Timestamp, COUNTER, INTERPOLATED, AF3, T7, Pz, T8, AF4, RAW_CQ, MARKER_HARDWARE, MARKERS
1628361915.9457, 33, 0, 4096.923, 4194.872, 4053.333, 4124.103, 4032.308, 0, 0, []
1628361915.9536, 34, 0, 4116.923, 4210.256, 4066.154, 4127.692, 4047.692, 0, 0, []
1628361915.9613, 35, 0, 4123.59, 4217.949, 4077.949, 4134.359, 4056.41, 0, 0, []
1628361915.9693, 36, 0, 4120.513, 4212.308, 4072.821, 4138.974, 4061.026, 0, 0, []
1628361915.9772, 37, 0, 4137.436, 4217.436, 4080, 4153.333, 4074.872, 0, 0, []
1628361915.9852, 38, 0, 4145.128, 4215.897, 4083.59, 4158.974, 4085.641, 0, 0, []
1628361915.9931, 39, 0, 4120.513, 4200, 4052.308, 4137.436, 4070.769, 0, 0, []
1628361916.001, 40, 0, 4104.615, 4205.641, 4035.897, 4111.282, 4046.667, 0, 0, []
1628361916.0089, 41, 0, 4114.359, 4220, 4039.487, 4102.564, 4046.667, 0, 0, []
1628361916.0169, 42, 0, 4123.59, 4207.692, 4046.667, 4108.718, 4055.385, 0, 0, []
1628361916.0248, 43, 0, 4130.769, 4194.359, 4056.41, 4118.462, 4065.128, 0, 0, []
1628361916.0328, 44, 0, 4139.487, 4207.692, 4061.538, 4125.641, 4076.923, 0, 0, []
1628361916.0406, 45, 0, 4138.462, 4225.128, 4067.692, 4129.744, 4068.718, 0, 0, []
1628361916.0484, 46, 0, 4132.308, 4229.231, 4055.897, 4123.59, 4051.282, 0, 0, []
1628361916.0563, 47, 0, 4135.897, 4232.308, 4046.667, 4114.359, 4050.256, 0, 0, []
1628361916.0641, 48, 0, 4138.974, 4232.821, 4050.769, 4107.179, 4045.128, 0, 0, []
1628361916.072, 49, 0, 4128.718, 4224.103, 4037.949, 4095.897, 4031.282, 0, 0, []
1628361916.0798, 50, 0, 4123.59, 4218.462, 4036.923, 4094.872, 4032.821, 0, 0, []
1628361916.0876, 51, 0, 4136.923, 4221.538, 4050.769, 4112.821, 4045.641, 0, 0, []
1628361916.0954, 52, 0, 4150.769, 4221.026, 4057.949, 4128.205, 4059.487, 0, 0, []
1628361916.1033, 53, 0, 4157.949, 4219.487, 4061.026, 4133.333, 4070.256, 0, 0, []
1628361916.1111, 54, 0, 4169.744, 4233.846, 4053.333, 4133.846, 4068.205, 0, 0, []
1628361916.1191, 55, 0, 4173.333, 4251.282, 4047.692, 4125.128, 4068.718, 0, 0, []
1628361916.1269, 56, 0, 4168.205, 4254.359, 4046.667, 4120, 4078.462, 0, 0, []
1628361916.1349, 57, 0, 4175.897, 4248.718, 4043.59, 4125.128, 4075.897, 0, 0, []
1628361916.1428, 58, 0, 4185.128, 4245.641, 4047.692, 4122.564, 4078.462, 0, 0, []
1628361916.1508, 59, 0, 4190.256, 4244.103, 4051.795, 4122.051, 4098.974, 0, 0, []
1628361916.1587, 60, 0, 4190.256, 4237.436, 4060, 4126.667, 4097.949, 0, 0, []
1628361916.1666, 61, 0, 4177.436, 4228.205, 4056.923, 4118.974, 4074.872, 0, 0, []
1628361916.1745, 62, 0, 4171.282, 4226.154, 4047.692, 4115.897, 4073.333, 0, 0, []
1628361916.1823, 63, 0, 4183.59, 4240.513, 4063.59, 4125.128, 4083.59, 0, 0, []
1628361916.1902, 64, 0, 4189.744, 4260.513, 4060.513, 4114.872, 4085.128, 450, 0, []
1628361916.198, 65, 0, 4183.59, 4250.256, 4051.795, 4102.051, 4089.231, 450, 0, []
1628361916.2058, 66, 0, 4184.615, 4229.231, 4066.154, 4112.308, 4089.744, 16192, 0, []
1628361916.2136, 67, 0, 4186.154, 4239.487, 4080, 4116.923, 4090.769, 450, 0, []
1628361916.2215, 68, 0, 4184.615, 4257.949, 4086.667, 4113.846, 4102.564, 16203, 0, []
1628361916.2293, 69, 0, 4180, 4246.154, 4063.077, 4113.846, 4096.41, 450, 0, []
1628361916.2372, 70, 0, 4172.308, 4231.795, 4050.256, 4110.256, 4080, 16103, 0, []
1628361916.2449, 71, 0, 4175.385, 4231.795, 4065.641, 4116.41, 4087.179, 450, 0, []
1628361916.2528, 72, 0, 4183.59, 4231.282, 4067.692, 4127.692, 4095.385, 450, 0, []
1628361916.2606, 73, 0, 4193.333, 4237.436, 4080.513, 4126.154, 4110.256, 16179, 0, []
1628361916.2686, 74, 0, 4212.308, 4245.641, 4088.718, 4127.692, 4141.026, 450, 0, []
1628361916.2765, 75, 0, 4218.462, 4236.41, 4076.41, 4135.897, 4150.256, 16201, 0, []
1628361916.2844, 76, 0, 4207.692, 4227.692, 4073.846, 4128.718, 4136.41, 450, 0, []
1628361916.2923, 77, 0, 4196.923, 4234.359, 4070.256, 4121.026, 4127.179, 450, 0, []
1628361916.3003, 78, 0, 4188.205, 4240.513, 4071.795, 4126.154, 4116.923, 450, 0, []
1628361916.3082, 79, 0, 4188.205, 4230.769, 4073.846, 4126.154, 4113.846, 16201, 0, []
1628361916.3162, 80, 0, 4197.436, 4214.872, 4083.59, 4118.462, 4132.821, 450, 0, []
1628361916.324, 81, 0, 4203.59, 4214.872, 4100, 4119.487, 4146.667, 450, 0, []
1628361916.332, 82, 0, 4205.128, 4230.769, 4086.154, 4125.641, 4142.051, 450, 0, []
1628361916.3399, 83, 0, 4203.59, 4235.897, 4088.205, 4117.949, 4137.949, 16201, 0, []
1628361916.3477, 84, 0, 4201.026, 4232.308, 4094.359, 4102.051, 4141.538, 450, 0, []
1628361916.3556, 85, 0, 4198.974, 4232.821, 4079.487, 4103.077, 4141.026, 450, 0, []
1628361916.3633, 86, 0, 4189.744, 4224.103, 4096.41, 4107.692, 4134.359, 450, 0, []
1628361916.3712, 87, 0, 4181.026, 4215.385, 4085.128, 4105.128, 4133.846, 16201, 0, []
1628361916.379, 88, 0, 4194.359, 4221.026, 4059.487, 4113.846, 4136.41, 450, 0, []
1628361916.3869, 89, 0, 4205.128, 4226.667, 4093.846, 4123.077, 4141.026, 450, 0, []
1628361916.3948, 90, 0, 4191.282, 4228.205, 4085.641, 4120, 4149.231, 450, 0, []
1628361916.4026, 91, 0, 4190.256, 4232.821, 4063.59, 4128.205, 4155.385, 16201, 0, []
1628361916.4105, 92, 0, 4204.103, 4235.385, 4097.949, 4134.872, 4155.897, 450, 0, []
1628361916.4184, 93, 0, 4197.949, 4225.641, 4089.231, 4124.103, 4154.872, 450, 0, []
1628361916.4262, 94, 0, 4188.205, 4214.359, 4052.821, 4118.974, 4153.333, 450, 0, []
1628361916.4342, 95, 0, 4197.436, 4214.872, 4065.641, 4116.41, 4151.795, 16201, 0, []
1628361916.4421, 96, 0, 4202.051, 4215.897, 4088.718, 4106.154, 4153.846, 450, 0, []
1628361916.45, 97, 0, 4198.462, 4214.872, 4069.231, 4108.205, 4155.385, 450, 0, []
1628361916.4579, 98, 0, 4209.231, 4221.538, 4076.41, 4125.128, 4161.026, 450, 0, []
1628361916.4659, 99, 0, 4222.051, 4229.744, 4106.667, 4133.333, 4173.333, 16201, 0, []
1628361916.4738, 100, 0, 4214.359, 4224.615, 4063.59, 4125.641, 4170.256, 450, 0, []
1628361916.4818, 101, 0, 4203.59, 4216.41, 4052.821, 4122.051, 4156.923, 450, 0, []
1628361916.4896, 102, 0, 4210.256, 4224.103, 4107.692, 4131.282, 4164.615, 450, 0, []
1628361916.4976, 103, 0, 4216.41, 4229.231, 4101.538, 4134.872, 4177.436, 16201, 0, []
1628361916.5055, 104, 0, 4210.256, 4225.128, 4076.923, 4134.359, 4175.385, 450, 0, []
1628361916.5133, 105, 0, 4212.821, 4233.846, 4078.462, 4141.026, 4175.385, 450, 0, []
1628361916.5212, 106, 0, 4226.667, 4238.462, 4097.949, 4146.154, 4187.692, 450, 0, []
1628361916.5289, 107, 0, 4233.333, 4236.41, 4114.359, 4146.154, 4190.769, 16201, 0, []
1628361916.5368, 108, 0, 4223.59, 4240, 4088.205, 4140.513, 4174.872, 450, 0, []
1628361916.5446, 109, 0, 4212.821, 4233.333, 4091.795, 4131.282, 4167.179, 450, 0, []
1628361916.5525, 110, 0, 4214.872, 4227.692, 4094.359, 4131.282, 4178.974, 450, 0, []
1628361916.5603, 111, 0, 4231.795, 4244.103, 4113.333, 4144.615, 4194.359, 16201, 0, []
1628361916.5681, 112, 0, 4242.051, 4249.231, 4140, 4150.769, 4201.538, 450, 0, []
1628361916.5759, 113, 0, 4233.846, 4239.487, 4084.103, 4140.513, 4199.487, 450, 0, []
1628361916.5839, 114, 0, 4229.744, 4245.128, 4087.179, 4138.462, 4204.103, 450, 0, []
1628361916.5918, 115, 0, 4243.59, 4252.308, 4112.821, 4148.718, 4210.769, 16201, 0, []
1628361916.5998, 116, 0, 4245.641, 4243.59, 4103.59, 4144.103, 4202.051, 450, 0, []
1628361916.6076, 117, 0, 4231.795, 4241.026, 4104.103, 4129.744, 4192.821, 450, 0, []
1628361916.6156, 118, 0, 4232.821, 4252.821, 4089.231, 4133.333, 4198.462, 450, 0, []
1628361916.6235, 119, 0, 4250.769, 4256.41, 4105.128, 4143.59, 4205.128, 16201, 0, []
1628361916.6315, 120, 0, 4261.538, 4251.282, 4097.949, 4140, 4208.718, 450, 0, []
1628361916.6394, 121, 0, 4251.795, 4243.077, 4090.256, 4137.436, 4211.795, 450, 0, []
1628361916.6473, 122, 0, 4234.359, 4234.872, 4100.513, 4142.051, 4203.59, 450, 0, []
1628361916.6552, 123, 0, 4227.692, 4233.333, 4086.154, 4136.41, 4184.615, 16201, 0, []
1628361916.663, 124, 0, 4234.872, 4238.462, 4106.154, 4129.231, 4184.103, 450, 0, []
1628361916.6709, 125, 0, 4238.974, 4240, 4098.462, 4130.769, 4197.949, 450, 0, []
1628361916.6787, 126, 0, 4233.333, 4230.769, 4088.718, 4133.333, 4197.949, 450, 0, []
1628361916.6865, 127, 0, 4236.41, 4224.103, 4100.513, 4132.821, 4183.077, 16201, 0, []
1628361916.6943, 128, 0, 4241.538, 4226.154, 4087.179, 4130.256, 4178.974, 450, 0, []
1628361916.7022, 0, 0, 4240.513, 4233.846, 4107.692, 4135.897, 4194.872, 450, 0, []
1628361916.71, 1, 0, 4238.974, 4233.846, 4105.641, 4138.974, 4200, 450, 0, []
1628361916.718, 2, 0, 4247.179, 4221.026, 4095.385, 4133.333, 4189.231, 16192, 0, []
1628361916.7258, 3, 0, 4257.949, 4217.949, 4107.179, 4136.923, 4194.359, 450, 0, []
1628361916.7338, 4, 0, 4258.974, 4226.667, 4090.769, 4142.564, 4208.205, 16173, 0, []
1628361916.7417, 5, 0, 4258.462, 4230.769, 4100, 4143.077, 4210.769, 450, 0, []
1628361916.7497, 6, 0, 4263.077, 4234.359, 4101.026, 4144.615, 4212.821, 16110, 0, []
1628361916.7576, 7, 0, 4270.769, 4240.513, 4101.026, 4145.128, 4225.128, 450, 0, []
1628361916.7655, 8, 0, 4276.923, 4234.359, 4103.59, 4142.051, 4229.231, 450, 0, []
1628361916.7734, 9, 0, 4281.026, 4223.59, 4078.974, 4141.026, 4224.615, 16174, 0, []
1628361916.7814, 10, 0, 4287.692, 4226.667, 4100, 4146.154, 4227.179, 450, 0, []
1628361916.7893, 11, 0, 4289.744, 4232.821, 4105.641, 4148.205, 4232.821, 16198, 0, []
1628361916.7973, 12, 0, 4292.308, 4230.769, 4095.897, 4146.154, 4246.667, 450, 0, []
1628361916.8052, 13, 0, 4315.385, 4223.077, 4106.667, 4148.205, 4275.385, 450, 0, []
1628361916.8129, 14, 0, 4359.487, 4219.487, 4088.718, 4153.333, 4312.308, 450, 0, []
1628361916.8208, 15, 0, 4409.744, 4221.538, 4096.923, 4161.026, 4363.077, 16198, 0, []
1628361916.8286, 16, 0, 4467.179, 4227.692, 4090.256, 4155.897, 4432.821, 0, 0, []
1628361916.8365, 17, 0, 4520.513, 4232.821, 4072.821, 4142.051, 4492.308, 0, 0, []
1628361916.8443, 18, 0, 4544.615, 4245.641, 4087.692, 4137.949, 4511.282, 0, 0, []
1628361916.8521, 19, 0, 4534.872, 4249.744, 4070.256, 4136.41, 4501.538, 0, 0, []
1628361916.8599, 20, 0, 4505.128, 4227.179, 4080, 4128.718, 4480, 0, 0, []
1628361916.8678, 21, 0, 4475.897, 4214.872, 4089.231, 4121.538, 4454.359, 0, 0, []
1628361916.8756, 22, 0, 4455.385, 4219.487, 4070.769, 4122.564, 4431.282, 0, 0, []
1628361916.8835, 23, 0, 4428.718, 4209.744, 4087.692, 4128.205, 4407.692, 0, 0, []
1628361916.8912, 24, 0, 4395.385, 4197.436, 4082.564, 4128.205, 4372.308, 0, 0, []
1628361916.8992, 25, 0, 4368.718, 4205.641, 4085.641, 4118.974, 4332.821, 0, 0, []
1628361916.9071, 26, 0, 4350.256, 4219.487, 4090.256, 4115.385, 4309.231, 0, 0, []
1628361916.9151, 27, 0, 4334.359, 4218.462, 4078.462, 4113.333, 4294.359, 0, 0, []
1628361916.923, 28, 0, 4328.205, 4206.667, 4101.026, 4107.179, 4282.564, 0, 0, []
1628361916.9309, 29, 0, 4324.103, 4198.462, 4092.821, 4109.744, 4272.821, 0, 0, []
1628361916.9388, 30, 0, 4316.923, 4201.026, 4102.051, 4124.615, 4269.744, 0, 0, []
1628361916.9468, 31, 0, 4306.667, 4204.615, 4117.949, 4129.231, 4262.564, 0, 0, []
1628361916.9547, 32, 0, 4295.385, 4209.744, 4087.179, 4120.513, 4247.692, 0, 0, []
1628361916.9625, 33, 0, 4288.205, 4221.538, 4094.872, 4121.026, 4243.077, 0, 0, []
1628361916.9703, 34, 0, 4275.897, 4226.154, 4091.795, 4119.487, 4234.872, 0, 0, []
1628361916.9781, 35, 0, 4263.077, 4217.949, 4084.103, 4110.256, 4214.872, 0, 0, []
1628361916.986, 36, 0, 4260, 4208.718, 4095.385, 4109.231, 4205.128, 0, 0, []
1628361916.9938, 37, 0, 4246.667, 4205.128, 4081.538, 4112.821, 4205.641, 0, 0, []
1628361917.0017, 38, 0, 4227.692, 4205.641, 4093.846, 4110.769, 4196.923, 0, 0, []
1628361917.0094, 39, 0, 4233.333, 4212.821, 4093.333, 4108.718, 4187.692, 0, 0, []
1628361917.0173, 40, 0, 4246.667, 4217.949, 4090.769, 4110.769, 4193.846, 0, 0, []
1628361917.0251, 41, 0, 4238.974, 4215.385, 4104.615, 4105.641, 4198.462, 0, 0, []
1628361917.0331, 42, 0, 4225.641, 4212.821, 4077.949, 4094.872, 4187.179, 0, 0, []
1628361917.041, 43, 0, 4227.179, 4213.333, 4083.59, 4100.513, 4181.026, 0, 0, []
1628361917.0489, 44, 0, 4237.949, 4223.077, 4091.282, 4114.359, 4192.821, 0, 0, []
1628361917.0568, 45, 0, 4246.667, 4226.667, 4085.641, 4115.897, 4206.154, 0, 0, []
1628361917.0648, 46, 0, 4250.256, 4211.282, 4096.923, 4120, 4206.667, 0, 0, []
1628361917.0727, 47, 0, 4250.256, 4204.103, 4072.821, 4127.179, 4198.974, 0, 0, []
1628361917.0807, 48, 0, 4251.795, 4212.308, 4080.513, 4120, 4200, 0, 0, []
1628361917.0885, 49, 0, 4251.282, 4212.308, 4096.41, 4112.821, 4210.256, 0, 0, []
1628361917.0965, 50, 0, 4249.231, 4206.154, 4094.359, 4122.564, 4211.795, 0, 0, []
1628361917.1044, 51, 0, 4249.231, 4210.256, 4101.026, 4127.179, 4200.513, 0, 0, []
1628361917.1124, 52, 0, 4248.205, 4216.923, 4077.949, 4114.359, 4197.949, 0, 0, []
1628361917.1203, 53, 0, 4244.615, 4214.359, 4094.359, 4111.795, 4207.179, 0, 0, []
1628361917.1281, 54, 0, 4235.897, 4203.59, 4103.59, 4120, 4204.103, 0, 0, []
1628361917.1359, 55, 0, 4232.308, 4196.41, 4088.205, 4118.462, 4196.41, 0, 0, []
1628361917.1437, 56, 0, 4233.846, 4206.667, 4116.923, 4112.308, 4203.59, 0, 0, []
1628361917.1516, 57, 0, 4230.769, 4214.359, 4101.026, 4105.128, 4202.051, 0, 0, []
1628361917.1594, 58, 0, 4229.231, 4204.103, 4087.692, 4100, 4182.051, 0, 0, []
1628361917.1673, 59, 0, 4230.256, 4201.538, 4100, 4099.487, 4174.872, 0, 0, []
1628361917.175, 60, 0, 4216.923, 4198.462, 4081.538, 4098.974, 4182.564, 0, 0, []
1628361917.1829, 61, 0, 4208.205, 4196.923, 4090.769, 4104.615, 4183.59, 0, 0, []
1628361917.1907, 62, 0, 4223.077, 4214.872, 4086.154, 4109.231, 4180.513, 0, 0, []
1628361917.1987, 63, 0, 4229.744, 4225.641, 4083.077, 4107.692, 4184.103, 0, 0, []
1628361917.2066, 64, 0, 4224.615, 4218.462, 4094.359, 4114.872, 4192.308, 450, 0, []
1628361917.2145, 65, 0, 4229.744, 4211.795, 4074.872, 4129.744, 4197.949, 450, 0, []
1628361917.2224, 66, 0, 4239.487, 4214.359, 4085.641, 4132.308, 4201.538, 16188, 0, []
1628361917.2304, 67, 0, 4233.846, 4224.615, 4089.744, 4121.538, 4204.103, 450, 0, []
1628361917.2383, 68, 0, 4226.667, 4230.769, 4089.744, 4119.487, 4204.103, 16173, 0, []
1628361917.2463, 69, 0, 4236.923, 4222.051, 4100, 4127.179, 4202.051, 450, 0, []
1628361917.2541, 70, 0, 4244.103, 4214.872, 4089.231, 4127.692, 4209.231, 16105, 0, []
1628361917.2621, 71, 0, 4239.487, 4228.205, 4108.718, 4126.154, 4218.462, 450, 0, []
1628361917.27, 72, 0, 4241.538, 4240, 4103.59, 4131.282, 4216.41, 450, 0, []
1628361917.278, 73, 0, 4252.821, 4231.795, 4096.923, 4134.872, 4214.359, 16174, 0, []
1628361917.2859, 74, 0, 4250.769, 4217.949, 4110.769, 4128.718, 4218.974, 450, 0, []
1628361917.2936, 75, 0, 4241.026, 4218.462, 4081.538, 4124.103, 4216.41, 16197, 0, []
1628361917.3015, 76, 0, 4243.59, 4226.667, 4089.231, 4127.179, 4206.667, 450, 0, []
1628361917.3093, 77, 0, 4245.641, 4227.179, 4100, 4121.538, 4203.077, 450, 0, []
1628361917.3172, 78, 0, 4241.538, 4225.128, 4091.282, 4110.769, 4208.718, 450, 0, []
1628361917.325, 79, 0, 4249.231, 4229.744, 4109.744, 4121.026, 4219.487, 16197, 0, []
1628361917.3328, 80, 0, 4251.795, 4231.795, 4108.718, 4134.872, 4213.846, 450, 0, []
1628361917.3406, 81, 0, 4245.128, 4231.795, 4124.103, 4129.231, 4202.564, 450, 0, []
1628361917.3485, 82, 0, 4255.385, 4233.333, 4112.308, 4114.872, 4208.205, 450, 0, []
1628361917.3563, 83, 0, 4278.462, 4228.718, 4084.103, 4111.282, 4216.923, 16197, 0, []
1628361917.3643, 84, 0, 4295.385, 4229.231, 4108.205, 4119.487, 4224.103, 450, 0, []
1628361917.3721, 85, 0, 4312.308, 4245.641, 4103.59, 4125.128, 4245.641, 450, 0, []
1628361917.3801, 86, 0, 4335.385, 4248.718, 4109.744, 4129.231, 4275.897, 450, 0, []
1628361917.388, 87, 0, 4359.487, 4230.256, 4114.872, 4130.256, 4292.821, 16197, 0, []
1628361917.396, 88, 0, 4387.692, 4217.436, 4097.949, 4127.179, 4316.923, 450, 0, []
1628361917.4039, 89, 0, 4416.923, 4226.667, 4118.462, 4130.256, 4353.846, 450, 0, []
1628361917.4117, 90, 0, 4433.333, 4238.974, 4105.641, 4127.179, 4371.282, 450, 0, []
1628361917.4197, 91, 0, 4450.256, 4237.436, 4106.667, 4117.436, 4377.436, 16197, 0, []
1628361917.4277, 92, 0, 4462.564, 4235.385, 4127.692, 4113.846, 4379.487, 450, 0, []
1628361917.4356, 93, 0, 4451.282, 4231.795, 4116.41, 4117.436, 4366.667, 450, 0, []
1628361917.4434, 94, 0, 4435.897, 4232.821, 4132.821, 4131.282, 4357.436, 450, 0, []
1628361917.4512, 95, 0, 4431.282, 4243.077, 4122.051, 4134.872, 4351.282, 16197, 0, []
1628361917.459, 96, 0, 4414.359, 4238.974, 4113.846, 4121.026, 4325.128, 450, 0, []
1628361917.4669, 97, 0, 4389.744, 4233.846, 4126.667, 4111.795, 4296.41, 450, 0, []
1628361917.4747, 98, 0, 4374.359, 4242.051, 4115.897, 4115.897, 4283.077, 450, 0, []
1628361917.4826, 99, 0, 4362.564, 4242.051, 4128.718, 4128.205, 4282.564, 16197, 0, []
1628361917.4904, 100, 0, 4357.436, 4233.846, 4113.846, 4140.513, 4284.615, 450, 0, []
1628361917.4982, 101, 0, 4353.333, 4243.59, 4106.667, 4144.103, 4272.308, 450, 0, []
1628361917.506, 102, 0, 4330.256, 4252.821, 4124.103, 4130.769, 4249.744, 450, 0, []
1628361917.514, 103, 0, 4298.974, 4243.077, 4103.077, 4114.359, 4235.897, 16197, 0, []
1628361917.5219, 104, 0, 4295.897, 4237.436, 4111.282, 4118.974, 4231.795, 450, 0, []
1628361917.5299, 105, 0, 4307.179, 4241.538, 4107.692, 4129.744, 4220.513, 450, 0, []
1628361917.5377, 106, 0, 4297.436, 4249.744, 4114.359, 4123.59, 4211.795, 450, 0, []
1628361917.5457, 107, 0, 4283.077, 4248.205, 4144.103, 4117.949, 4212.821, 16197, 0, []
1628361917.5536, 108, 0, 4287.179, 4235.385, 4125.641, 4127.692, 4215.385, 450, 0, []
1628361917.5616, 109, 0, 4300.513, 4235.897, 4142.564, 4141.026, 4222.051, 450, 0, []
1628361917.5695, 110, 0, 4293.333, 4237.949, 4137.949, 4134.872, 4214.359, 450, 0, []
1628361917.5773, 111, 0, 4269.231, 4231.282, 4096.41, 4123.077, 4194.872, 16197, 0, []
1628361917.5852, 112, 0, 4261.538, 4226.154, 4103.077, 4128.718, 4193.333, 450, 0, []
1628361917.593, 113, 0, 4268.718, 4221.026, 4106.154, 4135.897, 4197.949, 450, 0, []
1628361917.6009, 114, 0, 4267.179, 4215.385, 4123.077, 4128.718, 4191.282, 450, 0, []
1628361917.6087, 115, 0, 4258.462, 4216.923, 4115.385, 4124.615, 4191.282, 16197, 0, []
1628361917.6165, 116, 0, 4262.564, 4217.949, 4097.949, 4135.385, 4201.538, 450, 0, []
1628361917.6243, 117, 0, 4269.744, 4215.897, 4119.487, 4138.974, 4200, 450, 0, []
1628361917.6322, 118, 0, 4258.462, 4218.462, 4105.641, 4129.231, 4191.282, 450, 0, []
1628361917.64, 119, 0, 4249.744, 4215.385, 4110.769, 4127.692, 4191.795, 16197, 0, []
1628361917.6479, 120, 0, 4254.872, 4213.333, 4116.923, 4129.744, 4190.256, 450, 0, []
1628361917.6556, 121, 0, 4251.282, 4212.821, 4101.026, 4124.103, 4186.667, 450, 0, []
1628361917.6635, 122, 0, 4240, 4204.103, 4114.872, 4123.077, 4189.744, 450, 0, []
1628361917.6713, 123, 0, 4235.385, 4200, 4091.795, 4127.179, 4182.564, 16197, 0, []
1628361917.6793, 124, 0, 4238.462, 4204.103, 4096.923, 4128.718, 4170.769, 450, 0, []
1628361917.6872, 125, 0, 4243.59, 4206.154, 4118.462, 4128.205, 4180.513, 450, 0, []
1628361917.6951, 126, 0, 4236.923, 4201.538, 4096.923, 4131.282, 4186.154, 450, 0, []
1628361917.703, 127, 0, 4217.949, 4194.872, 4105.641, 4136.923, 4170.256, 16197, 0, []
1628361917.711, 128, 0, 4218.974, 4201.026, 4105.128, 4131.795, 4176.41, 450, 0, []
1628361917.7189, 0, 0, 4237.436, 4198.462, 4107.179, 4126.667, 4213.846, 450, 0, []
1628361917.7269, 1, 0, 4230.769, 4177.436, 4105.128, 4129.231, 4227.179, 450, 0, []
1628361917.7347, 2, 0, 4207.179, 4172.308, 4086.667, 4127.179, 4211.795, 16186, 0, []
1628361917.7425, 3, 0, 4200, 4182.564, 4108.205, 4127.692, 4200, 450, 0, []
1628361917.7504, 4, 0, 4197.436, 4182.051, 4090.769, 4133.846, 4187.692, 16173, 0, []
1628361917.7582, 5, 0, 4190.256, 4179.487, 4081.026, 4131.795, 4181.538, 450, 0, []
1628361917.7661, 6, 0, 4188.205, 4188.205, 4110.769, 4121.538, 4194.359, 16106, 0, []
1628361917.7738, 7, 0, 4187.692, 4189.744, 4088.205, 4117.436, 4195.897, 450, 0, []
1628361917.7817, 8, 0, 4187.692, 4186.154, 4092.308, 4117.436, 4187.179, 450, 0, []
1628361917.7895, 9, 0, 4191.795, 4188.718, 4107.179, 4114.872, 4192.308, 16174, 0, []
1628361917.7974, 10, 0, 4198.974, 4185.128, 4102.051, 4123.077, 4200, 450, 0, []
1628361917.8052, 11, 0, 4200.513, 4185.128, 4100, 4133.846, 4195.385, 16194, 0, []
1628361917.813, 12, 0, 4195.897, 4193.846, 4084.615, 4128.205, 4193.333, 450, 0, []
1628361917.8208, 13, 0, 4195.897, 4201.026, 4111.795, 4124.615, 4198.462, 450, 0, []
1628361917.8288, 14, 0, 4201.026, 4203.077, 4116.41, 4130.256, 4198.974, 450, 0, []
1628361917.8367, 15, 0, 4204.615, 4197.436, 4098.462, 4121.538, 4198.974, 16194, 0, []
1628361917.8447, 16, 0, 4199.487, 4195.385, 4112.821, 4112.308, 4197.949, 0, 0, []
1628361917.8526, 17, 0, 4196.923, 4203.59, 4101.538, 4120, 4187.692, 0, 0, []
1628361917.8605, 18, 0, 4200, 4198.974, 4113.333, 4122.564, 4178.462, 0, 0, []
1628361917.8684, 19, 0, 4196.923, 4187.179, 4115.897, 4118.974, 4176.41, 0, 0, []
1628361917.8764, 20, 0, 4194.872, 4193.846, 4106.154, 4127.692, 4180, 0, 0, []
1628361917.8843, 21, 0, 4206.154, 4201.538, 4131.795, 4132.308, 4193.846, 0, 0, []
1628361917.8923, 22, 0, 4215.385, 4198.462, 4111.282, 4118.462, 4201.026, 0, 0, []
1628361917.9001, 23, 0, 4215.385, 4198.462, 4106.667, 4117.949, 4193.333, 0, 0, []
1628361917.9079, 24, 0, 4218.462, 4197.436, 4117.436, 4130.769, 4190.256, 0, 0, []
1628361917.9158, 25, 0, 4216.41, 4193.846, 4104.103, 4124.615, 4200, 0, 0, []
1628361917.9236, 26, 0, 4211.795, 4201.538, 4116.41, 4118.462, 4205.641, 0, 0, []
1628361917.9315, 27, 0, 4213.333, 4205.641, 4102.564, 4124.103, 4194.872, 0, 0, []
1628361917.9392, 28, 0, 4215.897, 4201.538, 4108.205, 4124.615, 4192.308, 0, 0, []
1628361917.9471, 29, 0, 4215.385, 4197.949, 4117.436, 4121.538, 4201.026, 0, 0, []
1628361917.9549, 30, 0, 4212.308, 4193.846, 4088.205, 4116.41, 4201.026, 0, 0, []
1628361917.9628, 31, 0, 4209.744, 4195.385, 4098.974, 4107.692, 4193.333, 0, 0, []
1628361917.9706, 32, 0, 4197.436, 4192.308, 4091.795, 4104.615, 4181.026, 0, 0, []
1628361917.9785, 33, 0, 4185.641, 4178.974, 4088.718, 4120.513, 4175.385, 0, 0, []
1628361917.9864, 34, 0, 4190.769, 4183.59, 4104.615, 4133.333, 4191.795, 0, 0, []
1628361917.9944, 35, 0, 4196.923, 4196.41, 4092.308, 4128.205, 4203.077, 0, 0, []
1628361918.0023, 36, 0, 4190.256, 4187.179, 4104.103, 4129.744, 4190.769, 0, 0, []
1628361918.0103, 37, 0, 4183.59, 4167.692, 4092.308, 4132.308, 4187.179, 0, 0, []
1628361918.0181, 38, 0, 4177.949, 4163.077, 4083.59, 4123.59, 4193.333, 0, 0, []
1628361918.0261, 39, 0, 4172.821, 4177.436, 4091.282, 4115.897, 4181.026, 0, 0, []
1628361918.034, 40, 0, 4178.974, 4190.769, 4070.769, 4115.897, 4176.923, 0, 0, []
1628361918.042, 41, 0, 4188.718, 4186.667, 4089.231, 4118.462, 4193.333, 0, 0, []
1628361918.0499, 42, 0, 4190.769, 4186.154, 4087.692, 4121.026, 4198.462, 0, 0, []
1628361918.0578, 43, 0, 4192.308, 4199.487, 4080, 4124.103, 4195.385, 0, 0, []
1628361918.0657, 44, 0, 4190.256, 4203.077, 4098.462, 4126.667, 4201.026, 0, 0, []
1628361918.0735, 45, 0, 4185.641, 4190.769, 4077.949, 4124.103, 4196.41, 0, 0, []
1628361918.0814, 46, 0, 4183.077, 4182.051, 4081.026, 4114.872, 4187.179, 0, 0, []
1628361918.0892, 47, 0, 4183.59, 4183.59, 4082.051, 4115.385, 4189.744, 0, 0, []
1628361918.097, 48, 0, 4190.769, 4189.231, 4077.949, 4131.795, 4190.256, 0, 0, []
1628361918.1048, 49, 0, 4197.436, 4190.256, 4098.974, 4140.513, 4192.308, 0, 0, []
1628361918.1127, 50, 0, 4206.667, 4192.308, 4087.179, 4143.077, 4207.179, 0, 0, []
1628361918.1205, 51, 0, 4216.41, 4191.282, 4110.256, 4153.333, 4215.385, 0, 0, []
1628361918.1284, 52, 0, 4207.692, 4191.282, 4120.513, 4144.615, 4202.564, 0, 0, []
1628361918.1361, 53, 0, 4193.333, 4191.795, 4087.692, 4128.718, 4196.41, 0, 0, []
1628361918.1441, 54, 0, 4198.974, 4188.205, 4089.231, 4133.846, 4202.051, 0, 0, []
1628361918.152, 55, 0, 4205.128, 4191.282, 4082.051, 4131.282, 4201.538, 0, 0, []
1628361918.16, 56, 0, 4197.436, 4195.897, 4096.923, 4123.59, 4203.59, 0, 0, []
1628361918.1679, 57, 0, 4201.026, 4184.615, 4096.41, 4129.744, 4200.513, 0, 0, []
1628361918.1759, 58, 0, 4213.846, 4174.359, 4077.949, 4137.436, 4194.872, 0, 0, []
1628361918.1837, 59, 0, 4217.949, 4187.179, 4112.821, 4147.692, 4205.641, 0, 0, []
1628361918.1917, 60, 0, 4213.846, 4191.282, 4100, 4151.282, 4213.333, 0, 0, []
1628361918.1996, 61, 0, 4214.872, 4178.974, 4087.692, 4137.949, 4210.256, 0, 0, []
1628361918.2074, 62, 0, 4216.923, 4178.974, 4098.462, 4125.641, 4214.872, 0, 0, []
1628361918.2153, 63, 0, 4215.897, 4184.103, 4077.949, 4128.718, 4222.564, 0, 0, []
1628361918.223, 64, 0, 4216.41, 4178.462, 4086.667, 4134.872, 4216.923, 450, 0, []
1628361918.2309, 65, 0, 4211.282, 4177.436, 4085.641, 4134.872, 4209.744, 450, 0, []
1628361918.2387, 66, 0, 4215.385, 4190.256, 4096.923, 4144.103, 4218.462, 16186, 0, []
1628361918.2466, 67, 0, 4238.462, 4196.923, 4112.308, 4160.513, 4232.308, 450, 0, []
1628361918.2544, 68, 0, 4243.077, 4196.923, 4097.436, 4162.051, 4234.359, 16170, 0, []
1628361918.2622, 69, 0, 4224.103, 4200, 4114.359, 4148.718, 4226.667, 450, 0, []
1628361918.27, 70, 0, 4220.513, 4194.872, 4095.897, 4136.923, 4217.436, 16112, 0, []
1628361918.2779, 71, 0, 4231.282, 4183.077, 4080.513, 4133.333, 4217.436, 450, 0, []
1628361918.2857, 72, 0, 4239.487, 4197.436, 4112.308, 4140, 4234.872, 450, 0, []
1628361918.2937, 73, 0, 4248.205, 4216.923, 4108.718, 4154.359, 4250.256, 16173, 0, []
1628361918.3015, 74, 0, 4245.641, 4198.462, 4105.128, 4154.359, 4242.564, 450, 0, []
1628361918.3095, 75, 0, 4228.205, 4184.103, 4092.821, 4134.872, 4230.769, 16192, 0, []
1628361918.3174, 76, 0, 4226.154, 4192.308, 4093.846, 4128.718, 4229.231, 450, 0, []
1628361918.3254, 77, 0, 4238.974, 4190.256, 4103.077, 4135.385, 4225.128, 450, 0, []
1628361918.3333, 78, 0, 4228.718, 4185.128, 4067.692, 4125.641, 4213.846, 450, 0, []
1628361918.3412, 79, 0, 4210.769, 4195.385, 4081.026, 4117.436, 4206.154, 16192, 0, []
1628361918.3491, 80, 0, 4217.436, 4204.615, 4088.718, 4128.718, 4205.641, 450, 0, []
1628361918.3571, 81, 0, 4231.795, 4199.487, 4071.795, 4135.897, 4214.872, 450, 0, []
1628361918.365, 82, 0, 4231.795, 4195.897, 4099.487, 4133.846, 4222.564, 450, 0, []
1628361918.3728, 83, 0, 4228.205, 4198.974, 4097.949, 4131.795, 4216.923, 16192, 0, []
1628361918.3806, 84, 0, 4232.308, 4201.026, 4100.513, 4134.872, 4216.41, 450, 0, []
1628361918.3884, 85, 0, 4231.795, 4203.59, 4105.641, 4145.641, 4225.641, 450, 0, []
1628361918.3963, 86, 0, 4227.179, 4207.179, 4107.692, 4164.615, 4221.538, 450, 0, []
1628361918.4043, 87, 0, 4224.103, 4202.051, 4128.205, 4176.41, 4210.769, 16192, 0, []
1628361918.4122, 88, 0, 4218.462, 4185.641, 4097.436, 4157.436, 4206.667, 450, 0, []
1628361918.4199, 89, 0, 4214.872, 4183.59, 4101.026, 4139.487, 4207.179, 450, 0, []
1628361918.4278, 90, 0, 4218.462, 4202.564, 4125.128, 4145.128, 4204.615, 450, 0, []
1628361918.4356, 91, 0, 4215.385, 4205.641, 4108.718, 4138.974, 4201.538, 16192, 0, []
1628361918.4436, 92, 0, 4204.615, 4185.128, 4106.667, 4120, 4203.59, 450, 0, []
1628361918.4515, 93, 0, 4201.538, 4175.385, 4083.59, 4123.077, 4196.41, 450, 0, []
1628361918.4594, 94, 0, 4204.103, 4184.103, 4089.231, 4133.846, 4189.231, 450, 0, []
1628361918.4673, 95, 0, 4201.026, 4185.128, 4106.667, 4129.231, 4194.359, 16192, 0, []
1628361918.4753, 96, 0, 4202.051, 4185.128, 4092.821, 4132.308, 4193.846, 450, 0, []
1628361918.4832, 97, 0, 4216.41, 4197.436, 4120, 4142.051, 4193.333, 450, 0, []
1628361918.4912, 98, 0, 4226.667, 4197.949, 4111.282, 4131.795, 4207.179, 450, 0, []
1628361918.499, 99, 0, 4222.051, 4180.513, 4097.949, 4124.103, 4212.821, 16192, 0, []
1628361918.507, 100, 0, 4218.462, 4182.051, 4126.154, 4134.359, 4201.538, 450, 0, []
1628361918.5149, 101, 0, 4213.846, 4194.872, 4127.692, 4133.333, 4195.385, 450, 0, []
1628361918.5227, 102, 0, 4201.026, 4182.051, 4125.128, 4123.077, 4191.282, 450, 0, []
1628361918.5306, 103, 0, 4194.359, 4168.205, 4101.538, 4120, 4178.462, 16192, 0, []
1628361918.5384, 104, 0, 4200, 4181.538, 4109.744, 4120, 4182.051, 450, 0, []
1628361918.5462, 105, 0, 4204.103, 4189.231, 4133.333, 4118.462, 4190.769, 450, 0, []
1628361918.554, 106, 0, 4193.846, 4170.256, 4105.128, 4113.846, 4176.923, 450, 0, []
1628361918.5619, 107, 0, 4185.128, 4160, 4115.385, 4107.692, 4168.205, 16192, 0, []
1628361918.5697, 108, 0, 4188.718, 4172.821, 4107.179, 4108.718, 4181.538, 450, 0, []
1628361918.5776, 109, 0, 4193.333, 4170.769, 4080, 4120, 4190.769, 450, 0, []
1628361918.5853, 110, 0, 4185.641, 4152.821, 4095.385, 4121.026, 4186.667, 450, 0, []
1628361918.5932, 111, 0, 4179.487, 4156.41, 4089.744, 4107.692, 4182.564, 16192, 0, []
1628361918.601, 112, 0, 4183.077, 4166.667, 4098.462, 4106.667, 4177.436, 450, 0, []
1628361918.609, 113, 0, 4187.179, 4160, 4096.41, 4111.795, 4176.923, 450, 0, []
1628361918.6169, 114, 0, 4187.179, 4157.949, 4090.256, 4113.333, 4185.641, 450, 0, []
1628361918.6248, 115, 0, 4185.641, 4163.077, 4111.795, 4124.615, 4190.256, 16192, 0, []
1628361918.6327, 116, 0, 4185.128, 4165.641, 4097.949, 4131.282, 4187.179, 450, 0, []
1628361918.6407, 117, 0, 4184.615, 4166.154, 4102.051, 4120.513, 4188.205, 450, 0, []
1628361918.6486, 118, 0, 4183.59, 4167.179, 4095.385, 4110.256, 4190.769, 450, 0, []
1628361918.6566, 119, 0, 4185.641, 4164.103, 4073.846, 4114.359, 4187.692, 16192, 0, []
1628361918.6644, 120, 0, 4186.154, 4161.538, 4100.513, 4120, 4191.795, 450, 0, []
1628361918.6724, 121, 0, 4184.615, 4164.615, 4099.487, 4121.026, 4194.359, 450, 0, []
1628361918.6803, 122, 0, 4187.692, 4158.462, 4102.051, 4124.615, 4186.667, 450, 0, []
1628361918.6881, 123, 0, 4194.872, 4155.385, 4098.974, 4124.103, 4188.205, 16192, 0, []
1628361918.696, 124, 0, 4200, 4168.205, 4080, 4123.077, 4195.897, 450, 0, []
1628361918.7037, 125, 0, 4205.128, 4182.051, 4105.128, 4127.692, 4191.795, 450, 0, []
1628361918.7116, 126, 0, 4198.462, 4170.256, 4093.846, 4120.513, 4181.538, 450, 0, []
1628361918.7194, 127, 0, 4185.641, 4150.769, 4087.179, 4109.744, 4181.026, 16192, 0, []
1628361918.7273, 128, 0, 4190.256, 4156.41, 4094.359, 4114.359, 4180.513, 450, 0, []
1628361918.7351, 0, 0, 4193.333, 4157.436, 4075.897, 4115.897, 4180.513, 450, 0, []
1628361918.7429, 1, 0, 4186.667, 4151.795, 4101.026, 4112.821, 4189.744, 450, 0, []
1628361918.7507, 2, 0, 4199.487, 4164.615, 4104.103, 4124.615, 4198.462, 16186, 0, []
1628361918.7587, 3, 0, 4216.41, 4173.333, 4099.487, 4134.872, 4198.974, 450, 0, []
1628361918.7666, 4, 0, 4206.154, 4163.59, 4109.744, 4127.692, 4199.487, 16170, 0, []
1628361918.7746, 5, 0, 4194.872, 4162.564, 4090.769, 4116.923, 4198.462, 450, 0, []
1628361918.7824, 6, 0, 4200, 4167.692, 4107.179, 4113.846, 4193.846, 16110, 0, []
1628361918.7904, 7, 0, 4197.436, 4171.795, 4106.667, 4116.923, 4192.308, 450, 0, []
1628361918.7983, 8, 0, 4190.256, 4178.462, 4096.923, 4125.128, 4198.462, 450, 0, []
1628361918.8063, 9, 0, 4187.692, 4175.897, 4097.949, 4120.513, 4195.385, 16173, 0, []
1628361918.8142, 10, 0, 4188.205, 4174.872, 4074.872, 4111.795, 4190.769, 450, 0, []
1628361918.8221, 11, 0, 4208.718, 4192.308, 4100.513, 4132.308, 4210.256, 16192, 0, []
1628361918.83, 12, 0, 4229.744, 4200, 4107.692, 4147.692, 4225.128, 450, 0, []
1628361918.8378, 13, 0, 4222.051, 4177.436, 4093.846, 4129.744, 4216.41, 450, 0, []
1628361918.8457, 14, 0, 4216.923, 4167.179, 4112.821, 4127.179, 4216.923, 450, 0, []
1628361918.8535, 15, 0, 4221.538, 4181.538, 4096.41, 4145.641, 4217.949, 16192, 0, []
1628361918.8613, 16, 0, 4211.795, 4183.59, 4099.487, 4140.513, 4204.615, 0, 0, []
1628361918.8691, 17, 0, 4203.59, 4180, 4100, 4128.718, 4205.641, 0, 0, []
1628361918.877, 18, 0, 4212.821, 4180.513, 4087.179, 4129.231, 4213.846, 0, 0, []
1628361918.8848, 19, 0, 4217.436, 4174.359, 4104.615, 4122.564, 4207.692, 0, 0, []
1628361918.8927, 20, 0, 4214.359, 4169.231, 4096.923, 4120.513, 4207.179, 0, 0, []
1628361918.9005, 21, 0, 4216.923, 4168.205, 4107.179, 4135.385, 4213.333, 0, 0, []
1628361918.9083, 22, 0, 4216.923, 4168.205, 4104.615, 4136.41, 4210.769, 0, 0, []
1628361918.9161, 23, 0, 4210.256, 4192.821, 4092.308, 4126.154, 4211.282, 0, 0, []
1628361918.9241, 24, 0, 4215.897, 4243.59, 4114.359, 4133.846, 4221.026, 0, 0, []
1628361918.932, 25, 0, 4233.333, 4269.744, 4100.513, 4135.385, 4222.051, 0, 0, []
1628361918.94, 26, 0, 4243.59, 4263.59, 4120.513, 4127.179, 4228.205, 0, 0, []
1628361918.9478, 27, 0, 4242.051, 4252.308, 4133.846, 4134.359, 4238.974, 0, 0, []
1628361918.9558, 28, 0, 4252.821, 4248.205, 4089.744, 4146.154, 4244.615, 0, 0, []
1628361918.9637, 29, 0, 4281.538, 4252.821, 4098.462, 4154.359, 4262.564, 0, 0, []
1628361918.9717, 30, 0, 4302.051, 4252.308, 4108.205, 4144.615, 4288.718, 0, 0, []
1628361918.9796, 31, 0, 4324.615, 4240.513, 4110.769, 4125.641, 4315.897, 0, 0, []
1628361918.9875, 32, 0, 4385.641, 4246.154, 4116.923, 4129.744, 4365.128, 0, 0, []
1628361918.9954, 33, 0, 4452.821, 4256.923, 4110.769, 4142.564, 4422.564, 0, 0, []
1628361919.0032, 34, 0, 4491.282, 4243.077, 4126.154, 4128.205, 4456.923, 0, 0, []
1628361919.0111, 35, 0, 4530.769, 4228.205, 4113.333, 4116.41, 4489.231, 0, 0, []
1628361919.0189, 36, 0, 4582.564, 4235.385, 4132.821, 4154.359, 4540, 0, 0, []
1628361919.0267, 37, 0, 4613.333, 4248.205, 4171.282, 4197.949, 4575.897, 0, 0, []
1628361919.0345, 38, 0, 4615.385, 4254.872, 4143.59, 4193.333, 4580.513, 0, 0, []
1628361919.0424, 39, 0, 4602.051, 4250.769, 4125.128, 4160.513, 4572.308, 0, 0, []
1628361919.0502, 40, 0, 4593.846, 4245.128, 4099.487, 4134.359, 4559.487, 0, 0, []
1628361919.0581, 41, 0, 4606.667, 4255.385, 4093.333, 4119.487, 4557.436, 0, 0, []
1628361919.0658, 42, 0, 4618.974, 4264.615, 4113.846, 4101.538, 4564.103, 0, 0, []
1628361919.0738, 43, 0, 4617.949, 4259.487, 4115.385, 4084.103, 4562.051, 0, 0, []
1628361919.0817, 44, 0, 4628.718, 4258.974, 4160.513, 4095.385, 4566.667, 0, 0, []
1628361919.0897, 45, 0, 4644.103, 4257.436, 4167.179, 4117.949, 4585.128, 0, 0, []
1628361919.0976, 46, 0, 4653.846, 4247.692, 4141.538, 4127.179, 4600.513, 0, 0, []
1628361919.1055, 47, 0, 4664.103, 4244.615, 4150.769, 4139.487, 4606.667, 0, 0, []
1628361919.1134, 48, 0, 4664.615, 4250.769, 4124.615, 4149.231, 4599.487, 0, 0, []
1628361919.1214, 49, 0, 4658.974, 4255.897, 4115.385, 4135.385, 4578.974, 0, 0, []
1628361919.1293, 50, 0, 4665.128, 4266.667, 4124.103, 4122.564, 4571.282, 0, 0, []
1628361919.1373, 51, 0, 4675.897, 4273.846, 4143.077, 4135.385, 4583.59, 0, 0, []
1628361919.1451, 52, 0, 4682.051, 4265.128, 4174.359, 4149.744, 4590.769, 0, 0, []
1628361919.1531, 53, 0, 4682.564, 4261.026, 4148.205, 4149.231, 4590.256, 0, 0, []
1628361919.161, 54, 0, 4672.821, 4260, 4142.051, 4156.41, 4600.513, 0, 0, []
1628361919.1688, 55, 0, 4660.513, 4253.333, 4142.051, 4165.641, 4611.282, 0, 0, []
1628361919.1767, 56, 0, 4661.026, 4249.231, 4126.154, 4161.026, 4608.718, 0, 0, []
1628361919.1844, 57, 0, 4667.692, 4253.333, 4141.026, 4148.205, 4608.205, 0, 0, []
1628361919.1923, 58, 0, 4668.205, 4251.795, 4132.821, 4137.436, 4608.718, 0, 0, []
1628361919.2001, 59, 0, 4667.179, 4244.103, 4148.205, 4134.359, 4603.077, 0, 0, []
1628361919.208, 60, 0, 4669.231, 4247.692, 4170.256, 4143.59, 4606.667, 0, 0, []
1628361919.2158, 61, 0, 4658.462, 4250.769, 4162.564, 4159.487, 4614.872, 0, 0, []
1628361919.2237, 62, 0, 4634.872, 4234.872, 4166.154, 4163.59, 4603.077, 0, 0, []
1628361919.2314, 63, 0, 4612.308, 4216.41, 4143.077, 4149.231, 4576.41, 0, 0, []
1628361919.2394, 64, 0, 4602.051, 4222.564, 4141.026, 4134.872, 4562.051, 450, 0, []
1628361919.2473, 65, 0, 4606.667, 4238.462, 4134.872, 4121.538, 4560.513, 450, 0, []
1628361919.2553, 66, 0, 4618.974, 4231.282, 4122.564, 4109.744, 4570.256, 16174, 0, []
1628361919.2632, 67, 0, 4621.026, 4227.179, 4160, 4117.949, 4586.667, 450, 0, []
1628361919.2711, 68, 0, 4603.59, 4240.513, 4173.846, 4128.718, 4581.538, 16170, 0, []
1628361919.279, 69, 0, 4592.821, 4233.333, 4162.564, 4130.769, 4571.282, 450, 0, []
1628361919.287, 70, 0, 4583.59, 4214.872, 4114.872, 4130.256, 4565.641, 16108, 0, []
1628361919.2949, 71, 0, 4567.179, 4213.846, 4160.513, 4129.231, 4561.538, 450, 0, []
1628361919.3029, 72, 0, 4569.744, 4220.513, 4197.949, 4132.821, 4576.41, 450, 0, []
1628361919.3107, 73, 0, 4588.205, 4217.949, 4069.231, 4135.385, 4594.872, 16173, 0, []
1628361919.3185, 74, 0, 4588.718, 4212.308, 4126.667, 4130.769, 4595.385, 450, 0, []
1628361919.3264, 75, 0, 4570.769, 4217.949, 4168.205, 4116.923, 4580.513, 16190, 0, []
1628361919.3342, 76, 0, 4564.615, 4216.41, 4069.744, 4110.256, 4571.795, 450, 0, []
1628361919.3421, 77, 0, 4561.026, 4196.41, 4122.051, 4114.872, 4574.359, 450, 0, []
1628361919.3498, 78, 0, 4544.103, 4184.103, 4130.769, 4106.667, 4576.41, 450, 0, []
1628361919.3577, 79, 0, 4537.949, 4197.949, 4128.205, 4121.026, 4591.282, 16190, 0, []
1628361919.3655, 80, 0, 4553.846, 4228.718, 4180.513, 4161.538, 4618.974, 450, 0, []
1628361919.3734, 81, 0, 4565.128, 4236.41, 4176.923, 4165.641, 4629.744, 450, 0, []
1628361919.3812, 82, 0, 4557.436, 4221.538, 4157.436, 4140.513, 4618.462, 450, 0, []
1628361919.3891, 83, 0, 4545.641, 4216.41, 4132.821, 4133.333, 4608.205, 16190, 0, []
1628361919.397, 84, 0, 4535.385, 4210.769, 4144.103, 4135.897, 4610.256, 450, 0, []
1628361919.4049, 85, 0, 4528.205, 4194.359, 4148.718, 4133.846, 4612.821, 450, 0, []
1628361919.4128, 86, 0, 4522.564, 4186.667, 4133.333, 4132.308, 4610.769, 450, 0, []
1628361919.4207, 87, 0, 4504.615, 4187.179, 4148.205, 4128.718, 4606.154, 16190, 0, []
1628361919.4284, 88, 0, 4476.923, 4172.308, 4142.564, 4123.59, 4597.949, 450, 0, []
1628361919.4364, 89, 0, 4458.462, 4148.205, 4129.231, 4116.923, 4584.103, 450, 0, []
1628361919.4443, 90, 0, 4456.923, 4140, 4128.205, 4105.641, 4570.256, 450, 0, []
1628361919.4523, 91, 0, 4454.359, 4142.051, 4127.179, 4097.949, 4564.615, 16190, 0, []
1628361919.4602, 92, 0, 4446.154, 4141.538, 4130.256, 4095.385, 4558.462, 450, 0, []
1628361919.4679, 93, 0, 4439.487, 4138.462, 4104.103, 4089.744, 4548.718, 450, 0, []
1628361919.4758, 94, 0, 4425.128, 4131.282, 4086.154, 4083.077, 4544.615, 450, 0, []
1628361919.4836, 95, 0, 4403.59, 4117.436, 4091.282, 4080, 4547.692, 16190, 0, []
1628361919.4915, 96, 0, 4397.436, 4108.718, 4093.846, 4085.128, 4561.026, 450, 0, []
1628361919.4993, 97, 0, 4406.667, 4111.795, 4112.308, 4095.385, 4570.769, 450, 0, []
1628361919.5071, 98, 0, 4405.128, 4110.256, 4112.821, 4093.333, 4557.436, 450, 0, []
1628361919.5149, 99, 0, 4391.282, 4102.051, 4103.59, 4078.974, 4539.487, 16190, 0, []
1628361919.5228, 100, 0, 4375.897, 4093.333, 4104.615, 4067.692, 4537.436, 450, 0, []
1628361919.5306, 101, 0, 4366.667, 4092.821, 4090.769, 4070.769, 4534.872, 450, 0, []
1628361919.5386, 102, 0, 4364.615, 4104.103, 4094.359, 4089.744, 4525.128, 450, 0, []
1628361919.5464, 103, 0, 4358.974, 4110.256, 4094.872, 4096.41, 4515.897, 16190, 0, []
1628361919.5544, 104, 0, 4354.872, 4104.615, 4083.077, 4078.974, 4516.41, 450, 0, []
1628361919.5623, 105, 0, 4365.641, 4104.103, 4095.385, 4074.359, 4541.538, 450, 0, []
1628361919.5703, 106, 0, 4378.462, 4104.615, 4109.231, 4096.923, 4565.641, 450, 0, []
1628361919.5782, 107, 0, 4381.538, 4098.462, 4112.308, 4113.846, 4562.051, 16190, 0, []
1628361919.5862, 108, 0, 4385.128, 4094.359, 4110.256, 4117.436, 4556.923, 450, 0, []
1628361919.594, 109, 0, 4387.692, 4092.821, 4111.795, 4123.59, 4567.692, 450, 0, []
1628361919.602, 110, 0, 4379.487, 4089.231, 4099.487, 4123.077, 4568.205, 450, 0, []
1628361919.6099, 111, 0, 4367.692, 4094.872, 4056.41, 4109.744, 4561.026, 16190, 0, []
1628361919.6177, 112, 0, 4374.359, 4109.744, 4035.385, 4102.564, 4566.667, 450, 0, []
1628361919.6256, 113, 0, 4380, 4105.641, 4030.256, 4093.846, 4562.051, 450, 0, []
1628361919.6333, 114, 0, 4359.487, 4083.59, 4019.487, 4082.564, 4542.051, 450, 0, []
1628361919.6412, 115, 0, 4342.051, 4080, 4027.179, 4097.436, 4533.846, 16190, 0, []
1628361919.649, 116, 0, 4350.769, 4094.359, 4023.077, 4124.615, 4540.513, 450, 0, []
1628361919.6569, 117, 0, 4348.205, 4087.692, 4011.795, 4128.205, 4539.487, 450, 0, []
1628361919.6647, 118, 0, 4325.128, 4080, 4012.308, 4111.282, 4524.103, 450, 0, []
1628361919.6725, 119, 0, 4323.077, 4097.949, 4015.897, 4100.513, 4520.513, 16190, 0, []
1628361919.6803, 120, 0, 4335.897, 4103.077, 4035.385, 4101.538, 4530.769, 450, 0, []
1628361919.6883, 121, 0, 4338.974, 4090.769, 4044.615, 4103.59, 4537.436, 450, 0, []
1628361919.6962, 122, 0, 4345.641, 4097.436, 4035.897, 4094.359, 4533.846, 450, 0, []
1628361919.7042, 123, 0, 4346.667, 4111.795, 4020.513, 4078.974, 4523.59, 16190, 0, []
1628361919.712, 124, 0, 4335.385, 4107.692, 4003.59, 4080.513, 4518.462, 450, 0, []
1628361919.72, 125, 0, 4332.308, 4101.026, 4019.487, 4112.308, 4528.718, 450, 0, []
1628361919.7279, 126, 0, 4344.615, 4111.795, 4049.231, 4150.769, 4544.615, 450, 0, []
1628361919.7359, 127, 0, 4344.615, 4121.538, 4060.513, 4149.744, 4538.974, 16190, 0, []
1628361919.7438, 128, 0, 4332.308, 4120, 4053.333, 4118.462, 4522.564, 450, 0, []
1628361919.7517, 0, 0, 4334.359, 4125.128, 4036.923, 4108.205, 4526.667, 450, 0, []
1628361919.7596, 1, 0, 4354.872, 4137.436, 4038.974, 4122.564, 4544.103, 450, 0, []
1628361919.7676, 2, 0, 4373.333, 4140, 4041.538, 4132.821, 4547.692, 16187, 0, []
1628361919.7755, 3, 0, 4370.769, 4135.385, 4050.769, 4134.872, 4542.564, 450, 0, []
1628361919.7833, 4, 0, 4348.718, 4130.256, 4071.282, 4130.769, 4537.436, 16178, 0, []
1628361919.7911, 5, 0, 4332.308, 4123.59, 4061.538, 4122.051, 4526.667, 450, 0, []
1628361919.7989, 6, 0, 4336.41, 4122.051, 4047.692, 4121.538, 4514.359, 16106, 0, []
1628361919.8068, 7, 0, 4343.59, 4118.974, 4045.128, 4126.667, 4508.718, 450, 0, []
1628361919.8146, 8, 0, 4343.59, 4120, 4049.744, 4128.205, 4512.821, 450, 0, []
1628361919.8225, 9, 0, 4351.282, 4146.154, 4067.179, 4127.179, 4530.769, 16173, 0, []
1628361919.8302, 10, 0, 4360, 4167.179, 4075.897, 4134.359, 4543.077, 450, 0, []
1628361919.8381, 11, 0, 4356.41, 4148.718, 4081.026, 4149.231, 4534.872, 16184, 0, []
1628361919.8459, 12, 0, 4358.462, 4137.436, 4077.436, 4146.667, 4523.077, 450, 0, []
1628361919.8539, 13, 0, 4363.59, 4149.744, 4072.821, 4133.846, 4524.103, 450, 0, []
1628361919.8618, 14, 0, 4350.769, 4140.513, 4084.103, 4128.205, 4513.846, 450, 0, []
1628361919.8697, 15, 0, 4336.41, 4116.923, 4079.487, 4121.538, 4490.256, 16184, 0, []
1628361919.8776, 16, 0, 4335.385, 4115.385, 4075.897, 4121.538, 4480, 0, 0, []
1628361919.8856, 17, 0, 4336.923, 4125.128, 4087.179, 4135.897, 4480, 0, 0, []
1628361919.8935, 18, 0, 4333.846, 4125.128, 4085.128, 4139.487, 4472.308, 0, 0, []
1628361919.9015, 19, 0, 4333.846, 4120, 4085.128, 4138.974, 4471.282, 0, 0, []
1628361919.9093, 20, 0, 4333.333, 4123.59, 4090.769, 4158.974, 4481.026, 0, 0, []
1628361919.9173, 21, 0, 4332.308, 4132.308, 4096.41, 4180, 4475.897, 0, 0, []
1628361919.9252, 22, 0, 4324.615, 4131.282, 4094.872, 4176.41, 4451.282, 0, 0, []
1628361919.9332, 23, 0, 4310.769, 4121.026, 4088.205, 4152.308, 4443.077, 0, 0, []
1628361919.9411, 24, 0, 4312.308, 4121.538, 4093.333, 4131.795, 4456.41, 0, 0, []
1628361919.9489, 25, 0, 4320, 4125.128, 4089.744, 4135.385, 4455.385, 0, 0, []
1628361919.9567, 26, 0, 4313.846, 4121.026, 4085.128, 4142.051, 4434.359, 0, 0, []
1628361919.9645, 27, 0, 4306.667, 4124.103, 4091.282, 4134.359, 4430.256, 0, 0, []
1628361919.9724, 28, 0, 4309.744, 4131.795, 4100, 4142.051, 4450.256, 0, 0, []
1628361919.9802, 29, 0, 4323.077, 4125.128, 4111.282, 4159.487, 4460.513, 0, 0, []
1628361919.9881, 30, 0, 4336.41, 4120.513, 4097.949, 4147.179, 4452.308, 0, 0, []
1628361919.9958, 31, 0, 4330.256, 4131.282, 4080, 4120.513, 4435.385, 0, 0, []
1628361920.0038, 32, 0, 4322.564, 4141.538, 4096.41, 4115.897, 4430.256, 0, 0, []
1628361920.0117, 33, 0, 4329.231, 4143.59, 4111.795, 4132.308, 4440.513, 0, 0, []
1628361920.0197, 34, 0, 4318.462, 4138.462, 4112.308, 4146.667, 4436.41, 0, 0, []
1628361920.0276, 35, 0, 4293.333, 4125.641, 4092.821, 4137.436, 4414.872, 0, 0, []
1628361920.0355, 36, 0, 4284.615, 4115.385, 4063.59, 4112.821, 4399.487, 0, 0, []
1628361920.0434, 37, 0, 4274.359, 4111.282, 4058.974, 4106.154, 4385.641, 0, 0, []
1628361920.0514, 38, 0, 4252.821, 4110.256, 4067.692, 4111.795, 4368.718, 0, 0, []
1628361920.0593, 39, 0, 4243.59, 4115.897, 4078.462, 4107.179, 4364.615, 0, 0, []
1628361920.0673, 40, 0, 4244.615, 4125.641, 4073.333, 4105.641, 4370.769, 0, 0, []
1628361920.0751, 41, 0, 4242.051, 4123.077, 4057.436, 4116.41, 4370.769, 0, 0, []
1628361920.0829, 42, 0, 4243.077, 4122.051, 4072.821, 4131.282, 4363.59, 0, 0, []
1628361920.0908, 43, 0, 4247.179, 4134.359, 4099.487, 4139.487, 4365.641, 0, 0, []
1628361920.0986, 44, 0, 4248.205, 4136.923, 4112.308, 4140, 4381.026, 0, 0, []
1628361920.1065, 45, 0, 4250.769, 4125.641, 4112.821, 4138.974, 4386.667, 0, 0, []
1628361920.1142, 46, 0, 4251.282, 4124.615, 4107.692, 4140.513, 4373.333, 0, 0, []
1628361920.1221, 47, 0, 4239.487, 4127.179, 4104.615, 4138.462, 4365.641, 0, 0, []
1628361920.1299, 48, 0, 4229.744, 4114.872, 4093.333, 4134.872, 4371.795, 0, 0, []
1628361920.1378, 49, 0, 4236.41, 4111.282, 4090.256, 4138.462, 4371.282, 0, 0, []
1628361920.1456, 50, 0, 4236.41, 4124.615, 4095.385, 4131.282, 4350.769, 0, 0, []
1628361920.1535, 51, 0, 4211.282, 4120, 4093.846, 4118.462, 4325.641, 0, 0, []
1628361920.1614, 52, 0, 4203.077, 4103.077, 4105.641, 4129.744, 4322.051, 0, 0, []
1628361920.1694, 53, 0, 4214.872, 4100.513, 4103.59, 4138.462, 4324.103, 0, 0, []
1628361920.1773, 54, 0, 4209.744, 4101.026, 4082.564, 4123.077, 4318.974, 0, 0, []
1628361920.1853, 55, 0, 4205.128, 4100.513, 4076.923, 4123.59, 4321.026, 0, 0, []
1628361920.1931, 56, 0, 4213.846, 4114.872, 4080, 4133.333, 4311.795, 0, 0, []
1628361920.2011, 57, 0, 4210.256, 4124.615, 4088.205, 4124.103, 4296.923, 0, 0, []
1628361920.209, 58, 0, 4195.897, 4113.333, 4081.026, 4117.949, 4296.41, 0, 0, []
1628361920.217, 59, 0, 4187.179, 4095.897, 4061.538, 4115.897, 4285.128, 0, 0, []
1628361920.2249, 60, 0, 4182.564, 4088.205, 4070.256, 4110.256, 4271.282, 0, 0, []
1628361920.2328, 61, 0, 4191.795, 4095.385, 4101.026, 4126.667, 4291.282, 0, 0, []
1628361920.2407, 62, 0, 4205.641, 4107.692, 4125.641, 4147.692, 4303.077, 0, 0, []
1628361920.2485, 63, 0, 4201.026, 4107.692, 4113.846, 4136.923, 4290.769, 0, 0, []
1628361920.2564, 64, 0, 4197.949, 4103.59, 4100.513, 4129.744, 4302.051, 450, 0, []
1628361920.2642, 65, 0, 4202.564, 4109.231, 4106.667, 4145.641, 4312.821, 450, 0, []
1628361920.272, 66, 0, 4202.564, 4111.282, 4093.846, 4150.256, 4301.538, 16187, 0, []
1628361920.2798, 67, 0, 4202.564, 4108.205, 4095.897, 4148.205, 4308.205, 450, 0, []
1628361920.2877, 68, 0, 4206.154, 4110.256, 4107.692, 4152.821, 4318.462, 16177, 0, []
1628361920.2955, 69, 0, 4204.103, 4113.333, 4105.128, 4142.051, 4306.154, 450, 0, []
1628361920.3034, 70, 0, 4195.897, 4103.077, 4104.103, 4123.077, 4293.846, 16106, 0, []
1628361920.3112, 71, 0, 4187.692, 4100.513, 4092.308, 4115.385, 4284.103, 450, 0, []
1628361920.3191, 72, 0, 4176.923, 4116.41, 4087.692, 4108.718, 4272.821, 450, 0, []
1628361920.327, 73, 0, 4174.872, 4116.923, 4096.41, 4108.205, 4280.513, 16173, 0, []
1628361920.335, 74, 0, 4183.59, 4110.256, 4100.513, 4121.026, 4285.128, 450, 0, []
1628361920.3429, 75, 0, 4182.564, 4120.513, 4100.513, 4126.154, 4267.692, 16190, 0, []
1628361920.3509, 76, 0, 4178.974, 4115.385, 4092.821, 4130.256, 4258.974, 450, 0, []
1628361920.3587, 77, 0, 4189.231, 4095.385, 4098.462, 4150.256, 4269.744, 450, 0, []
1628361920.3667, 78, 0, 4182.051, 4105.128, 4098.462, 4153.333, 4268.718, 450, 0, []
1628361920.3746, 79, 0, 4152.821, 4118.462, 4080, 4125.641, 4245.641, 16190, 0, []
1628361920.3824, 80, 0, 4145.128, 4115.385, 4085.641, 4106.154, 4224.103, 450, 0, []
1628361920.3903, 81, 0, 4152.821, 4127.179, 4089.744, 4109.744, 4220, 450, 0, []
1628361920.398, 82, 0, 4150.256, 4141.026, 4077.949, 4118.974, 4228.718, 450, 0, []
1628361920.4059, 83, 0, 4152.821, 4134.872, 4081.026, 4128.205, 4233.846, 16190, 0, []
1628361920.4139, 84, 0, 4160.513, 4124.103, 4094.359, 4136.923, 4232.308, 450, 0, []
1628361920.4218, 85, 0, 4158.462, 4123.077, 4103.077, 4145.128, 4226.667, 450, 0, []
1628361920.4296, 86, 0, 4153.846, 4120, 4102.051, 4156.923, 4221.538, 450, 0, []
1628361920.4375, 87, 0, 4151.795, 4108.205, 4102.564, 4157.949, 4217.949, 16190, 0, []
1628361920.4454, 88, 0, 4156.923, 4101.026, 4090.769, 4143.077, 4214.872, 450, 0, []
1628361920.4534, 89, 0, 4175.385, 4111.282, 4073.846, 4128.718, 4229.231, 450, 0, []
1628361920.4613, 90, 0, 4190.769, 4121.026, 4086.154, 4131.795, 4254.359, 450, 0, []
1628361920.4693, 91, 0, 4192.308, 4123.077, 4092.308, 4137.949, 4255.385, 16190, 0, []
1628361920.4771, 92, 0, 4191.282, 4146.667, 4093.333, 4132.821, 4244.103, 450, 0, []
1628361920.4851, 93, 0, 4190.256, 4180.513, 4106.667, 4125.641, 4249.744, 450, 0, []
1628361920.493, 94, 0, 4172.308, 4185.128, 4096.41, 4123.59, 4232.308, 450, 0, []
1628361920.501, 95, 0, 4147.692, 4163.59, 4084.615, 4113.846, 4196.41, 16190, 0, []
1628361920.5089, 96, 0, 4154.359, 4156.41, 4076.923, 4100, 4201.538, 450, 0, []
1628361920.5168, 97, 0, 4186.154, 4174.359, 4072.308, 4106.154, 4228.718, 450, 0, []
1628361920.5247, 98, 0, 4190.769, 4187.179, 4092.308, 4122.564, 4231.795, 450, 0, []
1628361920.5325, 99, 0, 4170.256, 4185.128, 4111.795, 4120, 4214.359, 16190, 0, []
1628361920.5404, 100, 0, 4167.179, 4183.077, 4121.026, 4109.744, 4195.385, 450, 0, []
1628361920.5482, 101, 0, 4169.231, 4189.231, 4112.308, 4115.897, 4187.179, 450, 0, []
1628361920.556, 102, 0, 4159.487, 4195.385, 4107.179, 4132.821, 4191.795, 450, 0, []
1628361920.5638, 103, 0, 4147.692, 4196.923, 4114.872, 4131.282, 4181.538, 16190, 0, []
1628361920.5717, 104, 0, 4141.538, 4197.949, 4105.641, 4117.436, 4164.103, 450, 0, []
1628361920.5795, 105, 0, 4146.154, 4200, 4104.615, 4118.462, 4164.103, 450, 0, []
1628361920.5874, 106, 0, 4151.282, 4205.128, 4115.897, 4127.692, 4172.308, 450, 0, []
1628361920.5951, 107, 0, 4151.795, 4207.179, 4121.538, 4137.436, 4181.026, 16190, 0, []
1628361920.603, 108, 0, 4160, 4209.231, 4117.949, 4147.692, 4185.641, 450, 0, []
1628361920.6108, 109, 0, 4169.744, 4206.154, 4098.974, 4141.538, 4184.103, 450, 0, []
1628361920.6188, 110, 0, 4167.179, 4198.974, 4109.744, 4138.462, 4195.385, 450, 0, []
1628361920.6267, 111, 0, 4165.641, 4209.744, 4140.513, 4154.872, 4202.564, 16190, 0, []
1628361920.6347, 112, 0, 4171.795, 4218.974, 4140.513, 4153.846, 4189.744, 450, 0, []
1628361920.6425, 113, 0, 4174.359, 4204.615, 4131.795, 4137.949, 4182.051, 450, 0, []
1628361920.6505, 114, 0, 4170.769, 4195.385, 4117.949, 4139.487, 4176.923, 450, 0, []
1628361920.6584, 115, 0, 4166.154, 4198.974, 4098.462, 4135.385, 4167.179, 16190, 0, []
1628361920.6664, 116, 0, 4165.128, 4196.41, 4087.179, 4118.974, 4170.256, 450, 0, []
1628361920.6743, 117, 0, 4170.769, 4195.897, 4082.051, 4117.436, 4176.41, 450, 0, []
1628361920.6822, 118, 0, 4176.923, 4204.103, 4092.308, 4120, 4174.872, 450, 0, []
1628361920.6901, 119, 0, 4183.59, 4200.513, 4096.923, 4126.667, 4181.538, 16190, 0, []
1628361920.6979, 120, 0, 4188.205, 4195.385, 4102.051, 4141.538, 4185.128, 450, 0, []
1628361920.7058, 121, 0, 4191.795, 4207.179, 4122.564, 4143.59, 4183.077, 450, 0, []
1628361920.7136, 122, 0, 4202.564, 4220, 4130.256, 4138.462, 4191.282, 450, 0, []
1628361920.7214, 123, 0, 4205.641, 4220.513, 4121.538, 4136.923, 4185.641, 16190, 0, []
1628361920.7292, 124, 0, 4192.308, 4212.821, 4107.692, 4124.615, 4169.231, 450, 0, []
1628361920.7371, 125, 0, 4184.615, 4202.564, 4105.641, 4121.026, 4171.282, 450, 0, []
1628361920.7449, 126, 0, 4184.103, 4197.949, 4109.744, 4136.923, 4173.846, 450, 0, []
1628361920.7528, 127, 0, 4182.564, 4202.564, 4107.179, 4141.026, 4169.231, 16190, 0, []
1628361920.7605, 128, 0, 4183.59, 4207.692, 4114.359, 4136.923, 4168.718, 450, 0, []
1628361920.7685, 0, 0, 4182.051, 4211.282, 4100, 4135.897, 4161.026, 450, 0, []
1628361920.7764, 1, 0, 4170.256, 4222.564, 4081.026, 4132.821, 4160, 450, 0, []
1628361920.7844, 2, 0, 4163.077, 4239.487, 4106.667, 4142.051, 4174.872, 16187, 0, []
1628361920.7923, 3, 0, 4170.256, 4243.59, 4133.846, 4158.462, 4169.231, 450, 0, []
1628361920.8002, 4, 0, 4171.282, 4219.487, 4137.436, 4151.282, 4153.333, 16170, 0, []
1628361920.8081, 5, 0, 4164.103, 4197.436, 4121.026, 4143.077, 4154.359, 450, 0, []
1628361920.8161, 6, 0, 4156.41, 4197.949, 4115.385, 4148.205, 4141.538, 16103, 0, []
1628361920.824, 7, 0, 4144.103, 4202.564, 4132.308, 4148.205, 4126.154, 450, 0, []
1628361920.832, 8, 0, 4145.128, 4203.077, 4133.846, 4146.667, 4134.359, 450, 0, []
1628361920.8398, 9, 0, 4149.744, 4194.359, 4136.41, 4145.128, 4133.333, 16173, 0, []
1628361920.8478, 10, 0, 4133.333, 4181.026, 4140, 4136.923, 4111.282, 450, 0, []
1628361920.8557, 11, 0, 4123.077, 4187.179, 4129.231, 4132.308, 4102.564, 16190, 0, []
1628361920.8635, 12, 0, 4140, 4203.59, 4129.231, 4127.179, 4108.718, 450, 0, []
1628361920.8714, 13, 0, 4147.692, 4200.513, 4131.282, 4117.949, 4112.821, 450, 0, []
1628361920.8791, 14, 0, 4135.385, 4198.462, 4138.974, 4128.205, 4107.692, 450, 0, []
1628361920.887, 15, 0, 4135.385, 4218.462, 4149.744, 4142.564, 4101.538, 16190, 0, []
1628361920.8948, 16, 0, 4143.59, 4223.077, 4141.538, 4135.897, 4105.641, 0, 0, []
1628361920.9027, 17, 0, 4142.564, 4206.154, 4127.179, 4125.641, 4100, 0, 0, []
1628361920.9105, 18, 0, 4135.385, 4206.667, 4128.205, 4120.513, 4088.205, 0, 0, []
1628361920.9183, 19, 0, 4135.897, 4228.718, 4156.41, 4126.154, 4101.538, 0, 0, []
1628361920.9261, 20, 0, 4145.128, 4236.41, 4167.179, 4143.077, 4112.308, 0, 0, []
1628361920.9341, 21, 0, 4150.769, 4220.513, 4151.282, 4149.231, 4102.051, 0, 0, []
1628361920.942, 22, 0, 4160.513, 4209.744, 4165.128, 4154.872, 4110.256, 0, 0, []
1628361920.95, 23, 0, 4174.359, 4215.385, 4177.436, 4172.821, 4129.231, 0, 0, []
1628361920.9578, 24, 0, 4168.205, 4220, 4165.128, 4183.077, 4131.795, 0, 0, []
1628361920.9658, 25, 0, 4153.333, 4214.359, 4140.513, 4169.231, 4119.487, 0, 0, []
1628361920.9737, 26, 0, 4150.256, 4208.205, 4114.872, 4143.59, 4100.513, 0, 0, []
1628361920.9817, 27, 0, 4145.641, 4214.872, 4116.41, 4130.769, 4090.769, 0, 0, []
1628361920.9896, 28, 0, 4137.949, 4232.308, 4125.641, 4132.308, 4094.359, 0, 0, []
1628361920.9976, 29, 0, 4139.487, 4234.872, 4130.256, 4129.744, 4091.282, 0, 0, []
1628361921.0054, 30, 0, 4142.564, 4221.538, 4136.923, 4121.538, 4085.641, 0, 0, []
1628361921.0132, 31, 0, 4135.897, 4211.282, 4134.359, 4117.949, 4088.718, 0, 0, []
1628361921.0211, 32, 0, 4126.154, 4209.231, 4138.462, 4109.744, 4089.231, 0, 0, []
1628361921.0289, 33, 0, 4129.231, 4201.538, 4136.923, 4098.462, 4094.359, 0, 0, []
1628361921.0368, 34, 0, 4141.538, 4185.641, 4130.256, 4102.051, 4105.641, 0, 0, []
1628361921.0445, 35, 0, 4142.564, 4184.615, 4143.077, 4113.333, 4113.333, 0, 0, []
1628361921.0524, 36, 0, 4139.487, 4199.487, 4147.179, 4122.564, 4116.41, 0, 0, []
1628361921.0602, 37, 0, 4142.051, 4206.667, 4139.487, 4126.154, 4108.205, 0, 0, []
1628361921.0681, 38, 0, 4134.359, 4202.564, 4131.795, 4122.564, 4096.923, 0, 0, []
1628361921.0759, 39, 0, 4118.974, 4204.615, 4129.744, 4115.385, 4087.179, 0, 0, []
1628361921.0838, 40, 0, 4110.256, 4204.615, 4128.205, 4107.179, 4073.333, 0, 0, []
1628361921.0917, 41, 0, 4101.026, 4196.923, 4105.641, 4103.077, 4058.462, 0, 0, []
1628361921.0997, 42, 0, 4094.872, 4200.513, 4102.051, 4103.59, 4053.846, 0, 0, []
1628361921.1076, 43, 0, 4093.846, 4205.641, 4115.897, 4103.077, 4059.487, 0, 0, []
1628361921.1156, 44, 0, 4097.949, 4202.564, 4120.513, 4110.256, 4067.692, 0, 0, []
1628361921.1234, 45, 0, 4108.205, 4196.923, 4136.41, 4120, 4073.333, 0, 0, []
1628361921.1314, 46, 0, 4121.026, 4202.051, 4143.59, 4122.051, 4081.538, 0, 0, []
1628361921.1393, 47, 0, 4132.308, 4209.231, 4134.359, 4120.513, 4090.769, 0, 0, []
1628361921.1473, 48, 0, 4140, 4204.103, 4128.718, 4120, 4096.923, 0, 0, []
1628361921.1552, 49, 0, 4147.692, 4203.59, 4136.923, 4127.692, 4105.641, 0, 0, []
1628361921.1629, 50, 0, 4155.897, 4220.513, 4150.769, 4149.231, 4112.821, 0, 0, []
1628361921.1708, 51, 0, 4157.949, 4222.564, 4143.077, 4163.077, 4113.846, 0, 0, []
1628361921.1786, 52, 0, 4144.615, 4197.949, 4138.462, 4152.308, 4105.641, 0, 0, []
1628361921.1865, 53, 0, 4128.718, 4189.744, 4142.564, 4140.513, 4084.103, 0, 0, []
1628361921.1943, 54, 0, 4123.59, 4201.026, 4135.385, 4138.462, 4076.41, 0, 0, []
1628361921.2021, 55, 0, 4120.513, 4201.538, 4137.949, 4138.462, 4088.205, 0, 0, []
1628361921.2099, 56, 0, 4116.923, 4195.385, 4137.949, 4137.949, 4083.59, 0, 0, []
1628361921.2178, 57, 0, 4118.462, 4191.795, 4126.667, 4136.41, 4072.821, 0, 0, []
1628361921.2256, 58, 0, 4122.564, 4196.923, 4111.282, 4137.949, 4078.974, 0, 0, []
1628361921.2335, 59, 0, 4118.462, 4195.897, 4094.872, 4134.359, 4082.564, 0, 0, []
1628361921.2412, 60, 0, 4122.051, 4188.205, 4112.821, 4135.385, 4085.128, 0, 0, []
1628361921.2492, 61, 0, 4139.487, 4204.103, 4134.359, 4147.179, 4097.949, 0, 0, []
1628361921.2571, 62, 0, 4143.59, 4221.538, 4132.308, 4147.179, 4105.128, 0, 0, []
1628361921.2651, 63, 0, 4142.564, 4209.231, 4138.462, 4153.333, 4108.205, 0, 0, []
1628361921.273, 64, 0, 4157.949, 4211.282, 4142.564, 4171.795, 4111.282, 450, 0, []
1628361921.2809, 65, 0, 4165.128, 4224.615, 4133.846, 4168.205, 4108.718, 450, 0, []
1628361921.2888, 66, 0, 4158.974, 4204.103, 4115.385, 4151.795, 4110.769, 16187, 0, []
1628361921.2968, 67, 0, 4157.436, 4183.59, 4107.692, 4147.692, 4105.128, 450, 0, []
1628361921.3047, 68, 0, 4147.179, 4184.615, 4106.154, 4132.308, 4085.641, 16169, 0, []
1628361921.3125, 69, 0, 4136.923, 4177.949, 4092.821, 4114.359, 4081.026, 450, 0, []
1628361921.3203, 70, 0, 4147.692, 4167.692, 4087.179, 4123.077, 4090.256, 16109, 0, []
1628361921.3281, 71, 0, 4154.872, 4165.641, 4077.949, 4125.641, 4089.744, 450, 0, []
1628361921.336, 72, 0, 4150.256, 4173.846, 4077.436, 4124.615, 4090.256, 450, 0, []
1628361921.3438, 73, 0, 4156.41, 4194.359, 4104.103, 4147.179, 4102.564, 16173, 0, []
1628361921.3517, 74, 0, 4161.538, 4196.923, 4117.436, 4157.949, 4109.744, 450, 0, []
1628361921.3595, 75, 0, 4148.718, 4176.41, 4124.103, 4144.615, 4105.641, 16192, 0, []
1628361921.3673, 76, 0, 4145.641, 4174.872, 4130.769, 4146.154, 4104.103, 450, 0, []
1628361921.3751, 77, 0, 4153.333, 4186.667, 4124.615, 4154.872, 4102.564, 450, 0, []
1628361921.383, 78, 0, 4152.308, 4178.974, 4120.513, 4147.692, 4094.872, 450, 0, []
1628361921.3908, 79, 0, 4141.026, 4163.59, 4107.179, 4135.897, 4086.154, 16192, 0, []
1628361921.3987, 80, 0, 4121.538, 4171.282, 4097.949, 4123.59, 4074.359, 450, 0, []
1628361921.4065, 81, 0, 4113.333, 4186.667, 4100.513, 4114.872, 4058.974, 450, 0, []
1628361921.4144, 82, 0, 4126.154, 4187.179, 4105.128, 4116.41, 4060, 450, 0, []
1628361921.4222, 83, 0, 4140, 4188.718, 4122.051, 4121.026, 4077.949, 16192, 0, []
1628361921.4302, 84, 0, 4138.462, 4192.308, 4122.564, 4125.128, 4076.923, 450, 0, []
1628361921.4381, 85, 0, 4139.487, 4187.179, 4122.051, 4135.897, 4072.821, 450, 0, []
1628361921.446, 86, 0, 4151.282, 4189.744, 4140, 4144.615, 4089.231, 450, 0, []
1628361921.4539, 87, 0, 4153.333, 4205.641, 4142.051, 4144.615, 4090.769, 16192, 0, []
1628361921.4619, 88, 0, 4136.923, 4203.59, 4132.821, 4136.41, 4069.744, 450, 0, []
1628361921.4698, 89, 0, 4116.41, 4187.692, 4121.538, 4116.923, 4051.282, 450, 0, []
1628361921.4776, 90, 0, 4108.205, 4186.667, 4122.564, 4109.231, 4038.974, 450, 0, []
1628361921.4854, 91, 0, 4098.974, 4185.128, 4120, 4117.436, 4030.256, 16192, 0, []
1628361921.4932, 92, 0, 4082.564, 4169.744, 4100, 4114.359, 4025.641, 450, 0, []
1628361921.5011, 93, 0, 4082.051, 4163.077, 4103.59, 4104.615, 4028.205, 450, 0, []
1628361921.5089, 94, 0, 4096.41, 4171.282, 4116.41, 4103.077, 4034.872, 450, 0, []
1628361921.5168, 95, 0, 4113.333, 4179.487, 4118.462, 4106.667, 4043.077, 16192, 0, []
1628361921.5245, 96, 0, 4130.769, 4192.308, 4120, 4112.821, 4060.513, 450, 0, []
1628361921.5324, 97, 0, 4141.538, 4207.179, 4117.436, 4127.179, 4074.872, 450, 0, []
1628361921.5402, 98, 0, 4141.538, 4206.667, 4129.231, 4141.026, 4068.205, 450, 0, []
1628361921.5482, 99, 0, 4131.795, 4200, 4138.462, 4144.615, 4056.923, 16192, 0, []
1628361921.5561, 100, 0, 4114.359, 4199.487, 4123.077, 4132.308, 4046.154, 450, 0, []
1628361921.564, 101, 0, 4096.41, 4196.41, 4104.615, 4107.692, 4025.128, 450, 0, []
1628361921.5719, 102, 0, 4078.974, 4196.923, 4093.333, 4094.872, 4006.154, 450, 0, []
1628361921.5799, 103, 0, 4061.538, 4196.923, 4101.026, 4091.795, 3994.872, 16192, 0, []
1628361921.5878, 104, 0, 4060, 4184.103, 4100, 4088.718, 3991.282, 450, 0, []
1628361921.5958, 105, 0, 4078.462, 4178.974, 4089.744, 4099.487, 4005.641, 450, 0, []
1628361921.6036, 106, 0, 4098.974, 4191.795, 4104.103, 4122.051, 4023.59, 450, 0, []
1628361921.6116, 107, 0, 4115.897, 4198.974, 4119.487, 4133.333, 4034.359, 16192, 0, []
1628361921.6195, 108, 0, 4128.205, 4202.564, 4125.128, 4137.436, 4047.179, 450, 0, []
1628361921.6275, 109, 0, 4134.872, 4215.897, 4130.256, 4145.641, 4059.487, 450, 0, []
1628361921.6354, 110, 0, 4142.564, 4224.103, 4130.769, 4151.795, 4067.179, 450, 0, []
1628361921.6431, 111, 0, 4142.051, 4212.821, 4125.128, 4145.641, 4063.59, 16192, 0, []
1628361921.651, 112, 0, 4129.744, 4206.667, 4108.718, 4129.231, 4050.769, 450, 0, []
1628361921.6588, 113, 0, 4129.231, 4219.487, 4109.231, 4122.051, 4046.667, 450, 0, []
1628361921.6667, 114, 0, 4137.949, 4221.026, 4121.538, 4126.154, 4044.103, 450, 0, []
1628361921.6745, 115, 0, 4130.769, 4200.513, 4123.59, 4126.154, 4036.923, 16192, 0, []
1628361921.6824, 116, 0, 4122.564, 4195.897, 4127.692, 4127.179, 4040, 450, 0, []
1628361921.6901, 117, 0, 4126.667, 4214.872, 4125.128, 4127.692, 4052.308, 450, 0, []
1628361921.698, 118, 0, 4123.59, 4208.718, 4122.564, 4118.462, 4049.231, 450, 0, []
1628361921.7058, 119, 0, 4118.974, 4192.821, 4113.846, 4108.205, 4031.282, 16192, 0, []
1628361921.7138, 120, 0, 4129.231, 4205.128, 4088.718, 4104.103, 4030.769, 450, 0, []
1628361921.7217, 121, 0, 4140, 4219.487, 4092.821, 4107.692, 4051.795, 450, 0, []
1628361921.7296, 122, 0, 4147.179, 4217.436, 4119.487, 4130.256, 4064.615, 450, 0, []
1628361921.7375, 123, 0, 4156.923, 4228.718, 4146.667, 4156.41, 4071.795, 16192, 0, []
1628361921.7455, 124, 0, 4161.026, 4247.692, 4157.436, 4153.846, 4080, 450, 0, []
1628361921.7534, 125, 0, 4146.667, 4236.41, 4138.462, 4127.692, 4062.564, 450, 0, []
1628361921.7614, 126, 0, 4119.487, 4208.718, 4128.718, 4114.872, 4028.718, 450, 0, []
1628361921.7692, 127, 0, 4108.205, 4197.949, 4123.077, 4119.487, 4024.615, 16192, 0, []
1628361921.7772, 128, 0, 4110.769, 4200, 4114.872, 4112.821, 4035.897, 450, 0, []
1628361921.7851, 0, 0, 4112.308, 4198.462, 4119.487, 4105.641, 4035.385, 450, 0, []
1628361921.7929, 1, 0, 4120.513, 4197.949, 4122.564, 4116.41, 4038.462, 450, 0, []
1628361921.8008, 2, 0, 4132.821, 4197.949, 4124.615, 4126.154, 4057.949, 16188, 0, []
1628361921.8085, 3, 0, 4148.718, 4197.436, 4126.667, 4130.256, 4086.154, 450, 0, []
1628361921.8164, 4, 0, 4164.615, 4211.282, 4137.436, 4137.436, 4092.821, 16165, 0, []
1628361921.8242, 5, 0, 4147.692, 4219.487, 4142.051, 4133.333, 4068.718, 450, 0, []
1628361921.8321, 6, 0, 4112.821, 4206.667, 4115.897, 4111.795, 4048.205, 16125, 0, []
1628361921.8399, 7, 0, 4106.154, 4199.487, 4107.179, 4100.513, 4049.231, 450, 0, []
1628361921.8477, 8, 0, 4098.974, 4195.385, 4110.256, 4096.41, 4041.538, 450, 0, []
1628361921.8555, 9, 0, 4067.179, 4181.026, 4100.513, 4089.744, 4017.436, 16173, 0, []
1628361921.8635, 10, 0, 4057.949, 4172.821, 4110.769, 4097.436, 4011.795, 450, 0, []
1628361921.8714, 11, 0, 4073.333, 4183.077, 4118.974, 4106.667, 4016.923, 16192, 0, []
1628361921.8794, 12, 0, 4080, 4195.385, 4112.821, 4104.103, 4016.41, 450, 0, []
1628361921.8872, 13, 0, 4081.538, 4197.949, 4110.256, 4112.308, 4021.026, 450, 0, []
1628361921.8952, 14, 0, 4081.538, 4189.231, 4108.205, 4129.231, 4028.718, 450, 0, []
1628361921.9031, 15, 0, 4073.846, 4180.513, 4103.077, 4121.538, 4019.487, 16192, 0, []
1628361921.9111, 16, 0, 4068.718, 4193.333, 4094.359, 4103.59, 4010.769, 0, 0, []
1628361921.919, 17, 0, 4074.359, 4213.333, 4109.231, 4107.692, 4028.718, 0, 0, []
1628361921.9269, 18, 0, 4076.41, 4220, 4121.538, 4111.795, 4032.821, 0, 0, []
1628361921.9348, 19, 0, 4072.308, 4212.821, 4112.821, 4104.615, 4009.744, 0, 0, []
1628361921.9428, 20, 0, 4064.615, 4196.41, 4109.231, 4102.564, 3997.436, 0, 0, []
1628361921.9507, 21, 0, 4049.744, 4185.128, 4095.385, 4105.128, 3998.974, 0, 0, []
1628361921.9586, 22, 0, 4035.897, 4185.641, 4087.179, 4103.077, 3987.179, 0, 0, []
1628361921.9664, 23, 0, 4031.795, 4183.077, 4092.308, 4100.513, 3965.641, 0, 0, []
1628361921.9742, 24, 0, 4032.821, 4161.538, 4085.641, 4094.872, 3962.564, 0, 0, []
1628361921.9821, 25, 0, 4043.59, 4149.744, 4087.179, 4089.231, 3974.359, 0, 0, []
1628361921.9899, 26, 0, 4056.923, 4171.282, 4093.846, 4095.897, 3986.667, 0, 0, []
1628361921.9978, 27, 0, 4058.462, 4191.795, 4095.385, 4105.128, 3988.718, 0, 0, []
1628361922.0055, 28, 0, 4065.128, 4182.564, 4109.231, 4110.769, 3993.333, 0, 0, []
1628361922.0134, 29, 0, 4080, 4170.769, 4130.769, 4120, 4008.205, 0, 0, []
1628361922.0212, 30, 0, 4077.436, 4180, 4142.051, 4121.026, 4001.538, 0, 0, []
1628361922.0292, 31, 0, 4061.026, 4181.026, 4126.154, 4110.769, 3981.538, 0, 0, []
1628361922.0371, 32, 0, 4047.692, 4157.436, 4102.051, 4100, 3968.205, 0, 0, []
1628361922.0451, 33, 0, 4034.359, 4147.692, 4086.154, 4085.641, 3950.769, 0, 0, []
1628361922.0529, 34, 0, 4029.231, 4157.436, 4072.308, 4072.308, 3937.436, 0, 0, []
1628361922.0609, 35, 0, 4025.128, 4145.128, 4078.974, 4067.179, 3933.846, 0, 0, []
1628361922.0688, 36, 0, 4009.744, 4129.744, 4083.59, 4064.615, 3929.231, 0, 0, []
1628361922.0768, 37, 0, 4009.231, 4143.077, 4068.718, 4065.641, 3923.59, 0, 0, []
1628361922.0847, 38, 0, 4024.615, 4151.282, 4066.667, 4073.333, 3931.282, 0, 0, []
1628361922.0926, 39, 0, 4029.744, 4136.923, 4075.897, 4082.051, 3942.564, 0, 0, []
1628361922.1005, 40, 0, 4026.154, 4133.333, 4092.821, 4087.692, 3939.487, 0, 0, []
1628361922.1083, 41, 0, 4022.051, 4151.282, 4103.077, 4089.744, 3928.205, 0, 0, []
1628361922.1162, 42, 0, 4023.077, 4156.923, 4107.692, 4089.231, 3928.718, 0, 0, []
1628361922.124, 43, 0, 4027.692, 4146.154, 4120.513, 4093.333, 3947.179, 0, 0, []
1628361922.1318, 44, 0, 4019.487, 4138.462, 4101.026, 4090.256, 3945.641, 0, 0, []
1628361922.1396, 45, 0, 4007.179, 4140.513, 4074.872, 4080, 3929.744, 0, 0, []
1628361922.1475, 46, 0, 4027.179, 4151.282, 4067.692, 4086.667, 3949.231, 0, 0, []
1628361922.1553, 47, 0, 4056.923, 4156.923, 4066.154, 4103.59, 3983.59, 0, 0, []
1628361922.1632, 48, 0, 4060.513, 4157.436, 4081.538, 4110.256, 3985.641, 0, 0, []
1628361922.1709, 49, 0, 4049.231, 4152.308, 4085.128, 4104.615, 3965.128, 0, 0, []
1628361922.1789, 50, 0, 4043.59, 4145.641, 4086.154, 4105.641, 3960, 0, 0, []
1628361922.1868, 51, 0, 4043.59, 4148.205, 4096.41, 4107.692, 3960.513, 0, 0, []
1628361922.1948, 52, 0, 4045.641, 4153.333, 4103.077, 4099.487, 3957.949, 0, 0, []
1628361922.2027, 53, 0, 4044.615, 4152.821, 4109.744, 4098.462, 3964.103, 0, 0, []
1628361922.2106, 54, 0, 4041.538, 4152.308, 4100, 4103.59, 3966.667, 0, 0, []
1628361922.2185, 55, 0, 4045.128, 4152.821, 4091.282, 4108.718, 3966.154, 0, 0, []
1628361922.2265, 56, 0, 4038.462, 4134.359, 4092.308, 4108.718, 3959.487, 0, 0, []
1628361922.2344, 57, 0, 4024.103, 4121.538, 4087.179, 4098.974, 3945.128, 0, 0, []
1628361922.2424, 58, 0, 4029.231, 4136.41, 4080.513, 4085.641, 3940.513, 0, 0, []
1628361922.2502, 59, 0, 4031.282, 4135.897, 4060.513, 4076.41, 3941.026, 0, 0, []
1628361922.258, 60, 0, 4016.923, 4124.103, 4052.821, 4071.795, 3932.308, 0, 0, []
1628361922.2659, 61, 0, 4020.513, 4126.154, 4077.436, 4081.026, 3934.359, 0, 0, []
1628361922.2737, 62, 0, 4041.026, 4123.59, 4097.949, 4108.205, 3953.333, 0, 0, []
1628361922.2816, 63, 0, 4046.667, 4121.538, 4109.744, 4127.179, 3962.051, 0, 0, []
1628361922.2893, 64, 0, 4040, 4129.231, 4110.769, 4127.692, 3957.949, 450, 0, []
1628361922.2972, 65, 0, 4025.128, 4116.923, 4105.641, 4109.231, 3947.692, 450, 0, []
1628361922.305, 66, 0, 4016.923, 4104.103, 4104.615, 4085.641, 3938.974, 16188, 0, []
1628361922.3129, 67, 0, 4036.41, 4120, 4088.718, 4080, 3951.795, 450, 0, []
1628361922.3207, 68, 0, 4043.59, 4124.103, 4078.462, 4095.385, 3960.513, 16165, 0, []
1628361922.3286, 69, 0, 4020.513, 4108.205, 4077.949, 4105.128, 3940.513, 450, 0, []
1628361922.3365, 70, 0, 4012.308, 4102.564, 4075.385, 4102.051, 3929.231, 16109, 0, []
1628361922.3445, 71, 0, 4039.487, 4108.718, 4086.667, 4106.667, 3956.923, 450, 0, []
1628361922.3524, 72, 0, 4062.051, 4134.359, 4108.718, 4113.333, 3984.615, 450, 0, []
1628361922.3604, 73, 0, 4064.103, 4183.077, 4136.923, 4109.744, 3985.128, 16173, 0, []
1628361922.3682, 74, 0, 4068.718, 4211.282, 4143.077, 4113.846, 3994.359, 450, 0, []
1628361922.3762, 75, 0, 4072.821, 4194.359, 4124.615, 4121.026, 4005.641, 16195, 0, []
1628361922.3841, 76, 0, 4056.41, 4168.718, 4114.359, 4117.436, 3982.564, 450, 0, []
1628361922.3921, 77, 0, 4032.308, 4170.256, 4106.154, 4116.41, 3955.897, 450, 0, []
1628361922.4, 78, 0, 4025.128, 4185.128, 4110.256, 4118.462, 3955.897, 450, 0, []
1628361922.4079, 79, 0, 4027.179, 4187.692, 4108.205, 4104.103, 3957.436, 16195, 0, []
1628361922.4157, 80, 0, 4025.641, 4182.564, 4084.103, 4083.077, 3953.333, 450, 0, []
1628361922.4236, 81, 0, 4026.667, 4183.077, 4074.872, 4071.282, 3953.333, 450, 0, []
1628361922.4314, 82, 0, 4034.872, 4192.308, 4085.641, 4078.974, 3957.949, 450, 0, []
1628361922.4392, 83, 0, 4040, 4202.051, 4104.103, 4103.077, 3970.769, 16195, 0, []
1628361922.4471, 84, 0, 4046.667, 4195.385, 4109.231, 4124.103, 3976.923, 450, 0, []
1628361922.4548, 85, 0, 4063.077, 4181.026, 4111.282, 4136.41, 3976.41, 450, 0, []
1628361922.4627, 86, 0, 4061.538, 4185.641, 4130.769, 4141.026, 3977.949, 450, 0, []
1628361922.4705, 87, 0, 4042.564, 4198.974, 4133.333, 4128.718, 3968.205, 16195, 0, []
1628361922.4784, 88, 0, 4042.051, 4207.692, 4123.077, 4116.923, 3954.872, 450, 0, []
1628361922.4862, 89, 0, 4049.231, 4214.359, 4118.462, 4114.359, 3960.513, 450, 0, []
1628361922.4941, 90, 0, 4035.385, 4208.205, 4106.154, 4095.385, 3961.026, 450, 0, []
1628361922.502, 91, 0, 4025.641, 4190.256, 4104.615, 4073.846, 3941.538, 16195, 0, []
1628361922.51, 92, 0, 4034.359, 4180.513, 4108.205, 4077.949, 3939.487, 450, 0, []
1628361922.5179, 93, 0, 4030.256, 4184.103, 4106.154, 4090.769, 3952.308, 450, 0, []
1628361922.5259, 94, 0, 4017.949, 4183.59, 4102.051, 4094.359, 3948.718, 450, 0, []
1628361922.5337, 95, 0, 4018.974, 4180.513, 4090.256, 4098.462, 3938.974, 16195, 0, []
1628361922.5417, 96, 0, 4021.026, 4185.641, 4095.385, 4106.154, 3944.103, 450, 0, []
1628361922.5496, 97, 0, 4019.487, 4189.744, 4107.692, 4112.308, 3953.846, 450, 0, []
1628361922.5576, 98, 0, 4024.615, 4187.179, 4113.333, 4121.026, 3958.462, 450, 0, []
1628361922.5655, 99, 0, 4032.821, 4191.795, 4116.41, 4125.128, 3964.615, 16195, 0, []
1628361922.5732, 100, 0, 4027.692, 4185.128, 4107.179, 4112.821, 3963.077, 450, 0, []
1628361922.5811, 101, 0, 4009.231, 4161.026, 4110.769, 4096.41, 3951.282, 450, 0, []
1628361922.5889, 102, 0, 3989.231, 4146.154, 4111.282, 4088.718, 3937.436, 450, 0, []
1628361922.5968, 103, 0, 3974.872, 4143.077, 4096.923, 4081.538, 3919.487, 16195, 0, []
1628361922.6046, 104, 0, 3972.821, 4140, 4093.846, 4080, 3911.795, 450, 0, []
1628361922.6124, 105, 0, 3978.974, 4137.949, 4087.692, 4088.205, 3918.462, 450, 0, []
1628361922.6202, 106, 0, 3986.667, 4140, 4089.744, 4096.923, 3928.205, 450, 0, []
1628361922.6281, 107, 0, 3993.846, 4142.564, 4091.795, 4100.513, 3933.846, 16195, 0, []
1628361922.6359, 108, 0, 3992.821, 4140, 4084.103, 4103.59, 3935.385, 450, 0, []
1628361922.6439, 109, 0, 3979.487, 4137.949, 4089.744, 4108.718, 3930.769, 450, 0, []
1628361922.6517, 110, 0, 3971.282, 4141.026, 4091.282, 4112.308, 3927.692, 450, 0, []
1628361922.6597, 111, 0, 3982.051, 4133.846, 4090.769, 4120.513, 3942.564, 16195, 0, []
1628361922.6676, 112, 0, 3997.949, 4124.103, 4092.308, 4129.231, 3967.692, 450, 0, []
1628361922.6756, 113, 0, 4003.59, 4126.667, 4085.641, 4127.179, 3974.872, 450, 0, []
1628361922.6835, 114, 0, 3998.974, 4129.231, 4078.974, 4111.282, 3963.077, 450, 0, []
1628361922.6914, 115, 0, 3991.795, 4132.821, 4066.154, 4092.821, 3950.256, 16195, 0, []
1628361922.6993, 116, 0, 3986.667, 4144.615, 4066.154, 4094.872, 3947.179, 450, 0, []
1628361922.7073, 117, 0, 3982.051, 4135.385, 4071.282, 4109.231, 3947.692, 450, 0, []
1628361922.7152, 118, 0, 3991.282, 4118.974, 4068.718, 4118.974, 3958.462, 450, 0, []
1628361922.723, 119, 0, 4013.846, 4130.769, 4084.615, 4133.846, 3983.59, 16195, 0, []
1628361922.7308, 120, 0, 4029.744, 4142.051, 4090.769, 4147.179, 4001.026, 450, 0, []
1628361922.7386, 121, 0, 4031.282, 4137.436, 4081.538, 4136.923, 3998.974, 450, 0, []
1628361922.7465, 122, 0, 4023.59, 4135.897, 4078.974, 4116.41, 3988.718, 450, 0, []
1628361922.7543, 123, 0, 4020, 4143.077, 4076.923, 4113.333, 3987.179, 16195, 0, []
1628361922.7622, 124, 0, 4030.769, 4150.769, 4086.154, 4126.667, 3997.949, 450, 0, []
1628361922.77, 125, 0, 4045.641, 4157.949, 4095.385, 4132.821, 4013.846, 450, 0, []
1628361922.7778, 126, 0, 4054.872, 4154.872, 4103.077, 4130.256, 4014.872, 450, 0, []
1628361922.7856, 127, 0, 4056.923, 4141.026, 4104.615, 4126.154, 4002.564, 16195, 0, []
1628361922.7935, 128, 0, 4050.256, 4140, 4091.795, 4119.487, 3999.487, 450, 0, []
1628361922.8013, 0, 0, 4036.923, 4147.692, 4091.282, 4108.205, 3997.436, 450, 0, []
1628361922.8093, 1, 0, 4032.821, 4150.769, 4093.333, 4109.231, 3988.205, 450, 0, []
1628361922.8171, 2, 0, 4038.974, 4152.308, 4093.846, 4120.513, 3987.692, 16192, 0, []
1628361922.8251, 3, 0, 4044.103, 4154.359, 4100.513, 4129.744, 4000, 450, 0, []
1628361922.833, 4, 0, 4048.718, 4153.333, 4089.231, 4132.308, 4007.179, 16165, 0, []
1628361922.841, 5, 0, 4051.795, 4149.744, 4081.538, 4124.615, 4006.154, 450, 0, []
1628361922.8489, 6, 0, 4051.282, 4142.564, 4085.128, 4113.333, 4004.103, 16105, 0, []
1628361922.8568, 7, 0, 4049.231, 4128.205, 4084.615, 4106.154, 4000.513, 450, 0, []
1628361922.8647, 8, 0, 4057.949, 4138.974, 4096.41, 4113.846, 4007.692, 450, 0, []
1628361922.8727, 9, 0, 4079.487, 4173.846, 4104.615, 4130.256, 4029.744, 16173, 0, []
1628361922.8806, 10, 0, 4092.308, 4177.436, 4106.667, 4127.179, 4044.615, 450, 0, []
1628361922.8884, 11, 0, 4099.487, 4157.436, 4101.538, 4108.718, 4045.128, 16200, 0, []
1628361922.8962, 12, 0, 4105.128, 4159.487, 4100, 4105.128, 4048.205, 450, 0, []
1628361922.904, 13, 0, 4095.897, 4155.897, 4111.282, 4113.846, 4053.846, 450, 0, []
1628361922.9119, 14, 0, 4090.256, 4134.872, 4100, 4107.692, 4050.769, 450, 0, []
1628361922.9197, 15, 0, 4111.795, 4141.538, 4092.308, 4101.538, 4060.513, 16200, 0, []
1628361922.9276, 16, 0, 4137.436, 4156.41, 4102.051, 4112.308, 4081.538, 0, 0, []
1628361922.9353, 17, 0, 4139.487, 4148.718, 4104.103, 4125.641, 4082.564, 0, 0, []
1628361922.9432, 18, 0, 4134.359, 4159.487, 4109.744, 4126.667, 4072.821, 0, 0, []
1628361922.951, 19, 0, 4138.974, 4184.615, 4111.795, 4118.462, 4076.41, 0, 0, []
1628361922.959, 20, 0, 4136.41, 4172.308, 4112.308, 4112.821, 4078.974, 0, 0, []
1628361922.9669, 21, 0, 4125.128, 4147.692, 4111.795, 4106.154, 4074.872, 0, 0, []
1628361922.9748, 22, 0, 4140.513, 4154.872, 4111.795, 4111.282, 4087.179, 0, 0, []
1628361922.9827, 23, 0, 4177.436, 4161.538, 4127.179, 4131.282, 4113.846, 0, 0, []
1628361922.9907, 24, 0, 4191.282, 4154.872, 4134.872, 4142.051, 4136.41, 0, 0, []
1628361922.9986, 25, 0, 4187.179, 4154.359, 4131.795, 4143.59, 4145.641, 0, 0, []
1628361923.0066, 26, 0, 4180.513, 4159.487, 4121.538, 4135.897, 4126.667, 0, 0, []
1628361923.0144, 27, 0, 4168.205, 4165.641, 4099.487, 4111.795, 4097.436, 0, 0, []
1628361923.0224, 28, 0, 4163.077, 4165.641, 4094.872, 4098.462, 4091.795, 0, 0, []
1628361923.0303, 29, 0, 4170.256, 4158.462, 4096.41, 4100.513, 4103.59, 0, 0, []
1628361923.0381, 30, 0, 4173.846, 4156.41, 4097.436, 4093.846, 4105.128, 0, 0, []
1628361923.046, 31, 0, 4186.154, 4170.256, 4111.282, 4099.487, 4108.205, 0, 0, []
1628361923.0537, 32, 0, 4212.308, 4185.128, 4130.769, 4125.128, 4134.872, 0, 0, []
1628361923.0616, 33, 0, 4224.103, 4181.026, 4152.821, 4144.103, 4164.615, 0, 0, []
1628361923.0694, 34, 0, 4218.462, 4176.923, 4149.231, 4154.359, 4163.077, 0, 0, []
1628361923.0773, 35, 0, 4216.923, 4186.667, 4137.436, 4156.41, 4149.231, 0, 0, []
1628361923.0851, 36, 0, 4223.077, 4194.359, 4139.487, 4145.641, 4162.051, 0, 0, []
1628361923.093, 37, 0, 4224.615, 4195.897, 4126.154, 4136.923, 4178.462, 0, 0, []
1628361923.1007, 38, 0, 4215.897, 4197.949, 4112.308, 4130.769, 4157.949, 0, 0, []
1628361923.1087, 39, 0, 4205.128, 4191.282, 4106.667, 4113.333, 4132.821, 0, 0, []
1628361923.1166, 40, 0, 4202.564, 4185.128, 4114.872, 4107.692, 4138.974, 0, 0, []
1628361923.1246, 41, 0, 4216.923, 4190.256, 4137.949, 4127.179, 4155.385, 0, 0, []
1628361923.1325, 42, 0, 4229.231, 4182.051, 4138.974, 4142.051, 4161.538, 0, 0, []
1628361923.1404, 43, 0, 4214.359, 4170.256, 4130.256, 4137.436, 4157.949, 0, 0, []
1628361923.1483, 44, 0, 4201.026, 4170.256, 4122.564, 4129.744, 4146.667, 0, 0, []
1628361923.1563, 45, 0, 4222.051, 4175.897, 4123.077, 4134.359, 4154.359, 0, 0, []
1628361923.1642, 46, 0, 4250.256, 4184.615, 4143.59, 4148.718, 4186.667, 0, 0, []
1628361923.1722, 47, 0, 4257.436, 4188.205, 4147.179, 4161.026, 4208.718, 0, 0, []
1628361923.18, 48, 0, 4265.128, 4185.641, 4142.564, 4163.59, 4211.795, 0, 0, []
1628361923.188, 49, 0, 4275.385, 4182.051, 4142.051, 4154.359, 4209.231, 0, 0, []
1628361923.1959, 50, 0, 4249.231, 4172.821, 4124.103, 4134.359, 4187.692, 0, 0, []
1628361923.2037, 51, 0, 4214.872, 4159.487, 4111.795, 4122.051, 4157.949, 0, 0, []
1628361923.2116, 52, 0, 4218.974, 4167.179, 4113.333, 4127.692, 4144.615, 0, 0, []
1628361923.2193, 53, 0, 4234.872, 4180, 4117.949, 4139.487, 4150.256, 0, 0, []
1628361923.2272, 54, 0, 4227.692, 4171.795, 4116.923, 4142.051, 4158.462, 0, 0, []
1628361923.235, 55, 0, 4228.205, 4174.359, 4125.128, 4141.026, 4161.538, 0, 0, []
1628361923.2429, 56, 0, 4250.256, 4200, 4161.538, 4146.667, 4171.282, 0, 0, []
1628361923.2507, 57, 0, 4257.949, 4208.718, 4180.513, 4152.308, 4189.231, 0, 0, []
1628361923.2586, 58, 0, 4247.179, 4197.436, 4170.769, 4160.513, 4196.923, 0, 0, []
1628361923.2665, 59, 0, 4245.128, 4197.949, 4147.179, 4165.128, 4187.692, 0, 0, []
1628361923.2745, 60, 0, 4250.256, 4204.103, 4113.846, 4146.667, 4171.795, 0, 0, []
1628361923.2824, 61, 0, 4246.667, 4203.077, 4111.282, 4121.026, 4166.154, 0, 0, []
1628361923.2904, 62, 0, 4237.949, 4198.462, 4121.026, 4120, 4168.205, 0, 0, []
1628361923.2982, 63, 0, 4229.744, 4198.462, 4121.538, 4129.231, 4157.436, 0, 0, []
1628361923.3062, 64, 0, 4223.59, 4200.513, 4132.308, 4114.872, 4139.487, 450, 0, []
1628361923.3141, 65, 0, 4223.077, 4191.795, 4141.026, 4106.667, 4146.154, 450, 0, []
1628361923.3221, 66, 0, 4236.41, 4183.59, 4151.282, 4126.667, 4169.744, 16192, 0, []
1628361923.33, 67, 0, 4240, 4186.154, 4154.359, 4140, 4168.205, 450, 0, []
1628361923.3378, 68, 0, 4217.436, 4188.205, 4145.128, 4133.846, 4146.154, 16169, 0, []
1628361923.3457, 69, 0, 4206.667, 4191.282, 4135.385, 4135.897, 4136.923, 450, 0, []
1628361923.3535, 70, 0, 4214.359, 4187.692, 4114.872, 4138.974, 4130.769, 16108, 0, []
1628361923.3614, 71, 0, 4207.692, 4170.769, 4105.128, 4131.282, 4122.051, 450, 0, []
1628361923.3692, 72, 0, 4194.359, 4171.795, 4101.538, 4132.308, 4127.179, 450, 0, []
1628361923.377, 73, 0, 4208.205, 4184.615, 4103.077, 4143.077, 4141.538, 16173, 0, []
1628361923.3848, 74, 0, 4221.538, 4176.923, 4119.487, 4144.103, 4145.128, 450, 0, []
1628361923.3927, 75, 0, 4198.462, 4163.59, 4114.359, 4135.897, 4134.872, 16200, 0, []
1628361923.4006, 76, 0, 4179.487, 4165.128, 4105.641, 4131.282, 4123.077, 450, 0, []
1628361923.4085, 77, 0, 4183.077, 4171.282, 4111.282, 4126.667, 4121.026, 450, 0, []
1628361923.4163, 78, 0, 4176.41, 4172.821, 4117.949, 4119.487, 4123.59, 450, 0, []
1628361923.4243, 79, 0, 4171.282, 4174.359, 4133.333, 4127.692, 4122.564, 16200, 0, []
1628361923.4323, 80, 0, 4191.795, 4183.59, 4135.897, 4133.846, 4129.231, 450, 0, []
1628361923.4402, 81, 0, 4203.077, 4188.718, 4129.231, 4125.128, 4137.949, 450, 0, []
1628361923.4481, 82, 0, 4195.897, 4184.103, 4132.821, 4136.923, 4137.949, 450, 0, []
1628361923.4561, 83, 0, 4205.128, 4188.205, 4137.949, 4160, 4140, 16200, 0, []
1628361923.4639, 84, 0, 4203.59, 4185.641, 4127.179, 4151.282, 4138.462, 450, 0, []
1628361923.4719, 85, 0, 4187.692, 4165.641, 4094.359, 4131.282, 4133.846, 450, 0, []
1628361923.4798, 86, 0, 4190.769, 4162.051, 4083.077, 4128.718, 4132.308, 450, 0, []
1628361923.4876, 87, 0, 4194.359, 4172.821, 4091.795, 4121.538, 4128.718, 16200, 0, []
1628361923.4955, 88, 0, 4188.205, 4169.744, 4092.308, 4115.897, 4129.744, 450, 0, []
1628361923.5032, 89, 0, 4206.667, 4169.744, 4107.179, 4122.564, 4143.59, 450, 0, []
1628361923.5111, 90, 0, 4230.769, 4174.359, 4123.59, 4123.077, 4161.538, 450, 0, []
1628361923.5189, 91, 0, 4232.821, 4172.821, 4129.744, 4124.615, 4177.949, 16200, 0, []
1628361923.5268, 92, 0, 4238.462, 4180, 4135.897, 4141.026, 4186.154, 450, 0, []
1628361923.5346, 93, 0, 4253.333, 4189.231, 4141.026, 4154.872, 4190.256, 450, 0, []
1628361923.5424, 94, 0, 4255.897, 4184.615, 4147.692, 4154.872, 4205.641, 450, 0, []
1628361923.5502, 95, 0, 4255.385, 4184.615, 4129.744, 4155.385, 4220.513, 16200, 0, []
1628361923.5581, 96, 0, 4260, 4195.385, 4106.667, 4153.333, 4217.949, 450, 0, []
1628361923.5659, 97, 0, 4261.026, 4201.538, 4111.282, 4141.538, 4214.872, 450, 0, []
1628361923.5739, 98, 0, 4260.513, 4203.077, 4122.051, 4139.487, 4220.513, 450, 0, []
1628361923.5817, 99, 0, 4263.59, 4194.359, 4129.231, 4147.179, 4220, 16200, 0, []
1628361923.5897, 100, 0, 4264.615, 4184.615, 4115.897, 4142.564, 4213.333, 450, 0, []
1628361923.5976, 101, 0, 4263.59, 4189.231, 4106.667, 4131.282, 4211.795, 450, 0, []
1628361923.6056, 102, 0, 4261.538, 4187.692, 4127.179, 4134.872, 4218.462, 450, 0, []
1628361923.6135, 103, 0, 4271.282, 4188.718, 4131.282, 4145.641, 4225.641, 16200, 0, []
1628361923.6214, 104, 0, 4292.308, 4210.256, 4133.846, 4147.179, 4232.821, 450, 0, []
1628361923.6293, 105, 0, 4303.077, 4213.333, 4142.051, 4141.538, 4249.744, 450, 0, []
1628361923.6373, 106, 0, 4293.846, 4194.359, 4132.821, 4141.026, 4261.538, 450, 0, []
1628361923.6452, 107, 0, 4292.308, 4203.077, 4133.333, 4163.59, 4256.923, 16200, 0, []
1628361923.6531, 108, 0, 4302.051, 4228.205, 4146.667, 4181.026, 4246.154, 450, 0, []
1628361923.6609, 109, 0, 4290.769, 4220, 4152.821, 4163.077, 4234.359, 450, 0, []
1628361923.6687, 110, 0, 4267.179, 4197.436, 4138.462, 4144.615, 4216.923, 450, 0, []
1628361923.6766, 111, 0, 4253.846, 4198.974, 4126.667, 4147.179, 4201.538, 16200, 0, []
1628361923.6846, 112, 0, 4249.744, 4214.359, 4138.974, 4144.615, 4195.897, 450, 0, []
1628361923.6925, 113, 0, 4245.128, 4213.333, 4136.923, 4132.308, 4196.41, 450, 0, []
1628361923.7002, 114, 0, 4249.231, 4201.026, 4128.205, 4140.513, 4205.128, 450, 0, []
1628361923.7081, 115, 0, 4263.077, 4206.154, 4124.615, 4160, 4212.821, 16200, 0, []
1628361923.7159, 116, 0, 4273.846, 4215.385, 4124.103, 4165.128, 4217.949, 450, 0, []
1628361923.7238, 117, 0, 4277.949, 4217.436, 4141.026, 4169.744, 4231.282, 450, 0, []
1628361923.7316, 118, 0, 4277.436, 4222.051, 4140.513, 4171.282, 4237.949, 450, 0, []
1628361923.7395, 119, 0, 4285.128, 4225.128, 4126.154, 4154.872, 4232.308, 16200, 0, []
1628361923.7474, 120, 0, 4292.821, 4219.487, 4126.667, 4142.564, 4238.974, 450, 0, []
1628361923.7554, 121, 0, 4292.821, 4214.359, 4134.872, 4152.308, 4253.333, 450, 0, []
1628361923.7633, 122, 0, 4294.872, 4222.051, 4145.641, 4162.051, 4250.256, 450, 0, []
1628361923.7713, 123, 0, 4298.974, 4236.923, 4140.513, 4153.846, 4241.026, 16200, 0, []
1628361923.7791, 124, 0, 4290.256, 4236.923, 4133.846, 4140.513, 4240.513, 450, 0, []
1628361923.7871, 125, 0, 4274.872, 4214.359, 4129.744, 4136.41, 4231.795, 450, 0, []
1628361923.795, 126, 0, 4273.333, 4205.128, 4120.513, 4142.564, 4217.436, 450, 0, []
1628361923.803, 127, 0, 4273.846, 4214.872, 4124.615, 4144.103, 4214.872, 16200, 0, []
1628361923.8109, 128, 0, 4256.923, 4217.436, 4123.59, 4141.026, 4216.923, 450, 0, []
1628361923.8187, 0, 0, 4249.744, 4217.436, 4121.538, 4149.231, 4212.308, 450, 0, []
1628361923.8265, 1, 0, 4274.359, 4225.128, 4123.077, 4158.462, 4211.282, 450, 0, []
1628361923.8343, 2, 0, 4295.897, 4234.359, 4110.256, 4153.846, 4222.564, 16187, 0, []
1628361923.8422, 3, 0, 4286.154, 4235.897, 4114.872, 4149.231, 4231.795, 450, 0, []
1628361923.85, 4, 0, 4276.41, 4229.231, 4132.821, 4163.59, 4229.744, 16169, 0, []
1628361923.8579, 5, 0, 4279.487, 4229.231, 4141.538, 4174.359, 4220.513, 450, 0, []
1628361923.8656, 6, 0, 4280, 4245.641, 4146.667, 4162.051, 4218.462, 16108, 0, []
1628361923.8735, 7, 0, 4280.513, 4250.769, 4143.59, 4148.205, 4223.59, 450, 0, []
1628361923.8813, 8, 0, 4279.487, 4241.026, 4151.282, 4152.308, 4217.949, 450, 0, []
1628361923.8892, 9, 0, 4277.949, 4245.641, 4160, 4162.564, 4210.769, 16173, 0, []
1628361923.897, 10, 0, 4277.949, 4247.179, 4158.462, 4160.513, 4214.872, 450, 0, []
1628361923.9049, 11, 0, 4273.846, 4232.821, 4158.462, 4151.282, 4217.949, 16200, 0, []
1628361923.9128, 12, 0, 4277.949, 4228.205, 4148.718, 4154.872, 4219.487, 450, 0, []
1628361923.9208, 13, 0, 4296.923, 4230.769, 4146.667, 4171.282, 4228.205, 450, 0, []
1628361923.9287, 14, 0, 4307.179, 4232.821, 4148.718, 4177.949, 4239.487, 450, 0, []
1628361923.9367, 15, 0, 4305.128, 4238.974, 4144.103, 4171.282, 4249.744, 16200, 0, []
1628361923.9445, 16, 0, 4301.026, 4239.487, 4145.641, 4169.744, 4250.256, 0, 0, []
1628361923.9524, 17, 0, 4297.436, 4231.795, 4141.538, 4173.846, 4236.923, 0, 0, []
1628361923.9603, 18, 0, 4295.385, 4231.282, 4140, 4174.872, 4228.718, 0, 0, []
1628361923.9682, 19, 0, 4287.692, 4234.359, 4140, 4169.744, 4234.359, 0, 0, []
1628361923.9761, 20, 0, 4277.949, 4228.205, 4140, 4165.641, 4230.256, 0, 0, []
1628361923.9838, 21, 0, 4283.59, 4229.231, 4154.359, 4169.231, 4219.487, 0, 0, []
1628361923.9917, 22, 0, 4285.128, 4235.385, 4151.795, 4163.59, 4213.846, 0, 0, []
1628361923.9995, 23, 0, 4271.282, 4229.744, 4140, 4147.692, 4206.667, 0, 0, []
1628361924.0074, 24, 0, 4275.385, 4228.718, 4145.641, 4146.154, 4205.128, 0, 0, []
1628361924.0152, 25, 0, 4285.128, 4230.256, 4147.179, 4153.846, 4213.333, 0, 0, []
1628361924.023, 26, 0, 4278.974, 4223.59, 4145.641, 4153.846, 4218.462, 0, 0, []
1628361924.0308, 27, 0, 4272.821, 4222.564, 4140.513, 4158.462, 4215.897, 0, 0, []
1628361924.0388, 28, 0, 4281.026, 4230.769, 4142.564, 4170.769, 4217.949, 0, 0, []
1628361924.0467, 29, 0, 4286.667, 4225.128, 4143.59, 4167.692, 4220.513, 0, 0, []
1628361924.0547, 30, 0, 4267.179, 4210.256, 4125.128, 4148.205, 4209.744, 0, 0, []
1628361924.0625, 31, 0, 4247.179, 4209.744, 4123.077, 4140, 4191.282, 0, 0, []
1628361924.0705, 32, 0, 4251.795, 4211.795, 4127.692, 4140.513, 4183.59, 0, 0, []
1628361924.0784, 33, 0, 4256.41, 4206.667, 4119.487, 4134.359, 4195.385, 0, 0, []
1628361924.0864, 34, 0, 4249.231, 4201.026, 4114.872, 4132.308, 4202.051, 0, 0, []
1628361924.0943, 35, 0, 4242.564, 4203.59, 4114.872, 4137.949, 4188.205, 0, 0, []
1628361924.1022, 36, 0, 4235.897, 4212.308, 4122.051, 4131.282, 4179.487, 0, 0, []
1628361924.1101, 37, 0, 4233.846, 4212.821, 4118.462, 4127.692, 4191.282, 0, 0, []
1628361924.1179, 38, 0, 4247.692, 4214.872, 4108.718, 4147.179, 4203.59, 0, 0, []
1628361924.1258, 39, 0, 4256.41, 4226.154, 4113.333, 4157.436, 4203.59, 0, 0, []
1628361924.1336, 40, 0, 4249.744, 4227.179, 4106.667, 4141.538, 4203.59, 0, 0, []
1628361924.1415, 41, 0, 4251.282, 4212.821, 4101.538, 4134.872, 4205.128, 0, 0, []
1628361924.1492, 42, 0, 4263.59, 4212.308, 4109.231, 4140.513, 4197.436, 0, 0, []
1628361924.1571, 43, 0, 4267.179, 4226.154, 4116.923, 4138.462, 4191.795, 0, 0, []
1628361924.1649, 44, 0, 4263.077, 4222.564, 4124.615, 4145.641, 4201.026, 0, 0, []
1628361924.1728, 45, 0, 4263.077, 4214.872, 4120, 4152.308, 4200.513, 0, 0, []
1628361924.1806, 46, 0, 4257.949, 4224.103, 4117.949, 4138.974, 4184.103, 0, 0, []
1628361924.1884, 47, 0, 4243.077, 4236.41, 4105.128, 4129.744, 4178.462, 0, 0, []
1628361924.1962, 48, 0, 4245.128, 4236.41, 4085.128, 4133.333, 4182.564, 0, 0, []
1628361924.2042, 49, 0, 4261.538, 4227.179, 4096.923, 4134.872, 4183.59, 0, 0, []
1628361924.2121, 50, 0, 4263.59, 4217.436, 4105.128, 4134.359, 4186.667, 0, 0, []
1628361924.2201, 51, 0, 4261.538, 4217.949, 4104.615, 4142.051, 4189.744, 0, 0, []
1628361924.2279, 52, 0, 4270.769, 4215.385, 4102.564, 4142.564, 4189.744, 0, 0, []
1628361924.2359, 53, 0, 4273.846, 4198.462, 4095.385, 4126.667, 4199.487, 0, 0, []
1628361924.2438, 54, 0, 4261.538, 4202.051, 4109.231, 4116.41, 4207.179, 0, 0, []
1628361924.2518, 55, 0, 4259.487, 4224.615, 4122.564, 4122.051, 4203.077, 0, 0, []
1628361924.2597, 56, 0, 4271.282, 4219.487, 4125.641, 4125.641, 4201.026, 0, 0, []
1628361924.2675, 57, 0, 4281.026, 4210.256, 4127.179, 4117.949, 4213.846, 0, 0, []
1628361924.2754, 58, 0, 4284.103, 4228.718, 4120, 4122.051, 4224.615, 0, 0, []
1628361924.2832, 59, 0, 4260.513, 4225.641, 4110.769, 4122.564, 4198.462, 0, 0, []
1628361924.2911, 60, 0, 4244.103, 4201.026, 4103.077, 4113.333, 4175.897, 0, 0, []
1628361924.2989, 61, 0, 4268.718, 4198.462, 4110.769, 4117.949, 4207.179, 0, 0, []
1628361924.3067, 62, 0, 4286.154, 4204.103, 4115.897, 4125.641, 4232.821, 0, 0, []
1628361924.3145, 63, 0, 4275.897, 4207.692, 4106.667, 4130.256, 4217.949, 0, 0, []
1628361924.3224, 64, 0, 4283.59, 4222.564, 4119.487, 4135.897, 4216.923, 450, 0, []
1628361924.3302, 65, 0, 4298.974, 4232.308, 4133.333, 4138.462, 4235.385, 450, 0, []
1628361924.3381, 66, 0, 4296.923, 4230.769, 4133.333, 4147.179, 4236.923, 16187, 0, []
1628361924.3458, 67, 0, 4301.538, 4236.923, 4133.846, 4160.513, 4232.821, 450, 0, []
1628361924.3538, 68, 0, 4296.923, 4234.359, 4118.974, 4140.513, 4225.641, 16167, 0, []
1628361924.3617, 69, 0, 4277.436, 4222.051, 4108.718, 4101.538, 4211.282, 450, 0, []
1628361924.3697, 70, 0, 4271.795, 4222.051, 4104.615, 4097.436, 4206.667, 16108, 0, []
1628361924.3776, 71, 0, 4268.718, 4232.308, 4094.872, 4107.692, 4198.462, 450, 0, []
1628361924.3855, 72, 0, 4267.179, 4230.769, 4100.513, 4104.615, 4194.359, 450, 0, []
1628361924.3934, 73, 0, 4280.513, 4220, 4103.59, 4105.128, 4209.744, 16173, 0, []
1628361924.4013, 74, 0, 4282.051, 4221.538, 4108.718, 4119.487, 4218.974, 450, 0, []
1628361924.4092, 75, 0, 4280, 4230.256, 4117.949, 4135.897, 4217.436, 16200, 0, []
1628361924.417, 76, 0, 4303.077, 4240.513, 4123.077, 4141.026, 4235.897, 450, 0, []
1628361924.4249, 77, 0, 4310.769, 4246.154, 4133.846, 4138.462, 4259.487, 450, 0, []
1628361924.4328, 78, 0, 4292.821, 4238.974, 4141.538, 4140, 4249.744, 450, 0, []
1628361924.4407, 79, 0, 4292.308, 4240, 4145.641, 4146.154, 4230.769, 16200, 0, []
1628361924.4485, 80, 0, 4290.769, 4251.282, 4131.795, 4143.59, 4229.744, 450, 0, []
1628361924.4564, 81, 0, 4263.59, 4242.564, 4113.333, 4133.846, 4224.103, 450, 0, []
1628361924.4641, 82, 0, 4257.436, 4232.821, 4115.897, 4130.769, 4211.282, 450, 0, []
1628361924.472, 83, 0, 4273.846, 4243.59, 4110.769, 4126.154, 4201.538, 16200, 0, []
1628361924.4798, 84, 0, 4266.667, 4241.538, 4112.308, 4113.846, 4203.077, 450, 0, []
1628361924.4877, 85, 0, 4257.436, 4233.846, 4117.949, 4109.744, 4210.769, 450, 0, []
1628361924.4955, 86, 0, 4270.769, 4246.154, 4104.615, 4115.385, 4208.205, 450, 0, []
1628361924.5035, 87, 0, 4278.462, 4255.385, 4108.718, 4121.538, 4203.59, 16200, 0, []
1628361924.5113, 88, 0, 4270.256, 4251.795, 4117.436, 4128.718, 4213.846, 450, 0, []
1628361924.5193, 89, 0, 4272.308, 4251.282, 4117.436, 4136.41, 4222.564, 450, 0, []
1628361924.5272, 90, 0, 4286.154, 4256.923, 4128.718, 4140, 4214.359, 450, 0, []
1628361924.5352, 91, 0, 4299.487, 4262.564, 4144.103, 4139.487, 4222.564, 16200, 0, []
1628361924.5431, 92, 0, 4300.513, 4258.974, 4145.128, 4133.333, 4238.974, 450, 0, []
1628361924.551, 93, 0, 4283.59, 4254.359, 4125.128, 4128.718, 4225.641, 450, 0, []
1628361924.5589, 94, 0, 4276.41, 4258.462, 4122.564, 4135.385, 4213.846, 450, 0, []
1628361924.5669, 95, 0, 4278.462, 4256.923, 4128.718, 4136.923, 4218.462, 16200, 0, []
1628361924.5748, 96, 0, 4266.154, 4244.615, 4112.308, 4133.846, 4212.308, 450, 0, []
1628361924.5826, 97, 0, 4248.205, 4240.513, 4113.333, 4141.026, 4197.949, 450, 0, []
1628361924.5904, 98, 0, 4245.641, 4248.205, 4122.051, 4142.564, 4195.897, 450, 0, []
1628361924.5982, 99, 0, 4258.462, 4250.256, 4126.667, 4142.564, 4207.692, 16200, 0, []
1628361924.6061, 100, 0, 4271.795, 4251.795, 4139.487, 4156.923, 4222.051, 450, 0, []
1628361924.6139, 101, 0, 4270.256, 4251.282, 4136.41, 4158.974, 4227.179, 450, 0, []
1628361924.6218, 102, 0, 4255.385, 4237.436, 4133.846, 4150.256, 4218.462, 450, 0, []
1628361924.6295, 103, 0, 4245.128, 4226.667, 4128.718, 4153.846, 4200.513, 16200, 0, []
1628361924.6374, 104, 0, 4233.333, 4232.821, 4112.308, 4153.846, 4182.564, 450, 0, []
1628361924.6452, 105, 0, 4214.359, 4231.795, 4107.692, 4148.718, 4180, 450, 0, []
1628361924.6531, 106, 0, 4210.769, 4212.821, 4107.692, 4154.872, 4186.154, 450, 0, []
1628361924.6609, 107, 0, 4227.692, 4213.333, 4116.923, 4163.59, 4186.154, 16200, 0, []
1628361924.6688, 108, 0, 4237.436, 4233.333, 4121.538, 4164.615, 4192.821, 450, 0, []
1628361924.6767, 109, 0, 4233.846, 4229.744, 4113.846, 4163.59, 4204.615, 450, 0, []
1628361924.6847, 110, 0, 4232.821, 4217.949, 4107.692, 4152.308, 4201.026, 450, 0, []
1628361924.6926, 111, 0, 4231.282, 4228.205, 4091.282, 4128.718, 4196.41, 16200, 0, []
1628361924.7006, 112, 0, 4229.231, 4231.795, 4090.256, 4121.538, 4198.974, 450, 0, []
1628361924.7084, 113, 0, 4237.949, 4220.513, 4102.051, 4133.333, 4205.641, 450, 0, []
1628361924.7164, 114, 0, 4250.256, 4220.513, 4109.744, 4138.974, 4214.872, 450, 0, []
1628361924.7243, 115, 0, 4251.795, 4228.718, 4128.718, 4144.103, 4224.103, 16200, 0, []
1628361924.7323, 116, 0, 4249.231, 4237.436, 4139.487, 4157.436, 4223.077, 450, 0, []
1628361924.7402, 117, 0, 4234.872, 4244.103, 4133.333, 4155.385, 4204.615, 450, 0, []
1628361924.7479, 118, 0, 4202.564, 4235.897, 4124.615, 4139.487, 4183.077, 450, 0, []
1628361924.7558, 119, 0, 4182.051, 4214.872, 4118.974, 4142.051, 4168.205, 16200, 0, []
1628361924.7636, 120, 0, 4178.462, 4195.385, 4112.821, 4144.103, 4155.385, 450, 0, []
1628361924.7715, 121, 0, 4170.256, 4192.308, 4089.744, 4125.128, 4147.692, 450, 0, []
1628361924.7793, 122, 0, 4170.256, 4203.077, 4087.692, 4123.59, 4150.256, 450, 0, []
1628361924.7871, 123, 0, 4180.513, 4212.821, 4112.308, 4141.026, 4156.41, 16200, 0, []
1628361924.7949, 124, 0, 4185.128, 4215.385, 4123.59, 4142.051, 4164.103, 450, 0, []
1628361924.8028, 125, 0, 4191.282, 4218.974, 4130.769, 4140.513, 4173.846, 450, 0, []
1628361924.8106, 126, 0, 4200, 4217.436, 4127.692, 4152.821, 4178.462, 450, 0, []
1628361924.8186, 127, 0, 4196.41, 4216.41, 4125.641, 4154.872, 4184.615, 16200, 0, []
1628361924.8264, 128, 0, 4185.128, 4218.462, 4125.641, 4143.59, 4184.615, 450, 0, []
1628361924.8344, 0, 0, 4171.282, 4209.744, 4110.769, 4131.795, 4157.436, 450, 0, []
1628361924.8423, 1, 0, 4153.846, 4194.872, 4104.615, 4118.974, 4132.821, 450, 0, []
1628361924.8503, 2, 0, 4149.231, 4184.615, 4097.436, 4112.308, 4138.462, 16187, 0, []
1628361924.8582, 3, 0, 4152.308, 4178.974, 4088.205, 4119.487, 4144.103, 450, 0, []
1628361924.8662, 4, 0, 4145.641, 4182.051, 4099.487, 4125.641, 4133.846, 16167, 0, []
1628361924.874, 5, 0, 4145.128, 4190.769, 4111.795, 4122.564, 4133.846, 450, 0, []
1628361924.882, 6, 0, 4157.436, 4194.359, 4128.205, 4125.641, 4152.821, 16105, 0, []
1628361924.8899, 7, 0, 4162.564, 4194.872, 4133.846, 4143.077, 4169.231, 450, 0, []
1628361924.8979, 8, 0, 4159.487, 4201.026, 4115.897, 4153.846, 4168.205, 450, 0, []
1628361924.9058, 9, 0, 4155.897, 4207.179, 4111.282, 4144.615, 4157.436, 16173, 0, []
1628361924.9135, 10, 0, 4144.615, 4204.103, 4116.41, 4132.821, 4144.103, 450, 0, []
1628361924.9214, 11, 0, 4123.077, 4194.359, 4112.821, 4125.128, 4124.103, 16200, 0, []
1628361924.9292, 12, 0, 4105.641, 4197.436, 4102.564, 4114.359, 4108.205, 450, 0, []
1628361924.9371, 13, 0, 4103.077, 4203.59, 4096.923, 4107.179, 4106.667, 450, 0, []
1628361924.9449, 14, 0, 4113.846, 4193.846, 4101.538, 4109.744, 4116.41, 450, 0, []
1628361924.9527, 15, 0, 4123.077, 4183.59, 4103.59, 4117.436, 4123.077, 16200, 0, []
1628361924.9605, 16, 0, 4116.41, 4187.179, 4113.846, 4117.436, 4113.846, 0, 0, []
1628361924.9684, 17, 0, 4105.641, 4182.564, 4105.641, 4107.692, 4101.026, 0, 0, []
1628361924.9762, 18, 0, 4101.538, 4168.205, 4080.513, 4104.615, 4108.205, 0, 0, []
1628361924.9842, 19, 0, 4097.436, 4166.667, 4088.718, 4106.667, 4109.744, 0, 0, []
1628361924.992, 20, 0, 4096.923, 4170.256, 4101.538, 4108.718, 4095.897, 0, 0, []
1628361925, 21, 0, 4098.462, 4174.359, 4103.077, 4124.103, 4098.974, 0, 0, []
1628361925.0079, 22, 0, 4094.359, 4186.154, 4110.256, 4145.128, 4110.256, 0, 0, []
1628361925.0159, 23, 0, 4089.231, 4186.667, 4110.769, 4137.949, 4098.974, 0, 0, []
1628361925.0238, 24, 0, 4080.513, 4168.205, 4104.615, 4113.333, 4077.949, 0, 0, []
1628361925.0317, 25, 0, 4067.179, 4153.846, 4084.103, 4096.41, 4066.667, 0, 0, []
1628361925.0396, 26, 0, 4056.41, 4150.769, 4075.385, 4084.103, 4061.026, 0, 0, []
1628361925.0476, 27, 0, 4049.231, 4152.821, 4082.564, 4079.487, 4056.41, 0, 0, []
1628361925.0555, 28, 0, 4045.128, 4162.564, 4078.974, 4083.59, 4054.872, 0, 0, []
1628361925.0633, 29, 0, 4049.744, 4169.744, 4089.744, 4097.436, 4063.077, 0, 0, []
1628361925.0711, 30, 0, 4060, 4175.385, 4102.564, 4118.462, 4076.41, 0, 0, []
1628361925.0789, 31, 0, 4068.205, 4185.641, 4105.641, 4128.718, 4085.641, 0, 0, []
1628361925.0868, 32, 0, 4074.872, 4177.949, 4107.179, 4123.59, 4092.821, 0, 0, []
1628361925.0946, 33, 0, 4074.872, 4154.359, 4100, 4112.308, 4095.385, 0, 0, []
1628361925.1025, 34, 0, 4072.821, 4148.205, 4101.538, 4101.026, 4090.769, 0, 0, []
1628361925.1102, 35, 0, 4075.385, 4161.026, 4102.051, 4089.744, 4086.154, 0, 0, []
1628361925.1181, 36, 0, 4073.846, 4176.41, 4099.487, 4082.564, 4081.538, 0, 0, []
1628361925.1259, 37, 0, 4065.128, 4184.615, 4108.205, 4094.872, 4081.538, 0, 0, []
1628361925.1339, 38, 0, 4060.513, 4178.974, 4112.821, 4124.615, 4088.205, 0, 0, []
1628361925.1418, 39, 0, 4066.154, 4167.179, 4118.974, 4140.513, 4086.154, 0, 0, []
1628361925.1497, 40, 0, 4073.333, 4164.103, 4117.949, 4134.872, 4083.077, 0, 0, []
1628361925.1576, 41, 0, 4069.231, 4167.692, 4114.872, 4134.872, 4086.667, 0, 0, []
1628361925.1656, 42, 0, 4064.103, 4165.641, 4123.59, 4143.59, 4083.077, 0, 0, []
1628361925.1735, 43, 0, 4076.41, 4166.667, 4125.641, 4136.41, 4080, 0, 0, []
1628361925.1815, 44, 0, 4097.436, 4183.59, 4134.872, 4125.641, 4087.179, 0, 0, []
1628361925.1894, 45, 0, 4101.026, 4204.103, 4131.282, 4127.179, 4093.846, 0, 0, []
1628361925.1973, 46, 0, 4092.821, 4207.179, 4113.846, 4129.744, 4091.282, 0, 0, []
1628361925.2052, 47, 0, 4088.205, 4201.026, 4118.974, 4129.744, 4084.615, 0, 0, []
1628361925.2132, 48, 0, 4085.128, 4200.513, 4123.59, 4130.769, 4082.564, 0, 0, []
1628361925.2211, 49, 0, 4094.359, 4201.026, 4129.231, 4137.949, 4094.872, 0, 0, []
1628361925.2289, 50, 0, 4115.385, 4197.436, 4137.436, 4136.923, 4103.077, 0, 0, []
1628361925.2367, 51, 0, 4125.641, 4197.949, 4133.846, 4123.59, 4104.615, 0, 0, []
1628361925.2445, 52, 0, 4121.026, 4202.051, 4139.487, 4122.051, 4108.205, 0, 0, []
1628361925.2524, 53, 0, 4124.103, 4202.564, 4142.051, 4133.846, 4107.179, 0, 0, []
1628361925.2602, 54, 0, 4135.897, 4201.026, 4142.564, 4139.487, 4112.308, 0, 0, []
1628361925.2681, 55, 0, 4147.692, 4204.615, 4143.077, 4137.949, 4130.769, 0, 0, []
1628361925.2758, 56, 0, 4154.359, 4200, 4137.436, 4138.974, 4138.974, 0, 0, []
1628361925.2838, 57, 0, 4157.436, 4196.923, 4142.564, 4138.974, 4144.103, 0, 0, []
1628361925.2917, 58, 0, 4160, 4211.795, 4142.564, 4141.026, 4154.872, 0, 0, []
1628361925.2997, 59, 0, 4151.795, 4220.513, 4136.923, 4142.051, 4150.256, 0, 0, []
1628361925.3076, 60, 0, 4141.026, 4216.41, 4131.795, 4129.231, 4130.769, 0, 0, []
1628361925.3155, 61, 0, 4142.564, 4213.333, 4125.641, 4118.462, 4122.051, 0, 0, []
1628361925.3234, 62, 0, 4141.538, 4205.128, 4134.872, 4120.513, 4124.103, 0, 0, []
1628361925.3314, 63, 0, 4132.821, 4188.205, 4129.744, 4119.487, 4122.564, 0, 0, []
1628361925.3393, 64, 0, 4134.872, 4187.179, 4118.462, 4117.436, 4122.051, 450, 0, []
1628361925.3473, 65, 0, 4139.487, 4200.513, 4126.154, 4121.026, 4123.59, 450, 0, []
1628361925.3551, 66, 0, 4135.385, 4201.538, 4123.077, 4120, 4119.487, 16188, 0, []
1628361925.3629, 67, 0, 4145.641, 4194.872, 4117.436, 4125.128, 4127.179, 450, 0, []
1628361925.3708, 68, 0, 4166.667, 4201.538, 4116.923, 4144.615, 4144.103, 16167, 0, []
1628361925.3786, 69, 0, 4174.872, 4212.308, 4120.513, 4154.872, 4141.026, 450, 0, []
1628361925.3865, 70, 0, 4171.282, 4204.615, 4130.256, 4149.744, 4130.769, 16103, 0, []
1628361925.3942, 71, 0, 4166.154, 4192.308, 4128.718, 4150.769, 4136.41, 450, 0, []
1628361925.4021, 72, 0, 4167.179, 4198.462, 4133.333, 4155.385, 4137.949, 450, 0, []
1628361925.41, 73, 0, 4172.308, 4205.128, 4135.897, 4152.821, 4140, 16174, 0, []
1628361925.418, 74, 0, 4175.385, 4200.513, 4131.282, 4152.308, 4152.308, 450, 0, []
1628361925.4258, 75, 0, 4174.872, 4200.513, 4132.821, 4154.359, 4153.846, 16200, 0, []
1628361925.4337, 76, 0, 4173.333, 4207.179, 4125.641, 4152.308, 4152.821, 450, 0, []
1628361925.4416, 77, 0, 4170.256, 4207.692, 4123.59, 4153.846, 4151.282, 450, 0, []
1628361925.4496, 78, 0, 4166.154, 4202.051, 4123.59, 4155.897, 4136.923, 450, 0, []
1628361925.4575, 79, 0, 4166.154, 4200.513, 4115.385, 4153.846, 4139.487, 16200, 0, []
1628361925.4655, 80, 0, 4170.769, 4204.615, 4120, 4160, 4160.513, 450, 0, []
1628361925.4733, 81, 0, 4180, 4203.59, 4121.538, 4170.256, 4161.026, 450, 0, []
1628361925.4813, 82, 0, 4187.692, 4196.41, 4125.128, 4168.205, 4160.513, 450, 0, []
1628361925.4892, 83, 0, 4188.205, 4200.513, 4131.282, 4169.744, 4172.308, 16200, 0, []
1628361925.4972, 84, 0, 4180, 4210.769, 4127.179, 4173.846, 4155.897, 450, 0, []
1628361925.5051, 85, 0, 4167.179, 4204.615, 4120, 4161.538, 4129.744, 450, 0, []
1628361925.5128, 86, 0, 4169.231, 4197.949, 4110.256, 4162.564, 4142.564, 450, 0, []
1628361925.5207, 87, 0, 4178.974, 4207.692, 4120, 4186.154, 4154.872, 16200, 0, []
1628361925.5287, 88, 0, 4173.846, 4219.487, 4136.923, 4184.615, 4140.513, 450, 0, []
1628361925.5366, 89, 0, 4171.282, 4217.436, 4129.744, 4158.974, 4132.308, 450, 0, []
1628361925.5444, 90, 0, 4179.487, 4213.333, 4121.026, 4150.769, 4133.846, 450, 0, []
1628361925.5523, 91, 0, 4177.436, 4218.462, 4111.282, 4152.821, 4138.974, 16200, 0, []
1628361925.56, 92, 0, 4168.205, 4215.385, 4106.667, 4150.769, 4146.154, 450, 0, []
1628361925.5679, 93, 0, 4166.667, 4209.231, 4109.744, 4160.513, 4141.538, 450, 0, []
1628361925.5757, 94, 0, 4172.308, 4220.513, 4115.385, 4168.205, 4141.026, 450, 0, []
1628361925.5836, 95, 0, 4176.41, 4229.231, 4133.846, 4161.026, 4157.436, 16200, 0, []
1628361925.5914, 96, 0, 4172.308, 4212.821, 4134.872, 4156.41, 4156.41, 450, 0, []
1628361925.5993, 97, 0, 4162.051, 4198.974, 4120, 4151.282, 4142.564, 450, 0, []
1628361925.6072, 98, 0, 4155.385, 4206.154, 4111.282, 4139.487, 4137.949, 450, 0, []
1628361925.6152, 99, 0, 4152.308, 4215.385, 4100, 4132.821, 4130.769, 16200, 0, []
1628361925.6231, 100, 0, 4152.308, 4216.923, 4102.564, 4134.872, 4124.615, 450, 0, []
1628361925.6311, 101, 0, 4158.974, 4215.897, 4109.744, 4141.026, 4134.359, 450, 0, []
1628361925.6389, 102, 0, 4172.308, 4224.615, 4111.282, 4152.308, 4144.615, 450, 0, []
1628361925.6469, 103, 0, 4182.564, 4231.795, 4116.41, 4154.872, 4150.769, 16200, 0, []
1628361925.6548, 104, 0, 4187.179, 4225.641, 4108.205, 4147.692, 4160.513, 450, 0, []
1628361925.6628, 105, 0, 4198.974, 4234.872, 4108.718, 4154.359, 4169.231, 450, 0, []
1628361925.6707, 106, 0, 4214.872, 4250.769, 4117.436, 4156.41, 4176.41, 450, 0, []
1628361925.6784, 107, 0, 4217.436, 4243.077, 4118.974, 4143.077, 4188.205, 16200, 0, []
1628361925.6863, 108, 0, 4208.718, 4230.769, 4118.462, 4142.051, 4190.769, 450, 0, []
1628361925.6941, 109, 0, 4214.359, 4234.359, 4107.179, 4153.846, 4188.718, 450, 0, []
1628361925.702, 110, 0, 4229.744, 4232.308, 4108.718, 4157.949, 4197.949, 450, 0, []
1628361925.7098, 111, 0, 4224.615, 4223.59, 4110.256, 4154.359, 4206.667, 16200, 0, []
1628361925.7176, 112, 0, 4208.718, 4218.462, 4099.487, 4156.41, 4198.462, 450, 0, []
1628361925.7254, 113, 0, 4214.359, 4216.923, 4109.231, 4159.487, 4193.846, 450, 0, []
1628361925.7333, 114, 0, 4224.103, 4218.974, 4116.923, 4155.897, 4200.513, 450, 0, []
1628361925.7411, 115, 0, 4216.41, 4215.385, 4113.333, 4151.795, 4199.487, 16200, 0, []
1628361925.7491, 116, 0, 4212.821, 4212.821, 4105.128, 4153.846, 4188.205, 450, 0, []
1628361925.7569, 117, 0, 4217.436, 4226.667, 4103.077, 4154.872, 4182.564, 450, 0, []
1628361925.7649, 118, 0, 4211.282, 4236.923, 4112.308, 4140.513, 4180.513, 450, 0, []
1628361925.7728, 119, 0, 4214.359, 4232.821, 4112.308, 4135.385, 4181.538, 16200, 0, []
1628361925.7808, 120, 0, 4233.333, 4233.846, 4127.692, 4158.974, 4189.744, 450, 0, []
1628361925.7887, 121, 0, 4232.821, 4241.538, 4145.128, 4176.41, 4193.333, 450, 0, []
1628361925.7966, 122, 0, 4208.718, 4230.256, 4122.564, 4159.487, 4179.487, 450, 0, []
1628361925.8045, 123, 0, 4202.564, 4216.923, 4106.667, 4141.538, 4170.769, 16200, 0, []
1628361925.8123, 124, 0, 4214.359, 4225.128, 4105.641, 4141.538, 4178.462, 450, 0, []
1628361925.8202, 125, 0, 4224.103, 4232.821, 4100.513, 4140, 4184.615, 450, 0, []
1628361925.828, 126, 0, 4229.744, 4227.179, 4097.949, 4138.462, 4188.205, 450, 0, []
1628361925.8358, 127, 0, 4223.59, 4228.718, 4097.949, 4140, 4185.128, 16200, 0, []
1628361925.8436, 128, 0, 4218.974, 4240.513, 4106.667, 4137.436, 4178.974, 450, 0, []
1628361925.8515, 0, 0, 4235.385, 4234.359, 4114.359, 4141.538, 4196.923, 450, 0, []
1628361925.8593, 1, 0, 4258.462, 4226.667, 4126.667, 4157.949, 4229.744, 450, 0, []
1628361925.8672, 2, 0, 4268.718, 4242.051, 4137.436, 4164.615, 4228.718, 16188, 0, []
1628361925.8749, 3, 0, 4262.564, 4247.692, 4132.821, 4148.718, 4201.026, 450, 0, []
1628361925.8828, 4, 0, 4249.744, 4236.41, 4140.513, 4138.974, 4201.538, 16193, 0, []
1628361925.8906, 5, 0, 4251.795, 4230.769, 4144.615, 4149.231, 4220, 450, 0, []
1628361925.8985, 6, 0, 4268.718, 4224.103, 4134.872, 4154.359, 4220, 16102, 0, []
1628361925.9063, 7, 0, 4271.795, 4214.872, 4126.667, 4138.462, 4217.436, 450, 0, []
1628361925.9143, 8, 0, 4255.897, 4222.564, 4108.718, 4121.026, 4214.872, 450, 0, []
1628361925.9221, 9, 0, 4242.564, 4235.897, 4106.154, 4124.103, 4192.821, 16174, 0, []
1628361925.9301, 10, 0, 4245.641, 4240.513, 4118.974, 4139.487, 4183.077, 450, 0, []
1628361925.938, 11, 0, 4257.949, 4238.462, 4123.59, 4142.051, 4208.205, 16197, 0, []
1628361925.946, 12, 0, 4264.103, 4229.744, 4125.128, 4134.872, 4222.051, 450, 0, []
1628361925.9539, 13, 0, 4261.026, 4230.256, 4123.59, 4137.436, 4206.667, 450, 0, []
1628361925.9618, 14, 0, 4257.436, 4233.333, 4128.718, 4138.974, 4198.974, 450, 0, []
1628361925.9697, 15, 0, 4247.692, 4226.154, 4127.179, 4131.282, 4201.026, 16197, 0, []
1628361925.9775, 16, 0, 4236.923, 4226.154, 4115.897, 4133.333, 4194.359, 0, 0, []
1628361925.9854, 17, 0, 4230.769, 4227.179, 4113.333, 4142.564, 4183.077, 0, 0, []
1628361925.9932, 18, 0, 4228.205, 4213.846, 4100.513, 4136.41, 4180, 0, 0, []
1628361926.001, 19, 0, 4227.692, 4208.205, 4102.051, 4129.231, 4186.154, 0, 0, []
1628361926.0088, 20, 0, 4231.282, 4215.897, 4115.385, 4137.436, 4186.667, 0, 0, []
1628361926.0167, 21, 0, 4231.282, 4216.41, 4114.359, 4143.077, 4179.487, 0, 0, []
1628361926.0245, 22, 0, 4229.744, 4213.333, 4121.026, 4138.974, 4181.026, 0, 0, []
1628361926.0324, 23, 0, 4229.231, 4216.923, 4125.641, 4133.333, 4185.128, 0, 0, []
1628361926.0401, 24, 0, 4231.795, 4225.128, 4136.41, 4136.923, 4185.128, 0, 0, []
1628361926.048, 25, 0, 4239.487, 4221.026, 4160, 4147.692, 4192.821, 0, 0, []
1628361926.0558, 26, 0, 4237.949, 4204.103, 4157.436, 4154.872, 4199.487, 0, 0, []
1628361926.0638, 27, 0, 4229.231, 4203.59, 4132.308, 4154.872, 4201.538, 0, 0, []
1628361926.0717, 28, 0, 4236.41, 4218.462, 4113.333, 4149.231, 4211.282, 0, 0, []
1628361926.0796, 29, 0, 4240.513, 4222.051, 4118.462, 4130.769, 4215.385, 0, 0, []
1628361926.0875, 30, 0, 4231.795, 4222.051, 4126.667, 4121.026, 4209.744, 0, 0, []
1628361926.0955, 31, 0, 4236.923, 4228.718, 4121.026, 4133.333, 4210.769, 0, 0, []
1628361926.1034, 32, 0, 4250.256, 4224.615, 4129.231, 4140, 4220.513, 0, 0, []
1628361926.1114, 33, 0, 4252.308, 4216.923, 4137.949, 4139.487, 4231.795, 0, 0, []
1628361926.1192, 34, 0, 4256.923, 4226.667, 4141.026, 4152.308, 4239.487, 0, 0, []
1628361926.1272, 35, 0, 4267.692, 4243.077, 4149.231, 4163.59, 4232.821, 0, 0, []
1628361926.1351, 36, 0, 4267.179, 4247.179, 4145.641, 4150.769, 4229.744, 0, 0, []
1628361926.1429, 37, 0, 4263.59, 4248.205, 4149.744, 4133.846, 4243.077, 0, 0, []
1628361926.1508, 38, 0, 4273.333, 4248.718, 4149.231, 4140, 4253.333, 0, 0, []
1628361926.1585, 39, 0, 4280.513, 4236.923, 4139.487, 4154.872, 4247.179, 0, 0, []
1628361926.1664, 40, 0, 4276.41, 4233.846, 4146.154, 4156.41, 4242.051, 0, 0, []
1628361926.1742, 41, 0, 4272.821, 4247.179, 4146.154, 4154.359, 4252.821, 0, 0, []
1628361926.1821, 42, 0, 4273.333, 4252.308, 4140, 4161.538, 4256.41, 0, 0, []
1628361926.1899, 43, 0, 4269.744, 4242.564, 4131.282, 4155.897, 4235.897, 0, 0, []
1628361926.1977, 44, 0, 4270.769, 4250.769, 4132.821, 4138.974, 4231.282, 0, 0, []
1628361926.2055, 45, 0, 4290.256, 4276.41, 4156.41, 4147.692, 4258.974, 0, 0, []
1628361926.2135, 46, 0, 4308.718, 4276.923, 4159.487, 4174.359, 4278.462, 0, 0, []
1628361926.2214, 47, 0, 4296.923, 4256.923, 4142.051, 4175.385, 4262.051, 0, 0, []
1628361926.2294, 48, 0, 4270.256, 4243.59, 4123.077, 4156.923, 4238.462, 0, 0, []
1628361926.2373, 49, 0, 4256.923, 4235.897, 4106.667, 4151.795, 4229.231, 0, 0, []
1628361926.2452, 50, 0, 4248.718, 4235.897, 4102.051, 4146.154, 4222.564, 0, 0, []
1628361926.2531, 51, 0, 4241.538, 4244.103, 4106.667, 4125.641, 4212.821, 0, 0, []
1628361926.2611, 52, 0, 4242.564, 4240.513, 4132.308, 4116.923, 4213.333, 0, 0, []
1628361926.269, 53, 0, 4246.667, 4234.872, 4147.692, 4124.103, 4221.538, 0, 0, []
1628361926.277, 54, 0, 4255.897, 4246.667, 4146.667, 4126.154, 4217.949, 0, 0, []
1628361926.2848, 55, 0, 4264.103, 4248.718, 4160.513, 4125.128, 4214.359, 0, 0, []
1628361926.2926, 56, 0, 4263.077, 4233.846, 4150.256, 4132.308, 4234.359, 0, 0, []
1628361926.3005, 57, 0, 4262.564, 4224.615, 4124.103, 4143.59, 4253.333, 0, 0, []
1628361926.3083, 58, 0, 4254.359, 4221.026, 4106.154, 4143.59, 4236.41, 0, 0, []
1628361926.3162, 59, 0, 4230.256, 4215.897, 4084.615, 4128.205, 4205.128, 0, 0, []
1628361926.3239, 60, 0, 4212.821, 4202.564, 4077.436, 4112.308, 4190.769, 0, 0, []
1628361926.3318, 61, 0, 4213.333, 4193.846, 4072.821, 4104.615, 4184.103, 0, 0, []
1628361926.3396, 62, 0, 4214.872, 4201.026, 4071.795, 4100, 4183.077, 0, 0, []
1628361926.3475, 63, 0, 4203.59, 4201.026, 4085.641, 4096.923, 4182.051, 0, 0, []
1628361926.3553, 64, 0, 4195.897, 4198.462, 4103.59, 4110.256, 4179.487, 450, 0, []
1628361926.3631, 65, 0, 4208.718, 4207.179, 4122.051, 4134.872, 4190.769, 450, 0, []
1628361926.3709, 66, 0, 4220.513, 4210.769, 4117.949, 4139.487, 4205.128, 16188, 0, []
1628361926.3789, 67, 0, 4218.462, 4201.538, 4103.077, 4131.282, 4204.103, 450, 0, []
1628361926.3868, 68, 0, 4217.436, 4202.051, 4092.821, 4139.487, 4201.026, 16180, 0, []
1628361926.3947, 69, 0, 4221.026, 4211.282, 4072.821, 4142.051, 4202.051, 450, 0, []
1628361926.4025, 70, 0, 4223.077, 4212.821, 4074.872, 4123.59, 4202.051, 16059, 0, []
1628361926.4103, 71, 0, 4233.333, 4214.359, 4102.051, 4122.051, 4210.769, 450, 0, []
1628361926.4183, 72, 0, 4237.436, 4222.051, 4122.051, 4149.231, 4218.974, 450, 0, []
1628361926.4262, 73, 0, 4218.974, 4219.487, 4121.026, 4160, 4208.205, 16174, 0, []
1628361926.4341, 74, 0, 4205.641, 4203.59, 4097.436, 4150.769, 4191.282, 450, 0, []
1628361926.442, 75, 0, 4213.333, 4208.205, 4093.846, 4153.333, 4185.128, 16197, 0, []
1628361926.4499, 76, 0, 4211.282, 4221.026, 4103.077, 4154.359, 4184.615, 450, 0, []
1628361926.4577, 77, 0, 4197.436, 4204.615, 4102.564, 4140, 4185.641, 450, 0, []
1628361926.4656, 78, 0, 4206.154, 4192.821, 4100, 4128.205, 4187.179, 450, 0, []
1628361926.4734, 79, 0, 4215.897, 4214.872, 4086.154, 4120, 4185.128, 16197, 0, []
1628361926.4812, 80, 0, 4202.051, 4231.282, 4088.205, 4114.872, 4183.59, 450, 0, []
1628361926.489, 81, 0, 4204.615, 4222.051, 4105.128, 4129.744, 4187.692, 450, 0, []
1628361926.4969, 82, 0, 4223.077, 4212.821, 4109.231, 4150.256, 4192.308, 450, 0, []
1628361926.5047, 83, 0, 4224.615, 4210.769, 4118.974, 4154.359, 4197.949, 16197, 0, []
1628361926.5126, 84, 0, 4216.41, 4208.205, 4124.615, 4154.359, 4205.128, 450, 0, []
1628361926.5203, 85, 0, 4217.949, 4203.077, 4127.692, 4157.949, 4200.513, 450, 0, []
1628361926.5283, 86, 0, 4222.564, 4203.077, 4130.769, 4150.769, 4196.923, 450, 0, []
1628361926.5362, 87, 0, 4216.923, 4212.821, 4124.103, 4138.462, 4198.974, 16197, 0, []
1628361926.5442, 88, 0, 4202.051, 4228.205, 4108.718, 4140.513, 4184.615, 450, 0, []
1628361926.5521, 89, 0, 4196.41, 4237.949, 4089.231, 4153.333, 4171.795, 450, 0, []
1628361926.56, 90, 0, 4198.974, 4229.744, 4096.923, 4161.026, 4180.513, 450, 0, []
1628361926.5679, 91, 0, 4195.897, 4215.897, 4109.231, 4167.692, 4183.59, 16197, 0, []
1628361926.5759, 92, 0, 4205.641, 4221.026, 4098.462, 4178.462, 4185.641, 450, 0, []
1628361926.5838, 93, 0, 4223.077, 4232.308, 4102.051, 4186.667, 4210.256, 450, 0, []
1628361926.5918, 94, 0, 4217.436, 4221.026, 4101.026, 4191.282, 4218.462, 450, 0, []
1628361926.5997, 95, 0, 4219.487, 4215.897, 4099.487, 4201.538, 4204.103, 16197, 0, []
1628361926.6076, 96, 0, 4235.897, 4234.359, 4117.949, 4201.538, 4201.538, 450, 0, []
1628361926.6155, 97, 0, 4227.179, 4242.051, 4124.103, 4190.256, 4204.103, 450, 0, []
1628361926.6233, 98, 0, 4209.231, 4226.667, 4122.051, 4190.256, 4202.564, 450, 0, []
1628361926.6312, 99, 0, 4214.872, 4224.615, 4121.026, 4201.026, 4200, 16197, 0, []
1628361926.639, 100, 0, 4228.205, 4233.333, 4121.026, 4200.513, 4204.615, 450, 0, []
1628361926.6468, 101, 0, 4224.103, 4226.154, 4117.436, 4194.359, 4208.718, 450, 0, []
1628361926.6546, 102, 0, 4221.538, 4214.872, 4103.077, 4200.513, 4205.641, 450, 0, []
1628361926.6625, 103, 0, 4231.282, 4215.897, 4105.128, 4202.564, 4206.667, 16197, 0, []
1628361926.6703, 104, 0, 4231.282, 4216.923, 4112.308, 4188.205, 4217.436, 450, 0, []
1628361926.6783, 105, 0, 4221.538, 4212.821, 4111.795, 4184.615, 4218.974, 450, 0, []
1628361926.6861, 106, 0, 4228.205, 4220, 4116.923, 4202.051, 4216.923, 450, 0, []
1628361926.6941, 107, 0, 4239.487, 4232.308, 4115.385, 4202.051, 4224.615, 16197, 0, []
1628361926.702, 108, 0, 4225.128, 4230.256, 4110.256, 4183.077, 4218.974, 450, 0, []
1628361926.71, 109, 0, 4213.333, 4226.154, 4108.718, 4191.282, 4205.128, 450, 0, []
1628361926.7179, 110, 0, 4215.897, 4230.769, 4111.282, 4205.128, 4197.949, 450, 0, []
1628361926.7258, 111, 0, 4215.897, 4233.333, 4115.385, 4191.795, 4196.923, 16197, 0, []
1628361926.7337, 112, 0, 4215.897, 4228.205, 4098.462, 4174.359, 4200, 450, 0, []
1628361926.7417, 113, 0, 4212.308, 4226.154, 4089.231, 4171.795, 4192.308, 450, 0, []
1628361926.7496, 114, 0, 4200, 4221.026, 4091.282, 4165.641, 4181.538, 450, 0, []
1628361926.7575, 115, 0, 4195.385, 4210.256, 4085.128, 4163.077, 4186.154, 16197, 0, []
1628361926.7653, 116, 0, 4209.744, 4219.487, 4100.513, 4181.026, 4197.949, 450, 0, []
1628361926.7731, 117, 0, 4220.513, 4233.333, 4120.513, 4191.795, 4204.103, 450, 0, []
1628361926.781, 118, 0, 4222.564, 4230.256, 4127.692, 4183.077, 4214.359, 450, 0, []
1628361926.7888, 119, 0, 4239.487, 4236.41, 4124.615, 4187.692, 4233.333, 16197, 0, []
1628361926.7967, 120, 0, 4259.487, 4246.667, 4117.436, 4205.641, 4238.974, 450, 0, []
1628361926.8044, 121, 0, 4256.41, 4233.333, 4126.667, 4205.641, 4234.872, 450, 0, []
1628361926.8123, 122, 0, 4242.051, 4225.641, 4132.821, 4202.564, 4241.538, 450, 0, []
1628361926.8201, 123, 0, 4238.974, 4240.513, 4135.385, 4210.769, 4246.154, 16197, 0, []
1628361926.828, 124, 0, 4230.769, 4243.077, 4131.282, 4200.513, 4223.077, 450, 0, []
1628361926.8358, 125, 0, 4213.846, 4230.256, 4112.308, 4175.385, 4204.103, 450, 0, []
1628361926.8437, 126, 0, 4210.256, 4221.026, 4109.231, 4177.949, 4215.897, 450, 0, []
1628361926.8516, 127, 0, 4216.41, 4215.897, 4107.179, 4200, 4217.949, 16197, 0, []
1628361926.8596, 128, 0, 4219.487, 4214.359, 4095.897, 4194.872, 4205.128, 450, 0, []
1628361926.8675, 0, 0, 4220, 4222.051, 4092.821, 4181.538, 4213.846, 450, 0, []
1628361926.8755, 1, 0, 4220.513, 4230.769, 4100.513, 4191.282, 4218.462, 450, 0, []
1628361926.8833, 2, 0, 4220.513, 4225.641, 4117.949, 4197.949, 4200.513, 16188, 0, []
1628361926.8913, 3, 0, 4226.154, 4222.564, 4125.641, 4188.205, 4207.179, 450, 0, []
1628361926.8992, 4, 0, 4245.641, 4230.256, 4133.846, 4187.179, 4233.846, 16172, 0, []
1628361926.9072, 5, 0, 4252.821, 4236.41, 4142.051, 4192.821, 4227.692, 450, 0, []
1628361926.9151, 6, 0, 4227.692, 4231.795, 4126.154, 4186.667, 4201.026, 16088, 0, []
1628361926.9228, 7, 0, 4187.692, 4222.564, 4117.949, 4174.359, 4178.462, 450, 0, []
1628361926.9307, 8, 0, 4175.385, 4214.872, 4110.769, 4156.923, 4153.333, 450, 0, []
1628361926.9385, 9, 0, 4183.59, 4211.282, 4102.051, 4147.692, 4141.538, 16174, 0, []
1628361926.9464, 10, 0, 4172.308, 4213.333, 4117.436, 4162.051, 4150.769, 450, 0, []
1628361926.9542, 11, 0, 4164.615, 4211.282, 4120.513, 4170.769, 4155.385, 16197, 0, []
1628361926.9621, 12, 0, 4175.385, 4210.769, 4109.231, 4153.846, 4144.615, 450, 0, []
1628361926.9698, 13, 0, 4175.385, 4218.974, 4100.513, 4139.487, 4134.359, 450, 0, []
1628361926.9777, 14, 0, 4165.128, 4215.385, 4096.923, 4142.564, 4136.923, 450, 0, []
1628361926.9855, 15, 0, 4169.744, 4209.231, 4102.051, 4150.769, 4137.949, 16197, 0, []
1628361926.9935, 16, 0, 4173.333, 4215.385, 4105.641, 4152.308, 4127.692, 0, 0, []
1628361927.0014, 17, 0, 4168.718, 4216.41, 4116.41, 4152.821, 4127.692, 0, 0, []
1628361927.0093, 18, 0, 4176.41, 4212.308, 4116.923, 4155.897, 4141.538, 0, 0, []
1628361927.0172, 19, 0, 4175.897, 4215.897, 4101.538, 4150.769, 4133.846, 0, 0, []
1628361927.0252, 20, 0, 4149.231, 4202.051, 4094.359, 4133.333, 4110.256, 0, 0, []
1628361927.0331, 21, 0, 4129.744, 4181.026, 4080, 4120.513, 4095.385, 0, 0, []
1628361927.0411, 22, 0, 4133.333, 4189.744, 4076.41, 4118.974, 4092.821, 0, 0, []
1628361927.0489, 23, 0, 4138.462, 4191.795, 4087.179, 4122.051, 4101.026, 0, 0, []
1628361927.0569, 24, 0, 4137.949, 4181.538, 4089.744, 4131.795, 4107.692, 0, 0, []
1628361927.0648, 25, 0, 4134.359, 4193.333, 4094.359, 4138.462, 4101.538, 0, 0, []
1628361927.0728, 26, 0, 4120, 4196.923, 4082.564, 4126.154, 4089.231, 0, 0, []
1628361927.0807, 27, 0, 4108.205, 4183.59, 4066.667, 4114.359, 4081.026, 0, 0, []
1628361927.0884, 28, 0, 4114.359, 4182.051, 4073.333, 4126.154, 4086.667, 0, 0, []
1628361927.0963, 29, 0, 4122.051, 4180, 4084.615, 4140, 4095.897, 0, 0, []
1628361927.1041, 30, 0, 4116.41, 4165.641, 4100, 4137.949, 4093.846, 0, 0, []
1628361927.112, 31, 0, 4104.103, 4165.641, 4110.769, 4134.872, 4088.205, 0, 0, []
1628361927.1198, 32, 0, 4096.41, 4178.462, 4111.282, 4132.308, 4088.205, 0, 0, []
1628361927.1276, 33, 0, 4090.256, 4174.359, 4104.615, 4119.487, 4078.462, 0, 0, []
1628361927.1354, 34, 0, 4080, 4167.179, 4091.795, 4107.179, 4060, 0, 0, []
1628361927.1434, 35, 0, 4071.282, 4169.231, 4090.769, 4107.179, 4056.923, 0, 0, []
1628361927.1513, 36, 0, 4073.333, 4165.128, 4083.077, 4111.282, 4067.179, 0, 0, []
1628361927.1593, 37, 0, 4082.564, 4155.897, 4076.923, 4117.949, 4070.256, 0, 0, []
1628361927.1671, 38, 0, 4075.897, 4152.308, 4084.615, 4124.103, 4063.077, 0, 0, []
1628361927.1751, 39, 0, 4051.795, 4154.359, 4074.872, 4114.359, 4055.385, 0, 0, []
1628361927.183, 40, 0, 4045.128, 4147.179, 4066.154, 4100, 4053.333, 0, 0, []
1628361927.191, 41, 0, 4068.205, 4137.436, 4072.821, 4099.487, 4056.41, 0, 0, []
1628361927.1989, 42, 0, 4082.051, 4141.538, 4087.179, 4106.667, 4065.641, 0, 0, []
1628361927.2068, 43, 0, 4078.462, 4150.769, 4095.385, 4112.308, 4071.795, 0, 0, []
