Timestamp, COUNTER, INTERPOLATED, AF3, T7, Pz, T8, AF4, RAW_CQ, MARKER_HARDWARE, MARKERS
1629648810.2733, 39, 0, 4212.308, 4170.256, 4091.282, 4144.103, 4164.103, 0, 0, []
1629648810.2811, 40, 0, 4221.026, 4178.974, 4103.077, 4161.026, 4176.41, 0, 0, []
1629648810.2891, 41, 0, 4204.615, 4168.718, 4095.385, 4147.179, 4173.846, 0, 0, []
1629648810.297, 42, 0, 4169.744, 4142.564, 4085.128, 4114.872, 4147.179, 0, 0, []
1629648810.305, 43, 0, 4182.564, 4147.179, 4098.974, 4123.077, 4161.026, 0, 0, []
1629648810.3129, 44, 0, 4227.179, 4177.436, 4125.128, 4154.359, 4204.103, 0, 0, []
1629648810.3208, 45, 0, 4225.128, 4170.769, 4128.205, 4152.308, 4202.051, 0, 0, []
1629648810.3287, 46, 0, 4195.897, 4135.897, 4100.513, 4132.821, 4177.949, 0, 0, []
1629648810.3365, 47, 0, 4196.923, 4137.436, 4105.641, 4138.462, 4180, 0, 0, []
1629648810.3444, 48, 0, 4206.667, 4158.462, 4114.359, 4153.333, 4186.154, 0, 0, []
1629648810.3522, 49, 0, 4203.59, 4157.436, 4101.538, 4154.872, 4182.051, 0, 0, []
1629648810.36, 50, 0, 4199.487, 4152.308, 4103.59, 4142.564, 4177.949, 0, 0, []
1629648810.3678, 51, 0, 4200, 4150.769, 4102.564, 4131.282, 4177.436, 0, 0, []
1629648810.3757, 52, 0, 4206.154, 4146.154, 4110.256, 4137.949, 4186.154, 0, 0, []
1629648810.3835, 53, 0, 4208.718, 4141.538, 4113.846, 4140.513, 4190.256, 0, 0, []
1629648810.3915, 54, 0, 4200, 4136.41, 4107.179, 4137.436, 4180.513, 0, 0, []
1629648810.3994, 55, 0, 4197.436, 4134.872, 4122.564, 4152.308, 4180, 0, 0, []
1629648810.4073, 56, 0, 4204.615, 4141.538, 4123.077, 4163.59, 4189.744, 0, 0, []
1629648810.4152, 57, 0, 4196.41, 4133.846, 4108.205, 4140, 4180.513, 0, 0, []
1629648810.4232, 58, 0, 4187.179, 4135.385, 4107.179, 4117.436, 4169.231, 0, 0, []
1629648810.4311, 59, 0, 4196.41, 4166.154, 4114.359, 4123.077, 4176.923, 0, 0, []
1629648810.4391, 60, 0, 4202.564, 4174.359, 4126.667, 4135.897, 4185.641, 0, 0, []
1629648810.4469, 61, 0, 4205.128, 4155.385, 4121.538, 4136.41, 4188.205, 0, 0, []
1629648810.4549, 62, 0, 4200, 4145.128, 4105.128, 4115.385, 4173.333, 0, 0, []
1629648810.4628, 63, 0, 4190.256, 4151.282, 4093.846, 4101.538, 4157.436, 0, 0, []
1629648810.4706, 64, 0, 4207.179, 4169.231, 4101.026, 4129.231, 4178.462, 450, 0, []
1629648810.4785, 65, 0, 4242.051, 4178.462, 4132.821, 4163.59, 4221.538, 450, 0, []
1629648810.4862, 66, 0, 4241.538, 4158.462, 4124.615, 4156.923, 4224.615, 16189, 0, []
1629648810.4941, 67, 0, 4217.436, 4146.154, 4111.282, 4147.692, 4200.513, 450, 0, []
1629648810.5019, 68, 0, 4216.923, 4161.026, 4135.897, 4168.718, 4200.513, 16173, 0, []
1629648810.5098, 69, 0, 4224.103, 4162.564, 4140, 4180.513, 4207.692, 450, 0, []
1629648810.5176, 70, 0, 4214.359, 4155.385, 4137.949, 4172.821, 4203.59, 16100, 0, []
1629648810.5254, 71, 0, 4201.026, 4157.949, 4132.821, 4157.949, 4195.385, 450, 0, []
1629648810.5332, 72, 0, 4202.564, 4158.974, 4133.333, 4143.59, 4191.795, 450, 0, []
1629648810.5411, 73, 0, 4196.923, 4151.795, 4132.308, 4125.641, 4183.077, 16156, 0, []
1629648810.5489, 74, 0, 4174.359, 4142.051, 4098.462, 4104.615, 4169.744, 450, 0, []
1629648810.5569, 75, 0, 4165.641, 4127.692, 4086.667, 4102.051, 4164.615, 16203, 0, []
1629648810.5647, 76, 0, 4156.923, 4104.103, 4085.641, 4104.103, 4155.897, 450, 0, []
1629648810.5727, 77, 0, 4136.923, 4090.769, 4067.179, 4091.795, 4137.436, 450, 0, []
1629648810.5806, 78, 0, 4126.667, 4089.744, 4058.462, 4078.974, 4117.436, 450, 0, []
1629648810.5886, 79, 0, 4127.179, 4084.103, 4059.487, 4080.513, 4104.615, 16203, 0, []
1629648810.5965, 80, 0, 4127.692, 4066.154, 4063.59, 4081.538, 4105.128, 450, 0, []
1629648810.6045, 81, 0, 4142.051, 4060, 4049.744, 4066.667, 4127.179, 450, 0, []
1629648810.6123, 82, 0, 4166.667, 4051.282, 4034.359, 4048.718, 4163.077, 450, 0, []
1629648810.6203, 83, 0, 4183.077, 4023.59, 4039.487, 4041.026, 4194.872, 16203, 0, []
1629648810.6282, 84, 0, 4198.462, 4021.026, 4030.256, 4039.487, 4218.974, 450, 0, []
1629648810.636, 85, 0, 4205.128, 4041.026, 4026.154, 4042.564, 4233.333, 450, 0, []
1629648810.6439, 86, 0, 4193.846, 4035.385, 4022.051, 4057.949, 4234.872, 450, 0, []
1629648810.6516, 87, 0, 4168.718, 4013.846, 4001.538, 4068.718, 4226.154, 16203, 0, []
1629648810.6595, 88, 0, 4131.795, 4016.923, 4003.077, 4064.615, 4216.41, 450, 0, []
1629648810.6674, 89, 0, 4095.385, 4026.154, 4014.359, 4071.282, 4203.59, 450, 0, []
1629648810.6753, 90, 0, 4056.41, 4012.308, 4023.59, 4086.154, 4172.821, 450, 0, []
1629648810.6831, 91, 0, 4003.59, 3982.564, 4011.282, 4079.487, 4134.359, 16203, 0, []
1629648810.691, 92, 0, 3962.051, 3969.744, 3989.744, 4063.59, 4106.667, 450, 0, []
1629648810.6989, 93, 0, 3943.59, 3988.205, 3999.487, 4063.077, 4084.615, 450, 0, []
1629648810.7069, 94, 0, 3929.231, 3996.41, 3992.308, 4069.231, 4065.128, 450, 0, []
1629648810.7148, 95, 0, 3929.231, 3982.564, 3982.051, 4074.872, 4058.974, 16203, 0, []
1629648810.7228, 96, 0, 3941.026, 3983.077, 3989.231, 4076.923, 4061.026, 450, 0, []
1629648810.7306, 97, 0, 3933.333, 3987.692, 3976.41, 4067.692, 4055.385, 450, 0, []
1629648810.7386, 98, 0, 3915.385, 3976.923, 3970.256, 4055.897, 4045.641, 450, 0, []
1629648810.7465, 99, 0, 3916.923, 3980, 3973.846, 4048.205, 4043.59, 16203, 0, []
1629648810.7545, 100, 0, 3927.692, 3994.872, 3988.205, 4047.179, 4052.308, 450, 0, []
1629648810.7624, 101, 0, 3936.41, 3995.385, 4005.641, 4059.487, 4059.487, 450, 0, []
1629648810.7703, 102, 0, 3936.923, 3992.308, 3991.795, 4067.179, 4055.385, 450, 0, []
1629648810.7782, 103, 0, 3927.692, 4000, 3980.513, 4065.641, 4048.205, 16203, 0, []
1629648810.786, 104, 0, 3922.564, 4002.051, 3973.333, 4063.077, 4040.513, 450, 0, []
1629648810.7939, 105, 0, 3929.744, 3999.487, 3968.718, 4067.179, 4035.385, 450, 0, []
1629648810.8017, 106, 0, 3945.641, 4007.692, 3970.256, 4072.308, 4049.744, 450, 0, []
1629648810.8095, 107, 0, 3957.436, 4009.231, 3956.923, 4062.564, 4063.59, 16203, 0, []
1629648810.8173, 108, 0, 3955.897, 4002.051, 3957.949, 4051.282, 4053.846, 450, 0, []
1629648810.8252, 109, 0, 3952.821, 4007.179, 3965.128, 4063.077, 4046.667, 450, 0, []
1629648810.833, 110, 0, 3958.974, 4009.744, 3975.385, 4085.128, 4051.795, 450, 0, []
1629648810.8409, 111, 0, 3956.41, 3993.333, 3986.667, 4079.487, 4044.615, 16203, 0, []
1629648810.8487, 112, 0, 3949.744, 3989.744, 3971.795, 4057.949, 4036.923, 450, 0, []
1629648810.8566, 113, 0, 3950.769, 3994.359, 3974.872, 4051.795, 4043.077, 450, 0, []
1629648810.8645, 114, 0, 3952.308, 3986.667, 3981.026, 4050.256, 4043.59, 450, 0, []
1629648810.8725, 115, 0, 3961.026, 4005.128, 3973.333, 4046.667, 4045.128, 16203, 0, []
1629648810.8804, 116, 0, 3976.41, 4031.795, 3979.487, 4056.41, 4058.974, 450, 0, []
1629648810.8884, 117, 0, 3972.308, 4014.359, 3975.385, 4069.744, 4058.462, 450, 0, []
1629648810.8962, 118, 0, 3947.692, 3995.385, 3976.41, 4066.667, 4036.923, 450, 0, []
1629648810.9042, 119, 0, 3942.051, 4017.436, 3978.462, 4063.59, 4030.256, 16203, 0, []
1629648810.9121, 120, 0, 3957.949, 4026.667, 3975.897, 4073.333, 4041.026, 450, 0, []
1629648810.9201, 121, 0, 3950.769, 4008.718, 3987.179, 4068.205, 4033.846, 450, 0, []
1629648810.928, 122, 0, 3929.744, 3997.949, 3977.436, 4036.41, 4016.41, 450, 0, []
1629648810.9359, 123, 0, 3930.256, 4007.692, 3971.282, 4018.974, 4017.436, 16203, 0, []
1629648810.9438, 124, 0, 3942.564, 4038.974, 3980.513, 4035.385, 4024.103, 450, 0, []
1629648810.9516, 125, 0, 3946.667, 4060, 3978.462, 4055.897, 4026.154, 450, 0, []
1629648810.9595, 126, 0, 3947.692, 4050.769, 3984.615, 4061.026, 4031.795, 450, 0, []
1629648810.9673, 127, 0, 3946.154, 4043.077, 3981.538, 4054.359, 4032.821, 16203, 0, []
1629648810.9751, 128, 0, 3945.128, 4051.282, 3980, 4048.205, 4024.103, 450, 0, []
1629648810.9829, 0, 0, 3949.744, 4059.487, 3987.692, 4041.026, 4019.487, 450, 0, []
1629648810.9908, 1, 0, 3952.821, 4060.513, 3983.59, 4033.846, 4021.538, 450, 0, []
1629648810.9986, 2, 0, 3956.41, 4058.974, 3992.821, 4044.103, 4031.282, 16189, 0, []
1629648811.0065, 3, 0, 3965.128, 4062.564, 3995.897, 4056.41, 4040, 450, 0, []
1629648811.0142, 4, 0, 3962.564, 4070.256, 3988.205, 4051.282, 4029.231, 16173, 0, []
1629648811.0222, 5, 0, 3949.744, 4069.744, 3986.154, 4040, 4014.359, 450, 0, []
1629648811.0301, 6, 0, 3945.641, 4064.103, 3973.333, 4035.385, 4011.282, 16104, 0, []
1629648811.0381, 7, 0, 3936.923, 4067.179, 3964.103, 4025.641, 4005.128, 450, 0, []
1629648811.046, 8, 0, 3927.692, 4071.282, 3953.846, 4012.821, 4000, 450, 0, []
1629648811.0539, 9, 0, 3933.333, 4066.667, 3958.462, 4013.333, 4004.103, 16156, 0, []
1629648811.0618, 10, 0, 3946.154, 4074.359, 3979.487, 4025.641, 4015.897, 450, 0, []
1629648811.0698, 11, 0, 3952.308, 4101.026, 3987.692, 4036.923, 4030.769, 16203, 0, []
1629648811.0777, 12, 0, 3942.051, 4111.282, 3997.436, 4030.256, 4024.615, 450, 0, []
1629648811.0855, 13, 0, 3929.231, 4089.744, 3989.744, 4020.513, 4003.59, 450, 0, []
1629648811.0934, 14, 0, 3945.128, 4084.103, 3988.718, 4027.692, 4010.256, 450, 0, []
1629648811.1011, 15, 0, 3975.385, 4112.308, 4021.538, 4048.205, 4037.436, 16203, 0, []
1629648811.109, 16, 0, 3948.205, 4106.154, 4005.128, 4035.897, 4015.897, 0, 0, []
1629648811.1168, 17, 0, 3903.077, 4082.564, 3978.462, 4005.641, 3971.795, 0, 0, []
1629648811.1247, 18, 0, 3954.872, 4115.897, 4007.179, 4033.333, 4004.615, 0, 0, []
1629648811.1325, 19, 0, 4056.41, 4152.308, 4046.667, 4079.487, 4082.051, 0, 0, []
1629648811.1403, 20, 0, 4103.077, 4146.667, 4056.923, 4073.846, 4110.769, 0, 0, []
1629648811.1481, 21, 0, 4105.641, 4136.41, 4023.59, 4032.308, 4093.333, 0, 0, []
1629648811.156, 22, 0, 4113.846, 4133.846, 3998.974, 4009.744, 4083.077, 0, 0, []
1629648811.1638, 23, 0, 4137.949, 4136.41, 4001.026, 4014.872, 4095.897, 0, 0, []
1629648811.1718, 24, 0, 4169.231, 4153.333, 4008.205, 4026.154, 4117.949, 0, 0, []
1629648811.1796, 25, 0, 4185.128, 4163.077, 4012.308, 4023.59, 4123.077, 0, 0, []
1629648811.1876, 26, 0, 4194.872, 4165.128, 4002.564, 4012.821, 4117.949, 0, 0, []
1629648811.1955, 27, 0, 4208.718, 4167.179, 4007.692, 4013.333, 4120.513, 0, 0, []
1629648811.2035, 28, 0, 4202.051, 4152.308, 4001.026, 4001.538, 4105.641, 0, 0, []
1629648811.2114, 29, 0, 4204.615, 4159.487, 4008.718, 4015.897, 4111.282, 0, 0, []
1629648811.2193, 30, 0, 4223.077, 4201.538, 4054.872, 4056.923, 4140, 0, 0, []
1629648811.2272, 31, 0, 4227.692, 4209.744, 4061.538, 4070.256, 4153.333, 0, 0, []
1629648811.2352, 32, 0, 4225.641, 4185.128, 4052.821, 4069.744, 4154.359, 0, 0, []
1629648811.2431, 33, 0, 4216.923, 4184.103, 4053.846, 4063.59, 4145.128, 0, 0, []
1629648811.2509, 34, 0, 4204.103, 4204.615, 4044.615, 4053.333, 4135.897, 0, 0, []
1629648811.2587, 35, 0, 4194.359, 4206.667, 4055.897, 4052.821, 4134.872, 0, 0, []
1629648811.2665, 36, 0, 4185.641, 4192.308, 4051.282, 4048.718, 4124.103, 0, 0, []
1629648811.2744, 37, 0, 4193.846, 4184.615, 4042.051, 4047.692, 4117.436, 0, 0, []
1629648811.2822, 38, 0, 4214.872, 4196.41, 4066.154, 4065.128, 4137.949, 0, 0, []
1629648811.2901, 39, 0, 4205.128, 4209.231, 4068.205, 4069.231, 4140, 0, 0, []
1629648811.2979, 40, 0, 4175.897, 4193.333, 4052.308, 4054.359, 4113.846, 0, 0, []
1629648811.3057, 41, 0, 4170.256, 4171.282, 4038.974, 4047.179, 4104.103, 0, 0, []
1629648811.3135, 42, 0, 4168.718, 4180, 4032.308, 4039.487, 4101.026, 0, 0, []
1629648811.3215, 43, 0, 4166.667, 4207.179, 4043.077, 4041.538, 4104.615, 0, 0, []
1629648811.3294, 44, 0, 4165.641, 4206.154, 4039.487, 4041.538, 4109.744, 0, 0, []
1629648811.3374, 45, 0, 4157.949, 4188.718, 4037.949, 4032.821, 4100.513, 0, 0, []
1629648811.3452, 46, 0, 4171.795, 4196.923, 4053.846, 4052.821, 4108.205, 0, 0, []
1629648811.3532, 47, 0, 4192.308, 4206.667, 4067.692, 4072.821, 4128.205, 0, 0, []
1629648811.3611, 48, 0, 4185.128, 4203.59, 4070.256, 4064.103, 4126.667, 0, 0, []
1629648811.3691, 49, 0, 4167.179, 4207.179, 4058.462, 4060.513, 4113.333, 0, 0, []
1629648811.377, 50, 0, 4162.564, 4206.667, 4060, 4057.949, 4107.692, 0, 0, []
1629648811.3849, 51, 0, 4170.769, 4192.821, 4057.436, 4046.154, 4113.333, 0, 0, []
1629648811.3928, 52, 0, 4183.59, 4203.077, 4049.744, 4051.795, 4125.641, 0, 0, []
1629648811.4006, 53, 0, 4182.564, 4232.821, 4056.923, 4061.538, 4128.205, 0, 0, []
1629648811.4085, 54, 0, 4164.615, 4240, 4045.128, 4050.769, 4110.769, 0, 0, []
1629648811.4163, 55, 0, 4150.769, 4230.769, 4036.923, 4044.103, 4094.359, 0, 0, []
1629648811.4241, 56, 0, 4147.692, 4230.769, 4038.462, 4046.667, 4092.308, 0, 0, []
1629648811.4319, 57, 0, 4158.974, 4251.282, 4050.256, 4064.615, 4109.744, 0, 0, []
1629648811.4398, 58, 0, 4182.051, 4270.769, 4074.359, 4084.103, 4132.308, 0, 0, []
1629648811.4476, 59, 0, 4186.154, 4261.538, 4059.487, 4074.359, 4127.692, 0, 0, []
1629648811.4555, 60, 0, 4177.436, 4255.897, 4052.821, 4073.333, 4119.487, 0, 0, []
1629648811.4632, 61, 0, 4194.359, 4281.026, 4077.949, 4104.103, 4143.59, 0, 0, []
1629648811.4711, 62, 0, 4219.487, 4288.205, 4086.667, 4111.795, 4164.615, 0, 0, []
1629648811.4789, 63, 0, 4206.154, 4265.128, 4086.154, 4084.103, 4143.077, 0, 0, []
1629648811.4869, 64, 0, 4178.974, 4258.974, 4068.205, 4074.872, 4120, 450, 0, []
1629648811.4948, 65, 0, 4184.103, 4268.205, 4059.487, 4088.718, 4130.769, 450, 0, []
1629648811.5027, 66, 0, 4202.564, 4268.718, 4073.333, 4099.487, 4151.282, 16189, 0, []
1629648811.5106, 67, 0, 4205.128, 4260.513, 4073.846, 4104.103, 4156.41, 450, 0, []
1629648811.5186, 68, 0, 4195.385, 4262.051, 4073.846, 4096.41, 4147.692, 16173, 0, []
1629648811.5265, 69, 0, 4192.821, 4269.231, 4068.205, 4088.718, 4141.538, 450, 0, []
1629648811.5345, 70, 0, 4192.308, 4260, 4067.692, 4092.308, 4139.487, 16103, 0, []
1629648811.5424, 71, 0, 4189.744, 4249.744, 4076.923, 4093.333, 4137.949, 450, 0, []
1629648811.5503, 72, 0, 4196.41, 4262.051, 4070.256, 4090.256, 4142.051, 450, 0, []
1629648811.5582, 73, 0, 4196.923, 4264.615, 4068.718, 4080, 4138.974, 16156, 0, []
1629648811.566, 74, 0, 4189.744, 4253.846, 4068.718, 4068.718, 4136.923, 450, 0, []
1629648811.5739, 75, 0, 4188.205, 4262.051, 4070.256, 4079.487, 4148.205, 16203, 0, []
1629648811.5817, 76, 0, 4188.205, 4268.205, 4074.872, 4086.667, 4149.231, 450, 0, []
1629648811.5895, 77, 0, 4188.205, 4259.487, 4065.641, 4069.744, 4140.513, 450, 0, []
1629648811.5973, 78, 0, 4191.282, 4260.513, 4070.256, 4071.282, 4144.615, 450, 0, []
1629648811.6052, 79, 0, 4199.487, 4253.333, 4064.103, 4077.949, 4151.795, 16203, 0, []
1629648811.613, 80, 0, 4207.179, 4229.744, 4048.718, 4058.974, 4148.205, 450, 0, []
1629648811.6209, 81, 0, 4215.385, 4225.641, 4048.205, 4050.256, 4152.308, 450, 0, []
1629648811.6286, 82, 0, 4232.821, 4238.462, 4037.949, 4055.897, 4174.872, 450, 0, []
1629648811.6366, 83, 0, 4269.744, 4230.769, 4047.692, 4058.462, 4209.231, 16203, 0, []
1629648811.6445, 84, 0, 4299.487, 4220.513, 4053.333, 4054.359, 4228.718, 450, 0, []
1629648811.6524, 85, 0, 4314.872, 4230.256, 4035.897, 4044.103, 4235.385, 450, 0, []
1629648811.6603, 86, 0, 4347.692, 4234.359, 4049.231, 4052.308, 4267.692, 450, 0, []
1629648811.6681, 87, 0, 4380, 4223.077, 4062.564, 4074.872, 4310.256, 16203, 0, []
1629648811.676, 88, 0, 4374.872, 4217.436, 4059.487, 4072.308, 4319.487, 450, 0, []
1629648811.6838, 89, 0, 4367.692, 4217.436, 4054.359, 4057.949, 4318.974, 450, 0, []
1629648811.6918, 90, 0, 4386.667, 4220.513, 4062.564, 4068.718, 4344.103, 450, 0, []
1629648811.6997, 91, 0, 4402.051, 4230.256, 4083.077, 4085.641, 4370.769, 16203, 0, []
1629648811.7075, 92, 0, 4403.59, 4235.897, 4076.41, 4089.744, 4382.051, 450, 0, []
1629648811.7153, 93, 0, 4404.103, 4230.769, 4076.41, 4091.795, 4390.769, 450, 0, []
1629648811.7232, 94, 0, 4401.538, 4224.103, 4092.308, 4099.487, 4394.872, 450, 0, []
1629648811.731, 95, 0, 4394.872, 4224.103, 4083.59, 4104.615, 4392.308, 16203, 0, []
1629648811.7389, 96, 0, 4394.872, 4226.154, 4080, 4103.59, 4401.538, 450, 0, []
1629648811.7467, 97, 0, 4395.385, 4226.154, 4078.974, 4112.308, 4417.949, 450, 0, []
1629648811.7545, 98, 0, 4376.923, 4229.744, 4076.41, 4118.462, 4408.205, 450, 0, []
1629648811.7623, 99, 0, 4356.41, 4231.795, 4079.487, 4112.308, 4389.231, 16203, 0, []
1629648811.7702, 100, 0, 4359.487, 4226.154, 4079.487, 4118.462, 4393.333, 450, 0, []
1629648811.778, 101, 0, 4370.256, 4217.436, 4084.103, 4124.103, 4397.949, 450, 0, []
1629648811.7859, 102, 0, 4374.872, 4215.385, 4074.359, 4121.538, 4402.051, 450, 0, []
1629648811.7936, 103, 0, 4387.179, 4224.615, 4078.974, 4143.077, 4424.103, 16203, 0, []
1629648811.8016, 104, 0, 4385.128, 4232.308, 4086.667, 4154.359, 4425.128, 450, 0, []
1629648811.8095, 105, 0, 4362.564, 4223.077, 4062.564, 4123.59, 4398.974, 450, 0, []
1629648811.8175, 106, 0, 4354.359, 4210.256, 4060.513, 4112.308, 4389.744, 450, 0, []
1629648811.8254, 107, 0, 4373.846, 4214.359, 4067.692, 4133.846, 4402.051, 16203, 0, []
1629648811.8333, 108, 0, 4391.795, 4230.256, 4075.385, 4147.179, 4416.41, 450, 0, []
1629648811.8412, 109, 0, 4388.205, 4242.051, 4089.744, 4151.282, 4424.615, 450, 0, []
1629648811.8492, 110, 0, 4389.231, 4248.718, 4080.513, 4154.359, 4425.128, 450, 0, []
1629648811.8571, 111, 0, 4402.564, 4248.718, 4080.513, 4157.949, 4425.128, 16203, 0, []
1629648811.8651, 112, 0, 4398.462, 4243.59, 4075.897, 4156.923, 4424.103, 450, 0, []
1629648811.8729, 113, 0, 4372.821, 4234.872, 4052.308, 4138.974, 4407.692, 450, 0, []
1629648811.8807, 114, 0, 4352.308, 4224.103, 4056.923, 4120, 4387.179, 450, 0, []
1629648811.8886, 115, 0, 4343.077, 4218.462, 4064.103, 4122.051, 4376.41, 16203, 0, []
1629648811.8964, 116, 0, 4335.897, 4213.846, 4054.872, 4126.667, 4369.744, 450, 0, []
1629648811.9043, 117, 0, 4330.769, 4197.436, 4026.154, 4106.154, 4353.846, 450, 0, []
1629648811.912, 118, 0, 4331.795, 4186.154, 4016.923, 4094.359, 4345.128, 450, 0, []
1629648811.9199, 119, 0, 4349.744, 4209.231, 4049.231, 4124.615, 4367.692, 16203, 0, []
1629648811.9277, 120, 0, 4357.949, 4222.564, 4040, 4133.846, 4378.462, 450, 0, []
1629648811.9356, 121, 0, 4338.974, 4201.538, 4015.897, 4100.513, 4353.333, 450, 0, []
1629648811.9434, 122, 0, 4336.923, 4200.513, 4029.744, 4093.333, 4354.872, 450, 0, []
1629648811.9513, 123, 0, 4349.744, 4206.154, 4042.051, 4110.256, 4374.872, 16203, 0, []
1629648811.9592, 124, 0, 4338.974, 4185.128, 4036.923, 4104.615, 4358.974, 450, 0, []
1629648811.9672, 125, 0, 4332.821, 4173.846, 4027.692, 4094.872, 4345.641, 450, 0, []
1629648811.9751, 126, 0, 4352.308, 4183.077, 4042.564, 4102.564, 4366.667, 450, 0, []
1629648811.9831, 127, 0, 4345.641, 4185.128, 4048.205, 4105.641, 4367.692, 16203, 0, []
1629648811.991, 128, 0, 4315.385, 4181.026, 4029.744, 4104.103, 4343.077, 450, 0, []
1629648811.9989, 0, 0, 4311.282, 4184.615, 4032.308, 4106.667, 4334.359, 450, 0, []
1629648812.0068, 1, 0, 4330.256, 4196.923, 4036.41, 4110.769, 4346.667, 450, 0, []
1629648812.0148, 2, 0, 4323.59, 4193.333, 4035.385, 4107.179, 4340.513, 16193, 0, []
1629648812.0227, 3, 0, 4309.231, 4189.744, 4035.897, 4096.923, 4328.205, 450, 0, []
1629648812.0305, 4, 0, 4318.462, 4195.385, 4032.308, 4097.436, 4335.385, 16173, 0, []
1629648812.0383, 5, 0, 4347.179, 4182.564, 4044.615, 4099.487, 4331.795, 450, 0, []
1629648812.0461, 6, 0, 4359.487, 4182.051, 4046.667, 4097.436, 4320.513, 16121, 0, []
1629648812.054, 7, 0, 4323.077, 4206.154, 4048.718, 4108.718, 4333.333, 450, 0, []
1629648812.0618, 8, 0, 4274.359, 4190.256, 4049.231, 4113.333, 4331.795, 450, 0, []
1629648812.0697, 9, 0, 4267.692, 4164.103, 4031.282, 4104.103, 4310.769, 16156, 0, []
1629648812.0774, 10, 0, 4292.821, 4193.846, 4048.718, 4115.897, 4326.667, 450, 0, []
1629648812.0853, 11, 0, 4349.231, 4222.051, 4071.282, 4129.744, 4358.974, 16202, 0, []
1629648812.0931, 12, 0, 4378.974, 4204.615, 4054.359, 4102.564, 4340, 450, 0, []
1629648812.1011, 13, 0, 4301.538, 4173.846, 4033.333, 4072.308, 4296.923, 450, 0, []
1629648812.109, 14, 0, 4226.154, 4158.462, 4023.077, 4075.385, 4284.615, 450, 0, []
1629648812.1169, 15, 0, 4248.205, 4174.872, 4036.41, 4084.615, 4293.846, 16202, 0, []
1629648812.1248, 16, 0, 4254.872, 4198.974, 4043.077, 4080, 4288.205, 0, 0, []
1629648812.1328, 17, 0, 4202.564, 4179.487, 4022.051, 4068.718, 4256.923, 0, 0, []
1629648812.1407, 18, 0, 4191.795, 4147.692, 4016.41, 4074.359, 4241.538, 0, 0, []
1629648812.1487, 19, 0, 4215.385, 4156.41, 4021.026, 4090.769, 4253.846, 0, 0, []
1629648812.1565, 20, 0, 4190.256, 4167.692, 4017.949, 4080.513, 4238.462, 0, 0, []
1629648812.1645, 21, 0, 4193.333, 4170.769, 4013.846, 4073.846, 4227.179, 0, 0, []
1629648812.1724, 22, 0, 4246.154, 4173.846, 4022.564, 4087.179, 4246.667, 0, 0, []
1629648812.1803, 23, 0, 4244.615, 4167.692, 4038.462, 4083.59, 4245.128, 0, 0, []
1629648812.1882, 24, 0, 4193.333, 4158.462, 4021.026, 4068.718, 4227.692, 0, 0, []
1629648812.1959, 25, 0, 4184.615, 4165.641, 4012.308, 4075.897, 4223.59, 0, 0, []
1629648812.2038, 26, 0, 4209.231, 4176.923, 4014.872, 4082.564, 4225.641, 0, 0, []
1629648812.2116, 27, 0, 4221.538, 4170.256, 4016.41, 4073.846, 4231.795, 0, 0, []
1629648812.2195, 28, 0, 4228.718, 4168.205, 4038.974, 4083.59, 4246.154, 0, 0, []
1629648812.2273, 29, 0, 4220, 4177.949, 4028.205, 4092.821, 4240, 0, 0, []
1629648812.2352, 30, 0, 4217.436, 4183.077, 4012.308, 4080, 4226.667, 0, 0, []
1629648812.2429, 31, 0, 4248.205, 4179.487, 4023.077, 4073.333, 4236.41, 0, 0, []
1629648812.2509, 32, 0, 4251.282, 4167.692, 4016.923, 4075.897, 4241.538, 0, 0, []
1629648812.2588, 33, 0, 4219.487, 4153.846, 4007.179, 4063.077, 4223.59, 0, 0, []
1629648812.2668, 34, 0, 4207.692, 4151.282, 3995.385, 4040, 4202.564, 0, 0, []
1629648812.2747, 35, 0, 4220.513, 4167.179, 3998.462, 4051.282, 4217.436, 0, 0, []
1629648812.2826, 36, 0, 4250.769, 4171.795, 4013.333, 4085.128, 4247.179, 0, 0, []
1629648812.2905, 37, 0, 4249.744, 4150.769, 4011.282, 4080, 4222.564, 0, 0, []
1629648812.2985, 38, 0, 4210.256, 4140, 4016.923, 4053.333, 4189.231, 0, 0, []
1629648812.3064, 39, 0, 4201.538, 4153.846, 4015.385, 4056.923, 4212.308, 0, 0, []
1629648812.3144, 40, 0, 4215.385, 4150.769, 4013.846, 4066.667, 4221.538, 0, 0, []
1629648812.3222, 41, 0, 4202.051, 4136.41, 4022.564, 4051.282, 4187.179, 0, 0, []
1629648812.3301, 42, 0, 4203.59, 4153.846, 4018.974, 4051.282, 4191.795, 0, 0, []
1629648812.338, 43, 0, 4224.103, 4168.205, 4025.128, 4069.744, 4218.462, 0, 0, []
1629648812.3458, 44, 0, 4212.308, 4158.462, 4028.205, 4070.769, 4206.154, 0, 0, []
1629648812.3537, 45, 0, 4206.667, 4163.59, 4031.795, 4071.282, 4201.538, 0, 0, []
1629648812.3614, 46, 0, 4220.513, 4174.359, 4048.718, 4077.436, 4218.974, 0, 0, []
1629648812.3693, 47, 0, 4216.923, 4154.872, 4040, 4069.744, 4211.795, 0, 0, []
1629648812.3771, 48, 0, 4214.359, 4142.564, 4033.333, 4067.179, 4190.769, 0, 0, []
1629648812.385, 49, 0, 4211.795, 4162.051, 4033.333, 4073.846, 4185.641, 0, 0, []
1629648812.3928, 50, 0, 4185.641, 4171.795, 4023.077, 4064.615, 4181.538, 0, 0, []
1629648812.4006, 51, 0, 4170.256, 4167.179, 4026.667, 4063.077, 4178.462, 0, 0, []
1629648812.4084, 52, 0, 4179.487, 4167.179, 4016.923, 4070.256, 4178.462, 0, 0, []
1629648812.4164, 53, 0, 4180, 4169.744, 4010.256, 4057.949, 4171.282, 0, 0, []
1629648812.4243, 54, 0, 4216.923, 4175.385, 4024.615, 4058.462, 4195.385, 0, 0, []
1629648812.4323, 55, 0, 4272.308, 4180, 4034.872, 4077.436, 4228.718, 0, 0, []
1629648812.4402, 56, 0, 4261.538, 4174.359, 4038.462, 4082.051, 4221.538, 0, 0, []
1629648812.4481, 57, 0, 4208.718, 4162.564, 4016.41, 4068.205, 4192.308, 0, 0, []
1629648812.456, 58, 0, 4181.026, 4154.359, 4013.846, 4060.513, 4174.872, 0, 0, []
1629648812.464, 59, 0, 4184.615, 4155.385, 4030.769, 4065.128, 4176.41, 0, 0, []
1629648812.4719, 60, 0, 4192.821, 4153.333, 4027.179, 4071.282, 4190.256, 0, 0, []
1629648812.4799, 61, 0, 4191.795, 4149.744, 4031.795, 4076.923, 4195.897, 0, 0, []
1629648812.4877, 62, 0, 4177.949, 4160.513, 4032.308, 4071.795, 4177.436, 0, 0, []
1629648812.4955, 63, 0, 4183.077, 4175.385, 4040, 4069.744, 4177.436, 0, 0, []
1629648812.5034, 64, 0, 4190.769, 4174.359, 4046.154, 4070.256, 4183.59, 450, 0, []
1629648812.5112, 65, 0, 4171.282, 4168.205, 4034.872, 4068.205, 4168.718, 450, 0, []
1629648812.5191, 66, 0, 4166.154, 4171.795, 4040, 4070.769, 4171.795, 16202, 0, []
1629648812.5268, 67, 0, 4173.846, 4164.103, 4033.846, 4068.718, 4185.128, 450, 0, []
1629648812.5347, 68, 0, 4171.795, 4151.282, 4035.897, 4070.769, 4184.615, 16171, 0, []
1629648812.5425, 69, 0, 4167.692, 4160, 4048.205, 4080.513, 4182.051, 450, 0, []
1629648812.5504, 70, 0, 4172.308, 4167.179, 4025.128, 4080, 4184.103, 16103, 0, []
1629648812.5582, 71, 0, 4177.949, 4150.256, 4013.846, 4070.256, 4180.513, 450, 0, []
1629648812.5661, 72, 0, 4178.462, 4141.538, 4024.103, 4074.359, 4182.051, 450, 0, []
1629648812.574, 73, 0, 4187.179, 4154.872, 4045.128, 4091.282, 4198.462, 16156, 0, []
1629648812.582, 74, 0, 4200.513, 4156.41, 4053.333, 4089.231, 4210.256, 450, 0, []
1629648812.5899, 75, 0, 4191.282, 4143.59, 4032.308, 4067.179, 4200, 16203, 0, []
1629648812.5979, 76, 0, 4171.795, 4145.641, 4042.564, 4063.077, 4186.667, 450, 0, []
1629648812.6057, 77, 0, 4168.718, 4152.308, 4055.897, 4075.385, 4182.564, 450, 0, []
1629648812.6137, 78, 0, 4166.154, 4137.436, 4043.59, 4075.897, 4169.744, 450, 0, []
1629648812.6216, 79, 0, 4170.769, 4133.333, 4045.128, 4077.949, 4171.282, 16203, 0, []
1629648812.6296, 80, 0, 4190.256, 4150.256, 4052.308, 4090.769, 4192.821, 450, 0, []
1629648812.6375, 81, 0, 4182.564, 4155.897, 4062.051, 4088.718, 4183.077, 450, 0, []
1629648812.6454, 82, 0, 4165.641, 4150.256, 4056.41, 4084.103, 4167.179, 450, 0, []
1629648812.6533, 83, 0, 4178.974, 4150.769, 4045.641, 4093.333, 4180.513, 16203, 0, []
1629648812.6612, 84, 0, 4186.667, 4154.359, 4041.538, 4082.564, 4180.513, 450, 0, []
1629648812.6691, 85, 0, 4171.282, 4167.692, 4032.821, 4065.641, 4164.615, 450, 0, []
1629648812.6769, 86, 0, 4162.051, 4188.205, 4049.231, 4075.897, 4161.538, 450, 0, []
1629648812.6848, 87, 0, 4166.667, 4187.179, 4049.231, 4078.974, 4161.026, 16203, 0, []
1629648812.6925, 88, 0, 4172.821, 4188.205, 4026.154, 4067.179, 4162.564, 450, 0, []
1629648812.7004, 89, 0, 4172.821, 4205.641, 4039.487, 4078.462, 4171.282, 450, 0, []
1629648812.7082, 90, 0, 4172.821, 4197.436, 4054.359, 4094.359, 4171.282, 450, 0, []
1629648812.7161, 91, 0, 4188.718, 4181.538, 4065.641, 4097.436, 4172.821, 16203, 0, []
1629648812.7239, 92, 0, 4206.667, 4200.513, 4073.846, 4098.462, 4184.103, 450, 0, []
1629648812.7318, 93, 0, 4201.538, 4208.205, 4068.205, 4094.359, 4184.615, 450, 0, []
1629648812.7397, 94, 0, 4186.667, 4185.641, 4073.846, 4095.897, 4176.41, 450, 0, []
1629648812.7477, 95, 0, 4184.103, 4189.231, 4071.795, 4100.513, 4170.256, 16203, 0, []
1629648812.7556, 96, 0, 4193.846, 4203.59, 4078.974, 4094.872, 4174.359, 450, 0, []
1629648812.7636, 97, 0, 4199.487, 4203.59, 4087.692, 4095.385, 4183.077, 450, 0, []
1629648812.7714, 98, 0, 4192.308, 4213.333, 4066.154, 4105.128, 4180, 450, 0, []
1629648812.7794, 99, 0, 4180, 4213.333, 4057.949, 4100.513, 4164.615, 16203, 0, []
1629648812.7873, 100, 0, 4169.231, 4199.487, 4066.667, 4090.769, 4159.487, 450, 0, []
1629648812.7953, 101, 0, 4175.897, 4207.692, 4089.231, 4116.41, 4175.385, 450, 0, []
1629648812.8032, 102, 0, 4196.41, 4210.769, 4102.051, 4142.051, 4186.154, 450, 0, []
1629648812.8109, 103, 0, 4203.077, 4197.949, 4090.256, 4128.205, 4173.846, 16203, 0, []
1629648812.8188, 104, 0, 4200.513, 4211.795, 4102.051, 4117.436, 4165.128, 450, 0, []
1629648812.8266, 105, 0, 4206.154, 4226.667, 4107.692, 4130.769, 4175.385, 450, 0, []
1629648812.8345, 106, 0, 4198.462, 4215.897, 4100, 4133.846, 4170.256, 450, 0, []
1629648812.8423, 107, 0, 4176.923, 4211.795, 4096.41, 4123.077, 4152.308, 16203, 0, []
1629648812.8501, 108, 0, 4177.949, 4208.718, 4085.128, 4126.667, 4154.359, 450, 0, []
1629648812.8579, 109, 0, 4187.179, 4196.923, 4095.897, 4130.769, 4158.462, 450, 0, []
1629648812.8658, 110, 0, 4181.538, 4205.128, 4094.359, 4124.615, 4148.718, 450, 0, []
1629648812.8736, 111, 0, 4175.385, 4220, 4067.692, 4124.615, 4142.564, 16203, 0, []
1629648812.8816, 112, 0, 4173.846, 4211.282, 4052.308, 4120, 4135.385, 450, 0, []
1629648812.8894, 113, 0, 4152.821, 4188.205, 4037.949, 4096.923, 4106.667, 450, 0, []
1629648812.8974, 114, 0, 4121.026, 4175.897, 4046.154, 4076.923, 4076.41, 450, 0, []
1629648812.9053, 115, 0, 4109.231, 4176.41, 4058.974, 4076.41, 4073.333, 16203, 0, []
1629648812.9133, 116, 0, 4114.872, 4174.872, 4049.744, 4073.846, 4084.103, 450, 0, []
1629648812.9212, 117, 0, 4120.513, 4167.179, 4031.282, 4058.462, 4082.051, 450, 0, []
1629648812.9292, 118, 0, 4125.128, 4166.154, 4000.513, 4050.769, 4078.462, 450, 0, []
1629648812.937, 119, 0, 4117.436, 4167.692, 3989.231, 4052.821, 4072.308, 16203, 0, []
1629648812.945, 120, 0, 4097.436, 4158.974, 3986.154, 4050.769, 4053.333, 450, 0, []
1629648812.9529, 121, 0, 4104.103, 4155.897, 3983.59, 4060, 4056.41, 450, 0, []
1629648812.9607, 122, 0, 4133.333, 4171.282, 4004.103, 4085.641, 4088.718, 450, 0, []
1629648812.9686, 123, 0, 4142.564, 4177.949, 4011.282, 4092.308, 4105.128, 16203, 0, []
1629648812.9763, 124, 0, 4141.538, 4168.718, 4015.385, 4079.487, 4098.462, 450, 0, []
1629648812.9842, 125, 0, 4146.667, 4168.718, 4029.744, 4073.846, 4097.949, 450, 0, []
1629648812.992, 126, 0, 4148.718, 4174.359, 4035.897, 4078.462, 4099.487, 450, 0, []
1629648812.9999, 127, 0, 4142.564, 4165.641, 4026.154, 4071.795, 4091.795, 16203, 0, []
1629648813.0077, 128, 0, 4147.179, 4165.641, 4002.564, 4063.077, 4097.949, 450, 0, []
1629648813.0155, 0, 0, 4160.513, 4184.615, 4007.179, 4072.308, 4116.41, 450, 0, []
1629648813.0233, 1, 0, 4168.718, 4183.077, 4010.256, 4081.538, 4119.487, 450, 0, []
1629648813.0312, 2, 0, 4166.154, 4170.256, 3987.179, 4075.897, 4109.231, 16195, 0, []
1629648813.039, 3, 0, 4158.974, 4184.615, 3993.333, 4069.231, 4105.128, 450, 0, []
1629648813.047, 4, 0, 4157.436, 4195.897, 4006.154, 4065.641, 4100.513, 16171, 0, []
1629648813.0548, 5, 0, 4146.667, 4172.308, 4023.077, 4062.051, 4088.718, 450, 0, []
1629648813.0628, 6, 0, 4142.051, 4162.564, 4044.103, 4066.667, 4092.821, 16098, 0, []
1629648813.0707, 7, 0, 4160, 4183.59, 4038.974, 4078.462, 4114.359, 450, 0, []
1629648813.0787, 8, 0, 4180, 4187.179, 4044.615, 4085.641, 4130.256, 450, 0, []
1629648813.0866, 9, 0, 4176.923, 4177.949, 4036.923, 4083.59, 4128.205, 16156, 0, []
1629648813.0945, 10, 0, 4155.897, 4178.462, 4007.179, 4075.897, 4111.795, 450, 0, []
1629648813.1024, 11, 0, 4151.795, 4177.436, 4004.103, 4076.41, 4108.718, 16203, 0, []
1629648813.1104, 12, 0, 4155.897, 4168.205, 4013.333, 4084.103, 4118.974, 450, 0, []
1629648813.1183, 13, 0, 4141.538, 4162.051, 4021.026, 4077.436, 4104.615, 450, 0, []
1629648813.1261, 14, 0, 4125.641, 4160, 4010.256, 4056.923, 4081.026, 450, 0, []
1629648813.1339, 15, 0, 4137.949, 4151.282, 4014.359, 4058.462, 4094.359, 16203, 0, []
1629648813.1417, 16, 0, 4159.487, 4148.205, 4047.692, 4084.615, 4124.615, 0, 0, []
1629648813.1496, 17, 0, 4155.897, 4156.41, 4049.744, 4091.795, 4123.59, 0, 0, []
1629648813.1574, 18, 0, 4140.513, 4155.385, 4034.359, 4078.974, 4109.231, 0, 0, []
1629648813.1653, 19, 0, 4137.436, 4143.59, 4017.949, 4074.359, 4109.744, 0, 0, []
1629648813.1731, 20, 0, 4141.538, 4143.59, 4005.128, 4068.718, 4109.744, 0, 0, []
1629648813.1809, 21, 0, 4141.538, 4156.41, 4007.179, 4062.051, 4101.026, 0, 0, []
1629648813.1887, 22, 0, 4140, 4167.692, 4011.282, 4077.436, 4103.077, 0, 0, []
1629648813.1967, 23, 0, 4137.436, 4168.205, 4037.436, 4096.923, 4113.846, 0, 0, []
1629648813.2046, 24, 0, 4136.41, 4157.949, 4049.231, 4092.308, 4113.846, 0, 0, []
1629648813.2126, 25, 0, 4139.487, 4155.385, 4036.41, 4086.667, 4108.718, 0, 0, []
1629648813.2204, 26, 0, 4135.385, 4164.615, 4047.692, 4092.821, 4108.205, 0, 0, []
1629648813.2284, 27, 0, 4125.128, 4162.051, 4043.077, 4085.128, 4107.179, 0, 0, []
1629648813.2363, 28, 0, 4127.179, 4151.282, 4032.308, 4076.923, 4102.564, 0, 0, []
1629648813.2443, 29, 0, 4138.974, 4156.41, 4043.59, 4092.308, 4105.641, 0, 0, []
1629648813.2522, 30, 0, 4143.077, 4154.872, 4043.59, 4103.077, 4113.846, 0, 0, []
1629648813.2601, 31, 0, 4139.487, 4138.974, 4039.487, 4093.846, 4111.795, 0, 0, []
1629648813.268, 32, 0, 4139.487, 4138.462, 4039.487, 4096.923, 4110.256, 0, 0, []
1629648813.2758, 33, 0, 4140, 4152.308, 4054.359, 4113.333, 4118.974, 0, 0, []
1629648813.2837, 34, 0, 4140, 4156.923, 4058.974, 4109.744, 4125.128, 0, 0, []
1629648813.2915, 35, 0, 4136.41, 4148.205, 4047.179, 4090.256, 4115.897, 0, 0, []
1629648813.2993, 36, 0, 4127.179, 4149.744, 4052.821, 4085.128, 4102.564, 0, 0, []
1629648813.3071, 37, 0, 4122.051, 4157.949, 4038.462, 4084.615, 4094.872, 0, 0, []
1629648813.315, 38, 0, 4119.487, 4151.282, 4025.641, 4083.59, 4090.256, 0, 0, []
1629648813.3228, 39, 0, 4118.462, 4149.744, 4038.462, 4093.333, 4093.846, 0, 0, []
1629648813.3307, 40, 0, 4127.692, 4167.692, 4038.974, 4106.667, 4106.154, 0, 0, []
1629648813.3384, 41, 0, 4139.487, 4173.846, 4050.256, 4110.256, 4118.462, 0, 0, []
1629648813.3464, 42, 0, 4137.949, 4166.154, 4056.923, 4106.154, 4121.538, 0, 0, []
1629648813.3543, 43, 0, 4136.923, 4177.949, 4053.846, 4105.641, 4120.513, 0, 0, []
1629648813.3623, 44, 0, 4151.282, 4189.231, 4067.179, 4113.846, 4129.744, 0, 0, []
1629648813.3702, 45, 0, 4165.641, 4185.128, 4073.846, 4121.538, 4141.026, 0, 0, []
1629648813.3782, 46, 0, 4165.641, 4189.744, 4083.077, 4118.462, 4143.077, 0, 0, []
1629648813.386, 47, 0, 4156.41, 4193.846, 4075.897, 4106.154, 4139.487, 0, 0, []
1629648813.394, 48, 0, 4151.282, 4181.538, 4064.103, 4102.051, 4132.821, 0, 0, []
1629648813.4019, 49, 0, 4160, 4176.41, 4077.436, 4112.821, 4134.872, 0, 0, []
1629648813.4099, 50, 0, 4172.821, 4190.256, 4077.436, 4118.462, 4147.692, 0, 0, []
1629648813.4178, 51, 0, 4168.205, 4194.872, 4070.769, 4107.179, 4147.179, 0, 0, []
1629648813.4257, 52, 0, 4158.462, 4184.615, 4063.077, 4104.103, 4136.41, 0, 0, []
1629648813.4336, 53, 0, 4160, 4187.179, 4062.051, 4121.026, 4141.538, 0, 0, []
1629648813.4414, 54, 0, 4166.154, 4203.077, 4074.872, 4127.179, 4147.179, 0, 0, []
1629648813.4493, 55, 0, 4169.231, 4203.59, 4065.128, 4122.564, 4143.077, 0, 0, []
1629648813.4571, 56, 0, 4167.179, 4195.897, 4067.692, 4122.051, 4147.179, 0, 0, []
1629648813.4649, 57, 0, 4167.692, 4210.256, 4083.59, 4125.641, 4153.333, 0, 0, []
1629648813.4727, 58, 0, 4174.872, 4217.949, 4087.692, 4135.385, 4154.359, 0, 0, []
1629648813.4806, 59, 0, 4175.385, 4206.154, 4090.769, 4145.128, 4160, 0, 0, []
1629648813.4884, 60, 0, 4170.256, 4202.564, 4080, 4143.59, 4163.59, 0, 0, []
1629648813.4963, 61, 0, 4161.026, 4195.385, 4078.462, 4134.359, 4149.744, 0, 0, []
1629648813.504, 62, 0, 4150.769, 4183.59, 4080, 4122.051, 4133.846, 0, 0, []
1629648813.5119, 63, 0, 4155.385, 4192.821, 4073.846, 4118.462, 4137.949, 0, 0, []
1629648813.5197, 64, 0, 4170.769, 4208.718, 4083.59, 4132.821, 4152.308, 450, 0, []
1629648813.5277, 65, 0, 4174.359, 4203.077, 4081.538, 4137.949, 4155.385, 450, 0, []
1629648813.5356, 66, 0, 4173.333, 4196.923, 4085.641, 4125.641, 4149.231, 16194, 0, []
1629648813.5435, 67, 0, 4178.974, 4204.103, 4096.923, 4128.205, 4150.769, 450, 0, []
1629648813.5514, 68, 0, 4184.615, 4196.923, 4087.179, 4137.949, 4154.872, 16171, 0, []
1629648813.5594, 69, 0, 4184.103, 4189.231, 4089.744, 4130.256, 4154.359, 450, 0, []
1629648813.5673, 70, 0, 4174.872, 4199.487, 4087.692, 4118.974, 4152.308, 16094, 0, []
1629648813.5753, 71, 0, 4164.103, 4205.128, 4080.513, 4121.026, 4143.077, 450, 0, []
1629648813.5831, 72, 0, 4164.103, 4200.513, 4080.513, 4120.513, 4132.308, 450, 0, []
1629648813.5909, 73, 0, 4174.359, 4197.436, 4070.256, 4117.436, 4138.462, 16156, 0, []
1629648813.5988, 74, 0, 4182.564, 4196.923, 4078.974, 4130.256, 4151.282, 450, 0, []
1629648813.6066, 75, 0, 4186.667, 4202.051, 4086.667, 4138.974, 4157.949, 16203, 0, []
1629648813.6145, 76, 0, 4192.308, 4218.974, 4086.154, 4128.718, 4163.59, 450, 0, []
1629648813.6223, 77, 0, 4193.846, 4223.077, 4090.769, 4123.59, 4161.026, 450, 0, []
1629648813.6301, 78, 0, 4189.231, 4202.564, 4088.718, 4137.436, 4154.872, 450, 0, []
1629648813.6379, 79, 0, 4184.615, 4184.615, 4089.744, 4137.436, 4154.359, 16203, 0, []
1629648813.6458, 80, 0, 4188.205, 4197.436, 4084.103, 4120.513, 4157.436, 450, 0, []
1629648813.6536, 81, 0, 4190.769, 4211.795, 4087.179, 4124.103, 4161.026, 450, 0, []
1629648813.6615, 82, 0, 4187.692, 4195.385, 4100.513, 4134.359, 4161.026, 450, 0, []
1629648813.6693, 83, 0, 4182.564, 4182.564, 4086.667, 4125.128, 4154.359, 16203, 0, []
1629648813.6772, 84, 0, 4183.077, 4197.949, 4087.692, 4127.692, 4154.359, 450, 0, []
1629648813.685, 85, 0, 4189.744, 4204.615, 4094.872, 4143.077, 4161.026, 450, 0, []
1629648813.693, 86, 0, 4189.744, 4189.744, 4087.692, 4136.923, 4160, 450, 0, []
1629648813.7009, 87, 0, 4182.051, 4185.128, 4093.333, 4122.564, 4152.308, 16203, 0, []
1629648813.7088, 88, 0, 4167.692, 4186.667, 4084.615, 4122.051, 4142.564, 450, 0, []
1629648813.7167, 89, 0, 4152.821, 4182.051, 4085.128, 4124.615, 4131.282, 450, 0, []
1629648813.7247, 90, 0, 4150.256, 4184.103, 4102.051, 4130.256, 4129.744, 450, 0, []
1629648813.7326, 91, 0, 4151.795, 4183.59, 4106.667, 4127.692, 4129.231, 16203, 0, []
1629648813.7406, 92, 0, 4147.692, 4186.667, 4106.154, 4119.487, 4124.103, 450, 0, []
1629648813.7484, 93, 0, 4146.154, 4197.949, 4094.359, 4127.692, 4124.615, 450, 0, []
1629648813.7562, 94, 0, 4142.564, 4199.487, 4100, 4136.923, 4120, 450, 0, []
1629648813.7641, 95, 0, 4132.308, 4187.692, 4111.282, 4130.769, 4112.308, 16203, 0, []
1629648813.7719, 96, 0, 4134.359, 4183.59, 4108.205, 4131.795, 4115.897, 450, 0, []
1629648813.7798, 97, 0, 4146.667, 4187.179, 4119.487, 4141.026, 4119.487, 450, 0, []
1629648813.7875, 98, 0, 4153.333, 4183.077, 4116.923, 4138.974, 4121.538, 450, 0, []
1629648813.7954, 99, 0, 4153.846, 4188.718, 4110.769, 4136.41, 4124.615, 16203, 0, []
1629648813.8032, 100, 0, 4164.615, 4202.564, 4122.051, 4148.718, 4136.41, 450, 0, []
1629648813.8112, 101, 0, 4182.051, 4202.564, 4129.744, 4159.487, 4155.385, 450, 0, []
1629648813.8191, 102, 0, 4182.051, 4197.949, 4132.821, 4158.974, 4154.872, 450, 0, []
1629648813.827, 103, 0, 4171.795, 4199.487, 4109.231, 4150.769, 4139.487, 16203, 0, []
1629648813.8349, 104, 0, 4164.103, 4187.179, 4092.308, 4144.103, 4129.744, 450, 0, []
1629648813.8429, 105, 0, 4154.359, 4177.949, 4102.051, 4139.487, 4125.641, 450, 0, []
1629648813.8508, 106, 0, 4153.846, 4191.282, 4102.051, 4135.897, 4125.641, 450, 0, []
1629648813.8588, 107, 0, 4164.103, 4193.333, 4104.103, 4140.513, 4137.436, 16203, 0, []
1629648813.8667, 108, 0, 4170.769, 4180.513, 4100.513, 4149.231, 4149.231, 450, 0, []
1629648813.8746, 109, 0, 4167.179, 4183.077, 4097.949, 4151.282, 4154.359, 450, 0, []
1629648813.8825, 110, 0, 4156.41, 4189.231, 4101.538, 4143.59, 4154.359, 450, 0, []
1629648813.8905, 111, 0, 4150.769, 4192.308, 4091.795, 4137.436, 4151.282, 16203, 0, []
1629648813.8984, 112, 0, 4162.564, 4203.077, 4107.179, 4147.179, 4160, 450, 0, []
1629648813.9062, 113, 0, 4174.359, 4202.564, 4116.41, 4162.051, 4174.872, 450, 0, []
1629648813.914, 114, 0, 4175.385, 4195.385, 4102.051, 4169.231, 4180, 450, 0, []
1629648813.9218, 115, 0, 4184.103, 4206.154, 4103.077, 4170.256, 4185.641, 16203, 0, []
1629648813.9297, 116, 0, 4191.795, 4216.923, 4100.513, 4167.692, 4186.667, 450, 0, []
1629648813.9375, 117, 0, 4187.179, 4214.359, 4103.59, 4165.641, 4174.872, 450, 0, []
1629648813.9454, 118, 0, 4186.154, 4206.154, 4105.641, 4164.103, 4169.231, 450, 0, []
1629648813.9531, 119, 0, 4193.333, 4201.026, 4103.077, 4166.154, 4181.026, 16203, 0, []
1629648813.9611, 120, 0, 4187.692, 4200.513, 4106.154, 4171.795, 4179.487, 450, 0, []
1629648813.969, 121, 0, 4171.795, 4202.051, 4091.795, 4164.103, 4160, 450, 0, []
1629648813.977, 122, 0, 4164.103, 4198.974, 4089.231, 4153.846, 4155.897, 450, 0, []
1629648813.9849, 123, 0, 4162.564, 4188.718, 4089.744, 4160, 4167.179, 16203, 0, []
1629648813.9928, 124, 0, 4155.385, 4181.026, 4081.026, 4162.051, 4164.103, 450, 0, []
1629648814.0007, 125, 0, 4155.897, 4183.077, 4092.821, 4153.846, 4152.308, 450, 0, []
1629648814.0087, 126, 0, 4161.026, 4196.41, 4088.718, 4152.308, 4154.872, 450, 0, []
1629648814.0166, 127, 0, 4152.308, 4197.436, 4076.41, 4149.744, 4154.872, 16203, 0, []
1629648814.0246, 128, 0, 4152.308, 4197.949, 4079.487, 4142.051, 4147.692, 450, 0, []
1629648814.0324, 0, 0, 4170.769, 4213.333, 4087.692, 4147.692, 4156.923, 450, 0, []
1629648814.0402, 1, 0, 4172.821, 4211.795, 4094.872, 4158.974, 4168.718, 450, 0, []
1629648814.0481, 2, 0, 4153.846, 4193.846, 4080.513, 4152.308, 4160, 16194, 0, []
1629648814.0559, 3, 0, 4149.744, 4192.308, 4084.103, 4141.538, 4150.256, 450, 0, []
1629648814.0638, 4, 0, 4158.974, 4209.231, 4098.974, 4141.026, 4152.821, 16171, 0, []
1629648814.0716, 5, 0, 4154.359, 4206.154, 4078.974, 4130.256, 4143.077, 450, 0, []
1629648814.0794, 6, 0, 4152.308, 4186.667, 4074.872, 4112.821, 4135.897, 16096, 0, []
1629648814.0872, 7, 0, 4172.308, 4192.821, 4090.256, 4126.154, 4156.41, 450, 0, []
1629648814.0951, 8, 0, 4183.59, 4213.333, 4099.487, 4157.436, 4173.333, 450, 0, []
1629648814.1029, 9, 0, 4171.282, 4208.718, 4098.462, 4161.026, 4171.795, 16156, 0, []
1629648814.1108, 10, 0, 4168.718, 4198.974, 4087.179, 4150.769, 4167.179, 450, 0, []
1629648814.1185, 11, 0, 4173.846, 4202.051, 4094.872, 4148.718, 4160, 16203, 0, []
1629648814.1264, 12, 0, 4162.051, 4183.077, 4091.282, 4132.308, 4153.333, 450, 0, []
1629648814.1342, 13, 0, 4146.154, 4165.641, 4082.564, 4109.231, 4147.692, 450, 0, []
1629648814.1422, 14, 0, 4148.718, 4184.615, 4093.846, 4109.744, 4140.513, 450, 0, []
1629648814.1501, 15, 0, 4160, 4192.821, 4095.897, 4120.513, 4141.538, 16203, 0, []
1629648814.158, 16, 0, 4165.641, 4184.615, 4107.179, 4127.692, 4155.897, 0, 0, []
1629648814.1659, 17, 0, 4178.974, 4203.59, 4123.077, 4146.154, 4174.872, 0, 0, []
1629648814.1739, 18, 0, 4194.359, 4216.923, 4131.282, 4169.744, 4189.231, 0, 0, []
1629648814.1818, 19, 0, 4193.846, 4197.949, 4130.769, 4176.41, 4188.205, 0, 0, []
1629648814.1898, 20, 0, 4185.128, 4183.077, 4105.641, 4167.179, 4173.333, 0, 0, []
1629648814.1976, 21, 0, 4177.436, 4174.359, 4095.385, 4150.769, 4163.077, 0, 0, []
1629648814.2054, 22, 0, 4173.333, 4171.282, 4095.897, 4134.359, 4167.692, 0, 0, []
1629648814.2133, 23, 0, 4167.179, 4181.026, 4102.051, 4128.718, 4171.795, 0, 0, []
1629648814.2211, 24, 0, 4153.846, 4186.667, 4115.385, 4127.692, 4158.462, 0, 0, []
1629648814.229, 25, 0, 4151.795, 4193.333, 4108.718, 4129.744, 4147.692, 0, 0, []
1629648814.2367, 26, 0, 4177.436, 4218.462, 4118.462, 4151.282, 4162.051, 0, 0, []
1629648814.2446, 27, 0, 4192.308, 4225.641, 4124.103, 4170.256, 4176.923, 0, 0, []
1629648814.2524, 28, 0, 4177.436, 4197.949, 4104.615, 4168.718, 4170.256, 0, 0, []
1629648814.2603, 29, 0, 4162.051, 4191.795, 4112.821, 4166.154, 4159.487, 0, 0, []
1629648814.2681, 30, 0, 4154.359, 4201.026, 4120, 4160, 4153.846, 0, 0, []
1629648814.276, 31, 0, 4151.282, 4201.026, 4120, 4147.179, 4153.846, 0, 0, []
1629648814.2839, 32, 0, 4154.359, 4209.744, 4115.385, 4138.974, 4154.872, 0, 0, []
1629648814.2919, 33, 0, 4157.436, 4220.513, 4097.949, 4136.923, 4147.179, 0, 0, []
1629648814.2998, 34, 0, 4158.974, 4216.41, 4095.385, 4137.949, 4138.462, 0, 0, []
1629648814.3078, 35, 0, 4160.513, 4199.487, 4088.205, 4131.795, 4137.436, 0, 0, []
1629648814.3157, 36, 0, 4155.897, 4177.436, 4083.59, 4120, 4135.385, 0, 0, []
1629648814.3236, 37, 0, 4151.795, 4168.205, 4092.308, 4121.538, 4132.821, 0, 0, []
1629648814.3315, 38, 0, 4154.359, 4176.923, 4106.667, 4138.974, 4142.564, 0, 0, []
1629648814.3395, 39, 0, 4165.128, 4183.077, 4132.821, 4145.641, 4163.59, 0, 0, []
1629648814.3474, 40, 0, 4179.487, 4190.769, 4132.821, 4139.487, 4176.923, 0, 0, []
1629648814.3553, 41, 0, 4179.487, 4202.051, 4126.154, 4138.974, 4166.154, 0, 0, []
1629648814.3631, 42, 0, 4169.231, 4194.872, 4133.333, 4141.538, 4150.256, 0, 0, []
1629648814.3709, 43, 0, 4167.179, 4188.718, 4119.487, 4140, 4149.744, 0, 0, []
1629648814.3788, 44, 0, 4176.923, 4201.538, 4112.821, 4140, 4155.385, 0, 0, []
1629648814.3866, 45, 0, 4184.615, 4206.667, 4112.308, 4148.718, 4155.897, 0, 0, []
1629648814.3945, 46, 0, 4182.564, 4199.487, 4114.872, 4151.795, 4155.897, 0, 0, []
1629648814.4022, 47, 0, 4180.513, 4200, 4124.103, 4144.615, 4159.487, 0, 0, []
1629648814.4101, 48, 0, 4184.615, 4205.128, 4109.231, 4132.308, 4156.41, 0, 0, []
1629648814.4179, 49, 0, 4182.564, 4200.513, 4097.949, 4123.077, 4145.128, 0, 0, []
1629648814.4258, 50, 0, 4169.744, 4188.718, 4090.256, 4117.949, 4135.897, 0, 0, []
1629648814.4336, 51, 0, 4170.769, 4189.231, 4086.154, 4111.795, 4137.949, 0, 0, []
1629648814.4415, 52, 0, 4191.795, 4200.513, 4099.487, 4114.872, 4150.769, 0, 0, []
1629648814.4494, 53, 0, 4204.615, 4203.077, 4109.231, 4133.333, 4165.128, 0, 0, []
1629648814.4574, 54, 0, 4198.974, 4194.872, 4130.769, 4152.821, 4170.256, 0, 0, []
1629648814.4653, 55, 0, 4202.051, 4195.897, 4136.923, 4159.487, 4175.897, 0, 0, []
1629648814.4733, 56, 0, 4215.385, 4211.795, 4120.513, 4161.026, 4189.744, 0, 0, []
1629648814.4811, 57, 0, 4211.795, 4217.436, 4116.923, 4152.821, 4185.641, 0, 0, []
1629648814.4891, 58, 0, 4195.385, 4201.538, 4106.667, 4137.436, 4164.103, 0, 0, []
1629648814.497, 59, 0, 4187.179, 4188.718, 4105.641, 4134.359, 4154.872, 0, 0, []
1629648814.505, 60, 0, 4187.179, 4205.128, 4111.282, 4137.949, 4156.41, 0, 0, []
1629648814.5129, 61, 0, 4185.641, 4219.487, 4107.692, 4136.41, 4158.462, 0, 0, []
1629648814.5206, 62, 0, 4182.564, 4211.282, 4110.769, 4138.974, 4157.949, 0, 0, []
1629648814.5285, 63, 0, 4180.513, 4202.564, 4103.59, 4143.59, 4153.333, 0, 0, []
1629648814.5363, 64, 0, 4185.128, 4213.333, 4112.308, 4145.641, 4159.487, 450, 0, []
1629648814.5442, 65, 0, 4185.641, 4222.051, 4122.051, 4148.205, 4169.231, 450, 0, []
1629648814.552, 66, 0, 4168.718, 4198.462, 4101.026, 4143.59, 4156.41, 16194, 0, []
1629648814.5599, 67, 0, 4168.718, 4184.103, 4102.051, 4141.538, 4146.667, 450, 0, []
1629648814.5676, 68, 0, 4191.795, 4207.179, 4114.872, 4151.795, 4162.564, 16171, 0, []
1629648814.5755, 69, 0, 4185.128, 4218.974, 4114.359, 4147.692, 4159.487, 450, 0, []
1629648814.5833, 70, 0, 4151.795, 4201.538, 4101.538, 4123.59, 4127.692, 16141, 0, []
1629648814.5913, 71, 0, 4151.795, 4190.769, 4087.179, 4114.872, 4117.949, 450, 0, []
1629648814.5992, 72, 0, 4176.923, 4201.538, 4101.026, 4128.718, 4137.436, 450, 0, []
1629648814.6071, 73, 0, 4187.692, 4213.846, 4106.154, 4136.41, 4156.41, 16156, 0, []
1629648814.615, 74, 0, 4189.231, 4218.462, 4108.205, 4143.077, 4165.128, 450, 0, []
1629648814.623, 75, 0, 4184.103, 4217.949, 4116.923, 4146.667, 4160.513, 16203, 0, []
1629648814.6309, 76, 0, 4178.974, 4206.154, 4109.744, 4136.923, 4147.692, 450, 0, []
1629648814.6389, 77, 0, 4179.487, 4194.359, 4117.436, 4129.744, 4144.615, 450, 0, []
1629648814.6467, 78, 0, 4184.103, 4201.538, 4125.128, 4133.333, 4149.744, 450, 0, []
1629648814.6547, 79, 0, 4191.795, 4216.923, 4127.692, 4139.487, 4151.795, 16203, 0, []
1629648814.6626, 80, 0, 4202.564, 4216.41, 4136.923, 4150.256, 4163.077, 450, 0, []
1629648814.6704, 81, 0, 4205.641, 4206.154, 4130.256, 4164.103, 4175.385, 450, 0, []
1629648814.6783, 82, 0, 4195.897, 4205.128, 4127.692, 4159.487, 4163.59, 450, 0, []
1629648814.686, 83, 0, 4189.231, 4216.41, 4122.564, 4145.128, 4150.256, 16203, 0, []
1629648814.6939, 84, 0, 4188.718, 4219.487, 4115.897, 4137.436, 4152.821, 450, 0, []
1629648814.7017, 85, 0, 4186.667, 4207.179, 4121.026, 4132.308, 4154.872, 450, 0, []
1629648814.7096, 86, 0, 4187.692, 4201.026, 4113.846, 4132.308, 4154.872, 450, 0, []
1629648814.7174, 87, 0, 4188.718, 4200, 4123.077, 4143.077, 4156.41, 16203, 0, []
1629648814.7252, 88, 0, 4188.718, 4202.564, 4128.718, 4144.103, 4149.231, 450, 0, []
1629648814.733, 89, 0, 4181.026, 4208.718, 4111.795, 4125.128, 4139.487, 450, 0, []
1629648814.741, 90, 0, 4164.615, 4193.846, 4107.692, 4112.308, 4129.744, 450, 0, []
1629648814.7489, 91, 0, 4157.949, 4182.564, 4097.436, 4114.359, 4120, 16203, 0, []
1629648814.7569, 92, 0, 4167.179, 4194.872, 4102.564, 4122.564, 4120.513, 450, 0, []
1629648814.7648, 93, 0, 4173.333, 4196.923, 4113.846, 4133.333, 4127.692, 450, 0, []
1629648814.7727, 94, 0, 4167.179, 4174.359, 4104.615, 4134.359, 4124.615, 450, 0, []
1629648814.7806, 95, 0, 4166.667, 4169.744, 4111.795, 4129.744, 4120.513, 16203, 0, []
1629648814.7886, 96, 0, 4170.256, 4185.641, 4120.513, 4133.846, 4123.59, 450, 0, []
1629648814.7965, 97, 0, 4165.641, 4187.179, 4121.026, 4140, 4122.051, 450, 0, []
1629648814.8045, 98, 0, 4165.641, 4188.205, 4117.436, 4136.923, 4122.564, 450, 0, []
1629648814.8123, 99, 0, 4172.308, 4204.615, 4120, 4137.949, 4131.282, 16203, 0, []
1629648814.8203, 100, 0, 4172.821, 4216.41, 4135.897, 4143.077, 4136.923, 450, 0, []
1629648814.8282, 101, 0, 4168.718, 4202.564, 4114.872, 4140.513, 4137.436, 450, 0, []
1629648814.836, 102, 0, 4173.846, 4191.795, 4089.231, 4140, 4136.41, 450, 0, []
1629648814.8439, 103, 0, 4183.59, 4209.231, 4095.385, 4145.128, 4138.974, 16203, 0, []
1629648814.8516, 104, 0, 4178.974, 4225.641, 4096.41, 4142.564, 4139.487, 450, 0, []
1629648814.8595, 105, 0, 4160, 4211.795, 4097.436, 4129.231, 4126.154, 450, 0, []
1629648814.8673, 106, 0, 4157.436, 4194.359, 4093.846, 4124.615, 4117.436, 450, 0, []
1629648814.8752, 107, 0, 4177.436, 4210.769, 4100.513, 4136.923, 4128.718, 16203, 0, []
1629648814.883, 108, 0, 4186.667, 4218.462, 4109.231, 4142.564, 4137.949, 450, 0, []
1629648814.8908, 109, 0, 4183.59, 4206.154, 4097.436, 4138.974, 4140.513, 450, 0, []
1629648814.8986, 110, 0, 4185.641, 4212.821, 4104.615, 4143.59, 4149.231, 450, 0, []
1629648814.9065, 111, 0, 4193.333, 4217.436, 4107.692, 4146.154, 4157.436, 16203, 0, []
1629648814.9143, 112, 0, 4194.872, 4210.256, 4098.462, 4138.462, 4155.897, 450, 0, []
1629648814.9223, 113, 0, 4191.282, 4220.513, 4103.59, 4145.128, 4154.359, 450, 0, []
1629648814.9301, 114, 0, 4186.154, 4224.103, 4104.615, 4153.846, 4154.359, 450, 0, []
1629648814.9381, 115, 0, 4184.103, 4209.744, 4109.744, 4146.667, 4151.795, 16203, 0, []
1629648814.946, 116, 0, 4186.154, 4223.077, 4103.077, 4146.667, 4150.769, 450, 0, []
1629648814.954, 117, 0, 4183.59, 4233.846, 4091.795, 4155.385, 4150.256, 450, 0, []
1629648814.9619, 118, 0, 4182.051, 4215.897, 4101.538, 4154.359, 4152.821, 450, 0, []
1629648814.9698, 119, 0, 4185.128, 4211.795, 4102.051, 4144.615, 4154.359, 16203, 0, []
1629648814.9777, 120, 0, 4187.179, 4218.974, 4101.026, 4143.59, 4151.282, 450, 0, []
1629648814.9855, 121, 0, 4186.154, 4211.282, 4098.974, 4145.128, 4152.308, 450, 0, []
1629648814.9934, 122, 0, 4183.59, 4205.641, 4094.359, 4140, 4154.359, 450, 0, []
1629648815.0012, 123, 0, 4190.256, 4221.538, 4107.692, 4142.564, 4156.41, 16203, 0, []
1629648815.0091, 124, 0, 4206.154, 4229.231, 4109.231, 4149.744, 4164.103, 450, 0, []
1629648815.0168, 125, 0, 4206.667, 4224.103, 4110.256, 4154.359, 4169.231, 450, 0, []
1629648815.0247, 126, 0, 4189.231, 4217.949, 4111.282, 4149.744, 4161.026, 450, 0, []
1629648815.0325, 127, 0, 4187.179, 4204.103, 4104.103, 4142.051, 4154.359, 16203, 0, []
1629648815.0404, 128, 0, 4200.513, 4199.487, 4113.333, 4138.974, 4160, 450, 0, []
1629648815.0482, 0, 0, 4194.359, 4208.718, 4111.282, 4136.41, 4157.949, 450, 0, []
1629648815.0561, 1, 0, 4185.128, 4214.359, 4114.872, 4136.923, 4152.308, 450, 0, []
1629648815.064, 2, 0, 4197.949, 4226.154, 4125.641, 4148.718, 4167.179, 16193, 0, []
1629648815.072, 3, 0, 4209.744, 4236.41, 4120, 4157.436, 4177.949, 450, 0, []
1629648815.0799, 4, 0, 4198.462, 4224.103, 4117.949, 4148.205, 4160.513, 16171, 0, []
1629648815.0879, 5, 0, 4180.513, 4214.359, 4096.41, 4133.846, 4141.026, 450, 0, []
1629648815.0957, 6, 0, 4168.718, 4209.744, 4078.462, 4124.615, 4132.308, 16106, 0, []
1629648815.1037, 7, 0, 4166.667, 4196.923, 4090.256, 4127.179, 4133.333, 450, 0, []
1629648815.1116, 8, 0, 4182.564, 4204.615, 4103.59, 4145.128, 4153.846, 450, 0, []
1629648815.1196, 9, 0, 4192.308, 4222.564, 4119.487, 4158.462, 4170.256, 16156, 0, []
1629648815.1275, 10, 0, 4186.667, 4221.026, 4120.513, 4154.359, 4169.231, 450, 0, []
1629648815.1354, 11, 0, 4188.718, 4212.821, 4117.436, 4147.692, 4165.641, 16203, 0, []
1629648815.1433, 12, 0, 4198.462, 4207.692, 4110.769, 4141.026, 4163.077, 450, 0, []
1629648815.1511, 13, 0, 4196.41, 4211.282, 4089.231, 4134.872, 4161.538, 450, 0, []
1629648815.159, 14, 0, 4186.154, 4217.436, 4100, 4136.923, 4161.538, 450, 0, []
1629648815.1668, 15, 0, 4182.564, 4204.103, 4110.256, 4139.487, 4161.538, 16203, 0, []
1629648815.1746, 16, 0, 4183.077, 4198.974, 4101.538, 4140.513, 4156.923, 0, 0, []
1629648815.1824, 17, 0, 4184.103, 4211.282, 4105.128, 4141.538, 4152.308, 0, 0, []
1629648815.1903, 18, 0, 4180, 4207.692, 4101.538, 4137.436, 4150.769, 0, 0, []
1629648815.1981, 19, 0, 4165.641, 4198.462, 4100.513, 4135.897, 4144.615, 0, 0, []
1629648815.2061, 20, 0, 4165.641, 4204.615, 4097.436, 4138.462, 4140, 0, 0, []
1629648815.2139, 21, 0, 4176.41, 4209.231, 4102.564, 4131.282, 4146.667, 0, 0, []
1629648815.2219, 22, 0, 4177.949, 4209.744, 4119.487, 4131.795, 4156.41, 0, 0, []
1629648815.2298, 23, 0, 4175.897, 4213.846, 4112.308, 4144.615, 4153.846, 0, 0, []
1629648815.2378, 24, 0, 4183.59, 4225.641, 4112.821, 4150.256, 4151.282, 0, 0, []
1629648815.2457, 25, 0, 4190.769, 4232.821, 4113.333, 4145.641, 4154.872, 0, 0, []
1629648815.2537, 26, 0, 4187.692, 4212.308, 4105.128, 4141.026, 4151.795, 0, 0, []
1629648815.2615, 27, 0, 4185.128, 4196.41, 4116.923, 4146.154, 4150.256, 0, 0, []
1629648815.2695, 28, 0, 4185.128, 4212.308, 4114.872, 4150.256, 4150.769, 0, 0, []
1629648815.2774, 29, 0, 4184.103, 4211.282, 4109.744, 4142.051, 4149.231, 0, 0, []
1629648815.2854, 30, 0, 4185.641, 4190.769, 4112.308, 4133.333, 4152.308, 0, 0, []
1629648815.2933, 31, 0, 4188.718, 4197.436, 4107.692, 4133.333, 4154.359, 0, 0, []
1629648815.301, 32, 0, 4186.154, 4205.641, 4108.205, 4128.205, 4145.641, 0, 0, []
1629648815.3089, 33, 0, 4181.026, 4189.744, 4100.513, 4119.487, 4140.513, 0, 0, []
1629648815.3167, 34, 0, 4184.615, 4188.718, 4109.231, 4130.256, 4153.333, 0, 0, []
1629648815.3246, 35, 0, 4190.256, 4202.564, 4124.615, 4142.051, 4160.513, 0, 0, []
1629648815.3324, 36, 0, 4186.667, 4202.564, 4112.308, 4135.385, 4146.154, 0, 0, []
1629648815.3402, 37, 0, 4178.462, 4194.359, 4101.026, 4124.615, 4136.923, 0, 0, []
1629648815.348, 38, 0, 4181.026, 4193.333, 4092.308, 4124.103, 4145.128, 0, 0, []
1629648815.3559, 39, 0, 4194.359, 4195.897, 4100, 4136.923, 4154.359, 0, 0, []
1629648815.3637, 40, 0, 4194.872, 4204.103, 4115.385, 4148.718, 4156.923, 0, 0, []
1629648815.3717, 41, 0, 4189.744, 4208.718, 4115.897, 4146.667, 4165.128, 0, 0, []
1629648815.3795, 42, 0, 4203.077, 4200.513, 4129.744, 4145.641, 4177.949, 0, 0, []
1629648815.3875, 43, 0, 4214.872, 4204.103, 4125.641, 4149.744, 4180, 0, 0, []
1629648815.3954, 44, 0, 4203.59, 4212.308, 4113.333, 4143.077, 4170.256, 0, 0, []
1629648815.4034, 45, 0, 4196.41, 4208.205, 4121.026, 4136.923, 4162.564, 0, 0, []
1629648815.4113, 46, 0, 4203.59, 4200, 4113.846, 4137.949, 4160, 0, 0, []
1629648815.4192, 47, 0, 4195.385, 4193.333, 4103.077, 4131.282, 4156.923, 0, 0, []
1629648815.4271, 48, 0, 4185.641, 4191.282, 4092.821, 4122.564, 4160.513, 0, 0, []
1629648815.4351, 49, 0, 4191.282, 4193.846, 4096.923, 4134.872, 4168.205, 0, 0, []
1629648815.443, 50, 0, 4196.41, 4199.487, 4110.769, 4151.795, 4171.795, 0, 0, []
1629648815.4508, 51, 0, 4198.974, 4199.487, 4099.487, 4143.59, 4166.667, 0, 0, []
1629648815.4586, 52, 0, 4198.462, 4193.846, 4096.923, 4127.179, 4159.487, 0, 0, []
1629648815.4664, 53, 0, 4189.231, 4183.077, 4103.59, 4128.205, 4161.538, 0, 0, []
1629648815.4743, 54, 0, 4185.641, 4184.615, 4110.256, 4138.974, 4162.564, 0, 0, []
1629648815.4821, 55, 0, 4198.462, 4210.769, 4125.128, 4139.487, 4157.949, 0, 0, []
1629648815.49, 56, 0, 4204.103, 4220.513, 4120.513, 4130.769, 4160.513, 0, 0, []
1629648815.4978, 57, 0, 4192.821, 4205.128, 4120.513, 4128.718, 4166.667, 0, 0, []
1629648815.5056, 58, 0, 4192.821, 4197.436, 4118.462, 4133.846, 4167.179, 0, 0, []
1629648815.5134, 59, 0, 4197.436, 4203.59, 4106.667, 4135.897, 4165.641, 0, 0, []
1629648815.5214, 60, 0, 4191.282, 4200, 4111.282, 4137.436, 4165.128, 0, 0, []
1629648815.5293, 61, 0, 4192.821, 4193.333, 4104.103, 4142.564, 4169.231, 0, 0, []
1629648815.5373, 62, 0, 4211.282, 4201.538, 4106.667, 4144.615, 4181.026, 0, 0, []
1629648815.5451, 63, 0, 4219.487, 4206.667, 4124.615, 4143.077, 4187.179, 0, 0, []
1629648815.5531, 64, 0, 4218.974, 4215.897, 4131.795, 4149.744, 4192.821, 450, 0, []
1629648815.561, 65, 0, 4226.154, 4236.41, 4148.205, 4160.513, 4198.462, 450, 0, []
1629648815.569, 66, 0, 4221.538, 4237.949, 4144.615, 4154.872, 4191.282, 16192, 0, []
1629648815.5769, 67, 0, 4203.59, 4216.41, 4124.103, 4143.077, 4177.436, 450, 0, []
1629648815.5848, 68, 0, 4190.769, 4200, 4109.231, 4135.897, 4165.128, 16171, 0, []
1629648815.5927, 69, 0, 4183.077, 4198.974, 4105.641, 4134.872, 4153.333, 450, 0, []
1629648815.6007, 70, 0, 4178.974, 4197.949, 4119.487, 4143.077, 4152.308, 16101, 0, []
1629648815.6086, 71, 0, 4192.308, 4202.564, 4116.41, 4153.846, 4171.282, 450, 0, []
1629648815.6164, 72, 0, 4214.359, 4208.718, 4119.487, 4157.436, 4195.897, 450, 0, []
1629648815.6242, 73, 0, 4217.949, 4207.179, 4131.795, 4157.436, 4201.026, 16156, 0, []
1629648815.632, 74, 0, 4212.821, 4204.615, 4124.103, 4151.795, 4189.231, 450, 0, []
1629648815.6399, 75, 0, 4214.359, 4209.231, 4127.179, 4147.179, 4183.59, 16202, 0, []
1629648815.6477, 76, 0, 4206.154, 4212.821, 4123.077, 4144.615, 4182.564, 450, 0, []
1629648815.6556, 77, 0, 4187.179, 4203.59, 4114.359, 4141.538, 4175.385, 450, 0, []
1629648815.6634, 78, 0, 4180.513, 4190.769, 4117.949, 4143.077, 4166.154, 450, 0, []
1629648815.6712, 79, 0, 4186.154, 4198.974, 4115.385, 4147.692, 4166.154, 16202, 0, []
1629648815.679, 80, 0, 4186.667, 4215.385, 4124.615, 4145.128, 4176.923, 450, 0, []
1629648815.687, 81, 0, 4188.205, 4209.744, 4118.974, 4138.974, 4182.564, 450, 0, []
1629648815.6949, 82, 0, 4188.205, 4196.923, 4106.667, 4140, 4174.872, 450, 0, []
1629648815.7029, 83, 0, 4180.513, 4203.59, 4110.769, 4139.487, 4167.179, 16202, 0, []
1629648815.7107, 84, 0, 4169.231, 4198.462, 4100, 4135.897, 4160.513, 450, 0, []
1629648815.7187, 85, 0, 4162.051, 4183.59, 4096.923, 4137.436, 4149.231, 450, 0, []
1629648815.7266, 86, 0, 4173.846, 4185.128, 4101.538, 4137.949, 4156.923, 450, 0, []
1629648815.7346, 87, 0, 4188.718, 4186.667, 4097.949, 4131.795, 4173.333, 16202, 0, []
1629648815.7425, 88, 0, 4181.026, 4182.564, 4100, 4111.282, 4162.051, 450, 0, []
1629648815.7504, 89, 0, 4165.641, 4185.128, 4094.359, 4089.231, 4137.949, 450, 0, []
1629648815.7583, 90, 0, 4163.59, 4193.333, 4102.564, 4091.795, 4132.308, 450, 0, []
1629648815.7661, 91, 0, 4164.615, 4202.564, 4110.256, 4112.821, 4145.128, 16202, 0, []
1629648815.774, 92, 0, 4161.538, 4200.513, 4102.051, 4125.641, 4155.385, 450, 0, []
1629648815.7818, 93, 0, 4163.59, 4188.205, 4105.128, 4131.282, 4154.872, 450, 0, []
1629648815.7896, 94, 0, 4169.744, 4189.744, 4105.128, 4133.333, 4149.744, 450, 0, []
1629648815.7974, 95, 0, 4178.462, 4198.974, 4107.692, 4127.692, 4155.897, 16202, 0, []
1629648815.8053, 96, 0, 4187.692, 4203.59, 4107.692, 4120, 4167.179, 450, 0, []
1629648815.8131, 97, 0, 4187.179, 4213.333, 4098.974, 4109.744, 4163.59, 450, 0, []
1629648815.821, 98, 0, 4180, 4218.462, 4105.128, 4101.538, 4150.769, 450, 0, []
1629648815.8287, 99, 0, 4183.077, 4213.846, 4105.641, 4113.846, 4154.359, 16202, 0, []
1629648815.8366, 100, 0, 4193.846, 4212.308, 4115.385, 4141.026, 4167.692, 450, 0, []
1629648815.8444, 101, 0, 4200, 4215.897, 4125.128, 4162.564, 4172.308, 450, 0, []
1629648815.8524, 102, 0, 4201.026, 4216.923, 4117.436, 4175.385, 4178.974, 450, 0, []
1629648815.8603, 103, 0, 4197.436, 4217.949, 4123.59, 4177.436, 4189.231, 16202, 0, []
1629648815.8682, 104, 0, 4196.923, 4219.487, 4112.821, 4172.821, 4186.154, 450, 0, []
1629648815.8761, 105, 0, 4198.462, 4212.821, 4103.077, 4172.308, 4174.359, 450, 0, []
1629648815.8841, 106, 0, 4199.487, 4213.846, 4120.513, 4176.41, 4176.923, 450, 0, []
1629648815.892, 107, 0, 4197.949, 4220.513, 4122.051, 4178.462, 4185.641, 16202, 0, []
1629648815.9, 108, 0, 4187.179, 4205.641, 4116.923, 4174.359, 4173.333, 450, 0, []
1629648815.9078, 109, 0, 4174.872, 4184.103, 4110.769, 4165.641, 4160.513, 450, 0, []
1629648815.9156, 110, 0, 4177.949, 4194.359, 4119.487, 4174.872, 4175.385, 450, 0, []
1629648815.9235, 111, 0, 4187.692, 4213.846, 4131.282, 4189.744, 4187.692, 16202, 0, []
1629648815.9313, 112, 0, 4183.077, 4204.615, 4109.231, 4172.308, 4173.333, 450, 0, []
1629648815.9392, 113, 0, 4171.795, 4194.359, 4097.436, 4151.795, 4162.564, 450, 0, []
1629648815.947, 114, 0, 4169.744, 4200, 4094.359, 4153.846, 4165.641, 450, 0, []
1629648815.9548, 115, 0, 4176.923, 4212.308, 4093.846, 4150.769, 4168.205, 16202, 0, []
1629648815.9626, 116, 0, 4186.667, 4221.026, 4101.538, 4143.59, 4171.282, 450, 0, []
1629648815.9705, 117, 0, 4187.179, 4215.897, 4092.308, 4147.179, 4175.385, 450, 0, []
1629648815.9783, 118, 0, 4184.615, 4211.282, 4097.949, 4147.692, 4174.359, 450, 0, []
1629648815.9863, 119, 0, 4188.718, 4217.949, 4104.615, 4144.615, 4171.795, 16202, 0, []
1629648815.9941, 120, 0, 4183.59, 4220.513, 4100, 4151.282, 4167.692, 450, 0, []
1629648816.0021, 121, 0, 4169.744, 4201.026, 4106.154, 4149.744, 4157.436, 450, 0, []
1629648816.01, 122, 0, 4166.154, 4182.564, 4101.026, 4136.923, 4149.231, 450, 0, []
1629648816.018, 123, 0, 4167.692, 4189.744, 4098.974, 4139.487, 4150.256, 16202, 0, []
1629648816.0259, 124, 0, 4168.718, 4201.026, 4097.949, 4149.231, 4154.872, 450, 0, []
1629648816.0338, 125, 0, 4168.205, 4188.205, 4095.385, 4144.615, 4155.385, 450, 0, []
1629648816.0417, 126, 0, 4160.513, 4174.359, 4105.128, 4136.41, 4146.154, 450, 0, []
1629648816.0497, 127, 0, 4148.718, 4181.538, 4094.872, 4135.385, 4137.949, 16202, 0, []
1629648816.0576, 128, 0, 4142.051, 4183.077, 4087.692, 4134.872, 4137.949, 450, 0, []
1629648816.0654, 0, 0, 4141.538, 4187.179, 4090.256, 4131.795, 4137.436, 450, 0, []
1629648816.0732, 1, 0, 4144.615, 4196.41, 4084.615, 4135.385, 4140, 450, 0, []
1629648816.081, 2, 0, 4149.744, 4188.718, 4093.333, 4143.59, 4147.692, 16192, 0, []
1629648816.0889, 3, 0, 4156.923, 4187.179, 4102.051, 4151.282, 4156.923, 450, 0, []
1629648816.0967, 4, 0, 4165.128, 4206.154, 4108.205, 4155.897, 4158.462, 16171, 0, []
1629648816.1046, 5, 0, 4170.256, 4220, 4102.051, 4152.308, 4156.923, 450, 0, []
1629648816.1123, 6, 0, 4168.718, 4217.949, 4092.308, 4151.282, 4160.513, 16100, 0, []
1629648816.1202, 7, 0, 4170.256, 4208.205, 4109.744, 4155.897, 4170.256, 450, 0, []
1629648816.128, 8, 0, 4172.821, 4198.974, 4104.615, 4153.333, 4170.769, 450, 0, []
1629648816.1359, 9, 0, 4162.051, 4195.385, 4094.359, 4151.795, 4159.487, 16156, 0, []
1629648816.1437, 10, 0, 4154.359, 4191.282, 4108.205, 4156.923, 4152.308, 450, 0, []
1629648816.1516, 11, 0, 4167.179, 4182.564, 4107.179, 4154.359, 4156.41, 16202, 0, []
1629648816.1595, 12, 0, 4169.231, 4182.051, 4105.641, 4143.59, 4157.949, 450, 0, []
1629648816.1675, 13, 0, 4151.795, 4186.667, 4098.462, 4137.949, 4153.846, 450, 0, []
1629648816.1754, 14, 0, 4154.359, 4184.615, 4095.897, 4145.641, 4161.538, 450, 0, []
1629648816.1834, 15, 0, 4164.103, 4185.641, 4107.179, 4155.897, 4168.205, 16202, 0, []
1629648816.1913, 16, 0, 4157.949, 4197.949, 4101.026, 4152.308, 4157.436, 0, 0, []
1629648816.1992, 17, 0, 4155.897, 4203.59, 4098.974, 4141.026, 4149.744, 0, 0, []
1629648816.2071, 18, 0, 4158.462, 4189.231, 4092.308, 4136.923, 4152.821, 0, 0, []
1629648816.2151, 19, 0, 4155.897, 4182.051, 4088.718, 4139.487, 4152.821, 0, 0, []
1629648816.223, 20, 0, 4163.59, 4204.615, 4109.744, 4147.179, 4155.385, 0, 0, []
1629648816.2308, 21, 0, 4172.308, 4217.949, 4108.718, 4148.205, 4160.513, 0, 0, []
1629648816.2386, 22, 0, 4160, 4196.41, 4097.436, 4136.923, 4148.718, 0, 0, []
1629648816.2464, 23, 0, 4150.256, 4192.308, 4096.923, 4131.282, 4142.564, 0, 0, []
1629648816.2543, 24, 0, 4161.538, 4206.667, 4098.974, 4137.436, 4151.795, 0, 0, []
1629648816.2621, 25, 0, 4173.333, 4193.333, 4100, 4143.077, 4157.949, 0, 0, []
1629648816.27, 26, 0, 4174.359, 4183.077, 4092.308, 4146.667, 4160, 0, 0, []
1629648816.2777, 27, 0, 4162.051, 4194.359, 4095.897, 4147.692, 4154.872, 0, 0, []
1629648816.2856, 28, 0, 4151.795, 4191.282, 4090.769, 4139.487, 4145.128, 0, 0, []
1629648816.2934, 29, 0, 4150.769, 4177.949, 4087.179, 4136.41, 4148.205, 0, 0, []
1629648816.3014, 30, 0, 4155.385, 4175.385, 4106.667, 4141.538, 4156.41, 0, 0, []
1629648816.3093, 31, 0, 4154.872, 4173.846, 4096.41, 4132.308, 4145.641, 0, 0, []
1629648816.3172, 32, 0, 4143.077, 4177.436, 4093.333, 4122.051, 4131.795, 0, 0, []
1629648816.3251, 33, 0, 4135.385, 4177.436, 4109.231, 4128.205, 4142.564, 0, 0, []
1629648816.3331, 34, 0, 4143.077, 4169.231, 4100.513, 4132.308, 4155.385, 0, 0, []
1629648816.341, 35, 0, 4152.308, 4182.051, 4104.103, 4134.359, 4155.385, 0, 0, []
1629648816.349, 36, 0, 4152.821, 4196.41, 4111.795, 4138.462, 4154.872, 0, 0, []
1629648816.3568, 37, 0, 4150.256, 4181.026, 4108.205, 4135.385, 4154.359, 0, 0, []
1629648816.3648, 38, 0, 4151.282, 4168.718, 4105.128, 4131.795, 4155.385, 0, 0, []
1629648816.3727, 39, 0, 4156.923, 4176.41, 4111.282, 4136.41, 4159.487, 0, 0, []
1629648816.3805, 40, 0, 4151.795, 4181.538, 4125.128, 4136.923, 4156.41, 0, 0, []
1629648816.3884, 41, 0, 4142.051, 4186.154, 4117.949, 4134.359, 4153.333, 0, 0, []
1629648816.3962, 42, 0, 4144.615, 4187.692, 4119.487, 4133.846, 4160.513, 0, 0, []
1629648816.404, 43, 0, 4145.641, 4173.846, 4123.59, 4127.692, 4157.949, 0, 0, []
1629648816.4118, 44, 0, 4143.59, 4167.179, 4103.59, 4126.667, 4150.256, 0, 0, []
1629648816.4197, 45, 0, 4150.769, 4176.923, 4104.615, 4129.744, 4150.256, 0, 0, []
1629648816.4275, 46, 0, 4151.282, 4181.538, 4107.179, 4125.641, 4145.641, 0, 0, []
1629648816.4354, 47, 0, 4141.026, 4174.872, 4097.949, 4123.077, 4138.462, 0, 0, []
1629648816.4431, 48, 0, 4136.41, 4166.667, 4089.744, 4123.077, 4138.462, 0, 0, []
1629648816.4511, 49, 0, 4131.795, 4164.103, 4074.359, 4120, 4136.41, 0, 0, []
1629648816.459, 50, 0, 4128.718, 4172.308, 4085.128, 4121.026, 4136.41, 0, 0, []
1629648816.467, 51, 0, 4145.641, 4173.846, 4099.487, 4126.667, 4151.795, 0, 0, []
1629648816.4749, 52, 0, 4155.897, 4164.615, 4107.692, 4129.231, 4157.436, 0, 0, []
1629648816.4828, 53, 0, 4146.667, 4164.615, 4120.513, 4122.564, 4145.128, 0, 0, []
1629648816.4907, 54, 0, 4140, 4162.051, 4114.359, 4118.974, 4144.103, 0, 0, []
1629648816.4987, 55, 0, 4138.974, 4158.974, 4113.846, 4126.154, 4155.385, 0, 0, []
1629648816.5066, 56, 0, 4136.41, 4167.692, 4103.077, 4125.128, 4152.821, 0, 0, []
1629648816.5146, 57, 0, 4144.615, 4169.744, 4090.769, 4119.487, 4148.718, 0, 0, []
1629648816.5224, 58, 0, 4159.487, 4171.282, 4106.154, 4126.667, 4160, 0, 0, []
1629648816.5304, 59, 0, 4152.821, 4175.385, 4097.436, 4126.667, 4153.333, 0, 0, []
1629648816.5383, 60, 0, 4133.846, 4171.282, 4082.564, 4117.436, 4132.308, 0, 0, []
1629648816.5461, 61, 0, 4137.949, 4167.692, 4088.205, 4126.667, 4140.513, 0, 0, []
1629648816.554, 62, 0, 4153.333, 4166.154, 4093.333, 4137.436, 4157.949, 0, 0, []
1629648816.5617, 63, 0, 4153.333, 4163.59, 4104.103, 4127.179, 4152.821, 0, 0, []
1629648816.5696, 64, 0, 4152.821, 4181.538, 4111.282, 4120, 4152.821, 450, 0, []
1629648816.5774, 65, 0, 4166.154, 4195.897, 4122.051, 4133.846, 4174.359, 450, 0, []
1629648816.5853, 66, 0, 4176.923, 4190.769, 4124.103, 4153.846, 4190.769, 16192, 0, []
1629648816.5931, 67, 0, 4176.41, 4192.308, 4110.256, 4154.359, 4185.641, 450, 0, []
1629648816.6009, 68, 0, 4164.615, 4187.179, 4109.744, 4136.923, 4172.308, 16171, 0, []
1629648816.6087, 69, 0, 4155.897, 4173.333, 4103.077, 4130.769, 4167.692, 450, 0, []
1629648816.6167, 70, 0, 4156.923, 4186.667, 4103.59, 4140, 4166.154, 16094, 0, []
1629648816.6246, 71, 0, 4150.769, 4195.897, 4113.333, 4140, 4154.359, 450, 0, []
1629648816.6326, 72, 0, 4142.564, 4171.282, 4111.282, 4131.282, 4147.179, 450, 0, []
1629648816.6405, 73, 0, 4150.769, 4169.231, 4122.051, 4139.487, 4158.974, 16156, 0, []
1629648816.6484, 74, 0, 4160, 4191.282, 4124.103, 4143.59, 4171.282, 450, 0, []
1629648816.6563, 75, 0, 4160, 4187.179, 4120.513, 4129.231, 4167.179, 16202, 0, []
1629648816.6642, 76, 0, 4166.154, 4178.462, 4117.949, 4121.026, 4163.59, 450, 0, []
1629648816.6721, 77, 0, 4180, 4183.077, 4103.59, 4131.795, 4174.872, 450, 0, []
1629648816.6799, 78, 0, 4188.205, 4188.205, 4110.769, 4143.59, 4189.744, 450, 0, []
1629648816.6878, 79, 0, 4184.103, 4194.872, 4110.769, 4142.051, 4189.231, 16202, 0, []
1629648816.6957, 80, 0, 4171.282, 4188.718, 4103.59, 4135.897, 4175.385, 450, 0, []
1629648816.7036, 81, 0, 4167.179, 4172.308, 4119.487, 4132.821, 4167.692, 450, 0, []
1629648816.7114, 82, 0, 4171.795, 4184.615, 4128.718, 4137.949, 4175.385, 450, 0, []
1629648816.7193, 83, 0, 4171.282, 4197.436, 4135.385, 4143.59, 4176.41, 16202, 0, []
1629648816.727, 84, 0, 4162.564, 4175.385, 4125.641, 4132.821, 4158.462, 450, 0, []
1629648816.7349, 85, 0, 4151.795, 4164.103, 4112.821, 4120, 4144.103, 450, 0, []
1629648816.7427, 86, 0, 4153.846, 4184.103, 4126.154, 4129.744, 4152.821, 450, 0, []
1629648816.7506, 87, 0, 4160, 4189.744, 4127.692, 4140, 4158.974, 16202, 0, []
1629648816.7584, 88, 0, 4152.821, 4175.385, 4122.564, 4137.949, 4152.308, 450, 0, []
1629648816.7663, 89, 0, 4150.256, 4168.205, 4118.462, 4145.128, 4157.436, 450, 0, []
1629648816.7742, 90, 0, 4162.051, 4167.179, 4118.462, 4154.872, 4170.256, 450, 0, []
1629648816.7822, 91, 0, 4171.282, 4168.718, 4131.795, 4154.359, 4171.795, 16202, 0, []
1629648816.7901, 92, 0, 4172.308, 4175.897, 4126.667, 4156.923, 4170.769, 450, 0, []
1629648816.7981, 93, 0, 4163.59, 4185.128, 4121.026, 4156.41, 4168.718, 450, 0, []
1629648816.8059, 94, 0, 4154.359, 4190.256, 4116.923, 4144.103, 4155.385, 450, 0, []
1629648816.8139, 95, 0, 4150.769, 4181.026, 4106.154, 4139.487, 4142.051, 16202, 0, []
1629648816.8218, 96, 0, 4141.026, 4166.154, 4107.692, 4141.538, 4135.385, 450, 0, []
1629648816.8298, 97, 0, 4135.385, 4170.256, 4101.538, 4137.949, 4133.333, 450, 0, []
1629648816.8377, 98, 0, 4151.282, 4185.641, 4107.179, 4140.513, 4145.128, 450, 0, []
1629648816.8455, 99, 0, 4168.205, 4178.974, 4107.692, 4139.487, 4155.897, 16202, 0, []
1629648816.8534, 100, 0, 4162.564, 4164.103, 4088.205, 4120.513, 4152.308, 450, 0, []
1629648816.8612, 101, 0, 4152.308, 4168.205, 4096.923, 4113.333, 4148.718, 450, 0, []
1629648816.8691, 102, 0, 4158.462, 4179.487, 4104.615, 4128.718, 4154.872, 450, 0, []
1629648816.8769, 103, 0, 4169.744, 4182.051, 4106.154, 4141.538, 4161.026, 16202, 0, []
1629648816.8848, 104, 0, 4173.333, 4187.692, 4115.385, 4143.077, 4162.051, 450, 0, []
1629648816.8925, 105, 0, 4169.744, 4189.231, 4106.667, 4141.538, 4158.974, 450, 0, []
1629648816.9004, 106, 0, 4167.692, 4174.359, 4096.923, 4133.846, 4152.821, 450, 0, []
1629648816.9082, 107, 0, 4171.795, 4174.872, 4088.205, 4121.538, 4154.872, 16202, 0, []
1629648816.9162, 108, 0, 4171.282, 4193.846, 4102.564, 4118.974, 4154.359, 450, 0, []
1629648816.9241, 109, 0, 4160, 4192.308, 4118.462, 4125.128, 4143.077, 450, 0, []
1629648816.932, 110, 0, 4158.462, 4180, 4100, 4133.333, 4143.077, 450, 0, []
1629648816.9399, 111, 0, 4168.718, 4186.154, 4097.436, 4142.051, 4153.333, 16202, 0, []
1629648816.9479, 112, 0, 4164.103, 4183.077, 4094.359, 4140.513, 4147.179, 450, 0, []
1629648816.9558, 113, 0, 4156.41, 4171.795, 4085.641, 4132.308, 4140.513, 450, 0, []
1629648816.9638, 114, 0, 4174.359, 4182.564, 4098.462, 4140.513, 4161.538, 450, 0, []
1629648816.9716, 115, 0, 4191.795, 4189.744, 4098.974, 4150.769, 4180, 16202, 0, []
1629648816.9796, 116, 0, 4182.051, 4183.077, 4092.308, 4135.897, 4170.256, 450, 0, []
1629648816.9875, 117, 0, 4175.897, 4190.256, 4085.128, 4120.513, 4166.154, 450, 0, []
1629648816.9955, 118, 0, 4187.179, 4200, 4091.282, 4132.821, 4181.026, 450, 0, []
1629648817.0034, 119, 0, 4187.692, 4192.308, 4104.103, 4154.359, 4186.667, 16202, 0, []
1629648817.0111, 120, 0, 4171.795, 4170.769, 4089.744, 4158.462, 4171.282, 450, 0, []
1629648817.019, 121, 0, 4165.641, 4158.974, 4085.641, 4149.744, 4161.538, 450, 0, []
1629648817.0268, 122, 0, 4172.308, 4178.462, 4091.282, 4142.564, 4167.692, 450, 0, []
1629648817.0347, 123, 0, 4170.769, 4189.231, 4085.641, 4134.359, 4158.974, 16202, 0, []
1629648817.0425, 124, 0, 4167.179, 4180, 4090.769, 4123.59, 4148.205, 450, 0, []
1629648817.0503, 125, 0, 4173.846, 4192.308, 4092.308, 4120.513, 4161.026, 450, 0, []
1629648817.0581, 126, 0, 4171.795, 4199.487, 4092.308, 4125.641, 4171.795, 450, 0, []
1629648817.066, 127, 0, 4165.128, 4183.077, 4083.077, 4129.231, 4166.667, 16202, 0, []
1629648817.0738, 128, 0, 4175.385, 4187.692, 4077.436, 4137.436, 4169.231, 450, 0, []
1629648817.0817, 0, 0, 4185.641, 4204.615, 4094.872, 4144.103, 4177.949, 450, 0, []
1629648817.0895, 1, 0, 4172.821, 4189.744, 4081.538, 4128.205, 4170.256, 450, 0, []
1629648817.0974, 2, 0, 4162.051, 4171.795, 4070.769, 4112.308, 4163.077, 16192, 0, []
1629648817.1053, 3, 0, 4171.282, 4181.026, 4087.179, 4126.154, 4172.821, 450, 0, []
1629648817.1133, 4, 0, 4173.333, 4194.872, 4090.769, 4141.538, 4174.872, 16171, 0, []
1629648817.1212, 5, 0, 4167.179, 4203.077, 4093.333, 4144.103, 4170.256, 450, 0, []
1629648817.1292, 6, 0, 4177.436, 4202.051, 4097.436, 4149.744, 4181.538, 16095, 0, []
1629648817.137, 7, 0, 4184.103, 4187.692, 4103.59, 4151.282, 4188.718, 450, 0, []
1629648817.145, 8, 0, 4167.692, 4170.769, 4094.872, 4133.333, 4171.795, 450, 0, []
1629648817.1529, 9, 0, 4153.846, 4166.667, 4075.897, 4120, 4161.538, 16156, 0, []
1629648817.1609, 10, 0, 4156.41, 4174.359, 4085.128, 4124.103, 4163.59, 450, 0, []
1629648817.1688, 11, 0, 4160, 4171.795, 4080.513, 4122.564, 4159.487, 16202, 0, []
1629648817.1765, 12, 0, 4158.974, 4166.667, 4064.615, 4117.949, 4151.282, 450, 0, []
1629648817.1844, 13, 0, 4162.564, 4173.846, 4066.154, 4117.949, 4151.795, 450, 0, []
1629648817.1922, 14, 0, 4177.949, 4186.154, 4072.821, 4121.538, 4164.103, 450, 0, []
1629648817.2001, 15, 0, 4186.667, 4192.308, 4085.641, 4131.795, 4174.359, 16202, 0, []
1629648817.2079, 16, 0, 4181.538, 4186.154, 4078.462, 4140.513, 4170.256, 0, 0, []
1629648817.2157, 17, 0, 4178.462, 4174.359, 4076.923, 4137.436, 4166.154, 0, 0, []
1629648817.2235, 18, 0, 4173.846, 4169.231, 4088.718, 4125.641, 4168.718, 0, 0, []
1629648817.2315, 19, 0, 4170.256, 4176.41, 4076.923, 4128.718, 4171.282, 0, 0, []
1629648817.2394, 20, 0, 4173.846, 4185.641, 4087.179, 4143.077, 4170.769, 0, 0, []
1629648817.2474, 21, 0, 4168.205, 4184.103, 4094.359, 4134.872, 4162.564, 0, 0, []
1629648817.2552, 22, 0, 4154.359, 4172.821, 4072.821, 4117.436, 4150.769, 0, 0, []
1629648817.2632, 23, 0, 4163.077, 4174.872, 4072.308, 4121.538, 4152.821, 0, 0, []
1629648817.2711, 24, 0, 4174.872, 4190.769, 4076.41, 4127.179, 4157.949, 0, 0, []
1629648817.2791, 25, 0, 4168.718, 4183.59, 4077.949, 4118.974, 4148.718, 0, 0, []
1629648817.287, 26, 0, 4171.282, 4168.205, 4077.436, 4125.641, 4150.769, 0, 0, []
1629648817.2949, 27, 0, 4185.641, 4177.436, 4084.615, 4137.949, 4175.385, 0, 0, []
1629648817.3028, 28, 0, 4193.846, 4192.308, 4104.103, 4131.795, 4188.718, 0, 0, []
1629648817.3106, 29, 0, 4193.846, 4189.231, 4098.974, 4126.667, 4175.385, 0, 0, []
1629648817.3185, 30, 0, 4195.385, 4183.077, 4098.974, 4136.41, 4166.667, 0, 0, []
1629648817.3263, 31, 0, 4199.487, 4188.718, 4106.154, 4142.564, 4178.462, 0, 0, []
1629648817.3342, 32, 0, 4206.154, 4189.744, 4102.564, 4140, 4189.231, 0, 0, []
1629648817.3419, 33, 0, 4206.154, 4187.179, 4102.051, 4143.59, 4190.769, 0, 0, []
1629648817.3498, 34, 0, 4193.333, 4185.641, 4086.667, 4140, 4183.59, 0, 0, []
1629648817.3576, 35, 0, 4179.487, 4172.308, 4079.487, 4128.718, 4168.718, 0, 0, []
1629648817.3655, 36, 0, 4168.205, 4166.667, 4083.59, 4120, 4154.359, 0, 0, []
1629648817.3733, 37, 0, 4165.641, 4183.59, 4077.436, 4112.308, 4150.769, 0, 0, []
1629648817.3812, 38, 0, 4175.897, 4183.59, 4082.051, 4111.282, 4162.051, 0, 0, []
1629648817.3891, 39, 0, 4188.205, 4165.128, 4074.872, 4111.795, 4173.333, 0, 0, []
1629648817.3971, 40, 0, 4191.795, 4166.667, 4073.846, 4108.718, 4170.256, 0, 0, []
1629648817.405, 41, 0, 4195.385, 4182.051, 4092.821, 4113.333, 4166.667, 0, 0, []
1629648817.413, 42, 0, 4202.564, 4187.692, 4097.949, 4127.692, 4181.538, 0, 0, []
1629648817.4208, 43, 0, 4201.538, 4187.692, 4100.513, 4128.718, 4186.154, 0, 0, []
1629648817.4288, 44, 0, 4195.897, 4190.256, 4091.795, 4118.974, 4172.308, 0, 0, []
1629648817.4367, 45, 0, 4200.513, 4192.821, 4088.718, 4124.103, 4173.846, 0, 0, []
1629648817.4447, 46, 0, 4202.564, 4190.256, 4093.846, 4128.718, 4175.385, 0, 0, []
1629648817.4526, 47, 0, 4184.103, 4186.667, 4080.513, 4115.897, 4155.897, 0, 0, []
1629648817.4605, 48, 0, 4168.205, 4186.154, 4082.051, 4108.205, 4143.077, 0, 0, []
1629648817.4684, 49, 0, 4178.974, 4187.179, 4088.205, 4117.949, 4153.846, 0, 0, []
1629648817.4762, 50, 0, 4191.282, 4195.385, 4093.333, 4126.154, 4162.051, 0, 0, []
1629648817.4841, 51, 0, 4193.333, 4200.513, 4100.513, 4120.513, 4161.538, 0, 0, []
1629648817.4919, 52, 0, 4210.256, 4194.872, 4098.462, 4127.692, 4177.949, 0, 0, []
1629648817.4997, 53, 0, 4223.59, 4187.692, 4109.744, 4142.051, 4195.385, 0, 0, []
1629648817.5075, 54, 0, 4210.769, 4187.692, 4102.051, 4132.308, 4184.615, 0, 0, []
1629648817.5154, 55, 0, 4207.692, 4195.385, 4092.308, 4120, 4174.872, 0, 0, []
1629648817.5232, 56, 0, 4222.564, 4197.436, 4108.718, 4124.615, 4183.077, 0, 0, []
1629648817.5311, 57, 0, 4224.615, 4197.949, 4097.436, 4124.615, 4180, 0, 0, []
1629648817.5388, 58, 0, 4211.282, 4200, 4085.641, 4120, 4168.205, 0, 0, []
1629648817.5468, 59, 0, 4197.949, 4192.308, 4087.692, 4124.103, 4164.615, 0, 0, []
1629648817.5547, 60, 0, 4185.641, 4177.949, 4085.641, 4123.59, 4155.385, 0, 0, []
1629648817.5627, 61, 0, 4180, 4182.564, 4098.462, 4122.051, 4146.667, 0, 0, []
1629648817.5706, 62, 0, 4185.128, 4190.769, 4098.462, 4120, 4148.205, 0, 0, []
1629648817.5786, 63, 0, 4180, 4185.128, 4086.154, 4100, 4138.462, 0, 0, []
1629648817.5864, 64, 0, 4177.436, 4199.487, 4086.154, 4089.231, 4135.897, 450, 0, []
1629648817.5944, 65, 0, 4194.872, 4209.231, 4091.282, 4105.128, 4154.359, 450, 0, []
1629648817.6023, 66, 0, 4200.513, 4187.179, 4088.205, 4112.821, 4160.513, 16192, 0, []
1629648817.6102, 67, 0, 4186.154, 4177.436, 4069.744, 4105.641, 4152.308, 450, 0, []
1629648817.6181, 68, 0, 4186.667, 4184.103, 4073.846, 4115.385, 4159.487, 16169, 0, []
1629648817.6258, 69, 0, 4203.077, 4175.897, 4083.077, 4127.692, 4172.821, 450, 0, []
1629648817.6337, 70, 0, 4212.821, 4171.282, 4083.077, 4127.179, 4175.385, 16096, 0, []
1629648817.6415, 71, 0, 4215.897, 4186.154, 4107.692, 4136.41, 4177.949, 450, 0, []
1629648817.6494, 72, 0, 4209.231, 4189.744, 4108.718, 4139.487, 4172.821, 450, 0, []
1629648817.6572, 73, 0, 4189.231, 4181.538, 4090.256, 4122.051, 4155.385, 16156, 0, []
1629648817.665, 74, 0, 4176.923, 4175.385, 4090.256, 4114.359, 4147.179, 450, 0, []
1629648817.673, 75, 0, 4176.41, 4175.897, 4086.667, 4115.897, 4149.231, 16202, 0, []
1629648817.6809, 76, 0, 4181.538, 4191.282, 4091.795, 4107.692, 4151.795, 450, 0, []
1629648817.6887, 77, 0, 4188.205, 4194.359, 4090.256, 4108.718, 4153.333, 450, 0, []
1629648817.6967, 78, 0, 4183.077, 4175.385, 4086.154, 4119.487, 4146.667, 450, 0, []
1629648817.7045, 79, 0, 4179.487, 4181.538, 4096.41, 4127.179, 4146.154, 16202, 0, []
1629648817.7125, 80, 0, 4196.41, 4207.179, 4106.667, 4134.872, 4162.564, 450, 0, []
1629648817.7204, 81, 0, 4216.923, 4199.487, 4116.41, 4144.103, 4176.41, 450, 0, []
1629648817.7284, 82, 0, 4221.026, 4182.051, 4110.256, 4147.179, 4177.949, 450, 0, []
1629648817.7363, 83, 0, 4218.974, 4189.231, 4114.872, 4143.077, 4173.846, 16202, 0, []
1629648817.7442, 84, 0, 4212.308, 4189.744, 4124.103, 4134.359, 4167.692, 450, 0, []
1629648817.7521, 85, 0, 4202.564, 4185.128, 4109.231, 4128.205, 4166.667, 450, 0, []
1629648817.7601, 86, 0, 4206.667, 4199.487, 4127.179, 4133.846, 4171.282, 450, 0, []
1629648817.768, 87, 0, 4218.462, 4206.667, 4144.103, 4134.359, 4170.256, 16202, 0, []
1629648817.7758, 88, 0, 4216.41, 4186.667, 4130.256, 4123.59, 4166.667, 450, 0, []
1629648817.7837, 89, 0, 4209.231, 4182.051, 4130.769, 4116.923, 4168.205, 450, 0, []
1629648817.7914, 90, 0, 4210.769, 4197.949, 4131.282, 4116.923, 4172.821, 450, 0, []
1629648817.7993, 91, 0, 4214.872, 4197.436, 4132.821, 4127.179, 4177.949, 16202, 0, []
1629648817.8071, 92, 0, 4225.641, 4201.026, 4134.359, 4143.077, 4187.179, 450, 0, []
1629648817.815, 93, 0, 4238.974, 4220, 4133.846, 4151.282, 4194.872, 450, 0, []
1629648817.8228, 94, 0, 4227.692, 4213.846, 4136.923, 4146.667, 4186.667, 450, 0, []
1629648817.8306, 95, 0, 4206.154, 4191.795, 4121.538, 4145.128, 4175.385, 16202, 0, []
1629648817.8384, 96, 0, 4202.564, 4193.846, 4118.974, 4153.333, 4172.821, 450, 0, []
1629648817.8463, 97, 0, 4206.667, 4204.103, 4126.667, 4155.385, 4169.744, 450, 0, []
1629648817.8541, 98, 0, 4198.974, 4201.026, 4122.564, 4148.205, 4167.179, 450, 0, []
1629648817.8621, 99, 0, 4188.205, 4202.564, 4128.205, 4138.462, 4163.077, 16202, 0, []
1629648817.8699, 100, 0, 4190.256, 4204.615, 4123.077, 4135.385, 4153.846, 450, 0, []
1629648817.8779, 101, 0, 4193.333, 4200.513, 4120, 4136.923, 4154.359, 450, 0, []
1629648817.8858, 102, 0, 4202.051, 4212.308, 4124.615, 4137.436, 4173.333, 450, 0, []
1629648817.8938, 103, 0, 4219.487, 4228.718, 4122.051, 4143.077, 4187.692, 16202, 0, []
1629648817.9017, 104, 0, 4226.154, 4222.051, 4130.256, 4154.359, 4186.667, 450, 0, []
1629648817.9096, 105, 0, 4227.179, 4209.231, 4120, 4161.538, 4191.795, 450, 0, []
1629648817.9175, 106, 0, 4230.769, 4216.41, 4105.641, 4167.692, 4203.077, 450, 0, []
1629648817.9255, 107, 0, 4226.667, 4218.462, 4103.077, 4170.769, 4202.564, 16202, 0, []
1629648817.9334, 108, 0, 4215.385, 4200.513, 4100.513, 4164.615, 4195.385, 450, 0, []
1629648817.9412, 109, 0, 4217.436, 4200, 4118.974, 4163.077, 4196.41, 450, 0, []
1629648817.949, 110, 0, 4225.128, 4221.026, 4123.077, 4167.179, 4205.641, 450, 0, []
1629648817.9568, 111, 0, 4217.949, 4216.41, 4110.256, 4160.513, 4200, 16202, 0, []
1629648817.9647, 112, 0, 4207.179, 4202.564, 4109.744, 4155.385, 4182.051, 450, 0, []
1629648817.9725, 113, 0, 4196.923, 4207.692, 4094.872, 4152.308, 4167.179, 450, 0, []
1629648817.9804, 114, 0, 4185.641, 4204.615, 4078.462, 4141.026, 4156.41, 450, 0, []
1629648817.9881, 115, 0, 4183.077, 4190.769, 4070.769, 4134.359, 4154.359, 16202, 0, []
1629648817.996, 116, 0, 4181.026, 4182.564, 4075.385, 4134.359, 4155.385, 450, 0, []
1629648818.0038, 117, 0, 4170.769, 4184.103, 4075.897, 4120, 4144.615, 450, 0, []
1629648818.0118, 118, 0, 4168.205, 4191.282, 4053.846, 4107.692, 4136.41, 450, 0, []
1629648818.0197, 119, 0, 4191.282, 4197.949, 4067.692, 4122.051, 4156.41, 16202, 0, []
1629648818.0277, 120, 0, 4213.846, 4213.333, 4101.538, 4143.077, 4182.051, 450, 0, []
1629648818.0355, 121, 0, 4209.231, 4214.872, 4103.59, 4142.051, 4179.487, 450, 0, []
1629648818.0435, 122, 0, 4197.436, 4190.769, 4096.41, 4129.744, 4165.128, 450, 0, []
1629648818.0514, 123, 0, 4203.59, 4187.692, 4091.282, 4132.821, 4167.179, 16202, 0, []
1629648818.0594, 124, 0, 4207.179, 4208.205, 4102.051, 4141.026, 4174.872, 450, 0, []
1629648818.0673, 125, 0, 4189.744, 4194.872, 4096.923, 4127.692, 4161.026, 450, 0, []
1629648818.075, 126, 0, 4183.59, 4177.949, 4083.077, 4118.462, 4146.154, 450, 0, []
1629648818.0829, 127, 0, 4196.923, 4195.385, 4094.872, 4134.359, 4158.974, 16202, 0, []
1629648818.0907, 128, 0, 4205.641, 4203.077, 4082.051, 4142.564, 4172.308, 450, 0, []
1629648818.0986, 0, 0, 4207.692, 4200, 4071.282, 4136.41, 4169.231, 450, 0, []
1629648818.1064, 1, 0, 4206.667, 4203.077, 4085.641, 4137.949, 4168.205, 450, 0, []
1629648818.1142, 2, 0, 4199.487, 4188.718, 4092.308, 4136.923, 4170.256, 16192, 0, []
1629648818.122, 3, 0, 4195.897, 4177.436, 4097.436, 4133.846, 4169.231, 450, 0, []
1629648818.1299, 4, 0, 4207.692, 4198.974, 4095.897, 4142.051, 4174.359, 16169, 0, []
1629648818.1377, 5, 0, 4212.308, 4219.487, 4103.077, 4152.821, 4178.974, 450, 0, []
1629648818.1456, 6, 0, 4201.538, 4211.795, 4106.154, 4152.308, 4173.846, 16095, 0, []
1629648818.1533, 7, 0, 4195.897, 4199.487, 4095.385, 4141.538, 4168.205, 450, 0, []
1629648818.1613, 8, 0, 4201.026, 4205.128, 4101.026, 4134.359, 4174.359, 450, 0, []
1629648818.1692, 9, 0, 4202.051, 4216.923, 4096.923, 4135.385, 4182.564, 16156, 0, []
1629648818.1772, 10, 0, 4203.59, 4216.41, 4101.538, 4143.59, 4184.103, 450, 0, []
1629648818.1851, 11, 0, 4216.923, 4215.385, 4119.487, 4152.308, 4185.641, 16202, 0, []
1629648818.193, 12, 0, 4221.026, 4214.359, 4105.641, 4143.59, 4184.615, 450, 0, []
1629648818.2009, 13, 0, 4213.333, 4203.077, 4094.872, 4130.769, 4180, 450, 0, []
1629648818.2089, 14, 0, 4214.872, 4197.949, 4100, 4135.897, 4184.103, 450, 0, []
1629648818.2168, 15, 0, 4221.026, 4200.513, 4106.667, 4149.744, 4190.256, 16202, 0, []
1629648818.2248, 16, 0, 4213.333, 4198.462, 4101.538, 4141.026, 4177.949, 0, 0, []
1629648818.2326, 17, 0, 4198.974, 4202.051, 4083.59, 4123.077, 4162.564, 0, 0, []
1629648818.2404, 18, 0, 4195.385, 4213.846, 4086.667, 4120, 4158.462, 0, 0, []
1629648818.2483, 19, 0, 4200.513, 4216.923, 4088.205, 4121.538, 4157.436, 0, 0, []
1629648818.2561, 20, 0, 4199.487, 4200, 4086.154, 4113.846, 4156.923, 0, 0, []
1629648818.264, 21, 0, 4201.026, 4188.718, 4094.872, 4108.718, 4163.077, 0, 0, []
1629648818.2718, 22, 0, 4221.026, 4209.744, 4093.333, 4120.513, 4177.436, 0, 0, []
1629648818.2796, 23, 0, 4238.974, 4219.487, 4105.128, 4140, 4188.718, 0, 0, []
1629648818.2874, 24, 0, 4230.256, 4204.103, 4111.282, 4150.256, 4187.692, 0, 0, []
1629648818.2953, 25, 0, 4217.436, 4207.692, 4101.538, 4146.154, 4184.103, 0, 0, []
1629648818.3031, 26, 0, 4220, 4211.795, 4099.487, 4137.949, 4184.103, 0, 0, []
1629648818.311, 27, 0, 4220.513, 4195.385, 4090.256, 4133.846, 4178.974, 0, 0, []
1629648818.3187, 28, 0, 4214.872, 4197.436, 4093.846, 4134.872, 4176.41, 0, 0, []
1629648818.3267, 29, 0, 4217.949, 4211.282, 4095.897, 4137.436, 4187.179, 0, 0, []
1629648818.3346, 30, 0, 4223.59, 4204.103, 4091.282, 4140.513, 4192.308, 0, 0, []
1629648818.3426, 31, 0, 4217.949, 4197.436, 4100.513, 4141.026, 4183.077, 0, 0, []
1629648818.3505, 32, 0, 4216.923, 4205.641, 4088.718, 4130.256, 4180, 0, 0, []
1629648818.3584, 33, 0, 4227.179, 4206.667, 4079.487, 4122.051, 4185.641, 0, 0, []
1629648818.3663, 34, 0, 4228.205, 4193.333, 4082.564, 4128.718, 4186.667, 0, 0, []
1629648818.3743, 35, 0, 4215.385, 4175.897, 4080, 4137.436, 4180.513, 0, 0, []
1629648818.3822, 36, 0, 4214.359, 4182.051, 4093.333, 4137.436, 4176.923, 0, 0, []
1629648818.3902, 37, 0, 4230.769, 4212.821, 4094.872, 4137.949, 4189.744, 0, 0, []
1629648818.398, 38, 0, 4237.949, 4222.051, 4090.256, 4140, 4200, 0, 0, []
1629648818.4058, 39, 0, 4228.205, 4205.641, 4094.872, 4136.41, 4191.282, 0, 0, []
1629648818.4137, 40, 0, 4222.051, 4194.359, 4098.974, 4135.897, 4185.128, 0, 0, []
1629648818.4215, 41, 0, 4216.41, 4200.513, 4104.103, 4135.385, 4180, 0, 0, []
1629648818.4294, 42, 0, 4202.051, 4206.154, 4086.667, 4130.769, 4167.692, 0, 0, []
1629648818.4371, 43, 0, 4199.487, 4190.769, 4088.205, 4132.821, 4169.231, 0, 0, []
1629648818.445, 44, 0, 4214.872, 4186.667, 4115.385, 4140.513, 4184.615, 0, 0, []
1629648818.4528, 45, 0, 4228.718, 4202.051, 4109.744, 4138.974, 4186.154, 0, 0, []
1629648818.4607, 46, 0, 4233.846, 4209.744, 4105.128, 4137.436, 4189.231, 0, 0, []
1629648818.4685, 47, 0, 4240.513, 4211.282, 4116.41, 4151.795, 4203.077, 0, 0, []
1629648818.4765, 48, 0, 4236.41, 4213.846, 4123.077, 4161.538, 4202.051, 0, 0, []
1629648818.4843, 49, 0, 4216.41, 4211.282, 4109.231, 4148.205, 4188.205, 0, 0, []
1629648818.4923, 50, 0, 4206.667, 4202.564, 4089.744, 4136.41, 4177.436, 0, 0, []
1629648818.5002, 51, 0, 4209.744, 4197.436, 4108.718, 4141.026, 4171.282, 0, 0, []
1629648818.5082, 52, 0, 4209.231, 4201.026, 4116.923, 4131.795, 4169.744, 0, 0, []
1629648818.5161, 53, 0, 4197.436, 4209.231, 4106.667, 4115.385, 4167.692, 0, 0, []
1629648818.524, 54, 0, 4197.436, 4201.538, 4116.41, 4124.615, 4169.744, 0, 0, []
1629648818.5319, 55, 0, 4213.333, 4186.667, 4115.897, 4135.897, 4177.436, 0, 0, []
1629648818.5399, 56, 0, 4214.359, 4205.641, 4110.769, 4131.282, 4175.385, 0, 0, []
1629648818.5478, 57, 0, 4199.487, 4220, 4095.385, 4127.692, 4165.641, 0, 0, []
1629648818.5558, 58, 0, 4201.538, 4198.974, 4085.641, 4126.154, 4165.128, 0, 0, []
1629648818.5636, 59, 0, 4217.436, 4201.538, 4100, 4128.718, 4169.744, 0, 0, []
1629648818.5714, 60, 0, 4218.974, 4217.436, 4097.949, 4132.308, 4174.872, 0, 0, []
1629648818.5793, 61, 0, 4217.949, 4203.077, 4100, 4130.256, 4182.564, 0, 0, []
1629648818.5871, 62, 0, 4231.795, 4192.821, 4110.256, 4132.821, 4190.256, 0, 0, []
1629648818.595, 63, 0, 4234.359, 4203.59, 4107.692, 4139.487, 4184.103, 0, 0, []
1629648818.6027, 64, 0, 4220.513, 4205.128, 4107.179, 4129.744, 4171.282, 450, 0, []
1629648818.6106, 65, 0, 4218.974, 4195.897, 4100, 4116.41, 4167.692, 450, 0, []
1629648818.6184, 66, 0, 4227.179, 4200, 4102.051, 4121.538, 4170.256, 16192, 0, []
1629648818.6264, 67, 0, 4222.051, 4202.564, 4103.077, 4122.564, 4168.718, 450, 0, []
1629648818.6343, 68, 0, 4211.795, 4196.923, 4095.897, 4117.949, 4165.128, 16169, 0, []
1629648818.6422, 69, 0, 4215.385, 4197.949, 4104.103, 4127.179, 4167.692, 450, 0, []
1629648818.6501, 70, 0, 4226.154, 4202.564, 4097.436, 4134.872, 4174.872, 16098, 0, []
1629648818.658, 71, 0, 4231.795, 4206.154, 4095.897, 4128.718, 4183.59, 450, 0, []
1629648818.6659, 72, 0, 4232.821, 4201.026, 4108.718, 4126.667, 4187.179, 450, 0, []
1629648818.6739, 73, 0, 4231.282, 4187.692, 4108.718, 4138.462, 4186.154, 16156, 0, []
1629648818.6818, 74, 0, 4228.205, 4181.538, 4118.462, 4141.538, 4184.103, 450, 0, []
1629648818.6897, 75, 0, 4218.462, 4188.205, 4112.821, 4125.641, 4180.513, 16202, 0, []
1629648818.6976, 76, 0, 4213.333, 4182.564, 4105.641, 4118.462, 4180, 450, 0, []
1629648818.7056, 77, 0, 4224.615, 4175.897, 4119.487, 4132.308, 4186.154, 450, 0, []
1629648818.7135, 78, 0, 4236.41, 4193.333, 4121.538, 4137.949, 4191.282, 450, 0, []
1629648818.7213, 79, 0, 4225.641, 4204.103, 4121.538, 4124.103, 4183.077, 16202, 0, []
1629648818.7291, 80, 0, 4221.026, 4203.077, 4125.128, 4123.077, 4182.051, 450, 0, []
1629648818.7369, 81, 0, 4230.769, 4199.487, 4134.872, 4141.538, 4195.897, 450, 0, []
1629648818.7448, 82, 0, 4219.487, 4183.59, 4130.769, 4147.692, 4196.41, 450, 0, []
1629648818.7526, 83, 0, 4204.103, 4175.385, 4105.128, 4135.385, 4186.154, 16202, 0, []
1629648818.7605, 84, 0, 4205.128, 4182.564, 4107.179, 4123.077, 4179.487, 450, 0, []
1629648818.7682, 85, 0, 4204.103, 4183.077, 4111.795, 4117.949, 4173.846, 450, 0, []
1629648818.7761, 86, 0, 4205.128, 4181.026, 4112.821, 4127.179, 4180, 450, 0, []
1629648818.7839, 87, 0, 4220, 4189.744, 4128.718, 4148.718, 4200.513, 16202, 0, []
1629648818.7919, 88, 0, 4224.615, 4184.615, 4127.692, 4154.872, 4207.692, 450, 0, []
1629648818.7998, 89, 0, 4214.872, 4183.59, 4131.282, 4143.59, 4194.872, 450, 0, []
1629648818.8077, 90, 0, 4215.385, 4200, 4128.718, 4144.103, 4188.718, 450, 0, []
1629648818.8156, 91, 0, 4218.462, 4198.974, 4118.974, 4152.821, 4190.769, 16202, 0, []
1629648818.8236, 92, 0, 4206.667, 4189.231, 4122.051, 4145.128, 4185.128, 450, 0, []
1629648818.8315, 93, 0, 4182.051, 4186.667, 4102.051, 4122.051, 4163.077, 450, 0, []
1629648818.8395, 94, 0, 4173.846, 4178.974, 4088.718, 4115.385, 4146.667, 450, 0, []
1629648818.8473, 95, 0, 4192.308, 4174.872, 4103.077, 4133.333, 4157.949, 16202, 0, []
1629648818.8553, 96, 0, 4203.59, 4187.692, 4115.897, 4149.744, 4177.949, 450, 0, []
1629648818.8632, 97, 0, 4202.051, 4198.462, 4124.103, 4155.897, 4185.128, 450, 0, []
1629648818.871, 98, 0, 4208.718, 4198.974, 4124.103, 4161.026, 4183.59, 450, 0, []
1629648818.8789, 99, 0, 4218.974, 4202.051, 4135.897, 4166.154, 4185.128, 16202, 0, []
1629648818.8866, 100, 0, 4221.538, 4203.59, 4139.487, 4165.128, 4188.205, 450, 0, []
1629648818.8945, 101, 0, 4225.128, 4211.282, 4127.179, 4166.667, 4186.154, 450, 0, []
1629648818.9023, 102, 0, 4231.282, 4217.436, 4133.333, 4173.846, 4186.667, 450, 0, []
1629648818.9102, 103, 0, 4222.564, 4209.744, 4128.718, 4168.205, 4186.154, 16202, 0, []
1629648818.918, 104, 0, 4203.59, 4198.974, 4115.897, 4154.359, 4174.359, 450, 0, []
1629648818.9258, 105, 0, 4195.897, 4203.59, 4110.256, 4149.231, 4167.179, 450, 0, []
1629648818.9336, 106, 0, 4195.385, 4206.667, 4101.026, 4151.795, 4167.692, 450, 0, []
1629648818.9416, 107, 0, 4194.872, 4193.846, 4109.231, 4153.333, 4165.641, 16202, 0, []
1629648818.9495, 108, 0, 4208.718, 4191.282, 4115.385, 4155.897, 4176.41, 450, 0, []
1629648818.9575, 109, 0, 4225.641, 4198.974, 4126.154, 4167.692, 4200.513, 450, 0, []
1629648818.9654, 110, 0, 4221.026, 4205.641, 4134.359, 4174.359, 4205.128, 450, 0, []
1629648818.9733, 111, 0, 4216.41, 4214.872, 4120, 4170.256, 4198.462, 16202, 0, []
1629648818.9812, 112, 0, 4227.692, 4218.462, 4132.821, 4171.282, 4213.846, 450, 0, []
1629648818.9892, 113, 0, 4228.205, 4212.821, 4142.051, 4175.385, 4221.538, 450, 0, []
1629648818.9971, 114, 0, 4212.821, 4207.692, 4126.667, 4164.615, 4198.974, 450, 0, []
1629648819.0051, 115, 0, 4208.718, 4208.205, 4120, 4159.487, 4182.051, 16202, 0, []
1629648819.0129, 116, 0, 4213.846, 4200, 4112.821, 4168.718, 4185.641, 450, 0, []
1629648819.0207, 117, 0, 4212.821, 4195.385, 4116.41, 4165.128, 4186.667, 450, 0, []
1629648819.0286, 118, 0, 4219.487, 4208.205, 4117.436, 4154.872, 4189.231, 450, 0, []
1629648819.0364, 119, 0, 4224.103, 4215.897, 4116.923, 4154.359, 4197.949, 16202, 0, []
1629648819.0443, 120, 0, 4217.949, 4215.897, 4124.615, 4155.385, 4194.359, 450, 0, []
1629648819.052, 121, 0, 4226.667, 4227.692, 4120, 4157.949, 4196.41, 450, 0, []
1629648819.0599, 122, 0, 4235.897, 4223.59, 4120, 4163.59, 4205.641, 450, 0, []
1629648819.0677, 123, 0, 4222.051, 4196.923, 4111.795, 4154.359, 4195.897, 16202, 0, []
1629648819.0756, 124, 0, 4220, 4210.769, 4110.769, 4149.231, 4188.718, 450, 0, []
1629648819.0834, 125, 0, 4232.308, 4240, 4128.205, 4159.487, 4194.872, 450, 0, []
1629648819.0913, 126, 0, 4224.615, 4215.385, 4114.872, 4150.769, 4190.256, 450, 0, []
1629648819.0992, 127, 0, 4218.974, 4193.846, 4106.154, 4132.308, 4186.667, 16202, 0, []
1629648819.1072, 128, 0, 4235.385, 4213.333, 4108.718, 4135.897, 4199.487, 450, 0, []
1629648819.1151, 0, 0, 4232.821, 4222.051, 4100.513, 4150.256, 4200.513, 450, 0, []
1629648819.1231, 1, 0, 4216.923, 4213.846, 4109.744, 4154.359, 4187.692, 450, 0, []
1629648819.1309, 2, 0, 4215.385, 4203.59, 4113.846, 4151.795, 4181.026, 16192, 0, []
1629648819.1389, 3, 0, 4215.385, 4197.436, 4113.846, 4154.359, 4179.487, 450, 0, []
1629648819.1468, 4, 0, 4213.846, 4210.769, 4111.282, 4155.385, 4183.59, 16170, 0, []
1629648819.1548, 5, 0, 4215.385, 4215.897, 4097.436, 4149.744, 4184.615, 450, 0, []
1629648819.1627, 6, 0, 4217.949, 4205.128, 4100.513, 4145.128, 4181.538, 16100, 0, []
1629648819.1705, 7, 0, 4218.462, 4204.103, 4100, 4139.487, 4184.103, 450, 0, []
1629648819.1783, 8, 0, 4216.923, 4200.513, 4102.051, 4135.385, 4183.077, 450, 0, []
1629648819.1861, 9, 0, 4212.821, 4197.949, 4105.641, 4143.077, 4174.872, 16156, 0, []
1629648819.194, 10, 0, 4206.154, 4209.231, 4089.231, 4152.308, 4169.744, 450, 0, []
1629648819.2018, 11, 0, 4201.026, 4214.359, 4085.128, 4145.128, 4170.256, 16202, 0, []
1629648819.2097, 12, 0, 4201.538, 4195.385, 4087.692, 4128.205, 4168.205, 450, 0, []
1629648819.2174, 13, 0, 4205.641, 4181.538, 4096.41, 4121.538, 4163.59, 450, 0, []
1629648819.2253, 14, 0, 4205.641, 4191.795, 4103.59, 4128.205, 4164.615, 450, 0, []
1629648819.2331, 15, 0, 4206.667, 4202.564, 4098.462, 4131.795, 4167.179, 16202, 0, []
1629648819.241, 16, 0, 4212.308, 4202.051, 4110.256, 4131.282, 4166.154, 0, 0, []
1629648819.2488, 17, 0, 4216.923, 4203.077, 4105.128, 4143.59, 4166.154, 0, 0, []
1629648819.2567, 18, 0, 4218.974, 4198.462, 4091.795, 4156.923, 4171.282, 0, 0, []
1629648819.2646, 19, 0, 4214.359, 4184.103, 4095.897, 4148.718, 4170.769, 0, 0, []
1629648819.2726, 20, 0, 4210.769, 4191.282, 4092.308, 4139.487, 4166.667, 0, 0, []
1629648819.2805, 21, 0, 4211.282, 4205.128, 4097.949, 4142.564, 4165.641, 0, 0, []
1629648819.2885, 22, 0, 4217.949, 4190.256, 4099.487, 4141.538, 4169.744, 0, 0, []
1629648819.2963, 23, 0, 4223.077, 4180, 4095.897, 4138.462, 4177.949, 0, 0, []
1629648819.3043, 24, 0, 4221.538, 4189.231, 4099.487, 4140.513, 4177.949, 0, 0, []
1629648819.3122, 25, 0, 4223.59, 4198.462, 4095.897, 4135.385, 4172.821, 0, 0, []
1629648819.3202, 26, 0, 4231.282, 4211.282, 4110.769, 4129.744, 4179.487, 0, 0, []
1629648819.3281, 27, 0, 4242.051, 4222.051, 4118.462, 4134.872, 4192.308, 0, 0, []
1629648819.3358, 28, 0, 4248.718, 4209.231, 4093.846, 4135.385, 4193.333, 0, 0, []
1629648819.3437, 29, 0, 4249.744, 4187.692, 4077.436, 4127.179, 4182.564, 0, 0, []
1629648819.3515, 30, 0, 4245.128, 4189.231, 4074.359, 4128.205, 4175.897, 0, 0, []
1629648819.3594, 31, 0, 4237.949, 4202.564, 4089.744, 4139.487, 4173.333, 0, 0, []
1629648819.3672, 32, 0, 4234.359, 4203.077, 4095.385, 4142.564, 4174.872, 0, 0, []
1629648819.375, 33, 0, 4233.333, 4201.026, 4092.308, 4140.513, 4180.513, 0, 0, []
1629648819.3828, 34, 0, 4234.872, 4199.487, 4107.179, 4135.897, 4183.077, 0, 0, []
1629648819.3907, 35, 0, 4232.308, 4187.692, 4099.487, 4124.615, 4174.359, 0, 0, []
1629648819.3985, 36, 0, 4228.718, 4184.103, 4088.205, 4127.179, 4168.205, 0, 0, []
1629648819.4064, 37, 0, 4227.692, 4195.897, 4090.256, 4140, 4172.821, 0, 0, []
1629648819.4142, 38, 0, 4234.872, 4204.615, 4087.692, 4136.923, 4176.923, 0, 0, []
1629648819.4221, 39, 0, 4246.667, 4205.128, 4101.538, 4133.333, 4181.538, 0, 0, []
1629648819.43, 40, 0, 4247.179, 4207.692, 4104.615, 4145.641, 4185.128, 0, 0, []
1629648819.438, 41, 0, 4227.179, 4208.205, 4091.795, 4143.077, 4168.718, 0, 0, []
1629648819.4459, 42, 0, 4210.769, 4206.154, 4078.974, 4119.487, 4149.744, 0, 0, []
1629648819.4539, 43, 0, 4222.051, 4203.59, 4074.872, 4120.513, 4160, 0, 0, []
1629648819.4617, 44, 0, 4243.59, 4202.051, 4103.59, 4145.641, 4183.077, 0, 0, []
1629648819.4697, 45, 0, 4248.718, 4209.744, 4119.487, 4158.462, 4194.359, 0, 0, []
1629648819.4776, 46, 0, 4238.462, 4217.436, 4115.897, 4154.359, 4185.128, 0, 0, []
1629648819.4856, 47, 0, 4230.256, 4210.256, 4115.385, 4142.564, 4168.205, 0, 0, []
1629648819.4935, 48, 0, 4227.179, 4193.333, 4104.615, 4126.667, 4164.103, 0, 0, []
1629648819.5012, 49, 0, 4223.077, 4195.385, 4103.59, 4124.103, 4169.744, 0, 0, []
1629648819.5091, 50, 0, 4210.769, 4199.487, 4093.846, 4122.564, 4160.513, 0, 0, []
1629648819.5169, 51, 0, 4196.41, 4183.077, 4079.487, 4112.821, 4145.128, 0, 0, []
1629648819.5248, 52, 0, 4204.103, 4188.205, 4084.103, 4119.487, 4153.846, 0, 0, []
1629648819.5326, 53, 0, 4222.051, 4204.103, 4086.667, 4134.872, 4171.795, 0, 0, []
1629648819.5404, 54, 0, 4221.026, 4188.718, 4100, 4136.41, 4171.795, 0, 0, []
1629648819.5482, 55, 0, 4215.385, 4181.026, 4104.103, 4134.359, 4166.667, 0, 0, []
1629648819.5561, 56, 0, 4224.615, 4198.462, 4099.487, 4136.923, 4177.949, 0, 0, []
1629648819.5639, 57, 0, 4233.333, 4202.051, 4102.051, 4131.795, 4189.231, 0, 0, []
1629648819.5719, 58, 0, 4229.744, 4198.974, 4089.231, 4121.538, 4180, 0, 0, []
1629648819.5797, 59, 0, 4226.154, 4198.462, 4094.359, 4127.179, 4175.385, 0, 0, []
1629648819.5877, 60, 0, 4227.692, 4190.256, 4103.59, 4139.487, 4182.051, 0, 0, []
1629648819.5956, 61, 0, 4230.256, 4194.872, 4098.462, 4137.949, 4177.436, 0, 0, []
1629648819.6036, 62, 0, 4229.231, 4199.487, 4101.538, 4130.256, 4173.846, 0, 0, []
1629648819.6115, 63, 0, 4229.744, 4189.231, 4093.333, 4134.359, 4185.128, 0, 0, []
1629648819.6194, 64, 0, 4230.769, 4189.231, 4091.282, 4137.949, 4184.103, 450, 0, []
1629648819.6273, 65, 0, 4221.538, 4193.333, 4090.769, 4125.641, 4166.154, 450, 0, []
1629648819.6351, 66, 0, 4213.333, 4183.59, 4085.128, 4117.949, 4163.59, 16192, 0, []
1629648819.643, 67, 0, 4224.615, 4177.949, 4101.538, 4127.179, 4177.436, 450, 0, []
1629648819.651, 68, 0, 4236.923, 4184.103, 4106.154, 4140, 4188.718, 16170, 0, []
1629648819.6589, 69, 0, 4233.846, 4195.897, 4103.59, 4139.487, 4184.103, 450, 0, []
1629648819.6667, 70, 0, 4230.256, 4199.487, 4102.564, 4124.615, 4171.282, 16060, 0, []
1629648819.6746, 71, 0, 4234.359, 4189.231, 4096.923, 4119.487, 4173.333, 450, 0, []
1629648819.6826, 72, 0, 4235.385, 4181.538, 4101.026, 4124.615, 4180.513, 450, 0, []
1629648819.6905, 73, 0, 4227.179, 4181.538, 4096.41, 4117.949, 4176.41, 16156, 0, []
1629648819.6983, 74, 0, 4217.436, 4184.615, 4102.564, 4112.821, 4168.718, 450, 0, []
1629648819.7061, 75, 0, 4210.256, 4183.077, 4107.692, 4118.462, 4158.974, 16202, 0, []
1629648819.7139, 76, 0, 4211.282, 4180, 4100.513, 4124.103, 4159.487, 450, 0, []
1629648819.7218, 77, 0, 4224.103, 4189.744, 4116.923, 4131.282, 4174.872, 450, 0, []
1629648819.7296, 78, 0, 4236.923, 4198.462, 4110.256, 4131.795, 4178.462, 450, 0, []
1629648819.7376, 79, 0, 4233.333, 4188.205, 4091.795, 4120, 4167.179, 16202, 0, []
1629648819.7454, 80, 0, 4231.795, 4185.128, 4103.59, 4121.538, 4174.872, 450, 0, []
1629648819.7534, 81, 0, 4244.103, 4190.256, 4103.077, 4136.923, 4189.231, 450, 0, []
1629648819.7613, 82, 0, 4251.795, 4185.128, 4097.949, 4140, 4188.205, 450, 0, []
1629648819.7693, 83, 0, 4248.205, 4195.897, 4097.949, 4133.846, 4185.641, 16202, 0, []
1629648819.7772, 84, 0, 4238.462, 4201.538, 4101.026, 4129.744, 4186.154, 450, 0, []
1629648819.7851, 85, 0, 4231.795, 4184.103, 4104.615, 4124.103, 4185.641, 450, 0, []
1629648819.793, 86, 0, 4237.949, 4187.179, 4098.462, 4119.487, 4187.179, 450, 0, []
1629648819.8008, 87, 0, 4249.231, 4204.103, 4108.205, 4127.179, 4189.744, 16202, 0, []
1629648819.8087, 88, 0, 4251.282, 4198.974, 4113.333, 4141.026, 4193.846, 450, 0, []
1629648819.8165, 89, 0, 4236.923, 4175.385, 4102.564, 4137.436, 4184.615, 450, 0, []
1629648819.8243, 90, 0, 4220, 4166.154, 4097.436, 4128.205, 4163.59, 450, 0, []
1629648819.8321, 91, 0, 4215.897, 4173.846, 4086.667, 4130.769, 4152.821, 16202, 0, []
1629648819.84, 92, 0, 4216.923, 4174.872, 4093.846, 4129.744, 4150.769, 450, 0, []
1629648819.8478, 93, 0, 4214.872, 4170.769, 4098.462, 4118.462, 4147.692, 450, 0, []
1629648819.8557, 94, 0, 4216.41, 4180.513, 4089.231, 4115.897, 4149.231, 450, 0, []
1629648819.8635, 95, 0, 4220.513, 4185.641, 4096.41, 4127.179, 4155.385, 16202, 0, []
1629648819.8714, 96, 0, 4216.41, 4168.718, 4091.282, 4132.821, 4157.949, 450, 0, []
1629648819.8793, 97, 0, 4213.846, 4172.821, 4085.128, 4125.641, 4154.872, 450, 0, []
1629648819.8873, 98, 0, 4221.026, 4191.282, 4090.256, 4127.692, 4154.359, 450, 0, []
1629648819.8952, 99, 0, 4220.513, 4185.641, 4089.231, 4133.846, 4154.359, 16202, 0, []
1629648819.9032, 100, 0, 4213.333, 4172.821, 4091.282, 4132.821, 4161.538, 450, 0, []
1629648819.911, 101, 0, 4226.667, 4184.615, 4092.821, 4137.949, 4175.897, 450, 0, []
1629648819.919, 102, 0, 4246.667, 4204.103, 4108.718, 4151.282, 4181.026, 450, 0, []
1629648819.9269, 103, 0, 4240, 4196.41, 4109.744, 4148.205, 4174.359, 16202, 0, []
1629648819.9349, 104, 0, 4218.974, 4178.974, 4093.333, 4138.974, 4166.154, 450, 0, []
1629648819.9428, 105, 0, 4217.436, 4177.949, 4103.59, 4141.026, 4160, 450, 0, []
1629648819.9505, 106, 0, 4230.769, 4191.282, 4090.769, 4133.846, 4160, 450, 0, []
1629648819.9584, 107, 0, 4235.897, 4192.308, 4076.41, 4126.154, 4167.179, 16202, 0, []
1629648819.9662, 108, 0, 4232.821, 4187.179, 4095.385, 4134.872, 4171.795, 450, 0, []
1629648819.9741, 109, 0, 4234.359, 4191.282, 4096.923, 4142.051, 4170.769, 450, 0, []
1629648819.9819, 110, 0, 4226.154, 4187.692, 4082.564, 4131.795, 4164.103, 450, 0, []
1629648819.9897, 111, 0, 4208.205, 4180.513, 4066.154, 4123.59, 4154.359, 16202, 0, []
1629648819.9975, 112, 0, 4195.385, 4177.949, 4064.615, 4133.333, 4148.718, 450, 0, []
1629648820.0054, 113, 0, 4196.41, 4175.385, 4077.436, 4148.718, 4148.205, 450, 0, []
1629648820.0132, 114, 0, 4215.897, 4168.718, 4082.564, 4154.359, 4157.949, 450, 0, []
1629648820.0211, 115, 0, 4229.231, 4168.205, 4089.231, 4147.179, 4170.256, 16202, 0, []
1629648820.0288, 116, 0, 4219.487, 4176.923, 4078.462, 4138.462, 4170.769, 450, 0, []
1629648820.0368, 117, 0, 4217.436, 4181.538, 4075.897, 4138.974, 4174.359, 450, 0, []
1629648820.0447, 118, 0, 4234.359, 4187.179, 4095.385, 4146.667, 4186.667, 450, 0, []
1629648820.0527, 119, 0, 4238.974, 4192.821, 4099.487, 4157.436, 4191.795, 16202, 0, []
1629648820.0606, 120, 0, 4230.769, 4200.513, 4108.205, 4169.744, 4188.718, 450, 0, []
1629648820.0685, 121, 0, 4232.308, 4209.744, 4107.179, 4169.231, 4187.179, 450, 0, []
1629648820.0764, 122, 0, 4235.385, 4206.154, 4090.256, 4153.846, 4185.641, 450, 0, []
1629648820.0844, 123, 0, 4228.205, 4180, 4084.103, 4143.59, 4178.974, 16202, 0, []
1629648820.0923, 124, 0, 4215.897, 4163.59, 4074.359, 4135.385, 4170.769, 450, 0, []
1629648820.1003, 125, 0, 4210.256, 4181.538, 4085.641, 4131.795, 4165.128, 450, 0, []
1629648820.1082, 126, 0, 4215.897, 4189.744, 4096.923, 4142.564, 4166.667, 450, 0, []
1629648820.1159, 127, 0, 4226.154, 4182.051, 4088.718, 4158.462, 4176.923, 16202, 0, []
1629648820.1238, 128, 0, 4231.282, 4194.359, 4093.333, 4163.077, 4186.154, 450, 0, []
1629648820.1316, 0, 0, 4232.821, 4205.641, 4094.872, 4154.359, 4192.821, 450, 0, []
1629648820.1395, 1, 0, 4231.282, 4201.538, 4102.564, 4148.718, 4195.897, 450, 0, []
1629648820.1473, 2, 0, 4224.615, 4202.564, 4102.564, 4145.128, 4190.256, 16192, 0, []
1629648820.1551, 3, 0, 4223.077, 4197.436, 4091.795, 4141.538, 4188.205, 450, 0, []
1629648820.1629, 4, 0, 4229.744, 4190.256, 4102.051, 4148.718, 4192.821, 16170, 0, []
1629648820.1708, 5, 0, 4233.846, 4203.59, 4094.872, 4153.846, 4194.359, 450, 0, []
1629648820.1786, 6, 0, 4232.821, 4206.667, 4085.128, 4154.359, 4193.846, 16090, 0, []
1629648820.1866, 7, 0, 4230.769, 4187.179, 4089.744, 4161.538, 4193.333, 450, 0, []
1629648820.1944, 8, 0, 4218.462, 4181.538, 4084.103, 4164.615, 4183.59, 450, 0, []
1629648820.2024, 9, 0, 4208.718, 4193.333, 4087.179, 4155.897, 4182.051, 16156, 0, []
1629648820.2103, 10, 0, 4214.872, 4194.872, 4088.205, 4151.795, 4190.256, 450, 0, []
1629648820.2183, 11, 0, 4217.436, 4192.308, 4092.308, 4149.744, 4186.154, 16202, 0, []
1629648820.2262, 12, 0, 4215.897, 4204.615, 4094.872, 4143.077, 4186.667, 450, 0, []
1629648820.2341, 13, 0, 4226.154, 4200, 4078.974, 4149.231, 4201.538, 450, 0, []
1629648820.242, 14, 0, 4232.821, 4180, 4076.923, 4157.949, 4205.641, 450, 0, []
1629648820.25, 15, 0, 4224.103, 4190.769, 4083.077, 4152.308, 4195.385, 16202, 0, []
1629648820.2579, 16, 0, 4216.41, 4208.205, 4100, 4152.821, 4188.718, 0, 0, []
1629648820.2657, 17, 0, 4217.436, 4188.718, 4109.231, 4158.974, 4188.718, 0, 0, []
1629648820.2735, 18, 0, 4215.897, 4167.692, 4085.128, 4148.205, 4185.128, 0, 0, []
1629648820.2813, 19, 0, 4215.897, 4177.949, 4079.487, 4136.41, 4181.026, 0, 0, []
1629648820.2892, 20, 0, 4219.487, 4193.333, 4079.487, 4136.923, 4181.026, 0, 0, []
1629648820.297, 21, 0, 4218.974, 4196.41, 4073.333, 4131.795, 4182.051, 0, 0, []
1629648820.3049, 22, 0, 4218.462, 4202.564, 4079.487, 4126.667, 4183.59, 0, 0, []
1629648820.3126, 23, 0, 4220.513, 4204.103, 4070.256, 4131.282, 4183.59, 0, 0, []
1629648820.3205, 24, 0, 4217.436, 4192.821, 4070.256, 4141.538, 4180.513, 0, 0, []
1629648820.3283, 25, 0, 4218.974, 4195.385, 4076.923, 4150.769, 4188.718, 0, 0, []
1629648820.3363, 26, 0, 4224.103, 4199.487, 4073.846, 4155.385, 4200.513, 0, 0, []
1629648820.3442, 27, 0, 4220, 4183.077, 4077.949, 4152.821, 4195.385, 0, 0, []
1629648820.3522, 28, 0, 4215.385, 4185.641, 4077.436, 4148.205, 4192.308, 0, 0, []
1629648820.36, 29, 0, 4214.872, 4202.051, 4080.513, 4141.026, 4198.974, 0, 0, []
1629648820.368, 30, 0, 4214.872, 4188.718, 4076.923, 4132.308, 4195.385, 0, 0, []
1629648820.3759, 31, 0, 4225.641, 4188.205, 4086.667, 4141.538, 4196.41, 0, 0, []
1629648820.3839, 32, 0, 4232.308, 4215.385, 4115.385, 4158.974, 4209.231, 0, 0, []
1629648820.3918, 33, 0, 4215.897, 4208.718, 4107.179, 4156.41, 4200.513, 0, 0, []
1629648820.3997, 34, 0, 4202.564, 4193.846, 4102.564, 4150.769, 4182.564, 0, 0, []
1629648820.4076, 35, 0, 4207.179, 4209.744, 4105.128, 4151.795, 4182.564, 0, 0, []
1629648820.4156, 36, 0, 4206.667, 4201.026, 4086.154, 4143.077, 4183.077, 0, 0, []
1629648820.4235, 37, 0, 4209.744, 4178.974, 4089.744, 4142.051, 4180.513, 0, 0, []
1629648820.4313, 38, 0, 4221.538, 4199.487, 4093.846, 4152.308, 4187.179, 0, 0, []
1629648820.4391, 39, 0, 4214.359, 4220, 4085.128, 4141.538, 4186.667, 0, 0, []
1629648820.4469, 40, 0, 4199.487, 4197.436, 4080, 4125.128, 4181.538, 0, 0, []
1629648820.4548, 41, 0, 4198.974, 4177.949, 4075.897, 4128.205, 4184.615, 0, 0, []
1629648820.4626, 42, 0, 4195.897, 4185.128, 4078.462, 4129.744, 4180.513, 0, 0, []
1629648820.4705, 43, 0, 4187.692, 4186.154, 4076.923, 4121.538, 4172.821, 0, 0, []
1629648820.4782, 44, 0, 4183.077, 4185.128, 4086.667, 4122.564, 4173.333, 0, 0, []
1629648820.4861, 45, 0, 4181.026, 4186.667, 4091.282, 4123.59, 4171.795, 0, 0, []
1629648820.4939, 46, 0, 4189.231, 4179.487, 4081.026, 4119.487, 4172.821, 0, 0, []
1629648820.5019, 47, 0, 4202.051, 4189.744, 4095.385, 4123.59, 4184.615, 0, 0, []
1629648820.5098, 48, 0, 4197.949, 4208.205, 4096.923, 4121.026, 4185.128, 0, 0, []
1629648820.5177, 49, 0, 4185.641, 4190.769, 4087.179, 4111.795, 4169.231, 0, 0, []
1629648820.5256, 50, 0, 4178.462, 4162.051, 4086.667, 4110.256, 4162.051, 0, 0, []
1629648820.5336, 51, 0, 4180, 4171.282, 4074.359, 4116.923, 4169.744, 0, 0, []
1629648820.5415, 52, 0, 4195.897, 4191.795, 4085.641, 4133.846, 4184.615, 0, 0, []
1629648820.5495, 53, 0, 4208.718, 4190.769, 4095.897, 4146.154, 4192.308, 0, 0, []
1629648820.5573, 54, 0, 4202.051, 4177.949, 4089.744, 4134.872, 4184.103, 0, 0, []
1629648820.5653, 55, 0, 4194.359, 4178.462, 4089.744, 4122.564, 4173.846, 0, 0, []
1629648820.5732, 56, 0, 4194.872, 4186.154, 4073.846, 4121.026, 4174.359, 0, 0, []
1629648820.581, 57, 0, 4184.103, 4172.821, 4062.564, 4112.308, 4168.205, 0, 0, []
1629648820.5889, 58, 0, 4168.205, 4161.538, 4066.667, 4107.179, 4158.974, 0, 0, []
1629648820.5967, 59, 0, 4165.128, 4176.41, 4081.026, 4117.436, 4162.051, 0, 0, []
1629648820.6045, 60, 0, 4173.846, 4189.231, 4094.872, 4124.103, 4169.744, 0, 0, []
1629648820.6123, 61, 0, 4184.103, 4182.564, 4086.154, 4121.026, 4169.231, 0, 0, []
1629648820.6202, 62, 0, 4181.026, 4181.538, 4085.128, 4113.333, 4162.564, 0, 0, []
1629648820.628, 63, 0, 4171.795, 4192.821, 4082.051, 4106.154, 4157.949, 0, 0, []
1629648820.6359, 64, 0, 4168.205, 4193.333, 4075.385, 4110.769, 4156.41, 450, 0, []
1629648820.6436, 65, 0, 4166.667, 4179.487, 4093.846, 4123.077, 4158.462, 450, 0, []
1629648820.6515, 66, 0, 4169.744, 4165.641, 4097.436, 4128.205, 4164.103, 16192, 0, []
1629648820.6594, 67, 0, 4181.538, 4173.846, 4094.872, 4130.769, 4169.744, 450, 0, []
1629648820.6673, 68, 0, 4184.103, 4191.282, 4096.41, 4129.231, 4169.744, 16170, 0, []
1629648820.6752, 69, 0, 4170.769, 4184.103, 4088.718, 4113.333, 4160.513, 450, 0, []
1629648820.683, 70, 0, 4161.538, 4168.205, 4089.231, 4092.821, 4152.821, 16098, 0, []
1629648820.6909, 71, 0, 4157.949, 4174.359, 4084.615, 4085.641, 4153.846, 450, 0, []
1629648820.6987, 72, 0, 4154.872, 4184.103, 4083.077, 4090.256, 4151.795, 450, 0, []
1629648820.7067, 73, 0, 4150.256, 4175.897, 4077.436, 4100, 4142.564, 16156, 0, []
1629648820.7146, 74, 0, 4148.205, 4162.564, 4068.718, 4117.436, 4142.051, 450, 0, []
1629648820.7224, 75, 0, 4159.487, 4164.615, 4090.256, 4133.333, 4153.333, 16202, 0, []
1629648820.7304, 76, 0, 4170.769, 4183.077, 4095.897, 4127.692, 4156.41, 450, 0, []
1629648820.7383, 77, 0, 4169.744, 4198.974, 4087.179, 4110.256, 4151.795, 450, 0, []
1629648820.7461, 78, 0, 4175.897, 4201.026, 4084.615, 4097.436, 4153.333, 450, 0, []
1629648820.754, 79, 0, 4189.231, 4194.872, 4071.795, 4093.333, 4159.487, 16202, 0, []
1629648820.7617, 80, 0, 4180, 4187.692, 4068.205, 4084.103, 4160, 450, 0, []
1629648820.7696, 81, 0, 4157.436, 4173.333, 4064.615, 4067.179, 4148.718, 450, 0, []
1629648820.7774, 82, 0, 4156.923, 4164.615, 4081.026, 4075.385, 4141.538, 450, 0, []
1629648820.7853, 83, 0, 4174.359, 4178.462, 4112.821, 4110.769, 4151.795, 16202, 0, []
1629648820.7931, 84, 0, 4186.667, 4190.256, 4111.795, 4131.795, 4167.179, 450, 0, []
1629648820.801, 85, 0, 4187.179, 4177.949, 4104.103, 4131.282, 4166.154, 450, 0, []
1629648820.8087, 86, 0, 4179.487, 4173.846, 4088.718, 4128.205, 4158.462, 450, 0, []
1629648820.8167, 87, 0, 4172.308, 4190.769, 4072.308, 4122.051, 4162.051, 16202, 0, []
1629648820.8246, 88, 0, 4166.667, 4187.179, 4080, 4111.282, 4160.513, 450, 0, []
1629648820.8326, 89, 0, 4159.487, 4167.692, 4083.077, 4102.051, 4143.59, 450, 0, []
1629648820.8405, 90, 0, 4152.308, 4165.641, 4091.795, 4100.513, 4130.256, 450, 0, []
1629648820.8484, 91, 0, 4151.795, 4162.051, 4091.282, 4108.205, 4129.231, 16202, 0, []
1629648820.8563, 92, 0, 4153.846, 4146.154, 4080.513, 4108.205, 4124.103, 450, 0, []
1629648820.8643, 93, 0, 4150.769, 4155.385, 4090.769, 4101.538, 4125.641, 450, 0, []
1629648820.8722, 94, 0, 4156.923, 4180.513, 4095.897, 4102.564, 4143.077, 450, 0, []
1629648820.8801, 95, 0, 4172.308, 4178.974, 4102.051, 4105.641, 4153.333, 16202, 0, []
1629648820.8879, 96, 0, 4178.974, 4174.872, 4098.462, 4097.949, 4154.359, 450, 0, []
1629648820.8959, 97, 0, 4171.795, 4181.538, 4072.821, 4085.641, 4151.795, 450, 0, []
1629648820.9038, 98, 0, 4153.846, 4168.718, 4061.026, 4078.974, 4140.513, 450, 0, []
1629648820.9116, 99, 0, 4139.487, 4151.795, 4067.179, 4079.487, 4131.282, 16202, 0, []
1629648820.9195, 100, 0, 4145.128, 4164.615, 4107.179, 4100, 4143.59, 450, 0, []
1629648820.9272, 101, 0, 4168.718, 4185.641, 4135.385, 4133.333, 4164.615, 450, 0, []
1629648820.9351, 102, 0, 4176.923, 4183.59, 4121.026, 4149.231, 4165.128, 450, 0, []
1629648820.9429, 103, 0, 4166.154, 4174.359, 4107.692, 4139.487, 4150.256, 16202, 0, []
1629648820.9508, 104, 0, 4165.128, 4168.205, 4091.282, 4124.615, 4144.103, 450, 0, []
1629648820.9586, 105, 0, 4171.795, 4168.718, 4088.205, 4116.923, 4149.744, 450, 0, []
1629648820.9665, 106, 0, 4172.308, 4178.462, 4102.051, 4111.795, 4153.846, 450, 0, []
1629648820.9744, 107, 0, 4178.462, 4191.795, 4110.256, 4121.026, 4161.026, 16202, 0, []
1629648820.9824, 108, 0, 4195.385, 4194.872, 4123.59, 4144.103, 4177.949, 450, 0, []
1629648820.9903, 109, 0, 4210.769, 4186.667, 4122.564, 4161.026, 4192.821, 450, 0, []
1629648820.9983, 110, 0, 4200.513, 4172.308, 4118.462, 4158.462, 4191.795, 450, 0, []
1629648821.0061, 111, 0, 4173.333, 4143.59, 4107.692, 4144.103, 4167.692, 16202, 0, []
1629648821.0141, 112, 0, 4162.051, 4135.897, 4086.667, 4134.359, 4144.103, 450, 0, []
1629648821.022, 113, 0, 4164.103, 4163.077, 4093.846, 4130.769, 4137.436, 450, 0, []
1629648821.03, 114, 0, 4151.795, 4168.205, 4087.692, 4120.513, 4131.282, 450, 0, []
1629648821.0379, 115, 0, 4140.513, 4151.795, 4076.923, 4116.923, 4125.128, 16202, 0, []
1629648821.0457, 116, 0, 4151.795, 4164.615, 4094.872, 4130.256, 4136.923, 450, 0, []
1629648821.0535, 117, 0, 4171.795, 4190.769, 4101.026, 4142.564, 4159.487, 450, 0, []
1629648821.0613, 118, 0, 4191.795, 4189.231, 4107.692, 4152.308, 4177.436, 450, 0, []
1629648821.0692, 119, 0, 4204.103, 4177.949, 4111.282, 4157.949, 4185.641, 16202, 0, []
1629648821.077, 120, 0, 4196.41, 4182.564, 4109.231, 4151.282, 4178.974, 450, 0, []
1629648821.0849, 121, 0, 4180, 4196.41, 4110.256, 4135.897, 4163.59, 450, 0, []
1629648821.0926, 122, 0, 4170.769, 4193.333, 4093.846, 4124.615, 4154.359, 450, 0, []
1629648821.1005, 123, 0, 4166.667, 4182.051, 4090.256, 4120.513, 4151.795, 16202, 0, []
1629648821.1083, 124, 0, 4173.846, 4196.41, 4096.923, 4118.974, 4151.795, 450, 0, []
1629648821.1163, 125, 0, 4191.795, 4210.256, 4097.436, 4117.436, 4160.513, 450, 0, []
1629648821.1242, 126, 0, 4198.974, 4203.59, 4096.41, 4123.077, 4168.718, 450, 0, []
1629648821.1321, 127, 0, 4189.231, 4188.205, 4075.897, 4134.359, 4164.103, 16202, 0, []
1629648821.14, 128, 0, 4174.872, 4166.154, 4065.128, 4132.308, 4152.821, 450, 0, []
1629648821.148, 0, 0, 4164.615, 4153.333, 4063.077, 4121.026, 4147.692, 450, 0, []
1629648821.1559, 1, 0, 4168.205, 4166.154, 4063.077, 4119.487, 4150.256, 450, 0, []
1629648821.1639, 2, 0, 4193.333, 4181.026, 4076.923, 4132.821, 4170.769, 16192, 0, []
1629648821.1717, 3, 0, 4219.487, 4193.846, 4077.436, 4144.103, 4197.949, 450, 0, []
1629648821.1797, 4, 0, 4219.487, 4212.308, 4084.103, 4142.051, 4194.359, 16170, 0, []
1629648821.1876, 5, 0, 4210.256, 4222.564, 4088.205, 4135.897, 4180, 450, 0, []
1629648821.1956, 6, 0, 4211.282, 4217.949, 4075.897, 4138.974, 4185.128, 16101, 0, []
1629648821.2035, 7, 0, 4206.154, 4209.744, 4084.103, 4144.615, 4185.128, 450, 0, []
1629648821.2112, 8, 0, 4191.795, 4205.128, 4087.692, 4141.026, 4172.308, 450, 0, []
1629648821.2191, 9, 0, 4184.615, 4196.923, 4089.744, 4140.513, 4166.154, 16156, 0, []
1629648821.2269, 10, 0, 4183.077, 4185.641, 4093.846, 4141.026, 4160.513, 450, 0, []
1629648821.2348, 11, 0, 4187.692, 4191.282, 4079.487, 4136.923, 4160, 16202, 0, []
1629648821.2426, 12, 0, 4195.897, 4197.436, 4076.923, 4135.385, 4176.923, 450, 0, []
1629648821.2505, 13, 0, 4198.462, 4191.795, 4072.308, 4134.872, 4185.641, 450, 0, []
1629648821.2582, 14, 0, 4198.462, 4188.205, 4067.179, 4129.744, 4173.846, 450, 0, []
1629648821.2661, 15, 0, 4196.923, 4190.769, 4072.821, 4122.564, 4165.128, 16202, 0, []
1629648821.2739, 16, 0, 4192.308, 4186.667, 4075.385, 4117.436, 4167.692, 0, 0, []
1629648821.2819, 17, 0, 4189.231, 4185.128, 4095.385, 4126.667, 4168.205, 0, 0, []
1629648821.2898, 18, 0, 4181.026, 4187.179, 4098.462, 4133.333, 4163.59, 0, 0, []
1629648821.2977, 19, 0, 4166.667, 4181.538, 4081.538, 4117.949, 4150.256, 0, 0, []
1629648821.3056, 20, 0, 4164.615, 4186.667, 4070.256, 4106.154, 4137.436, 0, 0, []
1629648821.3136, 21, 0, 4171.282, 4190.256, 4058.974, 4111.795, 4144.103, 0, 0, []
1629648821.3215, 22, 0, 4172.308, 4184.103, 4062.564, 4115.385, 4151.282, 0, 0, []
1629648821.3295, 23, 0, 4180.513, 4185.128, 4057.949, 4114.872, 4149.231, 0, 0, []
1629648821.3373, 24, 0, 4192.308, 4182.564, 4054.359, 4119.487, 4157.436, 0, 0, []
1629648821.3453, 25, 0, 4190.256, 4176.923, 4075.897, 4130.769, 4173.846, 0, 0, []
1629648821.3532, 26, 0, 4183.59, 4182.051, 4085.641, 4136.41, 4169.231, 0, 0, []
1629648821.361, 27, 0, 4180.513, 4189.231, 4088.718, 4127.692, 4153.333, 0, 0, []
1629648821.3689, 28, 0, 4183.077, 4188.205, 4078.462, 4120.513, 4158.462, 0, 0, []
1629648821.3766, 29, 0, 4186.667, 4188.718, 4065.641, 4126.154, 4166.667, 0, 0, []
1629648821.3845, 30, 0, 4183.59, 4189.231, 4076.41, 4123.59, 4156.41, 0, 0, []
1629648821.3923, 31, 0, 4178.462, 4191.282, 4083.59, 4117.949, 4148.205, 0, 0, []
1629648821.4002, 32, 0, 4180.513, 4200, 4096.41, 4125.128, 4160, 0, 0, []
1629648821.408, 33, 0, 4189.744, 4208.718, 4098.462, 4130.256, 4174.359, 0, 0, []
1629648821.4158, 34, 0, 4188.205, 4205.641, 4080, 4123.077, 4168.205, 0, 0, []
1629648821.4236, 35, 0, 4179.487, 4196.923, 4078.974, 4119.487, 4154.872, 0, 0, []
1629648821.4316, 36, 0, 4188.205, 4203.59, 4078.974, 4131.795, 4160, 0, 0, []
1629648821.4395, 37, 0, 4198.462, 4208.718, 4082.564, 4138.974, 4174.359, 0, 0, []
1629648821.4475, 38, 0, 4191.282, 4194.872, 4079.487, 4124.615, 4170.769, 0, 0, []
1629648821.4553, 39, 0, 4190.769, 4188.718, 4067.179, 4117.949, 4165.641, 0, 0, []
1629648821.4633, 40, 0, 4201.026, 4209.744, 4076.41, 4126.154, 4172.308, 0, 0, []
1629648821.4712, 41, 0, 4202.051, 4225.641, 4083.59, 4126.154, 4173.333, 0, 0, []
1629648821.4792, 42, 0, 4193.333, 4212.308, 4087.179, 4123.59, 4168.205, 0, 0, []
1629648821.4871, 43, 0, 4190.769, 4200, 4084.103, 4125.641, 4168.718, 0, 0, []
1629648821.4951, 44, 0, 4190.769, 4206.667, 4076.41, 4124.615, 4170.769, 0, 0, []
1629648821.5029, 45, 0, 4188.205, 4207.179, 4092.821, 4130.256, 4164.103, 0, 0, []
1629648821.5107, 46, 0, 4181.538, 4197.436, 4090.256, 4133.333, 4151.282, 0, 0, []
1629648821.5186, 47, 0, 4178.974, 4206.667, 4081.538, 4124.615, 4148.205, 0, 0, []
1629648821.5264, 48, 0, 4185.641, 4218.974, 4086.667, 4121.026, 4153.333, 0, 0, []
1629648821.5343, 49, 0, 4183.59, 4208.718, 4075.385, 4120, 4151.282, 0, 0, []
