Timestamp, COUNTER, INTERPOLATED, AF3, T7, Pz, T8, AF4, RAW_CQ, MARKER_HARDWARE, MARKERS
1629358063.484, 107, 0, 4178.974, 4452.308, 4108.205, 4143.077, 4167.179, 16192, 0, []
1629358063.4919, 108, 0, 4201.538, 4520, 4135.897, 4151.282, 4197.949, 450, 0, []
1629358063.4999, 109, 0, 4218.974, 4450.256, 4166.667, 4171.282, 4221.538, 450, 0, []
1629358063.5078, 110, 0, 4205.128, 4422.051, 4148.718, 4160.513, 4202.564, 450, 0, []
1629358063.5157, 111, 0, 4195.897, 4456.923, 4136.41, 4145.641, 4187.179, 16192, 0, []
1629358063.5237, 112, 0, 4202.564, 4457.949, 4147.692, 4141.538, 4197.436, 450, 0, []
1629358063.5316, 113, 0, 4194.359, 4526.667, 4142.564, 4122.564, 4194.872, 450, 0, []
1629358063.5396, 114, 0, 4181.538, 4660, 4110.769, 4098.462, 4178.462, 450, 0, []
1629358063.5475, 115, 0, 4181.538, 4731.282, 4090.769, 4095.897, 4175.385, 16192, 0, []
1629358063.5554, 116, 0, 4193.846, 4740.513, 4108.205, 4121.026, 4193.333, 450, 0, []
1629358063.5633, 117, 0, 4213.846, 4638.462, 4128.205, 4149.231, 4217.436, 450, 0, []
1629358063.5713, 118, 0, 4214.359, 4492.308, 4121.538, 4144.615, 4225.641, 450, 0, []
1629358063.5792, 119, 0, 4201.538, 4510.256, 4108.205, 4124.615, 4215.897, 16192, 0, []
1629358063.5872, 120, 0, 4206.667, 4553.333, 4117.949, 4131.282, 4215.385, 450, 0, []
1629358063.595, 121, 0, 4210.256, 4507.179, 4125.128, 4138.974, 4220, 450, 0, []
1629358063.603, 122, 0, 4199.487, 4529.231, 4110.769, 4132.308, 4217.436, 450, 0, []
1629358063.6109, 123, 0, 4195.897, 4606.667, 4110.769, 4140.513, 4216.41, 16192, 0, []
1629358063.6189, 124, 0, 4194.359, 4695.385, 4112.821, 4149.231, 4216.923, 450, 0, []
1629358063.6268, 125, 0, 4185.128, 4731.795, 4103.59, 4135.897, 4210.256, 450, 0, []
1629358063.6347, 126, 0, 4183.59, 4597.949, 4101.538, 4123.077, 4203.59, 450, 0, []
1629358063.6426, 127, 0, 4185.641, 4510.769, 4101.538, 4114.359, 4203.59, 16192, 0, []
1629358063.6506, 128, 0, 4181.026, 4588.205, 4101.026, 4102.564, 4195.385, 450, 0, []
1629358063.6586, 0, 0, 4182.564, 4498.974, 4105.128, 4105.641, 4192.821, 450, 0, []
1629358063.6665, 1, 0, 4195.385, 4359.487, 4116.41, 4132.308, 4213.333, 450, 0, []
1629358063.6744, 2, 0, 4209.744, 4496.41, 4126.154, 4153.846, 4231.795, 16182, 0, []
1629358063.6823, 3, 0, 4200, 4596.41, 4106.154, 4135.897, 4212.821, 450, 0, []
1629358063.6903, 4, 0, 4185.128, 4555.897, 4095.897, 4118.462, 4190.769, 16172, 0, []
1629358063.6982, 5, 0, 4206.667, 4643.59, 4124.615, 4141.026, 4217.436, 450, 0, []
1629358063.7062, 6, 0, 4238.462, 4648.205, 4148.718, 4163.59, 4246.154, 16158, 0, []
1629358063.714, 7, 0, 4224.615, 4439.487, 4134.359, 4148.718, 4229.744, 450, 0, []
1629358063.722, 8, 0, 4194.872, 4296.923, 4102.051, 4126.667, 4204.103, 450, 0, []
1629358063.7299, 9, 0, 4202.051, 4330.256, 4105.641, 4138.974, 4213.333, 16167, 0, []
1629358063.7379, 10, 0, 4225.128, 4441.026, 4126.154, 4162.051, 4234.359, 450, 0, []
1629358063.7458, 11, 0, 4225.128, 4527.179, 4122.564, 4160, 4231.795, 16192, 0, []
1629358063.7537, 12, 0, 4211.282, 4553.333, 4112.308, 4144.615, 4215.385, 450, 0, []
1629358063.7616, 13, 0, 4202.564, 4583.077, 4100, 4135.385, 4201.538, 450, 0, []
1629358063.7696, 14, 0, 4195.897, 4614.872, 4094.359, 4128.205, 4193.846, 450, 0, []
1629358063.7775, 15, 0, 4191.795, 4536.41, 4097.436, 4118.974, 4190.769, 16192, 0, []
1629358063.7855, 16, 0, 4195.385, 4431.795, 4094.359, 4123.59, 4198.974, 0, 0, []
1629358063.7933, 17, 0, 4205.641, 4436.923, 4093.333, 4137.436, 4215.385, 0, 0, []
1629358063.8011, 18, 0, 4213.846, 4550.256, 4103.59, 4145.128, 4223.59, 0, 0, []
1629358063.809, 19, 0, 4216.923, 4661.026, 4127.179, 4154.872, 4224.615, 0, 0, []
1629358063.8168, 20, 0, 4221.538, 4665.641, 4141.026, 4165.641, 4225.641, 0, 0, []
1629358063.8248, 21, 0, 4214.359, 4696.41, 4123.077, 4154.872, 4217.436, 0, 0, []
1629358063.8327, 22, 0, 4203.59, 4825.128, 4108.205, 4133.333, 4207.179, 0, 0, []
1629358063.8406, 23, 0, 4205.641, 4880.513, 4110.256, 4134.872, 4208.205, 0, 0, []
1629358063.8485, 24, 0, 4216.41, 4897.436, 4120, 4153.846, 4213.846, 0, 0, []
1629358063.8565, 25, 0, 4221.026, 5027.179, 4127.692, 4158.974, 4215.897, 0, 0, []
1629358063.8644, 26, 0, 4211.282, 5063.077, 4112.821, 4150.256, 4209.231, 0, 0, []
1629358063.8724, 27, 0, 4203.59, 4924.615, 4104.615, 4151.282, 4204.103, 0, 0, []
1629358063.8802, 28, 0, 4210.256, 4899.487, 4117.949, 4154.872, 4212.308, 0, 0, []
1629358063.8882, 29, 0, 4209.744, 4977.436, 4124.103, 4149.231, 4208.718, 0, 0, []
1629358063.8961, 30, 0, 4198.462, 4934.359, 4113.846, 4149.744, 4194.359, 0, 0, []
1629358063.9041, 31, 0, 4197.949, 4824.615, 4104.103, 4150.769, 4193.846, 0, 0, []
1629358063.912, 32, 0, 4198.462, 4816.923, 4108.718, 4143.077, 4196.923, 0, 0, []
1629358063.9199, 33, 0, 4190.256, 4806.154, 4105.641, 4130.769, 4188.205, 0, 0, []
1629358063.9278, 34, 0, 4197.436, 4714.359, 4104.615, 4127.692, 4192.821, 0, 0, []
1629358063.9358, 35, 0, 4208.718, 4637.949, 4114.872, 4137.949, 4200, 0, 0, []
1629358063.9437, 36, 0, 4194.872, 4569.744, 4096.41, 4133.333, 4178.974, 0, 0, []
1629358063.9515, 37, 0, 4192.821, 4518.462, 4088.205, 4127.692, 4178.462, 0, 0, []
1629358063.9593, 38, 0, 4216.41, 4483.59, 4109.744, 4144.103, 4208.718, 0, 0, []
1629358063.9671, 39, 0, 4218.462, 4370.256, 4109.231, 4155.897, 4208.718, 0, 0, []
1629358063.975, 40, 0, 4200, 4260.513, 4091.795, 4144.615, 4187.179, 0, 0, []
1629358063.9828, 41, 0, 4195.385, 4361.538, 4086.154, 4129.744, 4184.615, 0, 0, []
1629358063.9908, 42, 0, 4204.615, 4530.769, 4093.846, 4128.205, 4192.821, 0, 0, []
1629358063.9986, 43, 0, 4211.795, 4528.205, 4096.923, 4133.333, 4198.462, 0, 0, []
1629358064.0066, 44, 0, 4218.462, 4407.692, 4094.872, 4140, 4209.231, 0, 0, []
1629358064.0145, 45, 0, 4221.538, 4367.179, 4099.487, 4143.077, 4212.308, 0, 0, []
1629358064.0225, 46, 0, 4218.462, 4470.769, 4100.513, 4137.949, 4201.538, 0, 0, []
1629358064.0304, 47, 0, 4209.744, 4594.359, 4094.872, 4129.744, 4192.821, 0, 0, []
1629358064.0383, 48, 0, 4209.231, 4592.821, 4092.308, 4130.769, 4195.897, 0, 0, []
1629358064.0462, 49, 0, 4218.462, 4563.59, 4093.333, 4138.462, 4200.513, 0, 0, []
1629358064.0542, 50, 0, 4217.949, 4652.821, 4097.436, 4140, 4195.385, 0, 0, []
1629358064.0622, 51, 0, 4213.333, 4793.333, 4095.897, 4142.564, 4191.795, 0, 0, []
1629358064.0701, 52, 0, 4214.872, 4759.487, 4097.949, 4149.744, 4196.41, 0, 0, []
1629358064.0779, 53, 0, 4206.154, 4538.462, 4101.538, 4143.077, 4191.282, 0, 0, []
1629358064.0858, 54, 0, 4193.333, 4473.333, 4097.436, 4129.231, 4175.385, 0, 0, []
1629358064.0937, 55, 0, 4200, 4628.205, 4100, 4134.359, 4175.385, 0, 0, []
1629358064.1015, 56, 0, 4212.308, 4810.769, 4100, 4143.59, 4182.564, 0, 0, []
1629358064.1094, 57, 0, 4214.872, 4975.385, 4104.615, 4141.538, 4184.615, 0, 0, []
1629358064.1171, 58, 0, 4219.487, 4864.615, 4117.436, 4140, 4190.256, 0, 0, []
1629358064.1251, 59, 0, 4216.41, 4444.103, 4115.897, 4139.487, 4189.231, 0, 0, []
1629358064.133, 60, 0, 4202.051, 4265.641, 4114.872, 4136.41, 4178.462, 0, 0, []
1629358064.141, 61, 0, 4204.615, 4352.821, 4115.385, 4135.897, 4176.923, 0, 0, []
1629358064.1489, 62, 0, 4212.308, 4213.333, 4107.692, 4134.359, 4181.026, 0, 0, []
1629358064.1568, 63, 0, 4203.077, 4090.769, 4102.051, 4129.744, 4174.359, 0, 0, []
1629358064.1647, 64, 0, 4206.154, 4275.897, 4101.026, 4131.795, 4174.359, 450, 0, []
1629358064.1727, 65, 0, 4214.872, 4411.282, 4107.179, 4141.026, 4183.59, 450, 0, []
1629358064.1806, 66, 0, 4205.128, 4293.846, 4107.179, 4140, 4181.538, 16182, 0, []
1629358064.1886, 67, 0, 4203.077, 4069.231, 4105.641, 4137.949, 4178.462, 450, 0, []
1629358064.1964, 68, 0, 4218.974, 3983.59, 4116.923, 4141.026, 4181.026, 16157, 0, []
1629358064.2044, 69, 0, 4218.974, 4179.487, 4113.333, 4132.821, 4173.846, 450, 0, []
1629358064.2123, 70, 0, 4203.59, 4325.128, 4096.923, 4117.436, 4161.538, 16158, 0, []
1629358064.2203, 71, 0, 4203.59, 4207.179, 4103.59, 4120.513, 4165.128, 450, 0, []
1629358064.2282, 72, 0, 4222.051, 4171.795, 4131.282, 4141.538, 4184.615, 450, 0, []
1629358064.2359, 73, 0, 4242.051, 4231.795, 4150.769, 4165.641, 4207.179, 16167, 0, []
1629358064.2438, 74, 0, 4237.436, 4146.667, 4132.308, 4164.615, 4202.051, 450, 0, []
1629358064.2516, 75, 0, 4210.256, 4074.359, 4104.103, 4140.513, 4171.795, 16192, 0, []
1629358064.2595, 76, 0, 4204.615, 4190.256, 4104.615, 4141.538, 4164.103, 450, 0, []
1629358064.2673, 77, 0, 4213.333, 4334.359, 4108.718, 4150.769, 4173.333, 450, 0, []
1629358064.2751, 78, 0, 4215.385, 4342.564, 4101.026, 4135.897, 4172.308, 450, 0, []
1629358064.2829, 79, 0, 4208.718, 4269.231, 4094.359, 4126.667, 4166.154, 16192, 0, []
1629358064.2909, 80, 0, 4203.59, 4205.641, 4103.077, 4135.897, 4166.667, 450, 0, []
1629358064.2988, 81, 0, 4208.205, 4169.744, 4106.667, 4142.564, 4171.795, 450, 0, []
1629358064.3068, 82, 0, 4218.462, 4107.179, 4100, 4142.051, 4180.513, 450, 0, []
1629358064.3146, 83, 0, 4221.538, 4068.205, 4108.718, 4144.615, 4188.718, 16192, 0, []
1629358064.3226, 84, 0, 4213.846, 4123.59, 4107.692, 4141.538, 4183.077, 450, 0, []
1629358064.3305, 85, 0, 4222.564, 4215.385, 4104.103, 4140.513, 4183.077, 450, 0, []
1629358064.3385, 86, 0, 4240.513, 4291.795, 4112.821, 4146.154, 4194.359, 450, 0, []
1629358064.3464, 87, 0, 4232.821, 4333.846, 4108.205, 4146.154, 4193.333, 16192, 0, []
1629358064.3543, 88, 0, 4214.872, 4334.872, 4093.846, 4140.513, 4182.564, 450, 0, []
1629358064.3622, 89, 0, 4222.051, 4299.487, 4089.231, 4132.821, 4180, 450, 0, []
1629358064.3702, 90, 0, 4236.923, 4284.103, 4102.051, 4136.41, 4188.718, 450, 0, []
1629358064.3781, 91, 0, 4218.462, 4323.077, 4100, 4134.359, 4186.154, 16192, 0, []
1629358064.3859, 92, 0, 4207.692, 4268.718, 4090.256, 4131.795, 4184.103, 450, 0, []
1629358064.3937, 93, 0, 4237.949, 4069.744, 4122.051, 4163.077, 4212.821, 450, 0, []
1629358064.4015, 94, 0, 4261.538, 3938.462, 4152.308, 4190.256, 4236.923, 450, 0, []
1629358064.4094, 95, 0, 4247.692, 3955.385, 4135.897, 4174.872, 4222.564, 16192, 0, []
1629358064.4172, 96, 0, 4234.359, 3943.077, 4120, 4155.385, 4206.667, 450, 0, []
1629358064.4251, 97, 0, 4234.872, 3880.513, 4116.923, 4152.308, 4207.179, 450, 0, []
1629358064.4328, 98, 0, 4226.667, 3893.333, 4110.256, 4144.103, 4199.487, 450, 0, []
1629358064.4408, 99, 0, 4220, 3947.179, 4108.205, 4138.974, 4195.897, 16192, 0, []
1629358064.4487, 100, 0, 4214.872, 3970.769, 4104.103, 4136.41, 4197.436, 450, 0, []
1629358064.4567, 101, 0, 4201.538, 3999.487, 4092.821, 4122.564, 4183.077, 450, 0, []
1629358064.4646, 102, 0, 4199.487, 3988.718, 4091.282, 4120, 4177.436, 450, 0, []
1629358064.4725, 103, 0, 4218.462, 3945.641, 4112.821, 4140, 4196.41, 16192, 0, []
1629358064.4804, 104, 0, 4229.744, 3992.308, 4114.359, 4146.667, 4206.154, 450, 0, []
1629358064.4884, 105, 0, 4218.462, 4069.231, 4093.846, 4133.846, 4198.462, 450, 0, []
1629358064.4963, 106, 0, 4221.538, 4027.692, 4105.128, 4135.385, 4200, 450, 0, []
1629358064.5043, 107, 0, 4230.769, 3958.974, 4119.487, 4146.667, 4203.59, 16192, 0, []
1629358064.5121, 108, 0, 4223.077, 4007.179, 4111.282, 4147.179, 4196.41, 450, 0, []
1629358064.5201, 109, 0, 4216.41, 4054.872, 4098.462, 4143.59, 4190.256, 450, 0, []
1629358064.528, 110, 0, 4205.641, 3990.256, 4085.128, 4129.744, 4178.462, 450, 0, []
1629358064.536, 111, 0, 4205.641, 3938.974, 4094.359, 4126.667, 4178.974, 16192, 0, []
1629358064.5439, 112, 0, 4237.949, 3956.923, 4123.59, 4151.795, 4215.897, 450, 0, []
1629358064.5516, 113, 0, 4264.615, 3975.385, 4141.026, 4167.692, 4242.051, 450, 0, []
1629358064.5595, 114, 0, 4250.769, 4017.949, 4126.154, 4149.744, 4226.667, 450, 0, []
1629358064.5673, 115, 0, 4234.872, 4143.077, 4104.103, 4126.154, 4206.154, 16192, 0, []
1629358064.5752, 116, 0, 4233.846, 4225.641, 4107.179, 4125.641, 4207.692, 450, 0, []
1629358064.583, 117, 0, 4221.026, 4113.846, 4100.513, 4128.205, 4202.051, 450, 0, []
1629358064.5909, 118, 0, 4208.205, 4002.051, 4083.077, 4121.026, 4186.154, 450, 0, []
1629358064.5988, 119, 0, 4218.462, 4074.359, 4088.718, 4124.615, 4194.359, 16192, 0, []
1629358064.6067, 120, 0, 4232.308, 4126.667, 4099.487, 4135.897, 4209.744, 450, 0, []
1629358064.6145, 121, 0, 4228.718, 4075.385, 4100.513, 4138.462, 4211.795, 450, 0, []
1629358064.6224, 122, 0, 4215.385, 4101.026, 4094.872, 4128.205, 4196.923, 450, 0, []
1629358064.6301, 123, 0, 4211.795, 4189.744, 4101.026, 4127.692, 4185.128, 16192, 0, []
1629358064.6381, 124, 0, 4221.026, 4204.103, 4109.744, 4138.462, 4193.333, 450, 0, []
1629358064.646, 125, 0, 4228.718, 4164.103, 4106.667, 4144.615, 4205.128, 450, 0, []
1629358064.654, 126, 0, 4224.615, 4107.692, 4106.667, 4145.128, 4200, 450, 0, []
1629358064.6619, 127, 0, 4222.564, 4086.667, 4103.077, 4137.949, 4189.744, 16192, 0, []
1629358064.6699, 128, 0, 4235.385, 4096.41, 4107.692, 4132.308, 4201.026, 450, 0, []
1629358064.6777, 0, 0, 4245.641, 4093.333, 4116.923, 4129.744, 4211.795, 450, 0, []
1629358064.6857, 1, 0, 4226.667, 4131.795, 4098.974, 4117.436, 4192.308, 450, 0, []
1629358064.6936, 2, 0, 4211.282, 4137.436, 4089.744, 4115.897, 4181.538, 16182, 0, []
1629358064.7016, 3, 0, 4225.128, 3979.487, 4100, 4128.718, 4194.359, 450, 0, []
1629358064.7095, 4, 0, 4230.769, 3885.641, 4097.949, 4131.282, 4201.026, 16163, 0, []
1629358064.7172, 5, 0, 4220.513, 4016.923, 4096.923, 4130.256, 4199.487, 450, 0, []
1629358064.7251, 6, 0, 4217.436, 4120.513, 4099.487, 4127.692, 4198.462, 16158, 0, []
1629358064.7329, 7, 0, 4227.692, 4118.462, 4109.744, 4128.718, 4201.026, 450, 0, []
1629358064.7408, 8, 0, 4235.897, 4169.231, 4118.974, 4143.59, 4209.744, 450, 0, []
1629358064.7486, 9, 0, 4232.821, 4258.974, 4114.872, 4153.333, 4210.769, 16167, 0, []
1629358064.7564, 10, 0, 4225.128, 4284.615, 4111.795, 4141.026, 4197.949, 450, 0, []
1629358064.7642, 11, 0, 4225.128, 4223.59, 4111.282, 4129.231, 4193.846, 16193, 0, []
1629358064.7722, 12, 0, 4231.795, 4152.821, 4116.41, 4132.308, 4200, 450, 0, []
1629358064.7801, 13, 0, 4230.256, 4125.128, 4113.333, 4129.744, 4196.923, 450, 0, []
1629358064.7881, 14, 0, 4223.59, 4159.487, 4102.051, 4121.538, 4189.231, 450, 0, []
1629358064.7959, 15, 0, 4220.513, 4208.205, 4103.59, 4123.077, 4192.821, 16193, 0, []
1629358064.8039, 16, 0, 4218.974, 4197.436, 4105.128, 4129.231, 4198.974, 0, 0, []
1629358064.8118, 17, 0, 4211.795, 4132.821, 4094.359, 4120.513, 4190.769, 0, 0, []
1629358064.8198, 18, 0, 4211.282, 4152.821, 4084.615, 4112.308, 4184.103, 0, 0, []
1629358064.8277, 19, 0, 4223.077, 4270.769, 4094.359, 4126.154, 4197.436, 0, 0, []
1629358064.8356, 20, 0, 4217.949, 4276.923, 4104.615, 4127.692, 4197.436, 0, 0, []
1629358064.8435, 21, 0, 4206.667, 4208.718, 4101.026, 4114.872, 4188.718, 0, 0, []
1629358064.8515, 22, 0, 4222.051, 4223.59, 4109.231, 4123.077, 4198.974, 0, 0, []
1629358064.8594, 23, 0, 4230.769, 4229.231, 4114.872, 4125.641, 4195.385, 0, 0, []
1629358064.8672, 24, 0, 4214.359, 4177.949, 4111.795, 4113.846, 4183.077, 0, 0, []
1629358064.875, 25, 0, 4212.821, 4259.487, 4126.667, 4122.051, 4195.897, 0, 0, []
1629358064.8828, 26, 0, 4228.718, 4421.538, 4123.59, 4125.641, 4206.154, 0, 0, []
1629358064.8907, 27, 0, 4229.231, 4400, 4103.077, 4110.256, 4194.872, 0, 0, []
1629358064.8985, 28, 0, 4224.103, 4302.051, 4108.205, 4109.744, 4191.795, 0, 0, []
1629358064.9064, 29, 0, 4226.154, 4362.564, 4114.359, 4118.974, 4198.974, 0, 0, []
1629358064.9141, 30, 0, 4230.769, 4425.128, 4118.974, 4125.641, 4203.59, 0, 0, []
1629358064.9221, 31, 0, 4232.821, 4352.308, 4126.154, 4131.282, 4203.077, 0, 0, []
1629358064.93, 32, 0, 4233.846, 4307.179, 4120.513, 4128.718, 4202.564, 0, 0, []
1629358064.938, 33, 0, 4234.872, 4324.103, 4111.795, 4123.077, 4201.538, 0, 0, []
1629358064.9459, 34, 0, 4218.974, 4320.513, 4097.949, 4113.333, 4185.641, 0, 0, []
1629358064.9538, 35, 0, 4197.949, 4334.359, 4086.154, 4102.051, 4166.154, 0, 0, []
1629358064.9617, 36, 0, 4199.487, 4372.308, 4084.615, 4107.179, 4166.154, 0, 0, []
1629358064.9697, 37, 0, 4212.308, 4388.718, 4092.308, 4120.513, 4172.308, 0, 0, []
1629358064.9776, 38, 0, 4212.821, 4389.231, 4096.41, 4117.436, 4169.231, 0, 0, []
1629358064.9856, 39, 0, 4211.282, 4378.974, 4097.436, 4110.769, 4171.282, 0, 0, []
1629358064.9934, 40, 0, 4226.667, 4390.256, 4112.821, 4127.692, 4187.179, 0, 0, []
1629358065.0014, 41, 0, 4236.41, 4442.051, 4116.41, 4141.026, 4201.026, 0, 0, []
1629358065.0093, 42, 0, 4221.538, 4452.821, 4104.615, 4127.692, 4190.256, 0, 0, []
1629358065.0171, 43, 0, 4206.154, 4427.179, 4106.667, 4120.513, 4173.333, 0, 0, []
1629358065.025, 44, 0, 4201.538, 4365.641, 4096.923, 4116.923, 4166.154, 0, 0, []
1629358065.0327, 45, 0, 4200, 4284.615, 4084.103, 4106.667, 4165.128, 0, 0, []
1629358065.0406, 46, 0, 4211.282, 4273.333, 4093.846, 4111.795, 4174.359, 0, 0, []
1629358065.0484, 47, 0, 4216.41, 4227.179, 4097.949, 4118.462, 4174.359, 0, 0, []
1629358065.0563, 48, 0, 4205.641, 4106.667, 4091.795, 4113.846, 4169.231, 0, 0, []
1629358065.0641, 49, 0, 4204.103, 4139.487, 4089.744, 4113.333, 4171.795, 0, 0, []
1629358065.0719, 50, 0, 4197.949, 4240.513, 4091.795, 4106.154, 4163.077, 0, 0, []
1629358065.0797, 51, 0, 4171.795, 4154.872, 4084.615, 4088.205, 4136.41, 0, 0, []
1629358065.0877, 52, 0, 4164.103, 4063.077, 4079.487, 4087.692, 4128.205, 0, 0, []
1629358065.0956, 53, 0, 4183.59, 4064.103, 4090.256, 4101.538, 4145.128, 0, 0, []
1629358065.1036, 54, 0, 4194.872, 4044.615, 4095.897, 4103.59, 4154.359, 0, 0, []
1629358065.1114, 55, 0, 4199.487, 4039.487, 4106.154, 4103.59, 4165.128, 0, 0, []
1629358065.1194, 56, 0, 4204.615, 4032.821, 4116.41, 4104.615, 4169.231, 0, 0, []
1629358065.1273, 57, 0, 4202.051, 4004.103, 4117.436, 4105.641, 4155.897, 0, 0, []
1629358065.1353, 58, 0, 4199.487, 4032.308, 4124.103, 4110.769, 4150.769, 0, 0, []
1629358065.1432, 59, 0, 4203.59, 4110.256, 4121.026, 4113.846, 4160, 0, 0, []
1629358065.1511, 60, 0, 4203.59, 4093.333, 4113.333, 4113.846, 4158.462, 0, 0, []
1629358065.159, 61, 0, 4202.051, 4011.282, 4116.923, 4115.385, 4151.795, 0, 0, []
1629358065.1668, 62, 0, 4208.205, 4092.821, 4121.538, 4115.385, 4159.487, 0, 0, []
1629358065.1747, 63, 0, 4206.154, 4270.769, 4124.615, 4106.667, 4159.487, 0, 0, []
1629358065.1825, 64, 0, 4196.41, 4301.538, 4121.538, 4094.872, 4152.821, 450, 0, []
1629358065.1903, 65, 0, 4207.179, 4228.718, 4120.513, 4100.513, 4159.487, 450, 0, []
1629358065.1981, 66, 0, 4222.051, 4185.641, 4127.692, 4121.026, 4170.256, 16182, 0, []
1629358065.206, 67, 0, 4209.231, 4106.154, 4118.462, 4124.103, 4161.538, 450, 0, []
1629358065.2138, 68, 0, 4193.846, 4097.436, 4106.667, 4115.897, 4147.692, 16165, 0, []
1629358065.2217, 69, 0, 4210.769, 4185.128, 4118.462, 4125.128, 4157.436, 450, 0, []
1629358065.2294, 70, 0, 4230.256, 4129.231, 4134.872, 4133.846, 4178.462, 16158, 0, []
1629358065.2374, 71, 0, 4228.205, 4022.051, 4133.846, 4121.538, 4184.615, 450, 0, []
1629358065.2453, 72, 0, 4217.949, 4047.692, 4115.385, 4105.641, 4171.282, 450, 0, []
1629358065.2533, 73, 0, 4209.744, 4045.641, 4108.205, 4108.718, 4158.462, 16167, 0, []
1629358065.2612, 74, 0, 4204.103, 4002.051, 4104.103, 4120, 4162.564, 450, 0, []
1629358065.2691, 75, 0, 4196.923, 4131.795, 4093.333, 4121.538, 4162.564, 16193, 0, []
1629358065.277, 76, 0, 4199.487, 4249.744, 4102.564, 4123.077, 4160.513, 450, 0, []
1629358065.285, 77, 0, 4212.821, 4143.077, 4120.513, 4126.154, 4172.308, 450, 0, []
1629358065.2929, 78, 0, 4221.026, 4046.667, 4131.282, 4124.615, 4186.667, 450, 0, []
1629358065.3009, 79, 0, 4218.974, 4069.231, 4132.821, 4117.436, 4185.128, 16193, 0, []
1629358065.3087, 80, 0, 4214.359, 4098.462, 4129.231, 4110.256, 4174.872, 450, 0, []
1629358065.3165, 81, 0, 4215.385, 4141.026, 4127.692, 4110.256, 4170.256, 450, 0, []
1629358065.3244, 82, 0, 4211.282, 4121.026, 4115.897, 4110.769, 4166.154, 450, 0, []
1629358065.3322, 83, 0, 4206.667, 3998.462, 4109.744, 4109.744, 4164.615, 16193, 0, []
1629358065.3401, 84, 0, 4219.487, 4077.949, 4114.872, 4113.846, 4176.41, 450, 0, []
1629358065.3478, 85, 0, 4235.385, 4285.641, 4114.359, 4121.026, 4192.821, 450, 0, []
1629358065.3557, 86, 0, 4236.923, 4234.359, 4120.513, 4126.667, 4203.59, 450, 0, []
1629358065.3635, 87, 0, 4229.231, 4044.615, 4122.564, 4123.077, 4198.974, 16193, 0, []
1629358065.3714, 88, 0, 4224.615, 4061.026, 4115.385, 4120.513, 4191.282, 450, 0, []
1629358065.3792, 89, 0, 4218.462, 4198.974, 4105.641, 4122.051, 4184.103, 450, 0, []
1629358065.3871, 90, 0, 4203.077, 4145.128, 4096.41, 4111.795, 4169.744, 450, 0, []
1629358065.395, 91, 0, 4198.974, 4013.846, 4105.128, 4109.231, 4165.641, 16193, 0, []
1629358065.403, 92, 0, 4211.795, 4035.897, 4106.154, 4115.897, 4175.897, 450, 0, []
1629358065.4109, 93, 0, 4216.923, 4184.615, 4095.385, 4111.282, 4177.949, 450, 0, []
1629358065.4189, 94, 0, 4214.359, 4329.231, 4097.949, 4107.692, 4175.897, 450, 0, []
1629358065.4268, 95, 0, 4219.487, 4376.41, 4102.564, 4114.872, 4182.051, 16193, 0, []
1629358065.4347, 96, 0, 4225.641, 4378.974, 4106.154, 4122.051, 4189.744, 450, 0, []
1629358065.4426, 97, 0, 4224.103, 4397.436, 4110.256, 4121.538, 4187.692, 450, 0, []
1629358065.4506, 98, 0, 4219.487, 4437.436, 4114.359, 4118.462, 4184.103, 450, 0, []
1629358065.4585, 99, 0, 4214.359, 4505.128, 4114.872, 4112.308, 4182.564, 16193, 0, []
1629358065.4663, 100, 0, 4210.769, 4516.923, 4109.231, 4109.744, 4176.923, 450, 0, []
1629358065.4741, 101, 0, 4214.872, 4343.59, 4116.923, 4123.077, 4175.897, 450, 0, []
1629358065.4821, 102, 0, 4209.744, 4181.026, 4112.308, 4121.026, 4173.846, 450, 0, []
1629358065.49, 103, 0, 4196.41, 4248.718, 4092.308, 4101.538, 4162.564, 16193, 0, []
1629358065.4978, 104, 0, 4200, 4311.282, 4093.846, 4097.436, 4162.564, 450, 0, []
1629358065.5057, 105, 0, 4212.821, 4236.923, 4107.179, 4106.154, 4175.897, 450, 0, []
1629358065.5134, 106, 0, 4221.538, 4192.821, 4122.051, 4112.308, 4187.179, 450, 0, []
1629358065.5213, 107, 0, 4229.744, 4317.949, 4126.667, 4115.897, 4194.872, 16193, 0, []
1629358065.5291, 108, 0, 4234.872, 4506.667, 4127.692, 4121.026, 4202.051, 450, 0, []
1629358065.537, 109, 0, 4226.154, 4531.282, 4126.667, 4117.949, 4194.872, 450, 0, []
1629358065.5448, 110, 0, 4214.359, 4414.359, 4107.692, 4102.051, 4180.513, 450, 0, []
1629358065.5527, 111, 0, 4216.923, 4396.41, 4104.103, 4098.462, 4181.538, 16193, 0, []
1629358065.5606, 112, 0, 4218.462, 4506.667, 4117.436, 4109.231, 4185.641, 450, 0, []
1629358065.5686, 113, 0, 4217.436, 4525.641, 4121.538, 4117.436, 4186.667, 450, 0, []
1629358065.5765, 114, 0, 4218.974, 4387.179, 4117.436, 4120.513, 4188.718, 450, 0, []
1629358065.5845, 115, 0, 4218.462, 4315.385, 4111.282, 4119.487, 4183.59, 16193, 0, []
1629358065.5923, 116, 0, 4216.923, 4383.59, 4108.718, 4119.487, 4181.538, 450, 0, []
1629358065.6002, 117, 0, 4218.974, 4316.923, 4104.615, 4117.949, 4185.128, 450, 0, []
1629358065.6081, 118, 0, 4217.436, 4112.308, 4098.462, 4107.692, 4181.026, 450, 0, []
1629358065.616, 119, 0, 4215.385, 4089.744, 4104.615, 4098.974, 4178.462, 16193, 0, []
1629358065.624, 120, 0, 4220, 4255.897, 4105.641, 4101.026, 4183.59, 450, 0, []
1629358065.6317, 121, 0, 4222.564, 4386.667, 4100.513, 4103.077, 4180.513, 450, 0, []
1629358065.6396, 122, 0, 4227.692, 4337.436, 4103.077, 4110.256, 4181.538, 450, 0, []
1629358065.6474, 123, 0, 4231.282, 4184.615, 4097.949, 4118.462, 4188.205, 16193, 0, []
1629358065.6553, 124, 0, 4217.436, 4113.333, 4095.897, 4118.462, 4182.051, 450, 0, []
1629358065.6631, 125, 0, 4207.179, 4101.538, 4102.051, 4117.949, 4176.923, 450, 0, []
1629358065.6709, 126, 0, 4213.333, 4020.513, 4102.051, 4117.949, 4181.026, 450, 0, []
1629358065.6787, 127, 0, 4223.59, 3961.026, 4101.538, 4117.949, 4185.641, 16193, 0, []
1629358065.6866, 128, 0, 4219.487, 3986.154, 4100, 4113.333, 4180.513, 450, 0, []
1629358065.6944, 0, 0, 4202.051, 3989.744, 4091.282, 4100.513, 4166.154, 450, 0, []
1629358065.7024, 1, 0, 4204.615, 3980.513, 4095.385, 4104.615, 4167.692, 450, 0, []
1629358065.7102, 2, 0, 4230.256, 4018.974, 4124.103, 4134.872, 4187.179, 16182, 0, []
1629358065.7182, 3, 0, 4230.256, 4111.795, 4122.564, 4135.897, 4184.103, 450, 0, []
1629358065.7261, 4, 0, 4209.231, 4184.615, 4088.205, 4109.744, 4162.564, 16157, 0, []
1629358065.7341, 5, 0, 4211.795, 4152.821, 4097.436, 4115.897, 4167.179, 450, 0, []
1629358065.742, 6, 0, 4225.128, 4121.538, 4121.026, 4135.897, 4181.538, 16157, 0, []
1629358065.7499, 7, 0, 4226.154, 4108.205, 4115.897, 4138.974, 4183.077, 450, 0, []
1629358065.7578, 8, 0, 4228.718, 4019.487, 4114.359, 4143.077, 4187.179, 450, 0, []
1629358065.7658, 9, 0, 4231.795, 3962.051, 4115.385, 4140.513, 4190.256, 16167, 0, []
1629358065.7737, 10, 0, 4225.641, 4096.923, 4112.308, 4126.154, 4179.487, 450, 0, []
1629358065.7817, 11, 0, 4216.923, 4272.308, 4105.641, 4116.41, 4166.667, 16193, 0, []
1629358065.7895, 12, 0, 4214.359, 4268.205, 4103.077, 4111.282, 4165.128, 450, 0, []
1629358065.7973, 13, 0, 4218.974, 4116.923, 4113.846, 4116.41, 4171.282, 450, 0, []
1629358065.8052, 14, 0, 4220, 4066.667, 4115.385, 4130.256, 4168.718, 450, 0, []
1629358065.813, 15, 0, 4211.795, 4192.821, 4110.769, 4133.846, 4160, 16193, 0, []
1629358065.8209, 16, 0, 4200.513, 4222.051, 4103.59, 4123.077, 4155.385, 0, 0, []
1629358065.8286, 17, 0, 4195.897, 4183.077, 4090.769, 4108.718, 4152.821, 0, 0, []
1629358065.8365, 18, 0, 4204.103, 4278.462, 4091.795, 4111.282, 4157.949, 0, 0, []
1629358065.8443, 19, 0, 4213.333, 4369.231, 4101.026, 4124.615, 4166.667, 0, 0, []
1629358065.8522, 20, 0, 4218.974, 4343.077, 4116.41, 4135.385, 4172.308, 0, 0, []
1629358065.86, 21, 0, 4228.718, 4350.769, 4126.667, 4137.949, 4181.026, 0, 0, []
1629358065.8679, 22, 0, 4230.256, 4367.692, 4122.051, 4133.333, 4178.462, 0, 0, []
1629358065.8758, 23, 0, 4217.436, 4230.256, 4120.513, 4124.615, 4162.564, 0, 0, []
1629358065.8838, 24, 0, 4206.667, 4083.59, 4107.692, 4113.846, 4153.333, 0, 0, []
1629358065.8917, 25, 0, 4211.282, 4011.282, 4095.897, 4118.462, 4161.026, 0, 0, []
1629358065.8997, 26, 0, 4221.026, 3939.487, 4102.051, 4128.718, 4169.231, 0, 0, []
1629358065.9075, 27, 0, 4216.41, 3917.949, 4101.538, 4120.513, 4163.077, 0, 0, []
1629358065.9155, 28, 0, 4202.564, 3989.231, 4096.923, 4111.795, 4153.846, 0, 0, []
1629358065.9234, 29, 0, 4197.949, 4055.897, 4102.564, 4115.897, 4151.795, 0, 0, []
1629358065.9312, 30, 0, 4202.051, 4096.923, 4118.462, 4121.538, 4154.359, 0, 0, []
1629358065.9391, 31, 0, 4191.795, 4202.051, 4111.282, 4111.282, 4146.154, 0, 0, []
1629358065.9468, 32, 0, 4173.846, 4302.564, 4082.564, 4095.385, 4130.769, 0, 0, []
1629358065.9547, 33, 0, 4180.513, 4350.769, 4079.487, 4101.538, 4135.385, 0, 0, []
1629358065.9625, 34, 0, 4201.026, 4342.051, 4095.385, 4118.974, 4153.846, 0, 0, []
1629358065.9704, 35, 0, 4204.615, 4230.256, 4102.051, 4117.436, 4157.436, 0, 0, []
1629358065.9782, 36, 0, 4194.359, 4125.128, 4093.333, 4108.205, 4146.667, 0, 0, []
1629358065.986, 37, 0, 4192.308, 4132.308, 4087.692, 4114.872, 4144.615, 0, 0, []
1629358065.9938, 38, 0, 4188.205, 4163.077, 4088.718, 4105.128, 4136.41, 0, 0, []
1629358066.0017, 39, 0, 4180.513, 4144.103, 4081.538, 4083.077, 4125.641, 0, 0, []
1629358066.0095, 40, 0, 4197.436, 4071.282, 4099.487, 4106.667, 4150.769, 0, 0, []
1629358066.0175, 41, 0, 4225.128, 4032.308, 4136.41, 4146.667, 4189.231, 0, 0, []
1629358066.0253, 42, 0, 4224.103, 4092.308, 4138.974, 4138.462, 4188.205, 0, 0, []
1629358066.0333, 43, 0, 4200.513, 4121.538, 4125.641, 4121.026, 4162.564, 0, 0, []
1629358066.0412, 44, 0, 4205.128, 4082.051, 4118.462, 4132.308, 4162.564, 0, 0, []
1629358066.0492, 45, 0, 4238.974, 4089.744, 4111.282, 4136.923, 4187.179, 0, 0, []
1629358066.0571, 46, 0, 4268.205, 4031.282, 4113.846, 4133.333, 4218.462, 0, 0, []
1629358066.065, 47, 0, 4275.897, 3859.487, 4111.282, 4135.897, 4232.308, 0, 0, []
1629358066.0729, 48, 0, 4261.026, 3825.641, 4109.231, 4131.795, 4222.051, 0, 0, []
1629358066.0809, 49, 0, 4238.462, 3964.615, 4112.308, 4116.41, 4205.641, 0, 0, []
1629358066.0888, 50, 0, 4222.051, 4075.897, 4097.436, 4100, 4189.231, 0, 0, []
1629358066.0966, 51, 0, 4226.154, 4091.282, 4089.231, 4106.154, 4184.615, 0, 0, []
1629358066.1044, 52, 0, 4232.308, 4064.615, 4092.308, 4117.436, 4191.282, 0, 0, []
1629358066.1122, 53, 0, 4226.667, 4028.718, 4092.308, 4111.282, 4191.795, 0, 0, []
1629358066.1201, 54, 0, 4223.59, 3955.897, 4096.41, 4106.154, 4188.205, 0, 0, []
1629358066.1279, 55, 0, 4224.615, 3907.179, 4109.231, 4111.282, 4189.231, 0, 0, []
1629358066.1358, 56, 0, 4236.41, 3960, 4132.821, 4121.538, 4201.026, 0, 0, []
1629358066.1435, 57, 0, 4245.128, 3943.59, 4143.077, 4128.205, 4212.821, 0, 0, []
1629358066.1514, 58, 0, 4236.923, 3849.231, 4129.744, 4114.359, 4208.718, 0, 0, []
1629358066.1592, 59, 0, 4215.385, 3913.846, 4101.538, 4083.59, 4187.179, 0, 0, []
1629358066.1672, 60, 0, 4205.641, 4022.051, 4085.641, 4078.974, 4171.282, 0, 0, []
1629358066.1751, 61, 0, 4213.846, 4043.59, 4093.846, 4106.154, 4176.41, 0, 0, []
1629358066.1831, 62, 0, 4217.949, 4080.513, 4090.256, 4120, 4182.564, 0, 0, []
1629358066.1909, 63, 0, 4215.385, 4091.795, 4087.692, 4116.923, 4185.128, 0, 0, []
1629358066.1989, 64, 0, 4212.308, 4078.462, 4092.821, 4107.692, 4182.051, 450, 0, []
1629358066.2068, 65, 0, 4214.359, 4114.359, 4089.744, 4096.923, 4180, 450, 0, []
1629358066.2148, 66, 0, 4221.538, 4102.564, 4089.231, 4091.795, 4188.205, 16182, 0, []
1629358066.2227, 67, 0, 4214.872, 4120.513, 4081.026, 4081.538, 4184.103, 450, 0, []
1629358066.2306, 68, 0, 4210.769, 4234.359, 4080, 4090.769, 4177.436, 16165, 0, []
1629358066.2385, 69, 0, 4227.179, 4204.615, 4097.949, 4129.231, 4194.359, 450, 0, []
1629358066.2464, 70, 0, 4238.974, 4048.718, 4101.538, 4144.615, 4205.641, 16157, 0, []
1629358066.2543, 71, 0, 4228.718, 3992.821, 4088.718, 4128.718, 4190.256, 450, 0, []
1629358066.2621, 72, 0, 4227.179, 4006.667, 4087.692, 4124.103, 4190.769, 450, 0, []
1629358066.2699, 73, 0, 4234.359, 4012.821, 4099.487, 4122.564, 4208.205, 16167, 0, []
1629358066.2777, 74, 0, 4220.513, 3990.256, 4097.949, 4098.974, 4196.923, 450, 0, []
1629358066.2856, 75, 0, 4210.769, 3951.795, 4092.821, 4095.385, 4186.154, 16193, 0, []
1629358066.2934, 76, 0, 4224.615, 4035.897, 4110.256, 4127.692, 4202.051, 450, 0, []
1629358066.3013, 77, 0, 4235.897, 4233.846, 4119.487, 4148.205, 4208.718, 450, 0, []
1629358066.309, 78, 0, 4233.333, 4256.923, 4113.333, 4144.615, 4200, 450, 0, []
1629358066.3169, 79, 0, 4226.667, 4086.667, 4118.974, 4139.487, 4201.026, 16193, 0, []
1629358066.3247, 80, 0, 4222.051, 4039.487, 4115.385, 4125.128, 4197.949, 450, 0, []
1629358066.3327, 81, 0, 4212.308, 4094.872, 4110.256, 4101.538, 4178.462, 450, 0, []
1629358066.3406, 82, 0, 4200.513, 4010.769, 4109.744, 4087.179, 4168.205, 450, 0, []
1629358066.3485, 83, 0, 4211.795, 3896.923, 4097.949, 4092.821, 4184.615, 16193, 0, []
1629358066.3564, 84, 0, 4247.692, 3945.128, 4098.462, 4125.641, 4228.205, 450, 0, []
1629358066.3644, 85, 0, 4257.436, 4018.462, 4096.923, 4143.077, 4250.769, 450, 0, []
1629358066.3723, 86, 0, 4226.154, 3995.897, 4082.564, 4126.667, 4223.077, 450, 0, []
1629358066.3803, 87, 0, 4210.769, 4003.59, 4080, 4117.436, 4200.513, 16193, 0, []
1629358066.3881, 88, 0, 4224.103, 4049.231, 4091.282, 4122.564, 4211.282, 450, 0, []
1629358066.3961, 89, 0, 4234.359, 3982.051, 4100.513, 4119.487, 4221.538, 450, 0, []
1629358066.404, 90, 0, 4232.308, 3917.436, 4100.513, 4112.821, 4213.846, 450, 0, []
1629358066.4118, 91, 0, 4226.667, 4012.308, 4108.718, 4122.564, 4208.718, 16193, 0, []
1629358066.4197, 92, 0, 4226.154, 4085.641, 4119.487, 4135.897, 4212.308, 450, 0, []
1629358066.4274, 93, 0, 4221.538, 4001.538, 4113.846, 4137.436, 4213.846, 450, 0, []
1629358066.4353, 94, 0, 4209.744, 4007.179, 4114.872, 4130.769, 4207.179, 450, 0, []
1629358066.4431, 95, 0, 4206.154, 4116.41, 4121.538, 4123.077, 4197.436, 16193, 0, []
1629358066.451, 96, 0, 4210.769, 4128.718, 4118.974, 4120.513, 4202.051, 450, 0, []
1629358066.4588, 97, 0, 4212.821, 4196.41, 4108.205, 4121.538, 4204.615, 450, 0, []
1629358066.4666, 98, 0, 4215.897, 4361.538, 4105.641, 4126.667, 4198.974, 450, 0, []
1629358066.4744, 99, 0, 4218.462, 4346.667, 4113.333, 4129.744, 4198.974, 16193, 0, []
1629358066.4824, 100, 0, 4214.359, 4151.282, 4102.564, 4127.179, 4201.538, 450, 0, []
1629358066.4903, 101, 0, 4209.231, 4104.103, 4098.462, 4126.154, 4196.923, 450, 0, []
1629358066.4983, 102, 0, 4207.179, 4271.795, 4113.333, 4126.667, 4188.205, 450, 0, []
1629358066.5061, 103, 0, 4199.487, 4269.744, 4110.769, 4121.026, 4179.487, 16193, 0, []
1629358066.5141, 104, 0, 4186.154, 4053.333, 4099.487, 4114.872, 4170.769, 450, 0, []
1629358066.522, 105, 0, 4170.769, 4014.872, 4089.231, 4106.667, 4155.897, 450, 0, []
1629358066.53, 106, 0, 4160.513, 4223.59, 4081.026, 4096.41, 4137.949, 450, 0, []
1629358066.5379, 107, 0, 4166.154, 4274.359, 4082.564, 4102.564, 4140.513, 16193, 0, []
1629358066.5458, 108, 0, 4181.026, 4080.513, 4091.795, 4118.974, 4155.897, 450, 0, []
1629358066.5537, 109, 0, 4182.564, 3957.436, 4098.462, 4123.59, 4159.487, 450, 0, []
1629358066.5615, 110, 0, 4185.641, 4024.615, 4102.564, 4128.718, 4168.718, 450, 0, []
1629358066.5694, 111, 0, 4203.59, 4113.846, 4120.513, 4148.205, 4189.231, 16193, 0, []
1629358066.5772, 112, 0, 4192.821, 4114.359, 4105.128, 4142.051, 4176.923, 450, 0, []
1629358066.585, 113, 0, 4147.179, 4122.051, 4056.923, 4101.026, 4133.846, 450, 0, []
1629358066.5928, 114, 0, 4141.026, 4174.872, 4070.256, 4103.59, 4132.821, 450, 0, []
1629358066.6007, 115, 0, 4177.436, 4223.59, 4105.128, 4146.154, 4164.103, 16193, 0, []
1629358066.6087, 116, 0, 4175.897, 4284.615, 4100, 4141.026, 4154.359, 450, 0, []
1629358066.6166, 117, 0, 4141.026, 4344.103, 4072.308, 4097.949, 4116.923, 450, 0, []
1629358066.6243, 118, 0, 4146.667, 4312.308, 4062.564, 4099.487, 4120.513, 450, 0, []
1629358066.6323, 119, 0, 4193.846, 4183.59, 4113.846, 4152.821, 4164.615, 16193, 0, []
1629358066.6402, 120, 0, 4216.41, 4173.333, 4146.154, 4180.513, 4182.564, 450, 0, []
1629358066.6482, 121, 0, 4190.769, 4337.949, 4123.59, 4156.923, 4150.256, 450, 0, []
1629358066.6561, 122, 0, 4157.949, 4345.641, 4110.256, 4134.872, 4111.795, 450, 0, []
1629358066.664, 123, 0, 4135.385, 4050.256, 4101.026, 4125.128, 4089.744, 16193, 0, []
1629358066.6719, 124, 0, 4113.333, 3957.436, 4073.846, 4103.077, 4068.718, 450, 0, []
1629358066.6799, 125, 0, 4103.077, 4219.487, 4048.718, 4078.974, 4052.821, 450, 0, []
1629358066.6878, 126, 0, 4129.744, 4295.385, 4076.41, 4106.154, 4080, 450, 0, []
1629358066.6958, 127, 0, 4159.487, 4209.744, 4118.462, 4150.769, 4113.846, 16193, 0, []
1629358066.7036, 128, 0, 4132.308, 4362.051, 4092.308, 4125.641, 4084.615, 450, 0, []
1629358066.7114, 0, 0, 4110.256, 4554.872, 4071.282, 4096.41, 4059.487, 450, 0, []
1629358066.7193, 1, 0, 4147.692, 4525.641, 4107.692, 4131.795, 4095.385, 450, 0, []
1629358066.7271, 2, 0, 4169.231, 4434.359, 4138.462, 4155.897, 4114.872, 16182, 0, []
1629358066.735, 3, 0, 4140, 4384.103, 4126.667, 4130.769, 4086.154, 450, 0, []
1629358066.7427, 4, 0, 4098.974, 4329.231, 4087.692, 4091.795, 4045.641, 16136, 0, []
1629358066.7506, 5, 0, 4098.974, 4269.231, 4078.462, 4086.667, 4044.615, 450, 0, []
1629358066.7584, 6, 0, 4148.718, 4308.205, 4109.744, 4126.667, 4094.872, 16157, 0, []
1629358066.7663, 7, 0, 4177.436, 4483.59, 4124.615, 4152.308, 4123.077, 450, 0, []
1629358066.7741, 8, 0, 4150.769, 4549.744, 4104.103, 4129.744, 4091.795, 450, 0, []
1629358066.7819, 9, 0, 4130.256, 4346.154, 4083.59, 4115.385, 4068.205, 16167, 0, []
1629358066.7897, 10, 0, 4129.744, 4164.103, 4079.487, 4120, 4070.256, 450, 0, []
1629358066.7977, 11, 0, 4122.564, 4224.615, 4082.564, 4111.795, 4066.667, 16193, 0, []
1629358066.8056, 12, 0, 4127.692, 4403.077, 4093.846, 4113.333, 4069.231, 450, 0, []
1629358066.8136, 13, 0, 4138.462, 4549.231, 4101.026, 4125.641, 4074.872, 450, 0, []
1629358066.8214, 14, 0, 4131.282, 4538.462, 4093.333, 4118.974, 4066.667, 450, 0, []
1629358066.8294, 15, 0, 4122.564, 4483.59, 4090.256, 4109.231, 4063.077, 16193, 0, []
1629358066.8373, 16, 0, 4129.744, 4486.154, 4104.615, 4122.564, 4075.897, 0, 0, []
1629358066.8453, 17, 0, 4144.615, 4409.744, 4114.872, 4143.59, 4090.769, 0, 0, []
1629358066.8532, 18, 0, 4131.795, 4280.513, 4089.231, 4122.051, 4066.667, 0, 0, []
1629358066.8611, 19, 0, 4104.615, 4224.615, 4064.103, 4081.026, 4027.179, 0, 0, []
1629358066.869, 20, 0, 4107.692, 4204.103, 4088.205, 4089.744, 4035.385, 0, 0, []
1629358066.8768, 21, 0, 4127.179, 4104.615, 4096.923, 4118.974, 4059.487, 0, 0, []
1629358066.8847, 22, 0, 4131.282, 4021.538, 4073.333, 4116.41, 4056.41, 0, 0, []
1629358066.8925, 23, 0, 4133.846, 4081.026, 4082.564, 4111.795, 4057.436, 0, 0, []
1629358066.9003, 24, 0, 4138.462, 4177.436, 4088.718, 4112.308, 4061.538, 0, 0, []
1629358066.9081, 25, 0, 4137.436, 4187.692, 4073.333, 4105.641, 4051.282, 0, 0, []
1629358066.916, 26, 0, 4136.923, 4113.846, 4080, 4108.205, 4048.718, 0, 0, []
1629358066.9238, 27, 0, 4147.692, 4009.231, 4100, 4120, 4065.128, 0, 0, []
1629358066.9317, 28, 0, 4146.154, 3948.718, 4087.692, 4109.744, 4058.974, 0, 0, []
1629358066.9395, 29, 0, 4111.282, 3985.128, 4046.154, 4068.718, 4017.949, 0, 0, []
1629358066.9474, 30, 0, 4110.256, 4037.949, 4057.949, 4072.821, 4026.154, 0, 0, []
1629358066.9553, 31, 0, 4165.128, 4027.692, 4122.051, 4136.41, 4090.256, 0, 0, []
1629358066.9633, 32, 0, 4181.538, 4044.103, 4130.256, 4160, 4102.051, 0, 0, []
1629358066.9712, 33, 0, 4148.205, 4087.179, 4089.231, 4129.231, 4066.667, 0, 0, []
1629358066.9792, 34, 0, 4136.41, 4141.538, 4083.59, 4116.41, 4057.436, 0, 0, []
1629358066.987, 35, 0, 4142.564, 4206.667, 4107.692, 4124.615, 4060.513, 0, 0, []
1629358066.995, 36, 0, 4138.974, 4163.59, 4104.103, 4120, 4054.872, 0, 0, []
1629358067.0029, 37, 0, 4134.872, 4097.436, 4081.538, 4106.667, 4050.769, 0, 0, []
1629358067.0109, 38, 0, 4136.923, 4101.538, 4073.333, 4095.385, 4045.128, 0, 0, []
1629358067.0188, 39, 0, 4156.41, 4034.359, 4088.718, 4106.154, 4063.077, 0, 0, []
1629358067.0265, 40, 0, 4178.462, 3942.051, 4105.128, 4125.641, 4092.308, 0, 0, []
1629358067.0344, 41, 0, 4175.385, 3971.282, 4101.026, 4117.949, 4089.231, 0, 0, []
1629358067.0422, 42, 0, 4169.744, 4017.949, 4098.462, 4106.667, 4083.59, 0, 0, []
1629358067.0501, 43, 0, 4176.923, 3948.205, 4113.846, 4118.462, 4096.923, 0, 0, []
1629358067.0579, 44, 0, 4181.538, 3949.744, 4118.974, 4130.769, 4100.513, 0, 0, []
1629358067.0657, 45, 0, 4175.897, 4098.974, 4108.205, 4128.205, 4093.846, 0, 0, []
1629358067.0735, 46, 0, 4171.282, 4144.615, 4110.256, 4124.103, 4090.256, 0, 0, []
1629358067.0814, 47, 0, 4175.897, 4094.872, 4112.821, 4120, 4088.205, 0, 0, []
1629358067.0892, 48, 0, 4187.179, 4161.026, 4110.769, 4124.103, 4093.333, 0, 0, []
1629358067.0972, 49, 0, 4178.462, 4221.538, 4105.128, 4120.513, 4089.231, 0, 0, []
1629358067.105, 50, 0, 4152.308, 4102.564, 4090.769, 4090.256, 4069.744, 0, 0, []
1629358067.113, 51, 0, 4164.103, 4084.615, 4105.128, 4095.385, 4083.077, 0, 0, []
1629358067.1209, 52, 0, 4198.462, 4351.795, 4134.872, 4134.872, 4113.846, 0, 0, []
1629358067.1289, 53, 0, 4188.205, 4560, 4127.692, 4129.744, 4099.487, 0, 0, []
1629358067.1368, 54, 0, 4154.872, 4443.077, 4096.923, 4101.026, 4065.641, 0, 0, []
1629358067.1447, 55, 0, 4149.231, 4186.667, 4089.231, 4098.462, 4061.538, 0, 0, []
1629358067.1526, 56, 0, 4158.974, 4087.692, 4097.436, 4095.897, 4073.333, 0, 0, []
1629358067.1606, 57, 0, 4185.641, 4193.846, 4114.359, 4107.179, 4104.103, 0, 0, []
1629358067.1685, 58, 0, 4228.718, 4271.795, 4148.205, 4153.333, 4149.744, 0, 0, []
1629358067.1764, 59, 0, 4224.103, 4184.615, 4149.231, 4153.846, 4142.564, 0, 0, []
1629358067.1842, 60, 0, 4183.077, 4161.538, 4118.462, 4112.308, 4098.974, 0, 0, []
1629358067.192, 61, 0, 4181.026, 4288.718, 4123.59, 4122.564, 4100, 0, 0, []
1629358067.1999, 62, 0, 4191.282, 4239.487, 4137.436, 4145.641, 4113.846, 0, 0, []
1629358067.2077, 63, 0, 4173.333, 3989.231, 4118.974, 4126.154, 4093.333, 0, 0, []
1629358067.2156, 64, 0, 4164.103, 3889.231, 4108.205, 4113.333, 4083.077, 450, 0, []
1629358067.2233, 65, 0, 4168.205, 4004.103, 4113.333, 4120, 4090.256, 450, 0, []
1629358067.2312, 66, 0, 4160, 4154.359, 4109.744, 4119.487, 4080.513, 16182, 0, []
1629358067.239, 67, 0, 4158.974, 4305.128, 4104.615, 4120.513, 4074.359, 450, 0, []
1629358067.2469, 68, 0, 4173.846, 4485.641, 4105.128, 4118.462, 4089.231, 16184, 0, []
1629358067.2547, 69, 0, 4197.436, 4590.769, 4108.718, 4111.282, 4110.769, 450, 0, []
1629358067.2626, 70, 0, 4236.41, 4527.179, 4110.256, 4111.795, 4143.077, 16157, 0, []
1629358067.2705, 71, 0, 4288.205, 4539.487, 4112.308, 4115.385, 4195.897, 450, 0, []
1629358067.2785, 72, 0, 4354.359, 4751.795, 4116.41, 4122.051, 4262.564, 450, 0, []
1629358067.2864, 73, 0, 4419.487, 4767.179, 4121.026, 4136.923, 4322.051, 16167, 0, []
1629358067.2944, 74, 0, 4458.974, 4483.59, 4123.59, 4142.564, 4361.026, 450, 0, []
1629358067.3022, 75, 0, 4491.282, 4350.769, 4132.821, 4147.179, 4402.051, 16193, 0, []
1629358067.3102, 76, 0, 4527.692, 4414.359, 4146.667, 4157.436, 4444.103, 450, 0, []
1629358067.3181, 77, 0, 4543.59, 4366.154, 4143.59, 4153.846, 4462.564, 450, 0, []
1629358067.3261, 78, 0, 4550.256, 4234.872, 4140.513, 4145.128, 4477.436, 450, 0, []
1629358067.334, 79, 0, 4569.231, 4200, 4152.308, 4150.256, 4503.59, 16193, 0, []
1629358067.3417, 80, 0, 4573.846, 4197.949, 4142.051, 4149.744, 4512.308, 450, 0, []
1629358067.3496, 81, 0, 4570.769, 4103.59, 4123.59, 4141.026, 4514.359, 450, 0, []
1629358067.3574, 82, 0, 4578.974, 3998.462, 4133.333, 4147.179, 4536.923, 450, 0, []
1629358067.3653, 83, 0, 4580, 3987.692, 4149.231, 4163.077, 4554.872, 16193, 0, []
1629358067.3731, 84, 0, 4573.333, 4111.282, 4150.769, 4168.718, 4556.923, 450, 0, []
1629358067.3809, 85, 0, 4584.615, 4267.179, 4152.308, 4174.359, 4568.205, 450, 0, []
1629358067.3887, 86, 0, 4607.692, 4239.487, 4163.077, 4189.231, 4587.692, 450, 0, []
1629358067.3967, 87, 0, 4611.282, 4118.462, 4168.718, 4190.256, 4598.462, 16193, 0, []
1629358067.4046, 88, 0, 4600.513, 4126.667, 4168.205, 4181.538, 4602.564, 450, 0, []
1629358067.4126, 89, 0, 4597.436, 4212.308, 4164.103, 4183.59, 4603.59, 450, 0, []
1629358067.4204, 90, 0, 4601.026, 4293.846, 4150.256, 4185.641, 4600, 450, 0, []
1629358067.4284, 91, 0, 4601.026, 4417.436, 4145.641, 4184.103, 4598.974, 16193, 0, []
1629358067.4363, 92, 0, 4598.974, 4531.795, 4165.128, 4195.385, 4606.667, 450, 0, []
1629358067.4443, 93, 0, 4612.821, 4556.41, 4180, 4220, 4624.103, 450, 0, []
1629358067.4522, 94, 0, 4631.282, 4533.846, 4184.615, 4237.436, 4645.641, 450, 0, []
1629358067.4601, 95, 0, 4634.359, 4537.949, 4183.59, 4228.718, 4650.256, 16193, 0, []
1629358067.468, 96, 0, 4629.231, 4549.231, 4175.897, 4209.231, 4642.564, 450, 0, []
1629358067.476, 97, 0, 4632.821, 4491.795, 4170.769, 4201.538, 4642.051, 450, 0, []
1629358067.4839, 98, 0, 4634.359, 4405.128, 4166.667, 4193.846, 4636.41, 450, 0, []
1629358067.4918, 99, 0, 4626.667, 4317.949, 4165.641, 4182.051, 4626.667, 16193, 0, []
1629358067.4996, 100, 0, 4629.744, 4240, 4167.692, 4185.641, 4635.897, 450, 0, []
1629358067.5074, 101, 0, 4643.077, 4200.513, 4169.231, 4201.026, 4656.923, 450, 0, []
1629358067.5153, 102, 0, 4646.154, 4190.256, 4177.436, 4213.333, 4663.59, 450, 0, []
1629358067.5231, 103, 0, 4636.923, 4224.103, 4185.128, 4212.821, 4650.769, 16193, 0, []
1629358067.531, 104, 0, 4636.923, 4246.154, 4183.077, 4200, 4634.359, 450, 0, []
1629358067.5387, 105, 0, 4644.615, 4229.744, 4174.872, 4189.744, 4631.282, 450, 0, []
1629358067.5466, 106, 0, 4634.872, 4273.846, 4172.308, 4183.077, 4632.308, 450, 0, []
1629358067.5544, 107, 0, 4630.769, 4323.59, 4182.564, 4191.795, 4633.333, 16193, 0, []
1629358067.5624, 108, 0, 4665.128, 4232.308, 4198.974, 4220, 4659.487, 450, 0, []
1629358067.5703, 109, 0, 4683.077, 4154.359, 4195.897, 4228.718, 4681.026, 450, 0, []
1629358067.5782, 110, 0, 4643.077, 4237.949, 4168.205, 4205.641, 4652.821, 450, 0, []
1629358067.5861, 111, 0, 4614.872, 4277.949, 4157.949, 4183.59, 4615.897, 16193, 0, []
1629358067.594, 112, 0, 4627.179, 4206.667, 4169.231, 4176.923, 4612.821, 450, 0, []
1629358067.6019, 113, 0, 4628.205, 4157.436, 4157.436, 4172.308, 4616.41, 450, 0, []
1629358067.6097, 114, 0, 4609.744, 4166.154, 4140, 4168.718, 4608.718, 450, 0, []
1629358067.6176, 115, 0, 4595.385, 4255.897, 4140, 4163.59, 4595.897, 16193, 0, []
1629358067.6255, 116, 0, 4588.718, 4336.923, 4140, 4158.462, 4582.051, 450, 0, []
1629358067.6334, 117, 0, 4592.821, 4297.436, 4147.179, 4161.026, 4581.026, 450, 0, []
1629358067.6414, 118, 0, 4604.615, 4228.205, 4164.615, 4171.795, 4595.897, 450, 0, []
1629358067.6493, 119, 0, 4613.846, 4265.128, 4174.872, 4188.205, 4606.667, 16193, 0, []
1629358067.657, 120, 0, 4611.282, 4307.179, 4165.641, 4186.154, 4606.154, 450, 0, []
1629358067.6649, 121, 0, 4601.538, 4296.923, 4160, 4169.231, 4602.564, 450, 0, []
1629358067.6727, 122, 0, 4601.538, 4371.795, 4180, 4172.308, 4593.333, 450, 0, []
1629358067.6806, 123, 0, 4613.846, 4459.487, 4196.41, 4194.359, 4589.231, 16193, 0, []
1629358067.6884, 124, 0, 4621.538, 4461.538, 4189.231, 4203.59, 4598.974, 450, 0, []
1629358067.6963, 125, 0, 4616.923, 4448.718, 4177.436, 4193.333, 4600, 450, 0, []
1629358067.704, 126, 0, 4610.769, 4405.641, 4171.282, 4183.077, 4587.692, 450, 0, []
1629358067.7119, 127, 0, 4605.128, 4322.051, 4166.667, 4177.949, 4574.872, 16193, 0, []
1629358067.7197, 128, 0, 4588.205, 4268.718, 4156.923, 4165.128, 4557.949, 450, 0, []
1629358067.7277, 0, 0, 4558.462, 4222.564, 4148.718, 4154.872, 4535.385, 450, 0, []
1629358067.7356, 1, 0, 4536.41, 4150.769, 4145.128, 4157.949, 4519.487, 450, 0, []
1629358067.7435, 2, 0, 4533.846, 4093.333, 4133.846, 4151.795, 4502.051, 16181, 0, []
1629358067.7514, 3, 0, 4542.051, 4095.897, 4126.667, 4142.564, 4492.821, 450, 0, []
1629358067.7594, 4, 0, 4541.026, 4174.872, 4135.897, 4156.41, 4497.436, 16165, 0, []
1629358067.7673, 5, 0, 4523.077, 4249.744, 4150.769, 4166.667, 4489.231, 450, 0, []
1629358067.7753, 6, 0, 4522.564, 4226.667, 4161.538, 4165.641, 4478.974, 16157, 0, []
1629358067.7831, 7, 0, 4535.385, 4224.615, 4172.821, 4171.795, 4484.103, 450, 0, []
1629358067.7911, 8, 0, 4520.513, 4248.205, 4182.051, 4180.513, 4480, 450, 0, []
1629358067.799, 9, 0, 4487.179, 4132.308, 4170.256, 4174.872, 4452.821, 16165, 0, []
1629358067.8068, 10, 0, 4464.615, 4081.026, 4149.231, 4160.513, 4424.615, 450, 0, []
1629358067.8147, 11, 0, 4450.769, 4232.308, 4126.667, 4140.513, 4403.59, 16193, 0, []
1629358067.8224, 12, 0, 4450.256, 4324.615, 4106.154, 4117.436, 4391.795, 450, 0, []
1629358067.8303, 13, 0, 4476.41, 4319.487, 4114.872, 4115.897, 4403.077, 450, 0, []
1629358067.8381, 14, 0, 4498.974, 4359.487, 4138.462, 4127.692, 4418.974, 450, 0, []
1629358067.846, 15, 0, 4505.128, 4360.513, 4146.667, 4137.436, 4424.103, 16193, 0, []
1629358067.8538, 16, 0, 4516.41, 4307.692, 4155.897, 4156.923, 4434.872, 0, 0, []
1629358067.8616, 17, 0, 4526.154, 4273.846, 4166.154, 4177.436, 4443.59, 0, 0, []
1629358067.8694, 18, 0, 4531.795, 4234.872, 4162.564, 4180, 4441.538, 0, 0, []
1629358067.8774, 19, 0, 4527.692, 4316.41, 4149.231, 4161.538, 4426.667, 0, 0, []
1629358067.8853, 20, 0, 4509.744, 4474.872, 4135.385, 4136.923, 4402.051, 0, 0, []
1629358067.8933, 21, 0, 4491.795, 4508.718, 4135.385, 4127.179, 4387.692, 0, 0, []
1629358067.9011, 22, 0, 4478.974, 4511.795, 4143.59, 4136.923, 4382.564, 0, 0, []
1629358067.9091, 23, 0, 4464.615, 4553.846, 4143.59, 4144.615, 4367.179, 0, 0, []
1629358067.917, 24, 0, 4451.795, 4531.795, 4130.769, 4136.41, 4348.205, 0, 0, []
1629358067.925, 25, 0, 4445.641, 4468.205, 4125.128, 4134.359, 4345.128, 0, 0, []
1629358067.9329, 26, 0, 4436.41, 4453.333, 4134.872, 4144.103, 4348.205, 0, 0, []
1629358067.9408, 27, 0, 4420, 4553.333, 4131.795, 4143.077, 4334.872, 0, 0, []
1629358067.9487, 28, 0, 4407.179, 4717.436, 4121.026, 4130.256, 4311.282, 0, 0, []
1629358067.9567, 29, 0, 4403.59, 4694.359, 4127.179, 4130.256, 4309.231, 0, 0, []
1629358067.9646, 30, 0, 4417.436, 4551.282, 4144.103, 4143.077, 4329.744, 0, 0, []
1629358067.9724, 31, 0, 4427.692, 4562.564, 4156.41, 4154.872, 4335.897, 0, 0, []
1629358067.9802, 32, 0, 4415.897, 4654.359, 4152.308, 4161.538, 4323.59, 0, 0, []
1629358067.988, 33, 0, 4400, 4649.231, 4145.128, 4162.051, 4320.513, 0, 0, []
1629358067.9959, 34, 0, 4392.821, 4546.154, 4151.282, 4157.949, 4318.974, 0, 0, []
1629358068.0037, 35, 0, 4390.256, 4495.897, 4162.564, 4152.308, 4305.128, 0, 0, []
1629358068.0116, 36, 0, 4394.872, 4557.949, 4168.718, 4154.872, 4306.667, 0, 0, []
1629358068.0193, 37, 0, 4402.564, 4548.718, 4166.154, 4159.487, 4323.077, 0, 0, []
1629358068.0272, 38, 0, 4402.564, 4391.795, 4162.564, 4154.872, 4321.026, 0, 0, []
1629358068.035, 39, 0, 4406.154, 4299.487, 4165.128, 4158.974, 4318.974, 0, 0, []
1629358068.043, 40, 0, 4415.897, 4298.974, 4174.872, 4176.923, 4334.359, 0, 0, []
1629358068.0509, 41, 0, 4422.564, 4264.103, 4191.282, 4192.308, 4338.462, 0, 0, []
1629358068.0588, 42, 0, 4429.744, 4270.256, 4193.846, 4195.385, 4331.795, 0, 0, []
1629358068.0667, 43, 0, 4429.744, 4313.333, 4178.974, 4191.795, 4333.846, 0, 0, []
1629358068.0747, 44, 0, 4407.179, 4265.641, 4166.154, 4182.564, 4322.051, 0, 0, []
1629358068.0826, 45, 0, 4375.385, 4202.564, 4155.897, 4166.154, 4290.256, 0, 0, []
1629358068.0906, 46, 0, 4360.513, 4273.846, 4137.436, 4147.179, 4270.769, 0, 0, []
1629358068.0984, 47, 0, 4356.923, 4372.821, 4123.59, 4137.436, 4260, 0, 0, []
1629358068.1064, 48, 0, 4344.103, 4325.641, 4127.692, 4139.487, 4250.256, 0, 0, []
1629358068.1143, 49, 0, 4325.641, 4249.231, 4130.256, 4140.513, 4243.59, 0, 0, []
1629358068.1221, 50, 0, 4324.615, 4269.744, 4125.641, 4141.026, 4242.051, 0, 0, []
1629358068.13, 51, 0, 4339.487, 4282.051, 4138.462, 4146.667, 4256.41, 0, 0, []
1629358068.1377, 52, 0, 4345.128, 4219.487, 4151.795, 4147.179, 4266.667, 0, 0, []
1629358068.1456, 53, 0, 4335.897, 4168.205, 4135.897, 4134.872, 4253.846, 0, 0, []
1629358068.1534, 54, 0, 4328.718, 4157.436, 4117.949, 4130.256, 4244.615, 0, 0, []
1629358068.1613, 55, 0, 4334.872, 4073.333, 4122.051, 4145.128, 4257.436, 0, 0, []
1629358068.1691, 56, 0, 4339.487, 4026.667, 4127.179, 4144.615, 4257.436, 0, 0, []
1629358068.1769, 57, 0, 4335.385, 4142.564, 4123.077, 4125.641, 4248.205, 0, 0, []
1629358068.1847, 58, 0, 4334.359, 4216.41, 4131.282, 4132.821, 4255.897, 0, 0, []
1629358068.1927, 59, 0, 4335.897, 4158.462, 4148.718, 4158.462, 4256.923, 0, 0, []
1629358068.2006, 60, 0, 4332.308, 4182.564, 4146.154, 4158.974, 4249.744, 0, 0, []
1629358068.2086, 61, 0, 4325.641, 4275.385, 4141.538, 4153.846, 4248.205, 0, 0, []
1629358068.2164, 62, 0, 4311.282, 4254.872, 4141.538, 4156.923, 4232.821, 0, 0, []
1629358068.2244, 63, 0, 4291.795, 4216.41, 4132.821, 4149.231, 4207.179, 0, 0, []
1629358068.2323, 64, 0, 4278.974, 4263.077, 4138.974, 4152.821, 4204.103, 450, 0, []
1629358068.2403, 65, 0, 4272.821, 4337.436, 4146.667, 4164.615, 4203.077, 450, 0, []
1629358068.2482, 66, 0, 4259.487, 4372.308, 4132.308, 4155.385, 4180.513, 16181, 0, []
1629358068.2561, 67, 0, 4248.205, 4311.282, 4117.949, 4137.949, 4160.513, 450, 0, []
1629358068.264, 68, 0, 4242.051, 4261.026, 4116.923, 4129.744, 4154.359, 16166, 0, []
1629358068.2718, 69, 0, 4233.846, 4309.231, 4120, 4121.538, 4145.641, 450, 0, []
1629358068.2797, 70, 0, 4228.205, 4352.308, 4122.051, 4114.872, 4132.308, 16157, 0, []
1629358068.2875, 71, 0, 4232.308, 4315.897, 4132.308, 4126.154, 4132.308, 450, 0, []
1629358068.2953, 72, 0, 4238.462, 4315.897, 4139.487, 4140.513, 4141.538, 450, 0, []
1629358068.3031, 73, 0, 4241.538, 4329.231, 4130.256, 4138.974, 4132.821, 16165, 0, []
1629358068.311, 74, 0, 4245.641, 4243.077, 4127.692, 4137.949, 4121.026, 450, 0, []
1629358068.3188, 75, 0, 4245.641, 4120.513, 4138.462, 4144.103, 4126.154, 16193, 0, []
1629358068.3267, 76, 0, 4248.718, 4097.436, 4141.538, 4141.026, 4131.795, 450, 0, []
1629358068.3344, 77, 0, 4255.385, 4185.641, 4130.769, 4125.641, 4125.641, 450, 0, []
1629358068.3424, 78, 0, 4257.436, 4182.564, 4121.026, 4112.308, 4122.564, 450, 0, []
1629358068.3503, 79, 0, 4271.795, 4057.949, 4128.205, 4113.333, 4136.923, 16193, 0, []
1629358068.3583, 80, 0, 4296.923, 4069.744, 4140.513, 4121.026, 4156.923, 450, 0, []
1629358068.3662, 81, 0, 4300.513, 4194.872, 4139.487, 4121.026, 4162.051, 450, 0, []
1629358068.3741, 82, 0, 4291.282, 4193.333, 4133.333, 4122.564, 4159.487, 450, 0, []
1629358068.382, 83, 0, 4302.051, 4144.615, 4135.897, 4129.231, 4166.667, 16193, 0, []
1629358068.39, 84, 0, 4310.769, 4246.667, 4141.538, 4132.308, 4171.282, 450, 0, []
1629358068.3979, 85, 0, 4302.051, 4319.487, 4141.538, 4132.308, 4168.205, 450, 0, []
1629358068.4059, 86, 0, 4294.872, 4239.487, 4138.462, 4131.795, 4168.718, 450, 0, []
1629358068.4138, 87, 0, 4296.923, 4190.769, 4140, 4131.282, 4172.308, 16193, 0, []
1629358068.4215, 88, 0, 4298.974, 4282.564, 4142.564, 4133.846, 4170.769, 450, 0, []
1629358068.4294, 89, 0, 4297.949, 4372.308, 4137.949, 4135.897, 4165.641, 450, 0, []
1629358068.4372, 90, 0, 4293.846, 4382.564, 4124.103, 4135.385, 4168.205, 450, 0, []
1629358068.4451, 91, 0, 4285.641, 4385.128, 4112.821, 4127.692, 4168.718, 16193, 0, []
1629358068.4529, 92, 0, 4278.462, 4353.333, 4118.974, 4119.487, 4160.513, 450, 0, []
1629358068.4607, 93, 0, 4278.974, 4262.051, 4132.308, 4122.564, 4158.974, 450, 0, []
1629358068.4685, 94, 0, 4283.077, 4271.795, 4144.615, 4139.487, 4171.795, 450, 0, []
1629358068.4764, 95, 0, 4270.769, 4405.641, 4151.795, 4151.282, 4172.821, 16193, 0, []
1629358068.4842, 96, 0, 4245.128, 4421.026, 4144.615, 4147.692, 4146.154, 450, 0, []
1629358068.4921, 97, 0, 4235.897, 4250.256, 4129.231, 4138.974, 4122.051, 450, 0, []
1629358068.4998, 98, 0, 4245.641, 4115.897, 4122.051, 4140.513, 4126.667, 450, 0, []
1629358068.5078, 99, 0, 4249.744, 4161.538, 4138.974, 4156.923, 4141.026, 16193, 0, []
1629358068.5157, 100, 0, 4238.462, 4260, 4153.846, 4157.949, 4130.256, 450, 0, []
1629358068.5237, 101, 0, 4216.923, 4250.769, 4136.923, 4131.282, 4103.077, 450, 0, []
1629358068.5316, 102, 0, 4203.077, 4183.077, 4126.154, 4122.051, 4096.41, 450, 0, []
1629358068.5395, 103, 0, 4202.051, 4169.744, 4136.41, 4136.41, 4104.615, 16193, 0, []
1629358068.5474, 104, 0, 4203.59, 4164.615, 4137.436, 4138.974, 4105.641, 450, 0, []
1629358068.5554, 105, 0, 4199.487, 4129.231, 4129.744, 4130.769, 4096.923, 450, 0, []
1629358068.5633, 106, 0, 4191.795, 4128.718, 4124.615, 4128.205, 4084.103, 450, 0, []
1629358068.5713, 107, 0, 4182.051, 4088.718, 4120.513, 4127.179, 4072.308, 16193, 0, []
1629358068.5791, 108, 0, 4169.744, 4078.462, 4114.359, 4125.128, 4063.59, 450, 0, []
1629358068.5869, 109, 0, 4158.974, 4194.359, 4111.795, 4126.154, 4063.077, 450, 0, []
1629358068.5948, 110, 0, 4153.333, 4280, 4117.949, 4127.179, 4060.513, 450, 0, []
1629358068.6026, 111, 0, 4146.667, 4269.231, 4121.026, 4123.59, 4044.615, 16193, 0, []
1629358068.6105, 112, 0, 4141.026, 4284.615, 4123.077, 4124.103, 4033.333, 450, 0, []
1629358068.6182, 113, 0, 4144.615, 4317.949, 4124.103, 4134.872, 4040.513, 450, 0, []
1629358068.6261, 114, 0, 4145.128, 4250.769, 4123.59, 4137.436, 4039.487, 450, 0, []
1629358068.6339, 115, 0, 4136.41, 4170.769, 4120, 4124.615, 4021.026, 16193, 0, []
1629358068.6418, 116, 0, 4132.821, 4213.846, 4114.359, 4116.923, 4011.795, 450, 0, []
1629358068.6496, 117, 0, 4136.923, 4381.026, 4107.692, 4119.487, 4013.846, 450, 0, []
1629358068.6575, 118, 0, 4144.615, 4519.487, 4101.026, 4118.974, 4018.974, 450, 0, []
1629358068.6654, 119, 0, 4154.872, 4503.077, 4112.308, 4122.051, 4029.744, 16193, 0, []
1629358068.6734, 120, 0, 4156.41, 4448.718, 4130.256, 4128.205, 4034.872, 450, 0, []
1629358068.6813, 121, 0, 4145.641, 4441.026, 4124.103, 4122.051, 4027.692, 450, 0, []
1629358068.6893, 122, 0, 4148.205, 4451.795, 4114.359, 4118.462, 4028.718, 450, 0, []
1629358068.6971, 123, 0, 4165.641, 4473.333, 4116.923, 4132.308, 4046.154, 16193, 0, []
1629358068.7051, 124, 0, 4172.821, 4505.128, 4120, 4143.077, 4055.897, 450, 0, []
1629358068.713, 125, 0, 4166.667, 4521.026, 4125.128, 4131.282, 4050.256, 450, 0, []
1629358068.721, 126, 0, 4169.231, 4469.231, 4129.231, 4116.41, 4050.256, 450, 0, []
1629358068.7289, 127, 0, 4178.974, 4310.256, 4129.231, 4123.59, 4066.667, 16193, 0, []
1629358068.7366, 128, 0, 4171.795, 4077.949, 4123.077, 4129.231, 4067.179, 450, 0, []
1629358068.7445, 0, 0, 4161.026, 3982.564, 4108.205, 4111.795, 4049.744, 450, 0, []
1629358068.7523, 1, 0, 4169.744, 4131.282, 4106.667, 4109.231, 4057.436, 450, 0, []
1629358068.7602, 2, 0, 4167.179, 4245.641, 4120, 4121.538, 4064.615, 16181, 0, []
1629358068.768, 3, 0, 4145.641, 4131.282, 4127.692, 4116.923, 4047.179, 450, 0, []
1629358068.7758, 4, 0, 4136.923, 4027.692, 4125.128, 4111.282, 4044.615, 16163, 0, []
1629358068.7836, 5, 0, 4142.051, 4062.051, 4124.103, 4120, 4061.026, 450, 0, []
1629358068.7915, 6, 0, 4137.436, 3981.538, 4123.59, 4123.077, 4058.462, 16157, 0, []
1629358068.7993, 7, 0, 4123.59, 3825.641, 4114.872, 4118.974, 4044.103, 450, 0, []
1629358068.8073, 8, 0, 4113.846, 3900, 4115.385, 4125.128, 4044.103, 450, 0, []
1629358068.8151, 9, 0, 4116.41, 4012.821, 4125.128, 4130.769, 4047.179, 16165, 0, []
1629358068.8231, 10, 0, 4125.641, 3950.769, 4121.026, 4129.231, 4049.744, 450, 0, []
1629358068.831, 11, 0, 4128.718, 3970.256, 4117.949, 4135.385, 4056.41, 16193, 0, []
1629358068.839, 12, 0, 4117.436, 4074.359, 4118.462, 4143.077, 4054.359, 450, 0, []
1629358068.8469, 13, 0, 4095.385, 4030.256, 4106.154, 4129.231, 4038.974, 450, 0, []
1629358068.8548, 14, 0, 4082.051, 4002.051, 4100.513, 4110.769, 4025.128, 450, 0, []
1629358068.8627, 15, 0, 4096.923, 4140.513, 4118.462, 4120, 4032.308, 16193, 0, []
1629358068.8707, 16, 0, 4112.308, 4229.744, 4138.974, 4143.077, 4053.846, 0, 0, []
1629358068.8786, 17, 0, 4107.692, 4263.59, 4134.359, 4150.256, 4059.487, 0, 0, []
1629358068.8866, 18, 0, 4107.692, 4321.026, 4124.103, 4145.641, 4052.821, 0, 0, []
1629358068.8944, 19, 0, 4112.821, 4243.077, 4124.103, 4142.564, 4052.821, 0, 0, []
1629358068.9022, 20, 0, 4094.359, 4100.513, 4109.744, 4126.667, 4040, 0, 0, []
1629358068.9101, 21, 0, 4065.128, 4093.846, 4092.821, 4101.026, 4009.744, 0, 0, []
1629358068.9179, 22, 0, 4053.333, 4166.667, 4108.718, 4095.897, 3997.949, 0, 0, []
1629358068.9258, 23, 0, 4060, 4212.821, 4131.282, 4118.462, 4014.359, 0, 0, []
1629358068.9335, 24, 0, 4080, 4222.051, 4133.846, 4147.179, 4035.897, 0, 0, []
1629358068.9414, 25, 0, 4095.385, 4240, 4125.128, 4156.41, 4047.692, 0, 0, []
1629358068.9492, 26, 0, 4081.026, 4359.487, 4107.692, 4135.385, 4034.359, 0, 0, []
1629358068.9571, 27, 0, 4053.846, 4470.256, 4090.256, 4104.615, 4006.667, 0, 0, []
1629358068.9649, 28, 0, 4042.051, 4391.795, 4087.179, 4086.667, 3993.846, 0, 0, []
1629358068.9728, 29, 0, 4038.462, 4344.615, 4087.692, 4076.923, 3986.667, 0, 0, []
1629358068.9807, 30, 0, 4056.923, 4455.897, 4090.769, 4085.128, 3996.923, 0, 0, []
1629358068.9887, 31, 0, 4091.282, 4437.949, 4113.846, 4116.923, 4034.359, 0, 0, []
1629358068.9966, 32, 0, 4096.41, 4309.231, 4130.769, 4136.41, 4052.821, 0, 0, []
1629358069.0046, 33, 0, 4078.462, 4306.154, 4126.667, 4124.615, 4033.846, 0, 0, []
1629358069.0124, 34, 0, 4072.821, 4322.051, 4126.154, 4113.846, 4024.103, 0, 0, []
1629358069.0204, 35, 0, 4077.949, 4284.615, 4126.667, 4116.923, 4036.41, 0, 0, []
1629358069.0283, 36, 0, 4085.128, 4274.872, 4128.205, 4116.41, 4046.154, 0, 0, []
1629358069.0363, 37, 0, 4092.821, 4182.564, 4133.333, 4114.872, 4049.231, 0, 0, []
1629358069.0442, 38, 0, 4097.949, 3987.692, 4131.795, 4123.077, 4054.872, 0, 0, []
1629358069.0519, 39, 0, 4108.205, 3914.359, 4135.385, 4133.846, 4064.615, 0, 0, []
1629358069.0598, 40, 0, 4114.359, 3991.282, 4140.513, 4132.308, 4062.051, 0, 0, []
1629358069.0676, 41, 0, 4093.333, 4008.205, 4132.821, 4118.974, 4036.923, 0, 0, []
1629358069.0755, 42, 0, 4068.205, 3962.564, 4131.795, 4113.846, 4016.923, 0, 0, []
1629358069.0833, 43, 0, 4055.897, 3939.487, 4141.026, 4118.462, 4009.744, 0, 0, []
1629358069.0911, 44, 0, 4052.821, 3921.026, 4142.564, 4122.051, 4014.872, 0, 0, []
1629358069.0989, 45, 0, 4063.077, 3947.179, 4127.179, 4116.923, 4030.256, 0, 0, []
1629358069.1068, 46, 0, 4083.077, 4051.795, 4122.051, 4114.872, 4043.077, 0, 0, []
1629358069.1146, 47, 0, 4098.462, 4128.718, 4142.564, 4127.179, 4052.821, 0, 0, []
1629358069.1226, 48, 0, 4092.821, 4079.487, 4150.769, 4128.205, 4050.256, 0, 0, []
1629358069.1304, 49, 0, 4084.103, 4025.128, 4150.769, 4120.513, 4037.949, 0, 0, []
1629358069.1384, 50, 0, 4090.256, 4151.282, 4159.487, 4130.769, 4038.974, 0, 0, []
1629358069.1463, 51, 0, 4090.769, 4303.077, 4155.897, 4144.103, 4044.615, 0, 0, []
1629358069.1543, 52, 0, 4071.795, 4232.821, 4132.821, 4134.872, 4028.718, 0, 0, []
1629358069.1622, 53, 0, 4058.462, 4085.128, 4121.026, 4115.897, 4012.308, 0, 0, []
1629358069.1702, 54, 0, 4069.231, 4060.513, 4132.821, 4110.256, 4020.513, 0, 0, []
1629358069.178, 55, 0, 4081.538, 4074.359, 4141.026, 4117.436, 4034.872, 0, 0, []
1629358069.186, 56, 0, 4078.974, 4077.436, 4151.282, 4124.615, 4037.436, 0, 0, []
1629358069.1939, 57, 0, 4067.692, 4094.872, 4153.846, 4116.41, 4024.615, 0, 0, []
1629358069.2018, 58, 0, 4060.513, 4119.487, 4126.667, 4092.308, 4000.513, 0, 0, []
1629358069.2097, 59, 0, 4066.667, 4165.128, 4114.872, 4088.718, 3999.487, 0, 0, []
1629358069.2174, 60, 0, 4076.923, 4131.795, 4137.949, 4114.872, 4025.641, 0, 0, []
1629358069.2253, 61, 0, 4082.564, 4047.692, 4152.308, 4136.923, 4041.538, 0, 0, []
1629358069.2331, 62, 0, 4100, 4156.923, 4154.359, 4146.667, 4045.128, 0, 0, []
1629358069.241, 63, 0, 4109.744, 4230.769, 4145.641, 4139.487, 4042.564, 0, 0, []
1629358069.2488, 64, 0, 4085.641, 4053.846, 4122.051, 4114.359, 4024.615, 450, 0, []
1629358069.2567, 65, 0, 4073.846, 4021.026, 4114.872, 4106.154, 4022.051, 450, 0, []
1629358069.2646, 66, 0, 4092.821, 4196.923, 4127.179, 4118.974, 4041.026, 16186, 0, []
1629358069.2726, 67, 0, 4089.744, 4237.436, 4124.103, 4118.974, 4038.974, 450, 0, []
1629358069.2805, 68, 0, 4077.949, 4117.436, 4107.692, 4114.359, 4029.231, 16138, 0, []
1629358069.2885, 69, 0, 4096.41, 4030.769, 4114.359, 4129.744, 4045.641, 450, 0, []
1629358069.2963, 70, 0, 4098.462, 3972.821, 4120.513, 4132.308, 4042.564, 16157, 0, []
1629358069.3043, 71, 0, 4075.897, 3936.923, 4106.667, 4114.872, 4017.949, 450, 0, []
1629358069.3122, 72, 0, 4081.538, 4010.256, 4106.154, 4110.769, 4021.026, 450, 0, []
1629358069.3202, 73, 0, 4093.333, 4124.615, 4107.692, 4110.769, 4033.333, 16165, 0, []
1629358069.3281, 74, 0, 4092.308, 4295.897, 4101.538, 4106.154, 4032.308, 450, 0, []
1629358069.336, 75, 0, 4108.205, 4494.359, 4112.308, 4112.821, 4042.564, 16194, 0, []
1629358069.3439, 76, 0, 4131.795, 4465.128, 4132.821, 4127.692, 4064.615, 450, 0, []
1629358069.3517, 77, 0, 4130.769, 4212.308, 4130.256, 4132.308, 4067.692, 450, 0, []
1629358069.3596, 78, 0, 4117.949, 4105.128, 4111.282, 4120.513, 4052.308, 450, 0, []
1629358069.3674, 79, 0, 4115.897, 4222.564, 4103.59, 4108.205, 4046.154, 16194, 0, []
1629358069.3752, 80, 0, 4116.41, 4263.59, 4103.077, 4106.154, 4048.718, 450, 0, []
1629358069.383, 81, 0, 4117.949, 4247.692, 4099.487, 4104.103, 4049.744, 450, 0, []
1629358069.3909, 82, 0, 4122.564, 4268.205, 4107.179, 4109.231, 4062.564, 450, 0, []
1629358069.3987, 83, 0, 4125.641, 4220, 4122.564, 4127.179, 4081.538, 16194, 0, []
1629358069.4066, 84, 0, 4120, 4145.128, 4122.564, 4130.256, 4077.949, 450, 0, []
1629358069.4143, 85, 0, 4113.333, 4153.846, 4106.667, 4119.487, 4066.667, 450, 0, []
1629358069.4222, 86, 0, 4114.359, 4178.974, 4091.795, 4116.41, 4067.692, 450, 0, []
1629358069.43, 87, 0, 4114.359, 4053.333, 4092.308, 4123.077, 4066.667, 16194, 0, []
1629358069.438, 88, 0, 4107.692, 3904.103, 4099.487, 4129.744, 4061.026, 450, 0, []
1629358069.4459, 89, 0, 4110.769, 3946.154, 4107.692, 4130.769, 4065.641, 450, 0, []
1629358069.4538, 90, 0, 4122.564, 4135.385, 4121.538, 4130.769, 4075.385, 450, 0, []
1629358069.4617, 91, 0, 4126.154, 4211.795, 4124.615, 4134.872, 4075.897, 16194, 0, []
1629358069.4697, 92, 0, 4124.103, 4098.462, 4120, 4137.436, 4076.41, 450, 0, []
1629358069.4776, 93, 0, 4117.436, 4073.846, 4123.077, 4136.41, 4076.923, 450, 0, []
1629358069.4856, 94, 0, 4104.615, 4147.179, 4122.051, 4134.872, 4065.641, 450, 0, []
1629358069.4934, 95, 0, 4093.846, 4011.795, 4111.795, 4131.795, 4046.667, 16194, 0, []
1629358069.5012, 96, 0, 4094.359, 3798.462, 4102.051, 4129.744, 4037.436, 450, 0, []
1629358069.5091, 97, 0, 4097.436, 3875.385, 4102.564, 4131.282, 4043.59, 450, 0, []
1629358069.5169, 98, 0, 4092.308, 4001.538, 4099.487, 4129.231, 4043.59, 450, 0, []
1629358069.5248, 99, 0, 4087.179, 3983.59, 4086.667, 4122.051, 4035.897, 16194, 0, []
1629358069.5325, 100, 0, 4094.359, 4072.821, 4085.641, 4123.59, 4040.513, 450, 0, []
1629358069.5404, 101, 0, 4112.821, 4175.385, 4111.282, 4140, 4063.59, 450, 0, []
1629358069.5482, 102, 0, 4126.154, 4189.231, 4144.615, 4155.897, 4085.128, 450, 0, []
1629358069.5561, 103, 0, 4127.692, 4291.282, 4152.821, 4158.974, 4091.282, 16194, 0, []
1629358069.5639, 104, 0, 4125.641, 4384.615, 4138.462, 4153.846, 4090.769, 450, 0, []
1629358069.5718, 105, 0, 4124.103, 4304.615, 4128.718, 4143.59, 4087.692, 450, 0, []
1629358069.5797, 106, 0, 4127.179, 4194.872, 4116.41, 4126.667, 4078.462, 450, 0, []
1629358069.5877, 107, 0, 4136.41, 4127.692, 4107.179, 4121.538, 4080, 16194, 0, []
1629358069.5956, 108, 0, 4144.103, 4075.897, 4113.333, 4130.256, 4094.359, 450, 0, []
1629358069.6036, 109, 0, 4148.205, 4093.333, 4119.487, 4134.359, 4102.051, 450, 0, []
1629358069.6114, 110, 0, 4153.846, 4173.846, 4114.872, 4141.026, 4111.282, 450, 0, []
1629358069.6194, 111, 0, 4149.744, 4246.154, 4105.641, 4150.256, 4123.077, 16194, 0, []
1629358069.6273, 112, 0, 4143.077, 4262.564, 4107.179, 4146.667, 4121.026, 450, 0, []
1629358069.6353, 113, 0, 4160, 4227.692, 4123.077, 4150.256, 4131.795, 450, 0, []
1629358069.6432, 114, 0, 4183.59, 4169.744, 4137.949, 4175.897, 4163.59, 450, 0, []
1629358069.6511, 115, 0, 4190.769, 4136.41, 4151.282, 4195.385, 4181.026, 16194, 0, []
1629358069.659, 116, 0, 4190.256, 4101.538, 4155.385, 4193.333, 4182.564, 450, 0, []
1629358069.6668, 117, 0, 4182.564, 4005.128, 4142.051, 4183.59, 4177.436, 450, 0, []
1629358069.6747, 118, 0, 4164.103, 3959.487, 4125.641, 4168.718, 4161.538, 450, 0, []
1629358069.6825, 119, 0, 4147.179, 4079.487, 4107.692, 4145.128, 4137.436, 16194, 0, []
1629358069.6903, 120, 0, 4136.923, 4185.128, 4093.846, 4131.795, 4125.641, 450, 0, []
1629358069.6981, 121, 0, 4134.872, 4040.513, 4097.949, 4135.385, 4137.436, 450, 0, []
1629358069.706, 122, 0, 4132.308, 3848.205, 4115.385, 4138.462, 4149.231, 450, 0, []
1629358069.7138, 123, 0, 4123.59, 3905.128, 4125.641, 4134.359, 4142.564, 16194, 0, []
1629358069.7218, 124, 0, 4122.564, 4017.436, 4115.897, 4131.795, 4138.974, 450, 0, []
1629358069.7296, 125, 0, 4128.718, 3936.41, 4099.487, 4136.923, 4147.692, 450, 0, []
1629358069.7376, 126, 0, 4128.718, 3967.692, 4090.769, 4138.462, 4147.692, 450, 0, []
1629358069.7455, 127, 0, 4130.769, 4192.308, 4092.821, 4137.949, 4152.308, 16194, 0, []
1629358069.7535, 128, 0, 4146.667, 4181.538, 4100.513, 4137.436, 4166.667, 450, 0, []
1629358069.7614, 0, 0, 4153.333, 4082.051, 4107.692, 4135.897, 4172.308, 450, 0, []
1629358069.7693, 1, 0, 4145.128, 4187.692, 4118.974, 4141.026, 4171.795, 450, 0, []
1629358069.7772, 2, 0, 4133.846, 4240.513, 4115.897, 4146.154, 4163.077, 16186, 0, []
1629358069.7852, 3, 0, 4126.667, 4148.718, 4095.385, 4129.231, 4142.051, 450, 0, []
1629358069.7931, 4, 0, 4125.128, 4068.205, 4085.128, 4100.513, 4123.59, 16158, 0, []
1629358069.8009, 5, 0, 4116.923, 4079.487, 4080.513, 4089.744, 4122.564, 450, 0, []
1629358069.8087, 6, 0, 4109.231, 4184.615, 4081.538, 4100, 4133.846, 16095, 0, []
1629358069.8165, 7, 0, 4115.385, 4182.564, 4088.205, 4115.897, 4139.487, 450, 0, []
1629358069.8244, 8, 0, 4118.462, 4056.41, 4085.128, 4125.128, 4141.026, 450, 0, []
1629358069.8322, 9, 0, 4100.513, 4111.795, 4075.897, 4127.692, 4138.974, 16134, 0, []
1629358069.8401, 10, 0, 4090.769, 4229.744, 4065.641, 4123.077, 4129.231, 450, 0, []
1629358069.8478, 11, 0, 4104.103, 4148.718, 4067.692, 4121.538, 4128.718, 16194, 0, []
1629358069.8557, 12, 0, 4106.667, 4065.641, 4079.487, 4123.077, 4137.436, 450, 0, []
1629358069.8635, 13, 0, 4106.154, 4049.231, 4085.641, 4117.949, 4134.872, 450, 0, []
1629358069.8714, 14, 0, 4123.077, 3991.282, 4088.205, 4118.462, 4133.333, 450, 0, []
1629358069.8792, 15, 0, 4137.949, 3953.333, 4087.179, 4121.538, 4140.513, 16194, 0, []
1629358069.887, 16, 0, 4139.487, 3949.744, 4085.641, 4110.256, 4137.436, 0, 0, []
1629358069.8948, 17, 0, 4141.026, 3963.59, 4100.513, 4109.744, 4134.359, 0, 0, []
1629358069.9027, 18, 0, 4140, 4035.897, 4111.282, 4124.615, 4146.667, 0, 0, []
1629358069.9105, 19, 0, 4143.077, 4154.872, 4105.128, 4128.205, 4154.872, 0, 0, []
1629358069.9185, 20, 0, 4155.897, 4239.487, 4104.615, 4127.179, 4156.923, 0, 0, []
1629358069.9264, 21, 0, 4152.308, 4235.385, 4108.205, 4133.333, 4156.923, 0, 0, []
1629358069.9343, 22, 0, 4132.821, 4235.897, 4097.436, 4133.846, 4149.744, 0, 0, []
1629358069.9422, 23, 0, 4126.154, 4307.179, 4089.231, 4131.282, 4146.154, 0, 0, []
1629358069.9502, 24, 0, 4128.205, 4273.846, 4096.923, 4137.436, 4146.154, 0, 0, []
1629358069.9581, 25, 0, 4098.462, 4128.718, 4074.359, 4117.949, 4112.821, 0, 0, []
1629358069.9661, 26, 0, 4070.256, 4110.256, 4051.282, 4089.231, 4077.436, 0, 0, []
1629358069.9739, 27, 0, 4098.974, 4165.641, 4084.103, 4112.308, 4102.051, 0, 0, []
1629358069.9818, 28, 0, 4128.205, 4118.462, 4110.256, 4140.513, 4132.308, 0, 0, []
1629358069.9897, 29, 0, 4116.923, 4083.59, 4092.821, 4124.103, 4118.974, 0, 0, []
1629358069.9975, 30, 0, 4114.872, 4150.256, 4086.154, 4110.256, 4105.128, 0, 0, []
1629358070.0054, 31, 0, 4120, 4161.026, 4092.821, 4117.949, 4098.974, 0, 0, []
1629358070.0131, 32, 0, 4093.333, 4107.692, 4076.923, 4110.256, 4077.436, 0, 0, []
1629358070.021, 33, 0, 4076.923, 4147.692, 4062.051, 4100.513, 4070.256, 0, 0, []
1629358070.0288, 34, 0, 4079.487, 4245.641, 4065.128, 4106.154, 4079.487, 0, 0, []
1629358070.0367, 35, 0, 4061.026, 4244.615, 4061.026, 4105.128, 4071.282, 0, 0, []
1629358070.0445, 36, 0, 4052.308, 4123.59, 4060.513, 4098.462, 4061.026, 0, 0, []
1629358070.0524, 37, 0, 4060.513, 4060, 4077.436, 4095.897, 4063.59, 0, 0, []
1629358070.0603, 38, 0, 4052.821, 4130.769, 4084.103, 4095.897, 4061.538, 0, 0, []
1629358070.0683, 39, 0, 4041.538, 4262.564, 4075.897, 4101.026, 4055.897, 0, 0, []
1629358070.0762, 40, 0, 4046.154, 4396.41, 4077.436, 4110.256, 4055.385, 0, 0, []
1629358070.0842, 41, 0, 4036.923, 4436.923, 4071.282, 4106.154, 4045.641, 0, 0, []
1629358070.092, 42, 0, 4013.333, 4424.103, 4050.769, 4087.179, 4020.513, 0, 0, []
1629358070.1, 43, 0, 4007.692, 4449.231, 4052.821, 4087.179, 4005.641, 0, 0, []
1629358070.1079, 44, 0, 4012.308, 4465.128, 4074.872, 4107.692, 4006.667, 0, 0, []
1629358070.1159, 45, 0, 4002.051, 4391.795, 4074.359, 4120, 3996.41, 0, 0, []
1629358070.1238, 46, 0, 3973.333, 4301.538, 4048.205, 4108.718, 3964.615, 0, 0, []
1629358070.1315, 47, 0, 3946.667, 4323.077, 4032.308, 4091.282, 3941.026, 0, 0, []
1629358070.1394, 48, 0, 3927.179, 4418.974, 4032.308, 4091.795, 3935.385, 0, 0, []
1629358070.1472, 49, 0, 3899.487, 4528.718, 4042.564, 4108.205, 3921.538, 0, 0, []
1629358070.1551, 50, 0, 3876.41, 4505.641, 4045.128, 4112.821, 3901.538, 0, 0, []
1629358070.1629, 51, 0, 3871.282, 4311.795, 4029.744, 4092.308, 3887.692, 0, 0, []
1629358070.1707, 52, 0, 3861.538, 4275.385, 4023.59, 4073.333, 3864.103, 0, 0, []
1629358070.1785, 53, 0, 3845.641, 4469.231, 4027.692, 4069.744, 3836.41, 0, 0, []
1629358070.1864, 54, 0, 3851.795, 4569.231, 4025.128, 4069.231, 3826.667, 0, 0, []
1629358070.1942, 55, 0, 3853.846, 4541.026, 4019.487, 4062.564, 3815.897, 0, 0, []
1629358070.2021, 56, 0, 3824.103, 4560, 4014.359, 4053.846, 3787.179, 0, 0, []
1629358070.2098, 57, 0, 3807.179, 4532.308, 4015.897, 4063.077, 3782.564, 0, 0, []
1629358070.2178, 58, 0, 3805.641, 4480, 4012.821, 4069.231, 3797.436, 0, 0, []
1629358070.2257, 59, 0, 3793.333, 4564.103, 4007.692, 4063.077, 3791.282, 0, 0, []
1629358070.2337, 60, 0, 3793.333, 4685.128, 4023.077, 4074.872, 3790.769, 0, 0, []
1629358070.2416, 61, 0, 3808.718, 4702.564, 4034.872, 4091.282, 3810.256, 0, 0, []
1629358070.2495, 62, 0, 3807.692, 4649.231, 4020, 4082.564, 3816.923, 0, 0, []
1629358070.2574, 63, 0, 3801.538, 4675.385, 4007.179, 4073.846, 3809.231, 0, 0, []
1629358070.2654, 64, 0, 3812.308, 4757.436, 4020.513, 4082.051, 3815.385, 450, 0, []
1629358070.2733, 65, 0, 3817.436, 4705.641, 4033.846, 4086.154, 3822.051, 450, 0, []
1629358070.2811, 66, 0, 3810.769, 4612.308, 4028.205, 4081.026, 3817.436, 16188, 0, []
1629358070.2889, 67, 0, 3812.821, 4670.256, 4027.692, 4086.667, 3820, 450, 0, []
1629358070.2967, 68, 0, 3816.923, 4730.256, 4035.897, 4095.385, 3828.718, 16164, 0, []
1629358070.3046, 69, 0, 3814.872, 4671.282, 4033.333, 4092.821, 3834.359, 450, 0, []
1629358070.3124, 70, 0, 3820, 4605.641, 4028.718, 4087.692, 3842.564, 16148, 0, []
1629358070.3203, 71, 0, 3828.718, 4564.103, 4033.333, 4089.744, 3853.846, 450, 0, []
1629358070.328, 72, 0, 3832.308, 4507.179, 4042.051, 4095.897, 3861.026, 450, 0, []
1629358070.3359, 73, 0, 3832.308, 4449.744, 4042.051, 4096.41, 3862.051, 16161, 0, []
1629358070.3437, 74, 0, 3829.231, 4402.564, 4032.821, 4085.128, 3860.513, 450, 0, []
1629358070.3516, 75, 0, 3831.795, 4413.846, 4037.949, 4080.513, 3866.667, 16196, 0, []
1629358070.3594, 76, 0, 3849.744, 4554.359, 4057.949, 4099.487, 3887.692, 450, 0, []
1629358070.3673, 77, 0, 3866.154, 4743.077, 4063.077, 4117.949, 3903.077, 450, 0, []
1629358070.3752, 78, 0, 3860, 4788.718, 4044.615, 4111.795, 3898.462, 450, 0, []
1629358070.3832, 79, 0, 3849.744, 4778.462, 4029.744, 4100, 3892.308, 16196, 0, []
1629358070.3911, 80, 0, 3857.436, 4870.769, 4038.974, 4103.59, 3901.026, 450, 0, []
1629358070.3991, 81, 0, 3864.615, 4859.487, 4047.179, 4105.641, 3913.333, 450, 0, []
1629358070.4069, 82, 0, 3862.051, 4642.564, 4045.128, 4096.923, 3913.333, 450, 0, []
1629358070.4149, 83, 0, 3859.487, 4570.256, 4045.641, 4095.385, 3909.744, 16196, 0, []
1629358070.4228, 84, 0, 3857.949, 4696.41, 4047.179, 4103.077, 3915.385, 450, 0, []
1629358070.4308, 85, 0, 3850.256, 4705.128, 4045.641, 4100.513, 3917.436, 450, 0, []
1629358070.4387, 86, 0, 3843.077, 4625.128, 4037.436, 4089.231, 3912.308, 450, 0, []
1629358070.4464, 87, 0, 3846.154, 4589.231, 4032.821, 4085.128, 3917.949, 16196, 0, []
1629358070.4543, 88, 0, 3852.308, 4525.641, 4033.846, 4089.744, 3932.308, 450, 0, []
1629358070.4621, 89, 0, 3848.718, 4465.641, 4027.692, 4097.436, 3935.385, 450, 0, []
1629358070.47, 90, 0, 3836.923, 4493.333, 4025.641, 4104.615, 3929.744, 450, 0, []
1629358070.4778, 91, 0, 3843.59, 4544.615, 4025.128, 4103.077, 3934.872, 16196, 0, []
1629358070.4856, 92, 0, 3870.256, 4608.205, 4016.41, 4092.821, 3939.487, 450, 0, []
1629358070.4934, 93, 0, 3883.077, 4675.897, 4008.718, 4085.128, 3923.077, 450, 0, []
1629358070.5014, 94, 0, 3880.513, 4610.769, 4003.077, 4076.923, 3897.436, 450, 0, []
1629358070.5093, 95, 0, 3881.026, 4488.205, 3990.256, 4063.59, 3870.769, 16196, 0, []
1629358070.5173, 96, 0, 3877.949, 4484.103, 3977.436, 4051.282, 3846.154, 450, 0, []
1629358070.5251, 97, 0, 3874.359, 4557.436, 3976.41, 4047.692, 3837.436, 450, 0, []
1629358070.5331, 98, 0, 3883.077, 4608.205, 3984.615, 4054.359, 3845.128, 450, 0, []
1629358070.541, 99, 0, 3890.769, 4608.718, 3989.231, 4060.513, 3852.308, 16196, 0, []
1629358070.549, 100, 0, 3892.308, 4577.436, 3995.897, 4067.179, 3868.718, 450, 0, []
1629358070.5569, 101, 0, 3891.282, 4552.821, 4000, 4071.282, 3888.205, 450, 0, []
1629358070.5648, 102, 0, 3889.744, 4622.051, 3999.487, 4073.333, 3895.385, 450, 0, []
1629358070.5727, 103, 0, 3889.231, 4789.231, 4004.615, 4077.949, 3900, 16196, 0, []
1629358070.5807, 104, 0, 3884.103, 4819.487, 3996.923, 4072.308, 3899.487, 450, 0, []
1629358070.5886, 105, 0, 3873.333, 4653.333, 3985.641, 4065.128, 3895.385, 450, 0, []
1629358070.5964, 106, 0, 3875.385, 4548.718, 4001.538, 4074.872, 3902.051, 450, 0, []
1629358070.6043, 107, 0, 3889.744, 4559.487, 4021.538, 4085.128, 3912.821, 16196, 0, []
1629358070.6122, 108, 0, 3894.359, 4524.103, 4018.462, 4079.487, 3916.923, 450, 0, []
1629358070.6201, 109, 0, 3900, 4553.846, 4009.744, 4084.103, 3924.615, 450, 0, []
1629358070.6281, 110, 0, 3913.333, 4750.769, 4015.897, 4095.385, 3936.41, 450, 0, []
1629358070.6361, 111, 0, 3911.795, 4797.436, 4015.385, 4085.641, 3936.41, 16196, 0, []
1629358070.6439, 112, 0, 3904.615, 4635.897, 4009.231, 4078.462, 3940.513, 450, 0, []
1629358070.6518, 113, 0, 3916.923, 4533.846, 4022.051, 4093.333, 3961.026, 450, 0, []
1629358070.6598, 114, 0, 3928.205, 4461.538, 4029.231, 4096.41, 3967.692, 450, 0, []
1629358070.6678, 115, 0, 3922.564, 4368.718, 4015.385, 4081.538, 3958.974, 16196, 0, []
1629358070.6757, 116, 0, 3920.513, 4391.282, 4012.821, 4082.051, 3961.538, 450, 0, []
1629358070.6837, 117, 0, 3920.513, 4466.154, 4020.513, 4088.205, 3968.205, 450, 0, []
1629358070.6915, 118, 0, 3928.718, 4460, 4022.051, 4087.179, 3970.769, 450, 0, []
1629358070.6995, 119, 0, 3946.667, 4489.744, 4015.385, 4080, 3977.436, 16196, 0, []
1629358070.7074, 120, 0, 3964.615, 4561.026, 4011.282, 4074.872, 3983.59, 450, 0, []
1629358070.7154, 121, 0, 3986.154, 4529.744, 4014.359, 4081.538, 3991.795, 450, 0, []
1629358070.7233, 122, 0, 3997.436, 4430.256, 4007.692, 4083.59, 3998.974, 450, 0, []
1629358070.7312, 123, 0, 3983.077, 4378.974, 3995.385, 4070.769, 3991.795, 16196, 0, []
1629358070.7391, 124, 0, 3972.821, 4397.436, 3994.359, 4067.692, 3983.59, 450, 0, []
1629358070.7471, 125, 0, 3987.179, 4415.897, 4006.154, 4079.487, 3998.462, 450, 0, []
1629358070.755, 126, 0, 3986.667, 4401.026, 4008.718, 4077.436, 4006.154, 450, 0, []
1629358070.763, 127, 0, 3967.692, 4374.872, 3997.436, 4068.205, 3992.821, 16196, 0, []
1629358070.7708, 128, 0, 3967.692, 4371.795, 3995.897, 4074.872, 3988.205, 450, 0, []
1629358070.7788, 0, 0, 3977.436, 4347.179, 4001.538, 4083.59, 3998.462, 450, 0, []
1629358070.7867, 1, 0, 3978.974, 4328.718, 3998.462, 4081.538, 4006.667, 450, 0, []
1629358070.7947, 2, 0, 3972.308, 4486.667, 3988.718, 4071.282, 4002.051, 16188, 0, []
1629358070.8026, 3, 0, 3969.231, 4713.333, 3991.282, 4065.128, 3996.923, 450, 0, []
1629358070.8105, 4, 0, 3970.769, 4663.077, 4000.513, 4066.667, 3996.923, 16156, 0, []
1629358070.8185, 5, 0, 3974.872, 4424.103, 4003.077, 4068.205, 4004.103, 450, 0, []
1629358070.8264, 6, 0, 3988.718, 4365.128, 4015.385, 4080.513, 4027.692, 16154, 0, []
1629358070.8344, 7, 0, 4001.538, 4364.615, 4032.821, 4098.974, 4046.667, 450, 0, []
1629358070.8423, 8, 0, 4006.154, 4201.026, 4027.179, 4102.564, 4045.128, 450, 0, []
1629358070.8502, 9, 0, 4017.949, 4130.256, 4024.103, 4106.154, 4050.256, 16162, 0, []
1629358070.8581, 10, 0, 4031.795, 4254.872, 4033.846, 4113.846, 4068.205, 450, 0, []
1629358070.8661, 11, 0, 4024.615, 4331.282, 4017.949, 4095.385, 4061.538, 16196, 0, []
1629358070.874, 12, 0, 4014.359, 4315.897, 4001.538, 4072.821, 4044.615, 450, 0, []
1629358070.882, 13, 0, 4024.103, 4300.513, 4006.154, 4077.949, 4056.923, 450, 0, []
1629358070.8898, 14, 0, 4035.385, 4242.051, 4010.256, 4090.769, 4075.385, 450, 0, []
1629358070.8978, 15, 0, 4039.487, 4180, 4019.487, 4095.385, 4077.949, 16196, 0, []
1629358070.9057, 16, 0, 4034.872, 4247.179, 4030.769, 4090.769, 4071.282, 0, 0, []
1629358070.9137, 17, 0, 4027.179, 4357.949, 4026.667, 4084.615, 4068.718, 0, 0, []
1629358070.9216, 18, 0, 4031.282, 4397.949, 4010.769, 4088.205, 4077.949, 0, 0, []
1629358070.9295, 19, 0, 4041.538, 4400.513, 4006.154, 4092.308, 4088.205, 0, 0, []
1629358070.9374, 20, 0, 4052.821, 4349.744, 4014.872, 4096.923, 4096.923, 0, 0, []
1629358070.9454, 21, 0, 4060, 4331.795, 4019.487, 4105.128, 4105.128, 0, 0, []
1629358070.9533, 22, 0, 4050.769, 4449.231, 4016.41, 4102.564, 4102.051, 0, 0, []
1629358070.9613, 23, 0, 4041.026, 4487.179, 4013.333, 4092.308, 4095.897, 0, 0, []
1629358070.9692, 24, 0, 4050.769, 4296.41, 4016.923, 4095.385, 4104.615, 0, 0, []
1629358070.9771, 25, 0, 4064.103, 4184.103, 4024.103, 4102.564, 4111.282, 0, 0, []
1629358070.9851, 26, 0, 4066.154, 4244.615, 4028.718, 4103.077, 4111.795, 0, 0, []
1629358070.993, 27, 0, 4067.692, 4227.692, 4035.897, 4108.718, 4123.59, 0, 0, []
1629358071.001, 28, 0, 4059.487, 4226.154, 4029.231, 4108.205, 4123.077, 0, 0, []
1629358071.0088, 29, 0, 4049.744, 4395.385, 4018.974, 4102.564, 4109.231, 0, 0, []
1629358071.0168, 30, 0, 4060.513, 4553.333, 4033.846, 4107.179, 4117.436, 0, 0, []
1629358071.0247, 31, 0, 4070.769, 4534.359, 4050.256, 4106.667, 4130.256, 0, 0, []
1629358071.0327, 32, 0, 4073.333, 4393.333, 4051.795, 4100, 4128.718, 0, 0, []
1629358071.0406, 33, 0, 4073.846, 4297.436, 4048.718, 4101.538, 4126.667, 0, 0, []
1629358071.0485, 34, 0, 4063.59, 4264.615, 4050.769, 4098.974, 4122.051, 0, 0, []
1629358071.0564, 35, 0, 4052.821, 4252.308, 4053.846, 4091.795, 4112.308, 0, 0, []
1629358071.0644, 36, 0, 4056.41, 4320.513, 4048.205, 4097.949, 4110.256, 0, 0, []
1629358071.0723, 37, 0, 4051.795, 4407.692, 4035.897, 4102.051, 4098.974, 0, 0, []
1629358071.0803, 38, 0, 4032.821, 4383.59, 4027.179, 4094.872, 4074.359, 0, 0, []
1629358071.0882, 39, 0, 4037.436, 4349.744, 4036.923, 4097.949, 4075.385, 0, 0, []
1629358071.0961, 40, 0, 4061.538, 4363.59, 4057.436, 4108.205, 4095.897, 0, 0, []
1629358071.104, 41, 0, 4073.333, 4326.154, 4071.795, 4113.846, 4105.641, 0, 0, []
1629358071.112, 42, 0, 4081.538, 4313.333, 4078.462, 4125.128, 4115.897, 0, 0, []
1629358071.12, 43, 0, 4090.769, 4426.667, 4074.359, 4128.205, 4127.179, 0, 0, []
1629358071.1278, 44, 0, 4086.154, 4573.333, 4068.205, 4119.487, 4125.641, 0, 0, []
1629358071.1358, 45, 0, 4079.487, 4595.897, 4071.795, 4121.026, 4122.564, 0, 0, []
1629358071.1437, 46, 0, 4090.256, 4508.718, 4069.744, 4128.205, 4126.667, 0, 0, []
1629358071.1517, 47, 0, 4093.333, 4497.436, 4061.026, 4123.077, 4127.179, 0, 0, []
1629358071.1596, 48, 0, 4082.564, 4506.667, 4061.538, 4117.949, 4121.538, 0, 0, []
1629358071.1675, 49, 0, 4082.051, 4421.026, 4065.128, 4116.923, 4114.872, 0, 0, []
1629358071.1754, 50, 0, 4085.641, 4397.436, 4064.615, 4114.359, 4110.769, 0, 0, []
1629358071.1834, 51, 0, 4080.513, 4457.949, 4057.949, 4106.667, 4107.179, 0, 0, []
1629358071.1913, 52, 0, 4081.026, 4442.564, 4048.205, 4102.051, 4105.641, 0, 0, []
1629358071.1993, 53, 0, 4101.538, 4345.641, 4056.41, 4120, 4132.821, 0, 0, []
1629358071.2071, 54, 0, 4116.41, 4251.795, 4070.256, 4140, 4156.923, 0, 0, []
1629358071.2151, 55, 0, 4109.744, 4225.641, 4074.359, 4140, 4145.128, 0, 0, []
1629358071.2231, 56, 0, 4110.769, 4237.436, 4081.026, 4141.538, 4145.128, 0, 0, []
1629358071.231, 57, 0, 4127.179, 4162.051, 4092.308, 4149.231, 4169.744, 0, 0, []
1629358071.239, 58, 0, 4134.872, 4043.59, 4092.308, 4145.641, 4173.333, 0, 0, []
1629358071.2468, 59, 0, 4125.641, 4000, 4081.538, 4134.359, 4164.615, 0, 0, []
1629358071.2547, 60, 0, 4113.846, 3912.308, 4075.897, 4128.205, 4166.667, 0, 0, []
1629358071.2627, 61, 0, 4108.718, 3769.744, 4078.462, 4125.128, 4164.615, 0, 0, []
1629358071.2706, 62, 0, 4120.513, 3825.128, 4086.667, 4132.821, 4177.949, 0, 0, []
1629358071.2786, 63, 0, 4131.282, 3991.282, 4096.923, 4145.128, 4201.538, 0, 0, []
1629358071.2865, 64, 0, 4121.026, 3956.41, 4094.359, 4142.051, 4203.59, 450, 0, []
1629358071.2944, 65, 0, 4115.385, 3866.667, 4092.308, 4136.923, 4196.923, 450, 0, []
1629358071.3024, 66, 0, 4119.487, 3945.128, 4093.846, 4138.462, 4200.513, 16188, 0, []
1629358071.3103, 67, 0, 4120, 4023.59, 4091.795, 4136.923, 4207.179, 450, 0, []
1629358071.3183, 68, 0, 4126.154, 4111.795, 4092.821, 4136.41, 4214.872, 16154, 0, []
1629358071.3261, 69, 0, 4137.949, 4333.333, 4094.359, 4143.59, 4225.641, 450, 0, []
1629358071.3341, 70, 0, 4142.051, 4451.282, 4097.436, 4152.308, 4228.205, 16154, 0, []
1629358071.342, 71, 0, 4137.949, 4408.205, 4089.744, 4147.692, 4223.077, 450, 0, []
1629358071.35, 72, 0, 4134.359, 4448.205, 4071.795, 4132.308, 4215.897, 450, 0, []
1629358071.3579, 73, 0, 4125.641, 4508.718, 4065.128, 4124.615, 4209.231, 16162, 0, []
1629358071.3658, 74, 0, 4110.256, 4442.564, 4059.487, 4121.538, 4200.513, 450, 0, []
1629358071.3738, 75, 0, 4106.154, 4374.359, 4053.333, 4118.462, 4198.462, 16196, 0, []
1629358071.3817, 76, 0, 4121.026, 4358.974, 4062.051, 4129.744, 4220, 450, 0, []
1629358071.3897, 77, 0, 4133.333, 4327.692, 4072.821, 4142.564, 4238.462, 450, 0, []
1629358071.3976, 78, 0, 4121.026, 4298.462, 4060, 4130.256, 4227.692, 450, 0, []
1629358071.4055, 79, 0, 4102.564, 4273.333, 4040.513, 4107.692, 4207.692, 16196, 0, []
1629358071.4134, 80, 0, 4106.667, 4285.128, 4044.103, 4109.744, 4210.769, 450, 0, []
1629358071.4214, 81, 0, 4117.949, 4408.718, 4048.718, 4121.026, 4224.103, 450, 0, []
1629358071.4294, 82, 0, 4124.103, 4546.154, 4050.769, 4122.564, 4231.282, 450, 0, []
1629358071.4373, 83, 0, 4129.231, 4581.538, 4063.59, 4127.179, 4237.949, 16196, 0, []
1629358071.4452, 84, 0, 4124.103, 4545.641, 4057.949, 4119.487, 4232.821, 450, 0, []
1629358071.4531, 85, 0, 4114.359, 4483.077, 4042.564, 4102.051, 4224.615, 450, 0, []
1629358071.4611, 86, 0, 4120.513, 4406.667, 4052.821, 4110.769, 4236.923, 450, 0, []
1629358071.469, 87, 0, 4130.256, 4390.256, 4063.077, 4127.179, 4249.231, 16196, 0, []
1629358071.477, 88, 0, 4126.154, 4441.026, 4055.897, 4116.923, 4243.077, 450, 0, []
1629358071.4848, 89, 0, 4127.179, 4490.256, 4054.872, 4108.205, 4239.487, 450, 0, []
1629358071.4928, 90, 0, 4140.513, 4500, 4069.744, 4120, 4247.179, 450, 0, []
1629358071.5007, 91, 0, 4151.795, 4476.41, 4079.487, 4128.718, 4255.385, 16196, 0, []
1629358071.5087, 92, 0, 4159.487, 4481.026, 4070.256, 4128.718, 4260.513, 450, 0, []
1629358071.5167, 93, 1, 4175.271, 4503.134, 4071.168, 4128.718, 4280.285, 450, 0, []
1629358071.5245, 94, 1, 4191.054, 4525.242, 4072.08, 4128.718, 4300.057, 450, 0, []
1629358071.5324, 95, 1, 4206.838, 4547.35, 4072.991, 4128.718, 4319.829, 450, 0, []
1629358071.5403, 96, 1, 4222.621, 4569.459, 4073.903, 4128.718, 4339.601, 450, 0, []
1629358071.5482, 97, 1, 4238.405, 4591.567, 4074.815, 4128.718, 4359.373, 450, 0, []
1629358071.5561, 98, 1, 4254.188, 4613.675, 4075.726, 4128.718, 4379.145, 450, 0, []
1629358071.5639, 99, 1, 4269.972, 4635.783, 4076.638, 4128.718, 4398.917, 450, 0, []
1629358071.5718, 100, 1, 4285.755, 4657.892, 4077.55, 4128.718, 4418.689, 450, 0, []
1629358071.5797, 101, 0, 4301.538, 4680, 4078.462, 4128.718, 4438.462, 450, 0, []
1629358071.5875, 102, 0, 4349.744, 4702.051, 4075.897, 4141.538, 4506.154, 450, 0, []
1629358071.5954, 103, 0, 4412.821, 4606.667, 4085.128, 4157.949, 4583.077, 16196, 0, []
1629358071.6032, 104, 0, 4461.538, 4523.077, 4086.154, 4161.538, 4641.538, 450, 0, []
1629358071.611, 105, 0, 4477.436, 4569.744, 4089.231, 4170.769, 4671.795, 450, 0, []
1629358071.6189, 106, 0, 4489.744, 4599.487, 4112.821, 4197.949, 4700, 450, 0, []
1629358071.6267, 107, 0, 4498.462, 4568.205, 4126.667, 4220, 4728.718, 16196, 0, []
1629358071.6345, 108, 0, 4490.256, 4657.436, 4126.154, 4224.103, 4732.308, 450, 0, []
1629358071.6424, 109, 0, 4468.205, 4751.795, 4126.667, 4217.949, 4713.846, 450, 0, []
1629358071.6501, 110, 0, 4445.128, 4707.692, 4124.103, 4212.821, 4698.462, 450, 0, []
1629358071.658, 111, 0, 4445.641, 4693.846, 4127.179, 4219.487, 4702.051, 16196, 0, []
1629358071.6658, 112, 0, 4456.41, 4660.513, 4121.026, 4216.41, 4702.564, 450, 0, []
1629358071.6737, 113, 0, 4453.333, 4458.974, 4112.308, 4213.846, 4694.359, 450, 0, []
1629358071.6815, 114, 0, 4457.949, 4306.667, 4128.718, 4242.051, 4709.231, 450, 0, []
1629358071.6893, 115, 0, 4475.385, 4390.769, 4144.103, 4267.179, 4733.333, 16196, 0, []
1629358071.6971, 116, 0, 4477.949, 4499.487, 4142.051, 4258.462, 4734.359, 450, 0, []
1629358071.705, 117, 0, 4476.923, 4515.897, 4137.436, 4243.077, 4730.769, 450, 0, []
1629358071.7128, 118, 0, 4482.051, 4540, 4145.128, 4238.462, 4735.897, 450, 0, []
1629358071.7207, 119, 0, 4493.846, 4577.436, 4158.462, 4242.564, 4742.051, 16196, 0, []
1629358071.7284, 120, 0, 4527.179, 4619.487, 4162.564, 4246.667, 4750.769, 450, 0, []
1629358071.7363, 121, 0, 4544.615, 4606.154, 4157.436, 4242.051, 4747.692, 450, 0, []
1629358071.7441, 122, 0, 4515.897, 4527.692, 4152.308, 4236.923, 4722.051, 450, 0, []
1629358071.752, 123, 0, 4476.41, 4460.513, 4150.256, 4231.282, 4690.256, 16196, 0, []
1629358071.7598, 124, 0, 4442.564, 4404.615, 4132.821, 4208.205, 4648.205, 450, 0, []
1629358071.7676, 125, 0, 4405.641, 4367.692, 4114.359, 4189.744, 4602.564, 450, 0, []
1629358071.7754, 126, 0, 4375.385, 4403.59, 4120.513, 4200, 4575.385, 450, 0, []
1629358071.7832, 127, 0, 4353.333, 4416.923, 4122.051, 4209.231, 4547.179, 16196, 0, []
1629358071.7911, 128, 0, 4318.974, 4343.077, 4111.282, 4195.897, 4493.846, 450, 0, []
1629358071.7989, 0, 0, 4284.615, 4363.077, 4115.385, 4185.128, 4444.615, 450, 0, []
1629358071.8067, 1, 0, 4257.949, 4404.103, 4120, 4181.026, 4406.154, 450, 0, []
1629358071.8145, 2, 0, 4214.872, 4294.872, 4102.564, 4161.538, 4345.641, 16185, 0, []
1629358071.8224, 3, 0, 4180, 4245.128, 4083.077, 4145.128, 4293.846, 450, 0, []
1629358071.8302, 4, 0, 4188.718, 4347.179, 4092.821, 4160, 4295.897, 16211, 0, []
1629358071.8381, 5, 0, 4201.026, 4409.744, 4119.487, 4181.026, 4307.179, 450, 0, []
1629358071.8458, 6, 0, 4180, 4382.051, 4121.538, 4170.256, 4281.026, 16154, 0, []
1629358071.8537, 7, 0, 4154.359, 4340.513, 4107.692, 4151.795, 4247.179, 450, 0, []
1629358071.8615, 8, 0, 4143.59, 4298.462, 4103.59, 4150.256, 4231.795, 450, 0, []
1629358071.8694, 9, 0, 4135.897, 4270.256, 4098.462, 4147.179, 4217.436, 16162, 0, []
1629358071.8772, 10, 0, 4133.846, 4271.795, 4097.436, 4141.026, 4206.154, 450, 0, []
1629358071.885, 11, 0, 4135.385, 4247.692, 4103.077, 4141.026, 4206.154, 16184, 0, []
1629358071.8928, 12, 0, 4135.897, 4154.359, 4110.769, 4141.026, 4204.103, 450, 0, []
1629358071.9007, 13, 0, 4136.923, 4089.231, 4110.769, 4141.026, 4196.923, 450, 0, []
1629358071.9085, 14, 0, 4134.359, 4133.333, 4103.077, 4138.462, 4195.897, 450, 0, []
1629358071.9164, 15, 0, 4136.41, 4216.923, 4101.538, 4133.846, 4199.487, 16184, 0, []
1629358071.9241, 16, 0, 4152.308, 4244.103, 4103.077, 4136.41, 4200.513, 0, 0, []
1629358071.932, 17, 0, 4175.897, 4141.026, 4113.333, 4153.333, 4217.436, 0, 0, []
1629358071.9398, 18, 0, 4200, 3930.769, 4126.154, 4167.179, 4243.077, 0, 0, []
1629358071.9476, 19, 0, 4210.769, 3835.385, 4124.103, 4161.026, 4250.256, 0, 0, []
1629358071.9555, 20, 0, 4211.282, 3975.385, 4128.718, 4155.385, 4252.308, 0, 0, []
1629358071.9632, 21, 0, 4205.641, 4155.897, 4132.308, 4156.923, 4252.821, 0, 0, []
1629358071.9711, 22, 0, 4192.308, 4175.897, 4106.667, 4149.231, 4228.718, 0, 0, []
1629358071.9789, 23, 0, 4188.718, 3982.564, 4081.026, 4143.077, 4207.692, 0, 0, []
1629358071.9868, 24, 0, 4200.513, 3791.282, 4090.769, 4156.41, 4217.949, 0, 0, []
1629358071.9946, 25, 0, 4207.692, 3781.538, 4111.282, 4161.026, 4225.641, 0, 0, []
1629358072.0024, 26, 0, 4194.359, 3762.051, 4103.077, 4130.769, 4205.128, 0, 0, []
1629358072.0102, 27, 0, 4178.462, 3640.513, 4088.718, 4101.538, 4188.205, 0, 0, []
1629358072.0181, 28, 0, 4176.923, 3686.154, 4091.795, 4104.103, 4189.231, 0, 0, []
1629358072.0259, 29, 0, 4183.077, 3888.718, 4093.333, 4123.59, 4186.154, 0, 0, []
1629358072.0338, 30, 0, 4185.128, 3957.949, 4097.949, 4139.487, 4179.487, 0, 0, []
1629358072.0415, 31, 0, 4189.231, 3934.359, 4114.359, 4150.769, 4189.231, 0, 0, []
1629358072.0494, 32, 0, 4206.154, 3969.231, 4130.769, 4160.513, 4205.128, 0, 0, []
1629358072.0572, 33, 0, 4204.103, 4024.103, 4130.769, 4146.154, 4194.872, 0, 0, []
1629358072.0651, 34, 0, 4175.385, 4051.795, 4101.538, 4101.026, 4163.59, 0, 0, []
1629358072.0729, 35, 0, 4151.795, 4063.077, 4061.538, 4068.718, 4141.026, 0, 0, []
1629358072.0807, 36, 0, 4150.256, 4055.897, 4045.641, 4080.513, 4134.359, 0, 0, []
1629358072.0885, 37, 0, 4158.974, 3997.949, 4063.077, 4109.744, 4138.974, 0, 0, []
1629358072.0963, 38, 0, 4166.667, 3944.103, 4100.513, 4136.41, 4154.359, 0, 0, []
1629358072.1042, 39, 0, 4177.436, 3929.744, 4136.923, 4161.538, 4167.179, 0, 0, []
1629358072.112, 40, 0, 4181.026, 3946.154, 4147.179, 4165.641, 4166.154, 0, 0, []
1629358072.1198, 41, 0, 4168.205, 3953.333, 4121.026, 4143.59, 4152.821, 0, 0, []
1629358072.1276, 42, 0, 4159.487, 3927.179, 4100, 4131.282, 4143.59, 0, 0, []
1629358072.1355, 43, 0, 4158.974, 3928.205, 4102.564, 4133.333, 4143.077, 0, 0, []
1629358072.1433, 44, 0, 4144.103, 4069.231, 4095.385, 4122.051, 4130.256, 0, 0, []
1629358072.1512, 45, 0, 4134.872, 4247.179, 4093.333, 4115.897, 4125.641, 0, 0, []
1629358072.1589, 46, 0, 4148.718, 4311.795, 4108.205, 4131.282, 4144.103, 0, 0, []
1629358072.1668, 47, 0, 4153.846, 4318.974, 4111.282, 4133.846, 4147.179, 0, 0, []
1629358072.1746, 48, 0, 4151.795, 4334.872, 4105.641, 4125.641, 4139.487, 0, 0, []
1629358072.1825, 49, 0, 4158.462, 4235.897, 4100, 4126.667, 4147.179, 0, 0, []
1629358072.1903, 50, 0, 4145.641, 4039.487, 4093.333, 4129.231, 4142.564, 0, 0, []
1629358072.1981, 51, 0, 4127.692, 4014.872, 4084.615, 4122.051, 4121.538, 0, 0, []
1629358072.2059, 52, 0, 4132.821, 4188.205, 4076.41, 4115.897, 4110.769, 0, 0, []
1629358072.2138, 53, 0, 4128.718, 4331.795, 4074.359, 4114.872, 4092.821, 0, 0, []
1629358072.2216, 54, 0, 4110.256, 4337.436, 4075.385, 4115.385, 4070.256, 0, 0, []
1629358072.2295, 55, 0, 4114.872, 4323.59, 4077.436, 4123.077, 4073.846, 0, 0, []
1629358072.2373, 56, 0, 4124.103, 4378.462, 4077.436, 4126.154, 4085.641, 0, 0, []
1629358072.245, 57, 0, 4117.949, 4380, 4076.923, 4119.487, 4086.154, 0, 0, []
1629358072.2529, 58, 0, 4118.974, 4387.692, 4085.641, 4121.026, 4089.231, 0, 0, []
1629358072.2607, 59, 0, 4124.103, 4465.128, 4091.795, 4130.769, 4096.41, 0, 0, []
1629358072.2686, 60, 0, 4123.077, 4464.615, 4092.821, 4138.462, 4104.615, 0, 0, []
1629358072.2764, 61, 0, 4123.59, 4392.821, 4095.385, 4141.026, 4108.205, 0, 0, []
1629358072.2842, 62, 0, 4124.615, 4408.718, 4093.333, 4137.949, 4104.615, 0, 0, []
1629358072.292, 63, 0, 4126.154, 4432.308, 4098.974, 4137.436, 4107.179, 0, 0, []
1629358072.2999, 64, 0, 4124.615, 4336.41, 4104.103, 4137.436, 4107.692, 450, 0, []
1629358072.3077, 65, 0, 4118.462, 4280, 4096.41, 4124.103, 4093.333, 450, 0, []
1629358072.3156, 66, 0, 4128.205, 4323.077, 4096.41, 4116.923, 4094.359, 16185, 0, []
1629358072.3233, 67, 0, 4147.692, 4301.026, 4107.692, 4129.231, 4117.436, 450, 0, []
1629358072.3312, 68, 0, 4150.769, 4295.385, 4113.333, 4134.359, 4123.077, 16175, 0, []
1629358072.339, 69, 0, 4140.513, 4466.154, 4101.026, 4127.179, 4107.692, 450, 0, []
1629358072.3469, 70, 0, 4137.949, 4601.538, 4088.718, 4128.205, 4101.026, 16154, 0, []
1629358072.3547, 71, 0, 4146.667, 4513.846, 4094.359, 4143.59, 4113.333, 450, 0, []
1629358072.3625, 72, 0, 4151.795, 4430.769, 4101.026, 4150.256, 4124.103, 450, 0, []
1629358072.3703, 73, 0, 4150.256, 4465.128, 4098.974, 4140.513, 4122.051, 16162, 0, []
1629358072.3782, 74, 0, 4153.846, 4389.744, 4095.385, 4131.282, 4121.538, 450, 0, []
1629358072.386, 75, 0, 4165.641, 4209.231, 4104.615, 4134.359, 4132.308, 16190, 0, []
1629358072.3939, 76, 0, 4179.487, 4190.256, 4118.974, 4148.205, 4147.179, 450, 0, []
1629358072.4016, 77, 0, 4188.205, 4314.359, 4115.897, 4153.333, 4152.308, 450, 0, []
1629358072.4094, 78, 0, 4186.667, 4311.795, 4106.667, 4139.487, 4149.231, 450, 0, []
1629358072.4173, 79, 0, 4176.41, 4177.949, 4097.949, 4122.564, 4140.513, 16190, 0, []
1629358072.4251, 80, 0, 4168.718, 4069.744, 4087.179, 4113.333, 4129.744, 450, 0, []
1629358072.433, 81, 0, 4167.692, 4013.333, 4079.487, 4112.821, 4127.692, 450, 0, []
1629358072.4407, 82, 0, 4171.795, 4023.59, 4076.41, 4115.897, 4133.333, 450, 0, []
1629358072.4486, 83, 0, 4183.59, 4131.282, 4084.615, 4124.103, 4138.974, 16190, 0, []
1629358072.4564, 84, 0, 4188.205, 4208.718, 4092.308, 4133.333, 4144.615, 450, 0, []
1629358072.4643, 85, 0, 4183.077, 4189.231, 4084.103, 4132.821, 4148.205, 450, 0, []
1629358072.4721, 86, 0, 4187.692, 4212.821, 4085.641, 4135.385, 4151.795, 450, 0, []
1629358072.4799, 87, 0, 4198.974, 4363.59, 4096.41, 4143.077, 4160.513, 16190, 0, []
1629358072.4877, 88, 0, 4202.051, 4530.256, 4092.821, 4144.615, 4171.282, 450, 0, []
1629358072.4956, 89, 0, 4205.641, 4544.103, 4087.692, 4142.051, 4171.282, 450, 0, []
1629358072.5034, 90, 0, 4212.308, 4448.205, 4095.385, 4146.154, 4172.308, 450, 0, []
1629358072.5113, 91, 0, 4217.949, 4404.103, 4100.513, 4156.41, 4187.179, 16190, 0, []
1629358072.519, 92, 0, 4224.615, 4330.256, 4091.795, 4156.923, 4195.385, 450, 0, []
1629358072.5269, 93, 0, 4234.872, 4209.231, 4095.897, 4150.256, 4190.769, 450, 0, []
1629358072.5347, 94, 0, 4232.821, 4194.872, 4101.026, 4149.231, 4187.692, 450, 0, []
1629358072.5426, 95, 0, 4221.026, 4137.436, 4082.051, 4145.128, 4187.179, 16190, 0, []
1629358072.5504, 96, 0, 4213.333, 3925.128, 4066.667, 4131.795, 4176.923, 450, 0, []
1629358072.5581, 97, 0, 4208.718, 3882.051, 4069.231, 4117.436, 4164.103, 450, 0, []
1629358072.566, 98, 0, 4217.949, 4046.667, 4077.436, 4120.513, 4173.333, 450, 0, []
1629358072.5738, 99, 0, 4239.487, 4104.103, 4080, 4133.846, 4199.487, 16190, 0, []
1629358072.5817, 100, 0, 4250.256, 4134.359, 4083.077, 4138.462, 4212.821, 450, 0, []
1629358072.5895, 101, 0, 4249.231, 4203.077, 4098.462, 4146.154, 4215.385, 450, 0, []
1629358072.5973, 102, 0, 4254.359, 4167.179, 4105.128, 4156.41, 4221.026, 450, 0, []
1629358072.6051, 103, 0, 4262.051, 4176.923, 4097.949, 4154.872, 4230.769, 16190, 0, []
1629358072.613, 104, 0, 4265.128, 4206.667, 4094.872, 4143.59, 4233.333, 450, 0, []
1629358072.6209, 105, 0, 4264.103, 4077.436, 4092.308, 4133.846, 4224.615, 450, 0, []
1629358072.6287, 106, 0, 4268.718, 4021.026, 4093.846, 4135.385, 4231.795, 450, 0, []
1629358072.6364, 107, 0, 4298.974, 4116.41, 4103.077, 4145.128, 4270.769, 16190, 0, []
1629358072.6443, 108, 0, 4345.641, 4092.821, 4106.154, 4148.205, 4318.462, 450, 0, []
1629358072.6521, 109, 0, 4390.769, 4052.308, 4100, 4141.026, 4367.692, 450, 0, []
1629358072.66, 110, 0, 4440, 4190.256, 4097.436, 4135.897, 4421.538, 450, 0, []
1629358072.6678, 111, 0, 4503.077, 4264.615, 4103.59, 4131.795, 4474.359, 16190, 0, []
1629358072.6756, 112, 0, 4560, 4174.359, 4098.974, 4132.821, 4523.077, 450, 0, []
1629358072.6834, 113, 0, 4590.769, 4134.872, 4090.256, 4142.564, 4558.974, 450, 0, []
1629358072.6913, 114, 0, 4608.718, 4201.026, 4107.692, 4159.487, 4585.128, 450, 0, []
1629358072.6991, 115, 0, 4620, 4213.333, 4124.103, 4168.718, 4602.564, 16190, 0, []
1629358072.7069, 116, 0, 4614.872, 4125.128, 4117.949, 4167.179, 4605.641, 450, 0, []
1629358072.7147, 117, 0, 4591.282, 4069.744, 4107.179, 4163.59, 4595.385, 450, 0, []
1629358072.7225, 118, 0, 4564.615, 4167.179, 4103.077, 4157.949, 4577.436, 450, 0, []
1629358072.7304, 119, 0, 4550.769, 4345.128, 4109.744, 4151.795, 4556.923, 16190, 0, []
1629358072.7382, 120, 0, 4545.641, 4405.128, 4123.59, 4147.179, 4552.821, 450, 0, []
1629358072.7461, 121, 0, 4550.769, 4272.308, 4128.205, 4151.795, 4574.872, 450, 0, []
1629358072.7538, 122, 0, 4565.128, 4063.077, 4123.59, 4153.333, 4589.231, 450, 0, []
1629358072.7617, 123, 0, 4592.821, 3960, 4128.205, 4148.205, 4601.026, 16190, 0, []
1629358072.7695, 124, 0, 4630.256, 3998.974, 4137.949, 4155.385, 4630.769, 450, 0, []
1629358072.7774, 125, 0, 4648.205, 4041.026, 4133.333, 4158.974, 4648.205, 450, 0, []
1629358072.7852, 126, 0, 4649.744, 4010.256, 4137.949, 4158.462, 4651.795, 450, 0, []
1629358072.793, 127, 0, 4660.513, 3986.154, 4158.974, 4172.308, 4670.769, 16190, 0, []
1629358072.8008, 128, 0, 4678.974, 4078.974, 4165.128, 4187.179, 4685.128, 450, 0, []
1629358072.8087, 0, 0, 4683.59, 4168.205, 4156.41, 4187.179, 4682.051, 450, 0, []
1629358072.8165, 1, 0, 4668.205, 4142.051, 4149.744, 4182.051, 4680.513, 450, 0, []
1629358072.8244, 2, 0, 4640, 4130.256, 4150.769, 4176.923, 4667.179, 16184, 0, []
1629358072.8322, 3, 0, 4614.359, 4090.769, 4152.308, 4169.744, 4638.462, 450, 0, []
1629358072.84, 4, 0, 4609.231, 4003.59, 4139.487, 4166.667, 4622.564, 16201, 0, []
1629358072.8478, 5, 0, 4601.538, 4031.282, 4128.718, 4170.256, 4618.462, 450, 0, []
1629358072.8557, 6, 0, 4583.59, 4131.282, 4135.897, 4173.846, 4613.846, 16154, 0, []
1629358072.8635, 7, 0, 4583.59, 4150.256, 4151.795, 4175.897, 4618.462, 450, 0, []
1629358072.8713, 8, 0, 4584.615, 4156.923, 4152.308, 4173.333, 4619.487, 450, 0, []
1629358072.8791, 9, 0, 4567.692, 4123.59, 4135.385, 4160.513, 4602.564, 16163, 0, []
1629358072.8869, 10, 0, 4565.641, 3973.846, 4136.923, 4154.359, 4594.872, 450, 0, []
1629358072.8948, 11, 0, 4588.205, 3897.436, 4154.872, 4160.513, 4604.615, 16192, 0, []
1629358072.9026, 12, 0, 4593.333, 3986.667, 4148.205, 4157.949, 4607.179, 450, 0, []
1629358072.9105, 13, 0, 4572.821, 4073.846, 4130.256, 4149.744, 4598.974, 450, 0, []
1629358072.9182, 14, 0, 4571.795, 4090.769, 4133.333, 4156.41, 4598.462, 450, 0, []
1629358072.9261, 15, 0, 4592.821, 4124.615, 4147.179, 4165.128, 4602.564, 16192, 0, []
1629358072.9339, 16, 0, 4600, 4161.538, 4149.231, 4162.051, 4606.154, 0, 0, []
1629358072.9418, 17, 0, 4588.718, 4120.513, 4150.256, 4167.179, 4607.179, 0, 0, []
1629358072.9496, 18, 0, 4575.385, 4075.385, 4152.821, 4173.846, 4597.949, 0, 0, []
1629358072.9574, 19, 0, 4568.205, 4021.026, 4141.538, 4165.128, 4580, 0, 0, []
1629358072.9652, 20, 0, 4568.718, 3934.359, 4140.513, 4164.103, 4574.359, 0, 0, []
1629358072.9731, 21, 0, 4573.846, 3993.846, 4157.949, 4175.897, 4583.59, 0, 0, []
1629358072.9809, 22, 0, 4563.077, 4116.923, 4163.59, 4170.256, 4580.513, 0, 0, []
1629358072.9888, 23, 0, 4544.615, 4111.795, 4154.359, 4158.974, 4565.128, 0, 0, []
1629358072.9965, 24, 0, 4532.821, 4168.718, 4148.205, 4156.923, 4551.282, 0, 0, []
1629358073.0044, 25, 0, 4521.538, 4332.308, 4151.282, 4147.179, 4533.333, 0, 0, []
1629358073.0122, 26, 0, 4518.462, 4322.564, 4148.718, 4138.974, 4520.513, 0, 0, []
1629358073.02, 27, 0, 4523.077, 4172.308, 4148.205, 4158.974, 4533.846, 0, 0, []
1629358073.0279, 28, 0, 4513.333, 4088.205, 4156.923, 4178.974, 4540.513, 0, 0, []
1629358073.0356, 29, 0, 4499.487, 4076.923, 4153.333, 4167.179, 4522.051, 0, 0, []
1629358073.0435, 30, 0, 4502.564, 4133.333, 4137.949, 4154.359, 4517.436, 0, 0, []
1629358073.0513, 31, 0, 4495.385, 4170.256, 4134.872, 4154.359, 4515.385, 0, 0, []
1629358073.0592, 32, 0, 4478.974, 4144.103, 4140.513, 4149.744, 4505.128, 0, 0, []
1629358073.067, 33, 0, 4496.923, 4153.846, 4146.154, 4155.897, 4519.487, 0, 0, []
1629358073.0748, 34, 0, 4531.282, 4152.821, 4150.769, 4169.744, 4547.692, 0, 0, []
1629358073.0826, 35, 0, 4546.667, 4128.718, 4153.333, 4167.179, 4562.051, 0, 0, []
1629358073.0905, 36, 0, 4561.026, 4154.359, 4160.513, 4163.59, 4572.308, 0, 0, []
1629358073.0983, 37, 0, 4576.923, 4126.667, 4158.974, 4172.821, 4581.538, 0, 0, []
1629358073.1062, 38, 0, 4572.821, 4050.256, 4146.667, 4172.821, 4581.026, 0, 0, []
1629358073.1139, 39, 0, 4566.667, 4172.821, 4144.615, 4164.103, 4584.103, 0, 0, []
1629358073.1218, 40, 0, 4574.359, 4283.59, 4157.949, 4170.769, 4590.256, 0, 0, []
1629358073.1296, 41, 0, 4573.333, 4083.077, 4163.077, 4173.333, 4587.692, 0, 0, []
1629358073.1375, 42, 0, 4567.179, 3985.641, 4154.872, 4156.41, 4581.026, 0, 0, []
1629358073.1453, 43, 0, 4581.026, 4173.333, 4162.564, 4156.41, 4584.615, 0, 0, []
1629358073.153, 44, 0, 4592.821, 4235.385, 4169.231, 4174.872, 4594.359, 0, 0, []
1629358073.1609, 45, 0, 4572.308, 4152.821, 4151.795, 4169.231, 4584.615, 0, 0, []
1629358073.1687, 46, 0, 4559.487, 4174.359, 4138.462, 4155.897, 4572.308, 0, 0, []
1629358073.1766, 47, 0, 4584.103, 4279.487, 4147.179, 4170.256, 4593.333, 0, 0, []
1629358073.1844, 48, 0, 4596.41, 4420, 4165.641, 4182.051, 4610.256, 0, 0, []
1629358073.1922, 49, 0, 4571.795, 4534.359, 4165.641, 4160.513, 4582.051, 0, 0, []
1629358073.2, 50, 0, 4545.641, 4443.59, 4152.308, 4133.846, 4540, 0, 0, []
1629358073.2079, 51, 0, 4529.231, 4350.256, 4149.231, 4134.872, 4514.872, 0, 0, []
1629358073.2157, 52, 0, 4502.051, 4458.974, 4141.026, 4140, 4490.256, 0, 0, []
1629358073.2236, 53, 0, 4477.949, 4524.103, 4131.795, 4136.923, 4471.282, 0, 0, []
1629358073.2313, 54, 0, 4481.026, 4491.282, 4137.436, 4146.667, 4479.487, 0, 0, []
1629358073.2392, 55, 0, 4488.718, 4500.513, 4143.077, 4151.282, 4492.308, 0, 0, []
1629358073.247, 56, 0, 4484.103, 4498.462, 4142.051, 4128.718, 4492.308, 0, 0, []
1629358073.2549, 57, 0, 4486.667, 4476.41, 4142.564, 4106.154, 4486.154, 0, 0, []
1629358073.2627, 58, 0, 4493.846, 4495.897, 4141.538, 4103.077, 4476.41, 0, 0, []
1629358073.2705, 59, 0, 4480, 4509.231, 4127.692, 4110.769, 4464.615, 0, 0, []
1629358073.2783, 60, 0, 4472.821, 4523.59, 4122.051, 4123.59, 4457.949, 0, 0, []
1629358073.2862, 61, 0, 4498.462, 4490.769, 4140, 4139.487, 4469.231, 0, 0, []
1629358073.294, 62, 0, 4508.205, 4359.487, 4151.795, 4148.205, 4479.487, 0, 0, []
1629358073.3018, 63, 0, 4485.641, 4222.051, 4148.205, 4141.026, 4465.641, 0, 0, []
1629358073.3096, 64, 0, 4468.205, 4164.615, 4143.59, 4122.564, 4436.923, 450, 0, []
1629358073.3175, 65, 0, 4462.564, 4186.154, 4142.564, 4116.41, 4424.615, 450, 0, []
1629358073.3253, 66, 0, 4459.487, 4254.359, 4149.231, 4127.179, 4430.256, 16182, 0, []
1629358073.3331, 67, 0, 4464.103, 4305.641, 4149.231, 4127.179, 4429.744, 450, 0, []
1629358073.341, 68, 0, 4470.256, 4298.462, 4143.59, 4120.513, 4425.641, 16169, 0, []
1629358073.3487, 69, 0, 4474.359, 4346.667, 4153.333, 4122.051, 4428.205, 450, 0, []
1629358073.3566, 70, 0, 4477.436, 4413.333, 4163.077, 4124.103, 4424.615, 16154, 0, []
1629358073.3644, 71, 0, 4469.744, 4333.846, 4153.333, 4124.615, 4409.231, 450, 0, []
1629358073.3723, 72, 0, 4457.436, 4252.308, 4133.846, 4121.538, 4396.923, 450, 0, []
1629358073.3801, 73, 0, 4457.949, 4324.615, 4131.282, 4112.308, 4396.923, 16164, 0, []
1629358073.3879, 74, 0, 4468.205, 4413.846, 4150.256, 4112.821, 4403.59, 450, 0, []
1629358073.3957, 75, 0, 4480.513, 4382.564, 4166.154, 4118.462, 4410.769, 16192, 0, []
1629358073.4036, 76, 0, 4485.641, 4277.949, 4178.462, 4123.077, 4416.41, 450, 0, []
1629358073.4114, 77, 0, 4476.923, 4165.128, 4183.59, 4132.308, 4411.282, 450, 0, []
1629358073.4193, 78, 0, 4467.692, 4108.718, 4165.641, 4128.205, 4389.231, 450, 0, []
1629358073.4271, 79, 0, 4463.59, 4071.282, 4138.974, 4110.769, 4371.795, 16192, 0, []
1629358073.4349, 80, 0, 4453.333, 4025.128, 4131.282, 4101.538, 4371.282, 450, 0, []
1629358073.4427, 81, 0, 4437.436, 4071.282, 4140, 4095.897, 4366.667, 450, 0, []
1629358073.4505, 82, 0, 4429.744, 4135.897, 4143.59, 4083.59, 4354.359, 450, 0, []
1629358073.4584, 83, 0, 4426.154, 4143.077, 4144.103, 4089.744, 4346.667, 16192, 0, []
1629358073.4662, 84, 0, 4423.077, 4140, 4152.308, 4113.846, 4343.59, 450, 0, []
1629358073.474, 85, 0, 4424.103, 4114.872, 4164.615, 4128.205, 4340.513, 450, 0, []
1629358073.4818, 86, 0, 4414.872, 4174.872, 4172.308, 4124.615, 4321.538, 450, 0, []
1629358073.4897, 87, 0, 4388.205, 4367.692, 4156.41, 4104.615, 4287.692, 16192, 0, []
1629358073.4975, 88, 0, 4372.821, 4411.795, 4135.897, 4088.718, 4275.897, 450, 0, []
1629358073.5054, 89, 0, 4377.949, 4254.872, 4134.359, 4097.949, 4285.641, 450, 0, []
1629358073.5131, 90, 0, 4386.667, 4180, 4131.282, 4107.179, 4285.641, 450, 0, []
1629358073.521, 91, 0, 4398.462, 4215.897, 4134.359, 4108.205, 4292.821, 16192, 0, []
1629358073.5288, 92, 0, 4412.821, 4248.205, 4154.359, 4118.462, 4315.897, 450, 0, []
1629358073.5367, 93, 0, 4417.949, 4221.538, 4154.872, 4122.051, 4315.385, 450, 0, []
1629358073.5445, 94, 0, 4422.051, 4147.179, 4144.615, 4115.897, 4301.026, 450, 0, []
1629358073.5523, 95, 0, 4425.641, 4155.385, 4156.41, 4121.026, 4305.128, 16192, 0, []
1629358073.5601, 96, 0, 4417.949, 4221.026, 4167.179, 4125.128, 4307.179, 450, 0, []
1629358073.568, 97, 0, 4417.436, 4145.641, 4162.564, 4125.641, 4300.513, 450, 0, []
1629358073.5758, 98, 0, 4431.282, 4038.974, 4169.744, 4134.872, 4305.128, 450, 0, []
1629358073.5837, 99, 0, 4426.667, 4127.692, 4192.308, 4134.359, 4302.564, 16192, 0, []
1629358073.5914, 100, 0, 4392.821, 4227.692, 4191.282, 4113.333, 4273.333, 450, 0, []
1629358073.5993, 101, 0, 4361.538, 4246.667, 4168.718, 4098.462, 4237.949, 450, 0, []
1629358073.6072, 102, 0, 4355.385, 4331.795, 4151.282, 4093.846, 4219.487, 450, 0, []
1629358073.6151, 103, 0, 4358.974, 4395.385, 4132.308, 4086.667, 4211.282, 16192, 0, []
1629358073.623, 104, 0, 4363.59, 4328.718, 4125.128, 4093.333, 4215.385, 450, 0, []
1629358073.6307, 105, 0, 4370.256, 4215.897, 4142.051, 4115.897, 4228.718, 450, 0, []
1629358073.6387, 106, 0, 4367.692, 4158.462, 4154.872, 4120, 4226.154, 450, 0, []
1629358073.6466, 107, 0, 4353.333, 4159.487, 4150.256, 4109.744, 4208.718, 16192, 0, []
1629358073.6545, 108, 0, 4346.667, 4133.333, 4155.897, 4110.256, 4204.615, 450, 0, []
1629358073.6623, 109, 0, 4349.744, 4082.051, 4180.513, 4113.333, 4207.692, 450, 0, []
1629358073.6701, 110, 0, 4330.256, 4074.872, 4182.564, 4100, 4184.615, 450, 0, []
1629358073.6779, 111, 0, 4295.897, 4122.051, 4168.205, 4087.179, 4151.795, 16192, 0, []
1629358073.6858, 112, 0, 4289.231, 4133.333, 4164.615, 4095.385, 4146.667, 450, 0, []
1629358073.6936, 113, 0, 4302.051, 4105.128, 4153.333, 4109.231, 4149.231, 450, 0, []
1629358073.7015, 114, 0, 4299.487, 4136.923, 4137.949, 4110.256, 4141.538, 450, 0, []
1629358073.7092, 115, 0, 4292.308, 4217.949, 4136.923, 4102.051, 4134.359, 16192, 0, []
1629358073.7171, 116, 0, 4298.974, 4231.282, 4142.051, 4100.513, 4141.538, 450, 0, []
1629358073.7249, 117, 0, 4302.051, 4155.385, 4150.769, 4109.744, 4155.385, 450, 0, []
1629358073.7328, 118, 0, 4295.385, 4116.923, 4156.923, 4110.256, 4153.846, 450, 0, []
1629358073.7406, 119, 0, 4291.795, 4092.821, 4147.692, 4096.41, 4137.436, 16192, 0, []
1629358073.7484, 120, 0, 4297.949, 4045.641, 4137.436, 4092.308, 4137.436, 450, 0, []
1629358073.7562, 121, 0, 4314.872, 4032.821, 4150.256, 4107.179, 4163.59, 450, 0, []
1629358073.7641, 122, 0, 4327.692, 3995.385, 4159.487, 4117.436, 4176.41, 450, 0, []
1629358073.7719, 123, 0, 4329.744, 3939.487, 4140.513, 4114.359, 4170.256, 16192, 0, []
1629358073.7798, 124, 0, 4339.487, 3905.641, 4131.282, 4119.487, 4184.615, 450, 0, []
1629358073.7875, 125, 0, 4362.051, 3937.436, 4141.538, 4132.821, 4213.846, 450, 0, []
1629358073.7953, 126, 0, 4374.359, 4094.872, 4149.231, 4139.487, 4221.538, 450, 0, []
1629358073.8032, 127, 0, 4371.282, 4190.769, 4162.564, 4142.051, 4218.974, 16192, 0, []
1629358073.811, 128, 0, 4358.974, 4098.462, 4173.333, 4139.487, 4216.41, 450, 0, []
1629358073.8189, 0, 0, 4344.615, 4070.769, 4173.333, 4134.359, 4202.051, 450, 0, []
1629358073.8266, 1, 0, 4336.923, 4193.846, 4168.718, 4129.231, 4188.718, 450, 0, []
1629358073.8345, 2, 0, 4325.641, 4228.718, 4159.487, 4122.564, 4182.051, 16182, 0, []
1629358073.8423, 3, 0, 4305.641, 4165.641, 4154.872, 4121.538, 4167.692, 450, 0, []
1629358073.8502, 4, 0, 4293.333, 4165.128, 4155.897, 4119.487, 4151.282, 16179, 0, []
1629358073.858, 5, 0, 4292.308, 4212.308, 4161.538, 4121.026, 4157.436, 450, 0, []
1629358073.8658, 6, 0, 4282.051, 4222.564, 4163.59, 4136.41, 4164.103, 16154, 0, []
1629358073.8736, 7, 0, 4258.974, 4222.564, 4134.872, 4136.41, 4141.026, 450, 0, []
1629358073.8815, 8, 0, 4244.615, 4273.846, 4102.051, 4120.513, 4123.59, 450, 0, []
1629358073.8893, 9, 0, 4246.154, 4328.205, 4109.744, 4128.718, 4141.026, 16164, 0, []
1629358073.8972, 10, 0, 4245.128, 4321.026, 4138.462, 4147.179, 4152.821, 450, 0, []
1629358073.9049, 11, 0, 4244.615, 4330.769, 4161.026, 4143.59, 4144.103, 16192, 0, []
1629358073.9128, 12, 0, 4258.462, 4328.718, 4183.077, 4136.41, 4144.615, 450, 0, []
1629358073.9206, 13, 0, 4267.692, 4267.179, 4191.795, 4139.487, 4157.436, 450, 0, []
1629358073.9284, 14, 0, 4255.385, 4333.333, 4163.59, 4137.436, 4154.359, 450, 0, []
1629358073.9363, 15, 0, 4242.564, 4401.026, 4120, 4128.718, 4141.026, 16192, 0, []
1629358073.944, 16, 0, 4237.949, 4216.923, 4096.41, 4126.667, 4137.436, 0, 0, []
1629358073.9519, 17, 0, 4228.718, 4144.103, 4102.051, 4129.231, 4136.41, 0, 0, []
1629358073.9597, 18, 0, 4226.154, 4370.256, 4132.821, 4136.41, 4135.897, 0, 0, []
1629358073.9676, 19, 0, 4236.923, 4434.872, 4158.462, 4151.282, 4141.538, 0, 0, []
1629358073.9754, 20, 0, 4245.641, 4329.744, 4164.615, 4168.205, 4156.923, 0, 0, []
1629358073.9832, 21, 0, 4249.231, 4418.462, 4166.154, 4177.436, 4171.795, 0, 0, []
1629358073.991, 22, 0, 4249.231, 4475.897, 4160.513, 4171.282, 4170.256, 0, 0, []
1629358073.9989, 23, 0, 4251.282, 4321.538, 4151.795, 4159.487, 4161.538, 0, 0, []
1629358074.0067, 24, 0, 4250.256, 4309.744, 4147.692, 4152.308, 4153.333, 0, 0, []
1629358074.0146, 25, 0, 4234.359, 4433.333, 4140, 4146.667, 4142.564, 0, 0, []
1629358074.0224, 26, 0, 4217.949, 4373.333, 4122.051, 4133.333, 4125.641, 0, 0, []
1629358074.0302, 27, 0, 4215.897, 4232.308, 4106.154, 4117.436, 4122.564, 0, 0, []
1629358074.038, 28, 0, 4215.897, 4256.41, 4110.256, 4117.949, 4130.769, 0, 0, []
1629358074.0459, 29, 0, 4218.974, 4323.59, 4121.026, 4128.718, 4139.487, 0, 0, []
1629358074.0537, 30, 0, 4243.077, 4280.513, 4126.154, 4135.897, 4155.897, 0, 0, []
1629358074.0616, 31, 0, 4266.667, 4254.359, 4138.462, 4146.154, 4176.41, 0, 0, []
1629358074.0693, 32, 0, 4261.026, 4314.872, 4147.692, 4156.41, 4179.487, 0, 0, []
1629358074.0771, 33, 0, 4250.769, 4326.154, 4148.718, 4152.821, 4170.256, 0, 0, []
1629358074.085, 34, 0, 4249.744, 4278.974, 4151.795, 4145.641, 4162.564, 0, 0, []
1629358074.0929, 35, 0, 4235.897, 4189.231, 4143.077, 4135.897, 4143.59, 0, 0, []
1629358074.1007, 36, 0, 4220, 4077.436, 4129.231, 4132.308, 4132.821, 0, 0, []
1629358074.1084, 37, 0, 4210.769, 4052.821, 4126.154, 4138.974, 4138.974, 0, 0, []
1629358074.1163, 38, 0, 4192.308, 4084.615, 4120.513, 4135.897, 4127.179, 0, 0, []
1629358074.1241, 39, 0, 4171.795, 4057.436, 4103.077, 4118.974, 4103.59, 0, 0, []
1629358074.132, 40, 0, 4170.256, 4035.385, 4093.333, 4114.359, 4098.974, 0, 0, []
1629358074.1398, 41, 0, 4178.462, 4072.308, 4106.154, 4129.231, 4108.205, 0, 0, []
1629358074.1476, 42, 0, 4182.051, 4091.795, 4120.513, 4148.205, 4114.359, 0, 0, []
1629358074.1554, 43, 0, 4193.846, 4094.359, 4130.769, 4158.462, 4124.615, 0, 0, []
1629358074.1633, 44, 0, 4203.077, 4045.128, 4135.897, 4153.333, 4130.769, 0, 0, []
1629358074.1711, 45, 0, 4198.462, 3974.872, 4132.308, 4144.615, 4124.615, 0, 0, []
1629358074.179, 46, 0, 4192.821, 4040, 4133.333, 4140, 4120, 0, 0, []
1629358074.1867, 47, 0, 4188.718, 4076.923, 4122.564, 4128.205, 4115.385, 0, 0, []
1629358074.1946, 48, 0, 4172.308, 3853.846, 4095.897, 4111.795, 4102.051, 0, 0, []
1629358074.2024, 49, 0, 4165.128, 3665.641, 4084.103, 4104.103, 4093.846, 0, 0, []
1629358074.2103, 50, 0, 4177.436, 3747.692, 4094.359, 4106.667, 4101.026, 0, 0, []
1629358074.2181, 51, 0, 4176.41, 3744.103, 4104.103, 4108.718, 4106.154, 0, 0, []
1629358074.2259, 52, 0, 4170.256, 3689.744, 4103.59, 4110.769, 4107.692, 0, 0, []
1629358074.2337, 53, 0, 4183.59, 3889.231, 4110.256, 4127.179, 4120, 0, 0, []
1629358074.2416, 54, 0, 4192.308, 4055.897, 4125.641, 4148.718, 4128.718, 0, 0, []
1629358074.2494, 55, 0, 4173.846, 3940, 4122.564, 4142.564, 4111.282, 0, 0, []
1629358074.2572, 56, 0, 4156.41, 3858.974, 4099.487, 4115.897, 4086.667, 0, 0, []
1629358074.265, 57, 0, 4156.41, 3964.103, 4091.795, 4106.154, 4085.641, 0, 0, []
1629358074.2728, 58, 0, 4152.308, 4076.923, 4098.462, 4107.179, 4088.718, 0, 0, []
1629358074.2807, 59, 0, 4142.051, 4129.744, 4093.846, 4099.487, 4075.385, 0, 0, []
1629358074.2885, 60, 0, 4150.769, 4132.308, 4091.795, 4101.538, 4075.385, 0, 0, []
1629358074.2964, 61, 0, 4165.641, 4133.846, 4101.538, 4116.923, 4093.846, 0, 0, []
1629358074.3041, 62, 0, 4161.026, 4128.718, 4098.462, 4119.487, 4099.487, 0, 0, []
1629358074.312, 63, 0, 4160.513, 4030.256, 4097.949, 4117.436, 4098.974, 0, 0, []
1629358074.3198, 64, 0, 4175.385, 3904.103, 4115.385, 4121.026, 4102.564, 450, 0, []
1629358074.3277, 65, 0, 4172.308, 3858.974, 4112.821, 4111.795, 4090.256, 450, 0, []
1629358074.3355, 66, 0, 4154.359, 3940, 4102.051, 4103.077, 4080, 16182, 0, []
1629358074.3433, 67, 0, 4152.308, 4061.026, 4108.718, 4110.769, 4083.59, 450, 0, []
1629358074.3511, 68, 0, 4153.846, 4035.897, 4100.513, 4108.718, 4074.359, 16151, 0, []
1629358074.359, 69, 0, 4138.974, 3860.513, 4084.103, 4099.487, 4060.513, 450, 0, []
1629358074.3668, 70, 0, 4128.718, 3726.667, 4084.103, 4103.077, 4060, 16154, 0, []
1629358074.3747, 71, 0, 4134.872, 3730.769, 4089.231, 4108.718, 4060, 450, 0, []
1629358074.3824, 72, 0, 4137.436, 3797.949, 4081.026, 4103.077, 4061.026, 450, 0, []
1629358074.3903, 73, 0, 4135.897, 3858.974, 4078.974, 4102.051, 4070.769, 16164, 0, []
1629358074.3981, 74, 0, 4145.641, 3922.051, 4099.487, 4110.769, 4080.513, 450, 0, []
1629358074.4061, 75, 0, 4149.231, 3925.128, 4102.564, 4106.154, 4074.359, 16192, 0, []
1629358074.414, 76, 0, 4145.641, 3858.974, 4089.231, 4094.872, 4071.282, 450, 0, []
1629358074.4217, 77, 0, 4153.333, 3865.128, 4094.359, 4106.154, 4085.641, 450, 0, []
1629358074.4296, 78, 0, 4160, 3901.538, 4103.077, 4118.974, 4095.385, 450, 0, []
1629358074.4374, 79, 0, 4157.949, 3831.795, 4101.026, 4115.385, 4091.282, 16192, 0, []
1629358074.4453, 80, 0, 4162.564, 3806.667, 4101.026, 4116.41, 4093.333, 450, 0, []
1629358074.4531, 81, 0, 4171.795, 3898.974, 4108.205, 4125.128, 4102.564, 450, 0, []
1629358074.4609, 82, 0, 4161.538, 3936.923, 4105.641, 4129.231, 4094.872, 450, 0, []
1629358074.4687, 83, 0, 4137.949, 3891.282, 4084.103, 4118.462, 4070.769, 16192, 0, []
1629358074.4766, 84, 0, 4131.795, 3798.462, 4069.744, 4102.564, 4067.692, 450, 0, []
1629358074.4844, 85, 0, 4138.974, 3731.282, 4078.462, 4102.051, 4081.026, 450, 0, []
1629358074.4923, 86, 0, 4137.949, 3780, 4089.744, 4108.205, 4078.974, 450, 0, []
1629358074.5, 87, 0, 4142.051, 3911.795, 4094.872, 4106.667, 4077.436, 16192, 0, []
1629358074.5079, 88, 0, 4153.333, 4034.872, 4098.462, 4110.256, 4089.231, 450, 0, []
1629358074.5157, 89, 0, 4150.769, 4078.974, 4101.026, 4119.487, 4091.282, 450, 0, []
1629358074.5236, 90, 0, 4133.333, 4051.282, 4089.744, 4114.872, 4074.872, 450, 0, []
1629358074.5314, 91, 0, 4123.077, 4096.923, 4077.949, 4112.821, 4065.128, 16192, 0, []
1629358074.5392, 92, 0, 4130.256, 4200.513, 4089.231, 4132.308, 4072.821, 450, 0, []
1629358074.547, 93, 0, 4141.026, 4180, 4100, 4138.462, 4078.974, 450, 0, []
1629358074.5549, 94, 0, 4141.538, 4129.744, 4102.564, 4125.128, 4075.385, 450, 0, []
1629358074.5627, 95, 0, 4135.385, 4213.846, 4107.692, 4121.538, 4071.795, 16192, 0, []
1629358074.5707, 96, 0, 4130.256, 4304.615, 4099.487, 4116.923, 4066.667, 450, 0, []
1629358074.5785, 97, 0, 4125.128, 4251.795, 4077.949, 4104.615, 4056.923, 450, 0, []
1629358074.5865, 98, 0, 4121.538, 4178.462, 4074.872, 4105.641, 4055.385, 450, 0, []
1629358074.5944, 99, 0, 4124.103, 4214.359, 4092.308, 4118.462, 4062.564, 16192, 0, []
1629358074.6023, 100, 0, 4129.744, 4206.667, 4097.436, 4119.487, 4063.59, 450, 0, []
1629358074.6101, 101, 0, 4135.385, 4114.872, 4093.846, 4118.974, 4062.564, 450, 0, []
1629358074.6179, 102, 0, 4141.538, 4097.436, 4095.897, 4126.667, 4072.821, 450, 0, []
1629358074.6257, 103, 0, 4140, 4116.41, 4086.667, 4120, 4073.846, 16192, 0, []
1629358074.6335, 104, 0, 4125.128, 4093.333, 4076.923, 4098.974, 4054.872, 450, 0, []
1629358074.6414, 105, 0, 4116.923, 4150.769, 4091.282, 4098.462, 4046.154, 450, 0, []
1629358074.6492, 106, 0, 4118.974, 4288.718, 4108.205, 4111.795, 4056.41, 450, 0, []
1629358074.6571, 107, 0, 4118.462, 4367.692, 4112.308, 4118.974, 4060.513, 16192, 0, []
1629358074.6648, 108, 0, 4124.103, 4328.718, 4118.462, 4126.667, 4062.051, 450, 0, []
1629358074.6727, 109, 0, 4131.795, 4209.231, 4120.513, 4129.231, 4072.308, 450, 0, []
1629358074.6805, 110, 0, 4124.103, 4195.385, 4105.128, 4118.974, 4072.308, 450, 0, []
1629358074.6884, 111, 0, 4123.59, 4400.513, 4089.231, 4114.359, 4069.231, 16192, 0, []
1629358074.6962, 112, 0, 4139.487, 4536.41, 4095.385, 4125.128, 4081.538, 450, 0, []
1629358074.704, 113, 0, 4146.154, 4311.795, 4105.641, 4130.256, 4095.385, 450, 0, []
1629358074.7118, 114, 0, 4152.308, 4105.128, 4115.897, 4136.41, 4112.308, 450, 0, []
1629358074.7197, 115, 0, 4170.256, 4230.256, 4134.359, 4153.846, 4132.821, 16192, 0, []
