Timestamp, COUNTER, INTERPOLATED, AF3, T7, Pz, T8, AF4, RAW_CQ, MARKER_HARDWARE, MARKERS
1630236213.8935, 61, 0, 4193.846, 4257.436, 4065.128, 4190.256, 4155.897, 0, 0, []
1630236213.9014, 62, 0, 4179.487, 4270.769, 4079.487, 4192.308, 4157.436, 0, 0, []
1630236213.9091, 63, 0, 4171.282, 4258.462, 4056.923, 4170.769, 4155.385, 0, 0, []
1630236213.9171, 64, 0, 4178.974, 4265.128, 4073.333, 4170.256, 4165.128, 450, 0, []
1630236213.925, 65, 0, 4188.718, 4277.949, 4079.487, 4182.051, 4167.179, 450, 0, []
1630236213.933, 66, 0, 4184.615, 4242.564, 4043.077, 4165.641, 4144.103, 16195, 0, []
1630236213.9409, 67, 0, 4175.897, 4225.128, 4064.103, 4172.308, 4128.205, 450, 0, []
1630236213.9488, 68, 0, 4180.513, 4254.359, 4057.949, 4173.846, 4137.436, 16096, 0, []
1630236213.9567, 69, 0, 4189.231, 4257.436, 4064.103, 4173.333, 4148.205, 450, 0, []
1630236213.9647, 70, 0, 4186.667, 4237.949, 4086.154, 4178.974, 4154.872, 312, 0, []
1630236213.9726, 71, 0, 4184.615, 4241.538, 4075.897, 4165.641, 4167.692, 450, 0, []
1630236213.9806, 72, 0, 4203.59, 4257.949, 4106.667, 4183.077, 4184.103, 450, 0, []
1630236213.9884, 73, 0, 4224.615, 4282.564, 4099.487, 4200.513, 4185.128, 278, 0, []
1630236213.9962, 74, 0, 4216.923, 4298.462, 4078.462, 4200.513, 4169.231, 450, 0, []
1630236214.0041, 75, 0, 4203.077, 4276.41, 4071.795, 4191.795, 4168.205, 16189, 0, []
1630236214.0119, 76, 0, 4203.077, 4262.051, 4053.846, 4174.872, 4183.59, 450, 0, []
1630236214.0198, 77, 0, 4201.538, 4273.846, 4091.282, 4191.795, 4188.718, 450, 0, []
1630236214.0275, 78, 0, 4204.103, 4273.333, 4094.359, 4190.769, 4188.718, 450, 0, []
1630236214.0354, 79, 0, 4202.051, 4247.179, 4077.436, 4162.051, 4184.615, 16189, 0, []
1630236214.0432, 80, 0, 4187.692, 4238.974, 4082.051, 4151.795, 4160, 450, 0, []
1630236214.0511, 81, 0, 4189.231, 4295.385, 4067.692, 4160.513, 4148.718, 450, 0, []
1630236214.0589, 82, 0, 4207.179, 4352.308, 4102.051, 4197.949, 4175.897, 450, 0, []
1630236214.0669, 83, 0, 4208.718, 4331.282, 4104.615, 4204.103, 4194.359, 16189, 0, []
1630236214.0747, 84, 0, 4194.359, 4305.128, 4085.128, 4181.538, 4182.051, 450, 0, []
1630236214.0827, 85, 0, 4196.41, 4343.59, 4097.436, 4175.385, 4181.026, 450, 0, []
1630236214.0906, 86, 0, 4211.795, 4346.154, 4081.538, 4162.564, 4190.256, 450, 0, []
1630236214.0986, 87, 0, 4217.436, 4315.897, 4104.615, 4183.59, 4182.051, 16189, 0, []
1630236214.1065, 88, 0, 4216.41, 4338.974, 4113.333, 4203.077, 4178.974, 450, 0, []
1630236214.1144, 89, 0, 4196.923, 4323.077, 4083.59, 4174.359, 4173.846, 450, 0, []
1630236214.1223, 90, 0, 4165.641, 4255.385, 4074.872, 4158.974, 4146.667, 450, 0, []
1630236214.1303, 91, 0, 4166.154, 4246.667, 4063.077, 4165.128, 4142.051, 16189, 0, []
1630236214.1382, 92, 0, 4196.41, 4280.513, 4106.667, 4194.359, 4178.462, 450, 0, []
1630236214.1462, 93, 0, 4212.821, 4276.923, 4111.282, 4202.051, 4196.923, 450, 0, []
1630236214.154, 94, 0, 4205.641, 4236.923, 4065.641, 4178.462, 4175.385, 450, 0, []
1630236214.1618, 95, 0, 4206.667, 4230.256, 4078.974, 4186.154, 4164.615, 16189, 0, []
1630236214.1697, 96, 0, 4207.179, 4286.154, 4068.205, 4184.103, 4170.769, 450, 0, []
1630236214.1775, 97, 0, 4188.718, 4320, 4070.769, 4178.974, 4165.128, 450, 0, []
1630236214.1854, 98, 0, 4187.179, 4300.513, 4082.051, 4185.128, 4164.615, 450, 0, []
1630236214.1931, 99, 0, 4199.487, 4327.692, 4071.795, 4174.872, 4176.41, 16189, 0, []
1630236214.201, 100, 0, 4187.179, 4369.231, 4089.231, 4172.821, 4167.692, 450, 0, []
1630236214.2088, 101, 0, 4175.385, 4360, 4065.128, 4169.744, 4150.256, 450, 0, []
1630236214.2167, 102, 0, 4187.692, 4352.821, 4055.897, 4178.974, 4144.103, 450, 0, []
1630236214.2245, 103, 0, 4191.282, 4367.692, 4060, 4178.462, 4141.538, 16189, 0, []
1630236214.2324, 104, 0, 4191.282, 4371.282, 4055.385, 4167.179, 4153.333, 450, 0, []
1630236214.2401, 105, 0, 4201.026, 4369.231, 4090.769, 4191.282, 4171.282, 450, 0, []
1630236214.2481, 106, 0, 4195.385, 4375.897, 4065.128, 4180.513, 4167.179, 450, 0, []
1630236214.256, 107, 0, 4189.744, 4372.308, 4065.128, 4163.077, 4164.103, 16189, 0, []
1630236214.264, 108, 0, 4205.128, 4374.359, 4101.538, 4180.513, 4179.487, 450, 0, []
1630236214.2719, 109, 0, 4210.256, 4387.179, 4069.231, 4180, 4171.795, 450, 0, []
1630236214.2798, 110, 0, 4202.564, 4392.308, 4066.154, 4187.179, 4151.282, 450, 0, []
1630236214.2877, 111, 0, 4207.179, 4396.923, 4070.769, 4195.897, 4166.154, 16189, 0, []
1630236214.2957, 112, 0, 4196.41, 4388.205, 4071.795, 4192.821, 4173.333, 450, 0, []
1630236214.3036, 113, 0, 4167.692, 4382.564, 4065.128, 4185.128, 4151.282, 450, 0, []
1630236214.3114, 114, 0, 4175.897, 4385.641, 4038.462, 4166.667, 4150.769, 450, 0, []
1630236214.3192, 115, 0, 4210.256, 4371.282, 4075.897, 4180, 4171.795, 16189, 0, []
1630236214.327, 116, 0, 4223.59, 4368.205, 4079.487, 4190.256, 4180.513, 450, 0, []
1630236214.3349, 117, 0, 4213.333, 4365.128, 4056.41, 4181.538, 4173.333, 450, 0, []
1630236214.3427, 118, 0, 4207.179, 4338.974, 4074.359, 4192.821, 4170.769, 450, 0, []
1630236214.3506, 119, 0, 4208.205, 4332.308, 4072.821, 4192.308, 4175.897, 16189, 0, []
1630236214.3583, 120, 0, 4214.359, 4345.641, 4096.41, 4199.487, 4188.205, 450, 0, []
1630236214.3662, 121, 0, 4224.103, 4338.462, 4085.641, 4195.897, 4194.872, 450, 0, []
1630236214.374, 122, 0, 4223.59, 4340.513, 4059.487, 4181.538, 4180, 450, 0, []
1630236214.382, 123, 0, 4220.513, 4341.538, 4080, 4194.872, 4176.41, 16189, 0, []
1630236214.3899, 124, 0, 4210.769, 4292.821, 4061.538, 4183.59, 4181.026, 450, 0, []
1630236214.3979, 125, 0, 4191.795, 4278.462, 4066.154, 4176.41, 4169.231, 450, 0, []
1630236214.4057, 126, 0, 4186.154, 4319.487, 4063.077, 4174.872, 4161.538, 450, 0, []
1630236214.4137, 127, 0, 4196.923, 4312.821, 4053.846, 4168.205, 4161.538, 16189, 0, []
1630236214.4216, 128, 0, 4210.769, 4304.103, 4098.974, 4188.205, 4156.41, 450, 0, []
1630236214.4296, 0, 0, 4219.487, 4356.923, 4091.282, 4182.564, 4161.538, 450, 0, []
1630236214.4375, 1, 0, 4218.462, 4364.103, 4091.795, 4182.051, 4179.487, 450, 0, []
1630236214.4454, 2, 0, 4213.333, 4305.128, 4103.077, 4199.487, 4190.769, 16195, 0, []
1630236214.4533, 3, 0, 4209.744, 4293.846, 4088.205, 4193.846, 4188.718, 450, 0, []
1630236214.4612, 4, 0, 4204.615, 4317.436, 4093.846, 4186.154, 4173.846, 16088, 0, []
1630236214.4691, 5, 0, 4201.538, 4286.667, 4067.179, 4177.949, 4157.949, 450, 0, []
1630236214.4771, 6, 0, 4200, 4257.436, 4065.641, 4190.769, 4162.051, 315, 0, []
1630236214.4849, 7, 0, 4194.359, 4285.128, 4073.846, 4191.795, 4172.308, 450, 0, []
1630236214.4927, 8, 0, 4191.282, 4296.923, 4070.256, 4169.231, 4170.769, 450, 0, []
1630236214.5006, 9, 0, 4197.436, 4288.205, 4110.256, 4184.103, 4168.718, 278, 0, []
1630236214.5084, 10, 0, 4202.051, 4298.974, 4087.179, 4185.641, 4168.205, 450, 0, []
1630236214.5163, 11, 0, 4202.051, 4307.179, 4072.821, 4181.538, 4169.744, 16195, 0, []
1630236214.524, 12, 0, 4225.128, 4308.205, 4106.667, 4208.205, 4190.769, 450, 0, []
1630236214.5319, 13, 0, 4248.718, 4305.641, 4098.974, 4210.769, 4210.769, 450, 0, []
1630236214.5397, 14, 0, 4235.385, 4297.436, 4105.128, 4202.564, 4205.128, 450, 0, []
1630236214.5476, 15, 0, 4219.487, 4306.154, 4086.154, 4190.256, 4202.051, 16195, 0, []
1630236214.5554, 16, 0, 4234.872, 4313.333, 4092.308, 4192.821, 4215.385, 0, 0, []
1630236214.5634, 17, 0, 4253.333, 4295.897, 4115.385, 4208.205, 4213.333, 0, 0, []
1630236214.5712, 18, 0, 4232.308, 4295.897, 4066.667, 4188.205, 4180.513, 0, 0, []
1630236214.5792, 19, 0, 4197.949, 4294.872, 4067.692, 4184.103, 4160, 0, 0, []
1630236214.5871, 20, 0, 4196.923, 4278.974, 4083.077, 4187.692, 4172.308, 0, 0, []
1630236214.5951, 21, 0, 4195.897, 4276.41, 4077.436, 4177.436, 4165.641, 0, 0, []
1630236214.603, 22, 0, 4171.795, 4258.462, 4072.821, 4172.821, 4141.026, 0, 0, []
1630236214.6109, 23, 0, 4175.385, 4225.641, 4052.308, 4159.487, 4148.205, 0, 0, []
1630236214.6188, 24, 0, 4209.744, 4236.923, 4089.744, 4177.436, 4169.231, 0, 0, []
1630236214.6266, 25, 0, 4219.487, 4275.897, 4100, 4192.821, 4166.667, 0, 0, []
1630236214.6345, 26, 0, 4204.615, 4266.667, 4082.051, 4185.641, 4158.462, 0, 0, []
1630236214.6423, 27, 0, 4197.949, 4238.462, 4087.179, 4190.256, 4163.077, 0, 0, []
1630236214.6501, 28, 0, 4190.256, 4238.974, 4059.487, 4185.641, 4163.077, 0, 0, []
1630236214.6579, 29, 0, 4177.949, 4238.974, 4075.385, 4189.231, 4153.846, 0, 0, []
1630236214.6658, 30, 0, 4168.718, 4233.333, 4069.231, 4171.795, 4138.974, 0, 0, []
1630236214.6736, 31, 0, 4165.641, 4234.359, 4042.051, 4150.769, 4133.333, 0, 0, []
1630236214.6815, 32, 0, 4181.538, 4237.436, 4075.897, 4177.949, 4149.744, 0, 0, []
1630236214.6892, 33, 0, 4201.538, 4239.487, 4069.744, 4182.051, 4158.462, 0, 0, []
1630236214.6971, 34, 0, 4193.846, 4242.564, 4067.692, 4170.256, 4145.128, 0, 0, []
1630236214.7049, 35, 0, 4185.641, 4241.538, 4071.282, 4173.846, 4150.256, 0, 0, []
1630236214.7129, 36, 0, 4198.974, 4240.513, 4061.538, 4181.026, 4174.359, 0, 0, []
1630236214.7208, 37, 0, 4202.051, 4250.769, 4088.205, 4195.385, 4173.846, 0, 0, []
1630236214.7288, 38, 0, 4201.538, 4256.41, 4079.487, 4187.179, 4172.821, 0, 0, []
1630236214.7366, 39, 0, 4227.179, 4255.385, 4090.256, 4193.333, 4200.513, 0, 0, []
1630236214.7446, 40, 0, 4260, 4265.641, 4088.718, 4198.462, 4221.026, 0, 0, []
1630236214.7525, 41, 0, 4281.026, 4266.667, 4054.359, 4187.692, 4232.821, 0, 0, []
1630236214.7605, 42, 0, 4282.564, 4255.897, 4080, 4216.41, 4251.795, 0, 0, []
1630236214.7684, 43, 0, 4257.436, 4246.154, 4067.692, 4206.154, 4245.128, 0, 0, []
1630236214.7763, 44, 0, 4230.256, 4229.231, 4068.205, 4174.359, 4215.385, 0, 0, []
1630236214.7842, 45, 0, 4236.41, 4229.231, 4091.795, 4189.231, 4208.718, 0, 0, []
1630236214.792, 46, 0, 4246.154, 4258.974, 4057.436, 4188.718, 4210.256, 0, 0, []
1630236214.7999, 47, 0, 4235.897, 4267.179, 4066.154, 4182.051, 4202.564, 0, 0, []
1630236214.8077, 48, 0, 4224.103, 4233.333, 4077.949, 4171.795, 4201.538, 0, 0, []
1630236214.8155, 49, 0, 4227.179, 4217.949, 4092.308, 4172.308, 4214.359, 0, 0, []
1630236214.8233, 50, 0, 4237.949, 4241.538, 4106.667, 4187.692, 4225.128, 0, 0, []
1630236214.8312, 51, 0, 4239.487, 4250.256, 4080, 4183.59, 4209.231, 0, 0, []
1630236214.839, 52, 0, 4229.744, 4246.154, 4090.256, 4188.718, 4190.256, 0, 0, []
1630236214.847, 53, 0, 4227.692, 4249.744, 4078.462, 4186.154, 4201.538, 0, 0, []
1630236214.8548, 54, 0, 4222.051, 4247.692, 4068.718, 4181.538, 4207.692, 0, 0, []
1630236214.8628, 55, 0, 4199.487, 4243.59, 4081.026, 4183.59, 4186.667, 0, 0, []
1630236214.8707, 56, 0, 4191.795, 4257.436, 4064.615, 4167.692, 4180.513, 0, 0, []
1630236214.8787, 57, 0, 4209.744, 4257.949, 4094.872, 4176.923, 4186.154, 0, 0, []
1630236214.8866, 58, 0, 4221.026, 4235.897, 4090.769, 4180, 4182.564, 0, 0, []
1630236214.8945, 59, 0, 4221.026, 4229.744, 4065.641, 4176.41, 4186.667, 0, 0, []
1630236214.9024, 60, 0, 4217.436, 4231.795, 4082.051, 4193.846, 4192.821, 0, 0, []
1630236214.9104, 61, 0, 4213.333, 4229.744, 4069.744, 4185.128, 4194.872, 0, 0, []
1630236214.9183, 62, 0, 4205.641, 4223.077, 4087.179, 4179.487, 4192.308, 0, 0, []
1630236214.9262, 63, 0, 4197.949, 4221.538, 4075.897, 4169.744, 4172.308, 0, 0, []
1630236214.9341, 64, 0, 4186.667, 4223.59, 4043.077, 4154.872, 4147.692, 450, 0, []
1630236214.9418, 65, 0, 4184.615, 4221.026, 4066.154, 4175.385, 4146.154, 450, 0, []
1630236214.9497, 66, 0, 4194.359, 4206.154, 4062.564, 4184.103, 4161.026, 16190, 0, []
1630236214.9575, 67, 0, 4203.077, 4200.513, 4089.744, 4198.974, 4182.051, 450, 0, []
1630236214.9654, 68, 0, 4214.359, 4236.41, 4104.615, 4210.256, 4208.718, 16090, 0, []
1630236214.9732, 69, 0, 4214.872, 4237.436, 4074.872, 4188.205, 4202.051, 450, 0, []
1630236214.981, 70, 0, 4211.795, 4200, 4092.821, 4189.231, 4180, 316, 0, []
1630236214.9888, 71, 0, 4217.949, 4209.231, 4085.641, 4185.641, 4180.513, 450, 0, []
1630236214.9967, 72, 0, 4212.308, 4231.795, 4088.205, 4183.59, 4183.077, 450, 0, []
1630236215.0045, 73, 0, 4206.667, 4215.897, 4092.308, 4194.872, 4186.154, 284, 0, []
1630236215.0125, 74, 0, 4206.154, 4207.179, 4075.897, 4189.744, 4194.872, 450, 0, []
1630236215.0203, 75, 0, 4202.051, 4230.256, 4098.974, 4183.59, 4192.821, 16194, 0, []
1630236215.0283, 76, 0, 4195.385, 4241.538, 4081.026, 4158.462, 4175.897, 450, 0, []
1630236215.0362, 77, 0, 4197.436, 4243.077, 4075.897, 4158.974, 4158.462, 450, 0, []
1630236215.0442, 78, 0, 4208.718, 4244.103, 4085.128, 4182.051, 4157.436, 450, 0, []
1630236215.0521, 79, 0, 4198.974, 4227.179, 4058.462, 4160, 4155.897, 16194, 0, []
1630236215.06, 80, 0, 4175.385, 4218.462, 4082.051, 4155.385, 4151.282, 450, 0, []
1630236215.0679, 81, 0, 4177.949, 4227.692, 4091.282, 4172.308, 4159.487, 450, 0, []
1630236215.0759, 82, 0, 4190.769, 4227.692, 4092.821, 4178.974, 4163.077, 450, 0, []
1630236215.0839, 83, 0, 4190.769, 4229.231, 4094.359, 4177.436, 4158.462, 16194, 0, []
1630236215.0918, 84, 0, 4205.641, 4246.154, 4071.282, 4173.846, 4168.205, 450, 0, []
1630236215.0997, 85, 0, 4225.641, 4241.026, 4094.872, 4188.718, 4178.974, 450, 0, []
1630236215.1074, 86, 0, 4221.538, 4212.308, 4085.128, 4178.462, 4176.41, 450, 0, []
1630236215.1153, 87, 0, 4219.487, 4223.59, 4083.59, 4179.487, 4184.103, 16194, 0, []
1630236215.1231, 88, 0, 4220.513, 4252.308, 4110.769, 4200, 4196.923, 450, 0, []
1630236215.131, 89, 0, 4203.077, 4240, 4082.564, 4172.821, 4185.128, 450, 0, []
1630236215.1388, 90, 0, 4190.256, 4221.538, 4088.205, 4158.974, 4164.103, 450, 0, []
1630236215.1466, 91, 0, 4189.744, 4221.026, 4074.872, 4154.359, 4149.231, 16194, 0, []
1630236215.1544, 92, 0, 4180, 4216.923, 4051.795, 4146.667, 4135.385, 450, 0, []
1630236215.1623, 93, 0, 4177.949, 4228.205, 4069.744, 4168.718, 4133.333, 450, 0, []
1630236215.1701, 94, 0, 4192.821, 4253.846, 4053.846, 4170.769, 4149.231, 450, 0, []
1630236215.1781, 95, 0, 4206.154, 4270.769, 4076.923, 4183.59, 4174.359, 16194, 0, []
1630236215.1859, 96, 0, 4205.641, 4262.051, 4088.718, 4195.385, 4185.641, 450, 0, []
1630236215.1939, 97, 0, 4193.333, 4213.846, 4075.385, 4176.923, 4178.462, 450, 0, []
1630236215.2018, 98, 0, 4193.333, 4172.308, 4104.615, 4178.974, 4175.897, 450, 0, []
1630236215.2098, 99, 0, 4206.667, 4170.769, 4103.077, 4182.564, 4176.923, 16194, 0, []
1630236215.2177, 100, 0, 4203.077, 4156.923, 4113.333, 4191.795, 4164.615, 450, 0, []
1630236215.2256, 101, 0, 4189.744, 4116.41, 4096.923, 4183.077, 4152.821, 450, 0, []
1630236215.2335, 102, 0, 4184.103, 4115.897, 4069.744, 4157.436, 4155.897, 450, 0, []
1630236215.2415, 103, 0, 4187.179, 4156.923, 4109.231, 4174.359, 4166.667, 16194, 0, []
1630236215.2494, 104, 0, 4189.744, 4194.359, 4100.513, 4181.026, 4173.333, 450, 0, []
1630236215.2572, 105, 0, 4177.949, 4200.513, 4082.564, 4170.256, 4165.128, 450, 0, []
1630236215.2651, 106, 0, 4173.333, 4189.744, 4080, 4166.154, 4154.872, 450, 0, []
1630236215.2728, 107, 0, 4194.872, 4208.718, 4083.59, 4177.436, 4155.385, 16194, 0, []
1630236215.2807, 108, 0, 4209.744, 4238.974, 4118.974, 4205.641, 4161.026, 450, 0, []
1630236215.2885, 109, 0, 4204.615, 4236.923, 4095.897, 4194.359, 4171.282, 450, 0, []
1630236215.2964, 110, 0, 4195.897, 4208.718, 4094.359, 4191.282, 4177.949, 450, 0, []
1630236215.3042, 111, 0, 4184.103, 4200, 4105.128, 4201.538, 4173.333, 16194, 0, []
1630236215.3121, 112, 0, 4168.718, 4215.385, 4073.846, 4178.974, 4161.538, 450, 0, []
1630236215.32, 113, 0, 4173.333, 4228.718, 4097.436, 4184.103, 4166.154, 450, 0, []
1630236215.328, 114, 0, 4213.333, 4233.333, 4110.769, 4204.103, 4193.333, 450, 0, []
1630236215.3359, 115, 0, 4234.359, 4232.821, 4111.282, 4210.256, 4198.462, 16194, 0, []
1630236215.3439, 116, 0, 4209.744, 4237.949, 4100.513, 4203.077, 4175.897, 450, 0, []
1630236215.3517, 117, 0, 4188.718, 4236.41, 4068.205, 4184.103, 4168.205, 450, 0, []
1630236215.3597, 118, 0, 4183.59, 4232.821, 4095.897, 4191.282, 4173.333, 450, 0, []
1630236215.3676, 119, 0, 4172.308, 4244.103, 4089.744, 4187.692, 4164.103, 16194, 0, []
1630236215.3756, 120, 0, 4173.333, 4223.077, 4084.103, 4186.667, 4165.128, 450, 0, []
1630236215.3835, 121, 0, 4200.513, 4182.051, 4110.256, 4206.154, 4184.615, 450, 0, []
1630236215.3914, 122, 0, 4221.538, 4205.641, 4081.026, 4189.231, 4187.179, 450, 0, []
1630236215.3993, 123, 0, 4232.821, 4235.897, 4079.487, 4185.128, 4191.795, 16194, 0, []
1630236215.4071, 124, 0, 4255.897, 4201.538, 4073.846, 4185.128, 4225.128, 450, 0, []
1630236215.415, 125, 0, 4284.103, 4197.436, 4077.436, 4171.282, 4255.897, 450, 0, []
1630236215.4228, 126, 0, 4318.462, 4240, 4107.179, 4176.923, 4276.41, 450, 0, []
1630236215.4307, 127, 0, 4353.333, 4229.744, 4080, 4177.436, 4299.487, 16194, 0, []
1630236215.4384, 128, 0, 4375.897, 4212.821, 4099.487, 4198.462, 4331.282, 450, 0, []
1630236215.4463, 0, 0, 4382.564, 4228.718, 4104.615, 4200, 4347.179, 450, 0, []
1630236215.4541, 1, 0, 4380, 4203.077, 4061.026, 4169.231, 4327.692, 450, 0, []
1630236215.462, 2, 0, 4392.821, 4188.205, 4072.308, 4168.718, 4330.256, 16182, 0, []
1630236215.4699, 3, 0, 4430.769, 4229.231, 4086.667, 4175.897, 4376.923, 450, 0, []
1630236215.4777, 4, 0, 4468.205, 4243.077, 4111.795, 4202.564, 4409.744, 16089, 0, []
1630236215.4855, 5, 0, 4488.718, 4232.821, 4111.282, 4216.41, 4424.103, 450, 0, []
1630236215.4935, 6, 0, 4497.949, 4230.769, 4107.692, 4201.026, 4440, 322, 0, []
1630236215.5014, 7, 0, 4484.103, 4214.359, 4115.385, 4192.821, 4429.231, 450, 0, []
1630236215.5094, 8, 0, 4467.179, 4217.949, 4049.744, 4168.205, 4407.179, 450, 0, []
1630236215.5172, 9, 0, 4488.205, 4238.974, 4056.923, 4176.923, 4423.077, 278, 0, []
1630236215.5252, 10, 0, 4513.846, 4242.564, 4102.564, 4192.821, 4450.256, 450, 0, []
1630236215.5331, 11, 0, 4508.205, 4251.282, 4083.59, 4169.744, 4459.487, 16192, 0, []
1630236215.5411, 12, 0, 4501.026, 4256.923, 4095.385, 4174.872, 4471.282, 450, 0, []
1630236215.549, 13, 0, 4507.179, 4244.103, 4104.103, 4180, 4483.077, 450, 0, []
1630236215.5567, 14, 0, 4524.615, 4246.154, 4126.667, 4194.872, 4505.641, 450, 0, []
1630236215.5647, 15, 0, 4562.564, 4270.769, 4129.744, 4230.256, 4546.667, 16192, 0, []
1630236215.5726, 16, 0, 4567.179, 4273.333, 4089.231, 4223.077, 4557.949, 0, 0, []
1630236215.5805, 17, 0, 4518.462, 4242.564, 4101.538, 4201.538, 4525.641, 0, 0, []
1630236215.5883, 18, 0, 4491.795, 4218.974, 4093.333, 4184.103, 4507.692, 0, 0, []
1630236215.5963, 19, 0, 4483.59, 4223.59, 4098.462, 4186.154, 4513.846, 0, 0, []
1630236215.6041, 20, 0, 4445.641, 4234.359, 4117.949, 4200, 4495.897, 0, 0, []
1630236215.6121, 21, 0, 4407.692, 4245.128, 4096.923, 4206.667, 4462.564, 0, 0, []
1630236215.62, 22, 0, 4388.205, 4263.59, 4105.641, 4229.231, 4455.385, 0, 0, []
1630236215.628, 23, 0, 4363.59, 4245.641, 4083.077, 4218.462, 4458.462, 0, 0, []
1630236215.6359, 24, 0, 4330.256, 4215.897, 4060.513, 4187.179, 4418.974, 0, 0, []
1630236215.6438, 25, 0, 4310.256, 4236.41, 4056.41, 4175.897, 4366.154, 0, 0, []
1630236215.6517, 26, 0, 4295.385, 4250.256, 4045.128, 4172.821, 4352.821, 0, 0, []
1630236215.6597, 27, 0, 4269.231, 4218.974, 4089.231, 4189.231, 4342.564, 0, 0, []
1630236215.6676, 28, 0, 4241.538, 4188.205, 4077.436, 4170.256, 4300, 0, 0, []
1630236215.6756, 29, 0, 4242.564, 4210.256, 4066.667, 4166.667, 4275.897, 0, 0, []
1630236215.6834, 30, 0, 4272.308, 4261.538, 4116.41, 4224.615, 4296.923, 0, 0, []
1630236215.6912, 31, 0, 4275.385, 4262.051, 4111.282, 4231.795, 4300.513, 0, 0, []
1630236215.6991, 32, 0, 4237.949, 4221.538, 4116.923, 4208.205, 4263.59, 0, 0, []
1630236215.7069, 33, 0, 4212.821, 4222.051, 4110.256, 4196.923, 4239.487, 0, 0, []
1630236215.7148, 34, 0, 4207.179, 4229.744, 4094.872, 4190.256, 4233.846, 0, 0, []
1630236215.7225, 35, 0, 4195.897, 4196.923, 4111.282, 4189.231, 4211.282, 0, 0, []
1630236215.7304, 36, 0, 4184.103, 4202.564, 4091.795, 4172.308, 4180.513, 0, 0, []
1630236215.7382, 37, 0, 4174.872, 4243.59, 4100, 4175.897, 4170.256, 0, 0, []
1630236215.7461, 38, 0, 4162.564, 4236.41, 4101.538, 4184.615, 4172.821, 0, 0, []
1630236215.7539, 39, 0, 4142.051, 4187.692, 4090.256, 4180.513, 4161.538, 0, 0, []
1630236215.7618, 40, 0, 4124.615, 4179.487, 4108.718, 4187.179, 4143.59, 0, 0, []
1630236215.7695, 41, 0, 4119.487, 4212.308, 4093.846, 4186.667, 4138.462, 0, 0, []
1630236215.7775, 42, 0, 4118.462, 4209.231, 4097.436, 4200, 4140, 0, 0, []
1630236215.7855, 43, 1, 4114.074, 4212.593, 4084.16, 4192.877, 4129.573, 0, 0, []
1630236215.7934, 44, 1, 4109.687, 4215.954, 4070.883, 4185.755, 4119.145, 0, 0, []
1630236215.8013, 45, 1, 4105.299, 4219.316, 4057.607, 4178.632, 4108.718, 0, 0, []
1630236215.8091, 46, 1, 4100.912, 4222.678, 4044.33, 4171.51, 4098.291, 0, 0, []
1630236215.817, 47, 1, 4096.524, 4226.04, 4031.054, 4164.387, 4087.863, 0, 0, []
1630236215.8249, 48, 1, 4092.137, 4229.402, 4017.778, 4157.265, 4077.436, 0, 0, []
1630236215.8328, 49, 1, 4087.749, 4232.764, 4004.501, 4150.142, 4067.009, 0, 0, []
1630236215.8407, 50, 1, 4083.362, 4236.125, 3991.225, 4143.02, 4056.581, 0, 0, []
1630236215.8485, 51, 0, 4078.974, 4239.487, 3977.949, 4135.897, 4046.154, 0, 0, []
1630236215.8563, 52, 0, 4075.897, 4222.051, 4080, 4188.205, 4050.769, 0, 0, []
1630236215.8642, 53, 0, 4104.103, 4248.205, 4127.692, 4231.795, 4081.026, 0, 0, []
1630236215.8721, 54, 0, 4106.154, 4281.026, 4041.538, 4179.487, 4080, 0, 0, []
1630236215.88, 55, 0, 4064.615, 4254.872, 4089.231, 4187.179, 4040.513, 0, 0, []
1630236215.8877, 56, 0, 4043.59, 4228.718, 4066.667, 4180.513, 4021.026, 0, 0, []
1630236215.8956, 57, 0, 4059.487, 4238.462, 4066.667, 4196.923, 4036.923, 0, 0, []
1630236215.9034, 58, 0, 4074.359, 4263.59, 4088.205, 4214.872, 4047.179, 0, 0, []
1630236215.9113, 59, 0, 4077.436, 4288.205, 4056.41, 4182.564, 4040.513, 0, 0, []
1630236215.9191, 60, 0, 4098.462, 4300, 4102.051, 4201.538, 4061.538, 0, 0, []
1630236215.927, 61, 0, 4121.538, 4295.897, 4126.667, 4223.59, 4094.359, 0, 0, []
1630236215.9347, 62, 0, 4115.897, 4301.538, 4122.564, 4216.41, 4092.308, 0, 0, []
1630236215.9426, 63, 0, 4107.179, 4307.179, 4101.538, 4201.026, 4081.538, 0, 0, []
1630236215.9504, 64, 0, 4103.077, 4261.026, 4074.359, 4189.744, 4081.026, 450, 0, []
1630236215.9583, 65, 0, 4094.359, 4232.308, 4083.59, 4192.821, 4077.436, 450, 0, []
1630236215.9661, 66, 0, 4090.769, 4270.256, 4073.846, 4188.205, 4078.974, 16236, 0, []
1630236215.9738, 67, 0, 4092.308, 4275.385, 4076.41, 4191.795, 4085.128, 450, 0, []
1630236215.9817, 68, 0, 4090.769, 4242.051, 4085.641, 4189.231, 4080, 16110, 0, []
1630236215.9895, 69, 0, 4094.359, 4265.128, 4092.308, 4187.692, 4078.974, 450, 0, []
1630236215.9974, 70, 0, 4098.462, 4293.846, 4106.154, 4197.436, 4086.154, 315, 0, []
1630236216.0052, 71, 0, 4081.026, 4243.077, 4065.641, 4175.897, 4068.718, 450, 0, []
1630236216.013, 72, 0, 4052.821, 4202.564, 4044.103, 4154.359, 4034.359, 450, 0, []
1630236216.0208, 73, 0, 4049.744, 4221.538, 4065.641, 4160.513, 4032.821, 278, 0, []
1630236216.0287, 74, 0, 4048.205, 4238.462, 4066.154, 4162.051, 4034.872, 450, 0, []
1630236216.0365, 75, 0, 4036.923, 4242.564, 4072.821, 4160, 4013.846, 16211, 0, []
1630236216.0444, 76, 0, 4073.846, 4255.897, 4072.821, 4166.667, 4035.385, 450, 0, []
1630236216.0521, 77, 0, 4146.667, 4262.564, 4085.641, 4183.59, 4102.564, 450, 0, []
1630236216.06, 78, 0, 4194.359, 4254.872, 4099.487, 4191.282, 4134.872, 450, 0, []
1630236216.0678, 79, 0, 4232.821, 4258.974, 4080, 4185.641, 4148.205, 16211, 0, []
1630236216.0757, 80, 0, 4280.513, 4265.641, 4080.513, 4188.205, 4193.846, 450, 0, []
1630236216.0835, 81, 0, 4291.795, 4253.333, 4071.795, 4178.462, 4220, 450, 0, []
1630236216.0913, 82, 0, 4289.231, 4249.231, 4074.872, 4164.615, 4217.949, 450, 0, []
1630236216.0991, 83, 0, 4313.846, 4268.718, 4089.744, 4160.513, 4219.487, 16211, 0, []
1630236216.107, 84, 0, 4317.436, 4269.231, 4052.308, 4143.59, 4191.795, 450, 0, []
1630236216.1148, 85, 0, 4280, 4244.615, 4034.872, 4141.026, 4148.205, 450, 0, []
1630236216.1226, 86, 0, 4262.051, 4266.154, 4050.256, 4161.026, 4148.205, 450, 0, []
1630236216.1304, 87, 0, 4273.846, 4302.051, 4075.897, 4187.692, 4166.667, 16211, 0, []
1630236216.1382, 88, 0, 4249.744, 4270.769, 4092.821, 4189.744, 4142.564, 450, 0, []
1630236216.1461, 89, 0, 4211.282, 4237.949, 4086.667, 4170.256, 4110.256, 450, 0, []
1630236216.1539, 90, 0, 4215.385, 4290.769, 4105.128, 4173.333, 4105.128, 450, 0, []
1630236216.1618, 91, 0, 4213.846, 4330.769, 4095.385, 4172.821, 4093.846, 16211, 0, []
1630236216.1695, 92, 0, 4178.462, 4295.385, 4066.154, 4164.615, 4071.795, 450, 0, []
1630236216.1774, 93, 0, 4164.615, 4283.59, 4075.385, 4179.487, 4069.744, 450, 0, []
1630236216.1852, 94, 0, 4170.769, 4302.564, 4079.487, 4189.231, 4081.538, 450, 0, []
1630236216.1931, 95, 0, 4154.872, 4294.872, 4090.256, 4189.231, 4075.897, 16211, 0, []
1630236216.2009, 96, 0, 4152.308, 4288.718, 4101.026, 4187.692, 4081.538, 450, 0, []
1630236216.2087, 97, 0, 4173.846, 4300, 4109.744, 4190.256, 4106.667, 450, 0, []
1630236216.2165, 98, 0, 4170.256, 4293.333, 4125.128, 4190.256, 4096.923, 450, 0, []
1630236216.2244, 99, 0, 4156.41, 4282.051, 4107.179, 4174.872, 4064.615, 16211, 0, []
1630236216.2322, 100, 0, 4156.41, 4278.462, 4101.026, 4174.359, 4062.051, 450, 0, []
1630236216.2401, 101, 0, 4150.256, 4261.026, 4092.821, 4177.436, 4075.385, 450, 0, []
1630236216.2479, 102, 0, 4143.59, 4257.949, 4083.59, 4178.462, 4076.41, 450, 0, []
1630236216.2557, 103, 0, 4145.128, 4287.179, 4107.692, 4184.103, 4073.846, 16211, 0, []
1630236216.2635, 104, 0, 4121.538, 4285.641, 4087.692, 4158.974, 4056.41, 450, 0, []
1630236216.2714, 105, 0, 4101.026, 4253.846, 4074.872, 4148.205, 4042.051, 450, 0, []
1630236216.2792, 106, 0, 4125.641, 4280, 4100.513, 4167.692, 4065.641, 450, 0, []
1630236216.287, 107, 0, 4142.564, 4322.051, 4104.615, 4173.846, 4086.154, 16211, 0, []
1630236216.2948, 108, 0, 4117.436, 4310.256, 4097.436, 4166.154, 4063.077, 450, 0, []
1630236216.3026, 109, 0, 4089.744, 4280.513, 4073.333, 4150.769, 4030.256, 450, 0, []
1630236216.3105, 110, 0, 4091.795, 4273.846, 4081.026, 4157.436, 4026.667, 450, 0, []
1630236216.3183, 111, 0, 4113.846, 4294.359, 4101.538, 4174.872, 4038.462, 16211, 0, []
1630236216.3262, 112, 0, 4128.205, 4306.667, 4080.513, 4171.282, 4042.051, 450, 0, []
1630236216.3339, 113, 0, 4116.41, 4304.103, 4064.103, 4157.949, 4033.333, 450, 0, []
1630236216.3418, 114, 0, 4105.128, 4313.846, 4056.923, 4147.692, 4028.718, 450, 0, []
1630236216.3496, 115, 0, 4113.846, 4324.615, 4072.308, 4162.051, 4041.538, 16211, 0, []
1630236216.3575, 116, 0, 4110.256, 4309.231, 4084.103, 4166.667, 4045.128, 450, 0, []
1630236216.3653, 117, 0, 4095.385, 4307.179, 4064.615, 4148.718, 4037.436, 450, 0, []
1630236216.3731, 118, 0, 4102.564, 4323.59, 4073.333, 4163.077, 4043.59, 450, 0, []
1630236216.3809, 119, 0, 4107.179, 4293.333, 4069.744, 4177.949, 4048.718, 16211, 0, []
1630236216.3888, 120, 0, 4084.103, 4249.231, 4050.769, 4156.923, 4034.872, 450, 0, []
1630236216.3966, 121, 0, 4081.538, 4262.564, 4063.59, 4152.308, 4032.821, 450, 0, []
1630236216.4045, 122, 0, 4108.718, 4293.333, 4072.308, 4169.744, 4049.744, 450, 0, []
1630236216.4122, 123, 0, 4114.872, 4271.795, 4083.59, 4166.667, 4055.897, 16211, 0, []
1630236216.4201, 124, 0, 4098.974, 4241.538, 4077.436, 4144.615, 4046.154, 450, 0, []
1630236216.4279, 125, 0, 4096.923, 4271.795, 4061.026, 4148.718, 4045.641, 450, 0, []
1630236216.4357, 126, 0, 4107.692, 4308.718, 4077.436, 4170.256, 4060, 450, 0, []
1630236216.4436, 127, 0, 4110.256, 4284.615, 4081.026, 4161.026, 4061.538, 16211, 0, []
1630236216.4513, 128, 0, 4104.103, 4249.231, 4077.436, 4146.667, 4042.051, 450, 0, []
1630236216.4592, 0, 0, 4099.487, 4268.718, 4070.769, 4150.769, 4031.795, 450, 0, []
1630236216.467, 1, 0, 4102.564, 4292.821, 4067.692, 4156.923, 4034.872, 450, 0, []
1630236216.4749, 2, 0, 4103.59, 4281.026, 4078.462, 4161.026, 4032.821, 16186, 0, []
1630236216.4827, 3, 0, 4107.179, 4290.769, 4065.641, 4168.205, 4043.59, 450, 0, []
1630236216.4905, 4, 0, 4115.385, 4325.128, 4061.538, 4176.923, 4058.974, 16074, 0, []
1630236216.4984, 5, 0, 4119.487, 4332.308, 4062.051, 4167.179, 4053.333, 450, 0, []
1630236216.5063, 6, 0, 4126.154, 4321.538, 4055.897, 4158.974, 4058.462, 326, 0, []
1630236216.5141, 7, 0, 4136.41, 4329.744, 4074.359, 4171.795, 4081.026, 450, 0, []
1630236216.5219, 8, 0, 4134.872, 4349.231, 4073.333, 4171.282, 4085.641, 450, 0, []
1630236216.5297, 9, 0, 4118.462, 4347.692, 4064.615, 4156.923, 4075.897, 270, 0, []
1630236216.5376, 10, 0, 4106.667, 4334.359, 4067.179, 4147.692, 4074.872, 450, 0, []
1630236216.5454, 11, 0, 4101.026, 4360, 4054.359, 4143.077, 4072.821, 16225, 0, []
1630236216.5533, 12, 0, 4092.308, 4383.59, 4053.333, 4147.692, 4061.538, 450, 0, []
1630236216.5611, 13, 0, 4093.333, 4365.641, 4046.667, 4149.231, 4063.077, 450, 0, []
1630236216.5689, 14, 0, 4107.179, 4365.128, 4046.154, 4148.718, 4072.821, 450, 0, []
1630236216.5767, 15, 0, 4121.538, 4384.615, 4065.128, 4164.615, 4075.385, 16225, 0, []
1630236216.5845, 16, 0, 4128.205, 4380, 4070.769, 4182.051, 4077.436, 0, 0, []
1630236216.5924, 17, 0, 4129.231, 4375.897, 4082.564, 4188.205, 4084.103, 0, 0, []
1630236216.6002, 18, 0, 4132.308, 4392.308, 4083.59, 4189.231, 4093.333, 0, 0, []
1630236216.6081, 19, 0, 4131.282, 4384.103, 4082.051, 4191.795, 4092.308, 0, 0, []
1630236216.6158, 20, 0, 4122.564, 4366.154, 4090.769, 4184.615, 4080.513, 0, 0, []
1630236216.6237, 21, 0, 4113.846, 4366.154, 4078.974, 4167.692, 4077.949, 0, 0, []
1630236216.6315, 22, 0, 4108.718, 4356.923, 4086.154, 4173.846, 4087.179, 0, 0, []
1630236216.6394, 23, 0, 4109.744, 4348.718, 4094.359, 4189.744, 4089.744, 0, 0, []
1630236216.6472, 24, 0, 4103.59, 4347.692, 4086.154, 4187.692, 4075.897, 0, 0, []
1630236216.655, 25, 0, 4089.231, 4341.026, 4081.026, 4177.949, 4063.59, 0, 0, []
1630236216.6628, 26, 0, 4084.615, 4336.923, 4063.077, 4172.308, 4065.128, 0, 0, []
1630236216.6707, 27, 0, 4083.59, 4348.718, 4067.179, 4175.897, 4060, 0, 0, []
1630236216.6785, 28, 0, 4092.821, 4345.128, 4079.487, 4179.487, 4061.538, 0, 0, []
1630236216.6864, 29, 0, 4114.359, 4320.513, 4086.154, 4191.795, 4077.949, 0, 0, []
1630236216.6941, 30, 0, 4119.487, 4331.795, 4102.051, 4206.154, 4081.026, 0, 0, []
1630236216.702, 31, 0, 4117.436, 4365.641, 4084.615, 4197.949, 4074.872, 0, 0, []
1630236216.7098, 32, 0, 4118.462, 4351.795, 4061.538, 4184.615, 4070.769, 0, 0, []
1630236216.7177, 33, 0, 4100.513, 4318.462, 4038.974, 4171.795, 4056.923, 0, 0, []
1630236216.7255, 34, 0, 4073.333, 4330.769, 4028.205, 4163.077, 4041.538, 0, 0, []
1630236216.7333, 35, 0, 4070.256, 4332.308, 4047.179, 4166.154, 4041.538, 0, 0, []
1630236216.7411, 36, 0, 4077.436, 4283.59, 4030.769, 4156.41, 4046.154, 0, 0, []
1630236216.749, 37, 0, 4085.641, 4243.077, 4026.667, 4150.256, 4053.333, 0, 0, []
1630236216.7568, 38, 0, 4108.718, 4216.41, 4055.385, 4166.154, 4076.923, 0, 0, []
1630236216.7646, 39, 0, 4117.949, 4192.821, 4054.872, 4179.487, 4094.359, 0, 0, []
1630236216.7724, 40, 0, 4105.641, 4214.872, 4050.769, 4178.974, 4088.718, 0, 0, []
1630236216.7802, 41, 0, 4104.103, 4225.641, 4047.692, 4168.718, 4078.974, 0, 0, []
1630236216.7881, 42, 0, 4118.462, 4180.513, 4063.077, 4168.718, 4092.821, 0, 0, []
1630236216.7959, 43, 0, 4133.333, 4184.615, 4079.487, 4172.821, 4112.821, 0, 0, []
1630236216.8038, 44, 0, 4132.821, 4213.333, 4067.179, 4154.872, 4098.462, 0, 0, []
1630236216.8115, 45, 0, 4122.051, 4167.692, 4069.231, 4146.667, 4068.718, 0, 0, []
1630236216.8194, 46, 0, 4129.744, 4148.718, 4075.897, 4172.308, 4070.256, 0, 0, []
1630236216.8272, 47, 0, 4137.949, 4202.051, 4084.103, 4196.923, 4079.487, 0, 0, []
1630236216.8351, 48, 0, 4120, 4198.974, 4073.846, 4187.179, 4063.59, 0, 0, []
1630236216.8429, 49, 0, 4126.154, 4157.949, 4061.538, 4186.154, 4071.282, 0, 0, []
1630236216.8508, 50, 0, 4164.615, 4190.256, 4108.205, 4216.923, 4115.897, 0, 0, []
1630236216.8585, 51, 0, 4150.256, 4207.692, 4118.974, 4203.077, 4116.923, 0, 0, []
1630236216.8664, 52, 0, 4108.205, 4156.923, 4088.205, 4160, 4078.462, 0, 0, []
1630236216.8742, 53, 0, 4111.795, 4133.333, 4094.359, 4151.795, 4080, 0, 0, []
1630236216.8821, 54, 0, 4121.026, 4130.769, 4091.282, 4154.872, 4098.974, 0, 0, []
1630236216.8899, 55, 0, 4114.359, 4111.795, 4088.205, 4165.128, 4091.282, 0, 0, []
1630236216.8976, 56, 0, 4121.026, 4118.974, 4087.179, 4178.462, 4090.256, 0, 0, []
1630236216.9055, 57, 0, 4117.436, 4127.692, 4079.487, 4171.795, 4096.923, 0, 0, []
1630236216.9133, 58, 0, 4089.231, 4090.256, 4072.308, 4155.385, 4077.436, 0, 0, []
1630236216.9212, 59, 0, 4086.667, 4061.538, 4061.026, 4148.718, 4067.179, 0, 0, []
1630236216.929, 60, 0, 4105.641, 4084.615, 4081.538, 4154.359, 4083.077, 0, 0, []
1630236216.9368, 61, 0, 4100.513, 4112.821, 4087.179, 4144.615, 4082.051, 0, 0, []
1630236216.9446, 62, 0, 4078.462, 4101.026, 4072.821, 4125.128, 4057.949, 0, 0, []
1630236216.9525, 63, 0, 4072.308, 4085.641, 4073.846, 4122.564, 4043.59, 0, 0, []
1630236216.9603, 64, 0, 4086.154, 4131.282, 4064.103, 4131.795, 4048.205, 450, 0, []
1630236216.9682, 65, 0, 4087.692, 4184.103, 4075.897, 4151.282, 4051.795, 450, 0, []
1630236216.9759, 66, 0, 4082.564, 4196.923, 4086.154, 4169.231, 4057.436, 16163, 0, []
1630236216.9838, 67, 0, 4089.231, 4209.744, 4073.333, 4174.872, 4068.718, 450, 0, []
1630236216.9916, 68, 0, 4105.128, 4196.41, 4079.487, 4169.744, 4081.026, 323, 0, []
1630236216.9995, 69, 0, 4127.692, 4168.205, 4069.231, 4160.513, 4101.538, 450, 0, []
1630236217.0073, 70, 0, 4158.974, 4191.795, 4056.923, 4164.615, 4132.308, 322, 0, []
1630236217.0151, 71, 0, 4203.59, 4223.59, 4049.231, 4164.615, 4173.333, 450, 0, []
1630236217.0229, 72, 0, 4244.615, 4221.026, 4047.179, 4163.59, 4219.487, 450, 0, []
1630236217.0308, 73, 0, 4272.308, 4221.538, 4072.821, 4179.487, 4258.974, 269, 0, []
1630236217.0386, 74, 0, 4292.308, 4222.051, 4060, 4172.821, 4285.641, 450, 0, []
1630236217.0464, 75, 0, 4315.385, 4225.641, 4051.282, 4161.538, 4304.103, 16215, 0, []
1630236217.0542, 76, 0, 4343.59, 4242.051, 4076.41, 4175.385, 4326.667, 450, 0, []
1630236217.062, 77, 0, 4357.949, 4224.103, 4081.538, 4179.487, 4352.308, 450, 0, []
1630236217.0699, 78, 0, 4363.077, 4207.692, 4085.641, 4169.231, 4366.154, 450, 0, []
1630236217.0777, 79, 0, 4391.795, 4261.538, 4087.179, 4166.154, 4382.051, 16215, 0, []
1630236217.0856, 80, 0, 4434.872, 4296.923, 4106.154, 4180.513, 4417.436, 450, 0, []
1630236217.0933, 81, 0, 4449.744, 4267.692, 4113.846, 4185.128, 4437.436, 450, 0, []
1630236217.1012, 82, 0, 4444.615, 4228.718, 4096.41, 4177.949, 4432.308, 450, 0, []
1630236217.109, 83, 0, 4451.795, 4176.923, 4119.487, 4182.564, 4442.564, 16215, 0, []
1630236217.1169, 84, 0, 4468.718, 4172.308, 4119.487, 4173.333, 4459.487, 450, 0, []
1630236217.1247, 85, 0, 4488.205, 4241.538, 4107.692, 4175.385, 4470.769, 450, 0, []
1630236217.1325, 86, 0, 4510.769, 4225.128, 4123.59, 4207.692, 4498.462, 450, 0, []
1630236217.1403, 87, 0, 4518.974, 4135.897, 4117.436, 4217.436, 4513.846, 16215, 0, []
1630236217.1482, 88, 0, 4517.949, 4177.949, 4124.615, 4204.615, 4498.974, 450, 0, []
1630236217.156, 89, 0, 4537.949, 4280, 4129.231, 4199.487, 4512.308, 450, 0, []
1630236217.1639, 90, 0, 4545.128, 4254.359, 4120, 4208.205, 4536.41, 450, 0, []
1630236217.1717, 91, 0, 4517.949, 4178.974, 4110.256, 4210.769, 4513.333, 16215, 0, []
1630236217.1795, 92, 0, 4507.692, 4180.513, 4095.897, 4201.026, 4494.872, 450, 0, []
1630236217.1873, 93, 0, 4524.615, 4234.359, 4122.051, 4206.154, 4508.205, 450, 0, []
1630236217.1952, 94, 0, 4525.641, 4238.462, 4134.359, 4208.718, 4506.154, 450, 0, []
1630236217.203, 95, 0, 4511.795, 4178.974, 4125.128, 4197.436, 4491.282, 16215, 0, []
1630236217.2108, 96, 0, 4521.538, 4162.564, 4137.949, 4202.051, 4504.615, 450, 0, []
1630236217.2186, 97, 0, 4531.795, 4202.564, 4133.333, 4214.872, 4524.103, 450, 0, []
1630236217.2264, 98, 0, 4521.026, 4204.103, 4136.923, 4221.538, 4509.231, 450, 0, []
1630236217.2343, 99, 0, 4515.385, 4174.359, 4141.538, 4220, 4496.923, 16215, 0, []
1630236217.2421, 100, 0, 4520.513, 4180.513, 4142.564, 4216.923, 4503.59, 450, 0, []
1630236217.25, 101, 0, 4532.821, 4222.051, 4153.333, 4218.462, 4513.846, 450, 0, []
1630236217.2577, 102, 0, 4543.077, 4237.949, 4134.359, 4209.744, 4523.077, 450, 0, []
1630236217.2656, 103, 0, 4542.564, 4223.077, 4132.821, 4208.718, 4518.462, 16215, 0, []
1630236217.2734, 104, 0, 4530.769, 4236.41, 4136.41, 4211.795, 4508.718, 450, 0, []
1630236217.2813, 105, 0, 4525.128, 4268.718, 4123.59, 4211.282, 4506.154, 450, 0, []
1630236217.2891, 106, 0, 4521.538, 4273.333, 4138.974, 4225.128, 4504.615, 450, 0, []
1630236217.2969, 107, 0, 4497.436, 4255.897, 4138.462, 4225.128, 4485.128, 16215, 0, []
1630236217.3047, 108, 0, 4483.077, 4233.846, 4125.641, 4207.692, 4463.59, 450, 0, []
1630236217.3126, 109, 0, 4497.436, 4235.385, 4120, 4199.487, 4468.718, 450, 0, []
1630236217.3204, 110, 0, 4514.359, 4261.538, 4111.282, 4207.179, 4478.974, 450, 0, []
1630236217.3283, 111, 0, 4498.462, 4273.846, 4114.872, 4218.462, 4466.667, 16215, 0, []
1630236217.336, 112, 0, 4466.667, 4252.821, 4095.897, 4206.154, 4444.103, 450, 0, []
1630236217.3439, 113, 0, 4451.282, 4236.923, 4088.205, 4187.179, 4430.769, 450, 0, []
1630236217.3517, 114, 0, 4458.462, 4257.949, 4100.513, 4181.026, 4435.385, 450, 0, []
1630236217.3595, 115, 0, 4471.795, 4282.051, 4091.795, 4187.179, 4456.41, 16215, 0, []
1630236217.3674, 116, 0, 4469.231, 4269.231, 4104.615, 4207.179, 4458.462, 450, 0, []
1630236217.3751, 117, 0, 4455.385, 4231.795, 4100, 4197.949, 4433.846, 450, 0, []
1630236217.383, 118, 0, 4440.513, 4212.308, 4077.949, 4169.231, 4422.564, 450, 0, []
1630236217.3908, 119, 0, 4426.154, 4223.077, 4075.385, 4168.205, 4412.821, 16215, 0, []
1630236217.3987, 120, 0, 4414.872, 4234.359, 4073.846, 4171.282, 4394.872, 450, 0, []
1630236217.4065, 121, 0, 4411.795, 4228.718, 4089.231, 4169.744, 4395.385, 450, 0, []
1630236217.4143, 122, 0, 4418.462, 4214.359, 4085.128, 4178.974, 4404.103, 450, 0, []
1630236217.4221, 123, 0, 4415.897, 4205.128, 4087.179, 4192.821, 4407.179, 16215, 0, []
1630236217.4299, 124, 0, 4405.128, 4217.436, 4106.154, 4188.718, 4408.718, 450, 0, []
1630236217.4378, 125, 0, 4412.821, 4275.897, 4092.821, 4184.615, 4406.154, 450, 0, []
1630236217.4457, 126, 0, 4428.205, 4340.513, 4103.077, 4200.513, 4411.282, 450, 0, []
1630236217.4534, 127, 0, 4429.744, 4358.974, 4103.077, 4191.795, 4420, 16215, 0, []
1630236217.4613, 128, 0, 4420.513, 4357.949, 4086.667, 4182.051, 4408.205, 450, 0, []
1630236217.4691, 0, 0, 4406.154, 4351.282, 4097.949, 4202.564, 4397.436, 450, 0, []
1630236217.477, 1, 0, 4389.231, 4354.359, 4091.282, 4201.026, 4394.359, 450, 0, []
1630236217.4849, 2, 0, 4380, 4349.231, 4083.077, 4182.564, 4371.282, 16178, 0, []
1630236217.4927, 3, 0, 4372.308, 4317.949, 4066.154, 4166.154, 4354.872, 450, 0, []
1630236217.5004, 4, 0, 4361.026, 4323.59, 4053.333, 4156.41, 4364.615, 16072, 0, []
1630236217.5082, 5, 0, 4381.026, 4369.231, 4077.436, 4171.795, 4376.923, 450, 0, []
1630236217.5161, 6, 0, 4409.744, 4375.897, 4075.385, 4187.179, 4389.744, 289, 0, []
1630236217.524, 7, 0, 4391.795, 4343.59, 4071.795, 4181.026, 4388.205, 450, 0, []
1630236217.5318, 8, 0, 4367.179, 4334.872, 4073.846, 4173.333, 4365.641, 450, 0, []
1630236217.5395, 9, 0, 4382.051, 4334.872, 4071.282, 4189.744, 4368.718, 274, 0, []
1630236217.5474, 10, 0, 4392.308, 4338.462, 4080.513, 4204.103, 4389.744, 450, 0, []
1630236217.5552, 11, 0, 4376.41, 4352.821, 4068.205, 4182.564, 4377.436, 16201, 0, []
1630236217.5631, 12, 0, 4373.846, 4331.795, 4075.897, 4179.487, 4360.513, 450, 0, []
1630236217.5709, 13, 0, 4373.333, 4305.128, 4087.692, 4194.359, 4368.718, 450, 0, []
1630236217.5787, 14, 0, 4357.436, 4313.333, 4075.897, 4189.231, 4368.718, 450, 0, []
1630236217.5865, 15, 0, 4360, 4322.564, 4081.026, 4191.795, 4363.077, 16201, 0, []
1630236217.5944, 16, 0, 4367.179, 4310.769, 4071.795, 4194.359, 4365.128, 0, 0, []
1630236217.6022, 17, 0, 4351.282, 4306.154, 4072.821, 4184.615, 4360.513, 0, 0, []
1630236217.6101, 18, 0, 4347.179, 4304.103, 4087.692, 4182.564, 4351.282, 0, 0, []
1630236217.6178, 19, 0, 4353.333, 4291.795, 4079.487, 4192.821, 4341.026, 0, 0, []
1630236217.6257, 20, 0, 4324.615, 4293.333, 4075.385, 4191.282, 4327.179, 0, 0, []
1630236217.6335, 21, 0, 4288.205, 4309.231, 4063.59, 4162.564, 4312.821, 0, 0, []
1630236217.6414, 22, 0, 4289.744, 4326.667, 4067.179, 4152.821, 4293.846, 0, 0, []
1630236217.6492, 23, 0, 4308.718, 4332.821, 4073.846, 4176.41, 4289.744, 0, 0, []
1630236217.657, 24, 0, 4313.333, 4328.718, 4052.821, 4185.641, 4313.846, 0, 0, []
1630236217.6648, 25, 0, 4303.077, 4335.897, 4068.205, 4173.846, 4328.718, 0, 0, []
1630236217.6726, 26, 0, 4297.436, 4361.026, 4081.538, 4164.615, 4314.872, 0, 0, []
1630236217.6805, 27, 0, 4297.949, 4371.795, 4068.718, 4172.821, 4298.974, 0, 0, []
1630236217.6883, 28, 0, 4285.641, 4346.667, 4062.564, 4181.026, 4289.231, 0, 0, []
1630236217.6961, 29, 0, 4269.744, 4332.308, 4063.59, 4175.897, 4285.128, 0, 0, []
1630236217.7039, 30, 0, 4257.949, 4352.308, 4077.436, 4170.256, 4271.795, 0, 0, []
1630236217.7118, 31, 0, 4238.462, 4358.974, 4053.333, 4154.359, 4236.41, 0, 0, []
1630236217.7196, 32, 0, 4242.051, 4344.615, 4046.667, 4162.564, 4230.769, 0, 0, []
1630236217.7275, 33, 0, 4268.718, 4355.385, 4096.41, 4196.41, 4267.692, 0, 0, []
1630236217.7352, 34, 0, 4266.154, 4374.359, 4102.051, 4190.256, 4279.487, 0, 0, []
1630236217.7431, 35, 0, 4249.744, 4348.205, 4084.103, 4168.718, 4254.359, 0, 0, []
1630236217.7509, 36, 0, 4264.103, 4324.103, 4074.359, 4172.308, 4245.641, 0, 0, []
1630236217.7588, 37, 0, 4280, 4334.872, 4079.487, 4184.103, 4260, 0, 0, []
1630236217.7666, 38, 0, 4267.179, 4328.718, 4099.487, 4183.077, 4266.667, 0, 0, []
1630236217.7744, 39, 0, 4254.872, 4304.615, 4080, 4167.692, 4262.051, 0, 0, []
1630236217.7822, 40, 0, 4249.744, 4309.231, 4063.59, 4158.462, 4242.564, 0, 0, []
1630236217.7901, 41, 0, 4253.846, 4329.744, 4067.179, 4155.897, 4234.359, 0, 0, []
1630236217.7979, 42, 0, 4260.513, 4308.205, 4075.897, 4163.077, 4247.692, 0, 0, []
1630236217.8058, 43, 0, 4243.59, 4292.821, 4088.205, 4171.795, 4245.641, 0, 0, []
1630236217.8136, 44, 0, 4227.692, 4314.359, 4069.231, 4153.846, 4234.359, 0, 0, []
1630236217.8213, 45, 0, 4237.949, 4315.385, 4068.718, 4153.846, 4231.282, 0, 0, []
1630236217.8292, 46, 0, 4251.282, 4313.333, 4081.538, 4180, 4227.179, 0, 0, []
1630236217.837, 47, 0, 4242.051, 4325.128, 4072.821, 4182.564, 4222.564, 0, 0, []
1630236217.8449, 48, 0, 4226.667, 4318.974, 4079.487, 4181.026, 4230.256, 0, 0, []
1630236217.8527, 49, 0, 4228.205, 4295.385, 4077.949, 4189.231, 4237.949, 0, 0, []
1630236217.8605, 50, 0, 4232.821, 4309.231, 4088.205, 4192.821, 4228.205, 0, 0, []
1630236217.8683, 51, 0, 4235.897, 4346.154, 4101.026, 4188.718, 4216.923, 0, 0, []
1630236217.8762, 52, 0, 4230.256, 4332.821, 4102.564, 4186.667, 4214.872, 0, 0, []
1630236217.884, 53, 0, 4215.897, 4315.897, 4130.769, 4200.513, 4213.846, 0, 0, []
1630236217.8919, 54, 0, 4203.077, 4344.615, 4118.462, 4197.436, 4201.538, 0, 0, []
1630236217.8996, 55, 0, 4201.026, 4352.821, 4090.256, 4179.487, 4189.231, 0, 0, []
1630236217.9075, 56, 0, 4213.846, 4324.615, 4101.026, 4178.974, 4187.179, 0, 0, []
1630236217.9153, 57, 0, 4225.641, 4334.872, 4115.897, 4193.846, 4185.641, 0, 0, []
1630236217.9232, 58, 0, 4227.179, 4355.897, 4135.897, 4209.744, 4193.846, 0, 0, []
1630236217.931, 59, 0, 4211.282, 4331.795, 4124.103, 4194.872, 4192.821, 0, 0, []
1630236217.9388, 60, 0, 4198.462, 4304.103, 4109.744, 4173.333, 4177.949, 0, 0, []
1630236217.9466, 61, 0, 4198.462, 4299.487, 4112.821, 4170.256, 4179.487, 0, 0, []
1630236217.9545, 62, 0, 4191.282, 4316.923, 4105.128, 4174.872, 4178.462, 0, 0, []
1630236217.9623, 63, 0, 4185.641, 4343.077, 4128.718, 4194.872, 4157.949, 0, 0, []
1630236217.9701, 64, 0, 4183.59, 4340, 4130.769, 4195.897, 4140.513, 450, 0, []
1630236217.9779, 65, 0, 4167.179, 4322.564, 4105.128, 4178.974, 4136.41, 450, 0, []
1630236217.9857, 66, 0, 4150.256, 4319.487, 4109.744, 4184.103, 4137.949, 16192, 0, []
1630236217.9936, 67, 0, 4149.231, 4329.744, 4114.359, 4190.769, 4138.462, 450, 0, []
1630236218.0014, 68, 0, 4158.974, 4347.179, 4121.538, 4187.179, 4140, 16075, 0, []
1630236218.0093, 69, 0, 4167.692, 4342.051, 4120.513, 4184.615, 4146.154, 450, 0, []
1630236218.017, 70, 0, 4157.949, 4320, 4122.051, 4189.744, 4134.359, 285, 0, []
1630236218.0249, 71, 0, 4143.077, 4321.538, 4127.692, 4194.359, 4106.667, 450, 0, []
1630236218.0327, 72, 0, 4171.282, 4334.359, 4107.179, 4198.974, 4128.718, 450, 0, []
1630236218.0406, 73, 0, 4207.179, 4327.692, 4121.026, 4217.949, 4175.385, 280, 0, []
1630236218.0484, 74, 0, 4198.462, 4313.846, 4136.41, 4221.538, 4174.872, 450, 0, []
1630236218.0561, 75, 0, 4193.846, 4300, 4125.641, 4204.103, 4172.821, 16198, 0, []
1630236218.064, 76, 0, 4212.308, 4280, 4131.282, 4189.231, 4194.872, 450, 0, []
1630236218.0719, 77, 0, 4202.051, 4281.026, 4111.795, 4174.872, 4180, 450, 0, []
1630236218.0797, 78, 0, 4179.487, 4309.231, 4097.436, 4178.974, 4141.538, 450, 0, []
1630236218.0876, 79, 0, 4180.513, 4308.718, 4094.359, 4185.128, 4143.59, 16198, 0, []
1630236218.0954, 80, 0, 4173.333, 4277.436, 4090.256, 4181.538, 4160.513, 450, 0, []
1630236218.1032, 81, 0, 4147.179, 4284.103, 4110.256, 4188.718, 4150.769, 450, 0, []
1630236218.111, 82, 0, 4146.154, 4294.359, 4107.692, 4193.846, 4137.949, 450, 0, []
1630236218.1189, 83, 0, 4151.795, 4266.667, 4105.641, 4190.769, 4140.513, 16198, 0, []
1630236218.1267, 84, 0, 4135.897, 4273.333, 4105.641, 4175.385, 4137.436, 450, 0, []
1630236218.1346, 85, 0, 4146.154, 4300, 4097.436, 4172.821, 4139.487, 450, 0, []
1630236218.1423, 86, 0, 4181.026, 4293.333, 4104.615, 4197.436, 4159.487, 450, 0, []
1630236218.1501, 87, 0, 4194.359, 4310.769, 4088.718, 4198.974, 4171.795, 16198, 0, []
1630236218.158, 88, 0, 4204.615, 4330.769, 4095.897, 4188.718, 4177.436, 450, 0, []
1630236218.1658, 89, 0, 4218.974, 4302.564, 4124.103, 4195.385, 4190.769, 450, 0, []
1630236218.1737, 90, 0, 4203.59, 4303.59, 4111.282, 4196.923, 4187.179, 450, 0, []
1630236218.1814, 91, 0, 4184.103, 4341.026, 4105.128, 4198.462, 4173.846, 16198, 0, []
1630236218.1893, 92, 0, 4202.564, 4347.179, 4094.359, 4197.436, 4185.641, 450, 0, []
1630236218.1971, 93, 0, 4212.308, 4354.872, 4081.026, 4186.154, 4185.128, 450, 0, []
1630236218.205, 94, 0, 4189.231, 4388.205, 4073.846, 4173.333, 4150.256, 450, 0, []
1630236218.2128, 95, 0, 4166.667, 4392.821, 4055.897, 4164.615, 4134.872, 16198, 0, []
1630236218.2206, 96, 0, 4151.795, 4376.923, 4064.103, 4164.615, 4136.923, 450, 0, []
1630236218.2284, 97, 0, 4133.846, 4369.231, 4051.282, 4138.974, 4114.872, 450, 0, []
1630236218.2363, 98, 0, 4114.872, 4353.846, 4027.179, 4114.872, 4086.154, 450, 0, []
1630236218.2441, 99, 0, 4116.41, 4367.692, 4043.59, 4134.872, 4097.949, 16198, 0, []
1630236218.252, 100, 0, 4133.846, 4389.744, 4054.872, 4150.769, 4127.692, 450, 0, []
1630236218.2597, 101, 0, 4132.308, 4339.487, 4062.051, 4143.59, 4119.487, 450, 0, []
1630236218.2676, 102, 0, 4125.641, 4300.513, 4049.231, 4135.897, 4092.308, 450, 0, []
1630236218.2754, 103, 0, 4135.385, 4334.359, 4034.872, 4141.026, 4094.872, 16198, 0, []
1630236218.2832, 104, 0, 4136.41, 4353.846, 4036.923, 4144.103, 4102.051, 450, 0, []
1630236218.2911, 105, 0, 4129.744, 4340, 4021.026, 4133.333, 4098.974, 450, 0, []
1630236218.2988, 106, 0, 4132.821, 4340.513, 4032.308, 4135.385, 4108.718, 450, 0, []
1630236218.3067, 107, 0, 4124.615, 4356.41, 4042.051, 4133.333, 4107.692, 16198, 0, []
1630236218.3145, 108, 0, 4117.949, 4360.513, 4042.564, 4131.795, 4093.846, 450, 0, []
1630236218.3224, 109, 0, 4134.872, 4344.103, 4075.897, 4157.436, 4112.821, 450, 0, []
1630236218.3302, 110, 0, 4140.513, 4336.41, 4077.436, 4171.795, 4137.949, 450, 0, []
1630236218.338, 111, 0, 4147.692, 4342.051, 4080.513, 4169.231, 4135.897, 16198, 0, []
1630236218.3458, 112, 0, 4185.128, 4315.385, 4107.692, 4177.949, 4146.154, 450, 0, []
1630236218.3537, 113, 0, 4209.231, 4297.949, 4114.359, 4191.795, 4169.231, 450, 0, []
1630236218.3615, 114, 0, 4212.821, 4318.974, 4117.436, 4202.564, 4180.513, 450, 0, []
1630236218.3694, 115, 0, 4209.744, 4291.795, 4106.667, 4202.564, 4181.538, 16198, 0, []
1630236218.3771, 116, 0, 4184.615, 4255.385, 4108.718, 4197.949, 4172.821, 450, 0, []
1630236218.385, 117, 0, 4162.051, 4258.974, 4121.026, 4187.179, 4159.487, 450, 0, []
1630236218.3928, 118, 0, 4167.692, 4249.744, 4116.923, 4176.41, 4149.231, 450, 0, []
1630236218.4007, 119, 0, 4171.282, 4254.359, 4112.308, 4183.59, 4136.923, 16198, 0, []
1630236218.4085, 120, 0, 4157.949, 4298.462, 4089.744, 4178.462, 4126.154, 450, 0, []
1630236218.4164, 121, 0, 4146.667, 4323.59, 4096.41, 4171.282, 4124.103, 450, 0, []
1630236218.4241, 122, 0, 4152.821, 4316.41, 4120, 4187.179, 4134.872, 450, 0, []
1630236218.432, 123, 0, 4161.538, 4313.333, 4117.949, 4198.462, 4146.667, 16198, 0, []
1630236218.4398, 124, 0, 4153.846, 4317.949, 4126.667, 4194.359, 4140.513, 450, 0, []
1630236218.4476, 125, 0, 4156.41, 4340.513, 4125.128, 4192.308, 4142.051, 450, 0, []
1630236218.4555, 126, 0, 4171.282, 4341.026, 4132.821, 4207.179, 4154.359, 450, 0, []
1630236218.4633, 127, 0, 4164.103, 4309.231, 4142.051, 4209.231, 4134.872, 16198, 0, []
1630236218.4712, 128, 0, 4164.103, 4321.026, 4124.615, 4194.359, 4122.564, 450, 0, []
1630236218.4791, 0, 0, 4194.872, 4362.564, 4141.026, 4215.897, 4163.59, 450, 0, []
1630236218.487, 1, 0, 4203.59, 4358.462, 4145.641, 4234.872, 4190.256, 450, 0, []
1630236218.4948, 2, 0, 4183.077, 4330.256, 4135.385, 4218.974, 4168.718, 16186, 0, []
1630236218.5025, 3, 0, 4175.385, 4322.051, 4143.077, 4200, 4157.436, 450, 0, []
1630236218.5104, 4, 0, 4176.41, 4309.231, 4135.897, 4193.333, 4154.359, 16079, 0, []
1630236218.5183, 5, 0, 4186.154, 4314.872, 4145.641, 4210.769, 4154.359, 450, 0, []
1630236218.5261, 6, 0, 4204.103, 4355.385, 4142.051, 4219.487, 4176.41, 312, 0, []
1630236218.534, 7, 0, 4204.103, 4357.436, 4131.282, 4211.795, 4188.205, 450, 0, []
1630236218.5417, 8, 0, 4194.872, 4325.128, 4154.359, 4211.282, 4184.615, 450, 0, []
1630236218.5496, 9, 0, 4204.615, 4342.051, 4157.949, 4214.872, 4192.308, 279, 0, []
1630236218.5574, 10, 0, 4208.205, 4361.538, 4143.59, 4212.308, 4178.974, 450, 0, []
1630236218.5653, 11, 0, 4197.436, 4315.897, 4114.359, 4195.385, 4151.795, 16200, 0, []
1630236218.5731, 12, 0, 4202.051, 4257.949, 4104.103, 4195.897, 4164.103, 450, 0, []
1630236218.5809, 13, 0, 4197.949, 4204.103, 4123.59, 4213.846, 4177.436, 450, 0, []
1630236218.5887, 14, 0, 4165.128, 4157.436, 4116.923, 4208.718, 4152.308, 450, 0, []
1630236218.5965, 15, 0, 4144.103, 4166.154, 4120.513, 4204.615, 4130.769, 16200, 0, []
1630236218.6044, 16, 0, 4150.769, 4176.923, 4117.436, 4198.974, 4127.179, 0, 0, []
1630236218.6122, 17, 0, 4153.846, 4142.564, 4105.128, 4187.179, 4125.128, 0, 0, []
1630236218.62, 18, 0, 4150.256, 4129.231, 4119.487, 4196.41, 4121.538, 0, 0, []
1630236218.6278, 19, 0, 4157.436, 4134.359, 4106.154, 4205.128, 4117.436, 0, 0, []
1630236218.6357, 20, 0, 4168.205, 4102.051, 4097.436, 4210.256, 4127.179, 0, 0, []
1630236218.6435, 21, 0, 4166.667, 4081.538, 4104.103, 4209.744, 4142.051, 0, 0, []
1630236218.6514, 22, 0, 4158.974, 4093.846, 4102.564, 4199.487, 4137.949, 0, 0, []
1630236218.6591, 23, 0, 4160.513, 4091.795, 4116.923, 4195.897, 4135.385, 0, 0, []
1630236218.667, 24, 0, 4167.692, 4081.026, 4112.308, 4184.103, 4146.667, 0, 0, []
1630236218.6748, 25, 0, 4176.923, 4072.821, 4115.897, 4180.513, 4155.897, 0, 0, []
1630236218.6827, 26, 0, 4188.205, 4057.949, 4120, 4189.231, 4157.949, 0, 0, []
1630236218.6905, 27, 0, 4191.282, 4046.667, 4095.385, 4193.846, 4154.872, 0, 0, []
1630236218.6983, 28, 0, 4185.128, 4049.231, 4102.564, 4204.615, 4150.769, 0, 0, []
1630236218.7061, 29, 0, 4178.974, 4062.051, 4117.949, 4204.615, 4150.769, 0, 0, []
1630236218.714, 30, 0, 4172.821, 4075.385, 4121.026, 4198.974, 4152.308, 0, 0, []
1630236218.7218, 31, 0, 4168.718, 4062.051, 4115.385, 4202.051, 4156.923, 0, 0, []
1630236218.7297, 32, 0, 4168.718, 4041.538, 4093.333, 4207.179, 4162.051, 0, 0, []
1630236218.7375, 33, 0, 4170.769, 4087.179, 4106.154, 4215.385, 4159.487, 0, 0, []
1630236218.7452, 34, 0, 4181.026, 4166.667, 4122.051, 4223.59, 4154.359, 0, 0, []
1630236218.7531, 35, 0, 4197.949, 4210.769, 4130.256, 4236.923, 4165.128, 0, 0, []
1630236218.7609, 36, 0, 4207.692, 4223.59, 4130.769, 4242.564, 4183.077, 0, 0, []
1630236218.7688, 37, 0, 4201.026, 4212.821, 4106.667, 4230.769, 4185.128, 0, 0, []
1630236218.7766, 38, 0, 4181.026, 4182.564, 4112.821, 4224.615, 4171.795, 0, 0, []
1630236218.7844, 39, 0, 4174.359, 4185.128, 4118.462, 4213.846, 4168.205, 0, 0, []
1630236218.7922, 40, 0, 4186.154, 4187.692, 4113.846, 4203.077, 4176.41, 0, 0, []
1630236218.8001, 41, 0, 4186.154, 4163.077, 4117.436, 4206.154, 4159.487, 0, 0, []
1630236218.8079, 42, 0, 4182.564, 4176.923, 4096.41, 4208.718, 4137.949, 0, 0, []
1630236218.8158, 43, 0, 4198.462, 4208.205, 4094.872, 4216.41, 4153.333, 0, 0, []
1630236218.8235, 44, 0, 4204.103, 4211.282, 4097.436, 4223.077, 4175.385, 0, 0, []
1630236218.8314, 45, 0, 4185.128, 4205.128, 4092.821, 4221.538, 4170.769, 0, 0, []
1630236218.8392, 46, 0, 4185.128, 4214.872, 4114.872, 4218.462, 4165.128, 0, 0, []
1630236218.8471, 47, 0, 4208.718, 4227.692, 4124.615, 4212.821, 4172.308, 0, 0, []
1630236218.8549, 48, 0, 4206.154, 4228.205, 4124.103, 4214.359, 4156.41, 0, 0, []
1630236218.8627, 49, 0, 4180.513, 4220.513, 4115.385, 4208.718, 4125.641, 0, 0, []
1630236218.8705, 50, 0, 4160, 4198.974, 4110.769, 4197.949, 4108.718, 0, 0, []
1630236218.8784, 51, 0, 4149.231, 4166.154, 4120, 4204.103, 4108.718, 0, 0, []
1630236218.8862, 52, 0, 4142.051, 4152.821, 4103.077, 4203.59, 4113.846, 0, 0, []
1630236218.8941, 53, 0, 4126.154, 4195.385, 4098.974, 4197.436, 4102.051, 0, 0, []
1630236218.9018, 54, 0, 4121.538, 4229.231, 4094.359, 4193.333, 4092.821, 0, 0, []
1630236218.9097, 55, 0, 4142.051, 4197.949, 4085.128, 4192.308, 4109.231, 0, 0, []
1630236218.9175, 56, 0, 4157.949, 4190.256, 4111.282, 4207.179, 4117.949, 0, 0, []
1630236218.9253, 57, 0, 4157.436, 4240, 4107.179, 4218.462, 4109.231, 0, 0, []
1630236218.9332, 58, 0, 4170.769, 4257.949, 4099.487, 4223.077, 4123.077, 0, 0, []
1630236218.9409, 59, 0, 4180, 4201.026, 4106.154, 4219.487, 4145.641, 0, 0, []
1630236218.9488, 60, 0, 4157.949, 4160, 4091.282, 4212.821, 4135.385, 0, 0, []
1630236218.9566, 61, 0, 4160, 4170.769, 4096.41, 4221.026, 4137.949, 0, 0, []
1630236218.9645, 62, 0, 4197.949, 4149.744, 4097.949, 4211.795, 4169.744, 0, 0, []
1630236218.9723, 63, 0, 4206.154, 4118.462, 4102.051, 4195.385, 4172.308, 0, 0, []
1630236218.9801, 64, 0, 4187.179, 4142.051, 4108.718, 4195.897, 4145.641, 450, 0, []
1630236218.9879, 65, 0, 4176.923, 4129.231, 4090.769, 4197.949, 4135.897, 450, 0, []
1630236218.9958, 66, 0, 4171.282, 4072.308, 4094.359, 4194.359, 4136.923, 16179, 0, []
1630236219.0036, 67, 0, 4165.128, 4101.026, 4097.949, 4191.282, 4140, 450, 0, []
1630236219.0115, 68, 0, 4170.769, 4148.718, 4102.051, 4206.667, 4154.872, 16077, 0, []
1630236219.0192, 69, 0, 4172.821, 4133.846, 4109.231, 4208.205, 4162.564, 450, 0, []
1630236219.0271, 70, 0, 4167.179, 4125.128, 4087.179, 4183.077, 4158.974, 316, 0, []
1630236219.0349, 71, 0, 4168.205, 4125.641, 4079.487, 4182.051, 4150.256, 450, 0, []
1630236219.0428, 72, 0, 4173.846, 4097.949, 4069.744, 4189.231, 4136.41, 450, 0, []
1630236219.0506, 73, 0, 4178.974, 4111.282, 4058.974, 4190.769, 4140, 283, 0, []
1630236219.0585, 74, 0, 4177.436, 4154.872, 4068.205, 4200, 4154.359, 450, 0, []
1630236219.0662, 75, 0, 4169.231, 4114.872, 4066.154, 4187.692, 4147.179, 16202, 0, []
1630236219.074, 76, 0, 4165.128, 4055.385, 4081.538, 4182.051, 4141.538, 450, 0, []
1630236219.0819, 77, 0, 4171.795, 4092.308, 4090.769, 4200, 4154.872, 450, 0, []
1630236219.0897, 78, 0, 4169.744, 4122.051, 4079.487, 4202.051, 4146.667, 450, 0, []
1630236219.0976, 79, 0, 4151.282, 4061.026, 4080, 4188.205, 4124.103, 16202, 0, []
1630236219.1053, 80, 0, 4144.615, 4028.205, 4066.154, 4180, 4121.538, 450, 0, []
1630236219.1132, 81, 0, 4148.718, 4057.949, 4070.256, 4190.769, 4121.538, 450, 0, []
1630236219.121, 82, 0, 4148.718, 4063.077, 4076.923, 4202.564, 4112.821, 450, 0, []
1630236219.1289, 83, 0, 4138.462, 4071.282, 4066.154, 4204.615, 4100, 16202, 0, []
1630236219.1367, 84, 0, 4122.564, 4125.128, 4077.949, 4209.231, 4085.128, 450, 0, []
1630236219.1445, 85, 0, 4127.692, 4166.667, 4088.205, 4216.923, 4091.282, 450, 0, []
1630236219.1523, 86, 0, 4148.205, 4149.231, 4107.179, 4227.179, 4116.923, 450, 0, []
1630236219.1602, 87, 0, 4148.205, 4134.359, 4114.872, 4222.051, 4125.641, 16202, 0, []
1630236219.168, 88, 0, 4134.359, 4160, 4117.436, 4225.641, 4116.923, 450, 0, []
1630236219.1759, 89, 0, 4138.974, 4165.128, 4133.333, 4247.692, 4121.538, 450, 0, []
1630236219.1836, 90, 0, 4152.308, 4154.359, 4104.103, 4236.923, 4131.795, 450, 0, []
1630236219.1915, 91, 0, 4149.744, 4170.256, 4089.231, 4214.359, 4127.692, 16202, 0, []
1630236219.1993, 92, 0, 4148.718, 4153.846, 4094.872, 4211.795, 4128.718, 450, 0, []
1630236219.2072, 93, 0, 4171.795, 4123.59, 4087.179, 4222.051, 4145.128, 450, 0, []
1630236219.215, 94, 0, 4190.256, 4166.154, 4107.179, 4238.974, 4150.256, 450, 0, []
1630236219.2227, 95, 0, 4170.769, 4202.564, 4100, 4230.256, 4137.436, 16202, 0, []
1630236219.2306, 96, 0, 4146.154, 4184.103, 4080, 4210.256, 4124.615, 450, 0, []
1630236219.2384, 97, 0, 4151.795, 4180, 4083.59, 4210.256, 4120.513, 450, 0, []
1630236219.2463, 98, 0, 4161.026, 4181.026, 4091.795, 4228.205, 4138.462, 450, 0, []
1630236219.2541, 99, 0, 4153.333, 4167.692, 4102.564, 4240.513, 4155.385, 16202, 0, []
1630236219.2619, 100, 0, 4136.923, 4180, 4077.949, 4215.385, 4138.462, 450, 0, []
1630236219.2697, 101, 0, 4132.821, 4209.744, 4070.256, 4199.487, 4124.615, 450, 0, []
1630236219.2776, 102, 0, 4141.026, 4203.077, 4092.308, 4207.179, 4136.41, 450, 0, []
1630236219.2854, 103, 0, 4132.821, 4188.205, 4082.051, 4198.462, 4127.179, 16202, 0, []
1630236219.2933, 104, 0, 4121.538, 4192.821, 4089.231, 4201.538, 4102.564, 450, 0, []
1630236219.301, 105, 0, 4131.282, 4192.821, 4088.205, 4214.359, 4104.615, 450, 0, []
1630236219.3089, 106, 0, 4140.513, 4194.359, 4068.205, 4211.282, 4107.179, 450, 0, []
1630236219.3167, 107, 0, 4138.974, 4213.846, 4077.436, 4210.769, 4101.538, 16202, 0, []
1630236219.3246, 108, 0, 4141.026, 4214.359, 4092.821, 4221.538, 4111.282, 450, 0, []
1630236219.3324, 109, 0, 4141.026, 4176.41, 4100, 4224.103, 4120, 450, 0, []
1630236219.3403, 110, 0, 4112.308, 4149.231, 4068.205, 4194.872, 4100, 450, 0, []
1630236219.348, 111, 0, 4088.205, 4154.872, 4052.308, 4183.077, 4077.436, 16202, 0, []
1630236219.3559, 112, 0, 4102.564, 4181.538, 4087.692, 4207.692, 4088.718, 450, 0, []
1630236219.3637, 113, 0, 4104.103, 4191.795, 4087.179, 4207.692, 4094.872, 450, 0, []
1630236219.3716, 114, 0, 4074.872, 4168.718, 4072.308, 4192.821, 4077.949, 450, 0, []
1630236219.3794, 115, 0, 4079.487, 4152.821, 4067.692, 4196.923, 4083.59, 16202, 0, []
1630236219.3871, 116, 0, 4106.667, 4152.308, 4068.718, 4207.179, 4100.513, 450, 0, []
1630236219.395, 117, 0, 4100, 4161.026, 4073.333, 4205.641, 4092.308, 450, 0, []
1630236219.4028, 118, 0, 4097.436, 4179.487, 4058.974, 4194.872, 4089.744, 450, 0, []
1630236219.4107, 119, 0, 4128.718, 4188.718, 4073.333, 4202.564, 4108.718, 16202, 0, []
1630236219.4185, 120, 0, 4148.718, 4178.974, 4089.231, 4210.769, 4113.846, 450, 0, []
1630236219.4263, 121, 0, 4136.923, 4166.667, 4074.872, 4200, 4100.513, 450, 0, []
1630236219.4341, 122, 0, 4131.282, 4140.513, 4074.872, 4192.308, 4097.436, 450, 0, []
1630236219.442, 123, 0, 4149.231, 4115.897, 4071.282, 4186.667, 4113.333, 16202, 0, []
1630236219.4498, 124, 0, 4155.897, 4127.179, 4074.872, 4187.692, 4128.205, 450, 0, []
1630236219.4577, 125, 0, 4154.359, 4140.513, 4080, 4204.103, 4135.897, 450, 0, []
1630236219.4654, 126, 0, 4166.667, 4143.077, 4087.179, 4223.59, 4151.795, 450, 0, []
1630236219.4733, 127, 0, 4172.308, 4155.385, 4114.872, 4230.256, 4166.154, 16202, 0, []
1630236219.4812, 128, 0, 4161.538, 4153.846, 4094.872, 4212.308, 4157.436, 450, 0, []
1630236219.489, 0, 0, 4165.128, 4150.256, 4078.462, 4210.769, 4153.333, 450, 0, []
1630236219.4968, 1, 0, 4176.923, 4169.744, 4096.41, 4224.103, 4162.051, 450, 0, []
1630236219.5046, 2, 0, 4164.615, 4169.744, 4093.846, 4222.051, 4144.103, 16188, 0, []
1630236219.5124, 3, 0, 4157.436, 4169.231, 4100.513, 4226.154, 4125.128, 450, 0, []
1630236219.5202, 4, 0, 4161.538, 4217.949, 4094.872, 4224.103, 4136.923, 16075, 0, []
1630236219.5281, 5, 0, 4141.026, 4253.846, 4077.949, 4208.718, 4130.256, 450, 0, []
1630236219.5359, 6, 0, 4117.949, 4237.949, 4065.641, 4190.769, 4100.513, 323, 0, []
1630236219.5437, 7, 0, 4123.59, 4230.256, 4057.949, 4185.641, 4108.718, 450, 0, []
1630236219.5515, 8, 0, 4125.641, 4239.487, 4077.949, 4198.974, 4130.769, 450, 0, []
1630236219.5594, 9, 0, 4117.949, 4229.744, 4070.256, 4197.436, 4120, 280, 0, []
1630236219.5672, 10, 0, 4125.641, 4221.538, 4061.538, 4191.795, 4112.308, 450, 0, []
1630236219.5751, 11, 0, 4117.949, 4211.795, 4073.846, 4185.128, 4110.769, 16212, 0, []
1630236219.5828, 12, 0, 4087.179, 4175.385, 4051.795, 4168.718, 4090.256, 450, 0, []
1630236219.5907, 13, 0, 4093.846, 4164.103, 4046.667, 4178.974, 4090.256, 450, 0, []
1630236219.5985, 14, 0, 4120.513, 4162.051, 4051.795, 4187.692, 4104.615, 450, 0, []
1630236219.6064, 15, 0, 4104.103, 4089.744, 4048.718, 4172.308, 4081.026, 16212, 0, []
1630236219.6142, 16, 0, 4082.051, 4034.359, 4056.923, 4171.795, 4055.897, 0, 0, []
1630236219.622, 17, 0, 4103.077, 4056.923, 4056.923, 4184.615, 4078.974, 0, 0, []
1630236219.6298, 18, 0, 4119.487, 4054.872, 4070.256, 4201.538, 4096.41, 0, 0, []
1630236219.6377, 19, 0, 4093.333, 4049.231, 4063.59, 4200.513, 4064.103, 0, 0, []
1630236219.6455, 20, 0, 4077.436, 4110.769, 4046.667, 4180.513, 4038.462, 0, 0, []
1630236219.6534, 21, 0, 4095.897, 4157.949, 4058.462, 4178.974, 4050.256, 0, 0, []
1630236219.6612, 22, 0, 4100.513, 4158.974, 4053.333, 4189.231, 4061.538, 0, 0, []
1630236219.6689, 23, 0, 4088.718, 4156.41, 4056.923, 4195.385, 4059.487, 0, 0, []
1630236219.6768, 24, 0, 4106.154, 4155.897, 4066.154, 4199.487, 4074.359, 0, 0, []
1630236219.6846, 25, 0, 4138.974, 4174.872, 4062.051, 4211.282, 4101.538, 0, 0, []
1630236219.6925, 26, 0, 4137.949, 4184.103, 4066.667, 4213.846, 4108.205, 0, 0, []
1630236219.7003, 27, 0, 4131.282, 4160.513, 4059.487, 4200, 4109.231, 0, 0, []
1630236219.7081, 28, 0, 4151.282, 4164.103, 4070.769, 4206.667, 4126.667, 0, 0, []
1630236219.7159, 29, 0, 4167.179, 4164.615, 4075.385, 4209.231, 4140, 0, 0, []
1630236219.7238, 30, 0, 4153.333, 4109.231, 4065.128, 4198.974, 4140.513, 0, 0, []
1630236219.7316, 31, 0, 4136.923, 4084.103, 4089.744, 4206.667, 4137.949, 0, 0, []
1630236219.7395, 32, 0, 4137.949, 4127.179, 4085.641, 4202.051, 4130.256, 0, 0, []
1630236219.7472, 33, 0, 4141.026, 4156.41, 4068.205, 4186.667, 4122.564, 0, 0, []
1630236219.7551, 34, 0, 4137.436, 4157.436, 4080.513, 4183.077, 4123.077, 0, 0, []
1630236219.7629, 35, 0, 4141.026, 4155.897, 4089.744, 4189.744, 4122.564, 0, 0, []
1630236219.7709, 36, 0, 4150.769, 4153.333, 4092.308, 4204.103, 4121.538, 0, 0, []
1630236219.7788, 37, 0, 4148.718, 4185.641, 4074.359, 4205.641, 4120, 0, 0, []
1630236219.7866, 38, 0, 4140.513, 4227.179, 4075.385, 4204.615, 4109.231, 0, 0, []
1630236219.7944, 39, 0, 4136.41, 4197.436, 4087.179, 4210.769, 4104.103, 0, 0, []
1630236219.8023, 40, 0, 4127.692, 4168.205, 4075.897, 4207.692, 4100, 0, 0, []
1630236219.8101, 41, 0, 4120, 4200.513, 4080, 4200, 4086.667, 0, 0, []
1630236219.818, 42, 0, 4123.077, 4201.026, 4075.897, 4194.359, 4091.795, 0, 0, []
1630236219.8257, 43, 0, 4122.564, 4164.103, 4079.487, 4204.615, 4108.205, 0, 0, []
1630236219.8335, 44, 0, 4121.026, 4173.846, 4101.026, 4215.385, 4112.821, 0, 0, []
1630236219.8414, 45, 0, 4138.462, 4200, 4099.487, 4212.821, 4130.769, 0, 0, []
1630236219.8492, 46, 0, 4155.897, 4201.538, 4109.744, 4217.436, 4152.308, 0, 0, []
1630236219.8571, 47, 0, 4156.41, 4208.718, 4111.795, 4216.923, 4144.615, 0, 0, []
1630236219.8648, 48, 0, 4148.205, 4218.462, 4107.179, 4219.487, 4125.641, 0, 0, []
1630236219.8727, 49, 0, 4140.513, 4222.051, 4110.256, 4226.667, 4110.256, 0, 0, []
1630236219.8805, 50, 0, 4135.385, 4219.487, 4088.205, 4214.359, 4097.949, 0, 0, []
1630236219.8884, 51, 0, 4133.846, 4213.333, 4086.667, 4207.692, 4098.974, 0, 0, []
1630236219.8962, 52, 0, 4143.077, 4226.154, 4094.872, 4217.436, 4113.333, 0, 0, []
1630236219.904, 53, 0, 4165.128, 4235.897, 4100, 4232.308, 4138.974, 0, 0, []
1630236219.9118, 54, 0, 4176.923, 4229.231, 4114.872, 4243.077, 4154.359, 0, 0, []
1630236219.9197, 55, 0, 4173.333, 4235.897, 4108.718, 4240, 4153.846, 0, 0, []
1630236219.9275, 56, 0, 4173.333, 4249.231, 4115.897, 4238.462, 4157.436, 0, 0, []
1630236219.9354, 57, 0, 4173.333, 4236.923, 4105.128, 4219.487, 4152.821, 0, 0, []
1630236219.9431, 58, 0, 4174.359, 4213.846, 4081.538, 4193.846, 4130.769, 0, 0, []
1630236219.951, 59, 0, 4187.692, 4214.359, 4100, 4208.718, 4134.359, 0, 0, []
1630236219.9588, 60, 0, 4190.769, 4245.641, 4100.513, 4226.154, 4155.897, 0, 0, []
1630236219.9667, 61, 0, 4182.564, 4249.744, 4094.872, 4222.051, 4157.436, 0, 0, []
1630236219.9745, 62, 0, 4185.128, 4213.846, 4095.897, 4214.872, 4153.846, 0, 0, []
1630236219.9823, 63, 0, 4177.949, 4201.026, 4085.128, 4209.744, 4150.256, 0, 0, []
1630236219.9901, 64, 0, 4153.846, 4204.103, 4094.359, 4206.667, 4133.846, 450, 0, []
1630236219.9979, 65, 0, 4147.692, 4204.103, 4093.333, 4196.923, 4123.077, 450, 0, []
1630236220.0058, 66, 0, 4150.256, 4224.615, 4089.744, 4198.462, 4123.077, 16173, 0, []
1630236220.0136, 67, 0, 4136.923, 4222.051, 4082.564, 4200.513, 4107.179, 450, 0, []
1630236220.0215, 68, 0, 4135.385, 4200.513, 4074.872, 4195.385, 4089.231, 16075, 0, []
1630236220.0292, 69, 0, 4155.385, 4238.462, 4099.487, 4208.718, 4104.615, 450, 0, []
1630236220.0371, 70, 0, 4160, 4263.077, 4104.103, 4217.949, 4127.179, 314, 0, []
1630236220.0449, 71, 0, 4151.282, 4231.795, 4105.641, 4213.333, 4127.692, 450, 0, []
1630236220.0528, 72, 0, 4154.872, 4234.359, 4112.821, 4211.795, 4121.026, 450, 0, []
1630236220.0606, 73, 0, 4145.641, 4243.077, 4099.487, 4218.974, 4109.744, 266, 0, []
1630236220.0684, 74, 0, 4115.385, 4215.897, 4097.949, 4220.513, 4091.795, 450, 0, []
1630236220.0762, 75, 0, 4106.154, 4211.282, 4088.718, 4202.051, 4086.667, 16196, 0, []
1630236220.0841, 76, 0, 4121.538, 4220.513, 4086.667, 4196.41, 4092.308, 450, 0, []
1630236220.0919, 77, 0, 4127.692, 4201.538, 4086.154, 4201.026, 4090.256, 450, 0, []
1630236220.0998, 78, 0, 4134.359, 4198.974, 4069.744, 4195.897, 4087.692, 450, 0, []
1630236220.1075, 79, 0, 4147.179, 4209.231, 4086.154, 4195.385, 4085.641, 16196, 0, []
1630236220.1154, 80, 0, 4152.821, 4222.564, 4096.923, 4200.513, 4090.256, 450, 0, []
1630236220.1232, 81, 0, 4167.692, 4241.026, 4097.436, 4213.846, 4115.897, 450, 0, []
1630236220.131, 82, 0, 4185.641, 4187.692, 4107.179, 4217.436, 4137.949, 450, 0, []
1630236220.1389, 83, 0, 4188.718, 4116.923, 4097.436, 4207.692, 4145.128, 16196, 0, []
1630236220.1466, 84, 0, 4189.231, 4125.128, 4111.282, 4222.564, 4159.487, 450, 0, []
1630236220.1545, 85, 0, 4186.154, 4133.333, 4109.744, 4231.282, 4165.641, 450, 0, []
1630236220.1623, 86, 0, 4172.821, 4088.205, 4085.128, 4220, 4150.256, 450, 0, []
1630236220.1702, 87, 0, 4174.359, 4074.359, 4088.718, 4220.513, 4138.974, 16196, 0, []
1630236220.178, 88, 0, 4192.821, 4096.923, 4086.667, 4215.385, 4137.949, 450, 0, []
1630236220.1858, 89, 0, 4186.667, 4118.462, 4094.872, 4213.846, 4134.359, 450, 0, []
1630236220.1936, 90, 0, 4169.231, 4159.487, 4099.487, 4225.641, 4134.359, 450, 0, []
1630236220.2015, 91, 0, 4175.385, 4176.41, 4087.692, 4228.718, 4140, 16196, 0, []
1630236220.2093, 92, 0, 4183.59, 4176.923, 4097.436, 4229.744, 4144.615, 450, 0, []
1630236220.2172, 93, 0, 4174.359, 4187.179, 4096.923, 4229.231, 4153.333, 450, 0, []
1630236220.2249, 94, 0, 4158.462, 4177.436, 4101.026, 4217.436, 4152.821, 450, 0, []
1630236220.2328, 95, 0, 4161.538, 4176.923, 4107.692, 4200.513, 4139.487, 16196, 0, []
1630236220.2406, 96, 0, 4183.077, 4206.667, 4097.949, 4209.231, 4139.487, 450, 0, []
1630236220.2485, 97, 0, 4185.128, 4208.718, 4088.205, 4227.692, 4144.615, 450, 0, []
1630236220.2563, 98, 0, 4167.179, 4175.897, 4068.205, 4215.897, 4135.385, 450, 0, []
1630236220.2641, 99, 0, 4168.205, 4189.744, 4076.41, 4214.359, 4138.462, 16196, 0, []
1630236220.2719, 100, 0, 4180.513, 4209.231, 4087.692, 4219.487, 4151.795, 450, 0, []
1630236220.2798, 101, 0, 4168.718, 4181.538, 4074.359, 4207.179, 4148.205, 450, 0, []
1630236220.2876, 102, 0, 4158.462, 4176.41, 4090.769, 4211.795, 4148.718, 450, 0, []
1630236220.2956, 103, 0, 4173.333, 4210.769, 4102.051, 4218.462, 4161.538, 16196, 0, []
1630236220.3035, 104, 0, 4176.923, 4229.744, 4098.974, 4210.256, 4152.821, 450, 0, []
1630236220.3114, 105, 0, 4154.872, 4207.179, 4094.359, 4200.513, 4125.641, 450, 0, []
1630236220.3193, 106, 0, 4147.179, 4163.077, 4092.308, 4201.538, 4116.923, 450, 0, []
1630236220.3271, 107, 0, 4163.077, 4116.41, 4104.615, 4214.359, 4126.667, 16196, 0, []
1630236220.335, 108, 0, 4172.821, 4103.59, 4078.462, 4217.949, 4135.897, 450, 0, []
1630236220.3428, 109, 0, 4174.872, 4112.308, 4064.615, 4212.821, 4145.641, 450, 0, []
1630236220.3506, 110, 0, 4185.641, 4091.282, 4091.282, 4210.769, 4162.051, 450, 0, []
1630236220.3584, 111, 0, 4193.846, 4083.077, 4101.538, 4218.974, 4177.436, 16196, 0, []
1630236220.3663, 112, 0, 4182.564, 4105.128, 4108.718, 4231.795, 4170.256, 450, 0, []
1630236220.3741, 113, 0, 4160, 4109.231, 4087.179, 4217.949, 4140, 450, 0, []
1630236220.382, 114, 0, 4145.641, 4090.256, 4066.154, 4203.59, 4125.128, 450, 0, []
1630236220.3897, 115, 0, 4155.897, 4095.897, 4080, 4209.744, 4141.026, 16196, 0, []
1630236220.3976, 116, 0, 4174.359, 4136.923, 4077.949, 4208.718, 4143.59, 450, 0, []
1630236220.4054, 117, 0, 4171.282, 4138.462, 4074.872, 4207.692, 4113.846, 450, 0, []
1630236220.4133, 118, 0, 4159.487, 4104.615, 4061.026, 4206.154, 4106.667, 450, 0, []
1630236220.4211, 119, 0, 4162.051, 4107.179, 4051.795, 4206.154, 4128.205, 16196, 0, []
1630236220.4289, 120, 0, 4168.205, 4131.282, 4069.231, 4207.692, 4132.821, 450, 0, []
1630236220.4367, 121, 0, 4154.872, 4116.923, 4065.641, 4196.41, 4122.051, 450, 0, []
1630236220.4447, 122, 0, 4133.333, 4093.846, 4076.41, 4196.41, 4114.872, 450, 0, []
1630236220.4526, 123, 0, 4131.795, 4092.821, 4081.026, 4199.487, 4118.462, 16196, 0, []
1630236220.4605, 124, 0, 4146.154, 4082.051, 4068.718, 4196.41, 4126.667, 450, 0, []
1630236220.4683, 125, 0, 4161.026, 4094.359, 4073.333, 4202.051, 4133.333, 450, 0, []
1630236220.4762, 126, 0, 4179.487, 4131.282, 4069.231, 4210.256, 4149.231, 450, 0, []
1630236220.484, 127, 0, 4184.615, 4126.667, 4081.538, 4221.026, 4155.385, 16196, 0, []
1630236220.4918, 128, 0, 4169.231, 4092.821, 4086.154, 4213.846, 4124.615, 450, 0, []
1630236220.4997, 0, 0, 4153.333, 4076.41, 4064.615, 4192.821, 4091.795, 450, 0, []
1630236220.5074, 1, 0, 4148.718, 4073.846, 4060.513, 4188.205, 4092.821, 450, 0, []
1630236220.5153, 2, 0, 4160.513, 4087.179, 4053.846, 4181.026, 4113.846, 16187, 0, []
1630236220.5231, 3, 0, 4178.974, 4094.872, 4058.974, 4177.436, 4138.974, 450, 0, []
1630236220.531, 4, 0, 4180, 4060.513, 4064.103, 4183.59, 4152.821, 16082, 0, []
1630236220.5388, 5, 0, 4182.051, 4043.077, 4065.641, 4191.795, 4157.949, 450, 0, []
1630236220.5466, 6, 0, 4210.769, 4088.718, 4089.231, 4203.077, 4182.564, 312, 0, []
1630236220.5544, 7, 0, 4230.256, 4124.103, 4081.026, 4205.641, 4195.897, 450, 0, []
1630236220.5623, 8, 0, 4218.974, 4122.051, 4072.821, 4203.077, 4170.769, 450, 0, []
1630236220.5701, 9, 0, 4220.513, 4149.231, 4088.718, 4195.385, 4160.513, 277, 0, []
1630236220.578, 10, 0, 4237.436, 4191.795, 4096.923, 4192.308, 4181.026, 450, 0, []
1630236220.5857, 11, 0, 4234.359, 4179.487, 4115.385, 4210.769, 4194.359, 16188, 0, []
1630236220.5937, 12, 0, 4221.026, 4132.821, 4112.308, 4227.179, 4197.949, 450, 0, []
1630236220.6016, 13, 0, 4209.744, 4111.282, 4099.487, 4229.744, 4200.513, 450, 0, []
1630236220.6096, 14, 0, 4204.103, 4108.718, 4093.333, 4221.026, 4187.179, 450, 0, []
1630236220.6175, 15, 0, 4199.487, 4112.308, 4070.769, 4210.769, 4158.974, 16188, 0, []
1630236220.6255, 16, 0, 4197.436, 4124.103, 4076.41, 4213.333, 4147.692, 0, 0, []
1630236220.6333, 17, 0, 4206.154, 4128.205, 4094.872, 4210.256, 4165.641, 0, 0, []
1630236220.6413, 18, 0, 4220.513, 4122.051, 4110.256, 4198.974, 4186.667, 0, 0, []
1630236220.6492, 19, 0, 4215.897, 4116.923, 4114.359, 4193.333, 4183.59, 0, 0, []
1630236220.657, 20, 0, 4202.564, 4116.41, 4098.974, 4191.795, 4177.949, 0, 0, []
1630236220.6649, 21, 0, 4221.026, 4106.667, 4125.641, 4205.641, 4193.333, 0, 0, []
1630236220.6726, 22, 0, 4241.538, 4101.538, 4134.872, 4212.308, 4198.974, 0, 0, []
1630236220.6805, 23, 0, 4224.615, 4117.949, 4100, 4202.051, 4180.513, 0, 0, []
1630236220.6883, 24, 0, 4211.282, 4139.487, 4088.718, 4203.077, 4182.564, 0, 0, []
1630236220.6962, 25, 0, 4220, 4140, 4089.744, 4208.205, 4204.103, 0, 0, []
1630236220.704, 26, 0, 4223.59, 4098.462, 4101.026, 4204.103, 4201.538, 0, 0, []
1630236220.7118, 27, 0, 4218.462, 4075.385, 4098.462, 4193.333, 4189.231, 0, 0, []
1630236220.7196, 28, 0, 4220, 4121.026, 4095.385, 4196.41, 4180, 0, 0, []
1630236220.7275, 29, 0, 4215.897, 4142.051, 4101.026, 4205.128, 4158.462, 0, 0, []
1630236220.7353, 30, 0, 4202.564, 4100.513, 4082.564, 4200, 4150.769, 0, 0, []
1630236220.7432, 31, 0, 4197.436, 4095.897, 4089.231, 4201.538, 4165.641, 0, 0, []
1630236220.7509, 32, 0, 4203.59, 4148.205, 4090.769, 4203.077, 4170.769, 0, 0, []
1630236220.7589, 33, 0, 4201.538, 4180, 4073.333, 4197.949, 4170.256, 0, 0, []
1630236220.7668, 34, 0, 4188.718, 4182.051, 4086.154, 4191.282, 4170.256, 0, 0, []
1630236220.7748, 35, 0, 4174.872, 4172.308, 4084.615, 4175.897, 4155.897, 0, 0, []
1630236220.7827, 36, 0, 4171.282, 4126.667, 4089.231, 4180.513, 4147.692, 0, 0, []
1630236220.7906, 37, 0, 4187.179, 4101.538, 4103.59, 4195.897, 4153.333, 0, 0, []
1630236220.7985, 38, 0, 4203.077, 4142.051, 4091.282, 4196.41, 4152.821, 0, 0, []
1630236220.8064, 39, 0, 4204.615, 4177.949, 4087.692, 4202.051, 4161.538, 0, 0, []
1630236220.8143, 40, 0, 4196.41, 4155.897, 4083.077, 4196.923, 4173.846, 0, 0, []
1630236220.8221, 41, 0, 4186.154, 4117.949, 4089.231, 4186.667, 4161.538, 0, 0, []
1630236220.8299, 42, 0, 4183.077, 4124.103, 4092.821, 4191.795, 4158.462, 0, 0, []
1630236220.8377, 43, 0, 4182.051, 4144.103, 4073.333, 4193.333, 4165.641, 0, 0, []
1630236220.8456, 44, 0, 4172.821, 4168.205, 4076.41, 4189.744, 4155.897, 0, 0, []
1630236220.8534, 45, 0, 4164.615, 4191.282, 4078.462, 4187.692, 4154.872, 0, 0, []
1630236220.8613, 46, 0, 4173.846, 4168.205, 4089.231, 4195.385, 4156.923, 0, 0, []
1630236220.869, 47, 0, 4184.103, 4149.231, 4092.821, 4200, 4138.462, 0, 0, []
1630236220.8769, 48, 0, 4190.256, 4175.897, 4073.333, 4197.949, 4141.026, 0, 0, []
1630236220.8847, 49, 0, 4187.692, 4193.333, 4085.641, 4205.641, 4167.692, 0, 0, []
1630236220.8926, 50, 0, 4165.641, 4172.308, 4081.538, 4192.308, 4148.205, 0, 0, []
1630236220.9004, 51, 0, 4145.128, 4148.205, 4064.103, 4180, 4113.333, 0, 0, []
1630236220.9083, 52, 0, 4149.231, 4148.718, 4070.769, 4198.462, 4128.205, 0, 0, []
1630236220.9162, 53, 0, 4169.744, 4165.128, 4073.846, 4212.308, 4156.923, 0, 0, []
1630236220.9242, 54, 0, 4181.538, 4174.359, 4090.769, 4211.282, 4166.154, 0, 0, []
1630236220.9321, 55, 0, 4181.026, 4177.436, 4090.256, 4202.051, 4164.615, 0, 0, []
1630236220.9401, 56, 0, 4191.795, 4184.615, 4082.051, 4204.103, 4157.949, 0, 0, []
1630236220.948, 57, 0, 4206.667, 4178.462, 4086.154, 4210.769, 4150.256, 0, 0, []
1630236220.9559, 58, 0, 4189.231, 4155.897, 4071.282, 4195.897, 4152.308, 0, 0, []
1630236220.9638, 59, 0, 4164.615, 4150.769, 4077.949, 4184.103, 4150.256, 0, 0, []
1630236220.9716, 60, 0, 4179.487, 4162.051, 4095.385, 4190.256, 4150.256, 0, 0, []
1630236220.9795, 61, 0, 4190.256, 4164.615, 4095.897, 4197.436, 4163.077, 0, 0, []
1630236220.9873, 62, 0, 4170.256, 4171.282, 4085.128, 4187.179, 4157.436, 0, 0, []
1630236220.9951, 63, 0, 4164.615, 4180.513, 4062.051, 4170.769, 4141.538, 0, 0, []
1630236221.0029, 64, 0, 4174.359, 4183.59, 4069.744, 4178.974, 4129.231, 450, 0, []
1630236221.0108, 65, 0, 4175.385, 4185.128, 4074.359, 4190.769, 4127.179, 450, 0, []
1630236221.0186, 66, 0, 4162.564, 4188.205, 4064.615, 4188.205, 4129.744, 16193, 0, []
1630236221.0265, 67, 0, 4143.59, 4195.385, 4075.897, 4180, 4117.436, 450, 0, []
1630236221.0342, 68, 0, 4149.231, 4184.615, 4067.692, 4169.231, 4108.718, 16083, 0, []
1630236221.0421, 69, 0, 4167.179, 4146.154, 4068.718, 4179.487, 4128.718, 450, 0, []
1630236221.0499, 70, 0, 4158.462, 4135.897, 4077.949, 4193.846, 4142.051, 317, 0, []
1630236221.0578, 71, 0, 4148.205, 4174.359, 4070.256, 4186.667, 4128.718, 450, 0, []
1630236221.0656, 72, 0, 4169.744, 4186.667, 4081.538, 4185.128, 4132.821, 450, 0, []
1630236221.0735, 73, 0, 4182.564, 4145.128, 4079.487, 4189.231, 4143.59, 284, 0, []
1630236221.0814, 74, 0, 4172.308, 4140, 4079.487, 4194.359, 4129.231, 450, 0, []
1630236221.0894, 75, 0, 4175.385, 4176.41, 4081.026, 4200, 4126.154, 16198, 0, []
1630236221.0973, 76, 0, 4188.718, 4188.718, 4071.282, 4204.103, 4144.103, 450, 0, []
1630236221.1053, 77, 0, 4181.538, 4187.179, 4083.077, 4204.615, 4144.615, 450, 0, []
1630236221.1131, 78, 0, 4168.205, 4195.385, 4076.923, 4190.769, 4135.897, 450, 0, []
1630236221.1211, 79, 0, 4170.769, 4191.282, 4080.513, 4191.795, 4146.154, 16198, 0, []
1630236221.129, 80, 0, 4167.179, 4169.231, 4088.718, 4195.385, 4148.205, 450, 0, []
1630236221.1368, 81, 0, 4158.462, 4154.359, 4071.282, 4181.026, 4137.436, 450, 0, []
1630236221.1447, 82, 0, 4165.641, 4162.564, 4072.308, 4180, 4131.282, 450, 0, []
1630236221.1524, 83, 0, 4174.872, 4185.641, 4057.949, 4177.436, 4125.128, 16198, 0, []
1630236221.1603, 84, 0, 4177.436, 4200, 4053.333, 4175.385, 4124.103, 450, 0, []
1630236221.1681, 85, 0, 4182.051, 4208.205, 4075.897, 4184.615, 4133.333, 450, 0, []
1630236221.176, 86, 0, 4196.923, 4218.974, 4080.513, 4189.744, 4153.846, 450, 0, []
1630236221.1838, 87, 0, 4202.051, 4204.615, 4095.385, 4191.795, 4169.744, 16198, 0, []
1630236221.1916, 88, 0, 4184.103, 4178.974, 4093.846, 4179.487, 4162.564, 450, 0, []
1630236221.1994, 89, 0, 4169.744, 4178.974, 4081.538, 4164.615, 4149.231, 450, 0, []
1630236221.2073, 90, 0, 4183.59, 4187.692, 4085.128, 4165.128, 4147.179, 450, 0, []
1630236221.2151, 91, 0, 4192.821, 4191.282, 4073.333, 4167.179, 4142.051, 16198, 0, []
1630236221.2231, 92, 0, 4176.41, 4201.026, 4072.821, 4171.282, 4132.821, 450, 0, []
1630236221.2309, 93, 0, 4155.897, 4202.564, 4059.487, 4160.513, 4130.256, 450, 0, []
1630236221.2389, 94, 0, 4137.436, 4201.538, 4043.077, 4143.59, 4120, 450, 0, []
1630236221.2468, 95, 0, 4130.256, 4191.282, 4068.205, 4154.359, 4114.872, 16198, 0, []
1630236221.2548, 96, 0, 4135.897, 4161.538, 4075.385, 4170.256, 4125.641, 450, 0, []
1630236221.2627, 97, 0, 4143.077, 4175.897, 4071.282, 4172.821, 4138.462, 450, 0, []
1630236221.2706, 98, 0, 4150.256, 4208.718, 4071.282, 4166.667, 4141.538, 450, 0, []
1630236221.2785, 99, 0, 4153.333, 4189.744, 4075.385, 4166.667, 4129.231, 16198, 0, []
1630236221.2863, 100, 0, 4161.538, 4186.667, 4090.769, 4178.462, 4126.154, 450, 0, []
1630236221.2942, 101, 0, 4175.897, 4235.897, 4073.846, 4181.026, 4138.974, 450, 0, []
1630236221.302, 102, 0, 4182.564, 4257.436, 4068.205, 4183.077, 4144.103, 450, 0, []
1630236221.3099, 103, 0, 4188.205, 4232.821, 4076.923, 4182.564, 4145.128, 16198, 0, []
1630236221.3176, 104, 0, 4190.769, 4225.128, 4083.59, 4184.615, 4155.385, 450, 0, []
1630236221.3255, 105, 0, 4179.487, 4238.462, 4102.051, 4198.974, 4161.026, 450, 0, []
1630236221.3333, 106, 0, 4168.718, 4226.667, 4077.949, 4192.821, 4152.821, 450, 0, []
1630236221.3412, 107, 0, 4160, 4203.077, 4052.308, 4167.692, 4138.974, 16198, 0, []
1630236221.349, 108, 0, 4149.231, 4210.256, 4052.821, 4153.846, 4129.231, 450, 0, []
1630236221.3568, 109, 0, 4147.692, 4229.744, 4060, 4163.077, 4128.205, 450, 0, []
1630236221.3646, 110, 0, 4154.359, 4213.846, 4070.769, 4174.872, 4122.564, 450, 0, []
1630236221.3726, 111, 0, 4151.795, 4203.077, 4046.154, 4158.462, 4108.205, 16198, 0, []
1630236221.3805, 112, 0, 4140, 4202.051, 4030.256, 4145.641, 4094.872, 450, 0, []
1630236221.3885, 113, 0, 4133.846, 4169.231, 4034.359, 4146.667, 4088.205, 450, 0, []
1630236221.3963, 114, 0, 4138.974, 4165.641, 4035.385, 4150.769, 4100.513, 450, 0, []
1630236221.4043, 115, 0, 4145.641, 4213.846, 4057.436, 4168.718, 4119.487, 16198, 0, []
1630236221.4122, 116, 0, 4143.59, 4217.949, 4061.026, 4179.487, 4126.154, 450, 0, []
1630236221.4202, 117, 0, 4145.641, 4186.154, 4072.821, 4187.692, 4133.846, 450, 0, []
1630236221.4281, 118, 0, 4157.949, 4208.205, 4093.333, 4186.667, 4143.59, 450, 0, []
1630236221.436, 119, 0, 4167.692, 4223.077, 4071.282, 4164.615, 4142.051, 16198, 0, []
1630236221.4439, 120, 0, 4171.795, 4198.462, 4067.179, 4162.564, 4137.436, 450, 0, []
1630236221.4518, 121, 0, 4175.897, 4225.641, 4077.949, 4165.641, 4133.846, 450, 0, []
1630236221.4597, 122, 0, 4170.256, 4258.462, 4081.026, 4151.795, 4120, 450, 0, []
1630236221.4676, 123, 0, 4156.41, 4215.385, 4071.795, 4146.667, 4113.846, 16198, 0, []
1630236221.4754, 124, 0, 4152.308, 4184.615, 4046.667, 4165.128, 4120.513, 450, 0, []
1630236221.4832, 125, 0, 4150.769, 4210.769, 4051.795, 4180.513, 4116.923, 450, 0, []
1630236221.4912, 126, 0, 4137.436, 4227.179, 4053.846, 4161.026, 4106.667, 450, 0, []
1630236221.4991, 127, 0, 4129.231, 4218.462, 4058.462, 4145.641, 4107.179, 16198, 0, []
1630236221.507, 128, 0, 4143.077, 4196.41, 4083.59, 4157.949, 4111.795, 450, 0, []
1630236221.5147, 0, 0, 4154.359, 4195.385, 4071.282, 4163.59, 4106.667, 450, 0, []
1630236221.5226, 1, 0, 4153.333, 4233.333, 4062.051, 4165.641, 4101.026, 450, 0, []
1630236221.5304, 2, 0, 4155.897, 4236.41, 4061.538, 4172.308, 4108.718, 16192, 0, []
1630236221.5383, 3, 0, 4160, 4208.718, 4055.897, 4181.538, 4123.077, 450, 0, []
1630236221.5461, 4, 0, 4160, 4234.359, 4071.282, 4180.513, 4126.667, 16079, 0, []
1630236221.554, 5, 0, 4153.846, 4254.359, 4065.641, 4160, 4118.974, 450, 0, []
1630236221.5619, 6, 0, 4138.974, 4200.513, 4056.41, 4154.872, 4110.769, 319, 0, []
1630236221.5699, 7, 0, 4119.487, 4176.41, 4048.718, 4158.462, 4106.154, 450, 0, []
1630236221.5778, 8, 0, 4102.051, 4216.41, 4045.641, 4158.462, 4098.462, 450, 0, []
1630236221.5858, 9, 0, 4092.821, 4218.974, 4063.59, 4162.051, 4085.641, 286, 0, []
1630236221.5936, 10, 0, 4097.949, 4206.154, 4057.949, 4148.205, 4071.795, 450, 0, []
1630236221.6016, 11, 0, 4109.744, 4239.487, 4061.538, 4140, 4073.846, 16211, 0, []
1630236221.6095, 12, 0, 4125.128, 4250.256, 4079.487, 4164.103, 4099.487, 450, 0, []
1630236221.6173, 13, 0, 4151.282, 4227.179, 4092.308, 4191.795, 4122.564, 450, 0, []
1630236221.6252, 14, 0, 4163.077, 4260, 4105.641, 4193.333, 4122.564, 450, 0, []
1630236221.6329, 15, 0, 4146.667, 4297.436, 4078.462, 4172.821, 4107.179, 16211, 0, []
1630236221.6408, 16, 0, 4137.949, 4258.462, 4070.256, 4168.718, 4099.487, 0, 0, []
1630236221.6486, 17, 0, 4134.359, 4240, 4081.026, 4169.744, 4098.974, 0, 0, []
1630236221.6565, 18, 0, 4114.872, 4273.333, 4060.513, 4152.308, 4092.821, 0, 0, []
1630236221.6643, 19, 0, 4104.103, 4266.667, 4062.564, 4149.231, 4088.205, 0, 0, []
1630236221.6722, 20, 0, 4113.333, 4225.128, 4062.051, 4152.821, 4093.333, 0, 0, []
1630236221.6799, 21, 0, 4116.41, 4216.923, 4060.513, 4153.333, 4096.41, 0, 0, []
1630236221.6879, 22, 0, 4123.59, 4249.744, 4069.744, 4163.59, 4108.205, 0, 0, []
1630236221.6958, 23, 0, 4146.154, 4253.333, 4064.103, 4165.641, 4130.769, 0, 0, []
1630236221.7038, 24, 0, 4158.974, 4223.59, 4077.436, 4157.949, 4136.41, 0, 0, []
1630236221.7117, 25, 0, 4155.385, 4245.641, 4075.897, 4151.282, 4123.077, 0, 0, []
1630236221.7196, 26, 0, 4147.692, 4296.923, 4068.205, 4164.615, 4117.436, 0, 0, []
1630236221.7275, 27, 0, 4142.564, 4288.205, 4076.923, 4178.462, 4120, 0, 0, []
1630236221.7355, 28, 0, 4135.385, 4259.487, 4064.103, 4162.564, 4118.462, 0, 0, []
1630236221.7434, 29, 0, 4135.897, 4272.821, 4062.564, 4160, 4124.615, 0, 0, []
1630236221.7514, 30, 0, 4146.154, 4276.41, 4075.897, 4185.128, 4140, 0, 0, []
1630236221.7592, 31, 0, 4145.128, 4240.513, 4096.41, 4205.641, 4141.026, 0, 0, []
1630236221.767, 32, 0, 4132.308, 4226.667, 4091.282, 4182.564, 4123.59, 0, 0, []
1630236221.7749, 33, 0, 4124.615, 4249.744, 4050.769, 4148.205, 4111.282, 0, 0, []
1630236221.7827, 34, 0, 4124.103, 4254.359, 4066.154, 4159.487, 4111.795, 0, 0, []
1630236221.7906, 35, 0, 4128.205, 4253.333, 4094.872, 4168.718, 4107.692, 0, 0, []
1630236221.7983, 36, 0, 4135.385, 4283.59, 4081.538, 4170.256, 4104.103, 0, 0, []
1630236221.8062, 37, 0, 4132.821, 4285.128, 4063.59, 4180, 4103.077, 0, 0, []
1630236221.814, 38, 0, 4123.59, 4253.333, 4055.897, 4175.385, 4100.513, 0, 0, []
1630236221.8219, 39, 0, 4117.949, 4256.41, 4078.462, 4169.744, 4091.795, 0, 0, []
1630236221.8297, 40, 0, 4106.667, 4261.538, 4076.41, 4159.487, 4085.128, 0, 0, []
1630236221.8376, 41, 0, 4106.154, 4266.667, 4058.462, 4151.795, 4094.359, 0, 0, []
1630236221.8455, 42, 0, 4122.051, 4292.308, 4070.769, 4159.487, 4104.615, 0, 0, []
1630236221.8535, 43, 0, 4125.641, 4283.077, 4064.103, 4166.667, 4107.692, 0, 0, []
1630236221.8614, 44, 0, 4106.154, 4248.205, 4068.718, 4177.436, 4107.179, 0, 0, []
1630236221.8694, 45, 0, 4095.385, 4243.59, 4078.462, 4180.513, 4104.615, 0, 0, []
1630236221.8772, 46, 0, 4112.821, 4250.769, 4074.359, 4169.231, 4109.744, 0, 0, []
1630236221.8852, 47, 0, 4120.513, 4264.615, 4090.769, 4171.282, 4118.462, 0, 0, []
1630236221.8931, 48, 0, 4110.769, 4291.795, 4079.487, 4174.359, 4116.41, 0, 0, []
1630236221.9011, 49, 0, 4115.385, 4284.103, 4059.487, 4165.641, 4106.667, 0, 0, []
1630236221.909, 50, 0, 4130.256, 4259.487, 4059.487, 4160, 4102.051, 0, 0, []
1630236221.9167, 51, 0, 4132.308, 4277.949, 4063.077, 4174.872, 4110.256, 0, 0, []
1630236221.9246, 52, 0, 4121.026, 4304.615, 4082.051, 4192.308, 4108.718, 0, 0, []
1630236221.9324, 53, 0, 4111.795, 4309.231, 4066.154, 4171.282, 4091.282, 0, 0, []
1630236221.9403, 54, 0, 4109.231, 4293.846, 4046.667, 4154.872, 4088.205, 0, 0, []
1630236221.9481, 55, 0, 4111.282, 4276.923, 4060.513, 4175.897, 4106.154, 0, 0, []
1630236221.9559, 56, 0, 4113.846, 4274.872, 4068.205, 4185.128, 4116.923, 0, 0, []
1630236221.9637, 57, 0, 4106.154, 4267.692, 4074.872, 4169.744, 4096.923, 0, 0, []
1630236221.9716, 58, 0, 4097.949, 4263.59, 4067.692, 4156.41, 4080.513, 0, 0, []
1630236221.9794, 59, 0, 4103.077, 4288.205, 4068.205, 4167.692, 4093.846, 0, 0, []
1630236221.9873, 60, 0, 4112.308, 4298.462, 4075.897, 4176.923, 4104.615, 0, 0, []
1630236221.9951, 61, 0, 4107.179, 4250.256, 4067.179, 4166.667, 4089.231, 0, 0, []
1630236222.003, 62, 0, 4103.077, 4236.923, 4076.923, 4171.795, 4086.667, 0, 0, []
1630236222.0109, 63, 0, 4113.846, 4274.872, 4071.282, 4174.359, 4098.462, 0, 0, []
1630236222.0189, 64, 0, 4104.103, 4261.538, 4062.051, 4149.744, 4078.974, 450, 0, []
1630236222.0268, 65, 0, 4085.128, 4234.359, 4071.282, 4137.949, 4062.051, 450, 0, []
1630236222.0348, 66, 0, 4095.385, 4241.538, 4061.026, 4148.718, 4074.872, 16187, 0, []
1630236222.0426, 67, 0, 4108.718, 4247.692, 4067.692, 4154.872, 4079.487, 450, 0, []
1630236222.0506, 68, 0, 4105.641, 4247.692, 4068.718, 4150.256, 4076.923, 16072, 0, []
1630236222.0585, 69, 0, 4111.282, 4260, 4054.359, 4161.538, 4078.462, 450, 0, []
1630236222.0663, 70, 0, 4122.564, 4264.103, 4053.846, 4171.795, 4073.333, 319, 0, []
1630236222.0742, 71, 0, 4118.462, 4263.077, 4044.615, 4160, 4069.744, 450, 0, []
1630236222.0819, 72, 0, 4122.564, 4289.744, 4064.615, 4164.615, 4082.051, 450, 0, []
1630236222.0898, 73, 0, 4146.154, 4339.487, 4092.308, 4174.872, 4107.692, 285, 0, []
1630236222.0976, 74, 0, 4157.436, 4372.308, 4097.949, 4180.513, 4133.846, 450, 0, []
1630236222.1055, 75, 0, 4144.615, 4367.179, 4093.333, 4185.128, 4131.282, 16216, 0, []
1630236222.1133, 76, 0, 4127.179, 4350.256, 4073.846, 4177.949, 4110.256, 450, 0, []
1630236222.1211, 77, 0, 4115.385, 4303.077, 4088.205, 4177.436, 4106.667, 450, 0, []
1630236222.1289, 78, 0, 4106.667, 4216.41, 4092.308, 4166.667, 4107.179, 450, 0, []
1630236222.1368, 79, 0, 4117.949, 4163.077, 4067.179, 4149.231, 4104.615, 16216, 0, []
1630236222.1446, 80, 0, 4162.051, 4166.667, 4078.462, 4167.179, 4130.256, 450, 0, []
1630236222.1526, 81, 0, 4178.974, 4152.821, 4057.436, 4173.333, 4140.513, 450, 0, []
1630236222.1604, 82, 0, 4152.308, 4123.077, 4026.154, 4157.436, 4112.308, 450, 0, []
1630236222.1684, 83, 0, 4161.538, 4133.333, 4064.103, 4173.846, 4121.026, 16216, 0, []
1630236222.1763, 84, 0, 4184.103, 4148.718, 4106.154, 4196.923, 4158.974, 450, 0, []
1630236222.1843, 85, 0, 4162.564, 4146.154, 4106.667, 4189.231, 4161.026, 450, 0, []
1630236222.1922, 86, 0, 4147.179, 4142.051, 4089.231, 4179.487, 4147.692, 450, 0, []
1630236222.2001, 87, 0, 4161.026, 4122.051, 4097.949, 4187.692, 4156.923, 16216, 0, []
1630236222.208, 88, 0, 4150.256, 4076.41, 4077.949, 4166.154, 4147.692, 450, 0, []
1630236222.216, 89, 0, 4125.128, 4064.615, 4033.846, 4135.385, 4111.282, 450, 0, []
1630236222.2239, 90, 0, 4120, 4094.872, 4044.103, 4148.718, 4089.744, 450, 0, []
1630236222.2317, 91, 0, 4119.487, 4088.718, 4050.256, 4161.026, 4085.641, 16216, 0, []
1630236222.2395, 92, 0, 4118.974, 4057.949, 4062.051, 4160.513, 4090.769, 450, 0, []
1630236222.2473, 93, 0, 4135.897, 4072.308, 4087.179, 4164.103, 4107.692, 450, 0, []
1630236222.2552, 94, 0, 4156.41, 4102.564, 4078.462, 4169.231, 4133.846, 450, 0, []
1630236222.263, 95, 0, 4159.487, 4080, 4087.179, 4182.051, 4148.718, 16216, 0, []
1630236222.2709, 96, 0, 4168.205, 4061.538, 4093.333, 4187.692, 4157.949, 450, 0, []
1630236222.2786, 97, 0, 4186.667, 4094.872, 4093.333, 4182.564, 4173.333, 450, 0, []
1630236222.2866, 98, 0, 4196.923, 4105.641, 4107.179, 4176.923, 4175.385, 450, 0, []
1630236222.2945, 99, 0, 4207.179, 4089.744, 4100.513, 4181.026, 4165.641, 16216, 0, []
1630236222.3025, 100, 0, 4227.179, 4090.769, 4103.59, 4190.256, 4175.385, 450, 0, []
1630236222.3104, 101, 0, 4237.436, 4080, 4102.564, 4178.974, 4202.564, 450, 0, []
1630236222.3183, 102, 0, 4224.615, 4051.282, 4095.385, 4166.667, 4202.564, 450, 0, []
1630236222.3262, 103, 0, 4218.974, 4058.462, 4098.974, 4174.359, 4198.974, 16216, 0, []
1630236222.3342, 104, 0, 4222.051, 4082.051, 4082.564, 4167.692, 4204.103, 450, 0, []
1630236222.3421, 105, 0, 4209.744, 4077.436, 4081.026, 4162.564, 4178.462, 450, 0, []
1630236222.3501, 106, 0, 4191.795, 4062.564, 4070.769, 4171.795, 4149.231, 450, 0, []
1630236222.358, 107, 0, 4184.103, 4044.103, 4052.308, 4164.615, 4144.615, 16216, 0, []
1630236222.3659, 108, 0, 4164.615, 4040.513, 4058.974, 4143.59, 4126.154, 450, 0, []
1630236222.3738, 109, 0, 4142.051, 4065.641, 4054.359, 4140, 4105.641, 450, 0, []
1630236222.3816, 110, 0, 4151.795, 4066.667, 4068.205, 4169.231, 4125.128, 450, 0, []
1630236222.3895, 111, 0, 4170.769, 4059.487, 4093.333, 4187.179, 4151.282, 16216, 0, []
1630236222.3973, 112, 0, 4173.333, 4081.538, 4086.154, 4173.846, 4149.744, 450, 0, []
1630236222.4051, 113, 0, 4179.487, 4100, 4079.487, 4161.026, 4148.205, 450, 0, []
1630236222.4129, 114, 0, 4200, 4109.231, 4085.128, 4166.667, 4163.077, 450, 0, []
1630236222.4208, 115, 0, 4222.564, 4117.436, 4103.59, 4186.154, 4176.923, 16216, 0, []
1630236222.4286, 116, 0, 4236.41, 4117.949, 4097.436, 4179.487, 4181.538, 450, 0, []
1630236222.4365, 117, 0, 4243.59, 4129.744, 4083.077, 4165.641, 4196.923, 450, 0, []
1630236222.4442, 118, 0, 4227.692, 4139.487, 4100.513, 4176.41, 4197.436, 450, 0, []
1630236222.4521, 119, 0, 4202.051, 4109.231, 4089.744, 4168.718, 4173.333, 16216, 0, []
1630236222.46, 120, 0, 4202.564, 4085.641, 4084.103, 4154.359, 4169.231, 450, 0, []
1630236222.4679, 121, 0, 4207.179, 4084.103, 4084.103, 4155.385, 4165.128, 450, 0, []
1630236222.4758, 122, 0, 4202.051, 4074.359, 4066.154, 4161.538, 4152.308, 450, 0, []
1630236222.4837, 123, 0, 4202.051, 4089.744, 4087.179, 4170.769, 4162.051, 16216, 0, []
1630236222.4917, 124, 0, 4188.718, 4098.974, 4087.179, 4165.128, 4162.564, 450, 0, []
1630236222.4996, 125, 0, 4179.487, 4094.872, 4075.385, 4174.872, 4160.513, 450, 0, []
1630236222.5075, 126, 0, 4175.897, 4103.59, 4080, 4183.59, 4166.667, 450, 0, []
1630236222.5155, 127, 0, 4152.821, 4118.974, 4076.41, 4163.077, 4143.59, 16216, 0, []
1630236222.5233, 128, 0, 4155.897, 4167.692, 4093.333, 4166.154, 4138.462, 450, 0, []
1630236222.5311, 0, 0, 4183.077, 4226.667, 4080.513, 4176.923, 4162.051, 450, 0, []
1630236222.5391, 1, 0, 4161.538, 4250.256, 4051.282, 4156.923, 4128.718, 450, 0, []
1630236222.547, 2, 0, 4145.641, 4262.564, 4057.949, 4149.744, 4092.821, 16189, 0, []
1630236222.555, 3, 0, 4177.436, 4287.179, 4072.821, 4169.231, 4132.821, 450, 0, []
1630236222.5628, 4, 0, 4185.641, 4294.359, 4094.359, 4180, 4161.538, 16086, 0, []
1630236222.5708, 5, 0, 4169.744, 4290.256, 4090.769, 4167.179, 4146.667, 450, 0, []
1630236222.5787, 6, 0, 4161.538, 4307.692, 4080, 4156.923, 4139.487, 322, 0, []
1630236222.5867, 7, 0, 4171.795, 4327.179, 4091.795, 4160.513, 4151.282, 450, 0, []
1630236222.5946, 8, 0, 4204.103, 4324.615, 4083.077, 4155.897, 4163.077, 450, 0, []
1630236222.6025, 9, 0, 4210.769, 4319.487, 4072.308, 4147.179, 4154.359, 283, 0, []
1630236222.6104, 10, 0, 4194.359, 4346.154, 4065.641, 4143.59, 4147.692, 450, 0, []
1630236222.6184, 11, 0, 4210.256, 4372.308, 4070.769, 4150.769, 4163.59, 16244, 0, []
1630236222.6264, 12, 0, 4228.718, 4363.077, 4087.179, 4155.385, 4175.897, 450, 0, []
1630236222.6343, 13, 0, 4219.487, 4344.103, 4091.795, 4155.897, 4185.641, 450, 0, []
1630236222.6422, 14, 0, 4219.487, 4352.821, 4106.667, 4163.59, 4186.154, 450, 0, []
1630236222.6501, 15, 0, 4233.846, 4404.103, 4100.513, 4163.59, 4171.282, 16244, 0, []
1630236222.6581, 16, 0, 4237.949, 4425.641, 4090.769, 4171.282, 4178.974, 0, 0, []
1630236222.666, 17, 0, 4221.538, 4386.667, 4106.667, 4174.872, 4190.256, 0, 0, []
1630236222.674, 18, 0, 4194.872, 4382.564, 4093.846, 4144.103, 4172.308, 0, 0, []
1630236222.6819, 19, 0, 4198.462, 4417.949, 4088.718, 4134.872, 4166.667, 0, 0, []
1630236222.6898, 20, 0, 4224.103, 4423.077, 4089.744, 4157.949, 4179.487, 0, 0, []
1630236222.6977, 21, 0, 4214.359, 4424.103, 4071.282, 4158.974, 4169.231, 0, 0, []
1630236222.7057, 22, 0, 4180, 4451.282, 4083.59, 4143.59, 4150.769, 0, 0, []
1630236222.7136, 23, 0, 4181.538, 4447.692, 4087.692, 4144.615, 4152.821, 0, 0, []
1630236222.7216, 24, 0, 4203.077, 4409.231, 4090.256, 4162.564, 4169.231, 0, 0, []
1630236222.7295, 25, 0, 4204.103, 4402.564, 4111.795, 4165.128, 4185.128, 0, 0, []
1630236222.7374, 26, 0, 4202.564, 4430.256, 4121.538, 4156.41, 4181.538, 0, 0, []
1630236222.7453, 27, 0, 4233.846, 4459.487, 4136.41, 4172.308, 4186.667, 0, 0, []
1630236222.7533, 28, 0, 4264.103, 4460.513, 4127.179, 4184.615, 4218.462, 0, 0, []
1630236222.7613, 29, 0, 4234.359, 4448.718, 4109.744, 4172.308, 4212.821, 0, 0, []
1630236222.7691, 30, 0, 4196.923, 4454.359, 4096.41, 4155.385, 4180.513, 0, 0, []
1630236222.7771, 31, 0, 4220, 4444.103, 4086.667, 4154.359, 4198.974, 0, 0, []
1630236222.785, 32, 0, 4241.538, 4380.513, 4107.692, 4161.026, 4215.897, 0, 0, []
1630236222.793, 33, 0, 4214.359, 4317.949, 4098.974, 4152.821, 4179.487, 0, 0, []
1630236222.8009, 34, 0, 4205.128, 4311.795, 4094.872, 4160.513, 4171.795, 0, 0, []
1630236222.8088, 35, 0, 4224.103, 4310.256, 4117.436, 4177.949, 4202.051, 0, 0, []
1630236222.8168, 36, 0, 4213.846, 4281.538, 4107.692, 4167.179, 4197.949, 0, 0, []
1630236222.8247, 37, 0, 4199.487, 4259.487, 4113.333, 4159.487, 4178.462, 0, 0, []
1630236222.8327, 38, 0, 4204.615, 4255.897, 4118.974, 4165.128, 4169.744, 0, 0, []
1630236222.8406, 39, 0, 4194.872, 4246.154, 4097.949, 4157.949, 4147.692, 0, 0, []
1630236222.8485, 40, 0, 4199.487, 4231.795, 4097.436, 4158.462, 4153.846, 0, 0, []
1630236222.8565, 41, 0, 4242.564, 4235.385, 4113.333, 4182.564, 4200.513, 0, 0, []
1630236222.8644, 42, 0, 4267.179, 4224.615, 4128.205, 4195.385, 4226.154, 0, 0, []
1630236222.8723, 43, 0, 4259.487, 4183.59, 4112.308, 4172.308, 4221.026, 0, 0, []
1630236222.8803, 44, 0, 4250.769, 4165.128, 4092.821, 4155.897, 4206.154, 0, 0, []
1630236222.8881, 45, 0, 4254.872, 4184.103, 4098.974, 4163.077, 4193.846, 0, 0, []
1630236222.8961, 46, 0, 4273.333, 4185.128, 4099.487, 4164.615, 4213.846, 0, 0, []
1630236222.904, 47, 0, 4277.436, 4175.385, 4117.436, 4175.385, 4238.462, 0, 0, []
1630236222.912, 48, 0, 4254.359, 4180.513, 4116.41, 4180, 4229.231, 0, 0, []
1630236222.9199, 49, 0, 4250.769, 4182.051, 4100.513, 4169.744, 4218.462, 0, 0, []
1630236222.9278, 50, 0, 4274.359, 4174.872, 4112.308, 4167.692, 4221.538, 0, 0, []
1630236222.9358, 51, 0, 4281.026, 4164.103, 4104.103, 4173.333, 4224.103, 0, 0, []
1630236222.9437, 52, 0, 4277.949, 4172.821, 4107.692, 4182.564, 4229.231, 0, 0, []
1630236222.9517, 53, 0, 4279.487, 4190.769, 4116.923, 4178.974, 4233.846, 0, 0, []
1630236222.9596, 54, 0, 4286.154, 4177.436, 4108.205, 4177.436, 4241.538, 0, 0, []
1630236222.9676, 55, 0, 4292.821, 4145.128, 4112.308, 4186.154, 4247.179, 0, 0, []
1630236222.9754, 56, 0, 4268.205, 4140.513, 4089.231, 4162.564, 4218.974, 0, 0, []
1630236222.9834, 57, 0, 4242.051, 4170.256, 4085.128, 4147.179, 4196.41, 0, 0, []
1630236222.9914, 58, 0, 4253.846, 4186.667, 4107.692, 4167.179, 4223.077, 0, 0, []
1630236222.9993, 59, 0, 4263.077, 4185.641, 4101.026, 4167.179, 4237.436, 0, 0, []
1630236223.0072, 60, 0, 4262.051, 4224.103, 4105.641, 4158.974, 4222.564, 0, 0, []
1630236223.0151, 61, 0, 4286.667, 4298.462, 4116.41, 4174.359, 4234.872, 0, 0, []
1630236223.023, 62, 0, 4305.641, 4315.385, 4123.59, 4189.231, 4253.333, 0, 0, []
1630236223.031, 63, 0, 4287.179, 4267.692, 4115.897, 4176.923, 4247.179, 0, 0, []
1630236223.0389, 64, 0, 4276.41, 4231.282, 4107.692, 4169.231, 4248.205, 450, 0, []
1630236223.0469, 65, 0, 4278.462, 4219.487, 4128.718, 4183.59, 4252.308, 450, 0, []
1630236223.0547, 66, 0, 4267.692, 4232.821, 4113.333, 4175.385, 4230.256, 16186, 0, []
1630236223.0627, 67, 0, 4268.718, 4250.769, 4096.41, 4166.667, 4227.692, 450, 0, []
1630236223.0707, 68, 0, 4282.051, 4240, 4117.949, 4174.872, 4258.462, 16079, 0, []
1630236223.0786, 69, 0, 4281.026, 4231.795, 4120, 4176.923, 4260.513, 450, 0, []
1630236223.0866, 70, 0, 4273.846, 4246.667, 4114.872, 4174.359, 4231.282, 316, 0, []
1630236223.0944, 71, 0, 4278.462, 4246.154, 4110.769, 4169.231, 4221.538, 450, 0, []
1630236223.1024, 72, 0, 4284.103, 4245.128, 4116.41, 4173.333, 4236.41, 450, 0, []
1630236223.1103, 73, 0, 4290.769, 4264.103, 4120, 4182.051, 4252.308, 280, 0, []
1630236223.1183, 74, 0, 4301.026, 4270.256, 4096.923, 4178.462, 4260, 450, 0, []
1630236223.1263, 75, 0, 4288.205, 4261.538, 4092.821, 4172.821, 4240.513, 16203, 0, []
1630236223.1341, 76, 0, 4266.154, 4261.538, 4082.564, 4163.59, 4213.846, 450, 0, []
1630236223.142, 77, 0, 4264.615, 4268.205, 4072.308, 4157.949, 4218.974, 450, 0, []
1630236223.15, 78, 0, 4261.026, 4250.256, 4088.718, 4159.487, 4230.769, 450, 0, []
1630236223.1579, 79, 0, 4231.282, 4227.179, 4075.897, 4145.641, 4208.205, 16203, 0, []
1630236223.1659, 80, 0, 4217.949, 4251.795, 4072.821, 4137.436, 4182.051, 450, 0, []
1630236223.1738, 81, 0, 4241.026, 4313.333, 4088.205, 4151.795, 4189.231, 450, 0, []
1630236223.1817, 82, 0, 4250.769, 4365.641, 4092.308, 4161.538, 4197.436, 450, 0, []
1630236223.1896, 83, 0, 4245.128, 4370.256, 4092.308, 4157.949, 4195.385, 16203, 0, []
1630236223.1976, 84, 0, 4250.256, 4364.103, 4077.436, 4160, 4201.026, 450, 0, []
1630236223.2055, 85, 0, 4238.462, 4398.974, 4080.513, 4169.744, 4199.487, 450, 0, []
1630236223.2135, 86, 0, 4212.821, 4437.949, 4075.897, 4154.872, 4180, 450, 0, []
1630236223.2214, 87, 0, 4217.436, 4431.282, 4064.103, 4138.462, 4165.128, 16203, 0, []
1630236223.2293, 88, 0, 4232.308, 4425.641, 4081.538, 4153.333, 4163.077, 450, 0, []
1630236223.2373, 89, 0, 4234.872, 4464.615, 4084.103, 4167.692, 4174.872, 450, 0, []
1630236223.2452, 90, 0, 4237.949, 4481.538, 4097.436, 4177.436, 4194.359, 450, 0, []
1630236223.2532, 91, 0, 4239.487, 4452.308, 4109.744, 4180.513, 4203.077, 16203, 0, []
1630236223.261, 92, 0, 4242.051, 4433.333, 4095.897, 4166.667, 4203.077, 450, 0, []
1630236223.269, 93, 0, 4244.615, 4457.436, 4094.872, 4156.923, 4196.923, 450, 0, []
1630236223.2769, 94, 0, 4244.615, 4504.615, 4083.077, 4157.436, 4186.154, 450, 0, []
1630236223.2849, 95, 0, 4256.923, 4517.436, 4090.769, 4177.949, 4200, 16203, 0, []
1630236223.2928, 96, 0, 4262.051, 4487.692, 4111.282, 4185.128, 4223.59, 450, 0, []
1630236223.3007, 97, 0, 4237.436, 4482.051, 4093.846, 4161.538, 4206.667, 450, 0, []
1630236223.3086, 98, 0, 4226.154, 4496.41, 4088.718, 4161.026, 4178.462, 450, 0, []
1630236223.3166, 99, 0, 4242.051, 4480, 4082.564, 4170.256, 4184.103, 16203, 0, []
1630236223.3245, 100, 0, 4230.769, 4461.026, 4085.128, 4164.615, 4188.205, 450, 0, []
1630236223.3325, 101, 0, 4215.897, 4477.949, 4108.718, 4165.641, 4183.59, 450, 0, []
1630236223.3403, 102, 0, 4225.128, 4479.487, 4103.077, 4166.667, 4189.744, 450, 0, []
1630236223.3483, 103, 0, 4221.026, 4466.667, 4086.667, 4156.923, 4173.333, 16203, 0, []
1630236223.3562, 104, 0, 4210.769, 4509.231, 4070.256, 4145.641, 4147.692, 450, 0, []
1630236223.3642, 105, 0, 4211.282, 4553.333, 4069.231, 4151.795, 4152.308, 450, 0, []
1630236223.3721, 106, 0, 4202.564, 4518.462, 4072.821, 4162.564, 4167.692, 450, 0, []
1630236223.38, 107, 0, 4188.718, 4494.359, 4064.103, 4159.487, 4166.667, 16203, 0, []
1630236223.388, 108, 0, 4193.846, 4538.462, 4081.538, 4155.385, 4162.051, 450, 0, []
1630236223.3959, 109, 0, 4203.59, 4541.538, 4077.949, 4146.667, 4161.538, 450, 0, []
1630236223.4039, 110, 0, 4208.205, 4514.359, 4069.744, 4149.231, 4158.462, 450, 0, []
1630236223.4118, 111, 0, 4216.923, 4542.051, 4087.692, 4165.641, 4161.026, 16203, 0, []
1630236223.4198, 112, 0, 4211.282, 4549.231, 4071.795, 4162.051, 4161.026, 450, 0, []
1630236223.4276, 113, 0, 4195.897, 4523.077, 4068.718, 4150.256, 4152.308, 450, 0, []
1630236223.4356, 114, 0, 4196.41, 4530.256, 4084.103, 4144.615, 4154.872, 450, 0, []
1630236223.4435, 115, 0, 4207.692, 4533.846, 4087.692, 4140, 4164.615, 16203, 0, []
1630236223.4514, 116, 0, 4212.821, 4535.897, 4096.923, 4145.128, 4157.949, 450, 0, []
1630236223.4593, 117, 0, 4204.103, 4567.179, 4086.667, 4146.154, 4139.487, 450, 0, []
1630236223.4671, 118, 0, 4196.923, 4578.974, 4083.59, 4143.077, 4138.974, 450, 0, []
1630236223.4751, 119, 0, 4207.179, 4551.282, 4088.718, 4153.333, 4160.513, 16203, 0, []
1630236223.4831, 120, 0, 4228.205, 4531.795, 4096.923, 4173.333, 4191.795, 450, 0, []
1630236223.491, 121, 0, 4233.333, 4529.744, 4113.846, 4175.897, 4204.615, 450, 0, []
1630236223.499, 122, 0, 4218.462, 4536.41, 4092.308, 4163.077, 4182.051, 450, 0, []
1630236223.5068, 123, 0, 4211.795, 4540, 4081.538, 4163.077, 4162.051, 16203, 0, []
1630236223.5148, 124, 0, 4217.949, 4538.974, 4083.077, 4161.026, 4168.205, 450, 0, []
1630236223.5227, 125, 0, 4212.821, 4555.385, 4072.308, 4156.923, 4181.026, 450, 0, []
1630236223.5307, 126, 0, 4198.974, 4553.846, 4088.718, 4158.462, 4182.564, 450, 0, []
1630236223.5387, 127, 0, 4205.128, 4526.154, 4096.923, 4150.256, 4180.513, 16203, 0, []
1630236223.5465, 128, 0, 4234.359, 4530.769, 4103.077, 4163.077, 4189.231, 450, 0, []
1630236223.5545, 0, 0, 4240, 4536.41, 4093.333, 4171.282, 4188.205, 450, 0, []
1630236223.5624, 1, 0, 4216.41, 4516.41, 4067.692, 4148.205, 4172.821, 450, 0, []
1630236223.5704, 2, 0, 4206.154, 4522.051, 4090.256, 4151.282, 4170.256, 16189, 0, []
1630236223.5783, 3, 0, 4215.385, 4556.923, 4103.077, 4165.128, 4175.385, 450, 0, []
1630236223.5862, 4, 0, 4219.487, 4569.231, 4103.59, 4166.154, 4177.436, 16069, 0, []
1630236223.5941, 5, 0, 4218.462, 4563.59, 4113.333, 4172.308, 4185.128, 450, 0, []
1630236223.6021, 6, 0, 4218.974, 4568.718, 4095.897, 4166.667, 4178.974, 316, 0, []
1630236223.61, 7, 0, 4216.923, 4575.897, 4089.231, 4153.846, 4164.615, 450, 0, []
1630236223.618, 8, 0, 4218.462, 4577.436, 4089.744, 4156.41, 4177.949, 450, 0, []
1630236223.6258, 9, 0, 4217.949, 4560.513, 4096.923, 4177.949, 4196.41, 281, 0, []
1630236223.6338, 10, 0, 4207.179, 4555.897, 4104.103, 4185.128, 4188.205, 450, 0, []
1630236223.6417, 11, 0, 4203.59, 4568.205, 4091.282, 4171.795, 4176.41, 16189, 0, []
1630236223.6497, 12, 0, 4201.538, 4527.692, 4089.744, 4170.769, 4162.564, 450, 0, []
1630236223.6576, 13, 0, 4186.154, 4449.744, 4073.333, 4166.667, 4148.718, 450, 0, []
1630236223.6656, 14, 0, 4178.462, 4399.487, 4068.718, 4155.897, 4154.359, 450, 0, []
1630236223.6734, 15, 0, 4190.256, 4372.308, 4093.846, 4162.564, 4169.744, 16189, 0, []
1630236223.6814, 16, 0, 4202.564, 4330.256, 4098.974, 4176.923, 4186.667, 0, 0, []
1630236223.6893, 17, 0, 4207.179, 4294.359, 4114.359, 4188.718, 4203.59, 0, 0, []
1630236223.6973, 18, 0, 4201.026, 4316.41, 4107.179, 4179.487, 4196.923, 0, 0, []
1630236223.7052, 19, 0, 4187.179, 4350.769, 4087.179, 4164.103, 4168.718, 0, 0, []
1630236223.7131, 20, 0, 4181.026, 4333.846, 4097.949, 4165.128, 4150.769, 0, 0, []
1630236223.7211, 21, 0, 4185.128, 4308.205, 4088.718, 4166.154, 4145.128, 0, 0, []
1630236223.729, 22, 0, 4183.59, 4318.462, 4087.692, 4169.744, 4144.103, 0, 0, []
1630236223.737, 23, 0, 4181.026, 4320, 4090.769, 4166.667, 4150.769, 0, 0, []
1630236223.7449, 24, 0, 4185.128, 4292.821, 4088.205, 4167.692, 4165.641, 0, 0, []
1630236223.7528, 25, 0, 4180.513, 4291.282, 4104.615, 4185.128, 4174.359, 0, 0, []
1630236223.7607, 26, 0, 4168.205, 4314.359, 4093.846, 4178.974, 4165.128, 0, 0, []
1630236223.7687, 27, 0, 4164.103, 4309.231, 4085.641, 4160.513, 4147.179, 0, 0, []
1630236223.7766, 28, 0, 4168.205, 4278.462, 4089.744, 4154.872, 4134.359, 0, 0, []
1630236223.7846, 29, 0, 4168.205, 4265.641, 4083.59, 4160.513, 4126.154, 0, 0, []
1630236223.7924, 30, 0, 4163.59, 4287.692, 4086.154, 4167.692, 4119.487, 0, 0, []
1630236223.8004, 31, 0, 4158.462, 4292.821, 4069.744, 4156.41, 4120, 0, 0, []
1630236223.8083, 32, 0, 4146.667, 4251.282, 4062.051, 4148.205, 4121.026, 0, 0, []
1630236223.8163, 33, 0, 4142.564, 4236.923, 4068.718, 4160.513, 4121.538, 0, 0, []
1630236223.8243, 34, 0, 4158.462, 4261.538, 4072.821, 4174.359, 4131.282, 0, 0, []
1630236223.8322, 35, 0, 4179.487, 4266.667, 4098.974, 4176.923, 4150.769, 0, 0, []
1630236223.8401, 36, 0, 4186.667, 4258.462, 4107.179, 4170.256, 4163.59, 0, 0, []
1630236223.8481, 37, 0, 4185.128, 4276.41, 4107.179, 4175.385, 4149.231, 0, 0, []
1630236223.8561, 38, 0, 4189.231, 4281.538, 4107.179, 4184.615, 4134.872, 0, 0, []
1630236223.864, 39, 0, 4185.128, 4252.308, 4087.692, 4177.949, 4133.333, 0, 0, []
1630236223.8719, 40, 0, 4159.487, 4246.667, 4083.59, 4168.718, 4121.026, 0, 0, []
1630236223.8798, 41, 0, 4142.564, 4256.41, 4071.795, 4162.051, 4111.282, 0, 0, []
1630236223.8878, 42, 0, 4149.231, 4249.744, 4067.692, 4167.179, 4120, 0, 0, []
1630236223.8957, 43, 0, 4153.333, 4238.462, 4082.564, 4172.821, 4126.154, 0, 0, []
1630236223.9037, 44, 0, 4151.282, 4246.154, 4085.128, 4165.128, 4131.282, 0, 0, []
1630236223.9116, 45, 0, 4150.769, 4244.103, 4096.923, 4164.615, 4136.41, 0, 0, []
1630236223.9195, 46, 0, 4154.872, 4223.077, 4082.051, 4159.487, 4128.718, 0, 0, []
1630236223.9274, 47, 0, 4167.692, 4218.462, 4064.615, 4156.923, 4125.128, 0, 0, []
1630236223.9354, 48, 0, 4174.872, 4220.513, 4078.462, 4169.231, 4130.256, 0, 0, []
1630236223.9433, 49, 0, 4165.128, 4221.538, 4073.846, 4168.718, 4125.641, 0, 0, []
1630236223.9513, 50, 0, 4165.641, 4238.462, 4080, 4167.179, 4124.615, 0, 0, []
1630236223.9591, 51, 0, 4181.026, 4254.359, 4083.59, 4175.897, 4145.128, 0, 0, []
1630236223.9671, 52, 0, 4180.513, 4243.59, 4078.974, 4186.154, 4163.59, 0, 0, []
1630236223.975, 53, 0, 4170.769, 4247.179, 4096.923, 4187.179, 4158.462, 0, 0, []
1630236223.983, 54, 0, 4159.487, 4267.179, 4088.205, 4167.692, 4141.538, 0, 0, []
1630236223.991, 55, 0, 4140, 4246.154, 4065.641, 4150.256, 4118.974, 0, 0, []
1630236223.9988, 56, 0, 4131.795, 4211.282, 4048.205, 4137.436, 4097.436, 0, 0, []
1630236224.0068, 57, 0, 4137.436, 4217.436, 4044.615, 4137.436, 4087.179, 0, 0, []
1630236224.0147, 58, 0, 4134.872, 4233.846, 4048.718, 4154.359, 4087.179, 0, 0, []
1630236224.0227, 59, 0, 4136.923, 4214.872, 4033.846, 4162.564, 4098.462, 0, 0, []
1630236224.0306, 60, 0, 4156.41, 4215.385, 4047.692, 4168.205, 4117.436, 0, 0, []
1630236224.0385, 61, 0, 4161.026, 4249.231, 4056.923, 4166.154, 4124.615, 0, 0, []
1630236224.0464, 62, 0, 4145.641, 4255.385, 4050.769, 4165.128, 4122.564, 0, 0, []
1630236224.0544, 63, 0, 4133.333, 4250.256, 4080, 4173.333, 4124.103, 0, 0, []
1630236224.0623, 64, 0, 4136.41, 4265.641, 4086.154, 4168.718, 4125.128, 450, 0, []
1630236224.0703, 65, 0, 4146.667, 4251.282, 4081.538, 4167.179, 4126.667, 450, 0, []
1630236224.0782, 66, 0, 4155.385, 4206.154, 4084.103, 4170.256, 4136.41, 16194, 0, []
1630236224.0861, 67, 0, 4164.615, 4212.308, 4081.538, 4167.692, 4138.462, 450, 0, []
1630236224.094, 68, 0, 4172.308, 4244.103, 4092.308, 4174.359, 4125.641, 16079, 0, []
1630236224.102, 69, 0, 4170.256, 4226.154, 4071.795, 4173.846, 4111.795, 450, 0, []
1630236224.1099, 70, 0, 4156.41, 4207.179, 4062.564, 4166.154, 4100, 310, 0, []
1630236224.1179, 71, 0, 4147.692, 4219.487, 4078.462, 4161.026, 4105.128, 450, 0, []
1630236224.1257, 72, 0, 4154.872, 4203.59, 4072.308, 4157.436, 4126.154, 450, 0, []
1630236224.1337, 73, 0, 4168.205, 4188.205, 4085.128, 4170.256, 4140.513, 279, 0, []
1630236224.1416, 74, 0, 4173.846, 4232.821, 4090.769, 4181.026, 4145.641, 450, 0, []
1630236224.1496, 75, 0, 4165.128, 4263.59, 4082.051, 4168.205, 4141.538, 16196, 0, []
1630236224.1575, 76, 0, 4162.051, 4252.821, 4082.051, 4157.436, 4137.436, 450, 0, []
1630236224.1654, 77, 0, 4177.949, 4278.974, 4077.949, 4167.179, 4145.128, 450, 0, []
1630236224.1734, 78, 0, 4182.051, 4285.128, 4081.026, 4174.359, 4145.128, 450, 0, []
1630236224.1813, 79, 0, 4170.769, 4207.179, 4067.179, 4162.051, 4129.231, 16196, 0, []
1630236224.1893, 80, 0, 4176.41, 4144.103, 4067.179, 4165.641, 4129.231, 450, 0, []
1630236224.1972, 81, 0, 4182.564, 4135.385, 4084.615, 4175.897, 4142.051, 450, 0, []
1630236224.2051, 82, 0, 4173.846, 4112.308, 4073.333, 4166.667, 4146.667, 450, 0, []
1630236224.213, 83, 0, 4169.231, 4082.564, 4082.051, 4172.821, 4153.846, 16196, 0, []
1630236224.221, 84, 0, 4160.513, 4087.692, 4084.615, 4175.385, 4149.744, 450, 0, []
1630236224.2289, 85, 0, 4151.795, 4088.205, 4082.051, 4166.154, 4133.333, 450, 0, []
1630236224.2369, 86, 0, 4167.179, 4057.436, 4099.487, 4169.231, 4142.051, 450, 0, []
1630236224.2447, 87, 0, 4177.949, 4044.103, 4086.667, 4167.692, 4159.487, 16196, 0, []
1630236224.2527, 88, 0, 4158.974, 4056.923, 4073.333, 4164.103, 4140, 450, 0, []
1630236224.2606, 89, 0, 4145.128, 4049.744, 4065.641, 4156.923, 4107.692, 450, 0, []
1630236224.2686, 90, 0, 4141.026, 4019.487, 4061.538, 4151.282, 4100, 450, 0, []
1630236224.2765, 91, 0, 4136.41, 4010.256, 4074.872, 4163.59, 4105.128, 16196, 0, []
1630236224.2845, 92, 0, 4138.974, 4043.59, 4068.205, 4172.821, 4109.231, 450, 0, []
1630236224.2923, 93, 0, 4150.256, 4071.795, 4076.41, 4176.923, 4116.41, 450, 0, []
1630236224.3003, 94, 0, 4162.564, 4048.718, 4085.128, 4172.821, 4130.769, 450, 0, []
1630236224.3083, 95, 0, 4170.256, 4030.769, 4084.103, 4167.692, 4148.205, 16196, 0, []
1630236224.3162, 96, 0, 4175.897, 4055.897, 4102.564, 4175.385, 4158.974, 450, 0, []
1630236224.3242, 97, 0, 4171.795, 4052.308, 4092.308, 4173.333, 4150.256, 450, 0, []
1630236224.332, 98, 0, 4168.718, 4023.077, 4083.59, 4163.59, 4141.538, 450, 0, []
1630236224.34, 99, 0, 4167.179, 4031.282, 4082.564, 4154.359, 4143.59, 16196, 0, []
1630236224.3479, 100, 0, 4155.385, 4042.051, 4068.718, 4145.128, 4132.308, 450, 0, []
1630236224.3559, 101, 0, 4153.846, 4070.256, 4075.897, 4146.154, 4122.564, 450, 0, []
1630236224.3638, 102, 0, 4170.769, 4163.59, 4073.333, 4146.154, 4129.231, 450, 0, []
1630236224.3717, 103, 0, 4172.821, 4217.436, 4075.897, 4154.359, 4132.308, 16196, 0, []
1630236224.3796, 104, 0, 4155.385, 4198.974, 4085.641, 4163.59, 4123.59, 450, 0, []
1630236224.3876, 105, 0, 4151.282, 4211.282, 4079.487, 4161.026, 4120, 450, 0, []
1630236224.3955, 106, 0, 4154.872, 4249.744, 4086.154, 4158.974, 4122.051, 450, 0, []
1630236224.4035, 107, 0, 4155.385, 4255.897, 4085.641, 4155.897, 4124.615, 16196, 0, []
1630236224.4113, 108, 0, 4159.487, 4256.41, 4097.436, 4166.154, 4133.846, 450, 0, []
1630236224.4193, 109, 0, 4171.282, 4303.077, 4118.974, 4182.051, 4153.333, 450, 0, []
1630236224.4272, 110, 0, 4187.692, 4364.615, 4116.923, 4178.462, 4173.846, 450, 0, []
1630236224.4351, 111, 0, 4192.821, 4376.923, 4124.103, 4176.41, 4172.308, 16196, 0, []
1630236224.443, 112, 0, 4183.59, 4347.692, 4107.692, 4173.333, 4150.769, 450, 0, []
1630236224.4509, 113, 0, 4158.462, 4338.974, 4084.103, 4161.026, 4123.59, 450, 0, []
1630236224.4587, 114, 0, 4134.359, 4333.846, 4080.513, 4143.59, 4096.41, 450, 0, []
1630236224.4667, 115, 0, 4130.769, 4298.462, 4069.231, 4136.41, 4092.821, 16196, 0, []
1630236224.4746, 116, 0, 4132.821, 4303.077, 4081.026, 4146.154, 4102.564, 450, 0, []
1630236224.4826, 117, 0, 4127.692, 4340, 4085.128, 4144.615, 4101.026, 450, 0, []
1630236224.4906, 118, 0, 4132.821, 4334.872, 4079.487, 4145.641, 4105.641, 450, 0, []
1630236224.4984, 119, 0, 4152.821, 4312.821, 4086.667, 4168.718, 4132.821, 16196, 0, []
1630236224.5064, 120, 0, 4155.897, 4322.564, 4079.487, 4175.385, 4147.179, 450, 0, []
1630236224.5143, 121, 0, 4147.692, 4362.564, 4088.718, 4169.231, 4136.41, 450, 0, []
1630236224.5223, 122, 0, 4152.821, 4379.487, 4087.692, 4165.128, 4133.333, 450, 0, []
1630236224.5302, 123, 0, 4155.897, 4354.872, 4073.846, 4159.487, 4139.487, 16196, 0, []
1630236224.5381, 124, 0, 4150.769, 4344.615, 4086.667, 4153.846, 4135.897, 450, 0, []
1630236224.546, 125, 0, 4161.026, 4362.051, 4088.718, 4155.385, 4131.282, 450, 0, []
1630236224.554, 126, 0, 4188.718, 4374.872, 4104.615, 4181.538, 4142.564, 450, 0, []
1630236224.5619, 127, 0, 4201.538, 4378.462, 4117.949, 4198.462, 4158.462, 16196, 0, []
1630236224.5699, 128, 0, 4186.667, 4385.641, 4103.077, 4183.077, 4160, 450, 0, []
1630236224.5777, 0, 0, 4166.154, 4384.615, 4100, 4175.385, 4149.744, 450, 0, []
1630236224.5857, 1, 0, 4151.795, 4379.487, 4091.282, 4177.949, 4137.949, 450, 0, []
1630236224.5936, 2, 0, 4150.256, 4373.846, 4095.385, 4181.026, 4135.385, 16193, 0, []
1630236224.6016, 3, 0, 4162.051, 4354.872, 4091.795, 4177.436, 4148.205, 450, 0, []
1630236224.6095, 4, 0, 4169.744, 4360.513, 4078.974, 4173.846, 4156.923, 16074, 0, []
1630236224.6175, 5, 0, 4168.205, 4379.487, 4096.41, 4175.897, 4142.051, 450, 0, []
1630236224.6254, 6, 0, 4168.205, 4375.385, 4087.179, 4166.667, 4123.59, 306, 0, []
1630236224.6333, 7, 0, 4161.538, 4357.436, 4068.718, 4161.026, 4115.385, 450, 0, []
1630236224.6413, 8, 0, 4140, 4330.769, 4061.538, 4154.872, 4103.077, 450, 0, []
1630236224.6492, 9, 0, 4129.231, 4317.949, 4058.462, 4149.231, 4095.385, 271, 0, []
1630236224.6572, 10, 0, 4137.949, 4336.923, 4078.462, 4164.103, 4109.231, 450, 0, []
1630236224.665, 11, 0, 4143.077, 4339.487, 4072.821, 4170.769, 4126.154, 16184, 0, []
1630236224.673, 12, 0, 4132.821, 4294.359, 4071.282, 4169.744, 4120, 450, 0, []
1630236224.6809, 13, 0, 4132.821, 4293.333, 4094.872, 4172.821, 4116.41, 450, 0, []
1630236224.6889, 14, 0, 4163.59, 4343.077, 4100.513, 4171.795, 4139.487, 450, 0, []
1630236224.6968, 15, 0, 4181.026, 4342.564, 4100, 4170.256, 4150.769, 16184, 0, []
1630236224.7047, 16, 0, 4163.59, 4321.026, 4080, 4160.513, 4130.256, 0, 0, []
1630236224.7126, 17, 0, 4154.359, 4334.359, 4072.308, 4157.949, 4113.846, 0, 0, []
1630236224.7206, 18, 0, 4167.179, 4330.769, 4080, 4164.103, 4123.59, 0, 0, []
1630236224.7285, 19, 0, 4173.333, 4323.59, 4077.436, 4169.744, 4147.692, 0, 0, []
1630236224.7365, 20, 0, 4173.846, 4358.974, 4107.179, 4192.308, 4163.59, 0, 0, []
1630236224.7443, 21, 0, 4174.872, 4370.769, 4114.359, 4199.487, 4157.949, 0, 0, []
1630236224.7523, 22, 0, 4164.615, 4344.615, 4092.308, 4172.821, 4143.077, 0, 0, []
1630236224.7602, 23, 0, 4163.077, 4342.564, 4092.308, 4158.462, 4150.769, 0, 0, []
1630236224.7682, 24, 0, 4181.026, 4377.949, 4085.641, 4173.846, 4162.051, 0, 0, []
1630236224.7761, 25, 0, 4180, 4384.103, 4083.59, 4187.692, 4145.641, 0, 0, []
1630236224.784, 26, 0, 4160.513, 4350.769, 4077.436, 4170.769, 4129.744, 0, 0, []
1630236224.792, 27, 0, 4160.513, 4346.154, 4073.333, 4153.333, 4136.923, 0, 0, []
1630236224.7999, 28, 0, 4166.667, 4349.744, 4082.564, 4156.41, 4138.974, 0, 0, []
1630236224.8079, 29, 0, 4159.487, 4332.308, 4075.897, 4167.179, 4141.026, 0, 0, []
1630236224.8158, 30, 0, 4151.282, 4322.564, 4087.692, 4182.564, 4149.744, 0, 0, []
1630236224.8238, 31, 0, 4152.821, 4331.282, 4090.256, 4176.41, 4145.641, 0, 0, []
1630236224.8316, 32, 0, 4162.051, 4336.923, 4072.308, 4161.538, 4144.615, 0, 0, []
1630236224.8396, 33, 0, 4168.718, 4332.821, 4076.923, 4171.282, 4153.333, 0, 0, []
1630236224.8475, 34, 0, 4174.359, 4334.359, 4073.846, 4183.077, 4146.154, 0, 0, []
1630236224.8555, 35, 0, 4182.564, 4341.026, 4077.949, 4185.641, 4135.897, 0, 0, []
1630236224.8634, 36, 0, 4176.923, 4344.615, 4072.308, 4170.769, 4134.872, 0, 0, []
1630236224.8713, 37, 0, 4165.128, 4358.974, 4060, 4163.077, 4137.949, 0, 0, []
1630236224.8792, 38, 0, 4174.359, 4394.359, 4086.667, 4186.154, 4149.231, 0, 0, []
1630236224.8872, 39, 0, 4174.872, 4389.231, 4090.256, 4194.359, 4154.359, 0, 0, []
1630236224.8951, 40, 0, 4158.974, 4357.436, 4094.872, 4197.436, 4153.846, 0, 0, []
1630236224.9031, 41, 0, 4166.667, 4385.128, 4107.692, 4201.538, 4164.615, 0, 0, []
1630236224.9109, 42, 0, 4187.692, 4412.821, 4092.308, 4189.744, 4173.846, 0, 0, []
1630236224.9189, 43, 0, 4200, 4404.103, 4094.359, 4191.795, 4171.795, 0, 0, []
1630236224.9268, 44, 0, 4201.538, 4414.872, 4087.179, 4200.513, 4171.282, 0, 0, []
1630236224.9348, 45, 0, 4190.256, 4414.359, 4078.974, 4193.846, 4169.744, 0, 0, []
1630236224.9428, 46, 0, 4180.513, 4367.692, 4090.256, 4184.103, 4166.667, 0, 0, []
1630236224.9506, 47, 0, 4187.179, 4352.308, 4101.026, 4188.718, 4178.462, 0, 0, []
1630236224.9586, 48, 0, 4188.718, 4384.103, 4115.385, 4196.41, 4190.256, 0, 0, []
1630236224.9665, 49, 0, 4174.872, 4387.692, 4095.897, 4177.436, 4169.231, 0, 0, []
1630236224.9745, 50, 0, 4162.564, 4355.385, 4078.974, 4165.128, 4137.436, 0, 0, []
1630236224.9824, 51, 0, 4156.41, 4349.744, 4070.256, 4173.333, 4129.231, 0, 0, []
1630236224.9904, 52, 0, 4152.821, 4369.231, 4047.179, 4168.718, 4128.205, 0, 0, []
1630236224.9982, 53, 0, 4147.179, 4361.538, 4068.205, 4169.744, 4123.59, 0, 0, []
1630236225.0062, 54, 0, 4152.821, 4347.692, 4091.282, 4190.769, 4146.667, 0, 0, []
1630236225.0141, 55, 0, 4168.205, 4366.667, 4091.795, 4212.308, 4173.333, 0, 0, []
1630236225.0221, 56, 0, 4170.769, 4384.615, 4088.718, 4207.179, 4169.231, 0, 0, []
1630236225.03, 57, 0, 4162.051, 4368.205, 4069.744, 4185.128, 4158.974, 0, 0, []
1630236225.0379, 58, 0, 4161.026, 4344.615, 4074.872, 4183.077, 4158.462, 0, 0, []
1630236225.0458, 59, 0, 4174.359, 4346.667, 4082.564, 4186.154, 4157.949, 0, 0, []
1630236225.0538, 60, 0, 4185.641, 4357.436, 4086.667, 4185.641, 4156.41, 0, 0, []
1630236225.0617, 61, 0, 4187.179, 4363.59, 4096.923, 4188.718, 4152.821, 0, 0, []
1630236225.0697, 62, 0, 4186.667, 4360, 4081.026, 4183.077, 4159.487, 0, 0, []
1630236225.0775, 63, 0, 4189.231, 4343.077, 4080.513, 4181.026, 4172.821, 0, 0, []
1630236225.0855, 64, 0, 4185.641, 4331.282, 4086.667, 4182.051, 4169.744, 450, 0, []
1630236225.0935, 65, 0, 4180, 4331.795, 4085.641, 4177.949, 4160.513, 450, 0, []
1630236225.1014, 66, 0, 4193.846, 4334.872, 4100.513, 4184.615, 4165.128, 16201, 0, []
1630236225.1094, 67, 0, 4207.692, 4340.513, 4091.795, 4185.641, 4168.205, 450, 0, []
1630236225.1172, 68, 0, 4184.615, 4340, 4082.564, 4190.256, 4146.667, 16080, 0, []
1630236225.1252, 69, 0, 4162.051, 4343.077, 4079.487, 4194.872, 4132.308, 450, 0, []
1630236225.1331, 70, 0, 4177.436, 4344.103, 4077.949, 4163.59, 4152.821, 316, 0, []
1630236225.1411, 71, 0, 4178.462, 4326.154, 4090.769, 4148.718, 4164.103, 450, 0, []
