Timestamp, COUNTER, INTERPOLATED, AF3, T7, Pz, T8, AF4, RAW_CQ, MARKER_HARDWARE, MARKERS
1631429136.0185, 39, 0, 4220.513, 4237.949, 4147.692, 4160, 4181.538, 0, 0, []
1631429136.0264, 40, 0, 4224.103, 4252.308, 3936.41, 4166.154, 4184.103, 0, 0, []
1631429136.0344, 41, 0, 4215.385, 4232.308, 4052.821, 4170.256, 4170.769, 0, 0, []
1631429136.0423, 42, 0, 4222.051, 4240.513, 4227.179, 4176.923, 4170.256, 0, 0, []
1631429136.0503, 43, 0, 4237.436, 4251.282, 4137.949, 4173.333, 4182.564, 0, 0, []
1631429136.0581, 44, 0, 4238.462, 4237.949, 4189.231, 4168.718, 4196.41, 0, 0, []
1631429136.0661, 45, 0, 4216.923, 4236.41, 4029.231, 4145.641, 4186.667, 0, 0, []
1631429136.074, 46, 0, 4213.846, 4253.846, 4026.154, 4154.872, 4190.769, 0, 0, []
1631429136.0818, 47, 0, 4240.513, 4276.923, 4120.513, 4184.615, 4205.128, 0, 0, []
1631429136.0897, 48, 0, 4246.667, 4274.872, 4088.718, 4188.718, 4196.41, 0, 0, []
1631429136.0974, 49, 0, 4237.949, 4265.128, 4195.385, 4179.487, 4187.692, 0, 0, []
1631429136.1053, 50, 0, 4232.308, 4264.615, 4035.897, 4159.487, 4188.205, 0, 0, []
1631429136.1131, 51, 0, 4231.282, 4254.359, 4036.923, 4149.744, 4195.385, 0, 0, []
1631429136.121, 52, 0, 4228.205, 4243.59, 4122.051, 4133.333, 4191.795, 0, 0, []
1631429136.1288, 53, 0, 4215.897, 4231.282, 4002.564, 4123.077, 4177.436, 0, 0, []
1631429136.1367, 54, 0, 4223.077, 4234.872, 4075.897, 4150.256, 4182.564, 0, 0, []
1631429136.1446, 55, 0, 4236.41, 4256.41, 4000, 4160, 4185.128, 0, 0, []
1631429136.1526, 56, 0, 4233.846, 4258.462, 4087.692, 4165.128, 4185.641, 0, 0, []
1631429136.1605, 57, 0, 4229.231, 4254.872, 4147.179, 4179.487, 4193.333, 0, 0, []
1631429136.1685, 58, 0, 4227.179, 4253.333, 3916.41, 4173.333, 4193.333, 0, 0, []
1631429136.1764, 59, 0, 4238.462, 4253.333, 4033.846, 4167.179, 4197.436, 0, 0, []
1631429136.1843, 60, 0, 4248.718, 4262.051, 4094.872, 4158.462, 4191.795, 0, 0, []
1631429136.1922, 61, 0, 4239.487, 4250.769, 4114.359, 4144.103, 4174.872, 0, 0, []
1631429136.2002, 62, 0, 4221.026, 4238.974, 4149.231, 4143.59, 4169.744, 0, 0, []
1631429136.2081, 63, 0, 4201.026, 4234.359, 3896.923, 4146.154, 4162.051, 0, 0, []
1631429136.2161, 64, 0, 4187.692, 4219.487, 3947.179, 4147.179, 4141.538, 450, 0, []
1631429136.2239, 65, 0, 4193.846, 4230.769, 4103.59, 4151.282, 4132.308, 450, 0, []
1631429136.2317, 66, 0, 4216.923, 4253.846, 4161.026, 4157.949, 4154.359, 16215, 0, []
1631429136.2396, 67, 0, 4234.872, 4242.051, 4140.513, 4154.872, 4182.564, 450, 0, []
1631429136.2474, 68, 0, 4233.333, 4218.974, 3878.974, 4143.59, 4183.077, 16166, 0, []
1631429136.2553, 69, 0, 4217.436, 4217.949, 3936.923, 4141.026, 4171.282, 450, 0, []
1631429136.263, 70, 0, 4208.205, 4219.487, 4099.487, 4138.974, 4165.128, 16103, 0, []
1631429136.2709, 71, 0, 4230.769, 4216.923, 4162.564, 4154.359, 4181.538, 450, 0, []
1631429136.2787, 72, 0, 4246.667, 4230.769, 4182.564, 4184.103, 4202.051, 450, 0, []
1631429136.2867, 73, 0, 4218.974, 4233.846, 3919.487, 4181.026, 4185.128, 16156, 0, []
1631429136.2946, 74, 0, 4204.615, 4215.897, 3931.282, 4158.974, 4163.077, 450, 0, []
1631429136.3026, 75, 0, 4225.641, 4209.744, 4056.923, 4143.59, 4164.103, 16201, 0, []
1631429136.3104, 76, 0, 4221.026, 4209.231, 4082.564, 4131.282, 4146.154, 450, 0, []
1631429136.3184, 77, 0, 4197.436, 4204.103, 4141.538, 4130.256, 4121.538, 450, 0, []
1631429136.3263, 78, 0, 4189.744, 4201.538, 3942.051, 4126.154, 4124.615, 450, 0, []
1631429136.3343, 79, 0, 4191.795, 4195.897, 3965.128, 4129.231, 4136.923, 16201, 0, []
1631429136.3422, 80, 0, 4200.513, 4189.744, 4093.333, 4142.564, 4138.462, 450, 0, []
1631429136.3501, 81, 0, 4213.333, 4194.872, 4062.051, 4143.59, 4141.538, 450, 0, []
1631429136.358, 82, 0, 4220.513, 4207.692, 4128.718, 4142.564, 4150.769, 450, 0, []
1631429136.366, 83, 0, 4211.282, 4203.077, 4007.692, 4135.385, 4149.231, 16201, 0, []
1631429136.3739, 84, 0, 4200.513, 4179.487, 3996.41, 4124.103, 4142.564, 450, 0, []
1631429136.3817, 85, 0, 4203.077, 4174.359, 4056.923, 4122.564, 4138.974, 450, 0, []
1631429136.3895, 86, 0, 4196.923, 4183.077, 3989.744, 4124.103, 4124.615, 450, 0, []
1631429136.3973, 87, 0, 4183.59, 4189.231, 4086.154, 4125.641, 4115.385, 16201, 0, []
1631429136.4052, 88, 0, 4174.872, 4196.923, 4045.641, 4126.667, 4119.487, 450, 0, []
1631429136.413, 89, 0, 4172.821, 4200.513, 4055.897, 4136.41, 4121.026, 450, 0, []
1631429136.4209, 90, 0, 4186.667, 4207.179, 4077.436, 4152.821, 4121.538, 450, 0, []
1631429136.4287, 91, 0, 4207.179, 4207.179, 3976.41, 4158.974, 4134.872, 16201, 0, []
1631429136.4365, 92, 0, 4205.128, 4188.718, 4053.333, 4154.359, 4151.795, 450, 0, []
1631429136.4443, 93, 0, 4184.103, 4181.026, 4018.974, 4146.154, 4147.179, 450, 0, []
1631429136.4522, 94, 0, 4178.462, 4191.795, 4078.974, 4151.795, 4133.846, 450, 0, []
1631429136.4601, 95, 0, 4191.282, 4203.59, 4118.462, 4162.051, 4133.333, 16201, 0, []
1631429136.468, 96, 0, 4204.103, 4206.154, 4007.179, 4154.359, 4146.154, 450, 0, []
1631429136.4759, 97, 0, 4200.513, 4195.897, 4105.128, 4148.718, 4156.41, 450, 0, []
1631429136.4839, 98, 0, 4184.615, 4183.077, 4034.359, 4146.667, 4148.718, 450, 0, []
1631429136.4918, 99, 0, 4184.615, 4185.641, 4023.59, 4151.795, 4138.974, 16201, 0, []
1631429136.4998, 100, 0, 4189.744, 4198.462, 4092.821, 4153.846, 4135.897, 450, 0, []
1631429136.5077, 101, 0, 4169.744, 4197.949, 4001.026, 4136.41, 4124.615, 450, 0, []
1631429136.5156, 102, 0, 4155.897, 4185.128, 4076.41, 4135.385, 4121.026, 450, 0, []
1631429136.5235, 103, 0, 4178.974, 4186.154, 4030.256, 4152.821, 4131.795, 16201, 0, []
1631429136.5315, 104, 0, 4208.205, 4197.949, 4029.231, 4166.154, 4149.231, 450, 0, []
1631429136.5394, 105, 0, 4221.026, 4204.103, 4118.974, 4166.667, 4169.231, 450, 0, []
1631429136.5472, 106, 0, 4229.231, 4207.692, 4022.051, 4153.846, 4183.59, 450, 0, []
1631429136.5551, 107, 0, 4252.308, 4215.897, 4088.718, 4152.821, 4206.667, 16201, 0, []
1631429136.5628, 108, 0, 4306.154, 4224.103, 4084.615, 4164.615, 4255.385, 450, 0, []
1631429136.5707, 109, 0, 4367.692, 4217.949, 4058.462, 4176.923, 4309.231, 450, 0, []
1631429136.5785, 110, 0, 4416.41, 4212.308, 4145.641, 4185.641, 4353.333, 450, 0, []
1631429136.5864, 111, 0, 4450.769, 4215.385, 4074.872, 4176.41, 4385.641, 16201, 0, []
1631429136.5942, 112, 0, 4469.231, 4217.436, 4109.231, 4165.128, 4407.692, 450, 0, []
1631429136.6021, 113, 0, 4474.359, 4223.077, 4093.333, 4177.436, 4422.051, 450, 0, []
1631429136.61, 114, 0, 4476.41, 4228.718, 4062.564, 4197.436, 4431.282, 450, 0, []
1631429136.618, 115, 0, 4478.462, 4232.308, 4137.949, 4200, 4432.821, 16201, 0, []
1631429136.6259, 116, 0, 4468.205, 4223.077, 4054.359, 4188.718, 4421.538, 450, 0, []
1631429136.6339, 117, 0, 4472.821, 4210.769, 4092.821, 4192.308, 4429.744, 450, 0, []
1631429136.6418, 118, 0, 4508.205, 4215.897, 4111.282, 4203.077, 4463.59, 450, 0, []
1631429136.6497, 119, 0, 4526.154, 4224.615, 4067.179, 4193.846, 4478.974, 16201, 0, []
1631429136.6576, 120, 0, 4512.821, 4223.077, 4134.359, 4177.949, 4472.308, 450, 0, []
1631429136.6656, 121, 0, 4504.103, 4222.564, 4053.333, 4173.333, 4469.744, 450, 0, []
1631429136.6735, 122, 0, 4503.59, 4216.41, 4073.846, 4184.103, 4473.333, 450, 0, []
1631429136.6813, 123, 0, 4501.538, 4206.154, 4110.769, 4206.154, 4474.359, 16201, 0, []
1631429136.6891, 124, 0, 4513.333, 4208.718, 4050.256, 4225.128, 4480, 450, 0, []
1631429136.6969, 125, 0, 4528.205, 4210.769, 4115.385, 4224.615, 4486.154, 450, 0, []
1631429136.7048, 126, 0, 4525.641, 4208.205, 4077.436, 4206.154, 4484.103, 450, 0, []
1631429136.7126, 127, 0, 4515.897, 4213.846, 4072.308, 4189.744, 4477.949, 16201, 0, []
1631429136.7205, 128, 0, 4506.667, 4210.769, 4104.615, 4171.282, 4470.769, 450, 0, []
1631429136.7282, 0, 0, 4490.769, 4200.513, 4051.795, 4158.974, 4467.692, 450, 0, []
1631429136.7361, 1, 0, 4487.692, 4204.615, 4111.282, 4167.179, 4472.308, 450, 0, []
1631429136.7439, 2, 0, 4504.103, 4212.308, 4077.949, 4179.487, 4485.128, 16219, 0, []
1631429136.7519, 3, 0, 4510.256, 4201.538, 4051.795, 4195.385, 4494.872, 450, 0, []
1631429136.7598, 4, 0, 4496.923, 4187.179, 4087.692, 4206.667, 4487.179, 16146, 0, []
1631429136.7678, 5, 0, 4487.179, 4189.231, 4030.769, 4198.462, 4472.308, 450, 0, []
1631429136.7756, 6, 0, 4480, 4198.462, 4084.615, 4188.205, 4464.615, 16354, 0, []
1631429136.7836, 7, 0, 4466.154, 4196.923, 4065.641, 4169.744, 4455.385, 450, 0, []
1631429136.7915, 8, 0, 4457.436, 4184.103, 4008.718, 4147.179, 4451.282, 450, 0, []
1631429136.7995, 9, 0, 4459.487, 4178.462, 4047.692, 4147.692, 4457.949, 16170, 0, []
1631429136.8074, 10, 0, 4467.179, 4182.564, 3991.795, 4154.872, 4458.462, 450, 0, []
1631429136.8153, 11, 0, 4472.821, 4183.59, 3990.769, 4147.692, 4455.385, 16205, 0, []
1631429136.8232, 12, 0, 4464.615, 4186.667, 3970.256, 4142.564, 4450.256, 450, 0, []
1631429136.8312, 13, 0, 4449.744, 4186.154, 3930.769, 4142.564, 4439.487, 450, 0, []
1631429136.8391, 14, 0, 4453.846, 4186.154, 3954.359, 4137.949, 4445.641, 450, 0, []
1631429136.847, 15, 0, 4472.308, 4193.333, 3889.744, 4140, 4461.538, 16205, 0, []
1631429136.8548, 16, 0, 4480, 4194.359, 3923.077, 4154.359, 4466.154, 0, 0, []
1631429136.8626, 17, 0, 4475.385, 4188.718, 3955.385, 4153.846, 4461.538, 0, 0, []
1631429136.8705, 18, 0, 4472.821, 4185.128, 3922.051, 4141.026, 4449.744, 0, 0, []
1631429136.8783, 19, 0, 4476.923, 4188.205, 3961.026, 4148.718, 4452.308, 0, 0, []
1631429136.8862, 20, 0, 4471.282, 4189.231, 3902.051, 4153.846, 4459.487, 0, 0, []
1631429136.894, 21, 0, 4452.821, 4188.205, 3895.385, 4142.051, 4441.026, 0, 0, []
1631429136.9018, 22, 0, 4443.077, 4185.128, 3914.359, 4139.487, 4417.949, 0, 0, []
1631429136.9096, 23, 0, 4442.564, 4169.744, 3885.641, 4150.256, 4420.513, 0, 0, []
1631429136.9176, 24, 0, 4447.179, 4158.462, 3957.436, 4156.41, 4430.769, 0, 0, []
1631429136.9255, 25, 0, 4450.769, 4151.795, 3947.179, 4151.282, 4430.769, 0, 0, []
1631429136.9335, 26, 0, 4445.128, 4137.949, 3948.205, 4144.103, 4431.795, 0, 0, []
1631429136.9413, 27, 0, 4435.385, 4127.179, 3974.359, 4133.333, 4426.667, 0, 0, []
1631429136.9493, 28, 0, 4432.821, 4131.795, 3929.231, 4123.077, 4412.821, 0, 0, []
1631429136.9572, 29, 0, 4429.231, 4134.359, 3972.308, 4130.256, 4405.128, 0, 0, []
1631429136.9652, 30, 0, 4408.718, 4127.179, 3965.641, 4137.436, 4402.051, 0, 0, []
1631429136.9731, 31, 0, 4391.282, 4120, 3987.692, 4129.231, 4394.359, 0, 0, []
1631429136.9809, 32, 0, 4395.897, 4109.231, 4049.231, 4122.051, 4385.641, 0, 0, []
1631429136.9888, 33, 0, 4403.59, 4100, 4009.231, 4118.462, 4389.744, 0, 0, []
1631429136.9966, 34, 0, 4401.538, 4102.051, 4053.846, 4115.385, 4399.487, 0, 0, []
1631429137.0045, 35, 0, 4396.923, 4107.692, 4056.923, 4115.385, 4397.436, 0, 0, []
1631429137.0123, 36, 0, 4386.667, 4098.974, 4029.744, 4108.718, 4381.026, 0, 0, []
1631429137.0202, 37, 0, 4372.308, 4088.205, 4061.538, 4096.41, 4357.949, 0, 0, []
1631429137.0279, 38, 0, 4371.282, 4091.795, 4024.103, 4098.974, 4356.41, 0, 0, []
1631429137.0358, 39, 0, 4384.615, 4087.692, 4059.487, 4112.821, 4376.923, 0, 0, []
1631429137.0436, 40, 0, 4390.769, 4076.923, 4065.641, 4110.769, 4381.538, 0, 0, []
1631429137.0515, 41, 0, 4388.718, 4074.359, 4048.718, 4100.513, 4372.308, 0, 0, []
1631429137.0593, 42, 0, 4394.872, 4071.795, 4099.487, 4106.667, 4380.513, 0, 0, []
1631429137.0672, 43, 0, 4403.077, 4068.205, 4057.949, 4120, 4392.821, 0, 0, []
1631429137.0751, 44, 0, 4395.897, 4064.615, 4066.154, 4120.513, 4378.462, 0, 0, []
1631429137.0831, 45, 0, 4380.513, 4056.923, 4057.436, 4101.538, 4355.897, 0, 0, []
1631429137.091, 46, 0, 4368.205, 4060, 4022.564, 4085.128, 4351.795, 0, 0, []
1631429137.099, 47, 0, 4354.872, 4067.692, 4081.538, 4074.872, 4351.795, 0, 0, []
1631429137.1068, 48, 0, 4349.231, 4058.462, 4054.359, 4057.436, 4343.59, 0, 0, []
1631429137.1148, 49, 0, 4359.487, 4043.59, 4051.282, 4061.026, 4348.718, 0, 0, []
1631429137.1227, 50, 0, 4364.615, 4045.128, 4056.41, 4084.615, 4362.564, 0, 0, []
1631429137.1307, 51, 0, 4356.923, 4043.077, 4032.821, 4089.744, 4358.462, 0, 0, []
1631429137.1386, 52, 0, 4351.282, 4032.308, 4082.051, 4091.795, 4348.718, 0, 0, []
1631429137.1464, 53, 0, 4357.949, 4045.641, 4044.103, 4107.692, 4352.821, 0, 0, []
1631429137.1542, 54, 0, 4363.59, 4064.615, 4035.897, 4106.667, 4354.872, 0, 0, []
1631429137.162, 55, 0, 4354.872, 4062.051, 4061.026, 4084.615, 4343.59, 0, 0, []
1631429137.1699, 56, 0, 4340, 4064.615, 4017.949, 4073.333, 4327.179, 0, 0, []
1631429137.1777, 57, 0, 4332.821, 4081.026, 4053.333, 4072.821, 4309.231, 0, 0, []
1631429137.1856, 58, 0, 4336.923, 4083.59, 4055.385, 4068.205, 4300, 0, 0, []
1631429137.1933, 59, 0, 4341.026, 4074.359, 4058.462, 4066.667, 4312.821, 0, 0, []
1631429137.2012, 60, 0, 4331.795, 4078.462, 4078.462, 4061.538, 4328.718, 0, 0, []
1631429137.209, 61, 0, 4313.846, 4079.487, 4037.949, 4042.051, 4318.462, 0, 0, []
1631429137.2169, 62, 0, 4292.821, 4067.179, 4077.949, 4032.308, 4294.359, 0, 0, []
1631429137.2247, 63, 0, 4280.513, 4060, 4062.051, 4040.513, 4281.026, 0, 0, []
1631429137.2326, 64, 0, 4284.103, 4063.077, 4036.923, 4048.718, 4280.513, 450, 0, []
1631429137.2405, 65, 0, 4291.282, 4063.59, 4072.821, 4052.821, 4277.436, 450, 0, []
1631429137.2485, 66, 0, 4289.231, 4064.103, 4043.59, 4054.359, 4273.846, 16157, 0, []
1631429137.2564, 67, 0, 4291.795, 4075.897, 4072.821, 4050.769, 4283.077, 450, 0, []
1631429137.2644, 68, 0, 4300, 4085.641, 4059.487, 4037.949, 4295.385, 16132, 0, []
1631429137.2723, 69, 0, 4294.359, 4085.128, 4035.897, 4028.718, 4291.795, 450, 0, []
1631429137.2802, 70, 0, 4291.282, 4083.59, 4081.026, 4035.897, 4287.179, 86, 0, []
1631429137.2881, 71, 0, 4296.923, 4070.769, 4033.333, 4045.641, 4294.872, 450, 0, []
1631429137.2961, 72, 0, 4295.385, 4055.897, 4045.128, 4044.615, 4296.41, 450, 0, []
1631429137.304, 73, 0, 4298.974, 4069.744, 4066.154, 4043.59, 4292.821, 16138, 0, []
1631429137.3118, 74, 0, 4313.846, 4090.769, 4052.821, 4050.256, 4297.949, 450, 0, []
1631429137.3196, 75, 0, 4315.897, 4093.333, 4081.538, 4049.744, 4304.615, 16232, 0, []
1631429137.3274, 76, 0, 4302.051, 4091.795, 4029.231, 4035.897, 4296.41, 450, 0, []
1631429137.3353, 77, 0, 4292.821, 4092.308, 4035.897, 4026.667, 4283.077, 450, 0, []
1631429137.3431, 78, 0, 4285.641, 4092.308, 4048.205, 4023.59, 4276.41, 450, 0, []
1631429137.351, 79, 0, 4267.692, 4088.718, 4003.077, 4021.538, 4263.59, 16232, 0, []
1631429137.3588, 80, 0, 4253.846, 4080, 4030.256, 4028.718, 4249.231, 450, 0, []
1631429137.3667, 81, 0, 4254.872, 4082.051, 4013.846, 4038.974, 4247.692, 450, 0, []
1631429137.3746, 82, 0, 4256.41, 4090.256, 4025.128, 4027.692, 4249.744, 450, 0, []
1631429137.3825, 83, 0, 4251.795, 4088.718, 4031.795, 4003.59, 4251.282, 16232, 0, []
1631429137.3903, 84, 0, 4249.744, 4081.026, 3989.231, 4003.59, 4260.513, 450, 0, []
1631429137.3983, 85, 0, 4246.667, 4073.333, 4023.077, 4018.974, 4260, 450, 0, []
1631429137.4061, 86, 0, 4234.359, 4074.872, 3987.692, 4024.615, 4240.513, 450, 0, []
1631429137.4141, 87, 0, 4217.949, 4078.462, 3985.128, 4042.051, 4228.718, 16232, 0, []
1631429137.422, 88, 0, 4209.744, 4074.359, 4028.205, 4058.462, 4229.744, 450, 0, []
1631429137.43, 89, 0, 4198.974, 4068.718, 4000, 4044.615, 4222.051, 450, 0, []
1631429137.4379, 90, 0, 4176.41, 4068.718, 4028.718, 4024.615, 4202.051, 450, 0, []
1631429137.4458, 91, 0, 4153.846, 4080, 4015.897, 4021.538, 4181.538, 16232, 0, []
1631429137.4537, 92, 0, 4130.256, 4089.744, 4019.487, 4020.513, 4169.744, 450, 0, []
1631429137.4616, 93, 0, 4111.282, 4082.051, 4043.59, 4018.974, 4169.231, 450, 0, []
1631429137.4695, 94, 0, 4117.949, 4070.256, 3988.205, 4020.513, 4169.231, 450, 0, []
1631429137.4773, 95, 0, 4144.103, 4070.769, 4012.821, 4032.821, 4174.359, 16232, 0, []
1631429137.4853, 96, 0, 4155.385, 4064.615, 4009.744, 4060, 4197.949, 450, 0, []
1631429137.4931, 97, 0, 4153.333, 4052.821, 4020.513, 4073.333, 4216.923, 450, 0, []
1631429137.501, 98, 0, 4160.513, 4069.744, 4058.462, 4062.051, 4213.846, 450, 0, []
1631429137.5088, 99, 0, 4150.769, 4088.718, 3994.359, 4040.513, 4192.821, 16232, 0, []
1631429137.5168, 100, 0, 4134.872, 4088.718, 4043.077, 4037.436, 4181.538, 450, 0, []
1631429137.5247, 101, 0, 4153.333, 4103.59, 4088.718, 4063.077, 4201.538, 450, 0, []
1631429137.5326, 102, 0, 4174.872, 4111.795, 4080.513, 4088.205, 4220, 450, 0, []
1631429137.5405, 103, 0, 4161.026, 4089.231, 4133.333, 4092.308, 4203.077, 16232, 0, []
1631429137.5485, 104, 0, 4149.744, 4085.128, 4134.359, 4095.385, 4198.974, 450, 0, []
1631429137.5564, 105, 0, 4165.128, 4109.231, 4179.487, 4112.821, 4230.256, 450, 0, []
1631429137.5644, 106, 0, 4171.795, 4123.59, 4180, 4102.051, 4233.846, 450, 0, []
1631429137.5722, 107, 0, 4169.231, 4126.154, 4142.051, 4072.821, 4210.769, 16232, 0, []
1631429137.5802, 108, 0, 4169.231, 4139.487, 4189.231, 4073.846, 4211.282, 450, 0, []
1631429137.5881, 109, 0, 4162.051, 4156.923, 4144.103, 4091.282, 4219.487, 450, 0, []
1631429137.5961, 110, 0, 4152.308, 4166.154, 4148.205, 4111.282, 4218.974, 450, 0, []
1631429137.604, 111, 0, 4153.846, 4164.615, 4165.641, 4130.256, 4216.41, 16232, 0, []
1631429137.6118, 112, 0, 4160.513, 4147.692, 4045.128, 4138.462, 4219.487, 450, 0, []
1631429137.6196, 113, 0, 4172.308, 4136.923, 4015.385, 4145.641, 4241.026, 450, 0, []
1631429137.6274, 114, 0, 4181.538, 4148.718, 4075.897, 4154.872, 4264.103, 450, 0, []
1631429137.6353, 115, 0, 4172.821, 4151.282, 4176.41, 4140, 4246.154, 16232, 0, []
1631429137.6431, 116, 0, 4169.744, 4144.615, 4192.821, 4108.718, 4211.282, 450, 0, []
1631429137.651, 117, 0, 4171.282, 4155.385, 4142.564, 4095.385, 4203.077, 450, 0, []
1631429137.6587, 118, 0, 4142.564, 4166.154, 4191.282, 4097.949, 4197.949, 450, 0, []
1631429137.6666, 119, 0, 4119.487, 4145.128, 4144.103, 4105.641, 4186.154, 16232, 0, []
1631429137.6744, 120, 0, 4137.949, 4120, 4105.641, 4119.487, 4189.744, 450, 0, []
1631429137.6823, 121, 0, 4159.487, 4117.949, 4125.128, 4126.667, 4203.59, 450, 0, []
1631429137.6901, 122, 0, 4161.538, 4121.026, 4083.077, 4129.744, 4214.872, 450, 0, []
1631429137.698, 123, 0, 4165.128, 4120, 4118.974, 4141.026, 4223.59, 16232, 0, []
1631429137.7059, 124, 0, 4165.128, 4121.538, 4098.974, 4134.359, 4220.513, 450, 0, []
1631429137.7139, 125, 0, 4157.949, 4140.513, 4063.59, 4121.026, 4209.231, 450, 0, []
1631429137.7218, 126, 0, 4152.308, 4161.026, 4070.256, 4134.872, 4216.923, 450, 0, []
1631429137.7298, 127, 0, 4142.564, 4152.821, 4027.179, 4150.256, 4229.744, 16232, 0, []
1631429137.7377, 128, 0, 4133.846, 4144.615, 4062.564, 4147.692, 4221.026, 450, 0, []
1631429137.7456, 0, 0, 4122.051, 4155.897, 4047.692, 4141.026, 4202.564, 450, 0, []
1631429137.7535, 1, 0, 4108.205, 4161.026, 4032.821, 4136.923, 4194.872, 450, 0, []
1631429137.7615, 2, 0, 4106.667, 4152.308, 4080, 4138.462, 4189.744, 16187, 0, []
1631429137.7694, 3, 0, 4101.538, 4152.821, 4051.282, 4138.974, 4177.436, 450, 0, []
1631429137.7772, 4, 0, 4075.897, 4158.974, 4084.103, 4129.744, 4167.179, 16161, 0, []
1631429137.785, 5, 0, 4069.231, 4156.41, 4096.923, 4124.615, 4165.128, 450, 0, []
1631429137.7928, 6, 0, 4097.436, 4153.846, 4105.641, 4133.846, 4175.897, 99, 0, []
1631429137.8007, 7, 0, 4107.692, 4151.795, 4159.487, 4135.385, 4193.333, 450, 0, []
1631429137.8085, 8, 0, 4101.026, 4146.667, 4106.667, 4132.308, 4203.077, 450, 0, []
1631429137.8164, 9, 0, 4116.923, 4152.821, 4124.103, 4143.077, 4206.154, 16143, 0, []
1631429137.8242, 10, 0, 4122.564, 4162.564, 4143.59, 4135.385, 4202.564, 450, 0, []
1631429137.832, 11, 0, 4093.333, 4145.128, 4123.077, 4111.795, 4183.59, 16210, 0, []
1631429137.8398, 12, 0, 4068.718, 4120, 4171.795, 4113.846, 4156.923, 450, 0, []
1631429137.8478, 13, 0, 4061.026, 4121.538, 4149.744, 4122.564, 4142.564, 450, 0, []
1631429137.8557, 14, 0, 4041.026, 4126.154, 4152.308, 4114.872, 4128.205, 450, 0, []
1631429137.8637, 15, 0, 4024.615, 4126.154, 4137.436, 4107.692, 4102.564, 16210, 0, []
1631429137.8715, 16, 0, 4019.487, 4133.846, 4106.667, 4095.897, 4084.615, 0, 0, []
1631429137.8795, 17, 0, 4016.41, 4136.41, 4143.077, 4080.513, 4081.538, 0, 0, []
1631429137.8874, 18, 0, 4024.615, 4124.615, 4091.795, 4078.974, 4075.385, 0, 0, []
1631429137.8954, 19, 0, 4029.231, 4118.462, 4107.179, 4081.538, 4066.667, 0, 0, []
1631429137.9033, 20, 0, 4034.872, 4124.103, 4143.59, 4082.051, 4080.513, 0, 0, []
1631429137.911, 21, 0, 4054.359, 4118.462, 4137.436, 4090.256, 4096.923, 0, 0, []
1631429137.9189, 22, 0, 4062.051, 4103.59, 4196.923, 4098.974, 4094.872, 0, 0, []
1631429137.9269, 23, 0, 4052.308, 4114.359, 4177.949, 4103.59, 4094.872, 0, 0, []
1631429137.9348, 24, 0, 4055.897, 4143.59, 4217.436, 4105.641, 4104.615, 0, 0, []
1631429137.9426, 25, 0, 4060, 4145.641, 4254.359, 4093.846, 4098.462, 0, 0, []
1631429137.9505, 26, 0, 4037.949, 4133.846, 4193.846, 4069.231, 4071.282, 0, 0, []
1631429137.9582, 27, 0, 4031.795, 4148.205, 4222.051, 4059.487, 4058.974, 0, 0, []
1631429137.9661, 28, 0, 4051.795, 4163.077, 4210.256, 4069.231, 4069.744, 0, 0, []
1631429137.9739, 29, 0, 4059.487, 4154.359, 4219.487, 4080, 4069.744, 0, 0, []
1631429137.9818, 30, 0, 4063.077, 4149.744, 4248.718, 4081.538, 4064.103, 0, 0, []
1631429137.9896, 31, 0, 4076.923, 4147.692, 4201.026, 4082.051, 4075.897, 0, 0, []
1631429137.9974, 32, 0, 4079.487, 4127.179, 4230.769, 4089.744, 4079.487, 0, 0, []
1631429138.0052, 33, 0, 4060, 4103.077, 4201.026, 4074.359, 4057.949, 0, 0, []
1631429138.0131, 34, 0, 4046.667, 4091.282, 4156.923, 4047.179, 4045.128, 0, 0, []
1631429138.0209, 35, 0, 4047.179, 4090.769, 4170.256, 4050.256, 4034.359, 0, 0, []
1631429138.0289, 36, 0, 4042.564, 4090.769, 4116.41, 4051.795, 4014.872, 0, 0, []
1631429138.0367, 37, 0, 4040.513, 4076.41, 4122.564, 4035.385, 4014.359, 0, 0, []
1631429138.0447, 38, 0, 4042.051, 4063.59, 4112.308, 4038.974, 4014.359, 0, 0, []
1631429138.0526, 39, 0, 4036.923, 4067.179, 4106.667, 4052.308, 4002.051, 0, 0, []
1631429138.0606, 40, 0, 4035.385, 4076.923, 4154.359, 4045.128, 4001.026, 0, 0, []
1631429138.0685, 41, 0, 4050.256, 4088.718, 4119.487, 4038.974, 4014.872, 0, 0, []
1631429138.0763, 42, 0, 4062.051, 4091.282, 4138.974, 4047.692, 4027.692, 0, 0, []
1631429138.0841, 43, 0, 4055.385, 4082.564, 4133.846, 4040, 4023.077, 0, 0, []
1631429138.0919, 44, 0, 4044.103, 4080, 4105.128, 4024.103, 4010.256, 0, 0, []
1631429138.0998, 45, 0, 4042.564, 4066.667, 4137.436, 4025.128, 4012.821, 0, 0, []
1631429138.1076, 46, 0, 4050.769, 4040.513, 4093.333, 4031.282, 4020.513, 0, 0, []
1631429138.1155, 47, 0, 4056.41, 4049.231, 4111.282, 4034.872, 4020, 0, 0, []
1631429138.1232, 48, 0, 4060, 4074.359, 4134.359, 4041.026, 4027.179, 0, 0, []
1631429138.1311, 49, 0, 4066.667, 4062.051, 4120.513, 4048.718, 4027.692, 0, 0, []
1631429138.1389, 50, 0, 4057.949, 4051.282, 4166.154, 4044.615, 4008.205, 0, 0, []
1631429138.1468, 51, 0, 4039.487, 4072.308, 4133.333, 4032.308, 4002.051, 0, 0, []
1631429138.1546, 52, 0, 4045.128, 4076.41, 4139.487, 4029.231, 4012.821, 0, 0, []
1631429138.1625, 53, 0, 4063.59, 4066.154, 4153.333, 4023.077, 4014.872, 0, 0, []
1631429138.1704, 54, 0, 4061.026, 4074.872, 4108.718, 4007.692, 4011.282, 0, 0, []
1631429138.1784, 55, 0, 4063.077, 4091.795, 4128.718, 4017.436, 4017.949, 0, 0, []
1631429138.1863, 56, 0, 4077.436, 4101.026, 4088.205, 4037.436, 4025.641, 0, 0, []
1631429138.1943, 57, 0, 4076.923, 4108.718, 4080, 4032.821, 4025.641, 0, 0, []
1631429138.2022, 58, 0, 4078.462, 4128.718, 4111.282, 4032.821, 4030.769, 0, 0, []
1631429138.2101, 59, 0, 4089.744, 4150.256, 4091.282, 4054.359, 4043.59, 0, 0, []
1631429138.218, 60, 0, 4095.385, 4150.769, 4118.462, 4072.821, 4050.769, 0, 0, []
1631429138.226, 61, 0, 4097.949, 4131.795, 4074.872, 4075.385, 4046.667, 0, 0, []
1631429138.2339, 62, 0, 4093.333, 4114.872, 4052.308, 4063.077, 4038.462, 0, 0, []
1631429138.2417, 63, 0, 4082.051, 4118.974, 4067.692, 4046.154, 4031.795, 0, 0, []
1631429138.2495, 64, 0, 4089.744, 4135.385, 4026.154, 4047.692, 4037.949, 450, 0, []
1631429138.2573, 65, 0, 4098.974, 4145.641, 4070.769, 4053.846, 4045.641, 450, 0, []
1631429138.2652, 66, 0, 4091.282, 4144.615, 4075.897, 4046.154, 4038.974, 16198, 0, []
1631429138.273, 67, 0, 4095.897, 4133.846, 4065.641, 4054.872, 4041.026, 450, 0, []
1631429138.2809, 68, 0, 4103.077, 4132.821, 4088.718, 4069.744, 4054.872, 16166, 0, []
1631429138.2886, 69, 0, 4094.359, 4151.795, 4061.026, 4073.333, 4062.564, 450, 0, []
1631429138.2965, 70, 0, 4088.205, 4165.128, 4105.128, 4077.436, 4050.769, 97, 0, []
1631429138.3043, 71, 0, 4088.718, 4145.641, 4078.462, 4066.154, 4038.462, 450, 0, []
1631429138.3122, 72, 0, 4092.308, 4126.154, 4023.077, 4052.821, 4048.205, 450, 0, []
1631429138.32, 73, 0, 4089.744, 4136.41, 4061.538, 4067.692, 4044.615, 16150, 0, []
1631429138.328, 74, 0, 4061.026, 4138.974, 4044.103, 4071.282, 4011.282, 450, 0, []
1631429138.3358, 75, 0, 4041.538, 4137.949, 4048.205, 4052.308, 3994.872, 16201, 0, []
1631429138.3438, 76, 0, 4058.462, 4153.333, 4012.821, 4053.333, 4005.128, 450, 0, []
1631429138.3517, 77, 0, 4060, 4158.974, 3957.436, 4072.308, 4007.692, 450, 0, []
1631429138.3597, 78, 0, 4046.667, 4148.205, 3994.359, 4084.103, 4006.667, 450, 0, []
1631429138.3676, 79, 0, 4065.128, 4155.897, 4000, 4091.795, 4016.923, 16201, 0, []
1631429138.3755, 80, 0, 4080.513, 4164.103, 4026.154, 4094.359, 4022.051, 450, 0, []
1631429138.3834, 81, 0, 4076.923, 4158.974, 3993.333, 4090.769, 4027.692, 450, 0, []
1631429138.3913, 82, 0, 4091.795, 4180, 3937.949, 4088.205, 4040, 450, 0, []
1631429138.3992, 83, 0, 4105.128, 4201.026, 3989.744, 4085.641, 4045.641, 16201, 0, []
1631429138.407, 84, 0, 4103.59, 4196.923, 3968.718, 4087.179, 4044.615, 450, 0, []
1631429138.4148, 85, 0, 4104.103, 4205.641, 3965.641, 4091.795, 4037.436, 450, 0, []
1631429138.4226, 86, 0, 4098.462, 4210.769, 3990.769, 4087.692, 4029.744, 450, 0, []
1631429138.4305, 87, 0, 4087.179, 4184.615, 3977.436, 4081.538, 4029.744, 16201, 0, []
1631429138.4383, 88, 0, 4095.897, 4180.513, 4027.179, 4096.41, 4032.308, 450, 0, []
1631429138.4462, 89, 0, 4116.41, 4210.256, 4017.436, 4108.205, 4044.103, 450, 0, []
1631429138.454, 90, 0, 4121.026, 4203.077, 4008.718, 4102.564, 4063.59, 450, 0, []
1631429138.4618, 91, 0, 4118.974, 4182.051, 3999.487, 4109.231, 4065.641, 16201, 0, []
1631429138.4697, 92, 0, 4119.487, 4190.769, 3950.769, 4112.821, 4044.103, 450, 0, []
1631429138.4776, 93, 0, 4116.923, 4200, 3998.462, 4099.487, 4039.487, 450, 0, []
1631429138.4856, 94, 0, 4113.333, 4188.205, 3987.692, 4098.974, 4054.872, 450, 0, []
1631429138.4936, 95, 0, 4109.231, 4174.872, 3967.692, 4113.333, 4052.821, 16201, 0, []
1631429138.5014, 96, 0, 4104.103, 4177.949, 3991.282, 4118.462, 4044.615, 450, 0, []
1631429138.5094, 97, 0, 4112.308, 4193.333, 3962.564, 4130.769, 4057.436, 450, 0, []
1631429138.5173, 98, 0, 4127.692, 4215.897, 3998.462, 4146.667, 4062.564, 450, 0, []
1631429138.5253, 99, 0, 4123.59, 4233.846, 3996.923, 4139.487, 4047.179, 16201, 0, []
1631429138.5332, 100, 0, 4106.154, 4238.462, 3991.795, 4132.308, 4045.128, 450, 0, []
1631429138.5412, 101, 0, 4103.077, 4234.872, 4031.282, 4138.974, 4057.436, 450, 0, []
1631429138.549, 102, 0, 4121.538, 4231.282, 4009.744, 4148.205, 4067.179, 450, 0, []
1631429138.5568, 103, 0, 4133.333, 4233.333, 4031.282, 4156.41, 4072.821, 16201, 0, []
1631429138.5647, 104, 0, 4121.026, 4226.667, 4009.231, 4153.846, 4068.205, 450, 0, []
1631429138.5725, 105, 0, 4109.231, 4214.872, 3985.128, 4146.667, 4051.282, 450, 0, []
1631429138.5804, 106, 0, 4110.769, 4214.359, 4016.923, 4142.051, 4038.462, 450, 0, []
1631429138.5881, 107, 0, 4108.718, 4218.974, 3973.846, 4136.923, 4039.487, 16201, 0, []
1631429138.596, 108, 0, 4110.256, 4212.308, 3986.667, 4138.462, 4045.128, 450, 0, []
1631429138.6038, 109, 0, 4122.564, 4213.333, 3987.179, 4147.179, 4040.513, 450, 0, []
1631429138.6117, 110, 0, 4120.513, 4232.308, 3970.256, 4151.282, 4035.897, 450, 0, []
1631429138.6195, 111, 0, 4124.103, 4240, 4022.051, 4157.436, 4052.821, 16201, 0, []
1631429138.6274, 112, 0, 4147.692, 4242.051, 3996.923, 4167.692, 4068.718, 450, 0, []
1631429138.6353, 113, 0, 4151.795, 4248.205, 4008.205, 4168.718, 4064.103, 450, 0, []
1631429138.6433, 114, 0, 4141.538, 4247.692, 4018.974, 4170.769, 4067.179, 450, 0, []
1631429138.6512, 115, 0, 4152.821, 4246.667, 3975.385, 4177.949, 4083.59, 16201, 0, []
1631429138.6592, 116, 0, 4173.333, 4250.256, 4000, 4182.564, 4090.256, 450, 0, []
1631429138.6671, 117, 0, 4178.974, 4242.564, 3986.154, 4180.513, 4093.333, 450, 0, []
1631429138.675, 118, 0, 4167.179, 4227.179, 4005.641, 4178.974, 4094.872, 450, 0, []
1631429138.6829, 119, 0, 4147.179, 4232.308, 4016.41, 4169.744, 4077.436, 16201, 0, []
1631429138.6908, 120, 0, 4139.487, 4243.077, 3977.949, 4164.615, 4060.513, 450, 0, []
1631429138.6987, 121, 0, 4141.538, 4242.051, 4010.256, 4170.256, 4062.564, 450, 0, []
1631429138.7065, 122, 0, 4133.333, 4249.744, 3982.051, 4165.128, 4065.128, 450, 0, []
1631429138.7143, 123, 0, 4128.205, 4269.231, 3984.615, 4164.103, 4063.077, 16201, 0, []
1631429138.7221, 124, 0, 4136.41, 4274.359, 4012.308, 4180, 4061.026, 450, 0, []
1631429138.73, 125, 0, 4132.821, 4266.667, 3977.436, 4188.718, 4057.949, 450, 0, []
1631429138.7378, 126, 0, 4118.462, 4257.436, 3998.974, 4177.436, 4054.872, 450, 0, []
1631429138.7457, 127, 0, 4122.564, 4254.359, 3965.641, 4173.333, 4052.821, 16201, 0, []
1631429138.7534, 128, 0, 4139.487, 4257.436, 3957.436, 4185.641, 4052.821, 450, 0, []
1631429138.7613, 0, 0, 4136.923, 4256.923, 3993.333, 4190.769, 4057.949, 450, 0, []
1631429138.7691, 1, 0, 4123.59, 4247.179, 3955.385, 4182.051, 4052.821, 450, 0, []
1631429138.7771, 2, 0, 4123.077, 4243.59, 3988.718, 4181.026, 4031.795, 16198, 0, []
1631429138.785, 3, 0, 4125.128, 4252.821, 3995.385, 4188.205, 4031.795, 450, 0, []
1631429138.793, 4, 0, 4120.513, 4257.949, 3983.077, 4190.256, 4052.821, 16164, 0, []
1631429138.8008, 5, 0, 4123.59, 4261.538, 4006.667, 4193.846, 4053.333, 450, 0, []
1631429138.8088, 6, 0, 4124.103, 4262.051, 3968.718, 4185.128, 4035.385, 105, 0, []
1631429138.8167, 7, 0, 4111.795, 4255.897, 3978.974, 4170.256, 4034.872, 450, 0, []
1631429138.8247, 8, 0, 4103.077, 4257.949, 3956.923, 4172.821, 4042.051, 450, 0, []
1631429138.8326, 9, 0, 4110.769, 4260.513, 3953.333, 4182.564, 4033.846, 16146, 0, []
1631429138.8405, 10, 0, 4121.026, 4253.846, 4025.128, 4190.256, 4036.41, 450, 0, []
1631429138.8484, 11, 0, 4120.513, 4251.282, 3998.462, 4197.436, 4057.436, 16202, 0, []
1631429138.8563, 12, 0, 4125.128, 4260.513, 4000, 4206.154, 4065.128, 450, 0, []
1631429138.8642, 13, 0, 4141.026, 4269.231, 4004.615, 4206.154, 4061.026, 450, 0, []
1631429138.872, 14, 0, 4144.103, 4265.128, 3986.667, 4193.846, 4065.128, 450, 0, []
1631429138.8798, 15, 0, 4132.308, 4253.846, 4010.769, 4191.795, 4071.282, 16202, 0, []
1631429138.8876, 16, 0, 4141.026, 4254.359, 3971.795, 4207.179, 4068.718, 0, 0, []
1631429138.8955, 17, 0, 4157.949, 4261.538, 3976.41, 4213.333, 4068.205, 0, 0, []
1631429138.9033, 18, 0, 4150.769, 4252.821, 3975.897, 4200, 4076.41, 0, 0, []
1631429138.9112, 19, 0, 4142.051, 4239.487, 3951.795, 4191.282, 4082.051, 0, 0, []
1631429138.919, 20, 0, 4150.769, 4249.231, 3999.487, 4194.359, 4075.385, 0, 0, []
1631429138.9268, 21, 0, 4161.538, 4266.154, 3993.333, 4195.897, 4074.872, 0, 0, []
1631429138.9346, 22, 0, 4158.462, 4272.821, 4014.872, 4201.538, 4091.795, 0, 0, []
1631429138.9426, 23, 0, 4146.667, 4272.821, 4016.41, 4208.205, 4090.769, 0, 0, []
1631429138.9505, 24, 0, 4135.897, 4269.231, 3968.718, 4201.026, 4066.154, 0, 0, []
1631429138.9585, 25, 0, 4143.59, 4281.026, 4023.077, 4199.487, 4066.667, 0, 0, []
1631429138.9663, 26, 0, 4168.205, 4309.231, 4023.077, 4219.487, 4101.026, 0, 0, []
1631429138.9743, 27, 0, 4173.333, 4322.051, 4017.436, 4234.872, 4118.462, 0, 0, []
1631429138.9822, 28, 0, 4159.487, 4308.205, 4037.949, 4227.179, 4106.154, 0, 0, []
1631429138.9902, 29, 0, 4163.077, 4285.128, 4010.256, 4219.487, 4098.974, 0, 0, []
1631429138.9981, 30, 0, 4171.795, 4262.564, 4037.436, 4227.692, 4102.051, 0, 0, []
1631429139.006, 31, 0, 4160, 4252.821, 4012.308, 4235.897, 4110.256, 0, 0, []
1631429139.0139, 32, 0, 4148.718, 4250.769, 3997.436, 4236.923, 4108.205, 0, 0, []
1631429139.0217, 33, 0, 4152.821, 4249.744, 4018.462, 4230.769, 4090.256, 0, 0, []
1631429139.0296, 34, 0, 4157.949, 4267.179, 3983.59, 4223.59, 4087.179, 0, 0, []
1631429139.0374, 35, 0, 4154.872, 4289.231, 4007.179, 4220.513, 4101.538, 0, 0, []
1631429139.0453, 36, 0, 4153.846, 4286.667, 3991.795, 4213.333, 4109.744, 0, 0, []
1631429139.053, 37, 0, 4162.564, 4269.744, 3981.538, 4206.154, 4109.231, 0, 0, []
1631429139.0609, 38, 0, 4173.333, 4266.667, 4015.897, 4207.692, 4114.359, 0, 0, []
1631429139.0687, 39, 0, 4173.333, 4277.436, 3983.59, 4213.333, 4130.769, 0, 0, []
1631429139.0766, 40, 0, 4169.231, 4272.821, 4010.769, 4216.923, 4141.538, 0, 0, []
1631429139.0844, 41, 0, 4171.282, 4269.744, 4005.641, 4214.872, 4129.231, 0, 0, []
1631429139.0923, 42, 0, 4173.846, 4292.821, 3988.205, 4209.231, 4114.872, 0, 0, []
1631429139.1002, 43, 0, 4167.179, 4313.333, 4028.718, 4208.205, 4122.051, 0, 0, []
1631429139.1082, 44, 0, 4162.564, 4305.641, 3998.462, 4213.846, 4133.333, 0, 0, []
1631429139.1161, 45, 0, 4162.051, 4287.692, 4024.615, 4217.436, 4121.026, 0, 0, []
1631429139.1241, 46, 0, 4164.103, 4281.026, 4044.615, 4217.949, 4106.667, 0, 0, []
1631429139.1319, 47, 0, 4165.128, 4288.205, 4025.641, 4221.538, 4114.359, 0, 0, []
1631429139.1399, 48, 0, 4157.436, 4287.179, 4049.744, 4221.538, 4120, 0, 0, []
1631429139.1478, 49, 0, 4146.154, 4268.718, 4012.308, 4212.308, 4108.205, 0, 0, []
1631429139.1558, 50, 0, 4155.385, 4273.333, 4030.256, 4213.333, 4107.179, 0, 0, []
1631429139.1637, 51, 0, 4172.308, 4302.051, 4040.513, 4216.41, 4122.051, 0, 0, []
1631429139.1715, 52, 0, 4169.231, 4308.205, 4002.564, 4211.795, 4130.256, 0, 0, []
1631429139.1793, 53, 0, 4176.41, 4307.692, 4040.513, 4229.744, 4138.462, 0, 0, []
1631429139.1871, 54, 0, 4198.974, 4317.436, 4022.564, 4253.333, 4146.667, 0, 0, []
1631429139.195, 55, 0, 4194.872, 4312.821, 4021.538, 4246.154, 4136.41, 0, 0, []
1631429139.2028, 56, 0, 4166.667, 4297.949, 4029.231, 4233.333, 4123.59, 0, 0, []
1631429139.2107, 57, 0, 4151.282, 4294.359, 3987.179, 4226.154, 4120, 0, 0, []
1631429139.2184, 58, 0, 4149.744, 4293.846, 4012.821, 4209.744, 4110.256, 0, 0, []
1631429139.2263, 59, 0, 4158.974, 4290.256, 4001.538, 4210.769, 4104.103, 0, 0, []
1631429139.2341, 60, 0, 4178.974, 4293.846, 4010.256, 4241.538, 4125.128, 0, 0, []
1631429139.242, 61, 0, 4194.872, 4308.718, 4031.282, 4257.949, 4161.538, 0, 0, []
1631429139.2498, 62, 0, 4206.667, 4319.487, 3997.949, 4247.692, 4180, 0, 0, []
1631429139.2577, 63, 0, 4212.821, 4324.103, 4026.667, 4240, 4167.692, 0, 0, []
1631429139.2656, 64, 0, 4207.179, 4332.821, 4006.154, 4232.821, 4147.692, 450, 0, []
1631429139.2736, 65, 0, 4191.282, 4329.744, 3996.41, 4215.897, 4138.462, 450, 0, []
1631429139.2815, 66, 0, 4176.923, 4316.41, 4010.769, 4206.154, 4134.872, 16193, 0, []
1631429139.2895, 67, 0, 4177.436, 4314.872, 3973.846, 4210.769, 4134.359, 450, 0, []
1631429139.2974, 68, 0, 4189.231, 4323.59, 4026.667, 4227.179, 4135.897, 16164, 0, []
1631429139.3053, 69, 0, 4189.744, 4332.308, 4032.821, 4233.333, 4127.692, 450, 0, []
1631429139.3132, 70, 0, 4178.974, 4333.333, 4015.897, 4218.462, 4116.923, 101, 0, []
1631429139.3212, 71, 0, 4179.487, 4327.692, 4045.641, 4210.256, 4124.103, 450, 0, []
1631429139.3291, 72, 0, 4186.667, 4322.051, 4004.615, 4211.795, 4134.359, 450, 0, []
1631429139.3369, 73, 0, 4188.718, 4324.103, 4027.692, 4205.641, 4128.718, 16150, 0, []
1631429139.3447, 74, 0, 4200, 4326.154, 4035.897, 4201.026, 4129.231, 450, 0, []
1631429139.3525, 75, 0, 4210.769, 4319.487, 4014.359, 4210.769, 4144.103, 16202, 0, []
1631429139.3604, 76, 0, 4205.128, 4306.667, 4037.949, 4220.513, 4155.385, 450, 0, []
1631429139.3682, 77, 0, 4207.692, 4296.41, 4006.154, 4224.615, 4154.872, 450, 0, []
1631429139.3761, 78, 0, 4226.154, 4302.051, 4023.077, 4233.333, 4158.974, 450, 0, []
1631429139.3839, 79, 0, 4240.513, 4313.846, 4020, 4235.897, 4170.769, 16202, 0, []
1631429139.3917, 80, 0, 4234.359, 4311.282, 3993.333, 4227.692, 4173.333, 450, 0, []
1631429139.3995, 81, 0, 4215.897, 4305.641, 4037.436, 4220, 4165.641, 450, 0, []
1631429139.4074, 82, 0, 4214.872, 4311.795, 4018.462, 4228.205, 4167.692, 450, 0, []
1631429139.4152, 83, 0, 4215.897, 4308.718, 4027.692, 4235.385, 4160.513, 16202, 0, []
1631429139.4232, 84, 0, 4199.487, 4295.897, 4025.641, 4215.897, 4136.923, 450, 0, []
1631429139.431, 85, 0, 4191.282, 4293.846, 3990.769, 4204.103, 4136.41, 450, 0, []
1631429139.439, 86, 0, 4196.41, 4296.923, 4024.615, 4224.615, 4153.333, 450, 0, []
1631429139.4469, 87, 0, 4194.359, 4293.846, 3995.385, 4230.769, 4153.333, 16202, 0, []
1631429139.4549, 88, 0, 4206.667, 4290.256, 4005.641, 4228.718, 4152.821, 450, 0, []
1631429139.4628, 89, 0, 4233.846, 4292.821, 4035.897, 4250.256, 4165.641, 450, 0, []
1631429139.4706, 90, 0, 4234.872, 4301.026, 4007.179, 4256.41, 4173.333, 450, 0, []
1631429139.4785, 91, 0, 4223.59, 4306.154, 4036.923, 4241.538, 4178.974, 16202, 0, []
1631429139.4863, 92, 0, 4229.231, 4300, 4016.41, 4241.538, 4184.615, 450, 0, []
1631429139.4943, 93, 0, 4231.282, 4298.462, 4016.923, 4246.154, 4178.462, 450, 0, []
1631429139.5022, 94, 0, 4222.564, 4313.333, 4043.59, 4236.923, 4165.128, 450, 0, []
1631429139.5101, 95, 0, 4214.872, 4320, 4011.282, 4227.179, 4151.282, 16202, 0, []
1631429139.5178, 96, 0, 4210.256, 4325.641, 4036.923, 4223.077, 4146.667, 450, 0, []
1631429139.5257, 97, 0, 4212.821, 4344.615, 4022.051, 4221.026, 4160.513, 450, 0, []
1631429139.5335, 98, 0, 4214.872, 4335.385, 4022.564, 4234.872, 4176.41, 450, 0, []
1631429139.5414, 99, 0, 4206.154, 4306.154, 4054.872, 4247.692, 4167.179, 16202, 0, []
1631429139.5492, 100, 0, 4202.051, 4310.769, 4018.974, 4233.333, 4146.667, 450, 0, []
1631429139.5571, 101, 0, 4211.795, 4332.821, 4047.179, 4222.564, 4143.59, 450, 0, []
1631429139.565, 102, 0, 4217.949, 4330.769, 4038.974, 4235.385, 4162.051, 450, 0, []
1631429139.573, 103, 0, 4218.462, 4318.974, 4012.821, 4241.538, 4179.487, 16202, 0, []
1631429139.5809, 104, 0, 4228.718, 4321.538, 4031.795, 4238.974, 4184.103, 450, 0, []
1631429139.5889, 105, 0, 4232.821, 4330.769, 4006.154, 4243.077, 4185.128, 450, 0, []
1631429139.5967, 106, 0, 4230.769, 4330.769, 4042.051, 4246.154, 4180.513, 450, 0, []
1631429139.6047, 107, 0, 4246.154, 4327.692, 4041.026, 4245.128, 4178.974, 16202, 0, []
1631429139.6126, 108, 0, 4254.872, 4333.846, 4016.41, 4250.256, 4186.154, 450, 0, []
1631429139.6206, 109, 0, 4237.436, 4337.949, 4041.538, 4251.282, 4188.205, 450, 0, []
1631429139.6285, 110, 0, 4227.179, 4331.282, 4001.538, 4246.667, 4180, 450, 0, []
1631429139.6365, 111, 0, 4231.282, 4327.692, 4021.538, 4246.154, 4174.872, 16202, 0, []
1631429139.6443, 112, 0, 4226.667, 4323.59, 4038.974, 4247.179, 4173.333, 450, 0, []
1631429139.6523, 113, 0, 4212.308, 4312.821, 4017.436, 4248.205, 4158.462, 450, 0, []
1631429139.6602, 114, 0, 4202.564, 4315.385, 4046.154, 4237.436, 4147.179, 450, 0, []
1631429139.668, 115, 0, 4202.051, 4324.103, 4014.359, 4216.41, 4156.923, 16202, 0, []
1631429139.6759, 116, 0, 4209.744, 4314.872, 4024.103, 4213.333, 4170.256, 450, 0, []
1631429139.6836, 117, 0, 4218.462, 4308.205, 4040.513, 4232.308, 4171.795, 450, 0, []
1631429139.6915, 118, 0, 4222.051, 4316.923, 4016.41, 4241.026, 4169.744, 450, 0, []
1631429139.6993, 119, 0, 4222.564, 4323.59, 4049.744, 4231.795, 4167.179, 16202, 0, []
1631429139.7073, 120, 0, 4227.692, 4329.744, 4028.205, 4232.308, 4168.718, 450, 0, []
1631429139.7152, 121, 0, 4228.718, 4334.872, 4037.436, 4243.077, 4180.513, 450, 0, []
1631429139.7231, 122, 0, 4217.949, 4318.462, 4052.821, 4235.897, 4175.897, 450, 0, []
1631429139.731, 123, 0, 4213.846, 4294.872, 4017.949, 4226.154, 4153.333, 16202, 0, []
1631429139.739, 124, 0, 4218.974, 4300, 4050.256, 4236.41, 4145.641, 450, 0, []
1631429139.7469, 125, 0, 4209.231, 4314.872, 4022.564, 4231.282, 4151.282, 450, 0, []
1631429139.7549, 126, 0, 4201.538, 4307.692, 4025.641, 4215.385, 4152.308, 450, 0, []
1631429139.7628, 127, 0, 4218.974, 4304.103, 4074.872, 4232.821, 4156.41, 16202, 0, []
1631429139.7707, 128, 0, 4234.872, 4317.436, 4046.667, 4252.308, 4172.821, 450, 0, []
1631429139.7786, 0, 0, 4238.974, 4320.513, 4069.231, 4241.538, 4182.051, 450, 0, []
1631429139.7864, 1, 0, 4252.821, 4309.231, 4068.718, 4235.897, 4183.077, 450, 0, []
1631429139.7943, 2, 0, 4266.154, 4316.41, 4072.308, 4242.564, 4192.821, 16190, 0, []
1631429139.8021, 3, 0, 4260.513, 4338.974, 4083.59, 4241.538, 4204.615, 450, 0, []
1631429139.8099, 4, 0, 4243.077, 4328.718, 4032.308, 4236.923, 4201.538, 16161, 0, []
1631429139.8177, 5, 0, 4231.795, 4294.359, 4058.462, 4234.359, 4187.179, 450, 0, []
1631429139.8256, 6, 0, 4229.744, 4289.231, 4050.769, 4230.256, 4172.821, 110, 0, []
1631429139.8334, 7, 0, 4231.795, 4297.436, 4041.538, 4231.795, 4167.692, 450, 0, []
1631429139.8413, 8, 0, 4230.769, 4284.103, 4087.692, 4234.872, 4174.359, 450, 0, []
1631429139.849, 9, 0, 4227.179, 4282.564, 4051.795, 4227.692, 4184.103, 16152, 0, []
1631429139.8569, 10, 0, 4230.256, 4300, 4057.436, 4228.718, 4194.359, 450, 0, []
1631429139.8647, 11, 0, 4229.231, 4289.744, 4052.308, 4233.846, 4196.923, 16198, 0, []
1631429139.8727, 12, 0, 4220, 4258.974, 4030.769, 4217.949, 4181.026, 450, 0, []
1631429139.8806, 13, 0, 4218.462, 4257.949, 4056.41, 4200.513, 4163.077, 450, 0, []
1631429139.8885, 14, 0, 4231.282, 4274.359, 4034.872, 4206.154, 4164.103, 450, 0, []
1631429139.8962, 15, 0, 4240, 4270.769, 4067.692, 4222.564, 4180, 16198, 0, []
1631429139.9042, 16, 0, 4236.923, 4263.077, 4062.564, 4230.256, 4194.872, 0, 0, []
1631429139.9121, 17, 0, 4233.846, 4268.718, 4025.128, 4228.718, 4203.59, 0, 0, []
1631429139.9201, 18, 0, 4234.872, 4266.667, 4071.795, 4224.103, 4197.436, 0, 0, []
1631429139.928, 19, 0, 4234.359, 4256.923, 4055.385, 4226.667, 4184.615, 0, 0, []
1631429139.9359, 20, 0, 4233.846, 4263.59, 4065.641, 4232.821, 4184.103, 0, 0, []
1631429139.9438, 21, 0, 4234.359, 4279.487, 4071.282, 4223.59, 4182.051, 0, 0, []
1631429139.9517, 22, 0, 4232.308, 4278.974, 4039.487, 4206.154, 4174.872, 0, 0, []
1631429139.9596, 23, 0, 4227.179, 4263.59, 4077.949, 4198.974, 4175.385, 0, 0, []
1631429139.9674, 24, 0, 4216.923, 4250.769, 4051.282, 4193.333, 4175.897, 0, 0, []
1631429139.9752, 25, 0, 4215.897, 4249.744, 4051.282, 4194.872, 4169.744, 0, 0, []
1631429139.983, 26, 0, 4228.205, 4250.256, 4075.897, 4210.256, 4169.744, 0, 0, []
1631429139.9909, 27, 0, 4226.667, 4238.462, 4035.385, 4206.667, 4170.769, 0, 0, []
1631429139.9987, 28, 0, 4212.821, 4234.359, 4048.718, 4190.769, 4173.333, 0, 0, []
1631429140.0066, 29, 0, 4216.41, 4249.744, 4042.564, 4201.538, 4189.744, 0, 0, []
1631429140.0144, 30, 0, 4222.564, 4249.744, 4063.077, 4217.436, 4196.41, 0, 0, []
1631429140.0223, 31, 0, 4213.846, 4233.333, 4075.385, 4206.667, 4175.385, 0, 0, []
1631429140.0302, 32, 0, 4207.692, 4228.205, 4025.641, 4190.256, 4156.923, 0, 0, []
1631429140.0382, 33, 0, 4205.641, 4228.205, 4060, 4189.231, 4158.462, 0, 0, []
1631429140.0461, 34, 0, 4200, 4227.179, 4048.205, 4193.846, 4167.692, 0, 0, []
1631429140.0541, 35, 0, 4201.538, 4228.718, 4043.59, 4199.487, 4171.795, 0, 0, []
1631429140.0619, 36, 0, 4211.795, 4225.641, 4086.667, 4202.051, 4172.821, 0, 0, []
1631429140.0699, 37, 0, 4224.615, 4227.692, 4051.795, 4204.615, 4179.487, 0, 0, []
1631429140.0778, 38, 0, 4226.667, 4241.026, 4057.949, 4212.821, 4180.513, 0, 0, []
1631429140.0858, 39, 0, 4218.974, 4240, 4044.615, 4211.282, 4178.462, 0, 0, []
1631429140.0937, 40, 0, 4214.872, 4227.692, 4037.436, 4210.256, 4184.615, 0, 0, []
1631429140.1015, 41, 0, 4215.897, 4226.154, 4059.487, 4222.564, 4193.333, 0, 0, []
1631429140.1093, 42, 0, 4220, 4237.949, 4020, 4229.231, 4186.667, 0, 0, []
1631429140.1171, 43, 0, 4217.436, 4252.308, 4055.385, 4225.128, 4172.821, 0, 0, []
1631429140.125, 44, 0, 4205.641, 4264.103, 4062.051, 4219.487, 4170.256, 0, 0, []
1631429140.1328, 45, 0, 4198.462, 4261.026, 4043.077, 4216.41, 4175.385, 0, 0, []
1631429140.1407, 46, 0, 4199.487, 4245.641, 4071.282, 4217.436, 4172.821, 0, 0, []
1631429140.1484, 47, 0, 4192.308, 4236.41, 4023.077, 4210.769, 4158.974, 0, 0, []
1631429140.1563, 48, 0, 4180.513, 4237.949, 4037.949, 4202.564, 4147.179, 0, 0, []
1631429140.1641, 49, 0, 4187.692, 4240.513, 4064.103, 4209.231, 4158.974, 0, 0, []
1631429140.1721, 50, 0, 4202.051, 4230.256, 4045.128, 4215.897, 4183.077, 0, 0, []
1631429140.18, 51, 0, 4198.462, 4218.974, 4064.103, 4211.795, 4183.077, 0, 0, []
1631429140.1879, 52, 0, 4191.282, 4229.231, 4029.744, 4210.769, 4166.667, 0, 0, []
1631429140.1958, 53, 0, 4196.41, 4250.256, 4053.333, 4220.513, 4164.615, 0, 0, []
1631429140.2038, 54, 0, 4201.026, 4257.436, 4074.359, 4219.487, 4171.795, 0, 0, []
1631429140.2117, 55, 0, 4202.564, 4248.205, 4044.615, 4211.795, 4179.487, 0, 0, []
1631429140.2197, 56, 0, 4211.795, 4241.026, 4076.923, 4222.051, 4184.103, 0, 0, []
1631429140.2276, 57, 0, 4217.436, 4248.205, 4050.256, 4237.949, 4183.077, 0, 0, []
1631429140.2355, 58, 0, 4216.41, 4259.487, 4052.821, 4244.615, 4182.564, 0, 0, []
1631429140.2434, 59, 0, 4214.872, 4263.077, 4069.231, 4242.051, 4184.103, 0, 0, []
1631429140.2512, 60, 0, 4215.385, 4266.667, 4038.462, 4237.436, 4187.179, 0, 0, []
1631429140.2591, 61, 0, 4214.359, 4276.923, 4074.872, 4235.385, 4191.282, 0, 0, []
1631429140.267, 62, 0, 4210.769, 4285.641, 4054.872, 4226.667, 4183.59, 0, 0, []
1631429140.2748, 63, 0, 4211.795, 4286.154, 4049.744, 4220.513, 4176.41, 0, 0, []
1631429140.2826, 64, 0, 4218.974, 4285.641, 4073.846, 4229.744, 4193.333, 450, 0, []
1631429140.2905, 65, 0, 4215.897, 4280.513, 4033.846, 4228.718, 4197.949, 450, 0, []
1631429140.2983, 66, 0, 4208.205, 4273.846, 4062.564, 4219.487, 4180, 16195, 0, []
1631429140.3062, 67, 0, 4220, 4289.231, 4061.538, 4232.821, 4189.231, 450, 0, []
1631429140.3139, 68, 0, 4230.769, 4303.59, 4045.641, 4241.026, 4203.077, 16152, 0, []
1631429140.3218, 69, 0, 4217.949, 4287.692, 4053.846, 4222.564, 4186.667, 450, 0, []
1631429140.3296, 70, 0, 4210.256, 4281.538, 4030.256, 4216.923, 4184.103, 113, 0, []
1631429140.3375, 71, 0, 4214.359, 4297.949, 4068.718, 4226.154, 4196.923, 450, 0, []
1631429140.3453, 72, 0, 4215.897, 4287.179, 4044.103, 4218.974, 4195.897, 450, 0, []
1631429140.3533, 73, 0, 4226.667, 4274.872, 4023.077, 4210.256, 4193.846, 16154, 0, []
1631429140.3611, 74, 0, 4242.564, 4300.513, 4073.846, 4225.641, 4198.974, 450, 0, []
1631429140.3691, 75, 0, 4250.256, 4316.923, 4049.231, 4240.513, 4206.667, 16201, 0, []
1631429140.377, 76, 0, 4257.949, 4310.769, 4065.641, 4236.923, 4215.385, 450, 0, []
1631429140.385, 77, 0, 4258.974, 4311.282, 4064.103, 4233.846, 4222.564, 450, 0, []
1631429140.3929, 78, 0, 4249.744, 4308.718, 4053.333, 4242.051, 4228.205, 450, 0, []
1631429140.4008, 79, 0, 4247.179, 4306.667, 4094.872, 4237.436, 4227.179, 16201, 0, []
1631429140.4087, 80, 0, 4252.821, 4311.282, 4058.974, 4224.615, 4210.256, 450, 0, []
1631429140.4165, 81, 0, 4250.769, 4305.128, 4074.359, 4233.333, 4196.923, 450, 0, []
1631429140.4244, 82, 0, 4240, 4295.385, 4083.59, 4237.436, 4192.821, 450, 0, []
1631429140.4324, 83, 0, 4236.41, 4298.462, 4053.333, 4218.974, 4192.821, 16201, 0, []
1631429140.4402, 84, 0, 4243.59, 4303.077, 4084.103, 4216.923, 4203.59, 450, 0, []
1631429140.448, 85, 0, 4254.872, 4298.462, 4062.564, 4236.923, 4220, 450, 0, []
1631429140.4559, 86, 0, 4251.795, 4287.179, 4073.846, 4235.897, 4216.923, 450, 0, []
1631429140.4638, 87, 0, 4236.923, 4276.41, 4073.846, 4212.308, 4191.795, 16201, 0, []
1631429140.4717, 88, 0, 4237.949, 4273.846, 4043.077, 4207.179, 4182.051, 450, 0, []
1631429140.4795, 89, 0, 4246.667, 4272.821, 4093.846, 4219.487, 4198.462, 450, 0, []
1631429140.4874, 90, 0, 4238.974, 4268.205, 4073.333, 4216.923, 4206.667, 450, 0, []
1631429140.4953, 91, 0, 4226.667, 4270.769, 4065.641, 4209.231, 4201.026, 16201, 0, []
1631429140.5033, 92, 0, 4233.846, 4281.026, 4081.026, 4212.308, 4199.487, 450, 0, []
1631429140.5112, 93, 0, 4244.103, 4281.026, 4052.821, 4215.385, 4192.821, 450, 0, []
1631429140.5192, 94, 0, 4236.41, 4280.513, 4090.769, 4217.436, 4181.026, 450, 0, []
1631429140.527, 95, 0, 4223.077, 4296.41, 4073.333, 4218.462, 4184.103, 16201, 0, []
1631429140.535, 96, 0, 4214.872, 4297.949, 4061.026, 4211.795, 4186.154, 450, 0, []
1631429140.5429, 97, 0, 4212.821, 4268.205, 4077.949, 4206.154, 4178.462, 450, 0, []
1631429140.5509, 98, 0, 4218.462, 4248.205, 4051.795, 4211.795, 4186.154, 450, 0, []
1631429140.5588, 99, 0, 4232.308, 4252.821, 4086.154, 4222.051, 4200, 16201, 0, []
1631429140.5665, 100, 0, 4237.436, 4243.077, 4069.231, 4213.846, 4191.795, 450, 0, []
1631429140.5744, 101, 0, 4221.538, 4224.615, 4061.026, 4193.846, 4174.872, 450, 0, []
1631429140.5822, 102, 0, 4210.256, 4230.769, 4093.846, 4183.077, 4177.949, 450, 0, []
1631429140.5901, 103, 0, 4213.333, 4248.718, 4065.641, 4183.59, 4188.718, 16201, 0, []
1631429140.5979, 104, 0, 4215.897, 4256.41, 4098.462, 4189.744, 4182.564, 450, 0, []
1631429140.6058, 105, 0, 4217.436, 4260, 4089.231, 4197.949, 4170.769, 450, 0, []
1631429140.6135, 106, 0, 4215.385, 4261.538, 4063.59, 4203.077, 4166.154, 450, 0, []
1631429140.6214, 107, 0, 4207.692, 4248.718, 4085.641, 4202.051, 4166.154, 16201, 0, []
1631429140.6292, 108, 0, 4201.026, 4230.769, 4045.641, 4196.41, 4169.744, 450, 0, []
1631429140.6371, 109, 0, 4198.974, 4220.513, 4066.154, 4190.256, 4168.718, 450, 0, []
1631429140.6449, 110, 0, 4198.974, 4227.179, 4071.795, 4181.538, 4155.897, 450, 0, []
1631429140.6527, 111, 0, 4197.949, 4247.179, 4063.077, 4172.308, 4147.179, 16201, 0, []
1631429140.6605, 112, 0, 4201.538, 4251.795, 4100, 4170.769, 4162.564, 450, 0, []
1631429140.6685, 113, 0, 4208.718, 4234.872, 4055.897, 4173.846, 4179.487, 450, 0, []
1631429140.6764, 114, 0, 4210.256, 4233.846, 4068.718, 4178.462, 4173.846, 450, 0, []
1631429140.6844, 115, 0, 4211.795, 4251.282, 4088.718, 4193.333, 4162.564, 16201, 0, []
1631429140.6922, 116, 0, 4215.897, 4246.667, 4072.821, 4203.59, 4158.974, 450, 0, []
1631429140.7002, 117, 0, 4203.077, 4224.615, 4088.718, 4187.692, 4148.718, 450, 0, []
1631429140.7081, 118, 0, 4180.513, 4223.077, 4038.974, 4165.128, 4135.385, 450, 0, []
1631429140.7161, 119, 0, 4182.564, 4239.487, 4052.308, 4167.179, 4139.487, 16201, 0, []
1631429140.724, 120, 0, 4207.179, 4250.256, 4080, 4187.179, 4152.821, 450, 0, []
1631429140.7318, 121, 0, 4220, 4255.897, 4059.487, 4196.923, 4165.641, 450, 0, []
1631429140.7396, 122, 0, 4217.949, 4262.051, 4092.308, 4189.744, 4174.872, 450, 0, []
1631429140.7474, 123, 0, 4215.897, 4261.026, 4059.487, 4181.026, 4175.897, 16201, 0, []
1631429140.7553, 124, 0, 4212.308, 4255.897, 4057.436, 4178.462, 4167.692, 450, 0, []
1631429140.7631, 125, 0, 4209.744, 4265.128, 4086.154, 4178.462, 4164.615, 450, 0, []
1631429140.771, 126, 0, 4218.462, 4268.205, 4066.154, 4178.462, 4171.795, 450, 0, []
1631429140.7787, 127, 0, 4220.513, 4257.949, 4089.231, 4179.487, 4176.923, 16201, 0, []
1631429140.7866, 128, 0, 4215.897, 4272.821, 4057.949, 4178.974, 4181.538, 450, 0, []
1631429140.7944, 0, 0, 4224.615, 4301.026, 4059.487, 4185.641, 4190.769, 450, 0, []
1631429140.8024, 1, 0, 4225.641, 4301.538, 4086.154, 4188.205, 4184.103, 450, 0, []
1631429140.8103, 2, 0, 4207.692, 4289.744, 4041.538, 4174.359, 4155.897, 16203, 0, []
1631429140.8182, 3, 0, 4195.897, 4293.846, 4072.308, 4169.231, 4138.462, 450, 0, []
1631429140.8261, 4, 0, 4200.513, 4301.538, 4075.385, 4173.846, 4153.846, 16152, 0, []
1631429140.8341, 5, 0, 4208.718, 4301.026, 4073.333, 4172.821, 4175.385, 450, 0, []
1631429140.842, 6, 0, 4215.385, 4306.154, 4103.59, 4180.513, 4180, 117, 0, []
1631429140.85, 7, 0, 4218.462, 4317.949, 4076.41, 4196.923, 4177.949, 450, 0, []
1631429140.8579, 8, 0, 4216.41, 4319.487, 4095.897, 4197.436, 4173.333, 450, 0, []
1631429140.8658, 9, 0, 4215.897, 4313.846, 4071.795, 4184.615, 4169.231, 16158, 0, []
1631429140.8737, 10, 0, 4214.359, 4317.949, 4053.333, 4184.615, 4176.41, 450, 0, []
1631429140.8815, 11, 0, 4215.385, 4318.974, 4091.795, 4187.692, 4184.615, 16205, 0, []
1631429140.8894, 12, 0, 4224.103, 4311.795, 4056.41, 4182.564, 4187.692, 450, 0, []
1631429140.8972, 13, 0, 4231.282, 4315.897, 4069.231, 4184.103, 4188.205, 450, 0, []
1631429140.905, 14, 0, 4235.897, 4330.256, 4075.385, 4192.308, 4187.179, 450, 0, []
1631429140.9128, 15, 0, 4241.026, 4332.821, 4071.282, 4198.974, 4190.769, 16205, 0, []
1631429140.9207, 16, 0, 4242.051, 4326.667, 4106.667, 4200.513, 4202.564, 0, 0, []
1631429140.9285, 17, 0, 4232.308, 4329.231, 4064.615, 4193.846, 4201.538, 0, 0, []
1631429140.9364, 18, 0, 4216.41, 4346.667, 4077.436, 4187.179, 4183.077, 0, 0, []
1631429140.9442, 19, 0, 4216.923, 4367.692, 4095.385, 4189.231, 4176.41, 0, 0, []
1631429140.9521, 20, 0, 4236.41, 4363.59, 4082.051, 4190.769, 4181.538, 0, 0, []
1631429140.96, 21, 0, 4242.051, 4355.897, 4111.282, 4187.179, 4186.667, 0, 0, []
1631429140.968, 22, 0, 4232.308, 4377.949, 4069.231, 4188.205, 4199.487, 0, 0, []
1631429140.9759, 23, 0, 4233.846, 4389.231, 4078.974, 4191.282, 4207.179, 0, 0, []
1631429140.9839, 24, 0, 4238.974, 4376.41, 4097.949, 4188.718, 4196.923, 0, 0, []
1631429140.9917, 25, 0, 4229.744, 4374.359, 4067.179, 4183.077, 4181.538, 0, 0, []
1631429140.9997, 26, 0, 4232.821, 4381.538, 4104.103, 4185.128, 4177.949, 0, 0, []
1631429141.0076, 27, 0, 4243.59, 4384.103, 4080, 4189.744, 4195.897, 0, 0, []
1631429141.0156, 28, 0, 4235.897, 4396.923, 4073.846, 4189.744, 4211.795, 0, 0, []
1631429141.0235, 29, 0, 4233.333, 4423.59, 4104.103, 4190.769, 4211.282, 0, 0, []
1631429141.0313, 30, 0, 4254.872, 4448.718, 4095.385, 4204.615, 4225.128, 0, 0, []
1631429141.0392, 31, 0, 4275.897, 4470.769, 4121.538, 4222.051, 4245.128, 0, 0, []
1631429141.047, 32, 0, 4269.231, 4480.513, 4083.077, 4218.462, 4235.897, 0, 0, []
1631429141.0549, 33, 0, 4251.282, 4481.538, 4086.154, 4208.718, 4212.308, 0, 0, []
1631429141.0627, 34, 0, 4246.154, 4483.077, 4127.179, 4207.179, 4201.026, 0, 0, []
1631429141.0706, 35, 0, 4245.641, 4478.974, 4085.128, 4191.282, 4198.462, 0, 0, []
1631429141.0783, 36, 0, 4247.179, 4482.564, 4094.872, 4177.949, 4207.692, 0, 0, []
1631429141.0862, 37, 0, 4251.282, 4506.154, 4083.077, 4183.077, 4225.128, 0, 0, []
1631429141.094, 38, 0, 4250.769, 4509.744, 4070.256, 4189.231, 4228.205, 0, 0, []
1631429141.102, 39, 0, 4256.41, 4481.026, 4073.333, 4197.949, 4226.667, 0, 0, []
1631429141.1099, 40, 0, 4272.308, 4474.872, 4032.308, 4209.744, 4234.359, 0, 0, []
1631429141.1177, 41, 0, 4276.41, 4495.385, 4073.846, 4211.282, 4235.897, 0, 0, []
1631429141.1255, 42, 0, 4271.282, 4490.769, 4070.769, 4205.128, 4231.282, 0, 0, []
1631429141.1335, 43, 0, 4275.385, 4484.615, 4058.974, 4201.026, 4229.744, 0, 0, []
1631429141.1414, 44, 0, 4278.974, 4511.282, 4104.615, 4199.487, 4228.718, 0, 0, []
1631429141.1494, 45, 0, 4281.026, 4527.692, 4072.821, 4204.103, 4229.231, 0, 0, []
1631429141.1572, 46, 0, 4282.564, 4524.615, 4081.026, 4204.615, 4231.282, 0, 0, []
1631429141.1652, 47, 0, 4271.282, 4536.923, 4068.718, 4187.179, 4222.051, 0, 0, []
1631429141.1731, 48, 0, 4256.923, 4544.103, 4046.154, 4180, 4213.333, 0, 0, []
1631429141.1811, 49, 0, 4263.077, 4529.231, 4086.154, 4188.718, 4224.615, 0, 0, []
1631429141.189, 50, 0, 4279.487, 4512.821, 4058.974, 4186.667, 4237.949, 0, 0, []
1631429141.1968, 51, 0, 4280.513, 4480.513, 4073.333, 4184.615, 4230.769, 0, 0, []
1631429141.2046, 52, 0, 4282.564, 4463.077, 4079.487, 4191.795, 4223.59, 0, 0, []
1631429141.2124, 53, 0, 4305.128, 4502.564, 4060.513, 4194.872, 4233.846, 0, 0, []
1631429141.2203, 54, 0, 4317.436, 4526.154, 4102.564, 4187.692, 4239.487, 0, 0, []
1631429141.2281, 55, 0, 4305.641, 4490.256, 4067.692, 4175.897, 4234.872, 0, 0, []
1631429141.236, 56, 0, 4292.308, 4456.41, 4063.077, 4168.718, 4229.231, 0, 0, []
1631429141.2437, 57, 0, 4287.692, 4464.103, 4077.436, 4166.154, 4228.205, 0, 0, []
1631429141.2516, 58, 0, 4306.154, 4494.872, 4064.103, 4178.974, 4250.256, 0, 0, []
1631429141.2594, 59, 0, 4309.744, 4512.308, 4095.385, 4183.59, 4260, 0, 0, []
1631429141.2674, 60, 0, 4270.256, 4483.59, 4048.205, 4152.308, 4224.103, 0, 0, []
1631429141.2753, 61, 0, 4258.974, 4449.744, 4048.205, 4151.795, 4211.282, 0, 0, []
1631429141.2832, 62, 0, 4290.256, 4458.462, 4089.231, 4197.949, 4242.564, 0, 0, []
1631429141.2911, 63, 0, 4280, 4468.205, 4061.026, 4202.564, 4230.769, 0, 0, []
1631429141.2991, 64, 0, 4238.462, 4449.231, 4078.974, 4159.487, 4182.564, 450, 0, []
1631429141.307, 65, 0, 4225.128, 4440, 4063.59, 4144.615, 4176.923, 450, 0, []
1631429141.315, 66, 0, 4220, 4468.718, 4070.256, 4157.949, 4186.154, 16194, 0, []
1631429141.3229, 67, 0, 4216.41, 4486.667, 4092.821, 4167.692, 4175.897, 450, 0, []
1631429141.3308, 68, 0, 4216.923, 4447.179, 4054.872, 4169.744, 4161.538, 16162, 0, []
1631429141.3387, 69, 0, 4202.051, 4395.897, 4085.128, 4154.872, 4142.564, 450, 0, []
1631429141.3465, 70, 0, 4187.179, 4369.744, 4069.744, 4145.128, 4133.846, 113, 0, []
1631429141.3544, 71, 0, 4186.154, 4334.359, 4044.615, 4150.769, 4143.59, 450, 0, []
1631429141.3622, 72, 0, 4184.103, 4302.051, 4063.59, 4148.718, 4142.051, 450, 0, []
1631429141.37, 73, 0, 4181.026, 4315.385, 4039.487, 4142.051, 4127.179, 16150, 0, []
1631429141.3778, 74, 0, 4193.333, 4359.487, 4082.051, 4152.308, 4133.333, 450, 0, []
1631429141.3857, 75, 0, 4196.41, 4380, 4077.436, 4156.41, 4141.026, 16202, 0, []
1631429141.3935, 76, 0, 4186.154, 4350.256, 4048.718, 4142.051, 4137.436, 450, 0, []
1631429141.4014, 77, 0, 4191.282, 4348.205, 4077.949, 4142.564, 4144.103, 450, 0, []
1631429141.4091, 78, 0, 4198.462, 4407.692, 4057.949, 4151.795, 4143.59, 450, 0, []
1631429141.4171, 79, 0, 4204.615, 4423.59, 4087.692, 4156.41, 4143.077, 16202, 0, []
1631429141.425, 80, 0, 4227.692, 4364.615, 4088.205, 4159.487, 4164.615, 450, 0, []
1631429141.433, 81, 0, 4242.051, 4330.769, 4072.821, 4165.128, 4186.667, 450, 0, []
1631429141.4409, 82, 0, 4237.436, 4338.974, 4106.667, 4175.897, 4194.359, 450, 0, []
1631429141.4489, 83, 0, 4250.256, 4333.846, 4063.077, 4178.974, 4200.513, 16202, 0, []
1631429141.4567, 84, 0, 4255.897, 4346.667, 4075.897, 4174.872, 4194.872, 450, 0, []
1631429141.4646, 85, 0, 4237.949, 4395.897, 4091.795, 4178.974, 4177.436, 450, 0, []
1631429141.4725, 86, 0, 4233.333, 4428.205, 4065.641, 4176.41, 4173.333, 450, 0, []
1631429141.4805, 87, 0, 4221.538, 4405.641, 4084.103, 4148.718, 4165.128, 16202, 0, []
1631429141.4884, 88, 0, 4185.128, 4350.769, 4046.667, 4122.564, 4142.051, 450, 0, []
1631429141.4961, 89, 0, 4173.846, 4326.154, 4056.923, 4126.667, 4135.385, 450, 0, []
1631429141.504, 90, 0, 4188.718, 4325.128, 4065.128, 4142.564, 4139.487, 450, 0, []
1631429141.5118, 91, 0, 4180.513, 4306.154, 4035.385, 4147.692, 4128.205, 16202, 0, []
1631429141.5197, 92, 0, 4164.615, 4287.692, 4086.154, 4138.462, 4120.513, 450, 0, []
1631429141.5275, 93, 0, 4176.41, 4280.513, 4067.692, 4134.359, 4136.41, 450, 0, []
1631429141.5353, 94, 0, 4192.308, 4261.538, 4057.436, 4147.179, 4151.795, 450, 0, []
1631429141.5431, 95, 0, 4194.872, 4252.308, 4074.872, 4162.564, 4145.128, 16202, 0, []
1631429141.551, 96, 0, 4202.051, 4255.385, 4052.821, 4162.564, 4142.564, 450, 0, []
1631429141.5588, 97, 0, 4206.667, 4235.897, 4091.795, 4150.256, 4151.282, 450, 0, []
1631429141.5667, 98, 0, 4210.256, 4228.205, 4082.051, 4154.359, 4167.692, 450, 0, []
1631429141.5745, 99, 0, 4230.769, 4231.282, 4083.59, 4178.974, 4187.179, 16202, 0, []
1631429141.5824, 100, 0, 4236.41, 4213.846, 4100.513, 4175.897, 4184.615, 450, 0, []
1631429141.5903, 101, 0, 4220.513, 4215.385, 4060.513, 4147.179, 4163.59, 450, 0, []
1631429141.5983, 102, 0, 4213.846, 4244.615, 4088.205, 4143.077, 4154.359, 450, 0, []
1631429141.6062, 103, 0, 4220, 4266.667, 4073.846, 4151.795, 4166.667, 16202, 0, []
1631429141.6142, 104, 0, 4221.538, 4288.718, 4064.103, 4150.256, 4176.923, 450, 0, []
1631429141.622, 105, 0, 4229.231, 4301.538, 4087.179, 4156.923, 4182.051, 450, 0, []
1631429141.63, 106, 0, 4241.026, 4284.615, 4049.231, 4170.769, 4190.769, 450, 0, []
1631429141.6379, 107, 0, 4238.462, 4281.026, 4082.051, 4175.385, 4190.769, 16202, 0, []
1631429141.6459, 108, 0, 4234.872, 4302.564, 4088.718, 4170.769, 4178.974, 450, 0, []
1631429141.6538, 109, 0, 4231.795, 4298.974, 4073.333, 4155.385, 4170.256, 450, 0, []
1631429141.6617, 110, 0, 4218.462, 4277.436, 4088.718, 4143.077, 4167.179, 450, 0, []
1631429141.6695, 111, 0, 4202.051, 4289.231, 4041.538, 4146.154, 4158.974, 16202, 0, []
1631429141.6773, 112, 0, 4198.462, 4331.795, 4056.923, 4147.179, 4149.744, 450, 0, []
1631429141.6852, 113, 0, 4205.128, 4350.769, 4060, 4145.641, 4151.795, 450, 0, []
1631429141.693, 114, 0, 4205.128, 4383.077, 4046.154, 4151.282, 4153.846, 450, 0, []
1631429141.7009, 115, 0, 4195.385, 4509.231, 4087.179, 4151.282, 4150.769, 16202, 0, []
1631429141.7086, 116, 0, 4186.667, 4628.205, 4066.154, 4146.667, 4155.385, 450, 0, []
1631429141.7165, 117, 0, 4183.077, 4590.256, 4080, 4148.205, 4151.282, 450, 0, []
1631429141.7243, 118, 0, 4184.103, 4524.615, 4077.436, 4148.205, 4135.897, 450, 0, []
1631429141.7323, 119, 0, 4188.205, 4552.821, 4050.256, 4134.359, 4133.846, 16202, 0, []
1631429141.7402, 120, 0, 4179.487, 4578.462, 4081.538, 4116.923, 4128.718, 450, 0, []
1631429141.7481, 121, 0, 4168.718, 4583.077, 4045.128, 4116.41, 4119.487, 450, 0, []
1631429141.756, 122, 0, 4177.436, 4609.231, 4056.923, 4138.462, 4130.256, 450, 0, []
1631429141.764, 123, 0, 4188.205, 4619.487, 4075.897, 4151.795, 4141.538, 16202, 0, []
1631429141.7719, 124, 0, 4197.949, 4605.128, 4048.205, 4147.179, 4144.103, 450, 0, []
1631429141.7799, 125, 0, 4224.103, 4620, 4096.923, 4164.103, 4172.821, 450, 0, []
1631429141.7878, 126, 0, 4232.308, 4625.128, 4072.821, 4181.026, 4191.282, 450, 0, []
1631429141.7957, 127, 0, 4208.205, 4572.308, 4054.872, 4169.744, 4168.205, 16202, 0, []
1631429141.8036, 128, 0, 4216.923, 4510.256, 4088.718, 4171.795, 4171.282, 450, 0, []
1631429141.8115, 0, 0, 4237.949, 4466.154, 4068.718, 4182.051, 4188.718, 450, 0, []
1631429141.8194, 1, 0, 4220.513, 4460.513, 4082.051, 4164.103, 4170.256, 450, 0, []
1631429141.8272, 2, 0, 4214.359, 4486.667, 4066.667, 4145.641, 4164.103, 16195, 0, []
1631429141.835, 3, 0, 4234.872, 4475.897, 4077.436, 4157.949, 4186.154, 450, 0, []
1631429141.8428, 4, 0, 4234.872, 4401.026, 4090.256, 4166.154, 4190.256, 16165, 0, []
1631429141.8507, 5, 0, 4225.128, 4343.077, 4037.949, 4160, 4182.051, 450, 0, []
1631429141.8585, 6, 0, 4230.769, 4343.077, 4064.615, 4169.231, 4184.103, 117, 0, []
1631429141.8664, 7, 0, 4239.487, 4342.051, 4057.436, 4175.385, 4183.077, 450, 0, []
1631429141.8741, 8, 0, 4236.923, 4327.179, 4054.359, 4163.59, 4180, 450, 0, []
1631429141.8821, 9, 0, 4214.872, 4305.128, 4080, 4153.333, 4170.769, 16182, 0, []
1631429141.89, 10, 0, 4201.538, 4276.923, 4043.59, 4160, 4166.667, 450, 0, []
1631429141.898, 11, 0, 4211.282, 4277.436, 4081.538, 4169.231, 4172.821, 16204, 0, []
1631429141.9059, 12, 0, 4207.692, 4316.41, 4075.385, 4153.846, 4157.436, 450, 0, []
1631429141.9139, 13, 0, 4186.667, 4347.179, 4045.641, 4134.359, 4131.282, 450, 0, []
1631429141.9217, 14, 0, 4177.949, 4340, 4082.051, 4144.615, 4134.359, 450, 0, []
1631429141.9297, 15, 0, 4194.359, 4343.077, 4066.154, 4168.718, 4160.513, 16204, 0, []
1631429141.9376, 16, 0, 4216.923, 4380.513, 4089.744, 4177.949, 4170.256, 0, 0, []
1631429141.9456, 17, 0, 4221.538, 4401.538, 4084.615, 4169.231, 4154.872, 0, 0, []
1631429141.9535, 18, 0, 4196.923, 4380, 4054.872, 4149.231, 4137.436, 0, 0, []
1631429141.9612, 19, 0, 4177.436, 4353.846, 4078.974, 4131.795, 4137.949, 0, 0, []
1631429141.9691, 20, 0, 4196.923, 4357.949, 4049.744, 4137.436, 4155.897, 0, 0, []
1631429141.9769, 21, 0, 4215.385, 4357.436, 4069.231, 4157.436, 4161.026, 0, 0, []
1631429141.9848, 22, 0, 4207.692, 4332.308, 4069.744, 4158.974, 4148.718, 0, 0, []
1631429141.9926, 23, 0, 4206.667, 4340, 4044.103, 4154.872, 4155.897, 0, 0, []
1631429142.0004, 24, 0, 4218.974, 4378.462, 4093.333, 4162.564, 4175.385, 0, 0, []
1631429142.0082, 25, 0, 4208.718, 4368.718, 4067.179, 4157.949, 4165.128, 0, 0, []
1631429142.0161, 26, 0, 4192.821, 4406.154, 4057.949, 4144.103, 4142.051, 0, 0, []
1631429142.0239, 27, 0, 4198.974, 4563.59, 4063.59, 4146.154, 4136.923, 0, 0, []
1631429142.0318, 28, 0, 4204.103, 4671.282, 4043.59, 4145.641, 4136.923, 0, 0, []
1631429142.0396, 29, 0, 4193.846, 4679.487, 4090.256, 4133.333, 4143.077, 0, 0, []
1631429142.0475, 30, 0, 4185.128, 4690.769, 4070.256, 4143.59, 4155.897, 0, 0, []
1631429142.0554, 31, 0, 4191.282, 4668.205, 4070.769, 4172.308, 4158.974, 0, 0, []
1631429142.0634, 32, 0, 4204.103, 4604.615, 4090.256, 4175.385, 4149.744, 0, 0, []
1631429142.0713, 33, 0, 4200.513, 4654.359, 4046.667, 4156.923, 4141.026, 0, 0, []
1631429142.0793, 34, 0, 4187.692, 4821.538, 4064.103, 4149.231, 4140.513, 0, 0, []
1631429142.0871, 35, 0, 4181.538, 4922.564, 4051.795, 4149.744, 4140, 0, 0, []
1631429142.0951, 36, 0, 4177.436, 4883.59, 4061.026, 4150.769, 4128.718, 0, 0, []
1631429142.103, 37, 0, 4181.538, 4784.103, 4088.205, 4159.487, 4120, 0, 0, []
1631429142.1109, 38, 0, 4187.692, 4701.538, 4052.821, 4166.154, 4123.59, 0, 0, []
1631429142.1188, 39, 0, 4184.103, 4652.821, 4076.923, 4159.487, 4126.667, 0, 0, []
1631429142.1266, 40, 0, 4184.103, 4657.949, 4056.41, 4153.333, 4132.308, 0, 0, []
1631429142.1345, 41, 0, 4191.282, 4711.282, 4045.128, 4169.744, 4147.179, 0, 0, []
1631429142.1423, 42, 0, 4188.718, 4739.487, 4078.974, 4177.949, 4140, 0, 0, []
1631429142.1502, 43, 0, 4183.59, 4727.692, 4043.59, 4155.385, 4117.949, 0, 0, []
1631429142.158, 44, 0, 4184.615, 4742.051, 4070.256, 4143.077, 4116.41, 0, 0, []
1631429142.1659, 45, 0, 4175.385, 4808.205, 4068.718, 4149.231, 4125.641, 0, 0, []
1631429142.1736, 46, 0, 4164.615, 4831.795, 4044.615, 4152.821, 4121.026, 0, 0, []
1631429142.1815, 47, 0, 4177.436, 4798.462, 4069.744, 4165.641, 4126.667, 0, 0, []
1631429142.1893, 48, 0, 4192.308, 4811.795, 4035.385, 4171.795, 4138.462, 0, 0, []
1631429142.1972, 49, 0, 4188.205, 4918.462, 4059.487, 4157.436, 4125.128, 0, 0, []
1631429142.205, 50, 0, 4195.385, 5082.564, 4073.333, 4160.513, 4123.077, 0, 0, []
1631429142.2129, 51, 0, 4214.359, 5141.538, 4057.949, 4170.256, 4148.718, 0, 0, []
1631429142.2208, 52, 0, 4209.231, 5010.256, 4089.231, 4165.641, 4159.487, 0, 0, []
1631429142.2288, 53, 0, 4197.949, 4883.077, 4058.462, 4173.846, 4154.872, 0, 0, []
1631429142.2367, 54, 0, 4198.462, 4870.769, 4069.744, 4181.538, 4150.769, 0, 0, []
1631429142.2447, 55, 0, 4191.282, 4886.667, 4068.205, 4157.436, 4138.462, 0, 0, []
1631429142.2525, 56, 0, 4189.231, 4960.513, 4052.308, 4141.026, 4132.308, 0, 0, []
1631429142.2605, 57, 0, 4204.615, 5129.231, 4100, 4153.846, 4144.103, 0, 0, []
1631429142.2684, 58, 0, 4201.538, 5202.051, 4056.41, 4146.154, 4143.077, 0, 0, []
1631429142.2764, 59, 0, 4181.538, 5052.821, 4052.308, 4130.769, 4129.744, 0, 0, []
1631429142.2843, 60, 0, 4185.128, 4867.692, 4083.59, 4143.077, 4134.872, 0, 0, []
1631429142.2921, 61, 0, 4202.051, 4896.41, 4073.333, 4155.385, 4151.795, 0, 0, []
1631429142.2999, 62, 0, 4202.051, 5045.128, 4103.59, 4151.795, 4148.718, 0, 0, []
1631429142.3077, 63, 0, 4194.359, 5074.872, 4071.795, 4150.256, 4132.308, 0, 0, []
1631429142.3156, 64, 0, 4178.974, 5041.538, 4070.769, 4143.59, 4121.538, 450, 0, []
1631429142.3234, 65, 0, 4155.385, 5072.308, 4085.641, 4126.667, 4111.795, 450, 0, []
1631429142.3313, 66, 0, 4148.205, 5074.872, 4043.59, 4128.718, 4112.821, 16189, 0, []
1631429142.339, 67, 0, 4162.051, 5018.974, 4072.308, 4143.59, 4117.436, 450, 0, []
1631429142.3469, 68, 0, 4169.744, 4983.59, 4064.103, 4140.513, 4112.308, 16158, 0, []
1631429142.3547, 69, 0, 4169.231, 4929.744, 4075.385, 4131.795, 4108.718, 450, 0, []
1631429142.3627, 70, 0, 4178.462, 4819.487, 4108.718, 4137.949, 4123.59, 118, 0, []
1631429142.3706, 71, 0, 4189.231, 4730.256, 4068.718, 4149.231, 4138.974, 450, 0, []
1631429142.3785, 72, 0, 4186.667, 4746.154, 4089.231, 4151.282, 4140.513, 450, 0, []
1631429142.3864, 73, 0, 4184.615, 4827.179, 4077.949, 4144.103, 4133.333, 16152, 0, []
1631429142.3944, 74, 0, 4185.641, 4880.513, 4064.615, 4132.308, 4117.949, 450, 0, []
1631429142.4023, 75, 0, 4177.436, 4882.564, 4089.744, 4125.641, 4110.769, 16209, 0, []
1631429142.4103, 76, 0, 4169.231, 4838.462, 4062.051, 4130.769, 4121.026, 450, 0, []
1631429142.4182, 77, 0, 4176.41, 4761.538, 4095.385, 4142.051, 4133.333, 450, 0, []
1631429142.4259, 78, 0, 4189.231, 4678.974, 4081.538, 4146.154, 4136.41, 450, 0, []
1631429142.4338, 79, 0, 4191.282, 4632.308, 4049.231, 4141.026, 4130.256, 16209, 0, []
1631429142.4416, 80, 0, 4175.897, 4613.846, 4080, 4125.128, 4113.846, 450, 0, []
1631429142.4495, 81, 0, 4158.462, 4561.538, 4054.359, 4112.308, 4104.615, 450, 0, []
1631429142.4573, 82, 0, 4155.897, 4525.128, 4077.436, 4122.051, 4113.846, 450, 0, []
1631429142.4651, 83, 0, 4173.846, 4624.103, 4077.949, 4133.846, 4118.974, 16209, 0, []
1631429142.4731, 84, 0, 4189.231, 4746.154, 4058.462, 4128.718, 4119.487, 450, 0, []
1631429142.481, 85, 0, 4177.436, 4724.615, 4093.333, 4125.641, 4123.077, 450, 0, []
1631429142.4888, 86, 0, 4163.077, 4708.205, 4057.436, 4132.308, 4122.564, 450, 0, []
1631429142.4967, 87, 0, 4174.872, 4824.103, 4070.256, 4143.077, 4124.103, 16209, 0, []
1631429142.5045, 88, 0, 4192.308, 4957.436, 4081.026, 4151.795, 4136.41, 450, 0, []
1631429142.5124, 89, 0, 4189.231, 5028.718, 4057.949, 4152.308, 4141.026, 450, 0, []
1631429142.5203, 90, 0, 4185.128, 5010.256, 4090.769, 4145.128, 4135.385, 450, 0, []
1631429142.5283, 91, 0, 4189.231, 4954.872, 4057.436, 4136.41, 4137.436, 16209, 0, []
1631429142.5362, 92, 0, 4179.487, 4976.923, 4061.538, 4128.205, 4132.821, 450, 0, []
1631429142.5442, 93, 0, 4167.179, 4983.077, 4082.564, 4125.128, 4121.538, 450, 0, []
1631429142.552, 94, 0, 4169.744, 4825.128, 4056.41, 4133.333, 4120.513, 450, 0, []
1631429142.56, 95, 0, 4173.846, 4701.026, 4084.615, 4138.974, 4117.949, 16209, 0, []
1631429142.5679, 96, 0, 4167.179, 4741.026, 4062.051, 4131.282, 4111.282, 450, 0, []
1631429142.5759, 97, 0, 4165.128, 4720, 4068.718, 4131.282, 4119.487, 450, 0, []
1631429142.5838, 98, 0, 4166.667, 4599.487, 4087.179, 4139.487, 4121.538, 450, 0, []
1631429142.5915, 99, 0, 4155.385, 4525.641, 4057.436, 4134.872, 4105.641, 16209, 0, []
1631429142.5994, 100, 0, 4153.846, 4483.59, 4095.897, 4123.077, 4103.077, 450, 0, []
1631429142.6072, 101, 0, 4170.256, 4444.615, 4079.487, 4118.974, 4120.513, 450, 0, []
1631429142.6151, 102, 0, 4167.179, 4403.59, 4072.308, 4122.051, 4125.128, 450, 0, []
1631429142.6229, 103, 0, 4149.231, 4378.462, 4094.872, 4125.641, 4105.641, 16209, 0, []
1631429142.6308, 104, 0, 4160.513, 4532.308, 4063.077, 4132.308, 4096.41, 450, 0, []
1631429142.6385, 105, 0, 4182.051, 4841.538, 4103.59, 4146.154, 4111.282, 450, 0, []
1631429142.6464, 106, 0, 4175.897, 4934.359, 4092.821, 4150.769, 4125.641, 450, 0, []
1631429142.6542, 107, 0, 4165.641, 4747.179, 4068.205, 4146.667, 4127.692, 16209, 0, []
1631429142.6622, 108, 0, 4175.385, 4596.923, 4090.769, 4146.667, 4120.513, 450, 0, []
1631429142.6701, 109, 0, 4187.179, 4538.462, 4057.949, 4142.051, 4115.897, 450, 0, []
1631429142.678, 110, 0, 4183.077, 4447.179, 4084.615, 4127.692, 4118.974, 450, 0, []
1631429142.6859, 111, 0, 4172.821, 4408.205, 4081.026, 4126.154, 4121.026, 16209, 0, []
1631429142.6939, 112, 0, 4173.333, 4485.641, 4067.179, 4143.077, 4120, 450, 0, []
1631429142.7018, 113, 0, 4185.128, 4510.256, 4098.974, 4151.795, 4119.487, 450, 0, []
1631429142.7098, 114, 0, 4191.795, 4417.949, 4064.103, 4143.59, 4117.949, 450, 0, []
1631429142.7176, 115, 0, 4181.538, 4374.359, 4086.667, 4141.026, 4116.41, 16209, 0, []
1631429142.7256, 116, 0, 4163.59, 4426.154, 4090.769, 4138.462, 4115.385, 450, 0, []
1631429142.7335, 117, 0, 4149.744, 4466.667, 4071.795, 4123.59, 4100.513, 450, 0, []
1631429142.7413, 118, 0, 4149.231, 4436.923, 4107.692, 4119.487, 4081.026, 450, 0, []
1631429142.7492, 119, 0, 4162.051, 4439.487, 4072.308, 4131.282, 4089.744, 16209, 0, []
1631429142.757, 120, 0, 4168.205, 4514.872, 4086.154, 4139.487, 4115.385, 450, 0, []
1631429142.7648, 121, 0, 4166.667, 4527.692, 4100, 4146.667, 4126.667, 450, 0, []
1631429142.7726, 122, 0, 4172.821, 4423.077, 4074.359, 4156.923, 4118.462, 450, 0, []
1631429142.7805, 123, 0, 4183.077, 4352.308, 4106.667, 4150.256, 4110.256, 16209, 0, []
1631429142.7883, 124, 0, 4181.026, 4467.692, 4072.308, 4130.769, 4116.923, 450, 0, []
1631429142.7962, 125, 0, 4177.949, 4659.487, 4071.282, 4131.282, 4131.282, 450, 0, []
1631429142.8039, 126, 0, 4191.795, 4797.436, 4092.308, 4148.718, 4140.513, 450, 0, []
1631429142.8118, 127, 0, 4202.051, 4909.744, 4074.359, 4148.718, 4138.462, 16209, 0, []
1631429142.8196, 128, 0, 4200, 5003.077, 4109.231, 4141.026, 4134.872, 450, 0, []
1631429142.8276, 0, 0, 4202.051, 4928.205, 4089.231, 4146.154, 4140.513, 450, 0, []
1631429142.8355, 1, 0, 4199.487, 4768.718, 4089.744, 4146.154, 4144.615, 450, 0, []
1631429142.8434, 2, 0, 4186.667, 4822.051, 4099.487, 4134.359, 4137.949, 16190, 0, []
1631429142.8513, 3, 0, 4180, 4980.513, 4069.744, 4134.872, 4138.462, 450, 0, []
1631429142.8593, 4, 0, 4189.744, 5018.462, 4105.641, 4149.231, 4142.051, 16162, 0, []
1631429142.8672, 5, 0, 4184.615, 4948.205, 4074.872, 4150.769, 4123.59, 450, 0, []
1631429142.8752, 6, 0, 4169.231, 4878.462, 4069.744, 4143.59, 4106.667, 104, 0, []
1631429142.8831, 7, 0, 4177.436, 4886.667, 4109.744, 4145.128, 4118.974, 450, 0, []
1631429142.891, 8, 0, 4185.128, 4913.333, 4081.026, 4145.641, 4128.205, 450, 0, []
1631429142.8989, 9, 0, 4172.821, 4841.026, 4111.282, 4145.641, 4123.59, 16148, 0, []
1631429142.9067, 10, 0, 4176.923, 4705.128, 4097.949, 4155.385, 4134.359, 450, 0, []
1631429142.9146, 11, 0, 4200, 4620.513, 4083.59, 4168.205, 4146.154, 16203, 0, []
1631429142.9224, 12, 0, 4204.103, 4591.795, 4115.897, 4161.026, 4138.462, 450, 0, []
1631429142.9302, 13, 0, 4198.974, 4671.795, 4081.026, 4143.59, 4136.41, 450, 0, []
1631429142.938, 14, 0, 4201.026, 4903.59, 4102.564, 4151.282, 4145.128, 450, 0, []
1631429142.9459, 15, 0, 4201.538, 5061.538, 4099.487, 4164.615, 4151.282, 16203, 0, []
1631429142.9537, 16, 0, 4213.846, 4964.615, 4086.667, 4162.564, 4158.462, 0, 0, []
1631429142.9616, 17, 0, 4227.692, 4813.846, 4115.897, 4155.897, 4160.513, 0, 0, []
1631429142.9693, 18, 0, 4226.154, 4781.026, 4078.974, 4145.641, 4154.359, 0, 0, []
1631429142.9773, 19, 0, 4215.385, 4746.154, 4094.359, 4130.769, 4153.333, 0, 0, []
1631429142.9852, 20, 0, 4204.103, 4693.846, 4084.103, 4115.897, 4152.308, 0, 0, []
1631429142.9932, 21, 0, 4206.667, 4734.359, 4056.41, 4116.923, 4157.949, 0, 0, []
1631429143.0011, 22, 0, 4227.692, 4803.077, 4097.949, 4137.436, 4177.436, 0, 0, []
1631429143.0091, 23, 0, 4239.487, 4823.59, 4071.795, 4147.179, 4186.667, 0, 0, []
1631429143.0169, 24, 0, 4224.103, 4805.641, 4083.59, 4136.923, 4165.641, 0, 0, []
1631429143.0249, 25, 0, 4213.846, 4749.231, 4093.333, 4134.872, 4148.205, 0, 0, []
1631429143.0328, 26, 0, 4222.051, 4728.205, 4069.231, 4135.897, 4152.308, 0, 0, []
1631429143.0408, 27, 0, 4216.923, 4757.949, 4100, 4121.538, 4153.846, 0, 0, []
1631429143.0487, 28, 0, 4202.051, 4742.564, 4069.231, 4125.128, 4152.308, 0, 0, []
1631429143.0564, 29, 0, 4202.051, 4731.795, 4079.487, 4143.59, 4155.385, 0, 0, []
1631429143.0643, 30, 0, 4204.103, 4867.692, 4101.026, 4138.974, 4152.821, 0, 0, []
1631429143.0721, 31, 0, 4198.974, 5100.513, 4073.846, 4133.333, 4142.564, 0, 0, []
1631429143.08, 32, 0, 4197.949, 5132.821, 4107.179, 4148.718, 4135.385, 0, 0, []
1631429143.0878, 33, 0, 4192.821, 4851.795, 4090.256, 4148.205, 4136.41, 0, 0, []
1631429143.0956, 34, 0, 4183.59, 4577.949, 4095.897, 4135.385, 4140, 0, 0, []
1631429143.1034, 35, 0, 4183.077, 4539.487, 4102.564, 4141.026, 4138.974, 0, 0, []
1631429143.1114, 36, 0, 4184.103, 4542.051, 4062.564, 4149.231, 4132.821, 0, 0, []
1631429143.1193, 37, 0, 4187.692, 4486.154, 4107.692, 4143.59, 4130.256, 0, 0, []
1631429143.1273, 38, 0, 4202.051, 4557.949, 4103.59, 4136.923, 4140, 0, 0, []
1631429143.1352, 39, 0, 4204.103, 4720.513, 4093.846, 4135.897, 4145.128, 0, 0, []
1631429143.1431, 40, 0, 4198.462, 4762.051, 4101.538, 4142.051, 4143.077, 0, 0, []
1631429143.151, 41, 0, 4209.744, 4702.051, 4067.179, 4145.641, 4149.231, 0, 0, []
1631429143.159, 42, 0, 4220.513, 4675.897, 4107.179, 4143.077, 4156.41, 0, 0, []
1631429143.1669, 43, 0, 4221.538, 4686.154, 4081.538, 4142.051, 4159.487, 0, 0, []
1631429143.1749, 44, 0, 4223.59, 4663.59, 4051.282, 4146.154, 4163.59, 0, 0, []
1631429143.1827, 45, 0, 4214.872, 4641.538, 4090.256, 4140.513, 4162.564, 0, 0, []
1631429143.1907, 46, 0, 4196.923, 4688.718, 4071.282, 4130.769, 4151.795, 0, 0, []
1631429143.1986, 47, 0, 4195.897, 4731.282, 4094.872, 4132.821, 4146.667, 0, 0, []
1631429143.2064, 48, 0, 4204.103, 4777.436, 4084.103, 4139.487, 4149.231, 0, 0, []
1631429143.2143, 49, 0, 4188.718, 4937.436, 4064.103, 4134.359, 4138.462, 0, 0, []
1631429143.222, 50, 0, 4180.513, 5041.026, 4101.538, 4132.308, 4129.231, 0, 0, []
1631429143.2299, 51, 0, 4194.872, 4933.846, 4071.795, 4138.974, 4144.103, 0, 0, []
1631429143.2377, 52, 0, 4189.744, 4803.59, 4082.564, 4139.487, 4154.359, 0, 0, []
1631429143.2456, 53, 0, 4166.667, 4791.795, 4081.026, 4127.692, 4137.949, 0, 0, []
1631429143.2534, 54, 0, 4169.231, 4841.538, 4057.949, 4118.462, 4128.718, 0, 0, []
1631429143.2613, 55, 0, 4189.744, 4887.692, 4081.026, 4123.077, 4134.359, 0, 0, []
1631429143.269, 56, 0, 4199.487, 4877.949, 4049.744, 4132.821, 4135.385, 0, 0, []
1631429143.2769, 57, 0, 4203.077, 4835.385, 4078.462, 4128.205, 4139.487, 0, 0, []
1631429143.2847, 58, 0, 4204.615, 4840.513, 4093.846, 4120, 4153.333, 0, 0, []
1631429143.2927, 59, 0, 4208.718, 4868.718, 4073.846, 4140.513, 4167.179, 0, 0, []
1631429143.3006, 60, 0, 4221.026, 4883.077, 4111.282, 4163.59, 4174.872, 0, 0, []
1631429143.3085, 61, 0, 4233.333, 4889.231, 4067.692, 4148.718, 4173.846, 0, 0, []
1631429143.3164, 62, 0, 4229.231, 4886.154, 4071.282, 4135.385, 4169.231, 0, 0, []
1631429143.3244, 63, 0, 4215.385, 4872.821, 4103.077, 4145.128, 4164.103, 0, 0, []
1631429143.3323, 64, 0, 4222.051, 4849.231, 4086.154, 4157.949, 4164.103, 450, 0, []
1631429143.3403, 65, 0, 4232.308, 4834.872, 4117.949, 4161.538, 4169.231, 450, 0, []
1631429143.3482, 66, 0, 4220, 4828.718, 4084.615, 4147.179, 4171.282, 16194, 0, []
1631429143.3561, 67, 0, 4202.051, 4802.051, 4076.41, 4133.333, 4167.179, 450, 0, []
1631429143.364, 68, 0, 4200, 4806.154, 4095.897, 4137.436, 4163.077, 16152, 0, []
1631429143.3718, 69, 0, 4201.026, 4855.897, 4060, 4141.538, 4156.41, 450, 0, []
1631429143.3797, 70, 0, 4199.487, 4868.718, 4083.077, 4136.923, 4146.667, 110, 0, []
1631429143.3875, 71, 0, 4202.564, 4893.333, 4073.333, 4137.949, 4149.744, 450, 0, []
1631429143.3953, 72, 0, 4202.564, 4963.077, 4073.846, 4134.359, 4153.846, 450, 0, []
1631429143.4031, 73, 0, 4195.897, 5031.795, 4080, 4116.41, 4151.282, 16151, 0, []
1631429143.411, 74, 0, 4197.436, 5089.744, 4040.513, 4112.308, 4157.436, 450, 0, []
1631429143.4188, 75, 0, 4211.795, 5168.718, 4085.641, 4131.282, 4169.231, 16194, 0, []
1631429143.4267, 76, 0, 4216.923, 5249.744, 4083.59, 4140.513, 4167.179, 450, 0, []
1631429143.4344, 77, 0, 4213.333, 5245.128, 4080, 4137.949, 4162.051, 450, 0, []
1631429143.4424, 78, 0, 4220.513, 5148.718, 4110.769, 4148.205, 4170.256, 450, 0, []
1631429143.4503, 79, 0, 4219.487, 5062.051, 4058.974, 4147.179, 4175.897, 16194, 0, []
1631429143.4582, 80, 0, 4202.564, 5027.692, 4079.487, 4129.744, 4170.769, 450, 0, []
1631429143.4661, 81, 0, 4196.41, 5004.103, 4083.077, 4129.231, 4169.231, 450, 0, []
1631429143.474, 82, 0, 4202.051, 4955.385, 4056.41, 4137.436, 4170.256, 450, 0, []
1631429143.4819, 83, 0, 4200.513, 4894.872, 4078.462, 4132.821, 4166.667, 16194, 0, []
1631429143.4899, 84, 0, 4193.846, 4982.051, 4054.359, 4126.667, 4156.923, 450, 0, []
1631429143.4978, 85, 0, 4185.128, 5222.051, 4084.615, 4125.128, 4140.513, 450, 0, []
1631429143.5058, 86, 0, 4173.846, 5297.949, 4087.179, 4115.897, 4133.333, 450, 0, []
1631429143.5137, 87, 0, 4168.718, 5212.821, 4061.538, 4120.513, 4144.103, 16194, 0, []
1631429143.5214, 88, 0, 4169.231, 5246.154, 4087.692, 4141.026, 4147.692, 450, 0, []
1631429143.5293, 89, 0, 4176.41, 5353.333, 4055.897, 4150.256, 4138.974, 450, 0, []
1631429143.5371, 90, 0, 4191.282, 5404.103, 4083.59, 4153.846, 4142.564, 450, 0, []
1631429143.545, 91, 0, 4203.59, 5436.923, 4097.436, 4157.436, 4152.308, 16194, 0, []
1631429143.5528, 92, 0, 4203.077, 5420, 4055.897, 4148.718, 4155.385, 450, 0, []
1631429143.5606, 93, 0, 4196.923, 5371.795, 4073.846, 4134.872, 4158.974, 450, 0, []
1631429143.5684, 94, 0, 4212.308, 5389.744, 4051.795, 4140.513, 4177.949, 450, 0, []
1631429143.5763, 95, 0, 4232.821, 5377.949, 4077.436, 4158.974, 4200.513, 16194, 0, []
1631429143.5841, 96, 0, 4226.154, 5318.462, 4094.872, 4163.59, 4202.051, 450, 0, []
1631429143.5921, 97, 0, 4215.897, 5401.538, 4057.949, 4165.641, 4190.769, 450, 0, []
1631429143.6, 98, 0, 4218.462, 5551.795, 4092.821, 4176.923, 4182.051, 450, 0, []
1631429143.6079, 99, 0, 4209.744, 5660.513, 4071.282, 4171.282, 4173.333, 16194, 0, []
1631429143.6158, 100, 0, 4198.462, 5998.974, 4073.333, 4154.872, 4161.026, 450, 0, []
1631429143.6238, 101, 0, 4215.897, 6463.59, 4099.487, 4164.103, 4165.128, 450, 0, []
1631429143.6317, 102, 0, 4230.769, 6698.462, 4063.077, 4176.923, 4173.846, 450, 0, []
1631429143.6397, 103, 0, 4220, 6694.359, 4078.974, 4171.795, 4163.077, 16194, 0, []
1631429143.6475, 104, 0, 4210.256, 6412.308, 4059.487, 4166.667, 4157.949, 450, 0, []
1631429143.6555, 105, 0, 4215.897, 6247.692, 4068.718, 4164.103, 4167.692, 450, 0, []
1631429143.6634, 106, 0, 4228.205, 6554.359, 4098.974, 4155.897, 4173.846, 450, 0, []
1631429143.6714, 107, 0, 4227.692, 6777.436, 4062.564, 4152.308, 4170.256, 16194, 0, []
1631429143.6793, 108, 0, 4214.359, 6702.051, 4095.385, 4155.897, 4158.462, 450, 0, []
1631429143.687, 109, 0, 4216.41, 6772.821, 4090.256, 4157.949, 4153.846, 450, 0, []
1631429143.6949, 110, 0, 4225.641, 6864.615, 4073.333, 4158.462, 4161.026, 450, 0, []
1631429143.7027, 111, 0, 4212.308, 6895.385, 4086.154, 4154.872, 4158.462, 16194, 0, []
1631429143.7106, 112, 0, 4204.615, 7182.051, 4047.692, 4150.769, 4150.256, 450, 0, []
1631429143.7184, 113, 0, 4215.385, 7151.795, 4071.795, 4156.41, 4155.897, 450, 0, []
1631429143.7263, 114, 0, 4203.59, 6782.564, 4057.949, 4154.359, 4149.744, 450, 0, []
1631429143.734, 115, 0, 4182.051, 6962.564, 4042.051, 4138.462, 4130.769, 16194, 0, []
1631429143.7419, 116, 0, 4190.256, 7358.974, 4083.077, 4134.872, 4133.846, 450, 0, []
1631429143.7497, 117, 0, 4219.487, 7397.949, 4055.897, 4155.385, 4158.462, 450, 0, []
1631429143.7577, 118, 0, 4237.949, 7457.436, 4078.462, 4169.744, 4175.897, 450, 0, []
1631429143.7656, 119, 0, 4236.923, 7485.641, 4076.41, 4160, 4172.308, 16194, 0, []
1631429143.7735, 120, 0, 4227.179, 7129.744, 4050.256, 4152.821, 4160, 450, 0, []
1631429143.7814, 121, 0, 4225.641, 7080, 4092.821, 4162.051, 4158.462, 450, 0, []
1631429143.7894, 122, 0, 4221.538, 7365.641, 4063.59, 4153.333, 4155.897, 450, 0, []
1631429143.7973, 123, 0, 4200.513, 7195.897, 4057.436, 4126.667, 4134.872, 16194, 0, []
1631429143.8053, 124, 0, 4188.718, 6955.385, 4060.513, 4123.077, 4123.077, 450, 0, []
1631429143.8131, 125, 0, 4185.128, 6979.487, 4040.513, 4122.051, 4125.641, 450, 0, []
1631429143.8211, 126, 0, 4179.487, 6949.744, 4068.718, 4106.154, 4118.462, 450, 0, []
1631429143.829, 127, 0, 4192.308, 6836.923, 4050.769, 4114.359, 4125.128, 16194, 0, []
1631429143.8368, 128, 0, 4214.872, 6761.538, 4076.923, 4144.615, 4148.718, 450, 0, []
1631429143.8447, 0, 0, 4222.564, 6702.564, 4090.256, 4152.821, 4160.513, 450, 0, []
1631429143.8525, 1, 0, 4221.538, 6726.667, 4051.795, 4153.846, 4155.897, 450, 0, []
1631429143.8603, 2, 0, 4217.436, 6568.205, 4088.205, 4162.564, 4153.333, 16158, 0, []
1631429143.8681, 3, 0, 4205.641, 6277.949, 4060.513, 4142.051, 4157.436, 450, 0, []
1631429143.876, 4, 0, 4196.923, 6668.718, 4047.179, 4114.872, 4153.333, 16127, 0, []
1631429143.8838, 5, 0, 4198.974, 7284.615, 4069.231, 4127.692, 4147.692, 450, 0, []
1631429143.8917, 6, 0, 4212.821, 7301.026, 4058.974, 4154.359, 4162.051, 133, 0, []
1631429143.8994, 7, 0, 4218.462, 7284.615, 4093.333, 4151.282, 4167.179, 450, 0, []
1631429143.9074, 8, 0, 4202.564, 7587.179, 4049.231, 4131.282, 4143.077, 450, 0, []
1631429143.9153, 9, 0, 4193.846, 7642.564, 4034.359, 4137.436, 4134.872, 16079, 0, []
1631429143.9233, 10, 0, 4201.026, 7459.487, 4070.769, 4154.872, 4142.564, 450, 0, []
1631429143.9312, 11, 0, 4204.615, 7549.231, 4044.615, 4150.769, 4137.436, 16165, 0, []
1631429143.9391, 12, 0, 4209.231, 7416.41, 4081.026, 4154.359, 4143.59, 450, 0, []
1631429143.947, 13, 0, 4219.487, 6962.051, 4070.769, 4168.205, 4155.385, 450, 0, []
1631429143.955, 14, 0, 4222.051, 7011.282, 4053.333, 4160, 4146.667, 450, 0, []
1631429143.9629, 15, 0, 4230.769, 7389.231, 4087.692, 4148.718, 4147.179, 16165, 0, []
1631429143.9709, 16, 0, 4246.154, 7328.205, 4056.923, 4155.897, 4165.128, 0, 0, []
1631429143.9788, 17, 0, 4236.41, 6926.667, 4069.744, 4147.179, 4158.462, 0, 0, []
1631429143.9867, 18, 0, 4212.821, 6820, 4062.051, 4130.256, 4136.41, 0, 0, []
1631429143.9946, 19, 0, 4215.385, 7137.949, 4063.59, 4138.462, 4141.026, 0, 0, []
1631429144.0024, 20, 0, 4228.718, 7467.692, 4103.59, 4153.333, 4157.436, 0, 0, []
1631429144.0103, 21, 0, 4223.59, 7358.974, 4054.872, 4157.949, 4158.462, 0, 0, []
1631429144.0181, 22, 0, 4218.462, 7170.769, 4066.667, 4169.231, 4158.462, 0, 0, []
1631429144.0259, 23, 0, 4231.282, 7491.282, 4078.462, 4180.513, 4170.769, 0, 0, []
1631429144.0337, 24, 0, 4235.385, 7837.436, 4058.974, 4175.897, 4173.333, 0, 0, []
1631429144.0416, 25, 0, 4228.205, 7800, 4087.692, 4170.256, 4167.179, 0, 0, []
1631429144.0494, 26, 0, 4227.692, 7747.692, 4060.513, 4166.154, 4169.231, 0, 0, []
1631429144.0573, 27, 0, 4235.385, 7795.385, 4082.564, 4160.513, 4175.385, 0, 0, []
1631429144.065, 28, 0, 4242.051, 7793.333, 4093.846, 4161.538, 4171.282, 0, 0, []
1631429144.0729, 29, 0, 4230.256, 7771.795, 4062.051, 4160.513, 4155.897, 0, 0, []
1631429144.0807, 30, 0, 4211.795, 7771.795, 4086.667, 4150.769, 4143.077, 0, 0, []
1631429144.0887, 31, 0, 4222.051, 7770.769, 4055.385, 4148.205, 4152.308, 0, 0, []
1631429144.0966, 32, 0, 4246.154, 7771.282, 4070.256, 4166.154, 4175.897, 0, 0, []
1631429144.1046, 33, 0, 4239.487, 7771.282, 4091.282, 4176.41, 4179.487, 0, 0, []
1631429144.1124, 34, 0, 4227.179, 7771.795, 4058.462, 4162.564, 4169.744, 0, 0, []
1631429144.1204, 35, 0, 4243.077, 7771.282, 4085.128, 4154.359, 4175.385, 0, 0, []
1631429144.1283, 36, 0, 4247.692, 7771.795, 4062.564, 4163.59, 4175.385, 0, 0, []
1631429144.1363, 37, 0, 4230.256, 7771.795, 4066.667, 4168.718, 4153.846, 0, 0, []
1631429144.1442, 38, 0, 4235.385, 7771.795, 4089.744, 4163.59, 4153.333, 0, 0, []
1631429144.1519, 39, 0, 4250.256, 7771.795, 4065.128, 4163.59, 4177.436, 0, 0, []
1631429144.1598, 40, 0, 4240, 7771.795, 4095.897, 4162.564, 4172.308, 0, 0, []
1631429144.1676, 41, 0, 4226.154, 7771.795, 4071.795, 4150.769, 4151.795, 0, 0, []
1631429144.1755, 42, 0, 4231.282, 7771.795, 4075.385, 4141.026, 4157.949, 0, 0, []
1631429144.1833, 43, 0, 4237.949, 7771.795, 4106.667, 4145.641, 4167.179, 0, 0, []
1631429144.1911, 44, 0, 4242.051, 7773.846, 4062.564, 4156.41, 4160, 0, 0, []
1631429144.1989, 45, 0, 4235.385, 7777.436, 4084.615, 4155.385, 4147.179, 0, 0, []
1631429144.2068, 46, 0, 4221.026, 7770.769, 4075.385, 4137.436, 4136.41, 0, 0, []
1631429144.2146, 47, 0, 4218.974, 7768.718, 4064.615, 4139.487, 4137.436, 0, 0, []
1631429144.2226, 48, 0, 4235.385, 7782.564, 4094.872, 4173.333, 4157.949, 0, 0, []
1631429144.2305, 49, 0, 4253.333, 7746.154, 4059.487, 4182.564, 4176.41, 0, 0, []
1631429144.2384, 50, 0, 4248.205, 7673.333, 4076.923, 4158.462, 4165.641, 0, 0, []
1631429144.2463, 51, 0, 4231.282, 7661.538, 4069.231, 4147.179, 4153.846, 0, 0, []
1631429144.2543, 52, 0, 4230.769, 7728.205, 4055.897, 4152.821, 4153.333, 0, 0, []
1631429144.2622, 53, 0, 4231.282, 7734.359, 4088.718, 4145.641, 4141.026, 0, 0, []
1631429144.2702, 54, 0, 4222.051, 7631.282, 4049.231, 4132.821, 4122.564, 0, 0, []
1631429144.278, 55, 0, 4213.846, 7596.41, 4063.59, 4136.923, 4113.846, 0, 0, []
1631429144.286, 56, 0, 4210.256, 7638.462, 4066.154, 4144.103, 4110.256, 0, 0, []
1631429144.2939, 57, 0, 4206.667, 7637.949, 4050.769, 4137.436, 4111.282, 0, 0, []
1631429144.3019, 58, 0, 4212.308, 7678.974, 4089.744, 4129.231, 4120, 0, 0, []
1631429144.3098, 59, 0, 4229.231, 7778.462, 4057.949, 4130.769, 4131.795, 0, 0, []
1631429144.3175, 60, 0, 4235.897, 7787.179, 4071.795, 4136.923, 4141.026, 0, 0, []
1631429144.3254, 61, 0, 4223.59, 7784.103, 4083.59, 4140.513, 4142.564, 0, 0, []
1631429144.3332, 62, 0, 4216.41, 7765.641, 4055.897, 4136.41, 4136.923, 0, 0, []
1631429144.3411, 63, 0, 4227.179, 7594.872, 4082.564, 4133.333, 4141.026, 0, 0, []
1631429144.3489, 64, 0, 4228.718, 7516.923, 4051.282, 4135.897, 4148.718, 450, 0, []
1631429144.3568, 65, 0, 4214.359, 7618.974, 4064.615, 4132.821, 4142.051, 450, 0, []
1631429144.3645, 66, 0, 4211.282, 7620, 4091.282, 4128.718, 4134.359, 16157, 0, []
1631429144.3725, 67, 0, 4217.949, 7521.538, 4066.154, 4136.41, 4137.436, 450, 0, []
1631429144.3804, 68, 0, 4218.974, 7541.026, 4089.744, 4143.59, 4140, 16084, 0, []
1631429144.3884, 69, 0, 4216.923, 7522.051, 4062.564, 4141.026, 4132.308, 450, 0, []
1631429144.3963, 70, 0, 4223.077, 7216.41, 4077.949, 4141.026, 4133.333, 124, 0, []
1631429144.4042, 71, 0, 4228.718, 6936.923, 4110.769, 4142.051, 4139.487, 450, 0, []
1631429144.4121, 72, 0, 4217.949, 6939.487, 4076.923, 4138.462, 4130.769, 450, 0, []
1631429144.4201, 73, 0, 4211.282, 7015.897, 4109.744, 4140.513, 4124.103, 16095, 0, []
1631429144.428, 74, 0, 4228.205, 6957.949, 4105.641, 4142.564, 4136.923, 450, 0, []
1631429144.436, 75, 0, 4237.436, 6832.821, 4107.179, 4143.59, 4152.308, 16232, 0, []
1631429144.4439, 76, 0, 4223.59, 6765.641, 4127.692, 4144.615, 4144.103, 450, 0, []
1631429144.4517, 77, 0, 4211.282, 6756.41, 4088.718, 4127.692, 4125.128, 450, 0, []
1631429144.4596, 78, 0, 4213.846, 6621.026, 4120, 4113.333, 4124.103, 450, 0, []
1631429144.4675, 79, 0, 4221.026, 6355.385, 4114.359, 4123.59, 4133.846, 16232, 0, []
1631429144.4753, 80, 0, 4217.436, 6344.103, 4101.538, 4137.436, 4131.795, 450, 0, []
1631429144.4831, 81, 0, 4213.333, 6485.128, 4127.692, 4142.051, 4127.692, 450, 0, []
1631429144.4909, 82, 0, 4228.205, 6353.333, 4094.872, 4147.179, 4144.103, 450, 0, []
1631429144.4987, 83, 0, 4241.538, 6144.103, 4115.897, 4152.308, 4155.385, 16232, 0, []
1631429144.5066, 84, 0, 4238.462, 6175.897, 4106.667, 4150.769, 4152.821, 450, 0, []
1631429144.5144, 85, 0, 4241.538, 6191.282, 4093.333, 4152.308, 4158.462, 450, 0, []
1631429144.5223, 86, 0, 4251.282, 6066.667, 4123.59, 4153.846, 4167.692, 450, 0, []
1631429144.53, 87, 0, 4249.231, 6149.231, 4084.103, 4151.282, 4173.846, 16232, 0, []
1631429144.5379, 88, 0, 4247.179, 6352.308, 4114.872, 4154.872, 4171.282, 450, 0, []
1631429144.5457, 89, 0, 4248.718, 6308.205, 4146.154, 4159.487, 4165.128, 450, 0, []
1631429144.5537, 90, 0, 4233.846, 6108.205, 4141.538, 4153.333, 4161.026, 450, 0, []
1631429144.5616, 91, 0, 4212.821, 6093.846, 4165.128, 4140, 4149.231, 16232, 0, []
1631429144.5696, 92, 0, 4217.949, 6228.718, 4122.051, 4140.513, 4142.051, 450, 0, []
1631429144.5774, 93, 0, 4241.538, 6312.821, 4140, 4163.077, 4158.462, 450, 0, []
1631429144.5854, 94, 0, 4251.282, 6332.308, 4158.462, 4182.051, 4176.41, 450, 0, []
1631429144.5933, 95, 0, 4250.769, 6293.333, 4137.949, 4183.077, 4174.359, 16232, 0, []
1631429144.6013, 96, 0, 4252.821, 6295.897, 4168.718, 4174.872, 4167.692, 450, 0, []
1631429144.6092, 97, 0, 4252.821, 6370.769, 4134.872, 4164.615, 4171.282, 450, 0, []
1631429144.6169, 98, 0, 4247.179, 6443.59, 4144.615, 4156.923, 4170.769, 450, 0, []
1631429144.6248, 99, 0, 4243.59, 6418.462, 4163.077, 4149.744, 4157.436, 16232, 0, []
1631429144.6326, 100, 0, 4242.051, 6353.846, 4128.718, 4143.077, 4145.128, 450, 0, []
1631429144.6405, 101, 0, 4245.128, 6388.205, 4160, 4149.744, 4153.333, 450, 0, []
1631429144.6483, 102, 0, 4258.462, 6424.615, 4140.513, 4159.487, 4170.256, 450, 0, []
1631429144.6561, 103, 0, 4267.179, 6414.872, 4142.564, 4149.231, 4168.205, 16232, 0, []
1631429144.6639, 104, 0, 4261.538, 6402.051, 4161.538, 4144.103, 4157.949, 450, 0, []
1631429144.6718, 105, 0, 4250.769, 6361.026, 4124.615, 4152.821, 4156.923, 450, 0, []
1631429144.6796, 106, 0, 4245.128, 6272.308, 4151.282, 4151.795, 4154.359, 450, 0, []
1631429144.6876, 107, 0, 4245.641, 6191.282, 4136.923, 4143.59, 4150.256, 16232, 0, []
1631429144.6955, 108, 0, 4244.615, 6148.718, 4135.385, 4144.615, 4150.256, 450, 0, []
1631429144.7034, 109, 0, 4244.615, 6106.667, 4157.436, 4147.179, 4151.795, 450, 0, []
1631429144.7113, 110, 0, 4248.205, 5965.641, 4118.974, 4141.538, 4153.333, 450, 0, []
1631429144.7193, 111, 0, 4249.231, 5664.103, 4149.231, 4145.641, 4152.308, 16232, 0, []
1631429144.7272, 112, 0, 4241.026, 5430.256, 4140, 4151.282, 4145.641, 450, 0, []
1631429144.7352, 113, 0, 4230.256, 5447.692, 4122.051, 4142.564, 4138.974, 450, 0, []
1631429144.743, 114, 0, 4228.718, 5580, 4150.769, 4132.821, 4133.846, 450, 0, []
1631429144.751, 115, 0, 4232.308, 5709.231, 4123.59, 4135.385, 4132.308, 16232, 0, []
1631429144.7589, 116, 0, 4239.487, 5795.897, 4148.205, 4142.051, 4145.128, 450, 0, []
1631429144.7667, 117, 0, 4247.179, 5740, 4134.359, 4143.59, 4153.846, 450, 0, []
1631429144.7746, 118, 0, 4248.205, 5781.538, 4117.436, 4147.692, 4144.103, 450, 0, []
1631429144.7823, 119, 0, 4241.538, 6024.103, 4155.897, 4149.231, 4131.795, 16232, 0, []
1631429144.7902, 120, 0, 4241.538, 6055.897, 4111.795, 4145.128, 4136.923, 450, 0, []
1631429144.798, 121, 0, 4249.231, 5932.308, 4122.564, 4148.205, 4149.231, 450, 0, []
1631429144.8059, 122, 0, 4251.282, 5901.538, 4132.821, 4149.744, 4146.667, 450, 0, []
1631429144.8137, 123, 0, 4244.615, 5745.128, 4111.282, 4145.641, 4134.872, 16232, 0, []
1631429144.8216, 124, 0, 4244.103, 5541.538, 4142.564, 4152.308, 4134.359, 450, 0, []
1631429144.8293, 125, 0, 4247.692, 5636.41, 4119.487, 4154.872, 4138.974, 450, 0, []
1631429144.8373, 126, 0, 4237.949, 5772.821, 4135.897, 4139.487, 4127.179, 450, 0, []
1631429144.8452, 127, 0, 4231.282, 5795.897, 4138.462, 4135.897, 4117.436, 16232, 0, []
1631429144.8532, 128, 0, 4229.744, 5692.308, 4103.077, 4148.718, 4121.026, 450, 0, []
1631429144.8611, 0, 0, 4217.436, 5263.077, 4125.128, 4145.641, 4118.974, 450, 0, []
1631429144.869, 1, 0, 4209.744, 5065.641, 4109.231, 4134.872, 4118.974, 450, 0, []
1631429144.8769, 2, 0, 4213.333, 5285.128, 4135.385, 4142.051, 4125.128, 16152, 0, []
1631429144.8849, 3, 0, 4218.462, 5260.513, 4140, 4142.564, 4126.667, 450, 0, []
1631429144.8928, 4, 0, 4227.179, 5152.308, 4104.615, 4134.872, 4131.795, 231, 0, []
1631429144.9008, 5, 0, 4229.744, 5405.128, 4148.718, 4136.923, 4134.872, 450, 0, []
1631429144.9086, 6, 0, 4220.513, 5566.667, 4120, 4137.949, 4122.051, 135, 0, []
1631429144.9164, 7, 0, 4217.949, 5447.692, 4110.256, 4137.949, 4114.359, 450, 0, []
1631429144.9243, 8, 0, 4214.359, 5414.359, 4132.308, 4137.949, 4113.846, 450, 0, []
1631429144.9321, 9, 0, 4207.692, 5253.333, 4103.59, 4129.231, 4111.282, 16148, 0, []
1631429144.94, 10, 0, 4209.231, 4813.846, 4134.872, 4129.231, 4114.359, 450, 0, []
1631429144.9478, 11, 0, 4217.949, 4594.359, 4114.359, 4145.128, 4124.615, 16262, 0, []
1631429144.9556, 12, 0, 4224.615, 4863.59, 4103.077, 4152.821, 4127.692, 450, 0, []
1631429144.9634, 13, 0, 4223.59, 5211.795, 4126.667, 4150.769, 4121.026, 450, 0, []
1631429144.9713, 14, 0, 4217.949, 5260.513, 4091.795, 4143.59, 4113.333, 450, 0, []
1631429144.9791, 15, 0, 4223.59, 5186.667, 4127.692, 4138.462, 4116.41, 16262, 0, []
1631429144.987, 16, 0, 4243.59, 5247.179, 4131.795, 4141.538, 4136.41, 0, 0, []
1631429144.9947, 17, 0, 4249.744, 5327.179, 4116.41, 4141.538, 4151.282, 0, 0, []
1631429145.0027, 18, 0, 4247.179, 5111.282, 4131.795, 4133.333, 4151.282, 0, 0, []
1631429145.0106, 19, 0, 4251.282, 4716.41, 4101.538, 4135.897, 4154.872, 0, 0, []
1631429145.0186, 20, 0, 4244.615, 4567.692, 4129.744, 4144.103, 4152.308, 0, 0, []
1631429145.0265, 21, 0, 4229.744, 4541.026, 4118.974, 4137.436, 4139.487, 0, 0, []
1631429145.0344, 22, 0, 4237.436, 4384.615, 4104.103, 4138.974, 4143.077, 0, 0, []
1631429145.0423, 23, 0, 4248.205, 4362.051, 4138.462, 4141.026, 4150.769, 0, 0, []
1631429145.0503, 24, 0, 4232.308, 4349.231, 4102.051, 4123.077, 4138.974, 0, 0, []
1631429145.0582, 25, 0, 4226.154, 4156.923, 4124.615, 4121.026, 4139.487, 0, 0, []
1631429145.0662, 26, 0, 4246.667, 4175.897, 4131.282, 4133.846, 4156.41, 0, 0, []
1631429145.0741, 27, 0, 4253.333, 4429.231, 4104.103, 4132.308, 4152.308, 0, 0, []
1631429145.0818, 28, 0, 4249.744, 4546.667, 4134.872, 4136.41, 4144.103, 0, 0, []
1631429145.0897, 29, 0, 4254.359, 4569.231, 4107.692, 4151.282, 4156.923, 0, 0, []
1631429145.0975, 30, 0, 4236.923, 4542.051, 4108.718, 4135.385, 4146.667, 0, 0, []
1631429145.1054, 31, 0, 4210.769, 4424.103, 4102.564, 4116.41, 4120.513, 0, 0, []
1631429145.1132, 32, 0, 4224.103, 4391.282, 4081.026, 4140, 4136.41, 0, 0, []
1631429145.121, 33, 0, 4251.795, 4221.538, 4127.179, 4163.59, 4160, 0, 0, []
1631429145.1288, 34, 0, 4245.641, 3834.872, 4103.59, 4155.385, 4144.615, 0, 0, []
1631429145.1367, 35, 0, 4232.821, 3770.256, 4108.205, 4148.718, 4132.308, 0, 0, []
1631429145.1445, 36, 0, 4233.333, 4010.256, 4121.026, 4152.308, 4151.282, 0, 0, []
1631429145.1525, 37, 0, 4223.59, 4049.231, 4089.231, 4145.641, 4153.333, 0, 0, []
1631429145.1603, 38, 0, 4215.385, 3932.821, 4121.026, 4138.974, 4134.359, 0, 0, []
1631429145.1683, 39, 0, 4232.821, 3964.103, 4100.513, 4147.179, 4135.897, 0, 0, []
1631429145.1762, 40, 0, 4250.769, 4074.872, 4106.154, 4153.333, 4149.231, 0, 0, []
1631429145.1842, 41, 0, 4247.692, 4113.846, 4128.205, 4148.718, 4153.333, 0, 0, []
1631429145.1921, 42, 0, 4236.923, 4073.846, 4091.795, 4144.103, 4148.718, 0, 0, []
1631429145.2001, 43, 0, 4230.769, 3992.308, 4122.051, 4149.231, 4141.026, 0, 0, []
1631429145.2079, 44, 0, 4228.205, 3882.564, 4105.641, 4150.769, 4134.872, 0, 0, []
1631429145.2159, 45, 0, 4235.897, 3831.282, 4095.385, 4148.718, 4140, 0, 0, []
1631429145.2238, 46, 0, 4251.282, 3897.436, 4113.846, 4150.769, 4152.308, 0, 0, []
1631429145.2316, 47, 0, 4255.385, 3859.487, 4077.436, 4143.59, 4160, 0, 0, []
1631429145.2395, 48, 0, 4239.487, 3682.564, 4109.744, 4130.769, 4157.436, 0, 0, []
1631429145.2472, 49, 0, 4230.769, 3636.41, 4102.051, 4127.179, 4149.231, 0, 0, []
1631429145.2551, 50, 0, 4242.051, 3738.974, 4086.154, 4137.436, 4146.667, 0, 0, []
1631429145.2629, 51, 0, 4251.282, 3805.128, 4110.769, 4142.051, 4149.744, 0, 0, []
1631429145.2708, 52, 0, 4244.615, 3758.462, 4076.923, 4129.231, 4154.359, 0, 0, []
1631429145.2786, 53, 0, 4235.385, 3629.231, 4107.179, 4123.077, 4157.949, 0, 0, []
1631429145.2864, 54, 0, 4233.333, 3592.821, 4107.179, 4130.256, 4148.205, 0, 0, []
1631429145.2942, 55, 0, 4232.308, 3723.59, 4090.256, 4130.256, 4132.821, 0, 0, []
1631429145.3022, 56, 0, 4235.897, 3875.385, 4130.256, 4124.615, 4143.59, 0, 0, []
1631429145.3101, 57, 0, 4248.205, 4042.564, 4105.641, 4132.308, 4170.769, 0, 0, []
1631429145.318, 58, 0, 4251.795, 4178.462, 4118.974, 4142.564, 4175.385, 0, 0, []
1631429145.3258, 59, 0, 4243.077, 4120, 4113.333, 4137.949, 4166.154, 0, 0, []
1631429145.3337, 60, 0, 4244.103, 3990.769, 4095.897, 4137.949, 4161.026, 0, 0, []
1631429145.3416, 61, 0, 4244.615, 4048.718, 4129.231, 4141.538, 4150.769, 0, 0, []
1631429145.3496, 62, 0, 4236.923, 4241.538, 4091.282, 4133.846, 4148.205, 0, 0, []
1631429145.3575, 63, 0, 4239.487, 4325.128, 4105.128, 4141.026, 4162.051, 0, 0, []
1631429145.3655, 64, 0, 4250.769, 4175.897, 4118.462, 4164.615, 4175.385, 450, 0, []
1631429145.3733, 65, 0, 4250.256, 3963.077, 4087.692, 4155.897, 4173.846, 450, 0, []
1631429145.3811, 66, 0, 4242.564, 3959.487, 4118.462, 4132.308, 4156.923, 16188, 0, []
1631429145.389, 67, 0, 4242.051, 3952.821, 4100.513, 4142.051, 4147.179, 450, 0, []
1631429145.3968, 68, 0, 4236.923, 3654.359, 4116.41, 4154.359, 4158.974, 16115, 0, []
1631429145.4047, 69, 0, 4231.282, 3388.718, 4131.795, 4146.154, 4171.795, 450, 0, []
1631429145.4125, 70, 0, 4240.513, 3488.205, 4099.487, 4147.179, 4172.308, 115, 0, []
1631429145.4203, 71, 0, 4249.744, 3714.359, 4137.436, 4157.436, 4166.667, 450, 0, []
1631429145.4281, 72, 0, 4251.282, 3746.667, 4121.026, 4156.923, 4165.128, 450, 0, []
1631429145.436, 73, 0, 4247.179, 3748.718, 4115.385, 4154.359, 4166.667, 16154, 0, []
1631429145.4438, 74, 0, 4238.974, 3968.205, 4126.154, 4158.462, 4172.821, 450, 0, []
1631429145.4517, 75, 0, 4227.692, 4195.385, 4076.41, 4152.821, 4169.231, 16211, 0, []
1631429145.4595, 76, 0, 4231.282, 4150.769, 4099.487, 4145.641, 4154.359, 450, 0, []
1631429145.4674, 77, 0, 4250.769, 3925.128, 4108.718, 4162.564, 4160, 450, 0, []
1631429145.4753, 78, 0, 4255.897, 3696.41, 4124.103, 4177.949, 4173.846, 450, 0, []
1631429145.4831, 79, 0, 4232.821, 3620, 4129.231, 4158.974, 4159.487, 16211, 0, []
1631429145.4911, 80, 0, 4212.308, 3673.846, 4080, 4142.051, 4137.436, 450, 0, []
1631429145.4989, 81, 0, 4222.564, 3629.231, 4115.385, 4150.256, 4137.949, 450, 0, []
1631429145.5068, 82, 0, 4233.333, 3573.333, 4104.615, 4138.462, 4138.462, 450, 0, []
1631429145.5148, 83, 0, 4222.564, 3660, 4096.41, 4121.026, 4133.846, 16211, 0, []
1631429145.5227, 84, 0, 4212.821, 3678.974, 4131.282, 4141.026, 4143.077, 450, 0, []
1631429145.5307, 85, 0, 4217.949, 3560.513, 4084.615, 4158.974, 4148.205, 450, 0, []
1631429145.5386, 86, 0, 4216.923, 3448.205, 4096.923, 4150.769, 4134.872, 450, 0, []
1631429145.5463, 87, 0, 4207.179, 3451.795, 4091.282, 4138.462, 4122.051, 16211, 0, []
1631429145.5542, 88, 0, 4200, 3636.923, 4073.333, 4132.821, 4129.231, 450, 0, []
1631429145.562, 89, 0, 4198.462, 3745.128, 4111.795, 4128.718, 4135.897, 450, 0, []
1631429145.5699, 90, 0, 4209.231, 3619.487, 4096.923, 4129.231, 4137.436, 450, 0, []
1631429145.5777, 91, 0, 4225.641, 3559.487, 4122.051, 4144.615, 4151.282, 16211, 0, []
1631429145.5855, 92, 0, 4231.282, 3648.205, 4115.385, 4164.615, 4165.641, 450, 0, []
1631429145.5933, 93, 0, 4229.744, 3598.462, 4088.718, 4169.744, 4166.154, 450, 0, []
1631429145.6012, 94, 0, 4225.128, 3365.641, 4123.59, 4162.564, 4149.744, 450, 0, []
1631429145.609, 95, 0, 4219.487, 3260, 4088.205, 4154.872, 4138.974, 16211, 0, []
1631429145.617, 96, 0, 4223.59, 3399.487, 4096.923, 4144.615, 4150.769, 450, 0, []
1631429145.6248, 97, 0, 4232.821, 3489.231, 4106.154, 4133.333, 4167.179, 450, 0, []
1631429145.6328, 98, 0, 4231.282, 3448.718, 4080.513, 4136.923, 4166.667, 450, 0, []
1631429145.6407, 99, 0, 4229.744, 3514.359, 4128.718, 4151.282, 4160.513, 16211, 0, []
1631429145.6487, 100, 0, 4233.333, 3502.051, 4109.231, 4153.333, 4169.231, 450, 0, []
1631429145.6566, 101, 0, 4232.821, 3406.667, 4109.231, 4146.667, 4173.846, 450, 0, []
1631429145.6646, 102, 0, 4236.41, 3641.026, 4131.282, 4151.795, 4171.795, 450, 0, []
1631429145.6724, 103, 0, 4239.487, 4013.846, 4104.615, 4153.333, 4172.821, 16211, 0, []
1631429145.6804, 104, 0, 4230.256, 4084.615, 4118.974, 4142.051, 4162.564, 450, 0, []
1631429145.6883, 105, 0, 4231.282, 3953.846, 4090.769, 4138.462, 4154.872, 450, 0, []
1631429145.6961, 106, 0, 4242.564, 3904.103, 4103.077, 4150.256, 4171.795, 450, 0, []
1631429145.704, 107, 0, 4237.436, 3927.179, 4120, 4164.103, 4188.205, 16211, 0, []
1631429145.7117, 108, 0, 4217.436, 3912.821, 4072.308, 4162.564, 4176.41, 450, 0, []
1631429145.7196, 109, 0, 4212.821, 3823.59, 4098.462, 4148.718, 4160, 450, 0, []
1631429145.7274, 110, 0, 4227.179, 3770.256, 4088.205, 4146.667, 4167.692, 450, 0, []
1631429145.7353, 111, 0, 4237.949, 3803.59, 4088.718, 4160.513, 4183.59, 16211, 0, []
1631429145.7431, 112, 0, 4230.256, 3818.462, 4106.667, 4159.487, 4184.103, 450, 0, []
1631429145.7509, 113, 0, 4218.462, 3838.462, 4066.667, 4148.205, 4168.718, 450, 0, []
1631429145.7587, 114, 0, 4227.692, 3776.41, 4103.077, 4159.487, 4166.154, 450, 0, []
1631429145.7667, 115, 0, 4236.41, 3901.026, 4100, 4155.897, 4170.256, 16211, 0, []
1631429145.7746, 116, 0, 4217.436, 4658.462, 4080, 4124.103, 4156.923, 450, 0, []
1631429145.7826, 117, 0, 4197.949, 5850.769, 4093.333, 4120, 4146.667, 450, 0, []
1631429145.7905, 118, 0, 4197.949, 6347.692, 4051.282, 4144.615, 4153.333, 450, 0, []
1631429145.7984, 119, 0, 4200, 5082.051, 4078.462, 4153.846, 4156.923, 16211, 0, []
1631429145.8063, 120, 0, 4204.103, 3272.308, 4083.077, 4149.744, 4148.718, 450, 0, []
1631429145.8143, 121, 0, 4216.41, 2770.256, 4068.718, 4151.282, 4150.769, 450, 0, []
1631429145.8222, 122, 0, 4218.974, 2891.795, 4103.077, 4149.744, 4165.128, 450, 0, []
1631429145.8302, 123, 0, 4212.308, 2497.436, 4072.821, 4143.077, 4168.718, 16211, 0, []
1631429145.838, 124, 0, 4215.385, 2357.949, 4091.282, 4136.41, 4156.923, 450, 0, []
1631429145.846, 125, 0, 4216.923, 2651.282, 4091.282, 4131.795, 4154.359, 450, 0, []
1631429145.8539, 126, 0, 4213.333, 2514.359, 4065.128, 4136.923, 4167.692, 450, 0, []
1631429145.8617, 127, 0, 4213.846, 2341.026, 4091.795, 4148.718, 4168.205, 16211, 0, []
1631429145.8696, 128, 0, 4209.231, 2305.641, 4061.026, 4150.769, 4153.333, 450, 0, []
1631429145.8773, 0, 0, 4194.872, 1988.718, 4070.256, 4138.974, 4143.077, 450, 0, []
1631429145.8852, 1, 0, 4185.128, 1935.385, 4063.59, 4122.051, 4131.795, 450, 0, []
1631429145.893, 2, 0, 4183.077, 2408.718, 4029.744, 4122.564, 4122.564, 16172, 0, []
1631429145.9009, 3, 0, 4177.949, 2517.436, 4069.744, 4135.897, 4125.128, 450, 0, []
1631429145.9087, 4, 0, 4179.487, 2054.359, 4054.872, 4133.333, 4133.846, 16188, 0, []
1631429145.9166, 5, 0, 4192.308, 1872.821, 4076.41, 4133.333, 4144.615, 450, 0, []
1631429145.9243, 6, 0, 4204.103, 2132.308, 4090.256, 4151.282, 4155.897, 115, 0, []
1631429145.9323, 7, 0, 4208.205, 2271.795, 4049.744, 4151.795, 4157.436, 450, 0, []
1631429145.9402, 8, 0, 4203.59, 2090.256, 4087.692, 4140.513, 4155.385, 450, 0, []
1631429145.9482, 9, 0, 4201.538, 1912.308, 4066.667, 4144.615, 4155.385, 16140, 0, []
1631429145.9561, 10, 0, 4213.333, 2070.769, 4051.795, 4146.154, 4152.308, 450, 0, []
1631429145.964, 11, 0, 4221.538, 2414.872, 4072.308, 4138.462, 4156.41, 16207, 0, []
1631429145.9719, 12, 0, 4209.744, 2551.795, 4049.231, 4142.564, 4161.026, 450, 0, []
1631429145.9799, 13, 0, 4199.487, 2542.051, 4078.974, 4144.103, 4150.256, 450, 0, []
1631429145.9878, 14, 0, 4202.564, 2660, 4063.077, 4135.897, 4146.667, 450, 0, []
1631429145.9958, 15, 0, 4200, 2697.949, 4056.41, 4138.974, 4154.872, 16207, 0, []
1631429146.0036, 16, 0, 4198.462, 2578.462, 4077.436, 4143.59, 4147.179, 0, 0, []
1631429146.0116, 17, 0, 4195.897, 2605.128, 4043.077, 4133.333, 4136.41, 0, 0, []
1631429146.0195, 18, 0, 4181.026, 2715.897, 4069.744, 4128.205, 4134.872, 0, 0, []
1631429146.0273, 19, 0, 4179.487, 2732.308, 4063.077, 4132.821, 4131.795, 0, 0, []
1631429146.0352, 20, 0, 4198.974, 2779.487, 4060, 4136.923, 4146.154, 0, 0, []
1631429146.043, 21, 0, 4207.179, 2878.462, 4093.333, 4147.692, 4174.359, 0, 0, []
1631429146.0508, 22, 0, 4201.026, 2853.333, 4050.769, 4148.718, 4168.205, 0, 0, []
1631429146.0586, 23, 0, 4197.436, 2811.282, 4068.205, 4129.744, 4137.949, 0, 0, []
1631429146.0665, 24, 0, 4194.359, 2871.282, 4070.769, 4122.051, 4137.949, 0, 0, []
1631429146.0743, 25, 0, 4189.744, 2887.692, 4054.872, 4125.128, 4152.308, 0, 0, []
1631429146.0822, 26, 0, 4185.641, 2859.487, 4078.974, 4117.949, 4138.974, 0, 0, []
1631429146.0899, 27, 0, 4172.308, 2890.256, 4037.436, 4106.667, 4119.487, 0, 0, []
1631429146.0979, 28, 0, 4164.103, 2917.949, 4051.282, 4109.231, 4124.615, 0, 0, []
1631429146.1058, 29, 0, 4178.974, 2911.282, 4057.436, 4124.615, 4137.949, 0, 0, []
1631429146.1138, 30, 0, 4189.744, 2922.051, 4042.051, 4135.897, 4138.974, 0, 0, []
1631429146.1217, 31, 0, 4178.974, 2919.487, 4078.462, 4127.692, 4133.333, 0, 0, []
1631429146.1296, 32, 0, 4181.026, 2842.564, 4038.462, 4119.487, 4136.41, 0, 0, []
1631429146.1375, 33, 0, 4197.436, 2860, 4043.077, 4131.795, 4148.718, 0, 0, []
1631429146.1455, 34, 0, 4200, 2943.59, 4061.026, 4140.513, 4157.436, 0, 0, []
1631429146.1534, 35, 0, 4209.231, 2660.513, 4040.513, 4140, 4158.974, 0, 0, []
1631429146.1614, 36, 0, 4220.513, 2182.051, 4070.256, 4141.538, 4166.667, 0, 0, []
1631429146.1693, 37, 0, 4207.692, 2026.667, 4047.692, 4138.462, 4173.846, 0, 0, []
1631429146.177, 38, 0, 4201.538, 2107.179, 4065.128, 4142.051, 4166.154, 0, 0, []
1631429146.1849, 39, 0, 4200.513, 2088.718, 4080, 4144.103, 4149.744, 0, 0, []
1631429146.1927, 40, 0, 4184.615, 2044.103, 4044.615, 4133.846, 4144.615, 0, 0, []
1631429146.2006, 41, 0, 4185.128, 2053.333, 4071.795, 4129.744, 4147.692, 0, 0, []
1631429146.2084, 42, 0, 4197.436, 2052.821, 4033.333, 4131.282, 4148.205, 0, 0, []
1631429146.2162, 43, 0, 4179.487, 2167.692, 4026.154, 4128.205, 4136.41, 0, 0, []
1631429146.224, 44, 0, 4160.513, 2261.538, 4057.949, 4123.59, 4129.231, 0, 0, []
1631429146.232, 45, 0, 4170.769, 2266.154, 4030.256, 4122.564, 4135.385, 0, 0, []
1631429146.2399, 46, 0, 4172.821, 2379.487, 4062.564, 4122.051, 4125.128, 0, 0, []
1631429146.2478, 47, 0, 4168.718, 2518.974, 4054.872, 4120, 4117.949, 0, 0, []
1631429146.2555, 48, 0, 4185.128, 2501.538, 4048.718, 4126.667, 4145.128, 0, 0, []
1631429146.2635, 49, 0, 4214.872, 2455.897, 4086.154, 4151.282, 4171.282, 0, 0, []
1631429146.2714, 50, 0, 4235.897, 2398.462, 4069.231, 4174.359, 4185.128, 0, 0, []
1631429146.2794, 51, 0, 4234.359, 2078.974, 4086.154, 4176.923, 4202.051, 0, 0, []
1631429146.2873, 52, 0, 4224.615, 1936.41, 4058.462, 4169.744, 4197.949, 0, 0, []
1631429146.2953, 53, 0, 4218.974, 2296.923, 4041.538, 4152.821, 4176.923, 0, 0, []
1631429146.3031, 54, 0, 4204.103, 2323.077, 4069.231, 4137.436, 4167.692, 0, 0, []
1631429146.3111, 55, 0, 4185.641, 1674.872, 4037.436, 4132.308, 4155.897, 0, 0, []
1631429146.319, 56, 0, 4179.487, 1210.256, 4064.615, 4123.59, 4140, 0, 0, []
1631429146.3268, 57, 0, 4185.641, 1197.949, 4056.923, 4126.154, 4145.641, 0, 0, []
1631429146.3347, 58, 0, 4193.846, 1083.59, 4039.487, 4149.744, 4161.538, 0, 0, []
1631429146.3424, 59, 0, 4201.538, 877.949, 4080.513, 4163.077, 4169.231, 0, 0, []
1631429146.3503, 60, 0, 4206.154, 829.231, 4043.077, 4151.795, 4171.282, 0, 0, []
1631429146.3581, 61, 0, 4203.59, 822.051, 4047.179, 4141.026, 4167.179, 0, 0, []
1631429146.366, 62, 0, 4199.487, 802.564, 4057.436, 4145.128, 4166.154, 0, 0, []
1631429146.3738, 63, 0, 4201.026, 805.641, 4047.179, 4152.821, 4174.872, 0, 0, []
1631429146.3816, 64, 0, 4204.615, 813.333, 4070.769, 4145.641, 4168.205, 450, 0, []
1631429146.3894, 65, 0, 4201.026, 814.359, 4032.308, 4129.744, 4152.821, 450, 0, []
1631429146.3974, 66, 0, 4200.513, 815.385, 4054.872, 4138.462, 4156.41, 16182, 0, []
1631429146.4053, 67, 0, 4204.615, 818.462, 4072.308, 4152.821, 4170.256, 450, 0, []
1631429146.4133, 68, 0, 4201.026, 817.436, 4039.487, 4143.077, 4170.769, 292, 0, []
1631429146.4212, 69, 0, 4201.026, 816.923, 4069.744, 4133.333, 4167.692, 450, 0, []
1631429146.4291, 70, 0, 4202.051, 817.949, 4042.051, 4138.974, 4164.615, 115, 0, []
1631429146.437, 71, 0, 4191.282, 818.462, 4048.205, 4140.513, 4158.462, 450, 0, []
1631429146.445, 72, 0, 4186.667, 818.462, 4068.205, 4129.744, 4159.487, 450, 0, []
1631429146.4529, 73, 0, 4186.154, 817.949, 4036.923, 4118.462, 4158.462, 16140, 0, []
1631429146.4608, 74, 0, 4174.872, 818.462, 4075.897, 4125.128, 4150.769, 450, 0, []
1631429146.4687, 75, 0, 4172.821, 817.949, 4068.718, 4137.949, 4150.256, 16204, 0, []
1631429146.4765, 76, 0, 4168.718, 811.795, 4065.641, 4131.795, 4141.538, 450, 0, []
1631429146.4844, 77, 0, 4152.308, 795.897, 4071.795, 4113.846, 4126.154, 450, 0, []
1631429146.4922, 78, 0, 4156.923, 802.051, 4044.615, 4111.282, 4131.795, 450, 0, []
1631429146.5001, 79, 0, 4167.179, 808.205, 4088.718, 4115.385, 4141.538, 16204, 0, []
1631429146.5078, 80, 0, 4155.897, 779.487, 4067.692, 4107.179, 4135.897, 450, 0, []
1631429146.5157, 81, 0, 4154.359, 898.974, 4051.282, 4103.59, 4138.462, 450, 0, []
1631429146.5235, 82, 0, 4167.179, 1154.872, 4077.949, 4117.949, 4153.333, 450, 0, []
1631429146.5314, 83, 0, 4171.282, 1389.744, 4046.667, 4135.385, 4156.41, 16204, 0, []
1631429146.5392, 84, 0, 4163.077, 1556.923, 4073.333, 4140.513, 4144.615, 450, 0, []
1631429146.5472, 85, 0, 4159.487, 1517.436, 4059.487, 4132.308, 4140.513, 450, 0, []
1631429146.555, 86, 0, 4163.077, 1498.462, 4043.077, 4121.026, 4144.615, 450, 0, []
1631429146.563, 87, 0, 4162.564, 1766.667, 4071.282, 4116.41, 4141.026, 16204, 0, []
1631429146.5709, 88, 0, 4163.077, 1957.436, 4036.923, 4118.462, 4136.923, 450, 0, []
1631429146.5789, 89, 0, 4162.564, 1975.385, 4058.462, 4124.103, 4142.564, 450, 0, []
1631429146.5868, 90, 0, 4155.897, 2079.487, 4057.949, 4130.256, 4141.026, 450, 0, []
1631429146.5947, 91, 0, 4155.385, 2160.513, 4038.462, 4135.897, 4136.41, 16204, 0, []
1631429146.6026, 92, 0, 4167.179, 2218.974, 4066.154, 4140, 4143.59, 450, 0, []
1631429146.6106, 93, 0, 4168.718, 2310.256, 4038.462, 4133.333, 4144.615, 450, 0, []
1631429146.6185, 94, 0, 4162.051, 2247.692, 4062.051, 4129.744, 4143.59, 450, 0, []
1631429146.6263, 95, 0, 4169.231, 2306.154, 4058.974, 4138.974, 4153.333, 16204, 0, []
1631429146.6342, 96, 0, 4177.436, 2452.308, 4038.462, 4145.128, 4158.974, 450, 0, []
1631429146.6419, 97, 0, 4177.436, 2286.154, 4087.692, 4148.718, 4158.462, 450, 0, []
1631429146.6498, 98, 0, 4166.667, 2216.41, 4055.385, 4150.256, 4156.923, 450, 0, []
1631429146.6576, 99, 0, 4149.744, 2380.513, 4048.205, 4141.538, 4142.051, 16204, 0, []
1631429146.6655, 100, 0, 4144.103, 2525.641, 4042.564, 4131.282, 4130.256, 450, 0, []
1631429146.6733, 101, 0, 4151.282, 2947.692, 4011.795, 4136.41, 4138.974, 450, 0, []
1631429146.6811, 102, 0, 4159.487, 3492.308, 4060, 4144.615, 4134.359, 450, 0, []
1631429146.6889, 103, 0, 4152.308, 3646.667, 4048.205, 4130.769, 4121.026, 16204, 0, []
1631429146.6969, 104, 0, 4142.564, 3694.872, 4048.718, 4121.538, 4128.718, 450, 0, []
1631429146.7048, 105, 0, 4152.308, 3856.41, 4064.615, 4134.872, 4134.359, 450, 0, []
1631429146.7128, 106, 0, 4162.564, 3950.256, 4047.692, 4130.256, 4129.744, 450, 0, []
1631429146.7206, 107, 0, 4149.231, 4113.846, 4078.462, 4112.308, 4129.231, 16204, 0, []
1631429146.7286, 108, 0, 4134.872, 4276.41, 4035.385, 4120, 4126.667, 450, 0, []
1631429146.7365, 109, 0, 4141.026, 4566.667, 4026.154, 4135.385, 4116.41, 450, 0, []
1631429146.7445, 110, 0, 4148.718, 5455.897, 4068.718, 4131.282, 4112.821, 450, 0, []
1631429146.7524, 111, 0, 4163.59, 6459.487, 4051.795, 4132.308, 4129.231, 16204, 0, []
1631429146.7604, 112, 0, 4186.667, 6829.231, 4071.795, 4147.692, 4150.256, 450, 0, []
1631429146.7682, 113, 0, 4193.333, 6887.692, 4048.205, 4146.667, 4161.026, 450, 0, []
1631429146.7762, 114, 0, 4192.308, 7082.564, 4052.308, 4140.513, 4166.154, 450, 0, []
1631429146.7841, 115, 0, 4200.513, 7192.308, 4088.205, 4147.692, 4166.667, 16204, 0, []
1631429146.7919, 116, 0, 4201.538, 7177.436, 4048.718, 4148.718, 4161.538, 450, 0, []
1631429146.7998, 117, 0, 4188.718, 7217.949, 4067.692, 4141.538, 4156.923, 450, 0, []
1631429146.8075, 118, 0, 4176.923, 7289.744, 4054.872, 4141.026, 4152.821, 450, 0, []
1631429146.8154, 119, 0, 4165.128, 7321.538, 4042.564, 4140.513, 4138.462, 16204, 0, []
1631429146.8232, 120, 0, 4161.538, 7314.359, 4073.846, 4133.846, 4129.231, 450, 0, []
1631429146.8311, 121, 0, 4174.872, 7339.487, 4040.513, 4144.103, 4140.513, 450, 0, []
1631429146.8389, 122, 0, 4181.026, 7351.795, 4064.103, 4160.513, 4151.795, 450, 0, []
1631429146.8467, 123, 0, 4172.308, 7320.513, 4063.077, 4153.333, 4150.769, 16204, 0, []
1631429146.8545, 124, 0, 4173.846, 7347.179, 4044.103, 4146.154, 4151.795, 450, 0, []
1631429146.8625, 125, 0, 4183.59, 7420.513, 4067.692, 4145.641, 4154.872, 450, 0, []
1631429146.8704, 126, 0, 4189.231, 7442.051, 4034.359, 4137.436, 4154.359, 450, 0, []
1631429146.8784, 127, 0, 4194.872, 7429.231, 4066.154, 4141.538, 4157.436, 16204, 0, []
1631429146.8863, 128, 0, 4207.179, 7450.256, 4082.564, 4160.513, 4169.231, 450, 0, []
1631429146.8942, 0, 0, 4214.872, 7483.077, 4055.897, 4173.333, 4172.308, 450, 0, []
1631429146.9021, 1, 0, 4210.769, 7478.974, 4078.462, 4173.333, 4156.923, 450, 0, []
1631429146.9101, 2, 0, 4201.026, 7446.154, 4049.744, 4162.051, 4140, 16139, 0, []
1631429146.918, 3, 0, 4197.436, 7402.564, 4071.282, 4151.795, 4136.923, 450, 0, []
1631429146.926, 4, 0, 4203.59, 7375.385, 4081.538, 4152.308, 4147.692, 176, 0, []
1631429146.9338, 5, 0, 4202.051, 7372.821, 4043.077, 4152.308, 4153.333, 450, 0, []
1631429146.9418, 6, 0, 4198.462, 7356.41, 4072.308, 4149.744, 4149.744, 122, 0, []
1631429146.9497, 7, 0, 4213.333, 7309.231, 4051.795, 4147.692, 4152.308, 450, 0, []
1631429146.9575, 8, 0, 4217.949, 7279.487, 4054.359, 4147.692, 4157.949, 450, 0, []
1631429146.9654, 9, 0, 4206.667, 7302.564, 4061.538, 4149.231, 4151.795, 16103, 0, []
1631429146.9731, 10, 0, 4205.641, 7303.077, 4031.282, 4142.564, 4145.641, 450, 0, []
1631429146.981, 11, 0, 4207.692, 7243.077, 4070.256, 4127.692, 4144.615, 16209, 0, []
1631429146.9888, 12, 0, 4207.692, 7191.795, 4053.333, 4128.205, 4152.821, 450, 0, []
1631429146.9967, 13, 0, 4214.359, 7157.949, 4057.436, 4148.205, 4163.59, 450, 0, []
1631429147.0045, 14, 0, 4211.282, 7098.462, 4079.487, 4153.846, 4157.436, 450, 0, []
1631429147.0125, 15, 0, 4204.615, 7046.667, 4045.128, 4149.231, 4155.897, 16209, 0, []
1631429147.0203, 16, 0, 4209.744, 7029.744, 4083.077, 4156.923, 4168.718, 0, 0, []
1631429147.0283, 17, 0, 4209.231, 7004.103, 4074.359, 4162.564, 4168.205, 0, 0, []
1631429147.0362, 18, 0, 4201.538, 6951.795, 4061.538, 4158.462, 4155.897, 0, 0, []
1631429147.0442, 19, 0, 4201.026, 6886.667, 4079.487, 4153.846, 4153.846, 0, 0, []
1631429147.0521, 20, 0, 4201.026, 6825.641, 4041.538, 4152.821, 4157.949, 0, 0, []
1631429147.06, 21, 0, 4196.41, 6782.051, 4065.641, 4150.256, 4152.308, 0, 0, []
1631429147.0679, 22, 0, 4192.821, 6740.513, 4051.795, 4140, 4143.077, 0, 0, []
1631429147.0759, 23, 0, 4190.256, 6687.692, 4035.385, 4132.821, 4141.026, 0, 0, []
1631429147.0838, 24, 0, 4196.923, 6663.59, 4068.718, 4146.667, 4151.795, 0, 0, []
1631429147.0916, 25, 0, 4209.231, 6701.026, 4031.282, 4158.974, 4162.564, 0, 0, []
1631429147.0994, 26, 0, 4215.385, 6729.744, 4046.154, 4154.359, 4163.077, 0, 0, []
1631429147.1072, 27, 0, 4217.949, 6690.769, 4052.308, 4160.513, 4167.179, 0, 0, []
1631429147.1151, 28, 0, 4218.974, 6637.949, 4046.154, 4171.282, 4174.359, 0, 0, []
1631429147.1229, 29, 0, 4215.897, 6603.59, 4083.077, 4166.154, 4171.282, 0, 0, []
1631429147.1308, 30, 0, 4204.615, 6534.872, 4052.821, 4151.282, 4155.897, 0, 0, []
1631429147.1386, 31, 0, 4193.333, 6463.59, 4064.615, 4143.077, 4143.077, 0, 0, []
1631429147.1464, 32, 0, 4200.513, 6451.795, 4054.872, 4146.667, 4150.769, 0, 0, []
1631429147.1542, 33, 0, 4210.769, 6432.308, 4032.821, 4146.667, 4155.897, 0, 0, []
1631429147.1621, 34, 0, 4201.538, 6374.359, 4083.077, 4133.333, 4136.41, 0, 0, []
1631429147.1699, 35, 0, 4194.359, 6370.769, 4054.872, 4124.103, 4126.154, 0, 0, []
1631429147.1779, 36, 0, 4206.667, 6413.333, 4057.949, 4127.692, 4138.462, 0, 0, []
1631429147.1857, 37, 0, 4216.41, 6404.615, 4069.744, 4128.718, 4141.538, 0, 0, []
1631429147.1937, 38, 0, 4221.026, 6352.821, 4049.744, 4128.205, 4144.103, 0, 0, []
1631429147.2016, 39, 0, 4230.769, 6305.641, 4089.744, 4143.077, 4160, 0, 0, []
1631429147.2096, 40, 0, 4228.718, 6245.128, 4069.231, 4149.744, 4162.051, 0, 0, []
1631429147.2175, 41, 0, 4216.923, 6190.256, 4072.821, 4143.077, 4151.795, 0, 0, []
1631429147.2254, 42, 0, 4216.41, 6176.41, 4077.949, 4138.462, 4152.308, 0, 0, []
1631429147.2333, 43, 0, 4217.949, 6145.641, 4040.513, 4134.872, 4154.872, 0, 0, []
1631429147.2413, 44, 0, 4214.359, 6063.59, 4076.41, 4135.897, 4153.846, 0, 0, []
1631429147.2492, 45, 0, 4216.923, 5988.205, 4057.949, 4139.487, 4155.897, 0, 0, []
1631429147.257, 46, 0, 4220.513, 5931.795, 4053.846, 4140, 4158.974, 0, 0, []
1631429147.2649, 47, 0, 4210.769, 5869.744, 4062.564, 4135.385, 4155.385, 0, 0, []
1631429147.2728, 48, 0, 4196.41, 5828.205, 4017.949, 4128.718, 4148.718, 0, 0, []
1631429147.2807, 49, 0, 4197.949, 5822.564, 4058.462, 4120, 4143.59, 0, 0, []
