Timestamp, COUNTER, INTERPOLATED, AF3, T7, Pz, T8, AF4, RAW_CQ, MARKER_HARDWARE, MARKERS
1630162568.7484, 114, 0, 4273.333, 4208.205, 4121.538, 4195.897, 4274.359, 450, 0, []
1630162568.7562, 115, 0, 4263.59, 4188.718, 4122.564, 4202.564, 4265.128, 16210, 0, []
1630162568.764, 116, 0, 4245.641, 4175.385, 4111.282, 4180.513, 4243.59, 450, 0, []
1630162568.7719, 117, 0, 4226.667, 4194.359, 4113.846, 4156.923, 4224.615, 450, 0, []
1630162568.7797, 118, 0, 4232.821, 4220, 4096.41, 4171.795, 4220.513, 450, 0, []
1630162568.7876, 119, 0, 4237.436, 4190.256, 4112.821, 4191.282, 4218.462, 16210, 0, []
1630162568.7953, 120, 0, 4221.026, 4175.385, 4108.205, 4181.538, 4211.282, 450, 0, []
1630162568.8032, 121, 0, 4217.436, 4204.615, 4095.385, 4175.385, 4197.949, 450, 0, []
1630162568.811, 122, 0, 4220, 4182.564, 4106.154, 4183.59, 4183.077, 450, 0, []
1630162568.819, 123, 0, 4202.564, 4123.59, 4082.051, 4167.179, 4168.205, 16210, 0, []
1630162568.8269, 124, 0, 4177.436, 4125.128, 4088.718, 4140, 4142.051, 450, 0, []
1630162568.8348, 125, 0, 4160, 4154.872, 4083.077, 4127.692, 4116.923, 450, 0, []
1630162568.8427, 126, 0, 4149.744, 4152.821, 4062.564, 4123.077, 4109.231, 450, 0, []
1630162568.8507, 127, 0, 4145.128, 4136.923, 4086.667, 4121.538, 4109.231, 16210, 0, []
1630162568.8586, 128, 0, 4146.667, 4121.538, 4078.974, 4119.487, 4104.615, 450, 0, []
1630162568.8666, 0, 0, 4136.923, 4101.026, 4071.282, 4119.487, 4081.538, 450, 0, []
1630162568.8744, 1, 0, 4120.513, 4072.821, 4054.872, 4113.333, 4063.077, 450, 0, []
1630162568.8824, 2, 0, 4125.128, 4091.282, 4051.795, 4120.513, 4083.59, 16159, 0, []
1630162568.8903, 3, 0, 4140.513, 4133.846, 4092.308, 4146.154, 4108.718, 450, 0, []
1630162568.8983, 4, 0, 4140, 4110.769, 4065.128, 4142.564, 4096.923, 16086, 0, []
1630162568.9062, 5, 0, 4131.795, 4092.821, 4047.692, 4128.718, 4082.051, 450, 0, []
1630162568.9139, 6, 0, 4127.692, 4119.487, 4055.897, 4133.333, 4083.59, 291, 0, []
1630162568.9218, 7, 0, 4115.897, 4108.718, 4043.59, 4125.128, 4073.846, 450, 0, []
1630162568.9296, 8, 0, 4117.436, 4096.41, 4062.051, 4117.949, 4071.282, 450, 0, []
1630162568.9375, 9, 0, 4138.974, 4136.41, 4053.846, 4133.846, 4089.231, 16103, 0, []
1630162568.9453, 10, 0, 4142.564, 4145.641, 4058.974, 4143.077, 4092.308, 450, 0, []
1630162568.9531, 11, 0, 4135.385, 4093.333, 4078.974, 4139.487, 4086.667, 16195, 0, []
1630162568.9609, 12, 0, 4144.103, 4085.128, 4075.897, 4150.256, 4093.333, 450, 0, []
1630162568.9688, 13, 0, 4152.308, 4114.872, 4096.41, 4163.077, 4095.385, 450, 0, []
1630162568.9766, 14, 0, 4141.538, 4112.821, 4077.949, 4147.179, 4086.154, 450, 0, []
1630162568.9845, 15, 0, 4136.923, 4096.923, 4070.769, 4142.051, 4093.846, 16195, 0, []
1630162568.9923, 16, 0, 4143.59, 4097.949, 4081.026, 4152.308, 4105.641, 0, 0, []
1630162569.0002, 17, 0, 4142.051, 4124.103, 4052.308, 4140.513, 4091.795, 0, 0, []
1630162569.0081, 18, 0, 4138.462, 4122.564, 4054.359, 4130.256, 4076.923, 0, 0, []
1630162569.0161, 19, 0, 4129.744, 4072.308, 4041.026, 4124.615, 4072.821, 0, 0, []
1630162569.024, 20, 0, 4102.564, 4046.667, 4033.846, 4108.718, 4058.462, 0, 0, []
1630162569.032, 21, 0, 4086.667, 4071.282, 4047.179, 4095.385, 4045.128, 0, 0, []
1630162569.0398, 22, 0, 4106.667, 4064.103, 4034.872, 4099.487, 4057.949, 0, 0, []
1630162569.0478, 23, 0, 4125.128, 4026.667, 4058.974, 4113.333, 4068.718, 0, 0, []
1630162569.0557, 24, 0, 4125.128, 4046.667, 4065.128, 4125.128, 4070.256, 0, 0, []
1630162569.0635, 25, 0, 4133.846, 4077.949, 4067.692, 4141.026, 4091.795, 0, 0, []
1630162569.0714, 26, 0, 4150.769, 4087.692, 4083.59, 4149.231, 4105.641, 0, 0, []
1630162569.0791, 27, 0, 4155.897, 4078.462, 4057.436, 4142.051, 4093.333, 0, 0, []
1630162569.087, 28, 0, 4151.282, 4062.564, 4072.308, 4143.59, 4084.615, 0, 0, []
1630162569.0948, 29, 0, 4142.564, 4068.205, 4073.333, 4140.513, 4093.846, 0, 0, []
1630162569.1027, 30, 0, 4134.359, 4065.641, 4053.846, 4124.615, 4094.359, 0, 0, []
1630162569.1105, 31, 0, 4136.41, 4062.051, 4072.821, 4126.667, 4082.564, 0, 0, []
1630162569.1183, 32, 0, 4142.564, 4075.385, 4062.564, 4136.41, 4083.077, 0, 0, []
1630162569.1261, 33, 0, 4135.897, 4080, 4067.692, 4132.821, 4084.103, 0, 0, []
1630162569.134, 34, 0, 4130.256, 4057.949, 4063.59, 4124.615, 4080.513, 0, 0, []
1630162569.1418, 35, 0, 4144.615, 4033.846, 4050.256, 4126.154, 4084.615, 0, 0, []
1630162569.1498, 36, 0, 4153.333, 4021.538, 4069.231, 4130.769, 4088.205, 0, 0, []
1630162569.1576, 37, 0, 4143.077, 4046.154, 4051.795, 4122.564, 4081.026, 0, 0, []
1630162569.1656, 38, 0, 4134.359, 4075.385, 4057.949, 4115.897, 4074.872, 0, 0, []
1630162569.1735, 39, 0, 4132.308, 4046.154, 4061.026, 4116.923, 4077.436, 0, 0, []
1630162569.1815, 40, 0, 4125.641, 4033.333, 4031.795, 4116.923, 4071.282, 0, 0, []
1630162569.1894, 41, 0, 4115.897, 4050.256, 4033.333, 4108.718, 4053.333, 0, 0, []
1630162569.1973, 42, 0, 4124.615, 4048.718, 4022.051, 4106.154, 4058.974, 0, 0, []
1630162569.2052, 43, 0, 4144.615, 4043.59, 4044.615, 4124.615, 4090.256, 0, 0, []
1630162569.213, 44, 0, 4147.179, 4053.333, 4064.615, 4127.179, 4096.923, 0, 0, []
1630162569.2209, 45, 0, 4135.385, 4068.718, 4047.692, 4110.256, 4072.821, 0, 0, []
1630162569.2287, 46, 0, 4146.154, 4086.667, 4068.205, 4121.026, 4073.846, 0, 0, []
1630162569.2365, 47, 0, 4169.231, 4103.077, 4056.41, 4136.923, 4098.462, 0, 0, []
1630162569.2443, 48, 0, 4164.615, 4096.923, 4051.282, 4126.667, 4096.923, 0, 0, []
1630162569.2522, 49, 0, 4151.282, 4100.513, 4065.641, 4115.897, 4074.872, 0, 0, []
1630162569.26, 50, 0, 4155.897, 4093.333, 4049.744, 4123.077, 4076.923, 0, 0, []
1630162569.2679, 51, 0, 4152.308, 4051.282, 4068.718, 4126.667, 4092.308, 0, 0, []
1630162569.2756, 52, 0, 4137.436, 4054.359, 4061.026, 4109.231, 4090.769, 0, 0, []
1630162569.2835, 53, 0, 4138.462, 4088.205, 4046.667, 4096.923, 4078.974, 0, 0, []
1630162569.2913, 54, 0, 4145.128, 4084.615, 4058.462, 4095.385, 4067.692, 0, 0, []
1630162569.2992, 55, 0, 4137.949, 4073.846, 4046.154, 4090.256, 4058.462, 0, 0, []
1630162569.307, 56, 0, 4134.359, 4068.718, 4058.462, 4098.462, 4066.667, 0, 0, []
1630162569.315, 57, 0, 4139.487, 4034.359, 4051.282, 4106.667, 4082.564, 0, 0, []
1630162569.3228, 58, 0, 4137.436, 4035.385, 4055.385, 4105.641, 4072.821, 0, 0, []
1630162569.3308, 59, 0, 4132.308, 4065.641, 4081.026, 4111.282, 4058.462, 0, 0, []
1630162569.3387, 60, 0, 4128.205, 4026.154, 4060.513, 4111.282, 4062.564, 0, 0, []
1630162569.3467, 61, 0, 4118.974, 4002.564, 4069.744, 4095.385, 4062.564, 0, 0, []
1630162569.3546, 62, 0, 4107.692, 4053.846, 4057.436, 4074.359, 4044.615, 0, 0, []
1630162569.3625, 63, 0, 4109.744, 4067.692, 4035.385, 4074.359, 4037.436, 0, 0, []
1630162569.3704, 64, 0, 4122.564, 4033.846, 4060.513, 4090.256, 4048.718, 450, 0, []
1630162569.3782, 65, 0, 4117.949, 4036.923, 4055.385, 4089.231, 4046.154, 450, 0, []
1630162569.3861, 66, 0, 4107.692, 4068.205, 4062.564, 4085.128, 4043.59, 16181, 0, []
1630162569.3939, 67, 0, 4114.872, 4059.487, 4063.077, 4085.128, 4058.462, 450, 0, []
1630162569.4017, 68, 0, 4124.615, 4033.846, 4060, 4083.077, 4060.513, 16086, 0, []
1630162569.4095, 69, 0, 4123.59, 4054.359, 4076.41, 4084.103, 4045.641, 450, 0, []
1630162569.4174, 70, 0, 4116.923, 4086.667, 4043.59, 4076.41, 4041.538, 273, 0, []
1630162569.4252, 71, 0, 4109.744, 4081.026, 4040.513, 4070.256, 4045.128, 450, 0, []
1630162569.4331, 72, 0, 4114.359, 4067.179, 4056.923, 4076.923, 4055.385, 450, 0, []
1630162569.4408, 73, 0, 4137.949, 4070.769, 4051.282, 4083.077, 4078.974, 16098, 0, []
1630162569.4488, 74, 0, 4157.949, 4080.513, 4066.667, 4079.487, 4092.821, 450, 0, []
1630162569.4567, 75, 0, 4164.103, 4074.359, 4049.231, 4073.846, 4103.077, 16194, 0, []
1630162569.4647, 76, 0, 4185.128, 4053.333, 4049.231, 4078.462, 4141.026, 450, 0, []
1630162569.4726, 77, 0, 4230.769, 4055.897, 4051.795, 4079.487, 4184.615, 450, 0, []
1630162569.4805, 78, 0, 4264.615, 4089.744, 4023.077, 4074.359, 4210.256, 450, 0, []
1630162569.4884, 79, 0, 4276.923, 4101.538, 4039.487, 4081.538, 4231.282, 16194, 0, []
1630162569.4964, 80, 0, 4307.179, 4077.436, 4044.615, 4091.282, 4262.564, 450, 0, []
1630162569.5043, 81, 0, 4343.077, 4074.872, 4043.077, 4090.769, 4295.897, 450, 0, []
1630162569.5123, 82, 0, 4350.256, 4086.667, 4035.385, 4082.564, 4309.744, 450, 0, []
1630162569.5201, 83, 0, 4349.744, 4087.692, 4021.026, 4078.462, 4311.795, 16194, 0, []
1630162569.5281, 84, 0, 4356.923, 4082.564, 4050.769, 4080, 4314.872, 450, 0, []
1630162569.536, 85, 0, 4359.487, 4084.615, 4035.897, 4082.564, 4323.59, 450, 0, []
1630162569.5438, 86, 0, 4365.128, 4116.923, 4023.59, 4092.308, 4336.923, 450, 0, []
1630162569.5517, 87, 0, 4366.667, 4132.821, 4042.051, 4098.974, 4336.41, 16194, 0, []
1630162569.5594, 88, 0, 4357.949, 4108.718, 4032.308, 4095.897, 4327.179, 450, 0, []
1630162569.5673, 89, 0, 4362.564, 4110.256, 4041.026, 4100, 4332.308, 450, 0, []
1630162569.5751, 90, 0, 4373.333, 4148.205, 4027.179, 4090.769, 4341.538, 450, 0, []
1630162569.583, 91, 0, 4370.256, 4135.897, 4021.538, 4076.41, 4340.513, 16194, 0, []
1630162569.5908, 92, 0, 4367.692, 4105.641, 4044.103, 4083.59, 4346.667, 450, 0, []
1630162569.5987, 93, 0, 4372.821, 4136.923, 4026.667, 4089.744, 4352.821, 450, 0, []
1630162569.6066, 94, 0, 4375.897, 4165.128, 4038.974, 4098.974, 4349.744, 450, 0, []
1630162569.6146, 95, 0, 4382.564, 4152.821, 4044.615, 4112.308, 4350.256, 16194, 0, []
1630162569.6225, 96, 0, 4388.205, 4146.154, 4034.359, 4105.128, 4348.718, 450, 0, []
1630162569.6305, 97, 0, 4383.59, 4157.949, 4051.282, 4089.231, 4343.59, 450, 0, []
1630162569.6383, 98, 0, 4375.897, 4162.564, 4040.513, 4084.103, 4346.154, 450, 0, []
1630162569.6463, 99, 0, 4365.128, 4147.179, 4048.205, 4086.154, 4340.513, 16194, 0, []
1630162569.6542, 100, 0, 4364.103, 4150.256, 4057.436, 4084.103, 4331.282, 450, 0, []
1630162569.6622, 101, 0, 4373.846, 4176.923, 4051.282, 4086.154, 4340.513, 450, 0, []
1630162569.6701, 102, 0, 4373.333, 4160.513, 4061.026, 4092.308, 4340, 450, 0, []
1630162569.6781, 103, 0, 4365.641, 4131.282, 4044.103, 4088.205, 4327.179, 16194, 0, []
1630162569.6859, 104, 0, 4374.872, 4168.205, 4065.128, 4087.692, 4338.462, 450, 0, []
1630162569.6937, 105, 0, 4393.846, 4192.308, 4089.231, 4102.564, 4360, 450, 0, []
1630162569.7016, 106, 0, 4399.487, 4165.128, 4077.949, 4106.667, 4358.974, 450, 0, []
1630162569.7094, 107, 0, 4392.308, 4184.615, 4089.744, 4102.051, 4356.41, 16194, 0, []
1630162569.7173, 108, 0, 4397.949, 4233.846, 4084.103, 4110.256, 4371.795, 450, 0, []
1630162569.725, 109, 0, 4428.205, 4237.949, 4098.974, 4129.744, 4391.795, 450, 0, []
1630162569.7329, 110, 0, 4451.282, 4223.59, 4112.821, 4142.051, 4406.154, 450, 0, []
1630162569.7407, 111, 0, 4452.821, 4234.359, 4101.026, 4156.41, 4416.923, 16194, 0, []
1630162569.7486, 112, 0, 4444.103, 4255.385, 4126.667, 4170.256, 4414.359, 450, 0, []
1630162569.7564, 113, 0, 4422.564, 4231.282, 4107.692, 4147.179, 4384.615, 450, 0, []
1630162569.7643, 114, 0, 4389.744, 4183.59, 4080.513, 4122.051, 4346.154, 450, 0, []
1630162569.7722, 115, 0, 4367.692, 4194.359, 4087.179, 4123.59, 4326.667, 16194, 0, []
1630162569.7802, 116, 0, 4373.333, 4220, 4077.949, 4123.077, 4327.179, 450, 0, []
1630162569.7881, 117, 0, 4381.538, 4189.231, 4089.231, 4115.897, 4334.359, 450, 0, []
1630162569.7961, 118, 0, 4371.282, 4172.308, 4074.872, 4107.179, 4329.231, 450, 0, []
1630162569.8039, 119, 0, 4356.41, 4203.59, 4067.179, 4106.667, 4315.897, 16194, 0, []
1630162569.8119, 120, 0, 4348.718, 4205.128, 4077.436, 4116.923, 4308.718, 450, 0, []
1630162569.8198, 121, 0, 4342.051, 4173.333, 4059.487, 4125.641, 4303.59, 450, 0, []
1630162569.8278, 122, 0, 4338.462, 4168.718, 4082.051, 4136.41, 4291.795, 450, 0, []
1630162569.8357, 123, 0, 4346.154, 4172.308, 4084.615, 4141.538, 4292.308, 16194, 0, []
1630162569.8434, 124, 0, 4348.718, 4160, 4076.923, 4135.897, 4297.949, 450, 0, []
1630162569.8513, 125, 0, 4350.769, 4165.641, 4104.103, 4130.256, 4295.385, 450, 0, []
1630162569.8591, 126, 0, 4356.923, 4187.692, 4093.333, 4123.077, 4293.846, 450, 0, []
1630162569.867, 127, 0, 4349.231, 4189.744, 4094.872, 4122.051, 4292.821, 16194, 0, []
1630162569.8748, 128, 0, 4324.615, 4170.256, 4085.641, 4126.667, 4279.487, 450, 0, []
1630162569.8826, 0, 0, 4309.231, 4162.564, 4073.333, 4135.385, 4265.128, 450, 0, []
1630162569.8904, 1, 0, 4313.846, 4184.103, 4090.769, 4147.179, 4264.615, 450, 0, []
1630162569.8983, 2, 0, 4308.205, 4191.282, 4064.615, 4138.974, 4258.462, 16180, 0, []
1630162569.9061, 3, 0, 4291.795, 4176.923, 4062.564, 4121.538, 4235.897, 450, 0, []
1630162569.9141, 4, 0, 4290.256, 4181.538, 4076.41, 4114.359, 4229.231, 16089, 0, []
1630162569.9219, 5, 0, 4287.692, 4196.923, 4073.333, 4112.308, 4232.308, 450, 0, []
1630162569.9299, 6, 0, 4275.385, 4182.051, 4091.282, 4114.872, 4216.41, 250, 0, []
1630162569.9378, 7, 0, 4272.308, 4172.308, 4079.487, 4114.872, 4209.744, 450, 0, []
1630162569.9458, 8, 0, 4269.744, 4175.385, 4079.487, 4111.795, 4214.872, 450, 0, []
1630162569.9537, 9, 0, 4262.051, 4161.026, 4075.897, 4107.692, 4211.795, 16090, 0, []
1630162569.9616, 10, 0, 4268.718, 4157.436, 4057.436, 4115.385, 4216.41, 450, 0, []
1630162569.9695, 11, 0, 4282.564, 4174.359, 4071.795, 4132.308, 4230.769, 16208, 0, []
1630162569.9775, 12, 0, 4284.103, 4164.103, 4058.462, 4125.128, 4233.846, 450, 0, []
1630162569.9854, 13, 0, 4278.974, 4142.564, 4065.128, 4113.333, 4224.615, 450, 0, []
1630162569.9934, 14, 0, 4277.436, 4169.231, 4071.282, 4113.846, 4215.385, 450, 0, []
1630162570.0012, 15, 0, 4277.436, 4203.59, 4051.795, 4115.897, 4220.513, 16208, 0, []
1630162570.009, 16, 0, 4283.59, 4185.128, 4083.077, 4120.513, 4228.718, 0, 0, []
1630162570.0169, 17, 0, 4280.513, 4193.333, 4081.538, 4113.846, 4219.487, 0, 0, []
1630162570.0247, 18, 0, 4267.179, 4246.154, 4062.051, 4106.154, 4211.795, 0, 0, []
1630162570.0326, 19, 0, 4264.615, 4235.385, 4052.308, 4120.513, 4218.974, 0, 0, []
1630162570.0404, 20, 0, 4261.026, 4203.59, 4038.974, 4134.872, 4211.282, 0, 0, []
1630162570.0482, 21, 0, 4249.744, 4237.436, 4072.821, 4124.615, 4198.974, 0, 0, []
1630162570.056, 22, 0, 4244.615, 4270.256, 4071.795, 4105.128, 4201.026, 0, 0, []
1630162570.064, 23, 0, 4245.641, 4265.128, 4060.513, 4103.59, 4195.897, 0, 0, []
1630162570.0719, 24, 0, 4258.462, 4269.231, 4077.949, 4109.744, 4191.282, 0, 0, []
1630162570.0799, 25, 0, 4271.795, 4304.103, 4070.256, 4112.308, 4203.077, 0, 0, []
1630162570.0877, 26, 0, 4251.795, 4318.462, 4071.795, 4116.41, 4200.513, 0, 0, []
1630162570.0957, 27, 0, 4227.179, 4293.333, 4041.538, 4114.872, 4181.026, 0, 0, []
1630162570.1036, 28, 0, 4234.359, 4268.205, 4015.897, 4111.282, 4182.564, 0, 0, []
1630162570.1116, 29, 0, 4232.821, 4274.359, 4018.974, 4104.615, 4186.154, 0, 0, []
1630162570.1195, 30, 0, 4218.974, 4299.487, 3986.154, 4088.718, 4171.282, 0, 0, []
1630162570.1274, 31, 0, 4214.872, 4302.051, 3980, 4083.59, 4163.59, 0, 0, []
1630162570.1353, 32, 0, 4203.077, 4262.564, 3970.769, 4081.538, 4161.538, 0, 0, []
1630162570.1433, 33, 0, 4194.872, 4228.718, 3961.538, 4075.385, 4146.154, 0, 0, []
1630162570.1512, 34, 0, 4203.59, 4274.359, 3988.205, 4085.641, 4138.462, 0, 0, []
1630162570.159, 35, 0, 4198.974, 4323.59, 3973.846, 4095.385, 4137.949, 0, 0, []
1630162570.1668, 36, 0, 4180.513, 4278.974, 3981.026, 4097.949, 4129.231, 0, 0, []
1630162570.1746, 37, 0, 4174.872, 4228.718, 4002.051, 4101.026, 4123.59, 0, 0, []
1630162570.1825, 38, 0, 4167.692, 4264.615, 4005.641, 4098.974, 4117.436, 0, 0, []
1630162570.1903, 39, 0, 4146.667, 4292.308, 4026.154, 4086.154, 4099.487, 0, 0, []
1630162570.1982, 40, 0, 4148.718, 4263.077, 4021.026, 4075.897, 4094.872, 0, 0, []
1630162570.2059, 41, 0, 4179.487, 4268.718, 4038.974, 4090.256, 4115.385, 0, 0, []
1630162570.2138, 42, 0, 4183.59, 4290.769, 4051.795, 4100, 4128.718, 0, 0, []
1630162570.2216, 43, 0, 4162.564, 4285.641, 4043.59, 4095.385, 4120.513, 0, 0, []
1630162570.2296, 44, 0, 4179.487, 4290.769, 4074.872, 4111.282, 4125.641, 0, 0, []
1630162570.2375, 45, 0, 4208.718, 4306.667, 4073.333, 4130.256, 4152.821, 0, 0, []
1630162570.2454, 46, 0, 4195.897, 4293.333, 4079.487, 4126.154, 4157.949, 0, 0, []
1630162570.2533, 47, 0, 4182.564, 4275.385, 4086.667, 4110.256, 4136.923, 0, 0, []
1630162570.2613, 48, 0, 4188.205, 4277.949, 4070.769, 4101.026, 4124.615, 0, 0, []
1630162570.2692, 49, 0, 4169.744, 4273.846, 4094.359, 4103.59, 4120.513, 0, 0, []
1630162570.2772, 50, 0, 4145.128, 4264.103, 4082.051, 4100, 4109.744, 0, 0, []
1630162570.285, 51, 0, 4142.564, 4242.564, 4077.949, 4094.872, 4096.41, 0, 0, []
1630162570.293, 52, 0, 4126.154, 4246.154, 4095.385, 4094.359, 4076.923, 0, 0, []
1630162570.3009, 53, 0, 4088.718, 4266.667, 4075.385, 4086.667, 4048.718, 0, 0, []
1630162570.3087, 54, 0, 4051.282, 4233.846, 4077.436, 4083.59, 4020, 0, 0, []
1630162570.3166, 55, 0, 4008.205, 4214.359, 4069.744, 4083.59, 3985.128, 0, 0, []
1630162570.3243, 56, 0, 3961.026, 4240, 4072.308, 4084.615, 3947.179, 0, 0, []
1630162570.3322, 57, 0, 3928.205, 4233.846, 4074.359, 4091.282, 3920.513, 0, 0, []
1630162570.34, 58, 0, 3909.744, 4209.231, 4044.103, 4096.923, 3899.487, 0, 0, []
1630162570.3479, 59, 0, 3889.744, 4221.538, 4061.538, 4102.564, 3869.744, 0, 0, []
1630162570.3557, 60, 0, 3873.846, 4235.897, 4064.615, 4101.026, 3844.103, 0, 0, []
1630162570.3636, 61, 0, 3864.615, 4237.949, 4056.923, 4101.538, 3832.308, 0, 0, []
1630162570.3713, 62, 0, 3852.821, 4240, 4065.641, 4103.59, 3817.949, 0, 0, []
1630162570.3793, 63, 0, 3841.538, 4217.949, 4046.154, 4098.974, 3798.974, 0, 0, []
1630162570.3872, 64, 0, 3843.59, 4220, 4064.615, 4106.154, 3792.821, 450, 0, []
1630162570.3952, 65, 0, 3850.256, 4255.385, 4065.641, 4110.769, 3795.385, 450, 0, []
1630162570.4031, 66, 0, 3850.256, 4226.667, 4043.59, 4107.179, 3797.436, 16167, 0, []
1630162570.411, 67, 0, 3847.179, 4185.641, 4052.821, 4102.564, 3793.846, 450, 0, []
1630162570.4189, 68, 0, 3842.051, 4219.487, 4037.949, 4090.769, 3782.564, 16081, 0, []
1630162570.4269, 69, 0, 3840, 4233.846, 4049.744, 4091.282, 3783.077, 450, 0, []
1630162570.4348, 70, 0, 3841.538, 4181.026, 4056.41, 4105.641, 3796.923, 249, 0, []
1630162570.4428, 71, 0, 3849.744, 4173.333, 4046.154, 4112.308, 3805.128, 450, 0, []
1630162570.4506, 72, 0, 3865.641, 4238.462, 4072.821, 4110.769, 3815.897, 450, 0, []
1630162570.4584, 73, 0, 3882.564, 4258.462, 4065.641, 4118.462, 3832.821, 16102, 0, []
1630162570.4663, 74, 0, 3889.744, 4228.205, 4062.564, 4132.308, 3837.949, 450, 0, []
1630162570.4741, 75, 0, 3883.077, 4235.385, 4057.949, 4126.154, 3832.821, 16240, 0, []
1630162570.482, 76, 0, 3874.359, 4258.974, 4042.051, 4108.205, 3823.077, 450, 0, []
1630162570.4897, 77, 0, 3878.462, 4249.231, 4064.103, 4108.205, 3815.897, 450, 0, []
1630162570.4976, 78, 0, 3891.282, 4244.103, 4062.051, 4115.897, 3828.718, 450, 0, []
1630162570.5054, 79, 0, 3896.923, 4240.513, 4071.282, 4121.538, 3846.154, 16240, 0, []
1630162570.5133, 80, 0, 3897.436, 4226.154, 4074.359, 4124.103, 3847.692, 450, 0, []
1630162570.5211, 81, 0, 3906.154, 4251.282, 4054.359, 4127.692, 3852.821, 450, 0, []
1630162570.529, 82, 0, 3917.436, 4263.077, 4076.41, 4136.923, 3867.179, 450, 0, []
1630162570.5369, 83, 0, 3915.897, 4224.615, 4066.154, 4136.923, 3869.231, 16240, 0, []
1630162570.5449, 84, 0, 3911.282, 4237.949, 4060.513, 4133.846, 3862.564, 450, 0, []
1630162570.5528, 85, 0, 3911.282, 4276.923, 4070.769, 4126.667, 3857.436, 450, 0, []
1630162570.5608, 86, 0, 3898.462, 4241.538, 4045.641, 4105.128, 3846.154, 450, 0, []
1630162570.5686, 87, 0, 3888.205, 4220.513, 4052.308, 4096.41, 3839.487, 16240, 0, []
1630162570.5766, 88, 0, 3897.949, 4252.821, 4045.641, 4103.59, 3847.179, 450, 0, []
1630162570.5845, 89, 0, 3900.513, 4253.333, 4038.462, 4105.641, 3849.744, 450, 0, []
1630162570.5925, 90, 0, 3896.923, 4238.462, 4046.667, 4102.051, 3850.256, 450, 0, []
1630162570.6004, 91, 0, 3908.718, 4240.513, 4033.333, 4098.974, 3860.513, 16240, 0, []
1630162570.6081, 92, 0, 3914.359, 4245.128, 4043.59, 4100, 3873.333, 450, 0, []
1630162570.616, 93, 0, 3909.231, 4263.077, 4028.718, 4100.513, 3878.462, 450, 0, []
1630162570.6239, 94, 0, 3908.718, 4270.769, 4026.667, 4106.667, 3878.462, 450, 0, []
1630162570.6319, 95, 0, 3909.744, 4240.513, 4053.333, 4121.538, 3876.41, 16240, 0, []
1630162570.6397, 96, 0, 3917.949, 4248.718, 4026.154, 4123.59, 3881.026, 450, 0, []
1630162570.6475, 97, 0, 3927.692, 4286.154, 4028.205, 4116.923, 3889.231, 450, 0, []
1630162570.6553, 98, 0, 3927.179, 4266.154, 4033.846, 4108.205, 3890.769, 450, 0, []
1630162570.6632, 99, 0, 3926.667, 4257.949, 4024.103, 4109.744, 3892.308, 16240, 0, []
1630162570.671, 100, 0, 3926.667, 4299.487, 4028.205, 4113.333, 3892.821, 450, 0, []
1630162570.6789, 101, 0, 3930.769, 4296.923, 4001.538, 4104.103, 3892.821, 450, 0, []
1630162570.6866, 102, 0, 3953.333, 4273.846, 4016.923, 4110.769, 3902.564, 450, 0, []
1630162570.6946, 103, 0, 3975.385, 4289.744, 4032.821, 4125.128, 3917.436, 16240, 0, []
1630162570.7025, 104, 0, 3975.385, 4291.795, 4020, 4129.231, 3928.205, 450, 0, []
1630162570.7105, 105, 0, 3971.795, 4289.744, 4038.462, 4132.821, 3931.795, 450, 0, []
1630162570.7184, 106, 0, 3969.231, 4287.692, 4034.872, 4121.538, 3926.154, 450, 0, []
1630162570.7264, 107, 0, 3967.179, 4267.179, 4044.615, 4115.385, 3928.718, 16240, 0, []
1630162570.7342, 108, 0, 3976.923, 4274.359, 4047.692, 4129.744, 3954.872, 450, 0, []
1630162570.7422, 109, 0, 3983.59, 4295.385, 4032.308, 4132.821, 3965.128, 450, 0, []
1630162570.7501, 110, 0, 3974.359, 4290.256, 4046.667, 4117.949, 3947.179, 450, 0, []
1630162570.7579, 111, 0, 3969.744, 4279.487, 4034.872, 4113.333, 3944.615, 16240, 0, []
1630162570.7658, 112, 0, 3976.41, 4280.513, 4041.026, 4118.462, 3955.897, 450, 0, []
1630162570.7737, 113, 0, 3979.487, 4291.282, 4055.385, 4115.897, 3954.872, 450, 0, []
1630162570.7816, 114, 0, 3979.487, 4296.923, 4053.333, 4118.462, 3954.872, 450, 0, []
1630162570.7894, 115, 0, 3969.744, 4267.179, 4075.897, 4117.436, 3943.59, 16240, 0, []
1630162570.7973, 116, 0, 3961.026, 4255.897, 4059.487, 4107.692, 3924.103, 450, 0, []
1630162570.8051, 117, 0, 3975.897, 4294.872, 4062.564, 4125.641, 3929.231, 450, 0, []
1630162570.8129, 118, 0, 3993.333, 4311.795, 4080, 4148.718, 3946.667, 450, 0, []
1630162570.8207, 119, 0, 3992.821, 4295.897, 4059.487, 4138.974, 3947.692, 16240, 0, []
1630162570.8286, 120, 0, 3987.179, 4271.282, 4070.769, 4124.103, 3947.692, 450, 0, []
1630162570.8364, 121, 0, 3989.231, 4263.077, 4061.538, 4115.897, 3957.949, 450, 0, []
1630162570.8444, 122, 0, 3990.256, 4276.41, 4059.487, 4117.949, 3958.974, 450, 0, []
1630162570.8522, 123, 0, 3989.744, 4290.256, 4077.436, 4133.846, 3956.41, 16240, 0, []
1630162570.8602, 124, 0, 3990.256, 4287.692, 4063.59, 4141.538, 3967.179, 450, 0, []
1630162570.8681, 125, 0, 3991.795, 4279.487, 4087.179, 4135.897, 3973.846, 450, 0, []
1630162570.8761, 126, 0, 3990.769, 4278.974, 4081.026, 4123.077, 3959.487, 450, 0, []
1630162570.884, 127, 0, 3987.179, 4283.077, 4062.051, 4115.897, 3951.795, 16240, 0, []
1630162570.8919, 128, 0, 3985.641, 4284.103, 4079.487, 4115.897, 3959.487, 450, 0, []
1630162570.8998, 0, 0, 3982.564, 4270.769, 4062.051, 4107.179, 3948.205, 450, 0, []
1630162570.9078, 1, 0, 3983.59, 4282.051, 4063.077, 4107.179, 3935.385, 450, 0, []
1630162570.9157, 2, 0, 3995.897, 4309.231, 4066.667, 4127.179, 3949.744, 16169, 0, []
1630162570.9235, 3, 0, 4001.538, 4312.308, 4062.051, 4137.949, 3958.974, 450, 0, []
1630162570.9313, 4, 0, 3994.359, 4293.333, 4068.718, 4127.179, 3951.282, 16081, 0, []
1630162570.9391, 5, 0, 3995.385, 4276.41, 4049.231, 4114.872, 3958.974, 450, 0, []
1630162570.947, 6, 0, 3998.974, 4276.923, 4063.59, 4118.462, 3976.41, 243, 0, []
1630162570.9548, 7, 0, 3992.821, 4275.385, 4066.667, 4112.308, 3978.974, 450, 0, []
1630162570.9627, 8, 0, 3989.231, 4282.051, 4053.846, 4095.897, 3968.718, 450, 0, []
1630162570.9704, 9, 0, 3991.795, 4292.821, 4066.154, 4094.359, 3960, 16100, 0, []
1630162570.9783, 10, 0, 4000.513, 4283.59, 4043.59, 4099.487, 3961.026, 450, 0, []
1630162570.9861, 11, 0, 4021.538, 4273.333, 4055.385, 4121.538, 3976.41, 16225, 0, []
1630162570.9941, 12, 0, 4030.769, 4291.795, 4075.385, 4141.538, 3988.718, 450, 0, []
1630162571.002, 13, 0, 4013.846, 4289.744, 4055.897, 4129.231, 3978.974, 450, 0, []
1630162571.0099, 14, 0, 3997.949, 4268.718, 4056.923, 4111.795, 3967.179, 450, 0, []
1630162571.0178, 15, 0, 3992.308, 4275.385, 4036.923, 4103.077, 3966.667, 16225, 0, []
1630162571.0258, 16, 0, 3985.641, 4272.821, 4045.128, 4106.154, 3967.179, 0, 0, []
1630162571.0337, 17, 0, 3990.256, 4264.615, 4066.667, 4116.923, 3972.308, 0, 0, []
1630162571.0417, 18, 0, 3998.462, 4257.436, 4044.615, 4114.359, 3973.333, 0, 0, []
1630162571.0495, 19, 0, 3988.205, 4226.667, 4049.231, 4099.487, 3958.462, 0, 0, []
1630162571.0575, 20, 0, 3989.744, 4232.821, 4052.308, 4097.436, 3959.487, 0, 0, []
1630162571.0654, 21, 0, 4016.41, 4290.769, 4066.154, 4117.436, 3984.615, 0, 0, []
1630162571.0732, 22, 0, 4031.795, 4284.103, 4072.308, 4129.744, 3992.308, 0, 0, []
1630162571.0811, 23, 0, 4033.846, 4246.154, 4050.769, 4130.256, 3991.282, 0, 0, []
1630162571.0889, 24, 0, 4031.282, 4281.538, 4062.051, 4132.821, 3998.462, 0, 0, []
1630162571.0967, 25, 0, 4014.359, 4292.308, 4040, 4123.59, 3995.385, 0, 0, []
1630162571.1045, 26, 0, 4000.513, 4238.462, 4031.795, 4117.436, 3994.359, 0, 0, []
1630162571.1124, 27, 0, 4014.359, 4226.667, 4062.564, 4123.59, 4004.615, 0, 0, []
1630162571.1202, 28, 0, 4033.846, 4258.974, 4057.949, 4123.077, 4008.718, 0, 0, []
1630162571.1281, 29, 0, 4036.923, 4257.436, 4068.205, 4119.487, 4001.538, 0, 0, []
1630162571.1358, 30, 0, 4034.872, 4240, 4053.333, 4119.487, 3990.256, 0, 0, []
1630162571.1437, 31, 0, 4042.564, 4242.564, 4039.487, 4123.077, 3994.359, 0, 0, []
1630162571.1515, 32, 0, 4054.359, 4254.359, 4056.41, 4127.179, 4013.846, 0, 0, []
1630162571.1595, 33, 0, 4045.128, 4277.949, 4036.923, 4120, 4014.872, 0, 0, []
1630162571.1674, 34, 0, 4028.205, 4272.308, 4047.692, 4111.795, 4003.077, 0, 0, []
1630162571.1753, 35, 0, 4035.385, 4235.385, 4055.385, 4115.385, 4012.308, 0, 0, []
1630162571.1832, 36, 0, 4044.615, 4230.769, 4041.538, 4117.436, 4011.795, 0, 0, []
1630162571.1912, 37, 0, 4040, 4244.103, 4052.308, 4117.436, 3992.821, 0, 0, []
1630162571.1991, 38, 0, 4061.026, 4257.436, 4055.385, 4136.923, 4014.359, 0, 0, []
1630162571.2071, 39, 0, 4100.513, 4266.154, 4082.051, 4173.333, 4065.641, 0, 0, []
1630162571.2149, 40, 0, 4108.718, 4255.385, 4080, 4182.051, 4081.538, 0, 0, []
1630162571.2229, 41, 0, 4100.513, 4248.718, 4060.513, 4163.077, 4067.179, 0, 0, []
1630162571.2308, 42, 0, 4098.974, 4268.205, 4078.974, 4155.897, 4062.051, 0, 0, []
1630162571.2388, 43, 0, 4096.41, 4267.692, 4064.615, 4161.538, 4069.744, 0, 0, []
1630162571.2467, 44, 0, 4091.282, 4254.359, 4071.282, 4168.205, 4073.846, 0, 0, []
1630162571.2544, 45, 0, 4090.769, 4278.462, 4075.385, 4162.051, 4072.821, 0, 0, []
1630162571.2623, 46, 0, 4097.436, 4288.718, 4057.436, 4150.769, 4075.385, 0, 0, []
1630162571.2701, 47, 0, 4114.872, 4281.538, 4082.051, 4157.436, 4083.59, 0, 0, []
1630162571.278, 48, 0, 4134.872, 4298.462, 4076.41, 4165.128, 4095.897, 0, 0, []
1630162571.2858, 49, 0, 4143.077, 4332.821, 4075.385, 4171.795, 4116.41, 0, 0, []
1630162571.2936, 50, 0, 4137.436, 4368.718, 4077.436, 4174.872, 4125.641, 0, 0, []
1630162571.3014, 51, 0, 4121.538, 4369.744, 4053.333, 4160.513, 4099.487, 0, 0, []
1630162571.3094, 52, 0, 4113.846, 4327.179, 4065.641, 4154.359, 4075.897, 0, 0, []
1630162571.3173, 53, 0, 4118.974, 4301.538, 4060.513, 4158.974, 4086.154, 0, 0, []
1630162571.3253, 54, 0, 4114.359, 4314.359, 4063.077, 4153.846, 4093.333, 0, 0, []
1630162571.3331, 55, 0, 4109.231, 4315.897, 4070.256, 4139.487, 4086.154, 0, 0, []
1630162571.3411, 56, 0, 4121.026, 4308.718, 4052.821, 4140.513, 4095.897, 0, 0, []
1630162571.349, 57, 0, 4136.923, 4323.59, 4076.41, 4166.667, 4111.282, 0, 0, []
1630162571.357, 58, 0, 4140.513, 4352.821, 4069.744, 4172.821, 4112.821, 0, 0, []
1630162571.3649, 59, 0, 4134.359, 4361.538, 4052.308, 4151.795, 4108.205, 0, 0, []
1630162571.3728, 60, 0, 4120, 4337.949, 4054.359, 4132.821, 4088.718, 0, 0, []
1630162571.3807, 61, 0, 4102.564, 4320, 4029.744, 4122.564, 4060, 0, 0, []
1630162571.3885, 62, 0, 4092.308, 4316.41, 4044.103, 4123.077, 4053.333, 0, 0, []
1630162571.3964, 63, 0, 4093.846, 4316.923, 4051.795, 4127.179, 4070.769, 0, 0, []
1630162571.4042, 64, 0, 4107.179, 4334.872, 4056.41, 4140, 4089.744, 450, 0, []
1630162571.412, 65, 0, 4129.744, 4355.385, 4084.103, 4159.487, 4103.077, 450, 0, []
1630162571.4198, 66, 0, 4143.077, 4351.282, 4078.462, 4169.744, 4110.256, 16178, 0, []
1630162571.4277, 67, 0, 4128.205, 4343.077, 4088.718, 4168.205, 4108.205, 450, 0, []
1630162571.4355, 68, 0, 4108.718, 4334.872, 4082.051, 4160, 4102.051, 16078, 0, []
1630162571.4434, 69, 0, 4114.359, 4318.462, 4075.385, 4155.897, 4096.923, 450, 0, []
1630162571.4512, 70, 0, 4122.564, 4330.256, 4094.359, 4157.949, 4098.462, 240, 0, []
1630162571.459, 71, 0, 4120.513, 4360, 4083.077, 4160.513, 4115.385, 450, 0, []
1630162571.4668, 72, 0, 4128.205, 4354.872, 4106.667, 4164.615, 4126.667, 450, 0, []
1630162571.4747, 73, 0, 4146.154, 4315.897, 4106.667, 4164.103, 4123.59, 16098, 0, []
1630162571.4825, 74, 0, 4157.436, 4320, 4076.41, 4168.718, 4128.718, 450, 0, []
1630162571.4905, 75, 0, 4150.769, 4369.744, 4081.026, 4176.923, 4139.487, 16169, 0, []
1630162571.4983, 76, 0, 4136.41, 4355.897, 4060, 4166.154, 4132.308, 450, 0, []
1630162571.5063, 77, 0, 4136.923, 4315.385, 4065.641, 4162.564, 4118.974, 450, 0, []
1630162571.5142, 78, 0, 4135.897, 4333.333, 4067.179, 4168.718, 4117.949, 450, 0, []
1630162571.5222, 79, 0, 4124.615, 4316.923, 4049.744, 4158.462, 4118.974, 16169, 0, []
1630162571.5301, 80, 0, 4136.41, 4262.051, 4085.128, 4158.462, 4125.128, 450, 0, []
1630162571.538, 81, 0, 4163.077, 4308.718, 4091.795, 4170.256, 4142.051, 450, 0, []
1630162571.5459, 82, 0, 4158.462, 4358.462, 4089.744, 4168.718, 4151.795, 450, 0, []
1630162571.5537, 83, 0, 4142.564, 4277.436, 4089.744, 4156.923, 4148.205, 16169, 0, []
1630162571.5616, 84, 0, 4145.128, 4240.513, 4072.821, 4154.359, 4137.436, 450, 0, []
1630162571.5694, 85, 0, 4148.205, 4289.744, 4076.41, 4160, 4126.667, 450, 0, []
1630162571.5772, 86, 0, 4153.846, 4292.821, 4054.872, 4156.923, 4140.513, 450, 0, []
1630162571.585, 87, 0, 4181.026, 4283.59, 4064.615, 4158.974, 4180, 16169, 0, []
1630162571.5929, 88, 0, 4220.513, 4309.744, 4091.282, 4171.795, 4212.821, 450, 0, []
1630162571.6007, 89, 0, 4253.333, 4343.077, 4075.897, 4177.436, 4243.077, 450, 0, []
1630162571.6086, 90, 0, 4280, 4351.795, 4085.128, 4175.897, 4282.051, 450, 0, []
1630162571.6163, 91, 0, 4306.667, 4330.256, 4072.308, 4169.231, 4314.872, 16169, 0, []
1630162571.6242, 92, 0, 4344.103, 4318.462, 4072.821, 4176.923, 4351.795, 450, 0, []
1630162571.6321, 93, 0, 4389.231, 4325.641, 4094.872, 4187.692, 4397.949, 450, 0, []
1630162571.6399, 94, 0, 4398.462, 4313.846, 4072.821, 4172.821, 4409.231, 450, 0, []
1630162571.6479, 95, 0, 4378.974, 4308.718, 4084.103, 4155.897, 4394.359, 16169, 0, []
1630162571.6557, 96, 0, 4391.795, 4330.769, 4092.821, 4151.282, 4409.744, 450, 0, []
1630162571.6636, 97, 0, 4417.949, 4335.897, 4095.897, 4157.949, 4433.846, 450, 0, []
1630162571.6716, 98, 0, 4416.923, 4327.692, 4109.231, 4168.718, 4431.282, 450, 0, []
1630162571.6795, 99, 0, 4415.897, 4335.385, 4090.256, 4166.154, 4427.179, 16169, 0, []
1630162571.6875, 100, 0, 4427.692, 4356.41, 4104.103, 4166.154, 4438.462, 450, 0, []
1630162571.6953, 101, 0, 4438.462, 4368.205, 4107.692, 4174.872, 4454.872, 450, 0, []
1630162571.7033, 102, 0, 4443.59, 4357.436, 4102.564, 4176.923, 4458.974, 450, 0, []
1630162571.7112, 103, 0, 4436.41, 4355.897, 4113.333, 4166.667, 4449.744, 16169, 0, []
1630162571.719, 104, 0, 4424.103, 4364.615, 4089.744, 4158.974, 4441.538, 450, 0, []
1630162571.7269, 105, 0, 4426.154, 4340.513, 4098.462, 4165.641, 4442.051, 450, 0, []
1630162571.7346, 106, 0, 4434.359, 4319.487, 4100.513, 4170.256, 4442.564, 450, 0, []
1630162571.7425, 107, 0, 4432.821, 4330.769, 4092.821, 4175.897, 4444.103, 16169, 0, []
1630162571.7503, 108, 0, 4421.538, 4337.949, 4116.41, 4183.59, 4443.59, 450, 0, []
1630162571.7582, 109, 0, 4413.333, 4325.128, 4094.872, 4173.333, 4432.821, 450, 0, []
1630162571.766, 110, 0, 4424.615, 4309.744, 4095.897, 4165.641, 4433.333, 450, 0, []
1630162571.7739, 111, 0, 4432.308, 4305.128, 4103.59, 4164.615, 4437.949, 16169, 0, []
1630162571.7816, 112, 0, 4426.667, 4282.051, 4084.615, 4157.436, 4433.846, 450, 0, []
1630162571.7895, 113, 0, 4430.256, 4262.564, 4095.385, 4159.487, 4438.974, 450, 0, []
1630162571.7973, 114, 0, 4430.769, 4302.051, 4081.538, 4172.308, 4446.154, 450, 0, []
1630162571.8053, 115, 0, 4429.231, 4338.462, 4085.641, 4180, 4446.667, 16169, 0, []
1630162571.8132, 116, 0, 4441.026, 4299.487, 4099.487, 4181.026, 4452.308, 450, 0, []
1630162571.8211, 117, 0, 4449.744, 4268.718, 4094.872, 4186.154, 4454.359, 450, 0, []
1630162571.829, 118, 0, 4445.128, 4316.41, 4120.513, 4193.333, 4451.795, 450, 0, []
1630162571.837, 119, 0, 4435.385, 4343.59, 4108.718, 4185.128, 4445.641, 16169, 0, []
1630162571.8449, 120, 0, 4418.462, 4301.538, 4092.308, 4173.333, 4423.59, 450, 0, []
1630162571.8529, 121, 0, 4408.718, 4276.41, 4097.949, 4173.333, 4408.205, 450, 0, []
1630162571.8607, 122, 0, 4413.333, 4291.282, 4096.41, 4179.487, 4416.923, 450, 0, []
1630162571.8687, 123, 0, 4401.538, 4301.026, 4116.923, 4182.564, 4413.846, 16169, 0, []
1630162571.8766, 124, 0, 4378.462, 4293.846, 4098.974, 4177.436, 4394.359, 450, 0, []
1630162571.8844, 125, 0, 4377.436, 4270.256, 4090.769, 4171.795, 4382.051, 450, 0, []
1630162571.8923, 126, 0, 4386.667, 4250.256, 4106.154, 4169.744, 4381.026, 450, 0, []
1630162571.9, 127, 0, 4381.026, 4252.308, 4090.769, 4166.154, 4377.436, 16169, 0, []
1630162571.9079, 128, 0, 4370.769, 4267.692, 4108.718, 4173.846, 4370.769, 450, 0, []
1630162571.9157, 0, 0, 4370.256, 4268.205, 4099.487, 4172.821, 4368.205, 450, 0, []
1630162571.9236, 1, 0, 4363.077, 4232.308, 4080, 4160.513, 4363.59, 450, 0, []
1630162571.9314, 2, 0, 4362.051, 4214.872, 4104.615, 4169.744, 4364.103, 16189, 0, []
1630162571.9393, 3, 0, 4381.538, 4260.513, 4105.128, 4192.308, 4380.513, 450, 0, []
1630162571.9472, 4, 0, 4381.026, 4290.769, 4110.769, 4190.769, 4384.103, 16071, 0, []
1630162571.9552, 5, 0, 4352.821, 4251.282, 4098.462, 4165.641, 4363.077, 450, 0, []
1630162571.9631, 6, 0, 4336.41, 4225.641, 4088.718, 4153.333, 4346.667, 238, 0, []
1630162571.9711, 7, 0, 4342.051, 4253.333, 4102.564, 4157.436, 4344.103, 450, 0, []
1630162571.9789, 8, 0, 4348.205, 4257.436, 4077.436, 4155.897, 4344.615, 450, 0, []
1630162571.9869, 9, 0, 4340, 4236.923, 4082.051, 4161.026, 4336.41, 16104, 0, []
1630162571.9948, 10, 0, 4328.205, 4254.359, 4092.821, 4170.256, 4323.077, 450, 0, []
1630162572.0028, 11, 0, 4336.41, 4277.436, 4098.974, 4178.462, 4330.769, 16192, 0, []
1630162572.0107, 12, 0, 4345.128, 4246.667, 4122.051, 4182.564, 4342.564, 450, 0, []
1630162572.0184, 13, 0, 4328.718, 4216.41, 4089.231, 4164.615, 4326.154, 450, 0, []
1630162572.0263, 14, 0, 4322.051, 4255.897, 4084.103, 4155.385, 4316.41, 450, 0, []
1630162572.0341, 15, 0, 4332.308, 4288.205, 4094.359, 4161.538, 4327.179, 16192, 0, []
1630162572.042, 16, 0, 4327.692, 4255.385, 4081.026, 4162.564, 4323.59, 0, 0, []
1630162572.0498, 17, 0, 4315.385, 4231.282, 4097.436, 4171.282, 4313.333, 0, 0, []
1630162572.0576, 18, 0, 4309.231, 4278.462, 4086.154, 4167.692, 4303.077, 0, 0, []
1630162572.0654, 19, 0, 4307.692, 4305.641, 4087.179, 4154.359, 4288.205, 0, 0, []
1630162572.0733, 20, 0, 4317.949, 4250.769, 4089.744, 4155.897, 4296.41, 0, 0, []
1630162572.0811, 21, 0, 4335.385, 4240.513, 4070.769, 4163.077, 4325.128, 0, 0, []
1630162572.0891, 22, 0, 4335.897, 4277.436, 4085.641, 4158.974, 4328.205, 0, 0, []
1630162572.097, 23, 0, 4336.41, 4251.282, 4077.949, 4154.359, 4326.667, 0, 0, []
1630162572.1049, 24, 0, 4356.923, 4242.051, 4088.718, 4168.205, 4353.846, 0, 0, []
1630162572.1128, 25, 0, 4371.282, 4291.282, 4105.641, 4171.795, 4366.667, 0, 0, []
1630162572.1208, 26, 0, 4371.282, 4280.513, 4080, 4166.667, 4366.154, 0, 0, []
1630162572.1287, 27, 0, 4364.103, 4248.205, 4087.179, 4166.667, 4366.667, 0, 0, []
1630162572.1367, 28, 0, 4355.385, 4282.564, 4080.513, 4150.769, 4347.179, 0, 0, []
1630162572.1445, 29, 0, 4360.513, 4284.615, 4078.974, 4146.667, 4344.615, 0, 0, []
1630162572.1525, 30, 0, 4373.333, 4251.795, 4090.769, 4165.641, 4370.256, 0, 0, []
1630162572.1604, 31, 0, 4366.667, 4287.692, 4062.564, 4166.667, 4369.231, 0, 0, []
1630162572.1682, 32, 0, 4355.385, 4320, 4070.256, 4153.846, 4349.744, 0, 0, []
1630162572.1761, 33, 0, 4356.923, 4269.231, 4071.282, 4151.282, 4356.923, 0, 0, []
1630162572.1838, 34, 0, 4351.795, 4246.154, 4068.718, 4154.359, 4357.949, 0, 0, []
1630162572.1917, 35, 0, 4346.667, 4292.308, 4083.59, 4162.564, 4343.59, 0, 0, []
1630162572.1995, 36, 0, 4350.769, 4280.513, 4060, 4170.769, 4343.59, 0, 0, []
1630162572.2074, 37, 0, 4353.846, 4237.436, 4072.821, 4176.41, 4350.256, 0, 0, []
1630162572.2152, 38, 0, 4357.436, 4265.641, 4074.359, 4172.821, 4358.974, 0, 0, []
1630162572.223, 39, 0, 4357.436, 4285.128, 4047.179, 4160.513, 4355.385, 0, 0, []
1630162572.2308, 40, 0, 4344.615, 4233.333, 4053.846, 4157.949, 4338.462, 0, 0, []
1630162572.2388, 41, 0, 4348.718, 4218.974, 4055.897, 4168.718, 4345.641, 0, 0, []
1630162572.2467, 42, 0, 4363.59, 4262.564, 4083.59, 4178.974, 4357.436, 0, 0, []
1630162572.2547, 43, 0, 4347.179, 4260, 4083.077, 4161.538, 4332.308, 0, 0, []
1630162572.2625, 44, 0, 4349.744, 4229.744, 4075.897, 4157.949, 4330.769, 0, 0, []
1630162572.2705, 45, 0, 4402.051, 4249.231, 4118.462, 4196.41, 4387.179, 0, 0, []
1630162572.2784, 46, 0, 4421.026, 4289.231, 4110.769, 4217.949, 4408.205, 0, 0, []
1630162572.2864, 47, 0, 4397.436, 4293.333, 4104.103, 4216.923, 4386.154, 0, 0, []
1630162572.2943, 48, 0, 4401.026, 4278.462, 4111.282, 4226.154, 4392.308, 0, 0, []
1630162572.3022, 49, 0, 4404.615, 4270.256, 4107.692, 4229.744, 4396.923, 0, 0, []
1630162572.3101, 50, 0, 4381.026, 4273.846, 4131.795, 4217.436, 4368.718, 0, 0, []
1630162572.3179, 51, 0, 4385.641, 4290.256, 4125.128, 4212.821, 4363.59, 0, 0, []
1630162572.3258, 52, 0, 4397.436, 4287.179, 4127.179, 4211.282, 4380.513, 0, 0, []
1630162572.3336, 53, 0, 4380, 4268.718, 4130.256, 4193.333, 4372.821, 0, 0, []
1630162572.3414, 54, 0, 4376.923, 4280, 4106.667, 4191.795, 4361.538, 0, 0, []
1630162572.3492, 55, 0, 4381.538, 4283.59, 4123.59, 4216.923, 4361.538, 0, 0, []
1630162572.3571, 56, 0, 4357.436, 4243.59, 4121.538, 4224.103, 4346.667, 0, 0, []
1630162572.3649, 57, 0, 4333.333, 4219.487, 4121.026, 4213.333, 4323.59, 0, 0, []
1630162572.3729, 58, 0, 4333.333, 4218.462, 4125.128, 4205.128, 4322.564, 0, 0, []
1630162572.3807, 59, 0, 4338.462, 4206.154, 4105.641, 4195.385, 4336.923, 0, 0, []
1630162572.3886, 60, 0, 4350.769, 4220, 4126.154, 4187.179, 4343.077, 0, 0, []
1630162572.3964, 61, 0, 4365.128, 4257.436, 4120, 4161.538, 4341.538, 0, 0, []
1630162572.4043, 62, 0, 4350.256, 4235.385, 4120.513, 4128.718, 4332.308, 0, 0, []
1630162572.4121, 63, 0, 4320, 4214.872, 4146.667, 4132.821, 4304.615, 0, 0, []
1630162572.42, 64, 0, 4306.667, 4248.205, 4138.462, 4164.615, 4279.487, 450, 0, []
1630162572.4279, 65, 0, 4297.949, 4226.154, 4147.179, 4189.231, 4277.949, 450, 0, []
1630162572.4359, 66, 0, 4276.923, 4171.795, 4127.179, 4199.487, 4271.795, 16193, 0, []
1630162572.4438, 67, 0, 4280.513, 4191.282, 4122.051, 4223.077, 4274.359, 450, 0, []
1630162572.4518, 68, 0, 4321.026, 4218.974, 4148.205, 4246.154, 4312.308, 16072, 0, []
1630162572.4597, 69, 0, 4341.538, 4180, 4130.256, 4236.41, 4338.462, 450, 0, []
1630162572.4676, 70, 0, 4336.923, 4150.769, 4143.077, 4222.051, 4325.641, 238, 0, []
1630162572.4755, 71, 0, 4334.872, 4167.179, 4137.436, 4212.821, 4314.872, 450, 0, []
1630162572.4833, 72, 0, 4308.205, 4189.231, 4105.128, 4187.179, 4296.923, 450, 0, []
1630162572.4912, 73, 0, 4265.128, 4186.667, 4103.077, 4163.077, 4256.41, 16106, 0, []
1630162572.499, 74, 0, 4256.923, 4161.026, 4079.487, 4160, 4244.615, 450, 0, []
1630162572.5068, 75, 0, 4270.256, 4152.821, 4086.154, 4172.821, 4260.513, 16208, 0, []
1630162572.5146, 76, 0, 4263.59, 4147.692, 4096.41, 4182.051, 4254.359, 450, 0, []
1630162572.5225, 77, 0, 4261.538, 4134.359, 4104.103, 4188.205, 4259.487, 450, 0, []
1630162572.5303, 78, 0, 4290.769, 4167.179, 4127.179, 4201.026, 4307.692, 450, 0, []
1630162572.5382, 79, 0, 4310.769, 4210.256, 4105.641, 4203.59, 4306.154, 16208, 0, []
1630162572.5459, 80, 0, 4300.513, 4192.308, 4113.333, 4191.282, 4315.385, 450, 0, []
1630162572.5539, 81, 0, 4291.282, 4155.897, 4116.41, 4170.256, 4495.385, 450, 0, []
1630162572.5618, 82, 0, 4294.359, 4165.128, 4093.846, 4152.308, 4696.41, 450, 0, []
1630162572.5698, 83, 0, 4289.744, 4188.718, 4121.538, 4151.795, 4733.333, 16208, 0, []
1630162572.5777, 84, 0, 4292.821, 4173.333, 4141.538, 4155.897, 4719.487, 450, 0, []
1630162572.5856, 85, 0, 4312.308, 4142.564, 4161.026, 4167.692, 4754.872, 450, 0, []
1630162572.5935, 86, 0, 4304.103, 4117.949, 4140.513, 4170.769, 4749.744, 450, 0, []
1630162572.6015, 87, 0, 4272.821, 4123.077, 4096.923, 4162.051, 4707.692, 16208, 0, []
1630162572.6094, 88, 0, 4272.308, 4161.026, 4129.231, 4184.103, 4705.641, 450, 0, []
1630162572.6174, 89, 0, 4295.385, 4168.718, 4120.513, 4200.513, 4716.923, 450, 0, []
1630162572.6252, 90, 0, 4293.333, 4142.051, 4086.667, 4183.077, 4705.641, 450, 0, []
1630162572.6332, 91, 0, 4268.718, 4129.744, 4085.641, 4166.154, 4686.154, 16208, 0, []
1630162572.6411, 92, 0, 4262.564, 4118.974, 4080, 4167.179, 4678.462, 450, 0, []
1630162572.6489, 93, 0, 4272.821, 4108.205, 4099.487, 4181.538, 4677.436, 450, 0, []
1630162572.6568, 94, 0, 4273.333, 4146.154, 4101.026, 4194.872, 4676.41, 450, 0, []
1630162572.6645, 95, 0, 4262.051, 4158.462, 4115.897, 4198.974, 4666.667, 16208, 0, []
1630162572.6724, 96, 0, 4251.795, 4092.821, 4130.256, 4183.59, 4648.205, 450, 0, []
1630162572.6802, 97, 0, 4243.077, 4055.897, 4094.872, 4163.59, 4633.846, 450, 0, []
1630162572.6881, 98, 0, 4231.282, 4082.564, 4093.846, 4171.795, 4615.385, 450, 0, []
1630162572.6959, 99, 0, 4226.667, 4097.949, 4086.667, 4175.897, 4598.462, 16208, 0, []
1630162572.7038, 100, 0, 4235.385, 4094.359, 4084.615, 4160, 4594.872, 450, 0, []
1630162572.7117, 101, 0, 4247.692, 4152.308, 4102.051, 4161.026, 4600.513, 450, 0, []
1630162572.7197, 102, 0, 4250.769, 4221.026, 4089.231, 4177.436, 4605.641, 450, 0, []
1630162572.7276, 103, 0, 4250.769, 4210.256, 4112.821, 4185.641, 4606.154, 16208, 0, []
1630162572.7356, 104, 0, 4252.821, 4201.026, 4111.795, 4178.974, 4602.051, 450, 0, []
1630162572.7434, 105, 0, 4242.564, 4224.615, 4090.769, 4176.923, 4586.154, 450, 0, []
1630162572.7514, 106, 0, 4225.641, 4192.308, 4101.026, 4178.462, 4556.923, 450, 0, []
1630162572.7593, 107, 0, 4224.615, 4161.538, 4077.436, 4170.769, 4545.128, 16208, 0, []
1630162572.7673, 108, 0, 4232.308, 4208.205, 4082.564, 4168.205, 4558.974, 450, 0, []
1630162572.7752, 109, 0, 4232.308, 4241.026, 4087.179, 4166.667, 4553.846, 450, 0, []
1630162572.7829, 110, 0, 4239.487, 4241.538, 4081.026, 4164.615, 4543.077, 450, 0, []
1630162572.7908, 111, 0, 4253.333, 4245.128, 4101.538, 4166.667, 4556.41, 16208, 0, []
1630162572.7986, 112, 0, 4244.103, 4233.333, 4081.538, 4164.103, 4550.769, 450, 0, []
1630162572.8065, 113, 0, 4226.154, 4209.231, 4080, 4161.538, 4523.59, 450, 0, []
1630162572.8143, 114, 0, 4228.718, 4185.641, 4076.923, 4157.436, 4516.41, 450, 0, []
1630162572.8222, 115, 0, 4236.41, 4180, 4065.128, 4157.436, 4520.513, 16208, 0, []
1630162572.8299, 116, 0, 4240.513, 4210.256, 4097.949, 4169.231, 4517.436, 450, 0, []
1630162572.8378, 117, 0, 4264.615, 4249.744, 4087.179, 4171.282, 4525.128, 450, 0, []
1630162572.8456, 118, 0, 4289.231, 4256.41, 4078.974, 4166.154, 4543.077, 450, 0, []
1630162572.8535, 119, 0, 4281.538, 4238.462, 4076.923, 4160.513, 4535.385, 16208, 0, []
1630162572.8613, 120, 0, 4260.513, 4219.487, 4057.949, 4155.897, 4503.077, 450, 0, []
1630162572.8692, 121, 0, 4246.154, 4212.308, 4076.41, 4155.385, 4476.41, 450, 0, []
1630162572.8771, 122, 0, 4226.154, 4217.436, 4065.641, 4147.692, 4458.974, 450, 0, []
1630162572.8851, 123, 0, 4202.051, 4217.949, 4067.692, 4148.718, 4438.974, 16208, 0, []
1630162572.893, 124, 0, 4196.923, 4218.462, 4083.077, 4160, 4434.359, 450, 0, []
1630162572.901, 125, 0, 4219.487, 4236.923, 4071.795, 4170.256, 4454.872, 450, 0, []
1630162572.9088, 126, 0, 4235.385, 4260.513, 4093.846, 4186.154, 4464.103, 450, 0, []
1630162572.9168, 127, 0, 4215.897, 4271.282, 4088.718, 4186.667, 4445.641, 16208, 0, []
1630162572.9247, 128, 0, 4186.154, 4258.974, 4082.051, 4167.692, 4418.462, 450, 0, []
1630162572.9327, 0, 0, 4182.051, 4246.667, 4090.769, 4155.385, 4402.564, 450, 0, []
1630162572.9406, 1, 0, 4188.205, 4245.128, 4072.308, 4153.333, 4394.872, 450, 0, []
1630162572.9483, 2, 0, 4180.513, 4228.718, 4076.923, 4150.769, 4380, 16192, 0, []
1630162572.9562, 3, 0, 4169.744, 4229.744, 4070.256, 4144.103, 4364.103, 450, 0, []
1630162572.964, 4, 0, 4169.231, 4255.897, 4081.538, 4147.692, 4357.436, 16078, 0, []
1630162572.9719, 5, 0, 4177.436, 4254.872, 4110.256, 4156.41, 4360, 450, 0, []
1630162572.9797, 6, 0, 4188.718, 4249.744, 4087.692, 4152.821, 4357.436, 243, 0, []
1630162572.9875, 7, 0, 4191.282, 4266.154, 4089.744, 4148.205, 4345.641, 450, 0, []
1630162572.9953, 8, 0, 4172.821, 4253.846, 4083.077, 4140, 4325.128, 450, 0, []
1630162573.0032, 9, 0, 4154.872, 4233.846, 4073.846, 4136.923, 4310.256, 16095, 0, []
1630162573.011, 10, 0, 4160.513, 4245.128, 4100.513, 4146.154, 4310.256, 450, 0, []
1630162573.019, 11, 0, 4167.692, 4243.59, 4088.718, 4150.256, 4308.205, 16203, 0, []
1630162573.0268, 12, 0, 4170.769, 4234.872, 4098.974, 4155.385, 4307.692, 450, 0, []
1630162573.0348, 13, 0, 4182.564, 4242.564, 4100, 4158.462, 4316.923, 450, 0, []
1630162573.0427, 14, 0, 4181.026, 4245.641, 4079.487, 4157.949, 4311.795, 450, 0, []
1630162573.0507, 15, 0, 4165.128, 4238.974, 4086.154, 4154.872, 4298.462, 16203, 0, []
1630162573.0586, 16, 0, 4170.769, 4229.231, 4067.692, 4147.692, 4305.128, 0, 0, []
1630162573.0665, 17, 0, 4186.154, 4221.538, 4081.026, 4149.231, 4311.282, 0, 0, []
1630162573.0744, 18, 0, 4177.949, 4240, 4087.692, 4152.308, 4296.41, 0, 0, []
1630162573.0824, 19, 0, 4161.026, 4256.923, 4068.718, 4147.692, 4283.077, 0, 0, []
1630162573.0903, 20, 0, 4160.513, 4238.462, 4084.615, 4143.077, 4277.949, 0, 0, []
1630162573.0981, 21, 0, 4170.769, 4230.769, 4069.744, 4142.051, 4282.564, 0, 0, []
1630162573.1059, 22, 0, 4171.795, 4231.282, 4078.462, 4149.231, 4298.974, 0, 0, []
1630162573.1137, 23, 0, 4165.641, 4218.462, 4097.436, 4151.795, 4299.487, 0, 0, []
1630162573.1216, 24, 0, 4169.744, 4216.923, 4083.077, 4148.718, 4279.487, 0, 0, []
1630162573.1294, 25, 0, 4177.436, 4216.41, 4091.282, 4154.872, 4276.41, 0, 0, []
1630162573.1373, 26, 0, 4167.179, 4202.564, 4077.436, 4153.846, 4281.026, 0, 0, []
1630162573.145, 27, 0, 4152.821, 4204.615, 4081.026, 4146.154, 4262.051, 0, 0, []
1630162573.1529, 28, 0, 4161.026, 4220.513, 4090.769, 4152.308, 4249.231, 0, 0, []
1630162573.1607, 29, 0, 4175.385, 4191.282, 4071.795, 4160.513, 4262.564, 0, 0, []
1630162573.1687, 30, 0, 4157.436, 4148.205, 4092.821, 4156.923, 4259.487, 0, 0, []
1630162573.1766, 31, 0, 4135.385, 4150.769, 4090.256, 4142.564, 4232.308, 0, 0, []
1630162573.1846, 32, 0, 4150.256, 4149.744, 4090.256, 4145.641, 4227.179, 0, 0, []
1630162573.1924, 33, 0, 4163.59, 4129.231, 4110.256, 4158.974, 4237.436, 0, 0, []
1630162573.2004, 34, 0, 4144.615, 4132.821, 4095.897, 4151.795, 4230.256, 0, 0, []
1630162573.2083, 35, 0, 4129.231, 4139.487, 4097.949, 4141.538, 4212.821, 0, 0, []
1630162573.2163, 36, 0, 4126.667, 4112.308, 4073.846, 4132.308, 4197.949, 0, 0, []
1630162573.2242, 37, 0, 4117.949, 4090.256, 4064.615, 4125.641, 4187.692, 0, 0, []
1630162573.2321, 38, 0, 4111.795, 4086.667, 4080, 4123.077, 4182.564, 0, 0, []
1630162573.24, 39, 0, 4114.359, 4090.769, 4052.821, 4115.897, 4181.538, 0, 0, []
1630162573.2478, 40, 0, 4114.872, 4121.026, 4065.128, 4120.513, 4178.462, 0, 0, []
1630162573.2557, 41, 0, 4110.769, 4123.59, 4065.641, 4127.692, 4165.128, 0, 0, []
1630162573.2635, 42, 0, 4102.564, 4091.282, 4051.795, 4122.051, 4151.795, 0, 0, []
1630162573.2713, 43, 0, 4095.897, 4094.359, 4070.769, 4117.949, 4152.821, 0, 0, []
1630162573.2791, 44, 0, 4091.282, 4117.949, 4057.436, 4109.744, 4155.385, 0, 0, []
1630162573.287, 45, 0, 4092.308, 4125.128, 4062.051, 4103.59, 4147.692, 0, 0, []
1630162573.2948, 46, 0, 4097.436, 4124.103, 4063.59, 4105.128, 4136.923, 0, 0, []
1630162573.3027, 47, 0, 4089.744, 4118.462, 4054.359, 4106.154, 4115.385, 0, 0, []
1630162573.3104, 48, 0, 4067.179, 4096.41, 4066.667, 4103.59, 4093.846, 0, 0, []
1630162573.3183, 49, 0, 4057.949, 4079.487, 4052.308, 4102.564, 4094.359, 0, 0, []
1630162573.3261, 50, 0, 4057.436, 4086.154, 4068.718, 4105.128, 4093.846, 0, 0, []
1630162573.334, 51, 0, 4047.179, 4082.564, 4076.41, 4096.41, 4082.051, 0, 0, []
1630162573.3418, 52, 0, 4046.154, 4068.205, 4060.513, 4084.615, 4078.974, 0, 0, []
1630162573.3497, 53, 0, 4062.051, 4101.026, 4074.359, 4089.231, 4084.615, 0, 0, []
1630162573.3576, 54, 0, 4075.385, 4134.359, 4051.282, 4098.462, 4089.231, 0, 0, []
1630162573.3656, 55, 0, 4075.385, 4088.718, 4049.744, 4110.769, 4093.333, 0, 0, []
1630162573.3735, 56, 0, 4072.308, 4077.949, 4064.103, 4118.462, 4096.923, 0, 0, []
1630162573.3815, 57, 0, 4080.513, 4140, 4060, 4117.436, 4107.179, 0, 0, []
1630162573.3893, 58, 0, 4090.769, 4126.154, 4084.103, 4121.026, 4117.436, 0, 0, []
1630162573.3973, 59, 0, 4090.256, 4079.487, 4067.179, 4120, 4104.615, 0, 0, []
1630162573.4052, 60, 0, 4076.41, 4120.513, 4057.436, 4114.359, 4081.538, 0, 0, []
1630162573.413, 61, 0, 4066.667, 4152.308, 4066.154, 4118.974, 4076.41, 0, 0, []
1630162573.4209, 62, 0, 4076.41, 4110.256, 4055.385, 4130.769, 4086.154, 0, 0, []
1630162573.4286, 63, 0, 4093.333, 4102.051, 4067.692, 4135.897, 4094.872, 0, 0, []
1630162573.4365, 64, 0, 4090.256, 4131.282, 4045.128, 4117.436, 4093.333, 450, 0, []
1630162573.4443, 65, 0, 4068.718, 4126.154, 4041.538, 4097.949, 4082.051, 450, 0, []
1630162573.4522, 66, 0, 4054.359, 4120.513, 4061.538, 4101.538, 4068.718, 16189, 0, []
1630162573.46, 67, 0, 4061.538, 4128.718, 4037.436, 4112.308, 4062.051, 450, 0, []
1630162573.4678, 68, 0, 4076.923, 4114.872, 4042.051, 4120.513, 4067.692, 16080, 0, []
1630162573.4756, 69, 0, 4083.59, 4127.692, 4038.974, 4118.462, 4079.487, 450, 0, []
1630162573.4836, 70, 0, 4071.795, 4164.615, 4043.077, 4114.872, 4075.385, 240, 0, []
1630162573.4915, 71, 0, 4055.385, 4148.718, 4068.205, 4111.795, 4062.051, 450, 0, []
1630162573.4995, 72, 0, 4053.333, 4128.205, 4051.282, 4101.026, 4061.026, 450, 0, []
1630162573.5074, 73, 0, 4061.538, 4154.872, 4053.333, 4106.154, 4062.051, 16094, 0, []
1630162573.5153, 74, 0, 4066.667, 4166.154, 4049.231, 4126.667, 4060.513, 450, 0, []
1630162573.5232, 75, 0, 4064.615, 4131.795, 4045.128, 4132.821, 4056.923, 16201, 0, []
1630162573.5312, 76, 0, 4053.333, 4128.718, 4057.436, 4114.359, 4041.026, 450, 0, []
1630162573.5391, 77, 0, 4048.718, 4164.615, 4043.59, 4098.974, 4035.897, 450, 0, []
1630162573.5471, 78, 0, 4057.949, 4171.282, 4069.231, 4106.667, 4052.821, 450, 0, []
1630162573.5549, 79, 0, 4074.359, 4176.923, 4084.103, 4117.949, 4065.641, 16201, 0, []
1630162573.5629, 80, 0, 4111.795, 4214.872, 4087.179, 4144.103, 4085.641, 450, 0, []
1630162573.5708, 81, 0, 4155.897, 4248.205, 4116.923, 4186.667, 4123.077, 450, 0, []
1630162573.5787, 82, 0, 4160, 4232.308, 4096.923, 4193.333, 4141.538, 450, 0, []
1630162573.5866, 83, 0, 4137.949, 4202.051, 4092.821, 4175.385, 4121.538, 16201, 0, []
1630162573.5943, 84, 0, 4138.462, 4218.462, 4099.487, 4172.308, 4102.051, 450, 0, []
1630162573.6022, 85, 0, 4137.949, 4247.179, 4080.513, 4168.718, 4096.923, 450, 0, []
1630162573.61, 86, 0, 4107.179, 4231.282, 4066.667, 4144.615, 4083.077, 450, 0, []
1630162573.6179, 87, 0, 4077.436, 4180.513, 4025.641, 4110.256, 4054.359, 16201, 0, []
1630162573.6258, 88, 0, 4061.538, 4157.949, 4030.769, 4097.949, 4028.718, 450, 0, []
1630162573.6336, 89, 0, 4058.462, 4176.41, 4055.897, 4110.256, 4027.179, 450, 0, []
1630162573.6414, 90, 0, 4082.564, 4195.897, 4064.615, 4131.795, 4052.821, 450, 0, []
1630162573.6493, 91, 0, 4122.051, 4212.821, 4105.128, 4152.821, 4086.667, 16201, 0, []
1630162573.6571, 92, 0, 4138.974, 4223.077, 4093.333, 4146.154, 4101.026, 450, 0, []
1630162573.6651, 93, 0, 4136.41, 4231.795, 4086.667, 4134.359, 4103.59, 450, 0, []
1630162573.6729, 94, 0, 4144.615, 4254.872, 4106.154, 4141.538, 4110.256, 450, 0, []
1630162573.6809, 95, 0, 4149.744, 4269.744, 4094.872, 4148.205, 4107.179, 16201, 0, []
1630162573.6888, 96, 0, 4151.282, 4246.667, 4108.205, 4151.795, 4109.744, 450, 0, []
1630162573.6968, 97, 0, 4160.513, 4230.769, 4089.744, 4146.667, 4114.872, 450, 0, []
1630162573.7047, 98, 0, 4159.487, 4252.308, 4074.359, 4139.487, 4101.538, 450, 0, []
1630162573.7126, 99, 0, 4140.513, 4263.59, 4085.641, 4142.564, 4086.667, 16201, 0, []
1630162573.7205, 100, 0, 4128.718, 4268.718, 4075.897, 4148.718, 4086.154, 450, 0, []
1630162573.7283, 101, 0, 4141.538, 4270.769, 4105.128, 4155.897, 4090.769, 450, 0, []
1630162573.7362, 102, 0, 4163.077, 4247.179, 4115.897, 4161.026, 4098.974, 450, 0, []
1630162573.744, 103, 0, 4174.359, 4240, 4115.385, 4171.795, 4121.026, 16201, 0, []
1630162573.7518, 104, 0, 4169.231, 4258.974, 4120.513, 4174.359, 4129.231, 450, 0, []
1630162573.7596, 105, 0, 4165.128, 4255.897, 4093.333, 4160, 4111.282, 450, 0, []
1630162573.7675, 106, 0, 4180.513, 4267.179, 4109.744, 4167.692, 4107.692, 450, 0, []
1630162573.7753, 107, 0, 4181.026, 4290.256, 4111.795, 4177.949, 4114.872, 16201, 0, []
1630162573.7832, 108, 0, 4148.205, 4272.308, 4091.282, 4155.897, 4091.795, 450, 0, []
1630162573.7909, 109, 0, 4119.487, 4254.872, 4093.333, 4132.308, 4057.436, 450, 0, []
1630162573.7989, 110, 0, 4119.487, 4253.846, 4073.846, 4134.872, 4052.308, 450, 0, []
1630162573.8068, 111, 0, 4121.026, 4247.179, 4079.487, 4142.564, 4052.821, 16201, 0, []
1630162573.8148, 112, 0, 4112.821, 4260, 4080, 4132.821, 4042.564, 450, 0, []
1630162573.8227, 113, 0, 4106.667, 4270.256, 4075.385, 4130.256, 4036.41, 450, 0, []
1630162573.8306, 114, 0, 4103.59, 4246.667, 4090.256, 4144.103, 4028.718, 450, 0, []
1630162573.8385, 115, 0, 4105.641, 4245.128, 4069.231, 4147.692, 4021.026, 16201, 0, []
1630162573.8465, 116, 0, 4106.154, 4267.692, 4078.974, 4145.641, 4030.769, 450, 0, []
1630162573.8544, 117, 0, 4099.487, 4255.897, 4082.564, 4144.103, 4042.051, 450, 0, []
1630162573.8624, 118, 0, 4092.821, 4236.41, 4068.205, 4140.513, 4023.59, 450, 0, []
1630162573.8703, 119, 0, 4092.821, 4247.692, 4094.359, 4148.205, 4004.103, 16201, 0, []
1630162573.878, 120, 0, 4093.333, 4269.744, 4084.615, 4149.744, 4012.821, 450, 0, []
1630162573.8859, 121, 0, 4084.103, 4275.385, 4081.538, 4141.538, 4018.974, 450, 0, []
1630162573.8937, 122, 0, 4077.436, 4253.846, 4087.179, 4138.462, 4008.718, 450, 0, []
1630162573.9016, 123, 0, 4084.103, 4220.513, 4075.897, 4143.077, 4002.564, 16201, 0, []
1630162573.9094, 124, 0, 4090.769, 4222.051, 4094.359, 4154.872, 4005.641, 450, 0, []
1630162573.9172, 125, 0, 4081.026, 4244.615, 4078.974, 4155.385, 4006.154, 450, 0, []
1630162573.925, 126, 0, 4061.538, 4256.41, 4074.872, 4147.692, 4000, 450, 0, []
1630162573.9329, 127, 0, 4058.974, 4265.128, 4087.179, 4142.051, 3997.949, 16201, 0, []
1630162573.9407, 128, 0, 4079.487, 4280.513, 4075.897, 4147.179, 4007.692, 450, 0, []
1630162573.9487, 0, 0, 4090.769, 4289.231, 4092.308, 4155.385, 4006.667, 450, 0, []
1630162573.9565, 1, 0, 4078.974, 4306.667, 4085.128, 4149.231, 3989.744, 450, 0, []
1630162573.9645, 2, 0, 4073.333, 4358.974, 4086.154, 4152.821, 3991.795, 16184, 0, []
1630162573.9724, 3, 0, 4082.564, 4361.026, 4099.487, 4165.641, 4010.769, 450, 0, []
1630162573.9804, 4, 0, 4090.769, 4303.077, 4086.667, 4168.718, 4016.923, 16077, 0, []
1630162573.9883, 5, 0, 4101.026, 4295.897, 4112.308, 4173.333, 4016.41, 450, 0, []
1630162573.9962, 6, 0, 4097.949, 4307.179, 4109.231, 4173.333, 4011.282, 240, 0, []
1630162574.0041, 7, 0, 4068.718, 4274.359, 4092.308, 4166.154, 3993.846, 450, 0, []
1630162574.0121, 8, 0, 4050.769, 4254.359, 4099.487, 4156.923, 3981.026, 450, 0, []
1630162574.02, 9, 0, 4061.026, 4260, 4082.564, 4145.641, 3984.103, 16094, 0, []
1630162574.028, 10, 0, 4073.846, 4265.128, 4098.462, 4144.615, 3988.205, 450, 0, []
1630162574.0358, 11, 0, 4078.462, 4273.333, 4095.385, 4148.718, 3988.205, 16154, 0, []
1630162574.0436, 12, 0, 4080, 4265.641, 4081.026, 4152.308, 3988.205, 450, 0, []
1630162574.0515, 13, 0, 4069.744, 4242.564, 4092.821, 4156.41, 3986.667, 450, 0, []
1630162574.0593, 14, 0, 4053.846, 4249.231, 4075.897, 4146.154, 3982.564, 450, 0, []
1630162574.0672, 15, 0, 4054.872, 4265.641, 4096.41, 4139.487, 3980, 16154, 0, []
1630162574.0749, 16, 0, 4072.308, 4265.641, 4103.59, 4151.282, 3983.077, 0, 0, []
1630162574.0828, 17, 0, 4083.077, 4263.59, 4084.103, 4163.59, 3990.769, 0, 0, []
1630162574.0906, 18, 0, 4074.872, 4256.41, 4091.795, 4162.564, 3990.256, 0, 0, []
1630162574.0985, 19, 0, 4067.692, 4250.769, 4077.436, 4153.846, 3988.205, 0, 0, []
1630162574.1063, 20, 0, 4082.564, 4240, 4097.949, 4156.923, 4007.179, 0, 0, []
1630162574.1142, 21, 0, 4098.974, 4229.744, 4101.538, 4160, 4020.513, 0, 0, []
1630162574.1221, 22, 0, 4089.744, 4249.744, 4070.256, 4158.974, 3998.462, 0, 0, []
1630162574.1301, 23, 0, 4080.513, 4254.359, 4083.59, 4161.538, 3984.615, 0, 0, []
1630162574.138, 24, 0, 4097.436, 4215.897, 4081.026, 4156.41, 4009.231, 0, 0, []
1630162574.146, 25, 0, 4112.821, 4198.462, 4086.154, 4149.744, 4030.769, 0, 0, []
1630162574.1538, 26, 0, 4105.128, 4224.103, 4088.718, 4141.538, 4020, 0, 0, []
1630162574.1618, 27, 0, 4095.385, 4246.154, 4077.949, 4137.949, 4005.641, 0, 0, []
1630162574.1697, 28, 0, 4094.872, 4235.385, 4097.436, 4147.179, 4009.231, 0, 0, []
1630162574.1777, 29, 0, 4094.872, 4211.282, 4075.897, 4144.103, 4013.846, 0, 0, []
1630162574.1856, 30, 0, 4091.282, 4227.692, 4064.615, 4134.872, 4012.308, 0, 0, []
1630162574.1933, 31, 0, 4082.051, 4240, 4072.308, 4132.308, 3999.487, 0, 0, []
1630162574.2012, 32, 0, 4080.513, 4192.821, 4057.436, 4130.769, 3987.692, 0, 0, []
1630162574.209, 33, 0, 4097.436, 4183.59, 4073.333, 4134.359, 3996.41, 0, 0, []
1630162574.2169, 34, 0, 4109.231, 4231.282, 4071.795, 4135.897, 4012.308, 0, 0, []
1630162574.2247, 35, 0, 4097.949, 4204.103, 4080.513, 4140, 4019.487, 0, 0, []
1630162574.2326, 36, 0, 4089.744, 4155.385, 4097.949, 4147.692, 4018.462, 0, 0, []
1630162574.2403, 37, 0, 4098.462, 4181.026, 4082.051, 4153.333, 4011.282, 0, 0, []
1630162574.2482, 38, 0, 4108.205, 4172.308, 4093.333, 4155.385, 4006.154, 0, 0, []
1630162574.256, 39, 0, 4109.744, 4135.897, 4076.41, 4147.179, 4012.821, 0, 0, []
1630162574.264, 40, 0, 4099.487, 4130.256, 4058.974, 4141.538, 4019.487, 0, 0, []
1630162574.2719, 41, 0, 4084.103, 4103.59, 4069.744, 4140.513, 4014.872, 0, 0, []
1630162574.2798, 42, 0, 4083.59, 4090.256, 4062.051, 4136.923, 4007.692, 0, 0, []
1630162574.2877, 43, 0, 4099.487, 4124.615, 4086.154, 4139.487, 4005.128, 0, 0, []
1630162574.2957, 44, 0, 4110.256, 4131.795, 4081.538, 4142.051, 4014.872, 0, 0, []
1630162574.3036, 45, 0, 4104.615, 4098.974, 4067.179, 4143.077, 4023.077, 0, 0, []
1630162574.3116, 46, 0, 4095.385, 4104.103, 4088.205, 4144.103, 4018.462, 0, 0, []
1630162574.3194, 47, 0, 4092.821, 4143.077, 4072.821, 4135.385, 4012.308, 0, 0, []
1630162574.3274, 48, 0, 4098.974, 4157.949, 4073.846, 4129.744, 4003.59, 0, 0, []
1630162574.3353, 49, 0, 4105.641, 4130.769, 4070.256, 4136.41, 3998.462, 0, 0, []
1630162574.3431, 50, 0, 4106.667, 4109.231, 4064.615, 4143.077, 4010.769, 0, 0, []
1630162574.351, 51, 0, 4104.103, 4131.795, 4092.308, 4144.103, 4027.179, 0, 0, []
1630162574.3587, 52, 0, 4104.615, 4142.051, 4075.897, 4134.872, 4027.179, 0, 0, []
1630162574.3666, 53, 0, 4105.128, 4143.077, 4077.436, 4133.333, 4016.923, 0, 0, []
1630162574.3744, 54, 0, 4101.026, 4157.436, 4084.103, 4140.513, 4010.256, 0, 0, []
1630162574.3823, 55, 0, 4101.538, 4141.538, 4060.513, 4141.026, 4010.256, 0, 0, []
1630162574.3901, 56, 0, 4105.641, 4129.744, 4066.154, 4141.026, 4019.487, 0, 0, []
1630162574.3979, 57, 0, 4107.179, 4138.462, 4065.128, 4140.513, 4024.615, 0, 0, []
1630162574.4057, 58, 0, 4115.385, 4126.667, 4080, 4142.564, 4025.641, 0, 0, []
1630162574.4137, 59, 0, 4132.308, 4120, 4080, 4143.59, 4043.077, 0, 0, []
1630162574.4216, 60, 0, 4140, 4127.692, 4065.641, 4135.897, 4061.026, 0, 0, []
1630162574.4295, 61, 0, 4138.974, 4116.41, 4087.692, 4135.897, 4051.795, 0, 0, []
1630162574.4372, 62, 0, 4138.462, 4122.564, 4063.077, 4144.103, 4036.923, 0, 0, []
1630162574.4452, 63, 0, 4126.667, 4141.026, 4052.821, 4153.333, 4030.769, 0, 0, []
1630162574.4531, 64, 0, 4108.205, 4120, 4067.692, 4149.231, 4021.538, 450, 0, []
1630162574.4611, 65, 0, 4107.179, 4091.795, 4055.385, 4134.872, 4021.026, 450, 0, []
1630162574.469, 66, 0, 4121.538, 4100, 4080.513, 4140.513, 4036.41, 16184, 0, []
1630162574.4769, 67, 0, 4132.308, 4130.769, 4085.641, 4151.282, 4047.179, 450, 0, []
1630162574.4848, 68, 0, 4135.385, 4136.41, 4086.154, 4153.333, 4048.205, 16081, 0, []
1630162574.4928, 69, 0, 4136.41, 4106.154, 4086.154, 4152.308, 4049.744, 450, 0, []
1630162574.5007, 70, 0, 4131.795, 4116.923, 4053.333, 4147.692, 4044.615, 245, 0, []
1630162574.5085, 71, 0, 4122.051, 4151.795, 4063.077, 4147.179, 4026.154, 450, 0, []
1630162574.5163, 72, 0, 4123.59, 4117.949, 4061.026, 4148.205, 4020.513, 450, 0, []
1630162574.5241, 73, 0, 4138.462, 4092.821, 4069.744, 4154.359, 4047.692, 16094, 0, []
1630162574.532, 74, 0, 4144.103, 4146.154, 4094.872, 4157.436, 4064.103, 450, 0, []
1630162574.5398, 75, 0, 4142.564, 4176.41, 4073.333, 4150.769, 4047.692, 16189, 0, []
1630162574.5477, 76, 0, 4147.179, 4154.359, 4083.59, 4151.795, 4044.103, 450, 0, []
1630162574.5555, 77, 0, 4138.462, 4131.282, 4086.667, 4151.282, 4053.846, 450, 0, []
1630162574.5633, 78, 0, 4123.077, 4120.513, 4079.487, 4146.154, 4044.615, 450, 0, []
1630162574.5711, 79, 0, 4130.256, 4120, 4091.282, 4141.026, 4034.872, 16189, 0, []
1630162574.579, 80, 0, 4146.667, 4122.564, 4063.077, 4132.308, 4043.59, 450, 0, []
1630162574.5868, 81, 0, 4136.41, 4130.256, 4063.077, 4134.872, 4046.154, 450, 0, []
1630162574.5948, 82, 0, 4119.487, 4137.949, 4070.256, 4144.615, 4043.077, 450, 0, []
1630162574.6026, 83, 0, 4125.128, 4128.205, 4071.795, 4149.231, 4046.667, 16189, 0, []
1630162574.6106, 84, 0, 4134.872, 4145.128, 4080, 4151.282, 4043.077, 450, 0, []
1630162574.6185, 85, 0, 4140, 4186.154, 4050.256, 4153.333, 4043.077, 450, 0, []
1630162574.6264, 86, 0, 4137.949, 4167.692, 4057.949, 4156.41, 4052.821, 450, 0, []
1630162574.6343, 87, 0, 4134.872, 4128.718, 4071.282, 4151.795, 4051.795, 16189, 0, []
1630162574.6422, 88, 0, 4140.513, 4161.538, 4068.718, 4149.744, 4044.103, 450, 0, []
1630162574.6502, 89, 0, 4155.897, 4209.231, 4095.897, 4162.564, 4053.846, 450, 0, []
1630162574.6581, 90, 0, 4173.333, 4206.667, 4093.846, 4174.359, 4083.59, 450, 0, []
1630162574.666, 91, 0, 4185.641, 4193.846, 4111.795, 4189.744, 4104.615, 16189, 0, []
1630162574.6738, 92, 0, 4189.744, 4203.077, 4125.128, 4198.974, 4102.051, 450, 0, []
1630162574.6816, 93, 0, 4184.615, 4217.436, 4107.692, 4195.385, 4098.974, 450, 0, []
1630162574.6894, 94, 0, 4182.564, 4211.282, 4126.667, 4197.949, 4109.231, 450, 0, []
1630162574.6973, 95, 0, 4185.128, 4216.41, 4113.333, 4191.795, 4103.077, 16189, 0, []
1630162574.7051, 96, 0, 4187.692, 4247.179, 4100, 4181.538, 4087.179, 450, 0, []
1630162574.713, 97, 0, 4189.744, 4237.436, 4107.692, 4183.077, 4090.256, 450, 0, []
1630162574.7207, 98, 0, 4181.538, 4195.897, 4103.077, 4184.615, 4088.205, 450, 0, []
1630162574.7287, 99, 0, 4177.949, 4203.59, 4123.59, 4188.718, 4077.949, 16189, 0, []
1630162574.7366, 100, 0, 4183.59, 4232.308, 4106.667, 4190.769, 4083.077, 450, 0, []
1630162574.7446, 101, 0, 4187.179, 4237.436, 4094.872, 4187.179, 4092.821, 450, 0, []
1630162574.7525, 102, 0, 4183.59, 4238.974, 4102.564, 4183.077, 4090.256, 450, 0, []
1630162574.7604, 103, 0, 4176.923, 4247.179, 4082.051, 4186.667, 4078.974, 16189, 0, []
1630162574.7683, 104, 0, 4177.436, 4269.744, 4098.462, 4195.385, 4073.333, 450, 0, []
1630162574.7763, 105, 0, 4185.128, 4283.077, 4104.615, 4193.846, 4077.949, 450, 0, []
1630162574.7842, 106, 0, 4187.692, 4253.846, 4107.179, 4181.538, 4078.462, 450, 0, []
1630162574.7922, 107, 0, 4171.795, 4223.59, 4109.231, 4160.513, 4061.538, 16189, 0, []
1630162574.8, 108, 0, 4145.641, 4224.103, 4076.923, 4143.59, 4039.487, 450, 0, []
1630162574.808, 109, 0, 4131.282, 4201.538, 4092.308, 4152.821, 4033.333, 450, 0, []
1630162574.8159, 110, 0, 4132.308, 4182.564, 4100, 4166.667, 4043.59, 450, 0, []
1630162574.8237, 111, 0, 4128.205, 4207.179, 4087.692, 4160.513, 4036.923, 16189, 0, []
1630162574.8316, 112, 0, 4115.385, 4212.308, 4093.333, 4147.692, 4002.564, 450, 0, []
1630162574.8393, 113, 0, 4117.949, 4195.385, 4076.41, 4144.103, 4001.026, 450, 0, []
1630162574.8472, 114, 0, 4128.205, 4194.872, 4091.282, 4151.282, 4031.795, 450, 0, []
1630162574.855, 115, 0, 4120.513, 4194.872, 4081.538, 4140, 4022.051, 16189, 0, []
1630162574.8629, 116, 0, 4115.897, 4175.897, 4062.564, 4127.692, 3998.462, 450, 0, []
1630162574.8707, 117, 0, 4124.615, 4188.718, 4091.795, 4145.641, 4016.41, 450, 0, []
1630162574.8786, 118, 0, 4127.692, 4217.436, 4081.026, 4155.385, 4034.359, 450, 0, []
1630162574.8865, 119, 0, 4129.231, 4210.256, 4086.154, 4150.769, 4031.282, 16189, 0, []
1630162574.8944, 120, 0, 4141.026, 4200.513, 4098.462, 4155.897, 4039.487, 450, 0, []
1630162574.9022, 121, 0, 4145.128, 4195.897, 4085.128, 4159.487, 4039.487, 450, 0, []
1630162574.9102, 122, 0, 4130.769, 4189.744, 4090.256, 4149.231, 4018.462, 450, 0, []
1630162574.9181, 123, 0, 4120.513, 4181.538, 4077.436, 4141.538, 4020.513, 16189, 0, []
1630162574.926, 124, 0, 4117.949, 4183.077, 4090.256, 4145.128, 4031.795, 450, 0, []
1630162574.9339, 125, 0, 4111.795, 4192.821, 4088.205, 4141.026, 4011.282, 450, 0, []
1630162574.9419, 126, 0, 4104.103, 4206.154, 4058.462, 4133.333, 3988.718, 450, 0, []
1630162574.9498, 127, 0, 4102.051, 4204.103, 4075.897, 4137.949, 3996.41, 16189, 0, []
1630162574.9578, 128, 0, 4112.308, 4173.333, 4076.41, 4143.59, 4021.538, 450, 0, []
1630162574.9656, 0, 0, 4127.179, 4185.128, 4089.231, 4153.333, 4041.026, 450, 0, []
1630162574.9734, 1, 0, 4141.026, 4218.974, 4102.564, 4163.077, 4046.154, 450, 0, []
1630162574.9813, 2, 0, 4156.923, 4201.538, 4088.718, 4169.744, 4054.359, 16186, 0, []
1630162574.9891, 3, 0, 4169.744, 4181.538, 4109.231, 4186.154, 4077.436, 450, 0, []
1630162574.997, 4, 0, 4177.436, 4202.051, 4098.462, 4184.615, 4087.179, 16080, 0, []
1630162575.0047, 5, 0, 4182.564, 4225.128, 4094.872, 4173.846, 4081.538, 450, 0, []
1630162575.0126, 6, 0, 4187.179, 4232.821, 4110.256, 4180, 4085.128, 242, 0, []
1630162575.0204, 7, 0, 4184.103, 4231.795, 4095.385, 4181.538, 4089.744, 450, 0, []
1630162575.0283, 8, 0, 4173.846, 4217.949, 4107.692, 4165.641, 4075.897, 450, 0, []
1630162575.0361, 9, 0, 4168.205, 4211.282, 4093.846, 4149.744, 4062.564, 16095, 0, []
1630162575.044, 10, 0, 4171.795, 4200.513, 4075.897, 4152.308, 4070.769, 450, 0, []
1630162575.0519, 11, 0, 4180, 4181.026, 4090.769, 4159.487, 4088.718, 16203, 0, []
1630162575.0599, 12, 0, 4192.821, 4186.154, 4086.667, 4156.41, 4096.923, 450, 0, []
1630162575.0678, 13, 0, 4202.051, 4199.487, 4097.436, 4161.026, 4094.872, 450, 0, []
1630162575.0758, 14, 0, 4203.077, 4216.923, 4085.641, 4169.744, 4102.564, 450, 0, []
1630162575.0836, 15, 0, 4208.205, 4238.462, 4076.923, 4165.641, 4109.744, 16203, 0, []
1630162575.0916, 16, 0, 4222.564, 4215.385, 4100.513, 4159.487, 4107.179, 0, 0, []
1630162575.0995, 17, 0, 4223.077, 4195.385, 4087.692, 4162.051, 4111.282, 0, 0, []
1630162575.1075, 18, 0, 4194.872, 4213.846, 4093.333, 4156.923, 4105.128, 0, 0, []
1630162575.1154, 19, 0, 4176.923, 4207.179, 4086.154, 4138.462, 4084.615, 0, 0, []
1630162575.1233, 20, 0, 4185.641, 4201.026, 4069.744, 4142.564, 4080.513, 0, 0, []
1630162575.1312, 21, 0, 4189.231, 4207.692, 4084.103, 4164.103, 4092.821, 0, 0, []
1630162575.139, 22, 0, 4178.462, 4194.359, 4066.154, 4164.615, 4093.333, 0, 0, []
1630162575.1469, 23, 0, 4181.538, 4196.923, 4075.385, 4162.564, 4088.718, 0, 0, []
1630162575.1547, 24, 0, 4193.846, 4221.026, 4084.615, 4162.564, 4090.256, 0, 0, []
1630162575.1625, 25, 0, 4180.513, 4213.333, 4071.795, 4149.744, 4086.154, 0, 0, []
1630162575.1703, 26, 0, 4160.513, 4181.538, 4083.59, 4141.538, 4076.41, 0, 0, []
1630162575.1782, 27, 0, 4175.897, 4189.744, 4067.692, 4145.641, 4080, 0, 0, []
1630162575.186, 28, 0, 4201.538, 4223.59, 4078.462, 4151.795, 4097.949, 0, 0, []
1630162575.1939, 29, 0, 4192.308, 4209.231, 4092.308, 4151.282, 4104.615, 0, 0, []
1630162575.2016, 30, 0, 4179.487, 4173.333, 4076.923, 4155.385, 4094.872, 0, 0, []
1630162575.2096, 31, 0, 4183.077, 4193.333, 4086.667, 4158.974, 4082.564, 0, 0, []
1630162575.2175, 32, 0, 4166.667, 4188.205, 4066.154, 4141.538, 4071.282, 0, 0, []
1630162575.2255, 33, 0, 4146.154, 4135.385, 4066.154, 4128.718, 4065.641, 0, 0, []
1630162575.2334, 34, 0, 4154.359, 4141.538, 4078.462, 4136.41, 4067.179, 0, 0, []
1630162575.2414, 35, 0, 4169.231, 4164.103, 4063.077, 4146.154, 4073.333, 0, 0, []
1630162575.2492, 36, 0, 4176.923, 4142.564, 4087.692, 4156.923, 4093.333, 0, 0, []
1630162575.2572, 37, 0, 4184.615, 4129.231, 4083.077, 4157.949, 4110.769, 0, 0, []
1630162575.2651, 38, 0, 4185.128, 4147.179, 4074.872, 4150.769, 4097.436, 0, 0, []
1630162575.2731, 39, 0, 4176.41, 4156.41, 4076.923, 4146.154, 4075.897, 0, 0, []
1630162575.281, 40, 0, 4161.026, 4135.897, 4047.179, 4130.769, 4073.333, 0, 0, []
1630162575.2887, 41, 0, 4155.385, 4124.103, 4065.641, 4119.487, 4077.436, 0, 0, []
1630162575.2966, 42, 0, 4170.256, 4146.154, 4076.41, 4124.615, 4072.821, 0, 0, []
1630162575.3044, 43, 0, 4185.128, 4156.923, 4070.769, 4137.949, 4071.795, 0, 0, []
1630162575.3123, 44, 0, 4175.385, 4128.718, 4073.846, 4142.051, 4077.436, 0, 0, []
1630162575.3201, 45, 0, 4165.128, 4098.462, 4054.872, 4135.385, 4073.846, 0, 0, []
1630162575.3279, 46, 0, 4171.795, 4104.615, 4070.769, 4141.026, 4068.718, 0, 0, []
1630162575.3357, 47, 0, 4175.385, 4150.256, 4068.718, 4144.615, 4074.872, 0, 0, []
1630162575.3436, 48, 0, 4170.256, 4157.949, 4058.974, 4138.462, 4082.051, 0, 0, []
1630162575.3514, 49, 0, 4167.692, 4121.026, 4075.897, 4136.41, 4077.949, 0, 0, []
1630162575.3594, 50, 0, 4171.795, 4133.333, 4063.59, 4135.897, 4076.41, 0, 0, []
1630162575.3672, 51, 0, 4171.795, 4168.205, 4074.872, 4138.974, 4088.205, 0, 0, []
1630162575.3752, 52, 0, 4170.256, 4154.872, 4072.821, 4140.513, 4093.846, 0, 0, []
1630162575.3831, 53, 0, 4175.897, 4140, 4067.692, 4144.103, 4085.128, 0, 0, []
1630162575.3911, 54, 0, 4178.974, 4167.179, 4091.282, 4151.795, 4076.41, 0, 0, []
1630162575.399, 55, 0, 4171.795, 4174.359, 4069.744, 4144.103, 4086.667, 0, 0, []
1630162575.4069, 56, 0, 4171.795, 4140.513, 4076.41, 4134.872, 4094.872, 0, 0, []
1630162575.4148, 57, 0, 4191.282, 4154.872, 4090.769, 4143.59, 4091.795, 0, 0, []
1630162575.4228, 58, 0, 4204.103, 4198.462, 4078.974, 4154.359, 4098.974, 0, 0, []
1630162575.4307, 59, 0, 4196.41, 4177.949, 4090.256, 4157.436, 4106.154, 0, 0, []
1630162575.4385, 60, 0, 4202.564, 4152.308, 4082.051, 4161.026, 4112.308, 0, 0, []
1630162575.4463, 61, 0, 4228.205, 4171.795, 4092.821, 4168.205, 4134.359, 0, 0, []
1630162575.4541, 62, 0, 4235.897, 4155.385, 4091.795, 4163.59, 4149.744, 0, 0, []
1630162575.462, 63, 0, 4221.026, 4136.41, 4075.897, 4154.359, 4138.462, 0, 0, []
1630162575.4698, 64, 0, 4214.359, 4188.205, 4100.513, 4158.462, 4126.667, 450, 0, []
1630162575.4777, 65, 0, 4216.41, 4197.949, 4082.564, 4157.949, 4126.667, 450, 0, []
1630162575.4854, 66, 0, 4215.897, 4150.769, 4078.974, 4154.872, 4127.692, 16186, 0, []
1630162575.4933, 67, 0, 4217.436, 4173.846, 4104.103, 4160, 4130.256, 450, 0, []
1630162575.5011, 68, 0, 4218.974, 4214.359, 4097.949, 4160.513, 4131.282, 16080, 0, []
1630162575.5091, 69, 0, 4229.231, 4171.282, 4104.103, 4157.949, 4135.897, 450, 0, []
1630162575.517, 70, 0, 4247.179, 4151.795, 4085.641, 4158.974, 4151.795, 242, 0, []
1630162575.5249, 71, 0, 4246.667, 4198.462, 4085.641, 4169.231, 4157.949, 450, 0, []
1630162575.5328, 72, 0, 4231.795, 4196.923, 4097.436, 4171.282, 4145.128, 450, 0, []
1630162575.5408, 73, 0, 4231.795, 4171.795, 4075.385, 4163.077, 4143.59, 16100, 0, []
1630162575.5487, 74, 0, 4248.718, 4185.128, 4099.487, 4175.897, 4163.59, 450, 0, []
1630162575.5567, 75, 0, 4271.282, 4203.59, 4115.897, 4193.846, 4182.051, 16203, 0, []
1630162575.5645, 76, 0, 4284.615, 4194.359, 4120, 4195.897, 4189.231, 450, 0, []
1630162575.5725, 77, 0, 4283.077, 4188.205, 4130.769, 4186.667, 4190.769, 450, 0, []
1630162575.5804, 78, 0, 4277.436, 4224.615, 4110.256, 4177.949, 4187.692, 450, 0, []
1630162575.5884, 79, 0, 4273.333, 4249.744, 4119.487, 4183.59, 4182.051, 16203, 0, []
1630162575.5963, 80, 0, 4269.744, 4207.179, 4114.872, 4184.615, 4177.436, 450, 0, []
1630162575.6041, 81, 0, 4265.641, 4173.333, 4106.154, 4183.59, 4176.923, 450, 0, []
1630162575.6119, 82, 0, 4262.564, 4195.897, 4118.462, 4189.231, 4174.872, 450, 0, []
1630162575.6198, 83, 0, 4263.077, 4204.615, 4094.359, 4181.538, 4171.282, 16203, 0, []
1630162575.6277, 84, 0, 4263.077, 4202.564, 4099.487, 4172.308, 4175.897, 450, 0, []
1630162575.6356, 85, 0, 4260.513, 4205.641, 4101.026, 4176.923, 4183.077, 450, 0, []
1630162575.6435, 86, 0, 4275.897, 4203.077, 4098.974, 4192.308, 4190.256, 450, 0, []
1630162575.6514, 87, 0, 4300, 4201.538, 4129.231, 4205.641, 4202.051, 16203, 0, []
1630162575.6594, 88, 0, 4295.385, 4192.821, 4106.667, 4191.282, 4200, 450, 0, []
1630162575.6673, 89, 0, 4273.333, 4194.872, 4090.769, 4170.256, 4182.051, 450, 0, []
1630162575.6753, 90, 0, 4272.308, 4220.513, 4093.333, 4170.769, 4181.538, 450, 0, []
1630162575.6832, 91, 0, 4283.59, 4208.205, 4093.846, 4177.949, 4190.256, 16203, 0, []
1630162575.6911, 92, 0, 4278.462, 4174.359, 4110.256, 4172.308, 4186.154, 450, 0, []
1630162575.699, 93, 0, 4265.128, 4194.359, 4089.744, 4167.179, 4183.59, 450, 0, []
1630162575.707, 94, 0, 4261.026, 4207.692, 4099.487, 4181.026, 4185.641, 450, 0, []
1630162575.7149, 95, 0, 4267.692, 4201.026, 4121.026, 4192.308, 4188.205, 16203, 0, []
1630162575.7229, 96, 0, 4289.231, 4224.103, 4122.564, 4196.923, 4202.051, 450, 0, []
1630162575.7307, 97, 0, 4307.179, 4226.667, 4145.641, 4204.103, 4221.538, 450, 0, []
1630162575.7385, 98, 0, 4300.513, 4204.103, 4123.59, 4194.872, 4221.538, 450, 0, []
1630162575.7464, 99, 0, 4290.769, 4242.051, 4118.462, 4182.051, 4207.692, 16203, 0, []
1630162575.7542, 100, 0, 4305.128, 4277.949, 4138.974, 4184.615, 4207.179, 450, 0, []
1630162575.7621, 101, 0, 4318.974, 4248.205, 4125.641, 4190.256, 4222.564, 450, 0, []
1630162575.7698, 102, 0, 4301.538, 4246.667, 4135.385, 4184.103, 4216.41, 450, 0, []
1630162575.7777, 103, 0, 4274.359, 4271.795, 4125.128, 4165.641, 4185.128, 16203, 0, []
1630162575.7855, 104, 0, 4275.897, 4260.513, 4129.744, 4167.179, 4176.923, 450, 0, []
1630162575.7934, 105, 0, 4287.179, 4252.308, 4146.667, 4181.538, 4196.41, 450, 0, []
1630162575.8012, 106, 0, 4286.154, 4275.385, 4132.308, 4183.59, 4207.692, 450, 0, []
1630162575.809, 107, 0, 4280, 4282.051, 4142.051, 4189.231, 4196.923, 16203, 0, []
1630162575.8168, 108, 0, 4269.231, 4272.308, 4127.179, 4188.718, 4180.513, 450, 0, []
1630162575.8248, 109, 0, 4270.256, 4286.154, 4127.179, 4176.41, 4182.564, 450, 0, []
1630162575.8327, 110, 0, 4283.077, 4290.256, 4141.538, 4168.718, 4193.846, 450, 0, []
1630162575.8407, 111, 0, 4266.667, 4251.795, 4106.154, 4161.538, 4181.538, 16203, 0, []
1630162575.8485, 112, 0, 4241.026, 4219.487, 4115.897, 4156.923, 4155.385, 450, 0, []
1630162575.8565, 113, 0, 4249.744, 4252.821, 4126.667, 4155.385, 4152.821, 450, 0, []
1630162575.8644, 114, 0, 4249.744, 4275.897, 4114.359, 4154.359, 4162.051, 450, 0, []
1630162575.8724, 115, 0, 4230.769, 4251.795, 4122.564, 4153.846, 4155.897, 16203, 0, []
1630162575.8803, 116, 0, 4233.846, 4254.872, 4110.769, 4147.692, 4149.231, 450, 0, []
1630162575.888, 117, 0, 4236.41, 4275.897, 4125.641, 4148.205, 4153.333, 450, 0, []
1630162575.8959, 118, 0, 4227.692, 4272.308, 4129.231, 4157.949, 4148.718, 450, 0, []
1630162575.9037, 119, 0, 4227.692, 4263.077, 4116.41, 4160.513, 4143.59, 16203, 0, []
1630162575.9116, 120, 0, 4231.795, 4280.513, 4125.641, 4156.41, 4150.256, 450, 0, []
1630162575.9194, 121, 0, 4238.974, 4301.538, 4116.41, 4166.154, 4156.923, 450, 0, []
1630162575.9272, 122, 0, 4257.949, 4305.128, 4142.051, 4184.615, 4170.769, 450, 0, []
1630162575.935, 123, 0, 4280.513, 4305.641, 4151.795, 4181.538, 4195.385, 16203, 0, []
1630162575.9429, 124, 0, 4286.154, 4290.256, 4132.821, 4177.436, 4201.538, 450, 0, []
1630162575.9507, 125, 0, 4272.821, 4282.564, 4148.718, 4189.231, 4184.615, 450, 0, []
1630162575.9586, 126, 0, 4259.487, 4305.128, 4130.256, 4184.615, 4172.308, 450, 0, []
1630162575.9664, 127, 0, 4252.308, 4310.256, 4126.154, 4177.436, 4167.179, 16203, 0, []
1630162575.9743, 128, 0, 4244.615, 4286.667, 4133.846, 4186.154, 4158.974, 450, 0, []
1630162575.9822, 0, 0, 4242.051, 4286.154, 4124.615, 4181.538, 4149.231, 450, 0, []
1630162575.9902, 1, 0, 4245.641, 4284.615, 4145.128, 4163.077, 4147.179, 450, 0, []
1630162575.9981, 2, 0, 4244.615, 4262.051, 4133.333, 4155.897, 4154.359, 16186, 0, []
1630162576.0061, 3, 0, 4246.667, 4283.59, 4126.154, 4161.026, 4154.359, 450, 0, []
1630162576.0139, 4, 0, 4250.769, 4309.744, 4123.59, 4167.179, 4150.769, 16078, 0, []
1630162576.0219, 5, 0, 4243.59, 4292.308, 4106.154, 4173.846, 4156.923, 450, 0, []
1630162576.0298, 6, 0, 4232.821, 4304.103, 4135.385, 4185.641, 4154.872, 239, 0, []
1630162576.0378, 7, 0, 4231.282, 4318.462, 4135.897, 4180, 4142.564, 450, 0, []
1630162576.0457, 8, 0, 4233.846, 4285.128, 4124.103, 4160.513, 4140, 450, 0, []
1630162576.0534, 9, 0, 4228.718, 4295.897, 4118.462, 4151.282, 4141.538, 16097, 0, []
1630162576.0613, 10, 0, 4219.487, 4321.538, 4102.564, 4145.128, 4135.897, 450, 0, []
1630162576.0691, 11, 0, 4228.205, 4282.564, 4141.026, 4144.615, 4145.641, 16193, 0, []
1630162576.077, 12, 0, 4250.769, 4284.615, 4150.256, 4147.692, 4167.179, 450, 0, []
1630162576.0848, 13, 0, 4249.744, 4329.231, 4135.385, 4156.41, 4165.128, 450, 0, []
1630162576.0926, 14, 0, 4220, 4308.718, 4127.179, 4164.103, 4132.308, 450, 0, []
1630162576.1004, 15, 0, 4190.769, 4282.051, 4084.103, 4158.974, 4100.513, 16193, 0, []
1630162576.1083, 16, 0, 4182.051, 4294.359, 4085.641, 4161.026, 4096.923, 0, 0, []
1630162576.1161, 17, 0, 4188.205, 4284.615, 4091.795, 4162.564, 4113.333, 0, 0, []
1630162576.1241, 18, 0, 4205.641, 4277.436, 4105.128, 4162.051, 4133.846, 0, 0, []
1630162576.1319, 19, 0, 4245.128, 4308.205, 4151.795, 4178.462, 4162.051, 0, 0, []
1630162576.1399, 20, 0, 4290.769, 4336.923, 4156.41, 4193.333, 4193.846, 0, 0, []
1630162576.1478, 21, 0, 4290.769, 4350.769, 4150.256, 4184.103, 4202.051, 0, 0, []
1630162576.1558, 22, 0, 4246.667, 4337.949, 4108.205, 4147.179, 4170.256, 0, 0, []
1630162576.1637, 23, 0, 4209.744, 4306.667, 4063.59, 4110.256, 4123.59, 0, 0, []
1630162576.1716, 24, 0, 4189.744, 4312.308, 4070.256, 4104.103, 4092.308, 0, 0, []
1630162576.1795, 25, 0, 4178.974, 4321.538, 4067.692, 4122.564, 4087.692, 0, 0, []
1630162576.1875, 26, 0, 4178.462, 4280.513, 4091.282, 4140.513, 4095.897, 0, 0, []
1630162576.1954, 27, 0, 4183.59, 4257.949, 4095.897, 4144.615, 4099.487, 0, 0, []
1630162576.2032, 28, 0, 4188.205, 4290.256, 4077.436, 4149.744, 4108.718, 0, 0, []
1630162576.211, 29, 0, 4193.846, 4291.795, 4092.308, 4157.436, 4123.077, 0, 0, []
1630162576.2188, 30, 0, 4202.564, 4264.615, 4083.59, 4155.897, 4127.179, 0, 0, []
1630162576.2267, 31, 0, 4205.128, 4289.231, 4097.949, 4155.897, 4122.564, 0, 0, []
1630162576.2345, 32, 0, 4202.564, 4316.41, 4112.821, 4153.333, 4123.077, 0, 0, []
1630162576.2424, 33, 0, 4203.59, 4299.487, 4097.436, 4148.718, 4122.564, 0, 0, []
1630162576.2501, 34, 0, 4198.974, 4301.026, 4109.231, 4155.385, 4111.795, 0, 0, []
1630162576.258, 35, 0, 4187.179, 4325.128, 4092.308, 4147.692, 4105.128, 0, 0, []
1630162576.2658, 36, 0, 4177.949, 4326.154, 4084.103, 4126.154, 4097.949, 0, 0, []
1630162576.2737, 37, 0, 4174.872, 4323.59, 4086.154, 4120.513, 4088.205, 0, 0, []
1630162576.2815, 38, 0, 4173.846, 4329.744, 4073.846, 4132.821, 4095.385, 0, 0, []
1630162576.2894, 39, 0, 4188.205, 4344.615, 4105.641, 4148.718, 4120, 0, 0, []
1630162576.2973, 40, 0, 4222.051, 4372.308, 4105.128, 4150.256, 4140.513, 0, 0, []
1630162576.3053, 41, 0, 4237.949, 4384.615, 4102.051, 4148.718, 4147.179, 0, 0, []
1630162576.3132, 42, 0, 4217.436, 4387.179, 4112.308, 4150.256, 4136.41, 0, 0, []
1630162576.3212, 43, 0, 4198.462, 4394.872, 4093.333, 4143.59, 4120.513, 0, 0, []
1630162576.3291, 44, 0, 4201.538, 4388.718, 4105.641, 4145.641, 4128.205, 0, 0, []
1630162576.337, 45, 0, 4204.615, 4373.333, 4095.897, 4147.179, 4141.538, 0, 0, []
1630162576.3449, 46, 0, 4211.282, 4364.103, 4094.872, 4148.205, 4135.897, 0, 0, []
1630162576.3529, 47, 0, 4219.487, 4349.744, 4117.436, 4153.333, 4136.41, 0, 0, []
1630162576.3608, 48, 0, 4199.487, 4335.385, 4106.667, 4152.308, 4138.462, 0, 0, []
1630162576.3686, 49, 0, 4179.487, 4338.462, 4133.333, 4159.487, 4124.615, 0, 0, []
1630162576.3764, 50, 0, 4191.795, 4312.308, 4137.436, 4175.385, 4125.128, 0, 0, []
1630162576.3842, 51, 0, 4205.128, 4256.923, 4117.436, 4180, 4145.641, 0, 0, []
1630162576.3921, 52, 0, 4194.872, 4253.846, 4117.949, 4161.538, 4137.949, 0, 0, []
1630162576.3999, 53, 0, 4183.077, 4287.692, 4090.769, 4143.59, 4112.821, 0, 0, []
1630162576.4078, 54, 0, 4182.051, 4286.667, 4091.795, 4142.051, 4114.359, 0, 0, []
1630162576.4155, 55, 0, 4182.051, 4262.564, 4091.282, 4128.718, 4122.051, 0, 0, []
1630162576.4234, 56, 0, 4193.333, 4278.974, 4094.872, 4122.564, 4122.564, 0, 0, []
1630162576.4312, 57, 0, 4211.795, 4307.179, 4125.641, 4150.256, 4142.564, 0, 0, []
1630162576.4392, 58, 0, 4210.769, 4305.641, 4100.513, 4164.103, 4158.462, 0, 0, []
1630162576.4471, 59, 0, 4197.949, 4309.231, 4092.308, 4151.282, 4135.385, 0, 0, []
1630162576.455, 60, 0, 4191.282, 4327.692, 4098.462, 4147.692, 4114.359, 0, 0, []
1630162576.4629, 61, 0, 4184.615, 4337.949, 4093.846, 4152.821, 4124.103, 0, 0, []
1630162576.4709, 62, 0, 4188.205, 4334.872, 4111.795, 4144.103, 4125.641, 0, 0, []
1630162576.4788, 63, 0, 4209.744, 4357.436, 4100.513, 4134.359, 4123.077, 0, 0, []
1630162576.4868, 64, 0, 4222.051, 4366.154, 4109.231, 4147.179, 4146.667, 450, 0, []
1630162576.4946, 65, 0, 4218.462, 4340, 4112.308, 4153.846, 4165.641, 450, 0, []
1630162576.5026, 66, 0, 4215.897, 4337.949, 4090.769, 4145.641, 4147.179, 16205, 0, []
1630162576.5105, 67, 0, 4214.359, 4330.769, 4108.205, 4147.179, 4140.513, 450, 0, []
1630162576.5183, 68, 0, 4216.41, 4306.667, 4100.513, 4146.154, 4160, 16072, 0, []
1630162576.5262, 69, 0, 4227.179, 4312.308, 4103.077, 4149.231, 4167.179, 450, 0, []
1630162576.5339, 70, 0, 4233.333, 4329.231, 4110.256, 4155.897, 4167.179, 239, 0, []
1630162576.5418, 71, 0, 4223.59, 4313.846, 4092.308, 4143.077, 4161.538, 450, 0, []
1630162576.5496, 72, 0, 4210.256, 4302.564, 4108.205, 4143.59, 4142.051, 450, 0, []
1630162576.5575, 73, 0, 4203.59, 4315.897, 4099.487, 4163.077, 4136.923, 16097, 0, []
1630162576.5653, 74, 0, 4198.462, 4318.974, 4096.923, 4167.179, 4148.205, 450, 0, []
1630162576.5731, 75, 0, 4193.846, 4311.795, 4104.615, 4154.872, 4140.513, 16189, 0, []
1630162576.5809, 76, 0, 4197.436, 4297.436, 4082.564, 4144.615, 4130.769, 450, 0, []
1630162576.5889, 77, 0, 4209.231, 4290.256, 4101.026, 4144.103, 4143.59, 450, 0, []
1630162576.5968, 78, 0, 4221.026, 4291.282, 4102.564, 4144.615, 4151.795, 450, 0, []
1630162576.6048, 79, 0, 4218.462, 4266.667, 4096.923, 4147.692, 4151.795, 16189, 0, []
1630162576.6126, 80, 0, 4212.821, 4235.385, 4113.333, 4156.923, 4161.026, 450, 0, []
1630162576.6206, 81, 0, 4228.205, 4244.103, 4110.256, 4168.718, 4173.846, 450, 0, []
1630162576.6285, 82, 0, 4236.923, 4286.154, 4128.205, 4174.359, 4173.846, 450, 0, []
1630162576.6365, 83, 0, 4220.513, 4295.897, 4114.359, 4162.051, 4168.205, 16189, 0, []
1630162576.6444, 84, 0, 4209.744, 4281.026, 4101.026, 4152.308, 4168.205, 450, 0, []
1630162576.6524, 85, 0, 4217.949, 4318.462, 4122.564, 4158.462, 4166.154, 450, 0, []
1630162576.6602, 86, 0, 4235.385, 4347.179, 4106.667, 4164.103, 4181.026, 450, 0, []
1630162576.6682, 87, 0, 4250.769, 4288.205, 4110.769, 4168.718, 4201.538, 16189, 0, []
1630162576.6761, 88, 0, 4246.154, 4246.667, 4107.179, 4164.615, 4191.795, 450, 0, []
1630162576.6839, 89, 0, 4231.282, 4287.179, 4101.538, 4161.538, 4178.462, 450, 0, []
1630162576.6918, 90, 0, 4238.974, 4304.615, 4129.231, 4170.256, 4184.103, 450, 0, []
1630162576.6995, 91, 0, 4247.692, 4287.179, 4110.769, 4171.795, 4189.231, 16189, 0, []
1630162576.7074, 92, 0, 4240.513, 4308.205, 4108.205, 4175.897, 4190.769, 450, 0, []
1630162576.7152, 93, 0, 4245.128, 4312.308, 4114.872, 4184.103, 4200.513, 450, 0, []
1630162576.7231, 94, 0, 4254.359, 4274.872, 4109.744, 4182.564, 4205.641, 450, 0, []
1630162576.7309, 95, 0, 4246.667, 4277.436, 4123.077, 4171.282, 4195.897, 16189, 0, []
1630162576.7387, 96, 0, 4246.154, 4306.667, 4102.564, 4162.564, 4186.667, 450, 0, []
1630162576.7465, 97, 0, 4256.41, 4313.846, 4110.256, 4167.179, 4192.821, 450, 0, []
1630162576.7545, 98, 0, 4255.385, 4313.846, 4118.462, 4163.077, 4200, 450, 0, []
1630162576.7624, 99, 0, 4243.077, 4313.333, 4090.769, 4151.795, 4187.692, 16189, 0, []
1630162576.7704, 100, 0, 4235.385, 4311.282, 4100, 4157.436, 4181.026, 450, 0, []
1630162576.7782, 101, 0, 4247.179, 4326.667, 4097.949, 4165.128, 4198.462, 450, 0, []
1630162576.7862, 102, 0, 4256.41, 4356.923, 4105.128, 4168.718, 4206.667, 450, 0, []
1630162576.7941, 103, 0, 4248.205, 4366.667, 4115.385, 4174.359, 4199.487, 16189, 0, []
1630162576.8021, 104, 0, 4257.436, 4362.564, 4111.282, 4181.026, 4206.154, 450, 0, []
1630162576.81, 105, 0, 4282.564, 4364.103, 4135.897, 4188.718, 4233.333, 450, 0, []
1630162576.8179, 106, 0, 4282.051, 4374.872, 4117.436, 4184.103, 4242.564, 450, 0, []
1630162576.8258, 107, 0, 4264.615, 4374.359, 4108.205, 4176.41, 4222.051, 16189, 0, []
1630162576.8336, 108, 0, 4254.872, 4352.821, 4120, 4173.846, 4207.179, 450, 0, []
1630162576.8415, 109, 0, 4246.667, 4346.667, 4098.974, 4166.667, 4205.641, 450, 0, []
1630162576.8493, 110, 0, 4242.564, 4359.487, 4115.897, 4166.154, 4196.41, 450, 0, []
1630162576.8571, 111, 0, 4246.154, 4362.564, 4116.923, 4169.231, 4194.359, 16189, 0, []
1630162576.8649, 112, 0, 4254.872, 4343.59, 4111.795, 4169.744, 4210.769, 450, 0, []
1630162576.8728, 113, 0, 4262.051, 4349.231, 4122.051, 4170.256, 4221.026, 450, 0, []
1630162576.8806, 114, 0, 4254.359, 4383.077, 4098.974, 4167.179, 4211.282, 450, 0, []
1630162576.8885, 115, 0, 4246.667, 4385.128, 4111.795, 4169.231, 4202.051, 16189, 0, []
1630162576.8962, 116, 0, 4249.744, 4363.59, 4113.333, 4167.179, 4204.103, 450, 0, []
1630162576.9042, 117, 0, 4246.667, 4361.026, 4102.564, 4164.103, 4198.974, 450, 0, []
1630162576.9121, 118, 0, 4245.641, 4382.051, 4113.333, 4176.923, 4192.308, 450, 0, []
1630162576.9201, 119, 0, 4256.923, 4366.667, 4096.923, 4183.59, 4197.436, 16189, 0, []
1630162576.928, 120, 0, 4261.026, 4331.795, 4108.718, 4167.692, 4201.026, 450, 0, []
1630162576.9359, 121, 0, 4260, 4353.846, 4112.308, 4153.846, 4206.667, 450, 0, []
1630162576.9438, 122, 0, 4264.615, 4385.641, 4108.718, 4171.795, 4217.436, 450, 0, []
1630162576.9518, 123, 0, 4269.744, 4345.641, 4126.667, 4195.385, 4221.026, 16189, 0, []
1630162576.9597, 124, 0, 4276.923, 4328.718, 4107.692, 4189.744, 4225.641, 450, 0, []
1630162576.9677, 125, 0, 4287.179, 4391.282, 4117.949, 4176.41, 4231.282, 450, 0, []
1630162576.9755, 126, 0, 4287.179, 4406.667, 4118.974, 4166.154, 4226.667, 450, 0, []
1630162576.9833, 127, 0, 4280.513, 4368.205, 4101.026, 4165.641, 4227.692, 16189, 0, []
1630162576.9912, 128, 0, 4282.564, 4381.026, 4126.154, 4180, 4233.846, 450, 0, []
1630162576.999, 0, 0, 4291.795, 4416.923, 4115.897, 4181.538, 4230.769, 450, 0, []
1630162577.0069, 1, 0, 4297.436, 4393.333, 4117.436, 4179.487, 4231.282, 450, 0, []
1630162577.0147, 2, 0, 4293.333, 4368.205, 4125.128, 4177.949, 4233.846, 16190, 0, []
1630162577.0225, 3, 0, 4289.231, 4411.282, 4111.282, 4175.385, 4229.744, 450, 0, []
1630162577.0303, 4, 0, 4287.692, 4457.436, 4128.205, 4184.103, 4233.333, 16074, 0, []
1630162577.0382, 5, 0, 4281.026, 4432.308, 4117.949, 4185.641, 4230.256, 450, 0, []
1630162577.046, 6, 0, 4273.333, 4393.333, 4116.923, 4179.487, 4213.333, 200, 0, []
1630162577.054, 7, 0, 4276.923, 4403.077, 4117.949, 4180, 4212.308, 450, 0, []
1630162577.0618, 8, 0, 4282.564, 4396.923, 4098.462, 4174.872, 4220, 450, 0, []
1630162577.0698, 9, 0, 4270.256, 4383.59, 4114.359, 4162.564, 4212.308, 16071, 0, []
1630162577.0777, 10, 0, 4250.256, 4408.205, 4101.538, 4155.385, 4194.872, 450, 0, []
1630162577.0857, 11, 0, 4246.154, 4403.59, 4107.179, 4163.077, 4185.128, 16201, 0, []
1630162577.0936, 12, 0, 4250.256, 4375.385, 4128.205, 4168.205, 4191.795, 450, 0, []
1630162577.1015, 13, 0, 4248.718, 4376.923, 4099.487, 4160.513, 4197.436, 450, 0, []
1630162577.1094, 14, 0, 4240.513, 4371.795, 4103.077, 4160.513, 4182.564, 450, 0, []
1630162577.1174, 15, 0, 4231.795, 4352.821, 4097.949, 4161.026, 4172.821, 16201, 0, []
1630162577.1253, 16, 0, 4230.256, 4374.359, 4086.154, 4156.923, 4179.487, 0, 0, []
1630162577.1331, 17, 0, 4233.846, 4372.821, 4095.385, 4159.487, 4178.462, 0, 0, []
1630162577.1409, 18, 0, 4231.795, 4326.667, 4087.692, 4163.077, 4174.359, 0, 0, []
1630162577.1487, 19, 0, 4236.923, 4334.872, 4103.077, 4165.128, 4184.615, 0, 0, []
1630162577.1566, 20, 0, 4245.641, 4381.538, 4094.359, 4166.667, 4188.718, 0, 0, []
1630162577.1644, 21, 0, 4238.462, 4366.667, 4090.256, 4172.821, 4186.154, 0, 0, []
1630162577.1723, 22, 0, 4230.256, 4311.795, 4113.333, 4171.795, 4184.615, 0, 0, []
1630162577.18, 23, 0, 4227.179, 4310.769, 4091.282, 4158.974, 4174.872, 0, 0, []
1630162577.1879, 24, 0, 4211.795, 4328.718, 4094.872, 4153.333, 4163.59, 0, 0, []
1630162577.1957, 25, 0, 4207.179, 4297.949, 4091.795, 4142.564, 4160.513, 0, 0, []
1630162577.2036, 26, 0, 4214.872, 4283.59, 4069.231, 4133.333, 4156.923, 0, 0, []
1630162577.2114, 27, 0, 4209.744, 4312.821, 4073.333, 4131.795, 4152.821, 0, 0, []
1630162577.2193, 28, 0, 4196.41, 4310.256, 4053.846, 4121.026, 4151.795, 0, 0, []
1630162577.2272, 29, 0, 4199.487, 4275.385, 4062.051, 4124.615, 4152.821, 0, 0, []
1630162577.2352, 30, 0, 4213.333, 4256.41, 4066.154, 4137.436, 4161.026, 0, 0, []
1630162577.2431, 31, 0, 4211.795, 4237.949, 4056.41, 4128.205, 4158.462, 0, 0, []
1630162577.2511, 32, 0, 4198.974, 4235.385, 4084.615, 4126.667, 4141.538, 0, 0, []
1630162577.2589, 33, 0, 4200, 4249.231, 4078.974, 4144.103, 4144.615, 0, 0, []
1630162577.2669, 34, 0, 4205.641, 4235.897, 4079.487, 4143.077, 4162.051, 0, 0, []
1630162577.2748, 35, 0, 4201.026, 4233.333, 4084.103, 4127.179, 4156.923, 0, 0, []
1630162577.2828, 36, 0, 4199.487, 4270.769, 4074.359, 4124.615, 4149.231, 0, 0, []
1630162577.2907, 37, 0, 4201.538, 4267.179, 4086.154, 4126.667, 4154.872, 0, 0, []
1630162577.2984, 38, 0, 4198.974, 4209.744, 4061.538, 4121.026, 4154.359, 0, 0, []
1630162577.3063, 39, 0, 4197.436, 4201.026, 4057.949, 4129.231, 4148.205, 0, 0, []
1630162577.3141, 40, 0, 4190.256, 4227.692, 4066.667, 4135.385, 4149.744, 0, 0, []
1630162577.322, 41, 0, 4192.308, 4236.923, 4053.846, 4128.718, 4154.359, 0, 0, []
1630162577.3298, 42, 0, 4201.538, 4238.462, 4080, 4133.846, 4150.256, 0, 0, []
1630162577.3376, 43, 0, 4189.231, 4234.872, 4073.846, 4129.231, 4138.462, 0, 0, []
1630162577.3454, 44, 0, 4176.41, 4235.385, 4074.359, 4120.513, 4139.487, 0, 0, []
1630162577.3533, 45, 0, 4197.436, 4234.872, 4090.769, 4130.769, 4156.41, 0, 0, []
1630162577.3611, 46, 0, 4210.769, 4221.538, 4064.103, 4133.333, 4162.051, 0, 0, []
1630162577.3691, 47, 0, 4188.205, 4213.846, 4063.59, 4114.872, 4144.103, 0, 0, []
1630162577.377, 48, 0, 4184.103, 4245.641, 4049.744, 4103.077, 4130.256, 0, 0, []
1630162577.3849, 49, 0, 4203.077, 4257.949, 4043.59, 4117.436, 4135.897, 0, 0, []
1630162577.3928, 50, 0, 4195.385, 4221.026, 4066.667, 4128.205, 4145.128, 0, 0, []
1630162577.4008, 51, 0, 4174.872, 4219.487, 4062.051, 4117.949, 4139.487, 0, 0, []
1630162577.4087, 52, 0, 4183.59, 4255.897, 4073.333, 4112.308, 4126.154, 0, 0, []
1630162577.4167, 53, 0, 4185.641, 4246.154, 4056.41, 4107.179, 4121.026, 0, 0, []
1630162577.4245, 54, 0, 4165.128, 4206.154, 4052.308, 4101.538, 4119.487, 0, 0, []
1630162577.4325, 55, 0, 4171.282, 4225.641, 4088.205, 4108.205, 4126.154, 0, 0, []
1630162577.4404, 56, 0, 4195.897, 4255.897, 4074.872, 4121.538, 4136.41, 0, 0, []
1630162577.4482, 57, 0, 4189.744, 4241.026, 4077.436, 4131.795, 4141.538, 0, 0, []
1630162577.4561, 58, 0, 4177.436, 4217.436, 4081.026, 4132.821, 4142.051, 0, 0, []
1630162577.4638, 59, 0, 4186.667, 4185.641, 4062.051, 4120, 4135.385, 0, 0, []
1630162577.4717, 60, 0, 4183.59, 4156.41, 4055.385, 4110.256, 4130.769, 0, 0, []
1630162577.4795, 61, 0, 4167.179, 4171.795, 4042.564, 4116.923, 4136.923, 0, 0, []
1630162577.4874, 62, 0, 4168.718, 4193.333, 4073.846, 4133.846, 4143.59, 0, 0, []
1630162577.4952, 63, 0, 4177.949, 4161.538, 4081.538, 4135.897, 4137.949, 0, 0, []
1630162577.503, 64, 0, 4175.897, 4127.179, 4056.41, 4126.154, 4130.256, 450, 0, []
1630162577.5108, 65, 0, 4162.051, 4141.538, 4065.641, 4119.487, 4128.718, 450, 0, []
1630162577.5188, 66, 0, 4149.231, 4167.179, 4053.846, 4109.231, 4124.103, 16188, 0, []
1630162577.5267, 67, 0, 4154.872, 4148.205, 4067.179, 4110.256, 4117.436, 450, 0, []
1630162577.5346, 68, 0, 4171.795, 4122.564, 4071.282, 4115.385, 4121.026, 16078, 0, []
1630162577.5423, 69, 0, 4172.308, 4133.846, 4047.692, 4114.872, 4136.41, 450, 0, []
1630162577.5503, 70, 0, 4163.077, 4138.974, 4070.256, 4120, 4138.462, 237, 0, []
1630162577.5582, 71, 0, 4169.231, 4135.897, 4065.641, 4122.051, 4122.051, 450, 0, []
1630162577.5662, 72, 0, 4178.462, 4167.179, 4065.641, 4125.641, 4122.564, 450, 0, []
1630162577.5741, 73, 0, 4176.41, 4186.154, 4076.41, 4126.667, 4137.949, 16090, 0, []
1630162577.582, 74, 0, 4181.026, 4155.385, 4063.59, 4118.462, 4139.487, 450, 0, []
1630162577.5899, 75, 0, 4196.923, 4149.231, 4090.256, 4128.718, 4136.923, 16204, 0, []
1630162577.5979, 76, 0, 4207.692, 4182.051, 4089.744, 4144.615, 4150.256, 450, 0, []
1630162577.6058, 77, 0, 4198.974, 4202.564, 4073.333, 4141.538, 4163.077, 450, 0, []
1630162577.6137, 78, 0, 4187.179, 4192.308, 4066.667, 4128.205, 4151.282, 450, 0, []
1630162577.6215, 79, 0, 4190.769, 4172.821, 4050.256, 4125.641, 4140.513, 16204, 0, []
1630162577.6294, 80, 0, 4200.513, 4195.897, 4074.872, 4135.385, 4152.308, 450, 0, []
1630162577.6372, 81, 0, 4200.513, 4236.41, 4077.436, 4132.308, 4160, 450, 0, []
1630162577.645, 82, 0, 4199.487, 4221.026, 4084.103, 4133.846, 4155.385, 450, 0, []
1630162577.6529, 83, 0, 4203.59, 4195.385, 4105.641, 4147.179, 4164.103, 16204, 0, []
1630162577.6606, 84, 0, 4201.538, 4212.308, 4080.513, 4138.974, 4173.846, 450, 0, []
1630162577.6685, 85, 0, 4203.077, 4238.974, 4083.59, 4132.308, 4168.205, 450, 0, []
1630162577.6763, 86, 0, 4203.077, 4261.026, 4079.487, 4139.487, 4165.128, 450, 0, []
1630162577.6843, 87, 0, 4186.154, 4247.692, 4070.769, 4138.974, 4160, 16204, 0, []
1630162577.6922, 88, 0, 4184.615, 4227.692, 4078.974, 4133.333, 4146.154, 450, 0, []
1630162577.7002, 89, 0, 4202.564, 4262.564, 4051.282, 4136.41, 4157.949, 450, 0, []
1630162577.708, 90, 0, 4204.615, 4280.513, 4067.692, 4152.821, 4184.103, 450, 0, []
1630162577.716, 91, 0, 4205.128, 4247.692, 4085.128, 4162.564, 4187.179, 16204, 0, []
1630162577.7239, 92, 0, 4217.436, 4250.256, 4083.59, 4167.692, 4183.59, 450, 0, []
1630162577.7319, 93, 0, 4204.615, 4253.846, 4095.385, 4165.641, 4182.051, 450, 0, []
1630162577.7398, 94, 0, 4178.974, 4197.949, 4067.179, 4147.179, 4161.538, 450, 0, []
1630162577.7477, 95, 0, 4185.128, 4192.821, 4069.231, 4145.128, 4145.641, 16204, 0, []
1630162577.7556, 96, 0, 4202.564, 4258.462, 4073.333, 4151.795, 4162.564, 450, 0, []
1630162577.7634, 97, 0, 4209.744, 4295.385, 4065.128, 4147.692, 4183.077, 450, 0, []
1630162577.7713, 98, 0, 4233.333, 4282.564, 4095.897, 4162.051, 4192.821, 450, 0, []
1630162577.7791, 99, 0, 4254.872, 4248.718, 4094.359, 4185.128, 4207.179, 16204, 0, []
1630162577.7869, 100, 0, 4239.487, 4252.821, 4102.051, 4189.744, 4207.692, 450, 0, []
1630162577.7947, 101, 0, 4215.897, 4263.077, 4104.103, 4189.231, 4187.692, 450, 0, []
1630162577.8026, 102, 0, 4212.821, 4226.154, 4081.026, 4197.436, 4181.026, 450, 0, []
1630162577.8104, 103, 0, 4207.692, 4206.154, 4084.615, 4184.615, 4186.154, 16204, 0, []
1630162577.8183, 104, 0, 4197.436, 4234.872, 4060, 4152.308, 4172.308, 450, 0, []
1630162577.826, 105, 0, 4203.077, 4233.333, 4061.538, 4145.128, 4161.026, 450, 0, []
1630162577.8339, 106, 0, 4212.308, 4192.308, 4074.359, 4151.282, 4177.436, 450, 0, []
1630162577.8417, 107, 0, 4216.923, 4204.615, 4058.462, 4146.154, 4186.667, 16204, 0, []
1630162577.8497, 108, 0, 4212.821, 4251.795, 4083.077, 4152.308, 4176.923, 450, 0, []
1630162577.8576, 109, 0, 4210.256, 4245.641, 4095.385, 4165.641, 4176.923, 450, 0, []
1630162577.8655, 110, 0, 4222.564, 4230.256, 4111.282, 4175.897, 4190.256, 450, 0, []
1630162577.8734, 111, 0, 4226.154, 4262.051, 4121.026, 4180.513, 4198.974, 16204, 0, []
1630162577.8814, 112, 0, 4215.897, 4283.077, 4100, 4177.949, 4200.513, 450, 0, []
1630162577.8893, 113, 0, 4223.59, 4263.077, 4125.128, 4181.538, 4203.077, 450, 0, []
1630162577.8973, 114, 0, 4236.923, 4259.487, 4122.051, 4178.462, 4203.077, 450, 0, []
1630162577.9051, 115, 0, 4231.795, 4268.205, 4106.667, 4169.231, 4202.051, 16204, 0, []
1630162577.9131, 116, 0, 4236.923, 4262.051, 4114.872, 4167.179, 4206.667, 450, 0, []
1630162577.921, 117, 0, 4251.282, 4262.564, 4094.359, 4163.59, 4213.846, 450, 0, []
1630162577.9288, 118, 0, 4245.128, 4246.667, 4103.077, 4161.026, 4209.231, 450, 0, []
1630162577.9367, 119, 0, 4234.359, 4229.231, 4101.538, 4163.077, 4198.974, 16204, 0, []
1630162577.9444, 120, 0, 4229.231, 4253.333, 4095.897, 4164.103, 4198.974, 450, 0, []
1630162577.9523, 121, 0, 4228.205, 4271.795, 4110.256, 4162.051, 4201.538, 450, 0, []
1630162577.9601, 122, 0, 4243.077, 4268.205, 4102.564, 4169.744, 4208.718, 450, 0, []
1630162577.968, 123, 0, 4256.41, 4287.179, 4130.256, 4182.051, 4220.513, 16204, 0, []
1630162577.9758, 124, 0, 4237.949, 4291.282, 4123.077, 4161.538, 4206.154, 450, 0, []
1630162577.9836, 125, 0, 4217.436, 4254.359, 4090.256, 4145.641, 4180, 450, 0, []
1630162577.9914, 126, 0, 4224.615, 4243.59, 4106.154, 4160.513, 4191.282, 450, 0, []
1630162577.9994, 127, 0, 4224.103, 4253.333, 4093.333, 4154.359, 4203.59, 16204, 0, []
1630162578.0073, 128, 0, 4214.359, 4241.538, 4092.821, 4142.564, 4182.564, 450, 0, []
1630162578.0153, 0, 0, 4222.051, 4242.564, 4101.538, 4157.949, 4186.667, 450, 0, []
1630162578.0231, 1, 0, 4223.077, 4279.487, 4105.128, 4167.179, 4205.641, 450, 0, []
1630162578.0311, 2, 0, 4217.949, 4291.795, 4128.718, 4166.154, 4189.231, 16186, 0, []
1630162578.039, 3, 0, 4230.769, 4246.154, 4116.41, 4167.179, 4188.205, 450, 0, []
1630162578.047, 4, 0, 4234.872, 4219.487, 4120, 4160, 4214.872, 16074, 0, []
1630162578.0549, 5, 0, 4219.487, 4257.436, 4115.385, 4140.513, 4205.641, 450, 0, []
1630162578.0629, 6, 0, 4214.872, 4298.974, 4088.718, 4132.308, 4178.462, 239, 0, []
1630162578.0707, 7, 0, 4208.718, 4281.026, 4096.41, 4142.051, 4171.282, 450, 0, []
1630162578.0785, 8, 0, 4198.462, 4256.41, 4082.564, 4153.333, 4167.692, 450, 0, []
1630162578.0864, 9, 0, 4205.641, 4273.846, 4095.385, 4166.154, 4176.41, 16094, 0, []
1630162578.0942, 10, 0, 4216.41, 4296.41, 4110.769, 4170.769, 4189.231, 450, 0, []
1630162578.1021, 11, 0, 4216.41, 4304.615, 4102.051, 4170.256, 4187.179, 16196, 0, []
1630162578.1098, 12, 0, 4217.949, 4305.128, 4133.846, 4174.359, 4192.308, 450, 0, []
1630162578.1177, 13, 0, 4223.077, 4281.538, 4119.487, 4168.205, 4202.051, 450, 0, []
1630162578.1255, 14, 0, 4228.718, 4258.462, 4105.128, 4171.795, 4200.513, 450, 0, []
1630162578.1334, 15, 0, 4228.718, 4283.077, 4120.513, 4176.41, 4197.949, 16196, 0, []
1630162578.1412, 16, 0, 4212.821, 4297.436, 4101.538, 4156.41, 4188.205, 0, 0, []
1630162578.149, 17, 0, 4207.179, 4256.923, 4108.205, 4147.179, 4177.436, 0, 0, []
1630162578.1568, 18, 0, 4215.897, 4257.436, 4101.538, 4153.333, 4182.051, 0, 0, []
1630162578.1648, 19, 0, 4216.41, 4300.513, 4101.026, 4151.282, 4186.667, 0, 0, []
1630162578.1727, 20, 0, 4216.41, 4295.897, 4122.564, 4157.436, 4184.103, 0, 0, []
1630162578.1807, 21, 0, 4214.359, 4256.923, 4107.692, 4171.282, 4185.128, 0, 0, []
1630162578.1885, 22, 0, 4202.564, 4249.744, 4109.744, 4176.41, 4181.538, 0, 0, []
1630162578.1965, 23, 0, 4194.359, 4292.821, 4095.897, 4166.154, 4169.231, 0, 0, []
1630162578.2044, 24, 0, 4194.872, 4311.282, 4083.59, 4157.436, 4157.436, 0, 0, []
1630162578.2124, 25, 0, 4185.128, 4274.359, 4094.359, 4153.333, 4155.385, 0, 0, []
1630162578.2203, 26, 0, 4177.436, 4263.59, 4078.974, 4143.59, 4161.026, 0, 0, []
1630162578.2282, 27, 0, 4190.769, 4281.538, 4099.487, 4142.564, 4162.051, 0, 0, []
1630162578.2361, 28, 0, 4201.538, 4273.333, 4101.026, 4141.538, 4158.462, 0, 0, []
1630162578.2439, 29, 0, 4192.821, 4261.026, 4086.667, 4126.154, 4158.462, 0, 0, []
1630162578.2518, 30, 0, 4182.564, 4272.821, 4101.538, 4113.333, 4154.872, 0, 0, []
1630162578.2596, 31, 0, 4187.179, 4294.872, 4080.513, 4117.436, 4148.718, 0, 0, []
1630162578.2674, 32, 0, 4196.923, 4318.974, 4093.333, 4135.385, 4154.872, 0, 0, []
1630162578.2752, 33, 0, 4200.513, 4310.256, 4101.538, 4137.436, 4159.487, 0, 0, []
1630162578.2831, 34, 0, 4200.513, 4271.795, 4085.641, 4135.897, 4150.256, 0, 0, []
1630162578.2909, 35, 0, 4189.744, 4276.41, 4104.615, 4150.256, 4148.205, 0, 0, []
1630162578.2988, 36, 0, 4178.974, 4284.615, 4092.821, 4156.41, 4154.872, 0, 0, []
1630162578.3065, 37, 0, 4186.667, 4265.128, 4092.308, 4151.795, 4157.436, 0, 0, []
1630162578.3144, 38, 0, 4189.231, 4276.41, 4093.846, 4143.59, 4154.359, 0, 0, []
1630162578.3222, 39, 0, 4174.359, 4304.615, 4077.436, 4125.128, 4150.256, 0, 0, []
1630162578.3302, 40, 0, 4167.692, 4284.615, 4088.718, 4108.205, 4140, 0, 0, []
1630162578.3381, 41, 0, 4170.256, 4250.769, 4076.923, 4112.821, 4131.282, 0, 0, []
1630162578.346, 42, 0, 4169.744, 4271.282, 4086.667, 4135.897, 4143.59, 0, 0, []
1630162578.3539, 43, 0, 4173.333, 4284.615, 4093.333, 4142.051, 4156.41, 0, 0, []
1630162578.3619, 44, 0, 4177.436, 4262.051, 4067.179, 4126.667, 4149.231, 0, 0, []
1630162578.3698, 45, 0, 4172.821, 4263.077, 4082.564, 4126.667, 4139.487, 0, 0, []
1630162578.3778, 46, 0, 4168.205, 4282.051, 4080, 4133.333, 4141.538, 0, 0, []
1630162578.3856, 47, 0, 4168.205, 4287.692, 4078.974, 4132.308, 4140, 0, 0, []
1630162578.3934, 48, 0, 4165.128, 4277.436, 4084.615, 4135.385, 4134.359, 0, 0, []
1630162578.4013, 49, 0, 4153.846, 4256.923, 4063.077, 4133.333, 4132.821, 0, 0, []
1630162578.4091, 50, 0, 4146.667, 4268.718, 4079.487, 4125.128, 4126.667, 0, 0, []
1630162578.417, 51, 0, 4159.487, 4299.487, 4075.385, 4114.872, 4120.513, 0, 0, []
1630162578.4248, 52, 0, 4167.179, 4281.026, 4065.128, 4114.872, 4120.513, 0, 0, []
1630162578.4326, 53, 0, 4161.026, 4252.308, 4075.385, 4120, 4127.692, 0, 0, []
1630162578.4404, 54, 0, 4164.615, 4262.051, 4062.051, 4112.821, 4136.923, 0, 0, []
1630162578.4483, 55, 0, 4174.359, 4289.231, 4085.128, 4115.385, 4135.385, 0, 0, []
1630162578.4561, 56, 0, 4176.41, 4294.359, 4092.308, 4126.667, 4132.308, 0, 0, []
1630162578.4641, 57, 0, 4171.795, 4257.949, 4089.744, 4127.179, 4142.564, 0, 0, []
1630162578.4719, 58, 0, 4167.179, 4230.256, 4094.872, 4117.949, 4145.128, 0, 0, []
1630162578.4799, 59, 0, 4174.359, 4251.795, 4069.231, 4114.872, 4133.846, 0, 0, []
1630162578.4878, 60, 0, 4182.564, 4272.821, 4089.231, 4123.59, 4136.923, 0, 0, []
1630162578.4958, 61, 0, 4172.821, 4262.564, 4089.744, 4121.538, 4141.026, 0, 0, []
1630162578.5037, 62, 0, 4167.692, 4255.385, 4067.179, 4119.487, 4130.256, 0, 0, []
1630162578.5116, 63, 0, 4175.897, 4276.923, 4081.538, 4131.795, 4127.179, 0, 0, []
1630162578.5195, 64, 0, 4170.256, 4297.949, 4071.282, 4129.744, 4137.949, 450, 0, []
1630162578.5275, 65, 0, 4166.667, 4286.154, 4086.154, 4127.179, 4142.051, 450, 0, []
1630162578.5354, 66, 0, 4173.846, 4284.103, 4090.256, 4127.692, 4129.744, 16188, 0, []
1630162578.5432, 67, 0, 4162.564, 4322.051, 4061.538, 4114.872, 4115.897, 450, 0, []
1630162578.551, 68, 0, 4153.846, 4326.154, 4072.821, 4107.179, 4117.949, 16070, 0, []
1630162578.5588, 69, 0, 4171.282, 4294.359, 4075.385, 4112.821, 4129.231, 450, 0, []
1630162578.5667, 70, 0, 4180, 4298.974, 4085.128, 4123.59, 4130.256, 240, 0, []
1630162578.5745, 71, 0, 4169.231, 4319.487, 4077.949, 4123.59, 4125.128, 450, 0, []
1630162578.5824, 72, 0, 4162.051, 4322.564, 4058.462, 4115.385, 4127.692, 450, 0, []
1630162578.5901, 73, 0, 4159.487, 4317.436, 4080, 4115.385, 4127.179, 16090, 0, []
1630162578.598, 74, 0, 4155.897, 4308.205, 4065.641, 4118.462, 4118.462, 450, 0, []
1630162578.6058, 75, 0, 4152.821, 4302.564, 4064.103, 4120, 4114.872, 16197, 0, []
1630162578.6137, 76, 0, 4137.949, 4298.974, 4067.179, 4115.385, 4112.821, 450, 0, []
1630162578.6216, 77, 0, 4137.949, 4290.256, 4046.154, 4114.872, 4109.231, 450, 0, []
1630162578.6295, 78, 0, 4160, 4291.795, 4062.564, 4120, 4118.974, 450, 0, []
1630162578.6375, 79, 0, 4171.282, 4329.231, 4059.487, 4118.974, 4141.538, 16197, 0, []
1630162578.6454, 80, 0, 4176.41, 4345.641, 4068.718, 4121.538, 4151.795, 450, 0, []
1630162578.6533, 81, 0, 4182.564, 4314.872, 4082.051, 4130.256, 4141.538, 450, 0, []
1630162578.6613, 82, 0, 4178.974, 4310.256, 4067.692, 4141.026, 4145.641, 450, 0, []
1630162578.6691, 83, 0, 4168.205, 4329.231, 4087.692, 4141.538, 4154.359, 16197, 0, []
1630162578.6771, 84, 0, 4168.718, 4311.282, 4075.897, 4122.564, 4141.026, 450, 0, []
1630162578.685, 85, 0, 4170.769, 4287.692, 4067.179, 4115.385, 4131.282, 450, 0, []
1630162578.6929, 86, 0, 4167.692, 4293.333, 4087.179, 4122.051, 4137.949, 450, 0, []
1630162578.7008, 87, 0, 4172.821, 4303.59, 4076.923, 4120.513, 4136.923, 16197, 0, []
1630162578.7085, 88, 0, 4186.667, 4309.744, 4094.872, 4135.897, 4134.359, 450, 0, []
1630162578.7164, 89, 0, 4192.308, 4308.205, 4088.718, 4151.282, 4149.231, 450, 0, []
1630162578.7242, 90, 0, 4183.077, 4302.564, 4075.385, 4148.718, 4156.41, 450, 0, []
1630162578.7321, 91, 0, 4188.718, 4314.359, 4092.308, 4156.41, 4153.333, 16197, 0, []
1630162578.7399, 92, 0, 4197.949, 4324.103, 4072.308, 4164.103, 4153.846, 450, 0, []
1630162578.7478, 93, 0, 4187.179, 4331.282, 4082.564, 4160, 4157.436, 450, 0, []
1630162578.7555, 94, 0, 4178.974, 4346.154, 4089.231, 4148.205, 4151.282, 450, 0, []
1630162578.7635, 95, 0, 4184.615, 4332.308, 4085.128, 4149.231, 4143.59, 16197, 0, []
1630162578.7714, 96, 0, 4187.179, 4320, 4104.103, 4155.897, 4151.282, 450, 0, []
1630162578.7794, 97, 0, 4181.538, 4337.949, 4085.641, 4147.179, 4157.949, 450, 0, []
1630162578.7873, 98, 0, 4184.103, 4341.538, 4088.718, 4148.718, 4151.795, 450, 0, []
1630162578.7952, 99, 0, 4184.615, 4320, 4090.256, 4157.436, 4146.154, 16197, 0, []
1630162578.8031, 100, 0, 4167.692, 4299.487, 4073.333, 4143.077, 4139.487, 450, 0, []
1630162578.8111, 101, 0, 4164.615, 4300, 4083.077, 4132.821, 4131.282, 450, 0, []
1630162578.819, 102, 0, 4188.718, 4322.564, 4077.949, 4147.692, 4141.026, 450, 0, []
1630162578.827, 103, 0, 4198.974, 4326.667, 4104.615, 4158.462, 4156.41, 16197, 0, []
1630162578.8348, 104, 0, 4181.538, 4298.462, 4109.231, 4150.256, 4151.282, 450, 0, []
1630162578.8427, 105, 0, 4169.231, 4301.026, 4077.436, 4146.667, 4135.385, 450, 0, []
1630162578.8506, 106, 0, 4169.231, 4333.333, 4085.641, 4153.846, 4134.359, 450, 0, []
1630162578.8584, 107, 0, 4175.897, 4327.179, 4072.308, 4152.308, 4147.692, 16197, 0, []
1630162578.8663, 108, 0, 4188.205, 4308.205, 4079.487, 4151.795, 4157.949, 450, 0, []
1630162578.874, 109, 0, 4185.128, 4306.667, 4094.872, 4153.333, 4152.308, 450, 0, []
1630162578.8819, 110, 0, 4170.256, 4321.026, 4073.333, 4145.128, 4144.103, 450, 0, []
1630162578.8897, 111, 0, 4163.077, 4345.641, 4076.923, 4137.436, 4142.051, 16197, 0, []
1630162578.8976, 112, 0, 4167.179, 4335.385, 4066.154, 4132.821, 4138.462, 450, 0, []
1630162578.9054, 113, 0, 4169.231, 4316.923, 4081.538, 4141.026, 4143.59, 450, 0, []
1630162578.9132, 114, 0, 4166.667, 4347.692, 4104.103, 4152.821, 4153.333, 450, 0, []
1630162578.921, 115, 0, 4173.333, 4356.41, 4088.718, 4160.513, 4153.333, 16197, 0, []
1630162578.929, 116, 0, 4185.128, 4326.154, 4111.282, 4175.385, 4160, 450, 0, []
1630162578.9369, 117, 0, 4193.333, 4343.59, 4108.718, 4180, 4174.359, 450, 0, []
1630162578.9449, 118, 0, 4200.513, 4384.103, 4093.333, 4174.872, 4171.795, 450, 0, []
1630162578.9527, 119, 0, 4200, 4363.59, 4096.41, 4171.795, 4165.128, 16197, 0, []
1630162578.9607, 120, 0, 4185.128, 4323.077, 4079.487, 4163.077, 4169.744, 450, 0, []
1630162578.9686, 121, 0, 4180, 4330.769, 4100, 4154.359, 4167.179, 450, 0, []
1630162578.9766, 122, 0, 4195.385, 4348.205, 4102.051, 4157.436, 4165.128, 450, 0, []
1630162578.9845, 123, 0, 4202.051, 4325.641, 4099.487, 4170.769, 4171.795, 16197, 0, []
1630162578.9924, 124, 0, 4198.974, 4302.564, 4121.538, 4175.385, 4171.795, 450, 0, []
1630162579.0003, 125, 0, 4198.462, 4315.385, 4105.128, 4169.231, 4168.718, 450, 0, []
1630162579.0083, 126, 0, 4201.026, 4328.205, 4112.821, 4170.256, 4174.872, 450, 0, []
1630162579.0162, 127, 0, 4206.154, 4315.385, 4109.744, 4166.667, 4178.462, 16197, 0, []
1630162579.0242, 128, 0, 4205.641, 4295.897, 4095.385, 4162.051, 4170.769, 450, 0, []
1630162579.032, 0, 0, 4202.564, 4274.872, 4115.385, 4167.692, 4171.795, 450, 0, []
1630162579.0398, 1, 0, 4211.795, 4272.308, 4114.872, 4167.692, 4184.615, 450, 0, []
1630162579.0477, 2, 0, 4223.077, 4275.897, 4128.205, 4173.333, 4188.205, 16186, 0, []
1630162579.0555, 3, 0, 4221.026, 4233.846, 4124.615, 4178.974, 4188.718, 450, 0, []
1630162579.0634, 4, 0, 4216.923, 4204.615, 4115.385, 4168.718, 4185.641, 16147, 0, []
1630162579.0711, 5, 0, 4212.821, 4213.846, 4127.692, 4162.051, 4167.692, 450, 0, []
1630162579.0791, 6, 0, 4207.179, 4196.923, 4094.872, 4164.103, 4163.59, 238, 0, []
1630162579.087, 7, 0, 4196.41, 4175.385, 4093.333, 4166.667, 4165.128, 450, 0, []
1630162579.095, 8, 0, 4178.462, 4174.872, 4099.487, 4165.128, 4142.564, 450, 0, []
1630162579.1029, 9, 0, 4171.795, 4167.692, 4083.59, 4161.538, 4130.256, 16096, 0, []
1630162579.1109, 10, 0, 4180, 4186.154, 4105.641, 4159.487, 4140, 450, 0, []
1630162579.1187, 11, 0, 4190.769, 4248.205, 4091.282, 4150.256, 4143.59, 16227, 0, []
1630162579.1267, 12, 0, 4197.436, 4258.974, 4090.256, 4152.308, 4153.846, 450, 0, []
1630162579.1346, 13, 0, 4198.462, 4221.538, 4112.821, 4163.59, 4169.231, 450, 0, []
1630162579.1426, 14, 0, 4209.231, 4237.436, 4110.769, 4164.103, 4175.897, 450, 0, []
1630162579.1505, 15, 0, 4231.795, 4270.769, 4131.282, 4169.231, 4193.846, 16227, 0, []
1630162579.1584, 16, 0, 4237.436, 4265.128, 4122.564, 4177.949, 4207.692, 0, 0, []
1630162579.1663, 17, 0, 4232.821, 4269.744, 4125.128, 4181.538, 4198.974, 0, 0, []
1630162579.1741, 18, 0, 4233.846, 4282.051, 4133.846, 4180.513, 4196.41, 0, 0, []
1630162579.182, 19, 0, 4218.462, 4260.513, 4107.692, 4175.897, 4195.385, 0, 0, []
1630162579.1898, 20, 0, 4205.128, 4248.718, 4116.41, 4175.385, 4179.487, 0, 0, []
1630162579.1976, 21, 0, 4210.769, 4253.846, 4108.205, 4173.846, 4175.385, 0, 0, []
1630162579.2054, 22, 0, 4205.641, 4252.308, 4105.641, 4176.923, 4176.41, 0, 0, []
1630162579.2133, 23, 0, 4198.974, 4284.103, 4117.436, 4175.385, 4168.205, 0, 0, []
1630162579.2211, 24, 0, 4201.538, 4321.026, 4091.795, 4157.436, 4164.615, 0, 0, []
1630162579.229, 25, 0, 4191.795, 4277.436, 4100, 4146.667, 4162.051, 0, 0, []
1630162579.2367, 26, 0, 4183.59, 4247.692, 4102.051, 4146.154, 4149.231, 0, 0, []
1630162579.2446, 27, 0, 4197.436, 4302.051, 4103.077, 4153.333, 4150.256, 0, 0, []
1630162579.2524, 28, 0, 4212.308, 4317.949, 4120.513, 4172.308, 4168.205, 0, 0, []
1630162579.2604, 29, 0, 4222.051, 4286.154, 4101.026, 4184.103, 4178.974, 0, 0, []
1630162579.2683, 30, 0, 4221.026, 4295.897, 4110.769, 4182.564, 4174.872, 0, 0, []
1630162579.2762, 31, 0, 4194.872, 4294.359, 4109.744, 4171.282, 4160, 0, 0, []
1630162579.2841, 32, 0, 4171.282, 4244.103, 4099.487, 4163.077, 4144.103, 0, 0, []
1630162579.2921, 33, 0, 4167.692, 4252.821, 4115.385, 4158.974, 4133.846, 0, 0, []
1630162579.3, 34, 0, 4156.41, 4287.692, 4090.256, 4150.769, 4125.128, 0, 0, []
1630162579.308, 35, 0, 4140.513, 4259.487, 4091.795, 4149.231, 4119.487, 0, 0, []
1630162579.3158, 36, 0, 4152.308, 4247.692, 4101.026, 4147.692, 4123.59, 0, 0, []
1630162579.3237, 37, 0, 4173.846, 4276.41, 4087.692, 4146.154, 4130.256, 0, 0, []
1630162579.3316, 38, 0, 4171.795, 4271.795, 4094.359, 4145.641, 4137.436, 0, 0, []
1630162579.3394, 39, 0, 4164.615, 4239.487, 4078.462, 4133.846, 4142.564, 0, 0, []
1630162579.3473, 40, 0, 4170.769, 4236.923, 4091.282, 4137.436, 4136.923, 0, 0, []
1630162579.355, 41, 0, 4174.872, 4234.872, 4097.436, 4155.385, 4136.923, 0, 0, []
1630162579.3629, 42, 0, 4172.821, 4196.923, 4084.615, 4164.615, 4149.744, 0, 0, []
1630162579.3707, 43, 0, 4175.385, 4182.051, 4108.205, 4164.615, 4151.282, 0, 0, []
1630162579.3786, 44, 0, 4168.718, 4203.59, 4094.359, 4153.846, 4134.359, 0, 0, []
1630162579.3864, 45, 0, 4148.718, 4187.179, 4092.308, 4142.051, 4122.564, 0, 0, []
1630162579.3942, 46, 0, 4129.231, 4143.59, 4091.795, 4120, 4112.821, 0, 0, []
1630162579.402, 47, 0, 4120.513, 4148.718, 4067.179, 4087.179, 4091.282, 0, 0, []
1630162579.41, 48, 0, 4129.231, 4177.436, 4084.615, 4082.051, 4080, 0, 0, []
1630162579.4179, 49, 0, 4141.026, 4176.923, 4083.077, 4098.462, 4090.769, 0, 0, []
1630162579.4259, 50, 0, 4135.385, 4158.974, 4087.692, 4113.846, 4105.128, 0, 0, []
1630162579.4337, 51, 0, 4125.641, 4160.513, 4093.333, 4129.231, 4108.718, 0, 0, []
1630162579.4417, 52, 0, 4126.154, 4179.487, 4067.179, 4140.513, 4103.077, 0, 0, []
1630162579.4496, 53, 0, 4122.051, 4166.667, 4076.41, 4138.462, 4097.949, 0, 0, []
1630162579.4576, 54, 0, 4112.821, 4143.077, 4069.231, 4118.974, 4097.436, 0, 0, []
1630162579.4655, 55, 0, 4114.872, 4142.564, 4071.795, 4097.949, 4092.308, 0, 0, []
1630162579.4735, 56, 0, 4129.744, 4141.538, 4091.795, 4088.205, 4081.538, 0, 0, []
1630162579.4813, 57, 0, 4138.462, 4142.564, 4070.769, 4086.667, 4080.513, 0, 0, []
1630162579.4891, 58, 0, 4130.256, 4155.897, 4082.564, 4092.308, 4090.769, 0, 0, []
1630162579.497, 59, 0, 4116.923, 4157.949, 4080.513, 4085.641, 4091.795, 0, 0, []
1630162579.5048, 60, 0, 4117.949, 4175.385, 4071.282, 4078.974, 4080.513, 0, 0, []
1630162579.5127, 61, 0, 4132.308, 4190.256, 4084.103, 4089.231, 4080.513, 0, 0, []
1630162579.5204, 62, 0, 4140, 4161.026, 4071.795, 4107.692, 4094.359, 0, 0, []
1630162579.5283, 63, 0, 4142.564, 4154.359, 4092.308, 4124.103, 4107.179, 0, 0, []
1630162579.5361, 64, 0, 4150.769, 4159.487, 4087.179, 4123.077, 4115.897, 450, 0, []
1630162579.544, 65, 0, 4163.59, 4151.795, 4069.231, 4127.692, 4125.128, 450, 0, []
1630162579.5518, 66, 0, 4158.974, 4167.179, 4089.231, 4138.974, 4127.692, 16184, 0, []
1630162579.5597, 67, 0, 4147.179, 4164.103, 4077.436, 4132.308, 4123.077, 450, 0, []
1630162579.5676, 68, 0, 4154.359, 4138.974, 4084.615, 4132.308, 4123.077, 16092, 0, []
1630162579.5756, 69, 0, 4157.949, 4153.846, 4083.59, 4141.026, 4123.077, 450, 0, []
1630162579.5835, 70, 0, 4145.128, 4181.026, 4070.256, 4140, 4120, 233, 0, []
1630162579.5915, 71, 0, 4144.615, 4178.462, 4089.744, 4133.846, 4121.538, 450, 0, []
1630162579.5993, 72, 0, 4157.949, 4175.385, 4073.846, 4123.077, 4116.41, 450, 0, []
1630162579.6073, 73, 0, 4154.872, 4176.923, 4067.692, 4118.974, 4103.59, 16096, 0, []
1630162579.6152, 74, 0, 4142.051, 4167.179, 4066.667, 4123.59, 4104.615, 450, 0, []
1630162579.6231, 75, 0, 4137.436, 4138.974, 4055.897, 4120.513, 4111.795, 16209, 0, []
1630162579.6311, 76, 0, 4141.026, 4126.667, 4074.359, 4122.051, 4106.667, 450, 0, []
1630162579.6388, 77, 0, 4145.641, 4166.667, 4055.385, 4132.821, 4102.051, 450, 0, []
1630162579.6467, 78, 0, 4141.538, 4173.333, 4055.897, 4129.231, 4106.667, 450, 0, []
1630162579.6545, 79, 0, 4131.795, 4128.205, 4072.821, 4116.41, 4107.692, 16209, 0, []
1630162579.6624, 80, 0, 4134.359, 4142.564, 4069.744, 4120, 4108.205, 450, 0, []
1630162579.6702, 81, 0, 4148.205, 4191.795, 4089.744, 4130.769, 4116.41, 450, 0, []
1630162579.678, 82, 0, 4154.872, 4184.615, 4069.744, 4118.462, 4123.59, 450, 0, []
1630162579.6858, 83, 0, 4144.615, 4146.667, 4066.667, 4107.692, 4115.897, 16209, 0, []
1630162579.6937, 84, 0, 4132.821, 4138.974, 4082.564, 4112.821, 4102.564, 450, 0, []
1630162579.7015, 85, 0, 4135.897, 4171.282, 4061.026, 4120.513, 4096.923, 450, 0, []
1630162579.7094, 86, 0, 4138.974, 4223.077, 4077.949, 4131.795, 4103.59, 450, 0, []
1630162579.7171, 87, 0, 4144.103, 4238.462, 4084.615, 4135.897, 4115.897, 16209, 0, []
1630162579.7251, 88, 0, 4163.077, 4218.974, 4083.59, 4133.846, 4118.974, 450, 0, []
1630162579.733, 89, 0, 4168.718, 4221.026, 4086.154, 4131.795, 4113.846, 450, 0, []
1630162579.741, 90, 0, 4155.385, 4216.923, 4071.795, 4126.667, 4113.333, 450, 0, []
1630162579.7489, 91, 0, 4162.564, 4202.564, 4096.923, 4130.256, 4117.949, 16209, 0, []
1630162579.7568, 92, 0, 4187.692, 4239.487, 4096.41, 4143.59, 4135.897, 450, 0, []
1630162579.7647, 93, 0, 4186.154, 4263.59, 4088.718, 4149.231, 4154.872, 450, 0, []
1630162579.7727, 94, 0, 4166.667, 4206.667, 4092.821, 4140, 4143.59, 450, 0, []
1630162579.7806, 95, 0, 4163.59, 4183.077, 4061.538, 4130.769, 4118.974, 16209, 0, []
1630162579.7885, 96, 0, 4167.179, 4232.821, 4073.846, 4142.051, 4122.051, 450, 0, []
1630162579.7964, 97, 0, 4168.718, 4245.128, 4083.077, 4150.769, 4137.949, 450, 0, []
1630162579.8041, 98, 0, 4180.513, 4216.923, 4081.026, 4149.744, 4142.564, 450, 0, []
1630162579.812, 99, 0, 4183.077, 4217.436, 4104.615, 4153.846, 4137.949, 16209, 0, []
1630162579.8198, 100, 0, 4173.333, 4226.154, 4088.718, 4149.744, 4137.949, 450, 0, []
1630162579.8277, 101, 0, 4178.462, 4201.538, 4086.154, 4142.051, 4148.718, 450, 0, []
1630162579.8355, 102, 0, 4194.359, 4196.41, 4079.487, 4145.128, 4157.436, 450, 0, []
1630162579.8433, 103, 0, 4188.718, 4233.333, 4070.256, 4156.923, 4151.282, 16209, 0, []
1630162579.8511, 104, 0, 4168.718, 4225.128, 4093.846, 4158.974, 4136.41, 450, 0, []
1630162579.8591, 105, 0, 4176.41, 4201.026, 4078.462, 4150.769, 4135.897, 450, 0, []
1630162579.867, 106, 0, 4205.128, 4242.564, 4088.718, 4165.641, 4160, 450, 0, []
1630162579.875, 107, 0, 4218.462, 4261.026, 4114.359, 4177.949, 4177.949, 16209, 0, []
1630162579.8828, 108, 0, 4210.769, 4237.436, 4108.718, 4162.051, 4164.615, 450, 0, []
1630162579.8908, 109, 0, 4203.59, 4254.359, 4109.231, 4157.949, 4154.359, 450, 0, []
1630162579.8987, 110, 0, 4206.154, 4261.026, 4083.077, 4165.641, 4169.231, 450, 0, []
1630162579.9067, 111, 0, 4210.769, 4252.821, 4092.308, 4161.026, 4177.949, 16209, 0, []
1630162579.9146, 112, 0, 4204.615, 4282.051, 4096.923, 4158.462, 4170.256, 450, 0, []
1630162579.9225, 113, 0, 4195.897, 4286.667, 4075.897, 4168.205, 4169.744, 450, 0, []
1630162579.9304, 114, 0, 4209.231, 4270.769, 4106.154, 4176.41, 4172.821, 450, 0, []
1630162579.9383, 115, 0, 4217.436, 4274.359, 4094.872, 4172.821, 4172.308, 16209, 0, []
1630162579.9462, 116, 0, 4203.59, 4267.179, 4076.923, 4170.769, 4179.487, 450, 0, []
1630162579.954, 117, 0, 4198.462, 4278.462, 4081.026, 4163.59, 4178.462, 450, 0, []
1630162579.9618, 118, 0, 4204.103, 4306.154, 4067.179, 4152.821, 4163.59, 450, 0, []
1630162579.9696, 119, 0, 4204.103, 4298.462, 4098.462, 4161.538, 4171.795, 16209, 0, []
1630162579.9775, 120, 0, 4202.564, 4286.154, 4109.231, 4165.128, 4184.103, 450, 0, []
1630162579.9853, 121, 0, 4199.487, 4285.641, 4106.154, 4164.615, 4168.205, 450, 0, []
1630162579.9932, 122, 0, 4197.436, 4279.487, 4115.385, 4171.795, 4167.179, 450, 0, []
