Timestamp, COUNTER, INTERPOLATED, AF3, T7, Pz, T8, AF4, RAW_CQ, MARKER_HARDWARE, MARKERS
1632651511.3714, 36, 0, 4300, 4048.205, 4094.359, 4206.154, 4287.692, 0, 0, []
1632651511.3792, 37, 0, 4297.949, 4193.333, 4079.487, 4214.359, 4305.128, 0, 0, []
1632651511.387, 38, 0, 4301.026, 4225.128, 4124.103, 4229.744, 4311.795, 0, 0, []
1632651511.3949, 39, 0, 4310.769, 4252.821, 4118.462, 4244.615, 4329.231, 0, 0, []
1632651511.4027, 40, 0, 4315.385, 4482.564, 4127.692, 4265.641, 4343.077, 0, 0, []
1632651511.4106, 41, 0, 4308.718, 4657.949, 4141.538, 4276.41, 4325.641, 0, 0, []
1632651511.4184, 42, 0, 4290.256, 4607.179, 4107.179, 4252.821, 4290.769, 0, 0, []
1632651511.4262, 43, 0, 4274.359, 4578.462, 4116.41, 4228.205, 4270.256, 0, 0, []
1632651511.434, 44, 0, 4285.641, 4556.41, 4096.41, 4230.769, 4275.385, 0, 0, []
1632651511.4419, 45, 0, 4303.077, 4375.385, 4097.436, 4243.077, 4275.897, 0, 0, []
1632651511.4497, 46, 0, 4303.59, 4206.667, 4126.154, 4245.641, 4266.154, 0, 0, []
1632651511.4576, 47, 0, 4292.308, 4210.256, 4112.821, 4230.256, 4263.077, 0, 0, []
1632651511.4653, 48, 0, 4272.308, 4380, 4130.769, 4215.385, 4260.513, 0, 0, []
1632651511.4731, 49, 0, 4259.487, 4591.795, 4123.077, 4212.308, 4258.974, 0, 0, []
1632651511.481, 50, 0, 4266.154, 4675.897, 4126.667, 4220, 4271.795, 0, 0, []
1632651511.4888, 51, 0, 4281.026, 4714.359, 4146.667, 4233.333, 4287.179, 0, 0, []
1632651511.4967, 52, 0, 4292.308, 4824.615, 4129.231, 4241.538, 4295.385, 0, 0, []
1632651511.5044, 53, 0, 4300.513, 4897.436, 4154.359, 4246.154, 4299.487, 0, 0, []
1632651511.5123, 54, 0, 4307.692, 4884.103, 4138.462, 4238.462, 4298.974, 0, 0, []
1632651511.5201, 55, 0, 4315.897, 4868.718, 4141.026, 4238.462, 4300.513, 0, 0, []
1632651511.528, 56, 0, 4315.897, 4854.359, 4172.821, 4251.282, 4298.974, 0, 0, []
1632651511.5358, 57, 0, 4302.564, 4703.59, 4135.897, 4243.077, 4281.026, 0, 0, []
1632651511.5436, 58, 0, 4297.436, 4432.821, 4155.385, 4228.718, 4265.641, 0, 0, []
1632651511.5514, 59, 0, 4305.128, 4315.385, 4175.385, 4247.692, 4275.897, 0, 0, []
1632651511.5593, 60, 0, 4303.59, 4391.282, 4191.795, 4271.795, 4293.333, 0, 0, []
1632651511.5671, 61, 0, 4293.333, 4458.974, 4209.744, 4252.821, 4290.256, 0, 0, []
1632651511.575, 62, 0, 4289.744, 4709.744, 4162.051, 4232.821, 4282.051, 0, 0, []
1632651511.5827, 63, 0, 4275.897, 5167.692, 4179.487, 4254.359, 4283.59, 0, 0, []
1632651511.5906, 64, 0, 4258.462, 5432.821, 4189.231, 4268.718, 4281.026, 450, 0, []
1632651511.5984, 65, 0, 4257.949, 5547.692, 4161.538, 4253.333, 4267.692, 450, 0, []
1632651511.6063, 66, 0, 4258.462, 5585.641, 4169.231, 4250.256, 4254.872, 16164, 0, []
1632651511.6141, 67, 0, 4258.974, 5276.923, 4162.051, 4266.154, 4260.513, 450, 0, []
1632651511.622, 68, 0, 4272.821, 4758.974, 4194.872, 4282.051, 4276.923, 16082, 0, []
1632651511.6297, 69, 0, 4293.846, 4423.59, 4215.385, 4298.462, 4292.821, 450, 0, []
1632651511.6375, 70, 0, 4304.103, 4332.821, 4204.615, 4305.128, 4303.077, 314, 0, []
1632651511.6454, 71, 0, 4288.205, 4362.051, 4203.59, 4290.769, 4290.256, 450, 0, []
1632651511.6532, 72, 0, 4272.308, 4369.231, 4180.513, 4275.897, 4264.103, 450, 0, []
1632651511.6611, 73, 0, 4276.41, 4513.846, 4213.333, 4286.154, 4248.718, 16154, 0, []
1632651511.6688, 74, 0, 4274.359, 5038.974, 4225.641, 4296.923, 4237.949, 450, 0, []
1632651511.6767, 75, 0, 4269.744, 5363.59, 4203.59, 4293.333, 4235.897, 16208, 0, []
1632651511.6845, 76, 0, 4283.077, 4996.923, 4222.051, 4293.333, 4248.205, 450, 0, []
1632651511.6924, 77, 0, 4294.872, 4718.974, 4205.641, 4280.513, 4259.487, 450, 0, []
1632651511.7002, 78, 0, 4285.641, 5007.692, 4220.513, 4256.923, 4261.026, 450, 0, []
1632651511.708, 79, 0, 4275.385, 5207.179, 4223.077, 4251.795, 4257.436, 16208, 0, []
1632651511.7158, 80, 0, 4275.897, 5088.205, 4197.436, 4266.667, 4257.949, 450, 0, []
1632651511.7237, 81, 0, 4261.026, 4921.026, 4220.513, 4274.359, 4248.205, 450, 0, []
1632651511.7315, 82, 0, 4248.205, 4764.615, 4192.821, 4273.846, 4237.949, 450, 0, []
1632651511.7394, 83, 0, 4260, 4666.154, 4188.205, 4289.744, 4252.308, 16208, 0, []
1632651511.7471, 84, 0, 4268.718, 4648.205, 4200, 4296.41, 4265.641, 450, 0, []
1632651511.755, 85, 0, 4275.897, 4608.718, 4169.231, 4287.692, 4271.795, 450, 0, []
1632651511.7628, 86, 0, 4290.769, 4517.436, 4182.051, 4300.513, 4287.179, 450, 0, []
1632651511.7707, 87, 0, 4300.513, 4478.462, 4169.231, 4317.436, 4293.333, 16208, 0, []
1632651511.7785, 88, 0, 4295.385, 4530.769, 4153.333, 4302.051, 4267.179, 450, 0, []
1632651511.7863, 89, 0, 4294.872, 4572.308, 4162.051, 4282.051, 4247.692, 450, 0, []
1632651511.7942, 90, 0, 4323.59, 4390.256, 4167.179, 4286.154, 4276.923, 450, 0, []
1632651511.8021, 91, 0, 4342.564, 4206.667, 4210.256, 4291.795, 4308.718, 16208, 0, []
1632651511.8101, 92, 0, 4323.077, 4341.538, 4195.897, 4284.615, 4301.538, 450, 0, []
1632651511.818, 93, 0, 4298.462, 4524.103, 4172.308, 4276.923, 4284.103, 450, 0, []
1632651511.826, 94, 0, 4285.641, 4760, 4175.897, 4269.231, 4273.333, 450, 0, []
1632651511.8338, 95, 0, 4262.564, 5210.256, 4141.026, 4258.974, 4254.872, 16208, 0, []
1632651511.8416, 96, 0, 4237.949, 5482.564, 4162.564, 4254.872, 4236.923, 450, 0, []
1632651511.8496, 97, 0, 4233.846, 5512.821, 4167.692, 4248.718, 4231.795, 450, 0, []
1632651511.8575, 98, 0, 4241.538, 5622.564, 4156.923, 4251.282, 4236.923, 450, 0, []
1632651511.8654, 99, 0, 4246.154, 5663.59, 4183.59, 4263.59, 4239.487, 16208, 0, []
1632651511.8733, 100, 0, 4240, 5881.538, 4155.897, 4262.051, 4229.744, 450, 0, []
1632651511.8812, 101, 0, 4234.872, 6551.795, 4156.923, 4267.179, 4219.487, 450, 0, []
1632651511.8892, 102, 0, 4245.641, 6720.513, 4165.128, 4274.872, 4220.513, 450, 0, []
1632651511.8972, 103, 0, 4246.667, 6112.308, 4144.103, 4255.897, 4221.538, 16208, 0, []
1632651511.9052, 104, 0, 4232.821, 5804.615, 4149.744, 4248.718, 4216.41, 450, 0, []
1632651511.9131, 105, 0, 4241.538, 6053.846, 4147.692, 4271.282, 4227.692, 450, 0, []
1632651511.9209, 106, 0, 4254.359, 6209.231, 4167.692, 4278.974, 4240, 450, 0, []
1632651511.9289, 107, 0, 4243.59, 6237.949, 4164.103, 4273.333, 4233.846, 16208, 0, []
1632651511.9369, 108, 0, 4236.41, 6401.538, 4148.718, 4271.795, 4229.744, 450, 0, []
1632651511.9448, 109, 0, 4232.821, 6477.436, 4173.333, 4251.795, 4220, 450, 0, []
1632651511.9528, 110, 0, 4233.846, 6395.897, 4165.128, 4242.051, 4216.41, 450, 0, []
1632651511.9606, 111, 0, 4240, 6020.513, 4178.462, 4270.256, 4226.667, 16208, 0, []
1632651511.9686, 112, 0, 4236.41, 5240.513, 4181.538, 4273.846, 4222.051, 450, 0, []
1632651511.9765, 113, 0, 4218.974, 4504.103, 4138.974, 4237.949, 4198.462, 450, 0, []
1632651511.9845, 114, 0, 4201.538, 4280, 4129.231, 4228.205, 4175.897, 450, 0, []
1632651511.9924, 115, 0, 4205.641, 4287.692, 4119.487, 4254.359, 4166.667, 16208, 0, []
1632651512.0003, 116, 0, 4215.897, 4130.256, 4138.974, 4261.538, 4167.179, 450, 0, []
1632651512.0082, 117, 0, 4205.128, 4021.026, 4137.436, 4240, 4168.718, 450, 0, []
1632651512.0162, 118, 0, 4192.308, 4002.564, 4108.205, 4233.846, 4171.282, 450, 0, []
1632651512.0241, 119, 0, 4189.744, 3932.308, 4137.949, 4244.615, 4160, 16208, 0, []
1632651512.0321, 120, 0, 4191.282, 3878.974, 4129.231, 4229.744, 4135.385, 450, 0, []
1632651512.04, 121, 0, 4186.667, 3834.872, 4125.641, 4205.641, 4127.692, 450, 0, []
1632651512.0479, 122, 0, 4177.436, 3780, 4137.436, 4200, 4148.718, 450, 0, []
1632651512.0558, 123, 0, 4185.128, 3706.154, 4101.026, 4198.974, 4168.718, 16208, 0, []
1632651512.0638, 124, 0, 4210.256, 3686.667, 4116.41, 4206.154, 4165.128, 450, 0, []
1632651512.0718, 125, 0, 4229.231, 3708.718, 4126.154, 4209.744, 4167.179, 450, 0, []
1632651512.0797, 126, 0, 4225.641, 3676.41, 4116.923, 4204.103, 4182.051, 450, 0, []
1632651512.0876, 127, 0, 4212.821, 3625.641, 4122.564, 4202.051, 4184.615, 16208, 0, []
1632651512.0955, 128, 0, 4219.487, 3611.795, 4105.641, 4211.795, 4178.974, 450, 0, []
1632651512.1035, 0, 0, 4239.487, 3607.692, 4116.923, 4223.59, 4177.436, 450, 0, []
1632651512.1114, 1, 0, 4233.333, 3578.462, 4106.154, 4212.308, 4182.051, 450, 0, []
1632651512.1194, 2, 0, 4204.103, 3534.872, 4098.974, 4201.538, 4194.872, 16092, 0, []
1632651512.1273, 3, 0, 4195.385, 3525.641, 4120, 4207.179, 4192.821, 450, 0, []
1632651512.1352, 4, 0, 4218.974, 3545.128, 4102.564, 4208.205, 4179.487, 16097, 0, []
1632651512.1431, 5, 0, 4233.333, 3540, 4119.487, 4210.769, 4186.667, 450, 0, []
1632651512.1511, 6, 0, 4217.949, 3512.821, 4123.59, 4224.103, 4202.051, 16109, 0, []
1632651512.159, 7, 0, 4192.308, 3499.487, 4100, 4224.615, 4191.282, 450, 0, []
1632651512.167, 8, 0, 4188.718, 3487.179, 4104.615, 4213.846, 4159.487, 450, 0, []
1632651512.1749, 9, 0, 4197.949, 3462.051, 4081.538, 4197.436, 4150.769, 16094, 0, []
1632651512.1828, 10, 0, 4185.641, 3441.538, 4086.154, 4183.59, 4170.769, 450, 0, []
1632651512.1908, 11, 0, 4164.615, 3427.692, 4075.897, 4181.538, 4162.564, 16331, 0, []
1632651512.1987, 12, 0, 4152.821, 3411.795, 4047.179, 4168.718, 4123.59, 450, 0, []
1632651512.2067, 13, 0, 4141.026, 3392.821, 4073.333, 4153.333, 4114.872, 450, 0, []
1632651512.2145, 14, 0, 4140.513, 3390.256, 4060.513, 4159.487, 4133.846, 450, 0, []
1632651512.2225, 15, 0, 4152.308, 3392.821, 4058.974, 4155.897, 4126.154, 16331, 0, []
1632651512.2304, 16, 0, 4161.538, 3369.744, 4073.333, 4138.462, 4120.513, 0, 0, []
1632651512.2384, 17, 0, 4168.205, 3356.41, 4067.179, 4144.615, 4148.718, 0, 0, []
1632651512.2464, 18, 0, 4181.026, 3372.308, 4083.077, 4154.359, 4152.821, 0, 0, []
1632651512.2543, 19, 0, 4181.538, 3369.744, 4060, 4150.256, 4132.821, 0, 0, []
1632651512.2622, 20, 0, 4155.897, 3335.385, 4042.051, 4151.795, 4128.718, 0, 0, []
1632651512.2701, 21, 0, 4144.615, 3329.744, 4036.923, 4149.231, 4113.333, 0, 0, []
1632651512.2781, 22, 0, 4166.667, 3357.436, 4042.564, 4134.872, 4099.487, 0, 0, []
1632651512.286, 23, 0, 4169.231, 3358.462, 4078.462, 4131.282, 4121.538, 0, 0, []
1632651512.294, 24, 0, 4163.59, 3337.436, 4068.718, 4149.231, 4146.154, 0, 0, []
1632651512.3018, 25, 0, 4187.692, 3349.231, 4082.051, 4169.231, 4146.667, 0, 0, []
1632651512.3098, 26, 0, 4203.59, 3382.564, 4100, 4162.051, 4157.949, 0, 0, []
1632651512.3178, 27, 0, 4203.59, 3383.077, 4072.821, 4155.897, 4187.179, 0, 0, []
1632651512.3257, 28, 0, 4212.821, 3367.692, 4082.564, 4184.615, 4181.026, 0, 0, []
1632651512.3336, 29, 0, 4219.487, 3387.692, 4081.538, 4205.128, 4160.513, 0, 0, []
1632651512.3416, 30, 0, 4222.051, 3420.513, 4094.359, 4206.154, 4182.051, 0, 0, []
1632651512.3494, 31, 0, 4230.769, 3415.385, 4125.128, 4220, 4224.103, 0, 0, []
1632651512.3574, 32, 0, 4251.282, 3403.59, 4111.795, 4241.538, 4233.846, 0, 0, []
1632651512.3653, 33, 0, 4270.769, 3443.59, 4132.308, 4253.333, 4216.923, 0, 0, []
1632651512.3733, 34, 0, 4274.872, 3478.974, 4143.59, 4243.59, 4224.103, 0, 0, []
1632651512.3813, 35, 0, 4266.667, 3466.154, 4149.744, 4233.846, 4248.718, 0, 0, []
1632651512.3891, 36, 0, 4252.821, 3456.923, 4166.667, 4248.718, 4249.744, 0, 0, []
1632651512.3971, 37, 0, 4244.103, 3454.359, 4132.821, 4257.949, 4231.795, 0, 0, []
1632651512.405, 38, 0, 4257.949, 3465.128, 4150.256, 4264.103, 4222.564, 0, 0, []
1632651512.413, 39, 0, 4297.949, 3505.641, 4182.564, 4294.872, 4240, 0, 0, []
1632651512.4209, 40, 0, 4315.385, 3510.256, 4182.051, 4307.692, 4266.154, 0, 0, []
1632651512.4289, 41, 1, 4310.427, 3512.422, 4183.989, 4310.712, 4264.046, 0, 0, []
1632651512.4367, 42, 1, 4305.47, 3514.587, 4185.926, 4313.732, 4261.937, 0, 0, []
1632651512.4446, 43, 1, 4300.513, 3516.752, 4187.863, 4316.752, 4259.829, 0, 0, []
1632651512.4525, 44, 1, 4295.556, 3518.917, 4189.801, 4319.772, 4257.721, 0, 0, []
1632651512.4604, 45, 1, 4290.598, 3521.083, 4191.738, 4322.792, 4255.613, 0, 0, []
1632651512.4683, 46, 1, 4285.641, 3523.248, 4193.675, 4325.812, 4253.504, 0, 0, []
1632651512.4761, 47, 1, 4280.684, 3525.413, 4195.613, 4328.832, 4251.396, 0, 0, []
1632651512.484, 48, 1, 4275.726, 3527.578, 4197.55, 4331.852, 4249.288, 0, 0, []
1632651512.4919, 49, 0, 4270.769, 3529.744, 4199.487, 4334.872, 4247.179, 0, 0, []
1632651512.4997, 50, 0, 4275.897, 3533.846, 4166.154, 4325.128, 4236.923, 0, 0, []
1632651512.5076, 51, 0, 4282.564, 3557.436, 4185.641, 4301.538, 4229.231, 0, 0, []
1632651512.5154, 52, 0, 4275.897, 3566.154, 4200, 4288.205, 4229.231, 0, 0, []
1632651512.5232, 53, 0, 4244.615, 3540, 4195.897, 4287.179, 4227.179, 0, 0, []
1632651512.531, 54, 0, 4222.564, 3522.564, 4176.923, 4296.923, 4214.872, 0, 0, []
1632651512.5389, 55, 0, 4238.462, 3544.103, 4167.692, 4308.205, 4212.821, 0, 0, []
1632651512.5467, 56, 0, 4264.103, 3572.821, 4197.949, 4315.897, 4225.128, 0, 0, []
1632651512.5546, 57, 0, 4274.872, 3566.667, 4172.821, 4307.692, 4243.59, 0, 0, []
1632651512.5623, 58, 0, 4276.41, 3547.179, 4165.128, 4312.821, 4262.051, 0, 0, []
1632651512.5702, 59, 0, 4287.692, 3560, 4190.256, 4343.077, 4279.487, 0, 0, []
1632651512.578, 60, 0, 4298.462, 3559.487, 4165.128, 4338.974, 4280, 0, 0, []
1632651512.5859, 61, 0, 4285.641, 3540, 4156.41, 4312.821, 4251.795, 0, 0, []
1632651512.5937, 62, 0, 4276.41, 3562.051, 4159.487, 4318.974, 4237.436, 0, 0, []
1632651512.6014, 63, 0, 4270.256, 3594.872, 4182.051, 4325.128, 4242.051, 0, 0, []
1632651512.6093, 64, 0, 4255.897, 3587.692, 4205.641, 4315.897, 4242.051, 450, 0, []
1632651512.6171, 65, 0, 4270.256, 3589.744, 4201.026, 4334.359, 4262.564, 450, 0, []
1632651512.625, 66, 0, 4292.308, 3618.462, 4223.077, 4352.821, 4283.077, 16155, 0, []
1632651512.6328, 67, 0, 4282.564, 3624.103, 4206.667, 4340, 4264.103, 450, 0, []
1632651512.6406, 68, 0, 4264.615, 3614.872, 4185.128, 4335.385, 4234.872, 16151, 0, []
1632651512.6484, 69, 0, 4253.846, 3619.487, 4191.282, 4329.231, 4231.795, 450, 0, []
1632651512.6563, 70, 0, 4238.974, 3628.718, 4167.179, 4310.256, 4242.051, 316, 0, []
1632651512.6641, 71, 0, 4235.897, 3622.051, 4175.897, 4307.179, 4254.872, 450, 0, []
1632651512.672, 72, 0, 4254.872, 3605.641, 4168.205, 4317.949, 4269.744, 450, 0, []
1632651512.6797, 73, 0, 4272.308, 3617.949, 4165.641, 4329.231, 4262.564, 16141, 0, []
1632651512.6876, 74, 0, 4270.256, 3659.487, 4203.59, 4324.103, 4232.821, 450, 0, []
1632651512.6954, 75, 0, 4252.821, 3663.59, 4188.205, 4302.564, 4221.026, 16213, 0, []
1632651512.7033, 76, 0, 4216.923, 3618.462, 4187.692, 4292.308, 4215.385, 450, 0, []
1632651512.7111, 77, 0, 4184.103, 3597.949, 4170.769, 4286.154, 4188.718, 450, 0, []
1632651512.7189, 78, 0, 4200, 3614.359, 4150.769, 4288.205, 4178.462, 450, 0, []
1632651512.7267, 79, 0, 4244.615, 3628.718, 4191.282, 4321.538, 4203.077, 16213, 0, []
1632651512.7345, 80, 0, 4248.205, 3624.103, 4179.487, 4336.41, 4227.692, 450, 0, []
1632651512.7424, 81, 0, 4210.769, 3612.308, 4161.538, 4305.641, 4230.256, 450, 0, []
1632651512.7502, 82, 0, 4199.487, 3609.744, 4155.385, 4288.205, 4215.385, 450, 0, []
1632651512.758, 83, 0, 4209.744, 3616.41, 4136.923, 4293.333, 4186.667, 16213, 0, []
1632651512.7658, 84, 0, 4189.231, 3623.077, 4149.231, 4273.846, 4154.872, 450, 0, []
1632651512.7737, 85, 0, 4166.154, 3622.564, 4147.179, 4252.821, 4157.949, 450, 0, []
1632651512.7815, 86, 0, 4169.744, 3625.128, 4149.231, 4267.179, 4184.103, 450, 0, []
1632651512.7894, 87, 0, 4171.795, 3625.641, 4141.026, 4281.538, 4169.231, 16213, 0, []
1632651512.7971, 88, 0, 4166.667, 3606.154, 4130.256, 4265.641, 4139.487, 450, 0, []
1632651512.805, 89, 0, 4161.538, 3584.615, 4156.41, 4251.282, 4153.333, 450, 0, []
1632651512.8128, 90, 0, 4163.077, 3599.487, 4136.41, 4256.41, 4176.41, 450, 0, []
1632651512.8207, 91, 0, 4173.846, 3629.231, 4122.564, 4261.538, 4161.538, 16213, 0, []
1632651512.8285, 92, 0, 4169.231, 3640, 4133.333, 4253.846, 4140.513, 450, 0, []
1632651512.8363, 93, 0, 4144.615, 3638.974, 4124.615, 4243.077, 4154.872, 450, 0, []
1632651512.8441, 94, 0, 4148.718, 3641.026, 4141.026, 4245.641, 4168.718, 450, 0, []
1632651512.852, 95, 0, 4181.538, 3660.513, 4137.436, 4247.179, 4157.436, 16213, 0, []
1632651512.8598, 96, 0, 4173.333, 3673.333, 4146.154, 4233.333, 4145.641, 450, 0, []
1632651512.8677, 97, 0, 4152.308, 3647.179, 4154.872, 4230.769, 4158.974, 450, 0, []
1632651512.8754, 98, 0, 4179.487, 3627.692, 4129.744, 4256.923, 4176.923, 450, 0, []
1632651512.8833, 99, 0, 4196.923, 3663.077, 4154.872, 4261.538, 4162.564, 16213, 0, []
1632651512.8911, 100, 0, 4159.487, 3692.308, 4150.769, 4223.077, 4141.026, 450, 0, []
1632651512.8989, 101, 0, 4136.41, 3680, 4135.385, 4213.846, 4142.564, 450, 0, []
1632651512.9068, 102, 0, 4167.179, 3686.667, 4152.821, 4249.231, 4149.231, 450, 0, []
1632651512.9146, 103, 0, 4195.385, 3713.846, 4146.154, 4263.077, 4164.615, 16213, 0, []
1632651512.9224, 104, 0, 4171.795, 3721.026, 4158.462, 4246.154, 4180, 450, 0, []
1632651512.9303, 105, 0, 4135.897, 3702.051, 4125.641, 4229.744, 4153.333, 450, 0, []
1632651512.9381, 106, 0, 4137.949, 3678.974, 4094.872, 4211.795, 4116.923, 450, 0, []
1632651512.9459, 107, 0, 4140.513, 3677.436, 4130.256, 4198.974, 4116.41, 16213, 0, []
1632651512.9538, 108, 0, 4125.641, 3693.333, 4135.897, 4211.282, 4127.179, 450, 0, []
1632651512.9615, 109, 0, 4128.718, 3713.846, 4140.513, 4227.179, 4112.821, 450, 0, []
1632651512.9694, 110, 0, 4144.103, 3735.385, 4136.923, 4223.59, 4113.333, 450, 0, []
1632651512.9772, 111, 0, 4147.179, 3739.487, 4139.487, 4237.436, 4150.769, 16213, 0, []
1632651512.9851, 112, 0, 4136.41, 3733.333, 4154.359, 4256.41, 4150.769, 450, 0, []
1632651512.9929, 113, 0, 4139.487, 3736.923, 4124.615, 4240, 4124.615, 450, 0, []
1632651513.0007, 114, 0, 4130.769, 3734.872, 4129.744, 4222.564, 4123.077, 450, 0, []
1632651513.0085, 115, 0, 4115.897, 3730.256, 4129.231, 4225.128, 4126.154, 16213, 0, []
1632651513.0164, 116, 0, 4141.538, 3750.256, 4114.872, 4236.923, 4125.128, 450, 0, []
1632651513.0242, 117, 0, 4168.205, 3779.487, 4149.744, 4245.128, 4139.487, 450, 0, []
1632651513.0321, 118, 0, 4157.949, 3783.077, 4146.154, 4241.538, 4158.462, 450, 0, []
1632651513.0398, 119, 0, 4143.077, 3781.538, 4127.692, 4231.795, 4135.897, 16213, 0, []
1632651513.0476, 120, 0, 4166.154, 3800.513, 4130.256, 4238.462, 4120, 450, 0, []
1632651513.0555, 121, 0, 4177.436, 3820, 4145.128, 4250.256, 4150.256, 450, 0, []
1632651513.0633, 122, 0, 4141.538, 3810.256, 4152.821, 4239.487, 4155.897, 450, 0, []
1632651513.0712, 123, 0, 4129.231, 3771.795, 4101.026, 4226.154, 4122.051, 16213, 0, []
1632651513.0789, 124, 0, 4129.744, 3764.103, 4105.641, 4221.538, 4103.077, 450, 0, []
1632651513.0868, 125, 0, 4104.615, 3787.179, 4130.256, 4213.846, 4106.667, 450, 0, []
1632651513.0946, 126, 0, 4101.026, 3793.846, 4101.026, 4216.923, 4100, 450, 0, []
1632651513.1025, 127, 0, 4112.821, 3802.051, 4115.385, 4221.026, 4090.256, 16213, 0, []
1632651513.1103, 128, 0, 4101.538, 3806.154, 4117.436, 4214.359, 4101.538, 450, 0, []
1632651513.1181, 0, 0, 4098.462, 3782.564, 4118.462, 4217.436, 4101.538, 450, 0, []
1632651513.1259, 1, 0, 4112.821, 3800, 4138.974, 4222.564, 4089.231, 450, 0, []
1632651513.1338, 2, 0, 4104.615, 3857.436, 4133.846, 4212.821, 4104.103, 16170, 0, []
1632651513.1416, 3, 0, 4088.205, 3893.333, 4136.41, 4215.385, 4102.051, 450, 0, []
1632651513.1495, 4, 0, 4101.538, 4052.821, 4111.282, 4223.59, 4071.795, 16144, 0, []
1632651513.1572, 5, 0, 4113.333, 4367.179, 4117.436, 4217.436, 4084.103, 450, 0, []
1632651513.1651, 6, 0, 4110.769, 4558.974, 4144.103, 4225.641, 4117.949, 314, 0, []
1632651513.1729, 7, 0, 4107.692, 4588.205, 4105.128, 4234.872, 4095.897, 450, 0, []
1632651513.1808, 8, 0, 4101.538, 4558.974, 4105.641, 4214.872, 4061.538, 450, 0, []
1632651513.1886, 9, 0, 4094.359, 4774.872, 4118.462, 4195.385, 4077.436, 16136, 0, []
1632651513.1963, 10, 0, 4089.231, 5837.436, 4112.821, 4201.026, 4100.513, 450, 0, []
1632651513.2042, 11, 0, 4098.462, 7234.359, 4116.923, 4213.846, 4102.051, 16215, 0, []
1632651513.212, 12, 0, 4116.923, 7786.154, 4092.821, 4209.231, 4108.718, 450, 0, []
1632651513.2199, 13, 0, 4118.974, 7711.795, 4106.667, 4202.051, 4114.872, 450, 0, []
1632651513.2277, 14, 0, 4119.487, 7809.744, 4114.872, 4207.692, 4112.821, 450, 0, []
1632651513.2355, 15, 0, 4138.462, 7905.641, 4107.179, 4211.795, 4125.128, 16215, 0, []
1632651513.2433, 16, 0, 4154.872, 7803.077, 4120, 4207.692, 4137.949, 0, 0, []
1632651513.2512, 17, 0, 4164.103, 7770.256, 4099.487, 4208.718, 4142.051, 0, 0, []
1632651513.259, 18, 0, 4176.923, 7782.564, 4109.231, 4217.436, 4144.103, 0, 0, []
1632651513.2669, 19, 0, 4184.103, 7769.744, 4130.256, 4229.744, 4140, 0, 0, []
1632651513.2746, 20, 0, 4184.103, 7770.769, 4126.667, 4244.103, 4131.795, 0, 0, []
1632651513.2825, 21, 0, 4171.795, 7769.744, 4113.333, 4242.564, 4112.308, 0, 0, []
1632651513.2903, 22, 0, 4157.949, 7770.769, 4074.872, 4225.128, 4097.949, 0, 0, []
1632651513.2982, 23, 0, 4159.487, 7770.256, 4091.795, 4217.436, 4105.128, 0, 0, []
1632651513.306, 24, 0, 4175.897, 7770.256, 4111.282, 4224.103, 4127.692, 0, 0, []
1632651513.3139, 25, 0, 4186.154, 7770.769, 4111.282, 4246.667, 4152.821, 0, 0, []
1632651513.3216, 26, 0, 4166.667, 7770.256, 4136.41, 4260, 4150.769, 0, 0, []
1632651513.3294, 27, 0, 4150.256, 7770.256, 4103.59, 4237.436, 4130.769, 0, 0, []
1632651513.3373, 28, 0, 4164.103, 7770.256, 4091.282, 4222.051, 4129.231, 0, 0, []
1632651513.3451, 29, 0, 4189.744, 7770.256, 4115.897, 4233.333, 4142.051, 0, 0, []
1632651513.353, 30, 0, 4195.385, 7770.256, 4111.795, 4237.949, 4137.949, 0, 0, []
1632651513.3607, 31, 0, 4175.897, 7770.256, 4116.41, 4227.179, 4104.615, 0, 0, []
1632651513.3686, 32, 0, 4168.718, 7770.256, 4095.385, 4229.744, 4086.667, 0, 0, []
1632651513.3764, 33, 0, 4192.308, 7770.256, 4107.692, 4261.026, 4110.769, 0, 0, []
1632651513.3843, 34, 0, 4208.205, 7770.256, 4125.128, 4280, 4141.538, 0, 0, []
1632651513.3921, 35, 0, 4204.103, 7770.256, 4103.59, 4270.769, 4152.821, 0, 0, []
1632651513.3999, 36, 0, 4200, 7770.256, 4133.333, 4263.59, 4149.744, 0, 0, []
1632651513.4077, 37, 0, 4202.051, 7770.256, 4144.615, 4265.641, 4156.41, 0, 0, []
1632651513.4156, 38, 0, 4202.564, 7771.795, 4150.256, 4262.564, 4164.103, 0, 0, []
1632651513.4234, 39, 0, 4206.154, 7800.513, 4161.026, 4261.026, 4149.744, 0, 0, []
1632651513.4313, 40, 0, 4220.513, 7863.077, 4129.231, 4273.846, 4138.974, 0, 0, []
1632651513.439, 41, 0, 4235.385, 7824.103, 4134.872, 4291.282, 4152.308, 0, 0, []
1632651513.4469, 42, 0, 4257.436, 7814.872, 4139.487, 4303.59, 4187.179, 0, 0, []
1632651513.4547, 43, 0, 4267.692, 7925.641, 4146.154, 4311.795, 4216.41, 0, 0, []
1632651513.4626, 44, 0, 4253.846, 7455.385, 4174.872, 4312.308, 4221.026, 0, 0, []
1632651513.4704, 45, 0, 4250.769, 6255.385, 4173.846, 4298.462, 4218.462, 0, 0, []
1632651513.4782, 46, 0, 4248.205, 5354.872, 4191.795, 4290.256, 4213.333, 0, 0, []
1632651513.486, 47, 0, 4231.282, 5102.564, 4180, 4297.436, 4205.128, 0, 0, []
1632651513.4939, 48, 0, 4224.103, 4856.41, 4147.692, 4285.128, 4196.41, 0, 0, []
1632651513.5017, 49, 0, 4233.846, 4538.462, 4150.769, 4267.179, 4191.282, 0, 0, []
1632651513.5096, 50, 0, 4248.718, 4421.026, 4147.692, 4280, 4191.282, 0, 0, []
1632651513.5173, 51, 0, 4257.949, 4335.897, 4171.795, 4296.41, 4187.179, 0, 0, []
1632651513.5252, 52, 0, 4252.308, 4203.077, 4171.795, 4275.385, 4181.026, 0, 0, []
1632651513.533, 53, 0, 4226.154, 4072.821, 4158.974, 4247.179, 4179.487, 0, 0, []
1632651513.5408, 54, 0, 4200, 3950.256, 4178.974, 4253.846, 4176.923, 0, 0, []
1632651513.5486, 55, 0, 4197.949, 3855.385, 4161.026, 4277.436, 4169.231, 0, 0, []
1632651513.5564, 56, 0, 4205.128, 3786.667, 4160.513, 4285.128, 4154.872, 0, 0, []
1632651513.5643, 57, 0, 4197.436, 3718.462, 4158.462, 4269.744, 4146.154, 0, 0, []
1632651513.5721, 58, 0, 4178.462, 3618.462, 4147.692, 4260.513, 4157.949, 0, 0, []
1632651513.58, 59, 0, 4170.256, 3542.051, 4172.308, 4272.821, 4159.487, 0, 0, []
1632651513.5878, 60, 0, 4180.513, 3509.231, 4149.744, 4272.821, 4131.795, 0, 0, []
1632651513.5956, 61, 0, 4177.949, 3459.487, 4139.487, 4248.205, 4118.974, 0, 0, []
1632651513.6034, 62, 0, 4167.692, 3396.41, 4162.564, 4244.615, 4148.205, 0, 0, []
1632651513.6113, 63, 0, 4185.641, 3356.923, 4163.077, 4276.41, 4173.333, 0, 0, []
1632651513.6191, 64, 0, 4200, 3322.564, 4166.667, 4280.513, 4151.282, 450, 0, []
1632651513.627, 65, 0, 4190.256, 3284.103, 4148.205, 4254.359, 4135.897, 450, 0, []
1632651513.6347, 66, 0, 4190.256, 3250.256, 4154.359, 4257.949, 4161.026, 16140, 0, []
1632651513.6426, 67, 0, 4209.744, 3209.744, 4161.538, 4283.077, 4172.821, 450, 0, []
1632651513.6504, 68, 0, 4221.538, 3183.59, 4143.59, 4281.538, 4167.179, 16379, 0, []
1632651513.6583, 69, 0, 4216.923, 3171.795, 4181.026, 4270.256, 4185.641, 450, 0, []
1632651513.6661, 70, 0, 4221.026, 3135.897, 4187.692, 4274.872, 4218.974, 325, 0, []
1632651513.6739, 71, 0, 4230.256, 3089.231, 4173.333, 4284.615, 4211.282, 450, 0, []
1632651513.6817, 72, 0, 4224.615, 3070.256, 4180, 4284.615, 4173.333, 450, 0, []
1632651513.6895, 73, 0, 4211.795, 3057.436, 4167.692, 4269.231, 4173.333, 16133, 0, []
1632651513.6974, 74, 0, 4208.718, 3032.308, 4180.513, 4265.128, 4201.538, 450, 0, []
1632651513.7052, 75, 0, 4231.282, 3006.667, 4168.205, 4293.846, 4210.256, 16220, 0, []
1632651513.7131, 76, 0, 4255.897, 2997.436, 4165.641, 4321.538, 4198.974, 450, 0, []
1632651513.7208, 77, 0, 4249.231, 3009.231, 4194.872, 4308.205, 4198.974, 450, 0, []
1632651513.7287, 78, 0, 4231.795, 2994.872, 4187.692, 4293.846, 4218.974, 450, 0, []
1632651513.7365, 79, 0, 4230.769, 2951.795, 4193.846, 4312.821, 4222.051, 16220, 0, []
1632651513.7444, 80, 0, 4242.564, 2936.923, 4184.615, 4323.077, 4201.538, 450, 0, []
1632651513.7522, 81, 0, 4244.103, 2949.231, 4186.154, 4306.667, 4197.436, 450, 0, []
1632651513.76, 82, 0, 4225.641, 2940.513, 4207.692, 4300, 4208.205, 450, 0, []
1632651513.7678, 83, 0, 4214.359, 2912.308, 4170.256, 4306.667, 4204.103, 16220, 0, []
1632651513.7757, 84, 0, 4208.718, 2894.359, 4160.513, 4294.359, 4172.308, 450, 0, []
1632651513.7835, 85, 0, 4200.513, 2885.128, 4174.359, 4268.718, 4156.41, 450, 0, []
1632651513.7914, 86, 0, 4203.077, 2874.872, 4186.154, 4271.795, 4185.128, 450, 0, []
1632651513.7991, 87, 0, 4207.179, 2861.026, 4185.641, 4285.641, 4194.359, 16220, 0, []
1632651513.807, 88, 0, 4218.462, 2872.308, 4160.513, 4283.59, 4183.59, 450, 0, []
1632651513.8148, 89, 0, 4221.026, 2890.769, 4204.103, 4289.231, 4193.846, 450, 0, []
1632651513.8226, 90, 0, 4206.667, 2859.487, 4207.692, 4295.385, 4200.513, 450, 0, []
1632651513.8305, 91, 0, 4201.026, 2829.744, 4155.385, 4287.692, 4176.923, 16220, 0, []
1632651513.8382, 92, 0, 4204.103, 2853.333, 4172.821, 4270.256, 4153.333, 450, 0, []
1632651513.8461, 93, 0, 4193.846, 2854.872, 4172.308, 4248.718, 4158.462, 450, 0, []
1632651513.8539, 94, 0, 4184.103, 2806.667, 4157.949, 4242.564, 4170.256, 450, 0, []
1632651513.8618, 95, 0, 4198.974, 2801.026, 4154.872, 4248.205, 4169.744, 16220, 0, []
1632651513.8696, 96, 0, 4201.026, 2836.41, 4144.103, 4241.538, 4161.026, 450, 0, []
1632651513.8774, 97, 0, 4180.513, 2813.333, 4149.744, 4234.872, 4160.513, 450, 0, []
1632651513.8852, 98, 0, 4184.103, 2772.308, 4131.795, 4244.103, 4160.513, 450, 0, []
1632651513.893, 99, 0, 4199.487, 2794.872, 4138.462, 4248.718, 4153.846, 16220, 0, []
1632651513.9009, 100, 0, 4203.59, 2830.256, 4158.462, 4252.308, 4173.846, 450, 0, []
1632651513.9088, 101, 0, 4217.436, 2831.282, 4151.795, 4266.667, 4210.256, 450, 0, []
1632651513.9166, 102, 0, 4237.949, 2829.744, 4167.179, 4274.872, 4203.59, 450, 0, []
1632651513.9245, 103, 0, 4229.744, 2821.538, 4146.154, 4260.513, 4183.077, 16220, 0, []
1632651513.9324, 104, 0, 4199.487, 2803.59, 4141.538, 4242.564, 4186.667, 450, 0, []
1632651513.9402, 105, 0, 4182.051, 2811.795, 4152.308, 4240.513, 4163.077, 450, 0, []
1632651513.948, 106, 0, 4188.718, 2825.128, 4129.744, 4239.487, 4136.41, 450, 0, []
1632651513.9558, 107, 0, 4185.128, 2826.667, 4156.41, 4239.487, 4154.359, 16220, 0, []
1632651513.9636, 108, 0, 4173.846, 2830.256, 4149.744, 4248.718, 4173.846, 450, 0, []
1632651513.9715, 109, 0, 4186.667, 2823.59, 4141.538, 4256.41, 4160.513, 450, 0, []
1632651513.9793, 110, 0, 4189.231, 2823.59, 4170.256, 4242.051, 4148.718, 450, 0, []
1632651513.9871, 111, 0, 4160, 2831.282, 4138.974, 4213.846, 4150.256, 16220, 0, []
1632651513.9949, 112, 0, 4153.333, 2840.513, 4125.641, 4211.795, 4137.436, 450, 0, []
1632651514.0027, 113, 0, 4190.769, 2860, 4137.949, 4225.128, 4143.077, 450, 0, []
1632651514.0106, 114, 0, 4200, 2852.308, 4151.282, 4231.282, 4176.923, 450, 0, []
1632651514.0184, 115, 0, 4186.667, 2842.564, 4154.872, 4243.59, 4193.333, 16220, 0, []
1632651514.0263, 116, 0, 4211.795, 2879.487, 4146.154, 4255.897, 4182.564, 450, 0, []
1632651514.034, 117, 0, 4228.205, 2900, 4184.615, 4246.154, 4174.872, 450, 0, []
1632651514.0419, 118, 0, 4202.051, 2870.256, 4171.795, 4240.513, 4184.615, 450, 0, []
1632651514.0497, 119, 0, 4185.128, 2871.282, 4133.846, 4263.59, 4180.513, 16220, 0, []
1632651514.0576, 120, 0, 4201.538, 2910.769, 4160, 4275.385, 4163.077, 450, 0, []
1632651514.0654, 121, 0, 4211.282, 2917.949, 4166.667, 4265.641, 4174.359, 450, 0, []
1632651514.0732, 122, 0, 4189.231, 2893.846, 4165.128, 4263.59, 4192.821, 450, 0, []
1632651514.081, 123, 0, 4177.949, 2882.051, 4145.641, 4261.538, 4168.718, 16220, 0, []
1632651514.0888, 124, 0, 4204.103, 2901.538, 4132.821, 4258.974, 4151.795, 450, 0, []
1632651514.0967, 125, 0, 4227.179, 2926.154, 4167.692, 4271.282, 4191.282, 450, 0, []
1632651514.1046, 126, 0, 4232.308, 2934.872, 4160, 4283.077, 4226.154, 450, 0, []
1632651514.1124, 127, 0, 4243.077, 2956.923, 4154.359, 4287.179, 4210.256, 16220, 0, []
1632651514.1201, 128, 0, 4261.538, 2986.667, 4173.333, 4296.41, 4206.154, 450, 0, []
1632651514.128, 0, 0, 4261.026, 2996.41, 4194.872, 4301.538, 4236.41, 450, 0, []
1632651514.1358, 1, 0, 4235.385, 2986.154, 4202.564, 4290.256, 4235.897, 450, 0, []
1632651514.1437, 2, 0, 4235.385, 2981.538, 4157.436, 4289.231, 4220, 16165, 0, []
1632651514.1515, 3, 0, 4258.462, 3002.051, 4169.744, 4298.462, 4219.487, 450, 0, []
1632651514.1593, 4, 0, 4243.59, 3025.641, 4185.641, 4276.923, 4209.231, 16090, 0, []
1632651514.1671, 5, 0, 4207.692, 3022.051, 4143.59, 4253.846, 4200, 450, 0, []
1632651514.175, 6, 0, 4198.462, 3010.256, 4145.641, 4270.769, 4190.769, 317, 0, []
1632651514.1828, 7, 0, 4204.615, 3030.256, 4139.487, 4275.385, 4166.667, 450, 0, []
1632651514.1907, 8, 0, 4184.615, 3047.179, 4138.974, 4250.256, 4155.385, 450, 0, []
1632651514.1984, 9, 0, 4172.821, 3044.103, 4148.718, 4254.359, 4175.897, 16136, 0, []
1632651514.2063, 10, 0, 4199.487, 3053.846, 4141.026, 4282.051, 4190.256, 450, 0, []
1632651514.2141, 11, 0, 4208.205, 3071.282, 4175.385, 4272.308, 4175.385, 16203, 0, []
1632651514.222, 12, 0, 4189.231, 3081.538, 4172.821, 4250.769, 4171.795, 450, 0, []
1632651514.2298, 13, 0, 4191.282, 3094.872, 4160, 4271.795, 4190.769, 450, 0, []
1632651514.2376, 14, 0, 4224.615, 3123.077, 4175.897, 4301.538, 4204.103, 450, 0, []
1632651514.2454, 15, 0, 4242.051, 3149.744, 4173.846, 4300, 4212.308, 16203, 0, []
1632651514.2533, 16, 0, 4222.564, 3152.821, 4197.949, 4297.436, 4220.513, 0, 0, []
1632651514.2611, 17, 0, 4216.41, 3128.205, 4189.231, 4316.41, 4227.179, 0, 0, []
1632651514.269, 18, 0, 4237.436, 3115.897, 4174.359, 4326.667, 4220, 0, 0, []
1632651514.2767, 19, 0, 4225.641, 3146.154, 4182.051, 4296.41, 4196.41, 0, 0, []
1632651514.2845, 20, 0, 4192.308, 3162.564, 4148.718, 4257.436, 4197.949, 0, 0, []
1632651514.2924, 21, 0, 4202.051, 3148.205, 4155.385, 4265.128, 4220, 0, 0, []
1632651514.3002, 22, 0, 4231.795, 3171.795, 4173.846, 4277.949, 4216.41, 0, 0, []
1632651514.3081, 23, 0, 4228.718, 3212.308, 4190.256, 4262.564, 4208.205, 0, 0, []
1632651514.3158, 24, 0, 4217.949, 3200, 4220, 4275.385, 4235.385, 0, 0, []
1632651514.3236, 25, 0, 4229.744, 3170.256, 4191.795, 4309.231, 4256.41, 0, 0, []
1632651514.3315, 26, 0, 4241.026, 3176.923, 4172.308, 4308.718, 4234.872, 0, 0, []
1632651514.3393, 27, 0, 4246.154, 3206.154, 4167.692, 4295.385, 4235.385, 0, 0, []
1632651514.3472, 28, 0, 4249.231, 3225.641, 4179.487, 4305.128, 4275.385, 0, 0, []
1632651514.3549, 29, 0, 4245.641, 3229.231, 4194.872, 4304.615, 4274.359, 0, 0, []
1632651514.3628, 30, 0, 4246.667, 3227.692, 4149.231, 4279.487, 4232.308, 0, 0, []
1632651514.3707, 31, 0, 4230.769, 3231.795, 4148.718, 4253.846, 4210.769, 0, 0, []
1632651514.3785, 32, 0, 4202.564, 3228.718, 4158.462, 4247.692, 4218.462, 0, 0, []
1632651514.3864, 33, 0, 4212.308, 3214.872, 4143.59, 4267.692, 4229.744, 0, 0, []
1632651514.3941, 34, 0, 4245.641, 3207.692, 4170.769, 4294.872, 4230.256, 0, 0, []
1632651514.402, 35, 0, 4246.154, 3228.718, 4175.385, 4305.128, 4238.974, 0, 0, []
1632651514.4098, 36, 0, 4214.872, 3261.026, 4183.077, 4302.564, 4248.205, 0, 0, []
1632651514.4176, 37, 0, 4194.359, 3270.256, 4169.744, 4286.154, 4216.41, 0, 0, []
1632651514.4255, 38, 0, 4189.231, 3274.872, 4138.462, 4253.333, 4175.385, 0, 0, []
1632651514.4333, 39, 0, 4176.41, 3292.308, 4160.513, 4232.821, 4176.41, 0, 0, []
1632651514.4411, 40, 0, 4174.359, 3307.179, 4151.795, 4231.282, 4195.897, 0, 0, []
1632651514.4489, 41, 0, 4203.077, 3312.821, 4164.103, 4236.923, 4193.333, 0, 0, []
1632651514.4568, 42, 0, 4229.744, 3302.564, 4204.103, 4260.513, 4203.077, 0, 0, []
1632651514.4646, 43, 0, 4227.179, 3295.897, 4200, 4303.077, 4240, 0, 0, []
1632651514.4724, 44, 0, 4216.923, 3323.077, 4192.821, 4328.205, 4244.615, 0, 0, []
1632651514.4802, 45, 0, 4218.974, 3351.282, 4156.41, 4308.718, 4203.59, 0, 0, []
1632651514.4881, 46, 0, 4198.462, 3357.949, 4150.256, 4273.333, 4169.231, 0, 0, []
1632651514.4959, 47, 0, 4169.744, 3366.154, 4170.769, 4258.462, 4178.974, 0, 0, []
1632651514.5038, 48, 0, 4183.59, 3380, 4155.897, 4261.026, 4194.359, 0, 0, []
1632651514.5116, 49, 0, 4210.769, 3392.308, 4172.821, 4262.564, 4185.641, 0, 0, []
1632651514.5194, 50, 0, 4212.308, 3386.667, 4178.462, 4256.41, 4197.949, 0, 0, []
1632651514.5272, 51, 0, 4201.026, 3362.564, 4171.282, 4264.615, 4216.923, 0, 0, []
1632651514.5351, 52, 0, 4209.744, 3363.077, 4169.231, 4295.897, 4200, 0, 0, []
1632651514.5429, 53, 0, 4227.179, 3400.513, 4148.718, 4317.436, 4190.256, 0, 0, []
1632651514.5508, 54, 0, 4213.333, 3425.128, 4167.692, 4312.308, 4208.205, 0, 0, []
1632651514.5585, 55, 0, 4203.077, 3412.821, 4160.513, 4304.103, 4213.846, 0, 0, []
1632651514.5664, 56, 0, 4234.359, 3397.949, 4149.744, 4300, 4215.385, 0, 0, []
1632651514.5742, 57, 0, 4248.718, 3420.513, 4174.872, 4275.385, 4224.615, 0, 0, []
1632651514.5821, 58, 0, 4213.846, 3433.846, 4156.923, 4245.128, 4227.692, 0, 0, []
1632651514.5899, 59, 0, 4196.923, 3409.744, 4146.667, 4256.923, 4225.641, 0, 0, []
1632651514.5976, 60, 0, 4216.923, 3406.667, 4141.538, 4278.974, 4206.667, 0, 0, []
1632651514.6055, 61, 0, 4220.513, 3427.692, 4147.179, 4268.205, 4183.077, 0, 0, []
1632651514.6133, 62, 0, 4196.923, 3444.103, 4167.179, 4245.641, 4186.154, 0, 0, []
1632651514.6212, 63, 0, 4187.179, 3460.513, 4141.538, 4241.538, 4192.821, 0, 0, []
1632651514.629, 64, 0, 4201.538, 3470.256, 4153.846, 4251.282, 4173.846, 450, 0, []
1632651514.6368, 65, 0, 4214.359, 3472.821, 4161.026, 4244.615, 4170.769, 450, 0, []
1632651514.6446, 66, 0, 4213.333, 3479.487, 4141.026, 4227.692, 4202.051, 16172, 0, []
1632651514.6525, 67, 0, 4205.641, 3475.385, 4153.333, 4238.462, 4215.385, 450, 0, []
1632651514.6603, 68, 0, 4200.513, 3468.718, 4124.103, 4255.897, 4188.718, 16131, 0, []
1632651514.6682, 69, 0, 4186.667, 3491.282, 4118.974, 4236.923, 4161.538, 450, 0, []
1632651514.6759, 70, 0, 4169.744, 3505.128, 4141.538, 4218.974, 4167.179, 16077, 0, []
1632651514.6838, 71, 0, 4164.615, 3489.231, 4128.205, 4230.769, 4166.667, 450, 0, []
1632651514.6916, 72, 0, 4168.205, 3492.308, 4133.846, 4228.205, 4137.949, 450, 0, []
1632651514.6995, 73, 0, 4173.333, 3508.205, 4138.974, 4210.769, 4145.128, 16147, 0, []
1632651514.7073, 74, 0, 4172.821, 3499.487, 4152.308, 4216.923, 4182.051, 450, 0, []
1632651514.7151, 75, 0, 4167.179, 3505.641, 4142.564, 4224.615, 4165.128, 16198, 0, []
1632651514.7229, 76, 0, 4153.333, 3538.974, 4108.205, 4205.128, 4125.641, 450, 0, []
1632651514.7308, 77, 0, 4130.769, 3556.923, 4126.154, 4198.462, 4128.718, 450, 0, []
1632651514.7386, 78, 0, 4136.923, 3584.615, 4123.59, 4224.103, 4147.692, 450, 0, []
1632651514.7465, 79, 0, 4169.744, 3621.538, 4129.231, 4245.128, 4145.641, 16198, 0, []
1632651514.7542, 80, 0, 4171.282, 3605.641, 4155.385, 4242.564, 4142.564, 450, 0, []
1632651514.762, 81, 0, 4158.462, 3576.923, 4140.513, 4240, 4165.641, 450, 0, []
1632651514.7699, 82, 0, 4172.308, 3596.923, 4138.974, 4251.282, 4171.795, 450, 0, []
1632651514.7777, 83, 0, 4188.205, 3634.872, 4128.718, 4253.333, 4156.923, 16198, 0, []
1632651514.7856, 84, 0, 4171.795, 3804.615, 4138.974, 4237.436, 4161.538, 450, 0, []
1632651514.7933, 85, 0, 4138.462, 4055.897, 4143.077, 4221.026, 4152.821, 450, 0, []
1632651514.8012, 86, 0, 4130.769, 4589.231, 4103.077, 4225.641, 4117.436, 450, 0, []
1632651514.809, 87, 0, 4137.436, 5920.513, 4118.974, 4243.077, 4095.897, 16198, 0, []
1632651514.8169, 88, 0, 4143.077, 7381.026, 4120.513, 4244.103, 4106.667, 450, 0, []
1632651514.8247, 89, 0, 4153.846, 7847.179, 4112.308, 4243.59, 4122.051, 450, 0, []
1632651514.8325, 90, 0, 4163.59, 7686.667, 4129.744, 4244.615, 4122.564, 450, 0, []
1632651514.8403, 91, 0, 4171.282, 7745.641, 4112.308, 4237.949, 4126.667, 16198, 0, []
1632651514.8482, 92, 0, 4173.333, 7859.487, 4122.564, 4244.615, 4135.897, 450, 0, []
1632651514.856, 93, 0, 4170.769, 7805.128, 4111.282, 4252.821, 4140.513, 450, 0, []
1632651514.8639, 94, 0, 4170.256, 7778.462, 4090.256, 4249.231, 4149.744, 450, 0, []
1632651514.8716, 95, 0, 4176.923, 7770.256, 4120, 4261.538, 4165.641, 16198, 0, []
1632651514.8795, 96, 0, 4190.256, 7774.872, 4129.744, 4281.026, 4179.487, 450, 0, []
1632651514.8873, 97, 0, 4200.513, 7775.385, 4148.718, 4275.385, 4182.051, 450, 0, []
1632651514.8951, 98, 0, 4210.769, 7768.205, 4152.308, 4263.077, 4184.615, 450, 0, []
1632651514.903, 99, 0, 4230.769, 7771.282, 4151.795, 4273.333, 4188.718, 16198, 0, []
1632651514.9108, 100, 0, 4245.128, 7768.718, 4172.308, 4286.667, 4184.615, 450, 0, []
1632651514.9187, 101, 0, 4231.795, 7769.744, 4132.821, 4284.103, 4174.359, 450, 0, []
1632651514.9265, 102, 0, 4217.436, 7770.256, 4127.692, 4291.795, 4175.385, 450, 0, []
1632651514.9343, 103, 0, 4226.667, 7770.769, 4155.385, 4314.872, 4190.256, 16198, 0, []
1632651514.9422, 104, 0, 4228.718, 7770.256, 4148.718, 4316.41, 4198.462, 450, 0, []
1632651514.9501, 105, 0, 4215.385, 7770.256, 4148.205, 4282.051, 4190.256, 450, 0, []
1632651514.9578, 106, 0, 4218.974, 7770.769, 4125.641, 4253.846, 4178.462, 450, 0, []
1632651514.9657, 107, 0, 4231.282, 7770.256, 4138.974, 4263.59, 4164.615, 16198, 0, []
1632651514.9735, 108, 0, 4228.205, 7770.256, 4156.41, 4281.538, 4158.974, 450, 0, []
1632651514.9814, 109, 0, 4233.333, 7770.256, 4136.41, 4284.103, 4179.487, 450, 0, []
1632651514.9892, 110, 0, 4230.256, 7773.846, 4154.359, 4287.179, 4197.949, 450, 0, []
1632651514.997, 111, 0, 4214.872, 7819.487, 4162.051, 4293.846, 4196.41, 16198, 0, []
1632651515.0048, 112, 0, 4216.41, 7883.59, 4166.154, 4291.282, 4192.308, 450, 0, []
1632651515.0127, 113, 0, 4224.615, 7800.513, 4156.41, 4275.897, 4184.615, 450, 0, []
1632651515.0205, 114, 0, 4233.846, 7839.487, 4132.308, 4270.769, 4178.462, 450, 0, []
1632651515.0284, 115, 0, 4249.231, 7935.897, 4161.538, 4286.667, 4184.615, 16198, 0, []
1632651515.0361, 116, 0, 4263.59, 7145.128, 4167.692, 4301.026, 4202.051, 450, 0, []
1632651515.044, 117, 0, 4256.923, 5725.641, 4170.769, 4297.436, 4206.667, 450, 0, []
1632651515.0518, 118, 0, 4250.256, 5010.256, 4186.667, 4291.795, 4195.385, 450, 0, []
1632651515.0596, 119, 0, 4258.462, 4925.641, 4173.846, 4300, 4202.051, 16198, 0, []
1632651515.0675, 120, 0, 4243.077, 4666.154, 4187.179, 4301.538, 4207.179, 450, 0, []
1632651515.0752, 121, 0, 4210.769, 4401.026, 4168.205, 4289.231, 4194.359, 450, 0, []
1632651515.0831, 122, 0, 4205.128, 4310.769, 4153.846, 4284.615, 4194.872, 450, 0, []
1632651515.0909, 123, 0, 4230.769, 4189.231, 4179.487, 4292.308, 4216.41, 16198, 0, []
1632651515.0988, 124, 0, 4257.949, 4108.205, 4175.385, 4296.41, 4231.282, 450, 0, []
1632651515.1066, 125, 0, 4263.077, 4013.333, 4194.359, 4294.359, 4219.487, 450, 0, []
1632651515.1144, 126, 0, 4253.333, 3888.205, 4181.538, 4275.385, 4201.538, 450, 0, []
1632651515.1222, 127, 0, 4239.487, 3832.821, 4158.974, 4255.385, 4203.59, 16198, 0, []
1632651515.1301, 128, 0, 4230.769, 3780.513, 4176.41, 4266.154, 4218.974, 450, 0, []
1632651515.1379, 0, 0, 4243.077, 3690.256, 4154.872, 4284.103, 4231.282, 450, 0, []
1632651515.1458, 1, 0, 4254.872, 3624.615, 4156.923, 4285.128, 4221.026, 450, 0, []
1632651515.1535, 2, 0, 4241.538, 3582.564, 4167.692, 4273.333, 4195.897, 16169, 0, []
1632651515.1614, 3, 0, 4227.179, 3526.667, 4171.282, 4265.128, 4196.923, 450, 0, []
1632651515.1692, 4, 0, 4232.821, 3483.59, 4188.205, 4267.179, 4225.128, 20, 0, []
1632651515.1771, 5, 0, 4241.026, 3439.487, 4156.41, 4274.359, 4226.667, 450, 0, []
1632651515.1849, 6, 0, 4236.41, 3393.333, 4148.718, 4281.026, 4192.821, 311, 0, []
1632651515.1927, 7, 0, 4226.667, 3381.026, 4166.154, 4279.487, 4185.128, 450, 0, []
1632651515.2005, 8, 0, 4217.949, 3357.436, 4166.667, 4272.308, 4214.359, 450, 0, []
1632651515.2084, 9, 0, 4210.769, 3300.513, 4165.641, 4267.179, 4221.026, 16117, 0, []
1632651515.2162, 10, 0, 4219.487, 3260, 4127.692, 4261.538, 4195.897, 450, 0, []
1632651515.224, 11, 0, 4228.718, 3245.641, 4137.949, 4250.256, 4182.051, 16166, 0, []
1632651515.2318, 12, 0, 4216.923, 3214.359, 4169.231, 4249.231, 4189.231, 450, 0, []
1632651515.2396, 13, 0, 4204.103, 3174.359, 4156.41, 4257.949, 4193.846, 450, 0, []
1632651515.2475, 14, 0, 4208.718, 3157.949, 4155.385, 4261.026, 4176.923, 450, 0, []
1632651515.2553, 15, 0, 4219.487, 3158.462, 4137.436, 4250.769, 4171.282, 16166, 0, []
1632651515.2632, 16, 0, 4201.538, 3145.641, 4147.179, 4234.359, 4180, 0, 0, []
1632651515.2709, 17, 0, 4175.897, 3112.308, 4149.744, 4234.872, 4171.282, 0, 0, []
1632651515.2788, 18, 0, 4195.385, 3088.205, 4123.077, 4253.846, 4166.154, 0, 0, []
1632651515.2866, 19, 0, 4215.897, 3083.077, 4160, 4272.308, 4180, 0, 0, []
1632651515.2945, 20, 0, 4208.718, 3088.205, 4174.359, 4286.667, 4203.077, 0, 0, []
1632651515.3023, 21, 0, 4215.385, 3082.564, 4166.667, 4297.949, 4215.385, 0, 0, []
1632651515.3102, 22, 0, 4223.077, 3056.923, 4164.103, 4285.128, 4190.769, 0, 0, []
1632651515.3179, 23, 0, 4212.308, 3045.641, 4145.641, 4262.051, 4171.795, 0, 0, []
1632651515.3258, 24, 0, 4209.744, 3046.667, 4166.667, 4269.744, 4203.59, 0, 0, []
1632651515.3336, 25, 0, 4227.692, 3039.487, 4160, 4287.179, 4229.744, 0, 0, []
1632651515.3415, 26, 0, 4238.974, 3032.308, 4144.615, 4286.667, 4202.564, 0, 0, []
1632651515.3493, 27, 0, 4246.154, 3034.872, 4156.41, 4278.462, 4192.308, 0, 0, []
1632651515.3571, 28, 0, 4242.051, 3023.077, 4149.744, 4277.949, 4221.026, 0, 0, []
1632651515.3649, 29, 0, 4217.949, 2993.333, 4163.59, 4290.769, 4219.487, 0, 0, []
1632651515.3727, 30, 0, 4226.154, 2987.692, 4151.795, 4297.949, 4201.026, 0, 0, []
1632651515.3806, 31, 0, 4257.436, 3004.103, 4151.282, 4285.641, 4216.923, 0, 0, []
1632651515.3884, 32, 0, 4240, 3005.128, 4178.974, 4269.231, 4226.667, 0, 0, []
1632651515.3962, 33, 0, 4211.795, 2986.667, 4155.897, 4276.41, 4212.308, 0, 0, []
1632651515.404, 34, 0, 4223.077, 2982.564, 4169.231, 4288.718, 4196.41, 0, 0, []
1632651515.4119, 35, 0, 4231.795, 2997.436, 4179.487, 4261.026, 4189.744, 0, 0, []
1632651515.4197, 36, 0, 4221.538, 2996.923, 4161.026, 4241.538, 4206.667, 0, 0, []
1632651515.4276, 37, 0, 4220, 2976.41, 4162.564, 4274.359, 4226.667, 0, 0, []
1632651515.4353, 38, 0, 4233.846, 2974.872, 4142.051, 4300.513, 4219.487, 0, 0, []
1632651515.4432, 39, 0, 4242.564, 3003.59, 4159.487, 4281.538, 4204.615, 0, 0, []
1632651515.451, 40, 0, 4228.718, 3004.103, 4171.795, 4270.769, 4211.795, 0, 0, []
1632651515.4589, 41, 0, 4211.795, 2975.897, 4158.974, 4281.026, 4217.436, 0, 0, []
1632651515.4667, 42, 0, 4217.949, 2982.564, 4164.103, 4273.846, 4196.41, 0, 0, []
1632651515.4745, 43, 0, 4233.333, 3002.051, 4135.897, 4253.846, 4185.641, 0, 0, []
1632651515.4823, 44, 0, 4224.103, 2996.41, 4153.333, 4246.667, 4206.154, 0, 0, []
1632651515.4902, 45, 0, 4216.41, 2995.385, 4173.333, 4248.718, 4223.59, 0, 0, []
1632651515.498, 46, 0, 4226.154, 3003.59, 4148.205, 4259.487, 4212.308, 0, 0, []
1632651515.5059, 47, 0, 4236.923, 3006.154, 4169.231, 4275.897, 4203.077, 0, 0, []
1632651515.5136, 48, 0, 4244.615, 3006.667, 4170.769, 4275.385, 4219.487, 0, 0, []
1632651515.5215, 49, 0, 4239.487, 3005.641, 4160, 4264.615, 4232.821, 0, 0, []
1632651515.5293, 50, 0, 4235.385, 3009.231, 4152.308, 4272.821, 4220.513, 0, 0, []
1632651515.5371, 51, 0, 4246.154, 3032.821, 4146.154, 4282.564, 4208.205, 0, 0, []
1632651515.5451, 52, 0, 4244.103, 3053.846, 4172.821, 4270.769, 4209.744, 0, 0, []
1632651515.5529, 53, 0, 4234.872, 3047.692, 4160.513, 4263.59, 4225.641, 0, 0, []
1632651515.5608, 54, 0, 4245.128, 3030.256, 4156.41, 4282.051, 4240.513, 0, 0, []
1632651515.5687, 55, 0, 4257.436, 3014.872, 4162.051, 4288.205, 4226.667, 0, 0, []
1632651515.5767, 56, 0, 4260.513, 3027.692, 4144.103, 4268.205, 4216.41, 0, 0, []
1632651515.5846, 57, 0, 4248.205, 3059.487, 4170.256, 4258.462, 4228.718, 0, 0, []
1632651515.5925, 58, 0, 4228.205, 3051.795, 4167.179, 4261.026, 4229.744, 0, 0, []
1632651515.6005, 59, 0, 4231.795, 3031.795, 4150.256, 4264.103, 4212.821, 0, 0, []
1632651515.6085, 60, 0, 4256.923, 3066.667, 4161.026, 4268.205, 4212.308, 0, 0, []
1632651515.6164, 61, 0, 4262.051, 3101.538, 4148.205, 4261.026, 4235.897, 0, 0, []
1632651515.6243, 62, 0, 4246.154, 3075.385, 4152.821, 4259.487, 4243.59, 0, 0, []
1632651515.6323, 63, 0, 4252.821, 3064.615, 4151.795, 4288.718, 4234.872, 0, 0, []
1632651515.6402, 64, 0, 4263.59, 3097.949, 4160, 4301.538, 4228.205, 450, 0, []
1632651515.6481, 65, 0, 4241.538, 3105.128, 4174.872, 4266.667, 4222.051, 450, 0, []
1632651515.6561, 66, 0, 4226.154, 3079.487, 4142.051, 4251.282, 4223.59, 16167, 0, []
1632651515.664, 67, 0, 4235.897, 3074.359, 4140, 4268.718, 4211.795, 450, 0, []
1632651515.672, 68, 0, 4242.051, 3100, 4135.897, 4254.872, 4198.974, 16087, 0, []
1632651515.6798, 69, 0, 4237.949, 3115.385, 4140, 4236.41, 4225.641, 450, 0, []
1632651515.6878, 70, 0, 4235.897, 3111.795, 4165.128, 4257.436, 4250.769, 304, 0, []
1632651515.6957, 71, 0, 4244.103, 3126.667, 4145.641, 4275.385, 4234.359, 450, 0, []
1632651515.7037, 72, 0, 4252.308, 3151.282, 4177.949, 4271.795, 4217.436, 450, 0, []
1632651515.7116, 73, 0, 4236.923, 3149.231, 4198.462, 4266.154, 4223.077, 16131, 0, []
1632651515.7195, 74, 0, 4203.59, 3136.41, 4153.846, 4251.282, 4215.897, 450, 0, []
1632651515.7274, 75, 0, 4189.744, 3143.077, 4139.487, 4232.308, 4180, 16193, 0, []
1632651515.7354, 76, 0, 4193.846, 3152.308, 4120, 4223.59, 4160.513, 450, 0, []
1632651515.7433, 77, 0, 4187.692, 3151.795, 4120.513, 4210.769, 4175.385, 450, 0, []
1632651515.7513, 78, 0, 4199.487, 3166.667, 4128.718, 4210.769, 4198.462, 450, 0, []
1632651515.7592, 79, 0, 4245.128, 3201.538, 4137.949, 4250.769, 4217.436, 16193, 0, []
1632651515.7671, 80, 0, 4259.487, 3224.615, 4170.256, 4277.949, 4234.359, 450, 0, []
1632651515.775, 81, 0, 4230.769, 3217.949, 4153.333, 4256.41, 4243.59, 450, 0, []
1632651515.783, 82, 0, 4218.974, 3216.923, 4151.795, 4250.256, 4234.872, 450, 0, []
1632651515.791, 83, 0, 4233.846, 3248.205, 4164.103, 4276.41, 4217.436, 16193, 0, []
1632651515.7989, 84, 0, 4237.436, 3275.385, 4151.282, 4274.359, 4213.846, 450, 0, []
1632651515.8068, 85, 0, 4218.974, 3263.077, 4165.128, 4253.333, 4220.513, 450, 0, []
1632651515.8147, 86, 0, 4222.564, 3245.641, 4149.231, 4253.846, 4232.308, 450, 0, []
1632651515.8227, 87, 0, 4240, 3266.667, 4148.718, 4261.026, 4228.718, 16193, 0, []
1632651515.8306, 88, 0, 4221.538, 3286.667, 4156.41, 4247.179, 4208.718, 450, 0, []
1632651515.8386, 89, 0, 4194.359, 3280.513, 4133.846, 4236.923, 4213.333, 450, 0, []
1632651515.8464, 90, 0, 4198.974, 3281.026, 4151.282, 4251.282, 4212.821, 450, 0, []
1632651515.8544, 91, 0, 4211.795, 3300, 4147.692, 4255.897, 4177.436, 16193, 0, []
1632651515.8623, 92, 0, 4194.872, 3314.872, 4152.821, 4238.462, 4162.051, 450, 0, []
1632651515.8703, 93, 0, 4184.615, 3314.359, 4175.385, 4232.821, 4192.821, 450, 0, []
1632651515.8782, 94, 0, 4216.41, 3313.333, 4150.256, 4258.974, 4207.179, 450, 0, []
1632651515.8861, 95, 0, 4233.333, 3317.949, 4151.282, 4270.769, 4183.59, 16193, 0, []
1632651515.894, 96, 0, 4206.154, 3325.128, 4151.282, 4248.718, 4180, 450, 0, []
1632651515.902, 97, 0, 4181.026, 3340.513, 4148.205, 4242.051, 4191.795, 450, 0, []
1632651515.9099, 98, 0, 4198.974, 3366.667, 4157.436, 4257.436, 4185.641, 450, 0, []
1632651515.9179, 99, 0, 4225.128, 3387.179, 4147.179, 4254.872, 4193.846, 16193, 0, []
1632651515.9258, 100, 0, 4220, 3379.487, 4173.846, 4250.256, 4227.692, 450, 0, []
1632651515.9337, 101, 0, 4226.667, 3376.923, 4178.974, 4274.359, 4251.282, 450, 0, []
1632651515.9416, 102, 0, 4263.59, 3413.333, 4179.487, 4302.051, 4251.282, 450, 0, []
1632651515.9496, 103, 0, 4266.667, 3432.821, 4199.487, 4297.436, 4242.051, 16193, 0, []
1632651515.9575, 104, 0, 4229.744, 3412.308, 4177.949, 4281.026, 4242.564, 450, 0, []
1632651515.9655, 105, 0, 4211.795, 3409.231, 4190.256, 4288.718, 4239.487, 450, 0, []
1632651515.9734, 106, 0, 4214.359, 3421.026, 4176.41, 4294.872, 4209.231, 450, 0, []
1632651515.9813, 107, 0, 4204.615, 3416.923, 4141.026, 4264.103, 4186.154, 16193, 0, []
1632651515.9893, 108, 0, 4195.385, 3423.077, 4173.333, 4249.744, 4204.103, 450, 0, []
1632651515.9972, 109, 0, 4206.667, 3436.923, 4175.897, 4281.026, 4220.513, 450, 0, []
1632651516.0052, 110, 0, 4212.821, 3446.154, 4171.795, 4294.872, 4194.359, 450, 0, []
1632651516.013, 111, 0, 4202.564, 3467.692, 4178.974, 4274.872, 4180.513, 16193, 0, []
1632651516.021, 112, 0, 4196.41, 3475.897, 4184.615, 4272.821, 4207.179, 450, 0, []
1632651516.0289, 113, 0, 4191.282, 3466.667, 4181.538, 4282.051, 4201.538, 450, 0, []
1632651516.0369, 114, 0, 4189.744, 3463.077, 4133.333, 4258.974, 4165.128, 450, 0, []
1632651516.0448, 115, 0, 4180, 3462.051, 4134.872, 4229.744, 4162.564, 16193, 0, []
1632651516.0528, 116, 0, 4167.179, 3468.205, 4147.692, 4238.974, 4176.41, 450, 0, []
1632651516.0606, 117, 0, 4171.795, 3472.821, 4128.205, 4258.974, 4164.103, 450, 0, []
1632651516.0686, 118, 0, 4163.077, 3471.282, 4147.179, 4252.821, 4142.564, 450, 0, []
1632651516.0765, 119, 0, 4155.897, 3475.385, 4137.949, 4242.051, 4162.051, 16193, 0, []
1632651516.0845, 120, 0, 4189.231, 3478.974, 4134.359, 4253.333, 4183.077, 450, 0, []
1632651516.0924, 121, 0, 4216.41, 3495.385, 4152.308, 4259.487, 4178.462, 450, 0, []
1632651516.1003, 122, 0, 4197.436, 3516.41, 4148.718, 4252.821, 4186.154, 450, 0, []
1632651516.1083, 123, 0, 4170.256, 3509.744, 4155.385, 4253.333, 4184.615, 16193, 0, []
1632651516.1162, 124, 0, 4167.179, 3507.179, 4129.231, 4234.359, 4157.949, 450, 0, []
1632651516.1242, 125, 0, 4162.564, 3525.128, 4136.41, 4207.692, 4143.59, 450, 0, []
1632651516.1321, 126, 0, 4154.359, 3523.077, 4158.974, 4216.923, 4147.179, 450, 0, []
1632651516.14, 127, 0, 4160, 3520.513, 4128.205, 4233.333, 4140.513, 16193, 0, []
1632651516.1479, 128, 0, 4161.026, 3548.205, 4139.487, 4222.051, 4132.308, 450, 0, []
1632651516.1559, 0, 0, 4151.795, 3552.308, 4125.641, 4208.718, 4135.385, 450, 0, []
1632651516.1638, 1, 0, 4160.513, 3534.872, 4106.154, 4214.872, 4141.026, 450, 0, []
1632651516.1718, 2, 0, 4181.026, 3555.385, 4137.949, 4221.538, 4156.41, 16173, 0, []
1632651516.1796, 3, 0, 4180, 3573.846, 4134.872, 4216.41, 4177.949, 450, 0, []
1632651516.1876, 4, 0, 4184.615, 3573.846, 4140, 4213.846, 4186.667, 16151, 0, []
1632651516.1955, 5, 0, 4215.385, 3593.333, 4145.128, 4224.103, 4178.974, 450, 0, []
1632651516.2035, 6, 0, 4215.385, 3611.795, 4150.769, 4233.333, 4176.923, 308, 0, []
1632651516.2114, 7, 0, 4188.718, 3594.359, 4160.513, 4234.359, 4190.256, 450, 0, []
1632651516.2194, 8, 0, 4196.923, 3576.923, 4141.538, 4244.615, 4203.077, 450, 0, []
1632651516.2272, 9, 0, 4220.513, 3615.897, 4158.974, 4257.949, 4194.872, 16148, 0, []
1632651516.2352, 10, 0, 4207.179, 3635.897, 4153.333, 4233.846, 4172.308, 450, 0, []
1632651516.2431, 11, 0, 4182.051, 3621.538, 4123.59, 4201.538, 4167.179, 16195, 0, []
1632651516.2511, 12, 0, 4186.154, 3821.026, 4125.641, 4218.462, 4185.128, 450, 0, []
1632651516.259, 13, 0, 4213.333, 4375.897, 4116.923, 4251.795, 4198.462, 450, 0, []
1632651516.2669, 14, 0, 4221.026, 4866.667, 4141.026, 4247.179, 4193.333, 450, 0, []
1632651516.2749, 15, 0, 4205.128, 4980.513, 4152.308, 4229.744, 4190.256, 16195, 0, []
1632651516.2828, 16, 0, 4193.333, 4878.974, 4139.487, 4228.718, 4198.974, 0, 0, []
1632651516.2908, 17, 0, 4182.564, 4829.231, 4143.59, 4211.795, 4189.744, 0, 0, []
1632651516.2987, 18, 0, 4183.077, 5244.103, 4114.872, 4188.205, 4171.282, 0, 0, []
1632651516.3066, 19, 0, 4194.359, 5918.462, 4127.692, 4210.256, 4169.231, 0, 0, []
1632651516.3145, 20, 0, 4195.385, 6236.923, 4143.077, 4242.051, 4167.179, 0, 0, []
1632651516.3225, 21, 0, 4193.846, 6184.615, 4123.59, 4234.359, 4160.513, 0, 0, []
1632651516.3304, 22, 0, 4212.308, 6086.667, 4154.359, 4238.462, 4180, 0, 0, []
1632651516.3384, 23, 0, 4241.026, 5945.641, 4157.949, 4262.051, 4222.564, 0, 0, []
1632651516.3463, 24, 0, 4232.308, 5618.462, 4152.821, 4251.282, 4228.718, 0, 0, []
1632651516.3542, 25, 0, 4198.974, 5220, 4158.974, 4237.949, 4202.564, 0, 0, []
1632651516.3621, 26, 0, 4190.769, 4917.949, 4145.641, 4246.154, 4197.949, 0, 0, []
1632651516.3701, 27, 0, 4192.821, 4877.436, 4148.718, 4229.744, 4189.744, 0, 0, []
1632651516.378, 28, 0, 4192.308, 4961.026, 4124.103, 4203.59, 4170.256, 0, 0, []
1632651516.386, 29, 0, 4206.154, 4969.744, 4128.205, 4215.385, 4177.949, 0, 0, []
1632651516.3938, 30, 0, 4214.359, 5069.231, 4141.026, 4228.205, 4191.282, 0, 0, []
1632651516.4018, 31, 0, 4196.923, 5197.949, 4116.923, 4213.333, 4185.641, 0, 0, []
1632651516.4097, 32, 0, 4172.308, 5125.128, 4134.359, 4201.538, 4170.769, 0, 0, []
1632651516.4177, 33, 0, 4168.718, 5266.154, 4121.026, 4200, 4161.538, 0, 0, []
1632651516.4257, 34, 0, 4184.103, 5861.026, 4104.103, 4215.385, 4163.077, 0, 0, []
1632651516.4335, 35, 0, 4195.897, 6143.59, 4120.513, 4235.385, 4162.051, 0, 0, []
1632651516.4415, 36, 0, 4195.385, 5976.923, 4109.231, 4227.179, 4156.923, 0, 0, []
1632651516.4494, 37, 0, 4198.974, 6082.564, 4126.154, 4211.282, 4169.231, 0, 0, []
1632651516.4574, 38, 0, 4214.359, 6288.205, 4132.821, 4203.59, 4197.949, 0, 0, []
1632651516.4653, 39, 0, 4210.256, 6306.154, 4130.769, 4184.615, 4201.538, 0, 0, []
1632651516.4733, 40, 0, 4181.026, 6678.974, 4127.692, 4172.308, 4178.462, 0, 0, []
1632651516.4811, 41, 0, 4164.103, 7174.872, 4100, 4183.077, 4169.231, 0, 0, []
1632651516.4891, 42, 0, 4168.205, 7110.769, 4118.974, 4181.538, 4167.692, 0, 0, []
1632651516.497, 43, 0, 4172.821, 6821.026, 4110.769, 4165.128, 4165.128, 0, 0, []
1632651516.505, 44, 0, 4174.359, 6866.154, 4093.333, 4174.359, 4174.872, 0, 0, []
1632651516.5129, 45, 0, 4168.718, 6719.487, 4119.487, 4191.282, 4177.949, 0, 0, []
1632651516.5208, 46, 0, 4166.154, 5781.026, 4096.41, 4180, 4172.821, 0, 0, []
1632651516.5287, 47, 0, 4174.359, 4856.41, 4082.564, 4170.769, 4166.154, 0, 0, []
1632651516.5367, 48, 0, 4188.718, 4617.436, 4090.256, 4184.103, 4159.487, 0, 0, []
1632651516.5446, 49, 0, 4190.769, 4546.667, 4106.667, 4185.641, 4158.462, 0, 0, []
1632651516.5526, 50, 0, 4167.692, 4298.462, 4134.359, 4173.846, 4162.564, 0, 0, []
1632651516.5604, 51, 0, 4164.615, 4189.231, 4114.872, 4187.179, 4176.41, 0, 0, []
1632651516.5684, 52, 0, 4179.487, 4204.103, 4115.385, 4197.949, 4160, 0, 0, []
1632651516.5764, 53, 0, 4162.564, 4150.256, 4107.179, 4167.179, 4115.897, 0, 0, []
1632651516.5843, 54, 0, 4132.308, 4127.179, 4093.846, 4144.615, 4115.897, 0, 0, []
1632651516.5923, 55, 0, 4128.205, 4103.077, 4113.846, 4155.897, 4135.385, 0, 0, []
1632651516.6001, 56, 0, 4143.077, 4008.718, 4083.077, 4157.949, 4114.872, 0, 0, []
1632651516.6081, 57, 0, 4143.59, 4029.231, 4083.077, 4147.692, 4101.026, 0, 0, []
1632651516.616, 58, 0, 4139.487, 4221.538, 4106.667, 4161.026, 4130.769, 0, 0, []
1632651516.624, 59, 0, 4137.436, 4147.179, 4086.154, 4182.564, 4135.385, 0, 0, []
1632651516.6319, 60, 0, 4142.051, 4427.692, 4098.974, 4186.667, 4104.103, 0, 0, []
1632651516.6399, 61, 0, 4163.077, 5893.846, 4106.154, 4178.462, 4113.333, 0, 0, []
1632651516.6477, 62, 0, 4165.128, 7271.282, 4105.128, 4160, 4144.103, 0, 0, []
1632651516.6557, 63, 0, 4138.974, 7462.051, 4099.487, 4130.769, 4128.205, 0, 0, []
1632651516.6636, 64, 0, 4121.026, 7375.897, 4086.154, 4112.821, 4100.513, 450, 0, []
1632651516.6716, 65, 0, 4114.872, 7477.436, 4109.231, 4127.179, 4102.051, 450, 0, []
1632651516.6795, 66, 0, 4112.821, 7331.795, 4090.769, 4149.231, 4106.154, 16138, 0, []
1632651516.6874, 67, 0, 4114.872, 7277.949, 4076.41, 4154.872, 4099.487, 450, 0, []
1632651516.6953, 68, 0, 4115.897, 7426.154, 4080, 4160.513, 4095.897, 16096, 0, []
1632651516.7033, 69, 0, 4118.974, 7380, 4054.872, 4166.154, 4104.103, 450, 0, []
1632651516.7112, 70, 0, 4127.179, 7296.923, 4078.974, 4161.538, 4113.333, 16065, 0, []
1632651516.7192, 71, 0, 4132.821, 7408.718, 4070.769, 4140, 4112.308, 450, 0, []
1632651516.727, 72, 0, 4136.923, 7463.59, 4050.256, 4122.051, 4106.667, 450, 0, []
1632651516.735, 73, 0, 4143.077, 6884.615, 4070.769, 4116.41, 4106.667, 16127, 0, []
1632651516.743, 74, 0, 4146.667, 6017.949, 4062.051, 4116.41, 4108.205, 450, 0, []
1632651516.7509, 75, 0, 4145.128, 5614.872, 4070.769, 4126.667, 4096.923, 16257, 0, []
1632651516.7589, 76, 0, 4150.769, 5298.974, 4074.872, 4124.615, 4099.487, 450, 0, []
1632651516.7668, 77, 0, 4147.179, 4686.154, 4078.974, 4110.769, 4114.872, 450, 0, []
1632651516.7747, 78, 0, 4139.487, 4335.385, 4100, 4115.385, 4116.41, 450, 0, []
1632651516.7826, 79, 0, 4162.564, 4308.205, 4087.692, 4140, 4119.487, 16257, 0, []
1632651516.7906, 80, 0, 4176.41, 4103.59, 4091.795, 4136.41, 4120.513, 450, 0, []
1632651516.7985, 81, 0, 4148.205, 4109.231, 4080, 4105.641, 4112.821, 450, 0, []
1632651516.8065, 82, 0, 4134.359, 4379.487, 4069.744, 4118.974, 4120, 450, 0, []
1632651516.8143, 83, 0, 4141.538, 4333.846, 4085.128, 4155.385, 4116.41, 16257, 0, []
1632651516.8223, 84, 0, 4142.564, 4683.59, 4065.128, 4146.667, 4094.359, 450, 0, []
1632651516.8302, 85, 0, 4138.974, 6016.41, 4079.487, 4125.128, 4097.436, 450, 0, []
1632651516.8382, 86, 0, 4132.308, 7190.256, 4085.128, 4125.641, 4111.795, 450, 0, []
1632651516.8461, 87, 0, 4128.718, 7422.564, 4064.103, 4118.974, 4105.128, 16257, 0, []
1632651516.854, 88, 0, 4129.231, 7415.385, 4083.59, 4109.231, 4094.872, 450, 0, []
1632651516.8619, 89, 0, 4124.615, 7556.41, 4065.641, 4108.718, 4092.308, 450, 0, []
1632651516.8699, 90, 0, 4118.462, 7604.103, 4064.615, 4111.282, 4090.769, 450, 0, []
1632651516.8778, 91, 0, 4120, 7589.231, 4081.026, 4126.667, 4089.744, 16257, 0, []
1632651516.8857, 92, 0, 4118.462, 7533.846, 4072.821, 4132.308, 4092.821, 450, 0, []
1632651516.8935, 93, 0, 4112.821, 7480.513, 4085.128, 4114.872, 4088.718, 450, 0, []
1632651516.9015, 94, 0, 4119.487, 7529.744, 4070.256, 4114.359, 4083.077, 450, 0, []
1632651516.9095, 95, 0, 4131.795, 7586.154, 4079.487, 4144.103, 4094.359, 16257, 0, []
1632651516.9174, 96, 0, 4142.564, 7604.103, 4095.897, 4163.077, 4115.385, 450, 0, []
1632651516.9254, 97, 0, 4149.744, 7613.333, 4074.872, 4156.41, 4117.436, 450, 0, []
1632651516.9333, 98, 0, 4145.128, 7602.564, 4079.487, 4145.128, 4099.487, 450, 0, []
1632651516.9412, 99, 0, 4144.103, 7569.744, 4063.59, 4134.872, 4098.462, 16257, 0, []
1632651516.9491, 100, 0, 4152.308, 7562.564, 4072.821, 4133.333, 4114.872, 450, 0, []
1632651516.9571, 101, 0, 4165.641, 7594.872, 4101.026, 4141.026, 4127.179, 450, 0, []
1632651516.965, 102, 0, 4182.051, 7607.692, 4089.744, 4148.718, 4141.538, 450, 0, []
1632651516.973, 103, 0, 4179.487, 7574.359, 4104.103, 4145.641, 4141.026, 16257, 0, []
1632651516.9808, 104, 0, 4170.769, 7532.821, 4091.795, 4130.256, 4132.821, 450, 0, []
1632651516.9888, 105, 0, 4173.333, 7552.821, 4082.051, 4128.205, 4134.872, 450, 0, []
1632651516.9967, 106, 0, 4183.077, 7640, 4108.205, 4153.333, 4141.026, 450, 0, []
1632651517.0047, 107, 0, 4199.487, 7566.667, 4100.513, 4171.795, 4149.744, 16257, 0, []
1632651517.0126, 108, 0, 4211.282, 7494.359, 4107.692, 4166.154, 4148.718, 450, 0, []
1632651517.0205, 109, 0, 4222.051, 7637.949, 4107.692, 4173.846, 4145.641, 450, 0, []
1632651517.0285, 110, 0, 4233.333, 7044.615, 4111.795, 4191.282, 4149.744, 450, 0, []
1632651517.0364, 111, 0, 4223.59, 5467.179, 4120.513, 4167.692, 4147.692, 16257, 0, []
1632651517.0444, 112, 0, 4196.41, 4388.205, 4099.487, 4136.923, 4147.179, 450, 0, []
1632651517.0523, 113, 0, 4171.282, 4258.974, 4117.436, 4145.128, 4149.231, 450, 0, []
1632651517.0603, 114, 0, 4168.205, 4072.821, 4101.026, 4154.359, 4143.077, 450, 0, []
1632651517.0681, 115, 0, 4181.026, 3742.564, 4083.59, 4154.359, 4129.231, 16257, 0, []
1632651517.0761, 116, 0, 4167.692, 3678.462, 4119.487, 4155.897, 4120.513, 450, 0, []
1632651517.084, 117, 0, 4147.692, 3599.487, 4093.333, 4145.128, 4128.205, 450, 0, []
1632651517.092, 118, 0, 4155.897, 3455.897, 4082.051, 4138.974, 4117.949, 450, 0, []
1632651517.0999, 119, 0, 4152.821, 3382.051, 4096.923, 4135.897, 4089.744, 16257, 0, []
1632651517.1078, 120, 0, 4133.333, 3282.564, 4082.564, 4122.564, 4096.923, 450, 0, []
1632651517.1157, 121, 0, 4145.128, 3188.205, 4084.615, 4133.846, 4114.359, 450, 0, []
1632651517.1237, 122, 0, 4169.231, 3155.385, 4084.615, 4154.359, 4113.846, 450, 0, []
1632651517.1316, 123, 0, 4159.487, 3109.231, 4104.615, 4146.667, 4126.154, 16257, 0, []
1632651517.1396, 124, 0, 4151.282, 3009.744, 4103.077, 4134.359, 4127.179, 450, 0, []
1632651517.1474, 125, 0, 4154.872, 2961.538, 4083.077, 4131.282, 4106.154, 450, 0, []
1632651517.1554, 126, 0, 4146.154, 2946.154, 4095.897, 4127.179, 4116.923, 450, 0, []
1632651517.1633, 127, 0, 4154.872, 2875.385, 4082.051, 4135.897, 4139.487, 16257, 0, []
1632651517.1713, 128, 0, 4167.179, 2812.821, 4095.897, 4147.179, 4128.205, 450, 0, []
1632651517.1792, 0, 0, 4156.41, 2798.462, 4102.051, 4139.487, 4128.718, 450, 0, []
1632651517.1872, 1, 0, 4163.077, 2767.692, 4075.385, 4134.872, 4142.564, 450, 0, []
1632651517.195, 2, 0, 4169.744, 2706.667, 4099.487, 4138.462, 4133.333, 16069, 0, []
1632651517.203, 3, 0, 4157.436, 2677.436, 4092.308, 4140, 4130.769, 450, 0, []
1632651517.211, 4, 0, 4164.103, 2687.692, 4077.436, 4127.692, 4140.513, 233, 0, []
1632651517.2189, 5, 0, 4169.744, 2663.59, 4088.205, 4101.026, 4132.821, 450, 0, []
1632651517.2269, 6, 0, 4151.795, 2614.359, 4081.026, 4107.179, 4122.051, 16094, 0, []
1632651517.2347, 7, 0, 4146.154, 2621.538, 4090.769, 4138.974, 4122.051, 450, 0, []
1632651517.2427, 8, 0, 4168.718, 2619.487, 4086.154, 4147.179, 4144.615, 450, 0, []
1632651517.2506, 9, 0, 4177.949, 2558.974, 4104.103, 4158.974, 4157.949, 16058, 0, []
1632651517.2586, 10, 0, 4158.462, 2546.667, 4114.872, 4175.385, 4138.462, 450, 0, []
1632651517.2665, 11, 0, 4151.795, 2570.769, 4080.513, 4154.872, 4134.359, 16310, 0, []
1632651517.2744, 12, 0, 4174.872, 2547.179, 4108.205, 4141.538, 4149.744, 450, 0, []
1632651517.2823, 13, 0, 4187.692, 2528.718, 4116.41, 4158.974, 4147.692, 450, 0, []
1632651517.2903, 14, 0, 4164.615, 2527.692, 4093.333, 4161.538, 4137.949, 450, 0, []
1632651517.2982, 15, 0, 4158.462, 2506.667, 4107.179, 4151.795, 4144.103, 16310, 0, []
1632651517.3062, 16, 0, 4185.641, 2503.077, 4109.744, 4155.385, 4163.59, 0, 0, []
1632651517.314, 17, 0, 4190.769, 2510.256, 4122.051, 4163.077, 4166.667, 0, 0, []
1632651517.322, 18, 0, 4180.513, 2499.487, 4104.103, 4149.744, 4154.359, 0, 0, []
1632651517.3299, 19, 0, 4185.641, 2493.846, 4092.308, 4134.359, 4162.051, 0, 0, []
1632651517.3379, 20, 0, 4184.615, 2501.538, 4114.872, 4147.179, 4154.872, 0, 0, []
1632651517.3458, 21, 0, 4170.769, 2519.487, 4102.051, 4166.154, 4130.256, 0, 0, []
1632651517.3538, 22, 0, 4167.179, 2529.744, 4114.872, 4175.897, 4146.154, 0, 0, []
1632651517.3616, 23, 0, 4172.821, 2513.333, 4119.487, 4179.487, 4155.385, 0, 0, []
1632651517.3696, 24, 0, 4158.974, 2500, 4107.692, 4171.795, 4123.077, 0, 0, []
1632651517.3776, 25, 0, 4153.846, 2518.974, 4127.179, 4175.385, 4134.872, 0, 0, []
1632651517.3855, 26, 0, 4193.846, 2542.564, 4125.128, 4194.359, 4181.026, 0, 0, []
1632651517.3935, 27, 0, 4209.744, 2560, 4145.128, 4193.846, 4184.103, 0, 0, []
1632651517.4013, 28, 0, 4180, 2578.462, 4140.513, 4189.231, 4175.897, 0, 0, []
1632651517.4093, 29, 0, 4184.615, 2576.923, 4113.846, 4197.436, 4183.59, 0, 0, []
1632651517.4172, 30, 0, 4200, 2556.41, 4145.128, 4196.923, 4180, 0, 0, []
1632651517.4252, 31, 0, 4178.462, 2553.846, 4127.692, 4195.897, 4173.846, 0, 0, []
1632651517.4331, 32, 0, 4175.897, 2568.205, 4107.692, 4206.154, 4173.846, 0, 0, []
1632651517.441, 33, 0, 4195.897, 2566.667, 4131.795, 4208.718, 4178.462, 0, 0, []
1632651517.4489, 34, 0, 4188.205, 2566.667, 4133.846, 4206.667, 4182.564, 0, 0, []
1632651517.4569, 35, 0, 4177.949, 2588.205, 4128.205, 4197.436, 4172.821, 0, 0, []
1632651517.4648, 36, 0, 4183.077, 2592.821, 4108.205, 4178.462, 4171.282, 0, 0, []
1632651517.4728, 37, 0, 4162.051, 2567.179, 4124.615, 4175.385, 4156.923, 0, 0, []
1632651517.4807, 38, 0, 4132.308, 2560, 4125.128, 4167.179, 4122.564, 0, 0, []
1632651517.4886, 39, 0, 4140, 2575.897, 4087.692, 4149.744, 4131.282, 0, 0, []
1632651517.4965, 40, 0, 4161.538, 2588.205, 4110.256, 4161.026, 4149.231, 0, 0, []
1632651517.5045, 41, 0, 4164.615, 2603.077, 4125.128, 4182.564, 4143.59, 0, 0, []
1632651517.5124, 42, 0, 4167.692, 2622.051, 4129.744, 4186.667, 4162.051, 0, 0, []
1632651517.5204, 43, 0, 4186.154, 2633.333, 4132.308, 4188.718, 4176.41, 0, 0, []
1632651517.5282, 44, 0, 4183.077, 2619.487, 4115.385, 4187.692, 4149.744, 0, 0, []
1632651517.5362, 45, 0, 4153.846, 2620, 4127.692, 4177.436, 4133.846, 0, 0, []
1632651517.5442, 46, 0, 4168.718, 2651.795, 4118.462, 4174.359, 4158.462, 0, 0, []
1632651517.5521, 47, 0, 4193.333, 2655.897, 4134.872, 4186.154, 4173.846, 0, 0, []
1632651517.5601, 48, 0, 4176.41, 2633.846, 4161.026, 4204.615, 4166.154, 0, 0, []
1632651517.5679, 49, 0, 4184.103, 2637.436, 4123.59, 4213.333, 4170.769, 0, 0, []
1632651517.5759, 50, 0, 4201.538, 2670.256, 4129.744, 4206.154, 4188.718, 0, 0, []
1632651517.5838, 51, 0, 4188.718, 2692.308, 4130.769, 4204.103, 4194.359, 0, 0, []
1632651517.5918, 52, 0, 4194.872, 2687.692, 4116.923, 4204.103, 4181.538, 0, 0, []
1632651517.5997, 53, 0, 4190.769, 2676.923, 4136.923, 4184.615, 4167.692, 0, 0, []
1632651517.6076, 54, 0, 4165.128, 2677.949, 4124.615, 4181.026, 4172.821, 0, 0, []
1632651517.6155, 55, 0, 4185.641, 2683.59, 4133.846, 4211.795, 4178.974, 0, 0, []
1632651517.6235, 56, 0, 4206.154, 2694.872, 4142.564, 4207.692, 4173.846, 0, 0, []
1632651517.6314, 57, 0, 4175.385, 2706.667, 4125.641, 4182.051, 4172.821, 0, 0, []
1632651517.6394, 58, 0, 4163.59, 2699.487, 4124.103, 4192.821, 4161.026, 0, 0, []
1632651517.6473, 59, 0, 4173.333, 2701.538, 4103.59, 4197.949, 4140.513, 0, 0, []
1632651517.6552, 60, 0, 4159.487, 2726.667, 4109.231, 4178.974, 4143.077, 0, 0, []
1632651517.6631, 61, 0, 4163.077, 2723.077, 4109.231, 4177.436, 4149.231, 0, 0, []
1632651517.6711, 62, 0, 4172.821, 2709.744, 4104.615, 4188.205, 4136.41, 0, 0, []
1632651517.6791, 63, 0, 4161.538, 2737.949, 4129.744, 4190.769, 4139.487, 0, 0, []
1632651517.687, 64, 0, 4178.974, 2768.205, 4112.821, 4193.333, 4158.462, 450, 0, []
1632651517.6949, 65, 0, 4188.718, 2777.949, 4120, 4192.308, 4157.949, 450, 0, []
1632651517.7029, 66, 0, 4160, 2775.385, 4114.872, 4183.077, 4152.308, 16144, 0, []
1632651517.7108, 67, 0, 4158.462, 2774.872, 4087.179, 4171.282, 4153.846, 450, 0, []
1632651517.7187, 68, 0, 4168.205, 2793.846, 4126.667, 4156.923, 4148.718, 16135, 0, []
1632651517.7267, 69, 0, 4161.026, 2805.128, 4124.615, 4160.513, 4152.308, 450, 0, []
1632651517.7345, 70, 0, 4180, 2806.154, 4120.513, 4190.769, 4161.538, 16058, 0, []
1632651517.7425, 71, 0, 4195.897, 2824.103, 4149.231, 4206.667, 4161.026, 450, 0, []
1632651517.7504, 72, 0, 4175.385, 2847.692, 4131.795, 4191.795, 4166.154, 450, 0, []
1632651517.7584, 73, 0, 4173.846, 2863.077, 4121.538, 4191.282, 4163.59, 16119, 0, []
1632651517.7663, 74, 0, 4190.769, 2869.744, 4120.513, 4200, 4156.923, 450, 0, []
1632651517.7743, 75, 0, 4181.026, 2860.513, 4129.231, 4187.179, 4166.154, 16216, 0, []
1632651517.7821, 76, 0, 4182.051, 2869.744, 4125.128, 4188.205, 4169.744, 450, 0, []
1632651517.7901, 77, 0, 4214.359, 2916.923, 4125.128, 4216.923, 4180, 450, 0, []
1632651517.798, 78, 0, 4214.872, 2936.923, 4165.128, 4230.769, 4204.103, 450, 0, []
1632651517.806, 79, 0, 4192.308, 2929.231, 4138.974, 4216.923, 4198.974, 16216, 0, []
1632651517.8139, 80, 0, 4200, 2951.795, 4116.923, 4207.179, 4179.487, 450, 0, []
1632651517.8218, 81, 0, 4205.128, 2966.667, 4145.128, 4209.744, 4190.256, 450, 0, []
1632651517.8298, 82, 0, 4189.744, 2948.205, 4130.256, 4213.846, 4204.615, 450, 0, []
1632651517.8377, 83, 0, 4186.667, 2947.179, 4129.744, 4214.872, 4178.974, 16216, 0, []
1632651517.8457, 84, 0, 4180, 2964.615, 4121.026, 4196.41, 4150.769, 450, 0, []
1632651517.8536, 85, 0, 4146.154, 2961.026, 4102.564, 4170.769, 4142.051, 450, 0, []
1632651517.8615, 86, 0, 4141.026, 2954.359, 4107.179, 4168.205, 4134.872, 450, 0, []
1632651517.8694, 87, 0, 4168.205, 2969.744, 4104.103, 4184.615, 4146.154, 16216, 0, []
1632651517.8774, 88, 0, 4170.256, 3002.564, 4127.692, 4193.846, 4165.641, 450, 0, []
1632651517.8853, 89, 0, 4174.872, 3024.615, 4118.974, 4190.769, 4167.692, 450, 0, []
1632651517.8932, 90, 0, 4177.949, 3011.282, 4113.846, 4187.692, 4161.026, 450, 0, []
1632651517.901, 91, 0, 4153.846, 3011.795, 4135.897, 4192.821, 4162.051, 16216, 0, []
1632651517.9089, 92, 0, 4163.077, 3042.564, 4110.769, 4208.718, 4161.026, 450, 0, []
1632651517.9169, 93, 0, 4178.462, 3051.282, 4126.154, 4210.769, 4146.154, 450, 0, []
1632651517.9249, 94, 0, 4158.974, 3040, 4130.256, 4194.872, 4149.744, 450, 0, []
1632651517.9328, 95, 0, 4152.821, 3050.769, 4097.436, 4195.385, 4153.333, 16216, 0, []
1632651517.9408, 96, 0, 4143.077, 3073.333, 4108.205, 4187.692, 4124.103, 450, 0, []
1632651517.9486, 97, 0, 4129.231, 3068.205, 4104.615, 4169.744, 4123.59, 450, 0, []
1632651517.9566, 98, 0, 4161.026, 3051.282, 4117.949, 4195.385, 4150.256, 450, 0, []
1632651517.9645, 99, 0, 4187.179, 3055.385, 4134.359, 4219.487, 4157.436, 16216, 0, []
1632651517.9725, 100, 0, 4169.231, 3072.308, 4120, 4200.513, 4167.179, 450, 0, []
1632651517.9804, 101, 0, 4168.718, 3083.59, 4121.538, 4200, 4160, 450, 0, []
1632651517.9883, 102, 0, 4184.103, 3110.256, 4112.308, 4217.949, 4143.59, 450, 0, []
1632651517.9962, 103, 0, 4173.333, 3132.821, 4127.179, 4206.667, 4166.154, 16216, 0, []
1632651518.0042, 104, 0, 4160, 3126.667, 4126.154, 4191.795, 4167.692, 450, 0, []
1632651518.0122, 105, 0, 4172.821, 3136.41, 4102.564, 4193.846, 4143.59, 450, 0, []
1632651518.0201, 106, 0, 4179.487, 3145.128, 4132.821, 4202.564, 4165.641, 450, 0, []
1632651518.028, 107, 0, 4169.231, 3135.385, 4130.256, 4213.846, 4177.949, 16216, 0, []
1632651518.0359, 108, 0, 4149.231, 3154.872, 4114.359, 4197.949, 4142.051, 450, 0, []
1632651518.0439, 109, 0, 4133.846, 3158.462, 4112.821, 4168.205, 4137.436, 450, 0, []
1632651518.0518, 110, 0, 4138.974, 3137.949, 4106.154, 4178.462, 4152.308, 450, 0, []
1632651518.0598, 111, 0, 4155.897, 3173.333, 4139.487, 4194.359, 4149.744, 16216, 0, []
1632651518.0677, 112, 0, 4174.872, 3212.308, 4143.59, 4191.282, 4180.513, 450, 0, []
1632651518.0756, 113, 0, 4183.077, 3201.026, 4141.026, 4215.385, 4206.154, 450, 0, []
1632651518.0835, 114, 0, 4175.385, 3212.308, 4141.026, 4232.308, 4172.821, 450, 0, []
1632651518.0915, 115, 0, 4157.436, 3238.974, 4113.333, 4204.615, 4149.231, 16216, 0, []
1632651518.0994, 116, 0, 4149.231, 3247.692, 4129.231, 4198.462, 4163.59, 450, 0, []
1632651518.1074, 117, 0, 4162.051, 3273.846, 4127.179, 4216.923, 4166.667, 450, 0, []
1632651518.1152, 118, 0, 4149.744, 3288.205, 4119.487, 4205.641, 4146.154, 450, 0, []
1632651518.1232, 119, 0, 4126.667, 3281.538, 4125.641, 4193.333, 4134.359, 16216, 0, []
1632651518.1311, 120, 0, 4143.59, 3300, 4104.615, 4200.513, 4142.051, 450, 0, []
1632651518.1391, 121, 0, 4144.615, 3318.462, 4128.718, 4200.513, 4135.897, 450, 0, []
1632651518.147, 122, 0, 4112.821, 3332.821, 4120.513, 4191.282, 4118.462, 450, 0, []
1632651518.1549, 123, 0, 4119.487, 3366.154, 4094.359, 4188.205, 4116.923, 16216, 0, []
1632651518.1629, 124, 0, 4132.821, 3372.821, 4127.179, 4187.179, 4125.641, 450, 0, []
1632651518.1708, 125, 0, 4119.487, 3361.026, 4112.308, 4182.564, 4134.872, 450, 0, []
1632651518.1788, 126, 0, 4132.308, 3391.282, 4100, 4185.128, 4139.487, 450, 0, []
1632651518.1867, 127, 0, 4150.256, 3440, 4114.359, 4180, 4138.974, 16216, 0, []
1632651518.1946, 128, 0, 4133.333, 3451.795, 4114.359, 4170.769, 4146.154, 450, 0, []
1632651518.2025, 0, 0, 4126.667, 3446.667, 4116.923, 4181.026, 4143.59, 450, 0, []
1632651518.2105, 1, 0, 4128.205, 3476.923, 4102.051, 4194.359, 4124.615, 450, 0, []
1632651518.2184, 2, 0, 4103.077, 3515.385, 4109.231, 4188.205, 4115.897, 16162, 0, []
1632651518.2264, 3, 0, 4108.205, 3494.359, 4108.718, 4177.949, 4122.051, 450, 0, []
1632651518.2343, 4, 0, 4138.462, 3462.564, 4118.974, 4182.564, 4135.385, 16136, 0, []
1632651518.2422, 5, 0, 4130.769, 3534.359, 4142.564, 4186.154, 4144.103, 450, 0, []
1632651518.2501, 6, 0, 4122.051, 3614.872, 4104.103, 4182.564, 4134.359, 303, 0, []
1632651518.2581, 7, 0, 4130.256, 3640.513, 4113.846, 4181.026, 4122.564, 450, 0, []
1632651518.266, 8, 0, 4128.205, 3783.077, 4140, 4189.744, 4145.128, 450, 0, []
1632651518.274, 9, 0, 4138.974, 3994.359, 4114.359, 4206.154, 4167.179, 16133, 0, []
1632651518.2818, 10, 0, 4154.872, 4166.667, 4127.692, 4207.692, 4145.641, 450, 0, []
1632651518.2898, 11, 0, 4149.231, 4275.385, 4135.897, 4205.128, 4144.615, 16195, 0, []
1632651518.2977, 12, 0, 4151.282, 4205.641, 4155.897, 4226.667, 4188.205, 450, 0, []
1632651518.3057, 13, 0, 4174.359, 3998.974, 4169.744, 4250.769, 4205.128, 450, 0, []
1632651518.3137, 14, 0, 4186.667, 3908.205, 4142.051, 4239.487, 4180, 450, 0, []
1632651518.3215, 15, 0, 4165.641, 3935.897, 4152.821, 4210.256, 4158.462, 16195, 0, []
1632651518.3295, 16, 0, 4135.385, 3910.256, 4142.051, 4198.462, 4158.974, 0, 0, []
1632651518.3374, 17, 0, 4136.41, 3898.974, 4137.436, 4213.846, 4162.051, 0, 0, []
1632651518.3454, 18, 0, 4169.231, 3924.103, 4161.538, 4236.41, 4157.949, 0, 0, []
1632651518.3533, 19, 0, 4181.026, 3936.41, 4156.923, 4236.41, 4168.718, 0, 0, []
1632651518.3613, 20, 0, 4146.667, 3874.872, 4165.128, 4225.128, 4175.385, 0, 0, []
1632651518.3691, 21, 0, 4129.231, 3879.487, 4143.077, 4222.564, 4156.41, 0, 0, []
1632651518.3771, 22, 0, 4160.513, 4426.154, 4136.41, 4225.128, 4146.154, 0, 0, []
1632651518.385, 23, 0, 4184.103, 5253.333, 4161.026, 4228.205, 4162.051, 0, 0, []
1632651518.393, 24, 0, 4183.077, 5657.436, 4150.256, 4231.795, 4187.692, 0, 0, []
1632651518.4009, 25, 0, 4172.308, 5717.949, 4166.154, 4238.462, 4195.897, 0, 0, []
1632651518.4088, 26, 0, 4162.051, 5740.513, 4165.641, 4237.949, 4184.615, 0, 0, []
1632651518.4167, 27, 0, 4167.692, 5612.308, 4152.308, 4242.051, 4183.077, 0, 0, []
1632651518.4247, 28, 0, 4176.41, 5615.385, 4155.897, 4247.692, 4185.641, 0, 0, []
1632651518.4326, 29, 0, 4173.333, 5758.974, 4131.282, 4240, 4175.385, 0, 0, []
1632651518.4406, 30, 0, 4170.769, 5273.333, 4144.103, 4234.359, 4159.487, 0, 0, []
1632651518.4485, 31, 0, 4174.872, 4435.385, 4153.846, 4230.256, 4158.462, 0, 0, []
1632651518.4564, 32, 0, 4173.333, 4129.231, 4151.282, 4211.795, 4169.744, 0, 0, []
1632651518.4644, 33, 0, 4168.718, 4138.974, 4170.769, 4215.897, 4182.051, 0, 0, []
1632651518.4723, 34, 0, 4170.769, 4011.795, 4140.513, 4235.897, 4183.077, 0, 0, []
1632651518.4803, 35, 0, 4155.897, 3912.821, 4123.59, 4207.692, 4148.718, 0, 0, []
1632651518.4881, 36, 0, 4131.282, 3907.692, 4120, 4170.256, 4123.077, 0, 0, []
1632651518.4961, 37, 0, 4127.179, 3859.487, 4110.769, 4186.667, 4143.077, 0, 0, []
1632651518.504, 38, 0, 4140.513, 3826.667, 4118.974, 4208.205, 4143.077, 0, 0, []
1632651518.512, 39, 0, 4153.333, 3822.564, 4104.103, 4196.41, 4129.231, 0, 0, []
1632651518.5199, 40, 0, 4144.615, 3807.692, 4128.718, 4193.333, 4147.179, 0, 0, []
1632651518.5279, 41, 0, 4125.128, 3787.179, 4125.641, 4202.564, 4149.744, 0, 0, []
1632651518.5357, 42, 0, 4122.564, 3763.59, 4087.692, 4188.205, 4118.974, 0, 0, []
1632651518.5437, 43, 0, 4123.59, 3750.256, 4112.821, 4169.744, 4114.872, 0, 0, []
1632651518.5517, 44, 0, 4134.872, 3748.718, 4107.692, 4178.974, 4146.667, 0, 0, []
1632651518.5596, 45, 0, 4154.872, 3731.282, 4106.154, 4192.308, 4147.179, 0, 0, []
1632651518.5675, 46, 0, 4146.667, 3706.667, 4115.385, 4172.821, 4123.077, 0, 0, []
1632651518.5754, 47, 0, 4127.692, 3691.282, 4101.538, 4169.744, 4130.256, 0, 0, []
1632651518.5833, 48, 0, 4129.231, 3675.897, 4120, 4203.077, 4134.872, 0, 0, []
1632651518.5911, 49, 0, 4153.846, 3682.564, 4113.846, 4205.128, 4125.128, 0, 0, []
1632651518.5991, 50, 0, 4169.231, 3709.231, 4126.154, 4181.026, 4143.077, 0, 0, []
1632651518.607, 51, 0, 4166.154, 3700.513, 4150.256, 4186.667, 4172.308, 0, 0, []
1632651518.6149, 52, 0, 4174.872, 3697.436, 4129.744, 4213.333, 4175.385, 0, 0, []
1632651518.6228, 53, 0, 4194.872, 3742.564, 4140, 4215.897, 4174.872, 0, 0, []
1632651518.6308, 54, 0, 4205.641, 3777.436, 4144.103, 4200.513, 4194.359, 0, 0, []
1632651518.6387, 55, 0, 4195.897, 3836.41, 4131.795, 4195.385, 4198.974, 0, 0, []
1632651518.6467, 56, 0, 4191.795, 3932.308, 4126.154, 4202.564, 4180.513, 0, 0, []
1632651518.6546, 57, 0, 4203.59, 4026.154, 4117.436, 4197.436, 4172.821, 0, 0, []
1632651518.6625, 58, 0, 4189.231, 4238.974, 4136.41, 4182.051, 4170.769, 0, 0, []
1632651518.6704, 59, 0, 4155.897, 4553.846, 4120, 4182.564, 4161.538, 0, 0, []
1632651518.6784, 60, 0, 4142.564, 4622.051, 4098.974, 4189.231, 4146.154, 0, 0, []
1632651518.6863, 61, 0, 4161.026, 4445.128, 4114.359, 4195.385, 4141.538, 0, 0, []
1632651518.6943, 62, 0, 4187.179, 4734.359, 4109.744, 4202.051, 4156.923, 0, 0, []
1632651518.7021, 63, 0, 4193.333, 5586.667, 4126.154, 4198.974, 4171.282, 0, 0, []
1632651518.7101, 64, 0, 4189.744, 6183.077, 4120.513, 4189.231, 4177.949, 450, 0, []
1632651518.718, 65, 0, 4187.179, 6278.462, 4117.436, 4197.949, 4184.615, 450, 0, []
1632651518.726, 66, 0, 4180, 6370.256, 4140.513, 4208.205, 4177.949, 16148, 0, []
1632651518.7339, 67, 0, 4174.872, 6553.333, 4112.821, 4195.385, 4165.128, 450, 0, []
1632651518.7416, 68, 0, 4188.205, 6616.41, 4130.256, 4200.513, 4176.41, 16062, 0, []
1632651518.7495, 69, 0, 4211.282, 6655.897, 4149.744, 4225.128, 4200.513, 450, 0, []
1632651518.7573, 70, 0, 4215.897, 6691.282, 4125.641, 4230.256, 4203.077, 16060, 0, []
1632651518.7653, 71, 0, 4203.59, 6560.513, 4129.744, 4215.385, 4186.667, 450, 0, []
1632651518.7732, 72, 0, 4204.103, 6376.41, 4124.615, 4211.282, 4188.718, 450, 0, []
1632651518.7812, 73, 0, 4213.333, 6453.846, 4140.513, 4222.051, 4199.487, 16129, 0, []
1632651518.789, 74, 0, 4208.205, 6694.359, 4140, 4222.564, 4191.282, 450, 0, []
1632651518.797, 75, 0, 4200.513, 6672.821, 4122.564, 4216.923, 4181.538, 16273, 0, []
1632651518.8049, 76, 0, 4198.462, 6505.128, 4141.538, 4214.359, 4182.051, 450, 0, []
1632651518.8129, 77, 0, 4199.487, 6575.385, 4128.205, 4207.179, 4185.641, 450, 0, []
1632651518.8208, 78, 0, 4197.949, 6634.359, 4125.128, 4204.103, 4184.103, 450, 0, []
1632651518.8287, 79, 0, 4193.333, 6485.641, 4116.41, 4200.513, 4175.897, 16273, 0, []
1632651518.8366, 80, 0, 4190.769, 6505.641, 4087.179, 4194.359, 4169.744, 450, 0, []
1632651518.8446, 81, 0, 4192.308, 6301.538, 4109.744, 4205.641, 4172.308, 450, 0, []
1632651518.8525, 82, 0, 4195.385, 5376.41, 4104.615, 4214.359, 4175.385, 450, 0, []
1632651518.8605, 83, 0, 4191.795, 4540.513, 4095.385, 4197.949, 4157.949, 16273, 0, []
1632651518.8683, 84, 0, 4185.641, 4409.231, 4097.949, 4178.462, 4137.436, 450, 0, []
1632651518.8761, 85, 0, 4184.103, 4383.59, 4086.667, 4173.333, 4146.154, 450, 0, []
1632651518.884, 86, 0, 4182.564, 4175.385, 4111.795, 4182.051, 4165.128, 450, 0, []
1632651518.8918, 87, 0, 4188.718, 4101.026, 4101.026, 4204.103, 4170.769, 16273, 0, []
1632651518.8997, 88, 0, 4202.051, 4074.359, 4093.846, 4208.205, 4161.538, 450, 0, []
1632651518.9075, 89, 0, 4205.128, 4008.205, 4111.282, 4183.59, 4151.795, 450, 0, []
1632651518.9153, 90, 0, 4190.769, 3955.897, 4096.923, 4174.359, 4160, 450, 0, []
1632651518.9231, 91, 0, 4167.179, 3878.462, 4105.641, 4189.231, 4157.949, 16273, 0, []
1632651518.9311, 92, 0, 4165.641, 3830.256, 4088.718, 4184.103, 4124.615, 450, 0, []
1632651518.939, 93, 0, 4177.436, 3811.795, 4076.41, 4165.128, 4114.359, 450, 0, []
1632651518.947, 94, 0, 4180.513, 3773.846, 4097.436, 4175.897, 4150.769, 450, 0, []
1632651518.9548, 95, 0, 4192.308, 3715.897, 4088.205, 4199.487, 4178.462, 16273, 0, []
1632651518.9628, 96, 0, 4206.154, 3693.846, 4098.974, 4198.974, 4162.051, 450, 0, []
1632651518.9707, 97, 0, 4210.256, 3704.615, 4096.41, 4190.769, 4149.744, 450, 0, []
1632651518.9787, 98, 0, 4210.256, 3693.846, 4097.949, 4200.513, 4176.923, 450, 0, []
1632651518.9866, 99, 0, 4207.179, 3664.615, 4117.436, 4202.564, 4192.308, 16273, 0, []
1632651518.9945, 100, 0, 4213.846, 3629.744, 4096.41, 4184.615, 4177.949, 450, 0, []
1632651519.0024, 101, 0, 4231.282, 3612.308, 4111.795, 4188.205, 4175.897, 450, 0, []
1632651519.0104, 102, 0, 4235.385, 3616.41, 4125.128, 4211.282, 4202.051, 450, 0, []
1632651519.0183, 103, 0, 4224.615, 3600.513, 4110.256, 4214.359, 4221.026, 16273, 0, []
1632651519.0263, 104, 0, 4232.308, 3579.487, 4116.923, 4216.923, 4206.667, 450, 0, []
1632651519.0341, 105, 0, 4258.462, 3583.077, 4108.205, 4230.769, 4200.513, 450, 0, []
1632651519.0419, 106, 0, 4255.897, 3575.897, 4126.667, 4216.41, 4209.744, 450, 0, []
1632651519.0498, 107, 0, 4220.513, 3547.692, 4127.179, 4190.769, 4206.667, 16273, 0, []
1632651519.0576, 108, 0, 4213.333, 3544.615, 4105.641, 4196.41, 4198.974, 450, 0, []
1632651519.0655, 109, 0, 4233.846, 3541.538, 4119.487, 4200, 4187.692, 450, 0, []
1632651519.0733, 110, 0, 4235.385, 3508.205, 4104.615, 4177.436, 4180.513, 450, 0, []
1632651519.0811, 111, 0, 4213.333, 3499.487, 4113.846, 4173.333, 4191.795, 16273, 0, []
1632651519.0889, 112, 0, 4205.641, 3510.256, 4120.513, 4194.872, 4206.667, 450, 0, []
1632651519.0969, 113, 0, 4226.667, 3496.923, 4097.949, 4201.538, 4201.026, 450, 0, []
1632651519.1048, 114, 0, 4226.667, 3480.513, 4113.846, 4189.231, 4184.103, 450, 0, []
1632651519.1128, 115, 0, 4194.359, 3470.256, 4094.359, 4178.462, 4176.923, 16273, 0, []
1632651519.1206, 116, 0, 4178.974, 3457.436, 4082.564, 4186.667, 4174.359, 450, 0, []
1632651519.1286, 117, 0, 4193.333, 3463.077, 4094.359, 4196.41, 4163.59, 450, 0, []
1632651519.1365, 118, 0, 4192.308, 3479.487, 4088.718, 4181.538, 4156.41, 450, 0, []
1632651519.1445, 119, 0, 4167.692, 3457.949, 4103.077, 4165.641, 4162.051, 16273, 0, []
1632651519.1524, 120, 0, 4166.154, 3434.872, 4091.795, 4173.333, 4160.513, 450, 0, []
1632651519.1603, 121, 0, 4185.128, 3463.077, 4100, 4178.462, 4152.308, 450, 0, []
1632651519.1682, 122, 0, 4193.333, 3484.615, 4117.949, 4167.179, 4165.128, 450, 0, []
1632651519.1762, 123, 0, 4198.974, 3458.462, 4088.205, 4172.821, 4185.641, 16273, 0, []
1632651519.1841, 124, 0, 4211.282, 3448.205, 4094.872, 4195.897, 4175.385, 450, 0, []
1632651519.1919, 125, 0, 4207.179, 3479.487, 4096.923, 4186.154, 4158.462, 450, 0, []
1632651519.1998, 126, 0, 4176.923, 3482.051, 4096.923, 4163.077, 4158.462, 450, 0, []
1632651519.2075, 127, 0, 4155.897, 3447.179, 4099.487, 4174.359, 4141.026, 16273, 0, []
1632651519.2154, 128, 0, 4163.59, 3447.179, 4070.256, 4184.615, 4124.615, 450, 0, []
1632651519.2232, 0, 0, 4156.923, 3464.103, 4083.077, 4164.103, 4134.359, 450, 0, []
1632651519.2312, 1, 0, 4145.641, 3464.615, 4083.077, 4153.846, 4143.077, 450, 0, []
1632651519.2391, 2, 0, 4165.641, 3468.718, 4085.641, 4168.718, 4136.41, 16134, 0, []
1632651519.2469, 3, 0, 4173.846, 3467.692, 4112.308, 4165.641, 4135.385, 450, 0, []
1632651519.2547, 4, 0, 4161.026, 3455.385, 4087.692, 4156.41, 4154.872, 16139, 0, []
1632651519.2627, 5, 0, 4174.872, 3480, 4096.41, 4186.667, 4164.103, 450, 0, []
1632651519.2706, 6, 0, 4207.179, 3517.436, 4120, 4211.282, 4171.282, 316, 0, []
1632651519.2786, 7, 0, 4202.564, 3507.179, 4121.026, 4200.513, 4187.692, 450, 0, []
1632651519.2864, 8, 0, 4183.59, 3502.051, 4124.615, 4205.128, 4190.256, 450, 0, []
1632651519.2944, 9, 0, 4207.692, 3524.615, 4112.308, 4230.769, 4181.026, 16146, 0, []
1632651519.3023, 10, 0, 4235.897, 3531.795, 4142.564, 4232.821, 4186.154, 450, 0, []
1632651519.3103, 11, 0, 4227.692, 3535.385, 4150.769, 4224.615, 4208.718, 16223, 0, []
1632651519.3182, 12, 0, 4212.308, 3538.974, 4121.538, 4223.59, 4218.974, 450, 0, []
1632651519.3262, 13, 0, 4219.487, 3523.077, 4128.718, 4215.385, 4199.487, 450, 0, []
1632651519.334, 14, 0, 4231.282, 3524.615, 4129.744, 4214.872, 4190.256, 450, 0, []
1632651519.3418, 15, 0, 4227.179, 3561.538, 4151.282, 4224.103, 4209.744, 16223, 0, []
1632651519.3497, 16, 0, 4224.103, 3568.718, 4150.769, 4224.615, 4227.179, 0, 0, []
1632651519.3575, 17, 0, 4235.385, 3548.718, 4126.667, 4230.769, 4223.59, 0, 0, []
1632651519.3654, 18, 0, 4243.59, 3562.564, 4151.282, 4243.59, 4204.103, 0, 0, []
1632651519.3731, 19, 0, 4233.846, 3587.692, 4144.615, 4228.205, 4194.872, 0, 0, []
1632651519.381, 20, 0, 4208.718, 3579.487, 4136.923, 4204.103, 4204.103, 0, 0, []
1632651519.3888, 21, 0, 4183.59, 3558.974, 4121.538, 4198.462, 4188.718, 0, 0, []
1632651519.3968, 22, 0, 4186.154, 3560.513, 4094.359, 4199.487, 4162.051, 0, 0, []
1632651519.4047, 23, 0, 4197.949, 3575.385, 4132.308, 4202.564, 4169.231, 0, 0, []
1632651519.4126, 24, 0, 4200.513, 3575.897, 4135.385, 4217.436, 4198.462, 0, 0, []
1632651519.4205, 25, 0, 4208.205, 3574.359, 4118.974, 4237.949, 4205.128, 0, 0, []
1632651519.4285, 26, 0, 4227.692, 3590.256, 4118.974, 4237.436, 4193.333, 0, 0, []
1632651519.4364, 27, 0, 4234.359, 3600.513, 4107.692, 4211.795, 4194.872, 0, 0, []
1632651519.4444, 28, 0, 4209.231, 3590.769, 4132.308, 4198.974, 4202.051, 0, 0, []
1632651519.4522, 29, 0, 4202.564, 3594.359, 4133.333, 4217.949, 4213.333, 0, 0, []
1632651519.4602, 30, 0, 4227.692, 3611.282, 4135.385, 4242.051, 4216.41, 0, 0, []
1632651519.4681, 31, 0, 4232.821, 3605.128, 4145.128, 4232.821, 4202.051, 0, 0, []
1632651519.476, 32, 0, 4218.462, 3599.487, 4132.821, 4209.744, 4203.077, 0, 0, []
1632651519.4839, 33, 0, 4226.667, 3629.744, 4165.128, 4222.564, 4228.205, 0, 0, []
1632651519.4917, 34, 0, 4249.231, 3652.821, 4162.051, 4253.333, 4240.513, 0, 0, []
1632651519.4996, 35, 0, 4259.487, 3649.744, 4148.718, 4264.103, 4225.128, 0, 0, []
1632651519.5076, 36, 0, 4258.974, 3663.077, 4165.641, 4254.359, 4214.359, 0, 0, []
1632651519.5156, 37, 1, 4254.936, 3662.692, 4160.385, 4252.051, 4214.295, 0, 0, []
1632651519.5235, 38, 1, 4250.897, 3662.308, 4155.128, 4249.744, 4214.231, 0, 0, []
1632651519.5314, 39, 1, 4246.859, 3661.923, 4149.872, 4247.436, 4214.167, 0, 0, []
1632651519.5392, 40, 1, 4242.821, 3661.538, 4144.615, 4245.128, 4214.103, 0, 0, []
1632651519.5471, 41, 1, 4238.782, 3661.154, 4139.359, 4242.821, 4214.038, 0, 0, []
1632651519.555, 42, 1, 4234.744, 3660.769, 4134.103, 4240.513, 4213.974, 0, 0, []
1632651519.5629, 43, 1, 4230.705, 3660.385, 4128.846, 4238.205, 4213.91, 0, 0, []
1632651519.5708, 44, 0, 4226.667, 3660, 4123.59, 4235.897, 4213.846, 0, 0, []
1632651519.5788, 45, 0, 4240.513, 3666.667, 4112.821, 4226.154, 4210.256, 0, 0, []
1632651519.5866, 46, 0, 4246.154, 3695.385, 4145.128, 4214.359, 4194.359, 0, 0, []
1632651519.5945, 47, 0, 4237.949, 3693.846, 4144.103, 4205.128, 4193.333, 0, 0, []
1632651519.6023, 48, 0, 4223.077, 3662.051, 4152.821, 4192.308, 4208.718, 0, 0, []
1632651519.6102, 49, 0, 4216.41, 3649.231, 4137.949, 4178.974, 4201.026, 0, 0, []
1632651519.618, 50, 0, 4228.718, 3680, 4103.59, 4189.744, 4174.872, 0, 0, []
1632651519.6258, 51, 0, 4225.641, 3701.026, 4121.026, 4212.308, 4165.128, 0, 0, []
1632651519.6336, 52, 0, 4208.718, 3692.308, 4124.615, 4225.128, 4185.128, 0, 0, []
1632651519.6415, 53, 0, 4215.897, 3708.205, 4149.231, 4235.897, 4212.821, 0, 0, []
1632651519.6493, 54, 0, 4233.333, 3733.846, 4152.308, 4237.436, 4201.026, 0, 0, []
1632651519.6572, 55, 0, 4229.744, 3732.821, 4116.923, 4217.949, 4172.308, 0, 0, []
1632651519.6649, 56, 0, 4205.641, 3730.769, 4136.41, 4205.128, 4172.308, 0, 0, []
1632651519.6728, 57, 0, 4201.026, 3743.077, 4128.718, 4206.667, 4186.667, 0, 0, []
1632651519.6806, 58, 0, 4214.359, 3744.103, 4114.359, 4205.641, 4174.359, 0, 0, []
1632651519.6885, 59, 0, 4219.487, 3741.538, 4130.256, 4211.282, 4161.538, 0, 0, []
1632651519.6963, 60, 0, 4216.923, 3763.077, 4141.026, 4216.41, 4178.974, 0, 0, []
1632651519.7041, 61, 0, 4207.692, 3770.769, 4158.462, 4216.41, 4189.744, 0, 0, []
1632651519.7119, 62, 0, 4206.154, 3748.718, 4134.359, 4224.615, 4190.256, 0, 0, []
1632651519.7197, 63, 0, 4222.051, 3749.744, 4127.692, 4236.41, 4194.359, 0, 0, []
1632651519.7276, 64, 0, 4234.872, 3769.744, 4136.923, 4225.641, 4191.795, 450, 0, []
1632651519.7354, 65, 0, 4228.718, 3772.308, 4118.974, 4207.692, 4197.436, 450, 0, []
1632651519.7433, 66, 0, 4215.385, 3773.846, 4137.949, 4219.487, 4212.308, 16165, 0, []
1632651519.751, 67, 0, 4220.513, 3784.103, 4129.231, 4243.077, 4216.41, 450, 0, []
1632651519.7589, 68, 0, 4238.974, 3788.205, 4120, 4241.026, 4205.641, 16144, 0, []
1632651519.7667, 69, 0, 4243.59, 3792.308, 4143.077, 4216.923, 4189.231, 450, 0, []
1632651519.7746, 70, 0, 4231.282, 3797.436, 4136.41, 4208.718, 4189.231, 301, 0, []
1632651519.7824, 71, 0, 4207.692, 3783.077, 4146.154, 4219.487, 4202.051, 450, 0, []
1632651519.7902, 72, 0, 4198.462, 3779.487, 4128.205, 4225.128, 4198.462, 450, 0, []
1632651519.798, 73, 0, 4222.564, 3803.077, 4116.41, 4226.667, 4185.641, 16150, 0, []
1632651519.8059, 74, 0, 4228.205, 3817.949, 4141.538, 4216.923, 4176.923, 450, 0, []
1632651519.8137, 75, 0, 4203.59, 3816.41, 4128.205, 4198.462, 4174.872, 16188, 0, []
1632651519.8216, 76, 0, 4192.308, 3814.359, 4135.385, 4197.949, 4175.897, 450, 0, []
1632651519.8293, 77, 0, 4200.513, 3818.462, 4131.795, 4212.308, 4171.282, 450, 0, []
1632651519.8372, 78, 0, 4207.179, 3823.59, 4118.462, 4220, 4164.615, 450, 0, []
1632651519.845, 79, 0, 4218.974, 3843.59, 4144.103, 4224.103, 4177.949, 16188, 0, []
1632651519.8529, 80, 0, 4228.718, 3853.333, 4137.949, 4225.641, 4207.692, 450, 0, []
1632651519.8607, 81, 0, 4212.308, 3836.923, 4134.872, 4224.615, 4206.154, 450, 0, []
1632651519.8685, 82, 0, 4203.59, 3827.179, 4120, 4225.128, 4181.538, 450, 0, []
1632651519.8763, 83, 0, 4220.513, 3832.308, 4105.128, 4221.026, 4177.436, 16188, 0, []
1632651519.8841, 84, 0, 4215.385, 3843.077, 4126.154, 4202.051, 4184.615, 450, 0, []
1632651519.892, 85, 0, 4190.769, 3828.718, 4093.846, 4180, 4189.231, 450, 0, []
1632651519.8999, 86, 0, 4186.667, 3818.974, 4088.718, 4184.103, 4187.692, 450, 0, []
1632651519.9078, 87, 0, 4209.744, 3845.641, 4114.872, 4210.769, 4186.667, 16188, 0, []
1632651519.9156, 88, 0, 4225.128, 3864.103, 4107.692, 4208.718, 4190.769, 450, 0, []
1632651519.9234, 89, 0, 4202.051, 3845.128, 4108.205, 4177.436, 4178.974, 450, 0, []
1632651519.9312, 90, 0, 4177.949, 3828.205, 4086.667, 4169.744, 4165.641, 450, 0, []
1632651519.9391, 91, 0, 4189.231, 3848.718, 4095.897, 4193.846, 4163.077, 16188, 0, []
1632651519.9469, 92, 0, 4206.154, 3874.872, 4113.846, 4199.487, 4151.795, 450, 0, []
1632651519.9547, 93, 0, 4191.282, 3865.128, 4093.846, 4179.487, 4149.231, 450, 0, []
1632651519.9625, 94, 0, 4153.846, 3827.179, 4095.385, 4173.846, 4154.872, 450, 0, []
1632651519.9704, 95, 0, 4152.821, 3830.769, 4078.462, 4186.154, 4146.667, 16188, 0, []
1632651519.9782, 96, 0, 4180, 3881.538, 4084.615, 4185.128, 4144.615, 450, 0, []
1632651519.9861, 97, 0, 4180, 3894.872, 4103.077, 4172.308, 4157.436, 450, 0, []
1632651519.9938, 98, 0, 4173.846, 3881.538, 4087.692, 4186.154, 4171.795, 450, 0, []
1632651520.0017, 99, 0, 4192.308, 3894.872, 4108.205, 4221.538, 4179.487, 16188, 0, []
1632651520.0095, 100, 0, 4207.692, 3915.897, 4105.641, 4226.154, 4171.282, 450, 0, []
1632651520.0174, 101, 0, 4194.872, 3929.231, 4099.487, 4200.513, 4153.333, 450, 0, []
1632651520.0252, 102, 0, 4177.949, 3934.359, 4120.513, 4181.538, 4159.487, 450, 0, []
1632651520.0329, 103, 0, 4171.795, 3916.41, 4106.154, 4177.436, 4175.385, 16188, 0, []
1632651520.0408, 104, 0, 4163.59, 3901.026, 4103.077, 4180.513, 4154.872, 450, 0, []
1632651520.0486, 105, 0, 4157.949, 3915.385, 4088.205, 4176.41, 4136.923, 450, 0, []
1632651520.0565, 106, 0, 4149.744, 3926.667, 4096.41, 4169.744, 4156.41, 450, 0, []
1632651520.0643, 107, 0, 4140, 3917.949, 4115.897, 4175.385, 4164.615, 16188, 0, []
1632651520.0722, 108, 0, 4162.051, 3923.077, 4086.154, 4195.897, 4158.462, 450, 0, []
1632651520.0799, 109, 0, 4194.872, 3951.795, 4105.641, 4207.179, 4164.615, 450, 0, []
1632651520.0878, 110, 0, 4187.179, 3973.846, 4122.051, 4196.923, 4174.359, 450, 0, []
1632651520.0956, 111, 0, 4163.59, 3974.359, 4123.077, 4192.308, 4179.487, 16188, 0, []
1632651520.1035, 112, 0, 4166.154, 3964.103, 4132.821, 4190.256, 4169.744, 450, 0, []
1632651520.1113, 113, 0, 4185.641, 3971.795, 4098.462, 4184.103, 4157.949, 450, 0, []
1632651520.1191, 114, 0, 4186.667, 4028.718, 4111.282, 4194.359, 4166.154, 450, 0, []
1632651520.1269, 115, 0, 4168.205, 4098.462, 4123.59, 4204.615, 4176.41, 16188, 0, []
1632651520.1348, 116, 0, 4154.872, 4182.051, 4097.436, 4189.231, 4164.615, 450, 0, []
1632651520.1426, 117, 0, 4165.128, 4385.128, 4110.256, 4186.154, 4148.718, 450, 0, []
1632651520.1505, 118, 0, 4193.846, 4621.026, 4116.41, 4214.872, 4162.051, 450, 0, []
1632651520.1582, 119, 0, 4203.59, 4650.256, 4134.359, 4224.615, 4184.615, 16188, 0, []
1632651520.166, 120, 0, 4196.923, 4531.282, 4145.128, 4209.744, 4200.513, 450, 0, []
1632651520.1739, 121, 0, 4198.462, 4463.59, 4135.897, 4219.487, 4212.308, 450, 0, []
1632651520.1818, 122, 0, 4208.205, 4484.103, 4152.821, 4245.641, 4216.923, 450, 0, []
1632651520.1896, 123, 0, 4214.359, 4710.769, 4133.333, 4242.564, 4216.41, 16188, 0, []
1632651520.1973, 124, 0, 4205.128, 4974.872, 4120.513, 4224.615, 4192.308, 450, 0, []
1632651520.2052, 125, 0, 4192.308, 4796.41, 4124.615, 4213.333, 4161.026, 450, 0, []
1632651520.213, 126, 0, 4187.692, 4367.692, 4123.077, 4199.487, 4164.615, 450, 0, []
1632651520.2209, 127, 0, 4184.615, 4227.179, 4151.282, 4205.128, 4190.256, 16188, 0, []
1632651520.2287, 128, 0, 4189.744, 4269.744, 4137.949, 4223.077, 4200, 450, 0, []
1632651520.2366, 0, 0, 4192.308, 4196.923, 4123.077, 4215.897, 4175.385, 450, 0, []
1632651520.2443, 1, 0, 4187.179, 4129.744, 4123.59, 4195.897, 4151.795, 450, 0, []
1632651520.2522, 2, 0, 4181.026, 4151.795, 4112.821, 4192.821, 4162.564, 16177, 0, []
1632651520.26, 3, 0, 4161.026, 4149.744, 4131.795, 4193.846, 4167.179, 450, 0, []
1632651520.2679, 4, 0, 4152.308, 4126.667, 4107.692, 4188.718, 4152.308, 16133, 0, []
1632651520.2757, 5, 0, 4174.872, 4148.205, 4106.667, 4198.974, 4152.308, 450, 0, []
1632651520.2835, 6, 0, 4190.256, 4238.462, 4140.513, 4210.769, 4161.538, 294, 0, []
1632651520.2913, 7, 0, 4178.974, 4318.462, 4129.744, 4204.615, 4163.077, 450, 0, []
1632651520.2992, 8, 0, 4171.795, 4327.179, 4140.513, 4202.564, 4172.821, 450, 0, []
1632651520.307, 9, 0, 4178.462, 4307.179, 4116.923, 4209.231, 4182.051, 16150, 0, []
1632651520.3149, 10, 0, 4179.487, 4314.872, 4100.513, 4203.59, 4168.718, 450, 0, []
1632651520.3226, 11, 0, 4179.487, 4311.795, 4131.795, 4191.282, 4150.256, 16187, 0, []
1632651520.3305, 12, 0, 4182.051, 4261.538, 4120.513, 4185.641, 4156.923, 450, 0, []
1632651520.3383, 13, 0, 4179.487, 4249.744, 4129.231, 4191.282, 4174.359, 450, 0, []
1632651520.3462, 14, 0, 4176.923, 4300.513, 4123.077, 4201.538, 4170.256, 450, 0, []
1632651520.3541, 15, 0, 4184.103, 4346.667, 4101.026, 4203.59, 4155.897, 16187, 0, []
1632651520.3618, 16, 0, 4191.795, 4404.103, 4124.615, 4192.821, 4158.462, 0, 0, []
1632651520.3697, 17, 0, 4192.308, 4522.051, 4129.744, 4188.205, 4175.385, 0, 0, []
1632651520.3775, 18, 0, 4186.154, 4674.359, 4129.744, 4210.256, 4180.513, 0, 0, []
1632651520.3854, 19, 0, 4188.205, 4755.897, 4113.846, 4228.205, 4173.333, 0, 0, []
1632651520.3932, 20, 0, 4211.282, 4828.718, 4106.154, 4223.59, 4178.974, 0, 0, []
1632651520.4011, 21, 0, 4227.179, 5105.641, 4130.769, 4225.128, 4188.205, 0, 0, []
1632651520.4088, 22, 0, 4232.821, 5214.359, 4129.744, 4241.538, 4189.231, 0, 0, []
1632651520.4168, 23, 0, 4233.333, 4808.718, 4147.179, 4237.949, 4185.641, 0, 0, []
1632651520.4247, 24, 0, 4218.974, 4562.051, 4142.051, 4208.718, 4183.59, 0, 0, []
1632651520.4326, 25, 0, 4198.974, 4728.718, 4121.026, 4194.872, 4181.026, 0, 0, []
1632651520.4404, 26, 0, 4183.59, 4628.718, 4136.41, 4202.051, 4175.897, 0, 0, []
1632651520.4482, 27, 0, 4197.949, 4322.051, 4118.462, 4213.846, 4190.256, 0, 0, []
1632651520.456, 28, 0, 4235.385, 4307.179, 4126.667, 4227.692, 4208.718, 0, 0, []
1632651520.464, 29, 0, 4252.821, 4344.615, 4138.462, 4232.308, 4202.564, 0, 0, []
1632651520.4719, 30, 0, 4230.769, 4253.846, 4115.897, 4220, 4188.205, 0, 0, []
1632651520.4798, 31, 0, 4202.051, 4228.718, 4131.795, 4201.026, 4182.564, 0, 0, []
1632651520.4875, 32, 0, 4200, 4227.179, 4124.103, 4194.359, 4192.821, 0, 0, []
1632651520.4954, 33, 0, 4203.077, 4195.385, 4115.385, 4206.667, 4189.744, 0, 0, []
1632651520.5032, 34, 0, 4203.077, 4192.821, 4116.923, 4218.974, 4163.077, 0, 0, []
1632651520.5112, 35, 0, 4209.231, 4201.026, 4110.769, 4218.974, 4161.538, 0, 0, []
1632651520.5191, 36, 0, 4211.795, 4197.436, 4140.513, 4213.846, 4186.154, 0, 0, []
1632651520.5269, 37, 0, 4219.487, 4203.077, 4134.872, 4215.385, 4201.538, 0, 0, []
1632651520.5347, 38, 0, 4226.154, 4214.872, 4127.179, 4215.385, 4200, 0, 0, []
1632651520.5425, 39, 0, 4218.462, 4209.744, 4130.256, 4215.385, 4186.154, 0, 0, []
1632651520.5504, 40, 0, 4224.615, 4225.641, 4118.974, 4228.718, 4186.154, 0, 0, []
1632651520.5582, 41, 0, 4237.436, 4300, 4146.154, 4227.692, 4195.385, 0, 0, []
1632651520.5661, 42, 0, 4222.564, 4352.308, 4136.923, 4202.564, 4192.821, 0, 0, []
1632651520.5738, 43, 0, 4209.744, 4349.744, 4136.923, 4208.205, 4200, 0, 0, []
1632651520.5817, 44, 0, 4232.821, 4371.282, 4171.795, 4247.692, 4228.205, 0, 0, []
1632651520.5895, 45, 0, 4262.051, 4387.179, 4157.949, 4256.41, 4246.667, 0, 0, []
1632651520.5974, 46, 0, 4265.641, 4381.026, 4163.59, 4247.692, 4243.077, 0, 0, []
1632651520.6052, 47, 0, 4282.564, 4454.359, 4164.615, 4270.256, 4250.256, 0, 0, []
1632651520.613, 48, 0, 4315.385, 4620, 4165.128, 4303.077, 4267.692, 0, 0, []
1632651520.6208, 49, 0, 4320.513, 4818.974, 4184.615, 4310.256, 4267.179, 0, 0, []
1632651520.6288, 50, 0, 4307.692, 4995.385, 4168.718, 4296.41, 4254.872, 0, 0, []
1632651520.6367, 51, 0, 4309.231, 5144.103, 4187.692, 4291.282, 4251.282, 0, 0, []
1632651520.6447, 52, 0, 4321.538, 5217.949, 4198.974, 4293.846, 4262.564, 0, 0, []
1632651520.6525, 53, 0, 4327.692, 5157.436, 4194.872, 4297.436, 4276.923, 0, 0, []
1632651520.6604, 54, 0, 4322.051, 5094.359, 4210.256, 4303.077, 4270.256, 0, 0, []
1632651520.6683, 55, 0, 4315.897, 5182.051, 4185.128, 4294.872, 4260.513, 0, 0, []
1632651520.6761, 56, 0, 4322.051, 5314.359, 4196.923, 4286.667, 4267.692, 0, 0, []
1632651520.684, 57, 0, 4323.077, 5309.744, 4202.564, 4291.795, 4265.641, 0, 0, []
1632651520.6918, 58, 0, 4292.821, 5267.179, 4167.692, 4288.205, 4239.487, 0, 0, []
1632651520.6996, 59, 0, 4264.103, 5348.718, 4165.641, 4264.615, 4217.436, 0, 0, []
1632651520.7074, 60, 0, 4273.846, 5465.128, 4154.872, 4251.795, 4224.103, 0, 0, []
1632651520.7153, 61, 0, 4290.769, 5402.051, 4171.795, 4263.077, 4241.026, 0, 0, []
1632651520.7231, 62, 0, 4294.872, 5157.949, 4184.103, 4279.487, 4258.462, 0, 0, []
1632651520.731, 63, 0, 4297.436, 4960, 4171.282, 4283.077, 4275.385, 0, 0, []
1632651520.7387, 64, 0, 4296.41, 4830.769, 4192.308, 4272.821, 4275.385, 450, 0, []
1632651520.7466, 65, 0, 4287.692, 4777.949, 4177.436, 4260, 4264.615, 450, 0, []
1632651520.7544, 66, 0, 4262.564, 4902.564, 4168.718, 4252.821, 4244.103, 16147, 0, []
1632651520.7623, 67, 0, 4240, 4980, 4173.333, 4253.333, 4227.179, 450, 0, []
1632651520.7701, 68, 0, 4247.179, 4923.59, 4157.436, 4261.538, 4234.872, 16172, 0, []
1632651520.7779, 69, 0, 4250.256, 5049.744, 4160, 4261.026, 4237.949, 450, 0, []
1632651520.7857, 70, 0, 4235.897, 5349.231, 4128.205, 4246.154, 4218.462, 293, 0, []
1632651520.7936, 71, 0, 4241.026, 5462.051, 4125.641, 4240, 4206.154, 450, 0, []
1632651520.8014, 72, 0, 4250.769, 5413.333, 4150.769, 4235.897, 4202.564, 450, 0, []
1632651520.8094, 73, 0, 4231.282, 5366.154, 4134.872, 4218.462, 4185.641, 16112, 0, []
1632651520.8172, 74, 0, 4213.846, 5316.923, 4137.436, 4209.231, 4162.051, 450, 0, []
1632651520.8252, 75, 0, 4217.949, 5275.897, 4118.462, 4206.667, 4144.615, 16158, 0, []
1632651520.8331, 76, 0, 4208.205, 5242.564, 4099.487, 4188.718, 4134.359, 450, 0, []
1632651520.841, 77, 0, 4183.077, 5265.128, 4105.641, 4168.718, 4134.872, 450, 0, []
1632651520.8489, 78, 0, 4175.385, 5350.256, 4101.538, 4175.385, 4146.667, 450, 0, []
1632651520.8567, 79, 0, 4170.256, 5411.795, 4123.59, 4188.205, 4146.667, 16158, 0, []
1632651520.8645, 80, 0, 4163.59, 5447.179, 4110.769, 4179.487, 4137.949, 450, 0, []
1632651520.8723, 81, 0, 4171.795, 5434.872, 4101.538, 4176.923, 4138.462, 450, 0, []
1632651520.8802, 82, 0, 4189.744, 5382.564, 4125.641, 4198.462, 4140.513, 450, 0, []
1632651520.888, 83, 0, 4206.667, 5415.897, 4116.923, 4219.487, 4145.641, 16158, 0, []
1632651520.8959, 84, 0, 4212.308, 5511.282, 4137.436, 4219.487, 4153.333, 450, 0, []
1632651520.9036, 85, 0, 4213.846, 5486.154, 4141.026, 4210.769, 4168.718, 450, 0, []
1632651520.9115, 86, 0, 4218.974, 5534.872, 4130.769, 4207.179, 4186.667, 450, 0, []
1632651520.9193, 87, 0, 4207.692, 5685.641, 4143.59, 4203.077, 4180, 16158, 0, []
1632651520.9272, 88, 0, 4197.949, 5462.564, 4123.59, 4199.487, 4174.872, 450, 0, []
1632651520.935, 89, 0, 4210.256, 5130.256, 4137.949, 4216.923, 4195.897, 450, 0, []
1632651520.9429, 90, 0, 4219.487, 5484.615, 4141.538, 4236.41, 4208.205, 450, 0, []
1632651520.9508, 91, 0, 4212.308, 5896.923, 4124.103, 4222.564, 4192.821, 16158, 0, []
1632651520.9588, 92, 0, 4207.179, 5543.077, 4135.385, 4205.641, 4173.333, 450, 0, []
1632651520.9667, 93, 0, 4208.718, 5223.077, 4104.103, 4213.333, 4164.103, 450, 0, []
1632651520.9747, 94, 0, 4207.179, 5412.821, 4101.538, 4213.846, 4155.897, 450, 0, []
1632651520.9825, 95, 0, 4205.128, 5370.256, 4113.333, 4199.487, 4151.282, 16158, 0, []
1632651520.9905, 96, 0, 4200, 5093.333, 4107.179, 4194.872, 4156.41, 450, 0, []
1632651520.9984, 97, 0, 4185.128, 5076.41, 4134.872, 4196.923, 4158.974, 450, 0, []
1632651521.0062, 98, 0, 4182.051, 5092.821, 4135.897, 4201.026, 4160.513, 450, 0, []
1632651521.0141, 99, 0, 4191.282, 4973.333, 4141.026, 4223.077, 4169.744, 16158, 0, []
1632651521.0219, 100, 0, 4192.821, 4793.846, 4137.436, 4231.795, 4173.333, 450, 0, []
1632651521.0297, 101, 0, 4189.744, 4544.103, 4120, 4217.949, 4161.538, 450, 0, []
1632651521.0375, 102, 0, 4203.077, 4527.692, 4154.359, 4228.205, 4164.615, 450, 0, []
1632651521.0454, 103, 0, 4224.615, 4767.179, 4153.333, 4243.077, 4198.462, 16158, 0, []
1632651521.0532, 104, 0, 4222.051, 4742.564, 4145.128, 4230.256, 4218.462, 450, 0, []
1632651521.0611, 105, 0, 4211.795, 4494.872, 4150.769, 4221.538, 4215.897, 450, 0, []
1632651521.0688, 106, 0, 4221.026, 4560.513, 4133.333, 4231.795, 4221.026, 450, 0, []
1632651521.0767, 107, 0, 4225.128, 4922.051, 4151.795, 4243.59, 4214.359, 16158, 0, []
1632651521.0845, 108, 0, 4216.923, 5559.487, 4150.256, 4251.282, 4193.333, 450, 0, []
1632651521.0924, 109, 0, 4214.872, 6172.821, 4144.615, 4255.385, 4187.179, 450, 0, []
1632651521.1002, 110, 0, 4207.179, 5856.923, 4143.59, 4251.795, 4176.41, 450, 0, []
1632651521.1081, 111, 0, 4195.897, 4905.128, 4117.436, 4242.051, 4154.872, 16158, 0, []
1632651521.116, 112, 0, 4189.231, 4574.872, 4126.667, 4224.103, 4150.769, 450, 0, []
1632651521.124, 113, 0, 4185.128, 4804.103, 4119.487, 4210.256, 4166.154, 450, 0, []
1632651521.1319, 114, 0, 4182.051, 4658.462, 4111.795, 4214.872, 4175.897, 450, 0, []
1632651521.1399, 115, 0, 4181.026, 4679.487, 4108.205, 4212.821, 4165.641, 16158, 0, []
1632651521.1477, 116, 0, 4197.949, 5385.128, 4084.103, 4206.154, 4167.692, 450, 0, []
1632651521.1557, 117, 0, 4219.487, 5523.077, 4124.103, 4220.513, 4179.487, 450, 0, []
1632651521.1636, 118, 0, 4216.41, 4734.359, 4136.923, 4235.897, 4174.359, 450, 0, []
1632651521.1714, 119, 0, 4191.282, 4285.641, 4114.359, 4222.051, 4162.564, 16158, 0, []
1632651521.1793, 120, 0, 4178.974, 4431.795, 4129.231, 4207.179, 4168.718, 450, 0, []
1632651521.1871, 121, 0, 4176.923, 4373.333, 4113.333, 4205.128, 4176.923, 450, 0, []
1632651521.1949, 122, 0, 4168.718, 4215.897, 4110.769, 4206.154, 4158.462, 450, 0, []
1632651521.2027, 123, 0, 4177.949, 4264.103, 4109.744, 4206.154, 4141.026, 16158, 0, []
1632651521.2106, 124, 0, 4193.846, 4269.231, 4111.795, 4202.051, 4152.308, 450, 0, []
1632651521.2184, 125, 0, 4179.487, 4212.308, 4136.923, 4196.923, 4165.641, 450, 0, []
1632651521.2263, 126, 0, 4166.154, 4097.949, 4112.308, 4190.769, 4158.974, 450, 0, []
1632651521.234, 127, 0, 4186.154, 4014.359, 4108.718, 4193.333, 4153.846, 16158, 0, []
1632651521.2419, 128, 0, 4203.59, 4029.744, 4113.846, 4200.513, 4162.564, 450, 0, []
1632651521.2497, 0, 0, 4179.487, 4054.872, 4094.872, 4194.872, 4161.026, 450, 0, []
1632651521.2576, 1, 0, 4156.41, 4092.821, 4104.615, 4192.821, 4160, 450, 0, []
1632651521.2654, 2, 0, 4175.897, 4104.615, 4098.462, 4210.256, 4173.846, 16189, 0, []
1632651521.2733, 3, 0, 4190.769, 4301.026, 4110.256, 4219.487, 4164.615, 450, 0, []
1632651521.2812, 4, 0, 4171.282, 4986.154, 4104.103, 4196.923, 4135.385, 16110, 0, []
1632651521.2892, 5, 0, 4159.487, 5739.487, 4082.051, 4182.564, 4133.846, 450, 0, []
1632651521.2971, 6, 0, 4146.667, 6066.667, 4106.667, 4186.154, 4135.385, 295, 0, []
1632651521.3051, 7, 0, 4124.615, 6173.333, 4092.821, 4185.641, 4124.615, 450, 0, []
1632651521.3129, 8, 0, 4126.154, 6249.744, 4084.615, 4179.487, 4129.231, 450, 0, []
1632651521.3209, 9, 0, 4138.462, 6286.667, 4082.564, 4165.641, 4131.795, 16165, 0, []
1632651521.3288, 10, 0, 4147.692, 6462.564, 4055.897, 4170.769, 4131.282, 450, 0, []
1632651521.3366, 11, 0, 4156.41, 6686.667, 4075.385, 4193.333, 4137.949, 16175, 0, []
1632651521.3445, 12, 0, 4150.256, 6683.077, 4073.333, 4184.615, 4134.872, 450, 0, []
1632651521.3523, 13, 0, 4142.051, 6584.103, 4076.923, 4171.282, 4129.231, 450, 0, []
1632651521.3601, 14, 0, 4147.692, 6661.026, 4086.154, 4191.282, 4123.59, 450, 0, []
1632651521.3679, 15, 0, 4148.205, 6897.436, 4061.026, 4196.923, 4110.769, 16175, 0, []
1632651521.3758, 16, 0, 4139.487, 6998.974, 4076.923, 4172.308, 4093.846, 0, 0, []
1632651521.3836, 17, 0, 4146.667, 6899.487, 4078.462, 4164.615, 4089.744, 0, 0, []
1632651521.3915, 18, 0, 4145.641, 6760.513, 4076.923, 4165.641, 4095.385, 0, 0, []
1632651521.3992, 19, 0, 4124.615, 6683.59, 4086.667, 4142.051, 4093.846, 0, 0, []
1632651521.4071, 20, 0, 4127.179, 6806.154, 4064.615, 4122.564, 4103.59, 0, 0, []
1632651521.4149, 21, 0, 4142.051, 6592.308, 4082.564, 4147.179, 4118.462, 0, 0, []
1632651521.4229, 22, 0, 4140.513, 5555.385, 4089.744, 4181.026, 4128.718, 0, 0, []
1632651521.4308, 23, 0, 4144.615, 4611.795, 4085.641, 4194.872, 4138.974, 0, 0, []
1632651521.4387, 24, 0, 4161.026, 4470.256, 4089.744, 4194.359, 4131.282, 0, 0, []
1632651521.4466, 25, 0, 4163.59, 4438.462, 4066.667, 4168.718, 4112.308, 0, 0, []
1632651521.4546, 26, 0, 4143.59, 4192.821, 4091.282, 4134.872, 4110.769, 0, 0, []
1632651521.4625, 27, 0, 4139.487, 4112.308, 4098.462, 4133.846, 4131.282, 0, 0, []
1632651521.4705, 28, 0, 4159.487, 4092.821, 4085.128, 4156.923, 4132.821, 0, 0, []
1632651521.4783, 29, 0, 4165.641, 4017.436, 4105.128, 4160, 4111.282, 0, 0, []
1632651521.4862, 30, 0, 4146.154, 3954.359, 4089.744, 4138.974, 4110.769, 0, 0, []
1632651521.4941, 31, 0, 4132.308, 3865.641, 4088.718, 4133.333, 4129.744, 0, 0, []
1632651521.5019, 32, 0, 4150.769, 3822.051, 4089.231, 4160, 4134.872, 0, 0, []
1632651521.5098, 33, 0, 4165.641, 3817.949, 4081.538, 4180, 4127.692, 0, 0, []
1632651521.5176, 34, 0, 4145.641, 3782.564, 4094.359, 4171.282, 4131.282, 0, 0, []
1632651521.5254, 35, 0, 4145.128, 3736.923, 4071.282, 4171.282, 4137.436, 0, 0, []
1632651521.5332, 36, 0, 4175.385, 3715.385, 4081.538, 4184.103, 4129.231, 0, 0, []
1632651521.5411, 37, 0, 4173.846, 3684.103, 4098.974, 4175.385, 4127.692, 0, 0, []
1632651521.5489, 38, 0, 4149.231, 3633.333, 4084.615, 4166.154, 4141.538, 0, 0, []
1632651521.5568, 39, 0, 4154.359, 3612.308, 4095.385, 4180.513, 4132.308, 0, 0, []
1632651521.5645, 40, 0, 4172.821, 3613.846, 4089.744, 4176.41, 4120, 0, 0, []
1632651521.5725, 41, 0, 4156.41, 3588.718, 4102.564, 4166.667, 4130.256, 0, 0, []
1632651521.5804, 42, 0, 4126.667, 3556.41, 4092.308, 4180.513, 4125.641, 0, 0, []
1632651521.5884, 43, 0, 4137.436, 3543.59, 4063.59, 4178.974, 4109.744, 0, 0, []
1632651521.5963, 44, 0, 4154.359, 3530.769, 4099.487, 4161.026, 4119.487, 0, 0, []
1632651521.6042, 45, 0, 4150.769, 3512.308, 4084.615, 4170.769, 4141.538, 0, 0, []
1632651521.6121, 46, 0, 4157.436, 3497.949, 4069.231, 4197.436, 4134.872, 0, 0, []
1632651521.6201, 47, 0, 4166.154, 3488.205, 4089.231, 4191.282, 4119.487, 0, 0, []
1632651521.628, 48, 0, 4150.769, 3469.231, 4074.872, 4175.385, 4129.744, 0, 0, []
1632651521.636, 49, 0, 4141.026, 3457.949, 4091.282, 4188.205, 4138.462, 0, 0, []
1632651521.6438, 50, 0, 4162.564, 3468.718, 4106.667, 4197.949, 4126.667, 0, 0, []
1632651521.6516, 51, 0, 4168.205, 3470.256, 4115.897, 4184.103, 4126.667, 0, 0, []
1632651521.6595, 52, 0, 4154.872, 3447.179, 4116.41, 4178.462, 4143.077, 0, 0, []
1632651521.6673, 53, 0, 4164.615, 3434.359, 4085.128, 4194.872, 4141.538, 0, 0, []
1632651521.6752, 54, 0, 4170.769, 3429.744, 4087.692, 4188.718, 4126.154, 0, 0, []
1632651521.6829, 55, 0, 4149.744, 3411.282, 4084.615, 4166.154, 4126.667, 0, 0, []
1632651521.6908, 56, 0, 4141.026, 3407.692, 4076.923, 4177.436, 4127.692, 0, 0, []
1632651521.6986, 57, 0, 4154.872, 3414.359, 4086.667, 4189.231, 4115.385, 0, 0, []
1632651521.7065, 58, 0, 4143.077, 3395.897, 4074.359, 4167.179, 4107.179, 0, 0, []
1632651521.7143, 59, 0, 4117.949, 3382.564, 4079.487, 4160.513, 4101.026, 0, 0, []
1632651521.7223, 60, 0, 4136.41, 3395.385, 4069.744, 4181.026, 4095.897, 0, 0, []
1632651521.7301, 61, 0, 4155.385, 3392.308, 4070.256, 4187.692, 4106.667, 0, 0, []
1632651521.7381, 62, 0, 4137.949, 3382.564, 4094.359, 4185.641, 4117.436, 0, 0, []
1632651521.746, 63, 0, 4152.308, 3398.974, 4083.077, 4202.051, 4124.615, 0, 0, []
1632651521.754, 64, 0, 4169.231, 3411.282, 4106.667, 4207.692, 4125.641, 450, 0, []
1632651521.7619, 65, 0, 4141.538, 3394.872, 4105.641, 4195.385, 4124.615, 450, 0, []
1632651521.7698, 66, 0, 4137.436, 3383.59, 4081.538, 4200.513, 4123.077, 16193, 0, []
1632651521.7777, 67, 0, 4145.128, 3390.256, 4101.538, 4201.026, 4107.692, 450, 0, []
1632651521.7857, 68, 0, 4124.103, 3383.077, 4091.282, 4183.077, 4107.692, 16151, 0, []
1632651521.7936, 69, 0, 4120, 3375.897, 4097.436, 4183.59, 4114.872, 450, 0, []
1632651521.8014, 70, 0, 4130.256, 3390.256, 4092.821, 4188.205, 4098.462, 296, 0, []
1632651521.8092, 71, 0, 4122.051, 3396.923, 4075.385, 4177.949, 4103.59, 450, 0, []
1632651521.817, 72, 0, 4115.897, 3381.538, 4098.974, 4186.667, 4112.821, 450, 0, []
1632651521.8249, 73, 0, 4117.949, 3374.359, 4071.795, 4192.821, 4095.897, 16148, 0, []
1632651521.8327, 74, 0, 4111.795, 3383.077, 4071.282, 4181.538, 4099.487, 450, 0, []
1632651521.8406, 75, 0, 4122.564, 3397.436, 4104.615, 4193.846, 4121.026, 16187, 0, []
1632651521.8483, 76, 0, 4142.564, 3403.59, 4094.359, 4202.051, 4120.513, 450, 0, []
1632651521.8562, 77, 0, 4132.821, 3402.051, 4098.462, 4188.718, 4121.026, 450, 0, []
1632651521.864, 78, 0, 4122.051, 3416.923, 4083.59, 4183.59, 4126.154, 450, 0, []
1632651521.8719, 79, 0, 4134.359, 3425.128, 4077.436, 4172.821, 4106.154, 16187, 0, []
1632651521.8797, 80, 0, 4121.026, 3400.513, 4086.667, 4163.077, 4092.308, 450, 0, []
1632651521.8877, 81, 0, 4087.179, 3372.821, 4066.667, 4170.256, 4098.462, 450, 0, []
1632651521.8955, 82, 0, 4103.077, 3390.769, 4080, 4181.026, 4105.128, 450, 0, []
1632651521.9034, 83, 0, 4135.897, 3421.538, 4099.487, 4187.692, 4123.59, 16187, 0, []
1632651521.9114, 84, 0, 4120, 3409.231, 4107.179, 4193.333, 4131.795, 450, 0, []
1632651521.9194, 85, 0, 4114.872, 3407.692, 4095.385, 4191.795, 4114.872, 450, 0, []
1632651521.9273, 86, 0, 4136.41, 3453.846, 4083.077, 4195.897, 4116.923, 450, 0, []
1632651521.9352, 87, 0, 4131.282, 3472.308, 4116.41, 4206.154, 4142.564, 16187, 0, []
1632651521.9431, 88, 0, 4131.795, 3452.308, 4103.077, 4205.128, 4139.487, 450, 0, []
1632651521.9509, 89, 0, 4149.231, 3470.769, 4093.333, 4200, 4123.077, 450, 0, []
1632651521.9588, 90, 0, 4139.487, 3498.974, 4112.308, 4186.154, 4131.282, 450, 0, []
1632651521.9666, 91, 0, 4125.641, 3492.821, 4087.179, 4174.872, 4130.256, 16187, 0, []
1632651521.9744, 92, 0, 4138.462, 3498.462, 4098.974, 4188.205, 4113.846, 450, 0, []
1632651521.9822, 93, 0, 4154.359, 3525.128, 4108.718, 4205.128, 4132.821, 450, 0, []
1632651521.9901, 94, 0, 4158.974, 3537.949, 4113.333, 4215.897, 4163.077, 450, 0, []
1632651521.9979, 95, 0, 4166.154, 3541.538, 4136.41, 4228.718, 4150.769, 16187, 0, []
1632651522.0058, 96, 0, 4172.821, 3551.282, 4117.949, 4226.667, 4142.564, 450, 0, []
1632651522.0135, 97, 0, 4166.154, 3544.103, 4132.821, 4221.538, 4165.641, 450, 0, []
1632651522.0214, 98, 0, 4160, 3525.641, 4129.744, 4222.564, 4166.667, 450, 0, []
1632651522.0292, 99, 0, 4162.051, 3529.231, 4106.667, 4205.641, 4142.564, 16187, 0, []
1632651522.0371, 100, 0, 4150.769, 3546.154, 4131.282, 4186.154, 4138.462, 450, 0, []
1632651522.0449, 101, 0, 4141.538, 3534.359, 4117.436, 4187.692, 4154.872, 450, 0, []
1632651522.0529, 102, 0, 4151.795, 3525.128, 4106.667, 4194.359, 4143.077, 450, 0, []
1632651522.0607, 103, 0, 4152.821, 3555.385, 4106.667, 4188.205, 4121.026, 16187, 0, []
1632651522.0687, 104, 0, 4142.051, 3558.974, 4107.179, 4193.333, 4139.487, 450, 0, []
1632651522.0766, 105, 0, 4140.513, 3538.462, 4123.077, 4220.513, 4153.333, 450, 0, []
1632651522.0846, 106, 0, 4155.897, 3554.872, 4104.103, 4227.179, 4141.026, 450, 0, []
1632651522.0925, 107, 0, 4151.795, 3564.615, 4117.436, 4207.692, 4141.026, 16187, 0, []
1632651522.1004, 108, 0, 4130.769, 3525.641, 4118.462, 4196.41, 4149.231, 450, 0, []
1632651522.1083, 109, 0, 4140.513, 3512.821, 4091.282, 4204.615, 4140, 450, 0, []
1632651522.1161, 110, 0, 4153.333, 3554.872, 4116.41, 4207.179, 4126.667, 450, 0, []
1632651522.124, 111, 0, 4145.641, 3563.077, 4118.462, 4207.692, 4147.179, 16187, 0, []
1632651522.1318, 112, 0, 4156.923, 3546.154, 4118.974, 4219.487, 4172.821, 450, 0, []
1632651522.1396, 113, 0, 4187.692, 3572.821, 4128.718, 4222.051, 4161.538, 450, 0, []
1632651522.1474, 114, 0, 4175.385, 3600, 4114.359, 4208.205, 4144.103, 450, 0, []
1632651522.1553, 115, 0, 4136.923, 3575.897, 4118.974, 4191.282, 4148.718, 16187, 0, []
1632651522.1631, 116, 0, 4145.641, 3550.769, 4100, 4187.179, 4150.256, 450, 0, []
1632651522.171, 117, 0, 4170.256, 3559.487, 4105.128, 4197.436, 4145.128, 450, 0, []
1632651522.1787, 118, 0, 4150.769, 3562.051, 4121.538, 4204.615, 4146.154, 450, 0, []
1632651522.1867, 119, 0, 4129.231, 3562.564, 4093.333, 4198.974, 4140, 16187, 0, []
1632651522.1946, 120, 0, 4147.692, 3583.077, 4107.179, 4200.513, 4124.615, 450, 0, []
1632651522.2026, 121, 0, 4151.795, 3597.949, 4109.231, 4198.462, 4121.026, 450, 0, []
1632651522.2105, 122, 0, 4128.205, 3586.667, 4102.564, 4183.077, 4126.667, 450, 0, []
1632651522.2185, 123, 0, 4127.179, 3571.795, 4101.538, 4177.436, 4111.795, 16187, 0, []
1632651522.2263, 124, 0, 4138.462, 3576.923, 4077.436, 4177.949, 4100, 450, 0, []
1632651522.2343, 125, 0, 4125.128, 3583.59, 4105.641, 4174.359, 4114.872, 450, 0, []
1632651522.2422, 126, 0, 4117.436, 3587.179, 4104.103, 4177.436, 4117.949, 450, 0, []
1632651522.2502, 127, 0, 4140.513, 3594.359, 4096.923, 4188.205, 4106.154, 16187, 0, []
1632651522.2581, 128, 0, 4143.59, 3601.026, 4129.231, 4183.59, 4115.385, 450, 0, []
1632651522.2658, 0, 0, 4129.744, 3592.821, 4108.718, 4174.359, 4138.462, 450, 0, []
1632651522.2737, 1, 0, 4135.385, 3596.923, 4100, 4197.436, 4127.692, 450, 0, []
1632651522.2815, 2, 0, 4146.667, 3630.769, 4105.641, 4213.333, 4117.949, 16175, 0, []
1632651522.2894, 3, 0, 4140.513, 3634.359, 4107.692, 4193.846, 4142.051, 450, 0, []
1632651522.2972, 4, 0, 4129.744, 3613.846, 4107.692, 4184.103, 4140, 16152, 0, []
1632651522.305, 5, 0, 4152.821, 3640.513, 4092.821, 4205.128, 4128.205, 450, 0, []
1632651522.3128, 6, 0, 4168.718, 3673.846, 4127.692, 4220, 4151.282, 283, 0, []
1632651522.3207, 7, 0, 4149.231, 3651.795, 4129.744, 4210.769, 4165.128, 450, 0, []
1632651522.3285, 8, 0, 4147.692, 3645.128, 4103.077, 4212.821, 4143.59, 450, 0, []
1632651522.3365, 9, 0, 4165.641, 3679.487, 4124.615, 4225.641, 4131.795, 16141, 0, []
1632651522.3443, 10, 0, 4154.359, 3675.385, 4120.513, 4211.795, 4144.615, 450, 0, []
1632651522.3523, 11, 0, 4128.718, 3662.051, 4115.385, 4189.744, 4155.385, 16187, 0, []
1632651522.3602, 12, 0, 4145.128, 3687.692, 4108.718, 4198.974, 4154.872, 450, 0, []
1632651522.3682, 13, 0, 4172.821, 3720, 4107.692, 4224.103, 4151.795, 450, 0, []
1632651522.3761, 14, 0, 4161.026, 3716.41, 4140, 4222.564, 4156.923, 450, 0, []
1632651522.3841, 15, 0, 4154.872, 3692.821, 4119.487, 4208.718, 4177.949, 16187, 0, []
1632651522.3919, 16, 0, 4179.487, 3689.231, 4113.846, 4222.051, 4184.103, 0, 0, []
1632651522.3999, 17, 0, 4199.487, 3720, 4132.821, 4249.744, 4170.256, 0, 0, []
1632651522.4078, 18, 0, 4190.769, 3749.231, 4126.667, 4243.59, 4171.795, 0, 0, []
1632651522.4156, 19, 0, 4164.615, 3733.333, 4136.41, 4214.872, 4178.462, 0, 0, []
1632651522.4235, 20, 0, 4163.077, 3713.333, 4114.359, 4217.949, 4176.923, 0, 0, []
1632651522.4312, 21, 0, 4181.538, 3728.205, 4116.41, 4229.231, 4162.564, 0, 0, []
1632651522.4391, 22, 0, 4166.667, 3738.462, 4119.487, 4201.538, 4143.59, 0, 0, []
1632651522.4469, 23, 0, 4130.256, 3728.718, 4084.615, 4183.077, 4142.051, 0, 0, []
1632651522.4548, 24, 0, 4127.692, 3721.026, 4097.949, 4205.641, 4145.128, 0, 0, []
1632651522.4626, 25, 0, 4153.846, 3721.026, 4094.359, 4213.846, 4138.974, 0, 0, []
1632651522.4704, 26, 0, 4144.615, 3715.385, 4091.282, 4187.692, 4135.897, 0, 0, []
1632651522.4782, 27, 0, 4125.641, 3723.077, 4106.154, 4177.949, 4146.154, 0, 0, []
1632651522.4861, 28, 0, 4151.282, 3742.564, 4091.282, 4198.462, 4153.846, 0, 0, []
1632651522.4939, 29, 0, 4166.154, 3745.128, 4107.179, 4206.154, 4136.923, 0, 0, []
1632651522.5019, 30, 0, 4138.462, 3750.769, 4108.205, 4188.205, 4127.179, 0, 0, []
1632651522.5097, 31, 0, 4134.872, 3775.385, 4112.308, 4190.256, 4151.795, 0, 0, []
1632651522.5177, 32, 0, 4168.205, 3805.128, 4139.487, 4212.308, 4160.513, 0, 0, []
1632651522.5256, 33, 0, 4190.256, 3839.487, 4136.41, 4220.513, 4152.308, 0, 0, []
1632651522.5336, 34, 0, 4180, 3872.308, 4150.256, 4223.59, 4170.769, 0, 0, []
1632651522.5415, 35, 0, 4164.103, 3885.128, 4142.051, 4229.744, 4187.692, 0, 0, []
1632651522.5495, 36, 0, 4161.538, 3876.923, 4109.744, 4224.103, 4160.513, 0, 0, []
1632651522.5573, 37, 0, 4156.923, 3863.077, 4096.41, 4204.103, 4122.564, 0, 0, []
1632651522.5653, 38, 0, 4135.897, 3853.846, 4077.436, 4182.051, 4120.513, 0, 0, []
1632651522.5732, 39, 0, 4122.051, 3890.256, 4098.462, 4181.538, 4137.436, 0, 0, []
1632651522.5812, 40, 0, 4130.256, 3983.077, 4093.333, 4193.333, 4132.821, 0, 0, []
1632651522.5891, 41, 0, 4130.256, 4024.615, 4065.641, 4178.974, 4105.641, 0, 0, []
1632651522.5968, 42, 0, 4110.769, 3980.513, 4089.231, 4159.487, 4097.436, 0, 0, []
1632651522.6047, 43, 0, 4108.205, 3973.333, 4087.692, 4172.308, 4122.051, 0, 0, []
1632651522.6125, 44, 0, 4129.744, 4036.41, 4093.846, 4196.41, 4127.179, 0, 0, []
1632651522.6204, 45, 0, 4151.282, 4071.282, 4102.564, 4194.872, 4117.949, 0, 0, []
1632651522.6282, 46, 0, 4138.974, 4063.077, 4099.487, 4182.051, 4132.308, 0, 0, []
