Timestamp, COUNTER, INTERPOLATED, AF3, T7, Pz, T8, AF4, RAW_CQ, MARKER_HARDWARE, MARKERS
1627802020.0501, 82, 0, 4205.641, 4271.282, 4199.487, 4195.897, 4226.667, 450, 0, []
1627802020.058, 83, 0, 4185.128, 4280.513, 4193.846, 4182.051, 4198.462, 16197, 0, []
1627802020.0657, 84, 0, 4167.179, 4249.744, 4177.949, 4172.821, 4182.564, 450, 0, []
1627802020.0736, 85, 0, 4175.385, 4242.051, 4178.462, 4180, 4188.205, 450, 0, []
1627802020.0814, 86, 0, 4165.128, 4251.282, 4162.564, 4168.205, 4170.769, 450, 0, []
1627802020.0893, 87, 0, 4161.538, 4240, 4162.564, 4165.641, 4165.641, 16197, 0, []
1627802020.0971, 88, 0, 4194.872, 4252.821, 4180.513, 4194.359, 4199.487, 450, 0, []
1627802020.105, 89, 0, 4203.077, 4284.615, 4171.795, 4200, 4207.179, 450, 0, []
1627802020.1129, 90, 0, 4173.333, 4278.462, 4169.231, 4181.026, 4175.385, 450, 0, []
1627802020.1209, 91, 0, 4162.564, 4249.744, 4174.872, 4177.949, 4166.154, 16197, 0, []
1627802020.1288, 92, 0, 4176.923, 4247.179, 4175.897, 4180, 4180.513, 450, 0, []
1627802020.1368, 93, 0, 4175.385, 4246.154, 4166.154, 4171.282, 4178.462, 450, 0, []
1627802020.1446, 94, 0, 4168.718, 4235.897, 4160.513, 4164.615, 4170.256, 450, 0, []
1627802020.1526, 95, 0, 4175.385, 4251.795, 4178.974, 4165.128, 4176.923, 16197, 0, []
1627802020.1605, 96, 0, 4187.692, 4282.051, 4185.128, 4176.41, 4193.333, 450, 0, []
1627802020.1685, 97, 0, 4198.974, 4278.974, 4180, 4190.256, 4205.641, 450, 0, []
1627802020.1764, 98, 0, 4194.872, 4261.538, 4176.41, 4186.667, 4197.949, 450, 0, []
1627802020.1841, 99, 0, 4184.103, 4264.615, 4164.615, 4179.487, 4184.615, 16197, 0, []
1627802020.192, 100, 0, 4179.487, 4250.256, 4169.231, 4178.974, 4180, 450, 0, []
1627802020.1998, 101, 0, 4175.897, 4232.821, 4172.821, 4176.41, 4174.872, 450, 0, []
1627802020.2077, 102, 0, 4170.769, 4255.897, 4170.256, 4183.59, 4173.846, 450, 0, []
1627802020.2155, 103, 0, 4169.231, 4269.231, 4174.872, 4196.41, 4180, 16197, 0, []
1627802020.2233, 104, 0, 4170.256, 4246.667, 4164.103, 4192.821, 4173.846, 450, 0, []
1627802020.2311, 105, 0, 4173.846, 4235.897, 4165.641, 4184.103, 4170.256, 450, 0, []
1627802020.239, 106, 0, 4184.615, 4230.769, 4183.077, 4193.333, 4193.846, 450, 0, []
1627802020.2468, 107, 0, 4191.795, 4221.538, 4181.538, 4203.59, 4206.667, 16197, 0, []
1627802020.2547, 108, 0, 4184.103, 4235.897, 4169.744, 4194.872, 4191.282, 450, 0, []
1627802020.2624, 109, 0, 4170.256, 4237.436, 4157.949, 4182.051, 4182.051, 450, 0, []
1627802020.2704, 110, 0, 4174.359, 4232.308, 4163.59, 4184.615, 4187.692, 450, 0, []
1627802020.2783, 111, 0, 4180, 4245.641, 4159.487, 4188.718, 4187.179, 16197, 0, []
1627802020.2863, 112, 0, 4171.282, 4235.385, 4149.744, 4184.615, 4177.436, 450, 0, []
1627802020.2942, 113, 0, 4171.795, 4227.692, 4169.744, 4186.667, 4178.974, 450, 0, []
1627802020.3021, 114, 0, 4181.026, 4250.769, 4171.795, 4190.256, 4189.231, 450, 0, []
1627802020.31, 115, 0, 4182.564, 4249.744, 4161.026, 4177.436, 4191.282, 16197, 0, []
1627802020.318, 116, 0, 4180.513, 4216.923, 4161.538, 4165.128, 4184.615, 450, 0, []
1627802020.3259, 117, 0, 4186.667, 4207.692, 4168.718, 4176.41, 4188.205, 450, 0, []
1627802020.3337, 118, 0, 4197.436, 4221.026, 4181.538, 4196.41, 4203.077, 450, 0, []
1627802020.3415, 119, 0, 4196.923, 4231.795, 4172.821, 4200, 4203.59, 16197, 0, []
1627802020.3493, 120, 0, 4186.154, 4246.154, 4171.282, 4200, 4194.359, 450, 0, []
1627802020.3572, 121, 0, 4191.795, 4252.821, 4191.795, 4210.256, 4203.59, 450, 0, []
1627802020.365, 122, 0, 4206.154, 4240, 4190.769, 4214.359, 4216.923, 450, 0, []
1627802020.3729, 123, 0, 4202.051, 4235.897, 4177.949, 4202.564, 4211.795, 16197, 0, []
1627802020.3806, 124, 0, 4196.41, 4255.897, 4170.769, 4189.231, 4203.59, 450, 0, []
1627802020.3885, 125, 0, 4201.026, 4258.974, 4174.872, 4184.103, 4202.564, 450, 0, []
1627802020.3963, 126, 0, 4208.205, 4240.513, 4174.359, 4183.59, 4207.179, 450, 0, []
1627802020.4042, 127, 0, 4219.487, 4241.538, 4163.59, 4185.641, 4217.949, 16197, 0, []
1627802020.412, 128, 0, 4218.974, 4244.103, 4170.256, 4182.051, 4216.923, 450, 0, []
1627802020.4199, 0, 0, 4209.744, 4245.641, 4171.795, 4179.487, 4212.821, 450, 0, []
1627802020.4278, 1, 0, 4210.769, 4253.846, 4163.077, 4189.231, 4218.462, 450, 0, []
1627802020.4358, 2, 0, 4196.923, 4228.718, 4150.256, 4180, 4200.513, 16185, 0, []
1627802020.4437, 3, 0, 4177.436, 4221.538, 4142.564, 4163.077, 4178.974, 450, 0, []
1627802020.4517, 4, 0, 4190.256, 4267.692, 4172.308, 4179.487, 4192.308, 16157, 0, []
1627802020.4595, 5, 0, 4210.769, 4283.077, 4192.821, 4203.59, 4205.641, 450, 0, []
1627802020.4675, 6, 0, 4212.821, 4241.538, 4180, 4202.051, 4211.282, 274, 0, []
1627802020.4754, 7, 0, 4224.615, 4229.231, 4176.41, 4207.179, 4237.949, 450, 0, []
1627802020.4833, 8, 0, 4238.974, 4265.641, 4177.436, 4223.59, 4252.821, 450, 0, []
1627802020.4912, 9, 0, 4221.026, 4273.333, 4174.359, 4210.769, 4229.231, 16163, 0, []
1627802020.499, 10, 0, 4200.513, 4246.154, 4161.538, 4187.692, 4210.769, 450, 0, []
1627802020.5068, 11, 0, 4202.564, 4240, 4157.436, 4183.59, 4207.692, 16197, 0, []
1627802020.5146, 12, 0, 4195.385, 4265.641, 4172.308, 4184.103, 4203.077, 450, 0, []
1627802020.5225, 13, 0, 4182.051, 4266.667, 4170.256, 4181.538, 4200.513, 450, 0, []
1627802020.5303, 14, 0, 4187.692, 4235.385, 4170.256, 4180.513, 4198.462, 450, 0, []
1627802020.5382, 15, 0, 4200.513, 4227.179, 4177.436, 4180.513, 4197.436, 16197, 0, []
1627802020.5459, 16, 0, 4203.59, 4231.795, 4172.308, 4176.923, 4197.949, 0, 0, []
1627802020.5538, 17, 0, 4196.923, 4234.359, 4173.333, 4172.821, 4196.923, 0, 0, []
1627802020.5616, 18, 0, 4189.744, 4249.231, 4173.333, 4176.41, 4197.436, 0, 0, []
1627802020.5696, 19, 0, 4185.128, 4238.462, 4176.923, 4184.615, 4194.872, 0, 0, []
1627802020.5775, 20, 0, 4185.128, 4213.333, 4185.128, 4185.641, 4191.795, 0, 0, []
1627802020.5854, 21, 0, 4190.256, 4227.692, 4190.769, 4186.667, 4204.615, 0, 0, []
1627802020.5933, 22, 0, 4195.897, 4229.231, 4201.026, 4193.333, 4215.897, 0, 0, []
1627802020.6013, 23, 0, 4197.436, 4198.462, 4196.41, 4197.436, 4208.718, 0, 0, []
1627802020.6092, 24, 0, 4198.974, 4214.872, 4198.462, 4201.026, 4206.667, 0, 0, []
1627802020.6172, 25, 0, 4197.436, 4238.462, 4202.051, 4200, 4210.769, 0, 0, []
1627802020.625, 26, 0, 4192.821, 4208.205, 4186.667, 4189.744, 4203.077, 0, 0, []
1627802020.633, 27, 0, 4195.897, 4200, 4185.641, 4173.846, 4197.949, 0, 0, []
1627802020.6409, 28, 0, 4201.026, 4219.487, 4184.615, 4168.718, 4201.026, 0, 0, []
1627802020.6489, 29, 0, 4199.487, 4209.231, 4187.179, 4176.923, 4202.051, 0, 0, []
1627802020.6568, 30, 0, 4200, 4208.718, 4193.333, 4181.026, 4209.231, 0, 0, []
1627802020.6645, 31, 0, 4200, 4213.846, 4181.026, 4177.949, 4215.385, 0, 0, []
1627802020.6724, 32, 0, 4201.538, 4175.385, 4184.103, 4182.051, 4214.359, 0, 0, []
1627802020.6802, 33, 0, 4212.308, 4148.205, 4192.308, 4190.256, 4215.385, 0, 0, []
1627802020.6881, 34, 0, 4212.308, 4176.41, 4178.974, 4185.128, 4208.718, 0, 0, []
1627802020.6959, 35, 0, 4212.821, 4191.795, 4171.282, 4182.564, 4209.744, 0, 0, []
1627802020.7037, 36, 0, 4252.821, 4170.769, 4177.436, 4193.846, 4259.487, 0, 0, []
1627802020.7115, 37, 0, 4311.795, 4164.103, 4193.846, 4198.974, 4332.821, 0, 0, []
1627802020.7194, 38, 0, 4356.923, 4172.308, 4193.846, 4203.59, 4386.667, 0, 0, []
1627802020.7272, 39, 0, 4408.718, 4171.282, 4194.359, 4221.026, 4441.538, 0, 0, []
1627802020.7352, 40, 0, 4467.692, 4178.462, 4216.41, 4241.538, 4507.692, 0, 0, []
1627802020.743, 41, 0, 4502.051, 4169.231, 4209.744, 4245.128, 4549.231, 0, 0, []
1627802020.751, 42, 0, 4518.974, 4136.923, 4193.333, 4245.128, 4574.872, 0, 0, []
1627802020.7589, 43, 0, 4533.846, 4145.128, 4195.385, 4254.872, 4608.205, 0, 0, []
1627802020.7669, 44, 0, 4524.615, 4177.436, 4196.41, 4258.462, 4623.077, 0, 0, []
1627802020.7748, 45, 0, 4485.641, 4167.179, 4195.385, 4246.667, 4605.641, 0, 0, []
1627802020.7827, 46, 0, 4448.718, 4140.513, 4185.641, 4237.436, 4588.205, 0, 0, []
1627802020.7906, 47, 0, 4427.179, 4138.462, 4195.385, 4251.282, 4582.051, 0, 0, []
1627802020.7986, 48, 0, 4402.051, 4137.949, 4209.231, 4273.333, 4567.692, 0, 0, []
1627802020.8065, 49, 0, 4367.179, 4140.513, 4204.615, 4277.949, 4542.051, 0, 0, []
1627802020.8143, 50, 0, 4327.179, 4158.462, 4209.231, 4272.308, 4515.897, 0, 0, []
1627802020.8221, 51, 0, 4282.564, 4150.769, 4198.974, 4275.897, 4481.538, 0, 0, []
1627802020.8299, 52, 0, 4236.41, 4142.564, 4185.641, 4280.513, 4441.026, 0, 0, []
1627802020.8378, 53, 0, 4198.974, 4159.487, 4189.744, 4272.821, 4404.615, 0, 0, []
1627802020.8456, 54, 0, 4168.205, 4148.205, 4188.718, 4266.154, 4370.769, 0, 0, []
1627802020.8535, 55, 0, 4138.462, 4127.692, 4190.769, 4261.538, 4336.41, 0, 0, []
1627802020.8612, 56, 0, 4119.487, 4149.744, 4188.718, 4262.051, 4315.385, 0, 0, []
1627802020.8692, 57, 0, 4117.436, 4168.718, 4195.897, 4274.872, 4309.231, 0, 0, []
1627802020.8771, 58, 0, 4106.154, 4159.487, 4200, 4281.538, 4290.769, 0, 0, []
1627802020.8851, 59, 0, 4078.974, 4146.667, 4172.821, 4264.615, 4255.385, 0, 0, []
1627802020.893, 60, 0, 4083.59, 4150.769, 4181.026, 4258.462, 4242.564, 0, 0, []
1627802020.9009, 61, 0, 4114.359, 4177.949, 4215.897, 4275.385, 4261.538, 0, 0, []
1627802020.9088, 62, 0, 4118.462, 4177.949, 4212.308, 4277.436, 4267.179, 0, 0, []
1627802020.9168, 63, 0, 4105.641, 4156.923, 4198.974, 4262.564, 4251.795, 0, 0, []
1627802020.9247, 64, 0, 4104.615, 4171.282, 4195.385, 4259.487, 4238.462, 450, 0, []
1627802020.9327, 65, 0, 4111.795, 4189.744, 4197.949, 4262.051, 4230.256, 450, 0, []
1627802020.9405, 66, 0, 4128.205, 4177.949, 4194.872, 4263.077, 4238.462, 16182, 0, []
1627802020.9483, 67, 0, 4142.051, 4175.385, 4196.41, 4264.615, 4248.718, 450, 0, []
1627802020.9562, 68, 0, 4137.436, 4186.154, 4204.615, 4261.538, 4235.385, 16157, 0, []
1627802020.964, 69, 0, 4138.462, 4184.615, 4192.821, 4258.974, 4226.667, 450, 0, []
1627802020.9719, 70, 0, 4157.436, 4194.872, 4198.974, 4261.538, 4240, 310, 0, []
1627802020.9796, 71, 0, 4170.256, 4199.487, 4208.205, 4264.615, 4247.692, 450, 0, []
1627802020.9875, 72, 0, 4174.359, 4182.051, 4196.923, 4264.103, 4245.641, 450, 0, []
1627802020.9953, 73, 0, 4175.385, 4184.103, 4196.41, 4262.051, 4237.949, 16159, 0, []
1627802021.0032, 74, 0, 4176.923, 4204.103, 4192.308, 4261.026, 4231.282, 450, 0, []
1627802021.011, 75, 0, 4188.205, 4195.897, 4198.974, 4262.051, 4240, 16195, 0, []
1627802021.0188, 76, 0, 4201.538, 4173.846, 4213.333, 4267.179, 4247.692, 450, 0, []
1627802021.0266, 77, 0, 4195.897, 4198.974, 4205.641, 4264.615, 4233.333, 450, 0, []
1627802021.0346, 78, 0, 4182.564, 4229.231, 4201.538, 4251.795, 4223.59, 450, 0, []
1627802021.0425, 79, 0, 4182.564, 4218.974, 4204.615, 4250.769, 4238.462, 16195, 0, []
1627802021.0505, 80, 0, 4192.308, 4210.256, 4218.462, 4264.615, 4252.821, 450, 0, []
1627802021.0583, 81, 0, 4201.026, 4218.974, 4215.897, 4268.718, 4251.282, 450, 0, []
1627802021.0663, 82, 0, 4199.487, 4228.718, 4190.769, 4250.769, 4240, 450, 0, []
1627802021.0742, 83, 0, 4188.718, 4221.026, 4193.846, 4243.077, 4232.308, 16195, 0, []
1627802021.0822, 84, 0, 4183.077, 4212.821, 4196.923, 4247.179, 4234.872, 450, 0, []
1627802021.0901, 85, 0, 4188.205, 4228.205, 4200, 4241.538, 4230.256, 450, 0, []
1627802021.098, 86, 0, 4196.41, 4232.308, 4217.436, 4237.949, 4218.974, 450, 0, []
1627802021.1059, 87, 0, 4201.026, 4213.846, 4207.692, 4241.026, 4217.949, 16195, 0, []
1627802021.1139, 88, 0, 4199.487, 4214.872, 4200.513, 4235.385, 4221.538, 450, 0, []
1627802021.1218, 89, 0, 4196.41, 4221.026, 4201.538, 4230.769, 4218.974, 450, 0, []
1627802021.1296, 90, 0, 4198.462, 4217.949, 4198.462, 4232.308, 4214.359, 450, 0, []
1627802021.1374, 91, 0, 4199.487, 4221.538, 4202.564, 4234.359, 4212.308, 16195, 0, []
1627802021.1452, 92, 0, 4202.051, 4229.744, 4203.077, 4240, 4217.436, 450, 0, []
1627802021.1531, 93, 0, 4211.795, 4254.359, 4218.462, 4243.077, 4228.718, 450, 0, []
1627802021.1609, 94, 0, 4215.385, 4275.385, 4218.462, 4231.795, 4232.821, 450, 0, []
1627802021.1688, 95, 0, 4211.282, 4262.051, 4209.744, 4226.667, 4231.282, 16195, 0, []
1627802021.1765, 96, 0, 4214.359, 4255.385, 4224.103, 4238.462, 4235.385, 450, 0, []
1627802021.1844, 97, 0, 4224.615, 4262.051, 4210.769, 4238.974, 4235.385, 450, 0, []
1627802021.1922, 98, 0, 4230.256, 4249.231, 4202.051, 4232.821, 4233.333, 450, 0, []
1627802021.2002, 99, 0, 4235.385, 4251.795, 4213.333, 4233.333, 4236.41, 16195, 0, []
1627802021.2081, 100, 0, 4229.744, 4259.487, 4208.205, 4222.051, 4232.821, 450, 0, []
1627802021.216, 101, 0, 4220.513, 4231.795, 4209.231, 4207.692, 4226.667, 450, 0, []
1627802021.2239, 102, 0, 4227.179, 4227.179, 4204.103, 4211.282, 4231.282, 450, 0, []
1627802021.2319, 103, 0, 4226.667, 4261.026, 4204.103, 4222.564, 4224.615, 16195, 0, []
1627802021.2398, 104, 0, 4211.282, 4256.41, 4210.256, 4225.641, 4205.128, 450, 0, []
1627802021.2478, 105, 0, 4217.436, 4227.179, 4175.385, 4227.692, 4205.641, 450, 0, []
1627802021.2556, 106, 0, 4237.436, 4242.051, 4206.667, 4232.821, 4220.513, 450, 0, []
1627802021.2636, 107, 0, 4238.462, 4267.692, 4247.692, 4233.846, 4220, 16195, 0, []
1627802021.2715, 108, 0, 4232.308, 4254.872, 4090.256, 4224.103, 4215.897, 450, 0, []
1627802021.2793, 109, 0, 4221.026, 4230.256, 4076.923, 4214.359, 4213.333, 450, 0, []
1627802021.2872, 110, 0, 4200.513, 4217.949, 4273.846, 4212.821, 4200.513, 450, 0, []
1627802021.295, 111, 0, 4197.436, 4208.205, 4286.667, 4215.897, 4198.462, 16195, 0, []
1627802021.3028, 112, 0, 4214.359, 4218.974, 4225.128, 4233.333, 4210.769, 450, 0, []
1627802021.3106, 113, 0, 4217.949, 4234.359, 4206.667, 4245.641, 4207.692, 450, 0, []
1627802021.3185, 114, 0, 4213.333, 4217.949, 4214.359, 4237.436, 4198.462, 450, 0, []
1627802021.3263, 115, 0, 4216.923, 4194.872, 4219.487, 4225.128, 4199.487, 16195, 0, []
1627802021.3342, 116, 0, 4211.282, 4194.872, 4184.615, 4217.949, 4189.231, 450, 0, []
1627802021.3419, 117, 0, 4205.128, 4220, 4152.308, 4213.846, 4180.513, 450, 0, []
1627802021.3499, 118, 0, 4214.872, 4235.897, 4170.256, 4213.333, 4190.256, 450, 0, []
1627802021.3578, 119, 0, 4217.436, 4212.821, 4200.513, 4219.487, 4193.846, 16195, 0, []
1627802021.3658, 120, 0, 4204.103, 4186.667, 4184.103, 4220, 4184.615, 450, 0, []
1627802021.3737, 121, 0, 4196.923, 4196.41, 4226.667, 4213.846, 4181.538, 450, 0, []
1627802021.3816, 122, 0, 4202.051, 4207.179, 4196.41, 4204.615, 4184.103, 450, 0, []
1627802021.3895, 123, 0, 4209.231, 4198.974, 4155.897, 4202.051, 4184.103, 16195, 0, []
1627802021.3975, 124, 0, 4219.487, 4198.462, 4288.205, 4215.897, 4185.641, 450, 0, []
1627802021.4054, 125, 0, 4223.077, 4206.667, 4267.179, 4221.538, 4188.718, 450, 0, []
1627802021.4134, 126, 0, 4211.795, 4198.462, 4128.205, 4209.744, 4183.59, 450, 0, []
1627802021.4212, 127, 0, 4201.538, 4181.026, 4170.256, 4204.615, 4172.308, 16195, 0, []
1627802021.429, 128, 0, 4200, 4182.051, 4185.128, 4200.513, 4161.026, 450, 0, []
1627802021.4369, 0, 0, 4202.051, 4180, 4131.795, 4193.333, 4157.949, 450, 0, []
1627802021.4447, 1, 0, 4200.513, 4162.564, 4169.744, 4195.385, 4166.667, 450, 0, []
1627802021.4526, 2, 0, 4198.974, 4176.923, 4186.154, 4203.077, 4172.308, 16182, 0, []
1627802021.4603, 3, 0, 4211.795, 4200.513, 4186.154, 4212.308, 4176.923, 450, 0, []
1627802021.4682, 4, 0, 4230.256, 4185.128, 4184.103, 4218.974, 4189.231, 16157, 0, []
1627802021.476, 5, 0, 4235.897, 4172.308, 4187.179, 4220.513, 4198.462, 450, 0, []
1627802021.4839, 6, 0, 4231.795, 4177.949, 4199.487, 4222.051, 4193.333, 285, 0, []
1627802021.4919, 7, 0, 4221.538, 4168.718, 4174.359, 4215.897, 4181.026, 450, 0, []
1627802021.4998, 8, 0, 4213.846, 4170.256, 4180, 4209.744, 4177.436, 450, 0, []
1627802021.5077, 9, 0, 4221.026, 4180, 4183.59, 4216.923, 4188.718, 16159, 0, []
1627802021.5157, 10, 0, 4233.846, 4161.026, 4196.41, 4229.744, 4204.103, 450, 0, []
1627802021.5236, 11, 0, 4234.872, 4147.179, 4191.282, 4228.718, 4203.59, 16195, 0, []
1627802021.5316, 12, 0, 4231.282, 4158.974, 4173.333, 4219.487, 4196.923, 450, 0, []
1627802021.5394, 13, 0, 4237.436, 4168.718, 4196.923, 4217.949, 4204.615, 450, 0, []
1627802021.5474, 14, 0, 4231.282, 4168.718, 4176.923, 4211.282, 4202.051, 450, 0, []
1627802021.5553, 15, 0, 4217.436, 4161.538, 4182.564, 4208.718, 4189.744, 16195, 0, []
1627802021.5632, 16, 0, 4225.128, 4153.333, 4200, 4224.103, 4195.897, 0, 0, []
1627802021.5711, 17, 0, 4231.795, 4164.103, 4177.436, 4226.667, 4197.436, 0, 0, []
1627802021.5788, 18, 0, 4227.692, 4169.744, 4188.205, 4213.846, 4187.179, 0, 0, []
1627802021.5867, 19, 0, 4235.897, 4153.333, 4175.385, 4215.385, 4196.41, 0, 0, []
1627802021.5945, 20, 0, 4244.103, 4149.231, 4182.564, 4223.077, 4205.641, 0, 0, []
1627802021.6024, 21, 0, 4230.769, 4144.103, 4193.333, 4211.795, 4189.231, 0, 0, []
1627802021.6102, 22, 0, 4220.513, 4128.718, 4173.333, 4202.564, 4179.487, 0, 0, []
1627802021.618, 23, 0, 4221.538, 4130.256, 4198.462, 4208.205, 4187.179, 0, 0, []
1627802021.6258, 24, 0, 4212.308, 4140, 4192.821, 4205.128, 4182.564, 0, 0, []
1627802021.6337, 25, 0, 4212.821, 4135.897, 4190.769, 4205.128, 4181.026, 0, 0, []
1627802021.6415, 26, 0, 4231.795, 4132.821, 4197.949, 4216.41, 4199.487, 0, 0, []
1627802021.6494, 27, 0, 4242.051, 4141.026, 4175.897, 4220.513, 4213.333, 0, 0, []
1627802021.6571, 28, 0, 4242.564, 4155.385, 4206.154, 4225.641, 4210.256, 0, 0, []
1627802021.6651, 29, 0, 4242.564, 4164.615, 4203.59, 4222.564, 4203.59, 0, 0, []
1627802021.673, 30, 0, 4241.026, 4143.077, 4195.385, 4207.179, 4201.538, 0, 0, []
1627802021.681, 31, 0, 4233.846, 4132.821, 4209.231, 4203.077, 4199.487, 0, 0, []
1627802021.6889, 32, 0, 4231.282, 4153.846, 4189.231, 4209.744, 4199.487, 0, 0, []
1627802021.6968, 33, 0, 4231.795, 4157.436, 4202.564, 4212.821, 4200.513, 0, 0, []
1627802021.7047, 34, 0, 4231.282, 4150.256, 4186.154, 4205.641, 4197.949, 0, 0, []
1627802021.7127, 35, 0, 4241.026, 4158.974, 4181.026, 4205.128, 4204.103, 0, 0, []
1627802021.7206, 36, 0, 4253.846, 4178.974, 4211.282, 4218.974, 4219.487, 0, 0, []
1627802021.7284, 37, 0, 4248.718, 4197.436, 4170.769, 4220.513, 4217.436, 0, 0, []
1627802021.7362, 38, 0, 4236.41, 4200.513, 4191.795, 4209.744, 4202.051, 0, 0, []
1627802021.744, 39, 0, 4241.538, 4190.256, 4213.846, 4210.769, 4198.974, 0, 0, []
1627802021.7519, 40, 0, 4246.667, 4186.154, 4192.308, 4218.974, 4204.103, 0, 0, []
1627802021.7597, 41, 0, 4236.923, 4183.59, 4229.231, 4218.974, 4203.077, 0, 0, []
1627802021.7676, 42, 0, 4232.821, 4179.487, 4174.872, 4213.846, 4200, 0, 0, []
1627802021.7753, 43, 0, 4240, 4178.974, 4169.231, 4212.308, 4203.077, 0, 0, []
1627802021.7832, 44, 0, 4247.179, 4173.846, 4225.641, 4209.231, 4209.231, 0, 0, []
1627802021.791, 45, 0, 4245.128, 4164.615, 4186.154, 4206.154, 4215.385, 0, 0, []
1627802021.7989, 46, 0, 4237.436, 4176.41, 4192.308, 4208.205, 4216.923, 0, 0, []
1627802021.8067, 47, 0, 4230.256, 4201.026, 4181.026, 4203.077, 4213.846, 0, 0, []
1627802021.8146, 48, 0, 4232.821, 4202.051, 4180.513, 4200.513, 4214.359, 0, 0, []
1627802021.8225, 49, 0, 4235.897, 4187.692, 4195.385, 4205.641, 4217.949, 0, 0, []
1627802021.8305, 50, 0, 4233.846, 4191.282, 4176.41, 4204.615, 4214.359, 0, 0, []
1627802021.8384, 51, 0, 4232.821, 4208.718, 4201.026, 4205.641, 4205.641, 0, 0, []
1627802021.8464, 52, 0, 4228.718, 4191.795, 4172.308, 4205.641, 4197.949, 0, 0, []
1627802021.8542, 53, 0, 4224.615, 4157.436, 4171.795, 4202.564, 4195.897, 0, 0, []
1627802021.8622, 54, 0, 4235.385, 4178.974, 4192.308, 4203.077, 4203.59, 0, 0, []
1627802021.8701, 55, 0, 4244.615, 4202.051, 4180, 4204.615, 4208.718, 0, 0, []
1627802021.8781, 56, 0, 4240, 4178.974, 4215.897, 4210.769, 4208.718, 0, 0, []
1627802021.886, 57, 0, 4237.436, 4176.41, 4191.795, 4216.41, 4211.282, 0, 0, []
1627802021.8939, 58, 0, 4239.487, 4189.744, 4183.59, 4217.436, 4212.308, 0, 0, []
1627802021.9018, 59, 0, 4235.897, 4182.564, 4198.974, 4212.821, 4208.718, 0, 0, []
1627802021.9096, 60, 0, 4230.769, 4187.692, 4175.385, 4200.513, 4204.103, 0, 0, []
1627802021.9175, 61, 0, 4230.256, 4202.051, 4205.641, 4193.333, 4201.538, 0, 0, []
1627802021.9253, 62, 0, 4230.256, 4190.769, 4188.205, 4191.282, 4197.949, 0, 0, []
1627802021.9331, 63, 0, 4231.795, 4182.564, 4185.641, 4192.308, 4199.487, 0, 0, []
1627802021.9409, 64, 0, 4235.385, 4207.692, 4212.821, 4193.333, 4203.59, 450, 0, []
1627802021.9489, 65, 0, 4233.333, 4218.462, 4182.564, 4191.795, 4202.564, 450, 0, []
1627802021.9568, 66, 0, 4229.744, 4202.564, 4211.795, 4196.923, 4201.026, 16182, 0, []
1627802021.9648, 67, 0, 4227.692, 4197.436, 4210.769, 4203.077, 4198.462, 450, 0, []
1627802021.9726, 68, 0, 4224.615, 4211.282, 4200.513, 4204.615, 4196.41, 16157, 0, []
1627802021.9806, 69, 0, 4223.077, 4225.128, 4217.436, 4200.513, 4196.923, 450, 0, []
1627802021.9885, 70, 0, 4224.103, 4227.692, 4181.538, 4189.231, 4197.949, 272, 0, []
1627802021.9965, 71, 0, 4218.462, 4221.026, 4188.205, 4183.59, 4191.795, 450, 0, []
1627802022.0044, 72, 0, 4206.154, 4192.308, 4164.103, 4178.974, 4178.974, 450, 0, []
1627802022.0123, 73, 0, 4207.179, 4177.949, 4155.897, 4180, 4177.949, 16156, 0, []
1627802022.0202, 74, 0, 4229.231, 4210.769, 4198.462, 4192.821, 4194.872, 450, 0, []
1627802022.0282, 75, 0, 4244.103, 4240.513, 4171.795, 4198.974, 4206.154, 16195, 0, []
1627802022.0361, 76, 0, 4238.462, 4231.795, 4182.564, 4193.846, 4203.59, 450, 0, []
1627802022.0439, 77, 0, 4228.718, 4222.051, 4184.103, 4185.128, 4200, 450, 0, []
1627802022.0518, 78, 0, 4228.205, 4244.615, 4182.051, 4183.077, 4200, 450, 0, []
1627802022.0595, 79, 0, 4232.821, 4244.103, 4211.282, 4192.308, 4199.487, 16195, 0, []
1627802022.0674, 80, 0, 4229.231, 4213.846, 4172.821, 4198.974, 4198.462, 450, 0, []
1627802022.0752, 81, 0, 4222.564, 4205.641, 4184.615, 4196.41, 4191.282, 450, 0, []
1627802022.0831, 82, 0, 4226.154, 4210.256, 4189.231, 4189.231, 4181.538, 450, 0, []
1627802022.0909, 83, 0, 4231.795, 4210.769, 4162.051, 4188.718, 4184.103, 16195, 0, []
1627802022.0987, 84, 0, 4224.103, 4206.667, 4192.821, 4191.282, 4189.231, 450, 0, []
1627802022.1065, 85, 0, 4212.308, 4195.897, 4174.359, 4179.487, 4181.538, 450, 0, []
1627802022.1145, 86, 0, 4216.923, 4215.897, 4185.641, 4178.462, 4180, 450, 0, []
1627802022.1224, 87, 0, 4230.256, 4252.821, 4198.462, 4196.41, 4194.872, 16195, 0, []
1627802022.1304, 88, 0, 4226.667, 4238.462, 4169.744, 4194.359, 4197.949, 450, 0, []
1627802022.1382, 89, 0, 4221.026, 4204.103, 4191.795, 4182.564, 4194.872, 450, 0, []
1627802022.1462, 90, 0, 4229.231, 4220.513, 4170.769, 4186.667, 4201.026, 450, 0, []
1627802022.1541, 91, 0, 4233.846, 4245.641, 4176.923, 4191.282, 4201.026, 16195, 0, []
1627802022.1621, 92, 0, 4226.154, 4240, 4194.359, 4185.641, 4193.333, 450, 0, []
1627802022.17, 93, 0, 4225.641, 4226.667, 4168.718, 4184.615, 4192.308, 450, 0, []
1627802022.1779, 94, 0, 4232.821, 4223.59, 4191.282, 4192.821, 4192.821, 450, 0, []
1627802022.1858, 95, 0, 4225.641, 4218.974, 4161.538, 4189.744, 4183.59, 16195, 0, []
1627802022.1936, 96, 0, 4216.923, 4199.487, 4160, 4188.718, 4182.051, 450, 0, []
1627802022.2015, 97, 0, 4222.564, 4196.923, 4194.359, 4195.385, 4192.821, 450, 0, []
1627802022.2093, 98, 0, 4231.282, 4224.615, 4166.154, 4192.821, 4195.385, 450, 0, []
1627802022.2171, 99, 0, 4233.333, 4227.692, 4185.128, 4189.744, 4189.744, 16195, 0, []
1627802022.2249, 100, 0, 4223.59, 4208.205, 4175.385, 4188.205, 4184.615, 450, 0, []
1627802022.2328, 101, 0, 4214.872, 4223.077, 4168.718, 4184.615, 4181.538, 450, 0, []
1627802022.2406, 102, 0, 4221.538, 4237.949, 4192.821, 4184.103, 4182.051, 450, 0, []
1627802022.2485, 103, 0, 4236.41, 4220, 4166.667, 4186.154, 4193.333, 16195, 0, []
1627802022.2562, 104, 0, 4240.513, 4221.026, 4195.385, 4194.359, 4206.154, 450, 0, []
1627802022.2642, 105, 0, 4233.846, 4234.359, 4191.795, 4198.974, 4202.051, 450, 0, []
1627802022.2721, 106, 0, 4228.718, 4236.41, 4171.795, 4195.897, 4188.718, 450, 0, []
1627802022.2801, 107, 0, 4226.154, 4243.077, 4191.282, 4190.769, 4183.59, 16195, 0, []
1627802022.288, 108, 0, 4228.718, 4225.641, 4168.718, 4185.641, 4188.718, 450, 0, []
1627802022.2959, 109, 0, 4236.41, 4210.256, 4200.513, 4192.308, 4195.385, 450, 0, []
1627802022.3038, 110, 0, 4239.487, 4247.179, 4197.949, 4205.128, 4201.026, 450, 0, []
1627802022.3118, 111, 0, 4236.923, 4265.641, 4165.128, 4199.487, 4195.897, 16195, 0, []
1627802022.3197, 112, 0, 4232.308, 4244.615, 4192.821, 4185.128, 4185.128, 450, 0, []
1627802022.3277, 113, 0, 4229.744, 4238.974, 4175.385, 4183.077, 4188.205, 450, 0, []
1627802022.3355, 114, 0, 4234.872, 4241.538, 4189.231, 4190.769, 4194.872, 450, 0, []
1627802022.3435, 115, 0, 4234.359, 4242.051, 4184.615, 4184.103, 4188.205, 16195, 0, []
1627802022.3514, 116, 0, 4220, 4237.436, 4152.308, 4169.231, 4179.487, 450, 0, []
1627802022.3594, 117, 0, 4216.41, 4237.436, 4182.564, 4175.897, 4190.256, 450, 0, []
1627802022.3673, 118, 0, 4230.256, 4251.282, 4166.667, 4182.564, 4201.538, 450, 0, []
1627802022.375, 119, 0, 4236.41, 4253.333, 4183.59, 4176.41, 4196.41, 16195, 0, []
1627802022.3829, 120, 0, 4224.615, 4242.564, 4194.359, 4175.897, 4186.154, 450, 0, []
1627802022.3907, 121, 0, 4213.846, 4235.385, 4158.462, 4179.487, 4184.103, 450, 0, []
1627802022.3986, 122, 0, 4217.949, 4225.128, 4179.487, 4181.538, 4188.718, 450, 0, []
1627802022.4064, 123, 0, 4223.077, 4217.436, 4164.615, 4179.487, 4185.128, 16195, 0, []
1627802022.4142, 124, 0, 4219.487, 4231.282, 4170.769, 4177.949, 4182.051, 450, 0, []
1627802022.422, 125, 0, 4223.59, 4250.256, 4194.359, 4186.154, 4198.462, 450, 0, []
1627802022.43, 126, 0, 4236.923, 4263.077, 4184.615, 4203.077, 4220, 450, 0, []
1627802022.4379, 127, 0, 4234.872, 4258.974, 4190.769, 4207.179, 4214.872, 16195, 0, []
1627802022.4459, 128, 0, 4214.872, 4224.103, 4155.897, 4185.128, 4188.718, 450, 0, []
1627802022.4537, 0, 0, 4202.564, 4212.308, 4166.154, 4173.333, 4180, 450, 0, []
1627802022.4617, 1, 0, 4206.667, 4244.615, 4179.487, 4175.897, 4187.179, 450, 0, []
1627802022.4696, 2, 0, 4211.282, 4262.051, 4154.872, 4174.359, 4187.692, 16182, 0, []
1627802022.4776, 3, 0, 4213.846, 4234.872, 4200, 4181.538, 4185.641, 450, 0, []
1627802022.4855, 4, 0, 4223.59, 4217.436, 4189.231, 4190.769, 4194.359, 16157, 0, []
1627802022.4933, 5, 0, 4230.769, 4246.154, 4174.872, 4189.744, 4208.205, 450, 0, []
1627802022.5013, 6, 0, 4224.103, 4249.744, 4191.795, 4183.077, 4205.128, 274, 0, []
1627802022.5093, 7, 0, 4208.205, 4229.231, 4160, 4171.795, 4186.154, 450, 0, []
1627802022.5172, 8, 0, 4201.026, 4236.923, 4177.436, 4172.821, 4180.513, 450, 0, []
1627802022.525, 9, 0, 4209.744, 4231.795, 4173.846, 4181.026, 4189.231, 16156, 0, []
1627802022.5328, 10, 0, 4214.359, 4207.692, 4172.308, 4183.59, 4190.256, 450, 0, []
1627802022.5406, 11, 0, 4209.744, 4216.41, 4196.41, 4179.487, 4183.077, 16195, 0, []
1627802022.5485, 12, 0, 4206.667, 4229.744, 4158.462, 4174.359, 4182.051, 450, 0, []
1627802022.5563, 13, 0, 4206.667, 4223.077, 4176.41, 4176.923, 4185.128, 450, 0, []
1627802022.5642, 14, 0, 4204.615, 4216.923, 4180.513, 4179.487, 4182.051, 450, 0, []
1627802022.5719, 15, 0, 4213.333, 4217.436, 4160, 4179.487, 4182.564, 16195, 0, []
1627802022.5799, 16, 0, 4222.564, 4230.256, 4195.385, 4183.59, 4193.333, 0, 0, []
1627802022.5878, 17, 0, 4215.897, 4222.564, 4177.949, 4186.154, 4196.923, 0, 0, []
1627802022.5958, 18, 0, 4218.974, 4193.846, 4192.308, 4192.821, 4193.333, 0, 0, []
1627802022.6037, 19, 0, 4233.846, 4209.744, 4207.179, 4199.487, 4198.462, 0, 0, []
1627802022.6116, 20, 0, 4232.308, 4229.744, 4176.923, 4196.41, 4205.128, 0, 0, []
1627802022.6195, 21, 0, 4219.487, 4202.564, 4192.308, 4196.41, 4202.051, 0, 0, []
1627802022.6275, 22, 0, 4215.385, 4211.795, 4189.231, 4198.462, 4196.923, 0, 0, []
1627802022.6354, 23, 0, 4216.41, 4240, 4201.538, 4191.282, 4191.795, 0, 0, []
1627802022.6434, 24, 0, 4213.333, 4209.231, 4184.615, 4183.077, 4187.179, 0, 0, []
1627802022.6512, 25, 0, 4212.821, 4185.128, 4157.436, 4184.103, 4194.359, 0, 0, []
1627802022.659, 26, 0, 4219.487, 4214.872, 4218.974, 4195.385, 4202.564, 0, 0, []
1627802022.6669, 27, 0, 4227.692, 4240.513, 4205.641, 4200.513, 4200, 0, 0, []
1627802022.6747, 28, 0, 4231.282, 4235.385, 4175.385, 4197.436, 4199.487, 0, 0, []
1627802022.6826, 29, 0, 4232.821, 4230.256, 4178.974, 4194.359, 4204.615, 0, 0, []
1627802022.6903, 30, 0, 4228.718, 4229.744, 4168.205, 4191.795, 4202.564, 0, 0, []
1627802022.6982, 31, 0, 4222.564, 4214.872, 4200, 4189.744, 4196.41, 0, 0, []
1627802022.706, 32, 0, 4215.897, 4205.641, 4175.385, 4185.128, 4196.41, 0, 0, []
1627802022.7139, 33, 0, 4213.846, 4211.795, 4158.974, 4188.718, 4197.436, 0, 0, []
1627802022.7217, 34, 0, 4218.974, 4222.564, 4177.949, 4193.846, 4192.821, 0, 0, []
1627802022.7295, 35, 0, 4213.846, 4226.154, 4164.103, 4182.564, 4185.641, 0, 0, []
1627802022.7373, 36, 0, 4202.051, 4225.128, 4184.103, 4172.308, 4182.051, 0, 0, []
1627802022.7453, 37, 0, 4202.564, 4231.282, 4163.59, 4172.308, 4188.205, 0, 0, []
1627802022.7532, 38, 0, 4213.333, 4225.128, 4164.103, 4176.923, 4198.974, 0, 0, []
1627802022.7612, 39, 0, 4220, 4218.974, 4195.897, 4184.103, 4206.667, 0, 0, []
1627802022.769, 40, 0, 4209.231, 4228.718, 4160, 4182.564, 4198.974, 0, 0, []
1627802022.777, 41, 0, 4193.333, 4221.026, 4169.744, 4175.897, 4184.615, 0, 0, []
1627802022.7849, 42, 0, 4195.385, 4210.256, 4182.564, 4182.051, 4190.769, 0, 0, []
1627802022.7929, 43, 0, 4204.615, 4217.436, 4187.692, 4196.923, 4204.103, 0, 0, []
1627802022.8008, 44, 0, 4203.59, 4213.846, 4197.949, 4198.974, 4205.641, 0, 0, []
1627802022.8088, 45, 0, 4204.615, 4203.077, 4167.179, 4191.795, 4204.103, 0, 0, []
1627802022.8166, 46, 0, 4209.744, 4212.821, 4194.872, 4196.41, 4208.718, 0, 0, []
1627802022.8244, 47, 0, 4204.103, 4205.641, 4192.308, 4197.436, 4205.128, 0, 0, []
1627802022.8323, 48, 0, 4198.462, 4200.513, 4163.59, 4187.692, 4198.462, 0, 0, []
1627802022.8401, 49, 0, 4201.026, 4229.231, 4188.718, 4184.615, 4200, 0, 0, []
1627802022.848, 50, 0, 4198.462, 4223.59, 4175.385, 4182.051, 4195.897, 0, 0, []
1627802022.8557, 51, 0, 4197.949, 4209.231, 4183.59, 4178.462, 4195.897, 0, 0, []
1627802022.8636, 52, 0, 4227.179, 4228.718, 4189.231, 4181.026, 4224.103, 0, 0, []
1627802022.8714, 53, 0, 4277.949, 4226.154, 4184.615, 4187.179, 4274.359, 0, 0, []
1627802022.8793, 54, 0, 4307.179, 4206.154, 4195.897, 4194.359, 4302.564, 0, 0, []
1627802022.8871, 55, 0, 4292.821, 4212.308, 4168.718, 4197.949, 4291.282, 0, 0, []
1627802022.895, 56, 0, 4264.615, 4223.077, 4196.41, 4198.974, 4267.179, 0, 0, []
1627802022.9029, 57, 0, 4249.231, 4218.462, 4198.462, 4190.769, 4250.256, 0, 0, []
1627802022.9109, 58, 0, 4241.538, 4212.821, 4172.308, 4180, 4243.59, 0, 0, []
1627802022.9188, 59, 0, 4240.513, 4216.41, 4213.846, 4189.231, 4246.154, 0, 0, []
1627802022.9268, 60, 0, 4246.667, 4230.256, 4200, 4203.077, 4253.846, 0, 0, []
1627802022.9346, 61, 0, 4249.231, 4233.846, 4191.795, 4203.59, 4253.846, 0, 0, []
1627802022.9426, 62, 0, 4246.667, 4227.179, 4201.026, 4195.385, 4246.154, 0, 0, []
1627802022.9505, 63, 0, 4241.538, 4237.949, 4180, 4192.308, 4241.026, 0, 0, []
1627802022.9583, 64, 0, 4241.538, 4245.128, 4214.359, 4198.974, 4240.513, 450, 0, []
1627802022.9662, 65, 0, 4243.59, 4210.769, 4207.692, 4194.872, 4236.923, 450, 0, []
1627802022.9739, 66, 0, 4235.385, 4191.795, 4184.615, 4178.462, 4226.667, 16182, 0, []
1627802022.9818, 67, 0, 4222.564, 4221.026, 4192.821, 4170.769, 4218.974, 450, 0, []
1627802022.9896, 68, 0, 4226.667, 4232.821, 4177.949, 4186.154, 4225.641, 16157, 0, []
1627802022.9975, 69, 0, 4240, 4232.308, 4200, 4205.641, 4238.462, 450, 0, []
1627802023.0053, 70, 0, 4236.923, 4241.026, 4194.872, 4198.462, 4231.282, 274, 0, []
1627802023.0131, 71, 0, 4227.179, 4237.949, 4177.436, 4182.564, 4216.41, 450, 0, []
1627802023.0209, 72, 0, 4228.718, 4240, 4177.949, 4191.282, 4215.385, 450, 0, []
1627802023.0288, 73, 0, 4227.692, 4254.359, 4187.692, 4211.795, 4218.462, 16156, 0, []
1627802023.0366, 74, 0, 4219.487, 4254.872, 4185.641, 4216.41, 4214.359, 450, 0, []
1627802023.0446, 75, 0, 4221.538, 4252.821, 4127.692, 4203.59, 4208.205, 16195, 0, []
1627802023.0524, 76, 0, 4228.718, 4263.077, 4192.821, 4196.41, 4204.103, 450, 0, []
1627802023.0604, 77, 0, 4219.487, 4262.564, 4224.103, 4192.821, 4202.564, 450, 0, []
1627802023.0683, 78, 0, 4217.436, 4265.128, 4152.308, 4191.282, 4212.308, 450, 0, []
1627802023.0763, 79, 0, 4234.359, 4260, 4202.051, 4206.667, 4223.59, 16195, 0, []
1627802023.0842, 80, 0, 4232.308, 4241.538, 4195.897, 4211.795, 4222.051, 450, 0, []
1627802023.0921, 81, 0, 4215.897, 4252.821, 4166.154, 4203.077, 4211.282, 450, 0, []
1627802023.1, 82, 0, 4216.923, 4277.949, 4184.615, 4209.231, 4205.128, 450, 0, []
1627802023.108, 83, 0, 4218.462, 4275.897, 4190.256, 4217.436, 4205.641, 16195, 0, []
1627802023.1159, 84, 0, 4197.436, 4253.846, 4230.769, 4208.205, 4194.872, 450, 0, []
1627802023.1237, 85, 0, 4170.769, 4254.359, 4157.436, 4190.769, 4171.282, 450, 0, []
1627802023.1315, 86, 0, 4163.59, 4262.564, 4094.872, 4189.231, 4161.026, 450, 0, []
1627802023.1393, 87, 0, 4171.795, 4258.462, 4204.103, 4197.436, 4169.231, 16195, 0, []
1627802023.1472, 88, 0, 4178.974, 4267.692, 4259.487, 4192.821, 4170.256, 450, 0, []
1627802023.155, 89, 0, 4183.077, 4281.538, 4154.872, 4189.744, 4167.692, 450, 0, []
1627802023.1629, 90, 0, 4185.128, 4276.923, 4057.436, 4195.385, 4169.744, 450, 0, []
1627802023.1706, 91, 0, 4181.538, 4266.667, 4248.718, 4206.154, 4170.256, 16195, 0, []
1627802023.1785, 92, 0, 4177.436, 4278.462, 4336.41, 4208.718, 4168.718, 450, 0, []
1627802023.1863, 93, 0, 4174.359, 4280, 4089.231, 4190.769, 4164.103, 450, 0, []
1627802023.1942, 94, 0, 4171.795, 4266.667, 4118.462, 4176.41, 4154.359, 450, 0, []
1627802023.202, 95, 0, 4167.692, 4254.359, 4209.231, 4175.385, 4148.205, 16195, 0, []
1627802023.2099, 96, 0, 4166.154, 4254.359, 4124.615, 4178.462, 4150.769, 450, 0, []
1627802023.2178, 97, 0, 4169.744, 4281.026, 4164.103, 4186.154, 4150.769, 450, 0, []
1627802023.2258, 98, 0, 4157.436, 4280, 4171.795, 4185.641, 4135.897, 450, 0, []
1627802023.2337, 99, 0, 4128.718, 4249.744, 4148.205, 4170.256, 4115.385, 16195, 0, []
1627802023.2417, 100, 0, 4118.974, 4253.333, 4149.231, 4163.077, 4111.282, 450, 0, []
1627802023.2495, 101, 0, 4141.026, 4275.897, 4160.513, 4180, 4128.718, 450, 0, []
1627802023.2575, 102, 0, 4167.179, 4285.641, 4193.333, 4205.128, 4150.769, 450, 0, []
1627802023.2654, 103, 0, 4172.821, 4287.179, 4183.077, 4211.282, 4157.949, 16195, 0, []
1627802023.2734, 104, 0, 4160, 4273.846, 4184.615, 4204.103, 4149.744, 450, 0, []
1627802023.2813, 105, 0, 4151.282, 4251.282, 4192.821, 4206.667, 4148.205, 450, 0, []
1627802023.289, 106, 0, 4154.359, 4270.256, 4192.821, 4213.333, 4153.846, 450, 0, []
1627802023.2969, 107, 0, 4145.641, 4297.949, 4185.128, 4201.026, 4139.487, 16195, 0, []
1627802023.3047, 108, 0, 4131.795, 4286.667, 4155.897, 4181.538, 4120.513, 450, 0, []
1627802023.3126, 109, 0, 4136.41, 4284.103, 4166.667, 4186.154, 4121.026, 450, 0, []
1627802023.3204, 110, 0, 4134.359, 4297.949, 4173.846, 4191.795, 4122.051, 450, 0, []
1627802023.3282, 111, 0, 4123.59, 4301.026, 4158.974, 4181.538, 4115.385, 16195, 0, []
1627802023.336, 112, 0, 4123.59, 4295.385, 4171.282, 4187.179, 4119.487, 450, 0, []
1627802023.344, 113, 0, 4120, 4288.205, 4166.667, 4195.897, 4122.564, 450, 0, []
1627802023.3519, 114, 0, 4119.487, 4298.974, 4169.744, 4190.256, 4125.641, 450, 0, []
1627802023.3598, 115, 0, 4128.718, 4312.821, 4187.692, 4195.897, 4141.538, 16195, 0, []
1627802023.3675, 116, 0, 4126.667, 4298.974, 4181.538, 4201.538, 4144.615, 450, 0, []
1627802023.3755, 117, 0, 4147.179, 4290.256, 4181.026, 4192.821, 4150.256, 450, 0, []
1627802023.3834, 118, 0, 4221.026, 4322.051, 4172.308, 4193.333, 4203.077, 450, 0, []
1627802023.3914, 119, 0, 4310.256, 4345.641, 4171.795, 4202.564, 4283.077, 16195, 0, []
1627802023.3993, 120, 0, 4384.615, 4326.154, 4184.103, 4198.974, 4348.718, 450, 0, []
1627802023.4072, 121, 0, 4451.282, 4306.667, 4178.974, 4185.641, 4403.077, 450, 0, []
1627802023.4151, 122, 0, 4517.436, 4316.41, 4181.538, 4182.564, 4462.564, 450, 0, []
1627802023.4231, 123, 0, 4577.436, 4333.846, 4184.615, 4193.333, 4521.026, 16195, 0, []
1627802023.431, 124, 0, 4608.205, 4330.256, 4185.641, 4201.026, 4557.436, 450, 0, []
1627802023.4388, 125, 0, 4607.692, 4306.667, 4176.923, 4190.769, 4560.513, 450, 0, []
1627802023.4466, 126, 0, 4613.333, 4305.641, 4165.128, 4180, 4555.385, 450, 0, []
1627802023.4544, 127, 0, 4639.487, 4331.795, 4182.564, 4187.179, 4571.795, 16195, 0, []
1627802023.4623, 128, 0, 4663.59, 4335.897, 4178.462, 4190.769, 4590.769, 450, 0, []
1627802023.4701, 0, 0, 4677.949, 4338.462, 4169.744, 4187.179, 4596.923, 450, 0, []
1627802023.478, 1, 0, 4691.282, 4360, 4187.692, 4193.333, 4602.564, 450, 0, []
1627802023.4857, 2, 0, 4703.59, 4347.692, 4194.359, 4202.564, 4616.41, 16185, 0, []
1627802023.4936, 3, 0, 4704.615, 4320, 4201.026, 4202.051, 4622.051, 450, 0, []
1627802023.5016, 4, 0, 4703.077, 4345.128, 4200.513, 4197.436, 4618.974, 16147, 0, []
1627802023.5096, 5, 0, 4709.231, 4352.308, 4196.41, 4191.282, 4619.487, 450, 0, []
1627802023.5175, 6, 0, 4707.179, 4312.821, 4199.487, 4177.436, 4614.872, 276, 0, []
1627802023.5255, 7, 0, 4701.538, 4347.692, 4189.231, 4173.333, 4605.641, 450, 0, []
1627802023.5333, 8, 0, 4706.667, 4425.128, 4196.923, 4188.718, 4603.077, 450, 0, []
1627802023.5413, 9, 0, 4706.154, 4433.333, 4197.949, 4186.154, 4594.359, 16156, 0, []
1627802023.5492, 10, 0, 4693.333, 4426.667, 4172.821, 4163.077, 4580, 450, 0, []
1627802023.5572, 11, 0, 4701.026, 4460, 4175.385, 4168.718, 4587.179, 16187, 0, []
1627802023.5651, 12, 0, 4723.077, 4461.538, 4188.205, 4192.821, 4607.692, 450, 0, []
1627802023.573, 13, 0, 4728.205, 4428.205, 4199.487, 4190.256, 4612.821, 450, 0, []
1627802023.5809, 14, 0, 4731.282, 4435.897, 4206.154, 4173.846, 4606.667, 450, 0, []
1627802023.5887, 15, 0, 4733.846, 4465.128, 4210.256, 4169.231, 4603.59, 16187, 0, []
1627802023.5966, 16, 0, 4716.41, 4451.282, 4217.949, 4172.308, 4597.436, 0, 0, []
1627802023.6044, 17, 0, 4704.615, 4432.308, 4192.821, 4182.564, 4592.821, 0, 0, []
1627802023.6122, 18, 0, 4708.718, 4458.974, 4177.436, 4184.103, 4586.667, 0, 0, []
1627802023.62, 19, 0, 4687.179, 4471.282, 4186.154, 4167.179, 4566.667, 0, 0, []
1627802023.6279, 20, 0, 4663.59, 4445.641, 4189.744, 4165.641, 4557.436, 0, 0, []
1627802023.6357, 21, 0, 4681.026, 4436.923, 4201.026, 4186.667, 4572.308, 0, 0, []
1627802023.6436, 22, 0, 4693.333, 4440, 4190.256, 4190.769, 4573.333, 0, 0, []
1627802023.6513, 23, 0, 4673.333, 4426.667, 4188.205, 4179.487, 4554.872, 0, 0, []
1627802023.6593, 24, 0, 4657.949, 4424.615, 4208.718, 4172.308, 4539.487, 0, 0, []
1627802023.6672, 25, 0, 4658.462, 4461.026, 4206.154, 4171.795, 4534.359, 0, 0, []
1627802023.6752, 26, 0, 4653.846, 4456.41, 4196.923, 4177.436, 4532.308, 0, 0, []
1627802023.6831, 27, 0, 4642.051, 4371.795, 4187.692, 4175.897, 4520, 0, 0, []
1627802023.691, 28, 0, 4629.744, 4327.692, 4186.667, 4166.667, 4496.41, 0, 0, []
1627802023.6989, 29, 0, 4622.564, 4357.436, 4196.923, 4166.154, 4486.154, 0, 0, []
1627802023.7069, 30, 0, 4618.974, 4349.744, 4192.308, 4170.256, 4496.923, 0, 0, []
1627802023.7148, 31, 0, 4617.949, 4302.564, 4186.154, 4168.205, 4505.128, 0, 0, []
1627802023.7228, 32, 0, 4615.897, 4324.615, 4174.359, 4167.179, 4496.41, 0, 0, []
1627802023.7306, 33, 0, 4607.179, 4353.846, 4172.308, 4170.256, 4478.462, 0, 0, []
1627802023.7384, 34, 0, 4594.872, 4320, 4182.564, 4174.359, 4472.821, 0, 0, []
1627802023.7463, 35, 0, 4591.282, 4308.205, 4171.795, 4170.769, 4473.846, 0, 0, []
1627802023.7541, 36, 0, 4586.154, 4317.436, 4174.872, 4156.41, 4463.077, 0, 0, []
1627802023.762, 37, 0, 4573.333, 4284.615, 4184.103, 4154.359, 4453.333, 0, 0, []
1627802023.7697, 38, 0, 4569.744, 4250.256, 4176.923, 4164.615, 4457.436, 0, 0, []
1627802023.7776, 39, 0, 4573.333, 4261.538, 4174.359, 4162.051, 4458.974, 0, 0, []
1627802023.7854, 40, 0, 4563.077, 4269.744, 4164.103, 4152.821, 4447.179, 0, 0, []
1627802023.7933, 41, 0, 4550.256, 4260.513, 4171.282, 4165.128, 4444.103, 0, 0, []
1627802023.8011, 42, 0, 4554.359, 4268.205, 4186.667, 4185.641, 4451.795, 0, 0, []
1627802023.809, 43, 0, 4558.462, 4268.205, 4190.769, 4185.641, 4453.333, 0, 0, []
1627802023.8169, 44, 0, 4560.513, 4242.564, 4201.026, 4175.385, 4448.205, 0, 0, []
1627802023.8249, 45, 0, 4554.872, 4212.308, 4191.795, 4168.205, 4434.872, 0, 0, []
1627802023.8328, 46, 0, 4530.256, 4202.051, 4186.154, 4161.026, 4415.385, 0, 0, []
1627802023.8408, 47, 0, 4503.59, 4195.897, 4191.282, 4149.231, 4398.974, 0, 0, []
1627802023.8486, 48, 0, 4487.692, 4154.359, 4181.026, 4136.41, 4386.154, 0, 0, []
1627802023.8566, 49, 0, 4472.821, 4121.538, 4182.051, 4135.385, 4370.256, 0, 0, []
1627802023.8645, 50, 0, 4453.333, 4137.436, 4183.59, 4138.974, 4355.385, 0, 0, []
1627802023.8725, 51, 0, 4431.795, 4130.769, 4183.59, 4129.744, 4336.41, 0, 0, []
1627802023.8804, 52, 0, 4407.692, 4093.333, 4174.872, 4109.231, 4309.744, 0, 0, []
1627802023.8883, 53, 0, 4387.179, 4088.718, 4165.128, 4101.538, 4287.692, 0, 0, []
1627802023.8962, 54, 0, 4367.179, 4096.41, 4180.513, 4114.359, 4270.256, 0, 0, []
1627802023.904, 55, 0, 4343.59, 4093.333, 4177.436, 4121.538, 4251.282, 0, 0, []
1627802023.9119, 56, 0, 4322.051, 4103.59, 4172.308, 4117.949, 4235.385, 0, 0, []
1627802023.9197, 57, 0, 4301.538, 4101.026, 4180.513, 4113.333, 4225.128, 0, 0, []
1627802023.9275, 58, 0, 4280, 4054.359, 4170.769, 4103.59, 4208.718, 0, 0, []
1627802023.9353, 59, 0, 4264.615, 4030.769, 4167.179, 4096.923, 4190.256, 0, 0, []
1627802023.9432, 60, 0, 4260, 4066.667, 4163.077, 4102.564, 4193.333, 0, 0, []
1627802023.951, 61, 0, 4264.615, 4094.872, 4161.026, 4109.231, 4204.615, 0, 0, []
1627802023.9589, 62, 0, 4275.385, 4094.872, 4173.846, 4115.385, 4205.128, 0, 0, []
1627802023.9666, 63, 0, 4280.513, 4092.308, 4178.974, 4126.154, 4204.103, 0, 0, []
1627802023.9746, 64, 0, 4270.769, 4076.923, 4181.538, 4122.564, 4201.538, 450, 0, []
1627802023.9825, 65, 0, 4258.974, 4061.538, 4170.769, 4107.692, 4190.256, 450, 0, []
1627802023.9905, 66, 0, 4250.769, 4074.872, 4163.59, 4107.179, 4186.667, 16181, 0, []
1627802023.9984, 67, 0, 4236.923, 4081.026, 4169.231, 4109.744, 4184.615, 450, 0, []
1627802024.0063, 68, 0, 4224.103, 4058.974, 4154.359, 4105.128, 4171.795, 16155, 0, []
1627802024.0142, 69, 0, 4221.026, 4038.462, 4153.846, 4107.179, 4156.41, 450, 0, []
1627802024.0222, 70, 0, 4211.795, 4037.949, 4163.077, 4113.846, 4144.103, 266, 0, []
1627802024.0301, 71, 0, 4202.564, 4066.154, 4170.256, 4120, 4144.615, 450, 0, []
1627802024.0381, 72, 0, 4206.154, 4091.282, 4190.769, 4125.641, 4150.769, 450, 0, []
1627802024.0459, 73, 0, 4207.692, 4074.359, 4187.179, 4119.487, 4145.128, 16156, 0, []
1627802024.0537, 74, 0, 4190.256, 4049.744, 4178.462, 4108.205, 4134.359, 450, 0, []
1627802024.0616, 75, 0, 4168.718, 4052.821, 4173.846, 4105.641, 4125.128, 16193, 0, []
1627802024.0694, 76, 0, 4155.897, 4055.385, 4162.051, 4099.487, 4108.718, 450, 0, []
1627802024.0773, 77, 0, 4150.769, 4041.026, 4165.128, 4093.846, 4101.538, 450, 0, []
1627802024.085, 78, 0, 4156.923, 4054.359, 4167.692, 4102.564, 4112.821, 450, 0, []
1627802024.0929, 79, 0, 4163.59, 4091.282, 4170.256, 4110.256, 4112.308, 16193, 0, []
1627802024.1007, 80, 0, 4170.256, 4102.564, 4165.128, 4105.128, 4113.846, 450, 0, []
1627802024.1086, 81, 0, 4193.333, 4103.59, 4158.462, 4105.128, 4137.436, 450, 0, []
1627802024.1164, 82, 0, 4215.385, 4111.795, 4165.641, 4110.256, 4155.385, 450, 0, []
1627802024.1243, 83, 0, 4217.436, 4104.615, 4153.333, 4104.103, 4157.949, 16193, 0, []
1627802024.1322, 84, 0, 4220.513, 4108.718, 4150.769, 4107.692, 4168.718, 450, 0, []
1627802024.1402, 85, 0, 4239.487, 4147.692, 4163.077, 4121.538, 4185.641, 450, 0, []
1627802024.1481, 86, 0, 4251.795, 4161.026, 4158.462, 4125.641, 4194.359, 450, 0, []
1627802024.1561, 87, 0, 4252.821, 4151.282, 4166.667, 4128.718, 4203.077, 16193, 0, []
1627802024.1639, 88, 0, 4249.744, 4155.897, 4170.769, 4135.897, 4205.641, 450, 0, []
1627802024.1719, 89, 0, 4236.923, 4138.974, 4163.077, 4129.231, 4192.308, 450, 0, []
1627802024.1798, 90, 0, 4222.051, 4123.077, 4157.949, 4118.462, 4183.59, 450, 0, []
1627802024.1878, 91, 0, 4214.872, 4145.641, 4155.385, 4127.179, 4184.103, 16193, 0, []
1627802024.1957, 92, 0, 4204.615, 4159.487, 4167.179, 4140, 4172.821, 450, 0, []
1627802024.2034, 93, 0, 4186.154, 4137.949, 4160, 4138.974, 4156.923, 450, 0, []
1627802024.2113, 94, 0, 4174.359, 4132.821, 4154.359, 4133.846, 4145.128, 450, 0, []
1627802024.2191, 95, 0, 4165.641, 4151.795, 4165.128, 4126.667, 4126.154, 16193, 0, []
1627802024.227, 96, 0, 4153.333, 4135.385, 4155.897, 4120, 4113.846, 450, 0, []
1627802024.2348, 97, 0, 4149.744, 4114.359, 4160, 4125.128, 4117.949, 450, 0, []
1627802024.2426, 98, 0, 4151.795, 4139.487, 4166.154, 4136.41, 4116.41, 450, 0, []
1627802024.2504, 99, 0, 4145.128, 4157.949, 4156.41, 4132.821, 4106.154, 16193, 0, []
1627802024.2583, 100, 0, 4136.41, 4136.41, 4158.974, 4119.487, 4098.462, 450, 0, []
1627802024.2661, 101, 0, 4135.897, 4137.949, 4162.051, 4118.974, 4096.923, 450, 0, []
1627802024.2741, 102, 0, 4138.462, 4180.513, 4167.179, 4130.769, 4104.615, 450, 0, []
1627802024.282, 103, 0, 4143.077, 4197.436, 4163.077, 4136.41, 4109.231, 16193, 0, []
1627802024.2899, 104, 0, 4150.256, 4182.564, 4156.41, 4133.333, 4105.128, 450, 0, []
1627802024.2978, 105, 0, 4156.41, 4163.59, 4168.718, 4136.41, 4111.282, 450, 0, []
1627802024.3058, 106, 0, 4165.128, 4168.718, 4169.231, 4148.718, 4122.051, 450, 0, []
1627802024.3137, 107, 0, 4171.795, 4195.897, 4172.308, 4156.923, 4129.231, 16193, 0, []
1627802024.3217, 108, 0, 4171.282, 4194.872, 4172.308, 4148.718, 4134.872, 450, 0, []
1627802024.3295, 109, 0, 4168.205, 4169.744, 4164.615, 4132.308, 4132.821, 450, 0, []
1627802024.3375, 110, 0, 4164.103, 4188.718, 4181.538, 4131.795, 4129.231, 450, 0, []
1627802024.3454, 111, 0, 4153.333, 4224.103, 4181.026, 4139.487, 4126.667, 16193, 0, []
1627802024.3532, 112, 0, 4142.051, 4208.718, 4161.026, 4129.231, 4117.949, 450, 0, []
1627802024.3611, 113, 0, 4137.949, 4200.513, 4145.128, 4115.385, 4108.205, 450, 0, []
1627802024.3688, 114, 0, 4135.385, 4235.897, 4145.128, 4123.077, 4107.692, 450, 0, []
1627802024.3767, 115, 0, 4134.359, 4230.769, 4165.128, 4138.462, 4110.256, 16193, 0, []
1627802024.3845, 116, 0, 4138.462, 4194.872, 4162.564, 4145.641, 4114.872, 450, 0, []
1627802024.3924, 117, 0, 4155.897, 4222.051, 4169.231, 4157.436, 4130.769, 450, 0, []
1627802024.4002, 118, 0, 4169.231, 4275.897, 4192.821, 4171.795, 4142.564, 450, 0, []
1627802024.408, 119, 0, 4166.154, 4270.256, 4183.59, 4171.282, 4141.026, 16193, 0, []
1627802024.4158, 120, 0, 4170.256, 4238.974, 4168.718, 4160.513, 4142.564, 450, 0, []
1627802024.4237, 121, 0, 4185.128, 4244.103, 4162.051, 4153.846, 4150.769, 450, 0, []
1627802024.4315, 122, 0, 4200.513, 4274.359, 4161.026, 4154.359, 4159.487, 450, 0, []
1627802024.4394, 123, 0, 4222.564, 4273.846, 4161.026, 4155.385, 4174.359, 16193, 0, []
1627802024.4471, 124, 0, 4248.718, 4254.359, 4155.897, 4156.41, 4191.282, 450, 0, []
1627802024.4551, 125, 0, 4263.077, 4271.282, 4170.769, 4164.103, 4200, 450, 0, []
1627802024.463, 126, 0, 4274.872, 4313.333, 4174.872, 4185.128, 4218.974, 450, 0, []
1627802024.471, 127, 0, 4293.333, 4327.692, 4167.179, 4205.128, 4250.769, 16193, 0, []
1627802024.4789, 128, 0, 4300.513, 4308.718, 4176.923, 4207.692, 4262.564, 450, 0, []
1627802024.4867, 0, 0, 4304.103, 4302.564, 4182.051, 4198.462, 4257.436, 450, 0, []
1627802024.4947, 1, 0, 4314.359, 4322.051, 4189.231, 4194.872, 4262.564, 450, 0, []
1627802024.5027, 2, 0, 4316.41, 4326.154, 4190.256, 4201.026, 4277.436, 16181, 0, []
1627802024.5106, 3, 0, 4309.744, 4309.744, 4191.282, 4200.513, 4273.846, 450, 0, []
1627802024.5186, 4, 0, 4307.179, 4300.513, 4198.462, 4192.821, 4257.949, 16149, 0, []
1627802024.5264, 5, 0, 4313.846, 4313.846, 4178.974, 4194.872, 4269.231, 450, 0, []
1627802024.5342, 6, 0, 4320, 4320.513, 4175.897, 4200.513, 4289.231, 271, 0, []
1627802024.5421, 7, 0, 4324.103, 4309.744, 4189.744, 4202.051, 4292.821, 450, 0, []
1627802024.5499, 8, 0, 4333.846, 4312.821, 4191.795, 4210.769, 4300, 450, 0, []
1627802024.5578, 9, 0, 4332.821, 4331.282, 4189.744, 4206.667, 4302.564, 16156, 0, []
1627802024.5655, 10, 0, 4316.41, 4328.205, 4179.487, 4182.564, 4278.974, 450, 0, []
1627802024.5734, 11, 0, 4306.154, 4321.538, 4188.205, 4180, 4265.128, 16194, 0, []
1627802024.5812, 12, 0, 4312.308, 4329.744, 4193.333, 4192.821, 4278.974, 450, 0, []
1627802024.5892, 13, 0, 4314.872, 4305.128, 4176.41, 4186.154, 4283.077, 450, 0, []
1627802024.5971, 14, 0, 4307.692, 4281.026, 4177.436, 4181.026, 4274.359, 450, 0, []
1627802024.6049, 15, 0, 4310.769, 4318.462, 4178.462, 4189.231, 4277.949, 16194, 0, []
1627802024.6127, 16, 0, 4315.897, 4338.974, 4173.846, 4187.692, 4282.051, 0, 0, []
1627802024.6207, 17, 0, 4307.692, 4305.641, 4164.615, 4177.949, 4271.795, 0, 0, []
1627802024.6286, 18, 0, 4289.744, 4288.205, 4157.436, 4171.282, 4254.872, 0, 0, []
1627802024.6366, 19, 0, 4281.538, 4289.744, 4170.769, 4165.641, 4243.077, 0, 0, []
1627802024.6444, 20, 0, 4275.385, 4275.385, 4171.795, 4157.949, 4235.897, 0, 0, []
1627802024.6524, 21, 0, 4265.641, 4271.795, 4173.846, 4153.846, 4227.179, 0, 0, []
1627802024.6603, 22, 0, 4262.564, 4283.59, 4181.538, 4159.487, 4226.154, 0, 0, []
1627802024.6683, 23, 0, 4267.692, 4278.974, 4173.333, 4170.769, 4232.821, 0, 0, []
1627802024.6762, 24, 0, 4269.744, 4275.385, 4172.308, 4173.846, 4237.949, 0, 0, []
1627802024.6839, 25, 0, 4267.692, 4297.436, 4161.026, 4164.615, 4233.846, 0, 0, []
1627802024.6918, 26, 0, 4267.692, 4300, 4154.872, 4160.513, 4232.308, 0, 0, []
1627802024.6996, 27, 0, 4261.538, 4272.308, 4161.538, 4166.154, 4235.897, 0, 0, []
1627802024.7075, 28, 0, 4258.462, 4278.462, 4152.821, 4170.769, 4242.564, 0, 0, []
1627802024.7153, 29, 0, 4274.872, 4309.231, 4167.179, 4174.359, 4252.308, 0, 0, []
1627802024.7231, 30, 0, 4284.103, 4301.026, 4186.154, 4178.974, 4255.385, 0, 0, []
1627802024.7309, 31, 0, 4269.744, 4279.487, 4183.59, 4185.128, 4246.667, 0, 0, []
1627802024.7388, 32, 0, 4256.41, 4267.692, 4180, 4186.667, 4243.077, 0, 0, []
1627802024.7466, 33, 0, 4254.359, 4254.359, 4170.769, 4178.462, 4246.667, 0, 0, []
1627802024.7546, 34, 0, 4241.538, 4250.769, 4162.051, 4158.462, 4232.308, 0, 0, []
1627802024.7624, 35, 0, 4233.846, 4252.308, 4143.077, 4148.718, 4213.333, 0, 0, []
1627802024.7704, 36, 0, 4246.667, 4256.923, 4132.821, 4158.974, 4222.051, 0, 0, []
1627802024.7783, 37, 0, 4250.769, 4274.872, 4147.692, 4163.59, 4232.308, 0, 0, []
1627802024.7863, 38, 0, 4247.692, 4284.103, 4141.538, 4153.333, 4233.333, 0, 0, []
1627802024.7942, 39, 0, 4261.026, 4275.385, 4144.103, 4149.231, 4244.103, 0, 0, []
1627802024.8021, 40, 0, 4268.205, 4278.462, 4158.974, 4161.538, 4252.308, 0, 0, []
1627802024.81, 41, 0, 4252.821, 4276.41, 4158.974, 4169.744, 4246.154, 0, 0, []
1627802024.818, 42, 0, 4243.077, 4271.282, 4165.128, 4170.256, 4244.615, 0, 0, []
1627802024.8259, 43, 0, 4236.923, 4270.769, 4171.795, 4174.359, 4244.103, 0, 0, []
1627802024.8337, 44, 0, 4218.974, 4243.077, 4182.564, 4177.949, 4228.718, 0, 0, []
1627802024.8415, 45, 0, 4208.718, 4231.282, 4172.821, 4170.256, 4213.333, 0, 0, []
1627802024.8493, 46, 0, 4211.795, 4258.974, 4149.744, 4152.821, 4201.026, 0, 0, []
1627802024.8572, 47, 0, 4200.513, 4264.615, 4156.41, 4148.718, 4182.051, 0, 0, []
1627802024.865, 48, 0, 4178.974, 4234.872, 4149.231, 4152.821, 4167.179, 0, 0, []
1627802024.8729, 49, 0, 4169.744, 4231.282, 4136.923, 4152.308, 4167.179, 0, 0, []
1627802024.8806, 50, 0, 4165.641, 4255.385, 4151.282, 4158.974, 4173.333, 0, 0, []
1627802024.8885, 51, 0, 4154.872, 4252.308, 4163.077, 4171.795, 4173.846, 0, 0, []
1627802024.8963, 52, 0, 4148.205, 4251.795, 4169.231, 4172.821, 4166.154, 0, 0, []
1627802024.9042, 53, 0, 4144.615, 4264.103, 4166.667, 4169.744, 4158.462, 0, 0, []
1627802024.912, 54, 0, 4127.179, 4250.769, 4172.821, 4170.769, 4142.051, 0, 0, []
1627802024.9199, 55, 0, 4106.154, 4235.385, 4168.718, 4162.051, 4113.333, 0, 0, []
1627802024.9278, 56, 0, 4090.256, 4235.385, 4138.974, 4148.205, 4094.359, 0, 0, []
1627802024.9358, 57, 0, 4068.205, 4218.974, 4133.846, 4143.59, 4082.051, 0, 0, []
1627802024.9437, 58, 0, 4050.256, 4219.487, 4134.872, 4144.615, 4066.154, 0, 0, []
1627802024.9517, 59, 0, 4048.205, 4255.897, 4138.462, 4152.821, 4063.59, 0, 0, []
1627802024.9595, 60, 0, 4050.256, 4268.205, 4149.744, 4165.128, 4073.333, 0, 0, []
1627802024.9675, 61, 0, 4058.462, 4260, 4145.641, 4170.769, 4077.436, 0, 0, []
1627802024.9754, 62, 0, 4071.282, 4265.641, 4155.897, 4172.821, 4077.949, 0, 0, []
1627802024.9834, 63, 0, 4074.872, 4263.077, 4160, 4168.718, 4074.359, 0, 0, []
1627802024.9913, 64, 0, 4070.256, 4261.538, 4152.308, 4161.026, 4056.923, 450, 0, []
1627802024.999, 65, 0, 4057.949, 4271.795, 4157.949, 4161.538, 4037.949, 450, 0, []
1627802025.0069, 66, 0, 4030.256, 4258.462, 4154.872, 4159.487, 4017.949, 16187, 0, []
1627802025.0147, 67, 0, 3998.462, 4233.846, 4143.077, 4142.051, 3986.154, 450, 0, []
1627802025.0226, 68, 0, 3988.205, 4225.641, 4123.077, 4124.615, 3958.462, 16150, 0, []
1627802025.0304, 69, 0, 3990.256, 4228.718, 4128.718, 4130.769, 3947.692, 450, 0, []
1627802025.0383, 70, 0, 3978.974, 4241.538, 4151.795, 4141.026, 3932.821, 276, 0, []
1627802025.046, 71, 0, 3957.949, 4243.59, 4133.333, 4124.103, 3901.538, 450, 0, []
1627802025.0539, 72, 0, 3942.051, 4231.282, 4124.615, 4108.205, 3872.308, 450, 0, []
1627802025.0617, 73, 0, 3930.256, 4232.308, 4137.949, 4125.641, 3851.795, 16157, 0, []
1627802025.0696, 74, 0, 3910.256, 4233.333, 4143.077, 4143.59, 3826.154, 450, 0, []
1627802025.0774, 75, 0, 3875.385, 4217.949, 4149.744, 4131.795, 3785.641, 16200, 0, []
1627802025.0853, 76, 0, 3836.41, 4220, 4133.846, 4114.872, 3740, 450, 0, []
1627802025.0932, 77, 0, 3803.077, 4240.513, 4117.436, 4104.615, 3697.949, 450, 0, []
1627802025.1012, 78, 0, 3769.231, 4223.59, 4114.359, 4091.795, 3649.744, 450, 0, []
1627802025.1091, 79, 0, 3745.641, 4186.154, 4114.359, 4083.59, 3612.821, 16200, 0, []
1627802025.1171, 80, 0, 3737.436, 4187.179, 4124.615, 4082.051, 3601.538, 450, 0, []
1627802025.1249, 81, 0, 3711.282, 4208.718, 4114.872, 4074.359, 3578.462, 450, 0, []
1627802025.1329, 82, 0, 3680.513, 4201.026, 4108.718, 4070.769, 3545.641, 450, 0, []
1627802025.1408, 83, 0, 3675.385, 4177.949, 4117.436, 4085.128, 3550.769, 16200, 0, []
1627802025.1486, 84, 0, 3675.385, 4184.615, 4118.974, 4104.615, 3573.846, 450, 0, []
1627802025.1565, 85, 0, 3667.692, 4207.692, 4137.436, 4110.256, 3572.308, 450, 0, []
1627802025.1642, 86, 0, 3659.487, 4205.641, 4141.026, 4098.974, 3557.436, 450, 0, []
1627802025.1721, 87, 0, 3641.026, 4184.103, 4128.205, 4084.103, 3541.026, 16200, 0, []
1627802025.1799, 88, 0, 3621.026, 4170.256, 4125.641, 4083.077, 3527.692, 450, 0, []
1627802025.1878, 89, 0, 3615.385, 4163.077, 4121.538, 4092.821, 3529.231, 450, 0, []
1627802025.1956, 90, 0, 3614.872, 4154.872, 4124.103, 4092.821, 3540, 450, 0, []
1627802025.2034, 91, 0, 3625.641, 4151.795, 4123.077, 4091.795, 3556.923, 16200, 0, []
1627802025.2112, 92, 0, 3648.718, 4152.821, 4128.718, 4102.051, 3581.026, 450, 0, []
1627802025.2192, 93, 0, 3653.846, 4160, 4140, 4106.154, 3592.308, 450, 0, []
1627802025.2271, 94, 0, 3641.026, 4175.897, 4123.077, 4093.846, 3581.538, 450, 0, []
1627802025.2351, 95, 0, 3631.795, 4185.641, 4105.641, 4085.641, 3572.821, 16200, 0, []
1627802025.2429, 96, 0, 3633.846, 4178.462, 4097.436, 4095.385, 3582.051, 450, 0, []
1627802025.2509, 97, 0, 3644.615, 4164.615, 4112.821, 4108.718, 3603.077, 450, 0, []
1627802025.2588, 98, 0, 3653.846, 4150.769, 4138.462, 4110.769, 3614.359, 450, 0, []
1627802025.2668, 99, 0, 3652.821, 4156.41, 4129.231, 4105.641, 3610.256, 16200, 0, []
1627802025.2747, 100, 0, 3653.333, 4177.436, 4124.615, 4105.128, 3610.256, 450, 0, []
1627802025.2826, 101, 0, 3668.205, 4180, 4129.231, 4115.385, 3629.744, 450, 0, []
1627802025.2905, 102, 0, 3686.667, 4166.154, 4126.667, 4119.487, 3651.282, 450, 0, []
1627802025.2985, 103, 0, 3674.359, 4155.897, 4129.744, 4107.692, 3643.077, 16200, 0, []
1627802025.3064, 104, 0, 3649.231, 4161.026, 4121.026, 4090.256, 3615.897, 450, 0, []
1627802025.3142, 105, 0, 3652.308, 4162.564, 4118.462, 4077.436, 3602.564, 450, 0, []
1627802025.322, 106, 0, 3668.718, 4153.333, 4115.897, 4075.897, 3602.051, 450, 0, []
1627802025.3298, 107, 0, 3678.462, 4160.513, 4118.462, 4085.641, 3600.513, 16200, 0, []
1627802025.3377, 108, 0, 3689.744, 4187.692, 4132.308, 4091.282, 3599.487, 450, 0, []
1627802025.3455, 109, 0, 3700, 4193.846, 4119.487, 4087.179, 3604.103, 450, 0, []
1627802025.3534, 110, 0, 3700, 4177.949, 4117.436, 4087.692, 3610.256, 450, 0, []
1627802025.3611, 111, 0, 3704.103, 4174.359, 4127.692, 4092.308, 3621.026, 16200, 0, []
1627802025.3691, 112, 0, 3707.179, 4154.872, 4118.974, 4093.333, 3632.308, 450, 0, []
1627802025.377, 113, 0, 3706.667, 4131.795, 4124.103, 4096.41, 3636.923, 450, 0, []
1627802025.385, 114, 0, 3712.821, 4152.821, 4129.744, 4095.897, 3638.974, 450, 0, []
1627802025.3929, 115, 0, 3710.256, 4187.692, 4122.564, 4082.564, 3633.846, 16200, 0, []
1627802025.4008, 116, 0, 3715.385, 4183.59, 4118.974, 4076.923, 3638.462, 450, 0, []
1627802025.4087, 117, 0, 3734.872, 4161.538, 4125.128, 4088.205, 3659.487, 450, 0, []
1627802025.4167, 118, 0, 3742.051, 4168.718, 4138.462, 4095.897, 3672.308, 450, 0, []
1627802025.4246, 119, 0, 3737.949, 4193.846, 4128.205, 4091.795, 3673.846, 16200, 0, []
1627802025.4326, 120, 0, 3749.231, 4187.179, 4125.641, 4089.744, 3680.513, 450, 0, []
1627802025.4404, 121, 0, 3773.846, 4158.462, 4147.692, 4105.128, 3704.615, 450, 0, []
1627802025.4484, 122, 0, 3789.744, 4171.795, 4152.821, 4126.154, 3735.385, 450, 0, []
1627802025.4563, 123, 0, 3790.769, 4189.231, 4148.205, 4126.154, 3746.154, 16200, 0, []
1627802025.4641, 124, 0, 3782.051, 4167.179, 4130.769, 4107.179, 3735.385, 450, 0, []
1627802025.472, 125, 0, 3784.615, 4171.282, 4131.795, 4106.667, 3737.436, 450, 0, []
1627802025.4797, 126, 0, 3800.513, 4187.692, 4152.308, 4123.59, 3753.846, 450, 0, []
1627802025.4876, 127, 0, 3809.744, 4175.385, 4144.103, 4125.128, 3757.436, 16200, 0, []
1627802025.4954, 128, 0, 3809.744, 4184.615, 4140.513, 4120, 3758.974, 450, 0, []
1627802025.5033, 0, 0, 3814.872, 4195.897, 4142.051, 4121.026, 3769.744, 450, 0, []
1627802025.5111, 1, 0, 3824.615, 4170.256, 4139.487, 4119.487, 3775.385, 450, 0, []
1627802025.519, 2, 0, 3814.359, 4175.897, 4130.769, 4108.205, 3765.128, 16193, 0, []
1627802025.5269, 3, 0, 3807.692, 4207.179, 4109.231, 4107.179, 3764.615, 450, 0, []
1627802025.5348, 4, 0, 3836.41, 4185.641, 4124.615, 4126.667, 3796.41, 16152, 0, []
1627802025.5426, 5, 0, 3864.615, 4162.564, 4141.026, 4138.974, 3824.103, 450, 0, []
1627802025.5506, 6, 0, 3865.128, 4199.487, 4130.769, 4137.436, 3823.59, 277, 0, []
1627802025.5584, 7, 0, 3876.41, 4224.103, 4134.872, 4137.949, 3832.821, 450, 0, []
1627802025.5664, 8, 0, 3914.359, 4189.231, 4134.872, 4132.308, 3867.179, 450, 0, []
1627802025.5743, 9, 0, 3958.462, 4169.231, 4131.282, 4119.487, 3904.103, 16157, 0, []
1627802025.5823, 10, 0, 4021.538, 4208.718, 4133.333, 4125.128, 3961.538, 450, 0, []
1627802025.5902, 11, 0, 4107.179, 4228.205, 4133.846, 4138.462, 4046.154, 16197, 0, []
1627802025.5981, 12, 0, 4188.205, 4201.538, 4138.974, 4139.487, 4119.487, 450, 0, []
1627802025.606, 13, 0, 4253.846, 4202.051, 4137.949, 4145.128, 4183.077, 450, 0, []
1627802025.6138, 14, 0, 4301.026, 4218.974, 4153.846, 4159.487, 4248.718, 450, 0, []
1627802025.6217, 15, 0, 4328.205, 4197.949, 4166.667, 4168.205, 4293.846, 16197, 0, []
1627802025.6295, 16, 0, 4340.513, 4196.41, 4158.462, 4176.41, 4326.154, 0, 0, []
1627802025.6373, 17, 0, 4349.231, 4237.436, 4172.821, 4193.846, 4358.462, 0, 0, []
1627802025.6451, 18, 0, 4345.641, 4226.667, 4177.949, 4207.179, 4375.897, 0, 0, []
1627802025.653, 19, 0, 4325.641, 4196.923, 4168.718, 4203.59, 4380, 0, 0, []
1627802025.6608, 20, 0, 4302.564, 4229.231, 4165.641, 4202.564, 4382.564, 0, 0, []
1627802025.6687, 21, 0, 4283.59, 4246.154, 4163.077, 4216.923, 4376.41, 0, 0, []
1627802025.6764, 22, 0, 4261.538, 4215.897, 4166.154, 4222.051, 4362.051, 0, 0, []
1627802025.6844, 23, 0, 4243.59, 4215.385, 4158.974, 4215.385, 4354.872, 0, 0, []
1627802025.6923, 24, 0, 4243.59, 4234.359, 4170.256, 4224.103, 4363.59, 0, 0, []
1627802025.7003, 25, 0, 4251.795, 4226.667, 4190.256, 4236.923, 4382.051, 0, 0, []
1627802025.7082, 26, 0, 4244.615, 4202.051, 4172.308, 4227.692, 4381.538, 0, 0, []
1627802025.7161, 27, 0, 4228.718, 4196.923, 4169.744, 4220.513, 4365.641, 0, 0, []
1627802025.724, 28, 0, 4227.692, 4216.41, 4178.974, 4231.795, 4371.282, 0, 0, []
1627802025.732, 29, 0, 4238.974, 4225.128, 4168.718, 4229.231, 4385.641, 0, 0, []
1627802025.7399, 30, 0, 4242.564, 4218.974, 4156.923, 4210.769, 4379.487, 0, 0, []
1627802025.7479, 31, 0, 4254.359, 4209.744, 4157.436, 4215.385, 4382.564, 0, 0, []
1627802025.7557, 32, 0, 4288.718, 4206.154, 4183.59, 4239.487, 4413.846, 0, 0, []
1627802025.7637, 33, 0, 4311.282, 4222.564, 4185.128, 4244.103, 4440, 0, 0, []
1627802025.7716, 34, 0, 4303.59, 4228.205, 4164.103, 4228.205, 4441.538, 0, 0, []
1627802025.7794, 35, 0, 4305.128, 4200, 4168.205, 4227.179, 4443.59, 0, 0, []
1627802025.7873, 36, 0, 4332.308, 4194.359, 4173.333, 4244.615, 4464.103, 0, 0, []
1627802025.7951, 37, 0, 4354.872, 4231.795, 4182.564, 4254.359, 4485.128, 0, 0, []
1627802025.8029, 38, 0, 4361.026, 4243.59, 4179.487, 4251.282, 4494.359, 0, 0, []
1627802025.8107, 39, 0, 4356.41, 4215.385, 4166.667, 4246.667, 4499.487, 0, 0, []
1627802025.8186, 40, 0, 4356.41, 4195.385, 4175.897, 4245.641, 4507.692, 0, 0, []
1627802025.8264, 41, 0, 4365.128, 4221.026, 4182.051, 4246.667, 4511.282, 0, 0, []
1627802025.8343, 42, 0, 4369.744, 4252.821, 4186.667, 4245.641, 4507.179, 0, 0, []
1627802025.842, 43, 0, 4367.692, 4229.744, 4187.692, 4245.641, 4509.744, 0, 0, []
1627802025.85, 44, 0, 4365.641, 4220, 4187.692, 4252.308, 4511.795, 0, 0, []
1627802025.8579, 45, 0, 4357.436, 4250.769, 4196.41, 4256.923, 4497.949, 0, 0, []
1627802025.8659, 46, 0, 4349.744, 4249.744, 4181.538, 4245.128, 4485.641, 0, 0, []
1627802025.8738, 47, 0, 4351.795, 4242.051, 4173.846, 4232.821, 4489.744, 0, 0, []
1627802025.8817, 48, 0, 4352.821, 4251.282, 4174.872, 4237.949, 4490.769, 0, 0, []
1627802025.8896, 49, 0, 4345.641, 4240.513, 4163.59, 4245.641, 4483.077, 0, 0, []
1627802025.8976, 50, 0, 4327.692, 4241.026, 4176.923, 4247.692, 4476.923, 0, 0, []
1627802025.9055, 51, 0, 4313.846, 4269.231, 4183.59, 4251.282, 4460, 0, 0, []
1627802025.9135, 52, 0, 4311.795, 4268.718, 4176.923, 4244.103, 4440, 0, 0, []
1627802025.9213, 53, 0, 4312.308, 4243.59, 4183.59, 4234.872, 4440, 0, 0, []
1627802025.9291, 54, 0, 4318.462, 4237.436, 4195.385, 4238.974, 4448.205, 0, 0, []
1627802025.937, 55, 0, 4326.154, 4258.974, 4204.103, 4242.051, 4447.692, 0, 0, []
1627802025.9448, 56, 0, 4327.692, 4274.359, 4188.718, 4234.872, 4449.744, 0, 0, []
1627802025.9527, 57, 0, 4329.744, 4256.41, 4188.718, 4243.077, 4457.436, 0, 0, []
1627802025.9604, 58, 0, 4340.513, 4248.718, 4203.59, 4264.615, 4465.128, 0, 0, []
1627802025.9683, 59, 0, 4347.692, 4256.923, 4193.333, 4269.744, 4475.897, 0, 0, []
1627802025.9761, 60, 0, 4338.974, 4250.256, 4191.282, 4258.462, 4474.872, 0, 0, []
1627802025.984, 61, 0, 4325.128, 4268.205, 4189.231, 4243.077, 4451.282, 0, 0, []
1627802025.9918, 62, 0, 4330.256, 4295.385, 4188.205, 4229.744, 4435.385, 0, 0, []
1627802025.9996, 63, 0, 4341.026, 4270.769, 4186.154, 4213.333, 4438.462, 0, 0, []
1627802026.0074, 64, 0, 4339.487, 4261.026, 4165.641, 4192.821, 4441.538, 450, 0, []
1627802026.0154, 65, 0, 4353.846, 4288.205, 4172.821, 4196.41, 4452.308, 450, 0, []
1627802026.0233, 66, 0, 4388.718, 4295.897, 4191.282, 4232.821, 4478.974, 16190, 0, []
1627802026.0313, 67, 0, 4410.769, 4298.974, 4191.795, 4266.154, 4502.051, 450, 0, []
1627802026.0391, 68, 0, 4408.205, 4297.436, 4187.179, 4272.821, 4508.718, 16152, 0, []
1627802026.0471, 69, 0, 4401.538, 4296.41, 4175.385, 4267.692, 4504.103, 450, 0, []
1627802026.055, 70, 0, 4406.667, 4310.256, 4182.051, 4256.923, 4498.462, 276, 0, []
1627802026.063, 71, 0, 4416.41, 4297.436, 4188.205, 4235.385, 4488.205, 450, 0, []
1627802026.0709, 72, 0, 4418.974, 4265.641, 4180.513, 4213.333, 4476.41, 450, 0, []
1627802026.0788, 73, 0, 4412.821, 4279.487, 4185.641, 4201.026, 4478.974, 16157, 0, []
1627802026.0867, 74, 0, 4405.128, 4313.333, 4186.154, 4203.077, 4491.795, 450, 0, []
1627802026.0945, 75, 0, 4397.436, 4317.949, 4195.897, 4225.641, 4494.359, 16162, 0, []
1627802026.1024, 76, 0, 4388.718, 4304.615, 4200.513, 4254.872, 4486.667, 450, 0, []
1627802026.1102, 77, 0, 4357.949, 4284.615, 4184.103, 4263.077, 4468.205, 450, 0, []
1627802026.118, 78, 0, 4325.128, 4278.974, 4180.513, 4252.821, 4440.513, 450, 0, []
1627802026.1258, 79, 0, 4329.744, 4268.718, 4175.385, 4249.744, 4434.872, 16162, 0, []
1627802026.1337, 80, 0, 4334.872, 4243.59, 4174.359, 4251.282, 4434.872, 450, 0, []
1627802026.1415, 81, 0, 4312.308, 4253.333, 4176.923, 4234.359, 4401.026, 450, 0, []
1627802026.1494, 82, 0, 4303.59, 4270.769, 4173.846, 4212.308, 4367.692, 450, 0, []
1627802026.1571, 83, 0, 4315.385, 4266.154, 4185.641, 4213.333, 4361.538, 16162, 0, []
1627802026.1651, 84, 0, 4304.615, 4280, 4185.641, 4223.077, 4350.256, 450, 0, []
1627802026.173, 85, 0, 4279.487, 4285.128, 4183.077, 4216.923, 4331.282, 450, 0, []
1627802026.181, 86, 0, 4274.359, 4264.615, 4189.231, 4213.333, 4335.897, 450, 0, []
1627802026.1889, 87, 0, 4281.538, 4284.103, 4187.692, 4224.103, 4344.103, 16162, 0, []
1627802026.1968, 88, 0, 4287.692, 4309.231, 4186.154, 4230.769, 4343.59, 450, 0, []
1627802026.2047, 89, 0, 4285.641, 4285.641, 4174.359, 4229.231, 4345.128, 450, 0, []
1627802026.2127, 90, 0, 4269.744, 4266.667, 4172.308, 4225.128, 4329.231, 450, 0, []
1627802026.2206, 91, 0, 4256.923, 4255.897, 4177.436, 4218.462, 4306.667, 16162, 0, []
1627802026.2286, 92, 0, 4263.59, 4245.128, 4169.231, 4216.41, 4302.564, 450, 0, []
1627802026.2364, 93, 0, 4271.282, 4276.41, 4185.128, 4221.026, 4298.974, 450, 0, []
1627802026.2442, 94, 0, 4261.026, 4298.462, 4190.256, 4217.436, 4281.538, 450, 0, []
1627802026.2521, 95, 0, 4248.718, 4281.538, 4180.513, 4212.308, 4276.41, 16162, 0, []
1627802026.2599, 96, 0, 4243.077, 4280.513, 4179.487, 4218.974, 4275.897, 450, 0, []
1627802026.2678, 97, 0, 4243.59, 4283.077, 4159.487, 4214.872, 4266.154, 450, 0, []
1627802026.2755, 98, 0, 4255.385, 4276.923, 4157.949, 4202.564, 4269.231, 450, 0, []
1627802026.2834, 99, 0, 4274.359, 4284.103, 4172.821, 4206.154, 4280, 16162, 0, []
1627802026.2912, 100, 0, 4293.333, 4277.949, 4178.462, 4212.308, 4282.051, 450, 0, []
1627802026.2991, 101, 0, 4303.59, 4255.385, 4184.615, 4204.103, 4284.103, 450, 0, []
1627802026.3069, 102, 0, 4302.051, 4260.513, 4175.897, 4198.462, 4289.744, 450, 0, []
1627802026.3147, 103, 0, 4296.41, 4289.744, 4176.41, 4197.949, 4286.154, 16162, 0, []
1627802026.3225, 104, 0, 4301.538, 4297.436, 4179.487, 4190.769, 4286.154, 450, 0, []
1627802026.3305, 105, 0, 4316.41, 4278.974, 4178.462, 4192.821, 4298.974, 450, 0, []
1627802026.3384, 106, 0, 4322.051, 4259.487, 4185.128, 4211.282, 4306.667, 450, 0, []
1627802026.3464, 107, 0, 4324.103, 4266.154, 4165.641, 4217.949, 4315.897, 16162, 0, []
1627802026.3542, 108, 0, 4336.41, 4292.821, 4155.897, 4212.821, 4332.308, 450, 0, []
1627802026.3622, 109, 0, 4344.615, 4303.077, 4168.718, 4215.385, 4336.923, 450, 0, []
1627802026.3701, 110, 0, 4332.821, 4298.462, 4167.692, 4213.846, 4337.436, 450, 0, []
1627802026.3781, 111, 0, 4322.051, 4290.769, 4172.308, 4208.205, 4352.308, 16162, 0, []
1627802026.386, 112, 0, 4325.641, 4279.487, 4174.359, 4206.667, 4356.41, 450, 0, []
1627802026.3939, 113, 0, 4327.692, 4282.051, 4173.846, 4201.538, 4344.103, 450, 0, []
1627802026.4018, 114, 0, 4326.667, 4305.128, 4176.41, 4199.487, 4350.256, 450, 0, []
1627802026.4096, 115, 0, 4329.231, 4318.462, 4182.564, 4212.308, 4365.128, 16162, 0, []
1627802026.4175, 116, 0, 4334.872, 4301.538, 4193.333, 4225.641, 4369.231, 450, 0, []
1627802026.4253, 117, 0, 4335.385, 4276.923, 4183.077, 4230.769, 4374.872, 450, 0, []
1627802026.4331, 118, 0, 4320.513, 4280.513, 4181.026, 4238.462, 4369.231, 450, 0, []
1627802026.4409, 119, 0, 4302.051, 4302.564, 4184.615, 4233.333, 4345.128, 16162, 0, []
1627802026.4488, 120, 0, 4290.256, 4298.974, 4174.359, 4218.462, 4333.846, 450, 0, []
1627802026.4566, 121, 0, 4280.513, 4293.846, 4185.128, 4221.538, 4335.897, 450, 0, []
1627802026.4646, 122, 0, 4277.436, 4310.769, 4183.077, 4228.718, 4332.821, 450, 0, []
1627802026.4724, 123, 0, 4281.026, 4299.487, 4170.769, 4227.179, 4325.641, 16162, 0, []
1627802026.4804, 124, 0, 4274.872, 4286.154, 4178.462, 4224.615, 4311.282, 450, 0, []
1627802026.4883, 125, 0, 4272.821, 4314.872, 4186.154, 4226.667, 4304.615, 450, 0, []
1627802026.4962, 126, 0, 4288.205, 4334.359, 4202.051, 4239.487, 4324.615, 450, 0, []
1627802026.5042, 127, 0, 4296.41, 4311.795, 4200.513, 4248.205, 4334.359, 16162, 0, []
1627802026.5122, 128, 0, 4284.615, 4292.821, 4186.154, 4242.051, 4318.462, 450, 0, []
1627802026.52, 0, 0, 4269.231, 4301.538, 4185.641, 4236.923, 4309.231, 450, 0, []
1627802026.528, 1, 0, 4255.897, 4314.872, 4177.436, 4236.41, 4303.077, 450, 0, []
1627802026.5359, 2, 0, 4243.077, 4308.718, 4180, 4231.795, 4286.154, 16190, 0, []
1627802026.5437, 3, 0, 4231.282, 4273.333, 4178.974, 4225.128, 4277.949, 450, 0, []
1627802026.5516, 4, 0, 4218.462, 4251.282, 4170.769, 4215.385, 4276.41, 16152, 0, []
1627802026.5593, 5, 0, 4207.179, 4279.487, 4179.487, 4208.205, 4265.128, 450, 0, []
1627802026.5672, 6, 0, 4214.872, 4313.333, 4184.615, 4217.436, 4266.667, 276, 0, []
1627802026.575, 7, 0, 4242.051, 4298.462, 4196.41, 4236.923, 4290.769, 450, 0, []
1627802026.5829, 8, 0, 4257.949, 4286.667, 4199.487, 4243.59, 4304.103, 450, 0, []
1627802026.5907, 9, 0, 4251.282, 4314.872, 4180, 4228.718, 4289.744, 16157, 0, []
1627802026.5985, 10, 0, 4237.436, 4301.026, 4176.923, 4211.795, 4264.103, 450, 0, []
1627802026.6063, 11, 0, 4232.821, 4266.667, 4182.564, 4217.949, 4262.564, 16186, 0, []
1627802026.6142, 12, 0, 4240.513, 4290.256, 4197.949, 4235.897, 4287.179, 450, 0, []
1627802026.622, 13, 0, 4247.179, 4302.564, 4201.026, 4236.41, 4291.795, 450, 0, []
1627802026.63, 14, 0, 4247.692, 4274.359, 4186.667, 4223.077, 4275.385, 450, 0, []
1627802026.6378, 15, 0, 4257.436, 4273.846, 4178.974, 4214.359, 4285.128, 16186, 0, []
1627802026.6458, 16, 0, 4268.205, 4286.154, 4163.59, 4214.359, 4308.205, 0, 0, []
1627802026.6537, 17, 0, 4264.103, 4266.154, 4173.846, 4221.538, 4306.667, 0, 0, []
1627802026.6617, 18, 0, 4268.205, 4257.436, 4195.897, 4228.205, 4303.077, 0, 0, []
1627802026.6696, 19, 0, 4282.564, 4276.923, 4184.615, 4229.744, 4319.487, 0, 0, []
1627802026.6775, 20, 0, 4284.103, 4287.179, 4178.462, 4229.231, 4332.821, 0, 0, []
1627802026.6854, 21, 0, 4284.103, 4294.872, 4183.077, 4233.333, 4334.359, 0, 0, []
1627802026.6934, 22, 0, 4283.077, 4300, 4191.795, 4232.821, 4326.667, 0, 0, []
1627802026.7013, 23, 0, 4274.872, 4293.333, 4194.872, 4230.769, 4321.026, 0, 0, []
1627802026.7091, 24, 0, 4281.538, 4287.692, 4192.308, 4240, 4337.436, 0, 0, []
1627802026.7169, 25, 0, 4292.821, 4284.615, 4205.128, 4242.564, 4356.41, 0, 0, []
1627802026.7247, 26, 0, 4282.051, 4282.051, 4201.538, 4229.231, 4356.41, 0, 0, []
1627802026.7326, 27, 0, 4266.154, 4276.41, 4191.282, 4217.436, 4338.462, 0, 0, []
1627802026.7404, 28, 0, 4259.487, 4268.718, 4188.718, 4209.744, 4316.923, 0, 0, []
1627802026.7483, 29, 0, 4251.795, 4275.897, 4179.487, 4204.615, 4307.179, 0, 0, []
1627802026.756, 30, 0, 4245.641, 4321.026, 4192.821, 4212.821, 4309.744, 0, 0, []
1627802026.7639, 31, 0, 4250.769, 4349.231, 4205.641, 4232.308, 4310.256, 0, 0, []
1627802026.7717, 32, 0, 4254.872, 4316.41, 4206.667, 4245.641, 4305.641, 0, 0, []
1627802026.7797, 33, 0, 4243.077, 4306.667, 4210.769, 4248.205, 4302.564, 0, 0, []
1627802026.7876, 34, 0, 4224.103, 4333.333, 4193.333, 4232.821, 4277.436, 0, 0, []
1627802026.7955, 35, 0, 4209.231, 4308.718, 4173.846, 4213.333, 4248.205, 0, 0, []
1627802026.8034, 36, 0, 4203.077, 4271.795, 4154.872, 4206.154, 4241.538, 0, 0, []
1627802026.8114, 37, 0, 4197.949, 4303.59, 4149.744, 4202.564, 4237.436, 0, 0, []
1627802026.8193, 38, 0, 4191.795, 4324.615, 4170.256, 4200.513, 4228.718, 0, 0, []
1627802026.8273, 39, 0, 4185.128, 4297.436, 4157.436, 4199.487, 4218.974, 0, 0, []
1627802026.8351, 40, 0, 4186.154, 4313.333, 4145.128, 4195.897, 4213.333, 0, 0, []
1627802026.8431, 41, 0, 4189.744, 4341.026, 4162.051, 4206.667, 4219.487, 0, 0, []
1627802026.851, 42, 0, 4191.795, 4316.41, 4173.846, 4225.641, 4224.103, 0, 0, []
1627802026.8588, 43, 0, 4199.487, 4303.077, 4182.564, 4227.179, 4215.385, 0, 0, []
1627802026.8667, 44, 0, 4200, 4351.282, 4178.462, 4216.923, 4211.795, 0, 0, []
1627802026.8744, 45, 0, 4189.231, 4371.795, 4180, 4219.487, 4217.949, 0, 0, []
1627802026.8823, 46, 0, 4187.692, 4325.641, 4174.872, 4219.487, 4218.462, 0, 0, []
1627802026.8901, 47, 0, 4189.744, 4293.333, 4162.051, 4205.128, 4212.821, 0, 0, []
1627802026.898, 48, 0, 4183.59, 4315.385, 4167.692, 4201.538, 4206.154, 0, 0, []
1627802026.9058, 49, 0, 4190.769, 4350.256, 4164.103, 4213.333, 4208.718, 0, 0, []
1627802026.9136, 50, 0, 4212.308, 4341.026, 4168.718, 4222.051, 4226.667, 0, 0, []
1627802026.9214, 51, 0, 4217.949, 4313.846, 4178.974, 4222.564, 4234.359, 0, 0, []
1627802026.9294, 52, 0, 4198.462, 4324.615, 4177.949, 4225.128, 4216.41, 0, 0, []
1627802026.9373, 53, 0, 4183.59, 4343.59, 4189.744, 4229.231, 4196.923, 0, 0, []
1627802026.9453, 54, 0, 4197.436, 4313.846, 4189.231, 4223.59, 4199.487, 0, 0, []
1627802026.9531, 55, 0, 4206.154, 4284.103, 4179.487, 4217.436, 4200.513, 0, 0, []
1627802026.9611, 56, 0, 4185.641, 4307.179, 4175.385, 4213.333, 4176.41, 0, 0, []
1627802026.969, 57, 0, 4171.795, 4321.026, 4168.205, 4207.179, 4163.59, 0, 0, []
1627802026.977, 58, 0, 4178.974, 4293.846, 4171.795, 4200.513, 4168.718, 0, 0, []
1627802026.9849, 59, 0, 4185.128, 4280, 4171.795, 4202.564, 4167.692, 0, 0, []
1627802026.9928, 60, 0, 4187.692, 4311.282, 4177.436, 4213.846, 4180.513, 0, 0, []
1627802027.0007, 61, 0, 4185.128, 4330.256, 4184.103, 4216.41, 4196.923, 0, 0, []
1627802027.0085, 62, 0, 4185.641, 4297.949, 4171.795, 4213.333, 4192.821, 0, 0, []
1627802027.0164, 63, 0, 4193.846, 4281.026, 4186.667, 4216.923, 4182.051, 0, 0, []
1627802027.0242, 64, 0, 4181.538, 4309.744, 4192.821, 4214.872, 4172.821, 450, 0, []
1627802027.032, 65, 0, 4171.282, 4302.564, 4177.436, 4212.308, 4170.769, 450, 0, []
1627802027.0398, 66, 0, 4189.744, 4278.462, 4181.538, 4219.487, 4178.974, 16189, 0, []
1627802027.0477, 67, 0, 4206.154, 4301.026, 4182.564, 4224.615, 4186.154, 450, 0, []
1627802027.0555, 68, 0, 4208.205, 4317.949, 4187.692, 4226.667, 4195.897, 16154, 0, []
1627802027.0634, 69, 0, 4208.205, 4304.615, 4184.103, 4232.821, 4206.667, 450, 0, []
1627802027.0711, 70, 0, 4198.974, 4292.821, 4169.231, 4225.641, 4202.051, 270, 0, []
1627802027.079, 71, 0, 4194.359, 4298.462, 4167.692, 4212.821, 4191.282, 450, 0, []
1627802027.0868, 72, 0, 4212.821, 4304.103, 4164.103, 4215.897, 4202.051, 450, 0, []
1627802027.0948, 73, 0, 4220.513, 4284.103, 4172.308, 4216.923, 4210.256, 16157, 0, []
1627802027.1027, 74, 0, 4219.487, 4275.897, 4181.538, 4206.667, 4210.769, 450, 0, []
1627802027.1106, 75, 0, 4245.641, 4314.359, 4183.59, 4212.821, 4233.846, 16189, 0, []
1627802027.1185, 76, 0, 4265.641, 4337.949, 4193.846, 4222.051, 4256.923, 450, 0, []
1627802027.1265, 77, 0, 4255.897, 4312.821, 4185.128, 4212.308, 4253.846, 450, 0, []
1627802027.1344, 78, 0, 4242.051, 4301.026, 4173.333, 4205.128, 4240, 450, 0, []
1627802027.1424, 79, 0, 4246.667, 4314.359, 4173.846, 4221.538, 4245.128, 16189, 0, []
1627802027.1502, 80, 0, 4256.923, 4316.41, 4174.872, 4232.821, 4267.692, 450, 0, []
1627802027.1582, 81, 0, 4260, 4311.795, 4178.974, 4223.077, 4281.538, 450, 0, []
1627802027.1661, 82, 0, 4259.487, 4303.59, 4174.872, 4222.051, 4278.974, 450, 0, []
1627802027.1739, 83, 0, 4261.538, 4297.436, 4186.667, 4230.769, 4280.513, 16189, 0, []
1627802027.1818, 84, 0, 4262.051, 4298.462, 4192.821, 4231.282, 4295.385, 450, 0, []
1627802027.1895, 85, 0, 4250.256, 4289.744, 4175.385, 4226.667, 4289.744, 450, 0, []
1627802027.1974, 86, 0, 4244.103, 4298.974, 4183.077, 4229.231, 4273.333, 450, 0, []
1627802027.2052, 87, 0, 4254.872, 4315.897, 4189.231, 4229.231, 4280.513, 16189, 0, []
1627802027.2131, 88, 0, 4264.103, 4301.026, 4187.179, 4225.128, 4282.051, 450, 0, []
1627802027.2209, 89, 0, 4266.154, 4290.256, 4194.872, 4227.179, 4266.667, 450, 0, []
1627802027.2288, 90, 0, 4257.436, 4307.179, 4194.359, 4232.308, 4259.487, 450, 0, []
1627802027.2367, 91, 0, 4241.026, 4306.667, 4192.308, 4232.821, 4252.821, 16189, 0, []
1627802027.2447, 92, 0, 4222.051, 4291.282, 4177.436, 4225.128, 4231.795, 450, 0, []
1627802027.2526, 93, 0, 4205.641, 4295.385, 4172.308, 4217.949, 4213.333, 450, 0, []
1627802027.2606, 94, 0, 4199.487, 4274.359, 4179.487, 4215.385, 4212.308, 450, 0, []
1627802027.2685, 95, 0, 4200.513, 4253.846, 4168.718, 4214.872, 4214.359, 16189, 0, []
1627802027.2764, 96, 0, 4202.051, 4288.718, 4175.897, 4215.897, 4207.692, 450, 0, []
1627802027.2843, 97, 0, 4197.436, 4298.974, 4183.077, 4211.282, 4202.564, 450, 0, []
1627802027.2923, 98, 0, 4189.744, 4275.897, 4175.385, 4202.051, 4202.051, 450, 0, []
1627802027.3002, 99, 0, 4183.59, 4284.103, 4172.308, 4202.564, 4199.487, 16189, 0, []
1627802027.3082, 100, 0, 4185.641, 4297.949, 4167.179, 4214.359, 4199.487, 450, 0, []
1627802027.316, 101, 0, 4187.692, 4282.051, 4183.077, 4216.923, 4195.897, 450, 0, []
1627802027.324, 102, 0, 4185.128, 4266.154, 4196.923, 4210.769, 4186.667, 450, 0, []
1627802027.3319, 103, 0, 4185.128, 4266.154, 4193.846, 4212.308, 4182.564, 16189, 0, []
1627802027.3397, 104, 0, 4172.821, 4265.128, 4194.359, 4210.769, 4178.462, 450, 0, []
1627802027.3476, 105, 0, 4158.462, 4266.667, 4183.077, 4201.538, 4167.692, 450, 0, []
1627802027.3553, 106, 0, 4153.333, 4256.923, 4177.949, 4199.487, 4157.949, 450, 0, []
1627802027.3632, 107, 0, 4140, 4251.795, 4174.872, 4202.051, 4150.769, 16189, 0, []
1627802027.371, 108, 0, 4127.692, 4264.615, 4161.538, 4199.487, 4141.538, 450, 0, []
1627802027.3789, 109, 0, 4132.308, 4265.641, 4167.692, 4198.462, 4139.487, 450, 0, []
1627802027.3867, 110, 0, 4135.385, 4254.359, 4166.667, 4201.026, 4142.564, 450, 0, []
1627802027.3946, 111, 0, 4127.692, 4240.513, 4168.718, 4200.513, 4140, 16189, 0, []
1627802027.4025, 112, 0, 4125.641, 4244.615, 4184.615, 4201.026, 4138.462, 450, 0, []
1627802027.4105, 113, 0, 4127.692, 4265.128, 4187.179, 4203.59, 4145.641, 450, 0, []
1627802027.4184, 114, 0, 4122.564, 4277.436, 4189.231, 4201.538, 4147.179, 450, 0, []
1627802027.4264, 115, 0, 4112.308, 4253.846, 4185.641, 4198.462, 4133.333, 16189, 0, []
1627802027.4342, 116, 0, 4105.128, 4221.026, 4189.744, 4196.923, 4124.103, 450, 0, []
1627802027.4422, 117, 0, 4106.667, 4219.487, 4186.154, 4201.026, 4128.205, 450, 0, []
1627802027.4501, 118, 0, 4109.744, 4226.154, 4169.744, 4206.667, 4126.667, 450, 0, []
1627802027.4581, 119, 0, 4107.692, 4231.795, 4177.436, 4207.179, 4121.026, 16189, 0, []
1627802027.466, 120, 0, 4106.667, 4231.795, 4176.923, 4202.564, 4124.615, 450, 0, []
1627802027.4737, 121, 0, 4107.692, 4228.718, 4177.436, 4198.462, 4126.154, 450, 0, []
1627802027.4816, 122, 0, 4105.128, 4239.487, 4186.667, 4197.436, 4125.128, 450, 0, []
1627802027.4895, 123, 0, 4099.487, 4257.949, 4178.462, 4194.359, 4122.564, 16189, 0, []
1627802027.4974, 124, 0, 4095.897, 4245.128, 4184.615, 4197.436, 4112.821, 450, 0, []
1627802027.5052, 125, 0, 4093.333, 4213.333, 4188.718, 4199.487, 4105.641, 450, 0, []
1627802027.513, 126, 0, 4090.769, 4233.333, 4182.564, 4192.308, 4106.667, 450, 0, []
1627802027.5208, 127, 0, 4090.769, 4249.744, 4182.051, 4193.333, 4107.179, 16189, 0, []
1627802027.5287, 128, 0, 4089.744, 4222.564, 4169.744, 4195.385, 4102.051, 450, 0, []
1627802027.5365, 0, 0, 4096.41, 4227.692, 4168.718, 4188.718, 4102.051, 450, 0, []
1627802027.5444, 1, 0, 4109.744, 4244.615, 4171.282, 4192.308, 4114.359, 450, 0, []
1627802027.5521, 2, 0, 4107.179, 4222.564, 4170.256, 4198.974, 4120.513, 16189, 0, []
1627802027.5601, 3, 0, 4099.487, 4217.436, 4174.872, 4191.795, 4114.359, 450, 0, []
1627802027.568, 4, 0, 4107.179, 4237.949, 4167.179, 4187.692, 4114.872, 16154, 0, []
1627802027.576, 5, 0, 4111.795, 4228.718, 4169.744, 4193.333, 4122.564, 450, 0, []
1627802027.5839, 6, 0, 4109.744, 4212.821, 4176.41, 4195.897, 4118.974, 271, 0, []
1627802027.5918, 7, 0, 4123.077, 4220, 4182.051, 4201.538, 4120, 450, 0, []
1627802027.5997, 8, 0, 4136.41, 4244.103, 4188.205, 4205.128, 4133.333, 450, 0, []
1627802027.6077, 9, 0, 4137.436, 4254.359, 4172.308, 4201.538, 4141.026, 16157, 0, []
1627802027.6156, 10, 0, 4149.231, 4230.769, 4170.769, 4197.949, 4145.641, 450, 0, []
1627802027.6235, 11, 0, 4168.718, 4226.154, 4180.513, 4197.436, 4158.462, 16197, 0, []
1627802027.6313, 12, 0, 4183.077, 4230.769, 4179.487, 4210.256, 4183.077, 450, 0, []
1627802027.6391, 13, 0, 4196.41, 4207.692, 4185.641, 4218.462, 4206.154, 450, 0, []
1627802027.647, 14, 0, 4207.692, 4224.103, 4180, 4204.103, 4214.872, 450, 0, []
1627802027.6548, 15, 0, 4220.513, 4255.897, 4181.538, 4197.949, 4222.051, 16197, 0, []
1627802027.6627, 16, 0, 4234.359, 4237.436, 4181.538, 4205.641, 4228.718, 0, 0, []
1627802027.6704, 17, 0, 4233.333, 4217.436, 4162.564, 4200.513, 4224.103, 0, 0, []
1627802027.6783, 18, 0, 4226.667, 4222.051, 4171.282, 4198.462, 4225.641, 0, 0, []
1627802027.6861, 19, 0, 4232.821, 4230.769, 4183.077, 4208.205, 4240, 0, 0, []
1627802027.6941, 20, 0, 4236.41, 4242.564, 4179.487, 4208.205, 4246.667, 0, 0, []
1627802027.702, 21, 0, 4232.821, 4238.462, 4177.949, 4205.128, 4249.744, 0, 0, []
1627802027.7098, 22, 0, 4230.769, 4213.846, 4182.051, 4206.154, 4248.205, 0, 0, []
1627802027.7176, 23, 0, 4232.308, 4210.256, 4193.846, 4203.59, 4240, 0, 0, []
1627802027.7256, 24, 0, 4245.128, 4224.615, 4184.103, 4201.026, 4245.128, 0, 0, []
1627802027.7335, 25, 0, 4255.897, 4230.256, 4187.179, 4206.154, 4256.923, 0, 0, []
1627802027.7415, 26, 0, 4237.436, 4237.949, 4198.462, 4206.154, 4247.692, 0, 0, []
1627802027.7493, 27, 0, 4215.385, 4230.256, 4175.897, 4191.795, 4225.128, 0, 0, []
1627802027.7573, 28, 0, 4215.385, 4209.231, 4167.179, 4186.667, 4216.923, 0, 0, []
1627802027.7652, 29, 0, 4209.231, 4214.872, 4168.718, 4188.718, 4211.282, 0, 0, []
1627802027.7732, 30, 0, 4198.974, 4247.692, 4171.795, 4187.179, 4201.538, 0, 0, []
1627802027.7811, 31, 0, 4202.564, 4248.718, 4189.231, 4188.718, 4202.564, 0, 0, []
1627802027.7888, 32, 0, 4207.179, 4232.821, 4193.846, 4196.923, 4213.846, 0, 0, []
1627802027.7967, 33, 0, 4205.641, 4250.256, 4198.462, 4203.59, 4217.949, 0, 0, []
1627802027.8045, 34, 0, 4206.667, 4264.103, 4197.436, 4206.154, 4215.385, 0, 0, []
1627802027.8124, 35, 0, 4202.564, 4257.436, 4183.59, 4200.513, 4216.923, 0, 0, []
1627802027.8202, 36, 0, 4199.487, 4250.256, 4175.897, 4186.154, 4215.897, 0, 0, []
1627802027.828, 37, 0, 4211.795, 4254.872, 4174.359, 4182.564, 4214.359, 0, 0, []
1627802027.8358, 38, 0, 4218.462, 4283.077, 4185.128, 4188.205, 4220.513, 0, 0, []
1627802027.8437, 39, 0, 4219.487, 4307.179, 4187.179, 4187.179, 4231.795, 0, 0, []
1627802027.8515, 40, 0, 4228.205, 4277.949, 4184.103, 4185.641, 4231.282, 0, 0, []
1627802027.8594, 41, 0, 4233.846, 4260, 4193.846, 4194.359, 4215.385, 0, 0, []
1627802027.8671, 42, 0, 4234.872, 4289.231, 4186.154, 4202.564, 4210.256, 0, 0, []
1627802027.8751, 43, 0, 4230.256, 4285.641, 4184.103, 4205.128, 4217.949, 0, 0, []
1627802027.883, 44, 0, 4225.128, 4265.641, 4183.59, 4203.077, 4217.436, 0, 0, []
1627802027.891, 45, 0, 4213.333, 4265.128, 4169.744, 4186.154, 4202.051, 0, 0, []
1627802027.8989, 46, 0, 4204.103, 4255.897, 4174.872, 4174.359, 4196.923, 0, 0, []
1627802027.9068, 47, 0, 4206.154, 4241.538, 4173.333, 4188.718, 4212.308, 0, 0, []
1627802027.9147, 48, 0, 4205.128, 4242.564, 4168.205, 4194.872, 4212.308, 0, 0, []
1627802027.9227, 49, 0, 4203.59, 4249.744, 4172.821, 4182.051, 4195.897, 0, 0, []
1627802027.9306, 50, 0, 4215.385, 4249.744, 4177.949, 4190.769, 4196.923, 0, 0, []
1627802027.9386, 51, 0, 4225.128, 4237.949, 4186.154, 4207.692, 4208.718, 0, 0, []
1627802027.9464, 52, 0, 4212.308, 4223.077, 4177.949, 4201.026, 4200, 0, 0, []
1627802027.9542, 53, 0, 4201.538, 4224.103, 4181.538, 4190.256, 4188.205, 0, 0, []
1627802027.9621, 54, 0, 4197.949, 4233.333, 4183.59, 4188.205, 4191.282, 0, 0, []
1627802027.9699, 55, 0, 4197.436, 4230.256, 4169.744, 4191.795, 4201.538, 0, 0, []
1627802027.9778, 56, 0, 4211.282, 4227.692, 4184.615, 4201.026, 4213.333, 0, 0, []
1627802027.9855, 57, 0, 4218.974, 4236.41, 4182.564, 4195.897, 4211.282, 0, 0, []
1627802027.9934, 58, 0, 4212.821, 4248.718, 4167.179, 4183.077, 4196.41, 0, 0, []
1627802028.0012, 59, 0, 4208.205, 4250.769, 4175.897, 4182.051, 4196.41, 0, 0, []
1627802028.0092, 60, 0, 4194.359, 4210.769, 4169.744, 4179.487, 4197.436, 0, 0, []
1627802028.0171, 61, 0, 4188.718, 4208.205, 4176.41, 4183.077, 4196.41, 0, 0, []
1627802028.0251, 62, 0, 4225.641, 4293.846, 4205.128, 4212.308, 4223.59, 0, 0, []
1627802028.0329, 63, 0, 4241.538, 4287.692, 4199.487, 4218.462, 4234.872, 0, 0, []
1627802028.0409, 64, 0, 4209.231, 4193.846, 4180, 4196.41, 4207.692, 450, 0, []
1627802028.0488, 65, 0, 4218.462, 4232.308, 4194.872, 4206.154, 4215.897, 450, 0, []
1627802028.0568, 66, 0, 4260.513, 4315.897, 4215.897, 4224.103, 4249.231, 16181, 0, []
1627802028.0647, 67, 0, 4277.949, 4249.231, 4191.282, 4205.641, 4244.103, 450, 0, []
1627802028.0726, 68, 0, 4253.333, 4179.487, 4168.205, 4191.282, 4224.615, 16166, 0, []
1627802028.0805, 69, 0, 4230.256, 4242.051, 4184.103, 4205.641, 4226.154, 450, 0, []
1627802028.0883, 70, 0, 4232.308, 4276.41, 4178.974, 4203.59, 4218.462, 270, 0, []
1627802028.0962, 71, 0, 4225.128, 4238.462, 4178.974, 4183.077, 4201.538, 450, 0, []
1627802028.104, 72, 0, 4229.744, 4227.692, 4200, 4195.385, 4217.436, 450, 0, []
1627802028.1118, 73, 0, 4263.59, 4234.359, 4196.41, 4215.897, 4236.923, 16157, 0, []
1627802028.1196, 74, 0, 4260.513, 4220, 4178.462, 4200, 4212.308, 450, 0, []
1627802028.1275, 75, 0, 4217.436, 4216.923, 4178.462, 4194.359, 4199.487, 16192, 0, []
1627802028.1353, 76, 0, 4230.256, 4247.179, 4213.846, 4223.59, 4232.821, 450, 0, []
1627802028.1432, 77, 0, 4266.667, 4263.077, 4212.308, 4230.769, 4256.923, 450, 0, []
1627802028.1509, 78, 0, 4274.872, 4252.308, 4183.59, 4211.282, 4262.564, 450, 0, []
1627802028.1589, 79, 0, 4281.026, 4241.026, 4195.385, 4203.077, 4249.744, 16192, 0, []
1627802028.1668, 80, 0, 4233.333, 4220, 4188.718, 4187.692, 4205.128, 450, 0, []
1627802028.1748, 81, 0, 4211.282, 4206.667, 4186.667, 4174.872, 4198.974, 450, 0, []
1627802028.1827, 82, 0, 4253.333, 4216.923, 4197.949, 4192.821, 4213.333, 450, 0, []
1627802028.1906, 83, 0, 4253.333, 4224.615, 4184.615, 4210.769, 4219.487, 16192, 0, []
1627802028.1985, 84, 0, 4254.872, 4231.282, 4200.513, 4196.923, 4265.641, 450, 0, []
1627802028.2065, 85, 0, 4272.821, 4241.026, 4208.205, 4188.205, 4272.308, 450, 0, []
1627802028.2144, 86, 0, 4245.641, 4233.333, 4200, 4214.359, 4250.256, 450, 0, []
1627802028.2224, 87, 0, 4273.333, 4230.256, 4217.949, 4219.487, 4308.205, 16192, 0, []
1627802028.2302, 88, 0, 4306.154, 4244.103, 4212.821, 4196.41, 4302.051, 450, 0, []
1627802028.2382, 89, 0, 4207.692, 4228.718, 4174.872, 4200.513, 4167.692, 450, 0, []
1627802028.2461, 90, 0, 4185.641, 4189.231, 4166.667, 4223.077, 4159.487, 450, 0, []
1627802028.2539, 91, 0, 4279.487, 4203.59, 4198.462, 4219.487, 4240, 16192, 0, []
1627802028.2618, 92, 0, 4271.282, 4251.282, 4209.231, 4211.282, 4220, 450, 0, []
1627802028.2695, 93, 0, 4266.154, 4270.256, 4203.077, 4222.564, 4230.769, 450, 0, []
1627802028.2774, 94, 0, 4288.205, 4236.41, 4207.692, 4209.231, 4262.051, 450, 0, []
1627802028.2852, 95, 0, 4212.821, 4214.872, 4189.231, 4173.333, 4193.846, 16192, 0, []
1627802028.2931, 96, 0, 4177.949, 4260.513, 4186.667, 4174.872, 4153.846, 450, 0, []
1627802028.3009, 97, 0, 4229.231, 4281.538, 4208.205, 4218.462, 4190.769, 450, 0, []
1627802028.3087, 98, 0, 4226.154, 4255.897, 4192.308, 4222.564, 4198.462, 450, 0, []
1627802028.3165, 99, 0, 4225.128, 4277.436, 4192.308, 4192.308, 4200.513, 16192, 0, []
1627802028.3244, 100, 0, 4256.923, 4298.462, 4208.205, 4196.923, 4216.41, 450, 0, []
1627802028.3322, 101, 0, 4234.359, 4264.615, 4188.718, 4198.462, 4187.179, 450, 0, []
1627802028.3402, 102, 0, 4185.641, 4247.692, 4158.462, 4161.026, 4136.923, 450, 0, []
1627802028.348, 103, 0, 4171.282, 4276.41, 4164.615, 4166.667, 4127.692, 16192, 0, []
1627802028.356, 104, 0, 4189.231, 4302.564, 4215.385, 4228.718, 4155.385, 450, 0, []
1627802028.3639, 105, 0, 4195.385, 4288.205, 4215.897, 4238.974, 4164.615, 450, 0, []
1627802028.3719, 106, 0, 4184.615, 4266.667, 4179.487, 4207.692, 4152.308, 450, 0, []
1627802028.3798, 107, 0, 4194.872, 4283.59, 4193.846, 4214.359, 4161.538, 16192, 0, []
1627802028.3877, 108, 0, 4205.641, 4295.897, 4207.179, 4220.513, 4170.769, 450, 0, []
1627802028.3956, 109, 0, 4198.974, 4280.513, 4200, 4204.615, 4155.897, 450, 0, []
1627802028.4036, 110, 0, 4198.462, 4279.487, 4195.385, 4212.308, 4156.923, 450, 0, []
1627802028.4115, 111, 0, 4191.282, 4290.256, 4186.154, 4222.051, 4149.744, 16192, 0, []
1627802028.4193, 112, 0, 4166.667, 4285.128, 4189.744, 4206.154, 4123.077, 450, 0, []
1627802028.4271, 113, 0, 4164.615, 4268.718, 4184.615, 4198.974, 4126.154, 450, 0, []
1627802028.4349, 114, 0, 4167.692, 4238.974, 4177.949, 4200, 4133.333, 450, 0, []
1627802028.4428, 115, 0, 4156.923, 4197.436, 4178.974, 4194.359, 4123.077, 16192, 0, []
1627802028.4506, 116, 0, 4151.282, 4176.41, 4173.333, 4184.103, 4120.513, 450, 0, []
1627802028.4585, 117, 0, 4153.333, 4169.231, 4181.538, 4186.154, 4127.692, 450, 0, []
1627802028.4662, 118, 0, 4156.41, 4138.974, 4175.385, 4193.333, 4124.615, 450, 0, []
1627802028.4741, 119, 0, 4156.41, 4102.051, 4162.051, 4186.154, 4111.282, 16192, 0, []
1627802028.4819, 120, 0, 4153.846, 4110.256, 4169.231, 4182.564, 4105.641, 450, 0, []
1627802028.4899, 121, 0, 4149.231, 4132.308, 4175.897, 4191.282, 4102.051, 450, 0, []
1627802028.4978, 122, 0, 4150.769, 4111.795, 4181.538, 4190.256, 4100, 450, 0, []
1627802028.5057, 123, 0, 4154.359, 4083.59, 4171.282, 4187.692, 4105.128, 16192, 0, []
1627802028.5136, 124, 0, 4147.692, 4072.308, 4169.744, 4197.436, 4109.231, 450, 0, []
1627802028.5216, 125, 0, 4136.923, 4065.128, 4179.487, 4192.308, 4100, 450, 0, []
1627802028.5295, 126, 0, 4132.821, 4078.974, 4171.795, 4176.923, 4088.718, 450, 0, []
1627802028.5375, 127, 0, 4150.769, 4092.308, 4175.897, 4193.333, 4101.026, 16192, 0, []
1627802028.5453, 128, 0, 4170.769, 4073.333, 4176.41, 4204.615, 4111.282, 450, 0, []
1627802028.5533, 0, 0, 4171.282, 4067.179, 4167.692, 4180.513, 4104.103, 450, 0, []
1627802028.5612, 1, 0, 4178.462, 4094.872, 4165.128, 4174.872, 4111.795, 450, 0, []
1627802028.569, 2, 0, 4196.41, 4100.513, 4162.564, 4193.333, 4127.179, 16192, 0, []
1627802028.5769, 3, 0, 4215.897, 4082.051, 4182.564, 4198.462, 4137.436, 450, 0, []
1627802028.5846, 4, 0, 4237.949, 4082.051, 4191.795, 4205.128, 4155.897, 16178, 0, []
1627802028.5925, 5, 0, 4256.41, 4104.103, 4189.744, 4218.462, 4175.897, 450, 0, []
1627802028.6003, 6, 0, 4255.385, 4141.026, 4203.59, 4208.205, 4173.333, 230, 0, []
1627802028.6082, 7, 0, 4244.615, 4145.641, 4196.41, 4196.923, 4163.077, 450, 0, []
1627802028.616, 8, 0, 4237.949, 4112.308, 4191.282, 4203.59, 4163.077, 450, 0, []
1627802028.6238, 9, 0, 4221.538, 4113.846, 4192.821, 4196.41, 4155.385, 16157, 0, []
1627802028.6316, 10, 0, 4194.359, 4131.282, 4181.538, 4181.026, 4140, 450, 0, []
1627802028.6395, 11, 0, 4178.974, 4122.564, 4181.026, 4183.59, 4127.179, 16198, 0, []
1627802028.6473, 12, 0, 4195.897, 4148.718, 4180.513, 4189.744, 4133.846, 450, 0, []
1627802028.6553, 13, 0, 4205.128, 4183.077, 4182.564, 4186.154, 4134.359, 450, 0, []
1627802028.6631, 14, 0, 4180.513, 4141.538, 4179.487, 4182.564, 4112.821, 450, 0, []
1627802028.6711, 15, 0, 4174.872, 4115.385, 4173.846, 4185.641, 4111.282, 16198, 0, []
1627802028.679, 16, 0, 4196.923, 4170.256, 4184.615, 4191.282, 4125.641, 0, 0, []
1627802028.687, 17, 0, 4198.974, 4202.051, 4182.051, 4190.256, 4125.128, 0, 0, []
1627802028.6949, 18, 0, 4187.692, 4175.897, 4185.128, 4183.59, 4119.487, 0, 0, []
1627802028.7028, 19, 0, 4186.154, 4165.128, 4195.385, 4192.308, 4126.154, 0, 0, []
1627802028.7107, 20, 0, 4179.487, 4202.564, 4184.103, 4205.641, 4122.051, 0, 0, []
1627802028.7186, 21, 0, 4167.692, 4236.923, 4180.513, 4195.385, 4108.205, 0, 0, []
1627802028.7265, 22, 0, 4171.795, 4236.41, 4181.538, 4189.231, 4110.769, 0, 0, []
1627802028.7343, 23, 0, 4170.769, 4230.256, 4187.179, 4199.487, 4111.282, 0, 0, []
1627802028.7421, 24, 0, 4143.077, 4229.744, 4187.692, 4188.205, 4086.154, 0, 0, []
1627802028.7499, 25, 0, 4134.872, 4235.897, 4174.872, 4171.795, 4075.385, 0, 0, []
1627802028.7578, 26, 0, 4166.154, 4263.077, 4187.692, 4195.897, 4107.179, 0, 0, []
1627802028.7656, 27, 0, 4191.282, 4294.359, 4193.846, 4213.846, 4125.128, 0, 0, []
1627802028.7735, 28, 0, 4194.872, 4293.846, 4187.179, 4205.128, 4118.462, 0, 0, []
1627802028.7813, 29, 0, 4198.462, 4285.641, 4193.846, 4211.282, 4126.667, 0, 0, []
1627802028.7892, 30, 0, 4206.154, 4303.077, 4192.308, 4216.923, 4134.872, 0, 0, []
1627802028.7971, 31, 0, 4210.256, 4309.231, 4192.821, 4204.103, 4125.641, 0, 0, []
1627802028.8051, 32, 0, 4214.872, 4310.256, 4184.103, 4199.487, 4125.128, 0, 0, []
1627802028.813, 33, 0, 4202.564, 4332.308, 4178.462, 4201.538, 4127.179, 0, 0, []
1627802028.821, 34, 0, 4185.641, 4335.385, 4188.205, 4196.41, 4121.026, 0, 0, []
1627802028.8288, 35, 0, 4190.769, 4331.282, 4181.538, 4190.256, 4119.487, 0, 0, []
1627802028.8368, 36, 0, 4203.59, 4357.949, 4185.641, 4190.769, 4124.103, 0, 0, []
1627802028.8447, 37, 0, 4212.821, 4362.564, 4190.256, 4192.308, 4131.795, 0, 0, []
1627802028.8527, 38, 0, 4215.897, 4323.59, 4181.538, 4189.231, 4133.333, 0, 0, []
1627802028.8606, 39, 0, 4213.846, 4332.308, 4187.179, 4189.744, 4132.821, 0, 0, []
1627802028.8685, 40, 0, 4208.205, 4380, 4186.667, 4205.128, 4138.974, 0, 0, []
1627802028.8764, 41, 0, 4204.103, 4367.692, 4184.615, 4213.846, 4140, 0, 0, []
1627802028.8842, 42, 0, 4197.949, 4341.538, 4177.436, 4203.077, 4131.282, 0, 0, []
1627802028.8921, 43, 0, 4188.205, 4355.385, 4168.718, 4194.359, 4124.103, 0, 0, []
1627802028.8999, 44, 0, 4181.538, 4363.077, 4177.436, 4192.308, 4121.538, 0, 0, []
1627802028.9077, 45, 0, 4183.077, 4354.359, 4181.538, 4197.436, 4128.718, 0, 0, []
1627802028.9155, 46, 0, 4188.205, 4346.667, 4189.744, 4207.179, 4140, 0, 0, []
1627802028.9234, 47, 0, 4174.872, 4340.513, 4186.154, 4194.359, 4123.59, 0, 0, []
1627802028.9312, 48, 0, 4162.051, 4341.538, 4168.718, 4167.692, 4096.923, 0, 0, []
1627802028.9391, 49, 0, 4170.769, 4344.615, 4177.436, 4167.179, 4103.59, 0, 0, []
1627802028.9468, 50, 0, 4189.744, 4324.103, 4181.538, 4184.103, 4124.103, 0, 0, []
1627802028.9547, 51, 0, 4197.949, 4325.128, 4180.513, 4191.282, 4130.769, 0, 0, []
1627802028.9625, 52, 0, 4190.256, 4347.692, 4182.564, 4187.692, 4123.077, 0, 0, []
1627802028.9705, 53, 0, 4187.179, 4326.667, 4175.897, 4184.615, 4119.487, 0, 0, []
1627802028.9784, 54, 0, 4200, 4310.769, 4178.462, 4185.128, 4126.154, 0, 0, []
1627802028.9863, 55, 0, 4208.205, 4318.462, 4171.795, 4184.103, 4127.692, 0, 0, []
1627802028.9942, 56, 0, 4198.462, 4312.308, 4170.256, 4185.128, 4128.205, 0, 0, []
1627802029.0022, 57, 0, 4199.487, 4317.949, 4183.59, 4186.667, 4130.256, 0, 0, []
1627802029.0101, 58, 0, 4215.385, 4323.59, 4184.615, 4183.077, 4139.487, 0, 0, []
1627802029.0181, 59, 0, 4218.462, 4290.256, 4182.564, 4173.333, 4146.154, 0, 0, []
1627802029.0259, 60, 0, 4222.051, 4274.359, 4170.769, 4168.718, 4150.769, 0, 0, []
1627802029.0337, 61, 0, 4240.513, 4296.41, 4172.308, 4173.333, 4167.179, 0, 0, []
1627802029.0416, 62, 0, 4244.615, 4294.359, 4185.641, 4172.308, 4182.051, 0, 0, []
1627802029.0494, 63, 0, 4235.385, 4301.026, 4170.769, 4166.667, 4185.128, 0, 0, []
1627802029.0573, 64, 0, 4247.692, 4316.923, 4163.59, 4168.205, 4182.564, 450, 0, []
1627802029.065, 65, 0, 4267.179, 4291.795, 4163.59, 4174.359, 4186.667, 450, 0, []
1627802029.0729, 66, 0, 4270.769, 4271.795, 4167.179, 4178.462, 4194.359, 16192, 0, []
1627802029.0807, 67, 0, 4264.103, 4283.59, 4181.026, 4183.59, 4195.897, 450, 0, []
1627802029.0886, 68, 0, 4257.949, 4285.128, 4174.872, 4183.077, 4191.795, 16165, 0, []
1627802029.0964, 69, 0, 4247.179, 4272.308, 4177.436, 4179.487, 4181.538, 450, 0, []
1627802029.1042, 70, 0, 4226.154, 4267.179, 4178.974, 4175.897, 4165.128, 262, 0, []
1627802029.112, 71, 0, 4212.308, 4259.487, 4173.333, 4175.897, 4152.821, 450, 0, []
1627802029.12, 72, 0, 4209.231, 4256.923, 4184.615, 4183.077, 4150.256, 450, 0, []
1627802029.1279, 73, 0, 4190.769, 4273.846, 4180.513, 4184.103, 4140, 16157, 0, []
1627802029.1359, 74, 0, 4167.179, 4272.308, 4175.385, 4173.333, 4120.513, 450, 0, []
1627802029.1437, 75, 0, 4167.692, 4251.795, 4176.41, 4167.179, 4117.949, 16198, 0, []
1627802029.1517, 76, 0, 4174.359, 4255.897, 4177.436, 4169.744, 4123.59, 450, 0, []
1627802029.1596, 77, 0, 4168.205, 4266.154, 4186.667, 4169.231, 4121.026, 450, 0, []
1627802029.1676, 78, 0, 4167.179, 4252.308, 4176.923, 4171.282, 4115.897, 450, 0, []
1627802029.1755, 79, 0, 4168.718, 4258.974, 4167.692, 4175.385, 4108.205, 16198, 0, []
1627802029.1832, 80, 0, 4167.692, 4287.692, 4173.333, 4173.846, 4098.974, 450, 0, []
1627802029.1911, 81, 0, 4168.718, 4266.154, 4175.385, 4171.282, 4097.436, 450, 0, []
1627802029.1989, 82, 0, 4166.154, 4228.205, 4178.462, 4170.769, 4097.949, 450, 0, []
1627802029.2068, 83, 0, 4159.487, 4229.744, 4165.641, 4169.231, 4093.333, 16198, 0, []
1627802029.2146, 84, 0, 4152.308, 4236.923, 4158.974, 4166.667, 4086.667, 450, 0, []
1627802029.2224, 85, 0, 4144.615, 4245.128, 4161.538, 4169.231, 4086.154, 450, 0, []
1627802029.2302, 86, 0, 4140.513, 4246.667, 4153.333, 4172.308, 4089.744, 450, 0, []
1627802029.2381, 87, 0, 4140, 4229.744, 4160, 4169.744, 4094.872, 16198, 0, []
1627802029.2459, 88, 0, 4138.974, 4222.051, 4162.564, 4166.667, 4098.974, 450, 0, []
1627802029.2539, 89, 0, 4135.385, 4228.718, 4160.513, 4166.154, 4096.923, 450, 0, []
1627802029.2617, 90, 0, 4142.051, 4244.615, 4164.103, 4170.769, 4098.974, 450, 0, []
1627802029.2697, 91, 0, 4153.846, 4255.385, 4157.949, 4178.462, 4106.667, 16198, 0, []
1627802029.2776, 92, 0, 4150.256, 4239.487, 4166.154, 4175.897, 4104.103, 450, 0, []
1627802029.2856, 93, 0, 4139.487, 4226.667, 4168.205, 4165.641, 4092.821, 450, 0, []
1627802029.2935, 94, 0, 4132.308, 4245.641, 4167.179, 4163.59, 4088.205, 450, 0, []
1627802029.3014, 95, 0, 4134.359, 4248.718, 4174.872, 4169.231, 4092.308, 16198, 0, []
1627802029.3093, 96, 0, 4147.692, 4223.077, 4165.641, 4170.256, 4102.051, 450, 0, []
1627802029.3173, 97, 0, 4153.846, 4239.487, 4164.103, 4169.231, 4108.205, 450, 0, []
1627802029.3252, 98, 0, 4143.077, 4264.103, 4162.564, 4170.256, 4105.128, 450, 0, []
1627802029.3332, 99, 0, 4146.154, 4239.487, 4157.949, 4168.718, 4107.692, 16198, 0, []
1627802029.341, 100, 0, 4167.692, 4230.256, 4161.026, 4168.205, 4126.667, 450, 0, []
1627802029.3488, 101, 0, 4180.513, 4257.436, 4156.41, 4168.205, 4147.692, 450, 0, []
1627802029.3567, 102, 0, 4186.667, 4251.795, 4172.821, 4173.333, 4158.462, 450, 0, []
1627802029.3645, 103, 0, 4191.282, 4241.026, 4178.974, 4182.564, 4158.974, 16198, 0, []
1627802029.3724, 104, 0, 4192.308, 4262.564, 4165.128, 4186.667, 4159.487, 450, 0, []
1627802029.3801, 105, 0, 4192.821, 4250.256, 4171.795, 4188.205, 4163.077, 450, 0, []
1627802029.388, 106, 0, 4190.256, 4215.897, 4174.359, 4187.179, 4160.513, 450, 0, []
1627802029.3958, 107, 0, 4174.359, 4224.615, 4164.615, 4167.179, 4142.564, 16198, 0, []
1627802029.4038, 108, 0, 4153.333, 4245.641, 4154.872, 4145.128, 4121.026, 450, 0, []
1627802029.4117, 109, 0, 4156.923, 4250.769, 4159.487, 4153.846, 4123.077, 450, 0, []
1627802029.4196, 110, 0, 4171.795, 4245.128, 4174.359, 4180, 4133.333, 450, 0, []
1627802029.4275, 111, 0, 4168.718, 4231.795, 4164.615, 4196.41, 4126.154, 16198, 0, []
1627802029.4355, 112, 0, 4164.103, 4233.846, 4166.667, 4202.564, 4121.538, 450, 0, []
1627802029.4434, 113, 0, 4167.179, 4228.205, 4175.897, 4196.923, 4126.667, 450, 0, []
1627802029.4514, 114, 0, 4160.513, 4205.128, 4164.103, 4180, 4122.564, 450, 0, []
1627802029.4592, 115, 0, 4153.333, 4226.154, 4166.154, 4164.103, 4118.462, 16198, 0, []
1627802029.4672, 116, 0, 4154.872, 4247.179, 4167.179, 4154.872, 4121.026, 450, 0, []
1627802029.4751, 117, 0, 4149.231, 4222.051, 4163.59, 4150.256, 4111.282, 450, 0, []
1627802029.483, 118, 0, 4151.795, 4222.051, 4167.179, 4158.462, 4111.282, 450, 0, []
1627802029.4909, 119, 0, 4156.41, 4237.436, 4168.718, 4171.282, 4128.718, 16198, 0, []
1627802029.4988, 120, 0, 4135.897, 4217.949, 4176.923, 4170.256, 4120.513, 450, 0, []
1627802029.5065, 121, 0, 4115.897, 4218.462, 4169.231, 4160, 4096.41, 450, 0, []
1627802029.5143, 122, 0, 4121.538, 4236.923, 4159.487, 4157.436, 4088.718, 450, 0, []
1627802029.5222, 123, 0, 4124.103, 4221.538, 4150.256, 4158.462, 4087.179, 16198, 0, []
1627802029.53, 124, 0, 4117.949, 4214.872, 4127.692, 4153.846, 4092.821, 450, 0, []
1627802029.5379, 125, 0, 4123.59, 4233.846, 4142.564, 4147.692, 4107.692, 450, 0, []
1627802029.5456, 126, 0, 4127.179, 4238.462, 4161.026, 4129.744, 4103.59, 450, 0, []
1627802029.5535, 127, 0, 4123.59, 4250.256, 4161.538, 4107.179, 4090.769, 16198, 0, []
1627802029.5613, 128, 0, 4132.308, 4244.615, 4169.744, 4115.897, 4101.026, 450, 0, []
1627802029.5692, 0, 0, 4134.872, 4202.564, 4164.615, 4143.077, 4109.231, 450, 0, []
1627802029.577, 1, 0, 4123.077, 4204.103, 4162.564, 4156.923, 4100, 450, 0, []
1627802029.5849, 2, 0, 4123.077, 4253.333, 4162.564, 4164.103, 4102.564, 16188, 0, []
1627802029.5928, 3, 0, 4131.282, 4256.923, 4155.897, 4173.846, 4113.846, 450, 0, []
1627802029.6008, 4, 0, 4129.231, 4239.487, 4151.282, 4173.333, 4110.256, 16156, 0, []
1627802029.6087, 5, 0, 4117.949, 4254.359, 4138.462, 4160.513, 4090.256, 450, 0, []
1627802029.6167, 6, 0, 4104.103, 4255.385, 4139.487, 4145.641, 4072.308, 269, 0, []
1627802029.6245, 7, 0, 4100.513, 4248.205, 4150.256, 4143.077, 4073.333, 450, 0, []
1627802029.6325, 8, 0, 4106.154, 4260.513, 4166.154, 4157.436, 4086.667, 450, 0, []
1627802029.6404, 9, 0, 4105.641, 4250.769, 4183.59, 4173.846, 4096.923, 16159, 0, []
1627802029.6484, 10, 0, 4110.256, 4242.051, 4170.769, 4177.949, 4104.103, 450, 0, []
1627802029.6563, 11, 0, 4123.077, 4272.821, 4163.077, 4174.872, 4105.641, 16198, 0, []
1627802029.664, 12, 0, 4126.154, 4286.154, 4156.923, 4170.256, 4097.949, 450, 0, []
1627802029.6719, 13, 0, 4117.949, 4271.282, 4142.051, 4169.744, 4088.718, 450, 0, []
1627802029.6797, 14, 0, 4107.179, 4290.769, 4151.282, 4177.949, 4088.205, 450, 0, []
1627802029.6876, 15, 0, 4100.513, 4302.564, 4159.487, 4183.59, 4098.462, 16198, 0, []
1627802029.6954, 16, 0, 4108.205, 4279.487, 4168.718, 4174.872, 4108.205, 0, 0, []
1627802029.7032, 17, 0, 4121.538, 4271.282, 4177.949, 4170.769, 4111.795, 0, 0, []
1627802029.711, 18, 0, 4124.615, 4285.641, 4176.41, 4176.41, 4115.385, 0, 0, []
1627802029.7189, 19, 0, 4122.051, 4306.667, 4177.949, 4167.179, 4111.795, 0, 0, []
1627802029.7267, 20, 0, 4123.077, 4308.205, 4166.154, 4154.872, 4100.513, 0, 0, []
1627802029.7347, 21, 0, 4123.59, 4279.487, 4165.128, 4172.821, 4098.462, 0, 0, []
1627802029.7425, 22, 0, 4108.205, 4269.231, 4167.179, 4189.744, 4092.308, 0, 0, []
1627802029.7505, 23, 0, 4095.897, 4290.256, 4150.769, 4182.564, 4075.385, 0, 0, []
1627802029.7584, 24, 0, 4108.205, 4299.487, 4161.538, 4184.103, 4074.872, 0, 0, []
1627802029.7664, 25, 0, 4114.359, 4304.103, 4175.897, 4189.744, 4085.128, 0, 0, []
1627802029.7743, 26, 0, 4105.128, 4309.744, 4176.41, 4176.923, 4086.667, 0, 0, []
1627802029.7822, 27, 0, 4113.846, 4302.051, 4179.487, 4163.077, 4089.231, 0, 0, []
1627802029.7901, 28, 0, 4124.103, 4298.462, 4172.821, 4156.923, 4089.744, 0, 0, []
1627802029.7981, 29, 0, 4107.692, 4300.513, 4175.897, 4151.282, 4078.462, 0, 0, []
1627802029.806, 30, 0, 4098.974, 4292.821, 4169.744, 4155.897, 4073.333, 0, 0, []
1627802029.8139, 31, 0, 4104.615, 4293.846, 4162.051, 4174.359, 4076.41, 0, 0, []
1627802029.8217, 32, 0, 4096.923, 4295.897, 4164.615, 4186.154, 4074.359, 0, 0, []
1627802029.8295, 33, 0, 4093.333, 4287.692, 4149.231, 4180.513, 4077.436, 0, 0, []
1627802029.8374, 34, 0, 4109.744, 4274.359, 4146.667, 4167.692, 4088.205, 0, 0, []
1627802029.8452, 35, 0, 4128.718, 4268.718, 4155.897, 4166.154, 4100, 0, 0, []
1627802029.8531, 36, 0, 4138.462, 4291.795, 4167.692, 4181.026, 4110.256, 0, 0, []
1627802029.8608, 37, 0, 4133.333, 4291.282, 4175.897, 4186.667, 4108.718, 0, 0, []
1627802029.8688, 38, 0, 4122.051, 4260, 4157.436, 4184.103, 4104.615, 0, 0, []
1627802029.8767, 39, 0, 4117.949, 4271.795, 4162.564, 4192.821, 4106.667, 0, 0, []
1627802029.8846, 40, 0, 4108.205, 4300.513, 4176.923, 4196.923, 4096.923, 0, 0, []
1627802029.8924, 41, 0, 4094.359, 4291.795, 4166.154, 4178.974, 4083.077, 0, 0, []
1627802029.9003, 42, 0, 4096.41, 4274.359, 4165.128, 4168.718, 4090.256, 0, 0, []
1627802029.9082, 43, 0, 4118.462, 4268.205, 4168.205, 4182.564, 4107.179, 0, 0, []
1627802029.9162, 44, 0, 4144.615, 4280, 4182.051, 4200.513, 4127.179, 0, 0, []
1627802029.9241, 45, 0, 4155.385, 4308.205, 4191.282, 4213.846, 4143.59, 0, 0, []
1627802029.9321, 46, 0, 4139.487, 4280.513, 4177.949, 4210.256, 4130.769, 0, 0, []
1627802029.9399, 47, 0, 4126.154, 4242.051, 4171.282, 4193.333, 4103.59, 0, 0, []
1627802029.9479, 48, 0, 4130.256, 4274.359, 4167.692, 4187.179, 4097.436, 0, 0, []
1627802029.9558, 49, 0, 4119.487, 4289.231, 4172.308, 4191.795, 4097.949, 0, 0, []
1627802029.9637, 50, 0, 4111.282, 4266.667, 4173.333, 4188.205, 4093.333, 0, 0, []
1627802029.9716, 51, 0, 4135.385, 4274.359, 4164.615, 4183.59, 4104.103, 0, 0, []
1627802029.9793, 52, 0, 4158.974, 4280.513, 4174.872, 4195.385, 4128.718, 0, 0, []
1627802029.9872, 53, 0, 4154.872, 4261.026, 4171.282, 4203.59, 4141.538, 0, 0, []
1627802029.995, 54, 0, 4149.744, 4264.103, 4162.564, 4193.846, 4137.949, 0, 0, []
1627802030.0029, 55, 0, 4157.436, 4267.179, 4163.077, 4185.128, 4135.897, 0, 0, []
1627802030.0107, 56, 0, 4177.949, 4249.231, 4158.462, 4187.692, 4153.846, 0, 0, []
1627802030.0185, 57, 0, 4201.026, 4256.923, 4166.154, 4183.077, 4178.462, 0, 0, []
1627802030.0263, 58, 0, 4209.231, 4262.564, 4164.615, 4174.872, 4186.154, 0, 0, []
1627802030.0342, 59, 0, 4219.487, 4252.821, 4161.538, 4179.487, 4196.41, 0, 0, []
1627802030.042, 60, 0, 4239.487, 4255.385, 4167.179, 4188.718, 4220, 0, 0, []
1627802030.05, 61, 0, 4251.795, 4258.974, 4167.179, 4192.308, 4236.41, 0, 0, []
1627802030.0578, 62, 0, 4250.256, 4246.667, 4180, 4197.949, 4236.923, 0, 0, []
1627802030.0658, 63, 0, 4235.897, 4229.231, 4178.462, 4199.487, 4223.59, 0, 0, []
1627802030.0737, 64, 0, 4220, 4233.846, 4169.231, 4189.744, 4205.128, 450, 0, []
1627802030.0817, 65, 0, 4214.359, 4248.205, 4168.718, 4184.615, 4197.436, 450, 0, []
1627802030.0896, 66, 0, 4203.077, 4252.308, 4158.974, 4183.59, 4195.385, 16188, 0, []
1627802030.0975, 67, 0, 4183.077, 4242.051, 4170.769, 4177.436, 4181.538, 450, 0, []
1627802030.1054, 68, 0, 4180, 4234.359, 4176.923, 4176.923, 4180.513, 16157, 0, []
1627802030.1134, 69, 0, 4186.667, 4248.205, 4168.718, 4190.256, 4193.846, 450, 0, []
1627802030.1213, 70, 0, 4175.897, 4253.846, 4182.564, 4203.077, 4186.667, 276, 0, []
1627802030.1291, 71, 0, 4146.154, 4232.821, 4179.487, 4198.462, 4155.897, 450, 0, []
1627802030.1369, 72, 0, 4120.513, 4223.077, 4169.231, 4191.795, 4127.179, 450, 0, []
1627802030.1447, 73, 0, 4106.667, 4245.641, 4168.718, 4201.538, 4106.154, 16159, 0, []
1627802030.1526, 74, 0, 4075.897, 4243.59, 4161.538, 4204.103, 4068.205, 450, 0, []
1627802030.1604, 75, 0, 4028.205, 4222.564, 4156.923, 4192.308, 4019.487, 16207, 0, []
1627802030.1683, 76, 0, 3997.436, 4235.897, 4152.308, 4185.128, 3981.538, 450, 0, []
1627802030.176, 77, 0, 3955.385, 4220.513, 4148.205, 4165.128, 3922.051, 450, 0, []
1627802030.1839, 78, 0, 3894.359, 4183.077, 4130.256, 4128.718, 3840, 450, 0, []
1627802030.1917, 79, 0, 3868.718, 4212.308, 4121.538, 4114.359, 3796.923, 16207, 0, []
1627802030.1997, 80, 0, 3868.205, 4234.872, 4134.872, 4122.051, 3785.128, 450, 0, []
1627802030.2076, 81, 0, 3847.692, 4195.897, 4121.026, 4122.051, 3748.718, 450, 0, []
1627802030.2155, 82, 0, 3822.564, 4186.154, 4118.974, 4118.462, 3707.179, 450, 0, []
1627802030.2234, 83, 0, 3817.436, 4226.154, 4136.41, 4123.59, 3693.846, 16207, 0, []
1627802030.2314, 84, 0, 3813.333, 4247.692, 4134.872, 4127.692, 3687.692, 450, 0, []
1627802030.2393, 85, 0, 3790.769, 4234.872, 4135.897, 4122.051, 3662.564, 450, 0, []
1627802030.2473, 86, 0, 3764.103, 4213.846, 4130.256, 4112.821, 3637.949, 450, 0, []
1627802030.2552, 87, 0, 3749.744, 4201.538, 4130.769, 4108.718, 3627.692, 16207, 0, []
1627802030.2631, 88, 0, 3735.897, 4193.333, 4136.41, 4107.692, 3617.949, 450, 0, []
1627802030.271, 89, 0, 3720.513, 4195.897, 4127.692, 4109.231, 3607.692, 450, 0, []
1627802030.2788, 90, 0, 3717.949, 4202.564, 4134.872, 4115.385, 3611.282, 450, 0, []
1627802030.2867, 91, 0, 3715.897, 4184.103, 4134.359, 4107.692, 3620, 16207, 0, []
1627802030.2945, 92, 0, 3708.205, 4172.308, 4126.667, 4092.821, 3618.462, 450, 0, []
1627802030.3023, 93, 0, 3710.256, 4186.667, 4132.821, 4096.41, 3618.974, 450, 0, []
1627802030.3101, 94, 0, 3716.923, 4192.821, 4134.872, 4109.231, 3629.231, 450, 0, []
1627802030.318, 95, 0, 3721.538, 4206.667, 4143.59, 4108.718, 3632.821, 16207, 0, []
1627802030.3258, 96, 0, 3734.872, 4227.179, 4143.59, 4109.231, 3635.385, 450, 0, []
1627802030.3337, 97, 0, 3745.128, 4205.128, 4136.923, 4108.718, 3641.026, 450, 0, []
1627802030.3414, 98, 0, 3739.487, 4188.205, 4132.821, 4093.333, 3642.051, 450, 0, []
1627802030.3494, 99, 0, 3746.667, 4202.051, 4122.051, 4089.231, 3654.359, 16207, 0, []
1627802030.3573, 100, 0, 3770.769, 4197.436, 4133.333, 4108.718, 3681.538, 450, 0, []
1627802030.3653, 101, 0, 3777.436, 4197.949, 4138.974, 4121.026, 3697.436, 450, 0, []
1627802030.3732, 102, 0, 3773.846, 4201.538, 4132.308, 4118.974, 3703.077, 450, 0, []
1627802030.3811, 103, 0, 3791.282, 4187.692, 4147.179, 4125.128, 3724.615, 16207, 0, []
1627802030.389, 104, 0, 3815.385, 4198.974, 4147.179, 4131.795, 3744.615, 450, 0, []
1627802030.397, 105, 0, 3815.897, 4227.692, 4137.436, 4117.949, 3747.179, 450, 0, []
1627802030.4049, 106, 0, 3816.41, 4216.41, 4138.462, 4108.718, 3754.872, 450, 0, []
1627802030.4129, 107, 0, 3829.231, 4187.692, 4142.564, 4120.513, 3763.59, 16207, 0, []
1627802030.4207, 108, 0, 3827.692, 4195.897, 4142.051, 4123.077, 3756.923, 450, 0, []
1627802030.4285, 109, 0, 3815.385, 4203.59, 4128.718, 4106.667, 3753.846, 450, 0, []
1627802030.4364, 110, 0, 3821.026, 4188.718, 4144.103, 4108.205, 3765.641, 450, 0, []
1627802030.4442, 111, 0, 3835.897, 4193.846, 4165.641, 4124.103, 3771.795, 16207, 0, []
1627802030.4521, 112, 0, 3829.231, 4196.41, 4150.256, 4118.974, 3769.231, 450, 0, []
1627802030.4598, 113, 0, 3816.923, 4174.359, 4137.436, 4105.128, 3772.821, 450, 0, []
1627802030.4677, 114, 0, 3820.513, 4174.872, 4132.308, 4106.154, 3776.41, 450, 0, []
1627802030.4755, 115, 0, 3830.256, 4186.154, 4145.128, 4115.897, 3776.41, 16207, 0, []
1627802030.4834, 116, 0, 3836.923, 4189.231, 4150.256, 4121.538, 3786.154, 450, 0, []
1627802030.4912, 117, 0, 3843.59, 4231.282, 4130.256, 4120, 3804.615, 450, 0, []
1627802030.499, 118, 0, 3856.923, 4273.333, 4136.41, 4122.564, 3816.41, 450, 0, []
1627802030.5068, 119, 0, 3861.538, 4273.846, 4142.564, 4123.59, 3817.949, 16207, 0, []
1627802030.5148, 120, 0, 3855.385, 4279.487, 4144.103, 4113.846, 3823.077, 450, 0, []
1627802030.5227, 121, 0, 3856.41, 4277.949, 4151.795, 4108.205, 3829.744, 450, 0, []
1627802030.5307, 122, 0, 3862.051, 4258.462, 4140.513, 4116.41, 3830.769, 450, 0, []
1627802030.5385, 123, 0, 3863.077, 4259.487, 4139.487, 4127.692, 3835.897, 16207, 0, []
1627802030.5465, 124, 0, 3864.615, 4272.308, 4142.051, 4130.769, 3846.154, 450, 0, []
1627802030.5544, 125, 0, 3876.41, 4287.179, 4146.154, 4125.128, 3849.744, 450, 0, []
1627802030.5624, 126, 0, 3888.205, 4312.821, 4151.282, 4126.154, 3856.41, 450, 0, []
1627802030.5703, 127, 0, 3896.41, 4313.846, 4146.154, 4135.385, 3874.872, 16207, 0, []
1627802030.5782, 128, 0, 3902.051, 4278.974, 4148.718, 4130.769, 3882.564, 450, 0, []
1627802030.5861, 0, 0, 3908.205, 4268.205, 4142.564, 4119.487, 3878.462, 450, 0, []
1627802030.5941, 1, 0, 3911.282, 4294.872, 4140.513, 4124.615, 3881.026, 450, 0, []
1627802030.602, 2, 0, 3898.974, 4291.282, 4147.179, 4127.179, 3878.974, 16193, 0, []
1627802030.6098, 3, 0, 3894.872, 4263.077, 4135.385, 4118.974, 3873.846, 450, 0, []
1627802030.6176, 4, 0, 3913.333, 4278.974, 4144.615, 4126.154, 3880.513, 16157, 0, []
1627802030.6254, 5, 0, 3925.128, 4314.872, 4155.897, 4137.949, 3893.333, 450, 0, []
1627802030.6333, 6, 0, 3926.667, 4304.615, 4148.205, 4137.949, 3900.513, 273, 0, []
1627802030.6411, 7, 0, 3932.308, 4278.974, 4148.718, 4135.897, 3906.154, 450, 0, []
1627802030.649, 8, 0, 3941.538, 4289.231, 4146.667, 4143.59, 3915.385, 450, 0, []
1627802030.6567, 9, 0, 3949.744, 4309.744, 4150.769, 4156.41, 3922.564, 16159, 0, []
1627802030.6646, 10, 0, 3958.462, 4305.128, 4150.769, 4168.718, 3934.359, 450, 0, []
1627802030.6724, 11, 0, 3966.667, 4282.564, 4143.077, 4174.872, 3948.205, 16209, 0, []
1627802030.6804, 12, 0, 3970.769, 4272.308, 4148.205, 4167.692, 3954.359, 450, 0, []
1627802030.6883, 13, 0, 3973.846, 4283.077, 4148.205, 4153.333, 3955.385, 450, 0, []
1627802030.6962, 14, 0, 3977.949, 4310.256, 4153.846, 4143.077, 3956.41, 450, 0, []
1627802030.7041, 15, 0, 3984.103, 4330.769, 4156.923, 4149.231, 3962.564, 16209, 0, []
1627802030.7121, 16, 0, 3996.41, 4301.026, 4151.795, 4163.077, 3976.41, 0, 0, []
1627802030.72, 17, 0, 3992.308, 4269.231, 4160.513, 4165.641, 3979.487, 0, 0, []
1627802030.728, 18, 0, 3977.949, 4285.641, 4154.359, 4158.462, 3964.615, 0, 0, []
1627802030.7358, 19, 0, 3983.59, 4294.359, 4149.744, 4157.436, 3960, 0, 0, []
1627802030.7438, 20, 0, 3990.769, 4280.513, 4152.308, 4149.231, 3953.846, 0, 0, []
1627802030.7517, 21, 0, 3974.872, 4290.769, 4141.026, 4126.667, 3931.282, 0, 0, []
1627802030.7595, 22, 0, 3970.256, 4302.564, 4139.487, 4122.564, 3921.026, 0, 0, []
1627802030.7674, 23, 0, 3977.949, 4296.923, 4131.282, 4134.359, 3915.897, 0, 0, []
1627802030.7751, 24, 0, 3970.256, 4291.795, 4134.359, 4138.974, 3906.667, 0, 0, []
1627802030.783, 25, 0, 3975.897, 4280.513, 4149.231, 4145.641, 3921.026, 0, 0, []
1627802030.7908, 26, 0, 3992.821, 4271.795, 4142.564, 4158.462, 3939.487, 0, 0, []
1627802030.7987, 27, 0, 3981.538, 4275.385, 4146.154, 4160, 3929.744, 0, 0, []
1627802030.8065, 28, 0, 3967.692, 4285.641, 4151.282, 4152.308, 3921.538, 0, 0, []
1627802030.8143, 29, 0, 3973.846, 4294.872, 4148.205, 4142.564, 3926.667, 0, 0, []
1627802030.8221, 30, 0, 3987.179, 4290.769, 4144.103, 4127.692, 3931.282, 0, 0, []
1627802030.8301, 31, 0, 3997.436, 4272.308, 4142.051, 4119.487, 3935.897, 0, 0, []
1627802030.838, 32, 0, 4007.692, 4269.231, 4167.179, 4129.744, 3937.949, 0, 0, []
1627802030.846, 33, 0, 4019.487, 4290.256, 4178.974, 4154.872, 3945.641, 0, 0, []
1627802030.8538, 34, 0, 4014.359, 4284.103, 4163.59, 4166.667, 3946.154, 0, 0, []
1627802030.8618, 35, 0, 3995.897, 4249.744, 4153.333, 4154.872, 3933.846, 0, 0, []
1627802030.8697, 36, 0, 4006.154, 4249.231, 4147.179, 4153.333, 3947.692, 0, 0, []
1627802030.8777, 37, 0, 4042.564, 4290.256, 4158.462, 4172.821, 3985.128, 0, 0, []
1627802030.8856, 38, 0, 4054.872, 4300, 4157.949, 4175.897, 3990.769, 0, 0, []
1627802030.8933, 39, 0, 4043.077, 4255.897, 4149.744, 4157.949, 3971.282, 0, 0, []
1627802030.9012, 40, 0, 4043.077, 4240, 4164.103, 4156.41, 3971.795, 0, 0, []
1627802030.909, 41, 0, 4050.256, 4266.667, 4168.205, 4168.718, 3987.179, 0, 0, []
1627802030.9169, 42, 0, 4060.513, 4277.949, 4177.436, 4172.821, 3998.974, 0, 0, []
1627802030.9247, 43, 0, 4074.359, 4264.103, 4187.692, 4173.333, 4008.205, 0, 0, []
1627802030.9325, 44, 0, 4068.718, 4256.923, 4173.333, 4170.769, 4004.103, 0, 0, []
1627802030.9403, 45, 0, 4051.282, 4267.179, 4161.026, 4160.513, 3992.308, 0, 0, []
1627802030.9482, 46, 0, 4052.308, 4266.154, 4152.821, 4153.846, 3990.769, 0, 0, []
1627802030.956, 47, 0, 4063.59, 4260, 4154.872, 4156.923, 3998.974, 0, 0, []
1627802030.9639, 48, 0, 4070.769, 4270.769, 4155.897, 4164.615, 4010.256, 0, 0, []
1627802030.9717, 49, 0, 4079.487, 4274.359, 4153.846, 4175.385, 4023.59, 0, 0, []
1627802030.9796, 50, 0, 4092.821, 4272.308, 4168.718, 4183.59, 4032.821, 0, 0, []
1627802030.9875, 51, 0, 4108.205, 4286.667, 4166.667, 4192.308, 4045.641, 0, 0, []
1627802030.9955, 52, 0, 4124.103, 4295.385, 4164.615, 4202.051, 4067.692, 0, 0, []
1627802031.0034, 53, 0, 4129.744, 4268.718, 4173.333, 4199.487, 4080, 0, 0, []
1627802031.0114, 54, 0, 4127.179, 4250.256, 4167.179, 4188.205, 4076.923, 0, 0, []
1627802031.0192, 55, 0, 4119.487, 4275.897, 4157.949, 4175.385, 4069.231, 0, 0, []
1627802031.0272, 56, 0, 4110.256, 4285.128, 4140.513, 4166.154, 4060.513, 0, 0, []
1627802031.0351, 57, 0, 4107.692, 4252.821, 4137.949, 4165.641, 4059.487, 0, 0, []
1627802031.0431, 58, 0, 4108.205, 4244.615, 4148.205, 4169.744, 4059.487, 0, 0, []
1627802031.051, 59, 0, 4106.154, 4265.641, 4143.59, 4173.333, 4053.846, 0, 0, []
1627802031.0589, 60, 0, 4113.846, 4260.513, 4157.949, 4185.641, 4056.923, 0, 0, []
1627802031.0668, 61, 0, 4121.538, 4243.077, 4163.59, 4188.205, 4060, 0, 0, []
1627802031.0746, 62, 0, 4111.795, 4240.513, 4151.282, 4167.179, 4043.077, 0, 0, []
1627802031.0825, 63, 0, 4103.59, 4249.231, 4154.359, 4157.949, 4026.154, 0, 0, []
1627802031.0903, 64, 0, 4114.872, 4257.436, 4154.359, 4170.256, 4032.308, 450, 0, []
1627802031.0981, 65, 0, 4124.103, 4241.538, 4158.974, 4176.923, 4046.667, 450, 0, []
1627802031.1059, 66, 0, 4120, 4225.128, 4154.359, 4170.769, 4049.744, 16193, 0, []
1627802031.1139, 67, 0, 4124.615, 4249.231, 4150.256, 4168.718, 4048.205, 450, 0, []
1627802031.1218, 68, 0, 4128.205, 4265.641, 4157.436, 4167.179, 4047.179, 16156, 0, []
1627802031.1298, 69, 0, 4112.308, 4251.282, 4147.692, 4154.872, 4039.487, 450, 0, []
1627802031.1376, 70, 0, 4104.103, 4246.667, 4151.282, 4153.333, 4033.333, 276, 0, []
1627802031.1456, 71, 0, 4116.923, 4240.513, 4158.462, 4168.205, 4042.564, 450, 0, []
1627802031.1535, 72, 0, 4128.718, 4237.949, 4161.538, 4174.872, 4062.051, 450, 0, []
1627802031.1615, 73, 0, 4135.385, 4255.385, 4166.667, 4172.821, 4080, 16159, 0, []
1627802031.1694, 74, 0, 4139.487, 4248.718, 4151.282, 4178.462, 4089.744, 450, 0, []
1627802031.1773, 75, 0, 4140, 4219.487, 4160.513, 4189.231, 4093.846, 16202, 0, []
1627802031.1852, 76, 0, 4141.026, 4213.846, 4173.846, 4191.795, 4099.487, 450, 0, []
1627802031.1932, 77, 0, 4135.897, 4226.667, 4154.872, 4185.128, 4097.436, 450, 0, []
1627802031.2011, 78, 0, 4127.179, 4238.974, 4147.692, 4183.077, 4088.205, 450, 0, []
1627802031.2089, 79, 0, 4133.846, 4252.821, 4148.205, 4185.641, 4093.333, 16202, 0, []
1627802031.2167, 80, 0, 4139.487, 4256.923, 4154.359, 4183.59, 4107.179, 450, 0, []
1627802031.2245, 81, 0, 4137.436, 4234.872, 4158.462, 4178.462, 4109.744, 450, 0, []
1627802031.2324, 82, 0, 4144.103, 4214.872, 4159.487, 4174.359, 4108.205, 450, 0, []
1627802031.2402, 83, 0, 4156.923, 4246.667, 4177.949, 4175.897, 4116.923, 16202, 0, []
1627802031.2481, 84, 0, 4163.59, 4274.359, 4175.385, 4182.051, 4126.154, 450, 0, []
1627802031.2558, 85, 0, 4168.205, 4245.641, 4164.615, 4188.205, 4127.692, 450, 0, []
1627802031.2637, 86, 0, 4169.744, 4229.744, 4166.667, 4191.795, 4127.179, 450, 0, []
1627802031.2715, 87, 0, 4160.513, 4258.974, 4158.462, 4192.308, 4116.923, 16202, 0, []
1627802031.2794, 88, 0, 4144.103, 4253.846, 4150.769, 4183.077, 4089.744, 450, 0, []
1627802031.2872, 89, 0, 4136.41, 4209.231, 4141.538, 4167.692, 4077.949, 450, 0, []
1627802031.2951, 90, 0, 4144.103, 4216.923, 4147.179, 4164.103, 4093.846, 450, 0, []
1627802031.303, 91, 0, 4151.282, 4253.333, 4158.462, 4170.256, 4106.667, 16202, 0, []
