Timestamp, COUNTER, INTERPOLATED, AF3, T7, Pz, T8, AF4, RAW_CQ, MARKER_HARDWARE, MARKERS
1630309684.4122, 46, 0, 4144.615, 4264.615, 4147.179, 4115.385, 4117.436, 0, 0, []
1630309684.4201, 47, 0, 4157.949, 4288.718, 4143.59, 4126.154, 4141.538, 0, 0, []
1630309684.4278, 48, 0, 4156.41, 4293.846, 4118.462, 4138.462, 4165.128, 0, 0, []
1630309684.4358, 49, 0, 4150.769, 4253.846, 4140, 4152.821, 4195.897, 0, 0, []
1630309684.4437, 50, 0, 4160.513, 4259.487, 4125.128, 4150.769, 4228.205, 0, 0, []
1630309684.4517, 51, 0, 4169.744, 4298.974, 4136.923, 4155.385, 4241.026, 0, 0, []
1630309684.4596, 52, 0, 4160, 4312.821, 4162.564, 4182.564, 4236.41, 0, 0, []
1630309684.4675, 53, 0, 4151.795, 4303.077, 4137.949, 4189.231, 4224.615, 0, 0, []
1630309684.4754, 54, 0, 4152.821, 4291.795, 4134.872, 4164.103, 4207.692, 0, 0, []
1630309684.4834, 55, 0, 4140.513, 4267.692, 4116.41, 4150.256, 4191.282, 0, 0, []
1630309684.4913, 56, 0, 4130.769, 4240, 4129.231, 4160.513, 4180.513, 0, 0, []
1630309684.4993, 57, 0, 4141.538, 4244.615, 4156.923, 4163.077, 4181.538, 0, 0, []
1630309684.5072, 58, 0, 4153.846, 4268.205, 4131.282, 4160, 4192.308, 0, 0, []
1630309684.5149, 59, 0, 4151.795, 4266.667, 4134.359, 4172.308, 4200.513, 0, 0, []
1630309684.5228, 60, 0, 4144.615, 4238.974, 4131.282, 4183.077, 4207.179, 0, 0, []
1630309684.5306, 61, 0, 4143.077, 4221.538, 4127.692, 4180, 4201.538, 0, 0, []
1630309684.5385, 62, 0, 4140, 4238.462, 4128.718, 4170.256, 4181.538, 0, 0, []
1630309684.5463, 63, 0, 4130.256, 4277.436, 4087.179, 4163.59, 4169.231, 0, 0, []
1630309684.5541, 64, 0, 4120.513, 4298.462, 4088.205, 4158.974, 4168.205, 450, 0, []
1630309684.5619, 65, 0, 4119.487, 4294.872, 4087.692, 4150.769, 4167.179, 450, 0, []
1630309684.5698, 66, 0, 4122.564, 4297.436, 4073.333, 4149.744, 4159.487, 16186, 0, []
1630309684.5776, 67, 0, 4113.846, 4294.872, 4089.744, 4154.359, 4148.205, 450, 0, []
1630309684.5856, 68, 0, 4110.256, 4296.923, 4068.718, 4157.949, 4142.051, 16106, 0, []
1630309684.5934, 69, 0, 4118.462, 4314.872, 4066.667, 4156.923, 4145.128, 450, 0, []
1630309684.6014, 70, 0, 4121.026, 4309.231, 4064.103, 4153.333, 4156.41, 202, 0, []
1630309684.6093, 71, 0, 4122.564, 4309.231, 4033.846, 4146.667, 4164.615, 450, 0, []
1630309684.6173, 72, 0, 4128.718, 4336.923, 4045.128, 4146.667, 4161.026, 450, 0, []
1630309684.6252, 73, 0, 4121.026, 4311.282, 4025.128, 4149.231, 4144.103, 16125, 0, []
1630309684.6331, 74, 0, 4102.564, 4250.769, 4004.615, 4143.077, 4128.718, 450, 0, []
1630309684.641, 75, 0, 4096.923, 4254.359, 4008.718, 4149.744, 4125.641, 16198, 0, []
1630309684.649, 76, 0, 4101.026, 4272.821, 4009.744, 4162.564, 4123.077, 450, 0, []
1630309684.6569, 77, 0, 4107.692, 4232.308, 3995.385, 4152.308, 4122.051, 450, 0, []
1630309684.6647, 78, 0, 4111.282, 4174.359, 3806.154, 4117.436, 4125.128, 450, 0, []
1630309684.6725, 79, 0, 4106.154, 4137.436, 3607.692, 4090.769, 4123.077, 16198, 0, []
1630309684.6803, 80, 0, 4103.077, 4107.179, 3634.872, 4092.821, 4121.026, 450, 0, []
1630309684.6882, 81, 0, 4107.179, 4072.821, 3729.744, 4102.564, 4126.667, 450, 0, []
1630309684.696, 82, 0, 4107.179, 4039.487, 3832.308, 4112.821, 4135.897, 450, 0, []
1630309684.7039, 83, 0, 4102.051, 4007.692, 3907.179, 4118.974, 4139.487, 16198, 0, []
1630309684.7116, 84, 0, 4105.128, 3985.641, 3949.744, 4121.026, 4140, 450, 0, []
1630309684.7195, 85, 0, 4112.308, 3986.667, 4015.897, 4127.179, 4137.949, 450, 0, []
1630309684.7273, 86, 0, 4112.821, 3985.128, 4035.385, 4130.256, 4136.923, 450, 0, []
1630309684.7352, 87, 0, 4107.179, 3934.872, 4067.179, 4132.821, 4137.436, 16198, 0, []
1630309684.743, 88, 0, 4098.974, 3901.538, 4090.769, 4137.436, 4131.282, 450, 0, []
1630309684.7509, 89, 0, 4096.923, 3941.026, 4108.205, 4146.667, 4127.179, 450, 0, []
1630309684.7588, 90, 0, 4098.462, 3964.103, 4157.949, 4147.179, 4127.179, 450, 0, []
1630309684.7668, 91, 0, 4092.308, 3931.795, 4146.667, 4121.538, 4114.359, 16198, 0, []
1630309684.7747, 92, 0, 4089.231, 3924.615, 4172.308, 4110.256, 4107.179, 450, 0, []
1630309684.7827, 93, 0, 4096.41, 3935.897, 4198.462, 4131.282, 4118.462, 450, 0, []
1630309684.7905, 94, 0, 4090.769, 3898.974, 4182.051, 4141.026, 4117.949, 450, 0, []
1630309684.7985, 95, 0, 4088.205, 3865.641, 4201.538, 4132.821, 4116.923, 16198, 0, []
1630309684.8064, 96, 0, 4106.154, 3888.718, 4193.333, 4124.103, 4140, 450, 0, []
1630309684.8144, 97, 0, 4131.795, 3903.59, 4221.026, 4122.564, 4161.538, 450, 0, []
1630309684.8223, 98, 0, 4181.026, 3879.487, 4238.974, 4131.282, 4187.692, 450, 0, []
1630309684.8303, 99, 0, 4246.667, 3873.846, 4218.462, 4140.513, 4252.308, 16198, 0, []
1630309684.8381, 100, 0, 4294.359, 3891.282, 4230.769, 4146.154, 4321.538, 450, 0, []
1630309684.8459, 101, 0, 4329.744, 3885.128, 4214.872, 4154.359, 4353.333, 450, 0, []
1630309684.8538, 102, 0, 4366.667, 3876.923, 4242.051, 4162.564, 4374.872, 450, 0, []
1630309684.8616, 103, 0, 4387.179, 3883.59, 4249.231, 4154.359, 4410.769, 16198, 0, []
1630309684.8695, 104, 0, 4400.513, 3878.462, 4219.487, 4150.256, 4432.308, 450, 0, []
1630309684.8772, 105, 0, 4429.231, 3879.487, 4252.308, 4164.615, 4431.282, 450, 0, []
1630309684.8851, 106, 0, 4454.359, 3891.282, 4243.59, 4167.179, 4432.821, 450, 0, []
1630309684.8929, 107, 0, 4461.026, 3860.513, 4255.385, 4151.795, 4439.487, 16198, 0, []
1630309684.9009, 108, 0, 4463.077, 3832.308, 4271.282, 4137.949, 4449.744, 450, 0, []
1630309684.9088, 109, 0, 4467.179, 3849.744, 4253.846, 4140, 4467.692, 450, 0, []
1630309684.9167, 110, 0, 4464.103, 3842.564, 4277.436, 4149.744, 4469.744, 450, 0, []
1630309684.9246, 111, 0, 4463.077, 3807.692, 4259.487, 4149.231, 4458.462, 16198, 0, []
1630309684.9326, 112, 0, 4478.974, 3793.333, 4274.872, 4150.256, 4464.615, 450, 0, []
1630309684.9405, 113, 0, 4492.308, 3784.103, 4291.795, 4151.282, 4474.359, 450, 0, []
1630309684.9485, 114, 0, 4493.333, 3785.128, 4267.179, 4149.744, 4483.077, 450, 0, []
1630309684.9563, 115, 0, 4494.359, 3798.974, 4296.923, 4156.923, 4508.205, 16198, 0, []
1630309684.9643, 116, 0, 4495.385, 3797.436, 4287.179, 4162.051, 4530.256, 450, 0, []
1630309684.9722, 117, 0, 4490.769, 3805.128, 4294.359, 4163.59, 4536.41, 450, 0, []
1630309684.98, 118, 0, 4492.821, 3812.821, 4301.026, 4164.615, 4539.487, 450, 0, []
1630309684.9879, 119, 0, 4493.846, 3770.769, 4256.41, 4163.59, 4533.333, 16198, 0, []
1630309684.9956, 120, 0, 4480, 3748.205, 4269.744, 4168.718, 4520, 450, 0, []
1630309685.0035, 121, 0, 4471.282, 3784.615, 4258.462, 4173.333, 4517.949, 450, 0, []
1630309685.0113, 122, 0, 4477.949, 3785.641, 4269.231, 4174.872, 4522.051, 450, 0, []
1630309685.0192, 123, 0, 4478.974, 3769.231, 4284.615, 4175.385, 4520.513, 16198, 0, []
1630309685.027, 124, 0, 4472.821, 3815.897, 4262.564, 4174.872, 4525.128, 450, 0, []
1630309685.0349, 125, 0, 4475.897, 3871.282, 4301.026, 4188.718, 4544.615, 450, 0, []
1630309685.0428, 126, 0, 4481.538, 3874.359, 4289.231, 4197.949, 4559.487, 450, 0, []
1630309685.0508, 127, 0, 4485.641, 3873.846, 4282.564, 4194.359, 4554.359, 16198, 0, []
1630309685.0587, 128, 0, 4493.333, 3894.872, 4287.692, 4205.128, 4550.256, 450, 0, []
1630309685.0667, 0, 0, 4494.872, 3908.205, 4243.59, 4216.41, 4548.718, 450, 0, []
1630309685.0745, 1, 0, 4489.744, 3926.154, 4254.359, 4201.026, 4528.718, 450, 0, []
1630309685.0825, 2, 0, 4493.846, 3944.615, 4223.077, 4182.051, 4511.282, 16180, 0, []
1630309685.0904, 3, 0, 4493.333, 3937.436, 4206.667, 4182.051, 4510.769, 450, 0, []
1630309685.0984, 4, 0, 4476.923, 3919.487, 4247.179, 4171.282, 4504.103, 16112, 0, []
1630309685.1063, 5, 0, 4475.897, 3930.256, 4240.513, 4160.513, 4507.179, 450, 0, []
1630309685.1142, 6, 0, 4493.333, 3962.051, 4278.462, 4177.436, 4532.821, 194, 0, []
1630309685.1221, 7, 0, 4497.949, 3976.923, 4283.077, 4183.077, 4548.718, 450, 0, []
1630309685.13, 8, 0, 4489.744, 3975.897, 4249.744, 4181.538, 4544.103, 450, 0, []
1630309685.1379, 9, 0, 4493.333, 3968.205, 4247.692, 4190.256, 4541.538, 16115, 0, []
1630309685.1457, 10, 0, 4495.897, 3945.641, 4194.872, 4184.103, 4533.333, 450, 0, []
1630309685.1535, 11, 0, 4483.077, 3918.974, 4185.128, 4173.846, 4507.692, 16188, 0, []
1630309685.1613, 12, 0, 4470.256, 3929.744, 4187.692, 4168.205, 4481.538, 450, 0, []
1630309685.1692, 13, 0, 4458.462, 3949.231, 4164.103, 4150.256, 4460, 450, 0, []
1630309685.177, 14, 0, 4453.846, 3956.41, 4172.308, 4137.949, 4458.462, 450, 0, []
1630309685.1849, 15, 0, 4467.692, 3985.641, 4162.564, 4161.538, 4491.795, 16188, 0, []
1630309685.1927, 16, 0, 4476.923, 4007.692, 4192.308, 4189.231, 4509.231, 0, 0, []
1630309685.2005, 17, 0, 4478.462, 4012.308, 4189.231, 4186.667, 4493.333, 0, 0, []
1630309685.2083, 18, 0, 4494.872, 4027.692, 4154.872, 4179.487, 4492.308, 0, 0, []
1630309685.2163, 19, 0, 4483.077, 4017.436, 4174.359, 4163.077, 4476.923, 0, 0, []
1630309685.2242, 20, 0, 4443.59, 4008.205, 4130.769, 4135.897, 4439.487, 0, 0, []
1630309685.2322, 21, 0, 4454.359, 4057.436, 4120, 4153.333, 4451.795, 0, 0, []
1630309685.24, 22, 0, 4483.59, 4075.897, 4142.051, 4173.846, 4486.667, 0, 0, []
1630309685.248, 23, 0, 4469.231, 4052.308, 4083.59, 4140.513, 4475.897, 0, 0, []
1630309685.2559, 24, 0, 4461.538, 4096.923, 4067.692, 4143.59, 4468.205, 0, 0, []
1630309685.2639, 25, 0, 4487.179, 4156.41, 4044.615, 4190.769, 4488.718, 0, 0, []
1630309685.2718, 26, 0, 4496.41, 4151.795, 3991.282, 4187.692, 4484.615, 0, 0, []
1630309685.2796, 27, 0, 4485.128, 4156.923, 3968.718, 4161.026, 4465.641, 0, 0, []
1630309685.2875, 28, 0, 4474.359, 4201.538, 3925.128, 4156.923, 4458.974, 0, 0, []
1630309685.2953, 29, 0, 4460, 4224.615, 3907.179, 4144.615, 4454.872, 0, 0, []
1630309685.3032, 30, 0, 4445.641, 4217.949, 3880, 4123.59, 4446.667, 0, 0, []
1630309685.311, 31, 0, 4442.051, 4245.128, 3853.846, 4127.179, 4443.077, 0, 0, []
1630309685.3188, 32, 0, 4444.103, 4302.051, 3857.436, 4137.949, 4435.897, 0, 0, []
1630309685.3266, 33, 0, 4443.077, 4313.333, 3814.359, 4128.205, 4416.923, 0, 0, []
1630309685.3345, 34, 0, 4447.692, 4327.692, 3789.744, 4121.538, 4414.359, 0, 0, []
1630309685.3423, 35, 0, 4447.179, 4381.538, 3652.308, 4118.462, 4426.154, 0, 0, []
1630309685.3502, 36, 0, 4425.641, 4394.359, 3404.615, 4097.436, 4422.564, 0, 0, []
1630309685.3579, 37, 0, 4412.821, 4393.333, 3257.949, 4083.59, 4402.051, 0, 0, []
1630309685.3659, 38, 0, 4418.974, 4437.436, 2985.641, 4058.462, 4378.462, 0, 0, []
1630309685.3738, 39, 0, 4409.744, 4454.872, 2666.667, 4006.154, 4365.128, 0, 0, []
1630309685.3818, 40, 0, 4389.744, 4445.128, 2737.436, 4001.538, 4371.282, 0, 0, []
1630309685.3897, 41, 0, 4408.205, 4468.718, 3156.41, 4055.385, 4389.744, 0, 0, []
1630309685.3976, 42, 0, 4434.872, 4507.179, 3574.872, 4096.923, 4389.231, 0, 0, []
1630309685.4055, 43, 0, 4418.974, 4530.769, 3801.538, 4117.949, 4377.436, 0, 0, []
1630309685.4135, 44, 0, 4398.974, 4535.897, 3987.179, 4149.744, 4386.154, 0, 0, []
1630309685.4214, 45, 0, 4410.256, 4536.923, 4131.282, 4177.949, 4405.128, 0, 0, []
1630309685.4294, 46, 0, 4410.256, 4555.385, 4168.718, 4194.872, 4396.41, 0, 0, []
1630309685.4372, 47, 0, 4382.051, 4555.897, 4225.128, 4202.564, 4362.564, 0, 0, []
1630309685.445, 48, 0, 4382.051, 4548.718, 4251.795, 4197.436, 4352.821, 0, 0, []
1630309685.453, 49, 0, 4398.974, 4614.359, 4294.872, 4198.462, 4358.974, 0, 0, []
1630309685.4609, 50, 0, 4388.205, 4700, 4330.256, 4195.385, 4356.923, 0, 0, []
1630309685.4688, 51, 0, 4370.256, 4697.436, 4303.59, 4186.667, 4360, 0, 0, []
1630309685.4766, 52, 0, 4375.897, 4658.462, 4335.897, 4210.769, 4367.692, 0, 0, []
1630309685.4845, 53, 0, 4386.154, 4683.077, 4325.641, 4227.692, 4358.974, 0, 0, []
1630309685.4923, 54, 0, 4384.615, 4729.231, 4310.769, 4211.795, 4341.026, 0, 0, []
1630309685.5002, 55, 0, 4384.103, 4714.872, 4333.333, 4206.154, 4335.385, 0, 0, []
1630309685.508, 56, 0, 4375.385, 4676.41, 4305.641, 4195.385, 4335.385, 0, 0, []
1630309685.5158, 57, 0, 4351.795, 4689.231, 4310.256, 4169.231, 4333.846, 0, 0, []
1630309685.5236, 58, 0, 4349.231, 4716.923, 4298.462, 4173.333, 4335.385, 0, 0, []
1630309685.5316, 59, 0, 4367.179, 4701.026, 4302.564, 4201.026, 4336.41, 0, 0, []
1630309685.5395, 60, 0, 4374.872, 4688.205, 4322.564, 4205.641, 4326.154, 0, 0, []
1630309685.5475, 61, 0, 4370.769, 4702.564, 4289.231, 4194.359, 4314.359, 0, 0, []
1630309685.5554, 62, 0, 4363.077, 4703.077, 4311.795, 4193.333, 4311.282, 0, 0, []
1630309685.5633, 63, 0, 4352.821, 4676.41, 4296.41, 4192.308, 4305.641, 0, 0, []
1630309685.5712, 64, 0, 4349.744, 4655.897, 4265.641, 4186.667, 4297.949, 450, 0, []
1630309685.5792, 65, 0, 4352.821, 4654.359, 4289.744, 4177.436, 4289.744, 450, 0, []
1630309685.5871, 66, 0, 4350.256, 4655.385, 4270.256, 4163.59, 4282.564, 16181, 0, []
1630309685.5951, 67, 0, 4352.821, 4652.821, 4276.41, 4165.128, 4292.308, 450, 0, []
1630309685.6029, 68, 0, 4347.692, 4637.949, 4250.256, 4167.692, 4299.487, 16100, 0, []
1630309685.6107, 69, 0, 4324.103, 4618.974, 4223.59, 4164.103, 4282.051, 450, 0, []
1630309685.6186, 70, 0, 4325.641, 4617.436, 4262.051, 4174.872, 4274.359, 192, 0, []
1630309685.6264, 71, 0, 4359.487, 4638.462, 4250.769, 4190.256, 4294.872, 450, 0, []
1630309685.6343, 72, 0, 4370.256, 4643.59, 4272.821, 4191.795, 4312.308, 450, 0, []
1630309685.642, 73, 0, 4348.205, 4617.949, 4271.282, 4178.462, 4313.333, 16123, 0, []
1630309685.6499, 74, 0, 4334.872, 4602.564, 4233.333, 4170.769, 4304.103, 450, 0, []
1630309685.6577, 75, 0, 4345.641, 4591.795, 4243.077, 4180.513, 4295.385, 16197, 0, []
1630309685.6657, 76, 0, 4353.846, 4570.769, 4221.026, 4193.846, 4292.308, 450, 0, []
1630309685.6736, 77, 0, 4346.154, 4573.333, 4245.128, 4189.231, 4290.256, 450, 0, []
1630309685.6815, 78, 0, 4339.487, 4590.256, 4256.41, 4161.538, 4290.256, 450, 0, []
1630309685.6894, 79, 0, 4341.538, 4580.513, 4244.615, 4157.949, 4294.872, 16197, 0, []
1630309685.6974, 80, 0, 4341.538, 4578.462, 4297.436, 4181.538, 4287.692, 450, 0, []
1630309685.7053, 81, 0, 4336.41, 4605.641, 4322.051, 4178.974, 4267.692, 450, 0, []
1630309685.7133, 82, 0, 4326.154, 4588.205, 4361.538, 4166.154, 4266.154, 450, 0, []
1630309685.7211, 83, 0, 4310.769, 4556.923, 4343.59, 4172.308, 4274.359, 16197, 0, []
1630309685.7291, 84, 0, 4308.205, 4586.154, 4296.923, 4182.564, 4271.282, 450, 0, []
1630309685.737, 85, 0, 4313.333, 4591.282, 4333.333, 4187.179, 4260, 450, 0, []
1630309685.745, 86, 0, 4302.564, 4557.436, 4303.59, 4177.436, 4245.128, 450, 0, []
1630309685.7529, 87, 0, 4289.231, 4567.692, 4290.769, 4167.179, 4239.487, 16197, 0, []
1630309685.7606, 88, 0, 4292.821, 4566.667, 4291.795, 4178.462, 4249.744, 450, 0, []
1630309685.7685, 89, 0, 4296.923, 4518.974, 4232.308, 4191.795, 4248.205, 450, 0, []
1630309685.7763, 90, 0, 4283.077, 4526.154, 4222.051, 4179.487, 4232.308, 450, 0, []
1630309685.7842, 91, 0, 4263.59, 4548.718, 4174.359, 4161.538, 4229.744, 16197, 0, []
1630309685.792, 92, 0, 4255.897, 4501.538, 4143.59, 4163.077, 4222.564, 450, 0, []
1630309685.7998, 93, 0, 4254.872, 4481.538, 4147.179, 4160.513, 4197.436, 450, 0, []
1630309685.8076, 94, 0, 4248.205, 4512.821, 4105.128, 4139.487, 4193.846, 450, 0, []
1630309685.8155, 95, 0, 4245.641, 4493.333, 4120.513, 4133.333, 4207.692, 16197, 0, []
1630309685.8233, 96, 0, 4252.308, 4436.41, 4114.872, 4132.308, 4193.846, 450, 0, []
1630309685.8313, 97, 0, 4242.051, 4421.538, 4105.128, 4116.923, 4176.923, 450, 0, []
1630309685.8391, 98, 0, 4233.846, 4425.128, 4146.154, 4129.231, 4194.359, 450, 0, []
1630309685.8471, 99, 0, 4257.949, 4428.205, 4153.333, 4157.949, 4208.205, 16197, 0, []
1630309685.855, 100, 0, 4274.359, 4443.59, 4182.564, 4156.41, 4201.538, 450, 0, []
1630309685.863, 101, 0, 4262.564, 4436.41, 4179.487, 4150.769, 4212.821, 450, 0, []
1630309685.8709, 102, 0, 4261.538, 4394.872, 4166.154, 4152.821, 4221.026, 450, 0, []
1630309685.8788, 103, 0, 4267.692, 4359.487, 4187.179, 4138.462, 4203.59, 16197, 0, []
1630309685.8867, 104, 0, 4249.744, 4354.359, 4176.41, 4140, 4195.897, 450, 0, []
1630309685.8947, 105, 0, 4235.897, 4354.872, 4197.436, 4164.615, 4192.308, 450, 0, []
1630309685.9026, 106, 0, 4231.795, 4323.59, 4169.744, 4144.615, 4171.795, 450, 0, []
1630309685.9106, 107, 0, 4216.923, 4292.308, 4149.231, 4122.051, 4164.615, 16197, 0, []
1630309685.9185, 108, 0, 4216.41, 4325.128, 4206.154, 4158.462, 4177.436, 450, 0, []
1630309685.9262, 109, 0, 4223.077, 4357.436, 4182.564, 4168.718, 4180, 450, 0, []
1630309685.9341, 110, 0, 4200.513, 4331.795, 4162.051, 4136.41, 4158.974, 450, 0, []
1630309685.9419, 111, 0, 4152.821, 4318.462, 4146.667, 4121.538, 4107.179, 16197, 0, []
1630309685.9498, 112, 0, 4100.513, 4324.103, 4117.949, 4125.641, 4046.667, 450, 0, []
1630309685.9576, 113, 0, 4040.513, 4304.103, 4134.872, 4130.256, 3997.949, 450, 0, []
1630309685.9654, 114, 0, 3977.949, 4275.897, 4117.949, 4131.282, 3941.538, 450, 0, []
1630309685.9732, 115, 0, 3925.128, 4275.385, 4140.513, 4126.667, 3873.846, 16197, 0, []
1630309685.9811, 116, 0, 3880, 4287.179, 4158.462, 4113.333, 3815.385, 450, 0, []
1630309685.9889, 117, 0, 3834.359, 4266.154, 4145.128, 4106.667, 3767.692, 450, 0, []
1630309685.9969, 118, 0, 3791.282, 4237.949, 4190.256, 4108.205, 3722.051, 450, 0, []
1630309686.0047, 119, 0, 3766.667, 4237.949, 4211.282, 4101.026, 3685.128, 16197, 0, []
1630309686.0127, 120, 0, 3756.41, 4197.436, 4253.846, 4104.615, 3654.359, 450, 0, []
1630309686.0206, 121, 0, 3726.154, 4123.077, 4265.641, 4111.795, 3621.026, 450, 0, []
1630309686.0286, 122, 0, 3694.359, 4113.846, 4207.179, 4097.436, 3597.949, 450, 0, []
1630309686.0365, 123, 0, 3696.923, 4118.974, 4205.128, 4092.821, 3593.846, 16197, 0, []
1630309686.0444, 124, 0, 3712.821, 4071.795, 4180.513, 4104.615, 3592.821, 450, 0, []
1630309686.0523, 125, 0, 3700, 4012.308, 4168.205, 4096.41, 3582.564, 450, 0, []
1630309686.0601, 126, 0, 3678.462, 3966.667, 4175.897, 4073.846, 3586.667, 450, 0, []
1630309686.068, 127, 0, 3685.128, 3954.872, 4148.205, 4068.205, 3608.718, 16197, 0, []
1630309686.0758, 128, 0, 3707.179, 3947.179, 4164.103, 4084.615, 3621.538, 450, 0, []
1630309686.0836, 0, 0, 3712.821, 3900, 4144.103, 4094.872, 3618.974, 450, 0, []
1630309686.0914, 1, 0, 3700.513, 3867.179, 4126.667, 4089.744, 3616.41, 450, 0, []
1630309686.0993, 2, 0, 3693.846, 3861.538, 4147.692, 4088.205, 3625.641, 16198, 0, []
1630309686.1071, 3, 0, 3703.59, 3848.718, 4135.897, 4089.231, 3634.359, 450, 0, []
1630309686.1151, 4, 0, 3726.154, 3843.59, 4162.051, 4084.615, 3635.897, 16112, 0, []
1630309686.1229, 5, 0, 3748.205, 3828.205, 4162.564, 4082.051, 3650.769, 450, 0, []
1630309686.1309, 6, 0, 3754.872, 3811.795, 4162.051, 4098.462, 3679.487, 191, 0, []
1630309686.1388, 7, 0, 3763.077, 3836.41, 4199.487, 4120.513, 3695.385, 450, 0, []
1630309686.1468, 8, 0, 3786.667, 3848.718, 4181.026, 4137.949, 3705.128, 450, 0, []
1630309686.1547, 9, 0, 3804.615, 3827.179, 4185.128, 4153.333, 3732.821, 16128, 0, []
1630309686.1626, 10, 0, 3792.308, 3842.051, 4183.077, 4145.641, 3738.974, 450, 0, []
1630309686.1705, 11, 0, 3778.974, 3858.462, 4191.795, 4134.359, 3715.897, 16213, 0, []
1630309686.1785, 12, 0, 3780, 3824.103, 4217.436, 4128.205, 3702.564, 450, 0, []
1630309686.1864, 13, 0, 3771.282, 3813.333, 4183.59, 4107.692, 3691.282, 450, 0, []
1630309686.1944, 14, 0, 3754.872, 3842.051, 4236.41, 4108.205, 3670.769, 450, 0, []
1630309686.2022, 15, 0, 3750.256, 3836.923, 4264.103, 4125.641, 3667.179, 16213, 0, []
1630309686.21, 16, 0, 3761.026, 3807.179, 4190.256, 4122.564, 3688.205, 0, 0, []
1630309686.2179, 17, 0, 3763.59, 3817.949, 4153.333, 4112.821, 3696.923, 0, 0, []
1630309686.2259, 18, 0, 3766.667, 3839.487, 4115.385, 4108.205, 3697.949, 0, 0, []
1630309686.2338, 19, 0, 3786.667, 3810.256, 4111.795, 4110.769, 3712.821, 0, 0, []
1630309686.2416, 20, 0, 3803.59, 3788.205, 4110.769, 4115.897, 3729.744, 0, 0, []
1630309686.2494, 21, 0, 3800, 3811.795, 4086.154, 4108.718, 3730.256, 0, 0, []
1630309686.2572, 22, 0, 3798.462, 3820.513, 4098.974, 4101.538, 3724.615, 0, 0, []
1630309686.2651, 23, 0, 3814.359, 3816.923, 4083.077, 4111.795, 3739.487, 0, 0, []
1630309686.2729, 24, 0, 3820, 3855.385, 4086.667, 4112.308, 3754.359, 0, 0, []
1630309686.2808, 25, 0, 3822.564, 3872.308, 4098.462, 4100.513, 3753.846, 0, 0, []
1630309686.2885, 26, 0, 3829.231, 3834.359, 4075.385, 4109.744, 3753.333, 0, 0, []
1630309686.2965, 27, 0, 3825.128, 3828.718, 4093.333, 4112.821, 3752.308, 0, 0, []
1630309686.3044, 28, 0, 3831.282, 3866.667, 4090.256, 4092.308, 3752.308, 0, 0, []
1630309686.3124, 29, 0, 3846.667, 3880.513, 4087.692, 4096.923, 3767.692, 0, 0, []
1630309686.3203, 30, 0, 3849.231, 3850.769, 4090.256, 4124.103, 3785.128, 0, 0, []
1630309686.3282, 31, 0, 3858.462, 3821.538, 4058.462, 4133.846, 3788.205, 0, 0, []
1630309686.3361, 32, 0, 3878.974, 3853.846, 4062.564, 4133.846, 3797.436, 0, 0, []
1630309686.3441, 33, 0, 3883.59, 3909.744, 4045.641, 4141.538, 3817.949, 0, 0, []
1630309686.352, 34, 0, 3896.41, 3881.538, 4037.949, 4156.41, 3832.821, 0, 0, []
1630309686.36, 35, 0, 3918.462, 3833.846, 4034.872, 4148.205, 3840.513, 0, 0, []
1630309686.3678, 36, 0, 3915.897, 3882.051, 3966.667, 4120.513, 3842.564, 0, 0, []
1630309686.3758, 37, 0, 3913.333, 3930.769, 3950.769, 4126.667, 3835.897, 0, 0, []
1630309686.3837, 38, 0, 3927.692, 3898.974, 3938.462, 4141.538, 3844.103, 0, 0, []
1630309686.3917, 39, 0, 3928.718, 3873.846, 3909.744, 4132.308, 3863.59, 0, 0, []
1630309686.3996, 40, 0, 3914.872, 3892.308, 3934.872, 4131.795, 3856.923, 0, 0, []
1630309686.4075, 41, 0, 3901.026, 3872.308, 3951.282, 4126.667, 3839.487, 0, 0, []
1630309686.4154, 42, 0, 3897.436, 3834.872, 3979.487, 4107.692, 3843.077, 0, 0, []
1630309686.4234, 43, 0, 3904.103, 3869.744, 3987.179, 4114.872, 3848.205, 0, 0, []
1630309686.4313, 44, 0, 3906.667, 3924.615, 4000, 4136.923, 3845.641, 0, 0, []
1630309686.4393, 45, 0, 3912.308, 3910.256, 4050.769, 4138.462, 3853.333, 0, 0, []
1630309686.4472, 46, 0, 3922.051, 3864.103, 4033.333, 4139.487, 3870.769, 0, 0, []
1630309686.4551, 47, 0, 3923.077, 3886.667, 4039.487, 4145.128, 3877.436, 0, 0, []
1630309686.463, 48, 0, 3926.667, 3931.795, 4067.692, 4142.051, 3878.974, 0, 0, []
1630309686.4709, 49, 0, 3940.513, 3909.744, 4065.641, 4153.333, 3892.308, 0, 0, []
1630309686.4789, 50, 0, 3957.436, 3889.231, 4092.308, 4170.256, 3913.846, 0, 0, []
1630309686.4868, 51, 0, 3971.795, 3920.513, 4093.846, 4162.051, 3926.154, 0, 0, []
1630309686.4947, 52, 0, 3973.333, 3939.487, 4116.923, 4155.385, 3925.641, 0, 0, []
1630309686.5026, 53, 0, 3967.179, 3926.667, 4139.487, 4159.487, 3917.949, 0, 0, []
1630309686.5106, 54, 0, 3971.282, 3917.949, 4132.308, 4153.846, 3915.385, 0, 0, []
1630309686.5185, 55, 0, 3977.949, 3921.026, 4163.59, 4144.103, 3926.667, 0, 0, []
1630309686.5265, 56, 0, 3984.103, 3942.051, 4162.051, 4140.513, 3943.077, 0, 0, []
1630309686.5343, 57, 0, 4008.205, 3952.821, 4175.385, 4150.769, 3964.615, 0, 0, []
1630309686.5423, 58, 0, 4024.615, 3949.231, 4202.051, 4161.538, 3981.538, 0, 0, []
1630309686.5503, 59, 0, 4026.154, 3962.564, 4205.128, 4162.051, 3985.641, 0, 0, []
1630309686.5582, 60, 0, 4041.538, 3945.128, 4250.256, 4169.231, 4000, 0, 0, []
1630309686.5661, 61, 0, 4057.436, 3927.179, 4243.59, 4175.385, 4013.846, 0, 0, []
1630309686.574, 62, 0, 4053.333, 3955.897, 4206.154, 4161.538, 4004.103, 0, 0, []
1630309686.5819, 63, 0, 4050.256, 3955.385, 4180, 4139.487, 4002.051, 0, 0, []
1630309686.5899, 64, 0, 4080, 3920.513, 4143.077, 4133.846, 4042.564, 450, 0, []
1630309686.5979, 65, 0, 4151.795, 3937.436, 4145.128, 4144.103, 4106.154, 450, 0, []
1630309686.6058, 66, 0, 4228.718, 3967.179, 4115.385, 4150.256, 4157.436, 16185, 0, []
1630309686.6137, 67, 0, 4267.179, 3945.641, 4098.974, 4161.026, 4202.051, 450, 0, []
1630309686.6216, 68, 0, 4293.846, 3929.744, 4120.513, 4182.051, 4253.333, 16113, 0, []
1630309686.6296, 69, 0, 4334.359, 3963.59, 4096.41, 4188.718, 4288.718, 450, 0, []
1630309686.6375, 70, 0, 4347.179, 3980, 4101.538, 4177.949, 4303.077, 194, 0, []
1630309686.6455, 71, 0, 4333.333, 3952.308, 4087.692, 4172.308, 4317.436, 450, 0, []
1630309686.6533, 72, 0, 4337.949, 3969.231, 4065.128, 4188.205, 4327.179, 450, 0, []
1630309686.6613, 73, 0, 4347.692, 4012.308, 4084.615, 4198.974, 4330.769, 16127, 0, []
1630309686.6692, 74, 0, 4329.231, 3993.846, 4062.051, 4191.795, 4342.564, 450, 0, []
1630309686.6772, 75, 0, 4311.795, 3965.641, 4062.051, 4187.179, 4342.564, 16194, 0, []
1630309686.6851, 76, 0, 4322.564, 3970.256, 4054.872, 4191.795, 4333.846, 450, 0, []
1630309686.693, 77, 0, 4340.513, 3984.615, 4014.359, 4197.436, 4357.436, 450, 0, []
1630309686.7009, 78, 0, 4345.128, 4012.821, 3984.615, 4195.897, 4392.821, 450, 0, []
1630309686.7089, 79, 0, 4356.923, 4018.462, 3900.513, 4193.333, 4400.513, 16194, 0, []
1630309686.7168, 80, 0, 4369.231, 3985.128, 3850.769, 4186.667, 4397.949, 450, 0, []
1630309686.7248, 81, 0, 4364.615, 3987.179, 3852.308, 4174.872, 4412.308, 450, 0, []
1630309686.7326, 82, 0, 4367.179, 4007.692, 3865.128, 4178.462, 4432.308, 450, 0, []
1630309686.7406, 83, 0, 4382.564, 4000, 3906.667, 4192.821, 4436.41, 16194, 0, []
1630309686.7486, 84, 0, 4390.769, 4004.615, 3911.282, 4196.923, 4440.513, 450, 0, []
1630309686.7565, 85, 0, 4393.846, 4029.744, 3947.179, 4200.513, 4456.923, 450, 0, []
1630309686.7645, 86, 0, 4404.103, 4029.744, 3997.436, 4211.282, 4478.974, 450, 0, []
1630309686.7723, 87, 0, 4407.179, 3987.179, 3989.744, 4216.41, 4483.59, 16194, 0, []
1630309686.7803, 88, 0, 4400.513, 3954.359, 4007.692, 4217.436, 4458.462, 450, 0, []
1630309686.7882, 89, 0, 4404.103, 3989.231, 4018.974, 4224.615, 4442.564, 450, 0, []
1630309686.7962, 90, 0, 4412.308, 4026.154, 4048.718, 4230.769, 4465.128, 450, 0, []
1630309686.8041, 91, 0, 4409.231, 3987.692, 4086.667, 4231.795, 4483.59, 16194, 0, []
1630309686.8121, 92, 0, 4406.154, 3948.205, 4083.59, 4230.256, 4468.718, 450, 0, []
1630309686.8199, 93, 0, 4412.821, 3990.256, 4121.026, 4231.795, 4452.821, 450, 0, []
1630309686.8279, 94, 0, 4412.308, 4055.897, 4142.051, 4237.949, 4454.359, 450, 0, []
1630309686.8358, 95, 0, 4406.154, 4047.179, 4160, 4243.59, 4462.051, 16194, 0, []
1630309686.8438, 96, 0, 4416.923, 4002.564, 4182.051, 4242.564, 4477.949, 450, 0, []
1630309686.8517, 97, 0, 4432.821, 4012.821, 4164.615, 4240.513, 4497.949, 450, 0, []
1630309686.8596, 98, 0, 4433.333, 4036.41, 4191.795, 4246.154, 4493.846, 450, 0, []
1630309686.8675, 99, 0, 4427.692, 4001.538, 4189.231, 4237.949, 4470.769, 16194, 0, []
1630309686.8755, 100, 0, 4427.692, 3982.051, 4187.692, 4228.205, 4462.051, 450, 0, []
1630309686.8834, 101, 0, 4431.282, 4016.41, 4224.615, 4247.692, 4473.846, 450, 0, []
1630309686.8914, 102, 0, 4434.872, 4028.718, 4213.846, 4260, 4485.641, 450, 0, []
1630309686.8992, 103, 0, 4427.692, 4042.051, 4231.282, 4251.282, 4476.41, 16194, 0, []
1630309686.9072, 104, 0, 4415.385, 4071.795, 4234.359, 4261.538, 4469.744, 450, 0, []
1630309686.9151, 105, 0, 4399.487, 4038.462, 4218.462, 4268.718, 4463.077, 450, 0, []
1630309686.9231, 106, 0, 4376.923, 3999.487, 4237.436, 4236.41, 4430.769, 450, 0, []
1630309686.9311, 107, 0, 4358.974, 4024.103, 4251.795, 4211.282, 4411.282, 16194, 0, []
1630309686.9389, 108, 0, 4335.385, 4038.974, 4296.41, 4218.462, 4410.769, 450, 0, []
1630309686.9469, 109, 0, 4319.487, 4027.179, 4312.308, 4226.667, 4395.897, 450, 0, []
1630309686.9548, 110, 0, 4345.641, 4040.513, 4336.41, 4243.077, 4390.769, 450, 0, []
1630309686.9628, 111, 0, 4373.846, 4070.256, 4381.026, 4261.538, 4412.821, 16194, 0, []
1630309686.9707, 112, 0, 4351.795, 4078.974, 4354.359, 4256.41, 4420, 450, 0, []
1630309686.9786, 113, 0, 4320.513, 4066.667, 4355.385, 4254.872, 4394.359, 450, 0, []
1630309686.9865, 114, 0, 4318.462, 4058.462, 4312.821, 4250.769, 4362.051, 450, 0, []
1630309686.9945, 115, 0, 4312.308, 4044.103, 4230.769, 4230.769, 4349.744, 16194, 0, []
1630309687.0024, 116, 0, 4290.256, 4034.359, 4217.436, 4226.667, 4348.205, 450, 0, []
1630309687.0104, 117, 0, 4274.872, 4041.026, 4177.436, 4222.564, 4319.487, 450, 0, []
1630309687.0182, 118, 0, 4268.718, 4030.769, 4164.103, 4194.872, 4286.667, 450, 0, []
1630309687.0262, 119, 0, 4275.385, 4029.231, 4171.282, 4197.436, 4310.256, 16194, 0, []
1630309687.0341, 120, 0, 4302.051, 4071.795, 4160, 4233.333, 4355.385, 450, 0, []
1630309687.0421, 121, 0, 4321.026, 4075.385, 4173.846, 4233.333, 4352.308, 450, 0, []
1630309687.05, 122, 0, 4309.231, 4023.077, 4147.692, 4203.59, 4329.231, 450, 0, []
1630309687.058, 123, 0, 4302.051, 4024.103, 4141.538, 4209.744, 4333.846, 16194, 0, []
1630309687.0659, 124, 0, 4322.564, 4050.769, 4143.077, 4229.744, 4345.641, 450, 0, []
1630309687.0738, 125, 0, 4336.923, 4035.897, 4109.231, 4219.487, 4340.513, 450, 0, []
1630309687.0818, 126, 0, 4326.667, 4028.718, 4116.41, 4204.615, 4338.974, 450, 0, []
1630309687.0897, 127, 0, 4315.385, 4042.564, 4089.744, 4205.641, 4342.051, 16194, 0, []
1630309687.0977, 128, 0, 4325.641, 4057.436, 4070.256, 4212.821, 4341.026, 450, 0, []
1630309687.1055, 0, 0, 4353.846, 4068.718, 4098.974, 4216.41, 4355.897, 450, 0, []
1630309687.1135, 1, 0, 4355.385, 4057.436, 4089.231, 4208.205, 4375.385, 450, 0, []
1630309687.1214, 2, 0, 4339.487, 4047.692, 4085.641, 4206.667, 4379.487, 16180, 0, []
1630309687.1294, 3, 0, 4350.256, 4064.615, 4078.462, 4222.564, 4378.974, 450, 0, []
1630309687.1373, 4, 0, 4352.821, 4055.897, 4092.821, 4229.744, 4372.308, 16105, 0, []
1630309687.1452, 5, 0, 4319.487, 4029.744, 4104.615, 4214.872, 4347.179, 450, 0, []
1630309687.1531, 6, 0, 4305.128, 4040.513, 4057.949, 4194.359, 4319.487, 197, 0, []
1630309687.1611, 7, 0, 4308.718, 4042.051, 4054.872, 4178.462, 4304.615, 450, 0, []
1630309687.169, 8, 0, 4282.051, 4037.949, 4047.179, 4170.256, 4296.923, 450, 0, []
1630309687.177, 9, 0, 4267.179, 4077.436, 4041.538, 4176.923, 4293.846, 16124, 0, []
1630309687.1848, 10, 0, 4294.359, 4092.308, 4074.872, 4191.795, 4293.333, 450, 0, []
1630309687.1928, 11, 0, 4293.333, 4052.308, 4050.769, 4194.359, 4292.308, 16192, 0, []
1630309687.2007, 12, 0, 4257.949, 4053.846, 4040, 4184.103, 4275.385, 450, 0, []
1630309687.2087, 13, 0, 4257.436, 4095.385, 4039.487, 4181.538, 4260.513, 450, 0, []
1630309687.2167, 14, 0, 4275.385, 4108.718, 4038.462, 4196.923, 4273.846, 450, 0, []
1630309687.2245, 15, 0, 4260, 4108.205, 4051.795, 4196.923, 4273.846, 16192, 0, []
1630309687.2325, 16, 0, 4232.308, 4100, 4002.564, 4168.718, 4238.462, 0, 0, []
1630309687.2404, 17, 0, 4225.641, 4098.974, 3983.077, 4175.385, 4221.538, 0, 0, []
1630309687.2484, 18, 0, 4240, 4114.872, 3973.333, 4199.487, 4233.333, 0, 0, []
1630309687.2563, 19, 0, 4250.769, 4133.333, 3942.564, 4184.103, 4235.897, 0, 0, []
1630309687.2642, 20, 0, 4246.154, 4127.692, 3958.974, 4172.821, 4237.436, 0, 0, []
1630309687.2721, 21, 0, 4249.744, 4101.026, 3952.308, 4178.462, 4242.564, 0, 0, []
1630309687.2801, 22, 0, 4262.051, 4110.769, 3971.282, 4165.641, 4245.128, 0, 0, []
1630309687.288, 23, 0, 4267.692, 4140, 4007.692, 4158.974, 4261.026, 0, 0, []
1630309687.296, 24, 0, 4270.769, 4141.538, 4010.769, 4175.897, 4269.744, 0, 0, []
1630309687.3039, 25, 0, 4273.846, 4122.051, 4049.231, 4180.513, 4263.077, 0, 0, []
1630309687.3118, 26, 0, 4278.462, 4096.923, 4068.205, 4172.308, 4268.718, 0, 0, []
1630309687.3197, 27, 0, 4290.769, 4086.154, 4082.051, 4183.077, 4276.41, 0, 0, []
1630309687.3277, 28, 0, 4298.974, 4130.256, 4101.026, 4194.359, 4280.513, 0, 0, []
1630309687.3356, 29, 0, 4293.846, 4168.205, 4098.974, 4196.923, 4295.897, 0, 0, []
1630309687.3436, 30, 0, 4296.923, 4127.179, 4123.077, 4210.769, 4304.103, 0, 0, []
1630309687.3514, 31, 0, 4304.615, 4104.615, 4112.821, 4211.282, 4292.308, 0, 0, []
1630309687.3594, 32, 0, 4288.718, 4144.103, 4103.59, 4183.59, 4278.974, 0, 0, []
1630309687.3673, 33, 0, 4278.462, 4144.103, 4119.487, 4176.923, 4280.513, 0, 0, []
1630309687.3753, 34, 0, 4296.41, 4094.359, 4131.282, 4197.949, 4282.051, 0, 0, []
1630309687.3833, 35, 0, 4288.205, 4106.667, 4187.179, 4185.641, 4266.154, 0, 0, []
1630309687.3911, 36, 0, 4252.821, 4150.769, 4202.564, 4163.077, 4250.256, 0, 0, []
1630309687.3991, 37, 0, 4268.205, 4149.744, 4213.846, 4187.692, 4264.615, 0, 0, []
1630309687.407, 38, 0, 4303.59, 4140, 4229.744, 4206.154, 4288.718, 0, 0, []
1630309687.415, 39, 0, 4293.333, 4142.564, 4183.077, 4190.256, 4281.538, 0, 0, []
1630309687.4229, 40, 0, 4271.795, 4152.821, 4181.026, 4188.718, 4245.641, 0, 0, []
1630309687.4308, 41, 0, 4266.154, 4165.641, 4157.949, 4179.487, 4231.282, 0, 0, []
1630309687.4387, 42, 0, 4262.564, 4164.103, 4106.154, 4159.487, 4249.231, 0, 0, []
1630309687.4467, 43, 0, 4244.615, 4138.974, 4103.077, 4160, 4225.641, 0, 0, []
1630309687.4546, 44, 0, 4223.077, 4122.564, 4088.205, 4163.59, 4188.718, 0, 0, []
1630309687.4625, 45, 0, 4222.564, 4146.154, 4107.179, 4168.205, 4205.641, 0, 0, []
1630309687.4704, 46, 0, 4221.538, 4160, 4101.538, 4165.128, 4205.128, 0, 0, []
1630309687.4784, 47, 0, 4197.949, 4138.462, 4066.154, 4152.821, 4166.154, 0, 0, []
1630309687.4863, 48, 0, 4187.692, 4132.308, 4077.436, 4164.615, 4165.641, 0, 0, []
1630309687.4943, 49, 0, 4208.205, 4155.385, 4069.231, 4182.564, 4200, 0, 0, []
1630309687.5022, 50, 0, 4228.205, 4145.128, 4083.077, 4174.359, 4216.41, 0, 0, []
1630309687.5101, 51, 0, 4235.897, 4133.846, 4099.487, 4167.692, 4210.769, 0, 0, []
1630309687.518, 52, 0, 4246.667, 4174.872, 4099.487, 4170.769, 4216.41, 0, 0, []
1630309687.526, 53, 0, 4267.179, 4172.821, 4124.615, 4163.077, 4240.513, 0, 0, []
1630309687.534, 54, 0, 4263.077, 4143.077, 4100.513, 4158.462, 4235.897, 0, 0, []
1630309687.5419, 55, 0, 4233.846, 4186.154, 4090.256, 4167.179, 4213.846, 0, 0, []
1630309687.5498, 56, 0, 4230.256, 4199.487, 4089.231, 4163.59, 4225.641, 0, 0, []
1630309687.5577, 57, 0, 4251.282, 4153.333, 4082.564, 4157.949, 4234.872, 0, 0, []
1630309687.5657, 58, 0, 4256.923, 4173.846, 4120.513, 4175.897, 4237.949, 0, 0, []
1630309687.5736, 59, 0, 4247.179, 4236.41, 4085.128, 4182.051, 4245.641, 0, 0, []
1630309687.5816, 60, 0, 4242.051, 4218.462, 4031.282, 4167.692, 4229.231, 0, 0, []
1630309687.5895, 61, 0, 4236.923, 4165.641, 4023.59, 4164.615, 4214.872, 0, 0, []
1630309687.5974, 62, 0, 4238.462, 4183.077, 4017.436, 4167.692, 4229.744, 0, 0, []
1630309687.6053, 63, 0, 4249.231, 4228.718, 4047.179, 4166.154, 4238.462, 0, 0, []
1630309687.6133, 64, 0, 4246.154, 4213.846, 4046.667, 4165.641, 4230.256, 450, 0, []
1630309687.6212, 65, 0, 4228.718, 4185.128, 4045.641, 4160, 4215.385, 450, 0, []
1630309687.6292, 66, 0, 4227.179, 4223.59, 4064.615, 4149.231, 4213.333, 16188, 0, []
1630309687.637, 67, 0, 4254.359, 4255.897, 4063.59, 4160.513, 4242.564, 450, 0, []
1630309687.645, 68, 0, 4268.718, 4237.436, 4086.667, 4184.103, 4250.256, 16095, 0, []
1630309687.6529, 69, 0, 4251.795, 4246.154, 4068.718, 4178.974, 4233.333, 450, 0, []
1630309687.6609, 70, 0, 4232.308, 4268.718, 4054.872, 4172.821, 4234.359, 192, 0, []
1630309687.6688, 71, 0, 4228.205, 4249.231, 4077.436, 4177.436, 4223.59, 450, 0, []
1630309687.6767, 72, 0, 4221.026, 4220.513, 4057.436, 4165.641, 4201.538, 450, 0, []
1630309687.6847, 73, 0, 4201.026, 4230.256, 4064.103, 4158.462, 4196.41, 16124, 0, []
1630309687.6926, 74, 0, 4193.846, 4264.615, 4067.179, 4166.667, 4190.769, 450, 0, []
1630309687.7006, 75, 0, 4208.718, 4262.564, 4067.692, 4177.436, 4177.949, 16200, 0, []
1630309687.7085, 76, 0, 4218.974, 4234.872, 4093.333, 4191.795, 4182.051, 450, 0, []
1630309687.7164, 77, 0, 4203.077, 4243.077, 4067.179, 4188.205, 4188.205, 450, 0, []
1630309687.7243, 78, 0, 4173.333, 4261.026, 4063.59, 4155.385, 4165.128, 450, 0, []
1630309687.7323, 79, 0, 4171.795, 4243.59, 4073.846, 4137.949, 4144.103, 16200, 0, []
1630309687.7402, 80, 0, 4195.897, 4247.179, 4078.974, 4158.462, 4165.128, 450, 0, []
1630309687.7482, 81, 0, 4205.641, 4281.538, 4100, 4176.41, 4185.641, 450, 0, []
1630309687.756, 82, 0, 4199.487, 4274.359, 4067.179, 4170.769, 4173.333, 450, 0, []
1630309687.764, 83, 0, 4204.103, 4246.154, 4068.205, 4176.41, 4176.41, 16200, 0, []
1630309687.7719, 84, 0, 4209.231, 4247.179, 4085.641, 4193.333, 4189.231, 450, 0, []
1630309687.7799, 85, 0, 4194.359, 4265.641, 4071.795, 4188.718, 4174.872, 450, 0, []
1630309687.7878, 86, 0, 4183.077, 4285.641, 4082.564, 4171.282, 4162.564, 450, 0, []
1630309687.7957, 87, 0, 4182.051, 4296.41, 4062.051, 4148.718, 4163.077, 16200, 0, []
1630309687.8036, 88, 0, 4171.282, 4290.256, 4066.667, 4127.692, 4149.744, 450, 0, []
1630309687.8116, 89, 0, 4163.077, 4273.846, 4080, 4132.308, 4140, 450, 0, []
1630309687.8195, 90, 0, 4175.385, 4276.41, 4062.564, 4152.821, 4156.923, 450, 0, []
1630309687.8275, 91, 0, 4196.923, 4308.205, 4081.026, 4155.385, 4178.974, 16200, 0, []
1630309687.8354, 92, 0, 4213.846, 4328.718, 4072.821, 4148.205, 4188.718, 450, 0, []
1630309687.8433, 93, 0, 4220, 4298.462, 4075.385, 4157.949, 4189.744, 450, 0, []
1630309687.8512, 94, 0, 4216.41, 4282.051, 4081.026, 4161.026, 4189.231, 450, 0, []
1630309687.8592, 95, 0, 4210.256, 4292.308, 4054.359, 4146.154, 4187.179, 16200, 0, []
1630309687.8672, 96, 0, 4207.179, 4282.564, 4074.359, 4139.487, 4185.128, 450, 0, []
1630309687.8751, 97, 0, 4198.462, 4286.667, 4071.282, 4141.538, 4177.436, 450, 0, []
1630309687.883, 98, 0, 4183.59, 4305.128, 4070.769, 4133.333, 4163.077, 450, 0, []
1630309687.8909, 99, 0, 4180.513, 4311.282, 4091.282, 4122.564, 4162.051, 16200, 0, []
1630309687.8989, 100, 0, 4188.205, 4305.128, 4074.872, 4129.744, 4167.692, 450, 0, []
1630309687.9068, 101, 0, 4180, 4282.564, 4091.282, 4146.667, 4155.897, 450, 0, []
1630309687.9148, 102, 0, 4173.333, 4257.436, 4092.821, 4152.308, 4147.179, 450, 0, []
1630309687.9226, 103, 0, 4180, 4254.872, 4086.667, 4152.308, 4153.333, 16200, 0, []
1630309687.9306, 104, 0, 4176.923, 4266.154, 4093.333, 4148.205, 4151.282, 450, 0, []
1630309687.9385, 105, 0, 4172.308, 4266.154, 4071.795, 4145.128, 4154.359, 450, 0, []
1630309687.9465, 106, 0, 4184.103, 4272.821, 4095.385, 4161.026, 4168.205, 450, 0, []
1630309687.9544, 107, 0, 4187.179, 4272.821, 4097.949, 4168.205, 4163.59, 16200, 0, []
1630309687.9623, 108, 0, 4174.359, 4256.923, 4085.641, 4155.897, 4150.769, 450, 0, []
1630309687.9702, 109, 0, 4175.385, 4248.205, 4107.692, 4154.359, 4152.821, 450, 0, []
1630309687.9782, 110, 0, 4183.59, 4261.538, 4080.513, 4161.538, 4161.026, 450, 0, []
1630309687.9861, 111, 0, 4188.205, 4283.077, 4085.128, 4169.231, 4163.077, 16200, 0, []
1630309687.9941, 112, 0, 4204.103, 4276.923, 4105.128, 4177.949, 4163.077, 450, 0, []
1630309688.002, 113, 0, 4223.59, 4290.256, 4100, 4185.641, 4181.538, 450, 0, []
1630309688.0099, 114, 0, 4234.359, 4328.718, 4104.103, 4187.692, 4208.718, 450, 0, []
1630309688.0179, 115, 0, 4246.667, 4335.385, 4079.487, 4178.974, 4213.333, 16200, 0, []
1630309688.0258, 116, 0, 4249.744, 4310.769, 4096.41, 4163.59, 4198.974, 450, 0, []
1630309688.0338, 117, 0, 4235.385, 4289.231, 4097.949, 4153.846, 4192.821, 450, 0, []
1630309688.0416, 118, 0, 4237.949, 4298.974, 4063.077, 4153.333, 4198.974, 450, 0, []
1630309688.0496, 119, 0, 4243.077, 4293.846, 4080, 4152.821, 4199.487, 16200, 0, []
1630309688.0575, 120, 0, 4227.179, 4256.923, 4073.846, 4155.385, 4185.641, 450, 0, []
1630309688.0655, 121, 0, 4222.051, 4260.513, 4083.59, 4161.026, 4179.487, 450, 0, []
1630309688.0734, 122, 0, 4238.462, 4307.692, 4102.564, 4159.487, 4198.974, 450, 0, []
1630309688.0813, 123, 0, 4250.256, 4308.718, 4094.872, 4162.051, 4205.128, 16200, 0, []
1630309688.0892, 124, 0, 4247.179, 4270.256, 4120, 4170.256, 4202.051, 450, 0, []
1630309688.0972, 125, 0, 4237.949, 4273.846, 4100, 4160, 4213.333, 450, 0, []
1630309688.1051, 126, 0, 4234.359, 4307.179, 4085.128, 4146.154, 4198.462, 450, 0, []
1630309688.1131, 127, 0, 4232.308, 4323.077, 4099.487, 4148.205, 4169.744, 16200, 0, []
1630309688.121, 128, 0, 4213.846, 4315.385, 4087.179, 4146.154, 4165.128, 450, 0, []
1630309688.1289, 0, 0, 4198.462, 4295.385, 4103.077, 4142.051, 4163.077, 450, 0, []
1630309688.1368, 1, 0, 4197.436, 4275.897, 4094.872, 4147.692, 4155.385, 450, 0, []
1630309688.1448, 2, 0, 4199.487, 4272.308, 4091.795, 4151.282, 4148.205, 16190, 0, []
1630309688.1527, 3, 0, 4196.41, 4305.128, 4110.769, 4145.128, 4141.026, 450, 0, []
1630309688.1605, 4, 0, 4197.949, 4327.692, 4098.974, 4139.487, 4147.179, 16097, 0, []
1630309688.1684, 5, 0, 4202.564, 4289.231, 4114.872, 4144.103, 4160.513, 450, 0, []
1630309688.1763, 6, 0, 4193.333, 4273.846, 4099.487, 4143.077, 4154.872, 200, 0, []
1630309688.1843, 7, 0, 4185.641, 4322.051, 4087.692, 4137.949, 4146.154, 450, 0, []
1630309688.1922, 8, 0, 4206.667, 4331.795, 4113.333, 4148.205, 4155.897, 450, 0, []
1630309688.2002, 9, 0, 4221.026, 4301.026, 4098.974, 4162.564, 4171.282, 16128, 0, []
1630309688.208, 10, 0, 4202.564, 4309.231, 4109.744, 4164.103, 4166.667, 450, 0, []
1630309688.216, 11, 0, 4196.923, 4313.333, 4108.205, 4153.333, 4158.462, 16205, 0, []
1630309688.2239, 12, 0, 4223.59, 4291.795, 4104.615, 4152.308, 4176.41, 450, 0, []
1630309688.2319, 13, 0, 4236.41, 4296.41, 4126.154, 4159.487, 4192.821, 450, 0, []
1630309688.2398, 14, 0, 4220, 4308.205, 4101.538, 4155.897, 4180, 450, 0, []
1630309688.2477, 15, 0, 4214.359, 4314.359, 4105.128, 4151.282, 4166.667, 16205, 0, []
1630309688.2556, 16, 0, 4230.256, 4330.769, 4103.59, 4148.718, 4178.462, 0, 0, []
1630309688.2636, 17, 0, 4237.949, 4315.385, 4086.154, 4152.821, 4194.359, 0, 0, []
1630309688.2715, 18, 0, 4230.256, 4278.974, 4100, 4157.949, 4187.692, 0, 0, []
1630309688.2795, 19, 0, 4233.846, 4288.205, 4087.179, 4158.462, 4187.692, 0, 0, []
1630309688.2873, 20, 0, 4244.103, 4293.846, 4103.59, 4169.744, 4205.641, 0, 0, []
1630309688.2951, 21, 0, 4239.487, 4279.487, 4101.026, 4174.872, 4194.359, 0, 0, []
1630309688.303, 22, 0, 4237.949, 4302.564, 4078.462, 4162.564, 4178.462, 0, 0, []
1630309688.3108, 23, 0, 4249.744, 4325.641, 4118.974, 4167.179, 4200.513, 0, 0, []
1630309688.3188, 24, 0, 4248.718, 4301.026, 4110.769, 4179.487, 4206.667, 0, 0, []
1630309688.3266, 25, 0, 4220.513, 4272.308, 4092.821, 4166.667, 4178.462, 0, 0, []
1630309688.3346, 26, 0, 4208.718, 4270.256, 4094.872, 4164.103, 4178.974, 0, 0, []
1630309688.3425, 27, 0, 4227.179, 4267.179, 4082.051, 4183.077, 4196.41, 0, 0, []
1630309688.3505, 28, 0, 4223.59, 4287.179, 4090.769, 4178.974, 4189.231, 0, 0, []
1630309688.3584, 29, 0, 4208.718, 4316.41, 4073.846, 4166.154, 4182.051, 0, 0, []
1630309688.3664, 30, 0, 4226.667, 4286.667, 4085.641, 4179.487, 4194.872, 0, 0, []
1630309688.3742, 31, 0, 4239.487, 4254.872, 4095.385, 4188.205, 4198.462, 0, 0, []
1630309688.3822, 32, 0, 4225.128, 4292.821, 4064.103, 4181.026, 4190.769, 0, 0, []
1630309688.3901, 33, 0, 4224.615, 4320.513, 4086.667, 4180, 4197.949, 0, 0, []
1630309688.3981, 34, 0, 4231.795, 4270.256, 4083.59, 4175.897, 4203.59, 0, 0, []
1630309688.406, 35, 0, 4213.846, 4245.641, 4072.821, 4166.154, 4181.026, 0, 0, []
1630309688.4139, 36, 0, 4194.872, 4273.846, 4090.256, 4161.538, 4164.615, 0, 0, []
1630309688.4218, 37, 0, 4201.026, 4256.923, 4081.026, 4157.436, 4172.308, 0, 0, []
1630309688.4297, 38, 0, 4215.385, 4240, 4100.513, 4155.385, 4172.308, 0, 0, []
1630309688.4376, 39, 0, 4219.487, 4268.205, 4095.897, 4161.026, 4171.282, 0, 0, []
1630309688.4454, 40, 0, 4220, 4273.846, 4085.641, 4169.744, 4177.949, 0, 0, []
1630309688.4532, 41, 0, 4230.769, 4246.154, 4096.41, 4169.744, 4175.897, 0, 0, []
1630309688.461, 42, 0, 4235.897, 4238.462, 4071.282, 4163.077, 4173.846, 0, 0, []
1630309688.4689, 43, 0, 4225.641, 4260.513, 4080, 4162.564, 4169.744, 0, 0, []
1630309688.4768, 44, 0, 4222.564, 4264.103, 4082.564, 4155.385, 4166.667, 0, 0, []
1630309688.4848, 45, 0, 4231.795, 4249.231, 4088.718, 4157.949, 4178.974, 0, 0, []
1630309688.4927, 46, 0, 4239.487, 4243.59, 4119.487, 4173.846, 4186.154, 0, 0, []
1630309688.5006, 47, 0, 4223.59, 4243.59, 4087.692, 4157.949, 4170.769, 0, 0, []
1630309688.5085, 48, 0, 4203.59, 4251.795, 4077.436, 4138.974, 4162.051, 0, 0, []
1630309688.5165, 49, 0, 4206.667, 4265.641, 4083.59, 4151.282, 4171.282, 0, 0, []
1630309688.5244, 50, 0, 4207.179, 4260, 4073.846, 4158.974, 4168.205, 0, 0, []
1630309688.5323, 51, 0, 4201.538, 4242.051, 4086.154, 4149.744, 4149.231, 0, 0, []
1630309688.5402, 52, 0, 4213.333, 4265.641, 4077.949, 4149.744, 4158.462, 0, 0, []
1630309688.5482, 53, 0, 4237.436, 4282.564, 4102.051, 4166.667, 4192.308, 0, 0, []
1630309688.5561, 54, 0, 4238.974, 4242.564, 4107.692, 4175.385, 4187.692, 0, 0, []
1630309688.5641, 55, 0, 4209.231, 4223.077, 4077.436, 4162.564, 4150.769, 0, 0, []
1630309688.5719, 56, 0, 4187.179, 4247.179, 4089.744, 4147.692, 4139.487, 0, 0, []
1630309688.5799, 57, 0, 4189.231, 4252.308, 4081.538, 4144.615, 4143.077, 0, 0, []
1630309688.5878, 58, 0, 4192.308, 4238.462, 4093.846, 4157.949, 4140.513, 0, 0, []
1630309688.5956, 59, 0, 4192.821, 4257.949, 4104.103, 4175.385, 4146.154, 0, 0, []
1630309688.6035, 60, 0, 4198.462, 4290.256, 4080, 4171.795, 4153.333, 0, 0, []
1630309688.6112, 61, 0, 4197.436, 4277.949, 4100.513, 4158.462, 4153.333, 0, 0, []
1630309688.6191, 62, 0, 4193.846, 4236.41, 4094.872, 4158.462, 4150.769, 0, 0, []
1630309688.6269, 63, 0, 4197.436, 4243.077, 4092.308, 4167.179, 4156.923, 0, 0, []
1630309688.6349, 64, 0, 4204.615, 4293.846, 4100.513, 4168.205, 4168.205, 450, 0, []
1630309688.6428, 65, 0, 4216.923, 4277.949, 4086.667, 4172.308, 4174.359, 450, 0, []
1630309688.6508, 66, 0, 4220.513, 4217.949, 4111.795, 4191.795, 4178.462, 16187, 0, []
1630309688.6586, 67, 0, 4217.436, 4249.744, 4104.103, 4207.179, 4184.615, 450, 0, []
1630309688.6666, 68, 0, 4220, 4303.59, 4094.872, 4203.59, 4188.718, 16101, 0, []
1630309688.6745, 69, 0, 4212.308, 4255.897, 4100, 4187.179, 4185.641, 450, 0, []
1630309688.6825, 70, 0, 4197.949, 4210.769, 4073.846, 4180.513, 4169.744, 201, 0, []
1630309688.6904, 71, 0, 4187.179, 4252.821, 4093.333, 4178.462, 4145.128, 450, 0, []
1630309688.6983, 72, 0, 4181.026, 4273.846, 4088.718, 4174.872, 4138.974, 450, 0, []
1630309688.7062, 73, 0, 4200.513, 4243.077, 4086.154, 4182.564, 4164.103, 16119, 0, []
1630309688.7142, 74, 0, 4223.59, 4254.872, 4114.872, 4184.615, 4174.359, 450, 0, []
1630309688.7221, 75, 0, 4202.051, 4289.744, 4089.744, 4177.949, 4145.128, 16195, 0, []
1630309688.7301, 76, 0, 4171.795, 4291.795, 4094.872, 4184.615, 4132.308, 450, 0, []
1630309688.7379, 77, 0, 4189.744, 4276.923, 4101.538, 4196.41, 4160.513, 450, 0, []
1630309688.7457, 78, 0, 4207.179, 4265.641, 4088.205, 4194.359, 4155.897, 450, 0, []
1630309688.7536, 79, 0, 4182.564, 4261.026, 4100.513, 4193.333, 4121.026, 16195, 0, []
1630309688.7614, 80, 0, 4170.256, 4279.487, 4090.256, 4200, 4129.231, 450, 0, []
1630309688.7693, 81, 0, 4184.103, 4280, 4102.564, 4188.718, 4140.513, 450, 0, []
1630309688.777, 82, 0, 4176.41, 4244.103, 4095.897, 4163.077, 4117.949, 450, 0, []
1630309688.785, 83, 0, 4168.718, 4251.282, 4079.487, 4165.641, 4116.923, 16195, 0, []
1630309688.7929, 84, 0, 4188.205, 4271.282, 4099.487, 4175.897, 4140, 450, 0, []
1630309688.8009, 85, 0, 4193.333, 4251.282, 4077.949, 4163.077, 4138.462, 450, 0, []
1630309688.8088, 86, 0, 4183.59, 4251.282, 4088.718, 4168.205, 4123.59, 450, 0, []
1630309688.8167, 87, 0, 4189.744, 4281.538, 4102.564, 4184.615, 4132.821, 16195, 0, []
1630309688.8246, 88, 0, 4192.821, 4291.282, 4073.333, 4170.769, 4137.436, 450, 0, []
1630309688.8326, 89, 0, 4186.154, 4272.308, 4089.744, 4160, 4125.128, 450, 0, []
1630309688.8405, 90, 0, 4188.205, 4263.59, 4101.538, 4175.385, 4130.256, 450, 0, []
1630309688.8485, 91, 0, 4189.231, 4285.641, 4112.308, 4181.026, 4137.949, 16195, 0, []
1630309688.8563, 92, 0, 4183.59, 4291.282, 4108.718, 4164.103, 4126.667, 450, 0, []
1630309688.8643, 93, 0, 4185.128, 4254.872, 4090.769, 4158.462, 4117.949, 450, 0, []
1630309688.8722, 94, 0, 4178.462, 4237.949, 4105.128, 4161.538, 4106.154, 450, 0, []
1630309688.8802, 95, 0, 4143.59, 4245.641, 4075.897, 4147.692, 4074.359, 16195, 0, []
1630309688.8882, 96, 0, 4122.564, 4252.308, 4070.769, 4146.667, 4065.641, 450, 0, []
1630309688.8961, 97, 0, 4148.205, 4275.385, 4091.282, 4170.256, 4100, 450, 0, []
1630309688.9039, 98, 0, 4180.513, 4281.026, 4076.41, 4177.949, 4127.692, 450, 0, []
1630309688.9117, 99, 0, 4188.718, 4263.59, 4108.205, 4185.641, 4124.615, 16195, 0, []
1630309688.9196, 100, 0, 4182.564, 4274.872, 4117.949, 4198.462, 4118.974, 450, 0, []
1630309688.9274, 101, 0, 4175.385, 4291.282, 4108.718, 4187.692, 4122.051, 450, 0, []
1630309688.9353, 102, 0, 4164.615, 4275.385, 4104.615, 4165.641, 4114.872, 450, 0, []
1630309688.943, 103, 0, 4153.846, 4234.872, 4078.462, 4159.487, 4096.923, 16195, 0, []
1630309688.9509, 104, 0, 4150.256, 4206.667, 4111.282, 4165.128, 4092.821, 450, 0, []
1630309688.9587, 105, 0, 4151.795, 4238.462, 4115.897, 4169.744, 4103.077, 450, 0, []
1630309688.9667, 106, 0, 4157.436, 4273.846, 4095.897, 4171.282, 4109.231, 450, 0, []
1630309688.9746, 107, 0, 4163.59, 4243.59, 4104.615, 4163.077, 4110.769, 16195, 0, []
1630309688.9825, 108, 0, 4174.359, 4212.308, 4083.077, 4155.897, 4115.897, 450, 0, []
1630309688.9904, 109, 0, 4176.41, 4212.308, 4089.744, 4158.974, 4123.59, 450, 0, []
1630309688.9984, 110, 0, 4175.385, 4217.436, 4092.821, 4165.128, 4126.667, 450, 0, []
1630309689.0063, 111, 0, 4181.026, 4230.769, 4090.256, 4166.667, 4124.615, 16195, 0, []
1630309689.0143, 112, 0, 4176.923, 4231.282, 4093.333, 4157.436, 4119.487, 450, 0, []
1630309689.0221, 113, 0, 4167.179, 4218.462, 4060, 4147.179, 4111.282, 450, 0, []
1630309689.03, 114, 0, 4164.615, 4211.282, 4081.026, 4154.359, 4106.667, 450, 0, []
1630309689.0379, 115, 0, 4164.103, 4202.051, 4097.949, 4176.923, 4104.615, 16195, 0, []
1630309689.0457, 116, 0, 4166.154, 4208.718, 4089.231, 4190.769, 4108.205, 450, 0, []
1630309689.0536, 117, 0, 4173.846, 4233.846, 4111.795, 4177.436, 4118.974, 450, 0, []
1630309689.0613, 118, 0, 4184.103, 4229.744, 4093.333, 4160.513, 4124.615, 450, 0, []
1630309689.0692, 119, 0, 4186.154, 4199.487, 4091.282, 4171.795, 4125.641, 16195, 0, []
1630309689.077, 120, 0, 4173.333, 4178.974, 4096.41, 4185.128, 4121.026, 450, 0, []
1630309689.0849, 121, 0, 4153.846, 4186.667, 4080, 4174.359, 4106.667, 450, 0, []
1630309689.0927, 122, 0, 4158.462, 4224.103, 4094.359, 4169.231, 4102.051, 450, 0, []
1630309689.1006, 123, 0, 4172.308, 4238.974, 4075.897, 4174.359, 4109.231, 16195, 0, []
1630309689.1085, 124, 0, 4166.667, 4188.205, 4074.359, 4165.641, 4108.718, 450, 0, []
1630309689.1165, 125, 0, 4169.744, 4160, 4087.179, 4161.026, 4109.231, 450, 0, []
1630309689.1244, 126, 0, 4183.077, 4211.795, 4080.513, 4172.821, 4120.513, 450, 0, []
1630309689.1324, 127, 0, 4174.872, 4248.718, 4105.128, 4178.974, 4129.744, 16195, 0, []
1630309689.1403, 128, 0, 4168.718, 4219.487, 4086.154, 4167.179, 4134.359, 450, 0, []
1630309689.1482, 0, 0, 4185.128, 4184.615, 4079.487, 4160, 4135.897, 450, 0, []
1630309689.1561, 1, 0, 4187.692, 4187.692, 4099.487, 4170.256, 4123.59, 450, 0, []
1630309689.1641, 2, 0, 4168.718, 4220, 4083.59, 4177.436, 4106.667, 16187, 0, []
1630309689.172, 3, 0, 4162.051, 4241.026, 4095.385, 4173.846, 4105.128, 450, 0, []
1630309689.18, 4, 0, 4166.154, 4216.41, 4086.154, 4167.179, 4106.154, 16100, 0, []
1630309689.1878, 5, 0, 4157.436, 4187.692, 4086.667, 4164.103, 4105.641, 450, 0, []
1630309689.1956, 6, 0, 4151.795, 4196.41, 4101.538, 4164.103, 4104.615, 203, 0, []
1630309689.2035, 7, 0, 4164.615, 4211.282, 4076.41, 4165.128, 4104.615, 450, 0, []
1630309689.2113, 8, 0, 4172.821, 4218.974, 4100.513, 4171.795, 4110.769, 450, 0, []
1630309689.2192, 9, 0, 4178.974, 4215.385, 4109.744, 4174.359, 4122.564, 16127, 0, []
1630309689.2269, 10, 0, 4188.205, 4179.487, 4092.308, 4174.359, 4132.308, 450, 0, []
1630309689.2348, 11, 0, 4183.077, 4174.872, 4094.359, 4178.462, 4129.744, 16197, 0, []
1630309689.2426, 12, 0, 4172.308, 4201.538, 4072.308, 4171.795, 4116.41, 450, 0, []
1630309689.2506, 13, 0, 4161.538, 4189.231, 4078.974, 4162.051, 4101.026, 450, 0, []
1630309689.2585, 14, 0, 4144.103, 4189.231, 4068.205, 4152.821, 4088.718, 450, 0, []
1630309689.2664, 15, 0, 4134.359, 4227.692, 4058.974, 4141.026, 4084.103, 16197, 0, []
1630309689.2743, 16, 0, 4150.256, 4223.59, 4091.282, 4147.179, 4092.821, 0, 0, []
1630309689.2823, 17, 0, 4161.538, 4175.897, 4077.949, 4169.744, 4107.692, 0, 0, []
1630309689.2902, 18, 0, 4151.282, 4162.051, 4085.128, 4183.59, 4103.59, 0, 0, []
1630309689.2982, 19, 0, 4142.051, 4172.308, 4091.282, 4173.333, 4091.282, 0, 0, []
1630309689.306, 20, 0, 4143.077, 4185.641, 4079.487, 4161.538, 4098.974, 0, 0, []
1630309689.314, 21, 0, 4141.026, 4199.487, 4092.821, 4163.077, 4104.103, 0, 0, []
1630309689.3219, 22, 0, 4133.333, 4190.256, 4074.872, 4162.051, 4100, 0, 0, []
1630309689.3299, 23, 0, 4145.128, 4183.59, 4091.795, 4162.051, 4100, 0, 0, []
1630309689.3378, 24, 0, 4155.385, 4193.333, 4103.077, 4158.974, 4097.436, 0, 0, []
1630309689.3455, 25, 0, 4131.795, 4173.846, 4078.974, 4155.385, 4086.154, 0, 0, []
1630309689.3534, 26, 0, 4108.718, 4156.923, 4087.179, 4158.974, 4070.256, 0, 0, []
1630309689.3612, 27, 0, 4120, 4200, 4072.308, 4173.333, 4077.949, 0, 0, []
1630309689.3691, 28, 0, 4138.462, 4213.333, 4081.538, 4186.154, 4094.359, 0, 0, []
1630309689.3769, 29, 0, 4122.051, 4167.692, 4082.051, 4167.179, 4076.923, 0, 0, []
1630309689.3849, 30, 0, 4101.538, 4175.385, 4055.385, 4140.513, 4047.692, 0, 0, []
1630309689.3927, 31, 0, 4110.769, 4230.769, 4088.718, 4141.538, 4052.821, 0, 0, []
1630309689.4007, 32, 0, 4127.692, 4238.974, 4094.872, 4153.846, 4072.821, 0, 0, []
1630309689.4086, 33, 0, 4130.769, 4200, 4097.949, 4160, 4077.949, 0, 0, []
1630309689.4166, 34, 0, 4130.256, 4180, 4107.692, 4166.667, 4074.359, 0, 0, []
1630309689.4245, 35, 0, 4134.872, 4209.744, 4085.128, 4175.897, 4069.231, 0, 0, []
1630309689.4324, 36, 0, 4134.872, 4237.436, 4111.795, 4187.692, 4073.846, 0, 0, []
1630309689.4403, 37, 0, 4130.769, 4225.641, 4107.692, 4184.615, 4080, 0, 0, []
1630309689.4483, 38, 0, 4124.103, 4232.821, 4087.692, 4171.282, 4081.026, 0, 0, []
1630309689.4562, 39, 0, 4125.128, 4269.231, 4097.949, 4173.846, 4087.692, 0, 0, []
1630309689.4642, 40, 0, 4126.667, 4261.538, 4082.564, 4167.179, 4096.41, 0, 0, []
1630309689.472, 41, 0, 4128.205, 4254.872, 4086.154, 4150.256, 4092.308, 0, 0, []
1630309689.4799, 42, 0, 4135.385, 4284.615, 4074.359, 4154.359, 4079.487, 0, 0, []
1630309689.4878, 43, 0, 4129.231, 4252.308, 4072.821, 4171.282, 4072.308, 0, 0, []
1630309689.4956, 44, 0, 4113.846, 4199.487, 4096.41, 4170.769, 4076.41, 0, 0, []
1630309689.5035, 45, 0, 4107.692, 4222.051, 4083.59, 4169.231, 4080, 0, 0, []
1630309689.5112, 46, 0, 4104.103, 4245.128, 4097.436, 4173.846, 4064.615, 0, 0, []
1630309689.5191, 47, 0, 4101.026, 4229.231, 4091.282, 4163.59, 4054.872, 0, 0, []
1630309689.5269, 48, 0, 4104.103, 4221.538, 4086.667, 4163.077, 4068.205, 0, 0, []
1630309689.5348, 49, 0, 4107.179, 4222.564, 4117.949, 4177.949, 4084.103, 0, 0, []
1630309689.5426, 50, 0, 4112.308, 4236.923, 4096.923, 4179.487, 4090.256, 0, 0, []
1630309689.5504, 51, 0, 4122.051, 4255.385, 4100.513, 4174.359, 4090.256, 0, 0, []
1630309689.5582, 52, 0, 4135.385, 4234.359, 4109.231, 4181.538, 4091.795, 0, 0, []
1630309689.5662, 53, 0, 4139.487, 4211.282, 4097.436, 4182.564, 4092.821, 0, 0, []
1630309689.5742, 54, 0, 4126.154, 4229.744, 4111.795, 4178.462, 4087.179, 0, 0, []
1630309689.5821, 55, 0, 4127.179, 4240.513, 4102.564, 4187.179, 4080.513, 0, 0, []
1630309689.5899, 56, 0, 4136.923, 4249.744, 4112.308, 4188.205, 4074.359, 0, 0, []
1630309689.5979, 57, 0, 4125.128, 4275.897, 4103.59, 4172.821, 4064.615, 0, 0, []
1630309689.6058, 58, 0, 4115.897, 4278.974, 4084.615, 4174.359, 4073.846, 0, 0, []
1630309689.6138, 59, 0, 4126.154, 4273.333, 4119.487, 4190.256, 4093.333, 0, 0, []
1630309689.6217, 60, 0, 4121.538, 4272.308, 4098.974, 4180, 4089.231, 0, 0, []
1630309689.6297, 61, 0, 4112.821, 4268.205, 4085.128, 4167.179, 4080.513, 0, 0, []
1630309689.6375, 62, 0, 4122.564, 4264.103, 4105.641, 4178.974, 4087.692, 0, 0, []
1630309689.6453, 63, 0, 4127.692, 4250.769, 4106.154, 4192.308, 4089.231, 0, 0, []
1630309689.6532, 64, 0, 4122.564, 4238.462, 4122.564, 4194.359, 4081.538, 450, 0, []
1630309689.661, 65, 0, 4118.462, 4277.436, 4099.487, 4187.692, 4084.103, 450, 0, []
1630309689.6689, 66, 0, 4120.513, 4317.949, 4097.436, 4181.538, 4084.615, 16186, 0, []
1630309689.6766, 67, 0, 4124.615, 4277.436, 4118.462, 4175.897, 4083.59, 450, 0, []
1630309689.6845, 68, 0, 4122.564, 4247.179, 4103.59, 4173.846, 4085.641, 16104, 0, []
1630309689.6923, 69, 0, 4121.538, 4268.718, 4122.564, 4173.333, 4090.769, 450, 0, []
1630309689.7002, 70, 0, 4138.974, 4256.41, 4112.308, 4171.282, 4097.949, 139, 0, []
1630309689.708, 71, 0, 4149.744, 4231.282, 4090.256, 4172.821, 4095.385, 450, 0, []
1630309689.7159, 72, 0, 4135.385, 4256.923, 4090.769, 4174.872, 4082.564, 450, 0, []
1630309689.7238, 73, 0, 4125.128, 4271.282, 4082.564, 4176.41, 4076.41, 16133, 0, []
1630309689.7318, 74, 0, 4122.564, 4246.667, 4114.359, 4186.667, 4078.974, 450, 0, []
1630309689.7397, 75, 0, 4109.231, 4236.41, 4104.103, 4182.564, 4065.641, 16197, 0, []
1630309689.7477, 76, 0, 4093.333, 4234.872, 4082.564, 4167.179, 4046.154, 450, 0, []
1630309689.7555, 77, 0, 4089.744, 4250.769, 4102.051, 4172.308, 4044.103, 450, 0, []
1630309689.7635, 78, 0, 4088.718, 4274.359, 4087.179, 4172.308, 4052.308, 450, 0, []
1630309689.7714, 79, 0, 4090.769, 4259.487, 4097.436, 4156.923, 4053.846, 16197, 0, []
1630309689.7794, 80, 0, 4097.949, 4222.564, 4092.308, 4156.41, 4054.359, 450, 0, []
1630309689.7873, 81, 0, 4103.077, 4221.026, 4081.026, 4167.692, 4066.154, 450, 0, []
1630309689.795, 82, 0, 4116.41, 4251.282, 4105.641, 4161.026, 4075.385, 450, 0, []
1630309689.8029, 83, 0, 4132.821, 4252.821, 4088.205, 4153.333, 4080, 16197, 0, []
1630309689.8107, 84, 0, 4147.692, 4232.821, 4098.462, 4175.897, 4094.872, 450, 0, []
1630309689.8187, 85, 0, 4157.949, 4233.333, 4108.205, 4192.308, 4113.333, 450, 0, []
1630309689.8266, 86, 0, 4160.513, 4247.692, 4092.821, 4182.564, 4114.359, 450, 0, []
1630309689.8344, 87, 0, 4153.333, 4255.385, 4103.59, 4169.744, 4104.103, 16197, 0, []
1630309689.8422, 88, 0, 4150.769, 4248.718, 4090.769, 4174.359, 4112.308, 450, 0, []
1630309689.8501, 89, 0, 4158.974, 4259.487, 4105.641, 4183.077, 4120.513, 450, 0, []
1630309689.8579, 90, 0, 4148.718, 4286.667, 4106.667, 4175.385, 4103.077, 450, 0, []
1630309689.8658, 91, 0, 4126.667, 4267.179, 4084.615, 4157.436, 4079.487, 16197, 0, []
1630309689.8736, 92, 0, 4113.846, 4227.179, 4104.103, 4150.769, 4074.359, 450, 0, []
1630309689.8815, 93, 0, 4116.923, 4244.615, 4091.282, 4157.436, 4075.897, 450, 0, []
1630309689.8894, 94, 0, 4125.641, 4274.359, 4100, 4159.487, 4078.462, 450, 0, []
1630309689.8974, 95, 0, 4138.974, 4256.923, 4113.846, 4146.667, 4087.692, 16197, 0, []
1630309689.9053, 96, 0, 4156.41, 4242.051, 4095.897, 4137.436, 4109.744, 450, 0, []
1630309689.9133, 97, 0, 4170.769, 4255.897, 4119.487, 4156.41, 4133.333, 450, 0, []
1630309689.9211, 98, 0, 4177.949, 4265.128, 4116.923, 4174.872, 4134.359, 450, 0, []
1630309689.9291, 99, 0, 4165.641, 4270.256, 4114.359, 4173.846, 4123.077, 16197, 0, []
1630309689.937, 100, 0, 4154.359, 4258.974, 4116.41, 4173.846, 4119.487, 450, 0, []
1630309689.9448, 101, 0, 4151.795, 4233.846, 4091.282, 4178.974, 4119.487, 450, 0, []
1630309689.9527, 102, 0, 4144.615, 4224.615, 4115.385, 4181.026, 4114.359, 450, 0, []
1630309689.9606, 103, 0, 4140.513, 4225.641, 4118.462, 4173.846, 4111.795, 16197, 0, []
1630309689.9685, 104, 0, 4137.949, 4232.821, 4114.872, 4163.077, 4098.462, 450, 0, []
1630309689.9763, 105, 0, 4122.051, 4221.538, 4121.538, 4151.282, 4066.667, 450, 0, []
1630309689.9842, 106, 0, 4098.462, 4203.077, 4094.359, 4143.59, 4041.538, 450, 0, []
1630309689.992, 107, 0, 4071.795, 4204.615, 4113.333, 4145.128, 4012.308, 16197, 0, []
1630309689.9998, 108, 0, 4025.128, 4206.667, 4115.897, 4145.641, 3957.436, 450, 0, []
1630309690.0076, 109, 0, 3968.718, 4194.872, 4104.103, 4138.974, 3901.538, 450, 0, []
1630309690.0155, 110, 0, 3916.923, 4189.231, 4112.308, 4121.538, 3850.256, 450, 0, []
1630309690.0233, 111, 0, 3863.077, 4197.949, 4087.692, 4111.282, 3778.974, 16197, 0, []
1630309690.0313, 112, 0, 3821.026, 4197.436, 4104.615, 4123.59, 3732.308, 450, 0, []
1630309690.0391, 113, 0, 3800.513, 4205.641, 4106.154, 4128.718, 3728.205, 450, 0, []
1630309690.0471, 114, 0, 3781.026, 4221.538, 4086.154, 4121.026, 3701.026, 450, 0, []
1630309690.055, 115, 0, 3751.282, 4201.538, 4097.949, 4121.026, 3651.282, 16197, 0, []
1630309690.063, 116, 0, 3736.41, 4182.051, 4076.41, 4118.974, 3643.59, 450, 0, []
1630309690.0709, 117, 0, 3736.923, 4196.923, 4081.538, 4104.615, 3660, 450, 0, []
1630309690.0788, 118, 0, 3731.795, 4198.974, 4088.718, 4098.462, 3649.744, 450, 0, []
1630309690.0867, 119, 0, 3729.744, 4188.205, 4087.692, 4116.41, 3632.821, 16197, 0, []
1630309690.0947, 120, 0, 3728.205, 4193.846, 4114.359, 4137.949, 3636.923, 450, 0, []
1630309690.1026, 121, 0, 3713.846, 4206.667, 4092.308, 4136.41, 3637.436, 450, 0, []
1630309690.1104, 122, 0, 3703.077, 4213.846, 4088.718, 4128.205, 3620, 450, 0, []
1630309690.1183, 123, 0, 3707.179, 4218.974, 4093.846, 4130.769, 3618.974, 16197, 0, []
1630309690.126, 124, 0, 3706.667, 4206.667, 4081.538, 4132.308, 3640, 450, 0, []
1630309690.1339, 125, 0, 3695.385, 4177.436, 4103.077, 4126.667, 3639.487, 450, 0, []
1630309690.1417, 126, 0, 3688.718, 4187.179, 4086.154, 4120, 3618.462, 450, 0, []
1630309690.1496, 127, 0, 3686.667, 4208.718, 4091.795, 4120.513, 3613.333, 16197, 0, []
1630309690.1574, 128, 0, 3690.256, 4186.154, 4115.385, 4135.385, 3637.436, 450, 0, []
1630309690.1653, 0, 0, 3698.462, 4170.769, 4100, 4149.744, 3660.513, 450, 0, []
1630309690.1732, 1, 0, 3693.333, 4202.051, 4108.205, 4145.641, 3656.923, 450, 0, []
1630309690.1812, 2, 0, 3682.051, 4207.692, 4094.872, 4127.692, 3643.59, 16200, 0, []
1630309690.1891, 3, 0, 3686.154, 4169.231, 4095.897, 4121.026, 3648.205, 450, 0, []
1630309690.1971, 4, 0, 3697.949, 4180.513, 4108.205, 4127.692, 3666.154, 16106, 0, []
1630309690.2049, 5, 0, 3704.103, 4217.436, 4084.615, 4130.769, 3684.103, 450, 0, []
1630309690.2129, 6, 0, 3711.795, 4210.769, 4095.897, 4134.872, 3691.795, 191, 0, []
1630309690.2208, 7, 0, 3722.564, 4205.641, 4085.641, 4136.41, 3697.949, 450, 0, []
1630309690.2288, 8, 0, 3724.615, 4235.385, 4081.026, 4134.872, 3712.821, 450, 0, []
1630309690.2367, 9, 0, 3715.385, 4246.154, 4100.513, 4130.769, 3715.897, 16128, 0, []
1630309690.2446, 10, 0, 3714.359, 4200, 4076.923, 4122.564, 3704.103, 450, 0, []
1630309690.2525, 11, 0, 3744.615, 4190.769, 4090.769, 4133.333, 3717.436, 16208, 0, []
1630309690.2603, 12, 0, 3774.872, 4234.872, 4097.949, 4154.359, 3745.641, 450, 0, []
1630309690.2682, 13, 0, 3764.615, 4222.051, 4094.872, 4160, 3742.051, 450, 0, []
1630309690.276, 14, 0, 3747.692, 4194.872, 4107.692, 4149.231, 3717.949, 450, 0, []
1630309690.2838, 15, 0, 3756.41, 4217.436, 4083.59, 4142.051, 3720.513, 16208, 0, []
1630309690.2916, 16, 0, 3757.436, 4223.077, 4088.205, 4135.385, 3730.769, 0, 0, []
1630309690.2995, 17, 0, 3734.872, 4200, 4078.462, 4108.718, 3710.256, 0, 0, []
1630309690.3073, 18, 0, 3736.41, 4202.564, 4077.949, 4103.59, 3701.538, 0, 0, []
1630309690.3152, 19, 0, 3762.564, 4228.205, 4117.949, 4131.282, 3731.282, 0, 0, []
1630309690.3229, 20, 0, 3766.667, 4246.667, 4093.333, 4129.231, 3741.538, 0, 0, []
1630309690.3308, 21, 0, 3773.333, 4231.795, 4093.333, 4116.923, 3732.308, 0, 0, []
1630309690.3386, 22, 0, 3810.256, 4199.487, 4108.205, 4129.744, 3761.538, 0, 0, []
1630309690.3466, 23, 0, 3818.974, 4231.282, 4093.846, 4135.897, 3784.615, 0, 0, []
1630309690.3545, 24, 0, 3803.077, 4277.949, 4108.205, 4128.718, 3768.205, 0, 0, []
1630309690.3625, 25, 0, 3828.205, 4240.513, 4101.538, 4147.692, 3783.59, 0, 0, []
1630309690.3703, 26, 0, 3855.897, 4226.154, 4113.333, 4176.923, 3822.051, 0, 0, []
1630309690.3783, 27, 0, 3849.231, 4268.718, 4111.795, 4178.462, 3820.513, 0, 0, []
1630309690.3862, 28, 0, 3853.333, 4252.821, 4093.846, 4166.667, 3814.872, 0, 0, []
1630309690.3942, 29, 0, 3870.256, 4232.821, 4121.538, 4162.564, 3831.282, 0, 0, []
1630309690.4021, 30, 0, 3872.308, 4269.231, 4099.487, 4164.103, 3833.333, 0, 0, []
1630309690.41, 31, 0, 3873.846, 4270.256, 4088.205, 4164.103, 3827.692, 0, 0, []
1630309690.4179, 32, 0, 3886.154, 4240.513, 4105.128, 4160.513, 3843.077, 0, 0, []
1630309690.4257, 33, 0, 3896.41, 4250.256, 4094.872, 4157.949, 3862.564, 0, 0, []
1630309690.4336, 34, 0, 3900.513, 4260, 4120.513, 4164.103, 3862.051, 0, 0, []
1630309690.4414, 35, 0, 3912.821, 4251.795, 4118.974, 4176.923, 3868.205, 0, 0, []
1630309690.4492, 36, 0, 3937.436, 4233.333, 4122.051, 4185.128, 3899.487, 0, 0, []
1630309690.457, 37, 0, 3948.718, 4211.282, 4139.487, 4180, 3915.385, 0, 0, []
1630309690.4649, 38, 0, 3949.231, 4242.051, 4111.282, 4173.333, 3907.179, 0, 0, []
1630309690.4728, 39, 0, 3957.436, 4281.026, 4116.923, 4185.128, 3910.769, 0, 0, []
1630309690.4807, 40, 0, 3954.359, 4253.846, 4109.744, 4189.231, 3909.744, 0, 0, []
1630309690.4885, 41, 0, 3937.949, 4238.462, 4096.41, 4171.282, 3889.744, 0, 0, []
1630309690.4965, 42, 0, 3939.487, 4282.051, 4109.744, 4166.667, 3892.821, 0, 0, []
1630309690.5044, 43, 0, 3954.359, 4293.333, 4103.077, 4178.974, 3913.333, 0, 0, []
1630309690.5124, 44, 0, 3957.949, 4249.744, 4130.769, 4184.615, 3918.462, 0, 0, []
1630309690.5203, 45, 0, 3956.923, 4234.872, 4128.718, 4177.949, 3925.128, 0, 0, []
1630309690.5282, 46, 0, 3954.872, 4258.974, 4109.744, 4172.308, 3925.128, 0, 0, []
1630309690.5361, 47, 0, 3950.256, 4245.641, 4125.641, 4168.205, 3910.256, 0, 0, []
1630309690.5441, 48, 0, 3952.821, 4221.538, 4103.077, 4167.692, 3913.846, 0, 0, []
1630309690.552, 49, 0, 3960, 4233.333, 4108.205, 4173.333, 3925.641, 0, 0, []
1630309690.56, 50, 0, 3971.795, 4217.436, 4115.897, 4171.795, 3925.128, 0, 0, []
1630309690.5678, 51, 0, 3986.667, 4195.385, 4101.026, 4172.308, 3930.256, 0, 0, []
1630309690.5756, 52, 0, 3984.615, 4218.462, 4109.231, 4179.487, 3932.308, 0, 0, []
1630309690.5835, 53, 0, 3976.923, 4202.564, 4085.128, 4176.923, 3928.205, 0, 0, []
1630309690.5913, 54, 0, 3987.692, 4156.41, 4104.103, 4168.718, 3941.538, 0, 0, []
1630309690.5992, 55, 0, 4006.154, 4181.538, 4128.205, 4167.692, 3960.513, 0, 0, []
1630309690.607, 56, 0, 4009.744, 4205.641, 4112.308, 4167.692, 3959.487, 0, 0, []
1630309690.6148, 57, 0, 4008.205, 4171.282, 4134.359, 4166.154, 3957.949, 0, 0, []
1630309690.6226, 58, 0, 4014.872, 4154.359, 4127.179, 4169.744, 3970.256, 0, 0, []
1630309690.6305, 59, 0, 4026.667, 4182.564, 4136.41, 4182.564, 3975.897, 0, 0, []
1630309690.6383, 60, 0, 4032.308, 4204.103, 4142.564, 4190.769, 3974.359, 0, 0, []
1630309690.6463, 61, 0, 4027.179, 4188.205, 4101.026, 4182.564, 3972.308, 0, 0, []
1630309690.6541, 62, 0, 4028.718, 4187.692, 4116.41, 4171.795, 3974.872, 0, 0, []
1630309690.6621, 63, 0, 4034.872, 4203.077, 4113.333, 4163.59, 3973.333, 0, 0, []
1630309690.67, 64, 0, 4028.718, 4165.128, 4103.077, 4152.821, 3962.051, 450, 0, []
1630309690.678, 65, 0, 4017.436, 4115.385, 4107.692, 4143.59, 3950.256, 450, 0, []
1630309690.6859, 66, 0, 4013.846, 4148.205, 4093.846, 4140, 3951.282, 16208, 0, []
1630309690.6938, 67, 0, 4017.436, 4196.41, 4123.59, 4148.718, 3965.641, 450, 0, []
1630309690.7017, 68, 0, 4023.59, 4188.718, 4115.385, 4151.795, 3973.333, 16097, 0, []
1630309690.7097, 69, 0, 4033.846, 4186.154, 4101.538, 4142.051, 3969.744, 450, 0, []
1630309690.7176, 70, 0, 4048.205, 4209.231, 4126.667, 4141.538, 3969.231, 208, 0, []
1630309690.7254, 71, 0, 4063.077, 4213.333, 4114.359, 4157.436, 3983.077, 450, 0, []
1630309690.7332, 72, 0, 4066.667, 4181.538, 4124.615, 4170.769, 3994.872, 450, 0, []
1630309690.741, 73, 0, 4062.564, 4152.308, 4118.462, 4170.769, 4000.513, 16124, 0, []
1630309690.7489, 74, 0, 4065.128, 4126.154, 4102.564, 4168.205, 4011.795, 450, 0, []
1630309690.7567, 75, 0, 4063.077, 4114.359, 4100.513, 4163.077, 4011.282, 16218, 0, []
1630309690.7646, 76, 0, 4052.821, 4168.205, 4066.154, 4150.256, 3992.821, 450, 0, []
1630309690.7723, 77, 0, 4048.718, 4220.513, 4085.641, 4141.026, 3984.103, 450, 0, []
1630309690.7802, 78, 0, 4053.333, 4201.026, 4091.795, 4141.026, 3995.897, 450, 0, []
1630309690.788, 79, 0, 4058.462, 4195.897, 4078.462, 4148.205, 4010.769, 16218, 0, []
1630309690.7959, 80, 0, 4065.128, 4242.564, 4106.154, 4159.487, 4024.615, 450, 0, []
1630309690.8037, 81, 0, 4066.667, 4231.795, 4092.821, 4160.513, 4026.667, 450, 0, []
1630309690.8117, 82, 0, 4064.103, 4195.385, 4099.487, 4150.769, 4017.949, 450, 0, []
1630309690.8195, 83, 0, 4071.795, 4224.615, 4097.436, 4149.231, 4023.077, 16218, 0, []
1630309690.8275, 84, 0, 4077.949, 4242.051, 4085.641, 4158.974, 4032.308, 450, 0, []
1630309690.8354, 85, 0, 4076.923, 4204.103, 4112.821, 4163.59, 4027.179, 450, 0, []
1630309690.8434, 86, 0, 4076.923, 4193.333, 4092.308, 4161.026, 4027.692, 450, 0, []
1630309690.8513, 87, 0, 4088.718, 4236.41, 4097.949, 4168.718, 4046.667, 16218, 0, []
1630309690.8592, 88, 0, 4096.923, 4260, 4102.564, 4173.333, 4058.974, 450, 0, []
1630309690.8671, 89, 0, 4090.256, 4237.949, 4075.897, 4163.59, 4051.282, 450, 0, []
1630309690.8749, 90, 0, 4098.974, 4208.205, 4095.897, 4162.564, 4060.513, 450, 0, []
1630309690.8828, 91, 0, 4130.256, 4212.308, 4082.564, 4170.769, 4091.282, 16218, 0, []
1630309690.8906, 92, 0, 4144.615, 4218.974, 4088.205, 4180, 4100, 450, 0, []
1630309690.8984, 93, 0, 4129.231, 4193.846, 4094.872, 4181.026, 4082.564, 450, 0, []
1630309690.9062, 94, 0, 4116.923, 4191.282, 4060, 4164.615, 4061.026, 450, 0, []
1630309690.9141, 95, 0, 4117.949, 4236.41, 4076.923, 4148.205, 4053.846, 16218, 0, []
1630309690.9219, 96, 0, 4122.564, 4246.667, 4063.59, 4146.667, 4060, 450, 0, []
1630309690.9298, 97, 0, 4121.538, 4198.974, 4056.923, 4140, 4067.179, 450, 0, []
1630309690.9375, 98, 0, 4115.897, 4202.051, 4080.513, 4133.333, 4066.667, 450, 0, []
1630309690.9454, 99, 0, 4129.744, 4245.641, 4071.795, 4148.718, 4069.744, 16218, 0, []
1630309690.9532, 100, 0, 4153.333, 4221.538, 4100.513, 4174.359, 4087.692, 450, 0, []
1630309690.9612, 101, 0, 4160, 4180.513, 4105.641, 4177.949, 4093.846, 450, 0, []
1630309690.9691, 102, 0, 4153.846, 4223.59, 4105.128, 4169.744, 4087.179, 450, 0, []
1630309690.977, 103, 0, 4154.872, 4278.974, 4117.949, 4172.821, 4095.385, 16218, 0, []
1630309690.9849, 104, 0, 4155.385, 4270.769, 4080, 4165.641, 4112.308, 450, 0, []
1630309690.9929, 105, 0, 4155.385, 4237.949, 4077.949, 4153.333, 4109.744, 450, 0, []
1630309691.0008, 106, 0, 4163.59, 4218.462, 4077.949, 4146.667, 4100.513, 450, 0, []
1630309691.0088, 107, 0, 4163.077, 4217.436, 4084.615, 4148.205, 4105.641, 16218, 0, []
1630309691.0166, 108, 0, 4152.308, 4224.615, 4110.769, 4158.974, 4107.179, 450, 0, []
1630309691.0246, 109, 0, 4154.872, 4227.692, 4090.769, 4153.846, 4113.333, 450, 0, []
1630309691.0325, 110, 0, 4177.949, 4229.231, 4116.41, 4146.154, 4126.154, 450, 0, []
1630309691.0403, 111, 0, 4188.718, 4236.923, 4127.179, 4148.718, 4123.59, 16218, 0, []
1630309691.0482, 112, 0, 4175.385, 4245.641, 4111.282, 4161.026, 4121.026, 450, 0, []
1630309691.056, 113, 0, 4178.974, 4252.821, 4132.308, 4174.359, 4133.846, 450, 0, []
1630309691.0638, 114, 0, 4198.462, 4255.385, 4113.333, 4169.231, 4145.641, 450, 0, []
1630309691.0716, 115, 0, 4195.897, 4250.256, 4127.179, 4161.026, 4140.513, 16218, 0, []
1630309691.0795, 116, 0, 4182.564, 4238.462, 4133.333, 4167.692, 4128.205, 450, 0, []
1630309691.0873, 117, 0, 4190.256, 4220, 4111.795, 4176.41, 4129.744, 450, 0, []
1630309691.0952, 118, 0, 4205.641, 4237.949, 4130.769, 4174.359, 4142.564, 450, 0, []
1630309691.1029, 119, 0, 4205.641, 4260, 4105.128, 4171.795, 4142.564, 16218, 0, []
1630309691.1108, 120, 0, 4193.846, 4229.231, 4103.59, 4170.769, 4131.282, 450, 0, []
1630309691.1186, 121, 0, 4183.59, 4224.615, 4102.564, 4155.385, 4127.692, 450, 0, []
1630309691.1266, 122, 0, 4191.282, 4258.462, 4081.026, 4139.487, 4139.487, 450, 0, []
1630309691.1345, 123, 0, 4222.564, 4243.077, 4124.615, 4153.333, 4171.795, 16218, 0, []
1630309691.1424, 124, 0, 4263.59, 4220.513, 4126.154, 4177.949, 4213.333, 450, 0, []
1630309691.1503, 125, 0, 4300.513, 4243.59, 4127.179, 4185.128, 4250.256, 450, 0, []
1630309691.1583, 126, 0, 4336.41, 4255.385, 4135.897, 4181.026, 4301.026, 450, 0, []
1630309691.1662, 127, 0, 4375.897, 4262.051, 4117.949, 4190.256, 4360.513, 16218, 0, []
1630309691.1742, 128, 0, 4407.692, 4280.513, 4143.077, 4200.513, 4380.513, 450, 0, []
1630309691.182, 0, 0, 4414.872, 4254.872, 4116.41, 4180.513, 4355.897, 450, 0, []
1630309691.1899, 1, 0, 4406.667, 4235.897, 4099.487, 4155.385, 4332.308, 450, 0, []
1630309691.1978, 2, 0, 4390.256, 4261.538, 4116.923, 4148.718, 4326.667, 16196, 0, []
1630309691.2057, 3, 0, 4373.846, 4246.667, 4101.026, 4152.821, 4324.103, 450, 0, []
1630309691.2136, 4, 0, 4366.154, 4217.436, 4134.872, 4168.205, 4312.821, 16096, 0, []
1630309691.2213, 5, 0, 4353.846, 4263.077, 4135.385, 4180, 4287.179, 450, 0, []
1630309691.2292, 6, 0, 4328.718, 4308.718, 4118.974, 4174.872, 4269.744, 196, 0, []
1630309691.237, 7, 0, 4307.692, 4259.487, 4114.872, 4161.026, 4264.615, 450, 0, []
1630309691.2449, 8, 0, 4291.795, 4221.538, 4080.513, 4155.897, 4236.41, 450, 0, []
1630309691.2527, 9, 0, 4280.513, 4252.308, 4113.333, 4166.667, 4214.872, 16123, 0, []
1630309691.2605, 10, 0, 4277.949, 4256.923, 4124.615, 4183.59, 4234.359, 450, 0, []
1630309691.2683, 11, 0, 4266.154, 4242.051, 4117.436, 4195.385, 4231.282, 16207, 0, []
1630309691.2762, 12, 0, 4241.538, 4282.564, 4134.872, 4187.179, 4194.359, 450, 0, []
1630309691.284, 13, 0, 4235.897, 4323.077, 4112.821, 4177.949, 4194.872, 450, 0, []
1630309691.292, 14, 0, 4246.154, 4318.462, 4143.59, 4191.795, 4205.128, 450, 0, []
1630309691.2999, 15, 0, 4241.538, 4308.205, 4144.103, 4189.744, 4187.692, 16207, 0, []
1630309691.3078, 16, 0, 4224.615, 4277.436, 4111.795, 4166.154, 4181.538, 0, 0, []
1630309691.3157, 17, 0, 4223.077, 4244.103, 4128.205, 4170.256, 4181.026, 0, 0, []
1630309691.3237, 18, 0, 4234.872, 4258.462, 4109.231, 4182.051, 4179.487, 0, 0, []
1630309691.3316, 19, 0, 4234.872, 4271.795, 4130.769, 4181.026, 4183.59, 0, 0, []
1630309691.3396, 20, 0, 4223.077, 4253.846, 4137.436, 4182.051, 4169.744, 0, 0, []
1630309691.3474, 21, 0, 4210.769, 4268.205, 4103.59, 4176.41, 4147.692, 0, 0, []
1630309691.3552, 22, 0, 4206.667, 4295.897, 4121.026, 4166.154, 4150.256, 0, 0, []
1630309691.3631, 23, 0, 4213.846, 4265.128, 4106.667, 4167.179, 4156.41, 0, 0, []
1630309691.3709, 24, 0, 4212.821, 4247.179, 4122.564, 4175.385, 4152.821, 0, 0, []
1630309691.3788, 25, 0, 4202.564, 4289.231, 4122.564, 4175.897, 4155.385, 0, 0, []
1630309691.3865, 26, 0, 4203.59, 4294.872, 4086.154, 4167.692, 4154.872, 0, 0, []
1630309691.3944, 27, 0, 4205.128, 4276.41, 4116.923, 4166.154, 4158.462, 0, 0, []
1630309691.4022, 28, 0, 4204.103, 4298.462, 4104.103, 4170.256, 4167.179, 0, 0, []
1630309691.4101, 29, 0, 4217.949, 4303.59, 4103.077, 4170.256, 4168.718, 0, 0, []
1630309691.4179, 30, 0, 4218.974, 4253.846, 4117.949, 4169.744, 4171.282, 0, 0, []
1630309691.4258, 31, 0, 4202.051, 4243.59, 4095.897, 4172.821, 4166.667, 0, 0, []
1630309691.4337, 32, 0, 4196.923, 4289.744, 4108.205, 4167.179, 4155.385, 0, 0, []
1630309691.4417, 33, 0, 4198.462, 4280, 4080.513, 4157.436, 4154.359, 0, 0, []
1630309691.4496, 34, 0, 4205.641, 4244.103, 4088.718, 4168.205, 4159.487, 0, 0, []
1630309691.4575, 35, 0, 4216.41, 4271.795, 4110.256, 4174.359, 4165.128, 0, 0, []
1630309691.4653, 36, 0, 4210.256, 4288.718, 4070.256, 4157.949, 4166.154, 0, 0, []
1630309691.4732, 37, 0, 4202.051, 4243.59, 4092.821, 4156.923, 4156.41, 0, 0, []
1630309691.4812, 38, 0, 4204.103, 4250.256, 4088.718, 4166.667, 4150.769, 0, 0, []
1630309691.4892, 39, 0, 4197.436, 4284.103, 4083.59, 4160.513, 4151.795, 0, 0, []
1630309691.4971, 40, 0, 4194.359, 4256.41, 4107.179, 4149.744, 4146.154, 0, 0, []
1630309691.505, 41, 0, 4200.513, 4252.308, 4076.41, 4155.897, 4141.026, 0, 0, []
1630309691.5129, 42, 0, 4195.897, 4284.615, 4087.692, 4164.103, 4136.923, 0, 0, []
1630309691.5207, 43, 0, 4197.436, 4283.59, 4081.026, 4153.333, 4140.513, 0, 0, []
1630309691.5286, 44, 0, 4213.846, 4253.333, 4081.538, 4156.923, 4157.949, 0, 0, []
1630309691.5364, 45, 0, 4221.026, 4234.872, 4113.333, 4169.231, 4156.923, 0, 0, []
1630309691.5443, 46, 0, 4217.949, 4234.359, 4077.949, 4148.718, 4148.718, 0, 0, []
1630309691.552, 47, 0, 4221.026, 4244.615, 4086.154, 4140, 4155.385, 0, 0, []
1630309691.5599, 48, 0, 4225.128, 4250.256, 4096.923, 4163.077, 4150.256, 0, 0, []
1630309691.5677, 49, 0, 4220, 4253.846, 4084.103, 4176.41, 4138.974, 0, 0, []
1630309691.5757, 50, 0, 4214.359, 4272.821, 4083.077, 4174.359, 4142.051, 0, 0, []
1630309691.5836, 51, 0, 4217.436, 4262.051, 4049.231, 4167.692, 4146.154, 0, 0, []
1630309691.5915, 52, 0, 4222.051, 4247.692, 4086.154, 4168.205, 4151.282, 0, 0, []
1630309691.5994, 53, 0, 4215.897, 4274.359, 4099.487, 4174.359, 4154.359, 0, 0, []
1630309691.6074, 54, 0, 4200, 4287.692, 4069.744, 4162.051, 4145.128, 0, 0, []
1630309691.6153, 55, 0, 4200, 4268.718, 4097.949, 4145.641, 4138.974, 0, 0, []
1630309691.6233, 56, 0, 4211.795, 4252.821, 4084.103, 4146.154, 4133.333, 0, 0, []
1630309691.6311, 57, 0, 4204.103, 4244.615, 4093.333, 4152.821, 4123.59, 0, 0, []
1630309691.6391, 58, 0, 4196.41, 4255.897, 4107.692, 4153.846, 4128.205, 0, 0, []
1630309691.647, 59, 0, 4209.231, 4287.179, 4085.128, 4156.41, 4143.077, 0, 0, []
1630309691.655, 60, 0, 4205.128, 4276.923, 4105.128, 4165.641, 4145.128, 0, 0, []
1630309691.6629, 61, 0, 4187.692, 4264.615, 4077.949, 4166.154, 4135.897, 0, 0, []
1630309691.6706, 62, 0, 4200, 4297.949, 4070.769, 4163.59, 4140, 0, 0, []
1630309691.6785, 63, 0, 4230.256, 4289.231, 4091.282, 4171.282, 4163.077, 0, 0, []
1630309691.6863, 64, 0, 4242.051, 4257.436, 4084.103, 4185.641, 4174.359, 450, 0, []
1630309691.6942, 65, 0, 4231.795, 4278.462, 4109.744, 4188.205, 4170.256, 450, 0, []
1630309691.702, 66, 0, 4228.718, 4304.615, 4083.077, 4181.538, 4178.462, 16187, 0, []
1630309691.7098, 67, 0, 4243.077, 4290.769, 4076.41, 4185.128, 4182.564, 450, 0, []
1630309691.7176, 68, 0, 4236.41, 4292.821, 4101.538, 4182.564, 4172.821, 16167, 0, []
1630309691.7255, 69, 0, 4215.385, 4315.385, 4072.821, 4165.641, 4166.154, 450, 0, []
1630309691.7333, 70, 0, 4218.974, 4304.103, 4081.026, 4154.359, 4157.949, 195, 0, []
1630309691.7413, 71, 0, 4222.564, 4293.333, 4069.744, 4153.846, 4156.41, 450, 0, []
1630309691.7491, 72, 0, 4221.538, 4309.744, 4061.026, 4164.615, 4166.667, 450, 0, []
1630309691.7571, 73, 0, 4229.231, 4301.026, 4079.487, 4166.667, 4170.256, 16125, 0, []
1630309691.765, 74, 0, 4224.103, 4271.282, 4066.667, 4157.949, 4166.667, 450, 0, []
1630309691.773, 75, 0, 4217.949, 4274.872, 4093.333, 4168.718, 4167.179, 16204, 0, []
1630309691.7809, 76, 0, 4229.744, 4283.077, 4079.487, 4171.282, 4169.744, 450, 0, []
1630309691.7889, 77, 0, 4235.385, 4285.128, 4070.256, 4156.923, 4176.41, 450, 0, []
1630309691.7967, 78, 0, 4237.949, 4317.436, 4104.615, 4171.795, 4184.615, 450, 0, []
1630309691.8047, 79, 0, 4240.513, 4346.154, 4077.436, 4183.59, 4190.256, 16204, 0, []
1630309691.8126, 80, 0, 4231.795, 4329.231, 4082.051, 4171.282, 4197.436, 450, 0, []
1630309691.8204, 81, 0, 4238.462, 4311.795, 4075.385, 4180, 4194.359, 450, 0, []
1630309691.8283, 82, 0, 4246.667, 4325.641, 4057.949, 4186.667, 4185.128, 450, 0, []
1630309691.836, 83, 0, 4233.846, 4319.487, 4088.718, 4172.821, 4186.154, 16204, 0, []
1630309691.8439, 84, 0, 4235.385, 4290.769, 4070.256, 4170.256, 4183.077, 450, 0, []
1630309691.8517, 85, 0, 4249.231, 4300.513, 4078.974, 4174.872, 4181.538, 450, 0, []
1630309691.8596, 86, 0, 4250.769, 4322.564, 4088.718, 4175.897, 4199.487, 450, 0, []
1630309691.8674, 87, 0, 4252.821, 4304.103, 4078.462, 4187.179, 4203.59, 16204, 0, []
1630309691.8752, 88, 0, 4256.923, 4298.462, 4103.077, 4186.154, 4188.718, 450, 0, []
1630309691.883, 89, 0, 4245.128, 4314.359, 4077.436, 4167.179, 4187.179, 450, 0, []
1630309691.891, 90, 0, 4230.769, 4294.872, 4087.692, 4172.308, 4181.026, 450, 0, []
1630309691.8989, 91, 0, 4228.205, 4274.359, 4097.436, 4176.923, 4168.205, 16204, 0, []
1630309691.9069, 92, 0, 4233.333, 4282.051, 4070.769, 4166.667, 4175.385, 450, 0, []
1630309691.9147, 93, 0, 4231.282, 4303.59, 4096.41, 4174.872, 4180.513, 450, 0, []
1630309691.9227, 94, 0, 4218.462, 4318.462, 4067.692, 4172.308, 4166.667, 450, 0, []
1630309691.9306, 95, 0, 4218.974, 4302.564, 4066.667, 4157.436, 4163.59, 16204, 0, []
1630309691.9386, 96, 0, 4231.795, 4287.179, 4096.923, 4163.59, 4166.154, 450, 0, []
1630309691.9465, 97, 0, 4232.821, 4293.846, 4078.974, 4170.769, 4170.769, 450, 0, []
1630309691.9544, 98, 0, 4230.256, 4289.744, 4090.769, 4158.974, 4185.128, 450, 0, []
1630309691.9623, 99, 0, 4233.846, 4264.615, 4067.179, 4149.231, 4178.974, 16204, 0, []
1630309691.9701, 100, 0, 4222.051, 4250.769, 4064.615, 4157.436, 4162.051, 450, 0, []
1630309691.978, 101, 0, 4219.487, 4274.359, 4082.564, 4169.231, 4177.949, 450, 0, []
1630309691.9858, 102, 0, 4243.59, 4316.923, 4066.154, 4177.949, 4200.513, 450, 0, []
1630309691.9936, 103, 0, 4244.103, 4321.026, 4098.462, 4182.051, 4195.897, 16204, 0, []
1630309692.0014, 104, 0, 4228.718, 4298.974, 4084.103, 4177.949, 4191.282, 450, 0, []
1630309692.0093, 105, 0, 4237.949, 4305.128, 4075.385, 4180, 4197.436, 450, 0, []
1630309692.0171, 106, 0, 4238.462, 4322.564, 4101.538, 4181.026, 4190.256, 450, 0, []
1630309692.025, 107, 0, 4227.692, 4313.846, 4073.846, 4172.821, 4182.564, 16204, 0, []
1630309692.0328, 108, 0, 4240, 4282.564, 4096.41, 4172.821, 4187.692, 450, 0, []
1630309692.0406, 109, 0, 4248.205, 4263.59, 4101.538, 4182.564, 4203.59, 450, 0, []
1630309692.0484, 110, 0, 4247.692, 4266.154, 4078.974, 4186.667, 4216.41, 450, 0, []
1630309692.0564, 111, 0, 4260.513, 4276.923, 4088.718, 4186.154, 4208.205, 16204, 0, []
1630309692.0643, 112, 0, 4268.718, 4275.897, 4069.231, 4182.051, 4208.205, 450, 0, []
1630309692.0723, 113, 0, 4267.692, 4276.41, 4090.769, 4188.718, 4229.744, 450, 0, []
1630309692.0801, 114, 0, 4272.308, 4296.923, 4085.128, 4192.821, 4225.128, 450, 0, []
1630309692.0881, 115, 0, 4272.821, 4288.205, 4064.615, 4169.744, 4203.077, 16204, 0, []
1630309692.096, 116, 0, 4255.385, 4253.846, 4093.333, 4155.385, 4202.564, 450, 0, []
1630309692.104, 117, 0, 4236.41, 4249.744, 4068.205, 4164.103, 4193.846, 450, 0, []
1630309692.1119, 118, 0, 4236.41, 4250.769, 4076.923, 4169.231, 4185.128, 450, 0, []
1630309692.1198, 119, 0, 4248.718, 4237.436, 4089.744, 4180.513, 4204.615, 16204, 0, []
1630309692.1277, 120, 0, 4242.051, 4253.333, 4072.821, 4204.615, 4200, 450, 0, []
1630309692.1355, 121, 0, 4226.154, 4261.026, 4086.667, 4215.385, 4183.59, 450, 0, []
1630309692.1434, 122, 0, 4226.154, 4217.436, 4053.846, 4215.897, 4194.872, 450, 0, []
1630309692.1512, 123, 0, 4230.769, 4226.667, 4068.205, 4229.231, 4195.385, 16204, 0, []
1630309692.159, 124, 0, 4228.718, 4276.923, 4091.795, 4227.179, 4190.769, 450, 0, []
1630309692.1668, 125, 0, 4228.205, 4249.744, 4064.615, 4218.974, 4203.59, 450, 0, []
1630309692.1747, 126, 0, 4236.41, 4225.641, 4091.795, 4241.026, 4200, 450, 0, []
1630309692.1825, 127, 0, 4229.744, 4254.359, 4091.795, 4251.282, 4186.667, 16204, 0, []
1630309692.1904, 128, 0, 4213.333, 4261.026, 4089.744, 4237.949, 4193.846, 450, 0, []
1630309692.1981, 0, 0, 4223.077, 4246.667, 4092.821, 4234.872, 4203.077, 450, 0, []
1630309692.2061, 1, 0, 4232.821, 4232.308, 4075.385, 4238.974, 4197.436, 450, 0, []
1630309692.214, 2, 0, 4215.385, 4216.923, 4093.846, 4231.795, 4184.615, 16187, 0, []
1630309692.222, 3, 0, 4209.744, 4225.641, 4064.615, 4213.846, 4177.949, 450, 0, []
1630309692.2299, 4, 0, 4220.513, 4237.436, 4066.154, 4217.949, 4184.615, 16123, 0, []
1630309692.2378, 5, 0, 4219.487, 4231.282, 4092.308, 4239.487, 4183.59, 450, 0, []
1630309692.2457, 6, 0, 4227.692, 4256.41, 4068.205, 4235.385, 4189.231, 189, 0, []
1630309692.2537, 7, 0, 4242.564, 4290.256, 4097.949, 4231.282, 4211.795, 450, 0, []
1630309692.2616, 8, 0, 4241.538, 4286.154, 4090.256, 4247.179, 4215.385, 450, 0, []
1630309692.2696, 9, 0, 4243.077, 4263.59, 4081.538, 4242.564, 4205.128, 16125, 0, []
1630309692.2775, 10, 0, 4244.103, 4246.154, 4098.974, 4225.641, 4208.205, 450, 0, []
1630309692.2852, 11, 0, 4248.205, 4268.205, 4066.154, 4241.026, 4213.333, 16196, 0, []
1630309692.2931, 12, 0, 4262.564, 4296.41, 4089.744, 4260.513, 4216.41, 450, 0, []
1630309692.3009, 13, 0, 4253.846, 4254.872, 4083.077, 4248.718, 4219.487, 450, 0, []
1630309692.3088, 14, 0, 4233.846, 4226.667, 4062.051, 4239.487, 4213.846, 450, 0, []
1630309692.3166, 15, 0, 4245.641, 4272.821, 4103.59, 4238.974, 4212.821, 16196, 0, []
1630309692.3244, 16, 0, 4255.385, 4278.462, 4088.718, 4234.872, 4219.487, 0, 0, []
1630309692.3322, 17, 0, 4234.872, 4254.359, 4078.974, 4235.385, 4207.692, 0, 0, []
1630309692.3401, 18, 0, 4226.154, 4260.513, 4066.667, 4223.59, 4194.359, 0, 0, []
1630309692.3479, 19, 0, 4231.795, 4248.718, 4061.538, 4215.385, 4198.974, 0, 0, []
1630309692.3558, 20, 0, 4228.718, 4242.564, 4090.769, 4229.744, 4198.974, 0, 0, []
1630309692.3635, 21, 0, 4231.282, 4273.333, 4067.692, 4226.667, 4194.872, 0, 0, []
1630309692.3714, 22, 0, 4231.795, 4269.744, 4086.667, 4215.897, 4201.026, 0, 0, []
1630309692.3792, 23, 0, 4231.282, 4231.282, 4093.333, 4228.205, 4201.026, 0, 0, []
1630309692.3872, 24, 0, 4240.513, 4220, 4067.179, 4226.667, 4190.769, 0, 0, []
1630309692.3951, 25, 0, 4247.179, 4229.744, 4093.846, 4222.051, 4198.974, 0, 0, []
1630309692.403, 26, 0, 4254.872, 4245.641, 4076.923, 4238.462, 4216.41, 0, 0, []
1630309692.4109, 27, 0, 4266.667, 4257.949, 4087.179, 4241.538, 4222.051, 0, 0, []
1630309692.4189, 28, 0, 4247.179, 4265.641, 4094.872, 4223.077, 4217.949, 0, 0, []
1630309692.4268, 29, 0, 4215.897, 4269.231, 4062.564, 4217.436, 4205.128, 0, 0, []
1630309692.4346, 30, 0, 4230.256, 4236.41, 4095.897, 4218.462, 4203.077, 0, 0, []
1630309692.4424, 31, 0, 4256.923, 4225.128, 4090.256, 4216.41, 4229.231, 0, 0, []
1630309692.4502, 32, 0, 4255.385, 4272.308, 4084.103, 4228.718, 4242.051, 0, 0, []
1630309692.4581, 33, 0, 4247.179, 4275.897, 4082.564, 4227.692, 4221.538, 0, 0, []
1630309692.466, 34, 0, 4236.923, 4256.41, 4053.846, 4207.692, 4211.795, 0, 0, []
1630309692.4739, 35, 0, 4236.923, 4285.128, 4085.128, 4217.436, 4222.564, 0, 0, []
1630309692.4817, 36, 0, 4246.667, 4277.949, 4072.821, 4224.103, 4221.026, 0, 0, []
1630309692.4896, 37, 0, 4228.205, 4250.256, 4062.051, 4206.667, 4211.282, 0, 0, []
1630309692.4974, 38, 0, 4215.385, 4277.436, 4076.923, 4204.103, 4215.385, 0, 0, []
1630309692.5053, 39, 0, 4231.282, 4267.692, 4056.41, 4203.077, 4214.872, 0, 0, []
1630309692.5131, 40, 0, 4223.077, 4225.641, 4086.154, 4196.923, 4204.103, 0, 0, []
1630309692.5211, 41, 0, 4213.333, 4239.487, 4081.538, 4208.205, 4209.231, 0, 0, []
1630309692.5289, 42, 0, 4240.513, 4245.641, 4070.256, 4209.231, 4220, 0, 0, []
1630309692.5369, 43, 0, 4253.846, 4232.821, 4082.564, 4196.41, 4217.436, 0, 0, []
1630309692.5448, 44, 0, 4246.154, 4253.333, 4056.41, 4206.667, 4213.333, 0, 0, []
1630309692.5528, 45, 0, 4249.744, 4257.436, 4085.128, 4214.872, 4220, 0, 0, []
1630309692.5607, 46, 0, 4242.564, 4232.821, 4086.154, 4200, 4220, 0, 0, []
1630309692.5686, 47, 0, 4217.949, 4215.385, 4069.744, 4197.949, 4197.436, 0, 0, []
1630309692.5765, 48, 0, 4210.769, 4206.154, 4089.744, 4197.949, 4182.564, 0, 0, []
1630309692.5845, 49, 0, 4228.205, 4231.795, 4070.769, 4193.846, 4204.615, 0, 0, []
1630309692.5924, 50, 0, 4251.282, 4265.641, 4096.923, 4209.231, 4223.077, 0, 0, []
1630309692.6002, 51, 0, 4263.077, 4262.564, 4099.487, 4214.872, 4217.949, 0, 0, []
1630309692.608, 52, 0, 4262.564, 4250.256, 4081.538, 4213.333, 4228.718, 0, 0, []
1630309692.6158, 53, 0, 4268.205, 4241.026, 4108.718, 4233.333, 4241.026, 0, 0, []
1630309692.6238, 54, 0, 4269.231, 4234.359, 4083.59, 4226.154, 4222.051, 0, 0, []
1630309692.6317, 55, 0, 4250.769, 4230.769, 4089.231, 4195.897, 4209.231, 0, 0, []
1630309692.6396, 56, 0, 4242.051, 4231.282, 4091.795, 4194.872, 4220, 0, 0, []
1630309692.6473, 57, 0, 4249.744, 4221.538, 4070.256, 4202.051, 4220.513, 0, 0, []
1630309692.6552, 58, 0, 4246.154, 4197.436, 4095.385, 4193.846, 4214.359, 0, 0, []
1630309692.663, 59, 0, 4241.538, 4196.41, 4067.179, 4191.282, 4218.462, 0, 0, []
1630309692.671, 60, 0, 4248.205, 4218.462, 4067.692, 4198.462, 4216.41, 0, 0, []
1630309692.6789, 61, 0, 4244.615, 4226.154, 4082.051, 4194.359, 4212.308, 0, 0, []
1630309692.6868, 62, 0, 4250.769, 4208.718, 4069.231, 4189.744, 4225.128, 0, 0, []
1630309692.6947, 63, 0, 4275.897, 4212.821, 4106.154, 4203.077, 4235.897, 0, 0, []
1630309692.7027, 64, 0, 4274.872, 4217.436, 4089.744, 4205.128, 4232.821, 450, 0, []
1630309692.7106, 65, 0, 4257.949, 4186.154, 4083.077, 4194.359, 4229.231, 450, 0, []
1630309692.7186, 66, 0, 4257.949, 4184.615, 4094.872, 4189.744, 4223.077, 16190, 0, []
1630309692.7264, 67, 0, 4251.282, 4216.923, 4060.513, 4184.103, 4214.359, 450, 0, []
1630309692.7344, 68, 0, 4240.513, 4215.897, 4074.872, 4181.538, 4215.385, 16106, 0, []
1630309692.7423, 69, 0, 4250.256, 4197.949, 4067.692, 4184.103, 4215.385, 450, 0, []
1630309692.7503, 70, 0, 4249.231, 4203.077, 4067.692, 4181.538, 4210.256, 197, 0, []
1630309692.7582, 71, 0, 4244.103, 4181.538, 4080.513, 4186.154, 4222.051, 450, 0, []
1630309692.766, 72, 0, 4266.667, 4159.487, 4062.051, 4202.051, 4236.41, 450, 0, []
1630309692.7738, 73, 0, 4286.667, 4208.718, 4096.923, 4213.333, 4247.692, 16127, 0, []
1630309692.7816, 74, 0, 4280.513, 4231.282, 4084.615, 4208.718, 4260.513, 450, 0, []
1630309692.7895, 75, 0, 4277.949, 4192.821, 4073.333, 4208.205, 4251.795, 16196, 0, []
1630309692.7973, 76, 0, 4272.308, 4187.179, 4097.949, 4201.538, 4232.821, 450, 0, []
1630309692.8052, 77, 0, 4249.744, 4196.41, 4061.538, 4177.949, 4229.744, 450, 0, []
1630309692.8129, 78, 0, 4250.769, 4186.667, 4076.923, 4181.538, 4231.795, 450, 0, []
1630309692.8209, 79, 0, 4272.821, 4198.974, 4085.641, 4200, 4232.821, 16196, 0, []
1630309692.8288, 80, 0, 4267.692, 4201.538, 4076.923, 4200, 4234.359, 450, 0, []
1630309692.8368, 81, 0, 4251.282, 4192.821, 4088.718, 4198.462, 4221.026, 450, 0, []
1630309692.8447, 82, 0, 4253.846, 4222.051, 4050.769, 4188.205, 4210.256, 450, 0, []
1630309692.8526, 83, 0, 4260, 4216.41, 4067.692, 4179.487, 4223.077, 16196, 0, []
1630309692.8605, 84, 0, 4266.154, 4187.692, 4078.974, 4191.795, 4232.821, 450, 0, []
1630309692.8685, 85, 0, 4276.923, 4211.282, 4061.026, 4195.897, 4229.231, 450, 0, []
1630309692.8764, 86, 0, 4275.385, 4206.154, 4085.128, 4185.641, 4231.795, 450, 0, []
1630309692.8844, 87, 0, 4280, 4177.949, 4080.513, 4194.359, 4238.462, 16196, 0, []
1630309692.8922, 88, 0, 4293.846, 4224.615, 4113.333, 4204.103, 4234.872, 450, 0, []
1630309692.9002, 89, 0, 4285.641, 4241.538, 4111.282, 4187.692, 4236.923, 450, 0, []
1630309692.9081, 90, 0, 4275.385, 4174.872, 4079.487, 4187.692, 4247.692, 450, 0, []
1630309692.9159, 91, 0, 4285.128, 4199.487, 4114.872, 4203.077, 4239.487, 16196, 0, []
1630309692.9238, 92, 0, 4277.949, 4260, 4092.308, 4186.154, 4218.462, 450, 0, []
1630309692.9315, 93, 0, 4254.872, 4201.026, 4090.769, 4169.231, 4213.333, 450, 0, []
1630309692.9394, 94, 0, 4256.923, 4163.59, 4105.641, 4183.59, 4216.41, 450, 0, []
1630309692.9472, 95, 0, 4267.692, 4232.821, 4084.615, 4190.769, 4218.974, 16196, 0, []
1630309692.9551, 96, 0, 4260, 4255.385, 4111.282, 4186.154, 4229.231, 450, 0, []
1630309692.9629, 97, 0, 4250.769, 4198.974, 4089.231, 4188.718, 4223.077, 450, 0, []
1630309692.9707, 98, 0, 4247.179, 4198.974, 4075.385, 4188.205, 4199.487, 450, 0, []
1630309692.9785, 99, 0, 4238.462, 4234.872, 4084.615, 4175.897, 4196.923, 16196, 0, []
1630309692.9865, 100, 0, 4231.795, 4229.231, 4066.667, 4167.692, 4199.487, 450, 0, []
1630309692.9944, 101, 0, 4233.333, 4215.385, 4086.154, 4170.769, 4189.744, 450, 0, []
1630309693.0024, 102, 0, 4232.821, 4199.487, 4059.487, 4170.256, 4187.179, 450, 0, []
1630309693.0103, 103, 0, 4236.923, 4203.077, 4059.487, 4181.026, 4192.821, 16196, 0, []
1630309693.0182, 104, 0, 4247.692, 4228.718, 4089.744, 4190.256, 4199.487, 450, 0, []
1630309693.0261, 105, 0, 4241.538, 4213.333, 4069.231, 4181.026, 4204.615, 450, 0, []
1630309693.0341, 106, 0, 4232.308, 4182.564, 4091.795, 4183.077, 4195.385, 450, 0, []
1630309693.042, 107, 0, 4232.821, 4193.333, 4075.385, 4174.872, 4188.718, 16196, 0, []
1630309693.0498, 108, 0, 4233.333, 4194.359, 4064.103, 4159.487, 4200.513, 450, 0, []
1630309693.0576, 109, 0, 4244.103, 4182.564, 4102.051, 4178.462, 4204.615, 450, 0, []
1630309693.0654, 110, 0, 4252.308, 4229.231, 4084.615, 4189.744, 4198.462, 450, 0, []
1630309693.0733, 111, 0, 4247.179, 4263.077, 4092.821, 4175.385, 4206.667, 16196, 0, []
1630309693.0811, 112, 0, 4242.051, 4225.641, 4083.077, 4169.231, 4202.051, 450, 0, []
1630309693.089, 113, 0, 4231.795, 4194.872, 4071.282, 4165.128, 4183.077, 450, 0, []
1630309693.0967, 114, 0, 4232.821, 4195.897, 4090.769, 4159.487, 4193.333, 450, 0, []
1630309693.1046, 115, 0, 4257.949, 4219.487, 4067.692, 4168.205, 4208.718, 16196, 0, []
1630309693.1124, 116, 0, 4258.462, 4244.615, 4091.282, 4173.846, 4199.487, 450, 0, []
1630309693.1203, 117, 0, 4242.051, 4237.436, 4090.769, 4165.641, 4194.359, 450, 0, []
1630309693.1281, 118, 0, 4258.974, 4227.179, 4072.821, 4170.256, 4202.564, 450, 0, []
1630309693.136, 119, 0, 4273.846, 4250.256, 4102.051, 4171.795, 4204.103, 16196, 0, []
1630309693.1439, 120, 0, 4261.026, 4254.872, 4079.487, 4160.513, 4203.077, 450, 0, []
1630309693.1519, 121, 0, 4255.385, 4224.615, 4098.462, 4168.718, 4200.513, 450, 0, []
1630309693.1598, 122, 0, 4254.872, 4235.385, 4111.795, 4167.692, 4200, 450, 0, []
1630309693.1678, 123, 0, 4247.692, 4260, 4084.103, 4155.897, 4209.744, 16196, 0, []
1630309693.1756, 124, 0, 4248.205, 4244.103, 4109.744, 4166.667, 4212.308, 450, 0, []
1630309693.1836, 125, 0, 4256.41, 4244.615, 4100.513, 4170.769, 4211.795, 450, 0, []
1630309693.1915, 126, 0, 4261.026, 4272.308, 4106.667, 4165.128, 4223.077, 450, 0, []
1630309693.1995, 127, 0, 4259.487, 4267.179, 4105.641, 4170.256, 4220, 16196, 0, []
1630309693.2074, 128, 0, 4262.564, 4242.051, 4082.051, 4167.179, 4212.308, 450, 0, []
1630309693.2151, 0, 0, 4262.564, 4229.231, 4110.256, 4163.59, 4221.538, 450, 0, []
1630309693.223, 1, 0, 4250.256, 4227.692, 4082.051, 4171.795, 4213.333, 450, 0, []
1630309693.2308, 2, 0, 4243.59, 4245.128, 4079.487, 4165.128, 4194.872, 16190, 0, []
1630309693.2387, 3, 0, 4248.718, 4248.718, 4104.615, 4150.769, 4206.667, 450, 0, []
1630309693.2465, 4, 0, 4250.769, 4253.333, 4080.513, 4157.436, 4220.513, 16106, 0, []
1630309693.2544, 5, 0, 4251.795, 4273.333, 4103.077, 4167.179, 4210.769, 450, 0, []
1630309693.2621, 6, 0, 4244.615, 4240.513, 4088.718, 4161.026, 4202.051, 201, 0, []
1630309693.27, 7, 0, 4236.923, 4190.256, 4083.59, 4169.231, 4207.692, 450, 0, []
1630309693.2778, 8, 0, 4248.205, 4209.231, 4111.282, 4181.538, 4214.872, 450, 0, []
1630309693.2858, 9, 0, 4251.282, 4235.897, 4087.692, 4165.641, 4214.872, 16124, 0, []
1630309693.2937, 10, 0, 4237.949, 4237.949, 4094.872, 4149.744, 4207.179, 450, 0, []
1630309693.3016, 11, 0, 4235.897, 4254.359, 4085.128, 4149.231, 4197.436, 16195, 0, []
1630309693.3095, 12, 0, 4235.385, 4226.667, 4090.256, 4150.769, 4186.154, 450, 0, []
1630309693.3175, 13, 0, 4240.513, 4195.385, 4115.385, 4164.615, 4187.692, 450, 0, []
1630309693.3254, 14, 0, 4263.077, 4222.564, 4094.359, 4177.436, 4211.282, 450, 0, []
1630309693.3334, 15, 0, 4255.897, 4224.615, 4118.462, 4171.282, 4213.333, 16195, 0, []
1630309693.3412, 16, 0, 4228.205, 4220.513, 4102.051, 4153.333, 4186.154, 0, 0, []
1630309693.3492, 17, 0, 4238.462, 4253.846, 4080, 4142.564, 4186.154, 0, 0, []
1630309693.3571, 18, 0, 4255.897, 4237.949, 4105.641, 4146.667, 4206.154, 0, 0, []
1630309693.3651, 19, 0, 4247.692, 4219.487, 4084.103, 4158.462, 4202.564, 0, 0, []
1630309693.373, 20, 0, 4246.667, 4260, 4107.179, 4165.128, 4195.897, 0, 0, []
1630309693.3807, 21, 0, 4247.692, 4254.359, 4110.769, 4159.487, 4201.538, 0, 0, []
1630309693.3887, 22, 0, 4232.308, 4221.538, 4088.205, 4156.923, 4192.308, 0, 0, []
1630309693.3966, 23, 0, 4216.41, 4232.308, 4109.231, 4151.282, 4182.564, 0, 0, []
1630309693.4045, 24, 0, 4211.795, 4218.462, 4077.949, 4130.256, 4181.538, 0, 0, []
1630309693.4123, 25, 0, 4214.872, 4196.41, 4091.282, 4130.769, 4171.282, 0, 0, []
1630309693.4201, 26, 0, 4215.385, 4240, 4110.256, 4151.282, 4168.205, 0, 0, []
1630309693.4279, 27, 0, 4222.051, 4266.154, 4096.923, 4166.667, 4187.692, 0, 0, []
1630309693.4358, 28, 0, 4243.077, 4220, 4133.333, 4179.487, 4207.692, 0, 0, []
1630309693.4436, 29, 0, 4250.769, 4206.667, 4110.256, 4178.974, 4217.949, 0, 0, []
1630309693.4516, 30, 0, 4248.718, 4245.128, 4096.923, 4167.692, 4216.923, 0, 0, []
1630309693.4594, 31, 0, 4250.769, 4265.641, 4110.256, 4162.051, 4198.974, 0, 0, []
1630309693.4673, 32, 0, 4227.692, 4250.769, 4096.923, 4154.359, 4180, 0, 0, []
1630309693.4752, 33, 0, 4199.487, 4221.026, 4106.667, 4141.026, 4165.641, 0, 0, []
1630309693.483, 34, 0, 4209.744, 4225.641, 4080.513, 4129.744, 4163.59, 0, 0, []
1630309693.491, 35, 0, 4223.077, 4266.667, 4100, 4144.615, 4177.949, 0, 0, []
1630309693.4989, 36, 0, 4222.564, 4267.179, 4119.487, 4169.744, 4186.154, 0, 0, []
1630309693.5067, 37, 0, 4234.359, 4217.436, 4090.769, 4160, 4190.769, 0, 0, []
1630309693.5147, 38, 0, 4235.897, 4228.205, 4130.256, 4149.231, 4204.615, 0, 0, []
1630309693.5226, 39, 0, 4219.487, 4269.744, 4118.974, 4163.077, 4200.513, 0, 0, []
1630309693.5306, 40, 0, 4212.821, 4244.103, 4099.487, 4162.564, 4183.59, 0, 0, []
1630309693.5385, 41, 0, 4216.923, 4226.667, 4116.41, 4150.256, 4190.769, 0, 0, []
1630309693.5462, 42, 0, 4224.615, 4240, 4104.103, 4156.923, 4195.385, 0, 0, []
1630309693.5541, 43, 0, 4224.615, 4232.821, 4122.051, 4161.538, 4186.154, 0, 0, []
1630309693.5619, 44, 0, 4222.051, 4246.667, 4090.256, 4153.333, 4190.769, 0, 0, []
1630309693.5698, 45, 0, 4226.667, 4273.846, 4083.59, 4163.59, 4195.897, 0, 0, []
1630309693.5776, 46, 0, 4221.026, 4257.436, 4117.436, 4168.205, 4191.795, 0, 0, []
1630309693.5854, 47, 0, 4217.949, 4252.821, 4083.077, 4157.949, 4199.487, 0, 0, []
1630309693.5932, 48, 0, 4229.231, 4280.513, 4100, 4158.974, 4212.821, 0, 0, []
1630309693.6012, 49, 0, 4227.179, 4269.744, 4103.077, 4147.179, 4209.231, 0, 0, []
1630309693.6091, 50, 0, 4220, 4246.154, 4098.974, 4135.897, 4199.487, 0, 0, []
1630309693.6171, 51, 0, 4230.769, 4231.282, 4128.205, 4154.872, 4204.615, 0, 0, []
1630309693.6249, 52, 0, 4237.949, 4216.923, 4107.692, 4174.872, 4224.103, 0, 0, []
1630309693.6329, 53, 0, 4244.103, 4239.487, 4128.205, 4181.538, 4232.308, 0, 0, []
1630309693.6408, 54, 0, 4249.231, 4251.282, 4118.974, 4173.846, 4222.051, 0, 0, []
1630309693.6488, 55, 0, 4225.128, 4209.231, 4094.359, 4157.949, 4210.769, 0, 0, []
1630309693.6567, 56, 0, 4213.846, 4209.231, 4114.359, 4157.436, 4206.154, 0, 0, []
1630309693.6646, 57, 0, 4237.949, 4253.846, 4088.718, 4159.487, 4213.333, 0, 0, []
1630309693.6725, 58, 0, 4248.205, 4238.462, 4112.308, 4152.821, 4230.256, 0, 0, []
1630309693.6803, 59, 0, 4258.974, 4222.564, 4117.436, 4153.333, 4247.692, 0, 0, []
1630309693.6882, 60, 0, 4309.231, 4243.59, 4090.256, 4163.59, 4280.513, 0, 0, []
1630309693.696, 61, 0, 4362.051, 4227.692, 4115.897, 4164.615, 4336.923, 0, 0, []
1630309693.7039, 62, 0, 4398.462, 4214.359, 4086.154, 4153.846, 4386.667, 0, 0, []
1630309693.7116, 63, 0, 4453.333, 4245.128, 4098.462, 4163.077, 4424.615, 0, 0, []
1630309693.7195, 64, 0, 4507.179, 4252.308, 4117.436, 4183.077, 4464.615, 450, 0, []
1630309693.7273, 65, 0, 4526.154, 4232.308, 4099.487, 4187.179, 4489.744, 450, 0, []
1630309693.7352, 66, 0, 4541.026, 4226.154, 4131.282, 4184.615, 4503.077, 16184, 0, []
1630309693.743, 67, 0, 4567.179, 4222.564, 4110.256, 4177.436, 4521.026, 450, 0, []
1630309693.7508, 68, 0, 4577.436, 4250.769, 4112.821, 4166.154, 4528.718, 16094, 0, []
1630309693.7586, 69, 0, 4574.359, 4281.026, 4123.59, 4157.949, 4521.538, 450, 0, []
1630309693.7666, 70, 0, 4571.795, 4245.128, 4099.487, 4157.436, 4522.051, 196, 0, []
1630309693.7745, 71, 0, 4570.769, 4229.744, 4126.667, 4164.615, 4529.231, 450, 0, []
1630309693.7825, 72, 0, 4574.872, 4268.718, 4101.538, 4175.385, 4533.846, 450, 0, []
1630309693.7903, 73, 0, 4586.667, 4272.308, 4098.974, 4186.667, 4540, 16133, 0, []
1630309693.7983, 74, 0, 4596.41, 4250.256, 4115.385, 4181.538, 4548.718, 450, 0, []
1630309693.8062, 75, 0, 4604.103, 4243.59, 4095.897, 4175.385, 4562.564, 16205, 0, []
1630309693.8142, 76, 0, 4605.128, 4232.821, 4125.128, 4180, 4572.308, 450, 0, []
1630309693.8221, 77, 0, 4600, 4255.385, 4103.59, 4170.256, 4567.179, 450, 0, []
1630309693.83, 78, 0, 4607.179, 4303.59, 4106.154, 4166.667, 4570.256, 450, 0, []
1630309693.8379, 79, 0, 4615.385, 4277.949, 4142.564, 4186.667, 4580.513, 16205, 0, []
1630309693.8458, 80, 0, 4607.692, 4225.128, 4107.692, 4194.359, 4575.385, 450, 0, []
1630309693.8537, 81, 0, 4595.897, 4246.667, 4114.359, 4192.308, 4568.205, 450, 0, []
1630309693.8615, 82, 0, 4591.795, 4286.154, 4108.205, 4189.744, 4569.231, 450, 0, []
1630309693.8693, 83, 0, 4592.821, 4285.128, 4105.641, 4180, 4567.179, 16205, 0, []
1630309693.8771, 84, 0, 4605.641, 4268.718, 4133.333, 4182.564, 4580.513, 450, 0, []
1630309693.885, 85, 0, 4620, 4252.308, 4113.333, 4191.282, 4602.051, 450, 0, []
1630309693.8928, 86, 0, 4614.359, 4250.769, 4124.615, 4185.128, 4593.333, 450, 0, []
1630309693.9007, 87, 0, 4606.154, 4246.154, 4117.436, 4182.564, 4581.538, 16205, 0, []
1630309693.9084, 88, 0, 4614.872, 4225.128, 4115.385, 4202.564, 4590.769, 450, 0, []
1630309693.9163, 89, 0, 4620.513, 4238.974, 4131.795, 4211.282, 4595.385, 450, 0, []
1630309693.9241, 90, 0, 4607.692, 4274.359, 4089.231, 4189.744, 4583.59, 450, 0, []
1630309693.9321, 91, 0, 4598.974, 4256.41, 4105.641, 4182.051, 4573.846, 16205, 0, []
1630309693.94, 92, 0, 4606.667, 4232.308, 4115.897, 4187.692, 4577.949, 450, 0, []
1630309693.9479, 93, 0, 4611.795, 4249.744, 4103.59, 4182.051, 4584.103, 450, 0, []
1630309693.9558, 94, 0, 4611.795, 4249.231, 4130.769, 4176.923, 4588.205, 450, 0, []
1630309693.9638, 95, 0, 4611.795, 4245.128, 4109.744, 4181.538, 4587.179, 16205, 0, []
1630309693.9717, 96, 0, 4602.051, 4276.41, 4121.538, 4186.667, 4577.949, 450, 0, []
1630309693.9797, 97, 0, 4584.615, 4270.256, 4121.538, 4180, 4563.077, 450, 0, []
1630309693.9876, 98, 0, 4584.615, 4212.308, 4099.487, 4181.538, 4564.615, 450, 0, []
1630309693.9953, 99, 0, 4598.974, 4224.615, 4130.769, 4201.026, 4586.154, 16205, 0, []
1630309694.0032, 100, 0, 4607.692, 4272.308, 4109.231, 4204.103, 4597.436, 450, 0, []
1630309694.011, 101, 0, 4601.538, 4235.897, 4104.615, 4195.897, 4593.846, 450, 0, []
1630309694.0189, 102, 0, 4579.487, 4204.615, 4111.282, 4193.333, 4577.436, 450, 0, []
1630309694.0267, 103, 0, 4557.949, 4247.179, 4100, 4184.615, 4554.872, 16205, 0, []
1630309694.0345, 104, 0, 4552.821, 4255.385, 4127.179, 4180, 4550.256, 450, 0, []
1630309694.0423, 105, 0, 4556.923, 4203.59, 4105.641, 4185.641, 4567.692, 450, 0, []
1630309694.0502, 106, 0, 4563.59, 4202.051, 4116.41, 4195.385, 4577.949, 450, 0, []
1630309694.058, 107, 0, 4566.667, 4254.872, 4136.41, 4202.051, 4574.359, 16205, 0, []
1630309694.0659, 108, 0, 4557.949, 4251.795, 4113.333, 4203.077, 4573.333, 450, 0, []
1630309694.0736, 109, 0, 4540, 4204.615, 4134.872, 4192.308, 4565.128, 450, 0, []
1630309694.0815, 110, 0, 4536.923, 4203.077, 4118.462, 4175.385, 4551.795, 450, 0, []
1630309694.0893, 111, 0, 4541.538, 4217.949, 4121.538, 4176.41, 4555.897, 16205, 0, []
1630309694.0973, 112, 0, 4531.282, 4200, 4137.949, 4181.538, 4556.923, 450, 0, []
1630309694.1052, 113, 0, 4514.872, 4201.538, 4105.641, 4175.385, 4538.974, 450, 0, []
1630309694.1131, 114, 0, 4508.205, 4208.718, 4117.436, 4186.154, 4531.795, 450, 0, []
1630309694.121, 115, 0, 4504.615, 4184.615, 4104.615, 4193.846, 4530.769, 16205, 0, []
1630309694.129, 116, 0, 4496.41, 4189.744, 4092.308, 4176.41, 4511.795, 450, 0, []
1630309694.1369, 117, 0, 4498.974, 4223.077, 4103.59, 4167.179, 4498.974, 450, 0, []
1630309694.1449, 118, 0, 4513.846, 4238.462, 4096.923, 4190.769, 4513.333, 450, 0, []
1630309694.1527, 119, 0, 4528.718, 4245.641, 4134.359, 4215.385, 4524.103, 16205, 0, []
1630309694.1605, 120, 0, 4528.205, 4253.846, 4130.256, 4210.256, 4516.923, 450, 0, []
1630309694.1684, 121, 0, 4504.615, 4243.59, 4118.462, 4194.359, 4502.051, 450, 0, []
1630309694.1762, 122, 0, 4478.974, 4220, 4135.897, 4178.974, 4489.744, 450, 0, []
1630309694.1841, 123, 0, 4471.795, 4211.282, 4112.308, 4168.718, 4489.231, 16205, 0, []
1630309694.1918, 124, 0, 4473.846, 4214.359, 4131.282, 4175.385, 4493.846, 450, 0, []
1630309694.1997, 125, 0, 4474.872, 4222.564, 4129.231, 4181.538, 4493.846, 450, 0, []
1630309694.2075, 126, 0, 4475.385, 4227.179, 4106.667, 4181.026, 4489.744, 450, 0, []
1630309694.2155, 127, 0, 4475.385, 4218.974, 4126.667, 4184.103, 4474.872, 16205, 0, []
1630309694.2234, 128, 0, 4472.821, 4211.795, 4111.795, 4182.051, 4450.256, 450, 0, []
1630309694.2314, 0, 0, 4466.667, 4215.385, 4127.179, 4179.487, 4438.974, 450, 0, []
1630309694.2392, 1, 0, 4459.487, 4208.718, 4131.282, 4186.667, 4442.564, 450, 0, []
1630309694.2472, 2, 0, 4461.538, 4204.103, 4112.308, 4189.744, 4444.103, 16233, 0, []
1630309694.2551, 3, 0, 4461.026, 4234.872, 4127.692, 4181.538, 4440.513, 450, 0, []
1630309694.2631, 4, 0, 4441.026, 4245.641, 4101.538, 4173.333, 4426.667, 16087, 0, []
1630309694.271, 5, 0, 4424.615, 4203.59, 4104.103, 4179.487, 4410.769, 450, 0, []
1630309694.2789, 6, 0, 4431.282, 4192.308, 4113.333, 4180.513, 4409.744, 194, 0, []
1630309694.2868, 7, 0, 4445.128, 4230.769, 4096.923, 4164.615, 4413.846, 450, 0, []
1630309694.2948, 8, 0, 4445.641, 4252.308, 4112.308, 4147.692, 4415.385, 450, 0, []
1630309694.3027, 9, 0, 4445.641, 4247.692, 4100.513, 4141.026, 4431.282, 16131, 0, []
1630309694.3105, 10, 0, 4450.256, 4262.564, 4118.462, 4155.897, 4443.077, 450, 0, []
1630309694.3183, 11, 0, 4446.667, 4272.308, 4127.692, 4183.59, 4434.359, 16205, 0, []
1630309694.3261, 12, 0, 4445.128, 4243.59, 4094.359, 4197.436, 4425.128, 450, 0, []
1630309694.334, 13, 0, 4441.538, 4238.462, 4111.795, 4186.154, 4415.897, 450, 0, []
1630309694.3418, 14, 0, 4427.179, 4278.462, 4113.333, 4164.615, 4404.615, 450, 0, []
1630309694.3497, 15, 0, 4414.359, 4289.744, 4129.231, 4159.487, 4401.538, 16205, 0, []
1630309694.3574, 16, 0, 4415.385, 4255.897, 4141.538, 4175.897, 4401.026, 0, 0, []
1630309694.3654, 17, 0, 4412.308, 4242.564, 4105.128, 4195.385, 4390.769, 0, 0, []
1630309694.3733, 18, 0, 4403.077, 4257.436, 4126.667, 4203.077, 4374.872, 0, 0, []
1630309694.3813, 19, 0, 4395.897, 4259.487, 4126.667, 4193.333, 4355.385, 0, 0, []
1630309694.3892, 20, 0, 4376.923, 4246.154, 4117.949, 4169.231, 4344.103, 0, 0, []
1630309694.3971, 21, 0, 4358.974, 4259.487, 4136.923, 4145.128, 4350.769, 0, 0, []
1630309694.405, 22, 0, 4367.179, 4283.077, 4112.821, 4138.462, 4352.308, 0, 0, []
1630309694.413, 23, 0, 4384.103, 4280, 4124.615, 4160, 4343.077, 0, 0, []
1630309694.4209, 24, 0, 4378.462, 4261.538, 4129.744, 4183.077, 4345.128, 0, 0, []
1630309694.4289, 25, 0, 4356.923, 4239.487, 4120.513, 4193.846, 4356.923, 0, 0, []
1630309694.4368, 26, 0, 4355.897, 4228.205, 4131.282, 4195.897, 4357.436, 0, 0, []
1630309694.4447, 27, 0, 4372.308, 4245.128, 4112.308, 4186.154, 4350.769, 0, 0, []
1630309694.4526, 28, 0, 4385.128, 4282.051, 4131.282, 4173.846, 4360, 0, 0, []
1630309694.4605, 29, 0, 4386.667, 4283.077, 4135.897, 4162.564, 4375.897, 0, 0, []
1630309694.4684, 30, 0, 4382.564, 4272.821, 4116.923, 4156.923, 4377.949, 0, 0, []
1630309694.4763, 31, 0, 4382.051, 4302.564, 4124.615, 4162.564, 4370.769, 0, 0, []
1630309694.4841, 32, 0, 4384.103, 4306.154, 4105.128, 4163.59, 4366.154, 0, 0, []
1630309694.4921, 33, 0, 4368.718, 4271.795, 4112.821, 4145.128, 4355.385, 0, 0, []
1630309694.5001, 34, 0, 4338.974, 4278.462, 4108.205, 4135.385, 4345.128, 0, 0, []
1630309694.508, 35, 0, 4333.333, 4306.667, 4102.564, 4163.077, 4344.615, 0, 0, []
1630309694.516, 36, 0, 4341.538, 4280.513, 4131.795, 4181.538, 4331.795, 0, 0, []
1630309694.5239, 37, 0, 4324.615, 4248.718, 4100.513, 4150.256, 4305.641, 0, 0, []
1630309694.5318, 38, 0, 4302.051, 4287.179, 4101.026, 4130.256, 4297.949, 0, 0, []
1630309694.5397, 39, 0, 4308.205, 4325.128, 4121.538, 4149.744, 4304.615, 0, 0, []
1630309694.5477, 40, 0, 4314.872, 4293.846, 4112.821, 4156.923, 4296.41, 0, 0, []
1630309694.5557, 41, 0, 4300.513, 4256.923, 4129.744, 4142.051, 4290.769, 0, 0, []
1630309694.5635, 42, 0, 4295.385, 4273.846, 4114.359, 4138.462, 4304.103, 0, 0, []
1630309694.5715, 43, 0, 4307.692, 4292.821, 4123.59, 4160, 4309.231, 0, 0, []
1630309694.5794, 44, 0, 4311.282, 4270.256, 4139.487, 4173.333, 4308.205, 0, 0, []
1630309694.5874, 45, 0, 4303.59, 4277.436, 4113.846, 4155.897, 4309.744, 0, 0, []
1630309694.5953, 46, 0, 4304.615, 4313.846, 4128.205, 4145.641, 4300, 0, 0, []
1630309694.6032, 47, 0, 4315.897, 4308.718, 4122.564, 4154.359, 4289.231, 0, 0, []
1630309694.6111, 48, 0, 4311.795, 4294.359, 4125.641, 4148.718, 4300, 0, 0, []
1630309694.6191, 49, 0, 4288.205, 4313.333, 4140, 4136.41, 4306.154, 0, 0, []
1630309694.627, 50, 0, 4265.128, 4326.667, 4097.436, 4137.436, 4284.615, 0, 0, []
1630309694.635, 51, 0, 4252.308, 4309.744, 4089.744, 4137.949, 4271.282, 0, 0, []
1630309694.6428, 52, 0, 4244.103, 4274.872, 4089.744, 4137.436, 4276.923, 0, 0, []
1630309694.6508, 53, 0, 4244.103, 4251.282, 4095.385, 4149.744, 4278.462, 0, 0, []
1630309694.6587, 54, 0, 4250.769, 4274.359, 4110.769, 4151.795, 4275.897, 0, 0, []
1630309694.6667, 55, 0, 4248.718, 4307.692, 4091.282, 4136.41, 4279.487, 0, 0, []
1630309694.6746, 56, 0, 4247.179, 4298.974, 4104.103, 4135.385, 4278.462, 0, 0, []
1630309694.6825, 57, 0, 4253.333, 4286.667, 4098.462, 4136.923, 4279.487, 0, 0, []
1630309694.6905, 58, 0, 4244.615, 4286.667, 4092.308, 4129.231, 4278.462, 0, 0, []
1630309694.6984, 59, 0, 4232.821, 4262.564, 4108.205, 4133.846, 4262.564, 0, 0, []
1630309694.7064, 60, 0, 4247.179, 4243.077, 4081.538, 4144.103, 4264.615, 0, 0, []
1630309694.7143, 61, 0, 4262.564, 4267.692, 4091.282, 4147.692, 4286.154, 0, 0, []
1630309694.7223, 62, 0, 4262.564, 4303.59, 4094.359, 4153.333, 4287.692, 0, 0, []
1630309694.7301, 63, 0, 4269.231, 4295.897, 4086.154, 4157.436, 4278.974, 0, 0, []
1630309694.7381, 64, 0, 4257.949, 4253.846, 4108.205, 4147.692, 4282.564, 450, 0, []
1630309694.746, 65, 0, 4228.205, 4252.308, 4083.077, 4137.436, 4275.897, 450, 0, []
1630309694.754, 66, 0, 4216.41, 4257.949, 4094.872, 4137.436, 4253.846, 16197, 0, []
1630309694.7619, 67, 0, 4206.667, 4225.641, 4111.282, 4138.974, 4247.179, 450, 0, []
1630309694.7698, 68, 0, 4195.385, 4234.872, 4090.256, 4145.128, 4251.795, 16096, 0, []
1630309694.7777, 69, 0, 4194.872, 4281.538, 4109.744, 4148.205, 4252.821, 450, 0, []
1630309694.7857, 70, 0, 4191.282, 4281.538, 4105.641, 4146.154, 4255.897, 195, 0, []
1630309694.7936, 71, 0, 4174.359, 4250.256, 4105.641, 4157.949, 4246.667, 450, 0, []
1630309694.8016, 72, 0, 4145.128, 4229.231, 4096.41, 4156.923, 4210.769, 450, 0, []
1630309694.8094, 73, 0, 4107.692, 4213.333, 4070.769, 4144.615, 4177.949, 16129, 0, []
1630309694.8174, 74, 0, 4073.333, 4217.436, 4089.744, 4155.897, 4161.026, 450, 0, []
1630309694.8253, 75, 0, 4040.513, 4227.179, 4074.359, 4167.692, 4133.846, 16193, 0, []
1630309694.8333, 76, 0, 3994.359, 4206.667, 4079.487, 4167.692, 4103.077, 450, 0, []
1630309694.8412, 77, 0, 3943.59, 4196.923, 4090.256, 4169.231, 4069.744, 450, 0, []
1630309694.8491, 78, 0, 3888.718, 4216.41, 4060, 4164.615, 4008.205, 450, 0, []
1630309694.8571, 79, 0, 3832.821, 4232.821, 4073.846, 4156.923, 3945.641, 16193, 0, []
1630309694.865, 80, 0, 3795.385, 4237.949, 4065.641, 4158.974, 3915.385, 450, 0, []
1630309694.873, 81, 0, 3769.744, 4224.103, 4065.641, 4165.641, 3895.385, 450, 0, []
1630309694.8809, 82, 0, 3742.564, 4191.282, 4081.538, 4165.641, 3869.231, 450, 0, []
1630309694.8888, 83, 0, 3727.179, 4176.41, 4074.359, 4158.462, 3852.821, 16193, 0, []
1630309694.8967, 84, 0, 3733.846, 4211.795, 4107.179, 4156.41, 3844.103, 450, 0, []
1630309694.9047, 85, 0, 3745.641, 4241.026, 4103.077, 4161.538, 3844.103, 450, 0, []
1630309694.9126, 86, 0, 3745.128, 4219.487, 4090.769, 4166.667, 3855.385, 450, 0, []
1630309694.9206, 87, 0, 3737.949, 4208.718, 4097.949, 4162.564, 3847.692, 16193, 0, []
1630309694.9284, 88, 0, 3738.974, 4217.949, 4069.744, 4155.385, 3833.846, 450, 0, []
1630309694.9364, 89, 0, 3747.179, 4200, 4082.564, 4152.821, 3844.103, 450, 0, []
1630309694.9443, 90, 0, 3749.744, 4186.667, 4084.615, 4143.59, 3849.231, 450, 0, []
1630309694.9523, 91, 0, 3757.949, 4218.462, 4081.538, 4131.282, 3835.897, 16193, 0, []
1630309694.9602, 92, 0, 3767.692, 4240, 4103.59, 4129.231, 3842.564, 450, 0, []
1630309694.9682, 93, 0, 3769.231, 4206.667, 4089.744, 4140.513, 3869.231, 450, 0, []
1630309694.976, 94, 0, 3783.59, 4183.077, 4107.179, 4166.154, 3880, 450, 0, []
1630309694.984, 95, 0, 3801.538, 4213.846, 4099.487, 4178.974, 3878.974, 16193, 0, []
1630309694.9919, 96, 0, 3798.974, 4247.692, 4076.41, 4162.051, 3877.436, 450, 0, []
1630309694.9999, 97, 0, 3806.154, 4236.923, 4105.128, 4148.205, 3880, 450, 0, []
1630309695.0078, 98, 0, 3820.513, 4209.744, 4086.667, 4147.692, 3884.103, 450, 0, []
1630309695.0155, 99, 0, 3811.795, 4201.026, 4074.872, 4147.179, 3877.949, 16193, 0, []
1630309695.0235, 100, 0, 3817.436, 4210.769, 4082.051, 4147.692, 3877.436, 450, 0, []
1630309695.0314, 101, 0, 3840, 4206.667, 4081.026, 4150.769, 3892.308, 450, 0, []
1630309695.0394, 102, 0, 3832.308, 4178.974, 4093.846, 4152.308, 3897.949, 450, 0, []
1630309695.0473, 103, 0, 3824.103, 4172.308, 4072.821, 4147.179, 3889.231, 16193, 0, []
1630309695.0552, 104, 0, 3835.897, 4178.974, 4083.077, 4137.949, 3893.333, 450, 0, []
1630309695.0631, 105, 0, 3841.538, 4171.282, 4083.077, 4133.846, 3896.923, 450, 0, []
1630309695.0711, 106, 0, 3846.154, 4175.897, 4062.051, 4139.487, 3889.231, 450, 0, []
1630309695.079, 107, 0, 3862.564, 4201.538, 4107.692, 4150.769, 3904.103, 16193, 0, []
1630309695.087, 108, 0, 3878.462, 4221.538, 4109.744, 4147.179, 3928.205, 450, 0, []
1630309695.0948, 109, 0, 3880, 4216.923, 4091.795, 4137.436, 3923.59, 450, 0, []
1630309695.1028, 110, 0, 3872.308, 4189.744, 4090.256, 4140.513, 3906.154, 450, 0, []
1630309695.1107, 111, 0, 3869.744, 4172.821, 4080, 4145.641, 3903.077, 16193, 0, []
1630309695.1187, 112, 0, 3877.436, 4190.256, 4103.077, 4134.359, 3907.692, 450, 0, []
1630309695.1266, 113, 0, 3877.949, 4190.256, 4083.077, 4115.897, 3903.59, 450, 0, []
1630309695.1345, 114, 0, 3866.154, 4170.769, 4068.205, 4115.897, 3893.333, 450, 0, []
1630309695.1424, 115, 0, 3865.128, 4174.359, 4086.667, 4126.667, 3892.308, 16193, 0, []
1630309695.1502, 116, 0, 3884.103, 4171.282, 4090.769, 4136.41, 3913.333, 450, 0, []
1630309695.1582, 117, 0, 3907.179, 4157.949, 4117.436, 4150.769, 3937.436, 450, 0, []
1630309695.1661, 118, 0, 3913.333, 4172.308, 4105.128, 4152.821, 3942.051, 450, 0, []
1630309695.174, 119, 0, 3911.795, 4210.256, 4101.026, 4144.615, 3940.513, 16193, 0, []
1630309695.1819, 120, 0, 3918.974, 4227.179, 4108.718, 4145.641, 3943.077, 450, 0, []
1630309695.1899, 121, 0, 3923.59, 4198.462, 4071.282, 4148.205, 3942.051, 450, 0, []
1630309695.1978, 122, 0, 3923.59, 4173.846, 4089.231, 4142.051, 3944.103, 450, 0, []
1630309695.2058, 123, 0, 3933.333, 4213.333, 4091.282, 4142.564, 3960.513, 16193, 0, []
1630309695.2137, 124, 0, 3945.128, 4251.795, 4080, 4152.821, 3975.385, 450, 0, []
1630309695.2216, 125, 0, 3949.744, 4226.154, 4101.538, 4156.923, 3978.974, 450, 0, []
1630309695.2295, 126, 0, 3966.154, 4209.744, 4092.308, 4161.026, 3997.436, 450, 0, []
1630309695.2375, 127, 0, 3988.718, 4247.692, 4115.385, 4172.821, 4017.949, 16193, 0, []
1630309695.2454, 128, 0, 3989.231, 4265.128, 4118.462, 4176.41, 4019.487, 450, 0, []
1630309695.2534, 0, 0, 3983.59, 4236.923, 4107.692, 4172.308, 4028.205, 450, 0, []
1630309695.2612, 1, 0, 3997.949, 4210.769, 4123.59, 4160, 4046.667, 450, 0, []
1630309695.2692, 2, 0, 4018.974, 4197.949, 4094.359, 4145.641, 4072.821, 16194, 0, []
1630309695.2771, 3, 0, 4044.615, 4195.385, 4107.692, 4154.872, 4116.41, 450, 0, []
1630309695.2849, 4, 0, 4086.154, 4197.949, 4123.59, 4167.179, 4152.308, 16104, 0, []
1630309695.2928, 5, 0, 4117.949, 4200.513, 4096.41, 4153.846, 4165.128, 450, 0, []
1630309695.3005, 6, 0, 4128.718, 4187.692, 4098.974, 4146.667, 4178.974, 194, 0, []
1630309695.3084, 7, 0, 4144.103, 4177.949, 4093.333, 4155.897, 4203.077, 450, 0, []
1630309695.3162, 8, 0, 4174.359, 4189.744, 4118.462, 4164.103, 4217.436, 450, 0, []
1630309695.3242, 9, 0, 4189.744, 4191.282, 4133.846, 4164.103, 4211.282, 16136, 0, []
1630309695.3321, 10, 0, 4180, 4193.333, 4104.103, 4160, 4197.949, 450, 0, []
1630309695.34, 11, 0, 4184.103, 4203.59, 4108.205, 4160.513, 4201.026, 16186, 0, []
1630309695.3479, 12, 0, 4202.564, 4189.744, 4105.128, 4165.128, 4215.897, 450, 0, []
1630309695.3559, 13, 0, 4196.923, 4186.667, 4123.59, 4171.795, 4217.436, 450, 0, []
1630309695.3638, 14, 0, 4192.821, 4224.103, 4132.308, 4174.872, 4213.333, 450, 0, []
1630309695.3718, 15, 0, 4221.538, 4237.949, 4107.179, 4169.744, 4226.154, 16186, 0, []
1630309695.3796, 16, 0, 4234.359, 4220, 4121.026, 4166.154, 4235.897, 0, 0, []
1630309695.3876, 17, 0, 4227.692, 4209.231, 4098.974, 4162.564, 4230.256, 0, 0, []
1630309695.3955, 18, 0, 4254.359, 4199.487, 4095.385, 4149.231, 4235.385, 0, 0, []
1630309695.4035, 19, 0, 4269.231, 4204.615, 4114.872, 4136.41, 4245.641, 0, 0, []
1630309695.4114, 20, 0, 4254.872, 4222.051, 4087.179, 4142.564, 4242.051, 0, 0, []
1630309695.4193, 21, 0, 4270.769, 4213.846, 4106.667, 4149.744, 4240.513, 0, 0, []
1630309695.4272, 22, 0, 4295.385, 4194.359, 4116.41, 4136.923, 4253.333, 0, 0, []
1630309695.435, 23, 0, 4294.359, 4201.538, 4117.436, 4135.385, 4259.487, 0, 0, []
1630309695.4429, 24, 0, 4300.513, 4230.769, 4131.795, 4149.744, 4247.692, 0, 0, []
1630309695.4507, 25, 0, 4309.231, 4225.641, 4103.59, 4138.462, 4235.385, 0, 0, []
1630309695.4586, 26, 0, 4291.795, 4184.615, 4107.179, 4115.897, 4231.795, 0, 0, []
1630309695.4664, 27, 0, 4284.615, 4222.051, 4110.769, 4119.487, 4231.795, 0, 0, []
1630309695.4743, 28, 0, 4294.872, 4291.795, 4114.872, 4136.923, 4225.128, 0, 0, []
1630309695.4822, 29, 0, 4280, 4246.154, 4121.026, 4140, 4216.923, 0, 0, []
1630309695.4902, 30, 0, 4265.641, 4208.205, 4086.154, 4134.872, 4217.949, 0, 0, []
1630309695.4982, 31, 0, 4282.051, 4280.513, 4103.59, 4132.308, 4215.897, 0, 0, []
1630309695.506, 32, 0, 4294.359, 4309.744, 4112.821, 4116.923, 4215.897, 0, 0, []
1630309695.5139, 33, 0, 4291.282, 4242.051, 4104.615, 4114.359, 4230.769, 0, 0, []
1630309695.5219, 34, 0, 4300.513, 4216.923, 4124.615, 4139.487, 4230.769, 0, 0, []
1630309695.5298, 35, 0, 4312.308, 4253.333, 4101.538, 4141.026, 4217.436, 0, 0, []
1630309695.5378, 36, 0, 4304.103, 4272.308, 4105.128, 4130.256, 4226.667, 0, 0, []
1630309695.5456, 37, 0, 4298.462, 4281.538, 4112.308, 4144.615, 4237.949, 0, 0, []
1630309695.5536, 38, 0, 4295.897, 4285.128, 4097.436, 4149.231, 4221.538, 0, 0, []
1630309695.5615, 39, 0, 4279.487, 4252.821, 4111.282, 4129.231, 4212.308, 0, 0, []
1630309695.5695, 40, 0, 4277.436, 4237.949, 4094.359, 4130.256, 4223.59, 0, 0, []
1630309695.5774, 41, 0, 4295.897, 4285.128, 4102.564, 4146.667, 4220.513, 0, 0, []
1630309695.5851, 42, 0, 4293.846, 4301.026, 4104.615, 4136.41, 4214.359, 0, 0, []
1630309695.593, 43, 0, 4274.359, 4273.846, 4077.949, 4126.667, 4214.872, 0, 0, []
1630309695.6008, 44, 0, 4275.897, 4305.641, 4101.538, 4135.897, 4197.436, 0, 0, []
1630309695.6087, 45, 0, 4280, 4324.103, 4096.41, 4128.205, 4180.513, 0, 0, []
1630309695.6165, 46, 0, 4274.359, 4288.718, 4095.897, 4122.564, 4191.795, 0, 0, []
1630309695.6244, 47, 0, 4293.846, 4308.718, 4105.128, 4146.667, 4213.333, 0, 0, []
1630309695.6323, 48, 0, 4315.385, 4336.41, 4090.256, 4159.487, 4216.923, 0, 0, []
1630309695.6402, 49, 0, 4316.923, 4298.974, 4106.667, 4137.949, 4215.385, 0, 0, []
1630309695.648, 50, 0, 4317.949, 4284.103, 4085.128, 4126.154, 4221.538, 0, 0, []
1630309695.656, 51, 0, 4323.59, 4314.872, 4080.513, 4138.974, 4218.462, 0, 0, []
1630309695.6639, 52, 0, 4324.615, 4328.205, 4108.205, 4134.359, 4212.821, 0, 0, []
1630309695.6718, 53, 0, 4317.949, 4316.41, 4097.436, 4120, 4217.949, 0, 0, []
1630309695.6797, 54, 0, 4306.667, 4294.359, 4108.718, 4129.744, 4220.513, 0, 0, []
1630309695.6877, 55, 0, 4313.333, 4303.59, 4093.846, 4134.359, 4212.308, 0, 0, []
1630309695.6956, 56, 0, 4335.897, 4323.59, 4088.718, 4119.487, 4212.308, 0, 0, []
