Timestamp, COUNTER, INTERPOLATED, AF3, T7, Pz, T8, AF4, RAW_CQ, MARKER_HARDWARE, MARKERS
1627665979.4126, 23, 0, 4214.872, 4195.385, 4190.769, 4150.256, 4197.436, 0, 0, []
1627665979.4204, 24, 0, 4195.897, 4193.846, 4164.103, 4134.872, 4174.359, 0, 0, []
1627665979.4283, 25, 0, 4193.846, 4191.282, 4150.256, 4125.128, 4162.051, 0, 0, []
1627665979.4363, 26, 0, 4195.385, 4187.179, 4145.641, 4124.103, 4164.615, 0, 0, []
1627665979.4442, 27, 0, 4178.462, 4182.564, 4134.872, 4114.359, 4156.923, 0, 0, []
1627665979.4522, 28, 0, 4158.974, 4180, 4118.974, 4103.59, 4141.026, 0, 0, []
1627665979.46, 29, 0, 4169.744, 4183.59, 4124.615, 4114.359, 4148.205, 0, 0, []
1627665979.468, 30, 0, 4216.41, 4212.821, 4174.359, 4161.538, 4197.949, 0, 0, []
1627665979.4759, 31, 0, 4235.897, 4229.744, 4200.513, 4184.615, 4222.051, 0, 0, []
1627665979.4839, 32, 0, 4205.128, 4202.051, 4157.436, 4148.205, 4186.154, 0, 0, []
1627665979.4919, 33, 0, 4180, 4179.487, 4118.462, 4115.385, 4156.923, 0, 0, []
1627665979.4997, 34, 0, 4185.128, 4190.769, 4135.385, 4130.256, 4167.179, 0, 0, []
1627665979.5077, 35, 0, 4197.436, 4202.051, 4164.103, 4154.359, 4178.462, 0, 0, []
1627665979.5156, 36, 0, 4214.872, 4204.615, 4177.436, 4166.154, 4192.821, 0, 0, []
1627665979.5236, 37, 0, 4237.949, 4210.256, 4188.205, 4178.974, 4215.385, 0, 0, []
1627665979.5315, 38, 0, 4237.949, 4207.692, 4185.641, 4174.359, 4207.692, 0, 0, []
1627665979.5394, 39, 0, 4212.308, 4198.974, 4163.077, 4145.641, 4183.59, 0, 0, []
1627665979.5473, 40, 0, 4205.641, 4205.641, 4160, 4141.026, 4186.667, 0, 0, []
1627665979.5553, 41, 0, 4230.769, 4226.667, 4188.205, 4168.205, 4215.385, 0, 0, []
1627665979.5632, 42, 0, 4244.615, 4234.359, 4205.128, 4181.538, 4228.205, 0, 0, []
1627665979.5712, 43, 0, 4229.231, 4223.59, 4188.718, 4164.615, 4212.821, 0, 0, []
1627665979.579, 44, 0, 4206.667, 4213.846, 4163.59, 4145.128, 4191.282, 0, 0, []
1627665979.587, 45, 0, 4195.897, 4208.718, 4145.128, 4135.897, 4182.051, 0, 0, []
1627665979.5949, 46, 0, 4197.436, 4191.282, 4130.256, 4128.205, 4180.513, 0, 0, []
1627665979.6029, 47, 0, 4197.949, 4185.128, 4133.846, 4132.308, 4180, 0, 0, []
1627665979.6109, 48, 0, 4182.564, 4196.41, 4139.487, 4134.359, 4169.231, 0, 0, []
1627665979.6187, 49, 0, 4173.846, 4196.41, 4132.821, 4126.154, 4155.897, 0, 0, []
1627665979.6267, 50, 0, 4202.051, 4206.154, 4151.282, 4143.077, 4182.564, 0, 0, []
1627665979.6346, 51, 0, 4240, 4237.436, 4185.128, 4180.513, 4230.256, 0, 0, []
1627665979.6426, 52, 0, 4235.385, 4237.949, 4171.795, 4178.974, 4228.205, 0, 0, []
1627665979.6505, 53, 0, 4205.641, 4210.256, 4130.256, 4145.641, 4191.795, 0, 0, []
1627665979.6584, 54, 0, 4216.923, 4220.513, 4137.949, 4156.41, 4202.564, 0, 0, []
1627665979.6663, 55, 0, 4247.692, 4244.615, 4168.205, 4188.205, 4235.385, 0, 0, []
1627665979.6743, 56, 0, 4227.692, 4223.077, 4150.256, 4170.769, 4217.949, 0, 0, []
1627665979.6822, 57, 0, 4197.436, 4196.923, 4129.231, 4145.641, 4193.846, 0, 0, []
1627665979.6902, 58, 0, 4222.051, 4216.923, 4164.103, 4172.821, 4220.513, 0, 0, []
1627665979.698, 59, 0, 4255.897, 4242.051, 4194.872, 4204.615, 4253.333, 0, 0, []
1627665979.706, 60, 0, 4238.462, 4225.128, 4169.231, 4186.154, 4233.846, 0, 0, []
1627665979.7139, 61, 0, 4209.231, 4199.487, 4147.179, 4165.128, 4200.513, 0, 0, []
1627665979.7219, 62, 0, 4219.487, 4199.487, 4152.821, 4170.256, 4201.538, 0, 0, []
1627665979.7298, 63, 0, 4242.051, 4206.154, 4147.179, 4171.282, 4214.359, 0, 0, []
1627665979.7378, 64, 0, 4250.256, 4215.385, 4147.692, 4176.923, 4225.641, 450, 0, []
1627665979.7456, 65, 0, 4247.692, 4220.513, 4164.615, 4190.256, 4233.333, 450, 0, []
1627665979.7536, 66, 0, 4227.179, 4205.128, 4154.359, 4172.821, 4212.308, 16194, 0, []
1627665979.7615, 67, 0, 4198.974, 4197.949, 4135.385, 4147.692, 4180, 450, 0, []
1627665979.7695, 68, 0, 4204.615, 4218.974, 4150.256, 4162.051, 4186.667, 16159, 0, []
1627665979.7774, 69, 0, 4236.923, 4231.282, 4180.513, 4193.333, 4221.026, 450, 0, []
1627665979.7853, 70, 0, 4233.333, 4213.846, 4178.462, 4193.846, 4223.59, 16154, 0, []
1627665979.7932, 71, 0, 4207.692, 4199.487, 4155.897, 4176.923, 4202.051, 450, 0, []
1627665979.8012, 72, 0, 4215.385, 4202.051, 4155.385, 4175.897, 4198.462, 450, 0, []
1627665979.8092, 73, 0, 4219.487, 4190.256, 4156.923, 4169.231, 4194.359, 16178, 0, []
1627665979.8171, 74, 0, 4191.282, 4170.256, 4138.462, 4140, 4169.744, 450, 0, []
1627665979.825, 75, 0, 4184.615, 4180, 4136.41, 4136.923, 4167.692, 16201, 0, []
1627665979.8329, 76, 0, 4214.359, 4209.744, 4166.667, 4172.308, 4196.923, 450, 0, []
1627665979.8409, 77, 0, 4230.256, 4218.462, 4183.59, 4195.897, 4207.692, 450, 0, []
1627665979.8488, 78, 0, 4230.256, 4217.436, 4175.385, 4195.897, 4201.026, 450, 0, []
1627665979.8568, 79, 0, 4235.897, 4219.487, 4172.821, 4198.974, 4206.667, 16201, 0, []
1627665979.8646, 80, 0, 4227.179, 4205.641, 4167.692, 4189.744, 4201.026, 450, 0, []
1627665979.8726, 81, 0, 4212.308, 4196.41, 4166.154, 4177.949, 4191.795, 450, 0, []
1627665979.8805, 82, 0, 4211.795, 4203.077, 4181.026, 4185.128, 4202.051, 450, 0, []
1627665979.8885, 83, 0, 4196.923, 4186.667, 4180, 4178.462, 4190.769, 16201, 0, []
1627665979.8964, 84, 0, 4181.026, 4151.795, 4164.615, 4158.462, 4162.051, 450, 0, []
1627665979.9043, 85, 0, 4202.051, 4155.385, 4173.333, 4170.256, 4176.41, 450, 0, []
1627665979.9122, 86, 0, 4222.051, 4184.615, 4192.821, 4194.359, 4203.59, 450, 0, []
1627665979.9202, 87, 0, 4201.026, 4190.256, 4181.538, 4181.026, 4188.205, 16201, 0, []
1627665979.9281, 88, 0, 4192.308, 4194.359, 4168.718, 4167.179, 4177.436, 450, 0, []
1627665979.9361, 89, 0, 4208.718, 4211.282, 4169.744, 4178.974, 4188.205, 450, 0, []
1627665979.9439, 90, 0, 4183.077, 4192.821, 4144.103, 4153.333, 4162.564, 450, 0, []
1627665979.9519, 91, 0, 4159.487, 4172.821, 4135.897, 4129.744, 4144.103, 16201, 0, []
1627665979.9599, 92, 0, 4206.667, 4207.692, 4187.692, 4177.949, 4187.179, 450, 0, []
1627665979.9678, 93, 0, 4247.179, 4234.359, 4223.59, 4222.051, 4227.179, 450, 0, []
1627665979.9758, 94, 0, 4234.359, 4212.821, 4202.051, 4211.795, 4217.949, 450, 0, []
1627665979.9836, 95, 0, 4223.077, 4201.026, 4174.872, 4189.744, 4193.846, 16201, 0, []
1627665979.9916, 96, 0, 4241.538, 4220.513, 4177.436, 4183.077, 4196.923, 450, 0, []
1627665979.9995, 97, 0, 4272.308, 4226.154, 4184.615, 4194.872, 4237.949, 450, 0, []
1627665980.0075, 98, 0, 4309.231, 4214.359, 4183.077, 4213.333, 4286.667, 450, 0, []
1627665980.0154, 99, 0, 4349.231, 4217.436, 4179.487, 4210.256, 4325.641, 16201, 0, []
1627665980.0233, 100, 0, 4386.154, 4220, 4170.769, 4195.897, 4369.231, 450, 0, []
1627665980.0312, 101, 0, 4418.974, 4203.59, 4160, 4197.949, 4415.897, 450, 0, []
1627665980.0392, 102, 0, 4452.821, 4201.026, 4169.744, 4220.513, 4457.436, 450, 0, []
1627665980.0471, 103, 0, 4483.59, 4221.538, 4198.462, 4255.385, 4498.462, 16201, 0, []
1627665980.0551, 104, 0, 4444.615, 4206.154, 4172.308, 4238.974, 4479.487, 450, 0, []
1627665980.0629, 105, 0, 4368.205, 4169.744, 4136.923, 4199.487, 4424.615, 450, 0, []
1627665980.0709, 106, 0, 4376.923, 4195.897, 4192.821, 4247.179, 4446.667, 450, 0, []
1627665980.0788, 107, 0, 4391.795, 4234.872, 4242.051, 4301.538, 4471.282, 16201, 0, []
1627665980.0868, 108, 0, 4310.769, 4207.692, 4199.487, 4265.641, 4399.487, 450, 0, []
1627665980.0947, 109, 0, 4262.051, 4189.744, 4187.179, 4252.821, 4356.41, 450, 0, []
1627665980.1026, 110, 0, 4296.41, 4225.641, 4240.513, 4306.154, 4395.897, 450, 0, []
1627665980.1106, 111, 0, 4281.538, 4232.821, 4249.744, 4313.333, 4388.205, 16201, 0, []
1627665980.1185, 112, 0, 4218.974, 4191.795, 4218.974, 4270.256, 4322.051, 450, 0, []
1627665980.1265, 113, 0, 4204.103, 4182.564, 4207.179, 4250.256, 4290.769, 450, 0, []
1627665980.1344, 114, 0, 4215.385, 4204.615, 4206.154, 4250.769, 4294.872, 450, 0, []
1627665980.1423, 115, 0, 4203.59, 4198.974, 4200, 4239.487, 4286.154, 16201, 0, []
1627665980.1502, 116, 0, 4176.41, 4174.359, 4181.026, 4212.308, 4248.718, 450, 0, []
1627665980.1582, 117, 0, 4160.513, 4169.231, 4168.205, 4198.462, 4224.615, 450, 0, []
1627665980.1661, 118, 0, 4179.487, 4184.103, 4191.282, 4220.513, 4249.744, 450, 0, []
1627665980.1741, 119, 0, 4212.308, 4200, 4220.513, 4255.385, 4284.103, 16201, 0, []
1627665980.1819, 120, 0, 4214.872, 4201.026, 4211.795, 4263.077, 4278.974, 450, 0, []
1627665980.1899, 121, 0, 4199.487, 4189.744, 4192.821, 4250.769, 4260.513, 450, 0, []
1627665980.1978, 122, 0, 4192.821, 4183.077, 4190.769, 4235.897, 4252.821, 450, 0, []
1627665980.2058, 123, 0, 4166.667, 4169.744, 4162.564, 4203.077, 4223.077, 16201, 0, []
1627665980.2137, 124, 0, 4121.026, 4133.333, 4105.641, 4151.795, 4169.231, 450, 0, []
1627665980.2216, 125, 0, 4142.564, 4139.487, 4120, 4168.205, 4183.077, 450, 0, []
1627665980.2295, 126, 0, 4210.256, 4187.179, 4200, 4245.128, 4254.359, 450, 0, []
1627665980.2375, 127, 0, 4197.436, 4181.538, 4198.462, 4248.718, 4250.256, 16201, 0, []
1627665980.2454, 128, 0, 4154.872, 4153.333, 4151.795, 4209.744, 4203.59, 450, 0, []
1627665980.2534, 0, 0, 4184.615, 4169.231, 4182.564, 4231.795, 4222.051, 450, 0, []
1627665980.2612, 1, 0, 4213.846, 4187.692, 4221.026, 4255.385, 4248.718, 450, 0, []
1627665980.2692, 2, 0, 4175.385, 4163.59, 4183.077, 4217.949, 4214.359, 16190, 0, []
1627665980.2771, 3, 0, 4134.872, 4131.795, 4136.41, 4178.974, 4170.769, 450, 0, []
1627665980.2851, 4, 0, 4140, 4134.359, 4140, 4185.128, 4169.744, 16159, 0, []
1627665980.2931, 5, 0, 4137.949, 4140.513, 4138.462, 4177.949, 4164.615, 450, 0, []
1627665980.3009, 6, 0, 4111.282, 4116.923, 4106.154, 4136.41, 4135.897, 16180, 0, []
1627665980.3089, 7, 0, 4128.718, 4118.462, 4117.949, 4140, 4146.667, 450, 0, []
1627665980.3168, 8, 0, 4196.41, 4167.692, 4189.744, 4212.308, 4210.256, 450, 0, []
1627665980.3248, 9, 0, 4218.462, 4176.41, 4216.923, 4254.359, 4237.436, 16178, 0, []
1627665980.3327, 10, 0, 4171.282, 4129.744, 4163.59, 4213.333, 4193.846, 450, 0, []
1627665980.3406, 11, 0, 4142.051, 4113.846, 4126.154, 4169.231, 4160, 16197, 0, []
1627665980.3485, 12, 0, 4144.615, 4129.231, 4136.923, 4165.128, 4162.051, 450, 0, []
1627665980.3565, 13, 0, 4158.462, 4138.462, 4158.462, 4185.128, 4175.897, 450, 0, []
1627665980.3644, 14, 0, 4186.154, 4151.795, 4180.513, 4210.769, 4197.949, 450, 0, []
1627665980.3724, 15, 0, 4201.538, 4163.077, 4198.462, 4216.923, 4211.795, 16197, 0, []
1627665980.3802, 16, 0, 4204.615, 4173.846, 4207.692, 4222.564, 4218.462, 0, 0, []
1627665980.3882, 17, 0, 4211.795, 4184.103, 4201.538, 4236.923, 4227.179, 0, 0, []
1627665980.3961, 18, 0, 4202.564, 4170.256, 4178.974, 4224.103, 4217.949, 0, 0, []
1627665980.4041, 19, 0, 4170.256, 4147.692, 4148.718, 4184.615, 4181.538, 0, 0, []
1627665980.412, 20, 0, 4165.641, 4151.282, 4152.821, 4184.103, 4170.769, 0, 0, []
1627665980.4199, 21, 0, 4190.769, 4161.026, 4169.744, 4209.744, 4192.308, 0, 0, []
1627665980.4279, 22, 0, 4184.103, 4150.769, 4149.744, 4185.641, 4184.103, 0, 0, []
1627665980.4358, 23, 0, 4161.538, 4152.308, 4141.538, 4155.385, 4165.128, 0, 0, []
1627665980.4438, 24, 0, 4160, 4156.41, 4156.923, 4166.667, 4176.923, 0, 0, []
1627665980.4517, 25, 0, 4141.538, 4138.974, 4140, 4167.179, 4168.205, 0, 0, []
1627665980.4596, 26, 0, 4103.077, 4133.846, 4112.308, 4151.795, 4131.795, 0, 0, []
1627665980.4675, 27, 0, 4126.154, 4172.821, 4145.128, 4193.333, 4154.359, 0, 0, []
1627665980.4755, 28, 0, 4174.359, 4196.41, 4176.923, 4235.897, 4195.897, 0, 0, []
1627665980.4834, 29, 0, 4142.051, 4158.462, 4135.897, 4181.026, 4160.513, 0, 0, []
1627665980.4914, 30, 0, 4097.949, 4134.359, 4111.795, 4116.41, 4127.179, 0, 0, []
1627665980.4992, 31, 0, 4122.051, 4153.333, 4143.59, 4127.692, 4156.41, 0, 0, []
1627665980.5072, 32, 0, 4164.615, 4179.487, 4182.051, 4178.462, 4197.436, 0, 0, []
1627665980.5151, 33, 0, 4178.462, 4198.462, 4194.359, 4214.359, 4215.385, 0, 0, []
1627665980.5231, 34, 0, 4150.769, 4190.769, 4163.077, 4202.564, 4186.667, 0, 0, []
1627665980.531, 35, 0, 4121.026, 4165.128, 4127.179, 4178.974, 4148.205, 0, 0, []
1627665980.5389, 36, 0, 4139.487, 4167.179, 4149.231, 4200, 4170.256, 0, 0, []
1627665980.5468, 37, 0, 4162.051, 4170.769, 4181.026, 4213.846, 4200.513, 0, 0, []
1627665980.5548, 38, 0, 4149.744, 4148.205, 4160.513, 4181.538, 4184.103, 0, 0, []
1627665980.5627, 39, 0, 4152.821, 4149.231, 4152.308, 4172.308, 4179.487, 0, 0, []
1627665980.5707, 40, 0, 4147.692, 4156.41, 4153.846, 4173.333, 4177.949, 0, 0, []
1627665980.5785, 41, 0, 4123.59, 4149.231, 4130.769, 4161.026, 4161.538, 0, 0, []
1627665980.5865, 42, 0, 4152.308, 4182.051, 4142.564, 4201.538, 4190.256, 0, 0, []
1627665980.5945, 43, 0, 4189.744, 4215.897, 4167.179, 4247.692, 4225.641, 0, 0, []
1627665980.6024, 44, 0, 4170.256, 4189.744, 4148.205, 4220.513, 4205.128, 0, 0, []
1627665980.6104, 45, 0, 4158.974, 4170.256, 4145.128, 4190.769, 4190.769, 0, 0, []
1627665980.6182, 46, 0, 4186.154, 4198.462, 4174.359, 4208.718, 4215.897, 0, 0, []
1627665980.6262, 47, 0, 4176.41, 4198.974, 4157.436, 4201.026, 4206.667, 0, 0, []
1627665980.6341, 48, 0, 4139.487, 4158.974, 4120.513, 4165.128, 4171.795, 0, 0, []
1627665980.6421, 49, 0, 4159.487, 4167.692, 4147.179, 4189.231, 4196.41, 0, 0, []
1627665980.65, 50, 0, 4193.333, 4206.667, 4172.821, 4228.718, 4230.769, 0, 0, []
1627665980.6579, 51, 0, 4152.821, 4179.487, 4116.923, 4181.026, 4184.103, 0, 0, []
1627665980.6658, 52, 0, 4125.641, 4145.128, 4094.872, 4147.692, 4153.333, 0, 0, []
1627665980.6738, 53, 0, 4187.179, 4187.179, 4165.128, 4218.462, 4219.487, 0, 0, []
1627665980.6817, 54, 0, 4211.282, 4209.744, 4177.436, 4250.769, 4246.154, 0, 0, []
1627665980.6897, 55, 0, 4171.282, 4176.923, 4130.256, 4208.718, 4201.026, 0, 0, []
1627665980.6975, 56, 0, 4185.128, 4185.641, 4156.41, 4231.282, 4215.385, 0, 0, []
1627665980.7055, 57, 0, 4211.282, 4206.154, 4185.128, 4268.205, 4245.641, 0, 0, []
1627665980.7134, 58, 0, 4176.41, 4177.949, 4140.513, 4222.564, 4206.154, 0, 0, []
1627665980.7214, 59, 0, 4152.308, 4167.179, 4121.538, 4189.744, 4178.974, 0, 0, []
1627665980.7293, 60, 0, 4169.231, 4184.103, 4138.974, 4213.333, 4202.051, 0, 0, []
1627665980.7372, 61, 0, 4181.026, 4189.744, 4145.128, 4228.718, 4215.385, 0, 0, []
1627665980.7451, 62, 0, 4182.564, 4191.795, 4144.615, 4223.59, 4212.308, 0, 0, []
1627665980.7531, 63, 0, 4190.769, 4200.513, 4151.282, 4234.359, 4222.564, 0, 0, []
1627665980.7611, 64, 0, 4210.769, 4204.103, 4167.179, 4255.897, 4246.667, 450, 0, []
1627665980.769, 65, 0, 4219.487, 4197.949, 4165.641, 4247.179, 4253.846, 450, 0, []
1627665980.777, 66, 0, 4201.538, 4189.744, 4138.974, 4217.949, 4232.308, 16190, 0, []
1627665980.7848, 67, 0, 4192.308, 4191.795, 4140.513, 4219.487, 4224.103, 450, 0, []
1627665980.7928, 68, 0, 4212.308, 4205.128, 4174.359, 4249.231, 4243.59, 16159, 0, []
1627665980.8007, 69, 0, 4188.205, 4179.487, 4144.615, 4225.641, 4213.333, 450, 0, []
1627665980.8087, 70, 0, 4134.359, 4147.692, 4086.154, 4171.795, 4153.333, 16167, 0, []
1627665980.8166, 71, 0, 4169.231, 4187.692, 4132.308, 4203.59, 4192.308, 450, 0, []
1627665980.8245, 72, 0, 4245.641, 4240.513, 4215.385, 4277.436, 4275.897, 450, 0, []
1627665980.8324, 73, 0, 4221.538, 4214.872, 4185.641, 4254.872, 4253.333, 16177, 0, []
1627665980.8404, 74, 0, 4160.513, 4174.359, 4119.487, 4189.744, 4185.641, 450, 0, []
1627665980.8483, 75, 0, 4187.692, 4194.872, 4144.615, 4212.821, 4208.205, 16197, 0, []
1627665980.8563, 76, 0, 4229.231, 4212.821, 4185.128, 4260.513, 4250.769, 450, 0, []
1627665980.8641, 77, 0, 4218.974, 4200.513, 4177.949, 4256.41, 4242.564, 450, 0, []
1627665980.8721, 78, 0, 4208.718, 4195.897, 4169.744, 4241.026, 4231.282, 450, 0, []
1627665980.88, 79, 0, 4205.128, 4196.923, 4171.282, 4235.897, 4226.667, 16197, 0, []
1627665980.888, 80, 0, 4197.436, 4198.462, 4172.821, 4233.333, 4220.513, 450, 0, []
1627665980.8959, 81, 0, 4201.026, 4201.538, 4164.103, 4223.59, 4220.513, 450, 0, []
1627665980.9038, 82, 0, 4209.744, 4202.564, 4153.846, 4210.256, 4219.487, 450, 0, []
1627665980.9117, 83, 0, 4207.179, 4198.974, 4160.513, 4213.333, 4212.308, 16197, 0, []
1627665980.9195, 84, 0, 4190.769, 4190.769, 4156.41, 4213.333, 4196.923, 450, 0, []
1627665980.9275, 85, 0, 4144.615, 4160, 4100.513, 4163.077, 4151.795, 450, 0, []
1627665980.9354, 86, 0, 4123.077, 4144.103, 4078.462, 4135.385, 4131.795, 450, 0, []
1627665980.9433, 87, 0, 4177.436, 4183.59, 4149.231, 4204.103, 4186.154, 16197, 0, []
1627665980.9512, 88, 0, 4231.282, 4227.692, 4202.564, 4265.641, 4230.256, 450, 0, []
1627665980.9592, 89, 0, 4223.077, 4223.077, 4175.897, 4242.564, 4211.795, 450, 0, []
1627665980.9671, 90, 0, 4193.846, 4198.462, 4143.59, 4206.667, 4178.462, 450, 0, []
1627665980.9751, 91, 0, 4189.231, 4200, 4154.872, 4213.846, 4174.872, 16197, 0, []
1627665980.9829, 92, 0, 4196.923, 4213.333, 4172.821, 4229.744, 4192.821, 450, 0, []
1627665980.9909, 93, 0, 4205.641, 4210.256, 4175.897, 4228.718, 4207.692, 450, 0, []
1627665980.9988, 94, 0, 4204.615, 4202.051, 4177.436, 4221.026, 4200, 450, 0, []
1627665981.0068, 95, 0, 4192.308, 4195.897, 4162.051, 4215.385, 4182.564, 16197, 0, []
1627665981.0147, 96, 0, 4183.59, 4192.308, 4146.154, 4215.897, 4179.487, 450, 0, []
1627665981.0226, 97, 0, 4185.641, 4200.513, 4164.103, 4222.051, 4185.641, 450, 0, []
1627665981.0305, 98, 0, 4198.462, 4215.897, 4184.103, 4229.231, 4190.769, 450, 0, []
1627665981.0385, 99, 0, 4203.59, 4214.359, 4167.179, 4231.282, 4188.718, 16197, 0, []
1627665981.0464, 100, 0, 4191.282, 4203.077, 4148.718, 4226.154, 4178.974, 450, 0, []
1627665981.0542, 101, 0, 4144.615, 4178.974, 4124.103, 4185.641, 4135.385, 450, 0, []
1627665981.0621, 102, 0, 4098.974, 4156.923, 4090.256, 4132.308, 4082.564, 450, 0, []
1627665981.07, 103, 0, 4140, 4186.667, 4131.795, 4175.385, 4124.615, 16197, 0, []
1627665981.078, 104, 0, 4221.538, 4235.897, 4209.231, 4270.256, 4217.436, 450, 0, []
1627665981.0859, 105, 0, 4246.154, 4237.436, 4217.436, 4286.667, 4240, 450, 0, []
1627665981.0939, 106, 0, 4226.667, 4215.897, 4192.821, 4256.923, 4210.769, 450, 0, []
1627665981.1017, 107, 0, 4213.846, 4213.333, 4201.026, 4258.974, 4202.564, 16197, 0, []
1627665981.1097, 108, 0, 4214.359, 4221.538, 4209.744, 4267.692, 4211.282, 450, 0, []
1627665981.1176, 109, 0, 4198.462, 4207.692, 4174.872, 4239.487, 4186.667, 450, 0, []
1627665981.1256, 110, 0, 4155.897, 4164.103, 4120.513, 4189.744, 4129.231, 450, 0, []
1627665981.1335, 111, 0, 4156.923, 4162.051, 4128.205, 4191.282, 4131.282, 16197, 0, []
1627665981.1414, 112, 0, 4223.59, 4215.897, 4196.41, 4254.872, 4207.692, 450, 0, []
1627665981.1493, 113, 0, 4240, 4223.59, 4206.667, 4269.744, 4225.641, 450, 0, []
1627665981.1573, 114, 0, 4205.128, 4188.718, 4165.641, 4237.949, 4181.026, 450, 0, []
1627665981.1652, 115, 0, 4194.359, 4182.564, 4155.385, 4225.128, 4167.179, 16197, 0, []
1627665981.1732, 116, 0, 4179.487, 4179.487, 4146.154, 4203.59, 4153.846, 450, 0, []
1627665981.181, 117, 0, 4179.487, 4177.436, 4143.59, 4209.231, 4157.436, 450, 0, []
1627665981.1888, 118, 0, 4232.821, 4211.795, 4188.718, 4273.333, 4218.462, 450, 0, []
1627665981.1967, 119, 0, 4256.923, 4227.692, 4218.462, 4291.795, 4244.615, 16197, 0, []
1627665981.2045, 120, 0, 4206.667, 4197.949, 4176.923, 4234.872, 4190.256, 450, 0, []
1627665981.2125, 121, 0, 4171.795, 4174.872, 4136.923, 4200, 4148.718, 450, 0, []
1627665981.2203, 122, 0, 4202.564, 4182.564, 4162.564, 4222.051, 4178.462, 450, 0, []
1627665981.2283, 123, 0, 4236.41, 4198.974, 4195.897, 4242.564, 4213.333, 16197, 0, []
1627665981.2362, 124, 0, 4205.128, 4195.385, 4167.179, 4209.744, 4182.051, 450, 0, []
1627665981.2442, 125, 0, 4159.487, 4176.41, 4129.231, 4169.231, 4138.462, 450, 0, []
1627665981.2521, 126, 0, 4188.718, 4189.231, 4161.538, 4198.974, 4169.231, 450, 0, []
1627665981.26, 127, 0, 4243.59, 4221.538, 4211.795, 4252.308, 4229.231, 16197, 0, []
1627665981.2679, 128, 0, 4244.615, 4223.59, 4202.564, 4252.308, 4233.846, 450, 0, []
1627665981.2759, 0, 0, 4222.564, 4215.385, 4170.769, 4226.667, 4211.282, 450, 0, []
1627665981.2838, 1, 0, 4223.59, 4217.436, 4170.256, 4222.564, 4208.718, 450, 0, []
1627665981.2918, 2, 0, 4211.795, 4197.949, 4166.154, 4213.333, 4196.41, 16190, 0, []
1627665981.2996, 3, 0, 4190.769, 4185.128, 4153.333, 4197.436, 4180, 450, 0, []
1627665981.3076, 4, 0, 4216.923, 4210.256, 4174.872, 4217.949, 4205.128, 16159, 0, []
1627665981.3155, 5, 0, 4240, 4217.949, 4192.308, 4238.462, 4226.154, 450, 0, []
1627665981.3235, 6, 0, 4216.41, 4194.872, 4173.333, 4216.923, 4206.667, 16163, 0, []
1627665981.3314, 7, 0, 4205.128, 4199.487, 4160, 4199.487, 4195.897, 450, 0, []
1627665981.3391, 8, 0, 4211.282, 4208.718, 4154.359, 4199.487, 4195.897, 450, 0, []
1627665981.347, 9, 0, 4207.179, 4198.462, 4152.308, 4201.026, 4191.795, 16177, 0, []
1627665981.3548, 10, 0, 4218.974, 4205.128, 4176.923, 4222.564, 4209.744, 450, 0, []
1627665981.3628, 11, 0, 4223.077, 4212.821, 4178.462, 4227.179, 4208.205, 16202, 0, []
1627665981.3707, 12, 0, 4201.538, 4196.923, 4145.641, 4193.333, 4178.974, 450, 0, []
1627665981.3786, 13, 0, 4202.051, 4193.333, 4150.769, 4183.59, 4180, 450, 0, []
1627665981.3865, 14, 0, 4202.564, 4193.846, 4161.026, 4189.231, 4179.487, 450, 0, []
1627665981.3945, 15, 0, 4189.744, 4183.077, 4149.744, 4181.026, 4165.641, 16202, 0, []
1627665981.4024, 16, 0, 4208.718, 4194.359, 4169.744, 4194.359, 4187.692, 0, 0, []
1627665981.4104, 17, 0, 4226.667, 4216.923, 4190.256, 4217.949, 4207.179, 0, 0, []
1627665981.4182, 18, 0, 4212.308, 4207.692, 4167.179, 4213.333, 4194.359, 0, 0, []
1627665981.4262, 19, 0, 4190.256, 4178.974, 4140, 4183.59, 4174.359, 0, 0, []
1627665981.4341, 20, 0, 4184.615, 4174.872, 4146.667, 4165.128, 4169.231, 0, 0, []
1627665981.4421, 21, 0, 4214.872, 4204.103, 4178.974, 4191.795, 4197.436, 0, 0, []
1627665981.45, 22, 0, 4253.333, 4225.128, 4203.59, 4230.256, 4237.436, 0, 0, []
1627665981.4579, 23, 0, 4236.41, 4212.308, 4192.821, 4216.923, 4226.154, 0, 0, []
1627665981.4658, 24, 0, 4197.949, 4198.462, 4172.308, 4185.641, 4193.846, 0, 0, []
1627665981.4736, 25, 0, 4191.282, 4194.359, 4160.513, 4182.051, 4188.718, 0, 0, []
1627665981.4815, 26, 0, 4168.205, 4164.103, 4123.59, 4158.974, 4160.513, 0, 0, []
1627665981.4893, 27, 0, 4153.333, 4153.333, 4118.974, 4145.641, 4137.949, 0, 0, []
1627665981.4971, 28, 0, 4182.564, 4192.821, 4168.718, 4185.128, 4170.769, 0, 0, []
1627665981.5049, 29, 0, 4196.41, 4210.769, 4188.205, 4210.256, 4195.897, 0, 0, []
1627665981.5128, 30, 0, 4188.205, 4197.436, 4171.795, 4201.538, 4186.667, 0, 0, []
1627665981.5206, 31, 0, 4194.872, 4206.667, 4170.769, 4202.051, 4184.615, 0, 0, []
1627665981.5286, 32, 0, 4202.051, 4223.077, 4179.487, 4208.718, 4192.308, 0, 0, []
1627665981.5364, 33, 0, 4190.769, 4214.872, 4177.949, 4196.923, 4188.718, 0, 0, []
1627665981.5444, 34, 0, 4196.41, 4216.41, 4185.128, 4193.333, 4189.744, 0, 0, []
1627665981.5523, 35, 0, 4183.59, 4208.205, 4168.718, 4176.923, 4166.667, 0, 0, []
1627665981.5603, 36, 0, 4136.923, 4168.718, 4124.103, 4134.872, 4116.923, 0, 0, []
1627665981.5682, 37, 0, 4142.051, 4170.769, 4125.641, 4141.026, 4120.513, 0, 0, []
1627665981.5761, 38, 0, 4196.41, 4217.436, 4169.231, 4196.41, 4172.821, 0, 0, []
1627665981.584, 39, 0, 4210.769, 4218.462, 4182.051, 4213.333, 4188.718, 0, 0, []
1627665981.592, 40, 0, 4176.923, 4182.051, 4152.308, 4180.513, 4162.051, 0, 0, []
1627665981.5999, 41, 0, 4162.564, 4178.974, 4141.538, 4163.077, 4148.205, 0, 0, []
1627665981.6079, 42, 0, 4165.128, 4190.256, 4154.359, 4163.077, 4152.821, 0, 0, []
1627665981.6157, 43, 0, 4176.41, 4187.692, 4169.231, 4176.41, 4165.128, 0, 0, []
1627665981.6235, 44, 0, 4206.667, 4200.513, 4196.41, 4213.846, 4189.744, 0, 0, []
1627665981.6314, 45, 0, 4207.692, 4207.179, 4202.564, 4220, 4193.846, 0, 0, []
1627665981.6392, 46, 0, 4182.564, 4189.744, 4172.308, 4184.615, 4175.385, 0, 0, []
1627665981.6471, 47, 0, 4192.308, 4184.615, 4156.41, 4173.846, 4181.026, 0, 0, []
1627665981.6549, 48, 0, 4207.179, 4189.744, 4162.564, 4186.667, 4186.667, 0, 0, []
1627665981.6627, 49, 0, 4174.872, 4180, 4147.179, 4172.308, 4155.897, 0, 0, []
1627665981.6705, 50, 0, 4158.462, 4177.949, 4138.462, 4158.462, 4145.128, 0, 0, []
1627665981.6785, 51, 0, 4185.641, 4188.205, 4166.667, 4175.897, 4171.282, 0, 0, []
1627665981.6864, 52, 0, 4173.333, 4170.256, 4163.077, 4167.179, 4158.974, 0, 0, []
1627665981.6944, 53, 0, 4142.051, 4150.256, 4136.41, 4141.538, 4130.769, 0, 0, []
1627665981.7022, 54, 0, 4168.718, 4166.667, 4154.872, 4161.538, 4154.872, 0, 0, []
1627665981.7102, 55, 0, 4209.231, 4190.769, 4189.744, 4198.974, 4192.821, 0, 0, []
1627665981.7181, 56, 0, 4217.436, 4204.615, 4200.513, 4212.308, 4209.231, 0, 0, []
1627665981.7261, 57, 0, 4211.282, 4204.103, 4189.231, 4205.641, 4203.077, 0, 0, []
1627665981.734, 58, 0, 4185.128, 4180, 4161.538, 4168.718, 4168.205, 0, 0, []
1627665981.7419, 59, 0, 4163.59, 4158.974, 4144.103, 4134.359, 4146.667, 0, 0, []
1627665981.7498, 60, 0, 4174.359, 4167.692, 4153.333, 4145.641, 4157.949, 0, 0, []
1627665981.7578, 61, 0, 4175.897, 4168.718, 4150.256, 4155.385, 4156.41, 0, 0, []
1627665981.7657, 62, 0, 4170.256, 4159.487, 4150.256, 4151.282, 4152.821, 0, 0, []
1627665981.7735, 63, 0, 4195.385, 4176.41, 4181.538, 4180.513, 4180, 0, 0, []
1627665981.7813, 64, 0, 4178.462, 4167.179, 4161.026, 4172.821, 4161.026, 450, 0, []
1627665981.7891, 65, 0, 4124.615, 4128.205, 4108.205, 4119.487, 4107.179, 450, 0, []
1627665981.797, 66, 0, 4155.385, 4145.128, 4144.615, 4147.692, 4135.385, 16190, 0, []
1627665981.8048, 67, 0, 4216.923, 4187.692, 4206.154, 4212.821, 4192.308, 450, 0, []
1627665981.8127, 68, 0, 4190.256, 4169.744, 4170.256, 4178.974, 4162.564, 16159, 0, []
1627665981.8204, 69, 0, 4151.282, 4144.615, 4134.359, 4135.385, 4123.077, 450, 0, []
1627665981.8283, 70, 0, 4170.769, 4157.436, 4163.59, 4165.641, 4143.077, 16162, 0, []
1627665981.8361, 71, 0, 4173.333, 4156.923, 4170.256, 4175.385, 4148.718, 450, 0, []
1627665981.8441, 72, 0, 4151.282, 4154.872, 4157.949, 4153.846, 4132.821, 450, 0, []
1627665981.852, 73, 0, 4156.923, 4162.564, 4166.154, 4156.923, 4142.051, 16177, 0, []
1627665981.8599, 74, 0, 4172.821, 4161.026, 4176.923, 4178.974, 4161.538, 450, 0, []
1627665981.8678, 75, 0, 4164.615, 4153.846, 4168.718, 4190.769, 4157.949, 16202, 0, []
1627665981.8758, 76, 0, 4127.692, 4138.974, 4140.513, 4167.179, 4125.641, 450, 0, []
1627665981.8837, 77, 0, 4127.179, 4143.077, 4140, 4156.923, 4127.692, 450, 0, []
1627665981.8917, 78, 0, 4165.641, 4172.821, 4170.769, 4192.821, 4166.154, 450, 0, []
1627665981.8995, 79, 0, 4165.128, 4176.923, 4168.205, 4204.103, 4165.641, 16202, 0, []
1627665981.9075, 80, 0, 4138.974, 4154.872, 4144.615, 4182.564, 4141.026, 450, 0, []
1627665981.9154, 81, 0, 4136.923, 4153.846, 4149.231, 4181.538, 4140, 450, 0, []
1627665981.9234, 82, 0, 4131.282, 4153.333, 4149.231, 4172.821, 4129.744, 450, 0, []
1627665981.9313, 83, 0, 4120.513, 4145.128, 4141.538, 4155.897, 4115.385, 16202, 0, []
1627665981.939, 84, 0, 4129.744, 4154.359, 4154.872, 4170.256, 4132.308, 450, 0, []
1627665981.9469, 85, 0, 4132.308, 4159.487, 4158.974, 4177.949, 4140, 450, 0, []
1627665981.9547, 86, 0, 4132.821, 4163.59, 4158.462, 4175.897, 4135.385, 450, 0, []
1627665981.9626, 87, 0, 4139.487, 4169.744, 4168.205, 4185.641, 4145.128, 16202, 0, []
1627665981.9704, 88, 0, 4140, 4169.744, 4172.308, 4187.179, 4153.846, 450, 0, []
1627665981.9782, 89, 0, 4145.641, 4166.667, 4171.282, 4183.59, 4153.846, 450, 0, []
1627665981.986, 90, 0, 4145.128, 4158.974, 4157.949, 4183.59, 4142.564, 450, 0, []
1627665981.994, 91, 0, 4134.872, 4161.026, 4143.59, 4183.59, 4131.795, 16202, 0, []
1627665982.0019, 92, 0, 4135.897, 4171.795, 4145.128, 4186.667, 4133.333, 450, 0, []
1627665982.0099, 93, 0, 4158.974, 4177.949, 4163.59, 4196.41, 4150.769, 450, 0, []
1627665982.0177, 94, 0, 4188.205, 4186.154, 4181.026, 4209.744, 4175.897, 450, 0, []
1627665982.0257, 95, 0, 4169.231, 4178.462, 4154.359, 4191.282, 4162.564, 16202, 0, []
1627665982.0336, 96, 0, 4137.436, 4160, 4125.641, 4163.077, 4135.897, 450, 0, []
1627665982.0416, 97, 0, 4164.103, 4172.821, 4154.359, 4186.667, 4157.436, 450, 0, []
1627665982.0495, 98, 0, 4184.615, 4189.231, 4169.744, 4208.718, 4173.333, 450, 0, []
1627665982.0574, 99, 0, 4148.718, 4172.821, 4133.333, 4173.333, 4136.41, 16202, 0, []
1627665982.0653, 100, 0, 4155.897, 4182.051, 4145.128, 4174.359, 4145.128, 450, 0, []
1627665982.0733, 101, 0, 4209.231, 4209.744, 4193.846, 4233.846, 4203.59, 450, 0, []
1627665982.0812, 102, 0, 4206.667, 4201.538, 4189.744, 4243.077, 4199.487, 450, 0, []
1627665982.089, 103, 0, 4185.641, 4197.949, 4180, 4226.154, 4175.897, 16202, 0, []
1627665982.0968, 104, 0, 4194.872, 4210.256, 4190.769, 4244.103, 4193.846, 450, 0, []
1627665982.1046, 105, 0, 4170.256, 4183.077, 4157.949, 4226.667, 4169.231, 450, 0, []
1627665982.1125, 106, 0, 4125.128, 4147.179, 4113.846, 4170.256, 4114.359, 450, 0, []
1627665982.1205, 107, 0, 4149.231, 4172.308, 4142.564, 4177.436, 4138.974, 16202, 0, []
1627665982.1284, 108, 0, 4184.615, 4205.128, 4176.923, 4212.308, 4179.487, 450, 0, []
1627665982.1361, 109, 0, 4153.333, 4186.667, 4145.641, 4187.692, 4144.615, 450, 0, []
1627665982.1441, 110, 0, 4138.462, 4178.974, 4130.769, 4163.59, 4126.667, 450, 0, []
1627665982.152, 111, 0, 4176.923, 4202.564, 4173.333, 4190.256, 4168.718, 16202, 0, []
1627665982.16, 112, 0, 4177.436, 4195.897, 4183.59, 4198.974, 4178.462, 450, 0, []
1627665982.1679, 113, 0, 4148.718, 4176.41, 4153.333, 4175.897, 4156.41, 450, 0, []
1627665982.1758, 114, 0, 4173.333, 4201.026, 4173.846, 4190.256, 4175.385, 450, 0, []
1627665982.1837, 115, 0, 4194.359, 4218.462, 4196.923, 4205.641, 4192.821, 16202, 0, []
1627665982.1917, 116, 0, 4161.538, 4191.282, 4162.564, 4175.897, 4166.667, 450, 0, []
1627665982.1996, 117, 0, 4149.231, 4180.513, 4143.077, 4161.538, 4157.436, 450, 0, []
1627665982.2076, 118, 0, 4175.385, 4204.615, 4175.897, 4191.282, 4182.051, 450, 0, []
1627665982.2154, 119, 0, 4174.359, 4210.769, 4180, 4193.333, 4181.026, 16202, 0, []
1627665982.2234, 120, 0, 4142.564, 4182.051, 4140.513, 4148.718, 4147.179, 450, 0, []
1627665982.2313, 121, 0, 4145.641, 4174.872, 4134.872, 4144.103, 4147.179, 450, 0, []
1627665982.2391, 122, 0, 4190.256, 4216.41, 4167.692, 4194.872, 4194.359, 450, 0, []
1627665982.247, 123, 0, 4211.795, 4244.615, 4185.641, 4221.026, 4220, 16202, 0, []
1627665982.2547, 124, 0, 4178.462, 4212.308, 4159.487, 4184.615, 4189.231, 450, 0, []
1627665982.2626, 125, 0, 4161.026, 4191.795, 4138.974, 4163.59, 4169.744, 450, 0, []
1627665982.2704, 126, 0, 4183.077, 4224.615, 4156.41, 4189.744, 4190.769, 450, 0, []
1627665982.2783, 127, 0, 4194.359, 4243.077, 4177.436, 4209.744, 4207.692, 16202, 0, []
1627665982.2861, 128, 0, 4187.179, 4226.667, 4174.359, 4204.615, 4201.026, 450, 0, []
1627665982.294, 0, 0, 4164.615, 4203.077, 4141.026, 4177.436, 4169.231, 450, 0, []
1627665982.3019, 1, 0, 4154.359, 4192.308, 4126.154, 4165.641, 4156.41, 450, 0, []
1627665982.3099, 2, 0, 4193.333, 4210.769, 4162.564, 4202.051, 4198.974, 16188, 0, []
1627665982.3178, 3, 0, 4222.564, 4234.872, 4195.385, 4226.667, 4229.744, 450, 0, []
1627665982.3258, 4, 0, 4212.821, 4236.41, 4187.179, 4215.897, 4218.462, 16159, 0, []
1627665982.3336, 5, 0, 4215.385, 4232.308, 4174.872, 4212.821, 4223.59, 450, 0, []
1627665982.3416, 6, 0, 4214.872, 4226.667, 4170.769, 4208.205, 4226.667, 16156, 0, []
1627665982.3495, 7, 0, 4185.641, 4215.385, 4154.872, 4190.256, 4199.487, 450, 0, []
1627665982.3575, 8, 0, 4178.974, 4216.41, 4151.282, 4194.359, 4191.795, 450, 0, []
1627665982.3654, 9, 0, 4199.487, 4226.154, 4169.744, 4213.333, 4208.205, 16175, 0, []
1627665982.3733, 10, 0, 4188.205, 4214.359, 4163.077, 4199.487, 4191.282, 450, 0, []
1627665982.3812, 11, 0, 4162.564, 4202.051, 4137.949, 4169.744, 4159.487, 16197, 0, []
1627665982.389, 12, 0, 4186.667, 4227.692, 4162.051, 4190.256, 4182.051, 450, 0, []
1627665982.3969, 13, 0, 4212.821, 4243.077, 4192.821, 4220.513, 4213.333, 450, 0, []
1627665982.4047, 14, 0, 4186.154, 4205.128, 4162.051, 4189.231, 4185.641, 450, 0, []
1627665982.4125, 15, 0, 4157.949, 4176.923, 4125.641, 4149.231, 4151.282, 16197, 0, []
1627665982.4203, 16, 0, 4163.59, 4192.821, 4134.359, 4160, 4160.513, 0, 0, []
1627665982.4282, 17, 0, 4180.513, 4210.256, 4159.487, 4189.744, 4184.615, 0, 0, []
1627665982.436, 18, 0, 4202.051, 4226.667, 4187.179, 4215.385, 4200.513, 0, 0, []
1627665982.4439, 19, 0, 4214.359, 4241.026, 4199.487, 4227.179, 4209.744, 0, 0, []
1627665982.4517, 20, 0, 4202.564, 4231.282, 4183.59, 4211.282, 4207.179, 0, 0, []
1627665982.4596, 21, 0, 4184.615, 4212.821, 4166.154, 4188.205, 4187.692, 0, 0, []
1627665982.4675, 22, 0, 4180, 4207.692, 4155.897, 4180.513, 4173.333, 0, 0, []
1627665982.4755, 23, 0, 4176.923, 4197.949, 4141.026, 4172.308, 4168.205, 0, 0, []
1627665982.4834, 24, 0, 4163.077, 4183.59, 4130.256, 4153.846, 4157.436, 0, 0, []
1627665982.4914, 25, 0, 4160.513, 4190.769, 4135.385, 4150.256, 4154.359, 0, 0, []
1627665982.4992, 26, 0, 4194.359, 4225.128, 4169.231, 4188.718, 4182.564, 0, 0, []
1627665982.5072, 27, 0, 4218.974, 4244.103, 4195.897, 4221.538, 4204.615, 0, 0, []
1627665982.5151, 28, 0, 4187.179, 4216.923, 4166.667, 4189.744, 4176.923, 0, 0, []
1627665982.5231, 29, 0, 4172.308, 4201.026, 4146.154, 4165.641, 4165.641, 0, 0, []
1627665982.531, 30, 0, 4206.154, 4216.923, 4174.359, 4193.333, 4194.359, 0, 0, []
1627665982.5387, 31, 0, 4216.923, 4219.487, 4183.077, 4201.026, 4202.051, 0, 0, []
1627665982.5466, 32, 0, 4195.385, 4213.333, 4160, 4178.462, 4185.128, 0, 0, []
1627665982.5544, 33, 0, 4193.333, 4213.846, 4160.513, 4174.872, 4180, 0, 0, []
1627665982.5623, 34, 0, 4207.692, 4212.308, 4187.179, 4191.282, 4191.282, 0, 0, []
1627665982.5701, 35, 0, 4198.462, 4206.154, 4191.795, 4185.128, 4187.179, 0, 0, []
1627665982.5779, 36, 0, 4201.026, 4217.436, 4184.103, 4179.487, 4191.282, 0, 0, []
1627665982.5857, 37, 0, 4231.795, 4236.923, 4189.231, 4197.436, 4217.436, 0, 0, []
1627665982.5936, 38, 0, 4228.205, 4232.308, 4183.077, 4190.769, 4215.385, 0, 0, []
1627665982.6014, 39, 0, 4191.795, 4216.41, 4158.462, 4154.359, 4184.103, 0, 0, []
1627665982.6094, 40, 0, 4194.359, 4224.103, 4160, 4150.769, 4181.538, 0, 0, []
1627665982.6172, 41, 0, 4231.282, 4243.077, 4196.923, 4190.256, 4214.359, 0, 0, []
1627665982.6252, 42, 0, 4220.513, 4220.513, 4188.205, 4184.103, 4204.103, 0, 0, []
1627665982.6331, 43, 0, 4183.077, 4188.205, 4143.077, 4140, 4166.154, 0, 0, []
1627665982.6411, 44, 0, 4182.564, 4191.282, 4135.385, 4141.538, 4166.667, 0, 0, []
1627665982.649, 45, 0, 4186.154, 4188.718, 4136.923, 4149.744, 4164.615, 0, 0, []
1627665982.6569, 46, 0, 4185.128, 4186.154, 4133.846, 4142.051, 4155.385, 0, 0, []
1627665982.6648, 47, 0, 4204.103, 4208.205, 4156.923, 4155.385, 4173.846, 0, 0, []
1627665982.6728, 48, 0, 4227.692, 4220.513, 4189.231, 4179.487, 4198.462, 0, 0, []
1627665982.6807, 49, 0, 4226.154, 4201.538, 4189.744, 4185.128, 4196.923, 0, 0, []
1627665982.6885, 50, 0, 4203.59, 4175.897, 4161.026, 4172.308, 4176.923, 0, 0, []
1627665982.6963, 51, 0, 4200, 4170.256, 4156.923, 4174.359, 4173.333, 0, 0, []
1627665982.7041, 52, 0, 4202.051, 4177.436, 4166.667, 4182.051, 4178.462, 0, 0, []
1627665982.712, 53, 0, 4186.667, 4179.487, 4153.333, 4170.769, 4167.179, 0, 0, []
1627665982.7198, 54, 0, 4192.821, 4178.974, 4155.385, 4175.385, 4172.821, 0, 0, []
1627665982.7277, 55, 0, 4217.949, 4185.128, 4174.872, 4195.385, 4197.949, 0, 0, []
1627665982.7354, 56, 0, 4210.256, 4182.051, 4157.949, 4184.103, 4187.179, 0, 0, []
1627665982.7433, 57, 0, 4176.923, 4156.923, 4121.538, 4146.154, 4147.179, 0, 0, []
1627665982.7511, 58, 0, 4168.205, 4150.256, 4125.128, 4141.026, 4141.026, 0, 0, []
1627665982.759, 59, 0, 4195.385, 4176.41, 4162.564, 4175.897, 4173.333, 0, 0, []
1627665982.7668, 60, 0, 4231.795, 4196.923, 4191.282, 4214.359, 4206.154, 0, 0, []
1627665982.7747, 61, 0, 4234.359, 4191.795, 4187.692, 4212.821, 4207.179, 0, 0, []
1627665982.7826, 62, 0, 4201.538, 4184.615, 4162.051, 4176.923, 4176.41, 0, 0, []
1627665982.7906, 63, 0, 4185.641, 4185.128, 4153.333, 4164.615, 4158.974, 0, 0, []
1627665982.7985, 64, 0, 4180, 4170.256, 4150.256, 4162.564, 4155.385, 450, 0, []
1627665982.8065, 65, 0, 4184.103, 4168.205, 4161.538, 4168.718, 4168.205, 450, 0, []
1627665982.8143, 66, 0, 4184.615, 4170.256, 4166.667, 4174.872, 4173.333, 16184, 0, []
1627665982.8223, 67, 0, 4131.795, 4129.231, 4105.641, 4115.385, 4111.795, 450, 0, []
1627665982.8302, 68, 0, 4130.256, 4133.846, 4099.487, 4100.513, 4099.487, 16155, 0, []
1627665982.8382, 69, 0, 4218.974, 4206.154, 4188.205, 4194.359, 4188.205, 450, 0, []
1627665982.8461, 70, 0, 4253.333, 4226.154, 4214.359, 4236.923, 4229.744, 16148, 0, []
1627665982.8538, 71, 0, 4221.026, 4197.949, 4165.128, 4189.231, 4197.949, 450, 0, []
1627665982.8617, 72, 0, 4206.667, 4187.692, 4141.026, 4167.692, 4177.949, 450, 0, []
1627665982.8695, 73, 0, 4198.462, 4176.923, 4145.641, 4172.821, 4171.282, 16173, 0, []
1627665982.8774, 74, 0, 4192.308, 4178.974, 4149.744, 4166.667, 4170.769, 450, 0, []
1627665982.8852, 75, 0, 4207.179, 4199.487, 4152.821, 4169.231, 4181.026, 16194, 0, []
1627665982.893, 76, 0, 4194.359, 4183.077, 4134.359, 4159.487, 4163.59, 450, 0, []
1627665982.9008, 77, 0, 4165.641, 4168.205, 4128.205, 4141.026, 4134.872, 450, 0, []
1627665982.9087, 78, 0, 4170.769, 4185.128, 4145.128, 4153.846, 4137.436, 450, 0, []
1627665982.9165, 79, 0, 4192.308, 4196.41, 4153.333, 4186.154, 4163.59, 16194, 0, []
1627665982.9244, 80, 0, 4207.179, 4204.103, 4164.103, 4215.385, 4189.231, 450, 0, []
1627665982.9321, 81, 0, 4203.077, 4201.026, 4167.692, 4214.872, 4189.744, 450, 0, []
1627665982.9401, 82, 0, 4193.846, 4189.744, 4160.513, 4201.538, 4181.026, 450, 0, []
1627665982.948, 83, 0, 4194.872, 4195.897, 4161.538, 4205.128, 4183.59, 16194, 0, []
1627665982.956, 84, 0, 4201.538, 4207.179, 4171.282, 4222.564, 4187.692, 450, 0, []
1627665982.9639, 85, 0, 4200, 4197.436, 4170.256, 4229.744, 4184.615, 450, 0, []
1627665982.9718, 86, 0, 4190.256, 4188.718, 4160.513, 4218.462, 4175.897, 450, 0, []
1627665982.9797, 87, 0, 4176.923, 4186.154, 4148.205, 4192.821, 4162.051, 16194, 0, []
1627665982.9877, 88, 0, 4174.359, 4184.103, 4138.974, 4182.051, 4160.513, 450, 0, []
1627665982.9956, 89, 0, 4193.333, 4193.846, 4153.846, 4202.051, 4178.462, 450, 0, []
1627665983.0036, 90, 0, 4208.205, 4201.538, 4174.872, 4224.615, 4192.308, 450, 0, []
1627665983.0114, 91, 0, 4198.462, 4196.923, 4168.205, 4223.077, 4184.615, 16194, 0, []
1627665983.0192, 92, 0, 4201.026, 4202.564, 4166.667, 4226.667, 4188.718, 450, 0, []
1627665983.0271, 93, 0, 4231.795, 4223.59, 4192.821, 4249.744, 4216.41, 450, 0, []
1627665983.0349, 94, 0, 4234.359, 4216.923, 4193.333, 4244.103, 4215.385, 450, 0, []
1627665983.0428, 95, 0, 4203.077, 4186.154, 4158.462, 4201.026, 4180.513, 16194, 0, []
1627665983.0505, 96, 0, 4189.231, 4176.41, 4136.41, 4173.333, 4162.564, 450, 0, []
1627665983.0584, 97, 0, 4207.179, 4195.385, 4150.769, 4189.231, 4184.615, 450, 0, []
1627665983.0662, 98, 0, 4228.205, 4211.282, 4178.974, 4214.359, 4211.795, 450, 0, []
1627665983.0741, 99, 0, 4231.282, 4215.385, 4185.128, 4214.359, 4216.41, 16194, 0, []
1627665983.0819, 100, 0, 4230.256, 4222.564, 4178.462, 4212.821, 4214.359, 450, 0, []
1627665983.0897, 101, 0, 4207.692, 4205.128, 4153.846, 4193.333, 4189.744, 450, 0, []
1627665983.0975, 102, 0, 4182.051, 4180.513, 4129.231, 4169.744, 4160.513, 450, 0, []
1627665983.1054, 103, 0, 4203.077, 4200.513, 4150.769, 4190.769, 4182.564, 16194, 0, []
1627665983.1134, 104, 0, 4244.103, 4234.872, 4184.615, 4223.077, 4227.179, 450, 0, []
1627665983.1214, 105, 0, 4236.41, 4218.462, 4160, 4192.821, 4218.974, 450, 0, []
1627665983.1292, 106, 0, 4221.026, 4187.692, 4118.974, 4141.026, 4197.949, 450, 0, []
1627665983.1372, 107, 0, 4281.026, 4209.744, 4138.462, 4155.897, 4255.385, 16194, 0, []
1627665983.1451, 108, 0, 4362.051, 4233.846, 4172.821, 4200, 4343.077, 450, 0, []
1627665983.1531, 109, 0, 4383.077, 4220, 4168.718, 4206.154, 4373.846, 450, 0, []
1627665983.161, 110, 0, 4371.795, 4220, 4154.359, 4189.744, 4359.487, 450, 0, []
1627665983.169, 111, 0, 4367.692, 4233.846, 4151.795, 4187.692, 4348.718, 16194, 0, []
1627665983.1768, 112, 0, 4353.333, 4218.462, 4150.769, 4194.359, 4340, 450, 0, []
1627665983.1846, 113, 0, 4313.333, 4202.564, 4138.462, 4185.128, 4308.718, 450, 0, []
1627665983.1925, 114, 0, 4282.051, 4220, 4135.897, 4183.077, 4277.436, 450, 0, []
1627665983.2003, 115, 0, 4264.103, 4218.974, 4139.487, 4186.667, 4255.385, 16194, 0, []
1627665983.2082, 116, 0, 4251.795, 4204.103, 4132.821, 4180.513, 4238.974, 450, 0, []
1627665983.2159, 117, 0, 4255.897, 4220.513, 4142.051, 4191.795, 4246.154, 450, 0, []
1627665983.2238, 118, 0, 4269.231, 4241.026, 4166.154, 4224.103, 4266.667, 450, 0, []
1627665983.2316, 119, 0, 4251.282, 4228.718, 4157.436, 4219.487, 4246.667, 16194, 0, []
1627665983.2395, 120, 0, 4216.41, 4208.205, 4130.769, 4185.641, 4202.564, 450, 0, []
1627665983.2473, 121, 0, 4213.846, 4203.077, 4136.41, 4183.59, 4200.513, 450, 0, []
1627665983.2552, 122, 0, 4228.205, 4211.282, 4158.462, 4201.538, 4222.051, 450, 0, []
1627665983.2631, 123, 0, 4238.462, 4229.744, 4176.923, 4215.897, 4234.359, 16194, 0, []
1627665983.2711, 124, 0, 4255.897, 4255.385, 4205.641, 4237.949, 4250.256, 450, 0, []
1627665983.279, 125, 0, 4246.154, 4252.821, 4200, 4228.205, 4241.026, 450, 0, []
1627665983.287, 126, 0, 4197.949, 4216.41, 4141.026, 4167.692, 4187.692, 450, 0, []
1627665983.2948, 127, 0, 4183.59, 4205.641, 4116.923, 4144.103, 4168.205, 16194, 0, []
1627665983.3028, 128, 0, 4219.487, 4232.308, 4155.385, 4188.718, 4209.231, 450, 0, []
1627665983.3107, 0, 0, 4221.538, 4222.564, 4153.333, 4199.487, 4214.359, 450, 0, []
1627665983.3187, 1, 0, 4183.077, 4191.282, 4100.513, 4152.308, 4168.718, 450, 0, []
1627665983.3266, 2, 0, 4196.923, 4217.436, 4116.41, 4160, 4180.513, 16184, 0, []
1627665983.3343, 3, 0, 4263.077, 4268.718, 4196.41, 4235.385, 4252.308, 450, 0, []
1627665983.3422, 4, 0, 4278.462, 4263.59, 4206.154, 4255.385, 4265.641, 16155, 0, []
1627665983.35, 5, 0, 4246.154, 4232.821, 4156.923, 4216.923, 4228.205, 450, 0, []
1627665983.3579, 6, 0, 4211.282, 4218.974, 4118.974, 4176.923, 4196.41, 16180, 0, []
1627665983.3657, 7, 0, 4186.154, 4208.718, 4104.103, 4149.231, 4174.359, 450, 0, []
1627665983.3735, 8, 0, 4214.872, 4225.128, 4138.974, 4178.974, 4206.154, 450, 0, []
1627665983.3813, 9, 0, 4252.821, 4250.256, 4182.564, 4224.103, 4246.154, 16173, 0, []
1627665983.3892, 10, 0, 4220, 4234.359, 4158.974, 4192.821, 4213.333, 450, 0, []
1627665983.397, 11, 0, 4188.205, 4211.795, 4130.256, 4155.897, 4171.795, 16194, 0, []
1627665983.405, 12, 0, 4207.692, 4217.436, 4150.256, 4175.385, 4185.128, 450, 0, []
1627665983.4128, 13, 0, 4216.41, 4220.513, 4155.897, 4184.103, 4197.949, 450, 0, []
1627665983.4208, 14, 0, 4213.333, 4218.462, 4149.744, 4178.462, 4198.974, 450, 0, []
1627665983.4287, 15, 0, 4234.359, 4234.872, 4172.821, 4206.667, 4220.513, 16194, 0, []
1627665983.4367, 16, 0, 4231.795, 4242.051, 4175.385, 4214.359, 4219.487, 0, 0, []
1627665983.4446, 17, 0, 4190.256, 4221.026, 4135.897, 4168.718, 4175.897, 0, 0, []
1627665983.4525, 18, 0, 4191.795, 4215.385, 4127.692, 4158.462, 4168.718, 0, 0, []
1627665983.4604, 19, 0, 4237.436, 4234.872, 4161.026, 4200, 4212.308, 0, 0, []
1627665983.4684, 20, 0, 4237.949, 4237.949, 4160.513, 4200.513, 4217.949, 0, 0, []
1627665983.4763, 21, 0, 4197.436, 4216.41, 4130.256, 4160.513, 4179.487, 0, 0, []
1627665983.4841, 22, 0, 4201.026, 4214.359, 4136.923, 4169.231, 4184.103, 0, 0, []
1627665983.4919, 23, 0, 4245.641, 4236.41, 4175.897, 4215.385, 4222.564, 0, 0, []
1627665983.4997, 24, 0, 4236.41, 4225.641, 4170.256, 4205.128, 4205.128, 0, 0, []
1627665983.5076, 25, 0, 4172.308, 4184.103, 4118.462, 4143.077, 4144.615, 0, 0, []
1627665983.5154, 26, 0, 4167.179, 4183.59, 4117.436, 4136.923, 4145.641, 0, 0, []
1627665983.5233, 27, 0, 4237.949, 4228.205, 4183.077, 4204.103, 4212.821, 0, 0, []
1627665983.531, 28, 0, 4258.974, 4245.128, 4205.641, 4228.205, 4229.231, 0, 0, []
1627665983.5389, 29, 0, 4204.615, 4220.513, 4154.872, 4176.41, 4175.385, 0, 0, []
1627665983.5467, 30, 0, 4190.256, 4201.026, 4130.769, 4155.897, 4159.487, 0, 0, []
1627665983.5546, 31, 0, 4209.231, 4198.462, 4154.359, 4177.436, 4180.513, 0, 0, []
1627665983.5624, 32, 0, 4201.538, 4204.615, 4164.103, 4178.974, 4176.41, 0, 0, []
1627665983.5703, 33, 0, 4189.231, 4208.205, 4142.564, 4161.538, 4160, 0, 0, []
1627665983.5782, 34, 0, 4177.436, 4196.41, 4117.436, 4144.615, 4138.974, 0, 0, []
1627665983.5862, 35, 0, 4186.154, 4207.692, 4141.026, 4166.667, 4145.128, 0, 0, []
1627665983.5941, 36, 0, 4223.59, 4236.41, 4189.744, 4216.923, 4188.718, 0, 0, []
1627665983.6021, 37, 0, 4220.513, 4224.615, 4180, 4211.795, 4189.744, 0, 0, []
1627665983.6099, 38, 0, 4177.949, 4202.564, 4134.872, 4166.154, 4143.077, 0, 0, []
1627665983.6179, 39, 0, 4168.718, 4216.41, 4128.205, 4156.923, 4126.667, 0, 0, []
1627665983.6258, 40, 0, 4187.179, 4224.103, 4144.615, 4170.769, 4137.949, 0, 0, []
1627665983.6338, 41, 0, 4190.256, 4208.205, 4147.692, 4175.385, 4142.051, 0, 0, []
1627665983.6417, 42, 0, 4176.923, 4195.385, 4131.795, 4165.641, 4133.846, 0, 0, []
1627665983.6494, 43, 0, 4151.795, 4184.103, 4101.026, 4133.846, 4104.615, 0, 0, []
1627665983.6573, 44, 0, 4174.872, 4202.051, 4129.231, 4152.821, 4127.179, 0, 0, []
1627665983.6651, 45, 0, 4238.462, 4248.718, 4205.641, 4228.205, 4205.128, 0, 0, []
1627665983.673, 46, 0, 4226.154, 4244.103, 4195.385, 4218.462, 4196.41, 0, 0, []
1627665983.6808, 47, 0, 4180, 4204.615, 4145.128, 4163.59, 4138.462, 0, 0, []
1627665983.6886, 48, 0, 4197.949, 4209.231, 4163.59, 4185.641, 4156.41, 0, 0, []
1627665983.6964, 49, 0, 4212.308, 4225.128, 4181.026, 4208.718, 4176.41, 0, 0, []
1627665983.7044, 50, 0, 4167.179, 4199.487, 4135.385, 4164.103, 4126.154, 0, 0, []
1627665983.7123, 51, 0, 4137.949, 4173.333, 4102.051, 4132.308, 4096.41, 0, 0, []
1627665983.7203, 52, 0, 4169.744, 4188.205, 4125.641, 4162.051, 4134.872, 0, 0, []
1627665983.7281, 53, 0, 4195.385, 4213.333, 4150.769, 4191.282, 4162.564, 0, 0, []
1627665983.7361, 54, 0, 4194.359, 4218.462, 4162.051, 4200.513, 4161.538, 0, 0, []
1627665983.744, 55, 0, 4185.128, 4204.103, 4152.821, 4190.256, 4151.795, 0, 0, []
1627665983.752, 56, 0, 4168.718, 4190.769, 4117.949, 4151.795, 4129.231, 0, 0, []
1627665983.7599, 57, 0, 4191.795, 4214.359, 4137.436, 4164.615, 4146.667, 0, 0, []
1627665983.7678, 58, 0, 4240.513, 4246.154, 4203.077, 4227.692, 4200, 0, 0, []
1627665983.7757, 59, 0, 4235.385, 4241.538, 4204.103, 4237.949, 4198.974, 0, 0, []
1627665983.7835, 60, 0, 4202.564, 4222.564, 4161.538, 4203.59, 4159.487, 0, 0, []
1627665983.7914, 61, 0, 4218.462, 4221.538, 4173.333, 4212.308, 4171.795, 0, 0, []
1627665983.7992, 62, 0, 4216.923, 4206.154, 4174.359, 4212.821, 4175.897, 0, 0, []
1627665983.807, 63, 0, 4165.641, 4183.077, 4127.179, 4163.59, 4127.179, 0, 0, []
1627665983.8148, 64, 0, 4164.615, 4188.718, 4123.59, 4162.051, 4124.103, 450, 0, []
1627665983.8227, 65, 0, 4204.615, 4206.667, 4158.974, 4208.718, 4168.205, 450, 0, []
1627665983.8305, 66, 0, 4220, 4215.385, 4168.205, 4228.718, 4188.718, 16184, 0, []
1627665983.8384, 67, 0, 4213.333, 4211.795, 4152.308, 4214.359, 4181.538, 450, 0, []
1627665983.8461, 68, 0, 4219.487, 4210.256, 4149.744, 4217.436, 4182.564, 16155, 0, []
1627665983.8541, 69, 0, 4230.256, 4213.846, 4153.333, 4234.359, 4188.205, 450, 0, []
1627665983.862, 70, 0, 4223.077, 4211.795, 4149.744, 4225.641, 4184.615, 16161, 0, []
1627665983.87, 71, 0, 4204.615, 4195.385, 4136.41, 4205.128, 4171.282, 450, 0, []
1627665983.8779, 72, 0, 4189.744, 4184.103, 4120, 4192.821, 4152.308, 450, 0, []
1627665983.8858, 73, 0, 4201.538, 4206.154, 4137.436, 4203.59, 4158.974, 16173, 0, []
1627665983.8937, 74, 0, 4218.974, 4221.026, 4163.59, 4222.564, 4178.462, 450, 0, []
1627665983.9017, 75, 0, 4220.513, 4206.154, 4153.846, 4227.179, 4184.103, 16194, 0, []
1627665983.9096, 76, 0, 4218.462, 4202.051, 4140, 4236.923, 4191.795, 450, 0, []
1627665983.9176, 77, 0, 4187.179, 4199.487, 4122.051, 4229.744, 4173.333, 450, 0, []
1627665983.9255, 78, 0, 4147.179, 4174.359, 4093.846, 4198.462, 4126.667, 450, 0, []
1627665983.9333, 79, 0, 4171.282, 4185.641, 4112.308, 4214.872, 4140, 16194, 0, []
1627665983.9412, 80, 0, 4209.231, 4222.564, 4144.103, 4253.846, 4187.179, 450, 0, []
1627665983.949, 81, 0, 4201.538, 4222.564, 4137.436, 4255.897, 4193.333, 450, 0, []
1627665983.9569, 82, 0, 4207.179, 4218.462, 4147.692, 4258.974, 4197.949, 450, 0, []
1627665983.9647, 83, 0, 4234.872, 4235.385, 4177.436, 4274.872, 4223.59, 16194, 0, []
1627665983.9725, 84, 0, 4238.974, 4242.051, 4176.923, 4268.205, 4226.154, 450, 0, []
1627665983.9803, 85, 0, 4217.436, 4228.205, 4155.385, 4245.641, 4200, 450, 0, []
1627665983.9882, 86, 0, 4193.333, 4215.385, 4140, 4224.615, 4183.59, 450, 0, []
1627665983.996, 87, 0, 4189.231, 4210.256, 4141.026, 4213.846, 4187.692, 16194, 0, []
1627665984.0039, 88, 0, 4209.744, 4216.41, 4156.923, 4225.128, 4198.462, 450, 0, []
1627665984.0116, 89, 0, 4220, 4222.564, 4161.026, 4238.974, 4206.154, 450, 0, []
1627665984.0195, 90, 0, 4198.974, 4214.359, 4142.564, 4226.667, 4195.897, 450, 0, []
1627665984.0273, 91, 0, 4177.436, 4206.154, 4128.205, 4207.692, 4176.923, 16194, 0, []
1627665984.0353, 92, 0, 4218.974, 4240.513, 4169.231, 4251.282, 4217.949, 450, 0, []
1627665984.0432, 93, 0, 4282.564, 4284.103, 4226.667, 4321.538, 4290.256, 450, 0, []
1627665984.0511, 94, 0, 4256.41, 4256.41, 4194.872, 4283.077, 4263.59, 450, 0, []
1627665984.059, 95, 0, 4209.231, 4218.462, 4147.692, 4217.436, 4208.205, 16194, 0, []
1627665984.067, 96, 0, 4236.41, 4238.462, 4171.282, 4253.333, 4236.923, 450, 0, []
1627665984.0749, 97, 0, 4248.718, 4249.744, 4173.846, 4279.487, 4250.769, 450, 0, []
1627665984.0829, 98, 0, 4211.795, 4226.154, 4138.462, 4233.333, 4211.795, 450, 0, []
1627665984.0907, 99, 0, 4209.744, 4225.128, 4149.231, 4224.615, 4211.282, 16194, 0, []
1627665984.0986, 100, 0, 4231.282, 4243.59, 4171.282, 4255.385, 4233.333, 450, 0, []
1627665984.1065, 101, 0, 4241.026, 4249.744, 4165.128, 4264.103, 4239.487, 450, 0, []
1627665984.1143, 102, 0, 4244.103, 4243.59, 4160.513, 4259.487, 4241.538, 450, 0, []
1627665984.1222, 103, 0, 4223.59, 4226.667, 4143.59, 4242.564, 4222.051, 16194, 0, []
1627665984.1299, 104, 0, 4211.282, 4220.513, 4130.256, 4240.513, 4210.769, 450, 0, []
1627665984.1378, 105, 0, 4240.513, 4242.564, 4160.513, 4277.436, 4245.641, 450, 0, []
1627665984.1456, 106, 0, 4263.077, 4261.026, 4189.744, 4296.41, 4275.897, 450, 0, []
1627665984.1535, 107, 0, 4263.077, 4262.564, 4189.744, 4285.641, 4276.923, 16194, 0, []
1627665984.1613, 108, 0, 4274.359, 4261.538, 4196.41, 4290.769, 4282.051, 450, 0, []
1627665984.1692, 109, 0, 4268.205, 4258.974, 4193.333, 4283.59, 4271.282, 450, 0, []
1627665984.1771, 110, 0, 4230.769, 4245.641, 4164.103, 4246.667, 4236.923, 450, 0, []
1627665984.1851, 111, 0, 4218.974, 4241.538, 4150.769, 4240.513, 4225.641, 16194, 0, []
1627665984.193, 112, 0, 4232.821, 4248.205, 4154.359, 4263.59, 4232.308, 450, 0, []
1627665984.201, 113, 0, 4231.282, 4244.615, 4150.256, 4260, 4228.718, 450, 0, []
1627665984.2088, 114, 0, 4225.641, 4242.051, 4153.333, 4249.744, 4228.718, 450, 0, []
1627665984.2168, 115, 0, 4222.051, 4237.949, 4152.821, 4248.718, 4221.026, 16194, 0, []
1627665984.2247, 116, 0, 4202.564, 4215.385, 4132.821, 4229.744, 4193.846, 450, 0, []
1627665984.2327, 117, 0, 4216.41, 4221.538, 4148.718, 4237.436, 4210.769, 450, 0, []
1627665984.2406, 118, 0, 4269.744, 4268.205, 4196.41, 4290.769, 4268.718, 450, 0, []
1627665984.2485, 119, 0, 4258.462, 4260.513, 4178.462, 4290.769, 4258.462, 16194, 0, []
1627665984.2564, 120, 0, 4202.564, 4205.128, 4125.128, 4237.436, 4201.026, 450, 0, []
1627665984.2642, 121, 0, 4221.538, 4216.923, 4149.231, 4251.282, 4215.897, 450, 0, []
1627665984.2721, 122, 0, 4264.103, 4257.436, 4196.923, 4294.872, 4263.59, 450, 0, []
1627665984.2799, 123, 0, 4238.974, 4236.41, 4177.436, 4274.359, 4241.538, 16194, 0, []
1627665984.2877, 124, 0, 4213.333, 4211.282, 4147.692, 4247.692, 4208.718, 450, 0, []
1627665984.2955, 125, 0, 4231.282, 4226.154, 4160, 4265.128, 4225.128, 450, 0, []
1627665984.3034, 126, 0, 4229.231, 4224.103, 4160, 4265.641, 4228.718, 450, 0, []
1627665984.3112, 127, 0, 4197.949, 4197.949, 4132.821, 4234.359, 4194.872, 16194, 0, []
1627665984.3192, 128, 0, 4192.821, 4201.538, 4132.308, 4232.308, 4180.513, 450, 0, []
1627665984.327, 0, 0, 4234.872, 4235.897, 4163.59, 4266.154, 4212.308, 450, 0, []
1627665984.335, 1, 0, 4280, 4254.359, 4184.615, 4287.692, 4251.795, 450, 0, []
1627665984.3429, 2, 0, 4277.436, 4234.872, 4166.667, 4268.205, 4253.333, 16184, 0, []
1627665984.3509, 3, 0, 4256.923, 4213.333, 4141.026, 4246.667, 4239.487, 450, 0, []
1627665984.3588, 4, 0, 4275.385, 4223.077, 4158.462, 4272.308, 4258.974, 16155, 0, []
1627665984.3667, 5, 0, 4292.308, 4245.128, 4184.103, 4299.487, 4275.897, 450, 0, []
1627665984.3746, 6, 0, 4261.026, 4233.846, 4163.59, 4268.718, 4241.026, 16161, 0, []
1627665984.3826, 7, 0, 4245.641, 4214.872, 4151.282, 4244.103, 4221.026, 450, 0, []
1627665984.3905, 8, 0, 4261.538, 4216.923, 4170.256, 4260, 4240.513, 450, 0, []
1627665984.3985, 9, 0, 4241.026, 4210.256, 4155.385, 4240.513, 4223.077, 16175, 0, []
1627665984.4063, 10, 0, 4221.026, 4208.205, 4141.026, 4220.513, 4196.923, 450, 0, []
1627665984.4141, 11, 0, 4250.256, 4228.718, 4175.897, 4253.846, 4223.077, 16197, 0, []
1627665984.422, 12, 0, 4270.256, 4242.564, 4204.103, 4274.872, 4249.744, 450, 0, []
1627665984.4298, 13, 0, 4264.103, 4238.974, 4199.487, 4266.667, 4249.744, 450, 0, []
1627665984.4377, 14, 0, 4261.538, 4236.923, 4196.923, 4263.59, 4246.667, 450, 0, []
1627665984.4454, 15, 0, 4253.846, 4231.282, 4202.051, 4256.41, 4238.974, 16197, 0, []
1627665984.4533, 16, 0, 4248.718, 4227.692, 4201.538, 4245.641, 4230.769, 0, 0, []
1627665984.4611, 17, 0, 4251.795, 4229.744, 4190.256, 4241.026, 4224.103, 0, 0, []
1627665984.469, 18, 0, 4237.436, 4216.923, 4169.231, 4231.795, 4204.615, 0, 0, []
1627665984.4768, 19, 0, 4222.564, 4205.641, 4160.513, 4228.718, 4195.385, 0, 0, []
1627665984.4847, 20, 0, 4241.538, 4221.026, 4169.744, 4241.026, 4215.897, 0, 0, []
1627665984.4926, 21, 0, 4231.795, 4220.513, 4147.179, 4223.59, 4199.487, 0, 0, []
1627665984.5006, 22, 0, 4189.744, 4192.821, 4110.256, 4186.667, 4156.41, 0, 0, []
1627665984.5085, 23, 0, 4229.744, 4211.282, 4155.385, 4224.103, 4198.974, 0, 0, []
1627665984.5165, 24, 0, 4314.359, 4262.564, 4234.872, 4300, 4279.487, 0, 0, []
1627665984.5243, 25, 0, 4300.513, 4258.974, 4218.462, 4291.795, 4258.974, 0, 0, []
1627665984.5323, 26, 0, 4234.872, 4216.923, 4156.41, 4231.282, 4189.231, 0, 0, []
1627665984.5402, 27, 0, 4245.641, 4214.872, 4163.077, 4233.333, 4200, 0, 0, []
1627665984.5482, 28, 0, 4281.026, 4230.256, 4190.256, 4268.718, 4241.026, 0, 0, []
1627665984.5561, 29, 0, 4268.718, 4223.59, 4174.872, 4263.59, 4229.744, 0, 0, []
1627665984.5638, 30, 0, 4253.846, 4219.487, 4165.641, 4253.846, 4213.846, 0, 0, []
1627665984.5717, 31, 0, 4256.923, 4224.103, 4170.256, 4257.949, 4219.487, 0, 0, []
1627665984.5795, 32, 0, 4248.718, 4218.462, 4155.385, 4247.179, 4208.718, 0, 0, []
1627665984.5874, 33, 0, 4230.256, 4204.103, 4134.359, 4224.615, 4184.103, 0, 0, []
1627665984.5952, 34, 0, 4230.256, 4204.615, 4138.462, 4226.667, 4184.615, 0, 0, []
1627665984.603, 35, 0, 4228.205, 4204.615, 4144.615, 4230.769, 4185.128, 0, 0, []
1627665984.6108, 36, 0, 4225.641, 4203.59, 4141.026, 4226.154, 4179.487, 0, 0, []
1627665984.6187, 37, 0, 4248.718, 4215.385, 4160.513, 4248.205, 4207.179, 0, 0, []
1627665984.6265, 38, 0, 4258.462, 4217.436, 4174.359, 4266.154, 4223.59, 0, 0, []
1627665984.6345, 39, 0, 4238.462, 4206.667, 4151.795, 4247.179, 4195.897, 0, 0, []
1627665984.6423, 40, 0, 4219.487, 4197.436, 4128.718, 4218.974, 4172.821, 0, 0, []
1627665984.6503, 41, 0, 4223.077, 4202.051, 4135.385, 4218.462, 4183.59, 0, 0, []
1627665984.6582, 42, 0, 4244.103, 4217.436, 4155.897, 4242.564, 4204.615, 0, 0, []
1627665984.6662, 43, 0, 4250.769, 4217.949, 4155.897, 4249.231, 4201.026, 0, 0, []
1627665984.6741, 44, 0, 4227.692, 4198.974, 4138.974, 4226.154, 4184.615, 0, 0, []
1627665984.6821, 45, 0, 4228.205, 4201.026, 4140, 4226.667, 4197.949, 0, 0, []
1627665984.6899, 46, 0, 4254.872, 4223.077, 4157.949, 4254.359, 4226.154, 0, 0, []
1627665984.6979, 47, 0, 4241.538, 4221.026, 4152.308, 4245.641, 4212.308, 0, 0, []
1627665984.7058, 48, 0, 4226.154, 4215.897, 4147.179, 4241.538, 4205.128, 0, 0, []
1627665984.7138, 49, 0, 4226.667, 4218.974, 4161.026, 4273.333, 4225.641, 0, 0, []
1627665984.7217, 50, 0, 4173.846, 4195.897, 4139.487, 4260.513, 4186.667, 0, 0, []
1627665984.7294, 51, 0, 4120, 4172.821, 4108.718, 4225.128, 4126.154, 0, 0, []
1627665984.7373, 52, 0, 4160.513, 4207.692, 4148.718, 4261.538, 4154.872, 0, 0, []
1627665984.7451, 53, 0, 4226.154, 4254.872, 4210.769, 4332.308, 4224.615, 0, 0, []
1627665984.753, 54, 0, 4216.41, 4239.487, 4198.974, 4332.821, 4221.538, 0, 0, []
1627665984.7608, 55, 0, 4183.59, 4206.154, 4166.154, 4292.821, 4184.103, 0, 0, []
1627665984.7686, 56, 0, 4185.641, 4215.385, 4166.667, 4283.59, 4183.077, 0, 0, []
1627665984.7764, 57, 0, 4176.923, 4223.077, 4149.744, 4268.718, 4174.359, 0, 0, []
1627665984.7844, 58, 0, 4160, 4208.205, 4132.308, 4248.205, 4155.897, 0, 0, []
1627665984.7923, 59, 0, 4193.333, 4216.923, 4164.615, 4282.564, 4189.744, 0, 0, []
1627665984.8003, 60, 0, 4204.615, 4221.026, 4169.231, 4299.487, 4202.564, 0, 0, []
1627665984.8081, 61, 0, 4146.667, 4190.769, 4123.077, 4245.128, 4140, 0, 0, []
1627665984.8161, 62, 0, 4159.487, 4206.667, 4157.949, 4260, 4148.718, 0, 0, []
1627665984.824, 63, 0, 4232.308, 4256.41, 4233.846, 4341.538, 4226.154, 0, 0, []
1627665984.832, 64, 0, 4218.462, 4243.077, 4211.795, 4328.205, 4215.897, 450, 0, []
1627665984.8399, 65, 0, 4178.974, 4207.179, 4163.59, 4282.564, 4170.769, 450, 0, []
1627665984.8478, 66, 0, 4197.949, 4215.897, 4174.359, 4309.231, 4181.538, 16185, 0, []
1627665984.8557, 67, 0, 4203.59, 4221.538, 4174.872, 4329.231, 4182.564, 450, 0, []
1627665984.8635, 68, 0, 4177.436, 4202.051, 4145.128, 4303.59, 4156.923, 16152, 0, []
1627665984.8714, 69, 0, 4177.436, 4199.487, 4144.615, 4297.949, 4159.487, 450, 0, []
1627665984.8792, 70, 0, 4191.795, 4206.154, 4164.615, 4314.872, 4171.795, 16155, 0, []
1627665984.887, 71, 0, 4195.385, 4201.538, 4165.641, 4317.436, 4170.256, 450, 0, []
1627665984.8948, 72, 0, 4198.462, 4206.667, 4154.872, 4313.846, 4171.795, 450, 0, []
1627665984.9027, 73, 0, 4196.923, 4215.385, 4148.718, 4309.231, 4173.846, 16175, 0, []
1627665984.9105, 74, 0, 4184.103, 4206.154, 4144.615, 4295.385, 4164.615, 450, 0, []
1627665984.9184, 75, 0, 4185.128, 4207.692, 4152.821, 4293.846, 4168.718, 16197, 0, []
1627665984.9261, 76, 0, 4205.128, 4229.231, 4166.154, 4304.615, 4189.744, 450, 0, []
1627665984.934, 77, 0, 4205.128, 4219.487, 4158.974, 4286.154, 4182.564, 450, 0, []
1627665984.9418, 78, 0, 4198.974, 4194.872, 4149.744, 4264.103, 4170.769, 450, 0, []
1627665984.9498, 79, 0, 4226.667, 4211.282, 4171.795, 4286.667, 4197.436, 16197, 0, []
1627665984.9577, 80, 0, 4239.487, 4232.821, 4177.949, 4295.897, 4211.282, 450, 0, []
1627665984.9656, 81, 0, 4207.179, 4215.385, 4147.692, 4263.077, 4180.513, 450, 0, []
1627665984.9735, 82, 0, 4187.692, 4198.462, 4132.821, 4243.077, 4162.564, 450, 0, []
1627665984.9815, 83, 0, 4176.41, 4198.974, 4129.744, 4232.821, 4152.308, 16197, 0, []
1627665984.9894, 84, 0, 4150.256, 4188.205, 4108.718, 4211.282, 4123.077, 450, 0, []
1627665984.9974, 85, 0, 4172.308, 4190.256, 4118.974, 4214.872, 4138.974, 450, 0, []
1627665985.0052, 86, 0, 4229.231, 4218.974, 4164.103, 4242.564, 4186.667, 450, 0, []
1627665985.0132, 87, 0, 4220, 4222.564, 4158.974, 4233.846, 4173.333, 16197, 0, []
1627665985.0211, 88, 0, 4190.256, 4209.744, 4130.769, 4213.846, 4144.615, 450, 0, []
1627665985.0289, 89, 0, 4213.846, 4224.103, 4150.256, 4231.282, 4177.436, 450, 0, []
1627665985.0368, 90, 0, 4210.769, 4227.179, 4152.308, 4224.615, 4181.538, 450, 0, []
1627665985.0445, 91, 0, 4158.974, 4191.282, 4103.077, 4170.769, 4129.744, 16197, 0, []
1627665985.0524, 92, 0, 4165.128, 4177.436, 4101.538, 4167.179, 4136.923, 450, 0, []
1627665985.0602, 93, 0, 4223.59, 4214.872, 4165.641, 4231.795, 4202.564, 450, 0, []
1627665985.0681, 94, 0, 4238.462, 4246.667, 4192.308, 4257.436, 4223.077, 450, 0, []
1627665985.0759, 95, 0, 4217.949, 4236.41, 4171.282, 4231.282, 4200, 16197, 0, []
1627665985.0837, 96, 0, 4218.462, 4228.205, 4171.282, 4229.231, 4198.462, 450, 0, []
1627665985.0915, 97, 0, 4225.641, 4238.974, 4178.462, 4240.513, 4209.744, 450, 0, []
1627665985.0995, 98, 0, 4218.974, 4237.949, 4157.436, 4224.103, 4201.538, 450, 0, []
1627665985.1074, 99, 0, 4204.103, 4226.154, 4138.462, 4197.436, 4183.59, 16197, 0, []
1627665985.1154, 100, 0, 4187.692, 4218.974, 4140, 4186.667, 4171.795, 450, 0, []
1627665985.1232, 101, 0, 4186.154, 4217.949, 4144.103, 4189.231, 4167.692, 450, 0, []
1627665985.1312, 102, 0, 4198.462, 4220.513, 4151.282, 4197.949, 4170.769, 450, 0, []
1627665985.1391, 103, 0, 4193.846, 4208.205, 4138.462, 4193.333, 4166.667, 16197, 0, []
1627665985.1471, 104, 0, 4169.744, 4188.205, 4100, 4166.667, 4143.59, 450, 0, []
1627665985.155, 105, 0, 4184.103, 4206.154, 4106.154, 4168.205, 4147.692, 450, 0, []
1627665985.1629, 106, 0, 4212.308, 4228.718, 4147.179, 4189.231, 4175.385, 450, 0, []
1627665985.1708, 107, 0, 4197.949, 4211.282, 4143.077, 4175.385, 4168.205, 16197, 0, []
1627665985.1786, 108, 0, 4191.282, 4217.436, 4132.308, 4172.821, 4162.051, 450, 0, []
1627665985.1865, 109, 0, 4231.282, 4256.923, 4170.256, 4215.897, 4203.59, 450, 0, []
1627665985.1943, 110, 0, 4258.974, 4260.513, 4197.949, 4235.897, 4234.359, 450, 0, []
1627665985.2021, 111, 0, 4240.513, 4246.667, 4178.974, 4211.795, 4214.872, 16197, 0, []
1627665985.2099, 112, 0, 4218.974, 4251.282, 4161.538, 4199.487, 4191.795, 450, 0, []
1627665985.2178, 113, 0, 4203.077, 4234.872, 4151.282, 4189.744, 4181.026, 450, 0, []
1627665985.2256, 114, 0, 4175.897, 4207.692, 4122.564, 4163.59, 4159.487, 450, 0, []
1627665985.2335, 115, 0, 4168.205, 4212.821, 4109.231, 4157.949, 4151.795, 16197, 0, []
1627665985.2412, 116, 0, 4185.641, 4221.026, 4126.667, 4175.897, 4166.667, 450, 0, []
1627665985.2492, 117, 0, 4200.513, 4213.846, 4136.923, 4185.641, 4178.462, 450, 0, []
1627665985.2571, 118, 0, 4210.769, 4220, 4144.615, 4183.59, 4186.154, 450, 0, []
1627665985.2651, 119, 0, 4231.795, 4237.436, 4165.641, 4189.231, 4202.051, 16197, 0, []
1627665985.273, 120, 0, 4241.026, 4237.436, 4167.692, 4192.308, 4206.667, 450, 0, []
1627665985.2809, 121, 0, 4233.846, 4229.231, 4156.923, 4184.615, 4202.051, 450, 0, []
1627665985.2888, 122, 0, 4240.513, 4240.513, 4167.179, 4190.256, 4212.821, 450, 0, []
1627665985.2968, 123, 0, 4247.692, 4252.308, 4176.923, 4206.154, 4220.513, 16197, 0, []
1627665985.3047, 124, 0, 4231.282, 4244.103, 4170.256, 4204.615, 4205.128, 450, 0, []
1627665985.3127, 125, 0, 4206.667, 4224.615, 4154.872, 4183.077, 4179.487, 450, 0, []
1627665985.3205, 126, 0, 4191.282, 4213.846, 4135.385, 4163.077, 4162.051, 450, 0, []
1627665985.3285, 127, 0, 4196.923, 4225.128, 4135.385, 4164.615, 4166.154, 16197, 0, []
1627665985.3364, 128, 0, 4205.641, 4238.462, 4156.923, 4172.821, 4172.821, 450, 0, []
1627665985.3442, 0, 0, 4189.744, 4222.564, 4147.179, 4155.385, 4154.359, 450, 0, []
1627665985.3521, 1, 0, 4171.795, 4203.59, 4120, 4137.949, 4142.051, 450, 0, []
1627665985.3598, 2, 0, 4196.41, 4225.641, 4146.667, 4174.872, 4173.846, 16185, 0, []
1627665985.3677, 3, 0, 4230.256, 4252.821, 4186.154, 4216.923, 4207.692, 450, 0, []
1627665985.3755, 4, 0, 4227.179, 4249.744, 4177.436, 4204.615, 4207.692, 16152, 0, []
1627665985.3834, 5, 0, 4210.256, 4238.462, 4159.487, 4178.974, 4196.41, 450, 0, []
1627665985.3912, 6, 0, 4218.462, 4240.513, 4175.897, 4188.205, 4203.59, 16155, 0, []
1627665985.399, 7, 0, 4225.128, 4242.051, 4185.128, 4193.846, 4209.231, 450, 0, []
1627665985.4068, 8, 0, 4198.974, 4224.103, 4155.385, 4160, 4181.026, 450, 0, []
1627665985.4148, 9, 0, 4177.949, 4210.256, 4138.462, 4141.538, 4155.897, 16175, 0, []
1627665985.4227, 10, 0, 4182.051, 4216.923, 4149.744, 4160, 4158.462, 450, 0, []
1627665985.4307, 11, 0, 4184.615, 4221.026, 4150.769, 4169.231, 4160, 16197, 0, []
1627665985.4386, 12, 0, 4162.564, 4199.487, 4127.692, 4141.026, 4140, 450, 0, []
1627665985.4465, 13, 0, 4137.949, 4175.897, 4111.795, 4116.41, 4122.051, 450, 0, []
1627665985.4544, 14, 0, 4163.077, 4194.872, 4131.795, 4137.949, 4147.179, 450, 0, []
1627665985.4624, 15, 0, 4210.256, 4229.744, 4164.103, 4166.667, 4189.744, 16197, 0, []
1627665985.4703, 16, 0, 4207.692, 4226.154, 4167.179, 4156.923, 4187.179, 0, 0, []
1627665985.4783, 17, 0, 4187.179, 4211.795, 4154.872, 4144.103, 4163.59, 0, 0, []
1627665985.4861, 18, 0, 4197.949, 4223.077, 4160.513, 4158.462, 4168.205, 0, 0, []
1627665985.4939, 19, 0, 4187.179, 4216.923, 4152.821, 4153.846, 4159.487, 0, 0, []
1627665985.5018, 20, 0, 4175.385, 4212.308, 4147.692, 4150.769, 4152.308, 0, 0, []
1627665985.5096, 21, 0, 4222.051, 4249.744, 4188.718, 4194.872, 4201.538, 0, 0, []
1627665985.5175, 22, 0, 4244.103, 4254.359, 4205.128, 4210.256, 4230.256, 0, 0, []
1627665985.5252, 23, 0, 4205.128, 4219.487, 4164.103, 4162.051, 4191.282, 0, 0, []
1627665985.5331, 24, 0, 4181.538, 4207.179, 4134.872, 4126.154, 4158.462, 0, 0, []
1627665985.5409, 25, 0, 4173.333, 4200.513, 4130.256, 4124.615, 4150.256, 0, 0, []
1627665985.5488, 26, 0, 4170.256, 4193.333, 4136.41, 4137.949, 4156.923, 0, 0, []
1627665985.5566, 27, 0, 4196.923, 4217.949, 4165.128, 4166.154, 4183.077, 0, 0, []
1627665985.5645, 28, 0, 4201.026, 4224.615, 4162.564, 4164.615, 4180, 0, 0, []
1627665985.5724, 29, 0, 4167.179, 4197.436, 4121.538, 4123.077, 4142.564, 0, 0, []
1627665985.5804, 30, 0, 4173.846, 4203.077, 4126.667, 4113.333, 4143.59, 0, 0, []
1627665985.5883, 31, 0, 4208.718, 4228.205, 4162.564, 4145.128, 4178.462, 0, 0, []
1627665985.5963, 32, 0, 4193.333, 4214.872, 4141.538, 4146.154, 4171.282, 0, 0, []
1627665985.6041, 33, 0, 4153.846, 4189.744, 4103.59, 4125.641, 4137.436, 0, 0, []
1627665985.6121, 34, 0, 4175.385, 4212.308, 4129.231, 4155.897, 4155.897, 0, 0, []
1627665985.62, 35, 0, 4240.513, 4261.026, 4178.462, 4217.949, 4218.462, 0, 0, []
1627665985.628, 36, 0, 4257.949, 4264.103, 4182.051, 4233.333, 4239.487, 0, 0, []
1627665985.6359, 37, 0, 4217.436, 4231.795, 4155.897, 4193.333, 4202.051, 0, 0, []
1627665985.6436, 38, 0, 4205.641, 4229.231, 4161.026, 4173.846, 4184.615, 0, 0, []
1627665985.6515, 39, 0, 4233.846, 4240, 4186.154, 4195.897, 4205.641, 0, 0, []
1627665985.6593, 40, 0, 4230.769, 4216.41, 4173.333, 4200, 4201.538, 0, 0, []
1627665985.6672, 41, 0, 4209.231, 4207.692, 4147.179, 4188.718, 4178.462, 0, 0, []
1627665985.675, 42, 0, 4222.051, 4237.436, 4163.077, 4209.231, 4188.718, 0, 0, []
1627665985.6828, 43, 0, 4242.564, 4248.718, 4186.154, 4234.359, 4213.846, 0, 0, []
1627665985.6906, 44, 0, 4231.795, 4229.744, 4162.564, 4220, 4203.077, 0, 0, []
1627665985.6985, 45, 0, 4209.231, 4214.359, 4132.308, 4193.846, 4173.333, 0, 0, []
1627665985.7063, 46, 0, 4204.103, 4212.821, 4133.846, 4188.718, 4166.154, 0, 0, []
1627665985.7143, 47, 0, 4199.487, 4215.385, 4131.795, 4184.615, 4168.205, 0, 0, []
1627665985.7221, 48, 0, 4175.897, 4202.564, 4109.231, 4166.154, 4147.179, 0, 0, []
1627665985.7301, 49, 0, 4163.59, 4190.769, 4114.872, 4162.051, 4129.231, 0, 0, []
1627665985.738, 50, 0, 4201.026, 4219.487, 4167.692, 4204.103, 4163.077, 0, 0, []
1627665985.746, 51, 0, 4254.359, 4251.795, 4202.564, 4258.462, 4224.103, 0, 0, []
1627665985.7539, 52, 0, 4254.359, 4236.41, 4175.897, 4257.949, 4235.385, 0, 0, []
1627665985.7618, 53, 0, 4212.308, 4208.205, 4133.846, 4212.308, 4196.41, 0, 0, []
1627665985.7697, 54, 0, 4197.949, 4210.256, 4133.846, 4193.846, 4180, 0, 0, []
1627665985.7777, 55, 0, 4222.051, 4225.128, 4166.154, 4226.154, 4205.641, 0, 0, []
1627665985.7856, 56, 0, 4236.41, 4225.128, 4180, 4254.359, 4224.103, 0, 0, []
1627665985.7936, 57, 0, 4228.718, 4216.41, 4171.282, 4253.333, 4220.513, 0, 0, []
1627665985.8014, 58, 0, 4213.846, 4211.282, 4163.077, 4243.077, 4208.718, 0, 0, []
1627665985.8092, 59, 0, 4195.897, 4208.718, 4154.359, 4228.718, 4190.256, 0, 0, []
1627665985.8171, 60, 0, 4200.513, 4217.949, 4154.359, 4229.744, 4190.256, 0, 0, []
1627665985.8249, 61, 0, 4209.744, 4221.026, 4154.359, 4232.308, 4197.949, 0, 0, []
1627665985.8328, 62, 0, 4186.667, 4190.256, 4138.974, 4203.59, 4176.41, 0, 0, []
1627665985.8405, 63, 0, 4186.154, 4185.128, 4154.359, 4202.051, 4176.41, 0, 0, []
1627665985.8484, 64, 0, 4241.026, 4234.872, 4204.103, 4260.513, 4226.667, 450, 0, []
1627665985.8562, 65, 0, 4261.538, 4254.359, 4217.436, 4285.641, 4244.615, 450, 0, []
1627665985.8641, 66, 0, 4234.872, 4228.718, 4195.385, 4253.846, 4214.872, 16185, 0, []
1627665985.8719, 67, 0, 4234.872, 4224.615, 4195.897, 4243.59, 4211.795, 450, 0, []
1627665985.8798, 68, 0, 4257.436, 4238.974, 4216.923, 4255.897, 4237.949, 16152, 0, []
1627665985.8877, 69, 0, 4257.949, 4236.41, 4214.872, 4247.179, 4244.103, 450, 0, []
1627665985.8957, 70, 0, 4231.282, 4217.436, 4170.769, 4209.231, 4215.897, 16155, 0, []
1627665985.9036, 71, 0, 4198.462, 4200.513, 4130.769, 4171.795, 4181.026, 450, 0, []
1627665985.9116, 72, 0, 4211.282, 4212.821, 4156.41, 4188.205, 4190.769, 450, 0, []
1627665985.9194, 73, 0, 4241.538, 4229.744, 4181.026, 4218.462, 4215.385, 16175, 0, []
1627665985.9274, 74, 0, 4213.846, 4201.538, 4136.41, 4178.462, 4190.256, 450, 0, []
1627665985.9353, 75, 0, 4197.949, 4183.59, 4118.462, 4146.154, 4182.051, 16198, 0, []
1627665985.9433, 76, 0, 4251.795, 4219.487, 4169.744, 4195.385, 4237.436, 450, 0, []
1627665985.9512, 77, 0, 4264.615, 4238.974, 4181.026, 4217.436, 4253.333, 450, 0, []
1627665985.9589, 78, 0, 4218.462, 4216.923, 4143.077, 4175.897, 4207.692, 450, 0, []
1627665985.9668, 79, 0, 4216.41, 4210.256, 4145.641, 4177.949, 4200.513, 16198, 0, []
1627665985.9746, 80, 0, 4237.949, 4218.462, 4162.051, 4203.077, 4219.487, 450, 0, []
1627665985.9825, 81, 0, 4228.718, 4215.385, 4154.359, 4191.282, 4212.308, 450, 0, []
1627665985.9903, 82, 0, 4224.103, 4215.897, 4154.872, 4186.154, 4207.179, 450, 0, []
1627665985.9981, 83, 0, 4231.282, 4220.513, 4163.077, 4195.897, 4213.333, 16198, 0, []
1627665986.0059, 84, 0, 4231.795, 4216.923, 4169.231, 4195.897, 4206.154, 450, 0, []
1627665986.0138, 85, 0, 4230.769, 4213.333, 4169.744, 4198.462, 4196.923, 450, 0, []
1627665986.0216, 86, 0, 4228.718, 4212.821, 4154.359, 4203.077, 4201.538, 450, 0, []
1627665986.0296, 87, 0, 4231.282, 4215.385, 4147.692, 4204.615, 4216.41, 16198, 0, []
1627665986.0374, 88, 0, 4234.359, 4214.359, 4156.41, 4207.692, 4224.103, 450, 0, []
1627665986.0454, 89, 0, 4214.359, 4198.974, 4140, 4185.128, 4203.077, 450, 0, []
1627665986.0533, 90, 0, 4213.333, 4195.897, 4138.462, 4164.103, 4195.385, 450, 0, []
1627665986.0613, 91, 0, 4258.462, 4223.59, 4178.462, 4198.974, 4231.282, 16198, 0, []
1627665986.0692, 92, 0, 4274.359, 4238.462, 4187.179, 4228.205, 4244.103, 450, 0, []
1627665986.0771, 93, 0, 4243.077, 4223.077, 4159.487, 4204.615, 4214.872, 450, 0, []
1627665986.085, 94, 0, 4228.718, 4213.333, 4152.308, 4185.641, 4205.641, 450, 0, []
1627665986.093, 95, 0, 4225.128, 4215.897, 4150.256, 4181.538, 4206.667, 16198, 0, []
1627665986.1009, 96, 0, 4212.821, 4208.718, 4134.872, 4163.59, 4187.179, 450, 0, []
1627665986.1089, 97, 0, 4216.41, 4202.564, 4139.487, 4156.41, 4184.103, 450, 0, []
1627665986.1167, 98, 0, 4231.795, 4215.385, 4164.103, 4168.718, 4200.513, 450, 0, []
1627665986.1245, 99, 0, 4238.462, 4229.744, 4176.41, 4175.385, 4206.667, 16198, 0, []
1627665986.1324, 100, 0, 4230.769, 4222.564, 4158.974, 4166.667, 4195.897, 450, 0, []
1627665986.1402, 101, 0, 4228.718, 4211.795, 4140, 4163.077, 4194.359, 450, 0, []
1627665986.1481, 102, 0, 4254.872, 4224.103, 4154.872, 4188.205, 4223.077, 450, 0, []
1627665986.1558, 103, 0, 4277.949, 4240.513, 4178.462, 4210.769, 4247.692, 16198, 0, []
1627665986.1637, 104, 0, 4255.897, 4233.846, 4173.333, 4188.718, 4223.077, 450, 0, []
1627665986.1715, 105, 0, 4233.846, 4223.59, 4163.077, 4156.41, 4198.462, 450, 0, []
1627665986.1794, 106, 0, 4232.821, 4226.667, 4167.179, 4160, 4209.744, 450, 0, []
1627665986.1872, 107, 0, 4197.949, 4217.436, 4150.256, 4154.359, 4186.154, 16198, 0, []
1627665986.1952, 108, 0, 4161.538, 4201.538, 4129.744, 4136.923, 4143.077, 450, 0, []
1627665986.203, 109, 0, 4195.385, 4223.077, 4162.051, 4172.308, 4170.769, 450, 0, []
1627665986.211, 110, 0, 4242.564, 4258.974, 4206.154, 4226.154, 4229.744, 450, 0, []
1627665986.2189, 111, 0, 4214.872, 4243.59, 4183.59, 4205.641, 4213.846, 16198, 0, []
1627665986.2269, 112, 0, 4164.615, 4215.897, 4138.974, 4145.128, 4156.923, 450, 0, []
1627665986.2348, 113, 0, 4162.564, 4222.564, 4141.026, 4133.333, 4147.179, 450, 0, []
1627665986.2427, 114, 0, 4187.692, 4232.821, 4164.103, 4157.949, 4171.795, 450, 0, []
1627665986.2506, 115, 0, 4217.436, 4240, 4186.667, 4189.231, 4199.487, 16198, 0, []
1627665986.2586, 116, 0, 4235.385, 4246.154, 4202.051, 4216.41, 4218.974, 450, 0, []
1627665986.2665, 117, 0, 4217.436, 4235.385, 4180.513, 4208.205, 4208.205, 450, 0, []
1627665986.2743, 118, 0, 4184.615, 4210.769, 4141.538, 4174.359, 4172.308, 450, 0, []
1627665986.2821, 119, 0, 4176.923, 4200, 4138.462, 4152.308, 4156.923, 16198, 0, []
1627665986.2899, 120, 0, 4200, 4215.897, 4173.846, 4158.974, 4181.026, 450, 0, []
1627665986.2978, 121, 0, 4238.462, 4248.205, 4207.179, 4188.205, 4216.41, 450, 0, []
1627665986.3056, 122, 0, 4254.359, 4262.564, 4216.923, 4209.231, 4230.256, 450, 0, []
1627665986.3135, 123, 0, 4223.077, 4235.897, 4194.359, 4197.949, 4207.179, 16198, 0, []
1627665986.3212, 124, 0, 4195.385, 4215.385, 4157.436, 4173.846, 4174.359, 450, 0, []
1627665986.3291, 125, 0, 4202.051, 4226.667, 4160, 4174.359, 4174.359, 450, 0, []
1627665986.3369, 126, 0, 4185.641, 4229.231, 4174.872, 4177.436, 4169.231, 450, 0, []
1627665986.3449, 127, 0, 4145.641, 4208.205, 4140, 4136.923, 4127.692, 16198, 0, []
1627665986.3528, 128, 0, 4172.821, 4218.974, 4131.282, 4118.974, 4130.769, 450, 0, []
1627665986.3607, 0, 0, 4238.462, 4248.718, 4180.513, 4160.513, 4188.205, 450, 0, []
1627665986.3686, 1, 0, 4232.308, 4237.436, 4173.846, 4167.179, 4189.744, 450, 0, []
1627665986.3766, 2, 0, 4192.821, 4212.821, 4123.59, 4123.59, 4148.718, 16185, 0, []
1627665986.3845, 3, 0, 4192.308, 4213.846, 4131.282, 4121.026, 4146.667, 450, 0, []
1627665986.3925, 4, 0, 4206.667, 4226.667, 4164.615, 4154.359, 4165.128, 16152, 0, []
1627665986.4003, 5, 0, 4222.564, 4243.077, 4180.513, 4172.821, 4178.462, 450, 0, []
1627665986.4083, 6, 0, 4232.308, 4249.744, 4186.154, 4176.923, 4190.769, 16154, 0, []
1627665986.4162, 7, 0, 4216.923, 4229.231, 4169.231, 4161.026, 4185.641, 450, 0, []
1627665986.424, 8, 0, 4211.282, 4216.923, 4156.923, 4145.128, 4178.462, 450, 0, []
1627665986.4319, 9, 0, 4235.385, 4238.974, 4177.949, 4158.974, 4193.333, 16175, 0, []
1627665986.4396, 10, 0, 4227.692, 4235.897, 4176.41, 4162.564, 4191.282, 450, 0, []
1627665986.4475, 11, 0, 4185.128, 4201.026, 4137.436, 4133.333, 4153.846, 16198, 0, []
1627665986.4553, 12, 0, 4185.641, 4204.615, 4137.949, 4127.692, 4146.154, 450, 0, []
1627665986.4632, 13, 0, 4232.821, 4245.641, 4188.718, 4166.667, 4196.41, 450, 0, []
1627665986.471, 14, 0, 4242.051, 4252.821, 4202.564, 4177.436, 4217.949, 450, 0, []
1627665986.4788, 15, 0, 4182.564, 4213.333, 4146.154, 4126.154, 4157.436, 16198, 0, []
1627665986.4866, 16, 0, 4153.846, 4196.923, 4120, 4102.564, 4122.051, 0, 0, []
1627665986.4946, 17, 0, 4208.718, 4233.846, 4175.385, 4161.026, 4180, 0, 0, []
1627665986.5025, 18, 0, 4250.769, 4262.564, 4213.333, 4208.718, 4225.641, 0, 0, []
1627665986.5105, 19, 0, 4210.256, 4226.154, 4170.256, 4168.205, 4180.513, 0, 0, []
1627665986.5183, 20, 0, 4170.769, 4189.231, 4129.744, 4119.487, 4133.846, 0, 0, []
1627665986.5263, 21, 0, 4193.333, 4216.923, 4154.872, 4138.974, 4155.897, 0, 0, []
1627665986.5342, 22, 0, 4212.821, 4239.487, 4180, 4164.103, 4180, 0, 0, []
1627665986.5422, 23, 0, 4205.641, 4218.462, 4169.231, 4153.333, 4170.769, 0, 0, []
1627665986.5501, 24, 0, 4205.128, 4213.333, 4164.615, 4151.795, 4170.769, 0, 0, []
1627665986.558, 25, 0, 4218.462, 4234.872, 4185.128, 4178.462, 4198.462, 0, 0, []
1627665986.5659, 26, 0, 4228.718, 4238.462, 4193.333, 4193.846, 4210.769, 0, 0, []
1627665986.5739, 27, 0, 4202.051, 4207.179, 4155.897, 4160.513, 4174.359, 0, 0, []
1627665986.5818, 28, 0, 4170.769, 4190.769, 4124.103, 4123.59, 4142.051, 0, 0, []
1627665986.5896, 29, 0, 4192.308, 4216.41, 4144.615, 4140, 4167.179, 0, 0, []
1627665986.5974, 30, 0, 4227.179, 4236.923, 4174.872, 4173.333, 4203.077, 0, 0, []
1627665986.6052, 31, 0, 4226.154, 4236.923, 4179.487, 4182.564, 4204.103, 0, 0, []
1627665986.6131, 32, 0, 4225.641, 4245.641, 4176.41, 4182.051, 4200.513, 0, 0, []
1627665986.6209, 33, 0, 4235.897, 4241.538, 4174.872, 4172.308, 4199.487, 0, 0, []
1627665986.6288, 34, 0, 4216.923, 4217.436, 4168.205, 4155.385, 4185.128, 0, 0, []
1627665986.6365, 35, 0, 4202.564, 4225.128, 4168.205, 4163.59, 4178.462, 0, 0, []
1627665986.6444, 36, 0, 4227.179, 4245.128, 4180, 4185.128, 4192.821, 0, 0, []
1627665986.6522, 37, 0, 4252.821, 4240, 4178.974, 4183.077, 4204.615, 0, 0, []
1627665986.6602, 38, 0, 4256.41, 4227.692, 4162.564, 4171.795, 4204.615, 0, 0, []
1627665986.6681, 39, 0, 4250.256, 4211.795, 4148.718, 4160, 4202.051, 0, 0, []
1627665986.676, 40, 0, 4248.718, 4201.538, 4156.923, 4152.308, 4201.538, 0, 0, []
1627665986.6839, 41, 0, 4251.795, 4212.308, 4176.923, 4157.949, 4201.026, 0, 0, []
1627665986.6919, 42, 0, 4260, 4229.744, 4182.564, 4167.692, 4200, 0, 0, []
1627665986.6998, 43, 0, 4260.513, 4231.795, 4174.872, 4172.308, 4200.513, 0, 0, []
1627665986.7078, 44, 0, 4253.846, 4225.641, 4172.308, 4169.744, 4199.487, 0, 0, []
1627665986.7156, 45, 0, 4245.641, 4211.795, 4170.256, 4156.41, 4186.667, 0, 0, []
1627665986.7236, 46, 0, 4236.41, 4204.615, 4162.564, 4146.154, 4180, 0, 0, []
1627665986.7315, 47, 0, 4257.949, 4223.077, 4184.103, 4175.897, 4209.744, 0, 0, []
1627665986.7393, 48, 0, 4288.205, 4242.051, 4218.462, 4213.846, 4241.538, 0, 0, []
1627665986.7472, 49, 0, 4271.282, 4233.846, 4204.103, 4202.051, 4223.077, 0, 0, []
1627665986.7549, 50, 0, 4235.897, 4206.154, 4164.103, 4167.692, 4185.641, 0, 0, []
1627665986.7628, 51, 0, 4246.667, 4208.718, 4166.667, 4173.333, 4192.308, 0, 0, []
1627665986.7706, 52, 0, 4277.949, 4238.974, 4201.026, 4212.308, 4227.179, 0, 0, []
1627665986.7785, 53, 0, 4281.026, 4249.744, 4215.385, 4228.205, 4237.949, 0, 0, []
1627665986.7863, 54, 0, 4261.538, 4230.769, 4191.795, 4198.974, 4212.308, 0, 0, []
1627665986.7941, 55, 0, 4243.59, 4217.949, 4161.026, 4168.718, 4187.692, 0, 0, []
1627665986.8019, 56, 0, 4237.436, 4216.923, 4154.359, 4169.744, 4187.179, 0, 0, []
1627665986.8099, 57, 0, 4229.744, 4214.359, 4154.359, 4174.359, 4182.564, 0, 0, []
1627665986.8178, 58, 0, 4230.256, 4222.051, 4144.615, 4166.154, 4180.513, 0, 0, []
1627665986.8258, 59, 0, 4242.564, 4230.256, 4147.179, 4163.077, 4195.385, 0, 0, []
1627665986.8336, 60, 0, 4251.795, 4229.744, 4165.641, 4171.282, 4209.231, 0, 0, []
1627665986.8416, 61, 0, 4252.821, 4227.179, 4168.718, 4169.231, 4204.103, 0, 0, []
1627665986.8495, 62, 0, 4258.462, 4222.564, 4158.462, 4160, 4201.538, 0, 0, []
1627665986.8575, 63, 0, 4266.667, 4215.385, 4157.436, 4156.41, 4209.744, 0, 0, []
1627665986.8654, 64, 0, 4260.513, 4210.769, 4160.513, 4155.897, 4207.692, 450, 0, []
1627665986.8733, 65, 0, 4266.667, 4221.538, 4169.744, 4164.615, 4212.308, 450, 0, []
1627665986.8812, 66, 0, 4274.872, 4228.718, 4175.385, 4167.179, 4218.974, 16187, 0, []
1627665986.889, 67, 0, 4266.667, 4225.641, 4170.769, 4156.923, 4214.872, 450, 0, []
1627665986.8969, 68, 0, 4268.718, 4241.026, 4176.41, 4155.897, 4216.923, 16155, 0, []
1627665986.9047, 69, 0, 4271.282, 4255.897, 4178.462, 4152.308, 4217.436, 450, 0, []
1627665986.9125, 70, 0, 4234.359, 4232.821, 4141.538, 4114.359, 4185.128, 16154, 0, []
1627665986.9203, 71, 0, 4203.077, 4212.308, 4111.795, 4085.128, 4154.872, 450, 0, []
1627665986.9282, 72, 0, 4229.744, 4232.821, 4143.59, 4116.923, 4180.513, 450, 0, []
1627665986.936, 73, 0, 4258.462, 4251.282, 4184.103, 4158.462, 4215.897, 16177, 0, []
1627665986.9439, 74, 0, 4251.795, 4246.154, 4174.872, 4158.974, 4219.487, 450, 0, []
1627665986.9517, 75, 0, 4243.077, 4240, 4152.821, 4134.872, 4212.308, 16198, 0, []
1627665986.9596, 76, 0, 4240, 4231.282, 4156.923, 4124.615, 4208.205, 450, 0, []
1627665986.9675, 77, 0, 4228.205, 4216.41, 4157.436, 4123.077, 4194.359, 450, 0, []
1627665986.9755, 78, 0, 4231.282, 4218.974, 4146.667, 4116.923, 4192.821, 450, 0, []
1627665986.9834, 79, 0, 4270.256, 4242.564, 4170.256, 4140, 4233.333, 16198, 0, []
1627665986.9914, 80, 0, 4297.949, 4256.923, 4202.051, 4173.333, 4264.103, 450, 0, []
1627665986.9992, 81, 0, 4279.487, 4245.128, 4193.333, 4158.462, 4241.538, 450, 0, []
1627665987.0072, 82, 0, 4265.128, 4244.615, 4183.59, 4136.41, 4227.179, 450, 0, []
1627665987.0151, 83, 0, 4270.256, 4252.821, 4190.769, 4143.59, 4236.923, 16198, 0, []
1627665987.0231, 84, 0, 4244.103, 4234.872, 4168.205, 4125.641, 4209.231, 450, 0, []
1627665987.031, 85, 0, 4221.538, 4218.974, 4147.179, 4104.615, 4186.154, 450, 0, []
1627665987.0387, 86, 0, 4251.282, 4232.821, 4171.282, 4136.923, 4221.026, 450, 0, []
1627665987.0466, 87, 0, 4272.308, 4248.205, 4188.205, 4160, 4243.077, 16198, 0, []
1627665987.0544, 88, 0, 4263.59, 4243.077, 4180, 4143.59, 4231.282, 450, 0, []
1627665987.0623, 89, 0, 4265.128, 4233.846, 4181.026, 4136.923, 4231.282, 450, 0, []
1627665987.0701, 90, 0, 4258.974, 4230.769, 4181.026, 4138.974, 4228.205, 450, 0, []
1627665987.0779, 91, 0, 4231.795, 4219.487, 4162.564, 4117.949, 4203.59, 16198, 0, []
1627665987.0857, 92, 0, 4222.051, 4210.256, 4158.462, 4098.462, 4188.205, 450, 0, []
1627665987.0936, 93, 0, 4239.487, 4221.538, 4181.026, 4112.308, 4198.974, 450, 0, []
1627665987.1014, 94, 0, 4245.641, 4235.897, 4191.795, 4127.692, 4204.615, 450, 0, []
1627665987.1093, 95, 0, 4238.974, 4236.923, 4183.59, 4125.128, 4197.436, 16198, 0, []
1627665987.1172, 96, 0, 4251.795, 4240.513, 4183.077, 4134.359, 4210.769, 450, 0, []
1627665987.1252, 97, 0, 4269.231, 4244.615, 4190.769, 4154.872, 4231.282, 450, 0, []
1627665987.1331, 98, 0, 4249.231, 4230.256, 4189.744, 4147.179, 4212.308, 450, 0, []
1627665987.1411, 99, 0, 4210.769, 4214.872, 4180.513, 4121.538, 4176.923, 16198, 0, []
1627665987.149, 100, 0, 4199.487, 4216.41, 4170.769, 4118.462, 4177.949, 450, 0, []
1627665987.1569, 101, 0, 4195.897, 4218.462, 4162.051, 4132.308, 4192.308, 450, 0, []
1627665987.1648, 102, 0, 4145.641, 4197.436, 4138.974, 4122.051, 4162.051, 450, 0, []
1627665987.1728, 103, 0, 4077.436, 4168.205, 4101.026, 4086.667, 4103.077, 16198, 0, []
1627665987.1807, 104, 0, 4098.462, 4191.795, 4125.128, 4110.256, 4118.462, 450, 0, []
1627665987.1887, 105, 0, 4185.641, 4248.205, 4202.051, 4194.359, 4203.59, 450, 0, []
1627665987.1965, 106, 0, 4191.282, 4251.795, 4210.769, 4210.256, 4218.974, 450, 0, []
1627665987.2043, 107, 0, 4134.872, 4216.923, 4165.128, 4161.026, 4164.103, 16198, 0, []
1627665987.2122, 108, 0, 4131.282, 4210.256, 4159.487, 4149.744, 4149.231, 450, 0, []
1627665987.22, 109, 0, 4145.128, 4224.103, 4168.718, 4156.41, 4159.487, 450, 0, []
1627665987.2279, 110, 0, 4120.513, 4211.795, 4150.256, 4127.692, 4140, 450, 0, []
1627665987.2356, 111, 0, 4111.282, 4197.436, 4145.641, 4112.821, 4128.205, 16198, 0, []
1627665987.2435, 112, 0, 4141.538, 4209.744, 4165.128, 4136.41, 4151.795, 450, 0, []
1627665987.2513, 113, 0, 4152.308, 4218.462, 4169.231, 4145.128, 4166.667, 450, 0, []
1627665987.2592, 114, 0, 4139.487, 4211.795, 4172.308, 4128.718, 4157.949, 450, 0, []
1627665987.267, 115, 0, 4141.538, 4218.974, 4188.205, 4130.769, 4158.462, 16198, 0, []
1627665987.2749, 116, 0, 4128.718, 4218.462, 4166.667, 4123.077, 4145.128, 450, 0, []
1627665987.2828, 117, 0, 4103.077, 4197.436, 4130.256, 4097.949, 4117.949, 450, 0, []
1627665987.2908, 118, 0, 4128.205, 4207.179, 4153.846, 4119.487, 4140, 450, 0, []
1627665987.2987, 119, 0, 4151.795, 4221.538, 4174.359, 4148.718, 4167.692, 16198, 0, []
1627665987.3067, 120, 0, 4109.744, 4197.949, 4139.487, 4117.949, 4129.231, 450, 0, []
1627665987.3145, 121, 0, 4099.487, 4194.359, 4141.026, 4106.667, 4111.282, 450, 0, []
1627665987.3225, 122, 0, 4143.59, 4221.026, 4177.436, 4144.615, 4151.282, 450, 0, []
1627665987.3304, 123, 0, 4147.179, 4221.026, 4170.256, 4145.641, 4162.564, 16198, 0, []
1627665987.3384, 124, 0, 4134.872, 4211.795, 4161.026, 4129.744, 4152.308, 450, 0, []
1627665987.3463, 125, 0, 4142.051, 4217.949, 4175.385, 4136.923, 4155.897, 450, 0, []
1627665987.354, 126, 0, 4126.154, 4208.205, 4156.923, 4115.897, 4135.385, 450, 0, []
1627665987.3619, 127, 0, 4102.564, 4185.641, 4125.641, 4074.872, 4109.231, 16198, 0, []
1627665987.3697, 128, 0, 4133.333, 4195.385, 4147.692, 4091.795, 4137.436, 450, 0, []
1627665987.3776, 0, 0, 4181.538, 4229.231, 4188.205, 4144.103, 4186.667, 450, 0, []
1627665987.3854, 1, 0, 4167.692, 4223.59, 4173.333, 4141.538, 4173.333, 450, 0, []
1627665987.3932, 2, 0, 4135.897, 4192.821, 4143.59, 4111.282, 4135.385, 16186, 0, []
1627665987.401, 3, 0, 4155.385, 4201.026, 4163.077, 4127.179, 4153.846, 450, 0, []
1627665987.4089, 4, 0, 4172.308, 4221.026, 4180, 4149.231, 4179.487, 16154, 0, []
1627665987.4167, 5, 0, 4137.949, 4207.179, 4151.795, 4117.436, 4145.128, 450, 0, []
1627665987.4247, 6, 0, 4113.846, 4189.744, 4129.744, 4087.179, 4114.359, 16147, 0, []
1627665987.4325, 7, 0, 4138.974, 4197.949, 4142.051, 4108.205, 4137.436, 450, 0, []
1627665987.4405, 8, 0, 4169.231, 4214.872, 4163.077, 4143.077, 4162.564, 450, 0, []
1627665987.4484, 9, 0, 4174.872, 4222.564, 4168.718, 4152.308, 4163.077, 16174, 0, []
1627665987.4564, 10, 0, 4145.128, 4202.564, 4134.872, 4119.487, 4136.41, 450, 0, []
1627665987.4643, 11, 0, 4125.641, 4190.769, 4113.333, 4095.897, 4117.949, 16192, 0, []
1627665987.4722, 12, 0, 4163.59, 4226.154, 4162.051, 4134.359, 4152.308, 450, 0, []
1627665987.4801, 13, 0, 4193.846, 4242.564, 4199.487, 4170.256, 4185.641, 450, 0, []
1627665987.4881, 14, 0, 4174.359, 4213.846, 4172.821, 4150.256, 4165.641, 450, 0, []
1627665987.496, 15, 0, 4163.59, 4210.256, 4161.026, 4133.333, 4152.308, 16192, 0, []
1627665987.5038, 16, 0, 4170.256, 4221.026, 4168.718, 4143.59, 4162.051, 0, 0, []
1627665987.5116, 17, 0, 4160.513, 4204.615, 4148.718, 4138.462, 4149.231, 0, 0, []
1627665987.5194, 18, 0, 4164.615, 4204.615, 4149.231, 4137.949, 4145.641, 0, 0, []
1627665987.5273, 19, 0, 4174.872, 4218.974, 4161.026, 4143.077, 4153.846, 0, 0, []
1627665987.5351, 20, 0, 4153.846, 4203.077, 4135.897, 4122.051, 4135.897, 0, 0, []
1627665987.543, 21, 0, 4157.949, 4199.487, 4133.333, 4120, 4134.872, 0, 0, []
1627665987.5507, 22, 0, 4197.436, 4224.615, 4161.026, 4151.795, 4167.179, 0, 0, []
1627665987.5586, 23, 0, 4208.205, 4233.846, 4163.59, 4167.692, 4182.564, 0, 0, []
1627665987.5664, 24, 0, 4182.564, 4212.821, 4150.256, 4153.846, 4164.103, 0, 0, []
1627665987.5743, 25, 0, 4154.872, 4190.256, 4139.487, 4131.282, 4133.333, 0, 0, []
1627665987.5821, 26, 0, 4140, 4185.128, 4125.641, 4120.513, 4109.744, 0, 0, []
1627665987.59, 27, 0, 4144.615, 4197.949, 4128.205, 4134.359, 4115.385, 0, 0, []
1627665987.5979, 28, 0, 4164.103, 4215.897, 4150.769, 4158.974, 4138.462, 0, 0, []
1627665987.6059, 29, 0, 4164.103, 4213.846, 4155.385, 4158.462, 4133.333, 0, 0, []
1627665987.6138, 30, 0, 4161.538, 4207.692, 4147.179, 4147.179, 4121.538, 0, 0, []
1627665987.6218, 31, 0, 4188.718, 4217.949, 4163.59, 4167.179, 4144.615, 0, 0, []
1627665987.6296, 32, 0, 4199.487, 4218.974, 4174.872, 4188.718, 4162.564, 0, 0, []
1627665987.6376, 33, 0, 4177.436, 4200, 4153.333, 4175.385, 4144.615, 0, 0, []
1627665987.6455, 34, 0, 4176.41, 4195.897, 4143.59, 4162.564, 4142.051, 0, 0, []
1627665987.6535, 35, 0, 4184.103, 4202.564, 4148.205, 4158.974, 4149.744, 0, 0, []
1627665987.6614, 36, 0, 4175.385, 4198.974, 4144.615, 4151.795, 4140, 0, 0, []
1627665987.6691, 37, 0, 4175.897, 4204.103, 4146.154, 4161.538, 4141.538, 0, 0, []
1627665987.677, 38, 0, 4169.744, 4207.179, 4138.462, 4172.821, 4138.974, 0, 0, []
1627665987.6848, 39, 0, 4155.385, 4197.949, 4126.667, 4166.154, 4125.128, 0, 0, []
1627665987.6927, 40, 0, 4172.308, 4204.615, 4150.769, 4178.462, 4140, 0, 0, []
1627665987.7005, 41, 0, 4189.231, 4217.949, 4178.462, 4203.077, 4160, 0, 0, []
1627665987.7084, 42, 0, 4183.59, 4214.359, 4167.179, 4202.564, 4156.923, 0, 0, []
1627665987.7161, 43, 0, 4181.538, 4202.564, 4150.769, 4188.205, 4151.282, 0, 0, []
1627665987.724, 44, 0, 4179.487, 4196.923, 4151.795, 4181.026, 4148.718, 0, 0, []
1627665987.7318, 45, 0, 4194.872, 4212.821, 4174.872, 4204.103, 4169.744, 0, 0, []
1627665987.7398, 46, 0, 4217.436, 4231.282, 4196.41, 4224.615, 4193.333, 0, 0, []
1627665987.7477, 47, 0, 4195.385, 4223.077, 4174.872, 4197.436, 4171.282, 0, 0, []
1627665987.7556, 48, 0, 4167.179, 4207.692, 4142.564, 4168.205, 4148.718, 0, 0, []
1627665987.7635, 49, 0, 4162.564, 4197.436, 4131.282, 4156.923, 4138.974, 0, 0, []
1627665987.7715, 50, 0, 4164.103, 4194.872, 4141.026, 4156.41, 4128.718, 0, 0, []
1627665987.7794, 51, 0, 4183.077, 4216.41, 4163.077, 4174.359, 4148.718, 0, 0, []
1627665987.7874, 52, 0, 4209.744, 4240.513, 4177.436, 4192.308, 4175.897, 0, 0, []
1627665987.7952, 53, 0, 4202.564, 4231.282, 4167.692, 4187.692, 4163.077, 0, 0, []
1627665987.8032, 54, 0, 4184.615, 4215.897, 4151.282, 4181.026, 4152.308, 0, 0, []
1627665987.8111, 55, 0, 4192.821, 4214.872, 4155.385, 4187.692, 4168.718, 0, 0, []
1627665987.8189, 56, 0, 4211.282, 4216.41, 4176.41, 4196.923, 4184.103, 0, 0, []
1627665987.8268, 57, 0, 4223.077, 4226.154, 4188.718, 4204.615, 4197.436, 0, 0, []
1627665987.8345, 58, 0, 4216.923, 4224.103, 4172.308, 4196.923, 4191.795, 0, 0, []
1627665987.8424, 59, 0, 4198.462, 4198.974, 4148.205, 4178.462, 4163.59, 0, 0, []
1627665987.8502, 60, 0, 4194.359, 4189.231, 4144.615, 4170.256, 4156.923, 0, 0, []
1627665987.8581, 61, 0, 4209.744, 4210.256, 4157.436, 4172.821, 4173.846, 0, 0, []
1627665987.8659, 62, 0, 4214.359, 4216.41, 4158.462, 4173.846, 4170.256, 0, 0, []
1627665987.8737, 63, 0, 4198.974, 4202.051, 4149.231, 4162.564, 4156.41, 0, 0, []
1627665987.8815, 64, 0, 4198.462, 4210.256, 4158.462, 4162.564, 4168.718, 450, 0, []
1627665987.8895, 65, 0, 4193.846, 4209.744, 4150.769, 4158.462, 4164.615, 450, 0, []
1627665987.8974, 66, 0, 4166.667, 4187.179, 4115.897, 4132.821, 4130.769, 16186, 0, []
1627665987.9054, 67, 0, 4176.41, 4196.923, 4123.59, 4140, 4141.538, 450, 0, []
1627665987.9132, 68, 0, 4215.897, 4223.59, 4158.974, 4175.385, 4176.923, 16154, 0, []
1627665987.9212, 69, 0, 4211.795, 4212.821, 4157.949, 4174.359, 4172.821, 450, 0, []
1627665987.9291, 70, 0, 4192.821, 4195.385, 4144.103, 4156.923, 4169.744, 16150, 0, []
1627665987.9371, 71, 0, 4206.154, 4204.103, 4144.615, 4162.051, 4183.59, 450, 0, []
1627665987.945, 72, 0, 4201.026, 4206.154, 4132.308, 4147.692, 4161.026, 450, 0, []
1627665987.9529, 73, 0, 4177.436, 4197.436, 4122.051, 4123.59, 4137.436, 16175, 0, []
1627665987.9608, 74, 0, 4188.718, 4196.923, 4141.538, 4140.513, 4160.513, 450, 0, []
1627665987.9687, 75, 0, 4207.692, 4198.462, 4157.436, 4160.513, 4180.513, 16194, 0, []
1627665987.9766, 76, 0, 4191.282, 4193.333, 4145.641, 4140, 4161.026, 450, 0, []
1627665987.9844, 77, 0, 4189.744, 4202.051, 4144.103, 4132.821, 4155.897, 450, 0, []
1627665987.9922, 78, 0, 4210.256, 4218.462, 4156.41, 4149.231, 4173.333, 450, 0, []
1627665988, 79, 0, 4205.128, 4211.282, 4145.641, 4137.949, 4167.692, 16194, 0, []
1627665988.0079, 80, 0, 4206.154, 4204.103, 4142.051, 4135.385, 4167.179, 450, 0, []
1627665988.0157, 81, 0, 4235.897, 4222.051, 4169.231, 4164.615, 4194.359, 450, 0, []
1627665988.0236, 82, 0, 4240.513, 4229.231, 4184.103, 4169.744, 4200.513, 450, 0, []
1627665988.0313, 83, 0, 4212.821, 4212.821, 4160.513, 4142.051, 4174.872, 16194, 0, []
1627665988.0392, 84, 0, 4193.333, 4194.359, 4131.795, 4120.513, 4155.897, 450, 0, []
1627665988.047, 85, 0, 4184.615, 4182.564, 4119.487, 4106.667, 4150.769, 450, 0, []
1627665988.055, 86, 0, 4189.231, 4194.359, 4132.308, 4113.846, 4157.949, 450, 0, []
1627665988.0629, 87, 0, 4209.231, 4220, 4159.487, 4141.026, 4173.333, 16194, 0, []
1627665988.0708, 88, 0, 4214.359, 4224.103, 4166.154, 4144.615, 4173.333, 450, 0, []
1627665988.0787, 89, 0, 4205.128, 4217.436, 4156.41, 4137.436, 4164.615, 450, 0, []
1627665988.0867, 90, 0, 4196.923, 4215.385, 4143.59, 4138.462, 4161.538, 450, 0, []
1627665988.0946, 91, 0, 4185.128, 4203.077, 4134.359, 4127.179, 4153.846, 16194, 0, []
1627665988.1026, 92, 0, 4174.872, 4190.769, 4135.897, 4113.333, 4142.051, 450, 0, []
1627665988.1104, 93, 0, 4191.795, 4205.641, 4160.513, 4129.744, 4157.949, 450, 0, []
1627665988.1183, 94, 0, 4211.282, 4219.487, 4177.949, 4148.205, 4178.974, 450, 0, []
1627665988.1261, 95, 0, 4182.051, 4201.026, 4148.718, 4119.487, 4148.718, 16194, 0, []
1627665988.1339, 96, 0, 4168.205, 4193.846, 4129.744, 4100.513, 4132.821, 450, 0, []
1627665988.1418, 97, 0, 4213.846, 4221.538, 4158.974, 4129.231, 4179.487, 450, 0, []
1627665988.1495, 98, 0, 4212.821, 4225.641, 4157.949, 4129.744, 4175.897, 450, 0, []
1627665988.1574, 99, 0, 4166.667, 4201.026, 4114.872, 4097.949, 4121.538, 16194, 0, []
1627665988.1652, 100, 0, 4188.205, 4203.59, 4123.077, 4113.846, 4136.41, 450, 0, []
1627665988.1731, 101, 0, 4236.923, 4224.615, 4166.667, 4150.256, 4184.615, 450, 0, []
1627665988.1809, 102, 0, 4218.974, 4218.462, 4154.359, 4129.744, 4169.744, 450, 0, []
1627665988.1887, 103, 0, 4194.872, 4204.103, 4122.051, 4095.385, 4142.051, 16194, 0, []
1627665988.1965, 104, 0, 4222.564, 4213.846, 4145.641, 4115.385, 4162.051, 450, 0, []
1627665988.2044, 105, 0, 4238.462, 4221.026, 4172.308, 4146.667, 4178.462, 450, 0, []
1627665988.2122, 106, 0, 4220.513, 4212.308, 4155.385, 4133.846, 4165.128, 450, 0, []
1627665988.2202, 107, 0, 4219.487, 4215.897, 4149.744, 4124.103, 4167.179, 16194, 0, []
1627665988.228, 108, 0, 4217.949, 4215.385, 4149.231, 4128.205, 4165.641, 450, 0, []
1627665988.236, 109, 0, 4174.872, 4181.538, 4109.231, 4083.077, 4117.436, 450, 0, []
1627665988.2439, 110, 0, 4171.282, 4183.59, 4112.821, 4065.641, 4118.974, 450, 0, []
1627665988.2519, 111, 0, 4241.538, 4240, 4190.769, 4142.051, 4201.026, 16194, 0, []
1627665988.2598, 112, 0, 4266.667, 4253.846, 4223.077, 4186.667, 4228.718, 450, 0, []
1627665988.2677, 113, 0, 4235.385, 4220.513, 4189.231, 4154.359, 4194.872, 450, 0, []
1627665988.2756, 114, 0, 4225.641, 4215.897, 4174.359, 4136.923, 4192.821, 450, 0, []
1627665988.2836, 115, 0, 4229.231, 4228.205, 4178.974, 4140, 4197.436, 16194, 0, []
1627665988.2915, 116, 0, 4211.282, 4211.282, 4162.564, 4125.128, 4172.821, 450, 0, []
1627665988.2993, 117, 0, 4201.538, 4193.846, 4151.795, 4121.026, 4160, 450, 0, []
1627665988.3071, 118, 0, 4204.615, 4198.462, 4155.897, 4120.513, 4155.385, 450, 0, []
1627665988.3149, 119, 0, 4202.564, 4202.564, 4154.359, 4114.359, 4150.769, 16194, 0, []
1627665988.3228, 120, 0, 4215.385, 4204.103, 4165.641, 4129.744, 4175.897, 450, 0, []
1627665988.3306, 121, 0, 4220.513, 4197.949, 4162.564, 4131.282, 4184.103, 450, 0, []
1627665988.3385, 122, 0, 4200.513, 4198.974, 4136.923, 4103.077, 4155.897, 450, 0, []
1627665988.3462, 123, 0, 4198.462, 4218.462, 4141.026, 4098.974, 4150.769, 16194, 0, []
1627665988.3542, 124, 0, 4202.564, 4212.308, 4153.846, 4107.692, 4155.897, 450, 0, []
1627665988.3621, 125, 0, 4182.051, 4176.923, 4131.795, 4091.795, 4135.385, 450, 0, []
1627665988.3701, 126, 0, 4189.231, 4184.103, 4129.231, 4100, 4143.59, 450, 0, []
1627665988.378, 127, 0, 4231.795, 4225.128, 4165.128, 4140.513, 4186.667, 16194, 0, []
1627665988.3859, 128, 0, 4228.718, 4218.974, 4164.615, 4140, 4187.692, 450, 0, []
1627665988.3938, 0, 0, 4200.513, 4193.846, 4140, 4116.923, 4166.154, 450, 0, []
1627665988.4018, 1, 0, 4204.615, 4198.974, 4134.872, 4118.462, 4166.667, 450, 0, []
1627665988.4097, 2, 0, 4218.462, 4204.615, 4137.436, 4128.718, 4172.308, 16186, 0, []
1627665988.4177, 3, 0, 4218.974, 4193.846, 4138.462, 4131.282, 4172.308, 450, 0, []
1627665988.4256, 4, 0, 4216.923, 4183.077, 4137.436, 4129.231, 4173.846, 16157, 0, []
1627665988.4335, 5, 0, 4212.821, 4190.769, 4136.923, 4125.641, 4176.41, 450, 0, []
1627665988.4414, 6, 0, 4201.538, 4204.103, 4133.333, 4114.359, 4169.744, 16109, 0, []
1627665988.4492, 7, 0, 4185.641, 4194.359, 4124.615, 4098.974, 4151.282, 450, 0, []
1627665988.4571, 8, 0, 4154.359, 4162.051, 4095.385, 4073.333, 4121.538, 450, 0, []
1627665988.4649, 9, 0, 4133.333, 4155.897, 4071.282, 4057.949, 4106.154, 16175, 0, []
1627665988.4727, 10, 0, 4181.026, 4192.821, 4110.256, 4094.359, 4150.256, 450, 0, []
1627665988.4805, 11, 0, 4250.769, 4215.897, 4171.282, 4153.333, 4216.41, 16197, 0, []
1627665988.4884, 12, 0, 4258.462, 4207.692, 4176.41, 4164.103, 4230.256, 450, 0, []
1627665988.4962, 13, 0, 4232.308, 4194.872, 4145.641, 4133.333, 4205.641, 450, 0, []
1627665988.5041, 14, 0, 4232.308, 4192.308, 4140.513, 4126.667, 4200.513, 450, 0, []
1627665988.5118, 15, 0, 4244.615, 4194.359, 4151.795, 4141.026, 4207.692, 16197, 0, []
1627665988.5197, 16, 0, 4243.59, 4196.41, 4155.385, 4144.103, 4204.103, 0, 0, []
1627665988.5275, 17, 0, 4237.949, 4204.103, 4152.821, 4140, 4201.026, 0, 0, []
1627665988.5355, 18, 0, 4222.051, 4204.615, 4144.615, 4132.308, 4193.846, 0, 0, []
1627665988.5434, 19, 0, 4185.128, 4185.128, 4124.103, 4104.103, 4162.051, 0, 0, []
1627665988.5513, 20, 0, 4155.897, 4166.154, 4101.026, 4072.308, 4126.154, 0, 0, []
1627665988.5592, 21, 0, 4189.231, 4190.256, 4125.641, 4097.436, 4149.744, 0, 0, []
1627665988.5672, 22, 0, 4244.615, 4229.744, 4178.974, 4152.821, 4203.077, 0, 0, []
1627665988.5751, 23, 0, 4246.667, 4230.769, 4187.692, 4163.59, 4208.205, 0, 0, []
1627665988.5831, 24, 0, 4218.974, 4206.154, 4156.41, 4134.872, 4177.949, 0, 0, []
1627665988.5909, 25, 0, 4201.026, 4186.154, 4134.359, 4111.795, 4161.026, 0, 0, []
1627665988.5987, 26, 0, 4206.667, 4186.154, 4141.026, 4114.359, 4172.821, 0, 0, []
1627665988.6066, 27, 0, 4241.026, 4205.128, 4166.154, 4144.103, 4206.154, 0, 0, []
1627665988.6144, 28, 0, 4255.897, 4220.513, 4174.359, 4161.538, 4217.436, 0, 0, []
1627665988.6223, 29, 0, 4226.667, 4216.41, 4150.769, 4136.41, 4186.154, 0, 0, []
1627665988.63, 30, 0, 4209.231, 4214.359, 4135.897, 4117.949, 4168.205, 0, 0, []
1627665988.6379, 31, 0, 4215.897, 4220, 4131.795, 4120.513, 4171.282, 0, 0, []
1627665988.6457, 32, 0, 4217.436, 4219.487, 4118.462, 4112.308, 4167.179, 0, 0, []
1627665988.6536, 33, 0, 4223.59, 4219.487, 4124.615, 4114.359, 4176.41, 0, 0, []
1627665988.6614, 34, 0, 4222.564, 4208.205, 4135.385, 4131.282, 4188.205, 0, 0, []
1627665988.6693, 35, 0, 4186.154, 4179.487, 4106.667, 4110.256, 4158.974, 0, 0, []
1627665988.6772, 36, 0, 4154.359, 4161.538, 4085.128, 4078.974, 4126.154, 0, 0, []
1627665988.6852, 37, 0, 4174.872, 4175.385, 4116.923, 4101.538, 4144.103, 0, 0, []
1627665988.6931, 38, 0, 4209.231, 4194.872, 4146.154, 4131.282, 4173.846, 0, 0, []
1627665988.7011, 39, 0, 4203.077, 4192.308, 4132.308, 4111.282, 4166.667, 0, 0, []
1627665988.7089, 40, 0, 4197.949, 4201.026, 4135.897, 4097.436, 4163.077, 0, 0, []
1627665988.7169, 41, 0, 4243.077, 4234.872, 4180.513, 4142.564, 4206.154, 0, 0, []
1627665988.7248, 42, 0, 4266.667, 4238.974, 4190.256, 4171.282, 4231.795, 0, 0, []
1627665988.7328, 43, 0, 4224.615, 4205.641, 4148.718, 4135.385, 4194.872, 0, 0, []
1627665988.7407, 44, 0, 4200.513, 4192.821, 4130.256, 4110.769, 4169.744, 0, 0, []
1627665988.7486, 45, 0, 4210.769, 4191.282, 4140, 4123.59, 4182.051, 0, 0, []
1627665988.7565, 46, 0, 4208.205, 4174.872, 4144.103, 4127.179, 4186.154, 0, 0, []
1627665988.7643, 47, 0, 4211.282, 4183.59, 4151.282, 4122.564, 4190.256, 0, 0, []
1627665988.7722, 48, 0, 4215.385, 4202.564, 4153.333, 4118.462, 4192.821, 0, 0, []
1627665988.78, 49, 0, 4193.333, 4196.41, 4138.462, 4107.692, 4172.308, 0, 0, []
1627665988.7878, 50, 0, 4178.462, 4193.846, 4131.282, 4107.179, 4164.615, 0, 0, []
1627665988.7956, 51, 0, 4180, 4205.641, 4138.462, 4124.103, 4187.179, 0, 0, []
1627665988.8035, 52, 0, 4158.462, 4191.282, 4132.821, 4129.744, 4190.256, 0, 0, []
1627665988.8113, 53, 0, 4133.846, 4160.513, 4118.462, 4118.462, 4166.154, 0, 0, []
1627665988.8192, 54, 0, 4128.205, 4151.795, 4110.769, 4100.513, 4148.205, 0, 0, []
1627665988.8269, 55, 0, 4135.897, 4166.667, 4113.846, 4095.897, 4152.308, 0, 0, []
1627665988.8349, 56, 0, 4167.179, 4193.333, 4141.026, 4128.205, 4188.718, 0, 0, []
1627665988.8428, 57, 0, 4194.359, 4218.974, 4175.897, 4161.538, 4218.462, 0, 0, []
1627665988.8508, 58, 0, 4191.795, 4234.872, 4178.974, 4156.41, 4211.795, 0, 0, []
1627665988.8587, 59, 0, 4181.538, 4224.615, 4156.41, 4135.385, 4195.385, 0, 0, []
1627665988.8666, 60, 0, 4188.205, 4204.615, 4154.359, 4133.846, 4197.436, 0, 0, []
1627665988.8745, 61, 0, 4205.128, 4211.795, 4175.897, 4154.359, 4216.41, 0, 0, []
1627665988.8825, 62, 0, 4196.923, 4220, 4180, 4160.513, 4214.872, 0, 0, []
1627665988.8904, 63, 0, 4162.564, 4200.513, 4160, 4138.462, 4184.103, 0, 0, []
1627665988.8984, 64, 0, 4155.897, 4198.974, 4149.231, 4122.564, 4173.846, 450, 0, []
1627665988.9062, 65, 0, 4170.769, 4216.41, 4155.897, 4124.615, 4182.051, 450, 0, []
1627665988.914, 66, 0, 4160.513, 4206.154, 4153.333, 4122.051, 4172.821, 16186, 0, []
1627665988.9219, 67, 0, 4155.897, 4203.077, 4155.385, 4127.692, 4169.744, 450, 0, []
1627665988.9297, 68, 0, 4166.154, 4222.051, 4163.59, 4135.385, 4180, 16157, 0, []
1627665988.9376, 69, 0, 4150.256, 4217.949, 4144.615, 4114.872, 4165.128, 450, 0, []
1627665988.9453, 70, 0, 4143.59, 4210.256, 4137.949, 4116.41, 4160.513, 16144, 0, []
1627665988.9532, 71, 0, 4165.128, 4221.026, 4156.923, 4149.231, 4183.59, 450, 0, []
1627665988.961, 72, 0, 4156.923, 4209.744, 4142.051, 4133.846, 4173.333, 450, 0, []
1627665988.9689, 73, 0, 4141.026, 4186.154, 4121.026, 4104.103, 4153.846, 16175, 0, []
1627665988.9767, 74, 0, 4182.051, 4204.103, 4159.487, 4146.154, 4193.333, 450, 0, []
1627665988.9846, 75, 0, 4214.359, 4228.205, 4187.179, 4186.154, 4230.769, 16198, 0, []
1627665988.9925, 76, 0, 4184.103, 4205.128, 4148.718, 4154.359, 4204.103, 450, 0, []
1627665989.0005, 77, 0, 4166.667, 4190.256, 4130.769, 4131.282, 4182.564, 450, 0, []
1627665989.0084, 78, 0, 4187.692, 4217.436, 4154.359, 4151.795, 4202.051, 450, 0, []
1627665989.0164, 79, 0, 4198.462, 4228.205, 4156.41, 4162.564, 4213.333, 16198, 0, []
1627665989.0242, 80, 0, 4183.59, 4202.564, 4135.385, 4150.769, 4197.949, 450, 0, []
1627665989.0322, 81, 0, 4162.051, 4180.513, 4128.205, 4134.872, 4170.256, 450, 0, []
1627665989.0401, 82, 0, 4166.154, 4192.821, 4147.692, 4140.513, 4171.282, 450, 0, []
1627665989.0481, 83, 0, 4188.718, 4218.462, 4161.026, 4166.154, 4202.564, 16198, 0, []
1627665989.056, 84, 0, 4186.667, 4210.256, 4146.154, 4170.769, 4200, 450, 0, []
1627665989.0637, 85, 0, 4161.026, 4183.077, 4123.077, 4150.256, 4165.128, 450, 0, []
1627665989.0716, 86, 0, 4158.974, 4182.051, 4118.974, 4139.487, 4161.538, 450, 0, []
1627665989.0794, 87, 0, 4163.077, 4189.744, 4122.564, 4130.769, 4169.231, 16198, 0, []
1627665989.0873, 88, 0, 4160.513, 4191.795, 4131.282, 4128.718, 4166.667, 450, 0, []
1627665989.0951, 89, 0, 4183.59, 4214.872, 4158.974, 4159.487, 4188.205, 450, 0, []
1627665989.1029, 90, 0, 4190.256, 4228.205, 4163.077, 4170.769, 4196.41, 450, 0, []
1627665989.1107, 91, 0, 4158.462, 4202.051, 4126.667, 4136.41, 4165.128, 16198, 0, []
1627665989.1186, 92, 0, 4157.949, 4185.128, 4118.974, 4128.205, 4158.974, 450, 0, []
1627665989.1264, 93, 0, 4197.436, 4202.564, 4157.949, 4163.59, 4194.359, 450, 0, []
1627665989.1344, 94, 0, 4213.333, 4222.564, 4177.436, 4173.333, 4207.692, 450, 0, []
1627665989.1422, 95, 0, 4197.436, 4214.872, 4157.436, 4143.59, 4188.205, 16198, 0, []
1627665989.1502, 96, 0, 4179.487, 4190.256, 4140.513, 4122.051, 4166.667, 450, 0, []
1627665989.1581, 97, 0, 4155.897, 4178.462, 4130.256, 4109.744, 4142.564, 450, 0, []
1627665989.1661, 98, 0, 4145.128, 4183.077, 4117.949, 4105.128, 4130.256, 450, 0, []
1627665989.174, 99, 0, 4158.462, 4185.641, 4126.154, 4125.641, 4143.077, 16198, 0, []
1627665989.182, 100, 0, 4155.385, 4181.538, 4135.385, 4137.436, 4145.128, 450, 0, []
1627665989.1898, 101, 0, 4137.436, 4187.692, 4124.103, 4117.436, 4128.205, 450, 0, []
1627665989.1978, 102, 0, 4148.718, 4208.205, 4125.641, 4117.436, 4138.462, 450, 0, []
1627665989.2057, 103, 0, 4184.103, 4224.103, 4155.897, 4149.744, 4178.462, 16198, 0, []
1627665989.2135, 104, 0, 4189.744, 4208.718, 4166.154, 4152.308, 4189.231, 450, 0, []
1627665989.2214, 105, 0, 4169.744, 4184.615, 4148.718, 4131.282, 4163.077, 450, 0, []
1627665989.2291, 106, 0, 4163.59, 4194.872, 4144.615, 4141.026, 4148.205, 450, 0, []
1627665989.237, 107, 0, 4149.231, 4198.462, 4128.718, 4142.051, 4132.821, 16198, 0, []
1627665989.2448, 108, 0, 4122.564, 4178.974, 4098.462, 4111.282, 4110.256, 450, 0, []
1627665989.2527, 109, 0, 4140, 4195.897, 4112.308, 4115.385, 4132.821, 450, 0, []
1627665989.2605, 110, 0, 4179.487, 4231.282, 4149.744, 4153.846, 4180, 450, 0, []
1627665989.2683, 111, 0, 4163.59, 4213.846, 4136.923, 4141.538, 4163.077, 16198, 0, []
1627665989.2761, 112, 0, 4132.308, 4181.538, 4115.897, 4103.59, 4125.641, 450, 0, []
1627665989.284, 113, 0, 4155.385, 4187.692, 4144.615, 4118.974, 4142.564, 450, 0, []
1627665989.2918, 114, 0, 4175.385, 4192.308, 4164.103, 4147.692, 4165.128, 450, 0, []
1627665989.2998, 115, 0, 4158.462, 4178.974, 4154.359, 4143.077, 4157.949, 16198, 0, []
1627665989.3076, 116, 0, 4162.564, 4186.154, 4163.59, 4152.308, 4163.077, 450, 0, []
1627665989.3156, 117, 0, 4191.795, 4210.256, 4181.538, 4181.538, 4185.128, 450, 0, []
1627665989.3235, 118, 0, 4191.795, 4226.154, 4166.154, 4176.923, 4178.974, 450, 0, []
1627665989.3315, 119, 0, 4173.333, 4223.59, 4138.462, 4154.359, 4161.026, 16198, 0, []
1627665989.3394, 120, 0, 4163.59, 4203.59, 4123.59, 4148.205, 4156.923, 450, 0, []
1627665989.3473, 121, 0, 4158.974, 4196.41, 4126.154, 4142.564, 4157.436, 450, 0, []
1627665989.3552, 122, 0, 4153.333, 4196.41, 4134.872, 4133.333, 4156.923, 450, 0, []
1627665989.3632, 123, 0, 4149.231, 4173.333, 4131.795, 4130.256, 4153.846, 16198, 0, []
1627665989.3711, 124, 0, 4176.41, 4173.333, 4150.256, 4157.949, 4177.949, 450, 0, []
1627665989.3789, 125, 0, 4198.462, 4198.462, 4175.385, 4186.667, 4205.128, 450, 0, []
1627665989.3867, 126, 0, 4158.974, 4177.949, 4152.308, 4164.615, 4176.923, 450, 0, []
1627665989.3945, 127, 0, 4134.359, 4157.949, 4131.795, 4150.256, 4148.205, 16198, 0, []
1627665989.4024, 128, 0, 4170.769, 4195.385, 4161.538, 4188.718, 4177.949, 450, 0, []
1627665989.4102, 0, 0, 4186.154, 4215.385, 4171.795, 4203.077, 4197.949, 450, 0, []
1627665989.4181, 1, 0, 4169.231, 4197.436, 4143.077, 4173.846, 4174.872, 450, 0, []
1627665989.4258, 2, 0, 4167.179, 4192.821, 4133.846, 4157.436, 4161.026, 16186, 0, []
1627665989.4337, 3, 0, 4169.231, 4206.154, 4153.333, 4161.538, 4168.718, 450, 0, []
1627665989.4415, 4, 0, 4182.051, 4223.077, 4181.026, 4175.897, 4188.718, 16157, 0, []
1627665989.4495, 5, 0, 4188.718, 4210.769, 4166.667, 4175.897, 4186.667, 450, 0, []
1627665989.4574, 6, 0, 4156.41, 4173.846, 4117.436, 4148.205, 4144.615, 16149, 0, []
1627665989.4653, 7, 0, 4142.564, 4173.846, 4111.282, 4150.256, 4131.795, 450, 0, []
1627665989.4732, 8, 0, 4162.051, 4198.462, 4136.41, 4184.615, 4151.282, 450, 0, []
1627665989.4812, 9, 0, 4183.59, 4204.615, 4147.692, 4214.872, 4164.615, 16175, 0, []
1627665989.4891, 10, 0, 4201.026, 4199.487, 4155.385, 4237.436, 4183.077, 450, 0, []
1627665989.4971, 11, 0, 4176.923, 4181.026, 4141.538, 4215.385, 4170.256, 16198, 0, []
1627665989.5049, 12, 0, 4139.487, 4166.154, 4118.974, 4174.359, 4136.41, 450, 0, []
1627665989.5129, 13, 0, 4168.205, 4195.385, 4145.128, 4197.949, 4164.103, 450, 0, []
1627665989.5208, 14, 0, 4202.051, 4225.641, 4172.308, 4231.795, 4199.487, 450, 0, []
1627665989.5286, 15, 0, 4175.897, 4208.718, 4144.103, 4204.103, 4169.744, 16198, 0, []
1627665989.5365, 16, 0, 4171.795, 4189.744, 4126.667, 4190.256, 4152.308, 0, 0, []
1627665989.5442, 17, 0, 4216.41, 4204.103, 4143.59, 4229.231, 4183.077, 0, 0, []
1627665989.5521, 18, 0, 4226.154, 4210.256, 4147.179, 4243.077, 4193.846, 0, 0, []
1627665989.5599, 19, 0, 4201.026, 4190.769, 4137.949, 4220.513, 4175.385, 0, 0, []
1627665989.5678, 20, 0, 4202.564, 4186.667, 4142.051, 4212.821, 4175.385, 0, 0, []
1627665989.5756, 21, 0, 4224.615, 4200.513, 4154.359, 4216.41, 4192.821, 0, 0, []
1627665989.5834, 22, 0, 4230.256, 4200.513, 4159.487, 4211.282, 4198.462, 0, 0, []
1627665989.5912, 23, 0, 4207.179, 4181.538, 4138.462, 4189.231, 4173.333, 0, 0, []
1627665989.5992, 24, 0, 4168.718, 4168.205, 4106.154, 4154.359, 4125.128, 0, 0, []
1627665989.6071, 25, 0, 4164.615, 4189.744, 4115.385, 4160, 4113.333, 0, 0, []
1627665989.6151, 26, 0, 4203.077, 4220, 4155.385, 4212.308, 4157.949, 0, 0, []
1627665989.6229, 27, 0, 4219.487, 4215.897, 4166.154, 4233.846, 4181.538, 0, 0, []
1627665989.6309, 28, 0, 4193.333, 4189.231, 4151.795, 4203.077, 4153.846, 0, 0, []
1627665989.6388, 29, 0, 4182.051, 4184.615, 4147.692, 4183.59, 4145.641, 0, 0, []
1627665989.6468, 30, 0, 4196.923, 4195.897, 4153.333, 4194.359, 4167.179, 0, 0, []
1627665989.6547, 31, 0, 4209.231, 4205.128, 4163.59, 4207.692, 4176.41, 0, 0, []
1627665989.6626, 32, 0, 4205.641, 4201.538, 4161.538, 4199.487, 4170.256, 0, 0, []
1627665989.6705, 33, 0, 4194.872, 4190.769, 4144.103, 4178.974, 4163.59, 0, 0, []
1627665989.6784, 34, 0, 4212.821, 4207.179, 4162.051, 4192.821, 4182.051, 0, 0, []
1627665989.6863, 35, 0, 4225.641, 4214.359, 4188.205, 4204.615, 4193.333, 0, 0, []
1627665989.6941, 36, 0, 4197.949, 4183.59, 4164.103, 4171.282, 4164.103, 0, 0, []
1627665989.7019, 37, 0, 4193.846, 4179.487, 4146.154, 4167.692, 4163.59, 0, 0, []
1627665989.7097, 38, 0, 4217.949, 4203.077, 4157.436, 4196.41, 4195.385, 0, 0, []
1627665989.7176, 39, 0, 4221.538, 4204.615, 4153.846, 4197.436, 4196.41, 0, 0, []
1627665989.7254, 40, 0, 4223.077, 4201.026, 4147.692, 4195.385, 4192.308, 0, 0, []
1627665989.7333, 41, 0, 4219.487, 4194.359, 4137.436, 4195.385, 4194.359, 0, 0, []
1627665989.741, 42, 0, 4205.128, 4178.462, 4119.487, 4180.513, 4185.128, 0, 0, []
1627665989.7489, 43, 0, 4233.846, 4201.538, 4146.154, 4200.513, 4212.308, 0, 0, []
1627665989.7567, 44, 0, 4253.333, 4223.59, 4174.872, 4216.41, 4231.795, 0, 0, []
1627665989.7647, 45, 0, 4197.949, 4178.974, 4126.667, 4159.487, 4173.333, 0, 0, []
1627665989.7726, 46, 0, 4187.692, 4161.538, 4098.462, 4141.026, 4153.846, 0, 0, []
1627665989.7805, 47, 0, 4246.667, 4206.154, 4136.41, 4198.974, 4210.769, 0, 0, []
1627665989.7884, 48, 0, 4240.513, 4208.205, 4132.821, 4196.923, 4209.744, 0, 0, []
1627665989.7964, 49, 0, 4205.128, 4185.128, 4111.282, 4160.513, 4178.462, 0, 0, []
1627665989.8043, 50, 0, 4224.615, 4197.949, 4141.026, 4180.513, 4197.436, 0, 0, []
1627665989.8123, 51, 0, 4240, 4207.179, 4163.077, 4196.923, 4209.231, 0, 0, []
1627665989.8201, 52, 0, 4233.333, 4204.103, 4157.949, 4185.128, 4202.564, 0, 0, []
1627665989.8281, 53, 0, 4226.154, 4193.333, 4145.641, 4180.513, 4204.615, 0, 0, []
1627665989.836, 54, 0, 4207.692, 4173.333, 4120, 4167.179, 4189.231, 0, 0, []
1627665989.8438, 55, 0, 4208.205, 4183.59, 4120, 4165.128, 4185.128, 0, 0, []
1627665989.8517, 56, 0, 4240, 4207.692, 4151.795, 4199.487, 4214.359, 0, 0, []
1627665989.8594, 57, 0, 4241.538, 4190.256, 4153.333, 4206.154, 4213.846, 0, 0, []
1627665989.8673, 58, 0, 4214.359, 4180, 4133.846, 4181.538, 4187.179, 0, 0, []
1627665989.8751, 59, 0, 4215.385, 4197.949, 4138.974, 4183.077, 4195.385, 0, 0, []
1627665989.883, 60, 0, 4232.308, 4194.872, 4154.359, 4202.564, 4228.718, 0, 0, []
1627665989.8908, 61, 0, 4225.641, 4177.949, 4151.795, 4211.795, 4238.462, 0, 0, []
1627665989.8987, 62, 0, 4195.897, 4164.615, 4129.744, 4196.41, 4212.821, 0, 0, []
1627665989.9064, 63, 0, 4199.487, 4167.179, 4129.744, 4190.256, 4206.667, 0, 0, []
1627665989.9144, 64, 0, 4245.128, 4194.359, 4165.128, 4226.154, 4250.256, 450, 0, []
1627665989.9223, 65, 0, 4260, 4205.128, 4181.538, 4253.333, 4273.333, 450, 0, []
1627665989.9303, 66, 0, 4231.282, 4186.667, 4167.179, 4235.385, 4244.615, 16186, 0, []
1627665989.9382, 67, 0, 4218.462, 4178.974, 4165.128, 4216.923, 4225.128, 450, 0, []
1627665989.9461, 68, 0, 4230.769, 4190.256, 4174.872, 4214.872, 4236.923, 16157, 0, []
1627665989.954, 69, 0, 4234.359, 4199.487, 4172.821, 4203.077, 4240, 450, 0, []
1627665989.962, 70, 0, 4231.282, 4204.615, 4172.821, 4196.41, 4230.256, 16149, 0, []
1627665989.9699, 71, 0, 4231.795, 4204.615, 4179.487, 4201.026, 4235.897, 450, 0, []
1627665989.9779, 72, 0, 4236.41, 4205.641, 4177.949, 4198.974, 4249.744, 450, 0, []
1627665989.9857, 73, 0, 4244.615, 4215.897, 4178.462, 4198.462, 4252.821, 16175, 0, []
1627665989.9935, 74, 0, 4250.769, 4218.974, 4186.667, 4205.641, 4249.231, 450, 0, []
1627665990.0014, 75, 0, 4240, 4200.513, 4178.462, 4197.949, 4236.923, 16198, 0, []
1627665990.0092, 76, 0, 4210.256, 4179.487, 4147.179, 4171.282, 4214.359, 450, 0, []
1627665990.0171, 77, 0, 4190.256, 4176.923, 4129.231, 4155.897, 4201.538, 450, 0, []
1627665990.0248, 78, 0, 4208.205, 4191.282, 4147.692, 4177.436, 4216.923, 450, 0, []
1627665990.0327, 79, 0, 4215.897, 4193.333, 4152.821, 4187.179, 4220.513, 16198, 0, []
1627665990.0405, 80, 0, 4185.641, 4182.051, 4126.667, 4160, 4191.282, 450, 0, []
1627665990.0484, 81, 0, 4203.59, 4205.128, 4149.744, 4181.026, 4207.179, 450, 0, []
1627665990.0562, 82, 0, 4264.615, 4249.231, 4205.128, 4243.59, 4264.103, 450, 0, []
1627665990.064, 83, 0, 4262.564, 4239.487, 4195.897, 4242.051, 4269.231, 16198, 0, []
1627665990.0718, 84, 0, 4228.205, 4202.051, 4162.051, 4200.513, 4238.974, 450, 0, []
1627665990.0798, 85, 0, 4225.128, 4203.077, 4166.154, 4196.41, 4236.923, 450, 0, []
1627665990.0877, 86, 0, 4208.718, 4200, 4156.923, 4187.692, 4223.077, 450, 0, []
1627665990.0957, 87, 0, 4193.846, 4178.462, 4142.051, 4176.41, 4203.59, 16198, 0, []
1627665990.1035, 88, 0, 4220, 4189.231, 4169.744, 4208.718, 4227.692, 450, 0, []
1627665990.1115, 89, 0, 4219.487, 4195.385, 4172.308, 4220.513, 4229.231, 450, 0, []
1627665990.1194, 90, 0, 4201.026, 4178.974, 4149.231, 4201.538, 4204.615, 450, 0, []
1627665990.1274, 91, 0, 4226.667, 4191.282, 4166.154, 4220, 4226.667, 16198, 0, []
1627665990.1353, 92, 0, 4243.077, 4197.436, 4186.667, 4248.718, 4253.846, 450, 0, []
1627665990.1432, 93, 0, 4220, 4174.872, 4172.308, 4239.487, 4238.462, 450, 0, []
1627665990.1511, 94, 0, 4209.744, 4178.974, 4156.41, 4218.974, 4221.026, 450, 0, []
1627665990.1589, 95, 0, 4220, 4202.051, 4160, 4219.487, 4223.077, 16198, 0, []
1627665990.1668, 96, 0, 4228.205, 4203.077, 4167.692, 4231.282, 4228.205, 450, 0, []
1627665990.1746, 97, 0, 4234.872, 4200, 4171.282, 4241.026, 4234.872, 450, 0, []
1627665990.1824, 98, 0, 4227.692, 4198.462, 4164.103, 4231.795, 4224.615, 450, 0, []
1627665990.1902, 99, 0, 4211.282, 4187.179, 4153.846, 4221.026, 4211.282, 16198, 0, []
1627665990.1981, 100, 0, 4215.897, 4183.59, 4155.385, 4228.718, 4223.59, 450, 0, []
1627665990.2059, 101, 0, 4226.154, 4196.41, 4160, 4238.974, 4231.795, 450, 0, []
1627665990.2138, 102, 0, 4209.231, 4198.974, 4156.41, 4227.692, 4206.667, 450, 0, []
1627665990.2215, 103, 0, 4165.641, 4172.821, 4125.641, 4184.103, 4159.487, 16198, 0, []
1627665990.2295, 104, 0, 4153.846, 4160, 4107.692, 4161.538, 4146.667, 450, 0, []
1627665990.2374, 105, 0, 4206.154, 4196.41, 4157.949, 4212.308, 4198.974, 450, 0, []
1627665990.2454, 106, 0, 4258.462, 4237.436, 4222.051, 4281.538, 4253.333, 450, 0, []
1627665990.2533, 107, 0, 4255.385, 4236.923, 4221.026, 4285.641, 4250.256, 16198, 0, []
1627665990.2612, 108, 0, 4229.231, 4221.026, 4184.103, 4255.385, 4226.667, 450, 0, []
1627665990.2691, 109, 0, 4222.051, 4215.385, 4172.821, 4250.256, 4222.564, 450, 0, []
1627665990.2771, 110, 0, 4218.974, 4204.615, 4176.923, 4244.103, 4214.359, 450, 0, []
1627665990.285, 111, 0, 4210.256, 4190.769, 4170.769, 4228.205, 4204.103, 16198, 0, []
1627665990.293, 112, 0, 4216.41, 4195.385, 4167.692, 4234.359, 4214.872, 450, 0, []
1627665990.3008, 113, 0, 4222.051, 4206.154, 4173.333, 4242.564, 4225.128, 450, 0, []
1627665990.3086, 114, 0, 4205.128, 4202.051, 4170.256, 4224.615, 4212.821, 450, 0, []
1627665990.3165, 115, 0, 4203.077, 4192.308, 4167.179, 4217.949, 4212.821, 16198, 0, []
1627665990.3243, 116, 0, 4227.692, 4193.333, 4170.769, 4236.41, 4233.846, 450, 0, []
1627665990.3322, 117, 0, 4231.795, 4204.103, 4163.59, 4236.41, 4233.846, 450, 0, []
1627665990.3399, 118, 0, 4207.179, 4194.359, 4140, 4206.154, 4202.564, 450, 0, []
1627665990.3478, 119, 0, 4184.103, 4165.128, 4113.333, 4174.359, 4173.846, 16198, 0, []
1627665990.3556, 120, 0, 4192.308, 4171.282, 4127.179, 4184.103, 4188.718, 450, 0, []
1627665990.3635, 121, 0, 4210.256, 4189.744, 4159.487, 4205.128, 4213.333, 450, 0, []
1627665990.3713, 122, 0, 4195.897, 4172.821, 4147.692, 4183.59, 4195.897, 450, 0, []
1627665990.3792, 123, 0, 4195.897, 4182.564, 4143.59, 4187.692, 4196.923, 16198, 0, []
1627665990.3871, 124, 0, 4228.718, 4219.487, 4181.538, 4237.949, 4241.538, 450, 0, []
1627665990.3951, 125, 0, 4232.821, 4211.282, 4188.205, 4241.538, 4247.179, 450, 0, []
1627665990.403, 126, 0, 4212.821, 4193.846, 4163.59, 4210.769, 4217.949, 450, 0, []
1627665990.411, 127, 0, 4207.692, 4202.564, 4158.462, 4212.308, 4211.795, 16198, 0, []
1627665990.4188, 128, 0, 4202.564, 4195.897, 4156.41, 4218.462, 4212.821, 450, 0, []
1627665990.4268, 0, 0, 4197.436, 4180, 4157.949, 4214.872, 4212.821, 450, 0, []
1627665990.4347, 1, 0, 4201.026, 4184.615, 4170.256, 4217.949, 4218.974, 450, 0, []
1627665990.4427, 2, 0, 4199.487, 4193.333, 4158.974, 4207.179, 4211.795, 16186, 0, []
1627665990.4506, 3, 0, 4203.59, 4195.897, 4150.256, 4199.487, 4208.205, 450, 0, []
1627665990.4585, 4, 0, 4188.718, 4185.641, 4154.359, 4194.359, 4200, 16157, 0, []
1627665990.4664, 5, 0, 4161.026, 4168.205, 4138.462, 4170.769, 4168.718, 450, 0, []
1627665990.4742, 6, 0, 4184.615, 4174.872, 4135.897, 4163.59, 4170.256, 16149, 0, []
1627665990.4821, 7, 0, 4232.308, 4197.436, 4156.923, 4185.128, 4202.051, 450, 0, []
1627665990.4899, 8, 0, 4240, 4209.744, 4163.077, 4193.846, 4208.205, 450, 0, []
1627665990.4977, 9, 0, 4229.744, 4206.154, 4154.872, 4183.59, 4203.077, 16175, 0, []
1627665990.5055, 10, 0, 4237.436, 4195.385, 4160, 4189.744, 4215.385, 450, 0, []
1627665990.5134, 11, 0, 4235.897, 4182.051, 4161.538, 4186.154, 4208.205, 16198, 0, []
1627665990.5212, 12, 0, 4206.667, 4165.128, 4133.846, 4151.795, 4168.718, 450, 0, []
1627665990.5291, 13, 0, 4190.256, 4163.59, 4116.923, 4141.026, 4151.282, 450, 0, []
1627665990.5368, 14, 0, 4217.949, 4182.051, 4145.641, 4173.333, 4181.026, 450, 0, []
1627665990.5447, 15, 0, 4248.718, 4191.282, 4177.436, 4195.897, 4211.795, 16198, 0, []
1627665990.5525, 16, 0, 4247.692, 4188.718, 4166.667, 4187.692, 4212.821, 0, 0, []
1627665990.5605, 17, 0, 4223.59, 4184.103, 4141.538, 4169.231, 4189.744, 0, 0, []
1627665990.5684, 18, 0, 4214.359, 4183.077, 4151.282, 4166.154, 4181.026, 0, 0, []
1627665990.5763, 19, 0, 4235.897, 4192.308, 4181.026, 4188.718, 4204.103, 0, 0, []
1627665990.5842, 20, 0, 4232.308, 4186.154, 4173.846, 4185.641, 4203.077, 0, 0, []
1627665990.5922, 21, 0, 4200.513, 4161.026, 4145.641, 4153.333, 4168.718, 0, 0, []
1627665990.6001, 22, 0, 4204.615, 4167.692, 4153.333, 4161.026, 4166.154, 0, 0, []
1627665990.6081, 23, 0, 4237.949, 4200, 4177.949, 4192.308, 4199.487, 0, 0, []
1627665990.6159, 24, 0, 4246.154, 4206.667, 4174.872, 4191.282, 4212.308, 0, 0, []
1627665990.6239, 25, 0, 4220.513, 4189.744, 4147.179, 4163.077, 4185.641, 0, 0, []
1627665990.6318, 26, 0, 4184.615, 4165.128, 4118.462, 4126.667, 4146.154, 0, 0, []
1627665990.6396, 27, 0, 4181.026, 4150.256, 4116.41, 4112.821, 4142.564, 0, 0, []
1627665990.6475, 28, 0, 4214.359, 4163.59, 4146.667, 4142.051, 4181.538, 0, 0, []
1627665990.6553, 29, 0, 4220.513, 4169.744, 4155.897, 4159.487, 4191.282, 0, 0, []
1627665990.6631, 30, 0, 4207.179, 4170.256, 4147.179, 4149.744, 4174.872, 0, 0, []
1627665990.6709, 31, 0, 4220.513, 4192.308, 4164.615, 4158.462, 4185.641, 0, 0, []
1627665990.6788, 32, 0, 4220, 4196.923, 4170.769, 4163.59, 4190.256, 0, 0, []
