1628360593.8748, 93, 0, 4331.282, 4203.077, 4101.538, 4116.41, 4286.667, 450, 0, []
1628360593.8827, 94, 0, 4373.846, 4180.513, 4105.641, 4120, 4311.282, 450, 0, []
Timestamp, COUNTER, INTERPOLATED, AF3, T7, Pz, T8, AF4, RAW_CQ, MARKER_HARDWARE, MARKERS
1628360593.8905, 95, 0, 4441.026, 4202.051, 4124.615, 4137.436, 4353.846, 16190, 0, []
1628360593.8983, 96, 0, 4457.949, 4207.692, 4110.769, 4122.564, 4368.205, 450, 0, []
1628360593.9061, 97, 0, 4441.026, 4189.744, 4100, 4100.513, 4356.41, 450, 0, []
1628360593.9141, 98, 0, 4448.205, 4202.051, 4103.077, 4117.436, 4361.538, 450, 0, []
1628360593.922, 99, 0, 4462.564, 4224.615, 4109.744, 4148.205, 4377.949, 16190, 0, []
1628360593.93, 100, 0, 4431.795, 4203.59, 4095.897, 4139.487, 4356.41, 450, 0, []
1628360593.9378, 101, 0, 4392.821, 4181.538, 4084.615, 4128.718, 4326.154, 450, 0, []
1628360593.9458, 102, 0, 4385.641, 4191.795, 4114.359, 4145.128, 4321.538, 450, 0, []
1628360593.9537, 103, 0, 4374.359, 4192.821, 4123.077, 4145.128, 4310.769, 16190, 0, []
1628360593.9617, 104, 0, 4340.513, 4178.974, 4106.667, 4126.667, 4281.538, 450, 0, []
1628360593.9696, 105, 0, 4319.487, 4190.256, 4112.308, 4126.154, 4262.564, 450, 0, []
1628360593.9773, 106, 0, 4333.333, 4210.769, 4133.333, 4149.744, 4272.821, 450, 0, []
1628360593.9852, 107, 0, 4338.462, 4206.154, 4146.154, 4161.538, 4278.974, 16190, 0, []
1628360593.993, 108, 0, 4305.128, 4188.718, 4120.513, 4141.538, 4251.282, 450, 0, []
1628360594.0009, 109, 0, 4270.256, 4185.641, 4093.333, 4118.462, 4220.513, 450, 0, []
1628360594.0087, 110, 0, 4286.667, 4207.179, 4113.333, 4136.923, 4236.923, 450, 0, []
1628360594.0165, 111, 0, 4318.462, 4223.077, 4124.103, 4168.718, 4268.205, 16190, 0, []
1628360594.0243, 112, 0, 4295.385, 4203.077, 4105.128, 4148.718, 4245.641, 450, 0, []
1628360594.0322, 113, 0, 4266.154, 4183.077, 4100.513, 4122.051, 4217.436, 450, 0, []
1628360594.04, 114, 0, 4260.513, 4185.641, 4117.436, 4128.718, 4224.103, 450, 0, []
1628360594.0479, 115, 0, 4237.949, 4177.949, 4118.974, 4117.436, 4212.308, 16190, 0, []
1628360594.0556, 116, 0, 4225.641, 4166.667, 4102.564, 4103.077, 4192.821, 450, 0, []
1628360594.0636, 117, 0, 4245.641, 4181.026, 4117.949, 4124.615, 4207.692, 450, 0, []
1628360594.0715, 118, 0, 4237.436, 4191.795, 4123.59, 4134.359, 4213.846, 450, 0, []
1628360594.0795, 119, 0, 4192.308, 4167.179, 4096.41, 4102.564, 4171.795, 16190, 0, []
1628360594.0874, 120, 0, 4184.103, 4154.872, 4103.59, 4098.462, 4156.923, 450, 0, []
1628360594.0954, 121, 0, 4213.846, 4182.051, 4125.128, 4128.205, 4194.359, 450, 0, []
1628360594.1032, 122, 0, 4212.821, 4193.846, 4127.692, 4117.949, 4192.821, 450, 0, []
1628360594.1112, 123, 0, 4190.769, 4177.436, 4114.872, 4090.769, 4158.974, 16190, 0, []
1628360594.1191, 124, 0, 4183.077, 4163.59, 4098.974, 4090.256, 4155.385, 450, 0, []
1628360594.1271, 125, 0, 4177.436, 4151.795, 4096.923, 4089.231, 4155.897, 450, 0, []
1628360594.135, 126, 0, 4172.821, 4147.179, 4097.436, 4093.846, 4146.667, 450, 0, []
1628360594.1427, 127, 0, 4190.769, 4166.667, 4118.974, 4127.692, 4170.769, 16190, 0, []
1628360594.1506, 128, 0, 4204.103, 4173.846, 4128.718, 4140, 4188.205, 450, 0, []
1628360594.1584, 0, 0, 4190.256, 4165.641, 4112.308, 4113.846, 4163.59, 450, 0, []
1628360594.1663, 1, 0, 4178.462, 4164.615, 4117.949, 4109.744, 4155.385, 450, 0, []
1628360594.1741, 2, 0, 4169.231, 4152.821, 4110.256, 4112.821, 4162.051, 16184, 0, []
1628360594.1819, 3, 0, 4157.436, 4141.538, 4091.282, 4096.41, 4144.615, 450, 0, []
1628360594.1897, 4, 0, 4153.333, 4146.667, 4090.769, 4086.154, 4125.128, 16179, 0, []
1628360594.1976, 5, 0, 4150.769, 4146.154, 4089.231, 4084.103, 4129.231, 450, 0, []
1628360594.2054, 6, 0, 4150.256, 4140, 4094.872, 4089.231, 4136.41, 274, 0, []
1628360594.2134, 7, 0, 4149.744, 4134.359, 4089.744, 4088.205, 4127.179, 450, 0, []
1628360594.2212, 8, 0, 4144.103, 4135.385, 4089.231, 4077.436, 4119.487, 450, 0, []
1628360594.2292, 9, 0, 4155.897, 4155.385, 4111.795, 4097.949, 4136.923, 16174, 0, []
1628360594.2371, 10, 0, 4151.795, 4151.282, 4103.077, 4112.821, 4137.949, 450, 0, []
1628360594.2451, 11, 0, 4105.641, 4120, 4077.436, 4070.256, 4087.179, 16192, 0, []
1628360594.253, 12, 0, 4096.923, 4124.103, 4080, 4051.795, 4071.795, 450, 0, []
1628360594.2609, 13, 0, 4137.436, 4143.077, 4109.744, 4090.256, 4117.949, 450, 0, []
1628360594.2688, 14, 0, 4145.128, 4142.051, 4131.282, 4104.615, 4134.872, 450, 0, []
1628360594.2768, 15, 0, 4134.872, 4149.744, 4124.103, 4097.436, 4120, 16192, 0, []
1628360594.2847, 16, 0, 4143.077, 4156.923, 4113.846, 4100, 4114.872, 0, 0, []
1628360594.2926, 17, 0, 4120.513, 4131.282, 4089.744, 4083.077, 4090.769, 0, 0, []
1628360594.3005, 18, 0, 4078.974, 4115.897, 4075.385, 4058.462, 4055.385, 0, 0, []
1628360594.3082, 19, 0, 4083.59, 4141.538, 4091.795, 4065.128, 4059.487, 0, 0, []
1628360594.3161, 20, 0, 4112.821, 4161.026, 4101.026, 4081.026, 4084.103, 0, 0, []
1628360594.3239, 21, 0, 4109.231, 4144.103, 4095.897, 4070.256, 4074.872, 0, 0, []
1628360594.3318, 22, 0, 4104.103, 4128.718, 4089.744, 4066.667, 4072.821, 0, 0, []
1628360594.3396, 23, 0, 4133.333, 4144.103, 4107.179, 4100, 4108.205, 0, 0, []
1628360594.3474, 24, 0, 4141.026, 4157.436, 4122.564, 4113.846, 4111.795, 0, 0, []
1628360594.3552, 25, 0, 4127.692, 4156.41, 4107.179, 4099.487, 4094.872, 0, 0, []
1628360594.3631, 26, 0, 4122.564, 4147.692, 4101.538, 4092.308, 4097.436, 0, 0, []
1628360594.3709, 27, 0, 4113.333, 4142.564, 4100.513, 4082.051, 4095.897, 0, 0, []
1628360594.3789, 28, 0, 4114.872, 4154.359, 4101.026, 4078.974, 4097.436, 0, 0, []
1628360594.3867, 29, 0, 4124.615, 4146.667, 4109.744, 4090.769, 4104.615, 0, 0, []
1628360594.3946, 30, 0, 4110.256, 4118.462, 4090.769, 4088.205, 4094.872, 0, 0, []
1628360594.4025, 31, 0, 4091.795, 4123.077, 4073.846, 4069.231, 4078.974, 0, 0, []
1628360594.4103, 32, 0, 4096.923, 4135.385, 4074.359, 4053.333, 4071.282, 0, 0, []
1628360594.4183, 33, 0, 4103.59, 4124.615, 4073.846, 4047.179, 4065.641, 0, 0, []
1628360594.4261, 34, 0, 4120.513, 4134.359, 4097.436, 4070.256, 4085.128, 0, 0, []
1628360594.434, 35, 0, 4142.051, 4157.436, 4100.513, 4101.538, 4117.436, 0, 0, []
1628360594.442, 36, 0, 4133.846, 4147.692, 4081.026, 4097.436, 4114.872, 0, 0, []
1628360594.4499, 37, 0, 4118.974, 4124.615, 4080.513, 4080.513, 4091.282, 0, 0, []
1628360594.4577, 38, 0, 4123.59, 4125.641, 4089.744, 4089.744, 4090.256, 0, 0, []
1628360594.4655, 39, 0, 4138.462, 4145.128, 4102.564, 4110.769, 4112.308, 0, 0, []
1628360594.4733, 40, 0, 4141.538, 4146.154, 4093.333, 4105.128, 4120, 0, 0, []
1628360594.4812, 41, 0, 4120.513, 4124.615, 4074.872, 4070.769, 4093.333, 0, 0, []
1628360594.489, 42, 0, 4104.615, 4121.026, 4081.538, 4057.436, 4073.846, 0, 0, []
1628360594.4969, 43, 0, 4120, 4121.538, 4099.487, 4076.41, 4092.821, 0, 0, []
1628360594.5047, 44, 0, 4134.359, 4109.744, 4110.256, 4088.718, 4113.333, 0, 0, []
1628360594.5125, 45, 0, 4129.744, 4123.59, 4095.385, 4087.692, 4112.308, 0, 0, []
1628360594.5203, 46, 0, 4118.462, 4135.897, 4083.077, 4075.385, 4090.769, 0, 0, []
1628360594.5283, 47, 0, 4111.282, 4130.256, 4088.718, 4065.128, 4076.41, 0, 0, []
1628360594.5362, 48, 0, 4123.077, 4146.154, 4088.205, 4073.846, 4096.41, 0, 0, []
1628360594.5442, 49, 0, 4136.923, 4157.436, 4091.795, 4080.513, 4114.359, 0, 0, []
1628360594.552, 50, 0, 4129.744, 4133.333, 4078.974, 4070.769, 4101.538, 0, 0, []
1628360594.56, 51, 0, 4119.487, 4110.256, 4058.462, 4065.128, 4092.821, 0, 0, []
1628360594.5679, 52, 0, 4121.026, 4108.718, 4063.077, 4067.692, 4104.615, 0, 0, []
1628360594.5759, 53, 0, 4121.538, 4117.949, 4066.154, 4067.692, 4106.154, 0, 0, []
1628360594.5838, 54, 0, 4123.59, 4134.872, 4066.154, 4070.256, 4094.872, 0, 0, []
1628360594.5917, 55, 0, 4133.846, 4140, 4064.615, 4080, 4097.436, 0, 0, []
1628360594.5996, 56, 0, 4150.769, 4129.231, 4069.744, 4093.846, 4121.538, 0, 0, []
1628360594.6076, 57, 0, 4151.282, 4121.538, 4074.872, 4094.359, 4127.692, 0, 0, []
1628360594.6155, 58, 0, 4120, 4118.462, 4049.744, 4063.077, 4094.872, 0, 0, []
1628360594.6233, 59, 0, 4109.744, 4126.667, 4054.359, 4055.897, 4080.513, 0, 0, []
1628360594.6311, 60, 0, 4143.077, 4140, 4087.692, 4092.308, 4115.385, 0, 0, []
1628360594.6389, 61, 0, 4155.385, 4136.923, 4084.615, 4104.615, 4139.487, 0, 0, []
1628360594.6468, 62, 0, 4127.179, 4128.205, 4070.256, 4081.538, 4113.333, 0, 0, []
1628360594.6546, 63, 0, 4121.026, 4143.077, 4066.667, 4077.436, 4089.231, 0, 0, []
1628360594.6625, 64, 0, 4130.256, 4153.846, 4062.564, 4082.051, 4091.282, 450, 0, []
1628360594.6702, 65, 0, 4122.051, 4141.538, 4053.846, 4068.718, 4096.923, 450, 0, []
1628360594.6782, 66, 0, 4118.974, 4145.128, 4057.949, 4066.154, 4105.128, 16184, 0, []
1628360594.6861, 67, 0, 4114.872, 4158.974, 4070.769, 4065.641, 4100, 450, 0, []
1628360594.6941, 68, 0, 4111.282, 4155.897, 4068.205, 4062.564, 4094.359, 16177, 0, []
1628360594.702, 69, 0, 4128.718, 4157.949, 4081.538, 4080.513, 4118.462, 450, 0, []
1628360594.71, 70, 0, 4145.128, 4175.385, 4101.026, 4091.282, 4136.41, 274, 0, []
1628360594.7178, 71, 0, 4137.949, 4176.923, 4089.744, 4082.564, 4122.051, 450, 0, []
1628360594.7258, 72, 0, 4127.692, 4148.718, 4070.769, 4078.974, 4107.179, 450, 0, []
1628360594.7337, 73, 0, 4101.026, 4109.231, 4036.923, 4052.308, 4088.718, 16171, 0, []
1628360594.7417, 74, 0, 4078.974, 4109.744, 4033.333, 4023.59, 4072.308, 450, 0, []
1628360594.7496, 75, 0, 4136.41, 4165.128, 4091.795, 4078.462, 4117.436, 16190, 0, []
1628360594.7575, 76, 0, 4201.026, 4203.077, 4115.897, 4144.615, 4170.769, 450, 0, []
1628360594.7654, 77, 0, 4168.205, 4183.077, 4076.41, 4109.744, 4140, 450, 0, []
1628360594.7732, 78, 0, 4120, 4167.179, 4041.538, 4063.59, 4096.923, 450, 0, []
1628360594.7811, 79, 0, 4138.974, 4191.795, 4064.615, 4094.872, 4117.436, 16190, 0, []
1628360594.7889, 80, 0, 4163.59, 4203.077, 4092.821, 4121.538, 4146.154, 450, 0, []
1628360594.7967, 81, 0, 4154.359, 4177.436, 4072.308, 4092.821, 4137.949, 450, 0, []
1628360594.8045, 82, 0, 4145.128, 4166.667, 4070.256, 4073.846, 4121.026, 450, 0, []
1628360594.8124, 83, 0, 4142.564, 4172.308, 4078.462, 4081.538, 4110.769, 16190, 0, []
1628360594.8202, 84, 0, 4136.923, 4159.487, 4066.667, 4084.615, 4105.128, 450, 0, []
1628360594.8281, 85, 0, 4134.872, 4153.846, 4066.667, 4084.615, 4108.718, 450, 0, []
1628360594.8358, 86, 0, 4147.179, 4177.436, 4071.282, 4092.308, 4123.077, 450, 0, []
1628360594.8437, 87, 0, 4163.077, 4189.231, 4080.513, 4097.436, 4131.282, 16190, 0, []
1628360594.8515, 88, 0, 4157.949, 4187.692, 4078.974, 4094.359, 4126.667, 450, 0, []
1628360594.8595, 89, 0, 4130.769, 4184.615, 4061.538, 4083.077, 4112.308, 450, 0, []
1628360594.8674, 90, 0, 4117.436, 4176.41, 4063.59, 4068.718, 4086.667, 450, 0, []
1628360594.8753, 91, 0, 4127.179, 4170.256, 4072.308, 4074.359, 4077.949, 16190, 0, []
1628360594.8832, 92, 0, 4145.641, 4176.923, 4086.667, 4096.41, 4108.718, 450, 0, []
1628360594.8912, 93, 0, 4180, 4196.41, 4094.872, 4106.667, 4159.487, 450, 0, []
1628360594.8991, 94, 0, 4222.051, 4207.692, 4085.128, 4104.103, 4202.564, 450, 0, []
1628360594.9071, 95, 0, 4251.282, 4194.872, 4081.026, 4091.282, 4232.821, 16190, 0, []
1628360594.9149, 96, 0, 4311.282, 4189.231, 4091.795, 4092.821, 4287.692, 450, 0, []
1628360594.9227, 97, 0, 4409.231, 4210.769, 4121.026, 4129.231, 4369.231, 450, 0, []
1628360594.9306, 98, 0, 4467.179, 4223.077, 4129.231, 4161.538, 4425.641, 450, 0, []
1628360594.9384, 99, 0, 4469.744, 4211.795, 4106.154, 4149.231, 4436.923, 16190, 0, []
1628360594.9463, 100, 0, 4462.564, 4207.179, 4109.231, 4135.897, 4435.385, 450, 0, []
1628360594.9541, 101, 0, 4456.923, 4217.949, 4113.846, 4147.692, 4442.051, 450, 0, []
1628360594.9619, 102, 0, 4424.103, 4220.513, 4103.077, 4142.564, 4435.897, 450, 0, []
1628360594.9697, 103, 0, 4372.308, 4199.487, 4095.385, 4131.795, 4409.231, 16190, 0, []
1628360594.9776, 104, 0, 4343.59, 4190.769, 4094.872, 4150.256, 4397.949, 450, 0, []
1628360594.9854, 105, 0, 4324.615, 4200, 4112.308, 4165.128, 4394.872, 450, 0, []
1628360594.9934, 106, 0, 4274.872, 4172.308, 4102.564, 4138.462, 4357.949, 450, 0, []
1628360595.0012, 107, 0, 4271.795, 4165.128, 4111.795, 4148.205, 4356.41, 16190, 0, []
1628360595.0092, 108, 0, 4339.487, 4231.795, 4165.128, 4229.231, 4422.564, 450, 0, []
1628360595.0171, 109, 0, 4331.795, 4256.923, 4158.462, 4251.795, 4420, 450, 0, []
1628360595.0251, 110, 0, 4251.282, 4215.385, 4120, 4189.744, 4337.949, 450, 0, []
1628360595.033, 111, 0, 4229.231, 4207.179, 4114.359, 4167.179, 4310.769, 16190, 0, []
1628360595.0409, 112, 0, 4234.359, 4213.846, 4120, 4177.949, 4315.385, 450, 0, []
1628360595.0488, 113, 0, 4205.641, 4189.231, 4112.821, 4156.41, 4280.513, 450, 0, []
1628360595.0568, 114, 0, 4193.846, 4179.487, 4097.436, 4148.205, 4261.538, 450, 0, []
1628360595.0647, 115, 0, 4193.846, 4185.641, 4098.462, 4155.897, 4259.487, 16190, 0, []
1628360595.0727, 116, 0, 4178.462, 4184.615, 4095.385, 4134.872, 4241.026, 450, 0, []
1628360595.0805, 117, 0, 4183.59, 4183.077, 4098.462, 4127.692, 4237.436, 450, 0, []
1628360595.0883, 118, 0, 4209.744, 4182.564, 4129.744, 4164.615, 4261.026, 450, 0, []
1628360595.0962, 119, 0, 4231.795, 4198.462, 4152.821, 4207.692, 4286.667, 16190, 0, []
1628360595.104, 120, 0, 4233.333, 4220.513, 4158.974, 4221.538, 4286.154, 450, 0, []
1628360595.1119, 121, 0, 4214.872, 4218.462, 4130.769, 4197.949, 4266.154, 450, 0, []
1628360595.1196, 122, 0, 4197.949, 4205.641, 4083.077, 4155.385, 4244.103, 450, 0, []
1628360595.1275, 123, 0, 4194.359, 4197.436, 4072.308, 4140.513, 4234.872, 16190, 0, []
1628360595.1353, 124, 0, 4193.846, 4186.154, 4080, 4153.333, 4241.026, 450, 0, []
1628360595.1432, 125, 0, 4186.154, 4181.538, 4094.359, 4158.462, 4234.359, 450, 0, []
1628360595.151, 126, 0, 4173.333, 4190.256, 4089.231, 4154.872, 4204.615, 450, 0, []
1628360595.159, 127, 0, 4151.282, 4176.923, 4061.538, 4141.026, 4177.949, 16190, 0, []
1628360595.1668, 128, 0, 4158.462, 4163.077, 4084.615, 4138.462, 4193.846, 450, 0, []
1628360595.1748, 0, 0, 4195.897, 4175.385, 4108.718, 4150.769, 4223.59, 450, 0, []
1628360595.1827, 1, 0, 4206.667, 4188.205, 4098.974, 4148.718, 4215.897, 450, 0, []
1628360595.1907, 2, 0, 4189.744, 4192.308, 4094.872, 4145.641, 4192.821, 16182, 0, []
1628360595.1986, 3, 0, 4166.154, 4188.205, 4074.359, 4147.692, 4171.282, 450, 0, []
1628360595.2065, 4, 0, 4149.231, 4167.692, 4048.205, 4138.974, 4147.692, 16180, 0, []
1628360595.2144, 5, 0, 4155.897, 4147.692, 4037.949, 4131.795, 4148.718, 450, 0, []
1628360595.2224, 6, 0, 4168.205, 4156.923, 4057.949, 4143.077, 4165.128, 276, 0, []
1628360595.2303, 7, 0, 4146.667, 4156.923, 4065.641, 4129.231, 4145.128, 450, 0, []
1628360595.2381, 8, 0, 4114.359, 4128.718, 4042.051, 4085.128, 4109.231, 450, 0, []
1628360595.2459, 9, 0, 4137.949, 4138.974, 4067.692, 4090.769, 4130.256, 16172, 0, []
1628360595.2537, 10, 0, 4188.205, 4183.077, 4119.487, 4137.436, 4180, 450, 0, []
1628360595.2616, 11, 0, 4181.026, 4183.59, 4132.821, 4137.949, 4164.103, 16188, 0, []
1628360595.2694, 12, 0, 4130.256, 4148.718, 4110.769, 4103.59, 4110.769, 450, 0, []
1628360595.2773, 13, 0, 4123.59, 4145.128, 4112.821, 4110.769, 4108.718, 450, 0, []
1628360595.285, 14, 0, 4154.359, 4167.692, 4154.359, 4132.308, 4129.231, 450, 0, []
1628360595.2929, 15, 0, 4149.744, 4173.333, 4151.795, 4117.949, 4116.923, 16188, 0, []
1628360595.3007, 16, 0, 4143.077, 4163.59, 4152.821, 4125.641, 4120.513, 0, 0, []
1628360595.3086, 17, 0, 4156.41, 4158.462, 4148.718, 4143.59, 4140.513, 0, 0, []
1628360595.3164, 18, 0, 4151.282, 4160.513, 4093.846, 4127.692, 4130.256, 0, 0, []
1628360595.3243, 19, 0, 4165.641, 4177.949, 4094.359, 4143.077, 4148.205, 0, 0, []
1628360595.3322, 20, 0, 4183.077, 4186.154, 4118.462, 4172.308, 4171.282, 0, 0, []
1628360595.3402, 21, 0, 4146.667, 4156.923, 4111.795, 4136.923, 4126.154, 0, 0, []
1628360595.3481, 22, 0, 4125.641, 4138.462, 4112.821, 4113.333, 4094.359, 0, 0, []
1628360595.3561, 23, 0, 4166.667, 4158.974, 4126.667, 4154.872, 4140.513, 0, 0, []
1628360595.364, 24, 0, 4172.821, 4160, 4129.744, 4161.026, 4151.795, 0, 0, []
1628360595.3719, 25, 0, 4124.103, 4130.769, 4088.718, 4115.897, 4097.436, 0, 0, []
1628360595.3798, 26, 0, 4118.974, 4134.359, 4069.231, 4113.333, 4090.769, 0, 0, []
1628360595.3876, 27, 0, 4158.974, 4163.59, 4104.615, 4155.897, 4132.821, 0, 0, []
1628360595.3955, 28, 0, 4187.692, 4173.846, 4125.128, 4185.641, 4158.974, 0, 0, []
1628360595.4033, 29, 0, 4173.846, 4161.538, 4113.333, 4169.231, 4143.077, 0, 0, []
1628360595.4111, 30, 0, 4148.205, 4136.41, 4092.821, 4136.923, 4118.974, 0, 0, []
1628360595.4189, 31, 0, 4148.718, 4120.513, 4096.41, 4129.744, 4119.487, 0, 0, []
1628360595.4268, 32, 0, 4152.308, 4127.179, 4109.744, 4131.795, 4121.026, 0, 0, []
1628360595.4346, 33, 0, 4137.949, 4133.333, 4091.282, 4133.333, 4117.436, 0, 0, []
1628360595.4425, 34, 0, 4125.641, 4127.692, 4090.256, 4137.436, 4117.436, 0, 0, []
1628360595.4502, 35, 0, 4146.667, 4131.282, 4107.692, 4141.026, 4123.59, 0, 0, []
1628360595.4582, 36, 0, 4169.744, 4141.026, 4102.564, 4138.974, 4126.154, 0, 0, []
1628360595.4661, 37, 0, 4171.282, 4142.051, 4108.718, 4135.385, 4136.41, 0, 0, []
1628360595.4741, 38, 0, 4184.615, 4149.744, 4124.103, 4144.103, 4164.615, 0, 0, []
1628360595.482, 39, 0, 4204.615, 4156.923, 4134.359, 4158.974, 4178.462, 0, 0, []
1628360595.4899, 40, 0, 4186.667, 4145.128, 4114.872, 4148.718, 4161.026, 0, 0, []
1628360595.4978, 41, 0, 4152.821, 4136.923, 4085.128, 4121.538, 4135.897, 0, 0, []
1628360595.5058, 42, 0, 4150.256, 4145.641, 4089.744, 4110.256, 4124.615, 0, 0, []
1628360595.5137, 43, 0, 4151.795, 4149.744, 4088.205, 4108.718, 4121.026, 0, 0, []
1628360595.5217, 44, 0, 4150.256, 4146.667, 4090.769, 4112.821, 4134.872, 0, 0, []
1628360595.5295, 45, 0, 4176.41, 4158.974, 4109.231, 4127.179, 4162.564, 0, 0, []
1628360595.5373, 46, 0, 4207.692, 4174.872, 4114.872, 4142.051, 4176.41, 0, 0, []
1628360595.5452, 47, 0, 4203.077, 4170.256, 4115.385, 4147.179, 4177.436, 0, 0, []
1628360595.553, 48, 0, 4191.282, 4171.282, 4109.231, 4156.41, 4182.564, 0, 0, []
1628360595.5609, 49, 0, 4203.077, 4191.795, 4122.051, 4177.436, 4195.897, 0, 0, []
1628360595.5687, 50, 0, 4200, 4191.795, 4127.692, 4176.923, 4192.821, 0, 0, []
1628360595.5765, 51, 0, 4164.103, 4163.59, 4095.897, 4136.41, 4165.641, 0, 0, []
1628360595.5843, 52, 0, 4144.103, 4154.359, 4101.538, 4108.718, 4142.051, 0, 0, []
1628360595.5922, 53, 0, 4162.051, 4166.667, 4134.359, 4129.231, 4149.231, 0, 0, []
1628360595.6, 54, 0, 4171.282, 4171.795, 4137.436, 4143.077, 4164.103, 0, 0, []
1628360595.6079, 55, 0, 4151.282, 4163.077, 4121.026, 4124.103, 4149.231, 0, 0, []
1628360595.6156, 56, 0, 4145.641, 4161.026, 4116.923, 4126.154, 4138.974, 0, 0, []
1628360595.6236, 57, 0, 4166.667, 4175.897, 4141.026, 4155.385, 4163.077, 0, 0, []
1628360595.6315, 58, 0, 4177.949, 4191.282, 4139.487, 4165.128, 4177.949, 0, 0, []
1628360595.6395, 59, 0, 4172.308, 4189.744, 4120, 4151.795, 4163.077, 0, 0, []
1628360595.6474, 60, 0, 4166.154, 4171.282, 4119.487, 4141.026, 4143.077, 0, 0, []
1628360595.6553, 61, 0, 4167.179, 4171.795, 4116.923, 4143.59, 4145.641, 0, 0, []
1628360595.6632, 62, 0, 4167.179, 4185.641, 4110.769, 4149.744, 4153.846, 0, 0, []
1628360595.6712, 63, 0, 4158.974, 4175.385, 4095.385, 4147.692, 4143.077, 0, 0, []
1628360595.6791, 64, 0, 4164.615, 4173.846, 4100.513, 4161.026, 4149.231, 450, 0, []
1628360595.6871, 65, 0, 4173.846, 4191.282, 4121.026, 4180, 4167.692, 450, 0, []
1628360595.6949, 66, 0, 4152.821, 4179.487, 4094.359, 4151.282, 4141.538, 16182, 0, []
1628360595.7027, 67, 0, 4133.846, 4153.333, 4085.641, 4117.949, 4111.282, 450, 0, []
1628360595.7106, 68, 0, 4157.436, 4163.59, 4122.051, 4142.564, 4141.026, 16180, 0, []
1628360595.7184, 69, 0, 4187.179, 4188.205, 4135.385, 4171.795, 4170.256, 450, 0, []
1628360595.7263, 70, 0, 4183.59, 4186.154, 4129.744, 4163.077, 4152.308, 273, 0, []
1628360595.734, 71, 0, 4157.436, 4170.256, 4111.282, 4152.821, 4130.256, 450, 0, []
1628360595.7419, 72, 0, 4132.821, 4163.077, 4105.128, 4152.821, 4120, 450, 0, []
1628360595.7497, 73, 0, 4133.333, 4169.744, 4128.718, 4154.872, 4123.59, 16172, 0, []
1628360595.7576, 74, 0, 4150.256, 4170.256, 4136.923, 4157.949, 4136.923, 450, 0, []
1628360595.7654, 75, 0, 4146.667, 4165.128, 4125.128, 4149.231, 4136.41, 16188, 0, []
1628360595.7733, 76, 0, 4140, 4168.718, 4128.718, 4144.103, 4136.923, 450, 0, []
1628360595.781, 77, 0, 4146.154, 4167.179, 4149.231, 4150.769, 4141.026, 450, 0, []
1628360595.789, 78, 0, 4138.462, 4158.974, 4135.385, 4149.744, 4126.154, 450, 0, []
1628360595.7969, 79, 0, 4135.897, 4169.231, 4118.462, 4158.974, 4128.718, 16188, 0, []
1628360595.8049, 80, 0, 4151.795, 4173.846, 4140.513, 4180.513, 4146.154, 450, 0, []
1628360595.8128, 81, 0, 4138.974, 4145.641, 4127.692, 4164.615, 4123.077, 450, 0, []
1628360595.8207, 82, 0, 4129.744, 4138.462, 4122.051, 4153.846, 4113.846, 450, 0, []
1628360595.8286, 83, 0, 4171.282, 4170.256, 4166.154, 4189.231, 4161.026, 16188, 0, []
1628360595.8366, 84, 0, 4193.333, 4178.974, 4175.897, 4204.615, 4180.513, 450, 0, []
1628360595.8445, 85, 0, 4159.487, 4153.846, 4155.385, 4182.564, 4145.128, 450, 0, []
1628360595.8525, 86, 0, 4136.41, 4137.436, 4141.026, 4180.513, 4129.744, 450, 0, []
1628360595.8603, 87, 0, 4146.154, 4141.538, 4130.256, 4190.256, 4143.077, 16188, 0, []
1628360595.8683, 88, 0, 4156.41, 4145.641, 4117.949, 4181.538, 4138.974, 450, 0, []
1628360595.8762, 89, 0, 4153.333, 4141.538, 4098.462, 4162.564, 4129.744, 450, 0, []
1628360595.884, 90, 0, 4149.744, 4143.59, 4107.692, 4150.769, 4132.821, 450, 0, []
1628360595.8919, 91, 0, 4157.949, 4149.744, 4125.128, 4155.385, 4141.538, 16188, 0, []
1628360595.8996, 92, 0, 4154.359, 4138.974, 4116.41, 4161.026, 4138.974, 450, 0, []
1628360595.9075, 93, 0, 4145.641, 4133.333, 4112.821, 4168.718, 4140, 450, 0, []
1628360595.9153, 94, 0, 4173.333, 4153.846, 4140.513, 4198.974, 4168.718, 450, 0, []
1628360595.9233, 95, 0, 4196.41, 4161.026, 4180, 4220.513, 4180, 16188, 0, []
1628360595.9312, 96, 0, 4166.154, 4137.949, 4155.385, 4191.282, 4142.051, 450, 0, []
1628360595.9391, 97, 0, 4137.436, 4130.256, 4113.846, 4150.256, 4111.282, 450, 0, []
1628360595.947, 98, 0, 4156.41, 4145.641, 4141.538, 4143.59, 4123.59, 450, 0, []
1628360595.955, 99, 0, 4157.949, 4138.462, 4146.667, 4132.821, 4126.667, 16188, 0, []
1628360595.9629, 100, 0, 4134.359, 4121.026, 4127.692, 4120.513, 4111.282, 450, 0, []
1628360595.9709, 101, 0, 4161.538, 4144.615, 4144.103, 4162.051, 4135.897, 450, 0, []
1628360595.9788, 102, 0, 4206.667, 4170.256, 4150.769, 4216.923, 4176.923, 450, 0, []
1628360595.9867, 103, 0, 4212.308, 4157.949, 4143.077, 4226.154, 4190.769, 16188, 0, []
1628360595.9946, 104, 0, 4202.051, 4141.538, 4140.513, 4205.641, 4183.59, 450, 0, []
1628360596.0024, 105, 0, 4188.205, 4145.128, 4135.897, 4171.795, 4163.59, 450, 0, []
1628360596.0103, 106, 0, 4183.077, 4156.923, 4136.41, 4151.282, 4155.385, 450, 0, []
1628360596.0181, 107, 0, 4214.872, 4174.872, 4155.897, 4173.333, 4183.077, 16188, 0, []
1628360596.0259, 108, 0, 4227.692, 4176.41, 4155.385, 4186.667, 4195.385, 450, 0, []
1628360596.0337, 109, 0, 4189.231, 4145.641, 4121.538, 4160.513, 4164.615, 450, 0, []
1628360596.0416, 110, 0, 4176.41, 4141.538, 4147.179, 4158.974, 4152.821, 450, 0, []
1628360596.0494, 111, 0, 4206.154, 4170.769, 4192.308, 4196.41, 4178.462, 16188, 0, []
1628360596.0573, 112, 0, 4211.282, 4167.692, 4164.615, 4201.026, 4186.667, 450, 0, []
1628360596.065, 113, 0, 4175.897, 4135.897, 4137.436, 4150.256, 4149.744, 450, 0, []
1628360596.0729, 114, 0, 4165.128, 4141.538, 4155.897, 4131.282, 4131.795, 450, 0, []
1628360596.0807, 115, 0, 4203.59, 4174.359, 4179.487, 4180, 4175.897, 16188, 0, []
1628360596.0887, 116, 0, 4209.744, 4160.513, 4149.231, 4181.026, 4189.231, 450, 0, []
1628360596.0966, 117, 0, 4170.256, 4125.641, 4101.026, 4121.538, 4141.026, 450, 0, []
1628360596.1045, 118, 0, 4165.641, 4128.718, 4116.923, 4121.538, 4129.744, 450, 0, []
1628360596.1124, 119, 0, 4207.179, 4157.949, 4145.128, 4171.795, 4173.846, 16188, 0, []
1628360596.1204, 120, 0, 4225.641, 4173.333, 4146.154, 4183.077, 4193.333, 450, 0, []
1628360596.1283, 121, 0, 4207.692, 4162.564, 4132.821, 4158.462, 4177.436, 450, 0, []
1628360596.1363, 122, 0, 4205.128, 4152.308, 4125.128, 4151.282, 4175.897, 450, 0, []
1628360596.1441, 123, 0, 4220, 4153.333, 4145.128, 4165.641, 4180.513, 16188, 0, []
1628360596.1521, 124, 0, 4205.128, 4145.641, 4114.359, 4155.385, 4162.051, 450, 0, []
1628360596.16, 125, 0, 4182.051, 4132.821, 4064.103, 4130.769, 4147.692, 450, 0, []
1628360596.1678, 126, 0, 4208.718, 4143.077, 4095.385, 4154.872, 4172.821, 450, 0, []
1628360596.1757, 127, 0, 4232.821, 4159.487, 4124.103, 4183.077, 4189.231, 16188, 0, []
1628360596.1835, 128, 0, 4202.051, 4137.436, 4101.026, 4151.282, 4158.462, 450, 0, []
1628360596.1913, 0, 0, 4189.231, 4118.462, 4091.795, 4126.667, 4143.59, 450, 0, []
1628360596.1991, 1, 0, 4214.872, 4129.744, 4114.359, 4145.641, 4167.692, 450, 0, []
1628360596.207, 2, 0, 4211.282, 4129.231, 4121.538, 4137.436, 4164.615, 16187, 0, []
1628360596.2148, 3, 0, 4202.564, 4127.179, 4095.385, 4123.077, 4153.846, 450, 0, []
1628360596.2227, 4, 0, 4215.385, 4146.154, 4085.641, 4146.154, 4167.179, 16177, 0, []
1628360596.2304, 5, 0, 4209.744, 4150.769, 4078.462, 4158.974, 4164.615, 450, 0, []
1628360596.2384, 6, 0, 4198.462, 4133.333, 4071.282, 4146.667, 4153.333, 273, 0, []
1628360596.2463, 7, 0, 4225.128, 4138.462, 4092.308, 4151.795, 4179.487, 450, 0, []
1628360596.2543, 8, 0, 4266.667, 4164.615, 4103.59, 4166.667, 4218.462, 450, 0, []
1628360596.2622, 9, 0, 4272.821, 4165.128, 4110.256, 4147.692, 4212.308, 16172, 0, []
1628360596.2701, 10, 0, 4288.205, 4158.974, 4130.769, 4130.769, 4215.385, 450, 0, []
1628360596.278, 11, 0, 4340.513, 4170.769, 4134.359, 4147.692, 4271.795, 16188, 0, []
1628360596.286, 12, 0, 4371.282, 4172.308, 4126.667, 4154.872, 4309.744, 450, 0, []
1628360596.2939, 13, 0, 4382.051, 4161.538, 4123.077, 4154.359, 4317.436, 450, 0, []
1628360596.3019, 14, 0, 4394.872, 4166.667, 4138.462, 4166.154, 4326.154, 450, 0, []
1628360596.3097, 15, 0, 4389.744, 4169.744, 4144.615, 4167.692, 4314.359, 16188, 0, []
1628360596.3175, 16, 0, 4357.436, 4153.333, 4122.051, 4143.077, 4282.051, 0, 0, []
1628360596.3254, 17, 0, 4338.462, 4155.385, 4124.103, 4133.846, 4275.897, 0, 0, []
1628360596.3332, 18, 0, 4333.333, 4170.256, 4135.385, 4142.051, 4284.103, 0, 0, []
1628360596.3411, 19, 0, 4306.154, 4158.462, 4144.615, 4128.718, 4261.026, 0, 0, []
1628360596.3488, 20, 0, 4278.974, 4145.641, 4143.077, 4117.949, 4226.667, 0, 0, []
1628360596.3567, 21, 0, 4270.769, 4160, 4118.974, 4141.026, 4220.513, 0, 0, []
1628360596.3645, 22, 0, 4265.128, 4172.308, 4126.667, 4163.59, 4227.179, 0, 0, []
1628360596.3724, 23, 0, 4255.897, 4170.256, 4138.974, 4162.564, 4220, 0, 0, []
1628360596.3802, 24, 0, 4243.077, 4169.231, 4133.333, 4156.923, 4210.769, 0, 0, []
1628360596.3881, 25, 0, 4228.205, 4159.487, 4148.718, 4149.231, 4208.718, 0, 0, []
1628360596.396, 26, 0, 4220.513, 4128.718, 4166.667, 4134.359, 4205.128, 0, 0, []
1628360596.4039, 27, 0, 4219.487, 4110.256, 4156.923, 4128.205, 4202.051, 0, 0, []
1628360596.4117, 28, 0, 4189.744, 4107.179, 4105.128, 4108.718, 4174.872, 0, 0, []
1628360596.4197, 29, 0, 4155.385, 4107.692, 4079.487, 4085.128, 4135.897, 0, 0, []
1628360596.4276, 30, 0, 4170.769, 4128.205, 4122.051, 4105.128, 4149.744, 0, 0, []
1628360596.4355, 31, 0, 4200, 4156.923, 4160, 4142.051, 4189.231, 0, 0, []
1628360596.4434, 32, 0, 4201.026, 4164.615, 4169.744, 4152.308, 4194.359, 0, 0, []
1628360596.4514, 33, 0, 4193.846, 4166.667, 4161.026, 4145.641, 4188.718, 0, 0, []
1628360596.4593, 34, 0, 4203.077, 4184.615, 4173.333, 4147.179, 4206.667, 0, 0, []
1628360596.4673, 35, 0, 4201.026, 4184.615, 4185.128, 4131.282, 4199.487, 0, 0, []
1628360596.4751, 36, 0, 4181.026, 4165.128, 4155.385, 4098.974, 4161.026, 0, 0, []
1628360596.4829, 37, 0, 4182.051, 4170.769, 4152.821, 4105.641, 4160, 0, 0, []
1628360596.4908, 38, 0, 4190.769, 4184.615, 4164.103, 4132.821, 4181.026, 0, 0, []
1628360596.4986, 39, 0, 4186.154, 4184.615, 4169.231, 4141.026, 4178.974, 0, 0, []
1628360596.5065, 40, 0, 4187.179, 4183.59, 4181.026, 4140, 4172.821, 0, 0, []
1628360596.5142, 41, 0, 4189.744, 4172.821, 4178.462, 4131.282, 4175.897, 0, 0, []
1628360596.5221, 42, 0, 4178.974, 4152.821, 4200.513, 4109.744, 4163.59, 0, 0, []
1628360596.5299, 43, 0, 4187.692, 4162.051, 4228.718, 4120.513, 4168.718, 0, 0, []
1628360596.5378, 44, 0, 4212.308, 4179.487, 4224.615, 4149.744, 4206.154, 0, 0, []
1628360596.5456, 45, 0, 4198.462, 4168.718, 4228.718, 4135.385, 4198.974, 0, 0, []
1628360596.5534, 46, 0, 4176.41, 4162.051, 4234.872, 4113.333, 4166.667, 0, 0, []
1628360596.5612, 47, 0, 4178.462, 4174.359, 4237.949, 4117.949, 4172.308, 0, 0, []
1628360596.5692, 48, 0, 4178.974, 4177.949, 4253.846, 4112.308, 4185.641, 0, 0, []
1628360596.5771, 49, 0, 4153.333, 4151.795, 4246.154, 4074.359, 4152.308, 0, 0, []
1628360596.5851, 50, 0, 4132.821, 4129.231, 4225.128, 4050.256, 4117.949, 0, 0, []
1628360596.5929, 51, 0, 4175.897, 4163.59, 4249.744, 4096.923, 4164.615, 0, 0, []
1628360596.6009, 52, 0, 4221.538, 4197.949, 4285.128, 4132.821, 4211.795, 0, 0, []
1628360596.6088, 53, 0, 4197.949, 4175.897, 4254.359, 4091.795, 4176.923, 0, 0, []
1628360596.6168, 54, 0, 4187.692, 4175.897, 4234.359, 4078.462, 4166.667, 0, 0, []
1628360596.6247, 55, 0, 4222.564, 4207.692, 4281.026, 4115.385, 4206.154, 0, 0, []
1628360596.6325, 56, 0, 4218.462, 4195.897, 4267.179, 4101.538, 4201.538, 0, 0, []
1628360596.6403, 57, 0, 4173.333, 4170.256, 4201.026, 4061.538, 4161.538, 0, 0, []
1628360596.6481, 58, 0, 4142.564, 4164.103, 4187.692, 4047.692, 4131.282, 0, 0, []
1628360596.656, 59, 0, 4143.59, 4155.897, 4205.641, 4050.256, 4125.128, 0, 0, []
1628360596.6638, 60, 0, 4183.077, 4172.308, 4238.974, 4087.179, 4166.667, 0, 0, []
1628360596.6717, 61, 0, 4226.154, 4208.205, 4247.692, 4118.974, 4213.333, 0, 0, []
1628360596.6794, 62, 0, 4226.154, 4203.59, 4208.718, 4091.795, 4208.718, 0, 0, []
1628360596.6873, 63, 0, 4242.051, 4189.231, 4180.513, 4081.026, 4219.487, 0, 0, []
1628360596.6951, 64, 0, 4298.462, 4194.359, 4165.641, 4104.103, 4269.231, 450, 0, []
1628360596.7031, 65, 0, 4324.103, 4176.923, 4148.205, 4068.205, 4273.846, 450, 0, []
1628360596.711, 66, 0, 4348.205, 4157.949, 4127.692, 4030.256, 4272.308, 16187, 0, []
1628360596.7189, 67, 0, 4414.872, 4177.436, 4134.872, 4060.513, 4320.513, 450, 0, []
1628360596.7268, 68, 0, 4446.154, 4186.154, 4163.59, 4075.897, 4336.923, 16174, 0, []
1628360596.7348, 69, 0, 4428.718, 4171.282, 4183.077, 4055.897, 4310.256, 450, 0, []
1628360596.7427, 70, 0, 4438.462, 4188.205, 4223.077, 4071.282, 4318.462, 271, 0, []
1628360596.7507, 71, 0, 4441.538, 4213.333, 4221.538, 4091.795, 4331.282, 450, 0, []
1628360596.7585, 72, 0, 4383.077, 4194.359, 4148.205, 4062.051, 4284.615, 450, 0, []
1628360596.7665, 73, 0, 4338.974, 4167.179, 4103.59, 4038.974, 4245.128, 16172, 0, []
1628360596.7744, 74, 0, 4349.744, 4180.513, 4128.718, 4064.615, 4266.667, 450, 0, []
1628360596.7823, 75, 0, 4352.821, 4202.564, 4185.641, 4095.385, 4287.692, 16189, 0, []
1628360596.7902, 76, 0, 4325.641, 4190.256, 4199.487, 4094.359, 4265.128, 450, 0, []
1628360596.7979, 77, 0, 4293.333, 4165.641, 4172.308, 4072.308, 4232.308, 450, 0, []
1628360596.8058, 78, 0, 4277.436, 4173.333, 4168.718, 4067.692, 4221.026, 450, 0, []
1628360596.8136, 79, 0, 4276.923, 4194.872, 4164.103, 4089.744, 4227.692, 16189, 0, []
1628360596.8215, 80, 0, 4287.692, 4204.615, 4164.615, 4109.744, 4239.487, 450, 0, []
1628360596.8293, 81, 0, 4291.282, 4198.974, 4166.154, 4104.103, 4239.487, 450, 0, []
1628360596.8372, 82, 0, 4256.923, 4169.744, 4133.846, 4071.795, 4209.231, 450, 0, []
1628360596.8449, 83, 0, 4222.051, 4162.051, 4124.103, 4055.897, 4185.128, 16189, 0, []
1628360596.8529, 84, 0, 4232.308, 4195.897, 4141.538, 4076.41, 4198.974, 450, 0, []
1628360596.8608, 85, 0, 4245.128, 4199.487, 4149.744, 4086.667, 4207.179, 450, 0, []
1628360596.8688, 86, 0, 4224.615, 4172.821, 4131.282, 4069.744, 4186.154, 450, 0, []
1628360596.8767, 87, 0, 4219.487, 4186.667, 4128.718, 4075.385, 4180, 16189, 0, []
1628360596.8846, 88, 0, 4238.462, 4208.718, 4158.974, 4106.667, 4200.513, 450, 0, []
1628360596.8925, 89, 0, 4217.949, 4183.077, 4134.359, 4089.744, 4188.718, 450, 0, []
1628360596.9005, 90, 0, 4200.513, 4166.154, 4118.974, 4071.282, 4167.692, 450, 0, []
1628360596.9084, 91, 0, 4232.821, 4185.128, 4165.128, 4104.103, 4191.795, 16189, 0, []
1628360596.9164, 92, 0, 4238.462, 4186.667, 4168.718, 4102.051, 4201.026, 450, 0, []
1628360596.9242, 93, 0, 4211.282, 4177.436, 4163.077, 4072.821, 4171.282, 450, 0, []
1628360596.9322, 94, 0, 4234.359, 4198.974, 4227.692, 4108.205, 4186.154, 450, 0, []
1628360596.9401, 95, 0, 4260.513, 4202.564, 4282.564, 4137.436, 4215.385, 16189, 0, []
1628360596.9479, 96, 0, 4228.718, 4168.718, 4246.667, 4095.897, 4187.692, 450, 0, []
1628360596.9558, 97, 0, 4212.821, 4168.205, 4185.128, 4078.974, 4169.231, 450, 0, []
1628360596.9635, 98, 0, 4224.103, 4191.282, 4159.487, 4091.795, 4176.923, 450, 0, []
1628360596.9714, 99, 0, 4192.308, 4171.795, 4134.359, 4058.974, 4146.667, 16189, 0, []
1628360596.9792, 100, 0, 4175.897, 4158.462, 4141.538, 4048.718, 4139.487, 450, 0, []
1628360596.9871, 101, 0, 4227.692, 4207.692, 4182.564, 4109.231, 4195.897, 450, 0, []
1628360596.9949, 102, 0, 4251.282, 4229.744, 4177.949, 4138.462, 4216.41, 450, 0, []
1628360597.0027, 103, 0, 4216.41, 4191.282, 4178.462, 4108.205, 4179.487, 16189, 0, []
1628360597.0105, 104, 0, 4206.667, 4177.949, 4207.179, 4097.949, 4164.103, 450, 0, []
1628360597.0184, 105, 0, 4212.308, 4188.718, 4207.179, 4106.154, 4172.821, 450, 0, []
1628360597.0262, 106, 0, 4196.41, 4175.897, 4196.923, 4096.41, 4166.154, 450, 0, []
1628360597.0342, 107, 0, 4215.385, 4180.513, 4226.667, 4110.256, 4179.487, 16189, 0, []
1628360597.0421, 108, 0, 4264.615, 4216.923, 4284.615, 4153.846, 4220, 450, 0, []
1628360597.05, 109, 0, 4248.718, 4219.487, 4258.462, 4141.538, 4212.308, 450, 0, []
1628360597.0579, 110, 0, 4195.897, 4186.154, 4196.41, 4092.308, 4164.615, 450, 0, []
1628360597.0659, 111, 0, 4203.59, 4181.026, 4229.231, 4100.513, 4168.718, 16189, 0, []
1628360597.0738, 112, 0, 4246.154, 4210.769, 4264.103, 4148.205, 4215.385, 450, 0, []
1628360597.0818, 113, 0, 4234.359, 4217.949, 4226.667, 4150.256, 4202.051, 450, 0, []
1628360597.0896, 114, 0, 4202.564, 4195.385, 4175.897, 4121.538, 4162.051, 450, 0, []
1628360597.0976, 115, 0, 4218.462, 4197.949, 4162.564, 4123.077, 4175.897, 16189, 0, []
1628360597.1055, 116, 0, 4226.667, 4215.897, 4171.795, 4124.103, 4185.641, 450, 0, []
1628360597.1133, 117, 0, 4205.128, 4206.154, 4171.282, 4109.231, 4175.385, 450, 0, []
1628360597.1212, 118, 0, 4204.103, 4191.795, 4195.897, 4114.359, 4186.154, 450, 0, []
1628360597.1289, 119, 0, 4216.41, 4194.872, 4229.231, 4136.923, 4194.359, 16189, 0, []
1628360597.1368, 120, 0, 4224.103, 4206.154, 4239.487, 4168.205, 4204.103, 450, 0, []
1628360597.1446, 121, 0, 4215.385, 4206.154, 4219.487, 4174.872, 4204.615, 450, 0, []
1628360597.1525, 122, 0, 4193.846, 4199.487, 4166.667, 4144.615, 4178.462, 450, 0, []
1628360597.1603, 123, 0, 4190.256, 4212.821, 4152.308, 4118.462, 4169.231, 16189, 0, []
1628360597.1682, 124, 0, 4204.615, 4218.462, 4187.692, 4110.256, 4178.974, 450, 0, []
1628360597.1761, 125, 0, 4206.154, 4205.128, 4203.59, 4116.923, 4173.333, 450, 0, []
1628360597.1841, 126, 0, 4192.821, 4205.128, 4196.923, 4138.974, 4164.103, 450, 0, []
1628360597.192, 127, 0, 4166.667, 4203.59, 4167.179, 4140, 4150.769, 16189, 0, []
1628360597.2, 128, 0, 4137.436, 4185.641, 4153.846, 4116.923, 4128.205, 450, 0, []
1628360597.2078, 0, 0, 4153.333, 4194.872, 4188.205, 4131.282, 4151.282, 450, 0, []
1628360597.2158, 1, 0, 4186.154, 4212.821, 4191.795, 4144.615, 4185.128, 450, 0, []
1628360597.2237, 2, 0, 4187.179, 4205.641, 4170.769, 4113.846, 4168.718, 16189, 0, []
1628360597.2317, 3, 0, 4181.026, 4194.872, 4156.41, 4091.795, 4154.872, 450, 0, []
1628360597.2396, 4, 0, 4168.718, 4185.641, 4141.026, 4093.333, 4152.821, 16173, 0, []
1628360597.2476, 5, 0, 4163.59, 4196.41, 4155.897, 4122.051, 4151.282, 450, 0, []
1628360597.2554, 6, 0, 4177.436, 4224.103, 4175.897, 4165.128, 4162.564, 265, 0, []
1628360597.2632, 7, 0, 4159.487, 4208.205, 4155.385, 4149.744, 4145.128, 450, 0, []
1628360597.2711, 8, 0, 4124.615, 4182.564, 4130.769, 4102.564, 4114.359, 450, 0, []
1628360597.2789, 9, 0, 4135.385, 4200.513, 4149.231, 4103.077, 4123.59, 16171, 0, []
1628360597.2868, 10, 0, 4172.821, 4223.077, 4161.538, 4128.205, 4158.462, 450, 0, []
1628360597.2945, 11, 0, 4195.897, 4226.667, 4161.538, 4138.462, 4181.538, 16189, 0, []
1628360597.3024, 12, 0, 4181.538, 4205.128, 4200.513, 4121.538, 4160.513, 450, 0, []
1628360597.3102, 13, 0, 4150.256, 4179.487, 4207.179, 4102.051, 4128.205, 450, 0, []
1628360597.3181, 14, 0, 4164.103, 4207.692, 4201.026, 4136.923, 4150.256, 450, 0, []
1628360597.3259, 15, 0, 4201.026, 4248.205, 4245.641, 4185.641, 4183.077, 16189, 0, []
1628360597.3338, 16, 0, 4195.897, 4230.256, 4241.538, 4168.205, 4172.308, 0, 0, []
1628360597.3417, 17, 0, 4177.949, 4206.154, 4205.128, 4134.359, 4165.128, 0, 0, []
1628360597.3497, 18, 0, 4190.256, 4214.359, 4207.179, 4141.538, 4172.821, 0, 0, []
1628360597.3576, 19, 0, 4190.769, 4203.077, 4207.179, 4138.462, 4164.103, 0, 0, []
1628360597.3656, 20, 0, 4170.256, 4172.308, 4202.051, 4114.872, 4152.308, 0, 0, []
1628360597.3734, 21, 0, 4159.487, 4165.641, 4200.513, 4105.128, 4140.513, 0, 0, []
1628360597.3814, 22, 0, 4155.385, 4182.564, 4226.154, 4108.205, 4126.154, 0, 0, []
1628360597.3893, 23, 0, 4154.359, 4203.077, 4279.487, 4120.513, 4129.231, 0, 0, []
1628360597.3972, 24, 0, 4172.308, 4223.59, 4335.897, 4146.154, 4151.282, 0, 0, []
1628360597.4052, 25, 0, 4205.128, 4250.769, 4382.051, 4171.282, 4172.821, 0, 0, []
1628360597.4129, 26, 0, 4203.59, 4252.821, 4374.872, 4160, 4168.718, 0, 0, []
1628360597.4208, 27, 0, 4179.487, 4221.538, 4344.103, 4129.231, 4149.231, 0, 0, []
1628360597.4286, 28, 0, 4204.103, 4215.897, 4323.59, 4144.615, 4170.256, 0, 0, []
1628360597.4365, 29, 0, 4232.308, 4241.026, 4284.615, 4175.385, 4197.436, 0, 0, []
1628360597.4443, 30, 0, 4204.103, 4236.923, 4236.923, 4165.128, 4173.846, 0, 0, []
1628360597.4522, 31, 0, 4185.641, 4214.872, 4190.769, 4152.821, 4163.077, 0, 0, []
1628360597.4599, 32, 0, 4203.077, 4221.538, 4165.128, 4156.41, 4189.231, 0, 0, []
1628360597.4678, 33, 0, 4205.128, 4235.385, 4166.154, 4146.667, 4186.154, 0, 0, []
1628360597.4756, 34, 0, 4198.974, 4235.385, 4183.59, 4137.436, 4173.333, 0, 0, []
1628360597.4836, 35, 0, 4189.744, 4228.718, 4208.205, 4121.026, 4170.769, 0, 0, []
1628360597.4915, 36, 0, 4174.359, 4223.077, 4205.641, 4099.487, 4151.282, 0, 0, []
1628360597.4994, 37, 0, 4190.769, 4235.897, 4207.179, 4118.462, 4153.846, 0, 0, []
1628360597.5073, 38, 0, 4223.077, 4257.436, 4229.744, 4154.872, 4191.282, 0, 0, []
1628360597.5153, 39, 0, 4229.744, 4265.641, 4228.718, 4164.103, 4210.769, 0, 0, []
1628360597.5232, 40, 0, 4214.359, 4258.462, 4235.897, 4161.026, 4193.846, 0, 0, []
1628360597.5312, 41, 0, 4203.59, 4252.821, 4252.308, 4152.821, 4171.795, 0, 0, []
1628360597.539, 42, 0, 4202.051, 4246.667, 4260.513, 4137.949, 4164.615, 0, 0, []
1628360597.547, 43, 0, 4192.821, 4249.231, 4274.359, 4136.923, 4165.641, 0, 0, []
1628360597.5549, 44, 0, 4187.692, 4257.949, 4281.538, 4146.667, 4169.744, 0, 0, []
1628360597.5629, 45, 0, 4194.872, 4253.846, 4285.641, 4143.077, 4164.615, 0, 0, []
1628360597.5708, 46, 0, 4208.718, 4257.436, 4280.513, 4140.513, 4167.179, 0, 0, []
1628360597.5785, 47, 0, 4220, 4271.282, 4273.333, 4154.872, 4188.205, 0, 0, []
1628360597.5864, 48, 0, 4225.128, 4267.692, 4275.385, 4170.769, 4202.051, 0, 0, []
1628360597.5942, 49, 0, 4207.692, 4242.051, 4256.41, 4150.256, 4182.564, 0, 0, []
1628360597.6021, 50, 0, 4188.718, 4233.333, 4262.051, 4125.128, 4162.051, 0, 0, []
1628360597.6099, 51, 0, 4190.256, 4242.051, 4278.462, 4128.205, 4167.179, 0, 0, []
1628360597.6177, 52, 0, 4184.615, 4236.923, 4266.154, 4123.59, 4164.615, 0, 0, []
1628360597.6255, 53, 0, 4196.923, 4246.154, 4304.615, 4139.487, 4178.462, 0, 0, []
1628360597.6335, 54, 0, 4225.641, 4269.744, 4362.564, 4174.872, 4209.231, 0, 0, []
1628360597.6414, 55, 0, 4209.744, 4257.436, 4377.949, 4156.923, 4188.205, 0, 0, []
1628360597.6494, 56, 0, 4180.513, 4228.205, 4367.179, 4116.41, 4154.872, 0, 0, []
1628360597.6573, 57, 0, 4197.949, 4234.359, 4370.256, 4133.846, 4182.051, 0, 0, []
1628360597.6652, 58, 0, 4209.231, 4245.641, 4381.538, 4153.333, 4196.41, 0, 0, []
1628360597.6731, 59, 0, 4174.359, 4220.513, 4366.667, 4119.487, 4154.872, 0, 0, []
1628360597.6811, 60, 0, 4166.154, 4206.154, 4387.179, 4113.333, 4150.769, 0, 0, []
1628360597.689, 61, 0, 4198.974, 4219.487, 4411.795, 4149.231, 4180, 0, 0, []
1628360597.697, 62, 0, 4215.385, 4226.667, 4362.564, 4160.513, 4184.615, 0, 0, []
1628360597.7048, 63, 0, 4220.513, 4235.385, 4330.256, 4155.897, 4190.256, 0, 0, []
1628360597.7128, 64, 0, 4218.462, 4243.59, 4390.256, 4151.795, 4192.308, 450, 0, []
1628360597.7207, 65, 0, 4206.154, 4248.718, 4479.487, 4142.051, 4176.41, 450, 0, []
1628360597.7285, 66, 0, 4200.513, 4248.205, 4446.667, 4128.718, 4162.564, 16189, 0, []
1628360597.7364, 67, 0, 4200, 4235.385, 4309.231, 4120, 4161.026, 450, 0, []
1628360597.7441, 68, 0, 4205.128, 4234.872, 4233.846, 4128.718, 4171.795, 16173, 0, []
1628360597.752, 69, 0, 4227.179, 4251.282, 4214.872, 4151.282, 4193.846, 450, 0, []
1628360597.7598, 70, 0, 4245.128, 4262.051, 4194.872, 4164.103, 4209.231, 260, 0, []
1628360597.7677, 71, 0, 4224.615, 4260.513, 4193.333, 4146.154, 4190.769, 450, 0, []
1628360597.7755, 72, 0, 4206.667, 4265.641, 4201.026, 4130.256, 4169.231, 450, 0, []
1628360597.7833, 73, 0, 4222.564, 4265.128, 4205.641, 4137.949, 4173.846, 16169, 0, []
1628360597.7911, 74, 0, 4231.282, 4258.462, 4206.154, 4138.462, 4186.154, 450, 0, []
1628360597.799, 75, 0, 4225.641, 4266.154, 4215.385, 4137.436, 4197.436, 16189, 0, []
1628360597.8068, 76, 0, 4216.923, 4257.949, 4198.974, 4135.897, 4190.256, 450, 0, []
1628360597.8148, 77, 0, 4215.385, 4233.846, 4158.974, 4130.769, 4179.487, 450, 0, []
1628360597.8226, 78, 0, 4207.692, 4228.718, 4158.462, 4121.538, 4174.359, 450, 0, []
1628360597.8306, 79, 0, 4193.333, 4240.513, 4172.308, 4115.385, 4169.231, 16189, 0, []
1628360597.8385, 80, 0, 4203.59, 4252.308, 4191.282, 4124.615, 4173.846, 450, 0, []
1628360597.8465, 81, 0, 4225.641, 4261.026, 4230.769, 4137.949, 4189.231, 450, 0, []
1628360597.8544, 82, 0, 4222.051, 4258.462, 4232.308, 4139.487, 4195.385, 450, 0, []
1628360597.8623, 83, 0, 4210.769, 4254.359, 4231.795, 4143.59, 4188.205, 16189, 0, []
1628360597.8702, 84, 0, 4219.487, 4270.769, 4250.769, 4157.949, 4197.949, 450, 0, []
1628360597.878, 85, 0, 4208.718, 4264.615, 4224.103, 4133.333, 4190.256, 450, 0, []
1628360597.8859, 86, 0, 4182.051, 4233.846, 4199.487, 4095.897, 4154.359, 450, 0, []
1628360597.8937, 87, 0, 4179.487, 4234.359, 4206.667, 4097.949, 4148.205, 16189, 0, []
1628360597.9016, 88, 0, 4181.538, 4249.231, 4212.821, 4105.128, 4156.923, 450, 0, []
1628360597.9093, 89, 0, 4196.923, 4247.692, 4217.949, 4123.077, 4170.256, 450, 0, []
1628360597.9172, 90, 0, 4219.487, 4245.641, 4218.462, 4157.436, 4195.897, 450, 0, []
1628360597.925, 91, 0, 4197.436, 4238.974, 4193.333, 4151.282, 4185.128, 16189, 0, []
1628360597.9329, 92, 0, 4165.128, 4228.205, 4157.436, 4127.179, 4149.231, 450, 0, []
1628360597.9407, 93, 0, 4173.846, 4238.462, 4154.359, 4134.359, 4149.231, 450, 0, []
1628360597.9486, 94, 0, 4188.205, 4248.205, 4147.179, 4140, 4163.077, 450, 0, []
1628360597.9565, 95, 0, 4186.667, 4238.462, 4137.436, 4135.897, 4157.436, 16189, 0, []
1628360597.9645, 96, 0, 4182.564, 4224.615, 4172.821, 4141.538, 4152.821, 450, 0, []
1628360597.9724, 97, 0, 4162.051, 4203.077, 4183.59, 4123.077, 4138.974, 450, 0, []
1628360597.9804, 98, 0, 4150.256, 4194.359, 4187.179, 4107.179, 4123.077, 450, 0, []
1628360597.9882, 99, 0, 4174.359, 4220, 4236.41, 4131.795, 4142.051, 16189, 0, []
1628360597.9962, 100, 0, 4192.308, 4238.462, 4260.513, 4149.744, 4164.615, 450, 0, []
1628360598.0041, 101, 0, 4178.462, 4220.513, 4228.205, 4130.769, 4149.744, 450, 0, []
1628360598.0121, 102, 0, 4171.795, 4208.205, 4188.718, 4122.051, 4141.026, 450, 0, []
1628360598.02, 103, 0, 4165.128, 4213.846, 4189.744, 4127.692, 4145.641, 16189, 0, []
1628360598.0277, 104, 0, 4149.231, 4206.154, 4202.564, 4115.385, 4124.615, 450, 0, []
1628360598.0356, 105, 0, 4159.487, 4202.051, 4205.641, 4120.513, 4124.103, 450, 0, []
1628360598.0434, 106, 0, 4173.846, 4213.333, 4223.077, 4142.051, 4149.231, 450, 0, []
1628360598.0513, 107, 0, 4162.564, 4218.462, 4211.282, 4135.385, 4151.282, 16189, 0, []
1628360598.0591, 108, 0, 4142.051, 4203.59, 4190.256, 4105.641, 4133.333, 450, 0, []
1628360598.0669, 109, 0, 4138.974, 4192.308, 4217.949, 4093.846, 4130.256, 450, 0, []
1628360598.0747, 110, 0, 4152.821, 4209.744, 4240, 4103.59, 4138.974, 450, 0, []
1628360598.0826, 111, 0, 4154.359, 4219.487, 4233.846, 4109.231, 4125.641, 16189, 0, []
1628360598.0904, 112, 0, 4131.795, 4187.179, 4226.154, 4101.538, 4101.538, 450, 0, []
1628360598.0984, 113, 0, 4126.667, 4171.795, 4251.282, 4100, 4109.744, 450, 0, []
1628360598.1063, 114, 0, 4165.128, 4207.179, 4292.821, 4128.205, 4148.718, 450, 0, []
1628360598.1142, 115, 0, 4191.282, 4222.564, 4281.538, 4142.564, 4166.154, 16189, 0, []
1628360598.1221, 116, 0, 4176.923, 4207.179, 4267.692, 4117.436, 4151.282, 450, 0, []
1628360598.1301, 117, 0, 4156.923, 4212.308, 4270.256, 4094.359, 4135.385, 450, 0, []
1628360598.138, 118, 0, 4160, 4223.077, 4259.487, 4103.59, 4135.897, 450, 0, []
1628360598.146, 119, 0, 4171.795, 4217.949, 4257.436, 4130.256, 4150.256, 16189, 0, []
1628360598.1538, 120, 0, 4172.308, 4217.949, 4246.667, 4139.487, 4157.949, 450, 0, []
1628360598.1618, 121, 0, 4172.821, 4220, 4239.487, 4130.256, 4155.385, 450, 0, []
1628360598.1697, 122, 0, 4162.564, 4198.974, 4232.308, 4112.821, 4147.692, 450, 0, []
1628360598.1777, 123, 0, 4147.179, 4190.256, 4230.769, 4102.564, 4145.641, 16189, 0, []
1628360598.1856, 124, 0, 4160.513, 4216.41, 4250.769, 4118.462, 4158.974, 450, 0, []
1628360598.1933, 125, 0, 4171.795, 4217.436, 4235.385, 4121.538, 4160, 450, 0, []
1628360598.2012, 126, 0, 4160, 4198.462, 4241.538, 4107.179, 4148.205, 450, 0, []
1628360598.209, 127, 0, 4165.641, 4210.769, 4326.154, 4122.051, 4152.821, 16189, 0, []
1628360598.2169, 128, 0, 4181.026, 4221.538, 4386.154, 4145.128, 4163.077, 450, 0, []
1628360598.2247, 0, 0, 4168.718, 4203.077, 4358.974, 4130.256, 4155.385, 450, 0, []
1628360598.2325, 1, 0, 4149.231, 4186.154, 4285.128, 4101.026, 4134.359, 450, 0, []
1628360598.2403, 2, 0, 4152.308, 4189.744, 4248.718, 4103.59, 4129.231, 16189, 0, []
1628360598.2482, 3, 0, 4174.872, 4217.949, 4247.179, 4127.692, 4154.359, 450, 0, []
1628360598.256, 4, 0, 4198.462, 4248.205, 4236.41, 4138.462, 4178.462, 16179, 0, []
1628360598.264, 5, 0, 4192.308, 4235.385, 4224.615, 4117.436, 4161.026, 450, 0, []
1628360598.2718, 6, 0, 4177.949, 4218.974, 4213.846, 4100.513, 4144.103, 261, 0, []
1628360598.2798, 7, 0, 4193.846, 4235.385, 4235.897, 4121.538, 4167.692, 450, 0, []
1628360598.2877, 8, 0, 4202.564, 4232.821, 4268.205, 4136.923, 4176.41, 450, 0, []
1628360598.2957, 9, 0, 4189.744, 4214.359, 4266.667, 4128.205, 4162.051, 16169, 0, []
1628360598.3036, 10, 0, 4180.513, 4210.256, 4277.949, 4117.949, 4152.821, 450, 0, []
1628360598.3116, 11, 0, 4185.641, 4213.846, 4294.359, 4116.41, 4156.41, 16189, 0, []
1628360598.3194, 12, 0, 4201.538, 4226.667, 4299.487, 4127.692, 4169.744, 450, 0, []
1628360598.3272, 13, 0, 4201.026, 4226.154, 4296.923, 4131.282, 4164.615, 450, 0, []
1628360598.3351, 14, 0, 4176.923, 4203.077, 4268.718, 4112.308, 4143.59, 450, 0, []
1628360598.3429, 15, 0, 4168.718, 4207.179, 4263.077, 4102.051, 4142.051, 16189, 0, []
1628360598.3508, 16, 0, 4195.897, 4237.436, 4286.667, 4129.231, 4163.59, 0, 0, []
1628360598.3585, 17, 0, 4214.359, 4237.436, 4293.846, 4156.41, 4181.538, 0, 0, []
1628360598.3664, 18, 0, 4186.667, 4216.41, 4266.667, 4131.795, 4168.205, 0, 0, []
1628360598.3742, 19, 0, 4148.205, 4207.692, 4227.692, 4086.667, 4130.769, 0, 0, []
1628360598.3821, 20, 0, 4160.513, 4217.949, 4237.949, 4102.051, 4137.949, 0, 0, []
1628360598.3899, 21, 0, 4192.821, 4229.231, 4237.949, 4144.103, 4183.077, 0, 0, []
1628360598.3977, 22, 0, 4176.923, 4214.359, 4183.077, 4122.564, 4169.231, 0, 0, []
1628360598.4057, 23, 0, 4150.256, 4194.359, 4155.897, 4086.154, 4129.231, 0, 0, []
1628360598.4137, 24, 0, 4161.026, 4206.154, 4167.692, 4097.949, 4145.128, 0, 0, []
1628360598.4216, 25, 0, 4184.103, 4225.128, 4182.051, 4113.333, 4169.744, 0, 0, []
1628360598.4296, 26, 0, 4209.231, 4237.949, 4198.974, 4125.641, 4179.487, 0, 0, []
1628360598.4374, 27, 0, 4230.769, 4252.821, 4241.538, 4158.462, 4202.051, 0, 0, []
1628360598.4454, 28, 0, 4204.103, 4236.923, 4264.615, 4143.077, 4176.41, 0, 0, []
1628360598.4533, 29, 0, 4174.359, 4215.385, 4252.308, 4098.462, 4141.026, 0, 0, []
1628360598.4613, 30, 0, 4190.256, 4239.487, 4273.333, 4112.821, 4170.256, 0, 0, []
1628360598.4692, 31, 0, 4204.103, 4255.385, 4277.949, 4143.59, 4192.821, 0, 0, []
1628360598.4771, 32, 0, 4200, 4234.872, 4243.077, 4140.513, 4181.538, 0, 0, []
1628360598.485, 33, 0, 4189.744, 4228.718, 4238.974, 4129.231, 4167.179, 0, 0, []
1628360598.4929, 34, 0, 4191.282, 4233.846, 4245.641, 4134.359, 4165.641, 0, 0, []
1628360598.5008, 35, 0, 4213.846, 4231.282, 4258.974, 4152.308, 4184.615, 0, 0, []
1628360598.5086, 36, 0, 4225.641, 4243.59, 4242.564, 4158.974, 4196.41, 0, 0, []
1628360598.5165, 37, 0, 4206.667, 4250.256, 4157.436, 4145.641, 4177.436, 0, 0, []
1628360598.5242, 38, 0, 4188.718, 4230.256, 4122.051, 4133.333, 4164.615, 0, 0, []
1628360598.5321, 39, 0, 4189.231, 4226.154, 4163.59, 4134.872, 4174.359, 0, 0, []
1628360598.5399, 40, 0, 4182.051, 4239.487, 4177.949, 4135.385, 4160, 0, 0, []
1628360598.5478, 41, 0, 4187.692, 4247.692, 4160.513, 4150.256, 4160, 0, 0, []
1628360598.5556, 42, 0, 4215.897, 4259.487, 4160, 4176.41, 4197.436, 0, 0, []
1628360598.5635, 43, 0, 4222.564, 4265.641, 4172.821, 4190.256, 4204.615, 0, 0, []
1628360598.5714, 44, 0, 4207.692, 4249.744, 4166.154, 4187.179, 4187.179, 0, 0, []
1628360598.5794, 45, 0, 4195.897, 4224.103, 4181.538, 4171.795, 4180.513, 0, 0, []
1628360598.5873, 46, 0, 4194.359, 4218.974, 4209.744, 4173.333, 4180.513, 0, 0, []
1628360598.5953, 47, 0, 4195.897, 4234.359, 4199.487, 4184.615, 4181.538, 0, 0, []
1628360598.6031, 48, 0, 4196.41, 4236.41, 4214.359, 4172.821, 4178.974, 0, 0, []
1628360598.6111, 49, 0, 4197.436, 4225.641, 4242.051, 4163.077, 4177.949, 0, 0, []
1628360598.619, 50, 0, 4204.615, 4230.769, 4228.205, 4178.462, 4188.205, 0, 0, []
1628360598.627, 51, 0, 4202.051, 4241.026, 4228.718, 4174.872, 4180.513, 0, 0, []
1628360598.6349, 52, 0, 4180.513, 4231.282, 4257.949, 4148.718, 4150.769, 0, 0, []
1628360598.6426, 53, 0, 4188.205, 4226.154, 4295.897, 4163.59, 4160, 0, 0, []
1628360598.6505, 54, 0, 4223.077, 4240, 4333.333, 4194.359, 4194.359, 0, 0, []
1628360598.6583, 55, 0, 4208.205, 4228.205, 4367.179, 4167.179, 4174.872, 0, 0, []
1628360598.6662, 56, 0, 4161.538, 4194.359, 4392.308, 4118.462, 4132.308, 0, 0, []
1628360598.674, 57, 0, 4180.513, 4204.103, 4405.128, 4141.026, 4157.949, 0, 0, []
1628360598.6818, 58, 0, 4228.718, 4240.513, 4404.103, 4188.718, 4207.692, 0, 0, []
1628360598.6896, 59, 0, 4204.615, 4231.795, 4358.462, 4158.462, 4183.077, 0, 0, []
1628360598.6975, 60, 0, 4185.128, 4225.641, 4345.128, 4136.923, 4163.59, 0, 0, []
1628360598.7053, 61, 0, 4249.744, 4267.179, 4395.385, 4197.436, 4224.615, 0, 0, []
1628360598.7132, 62, 0, 4274.872, 4265.128, 4373.846, 4214.872, 4245.641, 0, 0, []
1628360598.721, 63, 0, 4227.179, 4223.59, 4342.051, 4157.949, 4200.513, 0, 0, []
1628360598.7288, 64, 0, 4234.872, 4242.051, 4405.128, 4162.564, 4210.769, 450, 0, []
1628360598.7366, 65, 0, 4265.128, 4274.872, 4447.692, 4206.154, 4242.564, 450, 0, []
1628360598.7446, 66, 0, 4234.872, 4260, 4420, 4187.692, 4217.949, 16189, 0, []
1628360598.7525, 67, 0, 4205.641, 4235.385, 4403.077, 4152.308, 4194.359, 450, 0, []
1628360598.7605, 68, 0, 4199.487, 4227.179, 4444.615, 4148.718, 4190.769, 16179, 0, []
1628360598.7683, 69, 0, 4180.513, 4220, 4464.615, 4144.615, 4174.872, 450, 0, []
1628360598.7763, 70, 0, 4164.615, 4203.077, 4431.795, 4127.692, 4157.949, 223, 0, []
1628360598.7842, 71, 0, 4190.769, 4200.513, 4441.026, 4144.103, 4176.41, 450, 0, []
1628360598.7922, 72, 0, 4235.897, 4230.256, 4469.744, 4191.795, 4221.538, 450, 0, []
1628360598.8001, 73, 0, 4231.282, 4245.641, 4453.846, 4193.333, 4219.487, 16169, 0, []
1628360598.8078, 74, 0, 4184.615, 4211.795, 4412.308, 4147.179, 4169.744, 450, 0, []
1628360598.8157, 75, 0, 4175.385, 4195.897, 4407.179, 4131.795, 4161.538, 16188, 0, []
1628360598.8235, 76, 0, 4194.872, 4216.41, 4433.333, 4148.205, 4176.923, 450, 0, []
1628360598.8314, 77, 0, 4184.615, 4206.154, 4391.282, 4138.462, 4164.103, 450, 0, []
1628360598.8392, 78, 0, 4180.513, 4191.795, 4321.026, 4123.59, 4164.103, 450, 0, []
1628360598.847, 79, 0, 4195.897, 4205.128, 4288.205, 4137.949, 4179.487, 16188, 0, []
1628360598.8548, 80, 0, 4189.744, 4203.077, 4249.231, 4157.436, 4177.436, 450, 0, []
1628360598.8627, 81, 0, 4169.744, 4186.667, 4196.923, 4160.513, 4165.128, 450, 0, []
1628360598.8705, 82, 0, 4161.026, 4195.385, 4147.179, 4151.282, 4152.821, 450, 0, []
1628360598.8785, 83, 0, 4161.026, 4203.077, 4140.513, 4143.077, 4148.718, 16188, 0, []
1628360598.8863, 84, 0, 4163.077, 4176.923, 4173.846, 4134.359, 4154.872, 450, 0, []
1628360598.8943, 85, 0, 4180.513, 4164.103, 4198.462, 4142.564, 4166.154, 450, 0, []
1628360598.9022, 86, 0, 4193.846, 4185.641, 4219.487, 4161.026, 4176.41, 450, 0, []
1628360598.9102, 87, 0, 4170.256, 4202.564, 4209.231, 4147.692, 4166.667, 16188, 0, []
1628360598.9181, 88, 0, 4136.41, 4201.026, 4178.974, 4115.385, 4134.359, 450, 0, []
1628360598.926, 89, 0, 4136.923, 4208.718, 4171.795, 4116.923, 4125.128, 450, 0, []
1628360598.9339, 90, 0, 4155.897, 4228.718, 4166.154, 4135.385, 4150.769, 450, 0, []
1628360598.9419, 91, 0, 4157.436, 4236.41, 4163.077, 4130.256, 4156.923, 16188, 0, []
1628360598.9498, 92, 0, 4150.769, 4221.026, 4148.718, 4123.077, 4140, 450, 0, []
1628360598.9576, 93, 0, 4150.769, 4191.795, 4145.128, 4124.615, 4141.026, 450, 0, []
1628360598.9655, 94, 0, 4167.179, 4185.641, 4196.41, 4131.282, 4165.641, 450, 0, []
1628360598.9732, 95, 0, 4204.103, 4214.872, 4228.205, 4158.462, 4200.513, 16188, 0, []
1628360598.9811, 96, 0, 4218.974, 4209.231, 4216.923, 4186.154, 4214.359, 450, 0, []
1628360598.9889, 97, 0, 4183.077, 4163.59, 4209.231, 4166.154, 4180, 450, 0, []
1628360598.9968, 98, 0, 4163.59, 4170.256, 4220, 4150.256, 4161.026, 450, 0, []
1628360599.0046, 99, 0, 4188.205, 4212.308, 4232.308, 4181.538, 4188.205, 16188, 0, []
1628360599.0124, 100, 0, 4185.641, 4203.59, 4244.103, 4173.846, 4182.564, 450, 0, []
1628360599.0202, 101, 0, 4165.641, 4195.385, 4316.41, 4135.385, 4153.846, 450, 0, []
1628360599.0282, 102, 0, 4177.949, 4218.462, 4356.41, 4139.487, 4165.641, 450, 0, []
1628360599.0361, 103, 0, 4188.205, 4211.795, 4277.949, 4136.41, 4175.385, 16188, 0, []
1628360599.0441, 104, 0, 4188.718, 4208.718, 4204.615, 4116.41, 4164.615, 450, 0, []
1628360599.0519, 105, 0, 4202.051, 4230.256, 4181.026, 4140.513, 4184.615, 450, 0, []
1628360599.0599, 106, 0, 4194.359, 4213.333, 4211.795, 4162.051, 4194.872, 450, 0, []
1628360599.0678, 107, 0, 4177.949, 4193.333, 4330.256, 4148.718, 4176.923, 16188, 0, []
1628360599.0758, 108, 0, 4205.128, 4219.487, 4444.103, 4165.128, 4197.949, 450, 0, []
1628360599.0837, 109, 0, 4224.615, 4217.949, 4450.256, 4177.949, 4213.333, 450, 0, []
1628360599.0916, 110, 0, 4205.128, 4187.692, 4456.41, 4153.846, 4189.744, 450, 0, []
1628360599.0995, 111, 0, 4200, 4205.641, 4548.205, 4152.308, 4186.667, 16188, 0, []
1628360599.1073, 112, 0, 4196.41, 4214.872, 4579.487, 4152.308, 4174.359, 450, 0, []
1628360599.1152, 113, 0, 4187.179, 4193.846, 4495.385, 4132.821, 4155.385, 450, 0, []
1628360599.123, 114, 0, 4207.179, 4213.846, 4372.821, 4145.128, 4185.641, 450, 0, []
1628360599.1308, 115, 0, 4242.564, 4244.103, 4318.462, 4193.333, 4230.256, 16188, 0, []
1628360599.1386, 116, 0, 4241.538, 4217.436, 4402.051, 4206.667, 4228.205, 450, 0, []
1628360599.1465, 117, 0, 4204.103, 4177.436, 4430.256, 4154.872, 4191.282, 450, 0, []
1628360599.1543, 118, 0, 4190.256, 4193.846, 4276.41, 4134.872, 4172.308, 450, 0, []
1628360599.1622, 119, 0, 4195.897, 4214.359, 4155.897, 4163.59, 4170.769, 16188, 0, []
1628360599.17, 120, 0, 4196.41, 4201.026, 4135.897, 4161.026, 4168.205, 450, 0, []
1628360599.1778, 121, 0, 4214.872, 4205.641, 4113.333, 4154.359, 4185.641, 450, 0, []
1628360599.1856, 122, 0, 4250.256, 4235.897, 4114.872, 4195.385, 4226.154, 450, 0, []
1628360599.1936, 123, 0, 4265.128, 4243.59, 4104.615, 4220, 4242.564, 16188, 0, []
1628360599.2015, 124, 0, 4239.487, 4217.436, 4059.487, 4181.538, 4210.769, 450, 0, []
1628360599.2095, 125, 0, 4213.846, 4202.051, 4043.077, 4152.308, 4188.205, 450, 0, []
1628360599.2173, 126, 0, 4212.308, 4206.154, 4048.205, 4155.385, 4190.769, 450, 0, []
1628360599.2253, 127, 0, 4206.667, 4207.179, 4030.769, 4145.128, 4180.513, 16188, 0, []
1628360599.2332, 128, 0, 4195.897, 4206.154, 4016.41, 4129.744, 4170.769, 450, 0, []
1628360599.2412, 0, 0, 4216.41, 4212.821, 4082.051, 4145.128, 4186.667, 450, 0, []
1628360599.2491, 1, 0, 4270.256, 4233.846, 4151.795, 4187.692, 4233.846, 450, 0, []
1628360599.257, 2, 0, 4286.154, 4235.897, 4110.256, 4188.205, 4256.41, 16187, 0, []
1628360599.2649, 3, 0, 4260.513, 4206.154, 4089.744, 4138.974, 4226.154, 450, 0, []
1628360599.2727, 4, 0, 4297.949, 4194.359, 4190.256, 4122.051, 4236.923, 16179, 0, []
1628360599.2806, 5, 0, 4403.077, 4215.897, 4272.308, 4148.205, 4318.462, 450, 0, []
1628360599.2884, 6, 0, 4466.667, 4219.487, 4217.436, 4144.615, 4359.487, 261, 0, []
1628360599.2962, 7, 0, 4477.949, 4205.128, 4138.974, 4116.41, 4349.744, 450, 0, []
1628360599.304, 8, 0, 4501.538, 4216.41, 4130.769, 4128.718, 4362.051, 450, 0, []
1628360599.3119, 9, 0, 4527.179, 4238.462, 4117.436, 4165.641, 4383.077, 16174, 0, []
1628360599.3197, 10, 0, 4514.359, 4247.692, 4093.333, 4180.513, 4383.59, 450, 0, []
1628360599.3276, 11, 0, 4467.692, 4230.256, 4066.154, 4156.41, 4359.487, 16193, 0, []
1628360599.3353, 12, 0, 4424.615, 4206.667, 4064.615, 4128.205, 4325.128, 450, 0, []
1628360599.3433, 13, 0, 4432.308, 4235.385, 4142.564, 4162.564, 4330.256, 450, 0, []
1628360599.3512, 14, 0, 4448.718, 4267.692, 4167.692, 4210.256, 4350.769, 450, 0, []
1628360599.3592, 15, 0, 4418.974, 4242.564, 4120.513, 4194.872, 4329.231, 16193, 0, []
1628360599.3671, 16, 0, 4394.359, 4226.154, 4114.872, 4176.923, 4307.692, 0, 0, []
1628360599.3751, 17, 0, 4380, 4228.205, 4103.077, 4177.436, 4298.974, 0, 0, []
1628360599.3829, 18, 0, 4352.821, 4213.333, 4085.128, 4162.564, 4275.897, 0, 0, []
1628360599.3909, 19, 0, 4350.256, 4214.872, 4101.026, 4166.667, 4278.462, 0, 0, []
1628360599.3988, 20, 0, 4331.795, 4206.667, 4078.462, 4155.897, 4260.513, 0, 0, []
1628360599.4068, 21, 0, 4264.103, 4170.769, 4023.59, 4091.282, 4188.718, 0, 0, []
1628360599.4147, 22, 0, 4267.692, 4187.179, 4040, 4092.821, 4191.282, 0, 0, []
1628360599.4226, 23, 0, 4346.154, 4231.795, 4099.487, 4173.333, 4273.333, 0, 0, []
1628360599.4305, 24, 0, 4356.923, 4223.59, 4090.769, 4183.59, 4283.077, 0, 0, []
1628360599.4383, 25, 0, 4315.385, 4212.821, 4062.051, 4144.615, 4238.974, 0, 0, []
1628360599.4462, 26, 0, 4323.077, 4236.923, 4100, 4167.179, 4249.231, 0, 0, []
1628360599.454, 27, 0, 4340.513, 4243.59, 4143.077, 4202.564, 4271.795, 0, 0, []
1628360599.4618, 28, 0, 4303.077, 4209.231, 4117.949, 4168.205, 4234.872, 0, 0, []
1628360599.4696, 29, 0, 4257.436, 4174.872, 4045.641, 4120.513, 4193.333, 0, 0, []
1628360599.4775, 30, 0, 4244.103, 4168.718, 4022.564, 4114.872, 4188.718, 0, 0, []
1628360599.4853, 31, 0, 4245.128, 4181.538, 4058.462, 4125.128, 4194.872, 0, 0, []
1628360599.4932, 32, 0, 4254.872, 4193.846, 4058.974, 4133.333, 4205.128, 0, 0, []
1628360599.5009, 33, 0, 4264.615, 4193.333, 4062.051, 4142.564, 4213.846, 0, 0, []
1628360599.5089, 34, 0, 4272.308, 4191.795, 4033.846, 4151.795, 4225.128, 0, 0, []
1628360599.5168, 35, 0, 4261.538, 4184.103, 3962.051, 4140.513, 4224.103, 0, 0, []
1628360599.5248, 36, 0, 4224.615, 4165.128, 4129.744, 4110.769, 4190.256, 0, 0, []
1628360599.5327, 37, 0, 4223.59, 4171.282, 4411.282, 4116.41, 4186.667, 0, 0, []
1628360599.5406, 38, 0, 4277.436, 4197.949, 4357.436, 4150.769, 4232.821, 0, 0, []
1628360599.5485, 39, 0, 4311.795, 4201.538, 4118.462, 4153.333, 4249.231, 0, 0, []
1628360599.5565, 40, 0, 4319.487, 4193.333, 4084.615, 4140, 4245.641, 0, 0, []
1628360599.5644, 41, 0, 4349.744, 4214.359, 4146.667, 4161.538, 4280.513, 0, 0, []
1628360599.5724, 42, 0, 4352.308, 4227.179, 4156.41, 4165.641, 4287.179, 0, 0, []
1628360599.5803, 43, 0, 4288.205, 4199.487, 4194.359, 4116.41, 4224.103, 0, 0, []
1628360599.5881, 44, 0, 4242.051, 4178.974, 4206.154, 4088.205, 4186.154, 0, 0, []
1628360599.596, 45, 0, 4249.744, 4183.59, 4236.923, 4098.462, 4196.41, 0, 0, []
1628360599.6038, 46, 0, 4264.103, 4193.333, 4293.846, 4109.231, 4208.205, 0, 0, []
1628360599.6117, 47, 0, 4269.231, 4201.538, 4214.359, 4112.308, 4212.821, 0, 0, []
1628360599.6195, 48, 0, 4278.974, 4211.795, 4228.718, 4130.769, 4222.051, 0, 0, []
1628360599.6273, 49, 0, 4298.462, 4228.718, 4392.821, 4165.641, 4245.128, 0, 0, []
1628360599.6351, 50, 0, 4275.897, 4212.308, 4357.949, 4145.641, 4224.615, 0, 0, []
1628360599.643, 51, 0, 4226.667, 4175.897, 4255.385, 4088.205, 4169.744, 0, 0, []
1628360599.6508, 52, 0, 4244.615, 4189.744, 4315.385, 4107.692, 4186.667, 0, 0, []
1628360599.6588, 53, 0, 4286.154, 4220.513, 4393.846, 4163.077, 4238.974, 0, 0, []
1628360599.6666, 54, 0, 4266.667, 4207.692, 4412.821, 4147.692, 4221.026, 0, 0, []
1628360599.6746, 55, 0, 4250.769, 4197.949, 4450.769, 4127.179, 4198.462, 0, 0, []
1628360599.6825, 56, 0, 4284.103, 4225.128, 4511.795, 4162.051, 4236.923, 0, 0, []
1628360599.6905, 57, 0, 4275.897, 4223.59, 4571.282, 4154.359, 4237.436, 0, 0, []
1628360599.6984, 58, 0, 4221.026, 4186.667, 4726.667, 4096.41, 4181.026, 0, 0, []
1628360599.7063, 59, 0, 4207.179, 4174.872, 4920.513, 4087.692, 4163.077, 0, 0, []
1628360599.7142, 60, 0, 4232.821, 4198.462, 4946.667, 4127.692, 4193.846, 0, 0, []
1628360599.7222, 61, 0, 4252.308, 4225.128, 4761.538, 4150.256, 4219.487, 0, 0, []
1628360599.7301, 62, 0, 4234.872, 4217.949, 4459.487, 4132.308, 4202.051, 0, 0, []
1628360599.7379, 63, 0, 4214.872, 4196.923, 4248.205, 4128.205, 4182.051, 0, 0, []
1628360599.7457, 64, 0, 4220, 4196.41, 4211.795, 4145.641, 4191.282, 450, 0, []
1628360599.7535, 65, 0, 4211.282, 4204.103, 4188.205, 4127.179, 4187.179, 450, 0, []
1628360599.7614, 66, 0, 4182.051, 4190.256, 4072.821, 4090.769, 4152.821, 16186, 0, []
1628360599.7692, 67, 0, 4158.974, 4156.923, 4001.538, 4078.974, 4126.667, 450, 0, []
1628360599.7771, 68, 0, 4170.769, 4160.513, 4104.615, 4096.923, 4147.692, 16179, 0, []
1628360599.7848, 69, 0, 4197.949, 4196.923, 4211.282, 4119.487, 4176.923, 450, 0, []
1628360599.7927, 70, 0, 4200.513, 4200.513, 4181.538, 4126.154, 4176.41, 258, 0, []
1628360599.8005, 71, 0, 4187.692, 4172.821, 4172.308, 4120, 4163.59, 450, 0, []
1628360599.8085, 72, 0, 4197.949, 4169.744, 4211.795, 4122.051, 4166.667, 450, 0, []
1628360599.8164, 73, 0, 4204.103, 4181.026, 4150.256, 4123.077, 4169.744, 16178, 0, []
1628360599.8244, 74, 0, 4169.231, 4167.692, 4065.128, 4095.897, 4148.205, 450, 0, []
1628360599.8322, 75, 0, 4161.538, 4160.513, 4050.256, 4083.077, 4145.641, 16193, 0, []
1628360599.8402, 76, 0, 4205.128, 4189.231, 4036.923, 4114.359, 4175.897, 450, 0, []
1628360599.8481, 77, 0, 4225.641, 4207.692, 4002.051, 4131.282, 4193.333, 450, 0, []
1628360599.8561, 78, 0, 4195.897, 4176.923, 3961.538, 4093.846, 4172.821, 450, 0, []
1628360599.864, 79, 0, 4184.615, 4156.923, 3942.564, 4075.385, 4159.487, 16193, 0, []
1628360599.8719, 80, 0, 4239.487, 4202.564, 3981.538, 4126.667, 4209.231, 450, 0, []
1628360599.8798, 81, 0, 4287.179, 4248.205, 4034.359, 4155.897, 4251.795, 450, 0, []
1628360599.8876, 82, 0, 4265.128, 4225.128, 4024.615, 4117.436, 4223.077, 450, 0, []
1628360599.8955, 83, 0, 4241.026, 4188.205, 4005.128, 4090.769, 4204.103, 16193, 0, []
1628360599.9033, 84, 0, 4283.077, 4202.564, 4042.564, 4113.333, 4249.231, 450, 0, []
1628360599.9111, 85, 0, 4336.923, 4221.026, 4055.385, 4123.077, 4285.128, 450, 0, []
1628360599.9189, 86, 0, 4358.974, 4203.077, 4025.641, 4110.256, 4292.308, 450, 0, []
1628360599.9268, 87, 0, 4382.564, 4196.923, 3991.282, 4116.923, 4314.359, 16193, 0, []
1628360599.9346, 88, 0, 4396.41, 4210.256, 3938.974, 4126.154, 4326.154, 450, 0, []
1628360599.9425, 89, 0, 4379.487, 4202.051, 3915.385, 4121.026, 4309.744, 450, 0, []
1628360599.9502, 90, 0, 4368.205, 4201.538, 3929.744, 4127.692, 4305.128, 450, 0, []
1628360599.9581, 91, 0, 4341.026, 4207.692, 3936.41, 4117.436, 4284.103, 16193, 0, []
1628360599.9659, 92, 0, 4272.308, 4181.538, 3942.564, 4072.308, 4221.026, 450, 0, []
1628360599.9739, 93, 0, 4255.897, 4182.564, 3971.795, 4080, 4210.769, 450, 0, []
1628360599.9818, 94, 0, 4297.949, 4218.462, 4004.615, 4137.436, 4258.974, 450, 0, []
1628360599.9897, 95, 0, 4291.282, 4216.923, 4002.564, 4143.59, 4259.487, 16193, 0, []
1628360599.9976, 96, 0, 4238.462, 4190.769, 3986.154, 4095.897, 4209.231, 450, 0, []
1628360600.0056, 97, 0, 4222.051, 4196.41, 3977.436, 4078.462, 4194.872, 450, 0, []
1628360600.0135, 98, 0, 4237.949, 4213.846, 3956.41, 4107.179, 4214.872, 450, 0, []
1628360600.0215, 99, 0, 4236.41, 4213.333, 3964.103, 4128.718, 4208.205, 16193, 0, []
1628360600.0294, 100, 0, 4218.462, 4204.615, 3980.513, 4125.641, 4191.282, 450, 0, []
1628360600.0373, 101, 0, 4203.59, 4200.513, 3953.333, 4116.41, 4188.205, 450, 0, []
1628360600.0452, 102, 0, 4191.795, 4197.949, 3914.359, 4105.128, 4174.872, 450, 0, []
1628360600.053, 103, 0, 4191.795, 4190.769, 3893.846, 4093.333, 4169.231, 16193, 0, []
1628360600.0609, 104, 0, 4219.487, 4202.564, 3928.718, 4107.692, 4201.026, 450, 0, []
1628360600.0687, 105, 0, 4241.026, 4223.077, 3971.795, 4132.821, 4222.564, 450, 0, []
1628360600.0765, 106, 0, 4217.436, 4208.205, 3957.436, 4133.846, 4203.59, 450, 0, []
1628360600.0843, 107, 0, 4191.795, 4192.308, 3951.795, 4134.872, 4186.667, 16193, 0, []
1628360600.0922, 108, 0, 4209.231, 4209.231, 3989.231, 4155.385, 4194.359, 450, 0, []
1628360600.1, 109, 0, 4233.333, 4224.615, 4028.718, 4173.846, 4214.359, 450, 0, []
1628360600.1079, 110, 0, 4234.872, 4222.051, 4015.897, 4172.308, 4221.538, 450, 0, []
1628360600.1156, 111, 0, 4237.436, 4218.974, 3983.59, 4159.487, 4215.385, 16193, 0, []
1628360600.1236, 112, 0, 4218.974, 4199.487, 3969.744, 4125.128, 4195.385, 450, 0, []
1628360600.1315, 113, 0, 4180.513, 4176.41, 3946.667, 4090.769, 4172.308, 450, 0, []
1628360600.1395, 114, 0, 4183.59, 4189.744, 3966.154, 4105.641, 4174.872, 450, 0, []
1628360600.1474, 115, 0, 4203.59, 4209.744, 3996.41, 4129.744, 4184.615, 16193, 0, []
1628360600.1553, 116, 0, 4174.872, 4184.615, 3956.41, 4107.179, 4163.077, 450, 0, []
1628360600.1632, 117, 0, 4167.692, 4173.846, 3949.231, 4109.231, 4162.051, 450, 0, []
1628360600.1712, 118, 0, 4222.051, 4205.641, 3990.769, 4164.615, 4212.308, 450, 0, []
1628360600.1791, 119, 0, 4242.051, 4203.59, 3977.949, 4185.641, 4237.436, 16193, 0, []
1628360600.1871, 120, 0, 4202.051, 4165.641, 3915.385, 4145.641, 4203.077, 450, 0, []
1628360600.1949, 121, 0, 4183.077, 4162.051, 3896.923, 4122.564, 4175.897, 450, 0, []
1628360600.2027, 122, 0, 4189.231, 4181.026, 3938.462, 4129.744, 4181.026, 450, 0, []
1628360600.2106, 123, 0, 4168.718, 4174.359, 3935.897, 4103.077, 4166.667, 16193, 0, []
1628360600.2184, 124, 0, 4183.59, 4193.846, 3943.077, 4097.949, 4170.769, 450, 0, []
1628360600.2263, 125, 0, 4216.41, 4217.949, 3975.385, 4126.667, 4198.974, 450, 0, []
1628360600.2341, 126, 0, 4176.41, 4184.103, 3937.436, 4096.923, 4173.333, 450, 0, []
1628360600.2419, 127, 0, 4158.462, 4170.769, 3932.821, 4076.923, 4155.385, 16193, 0, []
1628360600.2497, 128, 0, 4209.231, 4201.026, 3992.821, 4134.872, 4197.436, 450, 0, []
1628360600.2576, 0, 0, 4210.769, 4194.359, 4001.026, 4151.282, 4205.128, 450, 0, []
1628360600.2654, 1, 0, 4156.41, 4158.462, 3963.077, 4090.256, 4158.462, 450, 0, []
1628360600.2734, 2, 0, 4137.436, 4145.128, 3943.59, 4059.487, 4137.436, 16185, 0, []
1628360600.2812, 3, 0, 4157.949, 4163.077, 3980.513, 4087.179, 4156.923, 450, 0, []
1628360600.2892, 4, 0, 4201.026, 4202.051, 4054.872, 4137.436, 4194.872, 16179, 0, []
1628360600.2971, 5, 0, 4217.436, 4207.692, 4096.923, 4153.846, 4207.179, 450, 0, []
1628360600.3051, 6, 0, 4180, 4170.769, 4069.231, 4117.949, 4170.256, 268, 0, []
1628360600.313, 7, 0, 4181.538, 4175.385, 4046.667, 4116.41, 4171.795, 450, 0, []
1628360600.3209, 8, 0, 4210.769, 4202.051, 4084.103, 4136.41, 4194.872, 450, 0, []
1628360600.3288, 9, 0, 4189.744, 4185.128, 4092.821, 4115.897, 4173.333, 16167, 0, []
1628360600.3368, 10, 0, 4157.949, 4157.949, 4046.154, 4088.205, 4150.256, 450, 0, []
1628360600.3447, 11, 0, 4168.205, 4173.846, 4030.769, 4092.308, 4161.538, 16190, 0, []
1628360600.3526, 12, 0, 4198.462, 4208.205, 4054.359, 4117.436, 4182.051, 450, 0, []
1628360600.3604, 13, 0, 4199.487, 4201.026, 4070.769, 4126.667, 4180.513, 450, 0, []
1628360600.3682, 14, 0, 4200, 4188.718, 4073.333, 4123.59, 4182.564, 450, 0, []
1628360600.3761, 15, 0, 4231.282, 4222.564, 4057.436, 4138.974, 4209.231, 16190, 0, []
1628360600.3839, 16, 0, 4235.385, 4225.128, 4018.974, 4141.538, 4209.744, 0, 0, []
1628360600.3918, 17, 0, 4201.026, 4185.641, 3976.923, 4103.59, 4173.333, 0, 0, []
1628360600.3995, 18, 0, 4192.821, 4196.923, 3987.692, 4088.205, 4163.59, 0, 0, []
1628360600.4074, 19, 0, 4209.744, 4226.154, 4022.564, 4115.385, 4189.231, 0, 0, []
1628360600.4154, 20, 0, 4194.872, 4203.59, 4014.872, 4112.821, 4186.154, 0, 0, []
1628360600.4233, 21, 0, 4176.41, 4185.128, 4019.487, 4094.872, 4166.667, 0, 0, []
1628360600.4311, 22, 0, 4193.846, 4204.615, 4047.692, 4110.769, 4180.513, 0, 0, []
1628360600.4391, 23, 0, 4216.923, 4229.744, 4060, 4137.436, 4207.692, 0, 0, []
1628360600.4469, 24, 0, 4211.795, 4233.846, 4055.385, 4140, 4201.538, 0, 0, []
1628360600.4549, 25, 0, 4190.256, 4211.795, 4054.359, 4119.487, 4175.897, 0, 0, []
1628360600.4628, 26, 0, 4178.974, 4192.821, 4078.462, 4096.923, 4160, 0, 0, []
1628360600.4708, 27, 0, 4191.282, 4203.59, 4088.205, 4099.487, 4163.077, 0, 0, []
1628360600.4787, 28, 0, 4195.385, 4204.103, 4082.051, 4106.667, 4163.59, 0, 0, []
1628360600.4866, 29, 0, 4177.949, 4185.641, 4086.154, 4093.846, 4153.846, 0, 0, []
1628360600.4945, 30, 0, 4174.359, 4195.385, 4071.282, 4087.692, 4148.718, 0, 0, []
1628360600.5025, 31, 0, 4153.846, 4182.051, 4012.308, 4071.282, 4117.949, 0, 0, []
1628360600.5104, 32, 0, 4132.308, 4155.385, 3961.538, 4061.026, 4104.103, 0, 0, []
1628360600.5182, 33, 0, 4173.846, 4198.974, 4005.128, 4105.128, 4159.487, 0, 0, []
1628360600.526, 34, 0, 4209.231, 4239.487, 4060.513, 4134.359, 4188.205, 0, 0, []
1628360600.5338, 35, 0, 4176.41, 4207.692, 4029.231, 4103.59, 4153.846, 0, 0, []
1628360600.5417, 36, 0, 4158.462, 4201.538, 4023.59, 4095.385, 4147.692, 0, 0, []
1628360600.5495, 37, 0, 4169.744, 4226.154, 4043.59, 4109.231, 4158.974, 0, 0, []
1628360600.5574, 38, 0, 4150.256, 4195.385, 4015.897, 4088.205, 4138.974, 0, 0, []
1628360600.5651, 39, 0, 4126.154, 4156.923, 3992.308, 4061.026, 4125.128, 0, 0, []
1628360600.573, 40, 0, 4115.897, 4157.949, 3990.769, 4048.205, 4119.487, 0, 0, []
1628360600.5808, 41, 0, 4130.769, 4185.641, 4023.077, 4065.641, 4129.744, 0, 0, []
1628360600.5888, 42, 0, 4161.538, 4207.179, 4044.103, 4097.949, 4156.923, 0, 0, []
1628360600.5967, 43, 0, 4141.026, 4178.462, 4008.205, 4080.513, 4135.385, 0, 0, []
1628360600.6046, 44, 0, 4100, 4150.769, 3986.154, 4049.744, 4100.513, 0, 0, []
1628360600.6125, 45, 0, 4121.026, 4181.026, 4007.692, 4071.282, 4123.59, 0, 0, []
1628360600.6205, 46, 0, 4148.718, 4194.359, 4036.923, 4090.256, 4140.513, 0, 0, []
1628360600.6284, 47, 0, 4123.077, 4160, 4037.949, 4063.077, 4112.821, 0, 0, []
1628360600.6364, 48, 0, 4123.59, 4166.667, 4048.718, 4059.487, 4120, 0, 0, []
1628360600.6443, 49, 0, 4153.333, 4206.154, 4076.923, 4088.718, 4141.538, 0, 0, []
1628360600.6522, 50, 0, 4133.333, 4204.103, 4042.051, 4081.026, 4108.205, 0, 0, []
1628360600.6601, 51, 0, 4109.231, 4178.462, 3997.436, 4058.462, 4080, 0, 0, []
1628360600.6679, 52, 0, 4142.051, 4185.641, 4013.333, 4078.462, 4117.436, 0, 0, []
1628360600.6758, 53, 0, 4181.538, 4214.359, 4033.846, 4110.769, 4158.974, 0, 0, []
1628360600.6836, 54, 0, 4181.026, 4225.641, 4031.795, 4120, 4157.436, 0, 0, []
1628360600.6914, 55, 0, 4156.41, 4212.821, 4008.205, 4113.846, 4141.538, 0, 0, []
1628360600.6992, 56, 0, 4141.538, 4202.051, 4003.59, 4107.692, 4141.026, 0, 0, []
1628360600.7071, 57, 0, 4148.205, 4208.718, 4023.077, 4101.538, 4142.051, 0, 0, []
1628360600.7149, 58, 0, 4155.897, 4215.897, 4024.103, 4096.923, 4139.487, 0, 0, []
1628360600.7228, 59, 0, 4160, 4216.41, 4011.795, 4095.385, 4148.718, 0, 0, []
1628360600.7305, 60, 0, 4166.154, 4212.308, 3987.179, 4097.436, 4159.487, 0, 0, []
1628360600.7385, 61, 0, 4178.974, 4214.872, 3983.077, 4111.282, 4167.179, 0, 0, []
1628360600.7464, 62, 0, 4202.051, 4234.359, 3996.41, 4136.41, 4190.769, 0, 0, []
1628360600.7544, 63, 0, 4202.051, 4235.385, 3976.923, 4140, 4196.923, 0, 0, []
1628360600.7623, 64, 0, 4177.949, 4211.282, 3964.103, 4122.051, 4167.692, 450, 0, []
1628360600.7702, 65, 0, 4186.154, 4212.821, 3983.077, 4136.41, 4170.256, 450, 0, []
1628360600.7781, 66, 0, 4180, 4211.795, 3979.487, 4128.205, 4170.769, 16185, 0, []
1628360600.7861, 67, 0, 4154.359, 4197.949, 3973.333, 4088.718, 4142.564, 450, 0, []
1628360600.794, 68, 0, 4192.821, 4223.59, 4010.256, 4120.513, 4170.256, 16178, 0, []
1628360600.802, 69, 0, 4195.385, 4220.513, 4012.308, 4134.359, 4174.872, 450, 0, []
1628360600.8098, 70, 0, 4130.256, 4170.256, 3969.231, 4076.923, 4111.795, 265, 0, []
1628360600.8176, 71, 0, 4156.923, 4191.282, 4027.179, 4098.462, 4131.282, 450, 0, []
1628360600.8255, 72, 0, 4236.41, 4247.179, 4140.513, 4174.872, 4216.923, 450, 0, []
1628360600.8333, 73, 0, 4220.513, 4230.256, 4130.769, 4158.462, 4210.256, 16171, 0, []
1628360600.8412, 74, 0, 4163.59, 4190.769, 4085.128, 4100, 4146.154, 450, 0, []
1628360600.849, 75, 0, 4157.436, 4186.667, 4096.923, 4088.205, 4134.359, 16190, 0, []
1628360600.8568, 76, 0, 4192.821, 4209.744, 4125.641, 4121.026, 4176.923, 450, 0, []
1628360600.8646, 77, 0, 4216.41, 4229.231, 4138.974, 4155.385, 4201.026, 450, 0, []
1628360600.8725, 78, 0, 4194.359, 4215.385, 4106.154, 4140, 4173.846, 450, 0, []
1628360600.8803, 79, 0, 4165.641, 4200.513, 4086.154, 4109.231, 4152.821, 16190, 0, []
1628360600.8882, 80, 0, 4183.59, 4214.359, 4103.077, 4128.205, 4176.923, 450, 0, []
1628360600.8959, 81, 0, 4206.667, 4229.744, 4120, 4157.436, 4200.513, 450, 0, []
1628360600.9039, 82, 0, 4169.231, 4213.846, 4162.051, 4127.692, 4163.59, 450, 0, []
1628360600.9118, 83, 0, 4135.897, 4197.949, 4231.795, 4095.897, 4126.154, 16190, 0, []
1628360600.9198, 84, 0, 4174.359, 4218.462, 4292.308, 4132.821, 4159.487, 450, 0, []
1628360600.9277, 85, 0, 4185.641, 4222.564, 4315.385, 4145.641, 4175.897, 450, 0, []
1628360600.9356, 86, 0, 4134.872, 4196.923, 4359.487, 4091.282, 4130.769, 450, 0, []
1628360600.9435, 87, 0, 4138.974, 4200, 4461.026, 4089.231, 4127.179, 16190, 0, []
1628360600.9515, 88, 0, 4182.051, 4216.923, 4524.103, 4124.615, 4170.256, 450, 0, []
1628360600.9594, 89, 0, 4158.974, 4200, 4537.949, 4091.795, 4152.821, 450, 0, []
1628360600.9674, 90, 0, 4133.333, 4189.744, 4572.308, 4068.718, 4120.513, 450, 0, []
1628360600.9752, 91, 0, 4170.769, 4209.744, 4611.282, 4119.487, 4158.462, 16190, 0, []
1628360600.983, 92, 0, 4178.974, 4217.949, 4584.615, 4131.795, 4175.385, 450, 0, []
1628360600.9909, 93, 0, 4148.718, 4212.821, 4504.615, 4093.846, 4138.462, 450, 0, []
1628360600.9987, 94, 0, 4167.179, 4214.872, 4443.077, 4108.205, 4145.128, 450, 0, []
1628360601.0066, 95, 0, 4193.846, 4220, 4327.692, 4133.846, 4172.308, 16190, 0, []
1628360601.0143, 96, 0, 4170.256, 4211.795, 4165.641, 4110.769, 4150.769, 450, 0, []
1628360601.0222, 97, 0, 4157.949, 4199.487, 4150.769, 4103.59, 4135.897, 450, 0, []
1628360601.03, 98, 0, 4178.974, 4195.385, 4239.487, 4127.179, 4162.564, 450, 0, []
1628360601.0379, 99, 0, 4171.795, 4193.333, 4269.744, 4109.744, 4160, 16190, 0, []
1628360601.0457, 100, 0, 4161.026, 4203.077, 4267.692, 4091.795, 4137.436, 450, 0, []
1628360601.0537, 101, 0, 4188.718, 4216.41, 4249.744, 4129.231, 4164.103, 450, 0, []
1628360601.0615, 102, 0, 4211.795, 4214.359, 4196.923, 4158.462, 4194.872, 450, 0, []
1628360601.0694, 103, 0, 4207.692, 4216.41, 4132.821, 4156.41, 4193.846, 16190, 0, []
1628360601.0772, 104, 0, 4203.59, 4219.487, 4092.821, 4151.282, 4191.282, 450, 0, []
1628360601.0852, 105, 0, 4211.282, 4207.692, 4086.154, 4137.949, 4194.872, 450, 0, []
1628360601.0931, 106, 0, 4212.821, 4206.154, 4078.462, 4121.538, 4189.231, 450, 0, []
1628360601.101, 107, 0, 4203.59, 4215.897, 4088.718, 4122.564, 4186.154, 16190, 0, []
1628360601.1089, 108, 0, 4203.077, 4211.795, 4113.846, 4133.846, 4194.359, 450, 0, []
1628360601.1169, 109, 0, 4203.59, 4204.103, 4133.333, 4136.923, 4188.718, 450, 0, []
1628360601.1248, 110, 0, 4198.462, 4204.103, 4162.564, 4139.487, 4184.615, 450, 0, []
1628360601.1328, 111, 0, 4202.051, 4210.256, 4178.462, 4140.513, 4197.949, 16190, 0, []
1628360601.1406, 112, 0, 4192.821, 4210.256, 4170.769, 4121.026, 4184.103, 450, 0, []
1628360601.1484, 113, 0, 4159.487, 4184.615, 4154.872, 4088.718, 4146.154, 450, 0, []
1628360601.1563, 114, 0, 4155.897, 4179.487, 4197.949, 4087.179, 4151.282, 450, 0, []
1628360601.1641, 115, 0, 4200, 4220, 4317.436, 4129.231, 4196.41, 16190, 0, []
1628360601.172, 116, 0, 4216.923, 4229.231, 4389.744, 4152.308, 4210.769, 450, 0, []
1628360601.1797, 117, 0, 4186.667, 4203.59, 4432.821, 4128.718, 4185.128, 450, 0, []
1628360601.1876, 118, 0, 4177.949, 4215.385, 4530.769, 4108.718, 4171.282, 450, 0, []
1628360601.1954, 119, 0, 4195.897, 4221.538, 4627.692, 4109.231, 4183.59, 16190, 0, []
1628360601.2033, 120, 0, 4187.692, 4195.897, 4698.974, 4095.897, 4177.949, 450, 0, []
1628360601.2111, 121, 0, 4182.564, 4214.872, 4762.051, 4108.718, 4173.333, 450, 0, []
1628360601.2189, 122, 0, 4194.359, 4234.359, 4790.256, 4143.077, 4190.769, 450, 0, []
1628360601.2267, 123, 0, 4176.41, 4197.949, 4744.103, 4122.051, 4184.615, 16190, 0, []
1628360601.2347, 124, 0, 4165.128, 4187.692, 4618.974, 4099.487, 4172.308, 450, 0, []
1628360601.2426, 125, 0, 4186.154, 4207.179, 4433.846, 4125.641, 4187.692, 450, 0, []
1628360601.2506, 126, 0, 4197.436, 4206.154, 4256.923, 4140, 4201.026, 450, 0, []
1628360601.2584, 127, 0, 4188.718, 4202.564, 4195.385, 4133.846, 4188.205, 16190, 0, []
1628360601.2664, 128, 0, 4171.795, 4196.923, 4193.333, 4122.564, 4167.692, 450, 0, []
1628360601.2743, 0, 0, 4166.667, 4187.692, 4177.436, 4112.308, 4171.282, 450, 0, []
1628360601.2823, 1, 0, 4194.872, 4214.359, 4198.974, 4136.923, 4194.359, 450, 0, []
1628360601.2902, 2, 0, 4195.897, 4220.513, 4195.897, 4144.615, 4189.231, 16185, 0, []
1628360601.2981, 3, 0, 4158.974, 4192.821, 4161.026, 4102.051, 4158.462, 450, 0, []
1628360601.3059, 4, 0, 4197.949, 4225.128, 4197.949, 4132.821, 4193.333, 16175, 0, []
1628360601.3137, 5, 0, 4261.026, 4262.564, 4270.769, 4202.564, 4244.615, 450, 0, []
1628360601.3216, 6, 0, 4219.487, 4218.974, 4310.769, 4166.667, 4200, 262, 0, []
1628360601.3294, 7, 0, 4174.872, 4193.333, 4313.846, 4122.051, 4155.385, 450, 0, []
1628360601.3373, 8, 0, 4211.795, 4227.179, 4303.077, 4157.949, 4193.846, 450, 0, []
1628360601.345, 9, 0, 4235.385, 4240.513, 4278.462, 4178.462, 4221.026, 16169, 0, []
1628360601.3529, 10, 0, 4212.821, 4231.795, 4232.821, 4158.462, 4201.026, 450, 0, []
1628360601.3607, 11, 0, 4180, 4221.026, 4209.231, 4136.41, 4172.308, 16190, 0, []
1628360601.3687, 12, 0, 4166.667, 4204.615, 4225.128, 4124.103, 4158.462, 450, 0, []
1628360601.3766, 13, 0, 4197.949, 4222.051, 4258.462, 4144.615, 4184.615, 450, 0, []
1628360601.3845, 14, 0, 4230.769, 4255.385, 4283.077, 4178.462, 4220, 450, 0, []
1628360601.3924, 15, 0, 4221.538, 4253.846, 4261.538, 4172.821, 4213.333, 16190, 0, []
1628360601.4004, 16, 0, 4189.744, 4225.641, 4220.513, 4133.333, 4173.333, 0, 0, []
1628360601.4083, 17, 0, 4177.949, 4210.256, 4205.641, 4121.538, 4158.462, 0, 0, []
1628360601.4163, 18, 0, 4199.487, 4225.641, 4213.333, 4152.308, 4182.051, 0, 0, []
1628360601.4241, 19, 0, 4205.641, 4235.897, 4196.923, 4161.026, 4188.718, 0, 0, []
1628360601.4321, 20, 0, 4169.231, 4214.872, 4153.333, 4114.359, 4153.846, 0, 0, []
1628360601.44, 21, 0, 4173.846, 4218.974, 4186.154, 4111.282, 4155.897, 0, 0, []
1628360601.4478, 22, 0, 4230.769, 4260.513, 4231.795, 4174.872, 4213.333, 0, 0, []
1628360601.4557, 23, 0, 4209.744, 4248.718, 4173.846, 4161.538, 4202.051, 0, 0, []
1628360601.4634, 24, 0, 4143.077, 4195.897, 4138.462, 4089.231, 4135.897, 0, 0, []
1628360601.4713, 25, 0, 4163.59, 4199.487, 4175.385, 4101.026, 4149.744, 0, 0, []
1628360601.4791, 26, 0, 4216.923, 4238.974, 4190.256, 4159.487, 4205.641, 0, 0, []
1628360601.487, 27, 0, 4211.282, 4238.974, 4159.487, 4158.462, 4198.462, 0, 0, []
1628360601.4948, 28, 0, 4185.128, 4208.205, 4135.897, 4131.282, 4166.154, 0, 0, []
1628360601.5027, 29, 0, 4162.051, 4194.872, 4129.231, 4115.385, 4146.667, 0, 0, []
1628360601.5104, 30, 0, 4149.744, 4205.128, 4100, 4103.077, 4138.462, 0, 0, []
1628360601.5184, 31, 0, 4174.872, 4222.051, 4070.256, 4120, 4167.179, 0, 0, []
1628360601.5263, 32, 0, 4178.974, 4214.359, 4019.487, 4136.41, 4182.564, 0, 0, []
1628360601.5343, 33, 0, 4132.308, 4192.821, 3958.462, 4112.821, 4143.077, 0, 0, []
1628360601.5422, 34, 0, 4129.231, 4212.821, 3987.692, 4113.333, 4136.923, 0, 0, []
1628360601.5501, 35, 0, 4172.308, 4236.923, 4029.231, 4153.333, 4184.103, 0, 0, []
1628360601.558, 36, 0, 4176.41, 4220.513, 4011.282, 4164.615, 4196.923, 0, 0, []
1628360601.566, 37, 0, 4157.436, 4215.385, 4026.667, 4146.154, 4176.41, 0, 0, []
1628360601.5739, 38, 0, 4154.359, 4225.128, 4060.513, 4132.821, 4169.744, 0, 0, []
1628360601.5819, 39, 0, 4132.308, 4203.077, 4031.282, 4105.128, 4145.641, 0, 0, []
1628360601.5897, 40, 0, 4120, 4190.256, 3988.205, 4090.256, 4130.256, 0, 0, []
1628360601.5975, 41, 0, 4154.872, 4212.821, 4018.462, 4120.513, 4165.128, 0, 0, []
1628360601.6054, 42, 0, 4175.897, 4220.513, 4055.385, 4137.949, 4180, 0, 0, []
1628360601.6132, 43, 0, 4154.359, 4213.333, 4025.128, 4120, 4161.538, 0, 0, []
1628360601.6211, 44, 0, 4149.231, 4214.359, 4016.41, 4117.436, 4167.179, 0, 0, []
1628360601.6288, 45, 0, 4170.256, 4217.949, 4064.103, 4127.692, 4180.513, 0, 0, []
1628360601.6367, 46, 0, 4173.333, 4216.41, 4129.744, 4131.282, 4174.359, 0, 0, []
1628360601.6445, 47, 0, 4163.077, 4213.333, 4170.256, 4137.436, 4170.769, 0, 0, []
1628360601.6524, 48, 0, 4157.949, 4212.308, 4131.282, 4127.179, 4163.077, 0, 0, []
1628360601.6602, 49, 0, 4166.154, 4220, 4086.667, 4116.41, 4158.462, 0, 0, []
1628360601.668, 50, 0, 4175.385, 4221.538, 4077.949, 4127.179, 4172.308, 0, 0, []
1628360601.6758, 51, 0, 4167.692, 4212.308, 4075.897, 4117.436, 4171.282, 0, 0, []
1628360601.6838, 52, 0, 4181.538, 4224.103, 4104.103, 4117.949, 4179.487, 0, 0, []
1628360601.6917, 53, 0, 4204.103, 4235.897, 4117.949, 4145.128, 4201.538, 0, 0, []
1628360601.6997, 54, 0, 4192.308, 4221.538, 4099.487, 4143.077, 4193.846, 0, 0, []
1628360601.7076, 55, 0, 4174.872, 4209.744, 4065.641, 4124.615, 4176.41, 0, 0, []
1628360601.7155, 56, 0, 4175.897, 4210.769, 4034.872, 4123.077, 4182.564, 0, 0, []
1628360601.7234, 57, 0, 4174.359, 4209.231, 4037.436, 4127.692, 4188.718, 0, 0, []
1628360601.7314, 58, 0, 4185.128, 4213.333, 4042.564, 4135.897, 4194.359, 0, 0, []
1628360601.7393, 59, 0, 4193.333, 4216.41, 4021.538, 4131.795, 4196.923, 0, 0, []
1628360601.7473, 60, 0, 4178.974, 4207.692, 4013.846, 4116.923, 4188.205, 0, 0, []
1628360601.7551, 61, 0, 4203.077, 4220, 4072.308, 4146.667, 4212.821, 0, 0, []
1628360601.7629, 62, 0, 4222.051, 4223.077, 4109.744, 4167.179, 4222.564, 0, 0, []
1628360601.7708, 63, 0, 4175.897, 4192.821, 4071.282, 4119.487, 4176.923, 0, 0, []
1628360601.7786, 64, 0, 4178.974, 4209.231, 4118.462, 4117.949, 4183.077, 450, 0, []
1628360601.7865, 65, 0, 4233.333, 4254.359, 4218.462, 4170.256, 4230.769, 450, 0, []
1628360601.7942, 66, 0, 4213.333, 4239.487, 4207.179, 4153.333, 4211.282, 16185, 0, []
1628360601.8021, 67, 0, 4174.872, 4211.282, 4172.308, 4111.282, 4173.846, 450, 0, []
1628360601.8099, 68, 0, 4209.231, 4230.769, 4189.231, 4137.436, 4198.462, 16174, 0, []
1628360601.8178, 69, 0, 4231.795, 4244.615, 4208.718, 4164.615, 4222.564, 450, 0, []
1628360601.8256, 70, 0, 4205.128, 4229.231, 4224.103, 4139.487, 4204.103, 265, 0, []
1628360601.8335, 71, 0, 4202.564, 4221.026, 4263.077, 4129.231, 4200.513, 450, 0, []
1628360601.8414, 72, 0, 4218.974, 4220.513, 4306.667, 4148.718, 4215.385, 450, 0, []
1628360601.8494, 73, 0, 4208.718, 4218.462, 4291.282, 4144.615, 4208.205, 16172, 0, []
1628360601.8573, 74, 0, 4192.308, 4214.359, 4299.487, 4125.128, 4192.308, 450, 0, []
1628360601.8653, 75, 0, 4207.692, 4221.538, 4424.615, 4139.487, 4204.615, 16190, 0, []
1628360601.8731, 76, 0, 4225.641, 4235.385, 4516.923, 4157.949, 4215.897, 450, 0, []
1628360601.8811, 77, 0, 4211.795, 4222.051, 4498.974, 4128.718, 4201.026, 450, 0, []
1628360601.889, 78, 0, 4223.59, 4210.256, 4488.718, 4119.487, 4216.923, 450, 0, []
1628360601.897, 79, 0, 4252.308, 4231.282, 4506.667, 4156.41, 4247.692, 16190, 0, []
1628360601.9049, 80, 0, 4234.359, 4248.718, 4526.154, 4159.487, 4229.231, 450, 0, []
1628360601.9126, 81, 0, 4218.974, 4236.923, 4563.59, 4137.436, 4211.282, 450, 0, []
1628360601.9205, 82, 0, 4231.795, 4225.641, 4531.795, 4140.513, 4223.077, 450, 0, []
1628360601.9283, 83, 0, 4228.718, 4240, 4372.821, 4140.513, 4224.103, 16190, 0, []
1628360601.9362, 84, 0, 4224.615, 4248.205, 4239.487, 4135.385, 4213.846, 450, 0, []
1628360601.944, 85, 0, 4240, 4234.359, 4206.154, 4147.692, 4221.026, 450, 0, []
1628360601.9519, 86, 0, 4250.769, 4238.974, 4129.744, 4159.487, 4240.513, 450, 0, []
1628360601.9596, 87, 0, 4245.128, 4246.667, 3998.462, 4155.385, 4240, 16190, 0, []
1628360601.9675, 88, 0, 4226.667, 4226.154, 3963.59, 4142.564, 4215.897, 450, 0, []
1628360601.9753, 89, 0, 4213.846, 4217.436, 4112.308, 4131.282, 4205.128, 450, 0, []
1628360601.9833, 90, 0, 4222.051, 4225.641, 4305.641, 4132.308, 4215.897, 450, 0, []
1628360601.9912, 91, 0, 4238.974, 4227.692, 4371.282, 4147.179, 4232.308, 16190, 0, []
1628360601.9991, 92, 0, 4244.103, 4227.692, 4431.795, 4150.256, 4238.974, 450, 0, []
1628360602.007, 93, 0, 4234.359, 4222.051, 4554.872, 4137.436, 4232.308, 450, 0, []
1628360602.015, 94, 0, 4229.231, 4218.974, 4618.462, 4127.692, 4223.59, 450, 0, []
1628360602.0229, 95, 0, 4224.103, 4222.051, 4621.026, 4116.923, 4212.308, 16190, 0, []
1628360602.0309, 96, 0, 4211.282, 4211.795, 4638.974, 4115.897, 4203.59, 450, 0, []
1628360602.0387, 97, 0, 4203.077, 4193.846, 4701.026, 4120.513, 4201.026, 450, 0, []
1628360602.0467, 98, 0, 4214.872, 4197.436, 4745.641, 4123.59, 4208.718, 450, 0, []
1628360602.0546, 99, 0, 4235.385, 4214.359, 4762.051, 4138.974, 4226.154, 16190, 0, []
1628360602.0624, 100, 0, 4241.026, 4231.795, 4804.615, 4160, 4232.821, 450, 0, []
1628360602.0703, 101, 0, 4236.41, 4236.923, 4804.615, 4160, 4225.641, 450, 0, []
1628360602.078, 102, 0, 4228.718, 4233.333, 4777.949, 4146.667, 4217.436, 450, 0, []
1628360602.0859, 103, 0, 4223.59, 4231.795, 4812.821, 4138.462, 4214.359, 16190, 0, []
1628360602.0937, 104, 0, 4211.282, 4216.41, 4840.513, 4121.026, 4200, 450, 0, []
1628360602.1016, 105, 0, 4206.154, 4212.308, 4844.103, 4114.359, 4189.231, 450, 0, []
1628360602.1094, 106, 0, 4226.154, 4229.231, 4877.436, 4130.769, 4208.205, 450, 0, []
1628360602.1172, 107, 0, 4237.436, 4236.923, 4951.282, 4145.641, 4224.615, 16190, 0, []
1628360602.125, 108, 0, 4222.051, 4230.256, 5003.077, 4142.564, 4208.205, 450, 0, []
1628360602.1329, 109, 0, 4195.897, 4217.949, 4995.385, 4114.872, 4177.436, 450, 0, []
1628360602.1407, 110, 0, 4200.513, 4220.513, 5026.667, 4109.744, 4182.564, 450, 0, []
1628360602.1487, 111, 0, 4216.923, 4226.154, 5078.974, 4126.154, 4204.615, 16190, 0, []
1628360602.1566, 112, 0, 4220, 4227.179, 5088.205, 4128.718, 4209.231, 450, 0, []
1628360602.1645, 113, 0, 4226.154, 4228.718, 5082.051, 4133.846, 4208.205, 450, 0, []
1628360602.1724, 114, 0, 4221.026, 4223.59, 5060, 4135.385, 4195.897, 450, 0, []
1628360602.1804, 115, 0, 4209.744, 4215.897, 5018.462, 4128.205, 4186.667, 16190, 0, []
1628360602.1883, 116, 0, 4212.821, 4216.923, 4960.513, 4128.205, 4189.744, 450, 0, []
1628360602.1963, 117, 0, 4211.282, 4218.974, 4912.308, 4121.026, 4182.564, 450, 0, []
1628360602.2041, 118, 0, 4196.923, 4213.333, 4883.077, 4090.769, 4164.615, 450, 0, []
1628360602.2121, 119, 0, 4198.462, 4223.077, 4893.846, 4083.077, 4165.128, 16190, 0, []
1628360602.22, 120, 0, 4206.154, 4235.385, 4962.564, 4109.744, 4174.359, 450, 0, []
1628360602.2278, 121, 0, 4197.436, 4222.564, 5013.333, 4127.692, 4173.846, 450, 0, []
1628360602.2357, 122, 0, 4186.667, 4199.487, 5003.077, 4134.872, 4176.41, 450, 0, []
1628360602.2434, 123, 0, 4145.641, 4181.026, 4961.538, 4114.872, 4146.667, 16190, 0, []
1628360602.2513, 124, 0, 4111.282, 4179.487, 4933.333, 4092.821, 4117.436, 450, 0, []
1628360602.2591, 125, 0, 4142.051, 4197.436, 4941.538, 4105.641, 4144.615, 450, 0, []
1628360602.267, 126, 0, 4175.897, 4217.436, 4931.795, 4117.436, 4176.923, 450, 0, []
1628360602.2748, 127, 0, 4166.667, 4220, 4896.41, 4107.179, 4181.026, 16190, 0, []
1628360602.2826, 128, 0, 4163.59, 4219.487, 4890.769, 4104.615, 4173.846, 450, 0, []
1628360602.2904, 0, 0, 4173.846, 4220.513, 4851.282, 4109.744, 4167.692, 450, 0, []
1628360602.2984, 1, 0, 4160.513, 4206.667, 4768.205, 4108.205, 4155.385, 450, 0, []
1628360602.3063, 2, 0, 4159.487, 4198.462, 4726.154, 4123.59, 4161.026, 16185, 0, []
1628360602.3143, 3, 0, 4186.667, 4210.256, 4717.949, 4146.154, 4190.769, 450, 0, []
1628360602.3221, 4, 0, 4185.128, 4216.923, 4706.154, 4142.564, 4192.821, 16174, 0, []
1628360602.3301, 5, 0, 4171.282, 4211.795, 4689.744, 4134.872, 4175.897, 450, 0, []
1628360602.338, 6, 0, 4167.179, 4206.154, 4671.282, 4121.026, 4166.154, 254, 0, []
1628360602.346, 7, 0, 4153.846, 4200, 4633.846, 4094.872, 4154.359, 450, 0, []
1628360602.3539, 8, 0, 4155.897, 4205.128, 4600.513, 4096.923, 4150.256, 450, 0, []
1628360602.3619, 9, 0, 4181.538, 4226.154, 4590.256, 4124.103, 4166.667, 16172, 0, []
1628360602.3697, 10, 0, 4183.077, 4232.308, 4540.513, 4123.077, 4171.795, 450, 0, []
1628360602.3775, 11, 0, 4169.231, 4216.41, 4478.974, 4111.282, 4151.795, 16190, 0, []
1628360602.3854, 12, 0, 4189.744, 4209.231, 4445.128, 4143.59, 4166.667, 450, 0, []
1628360602.3933, 13, 0, 4218.462, 4227.692, 4381.538, 4184.615, 4209.231, 450, 0, []
1628360602.4012, 14, 0, 4201.026, 4234.359, 4263.077, 4169.231, 4197.436, 450, 0, []
1628360602.4091, 15, 0, 4169.744, 4219.487, 4124.103, 4135.385, 4160.513, 16190, 0, []
1628360602.417, 16, 0, 4174.872, 4214.872, 4051.282, 4143.077, 4171.282, 0, 0, []
1628360602.4248, 17, 0, 4185.128, 4212.821, 4032.821, 4145.641, 4178.462, 0, 0, []
1628360602.4327, 18, 0, 4176.41, 4206.667, 3972.308, 4123.077, 4159.487, 0, 0, []
1628360602.4405, 19, 0, 4176.41, 4219.487, 3898.462, 4129.744, 4167.692, 0, 0, []
1628360602.4484, 20, 0, 4177.949, 4232.308, 3841.538, 4135.897, 4174.872, 0, 0, []
1628360602.4563, 21, 0, 4178.974, 4226.154, 3807.692, 4123.077, 4162.564, 0, 0, []
1628360602.4643, 22, 0, 4203.59, 4230.769, 3785.128, 4142.564, 4185.128, 0, 0, []
1628360602.4722, 23, 0, 4228.205, 4236.923, 3702.564, 4165.641, 4212.821, 0, 0, []
1628360602.4802, 24, 0, 4213.333, 4216.41, 3623.077, 4146.154, 4188.205, 0, 0, []
1628360602.488, 25, 0, 4200.513, 4211.282, 3636.41, 4129.231, 4177.436, 0, 0, []
1628360602.496, 26, 0, 4214.872, 4234.359, 3646.154, 4145.128, 4205.641, 0, 0, []
1628360602.5039, 27, 0, 4216.41, 4237.949, 3583.59, 4156.41, 4199.487, 0, 0, []
1628360602.5119, 28, 0, 4206.154, 4228.718, 3519.487, 4152.308, 4174.872, 0, 0, []
1628360602.5198, 29, 0, 4199.487, 4228.718, 3503.077, 4141.026, 4173.846, 0, 0, []
1628360602.5275, 30, 0, 4178.462, 4210.769, 3489.744, 4118.974, 4155.897, 0, 0, []
1628360602.5354, 31, 0, 4173.333, 4194.872, 3478.462, 4115.897, 4143.59, 0, 0, []
1628360602.5432, 32, 0, 4203.59, 4210.256, 3494.872, 4140.513, 4176.41, 0, 0, []
1628360602.5511, 33, 0, 4186.667, 4204.615, 3472.821, 4128.205, 4172.821, 0, 0, []
1628360602.5589, 34, 0, 4152.821, 4187.692, 3449.744, 4101.538, 4140.513, 0, 0, []
1628360602.5668, 35, 0, 4188.718, 4210.256, 3484.615, 4128.205, 4168.205, 0, 0, []
1628360602.5745, 36, 0, 4206.154, 4226.154, 3507.692, 4147.692, 4192.821, 0, 0, []
1628360602.5824, 37, 0, 4170.769, 4214.872, 3508.205, 4137.949, 4169.744, 0, 0, []
1628360602.5902, 38, 0, 4161.538, 4211.795, 3493.846, 4148.718, 4155.897, 0, 0, []
1628360602.5981, 39, 0, 4173.333, 4214.872, 3485.641, 4157.949, 4157.436, 0, 0, []
1628360602.6059, 40, 0, 4184.615, 4226.667, 3530.256, 4163.077, 4173.333, 0, 0, []
1628360602.6138, 41, 0, 4189.231, 4225.641, 3603.59, 4167.179, 4187.179, 0, 0, []
1628360602.6217, 42, 0, 4156.41, 4188.718, 3624.615, 4129.231, 4150.256, 0, 0, []
1628360602.6297, 43, 0, 4138.462, 4181.538, 3555.385, 4105.641, 4123.59, 0, 0, []
1628360602.6376, 44, 0, 4165.641, 4213.333, 3488.718, 4145.128, 4158.974, 0, 0, []
1628360602.6456, 45, 0, 4183.59, 4220.513, 3482.051, 4165.128, 4188.718, 0, 0, []
1628360602.6534, 46, 0, 4188.718, 4217.436, 3489.744, 4144.615, 4185.128, 0, 0, []
1628360602.6614, 47, 0, 4184.103, 4221.538, 3500, 4135.897, 4165.641, 0, 0, []
1628360602.6693, 48, 0, 4154.359, 4204.103, 3515.897, 4125.128, 4137.436, 0, 0, []
1628360602.6773, 49, 0, 4147.692, 4191.795, 3558.974, 4113.333, 4140, 0, 0, []
1628360602.6852, 50, 0, 4184.615, 4206.154, 3613.333, 4139.487, 4174.359, 0, 0, []
1628360602.6929, 51, 0, 4193.333, 4205.641, 3624.103, 4155.385, 4179.487, 0, 0, []
1628360602.7008, 52, 0, 4157.436, 4182.051, 3623.59, 4125.128, 4153.846, 0, 0, []
1628360602.7086, 53, 0, 4141.538, 4174.359, 3625.641, 4112.821, 4145.641, 0, 0, []
1628360602.7165, 54, 0, 4161.026, 4187.179, 3607.692, 4131.282, 4152.308, 0, 0, []
1628360602.7243, 55, 0, 4189.231, 4209.231, 3596.923, 4144.103, 4172.308, 0, 0, []
1628360602.7321, 56, 0, 4210.256, 4226.154, 3605.128, 4162.051, 4204.103, 0, 0, []
1628360602.7399, 57, 0, 4194.359, 4212.821, 3605.128, 4153.846, 4186.154, 0, 0, []
1628360602.7478, 58, 0, 4159.487, 4184.615, 3565.641, 4108.718, 4135.897, 0, 0, []
1628360602.7556, 59, 0, 4176.41, 4190.769, 3546.667, 4120, 4154.359, 0, 0, []
1628360602.7636, 60, 0, 4203.59, 4217.436, 3558.974, 4164.103, 4193.846, 0, 0, []
1628360602.7715, 61, 0, 4190.256, 4220, 3534.359, 4149.744, 4175.385, 0, 0, []
1628360602.7794, 62, 0, 4185.641, 4209.744, 3584.615, 4127.179, 4154.872, 0, 0, []
1628360602.7873, 63, 0, 4202.564, 4207.179, 3744.103, 4145.128, 4173.333, 0, 0, []
1628360602.7953, 64, 0, 4194.872, 4201.026, 3824.103, 4140, 4173.846, 450, 0, []
1628360602.8032, 65, 0, 4169.744, 4189.744, 3799.487, 4107.179, 4136.41, 450, 0, []
1628360602.8112, 66, 0, 4180, 4197.949, 3765.128, 4117.436, 4140, 16187, 0, []
1628360602.819, 67, 0, 4199.487, 4212.821, 3686.154, 4145.641, 4171.282, 450, 0, []
1628360602.827, 68, 0, 4178.974, 4203.077, 3575.385, 4112.308, 4142.564, 16177, 0, []
1628360602.8349, 69, 0, 4168.718, 4203.59, 3605.641, 4086.154, 4115.897, 450, 0, []
1628360602.8427, 70, 0, 4215.385, 4230.769, 3735.385, 4145.128, 4170.256, 281, 0, []
1628360602.8506, 71, 0, 4251.795, 4248.205, 3756.923, 4193.333, 4213.846, 450, 0, []
1628360602.8583, 72, 0, 4226.667, 4237.436, 3749.231, 4164.615, 4183.59, 450, 0, []
1628360602.8662, 73, 0, 4189.744, 4209.231, 3791.282, 4129.231, 4149.744, 16173, 0, []
1628360602.874, 74, 0, 4171.282, 4183.59, 3758.462, 4116.923, 4138.974, 450, 0, []
1628360602.8819, 75, 0, 4162.051, 4176.41, 3673.846, 4099.487, 4120.513, 16193, 0, []
1628360602.8897, 76, 0, 4170.769, 4192.308, 3671.282, 4098.462, 4120.513, 450, 0, []
1628360602.8975, 77, 0, 4187.692, 4210.256, 3720.513, 4124.615, 4148.205, 450, 0, []
1628360602.9053, 78, 0, 4195.897, 4217.436, 3674.872, 4135.385, 4165.128, 450, 0, []
1628360602.9133, 79, 0, 4206.667, 4222.051, 3588.205, 4129.744, 4168.205, 16193, 0, []
1628360602.9212, 80, 0, 4206.154, 4215.385, 3679.487, 4121.538, 4156.41, 450, 0, []
1628360602.9292, 81, 0, 4181.538, 4185.128, 3878.974, 4106.154, 4133.333, 450, 0, []
1628360602.937, 82, 0, 4184.103, 4178.974, 3947.692, 4111.282, 4140.513, 450, 0, []
1628360602.945, 83, 0, 4221.026, 4216.41, 3843.59, 4148.205, 4173.333, 16193, 0, []
1628360602.9529, 84, 0, 4222.051, 4216.41, 3721.026, 4151.795, 4175.385, 450, 0, []
1628360602.9609, 85, 0, 4201.026, 4193.333, 3707.179, 4128.718, 4158.974, 450, 0, []
1628360602.9688, 86, 0, 4217.436, 4212.821, 3705.128, 4148.205, 4167.692, 450, 0, []
1628360602.9768, 87, 0, 4226.154, 4217.436, 3631.795, 4165.128, 4169.231, 16193, 0, []
1628360602.9846, 88, 0, 4197.949, 4183.077, 3574.872, 4131.282, 4148.205, 450, 0, []
1628360602.9926, 89, 0, 4186.667, 4177.949, 3568.205, 4104.615, 4142.564, 450, 0, []
1628360603.0005, 90, 0, 4187.692, 4195.385, 3545.641, 4107.179, 4137.949, 450, 0, []
1628360603.0083, 91, 0, 4174.359, 4184.615, 3513.333, 4103.077, 4120, 16193, 0, []
1628360603.0162, 92, 0, 4182.564, 4180.513, 3591.282, 4108.205, 4133.846, 450, 0, []
1628360603.0239, 93, 0, 4213.333, 4204.615, 3674.359, 4128.718, 4168.718, 450, 0, []
1628360603.0318, 94, 0, 4208.205, 4205.128, 3675.385, 4122.564, 4162.051, 450, 0, []
1628360603.0396, 95, 0, 4187.692, 4192.821, 3907.179, 4107.179, 4145.641, 16193, 0, []
1628360603.0475, 96, 0, 4182.564, 4187.179, 4338.462, 4105.641, 4150.769, 450, 0, []
1628360603.0553, 97, 0, 4172.821, 4174.359, 4560, 4102.051, 4144.615, 450, 0, []
1628360603.0631, 98, 0, 4174.359, 4179.487, 4607.179, 4112.821, 4142.564, 450, 0, []
1628360603.0709, 99, 0, 4188.718, 4197.436, 4672.308, 4121.026, 4150.769, 16193, 0, []
1628360603.0788, 100, 0, 4190.256, 4201.538, 4704.103, 4107.179, 4141.026, 450, 0, []
1628360603.0866, 101, 0, 4185.128, 4203.59, 4702.564, 4104.103, 4128.718, 450, 0, []
1628360603.0946, 102, 0, 4189.744, 4209.231, 4724.103, 4113.846, 4136.923, 450, 0, []
1628360603.1024, 103, 0, 4189.231, 4206.154, 4731.795, 4113.846, 4142.564, 16193, 0, []
1628360603.1104, 104, 0, 4175.385, 4204.103, 4756.923, 4115.385, 4136.923, 450, 0, []
1628360603.1183, 105, 0, 4177.949, 4210.769, 4870.769, 4132.821, 4142.564, 450, 0, []
1628360603.1263, 106, 0, 4200.513, 4216.41, 4975.385, 4146.154, 4160, 450, 0, []
1628360603.1342, 107, 0, 4210.769, 4221.026, 5014.359, 4138.974, 4163.59, 16193, 0, []
1628360603.1421, 108, 0, 4195.897, 4213.333, 5062.051, 4123.077, 4145.128, 450, 0, []
1628360603.15, 109, 0, 4189.231, 4201.538, 5077.436, 4120, 4141.538, 450, 0, []
1628360603.1578, 110, 0, 4187.692, 4199.487, 4976.923, 4110.769, 4140.513, 450, 0, []
1628360603.1657, 111, 0, 4185.128, 4204.103, 4788.718, 4105.128, 4134.359, 16193, 0, []
1628360603.1735, 112, 0, 4210.256, 4225.128, 4568.205, 4139.487, 4161.026, 450, 0, []
1628360603.1813, 113, 0, 4222.051, 4234.872, 4288.205, 4148.205, 4173.846, 450, 0, []
1628360603.1891, 114, 0, 4198.974, 4218.974, 3945.641, 4117.436, 4151.795, 450, 0, []
1628360603.197, 115, 0, 4192.308, 4211.795, 3711.795, 4125.641, 4154.359, 16193, 0, []
1628360603.2048, 116, 0, 4198.974, 4216.41, 3666.667, 4133.333, 4165.128, 450, 0, []
1628360603.2127, 117, 0, 4197.949, 4209.744, 3621.538, 4108.718, 4159.487, 450, 0, []
1628360603.2205, 118, 0, 4185.641, 4199.487, 3548.205, 4109.231, 4157.436, 450, 0, []
1628360603.2284, 119, 0, 4149.231, 4193.333, 3667.179, 4113.846, 4134.359, 16193, 0, []
1628360603.2363, 120, 0, 4138.462, 4204.103, 4008.718, 4111.795, 4115.385, 450, 0, []
1628360603.2443, 121, 0, 4170.256, 4233.846, 4336.41, 4138.974, 4141.538, 450, 0, []
1628360603.2522, 122, 0, 4185.128, 4245.128, 4492.308, 4163.59, 4166.667, 450, 0, []
1628360603.2602, 123, 0, 4169.744, 4223.59, 4552.308, 4142.051, 4151.282, 16193, 0, []
1628360603.268, 124, 0, 4150.256, 4190.769, 4564.615, 4097.436, 4122.051, 450, 0, []
1628360603.276, 125, 0, 4157.436, 4190.769, 4570.769, 4093.333, 4127.692, 450, 0, []
1628360603.2839, 126, 0, 4183.59, 4223.077, 4598.974, 4124.615, 4147.692, 450, 0, []
1628360603.2919, 127, 0, 4181.026, 4236.41, 4556.923, 4127.692, 4134.872, 16193, 0, []
1628360603.2998, 128, 0, 4160.513, 4230.256, 4477.949, 4114.359, 4115.385, 450, 0, []
1628360603.3075, 0, 0, 4180.513, 4238.462, 4390.256, 4140, 4137.949, 450, 0, []
1628360603.3154, 1, 0, 4184.615, 4231.282, 4229.231, 4142.564, 4146.154, 450, 0, []
1628360603.3232, 2, 0, 4145.641, 4206.154, 4075.385, 4102.051, 4110.256, 16187, 0, []
1628360603.3311, 3, 0, 4170.256, 4235.385, 3991.795, 4120.513, 4127.179, 450, 0, []
1628360603.3389, 4, 0, 4222.051, 4271.795, 3891.282, 4162.051, 4173.333, 16178, 0, []
1628360603.3467, 5, 0, 4210.769, 4250.256, 3747.692, 4149.231, 4168.205, 450, 0, []
1628360603.3545, 6, 0, 4190.769, 4227.179, 3676.41, 4132.821, 4151.282, 271, 0, []
1628360603.3624, 7, 0, 4195.897, 4217.949, 3707.692, 4138.974, 4147.692, 450, 0, []
1628360603.3702, 8, 0, 4196.41, 4207.692, 3726.667, 4144.615, 4146.154, 450, 0, []
1628360603.3782, 9, 0, 4181.538, 4203.077, 3724.615, 4138.974, 4144.615, 16173, 0, []
1628360603.386, 10, 0, 4174.359, 4216.923, 3730.256, 4130.256, 4145.128, 450, 0, []
1628360603.3939, 11, 0, 4191.795, 4241.538, 3721.538, 4143.077, 4158.974, 16236, 0, []
1628360603.4019, 12, 0, 4212.821, 4241.026, 3728.718, 4163.077, 4178.462, 450, 0, []
1628360603.4099, 13, 0, 4199.487, 4214.872, 3701.538, 4128.205, 4160.513, 450, 0, []
1628360603.4178, 14, 0, 4181.026, 4215.897, 3668.718, 4096.923, 4132.308, 450, 0, []
1628360603.4258, 15, 0, 4190.769, 4235.897, 3722.564, 4134.872, 4144.615, 16236, 0, []
1628360603.4336, 16, 0, 4177.949, 4209.744, 3757.949, 4143.077, 4142.564, 0, 0, []
1628360603.4416, 17, 0, 4154.359, 4189.231, 3708.205, 4106.154, 4113.846, 0, 0, []
1628360603.4495, 18, 0, 4176.923, 4227.179, 3669.744, 4123.077, 4129.744, 0, 0, []
1628360603.4575, 19, 0, 4196.923, 4241.026, 3669.744, 4153.846, 4161.026, 0, 0, []
1628360603.4654, 20, 0, 4181.026, 4211.795, 3641.538, 4135.897, 4147.179, 0, 0, []
1628360603.4731, 21, 0, 4185.128, 4209.744, 3640, 4132.308, 4138.974, 0, 0, []
1628360603.481, 22, 0, 4206.154, 4236.923, 3703.077, 4154.872, 4160, 0, 0, []
1628360603.4888, 23, 0, 4204.615, 4236.923, 3707.179, 4151.795, 4160.513, 0, 0, []
1628360603.4967, 24, 0, 4194.872, 4221.538, 3672.821, 4135.897, 4144.103, 0, 0, []
1628360603.5045, 25, 0, 4202.051, 4231.282, 3683.077, 4146.667, 4152.821, 0, 0, []
1628360603.5123, 26, 0, 4208.205, 4235.897, 3681.538, 4163.59, 4169.744, 0, 0, []
1628360603.5201, 27, 0, 4189.744, 4211.795, 3639.487, 4145.128, 4146.667, 0, 0, []
1628360603.528, 28, 0, 4172.821, 4196.41, 3651.795, 4119.487, 4122.051, 0, 0, []
1628360603.5358, 29, 0, 4169.744, 4196.41, 3831.282, 4114.359, 4124.615, 0, 0, []
1628360603.5437, 30, 0, 4168.205, 4196.923, 4136.41, 4121.538, 4128.718, 0, 0, []
1628360603.5514, 31, 0, 4199.487, 4211.795, 4331.795, 4140.513, 4152.308, 0, 0, []
1628360603.5594, 32, 0, 4243.077, 4224.103, 4359.487, 4158.974, 4191.282, 0, 0, []
1628360603.5673, 33, 0, 4243.077, 4216.923, 4352.308, 4154.872, 4194.359, 0, 0, []
1628360603.5753, 34, 0, 4234.872, 4218.974, 4283.59, 4147.692, 4177.949, 0, 0, []
1628360603.5832, 35, 0, 4227.692, 4211.282, 4051.795, 4138.462, 4166.154, 0, 0, []
1628360603.5911, 36, 0, 4203.077, 4184.103, 3799.487, 4112.308, 4154.359, 0, 0, []
1628360603.599, 37, 0, 4215.897, 4198.974, 3738.974, 4127.179, 4169.231, 0, 0, []
1628360603.607, 38, 0, 4246.667, 4227.179, 3745.641, 4164.615, 4193.846, 0, 0, []
1628360603.6149, 39, 0, 4223.077, 4203.59, 3693.846, 4147.179, 4177.436, 0, 0, []
1628360603.6229, 40, 0, 4209.231, 4187.179, 3646.667, 4131.795, 4164.615, 0, 0, []
1628360603.6308, 41, 0, 4242.564, 4208.718, 3668.718, 4166.667, 4192.821, 0, 0, []
1628360603.6385, 42, 0, 4234.872, 4207.179, 3884.103, 4169.231, 4194.872, 0, 0, []
1628360603.6464, 43, 0, 4195.897, 4187.179, 4197.436, 4127.692, 4160, 0, 0, []
1628360603.6542, 44, 0, 4206.154, 4196.923, 4400, 4126.667, 4160.513, 0, 0, []
1628360603.6621, 45, 0, 4226.154, 4208.718, 4520.513, 4144.103, 4178.462, 0, 0, []
1628360603.6699, 46, 0, 4228.205, 4208.718, 4634.872, 4135.897, 4180.513, 0, 0, []
1628360603.6777, 47, 0, 4256.923, 4229.231, 4714.359, 4153.333, 4202.564, 0, 0, []
1628360603.6855, 48, 0, 4260.513, 4229.231, 4719.487, 4163.077, 4204.615, 0, 0, []
1628360603.6935, 49, 0, 4214.359, 4192.308, 4711.795, 4129.231, 4164.615, 0, 0, []
1628360603.7014, 50, 0, 4225.641, 4205.641, 4783.59, 4136.41, 4174.872, 0, 0, []
1628360603.7093, 51, 0, 4283.077, 4260.513, 4857.436, 4188.205, 4229.744, 0, 0, []
1628360603.717, 52, 0, 4279.487, 4261.538, 4848.205, 4186.154, 4230.769, 0, 0, []
1628360603.725, 53, 0, 4244.103, 4227.179, 4804.103, 4150.256, 4198.974, 0, 0, []
1628360603.7329, 54, 0, 4248.205, 4222.051, 4718.462, 4152.821, 4203.59, 0, 0, []
1628360603.7409, 55, 0, 4262.051, 4230.256, 4570.256, 4165.641, 4214.872, 0, 0, []
1628360603.7488, 56, 0, 4257.436, 4227.692, 4401.026, 4162.051, 4209.231, 0, 0, []
1628360603.7567, 57, 0, 4238.462, 4218.462, 4263.077, 4152.308, 4191.795, 0, 0, []
1628360603.7646, 58, 0, 4218.462, 4208.718, 4141.026, 4135.897, 4169.231, 0, 0, []
1628360603.7726, 59, 0, 4226.154, 4220, 3981.026, 4133.333, 4181.026, 0, 0, []
1628360603.7805, 60, 0, 4251.795, 4246.154, 3845.641, 4155.897, 4208.205, 0, 0, []
1628360603.7883, 61, 0, 4271.282, 4254.359, 3765.641, 4181.538, 4216.923, 0, 0, []
1628360603.7961, 62, 0, 4260.513, 4226.154, 3698.974, 4167.692, 4203.59, 0, 0, []
1628360603.8039, 63, 0, 4229.744, 4193.333, 3746.154, 4132.308, 4182.051, 0, 0, []
1628360603.8118, 64, 0, 4238.462, 4202.051, 3950.769, 4142.564, 4189.744, 450, 0, []
1628360603.8196, 65, 0, 4262.564, 4226.667, 4125.128, 4166.667, 4212.821, 450, 0, []
1628360603.8275, 66, 0, 4244.615, 4214.359, 4160, 4136.923, 4197.949, 16186, 0, []
1628360603.8352, 67, 0, 4235.897, 4202.564, 4178.974, 4121.026, 4186.667, 450, 0, []
1628360603.8431, 68, 0, 4263.077, 4231.282, 4210.256, 4162.564, 4217.949, 16175, 0, []
1628360603.8509, 69, 0, 4269.744, 4243.59, 4199.487, 4182.564, 4230.256, 450, 0, []
1628360603.8589, 70, 0, 4247.179, 4222.051, 4158.974, 4156.41, 4207.179, 266, 0, []
1628360603.8668, 71, 0, 4222.564, 4206.154, 3994.872, 4128.205, 4183.59, 450, 0, []
1628360603.8748, 72, 0, 4211.795, 4200, 3787.692, 4113.846, 4167.692, 450, 0, []
1628360603.8826, 73, 0, 4240, 4212.821, 3727.179, 4134.359, 4191.795, 16173, 0, []
1628360603.8906, 74, 0, 4255.897, 4232.308, 3724.103, 4158.974, 4219.487, 450, 0, []
1628360603.8985, 75, 0, 4214.872, 4221.538, 3723.077, 4138.462, 4180, 16204, 0, []
1628360603.9065, 76, 0, 4198.974, 4213.333, 3751.795, 4133.333, 4156.923, 450, 0, []
1628360603.9144, 77, 0, 4218.974, 4229.744, 3828.718, 4166.154, 4198.462, 450, 0, []
1628360603.9223, 78, 0, 4190.769, 4221.026, 4028.205, 4163.59, 4193.333, 450, 0, []
1628360603.9302, 79, 0, 4148.718, 4198.974, 4291.795, 4132.821, 4152.821, 16204, 0, []
1628360603.938, 80, 0, 4153.333, 4196.41, 4483.077, 4125.128, 4157.436, 450, 0, []
1628360603.9459, 81, 0, 4173.333, 4198.462, 4582.051, 4129.744, 4176.923, 450, 0, []
1628360603.9537, 82, 0, 4185.641, 4210.256, 4663.59, 4137.949, 4186.667, 450, 0, []
1628360603.9615, 83, 0, 4180.513, 4223.59, 4738.974, 4139.487, 4185.641, 16204, 0, []
1628360603.9693, 84, 0, 4154.872, 4201.538, 4747.179, 4116.41, 4153.333, 450, 0, []
1628360603.9772, 85, 0, 4144.615, 4177.949, 4736.923, 4113.846, 4135.385, 450, 0, []
1628360603.985, 86, 0, 4156.923, 4189.744, 4739.487, 4143.59, 4157.436, 450, 0, []
1628360603.9929, 87, 0, 4161.026, 4199.487, 4684.615, 4138.974, 4160, 16204, 0, []
1628360604.0006, 88, 0, 4143.077, 4178.462, 4587.692, 4100, 4126.667, 450, 0, []
1628360604.0085, 89, 0, 4134.872, 4159.487, 4505.641, 4091.282, 4123.59, 450, 0, []
1628360604.0163, 90, 0, 4151.282, 4173.846, 4369.744, 4112.821, 4151.795, 450, 0, []
1628360604.0243, 91, 0, 4137.949, 4176.41, 4125.641, 4097.949, 4128.718, 16204, 0, []
1628360604.0322, 92, 0, 4117.949, 4168.205, 3926.154, 4090.256, 4109.744, 450, 0, []
1628360604.0401, 93, 0, 4153.846, 4195.385, 3860.513, 4138.462, 4154.872, 450, 0, []
1628360604.048, 94, 0, 4181.538, 4212.821, 3824.103, 4154.359, 4173.333, 450, 0, []
1628360604.056, 95, 0, 4154.872, 4183.077, 3780, 4115.385, 4141.538, 16204, 0, []
1628360604.0639, 96, 0, 4153.333, 4168.718, 3758.974, 4116.41, 4149.744, 450, 0, []
1628360604.0719, 97, 0, 4190.256, 4203.077, 3740, 4151.282, 4192.308, 450, 0, []
1628360604.0798, 98, 0, 4197.436, 4228.718, 3708.205, 4146.154, 4192.308, 450, 0, []
1628360604.0875, 99, 0, 4178.974, 4205.128, 3668.205, 4121.538, 4167.692, 16204, 0, []
1628360604.0954, 100, 0, 4159.487, 4173.846, 3659.487, 4102.051, 4149.744, 450, 0, []
1628360604.1032, 101, 0, 4161.538, 4188.205, 3701.538, 4106.154, 4151.795, 450, 0, []
1628360604.1111, 102, 0, 4167.179, 4201.538, 3699.487, 4126.667, 4155.385, 450, 0, []
1628360604.1189, 103, 0, 4123.077, 4151.282, 3655.897, 4088.718, 4107.179, 16204, 0, []
1628360604.1267, 104, 0, 4120, 4145.641, 3671.282, 4066.154, 4102.051, 450, 0, []
1628360604.1345, 105, 0, 4192.308, 4218.462, 3708.205, 4129.744, 4178.462, 450, 0, []
1628360604.1424, 106, 0, 4213.846, 4233.333, 3702.051, 4155.897, 4195.897, 450, 0, []
1628360604.1502, 107, 0, 4180, 4191.282, 3694.872, 4110.769, 4150.256, 16204, 0, []
1628360604.1582, 108, 0, 4175.385, 4189.231, 3737.436, 4103.077, 4150.256, 450, 0, []
1628360604.166, 109, 0, 4185.128, 4206.667, 3762.051, 4132.308, 4172.821, 450, 0, []
1628360604.174, 110, 0, 4195.897, 4209.231, 3748.718, 4145.641, 4180, 450, 0, []
1628360604.1819, 111, 0, 4196.41, 4200, 3767.179, 4138.462, 4177.436, 16204, 0, []
1628360604.1899, 112, 0, 4170.769, 4180, 3766.154, 4109.231, 4161.026, 450, 0, []
1628360604.1978, 113, 0, 4180.513, 4194.872, 3744.615, 4114.872, 4174.872, 450, 0, []
1628360604.2057, 114, 0, 4228.718, 4237.436, 3757.436, 4164.103, 4217.436, 450, 0, []
1628360604.2136, 115, 0, 4225.641, 4228.718, 3746.667, 4156.923, 4212.821, 16204, 0, []
1628360604.2216, 116, 0, 4178.974, 4187.179, 3726.154, 4105.128, 4174.872, 450, 0, []
1628360604.2295, 117, 0, 4176.41, 4183.59, 3727.179, 4105.128, 4172.821, 450, 0, []
1628360604.2374, 118, 0, 4185.128, 4185.641, 3690.256, 4126.667, 4174.872, 450, 0, []
1628360604.2452, 119, 0, 4169.231, 4184.103, 3729.231, 4122.564, 4161.026, 16204, 0, []
1628360604.253, 120, 0, 4176.923, 4208.205, 4024.615, 4127.692, 4178.974, 450, 0, []
1628360604.2609, 121, 0, 4202.564, 4216.923, 4416.923, 4142.051, 4194.872, 450, 0, []
1628360604.2687, 122, 0, 4212.821, 4205.128, 4621.026, 4148.718, 4190.769, 450, 0, []
1628360604.2766, 123, 0, 4212.821, 4213.846, 4703.59, 4150.256, 4195.897, 16204, 0, []
1628360604.2844, 124, 0, 4210.769, 4224.103, 4764.615, 4138.462, 4192.821, 450, 0, []
1628360604.2922, 125, 0, 4183.59, 4198.462, 4700.513, 4110.769, 4158.462, 450, 0, []
1628360604.3, 126, 0, 4162.564, 4180.513, 4593.846, 4103.59, 4137.436, 450, 0, []
1628360604.3079, 127, 0, 4182.051, 4191.282, 4469.231, 4121.026, 4152.821, 16204, 0, []
1628360604.3157, 128, 0, 4196.923, 4187.692, 4207.179, 4126.154, 4166.154, 450, 0, []
1628360604.3237, 0, 0, 4194.872, 4187.692, 3924.615, 4119.487, 4171.282, 450, 0, []
1628360604.3315, 1, 0, 4188.718, 4195.897, 3800.513, 4112.308, 4165.128, 450, 0, []
1628360604.3395, 2, 0, 4177.436, 4185.641, 3795.385, 4103.59, 4144.103, 16186, 0, []
1628360604.3474, 3, 0, 4178.974, 4182.051, 3767.179, 4110.769, 4153.333, 450, 0, []
1628360604.3554, 4, 0, 4194.872, 4199.487, 3732.308, 4128.205, 4175.897, 16175, 0, []
1628360604.3633, 5, 0, 4191.795, 4206.667, 3723.077, 4115.897, 4156.923, 450, 0, []
1628360604.3712, 6, 0, 4180.513, 4197.949, 3688.718, 4095.385, 4145.641, 265, 0, []
1628360604.3791, 7, 0, 4190.256, 4200.513, 3665.128, 4111.795, 4173.333, 450, 0, []
1628360604.3871, 8, 0, 4202.564, 4200, 3673.333, 4135.897, 4182.564, 450, 0, []
1628360604.395, 9, 0, 4208.718, 4200.513, 3707.179, 4141.538, 4176.923, 16173, 0, []
1628360604.4029, 10, 0, 4206.667, 4206.154, 3758.974, 4137.436, 4182.564, 450, 0, []
1628360604.4107, 11, 0, 4189.231, 4202.564, 3761.026, 4120.513, 4168.205, 16187, 0, []
1628360604.4185, 12, 0, 4186.667, 4199.487, 3716.41, 4107.692, 4151.795, 450, 0, []
1628360604.4265, 13, 0, 4196.923, 4202.051, 3668.205, 4111.282, 4161.538, 450, 0, []
1628360604.4344, 14, 0, 4197.436, 4199.487, 3651.282, 4110.769, 4177.436, 450, 0, []
1628360604.4423, 15, 0, 4194.359, 4186.154, 3663.077, 4102.051, 4176.41, 16187, 0, []
1628360604.45, 16, 0, 4169.744, 4165.641, 3629.744, 4078.974, 4143.077, 0, 0, []
1628360604.4579, 17, 0, 4146.667, 4166.154, 3616.41, 4070.769, 4126.667, 0, 0, []
1628360604.4657, 18, 0, 4171.795, 4186.154, 3685.128, 4103.59, 4165.128, 0, 0, []
1628360604.4737, 19, 0, 4190.769, 4188.205, 3703.077, 4112.821, 4184.103, 0, 0, []
1628360604.4816, 20, 0, 4181.026, 4185.641, 3637.949, 4091.795, 4168.718, 0, 0, []
1628360604.4896, 21, 0, 4194.872, 4202.564, 3606.154, 4102.051, 4188.205, 0, 0, []
1628360604.4974, 22, 0, 4212.821, 4204.615, 3651.282, 4120.513, 4213.846, 0, 0, []
1628360604.5054, 23, 0, 4208.205, 4189.231, 3684.615, 4120, 4200, 0, 0, []
1628360604.5133, 24, 0, 4200, 4185.641, 3657.949, 4122.564, 4187.692, 0, 0, []
1628360604.5213, 25, 0, 4186.667, 4184.103, 3637.436, 4112.308, 4181.538, 0, 0, []
1628360604.5292, 26, 0, 4178.974, 4186.154, 3666.154, 4090.769, 4177.949, 0, 0, []
1628360604.5371, 27, 0, 4188.205, 4202.564, 3724.615, 4095.897, 4192.821, 0, 0, []
1628360604.545, 28, 0, 4181.538, 4201.026, 3740.513, 4093.846, 4192.308, 0, 0, []
1628360604.5528, 29, 0, 4171.282, 4185.128, 3734.872, 4073.333, 4181.538, 0, 0, []
1628360604.5607, 30, 0, 4186.154, 4187.179, 3771.795, 4086.667, 4186.154, 0, 0, []
1628360604.5685, 31, 0, 4215.385, 4201.538, 3753.846, 4135.385, 4209.744, 0, 0, []
1628360604.5763, 32, 0, 4225.641, 4200.513, 3682.051, 4166.154, 4231.282, 0, 0, []
1628360604.5841, 33, 0, 4190.769, 4177.949, 3658.974, 4136.41, 4201.538, 0, 0, []
1628360604.592, 34, 0, 4150.256, 4163.59, 3653.333, 4083.077, 4145.641, 0, 0, []
1628360604.5998, 35, 0, 4147.179, 4172.821, 3643.077, 4060.513, 4131.795, 0, 0, []
1628360604.6077, 36, 0, 4157.436, 4188.718, 3629.231, 4064.103, 4151.795, 0, 0, []
1628360604.6154, 37, 0, 4156.41, 4193.846, 3624.103, 4071.282, 4151.282, 0, 0, []
1628360604.6234, 38, 0, 4170.769, 4191.795, 3679.487, 4091.795, 4149.744, 0, 0, []
1628360604.6313, 39, 0, 4198.974, 4195.385, 3748.718, 4122.564, 4183.59, 0, 0, []
1628360604.6393, 40, 0, 4196.41, 4189.744, 3776.923, 4124.103, 4196.923, 0, 0, []
1628360604.6472, 41, 0, 4165.128, 4166.154, 3772.308, 4088.718, 4162.051, 0, 0, []
1628360604.6551, 42, 0, 4147.692, 4152.821, 3781.026, 4064.103, 4135.897, 0, 0, []
1628360604.663, 43, 0, 4155.385, 4168.718, 3817.949, 4081.026, 4144.615, 0, 0, []
1628360604.671, 44, 0, 4161.538, 4178.462, 3824.103, 4099.487, 4152.821, 0, 0, []
1628360604.6789, 45, 0, 4151.795, 4170.256, 3798.974, 4078.462, 4135.897, 0, 0, []
1628360604.6869, 46, 0, 4146.667, 4168.205, 3805.128, 4069.744, 4126.154, 0, 0, []
1628360604.6948, 47, 0, 4156.41, 4168.718, 3848.205, 4095.385, 4142.564, 0, 0, []
1628360604.7027, 48, 0, 4162.564, 4157.436, 3859.487, 4101.538, 4153.846, 0, 0, []
1628360604.7106, 49, 0, 4167.692, 4148.718, 3826.154, 4090.256, 4154.359, 0, 0, []
1628360604.7184, 50, 0, 4185.128, 4162.564, 3834.872, 4105.641, 4169.231, 0, 0, []
1628360604.7263, 51, 0, 4186.667, 4175.897, 3874.359, 4120, 4179.487, 0, 0, []
1628360604.7341, 52, 0, 4165.128, 4162.051, 3896.41, 4098.462, 4158.974, 0, 0, []
1628360604.7419, 53, 0, 4163.077, 4160, 3910.256, 4093.333, 4152.308, 0, 0, []
1628360604.7497, 54, 0, 4177.949, 4175.385, 3882.051, 4109.744, 4175.385, 0, 0, []
1628360604.7576, 55, 0, 4166.667, 4164.103, 3859.487, 4103.59, 4176.41, 0, 0, []
1628360604.7654, 56, 0, 4155.385, 4146.667, 3898.462, 4093.846, 4156.923, 0, 0, []
1628360604.7733, 57, 0, 4170.256, 4158.462, 3925.128, 4096.41, 4162.564, 0, 0, []
1628360604.781, 58, 0, 4172.308, 4167.179, 3923.59, 4096.923, 4170.256, 0, 0, []
1628360604.789, 59, 0, 4149.744, 4152.308, 3932.821, 4086.154, 4149.231, 0, 0, []
1628360604.7969, 60, 0, 4153.333, 4147.692, 3958.462, 4090.256, 4141.026, 0, 0, []
1628360604.8049, 61, 0, 4175.897, 4163.077, 3960, 4106.667, 4165.641, 0, 0, []
1628360604.8128, 62, 0, 4176.923, 4177.436, 3942.051, 4110.256, 4177.436, 0, 0, []
1628360604.8207, 63, 0, 4175.897, 4174.872, 3988.205, 4108.718, 4168.205, 0, 0, []
1628360604.8286, 64, 0, 4178.974, 4156.923, 4050.256, 4102.051, 4165.641, 450, 0, []
1628360604.8366, 65, 0, 4167.692, 4146.667, 4063.077, 4082.564, 4169.744, 450, 0, []
1628360604.8445, 66, 0, 4178.462, 4167.692, 4072.821, 4085.128, 4182.051, 16186, 0, []
1628360604.8525, 67, 0, 4220, 4199.487, 4088.718, 4129.231, 4210.769, 450, 0, []
1628360604.8603, 68, 0, 4225.128, 4199.487, 4072.308, 4146.154, 4220.513, 16175, 0, []
1628360604.8681, 69, 0, 4195.385, 4182.051, 4026.667, 4115.897, 4197.436, 450, 0, []
1628360604.876, 70, 0, 4182.564, 4180, 4024.615, 4102.051, 4177.949, 268, 0, []
1628360604.8838, 71, 0, 4185.641, 4184.615, 4055.897, 4110.769, 4184.615, 450, 0, []
1628360604.8917, 72, 0, 4193.333, 4192.821, 4061.026, 4113.846, 4203.59, 450, 0, []
1628360604.8994, 73, 0, 4197.949, 4197.436, 4074.359, 4116.41, 4202.564, 16172, 0, []
1628360604.9073, 74, 0, 4199.487, 4188.205, 4083.59, 4127.179, 4197.436, 450, 0, []
1628360604.9151, 75, 0, 4198.974, 4182.051, 4061.538, 4123.59, 4206.667, 16186, 0, []
1628360604.923, 76, 0, 4189.744, 4181.538, 4032.821, 4101.538, 4194.359, 450, 0, []
1628360604.9308, 77, 0, 4185.128, 4183.59, 4028.205, 4096.923, 4182.564, 450, 0, []
1628360604.9387, 78, 0, 4193.846, 4200.513, 4065.128, 4117.436, 4204.103, 450, 0, []
1628360604.9464, 79, 0, 4203.59, 4216.923, 4064.615, 4130.256, 4216.923, 16186, 0, []
1628360604.9544, 80, 0, 4203.59, 4203.59, 4001.538, 4123.59, 4203.077, 450, 0, []
1628360604.9623, 81, 0, 4187.179, 4176.41, 3968.205, 4105.128, 4191.795, 450, 0, []
1628360604.9703, 82, 0, 4188.718, 4186.667, 3968.718, 4105.641, 4201.026, 450, 0, []
1628360604.9782, 83, 0, 4218.462, 4218.462, 3972.308, 4136.41, 4220.513, 16186, 0, []
1628360604.9861, 84, 0, 4217.949, 4212.308, 3974.359, 4135.385, 4217.949, 450, 0, []
1628360604.994, 85, 0, 4196.41, 4200, 3976.41, 4105.128, 4202.564, 450, 0, []
1628360605.002, 86, 0, 4211.795, 4213.846, 3988.205, 4114.872, 4205.641, 450, 0, []
1628360605.0099, 87, 0, 4229.744, 4212.308, 3975.385, 4136.923, 4218.462, 16186, 0, []
1628360605.0177, 88, 0, 4204.103, 4194.872, 3954.359, 4118.462, 4203.59, 450, 0, []
1628360605.0255, 89, 0, 4181.538, 4194.359, 3958.974, 4097.949, 4174.872, 450, 0, []
1628360605.0333, 90, 0, 4198.974, 4195.385, 3951.282, 4109.231, 4181.538, 450, 0, []
1628360605.0412, 91, 0, 4216.923, 4198.974, 3928.718, 4124.615, 4206.154, 16186, 0, []
1628360605.049, 92, 0, 4213.846, 4208.205, 3915.897, 4121.538, 4205.128, 450, 0, []
1628360605.0569, 93, 0, 4206.667, 4202.564, 3931.795, 4109.744, 4186.667, 450, 0, []
1628360605.0646, 94, 0, 4205.641, 4196.923, 3945.641, 4106.667, 4184.615, 450, 0, []
1628360605.0725, 95, 0, 4197.436, 4199.487, 3932.821, 4103.077, 4184.615, 16186, 0, []
1628360605.0803, 96, 0, 4197.949, 4206.154, 3961.538, 4115.385, 4183.59, 450, 0, []
1628360605.0882, 97, 0, 4216.923, 4215.897, 4022.051, 4144.103, 4199.487, 450, 0, []
1628360605.096, 98, 0, 4221.538, 4220.513, 4060.513, 4143.077, 4206.154, 450, 0, []
1628360605.1038, 99, 0, 4210.769, 4215.385, 4063.077, 4118.974, 4197.949, 16186, 0, []
1628360605.1116, 100, 0, 4191.795, 4200, 4030.256, 4094.359, 4184.615, 450, 0, []
1628360605.1196, 101, 0, 4175.385, 4200.513, 4030.769, 4079.487, 4171.795, 450, 0, []
