Timestamp, COUNTER, INTERPOLATED, AF3, T7, Pz, T8, AF4, RAW_CQ, MARKER_HARDWARE, MARKERS
1630311747.1967, 63, 0, 4210.769, 4238.974, 4067.179, 4133.846, 4175.385, 0, 0, []
1630311747.2046, 64, 0, 4169.744, 4236.41, 4064.103, 4114.872, 4148.205, 450, 0, []
1630311747.2123, 65, 0, 4212.821, 4261.538, 4082.564, 4154.359, 4165.641, 450, 0, []
1630311747.2202, 66, 0, 4241.538, 4249.744, 4093.333, 4173.333, 4187.179, 16187, 0, []
1630311747.228, 67, 0, 4213.333, 4235.897, 4082.564, 4154.872, 4193.333, 450, 0, []
1630311747.2359, 68, 0, 4210.769, 4250.769, 4067.179, 4163.59, 4201.538, 16129, 0, []
1630311747.2437, 69, 0, 4234.872, 4264.103, 4088.718, 4187.179, 4195.385, 450, 0, []
1630311747.2516, 70, 0, 4237.949, 4274.872, 4090.769, 4186.154, 4188.718, 240, 0, []
1630311747.2595, 71, 0, 4232.308, 4297.436, 4095.897, 4182.564, 4205.641, 450, 0, []
1630311747.2675, 72, 0, 4223.077, 4291.795, 4092.821, 4179.487, 4207.179, 450, 0, []
1630311747.2754, 73, 0, 4216.41, 4263.59, 4065.641, 4173.333, 4188.205, 16143, 0, []
1630311747.2834, 74, 0, 4216.923, 4256.923, 4070.769, 4164.103, 4167.179, 450, 0, []
1630311747.2912, 75, 0, 4208.718, 4263.077, 4067.179, 4138.462, 4155.385, 16198, 0, []
1630311747.2992, 76, 0, 4197.436, 4254.872, 4068.718, 4127.692, 4165.641, 450, 0, []
1630311747.3071, 77, 0, 4196.41, 4241.026, 4079.487, 4146.154, 4174.872, 450, 0, []
1630311747.3151, 78, 0, 4212.308, 4251.282, 4069.744, 4166.154, 4166.667, 450, 0, []
1630311747.323, 79, 0, 4218.974, 4266.667, 4090.769, 4173.333, 4167.179, 16198, 0, []
1630311747.3308, 80, 0, 4204.103, 4255.385, 4094.359, 4166.154, 4176.41, 450, 0, []
1630311747.3386, 81, 0, 4203.077, 4237.436, 4085.128, 4168.205, 4183.077, 450, 0, []
1630311747.3464, 82, 0, 4222.051, 4251.795, 4089.231, 4189.231, 4190.769, 450, 0, []
1630311747.3543, 83, 0, 4226.667, 4280.513, 4076.923, 4188.205, 4184.103, 16198, 0, []
1630311747.3621, 84, 0, 4222.564, 4289.231, 4092.308, 4161.026, 4180, 450, 0, []
1630311747.37, 85, 0, 4240, 4287.179, 4097.436, 4166.154, 4216.923, 450, 0, []
1630311747.3777, 86, 0, 4236.41, 4268.718, 4069.744, 4173.846, 4226.667, 450, 0, []
1630311747.3856, 87, 0, 4189.231, 4239.487, 4044.615, 4124.615, 4162.051, 16198, 0, []
1630311747.3934, 88, 0, 4181.026, 4246.154, 4045.128, 4102.564, 4148.205, 450, 0, []
1630311747.4014, 89, 0, 4230.256, 4272.821, 4098.974, 4161.538, 4215.897, 450, 0, []
1630311747.4093, 90, 0, 4241.538, 4257.949, 4097.949, 4186.154, 4220, 450, 0, []
1630311747.4172, 91, 0, 4220.513, 4242.564, 4066.667, 4152.308, 4175.897, 16198, 0, []
1630311747.4251, 92, 0, 4238.462, 4258.974, 4098.974, 4153.846, 4199.487, 450, 0, []
1630311747.4331, 93, 0, 4245.641, 4252.308, 4097.436, 4173.333, 4230.769, 450, 0, []
1630311747.441, 94, 0, 4212.821, 4239.487, 4081.026, 4164.103, 4197.949, 450, 0, []
1630311747.449, 95, 0, 4202.051, 4247.179, 4076.41, 4149.231, 4158.974, 16198, 0, []
1630311747.4568, 96, 0, 4206.667, 4243.077, 4055.385, 4139.487, 4149.744, 450, 0, []
1630311747.4648, 97, 0, 4195.385, 4233.846, 4051.282, 4138.462, 4149.744, 450, 0, []
1630311747.4727, 98, 0, 4195.385, 4244.615, 4051.795, 4152.821, 4156.923, 450, 0, []
1630311747.4806, 99, 0, 4220, 4264.615, 4076.923, 4178.974, 4174.359, 16198, 0, []
1630311747.4885, 100, 0, 4236.923, 4268.205, 4087.179, 4183.59, 4186.667, 450, 0, []
1630311747.4963, 101, 0, 4225.641, 4239.487, 4068.205, 4153.846, 4189.231, 450, 0, []
1630311747.5043, 102, 0, 4208.205, 4202.564, 4085.641, 4135.897, 4194.872, 450, 0, []
1630311747.5121, 103, 0, 4207.179, 4202.564, 4084.615, 4152.308, 4195.897, 16198, 0, []
1630311747.52, 104, 0, 4221.538, 4231.282, 4085.641, 4180, 4188.205, 450, 0, []
1630311747.5278, 105, 0, 4236.923, 4236.41, 4093.333, 4187.179, 4187.179, 450, 0, []
1630311747.5357, 106, 0, 4221.538, 4217.436, 4058.462, 4153.846, 4177.949, 450, 0, []
1630311747.5436, 107, 0, 4196.41, 4211.795, 4050.769, 4123.077, 4156.41, 16198, 0, []
1630311747.5516, 108, 0, 4204.615, 4216.41, 4061.026, 4127.179, 4145.641, 450, 0, []
1630311747.5595, 109, 0, 4237.949, 4224.615, 4087.179, 4143.077, 4163.59, 450, 0, []
1630311747.5675, 110, 0, 4268.205, 4244.615, 4114.359, 4152.821, 4204.103, 450, 0, []
1630311747.5753, 111, 0, 4251.282, 4245.128, 4085.128, 4143.077, 4202.564, 16198, 0, []
1630311747.5833, 112, 0, 4213.846, 4214.359, 4064.615, 4132.821, 4157.436, 450, 0, []
1630311747.5912, 113, 0, 4248.205, 4215.897, 4081.538, 4171.795, 4173.333, 450, 0, []
1630311747.5992, 114, 0, 4297.436, 4247.179, 4116.41, 4213.333, 4223.59, 450, 0, []
1630311747.6071, 115, 0, 4258.974, 4241.538, 4107.179, 4178.462, 4208.718, 16198, 0, []
1630311747.6148, 116, 0, 4209.744, 4214.359, 4058.462, 4135.897, 4170.256, 450, 0, []
1630311747.6227, 117, 0, 4229.744, 4213.333, 4072.308, 4160.513, 4170.769, 450, 0, []
1630311747.6305, 118, 0, 4255.385, 4220.513, 4082.051, 4181.538, 4172.821, 450, 0, []
1630311747.6384, 119, 0, 4246.154, 4215.897, 4067.179, 4159.487, 4173.333, 16198, 0, []
1630311747.6462, 120, 0, 4230.256, 4210.256, 4072.821, 4147.179, 4187.179, 450, 0, []
1630311747.654, 121, 0, 4237.436, 4209.231, 4072.821, 4166.667, 4188.718, 450, 0, []
1630311747.6618, 122, 0, 4250.256, 4209.744, 4086.667, 4167.179, 4166.667, 450, 0, []
1630311747.6697, 123, 0, 4232.308, 4213.846, 4068.205, 4124.615, 4148.205, 16198, 0, []
1630311747.6775, 124, 0, 4222.051, 4223.59, 4052.308, 4111.282, 4157.949, 450, 0, []
1630311747.6855, 125, 0, 4252.821, 4224.103, 4082.051, 4149.231, 4175.897, 450, 0, []
1630311747.6934, 126, 0, 4269.231, 4214.359, 4078.462, 4166.667, 4174.359, 450, 0, []
1630311747.7013, 127, 0, 4265.641, 4212.821, 4093.846, 4165.641, 4174.872, 16198, 0, []
1630311747.7092, 128, 0, 4271.795, 4213.333, 4110.769, 4178.462, 4193.846, 450, 0, []
1630311747.7172, 0, 0, 4252.308, 4198.462, 4075.897, 4168.205, 4181.538, 450, 0, []
1630311747.7251, 1, 0, 4223.077, 4195.385, 4055.897, 4137.436, 4137.436, 450, 0, []
1630311747.7331, 2, 0, 4250.769, 4229.744, 4063.59, 4149.231, 4133.846, 16186, 0, []
1630311747.7409, 3, 0, 4284.615, 4248.718, 4095.897, 4174.359, 4164.615, 450, 0, []
1630311747.7489, 4, 0, 4258.974, 4236.41, 4091.282, 4154.872, 4164.615, 16131, 0, []
1630311747.7568, 5, 0, 4236.41, 4228.718, 4061.026, 4143.077, 4150.256, 450, 0, []
1630311747.7648, 6, 0, 4247.692, 4215.897, 4065.641, 4157.436, 4143.59, 240, 0, []
1630311747.7727, 7, 0, 4257.436, 4201.538, 4058.974, 4160, 4134.359, 450, 0, []
1630311747.7804, 8, 0, 4275.385, 4224.103, 4084.615, 4175.385, 4159.487, 450, 0, []
1630311747.7883, 9, 0, 4295.385, 4233.333, 4113.333, 4205.128, 4202.564, 16146, 0, []
1630311747.7961, 10, 0, 4291.795, 4191.282, 4092.308, 4204.615, 4203.077, 450, 0, []
1630311747.804, 11, 0, 4288.718, 4179.487, 4092.308, 4190.256, 4177.949, 16201, 0, []
1630311747.8118, 12, 0, 4292.308, 4219.487, 4078.974, 4180.513, 4164.615, 450, 0, []
1630311747.8196, 13, 0, 4279.487, 4235.385, 4064.103, 4161.538, 4156.923, 450, 0, []
1630311747.8274, 14, 0, 4260.513, 4202.564, 4064.103, 4144.615, 4155.897, 450, 0, []
1630311747.8353, 15, 0, 4267.179, 4180.513, 4054.872, 4149.231, 4175.385, 16201, 0, []
1630311747.8431, 16, 0, 4299.487, 4195.897, 4067.692, 4164.103, 4201.538, 0, 0, []
1630311747.8511, 17, 0, 4321.538, 4197.949, 4053.846, 4149.744, 4210.769, 0, 0, []
1630311747.8589, 18, 0, 4348.718, 4180, 4049.744, 4131.795, 4246.667, 0, 0, []
1630311747.8669, 19, 0, 4418.974, 4181.026, 4081.026, 4158.974, 4332.308, 0, 0, []
1630311747.8748, 20, 0, 4466.667, 4179.487, 4066.154, 4164.103, 4373.846, 0, 0, []
1630311747.8828, 21, 0, 4451.795, 4156.923, 4063.59, 4126.667, 4355.385, 0, 0, []
1630311747.8907, 22, 0, 4468.718, 4178.974, 4100, 4154.872, 4390.769, 0, 0, []
1630311747.8986, 23, 0, 4527.179, 4220, 4142.051, 4243.077, 4461.026, 0, 0, []
1630311747.9065, 24, 0, 4522.564, 4211.282, 4141.538, 4268.205, 4455.385, 0, 0, []
1630311747.9145, 25, 0, 4447.692, 4191.282, 4085.641, 4229.231, 4385.128, 0, 0, []
1630311747.9224, 26, 0, 4381.538, 4193.846, 4082.051, 4208.205, 4332.821, 0, 0, []
1630311747.9303, 27, 0, 4348.205, 4179.487, 4097.949, 4198.974, 4312.308, 0, 0, []
1630311747.9381, 28, 0, 4326.154, 4162.051, 4085.641, 4178.974, 4283.077, 0, 0, []
1630311747.9461, 29, 0, 4317.436, 4178.462, 4092.821, 4189.744, 4262.051, 0, 0, []
1630311747.954, 30, 0, 4320, 4185.128, 4095.897, 4216.923, 4260.513, 0, 0, []
1630311747.9618, 31, 0, 4308.205, 4168.205, 4094.872, 4204.103, 4232.821, 0, 0, []
1630311747.9697, 32, 0, 4304.615, 4165.641, 4087.692, 4194.359, 4207.179, 0, 0, []
1630311747.9774, 33, 0, 4332.308, 4171.795, 4101.026, 4230.256, 4240, 0, 0, []
1630311747.9853, 34, 0, 4333.846, 4172.821, 4112.308, 4238.462, 4259.487, 0, 0, []
1630311747.9931, 35, 0, 4274.872, 4153.846, 4049.744, 4187.179, 4198.974, 0, 0, []
1630311748.0011, 36, 0, 4252.308, 4129.744, 4044.615, 4171.282, 4157.436, 0, 0, []
1630311748.009, 37, 0, 4306.667, 4154.872, 4099.487, 4219.487, 4195.897, 0, 0, []
1630311748.017, 38, 0, 4329.231, 4198.974, 4099.487, 4242.051, 4215.385, 0, 0, []
1630311748.0248, 39, 0, 4286.667, 4194.359, 4086.154, 4207.179, 4180, 0, 0, []
1630311748.0328, 40, 0, 4251.795, 4172.821, 4066.154, 4170.769, 4158.974, 0, 0, []
1630311748.0407, 41, 0, 4251.282, 4153.333, 4061.538, 4169.744, 4167.179, 0, 0, []
1630311748.0487, 42, 0, 4259.487, 4142.564, 4057.436, 4180, 4160, 0, 0, []
1630311748.0566, 43, 0, 4261.026, 4173.846, 4040, 4173.846, 4131.795, 0, 0, []
1630311748.0645, 44, 0, 4255.897, 4193.333, 4061.538, 4172.308, 4118.462, 0, 0, []
1630311748.0724, 45, 0, 4267.692, 4176.41, 4076.41, 4193.333, 4150.769, 0, 0, []
1630311748.0802, 46, 0, 4287.692, 4186.154, 4081.026, 4215.897, 4187.692, 0, 0, []
1630311748.0881, 47, 0, 4265.128, 4192.308, 4066.154, 4193.846, 4157.949, 0, 0, []
1630311748.0959, 48, 0, 4243.077, 4163.59, 4039.487, 4154.872, 4111.282, 0, 0, []
1630311748.1037, 49, 0, 4266.154, 4164.615, 4074.872, 4158.974, 4125.128, 0, 0, []
1630311748.1115, 50, 0, 4269.231, 4192.308, 4083.077, 4172.308, 4148.205, 0, 0, []
1630311748.1194, 51, 0, 4247.692, 4187.179, 4053.333, 4168.205, 4141.026, 0, 0, []
1630311748.1272, 52, 0, 4257.436, 4161.026, 4046.667, 4176.41, 4134.872, 0, 0, []
1630311748.1352, 53, 0, 4265.128, 4152.308, 4034.359, 4182.051, 4126.667, 0, 0, []
1630311748.143, 54, 0, 4237.949, 4155.897, 4037.949, 4159.487, 4113.846, 0, 0, []
1630311748.151, 55, 0, 4220, 4145.128, 4036.41, 4132.821, 4113.846, 0, 0, []
1630311748.1589, 56, 0, 4238.974, 4133.333, 4050.256, 4134.872, 4124.615, 0, 0, []
1630311748.1669, 57, 0, 4270.256, 4150.769, 4089.744, 4155.897, 4133.333, 0, 0, []
1630311748.1748, 58, 0, 4282.564, 4182.564, 4080.513, 4177.436, 4132.821, 0, 0, []
1630311748.1827, 59, 0, 4268.718, 4190.256, 4087.179, 4196.41, 4126.667, 0, 0, []
1630311748.1906, 60, 0, 4244.103, 4176.41, 4108.205, 4203.59, 4121.538, 0, 0, []
1630311748.1986, 61, 0, 4239.487, 4166.154, 4105.128, 4200, 4120.513, 0, 0, []
1630311748.2065, 62, 0, 4257.949, 4169.744, 4125.128, 4198.974, 4120, 0, 0, []
1630311748.2145, 63, 0, 4277.949, 4175.897, 4144.615, 4198.974, 4123.59, 0, 0, []
1630311748.2223, 64, 0, 4264.103, 4160, 4164.103, 4171.282, 4112.821, 450, 0, []
1630311748.2303, 65, 0, 4236.923, 4157.436, 4172.308, 4144.103, 4105.641, 450, 0, []
1630311748.2382, 66, 0, 4256.41, 4183.59, 4168.718, 4178.462, 4140.513, 16225, 0, []
1630311748.246, 67, 0, 4282.051, 4184.615, 4182.051, 4215.385, 4153.333, 450, 0, []
1630311748.2539, 68, 0, 4273.846, 4171.282, 4167.179, 4201.026, 4122.051, 16150, 0, []
1630311748.2616, 69, 0, 4275.385, 4185.128, 4163.59, 4196.41, 4123.59, 450, 0, []
1630311748.2695, 70, 0, 4284.103, 4191.282, 4169.231, 4206.154, 4146.667, 237, 0, []
1630311748.2773, 71, 0, 4255.897, 4168.718, 4120.513, 4183.077, 4130.256, 450, 0, []
1630311748.2852, 72, 0, 4226.154, 4157.436, 4105.128, 4160.513, 4106.667, 450, 0, []
1630311748.293, 73, 0, 4236.41, 4166.667, 4115.897, 4165.641, 4107.692, 16147, 0, []
1630311748.3008, 74, 0, 4244.615, 4175.385, 4109.744, 4160, 4112.308, 450, 0, []
1630311748.3086, 75, 0, 4257.436, 4198.462, 4137.436, 4160.513, 4147.179, 16192, 0, []
1630311748.3166, 76, 0, 4288.718, 4227.179, 4145.641, 4190.769, 4192.821, 450, 0, []
1630311748.3245, 77, 0, 4301.026, 4235.897, 4134.359, 4215.897, 4188.205, 450, 0, []
1630311748.3325, 78, 0, 4281.026, 4216.923, 4117.436, 4200.513, 4152.308, 450, 0, []
1630311748.3403, 79, 0, 4260.513, 4196.41, 4100.513, 4167.179, 4127.692, 16192, 0, []
1630311748.3483, 80, 0, 4264.103, 4207.179, 4120.513, 4168.718, 4127.692, 450, 0, []
1630311748.3562, 81, 0, 4266.667, 4228.205, 4117.949, 4185.641, 4138.462, 450, 0, []
1630311748.3642, 82, 0, 4248.718, 4225.128, 4100.513, 4175.897, 4127.692, 450, 0, []
1630311748.3721, 83, 0, 4233.333, 4205.641, 4073.846, 4153.846, 4092.308, 16192, 0, []
1630311748.3801, 84, 0, 4234.359, 4202.564, 4060.513, 4146.154, 4072.308, 450, 0, []
1630311748.3879, 85, 0, 4252.308, 4220.513, 4093.333, 4168.205, 4106.154, 450, 0, []
1630311748.3957, 86, 0, 4267.692, 4222.051, 4105.128, 4188.718, 4152.821, 450, 0, []
1630311748.4036, 87, 0, 4261.538, 4211.282, 4107.692, 4182.051, 4155.385, 16192, 0, []
1630311748.4114, 88, 0, 4260.513, 4219.487, 4095.897, 4181.026, 4141.538, 450, 0, []
1630311748.4193, 89, 0, 4279.487, 4246.667, 4105.641, 4205.641, 4151.795, 450, 0, []
1630311748.427, 90, 0, 4287.692, 4253.846, 4138.974, 4215.385, 4165.128, 450, 0, []
1630311748.4349, 91, 0, 4280, 4248.205, 4111.282, 4198.462, 4173.333, 16192, 0, []
1630311748.4427, 92, 0, 4278.974, 4255.897, 4116.41, 4209.231, 4191.795, 450, 0, []
1630311748.4506, 93, 0, 4272.821, 4251.795, 4125.641, 4224.103, 4183.077, 450, 0, []
1630311748.4584, 94, 0, 4260, 4238.462, 4100, 4199.487, 4145.128, 450, 0, []
1630311748.4662, 95, 0, 4247.692, 4238.462, 4110.256, 4175.897, 4129.744, 16192, 0, []
1630311748.474, 96, 0, 4232.308, 4243.077, 4100.513, 4178.974, 4138.462, 450, 0, []
1630311748.4819, 97, 0, 4227.692, 4251.282, 4102.051, 4193.333, 4142.564, 450, 0, []
1630311748.4898, 98, 0, 4218.462, 4249.231, 4096.923, 4191.795, 4124.103, 450, 0, []
1630311748.4978, 99, 0, 4207.179, 4227.692, 4076.923, 4188.205, 4108.718, 16192, 0, []
1630311748.5056, 100, 0, 4243.077, 4231.795, 4130.769, 4214.359, 4147.692, 450, 0, []
1630311748.5136, 101, 0, 4282.564, 4268.205, 4151.282, 4235.897, 4198.462, 450, 0, []
1630311748.5215, 102, 0, 4266.667, 4264.103, 4121.026, 4215.385, 4191.282, 450, 0, []
1630311748.5295, 103, 0, 4264.615, 4243.59, 4121.538, 4207.692, 4175.897, 16192, 0, []
1630311748.5374, 104, 0, 4300.513, 4255.385, 4129.231, 4231.282, 4185.641, 450, 0, []
1630311748.5451, 105, 0, 4297.436, 4258.974, 4138.974, 4225.641, 4173.333, 450, 0, []
1630311748.553, 106, 0, 4262.564, 4251.795, 4121.538, 4192.308, 4146.154, 450, 0, []
1630311748.5608, 107, 0, 4252.821, 4247.179, 4112.308, 4182.051, 4140, 16192, 0, []
1630311748.5687, 108, 0, 4266.667, 4236.923, 4120.513, 4201.026, 4142.564, 450, 0, []
1630311748.5765, 109, 0, 4265.128, 4235.385, 4107.692, 4210.256, 4133.333, 450, 0, []
1630311748.5843, 110, 0, 4223.59, 4233.846, 4111.282, 4176.923, 4108.205, 450, 0, []
1630311748.5921, 111, 0, 4192.821, 4227.692, 4094.359, 4150.256, 4101.538, 16192, 0, []
1630311748.6, 112, 0, 4217.949, 4225.641, 4101.026, 4178.462, 4127.692, 450, 0, []
1630311748.6078, 113, 0, 4253.333, 4223.59, 4133.846, 4208.205, 4147.179, 450, 0, []
1630311748.6157, 114, 0, 4272.821, 4228.205, 4123.59, 4214.359, 4160, 450, 0, []
1630311748.6234, 115, 0, 4271.795, 4239.487, 4134.872, 4214.872, 4175.897, 16192, 0, []
1630311748.6314, 116, 0, 4242.051, 4228.205, 4113.846, 4198.974, 4165.641, 450, 0, []
1630311748.6393, 117, 0, 4230.769, 4214.359, 4088.718, 4191.795, 4151.795, 450, 0, []
1630311748.6473, 118, 0, 4249.744, 4240, 4118.974, 4201.538, 4152.308, 450, 0, []
1630311748.6552, 119, 0, 4253.846, 4255.385, 4113.846, 4203.077, 4151.795, 16192, 0, []
1630311748.6631, 120, 0, 4245.641, 4227.692, 4115.897, 4201.538, 4157.949, 450, 0, []
1630311748.671, 121, 0, 4242.051, 4218.974, 4110.769, 4194.872, 4167.692, 450, 0, []
1630311748.679, 122, 0, 4251.795, 4244.615, 4110.256, 4207.692, 4183.59, 450, 0, []
1630311748.6869, 123, 0, 4273.333, 4263.59, 4143.59, 4241.026, 4196.41, 16192, 0, []
1630311748.6949, 124, 0, 4258.462, 4241.538, 4103.59, 4221.538, 4165.641, 450, 0, []
1630311748.7027, 125, 0, 4223.59, 4209.744, 4084.103, 4172.308, 4124.615, 450, 0, []
1630311748.7105, 126, 0, 4241.026, 4227.179, 4116.923, 4185.641, 4144.103, 450, 0, []
1630311748.7184, 127, 0, 4269.744, 4256.41, 4120.513, 4218.462, 4175.897, 16192, 0, []
1630311748.7262, 128, 0, 4258.462, 4232.308, 4120.513, 4214.359, 4161.026, 450, 0, []
1630311748.7341, 0, 0, 4260.513, 4209.231, 4106.667, 4216.923, 4149.744, 450, 0, []
1630311748.7419, 1, 0, 4281.026, 4240.513, 4121.026, 4232.821, 4160.513, 450, 0, []
1630311748.7497, 2, 0, 4261.538, 4246.154, 4117.436, 4210.769, 4154.872, 16196, 0, []
1630311748.7575, 3, 0, 4225.128, 4214.359, 4085.641, 4174.359, 4137.436, 450, 0, []
1630311748.7654, 4, 0, 4226.154, 4222.051, 4106.667, 4185.128, 4133.846, 16135, 0, []
1630311748.7732, 5, 0, 4231.282, 4232.308, 4101.026, 4202.564, 4124.103, 450, 0, []
1630311748.7812, 6, 0, 4209.744, 4203.077, 4105.641, 4182.051, 4110.769, 179, 0, []
1630311748.789, 7, 0, 4200.513, 4187.692, 4120, 4175.897, 4122.564, 450, 0, []
1630311748.797, 8, 0, 4222.564, 4209.231, 4113.846, 4202.564, 4140, 450, 0, []
1630311748.8049, 9, 0, 4244.615, 4228.718, 4142.564, 4212.821, 4138.462, 16109, 0, []
1630311748.8129, 10, 0, 4247.692, 4237.436, 4128.718, 4193.333, 4144.103, 450, 0, []
1630311748.8208, 11, 0, 4234.872, 4231.282, 4122.051, 4177.436, 4154.872, 16201, 0, []
1630311748.8287, 12, 0, 4224.103, 4217.949, 4141.538, 4183.59, 4157.949, 450, 0, []
1630311748.8366, 13, 0, 4238.974, 4222.051, 4135.385, 4209.231, 4167.692, 450, 0, []
1630311748.8446, 14, 0, 4255.897, 4233.846, 4154.359, 4226.667, 4166.154, 450, 0, []
1630311748.8525, 15, 0, 4252.821, 4232.821, 4134.359, 4215.897, 4153.333, 16201, 0, []
1630311748.8603, 16, 0, 4238.974, 4223.077, 4120.513, 4197.436, 4154.872, 0, 0, []
1630311748.8681, 17, 0, 4225.641, 4226.667, 4131.282, 4196.923, 4163.077, 0, 0, []
1630311748.8759, 18, 0, 4216.923, 4233.846, 4104.103, 4194.872, 4147.692, 0, 0, []
1630311748.8838, 19, 0, 4213.846, 4219.487, 4119.487, 4180.513, 4121.026, 0, 0, []
1630311748.8916, 20, 0, 4220, 4201.538, 4122.051, 4171.282, 4123.59, 0, 0, []
1630311748.8995, 21, 0, 4225.641, 4211.795, 4129.231, 4181.026, 4146.154, 0, 0, []
1630311748.9072, 22, 0, 4231.795, 4232.308, 4158.462, 4197.436, 4161.538, 0, 0, []
1630311748.9151, 23, 0, 4240, 4225.641, 4131.795, 4203.59, 4160, 0, 0, []
1630311748.9229, 24, 0, 4226.667, 4209.231, 4129.231, 4191.282, 4138.974, 0, 0, []
1630311748.9309, 25, 0, 4202.564, 4216.923, 4125.128, 4168.205, 4129.744, 0, 0, []
1630311748.9388, 26, 0, 4213.333, 4240, 4134.872, 4185.128, 4166.154, 0, 0, []
1630311748.9467, 27, 0, 4230.256, 4232.821, 4156.923, 4215.385, 4181.538, 0, 0, []
1630311748.9546, 28, 0, 4204.103, 4198.462, 4111.795, 4190.769, 4125.128, 0, 0, []
1630311748.9626, 29, 0, 4190.769, 4203.59, 4127.179, 4169.231, 4103.077, 0, 0, []
1630311748.9705, 30, 0, 4191.282, 4222.564, 4148.205, 4178.462, 4128.718, 0, 0, []
1630311748.9785, 31, 0, 4173.846, 4204.103, 4117.436, 4172.821, 4118.974, 0, 0, []
1630311748.9863, 32, 0, 4189.231, 4201.538, 4128.718, 4172.821, 4104.103, 0, 0, []
1630311748.9943, 33, 0, 4226.667, 4229.744, 4131.282, 4189.231, 4126.667, 0, 0, []
1630311749.0022, 34, 0, 4217.949, 4211.282, 4141.026, 4193.333, 4141.538, 0, 0, []
1630311749.01, 35, 0, 4200, 4181.026, 4140, 4189.231, 4130.769, 0, 0, []
1630311749.0179, 36, 0, 4211.795, 4202.564, 4118.974, 4191.795, 4121.538, 0, 0, []
1630311749.0256, 37, 0, 4221.538, 4220, 4139.487, 4196.41, 4122.564, 0, 0, []
1630311749.0335, 38, 0, 4212.821, 4197.949, 4132.308, 4186.667, 4130.769, 0, 0, []
1630311749.0413, 39, 0, 4209.744, 4186.667, 4125.641, 4179.487, 4139.487, 0, 0, []
1630311749.0492, 40, 0, 4213.846, 4200, 4117.949, 4180.513, 4132.308, 0, 0, []
1630311749.057, 41, 0, 4213.846, 4202.564, 4107.692, 4173.846, 4117.949, 0, 0, []
1630311749.0649, 42, 0, 4223.077, 4198.462, 4153.333, 4170.769, 4137.949, 0, 0, []
1630311749.0726, 43, 0, 4238.974, 4204.103, 4158.462, 4189.231, 4171.282, 0, 0, []
1630311749.0805, 44, 0, 4233.846, 4195.897, 4144.103, 4208.718, 4161.538, 0, 0, []
1630311749.0883, 45, 0, 4222.564, 4192.308, 4146.154, 4202.051, 4134.872, 0, 0, []
1630311749.0962, 46, 0, 4221.538, 4197.436, 4123.077, 4177.949, 4120.513, 0, 0, []
1630311749.104, 47, 0, 4200, 4171.282, 4126.667, 4153.846, 4105.128, 0, 0, []
1630311749.1119, 48, 0, 4180.513, 4145.641, 4124.103, 4153.846, 4104.615, 0, 0, []
1630311749.1198, 49, 0, 4207.179, 4174.872, 4144.103, 4188.205, 4129.231, 0, 0, []
1630311749.1278, 50, 0, 4243.077, 4212.821, 4170.256, 4211.282, 4144.615, 0, 0, []
1630311749.1357, 51, 0, 4238.462, 4203.59, 4141.026, 4183.59, 4133.333, 0, 0, []
1630311749.1437, 52, 0, 4207.692, 4184.103, 4139.487, 4147.692, 4120, 0, 0, []
1630311749.1515, 53, 0, 4203.077, 4187.179, 4137.949, 4161.538, 4124.615, 0, 0, []
1630311749.1595, 54, 0, 4211.795, 4180.513, 4134.359, 4172.308, 4118.462, 0, 0, []
1630311749.1674, 55, 0, 4202.564, 4159.487, 4130.769, 4143.077, 4097.436, 0, 0, []
1630311749.1752, 56, 0, 4204.615, 4165.128, 4123.59, 4144.615, 4113.846, 0, 0, []
1630311749.1831, 57, 0, 4241.538, 4207.179, 4181.538, 4202.051, 4167.692, 0, 0, []
1630311749.1908, 58, 0, 4264.103, 4220.513, 4169.231, 4228.718, 4180, 0, 0, []
1630311749.1987, 59, 0, 4238.974, 4182.051, 4123.077, 4197.949, 4134.359, 0, 0, []
1630311749.2065, 60, 0, 4214.872, 4166.667, 4132.821, 4174.359, 4114.359, 0, 0, []
1630311749.2144, 61, 0, 4207.692, 4185.128, 4115.385, 4173.333, 4132.821, 0, 0, []
1630311749.2222, 62, 0, 4204.615, 4183.59, 4133.333, 4176.923, 4132.308, 0, 0, []
1630311749.23, 63, 0, 4210.769, 4187.179, 4138.462, 4184.615, 4121.026, 0, 0, []
1630311749.2378, 64, 0, 4216.41, 4214.872, 4133.333, 4185.641, 4131.282, 450, 0, []
1630311749.2457, 65, 0, 4211.795, 4200.513, 4145.641, 4181.538, 4145.641, 450, 0, []
1630311749.2535, 66, 0, 4213.333, 4162.564, 4121.026, 4185.641, 4142.051, 16193, 0, []
1630311749.2615, 67, 0, 4218.462, 4169.744, 4137.436, 4188.205, 4122.564, 450, 0, []
1630311749.2693, 68, 0, 4206.667, 4192.821, 4131.795, 4167.179, 4107.692, 16140, 0, []
1630311749.2773, 69, 0, 4198.974, 4196.41, 4124.615, 4159.487, 4124.103, 450, 0, []
1630311749.2852, 70, 0, 4206.667, 4193.846, 4150.769, 4174.359, 4137.949, 231, 0, []
1630311749.2932, 71, 0, 4206.667, 4183.077, 4118.974, 4176.41, 4117.436, 450, 0, []
1630311749.3011, 72, 0, 4199.487, 4180, 4123.077, 4168.205, 4105.641, 450, 0, []
1630311749.309, 73, 0, 4200, 4190.769, 4129.744, 4161.026, 4122.051, 16140, 0, []
1630311749.3169, 74, 0, 4216.41, 4193.846, 4118.462, 4176.923, 4145.641, 450, 0, []
1630311749.3249, 75, 0, 4240.513, 4189.231, 4151.282, 4209.231, 4161.026, 16208, 0, []
1630311749.3328, 76, 0, 4236.923, 4181.026, 4138.974, 4203.59, 4151.282, 450, 0, []
1630311749.3406, 77, 0, 4206.154, 4175.897, 4126.667, 4170.256, 4135.897, 450, 0, []
1630311749.3484, 78, 0, 4179.487, 4167.179, 4117.436, 4154.872, 4130.256, 450, 0, []
1630311749.3562, 79, 0, 4173.333, 4157.949, 4100.513, 4160.513, 4123.59, 16208, 0, []
1630311749.3641, 80, 0, 4186.154, 4157.949, 4130.256, 4173.333, 4122.564, 450, 0, []
1630311749.3719, 81, 0, 4175.385, 4153.333, 4117.949, 4158.462, 4118.462, 450, 0, []
1630311749.3798, 82, 0, 4168.205, 4158.462, 4114.359, 4151.795, 4133.846, 450, 0, []
1630311749.3875, 83, 0, 4212.308, 4183.077, 4150.256, 4198.974, 4177.436, 16208, 0, []
1630311749.3954, 84, 0, 4242.564, 4192.821, 4146.667, 4226.154, 4187.692, 450, 0, []
1630311749.4032, 85, 0, 4225.641, 4182.051, 4133.846, 4202.564, 4166.154, 450, 0, []
1630311749.4112, 86, 0, 4206.154, 4180, 4104.103, 4176.923, 4163.59, 450, 0, []
1630311749.4191, 87, 0, 4189.744, 4178.974, 4093.846, 4160, 4152.308, 16208, 0, []
1630311749.4271, 88, 0, 4162.051, 4159.487, 4094.872, 4140.513, 4112.821, 450, 0, []
1630311749.4349, 89, 0, 4168.205, 4166.154, 4096.923, 4149.744, 4117.436, 450, 0, []
1630311749.4429, 90, 0, 4188.718, 4192.821, 4132.308, 4184.615, 4160.513, 450, 0, []
1630311749.4508, 91, 0, 4170.769, 4173.846, 4104.615, 4187.179, 4152.308, 16208, 0, []
1630311749.4588, 92, 0, 4146.667, 4149.744, 4079.487, 4165.128, 4105.128, 450, 0, []
1630311749.4667, 93, 0, 4158.974, 4192.821, 4126.667, 4166.667, 4111.795, 450, 0, []
1630311749.4746, 94, 0, 4171.795, 4211.795, 4136.41, 4185.128, 4149.744, 450, 0, []
1630311749.4825, 95, 0, 4151.795, 4164.103, 4117.436, 4182.051, 4129.744, 16208, 0, []
1630311749.4904, 96, 0, 4135.385, 4155.385, 4094.872, 4165.641, 4092.821, 450, 0, []
1630311749.4984, 97, 0, 4141.026, 4175.897, 4101.026, 4163.59, 4109.744, 450, 0, []
1630311749.5062, 98, 0, 4148.718, 4152.308, 4127.692, 4182.564, 4134.872, 450, 0, []
1630311749.514, 99, 0, 4160.513, 4155.897, 4113.846, 4198.974, 4120.513, 16208, 0, []
1630311749.5218, 100, 0, 4157.436, 4187.692, 4114.359, 4177.949, 4103.59, 450, 0, []
1630311749.5297, 101, 0, 4126.667, 4173.333, 4109.744, 4148.718, 4104.615, 450, 0, []
1630311749.5375, 102, 0, 4119.487, 4158.974, 4102.051, 4157.436, 4099.487, 450, 0, []
1630311749.5454, 103, 0, 4132.308, 4168.205, 4112.821, 4161.026, 4080.513, 16208, 0, []
1630311749.5531, 104, 0, 4124.615, 4163.077, 4100, 4143.077, 4083.077, 450, 0, []
1630311749.5611, 105, 0, 4126.154, 4156.923, 4117.436, 4160.513, 4108.205, 450, 0, []
1630311749.569, 106, 0, 4136.41, 4156.923, 4112.308, 4171.795, 4087.179, 450, 0, []
1630311749.577, 107, 0, 4130.769, 4146.667, 4089.744, 4142.051, 4054.872, 16208, 0, []
1630311749.5849, 108, 0, 4134.359, 4144.615, 4118.462, 4145.641, 4080.513, 450, 0, []
1630311749.5928, 109, 0, 4158.462, 4164.615, 4121.538, 4185.641, 4114.872, 450, 0, []
1630311749.6007, 110, 0, 4161.538, 4172.821, 4120.513, 4181.026, 4092.821, 450, 0, []
1630311749.6087, 111, 0, 4148.718, 4166.154, 4129.231, 4152.821, 4074.359, 16208, 0, []
1630311749.6166, 112, 0, 4158.974, 4160.513, 4132.308, 4169.231, 4097.436, 450, 0, []
1630311749.6246, 113, 0, 4175.897, 4158.974, 4140.513, 4191.795, 4097.949, 450, 0, []
1630311749.6324, 114, 0, 4172.308, 4168.205, 4113.846, 4169.231, 4082.564, 450, 0, []
1630311749.6403, 115, 0, 4146.154, 4167.179, 4106.154, 4138.974, 4089.231, 16208, 0, []
1630311749.6482, 116, 0, 4135.385, 4142.051, 4119.487, 4144.615, 4095.385, 450, 0, []
1630311749.656, 117, 0, 4154.872, 4136.41, 4107.692, 4163.59, 4079.487, 450, 0, []
1630311749.6639, 118, 0, 4163.077, 4157.949, 4113.846, 4153.846, 4070.256, 450, 0, []
1630311749.6716, 119, 0, 4147.179, 4163.077, 4108.205, 4141.538, 4085.641, 16208, 0, []
1630311749.6795, 120, 0, 4150.769, 4150.769, 4111.795, 4167.179, 4092.308, 450, 0, []
1630311749.6873, 121, 0, 4165.641, 4151.282, 4116.41, 4176.41, 4070.769, 450, 0, []
1630311749.6952, 122, 0, 4132.308, 4135.385, 4074.872, 4116.41, 4043.077, 450, 0, []
1630311749.703, 123, 0, 4095.897, 4095.897, 4077.436, 4087.179, 4044.615, 16208, 0, []
1630311749.7108, 124, 0, 4137.949, 4115.897, 4111.795, 4149.744, 4084.103, 450, 0, []
1630311749.7186, 125, 0, 4205.128, 4176.41, 4142.564, 4208.205, 4135.385, 450, 0, []
1630311749.7266, 126, 0, 4181.538, 4173.846, 4134.872, 4181.026, 4133.333, 450, 0, []
1630311749.7345, 127, 0, 4123.59, 4133.333, 4087.692, 4140.513, 4083.59, 16208, 0, []
1630311749.7425, 128, 0, 4136.923, 4132.821, 4109.231, 4155.385, 4069.744, 450, 0, []
1630311749.7503, 0, 0, 4147.692, 4138.462, 4118.462, 4147.692, 4084.103, 450, 0, []
1630311749.7583, 1, 0, 4115.385, 4117.949, 4096.41, 4110.256, 4081.026, 450, 0, []
1630311749.7662, 2, 0, 4133.846, 4133.846, 4126.154, 4136.41, 4093.333, 16190, 0, []
1630311749.7742, 3, 0, 4178.974, 4161.026, 4136.923, 4179.487, 4120.513, 450, 0, []
1630311749.7821, 4, 0, 4157.436, 4145.128, 4123.59, 4161.026, 4118.462, 16135, 0, []
1630311749.7901, 5, 0, 4123.59, 4115.385, 4100, 4140.513, 4107.692, 450, 0, []
1630311749.7979, 6, 0, 4133.333, 4114.872, 4092.308, 4156.41, 4098.462, 234, 0, []
1630311749.8057, 7, 0, 4150.769, 4138.974, 4120, 4169.744, 4094.359, 450, 0, []
1630311749.8136, 8, 0, 4158.974, 4154.872, 4123.59, 4186.154, 4124.103, 450, 0, []
1630311749.8214, 9, 0, 4154.872, 4145.641, 4121.538, 4200.513, 4138.974, 16143, 0, []
1630311749.8293, 10, 0, 4143.077, 4130.769, 4103.59, 4186.154, 4107.179, 450, 0, []
1630311749.837, 11, 0, 4142.051, 4138.462, 4091.282, 4166.154, 4103.077, 16201, 0, []
1630311749.8449, 12, 0, 4140, 4138.974, 4117.949, 4162.564, 4124.615, 450, 0, []
1630311749.8527, 13, 0, 4133.333, 4127.692, 4104.103, 4174.359, 4122.051, 450, 0, []
1630311749.8607, 14, 0, 4130.256, 4134.872, 4097.949, 4177.949, 4123.077, 450, 0, []
1630311749.8686, 15, 0, 4118.462, 4131.282, 4108.205, 4163.077, 4131.795, 16201, 0, []
1630311749.8764, 16, 0, 4123.59, 4131.282, 4101.026, 4169.231, 4131.282, 0, 0, []
1630311749.8842, 17, 0, 4149.744, 4156.41, 4123.077, 4194.872, 4134.359, 0, 0, []
1630311749.8922, 18, 0, 4151.795, 4154.872, 4122.051, 4188.205, 4149.744, 0, 0, []
1630311749.9001, 19, 0, 4134.359, 4117.949, 4111.282, 4172.308, 4149.231, 0, 0, []
1630311749.9081, 20, 0, 4140.513, 4122.051, 4107.179, 4181.538, 4134.872, 0, 0, []
1630311749.9159, 21, 0, 4159.487, 4152.308, 4097.949, 4184.103, 4142.564, 0, 0, []
1630311749.9239, 22, 0, 4157.436, 4143.59, 4127.179, 4185.641, 4158.462, 0, 0, []
1630311749.9318, 23, 0, 4149.744, 4136.41, 4124.103, 4194.359, 4148.205, 0, 0, []
1630311749.9398, 24, 0, 4129.744, 4138.974, 4105.128, 4165.128, 4113.846, 0, 0, []
1630311749.9477, 25, 0, 4093.333, 4127.692, 4105.128, 4129.231, 4101.026, 0, 0, []
1630311749.9556, 26, 0, 4097.949, 4127.692, 4097.949, 4149.744, 4119.487, 0, 0, []
1630311749.9635, 27, 0, 4130.256, 4128.718, 4113.333, 4172.308, 4124.615, 0, 0, []
1630311749.9715, 28, 0, 4123.59, 4120, 4102.051, 4154.872, 4112.821, 0, 0, []
1630311749.9794, 29, 0, 4103.59, 4118.974, 4095.897, 4152.308, 4107.179, 0, 0, []
1630311749.9872, 30, 0, 4101.538, 4123.59, 4111.282, 4157.949, 4097.436, 0, 0, []
1630311749.995, 31, 0, 4096.41, 4127.692, 4096.41, 4143.077, 4095.897, 0, 0, []
1630311750.0028, 32, 0, 4114.872, 4132.308, 4119.487, 4158.974, 4132.308, 0, 0, []
1630311750.0107, 33, 0, 4147.692, 4132.821, 4124.103, 4178.462, 4146.154, 0, 0, []
1630311750.0185, 34, 0, 4137.436, 4136.923, 4097.949, 4152.308, 4117.949, 0, 0, []
1630311750.0264, 35, 0, 4121.026, 4147.179, 4115.385, 4158.974, 4136.41, 0, 0, []
1630311750.0341, 36, 0, 4128.205, 4124.103, 4116.923, 4191.795, 4169.231, 0, 0, []
1630311750.0421, 37, 0, 4115.385, 4102.051, 4114.359, 4177.949, 4141.538, 0, 0, []
1630311750.05, 38, 0, 4096.923, 4127.179, 4107.692, 4156.41, 4120, 0, 0, []
1630311750.058, 39, 0, 4112.821, 4142.564, 4105.128, 4178.462, 4135.897, 0, 0, []
1630311750.0659, 40, 0, 4133.333, 4140.513, 4126.154, 4195.897, 4141.538, 0, 0, []
1630311750.0738, 41, 0, 4119.487, 4143.59, 4101.538, 4175.385, 4136.923, 0, 0, []
1630311750.0817, 42, 0, 4092.308, 4125.128, 4088.205, 4158.462, 4127.692, 0, 0, []
1630311750.0897, 43, 0, 4083.077, 4106.154, 4101.538, 4156.923, 4108.205, 0, 0, []
1630311750.0976, 44, 0, 4093.333, 4135.897, 4107.179, 4165.128, 4116.923, 0, 0, []
1630311750.1054, 45, 0, 4105.641, 4148.718, 4119.487, 4183.077, 4151.282, 0, 0, []
1630311750.1132, 46, 0, 4107.692, 4111.795, 4098.462, 4181.538, 4153.846, 0, 0, []
1630311750.121, 47, 0, 4107.179, 4112.308, 4101.538, 4167.179, 4144.103, 0, 0, []
1630311750.1289, 48, 0, 4109.231, 4132.308, 4120.513, 4160.513, 4152.821, 0, 0, []
1630311750.1367, 49, 0, 4103.59, 4116.923, 4105.128, 4157.949, 4143.59, 0, 0, []
1630311750.1446, 50, 0, 4111.795, 4125.128, 4110.256, 4161.538, 4128.205, 0, 0, []
1630311750.1524, 51, 0, 4145.641, 4165.641, 4120.513, 4182.564, 4167.179, 0, 0, []
1630311750.1602, 52, 0, 4141.026, 4149.744, 4123.59, 4186.667, 4192.308, 0, 0, []
1630311750.168, 53, 0, 4095.385, 4104.103, 4090.769, 4158.462, 4146.154, 0, 0, []
1630311750.1759, 54, 0, 4106.667, 4131.795, 4085.128, 4163.077, 4139.487, 0, 0, []
1630311750.1837, 55, 0, 4150.769, 4181.538, 4141.026, 4208.205, 4192.821, 0, 0, []
1630311750.1917, 56, 0, 4139.487, 4156.923, 4105.641, 4197.949, 4183.59, 0, 0, []
1630311750.1995, 57, 0, 4098.462, 4117.436, 4065.641, 4143.077, 4117.949, 0, 0, []
1630311750.2075, 58, 0, 4089.744, 4123.077, 4091.795, 4140.513, 4116.41, 0, 0, []
1630311750.2154, 59, 0, 4106.667, 4130.256, 4095.385, 4177.436, 4152.308, 0, 0, []
1630311750.2234, 60, 0, 4110.256, 4120.513, 4095.897, 4171.795, 4135.385, 0, 0, []
1630311750.2313, 61, 0, 4102.564, 4120, 4079.487, 4140, 4121.026, 0, 0, []
1630311750.2392, 62, 0, 4120, 4140, 4099.487, 4163.077, 4163.59, 0, 0, []
1630311750.2471, 63, 0, 4148.205, 4154.359, 4127.179, 4202.051, 4186.667, 0, 0, []
1630311750.2549, 64, 0, 4138.974, 4145.641, 4095.385, 4185.641, 4153.333, 450, 0, []
1630311750.2628, 65, 0, 4123.59, 4141.538, 4108.718, 4164.103, 4149.744, 450, 0, []
1630311750.2706, 66, 0, 4141.026, 4159.487, 4125.641, 4184.103, 4181.026, 16186, 0, []
1630311750.2784, 67, 0, 4144.615, 4150.769, 4104.103, 4187.692, 4166.154, 450, 0, []
1630311750.2862, 68, 0, 4112.821, 4116.923, 4093.333, 4148.205, 4120.513, 16134, 0, []
1630311750.2941, 69, 0, 4095.385, 4118.462, 4090.256, 4144.103, 4124.615, 450, 0, []
1630311750.3019, 70, 0, 4111.282, 4138.462, 4114.872, 4184.615, 4159.487, 240, 0, []
1630311750.3098, 71, 0, 4102.051, 4126.667, 4093.846, 4171.795, 4137.436, 450, 0, []
1630311750.3175, 72, 0, 4081.538, 4108.718, 4064.615, 4137.436, 4108.205, 450, 0, []
1630311750.3255, 73, 0, 4119.487, 4133.846, 4108.718, 4175.897, 4154.359, 16142, 0, []
1630311750.3334, 74, 0, 4152.821, 4153.333, 4108.718, 4202.051, 4178.462, 450, 0, []
1630311750.3414, 75, 0, 4120, 4131.282, 4086.667, 4154.359, 4142.051, 16196, 0, []
1630311750.3493, 76, 0, 4104.615, 4137.949, 4090.256, 4150.256, 4151.795, 450, 0, []
1630311750.3572, 77, 0, 4127.179, 4161.538, 4092.821, 4184.615, 4177.436, 450, 0, []
1630311750.3651, 78, 0, 4126.154, 4146.667, 4092.821, 4174.872, 4157.436, 450, 0, []
1630311750.3731, 79, 0, 4120.513, 4139.487, 4086.667, 4167.692, 4165.641, 16196, 0, []
1630311750.381, 80, 0, 4136.923, 4152.821, 4116.923, 4195.385, 4195.385, 450, 0, []
1630311750.389, 81, 0, 4146.154, 4144.103, 4116.41, 4200.513, 4179.487, 450, 0, []
1630311750.3968, 82, 0, 4136.923, 4132.821, 4093.846, 4173.333, 4161.026, 450, 0, []
1630311750.4048, 83, 0, 4120, 4132.821, 4108.205, 4161.538, 4162.564, 16196, 0, []
1630311750.4127, 84, 0, 4115.385, 4129.744, 4084.615, 4170.256, 4148.718, 450, 0, []
1630311750.4205, 85, 0, 4129.231, 4134.872, 4091.282, 4182.564, 4145.128, 450, 0, []
1630311750.4284, 86, 0, 4133.846, 4150.256, 4110.256, 4188.718, 4170.769, 450, 0, []
1630311750.4361, 87, 0, 4135.897, 4149.744, 4087.179, 4189.744, 4180, 16196, 0, []
1630311750.444, 88, 0, 4138.462, 4137.949, 4085.128, 4181.026, 4147.692, 450, 0, []
1630311750.4518, 89, 0, 4124.615, 4134.359, 4081.538, 4170.256, 4136.41, 450, 0, []
1630311750.4597, 90, 0, 4129.231, 4142.564, 4104.615, 4195.385, 4181.026, 450, 0, []
1630311750.4675, 91, 0, 4150.769, 4136.923, 4116.41, 4208.718, 4193.846, 16196, 0, []
1630311750.4754, 92, 0, 4145.641, 4127.692, 4091.282, 4190.256, 4165.641, 450, 0, []
1630311750.4831, 93, 0, 4119.487, 4149.231, 4101.026, 4184.103, 4173.333, 450, 0, []
1630311750.491, 94, 0, 4116.41, 4149.231, 4088.205, 4180, 4196.41, 450, 0, []
1630311750.4989, 95, 0, 4131.795, 4124.615, 4081.026, 4171.282, 4186.667, 16196, 0, []
1630311750.5069, 96, 0, 4132.821, 4137.949, 4104.615, 4171.795, 4179.487, 450, 0, []
1630311750.5149, 97, 0, 4127.692, 4159.487, 4094.872, 4178.974, 4191.282, 450, 0, []
1630311750.5227, 98, 0, 4122.051, 4145.641, 4089.744, 4175.897, 4173.846, 450, 0, []
1630311750.5306, 99, 0, 4115.897, 4127.179, 4082.564, 4160, 4147.692, 16196, 0, []
1630311750.5386, 100, 0, 4104.103, 4119.487, 4076.923, 4140.513, 4149.744, 450, 0, []
1630311750.5465, 101, 0, 4097.949, 4112.308, 4078.974, 4134.872, 4147.692, 450, 0, []
1630311750.5545, 102, 0, 4114.872, 4129.231, 4068.718, 4147.179, 4138.974, 450, 0, []
1630311750.5623, 103, 0, 4132.821, 4145.641, 4100.513, 4153.846, 4161.026, 16196, 0, []
1630311750.5701, 104, 0, 4138.462, 4132.821, 4115.385, 4165.641, 4194.872, 450, 0, []
1630311750.578, 105, 0, 4147.179, 4145.128, 4102.564, 4188.205, 4193.333, 450, 0, []
1630311750.5858, 106, 0, 4154.359, 4169.231, 4107.179, 4189.231, 4184.615, 450, 0, []
1630311750.5937, 107, 0, 4139.487, 4160, 4081.026, 4171.282, 4196.41, 16196, 0, []
1630311750.6014, 108, 0, 4118.974, 4124.103, 4069.744, 4154.359, 4182.051, 450, 0, []
1630311750.6093, 109, 0, 4114.359, 4108.205, 4066.667, 4143.59, 4137.436, 450, 0, []
1630311750.6171, 110, 0, 4117.436, 4139.487, 4071.282, 4142.564, 4133.846, 450, 0, []
1630311750.625, 111, 0, 4126.154, 4157.436, 4102.051, 4160, 4172.308, 16196, 0, []
1630311750.6328, 112, 0, 4119.487, 4127.692, 4076.923, 4154.359, 4164.615, 450, 0, []
1630311750.6407, 113, 0, 4093.846, 4106.667, 4061.026, 4121.538, 4127.179, 450, 0, []
1630311750.6486, 114, 0, 4103.59, 4120.513, 4081.538, 4137.436, 4147.692, 450, 0, []
1630311750.6566, 115, 0, 4141.026, 4136.923, 4096.923, 4188.718, 4183.59, 16196, 0, []
1630311750.6645, 116, 0, 4151.282, 4146.667, 4113.846, 4195.897, 4177.436, 450, 0, []
1630311750.6725, 117, 0, 4132.821, 4147.692, 4086.154, 4168.718, 4167.179, 450, 0, []
1630311750.6803, 118, 0, 4111.795, 4113.846, 4068.718, 4154.872, 4156.923, 450, 0, []
1630311750.6883, 119, 0, 4100.513, 4094.359, 4073.846, 4149.744, 4137.436, 16196, 0, []
1630311750.6962, 120, 0, 4107.692, 4127.179, 4078.974, 4152.308, 4148.718, 450, 0, []
1630311750.7042, 121, 0, 4112.821, 4138.974, 4092.821, 4156.41, 4163.59, 450, 0, []
1630311750.7121, 122, 0, 4096.923, 4112.821, 4066.154, 4137.436, 4142.564, 450, 0, []
1630311750.72, 123, 0, 4089.231, 4114.872, 4069.744, 4132.308, 4141.538, 16196, 0, []
1630311750.7279, 124, 0, 4106.154, 4145.128, 4093.333, 4161.538, 4175.385, 450, 0, []
1630311750.7357, 125, 0, 4121.538, 4150.256, 4076.41, 4169.231, 4178.974, 450, 0, []
1630311750.7436, 126, 0, 4123.59, 4133.846, 4086.154, 4153.333, 4164.615, 450, 0, []
1630311750.7514, 127, 0, 4115.897, 4129.231, 4084.615, 4151.282, 4174.872, 16196, 0, []
1630311750.7592, 128, 0, 4123.59, 4137.949, 4089.744, 4170.256, 4188.718, 450, 0, []
1630311750.767, 0, 0, 4146.154, 4154.872, 4105.128, 4187.179, 4186.667, 450, 0, []
1630311750.7749, 1, 0, 4138.974, 4138.974, 4084.103, 4167.179, 4181.026, 450, 0, []
1630311750.7827, 2, 0, 4119.487, 4118.462, 4091.282, 4154.359, 4185.641, 16186, 0, []
1630311750.7906, 3, 0, 4134.359, 4152.821, 4091.795, 4177.949, 4197.949, 450, 0, []
1630311750.7983, 4, 0, 4149.231, 4168.718, 4093.333, 4180.513, 4205.128, 16136, 0, []
1630311750.8062, 5, 0, 4129.744, 4123.59, 4097.949, 4158.974, 4205.128, 450, 0, []
1630311750.814, 6, 0, 4118.974, 4105.641, 4070.256, 4160, 4198.974, 237, 0, []
1630311750.822, 7, 0, 4137.949, 4136.41, 4085.128, 4177.949, 4196.923, 450, 0, []
1630311750.8299, 8, 0, 4149.231, 4149.744, 4098.462, 4175.897, 4202.051, 450, 0, []
1630311750.8379, 9, 0, 4132.308, 4136.41, 4090.256, 4170.256, 4202.564, 16143, 0, []
1630311750.8457, 10, 0, 4121.026, 4136.923, 4083.59, 4175.897, 4196.923, 450, 0, []
1630311750.8537, 11, 0, 4134.872, 4149.231, 4071.282, 4173.846, 4192.821, 16226, 0, []
1630311750.8616, 12, 0, 4144.103, 4158.974, 4100.513, 4173.333, 4204.103, 450, 0, []
1630311750.8696, 13, 0, 4140, 4154.872, 4102.564, 4182.564, 4226.154, 450, 0, []
1630311750.8775, 14, 0, 4135.897, 4137.436, 4081.538, 4186.667, 4221.538, 450, 0, []
1630311750.8852, 15, 0, 4140.513, 4143.59, 4097.436, 4188.205, 4202.564, 16226, 0, []
1630311750.8931, 16, 0, 4145.128, 4163.59, 4094.359, 4183.077, 4203.59, 0, 0, []
1630311750.9009, 17, 0, 4120, 4137.436, 4086.667, 4158.974, 4191.795, 0, 0, []
1630311750.9088, 18, 0, 4099.487, 4108.718, 4081.026, 4152.308, 4168.718, 0, 0, []
1630311750.9166, 19, 0, 4134.359, 4152.308, 4100, 4194.872, 4187.179, 0, 0, []
1630311750.9244, 20, 0, 4160.513, 4189.231, 4127.179, 4211.795, 4211.282, 0, 0, []
1630311750.9322, 21, 0, 4133.333, 4155.897, 4085.128, 4179.487, 4199.487, 0, 0, []
1630311750.9401, 22, 0, 4127.179, 4148.718, 4077.436, 4183.077, 4197.949, 0, 0, []
1630311750.9479, 23, 0, 4145.641, 4172.821, 4101.026, 4193.846, 4196.923, 0, 0, []
1630311750.9559, 24, 0, 4141.026, 4160.513, 4095.385, 4163.59, 4186.154, 0, 0, []
1630311750.9637, 25, 0, 4131.795, 4141.538, 4108.718, 4154.872, 4189.231, 0, 0, []
1630311750.9717, 26, 0, 4134.872, 4153.846, 4102.051, 4178.974, 4191.795, 0, 0, []
1630311750.9796, 27, 0, 4130.256, 4164.103, 4089.744, 4176.923, 4175.897, 0, 0, []
1630311750.9876, 28, 0, 4106.154, 4139.487, 4083.077, 4142.564, 4158.974, 0, 0, []
1630311750.9955, 29, 0, 4104.103, 4125.128, 4085.641, 4147.692, 4173.333, 0, 0, []
1630311751.0034, 30, 0, 4123.59, 4143.077, 4105.641, 4175.385, 4185.128, 0, 0, []
1630311751.0113, 31, 0, 4112.308, 4146.154, 4075.897, 4151.282, 4164.103, 0, 0, []
1630311751.0193, 32, 0, 4097.436, 4125.641, 4074.359, 4133.333, 4162.051, 0, 0, []
1630311751.0272, 33, 0, 4132.308, 4129.744, 4122.051, 4179.487, 4193.846, 0, 0, []
1630311751.035, 34, 0, 4158.462, 4148.718, 4108.718, 4198.462, 4192.308, 0, 0, []
1630311751.0428, 35, 0, 4131.282, 4155.897, 4084.103, 4155.385, 4164.103, 0, 0, []
1630311751.0506, 36, 0, 4125.641, 4152.821, 4081.026, 4153.333, 4167.179, 0, 0, []
1630311751.0585, 37, 0, 4140.513, 4140, 4086.154, 4178.462, 4158.462, 0, 0, []
1630311751.0663, 38, 0, 4122.051, 4142.564, 4086.154, 4154.872, 4126.667, 0, 0, []
1630311751.0742, 39, 0, 4106.667, 4155.897, 4074.872, 4144.103, 4137.949, 0, 0, []
1630311751.0819, 40, 0, 4128.205, 4148.205, 4101.026, 4179.487, 4165.128, 0, 0, []
1630311751.0898, 41, 0, 4127.692, 4136.923, 4101.538, 4180.513, 4138.974, 0, 0, []
1630311751.0976, 42, 0, 4097.949, 4127.692, 4082.564, 4146.154, 4120.513, 0, 0, []
1630311751.1055, 43, 0, 4109.231, 4135.897, 4099.487, 4162.564, 4170.256, 0, 0, []
1630311751.1133, 44, 0, 4138.974, 4163.59, 4093.333, 4192.308, 4201.026, 0, 0, []
1630311751.1211, 45, 0, 4126.154, 4158.974, 4092.821, 4168.718, 4170.769, 0, 0, []
1630311751.1289, 46, 0, 4100.513, 4131.282, 4086.154, 4149.744, 4157.436, 0, 0, []
1630311751.1369, 47, 0, 4111.795, 4134.872, 4087.179, 4185.128, 4178.462, 0, 0, []
1630311751.1448, 48, 0, 4134.872, 4143.077, 4114.872, 4211.282, 4175.897, 0, 0, []
1630311751.1528, 49, 0, 4130.769, 4132.308, 4103.077, 4185.128, 4169.744, 0, 0, []
1630311751.1607, 50, 0, 4115.897, 4149.744, 4106.154, 4176.923, 4185.128, 0, 0, []
1630311751.1686, 51, 0, 4100.513, 4161.538, 4095.897, 4183.59, 4170.256, 0, 0, []
1630311751.1765, 52, 0, 4088.205, 4129.744, 4067.692, 4152.308, 4142.051, 0, 0, []
1630311751.1845, 53, 0, 4093.846, 4131.282, 4090.256, 4136.41, 4157.949, 0, 0, []
1630311751.1924, 54, 0, 4103.59, 4152.308, 4089.231, 4147.179, 4167.179, 0, 0, []
1630311751.2004, 55, 0, 4105.641, 4131.282, 4089.231, 4148.205, 4148.205, 0, 0, []
1630311751.2082, 56, 0, 4110.256, 4115.897, 4104.615, 4152.821, 4165.128, 0, 0, []
1630311751.216, 57, 0, 4106.667, 4128.718, 4088.718, 4157.949, 4176.41, 0, 0, []
1630311751.2239, 58, 0, 4109.744, 4134.872, 4098.974, 4161.538, 4154.872, 0, 0, []
1630311751.2317, 59, 0, 4135.385, 4138.462, 4118.462, 4180.513, 4174.359, 0, 0, []
1630311751.2396, 60, 0, 4135.385, 4149.231, 4111.282, 4189.231, 4198.462, 0, 0, []
1630311751.2473, 61, 0, 4103.59, 4135.385, 4076.923, 4172.821, 4156.923, 0, 0, []
1630311751.2552, 62, 0, 4107.179, 4119.487, 4070.769, 4172.308, 4130.769, 0, 0, []
1630311751.263, 63, 0, 4130.256, 4126.667, 4104.615, 4183.077, 4156.923, 0, 0, []
1630311751.271, 64, 0, 4121.538, 4128.205, 4082.564, 4175.897, 4153.333, 450, 0, []
1630311751.2789, 65, 0, 4110.769, 4119.487, 4067.179, 4170.256, 4116.41, 450, 0, []
1630311751.2868, 66, 0, 4110.769, 4116.41, 4085.641, 4170.256, 4112.821, 16187, 0, []
1630311751.2947, 67, 0, 4108.718, 4122.051, 4078.462, 4171.795, 4131.282, 450, 0, []
1630311751.3027, 68, 0, 4110.769, 4121.026, 4081.026, 4164.615, 4121.026, 16138, 0, []
1630311751.3106, 69, 0, 4125.641, 4126.667, 4080.513, 4146.667, 4120.513, 450, 0, []
1630311751.3186, 70, 0, 4137.436, 4141.538, 4091.282, 4151.795, 4150.769, 243, 0, []
1630311751.3264, 71, 0, 4138.462, 4135.897, 4097.949, 4173.846, 4152.308, 450, 0, []
1630311751.3344, 72, 0, 4140.513, 4134.872, 4075.385, 4181.026, 4134.359, 450, 0, []
1630311751.3423, 73, 0, 4146.154, 4144.103, 4090.769, 4177.436, 4142.051, 16140, 0, []
1630311751.3503, 74, 0, 4141.538, 4121.538, 4080, 4169.231, 4137.949, 450, 0, []
1630311751.3582, 75, 0, 4123.077, 4096.41, 4050.769, 4148.205, 4100, 16211, 0, []
1630311751.3659, 76, 0, 4132.308, 4114.872, 4080.513, 4143.077, 4115.897, 450, 0, []
1630311751.3738, 77, 0, 4164.103, 4132.821, 4097.436, 4164.615, 4174.359, 450, 0, []
1630311751.3816, 78, 0, 4167.179, 4120.513, 4092.821, 4170.256, 4173.846, 450, 0, []
1630311751.3895, 79, 0, 4156.923, 4113.333, 4073.333, 4154.872, 4143.077, 16211, 0, []
1630311751.3973, 80, 0, 4153.333, 4120, 4070.256, 4148.205, 4144.615, 450, 0, []
1630311751.4051, 81, 0, 4152.821, 4133.333, 4101.026, 4164.103, 4152.308, 450, 0, []
1630311751.4129, 82, 0, 4158.462, 4136.41, 4093.846, 4183.077, 4142.051, 450, 0, []
1630311751.4209, 83, 0, 4144.103, 4123.077, 4078.974, 4165.128, 4127.692, 16211, 0, []
1630311751.4288, 84, 0, 4112.308, 4123.077, 4067.692, 4143.59, 4121.026, 450, 0, []
1630311751.4368, 85, 0, 4126.667, 4140.513, 4067.692, 4166.154, 4132.821, 450, 0, []
1630311751.4446, 86, 0, 4164.615, 4142.051, 4084.103, 4183.59, 4151.795, 450, 0, []
1630311751.4526, 87, 0, 4154.872, 4133.846, 4062.564, 4169.744, 4157.436, 16211, 0, []
1630311751.4605, 88, 0, 4142.564, 4135.897, 4075.385, 4173.846, 4155.385, 450, 0, []
1630311751.4685, 89, 0, 4162.564, 4139.487, 4092.821, 4184.615, 4148.205, 450, 0, []
1630311751.4764, 90, 0, 4145.641, 4128.205, 4048.205, 4146.154, 4127.692, 450, 0, []
1630311751.4842, 91, 0, 4097.436, 4104.615, 4035.897, 4112.308, 4109.231, 16211, 0, []
1630311751.4921, 92, 0, 4122.051, 4122.051, 4063.077, 4152.821, 4133.846, 450, 0, []
1630311751.4999, 93, 0, 4190.769, 4174.359, 4098.974, 4208.205, 4185.641, 450, 0, []
1630311751.5079, 94, 0, 4174.872, 4168.205, 4084.103, 4187.692, 4177.949, 450, 0, []
1630311751.5158, 95, 0, 4115.385, 4121.026, 4039.487, 4135.385, 4119.487, 16211, 0, []
1630311751.5237, 96, 0, 4127.179, 4121.026, 4070.769, 4143.077, 4107.179, 450, 0, []
1630311751.5314, 97, 0, 4140.513, 4124.103, 4078.462, 4158.462, 4125.641, 450, 0, []
1630311751.5393, 98, 0, 4118.462, 4098.974, 4060, 4150.256, 4122.051, 450, 0, []
1630311751.5471, 99, 0, 4126.154, 4106.667, 4065.641, 4148.718, 4113.846, 16211, 0, []
1630311751.555, 100, 0, 4132.308, 4123.59, 4053.333, 4136.923, 4109.744, 450, 0, []
1630311751.5628, 101, 0, 4122.564, 4114.359, 4073.333, 4145.128, 4121.538, 450, 0, []
1630311751.5706, 102, 0, 4143.59, 4126.154, 4088.205, 4183.59, 4147.179, 450, 0, []
1630311751.5784, 103, 0, 4167.692, 4151.282, 4090.769, 4190.769, 4158.974, 16211, 0, []
1630311751.5863, 104, 0, 4147.692, 4126.154, 4091.795, 4165.641, 4148.718, 450, 0, []
1630311751.5941, 105, 0, 4114.872, 4093.846, 4054.359, 4146.667, 4116.41, 450, 0, []
1630311751.6021, 106, 0, 4111.282, 4113.333, 4056.41, 4141.026, 4097.949, 450, 0, []
1630311751.6099, 107, 0, 4143.077, 4142.051, 4094.872, 4165.128, 4141.538, 16211, 0, []
1630311751.6179, 108, 0, 4171.795, 4137.436, 4109.744, 4195.897, 4180, 450, 0, []
1630311751.6258, 109, 0, 4147.692, 4114.872, 4087.179, 4163.077, 4128.718, 450, 0, []
1630311751.6338, 110, 0, 4111.282, 4107.692, 4055.385, 4117.436, 4083.59, 450, 0, []
1630311751.6417, 111, 0, 4123.59, 4118.462, 4087.692, 4142.564, 4118.974, 16211, 0, []
1630311751.6496, 112, 0, 4166.154, 4139.487, 4105.641, 4183.59, 4160.513, 450, 0, []
1630311751.6575, 113, 0, 4172.821, 4149.744, 4080.513, 4175.385, 4150.256, 450, 0, []
1630311751.6653, 114, 0, 4134.359, 4137.949, 4080.513, 4143.59, 4125.641, 450, 0, []
1630311751.6732, 115, 0, 4116.41, 4116.41, 4057.949, 4129.744, 4118.462, 16211, 0, []
1630311751.681, 116, 0, 4134.872, 4108.718, 4061.026, 4147.179, 4118.462, 450, 0, []
1630311751.6888, 117, 0, 4150.769, 4124.103, 4092.308, 4163.077, 4122.564, 450, 0, []
1630311751.6966, 118, 0, 4133.846, 4127.179, 4077.949, 4154.872, 4130.769, 450, 0, []
1630311751.7045, 119, 0, 4097.436, 4097.949, 4058.462, 4135.385, 4106.667, 16211, 0, []
1630311751.7123, 120, 0, 4081.026, 4091.795, 4050.256, 4118.462, 4070.769, 450, 0, []
1630311751.7202, 121, 0, 4103.077, 4132.308, 4081.026, 4129.231, 4103.59, 450, 0, []
1630311751.7279, 122, 0, 4140.513, 4149.744, 4107.179, 4176.923, 4169.744, 450, 0, []
1630311751.7359, 123, 0, 4157.436, 4133.333, 4081.026, 4203.59, 4170.769, 16211, 0, []
1630311751.7438, 124, 0, 4146.154, 4135.385, 4078.462, 4174.359, 4130.769, 450, 0, []
1630311751.7518, 125, 0, 4129.744, 4131.795, 4080.513, 4148.205, 4122.051, 450, 0, []
1630311751.7597, 126, 0, 4130.256, 4102.564, 4085.128, 4161.538, 4129.231, 450, 0, []
1630311751.7676, 127, 0, 4129.231, 4105.128, 4078.974, 4160, 4113.333, 16211, 0, []
1630311751.7755, 128, 0, 4127.179, 4129.744, 4058.974, 4135.385, 4116.41, 450, 0, []
1630311751.7835, 0, 0, 4128.718, 4118.974, 4075.897, 4130.769, 4137.949, 450, 0, []
1630311751.7914, 1, 0, 4118.462, 4104.103, 4055.385, 4133.333, 4125.641, 450, 0, []
1630311751.7994, 2, 0, 4115.897, 4117.436, 4047.692, 4134.872, 4115.897, 16192, 0, []
1630311751.8072, 3, 0, 4123.077, 4126.154, 4080, 4150.256, 4146.667, 450, 0, []
1630311751.815, 4, 0, 4120, 4121.538, 4074.359, 4161.026, 4161.538, 16141, 0, []
1630311751.8229, 5, 0, 4132.308, 4126.667, 4088.718, 4163.59, 4147.692, 450, 0, []
1630311751.8307, 6, 0, 4155.897, 4129.744, 4093.333, 4160, 4154.359, 242, 0, []
1630311751.8386, 7, 0, 4139.487, 4121.026, 4085.128, 4143.077, 4160, 450, 0, []
1630311751.8463, 8, 0, 4129.231, 4117.436, 4081.538, 4144.615, 4153.333, 450, 0, []
1630311751.8542, 9, 0, 4161.538, 4132.308, 4069.744, 4172.308, 4162.564, 16147, 0, []
1630311751.862, 10, 0, 4156.923, 4139.487, 4084.615, 4166.667, 4166.154, 450, 0, []
1630311751.8699, 11, 0, 4116.923, 4125.128, 4063.077, 4139.487, 4149.231, 16202, 0, []
1630311751.8777, 12, 0, 4117.436, 4120.513, 4054.872, 4150.769, 4131.282, 450, 0, []
1630311751.8857, 13, 0, 4125.641, 4122.051, 4077.949, 4157.436, 4120.513, 450, 0, []
1630311751.8935, 14, 0, 4100.513, 4114.872, 4057.436, 4140.513, 4116.923, 450, 0, []
1630311751.9015, 15, 0, 4106.667, 4115.897, 4076.923, 4155.385, 4127.692, 16202, 0, []
1630311751.9094, 16, 0, 4126.154, 4128.205, 4083.077, 4158.974, 4123.077, 0, 0, []
1630311751.9174, 17, 0, 4102.564, 4121.026, 4053.846, 4124.615, 4101.026, 0, 0, []
1630311751.9253, 18, 0, 4097.949, 4105.641, 4068.205, 4136.923, 4112.821, 0, 0, []
1630311751.9332, 19, 0, 4121.026, 4111.795, 4061.026, 4168.718, 4122.051, 0, 0, []
1630311751.9411, 20, 0, 4110.256, 4117.949, 4060, 4147.179, 4101.538, 0, 0, []
1630311751.9491, 21, 0, 4099.487, 4104.615, 4067.179, 4134.872, 4104.615, 0, 0, []
1630311751.957, 22, 0, 4135.385, 4109.231, 4073.333, 4170.769, 4139.487, 0, 0, []
1630311751.9648, 23, 0, 4162.051, 4142.564, 4092.821, 4180.513, 4154.359, 0, 0, []
1630311751.9726, 24, 0, 4153.846, 4152.821, 4074.359, 4161.026, 4156.41, 0, 0, []
1630311751.9804, 25, 0, 4155.385, 4135.897, 4077.949, 4167.692, 4159.487, 0, 0, []
1630311751.9883, 26, 0, 4158.462, 4134.872, 4073.333, 4165.128, 4129.744, 0, 0, []
1630311751.9961, 27, 0, 4144.103, 4130.256, 4045.128, 4133.846, 4102.564, 0, 0, []
1630311752.004, 28, 0, 4136.923, 4112.821, 4070.769, 4137.949, 4121.026, 0, 0, []
1630311752.0117, 29, 0, 4154.359, 4126.154, 4078.462, 4169.231, 4146.667, 0, 0, []
1630311752.0196, 30, 0, 4161.026, 4142.051, 4073.333, 4164.103, 4134.872, 0, 0, []
1630311752.0274, 31, 0, 4148.718, 4141.538, 4082.564, 4147.179, 4128.205, 0, 0, []
1630311752.0354, 32, 0, 4154.359, 4152.308, 4089.231, 4166.154, 4155.385, 0, 0, []
1630311752.0433, 33, 0, 4160.513, 4145.641, 4097.949, 4176.41, 4151.795, 0, 0, []
1630311752.0512, 34, 0, 4143.59, 4116.41, 4067.692, 4146.154, 4118.462, 0, 0, []
1630311752.0591, 35, 0, 4129.744, 4118.974, 4065.641, 4133.846, 4125.128, 0, 0, []
1630311752.0671, 36, 0, 4139.487, 4136.923, 4083.077, 4155.897, 4153.333, 0, 0, []
1630311752.075, 37, 0, 4138.974, 4118.974, 4062.564, 4152.821, 4132.308, 0, 0, []
1630311752.083, 38, 0, 4137.949, 4115.385, 4086.154, 4147.692, 4122.564, 0, 0, []
1630311752.0908, 39, 0, 4174.872, 4145.641, 4111.282, 4184.615, 4180.513, 0, 0, []
1630311752.0988, 40, 0, 4195.897, 4165.128, 4105.641, 4204.615, 4196.41, 0, 0, []
1630311752.1067, 41, 0, 4163.077, 4162.051, 4083.59, 4173.846, 4152.821, 0, 0, []
1630311752.1147, 42, 0, 4130.769, 4131.795, 4054.872, 4151.282, 4152.308, 0, 0, []
1630311752.1226, 43, 0, 4132.308, 4109.744, 4069.744, 4149.744, 4166.667, 0, 0, []
1630311752.1305, 44, 0, 4141.026, 4123.077, 4060.513, 4135.897, 4141.026, 0, 0, []
1630311752.1384, 45, 0, 4135.385, 4123.077, 4050.769, 4121.538, 4127.692, 0, 0, []
1630311752.1462, 46, 0, 4139.487, 4121.538, 4086.154, 4146.154, 4160.513, 0, 0, []
1630311752.1541, 47, 0, 4184.615, 4156.41, 4098.974, 4202.051, 4206.667, 0, 0, []
1630311752.1619, 48, 0, 4221.026, 4170.256, 4110.256, 4223.077, 4224.615, 0, 0, []
1630311752.1697, 49, 0, 4189.231, 4144.615, 4084.615, 4174.359, 4195.897, 0, 0, []
1630311752.1775, 50, 0, 4150.769, 4130.769, 4056.923, 4135.385, 4165.641, 0, 0, []
1630311752.1854, 51, 0, 4167.179, 4144.103, 4086.667, 4167.692, 4177.436, 0, 0, []
1630311752.1932, 52, 0, 4195.385, 4154.872, 4091.282, 4202.051, 4194.872, 0, 0, []
1630311752.2011, 53, 0, 4184.103, 4145.128, 4091.282, 4180, 4185.128, 0, 0, []
1630311752.2088, 54, 0, 4159.487, 4130.769, 4088.718, 4150.769, 4171.795, 0, 0, []
1630311752.2168, 55, 0, 4158.462, 4143.59, 4090.256, 4163.59, 4171.282, 0, 0, []
1630311752.2247, 56, 0, 4171.282, 4164.103, 4111.282, 4185.641, 4171.795, 0, 0, []
1630311752.2327, 57, 0, 4177.949, 4154.872, 4093.333, 4176.41, 4174.872, 0, 0, []
1630311752.2406, 58, 0, 4181.538, 4151.282, 4105.128, 4170.256, 4186.667, 0, 0, []
1630311752.2486, 59, 0, 4180, 4161.538, 4111.795, 4174.872, 4181.026, 0, 0, []
1630311752.2564, 60, 0, 4174.359, 4155.897, 4080, 4167.692, 4157.949, 0, 0, []
1630311752.2644, 61, 0, 4171.795, 4143.59, 4088.205, 4157.436, 4152.308, 0, 0, []
1630311752.2723, 62, 0, 4162.564, 4135.897, 4074.872, 4150.256, 4164.615, 0, 0, []
1630311752.2801, 63, 0, 4144.615, 4130.769, 4059.487, 4141.538, 4153.846, 0, 0, []
1630311752.288, 64, 0, 4149.231, 4140, 4066.154, 4142.564, 4137.436, 450, 0, []
1630311752.2957, 65, 0, 4175.385, 4160.513, 4079.487, 4159.487, 4162.564, 450, 0, []
1630311752.3036, 66, 0, 4176.41, 4156.923, 4098.462, 4170.256, 4190.256, 16193, 0, []
1630311752.3114, 67, 0, 4160, 4136.923, 4067.692, 4166.667, 4172.821, 450, 0, []
1630311752.3193, 68, 0, 4185.641, 4148.205, 4077.436, 4178.462, 4160.513, 16136, 0, []
1630311752.3271, 69, 0, 4217.436, 4164.615, 4103.59, 4186.154, 4176.41, 450, 0, []
1630311752.3349, 70, 0, 4189.744, 4136.923, 4071.282, 4154.359, 4169.231, 235, 0, []
1630311752.3427, 71, 0, 4171.795, 4116.923, 4076.923, 4138.974, 4163.59, 450, 0, []
1630311752.3506, 72, 0, 4197.436, 4149.231, 4082.051, 4163.59, 4181.538, 450, 0, []
1630311752.3584, 73, 0, 4194.359, 4171.795, 4077.436, 4170.256, 4178.462, 16147, 0, []
1630311752.3664, 74, 0, 4175.897, 4148.718, 4087.692, 4157.436, 4170.769, 450, 0, []
1630311752.3742, 75, 0, 4193.333, 4137.949, 4082.051, 4170.769, 4188.205, 16197, 0, []
1630311752.3822, 76, 0, 4205.641, 4153.846, 4090.769, 4189.744, 4191.282, 450, 0, []
1630311752.3901, 77, 0, 4188.718, 4165.128, 4076.923, 4174.359, 4166.667, 450, 0, []
1630311752.3981, 78, 0, 4186.667, 4170.769, 4078.974, 4156.923, 4162.051, 450, 0, []
1630311752.406, 79, 0, 4195.897, 4158.462, 4100, 4160, 4182.564, 16197, 0, []
1630311752.4139, 80, 0, 4183.077, 4127.179, 4066.667, 4152.308, 4172.821, 450, 0, []
1630311752.4218, 81, 0, 4170.769, 4117.949, 4060.513, 4138.974, 4144.615, 450, 0, []
1630311752.4298, 82, 0, 4186.667, 4145.641, 4076.41, 4149.231, 4158.974, 450, 0, []
1630311752.4377, 83, 0, 4198.974, 4168.205, 4086.154, 4168.718, 4194.872, 16197, 0, []
1630311752.4457, 84, 0, 4173.846, 4156.923, 4083.077, 4164.103, 4175.897, 450, 0, []
1630311752.4535, 85, 0, 4136.923, 4136.923, 4040.513, 4129.231, 4114.872, 450, 0, []
1630311752.4613, 86, 0, 4142.051, 4142.051, 4059.487, 4122.051, 4119.487, 450, 0, []
1630311752.4692, 87, 0, 4181.538, 4153.846, 4095.385, 4168.718, 4191.282, 16197, 0, []
1630311752.477, 88, 0, 4193.846, 4146.154, 4083.59, 4190.256, 4209.231, 450, 0, []
1630311752.4849, 89, 0, 4181.538, 4148.205, 4084.103, 4167.692, 4166.154, 450, 0, []
1630311752.4927, 90, 0, 4183.59, 4164.103, 4084.103, 4158.462, 4165.641, 450, 0, []
1630311752.5006, 91, 0, 4180, 4149.744, 4092.821, 4161.026, 4191.282, 16197, 0, []
1630311752.5084, 92, 0, 4164.103, 4131.795, 4083.077, 4152.308, 4182.051, 450, 0, []
1630311752.5163, 93, 0, 4176.41, 4151.795, 4074.359, 4158.974, 4173.333, 450, 0, []
1630311752.5241, 94, 0, 4192.821, 4170.256, 4100, 4173.846, 4184.103, 450, 0, []
1630311752.532, 95, 0, 4172.308, 4155.897, 4081.026, 4164.103, 4187.692, 16197, 0, []
1630311752.5399, 96, 0, 4148.205, 4137.436, 4069.231, 4152.308, 4178.974, 450, 0, []
1630311752.5479, 97, 0, 4157.436, 4136.923, 4077.436, 4149.744, 4158.974, 450, 0, []
1630311752.5558, 98, 0, 4179.487, 4139.487, 4081.026, 4148.718, 4150.256, 450, 0, []
1630311752.5638, 99, 0, 4187.692, 4141.538, 4110.256, 4157.436, 4173.846, 16197, 0, []
1630311752.5717, 100, 0, 4171.795, 4133.846, 4080, 4155.897, 4170.769, 450, 0, []
1630311752.5796, 101, 0, 4146.154, 4122.564, 4048.205, 4137.949, 4115.897, 450, 0, []
1630311752.5875, 102, 0, 4156.41, 4140.513, 4079.487, 4148.205, 4113.333, 450, 0, []
1630311752.5953, 103, 0, 4184.103, 4164.615, 4088.205, 4181.538, 4174.359, 16197, 0, []
1630311752.6032, 104, 0, 4168.718, 4150.769, 4074.872, 4177.949, 4177.949, 450, 0, []
1630311752.611, 105, 0, 4122.564, 4121.538, 4045.128, 4134.359, 4105.641, 450, 0, []
1630311752.6188, 106, 0, 4096.923, 4116.41, 4050.769, 4102.564, 4069.744, 450, 0, []
1630311752.6266, 107, 0, 4095.897, 4115.897, 4066.667, 4110.256, 4099.487, 16197, 0, []
1630311752.6345, 108, 0, 4120.513, 4131.795, 4057.436, 4150.256, 4133.846, 450, 0, []
1630311752.6423, 109, 0, 4167.179, 4167.692, 4092.308, 4192.821, 4150.769, 450, 0, []
1630311752.6502, 110, 0, 4182.051, 4157.436, 4099.487, 4190.256, 4155.897, 450, 0, []
1630311752.6579, 111, 0, 4158.974, 4117.949, 4085.641, 4165.641, 4156.41, 16197, 0, []
1630311752.6658, 112, 0, 4150.256, 4120.513, 4090.256, 4162.564, 4148.718, 450, 0, []
1630311752.6736, 113, 0, 4165.128, 4142.564, 4070.256, 4164.103, 4131.795, 450, 0, []
1630311752.6816, 114, 0, 4172.308, 4153.333, 4078.974, 4154.872, 4134.872, 450, 0, []
1630311752.6895, 115, 0, 4165.641, 4155.385, 4082.564, 4155.897, 4160.513, 16197, 0, []
1630311752.6974, 116, 0, 4157.949, 4144.103, 4074.872, 4169.231, 4156.923, 450, 0, []
1630311752.7053, 117, 0, 4148.205, 4136.923, 4083.59, 4164.615, 4116.923, 450, 0, []
1630311752.7133, 118, 0, 4154.872, 4152.821, 4081.538, 4155.897, 4125.128, 450, 0, []
1630311752.7212, 119, 0, 4179.487, 4161.026, 4109.744, 4171.795, 4171.282, 16197, 0, []
1630311752.7292, 120, 0, 4172.821, 4144.615, 4097.949, 4172.308, 4155.897, 450, 0, []
1630311752.737, 121, 0, 4154.872, 4141.026, 4067.692, 4158.462, 4115.897, 450, 0, []
1630311752.745, 122, 0, 4180.513, 4162.051, 4098.462, 4173.846, 4143.077, 450, 0, []
1630311752.7529, 123, 0, 4188.205, 4161.538, 4089.744, 4179.487, 4166.154, 16197, 0, []
1630311752.7607, 124, 0, 4149.231, 4137.949, 4064.615, 4150.769, 4124.615, 450, 0, []
1630311752.7686, 125, 0, 4161.026, 4161.026, 4080, 4154.872, 4113.333, 450, 0, []
1630311752.7763, 126, 0, 4207.692, 4200, 4104.615, 4185.641, 4154.359, 450, 0, []
1630311752.7842, 127, 0, 4192.821, 4167.179, 4103.59, 4175.385, 4162.564, 16197, 0, []
1630311752.792, 128, 0, 4175.385, 4133.333, 4069.231, 4163.59, 4155.385, 450, 0, []
1630311752.7999, 0, 0, 4196.41, 4165.128, 4082.051, 4183.077, 4160.513, 450, 0, []
1630311752.8077, 1, 0, 4181.026, 4164.103, 4092.308, 4166.154, 4131.795, 450, 0, []
1630311752.8155, 2, 0, 4142.564, 4123.077, 4064.103, 4119.487, 4101.026, 16186, 0, []
1630311752.8233, 3, 0, 4154.359, 4147.692, 4084.103, 4131.282, 4131.795, 450, 0, []
1630311752.8312, 4, 0, 4196.923, 4195.385, 4095.897, 4179.487, 4171.795, 16139, 0, []
1630311752.839, 5, 0, 4215.385, 4189.231, 4090.769, 4191.795, 4164.103, 450, 0, []
1630311752.847, 6, 0, 4204.615, 4175.385, 4077.436, 4167.692, 4145.641, 238, 0, []
1630311752.8548, 7, 0, 4186.154, 4184.103, 4057.436, 4143.59, 4148.718, 450, 0, []
1630311752.8628, 8, 0, 4181.026, 4163.077, 4078.462, 4142.564, 4162.564, 450, 0, []
1630311752.8707, 9, 0, 4192.308, 4142.564, 4077.949, 4151.282, 4172.308, 16149, 0, []
1630311752.8787, 10, 0, 4206.667, 4175.897, 4092.308, 4170.256, 4175.897, 450, 0, []
1630311752.8866, 11, 0, 4201.026, 4190.769, 4110.256, 4171.282, 4167.692, 16200, 0, []
1630311752.8945, 12, 0, 4174.359, 4157.436, 4076.41, 4149.231, 4152.821, 450, 0, []
1630311752.9024, 13, 0, 4165.128, 4149.231, 4088.205, 4159.487, 4148.205, 450, 0, []
1630311752.9104, 14, 0, 4171.282, 4176.923, 4096.923, 4174.872, 4136.923, 450, 0, []
1630311752.9183, 15, 0, 4156.41, 4173.333, 4079.487, 4143.077, 4112.821, 16200, 0, []
1630311752.9261, 16, 0, 4129.744, 4148.718, 4076.41, 4121.538, 4103.077, 0, 0, []
1630311752.934, 17, 0, 4129.231, 4156.923, 4063.59, 4143.59, 4109.231, 0, 0, []
1630311752.9417, 18, 0, 4152.308, 4169.231, 4083.59, 4155.897, 4111.282, 0, 0, []
1630311752.9496, 19, 0, 4153.333, 4148.205, 4083.59, 4143.59, 4110.256, 0, 0, []
1630311752.9574, 20, 0, 4124.103, 4123.077, 4054.359, 4120, 4103.59, 0, 0, []
1630311752.9653, 21, 0, 4145.128, 4155.897, 4078.462, 4131.795, 4123.59, 0, 0, []
1630311752.9731, 22, 0, 4209.744, 4208.205, 4104.615, 4180, 4165.128, 0, 0, []
1630311752.981, 23, 0, 4190.769, 4183.59, 4097.436, 4163.077, 4145.641, 0, 0, []
1630311752.9889, 24, 0, 4131.795, 4137.949, 4065.641, 4111.282, 4112.821, 0, 0, []
1630311752.9969, 25, 0, 4174.872, 4172.821, 4088.718, 4151.795, 4165.641, 0, 0, []
1630311753.0048, 26, 0, 4242.051, 4215.385, 4133.846, 4209.744, 4207.179, 0, 0, []
1630311753.0128, 27, 0, 4213.333, 4187.692, 4088.718, 4167.179, 4158.974, 0, 0, []
1630311753.0206, 28, 0, 4171.282, 4176.923, 4081.026, 4134.872, 4144.103, 0, 0, []
1630311753.0286, 29, 0, 4179.487, 4185.641, 4093.846, 4165.128, 4173.333, 0, 0, []
1630311753.0365, 30, 0, 4172.821, 4149.744, 4056.41, 4158.462, 4136.923, 0, 0, []
1630311753.0445, 31, 0, 4149.744, 4137.949, 4061.026, 4129.744, 4091.282, 0, 0, []
1630311753.0524, 32, 0, 4150.769, 4165.641, 4074.872, 4144.615, 4115.897, 0, 0, []
1630311753.0601, 33, 0, 4166.667, 4175.897, 4084.615, 4175.897, 4147.692, 0, 0, []
1630311753.068, 34, 0, 4182.564, 4180.513, 4085.641, 4177.949, 4136.923, 0, 0, []
1630311753.0758, 35, 0, 4176.41, 4172.821, 4071.795, 4142.564, 4116.923, 0, 0, []
1630311753.0837, 36, 0, 4156.923, 4148.205, 4078.462, 4113.333, 4119.487, 0, 0, []
1630311753.0915, 37, 0, 4175.385, 4164.615, 4081.026, 4144.103, 4150.769, 0, 0, []
1630311753.0993, 38, 0, 4207.692, 4204.103, 4100, 4184.615, 4170.769, 0, 0, []
1630311753.1071, 39, 0, 4192.821, 4191.795, 4095.897, 4160.513, 4142.564, 0, 0, []
1630311753.115, 40, 0, 4161.026, 4154.872, 4070.256, 4119.487, 4109.744, 0, 0, []
1630311753.1228, 41, 0, 4171.795, 4158.974, 4103.077, 4139.487, 4125.128, 0, 0, []
1630311753.1308, 42, 0, 4200.513, 4178.974, 4111.795, 4184.103, 4155.897, 0, 0, []
1630311753.1386, 43, 0, 4209.744, 4174.359, 4103.59, 4197.436, 4153.846, 0, 0, []
1630311753.1466, 44, 0, 4196.41, 4170.256, 4101.026, 4177.436, 4140.513, 0, 0, []
1630311753.1545, 45, 0, 4168.718, 4170.256, 4076.923, 4141.538, 4134.359, 0, 0, []
1630311753.1625, 46, 0, 4154.872, 4153.846, 4083.59, 4125.128, 4120.513, 0, 0, []
1630311753.1704, 47, 0, 4177.949, 4162.564, 4081.538, 4145.641, 4118.462, 0, 0, []
1630311753.1783, 48, 0, 4188.718, 4174.359, 4074.872, 4153.333, 4126.667, 0, 0, []
1630311753.1862, 49, 0, 4150.769, 4134.359, 4058.462, 4116.41, 4103.59, 0, 0, []
1630311753.1942, 50, 0, 4154.359, 4132.308, 4047.179, 4118.462, 4102.051, 0, 0, []
1630311753.2021, 51, 0, 4222.564, 4183.59, 4110.256, 4185.128, 4155.385, 0, 0, []
1630311753.21, 52, 0, 4227.692, 4183.59, 4105.128, 4174.872, 4160, 0, 0, []
1630311753.2178, 53, 0, 4173.846, 4159.487, 4062.051, 4109.231, 4121.538, 0, 0, []
1630311753.2256, 54, 0, 4185.641, 4164.615, 4101.026, 4132.821, 4141.538, 0, 0, []
1630311753.2335, 55, 0, 4228.205, 4177.949, 4113.333, 4185.128, 4167.179, 0, 0, []
1630311753.2413, 56, 0, 4218.462, 4195.897, 4104.103, 4170.256, 4138.462, 0, 0, []
1630311753.2492, 57, 0, 4198.462, 4188.718, 4100, 4154.359, 4135.897, 0, 0, []
1630311753.2569, 58, 0, 4192.821, 4148.205, 4096.923, 4176.41, 4160.513, 0, 0, []
1630311753.2648, 59, 0, 4182.564, 4151.282, 4103.59, 4189.231, 4146.154, 0, 0, []
1630311753.2726, 60, 0, 4187.179, 4182.564, 4087.179, 4178.974, 4126.667, 0, 0, []
1630311753.2806, 61, 0, 4197.949, 4175.385, 4092.308, 4164.103, 4137.436, 0, 0, []
1630311753.2885, 62, 0, 4186.154, 4162.051, 4079.487, 4151.282, 4142.051, 0, 0, []
1630311753.2965, 63, 0, 4183.59, 4167.179, 4069.231, 4163.59, 4143.59, 0, 0, []
1630311753.3043, 64, 0, 4202.564, 4170.256, 4102.564, 4184.103, 4150.256, 450, 0, []
1630311753.3123, 65, 0, 4206.154, 4177.436, 4101.026, 4175.897, 4154.872, 450, 0, []
1630311753.3202, 66, 0, 4198.462, 4170.769, 4106.667, 4170.256, 4170.256, 16184, 0, []
1630311753.3282, 67, 0, 4186.667, 4148.205, 4092.308, 4167.179, 4161.538, 450, 0, []
1630311753.3361, 68, 0, 4171.282, 4160, 4057.436, 4145.128, 4121.538, 16134, 0, []
1630311753.344, 69, 0, 4174.359, 4190.769, 4089.231, 4141.026, 4127.692, 450, 0, []
1630311753.3519, 70, 0, 4186.154, 4187.692, 4104.615, 4169.231, 4171.795, 232, 0, []
1630311753.3599, 71, 0, 4188.718, 4172.821, 4109.744, 4195.385, 4180, 450, 0, []
1630311753.3678, 72, 0, 4187.179, 4167.179, 4112.821, 4190.769, 4149.744, 450, 0, []
1630311753.3756, 73, 0, 4175.385, 4161.026, 4089.744, 4166.667, 4129.744, 16149, 0, []
1630311753.3834, 74, 0, 4164.615, 4163.59, 4097.949, 4156.923, 4136.923, 450, 0, []
1630311753.3912, 75, 0, 4182.051, 4174.872, 4099.487, 4177.436, 4155.385, 16196, 0, []
1630311753.3991, 76, 0, 4207.179, 4172.821, 4097.436, 4191.282, 4164.615, 450, 0, []
1630311753.4069, 77, 0, 4209.231, 4166.667, 4102.564, 4174.359, 4175.897, 450, 0, []
1630311753.4148, 78, 0, 4197.436, 4179.487, 4094.872, 4168.718, 4196.41, 450, 0, []
1630311753.4225, 79, 0, 4187.179, 4186.154, 4103.59, 4169.231, 4186.667, 16196, 0, []
1630311753.4304, 80, 0, 4200.513, 4178.974, 4095.897, 4157.949, 4164.615, 450, 0, []
1630311753.4382, 81, 0, 4210.769, 4166.667, 4093.333, 4148.718, 4167.692, 450, 0, []
1630311753.4462, 82, 0, 4178.462, 4151.282, 4093.333, 4138.974, 4165.641, 450, 0, []
1630311753.4541, 83, 0, 4158.974, 4160.513, 4074.872, 4139.487, 4157.949, 16196, 0, []
1630311753.462, 84, 0, 4191.282, 4185.128, 4098.974, 4174.359, 4169.744, 450, 0, []
1630311753.4699, 85, 0, 4212.308, 4182.051, 4101.538, 4207.179, 4185.641, 450, 0, []
1630311753.4778, 86, 0, 4176.923, 4149.744, 4070.769, 4178.462, 4160, 450, 0, []
1630311753.4857, 87, 0, 4153.333, 4140, 4068.718, 4144.615, 4126.667, 16196, 0, []
1630311753.4936, 88, 0, 4187.692, 4167.179, 4070.769, 4164.103, 4142.051, 450, 0, []
1630311753.5013, 89, 0, 4216.41, 4185.128, 4092.821, 4178.974, 4169.231, 450, 0, []
1630311753.5093, 90, 0, 4208.718, 4180.513, 4092.821, 4162.564, 4180, 450, 0, []
1630311753.5172, 91, 0, 4197.436, 4172.308, 4085.641, 4155.897, 4182.051, 16196, 0, []
1630311753.5252, 92, 0, 4186.667, 4167.692, 4095.897, 4161.026, 4170.769, 450, 0, []
1630311753.5331, 93, 0, 4184.615, 4170.256, 4067.692, 4163.077, 4151.795, 450, 0, []
1630311753.5408, 94, 0, 4194.872, 4184.103, 4069.231, 4167.179, 4147.179, 450, 0, []
1630311753.5487, 95, 0, 4191.795, 4189.744, 4083.077, 4164.615, 4161.026, 16196, 0, []
1630311753.5565, 96, 0, 4190.256, 4173.333, 4085.641, 4168.205, 4181.538, 450, 0, []
1630311753.5644, 97, 0, 4209.231, 4165.641, 4097.949, 4181.538, 4186.154, 450, 0, []
1630311753.5722, 98, 0, 4207.692, 4174.359, 4074.872, 4166.667, 4158.462, 450, 0, []
1630311753.58, 99, 0, 4181.026, 4170.769, 4080, 4145.641, 4141.026, 16196, 0, []
1630311753.5878, 100, 0, 4158.462, 4145.128, 4069.231, 4137.949, 4136.923, 450, 0, []
1630311753.5957, 101, 0, 4148.718, 4138.462, 4040.513, 4135.385, 4121.538, 450, 0, []
1630311753.6035, 102, 0, 4160, 4163.59, 4073.846, 4148.205, 4123.077, 450, 0, []
1630311753.6115, 103, 0, 4173.333, 4173.846, 4075.897, 4153.333, 4143.077, 16196, 0, []
1630311753.6194, 104, 0, 4170.769, 4169.744, 4068.718, 4151.795, 4162.564, 450, 0, []
1630311753.6273, 105, 0, 4171.795, 4181.026, 4079.487, 4167.179, 4172.821, 450, 0, []
1630311753.6352, 106, 0, 4170.769, 4183.077, 4070.256, 4160, 4151.282, 450, 0, []
1630311753.6432, 107, 0, 4169.744, 4163.077, 4083.59, 4131.282, 4133.846, 16196, 0, []
1630311753.6511, 108, 0, 4187.692, 4175.385, 4086.667, 4145.128, 4165.641, 450, 0, []
1630311753.6591, 109, 0, 4203.077, 4194.872, 4091.282, 4178.974, 4186.154, 450, 0, []
1630311753.6669, 110, 0, 4190.256, 4172.821, 4093.333, 4169.231, 4157.949, 450, 0, []
1630311753.6749, 111, 0, 4174.872, 4161.538, 4083.077, 4151.282, 4152.308, 16196, 0, []
1630311753.6828, 112, 0, 4169.744, 4166.667, 4094.872, 4152.821, 4178.462, 450, 0, []
1630311753.6908, 113, 0, 4163.59, 4149.744, 4071.795, 4138.974, 4170.256, 450, 0, []
1630311753.6987, 114, 0, 4169.744, 4160, 4072.821, 4131.795, 4145.641, 450, 0, []
1630311753.7064, 115, 0, 4182.051, 4197.436, 4096.41, 4143.077, 4154.872, 16196, 0, []
1630311753.7143, 116, 0, 4176.41, 4161.026, 4059.487, 4135.385, 4167.692, 450, 0, []
1630311753.7221, 117, 0, 4161.538, 4106.667, 4050.769, 4127.179, 4148.718, 450, 0, []
1630311753.73, 118, 0, 4175.385, 4142.564, 4074.872, 4149.744, 4133.333, 450, 0, []
1630311753.7378, 119, 0, 4206.667, 4195.385, 4102.564, 4174.872, 4164.103, 16196, 0, []
1630311753.7457, 120, 0, 4218.974, 4190.769, 4112.821, 4189.231, 4211.282, 450, 0, []
1630311753.7536, 121, 0, 4224.103, 4164.103, 4073.333, 4199.487, 4217.949, 450, 0, []
1630311753.7615, 122, 0, 4228.718, 4166.667, 4061.538, 4195.385, 4184.615, 450, 0, []
1630311753.7693, 123, 0, 4216.41, 4187.692, 4056.923, 4176.41, 4165.128, 16196, 0, []
1630311753.7773, 124, 0, 4189.744, 4181.026, 4049.744, 4154.359, 4169.231, 450, 0, []
1630311753.7851, 125, 0, 4178.974, 4165.641, 4060.513, 4138.974, 4169.231, 450, 0, []
1630311753.7931, 126, 0, 4194.359, 4166.667, 4051.282, 4144.103, 4168.718, 450, 0, []
1630311753.801, 127, 0, 4205.641, 4162.564, 4066.154, 4162.051, 4171.795, 16196, 0, []
1630311753.809, 128, 0, 4194.872, 4155.385, 4063.59, 4147.179, 4166.667, 450, 0, []
1630311753.8169, 0, 0, 4184.615, 4148.205, 4048.718, 4128.718, 4162.564, 450, 0, []
1630311753.8248, 1, 0, 4195.385, 4135.385, 4070.769, 4152.308, 4168.205, 450, 0, []
1630311753.8327, 2, 0, 4211.282, 4145.128, 4063.077, 4174.359, 4171.282, 16187, 0, []
1630311753.8405, 3, 0, 4203.077, 4157.949, 4060.513, 4152.821, 4157.949, 450, 0, []
1630311753.8484, 4, 0, 4192.821, 4149.231, 4071.282, 4131.795, 4159.487, 16133, 0, []
1630311753.8562, 5, 0, 4226.154, 4173.846, 4085.641, 4165.641, 4203.59, 450, 0, []
1630311753.864, 6, 0, 4258.974, 4211.282, 4098.974, 4197.949, 4223.59, 239, 0, []
1630311753.8718, 7, 0, 4245.641, 4209.744, 4060.513, 4185.641, 4195.385, 450, 0, []
1630311753.8797, 8, 0, 4229.744, 4195.385, 4058.462, 4170.256, 4190.769, 450, 0, []
1630311753.8875, 9, 0, 4225.641, 4183.077, 4076.923, 4162.564, 4207.692, 16166, 0, []
1630311753.8954, 10, 0, 4201.538, 4165.128, 4050.769, 4145.641, 4192.308, 450, 0, []
1630311753.9031, 11, 0, 4198.462, 4163.59, 4064.615, 4151.282, 4176.41, 16201, 0, []
1630311753.911, 12, 0, 4227.692, 4171.795, 4074.359, 4169.231, 4187.179, 450, 0, []
1630311753.9188, 13, 0, 4226.667, 4168.718, 4054.359, 4150.769, 4187.179, 450, 0, []
1630311753.9268, 14, 0, 4209.744, 4168.718, 4042.564, 4135.385, 4185.128, 450, 0, []
1630311753.9347, 15, 0, 4224.103, 4184.615, 4053.333, 4163.077, 4204.615, 16201, 0, []
1630311753.9426, 16, 0, 4247.692, 4191.795, 4089.231, 4193.333, 4216.923, 0, 0, []
1630311753.9505, 17, 0, 4246.154, 4167.692, 4073.846, 4187.179, 4201.026, 0, 0, []
1630311753.9585, 18, 0, 4233.846, 4165.641, 4065.128, 4171.795, 4189.231, 0, 0, []
1630311753.9664, 19, 0, 4222.564, 4191.795, 4080, 4163.59, 4190.769, 0, 0, []
1630311753.9744, 20, 0, 4189.231, 4161.538, 4038.462, 4132.821, 4161.538, 0, 0, []
1630311753.9823, 21, 0, 4181.026, 4129.231, 4026.154, 4126.154, 4137.436, 0, 0, []
1630311753.9901, 22, 0, 4227.179, 4169.744, 4049.231, 4166.667, 4165.128, 0, 0, []
1630311753.998, 23, 0, 4257.436, 4197.436, 4073.846, 4178.462, 4199.487, 0, 0, []
1630311754.0058, 24, 0, 4246.667, 4180.513, 4085.128, 4150.769, 4202.051, 0, 0, []
1630311754.0137, 25, 0, 4221.538, 4166.667, 4050.769, 4129.744, 4181.538, 0, 0, []
1630311754.0215, 26, 0, 4216.923, 4167.179, 4054.359, 4137.436, 4175.897, 0, 0, []
1630311754.0293, 27, 0, 4264.103, 4192.821, 4085.641, 4188.205, 4214.872, 0, 0, []
1630311754.0371, 28, 0, 4298.462, 4224.615, 4105.641, 4234.359, 4244.615, 0, 0, []
1630311754.045, 29, 0, 4258.462, 4207.692, 4095.897, 4214.359, 4217.436, 0, 0, []
1630311754.0528, 30, 0, 4219.487, 4181.538, 4055.385, 4183.077, 4194.359, 0, 0, []
1630311754.0608, 31, 0, 4234.872, 4195.897, 4077.436, 4193.333, 4205.128, 0, 0, []
1630311754.0686, 32, 0, 4235.897, 4191.282, 4084.103, 4184.615, 4193.846, 0, 0, []
1630311754.0766, 33, 0, 4213.846, 4174.872, 4058.462, 4151.282, 4171.282, 0, 0, []
1630311754.0845, 34, 0, 4208.718, 4181.538, 4078.462, 4142.051, 4184.103, 0, 0, []
1630311754.0925, 35, 0, 4217.436, 4193.333, 4076.923, 4151.282, 4206.154, 0, 0, []
1630311754.1004, 36, 0, 4237.949, 4184.615, 4071.795, 4155.897, 4208.718, 0, 0, []
1630311754.1083, 37, 0, 4285.128, 4166.667, 4076.923, 4155.897, 4229.744, 0, 0, []
1630311754.1162, 38, 0, 4350.256, 4183.077, 4089.231, 4162.564, 4284.615, 0, 0, []
1630311754.1242, 39, 0, 4392.821, 4201.538, 4104.103, 4168.205, 4329.744, 0, 0, []
1630311754.1321, 40, 0, 4418.974, 4188.718, 4088.718, 4178.462, 4363.077, 0, 0, []
1630311754.1401, 41, 0, 4429.231, 4185.128, 4105.128, 4187.179, 4381.026, 0, 0, []
1630311754.1479, 42, 0, 4396.41, 4194.872, 4107.179, 4161.026, 4358.974, 0, 0, []
1630311754.1557, 43, 0, 4364.103, 4185.641, 4087.692, 4137.436, 4335.385, 0, 0, []
1630311754.1636, 44, 0, 4355.385, 4187.179, 4121.026, 4160.513, 4331.795, 0, 0, []
1630311754.1714, 45, 0, 4333.333, 4206.154, 4121.026, 4189.744, 4309.744, 0, 0, []
1630311754.1793, 46, 0, 4307.179, 4193.333, 4107.692, 4192.821, 4277.436, 0, 0, []
1630311754.187, 47, 0, 4300.513, 4182.564, 4109.231, 4185.128, 4254.872, 0, 0, []
1630311754.1949, 48, 0, 4281.026, 4200.513, 4097.949, 4173.846, 4232.308, 0, 0, []
1630311754.2027, 49, 0, 4249.744, 4199.487, 4106.667, 4157.949, 4218.462, 0, 0, []
1630311754.2106, 50, 0, 4222.051, 4159.487, 4081.538, 4127.179, 4201.026, 0, 0, []
1630311754.2184, 51, 0, 4202.051, 4139.487, 4073.333, 4104.615, 4170.256, 0, 0, []
1630311754.2262, 52, 0, 4216.41, 4171.282, 4108.205, 4133.333, 4168.205, 0, 0, []
1630311754.234, 53, 0, 4246.667, 4196.41, 4118.462, 4167.179, 4200.513, 0, 0, []
1630311754.242, 54, 0, 4246.667, 4188.205, 4130.256, 4170.256, 4223.077, 0, 0, []
1630311754.2499, 55, 0, 4241.026, 4187.179, 4117.436, 4180, 4232.308, 0, 0, []
1630311754.2579, 56, 0, 4258.462, 4202.564, 4123.077, 4197.949, 4233.333, 0, 0, []
1630311754.2657, 57, 0, 4271.282, 4206.154, 4140.513, 4197.949, 4222.564, 0, 0, []
1630311754.2737, 58, 0, 4255.897, 4200, 4118.462, 4180, 4210.769, 0, 0, []
1630311754.2816, 59, 0, 4227.179, 4184.615, 4119.487, 4160.513, 4206.667, 0, 0, []
1630311754.2896, 60, 0, 4220.513, 4181.538, 4110.256, 4160.513, 4210.769, 0, 0, []
1630311754.2975, 61, 0, 4244.103, 4203.59, 4098.462, 4183.077, 4216.41, 0, 0, []
1630311754.3052, 62, 0, 4252.308, 4209.231, 4103.077, 4192.308, 4206.667, 0, 0, []
1630311754.3131, 63, 0, 4226.667, 4195.385, 4083.077, 4170.769, 4192.821, 0, 0, []
1630311754.3209, 64, 0, 4209.231, 4201.538, 4094.359, 4172.308, 4198.462, 450, 0, []
1630311754.3288, 65, 0, 4209.231, 4194.359, 4095.385, 4184.615, 4194.872, 450, 0, []
1630311754.3366, 66, 0, 4194.359, 4153.846, 4074.359, 4155.385, 4150.769, 16195, 0, []
1630311754.3445, 67, 0, 4197.436, 4172.821, 4098.974, 4140.513, 4146.154, 450, 0, []
1630311754.3522, 68, 0, 4240, 4228.205, 4129.744, 4182.051, 4214.872, 16143, 0, []
1630311754.3601, 69, 0, 4255.385, 4212.821, 4143.077, 4207.692, 4241.538, 450, 0, []
1630311754.3679, 70, 0, 4239.487, 4180.513, 4119.487, 4188.718, 4201.026, 241, 0, []
1630311754.3759, 71, 0, 4229.744, 4183.077, 4102.051, 4171.795, 4178.974, 450, 0, []
1630311754.3838, 72, 0, 4215.385, 4176.923, 4116.41, 4166.154, 4186.667, 450, 0, []
1630311754.3917, 73, 0, 4206.667, 4165.641, 4105.128, 4173.333, 4195.897, 16152, 0, []
1630311754.3996, 74, 0, 4208.718, 4175.385, 4110.256, 4189.231, 4190.256, 450, 0, []
1630311754.4076, 75, 0, 4204.103, 4177.949, 4107.692, 4178.462, 4166.154, 16205, 0, []
1630311754.4155, 76, 0, 4210.769, 4185.128, 4106.667, 4176.923, 4177.949, 450, 0, []
1630311754.4235, 77, 0, 4212.308, 4197.949, 4123.077, 4189.744, 4206.154, 450, 0, []
1630311754.4313, 78, 0, 4181.538, 4181.026, 4078.974, 4162.051, 4171.795, 450, 0, []
1630311754.4393, 79, 0, 4186.154, 4158.974, 4069.231, 4142.564, 4137.436, 16205, 0, []
1630311754.4472, 80, 0, 4230.256, 4167.179, 4104.103, 4161.538, 4170.256, 450, 0, []
1630311754.4552, 81, 0, 4229.744, 4184.615, 4096.41, 4161.026, 4201.026, 450, 0, []
1630311754.4631, 82, 0, 4211.282, 4178.462, 4092.308, 4157.949, 4193.333, 450, 0, []
1630311754.4708, 83, 0, 4212.821, 4165.128, 4082.564, 4168.205, 4173.333, 16205, 0, []
1630311754.4787, 84, 0, 4202.051, 4165.641, 4089.231, 4151.795, 4156.923, 450, 0, []
1630311754.4866, 85, 0, 4204.103, 4171.282, 4112.821, 4148.205, 4179.487, 450, 0, []
1630311754.4945, 86, 0, 4222.564, 4177.436, 4104.103, 4170.256, 4205.641, 450, 0, []
1630311754.5023, 87, 0, 4212.821, 4175.385, 4097.949, 4161.026, 4176.41, 16205, 0, []
1630311754.5102, 88, 0, 4194.359, 4165.128, 4090.769, 4150.769, 4154.359, 450, 0, []
1630311754.5181, 89, 0, 4197.436, 4170.256, 4097.949, 4160.513, 4169.744, 450, 0, []
1630311754.5261, 90, 0, 4203.59, 4177.436, 4107.179, 4166.667, 4174.872, 450, 0, []
1630311754.534, 91, 0, 4212.821, 4169.744, 4098.462, 4183.077, 4170.769, 16205, 0, []
1630311754.542, 92, 0, 4222.051, 4173.846, 4106.667, 4191.795, 4170.256, 450, 0, []
1630311754.5498, 93, 0, 4217.436, 4188.205, 4099.487, 4172.821, 4170.769, 450, 0, []
1630311754.5578, 94, 0, 4215.897, 4185.641, 4107.692, 4173.846, 4183.077, 450, 0, []
1630311754.5657, 95, 0, 4222.051, 4178.462, 4111.795, 4192.308, 4195.385, 16205, 0, []
1630311754.5737, 96, 0, 4218.974, 4185.128, 4077.436, 4186.667, 4185.641, 450, 0, []
1630311754.5816, 97, 0, 4216.41, 4187.179, 4094.872, 4181.026, 4177.949, 450, 0, []
1630311754.5895, 98, 0, 4219.487, 4173.333, 4100, 4173.846, 4178.462, 450, 0, []
1630311754.5974, 99, 0, 4212.821, 4160.513, 4085.128, 4160.513, 4173.333, 16205, 0, []
1630311754.6052, 100, 0, 4211.795, 4161.538, 4100.513, 4172.308, 4172.821, 450, 0, []
1630311754.6131, 101, 0, 4225.641, 4175.385, 4090.769, 4186.667, 4174.359, 450, 0, []
1630311754.6209, 102, 0, 4221.026, 4177.436, 4088.205, 4170.256, 4165.128, 450, 0, []
1630311754.6287, 103, 0, 4190.769, 4172.308, 4078.974, 4148.205, 4156.41, 16205, 0, []
1630311754.6365, 104, 0, 4173.846, 4161.538, 4061.538, 4153.846, 4160.513, 450, 0, []
1630311754.6444, 105, 0, 4188.205, 4147.179, 4076.923, 4173.846, 4164.615, 450, 0, []
1630311754.6522, 106, 0, 4213.846, 4166.154, 4087.179, 4182.051, 4169.744, 450, 0, []
1630311754.6601, 107, 0, 4221.026, 4186.667, 4100, 4175.897, 4186.667, 16205, 0, []
1630311754.6678, 108, 0, 4196.923, 4161.538, 4085.128, 4156.923, 4182.564, 450, 0, []
1630311754.6757, 109, 0, 4180.513, 4148.718, 4065.128, 4148.205, 4155.385, 450, 0, []
1630311754.6835, 110, 0, 4193.846, 4173.333, 4089.231, 4160, 4150.769, 450, 0, []
1630311754.6915, 111, 0, 4204.103, 4176.41, 4084.103, 4164.103, 4175.897, 16205, 0, []
1630311754.6994, 112, 0, 4200, 4168.718, 4072.821, 4164.615, 4190.256, 450, 0, []
1630311754.7074, 113, 0, 4195.897, 4182.051, 4070.769, 4171.282, 4175.897, 450, 0, []
1630311754.7152, 114, 0, 4205.128, 4195.385, 4064.615, 4170.256, 4158.462, 450, 0, []
1630311754.7232, 115, 0, 4225.128, 4200.513, 4096.41, 4167.179, 4172.308, 16205, 0, []
1630311754.7311, 116, 0, 4238.462, 4192.308, 4104.615, 4173.333, 4202.564, 450, 0, []
1630311754.7391, 117, 0, 4235.897, 4171.795, 4088.718, 4171.795, 4208.205, 450, 0, []
1630311754.747, 118, 0, 4224.103, 4166.667, 4069.744, 4153.846, 4193.333, 450, 0, []
1630311754.7548, 119, 0, 4218.974, 4178.462, 4058.462, 4144.103, 4178.974, 16205, 0, []
1630311754.7627, 120, 0, 4223.077, 4185.128, 4090.256, 4154.872, 4180, 450, 0, []
1630311754.7705, 121, 0, 4222.564, 4178.462, 4087.692, 4154.872, 4198.462, 450, 0, []
1630311754.7784, 122, 0, 4198.974, 4150.769, 4065.641, 4131.282, 4192.821, 450, 0, []
1630311754.7862, 123, 0, 4187.179, 4142.051, 4073.333, 4129.744, 4163.59, 16205, 0, []
1630311754.794, 124, 0, 4217.949, 4173.846, 4090.256, 4164.103, 4170.256, 450, 0, []
1630311754.8018, 125, 0, 4236.923, 4193.846, 4114.872, 4177.949, 4202.051, 450, 0, []
1630311754.8097, 126, 0, 4215.897, 4184.103, 4097.949, 4162.051, 4207.179, 450, 0, []
1630311754.8175, 127, 0, 4213.846, 4191.282, 4092.308, 4171.282, 4203.59, 16205, 0, []
1630311754.8254, 128, 0, 4241.026, 4215.897, 4115.385, 4192.821, 4200.513, 450, 0, []
1630311754.8331, 0, 0, 4252.308, 4214.359, 4104.615, 4184.615, 4193.333, 450, 0, []
1630311754.841, 1, 0, 4249.231, 4207.692, 4114.872, 4182.051, 4209.231, 450, 0, []
1630311754.8488, 2, 0, 4240, 4198.974, 4103.59, 4189.744, 4212.821, 16189, 0, []
1630311754.8568, 3, 0, 4216.923, 4179.487, 4069.231, 4169.744, 4175.385, 450, 0, []
1630311754.8647, 4, 0, 4211.282, 4178.462, 4085.128, 4154.872, 4153.333, 16142, 0, []
1630311754.8726, 5, 0, 4224.615, 4186.667, 4088.205, 4160.513, 4170.256, 450, 0, []
1630311754.8805, 6, 0, 4216.923, 4177.949, 4071.795, 4160, 4181.538, 237, 0, []
1630311754.8885, 7, 0, 4213.846, 4172.821, 4064.615, 4165.641, 4184.103, 450, 0, []
1630311754.8964, 8, 0, 4247.692, 4192.308, 4088.205, 4189.231, 4197.949, 450, 0, []
1630311754.9044, 9, 0, 4267.692, 4202.051, 4111.282, 4191.282, 4204.615, 16150, 0, []
1630311754.9122, 10, 0, 4229.231, 4182.051, 4067.692, 4151.795, 4186.667, 450, 0, []
1630311754.9202, 11, 0, 4184.103, 4166.667, 4055.897, 4129.744, 4164.615, 16201, 0, []
1630311754.9281, 12, 0, 4200, 4176.41, 4087.692, 4157.436, 4175.897, 450, 0, []
1630311754.9359, 13, 0, 4231.282, 4190.256, 4088.205, 4175.385, 4193.846, 450, 0, []
1630311754.9438, 14, 0, 4218.974, 4183.59, 4084.103, 4152.308, 4180.513, 450, 0, []
1630311754.9515, 15, 0, 4203.59, 4185.128, 4083.59, 4148.718, 4180, 16201, 0, []
1630311754.9594, 16, 0, 4210.769, 4196.41, 4088.718, 4169.744, 4192.821, 0, 0, []
1630311754.9672, 17, 0, 4198.462, 4174.359, 4068.205, 4153.846, 4169.231, 0, 0, []
1630311754.9751, 18, 0, 4185.641, 4157.949, 4060, 4132.308, 4146.154, 0, 0, []
1630311754.9829, 19, 0, 4216.923, 4190.256, 4110.256, 4163.077, 4186.154, 0, 0, []
1630311754.9908, 20, 0, 4252.821, 4213.333, 4113.846, 4203.59, 4240.513, 0, 0, []
1630311754.9987, 21, 0, 4241.538, 4189.231, 4090.256, 4197.436, 4232.308, 0, 0, []
1630311755.0066, 22, 0, 4223.59, 4170.769, 4085.128, 4172.308, 4190.769, 0, 0, []
1630311755.0144, 23, 0, 4219.487, 4184.615, 4080, 4162.051, 4172.308, 0, 0, []
1630311755.0224, 24, 0, 4201.026, 4187.179, 4092.308, 4156.923, 4180, 0, 0, []
1630311755.0303, 25, 0, 4191.282, 4176.923, 4085.128, 4165.128, 4196.923, 0, 0, []
1630311755.0382, 26, 0, 4199.487, 4180.513, 4088.205, 4187.692, 4203.077, 0, 0, []
1630311755.0461, 27, 0, 4186.154, 4189.744, 4095.897, 4189.744, 4191.795, 0, 0, []
1630311755.0541, 28, 0, 4157.949, 4167.179, 4072.821, 4164.615, 4178.462, 0, 0, []
1630311755.062, 29, 0, 4168.718, 4142.051, 4087.692, 4167.179, 4188.205, 0, 0, []
1630311755.0698, 30, 0, 4185.128, 4160, 4088.718, 4178.462, 4186.667, 0, 0, []
1630311755.0776, 31, 0, 4177.949, 4180.513, 4084.615, 4172.821, 4179.487, 0, 0, []
1630311755.0854, 32, 0, 4184.103, 4188.205, 4111.795, 4185.641, 4213.846, 0, 0, []
1630311755.0933, 33, 0, 4186.154, 4184.615, 4097.436, 4196.41, 4231.795, 0, 0, []
1630311755.1011, 34, 0, 4180.513, 4169.231, 4084.615, 4193.333, 4205.128, 0, 0, []
1630311755.109, 35, 0, 4184.103, 4172.821, 4084.615, 4188.718, 4187.692, 0, 0, []
1630311755.1167, 36, 0, 4167.692, 4189.231, 4085.128, 4169.744, 4187.692, 0, 0, []
1630311755.1246, 37, 0, 4147.692, 4186.154, 4097.949, 4161.538, 4183.077, 0, 0, []
1630311755.1324, 38, 0, 4169.231, 4181.538, 4094.359, 4189.231, 4183.59, 0, 0, []
1630311755.1403, 39, 0, 4189.231, 4179.487, 4100.513, 4203.077, 4184.103, 0, 0, []
1630311755.1481, 40, 0, 4185.128, 4173.846, 4099.487, 4186.154, 4190.769, 0, 0, []
1630311755.1559, 41, 0, 4195.385, 4184.615, 4095.897, 4185.128, 4208.718, 0, 0, []
1630311755.1637, 42, 0, 4203.077, 4188.205, 4100.513, 4198.974, 4201.026, 0, 0, []
1630311755.1717, 43, 0, 4205.128, 4175.385, 4082.564, 4207.179, 4189.744, 0, 0, []
1630311755.1796, 44, 0, 4209.744, 4190.769, 4089.231, 4206.154, 4204.103, 0, 0, []
1630311755.1876, 45, 0, 4189.231, 4196.923, 4089.231, 4191.795, 4204.103, 0, 0, []
1630311755.1954, 46, 0, 4162.051, 4165.641, 4075.897, 4179.487, 4172.308, 0, 0, []
1630311755.2034, 47, 0, 4171.282, 4165.641, 4093.333, 4181.026, 4148.205, 0, 0, []
1630311755.2113, 48, 0, 4184.103, 4190.769, 4077.949, 4174.359, 4148.718, 0, 0, []
1630311755.2193, 49, 0, 4171.282, 4176.923, 4072.821, 4166.154, 4157.949, 0, 0, []
1630311755.2272, 50, 0, 4167.692, 4147.179, 4087.179, 4175.897, 4165.641, 0, 0, []
1630311755.2351, 51, 0, 4189.744, 4160, 4082.564, 4192.821, 4173.846, 0, 0, []
1630311755.243, 52, 0, 4194.359, 4186.154, 4085.128, 4184.615, 4164.615, 0, 0, []
1630311755.2508, 53, 0, 4163.077, 4166.154, 4070.256, 4147.692, 4133.846, 0, 0, []
1630311755.2587, 54, 0, 4166.154, 4143.077, 4085.128, 4155.897, 4145.128, 0, 0, []
1630311755.2665, 55, 0, 4223.59, 4176.41, 4113.846, 4213.846, 4190.769, 0, 0, []
1630311755.2743, 56, 0, 4249.744, 4207.179, 4105.641, 4234.359, 4197.949, 0, 0, []
1630311755.2821, 57, 0, 4209.231, 4191.282, 4098.462, 4190.769, 4169.231, 0, 0, []
1630311755.29, 58, 0, 4173.846, 4169.231, 4082.051, 4157.949, 4160.513, 0, 0, []
1630311755.2978, 59, 0, 4185.128, 4163.59, 4080.513, 4180, 4168.205, 0, 0, []
1630311755.3058, 60, 0, 4200, 4165.128, 4089.231, 4196.923, 4162.051, 0, 0, []
1630311755.3136, 61, 0, 4189.744, 4176.41, 4083.59, 4178.974, 4144.615, 0, 0, []
1630311755.3216, 62, 0, 4164.103, 4172.821, 4092.308, 4165.641, 4141.026, 0, 0, []
1630311755.3295, 63, 0, 4157.949, 4153.846, 4080.513, 4176.41, 4156.41, 0, 0, []
1630311755.3375, 64, 0, 4166.667, 4153.846, 4069.231, 4180.513, 4147.179, 450, 0, []
1630311755.3454, 65, 0, 4163.077, 4167.179, 4083.59, 4172.308, 4128.718, 450, 0, []
1630311755.3533, 66, 0, 4176.923, 4178.462, 4089.231, 4184.615, 4166.154, 16187, 0, []
1630311755.3612, 67, 0, 4201.538, 4169.744, 4101.538, 4206.667, 4200, 450, 0, []
1630311755.3692, 68, 0, 4165.641, 4128.205, 4070.769, 4171.282, 4140.513, 16141, 0, []
1630311755.3771, 69, 0, 4120, 4123.077, 4050.769, 4118.974, 4092.308, 450, 0, []
1630311755.3849, 70, 0, 4158.974, 4170.256, 4108.718, 4155.385, 4153.333, 235, 0, []
1630311755.3928, 71, 0, 4196.923, 4184.615, 4119.487, 4206.667, 4196.41, 450, 0, []
1630311755.4005, 72, 0, 4172.308, 4167.692, 4099.487, 4190.769, 4156.41, 450, 0, []
1630311755.4084, 73, 0, 4162.051, 4163.077, 4094.872, 4170.769, 4145.641, 16149, 0, []
1630311755.4162, 74, 0, 4162.051, 4145.641, 4085.641, 4175.385, 4165.641, 450, 0, []
1630311755.4241, 75, 0, 4143.59, 4141.538, 4074.359, 4173.333, 4138.974, 16203, 0, []
1630311755.4319, 76, 0, 4161.026, 4174.359, 4073.333, 4187.692, 4125.128, 450, 0, []
1630311755.4397, 77, 0, 4168.718, 4170.769, 4102.051, 4195.385, 4138.974, 450, 0, []
1630311755.4475, 78, 0, 4122.564, 4137.949, 4080, 4150.769, 4112.308, 450, 0, []
1630311755.4554, 79, 0, 4139.487, 4158.462, 4058.462, 4151.282, 4100.513, 16203, 0, []
1630311755.4632, 80, 0, 4206.667, 4181.026, 4104.615, 4201.026, 4141.026, 450, 0, []
1630311755.4712, 81, 0, 4193.333, 4150.256, 4100.513, 4189.744, 4159.487, 450, 0, []
1630311755.479, 82, 0, 4162.564, 4137.949, 4087.692, 4165.128, 4151.282, 450, 0, []
1630311755.487, 83, 0, 4185.641, 4161.026, 4094.359, 4183.59, 4147.179, 16203, 0, []
1630311755.4949, 84, 0, 4174.872, 4161.538, 4073.846, 4165.128, 4126.154, 450, 0, []
1630311755.5029, 85, 0, 4134.872, 4155.897, 4070.769, 4133.846, 4114.872, 450, 0, []
1630311755.5108, 86, 0, 4155.897, 4168.205, 4076.41, 4170.769, 4138.974, 450, 0, []
1630311755.5187, 87, 0, 4205.128, 4176.923, 4101.026, 4210.256, 4156.41, 16203, 0, []
1630311755.5266, 88, 0, 4208.205, 4182.051, 4115.897, 4193.333, 4154.872, 450, 0, []
1630311755.5346, 89, 0, 4176.41, 4185.128, 4090.769, 4171.282, 4151.795, 450, 0, []
1630311755.5425, 90, 0, 4159.487, 4173.333, 4081.538, 4174.872, 4134.872, 450, 0, []
1630311755.5503, 91, 0, 4165.641, 4163.59, 4072.308, 4171.282, 4107.692, 16203, 0, []
1630311755.5581, 92, 0, 4168.718, 4168.205, 4077.436, 4161.538, 4101.538, 450, 0, []
1630311755.5659, 93, 0, 4163.59, 4171.795, 4086.667, 4172.821, 4112.308, 450, 0, []
1630311755.5738, 94, 0, 4165.641, 4161.538, 4071.282, 4179.487, 4100, 450, 0, []
1630311755.5816, 95, 0, 4174.359, 4154.872, 4092.308, 4167.692, 4085.641, 16203, 0, []
1630311755.5895, 96, 0, 4184.615, 4172.308, 4107.179, 4167.179, 4109.231, 450, 0, []
1630311755.5972, 97, 0, 4192.821, 4191.795, 4093.333, 4173.333, 4133.846, 450, 0, []
1630311755.6051, 98, 0, 4198.462, 4187.179, 4080.513, 4169.744, 4125.641, 450, 0, []
1630311755.6129, 99, 0, 4208.205, 4181.538, 4082.564, 4176.923, 4120, 16203, 0, []
1630311755.6208, 100, 0, 4211.282, 4187.179, 4100.513, 4178.462, 4131.282, 450, 0, []
1630311755.6286, 101, 0, 4201.538, 4186.667, 4079.487, 4165.641, 4139.487, 450, 0, []
1630311755.6365, 102, 0, 4181.026, 4173.846, 4072.821, 4165.641, 4123.59, 450, 0, []
1630311755.6444, 103, 0, 4153.333, 4173.333, 4084.615, 4157.436, 4080.513, 16203, 0, []
1630311755.6524, 104, 0, 4148.718, 4180, 4066.667, 4137.949, 4071.282, 450, 0, []
1630311755.6603, 105, 0, 4176.923, 4171.795, 4090.769, 4154.359, 4116.923, 450, 0, []
1630311755.6683, 106, 0, 4214.359, 4185.641, 4113.333, 4193.333, 4153.846, 450, 0, []
1630311755.6761, 107, 0, 4232.308, 4212.308, 4098.974, 4194.872, 4143.59, 16203, 0, []
1630311755.6841, 108, 0, 4215.897, 4195.897, 4090.769, 4157.436, 4115.385, 450, 0, []
1630311755.692, 109, 0, 4182.564, 4165.128, 4078.462, 4132.821, 4104.103, 450, 0, []
1630311755.6998, 110, 0, 4169.231, 4166.154, 4085.128, 4144.615, 4101.538, 450, 0, []
1630311755.7077, 111, 0, 4190.769, 4184.615, 4086.154, 4165.641, 4103.077, 16203, 0, []
1630311755.7154, 112, 0, 4215.897, 4187.692, 4086.154, 4164.615, 4126.667, 450, 0, []
1630311755.7233, 113, 0, 4218.462, 4173.333, 4106.154, 4155.385, 4156.41, 450, 0, []
1630311755.7311, 114, 0, 4211.795, 4167.692, 4097.949, 4156.41, 4160, 450, 0, []
1630311755.739, 115, 0, 4217.436, 4193.333, 4108.718, 4162.564, 4150.769, 16203, 0, []
1630311755.7468, 116, 0, 4217.436, 4202.051, 4114.359, 4155.897, 4137.436, 450, 0, []
1630311755.7547, 117, 0, 4204.615, 4191.795, 4096.41, 4149.744, 4123.077, 450, 0, []
1630311755.7624, 118, 0, 4191.795, 4201.026, 4110.256, 4160, 4125.641, 450, 0, []
1630311755.7704, 119, 0, 4183.59, 4198.462, 4104.103, 4167.692, 4130.769, 16203, 0, []
1630311755.7783, 120, 0, 4187.692, 4188.205, 4097.436, 4176.41, 4118.462, 450, 0, []
1630311755.7863, 121, 0, 4203.59, 4199.487, 4102.051, 4184.103, 4118.462, 450, 0, []
1630311755.7942, 122, 0, 4217.949, 4208.205, 4104.615, 4186.667, 4154.359, 450, 0, []
1630311755.8021, 123, 0, 4221.026, 4184.103, 4125.641, 4196.41, 4181.026, 16203, 0, []
1630311755.81, 124, 0, 4203.59, 4149.231, 4103.077, 4179.487, 4148.718, 450, 0, []
1630311755.818, 125, 0, 4189.231, 4144.103, 4094.359, 4151.282, 4113.846, 450, 0, []
1630311755.8259, 126, 0, 4206.667, 4169.744, 4130.769, 4164.615, 4142.564, 450, 0, []
1630311755.8339, 127, 0, 4198.974, 4185.128, 4118.462, 4174.872, 4157.436, 16203, 0, []
1630311755.8417, 128, 0, 4160, 4176.923, 4092.821, 4151.282, 4120, 450, 0, []
1630311755.8497, 0, 0, 4180, 4195.385, 4095.897, 4162.051, 4123.59, 450, 0, []
1630311755.8576, 1, 0, 4228.205, 4225.128, 4118.462, 4192.821, 4164.103, 450, 0, []
1630311755.8655, 2, 0, 4219.487, 4213.846, 4115.897, 4181.538, 4165.641, 16189, 0, []
1630311755.8734, 3, 0, 4195.385, 4183.59, 4084.103, 4162.564, 4141.538, 450, 0, []
1630311755.8811, 4, 0, 4197.436, 4183.59, 4099.487, 4170.256, 4131.795, 16144, 0, []
1630311755.889, 5, 0, 4199.487, 4190.256, 4121.538, 4180, 4144.103, 450, 0, []
1630311755.8968, 6, 0, 4192.308, 4162.564, 4124.615, 4181.538, 4161.538, 232, 0, []
1630311755.9047, 7, 0, 4178.974, 4143.59, 4121.538, 4186.154, 4156.923, 450, 0, []
1630311755.9125, 8, 0, 4171.282, 4148.718, 4099.487, 4190.769, 4140.513, 450, 0, []
1630311755.9203, 9, 0, 4166.667, 4133.846, 4096.41, 4172.821, 4128.205, 16149, 0, []
1630311755.9281, 10, 0, 4141.538, 4124.615, 4081.026, 4151.282, 4108.718, 450, 0, []
1630311755.936, 11, 0, 4135.385, 4162.051, 4077.949, 4167.179, 4106.154, 16205, 0, []
1630311755.9438, 12, 0, 4156.41, 4172.308, 4083.59, 4163.59, 4105.641, 450, 0, []
1630311755.9518, 13, 0, 4167.692, 4144.103, 4048.718, 4110.256, 4094.359, 450, 0, []
1630311755.9596, 14, 0, 4215.897, 4174.359, 4073.846, 4122.564, 4144.103, 450, 0, []
1630311755.9676, 15, 0, 4297.436, 4225.641, 4116.41, 4187.692, 4228.205, 16205, 0, []
1630311755.9755, 16, 0, 4305.641, 4217.949, 4095.897, 4184.615, 4222.051, 0, 0, []
1630311755.9835, 17, 0, 4253.846, 4193.846, 4080, 4149.744, 4158.974, 0, 0, []
1630311755.9914, 18, 0, 4223.59, 4194.359, 4070.769, 4148.205, 4141.538, 0, 0, []
1630311755.9993, 19, 0, 4209.744, 4201.538, 4083.59, 4156.923, 4152.308, 0, 0, []
1630311756.0072, 20, 0, 4224.615, 4222.051, 4099.487, 4175.385, 4164.615, 0, 0, []
1630311756.015, 21, 0, 4258.462, 4234.359, 4090.256, 4185.128, 4174.359, 0, 0, []
1630311756.0229, 22, 0, 4256.41, 4207.692, 4088.718, 4160, 4156.41, 0, 0, []
1630311756.0307, 23, 0, 4241.026, 4182.051, 4076.41, 4128.718, 4143.59, 0, 0, []
1630311756.0385, 24, 0, 4240.513, 4180.513, 4078.974, 4124.103, 4154.872, 0, 0, []
1630311756.0463, 25, 0, 4249.231, 4182.051, 4098.462, 4156.923, 4164.103, 0, 0, []
1630311756.0542, 26, 0, 4263.077, 4182.051, 4104.103, 4197.949, 4168.205, 0, 0, []
1630311756.062, 27, 0, 4267.692, 4188.205, 4121.538, 4200, 4176.41, 0, 0, []
1630311756.0699, 28, 0, 4254.359, 4176.923, 4113.846, 4174.872, 4184.615, 0, 0, []
1630311756.0777, 29, 0, 4244.615, 4155.897, 4106.154, 4173.846, 4193.333, 0, 0, []
1630311756.0856, 30, 0, 4233.846, 4156.41, 4095.385, 4178.462, 4176.41, 0, 0, []
1630311756.0935, 31, 0, 4223.077, 4172.308, 4074.359, 4174.359, 4148.205, 0, 0, []
1630311756.1015, 32, 0, 4249.744, 4184.103, 4104.103, 4193.333, 4161.026, 0, 0, []
1630311756.1094, 33, 0, 4265.128, 4179.487, 4101.026, 4191.795, 4174.359, 0, 0, []
1630311756.1174, 34, 0, 4233.846, 4171.795, 4064.615, 4159.487, 4154.359, 0, 0, []
1630311756.1252, 35, 0, 4224.615, 4163.59, 4060.513, 4160, 4150.769, 0, 0, []
1630311756.1332, 36, 0, 4250.769, 4171.282, 4064.615, 4187.692, 4172.308, 0, 0, []
1630311756.1411, 37, 0, 4253.333, 4193.846, 4083.077, 4184.103, 4178.974, 0, 0, []
1630311756.1491, 38, 0, 4238.462, 4194.872, 4083.077, 4160.513, 4182.564, 0, 0, []
1630311756.157, 39, 0, 4237.949, 4178.462, 4078.974, 4167.692, 4192.821, 0, 0, []
1630311756.1649, 40, 0, 4247.692, 4178.974, 4088.718, 4192.308, 4191.795, 0, 0, []
1630311756.1728, 41, 0, 4277.436, 4200, 4083.59, 4199.487, 4191.795, 0, 0, []
1630311756.1806, 42, 0, 4294.359, 4202.051, 4085.641, 4182.051, 4187.692, 0, 0, []
1630311756.1885, 43, 0, 4275.385, 4203.077, 4072.308, 4163.077, 4181.538, 0, 0, []
1630311756.1963, 44, 0, 4259.487, 4213.846, 4073.333, 4163.077, 4186.667, 0, 0, []
1630311756.2041, 45, 0, 4255.897, 4212.821, 4094.872, 4169.231, 4186.154, 0, 0, []
1630311756.2119, 46, 0, 4246.667, 4197.436, 4076.41, 4168.718, 4172.308, 0, 0, []
1630311756.2198, 47, 0, 4240, 4186.154, 4081.026, 4161.538, 4158.462, 0, 0, []
1630311756.2276, 48, 0, 4240.513, 4184.615, 4087.692, 4145.641, 4160, 0, 0, []
1630311756.2355, 49, 0, 4224.615, 4167.692, 4063.077, 4133.333, 4151.795, 0, 0, []
1630311756.2432, 50, 0, 4209.744, 4153.333, 4062.051, 4133.846, 4136.41, 0, 0, []
1630311756.2512, 51, 0, 4235.385, 4173.846, 4071.795, 4149.231, 4147.692, 0, 0, []
1630311756.2591, 52, 0, 4268.718, 4211.282, 4096.41, 4171.282, 4165.641, 0, 0, []
1630311756.2671, 53, 0, 4257.949, 4222.564, 4089.744, 4168.718, 4157.949, 0, 0, []
1630311756.275, 54, 0, 4226.667, 4206.154, 4070.256, 4155.897, 4149.744, 0, 0, []
1630311756.2829, 55, 0, 4217.436, 4179.487, 4093.333, 4161.026, 4152.821, 0, 0, []
1630311756.2908, 56, 0, 4225.128, 4160.513, 4094.872, 4169.231, 4140.513, 0, 0, []
1630311756.2988, 57, 0, 4231.282, 4178.974, 4098.974, 4171.282, 4133.333, 0, 0, []
1630311756.3067, 58, 0, 4227.692, 4185.641, 4107.692, 4168.205, 4148.205, 0, 0, []
1630311756.3147, 59, 0, 4207.692, 4141.538, 4089.744, 4154.359, 4142.564, 0, 0, []
1630311756.3225, 60, 0, 4194.872, 4120.513, 4088.205, 4151.282, 4119.487, 0, 0, []
1630311756.3305, 61, 0, 4209.744, 4165.641, 4089.744, 4166.154, 4112.821, 0, 0, []
1630311756.3384, 62, 0, 4211.795, 4183.59, 4106.667, 4160, 4114.872, 0, 0, []
1630311756.3462, 63, 0, 4187.179, 4153.846, 4111.795, 4138.974, 4116.41, 0, 0, []
1630311756.3541, 64, 0, 4191.282, 4154.872, 4094.872, 4148.205, 4130.769, 450, 0, []
1630311756.3618, 65, 0, 4221.538, 4167.692, 4102.564, 4170.256, 4135.897, 450, 0, []
1630311756.3697, 66, 0, 4221.538, 4155.897, 4082.564, 4171.282, 4126.154, 16189, 0, []
1630311756.3775, 67, 0, 4203.077, 4148.718, 4070.769, 4164.615, 4140, 450, 0, []
1630311756.3854, 68, 0, 4186.667, 4147.692, 4085.641, 4168.718, 4156.923, 16140, 0, []
1630311756.3932, 69, 0, 4170.769, 4138.462, 4073.846, 4176.923, 4145.641, 450, 0, []
1630311756.401, 70, 0, 4170.256, 4147.179, 4082.051, 4184.615, 4135.897, 291, 0, []
1630311756.4088, 71, 0, 4163.59, 4165.128, 4073.846, 4161.538, 4130.769, 450, 0, []
1630311756.4167, 72, 0, 4165.641, 4180, 4072.308, 4154.872, 4141.026, 450, 0, []
1630311756.4245, 73, 0, 4212.308, 4197.436, 4112.308, 4207.692, 4176.923, 16150, 0, []
1630311756.4325, 74, 0, 4234.359, 4189.231, 4102.564, 4224.103, 4181.026, 450, 0, []
1630311756.4404, 75, 0, 4193.846, 4161.538, 4069.744, 4167.179, 4147.179, 16200, 0, []
1630311756.4483, 76, 0, 4165.128, 4151.282, 4055.897, 4142.051, 4138.462, 450, 0, []
1630311756.4562, 77, 0, 4171.282, 4158.462, 4063.59, 4164.615, 4145.128, 450, 0, []
1630311756.4642, 78, 0, 4182.051, 4167.692, 4083.59, 4162.564, 4137.949, 450, 0, []
1630311756.4721, 79, 0, 4183.077, 4176.41, 4086.667, 4145.641, 4137.436, 16200, 0, []
1630311756.48, 80, 0, 4168.718, 4176.923, 4107.179, 4156.41, 4134.359, 450, 0, []
1630311756.4878, 81, 0, 4165.641, 4181.026, 4111.282, 4185.128, 4125.128, 450, 0, []
1630311756.4958, 82, 0, 4156.923, 4177.949, 4086.667, 4173.846, 4102.564, 450, 0, []
1630311756.5037, 83, 0, 4103.59, 4153.333, 4070.256, 4114.872, 4058.974, 16200, 0, []
1630311756.5115, 84, 0, 4105.128, 4172.308, 4072.821, 4114.872, 4070.769, 450, 0, []
1630311756.5194, 85, 0, 4194.872, 4234.872, 4114.359, 4176.923, 4147.692, 450, 0, []
1630311756.5271, 86, 0, 4227.179, 4236.923, 4114.872, 4173.846, 4174.872, 450, 0, []
1630311756.535, 87, 0, 4163.59, 4174.359, 4066.154, 4104.615, 4126.667, 16200, 0, []
1630311756.5428, 88, 0, 4138.462, 4163.077, 4066.667, 4102.564, 4111.795, 450, 0, []
1630311756.5508, 89, 0, 4178.462, 4204.103, 4078.462, 4161.538, 4143.59, 450, 0, []
1630311756.5587, 90, 0, 4187.692, 4209.744, 4091.795, 4174.872, 4144.103, 450, 0, []
1630311756.5666, 91, 0, 4154.359, 4181.026, 4088.718, 4148.205, 4119.487, 16200, 0, []
1630311756.5745, 92, 0, 4133.333, 4149.231, 4055.385, 4142.564, 4104.103, 450, 0, []
1630311756.5825, 93, 0, 4143.59, 4148.718, 4065.641, 4153.846, 4097.436, 450, 0, []
1630311756.5904, 94, 0, 4156.923, 4176.41, 4086.154, 4152.308, 4100.513, 450, 0, []
1630311756.5984, 95, 0, 4149.231, 4177.436, 4092.821, 4151.795, 4110.769, 16200, 0, []
1630311756.6062, 96, 0, 4125.641, 4145.128, 4075.385, 4151.795, 4092.821, 450, 0, []
1630311756.6142, 97, 0, 4127.179, 4151.282, 4067.179, 4144.103, 4067.692, 450, 0, []
1630311756.6221, 98, 0, 4170.769, 4198.974, 4115.385, 4161.026, 4095.385, 450, 0, []
1630311756.6301, 99, 0, 4194.359, 4208.205, 4113.846, 4184.615, 4134.359, 16200, 0, []
1630311756.638, 100, 0, 4175.897, 4189.744, 4085.641, 4177.436, 4118.974, 450, 0, []
1630311756.6457, 101, 0, 4166.667, 4196.923, 4097.436, 4160.513, 4086.154, 450, 0, []
1630311756.6536, 102, 0, 4176.41, 4216.41, 4108.205, 4152.821, 4094.872, 450, 0, []
1630311756.6614, 103, 0, 4164.615, 4202.051, 4111.795, 4145.641, 4118.462, 16200, 0, []
1630311756.6693, 104, 0, 4162.564, 4178.462, 4089.744, 4153.333, 4121.538, 450, 0, []
1630311756.6771, 105, 0, 4196.41, 4184.103, 4088.205, 4170.256, 4126.667, 450, 0, []
1630311756.6849, 106, 0, 4210.769, 4180, 4101.026, 4158.974, 4140.513, 450, 0, []
1630311756.6927, 107, 0, 4201.538, 4175.385, 4076.41, 4142.051, 4148.205, 16200, 0, []
1630311756.7007, 108, 0, 4209.744, 4176.923, 4083.59, 4153.846, 4136.923, 450, 0, []
1630311756.7086, 109, 0, 4219.487, 4169.744, 4094.872, 4157.949, 4117.436, 450, 0, []
1630311756.7166, 110, 0, 4221.538, 4184.615, 4099.487, 4151.795, 4131.795, 450, 0, []
1630311756.7244, 111, 0, 4222.564, 4205.641, 4119.487, 4165.128, 4166.154, 16200, 0, []
1630311756.7324, 112, 0, 4203.59, 4181.538, 4095.897, 4177.436, 4165.128, 450, 0, []
1630311756.7403, 113, 0, 4188.718, 4160, 4085.128, 4188.718, 4149.744, 450, 0, []
1630311756.7483, 114, 0, 4197.436, 4193.333, 4094.359, 4201.026, 4152.821, 450, 0, []
1630311756.7562, 115, 0, 4174.359, 4207.179, 4078.462, 4174.872, 4136.41, 16200, 0, []
1630311756.7641, 116, 0, 4132.308, 4189.231, 4064.615, 4142.051, 4109.231, 450, 0, []
1630311756.772, 117, 0, 4131.282, 4183.077, 4057.436, 4144.103, 4103.077, 450, 0, []
1630311756.78, 118, 0, 4144.615, 4183.077, 4087.179, 4144.615, 4107.179, 450, 0, []
1630311756.7879, 119, 0, 4145.128, 4199.487, 4104.103, 4145.128, 4128.718, 16200, 0, []
1630311756.7957, 120, 0, 4161.538, 4217.949, 4099.487, 4171.282, 4160, 450, 0, []
1630311756.8036, 121, 0, 4183.59, 4212.821, 4109.744, 4190.256, 4155.897, 450, 0, []
1630311756.8113, 122, 0, 4178.974, 4199.487, 4088.718, 4170.769, 4133.333, 450, 0, []
1630311756.8192, 123, 0, 4171.795, 4202.564, 4096.923, 4168.718, 4145.128, 16200, 0, []
1630311756.827, 124, 0, 4195.385, 4224.103, 4125.128, 4200, 4174.359, 450, 0, []
1630311756.8349, 125, 0, 4212.821, 4228.205, 4111.795, 4201.026, 4164.615, 450, 0, []
1630311756.8427, 126, 0, 4189.231, 4198.462, 4103.077, 4169.231, 4130.256, 450, 0, []
1630311756.8506, 127, 0, 4177.436, 4189.231, 4100, 4165.128, 4143.59, 16200, 0, []
1630311756.8585, 128, 0, 4192.821, 4207.179, 4109.744, 4189.744, 4168.205, 450, 0, []
1630311756.8665, 0, 0, 4173.333, 4183.59, 4088.205, 4171.795, 4115.385, 450, 0, []
1630311756.8744, 1, 0, 4146.667, 4161.026, 4054.872, 4141.026, 4070.256, 450, 0, []
1630311756.8824, 2, 0, 4168.205, 4197.436, 4088.205, 4168.205, 4116.41, 16190, 0, []
1630311756.8902, 3, 0, 4189.744, 4208.718, 4102.564, 4190.769, 4144.103, 450, 0, []
1630311756.8982, 4, 0, 4183.59, 4176.923, 4093.333, 4172.821, 4113.333, 16138, 0, []
1630311756.9061, 5, 0, 4187.179, 4183.59, 4102.051, 4169.744, 4123.077, 450, 0, []
1630311756.9141, 6, 0, 4186.154, 4198.974, 4087.179, 4170.256, 4146.154, 247, 0, []
1630311756.922, 7, 0, 4168.205, 4173.333, 4084.103, 4154.359, 4125.641, 450, 0, []
1630311756.9297, 8, 0, 4160.513, 4157.436, 4077.436, 4150.769, 4104.615, 450, 0, []
1630311756.9376, 9, 0, 4170.256, 4177.436, 4089.231, 4164.615, 4118.974, 16147, 0, []
1630311756.9454, 10, 0, 4192.821, 4202.051, 4127.179, 4189.231, 4160.513, 450, 0, []
1630311756.9533, 11, 0, 4206.667, 4203.077, 4118.462, 4205.128, 4173.846, 16193, 0, []
1630311756.9611, 12, 0, 4197.949, 4196.923, 4098.462, 4194.872, 4140, 450, 0, []
1630311756.9689, 13, 0, 4189.231, 4202.564, 4087.179, 4175.385, 4124.103, 450, 0, []
1630311756.9767, 14, 0, 4177.436, 4199.487, 4085.128, 4164.103, 4135.385, 450, 0, []
1630311756.9846, 15, 0, 4166.667, 4185.128, 4081.026, 4161.026, 4128.205, 16193, 0, []
1630311756.9924, 16, 0, 4185.641, 4178.974, 4073.846, 4174.359, 4121.026, 0, 0, []
1630311757.0003, 17, 0, 4200, 4180, 4105.641, 4186.667, 4129.231, 0, 0, []
1630311757.008, 18, 0, 4177.949, 4194.359, 4101.538, 4177.436, 4136.41, 0, 0, []
1630311757.0159, 19, 0, 4169.231, 4200, 4073.846, 4166.154, 4139.487, 0, 0, []
1630311757.0237, 20, 0, 4184.103, 4184.103, 4080.513, 4158.462, 4122.564, 0, 0, []
1630311757.0317, 21, 0, 4184.103, 4180.513, 4079.487, 4149.744, 4109.744, 0, 0, []
1630311757.0396, 22, 0, 4177.949, 4192.821, 4080, 4154.359, 4118.462, 0, 0, []
1630311757.0475, 23, 0, 4189.744, 4186.154, 4065.641, 4164.615, 4115.897, 0, 0, []
1630311757.0554, 24, 0, 4200.513, 4174.359, 4060, 4165.128, 4111.282, 0, 0, []
1630311757.0634, 25, 0, 4190.256, 4178.974, 4085.641, 4157.436, 4127.692, 0, 0, []
1630311757.0713, 26, 0, 4180, 4178.462, 4074.872, 4153.333, 4138.462, 0, 0, []
1630311757.0793, 27, 0, 4202.051, 4191.282, 4083.077, 4173.846, 4147.179, 0, 0, []
1630311757.0871, 28, 0, 4223.077, 4214.872, 4098.462, 4189.744, 4158.462, 0, 0, []
1630311757.0949, 29, 0, 4208.205, 4209.231, 4081.538, 4166.667, 4153.333, 0, 0, []
1630311757.1028, 30, 0, 4198.974, 4196.923, 4088.718, 4158.974, 4159.487, 0, 0, []
1630311757.1106, 31, 0, 4217.436, 4207.179, 4096.41, 4189.744, 4178.974, 0, 0, []
1630311757.1185, 32, 0, 4221.026, 4214.872, 4097.436, 4193.846, 4161.538, 0, 0, []
1630311757.1263, 33, 0, 4192.821, 4201.026, 4080, 4153.846, 4124.615, 0, 0, []
1630311757.1341, 34, 0, 4168.718, 4188.718, 4058.462, 4134.872, 4124.103, 0, 0, []
1630311757.1419, 35, 0, 4169.231, 4176.923, 4076.41, 4156.923, 4137.949, 0, 0, []
1630311757.1498, 36, 0, 4193.333, 4177.949, 4084.103, 4181.026, 4142.564, 0, 0, []
1630311757.1576, 37, 0, 4204.615, 4201.538, 4092.821, 4170.256, 4141.538, 0, 0, []
1630311757.1656, 38, 0, 4184.103, 4202.051, 4105.128, 4148.205, 4141.538, 0, 0, []
1630311757.1734, 39, 0, 4184.103, 4189.744, 4100.513, 4171.795, 4155.897, 0, 0, []
1630311757.1814, 40, 0, 4191.795, 4189.231, 4104.103, 4181.026, 4146.154, 0, 0, []
1630311757.1893, 41, 0, 4172.821, 4180.513, 4095.897, 4142.564, 4122.564, 0, 0, []
1630311757.1973, 42, 0, 4178.974, 4190.769, 4113.846, 4155.897, 4149.744, 0, 0, []
1630311757.2052, 43, 0, 4218.974, 4224.103, 4142.564, 4211.282, 4192.821, 0, 0, []
1630311757.2131, 44, 0, 4215.897, 4215.897, 4112.821, 4205.641, 4175.385, 0, 0, []
1630311757.221, 45, 0, 4183.077, 4183.59, 4098.462, 4169.231, 4137.949, 0, 0, []
1630311757.229, 46, 0, 4182.564, 4184.615, 4100.513, 4164.615, 4143.077, 0, 0, []
1630311757.2369, 47, 0, 4190.256, 4190.769, 4097.436, 4168.205, 4158.974, 0, 0, []
1630311757.2448, 48, 0, 4189.231, 4189.231, 4105.128, 4171.282, 4152.308, 0, 0, []
1630311757.2526, 49, 0, 4202.051, 4206.154, 4094.872, 4181.538, 4140.513, 0, 0, []
1630311757.2604, 50, 0, 4203.077, 4203.59, 4096.41, 4177.436, 4132.821, 0, 0, []
1630311757.2683, 51, 0, 4178.462, 4188.718, 4094.872, 4161.026, 4130.769, 0, 0, []
1630311757.2761, 52, 0, 4169.231, 4195.897, 4088.718, 4162.051, 4133.846, 0, 0, []
1630311757.284, 53, 0, 4180, 4186.667, 4091.282, 4167.692, 4126.667, 0, 0, []
1630311757.2917, 54, 0, 4173.333, 4166.154, 4070.256, 4138.462, 4108.205, 0, 0, []
1630311757.2996, 55, 0, 4160, 4169.744, 4075.897, 4112.821, 4112.821, 0, 0, []
1630311757.3074, 56, 0, 4171.795, 4173.846, 4089.231, 4132.821, 4129.744, 0, 0, []
1630311757.3153, 57, 0, 4187.692, 4170.256, 4085.128, 4152.308, 4108.205, 0, 0, []
1630311757.3231, 58, 0, 4187.179, 4177.949, 4097.949, 4151.795, 4090.769, 0, 0, []
1630311757.331, 59, 0, 4183.59, 4175.897, 4097.436, 4157.436, 4116.41, 0, 0, []
1630311757.3389, 60, 0, 4176.41, 4155.897, 4104.103, 4165.641, 4124.103, 0, 0, []
1630311757.3469, 61, 0, 4186.667, 4169.231, 4105.641, 4165.128, 4112.821, 0, 0, []
1630311757.3548, 62, 0, 4203.077, 4193.333, 4083.077, 4153.333, 4122.051, 0, 0, []
1630311757.3628, 63, 0, 4185.641, 4175.385, 4084.615, 4137.436, 4125.128, 0, 0, []
1630311757.3706, 64, 0, 4179.487, 4169.744, 4094.359, 4148.718, 4121.538, 450, 0, []
1630311757.3786, 65, 0, 4217.436, 4199.487, 4114.359, 4185.641, 4138.462, 450, 0, []
1630311757.3865, 66, 0, 4213.846, 4204.103, 4097.949, 4171.282, 4135.385, 16188, 0, []
1630311757.3945, 67, 0, 4170.256, 4177.949, 4068.718, 4136.41, 4114.872, 450, 0, []
1630311757.4024, 68, 0, 4186.154, 4178.974, 4109.231, 4171.282, 4136.923, 16136, 0, []
1630311757.4101, 69, 0, 4212.308, 4182.051, 4114.359, 4200, 4144.615, 450, 0, []
1630311757.418, 70, 0, 4184.103, 4162.564, 4090.769, 4165.128, 4112.308, 231, 0, []
1630311757.4258, 71, 0, 4168.718, 4171.795, 4095.897, 4143.077, 4119.487, 450, 0, []
1630311757.4337, 72, 0, 4212.308, 4202.564, 4092.821, 4165.641, 4163.077, 450, 0, []
1630311757.4415, 73, 0, 4263.077, 4203.077, 4110.256, 4188.205, 4179.487, 16146, 0, []
1630311757.4493, 74, 0, 4272.308, 4184.103, 4106.154, 4188.718, 4167.692, 450, 0, []
1630311757.4571, 75, 0, 4255.385, 4193.333, 4091.282, 4184.615, 4158.974, 16202, 0, []
1630311757.465, 76, 0, 4241.538, 4197.436, 4100, 4184.615, 4160, 450, 0, []
1630311757.4728, 77, 0, 4227.692, 4162.564, 4079.487, 4174.359, 4155.897, 450, 0, []
1630311757.4807, 78, 0, 4210.769, 4143.59, 4068.718, 4154.359, 4138.974, 450, 0, []
1630311757.4886, 79, 0, 4208.205, 4163.077, 4076.41, 4151.282, 4118.462, 16202, 0, []
1630311757.4964, 80, 0, 4225.128, 4196.923, 4093.846, 4168.205, 4132.308, 450, 0, []
1630311757.5042, 81, 0, 4237.949, 4223.077, 4104.615, 4177.436, 4174.872, 450, 0, []
1630311757.5122, 82, 0, 4235.385, 4215.897, 4072.821, 4174.872, 4188.718, 450, 0, []
1630311757.5201, 83, 0, 4218.974, 4181.538, 4055.385, 4173.333, 4157.949, 16202, 0, []
1630311757.5281, 84, 0, 4204.615, 4167.179, 4051.282, 4170.256, 4131.795, 450, 0, []
1630311757.5359, 85, 0, 4200.513, 4171.795, 4057.436, 4162.051, 4140, 450, 0, []
1630311757.5439, 86, 0, 4194.872, 4154.359, 4071.282, 4163.59, 4153.333, 450, 0, []
1630311757.5518, 87, 0, 4204.103, 4136.923, 4063.59, 4180.513, 4164.103, 16202, 0, []
1630311757.5597, 88, 0, 4234.872, 4167.179, 4084.615, 4192.308, 4172.821, 450, 0, []
1630311757.5676, 89, 0, 4246.667, 4200, 4080, 4175.385, 4167.692, 450, 0, []
1630311757.5753, 90, 0, 4216.41, 4177.436, 4037.949, 4141.026, 4151.282, 450, 0, []
1630311757.5832, 91, 0, 4189.231, 4154.359, 4038.462, 4136.923, 4134.872, 16202, 0, []
1630311757.591, 92, 0, 4202.051, 4182.051, 4052.821, 4171.795, 4135.385, 450, 0, []
1630311757.5989, 93, 0, 4221.026, 4193.846, 4070.769, 4195.897, 4149.231, 450, 0, []
1630311757.6067, 94, 0, 4211.282, 4158.974, 4063.077, 4176.923, 4150.256, 450, 0, []
1630311757.6145, 95, 0, 4192.821, 4148.718, 4047.179, 4159.487, 4146.154, 16202, 0, []
1630311757.6223, 96, 0, 4195.897, 4177.949, 4076.923, 4181.026, 4161.026, 450, 0, []
1630311757.6303, 97, 0, 4203.077, 4202.564, 4075.897, 4191.795, 4163.077, 450, 0, []
1630311757.6382, 98, 0, 4189.744, 4200, 4058.462, 4166.154, 4135.897, 450, 0, []
1630311757.6461, 99, 0, 4178.462, 4181.026, 4051.795, 4140.513, 4131.795, 16202, 0, []
1630311757.6538, 100, 0, 4190.256, 4163.077, 4048.205, 4142.051, 4157.949, 450, 0, []
1630311757.6618, 101, 0, 4227.692, 4176.41, 4070.769, 4172.308, 4180.513, 450, 0, []
1630311757.6697, 102, 0, 4262.564, 4194.359, 4073.333, 4198.462, 4189.744, 450, 0, []
1630311757.6777, 103, 0, 4260, 4167.179, 4078.974, 4191.795, 4190.256, 16202, 0, []
1630311757.6856, 104, 0, 4238.462, 4155.385, 4078.974, 4167.692, 4186.154, 450, 0, []
1630311757.6935, 105, 0, 4227.179, 4179.487, 4059.487, 4157.436, 4181.026, 450, 0, []
1630311757.7014, 106, 0, 4225.128, 4174.359, 4070.256, 4158.462, 4172.821, 450, 0, []
1630311757.7094, 107, 0, 4229.231, 4157.436, 4064.103, 4160.513, 4165.641, 16202, 0, []
1630311757.7173, 108, 0, 4232.821, 4164.615, 4063.59, 4165.128, 4169.231, 450, 0, []
1630311757.7251, 109, 0, 4226.667, 4164.103, 4081.026, 4171.282, 4177.436, 450, 0, []
1630311757.7329, 110, 0, 4210.769, 4143.59, 4066.154, 4176.41, 4173.333, 450, 0, []
1630311757.7407, 111, 0, 4203.077, 4142.051, 4061.026, 4172.308, 4151.282, 16202, 0, []
1630311757.7486, 112, 0, 4205.128, 4156.41, 4052.308, 4156.923, 4133.846, 450, 0, []
1630311757.7564, 113, 0, 4198.462, 4148.205, 4052.308, 4142.564, 4138.974, 450, 0, []
1630311757.7643, 114, 0, 4206.154, 4152.308, 4078.974, 4161.026, 4166.667, 450, 0, []
1630311757.772, 115, 0, 4230.256, 4176.41, 4086.154, 4190.256, 4179.487, 16202, 0, []
1630311757.7799, 116, 0, 4229.231, 4161.538, 4084.615, 4181.026, 4156.41, 450, 0, []
1630311757.7877, 117, 0, 4212.308, 4124.615, 4070.256, 4155.897, 4146.667, 450, 0, []
1630311757.7957, 118, 0, 4214.872, 4141.026, 4074.359, 4163.59, 4171.795, 450, 0, []
1630311757.8036, 119, 0, 4222.564, 4185.641, 4093.333, 4190.769, 4183.077, 16202, 0, []
1630311757.8115, 120, 0, 4216.41, 4184.615, 4077.949, 4194.359, 4169.231, 450, 0, []
1630311757.8194, 121, 0, 4203.59, 4163.59, 4076.923, 4177.949, 4157.949, 450, 0, []
1630311757.8274, 122, 0, 4181.538, 4168.718, 4074.872, 4153.846, 4149.744, 450, 0, []
1630311757.8353, 123, 0, 4175.385, 4180, 4075.897, 4150.256, 4151.795, 16202, 0, []
1630311757.8433, 124, 0, 4195.385, 4181.538, 4098.974, 4171.282, 4157.436, 450, 0, []
1630311757.8512, 125, 0, 4191.795, 4173.333, 4084.615, 4170.769, 4141.026, 450, 0, []
1630311757.8591, 126, 0, 4167.179, 4157.436, 4079.487, 4151.282, 4134.359, 450, 0, []
1630311757.867, 127, 0, 4165.641, 4153.846, 4089.231, 4153.846, 4156.41, 16202, 0, []
1630311757.875, 128, 0, 4189.231, 4172.821, 4088.205, 4183.59, 4179.487, 450, 0, []
1630311757.8829, 0, 0, 4188.205, 4169.231, 4097.949, 4193.846, 4173.333, 450, 0, []
1630311757.8907, 1, 0, 4145.641, 4144.103, 4076.923, 4158.462, 4142.564, 450, 0, []
1630311757.8985, 2, 0, 4126.667, 4161.538, 4074.359, 4142.564, 4140, 16187, 0, []
1630311757.9063, 3, 0, 4163.077, 4187.179, 4093.846, 4185.128, 4178.462, 450, 0, []
1630311757.9142, 4, 0, 4196.923, 4170.769, 4094.359, 4213.333, 4193.333, 16135, 0, []
1630311757.922, 5, 0, 4185.128, 4156.41, 4103.077, 4186.154, 4171.795, 450, 0, []
1630311757.9299, 6, 0, 4158.974, 4154.359, 4093.333, 4165.128, 4172.308, 230, 0, []
1630311757.9376, 7, 0, 4156.41, 4140.513, 4088.718, 4181.538, 4186.154, 450, 0, []
1630311757.9455, 8, 0, 4167.692, 4135.385, 4094.359, 4192.308, 4174.872, 450, 0, []
1630311757.9533, 9, 0, 4171.282, 4149.231, 4096.923, 4175.385, 4164.615, 16149, 0, []
1630311757.9613, 10, 0, 4165.641, 4156.923, 4106.667, 4161.026, 4168.718, 450, 0, []
1630311757.9692, 11, 0, 4172.308, 4149.231, 4080, 4169.231, 4166.667, 16203, 0, []
1630311757.9771, 12, 0, 4193.846, 4156.41, 4086.154, 4190.256, 4171.282, 450, 0, []
1630311757.985, 13, 0, 4204.103, 4173.333, 4123.077, 4199.487, 4193.333, 450, 0, []
1630311757.993, 14, 0, 4200, 4166.667, 4105.128, 4194.359, 4209.744, 450, 0, []
1630311758.0009, 15, 0, 4197.949, 4152.821, 4090.256, 4200.513, 4205.641, 16203, 0, []
1630311758.0089, 16, 0, 4193.846, 4157.949, 4074.359, 4197.949, 4187.179, 0, 0, []
1630311758.0167, 17, 0, 4173.846, 4163.59, 4049.231, 4169.231, 4168.718, 0, 0, []
1630311758.0246, 18, 0, 4156.923, 4155.385, 4049.231, 4159.487, 4163.077, 0, 0, []
1630311758.0325, 19, 0, 4175.897, 4156.923, 4060, 4189.231, 4172.821, 0, 0, []
1630311758.0405, 20, 0, 4198.462, 4160, 4084.615, 4206.154, 4177.949, 0, 0, []
1630311758.0484, 21, 0, 4176.923, 4145.128, 4081.538, 4175.897, 4170.256, 0, 0, []
1630311758.0561, 22, 0, 4155.385, 4135.385, 4076.923, 4153.333, 4162.051, 0, 0, []
1630311758.064, 23, 0, 4169.231, 4141.538, 4091.795, 4162.051, 4146.667, 0, 0, []
1630311758.0718, 24, 0, 4171.795, 4150.256, 4077.949, 4153.333, 4133.333, 0, 0, []
1630311758.0797, 25, 0, 4154.872, 4156.923, 4083.077, 4133.846, 4145.128, 0, 0, []
1630311758.0875, 26, 0, 4155.897, 4154.359, 4084.103, 4146.154, 4155.385, 0, 0, []
1630311758.0954, 27, 0, 4148.205, 4137.436, 4054.872, 4152.308, 4110.256, 0, 0, []
1630311758.1033, 28, 0, 4133.333, 4134.872, 4056.923, 4134.872, 4083.077, 0, 0, []
1630311758.1112, 29, 0, 4157.949, 4158.462, 4071.795, 4157.949, 4137.436, 0, 0, []
1630311758.119, 30, 0, 4177.949, 4172.821, 4076.923, 4187.179, 4157.436, 0, 0, []
1630311758.127, 31, 0, 4165.641, 4164.103, 4063.59, 4159.487, 4113.846, 0, 0, []
1630311758.1348, 32, 0, 4171.795, 4163.59, 4067.179, 4136.41, 4122.051, 0, 0, []
1630311758.1428, 33, 0, 4191.282, 4171.795, 4102.051, 4152.821, 4168.205, 0, 0, []
1630311758.1507, 34, 0, 4188.718, 4164.615, 4081.538, 4154.872, 4157.436, 0, 0, []
1630311758.1587, 35, 0, 4182.564, 4142.051, 4060.513, 4144.615, 4128.205, 0, 0, []
1630311758.1666, 36, 0, 4186.154, 4134.872, 4075.897, 4152.821, 4145.641, 0, 0, []
1630311758.1745, 37, 0, 4187.179, 4150.256, 4071.282, 4167.179, 4173.333, 0, 0, []
1630311758.1824, 38, 0, 4189.231, 4146.667, 4070.256, 4176.41, 4175.897, 0, 0, []
1630311758.1904, 39, 0, 4196.923, 4145.641, 4061.026, 4171.795, 4158.462, 0, 0, []
1630311758.1983, 40, 0, 4202.051, 4170.769, 4070.256, 4157.436, 4149.744, 0, 0, []
1630311758.2061, 41, 0, 4192.821, 4160, 4078.462, 4135.385, 4157.436, 0, 0, []
1630311758.214, 42, 0, 4191.282, 4126.667, 4055.385, 4121.538, 4168.718, 0, 0, []
1630311758.2217, 43, 0, 4242.051, 4153.846, 4071.282, 4147.692, 4198.974, 0, 0, []
1630311758.2296, 44, 0, 4300, 4182.051, 4073.846, 4169.231, 4238.974, 0, 0, []
1630311758.2374, 45, 0, 4309.231, 4150.256, 4057.436, 4156.41, 4258.462, 0, 0, []
1630311758.2453, 46, 0, 4324.615, 4157.949, 4074.359, 4164.615, 4281.538, 0, 0, []
1630311758.2531, 47, 0, 4358.462, 4191.795, 4075.897, 4183.077, 4315.385, 0, 0, []
1630311758.261, 48, 0, 4347.179, 4163.077, 4061.538, 4169.231, 4307.692, 0, 0, []
1630311758.2689, 49, 0, 4325.128, 4144.615, 4053.333, 4164.103, 4280.513, 0, 0, []
1630311758.2769, 50, 0, 4330.256, 4174.872, 4063.077, 4187.692, 4272.308, 0, 0, []
1630311758.2848, 51, 0, 4305.641, 4167.179, 4063.077, 4186.667, 4242.564, 0, 0, []
1630311758.2928, 52, 0, 4267.179, 4145.641, 4045.641, 4172.821, 4209.744, 0, 0, []
1630311758.3006, 53, 0, 4260, 4174.872, 4065.128, 4177.436, 4211.282, 0, 0, []
1630311758.3086, 54, 0, 4241.026, 4185.641, 4054.359, 4169.231, 4198.974, 0, 0, []
1630311758.3165, 55, 0, 4210.256, 4164.103, 4028.718, 4153.333, 4166.154, 0, 0, []
1630311758.3245, 56, 0, 4209.744, 4178.974, 4063.59, 4155.385, 4157.949, 0, 0, []
1630311758.3324, 57, 0, 4220, 4200.513, 4077.949, 4157.949, 4175.897, 0, 0, []
1630311758.3401, 58, 0, 4207.179, 4186.154, 4071.282, 4159.487, 4184.615, 0, 0, []
1630311758.348, 59, 0, 4183.59, 4170.769, 4058.974, 4168.718, 4168.718, 0, 0, []
1630311758.3558, 60, 0, 4174.872, 4182.051, 4047.692, 4172.821, 4153.846, 0, 0, []
1630311758.3637, 61, 0, 4168.718, 4188.718, 4057.436, 4166.154, 4162.051, 0, 0, []
1630311758.3715, 62, 0, 4159.487, 4175.385, 4044.103, 4156.41, 4165.641, 0, 0, []
1630311758.3793, 63, 0, 4168.718, 4172.308, 4051.282, 4161.026, 4150.769, 0, 0, []
1630311758.3871, 64, 0, 4191.282, 4183.077, 4073.333, 4175.385, 4156.923, 450, 0, []
1630311758.395, 65, 0, 4184.615, 4183.077, 4072.308, 4173.333, 4175.385, 450, 0, []
1630311758.4028, 66, 0, 4171.282, 4179.487, 4080.513, 4173.333, 4170.256, 16185, 0, []
1630311758.4107, 67, 0, 4187.692, 4187.179, 4068.718, 4190.769, 4156.41, 450, 0, []
1630311758.4184, 68, 0, 4185.641, 4187.179, 4061.538, 4183.59, 4147.692, 16136, 0, []
1630311758.4264, 69, 0, 4146.154, 4180, 4062.564, 4155.385, 4138.462, 450, 0, []
1630311758.4343, 70, 0, 4135.897, 4180, 4049.231, 4163.077, 4135.385, 237, 0, []
1630311758.4423, 71, 0, 4155.897, 4178.462, 4067.692, 4181.026, 4135.897, 450, 0, []
1630311758.4502, 72, 0, 4141.026, 4169.744, 4064.103, 4158.974, 4126.154, 450, 0, []
