Timestamp, COUNTER, INTERPOLATED, AF3, T7, Pz, T8, AF4, RAW_CQ, MARKER_HARDWARE, MARKERS
1630403641.3608, 3, 0, 3903.077, 4162.051, 4015.385, 3876.923, 3909.744, 450, 0, []
1630403641.3687, 4, 0, 3882.564, 4201.538, 4006.667, 3865.641, 3885.641, 16167, 0, []
1630403641.3766, 5, 0, 3900.513, 4162.051, 4053.846, 3883.077, 3901.026, 450, 0, []
1630403641.3845, 6, 0, 3926.667, 4096.41, 4040, 3909.744, 3931.795, 58, 0, []
1630403641.3923, 7, 0, 3913.846, 3996.923, 4015.897, 3899.487, 3925.128, 450, 0, []
1630403641.4002, 8, 0, 3890.769, 3928.718, 4018.974, 3889.744, 3909.231, 450, 0, []
1630403641.408, 9, 0, 3885.641, 3907.179, 4011.795, 3908.205, 3912.821, 16184, 0, []
1630403641.4159, 10, 0, 3883.077, 3860.513, 4028.718, 3909.744, 3903.077, 450, 0, []
1630403641.4236, 11, 0, 3901.538, 3867.692, 4012.821, 3907.692, 3902.051, 16312, 0, []
1630403641.4315, 12, 0, 3944.103, 4020, 4037.436, 3941.026, 3937.436, 450, 0, []
1630403641.4393, 13, 0, 3961.538, 4192.821, 4067.179, 3971.795, 3970.256, 450, 0, []
1630403641.4472, 14, 0, 3936.41, 4241.026, 4029.231, 3961.538, 3959.487, 450, 0, []
1630403641.455, 15, 0, 3924.615, 4214.872, 4045.128, 3947.692, 3946.667, 16312, 0, []
1630403641.4628, 16, 0, 3953.846, 4241.538, 4062.564, 3964.615, 3977.949, 0, 0, []
1630403641.4706, 17, 0, 3965.128, 4370.256, 4072.308, 3977.436, 3983.077, 0, 0, []
1630403641.4786, 18, 0, 3960.513, 4586.154, 4077.436, 3974.872, 3971.282, 0, 0, []
1630403641.4865, 19, 0, 4000.513, 4749.231, 4062.564, 3996.923, 3997.436, 0, 0, []
1630403641.4945, 20, 0, 4029.231, 4751.795, 4084.103, 4020.513, 3955.897, 0, 0, []
1630403641.5023, 21, 0, 4011.795, 4718.974, 4047.179, 4011.282, 3846.667, 0, 0, []
1630403641.5103, 22, 0, 4018.462, 4733.333, 4026.667, 4001.538, 3833.846, 0, 0, []
1630403641.5182, 23, 0, 4053.333, 4733.333, 4057.436, 4006.154, 3901.538, 0, 0, []
1630403641.5262, 24, 0, 4055.385, 4743.59, 4027.692, 3978.974, 3917.436, 0, 0, []
1630403641.5341, 25, 0, 4051.282, 4827.692, 4033.333, 3940.513, 3917.436, 0, 0, []
1630403641.542, 26, 0, 4087.692, 4888.718, 4032.821, 3948.205, 3957.436, 0, 0, []
1630403641.5499, 27, 0, 4115.385, 4866.154, 4021.538, 3972.821, 3985.128, 0, 0, []
1630403641.5577, 28, 0, 4097.949, 4825.128, 4042.564, 3970.256, 3989.231, 0, 0, []
1630403641.5656, 29, 0, 4066.154, 4786.667, 4018.974, 3957.436, 3990.769, 0, 0, []
1630403641.5734, 30, 0, 4033.333, 4784.103, 4016.41, 3944.103, 3977.436, 0, 0, []
1630403641.5812, 31, 0, 4018.462, 4821.538, 4007.692, 3938.462, 3957.949, 0, 0, []
1630403641.589, 32, 0, 4037.949, 4870.769, 4013.333, 3974.872, 3962.564, 0, 0, []
1630403641.5969, 33, 0, 4030.769, 4885.128, 4042.051, 4000, 3953.846, 0, 0, []
1630403641.6047, 34, 0, 3952.308, 4806.154, 3975.385, 3938.462, 3882.564, 0, 0, []
1630403641.6127, 35, 0, 3881.026, 4694.872, 3960, 3875.897, 3813.846, 0, 0, []
1630403641.6206, 36, 0, 3876.41, 4630.256, 3984.103, 3885.128, 3805.641, 0, 0, []
1630403641.6285, 37, 0, 3877.949, 4621.026, 3960, 3893.846, 3807.179, 0, 0, []
1630403641.6365, 38, 0, 3855.897, 4570.256, 3976.41, 3871.282, 3785.128, 0, 0, []
1630403641.6444, 39, 0, 3848.205, 4442.051, 3969.744, 3861.026, 3769.744, 0, 0, []
1630403641.6524, 40, 0, 3872.821, 4363.077, 3990.256, 3892.821, 3791.282, 0, 0, []
1630403641.6602, 41, 0, 3886.667, 4382.051, 4010.769, 3922.564, 3808.718, 0, 0, []
1630403641.6682, 42, 0, 3861.026, 4391.795, 3971.282, 3898.462, 3780, 0, 0, []
1630403641.6761, 43, 0, 3856.923, 4370.769, 4003.59, 3874.359, 3769.231, 0, 0, []
1630403641.6841, 44, 0, 3869.231, 4277.949, 4005.128, 3876.41, 3785.641, 0, 0, []
1630403641.692, 45, 0, 3853.333, 4063.59, 3983.077, 3864.103, 3777.949, 0, 0, []
1630403641.6999, 46, 0, 3834.872, 4042.051, 3990.256, 3842.564, 3765.641, 0, 0, []
1630403641.7078, 47, 0, 3834.872, 4357.949, 3966.154, 3843.077, 3772.308, 0, 0, []
1630403641.7158, 48, 0, 3826.667, 4566.154, 3983.59, 3853.333, 3768.718, 0, 0, []
1630403641.7237, 49, 0, 3831.795, 4512.308, 3977.949, 3871.795, 3763.077, 0, 0, []
1630403641.7317, 50, 0, 3871.795, 4481.538, 3981.026, 3906.667, 3786.667, 0, 0, []
1630403641.7395, 51, 0, 3893.846, 4514.359, 4007.692, 3927.692, 3807.692, 0, 0, []
1630403641.7475, 52, 0, 3874.359, 4469.744, 3977.949, 3908.718, 3791.795, 0, 0, []
1630403641.7554, 53, 0, 3846.154, 4405.128, 3985.641, 3857.949, 3751.795, 0, 0, []
1630403641.7634, 54, 0, 3853.333, 4441.538, 3982.564, 3839.487, 3753.333, 0, 0, []
1630403641.7714, 55, 0, 3873.846, 4469.744, 3976.923, 3851.282, 3787.179, 0, 0, []
1630403641.7792, 56, 0, 3871.795, 4344.103, 3994.872, 3851.795, 3787.692, 0, 0, []
1630403641.7872, 57, 0, 3875.385, 4109.744, 3987.179, 3886.154, 3783.077, 0, 0, []
1630403641.7951, 58, 0, 3887.692, 4009.231, 4021.026, 3944.103, 3798.462, 0, 0, []
1630403641.8031, 59, 0, 3910.256, 4143.077, 4016.923, 3967.179, 3824.103, 0, 0, []
1630403641.811, 60, 0, 3956.41, 4272.308, 4022.051, 3981.538, 3863.077, 0, 0, []
1630403641.8189, 61, 0, 3976.923, 4257.949, 4053.846, 3991.795, 3878.974, 0, 0, []
1630403641.8268, 62, 0, 3931.795, 4209.231, 3993.846, 3943.077, 3834.359, 0, 0, []
1630403641.8348, 63, 0, 3899.487, 4152.821, 3998.974, 3904.103, 3800.513, 0, 0, []
1630403641.8427, 64, 0, 3913.846, 4027.692, 4021.026, 3916.41, 3813.333, 450, 0, []
1630403641.8507, 65, 0, 3919.487, 3968.205, 4010.256, 3918.462, 3817.436, 450, 0, []
1630403641.8585, 66, 0, 3909.744, 3998.462, 4034.359, 3910.769, 3802.051, 16287, 0, []
1630403641.8665, 67, 0, 3877.949, 3963.077, 3988.718, 3886.667, 3764.615, 450, 0, []
1630403641.8744, 68, 0, 3855.897, 3977.436, 3986.667, 3865.641, 3741.538, 16202, 0, []
1630403641.8824, 69, 0, 3880, 4058.462, 4007.692, 3887.692, 3770.769, 450, 0, []
1630403641.8903, 70, 0, 3904.615, 4051.795, 3990.769, 3914.872, 3805.128, 69, 0, []
1630403641.8983, 71, 0, 3877.436, 4045.641, 3996.923, 3884.103, 3787.692, 450, 0, []
1630403641.9061, 72, 0, 3824.103, 4167.179, 3941.026, 3811.795, 3738.974, 450, 0, []
1630403641.9141, 73, 0, 3831.795, 4287.179, 3964.103, 3817.436, 3748.205, 16187, 0, []
1630403641.922, 74, 0, 3914.872, 4360, 4048.205, 3925.641, 3838.974, 450, 0, []
1630403641.93, 75, 0, 3968.718, 4444.103, 4041.538, 3981.026, 3905.128, 16250, 0, []
1630403641.938, 76, 0, 3925.641, 4417.436, 4014.359, 3915.385, 3864.103, 450, 0, []
1630403641.9458, 77, 0, 3887.179, 4339.487, 3977.436, 3875.897, 3820.513, 450, 0, []
1630403641.9538, 78, 0, 3926.154, 4375.385, 4013.846, 3923.077, 3861.026, 450, 0, []
1630403641.9617, 79, 0, 3953.333, 4456.41, 4040.513, 3940, 3894.359, 16250, 0, []
1630403641.9697, 80, 0, 3929.744, 4484.615, 3992.821, 3916.41, 3873.333, 450, 0, []
1630403641.9776, 81, 0, 3919.487, 4332.821, 4017.949, 3925.128, 3864.103, 450, 0, []
1630403641.9855, 82, 0, 3942.051, 4071.282, 4014.359, 3948.205, 3884.103, 450, 0, []
1630403641.9934, 83, 0, 3930.769, 4027.692, 3987.179, 3929.744, 3870.769, 16250, 0, []
1630403642.0014, 84, 0, 3892.308, 4173.846, 3991.795, 3896.41, 3834.359, 450, 0, []
1630403642.0093, 85, 0, 3891.282, 4212.308, 3982.051, 3904.103, 3837.436, 450, 0, []
1630403642.0173, 86, 0, 3886.154, 4173.333, 4004.103, 3913.333, 3838.462, 450, 0, []
1630403642.0251, 87, 0, 3859.487, 4196.41, 3972.308, 3893.846, 3813.333, 16250, 0, []
1630403642.0331, 88, 0, 3859.487, 4220, 3955.897, 3886.154, 3803.59, 450, 0, []
1630403642.041, 89, 0, 3894.872, 4237.949, 4003.59, 3920, 3835.385, 450, 0, []
1630403642.049, 90, 0, 3935.385, 4233.333, 3993.333, 3958.974, 3882.564, 450, 0, []
1630403642.0569, 91, 0, 3928.718, 4168.718, 3992.821, 3949.231, 3870.256, 16250, 0, []
1630403642.0648, 92, 0, 3893.846, 4172.821, 3972.821, 3922.051, 3827.692, 450, 0, []
1630403642.0727, 93, 0, 3905.641, 4267.692, 3974.359, 3933.333, 3836.923, 450, 0, []
1630403642.0807, 94, 0, 3946.667, 4313.333, 4004.615, 3947.692, 3865.128, 450, 0, []
1630403642.0887, 95, 0, 3960, 4283.077, 3970.256, 3948.205, 3864.103, 16250, 0, []
1630403642.0966, 96, 0, 3966.154, 4294.359, 4006.667, 3956.923, 3862.051, 450, 0, []
1630403642.1045, 97, 0, 3974.872, 4375.385, 4009.744, 3938.462, 3852.821, 450, 0, []
1630403642.1124, 98, 0, 3949.744, 4452.821, 3960, 3888.718, 3805.641, 450, 0, []
1630403642.1204, 99, 0, 3916.41, 4464.615, 3977.949, 3862.051, 3764.103, 16250, 0, []
1630403642.1283, 100, 0, 3921.538, 4368.718, 3953.333, 3855.897, 3765.128, 450, 0, []
1630403642.1363, 101, 0, 3920, 4256.41, 3954.872, 3841.026, 3762.051, 450, 0, []
1630403642.1441, 102, 0, 3896.41, 4264.103, 3964.615, 3834.872, 3747.692, 450, 0, []
1630403642.1521, 103, 0, 3904.615, 4313.846, 3956.41, 3849.231, 3763.59, 16250, 0, []
1630403642.16, 104, 0, 3926.667, 4303.077, 3983.077, 3855.385, 3780.513, 450, 0, []
1630403642.168, 105, 0, 3907.692, 4334.359, 3945.641, 3835.897, 3758.462, 450, 0, []
1630403642.1759, 106, 0, 3888.205, 4406.667, 3962.051, 3830.769, 3751.282, 450, 0, []
1630403642.1838, 107, 0, 3941.026, 4371.795, 4021.026, 3889.744, 3818.974, 16250, 0, []
1630403642.1917, 108, 0, 4004.103, 4285.641, 4022.051, 3950.769, 3885.128, 450, 0, []
1630403642.1997, 109, 0, 3992.308, 4232.308, 4031.795, 3936.41, 3870.769, 450, 0, []
1630403642.2076, 110, 0, 3963.59, 4171.282, 3997.949, 3906.667, 3840, 450, 0, []
1630403642.2156, 111, 0, 3967.692, 4107.179, 4003.59, 3913.333, 3842.564, 16250, 0, []
1630403642.2234, 112, 0, 3976.41, 4085.128, 4018.974, 3924.615, 3849.231, 450, 0, []
1630403642.2314, 113, 0, 3991.795, 4084.615, 4001.026, 3935.385, 3862.564, 450, 0, []
1630403642.2394, 114, 0, 4000.513, 4090.769, 4034.359, 3944.615, 3864.615, 450, 0, []
1630403642.2473, 115, 0, 3989.744, 4117.949, 4000, 3939.487, 3846.154, 16250, 0, []
1630403642.2553, 116, 0, 4006.667, 4109.231, 4005.128, 3962.564, 3860.513, 450, 0, []
1630403642.2631, 117, 0, 4027.179, 4032.308, 4040.513, 3986.154, 3888.205, 450, 0, []
1630403642.2711, 118, 0, 4006.667, 3965.641, 3994.359, 3964.615, 3882.564, 450, 0, []
1630403642.279, 119, 0, 4008.718, 3955.897, 4024.103, 3966.667, 3894.872, 16250, 0, []
1630403642.287, 120, 0, 4050.769, 3955.385, 4026.667, 4008.718, 3942.051, 450, 0, []
1630403642.2949, 121, 0, 4048.718, 3944.103, 4001.026, 4011.795, 3949.231, 450, 0, []
1630403642.3029, 122, 0, 4016.41, 3984.103, 4028.718, 3990.256, 3929.744, 450, 0, []
1630403642.3107, 123, 0, 4023.077, 4032.821, 4015.897, 3991.795, 3938.974, 16250, 0, []
1630403642.3187, 124, 0, 4042.564, 4024.103, 4022.564, 3987.692, 3944.615, 450, 0, []
1630403642.3266, 125, 0, 4058.462, 4051.282, 4013.846, 3978.462, 3943.077, 450, 0, []
1630403642.3346, 126, 0, 4076.923, 4118.462, 4017.949, 3991.282, 3946.667, 450, 0, []
1630403642.3425, 127, 0, 4084.103, 4086.667, 4040.513, 4006.154, 3947.179, 16250, 0, []
1630403642.3504, 128, 0, 4078.974, 3990.769, 3998.974, 4003.077, 3954.359, 450, 0, []
1630403642.3583, 0, 0, 4061.026, 4016.923, 4012.821, 3992.308, 3956.41, 450, 0, []
1630403642.3663, 1, 0, 4048.205, 4147.179, 4013.333, 3994.359, 3958.974, 450, 0, []
1630403642.3742, 2, 0, 4060, 4170.256, 4010.256, 4013.846, 3984.615, 16193, 0, []
1630403642.3821, 3, 0, 4066.154, 4080, 4045.128, 4013.333, 3993.333, 450, 0, []
1630403642.3899, 4, 0, 4053.333, 4048.718, 3999.487, 3987.692, 3965.128, 16134, 0, []
1630403642.3977, 5, 0, 4071.282, 4060.513, 4021.026, 4002.051, 3973.333, 450, 0, []
1630403642.4057, 6, 0, 4121.026, 4000, 4045.128, 4050.256, 4029.744, 55, 0, []
1630403642.4136, 7, 0, 4130.769, 3902.564, 4011.282, 4059.487, 4046.154, 450, 0, []
1630403642.4216, 8, 0, 4104.615, 3860.513, 4040.513, 4041.026, 4025.641, 450, 0, []
1630403642.4294, 9, 0, 4103.59, 3819.487, 4018.974, 4032.308, 4034.359, 16182, 0, []
1630403642.4374, 10, 0, 4108.718, 3757.949, 4013.846, 4006.154, 4032.308, 450, 0, []
1630403642.4453, 11, 0, 4118.462, 3822.564, 4042.051, 4009.231, 4017.949, 16312, 0, []
1630403642.4532, 12, 0, 4149.231, 3937.436, 4036.41, 4073.333, 4052.308, 450, 0, []
1630403642.4611, 13, 0, 4150.256, 3928.205, 4054.359, 4093.333, 4092.821, 450, 0, []
1630403642.4689, 14, 0, 4133.846, 3917.949, 4023.59, 4057.949, 4101.538, 450, 0, []
1630403642.4769, 15, 0, 4173.846, 3981.538, 4040.513, 4066.154, 4134.872, 16312, 0, []
1630403642.4849, 16, 0, 4235.897, 3961.538, 4067.179, 4113.846, 4203.59, 0, 0, []
1630403642.4928, 17, 0, 4239.487, 3876.923, 4018.974, 4111.282, 4246.667, 0, 0, []
1630403642.5008, 18, 0, 4251.795, 3881.026, 4060.513, 4094.872, 4276.41, 0, 0, []
1630403642.5086, 19, 0, 4322.051, 3929.231, 4073.333, 4140.513, 4333.333, 0, 0, []
1630403642.5166, 20, 0, 4334.872, 3922.564, 4052.308, 4169.231, 4357.949, 0, 0, []
1630403642.5245, 21, 0, 4284.103, 3846.667, 4060, 4131.795, 4333.333, 0, 0, []
1630403642.5323, 22, 0, 4257.949, 3743.077, 4026.667, 4100.513, 4307.179, 0, 0, []
1630403642.5402, 23, 0, 4227.179, 3654.872, 4048.718, 4106.667, 4285.641, 0, 0, []
1630403642.5479, 24, 0, 4177.949, 3633.846, 4033.846, 4101.026, 4266.154, 0, 0, []
1630403642.5559, 25, 0, 4153.333, 3741.538, 4017.949, 4085.128, 4245.128, 0, 0, []
1630403642.5638, 26, 0, 4145.641, 3787.179, 4064.103, 4086.667, 4221.538, 0, 0, []
1630403642.5718, 27, 0, 4131.795, 3683.59, 4035.385, 4081.026, 4203.59, 0, 0, []
1630403642.5797, 28, 0, 4106.154, 3723.077, 4037.436, 4062.564, 4189.231, 0, 0, []
1630403642.5876, 29, 0, 4080.513, 3869.744, 4028.718, 4058.462, 4176.41, 0, 0, []
1630403642.5955, 30, 0, 4081.026, 3800, 4014.359, 4072.821, 4171.795, 0, 0, []
1630403642.6035, 31, 0, 4083.077, 3611.282, 4054.872, 4072.308, 4154.872, 0, 0, []
1630403642.6114, 32, 0, 4045.128, 3576.41, 4009.231, 4030.769, 4102.564, 0, 0, []
1630403642.6194, 33, 0, 4009.744, 3591.282, 4003.077, 3995.897, 4058.462, 0, 0, []
1630403642.6272, 34, 0, 4029.744, 3537.436, 4025.128, 4017.436, 4075.897, 0, 0, []
1630403642.6352, 35, 0, 4050.256, 3605.641, 4024.615, 4049.744, 4098.974, 0, 0, []
1630403642.6431, 36, 0, 4020, 3794.359, 4044.615, 4031.282, 4065.128, 0, 0, []
1630403642.6511, 37, 0, 3991.282, 3879.487, 3994.359, 3994.872, 4032.308, 0, 0, []
1630403642.659, 38, 0, 4007.179, 3917.436, 4014.359, 4004.615, 4052.821, 0, 0, []
1630403642.667, 39, 0, 4040.513, 4040, 4044.103, 4043.59, 4083.077, 0, 0, []
1630403642.6748, 40, 0, 4051.795, 4104.103, 4015.897, 4049.231, 4090.769, 0, 0, []
1630403642.6827, 41, 0, 4049.744, 4063.077, 4030.769, 4037.436, 4087.692, 0, 0, []
1630403642.6906, 42, 0, 4074.872, 4067.179, 4020.513, 4077.436, 4097.436, 0, 0, []
1630403642.6984, 43, 0, 4106.154, 4084.103, 4063.077, 4130.256, 4110.769, 0, 0, []
1630403642.7063, 44, 0, 4096.923, 4000, 4060, 4110.256, 4097.949, 0, 0, []
1630403642.714, 45, 0, 4078.462, 3949.744, 4008.718, 4073.846, 4081.538, 0, 0, []
1630403642.722, 46, 0, 4078.462, 4075.385, 4051.282, 4072.308, 4081.026, 0, 0, []
1630403642.7299, 47, 0, 4073.846, 4239.487, 4027.179, 4057.949, 4067.692, 0, 0, []
1630403642.7379, 48, 0, 4077.949, 4272.308, 4032.821, 4051.282, 4048.718, 0, 0, []
1630403642.7458, 49, 0, 4090.256, 4275.897, 4046.154, 4060, 4049.744, 0, 0, []
1630403642.7537, 50, 0, 4074.872, 4392.308, 4003.077, 4044.615, 4046.154, 0, 0, []
1630403642.7616, 51, 0, 4077.949, 4502.564, 4054.872, 4057.949, 4056.41, 0, 0, []
1630403642.7696, 52, 0, 4098.974, 4490.769, 4053.333, 4093.333, 4068.205, 0, 0, []
1630403642.7775, 53, 0, 4078.462, 4430.769, 4035.897, 4071.282, 4028.718, 0, 0, []
1630403642.7855, 54, 0, 4074.359, 4452.308, 4049.744, 4064.615, 4021.538, 0, 0, []
1630403642.7933, 55, 0, 4085.128, 4541.538, 4032.308, 4081.026, 4053.333, 0, 0, []
1630403642.8013, 56, 0, 4038.974, 4577.436, 4049.231, 4043.59, 4024.615, 0, 0, []
1630403642.8092, 57, 0, 3997.949, 4585.641, 4010.769, 4008.718, 3983.59, 0, 0, []
1630403642.8172, 58, 0, 4010.256, 4643.077, 4016.41, 4021.026, 3984.103, 0, 0, []
1630403642.8251, 59, 0, 4021.026, 4677.436, 4028.205, 4041.538, 3982.051, 0, 0, []
1630403642.8328, 60, 0, 4023.59, 4651.795, 3993.333, 4060.513, 3985.641, 0, 0, []
1630403642.8407, 61, 0, 4023.59, 4666.667, 4043.59, 4064.103, 3995.897, 0, 0, []
1630403642.8485, 62, 0, 4014.359, 4753.333, 4023.59, 4052.821, 3991.795, 0, 0, []
1630403642.8564, 63, 0, 4024.615, 4805.641, 4016.41, 4053.846, 4009.231, 0, 0, []
1630403642.8642, 64, 0, 4028.205, 4813.333, 4044.615, 4032.821, 4015.897, 450, 0, []
1630403642.8721, 65, 0, 4006.154, 4842.051, 4002.564, 4009.744, 3981.026, 450, 0, []
1630403642.88, 66, 0, 4014.872, 4848.205, 4042.051, 4045.641, 3978.974, 16232, 0, []
1630403642.888, 67, 0, 4048.718, 4799.487, 4040, 4076.923, 4018.974, 450, 0, []
1630403642.8959, 68, 0, 4044.103, 4753.846, 4011.795, 4067.179, 4028.205, 16169, 0, []
1630403642.9039, 69, 0, 4027.179, 4754.872, 4041.538, 4081.026, 4022.564, 450, 0, []
1630403642.9117, 70, 0, 4041.538, 4804.103, 4021.026, 4104.103, 4034.872, 67, 0, []
1630403642.9197, 71, 0, 4037.949, 4844.103, 4038.974, 4089.744, 4024.103, 450, 0, []
1630403642.9276, 72, 0, 4021.026, 4800.513, 4032.821, 4069.231, 4004.103, 450, 0, []
1630403642.9356, 73, 0, 4023.59, 4685.128, 4017.949, 4053.846, 4006.667, 16187, 0, []
1630403642.9435, 74, 0, 4036.923, 4652.308, 4060.513, 4059.487, 4028.205, 450, 0, []
1630403642.9514, 75, 0, 4060.513, 4705.641, 4042.051, 4094.359, 4060.513, 16240, 0, []
1630403642.9593, 76, 0, 4069.231, 4652.821, 4055.385, 4093.846, 4058.974, 450, 0, []
1630403642.9673, 77, 0, 4057.436, 4603.59, 4053.846, 4060, 4026.667, 450, 0, []
1630403642.9752, 78, 0, 4053.846, 4688.718, 4032.821, 4068.205, 4016.923, 450, 0, []
1630403642.983, 79, 0, 4060, 4700.513, 4075.385, 4104.103, 4036.923, 16240, 0, []
1630403642.9908, 80, 0, 4043.59, 4630.256, 4033.846, 4093.846, 4040.513, 450, 0, []
1630403642.9986, 81, 0, 4010.769, 4673.846, 4015.897, 4053.333, 4020.513, 450, 0, []
1630403643.0065, 82, 0, 4010.256, 4727.692, 4039.487, 4043.077, 4015.897, 450, 0, []
1630403643.0143, 83, 0, 4043.077, 4707.692, 4033.333, 4056.41, 4028.205, 16240, 0, []
1630403643.0223, 84, 0, 4064.615, 4772.308, 4060, 4066.667, 4031.282, 450, 0, []
1630403643.0302, 85, 0, 4057.949, 4813.333, 4015.897, 4072.308, 4026.667, 450, 0, []
1630403643.0381, 86, 0, 4054.359, 4705.128, 4018.974, 4085.128, 4044.103, 450, 0, []
1630403643.046, 87, 0, 4066.154, 4641.538, 4062.564, 4092.821, 4062.564, 16240, 0, []
1630403643.054, 88, 0, 4073.333, 4654.359, 4028.205, 4082.051, 4049.231, 450, 0, []
1630403643.0619, 89, 0, 4084.103, 4534.359, 4052.821, 4092.821, 4050.256, 450, 0, []
1630403643.0699, 90, 0, 4095.385, 4302.051, 4053.846, 4122.564, 4081.538, 450, 0, []
1630403643.0777, 91, 0, 4100, 4186.154, 4054.872, 4141.026, 4101.026, 16240, 0, []
1630403643.0857, 92, 0, 4110.769, 4147.692, 4076.923, 4148.718, 4102.051, 450, 0, []
1630403643.0936, 93, 0, 4131.282, 4061.538, 4044.615, 4145.641, 4107.692, 450, 0, []
1630403643.1016, 94, 0, 4142.564, 3986.667, 4075.385, 4147.692, 4118.462, 450, 0, []
1630403643.1095, 95, 0, 4132.308, 3955.897, 4066.667, 4155.385, 4125.641, 16240, 0, []
1630403643.1174, 96, 0, 4115.897, 3914.359, 4045.641, 4147.179, 4125.641, 450, 0, []
1630403643.1253, 97, 0, 4114.359, 3877.436, 4072.308, 4129.744, 4113.846, 450, 0, []
1630403643.1331, 98, 0, 4127.692, 3875.385, 4052.308, 4136.41, 4112.821, 450, 0, []
1630403643.141, 99, 0, 4142.051, 3869.231, 4081.538, 4160, 4134.359, 16240, 0, []
1630403643.1488, 100, 0, 4143.077, 3837.949, 4071.795, 4160.513, 4150.256, 450, 0, []
1630403643.1566, 101, 0, 4126.667, 3798.462, 4031.282, 4125.641, 4137.949, 450, 0, []
1630403643.1644, 102, 0, 4129.231, 3826.667, 4062.051, 4107.692, 4130.256, 450, 0, []
1630403643.1724, 103, 0, 4159.487, 3856.41, 4050.256, 4135.897, 4143.077, 16240, 0, []
1630403643.1803, 104, 0, 4154.359, 3802.564, 4053.846, 4154.359, 4141.026, 450, 0, []
1630403643.1883, 105, 0, 4143.077, 3800.513, 4048.718, 4151.795, 4147.692, 450, 0, []
1630403643.1961, 106, 0, 4178.974, 3837.436, 4060.513, 4175.385, 4188.205, 450, 0, []
1630403643.2041, 107, 0, 4184.615, 3697.436, 4109.231, 4181.538, 4184.615, 16240, 0, []
1630403643.212, 108, 0, 4150.769, 3544.615, 4051.795, 4153.333, 4145.128, 450, 0, []
1630403643.22, 109, 0, 4147.692, 3684.103, 4041.026, 4149.231, 4153.333, 450, 0, []
1630403643.2279, 110, 0, 4155.897, 3897.949, 4059.487, 4152.821, 4173.846, 450, 0, []
1630403643.2358, 111, 0, 4166.667, 3958.974, 4046.667, 4152.308, 4171.282, 16240, 0, []
1630403643.2437, 112, 0, 4199.487, 3981.026, 4092.308, 4181.026, 4188.718, 450, 0, []
1630403643.2517, 113, 0, 4208.205, 3958.974, 4080, 4201.026, 4217.949, 450, 0, []
1630403643.2596, 114, 0, 4176.923, 3790.256, 4079.487, 4172.821, 4203.077, 450, 0, []
1630403643.2674, 115, 0, 4162.051, 3633.846, 4082.564, 4148.718, 4170.256, 16240, 0, []
1630403643.2752, 116, 0, 4181.538, 3647.692, 4060.513, 4172.308, 4182.564, 450, 0, []
1630403643.283, 117, 0, 4190.256, 3650.769, 4100.513, 4197.949, 4215.385, 450, 0, []
1630403643.2909, 118, 0, 4185.128, 3603.077, 4079.487, 4183.59, 4220, 450, 0, []
1630403643.2987, 119, 0, 4191.795, 3725.641, 4078.974, 4162.051, 4201.026, 16240, 0, []
1630403643.3066, 120, 0, 4193.333, 3996.41, 4091.282, 4168.205, 4190.256, 450, 0, []
1630403643.3143, 121, 0, 4173.846, 4159.487, 4048.718, 4174.872, 4192.821, 450, 0, []
1630403643.3222, 122, 0, 4178.974, 4166.667, 4088.205, 4175.897, 4201.026, 450, 0, []
1630403643.33, 123, 0, 4228.718, 4187.692, 4093.846, 4210.256, 4226.667, 16240, 0, []
1630403643.338, 124, 0, 4234.359, 4190.769, 4072.308, 4227.179, 4237.436, 450, 0, []
1630403643.3459, 125, 0, 4183.077, 4096.923, 4071.795, 4185.128, 4204.103, 450, 0, []
1630403643.3538, 126, 0, 4183.077, 4044.103, 4051.282, 4169.231, 4183.59, 450, 0, []
1630403643.3617, 127, 0, 4224.615, 4127.179, 4090.769, 4203.077, 4209.231, 16240, 0, []
1630403643.3697, 128, 0, 4226.154, 4243.59, 4078.974, 4213.846, 4231.795, 450, 0, []
1630403643.3776, 0, 0, 4209.231, 4240.513, 4069.744, 4191.795, 4215.897, 450, 0, []
1630403643.3856, 1, 0, 4218.974, 4181.538, 4100.513, 4183.59, 4209.744, 450, 0, []
1630403643.3934, 2, 0, 4225.128, 4243.077, 4077.436, 4188.718, 4225.641, 16205, 0, []
1630403643.4014, 3, 0, 4208.718, 4337.949, 4093.846, 4187.179, 4214.359, 450, 0, []
1630403643.4093, 4, 0, 4202.564, 4271.282, 4068.718, 4180, 4193.846, 16184, 0, []
1630403643.4172, 5, 0, 4209.744, 4126.154, 4060.513, 4179.487, 4208.718, 450, 0, []
1630403643.4251, 6, 0, 4227.692, 4085.641, 4109.231, 4193.846, 4236.41, 81, 0, []
1630403643.4329, 7, 0, 4233.333, 4079.487, 4069.744, 4194.359, 4224.103, 450, 0, []
1630403643.4407, 8, 0, 4211.795, 4009.744, 4075.385, 4176.923, 4201.026, 450, 0, []
1630403643.4485, 9, 0, 4205.128, 3958.462, 4084.615, 4172.308, 4210.256, 16190, 0, []
1630403643.4564, 10, 0, 4236.923, 3968.205, 4084.615, 4195.385, 4229.744, 450, 0, []
1630403643.4643, 11, 0, 4270.256, 3965.128, 4124.615, 4222.051, 4252.821, 16242, 0, []
1630403643.4722, 12, 0, 4271.282, 3918.974, 4098.462, 4222.564, 4270.769, 450, 0, []
1630403643.48, 13, 0, 4250.769, 3888.718, 4107.179, 4212.308, 4251.282, 450, 0, []
1630403643.4878, 14, 0, 4229.231, 3883.59, 4090.769, 4203.59, 4227.179, 450, 0, []
1630403643.4958, 15, 0, 4216.41, 3864.103, 4064.615, 4189.744, 4230.256, 16242, 0, []
1630403643.5037, 16, 0, 4242.051, 3814.359, 4123.59, 4203.077, 4247.692, 0, 0, []
1630403643.5116, 17, 0, 4277.949, 3712.821, 4101.026, 4230.769, 4272.821, 0, 0, []
1630403643.5195, 18, 0, 4262.051, 3666.154, 4086.667, 4220, 4274.872, 0, 0, []
1630403643.5274, 19, 0, 4257.436, 3724.103, 4107.179, 4220, 4262.051, 0, 0, []
1630403643.5354, 20, 0, 4297.949, 3707.692, 4098.462, 4260.513, 4290.256, 0, 0, []
1630403643.5433, 21, 0, 4295.385, 3680, 4118.974, 4264.103, 4305.128, 0, 0, []
1630403643.5513, 22, 0, 4266.667, 3908.718, 4091.795, 4230.769, 4272.821, 0, 0, []
1630403643.5591, 23, 0, 4280, 4230.256, 4109.744, 4234.872, 4276.41, 0, 0, []
1630403643.5671, 24, 0, 4294.872, 4392.308, 4128.205, 4255.385, 4302.051, 0, 0, []
1630403643.575, 25, 0, 4278.462, 4509.744, 4087.179, 4251.795, 4284.615, 0, 0, []
1630403643.583, 26, 0, 4274.872, 4639.487, 4120.513, 4251.795, 4274.359, 0, 0, []
1630403643.5909, 27, 0, 4293.846, 4704.615, 4112.308, 4271.282, 4300, 0, 0, []
1630403643.5986, 28, 0, 4294.359, 4707.179, 4103.077, 4278.974, 4308.718, 0, 0, []
1630403643.6065, 29, 0, 4283.077, 4712.821, 4122.564, 4268.205, 4298.462, 0, 0, []
1630403643.6143, 30, 0, 4291.282, 4715.385, 4090.256, 4264.615, 4306.154, 0, 0, []
1630403643.6222, 31, 0, 4295.897, 4552.308, 4109.231, 4266.667, 4304.615, 0, 0, []
1630403643.63, 32, 0, 4281.026, 4256.923, 4102.564, 4267.179, 4286.667, 0, 0, []
1630403643.6379, 33, 0, 4284.615, 4120.513, 4105.641, 4273.846, 4295.897, 0, 0, []
1630403643.6458, 34, 0, 4302.051, 4195.385, 4131.282, 4266.667, 4314.359, 0, 0, []
1630403643.6538, 35, 0, 4288.205, 4230.256, 4086.667, 4236.923, 4300, 0, 0, []
1630403643.6617, 36, 0, 4277.436, 4210.256, 4110.256, 4246.154, 4287.692, 0, 0, []
1630403643.6697, 37, 0, 4297.949, 4251.282, 4120.513, 4291.282, 4304.615, 0, 0, []
1630403643.6775, 38, 0, 4291.282, 4298.462, 4094.872, 4282.051, 4298.974, 0, 0, []
1630403643.6855, 39, 0, 4268.205, 4296.41, 4111.795, 4247.179, 4281.026, 0, 0, []
1630403643.6934, 40, 0, 4283.077, 4234.872, 4104.615, 4263.077, 4294.359, 0, 0, []
1630403643.7014, 41, 0, 4295.897, 4211.795, 4136.41, 4289.231, 4306.154, 0, 0, []
1630403643.7093, 42, 0, 4287.179, 4221.026, 4123.077, 4277.436, 4302.564, 0, 0, []
1630403643.7172, 43, 0, 4286.667, 4155.897, 4098.462, 4258.974, 4301.026, 0, 0, []
1630403643.7251, 44, 0, 4285.641, 4066.154, 4139.487, 4260, 4300, 0, 0, []
1630403643.7329, 45, 0, 4289.744, 3987.692, 4114.872, 4268.718, 4297.949, 0, 0, []
1630403643.7408, 46, 0, 4313.846, 3885.128, 4128.718, 4275.897, 4311.282, 0, 0, []
1630403643.7486, 47, 0, 4326.154, 3790.769, 4138.462, 4284.103, 4329.231, 0, 0, []
1630403643.7565, 48, 0, 4316.41, 3744.615, 4105.641, 4282.564, 4322.564, 0, 0, []
1630403643.7642, 49, 0, 4328.205, 3774.872, 4136.41, 4288.205, 4326.154, 0, 0, []
1630403643.7721, 50, 0, 4351.795, 3929.231, 4127.179, 4296.923, 4353.333, 0, 0, []
1630403643.7799, 51, 0, 4356.923, 4083.59, 4136.923, 4300, 4364.103, 0, 0, []
1630403643.7878, 52, 0, 4338.462, 4128.205, 4132.821, 4294.359, 4344.103, 0, 0, []
1630403643.7956, 53, 0, 4310.769, 4153.333, 4094.359, 4276.923, 4323.59, 0, 0, []
1630403643.8035, 54, 0, 4312.821, 4167.692, 4140, 4277.436, 4327.692, 0, 0, []
1630403643.8114, 55, 0, 4330.769, 4180, 4133.846, 4297.949, 4338.974, 0, 0, []
1630403643.8194, 56, 0, 4324.103, 4241.026, 4129.744, 4306.667, 4342.051, 0, 0, []
1630403643.8273, 57, 0, 4313.846, 4278.462, 4143.077, 4299.487, 4343.59, 0, 0, []
1630403643.8353, 58, 0, 4315.385, 4273.846, 4115.897, 4301.538, 4340.513, 0, 0, []
1630403643.8431, 59, 0, 4307.692, 4313.846, 4149.231, 4298.974, 4324.103, 0, 0, []
1630403643.8511, 60, 0, 4300, 4334.872, 4137.436, 4284.103, 4324.103, 0, 0, []
1630403643.859, 61, 0, 4291.282, 4281.026, 4123.59, 4276.41, 4325.128, 0, 0, []
1630403643.867, 62, 0, 4285.128, 4289.744, 4132.821, 4280, 4308.205, 0, 0, []
1630403643.8749, 63, 0, 4307.179, 4378.974, 4105.641, 4298.974, 4323.077, 0, 0, []
1630403643.8826, 64, 0, 4318.462, 4349.744, 4137.949, 4314.359, 4337.949, 450, 0, []
1630403643.8905, 65, 0, 4295.385, 4189.744, 4125.128, 4306.667, 4315.385, 450, 0, []
1630403643.8983, 66, 0, 4283.59, 4117.949, 4116.41, 4302.051, 4301.026, 16230, 0, []
1630403643.9062, 67, 0, 4305.641, 4203.077, 4160, 4322.051, 4325.641, 450, 0, []
1630403643.914, 68, 0, 4327.692, 4363.077, 4135.897, 4324.103, 4358.974, 16171, 0, []
1630403643.9218, 69, 0, 4326.667, 4486.667, 4150.256, 4304.103, 4360, 450, 0, []
1630403643.9296, 70, 0, 4305.641, 4510.769, 4137.436, 4292.821, 4337.949, 79, 0, []
1630403643.9375, 71, 0, 4287.179, 4531.795, 4108.205, 4282.051, 4315.385, 450, 0, []
1630403643.9453, 72, 0, 4288.718, 4614.872, 4137.436, 4285.641, 4309.231, 450, 0, []
1630403643.9533, 73, 0, 4306.667, 4651.282, 4130.769, 4317.949, 4323.59, 16195, 0, []
1630403643.9611, 74, 0, 4327.692, 4603.077, 4163.59, 4343.077, 4346.667, 450, 0, []
1630403643.9691, 75, 0, 4332.821, 4614.359, 4152.821, 4327.692, 4351.795, 16232, 0, []
1630403643.977, 76, 0, 4324.615, 4698.974, 4118.974, 4308.718, 4336.41, 450, 0, []
1630403643.985, 77, 0, 4314.359, 4685.641, 4150.256, 4300.513, 4325.128, 450, 0, []
1630403643.9929, 78, 0, 4316.923, 4591.282, 4122.564, 4286.154, 4325.128, 450, 0, []
1630403644.0008, 79, 0, 4324.103, 4573.846, 4130.769, 4282.564, 4331.282, 16232, 0, []
1630403644.0087, 80, 0, 4300.513, 4604.615, 4124.103, 4276.923, 4311.795, 450, 0, []
1630403644.0167, 81, 0, 4276.41, 4534.872, 4094.872, 4270.769, 4289.231, 450, 0, []
1630403644.0246, 82, 0, 4305.641, 4427.179, 4149.231, 4296.923, 4312.308, 450, 0, []
1630403644.0324, 83, 0, 4337.436, 4390.256, 4138.974, 4325.128, 4339.487, 16232, 0, []
1630403644.0402, 84, 0, 4311.795, 4266.154, 4133.333, 4303.59, 4324.615, 450, 0, []
1630403644.048, 85, 0, 4292.821, 4077.949, 4132.308, 4264.103, 4310.769, 450, 0, []
1630403644.0559, 86, 0, 4307.179, 4127.692, 4098.974, 4255.385, 4320.513, 450, 0, []
1630403644.0637, 87, 0, 4310.769, 4293.333, 4135.385, 4268.205, 4321.538, 16232, 0, []
1630403644.0716, 88, 0, 4313.846, 4224.615, 4133.333, 4283.59, 4321.538, 450, 0, []
1630403644.0793, 89, 0, 4326.154, 4103.59, 4147.692, 4291.282, 4333.846, 450, 0, []
1630403644.0873, 90, 0, 4318.974, 4101.538, 4150.256, 4281.538, 4330.256, 450, 0, []
1630403644.0952, 91, 0, 4291.282, 4103.077, 4101.026, 4268.205, 4304.615, 16232, 0, []
1630403644.1031, 92, 0, 4292.821, 4260, 4136.41, 4277.949, 4299.487, 450, 0, []
1630403644.1109, 93, 0, 4327.692, 4492.821, 4142.564, 4302.051, 4330.256, 450, 0, []
1630403644.1189, 94, 0, 4330.769, 4502.051, 4138.462, 4287.179, 4336.41, 450, 0, []
1630403644.1267, 95, 0, 4306.154, 4482.564, 4137.949, 4246.667, 4307.692, 16232, 0, []
1630403644.1347, 96, 0, 4303.59, 4524.615, 4105.641, 4236.41, 4298.974, 450, 0, []
1630403644.1426, 97, 0, 4298.462, 4484.103, 4142.564, 4241.538, 4292.821, 450, 0, []
1630403644.1506, 98, 0, 4277.949, 4451.282, 4118.462, 4233.846, 4266.667, 450, 0, []
1630403644.1585, 99, 0, 4286.667, 4315.385, 4104.103, 4243.59, 4271.282, 16232, 0, []
1630403644.1664, 100, 0, 4307.692, 4055.897, 4151.282, 4268.718, 4303.077, 450, 0, []
1630403644.1743, 101, 0, 4303.59, 4048.205, 4126.667, 4280.513, 4313.333, 450, 0, []
1630403644.1822, 102, 0, 4288.718, 4176.923, 4143.59, 4276.923, 4302.051, 450, 0, []
1630403644.1901, 103, 0, 4287.692, 4055.385, 4138.462, 4254.872, 4296.41, 16232, 0, []
1630403644.1979, 104, 0, 4289.744, 3933.846, 4113.846, 4227.179, 4287.179, 450, 0, []
1630403644.2057, 105, 0, 4284.615, 4134.872, 4144.615, 4230.769, 4276.41, 450, 0, []
1630403644.2135, 106, 0, 4295.385, 4418.974, 4124.615, 4260, 4287.692, 450, 0, []
1630403644.2214, 107, 0, 4298.974, 4546.154, 4134.872, 4269.231, 4302.564, 16232, 0, []
1630403644.2292, 108, 0, 4271.795, 4574.359, 4127.179, 4257.949, 4293.846, 450, 0, []
1630403644.2371, 109, 0, 4268.718, 4573.333, 4116.41, 4277.436, 4293.846, 450, 0, []
1630403644.2448, 110, 0, 4300, 4549.744, 4165.128, 4312.821, 4318.462, 450, 0, []
1630403644.2527, 111, 0, 4289.744, 4523.59, 4129.231, 4281.026, 4308.205, 16232, 0, []
1630403644.2605, 112, 0, 4249.744, 4473.333, 4126.667, 4218.974, 4279.487, 450, 0, []
1630403644.2685, 113, 0, 4249.231, 4375.897, 4138.974, 4213.846, 4288.205, 450, 0, []
1630403644.2764, 114, 0, 4260.513, 4262.051, 4113.333, 4216.41, 4280.513, 450, 0, []
1630403644.2843, 115, 0, 4264.615, 4109.231, 4133.333, 4205.128, 4268.718, 16232, 0, []
1630403644.2922, 116, 0, 4279.487, 3969.231, 4114.872, 4231.795, 4303.59, 450, 0, []
1630403644.3002, 117, 0, 4284.103, 3917.436, 4133.333, 4262.051, 4304.615, 450, 0, []
1630403644.3081, 118, 0, 4265.641, 3886.667, 4140, 4252.821, 4265.641, 450, 0, []
1630403644.3161, 119, 0, 4241.538, 3842.051, 4117.949, 4241.026, 4262.564, 16232, 0, []
1630403644.3239, 120, 0, 4218.462, 3792.308, 4145.128, 4232.308, 4248.205, 450, 0, []
1630403644.3319, 121, 0, 4217.436, 3757.436, 4110.769, 4225.128, 4232.308, 450, 0, []
1630403644.3398, 122, 0, 4242.564, 3845.128, 4136.41, 4243.077, 4271.795, 450, 0, []
1630403644.3476, 123, 0, 4263.077, 3946.667, 4161.026, 4253.333, 4294.359, 16232, 0, []
1630403644.3555, 124, 0, 4269.231, 3851.282, 4110.769, 4245.128, 4282.564, 450, 0, []
1630403644.3632, 125, 0, 4270.256, 3768.718, 4143.077, 4251.795, 4295.385, 450, 0, []
1630403644.3711, 126, 0, 4268.718, 3935.897, 4130.769, 4252.821, 4298.974, 450, 0, []
1630403644.3789, 127, 0, 4264.103, 4120.513, 4118.974, 4246.154, 4276.923, 16232, 0, []
1630403644.3868, 128, 0, 4256.41, 4105.128, 4137.436, 4256.41, 4275.897, 450, 0, []
1630403644.3946, 0, 0, 4250.256, 4015.385, 4105.641, 4254.872, 4278.462, 450, 0, []
1630403644.4024, 1, 0, 4248.205, 3991.282, 4134.872, 4244.103, 4270.256, 450, 0, []
1630403644.4102, 2, 0, 4254.359, 4066.154, 4137.949, 4265.641, 4285.641, 16234, 0, []
1630403644.4182, 3, 0, 4259.487, 4127.692, 4130.769, 4271.282, 4291.282, 450, 0, []
1630403644.4261, 4, 0, 4250.256, 4096.923, 4132.821, 4233.846, 4279.487, 16161, 0, []
1630403644.4341, 5, 0, 4244.615, 4161.538, 4103.59, 4230.256, 4288.205, 450, 0, []
1630403644.4419, 6, 0, 4252.308, 4350.769, 4148.205, 4261.538, 4289.231, 62, 0, []
1630403644.4498, 7, 0, 4262.051, 4464.615, 4141.026, 4272.821, 4285.641, 450, 0, []
1630403644.4577, 8, 0, 4271.282, 4524.615, 4127.179, 4279.487, 4310.769, 450, 0, []
1630403644.4656, 9, 0, 4268.205, 4591.282, 4150.256, 4288.205, 4312.821, 16194, 0, []
1630403644.4735, 10, 0, 4251.795, 4585.641, 4111.795, 4276.923, 4288.205, 450, 0, []
1630403644.4813, 11, 0, 4256.41, 4561.538, 4147.179, 4265.128, 4292.821, 16227, 0, []
1630403644.4892, 12, 0, 4280.513, 4585.128, 4150.769, 4263.077, 4310.769, 450, 0, []
1630403644.4971, 13, 0, 4289.231, 4597.949, 4129.231, 4263.077, 4309.744, 450, 0, []
1630403644.505, 14, 0, 4268.718, 4608.205, 4165.641, 4264.615, 4290.256, 450, 0, []
1630403644.5128, 15, 0, 4253.333, 4606.154, 4134.872, 4268.205, 4280, 16227, 0, []
1630403644.5207, 16, 0, 4289.231, 4597.949, 4157.949, 4302.051, 4317.436, 0, 0, []
1630403644.5284, 17, 0, 4338.974, 4696.41, 4176.923, 4335.897, 4367.692, 0, 0, []
1630403644.5363, 18, 0, 4346.154, 4792.821, 4151.795, 4330.256, 4371.282, 0, 0, []
1630403644.5441, 19, 0, 4331.795, 4750.769, 4172.821, 4322.051, 4358.462, 0, 0, []
1630403644.552, 20, 0, 4322.051, 4739.487, 4136.41, 4316.923, 4348.718, 0, 0, []
1630403644.5598, 21, 0, 4313.333, 4832.821, 4140, 4300.513, 4335.897, 0, 0, []
1630403644.5676, 22, 0, 4330.256, 4864.103, 4168.205, 4313.333, 4350.769, 0, 0, []
1630403644.5754, 23, 0, 4352.308, 4788.205, 4151.282, 4345.641, 4362.564, 0, 0, []
1630403644.5834, 24, 0, 4329.744, 4686.667, 4156.41, 4336.41, 4345.128, 0, 0, []
1630403644.5913, 25, 0, 4313.846, 4669.231, 4123.077, 4317.436, 4337.436, 0, 0, []
1630403644.5993, 26, 0, 4317.436, 4753.333, 4146.667, 4318.462, 4338.462, 0, 0, []
1630403644.6071, 27, 0, 4316.923, 4807.179, 4171.282, 4316.41, 4335.385, 0, 0, []
1630403644.6151, 28, 0, 4316.41, 4786.154, 4129.231, 4306.667, 4335.385, 0, 0, []
1630403644.623, 29, 0, 4326.154, 4799.487, 4158.462, 4310.256, 4335.385, 0, 0, []
1630403644.631, 30, 0, 4350.769, 4828.205, 4154.359, 4333.333, 4356.41, 0, 0, []
1630403644.6389, 31, 0, 4349.231, 4789.744, 4143.59, 4325.128, 4367.692, 0, 0, []
1630403644.6468, 32, 0, 4324.615, 4787.692, 4148.718, 4301.538, 4342.564, 0, 0, []
1630403644.6547, 33, 0, 4341.026, 4838.462, 4137.436, 4329.231, 4349.744, 0, 0, []
1630403644.6626, 34, 0, 4369.744, 4794.872, 4185.641, 4357.436, 4376.923, 0, 0, []
1630403644.6705, 35, 0, 4353.846, 4698.974, 4150.256, 4325.641, 4357.949, 0, 0, []
1630403644.6783, 36, 0, 4351.282, 4692.821, 4132.308, 4315.897, 4352.308, 0, 0, []
1630403644.6861, 37, 0, 4384.615, 4742.051, 4184.103, 4349.231, 4387.692, 0, 0, []
1630403644.6939, 38, 0, 4387.179, 4709.744, 4161.026, 4352.308, 4389.231, 0, 0, []
1630403644.7018, 39, 0, 4362.564, 4625.128, 4168.718, 4329.744, 4366.154, 0, 0, []
1630403644.7096, 40, 0, 4354.359, 4636.923, 4150.256, 4317.949, 4365.128, 0, 0, []
1630403644.7175, 41, 0, 4354.872, 4727.692, 4133.333, 4319.487, 4369.231, 0, 0, []
1630403644.7252, 42, 0, 4346.154, 4731.282, 4153.333, 4318.462, 4355.897, 0, 0, []
1630403644.7331, 43, 0, 4335.385, 4643.077, 4120, 4304.615, 4340, 0, 0, []
1630403644.7409, 44, 0, 4341.026, 4635.897, 4152.308, 4313.333, 4346.667, 0, 0, []
1630403644.7489, 45, 0, 4360.513, 4708.205, 4157.436, 4342.564, 4375.385, 0, 0, []
1630403644.7568, 46, 0, 4347.692, 4682.564, 4129.744, 4324.103, 4363.59, 0, 0, []
1630403644.7647, 47, 0, 4318.974, 4572.821, 4150.256, 4294.872, 4321.538, 0, 0, []
1630403644.7726, 48, 0, 4330.256, 4557.436, 4135.897, 4317.949, 4324.615, 0, 0, []
1630403644.7806, 49, 0, 4363.077, 4606.667, 4176.923, 4341.026, 4357.436, 0, 0, []
1630403644.7885, 50, 0, 4372.821, 4552.308, 4171.282, 4331.795, 4366.667, 0, 0, []
1630403644.7965, 51, 0, 4355.385, 4440.513, 4128.718, 4320.513, 4350.256, 0, 0, []
1630403644.8043, 52, 0, 4348.718, 4405.128, 4171.282, 4316.41, 4347.692, 0, 0, []
1630403644.8123, 53, 0, 4362.564, 4382.564, 4154.872, 4311.282, 4362.564, 0, 0, []
1630403644.8202, 54, 0, 4356.41, 4322.051, 4155.385, 4311.795, 4362.051, 0, 0, []
1630403644.828, 55, 0, 4334.359, 4268.718, 4159.487, 4309.231, 4348.205, 0, 0, []
1630403644.8359, 56, 0, 4324.103, 4188.718, 4137.949, 4296.923, 4332.308, 0, 0, []
1630403644.8437, 57, 0, 4330.256, 4088.718, 4173.333, 4294.359, 4331.282, 0, 0, []
1630403644.8515, 58, 0, 4335.385, 4025.641, 4151.282, 4291.795, 4330.769, 0, 0, []
1630403644.8593, 59, 0, 4317.949, 3990.256, 4140, 4270.769, 4311.282, 0, 0, []
1630403644.8672, 60, 0, 4310.769, 3996.41, 4135.897, 4266.667, 4307.692, 0, 0, []
1630403644.875, 61, 0, 4333.846, 3998.974, 4127.692, 4298.974, 4333.846, 0, 0, []
1630403644.883, 62, 0, 4346.154, 3911.282, 4174.872, 4315.897, 4347.692, 0, 0, []
1630403644.8908, 63, 0, 4340.513, 3838.462, 4141.538, 4294.359, 4338.974, 0, 0, []
1630403644.8988, 64, 0, 4335.385, 3894.872, 4136.41, 4277.949, 4333.846, 450, 0, []
1630403644.9067, 65, 0, 4332.821, 3942.564, 4157.949, 4285.641, 4332.821, 450, 0, []
1630403644.9147, 66, 0, 4331.282, 3863.59, 4133.333, 4293.846, 4326.154, 16235, 0, []
1630403644.9226, 67, 0, 4336.41, 3784.103, 4174.872, 4292.308, 4327.692, 450, 0, []
1630403644.9305, 68, 0, 4352.821, 3821.026, 4173.846, 4301.538, 4350.256, 16171, 0, []
1630403644.9384, 69, 0, 4370.256, 3916.923, 4171.282, 4328.205, 4374.872, 450, 0, []
1630403644.9464, 70, 0, 4354.359, 3933.333, 4171.795, 4327.692, 4354.359, 62, 0, []
1630403644.9543, 71, 0, 4332.821, 3932.308, 4134.872, 4300.513, 4324.615, 450, 0, []
1630403644.9623, 72, 0, 4365.641, 4039.487, 4185.128, 4316.41, 4354.359, 450, 0, []
1630403644.9701, 73, 0, 4384.103, 4088.718, 4172.821, 4332.821, 4373.846, 16181, 0, []
1630403644.9781, 74, 0, 4343.077, 3998.974, 4135.385, 4304.103, 4335.897, 450, 0, []
1630403644.986, 75, 0, 4321.538, 3994.359, 4157.949, 4294.359, 4312.821, 16231, 0, []
1630403644.9938, 76, 0, 4330.769, 4121.538, 4143.59, 4301.026, 4321.538, 450, 0, []
1630403645.0017, 77, 0, 4330.769, 4190.256, 4172.308, 4287.179, 4323.077, 450, 0, []
1630403645.0094, 78, 0, 4337.436, 4277.436, 4167.179, 4283.077, 4330.769, 450, 0, []
1630403645.0173, 79, 0, 4345.128, 4373.846, 4151.282, 4287.692, 4342.564, 16231, 0, []
1630403645.0251, 80, 0, 4337.436, 4230.256, 4183.59, 4284.615, 4331.795, 450, 0, []
1630403645.033, 81, 0, 4337.436, 4108.205, 4158.462, 4298.974, 4329.744, 450, 0, []
1630403645.0408, 82, 0, 4341.538, 4271.795, 4184.615, 4314.359, 4335.385, 450, 0, []
1630403645.0487, 83, 0, 4330.769, 4448.205, 4192.821, 4296.41, 4320.513, 16231, 0, []
1630403645.0566, 84, 0, 4313.333, 4474.359, 4150.256, 4269.744, 4303.077, 450, 0, []
1630403645.0646, 85, 0, 4311.795, 4512.821, 4172.308, 4273.846, 4303.59, 450, 0, []
1630403645.0725, 86, 0, 4332.821, 4588.205, 4164.103, 4308.205, 4330.769, 450, 0, []
1630403645.0805, 87, 0, 4340.513, 4609.231, 4178.974, 4320.513, 4341.026, 16231, 0, []
1630403645.0883, 88, 0, 4318.462, 4606.154, 4170.769, 4299.487, 4316.41, 450, 0, []
1630403645.0963, 89, 0, 4310.256, 4594.359, 4134.359, 4294.359, 4300.513, 450, 0, []
1630403645.1042, 90, 0, 4324.103, 4547.692, 4177.436, 4304.103, 4303.59, 450, 0, []
1630403645.112, 91, 0, 4322.051, 4422.051, 4155.897, 4290.256, 4313.333, 16231, 0, []
1630403645.1199, 92, 0, 4312.308, 4262.051, 4150.769, 4273.333, 4313.333, 450, 0, []
1630403645.1276, 93, 0, 4308.205, 4193.846, 4176.41, 4282.051, 4298.974, 450, 0, []
1630403645.1355, 94, 0, 4305.641, 4225.641, 4156.41, 4292.821, 4292.821, 450, 0, []
1630403645.1433, 95, 0, 4314.872, 4290.769, 4195.385, 4295.385, 4310.256, 16231, 0, []
1630403645.1512, 96, 0, 4334.359, 4317.436, 4181.538, 4297.436, 4331.282, 450, 0, []
1630403645.159, 97, 0, 4338.462, 4263.077, 4162.564, 4297.949, 4332.821, 450, 0, []
1630403645.1669, 98, 0, 4329.231, 4174.359, 4176.923, 4302.051, 4331.282, 450, 0, []
1630403645.1746, 99, 0, 4329.744, 4152.821, 4155.385, 4309.231, 4331.795, 16231, 0, []
1630403645.1825, 100, 0, 4331.282, 4211.282, 4185.128, 4300.513, 4318.974, 450, 0, []
1630403645.1903, 101, 0, 4327.179, 4290.256, 4163.59, 4280, 4311.282, 450, 0, []
1630403645.1983, 102, 0, 4331.795, 4366.154, 4150.256, 4289.744, 4328.205, 450, 0, []
1630403645.2062, 103, 0, 4331.795, 4453.846, 4183.59, 4313.333, 4335.385, 16231, 0, []
1630403645.2141, 104, 0, 4325.128, 4589.231, 4157.949, 4310.769, 4316.41, 450, 0, []
1630403645.222, 105, 0, 4338.974, 4694.359, 4185.128, 4311.795, 4318.974, 450, 0, []
1630403645.23, 106, 0, 4368.205, 4622.051, 4187.692, 4329.744, 4345.641, 450, 0, []
1630403645.2379, 107, 0, 4377.436, 4509.231, 4179.487, 4340.513, 4354.359, 16231, 0, []
1630403645.2459, 108, 0, 4362.051, 4545.128, 4202.564, 4328.718, 4348.718, 450, 0, []
1630403645.2537, 109, 0, 4344.615, 4555.385, 4157.949, 4302.564, 4330.256, 450, 0, []
1630403645.2617, 110, 0, 4317.949, 4468.718, 4159.487, 4285.128, 4297.949, 450, 0, []
1630403645.2696, 111, 0, 4303.077, 4449.231, 4154.872, 4283.077, 4285.641, 16231, 0, []
1630403645.2776, 112, 0, 4317.949, 4318.974, 4155.385, 4288.205, 4294.359, 450, 0, []
1630403645.2855, 113, 0, 4324.103, 4108.718, 4188.205, 4291.282, 4297.949, 450, 0, []
1630403645.2932, 114, 0, 4314.872, 4173.333, 4143.59, 4289.231, 4299.487, 450, 0, []
1630403645.3011, 115, 0, 4310.769, 4321.538, 4161.538, 4289.231, 4298.462, 16231, 0, []
1630403645.3089, 116, 0, 4326.154, 4297.436, 4179.487, 4300.513, 4306.667, 450, 0, []
1630403645.3168, 117, 0, 4344.615, 4303.59, 4165.641, 4309.744, 4319.487, 450, 0, []
1630403645.3246, 118, 0, 4341.026, 4352.308, 4191.282, 4305.641, 4321.026, 450, 0, []
1630403645.3324, 119, 0, 4335.385, 4298.974, 4157.949, 4307.179, 4324.615, 16231, 0, []
1630403645.3402, 120, 0, 4331.282, 4272.308, 4175.385, 4303.59, 4323.59, 450, 0, []
1630403645.3481, 121, 0, 4324.615, 4323.077, 4186.667, 4294.359, 4311.795, 450, 0, []
1630403645.3559, 122, 0, 4334.872, 4320.513, 4162.564, 4311.795, 4317.436, 450, 0, []
1630403645.3639, 123, 0, 4350.769, 4277.436, 4194.872, 4327.692, 4338.462, 16231, 0, []
1630403645.3717, 124, 0, 4341.026, 4293.846, 4164.103, 4313.846, 4335.897, 450, 0, []
1630403645.3797, 125, 0, 4323.077, 4372.308, 4169.744, 4310.256, 4317.436, 450, 0, []
1630403645.3876, 126, 0, 4330.769, 4427.692, 4196.923, 4326.154, 4316.41, 450, 0, []
1630403645.3956, 127, 0, 4352.821, 4398.462, 4184.615, 4334.872, 4329.231, 16231, 0, []
1630403645.4035, 128, 0, 4343.59, 4301.026, 4198.974, 4316.923, 4325.128, 450, 0, []
1630403645.4114, 0, 0, 4310.256, 4239.487, 4142.564, 4277.436, 4295.385, 450, 0, []
1630403645.4193, 1, 0, 4305.128, 4234.359, 4152.308, 4280, 4289.744, 450, 0, []
1630403645.4272, 2, 0, 4328.205, 4156.923, 4202.564, 4327.692, 4314.359, 16232, 0, []
1630403645.4351, 3, 0, 4328.205, 4016.41, 4176.923, 4337.436, 4317.436, 450, 0, []
1630403645.4429, 4, 0, 4310.769, 4031.282, 4192.821, 4301.538, 4299.487, 16187, 0, []
1630403645.4507, 5, 0, 4316.41, 4217.949, 4168.718, 4283.59, 4301.026, 450, 0, []
1630403645.4585, 6, 0, 4321.026, 4326.154, 4166.154, 4289.231, 4315.897, 62, 0, []
1630403645.4664, 7, 0, 4312.821, 4328.718, 4189.744, 4299.487, 4310.256, 450, 0, []
1630403645.4742, 8, 0, 4320.513, 4349.231, 4161.026, 4316.923, 4304.615, 450, 0, []
1630403645.4821, 9, 0, 4317.436, 4366.154, 4193.846, 4312.821, 4300, 16180, 0, []
1630403645.4898, 10, 0, 4305.641, 4342.564, 4184.615, 4295.897, 4287.692, 450, 0, []
1630403645.4977, 11, 0, 4303.077, 4260, 4167.179, 4295.385, 4287.179, 16238, 0, []
1630403645.5055, 12, 0, 4292.821, 4144.615, 4186.667, 4292.821, 4279.487, 450, 0, []
1630403645.5135, 13, 0, 4287.179, 4084.103, 4164.103, 4292.821, 4270.769, 450, 0, []
1630403645.5214, 14, 0, 4305.128, 4064.615, 4200, 4308.205, 4296.923, 450, 0, []
1630403645.5294, 15, 0, 4324.103, 4012.821, 4189.744, 4308.205, 4327.179, 16238, 0, []
1630403645.5372, 16, 0, 4312.308, 3959.487, 4167.692, 4287.692, 4307.179, 0, 0, []
1630403645.5452, 17, 0, 4289.744, 3967.179, 4202.051, 4277.436, 4272.308, 0, 0, []
1630403645.5531, 18, 0, 4287.692, 3996.923, 4162.564, 4275.897, 4270.256, 0, 0, []
1630403645.5611, 19, 0, 4298.462, 4041.026, 4181.538, 4286.154, 4286.667, 0, 0, []
1630403645.569, 20, 0, 4286.667, 4118.974, 4189.744, 4289.744, 4281.026, 0, 0, []
1630403645.5768, 21, 0, 4260.513, 4133.333, 4148.718, 4267.692, 4247.179, 0, 0, []
1630403645.5847, 22, 0, 4278.974, 4047.692, 4182.051, 4265.641, 4252.821, 0, 0, []
1630403645.5925, 23, 0, 4300, 4002.051, 4169.231, 4271.282, 4278.462, 0, 0, []
1630403645.6004, 24, 0, 4267.179, 4028.718, 4165.128, 4248.205, 4247.179, 0, 0, []
1630403645.6082, 25, 0, 4260.513, 4020.513, 4173.846, 4253.333, 4236.923, 0, 0, []
1630403645.616, 26, 0, 4308.205, 4013.846, 4172.821, 4295.897, 4285.128, 0, 0, []
1630403645.6238, 27, 0, 4317.436, 4032.821, 4191.795, 4308.205, 4296.923, 0, 0, []
1630403645.6317, 28, 0, 4280, 4028.718, 4141.026, 4285.641, 4262.051, 0, 0, []
1630403645.6395, 29, 0, 4278.462, 4069.744, 4156.41, 4276.923, 4254.359, 0, 0, []
1630403645.6474, 30, 0, 4312.821, 4088.718, 4172.821, 4281.026, 4278.462, 0, 0, []
1630403645.6551, 31, 0, 4318.462, 4058.462, 4140.513, 4277.436, 4287.692, 0, 0, []
1630403645.6631, 32, 0, 4307.179, 4139.487, 4176.41, 4282.051, 4278.462, 0, 0, []
1630403645.671, 33, 0, 4321.538, 4274.872, 4155.897, 4302.564, 4281.026, 0, 0, []
1630403645.679, 34, 0, 4329.231, 4251.282, 4154.359, 4309.744, 4284.615, 0, 0, []
1630403645.6869, 35, 0, 4300, 4111.795, 4153.846, 4275.897, 4265.128, 0, 0, []
1630403645.6948, 36, 0, 4286.154, 4004.103, 4119.487, 4245.128, 4255.897, 0, 0, []
1630403645.7027, 37, 0, 4306.667, 3983.59, 4173.846, 4267.179, 4273.846, 0, 0, []
1630403645.7107, 38, 0, 4311.282, 4021.026, 4166.154, 4297.436, 4276.923, 0, 0, []
1630403645.7186, 39, 0, 4305.641, 3978.462, 4157.436, 4299.487, 4268.718, 0, 0, []
1630403645.7266, 40, 0, 4322.564, 3959.487, 4181.538, 4295.897, 4283.077, 0, 0, []
1630403645.7344, 41, 0, 4334.872, 4096.923, 4162.051, 4298.974, 4302.051, 0, 0, []
1630403645.7424, 42, 0, 4318.974, 4155.385, 4198.974, 4301.026, 4288.205, 0, 0, []
1630403645.7503, 43, 0, 4315.385, 4109.231, 4190.256, 4311.282, 4276.923, 0, 0, []
1630403645.7581, 44, 0, 4329.744, 4151.795, 4181.538, 4311.795, 4286.667, 0, 0, []
1630403645.766, 45, 0, 4332.308, 4208.718, 4207.179, 4295.385, 4295.897, 0, 0, []
1630403645.7737, 46, 0, 4322.051, 4194.872, 4171.795, 4291.282, 4295.897, 0, 0, []
1630403645.7816, 47, 0, 4303.59, 4244.103, 4186.154, 4286.154, 4275.897, 0, 0, []
1630403645.7894, 48, 0, 4307.179, 4341.026, 4182.564, 4277.949, 4266.667, 0, 0, []
1630403645.7973, 49, 0, 4324.615, 4345.641, 4178.974, 4283.077, 4278.462, 0, 0, []
1630403645.8051, 50, 0, 4331.282, 4321.026, 4221.538, 4297.436, 4291.282, 0, 0, []
1630403645.8129, 51, 0, 4334.359, 4335.897, 4176.41, 4304.103, 4299.487, 0, 0, []
1630403645.8207, 52, 0, 4310.256, 4321.538, 4166.667, 4286.154, 4282.051, 0, 0, []
1630403645.8287, 53, 0, 4288.205, 4240, 4177.436, 4278.462, 4261.026, 0, 0, []
1630403645.8366, 54, 0, 4318.974, 4132.308, 4174.359, 4305.128, 4282.564, 0, 0, []
1630403645.8446, 55, 0, 4332.821, 4041.538, 4197.949, 4310.769, 4305.128, 0, 0, []
1630403645.8524, 56, 0, 4292.308, 4011.282, 4148.205, 4278.974, 4280.513, 0, 0, []
1630403645.8604, 57, 0, 4276.41, 4022.051, 4159.487, 4280, 4261.026, 0, 0, []
1630403645.8683, 58, 0, 4282.564, 4041.538, 4176.41, 4283.59, 4263.077, 0, 0, []
1630403645.8763, 59, 0, 4272.821, 4096.923, 4143.59, 4262.051, 4260, 0, 0, []
1630403645.8842, 60, 0, 4286.667, 4175.385, 4192.308, 4282.051, 4271.282, 0, 0, []
1630403645.8922, 61, 0, 4309.744, 4240, 4173.333, 4319.487, 4289.231, 0, 0, []
1630403645.9, 62, 0, 4297.436, 4252.308, 4149.231, 4303.59, 4277.436, 0, 0, []
1630403645.9078, 63, 0, 4284.615, 4268.205, 4164.103, 4271.282, 4263.077, 0, 0, []
1630403645.9157, 64, 0, 4302.564, 4324.615, 4152.821, 4278.462, 4287.692, 450, 0, []
1630403645.9235, 65, 0, 4307.179, 4304.103, 4189.231, 4294.359, 4298.974, 450, 0, []
1630403645.9314, 66, 0, 4288.205, 4147.179, 4174.872, 4277.949, 4270.769, 16231, 0, []
1630403645.9391, 67, 0, 4301.538, 4001.026, 4191.282, 4269.744, 4275.385, 450, 0, []
1630403645.947, 68, 0, 4337.436, 3968.718, 4218.974, 4307.179, 4323.59, 16193, 0, []
1630403645.9548, 69, 0, 4329.744, 3959.487, 4172.308, 4328.205, 4332.308, 450, 0, []
1630403645.9627, 70, 0, 4303.077, 3924.103, 4201.538, 4305.128, 4294.872, 66, 0, []
1630403645.9705, 71, 0, 4324.103, 3896.923, 4195.385, 4301.538, 4298.462, 450, 0, []
1630403645.9783, 72, 0, 4341.538, 3901.538, 4185.128, 4310.769, 4325.128, 450, 0, []
1630403645.9861, 73, 0, 4302.564, 3916.41, 4193.333, 4281.538, 4298.974, 16178, 0, []
1630403645.9941, 74, 0, 4270.256, 3889.744, 4149.744, 4252.821, 4265.128, 450, 0, []
1630403646.002, 75, 0, 4280, 3836.41, 4186.667, 4254.872, 4267.179, 16205, 0, []
1630403646.01, 76, 0, 4286.154, 3807.179, 4184.615, 4255.385, 4269.231, 450, 0, []
1630403646.0178, 77, 0, 4256.41, 3804.103, 4166.667, 4240, 4249.744, 450, 0, []
1630403646.0258, 78, 0, 4254.872, 3803.59, 4200.513, 4241.026, 4248.205, 450, 0, []
1630403646.0337, 79, 0, 4303.59, 3794.359, 4183.077, 4274.359, 4284.103, 16205, 0, []
1630403646.0417, 80, 0, 4304.615, 3795.897, 4198.974, 4277.436, 4294.872, 450, 0, []
1630403646.0496, 81, 0, 4289.231, 3801.538, 4186.154, 4260.513, 4282.051, 450, 0, []
1630403646.0573, 82, 0, 4301.538, 3760.513, 4170.769, 4260, 4280.513, 450, 0, []
1630403646.0652, 83, 0, 4296.923, 3752.821, 4203.077, 4263.59, 4286.667, 16205, 0, []
1630403646.073, 84, 0, 4296.923, 3786.667, 4182.564, 4269.744, 4293.846, 450, 0, []
1630403646.0809, 85, 0, 4307.179, 3770.256, 4203.59, 4268.718, 4303.59, 450, 0, []
1630403646.0887, 86, 0, 4292.821, 3757.436, 4187.692, 4258.974, 4305.641, 450, 0, []
1630403646.0965, 87, 0, 4281.538, 3771.282, 4164.615, 4254.359, 4290.769, 16205, 0, []
1630403646.1043, 88, 0, 4296.41, 3760, 4213.333, 4257.949, 4294.872, 450, 0, []
1630403646.1122, 89, 0, 4299.487, 3761.538, 4180, 4253.846, 4310.769, 450, 0, []
1630403646.12, 90, 0, 4304.615, 3782.564, 4191.282, 4266.667, 4312.308, 450, 0, []
1630403646.128, 91, 0, 4303.077, 3748.205, 4186.667, 4263.59, 4292.821, 16205, 0, []
1630403646.1358, 92, 0, 4253.846, 3711.795, 4132.308, 4212.821, 4258.974, 450, 0, []
1630403646.1438, 93, 0, 4252.308, 3733.333, 4189.231, 4215.385, 4265.128, 450, 0, []
1630403646.1517, 94, 0, 4287.692, 3734.872, 4183.077, 4243.077, 4284.103, 450, 0, []
1630403646.1597, 95, 0, 4246.667, 3707.179, 4159.487, 4204.615, 4250.769, 16205, 0, []
1630403646.1676, 96, 0, 4211.282, 3716.923, 4161.026, 4182.564, 4223.59, 450, 0, []
1630403646.1755, 97, 0, 4246.154, 3747.179, 4146.154, 4222.051, 4246.667, 450, 0, []
1630403646.1834, 98, 0, 4231.795, 3726.667, 4171.282, 4218.462, 4245.128, 450, 0, []
1630403646.1914, 99, 0, 4183.59, 3695.385, 4140.513, 4175.385, 4217.436, 16205, 0, []
1630403646.1993, 100, 0, 4205.128, 3710.769, 4163.077, 4173.846, 4220, 450, 0, []
1630403646.2073, 101, 0, 4214.872, 3713.333, 4177.949, 4172.308, 4209.744, 450, 0, []
1630403646.2152, 102, 0, 4183.59, 3703.077, 4124.615, 4163.59, 4200, 450, 0, []
1630403646.2229, 103, 0, 4198.974, 3717.436, 4180, 4193.333, 4233.333, 16205, 0, []
1630403646.2308, 104, 0, 4232.308, 3707.692, 4180, 4211.795, 4247.692, 450, 0, []
1630403646.2386, 105, 0, 4222.564, 3672.308, 4152.308, 4200, 4222.051, 450, 0, []
1630403646.2465, 106, 0, 4205.641, 3674.872, 4158.974, 4195.897, 4222.051, 450, 0, []
1630403646.2543, 107, 0, 4214.359, 3699.487, 4136.41, 4195.897, 4236.41, 16205, 0, []
1630403646.2621, 108, 0, 4226.667, 3688.718, 4180.513, 4201.026, 4225.128, 450, 0, []
1630403646.2699, 109, 0, 4225.128, 3661.538, 4157.949, 4208.718, 4223.077, 450, 0, []
1630403646.2779, 110, 0, 4223.077, 3673.846, 4136.41, 4197.436, 4238.974, 450, 0, []
1630403646.2858, 111, 0, 4250.769, 3730.769, 4174.359, 4195.385, 4253.333, 16205, 0, []
1630403646.2937, 112, 0, 4281.538, 3736.923, 4156.923, 4221.026, 4280, 450, 0, []
1630403646.3014, 113, 0, 4262.564, 3701.538, 4178.462, 4217.436, 4280.513, 450, 0, []
1630403646.3094, 114, 0, 4247.179, 3783.59, 4154.359, 4194.359, 4253.333, 450, 0, []
1630403646.3173, 115, 0, 4258.974, 3944.103, 4145.641, 4206.667, 4257.436, 16205, 0, []
1630403646.3253, 116, 0, 4252.308, 4024.103, 4177.436, 4218.974, 4271.795, 450, 0, []
1630403646.3332, 117, 0, 4243.59, 4066.154, 4138.462, 4213.333, 4257.436, 450, 0, []
1630403646.3411, 118, 0, 4258.974, 4143.077, 4173.333, 4222.564, 4256.41, 450, 0, []
1630403646.349, 119, 0, 4283.077, 4204.103, 4176.923, 4237.949, 4287.179, 16205, 0, []
1630403646.357, 120, 0, 4284.615, 4284.615, 4146.667, 4238.974, 4292.308, 450, 0, []
1630403646.3649, 121, 0, 4262.051, 4424.103, 4163.59, 4217.949, 4265.641, 450, 0, []
1630403646.3727, 122, 0, 4256.41, 4502.051, 4133.846, 4184.103, 4253.333, 450, 0, []
1630403646.3805, 123, 0, 4274.872, 4511.795, 4168.205, 4184.103, 4268.205, 16205, 0, []
1630403646.3883, 124, 0, 4283.077, 4610.769, 4169.744, 4223.077, 4290.769, 450, 0, []
1630403646.3962, 125, 0, 4269.744, 4775.385, 4136.923, 4228.718, 4286.154, 450, 0, []
1630403646.404, 126, 0, 4261.538, 4829.744, 4165.128, 4201.026, 4266.667, 450, 0, []
1630403646.4119, 127, 0, 4268.718, 4764.103, 4134.872, 4198.974, 4269.231, 16205, 0, []
1630403646.4196, 128, 0, 4278.974, 4666.667, 4152.308, 4224.103, 4285.641, 450, 0, []
1630403646.4275, 0, 0, 4274.359, 4638.974, 4157.949, 4230.769, 4283.59, 450, 0, []
1630403646.4353, 1, 0, 4261.538, 4709.744, 4133.333, 4215.897, 4266.154, 450, 0, []
1630403646.4433, 2, 0, 4277.949, 4777.436, 4187.179, 4219.487, 4275.385, 16234, 0, []
1630403646.4512, 3, 0, 4306.154, 4778.462, 4169.744, 4236.923, 4303.077, 450, 0, []
1630403646.459, 4, 0, 4301.026, 4752.308, 4164.103, 4240, 4303.59, 16164, 0, []
1630403646.4669, 5, 0, 4283.59, 4751.282, 4163.077, 4231.795, 4286.667, 450, 0, []
1630403646.4749, 6, 0, 4275.385, 4759.487, 4124.615, 4215.897, 4279.487, 54, 0, []
1630403646.4829, 7, 0, 4280, 4784.615, 4171.795, 4213.846, 4284.103, 450, 0, []
1630403646.4908, 8, 0, 4291.795, 4827.692, 4158.462, 4242.051, 4297.949, 450, 0, []
1630403646.4986, 9, 0, 4297.436, 4832.821, 4157.436, 4253.846, 4312.821, 16188, 0, []
1630403646.5066, 10, 0, 4295.385, 4831.282, 4176.923, 4230.256, 4306.154, 450, 0, []
1630403646.5145, 11, 0, 4286.667, 4845.641, 4131.282, 4218.462, 4292.821, 16225, 0, []
1630403646.5225, 12, 0, 4277.949, 4828.205, 4152.308, 4230.256, 4286.154, 450, 0, []
1630403646.5304, 13, 0, 4271.282, 4815.897, 4144.103, 4233.846, 4279.487, 450, 0, []
1630403646.5381, 14, 0, 4257.949, 4782.051, 4148.718, 4218.974, 4270.769, 450, 0, []
1630403646.546, 15, 0, 4259.487, 4576.41, 4176.41, 4218.974, 4267.179, 16225, 0, []
1630403646.5538, 16, 0, 4276.923, 4330.256, 4132.821, 4233.846, 4277.949, 0, 0, []
1630403646.5617, 17, 0, 4271.795, 4294.359, 4152.821, 4224.615, 4272.308, 0, 0, []
1630403646.5695, 18, 0, 4258.974, 4346.667, 4149.231, 4212.308, 4255.385, 0, 0, []
1630403646.5774, 19, 0, 4268.718, 4329.744, 4138.462, 4217.949, 4262.564, 0, 0, []
1630403646.5851, 20, 0, 4263.59, 4349.231, 4147.692, 4194.872, 4262.564, 0, 0, []
1630403646.593, 21, 0, 4240, 4350.256, 4108.205, 4161.026, 4234.872, 0, 0, []
1630403646.6008, 22, 0, 4255.385, 4273.333, 4163.077, 4194.872, 4246.154, 0, 0, []
1630403646.6087, 23, 0, 4289.231, 4314.872, 4177.949, 4244.103, 4288.718, 0, 0, []
1630403646.6165, 24, 0, 4278.974, 4390.256, 4137.949, 4240.513, 4272.821, 0, 0, []
1630403646.6244, 25, 0, 4256.923, 4259.487, 4154.359, 4226.154, 4244.615, 0, 0, []
1630403646.6323, 26, 0, 4262.564, 4082.051, 4136.41, 4212.308, 4250.256, 0, 0, []
1630403646.6403, 27, 0, 4265.641, 4011.795, 4156.923, 4207.179, 4247.179, 0, 0, []
1630403646.6482, 28, 0, 4247.179, 3916.41, 4145.128, 4213.846, 4244.103, 0, 0, []
1630403646.6562, 29, 0, 4232.308, 3790.256, 4130.256, 4198.974, 4245.128, 0, 0, []
1630403646.664, 30, 0, 4218.462, 3765.128, 4166.667, 4175.385, 4214.872, 0, 0, []
1630403646.6719, 31, 0, 4203.59, 3838.462, 4128.205, 4175.897, 4194.872, 0, 0, []
1630403646.6798, 32, 0, 4221.026, 3952.308, 4151.795, 4203.077, 4218.462, 0, 0, []
1630403646.6876, 33, 0, 4255.385, 4022.051, 4173.333, 4243.077, 4238.974, 0, 0, []
1630403646.6955, 34, 0, 4255.385, 4048.205, 4141.538, 4252.821, 4242.564, 0, 0, []
1630403646.7032, 35, 0, 4238.974, 4188.718, 4161.538, 4220, 4236.41, 0, 0, []
1630403646.7111, 36, 0, 4247.692, 4375.385, 4144.103, 4216.923, 4229.744, 0, 0, []
1630403646.7189, 37, 0, 4248.718, 4448.718, 4163.59, 4229.231, 4227.179, 0, 0, []
1630403646.7268, 38, 0, 4247.692, 4500.513, 4175.897, 4206.154, 4229.744, 0, 0, []
1630403646.7346, 39, 0, 4260, 4564.103, 4146.667, 4192.821, 4224.615, 0, 0, []
1630403646.7424, 40, 0, 4243.077, 4548.205, 4171.282, 4185.641, 4201.026, 0, 0, []
1630403646.7502, 41, 0, 4228.718, 4501.026, 4149.744, 4163.077, 4191.282, 0, 0, []
1630403646.7582, 42, 0, 4259.487, 4507.179, 4169.231, 4183.077, 4213.333, 0, 0, []
1630403646.7661, 43, 0, 4261.026, 4528.205, 4188.718, 4216.923, 4214.359, 0, 0, []
1630403646.7741, 44, 0, 4223.59, 4566.667, 4132.308, 4196.41, 4176.41, 0, 0, []
1630403646.7819, 45, 0, 4248.205, 4615.897, 4172.821, 4206.667, 4195.897, 0, 0, []
1630403646.7899, 46, 0, 4297.436, 4599.487, 4180, 4257.949, 4252.308, 0, 0, []
1630403646.7978, 47, 0, 4266.667, 4593.333, 4152.308, 4236.923, 4223.077, 0, 0, []
1630403646.8058, 48, 0, 4237.436, 4724.615, 4169.744, 4195.385, 4183.077, 0, 0, []
1630403646.8137, 49, 0, 4275.385, 4843.59, 4158.974, 4209.231, 4214.359, 0, 0, []
1630403646.8216, 50, 0, 4284.103, 4678.974, 4180, 4216.41, 4226.154, 0, 0, []
1630403646.8295, 51, 0, 4248.205, 4389.744, 4161.538, 4204.103, 4202.051, 0, 0, []
1630403646.8373, 52, 0, 4242.564, 4351.282, 4155.897, 4205.128, 4191.282, 0, 0, []
1630403646.8452, 53, 0, 4251.282, 4486.667, 4179.487, 4200, 4187.179, 0, 0, []
1630403646.853, 54, 0, 4254.872, 4526.667, 4144.615, 4203.59, 4197.949, 0, 0, []
1630403646.8608, 55, 0, 4273.846, 4527.179, 4184.615, 4241.026, 4220, 0, 0, []
1630403646.8686, 56, 0, 4296.923, 4643.077, 4185.641, 4262.564, 4233.333, 0, 0, []
1630403646.8765, 57, 0, 4305.641, 4754.872, 4152.821, 4242.051, 4240, 0, 0, []
1630403646.8843, 58, 0, 4275.385, 4755.897, 4160.513, 4201.538, 4210.769, 0, 0, []
1630403646.8922, 59, 0, 4222.051, 4775.385, 4110.769, 4162.564, 4153.846, 0, 0, []
1630403646.9, 60, 0, 4231.282, 4759.487, 4147.179, 4169.231, 4150.769, 0, 0, []
1630403646.9079, 61, 0, 4278.974, 4574.359, 4172.308, 4204.615, 4191.282, 0, 0, []
1630403646.9158, 62, 0, 4282.564, 4455.897, 4142.564, 4220.513, 4209.231, 0, 0, []
1630403646.9238, 63, 0, 4282.051, 4520, 4180, 4242.564, 4220.513, 0, 0, []
1630403646.9317, 64, 0, 4301.026, 4497.436, 4168.205, 4265.641, 4241.026, 450, 0, []
1630403646.9397, 65, 0, 4293.333, 4379.487, 4166.667, 4243.077, 4231.282, 450, 0, []
1630403646.9475, 66, 0, 4271.282, 4381.538, 4158.974, 4208.718, 4200, 16226, 0, []
1630403646.9555, 67, 0, 4262.051, 4388.205, 4138.462, 4207.692, 4188.718, 450, 0, []
1630403646.9634, 68, 0, 4273.333, 4278.974, 4176.923, 4224.615, 4200, 16161, 0, []
1630403646.9714, 69, 0, 4284.615, 4216.41, 4150.256, 4219.487, 4207.692, 450, 0, []
1630403646.9793, 70, 0, 4264.615, 4249.744, 4147.692, 4196.41, 4196.923, 55, 0, []
1630403646.9872, 71, 0, 4261.538, 4236.923, 4168.718, 4215.897, 4204.103, 450, 0, []
1630403646.9951, 72, 0, 4288.718, 4155.897, 4160, 4257.436, 4230.769, 450, 0, []
1630403647.0029, 73, 0, 4293.333, 4111.795, 4186.667, 4255.385, 4235.897, 16184, 0, []
1630403647.0108, 74, 0, 4269.744, 4139.487, 4143.59, 4227.692, 4207.692, 450, 0, []
1630403647.0186, 75, 0, 4244.103, 4258.462, 4135.385, 4211.282, 4177.949, 16238, 0, []
1630403647.0264, 76, 0, 4258.462, 4410.769, 4168.718, 4208.718, 4191.282, 450, 0, []
1630403647.0342, 77, 0, 4285.641, 4467.179, 4146.667, 4203.59, 4211.795, 450, 0, []
1630403647.0421, 78, 0, 4253.846, 4505.128, 4156.41, 4182.051, 4185.641, 450, 0, []
1630403647.0499, 79, 0, 4226.154, 4575.897, 4141.026, 4180.513, 4166.667, 16238, 0, []
1630403647.0578, 80, 0, 4253.333, 4546.667, 4154.359, 4212.821, 4189.231, 450, 0, []
1630403647.0655, 81, 0, 4245.641, 4482.564, 4167.692, 4208.205, 4189.744, 450, 0, []
1630403647.0735, 82, 0, 4217.436, 4521.538, 4137.949, 4194.359, 4165.128, 450, 0, []
1630403647.0814, 83, 0, 4235.897, 4512.821, 4180.513, 4221.538, 4133.846, 16238, 0, []
1630403647.0894, 84, 0, 4238.462, 4427.692, 4157.436, 4212.308, 4051.795, 450, 0, []
1630403647.0973, 85, 0, 4224.103, 4435.897, 4140.513, 4183.077, 3982.051, 450, 0, []
1630403647.1052, 86, 0, 4241.026, 4522.051, 4184.615, 4197.436, 4005.128, 450, 0, []
1630403647.1131, 87, 0, 4240.513, 4599.487, 4147.179, 4197.436, 4018.462, 16238, 0, []
1630403647.1211, 88, 0, 4219.487, 4664.615, 4161.538, 4187.692, 3974.872, 450, 0, []
1630403647.129, 89, 0, 4244.103, 4716.41, 4183.077, 4229.231, 3996.923, 450, 0, []
1630403647.137, 90, 0, 4260, 4752.308, 4159.487, 4238.462, 4037.949, 450, 0, []
1630403647.1448, 91, 0, 4217.436, 4773.333, 4153.333, 4189.231, 3991.282, 16238, 0, []
1630403647.1526, 92, 0, 4200.513, 4733.846, 4131.282, 4176.41, 3968.718, 450, 0, []
1630403647.1605, 93, 0, 4233.846, 4715.897, 4179.487, 4192.821, 4021.026, 450, 0, []
1630403647.1683, 94, 0, 4253.846, 4797.436, 4190.256, 4194.359, 4042.564, 450, 0, []
1630403647.1762, 95, 0, 4240.513, 4773.846, 4159.487, 4189.744, 4024.103, 16238, 0, []
1630403647.1839, 96, 0, 4227.179, 4684.103, 4178.974, 4188.205, 4017.949, 450, 0, []
1630403647.1918, 97, 0, 4235.897, 4746.667, 4145.641, 4197.949, 4021.026, 450, 0, []
1630403647.1996, 98, 0, 4247.692, 4782.564, 4163.59, 4223.077, 4037.436, 450, 0, []
1630403647.2075, 99, 0, 4239.487, 4681.026, 4172.821, 4231.795, 4048.205, 16238, 0, []
1630403647.2153, 100, 0, 4229.231, 4682.051, 4137.949, 4229.231, 4038.974, 450, 0, []
1630403647.2232, 101, 0, 4234.359, 4676.41, 4169.231, 4231.282, 4045.641, 450, 0, []
1630403647.2311, 102, 0, 4241.026, 4547.179, 4152.821, 4208.718, 4053.846, 450, 0, []
1630403647.2391, 103, 0, 4237.949, 4640.513, 4154.872, 4182.564, 4041.026, 16238, 0, []
1630403647.247, 104, 0, 4224.615, 4764.615, 4152.308, 4171.795, 4036.923, 450, 0, []
1630403647.255, 105, 0, 4217.436, 4537.436, 4136.41, 4164.615, 4042.564, 450, 0, []
1630403647.2629, 106, 0, 4210.256, 4356.41, 4186.667, 4173.846, 4022.564, 450, 0, []
1630403647.2708, 107, 0, 4190.256, 4435.897, 4149.231, 4193.333, 4005.641, 16238, 0, []
1630403647.2787, 108, 0, 4180.513, 4353.333, 4140.513, 4206.154, 4022.051, 450, 0, []
1630403647.2867, 109, 0, 4191.282, 4068.718, 4174.872, 4198.462, 4028.205, 450, 0, []
1630403647.2946, 110, 0, 4189.744, 3922.564, 4132.308, 4175.385, 4010.256, 450, 0, []
1630403647.3024, 111, 0, 4166.667, 3885.641, 4136.923, 4163.59, 4002.564, 16238, 0, []
1630403647.3102, 112, 0, 4166.154, 3807.179, 4136.41, 4181.538, 4015.897, 450, 0, []
1630403647.318, 113, 0, 4199.487, 3750.256, 4158.462, 4213.333, 4035.897, 450, 0, []
1630403647.3259, 114, 0, 4206.667, 3748.718, 4180.513, 4219.487, 4036.41, 450, 0, []
1630403647.3337, 115, 0, 4183.59, 3717.436, 4138.974, 4203.59, 4029.231, 16238, 0, []
1630403647.3416, 116, 0, 4188.205, 3712.821, 4176.923, 4194.872, 4040, 450, 0, []
1630403647.3493, 117, 0, 4197.436, 3771.795, 4171.795, 4181.538, 4034.359, 450, 0, []
1630403647.3572, 118, 0, 4181.026, 3759.487, 4144.615, 4172.308, 4013.846, 450, 0, []
1630403647.365, 119, 0, 4192.821, 3725.641, 4176.923, 4199.487, 4049.231, 16238, 0, []
1630403647.3729, 120, 0, 4223.59, 3762.051, 4169.231, 4215.897, 4093.846, 450, 0, []
1630403647.3807, 121, 0, 4217.436, 3723.59, 4185.128, 4192.821, 4072.821, 450, 0, []
1630403647.3886, 122, 0, 4203.077, 3611.795, 4165.128, 4189.231, 4057.949, 450, 0, []
1630403647.3965, 123, 0, 4196.923, 3595.385, 4147.692, 4194.872, 4077.949, 16238, 0, []
1630403647.4045, 124, 0, 4187.692, 3627.179, 4180.513, 4181.026, 4073.333, 450, 0, []
1630403647.4124, 125, 0, 4196.41, 3600.513, 4152.308, 4175.385, 4056.923, 450, 0, []
1630403647.4204, 126, 0, 4200.513, 3576.923, 4162.564, 4174.872, 4050.256, 450, 0, []
1630403647.4282, 127, 0, 4189.231, 3676.41, 4158.462, 4172.821, 4060, 16238, 0, []
1630403647.4362, 128, 0, 4193.846, 3817.949, 4144.103, 4180, 4075.897, 450, 0, []
1630403647.4441, 0, 0, 4203.077, 3867.179, 4180, 4185.128, 4066.154, 450, 0, []
1630403647.4521, 1, 0, 4192.308, 3889.744, 4149.231, 4178.462, 4047.692, 450, 0, []
1630403647.46, 2, 0, 4174.872, 3879.487, 4152.821, 4171.282, 4054.359, 16232, 0, []
1630403647.4678, 3, 0, 4165.128, 3777.436, 4155.385, 4161.026, 4061.026, 450, 0, []
1630403647.4758, 4, 0, 4171.282, 3724.103, 4136.41, 4158.462, 4053.846, 16170, 0, []
1630403647.4836, 5, 0, 4196.41, 3807.692, 4177.436, 4178.462, 4074.872, 450, 0, []
1630403647.4915, 6, 0, 4210.256, 3899.487, 4151.282, 4197.949, 4111.795, 57, 0, []
1630403647.4993, 7, 0, 4213.846, 3948.205, 4161.538, 4204.103, 4120, 450, 0, []
1630403647.5071, 8, 0, 4221.538, 3997.436, 4184.615, 4201.026, 4113.846, 450, 0, []
1630403647.5149, 9, 0, 4204.615, 4021.026, 4137.436, 4174.872, 4106.154, 16186, 0, []
1630403647.5229, 10, 0, 4193.846, 4014.359, 4150.769, 4155.385, 4103.077, 450, 0, []
1630403647.5308, 11, 0, 4224.103, 4031.282, 4146.667, 4176.923, 4116.41, 16243, 0, []
1630403647.5388, 12, 0, 4227.179, 4033.333, 4159.487, 4192.821, 4125.641, 450, 0, []
1630403647.5466, 13, 0, 4196.41, 3927.179, 4170.769, 4175.385, 4116.923, 450, 0, []
1630403647.5546, 14, 0, 4203.59, 3857.949, 4138.462, 4168.205, 4111.795, 450, 0, []
1630403647.5625, 15, 0, 4231.795, 3998.974, 4169.744, 4190.769, 4125.128, 16243, 0, []
1630403647.5705, 16, 0, 4223.59, 4170.769, 4144.615, 4188.718, 4133.333, 0, 0, []
1630403647.5784, 17, 0, 4190.256, 4228.205, 4124.103, 4154.359, 4108.205, 0, 0, []
1630403647.5863, 18, 0, 4185.128, 4260.513, 4148.205, 4147.179, 4086.154, 0, 0, []
1630403647.5942, 19, 0, 4206.154, 4331.795, 4136.923, 4172.308, 4111.282, 0, 0, []
1630403647.6022, 20, 0, 4204.103, 4342.051, 4169.231, 4176.923, 4131.282, 0, 0, []
1630403647.6101, 21, 0, 4173.333, 4202.051, 4138.974, 4141.026, 4092.821, 0, 0, []
1630403647.6179, 22, 0, 4176.41, 4112.308, 4124.615, 4140, 4081.538, 0, 0, []
1630403647.6258, 23, 0, 4223.077, 4177.949, 4178.462, 4191.282, 4141.026, 0, 0, []
1630403647.6335, 24, 0, 4244.615, 4211.282, 4159.487, 4209.744, 4167.179, 0, 0, []
1630403647.6414, 25, 0, 4213.333, 4156.41, 4150.256, 4172.821, 4116.923, 0, 0, []
1630403647.6492, 26, 0, 4178.974, 4184.103, 4118.462, 4150.769, 4092.821, 0, 0, []
1630403647.6571, 27, 0, 4187.179, 4292.821, 4122.051, 4167.179, 4122.564, 0, 0, []
1630403647.6649, 28, 0, 4217.949, 4327.692, 4169.231, 4171.282, 4134.359, 0, 0, []
1630403647.6727, 29, 0, 4219.487, 4273.846, 4128.205, 4163.077, 4122.564, 0, 0, []
1630403647.6805, 30, 0, 4198.974, 4222.051, 4138.462, 4166.154, 4124.103, 0, 0, []
1630403647.6885, 31, 0, 4196.923, 4249.231, 4146.667, 4164.103, 4128.205, 0, 0, []
1630403647.6964, 32, 0, 4209.231, 4300, 4135.385, 4162.564, 4118.974, 0, 0, []
1630403647.7044, 33, 0, 4226.667, 4346.154, 4167.692, 4178.462, 4135.897, 0, 0, []
1630403647.7122, 34, 0, 4244.615, 4399.487, 4140, 4188.205, 4167.692, 0, 0, []
1630403647.7202, 35, 0, 4237.436, 4372.821, 4144.103, 4174.872, 4147.179, 0, 0, []
1630403647.7281, 36, 0, 4216.41, 4318.462, 4148.205, 4167.692, 4120.513, 0, 0, []
1630403647.7361, 37, 0, 4221.026, 4356.923, 4135.897, 4177.436, 4144.103, 0, 0, []
1630403647.744, 38, 0, 4232.821, 4424.103, 4166.154, 4176.923, 4148.718, 0, 0, []
1630403647.7519, 39, 0, 4228.205, 4410.769, 4132.308, 4168.205, 4127.179, 0, 0, []
1630403647.7598, 40, 0, 4211.795, 4320.513, 4140, 4156.923, 4131.795, 0, 0, []
1630403647.7676, 41, 0, 4201.026, 4262.051, 4153.846, 4142.051, 4134.359, 0, 0, []
1630403647.7755, 42, 0, 4213.846, 4228.205, 4120.513, 4147.179, 4127.692, 0, 0, []
1630403647.7833, 43, 0, 4214.359, 4124.615, 4139.487, 4156.41, 4134.359, 0, 0, []
1630403647.7911, 44, 0, 4183.077, 3979.487, 4105.128, 4129.231, 4121.026, 0, 0, []
1630403647.7989, 45, 0, 4178.974, 3893.333, 4106.154, 4103.59, 4099.487, 0, 0, []
1630403647.8068, 46, 0, 4209.231, 3922.051, 4141.538, 4139.487, 4121.026, 0, 0, []
1630403647.8146, 47, 0, 4206.154, 3952.821, 4120.513, 4169.231, 4149.231, 0, 0, []
1630403647.8225, 48, 0, 4177.949, 3870.256, 4147.179, 4139.487, 4132.821, 0, 0, []
1630403647.8302, 49, 0, 4188.205, 3793.333, 4138.462, 4128.718, 4115.897, 0, 0, []
1630403647.8382, 50, 0, 4212.308, 3820, 4139.487, 4163.59, 4136.923, 0, 0, []
1630403647.8461, 51, 0, 4203.077, 3844.615, 4149.744, 4167.692, 4154.359, 0, 0, []
1630403647.854, 52, 0, 4189.231, 3838.974, 4116.41, 4141.538, 4138.974, 0, 0, []
1630403647.8618, 53, 0, 4195.897, 3857.436, 4153.333, 4147.692, 4126.667, 0, 0, []
1630403647.8697, 54, 0, 4207.179, 3850.256, 4137.949, 4165.128, 4148.205, 0, 0, []
1630403647.8776, 55, 0, 4214.359, 3898.462, 4121.538, 4166.154, 4172.821, 0, 0, []
1630403647.8856, 56, 0, 4223.59, 4030.769, 4150.256, 4169.744, 4169.231, 0, 0, []
1630403647.8935, 57, 0, 4228.205, 4084.103, 4116.923, 4175.385, 4162.564, 0, 0, []
1630403647.9015, 58, 0, 4227.179, 4062.051, 4141.538, 4178.462, 4168.205, 0, 0, []
1630403647.9093, 59, 0, 4225.641, 4107.692, 4146.154, 4172.821, 4168.205, 0, 0, []
1630403647.9173, 60, 0, 4203.59, 4176.41, 4121.026, 4153.846, 4148.205, 0, 0, []
1630403647.9252, 61, 0, 4185.641, 4175.385, 4140, 4146.154, 4141.026, 0, 0, []
1630403647.933, 62, 0, 4207.179, 4185.641, 4124.615, 4158.974, 4159.487, 0, 0, []
1630403647.9409, 63, 0, 4218.974, 4244.103, 4152.308, 4165.128, 4166.154, 0, 0, []
1630403647.9486, 64, 0, 4194.359, 4278.974, 4137.436, 4151.282, 4157.436, 450, 0, []
1630403647.9565, 65, 0, 4184.103, 4305.128, 4108.718, 4147.692, 4153.846, 450, 0, []
1630403647.9643, 66, 0, 4192.821, 4328.205, 4149.231, 4158.974, 4148.718, 16230, 0, []
1630403647.9722, 67, 0, 4163.077, 4316.41, 4112.821, 4137.436, 4122.051, 450, 0, []
1630403647.98, 68, 0, 4138.974, 4370.769, 4121.026, 4111.282, 4112.308, 16170, 0, []
1630403647.9879, 69, 0, 4167.179, 4384.103, 4151.795, 4135.897, 4135.897, 450, 0, []
1630403647.9956, 70, 0, 4163.077, 4146.667, 4127.692, 4142.051, 4123.077, 50, 0, []
1630403648.0036, 71, 0, 4128.718, 3920, 4135.897, 4114.872, 4095.897, 450, 0, []
1630403648.0115, 72, 0, 4135.897, 3911.282, 4112.821, 4119.487, 4111.282, 450, 0, []
1630403648.0195, 73, 0, 4154.359, 3916.41, 4140, 4139.487, 4127.692, 16185, 0, []
1630403648.0274, 74, 0, 4153.333, 3851.795, 4159.487, 4132.821, 4118.462, 450, 0, []
1630403648.0353, 75, 0, 4139.487, 3844.103, 4126.667, 4111.795, 4106.667, 16239, 0, []
1630403648.0432, 76, 0, 4131.795, 3903.59, 4144.615, 4116.41, 4114.872, 450, 0, []
1630403648.0512, 77, 0, 4156.41, 3913.333, 4124.103, 4147.692, 4147.692, 450, 0, []
1630403648.0591, 78, 0, 4181.538, 3836.41, 4137.949, 4157.436, 4158.462, 450, 0, []
1630403648.0671, 79, 0, 4161.538, 3770.769, 4150.769, 4135.385, 4128.718, 16239, 0, []
1630403648.0749, 80, 0, 4156.41, 3752.821, 4122.564, 4145.128, 4135.385, 450, 0, []
1630403648.0827, 81, 0, 4169.744, 3698.974, 4157.436, 4169.231, 4161.538, 450, 0, []
1630403648.0906, 82, 0, 4147.179, 3755.385, 4131.795, 4134.359, 4131.282, 450, 0, []
1630403648.0984, 83, 0, 4150.769, 3876.41, 4132.308, 4124.615, 4118.462, 16239, 0, []
1630403648.1063, 84, 0, 4193.333, 3840, 4166.154, 4175.385, 4166.154, 450, 0, []
1630403648.114, 85, 0, 4192.821, 3830.256, 4128.718, 4184.103, 4183.077, 450, 0, []
1630403648.1219, 86, 0, 4174.359, 3877.436, 4156.923, 4156.41, 4163.59, 450, 0, []
1630403648.1297, 87, 0, 4171.795, 3762.564, 4144.615, 4152.821, 4145.128, 16239, 0, []
1630403648.1376, 88, 0, 4149.231, 3711.282, 4115.897, 4152.821, 4126.154, 450, 0, []
1630403648.1454, 89, 0, 4151.282, 3976.923, 4152.821, 4163.59, 4149.231, 450, 0, []
1630403648.1533, 90, 0, 4165.128, 4302.051, 4143.59, 4169.231, 4162.564, 450, 0, []
1630403648.1612, 91, 0, 4142.564, 4454.872, 4147.179, 4137.949, 4107.179, 16239, 0, []
1630403648.1692, 92, 0, 4154.359, 4535.385, 4135.385, 4142.051, 4115.385, 450, 0, []
1630403648.1771, 93, 0, 4189.231, 4616.41, 4148.718, 4186.154, 4187.692, 450, 0, []
1630403648.1851, 94, 0, 4182.564, 4723.077, 4173.846, 4190.769, 4181.538, 450, 0, []
1630403648.1929, 95, 0, 4171.282, 4781.538, 4124.103, 4174.359, 4141.026, 16239, 0, []
1630403648.2009, 96, 0, 4172.821, 4726.154, 4141.026, 4169.231, 4149.231, 450, 0, []
1630403648.2088, 97, 0, 4159.487, 4698.462, 4135.385, 4153.333, 4148.205, 450, 0, []
1630403648.2168, 98, 0, 4176.923, 4821.026, 4138.974, 4174.359, 4145.128, 450, 0, []
1630403648.2247, 99, 0, 4206.667, 4972.308, 4186.154, 4211.282, 4170.256, 16239, 0, []
1630403648.2324, 100, 0, 4159.487, 5006.154, 4127.179, 4161.538, 4137.436, 450, 0, []
1630403648.2403, 101, 0, 4127.692, 4981.538, 4124.615, 4121.026, 4094.359, 450, 0, []
1630403648.2481, 102, 0, 4175.897, 4959.487, 4153.333, 4168.718, 4137.949, 450, 0, []
1630403648.256, 103, 0, 4178.974, 4920.513, 4144.615, 4176.41, 4158.462, 16239, 0, []
1630403648.2638, 104, 0, 4133.846, 4928.718, 4145.128, 4132.821, 4104.615, 450, 0, []
1630403648.2716, 105, 0, 4140.513, 4940, 4113.846, 4141.026, 4099.487, 450, 0, []
1630403648.2794, 106, 0, 4153.333, 4889.231, 4141.026, 4156.41, 4131.795, 450, 0, []
1630403648.2873, 107, 0, 4132.821, 4848.718, 4133.333, 4129.744, 4111.795, 16239, 0, []
1630403648.2951, 108, 0, 4140.513, 4861.026, 4105.128, 4129.231, 4100.513, 450, 0, []
1630403648.3031, 109, 0, 4145.641, 4882.051, 4135.385, 4140, 4118.974, 450, 0, []
1630403648.311, 110, 0, 4117.949, 4839.487, 4100, 4110.769, 4102.564, 450, 0, []
1630403648.3189, 111, 0, 4121.026, 4616.41, 4106.667, 4096.41, 4087.179, 16239, 0, []
1630403648.3268, 112, 0, 4145.641, 4296.41, 4135.385, 4123.59, 4111.795, 450, 0, []
1630403648.3348, 113, 0, 4138.974, 4090.769, 4113.846, 4146.154, 4132.821, 450, 0, []
1630403648.3427, 114, 0, 4121.026, 3970.769, 4137.949, 4139.487, 4123.59, 450, 0, []
1630403648.3507, 115, 0, 4123.077, 3908.718, 4121.538, 4125.128, 4104.103, 16239, 0, []
1630403648.3585, 116, 0, 4132.821, 3913.846, 4128.205, 4130.256, 4096.41, 450, 0, []
1630403648.3665, 117, 0, 4137.949, 3842.564, 4152.821, 4151.282, 4113.846, 450, 0, []
1630403648.3744, 118, 0, 4139.487, 3768.718, 4127.692, 4150.769, 4136.923, 450, 0, []
1630403648.3824, 119, 0, 4131.795, 3844.615, 4149.744, 4124.103, 4123.59, 16239, 0, []
1630403648.3903, 120, 0, 4124.615, 3852.821, 4125.128, 4115.897, 4094.359, 450, 0, []
1630403648.398, 121, 0, 4132.308, 3765.641, 4125.641, 4148.205, 4097.436, 450, 0, []
1630403648.4059, 122, 0, 4146.667, 3852.821, 4172.821, 4177.436, 4130.769, 450, 0, []
1630403648.4137, 123, 0, 4142.564, 4039.487, 4134.359, 4158.462, 4136.923, 16239, 0, []
1630403648.4216, 124, 0, 4134.872, 4133.333, 4142.051, 4130.769, 4106.154, 450, 0, []
1630403648.4294, 125, 0, 4147.692, 4149.744, 4138.462, 4137.436, 4096.923, 450, 0, []
1630403648.4372, 126, 0, 4151.282, 4076.41, 4125.641, 4151.282, 4118.974, 450, 0, []
1630403648.445, 127, 0, 4140, 3898.974, 4157.949, 4144.615, 4127.692, 16239, 0, []
1630403648.4529, 128, 0, 4137.949, 3754.359, 4131.795, 4133.333, 4109.744, 450, 0, []
1630403648.4608, 0, 0, 4137.949, 3720, 4139.487, 4136.41, 4095.385, 450, 0, []
1630403648.4687, 1, 0, 4133.333, 3724.103, 4143.59, 4145.128, 4099.487, 450, 0, []
1630403648.4764, 2, 0, 4132.308, 3694.359, 4127.692, 4148.205, 4111.282, 16232, 0, []
1630403648.4844, 3, 0, 4125.128, 3648.205, 4138.974, 4138.462, 4108.205, 450, 0, []
1630403648.4923, 4, 0, 4128.718, 3643.077, 4112.821, 4140.513, 4101.538, 16167, 0, []
1630403648.5003, 5, 0, 4160, 3657.949, 4155.897, 4170.256, 4119.487, 450, 0, []
1630403648.5082, 6, 0, 4174.359, 3671.795, 4168.718, 4187.179, 4145.641, 56, 0, []
1630403648.5161, 7, 0, 4153.333, 3709.744, 4121.026, 4165.641, 4141.026, 450, 0, []
1630403648.524, 8, 0, 4132.308, 3801.026, 4142.564, 4145.128, 4109.231, 450, 0, []
1630403648.532, 9, 0, 4126.667, 3886.154, 4123.59, 4140.513, 4087.692, 16178, 0, []
1630403648.5399, 10, 0, 4132.821, 3910.769, 4131.795, 4152.821, 4094.872, 450, 0, []
1630403648.5477, 11, 0, 4145.128, 3920.513, 4152.821, 4174.872, 4120, 16246, 0, []
1630403648.5555, 12, 0, 4138.462, 3904.615, 4122.051, 4158.462, 4119.487, 450, 0, []
1630403648.5633, 13, 0, 4130.256, 3943.077, 4141.026, 4130.256, 4096.923, 450, 0, []
1630403648.5712, 14, 0, 4150.256, 4096.41, 4131.795, 4147.692, 4106.154, 450, 0, []
1630403648.579, 15, 0, 4167.692, 4195.385, 4142.564, 4171.282, 4138.974, 16246, 0, []
1630403648.5869, 16, 0, 4173.846, 4222.564, 4156.41, 4168.205, 4150.256, 0, 0, []
1630403648.5946, 17, 0, 4173.333, 4193.333, 4116.923, 4148.205, 4126.667, 0, 0, []
1630403648.6025, 18, 0, 4151.795, 4118.974, 4123.59, 4127.179, 4098.462, 0, 0, []
1630403648.6103, 19, 0, 4145.641, 4147.692, 4105.128, 4140.513, 4112.308, 0, 0, []
1630403648.6182, 20, 0, 4166.154, 4117.949, 4126.154, 4171.795, 4138.462, 0, 0, []
1630403648.626, 21, 0, 4159.487, 3910.769, 4144.615, 4157.949, 4117.436, 0, 0, []
1630403648.6339, 22, 0, 4139.487, 3890.256, 4095.385, 4134.359, 4086.667, 0, 0, []
1630403648.6418, 23, 0, 4147.692, 4083.077, 4138.462, 4156.41, 4104.615, 0, 0, []
1630403648.6498, 24, 0, 4154.872, 4165.128, 4137.949, 4169.231, 4122.051, 0, 0, []
1630403648.6577, 25, 0, 4131.795, 4155.897, 4107.692, 4139.487, 4088.205, 0, 0, []
1630403648.6657, 26, 0, 4114.872, 4166.667, 4127.179, 4129.744, 4065.128, 0, 0, []
1630403648.6736, 27, 0, 4133.846, 4229.744, 4120.513, 4160.513, 4104.615, 0, 0, []
1630403648.6815, 28, 0, 4150.256, 4400, 4157.949, 4173.846, 4133.333, 0, 0, []
1630403648.6894, 29, 0, 4134.359, 4498.974, 4136.923, 4148.205, 4097.436, 0, 0, []
1630403648.6974, 30, 0, 4118.462, 4457.949, 4111.795, 4145.641, 4068.718, 0, 0, []
1630403648.7053, 31, 0, 4127.179, 4482.564, 4147.179, 4168.718, 4094.359, 0, 0, []
1630403648.7131, 32, 0, 4129.744, 4545.128, 4118.462, 4154.359, 4104.103, 0, 0, []
1630403648.7209, 33, 0, 4124.103, 4555.897, 4132.821, 4128.205, 4077.436, 0, 0, []
1630403648.7287, 34, 0, 4128.718, 4558.462, 4132.821, 4135.897, 4080, 0, 0, []
1630403648.7366, 35, 0, 4122.564, 4585.128, 4117.949, 4140.513, 4103.077, 0, 0, []
1630403648.7444, 36, 0, 4105.128, 4620.513, 4145.641, 4123.59, 4090.256, 0, 0, []
1630403648.7523, 37, 0, 4107.692, 4636.41, 4112.821, 4130.256, 4068.718, 0, 0, []
1630403648.76, 38, 0, 4127.692, 4671.795, 4134.872, 4162.564, 4083.59, 0, 0, []
1630403648.7679, 39, 0, 4118.974, 4661.026, 4137.949, 4150.256, 4092.308, 0, 0, []
1630403648.7757, 40, 0, 4100, 4554.872, 4095.897, 4110.769, 4081.538, 0, 0, []
1630403648.7837, 41, 0, 4126.667, 4487.179, 4135.385, 4131.282, 4096.923, 0, 0, []
1630403648.7916, 42, 0, 4156.923, 4490.256, 4130.769, 4174.359, 4118.462, 0, 0, []
1630403648.7995, 43, 0, 4133.333, 4459.487, 4131.282, 4168.205, 4108.205, 0, 0, []
1630403648.8074, 44, 0, 4096.41, 4398.974, 4128.205, 4134.359, 4088.205, 0, 0, []
1630403648.8154, 45, 0, 4093.333, 4415.897, 4102.051, 4117.949, 4070.256, 0, 0, []
1630403648.8233, 46, 0, 4100, 4531.282, 4133.333, 4118.462, 4050.769, 0, 0, []
1630403648.8313, 47, 0, 4100, 4601.026, 4114.872, 4123.077, 4053.846, 0, 0, []
1630403648.8391, 48, 0, 4090.769, 4531.795, 4120, 4121.538, 4072.308, 0, 0, []
1630403648.8471, 49, 0, 4072.308, 4440, 4125.128, 4100.513, 4067.179, 0, 0, []
1630403648.855, 50, 0, 4072.821, 4443.59, 4092.821, 4093.333, 4054.359, 0, 0, []
1630403648.8628, 51, 0, 4090.769, 4456.923, 4132.821, 4118.462, 4055.897, 0, 0, []
1630403648.8707, 52, 0, 4083.59, 4403.59, 4104.103, 4125.128, 4051.795, 0, 0, []
1630403648.8784, 53, 0, 4044.103, 4318.462, 4082.051, 4096.923, 4028.205, 0, 0, []
1630403648.8863, 54, 0, 4035.897, 4263.59, 4117.949, 4091.282, 4032.308, 0, 0, []
1630403648.8941, 55, 0, 4055.385, 4305.128, 4100.513, 4094.872, 4055.897, 0, 0, []
1630403648.902, 56, 0, 4046.667, 4349.744, 4117.436, 4069.231, 4044.103, 0, 0, []
1630403648.9098, 57, 0, 4048.205, 4322.051, 4111.795, 4072.821, 4036.923, 0, 0, []
1630403648.9176, 58, 0, 4089.231, 4323.59, 4122.564, 4122.051, 4075.897, 0, 0, []
1630403648.9254, 59, 0, 4110.256, 4326.154, 4138.974, 4144.103, 4107.179, 0, 0, []
1630403648.9334, 60, 0, 4089.744, 4252.821, 4092.821, 4121.538, 4094.872, 0, 0, []
1630403648.9413, 61, 0, 4072.821, 4196.923, 4115.897, 4107.692, 4069.231, 0, 0, []
1630403648.9493, 62, 0, 4064.103, 4216.41, 4107.692, 4115.385, 4051.795, 0, 0, []
1630403648.9571, 63, 0, 4056.41, 4205.641, 4103.077, 4121.538, 4051.282, 0, 0, []
1630403648.9651, 64, 0, 4055.385, 4161.538, 4130.769, 4118.462, 4060.513, 450, 0, []
1630403648.973, 65, 0, 4037.949, 4144.615, 4077.436, 4100, 4049.231, 450, 0, []
1630403648.981, 66, 0, 4024.615, 4147.692, 4093.846, 4098.462, 4042.051, 16224, 0, []
1630403648.9889, 67, 0, 4022.564, 4107.179, 4099.487, 4110.769, 4047.179, 450, 0, []
1630403648.9968, 68, 0, 3990.256, 4028.205, 4071.795, 4099.487, 4023.59, 16167, 0, []
1630403649.0047, 69, 0, 3964.615, 4031.795, 4096.923, 4103.59, 4005.641, 450, 0, []
1630403649.0125, 70, 0, 3975.897, 4108.205, 4083.077, 4128.718, 4013.846, 54, 0, []
1630403649.0204, 71, 0, 3985.128, 4121.538, 4115.897, 4133.333, 4009.744, 450, 0, []
1630403649.0282, 72, 0, 4003.077, 4078.974, 4122.564, 4140.513, 4020, 450, 0, []
1630403649.0361, 73, 0, 4027.179, 4077.436, 4100, 4153.846, 4049.744, 16181, 0, []
1630403649.0438, 74, 0, 4008.205, 4088.205, 4120.513, 4132.308, 4034.872, 450, 0, []
1630403649.0517, 75, 0, 3974.359, 4067.179, 4088.205, 4105.128, 4004.103, 16243, 0, []
1630403649.0595, 76, 0, 3984.103, 4074.872, 4107.692, 4122.564, 4019.487, 450, 0, []
1630403649.0674, 77, 0, 3998.974, 4070.769, 4102.051, 4133.333, 4037.949, 450, 0, []
1630403649.0752, 78, 0, 3993.333, 3960, 4066.154, 4118.462, 4031.795, 450, 0, []
1630403649.0831, 79, 0, 4000, 3836.923, 4117.436, 4119.487, 4041.538, 16243, 0, []
1630403649.091, 80, 0, 4012.308, 3862.051, 4103.59, 4123.59, 4052.308, 450, 0, []
1630403649.099, 81, 0, 4014.359, 3975.385, 4104.615, 4124.103, 4046.154, 450, 0, []
1630403649.1069, 82, 0, 4011.282, 4057.436, 4110.769, 4122.564, 4033.846, 450, 0, []
1630403649.1149, 83, 0, 3993.333, 4122.564, 4074.359, 4112.308, 4009.744, 16243, 0, []
1630403649.1227, 84, 0, 3981.538, 4126.154, 4105.641, 4104.103, 3993.846, 450, 0, []
1630403649.1307, 85, 0, 4009.744, 4069.744, 4101.538, 4113.846, 4023.59, 450, 0, []
1630403649.1386, 86, 0, 4032.308, 4064.103, 4103.59, 4125.128, 4044.615, 450, 0, []
1630403649.1466, 87, 0, 4011.282, 4132.308, 4103.59, 4120.513, 4021.538, 16243, 0, []
1630403649.1545, 88, 0, 3997.436, 4256.41, 4073.333, 4129.744, 4020, 450, 0, []
1630403649.1624, 89, 0, 3997.949, 4356.41, 4114.359, 4145.641, 4036.923, 450, 0, []
1630403649.1703, 90, 0, 3993.846, 4247.692, 4093.333, 4142.564, 4030.769, 450, 0, []
1630403649.1781, 91, 0, 3997.436, 3974.359, 4080, 4131.282, 4024.615, 16243, 0, []
1630403649.186, 92, 0, 3995.385, 3809.231, 4112.308, 4114.359, 4015.385, 450, 0, []
1630403649.1938, 93, 0, 4003.077, 3744.103, 4089.744, 4104.615, 4012.821, 450, 0, []
1630403649.2016, 94, 0, 4045.128, 3714.872, 4127.179, 4133.333, 4045.641, 450, 0, []
1630403649.2094, 95, 0, 4072.821, 3828.718, 4126.667, 4172.308, 4070.256, 16243, 0, []
1630403649.2173, 96, 0, 4047.692, 3955.385, 4095.897, 4166.667, 4047.692, 450, 0, []
1630403649.2251, 97, 0, 4033.846, 3986.667, 4117.436, 4156.923, 4039.487, 450, 0, []
1630403649.2331, 98, 0, 4042.564, 4037.949, 4093.846, 4164.103, 4055.385, 450, 0, []
1630403649.2409, 99, 0, 4028.718, 4174.359, 4107.692, 4153.333, 4048.718, 16243, 0, []
1630403649.2489, 100, 0, 4023.077, 4326.667, 4108.205, 4140, 4035.897, 450, 0, []
1630403649.2568, 101, 0, 4033.846, 4421.538, 4107.179, 4142.564, 4029.231, 450, 0, []
1630403649.2648, 102, 0, 4048.205, 4458.462, 4142.051, 4152.821, 4031.795, 450, 0, []
1630403649.2727, 103, 0, 4053.846, 4463.59, 4088.718, 4147.179, 4036.923, 16243, 0, []
1630403649.2806, 104, 0, 4030.769, 4466.154, 4083.077, 4131.795, 4023.077, 450, 0, []
1630403649.2885, 105, 0, 4018.974, 4494.359, 4095.897, 4134.359, 4020.513, 450, 0, []
1630403649.2965, 106, 0, 4047.179, 4544.615, 4092.308, 4149.231, 4052.821, 450, 0, []
1630403649.3044, 107, 0, 4063.59, 4553.333, 4122.051, 4152.821, 4063.59, 16243, 0, []
1630403649.3123, 108, 0, 4051.282, 4543.077, 4087.692, 4145.641, 4039.487, 450, 0, []
1630403649.3201, 109, 0, 4056.41, 4550.769, 4100.513, 4156.41, 4035.385, 450, 0, []
1630403649.3279, 110, 0, 4056.923, 4505.128, 4104.615, 4158.462, 4041.026, 450, 0, []
1630403649.3358, 111, 0, 4034.872, 4463.077, 4081.026, 4135.897, 4033.846, 16243, 0, []
1630403649.3436, 112, 0, 4040, 4471.282, 4126.154, 4134.872, 4036.923, 450, 0, []
1630403649.3515, 113, 0, 4069.231, 4475.897, 4108.205, 4156.41, 4047.179, 450, 0, []
1630403649.3592, 114, 0, 4082.051, 4491.795, 4114.359, 4166.154, 4050.256, 450, 0, []
1630403649.3671, 115, 0, 4062.051, 4517.949, 4118.974, 4154.872, 4041.026, 16243, 0, []
1630403649.3749, 116, 0, 4036.41, 4526.154, 4082.051, 4144.615, 4031.795, 450, 0, []
1630403649.3828, 117, 0, 4051.282, 4508.718, 4118.974, 4154.872, 4047.179, 450, 0, []
1630403649.3906, 118, 0, 4087.692, 4478.462, 4115.385, 4175.897, 4069.744, 450, 0, []
1630403649.3986, 119, 0, 4078.462, 4423.077, 4112.821, 4163.077, 4047.179, 16243, 0, []
1630403649.4064, 120, 0, 4043.077, 4375.897, 4107.179, 4125.128, 4013.333, 450, 0, []
1630403649.4144, 121, 0, 4054.359, 4415.385, 4087.692, 4140, 4040.513, 450, 0, []
1630403649.4223, 122, 0, 4061.026, 4480.513, 4133.333, 4164.615, 4058.974, 450, 0, []
1630403649.4303, 123, 0, 4029.231, 4477.949, 4100, 4127.179, 4018.974, 16243, 0, []
1630403649.4382, 124, 0, 4041.538, 4470.256, 4097.949, 4115.897, 4011.795, 450, 0, []
1630403649.4461, 125, 0, 4088.205, 4517.949, 4143.59, 4157.949, 4050.769, 450, 0, []
1630403649.454, 126, 0, 4082.564, 4491.282, 4111.282, 4160, 4056.41, 450, 0, []
1630403649.4619, 127, 0, 4054.872, 4386.154, 4127.692, 4137.949, 4043.59, 16243, 0, []
1630403649.4697, 128, 0, 4053.333, 4380, 4112.821, 4143.59, 4044.615, 450, 0, []
1630403649.4775, 0, 0, 4047.179, 4461.026, 4092.821, 4138.462, 4020, 450, 0, []
1630403649.4853, 1, 0, 4052.821, 4504.615, 4113.846, 4141.026, 4011.282, 450, 0, []
1630403649.4931, 2, 0, 4065.641, 4441.026, 4090.769, 4162.051, 4034.359, 16230, 0, []
1630403649.501, 3, 0, 4045.128, 4328.205, 4105.128, 4146.667, 4029.231, 450, 0, []
1630403649.5088, 4, 0, 4042.564, 4309.744, 4093.333, 4121.538, 4021.026, 16169, 0, []
1630403649.5167, 5, 0, 4076.41, 4344.615, 4102.564, 4131.282, 4039.487, 450, 0, []
1630403649.5244, 6, 0, 4085.128, 4241.538, 4141.026, 4150.769, 4043.59, 51, 0, []
1630403649.5323, 7, 0, 4064.615, 4070.769, 4109.231, 4140, 4021.538, 450, 0, []
1630403649.5401, 8, 0, 4073.333, 4049.744, 4130.256, 4142.051, 4030.769, 450, 0, []
1630403649.5481, 9, 0, 4091.795, 4122.051, 4118.974, 4163.59, 4062.051, 16180, 0, []
1630403649.556, 10, 0, 4087.179, 4156.923, 4097.436, 4154.872, 4060, 450, 0, []
1630403649.5639, 11, 0, 4114.359, 4192.308, 4140.513, 4153.333, 4065.128, 16234, 0, []
1630403649.5718, 12, 0, 4152.821, 4258.462, 4122.564, 4175.897, 4092.308, 450, 0, []
1630403649.5798, 13, 0, 4134.359, 4335.897, 4134.359, 4180.513, 4094.872, 450, 0, []
1630403649.5877, 14, 0, 4105.128, 4419.487, 4130.256, 4165.128, 4078.462, 450, 0, []
1630403649.5957, 15, 0, 4110.769, 4477.436, 4101.026, 4154.359, 4063.077, 16234, 0, []
1630403649.6035, 16, 0, 4117.436, 4502.564, 4121.026, 4153.846, 4052.821, 0, 0, []
1630403649.6115, 17, 0, 4107.692, 4522.564, 4092.821, 4149.744, 4059.487, 0, 0, []
1630403649.6194, 18, 0, 4104.615, 4477.949, 4106.154, 4145.641, 4079.487, 0, 0, []
1630403649.6273, 19, 0, 4109.744, 4333.333, 4114.872, 4145.128, 4080, 0, 0, []
1630403649.6352, 20, 0, 4126.667, 4192.308, 4102.051, 4158.974, 4075.385, 0, 0, []
1630403649.643, 21, 0, 4144.615, 4164.103, 4145.128, 4186.154, 4090.769, 0, 0, []
1630403649.6509, 22, 0, 4130.769, 4221.538, 4106.154, 4184.103, 4101.538, 0, 0, []
1630403649.6587, 23, 0, 4105.128, 4270.256, 4097.949, 4156.923, 4090.769, 0, 0, []
1630403649.6666, 24, 0, 4106.667, 4328.205, 4125.128, 4139.487, 4064.615, 0, 0, []
1630403649.6744, 25, 0, 4124.103, 4396.923, 4095.385, 4133.333, 4054.872, 0, 0, []
1630403649.6822, 26, 0, 4125.641, 4389.231, 4111.282, 4132.308, 4074.872, 0, 0, []
1630403649.69, 27, 0, 4121.026, 4337.949, 4099.487, 4140.513, 4094.872, 0, 0, []
1630403649.6979, 28, 0, 4132.821, 4324.103, 4115.385, 4158.462, 4096.41, 0, 0, []
1630403649.7057, 29, 0, 4151.282, 4274.359, 4145.128, 4175.385, 4097.436, 0, 0, []
1630403649.7137, 30, 0, 4142.051, 4196.41, 4097.949, 4172.308, 4093.846, 0, 0, []
1630403649.7216, 31, 0, 4111.282, 4263.077, 4106.667, 4141.026, 4077.949, 0, 0, []
1630403649.7295, 32, 0, 4114.872, 4411.282, 4114.359, 4130.769, 4085.128, 0, 0, []
1630403649.7374, 33, 0, 4140.513, 4441.538, 4119.487, 4150.769, 4092.821, 0, 0, []
1630403649.7454, 34, 0, 4129.231, 4415.897, 4125.641, 4133.846, 4070.769, 0, 0, []
1630403649.7533, 35, 0, 4098.974, 4416.41, 4084.615, 4094.359, 4060.513, 0, 0, []
1630403649.7613, 36, 0, 4103.59, 4388.205, 4116.923, 4101.026, 4077.436, 0, 0, []
1630403649.7691, 37, 0, 4132.821, 4373.846, 4118.974, 4134.359, 4085.641, 0, 0, []
1630403649.7771, 38, 0, 4139.487, 4384.615, 4101.026, 4144.615, 4078.974, 0, 0, []
1630403649.785, 39, 0, 4115.385, 4319.487, 4112.308, 4123.59, 4066.154, 0, 0, []
1630403649.793, 40, 0, 4088.718, 4255.897, 4068.205, 4087.179, 4048.205, 0, 0, []
1630403649.8009, 41, 0, 4096.923, 4267.692, 4099.487, 4079.487, 4052.308, 0, 0, []
1630403649.8086, 42, 0, 4121.026, 4174.872, 4129.744, 4094.872, 4064.615, 0, 0, []
1630403649.8165, 43, 0, 4122.051, 3982.051, 4115.385, 4106.154, 4062.051, 0, 0, []
1630403649.8243, 44, 0, 4106.667, 3917.949, 4130.769, 4117.949, 4066.154, 0, 0, []
1630403649.8322, 45, 0, 4090.256, 3891.282, 4094.872, 4104.615, 4064.615, 0, 0, []
1630403649.84, 46, 0, 4083.59, 3783.59, 4098.974, 4083.59, 4050.769, 0, 0, []
1630403649.8478, 47, 0, 4102.051, 3798.974, 4108.205, 4109.744, 4056.41, 0, 0, []
1630403649.8556, 48, 0, 4124.615, 3922.564, 4096.41, 4133.846, 4070.769, 0, 0, []
1630403649.8636, 49, 0, 4122.051, 3913.846, 4124.103, 4110.769, 4076.41, 0, 0, []
1630403649.8715, 50, 0, 4110.256, 3853.846, 4091.795, 4097.949, 4088.718, 0, 0, []
1630403649.8795, 51, 0, 4105.641, 3849.744, 4089.231, 4109.231, 4092.821, 0, 0, []
1630403649.8873, 52, 0, 4115.385, 3836.923, 4108.718, 4110.256, 4083.59, 0, 0, []
1630403649.8953, 53, 0, 4144.103, 3860, 4107.692, 4127.179, 4100, 0, 0, []
1630403649.9032, 54, 0, 4154.359, 3933.333, 4131.282, 4155.897, 4124.615, 0, 0, []
1630403649.9112, 55, 0, 4126.667, 3956.923, 4076.923, 4132.821, 4105.641, 0, 0, []
1630403649.9191, 56, 0, 4110.769, 3965.128, 4077.436, 4091.282, 4074.359, 0, 0, []
1630403649.927, 57, 0, 4130.769, 4026.154, 4126.154, 4098.462, 4078.974, 0, 0, []
1630403649.9349, 58, 0, 4143.59, 4019.487, 4099.487, 4126.667, 4103.077, 0, 0, []
1630403649.9427, 59, 0, 4132.821, 3893.846, 4120, 4125.128, 4115.385, 0, 0, []
1630403649.9506, 60, 0, 4135.385, 3789.744, 4123.077, 4117.949, 4123.077, 0, 0, []
1630403649.9584, 61, 0, 4155.897, 3818.462, 4124.103, 4135.897, 4127.179, 0, 0, []
1630403649.9662, 62, 0, 4159.487, 3914.359, 4130.769, 4151.795, 4120.513, 0, 0, []
1630403649.974, 63, 0, 4153.846, 3938.974, 4090.256, 4153.846, 4131.795, 0, 0, []
1630403649.9819, 64, 0, 4153.846, 3923.59, 4124.615, 4146.667, 4142.564, 450, 0, []
1630403649.9897, 65, 0, 4154.359, 4005.641, 4130.769, 4142.051, 4122.564, 450, 0, []
1630403649.9976, 66, 0, 4163.59, 4187.179, 4124.615, 4155.385, 4118.974, 16225, 0, []
1630403650.0053, 67, 0, 4181.538, 4304.103, 4155.897, 4167.692, 4148.205, 450, 0, []
1630403650.0132, 68, 0, 4198.974, 4307.692, 4124.103, 4153.846, 4166.667, 16170, 0, []
1630403650.021, 69, 0, 4195.897, 4307.692, 4133.333, 4139.487, 4157.949, 450, 0, []
1630403650.029, 70, 0, 4186.154, 4340.513, 4124.615, 4144.615, 4164.615, 39, 0, []
1630403650.0369, 71, 0, 4192.308, 4367.692, 4110.769, 4142.564, 4173.333, 450, 0, []
1630403650.0447, 72, 0, 4191.282, 4358.462, 4143.59, 4135.385, 4150.256, 450, 0, []
1630403650.0525, 73, 0, 4177.436, 4340, 4116.41, 4138.974, 4146.154, 16187, 0, []
1630403650.0605, 74, 0, 4191.282, 4372.821, 4138.462, 4151.795, 4177.949, 450, 0, []
1630403650.0684, 75, 0, 4209.231, 4398.974, 4136.923, 4153.846, 4176.923, 16236, 0, []
1630403650.0764, 76, 0, 4185.128, 4362.051, 4098.974, 4142.564, 4149.744, 450, 0, []
1630403650.0843, 77, 0, 4175.897, 4364.103, 4134.359, 4144.615, 4163.59, 450, 0, []
1630403650.0922, 78, 0, 4198.974, 4396.923, 4126.154, 4151.795, 4177.949, 450, 0, []
1630403650.1001, 79, 0, 4200.513, 4357.436, 4132.821, 4146.154, 4163.59, 16236, 0, []
1630403650.1079, 80, 0, 4203.59, 4298.974, 4138.462, 4145.128, 4179.487, 450, 0, []
1630403650.1158, 81, 0, 4221.538, 4301.538, 4125.128, 4148.205, 4189.744, 450, 0, []
1630403650.1236, 82, 0, 4220.513, 4303.077, 4148.718, 4146.154, 4171.795, 450, 0, []
1630403650.1314, 83, 0, 4214.872, 4174.359, 4123.077, 4152.821, 4185.641, 16236, 0, []
1630403650.1392, 84, 0, 4218.462, 3937.436, 4138.462, 4157.949, 4201.026, 450, 0, []
1630403650.1471, 85, 0, 4210.769, 3781.026, 4138.974, 4142.564, 4181.026, 450, 0, []
1630403650.1549, 86, 0, 4204.103, 3722.564, 4103.59, 4142.051, 4186.667, 450, 0, []
1630403650.1628, 87, 0, 4210.769, 3644.615, 4141.026, 4160, 4214.359, 16236, 0, []
1630403650.1705, 88, 0, 4216.923, 3670.256, 4121.026, 4162.051, 4207.179, 450, 0, []
1630403650.1785, 89, 0, 4207.179, 3810.256, 4115.385, 4150.769, 4192.821, 450, 0, []
1630403650.1864, 90, 0, 4205.128, 3889.744, 4134.359, 4147.179, 4205.128, 450, 0, []
1630403650.1944, 91, 0, 4226.667, 3924.615, 4107.692, 4153.846, 4215.897, 16236, 0, []
1630403650.2023, 92, 0, 4236.41, 3963.077, 4128.205, 4165.128, 4214.359, 450, 0, []
1630403650.2102, 93, 0, 4213.333, 3937.436, 4106.154, 4156.923, 4208.718, 450, 0, []
1630403650.2181, 94, 0, 4188.205, 3856.923, 4105.128, 4122.051, 4180, 450, 0, []
1630403650.2261, 95, 0, 4186.154, 3817.436, 4127.692, 4097.949, 4148.718, 16236, 0, []
1630403650.234, 96, 0, 4178.974, 3800.513, 4091.282, 4096.41, 4147.692, 450, 0, []
1630403650.242, 97, 0, 4170.769, 3778.974, 4124.103, 4105.641, 4169.231, 450, 0, []
1630403650.2498, 98, 0, 4198.462, 3796.923, 4127.692, 4122.564, 4195.385, 450, 0, []
1630403650.2578, 99, 0, 4229.744, 3834.872, 4117.436, 4147.179, 4215.897, 16236, 0, []
1630403650.2657, 100, 0, 4230.769, 3857.436, 4133.333, 4157.436, 4221.026, 450, 0, []
1630403650.2735, 101, 0, 4212.821, 3824.615, 4105.641, 4132.821, 4194.872, 450, 0, []
1630403650.2814, 102, 0, 4202.051, 3809.231, 4134.872, 4115.385, 4166.154, 450, 0, []
1630403650.2891, 103, 0, 4177.436, 3849.744, 4104.615, 4104.615, 4156.923, 16236, 0, []
1630403650.297, 104, 0, 4131.282, 3834.872, 4065.641, 4074.359, 4151.795, 450, 0, []
1630403650.3048, 105, 0, 4109.231, 3813.333, 4104.103, 4066.154, 4147.692, 450, 0, []
1630403650.3127, 106, 0, 4130.769, 3908.205, 4093.846, 4103.59, 4151.282, 450, 0, []
1630403650.3205, 107, 0, 4178.462, 4023.077, 4124.103, 4161.538, 4189.744, 16236, 0, []
1630403650.3284, 108, 0, 4210.256, 3919.487, 4124.615, 4200.513, 4241.538, 450, 0, []
1630403650.3363, 109, 0, 4206.667, 3656.41, 4102.564, 4190.256, 4243.077, 450, 0, []
1630403650.3443, 110, 0, 4193.333, 3532.821, 4129.231, 4164.103, 4211.795, 450, 0, []
1630403650.3522, 111, 0, 4173.333, 3531.282, 4097.949, 4154.872, 4196.923, 16236, 0, []
1630403650.3602, 112, 0, 4135.385, 3487.179, 4098.462, 4127.692, 4177.949, 450, 0, []
1630403650.368, 113, 0, 4109.744, 3554.872, 4087.179, 4082.051, 4142.564, 450, 0, []
1630403650.376, 114, 0, 4126.667, 3860.513, 4083.077, 4082.564, 4133.846, 450, 0, []
1630403650.3839, 115, 0, 4143.59, 4094.872, 4126.667, 4118.462, 4134.359, 16236, 0, []
1630403650.3918, 116, 0, 4129.231, 4047.692, 4086.667, 4115.897, 4123.077, 450, 0, []
1630403650.3997, 117, 0, 4130.256, 3881.026, 4102.051, 4105.641, 4140.513, 450, 0, []
1630403650.4076, 118, 0, 4156.41, 3800, 4129.231, 4118.462, 4165.641, 450, 0, []
1630403650.4155, 119, 0, 4159.487, 3844.615, 4102.564, 4104.615, 4152.821, 16236, 0, []
1630403650.4233, 120, 0, 4141.538, 3834.872, 4124.615, 4080.513, 4138.462, 450, 0, []
1630403650.4312, 121, 0, 4149.231, 3752.308, 4111.795, 4092.821, 4154.872, 450, 0, []
1630403650.439, 122, 0, 4170.256, 3737.436, 4124.615, 4110.256, 4161.538, 450, 0, []
1630403650.4469, 123, 0, 4165.128, 3711.282, 4123.59, 4101.026, 4146.154, 16236, 0, []
1630403650.4547, 124, 0, 4147.692, 3612.821, 4083.077, 4092.308, 4138.974, 450, 0, []
1630403650.4627, 125, 0, 4149.231, 3564.615, 4122.564, 4104.103, 4152.821, 450, 0, []
1630403650.4705, 126, 0, 4166.154, 3572.308, 4112.821, 4115.897, 4171.795, 450, 0, []
1630403650.4785, 127, 0, 4169.744, 3608.205, 4100.513, 4104.615, 4152.308, 16236, 0, []
1630403650.4864, 128, 0, 4172.821, 3748.205, 4124.103, 4104.103, 4137.949, 450, 0, []
1630403650.4943, 0, 0, 4171.795, 3869.744, 4098.462, 4118.462, 4163.59, 450, 0, []
1630403650.5022, 1, 0, 4147.692, 3861.538, 4108.205, 4095.897, 4158.462, 450, 0, []
1630403650.5102, 2, 0, 4156.923, 3804.103, 4100, 4079.487, 4143.59, 16230, 0, []
1630403650.5181, 3, 0, 4192.821, 3776.923, 4112.308, 4117.436, 4165.641, 450, 0, []
1630403650.5261, 4, 0, 4189.231, 3804.103, 4126.667, 4132.308, 4183.59, 16175, 0, []
1630403650.5339, 5, 0, 4188.205, 3861.026, 4096.923, 4111.282, 4186.667, 450, 0, []
1630403650.5419, 6, 0, 4230.256, 3895.897, 4148.205, 4130.769, 4205.641, 38, 0, []
1630403650.5498, 7, 0, 4221.538, 3855.385, 4125.641, 4136.923, 4195.385, 450, 0, []
1630403650.5576, 8, 0, 4171.282, 3782.564, 4081.538, 4089.744, 4166.154, 450, 0, []
1630403650.5655, 9, 0, 4200.513, 3768.718, 4131.795, 4089.231, 4190.256, 16189, 0, []
1630403650.5732, 10, 0, 4245.641, 3834.359, 4117.436, 4132.308, 4215.897, 450, 0, []
1630403650.5811, 11, 0, 4208.205, 3885.128, 4103.59, 4127.692, 4189.744, 16235, 0, []
1630403650.5889, 12, 0, 4172.821, 3862.564, 4090.256, 4095.897, 4166.667, 450, 0, []
1630403650.5968, 13, 0, 4210.256, 3808.205, 4105.641, 4118.974, 4189.231, 450, 0, []
1630403650.6046, 14, 0, 4235.897, 3731.282, 4141.538, 4151.282, 4206.154, 450, 0, []
1630403650.6124, 15, 0, 4202.051, 3687.179, 4092.821, 4125.641, 4190.769, 16235, 0, []
1630403650.6202, 16, 0, 4186.154, 3758.462, 4109.231, 4097.949, 4181.538, 0, 0, []
1630403650.6281, 17, 0, 4210.256, 3831.282, 4120.513, 4102.051, 4184.615, 0, 0, []
1630403650.6359, 18, 0, 4220.513, 3774.872, 4094.872, 4106.154, 4190.769, 0, 0, []
1630403650.6438, 19, 0, 4208.205, 3727.179, 4125.641, 4108.718, 4199.487, 0, 0, []
1630403650.6515, 20, 0, 4201.538, 3769.231, 4109.744, 4118.974, 4194.872, 0, 0, []
1630403650.6595, 21, 0, 4203.59, 3776.41, 4116.41, 4128.205, 4172.821, 0, 0, []
1630403650.6674, 22, 0, 4197.436, 3762.051, 4111.795, 4118.974, 4164.615, 0, 0, []
1630403650.6754, 23, 0, 4199.487, 3815.897, 4095.897, 4110.256, 4182.564, 0, 0, []
1630403650.6833, 24, 0, 4227.179, 3824.615, 4144.103, 4132.308, 4198.462, 0, 0, []
1630403650.6912, 25, 0, 4236.41, 3770.769, 4110.769, 4145.641, 4209.231, 0, 0, []
1630403650.6991, 26, 0, 4210.256, 3827.179, 4101.538, 4127.179, 4212.821, 0, 0, []
1630403650.7071, 27, 0, 4216.41, 3880, 4123.59, 4127.179, 4209.744, 0, 0, []
1630403650.715, 28, 0, 4250.256, 3808.718, 4099.487, 4153.846, 4208.718, 0, 0, []
1630403650.723, 29, 0, 4247.179, 3817.949, 4126.154, 4160, 4220.513, 0, 0, []
1630403650.7308, 30, 0, 4242.564, 3908.205, 4122.564, 4156.41, 4234.872, 0, 0, []
1630403650.7386, 31, 0, 4261.538, 3874.872, 4121.538, 4168.718, 4228.718, 0, 0, []
1630403650.7465, 32, 0, 4267.692, 3813.333, 4131.795, 4174.872, 4228.205, 0, 0, []
1630403650.7543, 33, 0, 4275.897, 3852.821, 4115.897, 4171.282, 4244.615, 0, 0, []
1630403650.7622, 34, 0, 4272.308, 3871.795, 4126.667, 4163.59, 4233.333, 0, 0, []
1630403650.7699, 35, 0, 4246.154, 3884.615, 4078.462, 4149.744, 4205.128, 0, 0, []
1630403650.7778, 36, 0, 4262.564, 3968.205, 4094.359, 4163.59, 4221.538, 0, 0, []
1630403650.7856, 37, 0, 4295.897, 3983.59, 4144.615, 4189.744, 4255.897, 0, 0, []
1630403650.7936, 38, 0, 4276.41, 3867.179, 4096.923, 4168.718, 4245.641, 0, 0, []
1630403650.8015, 39, 0, 4267.179, 3809.231, 4122.051, 4145.128, 4230.256, 0, 0, []
1630403650.8095, 40, 0, 4283.077, 3917.436, 4126.667, 4153.846, 4235.385, 0, 0, []
1630403650.8173, 41, 0, 4258.462, 4016.923, 4100.513, 4149.744, 4226.154, 0, 0, []
1630403650.8253, 42, 0, 4258.462, 4084.615, 4132.821, 4155.897, 4233.333, 0, 0, []
1630403650.8332, 43, 0, 4300.513, 4235.897, 4122.051, 4191.795, 4268.718, 0, 0, []
1630403650.8412, 44, 0, 4288.718, 4360, 4138.462, 4194.872, 4262.564, 0, 0, []
1630403650.8491, 45, 0, 4251.282, 4381.538, 4128.205, 4168.205, 4222.051, 0, 0, []
1630403650.857, 46, 0, 4258.462, 4416.41, 4108.718, 4169.231, 4229.231, 0, 0, []
1630403650.8649, 47, 0, 4269.231, 4482.564, 4128.718, 4170.769, 4251.795, 0, 0, []
1630403650.8728, 48, 0, 4260.513, 4489.231, 4107.179, 4169.744, 4238.974, 0, 0, []
1630403650.8807, 49, 0, 4258.974, 4476.923, 4131.795, 4193.846, 4242.051, 0, 0, []
1630403650.8885, 50, 0, 4251.795, 4464.615, 4116.923, 4189.744, 4251.795, 0, 0, []
1630403650.8963, 51, 0, 4248.718, 4383.59, 4084.103, 4165.128, 4236.41, 0, 0, []
1630403650.9041, 52, 0, 4274.872, 4332.308, 4129.744, 4192.308, 4255.897, 0, 0, []
1630403650.912, 53, 0, 4288.718, 4368.205, 4116.923, 4208.205, 4288.718, 0, 0, []
1630403650.9198, 54, 0, 4270.769, 4401.538, 4111.795, 4177.949, 4264.103, 0, 0, []
1630403650.9277, 55, 0, 4264.615, 4408.205, 4115.385, 4178.974, 4247.179, 0, 0, []
1630403650.9354, 56, 0, 4254.872, 4426.667, 4105.641, 4177.436, 4245.128, 0, 0, []
1630403650.9433, 57, 0, 4226.154, 4459.487, 4121.026, 4147.179, 4213.333, 0, 0, []
1630403650.9511, 58, 0, 4240.513, 4468.718, 4103.59, 4165.128, 4224.103, 0, 0, []
1630403650.959, 59, 0, 4277.949, 4448.718, 4131.282, 4193.333, 4261.026, 0, 0, []
1630403650.9668, 60, 0, 4264.615, 4460, 4119.487, 4176.923, 4248.205, 0, 0, []
1630403650.9747, 61, 0, 4236.41, 4466.667, 4075.897, 4168.205, 4233.846, 0, 0, []
1630403650.9826, 62, 0, 4270.256, 4403.077, 4126.667, 4195.385, 4269.231, 0, 0, []
1630403650.9906, 63, 0, 4304.103, 4361.538, 4109.744, 4203.077, 4291.795, 0, 0, []
1630403650.9985, 64, 0, 4267.179, 4414.359, 4083.59, 4176.41, 4265.128, 450, 0, []
1630403651.0065, 65, 0, 4256.41, 4451.282, 4102.564, 4186.154, 4259.487, 450, 0, []
1630403651.0143, 66, 0, 4297.436, 4444.103, 4103.59, 4214.359, 4291.282, 16240, 0, []
1630403651.0221, 67, 0, 4301.026, 4467.179, 4129.231, 4200.513, 4298.974, 450, 0, []
1630403651.03, 68, 0, 4266.154, 4431.282, 4098.462, 4169.231, 4269.231, 16170, 0, []
1630403651.0378, 69, 0, 4247.179, 4315.897, 4096.41, 4161.538, 4249.744, 450, 0, []
1630403651.0457, 70, 0, 4261.538, 4284.615, 4125.128, 4171.795, 4261.538, 39, 0, []
1630403651.0534, 71, 0, 4278.974, 4337.949, 4099.487, 4180.513, 4275.385, 450, 0, []
1630403651.0613, 72, 0, 4282.564, 4351.282, 4132.821, 4200, 4285.641, 450, 0, []
1630403651.0691, 73, 0, 4283.077, 4337.949, 4127.692, 4210.256, 4286.154, 16186, 0, []
1630403651.077, 74, 0, 4276.923, 4364.103, 4107.692, 4190.256, 4273.846, 450, 0, []
1630403651.0848, 75, 0, 4265.641, 4356.923, 4129.231, 4171.282, 4266.667, 16239, 0, []
1630403651.0926, 76, 0, 4274.359, 4280, 4112.308, 4176.923, 4269.744, 450, 0, []
1630403651.1004, 77, 0, 4291.282, 4213.333, 4135.385, 4195.897, 4280, 450, 0, []
1630403651.1084, 78, 0, 4282.051, 4221.538, 4122.564, 4198.462, 4281.026, 450, 0, []
1630403651.1163, 79, 0, 4271.282, 4255.897, 4103.077, 4188.205, 4267.692, 16239, 0, []
1630403651.1243, 80, 0, 4282.564, 4275.385, 4136.41, 4184.103, 4275.897, 450, 0, []
1630403651.1322, 81, 0, 4293.846, 4297.436, 4113.333, 4183.077, 4296.41, 450, 0, []
1630403651.1401, 82, 0, 4298.974, 4260.513, 4125.641, 4188.718, 4300, 450, 0, []
1630403651.148, 83, 0, 4296.41, 4134.872, 4125.641, 4192.308, 4294.359, 16239, 0, []
1630403651.156, 84, 0, 4291.795, 4045.128, 4106.667, 4195.897, 4289.744, 450, 0, []
1630403651.1639, 85, 0, 4296.923, 4055.385, 4140.513, 4204.103, 4293.846, 450, 0, []
1630403651.1719, 86, 0, 4296.923, 4103.59, 4110.769, 4210.256, 4299.487, 450, 0, []
1630403651.1797, 87, 0, 4285.641, 4186.667, 4114.359, 4218.462, 4287.692, 16239, 0, []
1630403651.1875, 88, 0, 4287.179, 4298.974, 4135.897, 4212.821, 4282.051, 450, 0, []
1630403651.1954, 89, 0, 4296.923, 4375.385, 4108.205, 4182.564, 4289.231, 450, 0, []
1630403651.2032, 90, 0, 4288.205, 4415.385, 4118.974, 4163.59, 4276.923, 450, 0, []
1630403651.2111, 91, 0, 4281.026, 4432.821, 4108.718, 4171.795, 4270.256, 16239, 0, []
1630403651.2188, 92, 0, 4297.949, 4442.051, 4134.359, 4186.154, 4288.718, 450, 0, []
1630403651.2267, 93, 0, 4307.179, 4442.564, 4140, 4191.282, 4298.462, 450, 0, []
1630403651.2345, 94, 0, 4289.231, 4424.615, 4093.333, 4190.769, 4290.256, 450, 0, []
1630403651.2424, 95, 0, 4270.769, 4410.256, 4116.41, 4186.667, 4270.256, 16239, 0, []
1630403651.2502, 96, 0, 4258.462, 4421.026, 4096.923, 4162.564, 4244.103, 450, 0, []
1630403651.2581, 97, 0, 4267.692, 4457.949, 4107.692, 4150.256, 4250.256, 450, 0, []
1630403651.266, 98, 0, 4295.897, 4442.564, 4141.538, 4185.128, 4286.154, 450, 0, []
1630403651.274, 99, 0, 4287.692, 4359.487, 4094.872, 4189.231, 4284.103, 16239, 0, []
1630403651.2819, 100, 0, 4273.333, 4275.385, 4110.256, 4157.949, 4266.154, 450, 0, []
1630403651.2899, 101, 0, 4288.718, 4214.872, 4104.615, 4169.744, 4280.513, 450, 0, []
1630403651.2977, 102, 0, 4282.564, 4132.308, 4098.462, 4198.462, 4289.744, 450, 0, []
1630403651.3057, 103, 0, 4270.256, 4083.077, 4132.308, 4192.821, 4270.256, 16239, 0, []
1630403651.3136, 104, 0, 4296.923, 4175.385, 4102.051, 4169.744, 4266.154, 450, 0, []
1630403651.3216, 105, 0, 4313.846, 4353.333, 4112.821, 4148.205, 4281.538, 450, 0, []
1630403651.3295, 106, 0, 4293.333, 4437.436, 4105.128, 4135.385, 4268.205, 450, 0, []
1630403651.3372, 107, 0, 4288.718, 4360, 4092.308, 4145.128, 4251.795, 16239, 0, []
1630403651.3451, 108, 0, 4306.154, 4286.667, 4111.795, 4152.308, 4265.641, 450, 0, []
1630403651.3529, 109, 0, 4307.179, 4264.103, 4083.077, 4141.026, 4279.487, 450, 0, []
1630403651.3608, 110, 0, 4298.462, 4276.923, 4108.205, 4146.667, 4276.41, 450, 0, []
1630403651.3686, 111, 0, 4287.179, 4411.795, 4101.538, 4154.872, 4257.949, 16239, 0, []
1630403651.3764, 112, 0, 4284.615, 4471.282, 4093.333, 4155.385, 4253.333, 450, 0, []
1630403651.3842, 113, 0, 4305.641, 4336.41, 4134.872, 4167.692, 4278.974, 450, 0, []
1630403651.3921, 114, 0, 4326.667, 4306.154, 4101.538, 4180.513, 4298.974, 450, 0, []
1630403651.3999, 115, 0, 4320, 4448.718, 4100, 4183.077, 4289.744, 16239, 0, []
1630403651.4078, 116, 0, 4295.385, 4478.462, 4091.282, 4168.718, 4274.872, 450, 0, []
1630403651.4155, 117, 0, 4293.846, 4415.385, 4086.667, 4162.051, 4273.333, 450, 0, []
1630403651.4235, 118, 0, 4304.615, 4438.462, 4133.846, 4173.846, 4269.744, 450, 0, []
1630403651.4314, 119, 0, 4291.795, 4482.051, 4109.231, 4164.103, 4256.41, 16239, 0, []
1630403651.4394, 120, 0, 4287.179, 4482.051, 4125.128, 4155.897, 4258.974, 450, 0, []
1630403651.4473, 121, 0, 4299.487, 4504.103, 4128.718, 4171.282, 4273.333, 450, 0, []
1630403651.4551, 122, 0, 4275.897, 4524.103, 4075.385, 4158.462, 4253.333, 450, 0, []
1630403651.463, 123, 0, 4247.179, 4458.462, 4087.692, 4128.205, 4222.564, 16239, 0, []
1630403651.4709, 124, 0, 4267.692, 4427.692, 4085.641, 4139.487, 4238.462, 450, 0, []
1630403651.4789, 125, 0, 4289.744, 4532.821, 4101.538, 4160, 4264.103, 450, 0, []
1630403651.4869, 126, 0, 4280.513, 4581.026, 4095.897, 4157.436, 4262.564, 450, 0, []
1630403651.4948, 127, 0, 4268.718, 4474.359, 4069.231, 4153.333, 4252.821, 16239, 0, []
1630403651.5025, 128, 0, 4280.513, 4398.974, 4115.897, 4163.077, 4259.487, 450, 0, []
1630403651.5104, 0, 0, 4315.897, 4413.333, 4105.128, 4186.154, 4291.282, 450, 0, []
1630403651.5182, 1, 0, 4327.179, 4408.205, 4104.615, 4194.359, 4304.615, 450, 0, []
1630403651.5261, 2, 0, 4300.513, 4397.436, 4122.051, 4177.436, 4286.154, 16212, 0, []
1630403651.5339, 3, 0, 4299.487, 4409.744, 4097.436, 4176.923, 4280, 450, 0, []
1630403651.5417, 4, 0, 4315.385, 4393.846, 4128.205, 4186.154, 4289.231, 16157, 0, []
1630403651.5495, 5, 0, 4297.949, 4354.359, 4111.795, 4166.154, 4287.692, 450, 0, []
1630403651.5574, 6, 0, 4290.769, 4357.436, 4108.718, 4162.564, 4293.846, 16366, 0, []
1630403651.5652, 7, 0, 4301.026, 4378.974, 4127.692, 4181.538, 4303.59, 450, 0, []
1630403651.5732, 8, 0, 4280.513, 4332.821, 4082.051, 4159.487, 4278.462, 450, 0, []
1630403651.581, 9, 0, 4255.385, 4266.667, 4102.051, 4134.359, 4252.308, 16136, 0, []
1630403651.589, 10, 0, 4270.769, 4275.897, 4097.949, 4144.615, 4270.256, 450, 0, []
1630403651.5969, 11, 0, 4295.897, 4290.256, 4090.256, 4158.974, 4297.949, 16253, 0, []
1630403651.6049, 12, 0, 4289.231, 4164.103, 4124.103, 4172.308, 4292.308, 450, 0, []
1630403651.6128, 13, 0, 4275.897, 3969.744, 4101.538, 4183.077, 4274.872, 450, 0, []
1630403651.6207, 14, 0, 4280, 3918.974, 4124.103, 4170.256, 4283.59, 450, 0, []
1630403651.6286, 15, 0, 4273.846, 3968.718, 4112.308, 4151.282, 4280.513, 16253, 0, []
1630403651.6366, 16, 0, 4256.923, 3981.538, 4089.231, 4157.949, 4262.051, 0, 0, []
1630403651.6445, 17, 0, 4263.59, 3989.744, 4125.641, 4171.282, 4262.051, 0, 0, []
1630403651.6525, 18, 0, 4269.231, 3970.769, 4095.897, 4160.513, 4264.615, 0, 0, []
1630403651.6603, 19, 0, 4246.667, 3895.897, 4100.513, 4147.692, 4255.897, 0, 0, []
1630403651.6681, 20, 0, 4259.487, 3853.333, 4117.949, 4164.103, 4266.154, 0, 0, []
1630403651.676, 21, 0, 4295.897, 3832.821, 4111.282, 4198.974, 4289.744, 0, 0, []
1630403651.6838, 22, 0, 4281.538, 3797.436, 4132.821, 4202.564, 4282.564, 0, 0, []
1630403651.6917, 23, 0, 4266.667, 3767.692, 4110.256, 4176.41, 4264.615, 0, 0, []
1630403651.6994, 24, 0, 4285.128, 3686.667, 4125.641, 4175.385, 4271.795, 0, 0, []
1630403651.7073, 25, 0, 4284.615, 3591.795, 4120, 4194.872, 4281.538, 0, 0, []
1630403651.7151, 26, 0, 4285.641, 3624.615, 4097.436, 4201.026, 4277.436, 0, 0, []
1630403651.7231, 27, 0, 4304.103, 3735.385, 4136.923, 4199.487, 4282.564, 0, 0, []
1630403651.731, 28, 0, 4285.128, 3862.564, 4106.667, 4190.769, 4281.538, 0, 0, []
1630403651.7389, 29, 0, 4262.051, 4052.308, 4107.692, 4180, 4260.513, 0, 0, []
1630403651.7468, 30, 0, 4256.923, 4189.744, 4108.718, 4168.718, 4248.205, 0, 0, []
1630403651.7548, 31, 0, 4213.846, 4189.231, 4064.615, 4141.026, 4229.231, 0, 0, []
1630403651.7627, 32, 0, 4206.154, 4215.385, 4118.462, 4153.333, 4229.744, 0, 0, []
1630403651.7707, 33, 0, 4290.256, 4249.744, 4138.974, 4235.897, 4308.205, 0, 0, []
1630403651.7785, 34, 0, 4334.359, 4160, 4147.179, 4283.59, 4364.103, 0, 0, []
1630403651.7865, 35, 0, 4287.692, 4095.385, 4143.077, 4249.744, 4311.282, 0, 0, []
1630403651.7944, 36, 0, 4250.256, 4097.949, 4090.256, 4217.436, 4262.051, 0, 0, []
1630403651.8024, 37, 0, 4250.769, 4081.026, 4118.462, 4214.359, 4270.256, 0, 0, []
1630403651.8103, 38, 0, 4246.154, 4108.205, 4112.821, 4208.205, 4262.564, 0, 0, []
1630403651.818, 39, 0, 4238.974, 4181.538, 4105.641, 4214.359, 4258.462, 0, 0, []
1630403651.8259, 40, 0, 4249.231, 4246.667, 4124.103, 4219.487, 4278.974, 0, 0, []
1630403651.8337, 41, 0, 4256.41, 4330.256, 4097.949, 4210.256, 4273.333, 0, 0, []
1630403651.8416, 42, 0, 4248.718, 4393.333, 4128.205, 4214.872, 4258.974, 0, 0, []
1630403651.8494, 43, 0, 4258.462, 4408.718, 4128.718, 4226.667, 4276.41, 0, 0, []
1630403651.8573, 44, 0, 4275.897, 4454.359, 4127.179, 4233.333, 4295.897, 0, 0, []
1630403651.865, 45, 0, 4258.462, 4435.385, 4140.513, 4237.436, 4285.641, 0, 0, []
1630403651.8729, 46, 0, 4240.513, 4294.872, 4102.051, 4237.436, 4259.487, 0, 0, []
1630403651.8807, 47, 0, 4255.385, 4221.026, 4124.615, 4237.949, 4260.513, 0, 0, []
1630403651.8887, 48, 0, 4265.641, 4186.154, 4112.308, 4231.795, 4281.026, 0, 0, []
1630403651.8966, 49, 0, 4257.436, 4102.564, 4100.513, 4223.077, 4275.897, 0, 0, []
1630403651.9045, 50, 0, 4258.462, 4094.359, 4125.641, 4220.513, 4263.59, 0, 0, []
1630403651.9124, 51, 0, 4270.256, 4201.538, 4081.538, 4210.256, 4272.821, 0, 0, []
1630403651.9204, 52, 0, 4279.487, 4291.795, 4116.41, 4211.795, 4285.641, 0, 0, []
1630403651.9283, 53, 0, 4274.872, 4287.692, 4133.846, 4228.718, 4285.128, 0, 0, []
1630403651.9363, 54, 0, 4257.949, 4286.667, 4103.077, 4217.949, 4270.769, 0, 0, []
1630403651.9441, 55, 0, 4258.462, 4358.462, 4133.846, 4206.667, 4269.744, 0, 0, []
1630403651.9521, 56, 0, 4262.051, 4368.718, 4108.718, 4211.282, 4279.487, 0, 0, []
1630403651.96, 57, 0, 4263.077, 4269.744, 4110.256, 4214.872, 4277.436, 0, 0, []
1630403651.9679, 58, 0, 4278.974, 4189.744, 4117.949, 4218.974, 4284.615, 0, 0, []
1630403651.9758, 59, 0, 4281.026, 4202.051, 4104.615, 4213.846, 4294.359, 0, 0, []
1630403651.9835, 60, 0, 4261.026, 4227.692, 4125.128, 4205.641, 4271.795, 0, 0, []
1630403651.9914, 61, 0, 4236.41, 4232.308, 4077.436, 4186.667, 4242.564, 0, 0, []
1630403651.9992, 62, 0, 4227.692, 4274.872, 4089.231, 4168.718, 4243.59, 0, 0, []
1630403652.0071, 63, 0, 4236.923, 4391.282, 4126.154, 4189.744, 4250.256, 0, 0, []
1630403652.0149, 64, 0, 4235.897, 4401.538, 4107.692, 4209.744, 4243.59, 450, 0, []
1630403652.0227, 65, 0, 4226.154, 4166.667, 4124.615, 4182.564, 4235.385, 450, 0, []
1630403652.0305, 66, 0, 4230.769, 4046.154, 4095.897, 4166.667, 4233.846, 16217, 0, []
1630403652.0384, 67, 0, 4240.513, 4224.103, 4106.154, 4191.795, 4248.205, 450, 0, []
1630403652.0462, 68, 0, 4237.949, 4370.769, 4122.564, 4187.692, 4254.872, 16175, 0, []
1630403652.0542, 69, 0, 4225.128, 4360, 4080.513, 4160, 4228.205, 450, 0, []
1630403652.062, 70, 0, 4214.359, 4358.974, 4102.564, 4162.051, 4211.795, 30, 0, []
1630403652.07, 71, 0, 4230.256, 4408.718, 4093.846, 4180, 4235.897, 450, 0, []
1630403652.0779, 72, 0, 4251.795, 4448.718, 4096.41, 4187.692, 4251.795, 450, 0, []
1630403652.0859, 73, 0, 4240.513, 4393.846, 4109.231, 4183.077, 4240, 16179, 0, []
1630403652.0938, 74, 0, 4222.564, 4199.487, 4076.41, 4168.718, 4225.641, 450, 0, []
1630403652.1017, 75, 0, 4217.949, 4078.462, 4101.538, 4166.667, 4212.821, 16240, 0, []
1630403652.1096, 76, 0, 4201.538, 4057.436, 4082.564, 4162.564, 4204.103, 450, 0, []
1630403652.1174, 77, 0, 4182.051, 3950.256, 4079.487, 4135.385, 4189.231, 450, 0, []
1630403652.1253, 78, 0, 4184.103, 3847.179, 4103.077, 4126.154, 4166.667, 450, 0, []
1630403652.1331, 79, 0, 4186.667, 3890.256, 4061.026, 4141.026, 4175.385, 16240, 0, []
1630403652.1409, 80, 0, 4182.564, 3979.487, 4083.59, 4133.846, 4198.462, 450, 0, []
1630403652.1487, 81, 0, 4205.128, 3997.436, 4081.538, 4121.026, 4204.103, 450, 0, []
1630403652.1566, 82, 0, 4253.333, 3926.667, 4076.923, 4140.513, 4240.513, 450, 0, []
1630403652.1644, 83, 0, 4275.385, 3838.462, 4105.128, 4151.282, 4289.231, 16240, 0, []
1630403652.1723, 84, 0, 4266.667, 3834.872, 4064.615, 4132.308, 4280, 450, 0, []
1630403652.1801, 85, 0, 4277.436, 3889.231, 4087.179, 4131.795, 4274.359, 450, 0, []
1630403652.188, 86, 0, 4306.667, 3929.744, 4097.436, 4153.333, 4311.795, 450, 0, []
1630403652.1959, 87, 0, 4301.538, 3922.564, 4077.436, 4160, 4303.077, 16240, 0, []
1630403652.2039, 88, 0, 4265.128, 3876.41, 4087.179, 4145.128, 4256.923, 450, 0, []
1630403652.2118, 89, 0, 4242.564, 3896.41, 4055.897, 4124.103, 4234.359, 450, 0, []
1630403652.2198, 90, 0, 4238.974, 3966.154, 4082.051, 4129.231, 4218.462, 450, 0, []
1630403652.2276, 91, 0, 4221.026, 3894.872, 4074.872, 4137.436, 4206.154, 16240, 0, []
1630403652.2356, 92, 0, 4191.795, 3783.59, 4056.923, 4114.359, 4203.59, 450, 0, []
1630403652.2435, 93, 0, 4203.077, 3838.974, 4106.154, 4117.949, 4206.154, 450, 0, []
1630403652.2515, 94, 0, 4223.59, 3898.462, 4078.462, 4151.282, 4212.821, 450, 0, []
1630403652.2594, 95, 0, 4204.103, 3908.205, 4087.692, 4148.205, 4211.282, 16240, 0, []
1630403652.2673, 96, 0, 4186.154, 3965.128, 4101.026, 4127.179, 4188.718, 450, 0, []
1630403652.2752, 97, 0, 4175.385, 3935.897, 4070.769, 4120.513, 4158.974, 450, 0, []
1630403652.283, 98, 0, 4161.026, 3812.821, 4093.846, 4122.564, 4162.564, 450, 0, []
1630403652.2909, 99, 0, 4171.282, 3779.487, 4081.538, 4130.256, 4188.205, 16240, 0, []
1630403652.2987, 100, 0, 4203.077, 3828.205, 4103.077, 4148.718, 4194.872, 450, 0, []
1630403652.3065, 101, 0, 4196.923, 3829.744, 4109.231, 4145.128, 4178.462, 450, 0, []
1630403652.3143, 102, 0, 4142.564, 3803.077, 4054.359, 4103.077, 4144.615, 450, 0, []
1630403652.3222, 103, 0, 4123.077, 3851.282, 4080.513, 4089.744, 4132.821, 16240, 0, []
1630403652.33, 104, 0, 4160, 3965.641, 4092.308, 4122.564, 4153.333, 450, 0, []
1630403652.3379, 105, 0, 4173.846, 4055.385, 4086.154, 4132.308, 4153.846, 450, 0, []
1630403652.3456, 106, 0, 4154.872, 4098.462, 4084.103, 4109.744, 4143.077, 450, 0, []
1630403652.3536, 107, 0, 4156.923, 4086.154, 4077.949, 4105.641, 4155.385, 16240, 0, []
1630403652.3615, 108, 0, 4172.308, 4035.897, 4112.821, 4114.359, 4153.846, 450, 0, []
1630403652.3695, 109, 0, 4164.103, 4007.692, 4091.795, 4109.744, 4127.179, 450, 0, []
1630403652.3774, 110, 0, 4137.436, 4005.128, 4089.231, 4102.564, 4118.974, 450, 0, []
1630403652.3853, 111, 0, 4129.231, 4040, 4092.308, 4095.385, 4125.641, 16240, 0, []
1630403652.3932, 112, 0, 4152.821, 4061.026, 4054.359, 4102.051, 4125.128, 450, 0, []
1630403652.4012, 113, 0, 4158.462, 3952.821, 4085.128, 4113.846, 4113.846, 450, 0, []
1630403652.4091, 114, 0, 4131.795, 3867.179, 4069.744, 4104.615, 4105.128, 450, 0, []
1630403652.4171, 115, 0, 4135.385, 3971.282, 4062.564, 4097.949, 4126.154, 16240, 0, []
1630403652.4249, 116, 0, 4164.615, 3983.59, 4108.718, 4101.026, 4144.615, 450, 0, []
1630403652.4327, 117, 0, 4159.487, 3765.128, 4069.744, 4083.077, 4119.487, 450, 0, []
1630403652.4406, 118, 0, 4138.974, 3600.513, 4074.359, 4073.846, 4096.41, 450, 0, []
1630403652.4484, 119, 0, 4130.256, 3580.513, 4086.154, 4081.538, 4102.564, 16240, 0, []
1630403652.4563, 120, 0, 4124.103, 3575.897, 4065.128, 4068.718, 4102.564, 450, 0, []
1630403652.464, 121, 0, 4115.897, 3544.615, 4081.538, 4052.821, 4086.667, 450, 0, []
1630403652.4719, 122, 0, 4110.769, 3510.769, 4062.051, 4056.41, 4071.282, 450, 0, []
1630403652.4798, 123, 0, 4123.59, 3475.897, 4083.077, 4073.846, 4075.897, 16240, 0, []
1630403652.4878, 124, 0, 4124.615, 3446.154, 4085.641, 4073.846, 4080, 450, 0, []
1630403652.4956, 125, 0, 4088.205, 3420.513, 4061.026, 4051.282, 4059.487, 450, 0, []
1630403652.5034, 126, 0, 4068.718, 3409.744, 4097.949, 4040, 4053.846, 450, 0, []
1630403652.5112, 127, 0, 4095.385, 3450.769, 4082.051, 4044.103, 4075.897, 16240, 0, []
1630403652.5192, 128, 0, 4111.795, 3487.692, 4084.615, 4045.641, 4077.949, 450, 0, []
1630403652.5271, 0, 0, 4095.385, 3475.385, 4086.667, 4035.385, 4052.821, 450, 0, []
1630403652.5351, 1, 0, 4099.487, 3437.436, 4073.846, 4044.103, 4056.923, 450, 0, []
1630403652.543, 2, 0, 4129.231, 3378.462, 4105.641, 4086.154, 4093.846, 16233, 0, []
1630403652.5509, 3, 0, 4125.128, 3344.103, 4068.205, 4094.872, 4102.051, 450, 0, []
1630403652.5588, 4, 0, 4105.641, 3389.231, 4072.308, 4066.667, 4092.308, 16188, 0, []
1630403652.5668, 5, 0, 4114.359, 3407.692, 4101.538, 4063.59, 4087.179, 450, 0, []
1630403652.5747, 6, 0, 4124.103, 3439.487, 4076.923, 4071.282, 4070.769, 35, 0, []
1630403652.5825, 7, 0, 4131.795, 3627.179, 4109.744, 4089.231, 4079.487, 450, 0, []
1630403652.5903, 8, 0, 4137.436, 3702.564, 4097.436, 4110.769, 4106.154, 450, 0, []
1630403652.5981, 9, 0, 4128.205, 3609.744, 4087.692, 4095.897, 4102.564, 16185, 0, []
1630403652.606, 10, 0, 4130.769, 3708.718, 4107.179, 4085.641, 4092.821, 450, 0, []
1630403652.6138, 11, 0, 4133.846, 3810.256, 4075.385, 4098.462, 4085.641, 16248, 0, []
1630403652.6217, 12, 0, 4130.256, 3680.513, 4109.744, 4111.795, 4080.513, 450, 0, []
1630403652.6294, 13, 0, 4145.641, 3629.744, 4110.256, 4126.154, 4100, 450, 0, []
