Timestamp, COUNTER, INTERPOLATED, AF3, T7, Pz, T8, AF4, RAW_CQ, MARKER_HARDWARE, MARKERS
1629738276.2681, 23, 0, 4689.744, 4322.564, 4157.949, 4255.897, 4380.513, 0, 0, []
1629738276.276, 24, 0, 4637.436, 4290.256, 4099.487, 4204.615, 4320.513, 0, 0, []
1629738276.2837, 25, 0, 4605.128, 4293.846, 4066.154, 4153.333, 4261.026, 0, 0, []
1629738276.2916, 26, 0, 4667.179, 4335.897, 4092.821, 4174.872, 4307.692, 0, 0, []
1629738276.2994, 27, 0, 4713.333, 4342.051, 4115.897, 4205.641, 4343.59, 0, 0, []
1629738276.3073, 28, 0, 4700, 4302.051, 4104.615, 4217.949, 4315.897, 0, 0, []
1629738276.3151, 29, 0, 4728.205, 4292.821, 4124.103, 4250.769, 4333.333, 0, 0, []
1629738276.3229, 30, 0, 4763.59, 4318.974, 4160, 4262.564, 4360, 0, 0, []
1629738276.3307, 31, 0, 4708.205, 4302.564, 4112.308, 4210.256, 4295.385, 0, 0, []
1629738276.3386, 32, 0, 4651.795, 4272.308, 4077.436, 4165.641, 4218.974, 0, 0, []
1629738276.3464, 33, 0, 4680, 4292.821, 4101.026, 4170.769, 4216.41, 0, 0, []
1629738276.3544, 34, 0, 4703.59, 4317.949, 4085.641, 4169.231, 4221.538, 0, 0, []
1629738276.3622, 35, 0, 4684.615, 4278.974, 4047.179, 4149.231, 4199.487, 0, 0, []
1629738276.3702, 36, 0, 4709.231, 4250.769, 4068.205, 4185.641, 4223.59, 0, 0, []
1629738276.3781, 37, 0, 4785.641, 4305.641, 4173.333, 4287.179, 4303.59, 0, 0, []
1629738276.3861, 38, 0, 4794.872, 4338.974, 4213.846, 4319.487, 4322.051, 0, 0, []
1629738276.394, 39, 0, 4725.641, 4291.282, 4138.974, 4237.949, 4254.872, 0, 0, []
1629738276.4019, 40, 0, 4710.769, 4271.795, 4127.179, 4194.872, 4237.949, 0, 0, []
1629738276.4098, 41, 0, 4762.564, 4327.692, 4171.795, 4237.436, 4297.949, 0, 0, []
1629738276.4178, 42, 0, 4758.462, 4360.513, 4153.333, 4231.282, 4297.436, 0, 0, []
1629738276.4257, 43, 0, 4702.564, 4340, 4108.718, 4169.231, 4234.359, 0, 0, []
1629738276.4335, 44, 0, 4721.026, 4336.923, 4133.333, 4192.821, 4257.436, 0, 0, []
1629738276.4413, 45, 0, 4782.564, 4347.692, 4190.769, 4265.128, 4335.385, 0, 0, []
1629738276.4491, 46, 0, 4784.103, 4336.923, 4178.462, 4256.41, 4342.564, 0, 0, []
1629738276.457, 47, 0, 4780, 4336.41, 4178.974, 4234.872, 4328.718, 0, 0, []
1629738276.4648, 48, 0, 4788.718, 4341.026, 4203.077, 4236.923, 4337.436, 0, 0, []
1629738276.4727, 49, 0, 4738.974, 4319.487, 4146.667, 4187.692, 4302.051, 0, 0, []
1629738276.4804, 50, 0, 4693.333, 4306.667, 4108.718, 4146.154, 4259.487, 0, 0, []
1629738276.4883, 51, 0, 4709.231, 4300, 4120.513, 4158.974, 4266.154, 0, 0, []
1629738276.4961, 52, 0, 4723.59, 4285.128, 4109.744, 4162.051, 4283.59, 0, 0, []
1629738276.504, 53, 0, 4713.846, 4276.41, 4132.821, 4147.179, 4277.949, 0, 0, []
1629738276.5118, 54, 0, 4696.923, 4280, 4121.538, 4137.436, 4259.487, 0, 0, []
1629738276.5197, 55, 0, 4704.103, 4294.872, 4078.462, 4139.487, 4268.718, 0, 0, []
1629738276.5276, 56, 0, 4745.128, 4305.641, 4181.026, 4162.051, 4304.103, 0, 0, []
1629738276.5356, 57, 0, 4760.513, 4288.718, 4152.308, 4152.308, 4303.077, 0, 0, []
1629738276.5435, 58, 0, 4737.949, 4263.59, 4055.897, 4110.769, 4278.462, 0, 0, []
1629738276.5515, 59, 0, 4739.487, 4281.026, 4172.308, 4110.256, 4276.923, 0, 0, []
1629738276.5594, 60, 0, 4744.103, 4302.564, 4163.077, 4111.282, 4272.821, 0, 0, []
1629738276.5673, 61, 0, 4714.872, 4275.897, 4058.974, 4083.077, 4248.205, 0, 0, []
1629738276.5752, 62, 0, 4712.308, 4254.872, 4066.667, 4089.744, 4247.692, 0, 0, []
1629738276.5832, 63, 0, 4741.026, 4258.462, 4122.051, 4116.923, 4271.282, 0, 0, []
1629738276.5911, 64, 0, 4754.872, 4256.923, 4144.615, 4110.256, 4285.641, 450, 0, []
1629738276.5989, 65, 0, 4755.385, 4250.769, 4117.949, 4104.103, 4295.385, 450, 0, []
1629738276.6067, 66, 0, 4739.487, 4244.615, 4128.205, 4111.282, 4288.718, 16181, 0, []
1629738276.6145, 67, 0, 4720.513, 4242.564, 4084.615, 4100.513, 4261.538, 450, 0, []
1629738276.6224, 68, 0, 4708.718, 4236.41, 4081.538, 4090.256, 4238.462, 16142, 0, []
1629738276.6302, 69, 0, 4713.846, 4252.308, 4134.872, 4104.615, 4243.59, 450, 0, []
1629738276.6381, 70, 0, 4734.872, 4282.564, 4109.744, 4112.821, 4268.205, 16070, 0, []
1629738276.6458, 71, 0, 4746.667, 4273.333, 4107.692, 4104.103, 4275.385, 450, 0, []
1629738276.6537, 72, 0, 4741.538, 4262.564, 4112.308, 4111.282, 4273.333, 450, 0, []
1629738276.6615, 73, 0, 4734.359, 4280.513, 4119.487, 4125.641, 4281.026, 16177, 0, []
1629738276.6695, 74, 0, 4727.179, 4284.615, 4112.308, 4120, 4276.41, 450, 0, []
1629738276.6774, 75, 0, 4707.179, 4272.821, 4074.872, 4097.949, 4246.667, 16208, 0, []
1629738276.6853, 76, 0, 4695.897, 4284.103, 4090.769, 4075.897, 4234.872, 450, 0, []
1629738276.6932, 77, 0, 4710.769, 4285.641, 4082.051, 4065.128, 4247.179, 450, 0, []
1629738276.7012, 78, 0, 4725.128, 4273.333, 4090.256, 4075.385, 4255.385, 450, 0, []
1629738276.7091, 79, 0, 4726.667, 4269.231, 4108.205, 4096.41, 4271.282, 16208, 0, []
1629738276.7171, 80, 0, 4710.256, 4245.128, 4091.795, 4094.872, 4271.795, 450, 0, []
1629738276.7249, 81, 0, 4700.513, 4246.154, 4111.282, 4091.795, 4264.103, 450, 0, []
1629738276.7329, 82, 0, 4723.59, 4289.744, 4089.744, 4103.59, 4286.667, 450, 0, []
1629738276.7408, 83, 0, 4748.718, 4301.538, 4090.256, 4104.615, 4308.718, 16208, 0, []
1629738276.7488, 84, 0, 4750.769, 4280.513, 4111.795, 4098.462, 4309.231, 450, 0, []
1629738276.7567, 85, 0, 4735.897, 4277.949, 4083.59, 4080.513, 4304.103, 450, 0, []
1629738276.7644, 86, 0, 4711.282, 4285.641, 4100.513, 4055.897, 4285.128, 450, 0, []
1629738276.7723, 87, 0, 4701.538, 4274.872, 4097.436, 4060.513, 4265.641, 16208, 0, []
1629738276.7801, 88, 0, 4725.128, 4257.949, 4099.487, 4096.41, 4285.128, 450, 0, []
1629738276.788, 89, 0, 4752.821, 4270.256, 4122.051, 4121.026, 4320.513, 450, 0, []
1629738276.7958, 90, 0, 4762.564, 4303.077, 4105.641, 4125.641, 4336.923, 450, 0, []
1629738276.8036, 91, 0, 4761.538, 4295.897, 4111.282, 4119.487, 4326.154, 16208, 0, []
1629738276.8114, 92, 0, 4757.436, 4263.59, 4088.205, 4107.179, 4312.821, 450, 0, []
1629738276.8194, 93, 0, 4760, 4287.692, 4094.872, 4104.103, 4322.564, 450, 0, []
1629738276.8273, 94, 0, 4753.846, 4328.205, 4122.564, 4102.564, 4315.385, 450, 0, []
1629738276.8353, 95, 0, 4732.308, 4305.641, 4087.692, 4096.923, 4281.026, 16208, 0, []
1629738276.8432, 96, 0, 4713.333, 4285.128, 4092.821, 4090.256, 4261.538, 450, 0, []
1629738276.8511, 97, 0, 4723.077, 4313.846, 4091.282, 4090.256, 4281.026, 450, 0, []
1629738276.859, 98, 0, 4741.026, 4312.821, 4089.744, 4107.179, 4303.077, 450, 0, []
1629738276.867, 99, 0, 4742.051, 4284.615, 4109.744, 4126.154, 4297.949, 16208, 0, []
1629738276.8749, 100, 0, 4732.308, 4289.231, 4095.897, 4118.462, 4290.256, 450, 0, []
1629738276.8829, 101, 0, 4720, 4299.487, 4102.051, 4087.692, 4280.513, 450, 0, []
1629738276.8908, 102, 0, 4724.103, 4303.59, 4100, 4082.051, 4270.769, 450, 0, []
1629738276.8987, 103, 0, 4737.436, 4314.359, 4105.641, 4109.231, 4276.923, 16208, 0, []
1629738276.9066, 104, 0, 4746.154, 4312.821, 4094.359, 4125.128, 4292.308, 450, 0, []
1629738276.9144, 105, 0, 4760.513, 4310.256, 4138.462, 4130.256, 4309.231, 450, 0, []
1629738276.9223, 106, 0, 4781.026, 4325.128, 4169.744, 4142.051, 4330.769, 450, 0, []
1629738276.93, 107, 0, 4772.821, 4336.923, 4043.077, 4137.436, 4331.282, 16208, 0, []
1629738276.9379, 108, 0, 4728.205, 4325.641, 4150.769, 4114.359, 4291.282, 450, 0, []
1629738276.9457, 109, 0, 4718.462, 4304.103, 4184.615, 4108.718, 4268.718, 450, 0, []
1629738276.9536, 110, 0, 4743.59, 4294.359, 3990.769, 4113.333, 4282.051, 450, 0, []
1629738276.9614, 111, 0, 4754.359, 4314.872, 4097.436, 4120, 4296.41, 16208, 0, []
1629738276.9692, 112, 0, 4758.462, 4320.513, 4137.436, 4131.282, 4309.231, 450, 0, []
1629738276.977, 113, 0, 4749.231, 4278.974, 4060, 4125.128, 4301.026, 450, 0, []
1629738276.985, 114, 0, 4737.436, 4280, 4105.641, 4120, 4295.897, 450, 0, []
1629738276.9929, 115, 0, 4760.513, 4327.692, 4108.718, 4138.974, 4322.564, 16208, 0, []
1629738277.0009, 116, 0, 4768.205, 4308.205, 4103.59, 4138.974, 4317.436, 450, 0, []
1629738277.0087, 117, 0, 4737.436, 4266.667, 4077.949, 4110.256, 4286.154, 450, 0, []
1629738277.0167, 118, 0, 4750.256, 4294.359, 4084.615, 4111.795, 4305.641, 450, 0, []
1629738277.0246, 119, 0, 4809.231, 4330.769, 4116.923, 4140.513, 4359.487, 16208, 0, []
1629738277.0326, 120, 0, 4837.436, 4320.513, 4098.974, 4145.128, 4388.718, 450, 0, []
1629738277.0405, 121, 0, 4842.051, 4290.256, 4106.154, 4136.923, 4410.769, 450, 0, []
1629738277.0483, 122, 0, 4867.179, 4275.385, 4120.513, 4153.333, 4460, 450, 0, []
1629738277.0562, 123, 0, 4885.128, 4282.564, 4118.462, 4176.41, 4507.179, 16208, 0, []
1629738277.064, 124, 0, 4878.462, 4275.897, 4108.205, 4165.641, 4520, 450, 0, []
1629738277.0719, 125, 0, 4876.923, 4242.564, 4081.538, 4141.026, 4522.051, 450, 0, []
1629738277.0797, 126, 0, 4902.564, 4220, 4102.051, 4155.385, 4555.385, 450, 0, []
1629738277.0876, 127, 0, 4940, 4228.205, 4142.564, 4198.974, 4609.744, 16208, 0, []
1629738277.0953, 128, 0, 4937.436, 4232.308, 4147.692, 4212.821, 4625.128, 450, 0, []
1629738277.1032, 0, 0, 4884.103, 4220.513, 4130.769, 4185.128, 4587.692, 450, 0, []
1629738277.111, 1, 0, 4830.769, 4209.231, 4097.949, 4157.436, 4541.026, 450, 0, []
1629738277.1189, 2, 0, 4802.564, 4202.051, 4101.026, 4163.077, 4522.051, 16177, 0, []
1629738277.1267, 3, 0, 4760, 4188.205, 4093.846, 4156.41, 4489.744, 450, 0, []
1629738277.1346, 4, 0, 4692.821, 4160, 4047.692, 4102.051, 4414.359, 16144, 0, []
1629738277.1425, 5, 0, 4696.41, 4162.051, 4089.744, 4122.564, 4415.897, 450, 0, []
1629738277.1505, 6, 0, 4751.795, 4180.513, 4157.949, 4207.179, 4482.564, 309, 0, []
1629738277.1584, 7, 0, 4725.128, 4163.077, 4134.872, 4192.308, 4449.744, 450, 0, []
1629738277.1664, 8, 0, 4662.051, 4158.974, 4085.128, 4126.667, 4369.744, 450, 0, []
1629738277.1742, 9, 0, 4672.308, 4189.231, 4092.308, 4131.282, 4372.308, 16177, 0, []
1629738277.1822, 10, 0, 4695.897, 4195.897, 4124.103, 4155.897, 4389.744, 450, 0, []
1629738277.1901, 11, 0, 4683.077, 4177.949, 4109.231, 4145.128, 4367.692, 16196, 0, []
1629738277.1981, 12, 0, 4678.974, 4193.333, 4105.641, 4138.974, 4360.513, 450, 0, []
1629738277.206, 13, 0, 4677.436, 4215.385, 4117.436, 4143.59, 4355.897, 450, 0, []
1629738277.2137, 14, 0, 4651.282, 4188.205, 4089.231, 4131.795, 4329.744, 450, 0, []
1629738277.2216, 15, 0, 4616.41, 4162.564, 4055.897, 4088.718, 4296.41, 16196, 0, []
1629738277.2294, 16, 0, 4618.462, 4188.205, 4043.59, 4068.205, 4287.179, 0, 0, []
1629738277.2373, 17, 0, 4656.923, 4209.231, 4063.077, 4097.949, 4307.692, 0, 0, []
1629738277.2451, 18, 0, 4676.41, 4182.051, 4074.359, 4103.077, 4315.385, 0, 0, []
1629738277.2529, 19, 0, 4664.103, 4172.308, 4063.59, 4076.41, 4292.821, 0, 0, []
1629738277.2607, 20, 0, 4653.333, 4196.923, 4074.359, 4079.487, 4274.872, 0, 0, []
1629738277.2686, 21, 0, 4651.282, 4207.692, 4082.051, 4108.205, 4282.051, 0, 0, []
1629738277.2764, 22, 0, 4645.641, 4201.538, 4085.128, 4111.282, 4286.154, 0, 0, []
1629738277.2843, 23, 0, 4647.179, 4198.974, 4089.231, 4090.256, 4273.333, 0, 0, []
1629738277.292, 24, 0, 4654.872, 4215.385, 4082.051, 4080.513, 4265.641, 0, 0, []
1629738277.3, 25, 0, 4650.769, 4220.513, 4091.282, 4074.359, 4260, 0, 0, []
1629738277.3079, 26, 0, 4634.872, 4198.974, 4074.359, 4052.821, 4236.41, 0, 0, []
1629738277.3159, 27, 0, 4612.308, 4186.154, 4041.538, 4026.667, 4200, 0, 0, []
1629738277.3238, 28, 0, 4583.077, 4188.718, 4035.897, 4007.692, 4175.897, 0, 0, []
1629738277.3317, 29, 0, 4555.385, 4175.897, 4018.974, 3979.487, 4157.436, 0, 0, []
1629738277.3396, 30, 0, 4575.385, 4182.051, 4040.513, 3988.718, 4165.641, 0, 0, []
1629738277.3476, 31, 0, 4632.821, 4231.282, 4087.179, 4046.154, 4210.256, 0, 0, []
1629738277.3555, 32, 0, 4647.692, 4254.872, 4091.282, 4058.974, 4230.256, 0, 0, []
1629738277.3635, 33, 0, 4632.821, 4236.923, 4093.846, 4048.205, 4220.513, 0, 0, []
1629738277.3714, 34, 0, 4642.051, 4226.667, 4098.974, 4072.821, 4218.462, 0, 0, []
1629738277.3791, 35, 0, 4646.667, 4230.769, 4095.897, 4075.385, 4209.744, 0, 0, []
1629738277.387, 36, 0, 4613.846, 4226.667, 4062.051, 4026.667, 4180.513, 0, 0, []
1629738277.3948, 37, 0, 4580, 4214.359, 4024.103, 3989.231, 4149.744, 0, 0, []
1629738277.4027, 38, 0, 4583.59, 4209.744, 4036.41, 4000.513, 4151.795, 0, 0, []
1629738277.4105, 39, 0, 4604.103, 4223.59, 4047.179, 4038.974, 4187.692, 0, 0, []
1629738277.4183, 40, 0, 4616.41, 4248.718, 4057.436, 4051.795, 4210.256, 0, 0, []
1629738277.4261, 41, 0, 4622.564, 4250.769, 4071.282, 4033.333, 4202.564, 0, 0, []
1629738277.434, 42, 0, 4643.59, 4255.385, 4087.179, 4053.846, 4220, 0, 0, []
1629738277.4418, 43, 0, 4661.026, 4273.846, 4110.256, 4093.333, 4258.974, 0, 0, []
1629738277.4498, 44, 0, 4633.333, 4266.154, 4091.282, 4064.103, 4243.59, 0, 0, []
1629738277.4576, 45, 0, 4611.282, 4257.436, 4086.154, 4028.205, 4211.282, 0, 0, []
1629738277.4656, 46, 0, 4625.641, 4261.538, 4094.872, 4041.538, 4218.974, 0, 0, []
1629738277.4735, 47, 0, 4622.051, 4244.103, 4072.308, 4037.949, 4227.692, 0, 0, []
1629738277.4815, 48, 0, 4590.769, 4226.154, 4065.128, 3996.41, 4207.179, 0, 0, []
1629738277.4894, 49, 0, 4602.051, 4240.513, 4077.436, 4000.513, 4210.769, 0, 0, []
1629738277.4972, 50, 0, 4640, 4244.103, 4110.256, 4047.692, 4249.744, 0, 0, []
1629738277.5051, 51, 0, 4629.231, 4235.897, 4118.462, 4050.256, 4249.744, 0, 0, []
1629738277.5131, 52, 0, 4623.59, 4259.487, 4107.179, 4048.205, 4238.462, 0, 0, []
1629738277.5211, 53, 0, 4660.513, 4280, 4139.487, 4082.564, 4266.154, 0, 0, []
1629738277.529, 54, 0, 4655.897, 4278.462, 4132.308, 4063.077, 4265.641, 0, 0, []
1629738277.5369, 55, 0, 4617.436, 4267.179, 4088.718, 3997.949, 4220.513, 0, 0, []
1629738277.5448, 56, 0, 4616.923, 4257.949, 4081.026, 3988.718, 4206.154, 0, 0, []
1629738277.5528, 57, 0, 4620, 4267.692, 4072.821, 4007.179, 4214.359, 0, 0, []
1629738277.5607, 58, 0, 4614.359, 4282.051, 4087.692, 4016.923, 4218.462, 0, 0, []
1629738277.5687, 59, 0, 4617.436, 4246.154, 4106.154, 4032.821, 4225.641, 0, 0, []
1629738277.5765, 60, 0, 4592.308, 4189.744, 4082.051, 4021.538, 4207.692, 0, 0, []
1629738277.5845, 61, 0, 4590.256, 4210.256, 4084.103, 4026.154, 4210.256, 0, 0, []
1629738277.5925, 62, 0, 4651.282, 4249.744, 4122.564, 4063.59, 4271.795, 0, 0, []
1629738277.6004, 63, 0, 4675.385, 4241.538, 4140.513, 4056.923, 4297.949, 0, 0, []
1629738277.6084, 64, 0, 4636.41, 4220.513, 4103.077, 4015.897, 4259.487, 450, 0, []
1629738277.6163, 65, 0, 4604.103, 4192.308, 4070.256, 3998.974, 4226.154, 450, 0, []
1629738277.6242, 66, 0, 4615.385, 4186.154, 4088.718, 4020, 4238.974, 16178, 0, []
1629738277.6321, 67, 0, 4632.821, 4213.846, 4091.795, 4053.846, 4262.051, 450, 0, []
1629738277.6401, 68, 0, 4606.667, 4192.821, 4075.897, 4047.692, 4245.641, 16144, 0, []
1629738277.648, 69, 0, 4590.769, 4159.487, 4077.436, 4031.795, 4238.974, 450, 0, []
1629738277.656, 70, 0, 4626.667, 4201.026, 4103.59, 4061.026, 4267.179, 16057, 0, []
1629738277.6638, 71, 0, 4609.231, 4231.795, 4098.462, 4053.846, 4242.051, 450, 0, []
1629738277.6718, 72, 0, 4550.256, 4199.487, 4049.231, 3997.436, 4190.769, 450, 0, []
1629738277.6797, 73, 0, 4566.154, 4186.667, 4066.667, 3999.487, 4209.231, 16181, 0, []
1629738277.6877, 74, 0, 4592.308, 4209.744, 4094.872, 4025.641, 4229.744, 450, 0, []
1629738277.6956, 75, 0, 4565.641, 4198.974, 4069.744, 4013.333, 4201.538, 16196, 0, []
1629738277.7035, 76, 0, 4570.256, 4171.795, 4071.795, 4018.462, 4207.179, 450, 0, []
1629738277.7114, 77, 0, 4587.179, 4175.897, 4071.795, 4032.821, 4232.821, 450, 0, []
1629738277.7194, 78, 0, 4556.923, 4180, 4057.436, 4009.744, 4209.231, 450, 0, []
1629738277.7273, 79, 0, 4547.692, 4181.026, 4056.923, 4004.615, 4192.308, 16196, 0, []
1629738277.7353, 80, 0, 4589.231, 4216.41, 4076.923, 4043.077, 4235.385, 450, 0, []
1629738277.7431, 81, 0, 4596.923, 4235.385, 4101.538, 4054.359, 4261.026, 450, 0, []
1629738277.7511, 82, 0, 4564.103, 4221.026, 4082.051, 4025.641, 4228.205, 450, 0, []
1629738277.7591, 83, 0, 4546.667, 4226.154, 4070.769, 4010.256, 4201.026, 16196, 0, []
1629738277.767, 84, 0, 4542.051, 4226.667, 4074.872, 4007.179, 4200.513, 450, 0, []
1629738277.775, 85, 0, 4562.564, 4225.641, 4087.179, 4031.282, 4233.846, 450, 0, []
1629738277.7828, 86, 0, 4584.615, 4265.641, 4109.231, 4072.821, 4267.179, 450, 0, []
1629738277.7908, 87, 0, 4545.128, 4280, 4054.872, 4047.692, 4225.128, 16196, 0, []
1629738277.7987, 88, 0, 4517.949, 4254.359, 4022.051, 4014.359, 4183.077, 450, 0, []
1629738277.8067, 89, 0, 4567.179, 4257.949, 4082.564, 4063.077, 4228.718, 450, 0, []
1629738277.8146, 90, 0, 4572.308, 4255.897, 4085.128, 4084.103, 4252.308, 450, 0, []
1629738277.8225, 91, 0, 4516.41, 4224.615, 4048.205, 4031.282, 4212.308, 16196, 0, []
1629738277.8304, 92, 0, 4522.564, 4221.026, 4063.077, 4028.718, 4213.846, 450, 0, []
1629738277.8384, 93, 0, 4563.59, 4241.538, 4096.41, 4068.205, 4246.154, 450, 0, []
1629738277.8463, 94, 0, 4550.769, 4229.231, 4089.744, 4050.256, 4234.872, 450, 0, []
1629738277.8543, 95, 0, 4501.026, 4204.615, 4043.59, 4006.667, 4193.333, 16196, 0, []
1629738277.8622, 96, 0, 4501.026, 4228.718, 4051.282, 4022.564, 4195.385, 450, 0, []
1629738277.8701, 97, 0, 4555.897, 4265.641, 4095.897, 4083.077, 4243.59, 450, 0, []
1629738277.878, 98, 0, 4574.872, 4261.026, 4106.667, 4105.128, 4261.538, 450, 0, []
1629738277.886, 99, 0, 4546.667, 4236.41, 4092.821, 4085.128, 4246.667, 16196, 0, []
1629738277.8939, 100, 0, 4549.231, 4241.026, 4090.256, 4093.333, 4264.103, 450, 0, []
1629738277.9019, 101, 0, 4567.179, 4261.538, 4108.718, 4112.821, 4280, 450, 0, []
1629738277.9097, 102, 0, 4538.462, 4251.795, 4078.462, 4083.077, 4240, 450, 0, []
1629738277.9177, 103, 0, 4517.436, 4245.128, 4056.41, 4056.41, 4213.846, 16196, 0, []
1629738277.9257, 104, 0, 4543.077, 4285.128, 4098.462, 4077.436, 4243.59, 450, 0, []
1629738277.9336, 105, 0, 4571.795, 4313.846, 4122.564, 4106.667, 4280, 450, 0, []
1629738277.9416, 106, 0, 4550.256, 4277.436, 4109.231, 4095.385, 4262.051, 450, 0, []
1629738277.9494, 107, 0, 4512.821, 4252.308, 4073.333, 4065.128, 4220.513, 16196, 0, []
1629738277.9574, 108, 0, 4534.359, 4286.667, 4068.718, 4086.667, 4240.513, 450, 0, []
1629738277.9653, 109, 0, 4548.718, 4298.974, 4098.462, 4116.923, 4266.667, 450, 0, []
1629738277.9733, 110, 0, 4515.385, 4290.769, 4086.667, 4096.923, 4243.59, 450, 0, []
1629738277.9812, 111, 0, 4510.256, 4299.487, 4084.103, 4095.385, 4232.821, 16196, 0, []
1629738277.9891, 112, 0, 4533.846, 4294.359, 4101.026, 4121.538, 4250.256, 450, 0, []
1629738277.997, 113, 0, 4532.821, 4281.026, 4106.154, 4126.667, 4257.436, 450, 0, []
1629738278.005, 114, 0, 4523.077, 4283.077, 4130.769, 4133.333, 4263.077, 450, 0, []
1629738278.0129, 115, 0, 4512.308, 4279.487, 4125.641, 4136.923, 4256.923, 16196, 0, []
1629738278.0209, 116, 0, 4492.308, 4268.718, 4104.615, 4113.846, 4232.821, 450, 0, []
1629738278.0287, 117, 0, 4485.641, 4281.538, 4106.667, 4107.692, 4231.282, 450, 0, []
1629738278.0367, 118, 0, 4462.564, 4280.513, 4083.59, 4095.385, 4221.026, 450, 0, []
1629738278.0446, 119, 0, 4435.897, 4250.256, 4074.359, 4074.872, 4202.051, 16196, 0, []
1629738278.0526, 120, 0, 4449.231, 4234.359, 4098.462, 4109.744, 4230.256, 450, 0, []
1629738278.0606, 121, 0, 4440, 4224.103, 4098.974, 4129.231, 4238.974, 450, 0, []
1629738278.0685, 122, 0, 4406.667, 4232.308, 4076.41, 4098.462, 4210.769, 450, 0, []
1629738278.0764, 123, 0, 4421.538, 4244.103, 4077.436, 4113.333, 4223.077, 16196, 0, []
1629738278.0843, 124, 0, 4419.487, 4210.256, 4078.462, 4132.821, 4222.051, 450, 0, []
1629738278.0923, 125, 0, 4375.897, 4180, 4040.513, 4087.692, 4173.333, 450, 0, []
1629738278.1002, 126, 0, 4378.974, 4193.846, 4045.641, 4071.282, 4174.359, 450, 0, []
1629738278.1082, 127, 0, 4410.256, 4199.487, 4086.667, 4114.872, 4215.897, 16196, 0, []
1629738278.116, 128, 0, 4404.103, 4182.051, 4083.077, 4129.744, 4216.923, 450, 0, []
1629738278.124, 0, 0, 4399.487, 4198.462, 4095.897, 4120, 4213.846, 450, 0, []
1629738278.1319, 1, 0, 4413.333, 4230.769, 4109.744, 4129.231, 4232.308, 450, 0, []
1629738278.1399, 2, 0, 4385.641, 4210.769, 4077.436, 4109.231, 4210.256, 16187, 0, []
1629738278.1478, 3, 0, 4332.308, 4176.41, 4051.282, 4061.538, 4156.41, 450, 0, []
1629738278.1557, 4, 0, 4336.923, 4203.59, 4063.077, 4071.795, 4162.564, 16149, 0, []
1629738278.1636, 5, 0, 4378.974, 4238.974, 4100, 4112.308, 4211.282, 450, 0, []
1629738278.1716, 6, 0, 4363.59, 4208.205, 4085.128, 4098.974, 4198.462, 16062, 0, []
1629738278.1795, 7, 0, 4333.333, 4195.897, 4062.564, 4081.026, 4165.641, 450, 0, []
1629738278.1875, 8, 0, 4358.462, 4235.385, 4094.872, 4109.231, 4191.795, 450, 0, []
1629738278.1953, 9, 0, 4366.667, 4233.333, 4090.769, 4115.385, 4203.59, 16175, 0, []
1629738278.2033, 10, 0, 4338.462, 4189.744, 4071.795, 4094.872, 4176.41, 450, 0, []
1629738278.2112, 11, 0, 4350.256, 4179.487, 4083.59, 4105.128, 4189.744, 16197, 0, []
1629738278.219, 12, 0, 4372.308, 4206.667, 4094.359, 4113.333, 4217.949, 450, 0, []
1629738278.227, 13, 0, 4347.692, 4198.974, 4092.821, 4088.205, 4202.051, 450, 0, []
1629738278.2348, 14, 0, 4328.205, 4160, 4076.923, 4076.923, 4190.769, 450, 0, []
1629738278.2428, 15, 0, 4352.308, 4160, 4098.974, 4101.026, 4216.923, 16197, 0, []
1629738278.2507, 16, 0, 4371.795, 4187.692, 4120.513, 4116.41, 4233.333, 0, 0, []
1629738278.2587, 17, 0, 4360, 4198.462, 4092.308, 4100, 4218.974, 0, 0, []
1629738278.2666, 18, 0, 4342.051, 4198.974, 4075.385, 4077.949, 4200.513, 0, 0, []
1629738278.2745, 19, 0, 4332.821, 4195.385, 4070.769, 4077.436, 4193.846, 0, 0, []
1629738278.2824, 20, 0, 4320.513, 4190.256, 4067.179, 4077.949, 4183.59, 0, 0, []
1629738278.2904, 21, 0, 4315.385, 4192.308, 4066.667, 4055.385, 4175.897, 0, 0, []
1629738278.2983, 22, 0, 4341.026, 4196.41, 4077.949, 4064.103, 4197.949, 0, 0, []
1629738278.3063, 23, 0, 4365.128, 4199.487, 4112.821, 4118.462, 4221.026, 0, 0, []
1629738278.3142, 24, 0, 4355.385, 4194.872, 4110.769, 4132.308, 4214.359, 0, 0, []
1629738278.3221, 25, 0, 4325.128, 4179.487, 4075.897, 4080.513, 4184.615, 0, 0, []
1629738278.33, 26, 0, 4308.205, 4182.564, 4057.436, 4050.256, 4165.128, 0, 0, []
1629738278.338, 27, 0, 4308.205, 4185.128, 4050.769, 4057.436, 4168.205, 0, 0, []
1629738278.3459, 28, 0, 4311.282, 4175.385, 4065.641, 4058.462, 4179.487, 0, 0, []
1629738278.3539, 29, 0, 4336.923, 4198.974, 4079.487, 4074.359, 4200.513, 0, 0, []
1629738278.3617, 30, 0, 4358.462, 4210.256, 4081.538, 4097.949, 4216.923, 0, 0, []
1629738278.3697, 31, 0, 4335.897, 4172.308, 4074.359, 4083.077, 4196.41, 0, 0, []
1629738278.3777, 32, 0, 4318.462, 4166.154, 4070.256, 4068.718, 4174.872, 0, 0, []
1629738278.3856, 33, 0, 4336.923, 4192.821, 4093.333, 4084.103, 4191.795, 0, 0, []
1629738278.3936, 34, 0, 4323.077, 4169.744, 4070.769, 4051.282, 4186.667, 0, 0, []
1629738278.4014, 35, 0, 4298.974, 4146.667, 4053.333, 4017.949, 4164.615, 0, 0, []
1629738278.4094, 36, 0, 4343.077, 4183.59, 4109.231, 4082.051, 4204.615, 0, 0, []
1629738278.4173, 37, 0, 4367.179, 4206.154, 4100.513, 4114.872, 4231.282, 0, 0, []
1629738278.4253, 38, 0, 4316.41, 4192.308, 4048.205, 4053.333, 4185.641, 0, 0, []
1629738278.4332, 39, 0, 4298.974, 4192.821, 4052.821, 4038.974, 4170.769, 0, 0, []
1629738278.4411, 40, 0, 4328.205, 4190.256, 4073.333, 4081.026, 4201.538, 0, 0, []
1629738278.449, 41, 0, 4333.846, 4177.436, 4075.897, 4082.564, 4209.231, 0, 0, []
1629738278.457, 42, 0, 4322.564, 4181.026, 4070.256, 4069.231, 4198.462, 0, 0, []
1629738278.4649, 43, 0, 4321.538, 4168.718, 4080, 4077.949, 4195.385, 0, 0, []
1629738278.4729, 44, 0, 4329.744, 4148.205, 4090.769, 4095.385, 4208.718, 0, 0, []
1629738278.4807, 45, 0, 4324.615, 4170.769, 4088.205, 4098.974, 4211.795, 0, 0, []
1629738278.4886, 46, 0, 4293.846, 4191.282, 4073.846, 4071.795, 4178.462, 0, 0, []
1629738278.4965, 47, 0, 4278.974, 4179.487, 4049.231, 4052.308, 4157.436, 0, 0, []
1629738278.5044, 48, 0, 4307.179, 4198.974, 4077.436, 4074.359, 4185.128, 0, 0, []
1629738278.5123, 49, 0, 4338.462, 4233.846, 4118.462, 4107.692, 4220, 0, 0, []
1629738278.5201, 50, 0, 4334.872, 4210.769, 4106.154, 4112.308, 4220, 0, 0, []
1629738278.5281, 51, 0, 4300.513, 4170.256, 4079.487, 4083.59, 4186.667, 0, 0, []
1629738278.5361, 52, 0, 4276.923, 4164.103, 4057.436, 4060.513, 4158.974, 0, 0, []
1629738278.544, 53, 0, 4289.744, 4173.333, 4077.436, 4072.821, 4170.769, 0, 0, []
1629738278.5519, 54, 0, 4310.769, 4180.513, 4113.333, 4098.462, 4196.41, 0, 0, []
1629738278.5599, 55, 0, 4322.051, 4195.385, 4115.385, 4107.692, 4210.256, 0, 0, []
1629738278.5677, 56, 0, 4316.41, 4206.667, 4104.615, 4088.718, 4197.436, 0, 0, []
1629738278.5757, 57, 0, 4297.949, 4204.103, 4078.974, 4068.718, 4176.923, 0, 0, []
1629738278.5836, 58, 0, 4295.385, 4205.128, 4079.487, 4074.872, 4183.59, 0, 0, []
1629738278.5916, 59, 0, 4313.846, 4206.154, 4109.231, 4097.436, 4202.564, 0, 0, []
1629738278.5995, 60, 0, 4332.821, 4207.179, 4123.077, 4124.103, 4217.949, 0, 0, []
1629738278.6074, 61, 0, 4328.205, 4200.513, 4127.179, 4117.436, 4218.462, 0, 0, []
1629738278.6153, 62, 0, 4296.923, 4178.974, 4091.795, 4067.179, 4186.667, 0, 0, []
1629738278.6233, 63, 0, 4288.718, 4174.872, 4082.564, 4061.026, 4169.744, 0, 0, []
1629738278.6312, 64, 0, 4330.769, 4208.205, 4131.795, 4119.487, 4202.051, 450, 0, []
1629738278.639, 65, 0, 4341.026, 4231.282, 4122.564, 4126.667, 4207.179, 450, 0, []
1629738278.6468, 66, 0, 4295.897, 4212.308, 4081.538, 4078.462, 4166.154, 16188, 0, []
1629738278.6546, 67, 0, 4287.179, 4208.718, 4076.923, 4079.487, 4155.385, 450, 0, []
1629738278.6625, 68, 0, 4321.026, 4242.564, 4096.41, 4114.359, 4181.026, 16135, 0, []
1629738278.6703, 69, 0, 4332.821, 4253.846, 4115.897, 4115.385, 4204.615, 450, 0, []
1629738278.6782, 70, 0, 4311.282, 4223.077, 4096.923, 4083.077, 4197.436, 16062, 0, []
1629738278.6859, 71, 0, 4309.744, 4211.282, 4100.513, 4087.179, 4182.564, 450, 0, []
1629738278.6939, 72, 0, 4336.923, 4236.41, 4127.179, 4132.308, 4201.026, 450, 0, []
1629738278.7018, 73, 0, 4331.282, 4224.615, 4081.026, 4127.179, 4208.205, 16177, 0, []
1629738278.7098, 74, 0, 4297.949, 4190.256, 4097.949, 4085.128, 4182.051, 450, 0, []
1629738278.7177, 75, 0, 4318.462, 4213.333, 4158.974, 4101.538, 4201.026, 16211, 0, []
1629738278.7256, 76, 0, 4361.538, 4252.308, 4076.923, 4136.41, 4240, 450, 0, []
1629738278.7335, 77, 0, 4343.59, 4230.256, 4136.41, 4123.59, 4221.026, 450, 0, []
1629738278.7415, 78, 0, 4321.026, 4210.769, 4187.179, 4124.103, 4204.615, 450, 0, []
1629738278.7494, 79, 0, 4321.538, 4224.103, 4072.821, 4141.026, 4210.769, 16211, 0, []
1629738278.7574, 80, 0, 4292.308, 4197.436, 4084.103, 4113.846, 4182.564, 450, 0, []
1629738278.7653, 81, 0, 4270.256, 4161.538, 4072.308, 4086.154, 4158.974, 450, 0, []
1629738278.7732, 82, 0, 4295.385, 4185.128, 4070.256, 4099.487, 4184.103, 450, 0, []
1629738278.7811, 83, 0, 4323.077, 4227.179, 4115.385, 4120, 4214.359, 16211, 0, []
1629738278.7889, 84, 0, 4310.769, 4238.462, 4113.333, 4112.821, 4208.205, 450, 0, []
1629738278.7968, 85, 0, 4298.974, 4247.692, 4123.077, 4110.256, 4200, 450, 0, []
1629738278.8046, 86, 0, 4309.744, 4254.872, 4116.41, 4130.256, 4214.872, 450, 0, []
1629738278.8124, 87, 0, 4298.462, 4226.667, 4111.795, 4117.436, 4206.667, 16211, 0, []
1629738278.8202, 88, 0, 4277.949, 4225.641, 4081.026, 4089.231, 4181.538, 450, 0, []
1629738278.8281, 89, 0, 4296.923, 4260.513, 4096.41, 4117.436, 4197.949, 450, 0, []
1629738278.8359, 90, 0, 4323.59, 4265.128, 4120.513, 4157.949, 4229.744, 450, 0, []
1629738278.8439, 91, 0, 4318.974, 4241.538, 4124.615, 4150.769, 4227.179, 16211, 0, []
1629738278.8517, 92, 0, 4299.487, 4227.692, 4128.718, 4122.051, 4198.462, 450, 0, []
1629738278.8597, 93, 0, 4288.718, 4235.385, 4070.769, 4099.487, 4178.974, 450, 0, []
1629738278.8676, 94, 0, 4299.487, 4236.923, 4101.026, 4100.513, 4194.872, 450, 0, []
1629738278.8756, 95, 0, 4309.231, 4228.205, 4141.026, 4107.692, 4208.205, 16211, 0, []
1629738278.8835, 96, 0, 4298.974, 4249.744, 4079.487, 4091.282, 4185.641, 450, 0, []
1629738278.8914, 97, 0, 4304.615, 4280.513, 4101.026, 4103.59, 4185.128, 450, 0, []
1629738278.8993, 98, 0, 4324.615, 4269.231, 4128.718, 4140.513, 4211.795, 450, 0, []
1629738278.9073, 99, 0, 4313.333, 4250.256, 4095.385, 4126.154, 4201.026, 16211, 0, []
1629738278.9152, 100, 0, 4291.795, 4249.231, 4080, 4092.308, 4173.846, 450, 0, []
1629738278.9232, 101, 0, 4288.205, 4237.436, 4071.282, 4092.308, 4167.179, 450, 0, []
1629738278.931, 102, 0, 4286.667, 4238.974, 4085.641, 4098.462, 4164.103, 450, 0, []
1629738278.939, 103, 0, 4295.385, 4256.41, 4085.128, 4103.59, 4170.769, 16211, 0, []
1629738278.9469, 104, 0, 4318.974, 4255.385, 4107.179, 4125.128, 4199.487, 450, 0, []
1629738278.9547, 105, 0, 4336.923, 4244.615, 4132.308, 4152.821, 4223.077, 450, 0, []
1629738278.9626, 106, 0, 4323.59, 4219.487, 4104.103, 4148.718, 4210.256, 450, 0, []
1629738278.9703, 107, 0, 4291.795, 4207.179, 4079.487, 4112.821, 4177.949, 16211, 0, []
1629738278.9782, 108, 0, 4300.513, 4250.769, 4093.846, 4116.923, 4189.231, 450, 0, []
1629738278.986, 109, 0, 4323.077, 4257.949, 4158.462, 4151.282, 4217.436, 450, 0, []
1629738278.994, 110, 0, 4283.077, 4194.359, 4094.872, 4122.051, 4182.564, 450, 0, []
1629738279.0019, 111, 0, 4239.487, 4178.974, 4066.667, 4077.436, 4146.154, 16211, 0, []
1629738279.0099, 112, 0, 4268.718, 4210.256, 4164.615, 4115.385, 4182.051, 450, 0, []
1629738279.0177, 113, 0, 4285.128, 4194.872, 4083.077, 4151.282, 4199.487, 450, 0, []
1629738279.0257, 114, 0, 4235.897, 4161.026, 4026.154, 4112.821, 4153.846, 450, 0, []
1629738279.0336, 115, 0, 4226.154, 4176.923, 4018.462, 4091.282, 4148.205, 16211, 0, []
1629738279.0416, 116, 0, 4257.436, 4201.026, 4065.641, 4114.872, 4182.051, 450, 0, []
1629738279.0495, 117, 0, 4248.205, 4182.051, 4196.41, 4114.872, 4171.282, 450, 0, []
1629738279.0574, 118, 0, 4238.974, 4157.949, 4078.462, 4103.077, 4163.077, 450, 0, []
1629738279.0653, 119, 0, 4255.385, 4163.59, 4036.923, 4114.872, 4189.231, 16211, 0, []
1629738279.0733, 120, 0, 4245.641, 4181.026, 4110.769, 4108.205, 4178.974, 450, 0, []
1629738279.0812, 121, 0, 4224.615, 4191.282, 4042.051, 4088.205, 4154.872, 450, 0, []
1629738279.0892, 122, 0, 4251.795, 4200, 4073.846, 4113.846, 4188.205, 450, 0, []
1629738279.097, 123, 0, 4282.564, 4190.769, 4118.462, 4146.667, 4223.077, 16211, 0, []
1629738279.1048, 124, 0, 4253.333, 4157.436, 4092.308, 4132.308, 4192.821, 450, 0, []
1629738279.1127, 125, 0, 4229.744, 4158.974, 4081.538, 4117.949, 4164.615, 450, 0, []
1629738279.1205, 126, 0, 4243.077, 4171.795, 4072.308, 4121.026, 4176.923, 450, 0, []
1629738279.1284, 127, 0, 4245.641, 4152.821, 4087.179, 4120.513, 4188.205, 16211, 0, []
1629738279.1361, 128, 0, 4234.872, 4163.59, 4085.128, 4121.026, 4185.128, 450, 0, []
1629738279.144, 0, 0, 4210.256, 4170.769, 4055.897, 4096.41, 4158.974, 450, 0, []
1629738279.1518, 1, 0, 4201.538, 4153.846, 4052.308, 4079.487, 4148.718, 450, 0, []
1629738279.1598, 2, 0, 4242.564, 4180.513, 4090.769, 4123.59, 4189.744, 16197, 0, []
1629738279.1677, 3, 0, 4260.513, 4189.231, 4115.385, 4143.077, 4205.641, 450, 0, []
1629738279.1756, 4, 0, 4232.821, 4146.154, 4080, 4114.359, 4180, 16210, 0, []
1629738279.1835, 5, 0, 4236.923, 4148.718, 4083.077, 4121.538, 4187.692, 450, 0, []
1629738279.1915, 6, 0, 4243.59, 4176.923, 4105.641, 4131.795, 4193.333, 16060, 0, []
1629738279.1994, 7, 0, 4222.051, 4153.333, 4074.872, 4113.846, 4167.692, 450, 0, []
1629738279.2074, 8, 0, 4228.718, 4147.179, 4077.949, 4123.59, 4174.359, 450, 0, []
1629738279.2153, 9, 0, 4233.333, 4177.949, 4081.026, 4122.564, 4178.974, 16188, 0, []
1629738279.2232, 10, 0, 4216.923, 4185.641, 4066.667, 4098.974, 4153.846, 450, 0, []
1629738279.2311, 11, 0, 4230.256, 4184.103, 4090.256, 4111.795, 4168.205, 16194, 0, []
1629738279.239, 12, 0, 4246.667, 4188.205, 4096.923, 4119.487, 4193.333, 450, 0, []
1629738279.2469, 13, 0, 4226.154, 4185.128, 4088.205, 4098.462, 4171.795, 450, 0, []
1629738279.2547, 14, 0, 4227.692, 4190.256, 4095.897, 4110.256, 4170.256, 450, 0, []
1629738279.2625, 15, 0, 4264.103, 4189.231, 4105.641, 4137.436, 4205.641, 16194, 0, []
1629738279.2703, 16, 0, 4271.795, 4162.051, 4103.077, 4131.795, 4211.795, 0, 0, []
1629738279.2782, 17, 0, 4253.333, 4160.513, 4087.179, 4114.872, 4201.026, 0, 0, []
1629738279.286, 18, 0, 4236.41, 4170.769, 4087.179, 4102.564, 4189.744, 0, 0, []
1629738279.2939, 19, 0, 4222.564, 4140.513, 4082.564, 4092.308, 4171.795, 0, 0, []
1629738279.3016, 20, 0, 4215.385, 4129.744, 4075.385, 4086.154, 4163.59, 0, 0, []
1629738279.3096, 21, 0, 4220, 4153.846, 4085.641, 4079.487, 4168.205, 0, 0, []
1629738279.3175, 22, 0, 4215.385, 4145.128, 4066.154, 4069.744, 4155.385, 0, 0, []
1629738279.3254, 23, 0, 4203.59, 4134.872, 4057.436, 4070.769, 4138.974, 0, 0, []
1629738279.3332, 24, 0, 4236.41, 4169.231, 4094.359, 4111.282, 4174.872, 0, 0, []
1629738279.3411, 25, 0, 4276.923, 4203.077, 4122.564, 4150.256, 4216.923, 0, 0, []
1629738279.349, 26, 0, 4255.897, 4202.564, 4106.154, 4122.564, 4188.718, 0, 0, []
1629738279.357, 27, 0, 4216.41, 4165.128, 4066.154, 4073.846, 4144.103, 0, 0, []
1629738279.3649, 28, 0, 4225.128, 4152.308, 4085.641, 4078.974, 4157.949, 0, 0, []
1629738279.3729, 29, 0, 4244.103, 4194.872, 4110.769, 4100, 4177.949, 0, 0, []
1629738279.3807, 30, 0, 4242.051, 4210.769, 4089.231, 4102.051, 4168.718, 0, 0, []
1629738279.3885, 31, 0, 4241.026, 4185.641, 4091.282, 4111.282, 4166.154, 0, 0, []
1629738279.3964, 32, 0, 4230.769, 4191.795, 4078.974, 4103.077, 4157.949, 0, 0, []
1629738279.4042, 33, 0, 4227.692, 4199.487, 4060.513, 4088.718, 4150.256, 0, 0, []
1629738279.4121, 34, 0, 4243.077, 4170.256, 4072.821, 4101.538, 4162.051, 0, 0, []
1629738279.4199, 35, 0, 4246.154, 4167.692, 4076.41, 4114.359, 4170.256, 0, 0, []
1629738279.4277, 36, 0, 4250.769, 4195.897, 4085.128, 4122.051, 4176.41, 0, 0, []
1629738279.4355, 37, 0, 4274.872, 4206.667, 4095.385, 4136.923, 4194.872, 0, 0, []
1629738279.4434, 38, 0, 4274.872, 4202.564, 4099.487, 4129.744, 4194.872, 0, 0, []
1629738279.4512, 39, 0, 4250.769, 4194.359, 4100, 4112.308, 4175.385, 0, 0, []
1629738279.4591, 40, 0, 4249.744, 4188.205, 4087.179, 4117.436, 4171.282, 0, 0, []
1629738279.4668, 41, 0, 4247.179, 4191.795, 4073.846, 4100, 4166.667, 0, 0, []
1629738279.4748, 42, 0, 4238.974, 4204.103, 4071.282, 4083.077, 4161.538, 0, 0, []
1629738279.4827, 43, 0, 4262.564, 4200, 4106.154, 4117.436, 4185.641, 0, 0, []
1629738279.4906, 44, 0, 4266.154, 4164.615, 4109.231, 4121.026, 4187.179, 0, 0, []
1629738279.4985, 45, 0, 4236.41, 4134.359, 4057.949, 4087.179, 4156.923, 0, 0, []
1629738279.5062, 46, 0, 4247.179, 4157.949, 4072.821, 4108.205, 4166.154, 0, 0, []
1629738279.5142, 47, 0, 4273.333, 4202.051, 4097.949, 4138.974, 4193.333, 0, 0, []
1629738279.5221, 48, 0, 4266.667, 4198.462, 4074.872, 4118.974, 4185.641, 0, 0, []
1629738279.53, 49, 0, 4269.231, 4177.949, 4084.103, 4113.846, 4184.103, 0, 0, []
1629738279.538, 50, 0, 4278.462, 4185.641, 4098.974, 4130.769, 4197.436, 0, 0, []
1629738279.5458, 51, 0, 4245.128, 4186.667, 4077.436, 4110.769, 4170.256, 0, 0, []
1629738279.5538, 52, 0, 4225.641, 4183.59, 4061.026, 4088.205, 4147.692, 0, 0, []
1629738279.5617, 53, 0, 4250.769, 4193.846, 4072.821, 4095.897, 4164.615, 0, 0, []
1629738279.5695, 54, 0, 4258.462, 4190.256, 4084.615, 4109.744, 4168.205, 0, 0, []
1629738279.5774, 55, 0, 4266.667, 4200, 4091.282, 4134.872, 4180, 0, 0, []
1629738279.5851, 56, 0, 4292.308, 4222.051, 4122.564, 4153.846, 4209.231, 0, 0, []
1629738279.593, 57, 0, 4295.385, 4210.256, 4131.282, 4141.538, 4212.821, 0, 0, []
1629738279.6008, 58, 0, 4269.231, 4185.128, 4097.949, 4113.333, 4186.154, 0, 0, []
1629738279.6087, 59, 0, 4249.231, 4182.564, 4086.154, 4096.41, 4165.128, 0, 0, []
1629738279.6165, 60, 0, 4260.513, 4213.333, 4090.256, 4112.308, 4178.462, 0, 0, []
1629738279.6245, 61, 0, 4280.513, 4246.154, 4106.667, 4137.949, 4202.051, 0, 0, []
1629738279.6323, 62, 0, 4288.718, 4240, 4118.462, 4137.949, 4208.718, 0, 0, []
1629738279.6403, 63, 0, 4286.154, 4214.359, 4091.282, 4119.487, 4202.564, 0, 0, []
1629738279.6482, 64, 0, 4295.385, 4217.949, 4077.436, 4106.154, 4206.154, 450, 0, []
1629738279.6562, 65, 0, 4335.897, 4230.256, 4084.103, 4105.128, 4246.667, 450, 0, []
1629738279.6641, 66, 0, 4396.923, 4239.487, 4105.641, 4131.282, 4321.026, 16169, 0, []
1629738279.672, 67, 0, 4450.256, 4256.41, 4121.538, 4158.462, 4375.897, 450, 0, []
1629738279.6799, 68, 0, 4471.795, 4251.282, 4101.538, 4144.103, 4378.974, 16143, 0, []
1629738279.6879, 69, 0, 4483.59, 4249.744, 4104.615, 4130.769, 4382.051, 450, 0, []
1629738279.6958, 70, 0, 4487.692, 4268.718, 4115.897, 4136.41, 4396.41, 16072, 0, []
1629738279.7036, 71, 0, 4475.897, 4261.026, 4122.564, 4144.615, 4395.385, 450, 0, []
1629738279.7114, 72, 0, 4470.769, 4262.051, 4140, 4156.923, 4390.769, 450, 0, []
1629738279.7192, 73, 0, 4445.641, 4282.564, 4118.974, 4140, 4359.487, 16158, 0, []
1629738279.7271, 74, 0, 4398.974, 4261.538, 4096.41, 4113.333, 4308.718, 450, 0, []
1629738279.7349, 75, 0, 4381.538, 4237.436, 4104.615, 4131.282, 4296.41, 16235, 0, []
1629738279.7428, 76, 0, 4363.077, 4249.231, 4105.128, 4136.923, 4290.256, 450, 0, []
1629738279.7505, 77, 0, 4318.974, 4244.103, 4082.051, 4104.615, 4252.308, 450, 0, []
1629738279.7585, 78, 0, 4294.872, 4224.103, 4065.641, 4094.872, 4231.282, 450, 0, []
1629738279.7664, 79, 0, 4307.179, 4244.103, 4094.872, 4111.795, 4244.103, 16235, 0, []
1629738279.7744, 80, 0, 4317.949, 4261.026, 4106.154, 4126.154, 4252.821, 450, 0, []
1629738279.7823, 81, 0, 4312.308, 4238.462, 4088.718, 4130.769, 4246.667, 450, 0, []
1629738279.7902, 82, 0, 4301.538, 4224.615, 4095.385, 4131.282, 4237.436, 450, 0, []
1629738279.7981, 83, 0, 4284.103, 4235.385, 4091.795, 4123.077, 4218.462, 16235, 0, []
1629738279.8061, 84, 0, 4278.974, 4238.974, 4093.333, 4112.308, 4207.179, 450, 0, []
1629738279.814, 85, 0, 4300.513, 4234.359, 4111.282, 4137.436, 4227.692, 450, 0, []
1629738279.822, 86, 0, 4317.949, 4242.564, 4126.667, 4176.923, 4242.564, 450, 0, []
1629738279.8299, 87, 0, 4291.282, 4237.436, 4115.385, 4153.333, 4211.282, 16235, 0, []
1629738279.8378, 88, 0, 4270.769, 4231.795, 4080.513, 4120, 4192.821, 450, 0, []
1629738279.8457, 89, 0, 4291.282, 4255.385, 4089.744, 4149.231, 4220.513, 450, 0, []
1629738279.8535, 90, 0, 4285.641, 4260.513, 4104.103, 4157.436, 4217.436, 450, 0, []
1629738279.8614, 91, 0, 4264.103, 4235.385, 4085.641, 4134.359, 4186.667, 16235, 0, []
1629738279.8692, 92, 0, 4274.872, 4246.667, 4085.128, 4151.795, 4195.385, 450, 0, []
1629738279.877, 93, 0, 4280, 4276.923, 4077.949, 4156.923, 4209.231, 450, 0, []
1629738279.8848, 94, 0, 4255.897, 4250.256, 4061.026, 4119.487, 4183.077, 450, 0, []
1629738279.8927, 95, 0, 4252.308, 4230.769, 4065.128, 4121.538, 4169.744, 16235, 0, []
1629738279.9005, 96, 0, 4275.385, 4263.077, 4084.615, 4154.872, 4195.385, 450, 0, []
1629738279.9084, 97, 0, 4300, 4286.154, 4122.564, 4174.359, 4227.179, 450, 0, []
1629738279.9161, 98, 0, 4317.436, 4289.231, 4136.41, 4194.872, 4246.154, 450, 0, []
1629738279.924, 99, 0, 4292.821, 4273.846, 4115.385, 4185.128, 4224.103, 16235, 0, []
1629738279.9318, 100, 0, 4261.026, 4248.205, 4101.538, 4152.308, 4192.821, 450, 0, []
1629738279.9398, 101, 0, 4285.641, 4252.821, 4116.923, 4169.744, 4215.897, 450, 0, []
1629738279.9477, 102, 0, 4310.769, 4258.974, 4147.179, 4198.974, 4241.538, 450, 0, []
1629738279.9556, 103, 0, 4288.718, 4223.077, 4129.744, 4179.487, 4214.359, 16235, 0, []
1629738279.9635, 104, 0, 4265.128, 4200.513, 4107.692, 4166.667, 4190.769, 450, 0, []
1629738279.9715, 105, 0, 4269.744, 4237.436, 4121.538, 4188.205, 4201.538, 450, 0, []
1629738279.9794, 106, 0, 4271.282, 4246.154, 4116.923, 4190.256, 4202.051, 450, 0, []
1629738279.9874, 107, 0, 4241.026, 4195.385, 4097.436, 4157.436, 4170.769, 16235, 0, []
1629738279.9952, 108, 0, 4226.154, 4183.59, 4091.282, 4146.154, 4162.051, 450, 0, []
1629738280.0032, 109, 0, 4261.026, 4223.59, 4120, 4184.615, 4199.487, 450, 0, []
1629738280.0111, 110, 0, 4284.615, 4232.308, 4143.59, 4214.359, 4224.615, 450, 0, []
1629738280.0189, 111, 0, 4265.641, 4203.59, 4122.564, 4200, 4211.282, 16235, 0, []
1629738280.0268, 112, 0, 4257.436, 4210.256, 4127.179, 4193.846, 4211.795, 450, 0, []
1629738280.0345, 113, 0, 4271.795, 4226.154, 4133.846, 4209.744, 4224.615, 450, 0, []
1629738280.0424, 114, 0, 4272.308, 4203.077, 4123.59, 4200.513, 4216.41, 450, 0, []
1629738280.0502, 115, 0, 4272.821, 4197.436, 4138.462, 4187.179, 4218.462, 16235, 0, []
1629738280.0581, 116, 0, 4266.154, 4211.795, 4127.692, 4187.692, 4219.487, 450, 0, []
1629738280.0659, 117, 0, 4248.718, 4202.051, 4114.359, 4189.231, 4202.564, 450, 0, []
1629738280.0738, 118, 0, 4255.897, 4201.026, 4132.308, 4201.026, 4209.744, 450, 0, []
1629738280.0815, 119, 0, 4278.462, 4226.667, 4150.256, 4225.128, 4236.923, 16235, 0, []
1629738280.0895, 120, 0, 4266.154, 4198.462, 4142.564, 4218.462, 4227.692, 450, 0, []
1629738280.0974, 121, 0, 4220.513, 4158.974, 4100, 4177.436, 4185.128, 450, 0, []
1629738280.1054, 122, 0, 4204.103, 4190.769, 4096.41, 4161.026, 4171.282, 450, 0, []
1629738280.1133, 123, 0, 4222.051, 4210.256, 4118.462, 4168.205, 4193.846, 16235, 0, []
1629738280.1212, 124, 0, 4231.795, 4196.923, 4118.974, 4171.282, 4210.256, 450, 0, []
1629738280.1291, 125, 0, 4214.359, 4192.821, 4116.41, 4167.179, 4188.718, 450, 0, []
1629738280.1371, 126, 0, 4192.821, 4188.205, 4101.538, 4155.897, 4162.564, 450, 0, []
1629738280.145, 127, 0, 4212.308, 4198.974, 4121.538, 4177.949, 4190.256, 16235, 0, []
1629738280.153, 128, 0, 4230.256, 4202.564, 4146.154, 4207.179, 4220, 450, 0, []
1629738280.1608, 0, 0, 4203.077, 4172.308, 4127.692, 4192.308, 4195.897, 450, 0, []
1629738280.1688, 1, 0, 4195.897, 4176.923, 4140, 4187.692, 4185.128, 450, 0, []
1629738280.1767, 2, 0, 4225.641, 4224.103, 4161.538, 4209.231, 4210.769, 16152, 0, []
1629738280.1845, 3, 0, 4216.41, 4212.821, 4146.667, 4189.744, 4203.59, 450, 0, []
1629738280.1924, 4, 0, 4183.59, 4174.359, 4135.385, 4170.256, 4178.462, 16093, 0, []
1629738280.2001, 5, 0, 4165.128, 4180, 4133.333, 4186.154, 4164.615, 450, 0, []
1629738280.208, 6, 0, 4148.718, 4188.205, 4128.718, 4173.846, 4145.641, 16077, 0, []
1629738280.2158, 7, 0, 4165.128, 4182.564, 4125.641, 4167.692, 4157.436, 450, 0, []
1629738280.2237, 8, 0, 4190.256, 4188.205, 4137.436, 4197.949, 4183.59, 450, 0, []
1629738280.2315, 9, 0, 4175.385, 4189.231, 4142.564, 4194.359, 4174.872, 16156, 0, []
1629738280.2394, 10, 0, 4170.769, 4185.128, 4133.333, 4174.359, 4174.359, 450, 0, []
1629738280.2473, 11, 0, 4184.103, 4193.846, 4140.513, 4188.205, 4187.179, 16262, 0, []
1629738280.2553, 12, 0, 4160.513, 4194.872, 4123.077, 4181.538, 4163.077, 450, 0, []
1629738280.2632, 13, 0, 4132.308, 4186.667, 4104.103, 4145.641, 4133.333, 450, 0, []
1629738280.2712, 14, 0, 4143.59, 4194.359, 4122.564, 4148.718, 4148.205, 450, 0, []
1629738280.2791, 15, 0, 4169.231, 4211.282, 4129.744, 4182.564, 4179.487, 16262, 0, []
1629738280.287, 16, 0, 4183.077, 4212.308, 4134.872, 4195.385, 4190.769, 0, 0, []
1629738280.2949, 17, 0, 4170.769, 4207.179, 4125.641, 4182.564, 4177.949, 0, 0, []
1629738280.3029, 18, 0, 4150.256, 4205.641, 4104.615, 4162.564, 4156.41, 0, 0, []
1629738280.3108, 19, 0, 4161.538, 4207.692, 4116.923, 4168.718, 4164.615, 0, 0, []
1629738280.3188, 20, 0, 4184.103, 4229.744, 4135.897, 4196.41, 4193.846, 0, 0, []
1629738280.3266, 21, 0, 4167.179, 4240.513, 4133.333, 4188.205, 4185.641, 0, 0, []
1629738280.3344, 22, 0, 4149.231, 4234.872, 4120, 4168.718, 4168.205, 0, 0, []
1629738280.3423, 23, 0, 4168.718, 4244.615, 4125.641, 4182.051, 4185.641, 0, 0, []
1629738280.3501, 24, 0, 4162.051, 4248.718, 4129.744, 4179.487, 4186.154, 0, 0, []
1629738280.358, 25, 0, 4129.231, 4238.462, 4103.077, 4158.462, 4165.128, 0, 0, []
1629738280.3657, 26, 0, 4131.282, 4241.026, 4109.744, 4165.641, 4169.744, 0, 0, []
1629738280.3736, 27, 0, 4134.359, 4229.231, 4108.718, 4165.641, 4167.179, 0, 0, []
1629738280.3814, 28, 0, 4116.923, 4200.513, 4075.897, 4147.179, 4152.308, 0, 0, []
1629738280.3893, 29, 0, 4122.564, 4213.333, 4092.308, 4151.282, 4163.59, 0, 0, []
1629738280.3971, 30, 0, 4126.667, 4223.077, 4103.59, 4154.872, 4170.769, 0, 0, []
1629738280.405, 31, 0, 4116.923, 4196.923, 4103.077, 4156.41, 4164.615, 0, 0, []
1629738280.4129, 32, 0, 4131.282, 4221.026, 4128.205, 4177.949, 4183.59, 0, 0, []
1629738280.4209, 33, 0, 4143.077, 4270.769, 4128.205, 4182.051, 4199.487, 0, 0, []
1629738280.4288, 34, 0, 4128.205, 4261.026, 4116.923, 4171.282, 4180.513, 0, 0, []
1629738280.4368, 35, 0, 4122.564, 4226.667, 4111.282, 4177.949, 4167.692, 0, 0, []
1629738280.4446, 36, 0, 4124.615, 4232.821, 4117.436, 4185.128, 4176.923, 0, 0, []
1629738280.4526, 37, 0, 4115.897, 4266.154, 4128.205, 4189.231, 4182.051, 0, 0, []
1629738280.4605, 38, 0, 4110.256, 4259.487, 4116.923, 4180.513, 4173.333, 0, 0, []
1629738280.4685, 39, 0, 4102.051, 4226.154, 4108.718, 4151.282, 4164.103, 0, 0, []
1629738280.4764, 40, 0, 4095.897, 4231.795, 4104.103, 4152.308, 4168.718, 0, 0, []
1629738280.4843, 41, 0, 4093.846, 4250.769, 4107.692, 4172.308, 4167.692, 0, 0, []
1629738280.4921, 42, 0, 4088.205, 4252.308, 4111.282, 4163.077, 4153.846, 0, 0, []
1629738280.5, 43, 0, 4077.436, 4234.359, 4091.795, 4142.051, 4141.538, 0, 0, []
1629738280.5079, 44, 0, 4068.718, 4217.949, 4095.385, 4141.538, 4137.949, 0, 0, []
1629738280.5157, 45, 0, 4073.846, 4240.513, 4103.077, 4144.615, 4144.103, 0, 0, []
1629738280.5237, 46, 0, 4088.205, 4268.205, 4115.385, 4157.949, 4160.513, 0, 0, []
1629738280.5315, 47, 0, 4098.974, 4265.641, 4140, 4184.615, 4174.359, 0, 0, []
1629738280.5394, 48, 0, 4088.718, 4268.205, 4128.205, 4183.59, 4164.103, 0, 0, []
1629738280.5472, 49, 0, 4072.308, 4280, 4121.026, 4159.487, 4146.667, 0, 0, []
1629738280.5552, 50, 0, 4060.513, 4270.256, 4124.615, 4140.513, 4136.41, 0, 0, []
1629738280.5631, 51, 0, 4044.615, 4248.718, 4115.385, 4140.513, 4122.564, 0, 0, []
1629738280.571, 52, 0, 4034.359, 4243.59, 4110.769, 4157.949, 4121.026, 0, 0, []
1629738280.5789, 53, 0, 4036.41, 4254.872, 4104.615, 4166.154, 4132.308, 0, 0, []
1629738280.5869, 54, 0, 4024.103, 4253.333, 4097.436, 4147.179, 4112.308, 0, 0, []
1629738280.5948, 55, 0, 4002.564, 4228.718, 4079.487, 4123.59, 4082.051, 0, 0, []
1629738280.6028, 56, 0, 4017.436, 4223.077, 4089.231, 4146.154, 4112.821, 0, 0, []
1629738280.6106, 57, 0, 4029.744, 4236.923, 4115.385, 4163.077, 4141.026, 0, 0, []
1629738280.6185, 58, 0, 4014.359, 4236.41, 4101.538, 4140.513, 4118.974, 0, 0, []
1629738280.6264, 59, 0, 4015.897, 4240, 4116.41, 4140, 4112.308, 0, 0, []
1629738280.6342, 60, 0, 4024.103, 4257.436, 4139.487, 4160, 4123.59, 0, 0, []
1629738280.6421, 61, 0, 4005.128, 4267.692, 4113.846, 4148.205, 4105.128, 0, 0, []
1629738280.6498, 62, 0, 3984.615, 4254.359, 4102.051, 4129.744, 4083.077, 0, 0, []
1629738280.6577, 63, 0, 3990.769, 4230.256, 4100.513, 4141.026, 4088.718, 0, 0, []
1629738280.6655, 64, 0, 3995.897, 4229.231, 4101.026, 4146.154, 4090.256, 450, 0, []
1629738280.6734, 65, 0, 3994.872, 4232.821, 4113.846, 4148.205, 4088.718, 450, 0, []
1629738280.6812, 66, 0, 3994.359, 4212.821, 4123.59, 4159.487, 4094.359, 16188, 0, []
1629738280.6891, 67, 0, 3992.308, 4208.718, 4134.872, 4161.538, 4092.821, 450, 0, []
1629738280.6968, 68, 0, 3976.41, 4235.897, 4113.333, 4146.154, 4072.308, 16141, 0, []
1629738280.7048, 69, 0, 3955.385, 4254.359, 4096.923, 4130.256, 4052.821, 450, 0, []
1629738280.7127, 70, 0, 3957.949, 4247.692, 4107.692, 4125.128, 4056.923, 16067, 0, []
1629738280.7207, 71, 0, 3943.077, 4231.795, 4083.077, 4097.949, 4042.564, 450, 0, []
1629738280.7286, 72, 0, 3933.333, 4231.795, 4090.256, 4095.897, 4035.385, 450, 0, []
1629738280.7365, 73, 0, 3987.692, 4257.436, 4142.564, 4156.923, 4092.308, 16177, 0, []
1629738280.7444, 74, 0, 4019.487, 4283.59, 4154.872, 4188.205, 4126.154, 450, 0, []
1629738280.7524, 75, 0, 3966.154, 4279.487, 4120, 4160, 4074.359, 16221, 0, []
1629738280.7603, 76, 0, 3918.974, 4258.974, 4095.385, 4148.718, 4027.692, 450, 0, []
1629738280.7683, 77, 0, 3911.282, 4248.718, 4102.564, 4136.923, 4016.41, 450, 0, []
1629738280.7761, 78, 0, 3895.897, 4235.897, 4079.487, 4097.949, 4001.538, 450, 0, []
1629738280.7839, 79, 0, 3892.308, 4226.154, 4069.744, 4092.821, 4010.256, 16221, 0, []
1629738280.7918, 80, 0, 3917.436, 4250.256, 4107.179, 4112.821, 4045.641, 450, 0, []
1629738280.7996, 81, 0, 3934.359, 4275.385, 4121.538, 4127.179, 4063.59, 450, 0, []
1629738280.8075, 82, 0, 3920, 4252.821, 4112.821, 4138.974, 4041.538, 450, 0, []
1629738280.8152, 83, 0, 3895.897, 4220, 4092.821, 4132.821, 4009.744, 16221, 0, []
1629738280.8231, 84, 0, 3883.59, 4231.795, 4086.154, 4117.436, 4004.103, 450, 0, []
1629738280.8309, 85, 0, 3873.333, 4255.385, 4098.462, 4118.462, 4003.077, 450, 0, []
1629738280.8388, 86, 0, 3878.974, 4250.256, 4096.923, 4130.769, 4001.538, 450, 0, []
1629738280.8466, 87, 0, 3908.205, 4243.077, 4122.564, 4144.615, 4023.59, 16221, 0, []
1629738280.8544, 88, 0, 3911.795, 4252.308, 4131.795, 4140, 4029.231, 450, 0, []
1629738280.8622, 89, 0, 3872.308, 4257.436, 4100, 4104.103, 3983.077, 450, 0, []
1629738280.8702, 90, 0, 3851.795, 4251.282, 4105.641, 4095.897, 3961.026, 450, 0, []
1629738280.8781, 91, 0, 3858.462, 4224.103, 4106.154, 4125.128, 3980, 16221, 0, []
1629738280.8861, 92, 0, 3845.641, 4195.385, 4081.538, 4124.103, 3973.333, 450, 0, []
1629738280.894, 93, 0, 3844.103, 4216.923, 4078.974, 4121.538, 3967.692, 450, 0, []
1629738280.9019, 94, 0, 3877.949, 4264.103, 4102.051, 4152.308, 4000, 450, 0, []
1629738280.9098, 95, 0, 3886.154, 4266.667, 4112.821, 4148.718, 4013.333, 16221, 0, []
1629738280.9178, 96, 0, 3842.051, 4244.103, 4076.41, 4103.59, 3974.872, 450, 0, []
1629738280.9257, 97, 0, 3812.308, 4235.897, 4069.231, 4094.872, 3944.103, 450, 0, []
1629738280.9337, 98, 0, 3833.846, 4238.462, 4102.051, 4127.179, 3965.641, 450, 0, []
1629738280.9415, 99, 0, 3857.436, 4265.128, 4125.641, 4153.846, 4000.513, 16221, 0, []
1629738280.9493, 100, 0, 3833.333, 4272.821, 4129.744, 4140.513, 3986.154, 450, 0, []
1629738280.9572, 101, 0, 3789.744, 4227.179, 4098.462, 4103.077, 3946.667, 450, 0, []
1629738280.965, 102, 0, 3790.769, 4218.462, 4108.205, 4122.564, 3960, 450, 0, []
1629738280.9729, 103, 0, 3808.205, 4236.923, 4136.41, 4164.103, 3992.821, 16221, 0, []
1629738280.9806, 104, 0, 3795.385, 4202.564, 4121.538, 4143.59, 3980, 450, 0, []
1629738280.9885, 105, 0, 3791.795, 4188.205, 4130.256, 4123.59, 3972.821, 450, 0, []
1629738280.9963, 106, 0, 3802.564, 4231.795, 4139.487, 4142.051, 3992.821, 450, 0, []
1629738281.0042, 107, 0, 3782.564, 4225.641, 4122.564, 4134.359, 3984.615, 16221, 0, []
1629738281.012, 108, 0, 3754.872, 4188.718, 4107.692, 4118.974, 3964.615, 450, 0, []
1629738281.0199, 109, 0, 3756.41, 4191.282, 4096.923, 4137.949, 3972.821, 450, 0, []
1629738281.0278, 110, 0, 3749.231, 4181.026, 4095.897, 4139.487, 3971.282, 450, 0, []
1629738281.0358, 111, 0, 3727.692, 4166.154, 4081.026, 4117.436, 3953.333, 16221, 0, []
1629738281.0437, 112, 0, 3727.179, 4184.103, 4083.59, 4118.974, 3961.026, 450, 0, []
1629738281.0517, 113, 0, 3744.103, 4190.769, 4110.256, 4144.103, 3985.641, 450, 0, []
1629738281.0595, 114, 0, 3748.718, 4178.462, 4103.077, 4144.615, 3985.641, 450, 0, []
1629738281.0675, 115, 0, 3726.154, 4173.333, 4090.769, 4108.205, 3962.051, 16221, 0, []
1629738281.0754, 116, 0, 3708.205, 4173.846, 4081.538, 4087.692, 3955.385, 450, 0, []
1629738281.0834, 117, 0, 3721.538, 4182.051, 4077.436, 4098.974, 3972.308, 450, 0, []
1629738281.0913, 118, 0, 3748.718, 4192.821, 4096.41, 4121.538, 3992.308, 450, 0, []
1629738281.099, 119, 0, 3751.282, 4163.59, 4092.821, 4139.487, 4002.051, 16221, 0, []
1629738281.1069, 120, 0, 3731.795, 4131.795, 4082.051, 4143.077, 4000.513, 450, 0, []
1629738281.1147, 121, 0, 3733.846, 4156.41, 4084.103, 4143.59, 4003.077, 450, 0, []
1629738281.1226, 122, 0, 3750.769, 4171.282, 4101.026, 4148.205, 4015.385, 450, 0, []
1629738281.1304, 123, 0, 3735.897, 4133.846, 4113.333, 4131.795, 4006.154, 16221, 0, []
1629738281.1383, 124, 0, 3700.513, 4133.333, 4084.103, 4089.231, 3975.897, 450, 0, []
1629738281.146, 125, 0, 3690.769, 4169.231, 4084.103, 4073.333, 3963.077, 450, 0, []
1629738281.1539, 126, 0, 3698.974, 4160, 4101.026, 4088.205, 3968.205, 450, 0, []
1629738281.1617, 127, 0, 3713.333, 4141.538, 4104.103, 4114.359, 3992.308, 16221, 0, []
1629738281.1697, 128, 0, 3736.923, 4152.821, 4124.103, 4145.128, 4027.179, 450, 0, []
1629738281.1776, 0, 0, 3758.974, 4155.897, 4116.41, 4150.769, 4048.205, 450, 0, []
1629738281.1855, 1, 0, 3774.872, 4159.487, 4106.154, 4138.974, 4061.538, 450, 0, []
1629738281.1934, 2, 0, 3785.128, 4177.436, 4105.641, 4141.538, 4076.923, 16203, 0, []
1629738281.2014, 3, 0, 3813.333, 4174.872, 4093.846, 4151.282, 4098.974, 450, 0, []
1629738281.2093, 4, 0, 3858.462, 4150.256, 4101.026, 4143.077, 4131.282, 16148, 0, []
1629738281.2173, 5, 0, 3886.667, 4158.462, 4098.462, 4139.487, 4163.59, 450, 0, []
1629738281.2251, 6, 0, 3897.949, 4189.744, 4099.487, 4157.436, 4177.436, 16067, 0, []
1629738281.2331, 7, 0, 3898.974, 4190.256, 4109.231, 4158.974, 4172.821, 450, 0, []
1629738281.241, 8, 0, 3878.974, 4166.667, 4098.462, 4141.538, 4157.949, 450, 0, []
1629738281.2489, 9, 0, 3840.513, 4153.333, 4084.615, 4128.205, 4117.949, 16184, 0, []
1629738281.2568, 10, 0, 3813.846, 4149.744, 4067.179, 4117.949, 4081.026, 450, 0, []
1629738281.2645, 11, 0, 3817.436, 4155.385, 4077.949, 4122.564, 4095.897, 16219, 0, []
1629738281.2724, 12, 0, 3841.538, 4187.692, 4106.154, 4151.282, 4127.179, 450, 0, []
1629738281.2802, 13, 0, 3839.487, 4210.256, 4099.487, 4166.154, 4114.872, 450, 0, []
1629738281.2881, 14, 0, 3813.333, 4198.462, 4102.051, 4150.769, 4089.744, 450, 0, []
1629738281.2959, 15, 0, 3809.744, 4183.077, 4111.282, 4145.128, 4090.769, 16219, 0, []
1629738281.3037, 16, 0, 3806.667, 4177.949, 4118.462, 4152.821, 4082.564, 0, 0, []
1629738281.3115, 17, 0, 3785.641, 4178.974, 4129.744, 4150.769, 4062.564, 0, 0, []
1629738281.3194, 18, 0, 3780, 4182.051, 4126.667, 4142.564, 4062.051, 0, 0, []
1629738281.3272, 19, 0, 3799.487, 4188.718, 4158.462, 4158.974, 4078.462, 0, 0, []
1629738281.3352, 20, 0, 3813.846, 4209.231, 4182.051, 4184.615, 4091.282, 0, 0, []
1629738281.3431, 21, 0, 3804.103, 4236.923, 4160.513, 4170.769, 4086.667, 0, 0, []
1629738281.351, 22, 0, 3789.231, 4235.897, 4137.949, 4138.974, 4072.821, 0, 0, []
1629738281.3589, 23, 0, 3779.487, 4194.872, 4109.231, 4130.256, 4054.872, 0, 0, []
1629738281.3669, 24, 0, 3768.205, 4163.077, 4102.564, 4136.923, 4039.487, 0, 0, []
1629738281.3748, 25, 0, 3766.154, 4163.59, 4110.256, 4145.128, 4042.051, 0, 0, []
1629738281.3828, 26, 0, 3768.718, 4176.41, 4112.308, 4151.282, 4051.282, 0, 0, []
1629738281.3906, 27, 0, 3735.385, 4161.026, 4099.487, 4121.026, 4018.974, 0, 0, []
1629738281.3986, 28, 0, 3700.513, 4120.513, 4071.795, 4084.615, 3984.103, 0, 0, []
1629738281.4065, 29, 0, 3737.436, 4124.103, 4103.077, 4120.513, 4023.077, 0, 0, []
1629738281.4143, 30, 0, 3794.359, 4180, 4145.641, 4173.846, 4083.59, 0, 0, []
1629738281.4222, 31, 0, 3790.769, 4195.897, 4136.41, 4170.256, 4082.051, 0, 0, []
1629738281.4299, 32, 0, 3754.872, 4171.282, 4118.974, 4140.513, 4042.051, 0, 0, []
1629738281.4378, 33, 0, 3748.718, 4175.897, 4105.641, 4132.821, 4030.769, 0, 0, []
1629738281.4456, 34, 0, 3773.846, 4190.769, 4118.462, 4150.769, 4057.949, 0, 0, []
1629738281.4535, 35, 0, 3787.179, 4200.513, 4115.385, 4160.513, 4073.846, 0, 0, []
1629738281.4613, 36, 0, 3786.154, 4211.795, 4088.718, 4152.821, 4063.59, 0, 0, []
1629738281.4691, 37, 0, 3800.513, 4204.615, 4106.154, 4157.949, 4071.795, 0, 0, []
1629738281.4769, 38, 0, 3827.179, 4203.59, 4125.128, 4176.41, 4098.974, 0, 0, []
1629738281.4848, 39, 0, 3817.436, 4220.513, 4108.205, 4163.077, 4080, 0, 0, []
1629738281.4928, 40, 0, 3785.641, 4209.231, 4080, 4129.231, 4037.436, 0, 0, []
1629738281.5008, 41, 0, 3802.564, 4187.692, 4086.667, 4139.487, 4054.359, 0, 0, []
1629738281.5086, 42, 0, 3832.308, 4190.769, 4121.026, 4162.564, 4085.128, 0, 0, []
1629738281.5166, 43, 0, 3838.462, 4215.897, 4115.897, 4158.462, 4083.59, 0, 0, []
1629738281.5245, 44, 0, 3849.231, 4236.41, 4118.462, 4161.538, 4087.692, 0, 0, []
1629738281.5325, 45, 0, 3856.41, 4217.436, 4130.256, 4171.795, 4091.282, 0, 0, []
1629738281.5404, 46, 0, 3853.333, 4207.692, 4119.487, 4172.821, 4085.641, 0, 0, []
1629738281.5481, 47, 0, 3865.641, 4238.462, 4138.974, 4176.41, 4099.487, 0, 0, []
1629738281.556, 48, 0, 3862.051, 4233.846, 4137.436, 4159.487, 4100.513, 0, 0, []
1629738281.5638, 49, 0, 3825.128, 4186.154, 4115.897, 4128.718, 4065.641, 0, 0, []
1629738281.5717, 50, 0, 3829.231, 4168.718, 4139.487, 4153.846, 4074.872, 0, 0, []
1629738281.5795, 51, 0, 3860, 4184.615, 4150.256, 4193.333, 4112.821, 0, 0, []
1629738281.5874, 52, 0, 3846.154, 4211.795, 4135.385, 4170.256, 4094.359, 0, 0, []
1629738281.5951, 53, 0, 3841.026, 4221.026, 4126.154, 4147.692, 4076.923, 0, 0, []
1629738281.603, 54, 0, 3864.103, 4196.41, 4128.205, 4151.795, 4094.872, 0, 0, []
1629738281.6108, 55, 0, 3882.564, 4208.205, 4144.615, 4156.923, 4109.744, 0, 0, []
1629738281.6187, 56, 0, 3912.821, 4245.641, 4162.051, 4182.564, 4129.231, 0, 0, []
1629738281.6265, 57, 0, 3927.692, 4242.051, 4169.231, 4198.974, 4139.487, 0, 0, []
1629738281.6343, 58, 0, 3887.179, 4226.667, 4127.692, 4173.333, 4106.154, 0, 0, []
1629738281.6421, 59, 0, 3861.538, 4229.231, 4098.974, 4157.436, 4074.359, 0, 0, []
1629738281.6501, 60, 0, 3888.205, 4236.41, 4126.667, 4168.205, 4086.667, 0, 0, []
1629738281.658, 61, 0, 3907.179, 4236.41, 4126.154, 4164.615, 4105.641, 0, 0, []
1629738281.666, 62, 0, 3903.59, 4221.538, 4121.538, 4145.641, 4097.949, 0, 0, []
1629738281.6738, 63, 0, 3910.769, 4207.179, 4135.385, 4142.051, 4096.923, 0, 0, []
1629738281.6818, 64, 0, 3920, 4212.821, 4141.026, 4159.487, 4113.846, 450, 0, []
1629738281.6897, 65, 0, 3931.282, 4223.59, 4154.359, 4181.538, 4126.667, 450, 0, []
1629738281.6977, 66, 0, 3948.718, 4232.308, 4157.949, 4190.769, 4135.897, 16203, 0, []
1629738281.7056, 67, 0, 3946.667, 4231.795, 4155.897, 4186.154, 4137.436, 450, 0, []
1629738281.7135, 68, 0, 3924.103, 4216.923, 4133.333, 4170.256, 4116.41, 16149, 0, []
1629738281.7214, 69, 0, 3926.154, 4234.359, 4116.41, 4163.59, 4104.103, 450, 0, []
1629738281.7292, 70, 0, 3963.59, 4269.231, 4149.744, 4195.385, 4139.487, 16059, 0, []
1629738281.7371, 71, 0, 3979.487, 4250.256, 4148.205, 4206.667, 4161.538, 450, 0, []
1629738281.7449, 72, 0, 3951.282, 4221.538, 4116.41, 4161.538, 4123.59, 450, 0, []
1629738281.7527, 73, 0, 3930.256, 4242.564, 4101.538, 4134.872, 4086.154, 16174, 0, []
1629738281.7605, 74, 0, 3944.615, 4253.333, 4106.667, 4152.308, 4091.795, 450, 0, []
1629738281.7684, 75, 0, 3970.256, 4230.769, 4142.051, 4174.359, 4112.821, 16204, 0, []
1629738281.7762, 76, 0, 3972.821, 4231.795, 4141.538, 4173.333, 4105.641, 450, 0, []
1629738281.7841, 77, 0, 3964.103, 4235.385, 4121.538, 4150.256, 4078.974, 450, 0, []
1629738281.7919, 78, 0, 3980.513, 4213.333, 4126.667, 4145.128, 4082.564, 450, 0, []
1629738281.7998, 79, 0, 4010.769, 4209.231, 4132.821, 4169.231, 4116.41, 16204, 0, []
1629738281.8077, 80, 0, 4027.179, 4241.026, 4141.026, 4179.487, 4136.41, 450, 0, []
1629738281.8157, 81, 0, 4031.795, 4265.641, 4125.641, 4167.179, 4129.744, 450, 0, []
1629738281.8236, 82, 0, 4030.256, 4254.872, 4113.846, 4162.564, 4117.949, 450, 0, []
1629738281.8316, 83, 0, 4022.051, 4237.949, 4118.462, 4161.538, 4112.821, 16204, 0, []
1629738281.8394, 84, 0, 4022.051, 4235.385, 4115.385, 4159.487, 4122.051, 450, 0, []
1629738281.8474, 85, 0, 4028.205, 4238.974, 4124.615, 4159.487, 4120.513, 450, 0, []
1629738281.8553, 86, 0, 4026.154, 4229.744, 4111.282, 4147.692, 4094.359, 450, 0, []
1629738281.8632, 87, 0, 4037.949, 4224.103, 4107.692, 4150.256, 4091.282, 16204, 0, []
1629738281.8711, 88, 0, 4055.385, 4246.154, 4125.128, 4162.051, 4108.205, 450, 0, []
1629738281.8788, 89, 0, 4052.308, 4268.205, 4114.872, 4152.821, 4107.692, 450, 0, []
1629738281.8867, 90, 0, 4057.436, 4270.769, 4130.256, 4160, 4107.179, 450, 0, []
1629738281.8945, 91, 0, 4089.744, 4258.974, 4158.974, 4200.513, 4127.692, 16204, 0, []
1629738281.9024, 92, 0, 4097.436, 4256.41, 4155.385, 4206.667, 4136.923, 450, 0, []
1629738281.9102, 93, 0, 4076.41, 4243.59, 4142.564, 4180, 4124.615, 450, 0, []
1629738281.918, 94, 0, 4075.385, 4223.59, 4136.41, 4184.615, 4123.59, 450, 0, []
1629738281.9258, 95, 0, 4076.923, 4226.154, 4141.538, 4200, 4126.667, 16204, 0, []
1629738281.9337, 96, 0, 4060, 4214.872, 4115.897, 4180.513, 4110.769, 450, 0, []
1629738281.9415, 97, 0, 4044.615, 4182.564, 4086.154, 4154.359, 4086.667, 450, 0, []
1629738281.9495, 98, 0, 4048.718, 4180.513, 4102.051, 4153.846, 4088.718, 450, 0, []
1629738281.9573, 99, 0, 4075.385, 4219.487, 4117.949, 4171.795, 4121.538, 16204, 0, []
1629738281.9653, 100, 0, 4079.487, 4223.077, 4113.333, 4167.692, 4119.487, 450, 0, []
1629738281.9732, 101, 0, 4035.897, 4163.59, 4077.436, 4124.103, 4064.615, 450, 0, []
1629738281.9812, 102, 0, 4031.795, 4135.385, 4066.667, 4115.897, 4053.846, 450, 0, []
1629738281.9891, 103, 0, 4080.513, 4176.923, 4118.974, 4165.128, 4105.641, 16204, 0, []
1629738281.9971, 104, 0, 4086.667, 4207.179, 4127.179, 4180.513, 4117.949, 450, 0, []
1629738282.0049, 105, 0, 4056.923, 4180.513, 4096.923, 4148.205, 4080, 450, 0, []
1629738282.0129, 106, 0, 4066.667, 4157.436, 4089.231, 4133.846, 4069.744, 450, 0, []
1629738282.0208, 107, 0, 4097.949, 4170.769, 4095.385, 4143.077, 4087.179, 16204, 0, []
1629738282.0286, 108, 0, 4099.487, 4177.436, 4111.282, 4143.077, 4088.205, 450, 0, []
1629738282.0365, 109, 0, 4093.846, 4156.923, 4104.103, 4142.564, 4083.59, 450, 0, []
1629738282.0442, 110, 0, 4099.487, 4137.436, 4097.436, 4146.667, 4089.231, 450, 0, []
1629738282.0521, 111, 0, 4097.436, 4147.179, 4101.026, 4133.846, 4085.128, 16204, 0, []
1629738282.0599, 112, 0, 4074.872, 4170.256, 4080.513, 4103.077, 4056.923, 450, 0, []
1629738282.0678, 113, 0, 4054.872, 4172.308, 4065.641, 4085.128, 4027.179, 450, 0, []
1629738282.0756, 114, 0, 4078.462, 4165.641, 4073.333, 4106.667, 4044.615, 450, 0, []
1629738282.0835, 115, 0, 4121.538, 4171.795, 4103.077, 4147.179, 4091.282, 16204, 0, []
1629738282.0914, 116, 0, 4145.128, 4188.718, 4122.564, 4169.744, 4114.359, 450, 0, []
1629738282.0993, 117, 0, 4142.564, 4180.513, 4105.128, 4166.154, 4108.205, 450, 0, []
1629738282.1071, 118, 0, 4120.513, 4136.41, 4093.333, 4144.615, 4089.231, 450, 0, []
1629738282.1151, 119, 0, 4113.846, 4126.154, 4086.667, 4135.385, 4082.051, 16204, 0, []
1629738282.1229, 120, 0, 4140, 4162.051, 4105.641, 4152.308, 4100.513, 450, 0, []
1629738282.1309, 121, 0, 4177.436, 4182.564, 4141.026, 4178.462, 4133.333, 450, 0, []
1629738282.1388, 122, 0, 4180, 4158.462, 4112.821, 4173.846, 4133.333, 450, 0, []
1629738282.1468, 123, 0, 4147.692, 4124.103, 4073.333, 4134.359, 4094.359, 16204, 0, []
1629738282.1547, 124, 0, 4160, 4127.692, 4086.667, 4137.436, 4100, 450, 0, []
1629738282.1626, 125, 0, 4221.026, 4154.872, 4125.641, 4193.333, 4155.385, 450, 0, []
1629738282.1705, 126, 0, 4227.692, 4158.974, 4123.077, 4204.103, 4152.821, 450, 0, []
1629738282.1783, 127, 0, 4180.513, 4163.59, 4074.872, 4160.513, 4099.487, 16204, 0, []
1629738282.1862, 128, 0, 4182.051, 4176.41, 4078.974, 4148.718, 4095.897, 450, 0, []
1629738282.194, 0, 0, 4207.179, 4144.615, 4092.308, 4156.923, 4110.769, 450, 0, []
1629738282.2019, 1, 0, 4191.795, 4119.487, 4067.692, 4130.769, 4085.128, 450, 0, []
1629738282.2096, 2, 0, 4170.769, 4135.897, 4055.385, 4101.026, 4070.769, 16194, 0, []
1629738282.2175, 3, 0, 4177.949, 4116.41, 4052.308, 4105.128, 4090.769, 450, 0, []
1629738282.2253, 4, 0, 4207.179, 4088.205, 4074.872, 4124.103, 4117.436, 16149, 0, []
1629738282.2332, 5, 0, 4216.923, 4107.179, 4075.385, 4122.564, 4121.538, 450, 0, []
1629738282.241, 6, 0, 4207.179, 4109.744, 4051.795, 4120.513, 4114.359, 16062, 0, []
1629738282.2488, 7, 0, 4213.333, 4106.667, 4074.872, 4144.103, 4117.436, 450, 0, []
1629738282.2566, 8, 0, 4213.846, 4134.872, 4077.436, 4140.513, 4105.641, 450, 0, []
1629738282.2646, 9, 0, 4190.769, 4130.256, 4054.359, 4112.308, 4081.538, 16174, 0, []
1629738282.2725, 10, 0, 4177.949, 4109.744, 4045.641, 4106.667, 4071.282, 450, 0, []
1629738282.2805, 11, 0, 4185.641, 4118.462, 4050.769, 4114.359, 4071.795, 16204, 0, []
1629738282.2883, 12, 0, 4186.667, 4116.41, 4062.051, 4111.795, 4071.282, 450, 0, []
1629738282.2963, 13, 0, 4184.103, 4098.974, 4048.205, 4100, 4072.308, 450, 0, []
1629738282.3042, 14, 0, 4204.615, 4116.41, 4062.051, 4117.949, 4086.667, 450, 0, []
1629738282.3122, 15, 0, 4241.026, 4141.026, 4100, 4161.538, 4114.359, 16204, 0, []
1629738282.3201, 16, 0, 4247.692, 4128.718, 4096.923, 4164.103, 4118.974, 0, 0, []
1629738282.328, 17, 0, 4229.744, 4121.026, 4082.051, 4135.897, 4097.436, 0, 0, []
1629738282.3359, 18, 0, 4245.641, 4134.872, 4083.077, 4153.333, 4109.744, 0, 0, []
1629738282.3437, 19, 0, 4274.359, 4143.59, 4095.897, 4186.667, 4138.462, 0, 0, []
1629738282.3516, 20, 0, 4267.179, 4145.641, 4086.667, 4165.128, 4121.538, 0, 0, []
1629738282.3594, 21, 0, 4256.923, 4139.487, 4063.59, 4133.846, 4093.846, 0, 0, []
1629738282.3672, 22, 0, 4285.128, 4143.59, 4093.333, 4153.333, 4118.462, 0, 0, []
1629738282.375, 23, 0, 4318.974, 4160.513, 4120.513, 4181.538, 4161.026, 0, 0, []
1629738282.3829, 24, 0, 4297.436, 4149.231, 4090.769, 4142.564, 4131.795, 0, 0, []
1629738282.3907, 25, 0, 4286.154, 4134.872, 4082.051, 4115.897, 4102.564, 0, 0, []
1629738282.3986, 26, 0, 4332.821, 4163.59, 4106.154, 4164.615, 4146.667, 0, 0, []
1629738282.4063, 27, 0, 4344.615, 4159.487, 4105.641, 4175.385, 4158.462, 0, 0, []
1629738282.4143, 28, 0, 4337.949, 4129.744, 4091.795, 4157.436, 4142.564, 0, 0, []
1629738282.4222, 29, 0, 4365.641, 4151.795, 4107.692, 4185.128, 4168.205, 0, 0, []
1629738282.4302, 30, 0, 4355.897, 4148.205, 4103.077, 4177.949, 4162.051, 0, 0, []
1629738282.4381, 31, 0, 4337.436, 4118.974, 4073.846, 4152.308, 4136.41, 0, 0, []
1629738282.4461, 32, 0, 4373.846, 4158.974, 4102.051, 4185.641, 4166.154, 0, 0, []
1629738282.4539, 33, 0, 4383.59, 4183.59, 4104.615, 4185.128, 4174.359, 0, 0, []
1629738282.4619, 34, 0, 4360.513, 4136.923, 4066.667, 4136.923, 4140, 0, 0, []
1629738282.4698, 35, 0, 4386.667, 4121.026, 4084.103, 4160.513, 4154.872, 0, 0, []
1629738282.4778, 36, 0, 4413.333, 4155.897, 4098.974, 4205.128, 4182.564, 0, 0, []
1629738282.4857, 37, 0, 4394.872, 4181.538, 4095.897, 4191.795, 4168.205, 0, 0, []
1629738282.4934, 38, 0, 4384.615, 4188.718, 4097.436, 4177.949, 4152.821, 0, 0, []
1629738282.5013, 39, 0, 4399.487, 4181.026, 4096.923, 4184.103, 4158.974, 0, 0, []
1629738282.5091, 40, 0, 4416.923, 4186.154, 4108.205, 4190.256, 4174.359, 0, 0, []
1629738282.517, 41, 0, 4426.667, 4210.769, 4104.615, 4197.436, 4190.256, 0, 0, []
1629738282.5248, 42, 0, 4419.487, 4201.026, 4102.051, 4191.795, 4189.744, 0, 0, []
1629738282.5326, 43, 0, 4404.103, 4170.256, 4098.462, 4170.769, 4174.872, 0, 0, []
1629738282.5404, 44, 0, 4408.718, 4165.641, 4097.949, 4172.308, 4174.359, 0, 0, []
1629738282.5483, 45, 0, 4422.564, 4160.513, 4116.923, 4186.154, 4182.051, 0, 0, []
1629738282.5561, 46, 0, 4429.744, 4153.846, 4104.103, 4181.538, 4178.974, 0, 0, []
1629738282.564, 47, 0, 4451.795, 4171.282, 4096.923, 4180.513, 4188.205, 0, 0, []
1629738282.5717, 48, 0, 4459.487, 4184.615, 4093.333, 4178.974, 4192.308, 0, 0, []
1629738282.5797, 49, 0, 4427.179, 4186.667, 4063.59, 4159.487, 4167.179, 0, 0, []
1629738282.5876, 50, 0, 4435.897, 4205.128, 4093.333, 4177.949, 4179.487, 0, 0, []
1629738282.5956, 51, 0, 4494.872, 4236.41, 4148.205, 4227.692, 4238.462, 0, 0, []
1629738282.6035, 52, 0, 4503.077, 4251.795, 4141.538, 4224.103, 4239.487, 0, 0, []
1629738282.6114, 53, 0, 4473.846, 4238.974, 4109.231, 4188.205, 4193.333, 0, 0, []
1629738282.6193, 54, 0, 4470.769, 4213.846, 4103.077, 4174.872, 4186.667, 0, 0, []
1629738282.6273, 55, 0, 4477.436, 4214.359, 4124.615, 4177.949, 4203.077, 0, 0, []
1629738282.6352, 56, 0, 4477.949, 4224.103, 4119.487, 4183.077, 4206.667, 0, 0, []
1629738282.6432, 57, 0, 4468.205, 4203.59, 4104.103, 4169.744, 4196.923, 0, 0, []
1629738282.6511, 58, 0, 4456.923, 4203.59, 4110.769, 4153.846, 4186.154, 0, 0, []
1629738282.6588, 59, 0, 4482.051, 4236.923, 4123.077, 4175.897, 4201.538, 0, 0, []
1629738282.6667, 60, 0, 4518.462, 4244.615, 4140.513, 4212.821, 4229.231, 0, 0, []
1629738282.6745, 61, 0, 4524.615, 4239.487, 4129.231, 4220, 4235.897, 0, 0, []
1629738282.6824, 62, 0, 4530.769, 4252.821, 4122.051, 4211.795, 4240, 0, 0, []
1629738282.6902, 63, 0, 4550.769, 4272.308, 4145.128, 4211.795, 4249.744, 0, 0, []
1629738282.698, 64, 0, 4551.795, 4271.795, 4142.051, 4214.872, 4244.103, 450, 0, []
1629738282.7058, 65, 0, 4532.308, 4250.256, 4137.436, 4210.256, 4230.256, 450, 0, []
1629738282.7137, 66, 0, 4517.949, 4228.718, 4130.769, 4195.897, 4221.538, 16198, 0, []
1629738282.7215, 67, 0, 4528.718, 4236.923, 4130.769, 4202.564, 4226.667, 450, 0, []
1629738282.7295, 68, 0, 4540, 4243.077, 4136.923, 4217.949, 4234.359, 16166, 0, []
1629738282.7373, 69, 0, 4512.308, 4210.769, 4093.846, 4181.026, 4207.179, 450, 0, []
1629738282.7453, 70, 0, 4494.359, 4199.487, 4082.051, 4141.538, 4181.026, 16067, 0, []
1629738282.7532, 71, 0, 4528.718, 4231.282, 4115.897, 4156.41, 4206.667, 450, 0, []
1629738282.7612, 72, 0, 4568.205, 4249.231, 4127.179, 4173.846, 4242.564, 450, 0, []
1629738282.7691, 73, 0, 4584.615, 4233.846, 4136.923, 4177.949, 4258.462, 16194, 0, []
1629738282.777, 74, 0, 4582.564, 4224.103, 4132.308, 4189.744, 4262.564, 450, 0, []
1629738282.7849, 75, 0, 4557.436, 4241.026, 4108.718, 4172.821, 4243.077, 16204, 0, []
1629738282.7929, 76, 0, 4544.615, 4262.051, 4092.308, 4145.641, 4222.564, 450, 0, []
1629738282.8008, 77, 0, 4563.077, 4269.231, 4108.205, 4174.359, 4237.949, 450, 0, []
1629738282.8086, 78, 0, 4544.615, 4248.718, 4114.359, 4185.641, 4225.641, 450, 0, []
1629738282.8164, 79, 0, 4484.103, 4210.769, 4057.949, 4123.59, 4162.051, 16204, 0, []
1629738282.8244, 80, 0, 4474.359, 4199.487, 4050.769, 4112.821, 4149.231, 450, 0, []
1629738282.8323, 81, 0, 4515.897, 4216.923, 4099.487, 4165.641, 4191.282, 450, 0, []
1629738282.8401, 82, 0, 4532.821, 4227.692, 4100.513, 4157.949, 4200.513, 450, 0, []
1629738282.848, 83, 0, 4534.872, 4240, 4108.205, 4121.538, 4193.333, 16204, 0, []
1629738282.8558, 84, 0, 4562.051, 4259.487, 4139.487, 4144.103, 4224.615, 450, 0, []
1629738282.8636, 85, 0, 4557.949, 4244.615, 4133.846, 4160, 4226.154, 450, 0, []
1629738282.8714, 86, 0, 4520.513, 4208.205, 4090.256, 4130.256, 4181.026, 450, 0, []
1629738282.8794, 87, 0, 4523.077, 4218.462, 4066.154, 4133.846, 4180.513, 16204, 0, []
1629738282.8873, 88, 0, 4541.026, 4256.923, 4082.564, 4156.923, 4205.641, 450, 0, []
1629738282.8953, 89, 0, 4537.436, 4240.513, 4087.179, 4151.282, 4200, 450, 0, []
1629738282.9031, 90, 0, 4545.641, 4195.385, 4095.385, 4151.282, 4200, 450, 0, []
1629738282.9111, 91, 0, 4555.897, 4200, 4117.949, 4170.256, 4217.949, 16204, 0, []
1629738282.919, 92, 0, 4542.564, 4214.359, 4118.462, 4180, 4217.436, 450, 0, []
1629738282.927, 93, 0, 4526.667, 4201.026, 4116.41, 4176.41, 4199.487, 450, 0, []
1629738282.9349, 94, 0, 4504.615, 4193.846, 4097.949, 4165.128, 4174.872, 450, 0, []
1629738282.9428, 95, 0, 4486.667, 4200.513, 4092.821, 4157.436, 4164.103, 16204, 0, []
1629738282.9507, 96, 0, 4509.744, 4203.077, 4117.949, 4166.154, 4188.205, 450, 0, []
1629738282.9585, 97, 0, 4535.385, 4196.41, 4111.282, 4170.769, 4209.744, 450, 0, []
1629738282.9664, 98, 0, 4508.205, 4174.872, 4097.949, 4159.487, 4191.795, 450, 0, []
1629738282.9742, 99, 0, 4468.205, 4150.769, 4093.846, 4150.256, 4162.051, 16204, 0, []
1629738282.982, 100, 0, 4465.641, 4152.308, 4102.564, 4161.538, 4157.436, 450, 0, []
1629738282.9898, 101, 0, 4478.974, 4176.41, 4123.077, 4187.179, 4171.795, 450, 0, []
1629738282.9977, 102, 0, 4474.359, 4186.154, 4108.205, 4194.359, 4171.795, 450, 0, []
1629738283.0055, 103, 0, 4455.385, 4167.179, 4092.308, 4175.897, 4151.282, 16204, 0, []
1629738283.0134, 104, 0, 4450.256, 4173.846, 4093.846, 4166.667, 4147.692, 450, 0, []
1629738283.0211, 105, 0, 4446.667, 4200.513, 4098.974, 4170.256, 4154.359, 450, 0, []
1629738283.029, 106, 0, 4414.872, 4166.154, 4095.897, 4157.949, 4128.205, 450, 0, []
1629738283.0368, 107, 0, 4390.256, 4120.513, 4070.256, 4141.026, 4100, 16204, 0, []
1629738283.0448, 108, 0, 4414.359, 4152.821, 4090.256, 4157.436, 4120, 450, 0, []
1629738283.0527, 109, 0, 4454.359, 4192.308, 4133.846, 4195.897, 4161.026, 450, 0, []
1629738283.0606, 110, 0, 4466.667, 4177.949, 4140, 4217.436, 4183.59, 450, 0, []
1629738283.0685, 111, 0, 4461.538, 4180.513, 4141.538, 4224.103, 4193.846, 16204, 0, []
1629738283.0765, 112, 0, 4447.692, 4184.615, 4125.128, 4216.41, 4189.744, 450, 0, []
1629738283.0844, 113, 0, 4426.667, 4154.359, 4104.615, 4192.821, 4168.718, 450, 0, []
1629738283.0924, 114, 0, 4413.333, 4153.846, 4091.282, 4182.051, 4156.923, 450, 0, []
1629738283.1003, 115, 0, 4394.359, 4160.513, 4064.103, 4178.462, 4145.128, 16204, 0, []
1629738283.1082, 116, 0, 4365.641, 4114.872, 4048.718, 4149.231, 4120, 450, 0, []
1629738283.1161, 117, 0, 4376.923, 4102.564, 4062.051, 4154.872, 4133.846, 450, 0, []
1629738283.1239, 118, 0, 4412.821, 4136.41, 4102.051, 4205.128, 4175.385, 450, 0, []
1629738283.1318, 119, 0, 4406.667, 4127.692, 4107.179, 4214.872, 4174.359, 16204, 0, []
1629738283.1396, 120, 0, 4393.846, 4127.692, 4084.615, 4204.615, 4164.615, 450, 0, []
1629738283.1474, 121, 0, 4393.846, 4156.41, 4094.359, 4209.744, 4169.231, 450, 0, []
1629738283.1552, 122, 0, 4375.897, 4158.462, 4096.41, 4204.615, 4160, 450, 0, []
1629738283.1631, 123, 0, 4368.718, 4165.128, 4099.487, 4204.615, 4161.026, 16204, 0, []
1629738283.1709, 124, 0, 4371.795, 4168.718, 4098.462, 4208.205, 4174.872, 450, 0, []
1629738283.1788, 125, 0, 4349.744, 4156.41, 4076.923, 4200, 4171.282, 450, 0, []
1629738283.1865, 126, 0, 4330.769, 4178.974, 4093.333, 4198.974, 4160.513, 450, 0, []
1629738283.1945, 127, 0, 4312.821, 4182.051, 4087.179, 4178.974, 4143.077, 16204, 0, []
1629738283.2024, 128, 0, 4290.256, 4128.718, 4064.103, 4145.128, 4123.59, 450, 0, []
1629738283.2104, 0, 0, 4320, 4131.795, 4108.205, 4174.359, 4151.282, 450, 0, []
1629738283.2183, 1, 0, 4353.846, 4175.385, 4136.923, 4215.385, 4180.513, 450, 0, []
1629738283.2262, 2, 0, 4323.077, 4161.538, 4113.333, 4197.436, 4160.513, 16174, 0, []
1629738283.2341, 3, 0, 4292.821, 4144.103, 4092.308, 4176.923, 4143.59, 450, 0, []
1629738283.2421, 4, 0, 4292.821, 4152.308, 4094.359, 4185.641, 4146.667, 16142, 0, []
1629738283.25, 5, 0, 4294.872, 4145.641, 4102.564, 4197.436, 4149.744, 450, 0, []
1629738283.258, 6, 0, 4297.949, 4138.974, 4100.513, 4200, 4161.026, 16070, 0, []
1629738283.2658, 7, 0, 4280, 4135.897, 4104.615, 4185.128, 4155.385, 450, 0, []
1629738283.2736, 8, 0, 4254.872, 4131.795, 4103.59, 4175.897, 4138.462, 450, 0, []
1629738283.2815, 9, 0, 4266.667, 4137.949, 4111.795, 4194.872, 4153.846, 16162, 0, []
1629738283.2893, 10, 0, 4259.487, 4137.949, 4112.821, 4186.154, 4152.308, 450, 0, []
1629738283.2972, 11, 0, 4204.615, 4114.359, 4065.641, 4131.282, 4106.667, 16215, 0, []
1629738283.305, 12, 0, 4206.667, 4120, 4076.41, 4128.205, 4113.333, 450, 0, []
1629738283.3128, 13, 0, 4261.026, 4138.974, 4131.282, 4183.077, 4171.282, 450, 0, []
1629738283.3206, 14, 0, 4261.026, 4139.487, 4139.487, 4208.205, 4185.128, 450, 0, []
1629738283.3285, 15, 0, 4235.385, 4162.564, 4143.077, 4216.923, 4171.795, 16215, 0, []
1629738283.3363, 16, 0, 4247.692, 4181.026, 4148.205, 4246.154, 4189.744, 0, 0, []
1629738283.3443, 17, 0, 4248.718, 4153.846, 4137.949, 4242.564, 4192.821, 0, 0, []
1629738283.3521, 18, 0, 4216.923, 4132.308, 4107.692, 4206.154, 4159.487, 0, 0, []
1629738283.3601, 19, 0, 4205.641, 4140.513, 4084.103, 4193.333, 4143.59, 0, 0, []
1629738283.368, 20, 0, 4221.538, 4153.846, 4107.692, 4206.154, 4164.615, 0, 0, []
1629738283.376, 21, 0, 4217.436, 4153.333, 4111.282, 4207.692, 4174.872, 0, 0, []
1629738283.3839, 22, 0, 4190.256, 4134.359, 4089.231, 4184.615, 4153.846, 0, 0, []
1629738283.3918, 23, 0, 4171.795, 4127.692, 4085.641, 4159.487, 4135.897, 0, 0, []
1629738283.3997, 24, 0, 4169.231, 4144.103, 4086.154, 4155.897, 4129.231, 0, 0, []
1629738283.4077, 25, 0, 4173.846, 4164.615, 4098.974, 4178.974, 4130.769, 0, 0, []
1629738283.4156, 26, 0, 4187.179, 4175.385, 4107.692, 4208.718, 4159.487, 0, 0, []
1629738283.4236, 27, 0, 4187.179, 4165.128, 4107.692, 4210.256, 4177.436, 0, 0, []
1629738283.4314, 28, 0, 4161.026, 4154.359, 4098.974, 4186.667, 4153.846, 0, 0, []
1629738283.4392, 29, 0, 4143.59, 4155.385, 4085.641, 4183.077, 4140.513, 0, 0, []
1629738283.4471, 30, 0, 4138.974, 4150.769, 4095.385, 4194.872, 4148.205, 0, 0, []
1629738283.4551, 31, 0, 4134.872, 4148.205, 4102.051, 4196.41, 4147.179, 0, 0, []
1629738283.463, 32, 0, 4154.359, 4173.333, 4117.949, 4204.615, 4164.615, 0, 0, []
1629738283.4707, 33, 0, 4176.41, 4181.026, 4132.308, 4204.615, 4192.308, 0, 0, []
1629738283.4786, 34, 0, 4166.667, 4149.231, 4107.692, 4183.077, 4197.436, 0, 0, []
1629738283.4864, 35, 0, 4167.179, 4129.231, 4103.59, 4182.051, 4221.026, 0, 0, []
1629738283.4943, 36, 0, 4218.974, 4150.256, 4118.974, 4213.846, 4287.692, 0, 0, []
1629738283.5022, 37, 0, 4246.667, 4164.615, 4112.308, 4215.897, 4312.821, 0, 0, []
1629738283.5102, 38, 0, 4215.385, 4143.59, 4095.385, 4181.026, 4279.487, 0, 0, []
1629738283.5179, 39, 0, 4222.051, 4165.128, 4100, 4195.385, 4295.385, 0, 0, []
1629738283.5259, 40, 0, 4252.308, 4203.077, 4135.385, 4236.41, 4336.41, 0, 0, []
1629738283.5338, 41, 0, 4200, 4173.333, 4113.333, 4208.718, 4289.744, 0, 0, []
1629738283.5418, 42, 0, 4136.41, 4150.256, 4076.923, 4167.692, 4231.282, 0, 0, []
1629738283.5497, 43, 0, 4148.718, 4185.641, 4106.667, 4191.795, 4247.692, 0, 0, []
1629738283.5576, 44, 0, 4140.513, 4195.897, 4100, 4201.026, 4241.538, 0, 0, []
1629738283.5655, 45, 0, 4082.051, 4169.231, 4074.872, 4172.821, 4191.282, 0, 0, []
1629738283.5735, 46, 0, 4071.282, 4177.949, 4103.59, 4191.795, 4200.513, 0, 0, []
1629738283.5814, 47, 0, 4088.718, 4200.513, 4134.359, 4229.231, 4238.462, 0, 0, []
1629738283.5892, 48, 0, 4055.385, 4189.744, 4123.077, 4216.41, 4213.846, 0, 0, []
1629738283.597, 49, 0, 4002.051, 4170.769, 4083.59, 4183.077, 4159.487, 0, 0, []
1629738283.6048, 50, 0, 3975.385, 4163.077, 4076.923, 4168.718, 4136.41, 0, 0, []
1629738283.6127, 51, 0, 3966.154, 4151.282, 4091.282, 4170.769, 4146.154, 0, 0, []
1629738283.6205, 52, 0, 3962.564, 4138.974, 4093.333, 4185.128, 4155.897, 0, 0, []
1629738283.6284, 53, 0, 3947.179, 4154.359, 4089.744, 4186.154, 4141.026, 0, 0, []
1629738283.6361, 54, 0, 3922.051, 4176.923, 4081.538, 4169.744, 4125.641, 0, 0, []
1629738283.644, 55, 0, 3924.103, 4178.462, 4113.846, 4189.231, 4147.692, 0, 0, []
1629738283.6518, 56, 0, 3933.333, 4187.179, 4136.41, 4221.538, 4166.154, 0, 0, []
1629738283.6598, 57, 0, 3896.923, 4200, 4093.333, 4190.769, 4127.692, 0, 0, []
1629738283.6677, 58, 0, 3863.077, 4187.179, 4084.103, 4155.897, 4096.923, 0, 0, []
1629738283.6756, 59, 0, 3875.385, 4189.231, 4111.795, 4180.513, 4118.462, 0, 0, []
1629738283.6835, 60, 0, 3876.923, 4215.897, 4113.333, 4196.923, 4130.769, 0, 0, []
1629738283.6915, 61, 0, 3839.487, 4192.308, 4091.282, 4163.077, 4103.077, 0, 0, []
1629738283.6994, 62, 0, 3823.077, 4154.872, 4081.538, 4150.256, 4086.154, 0, 0, []
1629738283.7074, 63, 0, 3828.205, 4173.846, 4098.462, 4165.641, 4094.872, 0, 0, []
1629738283.7152, 64, 0, 3823.59, 4193.333, 4096.923, 4165.641, 4107.179, 450, 0, []
1629738283.7232, 65, 0, 3829.231, 4193.333, 4103.077, 4174.359, 4120, 450, 0, []
1629738283.7311, 66, 0, 3811.282, 4197.949, 4098.462, 4170.769, 4101.538, 16186, 0, []
1629738283.7389, 67, 0, 3770.769, 4190.769, 4060.513, 4138.462, 4072.821, 450, 0, []
1629738283.7468, 68, 0, 3767.692, 4184.615, 4074.872, 4138.974, 4083.59, 16147, 0, []
1629738283.7546, 69, 0, 3775.385, 4182.564, 4090.769, 4159.487, 4091.795, 450, 0, []
1629738283.7624, 70, 0, 3761.026, 4166.667, 4081.538, 4155.385, 4077.949, 16067, 0, []
1629738283.7702, 71, 0, 3758.974, 4168.205, 4098.462, 4159.487, 4083.59, 450, 0, []
1629738283.7781, 72, 0, 3767.179, 4190.769, 4101.026, 4176.41, 4100, 450, 0, []
1629738283.7859, 73, 0, 3749.231, 4186.154, 4093.333, 4161.538, 4090.769, 16171, 0, []
1629738283.7938, 74, 0, 3735.897, 4170.256, 4095.385, 4150.769, 4078.974, 450, 0, []
1629738283.8015, 75, 0, 3723.59, 4162.564, 4081.026, 4154.872, 4067.179, 16212, 0, []
1629738283.8094, 76, 0, 3688.205, 4167.692, 4053.333, 4138.462, 4039.487, 450, 0, []
1629738283.8172, 77, 0, 3676.41, 4191.795, 4046.154, 4127.179, 4034.872, 450, 0, []
1629738283.8252, 78, 0, 3700.513, 4198.462, 4078.974, 4143.59, 4060, 450, 0, []
1629738283.8331, 79, 0, 3696.923, 4160.513, 4072.308, 4138.462, 4057.436, 16212, 0, []
1629738283.841, 80, 0, 3659.487, 4140, 4044.103, 4113.846, 4029.231, 450, 0, []
1629738283.8489, 81, 0, 3670.769, 4186.154, 4082.564, 4140.513, 4046.154, 450, 0, []
1629738283.8569, 82, 0, 3718.462, 4230.256, 4113.333, 4188.718, 4091.795, 450, 0, []
1629738283.8648, 83, 0, 3715.897, 4234.872, 4102.051, 4189.744, 4085.641, 16212, 0, []
1629738283.8728, 84, 0, 3679.487, 4231.795, 4082.051, 4160, 4044.103, 450, 0, []
1629738283.8806, 85, 0, 3664.615, 4222.051, 4067.179, 4142.051, 4027.692, 450, 0, []
1629738283.8885, 86, 0, 3665.641, 4218.462, 4076.41, 4142.564, 4035.897, 450, 0, []
1629738283.8964, 87, 0, 3665.128, 4233.846, 4075.385, 4148.205, 4041.538, 16212, 0, []
1629738283.9042, 88, 0, 3650.769, 4234.872, 4066.667, 4142.051, 4031.795, 450, 0, []
1629738283.9121, 89, 0, 3636.923, 4215.897, 4064.103, 4131.282, 4023.59, 450, 0, []
1629738283.9198, 90, 0, 3644.103, 4208.205, 4064.103, 4141.538, 4034.872, 450, 0, []
1629738283.9277, 91, 0, 3645.128, 4214.872, 4076.923, 4152.308, 4042.051, 16212, 0, []
1629738283.9355, 92, 0, 3638.974, 4233.846, 4077.949, 4157.949, 4044.103, 450, 0, []
1629738283.9434, 93, 0, 3626.667, 4223.59, 4067.692, 4149.231, 4034.359, 450, 0, []
1629738283.9512, 94, 0, 3607.179, 4186.154, 4057.949, 4134.359, 4017.436, 450, 0, []
1629738283.9591, 95, 0, 3616.923, 4201.026, 4065.641, 4161.538, 4033.333, 16212, 0, []
1629738283.9668, 96, 0, 3642.051, 4232.821, 4093.846, 4191.795, 4061.026, 450, 0, []
1629738283.9748, 97, 0, 3638.974, 4222.051, 4085.641, 4182.564, 4062.051, 450, 0, []
1629738283.9827, 98, 0, 3606.154, 4210.769, 4062.564, 4156.923, 4034.872, 450, 0, []
1629738283.9907, 99, 0, 3577.949, 4208.205, 4054.359, 4135.385, 4011.795, 16212, 0, []
1629738283.9986, 100, 0, 3579.487, 4186.154, 4043.077, 4131.795, 4013.846, 450, 0, []
1629738284.0065, 101, 0, 3594.872, 4179.487, 4059.487, 4149.744, 4027.179, 450, 0, []
1629738284.0144, 102, 0, 3599.487, 4209.231, 4075.385, 4162.564, 4035.385, 450, 0, []
1629738284.0224, 103, 0, 3593.846, 4224.103, 4073.846, 4156.41, 4032.308, 16212, 0, []
1629738284.0303, 104, 0, 3582.051, 4184.103, 4068.205, 4141.026, 4021.026, 450, 0, []
1629738284.0383, 105, 0, 3573.846, 4140, 4048.718, 4125.128, 4013.333, 450, 0, []
1629738284.0461, 106, 0, 3585.641, 4155.897, 4067.179, 4135.385, 4028.718, 450, 0, []
1629738284.0539, 107, 0, 3612.308, 4191.282, 4095.385, 4174.872, 4056.41, 16212, 0, []
1629738284.0618, 108, 0, 3627.179, 4190.769, 4091.282, 4198.462, 4073.846, 450, 0, []
1629738284.0696, 109, 0, 3619.487, 4186.154, 4092.308, 4191.795, 4070.769, 450, 0, []
1629738284.0775, 110, 0, 3598.462, 4185.128, 4085.128, 4179.487, 4051.282, 450, 0, []
1629738284.0852, 111, 0, 3585.128, 4171.795, 4082.051, 4169.231, 4034.359, 16212, 0, []
1629738284.0931, 112, 0, 3576.41, 4163.59, 4073.333, 4157.436, 4022.051, 450, 0, []
1629738284.1009, 113, 0, 3581.026, 4170.256, 4073.333, 4170.769, 4030.256, 450, 0, []
1629738284.1088, 114, 0, 3608.205, 4182.564, 4107.179, 4198.974, 4062.564, 450, 0, []
1629738284.1166, 115, 0, 3606.667, 4153.846, 4094.359, 4175.897, 4059.487, 16212, 0, []
1629738284.1245, 116, 0, 3583.077, 4115.385, 4065.128, 4138.974, 4025.641, 450, 0, []
1629738284.1324, 117, 0, 3614.359, 4145.128, 4090.769, 4171.795, 4045.641, 450, 0, []
1629738284.1404, 118, 0, 3646.154, 4193.333, 4109.744, 4195.897, 4074.359, 450, 0, []
1629738284.1483, 119, 0, 3618.462, 4180.513, 4086.667, 4159.487, 4040, 16212, 0, []
1629738284.1563, 120, 0, 3620, 4172.821, 4071.282, 4155.897, 4027.692, 450, 0, []
1629738284.1642, 121, 0, 3659.487, 4201.026, 4101.538, 4192.821, 4060.513, 450, 0, []
1629738284.1721, 122, 0, 3650.256, 4185.641, 4098.462, 4191.795, 4055.897, 450, 0, []
1629738284.18, 123, 0, 3610.769, 4145.641, 4046.154, 4155.385, 4013.846, 16212, 0, []
1629738284.188, 124, 0, 3613.846, 4141.026, 4046.154, 4144.615, 4005.128, 450, 0, []
1629738284.1959, 125, 0, 3650.769, 4143.077, 4080, 4170.769, 4040.513, 450, 0, []
1629738284.2039, 126, 0, 3668.718, 4138.462, 4106.154, 4196.923, 4064.615, 450, 0, []
1629738284.2117, 127, 0, 3688.205, 4167.692, 4121.026, 4217.436, 4069.231, 16212, 0, []
1629738284.2195, 128, 0, 3695.385, 4184.615, 4108.205, 4221.538, 4068.205, 450, 0, []
1629738284.2274, 0, 0, 3670.256, 4153.333, 4097.436, 4198.974, 4056.41, 450, 0, []
1629738284.2352, 1, 0, 3698.462, 4162.051, 4091.282, 4186.154, 4055.897, 450, 0, []
1629738284.2431, 2, 0, 3656.923, 4201.026, 4098.462, 4198.974, 4070.256, 16203, 0, []
1629738284.2508, 3, 0, 3367.179, 4167.692, 4097.949, 4189.744, 4058.462, 450, 0, []
1629738284.2587, 4, 0, 3079.487, 4107.179, 4076.923, 4151.282, 4025.641, 16159, 0, []
1629738284.2665, 5, 0, 3065.128, 4129.744, 4114.872, 4154.872, 4037.949, 450, 0, []
1629738284.2744, 6, 0, 3123.59, 4169.744, 4144.615, 4186.667, 4063.077, 16066, 0, []
1629738284.2822, 7, 0, 3100, 4167.692, 4135.385, 4202.564, 4064.103, 450, 0, []
1629738284.29, 8, 0, 3119.487, 4183.59, 4153.846, 4217.436, 4076.41, 450, 0, []
1629738284.2978, 9, 0, 3166.154, 4207.692, 4144.103, 4226.154, 4093.333, 16167, 0, []
1629738284.3058, 10, 0, 3158.974, 4175.385, 4084.103, 4200.513, 4081.538, 450, 0, []
1629738284.3137, 11, 0, 3134.872, 4127.179, 4020, 4151.282, 4046.667, 16212, 0, []
1629738284.3217, 12, 0, 3148.205, 4151.282, 4023.59, 4147.179, 4046.154, 450, 0, []
1629738284.3295, 13, 0, 3196.41, 4200.513, 4069.744, 4187.692, 4079.487, 450, 0, []
1629738284.3375, 14, 0, 3242.564, 4209.744, 4068.718, 4205.128, 4096.923, 450, 0, []
1629738284.3454, 15, 0, 3270.769, 4183.077, 4056.41, 4185.641, 4086.154, 16212, 0, []
1629738284.3534, 16, 0, 3264.615, 4153.333, 4033.333, 4150.256, 4062.051, 0, 0, []
1629738284.3613, 17, 0, 3263.59, 4158.462, 4013.846, 4137.436, 4058.462, 0, 0, []
1629738284.369, 18, 0, 3313.846, 4189.744, 4041.538, 4162.564, 4086.154, 0, 0, []
1629738284.3769, 19, 0, 3368.718, 4218.974, 4078.462, 4198.974, 4120.513, 0, 0, []
1629738284.3847, 20, 0, 3368.205, 4228.718, 4097.436, 4205.641, 4127.692, 0, 0, []
1629738284.3926, 21, 0, 3362.564, 4211.795, 4096.923, 4191.282, 4125.641, 0, 0, []
1629738284.4004, 22, 0, 3382.051, 4186.667, 4101.026, 4187.692, 4125.641, 0, 0, []
1629738284.4083, 23, 0, 3393.846, 4194.359, 4113.846, 4200, 4121.026, 0, 0, []
1629738284.416, 24, 0, 3398.462, 4219.487, 4090.769, 4209.231, 4126.667, 0, 0, []
1629738284.4239, 25, 0, 3397.949, 4212.308, 4069.231, 4183.59, 4121.538, 0, 0, []
1629738284.4317, 26, 0, 3398.974, 4182.051, 4072.308, 4158.462, 4103.59, 0, 0, []
1629738284.4397, 27, 0, 3411.795, 4170.769, 4081.026, 4170.769, 4104.103, 0, 0, []
1629738284.4476, 28, 0, 3419.487, 4180.513, 4088.718, 4181.538, 4107.692, 0, 0, []
1629738284.4555, 29, 0, 3422.051, 4195.385, 4068.205, 4169.744, 4100.513, 0, 0, []
1629738284.4634, 30, 0, 3450.769, 4214.872, 4069.231, 4175.897, 4110.769, 0, 0, []
1629738284.4714, 31, 0, 3478.462, 4203.59, 4088.718, 4194.359, 4130.256, 0, 0, []
1629738284.4793, 32, 0, 3475.897, 4172.821, 4076.923, 4181.026, 4125.641, 0, 0, []
1629738284.4873, 33, 0, 3488.718, 4194.872, 4086.154, 4168.718, 4122.564, 0, 0, []
1629738284.4951, 34, 0, 3523.077, 4232.308, 4095.897, 4184.615, 4140, 0, 0, []
1629738284.503, 35, 0, 3533.846, 4212.821, 4094.359, 4190.769, 4142.564, 0, 0, []
1629738284.511, 36, 0, 3517.949, 4180, 4095.385, 4176.41, 4115.897, 0, 0, []
1629738284.519, 37, 0, 3520, 4175.897, 4087.179, 4170.769, 4107.179, 0, 0, []
1629738284.5269, 38, 0, 3550.769, 4189.231, 4097.436, 4184.103, 4129.744, 0, 0, []
1629738284.5346, 39, 0, 3583.59, 4220, 4104.615, 4199.487, 4144.103, 0, 0, []
1629738284.5425, 40, 0, 3596.41, 4234.872, 4097.436, 4193.333, 4136.41, 0, 0, []
1629738284.5503, 41, 0, 3602.564, 4236.41, 4099.487, 4176.923, 4138.974, 0, 0, []
1629738284.5582, 42, 0, 3609.231, 4240, 4091.795, 4166.667, 4138.462, 0, 0, []
1629738284.566, 43, 0, 3603.077, 4222.051, 4088.205, 4152.821, 4108.718, 0, 0, []
1629738284.5738, 44, 0, 3617.436, 4209.231, 4101.538, 4159.487, 4098.462, 0, 0, []
1629738284.5816, 45, 0, 3661.026, 4224.615, 4124.103, 4182.564, 4124.615, 0, 0, []
1629738284.5896, 46, 0, 3700.513, 4252.308, 4133.846, 4195.897, 4146.154, 0, 0, []
1629738284.5975, 47, 0, 3731.795, 4278.974, 4125.641, 4207.692, 4161.026, 0, 0, []
1629738284.6055, 48, 0, 3758.462, 4282.051, 4145.128, 4221.538, 4180, 0, 0, []
1629738284.6134, 49, 0, 3766.667, 4252.308, 4144.615, 4207.692, 4171.795, 0, 0, []
1629738284.6213, 50, 0, 3762.051, 4231.795, 4118.974, 4179.487, 4145.641, 0, 0, []
1629738284.6292, 51, 0, 3775.897, 4237.949, 4127.179, 4174.872, 4148.718, 0, 0, []
1629738284.6372, 52, 0, 3800.513, 4245.641, 4127.692, 4174.359, 4157.436, 0, 0, []
1629738284.6451, 53, 0, 3811.282, 4236.41, 4122.564, 4162.564, 4143.077, 0, 0, []
1629738284.6531, 54, 0, 3811.282, 4213.846, 4110.256, 4149.744, 4131.282, 0, 0, []
1629738284.6609, 55, 0, 3826.154, 4210.256, 4104.103, 4152.821, 4141.026, 0, 0, []
1629738284.6687, 56, 0, 3841.538, 4209.744, 4106.154, 4150.256, 4133.333, 0, 0, []
1629738284.6766, 57, 0, 3846.667, 4200, 4078.974, 4130.769, 4111.795, 0, 0, []
1629738284.6844, 58, 0, 3873.333, 4215.897, 4097.436, 4150.256, 4127.179, 0, 0, []
1629738284.6923, 59, 0, 3912.821, 4243.59, 4134.359, 4188.205, 4157.949, 0, 0, []
1629738284.7, 60, 0, 3929.744, 4233.846, 4108.718, 4177.436, 4154.872, 0, 0, []
1629738284.7079, 61, 0, 3942.564, 4220.513, 4098.462, 4163.077, 4144.103, 0, 0, []
1629738284.7157, 62, 0, 3972.821, 4248.718, 4127.179, 4191.282, 4161.026, 0, 0, []
1629738284.7236, 63, 0, 3973.333, 4258.462, 4127.179, 4194.359, 4159.487, 0, 0, []
1629738284.7314, 64, 0, 3950.256, 4214.359, 4087.179, 4157.949, 4128.718, 450, 0, []
1629738284.7392, 65, 0, 3966.667, 4197.436, 4074.359, 4154.872, 4126.667, 450, 0, []
1629738284.747, 66, 0, 3984.103, 4223.59, 4085.641, 4159.487, 4125.128, 16198, 0, []
1629738284.755, 67, 0, 3968.205, 4226.667, 4064.103, 4129.744, 4102.564, 450, 0, []
1629738284.7629, 68, 0, 3989.231, 4236.923, 4083.077, 4137.949, 4120.513, 16155, 0, []
1629738284.7709, 69, 0, 4053.846, 4277.436, 4139.487, 4197.436, 4173.846, 450, 0, []
1629738284.7787, 70, 0, 4069.744, 4265.641, 4138.974, 4213.333, 4183.59, 16070, 0, []
1629738284.7867, 71, 0, 4042.051, 4224.615, 4126.154, 4184.615, 4153.846, 450, 0, []
1629738284.7946, 72, 0, 4026.154, 4238.974, 4123.077, 4167.179, 4128.205, 450, 0, []
1629738284.8026, 73, 0, 4027.179, 4260.513, 4123.59, 4162.564, 4124.615, 16171, 0, []
1629738284.8105, 74, 0, 4043.59, 4237.949, 4131.282, 4170.256, 4145.128, 450, 0, []
1629738284.8184, 75, 0, 4068.718, 4245.641, 4132.821, 4184.103, 4164.615, 16209, 0, []
1629738284.8263, 76, 0, 4063.59, 4272.308, 4121.538, 4167.179, 4147.692, 450, 0, []
1629738284.8341, 77, 0, 4021.538, 4255.385, 4074.872, 4118.462, 4101.026, 450, 0, []
1629738284.842, 78, 0, 4030.769, 4260.513, 4075.897, 4120, 4106.667, 450, 0, []
1629738284.8498, 79, 0, 4108.718, 4324.103, 4140.513, 4176.41, 4181.026, 16209, 0, []
1629738284.8577, 80, 0, 4136.41, 4349.231, 4144.103, 4193.333, 4207.179, 450, 0, []
1629738284.8654, 81, 0, 4095.385, 4310.256, 4110.256, 4153.846, 4156.923, 450, 0, []
1629738284.8733, 82, 0, 4105.641, 4310.256, 4113.846, 4141.538, 4149.744, 450, 0, []
1629738284.8811, 83, 0, 4156.923, 4349.231, 4132.821, 4168.205, 4188.205, 16209, 0, []
1629738284.889, 84, 0, 4160, 4346.154, 4132.308, 4176.923, 4184.103, 450, 0, []
1629738284.8968, 85, 0, 4136.923, 4311.795, 4109.231, 4156.41, 4151.282, 450, 0, []
1629738284.9047, 86, 0, 4128.205, 4300.513, 4104.615, 4129.744, 4134.359, 450, 0, []
1629738284.9126, 87, 0, 4151.282, 4316.41, 4125.641, 4146.154, 4155.897, 16209, 0, []
1629738284.9206, 88, 0, 4177.949, 4326.154, 4133.333, 4180.513, 4187.179, 450, 0, []
1629738284.9285, 89, 0, 4177.436, 4343.077, 4133.846, 4181.538, 4189.744, 450, 0, []
1629738284.9365, 90, 0, 4170.256, 4338.462, 4131.282, 4178.974, 4179.487, 450, 0, []
1629738284.9443, 91, 0, 4155.385, 4296.923, 4128.718, 4169.231, 4165.641, 16209, 0, []
1629738284.9523, 92, 0, 4142.051, 4299.487, 4117.949, 4151.282, 4156.41, 450, 0, []
1629738284.9602, 93, 0, 4149.231, 4331.795, 4106.667, 4170.256, 4163.59, 450, 0, []
1629738284.9682, 94, 0, 4147.179, 4298.462, 4108.205, 4192.308, 4155.897, 450, 0, []
1629738284.9761, 95, 0, 4152.821, 4258.462, 4103.077, 4181.026, 4149.231, 16209, 0, []
1629738284.984, 96, 0, 4213.846, 4285.641, 4129.231, 4205.128, 4194.872, 450, 0, []
1629738284.9919, 97, 0, 4252.821, 4301.026, 4137.436, 4244.103, 4231.282, 450, 0, []
1629738284.9997, 98, 0, 4226.667, 4278.974, 4098.974, 4223.59, 4210.769, 450, 0, []
1629738285.0076, 99, 0, 4207.692, 4268.205, 4094.359, 4193.333, 4189.744, 16209, 0, []
1629738285.0154, 100, 0, 4211.282, 4256.41, 4092.821, 4195.897, 4188.718, 450, 0, []
1629738285.0232, 101, 0, 4215.385, 4231.795, 4089.231, 4204.103, 4190.256, 450, 0, []
1629738285.031, 102, 0, 4204.103, 4213.333, 4089.744, 4180, 4178.462, 450, 0, []
1629738285.0389, 103, 0, 4186.154, 4224.615, 4071.795, 4148.718, 4161.026, 16209, 0, []
1629738285.0467, 104, 0, 4212.308, 4263.077, 4093.846, 4171.795, 4186.154, 450, 0, []
1629738285.0546, 105, 0, 4257.949, 4265.641, 4124.103, 4209.231, 4228.718, 450, 0, []
1629738285.0624, 106, 0, 4253.333, 4233.846, 4116.923, 4198.462, 4220.513, 450, 0, []
1629738285.0703, 107, 0, 4240.513, 4237.949, 4112.308, 4187.179, 4203.077, 16209, 0, []
1629738285.0782, 108, 0, 4261.538, 4251.282, 4123.077, 4205.128, 4220.513, 450, 0, []
1629738285.0862, 109, 0, 4269.744, 4254.872, 4134.359, 4208.205, 4226.667, 450, 0, []
1629738285.0941, 110, 0, 4261.538, 4261.538, 4120, 4193.846, 4210.256, 450, 0, []
1629738285.1021, 111, 0, 4263.077, 4242.051, 4107.692, 4186.667, 4201.538, 16209, 0, []
1629738285.1099, 112, 0, 4254.872, 4206.154, 4107.692, 4174.359, 4189.744, 450, 0, []
1629738285.1179, 113, 0, 4226.154, 4180.513, 4076.923, 4151.795, 4156.923, 450, 0, []
1629738285.1258, 114, 0, 4223.077, 4172.308, 4075.897, 4149.744, 4150.769, 450, 0, []
1629738285.1336, 115, 0, 4261.538, 4194.872, 4103.077, 4169.231, 4185.128, 16209, 0, []
1629738285.1415, 116, 0, 4281.026, 4205.128, 4097.949, 4170.769, 4198.974, 450, 0, []
1629738285.1492, 117, 0, 4268.205, 4179.487, 4095.385, 4166.154, 4190.256, 450, 0, []
1629738285.1571, 118, 0, 4285.128, 4185.128, 4119.487, 4195.897, 4214.359, 450, 0, []
1629738285.1649, 119, 0, 4318.462, 4213.333, 4145.128, 4213.333, 4238.462, 16209, 0, []
1629738285.1728, 120, 0, 4311.795, 4202.564, 4132.821, 4187.692, 4228.205, 450, 0, []
1629738285.1806, 121, 0, 4298.974, 4181.026, 4112.308, 4166.154, 4215.897, 450, 0, []
1629738285.1884, 122, 0, 4305.641, 4181.538, 4113.333, 4163.077, 4203.59, 450, 0, []
1629738285.1962, 123, 0, 4320, 4193.846, 4110.256, 4170.256, 4207.692, 16209, 0, []
1629738285.2041, 124, 0, 4331.795, 4204.103, 4120.513, 4176.923, 4218.974, 450, 0, []
1629738285.2119, 125, 0, 4327.179, 4201.026, 4120, 4164.615, 4201.538, 450, 0, []
1629738285.2199, 126, 0, 4335.897, 4209.231, 4122.051, 4169.744, 4208.205, 450, 0, []
1629738285.2277, 127, 0, 4371.795, 4250.769, 4148.718, 4202.051, 4253.846, 16209, 0, []
1629738285.2357, 128, 0, 4366.667, 4255.385, 4117.436, 4182.564, 4241.538, 450, 0, []
1629738285.2436, 0, 0, 4320.513, 4199.487, 4071.282, 4123.59, 4178.974, 450, 0, []
1629738285.2516, 1, 0, 4330.256, 4189.231, 4090.256, 4122.564, 4178.974, 450, 0, []
1629738285.2595, 2, 0, 4379.487, 4236.41, 4121.026, 4165.128, 4227.179, 16171, 0, []
1629738285.2675, 3, 0, 4403.59, 4234.359, 4138.974, 4194.359, 4257.436, 450, 0, []
1629738285.2753, 4, 0, 4413.333, 4197.436, 4139.487, 4206.667, 4270.256, 16109, 0, []
1629738285.2833, 5, 0, 4409.744, 4209.744, 4137.949, 4187.179, 4261.538, 450, 0, []
1629738285.2912, 6, 0, 4396.41, 4230.256, 4132.308, 4160.513, 4244.103, 16074, 0, []
1629738285.299, 7, 0, 4388.205, 4209.231, 4107.692, 4156.923, 4228.718, 450, 0, []
1629738285.3069, 8, 0, 4383.59, 4188.718, 4109.744, 4156.41, 4215.897, 450, 0, []
1629738285.3146, 9, 0, 4395.385, 4202.564, 4128.205, 4158.974, 4221.538, 16157, 0, []
1629738285.3225, 10, 0, 4418.462, 4224.103, 4136.41, 4169.744, 4241.026, 450, 0, []
1629738285.3303, 11, 0, 4427.692, 4216.923, 4127.692, 4164.615, 4246.667, 16233, 0, []
1629738285.3382, 12, 0, 4435.897, 4218.974, 4115.385, 4152.821, 4246.667, 450, 0, []
1629738285.346, 13, 0, 4447.179, 4235.385, 4126.667, 4156.923, 4252.308, 450, 0, []
1629738285.3539, 14, 0, 4435.385, 4209.744, 4103.59, 4137.436, 4240, 450, 0, []
1629738285.3618, 15, 0, 4427.179, 4184.103, 4079.487, 4111.282, 4226.667, 16233, 0, []
1629738285.3698, 16, 0, 4452.821, 4203.59, 4106.667, 4143.077, 4243.077, 0, 0, []
1629738285.3777, 17, 0, 4465.128, 4207.179, 4110.769, 4168.718, 4251.282, 0, 0, []
1629738285.3857, 18, 0, 4456.41, 4185.128, 4105.128, 4145.128, 4242.051, 0, 0, []
1629738285.3935, 19, 0, 4478.974, 4192.308, 4125.128, 4145.641, 4263.59, 0, 0, []
1629738285.4015, 20, 0, 4509.744, 4206.667, 4143.59, 4173.333, 4293.846, 0, 0, []
1629738285.4094, 21, 0, 4482.564, 4183.59, 4118.974, 4138.462, 4258.462, 0, 0, []
1629738285.4174, 22, 0, 4450.256, 4180.513, 4072.821, 4087.692, 4210.256, 0, 0, []
1629738285.4253, 23, 0, 4498.974, 4232.308, 4103.077, 4127.692, 4249.231, 0, 0, []
1629738285.4332, 24, 0, 4564.103, 4264.615, 4161.538, 4194.872, 4313.333, 0, 0, []
1629738285.4411, 25, 0, 4556.41, 4242.051, 4164.103, 4197.436, 4310.769, 0, 0, []
1629738285.4489, 26, 0, 4516.923, 4213.846, 4131.282, 4173.333, 4277.436, 0, 0, []
1629738285.4568, 27, 0, 4507.692, 4203.077, 4101.538, 4166.154, 4264.103, 0, 0, []
1629738285.4646, 28, 0, 4506.154, 4190.769, 4111.795, 4154.359, 4256.41, 0, 0, []
1629738285.4724, 29, 0, 4487.692, 4168.718, 4113.846, 4132.821, 4240.513, 0, 0, []
1629738285.4802, 30, 0, 4484.615, 4160.513, 4099.487, 4129.231, 4238.974, 0, 0, []
1629738285.4881, 31, 0, 4516.41, 4190.256, 4121.538, 4140.513, 4257.949, 0, 0, []
1629738285.496, 32, 0, 4552.821, 4227.692, 4138.462, 4152.308, 4279.487, 0, 0, []
1629738285.5039, 33, 0, 4560, 4220.513, 4137.436, 4162.564, 4292.821, 0, 0, []
1629738285.5117, 34, 0, 4553.333, 4210.769, 4140.513, 4171.795, 4296.923, 0, 0, []
1629738285.5195, 35, 0, 4554.872, 4228.718, 4141.026, 4168.205, 4290.769, 0, 0, []
1629738285.5273, 36, 0, 4556.41, 4232.821, 4144.103, 4147.692, 4281.026, 0, 0, []
1629738285.5353, 37, 0, 4544.103, 4211.795, 4124.615, 4128.205, 4268.205, 0, 0, []
1629738285.5432, 38, 0, 4532.308, 4197.949, 4109.231, 4114.359, 4248.205, 0, 0, []
1629738285.5512, 39, 0, 4555.897, 4225.641, 4126.667, 4119.487, 4250.769, 0, 0, []
1629738285.559, 40, 0, 4590.769, 4255.385, 4143.077, 4144.103, 4270.769, 0, 0, []
1629738285.567, 41, 0, 4590.769, 4245.128, 4150.256, 4158.462, 4269.231, 0, 0, []
1629738285.5749, 42, 0, 4586.667, 4236.41, 4146.154, 4155.385, 4264.103, 0, 0, []
1629738285.5829, 43, 0, 4580, 4213.846, 4132.821, 4131.795, 4252.308, 0, 0, []
1629738285.5908, 44, 0, 4563.077, 4186.154, 4123.59, 4116.41, 4230.256, 0, 0, []
1629738285.5985, 45, 0, 4589.231, 4232.308, 4136.923, 4149.231, 4255.897, 0, 0, []
1629738285.6064, 46, 0, 4616.923, 4285.641, 4156.41, 4165.641, 4286.667, 0, 0, []
1629738285.6142, 47, 0, 4595.897, 4250.256, 4135.897, 4132.308, 4262.564, 0, 0, []
1629738285.6221, 48, 0, 4602.051, 4209.231, 4135.897, 4138.462, 4259.487, 0, 0, []
1629738285.6299, 49, 0, 4630.256, 4216.41, 4157.949, 4170.256, 4284.615, 0, 0, []
1629738285.6377, 50, 0, 4609.744, 4229.231, 4135.897, 4147.179, 4270.256, 0, 0, []
1629738285.6455, 51, 0, 4596.923, 4238.974, 4137.436, 4132.821, 4256.41, 0, 0, []
1629738285.6534, 52, 0, 4623.59, 4225.641, 4156.41, 4160.513, 4284.615, 0, 0, []
1629738285.6612, 53, 0, 4623.077, 4194.872, 4141.538, 4154.872, 4289.744, 0, 0, []
1629738285.6691, 54, 0, 4607.179, 4201.538, 4127.179, 4127.179, 4260.513, 0, 0, []
1629738285.6768, 55, 0, 4628.205, 4238.462, 4127.692, 4138.462, 4267.179, 0, 0, []
1629738285.6848, 56, 0, 4649.744, 4233.846, 4146.667, 4169.744, 4295.385, 0, 0, []
1629738285.6927, 57, 0, 4625.128, 4190.769, 4134.359, 4156.41, 4268.718, 0, 0, []
1629738285.7007, 58, 0, 4598.974, 4192.821, 4111.282, 4121.538, 4227.692, 0, 0, []
1629738285.7086, 59, 0, 4619.487, 4235.385, 4135.897, 4134.872, 4252.821, 0, 0, []
1629738285.7166, 60, 0, 4660, 4246.154, 4153.846, 4177.949, 4304.103, 0, 0, []
1629738285.7244, 61, 0, 4655.385, 4218.974, 4138.974, 4169.744, 4294.872, 0, 0, []
1629738285.7324, 62, 0, 4602.051, 4189.231, 4098.974, 4104.103, 4237.949, 0, 0, []
1629738285.7403, 63, 0, 4595.385, 4200, 4090.769, 4087.692, 4227.692, 0, 0, []
1629738285.7483, 64, 0, 4661.538, 4250.256, 4140.513, 4150.769, 4280, 450, 0, []
1629738285.7562, 65, 0, 4685.641, 4270.769, 4147.179, 4178.462, 4306.154, 450, 0, []
1629738285.764, 66, 0, 4641.538, 4261.026, 4115.897, 4130.256, 4270.256, 16177, 0, []
1629738285.7719, 67, 0, 4637.949, 4276.923, 4117.436, 4113.846, 4250.769, 450, 0, []
1629738285.7797, 68, 0, 4679.487, 4287.692, 4131.282, 4148.205, 4279.487, 16135, 0, []
1629738285.7876, 69, 0, 4676.923, 4254.359, 4131.282, 4142.564, 4284.615, 450, 0, []
1629738285.7954, 70, 0, 4656.923, 4244.615, 4124.615, 4118.974, 4258.974, 16072, 0, []
1629738285.8032, 71, 0, 4670.769, 4265.641, 4135.385, 4134.872, 4260, 450, 0, []
1629738285.811, 72, 0, 4685.641, 4262.564, 4138.462, 4157.949, 4283.077, 450, 0, []
1629738285.8189, 73, 0, 4674.359, 4262.051, 4124.615, 4157.949, 4276.923, 16166, 0, []
1629738285.8267, 74, 0, 4650.256, 4250.256, 4116.41, 4133.333, 4237.436, 450, 0, []
1629738285.8347, 75, 0, 4651.282, 4220.513, 4104.103, 4118.462, 4231.282, 16216, 0, []
1629738285.8425, 76, 0, 4676.923, 4226.154, 4114.872, 4141.026, 4265.128, 450, 0, []
1629738285.8505, 77, 0, 4688.205, 4238.462, 4130.769, 4156.923, 4280.513, 450, 0, []
1629738285.8584, 78, 0, 4697.949, 4229.744, 4122.564, 4147.692, 4282.564, 450, 0, []
1629738285.8664, 79, 0, 4716.41, 4247.692, 4142.564, 4152.308, 4292.821, 16216, 0, []
1629738285.8743, 80, 0, 4711.795, 4264.103, 4149.744, 4160, 4289.744, 450, 0, []
1629738285.8822, 81, 0, 4701.026, 4226.154, 4135.897, 4147.692, 4278.462, 450, 0, []
1629738285.8901, 82, 0, 4722.051, 4223.077, 4150.256, 4154.359, 4293.846, 450, 0, []
1629738285.8981, 83, 0, 4713.846, 4242.051, 4130.256, 4150.256, 4284.103, 16216, 0, []
1629738285.906, 84, 0, 4684.103, 4216.923, 4111.795, 4125.128, 4254.359, 450, 0, []
1629738285.9138, 85, 0, 4712.308, 4210.769, 4133.846, 4136.41, 4277.949, 450, 0, []
1629738285.9217, 86, 0, 4737.949, 4229.744, 4140.513, 4154.872, 4302.564, 450, 0, []
1629738285.9294, 87, 0, 4727.179, 4250.769, 4140, 4158.974, 4290.769, 16216, 0, []
1629738285.9373, 88, 0, 4712.821, 4247.179, 4132.308, 4148.205, 4270.769, 450, 0, []
1629738285.9451, 89, 0, 4700, 4215.897, 4128.205, 4124.615, 4253.846, 450, 0, []
1629738285.953, 90, 0, 4702.564, 4207.179, 4129.744, 4122.564, 4262.051, 450, 0, []
1629738285.9608, 91, 0, 4703.077, 4207.179, 4126.154, 4127.692, 4271.795, 16216, 0, []
1629738285.9686, 92, 0, 4712.308, 4205.128, 4149.231, 4142.051, 4278.462, 450, 0, []
1629738285.9764, 93, 0, 4751.282, 4227.692, 4182.564, 4187.179, 4318.462, 450, 0, []
1629738285.9843, 94, 0, 4762.564, 4243.077, 4189.744, 4202.564, 4341.538, 450, 0, []
1629738285.9921, 95, 0, 4717.949, 4216.923, 4150.256, 4169.744, 4299.487, 16216, 0, []
1629738286.0001, 96, 0, 4689.231, 4210.256, 4133.333, 4161.026, 4269.231, 450, 0, []
1629738286.0079, 97, 0, 4690.256, 4219.487, 4158.462, 4169.231, 4282.564, 450, 0, []
1629738286.0159, 98, 0, 4687.179, 4194.872, 4149.744, 4166.667, 4287.179, 450, 0, []
1629738286.0238, 99, 0, 4695.897, 4191.282, 4146.154, 4186.667, 4294.872, 16216, 0, []
1629738286.0318, 100, 0, 4692.821, 4212.308, 4147.179, 4185.128, 4295.385, 450, 0, []
1629738286.0397, 101, 0, 4678.462, 4203.59, 4141.026, 4161.026, 4283.077, 450, 0, []
1629738286.0476, 102, 0, 4685.128, 4194.872, 4161.026, 4175.897, 4290.769, 450, 0, []
1629738286.0555, 103, 0, 4690.769, 4214.872, 4164.103, 4190.769, 4300, 16216, 0, []
1629738286.0635, 104, 0, 4682.051, 4214.872, 4160, 4177.436, 4293.333, 450, 0, []
1629738286.0714, 105, 0, 4681.538, 4193.333, 4172.308, 4184.615, 4295.385, 450, 0, []
1629738286.0792, 106, 0, 4687.179, 4204.103, 4171.282, 4204.103, 4304.615, 450, 0, []
1629738286.087, 107, 0, 4661.538, 4206.154, 4152.308, 4184.615, 4289.231, 16216, 0, []
1629738286.0948, 108, 0, 4632.308, 4168.718, 4136.923, 4166.154, 4281.538, 450, 0, []
1629738286.1027, 109, 0, 4643.59, 4175.385, 4152.821, 4191.795, 4303.077, 450, 0, []
1629738286.1105, 110, 0, 4649.231, 4215.385, 4148.205, 4204.615, 4303.077, 450, 0, []
1629738286.1184, 111, 0, 4617.436, 4208.718, 4108.718, 4175.897, 4274.359, 16216, 0, []
1629738286.1261, 112, 0, 4605.641, 4197.436, 4112.308, 4168.718, 4271.282, 450, 0, []
1629738286.134, 113, 0, 4627.692, 4214.872, 4130.769, 4202.051, 4289.231, 450, 0, []
1629738286.1418, 114, 0, 4610.256, 4203.59, 4125.128, 4211.282, 4272.821, 450, 0, []
1629738286.1498, 115, 0, 4584.103, 4177.949, 4123.077, 4214.872, 4252.308, 16216, 0, []
1629738286.1577, 116, 0, 4613.846, 4182.051, 4132.308, 4268.205, 4278.462, 450, 0, []
1629738286.1657, 117, 0, 4641.538, 4193.333, 4152.308, 4331.795, 4309.744, 450, 0, []
1629738286.1735, 118, 0, 4616.41, 4188.718, 4137.949, 4345.641, 4295.897, 450, 0, []
1629738286.1815, 119, 0, 4582.564, 4162.051, 4097.949, 4327.692, 4254.359, 16216, 0, []
1629738286.1894, 120, 0, 4574.872, 4143.59, 4085.641, 4332.821, 4234.872, 450, 0, []
1629738286.1974, 121, 0, 4587.692, 4176.41, 4091.795, 4374.872, 4256.41, 450, 0, []
1629738286.2053, 122, 0, 4606.667, 4189.744, 4112.308, 4411.282, 4281.538, 450, 0, []
1629738286.2132, 123, 0, 4595.897, 4134.359, 4094.359, 4390.769, 4262.051, 16216, 0, []
1629738286.2211, 124, 0, 4558.974, 4113.846, 4054.872, 4350.256, 4221.026, 450, 0, []
1629738286.2289, 125, 0, 4565.641, 4144.615, 4075.897, 4352.308, 4226.667, 450, 0, []
1629738286.2368, 126, 0, 4601.026, 4132.821, 4104.615, 4363.077, 4252.308, 450, 0, []
1629738286.2446, 127, 0, 4593.333, 4110.256, 4099.487, 4341.026, 4234.359, 16216, 0, []
1629738286.2524, 128, 0, 4561.538, 4127.179, 4077.436, 4317.949, 4206.667, 450, 0, []
1629738286.2602, 0, 0, 4559.487, 4124.615, 4074.872, 4328.205, 4215.385, 450, 0, []
1629738286.2681, 1, 0, 4562.564, 4105.641, 4084.615, 4335.385, 4219.487, 450, 0, []
1629738286.2759, 2, 0, 4549.744, 4126.154, 4063.077, 4318.462, 4199.487, 16179, 0, []
1629738286.2838, 3, 0, 4549.744, 4141.026, 4064.615, 4320.513, 4199.487, 450, 0, []
1629738286.2915, 4, 0, 4541.538, 4124.615, 4067.179, 4320.513, 4194.359, 16142, 0, []
1629738286.2995, 5, 0, 4513.333, 4117.949, 4038.462, 4283.59, 4163.59, 450, 0, []
1629738286.3074, 6, 0, 4523.077, 4117.436, 4047.179, 4272.821, 4172.821, 16059, 0, []
1629738286.3154, 7, 0, 4566.667, 4114.359, 4070.256, 4307.692, 4215.897, 450, 0, []
1629738286.3233, 8, 0, 4574.872, 4119.487, 4075.385, 4308.718, 4225.128, 450, 0, []
1629738286.3312, 9, 0, 4550.256, 4122.051, 4070.256, 4272.821, 4204.615, 16169, 0, []
1629738286.3391, 10, 0, 4555.385, 4130.769, 4068.205, 4283.59, 4210.256, 450, 0, []
1629738286.3471, 11, 0, 4589.231, 4152.308, 4093.333, 4328.205, 4234.872, 16203, 0, []
1629738286.355, 12, 0, 4597.949, 4160.513, 4101.538, 4330.256, 4245.641, 450, 0, []
1629738286.363, 13, 0, 4574.359, 4155.897, 4088.205, 4295.385, 4232.308, 450, 0, []
1629738286.3709, 14, 0, 4561.538, 4145.128, 4078.974, 4274.872, 4210.769, 450, 0, []
1629738286.3788, 15, 0, 4576.923, 4127.179, 4075.897, 4285.128, 4210.769, 16203, 0, []
1629738286.3867, 16, 0, 4581.538, 4122.051, 4089.744, 4291.282, 4224.615, 0, 0, []
1629738286.3945, 17, 0, 4554.359, 4120, 4068.718, 4263.077, 4205.641, 0, 0, []
1629738286.4024, 18, 0, 4547.179, 4121.538, 4046.154, 4242.564, 4182.564, 0, 0, []
1629738286.4102, 19, 0, 4589.744, 4134.359, 4080.513, 4273.333, 4218.462, 0, 0, []
1629738286.418, 20, 0, 4625.128, 4135.897, 4101.026, 4302.051, 4264.615, 0, 0, []
1629738286.4258, 21, 0, 4612.821, 4143.59, 4092.308, 4279.487, 4248.205, 0, 0, []
1629738286.4337, 22, 0, 4602.564, 4162.564, 4082.564, 4260.513, 4227.179, 0, 0, []
1629738286.4415, 23, 0, 4609.744, 4145.641, 4082.564, 4270.769, 4243.59, 0, 0, []
1629738286.4494, 24, 0, 4611.282, 4128.205, 4089.744, 4282.564, 4249.744, 0, 0, []
1629738286.4571, 25, 0, 4627.179, 4156.923, 4087.692, 4294.359, 4248.718, 0, 0, []
1629738286.4651, 26, 0, 4633.846, 4146.667, 4083.077, 4286.154, 4249.231, 0, 0, []
1629738286.473, 27, 0, 4611.795, 4101.026, 4061.538, 4250.256, 4235.385, 0, 0, []
1629738286.4809, 28, 0, 4608.205, 4125.128, 4058.462, 4235.897, 4225.128, 0, 0, []
1629738286.4888, 29, 0, 4623.077, 4155.385, 4077.436, 4252.308, 4230.256, 0, 0, []
1629738286.4966, 30, 0, 4622.051, 4130.769, 4065.641, 4252.308, 4234.359, 0, 0, []
1629738286.5045, 31, 0, 4616.923, 4131.282, 4070.769, 4242.051, 4233.846, 0, 0, []
1629738286.5123, 32, 0, 4616.923, 4152.821, 4080, 4234.359, 4226.667, 0, 0, []
1629738286.5203, 33, 0, 4602.051, 4127.692, 4054.872, 4205.641, 4206.154, 0, 0, []
1629738286.5282, 34, 0, 4603.59, 4104.615, 4066.154, 4206.154, 4215.897, 0, 0, []
1629738286.536, 35, 0, 4634.359, 4128.718, 4100, 4248.205, 4257.949, 0, 0, []
1629738286.544, 36, 0, 4643.077, 4149.744, 4102.564, 4260.513, 4267.692, 0, 0, []
1629738286.5519, 37, 0, 4634.359, 4134.872, 4092.821, 4249.231, 4260.513, 0, 0, []
1629738286.5597, 38, 0, 4629.744, 4115.385, 4096.41, 4247.179, 4264.103, 0, 0, []
1629738286.5676, 39, 0, 4620, 4123.077, 4094.872, 4225.128, 4247.692, 0, 0, []
1629738286.5754, 40, 0, 4614.872, 4143.59, 4065.641, 4204.103, 4227.692, 0, 0, []
1629738286.5832, 41, 0, 4611.282, 4135.897, 4066.667, 4212.308, 4231.282, 0, 0, []
1629738286.591, 42, 0, 4611.795, 4132.821, 4090.256, 4218.462, 4240.513, 0, 0, []
1629738286.5989, 43, 0, 4625.641, 4161.026, 4093.846, 4221.538, 4244.615, 0, 0, []
1629738286.6067, 44, 0, 4633.333, 4163.077, 4095.897, 4219.487, 4246.667, 0, 0, []
1629738286.6147, 45, 0, 4617.436, 4125.641, 4074.359, 4195.897, 4238.974, 0, 0, []
1629738286.6225, 46, 0, 4604.615, 4109.231, 4063.077, 4175.385, 4225.641, 0, 0, []
1629738286.6305, 47, 0, 4606.667, 4141.538, 4080, 4169.231, 4223.59, 0, 0, []
1629738286.6384, 48, 0, 4618.462, 4179.487, 4098.974, 4163.59, 4244.615, 0, 0, []
1629738286.6464, 49, 0, 4647.179, 4189.231, 4132.821, 4176.923, 4275.897, 0, 0, []
1629738286.6543, 50, 0, 4648.205, 4178.974, 4121.538, 4176.923, 4268.205, 0, 0, []
1629738286.6622, 51, 0, 4615.385, 4158.974, 4093.333, 4142.051, 4241.026, 0, 0, []
1629738286.6701, 52, 0, 4614.872, 4150.256, 4107.692, 4129.744, 4250.769, 0, 0, []
1629738286.6781, 53, 0, 4634.359, 4160.513, 4111.282, 4135.897, 4261.026, 0, 0, []
1629738286.686, 54, 0, 4630.769, 4163.59, 4109.231, 4133.333, 4253.333, 0, 0, []
1629738286.6938, 55, 0, 4626.667, 4151.795, 4112.308, 4134.872, 4257.949, 0, 0, []
1629738286.7016, 56, 0, 4647.179, 4163.59, 4121.026, 4137.949, 4271.282, 0, 0, []
1629738286.7094, 57, 0, 4654.359, 4183.59, 4120, 4119.487, 4267.692, 0, 0, []
1629738286.7173, 58, 0, 4629.744, 4157.949, 4095.897, 4090.256, 4248.718, 0, 0, []
1629738286.7251, 59, 0, 4610.769, 4125.641, 4096.41, 4081.026, 4229.231, 0, 0, []
1629738286.733, 60, 0, 4621.026, 4135.897, 4103.59, 4094.872, 4226.667, 0, 0, []
1629738286.7407, 61, 0, 4633.333, 4151.795, 4101.026, 4108.718, 4243.077, 0, 0, []
1629738286.7486, 62, 0, 4621.026, 4156.923, 4103.59, 4103.077, 4245.641, 0, 0, []
1629738286.7564, 63, 0, 4626.154, 4174.872, 4095.897, 4098.462, 4245.641, 0, 0, []
1629738286.7644, 64, 0, 4638.974, 4172.821, 4087.179, 4098.462, 4246.667, 450, 0, []
1629738286.7723, 65, 0, 4619.487, 4148.718, 4072.308, 4081.538, 4230.769, 450, 0, []
1629738286.7803, 66, 0, 4624.103, 4171.795, 4081.026, 4086.667, 4242.051, 16179, 0, []
1629738286.7881, 67, 0, 4655.897, 4187.692, 4109.231, 4115.385, 4268.718, 450, 0, []
1629738286.7961, 68, 0, 4641.538, 4147.179, 4088.718, 4106.667, 4252.821, 16149, 0, []
1629738286.804, 69, 0, 4604.103, 4138.974, 4070.256, 4074.359, 4225.641, 450, 0, []
1629738286.812, 70, 0, 4621.538, 4178.974, 4088.205, 4075.897, 4239.487, 16062, 0, []
1629738286.8199, 71, 0, 4653.846, 4189.744, 4097.949, 4092.821, 4256.923, 450, 0, []
1629738286.8278, 72, 0, 4636.41, 4163.077, 4091.795, 4080, 4240.513, 450, 0, []
1629738286.8357, 73, 0, 4604.103, 4161.026, 4075.385, 4056.923, 4221.026, 16170, 0, []
1629738286.8435, 74, 0, 4605.128, 4181.026, 4083.077, 4054.872, 4221.026, 450, 0, []
1629738286.8514, 75, 0, 4625.128, 4175.897, 4092.821, 4062.564, 4235.385, 16203, 0, []
1629738286.8592, 76, 0, 4624.615, 4159.487, 4086.154, 4062.564, 4241.026, 450, 0, []
1629738286.867, 77, 0, 4608.205, 4158.974, 4095.897, 4059.487, 4230.256, 450, 0, []
1629738286.8748, 78, 0, 4606.154, 4165.641, 4088.718, 4061.026, 4226.667, 450, 0, []
1629738286.8827, 79, 0, 4610.769, 4150.256, 4079.487, 4057.949, 4231.282, 16203, 0, []
1629738286.8905, 80, 0, 4607.179, 4131.795, 4087.179, 4053.333, 4225.128, 450, 0, []
1629738286.8984, 81, 0, 4601.538, 4146.154, 4085.641, 4057.436, 4217.436, 450, 0, []
1629738286.9061, 82, 0, 4586.667, 4161.026, 4078.462, 4056.41, 4210.256, 450, 0, []
1629738286.914, 83, 0, 4565.128, 4140.513, 4062.051, 4041.026, 4205.128, 16203, 0, []
1629738286.9218, 84, 0, 4573.333, 4136.923, 4078.974, 4052.308, 4226.667, 450, 0, []
1629738286.9298, 85, 0, 4600, 4182.051, 4104.615, 4081.538, 4247.692, 450, 0, []
1629738286.9377, 86, 0, 4602.564, 4201.538, 4088.718, 4078.462, 4239.487, 450, 0, []
1629738286.9456, 87, 0, 4608.718, 4192.308, 4098.462, 4084.103, 4253.333, 16203, 0, []
1629738286.9535, 88, 0, 4624.615, 4200, 4113.333, 4103.59, 4274.872, 450, 0, []
1629738286.9615, 89, 0, 4618.462, 4201.026, 4107.692, 4095.897, 4260.513, 450, 0, []
1629738286.9694, 90, 0, 4618.462, 4206.154, 4120, 4103.077, 4264.615, 450, 0, []
1629738286.9774, 91, 0, 4603.077, 4199.487, 4111.795, 4116.41, 4268.718, 16203, 0, []
1629738286.9853, 92, 0, 4564.615, 4153.846, 4098.462, 4108.718, 4235.385, 450, 0, []
1629738286.9932, 93, 0, 4575.897, 4147.179, 4120.513, 4159.487, 4242.564, 450, 0, []
1629738287.0011, 94, 0, 4606.667, 4187.179, 4145.128, 4241.026, 4276.923, 450, 0, []
1629738287.0089, 95, 0, 4585.128, 4185.128, 4141.026, 4247.179, 4263.077, 16203, 0, []
1629738287.0168, 96, 0, 4565.641, 4133.846, 4125.641, 4235.897, 4243.077, 450, 0, []
1629738287.0246, 97, 0, 4575.385, 4114.359, 4135.385, 4256.923, 4245.641, 450, 0, []
1629738287.0324, 98, 0, 4554.359, 4133.846, 4134.359, 4257.436, 4241.538, 450, 0, []
1629738287.0402, 99, 0, 4519.487, 4127.692, 4117.949, 4239.487, 4225.128, 16203, 0, []
1629738287.0481, 100, 0, 4518.974, 4112.308, 4116.41, 4242.564, 4217.949, 450, 0, []
1629738287.0559, 101, 0, 4540.513, 4114.359, 4109.744, 4252.308, 4227.179, 450, 0, []
1629738287.0638, 102, 0, 4541.026, 4108.205, 4115.897, 4250.256, 4234.872, 450, 0, []
1629738287.0715, 103, 0, 4525.128, 4109.744, 4115.385, 4248.205, 4237.949, 16203, 0, []
1629738287.0794, 104, 0, 4532.821, 4130.769, 4110.256, 4254.359, 4250.769, 450, 0, []
1629738287.0872, 105, 0, 4525.641, 4108.718, 4109.231, 4231.795, 4230.769, 450, 0, []
1629738287.0952, 106, 0, 4497.436, 4081.538, 4086.667, 4191.795, 4187.692, 450, 0, []
1629738287.1031, 107, 0, 4513.846, 4133.333, 4101.026, 4195.897, 4208.718, 16203, 0, []
1629738287.111, 108, 0, 4550.256, 4168.718, 4131.282, 4220, 4255.897, 450, 0, []
1629738287.1189, 109, 0, 4549.231, 4140.513, 4125.128, 4224.103, 4253.333, 450, 0, []
1629738287.1269, 110, 0, 4535.385, 4131.282, 4124.103, 4227.692, 4237.949, 450, 0, []
1629738287.1348, 111, 0, 4531.795, 4142.564, 4108.718, 4225.641, 4239.487, 16203, 0, []
1629738287.1428, 112, 0, 4520.513, 4146.667, 4093.846, 4211.795, 4242.051, 450, 0, []
1629738287.1506, 113, 0, 4518.462, 4147.179, 4107.179, 4215.385, 4246.154, 450, 0, []
1629738287.1585, 114, 0, 4531.282, 4142.051, 4109.744, 4226.667, 4255.897, 450, 0, []
1629738287.1664, 115, 0, 4524.103, 4136.41, 4104.103, 4217.949, 4246.154, 16203, 0, []
1629738287.1742, 116, 0, 4504.615, 4130.256, 4096.41, 4203.077, 4228.205, 450, 0, []
1629738287.1821, 117, 0, 4506.154, 4100.513, 4103.59, 4198.462, 4234.872, 450, 0, []
1629738287.1898, 118, 0, 4526.667, 4094.359, 4125.128, 4212.308, 4262.564, 450, 0, []
1629738287.1977, 119, 0, 4522.051, 4127.692, 4112.308, 4216.923, 4254.359, 16203, 0, []
1629738287.2055, 120, 0, 4499.487, 4123.077, 4093.846, 4203.077, 4223.59, 450, 0, []
1629738287.2134, 121, 0, 4504.103, 4101.026, 4095.897, 4200.513, 4238.462, 450, 0, []
1629738287.2212, 122, 0, 4512.821, 4121.538, 4109.231, 4202.564, 4262.564, 450, 0, []
1629738287.2292, 123, 0, 4509.231, 4159.487, 4112.308, 4202.051, 4257.436, 16203, 0, []
1629738287.237, 124, 0, 4529.744, 4160.513, 4112.308, 4222.564, 4266.667, 450, 0, []
1629738287.245, 125, 0, 4557.949, 4139.487, 4137.949, 4242.051, 4289.231, 450, 0, []
1629738287.2529, 126, 0, 4544.615, 4128.718, 4132.308, 4225.128, 4275.385, 450, 0, []
1629738287.2609, 127, 0, 4514.872, 4128.718, 4106.667, 4199.487, 4250.256, 16203, 0, []
1629738287.2688, 128, 0, 4501.538, 4126.154, 4091.282, 4172.308, 4240, 450, 0, []
1629738287.2767, 0, 0, 4495.385, 4115.897, 4071.282, 4147.692, 4230.256, 450, 0, []
1629738287.2846, 1, 0, 4492.821, 4118.462, 4080.513, 4155.385, 4221.026, 450, 0, []
1629738287.2926, 2, 0, 4480, 4111.795, 4076.923, 4165.128, 4208.718, 16185, 0, []
1629738287.3005, 3, 0, 4491.282, 4127.179, 4090.769, 4191.795, 4232.308, 450, 0, []
1629738287.3085, 4, 0, 4553.333, 4186.667, 4163.59, 4263.077, 4307.179, 16149, 0, []
1629738287.3163, 5, 0, 4583.59, 4204.615, 4168.718, 4286.667, 4339.487, 450, 0, []
1629738287.3241, 6, 0, 4543.077, 4175.385, 4114.359, 4228.205, 4288.718, 16064, 0, []
1629738287.332, 7, 0, 4508.205, 4153.846, 4093.846, 4181.538, 4246.667, 450, 0, []
1629738287.3398, 8, 0, 4496.41, 4149.231, 4089.744, 4157.436, 4243.077, 450, 0, []
1629738287.3477, 9, 0, 4488.718, 4168.718, 4091.795, 4139.487, 4242.051, 16170, 0, []
1629738287.3554, 10, 0, 4512.821, 4196.923, 4109.744, 4169.231, 4254.359, 450, 0, []
1629738287.3633, 11, 0, 4519.487, 4171.795, 4126.154, 4204.103, 4255.897, 16203, 0, []
1629738287.3711, 12, 0, 4487.692, 4144.103, 4120, 4197.949, 4242.564, 450, 0, []
1629738287.379, 13, 0, 4493.333, 4178.462, 4114.359, 4192.308, 4252.821, 450, 0, []
1629738287.3868, 14, 0, 4521.026, 4184.103, 4116.923, 4191.282, 4269.231, 450, 0, []
1629738287.3947, 15, 0, 4517.949, 4152.308, 4094.872, 4168.205, 4265.128, 16203, 0, []
1629738287.4026, 16, 0, 4508.205, 4156.41, 4084.103, 4137.436, 4256.41, 0, 0, []
1629738287.4106, 17, 0, 4518.462, 4172.821, 4097.436, 4125.641, 4268.718, 0, 0, []
1629738287.4185, 18, 0, 4534.359, 4167.692, 4106.667, 4137.949, 4296.923, 0, 0, []
1629738287.4265, 19, 0, 4542.051, 4175.897, 4117.436, 4153.846, 4306.154, 0, 0, []
1629738287.4344, 20, 0, 4541.026, 4196.923, 4103.59, 4155.385, 4287.692, 0, 0, []
1629738287.4423, 21, 0, 4536.41, 4210.769, 4095.897, 4167.692, 4282.051, 0, 0, []
1629738287.4502, 22, 0, 4527.692, 4220, 4100, 4189.231, 4288.718, 0, 0, []
1629738287.4582, 23, 0, 4512.308, 4212.308, 4078.974, 4180.513, 4273.846, 0, 0, []
1629738287.4661, 24, 0, 4510.769, 4183.077, 4077.949, 4155.897, 4260.513, 0, 0, []
1629738287.4739, 25, 0, 4534.359, 4174.872, 4100.513, 4158.462, 4277.949, 0, 0, []
1629738287.4817, 26, 0, 4551.795, 4198.974, 4125.128, 4174.872, 4299.487, 0, 0, []
1629738287.4896, 27, 0, 4545.128, 4209.744, 4132.308, 4182.051, 4297.436, 0, 0, []
1629738287.4976, 28, 0, 4521.538, 4189.231, 4115.897, 4182.051, 4276.41, 0, 0, []
1629738287.5054, 29, 0, 4473.846, 4162.051, 4084.103, 4141.538, 4227.692, 0, 0, []
1629738287.5133, 30, 0, 4438.974, 4158.462, 4032.308, 4091.795, 4187.692, 0, 0, []
1629738287.521, 31, 0, 4471.795, 4176.923, 4045.641, 4115.385, 4220, 0, 0, []
1629738287.529, 32, 0, 4519.487, 4192.308, 4112.308, 4164.615, 4280, 0, 0, []
