Timestamp, COUNTER, INTERPOLATED, AF3, T7, Pz, T8, AF4, RAW_CQ, MARKER_HARDWARE, MARKERS
1631385567.4642, 10, 0, 4263.59, 4252.821, 4181.538, 4092.821, 4370.256, 450, 0, []
1631385567.472, 11, 0, 4277.436, 4240.513, 4199.487, 4097.436, 4372.821, 16202, 0, []
1631385567.4798, 12, 0, 4252.308, 4215.897, 4163.077, 4087.179, 4365.128, 450, 0, []
1631385567.4877, 13, 0, 4250.769, 4203.59, 4181.538, 4092.821, 4370.256, 450, 0, []
1631385567.4955, 14, 0, 4266.154, 4188.205, 4189.231, 4088.718, 4370.256, 450, 0, []
1631385567.5034, 15, 0, 4261.538, 4207.692, 4192.308, 4080.513, 4368.205, 16202, 0, []
1631385567.5111, 16, 0, 4260.513, 4276.41, 4189.744, 4109.231, 4376.923, 0, 0, []
1631385567.519, 17, 0, 4271.795, 4289.744, 4191.795, 4133.333, 4381.026, 0, 0, []
1631385567.5268, 18, 0, 4269.744, 4195.897, 4211.282, 4117.436, 4377.436, 0, 0, []
1631385567.5347, 19, 0, 4256.41, 4136.41, 4172.308, 4102.564, 4373.333, 0, 0, []
1631385567.5425, 20, 0, 4255.897, 4184.615, 4178.462, 4105.641, 4368.205, 0, 0, []
1631385567.5504, 21, 0, 4266.667, 4211.795, 4201.538, 4109.744, 4366.154, 0, 0, []
1631385567.5581, 22, 0, 4265.641, 4142.051, 4172.308, 4109.231, 4368.205, 0, 0, []
1631385567.5661, 23, 0, 4247.179, 4104.615, 4177.949, 4101.026, 4353.846, 0, 0, []
1631385567.574, 24, 0, 4245.641, 4192.821, 4185.128, 4105.641, 4342.564, 0, 0, []
1631385567.582, 25, 0, 4250.256, 4264.615, 4195.385, 4109.744, 4349.744, 0, 0, []
1631385567.5899, 26, 0, 4238.462, 4228.718, 4182.051, 4092.308, 4344.615, 0, 0, []
1631385567.5978, 27, 0, 4248.718, 4195.385, 4166.667, 4092.821, 4342.051, 0, 0, []
1631385567.6057, 28, 0, 4270.256, 4212.821, 4211.282, 4107.179, 4354.872, 0, 0, []
1631385567.6137, 29, 0, 4264.615, 4264.615, 4190.256, 4101.026, 4365.641, 0, 0, []
1631385567.6216, 30, 0, 4264.103, 4317.436, 4170.256, 4108.205, 4366.154, 0, 0, []
1631385567.6296, 31, 0, 4265.641, 4300.513, 4193.333, 4123.59, 4351.282, 0, 0, []
1631385567.6374, 32, 0, 4247.692, 4253.333, 4163.077, 4108.205, 4338.974, 0, 0, []
1631385567.6452, 33, 0, 4260, 4275.385, 4178.974, 4111.282, 4359.487, 0, 0, []
1631385567.6531, 34, 0, 4293.333, 4307.179, 4208.718, 4149.231, 4386.154, 0, 0, []
1631385567.6609, 35, 0, 4277.949, 4261.026, 4190.256, 4152.308, 4374.872, 0, 0, []
1631385567.6688, 36, 0, 4253.846, 4211.795, 4180, 4131.282, 4356.41, 0, 0, []
1631385567.6765, 37, 0, 4276.41, 4224.103, 4189.231, 4138.974, 4361.538, 0, 0, []
1631385567.6844, 38, 0, 4283.59, 4234.872, 4208.205, 4143.59, 4365.641, 0, 0, []
1631385567.6922, 39, 0, 4264.615, 4203.077, 4181.538, 4137.436, 4365.128, 0, 0, []
1631385567.7001, 40, 0, 4274.359, 4188.205, 4187.692, 4142.051, 4363.59, 0, 0, []
1631385567.7079, 41, 0, 4273.846, 4237.949, 4215.897, 4123.077, 4347.179, 0, 0, []
1631385567.7158, 42, 0, 4252.821, 4256.923, 4167.179, 4100, 4342.051, 0, 0, []
1631385567.7237, 43, 0, 4275.385, 4203.077, 4190.256, 4129.744, 4371.795, 0, 0, []
1631385567.7317, 44, 0, 4293.333, 4170.256, 4220.513, 4151.282, 4375.385, 0, 0, []
1631385567.7396, 45, 0, 4251.282, 4167.179, 4170.256, 4121.538, 4337.949, 0, 0, []
1631385567.7476, 46, 0, 4247.692, 4166.154, 4201.026, 4124.615, 4345.641, 0, 0, []
1631385567.7555, 47, 0, 4278.462, 4205.641, 4216.41, 4143.077, 4371.282, 0, 0, []
1631385567.7634, 48, 0, 4255.897, 4279.487, 4170.769, 4113.846, 4347.179, 0, 0, []
1631385567.7713, 49, 0, 4247.692, 4299.487, 4210.256, 4109.744, 4336.923, 0, 0, []
1631385567.7793, 50, 0, 4285.641, 4234.872, 4210.769, 4142.564, 4359.487, 0, 0, []
1631385567.7872, 51, 0, 4286.154, 4205.641, 4180.513, 4144.615, 4357.436, 0, 0, []
1631385567.7952, 52, 0, 4261.026, 4265.641, 4224.615, 4142.051, 4348.205, 0, 0, []
1631385567.803, 53, 0, 4269.231, 4296.923, 4181.026, 4155.897, 4352.308, 0, 0, []
1631385567.8108, 54, 0, 4277.436, 4246.667, 4132.821, 4145.128, 4342.564, 0, 0, []
1631385567.8187, 55, 0, 4269.744, 4191.282, 4195.385, 4131.282, 4336.923, 0, 0, []
1631385567.8265, 56, 0, 4274.872, 4155.897, 4234.872, 4143.077, 4344.103, 0, 0, []
1631385567.8344, 57, 0, 4285.128, 4144.103, 4217.949, 4141.538, 4341.538, 0, 0, []
1631385567.8421, 58, 0, 4275.385, 4191.282, 4226.667, 4122.564, 4339.487, 0, 0, []
1631385567.85, 59, 0, 4273.333, 4234.359, 4182.564, 4125.641, 4350.769, 0, 0, []
1631385567.8578, 60, 0, 4286.667, 4202.051, 4158.974, 4130.769, 4352.308, 0, 0, []
1631385567.8658, 61, 0, 4261.538, 4165.128, 4247.692, 4105.128, 4325.128, 0, 0, []
1631385567.8737, 62, 0, 4240, 4209.231, 4162.564, 4091.795, 4314.872, 0, 0, []
1631385567.8816, 63, 0, 4287.692, 4276.923, 4153.846, 4133.333, 4353.846, 0, 0, []
1631385567.8895, 64, 0, 4342.051, 4263.077, 4263.077, 4171.795, 4396.923, 450, 0, []
1631385567.8975, 65, 0, 4337.436, 4176.41, 4181.026, 4149.744, 4384.615, 450, 0, []
1631385567.9054, 66, 0, 4315.897, 4132.308, 4175.385, 4118.974, 4344.103, 16173, 0, []
1631385567.9134, 67, 0, 4334.872, 4203.077, 4205.641, 4135.897, 4357.436, 450, 0, []
1631385567.9212, 68, 0, 4368.718, 4283.59, 4208.718, 4164.615, 4402.051, 16184, 0, []
1631385567.9292, 69, 0, 4365.641, 4289.231, 4214.872, 4153.333, 4402.051, 450, 0, []
1631385567.9371, 70, 0, 4349.231, 4303.077, 4167.692, 4133.333, 4378.974, 16305, 0, []
1631385567.9449, 71, 0, 4353.333, 4334.359, 4191.282, 4138.974, 4376.41, 450, 0, []
1631385567.9528, 72, 0, 4355.385, 4277.949, 4194.872, 4147.692, 4381.026, 450, 0, []
1631385567.9605, 73, 0, 4350.769, 4209.744, 4182.564, 4140, 4382.564, 16167, 0, []
1631385567.9684, 74, 0, 4352.821, 4242.051, 4202.564, 4128.718, 4388.718, 450, 0, []
1631385567.9762, 75, 0, 4331.795, 4231.282, 4168.718, 4116.923, 4368.718, 16202, 0, []
1631385567.9841, 76, 0, 4309.231, 4161.538, 4176.923, 4120.513, 4341.538, 450, 0, []
1631385567.9919, 77, 0, 4306.667, 4199.487, 4193.333, 4127.179, 4335.385, 450, 0, []
1631385567.9998, 78, 0, 4290.769, 4271.795, 4172.308, 4111.795, 4325.641, 450, 0, []
1631385568.0075, 79, 0, 4305.128, 4262.051, 4197.436, 4120.513, 4340, 16202, 0, []
1631385568.0155, 80, 0, 4368.205, 4259.487, 4206.667, 4165.128, 4395.385, 450, 0, []
1631385568.0234, 81, 0, 4395.385, 4285.641, 4205.128, 4170.769, 4422.051, 450, 0, []
1631385568.0314, 82, 0, 4364.615, 4256.41, 4192.308, 4121.538, 4389.744, 450, 0, []
1631385568.0393, 83, 0, 4361.538, 4204.615, 4183.077, 4095.385, 4377.949, 16202, 0, []
1631385568.0472, 84, 0, 4412.821, 4192.308, 4214.872, 4125.641, 4418.462, 450, 0, []
1631385568.0551, 85, 0, 4435.385, 4188.718, 4202.051, 4145.641, 4436.923, 450, 0, []
1631385568.0631, 86, 0, 4412.821, 4195.897, 4200, 4114.872, 4411.282, 450, 0, []
1631385568.071, 87, 0, 4402.051, 4216.41, 4200, 4094.359, 4394.872, 16202, 0, []
1631385568.079, 88, 0, 4416.923, 4201.026, 4197.949, 4142.564, 4413.846, 450, 0, []
1631385568.0868, 89, 0, 4415.897, 4197.949, 4243.59, 4193.846, 4425.641, 450, 0, []
1631385568.0947, 90, 0, 4372.308, 4220, 4216.41, 4164.615, 4389.231, 450, 0, []
1631385568.1026, 91, 0, 4320.513, 4183.59, 4186.154, 4116.923, 4342.051, 16202, 0, []
1631385568.1104, 92, 0, 4309.744, 4164.615, 4203.077, 4130.769, 4342.051, 450, 0, []
1631385568.1183, 93, 0, 4322.564, 4224.615, 4210.256, 4166.667, 4369.231, 450, 0, []
1631385568.126, 94, 0, 4300.513, 4202.564, 4223.077, 4156.923, 4350.256, 450, 0, []
1631385568.1339, 95, 0, 4266.154, 4102.051, 4202.051, 4132.308, 4302.051, 16202, 0, []
1631385568.1417, 96, 0, 4254.872, 4104.103, 4207.179, 4135.385, 4294.359, 450, 0, []
1631385568.1496, 97, 0, 4237.436, 4148.205, 4205.128, 4125.128, 4293.846, 450, 0, []
1631385568.1574, 98, 0, 4223.077, 4148.718, 4185.641, 4100, 4273.846, 450, 0, []
1631385568.1652, 99, 0, 4233.333, 4152.821, 4237.436, 4117.436, 4273.846, 16202, 0, []
1631385568.173, 100, 0, 4235.385, 4133.333, 4222.564, 4145.641, 4281.026, 450, 0, []
1631385568.181, 101, 0, 4215.897, 4094.359, 4180, 4128.718, 4266.667, 450, 0, []
1631385568.1889, 102, 0, 4205.641, 4096.923, 4202.051, 4107.179, 4253.846, 450, 0, []
1631385568.1969, 103, 0, 4207.179, 4130.256, 4197.436, 4116.923, 4252.308, 16202, 0, []
1631385568.2048, 104, 0, 4182.051, 4164.103, 4185.128, 4098.974, 4233.333, 450, 0, []
1631385568.2127, 105, 0, 4156.41, 4189.744, 4157.949, 4060.513, 4218.462, 450, 0, []
1631385568.2206, 106, 0, 4184.615, 4197.949, 4177.436, 4077.436, 4236.41, 450, 0, []
1631385568.2286, 107, 0, 4211.795, 4185.128, 4224.615, 4108.205, 4242.564, 16202, 0, []
1631385568.2365, 108, 0, 4181.538, 4182.564, 4169.744, 4084.103, 4211.282, 450, 0, []
1631385568.2445, 109, 0, 4163.59, 4201.026, 4149.744, 4071.795, 4200.513, 450, 0, []
1631385568.2523, 110, 0, 4190.769, 4178.974, 4182.051, 4103.59, 4227.692, 450, 0, []
1631385568.2603, 111, 0, 4207.692, 4124.615, 4125.641, 4108.205, 4235.897, 16202, 0, []
1631385568.2682, 112, 0, 4212.821, 4144.615, 4213.333, 4094.359, 4228.718, 450, 0, []
1631385568.2761, 113, 0, 4204.103, 4181.538, 4290.256, 4080.513, 4216.923, 450, 0, []
1631385568.284, 114, 0, 4170.769, 4111.795, 4046.667, 4050.256, 4189.744, 450, 0, []
1631385568.2919, 115, 0, 4169.231, 4053.846, 4113.846, 4052.821, 4182.564, 16202, 0, []
1631385568.2998, 116, 0, 4193.333, 4111.795, 4281.538, 4086.154, 4199.487, 450, 0, []
1631385568.3076, 117, 0, 4190.769, 4165.641, 4152.308, 4093.333, 4202.051, 450, 0, []
1631385568.3155, 118, 0, 4176.41, 4172.821, 4152.821, 4081.538, 4194.359, 450, 0, []
1631385568.3233, 119, 0, 4176.923, 4174.359, 4146.667, 4084.103, 4199.487, 16202, 0, []
1631385568.3312, 120, 0, 4190.769, 4149.231, 4161.026, 4102.051, 4207.179, 450, 0, []
1631385568.3391, 121, 0, 4193.333, 4127.692, 4190.769, 4109.231, 4200.513, 450, 0, []
1631385568.3471, 122, 0, 4172.821, 4133.333, 4166.667, 4085.128, 4178.462, 450, 0, []
1631385568.355, 123, 0, 4163.59, 4148.205, 4169.744, 4072.308, 4175.897, 16202, 0, []
1631385568.363, 124, 0, 4167.179, 4189.231, 4126.667, 4092.821, 4190.256, 450, 0, []
1631385568.3708, 125, 0, 4150.256, 4212.308, 4148.718, 4088.718, 4170.256, 450, 0, []
1631385568.3788, 126, 0, 4141.026, 4178.462, 4150.769, 4075.897, 4155.897, 450, 0, []
1631385568.3867, 127, 0, 4146.154, 4158.462, 4177.436, 4080, 4166.154, 16202, 0, []
1631385568.3947, 128, 0, 4127.179, 4159.487, 4163.077, 4062.051, 4150.256, 450, 0, []
1631385568.4026, 0, 0, 4109.744, 4104.615, 4096.41, 4045.641, 4131.282, 450, 0, []
1631385568.4103, 1, 0, 4132.821, 4073.333, 4160.513, 4061.538, 4154.872, 450, 0, []
1631385568.4182, 2, 0, 4169.231, 4118.462, 4156.923, 4088.205, 4190.256, 16174, 0, []
1631385568.426, 3, 0, 4175.385, 4145.641, 4162.564, 4096.41, 4187.692, 450, 0, []
1631385568.4339, 4, 0, 4155.385, 4141.538, 4189.744, 4073.333, 4158.462, 16178, 0, []
1631385568.4417, 5, 0, 4144.103, 4136.41, 4148.205, 4062.051, 4152.821, 450, 0, []
1631385568.4496, 6, 0, 4154.359, 4130.769, 4172.308, 4087.179, 4174.872, 16308, 0, []
1631385568.4573, 7, 0, 4150.256, 4117.949, 4139.487, 4085.128, 4170.769, 450, 0, []
1631385568.4652, 8, 0, 4136.923, 4090.769, 4143.077, 4066.154, 4149.231, 450, 0, []
1631385568.473, 9, 0, 4148.205, 4055.897, 4176.923, 4084.615, 4155.385, 16164, 0, []
1631385568.481, 10, 0, 4150.256, 4013.846, 4149.231, 4087.692, 4156.923, 450, 0, []
1631385568.4889, 11, 0, 4139.487, 3968.205, 4181.538, 4067.692, 4145.641, 16208, 0, []
1631385568.4968, 12, 0, 4154.359, 3980, 4149.744, 4083.59, 4158.462, 450, 0, []
1631385568.5047, 13, 0, 4167.692, 4039.487, 4142.051, 4094.359, 4173.846, 450, 0, []
1631385568.5127, 14, 0, 4152.308, 4074.872, 4167.692, 4068.205, 4163.59, 450, 0, []
1631385568.5206, 15, 0, 4151.282, 4124.615, 4158.974, 4080.513, 4164.615, 16208, 0, []
1631385568.5286, 16, 0, 4170.769, 4145.641, 4198.974, 4122.564, 4180.513, 0, 0, []
1631385568.5364, 17, 0, 4148.205, 4062.051, 4151.282, 4100, 4161.026, 0, 0, []
1631385568.5444, 18, 0, 4119.487, 4037.436, 4148.205, 4072.308, 4144.103, 0, 0, []
1631385568.5523, 19, 0, 4147.179, 4102.564, 4168.718, 4106.667, 4177.949, 0, 0, []
1631385568.5601, 20, 0, 4175.897, 4124.103, 4152.821, 4122.051, 4196.41, 0, 0, []
1631385568.568, 21, 0, 4166.667, 4126.154, 4216.923, 4094.359, 4168.205, 0, 0, []
1631385568.5757, 22, 0, 4158.974, 4127.692, 4164.103, 4098.462, 4161.026, 0, 0, []
1631385568.5836, 23, 0, 4164.103, 4096.923, 4148.718, 4122.051, 4181.026, 0, 0, []
1631385568.5914, 24, 0, 4149.744, 4089.231, 4185.641, 4097.949, 4165.641, 0, 0, []
1631385568.5993, 25, 0, 4143.077, 4126.667, 4116.923, 4067.179, 4150.769, 0, 0, []
1631385568.6071, 26, 0, 4161.026, 4166.154, 4165.128, 4085.128, 4168.205, 0, 0, []
1631385568.6149, 27, 0, 4150.769, 4188.205, 4181.538, 4086.667, 4154.872, 0, 0, []
1631385568.6227, 28, 0, 4139.487, 4183.59, 4145.641, 4065.128, 4138.974, 0, 0, []
1631385568.6306, 29, 0, 4165.641, 4204.103, 4184.615, 4087.179, 4171.282, 0, 0, []
1631385568.6384, 30, 0, 4172.308, 4242.564, 4150.256, 4109.231, 4184.615, 0, 0, []
1631385568.6464, 31, 0, 4149.231, 4184.103, 4163.59, 4081.538, 4154.872, 0, 0, []
1631385568.6542, 32, 0, 4162.564, 4115.897, 4195.385, 4087.179, 4162.051, 0, 0, []
1631385568.6622, 33, 0, 4177.436, 4134.359, 4170.769, 4119.487, 4178.974, 0, 0, []
1631385568.6701, 34, 0, 4142.564, 4128.718, 4179.487, 4094.872, 4148.718, 0, 0, []
1631385568.6781, 35, 0, 4134.359, 4123.59, 4141.026, 4072.308, 4145.128, 0, 0, []
1631385568.686, 36, 0, 4172.821, 4175.897, 4171.282, 4100.513, 4180, 0, 0, []
1631385568.694, 37, 0, 4185.128, 4190.256, 4200, 4115.897, 4177.436, 0, 0, []
1631385568.7018, 38, 0, 4170.256, 4154.872, 4160.513, 4094.872, 4153.846, 0, 0, []
1631385568.7098, 39, 0, 4167.692, 4161.538, 4196.923, 4080, 4158.974, 0, 0, []
1631385568.7177, 40, 0, 4170.769, 4197.436, 4166.154, 4093.846, 4171.795, 0, 0, []
1631385568.7255, 41, 0, 4167.179, 4180, 4156.923, 4112.821, 4171.282, 0, 0, []
1631385568.7334, 42, 0, 4161.538, 4117.949, 4180.513, 4106.154, 4164.103, 0, 0, []
1631385568.7411, 43, 0, 4160.513, 4078.462, 4164.103, 4090.769, 4153.333, 0, 0, []
1631385568.749, 44, 0, 4174.872, 4063.59, 4214.359, 4103.59, 4160.513, 0, 0, []
1631385568.7568, 45, 0, 4186.154, 4060.513, 4188.718, 4121.026, 4183.077, 0, 0, []
1631385568.7647, 46, 0, 4190.769, 4097.436, 4177.436, 4125.128, 4193.846, 0, 0, []
1631385568.7725, 47, 0, 4192.821, 4108.718, 4192.821, 4125.128, 4187.692, 0, 0, []
1631385568.7803, 48, 0, 4186.154, 4071.795, 4178.462, 4119.487, 4176.923, 0, 0, []
1631385568.7881, 49, 0, 4181.538, 4085.128, 4221.538, 4112.308, 4168.205, 0, 0, []
1631385568.7961, 50, 0, 4184.103, 4133.333, 4164.103, 4106.667, 4170.769, 0, 0, []
1631385568.804, 51, 0, 4176.41, 4156.923, 4148.718, 4096.41, 4172.308, 0, 0, []
1631385568.812, 52, 0, 4168.718, 4184.103, 4191.795, 4090.256, 4157.949, 0, 0, []
1631385568.8198, 53, 0, 4178.974, 4161.026, 4178.462, 4104.103, 4155.897, 0, 0, []
1631385568.8278, 54, 0, 4190.256, 4101.026, 4211.795, 4120, 4172.308, 0, 0, []
1631385568.8357, 55, 0, 4192.308, 4118.974, 4176.923, 4124.103, 4185.128, 0, 0, []
1631385568.8437, 56, 0, 4182.051, 4131.282, 4160, 4116.41, 4179.487, 0, 0, []
1631385568.8516, 57, 0, 4166.154, 4095.897, 4164.103, 4094.359, 4154.872, 0, 0, []
1631385568.8595, 58, 0, 4184.103, 4126.154, 4165.128, 4100.513, 4161.538, 0, 0, []
1631385568.8674, 59, 0, 4225.128, 4160.513, 4252.308, 4141.026, 4206.667, 0, 0, []
1631385568.8752, 60, 0, 4219.487, 4122.564, 4207.692, 4139.487, 4211.795, 0, 0, []
1631385568.8831, 61, 0, 4165.641, 4085.128, 4148.205, 4084.615, 4152.821, 0, 0, []
1631385568.8909, 62, 0, 4150.769, 4096.923, 4168.718, 4070.769, 4125.641, 0, 0, []
1631385568.8988, 63, 0, 4192.308, 4137.436, 4167.179, 4125.128, 4167.692, 0, 0, []
1631385568.9065, 64, 0, 4208.205, 4177.436, 4215.385, 4140.513, 4186.154, 450, 0, []
1631385568.9144, 65, 0, 4200.513, 4186.154, 4196.41, 4115.385, 4182.564, 450, 0, []
1631385568.9222, 66, 0, 4231.795, 4168.718, 4205.641, 4146.154, 4217.949, 16181, 0, []
1631385568.9301, 67, 0, 4251.795, 4146.667, 4208.205, 4170.769, 4229.744, 450, 0, []
1631385568.9379, 68, 0, 4220, 4116.41, 4162.564, 4129.744, 4188.205, 16184, 0, []
1631385568.9457, 69, 0, 4190.256, 4107.179, 4261.538, 4106.667, 4170.769, 450, 0, []
1631385568.9535, 70, 0, 4182.051, 4149.744, 4194.359, 4120, 4177.949, 16314, 0, []
1631385568.9615, 71, 0, 4192.821, 4214.359, 4115.385, 4123.077, 4174.359, 450, 0, []
1631385568.9694, 72, 0, 4221.538, 4230.256, 4214.872, 4137.949, 4190.256, 450, 0, []
1631385568.9774, 73, 0, 4230.256, 4182.051, 4203.077, 4154.359, 4206.154, 16169, 0, []
1631385568.9852, 74, 0, 4210.256, 4169.231, 4210.256, 4132.308, 4187.692, 450, 0, []
1631385568.9932, 75, 0, 4206.154, 4237.949, 4168.718, 4111.795, 4178.462, 16210, 0, []
1631385569.0011, 76, 0, 4218.974, 4256.41, 4182.051, 4129.231, 4190.769, 450, 0, []
1631385569.0091, 77, 0, 4221.538, 4198.974, 4264.615, 4149.744, 4194.359, 450, 0, []
1631385569.017, 78, 0, 4207.179, 4173.333, 4186.154, 4135.385, 4187.179, 450, 0, []
1631385569.0249, 79, 0, 4190.769, 4143.59, 4158.974, 4114.359, 4174.872, 16210, 0, []
1631385569.0328, 80, 0, 4193.846, 4061.538, 4074.359, 4121.538, 4173.846, 450, 0, []
1631385569.0406, 81, 0, 4201.026, 4023.077, 4132.308, 4122.564, 4166.667, 450, 0, []
1631385569.0485, 82, 0, 4194.872, 4061.538, 4322.051, 4106.667, 4146.154, 450, 0, []
1631385569.0563, 83, 0, 4205.641, 4075.385, 4196.41, 4127.692, 4167.692, 16210, 0, []
1631385569.0641, 84, 0, 4220.513, 4059.487, 4172.821, 4155.897, 4192.821, 450, 0, []
1631385569.0719, 85, 0, 4189.231, 4107.179, 4242.051, 4126.667, 4149.231, 450, 0, []
1631385569.0798, 86, 0, 4147.692, 4145.641, 4192.821, 4087.692, 4101.026, 450, 0, []
1631385569.0876, 87, 0, 4150.769, 4092.821, 4211.795, 4097.436, 4111.282, 16210, 0, []
1631385569.0955, 88, 0, 4167.179, 4053.846, 4184.615, 4122.564, 4130.769, 450, 0, []
1631385569.1032, 89, 0, 4169.744, 4081.538, 4175.897, 4127.692, 4129.744, 450, 0, []
1631385569.1112, 90, 0, 4181.538, 4117.949, 4187.179, 4132.308, 4133.846, 450, 0, []
1631385569.1191, 91, 0, 4197.436, 4173.846, 4187.179, 4153.333, 4147.179, 16210, 0, []
1631385569.1271, 92, 0, 4196.923, 4226.154, 4220.513, 4157.949, 4151.795, 450, 0, []
1631385569.135, 93, 0, 4181.026, 4190.769, 4190.769, 4131.282, 4138.462, 450, 0, []
1631385569.143, 94, 0, 4163.077, 4135.897, 4170.769, 4102.051, 4120, 450, 0, []
1631385569.1508, 95, 0, 4164.615, 4149.231, 4172.821, 4099.487, 4121.026, 16210, 0, []
1631385569.1588, 96, 0, 4188.718, 4204.615, 4183.59, 4130.769, 4144.615, 450, 0, []
1631385569.1667, 97, 0, 4209.231, 4252.308, 4227.179, 4154.359, 4161.538, 450, 0, []
1631385569.1745, 98, 0, 4200, 4249.231, 4196.923, 4139.487, 4158.974, 450, 0, []
1631385569.1824, 99, 0, 4190.769, 4203.59, 4178.462, 4135.897, 4160, 16210, 0, []
1631385569.1901, 100, 0, 4198.462, 4160, 4203.59, 4158.462, 4167.179, 450, 0, []
1631385569.198, 101, 0, 4187.692, 4120, 4195.385, 4140.513, 4145.641, 450, 0, []
1631385569.2058, 102, 0, 4177.436, 4120.513, 4213.333, 4118.462, 4127.179, 450, 0, []
1631385569.2137, 103, 0, 4183.59, 4167.179, 4194.872, 4142.051, 4140, 16210, 0, []
1631385569.2215, 104, 0, 4174.872, 4167.692, 4169.744, 4139.487, 4135.385, 450, 0, []
1631385569.2293, 105, 0, 4164.103, 4125.128, 4179.487, 4110.256, 4111.282, 450, 0, []
1631385569.2371, 106, 0, 4185.641, 4126.667, 4187.179, 4121.026, 4120, 450, 0, []
1631385569.245, 107, 0, 4214.359, 4161.538, 4224.103, 4148.205, 4156.923, 16210, 0, []
1631385569.2528, 108, 0, 4220, 4182.051, 4204.103, 4149.744, 4175.897, 450, 0, []
1631385569.2608, 109, 0, 4215.385, 4184.103, 4184.103, 4147.179, 4170.769, 450, 0, []
1631385569.2686, 110, 0, 4215.897, 4176.41, 4212.308, 4164.103, 4164.103, 450, 0, []
1631385569.2765, 111, 0, 4211.282, 4167.692, 4202.564, 4177.436, 4163.59, 16210, 0, []
1631385569.2845, 112, 0, 4188.718, 4164.103, 4203.59, 4156.923, 4151.795, 450, 0, []
1631385569.2925, 113, 0, 4181.538, 4183.59, 4185.641, 4130.256, 4146.667, 450, 0, []
1631385569.3004, 114, 0, 4215.897, 4227.692, 4185.641, 4143.077, 4172.308, 450, 0, []
1631385569.3083, 115, 0, 4244.103, 4249.744, 4228.718, 4164.615, 4191.282, 16210, 0, []
1631385569.3162, 116, 0, 4234.359, 4263.59, 4210.769, 4164.615, 4185.641, 450, 0, []
1631385569.3242, 117, 0, 4222.564, 4291.282, 4198.974, 4168.205, 4184.615, 450, 0, []
1631385569.3321, 118, 0, 4217.949, 4272.821, 4200, 4163.59, 4175.385, 450, 0, []
1631385569.3399, 119, 0, 4193.846, 4208.205, 4201.538, 4136.41, 4141.538, 16210, 0, []
1631385569.3478, 120, 0, 4171.795, 4181.538, 4215.897, 4136.923, 4127.179, 450, 0, []
1631385569.3556, 121, 0, 4185.128, 4194.872, 4183.59, 4169.231, 4158.974, 450, 0, []
1631385569.3635, 122, 0, 4200.513, 4201.538, 4187.692, 4163.59, 4171.282, 450, 0, []
1631385569.3713, 123, 0, 4198.974, 4235.897, 4211.282, 4127.692, 4150.769, 16210, 0, []
1631385569.3792, 124, 0, 4213.333, 4276.41, 4218.974, 4135.897, 4162.051, 450, 0, []
1631385569.387, 125, 0, 4231.795, 4252.821, 4241.026, 4168.718, 4193.333, 450, 0, []
1631385569.3948, 126, 0, 4214.872, 4223.59, 4206.154, 4164.103, 4183.077, 450, 0, []
1631385569.4026, 127, 0, 4178.974, 4242.564, 4205.128, 4132.308, 4145.128, 16210, 0, []
1631385569.4105, 128, 0, 4160.513, 4219.487, 4227.179, 4118.974, 4128.205, 450, 0, []
1631385569.4183, 0, 0, 4149.744, 4141.538, 4187.692, 4121.026, 4123.077, 450, 0, []
1631385569.4262, 1, 0, 4138.462, 4111.282, 4186.154, 4114.359, 4116.41, 450, 0, []
1631385569.4339, 2, 0, 4135.897, 4111.282, 4172.821, 4094.872, 4112.821, 16179, 0, []
1631385569.4419, 3, 0, 4158.462, 4106.667, 4168.205, 4101.538, 4125.128, 450, 0, []
1631385569.4498, 4, 0, 4196.41, 4094.872, 4252.308, 4134.872, 4153.333, 16175, 0, []
1631385569.4578, 5, 0, 4187.179, 4058.462, 4185.641, 4128.205, 4148.205, 450, 0, []
1631385569.4657, 6, 0, 4164.103, 4041.026, 4142.051, 4115.897, 4137.436, 16305, 0, []
1631385569.4736, 7, 0, 4194.872, 4047.179, 4329.231, 4144.615, 4165.641, 450, 0, []
1631385569.4815, 8, 0, 4211.795, 4020.513, 4219.487, 4140, 4174.872, 450, 0, []
1631385569.4895, 9, 0, 4182.564, 3984.615, 4136.923, 4101.538, 4143.59, 16170, 0, []
1631385569.4974, 10, 0, 4188.718, 3992.821, 4272.308, 4114.359, 4149.231, 450, 0, []
1631385569.5052, 11, 0, 4208.718, 3988.205, 4175.897, 4143.59, 4180, 16207, 0, []
1631385569.513, 12, 0, 4180, 3946.154, 4169.231, 4123.59, 4158.974, 450, 0, []
1631385569.5208, 13, 0, 4164.615, 3948.205, 4201.026, 4112.821, 4136.923, 450, 0, []
1631385569.5287, 14, 0, 4194.359, 4005.641, 4192.308, 4135.897, 4154.359, 450, 0, []
1631385569.5365, 15, 0, 4207.692, 4015.897, 4226.154, 4146.154, 4166.667, 16207, 0, []
1631385569.5444, 16, 0, 4188.718, 3973.333, 4199.487, 4137.436, 4156.923, 0, 0, []
1631385569.5521, 17, 0, 4178.462, 4000.513, 4193.846, 4119.487, 4146.667, 0, 0, []
1631385569.56, 18, 0, 4183.59, 4099.487, 4163.59, 4106.154, 4151.795, 0, 0, []
1631385569.5678, 19, 0, 4177.949, 4162.564, 4205.641, 4112.821, 4146.154, 0, 0, []
1631385569.5758, 20, 0, 4174.872, 4157.436, 4215.385, 4130.256, 4136.41, 0, 0, []
1631385569.5837, 21, 0, 4194.872, 4115.385, 4208.718, 4144.103, 4154.872, 0, 0, []
1631385569.5917, 22, 0, 4204.615, 4071.795, 4232.308, 4149.231, 4175.897, 0, 0, []
1631385569.5995, 23, 0, 4182.051, 4087.179, 4173.846, 4134.359, 4155.385, 0, 0, []
1631385569.6075, 24, 0, 4184.103, 4166.154, 4204.615, 4116.41, 4140, 0, 0, []
1631385569.6154, 25, 0, 4204.615, 4182.051, 4216.41, 4119.487, 4155.897, 0, 0, []
1631385569.6234, 26, 0, 4185.641, 4096.41, 4200.513, 4121.026, 4149.231, 0, 0, []
1631385569.6313, 27, 0, 4162.564, 4034.872, 4202.564, 4108.718, 4134.872, 0, 0, []
1631385569.6392, 28, 0, 4155.385, 4040, 4149.231, 4098.462, 4133.333, 0, 0, []
1631385569.6471, 29, 0, 4139.487, 4051.282, 4192.821, 4095.897, 4116.41, 0, 0, []
1631385569.6551, 30, 0, 4137.949, 4081.026, 4209.231, 4102.564, 4110.769, 0, 0, []
1631385569.663, 31, 0, 4156.41, 4127.692, 4207.692, 4127.179, 4136.923, 0, 0, []
1631385569.6708, 32, 0, 4163.59, 4119.487, 4233.846, 4154.359, 4158.974, 0, 0, []
1631385569.6786, 33, 0, 4154.359, 4101.026, 4186.154, 4151.282, 4157.949, 0, 0, []
1631385569.6864, 34, 0, 4144.615, 4115.385, 4198.974, 4128.205, 4140.513, 0, 0, []
1631385569.6943, 35, 0, 4138.974, 4100.513, 4187.179, 4117.436, 4121.026, 0, 0, []
1631385569.7021, 36, 0, 4141.538, 4056.923, 4199.487, 4120.513, 4116.41, 0, 0, []
1631385569.71, 37, 0, 4132.308, 4052.821, 4222.051, 4111.795, 4115.385, 0, 0, []
1631385569.7177, 38, 0, 4102.564, 4083.59, 4164.103, 4092.821, 4100.513, 0, 0, []
1631385569.7257, 39, 0, 4086.667, 4073.846, 4190.256, 4083.59, 4090.256, 0, 0, []
1631385569.7336, 40, 0, 4095.897, 4034.872, 4181.538, 4083.077, 4095.897, 0, 0, []
1631385569.7416, 41, 0, 4100, 4042.564, 4205.641, 4083.077, 4095.897, 0, 0, []
1631385569.7495, 42, 0, 4103.59, 4100, 4182.564, 4098.462, 4099.487, 0, 0, []
1631385569.7574, 43, 0, 4127.179, 4123.59, 4174.872, 4136.923, 4119.487, 0, 0, []
1631385569.7653, 44, 0, 4132.308, 4085.641, 4304.103, 4144.615, 4121.538, 0, 0, []
1631385569.7733, 45, 0, 4111.795, 4098.462, 4064.615, 4118.462, 4112.821, 0, 0, []
1631385569.7812, 46, 0, 4124.103, 4166.154, 4104.615, 4126.154, 4127.179, 0, 0, []
1631385569.7892, 47, 0, 4143.59, 4177.949, 4379.487, 4145.128, 4137.436, 0, 0, []
1631385569.797, 48, 0, 4125.641, 4165.128, 4160.513, 4125.641, 4124.615, 0, 0, []
1631385569.805, 49, 0, 4117.436, 4210.769, 4163.59, 4098.974, 4116.923, 0, 0, []
1631385569.8129, 50, 0, 4123.59, 4249.744, 4257.949, 4087.692, 4114.359, 0, 0, []
1631385569.8207, 51, 0, 4129.744, 4221.026, 4185.641, 4101.026, 4114.359, 0, 0, []
1631385569.8286, 52, 0, 4138.462, 4196.923, 4216.41, 4129.744, 4126.154, 0, 0, []
1631385569.8364, 53, 0, 4126.154, 4208.718, 4177.436, 4121.538, 4126.154, 0, 0, []
1631385569.8442, 54, 0, 4104.615, 4205.128, 4187.179, 4092.308, 4109.231, 0, 0, []
1631385569.852, 55, 0, 4105.641, 4170.256, 4198.974, 4094.872, 4100, 0, 0, []
1631385569.8599, 56, 0, 4110.769, 4130.769, 4187.179, 4103.59, 4092.821, 0, 0, []
1631385569.8677, 57, 0, 4097.949, 4105.128, 4226.667, 4093.846, 4083.077, 0, 0, []
1631385569.8756, 58, 0, 4096.923, 4094.872, 4197.949, 4095.385, 4091.795, 0, 0, []
1631385569.8833, 59, 0, 4109.231, 4087.179, 4182.564, 4102.564, 4103.59, 0, 0, []
1631385569.8913, 60, 0, 4097.436, 4066.667, 4257.436, 4098.462, 4091.795, 0, 0, []
1631385569.8992, 61, 0, 4079.487, 4045.128, 4176.923, 4093.846, 4088.718, 0, 0, []
1631385569.9072, 62, 0, 4093.333, 4060, 4132.308, 4094.359, 4106.667, 0, 0, []
1631385569.9151, 63, 0, 4104.103, 4085.641, 4270.769, 4095.897, 4102.051, 0, 0, []
1631385569.923, 64, 0, 4073.846, 4067.692, 4149.744, 4090.256, 4069.231, 450, 0, []
1631385569.9309, 65, 0, 4065.641, 4044.103, 4129.231, 4083.077, 4059.487, 450, 0, []
1631385569.9389, 66, 0, 4089.744, 4044.615, 4320, 4086.154, 4073.846, 16179, 0, []
1631385569.9468, 67, 0, 4082.564, 4049.744, 4232.821, 4092.821, 4071.795, 450, 0, []
1631385569.9548, 68, 0, 4058.462, 4108.718, 4124.615, 4090.769, 4061.538, 16184, 0, []
1631385569.9626, 69, 0, 4062.564, 4180, 4228.205, 4090.256, 4069.231, 450, 0, []
1631385569.9704, 70, 0, 4078.974, 4127.179, 4230.769, 4099.487, 4082.051, 16313, 0, []
1631385569.9783, 71, 0, 4072.308, 4072.308, 4106.154, 4097.949, 4080.513, 450, 0, []
1631385569.9861, 72, 0, 4070.256, 4136.41, 4151.795, 4095.897, 4084.103, 450, 0, []
1631385569.994, 73, 0, 4082.051, 4132.821, 4174.359, 4105.128, 4096.41, 16175, 0, []
1631385570.0017, 74, 0, 4080, 4031.282, 4151.795, 4107.692, 4092.821, 450, 0, []
1631385570.0096, 75, 0, 4072.821, 4008.205, 4224.615, 4098.974, 4078.462, 16201, 0, []
1631385570.0174, 76, 0, 4069.231, 4064.615, 4218.974, 4085.128, 4064.103, 450, 0, []
1631385570.0253, 77, 0, 4068.205, 4124.103, 4208.205, 4085.128, 4058.974, 450, 0, []
1631385570.0331, 78, 0, 4073.846, 4169.231, 4149.744, 4100.513, 4069.231, 450, 0, []
1631385570.041, 79, 0, 4076.41, 4176.923, 4157.436, 4101.538, 4076.923, 16201, 0, []
1631385570.0487, 80, 0, 4071.282, 4183.077, 4235.385, 4096.41, 4081.026, 450, 0, []
1631385570.0567, 81, 0, 4082.564, 4214.872, 4168.205, 4112.821, 4099.487, 450, 0, []
1631385570.0646, 82, 0, 4098.462, 4221.026, 4168.205, 4124.103, 4110.256, 450, 0, []
1631385570.0726, 83, 0, 4087.692, 4208.718, 4197.436, 4100, 4090.256, 16201, 0, []
1631385570.0805, 84, 0, 4091.282, 4222.564, 4159.487, 4098.462, 4087.179, 450, 0, []
1631385570.0884, 85, 0, 4125.641, 4248.718, 4238.462, 4145.641, 4119.487, 450, 0, []
1631385570.0963, 86, 0, 4133.333, 4251.282, 4255.897, 4164.103, 4129.231, 450, 0, []
1631385570.1043, 87, 0, 4103.077, 4233.333, 4149.231, 4130.256, 4102.051, 16201, 0, []
1631385570.1122, 88, 0, 4086.154, 4224.615, 4171.282, 4102.564, 4083.077, 450, 0, []
1631385570.12, 89, 0, 4103.077, 4238.974, 4246.667, 4110.769, 4098.462, 450, 0, []
1631385570.1278, 90, 0, 4109.744, 4248.205, 4133.333, 4108.718, 4108.718, 450, 0, []
1631385570.1356, 91, 0, 4100, 4259.487, 4078.974, 4095.385, 4101.538, 16201, 0, []
1631385570.1435, 92, 0, 4108.718, 4256.41, 4296.923, 4115.897, 4104.103, 450, 0, []
1631385570.1513, 93, 0, 4112.821, 4212.308, 4202.051, 4122.564, 4098.974, 450, 0, []
1631385570.1592, 94, 0, 4098.462, 4198.462, 4055.385, 4091.282, 4084.615, 450, 0, []
1631385570.1669, 95, 0, 4097.436, 4237.949, 4275.897, 4088.205, 4091.282, 16201, 0, []
1631385570.1748, 96, 0, 4094.359, 4236.923, 4223.077, 4116.41, 4103.59, 450, 0, []
1631385570.1826, 97, 0, 4067.179, 4206.667, 4127.179, 4103.077, 4084.615, 450, 0, []
1631385570.1906, 98, 0, 4071.282, 4258.462, 4198.462, 4087.692, 4080, 450, 0, []
1631385570.1985, 99, 0, 4114.872, 4343.59, 4181.538, 4121.026, 4114.359, 16201, 0, []
1631385570.2064, 100, 0, 4104.103, 4343.59, 4206.154, 4116.41, 4104.615, 450, 0, []
1631385570.2143, 101, 0, 4071.795, 4303.077, 4181.538, 4079.487, 4071.795, 450, 0, []
1631385570.2223, 102, 0, 4101.538, 4297.949, 4201.538, 4095.897, 4100.513, 450, 0, []
1631385570.2302, 103, 0, 4127.692, 4305.641, 4220.513, 4115.385, 4134.872, 16201, 0, []
1631385570.2382, 104, 0, 4096.41, 4293.846, 4162.564, 4087.179, 4108.205, 450, 0, []
1631385570.246, 105, 0, 4076.41, 4287.692, 4169.231, 4074.359, 4085.641, 450, 0, []
1631385570.254, 106, 0, 4101.538, 4302.051, 4170.769, 4101.026, 4110.769, 450, 0, []
1631385570.2619, 107, 0, 4127.179, 4313.846, 4196.41, 4134.359, 4132.308, 16201, 0, []
1631385570.2698, 108, 0, 4136.923, 4321.538, 4221.026, 4155.897, 4136.923, 450, 0, []
1631385570.2777, 109, 0, 4118.974, 4303.077, 4188.718, 4128.718, 4124.103, 450, 0, []
1631385570.2856, 110, 0, 4100, 4243.59, 4197.949, 4082.051, 4114.359, 450, 0, []
1631385570.2935, 111, 0, 4121.026, 4222.564, 4192.821, 4092.821, 4140.513, 16201, 0, []
1631385570.3013, 112, 0, 4136.923, 4260.513, 4185.128, 4114.359, 4154.359, 450, 0, []
1631385570.3092, 113, 0, 4106.154, 4288.205, 4188.718, 4093.846, 4114.359, 450, 0, []
1631385570.317, 114, 0, 4071.282, 4277.436, 4168.205, 4082.051, 4074.359, 450, 0, []
1631385570.3249, 115, 0, 4082.564, 4265.641, 4193.846, 4104.615, 4086.667, 16201, 0, []
1631385570.3326, 116, 0, 4114.359, 4261.538, 4188.205, 4127.179, 4120.513, 450, 0, []
1631385570.3405, 117, 0, 4130.769, 4270.256, 4171.795, 4141.538, 4144.103, 450, 0, []
1631385570.3483, 118, 0, 4142.564, 4302.051, 4195.385, 4153.846, 4158.974, 450, 0, []
1631385570.3563, 119, 0, 4142.564, 4307.692, 4192.821, 4141.026, 4149.744, 16201, 0, []
1631385570.3642, 120, 0, 4116.41, 4283.59, 4208.718, 4105.128, 4110.769, 450, 0, []
1631385570.3721, 121, 0, 4100, 4287.179, 4200.513, 4072.821, 4085.641, 450, 0, []
1631385570.38, 122, 0, 4124.615, 4309.231, 4190.256, 4079.487, 4115.897, 450, 0, []
1631385570.388, 123, 0, 4148.205, 4303.077, 4207.692, 4116.41, 4153.333, 16201, 0, []
1631385570.3959, 124, 0, 4135.385, 4285.641, 4176.923, 4125.641, 4141.538, 450, 0, []
1631385570.4039, 125, 0, 4133.333, 4293.333, 4190.769, 4115.897, 4133.846, 450, 0, []
1631385570.4117, 126, 0, 4165.128, 4307.692, 4221.538, 4142.564, 4166.154, 450, 0, []
1631385570.4196, 127, 0, 4167.179, 4267.692, 4211.282, 4167.692, 4167.692, 16201, 0, []
1631385570.4275, 128, 0, 4133.333, 4164.615, 4199.487, 4146.667, 4134.872, 450, 0, []
1631385570.4353, 0, 0, 4133.846, 4098.462, 4174.872, 4134.359, 4140.513, 450, 0, []
1631385570.4432, 1, 0, 4158.462, 4128.718, 4197.949, 4149.744, 4163.59, 450, 0, []
1631385570.4509, 2, 0, 4155.385, 4196.41, 4205.641, 4150.256, 4151.795, 16181, 0, []
1631385570.4588, 3, 0, 4145.128, 4215.897, 4188.205, 4129.744, 4127.692, 450, 0, []
1631385570.4666, 4, 0, 4148.718, 4189.231, 4216.923, 4115.897, 4123.077, 16178, 0, []
1631385570.4745, 5, 0, 4152.308, 4183.59, 4209.744, 4126.154, 4143.077, 450, 0, []
1631385570.4823, 6, 0, 4160, 4221.538, 4200.513, 4141.026, 4163.59, 16309, 0, []
1631385570.4902, 7, 0, 4160, 4245.641, 4193.333, 4132.308, 4154.872, 450, 0, []
1631385570.4979, 8, 0, 4142.564, 4211.282, 4192.821, 4129.744, 4134.872, 450, 0, []
1631385570.5058, 9, 0, 4134.359, 4184.103, 4234.872, 4152.308, 4132.308, 16164, 0, []
1631385570.5136, 10, 0, 4149.231, 4218.462, 4208.718, 4156.923, 4142.051, 450, 0, []
1631385570.5216, 11, 0, 4162.564, 4267.692, 4191.282, 4146.154, 4160, 16198, 0, []
1631385570.5295, 12, 0, 4146.667, 4295.897, 4199.487, 4128.205, 4155.897, 450, 0, []
1631385570.5374, 13, 0, 4131.282, 4310.769, 4186.154, 4099.487, 4126.154, 450, 0, []
1631385570.5453, 14, 0, 4159.487, 4277.436, 4227.692, 4112.821, 4132.821, 450, 0, []
1631385570.5533, 15, 0, 4192.308, 4224.615, 4232.308, 4153.846, 4171.282, 16198, 0, []
1631385570.5612, 16, 0, 4173.846, 4235.897, 4207.692, 4148.205, 4168.205, 0, 0, []
1631385570.5692, 17, 0, 4144.615, 4224.103, 4202.564, 4132.308, 4146.667, 0, 0, []
1631385570.577, 18, 0, 4162.051, 4152.821, 4203.077, 4160.513, 4162.051, 0, 0, []
1631385570.585, 19, 0, 4183.59, 4172.821, 4237.436, 4176.923, 4174.872, 0, 0, []
1631385570.5929, 20, 0, 4169.231, 4232.821, 4213.846, 4151.795, 4158.974, 0, 0, []
1631385570.6007, 21, 0, 4151.282, 4198.974, 4181.538, 4134.359, 4148.205, 0, 0, []
1631385570.6086, 22, 0, 4147.692, 4164.103, 4184.103, 4124.615, 4139.487, 0, 0, []
1631385570.6163, 23, 0, 4148.718, 4215.385, 4175.897, 4114.359, 4131.282, 0, 0, []
1631385570.6242, 24, 0, 4169.744, 4257.949, 4219.487, 4140, 4151.282, 0, 0, []
1631385570.632, 25, 0, 4185.641, 4205.128, 4232.821, 4174.872, 4175.385, 0, 0, []
1631385570.6399, 26, 0, 4167.692, 4132.821, 4204.103, 4172.308, 4169.744, 0, 0, []
1631385570.6477, 27, 0, 4161.026, 4153.333, 4203.59, 4154.359, 4164.615, 0, 0, []
1631385570.6556, 28, 0, 4173.333, 4208.718, 4198.974, 4145.128, 4165.641, 0, 0, []
1631385570.6635, 29, 0, 4158.462, 4173.333, 4214.359, 4134.359, 4144.615, 0, 0, []
1631385570.6714, 30, 0, 4152.821, 4141.026, 4205.128, 4140, 4136.41, 0, 0, []
1631385570.6792, 31, 0, 4179.487, 4182.051, 4198.462, 4154.359, 4161.026, 0, 0, []
1631385570.6872, 32, 0, 4162.051, 4163.59, 4211.795, 4129.744, 4148.718, 0, 0, []
1631385570.695, 33, 0, 4117.436, 4089.744, 4173.333, 4094.359, 4107.692, 0, 0, []
1631385570.703, 34, 0, 4122.051, 4079.487, 4175.897, 4100.513, 4109.231, 0, 0, []
1631385570.7109, 35, 0, 4160.513, 4124.103, 4202.564, 4142.564, 4147.179, 0, 0, []
1631385570.7189, 36, 0, 4182.564, 4141.026, 4210.769, 4173.846, 4171.282, 0, 0, []
1631385570.7268, 37, 0, 4180, 4147.179, 4234.872, 4175.385, 4169.231, 0, 0, []
1631385570.7348, 38, 0, 4163.077, 4189.744, 4206.667, 4156.923, 4156.923, 0, 0, []
1631385570.7426, 39, 0, 4149.231, 4209.231, 4182.564, 4132.821, 4150.769, 0, 0, []
1631385570.7504, 40, 0, 4152.308, 4174.359, 4185.641, 4128.205, 4151.795, 0, 0, []
1631385570.7583, 41, 0, 4156.41, 4156.41, 4188.718, 4134.872, 4143.077, 0, 0, []
1631385570.7661, 42, 0, 4137.949, 4163.59, 4208.205, 4120.513, 4116.923, 0, 0, []
1631385570.774, 43, 0, 4113.846, 4117.436, 4185.128, 4096.923, 4095.897, 0, 0, []
1631385570.7817, 44, 0, 4127.179, 4116.41, 4190.769, 4117.949, 4114.359, 0, 0, []
1631385570.7896, 45, 0, 4160, 4201.026, 4210.256, 4154.359, 4149.231, 0, 0, []
1631385570.7974, 46, 0, 4135.897, 4162.564, 4173.333, 4122.051, 4123.59, 0, 0, []
1631385570.8053, 47, 0, 4091.282, 4065.128, 4166.667, 4070.769, 4071.795, 0, 0, []
1631385570.8131, 48, 0, 4121.026, 4124.103, 4176.923, 4092.308, 4092.308, 0, 0, []
1631385570.821, 49, 0, 4180.513, 4227.179, 4212.308, 4152.308, 4145.641, 0, 0, []
1631385570.8289, 50, 0, 4178.462, 4239.487, 4228.205, 4162.051, 4147.692, 0, 0, []
1631385570.8369, 51, 0, 4153.846, 4227.692, 4182.564, 4136.923, 4129.744, 0, 0, []
1631385570.8448, 52, 0, 4145.641, 4194.872, 4177.949, 4121.538, 4123.59, 0, 0, []
1631385570.8528, 53, 0, 4133.846, 4152.821, 4168.718, 4107.692, 4107.179, 0, 0, []
1631385570.8606, 54, 0, 4131.795, 4175.897, 4167.179, 4102.051, 4090.769, 0, 0, []
1631385570.8686, 55, 0, 4135.897, 4194.359, 4197.949, 4103.59, 4088.718, 0, 0, []
1631385570.8765, 56, 0, 4132.308, 4191.282, 4186.667, 4104.615, 4093.333, 0, 0, []
1631385570.8845, 57, 0, 4134.872, 4236.41, 4187.179, 4113.846, 4103.077, 0, 0, []
1631385570.8924, 58, 0, 4127.692, 4267.692, 4162.564, 4103.59, 4094.872, 0, 0, []
1631385570.9001, 59, 0, 4111.795, 4242.051, 4140.513, 4082.564, 4080.513, 0, 0, []
1631385570.908, 60, 0, 4128.205, 4200, 4183.077, 4104.103, 4096.923, 0, 0, []
1631385570.9158, 61, 0, 4146.667, 4143.077, 4188.205, 4124.615, 4109.231, 0, 0, []
1631385570.9237, 62, 0, 4136.41, 4097.949, 4191.282, 4102.051, 4095.897, 0, 0, []
1631385570.9315, 63, 0, 4138.462, 4103.59, 4193.846, 4110.769, 4100, 0, 0, []
1631385570.9393, 64, 0, 4150.769, 4110.256, 4182.051, 4143.59, 4115.385, 450, 0, []
1631385570.9471, 65, 0, 4135.385, 4080.513, 4181.026, 4126.154, 4103.59, 450, 0, []
1631385570.955, 66, 0, 4122.051, 4060, 4155.897, 4096.41, 4086.154, 16174, 0, []
1631385570.9628, 67, 0, 4145.641, 4063.59, 4185.641, 4116.41, 4095.897, 450, 0, []
1631385570.9708, 68, 0, 4171.795, 4059.487, 4215.897, 4142.564, 4117.436, 16178, 0, []
1631385570.9787, 69, 0, 4167.692, 4082.564, 4196.41, 4137.949, 4121.538, 450, 0, []
1631385570.9866, 70, 0, 4151.795, 4145.128, 4191.282, 4122.051, 4107.692, 16290, 0, []
1631385570.9945, 71, 0, 4123.59, 4163.077, 4157.436, 4091.282, 4078.974, 450, 0, []
1631385571.0025, 72, 0, 4106.154, 4146.154, 4155.897, 4072.308, 4061.026, 450, 0, []
1631385571.0104, 73, 0, 4138.462, 4154.872, 4181.026, 4095.385, 4085.128, 16158, 0, []
1631385571.0184, 74, 0, 4176.41, 4136.41, 4190.769, 4126.154, 4114.359, 450, 0, []
1631385571.0262, 75, 0, 4172.308, 4070.769, 4209.231, 4132.308, 4112.308, 16217, 0, []
1631385571.0342, 76, 0, 4161.026, 4083.077, 4185.641, 4131.795, 4108.205, 450, 0, []
1631385571.0421, 77, 0, 4166.667, 4172.821, 4183.59, 4130.769, 4116.923, 450, 0, []
1631385571.0499, 78, 0, 4167.179, 4188.205, 4190.256, 4124.103, 4113.333, 450, 0, []
1631385571.0578, 79, 0, 4162.564, 4153.846, 4175.897, 4125.641, 4102.564, 16217, 0, []
1631385571.0655, 80, 0, 4152.308, 4174.872, 4208.205, 4120.513, 4091.795, 450, 0, []
1631385571.0734, 81, 0, 4138.462, 4207.179, 4195.897, 4104.615, 4087.692, 450, 0, []
1631385571.0812, 82, 0, 4140.513, 4215.897, 4166.154, 4107.692, 4100.513, 450, 0, []
1631385571.0891, 83, 0, 4144.103, 4238.462, 4164.615, 4109.744, 4100, 16217, 0, []
1631385571.0969, 84, 0, 4147.692, 4218.974, 4166.667, 4104.615, 4093.846, 450, 0, []
1631385571.1047, 85, 0, 4156.41, 4167.179, 4202.051, 4112.308, 4101.538, 450, 0, []
1631385571.1125, 86, 0, 4154.872, 4173.846, 4196.923, 4122.051, 4104.103, 450, 0, []
1631385571.1204, 87, 0, 4137.949, 4180, 4182.051, 4110.256, 4089.744, 16217, 0, []
1631385571.1282, 88, 0, 4135.897, 4159.487, 4184.103, 4100.513, 4087.179, 450, 0, []
1631385571.1362, 89, 0, 4162.051, 4205.641, 4157.949, 4121.026, 4114.359, 450, 0, []
1631385571.144, 90, 0, 4179.487, 4245.641, 4186.667, 4145.128, 4130.256, 450, 0, []
1631385571.152, 91, 0, 4172.821, 4206.667, 4206.154, 4135.897, 4112.308, 16217, 0, []
1631385571.1599, 92, 0, 4160.513, 4198.462, 4189.231, 4109.231, 4093.846, 450, 0, []
1631385571.1679, 93, 0, 4145.641, 4237.436, 4180, 4098.462, 4092.308, 450, 0, []
1631385571.1758, 94, 0, 4131.282, 4236.41, 4155.385, 4090.256, 4088.205, 450, 0, []
1631385571.1838, 95, 0, 4146.154, 4233.846, 4180, 4092.308, 4093.333, 16217, 0, []
1631385571.1916, 96, 0, 4170.769, 4258.974, 4200, 4124.615, 4113.333, 450, 0, []
1631385571.1996, 97, 0, 4155.897, 4229.231, 4194.872, 4132.308, 4100, 450, 0, []
1631385571.2075, 98, 0, 4134.359, 4185.641, 4202.051, 4101.026, 4073.333, 450, 0, []
1631385571.2153, 99, 0, 4144.615, 4207.179, 4170.256, 4090.769, 4081.026, 16217, 0, []
1631385571.2232, 100, 0, 4148.718, 4208.205, 4172.308, 4105.641, 4096.41, 450, 0, []
1631385571.2309, 101, 0, 4136.923, 4170.769, 4188.718, 4114.872, 4093.333, 450, 0, []
1631385571.2388, 102, 0, 4134.359, 4187.179, 4183.59, 4115.385, 4075.897, 450, 0, []
1631385571.2466, 103, 0, 4131.282, 4232.821, 4194.359, 4112.821, 4063.077, 16217, 0, []
1631385571.2545, 104, 0, 4143.077, 4218.974, 4180.513, 4126.154, 4086.154, 450, 0, []
1631385571.2624, 105, 0, 4158.974, 4186.154, 4183.59, 4144.615, 4114.872, 450, 0, []
1631385571.2702, 106, 0, 4144.103, 4217.436, 4177.949, 4133.846, 4100, 450, 0, []
1631385571.2781, 107, 0, 4121.026, 4262.051, 4167.692, 4116.41, 4072.308, 16217, 0, []
1631385571.2861, 108, 0, 4120, 4243.59, 4204.103, 4122.051, 4064.103, 450, 0, []
1631385571.2939, 109, 0, 4131.795, 4201.538, 4205.128, 4128.205, 4067.179, 450, 0, []
1631385571.3019, 110, 0, 4140, 4205.128, 4212.821, 4124.103, 4078.462, 450, 0, []
1631385571.3097, 111, 0, 4134.872, 4223.59, 4208.205, 4123.59, 4082.564, 16217, 0, []
1631385571.3177, 112, 0, 4125.641, 4215.385, 4167.692, 4124.615, 4076.41, 450, 0, []
1631385571.3256, 113, 0, 4111.795, 4196.41, 4177.436, 4096.923, 4059.487, 450, 0, []
1631385571.3336, 114, 0, 4098.974, 4201.026, 4173.846, 4071.282, 4036.923, 450, 0, []
1631385571.3415, 115, 0, 4118.974, 4238.974, 4192.308, 4112.308, 4050.256, 16217, 0, []
1631385571.3494, 116, 0, 4146.154, 4254.359, 4224.615, 4161.026, 4084.103, 450, 0, []
1631385571.3573, 117, 0, 4134.872, 4236.923, 4199.487, 4146.154, 4086.154, 450, 0, []
1631385571.3651, 118, 0, 4120.513, 4241.026, 4199.487, 4127.692, 4071.282, 450, 0, []
1631385571.373, 119, 0, 4121.538, 4263.077, 4190.769, 4134.872, 4066.667, 16217, 0, []
1631385571.3808, 120, 0, 4106.154, 4269.744, 4176.41, 4118.462, 4044.615, 450, 0, []
1631385571.3886, 121, 0, 4087.692, 4265.128, 4186.667, 4098.462, 4015.897, 450, 0, []
1631385571.3964, 122, 0, 4091.282, 4260.513, 4185.641, 4102.051, 4016.41, 450, 0, []
1631385571.4043, 123, 0, 4098.462, 4255.897, 4208.205, 4105.641, 4029.231, 16217, 0, []
1631385571.4121, 124, 0, 4093.846, 4223.59, 4189.231, 4105.641, 4033.846, 450, 0, []
1631385571.42, 125, 0, 4082.051, 4186.667, 4157.436, 4108.718, 4031.795, 450, 0, []
1631385571.4278, 126, 0, 4078.462, 4200, 4165.128, 4108.205, 4027.179, 450, 0, []
1631385571.4357, 127, 0, 4087.179, 4200, 4153.333, 4107.692, 4026.154, 16217, 0, []
1631385571.4436, 128, 0, 4098.462, 4164.615, 4175.897, 4120.513, 4036.41, 450, 0, []
1631385571.4516, 0, 0, 4096.923, 4173.333, 4187.692, 4126.154, 4033.846, 450, 0, []
1631385571.4595, 1, 0, 4084.615, 4215.385, 4181.538, 4112.308, 4014.359, 450, 0, []
1631385571.4675, 2, 0, 4079.487, 4234.872, 4205.128, 4113.846, 4014.359, 16177, 0, []
1631385571.4753, 3, 0, 4070.769, 4220.513, 4185.128, 4121.026, 4016.923, 450, 0, []
1631385571.4833, 4, 0, 4052.821, 4168.718, 4181.538, 4104.615, 4000.513, 16173, 0, []
1631385571.4912, 5, 0, 4060, 4151.282, 4192.821, 4111.282, 4011.795, 450, 0, []
1631385571.4992, 6, 0, 4078.462, 4212.308, 4182.564, 4142.564, 4038.462, 16286, 0, []
1631385571.5071, 7, 0, 4056.923, 4241.026, 4192.308, 4128.718, 4024.615, 450, 0, []
1631385571.515, 8, 0, 4021.538, 4210.769, 4175.385, 4100, 3998.974, 450, 0, []
1631385571.5229, 9, 0, 4007.692, 4207.179, 4174.359, 4104.615, 3994.872, 16159, 0, []
1631385571.5307, 10, 0, 4007.179, 4232.308, 4174.872, 4111.795, 3993.333, 450, 0, []
1631385571.5386, 11, 0, 4015.897, 4247.692, 4166.667, 4114.872, 3990.256, 16216, 0, []
1631385571.5464, 12, 0, 4020.513, 4240.513, 4200, 4123.59, 3988.205, 450, 0, []
1631385571.5542, 13, 0, 4015.385, 4239.487, 4195.385, 4117.949, 3977.949, 450, 0, []
1631385571.562, 14, 0, 4022.564, 4272.308, 4208.718, 4121.538, 3978.974, 450, 0, []
1631385571.5699, 15, 0, 4034.872, 4297.436, 4229.744, 4144.103, 3992.308, 16216, 0, []
1631385571.5777, 16, 0, 4023.59, 4287.179, 4200, 4135.897, 3985.128, 0, 0, []
1631385571.5856, 17, 0, 4005.641, 4260, 4203.59, 4111.282, 3968.718, 0, 0, []
1631385571.5933, 18, 0, 4003.59, 4221.538, 4201.026, 4120, 3968.205, 0, 0, []
1631385571.6013, 19, 0, 4007.692, 4214.359, 4210.256, 4142.564, 3975.897, 0, 0, []
1631385571.6092, 20, 0, 4009.231, 4246.154, 4220.513, 4144.615, 3983.077, 0, 0, []
1631385571.6172, 21, 0, 4007.692, 4241.026, 4193.846, 4143.077, 3991.282, 0, 0, []
1631385571.6251, 22, 0, 3990.769, 4172.821, 4203.59, 4134.872, 3974.872, 0, 0, []
1631385571.6331, 23, 0, 3965.128, 4115.897, 4179.487, 4108.718, 3941.026, 0, 0, []
1631385571.6409, 24, 0, 3971.795, 4145.641, 4165.128, 4113.333, 3946.667, 0, 0, []
1631385571.6489, 25, 0, 3993.846, 4215.385, 4200.513, 4146.154, 3974.359, 0, 0, []
1631385571.6568, 26, 0, 3971.795, 4224.615, 4186.154, 4136.923, 3957.949, 0, 0, []
1631385571.6648, 27, 0, 3932.821, 4196.923, 4177.949, 4100, 3917.436, 0, 0, []
1631385571.6727, 28, 0, 3938.462, 4208.718, 4178.462, 4105.641, 3918.974, 0, 0, []
1631385571.6804, 29, 0, 3949.744, 4225.128, 4188.718, 4131.795, 3933.333, 0, 0, []
1631385571.6883, 30, 0, 3928.718, 4206.667, 4197.949, 4121.026, 3915.385, 0, 0, []
1631385571.6961, 31, 0, 3918.974, 4182.051, 4166.667, 4096.923, 3895.897, 0, 0, []
1631385571.704, 32, 0, 3925.128, 4168.205, 4180.513, 4099.487, 3893.333, 0, 0, []
1631385571.7118, 33, 0, 3914.359, 4185.641, 4185.128, 4109.744, 3885.128, 0, 0, []
1631385571.7196, 34, 0, 3906.154, 4196.41, 4172.821, 4108.205, 3878.462, 0, 0, []
1631385571.7274, 35, 0, 3911.795, 4156.41, 4187.179, 4107.179, 3877.436, 0, 0, []
1631385571.7353, 36, 0, 3901.026, 4126.667, 4160, 4104.103, 3868.205, 0, 0, []
1631385571.7431, 37, 0, 3889.744, 4163.59, 4162.564, 4103.077, 3868.205, 0, 0, []
1631385571.7511, 38, 0, 3899.487, 4211.282, 4170.256, 4113.846, 3889.744, 0, 0, []
1631385571.7589, 39, 0, 3887.692, 4160, 4151.282, 4102.051, 3883.077, 0, 0, []
1631385571.7669, 40, 0, 3858.462, 4069.231, 4152.308, 4078.974, 3856.41, 0, 0, []
1631385571.7748, 41, 0, 3866.667, 4097.949, 4141.538, 4096.923, 3870.769, 0, 0, []
1631385571.7828, 42, 0, 3895.385, 4175.385, 4171.282, 4130.769, 3902.564, 0, 0, []
1631385571.7907, 43, 0, 3898.462, 4164.103, 4180.513, 4132.308, 3902.051, 0, 0, []
1631385571.7986, 44, 0, 3878.462, 4140.513, 4150.769, 4110.769, 3878.974, 0, 0, []
1631385571.8065, 45, 0, 3862.051, 4176.923, 4167.179, 4092.308, 3861.026, 0, 0, []
1631385571.8145, 46, 0, 3864.103, 4205.128, 4161.026, 4092.821, 3857.949, 0, 0, []
1631385571.8224, 47, 0, 3873.846, 4214.359, 4177.436, 4112.308, 3865.641, 0, 0, []
1631385571.8304, 48, 0, 3863.59, 4220, 4195.897, 4110.256, 3857.436, 0, 0, []
1631385571.8382, 49, 0, 3844.615, 4207.692, 4161.538, 4087.179, 3843.59, 0, 0, []
1631385571.846, 50, 0, 3845.128, 4171.795, 4156.41, 4088.205, 3850.256, 0, 0, []
1631385571.8539, 51, 0, 3853.333, 4084.103, 4141.538, 4104.615, 3859.487, 0, 0, []
1631385571.8617, 52, 0, 3844.615, 4027.179, 4144.615, 4097.436, 3853.333, 0, 0, []
1631385571.8696, 53, 0, 3831.282, 4086.154, 4162.051, 4086.667, 3846.667, 0, 0, []
1631385571.8774, 54, 0, 3839.487, 4124.615, 4149.231, 4107.692, 3854.359, 0, 0, []
1631385571.8852, 55, 0, 3843.077, 4053.846, 4163.077, 4116.41, 3850.256, 0, 0, []
1631385571.893, 56, 0, 3833.846, 4033.333, 4162.051, 4098.462, 3838.462, 0, 0, []
1631385571.901, 57, 0, 3841.026, 4098.974, 4171.795, 4104.103, 3848.718, 0, 0, []
1631385571.9089, 58, 0, 3851.282, 4119.487, 4178.974, 4122.564, 3867.692, 0, 0, []
1631385571.9169, 59, 0, 3841.026, 4110.769, 4138.974, 4109.744, 3865.128, 0, 0, []
1631385571.9247, 60, 0, 3822.564, 4117.436, 4147.692, 4087.692, 3849.231, 0, 0, []
1631385571.9327, 61, 0, 3814.872, 4109.231, 4146.154, 4090.769, 3845.128, 0, 0, []
1631385571.9406, 62, 0, 3818.974, 4128.718, 4140.513, 4099.487, 3847.179, 0, 0, []
1631385571.9486, 63, 0, 3826.154, 4152.821, 4173.846, 4090.769, 3844.103, 0, 0, []
1631385571.9565, 64, 0, 3829.744, 4105.641, 4172.821, 4087.692, 3844.615, 450, 0, []
1631385571.9644, 65, 0, 3831.282, 4083.077, 4184.103, 4105.641, 3856.923, 450, 0, []
1631385571.9723, 66, 0, 3819.487, 4146.667, 4160.513, 4100.513, 3852.308, 16203, 0, []
1631385571.9803, 67, 0, 3802.051, 4173.846, 4125.128, 4076.41, 3837.949, 450, 0, []
1631385571.9882, 68, 0, 3811.282, 4128.205, 4156.41, 4094.359, 3854.872, 16187, 0, []
1631385571.996, 69, 0, 3824.103, 4113.333, 4157.436, 4113.846, 3872.821, 450, 0, []
1631385572.0038, 70, 0, 3823.59, 4151.282, 4167.692, 4103.59, 3864.615, 16343, 0, []
1631385572.0116, 71, 0, 3825.128, 4173.846, 4177.436, 4106.154, 3857.436, 450, 0, []
1631385572.0195, 72, 0, 3824.103, 4162.051, 4166.154, 4107.692, 3855.897, 450, 0, []
1631385572.0273, 73, 0, 3827.179, 4158.974, 4174.359, 4098.462, 3862.564, 16188, 0, []
1631385572.0352, 74, 0, 3836.923, 4185.128, 4155.897, 4105.641, 3881.538, 450, 0, []
1631385572.0429, 75, 0, 3824.615, 4200.513, 4158.462, 4116.41, 3879.487, 16195, 0, []
1631385572.0508, 76, 0, 3796.923, 4182.564, 4152.821, 4105.641, 3850.256, 450, 0, []
1631385572.0586, 77, 0, 3795.897, 4161.538, 4147.179, 4100.513, 3845.641, 450, 0, []
1631385572.0666, 78, 0, 3820.513, 4178.974, 4192.821, 4116.41, 3870.256, 450, 0, []
1631385572.0745, 79, 0, 3820, 4193.846, 4184.103, 4116.923, 3870.256, 16195, 0, []
1631385572.0825, 80, 0, 3800.513, 4171.282, 4170.256, 4103.077, 3854.359, 450, 0, []
1631385572.0903, 81, 0, 3815.897, 4158.462, 4172.308, 4110.769, 3874.872, 450, 0, []
1631385572.0983, 82, 0, 3841.538, 4123.59, 4154.872, 4110.769, 3900.513, 450, 0, []
1631385572.1062, 83, 0, 3834.359, 4069.231, 4155.897, 4087.692, 3892.308, 16195, 0, []
1631385572.1142, 84, 0, 3828.205, 4080, 4136.923, 4095.385, 3890.769, 450, 0, []
1631385572.1221, 85, 0, 3831.282, 4111.282, 4152.308, 4108.205, 3892.308, 450, 0, []
1631385572.13, 86, 0, 3837.436, 4116.923, 4182.051, 4101.538, 3886.154, 450, 0, []
1631385572.1379, 87, 0, 3860.513, 4157.436, 4183.077, 4121.538, 3904.103, 16195, 0, []
1631385572.1457, 88, 0, 3865.128, 4207.179, 4209.231, 4138.974, 3915.385, 450, 0, []
1631385572.1536, 89, 0, 3845.641, 4187.692, 4183.077, 4116.923, 3900.513, 450, 0, []
1631385572.1614, 90, 0, 3842.051, 4152.308, 4156.41, 4096.41, 3898.974, 450, 0, []
1631385572.1692, 91, 0, 3845.641, 4144.615, 4169.231, 4094.872, 3912.308, 16195, 0, []
1631385572.177, 92, 0, 3848.205, 4163.077, 4156.923, 4107.692, 3921.538, 450, 0, []
1631385572.1849, 93, 0, 3860, 4178.462, 4171.795, 4121.538, 3934.359, 450, 0, []
1631385572.1927, 94, 0, 3864.103, 4096.41, 4171.282, 4117.949, 3940.513, 450, 0, []
1631385572.2006, 95, 0, 3866.154, 4008.718, 4185.128, 4131.795, 3941.026, 16195, 0, []
1631385572.2083, 96, 0, 3883.59, 4063.077, 4217.436, 4162.564, 3952.821, 450, 0, []
1631385572.2163, 97, 0, 3888.205, 4138.462, 4191.795, 4148.718, 3949.744, 450, 0, []
1631385572.2242, 98, 0, 3873.846, 4114.872, 4185.128, 4112.821, 3924.103, 450, 0, []
1631385572.2322, 99, 0, 3871.795, 4101.538, 4165.641, 4109.744, 3916.923, 16195, 0, []
1631385572.2401, 100, 0, 3885.128, 4146.667, 4160.513, 4128.205, 3942.564, 450, 0, []
1631385572.248, 101, 0, 3878.462, 4149.231, 4186.154, 4129.744, 3952.308, 450, 0, []
1631385572.2559, 102, 0, 3862.564, 4127.692, 4160.513, 4112.308, 3934.872, 450, 0, []
1631385572.2639, 103, 0, 3876.41, 4153.846, 4166.667, 4112.308, 3942.564, 16195, 0, []
1631385572.2718, 104, 0, 3897.949, 4190.256, 4164.615, 4125.128, 3964.615, 450, 0, []
1631385572.2797, 105, 0, 3899.487, 4198.462, 4144.615, 4124.103, 3966.667, 450, 0, []
1631385572.2875, 106, 0, 3891.795, 4181.538, 4167.692, 4120.513, 3957.436, 450, 0, []
1631385572.2953, 107, 0, 3882.051, 4156.923, 4159.487, 4121.026, 3948.718, 16195, 0, []
1631385572.3032, 108, 0, 3884.103, 4120, 4171.795, 4125.641, 3945.128, 450, 0, []
1631385572.311, 109, 0, 3896.923, 4065.641, 4183.59, 4129.231, 3952.821, 450, 0, []
1631385572.3189, 110, 0, 3885.128, 4047.692, 4164.103, 4110.769, 3945.128, 450, 0, []
1631385572.3267, 111, 0, 3874.359, 4125.641, 4175.385, 4091.795, 3931.282, 16195, 0, []
1631385572.3345, 112, 0, 3887.692, 4196.41, 4165.641, 4090.769, 3934.872, 450, 0, []
1631385572.3423, 113, 0, 3896.41, 4105.641, 4168.718, 4091.282, 3942.051, 450, 0, []
1631385572.3502, 114, 0, 3898.462, 4005.128, 4172.821, 4095.897, 3955.385, 450, 0, []
1631385572.358, 115, 0, 3901.026, 4083.59, 4153.333, 4103.077, 3970.769, 16195, 0, []
1631385572.3659, 116, 0, 3900, 4188.718, 4156.41, 4106.154, 3973.333, 450, 0, []
1631385572.3736, 117, 0, 3906.154, 4141.026, 4142.564, 4112.821, 3976.41, 450, 0, []
1631385572.3816, 118, 0, 3918.462, 4060, 4160, 4122.564, 3986.154, 450, 0, []
1631385572.3895, 119, 0, 3911.795, 4087.179, 4171.795, 4100, 3975.385, 16195, 0, []
1631385572.3975, 120, 0, 3899.487, 4159.487, 4142.564, 4056.923, 3961.538, 450, 0, []
1631385572.4054, 121, 0, 3894.872, 4189.744, 4153.846, 4035.897, 3956.41, 450, 0, []
1631385572.4133, 122, 0, 3888.205, 4161.538, 4149.744, 4043.59, 3943.077, 450, 0, []
1631385572.4212, 123, 0, 3895.385, 4115.897, 4164.615, 4077.436, 3940.513, 16195, 0, []
1631385572.4292, 124, 0, 3907.692, 4088.205, 4182.564, 4094.359, 3950.769, 450, 0, []
1631385572.4371, 125, 0, 3922.051, 4052.308, 4165.128, 4089.744, 3964.615, 450, 0, []
1631385572.4449, 126, 0, 3934.359, 3992.308, 4186.667, 4091.795, 3971.795, 450, 0, []
1631385572.4527, 127, 0, 3938.974, 4001.026, 4176.41, 4093.846, 3967.692, 16195, 0, []
1631385572.4605, 128, 0, 3949.231, 4082.564, 4173.846, 4096.923, 3978.462, 450, 0, []
1631385572.4684, 0, 0, 3958.974, 4112.308, 4207.179, 4108.718, 3998.462, 450, 0, []
1631385572.4762, 1, 0, 3954.872, 4091.282, 4189.744, 4112.308, 3998.974, 450, 0, []
1631385572.4841, 2, 0, 3936.923, 4088.718, 4181.026, 4089.231, 3978.462, 16187, 0, []
1631385572.4918, 3, 0, 3937.949, 4107.179, 4170.256, 4090.769, 3977.436, 450, 0, []
1631385572.4997, 4, 0, 3960.513, 4132.308, 4166.154, 4123.077, 3997.949, 16187, 0, []
1631385572.5075, 5, 0, 3960.513, 4152.821, 4171.282, 4113.333, 3997.436, 450, 0, []
1631385572.5154, 6, 0, 3929.231, 4149.744, 4130.256, 4068.718, 3970.769, 16336, 0, []
1631385572.5232, 7, 0, 3915.385, 4141.026, 4136.923, 4062.564, 3963.077, 450, 0, []
1631385572.5312, 8, 0, 3943.59, 4133.846, 4150.769, 4097.436, 3994.359, 450, 0, []
1631385572.539, 9, 0, 3962.051, 4126.154, 4141.026, 4113.846, 4014.872, 16151, 0, []
1631385572.547, 10, 0, 3952.821, 4125.641, 4164.615, 4107.692, 4004.615, 450, 0, []
1631385572.5549, 11, 0, 3949.744, 4135.385, 4154.359, 4103.59, 3999.487, 16212, 0, []
1631385572.5629, 12, 0, 3969.744, 4159.487, 4156.923, 4108.718, 4018.974, 450, 0, []
1631385572.5708, 13, 0, 3998.974, 4116.41, 4176.923, 4128.205, 4049.231, 450, 0, []
1631385572.5787, 14, 0, 4003.59, 4041.538, 4175.385, 4130.769, 4053.846, 450, 0, []
1631385572.5866, 15, 0, 3972.821, 4055.385, 4169.744, 4103.077, 4019.487, 16212, 0, []
1631385572.5946, 16, 0, 3949.231, 4074.872, 4133.333, 4080.513, 3995.385, 0, 0, []
1631385572.6025, 17, 0, 3961.538, 4043.077, 4149.744, 4076.41, 4010.256, 0, 0, []
1631385572.6103, 18, 0, 3982.564, 4084.103, 4174.359, 4084.615, 4029.744, 0, 0, []
1631385572.6181, 19, 0, 3974.359, 4160, 4149.744, 4087.179, 4018.974, 0, 0, []
1631385572.6259, 20, 0, 3954.872, 4125.128, 4157.436, 4078.462, 3996.923, 0, 0, []
1631385572.6338, 21, 0, 3968.718, 4084.103, 4154.872, 4089.744, 4006.154, 0, 0, []
1631385572.6416, 22, 0, 3988.205, 4101.538, 4154.872, 4105.641, 4019.487, 0, 0, []
1631385572.6495, 23, 0, 3983.077, 4077.436, 4149.231, 4089.744, 4008.718, 0, 0, []
1631385572.6572, 24, 0, 3985.128, 4048.718, 4132.821, 4070.256, 4011.282, 0, 0, []
1631385572.6651, 25, 0, 3989.744, 4070.256, 4154.872, 4072.821, 4021.026, 0, 0, []
1631385572.6729, 26, 0, 3978.462, 4094.872, 4135.897, 4067.692, 4004.615, 0, 0, []
1631385572.6809, 27, 0, 3997.436, 4097.436, 4140, 4077.949, 4014.359, 0, 0, []
1631385572.6888, 28, 0, 4040.513, 4113.846, 4171.795, 4117.949, 4056.41, 0, 0, []
1631385572.6967, 29, 0, 4037.436, 4124.615, 4151.282, 4128.205, 4050.256, 0, 0, []
1631385572.7046, 30, 0, 4003.59, 4095.385, 4151.795, 4099.487, 4012.821, 0, 0, []
1631385572.7126, 31, 0, 4005.128, 4078.462, 4151.282, 4084.615, 4014.872, 0, 0, []
1631385572.7205, 32, 0, 4026.154, 4099.487, 4161.538, 4092.308, 4032.821, 0, 0, []
1631385572.7285, 33, 0, 4008.718, 4114.872, 4166.667, 4078.462, 4008.718, 0, 0, []
1631385572.7363, 34, 0, 3998.462, 4123.59, 4137.436, 4072.821, 3993.333, 0, 0, []
1631385572.7443, 35, 0, 4055.385, 4155.385, 4181.026, 4118.462, 4047.179, 0, 0, []
1631385572.7522, 36, 0, 4090.769, 4185.128, 4202.051, 4144.615, 4086.154, 0, 0, []
1631385572.76, 37, 0, 4045.641, 4170.769, 4163.077, 4110.256, 4043.59, 0, 0, []
1631385572.7679, 38, 0, 4024.103, 4157.949, 4163.59, 4090.256, 4017.949, 0, 0, []
1631385572.7757, 39, 0, 4050.769, 4177.949, 4163.59, 4097.436, 4049.744, 0, 0, []
1631385572.7835, 40, 0, 4054.359, 4168.718, 4167.692, 4098.462, 4062.051, 0, 0, []
1631385572.7913, 41, 0, 4050.256, 4115.897, 4150.769, 4113.846, 4060, 0, 0, []
1631385572.7992, 42, 0, 4056.41, 4088.205, 4139.487, 4125.641, 4068.205, 0, 0, []
1631385572.807, 43, 0, 4062.564, 4100.513, 4164.615, 4114.359, 4073.333, 0, 0, []
1631385572.8149, 44, 0, 4070.769, 4103.59, 4143.59, 4107.692, 4075.385, 0, 0, []
1631385572.8226, 45, 0, 4068.205, 4110.769, 4134.359, 4093.846, 4070.256, 0, 0, []
1631385572.8306, 46, 0, 4069.744, 4146.667, 4140, 4071.795, 4067.692, 0, 0, []
1631385572.8385, 47, 0, 4094.872, 4127.179, 4154.872, 4084.615, 4077.949, 0, 0, []
1631385572.8465, 48, 0, 4103.077, 4064.103, 4186.667, 4104.103, 4076.41, 0, 0, []
1631385572.8544, 49, 0, 4082.051, 4044.103, 4161.538, 4095.385, 4061.026, 0, 0, []
1631385572.8623, 50, 0, 4076.923, 4064.615, 4164.615, 4092.821, 4062.564, 0, 0, []
1631385572.8702, 51, 0, 4094.872, 4097.949, 4178.974, 4108.205, 4082.051, 0, 0, []
1631385572.8782, 52, 0, 4107.179, 4100, 4153.333, 4114.359, 4103.59, 0, 0, []
1631385572.8861, 53, 0, 4103.077, 4082.564, 4153.846, 4100.513, 4110.256, 0, 0, []
1631385572.8941, 54, 0, 4092.821, 4108.205, 4137.436, 4075.897, 4092.821, 0, 0, []
1631385572.9019, 55, 0, 4085.128, 4141.026, 4133.846, 4055.385, 4071.282, 0, 0, []
1631385572.9097, 56, 0, 4084.103, 4129.231, 4138.462, 4052.821, 4069.231, 0, 0, []
1631385572.9176, 57, 0, 4094.359, 4131.795, 4126.154, 4070.769, 4082.564, 0, 0, []
1631385572.9254, 58, 0, 4108.205, 4168.205, 4166.667, 4102.564, 4100, 0, 0, []
1631385572.9333, 59, 0, 4126.667, 4185.128, 4177.436, 4126.154, 4124.615, 0, 0, []
1631385572.941, 60, 0, 4148.718, 4189.744, 4163.59, 4131.795, 4146.667, 0, 0, []
1631385572.9489, 61, 0, 4137.949, 4173.846, 4149.744, 4115.385, 4137.436, 0, 0, []
1631385572.9567, 62, 0, 4097.436, 4153.846, 4113.333, 4074.872, 4098.462, 0, 0, []
1631385572.9646, 63, 0, 4085.641, 4160, 4128.205, 4048.718, 4075.897, 0, 0, []
1631385572.9724, 64, 0, 4110.256, 4145.128, 4129.744, 4057.436, 4087.692, 450, 0, []
1631385572.9802, 65, 0, 4132.308, 4134.359, 4144.103, 4083.077, 4109.231, 450, 0, []
1631385572.988, 66, 0, 4143.59, 4172.308, 4184.615, 4096.923, 4123.077, 16157, 0, []
1631385572.996, 67, 0, 4146.667, 4191.282, 4164.615, 4091.282, 4128.205, 450, 0, []
1631385573.0039, 68, 0, 4128.718, 4148.718, 4151.282, 4077.436, 4110.769, 16184, 0, []
1631385573.0119, 69, 0, 4120.513, 4140, 4135.385, 4083.59, 4100.513, 450, 0, []
1631385573.0198, 70, 0, 4161.538, 4213.333, 4148.718, 4119.487, 4140.513, 16285, 0, []
1631385573.0277, 71, 0, 4183.59, 4229.231, 4176.923, 4123.077, 4155.897, 450, 0, []
1631385573.0356, 72, 0, 4144.615, 4148.205, 4136.41, 4066.667, 4110.256, 450, 0, []
1631385573.0436, 73, 0, 4151.795, 4166.154, 4159.487, 4052.821, 4117.436, 16141, 0, []
1631385573.0515, 74, 0, 4211.795, 4238.462, 4182.564, 4109.744, 4180, 450, 0, []
1631385573.0595, 75, 0, 4216.41, 4141.538, 4138.462, 4123.59, 4183.077, 16220, 0, []
1631385573.0673, 76, 0, 4186.667, 4044.615, 4145.641, 4093.333, 4150.769, 450, 0, []
1631385573.0751, 77, 0, 4190.256, 4131.795, 4167.179, 4109.231, 4156.41, 450, 0, []
1631385573.083, 78, 0, 4200.513, 4208.205, 4178.462, 4139.487, 4171.282, 450, 0, []
1631385573.0908, 79, 0, 4197.436, 4188.718, 4157.436, 4127.692, 4171.282, 16220, 0, []
1631385573.0987, 80, 0, 4202.051, 4195.385, 4141.538, 4106.154, 4163.59, 450, 0, []
1631385573.1064, 81, 0, 4206.667, 4217.436, 4164.615, 4095.897, 4151.282, 450, 0, []
1631385573.1143, 82, 0, 4200.513, 4218.974, 4151.795, 4084.615, 4146.667, 450, 0, []
1631385573.1221, 83, 0, 4204.103, 4224.615, 4150.256, 4082.051, 4160.513, 16220, 0, []
1631385573.13, 84, 0, 4223.59, 4196.923, 4144.103, 4097.436, 4181.026, 450, 0, []
1631385573.1378, 85, 0, 4240.513, 4154.872, 4145.641, 4110.769, 4192.821, 450, 0, []
1631385573.1456, 86, 0, 4236.923, 4168.718, 4186.667, 4104.103, 4189.744, 450, 0, []
1631385573.1534, 87, 0, 4223.077, 4208.205, 4147.179, 4089.744, 4180.513, 16220, 0, []
1631385573.1614, 88, 0, 4236.923, 4195.897, 4125.641, 4097.949, 4192.308, 450, 0, []
1631385573.1693, 89, 0, 4273.846, 4155.385, 4161.538, 4117.949, 4218.974, 450, 0, []
1631385573.1773, 90, 0, 4284.615, 4170.256, 4158.462, 4118.974, 4227.692, 450, 0, []
1631385573.1851, 91, 0, 4267.179, 4210.256, 4148.718, 4106.154, 4212.308, 16220, 0, []
1631385573.1931, 92, 0, 4270.256, 4205.641, 4130.769, 4108.205, 4205.128, 450, 0, []
1631385573.201, 93, 0, 4278.974, 4178.462, 4152.308, 4119.487, 4208.205, 450, 0, []
1631385573.209, 94, 0, 4276.923, 4180, 4162.564, 4126.154, 4218.974, 450, 0, []
1631385573.2169, 95, 0, 4277.436, 4165.128, 4128.205, 4114.359, 4219.487, 16220, 0, []
1631385573.2248, 96, 0, 4259.487, 4084.103, 4141.026, 4063.077, 4180.513, 450, 0, []
1631385573.2326, 97, 0, 4265.641, 4028.718, 4140.513, 4047.692, 4186.667, 450, 0, []
1631385573.2406, 98, 0, 4331.795, 4064.103, 4152.308, 4110.256, 4263.59, 450, 0, []
1631385573.2485, 99, 0, 4365.641, 4106.667, 4182.051, 4143.077, 4283.59, 16220, 0, []
1631385573.2563, 100, 0, 4338.974, 4105.128, 4163.59, 4123.077, 4249.231, 450, 0, []
1631385573.2642, 101, 0, 4321.538, 4108.718, 4157.436, 4122.051, 4249.744, 450, 0, []
1631385573.2719, 102, 0, 4309.744, 4130.256, 4140, 4115.385, 4236.923, 450, 0, []
1631385573.2798, 103, 0, 4291.282, 4125.641, 4141.026, 4090.769, 4199.487, 16220, 0, []
1631385573.2877, 104, 0, 4294.359, 4092.308, 4152.821, 4085.641, 4207.179, 450, 0, []
1631385573.2957, 105, 0, 4305.641, 4100.513, 4120, 4075.897, 4222.564, 450, 0, []
1631385573.3036, 106, 0, 4317.436, 4163.077, 4151.795, 4073.846, 4221.026, 450, 0, []
1631385573.3115, 107, 0, 4322.564, 4198.974, 4164.103, 4092.821, 4230.769, 16220, 0, []
1631385573.3194, 108, 0, 4318.462, 4197.949, 4129.744, 4096.41, 4236.41, 450, 0, []
1631385573.3274, 109, 0, 4325.641, 4190.256, 4149.744, 4095.385, 4232.821, 450, 0, []
1631385573.3353, 110, 0, 4328.205, 4169.231, 4140, 4089.231, 4233.333, 450, 0, []
1631385573.3433, 111, 0, 4314.872, 4166.154, 4132.308, 4068.718, 4229.231, 16220, 0, []
1631385573.3511, 112, 0, 4319.487, 4184.103, 4144.615, 4071.282, 4229.231, 450, 0, []
1631385573.3591, 113, 0, 4348.205, 4183.59, 4140, 4095.385, 4249.744, 450, 0, []
1631385573.367, 114, 0, 4353.333, 4185.128, 4135.897, 4087.692, 4257.949, 450, 0, []
1631385573.3749, 115, 0, 4331.795, 4189.231, 4129.231, 4069.231, 4234.359, 16220, 0, []
1631385573.3828, 116, 0, 4328.718, 4173.333, 4150.256, 4070.256, 4227.692, 450, 0, []
1631385573.3905, 117, 0, 4344.615, 4174.872, 4135.385, 4074.872, 4243.59, 450, 0, []
1631385573.3984, 118, 0, 4357.949, 4189.744, 4124.615, 4091.795, 4252.821, 450, 0, []
1631385573.4062, 119, 0, 4364.103, 4188.205, 4157.436, 4111.795, 4257.949, 16220, 0, []
1631385573.4141, 120, 0, 4368.718, 4175.385, 4136.41, 4106.667, 4261.026, 450, 0, []
1631385573.4219, 121, 0, 4371.282, 4166.667, 4146.154, 4104.103, 4264.615, 450, 0, []
1631385573.4297, 122, 0, 4384.103, 4180, 4170.769, 4124.103, 4277.436, 450, 0, []
1631385573.4375, 123, 0, 4400.513, 4206.154, 4157.436, 4133.333, 4288.205, 16220, 0, []
1631385573.4454, 124, 0, 4403.59, 4211.795, 4173.333, 4120.513, 4287.692, 450, 0, []
1631385573.4532, 125, 0, 4394.872, 4191.795, 4151.795, 4104.615, 4282.051, 450, 0, []
1631385573.4612, 126, 0, 4378.462, 4179.487, 4139.487, 4095.897, 4270.256, 450, 0, []
1631385573.4691, 127, 0, 4375.897, 4197.436, 4161.538, 4105.128, 4273.333, 16220, 0, []
1631385573.477, 128, 0, 4387.179, 4201.538, 4148.718, 4112.821, 4280, 450, 0, []
1631385573.4849, 0, 0, 4373.846, 4167.692, 4143.59, 4094.359, 4256.923, 450, 0, []
1631385573.4929, 1, 0, 4365.128, 4183.077, 4137.949, 4086.154, 4248.205, 450, 0, []
1631385573.5008, 2, 0, 4382.564, 4238.974, 4162.564, 4102.051, 4262.051, 16170, 0, []
1631385573.5088, 3, 0, 4378.462, 4222.051, 4166.667, 4086.667, 4251.282, 450, 0, []
1631385573.5166, 4, 0, 4362.051, 4176.41, 4117.436, 4051.282, 4234.359, 16174, 0, []
1631385573.5246, 5, 0, 4364.103, 4195.897, 4141.538, 4047.692, 4232.308, 450, 0, []
1631385573.5325, 6, 0, 4368.205, 4197.436, 4151.795, 4060, 4234.872, 16304, 0, []
1631385573.5404, 7, 0, 4374.872, 4128.718, 4134.359, 4070.769, 4244.103, 450, 0, []
1631385573.5483, 8, 0, 4385.128, 4095.385, 4146.667, 4089.231, 4253.333, 450, 0, []
1631385573.556, 9, 0, 4382.564, 4111.282, 4134.359, 4093.333, 4251.795, 16163, 0, []
1631385573.5639, 10, 0, 4374.872, 4093.846, 4144.615, 4075.385, 4241.538, 450, 0, []
1631385573.5717, 11, 0, 4387.179, 4071.795, 4138.462, 4071.795, 4242.564, 16205, 0, []
1631385573.5796, 12, 0, 4422.564, 4111.282, 4138.974, 4102.564, 4275.897, 450, 0, []
1631385573.5874, 13, 0, 4435.385, 4150.256, 4166.154, 4117.949, 4299.487, 450, 0, []
1631385573.5952, 14, 0, 4404.103, 4137.949, 4126.154, 4092.821, 4272.821, 450, 0, []
1631385573.603, 15, 0, 4383.077, 4121.538, 4118.974, 4072.308, 4241.538, 16205, 0, []
1631385573.611, 16, 0, 4395.897, 4112.821, 4136.923, 4072.821, 4243.077, 0, 0, []
1631385573.6189, 17, 0, 4415.385, 4115.385, 4131.795, 4081.538, 4263.59, 0, 0, []
1631385573.6269, 18, 0, 4421.538, 4151.795, 4144.103, 4086.667, 4275.897, 0, 0, []
1631385573.6347, 19, 0, 4414.359, 4165.128, 4130.256, 4074.359, 4264.103, 0, 0, []
1631385573.6427, 20, 0, 4416.923, 4117.436, 4136.41, 4076.41, 4261.538, 0, 0, []
1631385573.6506, 21, 0, 4439.487, 4119.487, 4144.615, 4106.667, 4287.692, 0, 0, []
1631385573.6586, 22, 0, 4443.59, 4166.667, 4132.821, 4111.282, 4291.282, 0, 0, []
1631385573.6665, 23, 0, 4423.59, 4161.026, 4149.231, 4090.256, 4273.846, 0, 0, []
1631385573.6744, 24, 0, 4423.077, 4160.513, 4146.154, 4100.513, 4277.949, 0, 0, []
1631385573.6823, 25, 0, 4432.821, 4157.949, 4155.385, 4113.846, 4282.051, 0, 0, []
1631385573.6901, 26, 0, 4438.974, 4110.769, 4161.538, 4107.692, 4278.462, 0, 0, []
1631385573.698, 27, 0, 4448.718, 4101.538, 4148.718, 4111.282, 4292.821, 0, 0, []
1631385573.7058, 28, 0, 4440.513, 4125.641, 4152.308, 4095.897, 4295.897, 0, 0, []
1631385573.7137, 29, 0, 4425.641, 4129.231, 4125.128, 4079.487, 4278.974, 0, 0, []
1631385573.7214, 30, 0, 4421.026, 4138.462, 4129.744, 4100, 4271.795, 0, 0, []
1631385573.7293, 31, 0, 4412.308, 4128.718, 4145.641, 4109.231, 4265.641, 0, 0, []
1631385573.7371, 32, 0, 4407.179, 4100, 4123.59, 4091.282, 4259.487, 0, 0, []
1631385573.745, 33, 0, 4413.846, 4117.949, 4137.949, 4087.179, 4269.744, 0, 0, []
1631385573.7528, 34, 0, 4431.795, 4144.615, 4138.974, 4095.897, 4291.282, 0, 0, []
1631385573.7606, 35, 0, 4458.974, 4158.462, 4146.154, 4107.692, 4319.487, 0, 0, []
1631385573.7684, 36, 0, 4473.333, 4186.154, 4169.744, 4129.231, 4336.923, 0, 0, []
1631385573.7763, 37, 0, 4453.333, 4172.821, 4145.641, 4121.538, 4318.462, 0, 0, []
1631385573.7841, 38, 0, 4424.103, 4127.692, 4141.538, 4087.692, 4288.205, 0, 0, []
1631385573.7921, 39, 0, 4428.718, 4082.564, 4138.462, 4092.821, 4294.872, 0, 0, []
1631385573.7999, 40, 0, 4448.205, 4050.256, 4134.359, 4115.385, 4309.744, 0, 0, []
1631385573.8079, 41, 0, 4459.487, 4081.538, 4148.718, 4105.641, 4306.667, 0, 0, []
1631385573.8158, 42, 0, 4454.872, 4148.205, 4134.359, 4087.692, 4308.718, 0, 0, []
1631385573.8238, 43, 0, 4437.949, 4146.154, 4142.051, 4085.641, 4305.641, 0, 0, []
1631385573.8317, 44, 0, 4444.103, 4085.641, 4137.436, 4096.41, 4300, 0, 0, []
1631385573.8396, 45, 0, 4463.077, 4075.385, 4134.359, 4103.077, 4307.692, 0, 0, []
1631385573.8475, 46, 0, 4450.769, 4076.923, 4148.205, 4103.077, 4303.59, 0, 0, []
1631385573.8553, 47, 0, 4435.897, 4026.154, 4123.077, 4105.128, 4297.436, 0, 0, []
1631385573.8632, 48, 0, 4463.59, 4003.59, 4145.128, 4106.667, 4316.41, 0, 0, []
1631385573.871, 49, 0, 4485.128, 4047.692, 4149.744, 4106.667, 4330.769, 0, 0, []
1631385573.8788, 50, 0, 4454.872, 4073.846, 4130.256, 4100, 4309.744, 0, 0, []
1631385573.8866, 51, 0, 4435.385, 4068.718, 4153.333, 4095.385, 4296.923, 0, 0, []
1631385573.8945, 52, 0, 4462.051, 4104.615, 4144.615, 4102.564, 4314.872, 0, 0, []
1631385573.9023, 53, 0, 4484.103, 4133.846, 4154.359, 4114.872, 4327.179, 0, 0, []
1631385573.9102, 54, 0, 4475.385, 4118.462, 4151.282, 4113.846, 4325.128, 0, 0, []
1631385573.918, 55, 0, 4456.923, 4095.897, 4130.769, 4092.821, 4311.282, 0, 0, []
1631385573.9258, 56, 0, 4443.077, 4083.59, 4144.615, 4077.436, 4293.846, 0, 0, []
1631385573.9336, 57, 0, 4442.564, 4087.179, 4132.308, 4077.949, 4293.846, 0, 0, []
1631385573.9416, 58, 0, 4447.179, 4110.769, 4142.051, 4086.667, 4303.59, 0, 0, []
1631385573.9495, 59, 0, 4438.462, 4138.974, 4147.179, 4091.282, 4298.462, 0, 0, []
1631385573.9575, 60, 0, 4435.897, 4142.564, 4126.154, 4096.41, 4293.846, 0, 0, []
1631385573.9653, 61, 0, 4461.026, 4142.051, 4147.692, 4114.872, 4315.385, 0, 0, []
1631385573.9733, 62, 0, 4470.769, 4153.333, 4142.564, 4116.41, 4321.026, 0, 0, []
1631385573.9812, 63, 0, 4445.641, 4142.051, 4134.359, 4091.282, 4299.487, 0, 0, []
1631385573.9892, 64, 0, 4447.692, 4128.718, 4151.795, 4092.308, 4309.231, 450, 0, []
1631385573.9971, 65, 0, 4488.205, 4154.872, 4159.487, 4125.641, 4349.744, 450, 0, []
1631385574.005, 66, 0, 4500, 4170.256, 4179.487, 4125.128, 4360, 16172, 0, []
1631385574.0129, 67, 0, 4477.949, 4123.59, 4154.872, 4099.487, 4342.051, 450, 0, []
1631385574.0207, 68, 0, 4472.308, 4093.333, 4147.692, 4105.641, 4337.949, 16181, 0, []
1631385574.0286, 69, 0, 4480.513, 4137.436, 4170.769, 4120, 4345.128, 450, 0, []
1631385574.0364, 70, 0, 4475.897, 4173.333, 4155.897, 4109.744, 4342.051, 16309, 0, []
1631385574.0442, 71, 0, 4471.795, 4157.949, 4165.128, 4103.59, 4338.974, 450, 0, []
1631385574.052, 72, 0, 4474.359, 4155.385, 4154.872, 4104.615, 4340.513, 450, 0, []
1631385574.0599, 73, 0, 4474.359, 4175.897, 4152.821, 4110.256, 4342.564, 16166, 0, []
1631385574.0677, 74, 0, 4475.897, 4189.231, 4173.846, 4125.128, 4350.769, 450, 0, []
1631385574.0757, 75, 0, 4494.872, 4199.487, 4165.641, 4140, 4371.282, 16203, 0, []
1631385574.0835, 76, 0, 4501.026, 4202.564, 4177.436, 4147.692, 4379.487, 450, 0, []
1631385574.0915, 77, 0, 4457.949, 4177.436, 4149.231, 4121.026, 4340, 450, 0, []
1631385574.0994, 78, 0, 4443.077, 4166.667, 4129.744, 4103.59, 4321.026, 450, 0, []
1631385574.1074, 79, 0, 4492.821, 4198.462, 4178.974, 4142.564, 4371.282, 16203, 0, []
1631385574.1153, 80, 0, 4510.769, 4218.462, 4179.487, 4161.026, 4399.487, 450, 0, []
1631385574.1232, 81, 0, 4478.974, 4202.564, 4168.718, 4122.564, 4368.718, 450, 0, []
1631385574.1311, 82, 0, 4472.308, 4195.385, 4170.256, 4108.718, 4356.923, 450, 0, []
1631385574.1391, 83, 0, 4492.308, 4182.051, 4183.077, 4129.744, 4372.821, 16203, 0, []
1631385574.147, 84, 0, 4490.769, 4089.231, 4194.359, 4120.513, 4364.615, 450, 0, []
1631385574.1548, 85, 0, 4481.538, 3988.718, 4159.487, 4107.179, 4352.821, 450, 0, []
1631385574.1627, 86, 0, 4483.077, 3958.974, 4172.308, 4118.974, 4355.385, 450, 0, []
1631385574.1704, 87, 0, 4488.718, 3938.974, 4192.821, 4125.641, 4357.436, 16203, 0, []
1631385574.1783, 88, 0, 4492.308, 3962.051, 4181.026, 4124.615, 4365.128, 450, 0, []
1631385574.1861, 89, 0, 4482.051, 4061.538, 4188.718, 4120, 4364.615, 450, 0, []
1631385574.194, 90, 0, 4478.974, 4117.949, 4165.641, 4113.846, 4353.846, 450, 0, []
1631385574.2018, 91, 0, 4491.282, 4118.974, 4168.718, 4117.949, 4361.026, 16203, 0, []
1631385574.2096, 92, 0, 4498.462, 4155.897, 4182.564, 4131.795, 4378.974, 450, 0, []
1631385574.2174, 93, 0, 4495.385, 4163.077, 4164.103, 4130.256, 4373.846, 450, 0, []
1631385574.2253, 94, 0, 4496.41, 4116.41, 4173.333, 4116.923, 4366.667, 450, 0, []
1631385574.2331, 95, 0, 4491.282, 4100.513, 4162.051, 4108.718, 4366.154, 16203, 0, []
1631385574.2411, 96, 0, 4471.795, 4093.333, 4166.154, 4109.231, 4351.282, 450, 0, []
1631385574.2489, 97, 0, 4477.949, 4067.179, 4176.923, 4126.154, 4349.744, 450, 0, []
1631385574.2569, 98, 0, 4482.051, 4052.821, 4153.846, 4118.462, 4349.744, 450, 0, []
1631385574.2648, 99, 0, 4452.821, 4058.974, 4164.615, 4077.949, 4324.615, 16203, 0, []
1631385574.2727, 100, 0, 4452.308, 4100, 4157.436, 4075.385, 4322.564, 450, 0, []
1631385574.2807, 101, 0, 4475.897, 4144.103, 4153.846, 4098.974, 4341.026, 450, 0, []
1631385574.2886, 102, 0, 4466.154, 4141.026, 4170.769, 4095.897, 4337.949, 450, 0, []
1631385574.2965, 103, 0, 4454.359, 4147.692, 4160, 4099.487, 4337.949, 16203, 0, []
1631385574.3045, 104, 0, 4471.282, 4182.051, 4168.718, 4121.538, 4348.718, 450, 0, []
1631385574.3124, 105, 0, 4473.333, 4180, 4155.897, 4110.769, 4343.59, 450, 0, []
1631385574.3202, 106, 0, 4462.564, 4156.41, 4151.795, 4085.128, 4330.769, 450, 0, []
1631385574.328, 107, 0, 4468.718, 4162.051, 4166.667, 4089.231, 4329.744, 16203, 0, []
1631385574.3358, 108, 0, 4482.564, 4185.128, 4148.718, 4105.641, 4341.026, 450, 0, []
1631385574.3437, 109, 0, 4490.256, 4193.846, 4169.744, 4110.256, 4353.333, 450, 0, []
1631385574.3515, 110, 0, 4490.256, 4202.051, 4166.154, 4108.205, 4350.769, 450, 0, []
1631385574.3594, 111, 0, 4488.205, 4221.026, 4153.846, 4109.744, 4348.718, 16203, 0, []
1631385574.3672, 112, 0, 4491.795, 4178.974, 4179.487, 4113.846, 4358.462, 450, 0, []
1631385574.375, 113, 0, 4491.795, 4098.462, 4162.564, 4112.821, 4354.359, 450, 0, []
1631385574.3828, 114, 0, 4480, 4118.974, 4165.641, 4109.744, 4343.59, 450, 0, []
1631385574.3908, 115, 0, 4472.308, 4199.487, 4167.179, 4108.205, 4343.077, 16203, 0, []
1631385574.3987, 116, 0, 4473.846, 4193.333, 4152.821, 4107.179, 4338.974, 450, 0, []
1631385574.4067, 117, 0, 4463.59, 4147.692, 4168.205, 4097.949, 4323.59, 450, 0, []
1631385574.4145, 118, 0, 4446.154, 4121.538, 4154.359, 4086.154, 4312.308, 450, 0, []
1631385574.4225, 119, 0, 4441.538, 4077.436, 4161.026, 4084.615, 4304.615, 16203, 0, []
1631385574.4304, 120, 0, 4436.923, 4036.41, 4169.744, 4085.641, 4294.872, 450, 0, []
1631385574.4384, 121, 0, 4432.308, 4014.359, 4160.513, 4091.282, 4297.949, 450, 0, []
1631385574.4463, 122, 0, 4435.385, 4003.59, 4170.769, 4107.179, 4307.179, 450, 0, []
1631385574.4542, 123, 0, 4434.872, 4036.923, 4144.615, 4109.231, 4304.103, 16203, 0, []
1631385574.4621, 124, 0, 4423.59, 4086.667, 4140, 4084.615, 4288.205, 450, 0, []
1631385574.4701, 125, 0, 4421.026, 4116.923, 4144.615, 4076.923, 4286.667, 450, 0, []
1631385574.478, 126, 0, 4433.846, 4134.872, 4145.641, 4104.615, 4306.667, 450, 0, []
1631385574.4858, 127, 0, 4427.692, 4125.641, 4176.41, 4109.231, 4300, 16203, 0, []
1631385574.4936, 128, 0, 4400.513, 4111.795, 4149.744, 4086.154, 4271.282, 450, 0, []
1631385574.5014, 0, 0, 4392.308, 4125.641, 4141.026, 4085.641, 4270.256, 450, 0, []
1631385574.5093, 1, 0, 4410.769, 4130.256, 4156.41, 4096.41, 4296.41, 450, 0, []
1631385574.5171, 2, 0, 4423.077, 4117.436, 4142.564, 4082.051, 4300, 16177, 0, []
1631385574.525, 3, 0, 4427.179, 4133.333, 4162.564, 4084.103, 4293.333, 450, 0, []
1631385574.5327, 4, 0, 4428.718, 4144.615, 4157.949, 4106.154, 4300, 16150, 0, []
1631385574.5407, 5, 0, 4411.282, 4085.128, 4152.308, 4098.462, 4287.692, 450, 0, []
1631385574.5486, 6, 0, 4394.359, 4020, 4155.897, 4079.487, 4265.641, 16302, 0, []
1631385574.5566, 7, 0, 4401.538, 4041.026, 4132.821, 4072.308, 4261.538, 450, 0, []
1631385574.5645, 8, 0, 4415.385, 4086.154, 4152.308, 4074.872, 4275.897, 450, 0, []
1631385574.5724, 9, 0, 4412.821, 4061.538, 4161.026, 4084.103, 4282.564, 16166, 0, []
1631385574.5803, 10, 0, 4391.795, 4017.436, 4156.923, 4086.667, 4269.744, 450, 0, []
1631385574.5883, 11, 0, 4388.205, 4053.333, 4156.923, 4080, 4261.538, 16203, 0, []
1631385574.5962, 12, 0, 4403.077, 4106.154, 4133.846, 4073.333, 4265.641, 450, 0, []
1631385574.6042, 13, 0, 4399.487, 4081.538, 4145.128, 4063.077, 4262.051, 450, 0, []
1631385574.6121, 14, 0, 4386.667, 4074.359, 4146.667, 4056.923, 4260, 450, 0, []
1631385574.62, 15, 0, 4380, 4122.051, 4136.923, 4063.077, 4260.513, 16203, 0, []
1631385574.6279, 16, 0, 4372.308, 4150.256, 4142.564, 4065.128, 4250.256, 0, 0, []
1631385574.6357, 17, 0, 4382.564, 4140.513, 4134.872, 4073.333, 4255.897, 0, 0, []
1631385574.6436, 18, 0, 4404.103, 4115.897, 4157.949, 4087.179, 4281.538, 0, 0, []
1631385574.6514, 19, 0, 4397.949, 4093.846, 4149.231, 4078.974, 4279.487, 0, 0, []
1631385574.6592, 20, 0, 4383.59, 4102.051, 4131.795, 4069.231, 4261.538, 0, 0, []
1631385574.667, 21, 0, 4390.256, 4138.974, 4163.59, 4085.128, 4265.641, 0, 0, []
1631385574.6749, 22, 0, 4407.692, 4167.692, 4162.051, 4104.615, 4287.179, 0, 0, []
1631385574.6827, 23, 0, 4428.718, 4184.615, 4169.231, 4105.641, 4311.795, 0, 0, []
1631385574.6906, 24, 0, 4434.359, 4187.179, 4167.179, 4103.59, 4315.897, 0, 0, []
1631385574.6983, 25, 0, 4417.436, 4194.359, 4154.359, 4100, 4295.897, 0, 0, []
1631385574.7063, 26, 0, 4400, 4213.846, 4180.513, 4089.231, 4276.923, 0, 0, []
1631385574.7142, 27, 0, 4385.641, 4185.128, 4161.538, 4078.974, 4261.538, 0, 0, []
1631385574.7222, 28, 0, 4388.205, 4148.205, 4161.538, 4082.564, 4264.103, 0, 0, []
1631385574.7301, 29, 0, 4407.692, 4178.974, 4178.974, 4094.359, 4277.949, 0, 0, []
1631385574.738, 30, 0, 4406.667, 4195.385, 4165.128, 4102.564, 4277.949, 0, 0, []
1631385574.7459, 31, 0, 4398.462, 4146.667, 4175.897, 4107.179, 4280.513, 0, 0, []
1631385574.7539, 32, 0, 4396.923, 4127.179, 4156.923, 4097.949, 4289.231, 0, 0, []
1631385574.7618, 33, 0, 4382.564, 4146.667, 4157.436, 4096.41, 4287.179, 0, 0, []
1631385574.7698, 34, 0, 4365.128, 4148.718, 4170.256, 4106.667, 4278.974, 0, 0, []
1631385574.7776, 35, 0, 4352.308, 4159.487, 4138.974, 4098.462, 4268.205, 0, 0, []
1631385574.7854, 36, 0, 4358.974, 4200.513, 4152.821, 4106.667, 4271.282, 0, 0, []
1631385574.7933, 37, 0, 4390.769, 4239.487, 4167.179, 4142.051, 4308.718, 0, 0, []
1631385574.8011, 38, 0, 4406.154, 4254.359, 4181.538, 4151.282, 4333.846, 0, 0, []
1631385574.809, 39, 0, 4392.308, 4252.821, 4186.667, 4137.436, 4317.949, 0, 0, []
1631385574.8167, 40, 0, 4372.821, 4250.256, 4149.744, 4123.077, 4296.41, 0, 0, []
1631385574.8246, 41, 0, 4349.231, 4247.692, 4154.359, 4102.051, 4277.436, 0, 0, []
1631385574.8324, 42, 0, 4341.026, 4245.641, 4155.385, 4096.923, 4266.667, 0, 0, []
1631385574.8403, 43, 0, 4361.538, 4258.974, 4156.923, 4110.256, 4278.462, 0, 0, []
1631385574.8481, 44, 0, 4369.231, 4252.821, 4169.231, 4105.641, 4287.179, 0, 0, []
1631385574.8561, 45, 0, 4373.846, 4218.974, 4166.154, 4117.949, 4295.897, 0, 0, []
1631385574.8639, 46, 0, 4403.59, 4199.487, 4203.59, 4156.41, 4325.641, 0, 0, []
1631385574.8719, 47, 0, 4412.821, 4208.718, 4197.436, 4163.59, 4339.487, 0, 0, []
1631385574.8798, 48, 0, 4393.846, 4230.256, 4175.385, 4150.256, 4320, 0, 0, []
1631385574.8878, 49, 0, 4389.231, 4236.41, 4192.308, 4152.308, 4307.179, 0, 0, []
1631385574.8957, 50, 0, 4389.744, 4218.974, 4168.205, 4146.667, 4306.154, 0, 0, []
1631385574.9036, 51, 0, 4366.154, 4223.077, 4161.026, 4112.821, 4283.59, 0, 0, []
1631385574.9115, 52, 0, 4337.949, 4248.718, 4157.436, 4089.744, 4250.769, 0, 0, []
1631385574.9195, 53, 0, 4348.718, 4245.128, 4157.436, 4105.128, 4258.974, 0, 0, []
1631385574.9274, 54, 0, 4391.795, 4252.821, 4181.538, 4130.256, 4303.077, 0, 0, []
1631385574.9352, 55, 0, 4398.462, 4249.744, 4160, 4127.692, 4312.821, 0, 0, []
1631385574.943, 56, 0, 4364.103, 4192.821, 4163.59, 4118.462, 4276.41, 0, 0, []
1631385574.9508, 57, 0, 4363.59, 4181.538, 4172.821, 4144.103, 4275.897, 0, 0, []
1631385574.9587, 58, 0, 4390.769, 4233.846, 4162.564, 4163.59, 4309.231, 0, 0, []
1631385574.9665, 59, 0, 4382.564, 4243.077, 4171.795, 4135.897, 4298.462, 0, 0, []
1631385574.9744, 60, 0, 4365.128, 4195.385, 4164.103, 4110.256, 4275.897, 0, 0, []
1631385574.9821, 61, 0, 4373.846, 4141.538, 4185.128, 4121.538, 4286.667, 0, 0, []
1631385574.99, 62, 0, 4378.462, 4087.179, 4184.615, 4132.308, 4292.308, 0, 0, []
1631385574.9978, 63, 0, 4368.718, 4079.487, 4160, 4124.103, 4280.513, 0, 0, []
1631385575.0057, 64, 0, 4351.795, 4115.385, 4181.538, 4107.692, 4264.103, 450, 0, []
1631385575.0135, 65, 0, 4347.179, 4141.026, 4173.846, 4109.744, 4259.487, 450, 0, []
1631385575.0213, 66, 0, 4372.308, 4181.026, 4176.41, 4135.897, 4279.487, 16179, 0, []
1631385575.0291, 67, 0, 4379.487, 4189.744, 4177.949, 4137.436, 4290.769, 450, 0, []
1631385575.0371, 68, 0, 4365.641, 4121.538, 4159.487, 4123.59, 4281.538, 16177, 0, []
1631385575.045, 69, 0, 4370.769, 4057.436, 4188.205, 4141.538, 4286.667, 450, 0, []
1631385575.053, 70, 0, 4366.154, 4036.41, 4180, 4147.692, 4276.41, 16312, 0, []
1631385575.0609, 71, 0, 4340, 4012.821, 4161.026, 4118.462, 4246.154, 450, 0, []
1631385575.0688, 72, 0, 4342.051, 4026.154, 4167.179, 4106.154, 4251.282, 450, 0, []
1631385575.0767, 73, 0, 4351.795, 4093.333, 4166.667, 4108.718, 4258.462, 16167, 0, []
1631385575.0847, 74, 0, 4343.077, 4123.077, 4185.128, 4108.718, 4247.692, 450, 0, []
1631385575.0926, 75, 0, 4343.077, 4100, 4158.974, 4105.641, 4253.333, 16203, 0, []
1631385575.1004, 76, 0, 4342.564, 4074.872, 4152.308, 4096.41, 4251.282, 450, 0, []
1631385575.1082, 77, 0, 4343.59, 4077.949, 4187.179, 4118.974, 4250.256, 450, 0, []
1631385575.116, 78, 0, 4368.205, 4109.231, 4183.077, 4164.615, 4273.846, 450, 0, []
1631385575.1239, 79, 0, 4375.897, 4127.179, 4182.051, 4159.487, 4281.026, 16203, 0, []
1631385575.1317, 80, 0, 4347.179, 4130.256, 4158.462, 4116.923, 4251.282, 450, 0, []
1631385575.1396, 81, 0, 4324.103, 4156.923, 4164.103, 4110.769, 4232.821, 450, 0, []
1631385575.1473, 82, 0, 4322.564, 4190.769, 4187.692, 4126.154, 4240.513, 450, 0, []
1631385575.1552, 83, 0, 4324.615, 4176.41, 4150.769, 4118.462, 4246.154, 16203, 0, []
1631385575.163, 84, 0, 4314.872, 4095.897, 4163.59, 4094.359, 4226.154, 450, 0, []
1631385575.171, 85, 0, 4290.256, 4054.872, 4165.128, 4076.41, 4194.872, 450, 0, []
1631385575.1789, 86, 0, 4286.154, 4104.103, 4142.564, 4080, 4197.436, 450, 0, []
1631385575.1868, 87, 0, 4308.718, 4113.333, 4174.872, 4100, 4226.667, 16203, 0, []
1631385575.1947, 88, 0, 4332.821, 4071.282, 4172.308, 4118.974, 4255.385, 450, 0, []
1631385575.2027, 89, 0, 4352.821, 4097.436, 4180.513, 4133.333, 4275.385, 450, 0, []
1631385575.2106, 90, 0, 4353.846, 4167.179, 4196.923, 4137.949, 4271.282, 450, 0, []
1631385575.2186, 91, 0, 4331.795, 4176.41, 4178.974, 4124.615, 4250.769, 16203, 0, []
1631385575.2264, 92, 0, 4327.179, 4099.487, 4182.564, 4116.923, 4241.538, 450, 0, []
1631385575.2344, 93, 0, 4345.128, 4020, 4174.359, 4124.615, 4249.744, 450, 0, []
1631385575.2423, 94, 0, 4344.615, 4046.154, 4173.333, 4122.051, 4252.821, 450, 0, []
1631385575.2503, 95, 0, 4329.744, 4097.949, 4165.641, 4113.333, 4242.051, 16203, 0, []
1631385575.2582, 96, 0, 4333.333, 4104.103, 4155.897, 4121.538, 4241.026, 450, 0, []
1631385575.266, 97, 0, 4340.513, 4149.744, 4171.282, 4125.128, 4243.59, 450, 0, []
1631385575.2739, 98, 0, 4333.333, 4172.308, 4157.436, 4121.026, 4234.872, 450, 0, []
1631385575.2818, 99, 0, 4323.59, 4103.59, 4165.128, 4121.538, 4226.667, 16203, 0, []
1631385575.2898, 100, 0, 4320, 4112.308, 4163.077, 4114.359, 4223.59, 450, 0, []
1631385575.2976, 101, 0, 4337.436, 4208.718, 4155.897, 4126.154, 4238.462, 450, 0, []
1631385575.3055, 102, 0, 4354.359, 4212.308, 4185.641, 4156.41, 4262.051, 450, 0, []
1631385575.3132, 103, 0, 4336.41, 4159.487, 4163.077, 4145.641, 4254.359, 16203, 0, []
1631385575.3212, 104, 0, 4314.359, 4184.615, 4162.564, 4113.846, 4227.692, 450, 0, []
1631385575.3291, 105, 0, 4322.564, 4230.256, 4179.487, 4119.487, 4232.821, 450, 0, []
1631385575.3371, 106, 0, 4327.179, 4197.436, 4161.538, 4132.308, 4241.026, 450, 0, []
1631385575.345, 107, 0, 4305.128, 4153.333, 4175.385, 4118.462, 4215.385, 16203, 0, []
1631385575.3529, 108, 0, 4287.692, 4174.872, 4150.256, 4101.538, 4200, 450, 0, []
1631385575.3608, 109, 0, 4287.179, 4200.513, 4143.077, 4095.897, 4198.974, 450, 0, []
1631385575.3688, 110, 0, 4284.615, 4210.256, 4170.769, 4095.897, 4185.641, 450, 0, []
1631385575.3767, 111, 0, 4270.769, 4195.385, 4132.308, 4079.487, 4171.795, 16203, 0, []
1631385575.3847, 112, 0, 4279.487, 4141.026, 4135.385, 4076.923, 4181.026, 450, 0, []
1631385575.3925, 113, 0, 4315.897, 4127.692, 4173.333, 4120, 4207.692, 450, 0, []
1631385575.4003, 114, 0, 4304.615, 4181.538, 4162.564, 4117.949, 4202.564, 450, 0, []
1631385575.4082, 115, 0, 4260.513, 4201.538, 4135.897, 4067.179, 4168.718, 16203, 0, []
1631385575.416, 116, 0, 4270.256, 4168.718, 4136.923, 4082.564, 4167.179, 450, 0, []
1631385575.4239, 117, 0, 4292.821, 4147.692, 4168.205, 4121.026, 4190.256, 450, 0, []
1631385575.4316, 118, 0, 4280.513, 4153.333, 4142.051, 4103.077, 4191.795, 450, 0, []
1631385575.4395, 119, 0, 4287.692, 4173.846, 4148.718, 4103.59, 4188.718, 16203, 0, []
1631385575.4473, 120, 0, 4298.462, 4185.128, 4191.282, 4130.769, 4195.897, 450, 0, []
1631385575.4552, 121, 0, 4272.308, 4178.462, 4145.641, 4108.205, 4188.205, 450, 0, []
1631385575.463, 122, 0, 4260.513, 4170.256, 4140, 4078.974, 4170.769, 450, 0, []
1631385575.4708, 123, 0, 4257.949, 4120, 4157.949, 4067.179, 4151.795, 16203, 0, []
1631385575.4786, 124, 0, 4251.795, 4091.795, 4140, 4069.231, 4158.974, 450, 0, []
1631385575.4866, 125, 0, 4280.513, 4158.974, 4156.923, 4114.359, 4197.949, 450, 0, []
1631385575.4945, 126, 0, 4284.615, 4178.462, 4151.795, 4124.615, 4186.667, 450, 0, []
1631385575.5025, 127, 0, 4241.538, 4099.487, 4145.641, 4082.564, 4147.179, 16203, 0, []
1631385575.5104, 128, 0, 4249.231, 4100.513, 4145.641, 4094.872, 4167.692, 450, 0, []
1631385575.5183, 0, 0, 4286.154, 4162.051, 4148.718, 4132.308, 4192.308, 450, 0, []
1631385575.5262, 1, 0, 4266.667, 4132.821, 4166.667, 4114.359, 4164.615, 450, 0, []
1631385575.5342, 2, 0, 4253.333, 4125.128, 4146.667, 4103.077, 4162.564, 16178, 0, []
1631385575.5421, 3, 0, 4288.205, 4208.205, 4168.205, 4133.333, 4197.949, 450, 0, []
1631385575.5499, 4, 0, 4288.718, 4221.538, 4180.513, 4131.282, 4195.385, 16179, 0, []
1631385575.5577, 5, 0, 4261.026, 4184.615, 4139.487, 4104.103, 4181.538, 450, 0, []
1631385575.5655, 6, 0, 4271.282, 4201.026, 4158.974, 4107.692, 4191.282, 16289, 0, []
1631385575.5734, 7, 0, 4286.154, 4178.462, 4167.179, 4131.282, 4190.256, 450, 0, []
1631385575.5812, 8, 0, 4277.436, 4116.41, 4156.923, 4141.026, 4187.692, 450, 0, []
1631385575.5891, 9, 0, 4284.103, 4150.769, 4169.231, 4136.41, 4207.692, 16175, 0, []
1631385575.5968, 10, 0, 4292.821, 4214.359, 4178.462, 4135.897, 4215.897, 450, 0, []
1631385575.6047, 11, 0, 4267.692, 4161.538, 4179.487, 4123.59, 4191.282, 16210, 0, []
1631385575.6125, 12, 0, 4248.205, 4081.026, 4147.179, 4103.59, 4173.846, 450, 0, []
1631385575.6204, 13, 0, 4261.538, 4075.385, 4171.282, 4112.821, 4180, 450, 0, []
1631385575.6282, 14, 0, 4270.256, 4104.615, 4193.333, 4133.333, 4192.308, 450, 0, []
1631385575.6361, 15, 0, 4252.308, 4123.59, 4131.795, 4105.641, 4181.026, 16210, 0, []
1631385575.644, 16, 0, 4243.077, 4123.59, 4145.641, 4075.897, 4161.538, 0, 0, []
1631385575.652, 17, 0, 4275.385, 4151.795, 4184.615, 4123.59, 4191.282, 0, 0, []
1631385575.6599, 18, 0, 4302.051, 4178.974, 4173.846, 4171.282, 4233.333, 0, 0, []
1631385575.6679, 19, 0, 4287.179, 4127.179, 4169.744, 4149.744, 4221.026, 0, 0, []
1631385575.6757, 20, 0, 4272.308, 4032.308, 4166.154, 4125.128, 4191.282, 0, 0, []
1631385575.6837, 21, 0, 4280.513, 4018.462, 4178.974, 4131.795, 4200, 0, 0, []
1631385575.6916, 22, 0, 4277.949, 4074.359, 4153.333, 4125.641, 4208.718, 0, 0, []
1631385575.6996, 23, 0, 4263.077, 4088.718, 4143.077, 4108.205, 4184.615, 0, 0, []
1631385575.7075, 24, 0, 4269.231, 4101.026, 4174.872, 4120, 4181.538, 0, 0, []
1631385575.7153, 25, 0, 4291.795, 4144.103, 4153.333, 4132.821, 4211.282, 0, 0, []
1631385575.7232, 26, 0, 4298.974, 4177.436, 4162.564, 4118.974, 4214.872, 0, 0, []
1631385575.731, 27, 0, 4288.205, 4181.026, 4170.256, 4109.231, 4194.359, 0, 0, []
1631385575.7389, 28, 0, 4276.923, 4130.769, 4148.205, 4126.667, 4197.949, 0, 0, []
1631385575.7467, 29, 0, 4263.59, 4054.872, 4161.026, 4127.692, 4191.282, 0, 0, []
1631385575.7546, 30, 0, 4260.513, 4060, 4159.487, 4109.744, 4168.205, 0, 0, []
1631385575.7623, 31, 0, 4273.846, 4133.333, 4167.692, 4114.872, 4184.103, 0, 0, []
1631385575.7702, 32, 0, 4281.026, 4135.897, 4160, 4130.769, 4213.846, 0, 0, []
1631385575.778, 33, 0, 4283.59, 4108.718, 4160.513, 4134.359, 4213.846, 0, 0, []
1631385575.786, 34, 0, 4271.795, 4140.513, 4189.231, 4120, 4193.846, 0, 0, []
1631385575.7939, 35, 0, 4253.846, 4187.692, 4147.179, 4099.487, 4180, 0, 0, []
1631385575.8017, 36, 0, 4266.154, 4221.538, 4146.667, 4104.615, 4186.667, 0, 0, []
1631385575.8095, 37, 0, 4294.872, 4217.949, 4177.436, 4130.256, 4202.051, 0, 0, []
1631385575.8175, 38, 0, 4298.974, 4157.436, 4149.231, 4138.974, 4210.256, 0, 0, []
1631385575.8254, 39, 0, 4278.462, 4129.744, 4150.769, 4120, 4199.487, 0, 0, []
1631385575.8334, 40, 0, 4264.615, 4187.179, 4160, 4109.231, 4182.051, 0, 0, []
1631385575.8412, 41, 0, 4258.462, 4239.487, 4165.641, 4114.872, 4183.077, 0, 0, []
1631385575.8492, 42, 0, 4251.282, 4244.103, 4157.436, 4106.667, 4192.308, 0, 0, []
1631385575.8571, 43, 0, 4255.897, 4242.564, 4149.231, 4091.282, 4184.103, 0, 0, []
1631385575.8649, 44, 0, 4280.513, 4237.949, 4181.538, 4101.026, 4184.103, 0, 0, []
1631385575.8728, 45, 0, 4306.154, 4239.487, 4171.795, 4127.692, 4215.897, 0, 0, []
1631385575.8805, 46, 0, 4306.154, 4253.846, 4177.949, 4128.718, 4227.692, 0, 0, []
1631385575.8884, 47, 0, 4274.359, 4256.923, 4187.179, 4096.41, 4190.256, 0, 0, []
1631385575.8964, 48, 0, 4258.974, 4260.513, 4147.692, 4089.231, 4178.462, 0, 0, []
1631385575.9043, 49, 0, 4287.179, 4269.744, 4163.59, 4118.974, 4208.718, 0, 0, []
1631385575.9121, 50, 0, 4308.718, 4268.718, 4169.744, 4132.308, 4215.897, 0, 0, []
1631385575.9199, 51, 0, 4290.256, 4272.308, 4158.462, 4120.513, 4197.949, 0, 0, []
1631385575.9277, 52, 0, 4278.974, 4274.872, 4177.436, 4114.872, 4194.872, 0, 0, []
1631385575.9356, 53, 0, 4282.051, 4267.179, 4175.897, 4114.872, 4195.897, 0, 0, []
1631385575.9434, 54, 0, 4265.128, 4259.487, 4177.949, 4103.59, 4186.154, 0, 0, []
1631385575.9514, 55, 0, 4262.051, 4254.359, 4168.718, 4091.795, 4188.718, 0, 0, []
1631385575.9592, 56, 0, 4286.667, 4256.41, 4185.128, 4108.205, 4203.59, 0, 0, []
1631385575.9672, 57, 0, 4297.436, 4259.487, 4200.513, 4131.282, 4212.821, 0, 0, []
1631385575.9751, 58, 0, 4291.795, 4263.077, 4161.026, 4120.513, 4210.256, 0, 0, []
1631385575.9831, 59, 0, 4285.641, 4271.282, 4178.974, 4104.103, 4194.359, 0, 0, []
1631385575.991, 60, 0, 4271.282, 4256.923, 4177.436, 4107.692, 4178.462, 0, 0, []
1631385575.999, 61, 0, 4256.41, 4223.077, 4139.487, 4103.077, 4175.385, 0, 0, []
1631385576.0068, 62, 0, 4278.974, 4205.641, 4169.231, 4110.769, 4193.333, 0, 0, []
1631385576.0148, 63, 0, 4305.641, 4185.641, 4175.897, 4138.462, 4222.051, 0, 0, []
1631385576.0227, 64, 0, 4283.59, 4161.026, 4164.615, 4130.256, 4214.359, 450, 0, []
1631385576.0305, 65, 0, 4259.487, 4190.256, 4166.667, 4115.385, 4187.179, 450, 0, []
1631385576.0384, 66, 0, 4278.974, 4245.641, 4180.513, 4147.179, 4200, 16177, 0, []
1631385576.0461, 67, 0, 4290.769, 4266.154, 4196.923, 4169.744, 4219.487, 450, 0, []
1631385576.054, 68, 0, 4265.128, 4258.974, 4160.513, 4137.949, 4186.154, 16181, 0, []
1631385576.0618, 69, 0, 4258.462, 4261.538, 4172.308, 4118.974, 4164.103, 450, 0, []
1631385576.0697, 70, 0, 4282.564, 4284.103, 4185.128, 4142.564, 4193.333, 16290, 0, []
1631385576.0775, 71, 0, 4284.615, 4271.795, 4147.179, 4138.462, 4194.872, 450, 0, []
1631385576.0853, 72, 0, 4275.897, 4231.282, 4176.923, 4129.231, 4179.487, 450, 0, []
1631385576.0931, 73, 0, 4285.128, 4240, 4187.692, 4158.974, 4204.615, 16175, 0, []
1631385576.101, 74, 0, 4289.231, 4275.385, 4171.795, 4166.667, 4216.41, 450, 0, []
1631385576.1088, 75, 0, 4279.487, 4257.949, 4175.897, 4135.385, 4187.692, 16205, 0, []
1631385576.1168, 76, 0, 4278.462, 4210.769, 4155.897, 4119.487, 4177.436, 450, 0, []
1631385576.1246, 77, 0, 4278.974, 4209.744, 4152.821, 4122.564, 4190.769, 450, 0, []
1631385576.1326, 78, 0, 4269.744, 4244.615, 4153.846, 4120, 4185.641, 450, 0, []
1631385576.1405, 79, 0, 4264.615, 4264.615, 4169.231, 4112.308, 4172.821, 16205, 0, []
1631385576.1485, 80, 0, 4256.923, 4265.128, 4164.615, 4102.564, 4167.692, 450, 0, []
1631385576.1564, 81, 0, 4250.256, 4258.974, 4147.179, 4109.744, 4172.821, 450, 0, []
1631385576.1643, 82, 0, 4252.308, 4249.744, 4186.667, 4128.718, 4185.641, 450, 0, []
1631385576.1722, 83, 0, 4224.103, 4230.769, 4157.436, 4109.231, 4169.231, 16205, 0, []
1631385576.1802, 84, 0, 4173.846, 4217.436, 4113.333, 4072.821, 4130.256, 450, 0, []
1631385576.1881, 85, 0, 4188.205, 4243.59, 4154.872, 4094.359, 4146.154, 450, 0, []
1631385576.1959, 86, 0, 4251.795, 4294.359, 4178.974, 4141.026, 4205.641, 450, 0, []
1631385576.2038, 87, 0, 4266.667, 4306.667, 4172.308, 4150.769, 4222.051, 16205, 0, []
1631385576.2115, 88, 0, 4257.436, 4278.974, 4159.487, 4164.615, 4220.513, 450, 0, []
1631385576.2194, 89, 0, 4266.154, 4262.051, 4193.846, 4197.949, 4237.436, 450, 0, []
1631385576.2272, 90, 0, 4233.846, 4238.462, 4208.205, 4180.513, 4213.846, 450, 0, []
1631385576.2351, 91, 0, 4192.821, 4214.359, 4145.128, 4144.615, 4178.462, 16205, 0, []
1631385576.2429, 92, 0, 4216.923, 4224.103, 4160.513, 4153.846, 4192.308, 450, 0, []
1631385576.2508, 93, 0, 4243.59, 4242.051, 4189.231, 4149.231, 4196.923, 450, 0, []
1631385576.2587, 94, 0, 4231.795, 4237.949, 4165.641, 4128.205, 4178.462, 450, 0, []
1631385576.2666, 95, 0, 4218.462, 4206.667, 4157.949, 4128.205, 4174.359, 16205, 0, []
1631385576.2745, 96, 0, 4207.692, 4197.436, 4146.667, 4129.744, 4163.59, 450, 0, []
1631385576.2824, 97, 0, 4198.974, 4235.385, 4181.538, 4136.41, 4147.692, 450, 0, []
1631385576.2902, 98, 0, 4196.923, 4252.308, 4186.667, 4145.128, 4152.308, 450, 0, []
1631385576.2981, 99, 0, 4191.795, 4224.103, 4142.564, 4127.179, 4162.051, 16205, 0, []
1631385576.306, 100, 0, 4203.59, 4216.923, 4161.538, 4126.154, 4171.795, 450, 0, []
1631385576.3138, 101, 0, 4238.462, 4245.128, 4175.385, 4164.615, 4192.308, 450, 0, []
1631385576.3218, 102, 0, 4223.077, 4249.744, 4162.564, 4151.795, 4173.333, 450, 0, []
1631385576.3296, 103, 0, 4157.949, 4245.128, 4122.564, 4087.179, 4112.821, 16205, 0, []
1631385576.3375, 104, 0, 4148.718, 4258.462, 4109.231, 4084.103, 4100.513, 450, 0, []
1631385576.3453, 105, 0, 4197.949, 4250.769, 4169.744, 4137.949, 4140.513, 450, 0, []
1631385576.3532, 106, 0, 4205.641, 4221.538, 4158.974, 4142.564, 4145.641, 450, 0, []
1631385576.361, 107, 0, 4175.897, 4191.282, 4126.154, 4113.846, 4128.718, 16205, 0, []
1631385576.3688, 108, 0, 4184.615, 4162.564, 4137.949, 4122.564, 4155.385, 450, 0, []
1631385576.3766, 109, 0, 4217.949, 4165.128, 4157.949, 4144.103, 4184.103, 450, 0, []
1631385576.3845, 110, 0, 4225.641, 4219.487, 4193.333, 4152.821, 4169.744, 450, 0, []
1631385576.3923, 111, 0, 4209.744, 4254.872, 4161.026, 4156.923, 4150.256, 16205, 0, []
1631385576.4002, 112, 0, 4198.974, 4250.769, 4129.744, 4148.205, 4145.641, 450, 0, []
1631385576.408, 113, 0, 4206.154, 4263.077, 4149.231, 4142.051, 4149.744, 450, 0, []
1631385576.4159, 114, 0, 4214.359, 4255.897, 4153.846, 4150.769, 4154.872, 450, 0, []
1631385576.4238, 115, 0, 4199.487, 4211.795, 4171.795, 4142.564, 4148.205, 16205, 0, []
1631385576.4318, 116, 0, 4177.949, 4191.282, 4151.282, 4112.821, 4132.308, 450, 0, []
1631385576.4397, 117, 0, 4175.897, 4183.077, 4140, 4071.795, 4121.538, 450, 0, []
1631385576.4477, 118, 0, 4182.051, 4167.692, 4164.103, 4037.949, 4117.949, 450, 0, []
1631385576.4555, 119, 0, 4194.359, 4166.667, 4158.462, 4065.128, 4127.692, 16205, 0, []
1631385576.4635, 120, 0, 4203.59, 4153.846, 4168.718, 4120, 4144.103, 450, 0, []
1631385576.4714, 121, 0, 4196.41, 4160, 4148.205, 4142.051, 4149.231, 450, 0, []
1631385576.4794, 122, 0, 4195.385, 4206.667, 4148.718, 4167.692, 4153.846, 450, 0, []
1631385576.4873, 123, 0, 4200.513, 4192.308, 4184.103, 4188.718, 4155.385, 16205, 0, []
1631385576.495, 124, 0, 4189.744, 4146.667, 4146.154, 4157.436, 4141.538, 450, 0, []
1631385576.5029, 125, 0, 4177.949, 4158.462, 4135.897, 4125.128, 4136.41, 450, 0, []
1631385576.5107, 126, 0, 4188.718, 4164.103, 4153.333, 4126.667, 4147.179, 450, 0, []
1631385576.5186, 127, 0, 4186.154, 4148.205, 4159.487, 4107.692, 4134.872, 16205, 0, []
1631385576.5264, 128, 0, 4165.641, 4170.256, 4165.641, 4072.308, 4111.795, 450, 0, []
1631385576.5342, 0, 0, 4172.821, 4187.692, 4131.282, 4084.615, 4126.667, 450, 0, []
1631385576.542, 1, 0, 4192.308, 4174.872, 4135.897, 4125.128, 4153.846, 450, 0, []
1631385576.5499, 2, 0, 4191.795, 4170.769, 4152.308, 4140, 4149.231, 16180, 0, []
1631385576.5577, 3, 0, 4184.615, 4185.641, 4154.359, 4142.051, 4132.821, 450, 0, []
1631385576.5657, 4, 0, 4180, 4208.718, 4165.641, 4143.077, 4126.667, 16186, 0, []
1631385576.5735, 5, 0, 4184.103, 4214.359, 4129.744, 4131.795, 4138.462, 450, 0, []
1631385576.5815, 6, 0, 4209.231, 4221.538, 4142.564, 4129.231, 4166.154, 16285, 0, []
1631385576.5894, 7, 0, 4223.077, 4236.41, 4174.872, 4131.282, 4172.821, 450, 0, []
1631385576.5974, 8, 0, 4203.077, 4208.205, 4158.974, 4110.256, 4150.769, 450, 0, []
1631385576.6053, 9, 0, 4194.872, 4170.256, 4163.077, 4103.077, 4155.897, 16175, 0, []
1631385576.6132, 10, 0, 4202.051, 4193.333, 4146.667, 4128.718, 4179.487, 450, 0, []
1631385576.6211, 11, 0, 4186.667, 4222.564, 4153.846, 4129.744, 4158.974, 16212, 0, []
1631385576.6291, 12, 0, 4177.436, 4225.641, 4176.41, 4118.974, 4134.359, 450, 0, []
1631385576.637, 13, 0, 4200, 4222.051, 4160.513, 4140, 4160.513, 450, 0, []
1631385576.645, 14, 0, 4210.769, 4204.615, 4149.231, 4146.667, 4178.462, 450, 0, []
1631385576.6529, 15, 0, 4186.154, 4205.128, 4123.077, 4107.692, 4142.051, 16212, 0, []
1631385576.6606, 16, 0, 4169.231, 4187.179, 4149.231, 4081.026, 4110.256, 0, 0, []
1631385576.6685, 17, 0, 4193.333, 4124.103, 4181.026, 4113.333, 4140, 0, 0, []
1631385576.6763, 18, 0, 4203.077, 4102.051, 4145.128, 4138.462, 4163.077, 0, 0, []
1631385576.6842, 19, 0, 4160.513, 4143.077, 4128.205, 4095.385, 4122.564, 0, 0, []
1631385576.692, 20, 0, 4157.436, 4181.538, 4124.103, 4088.205, 4111.282, 0, 0, []
1631385576.6998, 21, 0, 4206.667, 4195.897, 4163.077, 4154.872, 4158.462, 0, 0, []
1631385576.7076, 22, 0, 4203.077, 4192.821, 4185.641, 4165.128, 4158.974, 0, 0, []
1631385576.7156, 23, 0, 4176.41, 4173.846, 4137.949, 4120, 4133.846, 0, 0, []
1631385576.7235, 24, 0, 4212.308, 4186.154, 4149.231, 4133.846, 4164.103, 0, 0, []
1631385576.7315, 25, 0, 4251.282, 4218.974, 4167.692, 4166.154, 4196.923, 0, 0, []
1631385576.7393, 26, 0, 4233.333, 4203.077, 4168.718, 4142.051, 4183.077, 0, 0, []
1631385576.7473, 27, 0, 4220, 4175.385, 4168.718, 4123.077, 4181.026, 0, 0, []
1631385576.7552, 28, 0, 4230.256, 4173.846, 4141.538, 4135.897, 4193.333, 0, 0, []
1631385576.7632, 29, 0, 4224.103, 4165.641, 4174.359, 4148.718, 4184.615, 0, 0, []
1631385576.7711, 30, 0, 4193.846, 4144.103, 4176.41, 4155.897, 4162.051, 0, 0, []
1631385576.779, 31, 0, 4162.564, 4140, 4132.308, 4148.205, 4146.154, 0, 0, []
1631385576.7869, 32, 0, 4172.308, 4175.385, 4147.692, 4145.128, 4162.564, 0, 0, []
1631385576.7948, 33, 0, 4191.282, 4214.872, 4152.308, 4145.641, 4170.769, 0, 0, []
1631385576.8027, 34, 0, 4164.103, 4212.821, 4149.231, 4119.487, 4125.128, 0, 0, []
1631385576.8105, 35, 0, 4153.846, 4218.462, 4149.231, 4114.872, 4113.846, 0, 0, []
1631385576.8183, 36, 0, 4196.923, 4252.821, 4153.846, 4157.949, 4169.231, 0, 0, []
1631385576.8261, 37, 0, 4205.128, 4247.179, 4163.077, 4165.128, 4181.026, 0, 0, []
1631385576.834, 38, 0, 4179.487, 4222.051, 4150.769, 4131.282, 4149.744, 0, 0, []
1631385576.8418, 39, 0, 4202.564, 4225.641, 4196.41, 4147.692, 4168.205, 0, 0, []
1631385576.8497, 40, 0, 4227.692, 4217.949, 4202.564, 4188.718, 4200, 0, 0, []
1631385576.8574, 41, 0, 4200, 4201.538, 4144.103, 4170.256, 4187.179, 0, 0, []
1631385576.8653, 42, 0, 4175.385, 4229.744, 4152.821, 4126.667, 4157.949, 0, 0, []
1631385576.8731, 43, 0, 4185.128, 4257.436, 4164.103, 4123.077, 4148.718, 0, 0, []
1631385576.8811, 44, 0, 4196.41, 4248.718, 4171.282, 4141.538, 4158.974, 0, 0, []
1631385576.889, 45, 0, 4193.333, 4250.769, 4167.179, 4139.487, 4165.641, 0, 0, []
1631385576.897, 46, 0, 4202.051, 4264.103, 4155.385, 4135.897, 4169.231, 0, 0, []
1631385576.9048, 47, 0, 4221.026, 4263.077, 4192.308, 4154.872, 4184.103, 0, 0, []
1631385576.9128, 48, 0, 4216.923, 4248.205, 4176.41, 4158.462, 4190.769, 0, 0, []
1631385576.9207, 49, 0, 4195.385, 4224.615, 4147.692, 4135.385, 4181.026, 0, 0, []
1631385576.9287, 50, 0, 4201.026, 4219.487, 4162.564, 4131.795, 4183.59, 0, 0, []
1631385576.9366, 51, 0, 4223.59, 4227.692, 4167.692, 4152.821, 4191.795, 0, 0, []
1631385576.9445, 52, 0, 4216.41, 4224.615, 4185.128, 4157.949, 4181.026, 0, 0, []
1631385576.9524, 53, 0, 4207.692, 4238.974, 4165.128, 4152.821, 4185.641, 0, 0, []
1631385576.9602, 54, 0, 4223.077, 4289.744, 4155.385, 4153.846, 4206.667, 0, 0, []
1631385576.9681, 55, 0, 4215.897, 4290.256, 4174.359, 4136.923, 4187.179, 0, 0, []
1631385576.9759, 56, 0, 4183.59, 4228.205, 4161.538, 4127.692, 4150.769, 0, 0, []
1631385576.9837, 57, 0, 4185.641, 4220.513, 4171.282, 4162.051, 4162.051, 0, 0, []
1631385576.9915, 58, 0, 4201.538, 4242.564, 4154.872, 4172.308, 4174.872, 0, 0, []
1631385576.9994, 59, 0, 4194.872, 4224.103, 4155.385, 4137.949, 4155.385, 0, 0, []
1631385577.0072, 60, 0, 4200.513, 4228.718, 4196.923, 4141.538, 4170.769, 0, 0, []
1631385577.0151, 61, 0, 4218.974, 4259.487, 4172.821, 4162.564, 4205.641, 0, 0, []
1631385577.0228, 62, 0, 4212.308, 4251.282, 4169.744, 4140, 4192.308, 0, 0, []
1631385577.0308, 63, 0, 4204.103, 4253.333, 4185.641, 4129.231, 4171.795, 0, 0, []
1631385577.0387, 64, 0, 4197.436, 4273.333, 4182.564, 4140.513, 4161.026, 450, 0, []
1631385577.0467, 65, 0, 4183.59, 4243.077, 4168.718, 4125.128, 4146.667, 450, 0, []
1631385577.0546, 66, 0, 4208.205, 4233.846, 4138.462, 4129.231, 4173.846, 16181, 0, []
1631385577.0625, 67, 0, 4249.231, 4282.564, 4187.692, 4168.205, 4211.795, 450, 0, []
1631385577.0704, 68, 0, 4227.692, 4280, 4198.462, 4157.949, 4194.359, 16182, 0, []
1631385577.0784, 69, 0, 4187.179, 4208.718, 4141.538, 4118.974, 4169.744, 450, 0, []
1631385577.0863, 70, 0, 4188.718, 4175.385, 4157.949, 4132.308, 4173.333, 16293, 0, []
1631385577.0943, 71, 0, 4179.487, 4175.897, 4168.718, 4136.41, 4147.179, 450, 0, []
1631385577.1022, 72, 0, 4156.923, 4187.692, 4170.256, 4105.128, 4121.026, 450, 0, []
1631385577.1101, 73, 0, 4178.974, 4228.205, 4167.692, 4121.538, 4155.897, 16172, 0, []
1631385577.118, 74, 0, 4217.949, 4224.103, 4156.923, 4162.051, 4193.333, 450, 0, []
1631385577.1258, 75, 0, 4223.59, 4172.821, 4182.051, 4156.923, 4188.205, 16165, 0, []
1631385577.1337, 76, 0, 4211.282, 4189.744, 4165.128, 4130.256, 4175.897, 450, 0, []
1631385577.1415, 77, 0, 4215.897, 4230.256, 4158.462, 4127.179, 4187.692, 450, 0, []
1631385577.1493, 78, 0, 4217.436, 4156.923, 4162.564, 4126.667, 4187.692, 450, 0, []
1631385577.1571, 79, 0, 4205.641, 4103.077, 4149.744, 4119.487, 4165.128, 16165, 0, []
1631385577.165, 80, 0, 4203.59, 4191.795, 4178.462, 4129.744, 4165.641, 450, 0, []
1631385577.1728, 81, 0, 4206.667, 4247.179, 4165.128, 4143.59, 4182.051, 450, 0, []
1631385577.1807, 82, 0, 4201.026, 4191.795, 4151.282, 4134.359, 4177.949, 450, 0, []
1631385577.1884, 83, 0, 4195.897, 4154.872, 4167.692, 4109.231, 4160, 16165, 0, []
1631385577.1963, 84, 0, 4188.205, 4163.077, 4157.949, 4089.744, 4140.513, 450, 0, []
1631385577.2041, 85, 0, 4163.077, 4152.821, 4158.974, 4077.436, 4112.821, 450, 0, []
1631385577.2121, 86, 0, 4146.154, 4160.513, 4130.769, 4072.821, 4097.436, 450, 0, []
1631385577.22, 87, 0, 4160.513, 4193.846, 4137.949, 4090.769, 4110.769, 16165, 0, []
1631385577.2279, 88, 0, 4180.513, 4207.179, 4183.59, 4122.564, 4131.282, 450, 0, []
1631385577.2358, 89, 0, 4187.692, 4206.667, 4176.41, 4143.077, 4145.641, 450, 0, []
1631385577.2438, 90, 0, 4182.051, 4186.154, 4172.308, 4145.128, 4154.872, 450, 0, []
1631385577.2517, 91, 0, 4175.897, 4135.385, 4147.692, 4130.256, 4153.846, 16165, 0, []
1631385577.2597, 92, 0, 4167.692, 4115.897, 4147.179, 4108.205, 4134.872, 450, 0, []
1631385577.2675, 93, 0, 4152.308, 4134.872, 4174.359, 4096.923, 4111.795, 450, 0, []
1631385577.2754, 94, 0, 4154.359, 4139.487, 4159.487, 4102.564, 4114.359, 450, 0, []
1631385577.2834, 95, 0, 4171.795, 4154.359, 4177.949, 4114.872, 4133.846, 16165, 0, []
1631385577.2912, 96, 0, 4157.949, 4174.359, 4157.436, 4109.231, 4123.59, 450, 0, []
1631385577.2991, 97, 0, 4130.256, 4163.077, 4127.692, 4096.923, 4096.41, 450, 0, []
1631385577.3068, 98, 0, 4160, 4177.949, 4178.974, 4123.59, 4121.538, 450, 0, []
1631385577.3147, 99, 0, 4185.641, 4198.462, 4186.667, 4144.615, 4154.359, 16165, 0, []
1631385577.3225, 100, 0, 4144.615, 4160, 4156.41, 4110.769, 4123.59, 450, 0, []
1631385577.3304, 101, 0, 4135.897, 4150.256, 4126.154, 4096.41, 4110.256, 450, 0, []
1631385577.3382, 102, 0, 4188.718, 4212.308, 4140, 4132.821, 4153.846, 450, 0, []
1631385577.3462, 103, 0, 4205.128, 4231.795, 4181.538, 4141.538, 4162.051, 16165, 0, []
1631385577.354, 104, 0, 4172.308, 4190.769, 4152.821, 4114.359, 4132.308, 450, 0, []
1631385577.362, 105, 0, 4153.333, 4170.769, 4143.077, 4104.103, 4129.744, 450, 0, []
1631385577.3699, 106, 0, 4156.923, 4177.949, 4141.026, 4111.282, 4141.538, 450, 0, []
1631385577.3779, 107, 0, 4154.872, 4168.718, 4123.077, 4111.795, 4133.846, 16165, 0, []
1631385577.3858, 108, 0, 4151.795, 4157.436, 4147.179, 4100.513, 4122.564, 450, 0, []
1631385577.3937, 109, 0, 4167.179, 4155.385, 4153.333, 4111.282, 4131.795, 450, 0, []
1631385577.4016, 110, 0, 4174.872, 4133.333, 4165.641, 4140, 4143.077, 450, 0, []
1631385577.4096, 111, 0, 4157.436, 4124.103, 4149.231, 4134.359, 4136.923, 16165, 0, []
1631385577.4175, 112, 0, 4155.385, 4153.333, 4125.128, 4116.923, 4133.333, 450, 0, []
1631385577.4254, 113, 0, 4164.103, 4163.59, 4163.077, 4117.436, 4130.256, 450, 0, []
1631385577.4332, 114, 0, 4155.897, 4148.718, 4153.333, 4111.795, 4121.538, 450, 0, []
1631385577.441, 115, 0, 4145.641, 4156.923, 4157.436, 4103.59, 4120.513, 16165, 0, []
1631385577.4489, 116, 0, 4134.359, 4154.872, 4168.718, 4101.538, 4112.308, 450, 0, []
1631385577.4567, 117, 0, 4128.205, 4139.487, 4129.744, 4100.513, 4102.564, 450, 0, []
1631385577.4646, 118, 0, 4137.436, 4159.487, 4138.462, 4107.179, 4119.487, 450, 0, []
1631385577.4723, 119, 0, 4137.949, 4170.769, 4138.462, 4106.154, 4124.615, 16165, 0, []
1631385577.4802, 120, 0, 4140, 4151.282, 4152.821, 4106.667, 4116.923, 450, 0, []
1631385577.488, 121, 0, 4158.462, 4161.026, 4183.077, 4131.795, 4130.256, 450, 0, []
1631385577.496, 122, 0, 4152.308, 4184.615, 4158.462, 4133.333, 4134.359, 450, 0, []
1631385577.5039, 123, 0, 4135.897, 4169.231, 4153.333, 4104.615, 4126.154, 16165, 0, []
1631385577.5118, 124, 0, 4147.179, 4155.897, 4138.974, 4107.692, 4138.974, 450, 0, []
1631385577.5197, 125, 0, 4157.949, 4182.564, 4133.333, 4124.103, 4145.641, 450, 0, []
1631385577.5277, 126, 0, 4154.872, 4201.538, 4163.077, 4116.41, 4134.359, 450, 0, []
1631385577.5356, 127, 0, 4181.026, 4204.103, 4169.231, 4126.667, 4158.974, 16165, 0, []
1631385577.5436, 128, 0, 4209.231, 4218.974, 4179.487, 4152.308, 4194.359, 450, 0, []
1631385577.5514, 0, 0, 4181.538, 4216.41, 4149.744, 4132.308, 4170.769, 450, 0, []
1631385577.5594, 1, 0, 4152.308, 4194.359, 4136.41, 4103.077, 4136.41, 450, 0, []
1631385577.5673, 2, 0, 4170.256, 4208.205, 4171.795, 4118.462, 4153.333, 16179, 0, []
1631385577.5751, 3, 0, 4185.128, 4240, 4153.333, 4138.462, 4184.103, 450, 0, []
1631385577.583, 4, 0, 4148.205, 4227.179, 4146.667, 4126.667, 4168.205, 16185, 0, []
1631385577.5908, 5, 0, 4104.103, 4190.256, 4134.872, 4100.513, 4134.872, 450, 0, []
1631385577.5986, 6, 0, 4123.59, 4190.256, 4132.821, 4105.128, 4153.333, 16273, 0, []
1631385577.6064, 7, 0, 4167.179, 4209.231, 4183.077, 4143.077, 4190.769, 450, 0, []
1631385577.6143, 8, 0, 4165.641, 4200, 4178.974, 4158.462, 4185.128, 450, 0, []
1631385577.6221, 9, 0, 4146.154, 4178.974, 4175.385, 4146.667, 4164.615, 16171, 0, []
1631385577.63, 10, 0, 4151.282, 4182.051, 4173.333, 4152.308, 4170.769, 450, 0, []
1631385577.6377, 11, 0, 4155.897, 4197.949, 4149.231, 4159.487, 4180.513, 16200, 0, []
1631385577.6456, 12, 0, 4155.385, 4203.59, 4168.718, 4148.205, 4183.59, 450, 0, []
1631385577.6534, 13, 0, 4170.769, 4200, 4170.769, 4147.692, 4188.718, 450, 0, []
1631385577.6614, 14, 0, 4169.231, 4179.487, 4176.923, 4142.564, 4182.564, 450, 0, []
1631385577.6693, 15, 0, 4153.846, 4170.256, 4175.385, 4127.692, 4178.974, 16200, 0, []
1631385577.6772, 16, 0, 4150.256, 4180.513, 4148.205, 4130.769, 4182.564, 0, 0, []
1631385577.6851, 17, 0, 4157.436, 4173.846, 4165.641, 4142.051, 4182.564, 0, 0, []
1631385577.6931, 18, 0, 4173.846, 4166.667, 4172.308, 4152.308, 4186.154, 0, 0, []
1631385577.701, 19, 0, 4184.103, 4177.436, 4192.308, 4154.872, 4187.692, 0, 0, []
1631385577.709, 20, 0, 4182.051, 4157.436, 4198.462, 4143.077, 4188.718, 0, 0, []
1631385577.7168, 21, 0, 4181.538, 4115.385, 4156.41, 4139.487, 4200.513, 0, 0, []
1631385577.7248, 22, 0, 4189.231, 4120.513, 4173.333, 4163.59, 4214.872, 0, 0, []
1631385577.7327, 23, 0, 4189.744, 4145.641, 4180, 4184.615, 4208.205, 0, 0, []
1631385577.7405, 24, 0, 4172.821, 4131.282, 4172.821, 4169.744, 4179.487, 0, 0, []
1631385577.7484, 25, 0, 4157.436, 4127.692, 4171.282, 4148.718, 4165.128, 0, 0, []
1631385577.7561, 26, 0, 4156.923, 4159.487, 4132.821, 4139.487, 4168.718, 0, 0, []
1631385577.764, 27, 0, 4163.077, 4165.641, 4145.641, 4131.282, 4164.103, 0, 0, []
1631385577.7718, 28, 0, 4173.846, 4161.538, 4167.692, 4133.333, 4164.615, 0, 0, []
1631385577.7797, 29, 0, 4187.179, 4180, 4177.949, 4150.256, 4181.538, 0, 0, []
1631385577.7875, 30, 0, 4186.667, 4176.41, 4175.385, 4163.077, 4191.795, 0, 0, []
1631385577.7954, 31, 0, 4166.667, 4140.513, 4127.179, 4140.513, 4183.077, 0, 0, []
1631385577.8031, 32, 0, 4149.744, 4122.564, 4136.41, 4106.667, 4164.103, 0, 0, []
1631385577.8111, 33, 0, 4153.333, 4151.795, 4150.769, 4120, 4154.359, 0, 0, []
1631385577.819, 34, 0, 4169.231, 4187.179, 4154.872, 4160, 4168.718, 0, 0, []
1631385577.827, 35, 0, 4166.154, 4167.692, 4177.949, 4158.974, 4175.897, 0, 0, []
1631385577.8349, 36, 0, 4135.897, 4105.128, 4145.128, 4117.436, 4151.282, 0, 0, []
1631385577.8428, 37, 0, 4129.231, 4104.103, 4145.641, 4103.077, 4141.026, 0, 0, []
1631385577.8507, 38, 0, 4162.051, 4171.282, 4160, 4128.718, 4170.769, 0, 0, []
1631385577.8587, 39, 0, 4178.462, 4174.872, 4164.103, 4141.026, 4177.436, 0, 0, []
1631385577.8666, 40, 0, 4163.59, 4131.282, 4193.846, 4117.436, 4152.308, 0, 0, []
1631385577.8746, 41, 0, 4167.179, 4147.179, 4169.231, 4105.128, 4160.513, 0, 0, []
1631385577.8824, 42, 0, 4188.205, 4150.256, 4161.026, 4137.949, 4189.744, 0, 0, []
1631385577.8902, 43, 0, 4182.564, 4088.718, 4157.436, 4163.59, 4182.564, 0, 0, []
1631385577.8981, 44, 0, 4171.282, 4089.744, 4142.564, 4154.359, 4161.026, 0, 0, []
1631385577.9059, 45, 0, 4187.179, 4141.026, 4172.821, 4146.667, 4166.667, 0, 0, []
1631385577.9138, 46, 0, 4214.359, 4073.846, 4146.667, 4141.026, 4188.205, 0, 0, []
1631385577.9215, 47, 0, 4241.538, 3991.795, 4123.59, 4122.051, 4219.487, 0, 0, []
1631385577.9294, 48, 0, 4263.59, 4049.231, 4133.333, 4092.821, 4237.436, 0, 0, []
1631385577.9372, 49, 0, 4271.282, 4114.872, 4147.179, 4063.077, 4226.154, 0, 0, []
1631385577.9451, 50, 0, 4268.205, 4099.487, 4185.641, 4054.359, 4219.487, 0, 0, []
1631385577.9529, 51, 0, 4255.897, 4101.026, 4152.308, 4061.538, 4223.077, 0, 0, []
1631385577.9607, 52, 0, 4242.051, 4152.308, 4141.538, 4073.846, 4216.41, 0, 0, []
1631385577.9685, 53, 0, 4244.103, 4183.077, 4170.769, 4095.385, 4214.872, 0, 0, []
1631385577.9764, 54, 0, 4241.538, 4177.949, 4138.974, 4114.872, 4215.897, 0, 0, []
1631385577.9842, 55, 0, 4215.897, 4162.051, 4127.692, 4108.718, 4197.436, 0, 0, []
1631385577.9922, 56, 0, 4210.256, 4171.282, 4129.231, 4104.103, 4188.205, 0, 0, []
1631385578, 57, 0, 4230.256, 4200, 4162.564, 4132.308, 4201.026, 0, 0, []
1631385578.008, 58, 0, 4230.256, 4183.077, 4190.256, 4146.667, 4203.077, 0, 0, []
1631385578.0159, 59, 0, 4218.974, 4151.795, 4139.487, 4137.949, 4201.538, 0, 0, []
1631385578.0239, 60, 0, 4212.821, 4151.795, 4146.154, 4134.359, 4197.436, 0, 0, []
1631385578.0318, 61, 0, 4198.462, 4156.923, 4154.359, 4120.513, 4169.744, 0, 0, []
1631385578.0398, 62, 0, 4201.026, 4167.179, 4135.897, 4117.436, 4167.179, 0, 0, []
1631385578.0476, 63, 0, 4221.026, 4182.051, 4195.385, 4140, 4202.564, 0, 0, []
1631385578.0554, 64, 0, 4212.821, 4177.949, 4137.436, 4142.051, 4205.128, 450, 0, []
1631385578.0633, 65, 0, 4196.41, 4169.231, 4111.795, 4124.103, 4176.41, 450, 0, []
1631385578.0711, 66, 0, 4197.949, 4169.231, 4236.923, 4122.564, 4162.051, 16177, 0, []
1631385578.079, 67, 0, 4182.564, 4175.897, 4129.231, 4117.949, 4153.846, 450, 0, []
1631385578.0867, 68, 0, 4163.077, 4171.282, 4098.462, 4087.179, 4147.179, 16177, 0, []
1631385578.0946, 69, 0, 4166.154, 4130.769, 4185.641, 4066.154, 4149.231, 450, 0, []
1631385578.1024, 70, 0, 4151.282, 4084.615, 4070.256, 4061.026, 4132.821, 16268, 0, []
1631385578.1103, 71, 0, 4132.308, 4082.564, 4137.949, 4064.103, 4106.667, 450, 0, []
1631385578.1181, 72, 0, 4158.462, 4105.128, 4223.077, 4092.821, 4126.154, 450, 0, []
1631385578.1259, 73, 0, 4194.359, 4123.59, 4125.128, 4133.846, 4167.692, 16169, 0, []
1631385578.1337, 74, 0, 4186.667, 4125.128, 4105.641, 4130.256, 4165.128, 450, 0, []
1631385578.1417, 75, 0, 4153.846, 4103.077, 4155.897, 4089.231, 4135.385, 16209, 0, []
1631385578.1496, 76, 0, 4146.667, 4104.103, 4119.487, 4084.615, 4130.256, 450, 0, []
1631385578.1576, 77, 0, 4167.179, 4134.872, 4120, 4110.256, 4145.641, 450, 0, []
1631385578.1654, 78, 0, 4175.897, 4137.949, 4207.179, 4111.795, 4155.897, 450, 0, []
1631385578.1734, 79, 0, 4158.462, 4128.718, 4106.154, 4104.615, 4148.718, 16209, 0, []
1631385578.1813, 80, 0, 4131.282, 4129.744, 4095.897, 4098.462, 4119.487, 450, 0, []
1631385578.1893, 81, 0, 4114.359, 4123.59, 4164.615, 4076.41, 4097.949, 450, 0, []
1631385578.1972, 82, 0, 4124.103, 4126.154, 4098.974, 4074.359, 4108.718, 450, 0, []
1631385578.2049, 83, 0, 4144.615, 4150.256, 4173.333, 4103.077, 4126.154, 16209, 0, []
1631385578.2128, 84, 0, 4139.487, 4128.718, 4180, 4099.487, 4127.692, 450, 0, []
1631385578.2206, 85, 0, 4117.436, 4063.077, 4108.205, 4073.846, 4117.436, 450, 0, []
1631385578.2285, 86, 0, 4116.41, 4055.385, 4144.103, 4077.436, 4115.385, 450, 0, []
1631385578.2363, 87, 0, 4136.923, 4116.41, 4134.359, 4090.769, 4135.385, 16209, 0, []
1631385578.2442, 88, 0, 4148.205, 4153.333, 4135.385, 4095.897, 4153.846, 450, 0, []
1631385578.2519, 89, 0, 4133.333, 4127.692, 4162.051, 4092.821, 4134.359, 450, 0, []
1631385578.2598, 90, 0, 4114.359, 4110.256, 4143.59, 4079.487, 4103.077, 450, 0, []
1631385578.2677, 91, 0, 4122.051, 4131.282, 4161.538, 4082.051, 4107.179, 16209, 0, []
1631385578.2756, 92, 0, 4142.051, 4138.462, 4146.154, 4110.256, 4139.487, 450, 0, []
1631385578.2835, 93, 0, 4132.821, 4112.308, 4121.026, 4116.41, 4142.051, 450, 0, []
1631385578.2914, 94, 0, 4088.718, 4097.436, 4115.897, 4080.513, 4098.462, 450, 0, []
1631385578.2994, 95, 0, 4073.846, 4121.538, 4101.538, 4066.667, 4084.103, 16209, 0, []
1631385578.3073, 96, 0, 4123.59, 4152.308, 4155.897, 4105.641, 4132.821, 450, 0, []
1631385578.3152, 97, 0, 4163.59, 4157.949, 4174.359, 4134.359, 4167.179, 450, 0, []
1631385578.3232, 98, 0, 4156.923, 4140.513, 4173.333, 4134.359, 4162.564, 450, 0, []
1631385578.331, 99, 0, 4153.846, 4134.872, 4169.744, 4137.436, 4165.641, 16209, 0, []
1631385578.339, 100, 0, 4153.333, 4147.179, 4152.308, 4128.718, 4164.103, 450, 0, []
1631385578.3469, 101, 0, 4144.615, 4151.795, 4173.846, 4109.231, 4149.744, 450, 0, []
1631385578.3547, 102, 0, 4158.462, 4154.872, 4150.256, 4122.051, 4156.923, 450, 0, []
1631385578.3626, 103, 0, 4166.667, 4152.308, 4184.103, 4134.872, 4161.026, 16209, 0, []
1631385578.3703, 104, 0, 4146.667, 4143.077, 4184.615, 4116.41, 4146.154, 450, 0, []
1631385578.3782, 105, 0, 4156.923, 4157.949, 4145.641, 4122.564, 4158.462, 450, 0, []
1631385578.386, 106, 0, 4172.821, 4183.59, 4198.974, 4132.308, 4172.308, 450, 0, []
1631385578.3939, 107, 0, 4152.821, 4183.077, 4140.513, 4107.692, 4153.333, 16209, 0, []
1631385578.4017, 108, 0, 4152.821, 4164.103, 4150.769, 4107.179, 4145.128, 450, 0, []
1631385578.4095, 109, 0, 4174.872, 4160, 4226.154, 4144.615, 4158.974, 450, 0, []
1631385578.4173, 110, 0, 4160, 4162.051, 4143.077, 4149.744, 4155.385, 450, 0, []
1631385578.4253, 111, 0, 4132.308, 4113.333, 4148.205, 4120, 4140.513, 16209, 0, []
1631385578.4332, 112, 0, 4155.385, 4074.359, 4187.179, 4121.026, 4155.385, 450, 0, []
1631385578.4412, 113, 0, 4195.897, 4108.205, 4168.205, 4150.769, 4182.051, 450, 0, []
1631385578.449, 114, 0, 4201.538, 4124.103, 4214.359, 4160, 4185.641, 450, 0, []
1631385578.457, 115, 0, 4177.949, 4093.846, 4193.846, 4138.462, 4169.231, 16209, 0, []
1631385578.4649, 116, 0, 4158.974, 4075.385, 4152.308, 4124.615, 4162.051, 450, 0, []
1631385578.4729, 117, 0, 4147.179, 4064.103, 4146.154, 4122.564, 4153.846, 450, 0, []
1631385578.4808, 118, 0, 4141.538, 4057.949, 4145.128, 4115.385, 4144.103, 450, 0, []
1631385578.4888, 119, 0, 4180.513, 4097.436, 4201.538, 4125.641, 4167.179, 16209, 0, []
1631385578.4966, 120, 0, 4214.872, 4126.667, 4202.051, 4142.564, 4196.923, 450, 0, []
1631385578.5046, 121, 0, 4192.821, 4115.385, 4196.41, 4135.385, 4188.718, 450, 0, []
1631385578.5125, 122, 0, 4165.641, 4138.974, 4167.692, 4133.846, 4173.846, 450, 0, []
1631385578.5203, 123, 0, 4169.231, 4129.231, 4137.436, 4138.974, 4171.795, 16209, 0, []
1631385578.5282, 124, 0, 4177.949, 4057.949, 4192.821, 4121.538, 4165.641, 450, 0, []
1631385578.5359, 125, 0, 4180, 4069.231, 4165.128, 4116.41, 4170.769, 450, 0, []
1631385578.5438, 126, 0, 4193.846, 4139.487, 4179.487, 4144.615, 4196.41, 450, 0, []
1631385578.5516, 127, 0, 4198.462, 4117.949, 4185.128, 4146.667, 4198.974, 16209, 0, []
1631385578.5595, 128, 0, 4187.692, 4081.538, 4142.051, 4122.564, 4174.872, 450, 0, []
1631385578.5673, 0, 0, 4178.974, 4132.308, 4193.846, 4124.615, 4162.564, 450, 0, []
1631385578.5751, 1, 0, 4176.41, 4157.436, 4167.179, 4141.538, 4171.282, 450, 0, []
1631385578.5829, 2, 0, 4161.538, 4131.282, 4160, 4130.256, 4168.718, 16179, 0, []
1631385578.5909, 3, 0, 4157.436, 4124.615, 4160, 4113.333, 4161.026, 450, 0, []
1631385578.5988, 4, 0, 4189.231, 4102.051, 4145.128, 4131.795, 4178.462, 16177, 0, []
1631385578.6068, 5, 0, 4201.538, 4055.385, 4214.359, 4142.051, 4186.667, 450, 0, []
1631385578.6146, 6, 0, 4185.128, 4050.769, 4161.538, 4125.641, 4173.333, 16258, 0, []
1631385578.6226, 7, 0, 4184.103, 4081.538, 4146.154, 4124.103, 4176.41, 450, 0, []
1631385578.6305, 8, 0, 4185.128, 4101.026, 4174.872, 4122.564, 4181.026, 450, 0, []
1631385578.6385, 9, 0, 4186.667, 4117.436, 4138.974, 4123.077, 4176.41, 16165, 0, []
1631385578.6464, 10, 0, 4208.718, 4143.077, 4203.077, 4162.051, 4191.795, 450, 0, []
1631385578.6543, 11, 0, 4210.256, 4162.564, 4189.744, 4176.923, 4205.641, 16207, 0, []
1631385578.6622, 12, 0, 4185.128, 4162.051, 4158.462, 4129.744, 4189.231, 450, 0, []
1631385578.67, 13, 0, 4185.128, 4146.154, 4186.154, 4106.154, 4178.462, 450, 0, []
1631385578.6779, 14, 0, 4201.538, 4140.513, 4161.538, 4127.179, 4187.179, 450, 0, []
1631385578.6857, 15, 0, 4202.051, 4137.436, 4205.641, 4134.872, 4186.154, 16207, 0, []
1631385578.6936, 16, 0, 4181.026, 4122.564, 4184.615, 4116.41, 4171.282, 0, 0, []
1631385578.7013, 17, 0, 4165.128, 4113.846, 4137.949, 4110.769, 4168.205, 0, 0, []
1631385578.7092, 18, 0, 4176.923, 4103.59, 4182.051, 4130.769, 4176.41, 0, 0, []
1631385578.717, 19, 0, 4189.744, 4078.974, 4178.462, 4139.487, 4176.41, 0, 0, []
1631385578.7249, 20, 0, 4202.564, 4091.795, 4204.615, 4143.59, 4196.41, 0, 0, []
