Timestamp, COUNTER, INTERPOLATED, AF3, T7, Pz, T8, AF4, RAW_CQ, MARKER_HARDWARE, MARKERS
1628601455.7652, 87, 1, 4148.433, 4185.242, 4133.846, 4156.068, 4199.202, 2201.889, 0, []
1628601455.7731, 88, 1, 4161.994, 4187.407, 4133.333, 4155.214, 4208.661, 3953.778, 0, []
1628601455.781, 89, 1, 4175.556, 4189.573, 4132.821, 4154.359, 4218.12, 5705.667, 0, []
1628601455.7889, 90, 1, 4189.117, 4191.738, 4132.308, 4153.504, 4227.578, 7457.556, 0, []
1628601455.7967, 91, 1, 4202.678, 4193.903, 4131.795, 4152.65, 4237.037, 9209.444, 0, []
1628601455.8046, 92, 1, 4216.239, 4196.068, 4131.282, 4151.795, 4246.496, 10961.333, 0, []
1628601455.8125, 93, 1, 4229.801, 4198.234, 4130.769, 4150.94, 4255.954, 12713.222, 0, []
1628601455.8204, 94, 1, 4243.362, 4200.399, 4130.256, 4150.085, 4265.413, 14465.111, 0, []
1628601455.8283, 95, 0, 4256.923, 4202.564, 4129.744, 4149.231, 4274.872, 16217, 0, []
1628601455.8362, 96, 0, 4266.667, 4178.462, 4127.692, 4134.359, 4289.744, 450, 0, []
1628601455.8442, 97, 1, 4260.684, 4178.519, 4129.459, 4134.131, 4281.026, 450, 0, []
1628601455.8521, 98, 1, 4254.701, 4178.575, 4131.225, 4133.903, 4272.308, 450, 0, []
1628601455.86, 99, 1, 4248.718, 4178.632, 4132.991, 4133.675, 4263.59, 450, 0, []
1628601455.8679, 100, 1, 4242.735, 4178.689, 4134.758, 4133.447, 4254.872, 450, 0, []
1628601455.8757, 101, 1, 4236.752, 4178.746, 4136.524, 4133.219, 4246.154, 450, 0, []
1628601455.8836, 102, 1, 4230.769, 4178.803, 4138.291, 4132.991, 4237.436, 450, 0, []
1628601455.8915, 103, 1, 4224.786, 4178.86, 4140.057, 4132.764, 4228.718, 450, 0, []
1628601455.8994, 104, 1, 4218.803, 4178.917, 4141.823, 4132.536, 4220, 450, 0, []
1628601455.9073, 105, 0, 4212.821, 4178.974, 4143.59, 4132.308, 4211.282, 450, 0, []
1628601464.1126, 99, 0, 3976.41, 4144.103, 4140, 4074.872, 3218.462, 16216, 0, []
1628601464.1205, 100, 0, 3989.231, 4174.872, 4118.974, 4105.641, 3242.051, 450, 0, []
1628601464.1283, 101, 0, 4022.051, 4210.769, 4140.513, 4149.231, 3288.205, 450, 0, []
1628601464.1361, 102, 0, 4021.026, 4184.103, 4135.897, 4140.513, 3295.385, 450, 0, []
1628601464.1441, 103, 0, 3991.282, 4138.974, 4122.564, 4097.949, 3274.872, 16216, 0, []
1628601464.152, 104, 0, 4004.615, 4157.949, 4131.282, 4111.795, 3301.538, 450, 0, []
1628601464.16, 105, 0, 4049.231, 4197.436, 4144.615, 4155.385, 3364.103, 450, 0, []
1628601464.1678, 106, 0, 4052.821, 4196.41, 4123.59, 4142.051, 3373.846, 450, 0, []
1628601464.1758, 107, 0, 4030.769, 4179.487, 4123.077, 4104.615, 3347.692, 16216, 0, []
1628601464.1837, 108, 0, 4014.359, 4170.256, 4121.538, 4094.872, 3333.846, 450, 0, []
1628601464.1917, 109, 0, 4008.205, 4171.795, 4115.897, 4089.744, 3341.026, 450, 0, []
1628601464.1996, 110, 0, 4042.564, 4189.744, 4133.846, 4096.923, 3377.949, 450, 0, []
1628601464.2074, 111, 0, 4124.615, 4213.846, 4152.308, 4137.436, 3449.231, 16216, 0, []
1628601464.2154, 112, 0, 4196.923, 4232.308, 4162.564, 4154.872, 3512.821, 450, 0, []
1628601464.2234, 113, 0, 4225.128, 4226.667, 4145.128, 4119.487, 3530.256, 450, 0, []
1628601464.2313, 114, 0, 4244.103, 4197.436, 4142.051, 4092.821, 3534.872, 450, 0, []
1628601464.2392, 115, 0, 4255.385, 4180.513, 4141.538, 4080.513, 3533.333, 16216, 0, []
1628601464.247, 116, 0, 4237.949, 4182.051, 4112.308, 4046.667, 3505.641, 450, 0, []
1628601464.255, 117, 0, 4216.923, 4188.205, 4124.615, 4024.103, 3478.462, 450, 0, []
1628601464.263, 118, 0, 4215.897, 4211.795, 4144.103, 4037.949, 3477.436, 450, 0, []
1628601464.2709, 119, 0, 4190.256, 4213.846, 4133.846, 4037.436, 3460.513, 16216, 0, []
1628601464.2789, 120, 0, 4124.615, 4174.872, 4133.333, 4004.103, 3407.179, 450, 0, []
1628601464.2867, 121, 0, 4105.641, 4167.179, 4141.538, 4017.436, 3406.667, 450, 0, []
1628601464.2947, 122, 0, 4135.897, 4185.641, 4158.974, 4066.154, 3451.282, 450, 0, []
1628601464.3027, 123, 0, 4138.974, 4192.308, 4147.692, 4074.872, 3464.103, 16216, 0, []
1628601464.3107, 124, 0, 4131.282, 4195.897, 4138.974, 4078.462, 3469.744, 450, 0, []
1628601464.3186, 125, 0, 4129.744, 4193.846, 4151.282, 4077.949, 3481.538, 450, 0, []
1628601464.3266, 126, 1, 4124.729, 4186.496, 4149.687, 4077.607, 3491.225, 450, 0, []
1628601464.3344, 127, 1, 4119.715, 4179.145, 4148.091, 4077.265, 3500.912, 450, 0, []
1628601464.3423, 128, 1, 4114.701, 4171.795, 4146.496, 4076.923, 3510.598, 450, 0, []
1628601464.3502, 0, 1, 4109.687, 4164.444, 4144.9, 4076.581, 3520.285, 450, 0, []
1628601464.3581, 1, 1, 4104.672, 4157.094, 4143.305, 4076.239, 3529.972, 450, 0, []
1628601464.366, 2, 1, 4099.658, 4149.744, 4141.709, 4075.897, 3539.658, 16207, 0, []
1628601464.3738, 3, 1, 4094.644, 4142.393, 4140.114, 4075.556, 3549.345, 450, 0, []
1628601464.3817, 4, 1, 4089.63, 4135.043, 4138.519, 4075.214, 3559.031, 16161, 0, []
1628601464.3896, 5, 0, 4084.615, 4127.692, 4136.923, 4074.872, 3568.718, 450, 0, []
1628601464.3976, 6, 0, 4108.205, 4140, 4146.667, 4086.667, 3603.077, 16148, 0, []
1628601469.4671, 123, 0, 4198.974, 3675.897, 4120, 4147.692, 4125.641, 16188, 0, []
1628601469.475, 124, 0, 4197.949, 3700, 4136.41, 4136.923, 4126.667, 450, 0, []
1628601469.4828, 125, 0, 4209.744, 3688.205, 4136.923, 4140, 4143.59, 450, 0, []
1628601469.4906, 126, 0, 4221.026, 3692.308, 4140.513, 4138.462, 4152.821, 450, 0, []
1628601469.4985, 127, 0, 4207.692, 3708.205, 4131.795, 4128.205, 4140.513, 16188, 0, []
1628601469.5063, 128, 0, 4196.41, 3687.179, 4134.359, 4112.308, 4129.231, 450, 0, []
1628601469.5142, 0, 0, 4210.769, 3672.308, 4140, 4114.872, 4140.513, 450, 0, []
1628601469.5219, 1, 0, 4229.231, 3697.949, 4136.41, 4138.974, 4162.051, 450, 0, []
1628601469.5298, 2, 0, 4237.436, 3713.846, 4132.821, 4156.41, 4173.333, 16185, 0, []
1628601469.5376, 3, 0, 4232.821, 3697.949, 4133.333, 4149.744, 4172.821, 450, 0, []
1628601469.5455, 4, 0, 4218.974, 3695.385, 4132.821, 4138.462, 4164.103, 16165, 0, []
1628601469.5533, 5, 0, 4214.872, 3709.231, 4128.718, 4143.59, 4157.949, 450, 0, []
1628601469.5611, 6, 0, 4220, 3714.872, 4139.487, 4156.41, 4153.846, 16211, 0, []
1628601469.5689, 7, 0, 4211.282, 3707.692, 4138.462, 4146.667, 4144.615, 450, 0, []
1628601469.5768, 8, 0, 4195.897, 3681.026, 4128.205, 4125.128, 4134.359, 450, 0, []
1628601469.5846, 9, 0, 4197.436, 3662.564, 4133.333, 4127.692, 4133.846, 16074, 0, []
1628601469.5925, 10, 0, 4205.641, 3678.462, 4130.769, 4138.974, 4140, 450, 0, []
1628601469.6002, 11, 0, 4201.538, 3703.077, 4132.308, 4136.41, 4143.077, 16188, 0, []
1628601469.6081, 12, 0, 4201.026, 3700, 4139.487, 4132.308, 4143.077, 450, 0, []
1628601469.6159, 13, 0, 4206.667, 3678.462, 4140.513, 4132.821, 4143.077, 450, 0, []
1628601469.6239, 14, 0, 4204.615, 3672.308, 4142.051, 4140.513, 4147.179, 450, 0, []
1628601469.6318, 15, 0, 4204.615, 3703.59, 4143.077, 4146.667, 4152.821, 16188, 0, []
1628601469.6397, 16, 0, 4207.692, 3736.923, 4146.154, 4141.026, 4153.333, 0, 0, []
1628601469.6476, 17, 0, 4202.564, 3727.692, 4136.41, 4138.974, 4154.359, 0, 0, []
1628601469.6554, 18, 0, 4197.436, 3723.077, 4124.615, 4142.564, 4149.744, 0, 0, []
1628601469.6633, 19, 0, 4198.462, 3738.462, 4131.795, 4141.538, 4143.59, 0, 0, []
1628601469.6711, 20, 0, 4200, 3738.462, 4126.667, 4142.051, 4150.769, 0, 0, []
1628601469.6789, 21, 0, 4205.128, 3741.538, 4124.103, 4143.59, 4155.897, 0, 0, []
1628601469.6867, 22, 0, 4202.051, 3751.795, 4137.949, 4135.897, 4147.692, 0, 0, []
1628601469.6946, 23, 0, 4195.897, 3743.59, 4139.487, 4138.974, 4156.41, 0, 0, []
1628601469.7024, 24, 0, 4211.282, 3743.077, 4140, 4167.179, 4179.487, 0, 0, []
1628601469.7103, 25, 0, 4219.487, 3764.615, 4135.897, 4164.615, 4176.41, 0, 0, []
1628601469.718, 26, 0, 4197.949, 3771.282, 4131.795, 4126.154, 4154.359, 0, 0, []
1628601469.7259, 27, 0, 4187.179, 3768.718, 4133.333, 4123.59, 4147.692, 0, 0, []
1628601469.7337, 28, 0, 4200.513, 3767.179, 4130.256, 4152.308, 4155.385, 0, 0, []
1628601469.7416, 29, 0, 4201.026, 3759.487, 4134.872, 4155.385, 4156.923, 0, 0, []
1628601469.7494, 30, 0, 4192.308, 3760, 4133.333, 4132.308, 4152.308, 0, 0, []
1628601469.7572, 31, 0, 4196.41, 3772.821, 4131.282, 4123.59, 4153.333, 0, 0, []
1628601469.765, 32, 0, 4197.436, 3793.846, 4133.333, 4126.154, 4157.436, 0, 0, []
1628601469.773, 33, 0, 4187.692, 3807.179, 4121.538, 4115.385, 4157.436, 0, 0, []
1628601469.7809, 34, 0, 4183.59, 3794.359, 4121.538, 4102.051, 4153.846, 0, 0, []
1628601469.7889, 35, 0, 4192.308, 3777.436, 4130.769, 4090.256, 4156.41, 0, 0, []
1628601469.7967, 36, 0, 4202.564, 3801.538, 4138.974, 4075.897, 4163.077, 0, 0, []
1628601469.8047, 37, 0, 4200.513, 3833.846, 4143.59, 4065.128, 4161.026, 0, 0, []
1628601469.8126, 38, 0, 4190.256, 3824.103, 4130.256, 4061.026, 4156.41, 0, 0, []
1628601469.8204, 39, 0, 4183.077, 3818.462, 4130.256, 4053.333, 4154.359, 0, 0, []
1628601469.8283, 40, 0, 4181.538, 3847.692, 4135.897, 4045.128, 4154.872, 0, 0, []
1628601469.836, 41, 0, 4183.59, 3852.821, 4131.282, 4046.667, 4155.897, 0, 0, []
1628601469.8439, 42, 0, 4183.59, 3833.333, 4127.179, 4047.179, 4157.949, 0, 0, []
1628601469.8517, 43, 0, 4184.615, 3845.641, 4114.872, 4031.795, 4156.923, 0, 0, []
1628601469.8596, 44, 0, 4186.667, 3861.026, 4122.051, 4009.744, 4150.769, 0, 0, []
1628601469.8674, 45, 0, 4173.333, 3841.538, 4133.846, 4000, 4141.026, 0, 0, []
1628601469.8752, 46, 0, 4164.103, 3835.897, 4129.231, 3999.487, 4133.333, 0, 0, []
1628601469.883, 47, 0, 4187.179, 3868.718, 4134.359, 4003.59, 4148.205, 0, 0, []
1628601469.8909, 48, 0, 4205.128, 3887.179, 4134.872, 4020, 4167.179, 0, 0, []
1628601469.8987, 49, 0, 4191.282, 3873.846, 4135.897, 4039.487, 4164.615, 0, 0, []
1628601469.9066, 50, 0, 4175.385, 3873.846, 4133.846, 4042.564, 4149.744, 0, 0, []
1628601469.9143, 51, 0, 4176.41, 3892.821, 4130.769, 4027.692, 4138.462, 0, 0, []
1628601469.9223, 52, 0, 4184.615, 3896.41, 4141.538, 4023.077, 4136.41, 0, 0, []
1628601469.9302, 53, 0, 4181.538, 3887.179, 4130.769, 4030.256, 4136.41, 0, 0, []
1628601469.9382, 54, 0, 4167.179, 3889.744, 4125.641, 4025.128, 4130.769, 0, 0, []
1628601469.9461, 55, 0, 4161.538, 3896.923, 4138.974, 4018.462, 4128.205, 0, 0, []
1628601469.954, 56, 0, 4171.795, 3894.359, 4138.462, 4026.154, 4141.026, 0, 0, []
1628601469.9619, 57, 0, 4180, 3890.256, 4138.974, 4041.538, 4150.256, 0, 0, []
1628601469.9699, 58, 0, 4178.974, 3896.41, 4130.769, 4047.692, 4145.128, 0, 0, []
1628601469.9778, 59, 0, 4181.538, 3909.744, 4123.59, 4055.897, 4150.256, 0, 0, []
1628601469.9856, 60, 0, 4185.128, 3919.487, 4128.718, 4062.051, 4151.795, 0, 0, []
1628601469.9934, 61, 0, 4179.487, 3925.128, 4124.615, 4039.487, 4133.846, 0, 0, []
1628601470.0012, 62, 0, 4187.179, 3927.692, 4127.692, 4021.538, 4141.026, 0, 0, []
1628601470.0091, 63, 0, 4224.615, 3929.231, 4134.359, 4031.282, 4183.59, 0, 0, []
1628601470.0169, 64, 0, 4264.103, 3938.462, 4137.436, 4036.41, 4220.513, 450, 0, []
1628601470.0248, 65, 0, 4292.308, 3947.179, 4136.41, 4026.667, 4245.128, 450, 0, []
1628601470.0325, 66, 0, 4322.051, 3949.231, 4135.385, 4032.821, 4276.923, 16185, 0, []
1628601470.0404, 67, 0, 4349.231, 3951.795, 4146.154, 4060, 4306.667, 450, 0, []
1628601470.0482, 68, 0, 4366.154, 3943.59, 4134.872, 4074.359, 4324.615, 16165, 0, []
1628601470.0561, 69, 0, 4370.256, 3934.872, 4125.641, 4076.923, 4329.231, 450, 0, []
1628601470.0639, 70, 0, 4349.744, 3958.974, 4138.462, 4081.538, 4321.026, 16179, 0, []
1628601470.0717, 71, 0, 4308.718, 3968.718, 4127.692, 4074.872, 4300.513, 450, 0, []
1628601470.0795, 72, 0, 4268.205, 3942.564, 4121.026, 4060.513, 4269.744, 450, 0, []
1628601470.0875, 73, 0, 4245.641, 3948.718, 4127.692, 4063.59, 4255.385, 16074, 0, []
1628601470.0954, 74, 0, 4240.513, 3978.462, 4126.667, 4074.359, 4269.744, 450, 0, []
1628601470.1034, 75, 0, 4229.744, 3977.949, 4130.769, 4077.436, 4267.692, 16192, 0, []
1628601470.1113, 76, 0, 4208.205, 3968.205, 4133.333, 4075.897, 4235.385, 450, 0, []
1628601470.1192, 77, 0, 4186.667, 3976.923, 4137.949, 4074.359, 4210.769, 450, 0, []
1628601470.1271, 78, 0, 4172.308, 3973.846, 4139.487, 4076.41, 4200, 450, 0, []
1628601470.1351, 79, 0, 4167.179, 3971.795, 4131.795, 4083.59, 4188.718, 16192, 0, []
1628601470.143, 80, 0, 4166.667, 4002.051, 4137.949, 4089.231, 4184.103, 450, 0, []
1628601470.1508, 81, 0, 4168.205, 4012.821, 4150.256, 4088.205, 4188.718, 450, 0, []
1628601470.1586, 82, 0, 4168.718, 3994.359, 4149.744, 4087.179, 4181.538, 450, 0, []
1628601470.1664, 83, 0, 4168.718, 3998.974, 4136.41, 4091.282, 4174.359, 16192, 0, []
1628601470.1743, 84, 0, 4162.564, 4007.692, 4140, 4088.205, 4170.256, 450, 0, []
1628601470.1821, 85, 0, 4143.077, 3987.179, 4161.538, 4080.513, 4148.718, 450, 0, []
1628601470.19, 86, 0, 4137.949, 3981.538, 4150.769, 4078.974, 4133.846, 450, 0, []
1628601470.1977, 87, 0, 4151.795, 3990.769, 4135.897, 4076.923, 4134.872, 16192, 0, []
1628601470.2056, 88, 0, 4150.256, 3970.769, 4136.923, 4077.436, 4123.077, 450, 0, []
1628601470.2135, 89, 0, 4131.282, 3967.692, 4127.179, 4077.436, 4102.051, 450, 0, []
1628601470.2214, 90, 0, 4131.795, 4007.692, 4127.179, 4072.308, 4101.538, 450, 0, []
1628601470.2293, 91, 0, 4142.051, 4018.974, 4130.256, 4077.436, 4098.462, 16192, 0, []
1628601470.237, 92, 0, 4130.256, 4006.667, 4137.949, 4083.077, 4077.436, 450, 0, []
1628601470.245, 93, 0, 4124.103, 4027.692, 4146.154, 4080, 4070.769, 450, 0, []
1628601470.2529, 94, 0, 4144.615, 4049.744, 4138.974, 4083.077, 4080.513, 450, 0, []
1628601470.2608, 95, 0, 4158.462, 4052.308, 4141.538, 4098.974, 4082.564, 16192, 0, []
1628601470.2688, 96, 0, 4152.308, 4064.615, 4130.769, 4096.923, 4073.846, 450, 0, []
1628601470.2766, 97, 0, 4150.769, 4073.846, 4124.103, 4084.615, 4064.103, 450, 0, []
1628601470.2846, 98, 0, 4153.846, 4065.641, 4138.974, 4093.333, 4050.256, 450, 0, []
1628601470.2925, 99, 0, 4142.564, 4056.923, 4142.051, 4098.462, 4032.821, 16192, 0, []
1628601470.3003, 100, 0, 4121.538, 4053.846, 4145.128, 4081.026, 4009.231, 450, 0, []
1628601470.3082, 101, 0, 4114.872, 4055.897, 4141.026, 4067.179, 3991.282, 450, 0, []
1628601470.3159, 102, 0, 4128.718, 4065.128, 4134.359, 4070.256, 3993.846, 450, 0, []
1628601470.3238, 103, 0, 4133.333, 4073.846, 4135.897, 4071.795, 3992.308, 16192, 0, []
1628601470.3316, 104, 0, 4129.744, 4092.821, 4130.256, 4064.103, 3983.59, 450, 0, []
1628601470.3395, 105, 0, 4138.462, 4114.359, 4132.308, 4059.487, 3984.103, 450, 0, []
1628601470.3473, 106, 0, 4145.641, 4108.718, 4125.128, 4069.744, 3984.103, 450, 0, []
1628601470.3551, 107, 0, 4148.718, 4103.59, 4116.923, 4085.641, 3985.128, 16192, 0, []
1628601470.3629, 108, 0, 4157.949, 4113.846, 4126.667, 4086.667, 3987.692, 450, 0, []
1628601470.3709, 109, 0, 4155.385, 4111.282, 4131.795, 4078.974, 3976.41, 450, 0, []
1628601470.3788, 110, 0, 4134.872, 4108.205, 4139.487, 4074.359, 3952.821, 450, 0, []
1628601470.3868, 111, 0, 4122.564, 4125.128, 4136.41, 4076.923, 3936.41, 16192, 0, []
1628601470.3946, 112, 0, 4125.128, 4119.487, 4124.103, 4083.59, 3927.179, 450, 0, []
1628601470.4026, 113, 0, 4135.897, 4106.154, 4135.385, 4089.744, 3932.821, 450, 0, []
1628601470.4105, 114, 0, 4138.462, 4136.41, 4140, 4081.026, 3940, 450, 0, []
1628601470.4185, 115, 0, 4126.667, 4162.051, 4131.795, 4068.205, 3926.667, 16192, 0, []
1628601470.4264, 116, 0, 4115.897, 4140.513, 4127.179, 4064.615, 3908.718, 450, 0, []
1628601470.4343, 117, 0, 4107.179, 4128.718, 4126.154, 4067.179, 3890.769, 450, 0, []
1628601470.4422, 118, 0, 4102.564, 4143.59, 4138.462, 4076.923, 3880, 450, 0, []
1628601470.45, 119, 0, 4113.333, 4140.513, 4139.487, 4080, 3889.231, 16192, 0, []
1628601470.4579, 120, 0, 4124.103, 4132.821, 4125.641, 4069.744, 3893.333, 450, 0, []
1628601470.4657, 121, 0, 4118.974, 4141.026, 4128.718, 4066.154, 3883.59, 450, 0, []
1628601470.4735, 122, 0, 4109.744, 4152.821, 4137.436, 4071.282, 3871.795, 450, 0, []
1628601470.4813, 123, 0, 4106.154, 4166.667, 4135.897, 4069.744, 3865.128, 16192, 0, []
1628601470.4892, 124, 0, 4108.205, 4167.179, 4133.333, 4063.077, 3869.744, 450, 0, []
1628601470.497, 125, 0, 4108.205, 4154.359, 4134.872, 4065.128, 3876.41, 450, 0, []
1628601470.5049, 126, 0, 4110.256, 4171.795, 4137.436, 4085.128, 3880, 450, 0, []
1628601470.5126, 127, 0, 4129.744, 4194.359, 4134.872, 4111.282, 3894.359, 16192, 0, []
1628601470.5205, 128, 0, 4145.641, 4176.923, 4140.513, 4115.385, 3903.59, 450, 0, []
1628601470.5283, 0, 0, 4129.744, 4170.256, 4137.436, 4102.564, 3886.154, 450, 0, []
1628601470.5363, 1, 0, 4110.256, 4191.795, 4124.615, 4093.846, 3874.359, 450, 0, []
1628601470.5442, 2, 0, 4105.641, 4181.026, 4134.872, 4090.256, 3870.256, 16185, 0, []
1628601470.5521, 3, 0, 4101.538, 4160.513, 4138.974, 4078.974, 3849.231, 450, 0, []
1628601470.56, 4, 0, 4104.103, 4171.282, 4135.385, 4081.026, 3846.667, 16161, 0, []
1628601470.568, 5, 0, 4111.282, 4187.692, 4130.256, 4092.821, 3862.051, 450, 0, []
1628601470.5759, 6, 0, 4100, 4178.974, 4121.538, 4090.256, 3853.333, 16176, 0, []
1628601470.5839, 7, 0, 4094.359, 4166.667, 4134.872, 4092.308, 3842.564, 450, 0, []
1628601470.5917, 8, 0, 4110.769, 4178.462, 4143.59, 4103.077, 3854.872, 450, 0, []
1628601470.5997, 9, 0, 4123.59, 4194.359, 4138.974, 4102.564, 3864.103, 16074, 0, []
1628601470.6076, 10, 0, 4122.051, 4183.59, 4138.974, 4100.513, 3864.103, 450, 0, []
1628601470.6154, 11, 0, 4114.359, 4173.846, 4132.821, 4104.615, 3862.051, 16193, 0, []
1628601470.6233, 12, 0, 4106.667, 4191.795, 4127.692, 4099.487, 3850.769, 450, 0, []
1628601470.631, 13, 0, 4104.615, 4199.487, 4115.897, 4087.692, 3841.026, 450, 0, []
1628601470.6389, 14, 0, 4110.256, 4190.256, 4109.231, 4095.897, 3851.282, 450, 0, []
1628601470.6467, 15, 0, 4107.179, 4195.897, 4117.436, 4107.179, 3858.462, 16193, 0, []
1628601470.6546, 16, 0, 4098.462, 4208.718, 4109.744, 4100.513, 3846.667, 0, 0, []
1628601470.6624, 17, 0, 4106.154, 4200.513, 4101.538, 4109.744, 3847.179, 0, 0, []
1628601470.6702, 18, 0, 4109.744, 4185.128, 4102.564, 4124.103, 3854.872, 0, 0, []
1628601470.678, 19, 0, 4092.821, 4192.821, 4092.821, 4108.205, 3840, 0, 0, []
1628601470.6859, 20, 0, 4082.051, 4197.949, 4094.359, 4097.949, 3826.154, 0, 0, []
1628601470.6937, 21, 0, 4097.949, 4193.333, 4094.872, 4116.923, 3841.026, 0, 0, []
1628601470.7017, 22, 0, 4112.821, 4202.051, 4092.308, 4124.615, 3853.333, 0, 0, []
1628601470.7095, 23, 0, 4100.513, 4204.615, 4109.231, 4103.077, 3838.974, 0, 0, []
1628601470.7175, 24, 0, 4086.667, 4183.077, 4122.564, 4097.949, 3828.205, 0, 0, []
1628601470.7254, 25, 0, 4092.308, 4172.821, 4128.205, 4115.897, 3834.359, 0, 0, []
1628601470.7334, 26, 0, 4085.128, 4184.103, 4124.103, 4107.692, 3820.513, 0, 0, []
1628601470.7413, 27, 0, 4053.333, 4184.103, 4128.205, 4075.897, 3787.179, 0, 0, []
1628601470.7492, 28, 0, 4059.487, 4200, 4150.256, 4087.179, 3798.462, 0, 0, []
1628601470.7571, 29, 0, 4094.872, 4221.538, 4164.103, 4123.077, 3836.41, 0, 0, []
1628601470.7651, 30, 0, 4092.308, 4203.59, 4168.718, 4122.051, 3836.923, 0, 0, []
1628601470.773, 31, 0, 4074.872, 4184.103, 4161.026, 4106.667, 3821.026, 0, 0, []
1628601470.7808, 32, 0, 4084.103, 4201.538, 4176.923, 4124.615, 3826.154, 0, 0, []
1628601470.7886, 33, 0, 4103.59, 4225.641, 4186.667, 4149.231, 3844.615, 0, 0, []
1628601470.7964, 34, 0, 4112.308, 4230.256, 4163.59, 4142.051, 3858.462, 0, 0, []
1628601470.8043, 35, 0, 4104.103, 4213.333, 4163.59, 4130.256, 3854.872, 0, 0, []
1628601470.8121, 36, 0, 4087.179, 4203.077, 4158.974, 4138.974, 3841.026, 0, 0, []
1628601470.82, 37, 0, 4091.795, 4231.795, 4155.897, 4151.795, 3848.205, 0, 0, []
1628601470.8278, 38, 0, 4101.026, 4253.846, 4151.795, 4141.026, 3850.769, 0, 0, []
1628601470.8357, 39, 0, 4094.872, 4230.256, 4124.103, 4129.744, 3830.769, 0, 0, []
1628601470.8436, 40, 0, 4087.692, 4210.769, 4112.821, 4125.128, 3812.308, 0, 0, []
1628601470.8515, 41, 0, 4088.718, 4212.821, 4108.718, 4102.564, 3805.128, 0, 0, []
1628601470.8593, 42, 0, 4114.872, 4211.795, 4126.154, 4114.359, 3826.154, 0, 0, []
1628601470.8673, 43, 0, 4145.128, 4203.59, 4142.564, 4155.897, 3860.513, 0, 0, []
1628601470.8751, 44, 0, 4140.513, 4195.385, 4122.564, 4141.538, 3861.026, 0, 0, []
1628601470.8831, 45, 0, 4116.41, 4194.359, 4123.077, 4096.923, 3841.538, 0, 0, []
1628601470.891, 46, 0, 4110.769, 4204.615, 4135.385, 4101.538, 3843.077, 0, 0, []
1628601470.899, 47, 0, 4114.359, 4202.051, 4133.846, 4124.615, 3852.821, 0, 0, []
1628601470.9069, 48, 0, 4109.231, 4193.333, 4128.718, 4121.538, 3847.692, 0, 0, []
1628601470.9148, 49, 0, 4105.641, 4215.897, 4122.564, 4117.436, 3849.231, 0, 0, []
1628601470.9227, 50, 0, 4112.308, 4237.436, 4141.026, 4126.154, 3857.949, 0, 0, []
1628601470.9305, 51, 0, 4120, 4234.872, 4142.051, 4130.769, 3863.077, 0, 0, []
1628601470.9384, 52, 0, 4115.385, 4259.487, 4126.667, 4129.231, 3864.103, 0, 0, []
1628601470.9462, 53, 0, 4104.103, 4303.59, 4135.897, 4129.231, 3866.154, 0, 0, []
1628601470.954, 54, 0, 4096.923, 4293.846, 4130.256, 4127.692, 3861.538, 0, 0, []
1628601470.9618, 55, 0, 4090.256, 4276.923, 4127.692, 4133.846, 3851.795, 0, 0, []
1628601470.9697, 56, 0, 4075.897, 4299.487, 4128.718, 4133.333, 3843.077, 0, 0, []
1628601470.9775, 57, 0, 4062.051, 4307.692, 4120.513, 4113.846, 3833.846, 0, 0, []
1628601470.9854, 58, 0, 4067.692, 4303.077, 4135.897, 4112.308, 3834.359, 0, 0, []
1628601470.9931, 59, 0, 4080, 4325.641, 4142.564, 4127.179, 3850.256, 0, 0, []
1628601471.001, 60, 0, 4074.359, 4346.667, 4138.974, 4128.718, 3862.051, 0, 0, []
1628601471.0088, 61, 0, 4074.872, 4346.667, 4135.897, 4126.154, 3868.718, 0, 0, []
1628601471.0168, 62, 0, 4086.667, 4366.667, 4135.897, 4134.872, 3872.821, 0, 0, []
1628601471.0247, 63, 0, 4066.154, 4387.692, 4142.564, 4126.154, 3851.795, 0, 0, []
1628601471.0326, 64, 0, 4039.487, 4378.462, 4131.795, 4104.615, 3833.846, 450, 0, []
1628601471.0405, 65, 0, 4070.769, 4388.718, 4149.231, 4125.641, 3868.718, 450, 0, []
1628601471.0485, 66, 0, 4123.59, 4434.872, 4166.667, 4171.795, 3917.949, 16185, 0, []
1628601471.0564, 67, 0, 4118.974, 4445.128, 4143.077, 4174.359, 3923.59, 450, 0, []
1628601471.0644, 68, 0, 4078.462, 4421.026, 4141.026, 4147.179, 3896.41, 16161, 0, []
1628601471.0722, 69, 0, 4064.615, 4435.897, 4143.59, 4141.026, 3882.564, 450, 0, []
1628601471.08, 70, 0, 4064.103, 4452.308, 4138.462, 4143.59, 3880.513, 16173, 0, []
1628601471.0879, 71, 0, 4054.359, 4435.385, 4137.436, 4136.41, 3871.795, 450, 0, []
1628601471.0957, 72, 0, 4066.154, 4442.564, 4137.436, 4149.231, 3881.026, 450, 0, []
1628601471.1036, 73, 0, 4095.897, 4463.077, 4155.897, 4171.282, 3911.795, 16074, 0, []
1628601471.1113, 74, 0, 4088.718, 4446.154, 4145.128, 4150.256, 3912.308, 450, 0, []
1628601471.1192, 75, 0, 4062.051, 4423.59, 4132.308, 4127.692, 3887.692, 16201, 0, []
1628601471.127, 76, 0, 4075.385, 4437.949, 4149.744, 4158.974, 3894.872, 450, 0, []
1628601471.1349, 77, 0, 4098.974, 4457.949, 4140.513, 4186.154, 3915.897, 450, 0, []
1628601471.1427, 78, 0, 4098.974, 4459.487, 4138.974, 4177.949, 3921.026, 450, 0, []
1628601471.1505, 79, 0, 4106.154, 4466.667, 4143.59, 4173.333, 3926.154, 16201, 0, []
1628601471.1583, 80, 0, 4116.41, 4481.538, 4135.385, 4172.308, 3925.641, 450, 0, []
1628601471.1663, 81, 0, 4095.385, 4484.615, 4138.462, 4164.615, 3906.154, 450, 0, []
1628601471.1742, 82, 0, 4073.846, 4474.872, 4134.359, 4155.897, 3888.205, 450, 0, []
1628601471.1822, 83, 0, 4076.923, 4458.462, 4134.359, 4143.077, 3878.974, 16201, 0, []
1628601471.19, 84, 0, 4073.846, 4450.769, 4127.692, 4129.231, 3862.564, 450, 0, []
1628601471.198, 85, 0, 4066.667, 4465.641, 4128.205, 4129.744, 3852.308, 450, 0, []
1628601471.2059, 86, 0, 4078.462, 4481.538, 4145.641, 4129.744, 3854.872, 450, 0, []
1628601471.2138, 87, 0, 4093.333, 4471.795, 4134.359, 4130.256, 3861.026, 16201, 0, []
1628601471.2216, 88, 0, 4095.385, 4476.923, 4125.641, 4143.59, 3872.821, 450, 0, []
1628601471.2295, 89, 0, 4092.308, 4504.103, 4124.615, 4143.077, 3878.462, 450, 0, []
1628601471.2374, 90, 0, 4092.308, 4505.641, 4125.128, 4137.436, 3872.821, 450, 0, []
1628601471.2454, 91, 0, 4091.795, 4485.641, 4139.487, 4139.487, 3870.256, 16201, 0, []
1628601471.2533, 92, 0, 4093.333, 4480, 4135.385, 4135.897, 3879.487, 450, 0, []
1628601471.2611, 93, 0, 4093.846, 4475.897, 4143.59, 4136.41, 3885.128, 450, 0, []
1628601471.2689, 94, 0, 4085.641, 4462.564, 4149.231, 4136.923, 3876.41, 450, 0, []
1628601471.2767, 95, 0, 4073.846, 4460, 4128.718, 4121.026, 3859.487, 16201, 0, []
1628601471.2846, 96, 0, 4062.564, 4455.897, 4130.256, 4106.667, 3843.077, 450, 0, []
1628601471.2924, 97, 0, 4062.051, 4446.667, 4137.949, 4110.256, 3842.564, 450, 0, []
1628601471.3003, 98, 0, 4067.692, 4448.205, 4150.769, 4113.846, 3848.205, 450, 0, []
1628601471.308, 99, 0, 4058.462, 4447.179, 4146.154, 4108.718, 3837.436, 16201, 0, []
1628601471.316, 100, 0, 4047.179, 4434.872, 4122.051, 4105.641, 3822.564, 450, 0, []
1628601471.3239, 101, 0, 4058.974, 4437.949, 4139.487, 4108.718, 3828.205, 450, 0, []
1628601471.3319, 102, 0, 4081.538, 4453.846, 4144.615, 4120, 3853.333, 450, 0, []
1628601471.3398, 103, 0, 4086.154, 4440, 4132.821, 4131.282, 3867.179, 16201, 0, []
1628601471.3477, 104, 0, 4076.41, 4420.513, 4136.41, 4121.026, 3864.615, 450, 0, []
1628601471.3556, 105, 0, 4072.308, 4424.615, 4123.59, 4100, 3858.974, 450, 0, []
1628601471.3636, 106, 0, 4082.564, 4445.641, 4131.795, 4108.205, 3864.615, 450, 0, []
1628601471.3715, 107, 0, 4096.41, 4455.897, 4137.949, 4123.59, 3880.513, 16201, 0, []
1628601471.3795, 108, 0, 4089.231, 4435.897, 4122.051, 4109.744, 3882.051, 450, 0, []
1628601471.3873, 109, 0, 4064.103, 4407.692, 4118.974, 4091.795, 3862.051, 450, 0, []
1628601471.3951, 110, 0, 4055.897, 4411.795, 4120.513, 4092.821, 3852.821, 450, 0, []
1628601471.403, 111, 0, 4069.231, 4452.821, 4132.308, 4100.513, 3863.077, 16201, 0, []
1628601471.4108, 112, 0, 4078.974, 4470.769, 4127.692, 4103.59, 3868.718, 450, 0, []
1628601471.4187, 113, 0, 4083.077, 4441.026, 4127.179, 4111.795, 3875.897, 450, 0, []
1628601471.4264, 114, 0, 4088.205, 4427.179, 4144.615, 4120.513, 3891.795, 450, 0, []
1628601471.4343, 115, 0, 4094.359, 4444.615, 4137.436, 4122.564, 3901.538, 16201, 0, []
1628601471.4421, 116, 0, 4090.769, 4434.359, 4143.59, 4119.487, 3896.41, 450, 0, []
1628601471.45, 117, 0, 4079.487, 4402.051, 4144.615, 4109.744, 3893.333, 450, 0, []
1628601471.4578, 118, 0, 4074.872, 4406.154, 4134.872, 4105.128, 3896.923, 450, 0, []
1628601471.4657, 119, 0, 4075.385, 4418.462, 4144.615, 4112.308, 3897.436, 16201, 0, []
1628601471.4736, 120, 0, 4072.308, 4409.744, 4142.564, 4113.333, 3895.897, 450, 0, []
1628601471.4816, 121, 0, 4065.128, 4404.615, 4152.308, 4107.692, 3892.308, 450, 0, []
1628601471.4895, 122, 0, 4060, 4411.282, 4146.154, 4110.769, 3886.154, 450, 0, []
1628601471.4975, 123, 0, 4054.359, 4419.487, 4123.59, 4118.462, 3883.077, 16201, 0, []
1628601471.5053, 124, 0, 4048.205, 4413.846, 4135.385, 4109.744, 3878.974, 450, 0, []
1628601471.5133, 125, 0, 4050.769, 4399.487, 4129.744, 4099.487, 3874.872, 450, 0, []
1628601471.5212, 126, 0, 4065.641, 4418.974, 4127.179, 4117.436, 3888.718, 450, 0, []
1628601471.5292, 127, 0, 4071.282, 4451.795, 4134.359, 4130.769, 3903.077, 16201, 0, []
1628601471.5371, 128, 0, 4052.308, 4444.103, 4129.231, 4114.359, 3889.744, 450, 0, []
1628601471.545, 0, 0, 4046.667, 4421.538, 4133.846, 4107.692, 3882.051, 450, 0, []
1628601471.5529, 1, 0, 4070.256, 4426.154, 4120.513, 4118.462, 3904.103, 450, 0, []
1628601471.5607, 2, 0, 4081.538, 4441.026, 4127.179, 4126.667, 3922.564, 16185, 0, []
1628601471.5686, 3, 0, 4064.103, 4444.615, 4134.872, 4125.128, 3916.41, 450, 0, []
1628601471.5764, 4, 0, 4045.641, 4424.103, 4111.795, 4114.359, 3900, 16155, 0, []
1628601471.5843, 5, 0, 4049.231, 4407.179, 4125.128, 4108.718, 3900.513, 450, 0, []
1628601471.592, 6, 0, 4061.538, 4427.179, 4131.795, 4118.462, 3912.308, 16170, 0, []
1628601471.5999, 7, 0, 4059.487, 4435.897, 4123.077, 4128.205, 3912.308, 450, 0, []
1628601471.6077, 8, 0, 4053.846, 4410.769, 4121.538, 4130.769, 3914.359, 450, 0, []
1628601471.6156, 9, 0, 4063.59, 4414.359, 4117.436, 4136.41, 3930.256, 16074, 0, []
1628601471.6234, 10, 0, 4061.026, 4431.282, 4137.436, 4132.308, 3929.744, 450, 0, []
1628601471.6313, 11, 0, 4043.59, 4403.59, 4130.256, 4115.897, 3922.564, 16203, 0, []
1628601471.6392, 12, 0, 4038.974, 4378.974, 4118.974, 4112.821, 3928.205, 450, 0, []
1628601471.6472, 13, 0, 4025.128, 4394.872, 4125.641, 4109.231, 3907.692, 450, 0, []
1628601471.6551, 14, 0, 4002.051, 4393.846, 4115.897, 4098.462, 3875.385, 450, 0, []
1628601471.6631, 15, 0, 4022.051, 4387.692, 4137.436, 4117.436, 3894.872, 16203, 0, []
1628601471.6709, 16, 0, 4070.769, 4416.923, 4144.103, 4143.077, 3938.974, 0, 0, []
1628601471.6789, 17, 0, 4091.282, 4438.462, 4127.179, 4132.821, 3950.256, 0, 0, []
1628601471.6868, 18, 0, 4098.462, 4418.974, 4136.923, 4123.59, 3957.949, 0, 0, []
1628601471.6948, 19, 0, 4117.436, 4404.103, 4136.923, 4135.385, 3983.59, 0, 0, []
1628601471.7027, 20, 0, 4122.564, 4424.615, 4135.897, 4138.462, 3996.41, 0, 0, []
1628601471.7104, 21, 0, 4106.667, 4432.308, 4133.846, 4130.256, 3989.744, 0, 0, []
1628601471.7183, 22, 0, 4096.41, 4410.256, 4137.949, 4127.179, 3988.718, 0, 0, []
1628601471.7261, 23, 0, 4097.436, 4400, 4144.103, 4133.846, 4001.026, 0, 0, []
1628601471.734, 24, 0, 4087.692, 4417.436, 4116.41, 4135.385, 3997.436, 0, 0, []
1628601471.7418, 25, 0, 4067.692, 4419.487, 4121.538, 4130.256, 3976.923, 0, 0, []
1628601471.7496, 26, 0, 4058.974, 4390.769, 4134.872, 4134.872, 3973.846, 0, 0, []
1628601471.7574, 27, 0, 4064.615, 4384.103, 4120, 4142.564, 3985.641, 0, 0, []
1628601471.7653, 28, 0, 4067.692, 4400, 4127.692, 4136.923, 3990.256, 0, 0, []
1628601471.7731, 29, 0, 4060, 4390.769, 4125.641, 4130.769, 3986.154, 0, 0, []
1628601471.781, 30, 0, 4051.282, 4380.513, 4132.821, 4132.308, 3985.128, 0, 0, []
1628601471.7887, 31, 0, 4058.974, 4403.077, 4154.872, 4141.026, 3994.872, 0, 0, []
1628601471.7966, 32, 0, 4078.974, 4418.974, 4148.718, 4162.051, 4017.949, 0, 0, []
1628601471.8044, 33, 0, 4079.487, 4403.59, 4139.487, 4169.231, 4027.179, 0, 0, []
1628601471.8124, 34, 0, 4057.949, 4375.385, 4130.769, 4148.205, 4010.256, 0, 0, []
1628601471.8203, 35, 0, 4044.103, 4363.077, 4141.538, 4129.744, 3997.436, 0, 0, []
1628601471.8282, 36, 0, 4053.846, 4386.667, 4149.744, 4137.436, 4008.718, 0, 0, []
1628601471.8361, 37, 0, 4075.385, 4400, 4136.923, 4159.487, 4040.513, 0, 0, []
1628601471.8441, 38, 0, 4083.59, 4389.744, 4145.128, 4171.795, 4063.59, 0, 0, []
1628601471.852, 39, 0, 4078.462, 4392.308, 4133.333, 4165.641, 4059.487, 0, 0, []
1628601471.86, 40, 0, 4078.974, 4386.154, 4131.795, 4151.795, 4052.821, 0, 0, []
1628601471.8678, 41, 0, 4083.59, 4367.179, 4156.41, 4144.103, 4058.974, 0, 0, []
1628601471.8756, 42, 0, 4083.59, 4378.462, 4143.59, 4147.692, 4065.128, 0, 0, []
1628601471.8835, 43, 0, 4082.051, 4391.282, 4139.487, 4160, 4064.103, 0, 0, []
1628601471.8913, 44, 0, 4078.974, 4376.41, 4136.41, 4168.205, 4065.641, 0, 0, []
1628601471.8992, 45, 0, 4071.795, 4373.333, 4123.077, 4164.615, 4064.103, 0, 0, []
1628601471.9069, 46, 0, 4067.179, 4385.128, 4143.077, 4158.974, 4060.513, 0, 0, []
1628601471.9148, 47, 0, 4066.667, 4382.564, 4123.59, 4150.256, 4060, 0, 0, []
1628601471.9226, 48, 0, 4058.462, 4368.205, 4105.128, 4138.462, 4056.41, 0, 0, []
1628601471.9305, 49, 0, 4065.641, 4382.564, 4181.538, 4149.744, 4072.821, 0, 0, []
1628601471.9383, 50, 0, 4092.308, 4413.846, 4127.179, 4168.718, 4110.256, 0, 0, []
1628601471.9462, 51, 0, 4096.41, 4402.051, 4084.103, 4170.256, 4120, 0, 0, []
1628601471.9541, 52, 0, 4083.077, 4381.538, 4232.308, 4175.385, 4102.564, 0, 0, []
1628601471.9621, 53, 0, 4090.256, 4404.615, 4119.487, 4172.821, 4108.718, 0, 0, []
1628601471.97, 54, 0, 4102.051, 4399.487, 4086.667, 4164.615, 4131.282, 0, 0, []
1628601471.978, 55, 0, 4097.949, 4358.462, 4252.308, 4160.513, 4128.205, 0, 0, []
1628601471.9858, 56, 0, 4088.718, 4365.128, 4123.077, 4139.487, 4112.308, 0, 0, []
1628601471.9938, 57, 0, 4100, 4390.769, 4096.923, 4139.487, 4127.179, 0, 0, []
1628601472.0017, 58, 0, 4149.744, 4376.923, 4189.744, 4172.821, 4185.641, 0, 0, []
1628601472.0097, 59, 0, 4200, 4358.974, 4112.821, 4169.231, 4238.462, 0, 0, []
1628601472.0176, 60, 0, 4219.487, 4377.436, 4108.205, 4138.974, 4260.513, 0, 0, []
1628601472.0254, 61, 0, 4236.923, 4405.128, 4167.179, 4139.487, 4283.59, 0, 0, []
1628601472.0333, 62, 0, 4266.154, 4391.795, 4096.41, 4149.231, 4306.667, 0, 0, []
1628601472.0411, 63, 0, 4278.462, 4366.154, 4115.897, 4149.231, 4308.718, 0, 0, []
1628601472.049, 64, 0, 4276.41, 4378.462, 4191.795, 4162.564, 4308.718, 450, 0, []
1628601472.0568, 65, 0, 4274.359, 4386.154, 4109.231, 4190.769, 4321.538, 450, 0, []
1628601472.0646, 66, 0, 4244.615, 4358.974, 4167.179, 4209.744, 4307.692, 16185, 0, []
1628601472.0724, 67, 0, 4188.205, 4354.359, 4165.641, 4190.256, 4261.026, 450, 0, []
1628601472.0804, 68, 0, 4144.615, 4375.385, 4071.795, 4166.154, 4225.128, 16155, 0, []
1628601472.0883, 69, 0, 4128.205, 4392.308, 4148.718, 4182.564, 4221.538, 450, 0, []
1628601472.0963, 70, 0, 4108.205, 4393.333, 4134.359, 4188.718, 4217.436, 16172, 0, []
1628601472.1041, 71, 0, 4083.077, 4377.436, 4094.872, 4160.513, 4201.026, 450, 0, []
1628601472.1121, 72, 0, 4075.897, 4366.667, 4124.615, 4149.231, 4198.462, 450, 0, []
1628601472.12, 73, 0, 4066.154, 4359.487, 4123.077, 4161.538, 4195.385, 16074, 0, []
1628601472.128, 74, 0, 4044.615, 4349.744, 4146.667, 4165.641, 4179.487, 450, 0, []
1628601472.1359, 75, 0, 4025.128, 4340.513, 4142.564, 4150.769, 4164.103, 16202, 0, []
1628601472.1438, 76, 0, 4006.154, 4328.205, 4103.59, 4134.872, 4147.692, 450, 0, []
1628601472.1517, 77, 0, 4011.795, 4328.205, 4144.103, 4154.872, 4157.436, 450, 0, []
1628601472.1597, 78, 0, 4059.487, 4357.949, 4161.538, 4196.41, 4214.359, 450, 0, []
1628601472.1676, 79, 0, 4088.718, 4380, 4122.051, 4201.538, 4251.282, 16202, 0, []
1628601472.1754, 80, 0, 4055.897, 4361.538, 4124.103, 4156.923, 4216.923, 450, 0, []
1628601472.1832, 81, 0, 4016.41, 4343.077, 4105.128, 4120.513, 4171.282, 450, 0, []
1628601472.191, 82, 0, 4013.333, 4348.718, 4111.282, 4131.795, 4156.923, 450, 0, []
1628601472.1989, 83, 0, 4015.385, 4352.308, 4126.154, 4147.692, 4154.359, 16202, 0, []
1628601472.2068, 84, 0, 4013.846, 4337.949, 4113.846, 4149.744, 4157.949, 450, 0, []
1628601472.2147, 85, 0, 4030.256, 4335.897, 4125.128, 4162.051, 4168.718, 450, 0, []
1628601472.2225, 86, 0, 4048.718, 4361.538, 4133.333, 4170.256, 4174.359, 450, 0, []
1628601472.2304, 87, 0, 4051.795, 4358.462, 4143.59, 4156.41, 4170.769, 16202, 0, []
1628601472.2382, 88, 0, 4044.103, 4334.359, 4128.205, 4123.077, 4157.436, 450, 0, []
1628601472.2462, 89, 0, 4027.692, 4334.872, 4131.282, 4103.077, 4132.821, 450, 0, []
1628601472.2541, 90, 0, 4019.487, 4334.359, 4131.282, 4121.026, 4114.872, 450, 0, []
1628601472.262, 91, 0, 4033.333, 4324.103, 4124.103, 4155.897, 4122.051, 16202, 0, []
1628601472.2699, 92, 0, 4050.769, 4340, 4152.308, 4175.897, 4136.41, 450, 0, []
1628601472.2779, 93, 0, 4053.846, 4357.949, 4131.282, 4181.026, 4141.026, 450, 0, []
1628601472.2858, 94, 0, 4046.154, 4331.795, 4131.795, 4177.436, 4140.513, 450, 0, []
1628601472.2938, 95, 0, 4034.359, 4304.615, 4138.974, 4151.795, 4130.256, 16202, 0, []
1628601472.3016, 96, 0, 4026.667, 4314.359, 4116.41, 4115.385, 4108.718, 450, 0, []
1628601472.3096, 97, 0, 4028.718, 4331.282, 4129.231, 4099.487, 4100, 450, 0, []
1628601472.3175, 98, 0, 4037.436, 4335.385, 4127.179, 4106.667, 4114.872, 450, 0, []
1628601472.3253, 99, 0, 4043.077, 4341.026, 4138.462, 4122.564, 4121.538, 16202, 0, []
1628601472.3332, 100, 0, 4042.564, 4332.821, 4120.513, 4136.41, 4112.308, 450, 0, []
1628601472.341, 101, 0, 4038.974, 4308.205, 4131.282, 4150.769, 4109.231, 450, 0, []
1628601472.3488, 102, 0, 4035.897, 4310.256, 4145.128, 4153.333, 4108.718, 450, 0, []
1628601472.3566, 103, 0, 4033.333, 4336.923, 4083.59, 4135.385, 4095.897, 16202, 0, []
1628601472.3645, 104, 0, 4028.205, 4339.487, 4152.308, 4118.974, 4078.974, 450, 0, []
1628601472.3723, 105, 0, 4037.949, 4333.333, 4133.846, 4116.41, 4090.769, 450, 0, []
1628601472.3802, 106, 0, 4058.974, 4353.846, 4128.205, 4131.282, 4117.949, 450, 0, []
1628601472.3879, 107, 0, 4058.462, 4360.513, 4209.744, 4142.564, 4116.41, 16202, 0, []
1628601472.3959, 108, 0, 4048.718, 4352.821, 4056.923, 4133.846, 4104.615, 450, 0, []
1628601472.4038, 109, 0, 4067.179, 4357.436, 4097.949, 4151.282, 4126.154, 450, 0, []
1628601472.4118, 110, 0, 4082.051, 4358.462, 4188.718, 4168.718, 4145.128, 450, 0, []
1628601472.4197, 111, 0, 4058.974, 4354.872, 4092.308, 4135.385, 4122.564, 16202, 0, []
1628601472.4276, 112, 0, 4052.308, 4368.205, 4128.718, 4126.154, 4116.923, 450, 0, []
1628601472.4355, 113, 0, 4080.513, 4381.026, 4137.949, 4158.974, 4145.641, 450, 0, []
1628601472.4435, 114, 0, 4091.795, 4366.154, 4127.692, 4170.769, 4158.462, 450, 0, []
1628601472.4514, 115, 0, 4081.026, 4337.436, 4123.077, 4152.308, 4152.821, 16202, 0, []
1628601472.4594, 116, 0, 4076.41, 4321.538, 4104.615, 4143.077, 4154.359, 450, 0, []
1628601472.4672, 117, 0, 4071.282, 4338.462, 4129.744, 4151.795, 4154.359, 450, 0, []
1628601472.4751, 118, 0, 4061.026, 4356.41, 4113.846, 4149.231, 4150.769, 450, 0, []
1628601472.483, 119, 0, 4067.692, 4349.231, 4117.436, 4148.205, 4162.564, 16202, 0, []
1628601472.4908, 120, 0, 4081.538, 4344.615, 4123.59, 4155.385, 4173.333, 450, 0, []
1628601472.4987, 121, 0, 4073.333, 4335.897, 4108.718, 4148.205, 4160, 450, 0, []
1628601472.5064, 122, 0, 4062.051, 4322.564, 4122.051, 4136.41, 4151.795, 450, 0, []
1628601472.5143, 123, 0, 4076.41, 4325.641, 4114.359, 4137.436, 4170.256, 16202, 0, []
1628601472.5221, 124, 0, 4096.41, 4336.923, 4119.487, 4146.154, 4191.795, 450, 0, []
1628601472.53, 125, 0, 4083.59, 4321.026, 4125.128, 4129.231, 4187.692, 450, 0, []
1628601472.5378, 126, 0, 4063.59, 4289.231, 4114.872, 4106.154, 4173.333, 450, 0, []
1628601472.5457, 127, 0, 4080, 4293.846, 4130.769, 4116.923, 4180, 16202, 0, []
1628601472.5536, 128, 0, 4093.846, 4321.026, 4124.103, 4133.846, 4192.308, 450, 0, []
1628601472.5616, 0, 0, 4088.205, 4322.564, 4125.128, 4147.179, 4200.513, 450, 0, []
1628601472.5695, 1, 0, 4095.897, 4310.769, 4132.308, 4153.846, 4210.256, 450, 0, []
1628601472.5775, 2, 0, 4106.154, 4321.538, 4122.051, 4143.59, 4221.026, 16185, 0, []
1628601472.5853, 3, 0, 4113.333, 4329.231, 4140.513, 4150.769, 4234.359, 450, 0, []
1628601472.5933, 4, 0, 4123.077, 4314.359, 4122.051, 4164.615, 4235.385, 16155, 0, []
1628601472.6012, 5, 0, 4110.256, 4319.487, 4106.154, 4145.641, 4216.923, 450, 0, []
1628601472.6092, 6, 0, 4102.564, 4340.513, 4137.949, 4146.667, 4219.487, 16170, 0, []
1628601472.6171, 7, 0, 4129.744, 4355.385, 4144.103, 4187.179, 4249.744, 450, 0, []
1628601472.6248, 8, 0, 4136.41, 4370.769, 4142.564, 4186.154, 4256.41, 450, 0, []
1628601472.6327, 9, 0, 4117.949, 4365.128, 4129.744, 4154.359, 4245.641, 16074, 0, []
1628601472.6405, 10, 0, 4119.487, 4334.872, 4121.026, 4157.436, 4247.179, 450, 0, []
1628601472.6484, 11, 0, 4125.128, 4322.051, 4127.179, 4171.282, 4247.692, 16202, 0, []
1628601472.6562, 12, 0, 4124.103, 4330.769, 4122.051, 4168.205, 4255.385, 450, 0, []
1628601472.664, 13, 0, 4125.641, 4331.795, 4133.846, 4163.59, 4268.205, 450, 0, []
1628601472.6718, 14, 0, 4117.949, 4326.667, 4125.128, 4161.026, 4261.538, 450, 0, []
1628601472.6797, 15, 0, 4101.538, 4316.41, 4114.359, 4150.256, 4243.59, 16202, 0, []
1628601472.6875, 16, 0, 4100.513, 4302.051, 4137.949, 4140.513, 4242.051, 0, 0, []
1628601472.6954, 17, 0, 4122.051, 4308.718, 4140, 4150.256, 4265.128, 0, 0, []
1628601472.7031, 18, 0, 4130.769, 4325.128, 4144.103, 4163.077, 4276.923, 0, 0, []
1628601472.7111, 19, 0, 4108.205, 4308.718, 4132.308, 4149.744, 4262.564, 0, 0, []
1628601472.719, 20, 0, 4102.564, 4296.923, 4119.487, 4151.282, 4265.128, 0, 0, []
1628601472.727, 21, 0, 4112.308, 4312.308, 4137.949, 4163.59, 4275.385, 0, 0, []
1628601472.7349, 22, 0, 4090.769, 4300.513, 4118.974, 4131.795, 4254.359, 0, 0, []
1628601472.7428, 23, 0, 4087.692, 4297.949, 4116.923, 4123.59, 4256.923, 0, 0, []
1628601472.7507, 24, 0, 4122.051, 4322.564, 4131.795, 4160, 4292.308, 0, 0, []
1628601472.7587, 25, 0, 4124.615, 4309.231, 4116.41, 4165.641, 4289.744, 0, 0, []
1628601472.7666, 26, 0, 4105.641, 4286.154, 4123.59, 4159.487, 4272.308, 0, 0, []
1628601472.7746, 27, 0, 4122.564, 4301.538, 4127.179, 4182.564, 4294.359, 0, 0, []
1628601472.7824, 28, 0, 4143.077, 4303.077, 4134.872, 4188.205, 4319.487, 0, 0, []
1628601472.7902, 29, 0, 4136.923, 4290.769, 4138.462, 4167.179, 4317.436, 0, 0, []
1628601472.7981, 30, 0, 4133.333, 4316.41, 4121.026, 4168.205, 4316.923, 0, 0, []
1628601472.8059, 31, 0, 4137.436, 4328.718, 4130.256, 4175.385, 4325.641, 0, 0, []
1628601472.8138, 32, 0, 4138.974, 4309.744, 4123.077, 4170.256, 4329.231, 0, 0, []
1628601472.8215, 33, 0, 4136.923, 4306.154, 4117.436, 4169.744, 4326.667, 0, 0, []
1628601472.8294, 34, 0, 4133.846, 4314.872, 4124.615, 4175.385, 4326.154, 0, 0, []
1628601472.8372, 35, 0, 4134.359, 4313.333, 4118.974, 4176.41, 4328.718, 0, 0, []
1628601472.8451, 36, 0, 4131.795, 4303.077, 4136.41, 4167.692, 4324.103, 0, 0, []
1628601472.8529, 37, 0, 4137.949, 4312.308, 4135.897, 4158.974, 4328.205, 0, 0, []
1628601472.8607, 38, 0, 4157.949, 4322.564, 4137.436, 4163.59, 4351.795, 0, 0, []
1628601472.8685, 39, 0, 4160.513, 4298.974, 4144.615, 4168.205, 4357.436, 0, 0, []
1628601472.8765, 40, 0, 4151.795, 4292.821, 4127.179, 4165.128, 4345.641, 0, 0, []
1628601472.8844, 41, 0, 4154.359, 4320.513, 4146.154, 4172.308, 4345.641, 0, 0, []
1628601472.8924, 42, 0, 4156.41, 4316.41, 4153.846, 4188.205, 4352.821, 0, 0, []
1628601472.9002, 43, 0, 4156.923, 4285.641, 4148.205, 4186.154, 4354.872, 0, 0, []
1628601472.9082, 44, 0, 4162.564, 4295.385, 4156.41, 4171.282, 4353.333, 0, 0, []
1628601472.9161, 45, 0, 4162.564, 4326.667, 4143.077, 4165.128, 4352.821, 0, 0, []
1628601472.9241, 46, 0, 4153.846, 4320, 4142.051, 4163.59, 4348.718, 0, 0, []
1628601472.932, 47, 0, 4154.872, 4293.333, 4130.256, 4162.564, 4347.179, 0, 0, []
1628601472.9399, 48, 0, 4165.641, 4301.026, 4129.231, 4176.923, 4356.923, 0, 0, []
1628601472.9478, 49, 0, 4165.641, 4320.513, 4149.231, 4190.256, 4361.538, 0, 0, []
1628601472.9556, 50, 0, 4160.513, 4312.308, 4132.308, 4183.077, 4359.487, 0, 0, []
1628601472.9635, 51, 0, 4167.179, 4311.795, 4135.385, 4172.821, 4368.205, 0, 0, []
1628601472.9713, 52, 0, 4168.718, 4323.077, 4136.41, 4172.308, 4376.923, 0, 0, []
1628601472.9791, 53, 0, 4160, 4314.359, 4125.641, 4171.282, 4375.385, 0, 0, []
1628601472.9869, 54, 0, 4165.641, 4318.462, 4137.949, 4172.308, 4385.641, 0, 0, []
1628601472.9949, 55, 0, 4164.103, 4326.154, 4121.026, 4165.128, 4395.385, 0, 0, []
1628601473.0028, 56, 0, 4145.128, 4306.667, 4118.462, 4148.718, 4375.385, 0, 0, []
1628601473.0108, 57, 0, 4160, 4322.051, 4131.795, 4160, 4378.462, 0, 0, []
1628601473.0186, 58, 0, 4193.846, 4355.385, 4130.769, 4186.154, 4427.692, 0, 0, []
1628601473.0266, 59, 0, 4192.308, 4324.103, 4143.59, 4183.077, 4387.179, 0, 0, []
1628601473.0346, 60, 0, 4182.051, 4294.872, 4134.359, 4165.128, 4220, 0, 0, []
1628601473.0425, 61, 0, 4183.59, 4309.231, 4126.154, 4162.051, 4096.923, 0, 0, []
1628601473.0505, 62, 0, 4180.513, 4305.641, 4129.744, 4165.641, 4088.718, 0, 0, []
1628601473.0583, 63, 0, 4180.513, 4289.744, 4130.769, 4168.718, 4093.333, 0, 0, []
1628601473.0663, 64, 0, 4175.385, 4295.385, 4150.769, 4163.59, 4064.615, 450, 0, []
1628601473.0742, 65, 0, 4152.308, 4297.949, 4133.846, 4147.692, 4039.487, 450, 0, []
1628601473.0822, 66, 0, 4150.769, 4290.769, 4124.103, 4153.333, 4040.513, 16187, 0, []
1628601473.0901, 67, 0, 4178.974, 4308.205, 4133.333, 4172.821, 4060, 450, 0, []
1628601473.0981, 68, 0, 4186.154, 4324.615, 4125.641, 4173.333, 4064.103, 16155, 0, []
1628601473.1059, 69, 0, 4165.641, 4310.256, 4142.564, 4166.667, 4044.103, 450, 0, []
1628601473.1139, 70, 0, 4161.538, 4307.692, 4133.846, 4163.077, 4045.128, 16167, 0, []
1628601473.1218, 71, 0, 4158.974, 4313.333, 4125.641, 4154.359, 4049.231, 450, 0, []
1628601473.1298, 72, 0, 4125.641, 4279.487, 4134.359, 4138.462, 4018.462, 450, 0, []
1628601473.1377, 73, 0, 4117.436, 4260, 4124.103, 4138.462, 4009.744, 16074, 0, []
1628601473.1456, 74, 0, 4167.692, 4298.462, 4143.59, 4169.744, 4060.513, 450, 0, []
1628601473.1535, 75, 0, 4195.897, 4313.333, 4143.59, 4188.205, 4090.769, 16218, 0, []
1628601473.1615, 76, 0, 4165.128, 4282.051, 4130.769, 4168.205, 4055.385, 450, 0, []
1628601473.1694, 77, 0, 4149.231, 4278.974, 4139.487, 4157.949, 4026.667, 450, 0, []
1628601473.1774, 78, 0, 4161.538, 4296.923, 4128.205, 4163.077, 4026.154, 450, 0, []
1628601473.1853, 79, 0, 4152.821, 4289.744, 4137.949, 4144.103, 4012.821, 16218, 0, []
1628601473.1932, 80, 0, 4154.359, 4282.051, 4143.59, 4142.564, 4016.923, 450, 0, []
1628601473.2011, 81, 0, 4182.051, 4297.949, 4135.897, 4177.949, 4044.615, 450, 0, []
1628601473.209, 82, 0, 4187.692, 4325.128, 4142.051, 4186.667, 4048.718, 450, 0, []
1628601473.2169, 83, 0, 4167.692, 4322.051, 4132.308, 4161.538, 4029.231, 16218, 0, []
1628601473.2247, 84, 0, 4160, 4295.897, 4137.436, 4152.821, 4025.128, 450, 0, []
1628601473.2327, 85, 0, 4169.744, 4297.949, 4134.359, 4158.462, 4040, 450, 0, []
1628601473.2407, 86, 0, 4169.231, 4314.872, 4127.179, 4151.282, 4045.128, 450, 0, []
1628601473.2486, 87, 0, 4167.692, 4309.231, 4143.59, 4137.436, 4046.154, 16218, 0, []
1628601473.2565, 88, 0, 4186.667, 4301.026, 4136.923, 4141.538, 4063.59, 450, 0, []
1628601473.2644, 89, 0, 4207.179, 4312.821, 4146.154, 4166.667, 4084.103, 450, 0, []
1628601473.2723, 90, 0, 4206.667, 4311.282, 4146.154, 4172.308, 4081.538, 450, 0, []
1628601473.2803, 91, 0, 4193.846, 4283.59, 4125.128, 4144.103, 4061.026, 16218, 0, []
1628601473.2882, 92, 0, 4202.564, 4283.077, 4147.179, 4137.949, 4059.487, 450, 0, []
1628601473.2962, 93, 0, 4223.077, 4304.615, 4149.744, 4160.513, 4077.949, 450, 0, []
1628601473.304, 94, 0, 4223.59, 4306.667, 4134.359, 4161.026, 4082.051, 450, 0, []
1628601473.312, 95, 0, 4220, 4309.231, 4129.744, 4145.641, 4074.359, 16218, 0, []
1628601473.32, 96, 0, 4228.718, 4313.333, 4129.744, 4150.769, 4085.128, 450, 0, []
1628601473.3279, 97, 0, 4223.077, 4294.872, 4145.641, 4159.487, 4094.872, 450, 0, []
1628601473.3359, 98, 0, 4209.231, 4291.282, 4134.359, 4152.821, 4090.769, 450, 0, []
1628601473.3437, 99, 0, 4224.103, 4318.462, 4132.821, 4154.359, 4106.154, 16218, 0, []
1628601473.3517, 100, 0, 4241.026, 4322.051, 4144.615, 4162.051, 4128.205, 450, 0, []
1628601473.3596, 101, 0, 4231.282, 4306.154, 4128.718, 4153.333, 4129.231, 450, 0, []
1628601473.3676, 102, 0, 4228.205, 4301.538, 4130.769, 4144.103, 4122.564, 450, 0, []
1628601473.3755, 103, 0, 4241.538, 4295.385, 4125.641, 4145.128, 4122.051, 16218, 0, []
1628601473.3834, 104, 0, 4250.769, 4305.641, 4131.795, 4153.846, 4125.641, 450, 0, []
1628601473.3913, 105, 0, 4251.282, 4322.564, 4150.256, 4162.051, 4125.128, 450, 0, []
1628601473.3993, 106, 0, 4243.077, 4312.821, 4131.282, 4157.436, 4114.872, 450, 0, []
1628601473.4072, 107, 0, 4237.949, 4307.179, 4132.308, 4150.769, 4106.154, 16218, 0, []
1628601473.4152, 108, 0, 4243.59, 4313.333, 4134.872, 4162.564, 4111.282, 450, 0, []
1628601473.423, 109, 0, 4248.718, 4309.744, 4128.205, 4174.359, 4116.923, 450, 0, []
1628601473.431, 110, 0, 4252.821, 4320.513, 4131.282, 4169.231, 4118.974, 450, 0, []
1628601473.4389, 111, 0, 4258.974, 4334.359, 4116.923, 4166.154, 4126.154, 16218, 0, []
1628601473.4469, 112, 0, 4256.41, 4322.564, 4132.308, 4175.385, 4128.718, 450, 0, []
1628601473.4548, 113, 0, 4242.564, 4303.077, 4131.795, 4170.769, 4119.487, 450, 0, []
1628601473.4627, 114, 0, 4233.333, 4290.256, 4110.256, 4151.282, 4108.205, 450, 0, []
1628601473.4706, 115, 0, 4228.205, 4287.692, 4128.718, 4140.513, 4098.974, 16218, 0, []
1628601473.4786, 116, 0, 4236.41, 4305.128, 4131.282, 4148.718, 4110.256, 450, 0, []
1628601473.4866, 117, 0, 4247.692, 4314.359, 4133.846, 4164.615, 4131.795, 450, 0, []
1628601473.4945, 118, 0, 4242.564, 4301.026, 4133.333, 4163.077, 4135.385, 450, 0, []
1628601473.5024, 119, 0, 4257.436, 4308.718, 4129.231, 4166.154, 4149.744, 16218, 0, []
1628601473.5103, 120, 0, 4280.513, 4318.462, 4152.308, 4182.051, 4171.282, 450, 0, []
1628601473.5183, 121, 0, 4271.282, 4294.359, 4143.59, 4175.897, 4160, 450, 0, []
1628601473.5262, 122, 0, 4269.231, 4294.872, 4136.41, 4170.769, 4152.821, 450, 0, []
1628601473.5342, 123, 0, 4293.333, 4333.333, 4140.513, 4183.59, 4174.359, 16218, 0, []
1628601473.542, 124, 0, 4294.359, 4333.846, 4134.872, 4181.538, 4177.436, 450, 0, []
1628601473.55, 125, 0, 4275.897, 4296.41, 4144.103, 4163.59, 4158.462, 450, 0, []
1628601473.5579, 126, 0, 4283.59, 4307.179, 4127.692, 4160, 4165.641, 450, 0, []
1628601473.5659, 127, 0, 4304.103, 4343.077, 4127.179, 4162.051, 4189.744, 16218, 0, []
1628601473.5738, 128, 0, 4308.205, 4329.744, 4144.615, 4151.795, 4197.949, 450, 0, []
1628601473.5817, 0, 0, 4300.513, 4314.359, 4133.333, 4145.641, 4194.359, 450, 0, []
1628601473.5896, 1, 0, 4295.385, 4322.564, 4132.308, 4153.846, 4192.308, 450, 0, []
1628601473.5976, 2, 0, 4293.846, 4300, 4126.667, 4161.538, 4191.282, 16187, 0, []
1628601473.6055, 3, 0, 4295.385, 4271.795, 4133.333, 4164.103, 4195.897, 450, 0, []
1628601473.6135, 4, 0, 4296.41, 4273.333, 4140, 4167.179, 4209.231, 16155, 0, []
1628601473.6213, 5, 0, 4291.282, 4280, 4122.051, 4167.179, 4209.744, 450, 0, []
1628601473.6293, 6, 0, 4270.256, 4298.462, 4132.308, 4158.462, 4191.282, 16178, 0, []
1628601473.6373, 7, 0, 4244.103, 4314.359, 4127.179, 4141.538, 4177.949, 450, 0, []
1628601473.6452, 8, 0, 4243.59, 4297.436, 4121.026, 4136.923, 4191.795, 450, 0, []
1628601473.6532, 9, 0, 4264.615, 4287.179, 4143.59, 4159.487, 4213.846, 16074, 0, []
1628601473.661, 10, 0, 4266.154, 4288.718, 4140, 4177.436, 4211.795, 450, 0, []
1628601473.669, 11, 0, 4246.667, 4267.692, 4140, 4166.667, 4197.949, 16211, 0, []
1628601473.6769, 12, 0, 4241.538, 4240, 4140, 4164.103, 4207.179, 450, 0, []
1628601473.6849, 13, 0, 4252.821, 4231.282, 4144.103, 4190.256, 4227.179, 450, 0, []
1628601473.6928, 14, 0, 4257.949, 4247.179, 4151.282, 4203.59, 4234.872, 450, 0, []
1628601473.7007, 15, 0, 4254.359, 4277.949, 4126.154, 4194.359, 4235.385, 16211, 0, []
1628601473.7086, 16, 0, 4248.205, 4298.974, 4126.154, 4184.103, 4232.821, 0, 0, []
1628601473.7166, 17, 0, 4248.718, 4309.744, 4132.308, 4174.872, 4233.333, 0, 0, []
1628601473.7245, 18, 0, 4247.179, 4303.077, 4129.744, 4159.487, 4234.359, 0, 0, []
1628601473.7325, 19, 0, 4246.667, 4280, 4144.615, 4152.821, 4230.769, 0, 0, []
1628601473.7403, 20, 0, 4247.179, 4276.923, 4130.769, 4155.385, 4226.154, 0, 0, []
1628601473.7483, 21, 0, 4227.692, 4289.231, 4126.154, 4137.949, 4207.179, 0, 0, []
1628601473.7562, 22, 0, 4216.41, 4292.821, 4127.692, 4131.282, 4196.923, 0, 0, []
1628601473.7642, 23, 0, 4232.308, 4293.846, 4125.128, 4160, 4208.205, 0, 0, []
1628601473.7721, 24, 0, 4240, 4285.128, 4145.641, 4177.436, 4218.974, 0, 0, []
1628601473.78, 25, 0, 4240.513, 4264.103, 4137.436, 4163.077, 4233.333, 0, 0, []
1628601473.788, 26, 0, 4261.026, 4259.487, 4139.487, 4154.872, 4256.41, 0, 0, []
1628601473.7959, 27, 0, 4269.231, 4265.641, 4141.026, 4160.513, 4261.026, 0, 0, []
1628601473.8039, 28, 0, 4244.615, 4263.077, 4111.282, 4151.282, 4242.051, 0, 0, []
1628601473.8118, 29, 0, 4243.077, 4264.615, 4123.077, 4154.359, 4246.154, 0, 0, []
1628601473.8197, 30, 0, 4269.231, 4287.179, 4140, 4180.513, 4270.769, 0, 0, []
1628601473.8276, 31, 0, 4275.385, 4301.538, 4145.641, 4193.333, 4275.385, 0, 0, []
1628601473.8356, 32, 0, 4260.513, 4276.923, 4143.077, 4176.923, 4262.564, 0, 0, []
1628601473.8435, 33, 0, 4257.436, 4255.385, 4134.872, 4158.462, 4262.564, 0, 0, []
1628601473.8515, 34, 0, 4256.923, 4263.59, 4147.179, 4157.949, 4272.821, 0, 0, []
1628601473.8593, 35, 0, 4254.359, 4271.795, 4132.821, 4170.256, 4273.846, 0, 0, []
1628601473.8673, 36, 0, 4255.385, 4263.59, 4123.59, 4172.821, 4270.769, 0, 0, []
1628601473.8752, 37, 0, 4238.462, 4255.385, 4125.641, 4143.59, 4255.385, 0, 0, []
1628601473.8832, 38, 0, 4230.769, 4260, 4117.949, 4130.769, 4252.821, 0, 0, []
1628601473.8911, 39, 0, 4252.821, 4271.282, 4141.538, 4165.128, 4282.051, 0, 0, []
1628601473.899, 40, 0, 4261.026, 4273.846, 4136.923, 4176.923, 4295.385, 0, 0, []
1628601473.9069, 41, 0, 4249.744, 4254.872, 4128.205, 4154.872, 4279.487, 0, 0, []
1628601473.9149, 42, 0, 4254.359, 4241.026, 4150.769, 4156.923, 4278.974, 0, 0, []
1628601473.9228, 43, 0, 4269.231, 4256.923, 4143.59, 4175.897, 4301.026, 0, 0, []
1628601473.9306, 44, 0, 4257.949, 4277.436, 4137.949, 4168.205, 4296.923, 0, 0, []
1628601473.9385, 45, 0, 4231.282, 4270.256, 4121.538, 4148.205, 4269.744, 0, 0, []
1628601473.9464, 46, 0, 4225.641, 4257.949, 4113.846, 4140.513, 4264.103, 0, 0, []
1628601473.9544, 47, 0, 4234.872, 4268.718, 4136.923, 4140, 4275.385, 0, 0, []
1628601473.9623, 48, 0, 4238.974, 4266.154, 4131.282, 4143.59, 4280, 0, 0, []
1628601473.9703, 49, 0, 4249.231, 4245.641, 4145.128, 4154.359, 4287.692, 0, 0, []
1628601473.9781, 50, 0, 4265.128, 4250.769, 4151.795, 4160, 4301.538, 0, 0, []
1628601473.9861, 51, 0, 4255.897, 4255.897, 4127.179, 4146.667, 4291.282, 0, 0, []
1628601473.994, 52, 0, 4233.333, 4238.974, 4124.615, 4143.077, 4270.256, 0, 0, []
1628601474.002, 53, 0, 4244.103, 4238.462, 4123.077, 4160, 4282.564, 0, 0, []
1628601474.0099, 54, 0, 4269.231, 4248.718, 4136.41, 4154.872, 4311.282, 0, 0, []
1628601474.0178, 55, 0, 4272.821, 4252.821, 4130.769, 4134.872, 4316.41, 0, 0, []
1628601474.0257, 56, 0, 4267.179, 4265.641, 4117.949, 4145.641, 4311.282, 0, 0, []
1628601474.0337, 57, 0, 4264.103, 4262.051, 4138.462, 4162.564, 4306.667, 0, 0, []
1628601474.0416, 58, 0, 4262.564, 4236.923, 4131.282, 4146.667, 4300.513, 0, 0, []
1628601474.0496, 59, 0, 4265.641, 4248.205, 4126.154, 4138.462, 4304.103, 0, 0, []
1628601474.0575, 60, 0, 4267.692, 4274.359, 4123.59, 4150.256, 4314.359, 0, 0, []
1628601474.0652, 61, 0, 4268.205, 4262.051, 4116.923, 4143.077, 4318.974, 0, 0, []
1628601474.0731, 62, 0, 4278.974, 4254.872, 4145.128, 4134.872, 4325.641, 0, 0, []
1628601474.0809, 63, 0, 4288.718, 4280.513, 4138.974, 4148.718, 4334.359, 0, 0, []
1628601474.0888, 64, 0, 4282.564, 4288.205, 4124.615, 4158.974, 4326.154, 450, 0, []
1628601474.0966, 65, 0, 4283.59, 4263.59, 4132.308, 4153.846, 4322.051, 450, 0, []
1628601474.1044, 66, 0, 4287.179, 4247.692, 4122.051, 4146.667, 4326.154, 16187, 0, []
1628601474.1122, 67, 0, 4266.667, 4242.564, 4127.179, 4138.974, 4311.795, 450, 0, []
1628601474.1202, 68, 0, 4260.513, 4242.051, 4136.41, 4134.872, 4308.205, 16155, 0, []
1628601474.1281, 69, 0, 4272.821, 4256.923, 4146.154, 4140, 4316.923, 450, 0, []
1628601474.1361, 70, 0, 4271.282, 4255.897, 4143.077, 4137.949, 4310.769, 16175, 0, []
1628601474.1439, 71, 0, 4273.333, 4233.846, 4126.667, 4132.308, 4312.308, 450, 0, []
1628601474.1519, 72, 0, 4284.615, 4245.128, 4143.077, 4141.538, 4330.256, 450, 0, []
1628601474.1598, 73, 0, 4287.179, 4277.949, 4131.282, 4149.744, 4334.359, 16074, 0, []
1628601474.1678, 74, 0, 4277.436, 4251.795, 4121.026, 4132.308, 4317.949, 450, 0, []
1628601474.1757, 75, 0, 4268.718, 4211.795, 4137.436, 4122.051, 4305.128, 16202, 0, []
1628601474.1836, 76, 0, 4277.436, 4235.897, 4123.077, 4140, 4315.385, 450, 0, []
1628601474.1915, 77, 0, 4301.026, 4261.026, 4133.333, 4153.846, 4342.051, 450, 0, []
1628601474.1995, 78, 0, 4304.103, 4244.615, 4142.564, 4144.615, 4348.205, 450, 0, []
1628601474.2074, 79, 0, 4282.051, 4240.513, 4133.846, 4127.179, 4330.256, 16202, 0, []
1628601474.2153, 80, 0, 4273.333, 4252.821, 4138.462, 4117.949, 4323.077, 450, 0, []
1628601474.2231, 81, 0, 4276.923, 4249.744, 4123.59, 4118.462, 4323.59, 450, 0, []
1628601474.2309, 82, 0, 4283.59, 4247.179, 4130.256, 4123.077, 4319.487, 450, 0, []
1628601474.2388, 83, 0, 4295.897, 4245.128, 4140.513, 4132.308, 4326.667, 16202, 0, []
1628601474.2466, 84, 0, 4297.949, 4248.718, 4140, 4142.564, 4335.385, 450, 0, []
1628601474.2546, 85, 0, 4292.308, 4268.718, 4148.205, 4141.538, 4328.205, 450, 0, []
1628601474.2624, 86, 0, 4295.385, 4268.205, 4129.744, 4136.923, 4324.103, 450, 0, []
1628601474.2704, 87, 0, 4308.205, 4253.846, 4135.385, 4150.256, 4332.821, 16202, 0, []
1628601474.2783, 88, 0, 4316.41, 4257.949, 4145.641, 4161.026, 4334.359, 450, 0, []
1628601474.2863, 89, 0, 4301.538, 4248.718, 4130.769, 4147.692, 4313.846, 450, 0, []
1628601474.2942, 90, 0, 4275.897, 4240.513, 4144.103, 4131.795, 4291.795, 450, 0, []
1628601474.3021, 91, 0, 4278.974, 4262.051, 4147.179, 4129.231, 4290.769, 16202, 0, []
1628601474.31, 92, 0, 4305.641, 4263.59, 4147.692, 4142.564, 4304.615, 450, 0, []
1628601474.318, 93, 0, 4327.692, 4244.103, 4142.564, 4153.333, 4326.667, 450, 0, []
1628601474.3259, 94, 0, 4333.333, 4250.256, 4128.205, 4147.692, 4338.462, 450, 0, []
1628601474.3339, 95, 0, 4316.923, 4267.179, 4137.436, 4138.462, 4318.462, 16202, 0, []
1628601474.3417, 96, 0, 4297.949, 4264.615, 4130.256, 4133.333, 4295.897, 450, 0, []
1628601474.3497, 97, 0, 4317.949, 4257.949, 4141.538, 4145.128, 4314.359, 450, 0, []
1628601474.3576, 98, 0, 4347.692, 4267.179, 4151.282, 4170.256, 4344.615, 450, 0, []
1628601474.3654, 99, 0, 4334.872, 4274.872, 4133.333, 4163.59, 4337.436, 16202, 0, []
1628601474.3733, 100, 0, 4321.026, 4272.308, 4151.282, 4146.154, 4320.513, 450, 0, []
1628601474.381, 101, 0, 4337.436, 4262.051, 4147.692, 4157.436, 4328.205, 450, 0, []
1628601474.3889, 102, 0, 4334.872, 4251.795, 4128.718, 4159.487, 4335.385, 450, 0, []
1628601474.3967, 103, 0, 4309.744, 4245.128, 4121.538, 4144.615, 4327.692, 16202, 0, []
1628601474.4046, 104, 0, 4310.769, 4247.179, 4111.795, 4149.744, 4326.154, 450, 0, []
1628601474.4124, 105, 0, 4317.436, 4248.718, 4132.821, 4150.769, 4328.205, 450, 0, []
1628601474.4203, 106, 0, 4309.231, 4236.923, 4137.436, 4134.359, 4325.128, 450, 0, []
1628601474.4282, 107, 0, 4317.949, 4242.051, 4141.538, 4144.615, 4331.795, 16202, 0, []
1628601474.4362, 108, 0, 4330.256, 4266.667, 4152.308, 4159.487, 4341.026, 450, 0, []
1628601474.4441, 109, 0, 4302.564, 4252.821, 4129.744, 4122.051, 4318.974, 450, 0, []
1628601474.4521, 110, 0, 4278.462, 4222.564, 4138.974, 4095.385, 4295.897, 450, 0, []
1628601474.4599, 111, 0, 4317.949, 4257.436, 4150.769, 4133.333, 4323.59, 16202, 0, []
1628601474.4679, 112, 0, 4359.487, 4305.641, 4143.59, 4175.897, 4358.974, 450, 0, []
1628601474.4758, 113, 0, 4336.923, 4270.769, 4141.538, 4163.077, 4338.462, 450, 0, []
1628601474.4838, 114, 0, 4300, 4214.872, 4130.769, 4128.718, 4303.59, 450, 0, []
1628601474.4917, 115, 0, 4313.333, 4236.41, 4141.026, 4131.282, 4313.846, 16202, 0, []
1628601474.4996, 116, 0, 4341.538, 4270.256, 4135.385, 4146.154, 4339.487, 450, 0, []
1628601474.5075, 117, 0, 4334.359, 4250.769, 4123.59, 4144.615, 4335.385, 450, 0, []
1628601474.5155, 118, 0, 4306.667, 4229.744, 4131.795, 4135.385, 4308.205, 450, 0, []
1628601474.5234, 119, 0, 4301.026, 4240.513, 4123.59, 4130.256, 4295.897, 16202, 0, []
1628601474.5312, 120, 0, 4318.974, 4260, 4142.564, 4137.436, 4311.282, 450, 0, []
1628601474.539, 121, 0, 4324.615, 4263.077, 4154.359, 4147.692, 4324.615, 450, 0, []
1628601474.5468, 122, 0, 4324.103, 4249.231, 4143.077, 4149.744, 4328.718, 450, 0, []
1628601474.5547, 123, 0, 4336.923, 4236.923, 4149.744, 4145.128, 4335.385, 16202, 0, []
1628601474.5625, 124, 0, 4346.667, 4245.641, 4134.872, 4152.308, 4336.923, 450, 0, []
1628601474.5705, 125, 0, 4328.205, 4252.821, 4129.231, 4155.897, 4321.538, 450, 0, []
1628601474.5783, 126, 0, 4296.41, 4237.436, 4135.385, 4138.462, 4296.41, 450, 0, []
1628601474.5863, 127, 0, 4287.179, 4229.744, 4127.692, 4129.744, 4285.128, 16202, 0, []
1628601474.5942, 128, 0, 4300.513, 4236.41, 4134.872, 4138.462, 4290.256, 450, 0, []
1628601474.6022, 0, 0, 4308.205, 4247.692, 4128.718, 4136.923, 4295.385, 450, 0, []
1628601474.6101, 1, 0, 4301.538, 4246.667, 4130.256, 4134.359, 4297.436, 450, 0, []
1628601474.618, 2, 0, 4310.769, 4235.385, 4139.487, 4151.282, 4312.308, 16187, 0, []
1628601474.6259, 3, 0, 4338.462, 4243.077, 4136.41, 4171.795, 4334.872, 450, 0, []
1628601474.6339, 4, 0, 4345.128, 4253.333, 4153.333, 4175.897, 4341.538, 16156, 0, []
1628601474.6418, 5, 0, 4331.282, 4237.436, 4140.513, 4165.128, 4329.744, 450, 0, []
1628601474.6498, 6, 0, 4325.128, 4224.103, 4125.641, 4149.744, 4316.41, 16168, 0, []
1628601474.6576, 7, 0, 4324.615, 4242.564, 4135.897, 4137.949, 4305.641, 450, 0, []
1628601474.6654, 8, 0, 4327.179, 4259.487, 4130.769, 4135.385, 4308.718, 450, 0, []
1628601474.6733, 9, 0, 4339.487, 4252.308, 4137.436, 4140, 4323.077, 16074, 0, []
1628601474.6811, 10, 0, 4332.821, 4249.744, 4133.846, 4140, 4315.385, 450, 0, []
1628601474.689, 11, 0, 4307.179, 4242.564, 4136.41, 4130.769, 4288.718, 16197, 0, []
1628601474.6967, 12, 0, 4305.641, 4233.846, 4155.897, 4128.205, 4290.769, 450, 0, []
1628601474.7046, 13, 0, 4346.667, 4258.974, 4146.154, 4155.385, 4332.821, 450, 0, []
1628601474.7124, 14, 0, 4386.667, 4276.41, 4149.231, 4170.256, 4365.641, 450, 0, []
1628601474.7204, 15, 0, 4410.256, 4257.949, 4155.385, 4152.821, 4383.59, 16197, 0, []
1628601474.7283, 16, 0, 4448.205, 4265.641, 4148.205, 4161.538, 4424.615, 0, 0, []
1628601474.7362, 17, 0, 4475.385, 4277.949, 4142.564, 4173.846, 4455.385, 0, 0, []
1628601474.7441, 18, 0, 4481.538, 4255.385, 4126.667, 4149.744, 4458.462, 0, 0, []
1628601474.7521, 19, 0, 4509.744, 4268.205, 4147.692, 4160, 4485.128, 0, 0, []
1628601474.76, 20, 0, 4544.103, 4303.077, 4154.359, 4199.487, 4524.615, 0, 0, []
1628601474.768, 21, 0, 4527.179, 4268.205, 4121.026, 4190.769, 4512.821, 0, 0, []
1628601474.7758, 22, 0, 4480, 4226.154, 4117.949, 4173.846, 4473.846, 0, 0, []
1628601474.7838, 23, 0, 4464.615, 4243.59, 4124.103, 4180.513, 4458.974, 0, 0, []
1628601474.7917, 24, 0, 4461.538, 4254.872, 4135.897, 4165.128, 4443.077, 0, 0, []
1628601474.7997, 25, 0, 4435.897, 4235.385, 4133.333, 4136.923, 4412.821, 0, 0, []
1628601474.8076, 26, 0, 4411.795, 4228.205, 4123.59, 4135.897, 4397.949, 0, 0, []
1628601474.8153, 27, 0, 4424.615, 4242.051, 4146.667, 4157.949, 4415.385, 0, 0, []
1628601474.8232, 28, 0, 4442.564, 4252.308, 4139.487, 4176.923, 4434.359, 0, 0, []
1628601474.831, 29, 0, 4415.385, 4252.308, 4122.564, 4167.179, 4408.205, 0, 0, []
1628601474.8389, 30, 0, 4385.128, 4244.103, 4122.051, 4150.256, 4373.333, 0, 0, []
1628601474.8467, 31, 0, 4382.564, 4237.436, 4123.59, 4154.359, 4370.256, 0, 0, []
1628601474.8546, 32, 0, 4376.923, 4247.179, 4144.103, 4152.821, 4373.333, 0, 0, []
1628601474.8623, 33, 0, 4363.59, 4251.795, 4139.487, 4139.487, 4362.564, 0, 0, []
1628601474.8702, 34, 0, 4354.872, 4235.897, 4132.821, 4138.462, 4349.744, 0, 0, []
1628601474.878, 35, 0, 4351.282, 4224.103, 4140.513, 4146.154, 4344.103, 0, 0, []
1628601474.886, 36, 0, 4356.923, 4234.359, 4137.436, 4156.41, 4356.923, 0, 0, []
1628601474.8939, 37, 0, 4375.385, 4241.538, 4146.667, 4161.538, 4380, 0, 0, []
1628601474.9018, 38, 0, 4363.59, 4233.846, 4125.641, 4145.641, 4364.615, 0, 0, []
1628601474.9097, 39, 0, 4329.231, 4232.308, 4121.538, 4125.128, 4327.692, 0, 0, []
1628601474.9177, 40, 0, 4324.103, 4236.923, 4150.256, 4128.205, 4322.051, 0, 0, []
1628601474.9256, 41, 0, 4316.923, 4216.923, 4130.256, 4124.615, 4314.872, 0, 0, []
1628601474.9336, 42, 0, 4294.359, 4189.231, 4124.615, 4116.41, 4294.359, 0, 0, []
1628601474.9414, 43, 0, 4314.872, 4194.872, 4143.59, 4148.205, 4317.949, 0, 0, []
1628601474.9494, 44, 0, 4348.718, 4204.103, 4147.179, 4180.513, 4357.436, 0, 0, []
1628601474.9573, 45, 0, 4319.487, 4197.949, 4136.41, 4153.333, 4329.231, 0, 0, []
1628601474.9653, 46, 0, 4291.282, 4220, 4119.487, 4126.667, 4291.282, 0, 0, []
1628601474.9732, 47, 0, 4315.897, 4247.692, 4138.462, 4156.41, 4304.615, 0, 0, []
1628601474.9809, 48, 0, 4327.692, 4229.744, 4143.59, 4178.974, 4309.231, 0, 0, []
1628601474.9888, 49, 0, 4314.359, 4212.308, 4129.231, 4155.385, 4294.872, 0, 0, []
1628601474.9966, 50, 0, 4323.077, 4220.513, 4132.821, 4142.564, 4310.256, 0, 0, []
1628601475.0045, 51, 0, 4343.59, 4210.769, 4126.154, 4164.103, 4335.385, 0, 0, []
1628601475.0123, 52, 0, 4332.821, 4193.333, 4134.359, 4174.359, 4326.667, 0, 0, []
1628601475.0201, 53, 0, 4314.359, 4203.59, 4132.308, 4158.462, 4316.923, 0, 0, []
1628601475.0279, 54, 0, 4317.949, 4206.154, 4128.205, 4151.795, 4323.59, 0, 0, []
1628601475.0358, 55, 0, 4318.974, 4191.282, 4145.641, 4161.026, 4317.949, 0, 0, []
1628601475.0436, 56, 0, 4310.769, 4205.641, 4126.154, 4164.615, 4307.692, 0, 0, []
1628601475.0516, 57, 0, 4304.615, 4224.103, 4123.077, 4153.333, 4304.615, 0, 0, []
1628601475.0594, 58, 0, 4289.231, 4202.051, 4134.359, 4130.769, 4290.769, 0, 0, []
1628601475.0674, 59, 0, 4290.769, 4191.282, 4127.692, 4136.923, 4288.718, 0, 0, []
1628601475.0753, 60, 0, 4328.205, 4224.615, 4147.692, 4184.103, 4321.026, 0, 0, []
1628601475.0833, 61, 0, 4332.821, 4231.795, 4147.692, 4188.205, 4329.231, 0, 0, []
1628601475.0912, 62, 0, 4292.308, 4196.923, 4137.949, 4144.615, 4296.41, 0, 0, []
1628601475.0991, 63, 0, 4282.564, 4180, 4136.41, 4137.436, 4283.59, 0, 0, []
1628601475.107, 64, 0, 4299.487, 4186.667, 4128.718, 4154.872, 4293.846, 450, 0, []
1628601475.115, 65, 0, 4302.564, 4195.385, 4141.026, 4150.256, 4298.462, 450, 0, []
1628601475.1229, 66, 0, 4306.667, 4209.744, 4142.564, 4152.821, 4304.103, 16187, 0, []
1628601475.1307, 67, 0, 4316.923, 4222.051, 4145.128, 4170.769, 4311.795, 450, 0, []
1628601475.1385, 68, 0, 4298.974, 4207.179, 4137.949, 4156.41, 4298.974, 16156, 0, []
1628601475.1463, 69, 0, 4267.179, 4174.359, 4113.333, 4127.179, 4277.949, 450, 0, []
1628601475.1542, 70, 0, 4262.051, 4166.667, 4130.256, 4127.692, 4274.872, 16167, 0, []
1628601475.162, 71, 0, 4281.026, 4188.205, 4134.359, 4144.615, 4289.744, 450, 0, []
1628601475.1699, 72, 0, 4292.308, 4203.077, 4125.641, 4145.641, 4301.026, 450, 0, []
1628601475.1776, 73, 0, 4288.718, 4200.513, 4137.949, 4134.359, 4294.359, 16074, 0, []
1628601475.1856, 74, 0, 4292.821, 4195.385, 4134.872, 4134.872, 4293.333, 450, 0, []
1628601475.1935, 75, 0, 4300.513, 4176.923, 4145.128, 4145.128, 4303.59, 16194, 0, []
1628601475.2015, 76, 0, 4300.513, 4169.744, 4146.154, 4143.59, 4311.282, 450, 0, []
1628601475.2094, 77, 0, 4300, 4194.359, 4137.436, 4138.974, 4310.769, 450, 0, []
1628601475.2172, 78, 0, 4295.897, 4198.974, 4139.487, 4143.077, 4300, 450, 0, []
1628601475.2251, 79, 0, 4283.59, 4170.769, 4130.769, 4144.615, 4285.641, 16194, 0, []
1628601475.2331, 80, 0, 4277.436, 4162.051, 4140.513, 4138.974, 4277.436, 450, 0, []
1628601475.2411, 81, 0, 4277.949, 4173.333, 4138.974, 4134.359, 4278.974, 450, 0, []
1628601475.249, 82, 0, 4271.795, 4170.769, 4131.795, 4132.821, 4276.923, 450, 0, []
1628601475.2568, 83, 0, 4270.769, 4169.744, 4151.282, 4143.59, 4280, 16194, 0, []
1628601475.2648, 84, 0, 4273.333, 4169.231, 4143.077, 4150.256, 4280.513, 450, 0, []
1628601475.2727, 85, 0, 4266.154, 4162.051, 4143.077, 4140, 4265.128, 450, 0, []
1628601475.2805, 86, 0, 4271.282, 4180.513, 4151.282, 4140, 4270.256, 450, 0, []
1628601475.2884, 87, 0, 4286.154, 4201.026, 4145.641, 4147.179, 4285.641, 16194, 0, []
1628601475.2961, 88, 0, 4275.897, 4184.103, 4148.718, 4127.179, 4270.256, 450, 0, []
1628601475.304, 89, 0, 4273.333, 4174.359, 4139.487, 4116.923, 4258.974, 450, 0, []
1628601475.3118, 90, 0, 4299.487, 4191.282, 4152.308, 4147.692, 4278.974, 450, 0, []
1628601475.3197, 91, 0, 4305.641, 4195.385, 4154.359, 4161.026, 4286.667, 16194, 0, []
1628601475.3275, 92, 0, 4283.077, 4181.538, 4133.846, 4143.077, 4270.769, 450, 0, []
1628601475.3353, 93, 0, 4275.385, 4182.564, 4148.718, 4147.179, 4262.051, 450, 0, []
1628601475.3431, 94, 0, 4289.231, 4195.897, 4142.564, 4153.846, 4263.59, 450, 0, []
1628601475.3511, 95, 0, 4302.051, 4194.359, 4133.846, 4143.077, 4274.359, 16194, 0, []
1628601475.359, 96, 0, 4302.051, 4185.641, 4141.026, 4141.538, 4277.436, 450, 0, []
1628601475.367, 97, 0, 4293.333, 4192.821, 4133.333, 4146.667, 4268.205, 450, 0, []
1628601475.3748, 98, 0, 4301.026, 4201.538, 4138.974, 4151.282, 4285.641, 450, 0, []
1628601475.3828, 99, 0, 4310.256, 4196.41, 4131.282, 4151.282, 4307.179, 16194, 0, []
1628601475.3907, 100, 0, 4282.564, 4180.513, 4134.359, 4131.795, 4278.974, 450, 0, []
1628601475.3987, 101, 0, 4256.41, 4164.615, 4143.077, 4120.513, 4242.051, 450, 0, []
1628601475.4066, 102, 0, 4266.154, 4166.154, 4122.051, 4132.821, 4246.667, 450, 0, []
1628601475.4145, 103, 0, 4270.256, 4180.513, 4127.692, 4133.846, 4251.282, 16194, 0, []
1628601475.4224, 104, 0, 4254.872, 4178.974, 4128.718, 4124.103, 4231.282, 450, 0, []
1628601475.4302, 105, 0, 4241.026, 4163.077, 4125.641, 4121.538, 4206.667, 450, 0, []
1628601475.4381, 106, 0, 4244.103, 4158.462, 4143.59, 4127.179, 4204.615, 450, 0, []
1628601475.4459, 107, 0, 4268.205, 4167.692, 4140, 4147.179, 4237.436, 16194, 0, []
1628601475.4537, 108, 0, 4285.641, 4181.538, 4143.077, 4166.667, 4267.179, 450, 0, []
1628601475.4615, 109, 0, 4270.769, 4183.59, 4137.436, 4160, 4253.333, 450, 0, []
1628601475.4694, 110, 0, 4248.718, 4163.59, 4124.615, 4138.462, 4225.128, 450, 0, []
1628601475.4772, 111, 0, 4247.692, 4164.103, 4129.744, 4130.256, 4222.051, 16194, 0, []
1628601475.4851, 112, 0, 4265.128, 4184.103, 4132.308, 4138.462, 4233.846, 450, 0, []
1628601475.4928, 113, 0, 4277.436, 4175.897, 4145.641, 4135.897, 4242.051, 450, 0, []
1628601475.5008, 114, 0, 4275.897, 4157.949, 4134.359, 4118.974, 4246.154, 450, 0, []
1628601475.5087, 115, 0, 4280.513, 4165.128, 4126.154, 4127.692, 4257.949, 16194, 0, []
1628601475.5167, 116, 0, 4283.59, 4170.256, 4152.308, 4150.769, 4262.051, 450, 0, []
1628601475.5246, 117, 0, 4286.667, 4168.718, 4149.744, 4161.538, 4265.128, 450, 0, []
1628601475.5325, 118, 0, 4300.513, 4183.59, 4146.667, 4171.795, 4280.513, 450, 0, []
1628601475.5404, 119, 0, 4291.795, 4177.436, 4129.744, 4163.59, 4271.795, 16194, 0, []
1628601475.5484, 120, 0, 4271.795, 4160, 4114.872, 4149.231, 4253.846, 450, 0, []
1628601475.5563, 121, 0, 4290.256, 4180, 4141.026, 4165.641, 4271.282, 450, 0, []
1628601475.5643, 122, 0, 4307.179, 4188.205, 4136.923, 4180, 4283.077, 450, 0, []
1628601475.5721, 123, 0, 4280, 4161.026, 4128.718, 4151.795, 4251.795, 16194, 0, []
1628601475.58, 124, 0, 4268.718, 4154.359, 4137.436, 4131.282, 4234.872, 450, 0, []
1628601475.5879, 125, 0, 4285.128, 4164.615, 4140.513, 4152.308, 4251.795, 450, 0, []
1628601475.5957, 126, 0, 4280, 4166.667, 4142.564, 4155.897, 4248.205, 450, 0, []
1628601475.6036, 127, 0, 4269.231, 4178.974, 4118.974, 4133.333, 4232.308, 16194, 0, []
1628601475.6114, 128, 0, 4274.359, 4191.282, 4123.077, 4133.846, 4232.308, 450, 0, []
1628601475.6192, 0, 0, 4265.641, 4173.846, 4139.487, 4136.923, 4224.615, 450, 0, []
1628601475.627, 1, 0, 4248.205, 4152.308, 4128.718, 4121.026, 4211.795, 450, 0, []
1628601475.6349, 2, 0, 4266.154, 4152.308, 4141.538, 4132.308, 4232.308, 16139, 0, []
1628601475.6427, 3, 0, 4305.641, 4184.103, 4145.128, 4169.231, 4271.795, 450, 0, []
1628601475.6507, 4, 0, 4310.256, 4207.692, 4143.077, 4180.513, 4275.385, 16157, 0, []
1628601475.6585, 5, 0, 4278.974, 4174.872, 4130.769, 4151.795, 4245.641, 450, 0, []
1628601475.6665, 6, 0, 4256.923, 4137.949, 4107.179, 4121.538, 4226.154, 16168, 0, []
1628601475.6744, 7, 0, 4269.744, 4167.692, 4136.41, 4144.103, 4243.077, 450, 0, []
1628601475.6824, 8, 0, 4287.692, 4190.769, 4147.692, 4178.974, 4268.205, 450, 0, []
1628601475.6903, 9, 0, 4264.615, 4152.308, 4132.308, 4151.795, 4247.692, 16074, 0, []
1628601475.6982, 10, 0, 4241.026, 4146.154, 4138.974, 4132.821, 4227.179, 450, 0, []
1628601475.7061, 11, 0, 4260.513, 4181.538, 4142.051, 4173.846, 4253.333, 16197, 0, []
1628601475.7141, 12, 0, 4253.846, 4162.564, 4140, 4156.923, 4241.538, 450, 0, []
1628601475.722, 13, 0, 4217.436, 4126.667, 4121.538, 4090.256, 4193.846, 450, 0, []
1628601475.73, 14, 0, 4244.615, 4164.615, 4122.564, 4117.949, 4224.103, 450, 0, []
1628601475.7378, 15, 0, 4290.256, 4211.795, 4144.103, 4180.513, 4276.923, 16197, 0, []
1628601475.7456, 16, 0, 4273.333, 4190.256, 4131.795, 4159.487, 4252.821, 0, 0, []
1628601475.7535, 17, 0, 4254.359, 4171.282, 4131.795, 4130.256, 4229.231, 0, 0, []
1628601475.7613, 18, 0, 4258.974, 4178.974, 4135.385, 4142.564, 4240.513, 0, 0, []
1628601475.7692, 19, 0, 4246.154, 4158.462, 4127.179, 4133.846, 4226.154, 0, 0, []
1628601475.7769, 20, 0, 4244.103, 4151.282, 4138.974, 4117.949, 4218.462, 0, 0, []
1628601475.7848, 21, 0, 4244.103, 4173.846, 4130.256, 4119.487, 4231.795, 0, 0, []
1628601475.7926, 22, 0, 4231.795, 4172.308, 4137.949, 4120.513, 4231.795, 0, 0, []
1628601475.8005, 23, 0, 4246.667, 4160.513, 4155.385, 4138.974, 4240.513, 0, 0, []
1628601475.8083, 24, 0, 4264.103, 4171.282, 4143.59, 4156.923, 4255.897, 0, 0, []
1628601475.8161, 25, 0, 4249.744, 4183.59, 4146.667, 4144.615, 4246.667, 0, 0, []
1628601475.8239, 26, 0, 4247.692, 4179.487, 4144.103, 4131.795, 4237.436, 0, 0, []
1628601475.8319, 27, 0, 4256.41, 4163.077, 4143.59, 4136.923, 4242.051, 0, 0, []
1628601475.8398, 28, 0, 4234.359, 4147.692, 4139.487, 4130.256, 4227.179, 0, 0, []
1628601475.8478, 29, 0, 4218.974, 4162.564, 4121.026, 4114.872, 4213.333, 0, 0, []
1628601475.8556, 30, 0, 4229.231, 4170.769, 4131.795, 4122.051, 4224.103, 0, 0, []
1628601475.8636, 31, 0, 4235.385, 4148.718, 4129.744, 4132.821, 4232.821, 0, 0, []
1628601475.8715, 32, 0, 4243.077, 4157.949, 4128.205, 4135.897, 4237.436, 0, 0, []
1628601475.8795, 33, 0, 4246.667, 4177.949, 4137.436, 4137.949, 4247.179, 0, 0, []
1628601475.8874, 34, 0, 4237.436, 4160.513, 4128.205, 4134.359, 4250.769, 0, 0, []
1628601475.8951, 35, 0, 4230.769, 4149.231, 4142.564, 4122.051, 4241.538, 0, 0, []
1628601475.903, 36, 0, 4228.718, 4150.769, 4133.846, 4108.718, 4229.231, 0, 0, []
1628601475.9108, 37, 0, 4233.333, 4143.077, 4122.564, 4118.462, 4234.872, 0, 0, []
1628601475.9187, 38, 0, 4253.846, 4166.667, 4146.154, 4146.154, 4259.487, 0, 0, []
1628601475.9265, 39, 0, 4263.077, 4191.795, 4144.615, 4153.846, 4270.256, 0, 0, []
1628601475.9343, 40, 0, 4245.641, 4174.872, 4130.256, 4137.949, 4258.462, 0, 0, []
1628601475.9421, 41, 0, 4237.949, 4163.59, 4115.897, 4132.308, 4264.103, 0, 0, []
1628601475.95, 42, 0, 4226.154, 4153.846, 4131.282, 4130.769, 4263.077, 0, 0, []
1628601475.9578, 43, 0, 4195.385, 4123.59, 4146.667, 4113.333, 4230.256, 0, 0, []
1628601475.9658, 44, 0, 4200, 4126.154, 4121.026, 4114.872, 4231.282, 0, 0, []
1628601475.9736, 45, 0, 4232.821, 4165.641, 4135.385, 4150.256, 4270.769, 0, 0, []
1628601475.9816, 46, 0, 4239.487, 4182.564, 4149.231, 4173.333, 4280.513, 0, 0, []
1628601475.9895, 47, 0, 4230.256, 4164.615, 4131.282, 4166.154, 4258.974, 0, 0, []
1628601475.9975, 48, 0, 4227.692, 4150.769, 4130.256, 4158.462, 4250.256, 0, 0, []
1628601476.0054, 49, 0, 4221.026, 4156.923, 4123.59, 4151.795, 4250.769, 0, 0, []
1628601476.0133, 50, 0, 4211.282, 4155.385, 4135.385, 4136.923, 4241.026, 0, 0, []
1628601476.0212, 51, 0, 4211.795, 4147.179, 4137.436, 4136.923, 4229.744, 0, 0, []
1628601476.0292, 52, 0, 4212.308, 4158.974, 4121.538, 4147.692, 4229.231, 0, 0, []
1628601476.0371, 53, 0, 4216.41, 4181.026, 4135.385, 4155.385, 4241.026, 0, 0, []
1628601476.045, 54, 0, 4213.333, 4169.231, 4133.333, 4152.308, 4239.487, 0, 0, []
1628601476.0528, 55, 0, 4201.026, 4134.359, 4131.795, 4145.641, 4225.641, 0, 0, []
1628601476.0606, 56, 0, 4205.128, 4132.821, 4130.769, 4147.692, 4224.615, 0, 0, []
1628601476.0685, 57, 0, 4217.949, 4156.41, 4125.128, 4150.256, 4234.359, 0, 0, []
1628601476.0763, 58, 0, 4217.949, 4156.923, 4142.564, 4149.744, 4241.026, 0, 0, []
1628601476.0842, 59, 0, 4217.949, 4149.231, 4137.436, 4145.641, 4240, 0, 0, []
1628601476.0919, 60, 0, 4216.41, 4157.949, 4138.974, 4140.513, 4232.821, 0, 0, []
1628601476.0998, 61, 0, 4205.128, 4165.128, 4145.128, 4138.462, 4222.564, 0, 0, []
1628601476.1076, 62, 0, 4209.744, 4168.718, 4140.513, 4153.333, 4233.333, 0, 0, []
1628601476.1155, 63, 0, 4223.59, 4175.385, 4151.795, 4167.692, 4245.641, 0, 0, []
1628601476.1233, 64, 0, 4211.282, 4166.154, 4128.205, 4149.744, 4235.897, 450, 0, []
1628601476.1312, 65, 0, 4201.538, 4163.077, 4123.077, 4141.538, 4233.333, 450, 0, []
1628601476.1391, 66, 0, 4196.923, 4173.333, 4143.59, 4144.103, 4225.641, 16175, 0, []
1628601476.1471, 67, 0, 4178.462, 4165.641, 4133.846, 4123.077, 4194.359, 450, 0, []
1628601476.155, 68, 0, 4180, 4153.333, 4138.974, 4118.974, 4185.641, 16159, 0, []
1628601476.163, 69, 0, 4219.487, 4170.769, 4146.667, 4155.385, 4223.077, 450, 0, []
1628601476.1708, 70, 0, 4246.667, 4188.205, 4151.282, 4169.744, 4244.615, 16229, 0, []
1628601476.1788, 71, 0, 4234.872, 4174.872, 4144.103, 4146.154, 4232.821, 450, 0, []
1628601476.1867, 72, 0, 4216.923, 4165.128, 4124.615, 4135.897, 4224.103, 450, 0, []
1628601476.1947, 73, 0, 4210.256, 4156.923, 4136.923, 4139.487, 4216.41, 16074, 0, []
1628601476.2026, 74, 0, 4218.974, 4141.538, 4129.231, 4141.538, 4220.513, 450, 0, []
1628601476.2103, 75, 0, 4227.692, 4153.333, 4123.077, 4143.59, 4239.487, 16197, 0, []
1628601476.2182, 76, 0, 4218.974, 4160, 4132.821, 4139.487, 4242.051, 450, 0, []
1628601476.2261, 77, 0, 4211.795, 4134.359, 4116.41, 4129.744, 4233.846, 450, 0, []
1628601476.234, 78, 0, 4212.821, 4135.897, 4125.641, 4121.538, 4230.256, 450, 0, []
1628601476.242, 79, 0, 4214.359, 4164.615, 4135.897, 4131.795, 4235.897, 16197, 0, []
1628601476.2498, 80, 0, 4216.41, 4170.256, 4136.41, 4151.795, 4243.077, 450, 0, []
1628601476.2576, 81, 0, 4215.897, 4158.462, 4144.615, 4149.231, 4238.974, 450, 0, []
1628601476.2655, 82, 0, 4212.821, 4153.846, 4128.205, 4134.359, 4228.205, 450, 0, []
1628601476.2733, 83, 0, 4217.436, 4161.026, 4140, 4142.051, 4231.282, 16197, 0, []
1628601476.2812, 84, 0, 4211.282, 4147.179, 4144.103, 4145.641, 4225.128, 450, 0, []
1628601476.2889, 85, 0, 4202.564, 4127.692, 4133.333, 4132.308, 4210.769, 450, 0, []
1628601476.2969, 86, 0, 4220.513, 4141.026, 4145.128, 4131.282, 4223.59, 450, 0, []
1628601476.3048, 87, 0, 4235.897, 4156.41, 4131.795, 4129.744, 4233.846, 16197, 0, []
1628601476.3128, 88, 0, 4239.487, 4160, 4137.949, 4130.256, 4231.795, 450, 0, []
1628601476.3207, 89, 0, 4248.718, 4170.769, 4144.615, 4139.487, 4244.103, 450, 0, []
1628601476.3286, 90, 0, 4254.872, 4169.744, 4131.795, 4134.872, 4245.128, 450, 0, []
1628601476.3365, 91, 0, 4252.821, 4171.795, 4140.513, 4125.641, 4231.282, 16197, 0, []
1628601476.3445, 92, 0, 4257.436, 4194.359, 4131.282, 4132.308, 4236.41, 450, 0, []
1628601476.3524, 93, 0, 4255.385, 4182.051, 4137.436, 4136.41, 4234.872, 450, 0, []
1628601476.3603, 94, 0, 4243.59, 4162.564, 4146.154, 4121.538, 4214.359, 450, 0, []
1628601476.3682, 95, 0, 4251.282, 4188.205, 4140.513, 4119.487, 4218.974, 16197, 0, []
1628601476.3759, 96, 0, 4257.436, 4192.308, 4155.897, 4137.436, 4226.667, 450, 0, []
1628601476.3838, 97, 0, 4240, 4169.744, 4148.718, 4131.282, 4202.051, 450, 0, []
1628601476.3916, 98, 0, 4240, 4171.795, 4147.179, 4118.462, 4195.385, 450, 0, []
1628601476.3995, 99, 0, 4257.949, 4172.821, 4146.667, 4124.615, 4214.359, 16197, 0, []
1628601476.4073, 100, 0, 4254.359, 4164.615, 4126.667, 4128.718, 4208.718, 450, 0, []
1628601476.4151, 101, 0, 4255.897, 4176.923, 4142.051, 4141.538, 4204.615, 450, 0, []
1628601476.4229, 102, 0, 4296.923, 4197.436, 4144.615, 4172.308, 4240, 450, 0, []
1628601476.4308, 103, 0, 4324.103, 4204.615, 4129.231, 4178.462, 4261.538, 16197, 0, []
1628601476.4386, 104, 0, 4312.821, 4201.026, 4130.256, 4158.462, 4245.641, 450, 0, []
1628601476.4466, 105, 0, 4305.641, 4202.051, 4132.821, 4151.795, 4236.923, 450, 0, []
1628601476.4544, 106, 0, 4296.923, 4206.154, 4143.077, 4147.692, 4229.231, 450, 0, []
1628601476.4624, 107, 0, 4282.564, 4189.744, 4130.769, 4138.462, 4215.385, 16197, 0, []
1628601476.4703, 108, 0, 4289.231, 4165.128, 4131.282, 4145.128, 4218.974, 450, 0, []
1628601476.4783, 109, 0, 4285.128, 4169.744, 4145.641, 4145.128, 4208.718, 450, 0, []
1628601476.4862, 110, 0, 4259.487, 4183.59, 4132.308, 4134.872, 4179.487, 450, 0, []
1628601476.4941, 111, 0, 4258.462, 4183.077, 4147.692, 4141.538, 4185.641, 16197, 0, []
1628601476.502, 112, 0, 4265.128, 4177.436, 4143.59, 4146.154, 4195.385, 450, 0, []
1628601476.5099, 113, 0, 4243.077, 4158.974, 4120, 4128.718, 4169.744, 450, 0, []
1628601476.5178, 114, 0, 4261.026, 4163.077, 4150.769, 4134.872, 4181.538, 450, 0, []
1628601476.5256, 115, 0, 4326.667, 4202.564, 4162.051, 4167.692, 4232.821, 16197, 0, []
1628601476.5334, 116, 0, 4330.256, 4210.256, 4140, 4170.769, 4250.769, 450, 0, []
1628601476.5412, 117, 0, 4282.564, 4192.308, 4124.615, 4145.641, 4246.154, 450, 0, []
1628601476.5491, 118, 0, 4275.385, 4205.641, 4132.308, 4141.538, 4236.923, 450, 0, []
1628601476.5569, 119, 0, 4282.051, 4212.308, 4135.897, 4144.615, 4200, 16197, 0, []
1628601476.5648, 120, 0, 4263.077, 4171.282, 4107.179, 4131.282, 4162.051, 450, 0, []
1628601476.5725, 121, 0, 4250.769, 4145.641, 4111.795, 4120, 4151.795, 450, 0, []
1628601476.5804, 122, 0, 4258.462, 4158.974, 4122.051, 4122.051, 4155.897, 450, 0, []
1628601476.5882, 123, 0, 4268.205, 4172.308, 4118.974, 4132.308, 4166.154, 16197, 0, []
1628601476.5962, 124, 0, 4272.308, 4170.256, 4136.41, 4141.538, 4171.282, 450, 0, []
1628601476.6041, 125, 0, 4279.487, 4164.615, 4131.282, 4148.205, 4172.821, 450, 0, []
1628601476.612, 126, 0, 4283.077, 4177.949, 4133.846, 4147.179, 4170.769, 450, 0, []
1628601476.6199, 127, 0, 4276.41, 4187.692, 4140.513, 4134.359, 4155.385, 16197, 0, []
1628601476.6279, 128, 0, 4283.59, 4176.41, 4132.308, 4135.897, 4162.051, 450, 0, []
1628601476.6358, 0, 0, 4302.051, 4170.256, 4145.641, 4162.564, 4187.179, 450, 0, []
1628601476.6438, 1, 0, 4288.718, 4165.641, 4135.385, 4169.744, 4173.333, 450, 0, []
1628601476.6516, 2, 0, 4265.128, 4154.872, 4125.641, 4155.385, 4148.718, 16181, 0, []
1628601476.6596, 3, 0, 4267.179, 4153.846, 4127.692, 4152.308, 4152.308, 450, 0, []
1628601476.6675, 4, 0, 4256.41, 4148.718, 4112.821, 4137.949, 4140, 16159, 0, []
1628601476.6753, 5, 0, 4247.179, 4144.103, 4127.179, 4130.769, 4125.128, 450, 0, []
1628601476.6832, 6, 0, 4278.974, 4174.872, 4130.769, 4153.846, 4150.769, 16181, 0, []
1628601476.6909, 7, 0, 4295.897, 4197.436, 4125.641, 4157.436, 4164.615, 450, 0, []
1628601476.6988, 8, 0, 4276.41, 4178.462, 4136.41, 4142.051, 4148.718, 450, 0, []
1628601476.7066, 9, 0, 4270.256, 4168.718, 4127.692, 4147.692, 4147.179, 16074, 0, []
1628601476.7145, 10, 0, 4268.718, 4162.051, 4124.103, 4144.615, 4138.462, 450, 0, []
1628601476.7223, 11, 0, 4259.487, 4147.692, 4118.974, 4125.128, 4118.974, 16197, 0, []
1628601476.7301, 12, 0, 4271.795, 4161.538, 4119.487, 4134.872, 4128.718, 450, 0, []
1628601476.7379, 13, 0, 4283.59, 4173.846, 4130.256, 4146.667, 4143.077, 450, 0, []
1628601476.7458, 14, 0, 4272.821, 4155.897, 4129.231, 4137.436, 4133.333, 450, 0, []
1628601476.7536, 15, 0, 4265.641, 4150.256, 4140, 4136.923, 4125.641, 16197, 0, []
1628601476.7616, 16, 0, 4263.59, 4163.077, 4133.333, 4141.538, 4123.59, 0, 0, []
1628601476.7694, 17, 0, 4251.795, 4155.385, 4125.641, 4136.923, 4105.641, 0, 0, []
1628601476.7774, 18, 0, 4238.974, 4151.795, 4136.923, 4130.256, 4093.333, 0, 0, []
1628601476.7853, 19, 0, 4244.615, 4174.872, 4131.282, 4134.359, 4115.385, 0, 0, []
1628601476.7933, 20, 0, 4244.103, 4187.692, 4141.026, 4146.154, 4129.744, 0, 0, []
1628601476.8012, 21, 0, 4215.385, 4169.231, 4132.821, 4143.59, 4101.026, 0, 0, []
1628601476.8091, 22, 0, 4192.821, 4137.436, 4115.897, 4131.282, 4072.821, 0, 0, []
1628601476.817, 23, 0, 4198.462, 4140, 4132.821, 4135.385, 4079.487, 0, 0, []
1628601476.825, 24, 0, 4205.641, 4168.718, 4123.077, 4149.744, 4088.718, 0, 0, []
1628601476.8329, 25, 0, 4198.974, 4161.538, 4122.564, 4155.897, 4082.564, 0, 0, []
1628601476.8407, 26, 0, 4200.513, 4149.744, 4138.462, 4158.974, 4085.128, 0, 0, []
1628601476.8485, 27, 0, 4211.282, 4183.077, 4134.872, 4157.949, 4094.359, 0, 0, []
1628601476.8563, 28, 0, 4202.564, 4192.821, 4136.41, 4149.231, 4086.667, 0, 0, []
1628601476.8642, 29, 0, 4175.897, 4152.821, 4128.718, 4135.385, 4066.667, 0, 0, []
1628601476.872, 30, 0, 4172.821, 4145.641, 4141.538, 4135.385, 4062.564, 0, 0, []
1628601476.8799, 31, 0, 4192.308, 4156.923, 4147.692, 4149.231, 4068.205, 0, 0, []
1628601476.8876, 32, 0, 4193.846, 4141.538, 4132.308, 4157.436, 4061.026, 0, 0, []
1628601476.8955, 33, 0, 4180.513, 4138.974, 4145.128, 4153.333, 4051.282, 0, 0, []
1628601476.9033, 34, 0, 4187.179, 4150.769, 4137.949, 4152.308, 4056.41, 0, 0, []
1628601476.9112, 35, 0, 4202.051, 4157.949, 4127.179, 4160, 4067.179, 0, 0, []
1628601476.919, 36, 0, 4200.513, 4165.641, 4133.846, 4151.282, 4065.641, 0, 0, []
1628601476.9269, 37, 0, 4196.923, 4165.128, 4128.718, 4136.41, 4058.974, 0, 0, []
1628601476.9348, 38, 0, 4195.385, 4164.615, 4135.897, 4141.026, 4054.359, 0, 0, []
1628601476.9428, 39, 0, 4193.333, 4169.231, 4135.897, 4143.077, 4053.846, 0, 0, []
1628601476.9507, 40, 0, 4196.41, 4165.641, 4140.513, 4137.949, 4058.974, 0, 0, []
1628601476.9587, 41, 0, 4204.615, 4175.897, 4137.949, 4146.667, 4062.051, 0, 0, []
1628601476.9665, 42, 0, 4206.154, 4188.205, 4126.154, 4151.282, 4055.897, 0, 0, []
1628601476.9745, 43, 0, 4194.872, 4161.026, 4140.513, 4134.872, 4046.154, 0, 0, []
1628601476.9824, 44, 0, 4191.795, 4148.205, 4129.744, 4129.231, 4043.59, 0, 0, []
1628601476.9902, 45, 0, 4198.974, 4169.231, 4120, 4141.538, 4047.692, 0, 0, []
1628601476.9981, 46, 0, 4205.128, 4167.692, 4142.564, 4154.359, 4058.462, 0, 0, []
1628601477.0058, 47, 0, 4205.128, 4155.385, 4144.103, 4157.949, 4064.103, 0, 0, []
1628601477.0137, 48, 0, 4200, 4159.487, 4139.487, 4149.744, 4049.744, 0, 0, []
1628601477.0215, 49, 0, 4191.795, 4160, 4129.744, 4134.872, 4033.846, 0, 0, []
1628601477.0294, 50, 0, 4179.487, 4147.179, 4133.333, 4127.179, 4026.154, 0, 0, []
1628601477.0372, 51, 0, 4167.692, 4131.795, 4142.564, 4125.128, 4011.795, 0, 0, []
1628601477.045, 52, 0, 4162.564, 4135.897, 4120.513, 4117.949, 3998.462, 0, 0, []
1628601477.0528, 53, 0, 4176.923, 4168.205, 4130.769, 4127.692, 4009.231, 0, 0, []
1628601477.0608, 54, 0, 4185.128, 4173.333, 4146.667, 4146.667, 4025.641, 0, 0, []
1628601477.0687, 55, 0, 4173.846, 4148.718, 4139.487, 4144.615, 4022.564, 0, 0, []
1628601477.0767, 56, 0, 4176.41, 4152.821, 4147.179, 4139.487, 4017.949, 0, 0, []
1628601477.0845, 57, 0, 4186.667, 4165.641, 4136.923, 4147.692, 4023.077, 0, 0, []
1628601477.0925, 58, 0, 4177.949, 4166.154, 4133.846, 4152.821, 4024.615, 0, 0, []
1628601477.1004, 59, 0, 4167.179, 4160, 4128.205, 4150.769, 4020, 0, 0, []
1628601477.1084, 60, 0, 4173.333, 4161.026, 4116.923, 4151.282, 4021.026, 0, 0, []
1628601477.1163, 61, 0, 4173.846, 4172.308, 4133.846, 4148.205, 4021.026, 0, 0, []
1628601477.1243, 62, 0, 4160, 4156.923, 4125.641, 4136.41, 4009.744, 0, 0, []
1628601477.1321, 63, 0, 4151.795, 4126.154, 4118.462, 4127.179, 3994.359, 0, 0, []
1628601477.1401, 64, 0, 4149.231, 4132.308, 4124.615, 4124.103, 3984.615, 450, 0, []
1628601477.148, 65, 0, 4144.615, 4145.128, 4123.077, 4120, 3982.564, 450, 0, []
1628601477.1558, 66, 0, 4149.231, 4137.436, 4141.538, 4129.231, 3995.897, 16181, 0, []
1628601477.1637, 67, 0, 4157.436, 4157.949, 4142.564, 4142.051, 4010.769, 450, 0, []
1628601477.1714, 68, 0, 4133.846, 4163.59, 4128.205, 4128.205, 3986.154, 16159, 0, []
1628601477.1793, 69, 0, 4122.051, 4135.385, 4124.615, 4123.077, 3967.179, 450, 0, []
1628601477.1871, 70, 0, 4171.282, 4166.667, 4137.436, 4153.846, 4011.282, 16173, 0, []
1628601477.195, 71, 0, 4200.513, 4205.641, 4153.846, 4173.333, 4043.59, 450, 0, []
1628601477.2028, 72, 0, 4162.564, 4161.026, 4122.564, 4146.154, 4004.615, 450, 0, []
1628601477.2106, 73, 0, 4141.538, 4130.769, 4112.308, 4121.026, 3976.41, 16074, 0, []
1628601477.2185, 74, 0, 4157.949, 4165.128, 4138.974, 4120.513, 3984.615, 450, 0, []
1628601477.2264, 75, 0, 4155.385, 4178.974, 4130.769, 4117.949, 3981.026, 16197, 0, []
1628601477.2343, 76, 0, 4144.615, 4156.923, 4126.667, 4114.359, 3981.026, 450, 0, []
1628601477.2423, 77, 0, 4151.282, 4144.103, 4127.179, 4115.385, 3992.821, 450, 0, []
1628601477.2502, 78, 0, 4163.59, 4153.846, 4133.846, 4123.077, 4006.154, 450, 0, []
1628601477.2581, 79, 0, 4168.205, 4170.256, 4145.641, 4128.718, 4031.795, 16197, 0, []
1628601477.266, 80, 0, 4161.538, 4165.641, 4133.846, 4122.051, 4048.205, 450, 0, []
1628601477.274, 81, 0, 4149.231, 4142.564, 4137.949, 4110.769, 4039.487, 450, 0, []
1628601477.2819, 82, 0, 4147.692, 4144.103, 4129.231, 4106.667, 4037.436, 450, 0, []
1628601477.2898, 83, 0, 4165.641, 4174.359, 4116.41, 4119.487, 4057.436, 16197, 0, []
1628601477.2977, 84, 0, 4167.179, 4176.923, 4120, 4114.872, 4056.41, 450, 0, []
1628601477.3055, 85, 0, 4127.179, 4130.256, 4103.077, 4082.564, 4015.385, 450, 0, []
1628601477.3134, 86, 0, 4120.513, 4122.564, 4116.923, 4095.385, 4009.231, 450, 0, []
1628601477.3212, 87, 0, 4170.769, 4176.923, 4143.59, 4153.333, 4061.538, 16197, 0, []
1628601477.329, 88, 0, 4187.179, 4185.641, 4137.436, 4163.59, 4080.513, 450, 0, []
1628601477.3368, 89, 0, 4168.205, 4160.513, 4138.462, 4137.436, 4051.282, 450, 0, []
1628601477.3447, 90, 0, 4177.436, 4161.538, 4144.615, 4140, 4049.744, 450, 0, []
1628601477.3525, 91, 0, 4191.795, 4162.564, 4145.641, 4150.256, 4057.436, 16197, 0, []
1628601477.3605, 92, 0, 4188.205, 4164.103, 4134.359, 4141.538, 4043.077, 450, 0, []
1628601477.3683, 93, 0, 4200.513, 4187.692, 4131.282, 4141.538, 4051.795, 450, 0, []
1628601477.3763, 94, 0, 4218.462, 4189.744, 4143.59, 4144.103, 4067.179, 450, 0, []
1628601477.3842, 95, 0, 4215.897, 4178.462, 4131.282, 4136.41, 4055.385, 16197, 0, []
1628601477.3922, 96, 0, 4211.282, 4189.231, 4134.872, 4137.436, 4048.718, 450, 0, []
1628601477.4001, 97, 0, 4209.744, 4179.487, 4147.179, 4140, 4054.359, 450, 0, []
1628601477.408, 98, 0, 4208.718, 4162.051, 4138.974, 4141.026, 4053.333, 450, 0, []
1628601477.4159, 99, 0, 4198.462, 4167.179, 4146.667, 4144.103, 4041.538, 16197, 0, []
1628601477.4239, 100, 0, 4180, 4165.641, 4134.359, 4132.821, 4026.154, 450, 0, []
1628601477.4318, 101, 0, 4170.769, 4155.385, 4131.282, 4121.538, 4010.769, 450, 0, []
1628601477.4398, 102, 0, 4188.205, 4161.538, 4152.308, 4146.154, 4016.923, 450, 0, []
1628601477.4476, 103, 0, 4222.564, 4193.846, 4145.641, 4178.974, 4047.692, 16197, 0, []
1628601477.4554, 104, 0, 4227.692, 4208.205, 4143.59, 4172.308, 4058.462, 450, 0, []
1628601477.4633, 105, 0, 4201.538, 4174.359, 4135.385, 4149.231, 4034.359, 450, 0, []
1628601477.4711, 106, 0, 4197.949, 4149.744, 4132.821, 4148.718, 4026.154, 450, 0, []
1628601477.479, 107, 0, 4215.897, 4171.795, 4153.846, 4163.077, 4047.692, 16197, 0, []
1628601477.4867, 108, 0, 4216.923, 4199.487, 4141.026, 4171.795, 4054.359, 450, 0, []
1628601477.4946, 109, 0, 4200, 4201.538, 4133.333, 4168.718, 4035.385, 450, 0, []
1628601477.5024, 110, 0, 4183.077, 4185.641, 4134.359, 4147.692, 4015.897, 450, 0, []
1628601477.5103, 111, 0, 4168.205, 4166.667, 4136.923, 4128.205, 4007.692, 16197, 0, []
1628601477.5181, 112, 0, 4165.128, 4157.949, 4145.128, 4138.974, 4009.744, 450, 0, []
1628601477.526, 113, 0, 4177.436, 4156.41, 4128.205, 4149.231, 4020.513, 450, 0, []
1628601477.5339, 114, 0, 4187.692, 4145.641, 4136.923, 4138.462, 4026.667, 450, 0, []
1628601477.5419, 115, 0, 4195.385, 4149.744, 4150.256, 4140, 4031.282, 16197, 0, []
1628601477.5498, 116, 0, 4208.205, 4169.231, 4140.513, 4154.872, 4043.59, 450, 0, []
1628601477.5578, 117, 0, 4213.333, 4171.282, 4145.641, 4147.692, 4049.231, 450, 0, []
1628601477.5656, 118, 0, 4203.077, 4168.718, 4140, 4128.205, 4044.615, 450, 0, []
1628601477.5736, 119, 0, 4186.667, 4172.821, 4136.41, 4132.308, 4036.923, 16197, 0, []
1628601477.5815, 120, 0, 4182.564, 4162.564, 4129.231, 4141.026, 4028.718, 450, 0, []
1628601477.5895, 121, 0, 4185.641, 4145.641, 4123.077, 4134.872, 4020, 450, 0, []
1628601477.5974, 122, 0, 4181.538, 4157.949, 4136.41, 4130.256, 4018.462, 450, 0, []
1628601477.6053, 123, 0, 4180.513, 4168.718, 4131.795, 4128.205, 4026.154, 16197, 0, []
1628601477.6132, 124, 0, 4187.179, 4155.385, 4144.103, 4122.564, 4030.769, 450, 0, []
1628601477.621, 125, 0, 4182.051, 4157.949, 4149.231, 4112.821, 4020, 450, 0, []
1628601477.6289, 126, 0, 4169.744, 4160, 4123.077, 4105.641, 4008.718, 450, 0, []
1628601477.6367, 127, 0, 4178.974, 4140, 4131.282, 4117.949, 4021.026, 16197, 0, []
1628601477.6445, 128, 0, 4203.077, 4142.051, 4139.487, 4138.462, 4048.205, 450, 0, []
1628601477.6523, 0, 0, 4207.179, 4157.436, 4134.872, 4132.308, 4050.769, 450, 0, []
1628601477.6602, 1, 0, 4194.359, 4153.333, 4132.821, 4107.692, 4033.333, 450, 0, []
1628601477.668, 2, 0, 4207.692, 4167.179, 4135.897, 4115.385, 4049.744, 16181, 0, []
1628601477.676, 3, 0, 4217.949, 4191.282, 4149.744, 4140.513, 4066.154, 450, 0, []
1628601477.6838, 4, 0, 4187.179, 4170.256, 4136.923, 4134.359, 4032.821, 16159, 0, []
1628601477.6918, 5, 0, 4170.256, 4144.103, 4136.923, 4120.513, 4016.923, 450, 0, []
1628601477.6997, 6, 0, 4184.615, 4158.462, 4147.179, 4125.641, 4041.026, 16170, 0, []
1628601477.7077, 7, 0, 4180.513, 4173.333, 4130.256, 4133.333, 4042.564, 450, 0, []
1628601477.7156, 8, 0, 4169.744, 4157.436, 4137.949, 4138.974, 4033.846, 450, 0, []
1628601477.7235, 9, 0, 4183.077, 4146.667, 4140, 4148.205, 4053.333, 16074, 0, []
1628601477.7314, 10, 0, 4197.436, 4158.974, 4136.923, 4152.308, 4073.846, 450, 0, []
1628601477.7394, 11, 0, 4195.385, 4170.769, 4143.59, 4140, 4070.256, 16197, 0, []
1628601477.7473, 12, 0, 4186.154, 4170.769, 4127.692, 4129.231, 4062.051, 450, 0, []
1628601477.7553, 13, 0, 4191.282, 4166.154, 4126.667, 4138.462, 4074.359, 450, 0, []
1628601477.7631, 14, 0, 4214.359, 4170.256, 4123.59, 4151.795, 4107.179, 450, 0, []
1628601477.7709, 15, 0, 4223.59, 4174.872, 4125.128, 4154.359, 4124.615, 16197, 0, []
1628601477.7788, 16, 0, 4215.385, 4163.077, 4144.103, 4152.308, 4115.385, 0, 0, []
1628601477.7866, 17, 0, 4216.923, 4158.462, 4139.487, 4161.026, 4117.436, 0, 0, []
1628601477.7945, 18, 0, 4211.282, 4163.077, 4138.974, 4160.513, 4122.051, 0, 0, []
1628601477.8022, 19, 0, 4192.821, 4160.513, 4131.795, 4138.462, 4109.231, 0, 0, []
1628601477.8101, 20, 0, 4186.667, 4160, 4122.564, 4137.436, 4100.513, 0, 0, []
1628601477.8179, 21, 0, 4183.59, 4154.872, 4131.282, 4152.308, 4096.41, 0, 0, []
1628601477.8258, 22, 0, 4183.077, 4146.667, 4129.231, 4148.205, 4098.462, 0, 0, []
1628601477.8336, 23, 0, 4172.821, 4138.462, 4131.282, 4123.59, 4086.667, 0, 0, []
1628601477.8414, 24, 0, 4151.282, 4130.769, 4124.615, 4112.308, 4068.718, 0, 0, []
1628601477.8492, 25, 0, 4171.282, 4155.897, 4123.59, 4140.513, 4092.308, 0, 0, []
1628601477.8572, 26, 0, 4209.744, 4193.846, 4142.564, 4171.282, 4130.769, 0, 0, []
1628601477.8651, 27, 0, 4200, 4174.359, 4124.103, 4165.128, 4125.641, 0, 0, []
1628601477.8731, 28, 0, 4175.897, 4151.795, 4117.949, 4143.59, 4108.718, 0, 0, []
1628601477.881, 29, 0, 4186.154, 4166.154, 4131.282, 4140.513, 4126.667, 0, 0, []
1628601477.8889, 30, 0, 4190.769, 4158.462, 4128.205, 4142.051, 4128.718, 0, 0, []
1628601477.8968, 31, 0, 4180, 4159.487, 4142.051, 4144.615, 4114.359, 0, 0, []
1628601477.9047, 32, 0, 4186.154, 4181.538, 4136.41, 4155.385, 4130.256, 0, 0, []
1628601477.9126, 33, 0, 4190.256, 4158.974, 4130.769, 4152.821, 4141.026, 0, 0, []
1628601477.9206, 34, 0, 4177.949, 4135.385, 4136.41, 4144.103, 4123.59, 0, 0, []
1628601477.9284, 35, 0, 4165.641, 4157.436, 4122.051, 4134.359, 4110.256, 0, 0, []
1628601477.9362, 36, 0, 4175.897, 4175.385, 4130.256, 4130.769, 4122.051, 0, 0, []
1628601477.9441, 37, 0, 4195.897, 4175.385, 4134.872, 4143.59, 4138.974, 0, 0, []
1628601477.9519, 38, 0, 4195.897, 4168.205, 4132.308, 4154.359, 4141.538, 0, 0, []
1628601477.9598, 39, 0, 4176.41, 4153.333, 4129.231, 4139.487, 4125.128, 0, 0, []
1628601477.9675, 40, 0, 4170.256, 4147.179, 4121.026, 4128.718, 4117.436, 0, 0, []
1628601477.9754, 41, 0, 4193.333, 4156.41, 4144.615, 4156.41, 4151.282, 0, 0, []
1628601477.9832, 42, 0, 4206.154, 4156.923, 4141.538, 4160.513, 4174.359, 0, 0, []
1628601477.9911, 43, 0, 4184.615, 4143.077, 4126.154, 4127.692, 4157.949, 0, 0, []
1628601477.9989, 44, 0, 4182.564, 4154.872, 4141.026, 4138.462, 4164.103, 0, 0, []
1628601478.0068, 45, 0, 4206.667, 4181.026, 4138.974, 4170.256, 4192.308, 0, 0, []
1628601478.0147, 46, 0, 4197.436, 4181.538, 4128.718, 4160, 4184.103, 0, 0, []
1628601478.0227, 47, 0, 4176.923, 4164.615, 4115.897, 4140, 4165.128, 0, 0, []
1628601478.0306, 48, 0, 4185.128, 4157.436, 4126.667, 4140.513, 4167.692, 0, 0, []
1628601478.0386, 49, 0, 4186.154, 4154.359, 4148.205, 4135.897, 4170.256, 0, 0, []
1628601478.0464, 50, 0, 4171.795, 4153.846, 4130.256, 4123.59, 4168.718, 0, 0, []
1628601478.0544, 51, 0, 4163.077, 4150.256, 4129.231, 4120, 4161.026, 0, 0, []
1628601478.0623, 52, 0, 4163.077, 4135.385, 4136.923, 4121.538, 4156.41, 0, 0, []
1628601478.0703, 53, 0, 4179.487, 4145.128, 4131.282, 4136.41, 4177.436, 0, 0, []
1628601478.0782, 54, 0, 4189.744, 4157.436, 4131.795, 4149.744, 4195.897, 0, 0, []
1628601478.0859, 55, 0, 4181.538, 4141.538, 4117.949, 4138.462, 4190.769, 0, 0, []
1628601478.0938, 56, 0, 4193.333, 4157.436, 4128.718, 4130.256, 4200, 0, 0, []
1628601478.1016, 57, 0, 4203.59, 4187.692, 4133.333, 4139.487, 4209.744, 0, 0, []
1628601478.1095, 58, 0, 4180.513, 4150.256, 4115.897, 4133.846, 4187.179, 0, 0, []
1628601478.1173, 59, 0, 4180.513, 4133.333, 4132.308, 4133.846, 4191.282, 0, 0, []
1628601478.1251, 60, 0, 4221.026, 4192.821, 4137.436, 4163.077, 4234.359, 0, 0, []
1628601478.1329, 61, 0, 4231.282, 4201.538, 4136.923, 4172.308, 4243.59, 0, 0, []
1628601478.1409, 62, 0, 4198.974, 4147.692, 4135.385, 4147.692, 4217.436, 0, 0, []
1628601478.1488, 63, 0, 4184.615, 4148.718, 4128.205, 4139.487, 4215.385, 0, 0, []
1628601478.1568, 64, 0, 4192.821, 4184.615, 4141.538, 4143.077, 4224.103, 450, 0, []
1628601478.1646, 65, 0, 4190.769, 4165.128, 4133.846, 4136.923, 4215.385, 450, 0, []
1628601478.1726, 66, 0, 4186.154, 4137.436, 4130.256, 4141.538, 4215.897, 16181, 0, []
1628601478.1805, 67, 0, 4188.205, 4161.026, 4137.949, 4144.615, 4227.692, 450, 0, []
1628601478.1885, 68, 0, 4180, 4170.256, 4128.205, 4131.795, 4223.077, 16159, 0, []
1628601478.1964, 69, 0, 4166.667, 4134.872, 4132.308, 4128.205, 4203.077, 450, 0, []
1628601478.2042, 70, 0, 4166.154, 4137.949, 4126.154, 4132.821, 4195.897, 16167, 0, []
1628601478.2121, 71, 0, 4176.41, 4177.949, 4126.667, 4132.821, 4208.718, 450, 0, []
1628601478.22, 72, 0, 4193.333, 4176.41, 4140, 4140, 4229.744, 450, 0, []
1628601478.228, 73, 0, 4205.128, 4165.128, 4130.769, 4150.769, 4237.949, 16073, 0, []
1628601478.2358, 74, 0, 4186.667, 4164.615, 4131.282, 4137.436, 4214.872, 450, 0, []
1628601478.2436, 75, 0, 4174.872, 4152.308, 4132.821, 4114.872, 4202.051, 16197, 0, []
1628601478.2514, 76, 0, 4195.897, 4148.205, 4137.949, 4121.538, 4224.103, 450, 0, []
1628601478.2593, 77, 0, 4209.744, 4152.308, 4138.974, 4140, 4240, 450, 0, []
1628601478.2671, 78, 0, 4201.538, 4154.359, 4118.974, 4130.256, 4240, 450, 0, []
1628601478.275, 79, 0, 4187.692, 4156.41, 4136.41, 4122.564, 4243.077, 16197, 0, []
1628601478.2827, 80, 0, 4171.795, 4150.769, 4144.103, 4136.41, 4235.897, 450, 0, []
1628601478.2907, 81, 0, 4162.564, 4150.769, 4126.154, 4141.026, 4222.564, 450, 0, []
1628601478.2986, 82, 0, 4168.718, 4167.179, 4137.436, 4135.897, 4231.282, 450, 0, []
1628601478.3065, 83, 0, 4163.077, 4162.051, 4135.385, 4134.359, 4235.385, 16197, 0, []
1628601478.3143, 84, 0, 4133.846, 4129.231, 4129.744, 4120, 4209.744, 450, 0, []
1628601478.3222, 85, 0, 4131.282, 4132.821, 4130.769, 4115.385, 4199.487, 450, 0, []
1628601478.3301, 86, 0, 4160, 4158.462, 4133.333, 4129.231, 4220, 450, 0, []
1628601478.3381, 87, 0, 4170.769, 4154.872, 4144.103, 4131.282, 4233.333, 16197, 0, []
1628601478.346, 88, 0, 4168.205, 4149.744, 4131.795, 4133.846, 4233.846, 450, 0, []
1628601478.354, 89, 0, 4173.846, 4168.718, 4136.923, 4138.974, 4235.385, 450, 0, []
1628601478.3618, 90, 0, 4183.077, 4179.487, 4148.718, 4130.256, 4241.026, 450, 0, []
1628601478.3698, 91, 0, 4207.179, 4173.333, 4135.385, 4132.308, 4262.564, 16197, 0, []
1628601478.3777, 92, 0, 4222.051, 4185.641, 4135.385, 4134.872, 4269.744, 450, 0, []
1628601478.3855, 93, 0, 4205.128, 4193.846, 4133.333, 4115.897, 4248.205, 450, 0, []
1628601478.3934, 94, 0, 4202.564, 4170.256, 4142.564, 4117.949, 4245.641, 450, 0, []
1628601478.4011, 95, 0, 4221.538, 4166.154, 4146.667, 4145.641, 4264.615, 16197, 0, []
1628601478.409, 96, 0, 4225.641, 4196.923, 4132.821, 4153.846, 4269.744, 450, 0, []
1628601478.4168, 97, 0, 4214.872, 4190.256, 4133.333, 4135.897, 4258.462, 450, 0, []
1628601478.4247, 98, 0, 4212.821, 4143.59, 4127.692, 4115.385, 4248.718, 450, 0, []
1628601478.4325, 99, 0, 4231.282, 4156.41, 4135.897, 4128.718, 4261.026, 16197, 0, []
1628601478.4403, 100, 0, 4247.692, 4202.564, 4141.538, 4155.897, 4278.462, 450, 0, []
1628601478.4481, 101, 0, 4246.667, 4187.692, 4121.026, 4145.641, 4269.744, 450, 0, []
1628601478.4561, 102, 0, 4240.513, 4155.385, 4132.308, 4128.718, 4257.436, 450, 0, []
1628601478.464, 103, 0, 4227.692, 4158.974, 4137.949, 4130.256, 4255.385, 16197, 0, []
1628601478.472, 104, 0, 4224.615, 4176.41, 4130.769, 4125.641, 4250.769, 450, 0, []
1628601478.4798, 105, 0, 4250.769, 4177.949, 4140, 4125.641, 4254.359, 450, 0, []
1628601478.4878, 106, 0, 4273.846, 4166.154, 4135.897, 4140.513, 4268.205, 450, 0, []
1628601478.4957, 107, 0, 4271.795, 4181.538, 4147.179, 4145.128, 4272.308, 16197, 0, []
1628601478.5037, 108, 0, 4270.769, 4214.359, 4146.154, 4137.949, 4269.231, 450, 0, []
1628601478.5116, 109, 0, 4268.718, 4200, 4131.282, 4140, 4265.128, 450, 0, []
1628601478.5195, 110, 0, 4261.538, 4164.103, 4140, 4141.538, 4256.923, 450, 0, []
1628601478.5274, 111, 0, 4265.128, 4173.333, 4135.385, 4136.41, 4254.872, 16197, 0, []
1628601478.5352, 112, 0, 4264.615, 4187.179, 4135.897, 4137.949, 4254.359, 450, 0, []
1628601478.5431, 113, 0, 4260.513, 4183.077, 4138.974, 4146.667, 4256.923, 450, 0, []
1628601478.5509, 114, 0, 4262.564, 4184.615, 4140.513, 4149.744, 4265.128, 450, 0, []
1628601478.5587, 115, 0, 4266.154, 4186.154, 4152.308, 4153.846, 4271.795, 16197, 0, []
1628601478.5665, 116, 0, 4262.564, 4193.333, 4140, 4154.359, 4265.641, 450, 0, []
1628601478.5744, 117, 0, 4261.538, 4202.564, 4138.974, 4145.641, 4260, 450, 0, []
1628601478.5822, 118, 0, 4288.205, 4202.051, 4148.205, 4152.821, 4287.179, 450, 0, []
1628601478.5901, 119, 0, 4311.282, 4199.487, 4155.385, 4173.846, 4317.436, 16197, 0, []
1628601478.5979, 120, 0, 4290.769, 4184.615, 4148.205, 4166.154, 4298.974, 450, 0, []
1628601478.6058, 121, 0, 4250.769, 4153.846, 4113.333, 4128.205, 4253.846, 450, 0, []
1628601478.6137, 122, 0, 4241.538, 4153.333, 4130.769, 4116.923, 4241.538, 450, 0, []
1628601478.6217, 123, 0, 4266.154, 4185.128, 4148.718, 4150.769, 4271.795, 16197, 0, []
1628601478.6296, 124, 0, 4283.59, 4194.872, 4128.205, 4170.769, 4288.718, 450, 0, []
1628601478.6376, 125, 0, 4265.641, 4179.487, 4137.436, 4141.538, 4263.59, 450, 0, []
1628601478.6454, 126, 0, 4243.077, 4167.692, 4143.077, 4120.513, 4243.59, 450, 0, []
1628601478.6534, 127, 0, 4257.436, 4175.385, 4145.641, 4152.821, 4262.051, 16197, 0, []
1628601478.6613, 128, 0, 4277.949, 4196.41, 4143.59, 4181.538, 4281.026, 450, 0, []
1628601478.6693, 0, 0, 4270.769, 4199.487, 4126.154, 4171.795, 4278.462, 450, 0, []
1628601478.6772, 1, 0, 4258.462, 4182.051, 4132.308, 4161.538, 4272.308, 450, 0, []
1628601478.685, 2, 0, 4269.744, 4189.231, 4133.846, 4164.103, 4281.538, 16181, 0, []
1628601478.6929, 3, 0, 4282.051, 4211.795, 4129.744, 4158.974, 4293.846, 450, 0, []
1628601478.7007, 4, 0, 4269.744, 4208.205, 4128.718, 4149.231, 4291.282, 16159, 0, []
1628601478.7086, 5, 0, 4262.564, 4194.359, 4126.154, 4150.769, 4288.718, 450, 0, []
1628601478.7164, 6, 0, 4264.103, 4190.256, 4146.667, 4157.436, 4291.282, 16176, 0, []
1628601478.7242, 7, 0, 4247.179, 4175.385, 4137.949, 4152.821, 4272.308, 450, 0, []
1628601478.732, 8, 0, 4230.256, 4161.026, 4121.026, 4144.103, 4248.205, 450, 0, []
1628601478.7399, 9, 0, 4242.051, 4171.795, 4131.282, 4140, 4248.718, 16073, 0, []
1628601478.7477, 10, 0, 4260.513, 4174.872, 4126.667, 4135.897, 4258.974, 450, 0, []
1628601478.7556, 11, 0, 4271.795, 4164.615, 4140, 4136.923, 4270.769, 16195, 0, []
1628601478.7633, 12, 0, 4281.026, 4175.897, 4143.59, 4144.615, 4280, 450, 0, []
1628601478.7712, 13, 0, 4269.744, 4189.744, 4129.744, 4147.692, 4267.179, 450, 0, []
1628601478.779, 14, 0, 4248.718, 4173.333, 4131.282, 4135.385, 4248.205, 450, 0, []
1628601478.787, 15, 0, 4242.051, 4145.641, 4119.487, 4117.949, 4244.103, 16195, 0, []
1628601478.7949, 16, 0, 4248.205, 4150.769, 4131.795, 4124.615, 4249.231, 0, 0, []
1628601478.8028, 17, 0, 4267.179, 4188.205, 4150.769, 4149.231, 4272.308, 0, 0, []
1628601478.8107, 18, 0, 4286.154, 4211.282, 4144.615, 4155.385, 4298.974, 0, 0, []
1628601478.8187, 19, 0, 4278.974, 4194.359, 4140.513, 4147.692, 4293.846, 0, 0, []
1628601478.8266, 20, 0, 4263.077, 4161.026, 4126.667, 4145.128, 4278.974, 0, 0, []
1628601478.8346, 21, 0, 4262.051, 4154.872, 4134.872, 4151.282, 4280.513, 0, 0, []
1628601478.8424, 22, 0, 4259.487, 4174.359, 4138.462, 4154.359, 4280.513, 0, 0, []
1628601478.8504, 23, 0, 4248.205, 4182.051, 4120.513, 4144.103, 4275.385, 0, 0, []
1628601478.8583, 24, 0, 4248.205, 4170.769, 4128.718, 4135.897, 4274.359, 0, 0, []
1628601478.8661, 25, 0, 4249.231, 4161.538, 4127.692, 4131.795, 4269.231, 0, 0, []
1628601478.874, 26, 0, 4240.513, 4169.231, 4130.256, 4123.077, 4258.974, 0, 0, []
1628601478.8817, 27, 0, 4240, 4176.923, 4136.41, 4123.077, 4263.59, 0, 0, []
1628601478.8896, 28, 0, 4252.821, 4172.821, 4125.641, 4138.462, 4286.154, 0, 0, []
1628601478.8974, 29, 0, 4253.846, 4172.821, 4141.538, 4146.154, 4290.769, 0, 0, []
1628601478.9053, 30, 0, 4232.308, 4157.949, 4133.846, 4130.256, 4273.333, 0, 0, []
1628601478.9131, 31, 0, 4208.205, 4133.333, 4115.385, 4109.744, 4284.615, 0, 0, []
1628601478.9209, 32, 0, 4211.795, 4148.205, 4126.154, 4112.821, 4330.256, 0, 0, []
1628601478.9287, 33, 0, 4226.667, 4175.385, 4128.205, 4133.333, 4349.231, 0, 0, []
1628601478.9367, 34, 0, 4225.128, 4167.692, 4139.487, 4145.128, 4324.615, 0, 0, []
1628601478.9446, 35, 0, 4220, 4155.385, 4136.923, 4142.564, 4297.436, 0, 0, []
1628601478.9526, 36, 0, 4220, 4163.59, 4131.282, 4136.41, 4271.795, 0, 0, []
1628601478.9604, 37, 0, 4210.256, 4162.564, 4138.974, 4130.256, 4247.692, 0, 0, []
1628601478.9684, 38, 0, 4210.256, 4147.692, 4125.128, 4127.179, 4246.154, 0, 0, []
1628601478.9763, 39, 0, 4231.282, 4141.026, 4131.282, 4128.718, 4264.103, 0, 0, []
1628601478.9843, 40, 0, 4233.846, 4156.41, 4128.718, 4125.128, 4271.282, 0, 0, []
1628601478.9922, 41, 0, 4218.974, 4176.41, 4126.667, 4128.205, 4266.667, 0, 0, []
1628601479.0001, 42, 0, 4216.41, 4165.128, 4141.538, 4138.974, 4264.103, 0, 0, []
1628601479.008, 43, 0, 4206.667, 4147.692, 4126.667, 4127.692, 4251.795, 0, 0, []
1628601479.0158, 44, 0, 4195.385, 4150.769, 4128.205, 4115.897, 4243.077, 0, 0, []
1628601479.0237, 45, 0, 4205.641, 4153.333, 4135.897, 4122.051, 4246.667, 0, 0, []
1628601479.0315, 46, 0, 4218.974, 4154.872, 4134.872, 4128.205, 4250.256, 0, 0, []
1628601479.0393, 47, 0, 4222.564, 4165.128, 4145.641, 4131.282, 4268.205, 0, 0, []
1628601479.0471, 48, 0, 4240.513, 4171.795, 4146.667, 4137.436, 4300.513, 0, 0, []
1628601479.055, 49, 0, 4241.026, 4174.872, 4146.667, 4133.846, 4293.846, 0, 0, []
1628601479.0628, 50, 0, 4206.154, 4172.821, 4123.077, 4117.949, 4248.718, 0, 0, []
1628601479.0707, 51, 0, 4202.051, 4169.231, 4124.103, 4120.513, 4245.641, 0, 0, []
1628601479.0784, 52, 0, 4228.205, 4176.41, 4157.436, 4129.231, 4271.795, 0, 0, []
1628601479.0863, 53, 0, 4225.641, 4178.974, 4131.795, 4128.718, 4269.231, 0, 0, []
1628601479.0941, 54, 0, 4210.769, 4170.769, 4125.641, 4138.462, 4258.462, 0, 0, []
1628601479.1021, 55, 0, 4217.436, 4163.077, 4146.667, 4142.051, 4264.615, 0, 0, []
1628601479.11, 56, 0, 4222.051, 4167.692, 4134.872, 4126.667, 4264.103, 0, 0, []
1628601479.1179, 57, 0, 4214.872, 4171.282, 4139.487, 4125.641, 4258.974, 0, 0, []
1628601479.1258, 58, 0, 4225.641, 4167.179, 4134.872, 4143.077, 4268.718, 0, 0, []
1628601479.1338, 59, 0, 4232.821, 4167.692, 4128.205, 4142.564, 4268.205, 0, 0, []
1628601479.1417, 60, 0, 4228.205, 4171.795, 4136.41, 4137.949, 4260.513, 0, 0, []
1628601479.1497, 61, 0, 4235.385, 4170.769, 4140, 4154.359, 4274.872, 0, 0, []
1628601479.1575, 62, 0, 4237.949, 4164.103, 4146.154, 4160, 4289.231, 0, 0, []
1628601479.1653, 63, 0, 4217.949, 4178.974, 4130.769, 4140.513, 4272.308, 0, 0, []
1628601479.1732, 64, 0, 4196.923, 4188.205, 4132.821, 4126.154, 4246.667, 450, 0, []
1628601479.181, 65, 0, 4194.359, 4173.846, 4134.872, 4138.974, 4241.538, 450, 0, []
1628601479.1889, 66, 0, 4204.615, 4174.872, 4112.308, 4154.359, 4250.769, 16181, 0, []
1628601479.1966, 67, 0, 4205.128, 4176.923, 4129.744, 4133.846, 4253.333, 450, 0, []
1628601479.2045, 68, 0, 4188.718, 4158.974, 4138.462, 4100.513, 4238.974, 16159, 0, []
1628601479.2123, 69, 0, 4186.154, 4142.564, 4134.872, 4112.308, 4238.974, 450, 0, []
1628601479.2202, 70, 0, 4193.333, 4137.949, 4141.026, 4140, 4253.846, 16167, 0, []
1628601479.228, 71, 0, 4191.282, 4144.615, 4127.179, 4141.026, 4256.41, 450, 0, []
1628601479.2358, 72, 0, 4191.282, 4170.256, 4128.718, 4147.692, 4255.385, 450, 0, []
1628601479.2436, 73, 0, 4197.949, 4191.795, 4122.051, 4158.974, 4260, 16073, 0, []
1628601479.2516, 74, 0, 4208.205, 4178.462, 4121.538, 4152.308, 4268.205, 450, 0, []
1628601479.2595, 75, 0, 4214.359, 4168.205, 4133.333, 4146.154, 4274.359, 16194, 0, []
1628601479.2675, 76, 0, 4210.256, 4177.949, 4122.051, 4135.897, 4269.744, 450, 0, []
1628601479.2753, 77, 0, 4194.872, 4175.897, 4137.949, 4108.205, 4250.256, 450, 0, []
1628601479.2833, 78, 0, 4181.026, 4154.872, 4145.641, 4081.026, 4232.821, 450, 0, []
1628601479.2912, 79, 0, 4168.718, 4143.077, 4136.41, 4076.923, 4218.974, 16194, 0, []
1628601479.2992, 80, 0, 4164.103, 4162.564, 4141.538, 4101.538, 4207.692, 450, 0, []
1628601479.3071, 81, 0, 4170.256, 4180, 4126.154, 4132.821, 4218.462, 450, 0, []
1628601479.315, 82, 0, 4171.795, 4167.692, 4133.333, 4145.128, 4238.462, 450, 0, []
1628601479.3229, 83, 0, 4157.436, 4146.154, 4142.051, 4145.128, 4245.641, 16194, 0, []
1628601479.3309, 84, 0, 4129.231, 4137.949, 4129.744, 4142.051, 4236.41, 450, 0, []
1628601479.3388, 85, 0, 4120, 4146.667, 4139.487, 4144.615, 4232.821, 450, 0, []
1628601479.3466, 86, 0, 4132.308, 4158.462, 4135.385, 4143.59, 4245.128, 450, 0, []
1628601479.3545, 87, 0, 4142.564, 4153.333, 4141.538, 4146.667, 4252.308, 16194, 0, []
1628601479.3622, 88, 0, 4152.821, 4141.026, 4147.179, 4169.231, 4253.333, 450, 0, []
1628601479.3701, 89, 0, 4153.846, 4155.897, 4132.308, 4178.974, 4248.205, 450, 0, []
1628601479.3779, 90, 0, 4136.923, 4176.41, 4142.051, 4161.538, 4228.718, 450, 0, []
1628601479.3859, 91, 0, 4123.59, 4167.179, 4145.128, 4148.718, 4205.641, 16194, 0, []
1628601479.3938, 92, 0, 4109.744, 4158.974, 4142.051, 4140.513, 4187.179, 450, 0, []
1628601479.4017, 93, 0, 4093.846, 4177.436, 4133.333, 4125.128, 4175.385, 450, 0, []
1628601479.4096, 94, 0, 4114.359, 4189.744, 4130.769, 4119.487, 4186.154, 450, 0, []
1628601479.4176, 95, 0, 4158.974, 4178.974, 4161.026, 4133.333, 4211.282, 16194, 0, []
1628601479.4255, 96, 0, 4186.667, 4184.615, 4157.949, 4158.462, 4232.308, 450, 0, []
1628601479.4335, 97, 0, 4193.846, 4193.846, 4141.538, 4183.59, 4241.026, 450, 0, []
1628601479.4413, 98, 0, 4182.051, 4162.564, 4133.846, 4185.641, 4225.128, 450, 0, []
1628601479.4493, 99, 0, 4169.231, 4154.872, 4123.077, 4177.949, 4203.59, 16194, 0, []
1628601479.4572, 100, 0, 4169.744, 4201.538, 4140, 4177.949, 4200, 450, 0, []
1628601479.465, 101, 0, 4152.821, 4198.462, 4127.692, 4151.795, 4181.538, 450, 0, []
1628601479.4729, 102, 0, 4124.615, 4157.949, 4116.923, 4120, 4145.128, 450, 0, []
1628601479.4806, 103, 0, 4142.051, 4180.513, 4137.949, 4140, 4157.436, 16194, 0, []
1628601479.4885, 104, 0, 4178.974, 4204.103, 4130.256, 4167.179, 4195.385, 450, 0, []
1628601479.4963, 105, 0, 4176.923, 4172.821, 4132.308, 4165.128, 4195.385, 450, 0, []
1628601479.5042, 106, 0, 4165.641, 4172.821, 4136.41, 4175.897, 4188.718, 450, 0, []
1628601479.512, 107, 0, 4181.026, 4213.846, 4133.333, 4197.949, 4200.513, 16194, 0, []
1628601479.5198, 108, 0, 4198.974, 4220.513, 4145.641, 4197.949, 4207.692, 450, 0, []
1628601479.5276, 109, 0, 4197.949, 4191.282, 4136.923, 4181.538, 4204.103, 450, 0, []
1628601479.5355, 110, 0, 4189.744, 4171.795, 4137.436, 4165.641, 4195.897, 450, 0, []
1628601479.5433, 111, 0, 4179.487, 4174.359, 4135.385, 4149.744, 4185.128, 16194, 0, []
1628601479.5513, 112, 0, 4172.308, 4189.744, 4129.231, 4145.128, 4184.615, 450, 0, []
1628601479.5591, 113, 0, 4164.615, 4183.59, 4139.487, 4141.026, 4179.487, 450, 0, []
1628601479.5671, 114, 0, 4170.256, 4173.333, 4128.718, 4139.487, 4170.769, 450, 0, []
1628601479.575, 115, 0, 4197.949, 4195.897, 4138.974, 4162.564, 4188.205, 16194, 0, []
1628601479.583, 116, 0, 4188.718, 4201.026, 4140.513, 4154.872, 4179.487, 450, 0, []
1628601479.5909, 117, 0, 4149.231, 4172.821, 4121.538, 4124.103, 4140.513, 450, 0, []
1628601479.5988, 118, 0, 4161.538, 4183.59, 4137.949, 4136.41, 4154.872, 450, 0, []
1628601479.6067, 119, 0, 4194.872, 4212.308, 4139.487, 4157.949, 4189.744, 16194, 0, []
1628601479.6147, 120, 0, 4173.846, 4194.359, 4140, 4151.282, 4174.359, 450, 0, []
1628601479.6226, 121, 0, 4142.051, 4165.641, 4132.821, 4144.103, 4146.154, 450, 0, []
1628601479.6304, 122, 0, 4155.385, 4163.59, 4123.077, 4151.795, 4155.897, 450, 0, []
1628601479.6382, 123, 0, 4170.769, 4177.436, 4152.821, 4164.615, 4181.538, 16194, 0, []
1628601479.646, 124, 0, 4162.564, 4186.667, 4142.051, 4169.231, 4186.667, 450, 0, []
1628601479.6539, 125, 0, 4143.077, 4171.795, 4115.385, 4158.462, 4164.103, 450, 0, []
1628601479.6617, 126, 0, 4137.949, 4169.231, 4122.564, 4151.795, 4148.718, 450, 0, []
1628601479.6696, 127, 0, 4147.692, 4185.128, 4131.282, 4156.923, 4161.026, 16194, 0, []
1628601479.6773, 128, 0, 4158.462, 4189.744, 4138.974, 4157.949, 4175.385, 450, 0, []
1628601479.6852, 0, 0, 4169.231, 4202.051, 4130.769, 4163.59, 4186.154, 450, 0, []
1628601479.693, 1, 0, 4166.667, 4213.846, 4137.436, 4171.282, 4188.205, 450, 0, []
1628601479.701, 2, 0, 4152.308, 4197.949, 4136.923, 4167.179, 4174.359, 16184, 0, []
1628601479.7089, 3, 0, 4149.744, 4177.949, 4114.359, 4156.41, 4165.641, 450, 0, []
1628601479.7168, 4, 0, 4155.385, 4185.128, 4134.359, 4148.205, 4169.744, 16159, 0, []
1628601479.7247, 5, 0, 4158.462, 4193.846, 4138.974, 4146.154, 4171.795, 450, 0, []
1628601479.7327, 6, 0, 4152.821, 4175.897, 4126.667, 4151.282, 4162.051, 16170, 0, []
1628601479.7406, 7, 0, 4132.821, 4145.128, 4133.333, 4148.205, 4146.667, 450, 0, []
1628601479.7486, 8, 0, 4134.872, 4151.795, 4131.282, 4146.667, 4154.872, 450, 0, []
1628601479.7564, 9, 0, 4157.436, 4188.205, 4151.282, 4158.462, 4174.872, 16073, 0, []
1628601479.7644, 10, 0, 4148.718, 4187.692, 4147.179, 4155.897, 4162.051, 450, 0, []
1628601479.7723, 11, 0, 4128.205, 4163.59, 4124.615, 4138.462, 4140.513, 16195, 0, []
1628601479.7803, 12, 0, 4132.821, 4165.128, 4130.769, 4137.436, 4149.744, 450, 0, []
1628601479.7882, 13, 0, 4136.923, 4183.59, 4127.179, 4145.128, 4158.462, 450, 0, []
1628601479.7959, 14, 0, 4123.59, 4177.436, 4135.385, 4145.641, 4145.641, 450, 0, []
1628601479.8038, 15, 0, 4131.282, 4171.282, 4141.026, 4157.949, 4151.282, 16195, 0, []
1628601479.8116, 16, 0, 4141.538, 4189.744, 4135.385, 4163.077, 4158.974, 0, 0, []
1628601479.8195, 17, 0, 4124.615, 4180.513, 4135.385, 4145.128, 4139.487, 0, 0, []
1628601479.8273, 18, 0, 4121.538, 4151.282, 4125.641, 4144.103, 4135.385, 0, 0, []
1628601479.8351, 19, 0, 4141.538, 4167.179, 4142.564, 4156.41, 4155.385, 0, 0, []
1628601479.8429, 20, 0, 4144.103, 4193.333, 4141.026, 4149.744, 4161.026, 0, 0, []
1628601479.8508, 21, 0, 4133.846, 4173.846, 4121.026, 4148.205, 4152.821, 0, 0, []
1628601479.8586, 22, 0, 4131.282, 4158.974, 4134.359, 4163.077, 4148.718, 0, 0, []
1628601479.8666, 23, 0, 4122.051, 4169.231, 4122.564, 4149.231, 4130.769, 0, 0, []
1628601479.8744, 24, 0, 4114.359, 4169.744, 4112.821, 4125.128, 4106.154, 0, 0, []
1628601479.8824, 25, 0, 4119.487, 4165.128, 4125.128, 4129.231, 4105.128, 0, 0, []
1628601479.8903, 26, 0, 4129.231, 4169.231, 4136.923, 4141.538, 4123.59, 0, 0, []
1628601479.8983, 27, 0, 4147.692, 4166.667, 4142.051, 4157.436, 4150.769, 0, 0, []
1628601479.9062, 28, 0, 4163.59, 4156.923, 4123.077, 4170.769, 4166.667, 0, 0, []
1628601479.9141, 29, 0, 4152.821, 4164.615, 4133.846, 4157.949, 4150.769, 0, 0, []
1628601479.922, 30, 0, 4122.564, 4171.282, 4135.897, 4128.205, 4115.897, 0, 0, []
1628601479.93, 31, 0, 4113.846, 4163.59, 4115.897, 4125.128, 4108.718, 0, 0, []
1628601479.9379, 32, 0, 4122.564, 4175.897, 4136.41, 4147.179, 4128.718, 0, 0, []
1628601479.9457, 33, 0, 4124.615, 4189.744, 4136.923, 4152.308, 4138.974, 0, 0, []
1628601479.9535, 34, 0, 4126.154, 4172.821, 4128.205, 4149.231, 4138.462, 0, 0, []
1628601479.9613, 35, 0, 4127.179, 4162.051, 4133.333, 4163.077, 4140.513, 0, 0, []
1628601479.9692, 36, 0, 4135.897, 4177.949, 4128.205, 4173.333, 4149.744, 0, 0, []
1628601479.977, 37, 0, 4155.385, 4181.538, 4136.41, 4157.949, 4156.923, 0, 0, []
1628601479.9849, 38, 0, 4162.051, 4166.154, 4123.59, 4132.821, 4155.897, 0, 0, []
1628601479.9926, 39, 0, 4152.821, 4158.974, 4112.821, 4126.667, 4151.795, 0, 0, []
1628601480.0006, 40, 0, 4147.692, 4169.744, 4118.974, 4139.487, 4150.256, 0, 0, []
1628601480.0085, 41, 0, 4131.795, 4177.949, 4106.667, 4137.949, 4140, 0, 0, []
1628601480.0164, 42, 0, 4112.308, 4162.564, 4125.641, 4124.103, 4128.718, 0, 0, []
1628601480.0242, 43, 0, 4126.667, 4154.872, 4136.41, 4130.256, 4141.538, 0, 0, []
1628601480.0321, 44, 0, 4142.051, 4166.667, 4123.59, 4138.974, 4160, 0, 0, []
1628601480.04, 45, 0, 4135.385, 4176.41, 4128.205, 4129.744, 4164.615, 0, 0, []
1628601480.048, 46, 0, 4134.359, 4182.564, 4122.564, 4121.026, 4167.179, 0, 0, []
1628601480.0559, 47, 0, 4142.564, 4183.077, 4131.282, 4128.718, 4168.718, 0, 0, []
1628601480.0639, 48, 0, 4136.41, 4177.949, 4132.821, 4131.282, 4158.974, 0, 0, []
1628601480.0717, 49, 0, 4119.487, 4169.231, 4125.128, 4117.949, 4144.615, 0, 0, []
1628601480.0797, 50, 0, 4123.077, 4157.949, 4138.462, 4114.872, 4146.154, 0, 0, []
1628601480.0876, 51, 0, 4137.436, 4152.821, 4136.923, 4126.154, 4165.641, 0, 0, []
1628601480.0955, 52, 0, 4144.103, 4170.256, 4140.513, 4137.436, 4186.667, 0, 0, []
1628601480.1034, 53, 0, 4141.538, 4194.872, 4128.718, 4128.718, 4184.103, 0, 0, []
1628601480.1112, 54, 0, 4115.897, 4182.564, 4109.744, 4096.41, 4150.769, 0, 0, []
1628601480.119, 55, 0, 4094.872, 4155.897, 4132.821, 4088.205, 4135.897, 0, 0, []
1628601480.1268, 56, 0, 4117.436, 4171.795, 4133.846, 4118.462, 4161.538, 0, 0, []
1628601480.1347, 57, 0, 4140.513, 4199.487, 4127.692, 4140, 4176.923, 0, 0, []
1628601480.1425, 58, 0, 4131.282, 4171.282, 4133.333, 4137.949, 4175.385, 0, 0, []
1628601480.1504, 59, 0, 4143.59, 4140.513, 4137.436, 4149.231, 4197.436, 0, 0, []
1628601480.1581, 60, 0, 4162.051, 4166.154, 4147.692, 4162.051, 4210.769, 0, 0, []
1628601480.1661, 61, 0, 4133.846, 4171.795, 4127.179, 4133.333, 4181.026, 0, 0, []
1628601480.174, 62, 0, 4110.769, 4145.128, 4118.974, 4104.615, 4159.487, 0, 0, []
1628601480.182, 63, 0, 4125.128, 4160, 4124.103, 4101.026, 4166.667, 0, 0, []
1628601480.1899, 64, 0, 4135.897, 4180.513, 4115.897, 4104.103, 4176.41, 450, 0, []
1628601480.1978, 65, 0, 4127.179, 4158.974, 4129.744, 4112.821, 4177.436, 450, 0, []
1628601480.2057, 66, 0, 4115.385, 4143.077, 4124.615, 4115.385, 4164.103, 16184, 0, []
1628601480.2136, 67, 0, 4122.564, 4158.974, 4125.128, 4127.692, 4171.282, 450, 0, []
1628601480.2215, 68, 0, 4145.641, 4162.564, 4142.051, 4148.718, 4202.564, 16159, 0, []
1628601480.2294, 69, 0, 4148.205, 4144.103, 4122.564, 4132.308, 4197.436, 450, 0, []
1628601480.2372, 70, 0, 4117.436, 4142.564, 4123.077, 4091.795, 4155.897, 16164, 0, []
1628601480.245, 71, 0, 4101.026, 4161.026, 4132.821, 4093.333, 4149.231, 450, 0, []
1628601480.253, 72, 0, 4126.154, 4164.103, 4128.205, 4119.487, 4174.872, 450, 0, []
1628601480.2609, 73, 0, 4158.462, 4150.256, 4127.179, 4117.949, 4182.564, 16073, 0, []
1628601480.2688, 74, 0, 4177.436, 4152.308, 4116.923, 4114.359, 4185.641, 450, 0, []
1628601480.2765, 75, 0, 4201.538, 4176.41, 4131.282, 4141.026, 4218.974, 16195, 0, []
1628601480.2844, 76, 0, 4225.641, 4187.692, 4135.385, 4162.051, 4254.359, 450, 0, []
