Timestamp, COUNTER, INTERPOLATED, AF3, T7, Pz, T8, AF4, RAW_CQ, MARKER_HARDWARE, MARKERS
1629648174.3339, 94, 0, 4196.923, 4189.231, 4135.385, 4169.231, 4184.615, 450, 0, []
1629648174.3418, 95, 0, 4217.949, 4186.154, 4136.923, 4181.538, 4206.667, 16200, 0, []
1629648174.3498, 96, 0, 4208.205, 4180, 4123.59, 4161.538, 4198.974, 450, 0, []
1629648174.3576, 97, 0, 4178.462, 4175.897, 4098.462, 4126.667, 4168.718, 450, 0, []
1629648174.3654, 98, 0, 4174.359, 4165.641, 4086.667, 4113.333, 4160, 450, 0, []
1629648174.3733, 99, 0, 4178.462, 4151.795, 4098.462, 4118.462, 4160.513, 16200, 0, []
1629648174.3811, 100, 0, 4156.923, 4151.282, 4076.41, 4106.154, 4143.077, 450, 0, []
1629648174.389, 101, 0, 4169.744, 4175.385, 4085.641, 4119.487, 4159.487, 450, 0, []
1629648174.3967, 102, 0, 4220.513, 4205.128, 4124.615, 4166.667, 4207.179, 450, 0, []
1629648174.4046, 103, 0, 4220.513, 4201.026, 4113.846, 4163.077, 4203.59, 16200, 0, []
1629648174.4124, 104, 0, 4190.769, 4185.641, 4103.59, 4130.769, 4173.333, 450, 0, []
1629648174.4203, 105, 0, 4206.154, 4188.718, 4121.026, 4153.333, 4189.231, 450, 0, []
1629648174.4281, 106, 0, 4225.128, 4188.718, 4136.41, 4186.154, 4212.308, 450, 0, []
1629648174.4359, 107, 0, 4204.615, 4177.436, 4122.051, 4163.59, 4192.821, 16200, 0, []
1629648174.4437, 108, 0, 4180.513, 4162.564, 4092.821, 4130.769, 4165.128, 450, 0, []
1629648174.4517, 109, 0, 4179.487, 4165.641, 4098.462, 4132.821, 4161.538, 450, 0, []
1629648174.4596, 110, 0, 4194.872, 4182.051, 4114.359, 4146.154, 4174.872, 450, 0, []
1629648174.4676, 111, 0, 4197.949, 4177.436, 4114.872, 4142.051, 4175.897, 16200, 0, []
1629648174.4754, 112, 0, 4184.615, 4160, 4102.564, 4132.308, 4161.026, 450, 0, []
1629648174.4834, 113, 0, 4180, 4163.59, 4094.359, 4132.821, 4156.923, 450, 0, []
1629648174.4913, 114, 0, 4186.667, 4177.949, 4110.769, 4138.974, 4166.667, 450, 0, []
1629648174.4993, 115, 0, 4192.821, 4175.385, 4103.077, 4142.051, 4170.256, 16200, 0, []
1629648174.5072, 116, 0, 4197.436, 4171.795, 4090.769, 4137.949, 4168.718, 450, 0, []
1629648174.5151, 117, 0, 4201.538, 4168.205, 4100, 4135.385, 4172.821, 450, 0, []
1629648174.523, 118, 0, 4202.051, 4155.385, 4093.846, 4142.564, 4176.41, 450, 0, []
1629648174.5308, 119, 0, 4185.641, 4149.231, 4089.744, 4133.333, 4164.615, 16200, 0, []
1629648174.5387, 120, 0, 4184.615, 4166.667, 4098.462, 4129.231, 4166.667, 450, 0, []
1629648174.5465, 121, 0, 4220.513, 4196.41, 4127.179, 4162.564, 4201.538, 450, 0, []
1629648174.5543, 122, 0, 4230.256, 4204.615, 4142.051, 4182.051, 4220, 450, 0, []
1629648174.5621, 123, 0, 4207.692, 4203.077, 4115.897, 4168.205, 4202.051, 16200, 0, []
1629648174.57, 124, 0, 4203.077, 4196.41, 4109.744, 4157.436, 4190.769, 450, 0, []
1629648174.5778, 125, 0, 4212.821, 4179.487, 4113.846, 4155.897, 4202.564, 450, 0, []
1629648174.5857, 126, 0, 4215.897, 4182.564, 4113.333, 4158.462, 4210.256, 450, 0, []
1629648174.5934, 127, 0, 4198.974, 4182.051, 4105.641, 4143.077, 4180.513, 16200, 0, []
1629648174.6014, 128, 0, 4167.179, 4154.872, 4073.333, 4107.692, 4138.462, 450, 0, []
1629648174.6093, 0, 0, 4173.333, 4151.795, 4084.615, 4110.769, 4143.077, 450, 0, []
1629648174.6173, 1, 0, 4212.308, 4171.282, 4113.333, 4151.282, 4184.615, 450, 0, []
1629648174.6252, 2, 0, 4221.538, 4172.821, 4116.41, 4168.205, 4202.564, 16188, 0, []
1629648174.6331, 3, 0, 4215.897, 4174.359, 4124.103, 4158.462, 4198.974, 450, 0, []
1629648174.641, 4, 0, 4210.769, 4172.821, 4104.103, 4136.41, 4187.179, 16169, 0, []
1629648174.649, 5, 0, 4199.487, 4166.154, 4089.744, 4122.564, 4173.846, 450, 0, []
1629648174.6569, 6, 0, 4209.231, 4184.615, 4110.769, 4143.59, 4191.795, 16081, 0, []
1629648174.6648, 7, 0, 4227.179, 4188.205, 4122.564, 4159.487, 4216.41, 450, 0, []
1629648174.6725, 8, 0, 4229.744, 4170.256, 4126.154, 4150.256, 4214.359, 450, 0, []
1629648174.6803, 9, 0, 4226.154, 4177.949, 4115.385, 4146.667, 4208.205, 16155, 0, []
1629648174.6882, 10, 0, 4208.205, 4174.359, 4094.872, 4138.462, 4190.256, 450, 0, []
1629648174.696, 11, 0, 4202.564, 4161.026, 4096.41, 4141.538, 4184.615, 16200, 0, []
1629648174.7039, 12, 0, 4226.667, 4177.949, 4114.872, 4166.667, 4213.333, 450, 0, []
1629648174.7116, 13, 0, 4223.077, 4175.385, 4115.385, 4154.359, 4211.795, 450, 0, []
1629648174.7195, 14, 0, 4193.333, 4157.436, 4098.974, 4126.154, 4178.974, 450, 0, []
1629648174.7273, 15, 0, 4200.513, 4166.154, 4118.462, 4146.667, 4188.718, 16200, 0, []
1629648174.7352, 16, 0, 4216.41, 4163.077, 4123.59, 4165.128, 4208.718, 0, 0, []
1629648174.743, 17, 0, 4202.051, 4146.154, 4096.923, 4152.821, 4193.333, 0, 0, []
1629648174.7509, 18, 0, 4189.744, 4155.385, 4106.667, 4152.308, 4185.641, 0, 0, []
1629648174.7588, 19, 0, 4184.615, 4160.513, 4097.949, 4146.667, 4182.564, 0, 0, []
1629648174.7668, 20, 0, 4168.718, 4152.821, 4071.282, 4116.923, 4156.923, 0, 0, []
1629648174.7747, 21, 0, 4150.769, 4153.333, 4068.718, 4097.436, 4133.846, 0, 0, []
1629648174.7827, 22, 0, 4152.821, 4150.769, 4066.154, 4106.667, 4137.949, 0, 0, []
1629648174.7905, 23, 0, 4192.308, 4162.564, 4103.077, 4147.692, 4174.359, 0, 0, []
1629648174.7985, 24, 0, 4224.615, 4175.385, 4137.949, 4180.513, 4210.256, 0, 0, []
1629648174.8064, 25, 0, 4208.205, 4149.231, 4134.872, 4165.641, 4206.667, 0, 0, []
1629648174.8144, 26, 0, 4193.333, 4126.667, 4137.436, 4150.769, 4191.282, 0, 0, []
1629648174.8223, 27, 0, 4206.667, 4158.462, 4148.205, 4167.179, 4199.487, 0, 0, []
1629648174.8302, 28, 0, 4193.333, 4190.256, 4136.923, 4152.308, 4189.744, 0, 0, []
1629648174.8381, 29, 0, 4162.564, 4185.128, 4094.872, 4118.462, 4157.436, 0, 0, []
1629648174.8459, 30, 0, 4164.103, 4181.538, 4075.385, 4115.385, 4149.231, 0, 0, []
1629648174.8538, 31, 0, 4171.282, 4179.487, 4081.538, 4111.282, 4151.282, 0, 0, []
1629648174.8616, 32, 0, 4160.513, 4174.359, 4076.41, 4101.026, 4140.513, 0, 0, []
1629648174.8694, 33, 0, 4166.667, 4170.769, 4099.487, 4113.333, 4151.795, 0, 0, []
1629648174.8772, 34, 0, 4202.564, 4161.538, 4125.641, 4131.795, 4204.103, 0, 0, []
1629648174.8851, 35, 0, 4239.487, 4160, 4123.077, 4134.872, 4251.282, 0, 0, []
1629648174.8929, 36, 0, 4274.359, 4160.513, 4120.513, 4136.923, 4285.128, 0, 0, []
1629648174.9008, 37, 0, 4319.487, 4144.103, 4098.462, 4134.359, 4331.795, 0, 0, []
1629648174.9085, 38, 0, 4366.667, 4146.667, 4090.256, 4132.821, 4381.538, 0, 0, []
1629648174.9165, 39, 0, 4425.128, 4201.538, 4129.744, 4173.846, 4438.462, 0, 0, []
1629648174.9244, 40, 0, 4442.051, 4224.615, 4137.949, 4193.846, 4472.308, 0, 0, []
1629648174.9324, 41, 0, 4389.744, 4186.667, 4107.179, 4153.846, 4452.308, 0, 0, []
1629648174.9403, 42, 0, 4382.564, 4187.692, 4116.923, 4160.513, 4457.436, 0, 0, []
1629648174.9482, 43, 0, 4422.564, 4236.41, 4184.103, 4235.385, 4501.026, 0, 0, []
1629648174.9561, 44, 0, 4391.282, 4248.205, 4193.846, 4255.385, 4490.256, 0, 0, []
1629648174.9641, 45, 0, 4316.923, 4218.462, 4144.615, 4207.692, 4426.667, 0, 0, []
1629648174.972, 46, 0, 4287.692, 4211.795, 4147.692, 4192.821, 4392.308, 0, 0, []
1629648174.98, 47, 0, 4261.538, 4223.077, 4150.256, 4209.231, 4373.333, 0, 0, []
1629648174.9878, 48, 0, 4195.385, 4209.744, 4127.179, 4194.872, 4320, 0, 0, []
1629648174.9957, 49, 0, 4152.821, 4188.205, 4126.154, 4178.462, 4281.026, 0, 0, []
1629648175.0036, 50, 0, 4165.128, 4191.282, 4135.385, 4197.436, 4294.359, 0, 0, []
1629648175.0114, 51, 0, 4183.077, 4200.513, 4158.462, 4222.051, 4309.744, 0, 0, []
1629648175.0193, 52, 0, 4183.59, 4191.795, 4164.103, 4222.051, 4302.051, 0, 0, []
1629648175.0271, 53, 0, 4197.949, 4193.846, 4168.718, 4221.026, 4306.154, 0, 0, []
1629648175.0349, 54, 0, 4224.103, 4229.744, 4190.256, 4231.282, 4320.513, 0, 0, []
1629648175.0427, 55, 0, 4229.744, 4258.462, 4186.667, 4236.41, 4320, 0, 0, []
1629648175.0506, 56, 0, 4217.436, 4243.077, 4182.051, 4236.41, 4303.59, 0, 0, []
1629648175.0584, 57, 0, 4190.769, 4223.077, 4163.077, 4226.154, 4272.308, 0, 0, []
1629648175.0663, 58, 0, 4187.179, 4253.846, 4158.974, 4231.282, 4269.231, 0, 0, []
1629648175.074, 59, 0, 4213.846, 4291.282, 4191.282, 4256.923, 4295.897, 0, 0, []
1629648175.082, 60, 0, 4215.897, 4261.538, 4181.538, 4242.564, 4287.179, 0, 0, []
1629648175.0899, 61, 0, 4221.538, 4249.744, 4176.923, 4224.615, 4282.564, 0, 0, []
1629648175.0979, 62, 0, 4280.513, 4324.103, 4217.949, 4267.179, 4344.615, 0, 0, []
1629648175.1058, 63, 0, 4332.308, 4370.256, 4257.949, 4325.641, 4397.436, 0, 0, []
1629648175.1137, 64, 0, 4333.846, 4350.769, 4265.641, 4347.692, 4390.769, 450, 0, []
1629648175.1216, 65, 0, 4329.231, 4353.846, 4254.359, 4354.359, 4380, 450, 0, []
1629648175.1296, 66, 0, 4317.949, 4351.795, 4252.821, 4341.538, 4364.615, 16186, 0, []
1629648175.1375, 67, 0, 4304.615, 4329.744, 4241.026, 4310.256, 4346.667, 450, 0, []
1629648175.1455, 68, 0, 4347.179, 4362.051, 4262.051, 4330.256, 4383.59, 16164, 0, []
1629648175.1533, 69, 0, 4393.846, 4395.897, 4291.795, 4367.179, 4426.667, 450, 0, []
1629648175.1611, 70, 0, 4376.41, 4369.744, 4263.077, 4351.282, 4413.846, 16072, 0, []
1629648175.169, 71, 0, 4377.436, 4367.179, 4273.333, 4358.974, 4418.462, 450, 0, []
1629648175.1768, 72, 0, 4421.026, 4407.692, 4310.769, 4415.385, 4458.974, 450, 0, []
1629648175.1847, 73, 0, 4404.615, 4396.923, 4294.359, 4416.41, 4444.615, 16149, 0, []
1629648175.1924, 74, 0, 4361.026, 4356.923, 4291.795, 4387.179, 4407.179, 450, 0, []
1629648175.2003, 75, 0, 4370.256, 4359.487, 4315.385, 4408.718, 4415.897, 16193, 0, []
1629648175.2081, 76, 0, 4375.897, 4369.231, 4317.949, 4410.769, 4415.897, 450, 0, []
1629648175.2161, 77, 0, 4349.231, 4356.41, 4289.231, 4369.231, 4389.231, 450, 0, []
1629648175.224, 78, 0, 4348.205, 4349.744, 4277.949, 4358.462, 4385.641, 450, 0, []
1629648175.2319, 79, 0, 4371.282, 4360.513, 4307.179, 4369.744, 4398.462, 16193, 0, []
1629648175.2398, 80, 0, 4373.333, 4374.872, 4307.179, 4361.026, 4393.333, 450, 0, []
1629648175.2478, 81, 0, 4358.462, 4375.385, 4301.026, 4346.154, 4378.462, 450, 0, []
1629648175.2557, 82, 0, 4361.538, 4366.154, 4323.077, 4354.872, 4385.128, 450, 0, []
1629648175.2637, 83, 0, 4380.513, 4376.41, 4339.487, 4389.231, 4402.564, 16193, 0, []
1629648175.2715, 84, 0, 4380, 4395.385, 4340.513, 4406.667, 4398.462, 450, 0, []
1629648175.2795, 85, 0, 4375.897, 4401.026, 4331.282, 4402.051, 4399.487, 450, 0, []
1629648175.2874, 86, 0, 4401.538, 4409.744, 4356.41, 4417.949, 4430.769, 450, 0, []
1629648175.2954, 87, 0, 4431.282, 4424.615, 4382.564, 4440, 4453.333, 16193, 0, []
1629648175.3033, 88, 0, 4417.436, 4410.769, 4347.179, 4418.462, 4431.282, 450, 0, []
1629648175.311, 89, 0, 4382.564, 4387.179, 4321.538, 4384.103, 4397.949, 450, 0, []
1629648175.3189, 90, 0, 4383.59, 4388.718, 4331.795, 4387.692, 4402.051, 450, 0, []
1629648175.3267, 91, 0, 4392.308, 4386.667, 4337.436, 4388.718, 4407.692, 16193, 0, []
1629648175.3346, 92, 0, 4354.872, 4360, 4311.282, 4347.692, 4364.615, 450, 0, []
1629648175.3424, 93, 0, 4311.795, 4327.179, 4277.436, 4312.308, 4320, 450, 0, []
1629648175.3502, 94, 0, 4299.487, 4311.282, 4282.564, 4306.154, 4314.359, 450, 0, []
1629648175.358, 95, 0, 4310.256, 4324.103, 4286.667, 4307.179, 4322.564, 16193, 0, []
1629648175.3659, 96, 0, 4344.615, 4352.821, 4301.538, 4321.026, 4341.538, 450, 0, []
1629648175.3737, 97, 0, 4370.256, 4358.974, 4324.103, 4343.077, 4364.615, 450, 0, []
1629648175.3816, 98, 0, 4352.308, 4331.282, 4301.538, 4330.769, 4351.282, 450, 0, []
1629648175.3893, 99, 0, 4322.051, 4306.154, 4283.59, 4296.41, 4318.462, 16193, 0, []
1629648175.3973, 100, 0, 4316.923, 4302.564, 4278.974, 4292.308, 4316.41, 450, 0, []
1629648175.4052, 101, 0, 4308.205, 4294.359, 4269.231, 4292.821, 4308.718, 450, 0, []
1629648175.4132, 102, 0, 4300, 4294.359, 4284.103, 4284.615, 4291.795, 450, 0, []
1629648175.4211, 103, 0, 4317.949, 4325.641, 4301.026, 4301.026, 4306.154, 16193, 0, []
1629648175.429, 104, 0, 4328.718, 4338.462, 4311.282, 4323.59, 4323.59, 450, 0, []
1629648175.4369, 105, 0, 4316.923, 4315.385, 4292.308, 4312.821, 4310.769, 450, 0, []
1629648175.4449, 106, 0, 4305.128, 4304.615, 4269.231, 4295.897, 4295.897, 450, 0, []
1629648175.4528, 107, 0, 4301.026, 4314.872, 4275.385, 4298.462, 4293.846, 16193, 0, []
1629648175.4606, 108, 0, 4291.795, 4309.744, 4261.538, 4285.128, 4283.077, 450, 0, []
1629648175.4684, 109, 0, 4292.821, 4300.513, 4262.051, 4268.205, 4280, 450, 0, []
1629648175.4762, 110, 0, 4323.59, 4315.897, 4291.795, 4290.256, 4308.718, 450, 0, []
1629648175.4841, 111, 0, 4338.974, 4321.026, 4294.359, 4312.308, 4325.128, 16193, 0, []
1629648175.4919, 112, 0, 4306.667, 4292.821, 4265.128, 4286.667, 4292.821, 450, 0, []
1629648175.4998, 113, 0, 4290.769, 4294.359, 4251.795, 4273.846, 4283.59, 450, 0, []
1629648175.5075, 114, 0, 4317.949, 4338.974, 4283.077, 4305.128, 4316.41, 450, 0, []
1629648175.5154, 115, 0, 4308.718, 4345.128, 4269.231, 4295.897, 4300, 16193, 0, []
1629648175.5232, 116, 0, 4274.872, 4315.385, 4230.769, 4253.333, 4257.949, 450, 0, []
1629648175.5311, 117, 0, 4286.667, 4318.974, 4261.538, 4256.41, 4270.256, 450, 0, []
1629648175.5389, 118, 0, 4304.103, 4331.282, 4274.359, 4272.821, 4293.333, 450, 0, []
1629648175.5468, 119, 0, 4282.051, 4315.385, 4249.744, 4260, 4275.385, 16193, 0, []
1629648175.5547, 120, 0, 4288.205, 4307.179, 4262.051, 4272.308, 4285.641, 450, 0, []
1629648175.5627, 121, 0, 4312.308, 4303.59, 4270.256, 4287.692, 4311.282, 450, 0, []
1629648175.5706, 122, 0, 4293.333, 4295.897, 4257.436, 4261.026, 4290.769, 450, 0, []
1629648175.5786, 123, 0, 4284.615, 4304.615, 4252.308, 4253.846, 4279.487, 16193, 0, []
1629648175.5864, 124, 0, 4291.282, 4298.974, 4249.744, 4262.051, 4283.59, 450, 0, []
1629648175.5944, 125, 0, 4271.795, 4286.667, 4229.231, 4242.564, 4263.59, 450, 0, []
1629648175.6023, 126, 0, 4269.744, 4316.41, 4226.667, 4236.41, 4262.564, 450, 0, []
1629648175.6103, 127, 0, 4313.846, 4366.667, 4278.974, 4276.923, 4307.692, 16193, 0, []
1629648175.6182, 128, 0, 4312.308, 4355.385, 4276.923, 4280.513, 4304.103, 450, 0, []
1629648175.6259, 0, 0, 4233.333, 4289.231, 4213.333, 4206.154, 4222.051, 450, 0, []
1629648175.6338, 1, 0, 4207.692, 4281.026, 4213.846, 4173.333, 4194.359, 450, 0, []
1629648175.6416, 2, 0, 4281.026, 4347.179, 4267.692, 4239.487, 4268.205, 16186, 0, []
1629648175.6495, 3, 0, 4322.051, 4363.59, 4280.513, 4276.41, 4303.077, 450, 0, []
1629648175.6574, 4, 0, 4265.128, 4302.051, 4217.436, 4215.385, 4241.026, 16164, 0, []
1629648175.6652, 5, 0, 4232.308, 4287.179, 4198.974, 4191.795, 4211.282, 450, 0, []
1629648175.6732, 6, 0, 4262.051, 4319.487, 4241.026, 4227.179, 4243.077, 16075, 0, []
1629648175.6812, 7, 0, 4267.692, 4312.821, 4240, 4228.718, 4246.154, 450, 0, []
1629648175.6891, 8, 0, 4247.692, 4297.436, 4236.923, 4216.923, 4228.205, 450, 0, []
1629648175.6971, 9, 0, 4215.385, 4293.846, 4214.872, 4194.872, 4197.949, 16149, 0, []
1629648175.7049, 10, 0, 4206.667, 4304.615, 4196.41, 4184.615, 4186.667, 450, 0, []
1629648175.7129, 11, 0, 4240.513, 4332.821, 4234.359, 4219.487, 4219.487, 16193, 0, []
1629648175.7208, 12, 0, 4251.795, 4331.795, 4235.897, 4232.821, 4228.718, 450, 0, []
1629648175.7288, 13, 0, 4242.051, 4311.795, 4224.615, 4220, 4215.385, 450, 0, []
1629648175.7367, 14, 0, 4260.513, 4324.103, 4243.077, 4230.769, 4231.795, 450, 0, []
1629648175.7446, 15, 0, 4272.308, 4335.385, 4239.487, 4225.641, 4238.462, 16193, 0, []
1629648175.7525, 16, 0, 4236.923, 4297.436, 4198.974, 4176.923, 4195.897, 0, 0, []
1629648175.7605, 17, 0, 4216.41, 4268.718, 4168.718, 4166.667, 4177.436, 0, 0, []
1629648175.7684, 18, 0, 4235.385, 4296.41, 4189.744, 4206.154, 4204.615, 0, 0, []
1629648175.7762, 19, 0, 4236.923, 4317.949, 4202.051, 4212.308, 4205.641, 0, 0, []
1629648175.7841, 20, 0, 4222.051, 4311.282, 4192.821, 4190.256, 4192.821, 0, 0, []
1629648175.7918, 21, 0, 4233.846, 4312.821, 4211.795, 4194.359, 4210.256, 0, 0, []
1629648175.7997, 22, 0, 4252.821, 4315.897, 4211.282, 4206.154, 4230.769, 0, 0, []
1629648175.8075, 23, 0, 4242.564, 4315.897, 4205.641, 4202.564, 4223.077, 0, 0, []
1629648175.8154, 24, 0, 4240, 4328.205, 4216.923, 4212.308, 4223.077, 0, 0, []
1629648175.8232, 25, 0, 4250.256, 4317.436, 4193.846, 4204.615, 4219.487, 0, 0, []
1629648175.8311, 26, 0, 4257.949, 4292.821, 4182.051, 4180, 4212.308, 0, 0, []
1629648175.839, 27, 0, 4289.231, 4317.949, 4207.179, 4212.821, 4253.846, 0, 0, []
1629648175.847, 28, 0, 4300.513, 4336.923, 4216.923, 4245.641, 4276.41, 0, 0, []
1629648175.8549, 29, 0, 4269.744, 4303.077, 4194.872, 4219.487, 4238.462, 0, 0, []
1629648175.8629, 30, 0, 4252.308, 4281.538, 4174.359, 4192.308, 4210.769, 0, 0, []
1629648175.8707, 31, 0, 4252.821, 4300.513, 4184.103, 4192.821, 4213.333, 0, 0, []
1629648175.8787, 32, 0, 4276.41, 4336.41, 4208.205, 4222.564, 4246.154, 0, 0, []
1629648175.8866, 33, 0, 4316.923, 4356.41, 4239.487, 4258.974, 4283.59, 0, 0, []
1629648175.8946, 34, 0, 4306.154, 4338.974, 4228.718, 4242.051, 4267.179, 0, 0, []
1629648175.9025, 35, 0, 4272.308, 4328.205, 4201.538, 4211.282, 4243.59, 0, 0, []
1629648175.9102, 36, 0, 4295.385, 4346.154, 4236.41, 4230.256, 4273.333, 0, 0, []
1629648175.9181, 37, 0, 4334.359, 4350.769, 4254.359, 4254.872, 4297.949, 0, 0, []
1629648175.9259, 38, 0, 4329.231, 4338.974, 4233.846, 4255.897, 4286.667, 0, 0, []
1629648175.9338, 39, 0, 4297.949, 4326.667, 4220, 4241.538, 4266.154, 0, 0, []
1629648175.9416, 40, 0, 4291.282, 4324.615, 4208.205, 4229.231, 4266.667, 0, 0, []
1629648175.9494, 41, 0, 4320, 4334.872, 4222.564, 4240.513, 4291.282, 0, 0, []
1629648175.9572, 42, 0, 4323.077, 4330.256, 4211.282, 4240.513, 4289.231, 0, 0, []
1629648175.9651, 43, 0, 4293.333, 4311.795, 4177.949, 4215.897, 4261.026, 0, 0, []
1629648175.9729, 44, 0, 4308.718, 4325.641, 4204.103, 4231.282, 4278.974, 0, 0, []
1629648175.9808, 45, 0, 4336.923, 4338.974, 4214.872, 4250.769, 4300.513, 0, 0, []
1629648175.9885, 46, 0, 4314.872, 4322.564, 4194.359, 4224.615, 4272.308, 0, 0, []
1629648175.9965, 47, 0, 4289.744, 4305.641, 4193.846, 4214.872, 4255.385, 0, 0, []
1629648176.0044, 48, 0, 4290.256, 4291.795, 4203.59, 4232.821, 4267.179, 0, 0, []
1629648176.0124, 49, 0, 4311.282, 4309.231, 4222.564, 4250.256, 4286.667, 0, 0, []
1629648176.0203, 50, 0, 4331.795, 4343.077, 4231.795, 4262.564, 4304.615, 0, 0, []
1629648176.0282, 51, 0, 4319.487, 4329.744, 4223.59, 4257.436, 4300.513, 0, 0, []
1629648176.0361, 52, 0, 4304.615, 4306.154, 4206.667, 4242.564, 4286.154, 0, 0, []
1629648176.0441, 53, 0, 4315.897, 4321.538, 4211.282, 4243.59, 4291.795, 0, 0, []
1629648176.052, 54, 0, 4302.564, 4318.974, 4215.385, 4235.897, 4279.487, 0, 0, []
1629648176.06, 55, 0, 4273.333, 4296.41, 4184.103, 4213.846, 4249.231, 0, 0, []
1629648176.0678, 56, 0, 4280.513, 4300, 4187.179, 4214.359, 4251.282, 0, 0, []
1629648176.0756, 57, 0, 4295.385, 4300.513, 4206.667, 4222.051, 4264.615, 0, 0, []
1629648176.0835, 58, 0, 4299.487, 4300.513, 4209.231, 4234.872, 4273.333, 0, 0, []
1629648176.0913, 59, 0, 4298.462, 4308.718, 4220, 4246.667, 4275.385, 0, 0, []
1629648176.0992, 60, 0, 4294.359, 4304.615, 4211.795, 4246.667, 4269.744, 0, 0, []
1629648176.1069, 61, 0, 4298.462, 4291.795, 4206.154, 4248.205, 4266.154, 0, 0, []
1629648176.1148, 62, 0, 4294.872, 4285.641, 4203.077, 4239.487, 4259.487, 0, 0, []
1629648176.1226, 63, 0, 4269.744, 4275.897, 4170.769, 4208.718, 4239.487, 0, 0, []
1629648176.1305, 64, 0, 4242.564, 4261.538, 4156.41, 4180, 4211.282, 450, 0, []
1629648176.1383, 65, 0, 4242.051, 4265.128, 4167.692, 4185.641, 4208.205, 450, 0, []
1629648176.1461, 66, 0, 4234.872, 4255.897, 4162.051, 4182.051, 4203.59, 16187, 0, []
1629648176.1539, 67, 0, 4215.385, 4232.821, 4138.974, 4150.769, 4182.564, 450, 0, []
1629648176.1619, 68, 0, 4228.718, 4237.436, 4134.872, 4151.795, 4184.615, 16164, 0, []
1629648176.1698, 69, 0, 4258.974, 4260, 4172.308, 4185.128, 4210.256, 450, 0, []
1629648176.1778, 70, 0, 4269.231, 4268.205, 4191.795, 4207.692, 4234.359, 16082, 0, []
1629648176.1856, 71, 0, 4264.615, 4263.59, 4189.231, 4209.744, 4242.564, 450, 0, []
1629648176.1936, 72, 0, 4266.154, 4260.513, 4193.846, 4204.103, 4236.41, 450, 0, []
1629648176.2015, 73, 0, 4249.231, 4246.667, 4166.667, 4177.949, 4209.231, 16150, 0, []
1629648176.2095, 74, 0, 4220, 4242.564, 4144.615, 4147.179, 4181.026, 450, 0, []
1629648176.2174, 75, 0, 4241.026, 4267.692, 4164.615, 4164.103, 4206.154, 16175, 0, []
1629648176.2253, 76, 0, 4255.385, 4260.513, 4170.256, 4170.256, 4217.436, 450, 0, []
1629648176.2332, 77, 0, 4224.103, 4226.154, 4145.128, 4129.744, 4175.897, 450, 0, []
1629648176.241, 78, 0, 4249.744, 4247.692, 4154.872, 4144.103, 4195.897, 450, 0, []
1629648176.2489, 79, 0, 4320, 4282.051, 4204.615, 4201.026, 4274.872, 16175, 0, []
1629648176.2567, 80, 0, 4318.462, 4241.026, 4184.103, 4182.051, 4281.538, 450, 0, []
1629648176.2645, 81, 0, 4294.872, 4189.231, 4132.821, 4136.41, 4254.872, 450, 0, []
1629648176.2723, 82, 0, 4336.41, 4208.205, 4141.538, 4153.846, 4297.436, 450, 0, []
1629648176.2802, 83, 0, 4397.949, 4239.487, 4146.154, 4179.487, 4363.077, 16175, 0, []
1629648176.288, 84, 0, 4427.692, 4229.231, 4145.641, 4171.282, 4383.077, 450, 0, []
1629648176.2959, 85, 0, 4422.564, 4215.897, 4142.564, 4150.769, 4367.179, 450, 0, []
1629648176.3036, 86, 0, 4417.436, 4230.256, 4142.051, 4154.359, 4366.154, 450, 0, []
1629648176.3116, 87, 0, 4441.026, 4254.359, 4175.385, 4197.436, 4395.385, 16175, 0, []
1629648176.3195, 88, 0, 4433.333, 4254.872, 4168.718, 4212.308, 4387.692, 450, 0, []
1629648176.3275, 89, 0, 4364.103, 4231.282, 4129.231, 4171.282, 4324.615, 450, 0, []
1629648176.3354, 90, 0, 4306.154, 4214.872, 4113.333, 4137.436, 4274.872, 450, 0, []
1629648176.3433, 91, 0, 4292.821, 4221.538, 4114.872, 4131.795, 4258.462, 16175, 0, []
1629648176.3512, 92, 0, 4292.821, 4239.487, 4132.821, 4142.051, 4258.974, 450, 0, []
1629648176.3592, 93, 0, 4284.103, 4234.872, 4130.769, 4160.513, 4264.103, 450, 0, []
1629648176.3671, 94, 0, 4255.897, 4213.333, 4111.282, 4149.231, 4236.41, 450, 0, []
1629648176.3751, 95, 0, 4236.41, 4211.282, 4107.692, 4127.692, 4208.718, 16175, 0, []
1629648176.3829, 96, 0, 4257.436, 4228.205, 4121.538, 4149.744, 4231.795, 450, 0, []
1629648176.3907, 97, 0, 4275.897, 4232.308, 4142.564, 4180, 4255.385, 450, 0, []
1629648176.3986, 98, 0, 4253.846, 4221.026, 4128.205, 4168.205, 4237.436, 450, 0, []
1629648176.4064, 99, 0, 4225.128, 4206.154, 4108.718, 4136.923, 4212.308, 16175, 0, []
1629648176.4143, 100, 0, 4222.051, 4200.513, 4112.821, 4134.872, 4206.667, 450, 0, []
1629648176.422, 101, 0, 4246.154, 4228.205, 4122.564, 4173.333, 4228.718, 450, 0, []
1629648176.4299, 102, 0, 4252.308, 4249.744, 4129.744, 4191.795, 4235.385, 450, 0, []
1629648176.4377, 103, 0, 4205.128, 4213.333, 4087.692, 4143.077, 4185.641, 16175, 0, []
1629648176.4456, 104, 0, 4181.026, 4181.026, 4071.282, 4108.718, 4155.385, 450, 0, []
1629648176.4534, 105, 0, 4230.769, 4211.795, 4123.077, 4151.282, 4200.513, 450, 0, []
1629648176.4613, 106, 0, 4243.59, 4227.692, 4120, 4165.128, 4217.436, 450, 0, []
1629648176.4692, 107, 0, 4191.282, 4197.949, 4081.026, 4116.41, 4172.821, 16175, 0, []
1629648176.4772, 108, 0, 4195.897, 4200.513, 4091.795, 4117.949, 4174.872, 450, 0, []
1629648176.4851, 109, 0, 4251.795, 4235.385, 4133.333, 4177.436, 4223.59, 450, 0, []
1629648176.4931, 110, 0, 4246.667, 4226.154, 4131.282, 4182.051, 4217.949, 450, 0, []
1629648176.501, 111, 0, 4201.026, 4192.308, 4086.154, 4130.256, 4171.795, 16175, 0, []
1629648176.5089, 112, 0, 4193.333, 4204.103, 4085.641, 4118.462, 4164.103, 450, 0, []
1629648176.5168, 113, 0, 4198.462, 4215.385, 4088.205, 4132.821, 4171.282, 450, 0, []
1629648176.5248, 114, 0, 4180.513, 4184.615, 4068.205, 4118.462, 4155.897, 450, 0, []
1629648176.5327, 115, 0, 4174.359, 4180.513, 4081.026, 4113.333, 4152.821, 16175, 0, []
1629648176.5405, 116, 0, 4189.231, 4202.051, 4086.667, 4126.667, 4164.103, 450, 0, []
1629648176.5483, 117, 0, 4183.077, 4188.205, 4073.846, 4109.231, 4153.333, 450, 0, []
1629648176.5561, 118, 0, 4178.462, 4180, 4080.513, 4094.872, 4150.769, 450, 0, []
1629648176.564, 119, 0, 4208.205, 4213.846, 4105.641, 4135.385, 4184.615, 16175, 0, []
1629648176.5718, 120, 0, 4211.282, 4221.026, 4100, 4148.718, 4188.718, 450, 0, []
1629648176.5797, 121, 0, 4188.718, 4196.923, 4072.821, 4114.872, 4162.564, 450, 0, []
1629648176.5874, 122, 0, 4204.615, 4200, 4098.462, 4124.103, 4175.385, 450, 0, []
1629648176.5953, 123, 0, 4212.821, 4214.359, 4106.154, 4140.513, 4185.128, 16175, 0, []
1629648176.6031, 124, 0, 4178.462, 4198.462, 4066.154, 4106.667, 4152.308, 450, 0, []
1629648176.6111, 125, 0, 4180.513, 4180, 4083.077, 4107.179, 4154.359, 450, 0, []
1629648176.619, 126, 0, 4211.795, 4188.718, 4097.949, 4138.462, 4184.103, 450, 0, []
1629648176.6269, 127, 0, 4202.051, 4200.513, 4076.41, 4125.128, 4170.769, 16175, 0, []
1629648176.6348, 128, 0, 4197.949, 4202.564, 4087.179, 4126.667, 4167.179, 450, 0, []
1629648176.6428, 0, 0, 4204.103, 4196.41, 4091.282, 4144.103, 4180, 450, 0, []
1629648176.6507, 1, 0, 4178.462, 4192.821, 4066.667, 4109.744, 4152.821, 450, 0, []
1629648176.6586, 2, 0, 4179.487, 4204.615, 4065.128, 4096.41, 4149.231, 16189, 0, []
1629648176.6664, 3, 0, 4217.949, 4214.872, 4105.128, 4140, 4191.282, 450, 0, []
1629648176.6744, 4, 0, 4204.103, 4194.359, 4102.051, 4140, 4180, 16164, 0, []
1629648176.6823, 5, 0, 4160.513, 4161.026, 4054.872, 4100, 4133.333, 450, 0, []
1629648176.6903, 6, 0, 4172.308, 4168.718, 4063.59, 4103.077, 4144.103, 16085, 0, []
1629648176.6982, 7, 0, 4185.128, 4188.205, 4063.59, 4111.795, 4155.385, 450, 0, []
1629648176.7059, 8, 0, 4156.923, 4175.897, 4037.436, 4093.846, 4124.103, 450, 0, []
1629648176.7138, 9, 0, 4151.795, 4164.103, 4046.667, 4091.795, 4117.949, 16152, 0, []
1629648176.7216, 10, 0, 4171.795, 4169.744, 4060, 4105.128, 4143.59, 450, 0, []
1629648176.7295, 11, 0, 4176.923, 4178.974, 4073.846, 4114.359, 4160, 16192, 0, []
1629648176.7373, 12, 0, 4183.59, 4195.385, 4085.641, 4127.692, 4170.769, 450, 0, []
1629648176.7451, 13, 0, 4193.333, 4197.949, 4082.564, 4135.385, 4174.359, 450, 0, []
1629648176.7529, 14, 0, 4177.436, 4174.872, 4065.128, 4123.59, 4158.974, 450, 0, []
1629648176.7609, 15, 0, 4153.333, 4165.641, 4036.923, 4095.897, 4138.974, 16192, 0, []
1629648176.7688, 16, 0, 4149.744, 4169.231, 4038.974, 4077.436, 4123.077, 0, 0, []
1629648176.7768, 17, 0, 4176.923, 4167.179, 4058.974, 4099.487, 4140, 0, 0, []
1629648176.7846, 18, 0, 4205.128, 4179.487, 4075.897, 4130.769, 4178.462, 0, 0, []
1629648176.7926, 19, 0, 4194.359, 4185.128, 4078.462, 4118.974, 4171.282, 0, 0, []
1629648176.8005, 20, 0, 4178.462, 4169.231, 4067.692, 4106.667, 4149.231, 0, 0, []
1629648176.8085, 21, 0, 4173.333, 4160, 4062.051, 4106.667, 4145.641, 0, 0, []
1629648176.8164, 22, 0, 4168.718, 4172.308, 4048.718, 4098.974, 4147.179, 0, 0, []
1629648176.8243, 23, 0, 4179.487, 4188.205, 4057.436, 4109.744, 4160, 0, 0, []
1629648176.8322, 24, 0, 4185.641, 4183.077, 4079.487, 4117.949, 4164.103, 0, 0, []
1629648176.8402, 25, 0, 4172.308, 4162.051, 4060, 4104.103, 4146.154, 0, 0, []
1629648176.8481, 26, 0, 4165.128, 4147.692, 4053.333, 4103.077, 4134.359, 0, 0, []
1629648176.8559, 27, 0, 4163.59, 4141.026, 4052.821, 4096.41, 4129.744, 0, 0, []
1629648176.8637, 28, 0, 4164.103, 4135.385, 4035.897, 4078.974, 4127.692, 0, 0, []
1629648176.8715, 29, 0, 4167.179, 4129.231, 4047.692, 4080, 4134.872, 0, 0, []
1629648176.8794, 30, 0, 4157.436, 4133.333, 4048.718, 4078.462, 4134.872, 0, 0, []
1629648176.8872, 31, 0, 4144.103, 4148.205, 4038.462, 4070.769, 4122.564, 0, 0, []
1629648176.8951, 32, 0, 4147.179, 4148.718, 4038.974, 4080, 4117.949, 0, 0, []
1629648176.9028, 33, 0, 4166.154, 4153.846, 4046.667, 4100.513, 4133.333, 0, 0, []
1629648176.9107, 34, 0, 4175.385, 4159.487, 4056.923, 4106.667, 4145.128, 0, 0, []
1629648176.9185, 35, 0, 4137.949, 4106.667, 4015.897, 4064.103, 4106.154, 0, 0, []
1629648176.9264, 36, 0, 4117.949, 4072.821, 4006.154, 4035.897, 4085.128, 0, 0, []
1629648176.9342, 37, 0, 4181.026, 4141.026, 4083.59, 4094.359, 4157.949, 0, 0, []
1629648176.9421, 38, 0, 4210.769, 4189.231, 4110.769, 4138.974, 4194.872, 0, 0, []
1629648176.95, 39, 0, 4126.154, 4135.385, 4047.179, 4078.974, 4106.154, 0, 0, []
1629648176.958, 40, 0, 4076.41, 4106.667, 4000.513, 4026.154, 4048.205, 0, 0, []
1629648176.9659, 41, 0, 4136.923, 4145.128, 4046.154, 4067.179, 4104.103, 0, 0, []
1629648176.9739, 42, 0, 4184.103, 4164.103, 4093.333, 4115.385, 4153.333, 0, 0, []
1629648176.9817, 43, 0, 4150.769, 4143.077, 4053.846, 4085.641, 4122.051, 0, 0, []
1629648176.9897, 44, 0, 4099.487, 4111.282, 4012.308, 4025.128, 4072.821, 0, 0, []
1629648176.9976, 45, 0, 4102.051, 4107.179, 4025.641, 4035.385, 4080, 0, 0, []
1629648177.0056, 46, 0, 4124.103, 4121.538, 4052.821, 4077.949, 4105.128, 0, 0, []
1629648177.0135, 47, 0, 4114.872, 4125.128, 4052.821, 4068.205, 4095.897, 0, 0, []
1629648177.0212, 48, 0, 4132.821, 4139.487, 4064.103, 4083.59, 4111.282, 0, 0, []
1629648177.0291, 49, 0, 4175.897, 4175.385, 4113.333, 4137.949, 4153.333, 0, 0, []
1629648177.0369, 50, 0, 4162.564, 4175.897, 4105.128, 4124.103, 4142.051, 0, 0, []
1629648177.0448, 51, 0, 4128.718, 4146.154, 4066.154, 4074.359, 4107.692, 0, 0, []
1629648177.0526, 52, 0, 4147.692, 4155.385, 4085.128, 4087.692, 4123.077, 0, 0, []
1629648177.0604, 53, 0, 4179.487, 4184.615, 4101.026, 4125.641, 4153.846, 0, 0, []
1629648177.0682, 54, 0, 4180.513, 4185.128, 4097.949, 4132.308, 4156.923, 0, 0, []
1629648177.0761, 55, 0, 4173.846, 4165.128, 4090.769, 4122.564, 4148.205, 0, 0, []
1629648177.0839, 56, 0, 4159.487, 4146.154, 4078.462, 4103.59, 4134.872, 0, 0, []
1629648177.0919, 57, 0, 4139.487, 4136.923, 4078.462, 4090.769, 4120, 0, 0, []
1629648177.0997, 58, 0, 4130.256, 4136.923, 4070.256, 4093.333, 4115.385, 0, 0, []
1629648177.1077, 59, 0, 4127.692, 4140, 4066.154, 4091.795, 4111.282, 0, 0, []
1629648177.1156, 60, 0, 4128.205, 4146.154, 4055.385, 4084.615, 4107.692, 0, 0, []
1629648177.1236, 61, 0, 4125.641, 4146.154, 4034.359, 4079.487, 4103.59, 0, 0, []
1629648177.1315, 62, 0, 4137.436, 4148.205, 4055.897, 4089.231, 4109.231, 0, 0, []
1629648177.1394, 63, 0, 4173.846, 4172.308, 4088.205, 4114.872, 4142.051, 0, 0, []
1629648177.1473, 64, 0, 4167.179, 4174.872, 4080.513, 4106.667, 4141.026, 450, 0, []
1629648177.1553, 65, 0, 4130.769, 4150.256, 4046.667, 4067.692, 4106.154, 450, 0, []
1629648177.1632, 66, 0, 4146.667, 4152.821, 4053.846, 4076.923, 4116.41, 16189, 0, []
1629648177.171, 67, 0, 4154.872, 4152.308, 4077.436, 4101.026, 4124.615, 450, 0, []
1629648177.1788, 68, 0, 4121.538, 4130.769, 4047.179, 4080.513, 4096.923, 16166, 0, []
1629648177.1866, 69, 0, 4145.128, 4142.564, 4062.051, 4093.333, 4120.513, 450, 0, []
1629648177.1945, 70, 0, 4186.154, 4153.846, 4098.974, 4129.744, 4156.41, 16080, 0, []
1629648177.2023, 71, 0, 4148.205, 4123.077, 4051.282, 4096.923, 4116.41, 450, 0, []
1629648177.2102, 72, 0, 4140.513, 4138.974, 4040.513, 4081.538, 4106.154, 450, 0, []
1629648177.2179, 73, 0, 4197.949, 4188.205, 4082.564, 4132.308, 4160, 16152, 0, []
1629648177.2258, 74, 0, 4176.41, 4166.154, 4060, 4118.974, 4140, 450, 0, []
1629648177.2336, 75, 0, 4126.667, 4135.897, 4018.462, 4067.692, 4093.846, 16195, 0, []
1629648177.2415, 76, 0, 4157.949, 4158.462, 4029.231, 4091.795, 4118.974, 450, 0, []
1629648177.2493, 77, 0, 4164.103, 4155.897, 4030.769, 4096.41, 4123.59, 450, 0, []
1629648177.2573, 78, 0, 4129.231, 4131.282, 4005.641, 4060.513, 4094.872, 450, 0, []
1629648177.2651, 79, 0, 4146.667, 4145.128, 4031.795, 4086.667, 4113.333, 16195, 0, []
1629648177.2731, 80, 0, 4159.487, 4162.051, 4047.179, 4108.718, 4124.103, 450, 0, []
1629648177.281, 81, 0, 4132.821, 4150.769, 4015.385, 4081.538, 4098.462, 450, 0, []
1629648177.289, 82, 0, 4145.641, 4155.385, 4041.026, 4093.846, 4112.821, 450, 0, []
1629648177.2969, 83, 0, 4180.513, 4185.128, 4072.308, 4132.821, 4156.41, 16195, 0, []
1629648177.3048, 84, 0, 4167.179, 4181.026, 4040.513, 4112.308, 4145.641, 450, 0, []
1629648177.3127, 85, 0, 4131.795, 4134.359, 4008.718, 4063.59, 4100, 450, 0, []
1629648177.3205, 86, 0, 4129.744, 4131.795, 4010.769, 4058.974, 4097.436, 450, 0, []
1629648177.3284, 87, 0, 4161.026, 4176.923, 4048.718, 4095.897, 4135.385, 16195, 0, []
1629648177.3362, 88, 0, 4178.462, 4186.154, 4062.564, 4115.385, 4150.256, 450, 0, []
1629648177.344, 89, 0, 4153.333, 4160, 4040, 4093.846, 4126.154, 450, 0, []
1629648177.3518, 90, 0, 4145.128, 4162.051, 4049.231, 4086.154, 4120.513, 450, 0, []
1629648177.3597, 91, 0, 4162.564, 4180.513, 4060.513, 4101.538, 4136.41, 16195, 0, []
1629648177.3675, 92, 0, 4145.641, 4170.256, 4045.641, 4090.769, 4119.487, 450, 0, []
1629648177.3754, 93, 0, 4133.846, 4148.718, 4030.769, 4077.949, 4107.179, 450, 0, []
1629648177.3831, 94, 0, 4169.231, 4156.923, 4048.718, 4099.487, 4138.974, 450, 0, []
1629648177.3911, 95, 0, 4181.026, 4181.026, 4080.513, 4120, 4153.846, 16195, 0, []
1629648177.399, 96, 0, 4141.026, 4166.667, 4053.846, 4098.974, 4118.462, 450, 0, []
1629648177.407, 97, 0, 4129.744, 4141.538, 4034.872, 4082.051, 4108.205, 450, 0, []
1629648177.4149, 98, 0, 4169.744, 4170.256, 4066.154, 4114.872, 4149.231, 450, 0, []
1629648177.4228, 99, 0, 4169.231, 4195.897, 4075.385, 4129.231, 4154.359, 16195, 0, []
1629648177.4307, 100, 0, 4126.667, 4165.128, 4061.538, 4098.462, 4114.359, 450, 0, []
1629648177.4387, 101, 0, 4125.641, 4147.692, 4051.795, 4089.231, 4110.256, 450, 0, []
1629648177.4466, 102, 0, 4142.564, 4166.667, 4060, 4099.487, 4125.641, 450, 0, []
1629648177.4546, 103, 0, 4130.256, 4168.205, 4054.872, 4088.718, 4116.923, 16195, 0, []
1629648177.4624, 104, 0, 4115.897, 4137.436, 4029.744, 4070.256, 4100, 450, 0, []
1629648177.4704, 105, 0, 4105.128, 4119.487, 4024.615, 4059.487, 4085.641, 450, 0, []
1629648177.4783, 106, 0, 4110.256, 4143.077, 4032.308, 4070.769, 4094.359, 450, 0, []
1629648177.4861, 107, 0, 4147.179, 4164.103, 4060.513, 4101.026, 4130.769, 16195, 0, []
1629648177.494, 108, 0, 4137.436, 4138.462, 4048.205, 4081.026, 4110.769, 450, 0, []
1629648177.5017, 109, 0, 4089.231, 4110.769, 4005.641, 4037.949, 4057.949, 450, 0, []
1629648177.5096, 110, 0, 4110.256, 4135.897, 4044.615, 4067.692, 4090.256, 450, 0, []
1629648177.5174, 111, 0, 4155.897, 4161.538, 4076.923, 4112.308, 4138.974, 16195, 0, []
1629648177.5253, 112, 0, 4142.564, 4145.128, 4051.282, 4106.667, 4123.077, 450, 0, []
1629648177.5331, 113, 0, 4107.692, 4123.077, 4033.333, 4083.59, 4093.333, 450, 0, []
1629648177.5409, 114, 0, 4095.385, 4120, 4025.641, 4067.179, 4081.538, 450, 0, []
1629648177.5487, 115, 0, 4107.179, 4135.897, 4044.615, 4073.333, 4087.692, 16195, 0, []
1629648177.5566, 116, 0, 4129.231, 4154.359, 4063.077, 4099.487, 4113.846, 450, 0, []
1629648177.5644, 117, 0, 4124.615, 4141.538, 4040, 4090.769, 4111.282, 450, 0, []
1629648177.5724, 118, 0, 4107.179, 4117.436, 4012.308, 4062.564, 4087.692, 450, 0, []
1629648177.5802, 119, 0, 4104.615, 4116.41, 4004.103, 4068.205, 4089.744, 16195, 0, []
1629648177.5882, 120, 0, 4103.59, 4124.103, 4018.462, 4075.897, 4090.256, 450, 0, []
1629648177.5961, 121, 0, 4105.128, 4126.154, 4023.077, 4070.256, 4084.103, 450, 0, []
1629648177.6041, 122, 0, 4101.026, 4127.692, 4015.897, 4058.974, 4082.564, 450, 0, []
1629648177.612, 123, 0, 4111.282, 4141.026, 4036.41, 4064.103, 4100, 16195, 0, []
1629648177.6199, 124, 0, 4150.769, 4167.692, 4055.897, 4102.051, 4140, 450, 0, []
1629648177.6278, 125, 0, 4151.795, 4163.077, 4044.103, 4109.231, 4137.436, 450, 0, []
1629648177.6357, 126, 0, 4107.692, 4118.974, 4003.077, 4066.154, 4088.205, 450, 0, []
1629648177.6436, 127, 0, 4092.821, 4104.615, 3988.205, 4049.231, 4072.308, 16195, 0, []
1629648177.6514, 128, 0, 4109.231, 4121.538, 4017.436, 4069.231, 4095.897, 450, 0, []
1629648177.6592, 0, 0, 4115.385, 4117.436, 4016.923, 4075.385, 4103.077, 450, 0, []
1629648177.6671, 1, 0, 4115.385, 4106.154, 4010.769, 4071.795, 4097.436, 450, 0, []
1629648177.6751, 2, 0, 4112.821, 4108.205, 4010.256, 4065.128, 4096.41, 16189, 0, []
1629648177.6829, 3, 0, 4108.718, 4106.667, 4009.744, 4058.974, 4100, 450, 0, []
1629648177.6908, 4, 0, 4104.615, 4101.026, 4026.154, 4064.615, 4097.949, 16169, 0, []
1629648177.6985, 5, 0, 4076.923, 4089.744, 4015.897, 4047.179, 4067.692, 450, 0, []
1629648177.7064, 6, 0, 4057.949, 4086.667, 4012.821, 4026.154, 4045.128, 16085, 0, []
1629648177.7142, 7, 0, 4098.974, 4116.41, 4048.718, 4067.692, 4087.179, 450, 0, []
1629648177.7222, 8, 0, 4137.436, 4147.179, 4066.154, 4117.949, 4132.308, 450, 0, []
1629648177.7301, 9, 0, 4104.103, 4130.256, 4039.487, 4088.718, 4101.026, 16158, 0, []
1629648177.738, 10, 0, 4049.744, 4084.103, 3990.256, 4023.077, 4044.103, 450, 0, []
1629648177.7459, 11, 0, 4048.718, 4069.231, 4001.026, 4018.462, 4044.615, 16203, 0, []
1629648177.7539, 12, 0, 4080, 4097.436, 4037.949, 4049.231, 4076.41, 450, 0, []
1629648177.7618, 13, 0, 4090.256, 4107.692, 4021.538, 4050.256, 4081.026, 450, 0, []
1629648177.7698, 14, 0, 4079.487, 4078.462, 4003.077, 4043.077, 4067.179, 450, 0, []
1629648177.7776, 15, 0, 4061.538, 4062.564, 3990.256, 4038.974, 4049.744, 16203, 0, []
1629648177.7856, 16, 0, 4036.41, 4063.59, 3982.564, 4013.333, 4025.128, 0, 0, []
1629648177.7935, 17, 0, 4020.513, 4053.846, 3988.205, 3986.154, 4007.692, 0, 0, []
1629648177.8013, 18, 0, 4043.59, 4066.154, 3996.923, 4006.154, 4032.308, 0, 0, []
1629648177.8092, 19, 0, 4075.897, 4088.718, 4015.897, 4031.282, 4066.667, 0, 0, []
1629648177.8169, 20, 0, 4076.41, 4084.103, 4008.718, 4025.128, 4067.179, 0, 0, []
1629648177.8248, 21, 0, 4056.923, 4072.308, 3992.821, 4024.103, 4049.231, 0, 0, []
1629648177.8326, 22, 0, 4047.179, 4063.59, 3995.385, 4038.462, 4043.59, 0, 0, []
1629648177.8405, 23, 0, 4055.897, 4063.077, 3992.821, 4045.128, 4051.795, 0, 0, []
1629648177.8483, 24, 0, 4073.333, 4078.974, 4007.692, 4049.744, 4067.692, 0, 0, []
1629648177.8562, 25, 0, 4074.872, 4081.026, 4003.59, 4044.103, 4068.718, 0, 0, []
1629648177.8641, 26, 0, 4038.974, 4043.59, 3963.59, 3998.974, 4028.718, 0, 0, []
1629648177.8721, 27, 0, 4016.41, 4040.513, 3962.051, 3973.846, 4004.103, 0, 0, []
1629648177.88, 28, 0, 4039.487, 4076.923, 3979.487, 3993.846, 4030.769, 0, 0, []
1629648177.888, 29, 0, 4043.077, 4070.256, 3970.256, 3990.769, 4033.846, 0, 0, []
1629648177.8958, 30, 0, 4027.179, 4052.308, 3956.41, 3988.718, 4015.385, 0, 0, []
1629648177.9038, 31, 0, 4044.103, 4071.282, 3974.359, 4020.513, 4031.282, 0, 0, []
1629648177.9117, 32, 0, 4045.641, 4072.308, 3978.974, 4014.359, 4030.769, 0, 0, []
1629648177.9197, 33, 0, 4031.795, 4060.513, 3957.436, 3992.821, 4021.026, 0, 0, []
1629648177.9276, 34, 0, 4046.154, 4074.359, 3973.333, 4010.769, 4040, 0, 0, []
1629648177.9355, 35, 0, 4041.026, 4062.051, 3964.615, 4002.051, 4035.385, 0, 0, []
1629648177.9434, 36, 0, 4022.564, 4044.615, 3943.59, 3978.974, 4018.974, 0, 0, []
1629648177.9512, 37, 0, 4042.051, 4075.897, 3989.231, 4009.231, 4031.282, 0, 0, []
1629648177.9591, 38, 0, 4049.744, 4077.949, 3994.872, 4032.308, 4038.974, 0, 0, []
1629648177.9669, 39, 0, 4019.487, 4030.769, 3957.949, 4014.359, 4030.256, 0, 0, []
1629648177.9747, 40, 0, 4012.821, 4027.179, 3964.615, 4015.897, 4038.462, 0, 0, []
1629648177.9825, 41, 0, 4001.026, 4043.59, 3957.436, 4013.846, 4022.051, 0, 0, []
1629648177.9904, 42, 0, 3958.974, 4019.487, 3926.667, 3984.103, 3974.872, 0, 0, []
1629648177.9982, 43, 0, 3961.026, 4017.436, 3932.308, 3990.256, 3979.487, 0, 0, []
1629648178.0061, 44, 0, 3985.128, 4042.564, 3955.897, 4008.205, 4002.564, 0, 0, []
1629648178.0139, 45, 0, 3958.974, 4035.385, 3935.385, 3971.282, 3975.897, 0, 0, []
1629648178.0217, 46, 0, 3935.385, 4020.513, 3923.077, 3948.718, 3954.872, 0, 0, []
1629648178.0295, 47, 0, 3951.282, 4019.487, 3963.077, 3981.538, 3975.897, 0, 0, []
1629648178.0375, 48, 0, 3956.41, 4016.923, 3965.641, 3993.333, 3984.103, 0, 0, []
1629648178.0454, 49, 0, 3973.333, 4034.359, 3972.821, 3997.436, 3995.385, 0, 0, []
1629648178.0534, 50, 0, 4014.359, 4070.769, 4013.846, 4033.846, 4035.897, 0, 0, []
1629648178.0612, 51, 0, 4002.564, 4067.692, 3999.487, 4032.821, 4035.897, 0, 0, []
1629648178.0692, 52, 0, 3943.59, 4030.256, 3956.923, 3981.026, 3982.564, 0, 0, []
1629648178.0771, 53, 0, 3930.256, 4029.231, 3936.41, 3962.564, 3963.59, 0, 0, []
1629648178.0851, 54, 0, 3978.974, 4062.564, 3962.564, 4000.513, 4006.667, 0, 0, []
1629648178.093, 55, 0, 4025.641, 4085.641, 4009.231, 4042.051, 4053.846, 0, 0, []
1629648178.1007, 56, 0, 4006.154, 4066.154, 3983.59, 4030.769, 4035.385, 0, 0, []
1629648178.1086, 57, 0, 3958.974, 4030.769, 3946.667, 3992.821, 3987.692, 0, 0, []
1629648178.1164, 58, 0, 3987.179, 4043.077, 3972.308, 4020, 4012.821, 0, 0, []
1629648178.1243, 59, 0, 4026.667, 4073.846, 4004.615, 4067.692, 4052.308, 0, 0, []
1629648178.1321, 60, 0, 3994.872, 4069.231, 3987.179, 4049.744, 4027.692, 0, 0, []
1629648178.1399, 61, 0, 3966.154, 4046.154, 3950.256, 4010.769, 3998.462, 0, 0, []
1629648178.1477, 62, 0, 3977.949, 4049.231, 3955.897, 4004.103, 4006.154, 0, 0, []
1629648178.1556, 63, 0, 3987.692, 4075.897, 3959.487, 4002.564, 4014.359, 0, 0, []
1629648178.1634, 64, 0, 3977.949, 4074.359, 3938.974, 3980, 3999.487, 450, 0, []
1629648178.1713, 65, 0, 3984.103, 4053.846, 3946.667, 3977.949, 3998.974, 450, 0, []
1629648178.179, 66, 0, 4008.205, 4069.231, 3962.051, 4011.795, 4022.564, 16189, 0, []
1629648178.187, 67, 0, 4016.923, 4101.026, 3976.923, 4035.385, 4035.385, 450, 0, []
1629648178.1949, 68, 0, 3997.436, 4088.718, 3965.641, 4024.615, 4026.154, 16169, 0, []
1629648178.2029, 69, 0, 3985.128, 4065.128, 3952.308, 4006.667, 4018.974, 450, 0, []
1629648178.2108, 70, 0, 3988.718, 4074.872, 3964.103, 3996.923, 4016.41, 16087, 0, []
1629648178.2187, 71, 0, 3975.385, 4066.667, 3946.154, 3983.59, 4001.026, 450, 0, []
1629648178.2266, 72, 0, 3975.897, 4050.256, 3950.256, 3991.282, 4007.179, 450, 0, []
1629648178.2346, 73, 0, 4008.718, 4074.872, 3978.462, 4018.974, 4035.897, 16161, 0, []
1629648178.2425, 74, 0, 4015.897, 4085.128, 3971.282, 4020, 4037.949, 450, 0, []
1629648178.2505, 75, 0, 3994.359, 4063.077, 3964.615, 4008.718, 4026.154, 16203, 0, []
1629648178.2583, 76, 0, 4007.179, 4073.846, 3979.487, 4029.231, 4050.769, 450, 0, []
1629648178.2661, 77, 0, 4040.513, 4103.59, 4008.718, 4065.641, 4085.641, 450, 0, []
1629648178.274, 78, 0, 4040, 4096.41, 4007.179, 4066.154, 4080.513, 450, 0, []
1629648178.2818, 79, 0, 4024.103, 4082.564, 3985.641, 4043.077, 4061.026, 16203, 0, []
1629648178.2897, 80, 0, 4016.923, 4085.641, 3994.872, 4034.872, 4054.359, 450, 0, []
1629648178.2974, 81, 0, 4006.154, 4076.923, 3985.128, 4031.795, 4050.769, 450, 0, []
1629648178.3053, 82, 0, 3972.308, 4047.179, 3953.846, 4005.128, 4027.179, 450, 0, []
1629648178.3131, 83, 0, 3955.897, 4038.974, 3955.897, 3995.897, 4013.333, 16203, 0, []
1629648178.321, 84, 0, 3991.795, 4071.795, 3995.385, 4043.077, 4051.795, 450, 0, []
1629648178.3288, 85, 0, 4023.077, 4095.897, 4025.128, 4074.359, 4088.718, 450, 0, []
1629648178.3366, 86, 0, 4004.103, 4091.795, 3992.821, 4046.667, 4066.667, 450, 0, []
1629648178.3444, 87, 0, 3987.692, 4090.256, 3978.462, 4027.179, 4040.513, 16203, 0, []
1629648178.3524, 88, 0, 4001.026, 4088.718, 4000.513, 4035.385, 4051.282, 450, 0, []
1629648178.3603, 89, 0, 3999.487, 4084.103, 3984.103, 4033.333, 4054.359, 450, 0, []
1629648178.3683, 90, 0, 3974.359, 4090.256, 3970.256, 4023.077, 4033.846, 450, 0, []
1629648178.3761, 91, 0, 3956.41, 4081.026, 3965.128, 4011.282, 4020, 16203, 0, []
1629648178.3841, 92, 0, 3958.974, 4053.333, 3957.436, 4002.564, 4021.026, 450, 0, []
1629648178.392, 93, 0, 3967.179, 4054.359, 3957.949, 4001.538, 4025.641, 450, 0, []
1629648178.4, 94, 0, 3977.436, 4082.051, 3963.077, 4010.769, 4037.436, 450, 0, []
1629648178.4079, 95, 0, 3998.974, 4094.359, 3990.256, 4032.821, 4058.974, 16203, 0, []
1629648178.4158, 96, 0, 4014.872, 4091.795, 3990.769, 4049.744, 4069.231, 450, 0, []
1629648178.4237, 97, 0, 4017.949, 4099.487, 3975.385, 4043.59, 4070.256, 450, 0, []
1629648178.4315, 98, 0, 4015.897, 4101.026, 3977.949, 4030.769, 4073.333, 450, 0, []
1629648178.4394, 99, 0, 4016.923, 4099.487, 3973.846, 4038.974, 4080.513, 16203, 0, []
1629648178.4472, 100, 0, 4008.718, 4097.436, 3974.872, 4047.179, 4075.897, 450, 0, []
1629648178.455, 101, 0, 3983.59, 4070.256, 3955.897, 4025.128, 4055.385, 450, 0, []
1629648178.4628, 102, 0, 3981.026, 4062.051, 3949.231, 4016.923, 4054.872, 450, 0, []
1629648178.4707, 103, 0, 4021.538, 4105.128, 3998.462, 4058.462, 4093.846, 16203, 0, []
1629648178.4785, 104, 0, 4030.256, 4103.59, 4009.231, 4070.256, 4101.026, 450, 0, []
1629648178.4865, 105, 0, 3971.795, 4054.872, 3966.667, 4010.769, 4040.513, 450, 0, []
1629648178.4943, 106, 0, 3971.282, 4070.769, 3964.103, 4010.256, 4031.795, 450, 0, []
1629648178.5023, 107, 0, 4028.205, 4100.513, 4000, 4070.769, 4087.179, 16203, 0, []
1629648178.5102, 108, 0, 4025.641, 4082.051, 4005.641, 4063.59, 4088.205, 450, 0, []
1629648178.5182, 109, 0, 4007.179, 4089.231, 3987.179, 4031.795, 4066.667, 450, 0, []
1629648178.5261, 110, 0, 4009.744, 4093.333, 3981.538, 4034.872, 4064.103, 450, 0, []
1629648178.534, 111, 0, 4007.692, 4065.128, 3976.923, 4037.949, 4063.077, 16203, 0, []
1629648178.5419, 112, 0, 4011.795, 4065.641, 3988.205, 4043.59, 4074.872, 450, 0, []
1629648178.5499, 113, 0, 4019.487, 4088.718, 4014.359, 4055.897, 4087.179, 450, 0, []
1629648178.5578, 114, 0, 4023.077, 4097.436, 4009.231, 4061.026, 4089.231, 450, 0, []
1629648178.5657, 115, 0, 4038.462, 4106.154, 4023.077, 4075.897, 4107.179, 16203, 0, []
1629648178.5735, 116, 0, 4042.564, 4112.821, 4039.487, 4086.667, 4115.385, 450, 0, []
1629648178.5813, 117, 0, 4021.026, 4104.615, 4013.846, 4072.821, 4095.897, 450, 0, []
1629648178.5892, 118, 0, 4021.026, 4092.308, 4013.333, 4061.026, 4092.821, 450, 0, []
1629648178.597, 119, 0, 4014.359, 4075.897, 4002.564, 4043.59, 4082.051, 16203, 0, []
1629648178.6049, 120, 0, 3994.872, 4076.923, 3985.641, 4034.359, 4061.026, 450, 0, []
1629648178.6126, 121, 0, 4007.692, 4097.436, 3994.872, 4052.308, 4075.385, 450, 0, []
1629648178.6205, 122, 0, 4006.667, 4092.821, 3978.974, 4042.051, 4077.436, 450, 0, []
1629648178.6283, 123, 0, 4001.538, 4091.795, 3987.179, 4040, 4074.872, 16203, 0, []
1629648178.6362, 124, 0, 4017.949, 4101.538, 4007.179, 4064.103, 4090.769, 450, 0, []
1629648178.644, 125, 0, 4012.308, 4092.308, 3997.949, 4058.974, 4082.051, 450, 0, []
1629648178.6518, 126, 0, 4006.154, 4100, 3997.949, 4057.436, 4080.513, 450, 0, []
1629648178.6596, 127, 0, 4029.231, 4112.308, 4010.769, 4078.974, 4113.333, 16203, 0, []
1629648178.6675, 128, 0, 4023.077, 4086.667, 4004.103, 4057.949, 4101.026, 450, 0, []
1629648178.6755, 0, 0, 3983.077, 4069.231, 3974.359, 4019.487, 4052.308, 450, 0, []
1629648178.6835, 1, 0, 3975.385, 4086.667, 3984.103, 4032.821, 4051.282, 450, 0, []
1629648178.6913, 2, 0, 3997.436, 4095.897, 4015.385, 4058.974, 4078.974, 16190, 0, []
1629648178.6993, 3, 0, 4024.615, 4099.487, 4023.59, 4071.795, 4105.128, 450, 0, []
1629648178.7072, 4, 0, 4040.513, 4109.231, 4036.923, 4081.026, 4120, 16169, 0, []
1629648178.7152, 5, 0, 4037.436, 4112.821, 4029.231, 4076.41, 4112.308, 450, 0, []
1629648178.7231, 6, 0, 4024.103, 4114.359, 4005.128, 4055.897, 4094.359, 309, 0, []
1629648178.7309, 7, 0, 4011.795, 4104.615, 4003.077, 4035.385, 4081.026, 450, 0, []
1629648178.7387, 8, 0, 4024.615, 4102.564, 4014.872, 4052.308, 4095.385, 450, 0, []
1629648178.7465, 9, 0, 4047.692, 4125.128, 4034.359, 4088.718, 4122.051, 16161, 0, []
1629648178.7544, 10, 0, 4068.205, 4147.692, 4048.205, 4114.359, 4143.077, 450, 0, []
1629648178.7622, 11, 0, 4082.051, 4145.128, 4050.256, 4118.974, 4149.744, 16203, 0, []
1629648178.7701, 12, 0, 4054.872, 4120, 4031.282, 4082.051, 4120.513, 450, 0, []
1629648178.7778, 13, 0, 4045.128, 4127.692, 4021.026, 4067.692, 4113.333, 450, 0, []
1629648178.7858, 14, 0, 4106.667, 4177.949, 4085.128, 4134.359, 4178.974, 450, 0, []
1629648178.7937, 15, 0, 4130.256, 4185.128, 4115.385, 4162.564, 4212.821, 16203, 0, []
1629648178.8017, 16, 0, 4070.256, 4142.051, 4062.564, 4104.103, 4155.897, 0, 0, []
1629648178.8096, 17, 0, 4045.128, 4130.769, 4057.436, 4087.692, 4122.051, 0, 0, []
1629648178.8175, 18, 0, 4064.615, 4141.026, 4073.846, 4113.846, 4140.513, 0, 0, []
1629648178.8254, 19, 0, 4066.667, 4144.103, 4072.821, 4104.103, 4148.205, 0, 0, []
1629648178.8334, 20, 0, 4069.744, 4153.333, 4078.462, 4095.897, 4147.692, 0, 0, []
1629648178.8413, 21, 0, 4070.769, 4144.103, 4064.103, 4097.436, 4143.077, 0, 0, []
1629648178.8493, 22, 0, 4064.615, 4137.436, 4056.923, 4097.436, 4140, 0, 0, []
1629648178.8571, 23, 0, 4079.487, 4167.692, 4066.667, 4117.436, 4160, 0, 0, []
1629648178.8651, 24, 0, 4079.487, 4166.154, 4066.154, 4120.513, 4162.051, 0, 0, []
1629648178.873, 25, 0, 4057.436, 4134.359, 4051.795, 4094.359, 4140.513, 0, 0, []
1629648178.8808, 26, 0, 4066.154, 4141.538, 4051.795, 4093.846, 4146.154, 0, 0, []
1629648178.8887, 27, 0, 4078.462, 4152.821, 4065.641, 4110.256, 4154.359, 0, 0, []
1629648178.8964, 28, 0, 4064.615, 4146.154, 4046.154, 4112.821, 4142.051, 0, 0, []
1629648178.9043, 29, 0, 4052.308, 4149.744, 4028.718, 4106.154, 4128.718, 0, 0, []
1629648178.9121, 30, 0, 4051.282, 4145.128, 4043.59, 4100.513, 4124.103, 0, 0, []
1629648178.92, 31, 0, 4059.487, 4123.59, 4058.974, 4105.641, 4135.385, 0, 0, []
1629648178.9278, 32, 0, 4069.744, 4129.744, 4079.487, 4122.051, 4153.846, 0, 0, []
1629648178.9356, 33, 0, 4062.564, 4143.59, 4081.026, 4127.179, 4152.308, 0, 0, []
1629648178.9434, 34, 0, 4048.718, 4134.872, 4072.821, 4115.385, 4137.949, 0, 0, []
1629648178.9514, 35, 0, 4054.872, 4142.051, 4077.436, 4117.436, 4142.564, 0, 0, []
1629648178.9593, 36, 0, 4048.205, 4144.103, 4052.821, 4108.205, 4132.821, 0, 0, []
1629648178.9673, 37, 0, 4034.872, 4129.231, 4042.564, 4076.41, 4109.744, 0, 0, []
1629648178.9751, 38, 0, 4069.231, 4145.128, 4081.538, 4087.179, 4131.795, 0, 0, []
1629648178.9831, 39, 0, 4091.795, 4156.923, 4110.256, 4114.359, 4153.333, 0, 0, []
1629648178.991, 40, 0, 4058.462, 4128.718, 4108.205, 4099.487, 4127.179, 0, 0, []
1629648178.999, 41, 0, 4038.462, 4114.359, 4092.821, 4092.308, 4108.718, 0, 0, []
1629648179.0069, 42, 0, 4046.154, 4123.59, 4081.026, 4115.385, 4115.897, 0, 0, []
1629648179.0148, 43, 0, 4044.103, 4126.667, 4056.923, 4117.436, 4119.487, 0, 0, []
1629648179.0227, 44, 0, 4038.974, 4132.821, 4043.59, 4102.564, 4118.974, 0, 0, []
1629648179.0307, 45, 0, 4038.974, 4131.282, 4058.974, 4092.821, 4110.256, 0, 0, []
1629648179.0386, 46, 0, 4058.974, 4137.436, 4086.154, 4095.385, 4120, 0, 0, []
1629648179.0464, 47, 0, 4101.538, 4176.923, 4135.897, 4125.641, 4162.051, 0, 0, []
1629648179.0542, 48, 0, 4096.41, 4181.026, 4127.692, 4126.154, 4154.359, 0, 0, []
1629648179.062, 49, 0, 4052.821, 4131.795, 4067.692, 4086.154, 4101.026, 0, 0, []
1629648179.0699, 50, 0, 4070.256, 4122.051, 4084.615, 4106.667, 4118.974, 0, 0, []
1629648179.0777, 51, 0, 4122.051, 4157.949, 4122.051, 4171.795, 4178.462, 0, 0, []
1629648179.0856, 52, 0, 4116.923, 4163.59, 4106.154, 4165.128, 4166.667, 0, 0, []
1629648179.0933, 53, 0, 4079.487, 4150.769, 4071.795, 4106.154, 4120.513, 0, 0, []
1629648179.1012, 54, 0, 4069.231, 4156.923, 4061.538, 4076.41, 4114.359, 0, 0, []
1629648179.109, 55, 0, 4072.821, 4150.256, 4069.744, 4060.513, 4119.487, 0, 0, []
1629648179.117, 56, 0, 4078.462, 4139.487, 4065.641, 4054.872, 4118.974, 0, 0, []
1629648179.1249, 57, 0, 4098.462, 4154.872, 4080.513, 4093.846, 4138.462, 0, 0, []
1629648179.1328, 58, 0, 4109.744, 4164.615, 4096.923, 4128.718, 4154.872, 0, 0, []
1629648179.1407, 59, 0, 4106.667, 4145.641, 4088.205, 4126.154, 4148.205, 0, 0, []
1629648179.1487, 60, 0, 4110.256, 4145.128, 4098.462, 4127.179, 4147.692, 0, 0, []
1629648179.1566, 61, 0, 4120.513, 4167.179, 4102.564, 4129.231, 4163.077, 0, 0, []
1629648179.1646, 62, 0, 4125.128, 4165.128, 4082.051, 4101.538, 4170.769, 0, 0, []
1629648179.1724, 63, 0, 4151.795, 4161.026, 4069.231, 4088.718, 4191.282, 0, 0, []
1629648179.1802, 64, 0, 4190.769, 4149.231, 4053.333, 4091.795, 4215.385, 450, 0, []
1629648179.1881, 65, 0, 4203.59, 4123.077, 4048.718, 4076.923, 4218.974, 450, 0, []
1629648179.1959, 66, 0, 4244.103, 4143.077, 4075.897, 4103.077, 4264.103, 16186, 0, []
1629648179.2038, 67, 0, 4294.872, 4174.359, 4098.974, 4147.179, 4317.949, 450, 0, []
1629648179.2115, 68, 0, 4279.487, 4146.154, 4073.846, 4118.974, 4294.359, 16169, 0, []
1629648179.2194, 69, 0, 4258.462, 4127.692, 4044.103, 4084.615, 4266.667, 450, 0, []
1629648179.2272, 70, 0, 4274.872, 4166.154, 4072.308, 4110.769, 4286.154, 16063, 0, []
1629648179.2351, 71, 0, 4268.718, 4187.179, 4085.128, 4123.59, 4281.026, 450, 0, []
1629648179.2429, 72, 0, 4244.615, 4178.462, 4068.718, 4098.462, 4246.667, 450, 0, []
1629648179.2507, 73, 0, 4248.718, 4183.077, 4085.128, 4106.154, 4243.077, 16151, 0, []
1629648179.2585, 74, 0, 4241.538, 4193.846, 4088.205, 4128.718, 4242.564, 450, 0, []
1629648179.2665, 75, 0, 4198.462, 4186.154, 4067.179, 4110.769, 4213.333, 16195, 0, []
1629648179.2744, 76, 0, 4166.667, 4167.692, 4052.821, 4090.256, 4188.718, 450, 0, []
1629648179.2824, 77, 0, 4154.872, 4159.487, 4053.333, 4096.923, 4173.333, 450, 0, []
1629648179.2902, 78, 0, 4164.103, 4163.077, 4076.923, 4114.359, 4176.923, 450, 0, []
1629648179.2982, 79, 0, 4178.974, 4157.436, 4085.128, 4116.923, 4191.795, 16195, 0, []
1629648179.3061, 80, 0, 4160, 4146.154, 4076.41, 4089.231, 4169.744, 450, 0, []
1629648179.3141, 81, 0, 4148.205, 4158.462, 4081.026, 4086.667, 4153.846, 450, 0, []
1629648179.322, 82, 0, 4183.077, 4190.256, 4111.282, 4133.846, 4193.846, 450, 0, []
1629648179.3298, 83, 0, 4212.821, 4207.692, 4141.026, 4158.974, 4224.103, 16195, 0, []
1629648179.3377, 84, 0, 4191.795, 4189.744, 4109.744, 4127.692, 4192.821, 450, 0, []
1629648179.3455, 85, 0, 4155.385, 4167.179, 4075.897, 4109.744, 4160, 450, 0, []
1629648179.3534, 86, 0, 4149.231, 4167.692, 4078.974, 4124.103, 4165.128, 450, 0, []
1629648179.3612, 87, 0, 4165.128, 4179.487, 4090.256, 4133.333, 4180, 16195, 0, []
1629648179.369, 88, 0, 4167.179, 4183.59, 4097.949, 4135.897, 4180.513, 450, 0, []
1629648179.3768, 89, 0, 4162.051, 4181.538, 4085.128, 4141.538, 4170.769, 450, 0, []
1629648179.3847, 90, 0, 4175.897, 4188.205, 4090.256, 4150.256, 4173.333, 450, 0, []
1629648179.3925, 91, 0, 4168.718, 4177.436, 4077.949, 4137.949, 4163.59, 16195, 0, []
1629648179.4004, 92, 0, 4150.256, 4157.949, 4048.205, 4116.923, 4150.256, 450, 0, []
1629648179.4081, 93, 0, 4173.333, 4175.897, 4083.077, 4128.718, 4173.333, 450, 0, []
1629648179.4161, 94, 0, 4191.795, 4197.436, 4113.846, 4150.769, 4192.821, 450, 0, []
1629648179.424, 95, 0, 4158.974, 4168.718, 4094.872, 4142.564, 4163.077, 16195, 0, []
1629648179.432, 96, 0, 4122.051, 4131.282, 4070.769, 4111.282, 4121.026, 450, 0, []
1629648179.4399, 97, 0, 4129.231, 4135.897, 4067.179, 4101.026, 4120.513, 450, 0, []
1629648179.4478, 98, 0, 4164.103, 4164.103, 4097.436, 4132.821, 4157.436, 450, 0, []
1629648179.4557, 99, 0, 4183.59, 4182.051, 4107.179, 4154.872, 4180, 16195, 0, []
1629648179.4637, 100, 0, 4169.231, 4176.41, 4086.154, 4124.103, 4156.923, 450, 0, []
1629648179.4716, 101, 0, 4162.051, 4169.744, 4077.949, 4094.872, 4135.897, 450, 0, []
1629648179.4796, 102, 0, 4170.769, 4162.564, 4070.256, 4093.846, 4141.538, 450, 0, []
1629648179.4875, 103, 0, 4168.205, 4154.359, 4074.872, 4094.872, 4141.026, 16195, 0, []
1629648179.4954, 104, 0, 4173.846, 4163.59, 4091.795, 4107.692, 4141.026, 450, 0, []
1629648179.5033, 105, 0, 4180.513, 4171.795, 4098.462, 4124.615, 4147.692, 450, 0, []
1629648179.5113, 106, 0, 4158.974, 4159.487, 4081.538, 4111.282, 4132.308, 450, 0, []
1629648179.5192, 107, 0, 4138.974, 4156.923, 4058.462, 4087.692, 4111.282, 16195, 0, []
1629648179.527, 108, 0, 4151.282, 4176.41, 4083.077, 4098.974, 4122.564, 450, 0, []
1629648179.5348, 109, 0, 4156.923, 4167.179, 4091.795, 4097.436, 4128.718, 450, 0, []
1629648179.5426, 110, 0, 4146.154, 4141.026, 4065.641, 4065.128, 4111.282, 450, 0, []
1629648179.5505, 111, 0, 4170.769, 4157.949, 4083.59, 4081.538, 4131.282, 16195, 0, []
1629648179.5583, 112, 0, 4198.462, 4187.179, 4102.051, 4129.231, 4168.718, 450, 0, []
1629648179.5662, 113, 0, 4167.179, 4153.333, 4080.513, 4114.872, 4139.487, 450, 0, []
1629648179.5739, 114, 0, 4127.692, 4112.308, 4058.974, 4074.359, 4092.308, 450, 0, []
1629648179.5819, 115, 0, 4145.128, 4146.154, 4076.41, 4088.205, 4113.333, 16195, 0, []
1629648179.5898, 116, 0, 4179.487, 4183.59, 4108.718, 4116.923, 4154.872, 450, 0, []
1629648179.5978, 117, 0, 4184.103, 4158.974, 4098.974, 4111.795, 4153.846, 450, 0, []
1629648179.6057, 118, 0, 4156.923, 4126.154, 4072.308, 4083.59, 4120, 450, 0, []
1629648179.6136, 119, 0, 4147.179, 4144.615, 4069.231, 4075.385, 4112.821, 16195, 0, []
1629648179.6215, 120, 0, 4182.051, 4181.026, 4096.41, 4111.282, 4152.821, 450, 0, []
1629648179.6295, 121, 0, 4198.462, 4175.385, 4109.231, 4130.256, 4169.744, 450, 0, []
1629648179.6374, 122, 0, 4169.744, 4151.282, 4067.692, 4100.513, 4135.385, 450, 0, []
1629648179.6453, 123, 0, 4152.821, 4151.795, 4058.974, 4087.179, 4116.41, 16195, 0, []
1629648179.6531, 124, 0, 4171.282, 4161.026, 4089.231, 4109.231, 4132.821, 450, 0, []
1629648179.661, 125, 0, 4188.718, 4163.077, 4095.897, 4116.923, 4143.59, 450, 0, []
1629648179.6689, 126, 0, 4182.051, 4166.667, 4096.41, 4095.897, 4132.821, 450, 0, []
1629648179.6768, 127, 0, 4168.718, 4160, 4086.667, 4069.744, 4117.436, 16195, 0, []
1629648179.6848, 128, 0, 4174.872, 4151.282, 4096.41, 4070.769, 4122.564, 450, 0, []
1629648179.6925, 0, 0, 4181.026, 4154.359, 4110.769, 4087.179, 4131.795, 450, 0, []
1629648179.7004, 1, 0, 4173.846, 4148.205, 4092.308, 4086.667, 4126.667, 450, 0, []
1629648179.7082, 2, 0, 4189.231, 4156.41, 4100, 4091.795, 4134.359, 16184, 0, []
1629648179.7161, 3, 0, 4199.487, 4167.692, 4099.487, 4095.385, 4141.026, 450, 0, []
1629648179.7239, 4, 0, 4186.667, 4153.846, 4081.538, 4086.667, 4131.795, 16169, 0, []
1629648179.7317, 5, 0, 4197.949, 4158.462, 4094.872, 4098.974, 4147.692, 450, 0, []
1629648179.7395, 6, 0, 4212.821, 4176.923, 4095.897, 4115.897, 4163.59, 16078, 0, []
1629648179.7475, 7, 0, 4180, 4152.821, 4064.103, 4087.692, 4126.667, 450, 0, []
1629648179.7554, 8, 0, 4150.769, 4126.154, 4043.077, 4056.41, 4096.923, 450, 0, []
1629648179.7634, 9, 0, 4165.641, 4140, 4065.641, 4072.308, 4118.974, 16151, 0, []
1629648179.7712, 10, 0, 4187.179, 4146.154, 4092.308, 4104.615, 4150.256, 450, 0, []
1629648179.7792, 11, 0, 4189.744, 4143.077, 4084.103, 4114.359, 4159.487, 16196, 0, []
1629648179.7871, 12, 0, 4170.769, 4135.897, 4064.103, 4092.821, 4137.949, 450, 0, []
1629648179.7951, 13, 0, 4149.744, 4120, 4035.385, 4064.103, 4106.154, 450, 0, []
1629648179.803, 14, 0, 4155.897, 4124.615, 4044.615, 4069.744, 4112.821, 450, 0, []
1629648179.8107, 15, 0, 4187.692, 4141.538, 4089.744, 4106.154, 4156.41, 16196, 0, []
1629648179.8186, 16, 0, 4210.769, 4155.897, 4094.359, 4130.256, 4180.513, 0, 0, []
1629648179.8264, 17, 0, 4202.564, 4167.179, 4094.359, 4129.744, 4165.128, 0, 0, []
1629648179.8343, 18, 0, 4185.641, 4168.205, 4103.59, 4123.59, 4149.744, 0, 0, []
1629648179.8421, 19, 0, 4171.795, 4149.744, 4085.128, 4112.308, 4138.974, 0, 0, []
1629648179.8499, 20, 0, 4158.974, 4135.897, 4066.667, 4101.026, 4118.974, 0, 0, []
1629648179.8577, 21, 0, 4163.077, 4141.026, 4067.179, 4106.154, 4121.538, 0, 0, []
1629648179.8656, 22, 0, 4167.179, 4145.128, 4085.128, 4112.821, 4130.256, 0, 0, []
1629648179.8734, 23, 0, 4155.385, 4143.077, 4086.154, 4102.051, 4115.385, 0, 0, []
1629648179.8814, 24, 0, 4156.923, 4139.487, 4070.256, 4095.385, 4110.769, 0, 0, []
1629648179.8892, 25, 0, 4156.41, 4132.308, 4063.077, 4090.769, 4110.256, 0, 0, []
1629648179.8972, 26, 0, 4146.154, 4128.205, 4055.385, 4087.692, 4100.513, 0, 0, []
1629648179.9051, 27, 0, 4156.923, 4146.667, 4077.436, 4106.154, 4116.41, 0, 0, []
1629648179.9131, 28, 0, 4179.487, 4161.026, 4102.051, 4126.154, 4138.462, 0, 0, []
1629648179.921, 29, 0, 4171.282, 4150.769, 4088.718, 4111.795, 4123.59, 0, 0, []
1629648179.9289, 30, 0, 4160.513, 4157.949, 4089.231, 4099.487, 4110.769, 0, 0, []
1629648179.9368, 31, 0, 4176.41, 4181.538, 4101.538, 4124.615, 4131.282, 0, 0, []
1629648179.9448, 32, 0, 4175.385, 4166.154, 4090.256, 4125.128, 4126.154, 0, 0, []
1629648179.9527, 33, 0, 4154.872, 4142.564, 4067.692, 4093.846, 4102.051, 0, 0, []
1629648179.9605, 34, 0, 4152.821, 4150.769, 4053.846, 4085.128, 4103.59, 0, 0, []
1629648179.9683, 35, 0, 4148.205, 4151.282, 4045.641, 4075.897, 4101.538, 0, 0, []
1629648179.9761, 36, 0, 4142.051, 4145.641, 4031.282, 4067.179, 4093.333, 0, 0, []
1629648179.984, 37, 0, 4161.538, 4159.487, 4050.256, 4093.333, 4109.231, 0, 0, []
1629648179.9918, 38, 0, 4176.41, 4174.359, 4071.282, 4114.359, 4123.59, 0, 0, []
1629648179.9997, 39, 0, 4167.179, 4170.769, 4054.872, 4102.051, 4114.359, 0, 0, []
1629648180.0074, 40, 0, 4162.564, 4162.564, 4056.41, 4096.923, 4105.128, 0, 0, []
1629648180.0153, 41, 0, 4159.487, 4152.308, 4049.744, 4092.821, 4101.026, 0, 0, []
1629648180.0231, 42, 0, 4163.59, 4149.744, 4045.128, 4090.256, 4108.718, 0, 0, []
1629648180.0311, 43, 0, 4194.872, 4176.923, 4075.385, 4122.051, 4135.897, 0, 0, []
1629648180.039, 44, 0, 4183.59, 4169.231, 4057.436, 4118.462, 4116.923, 0, 0, []
1629648180.0469, 45, 0, 4145.641, 4132.308, 4030.256, 4072.821, 4077.949, 0, 0, []
1629648180.0548, 46, 0, 4190.256, 4149.744, 4065.641, 4097.949, 4117.436, 0, 0, []
1629648180.0628, 47, 0, 4234.872, 4181.026, 4091.795, 4145.128, 4156.923, 0, 0, []
1629648180.0707, 48, 0, 4189.231, 4160, 4051.795, 4109.231, 4112.308, 0, 0, []
1629648180.0787, 49, 0, 4161.538, 4140, 4023.077, 4072.821, 4088.205, 0, 0, []
1629648180.0865, 50, 0, 4198.974, 4163.077, 4065.641, 4100.513, 4127.179, 0, 0, []
1629648180.0945, 51, 0, 4210.256, 4181.026, 4076.923, 4117.949, 4138.974, 0, 0, []
1629648180.1024, 52, 0, 4203.077, 4172.821, 4056.923, 4116.41, 4129.231, 0, 0, []
1629648180.1102, 53, 0, 4214.872, 4160, 4071.282, 4124.103, 4139.487, 0, 0, []
1629648180.1181, 54, 0, 4216.41, 4166.667, 4072.308, 4124.103, 4144.615, 0, 0, []
1629648180.1258, 55, 0, 4219.487, 4183.59, 4070.769, 4123.59, 4145.641, 0, 0, []
1629648180.1337, 56, 0, 4226.154, 4180, 4075.897, 4121.026, 4146.154, 0, 0, []
1629648180.1415, 57, 0, 4198.974, 4168.718, 4053.333, 4099.487, 4117.436, 0, 0, []
1629648180.1494, 58, 0, 4159.487, 4167.179, 4023.59, 4075.897, 4078.974, 0, 0, []
1629648180.1572, 59, 0, 4181.538, 4171.795, 4032.308, 4090.769, 4102.051, 0, 0, []
1629648180.165, 60, 0, 4215.385, 4163.59, 4062.564, 4115.385, 4137.949, 0, 0, []
1629648180.1728, 61, 0, 4192.821, 4156.41, 4050.256, 4102.564, 4116.41, 0, 0, []
1629648180.1807, 62, 0, 4188.718, 4169.744, 4040, 4095.897, 4110.256, 0, 0, []
1629648180.1885, 63, 0, 4233.846, 4192.308, 4082.564, 4134.359, 4156.41, 0, 0, []
1629648180.1965, 64, 0, 4244.615, 4184.615, 4082.051, 4152.821, 4163.59, 450, 0, []
1629648180.2043, 65, 0, 4211.282, 4165.128, 4049.231, 4123.077, 4119.487, 450, 0, []
1629648180.2123, 66, 0, 4205.128, 4172.308, 4057.949, 4110.769, 4112.821, 16189, 0, []
1629648180.2202, 67, 0, 4212.821, 4175.897, 4067.179, 4116.41, 4125.641, 450, 0, []
1629648180.2282, 68, 0, 4195.897, 4163.59, 4060, 4104.615, 4108.718, 16169, 0, []
1629648180.2361, 69, 0, 4186.667, 4158.462, 4051.282, 4103.59, 4101.026, 450, 0, []
1629648180.2441, 70, 0, 4189.744, 4160.513, 4055.897, 4104.103, 4109.231, 16082, 0, []
1629648180.2519, 71, 0, 4192.821, 4163.077, 4065.641, 4104.615, 4114.872, 450, 0, []
1629648180.2599, 72, 0, 4212.308, 4168.205, 4070.256, 4133.333, 4130.256, 450, 0, []
1629648180.2678, 73, 0, 4228.205, 4170.256, 4078.974, 4149.231, 4140.513, 16155, 0, []
1629648180.2756, 74, 0, 4218.974, 4168.718, 4068.205, 4126.154, 4129.231, 450, 0, []
1629648180.2835, 75, 0, 4211.282, 4171.795, 4066.154, 4111.795, 4122.051, 16197, 0, []
1629648180.2912, 76, 0, 4234.359, 4180, 4091.795, 4130.256, 4143.59, 450, 0, []
1629648180.2991, 77, 0, 4244.103, 4178.462, 4085.128, 4132.821, 4152.821, 450, 0, []
1629648180.3069, 78, 0, 4205.641, 4157.949, 4065.641, 4101.026, 4114.872, 450, 0, []
1629648180.3148, 79, 0, 4194.872, 4155.897, 4077.436, 4091.795, 4105.641, 16197, 0, []
1629648180.3226, 80, 0, 4232.308, 4177.949, 4110.769, 4118.974, 4146.667, 450, 0, []
1629648180.3304, 81, 0, 4243.59, 4182.564, 4120, 4132.821, 4154.872, 450, 0, []
1629648180.3382, 82, 0, 4205.128, 4151.795, 4072.308, 4100, 4111.795, 450, 0, []
1629648180.3461, 83, 0, 4183.59, 4125.128, 4046.667, 4065.641, 4095.897, 16197, 0, []
1629648180.3539, 84, 0, 4210.256, 4143.077, 4074.872, 4085.641, 4129.744, 450, 0, []
1629648180.3619, 85, 0, 4237.436, 4180, 4110.769, 4127.179, 4152.308, 450, 0, []
1629648180.3697, 86, 0, 4240, 4191.795, 4111.795, 4135.897, 4146.154, 450, 0, []
1629648180.3777, 87, 0, 4215.385, 4168.205, 4063.59, 4108.205, 4127.179, 16197, 0, []
1629648180.3856, 88, 0, 4191.795, 4145.641, 4057.436, 4088.205, 4117.949, 450, 0, []
1629648180.3936, 89, 0, 4205.641, 4162.051, 4095.897, 4107.692, 4141.026, 450, 0, []
1629648180.4015, 90, 0, 4240, 4193.846, 4113.846, 4149.231, 4177.949, 450, 0, []
1629648180.4094, 91, 0, 4238.974, 4179.487, 4107.692, 4155.385, 4172.821, 16197, 0, []
1629648180.4173, 92, 0, 4203.59, 4140.513, 4078.462, 4117.436, 4136.923, 450, 0, []
1629648180.4253, 93, 0, 4201.538, 4152.821, 4089.744, 4108.718, 4140, 450, 0, []
1629648180.4332, 94, 0, 4226.154, 4179.487, 4122.051, 4131.282, 4158.974, 450, 0, []
1629648180.4412, 95, 0, 4221.538, 4171.282, 4098.974, 4125.641, 4141.538, 16197, 0, []
1629648180.449, 96, 0, 4206.667, 4163.077, 4077.436, 4110.769, 4127.179, 450, 0, []
1629648180.4568, 97, 0, 4218.462, 4175.897, 4083.59, 4123.59, 4144.615, 450, 0, []
1629648180.4647, 98, 0, 4215.897, 4176.41, 4081.538, 4123.077, 4140, 450, 0, []
1629648180.4725, 99, 0, 4193.333, 4152.308, 4066.154, 4096.41, 4114.872, 16197, 0, []
1629648180.4804, 100, 0, 4216.41, 4150.256, 4078.462, 4110.769, 4138.462, 450, 0, []
1629648180.4881, 101, 0, 4238.462, 4164.615, 4110.256, 4137.436, 4162.051, 450, 0, []
1629648180.496, 102, 0, 4200.513, 4150.256, 4080, 4108.718, 4125.128, 450, 0, []
1629648180.5038, 103, 0, 4182.051, 4135.897, 4054.359, 4088.718, 4110.769, 16197, 0, []
1629648180.5117, 104, 0, 4202.564, 4150.769, 4068.718, 4107.692, 4135.897, 450, 0, []
1629648180.5195, 105, 0, 4197.436, 4164.615, 4062.564, 4104.103, 4127.179, 450, 0, []
1629648180.5274, 106, 0, 4189.231, 4164.103, 4064.615, 4094.872, 4112.308, 450, 0, []
1629648180.5353, 107, 0, 4201.538, 4161.026, 4063.59, 4102.051, 4125.128, 16197, 0, []
1629648180.5433, 108, 0, 4201.538, 4153.333, 4063.59, 4102.051, 4130.256, 450, 0, []
1629648180.5512, 109, 0, 4198.462, 4154.359, 4081.538, 4105.128, 4127.179, 450, 0, []
1629648180.5592, 110, 0, 4207.692, 4158.974, 4079.487, 4115.897, 4136.923, 450, 0, []
1629648180.567, 111, 0, 4200, 4148.718, 4063.59, 4100.513, 4130.256, 16197, 0, []
1629648180.575, 112, 0, 4189.744, 4151.282, 4052.821, 4086.154, 4115.385, 450, 0, []
1629648180.5829, 113, 0, 4189.231, 4156.41, 4055.897, 4086.667, 4112.308, 450, 0, []
1629648180.5909, 114, 0, 4173.333, 4148.205, 4049.231, 4066.667, 4100, 450, 0, []
1629648180.5988, 115, 0, 4173.333, 4147.179, 4036.41, 4063.59, 4102.051, 16197, 0, []
1629648180.6065, 116, 0, 4198.462, 4142.051, 4061.538, 4095.385, 4123.077, 450, 0, []
1629648180.6144, 117, 0, 4216.923, 4144.615, 4088.205, 4120, 4143.59, 450, 0, []
1629648180.6222, 118, 0, 4221.026, 4165.641, 4097.436, 4123.077, 4152.821, 450, 0, []
1629648180.6301, 119, 0, 4215.385, 4156.923, 4104.615, 4116.41, 4146.667, 16197, 0, []
1629648180.6379, 120, 0, 4207.692, 4131.282, 4092.821, 4101.026, 4134.872, 450, 0, []
1629648180.6457, 121, 0, 4214.359, 4149.744, 4094.872, 4096.923, 4142.051, 450, 0, []
1629648180.6535, 122, 0, 4219.487, 4169.231, 4088.205, 4102.051, 4143.077, 450, 0, []
1629648180.6614, 123, 0, 4197.949, 4146.154, 4055.897, 4080.513, 4112.821, 16197, 0, []
1629648180.6694, 124, 0, 4189.744, 4146.667, 4055.897, 4072.821, 4104.615, 450, 0, []
1629648180.6774, 125, 0, 4197.949, 4164.103, 4063.59, 4090.769, 4123.59, 450, 0, []
1629648180.6852, 126, 0, 4180.513, 4136.41, 4063.077, 4080.513, 4110.256, 450, 0, []
1629648180.6932, 127, 0, 4186.667, 4118.462, 4081.026, 4078.974, 4113.846, 16197, 0, []
1629648180.7011, 128, 0, 4245.641, 4141.538, 4118.462, 4129.744, 4177.949, 450, 0, []
1629648180.7091, 0, 0, 4276.41, 4160, 4137.949, 4153.846, 4209.231, 450, 0, []
1629648180.717, 1, 0, 4258.462, 4161.538, 4111.795, 4129.231, 4181.026, 450, 0, []
1629648180.7249, 2, 0, 4247.179, 4165.641, 4098.462, 4122.564, 4166.154, 16189, 0, []
1629648180.7328, 3, 0, 4250.769, 4174.872, 4094.359, 4124.615, 4179.487, 450, 0, []
1629648180.7408, 4, 0, 4263.59, 4178.974, 4079.487, 4115.385, 4192.821, 16169, 0, []
1629648180.7487, 5, 0, 4278.974, 4185.641, 4095.897, 4115.385, 4199.487, 450, 0, []
1629648180.7565, 6, 0, 4283.59, 4192.308, 4111.282, 4128.205, 4210.769, 16087, 0, []
1629648180.7643, 7, 0, 4285.641, 4191.795, 4120, 4147.692, 4222.564, 450, 0, []
1629648180.7721, 8, 0, 4273.846, 4164.103, 4112.308, 4141.538, 4206.667, 450, 0, []
1629648180.78, 9, 0, 4242.051, 4129.744, 4077.436, 4100, 4167.179, 16155, 0, []
1629648180.7878, 10, 0, 4253.846, 4149.231, 4097.949, 4106.667, 4176.41, 450, 0, []
1629648180.7957, 11, 0, 4298.974, 4201.538, 4138.974, 4160, 4225.128, 16198, 0, []
1629648180.8034, 12, 0, 4273.846, 4204.615, 4116.41, 4144.103, 4203.077, 450, 0, []
1629648180.8113, 13, 0, 4216.923, 4167.692, 4066.154, 4088.205, 4142.051, 450, 0, []
1629648180.8191, 14, 0, 4242.051, 4166.667, 4070.256, 4101.538, 4158.974, 450, 0, []
1629648180.8271, 15, 0, 4291.282, 4187.179, 4120.513, 4141.538, 4204.615, 16198, 0, []
1629648180.835, 16, 0, 4279.487, 4176.41, 4120.513, 4140, 4196.923, 0, 0, []
1629648180.8429, 17, 0, 4252.821, 4158.462, 4100, 4128.718, 4175.385, 0, 0, []
1629648180.8508, 18, 0, 4235.897, 4150.769, 4094.872, 4111.795, 4164.615, 0, 0, []
1629648180.8588, 19, 0, 4226.154, 4149.231, 4086.667, 4094.359, 4156.41, 0, 0, []
1629648180.8667, 20, 0, 4236.923, 4166.154, 4104.615, 4105.128, 4164.615, 0, 0, []
1629648180.8747, 21, 0, 4265.128, 4190.256, 4123.59, 4134.872, 4193.333, 0, 0, []
1629648180.8825, 22, 0, 4278.462, 4190.769, 4121.026, 4147.179, 4203.59, 0, 0, []
1629648180.8905, 23, 0, 4260.513, 4178.462, 4107.179, 4128.718, 4177.436, 0, 0, []
1629648180.8984, 24, 0, 4253.333, 4186.667, 4099.487, 4122.051, 4169.231, 0, 0, []
1629648180.9062, 25, 0, 4273.333, 4205.641, 4134.872, 4147.692, 4198.974, 0, 0, []
1629648180.9141, 26, 0, 4263.077, 4189.744, 4132.308, 4145.641, 4189.744, 0, 0, []
1629648180.9218, 27, 0, 4212.821, 4155.897, 4079.487, 4092.308, 4132.821, 0, 0, []
1629648180.9297, 28, 0, 4216.41, 4164.615, 4089.744, 4084.615, 4133.846, 0, 0, []
1629648180.9375, 29, 0, 4268.718, 4194.359, 4130.769, 4140.513, 4191.282, 0, 0, []
1629648180.9454, 30, 0, 4265.641, 4187.179, 4129.231, 4146.667, 4194.359, 0, 0, []
1629648180.9532, 31, 0, 4232.821, 4167.179, 4106.667, 4106.667, 4158.462, 0, 0, []
1629648180.961, 32, 0, 4247.692, 4171.282, 4117.949, 4111.795, 4165.128, 0, 0, []
1629648180.9688, 33, 0, 4277.949, 4180.513, 4148.205, 4140.513, 4194.359, 0, 0, []
1629648180.9767, 34, 0, 4276.923, 4186.667, 4129.231, 4138.462, 4195.385, 0, 0, []
1629648180.9845, 35, 0, 4270.769, 4194.872, 4117.436, 4131.282, 4187.179, 0, 0, []
1629648180.9925, 36, 0, 4272.821, 4194.872, 4133.846, 4132.308, 4192.308, 0, 0, []
1629648181.0004, 37, 0, 4270.769, 4186.154, 4137.949, 4132.308, 4195.385, 0, 0, []
1629648181.0083, 38, 0, 4263.59, 4167.692, 4130.256, 4129.231, 4182.051, 0, 0, []
1629648181.0162, 39, 0, 4258.462, 4155.385, 4113.846, 4120, 4171.282, 0, 0, []
1629648181.0242, 40, 0, 4264.615, 4171.282, 4127.179, 4125.641, 4182.051, 0, 0, []
1629648181.0321, 41, 0, 4273.846, 4192.308, 4147.692, 4144.615, 4193.333, 0, 0, []
1629648181.0401, 42, 0, 4251.795, 4178.462, 4110.256, 4121.026, 4167.692, 0, 0, []
1629648181.0479, 43, 0, 4230.256, 4161.026, 4083.077, 4090.256, 4145.641, 0, 0, []
1629648181.0557, 44, 0, 4261.538, 4179.487, 4105.128, 4121.026, 4184.103, 0, 0, []
1629648181.0636, 45, 0, 4283.077, 4191.282, 4121.026, 4143.59, 4208.718, 0, 0, []
1629648181.0714, 46, 0, 4264.103, 4185.128, 4109.231, 4129.231, 4188.718, 0, 0, []
1629648181.0793, 47, 0, 4262.051, 4182.051, 4102.051, 4131.282, 4183.077, 0, 0, []
1629648181.087, 48, 0, 4274.872, 4183.077, 4115.897, 4141.026, 4190.769, 0, 0, []
1629648181.0949, 49, 0, 4277.436, 4189.231, 4111.282, 4141.538, 4190.769, 0, 0, []
1629648181.1027, 50, 0, 4267.692, 4183.59, 4106.667, 4137.949, 4181.538, 0, 0, []
1629648181.1106, 51, 0, 4266.667, 4178.462, 4123.59, 4135.385, 4183.077, 0, 0, []
1629648181.1184, 52, 0, 4267.179, 4183.59, 4107.692, 4131.282, 4191.282, 0, 0, []
1629648181.1262, 53, 0, 4235.897, 4167.692, 4080, 4115.897, 4170.256, 0, 0, []
1629648181.134, 54, 0, 4210.769, 4155.385, 4078.462, 4109.744, 4143.077, 0, 0, []
1629648181.142, 55, 0, 4231.282, 4187.179, 4108.718, 4137.949, 4157.436, 0, 0, []
1629648181.1499, 56, 0, 4244.615, 4207.692, 4121.538, 4152.308, 4173.333, 0, 0, []
1629648181.1579, 57, 0, 4235.897, 4187.692, 4096.923, 4136.923, 4162.564, 0, 0, []
1629648181.1657, 58, 0, 4240.513, 4180.513, 4104.103, 4135.385, 4165.641, 0, 0, []
1629648181.1737, 59, 0, 4245.641, 4186.154, 4115.385, 4138.462, 4175.897, 0, 0, []
1629648181.1816, 60, 0, 4240, 4188.718, 4120.513, 4145.128, 4176.41, 0, 0, []
1629648181.1896, 61, 0, 4233.846, 4186.667, 4121.538, 4153.846, 4168.718, 0, 0, []
1629648181.1975, 62, 0, 4217.949, 4184.615, 4092.308, 4133.333, 4147.179, 0, 0, []
1629648181.2054, 63, 0, 4215.897, 4194.359, 4093.846, 4120.513, 4142.564, 0, 0, []
1629648181.2133, 64, 0, 4233.333, 4196.41, 4109.231, 4139.487, 4164.615, 450, 0, []
1629648181.2211, 65, 0, 4246.154, 4192.308, 4111.795, 4144.615, 4179.487, 450, 0, []
1629648181.229, 66, 0, 4262.564, 4202.051, 4132.308, 4147.692, 4195.385, 16187, 0, []
1629648181.2368, 67, 0, 4266.154, 4198.462, 4121.026, 4148.718, 4196.923, 450, 0, []
1629648181.2446, 68, 0, 4231.795, 4176.923, 4090.769, 4116.41, 4153.846, 16200, 0, []
1629648181.2524, 69, 0, 4218.462, 4186.154, 4093.846, 4109.744, 4132.821, 450, 0, []
1629648181.2603, 70, 0, 4222.051, 4181.026, 4089.744, 4117.436, 4141.026, 16080, 0, []
1629648181.2681, 71, 0, 4211.795, 4158.974, 4071.795, 4096.41, 4127.692, 450, 0, []
1629648181.276, 72, 0, 4238.974, 4193.846, 4086.667, 4111.282, 4148.205, 450, 0, []
1629648181.2837, 73, 0, 4276.923, 4218.974, 4121.538, 4146.154, 4196.923, 16155, 0, []
1629648181.2917, 74, 0, 4278.974, 4195.897, 4124.615, 4142.564, 4205.128, 450, 0, []
1629648181.2996, 75, 0, 4278.462, 4193.333, 4122.564, 4149.231, 4198.462, 16198, 0, []
1629648181.3076, 76, 0, 4279.487, 4205.128, 4140.513, 4166.154, 4202.564, 450, 0, []
1629648181.3155, 77, 0, 4260, 4194.872, 4116.923, 4144.615, 4187.179, 450, 0, []
1629648181.3234, 78, 0, 4257.436, 4203.59, 4101.026, 4132.821, 4176.41, 450, 0, []
1629648181.3313, 79, 0, 4268.205, 4222.051, 4113.333, 4142.564, 4183.59, 16198, 0, []
1629648181.3393, 80, 0, 4248.205, 4196.923, 4096.41, 4121.538, 4170.769, 450, 0, []
1629648181.3472, 81, 0, 4241.538, 4181.026, 4104.615, 4112.821, 4160.513, 450, 0, []
1629648181.3552, 82, 0, 4249.744, 4190.769, 4121.538, 4124.615, 4162.564, 450, 0, []
1629648181.363, 83, 0, 4234.359, 4182.051, 4109.744, 4115.897, 4151.282, 16198, 0, []
1629648181.3708, 84, 0, 4232.308, 4180.513, 4106.667, 4107.179, 4152.821, 450, 0, []
1629648181.3787, 85, 0, 4266.667, 4205.641, 4121.538, 4128.205, 4187.179, 450, 0, []
1629648181.3865, 86, 0, 4267.179, 4201.538, 4118.974, 4128.718, 4192.308, 450, 0, []
1629648181.3944, 87, 0, 4215.385, 4162.051, 4070.256, 4078.974, 4142.051, 16198, 0, []
1629648181.4021, 88, 0, 4209.744, 4167.179, 4069.744, 4068.205, 4126.154, 450, 0, []
1629648181.41, 89, 0, 4268.718, 4210.256, 4139.487, 4138.974, 4185.128, 450, 0, []
1629648181.4178, 90, 0, 4288.718, 4213.846, 4155.385, 4169.744, 4216.41, 450, 0, []
1629648181.4257, 91, 0, 4244.615, 4179.487, 4119.487, 4114.359, 4173.333, 16198, 0, []
1629648181.4335, 92, 0, 4244.615, 4181.538, 4124.103, 4114.359, 4173.333, 450, 0, []
1629648181.4414, 93, 0, 4285.641, 4206.667, 4152.821, 4167.692, 4213.846, 450, 0, []
1629648181.4493, 94, 0, 4256.923, 4182.564, 4118.974, 4127.179, 4176.41, 450, 0, []
1629648181.4573, 95, 0, 4218.974, 4165.641, 4077.949, 4065.641, 4134.359, 16198, 0, []
1629648181.4652, 96, 0, 4236.923, 4188.205, 4111.795, 4090.769, 4158.974, 450, 0, []
1629648181.4732, 97, 0, 4241.026, 4188.205, 4127.179, 4111.282, 4165.128, 450, 0, []
1629648181.481, 98, 0, 4227.179, 4170.256, 4118.974, 4108.718, 4153.333, 450, 0, []
1629648181.489, 99, 0, 4244.615, 4182.051, 4149.231, 4144.103, 4175.385, 16198, 0, []
1629648181.4969, 100, 0, 4263.59, 4195.385, 4147.692, 4166.667, 4191.282, 450, 0, []
1629648181.5049, 101, 0, 4246.154, 4181.026, 4128.205, 4137.949, 4175.385, 450, 0, []
1629648181.5128, 102, 0, 4228.205, 4174.872, 4130.769, 4114.359, 4164.103, 450, 0, []
1629648181.5205, 103, 0, 4247.692, 4193.333, 4140.513, 4128.718, 4179.487, 16198, 0, []
1629648181.5284, 104, 0, 4271.795, 4213.846, 4151.282, 4141.026, 4199.487, 450, 0, []
1629648181.5362, 105, 0, 4263.077, 4208.205, 4132.821, 4129.231, 4189.231, 450, 0, []
1629648181.5441, 106, 0, 4248.718, 4192.821, 4115.897, 4120.513, 4167.179, 450, 0, []
1629648181.5519, 107, 0, 4253.846, 4194.872, 4123.59, 4132.308, 4173.846, 16198, 0, []
1629648181.5597, 108, 0, 4270.256, 4205.641, 4137.949, 4157.949, 4205.641, 450, 0, []
1629648181.5675, 109, 0, 4278.974, 4213.333, 4152.821, 4169.744, 4219.487, 450, 0, []
1629648181.5754, 110, 0, 4260, 4206.667, 4134.359, 4148.718, 4196.923, 450, 0, []
1629648181.5832, 111, 0, 4252.821, 4209.231, 4135.385, 4139.487, 4188.718, 16198, 0, []
1629648181.5912, 112, 0, 4279.487, 4224.615, 4154.872, 4155.897, 4216.41, 450, 0, []
1629648181.599, 113, 0, 4277.436, 4212.308, 4121.538, 4138.974, 4211.795, 450, 0, []
1629648181.607, 114, 0, 4263.077, 4197.436, 4109.744, 4123.59, 4191.795, 450, 0, []
1629648181.6149, 115, 0, 4297.949, 4224.615, 4152.821, 4167.692, 4225.641, 16198, 0, []
1629648181.6229, 116, 0, 4329.231, 4249.744, 4182.051, 4198.974, 4256.923, 450, 0, []
1629648181.6308, 117, 0, 4312.308, 4234.359, 4165.128, 4179.487, 4238.462, 450, 0, []
1629648181.6387, 118, 0, 4290.769, 4217.436, 4136.923, 4167.179, 4220.513, 450, 0, []
1629648181.6466, 119, 0, 4288.205, 4215.385, 4136.41, 4172.821, 4225.128, 16198, 0, []
1629648181.6545, 120, 0, 4300, 4220, 4133.846, 4167.179, 4233.333, 450, 0, []
1629648181.6624, 121, 0, 4314.872, 4231.282, 4135.385, 4154.359, 4236.923, 450, 0, []
1629648181.6702, 122, 0, 4310.256, 4229.744, 4142.051, 4138.974, 4228.718, 450, 0, []
1629648181.6781, 123, 0, 4306.667, 4218.462, 4134.359, 4134.872, 4228.205, 16198, 0, []
1629648181.686, 124, 0, 4324.103, 4216.923, 4144.103, 4165.128, 4253.846, 450, 0, []
1629648181.6939, 125, 0, 4329.231, 4213.333, 4145.128, 4187.179, 4267.179, 450, 0, []
1629648181.7017, 126, 0, 4313.846, 4211.795, 4135.385, 4172.308, 4253.846, 450, 0, []
1629648181.7096, 127, 0, 4310.769, 4220, 4140, 4155.897, 4248.205, 16198, 0, []
1629648181.7174, 128, 0, 4312.308, 4222.564, 4129.231, 4144.615, 4244.103, 450, 0, []
1629648181.7252, 0, 0, 4308.718, 4222.564, 4134.872, 4146.667, 4236.41, 450, 0, []
1629648181.733, 1, 0, 4324.615, 4229.231, 4156.41, 4176.41, 4251.282, 450, 0, []
1629648181.7409, 2, 0, 4327.692, 4215.897, 4150.256, 4177.436, 4257.436, 16185, 0, []
1629648181.7487, 3, 0, 4304.615, 4200, 4142.564, 4149.231, 4240, 450, 0, []
1629648181.7567, 4, 0, 4313.333, 4216.923, 4156.923, 4172.308, 4257.949, 16173, 0, []
1629648181.7645, 5, 0, 4328.205, 4233.333, 4174.359, 4203.077, 4277.949, 450, 0, []
1629648181.7725, 6, 0, 4294.359, 4222.051, 4142.051, 4158.974, 4240, 16077, 0, []
1629648181.7804, 7, 0, 4273.333, 4207.692, 4112.308, 4122.564, 4211.795, 450, 0, []
1629648181.7884, 8, 0, 4300.513, 4217.436, 4143.077, 4154.359, 4236.41, 450, 0, []
1629648181.7963, 9, 0, 4323.077, 4241.538, 4157.949, 4176.41, 4256.923, 16150, 0, []
1629648181.8042, 10, 0, 4317.949, 4237.949, 4150.256, 4158.974, 4249.744, 450, 0, []
1629648181.8121, 11, 0, 4303.077, 4208.205, 4142.564, 4142.564, 4241.538, 16198, 0, []
1629648181.8201, 12, 0, 4285.128, 4194.872, 4122.564, 4140, 4228.205, 450, 0, []
1629648181.828, 13, 0, 4276.923, 4203.59, 4122.051, 4144.103, 4212.308, 450, 0, []
1629648181.8358, 14, 0, 4281.026, 4212.308, 4129.744, 4146.154, 4217.949, 450, 0, []
1629648181.8436, 15, 0, 4280.513, 4214.359, 4135.385, 4145.641, 4227.692, 16198, 0, []
1629648181.8514, 16, 0, 4286.154, 4214.872, 4143.59, 4157.436, 4229.231, 0, 0, []
1629648181.8593, 17, 0, 4291.795, 4208.205, 4136.41, 4160.513, 4224.103, 0, 0, []
1629648181.8671, 18, 0, 4269.744, 4198.462, 4123.59, 4138.462, 4205.641, 0, 0, []
1629648181.875, 19, 0, 4264.103, 4208.205, 4120, 4143.59, 4204.615, 0, 0, []
1629648181.8827, 20, 0, 4275.897, 4217.436, 4128.205, 4160, 4211.795, 0, 0, []
1629648181.8907, 21, 0, 4270.256, 4216.41, 4131.795, 4151.795, 4201.026, 0, 0, []
1629648181.8986, 22, 0, 4268.718, 4224.103, 4129.231, 4157.436, 4208.205, 0, 0, []
1629648181.9066, 23, 0, 4274.359, 4221.026, 4131.282, 4168.205, 4226.154, 0, 0, []
1629648181.9145, 24, 0, 4283.077, 4206.154, 4121.538, 4172.308, 4232.821, 0, 0, []
1629648181.9224, 25, 0, 4302.564, 4218.462, 4130.769, 4189.744, 4242.564, 0, 0, []
1629648181.9303, 26, 0, 4304.103, 4230.256, 4144.103, 4189.744, 4246.667, 0, 0, []
1629648181.9383, 27, 0, 4291.282, 4217.436, 4128.718, 4170.256, 4238.462, 0, 0, []
1629648181.9462, 28, 0, 4284.103, 4224.615, 4133.846, 4169.744, 4226.667, 0, 0, []
1629648181.9542, 29, 0, 4271.282, 4236.923, 4127.179, 4168.205, 4207.179, 0, 0, []
1629648181.962, 30, 0, 4266.667, 4226.154, 4104.615, 4157.949, 4199.487, 0, 0, []
1629648181.97, 31, 0, 4278.462, 4213.846, 4107.179, 4158.462, 4214.359, 0, 0, []
1629648181.9779, 32, 0, 4258.462, 4197.949, 4096.923, 4147.692, 4207.179, 0, 0, []
1629648181.9857, 33, 0, 4236.923, 4184.615, 4100, 4130.256, 4186.154, 0, 0, []
1629648181.9936, 34, 0, 4266.667, 4195.385, 4118.974, 4136.923, 4206.667, 0, 0, []
1629648182.0013, 35, 0, 4299.487, 4211.795, 4125.641, 4161.026, 4242.564, 0, 0, []
1629648182.0092, 36, 0, 4307.692, 4218.462, 4133.333, 4187.692, 4254.872, 0, 0, []
1629648182.017, 37, 0, 4301.538, 4215.897, 4124.103, 4190.256, 4243.59, 0, 0, []
1629648182.0249, 38, 0, 4271.795, 4198.462, 4094.359, 4155.897, 4211.282, 0, 0, []
1629648182.0327, 39, 0, 4248.205, 4196.41, 4065.641, 4135.385, 4192.308, 0, 0, []
1629648182.0405, 40, 0, 4271.795, 4218.462, 4075.385, 4152.308, 4217.436, 0, 0, []
1629648182.0483, 41, 0, 4293.333, 4218.462, 4098.974, 4162.051, 4238.462, 0, 0, []
1629648182.0563, 42, 0, 4275.385, 4204.103, 4081.026, 4153.846, 4223.59, 0, 0, []
1629648182.0642, 43, 0, 4262.051, 4202.051, 4085.128, 4153.846, 4220, 0, 0, []
1629648182.0722, 44, 0, 4244.103, 4186.667, 4082.051, 4127.179, 4206.667, 0, 0, []
1629648182.08, 45, 0, 4228.718, 4176.41, 4067.179, 4103.077, 4185.641, 0, 0, []
1629648182.088, 46, 0, 4274.872, 4220, 4131.282, 4166.154, 4233.846, 0, 0, []
1629648182.0959, 47, 0, 4320, 4257.436, 4169.744, 4225.641, 4280, 0, 0, []
1629648182.1039, 48, 0, 4279.487, 4227.692, 4115.385, 4174.872, 4227.692, 0, 0, []
1629648182.1118, 49, 0, 4258.974, 4216.41, 4089.744, 4145.641, 4196.41, 0, 0, []
1629648182.1197, 50, 0, 4310.256, 4255.385, 4122.564, 4199.487, 4248.205, 0, 0, []
1629648182.1276, 51, 0, 4313.846, 4251.795, 4127.692, 4189.744, 4251.795, 0, 0, []
1629648182.1354, 52, 0, 4278.974, 4212.308, 4101.538, 4140, 4214.359, 0, 0, []
1629648182.1433, 53, 0, 4281.538, 4218.462, 4106.154, 4155.897, 4217.949, 0, 0, []
1629648182.1511, 54, 0, 4291.282, 4247.692, 4110.769, 4172.308, 4227.179, 0, 0, []
1629648182.1589, 55, 0, 4286.154, 4247.692, 4098.462, 4156.41, 4221.538, 0, 0, []
1629648182.1667, 56, 0, 4260.513, 4215.897, 4093.333, 4142.051, 4197.436, 0, 0, []
1629648182.1746, 57, 0, 4224.615, 4187.179, 4066.667, 4117.436, 4164.103, 0, 0, []
1629648182.1824, 58, 0, 4242.051, 4209.744, 4077.949, 4124.103, 4180.513, 0, 0, []
1629648182.1903, 59, 0, 4294.872, 4249.231, 4130.769, 4175.897, 4236.923, 0, 0, []
1629648182.198, 60, 0, 4295.385, 4242.564, 4129.231, 4190.256, 4245.128, 0, 0, []
1629648182.206, 61, 0, 4272.821, 4227.179, 4114.359, 4163.59, 4222.051, 0, 0, []
1629648182.2139, 62, 0, 4273.333, 4227.179, 4105.128, 4157.436, 4215.897, 0, 0, []
1629648182.2219, 63, 0, 4268.718, 4217.949, 4094.359, 4154.359, 4204.615, 0, 0, []
1629648182.2298, 64, 0, 4274.872, 4223.077, 4112.821, 4152.308, 4214.359, 450, 0, []
1629648182.2377, 65, 0, 4296.923, 4240, 4124.103, 4162.564, 4241.538, 450, 0, []
1629648182.2456, 66, 0, 4280.513, 4222.051, 4109.231, 4147.692, 4221.026, 16185, 0, []
1629648182.2536, 67, 0, 4260.513, 4205.641, 4103.59, 4140, 4203.077, 450, 0, []
1629648182.2615, 68, 0, 4277.436, 4217.949, 4121.538, 4165.641, 4227.179, 16173, 0, []
1629648182.2695, 69, 0, 4276.41, 4218.462, 4116.41, 4160, 4220.513, 450, 0, []
1629648182.2773, 70, 0, 4270.769, 4220.513, 4093.333, 4131.282, 4205.641, 16081, 0, []
1629648182.2852, 71, 0, 4286.667, 4236.41, 4115.385, 4137.436, 4226.154, 450, 0, []
1629648182.2931, 72, 0, 4278.462, 4229.744, 4124.615, 4147.179, 4216.923, 450, 0, []
1629648182.3009, 73, 0, 4263.59, 4215.897, 4114.359, 4133.846, 4198.974, 16151, 0, []
1629648182.3088, 74, 0, 4273.846, 4213.333, 4126.667, 4143.59, 4228.205, 450, 0, []
1629648182.3165, 75, 0, 4250.769, 4196.41, 4102.051, 4146.154, 4225.641, 16198, 0, []
1629648182.3244, 76, 0, 4197.949, 4178.974, 4076.41, 4115.385, 4174.359, 450, 0, []
1629648182.3322, 77, 0, 4210.256, 4197.949, 4100.513, 4123.077, 4180.513, 450, 0, []
1629648182.3401, 78, 0, 4244.615, 4218.462, 4118.974, 4159.487, 4218.462, 450, 0, []
1629648182.3479, 79, 0, 4227.692, 4204.615, 4114.872, 4158.974, 4206.667, 16198, 0, []
1629648182.3557, 80, 0, 4218.974, 4193.846, 4112.821, 4149.231, 4194.872, 450, 0, []
1629648182.3635, 81, 0, 4232.821, 4204.103, 4128.718, 4157.436, 4207.692, 450, 0, []
1629648182.3714, 82, 0, 4222.051, 4211.282, 4123.59, 4152.308, 4197.436, 450, 0, []
1629648182.3792, 83, 0, 4190.769, 4196.41, 4092.308, 4127.692, 4166.667, 16198, 0, []
1629648182.3872, 84, 0, 4187.179, 4191.282, 4096.923, 4116.923, 4166.154, 450, 0, []
1629648182.395, 85, 0, 4218.462, 4217.436, 4118.462, 4138.462, 4196.923, 450, 0, []
1629648182.403, 86, 0, 4213.846, 4211.795, 4112.308, 4134.359, 4186.667, 450, 0, []
1629648182.4109, 87, 0, 4190.769, 4200.513, 4101.026, 4106.667, 4162.051, 16198, 0, []
1629648182.4189, 88, 0, 4236.41, 4241.538, 4133.846, 4144.103, 4210.256, 450, 0, []
1629648182.4268, 89, 0, 4283.59, 4259.487, 4163.077, 4186.667, 4255.897, 450, 0, []
1629648182.4347, 90, 0, 4234.359, 4209.744, 4098.974, 4133.333, 4202.564, 450, 0, []
1629648182.4426, 91, 0, 4197.949, 4201.538, 4071.282, 4103.077, 4165.641, 16198, 0, []
1629648182.4506, 92, 0, 4243.077, 4243.59, 4129.231, 4164.103, 4211.795, 450, 0, []
1629648182.4585, 93, 0, 4249.744, 4233.333, 4127.179, 4174.359, 4217.949, 450, 0, []
1629648182.4663, 94, 0, 4226.154, 4204.615, 4103.59, 4143.59, 4194.359, 450, 0, []
1629648182.4742, 95, 0, 4251.282, 4220, 4125.641, 4167.692, 4225.641, 16198, 0, []
1629648182.4819, 96, 0, 4272.821, 4246.154, 4136.41, 4187.692, 4241.538, 450, 0, []
1629648182.4898, 97, 0, 4257.436, 4249.744, 4117.949, 4164.615, 4215.385, 450, 0, []
1629648182.4976, 98, 0, 4254.359, 4240, 4112.308, 4156.41, 4217.949, 450, 0, []
1629648182.5055, 99, 0, 4250.769, 4228.205, 4120, 4161.538, 4221.538, 16198, 0, []
1629648182.5133, 100, 0, 4228.205, 4229.231, 4098.462, 4148.205, 4195.897, 450, 0, []
1629648182.5211, 101, 0, 4240.513, 4254.872, 4109.744, 4156.923, 4208.718, 450, 0, []
1629648182.5289, 102, 0, 4271.795, 4268.205, 4151.795, 4186.154, 4238.974, 450, 0, []
1629648182.5369, 103, 0, 4264.615, 4255.897, 4131.282, 4181.538, 4228.718, 16198, 0, []
1629648182.5448, 104, 0, 4230.769, 4244.615, 4088.718, 4140, 4195.897, 450, 0, []
1629648182.5528, 105, 0, 4234.872, 4249.231, 4085.128, 4134.872, 4193.333, 450, 0, []
1629648182.5606, 106, 0, 4267.692, 4252.821, 4110.769, 4180, 4220.513, 450, 0, []
1629648182.5686, 107, 0, 4285.641, 4260, 4135.385, 4206.667, 4246.667, 16198, 0, []
1629648182.5765, 108, 0, 4308.718, 4277.949, 4131.282, 4206.154, 4273.846, 450, 0, []
1629648182.5845, 109, 0, 4323.077, 4260, 4118.974, 4184.615, 4282.564, 450, 0, []
1629648182.5924, 110, 0, 4346.154, 4235.897, 4110.769, 4158.974, 4295.385, 450, 0, []
1629648182.6001, 111, 0, 4430.256, 4270.769, 4134.359, 4180, 4370.769, 16198, 0, []
1629648182.608, 112, 0, 4519.487, 4316.923, 4180.513, 4230.256, 4450.769, 450, 0, []
1629648182.6158, 113, 0, 4527.692, 4310.769, 4168.205, 4230.256, 4451.282, 450, 0, []
1629648182.6237, 114, 0, 4500.513, 4286.154, 4141.026, 4198.462, 4420.513, 450, 0, []
1629648182.6315, 115, 0, 4486.154, 4269.744, 4131.795, 4179.487, 4401.538, 16198, 0, []
1629648182.6393, 116, 0, 4463.59, 4258.974, 4125.641, 4161.538, 4372.308, 450, 0, []
1629648182.6471, 117, 0, 4464.615, 4273.333, 4158.974, 4178.462, 4373.333, 450, 0, []
1629648182.655, 118, 0, 4475.897, 4291.795, 4180, 4212.308, 4393.846, 450, 0, []
1629648182.6629, 119, 0, 4440.513, 4281.026, 4152.308, 4200, 4366.667, 16198, 0, []
1629648182.6707, 120, 0, 4376.41, 4251.282, 4107.692, 4155.385, 4302.051, 450, 0, []
1629648182.6784, 121, 0, 4346.667, 4241.026, 4107.179, 4137.949, 4270.256, 450, 0, []
1629648182.6863, 122, 0, 4376.923, 4276.41, 4168.718, 4173.333, 4309.231, 450, 0, []
1629648182.6941, 123, 0, 4391.795, 4294.872, 4177.949, 4202.051, 4331.795, 16198, 0, []
1629648182.7021, 124, 0, 4338.462, 4251.795, 4130.256, 4167.692, 4270.769, 450, 0, []
1629648182.71, 125, 0, 4314.872, 4223.59, 4138.974, 4151.795, 4246.154, 450, 0, []
1629648182.7179, 126, 0, 4362.564, 4255.385, 4183.59, 4199.487, 4304.615, 450, 0, []
1629648182.7258, 127, 0, 4377.949, 4287.179, 4202.564, 4224.615, 4328.718, 16198, 0, []
1629648182.7338, 128, 0, 4354.872, 4275.897, 4189.231, 4204.103, 4305.641, 450, 0, []
1629648182.7417, 0, 0, 4323.077, 4233.846, 4153.846, 4162.051, 4268.205, 450, 0, []
1629648182.7497, 1, 0, 4293.333, 4226.154, 4131.795, 4133.333, 4236.923, 450, 0, []
1629648182.7575, 2, 0, 4314.872, 4263.077, 4154.872, 4171.282, 4263.077, 16187, 0, []
1629648182.7655, 3, 0, 4336.923, 4261.026, 4177.436, 4204.615, 4283.59, 450, 0, []
1629648182.7734, 4, 0, 4316.923, 4236.41, 4156.41, 4179.487, 4256.923, 16173, 0, []
1629648182.7812, 5, 0, 4316.923, 4258.462, 4155.897, 4175.385, 4258.974, 450, 0, []
1629648182.7891, 6, 0, 4329.744, 4274.359, 4166.154, 4198.974, 4275.385, 16077, 0, []
1629648182.7968, 7, 0, 4312.308, 4247.692, 4135.385, 4184.615, 4252.308, 450, 0, []
1629648182.8047, 8, 0, 4305.128, 4235.897, 4140.513, 4171.282, 4243.077, 450, 0, []
1629648182.8125, 9, 0, 4299.487, 4237.436, 4148.718, 4175.385, 4243.59, 16151, 0, []
1629648182.8204, 10, 0, 4274.872, 4222.564, 4125.128, 4165.641, 4216.41, 450, 0, []
1629648182.8282, 11, 0, 4277.949, 4218.974, 4132.821, 4166.154, 4211.282, 16198, 0, []
1629648182.836, 12, 0, 4305.641, 4243.59, 4146.667, 4184.103, 4244.103, 450, 0, []
1629648182.8438, 13, 0, 4304.615, 4256.41, 4142.564, 4190.769, 4252.308, 450, 0, []
1629648182.8518, 14, 0, 4262.051, 4224.615, 4111.795, 4158.974, 4207.692, 450, 0, []
1629648182.8597, 15, 0, 4247.692, 4208.718, 4105.641, 4141.538, 4188.718, 16198, 0, []
1629648182.8677, 16, 0, 4288.205, 4243.077, 4153.846, 4181.538, 4233.846, 0, 0, []
1629648182.8755, 17, 0, 4293.333, 4247.692, 4155.385, 4189.231, 4244.103, 0, 0, []
1629648182.8835, 18, 0, 4270.769, 4219.487, 4143.077, 4168.205, 4220.513, 0, 0, []
1629648182.8914, 19, 0, 4292.821, 4235.385, 4176.923, 4196.41, 4242.564, 0, 0, []
1629648182.8994, 20, 0, 4310.769, 4268.205, 4202.564, 4222.051, 4268.205, 0, 0, []
1629648182.9073, 21, 0, 4277.949, 4256.923, 4188.718, 4190.256, 4242.564, 0, 0, []
1629648182.9152, 22, 0, 4240.513, 4225.641, 4148.205, 4156.41, 4205.128, 0, 0, []
1629648182.9231, 23, 0, 4231.795, 4215.385, 4142.564, 4160.513, 4196.923, 0, 0, []
1629648182.9309, 24, 0, 4260, 4239.487, 4180.513, 4187.179, 4227.179, 0, 0, []
1629648182.9388, 25, 0, 4292.308, 4267.179, 4207.179, 4215.385, 4258.462, 0, 0, []
1629648182.9466, 26, 0, 4294.359, 4255.385, 4206.667, 4220.513, 4258.462, 0, 0, []
1629648182.9544, 27, 0, 4257.949, 4218.462, 4170.256, 4179.487, 4224.103, 0, 0, []
1629648182.9622, 28, 0, 4215.385, 4206.154, 4153.846, 4134.872, 4179.487, 0, 0, []
1629648182.9701, 29, 0, 4238.974, 4234.359, 4194.872, 4171.282, 4203.59, 0, 0, []
1629648182.9779, 30, 0, 4293.846, 4258.974, 4230.256, 4240.513, 4266.154, 0, 0, []
1629648182.9858, 31, 0, 4261.538, 4233.846, 4216.41, 4218.462, 4238.974, 0, 0, []
1629648182.9935, 32, 0, 4197.436, 4196.923, 4178.974, 4160.513, 4176.923, 0, 0, []
1629648183.0014, 33, 0, 4193.333, 4195.897, 4179.487, 4161.538, 4178.462, 0, 0, []
1629648183.0092, 34, 0, 4202.564, 4216.923, 4204.103, 4176.41, 4188.718, 0, 0, []
1629648183.0172, 35, 0, 4217.436, 4233.333, 4224.615, 4186.667, 4198.974, 0, 0, []
1629648183.0251, 36, 0, 4245.128, 4231.795, 4254.872, 4212.308, 4228.718, 0, 0, []
1629648183.033, 37, 0, 4246.154, 4229.744, 4255.385, 4228.205, 4232.821, 0, 0, []
1629648183.0409, 38, 0, 4224.615, 4233.333, 4234.872, 4215.385, 4210.769, 0, 0, []
1629648183.0489, 39, 0, 4214.872, 4216.41, 4231.795, 4191.282, 4196.923, 0, 0, []
1629648183.0568, 40, 0, 4229.744, 4204.103, 4240, 4187.692, 4203.077, 0, 0, []
1629648183.0648, 41, 0, 4242.051, 4219.487, 4255.897, 4192.308, 4210.769, 0, 0, []
1629648183.0726, 42, 0, 4216.41, 4207.179, 4236.41, 4164.615, 4187.692, 0, 0, []
1629648183.0806, 43, 0, 4211.795, 4192.821, 4231.282, 4161.026, 4184.615, 0, 0, []
1629648183.0885, 44, 0, 4261.026, 4225.128, 4280.513, 4211.282, 4233.846, 0, 0, []
1629648183.0963, 45, 0, 4251.795, 4223.59, 4269.744, 4199.487, 4228.718, 0, 0, []
1629648183.1042, 46, 0, 4200, 4187.179, 4237.436, 4149.231, 4178.462, 0, 0, []
1629648183.1119, 47, 0, 4224.103, 4205.641, 4258.974, 4188.718, 4200, 0, 0, []
1629648183.1198, 48, 0, 4255.897, 4230.769, 4262.051, 4225.641, 4231.282, 0, 0, []
1629648183.1276, 49, 0, 4223.077, 4205.641, 4226.154, 4175.897, 4197.436, 0, 0, []
1629648183.1356, 50, 0, 4209.744, 4184.615, 4216.41, 4158.462, 4184.615, 0, 0, []
1629648183.1435, 51, 0, 4225.641, 4176.41, 4235.385, 4191.795, 4202.051, 0, 0, []
1629648183.1514, 52, 0, 4207.179, 4155.385, 4207.179, 4177.436, 4180, 0, 0, []
1629648183.1593, 53, 0, 4200.513, 4158.974, 4181.026, 4153.846, 4170.256, 0, 0, []
1629648183.1673, 54, 0, 4231.795, 4187.692, 4221.538, 4180, 4205.641, 0, 0, []
1629648183.1752, 55, 0, 4240, 4197.436, 4229.231, 4191.282, 4221.538, 0, 0, []
1629648183.1832, 56, 0, 4203.59, 4166.154, 4184.615, 4145.128, 4185.128, 0, 0, []
1629648183.191, 57, 0, 4177.436, 4137.949, 4164.615, 4106.667, 4152.821, 0, 0, []
1629648183.199, 58, 0, 4201.026, 4154.359, 4193.846, 4131.795, 4173.846, 0, 0, []
1629648183.2069, 59, 0, 4233.846, 4175.897, 4227.179, 4176.41, 4207.692, 0, 0, []
1629648183.2149, 60, 0, 4226.667, 4158.974, 4203.077, 4172.308, 4196.923, 0, 0, []
1629648183.2228, 61, 0, 4207.179, 4149.744, 4183.077, 4155.897, 4180, 0, 0, []
1629648183.2306, 62, 0, 4229.744, 4183.59, 4214.359, 4187.179, 4213.846, 0, 0, []
1629648183.2384, 63, 0, 4255.897, 4195.385, 4225.128, 4207.692, 4245.641, 0, 0, []
1629648183.2462, 64, 0, 4227.179, 4170.256, 4195.897, 4158.974, 4208.718, 450, 0, []
1629648183.2541, 65, 0, 4192.821, 4167.692, 4165.128, 4115.897, 4161.538, 450, 0, []
1629648183.2619, 66, 0, 4195.897, 4170.769, 4170.769, 4124.615, 4158.974, 16187, 0, []
1629648183.2698, 67, 0, 4189.744, 4149.744, 4170.769, 4124.103, 4157.949, 450, 0, []
1629648183.2775, 68, 0, 4182.051, 4153.846, 4160, 4125.641, 4157.436, 16082, 0, []
1629648183.2854, 69, 0, 4206.667, 4178.462, 4183.077, 4156.41, 4178.462, 450, 0, []
1629648183.2932, 70, 0, 4222.564, 4186.154, 4192.308, 4174.359, 4196.923, 16074, 0, []
1629648183.3012, 71, 0, 4218.974, 4199.487, 4190.256, 4180, 4199.487, 450, 0, []
1629648183.3091, 72, 0, 4214.872, 4191.282, 4190.256, 4168.718, 4189.744, 450, 0, []
1629648183.317, 73, 0, 4204.103, 4146.154, 4159.487, 4121.538, 4168.718, 16151, 0, []
1629648183.3249, 74, 0, 4204.103, 4141.538, 4163.59, 4102.564, 4168.205, 450, 0, []
1629648183.3329, 75, 0, 4231.795, 4176.923, 4195.385, 4142.051, 4201.538, 16201, 0, []
1629648183.3408, 76, 0, 4247.179, 4183.59, 4194.359, 4159.487, 4217.949, 450, 0, []
1629648183.3488, 77, 0, 4241.026, 4178.462, 4184.615, 4149.231, 4209.744, 450, 0, []
1629648183.3566, 78, 0, 4246.154, 4189.744, 4186.667, 4164.615, 4214.872, 450, 0, []
1629648183.3646, 79, 0, 4244.103, 4192.821, 4182.564, 4169.744, 4214.872, 16201, 0, []
1629648183.3725, 80, 0, 4234.359, 4184.103, 4158.974, 4152.821, 4203.59, 450, 0, []
1629648183.3803, 81, 0, 4244.103, 4171.795, 4163.59, 4160.513, 4212.308, 450, 0, []
1629648183.3882, 82, 0, 4242.564, 4166.154, 4187.179, 4173.846, 4222.564, 450, 0, []
1629648183.3959, 83, 0, 4223.077, 4171.282, 4171.795, 4163.077, 4210.256, 16201, 0, []
1629648183.4038, 84, 0, 4212.308, 4169.744, 4162.051, 4151.282, 4197.949, 450, 0, []
1629648183.4116, 85, 0, 4201.026, 4162.051, 4155.897, 4137.436, 4184.103, 450, 0, []
1629648183.4195, 86, 0, 4195.385, 4169.744, 4143.077, 4128.718, 4175.897, 450, 0, []
1629648183.4273, 87, 0, 4205.641, 4169.744, 4146.154, 4137.436, 4181.026, 16201, 0, []
1629648183.4351, 88, 0, 4208.718, 4151.282, 4132.308, 4136.923, 4181.026, 450, 0, []
1629648183.4429, 89, 0, 4205.128, 4151.795, 4125.641, 4125.641, 4181.538, 450, 0, []
1629648183.4509, 90, 0, 4216.923, 4174.359, 4137.949, 4135.385, 4192.308, 450, 0, []
1629648183.4588, 91, 0, 4226.667, 4181.026, 4139.487, 4146.667, 4194.359, 16201, 0, []
1629648183.4668, 92, 0, 4240, 4177.949, 4155.897, 4148.718, 4204.615, 450, 0, []
1629648183.4746, 93, 0, 4247.692, 4181.538, 4153.846, 4147.179, 4213.333, 450, 0, []
1629648183.4826, 94, 0, 4204.615, 4161.538, 4108.718, 4114.872, 4166.667, 450, 0, []
1629648183.4905, 95, 0, 4185.641, 4147.692, 4092.821, 4102.051, 4144.615, 16201, 0, []
1629648183.4985, 96, 0, 4237.949, 4164.615, 4130.256, 4147.692, 4201.538, 450, 0, []
1629648183.5064, 97, 0, 4254.872, 4165.128, 4153.846, 4164.615, 4221.538, 450, 0, []
1629648183.5143, 98, 0, 4210.769, 4145.641, 4114.872, 4122.564, 4179.487, 450, 0, []
1629648183.5222, 99, 0, 4195.385, 4136.41, 4096.923, 4104.103, 4167.692, 16201, 0, []
1629648183.5302, 100, 0, 4230.769, 4164.103, 4133.333, 4141.026, 4202.564, 450, 0, []
1629648183.5381, 101, 0, 4242.051, 4183.077, 4135.385, 4150.256, 4211.282, 450, 0, []
1629648183.5459, 102, 0, 4214.359, 4155.897, 4109.744, 4113.333, 4181.538, 450, 0, []
1629648183.5537, 103, 0, 4211.282, 4143.59, 4108.205, 4114.872, 4182.051, 16201, 0, []
1629648183.5615, 104, 0, 4232.308, 4165.128, 4129.744, 4151.282, 4209.231, 450, 0, []
1629648183.5694, 105, 0, 4219.487, 4164.615, 4126.154, 4147.179, 4196.923, 450, 0, []
1629648183.5772, 106, 0, 4197.949, 4149.744, 4105.641, 4124.615, 4174.359, 450, 0, []
1629648183.5851, 107, 0, 4198.462, 4146.154, 4115.385, 4128.718, 4177.949, 16201, 0, []
1629648183.5928, 108, 0, 4179.487, 4126.154, 4107.179, 4114.359, 4163.077, 450, 0, []
1629648183.6008, 109, 0, 4176.41, 4123.077, 4110.256, 4106.667, 4156.41, 450, 0, []
1629648183.6087, 110, 0, 4220.513, 4166.667, 4153.333, 4148.205, 4196.41, 450, 0, []
1629648183.6167, 111, 0, 4238.462, 4188.718, 4166.154, 4165.128, 4218.462, 16201, 0, []
1629648183.6246, 112, 0, 4210.256, 4166.667, 4160.513, 4141.026, 4196.41, 450, 0, []
1629648183.6325, 113, 0, 4202.564, 4154.359, 4153.846, 4145.128, 4187.179, 450, 0, []
1629648183.6404, 114, 0, 4212.821, 4166.154, 4145.128, 4156.41, 4193.846, 450, 0, []
1629648183.6484, 115, 0, 4202.051, 4168.718, 4141.538, 4133.333, 4188.205, 16201, 0, []
1629648183.6563, 116, 0, 4183.59, 4146.154, 4122.051, 4111.795, 4171.795, 450, 0, []
1629648183.6642, 117, 0, 4187.692, 4149.744, 4127.179, 4120, 4172.308, 450, 0, []
1629648183.672, 118, 0, 4203.59, 4178.462, 4146.154, 4132.308, 4192.821, 450, 0, []
1629648183.6798, 119, 0, 4177.436, 4156.923, 4115.897, 4103.59, 4166.154, 16201, 0, []
1629648183.6878, 120, 0, 4146.667, 4132.308, 4091.282, 4077.949, 4125.128, 450, 0, []
1629648183.6957, 121, 0, 4188.718, 4167.179, 4137.436, 4124.615, 4165.128, 450, 0, []
1629648183.7036, 122, 0, 4220, 4182.564, 4174.359, 4161.538, 4203.59, 450, 0, []
1629648183.7113, 123, 0, 4182.051, 4147.692, 4127.692, 4119.487, 4165.641, 16201, 0, []
1629648183.7192, 124, 0, 4188.718, 4159.487, 4115.385, 4116.41, 4168.205, 450, 0, []
1629648183.727, 125, 0, 4237.949, 4197.436, 4163.59, 4168.718, 4216.41, 450, 0, []
1629648183.7349, 126, 0, 4215.385, 4179.487, 4138.974, 4142.564, 4194.872, 450, 0, []
1629648183.7427, 127, 0, 4179.487, 4163.077, 4100, 4088.205, 4156.41, 16201, 0, []
1629648183.7505, 128, 0, 4190.256, 4165.641, 4107.179, 4094.872, 4166.154, 450, 0, []
1629648183.7583, 0, 0, 4196.923, 4155.897, 4115.897, 4115.385, 4180.513, 450, 0, []
1629648183.7662, 1, 0, 4201.538, 4158.462, 4132.308, 4127.179, 4192.308, 450, 0, []
1629648183.774, 2, 0, 4215.385, 4173.333, 4136.923, 4133.333, 4206.154, 16187, 0, []
1629648183.782, 3, 0, 4213.846, 4175.385, 4148.718, 4127.179, 4203.077, 450, 0, []
1629648183.7898, 4, 0, 4206.154, 4173.333, 4176.41, 4125.641, 4195.897, 16154, 0, []
1629648183.7978, 5, 0, 4210.256, 4168.205, 4180, 4135.385, 4190.256, 450, 0, []
1629648183.8057, 6, 0, 4210.769, 4163.59, 4172.821, 4132.821, 4180.513, 16108, 0, []
1629648183.8137, 7, 0, 4220, 4181.538, 4164.615, 4132.821, 4188.205, 450, 0, []
1629648183.8216, 8, 0, 4219.487, 4179.487, 4149.744, 4124.615, 4189.231, 450, 0, []
1629648183.8295, 9, 0, 4195.385, 4147.179, 4130.769, 4094.359, 4162.564, 16152, 0, []
1629648183.8374, 10, 0, 4204.103, 4161.538, 4141.026, 4111.282, 4172.308, 450, 0, []
1629648183.8454, 11, 0, 4235.385, 4195.897, 4174.872, 4158.974, 4211.282, 16201, 0, []
1629648183.8533, 12, 0, 4225.128, 4169.744, 4155.385, 4146.667, 4203.077, 450, 0, []
1629648183.8611, 13, 0, 4197.949, 4141.538, 4127.692, 4113.846, 4174.359, 450, 0, []
1629648183.8689, 14, 0, 4209.231, 4173.846, 4148.205, 4133.333, 4188.718, 450, 0, []
1629648183.8767, 15, 0, 4226.154, 4185.128, 4150.769, 4150.769, 4210.769, 16201, 0, []
1629648183.8846, 16, 0, 4214.872, 4157.949, 4139.487, 4136.41, 4200.513, 0, 0, []
1629648183.8924, 17, 0, 4205.641, 4160, 4136.41, 4131.795, 4187.179, 0, 0, []
1629648183.9003, 18, 0, 4200, 4170.769, 4133.333, 4124.615, 4180.513, 0, 0, []
1629648183.908, 19, 0, 4195.385, 4174.872, 4144.615, 4115.385, 4174.359, 0, 0, []
1629648183.916, 20, 0, 4205.128, 4187.179, 4155.897, 4134.359, 4185.128, 0, 0, []
1629648183.9239, 21, 0, 4197.436, 4177.949, 4147.692, 4139.487, 4182.564, 0, 0, []
1629648183.9319, 22, 0, 4179.487, 4159.487, 4133.846, 4115.897, 4162.051, 0, 0, []
1629648183.9398, 23, 0, 4188.718, 4173.846, 4143.59, 4115.897, 4166.667, 0, 0, []
1629648183.9477, 24, 0, 4199.487, 4187.179, 4150.256, 4125.128, 4177.436, 0, 0, []
1629648183.9556, 25, 0, 4203.077, 4184.615, 4137.436, 4124.103, 4177.949, 0, 0, []
1629648183.9636, 26, 0, 4225.128, 4190.256, 4157.949, 4138.462, 4194.359, 0, 0, []
1629648183.9715, 27, 0, 4227.179, 4184.103, 4156.41, 4141.538, 4197.436, 0, 0, []
1629648183.9795, 28, 0, 4192.308, 4153.333, 4104.615, 4102.051, 4154.872, 0, 0, []
1629648183.9874, 29, 0, 4198.974, 4148.205, 4107.179, 4093.846, 4153.846, 0, 0, []
1629648183.9951, 30, 0, 4242.564, 4173.333, 4134.359, 4124.103, 4206.154, 0, 0, []
1629648184.003, 31, 0, 4254.359, 4174.359, 4124.103, 4125.641, 4222.564, 0, 0, []
1629648184.0108, 32, 0, 4264.103, 4162.051, 4106.667, 4108.718, 4223.59, 0, 0, []
1629648184.0187, 33, 0, 4312.821, 4177.949, 4109.744, 4114.872, 4266.667, 0, 0, []
1629648184.0265, 34, 0, 4357.949, 4191.795, 4120.513, 4137.949, 4314.872, 0, 0, []
1629648184.0343, 35, 0, 4367.179, 4175.385, 4101.538, 4142.051, 4331.282, 0, 0, []
1629648184.0421, 36, 0, 4364.103, 4169.744, 4082.564, 4125.641, 4337.949, 0, 0, []
1629648184.05, 37, 0, 4342.051, 4168.718, 4057.949, 4102.564, 4311.795, 0, 0, []
1629648184.0578, 38, 0, 4320.513, 4156.923, 4036.923, 4094.359, 4275.385, 0, 0, []
1629648184.0658, 39, 0, 4346.667, 4170.769, 4082.564, 4130.769, 4300, 0, 0, []
1629648184.0736, 40, 0, 4364.103, 4200.513, 4123.077, 4173.333, 4330.769, 0, 0, []
1629648184.0816, 41, 0, 4318.462, 4186.154, 4104.103, 4164.103, 4287.692, 0, 0, []
1629648184.0895, 42, 0, 4268.205, 4146.667, 4071.282, 4121.538, 4228.205, 0, 0, []
1629648184.0975, 43, 0, 4269.231, 4164.103, 4074.359, 4117.949, 4228.718, 0, 0, []
1629648184.1054, 44, 0, 4280.513, 4206.154, 4112.308, 4148.718, 4249.231, 0, 0, []
1629648184.1133, 45, 0, 4265.128, 4183.59, 4114.359, 4150.256, 4239.487, 0, 0, []
1629648184.1212, 46, 0, 4231.282, 4135.897, 4081.538, 4113.846, 4205.128, 0, 0, []
1629648184.1292, 47, 0, 4231.795, 4159.487, 4087.692, 4112.821, 4207.692, 0, 0, []
1629648184.1371, 48, 0, 4270.769, 4211.282, 4112.821, 4157.436, 4252.821, 0, 0, []
1629648184.1451, 49, 0, 4264.103, 4203.077, 4106.667, 4157.949, 4248.718, 0, 0, []
1629648184.1529, 50, 0, 4230.769, 4180, 4081.538, 4127.179, 4208.718, 0, 0, []
1629648184.1607, 51, 0, 4228.205, 4188.205, 4080.513, 4121.026, 4201.026, 0, 0, []
1629648184.1686, 52, 0, 4223.59, 4183.59, 4087.692, 4117.949, 4197.436, 0, 0, []
1629648184.1764, 53, 0, 4215.897, 4165.641, 4077.949, 4119.487, 4187.692, 0, 0, []
1629648184.1843, 54, 0, 4227.179, 4174.359, 4089.231, 4133.846, 4192.308, 0, 0, []
1629648184.192, 55, 0, 4223.59, 4178.974, 4084.103, 4125.128, 4184.103, 0, 0, []
1629648184.1999, 56, 0, 4217.436, 4169.744, 4067.179, 4122.564, 4178.974, 0, 0, []
1629648184.2077, 57, 0, 4236.41, 4183.59, 4085.641, 4151.282, 4204.615, 0, 0, []
1629648184.2156, 58, 0, 4245.641, 4208.718, 4095.385, 4160.513, 4216.923, 0, 0, []
1629648184.2234, 59, 0, 4229.744, 4200.513, 4085.128, 4144.103, 4198.462, 0, 0, []
1629648184.2313, 60, 0, 4215.897, 4172.308, 4077.436, 4138.462, 4185.128, 0, 0, []
1629648184.2392, 61, 0, 4208.718, 4168.205, 4092.308, 4154.872, 4186.154, 0, 0, []
1629648184.2472, 62, 0, 4205.641, 4186.667, 4112.308, 4166.667, 4186.154, 0, 0, []
1629648184.2551, 63, 0, 4205.128, 4190.256, 4079.487, 4135.385, 4175.385, 0, 0, []
1629648184.2631, 64, 0, 4195.897, 4166.154, 4045.641, 4106.667, 4156.923, 450, 0, []
1629648184.2709, 65, 0, 4197.436, 4163.077, 4068.205, 4138.462, 4162.051, 450, 0, []
1629648184.2789, 66, 0, 4209.744, 4182.564, 4089.744, 4161.026, 4178.974, 16187, 0, []
1629648184.2868, 67, 0, 4209.231, 4185.128, 4087.179, 4141.026, 4177.949, 450, 0, []
1629648184.2948, 68, 0, 4192.308, 4164.103, 4067.692, 4129.231, 4161.026, 16162, 0, []
1629648184.3027, 69, 0, 4173.333, 4153.333, 4058.462, 4121.538, 4142.564, 450, 0, []
1629648184.3104, 70, 0, 4189.744, 4185.641, 4076.41, 4122.564, 4157.949, 16087, 0, []
1629648184.3183, 71, 0, 4224.103, 4204.103, 4090.769, 4147.692, 4191.795, 450, 0, []
1629648184.3261, 72, 0, 4215.385, 4175.897, 4085.128, 4145.641, 4179.487, 450, 0, []
1629648184.334, 73, 0, 4190.769, 4164.615, 4066.667, 4122.564, 4149.744, 16154, 0, []
1629648184.3418, 74, 0, 4209.231, 4182.051, 4079.487, 4131.795, 4163.59, 450, 0, []
1629648184.3496, 75, 0, 4220, 4177.436, 4095.897, 4142.051, 4171.282, 16201, 0, []
1629648184.3574, 76, 0, 4207.179, 4171.282, 4084.615, 4138.974, 4163.077, 450, 0, []
1629648184.3653, 77, 0, 4205.641, 4189.744, 4087.179, 4135.897, 4167.179, 450, 0, []
1629648184.3731, 78, 0, 4190.256, 4181.026, 4076.41, 4117.436, 4147.692, 450, 0, []
1629648184.3811, 79, 0, 4190.769, 4170.256, 4081.538, 4126.154, 4142.051, 16201, 0, []
1629648184.3889, 80, 0, 4231.282, 4197.436, 4128.718, 4177.436, 4192.821, 450, 0, []
1629648184.3969, 81, 0, 4211.795, 4194.359, 4103.077, 4157.436, 4186.154, 450, 0, []
1629648184.4048, 82, 0, 4143.59, 4158.974, 4041.538, 4087.179, 4115.385, 450, 0, []
1629648184.4128, 83, 0, 4164.103, 4179.487, 4064.103, 4116.923, 4132.821, 16201, 0, []
1629648184.4207, 84, 0, 4209.231, 4211.795, 4097.949, 4169.744, 4181.026, 450, 0, []
1629648184.4286, 85, 0, 4184.615, 4194.872, 4062.564, 4133.846, 4152.821, 450, 0, []
1629648184.4365, 86, 0, 4164.103, 4179.487, 4032.821, 4103.59, 4131.282, 450, 0, []
1629648184.4445, 87, 0, 4163.077, 4174.359, 4055.897, 4114.872, 4136.41, 16201, 0, []
1629648184.4524, 88, 0, 4196.923, 4189.231, 4087.692, 4141.026, 4161.026, 450, 0, []
1629648184.4604, 89, 0, 4284.103, 4246.154, 4124.615, 4184.103, 4226.154, 450, 0, []
1629648184.4682, 90, 0, 4338.462, 4263.59, 4138.462, 4191.795, 4260.513, 450, 0, []
1629648184.476, 91, 0, 4344.615, 4232.308, 4104.615, 4153.846, 4251.282, 16201, 0, []
1629648184.4839, 92, 0, 4389.744, 4249.231, 4124.103, 4165.128, 4284.103, 450, 0, []
1629648184.4917, 93, 0, 4424.103, 4274.872, 4151.282, 4191.795, 4309.744, 450, 0, []
1629648184.4996, 94, 0, 4365.128, 4231.795, 4089.231, 4129.744, 4246.154, 450, 0, []
1629648184.5073, 95, 0, 4329.744, 4204.103, 4055.385, 4078.974, 4210.769, 16201, 0, []
1629648184.5152, 96, 0, 4376.923, 4247.179, 4095.385, 4123.077, 4260.513, 450, 0, []
1629648184.523, 97, 0, 4394.359, 4271.795, 4126.667, 4163.077, 4279.487, 450, 0, []
1629648184.5309, 98, 0, 4362.564, 4248.205, 4112.821, 4155.385, 4253.333, 450, 0, []
1629648184.5387, 99, 0, 4344.615, 4233.333, 4094.872, 4149.231, 4248.205, 16201, 0, []
1629648184.5465, 100, 0, 4328.718, 4228.718, 4096.41, 4137.436, 4245.641, 450, 0, []
1629648184.5543, 101, 0, 4311.795, 4220, 4093.333, 4120.513, 4231.795, 450, 0, []
1629648184.5623, 102, 0, 4330.769, 4229.744, 4114.872, 4148.718, 4249.231, 450, 0, []
1629648184.5702, 103, 0, 4324.103, 4230.769, 4120.513, 4158.462, 4245.128, 16201, 0, []
1629648184.5782, 104, 0, 4276.923, 4209.744, 4093.333, 4118.462, 4201.538, 450, 0, []
1629648184.586, 105, 0, 4275.897, 4213.846, 4104.103, 4116.923, 4199.487, 450, 0, []
1629648184.594, 106, 0, 4310.769, 4236.41, 4129.744, 4154.359, 4234.872, 450, 0, []
1629648184.6019, 107, 0, 4346.154, 4255.385, 4167.692, 4197.436, 4276.41, 16201, 0, []
1629648184.6099, 108, 0, 4381.538, 4271.795, 4200, 4244.615, 4321.026, 450, 0, []
1629648184.6178, 109, 0, 4392.308, 4285.641, 4181.538, 4264.103, 4330.256, 450, 0, []
1629648184.6255, 110, 0, 4377.949, 4303.077, 4166.667, 4250.769, 4313.846, 450, 0, []
1629648184.6334, 111, 0, 4358.974, 4302.564, 4163.59, 4237.949, 4306.667, 16201, 0, []
1629648184.6412, 112, 0, 4357.436, 4299.487, 4176.41, 4259.487, 4314.359, 450, 0, []
1629648184.6491, 113, 0, 4380.513, 4316.41, 4195.385, 4287.692, 4330.256, 450, 0, []
1629648184.6569, 114, 0, 4405.641, 4328.205, 4183.077, 4275.385, 4345.128, 450, 0, []
1629648184.6647, 115, 0, 4402.564, 4320, 4177.949, 4246.667, 4337.436, 16201, 0, []
1629648184.6726, 116, 0, 4390.256, 4312.308, 4187.179, 4251.795, 4334.359, 450, 0, []
1629648184.6804, 117, 0, 4360, 4287.179, 4168.205, 4246.154, 4318.462, 450, 0, []
1629648184.6882, 118, 0, 4301.026, 4236.923, 4130.769, 4193.846, 4261.026, 450, 0, []
1629648184.6962, 119, 0, 4300.513, 4240.513, 4130.769, 4191.282, 4254.872, 16201, 0, []
1629648184.704, 120, 0, 4339.487, 4295.897, 4162.564, 4233.333, 4295.897, 450, 0, []
1629648184.712, 121, 0, 4345.128, 4323.59, 4167.179, 4245.128, 4306.154, 450, 0, []
1629648184.7199, 122, 0, 4345.128, 4315.897, 4162.051, 4250.769, 4305.641, 450, 0, []
1629648184.7279, 123, 0, 4348.205, 4309.744, 4172.308, 4256.41, 4311.282, 16201, 0, []
1629648184.7358, 124, 0, 4340, 4317.436, 4169.231, 4244.615, 4306.667, 450, 0, []
1629648184.7438, 125, 0, 4341.538, 4321.026, 4169.231, 4238.974, 4306.154, 450, 0, []
1629648184.7516, 126, 0, 4344.615, 4315.897, 4161.026, 4242.564, 4308.205, 450, 0, []
1629648184.7596, 127, 0, 4313.333, 4296.923, 4139.487, 4224.615, 4282.564, 16201, 0, []
1629648184.7675, 128, 0, 4297.436, 4286.154, 4147.692, 4210.256, 4266.154, 450, 0, []
1629648184.7753, 0, 0, 4324.103, 4300.513, 4156.923, 4229.744, 4284.615, 450, 0, []
1629648184.7832, 1, 0, 4332.821, 4305.641, 4154.359, 4246.154, 4296.923, 450, 0, []
1629648184.7909, 2, 0, 4315.385, 4306.154, 4146.154, 4231.795, 4288.718, 16184, 0, []
1629648184.7988, 3, 0, 4315.385, 4313.333, 4143.59, 4220.513, 4288.205, 450, 0, []
1629648184.8066, 4, 0, 4335.897, 4317.436, 4162.051, 4243.59, 4302.564, 16163, 0, []
1629648184.8145, 5, 0, 4335.385, 4314.359, 4156.923, 4256.923, 4300, 450, 0, []
1629648184.8223, 6, 0, 4302.051, 4298.974, 4137.436, 4217.436, 4265.641, 16080, 0, []
1629648184.8301, 7, 0, 4292.821, 4284.615, 4137.949, 4198.974, 4257.949, 450, 0, []
1629648184.8379, 8, 0, 4314.872, 4284.103, 4142.051, 4229.231, 4283.077, 450, 0, []
1629648184.8459, 9, 0, 4303.077, 4281.026, 4135.385, 4227.179, 4269.231, 16159, 0, []
1629648184.8538, 10, 0, 4280, 4270.769, 4122.051, 4201.538, 4245.128, 450, 0, []
1629648184.8618, 11, 0, 4295.897, 4276.41, 4134.872, 4213.846, 4264.615, 16195, 0, []
1629648184.8696, 12, 0, 4311.282, 4291.795, 4149.744, 4225.128, 4279.487, 450, 0, []
1629648184.8776, 13, 0, 4276.41, 4274.872, 4120, 4182.051, 4240, 450, 0, []
1629648184.8855, 14, 0, 4234.872, 4233.333, 4096.41, 4146.667, 4196.41, 450, 0, []
1629648184.8935, 15, 0, 4240, 4215.897, 4100.513, 4172.821, 4205.128, 16195, 0, []
1629648184.9014, 16, 0, 4282.564, 4245.128, 4128.718, 4214.872, 4246.154, 0, 0, []
1629648184.9093, 17, 0, 4298.462, 4268.718, 4144.615, 4221.538, 4265.128, 0, 0, []
1629648184.9172, 18, 0, 4271.282, 4245.641, 4121.026, 4201.026, 4247.179, 0, 0, []
1629648184.925, 19, 0, 4265.641, 4234.872, 4128.205, 4196.923, 4242.564, 0, 0, []
1629648184.9329, 20, 0, 4274.872, 4252.308, 4134.872, 4194.872, 4248.718, 0, 0, []
1629648184.9409, 21, 0, 4246.154, 4236.923, 4103.077, 4170.769, 4223.59, 0, 0, []
1629648184.9487, 22, 0, 4219.487, 4203.59, 4089.231, 4153.846, 4197.949, 0, 0, []
1629648184.9565, 23, 0, 4244.103, 4211.282, 4091.795, 4166.667, 4216.41, 0, 0, []
1629648184.9644, 24, 0, 4273.333, 4232.821, 4095.385, 4180, 4244.615, 0, 0, []
1629648184.9722, 25, 0, 4268.205, 4224.103, 4083.59, 4168.718, 4236.923, 0, 0, []
1629648184.9801, 26, 0, 4249.744, 4199.487, 4062.564, 4135.897, 4215.897, 0, 0, []
1629648184.9878, 27, 0, 4259.487, 4198.462, 4065.641, 4129.744, 4231.795, 0, 0, []
1629648184.9957, 28, 0, 4306.154, 4235.385, 4076.923, 4172.821, 4283.59, 0, 0, []
1629648185.0035, 29, 0, 4313.333, 4241.026, 4065.641, 4177.436, 4289.231, 0, 0, []
1629648185.0115, 30, 0, 4280, 4205.128, 4031.282, 4130.769, 4249.744, 0, 0, []
1629648185.0194, 31, 0, 4290.256, 4210.769, 4032.821, 4134.359, 4254.872, 0, 0, []
1629648185.0273, 32, 0, 4304.103, 4220.513, 4052.308, 4152.821, 4268.718, 0, 0, []
1629648185.0352, 33, 0, 4285.128, 4202.564, 4043.59, 4133.846, 4258.462, 0, 0, []
1629648185.0432, 34, 0, 4289.744, 4211.282, 4056.41, 4142.564, 4264.615, 0, 0, []
1629648185.0511, 35, 0, 4290.769, 4223.59, 4051.795, 4154.872, 4257.949, 0, 0, []
1629648185.0591, 36, 0, 4270.769, 4212.821, 4037.436, 4144.103, 4245.128, 0, 0, []
1629648185.0669, 37, 0, 4288.205, 4231.282, 4090.769, 4177.949, 4275.897, 0, 0, []
1629648185.0749, 38, 0, 4296.923, 4248.718, 4108.718, 4213.333, 4285.641, 0, 0, []
1629648185.0828, 39, 0, 4223.59, 4200, 4043.077, 4155.897, 4207.179, 0, 0, []
1629648185.0906, 40, 0, 4176.41, 4173.333, 4018.974, 4103.077, 4162.564, 0, 0, []
1629648185.0985, 41, 0, 4233.846, 4223.077, 4076.923, 4157.436, 4226.667, 0, 0, []
1629648185.1062, 42, 0, 4257.949, 4249.744, 4103.59, 4191.795, 4254.872, 0, 0, []
1629648185.1141, 43, 0, 4192.821, 4213.333, 4044.615, 4135.897, 4185.128, 0, 0, []
1629648185.1219, 44, 0, 4186.154, 4216.923, 4047.179, 4132.308, 4171.282, 0, 0, []
1629648185.1298, 45, 0, 4249.744, 4266.667, 4107.179, 4203.077, 4241.538, 0, 0, []
1629648185.1376, 46, 0, 4204.103, 4218.462, 4054.872, 4174.359, 4209.231, 0, 0, []
1629648185.1454, 47, 0, 4110.256, 4146.154, 3988.205, 4097.436, 4117.949, 0, 0, []
1629648185.1532, 48, 0, 4143.077, 4197.949, 4019.487, 4132.308, 4144.103, 0, 0, []
1629648185.1612, 49, 0, 4189.231, 4246.667, 4046.667, 4171.795, 4185.641, 0, 0, []
1629648185.1691, 50, 0, 4153.333, 4205.128, 4028.718, 4139.487, 4152.821, 0, 0, []
1629648185.1771, 51, 0, 4148.205, 4198.974, 4038.974, 4143.077, 4151.282, 0, 0, []
1629648185.1849, 52, 0, 4174.872, 4228.205, 4068.718, 4163.077, 4174.872, 0, 0, []
1629648185.1929, 53, 0, 4156.923, 4206.154, 4036.41, 4135.897, 4156.923, 0, 0, []
1629648185.2008, 54, 0, 4135.897, 4188.205, 4007.179, 4125.128, 4142.564, 0, 0, []
1629648185.2088, 55, 0, 4156.41, 4218.462, 4031.282, 4158.462, 4168.205, 0, 0, []
1629648185.2167, 56, 0, 4170.769, 4226.154, 4030.769, 4171.282, 4183.59, 0, 0, []
1629648185.2246, 57, 0, 4137.949, 4188.718, 4011.282, 4134.359, 4151.282, 0, 0, []
1629648185.2325, 58, 0, 4117.436, 4180.513, 4018.974, 4112.308, 4136.923, 0, 0, []
1629648185.2403, 59, 0, 4142.051, 4211.282, 4050.256, 4144.103, 4169.744, 0, 0, []
1629648185.2482, 60, 0, 4128.718, 4205.641, 4038.974, 4147.692, 4162.051, 0, 0, []
1629648185.256, 61, 0, 4096.41, 4180, 3995.385, 4112.308, 4122.564, 0, 0, []
1629648185.2638, 62, 0, 4127.179, 4200.513, 4021.538, 4125.128, 4139.487, 0, 0, []
1629648185.2716, 63, 0, 4153.846, 4229.231, 4061.538, 4165.128, 4171.282, 0, 0, []
1629648185.2795, 64, 0, 4132.308, 4213.333, 4051.795, 4160.513, 4158.462, 450, 0, []
1629648185.2873, 65, 0, 4122.564, 4194.872, 4038.974, 4133.846, 4140.513, 450, 0, []
1629648185.2952, 66, 0, 4125.641, 4205.641, 4025.641, 4127.179, 4135.385, 16184, 0, []
1629648185.3029, 67, 0, 4108.718, 4207.179, 4020.513, 4129.231, 4121.538, 450, 0, []
1629648185.3108, 68, 0, 4086.154, 4186.667, 4010.769, 4110.769, 4100.513, 16163, 0, []
1629648185.3186, 69, 0, 4075.897, 4184.103, 3999.487, 4089.744, 4091.795, 450, 0, []
1629648185.3265, 70, 0, 4079.487, 4194.359, 4015.897, 4100, 4101.538, 16079, 0, []
1629648185.3343, 71, 0, 4096.41, 4196.923, 4025.641, 4122.051, 4117.949, 450, 0, []
1629648185.3422, 72, 0, 4092.308, 4193.846, 4026.154, 4116.41, 4112.821, 450, 0, []
1629648185.3501, 73, 0, 4060, 4177.949, 4009.231, 4090.769, 4085.128, 16159, 0, []
1629648185.3581, 74, 0, 4053.333, 4174.872, 3994.872, 4092.308, 4081.538, 450, 0, []
1629648185.366, 75, 0, 4078.974, 4199.487, 4027.692, 4129.231, 4110.769, 16196, 0, []
1629648185.374, 76, 0, 4074.872, 4192.308, 4026.667, 4130.769, 4110.769, 450, 0, []
1629648185.3818, 77, 0, 4041.538, 4160.513, 3994.359, 4090.769, 4077.949, 450, 0, []
1629648185.3898, 78, 0, 4062.564, 4193.333, 4022.051, 4108.205, 4100.513, 450, 0, []
1629648185.3977, 79, 0, 4090.769, 4221.538, 4048.718, 4141.538, 4134.359, 16196, 0, []
1629648185.4057, 80, 0, 4063.077, 4183.59, 4027.179, 4110.256, 4103.59, 450, 0, []
1629648185.4136, 81, 0, 4052.308, 4170.769, 4006.667, 4087.179, 4084.103, 450, 0, []
1629648185.4213, 82, 0, 4070.769, 4191.282, 4020.513, 4107.692, 4100.513, 450, 0, []
1629648185.4292, 83, 0, 4081.538, 4196.41, 4040, 4135.897, 4112.308, 16196, 0, []
1629648185.437, 84, 0, 4078.974, 4188.718, 4027.179, 4138.974, 4107.692, 450, 0, []
1629648185.4449, 85, 0, 4072.821, 4187.692, 4016.41, 4121.026, 4099.487, 450, 0, []
1629648185.4527, 86, 0, 4063.59, 4187.179, 4011.282, 4115.385, 4096.41, 450, 0, []
1629648185.4606, 87, 0, 4037.436, 4172.821, 3995.897, 4105.128, 4077.436, 16196, 0, []
1629648185.4683, 88, 0, 4024.103, 4169.744, 3988.718, 4080, 4059.487, 450, 0, []
1629648185.4762, 89, 0, 4053.333, 4189.744, 4009.231, 4098.462, 4084.615, 450, 0, []
1629648185.484, 90, 0, 4071.282, 4191.795, 4034.359, 4133.333, 4108.205, 450, 0, []
1629648185.492, 91, 0, 4051.795, 4175.897, 4015.897, 4114.359, 4090.256, 16196, 0, []
1629648185.4999, 92, 0, 4062.051, 4184.615, 4020.513, 4108.718, 4101.026, 450, 0, []
1629648185.5078, 93, 0, 4073.333, 4182.051, 4037.436, 4130.769, 4118.974, 450, 0, []
1629648185.5157, 94, 0, 4049.231, 4170.769, 4009.744, 4117.436, 4099.487, 450, 0, []
1629648185.5237, 95, 0, 4053.333, 4188.718, 4019.487, 4112.821, 4097.949, 16196, 0, []
1629648185.5316, 96, 0, 4058.462, 4180, 4027.692, 4118.974, 4098.974, 450, 0, []
1629648185.5396, 97, 0, 4028.718, 4150.256, 4001.026, 4101.538, 4076.923, 450, 0, []
1629648185.5474, 98, 0, 4030.769, 4162.564, 4013.846, 4106.667, 4087.179, 450, 0, []
1629648185.5554, 99, 0, 4060, 4184.615, 4028.718, 4125.641, 4110.256, 16196, 0, []
1629648185.5633, 100, 0, 4046.154, 4173.333, 4019.487, 4109.744, 4089.744, 450, 0, []
1629648185.5711, 101, 0, 4015.385, 4164.103, 4005.128, 4093.333, 4062.051, 450, 0, []
1629648185.579, 102, 0, 4023.077, 4178.462, 4006.667, 4107.179, 4070.769, 450, 0, []
1629648185.5867, 103, 0, 4047.692, 4185.128, 4032.821, 4116.923, 4093.333, 16196, 0, []
