Timestamp, COUNTER, INTERPOLATED, AF3, T7, Pz, T8, AF4, RAW_CQ, MARKER_HARDWARE, MARKERS
1629740138.2815, 106, 0, 4201.538, 4270.769, 4091.795, 4134.872, 4235.897, 450, 0, []
1629740138.2895, 107, 0, 4197.949, 4262.564, 4083.077, 4124.615, 4226.154, 16205, 0, []
1629740138.2974, 108, 0, 4199.487, 4280, 4116.41, 4122.564, 4223.59, 450, 0, []
1629740138.3054, 109, 0, 4195.897, 4286.154, 4104.615, 4128.205, 4224.615, 450, 0, []
1629740138.3133, 110, 0, 4196.923, 4271.795, 4101.026, 4140, 4227.692, 450, 0, []
1629740138.3212, 111, 0, 4194.359, 4258.974, 4102.564, 4139.487, 4223.077, 16205, 0, []
1629740138.3291, 112, 0, 4190.769, 4266.667, 4094.359, 4134.872, 4220.513, 450, 0, []
1629740138.3371, 113, 0, 4210.256, 4289.231, 4114.359, 4146.667, 4232.308, 450, 0, []
1629740138.345, 114, 0, 4224.615, 4289.744, 4105.641, 4156.923, 4241.026, 450, 0, []
1629740138.3529, 115, 0, 4203.077, 4274.359, 4105.641, 4147.692, 4230.256, 16205, 0, []
1629740138.3607, 116, 0, 4181.538, 4264.615, 4104.103, 4125.641, 4209.231, 450, 0, []
1629740138.3685, 117, 0, 4191.795, 4258.462, 4095.897, 4121.026, 4200.513, 450, 0, []
1629740138.3764, 118, 0, 4208.718, 4268.205, 4115.897, 4134.359, 4215.897, 450, 0, []
1629740138.3842, 119, 0, 4210.769, 4282.051, 4108.718, 4136.41, 4237.436, 16205, 0, []
1629740138.3921, 120, 0, 4195.385, 4276.923, 4109.231, 4124.615, 4228.718, 450, 0, []
1629740138.3998, 121, 0, 4173.846, 4267.692, 4103.59, 4112.308, 4196.923, 450, 0, []
1629740138.4077, 122, 0, 4189.744, 4275.385, 4092.821, 4122.564, 4204.615, 450, 0, []
1629740138.4155, 123, 0, 4240, 4276.923, 4139.487, 4157.949, 4258.974, 16205, 0, []
1629740138.4234, 124, 0, 4247.179, 4268.205, 4142.051, 4168.718, 4276.41, 450, 0, []
1629740138.4312, 125, 0, 4214.872, 4272.821, 4116.923, 4146.154, 4243.59, 450, 0, []
1629740138.4391, 126, 0, 4210.256, 4270.256, 4109.231, 4134.359, 4222.051, 450, 0, []
1629740138.447, 127, 0, 4211.795, 4248.205, 4094.359, 4134.359, 4221.538, 16205, 0, []
1629740138.455, 128, 0, 4196.923, 4261.026, 4122.564, 4136.41, 4230.256, 450, 0, []
1629740138.4629, 0, 0, 4209.744, 4301.026, 4137.949, 4153.846, 4243.59, 450, 0, []
1629740138.4709, 1, 0, 4233.333, 4277.436, 4126.667, 4158.462, 4237.949, 450, 0, []
1629740138.4787, 2, 0, 4226.154, 4236.41, 4125.641, 4136.41, 4226.667, 16190, 0, []
1629740138.4867, 3, 0, 4222.051, 4254.359, 4120, 4136.41, 4239.487, 450, 0, []
1629740138.4946, 4, 0, 4244.103, 4281.026, 4133.846, 4159.487, 4256.41, 16111, 0, []
1629740138.5026, 5, 0, 4247.692, 4278.974, 4116.923, 4145.128, 4245.641, 450, 0, []
1629740138.5105, 6, 0, 4211.795, 4259.487, 4099.487, 4098.974, 4216.923, 16098, 0, []
1629740138.5183, 7, 0, 4196.41, 4246.667, 4121.026, 4097.436, 4212.821, 450, 0, []
1629740138.5261, 8, 0, 4200, 4243.077, 4111.282, 4124.615, 4216.41, 450, 0, []
1629740138.5339, 9, 0, 4185.128, 4235.897, 4106.154, 4125.641, 4199.487, 16174, 0, []
1629740138.5418, 10, 0, 4187.179, 4246.667, 4102.051, 4123.59, 4203.077, 450, 0, []
1629740138.5496, 11, 0, 4204.615, 4262.564, 4104.103, 4126.667, 4223.077, 16205, 0, []
1629740138.5575, 12, 0, 4203.59, 4238.462, 4114.359, 4104.615, 4218.974, 450, 0, []
1629740138.5652, 13, 0, 4201.538, 4228.205, 4096.923, 4080, 4211.795, 450, 0, []
1629740138.5731, 14, 0, 4200, 4248.205, 4112.821, 4084.103, 4210.256, 450, 0, []
1629740138.5809, 15, 0, 4182.051, 4227.179, 4117.949, 4102.564, 4190.256, 16205, 0, []
1629740138.5888, 16, 0, 4185.128, 4214.359, 4116.923, 4132.308, 4185.128, 0, 0, []
1629740138.5966, 17, 0, 4201.538, 4233.333, 4143.59, 4156.923, 4207.179, 0, 0, []
1629740138.6044, 18, 0, 4198.974, 4220, 4122.051, 4155.897, 4216.923, 0, 0, []
1629740138.6122, 19, 0, 4205.128, 4214.872, 4117.436, 4145.128, 4217.949, 0, 0, []
1629740138.6202, 20, 0, 4221.026, 4261.026, 4126.667, 4125.641, 4225.128, 0, 0, []
1629740138.6281, 21, 0, 4213.333, 4254.872, 4112.308, 4096.41, 4226.667, 0, 0, []
1629740138.6361, 22, 0, 4180.513, 4196.41, 4105.128, 4077.436, 4197.436, 0, 0, []
1629740138.6439, 23, 0, 4164.103, 4195.897, 4073.333, 4079.487, 4166.154, 0, 0, []
1629740138.6519, 24, 0, 4171.795, 4213.333, 4081.026, 4100, 4170.769, 0, 0, []
1629740138.6598, 25, 0, 4190.256, 4210.256, 4113.333, 4134.359, 4197.949, 0, 0, []
1629740138.6678, 26, 0, 4225.128, 4230.256, 4108.718, 4166.154, 4231.282, 0, 0, []
1629740138.6757, 27, 0, 4255.897, 4229.231, 4116.923, 4170.256, 4254.359, 0, 0, []
1629740138.6834, 28, 0, 4260, 4183.077, 4108.718, 4146.667, 4261.538, 0, 0, []
1629740138.6913, 29, 0, 4271.282, 4178.974, 4107.179, 4125.641, 4280.513, 0, 0, []
1629740138.6991, 30, 0, 4326.667, 4202.051, 4113.846, 4127.179, 4336.41, 0, 0, []
1629740138.707, 31, 0, 4390.769, 4184.103, 4111.795, 4141.026, 4401.026, 0, 0, []
1629740138.7148, 32, 0, 4417.949, 4173.333, 4127.692, 4141.026, 4429.744, 0, 0, []
1629740138.7226, 33, 0, 4421.026, 4206.667, 4109.744, 4129.231, 4432.821, 0, 0, []
1629740138.7304, 34, 0, 4425.128, 4236.923, 4109.231, 4128.718, 4437.949, 0, 0, []
1629740138.7383, 35, 0, 4414.872, 4214.359, 4124.103, 4121.026, 4429.744, 0, 0, []
1629740138.7461, 36, 0, 4380.513, 4179.487, 4095.897, 4092.308, 4394.359, 0, 0, []
1629740138.7541, 37, 0, 4363.59, 4191.795, 4118.974, 4092.308, 4384.103, 0, 0, []
1629740138.7619, 38, 0, 4370.769, 4193.846, 4144.103, 4118.974, 4404.615, 0, 0, []
1629740138.7699, 39, 0, 4350.256, 4157.436, 4130.256, 4119.487, 4392.308, 0, 0, []
1629740138.7778, 40, 0, 4311.282, 4160, 4121.538, 4104.103, 4354.359, 0, 0, []
1629740138.7858, 41, 0, 4293.333, 4192.308, 4109.231, 4103.59, 4333.846, 0, 0, []
1629740138.7937, 42, 0, 4281.026, 4198.974, 4123.077, 4110.769, 4320.513, 0, 0, []
1629740138.8016, 43, 0, 4267.692, 4214.359, 4121.538, 4119.487, 4310.256, 0, 0, []
1629740138.8095, 44, 0, 4264.103, 4231.795, 4122.564, 4132.821, 4307.692, 0, 0, []
1629740138.8175, 45, 0, 4263.077, 4198.974, 4143.077, 4136.923, 4294.872, 0, 0, []
1629740138.8254, 46, 0, 4261.026, 4189.231, 4126.154, 4135.897, 4286.154, 0, 0, []
1629740138.8333, 47, 0, 4246.667, 4214.872, 4128.718, 4135.385, 4285.641, 0, 0, []
1629740138.8411, 48, 0, 4222.564, 4190.769, 4124.103, 4122.051, 4265.641, 0, 0, []
1629740138.8489, 49, 0, 4215.385, 4155.897, 4108.205, 4112.821, 4243.59, 0, 0, []
1629740138.8568, 50, 0, 4208.205, 4190.256, 4116.923, 4108.205, 4228.205, 0, 0, []
1629740138.8646, 51, 0, 4183.59, 4245.641, 4092.821, 4090.256, 4204.103, 0, 0, []
1629740138.8725, 52, 0, 4183.59, 4236.41, 4094.359, 4090.769, 4196.41, 0, 0, []
1629740138.8803, 53, 0, 4202.051, 4216.923, 4116.41, 4110.769, 4210.769, 0, 0, []
1629740138.8881, 54, 0, 4204.103, 4246.667, 4114.359, 4115.897, 4220.513, 0, 0, []
1629740138.8959, 55, 0, 4210.769, 4259.487, 4121.538, 4125.128, 4234.359, 0, 0, []
1629740138.9038, 56, 0, 4218.974, 4221.026, 4104.615, 4138.974, 4237.949, 0, 0, []
1629740138.9116, 57, 0, 4200.513, 4197.949, 4093.846, 4123.077, 4218.462, 0, 0, []
1629740138.9195, 58, 0, 4186.667, 4222.051, 4101.538, 4118.462, 4224.103, 0, 0, []
1629740138.9272, 59, 0, 4190.256, 4237.436, 4110.769, 4145.641, 4237.949, 0, 0, []
1629740138.9352, 60, 0, 4184.615, 4222.051, 4127.179, 4149.231, 4219.487, 0, 0, []
1629740138.9431, 61, 0, 4178.974, 4223.077, 4111.795, 4129.231, 4209.231, 0, 0, []
1629740138.9511, 62, 0, 4189.231, 4246.154, 4121.538, 4144.615, 4230.256, 0, 0, []
1629740138.959, 63, 0, 4204.103, 4268.718, 4148.205, 4180.513, 4252.308, 0, 0, []
1629740138.9669, 64, 0, 4210.256, 4266.667, 4146.667, 4181.026, 4260.513, 450, 0, []
1629740138.9748, 65, 0, 4197.436, 4248.205, 4146.154, 4160.513, 4254.872, 450, 0, []
1629740138.9828, 66, 0, 4178.462, 4248.205, 4117.949, 4148.205, 4234.359, 16193, 0, []
1629740138.9907, 67, 0, 4162.564, 4246.154, 4106.154, 4131.282, 4213.846, 450, 0, []
1629740138.9987, 68, 0, 4154.359, 4231.282, 4114.359, 4117.436, 4207.179, 16117, 0, []
1629740139.0065, 69, 0, 4166.154, 4234.872, 4112.821, 4134.872, 4215.897, 450, 0, []
1629740139.0143, 70, 0, 4180, 4254.872, 4120.513, 4152.821, 4223.077, 16096, 0, []
1629740139.0222, 71, 0, 4173.333, 4269.231, 4112.308, 4145.128, 4222.564, 450, 0, []
1629740139.03, 72, 0, 4155.385, 4278.462, 4129.231, 4150.256, 4221.026, 450, 0, []
1629740139.0379, 73, 0, 4151.282, 4276.923, 4126.667, 4148.205, 4210.256, 16174, 0, []
1629740139.0456, 74, 0, 4181.026, 4260.513, 4098.974, 4129.744, 4224.615, 450, 0, []
1629740139.0535, 75, 0, 4228.718, 4270.256, 4137.436, 4151.795, 4283.077, 16205, 0, []
1629740139.0613, 76, 0, 4246.667, 4289.744, 4159.487, 4189.744, 4314.359, 450, 0, []
1629740139.0692, 77, 0, 4224.103, 4268.718, 4138.974, 4174.872, 4286.154, 450, 0, []
1629740139.077, 78, 0, 4206.154, 4244.615, 4111.282, 4132.821, 4266.667, 450, 0, []
1629740139.0849, 79, 0, 4201.538, 4252.308, 4111.795, 4123.077, 4273.333, 16205, 0, []
1629740139.0928, 80, 0, 4188.205, 4244.615, 4123.077, 4125.128, 4256.923, 450, 0, []
1629740139.1008, 81, 0, 4180.513, 4220.513, 4087.692, 4116.923, 4240.513, 450, 0, []
1629740139.1087, 82, 0, 4180.513, 4243.077, 4142.051, 4117.436, 4247.179, 450, 0, []
1629740139.1167, 83, 0, 4183.59, 4277.436, 4135.385, 4126.154, 4250.769, 16205, 0, []
1629740139.1245, 84, 0, 4194.872, 4262.564, 4070.769, 4133.333, 4247.179, 450, 0, []
1629740139.1325, 85, 0, 4196.41, 4240, 4164.615, 4138.462, 4250.256, 450, 0, []
1629740139.1404, 86, 0, 4186.667, 4240, 4148.205, 4138.974, 4249.744, 450, 0, []
1629740139.1483, 87, 0, 4181.538, 4253.333, 4091.795, 4118.462, 4230.769, 16205, 0, []
1629740139.1562, 88, 0, 4186.154, 4260.513, 4137.436, 4097.949, 4224.103, 450, 0, []
1629740139.1639, 89, 0, 4184.615, 4237.949, 4120, 4098.974, 4227.692, 450, 0, []
1629740139.1718, 90, 0, 4177.436, 4233.333, 4111.282, 4110.256, 4215.897, 450, 0, []
1629740139.1796, 91, 0, 4187.179, 4263.59, 4115.385, 4131.282, 4217.949, 16205, 0, []
1629740139.1875, 92, 0, 4198.462, 4258.462, 4123.59, 4149.744, 4240, 450, 0, []
1629740139.1953, 93, 0, 4198.974, 4246.154, 4136.923, 4150.256, 4247.692, 450, 0, []
1629740139.2032, 94, 0, 4194.872, 4250.769, 4119.487, 4140.513, 4235.385, 450, 0, []
1629740139.2109, 95, 0, 4198.974, 4242.051, 4117.436, 4140, 4231.795, 16205, 0, []
1629740139.2189, 96, 0, 4206.154, 4253.846, 4115.385, 4142.564, 4239.487, 450, 0, []
1629740139.2268, 97, 0, 4193.333, 4275.385, 4115.897, 4137.949, 4230.769, 450, 0, []
1629740139.2348, 98, 0, 4184.615, 4265.641, 4126.154, 4142.051, 4216.923, 450, 0, []
1629740139.2427, 99, 0, 4203.077, 4263.077, 4125.128, 4155.385, 4230.256, 16205, 0, []
1629740139.2506, 100, 0, 4223.59, 4273.333, 4138.462, 4161.026, 4254.872, 450, 0, []
1629740139.2585, 101, 0, 4223.077, 4261.026, 4147.179, 4154.359, 4256.41, 450, 0, []
1629740139.2665, 102, 0, 4221.026, 4262.564, 4141.026, 4155.897, 4246.154, 450, 0, []
1629740139.2744, 103, 0, 4215.897, 4271.282, 4132.308, 4158.974, 4228.718, 16205, 0, []
1629740139.2824, 104, 0, 4200, 4252.308, 4116.923, 4145.128, 4213.846, 450, 0, []
1629740139.2902, 105, 0, 4199.487, 4238.462, 4119.487, 4146.154, 4222.564, 450, 0, []
1629740139.2981, 106, 0, 4203.59, 4249.744, 4117.436, 4155.385, 4223.59, 450, 0, []
1629740139.306, 107, 0, 4184.103, 4270.256, 4102.051, 4136.923, 4188.205, 16205, 0, []
1629740139.3139, 108, 0, 4172.308, 4280.513, 4117.949, 4121.538, 4172.821, 450, 0, []
1629740139.3218, 109, 0, 4197.436, 4278.974, 4132.308, 4140, 4201.538, 450, 0, []
1629740139.3295, 110, 0, 4220, 4270.256, 4124.103, 4155.897, 4217.436, 450, 0, []
1629740139.3374, 111, 0, 4218.462, 4260.513, 4139.487, 4159.487, 4215.385, 16205, 0, []
1629740139.3452, 112, 0, 4223.077, 4264.615, 4160.513, 4171.282, 4227.179, 450, 0, []
1629740139.3531, 113, 0, 4234.872, 4266.667, 4158.974, 4180.513, 4236.923, 450, 0, []
1629740139.3609, 114, 0, 4238.974, 4256.41, 4151.282, 4179.487, 4232.821, 450, 0, []
1629740139.3688, 115, 0, 4237.436, 4264.615, 4148.205, 4172.308, 4230.256, 16205, 0, []
1629740139.3767, 116, 0, 4224.103, 4281.538, 4132.308, 4156.41, 4218.462, 450, 0, []
1629740139.3847, 117, 0, 4210.256, 4269.231, 4110.256, 4146.154, 4200.513, 450, 0, []
1629740139.3926, 118, 0, 4222.564, 4257.949, 4120.513, 4156.41, 4209.231, 450, 0, []
1629740139.4006, 119, 0, 4242.564, 4265.641, 4138.462, 4161.026, 4225.641, 16205, 0, []
1629740139.4084, 120, 0, 4247.179, 4264.103, 4144.615, 4156.41, 4229.744, 450, 0, []
1629740139.4164, 121, 0, 4240.513, 4270.256, 4149.231, 4165.128, 4225.641, 450, 0, []
1629740139.4243, 122, 0, 4222.051, 4288.718, 4140.513, 4166.154, 4209.744, 450, 0, []
1629740139.4323, 123, 0, 4212.821, 4287.179, 4142.564, 4153.333, 4200.513, 16205, 0, []
1629740139.4402, 124, 0, 4224.103, 4270.256, 4155.385, 4152.821, 4205.641, 450, 0, []
1629740139.4481, 125, 0, 4231.282, 4268.718, 4144.615, 4159.487, 4207.692, 450, 0, []
1629740139.456, 126, 0, 4231.282, 4275.385, 4134.359, 4156.41, 4210.769, 450, 0, []
1629740139.4638, 127, 0, 4236.41, 4266.667, 4146.667, 4149.231, 4218.974, 16205, 0, []
1629740139.4717, 128, 0, 4224.103, 4252.821, 4138.462, 4136.41, 4205.641, 450, 0, []
1629740139.4795, 0, 0, 4194.359, 4257.436, 4098.462, 4121.538, 4176.923, 450, 0, []
1629740139.4873, 1, 0, 4203.077, 4270.769, 4106.154, 4137.949, 4181.538, 450, 0, []
1629740139.4951, 2, 0, 4243.59, 4262.564, 4163.077, 4170.769, 4216.923, 16193, 0, []
1629740139.503, 3, 0, 4240.513, 4252.821, 4164.615, 4162.564, 4222.564, 450, 0, []
1629740139.5108, 4, 0, 4211.282, 4250.769, 4120.513, 4133.333, 4197.436, 16116, 0, []
1629740139.5187, 5, 0, 4209.231, 4242.051, 4109.744, 4117.436, 4181.026, 450, 0, []
1629740139.5264, 6, 0, 4216.41, 4255.385, 4122.564, 4117.436, 4187.692, 16095, 0, []
1629740139.5344, 7, 0, 4217.949, 4280, 4125.641, 4133.333, 4205.128, 450, 0, []
1629740139.5423, 8, 0, 4232.821, 4279.487, 4137.436, 4160, 4222.051, 450, 0, []
1629740139.5503, 9, 0, 4241.026, 4256.923, 4149.744, 4166.154, 4217.436, 16174, 0, []
1629740139.5582, 10, 0, 4221.538, 4233.333, 4131.282, 4140.513, 4196.41, 450, 0, []
1629740139.5662, 11, 0, 4211.795, 4225.641, 4118.462, 4131.795, 4196.41, 16205, 0, []
1629740139.574, 12, 0, 4223.59, 4244.615, 4135.897, 4148.718, 4205.641, 450, 0, []
1629740139.582, 13, 0, 4213.846, 4264.615, 4127.179, 4138.462, 4185.128, 450, 0, []
1629740139.5899, 14, 0, 4182.051, 4246.154, 4101.026, 4105.128, 4153.333, 450, 0, []
1629740139.5979, 15, 0, 4176.41, 4218.974, 4103.59, 4105.128, 4149.744, 16205, 0, []
1629740139.6058, 16, 0, 4195.385, 4227.179, 4116.41, 4130.256, 4161.026, 0, 0, []
1629740139.6135, 17, 0, 4189.231, 4234.872, 4116.41, 4126.667, 4153.333, 0, 0, []
1629740139.6214, 18, 0, 4175.897, 4219.487, 4103.077, 4116.923, 4149.744, 0, 0, []
1629740139.6292, 19, 0, 4187.179, 4226.154, 4115.385, 4131.795, 4164.103, 0, 0, []
1629740139.6371, 20, 0, 4201.538, 4258.462, 4133.333, 4140.513, 4168.205, 0, 0, []
1629740139.6449, 21, 0, 4209.744, 4261.026, 4134.872, 4136.923, 4172.821, 0, 0, []
1629740139.6527, 22, 0, 4210.256, 4243.077, 4147.179, 4140, 4186.154, 0, 0, []
1629740139.6605, 23, 0, 4203.077, 4232.821, 4125.641, 4143.59, 4185.128, 0, 0, []
1629740139.6684, 24, 0, 4206.667, 4228.718, 4116.923, 4142.051, 4173.846, 0, 0, []
1629740139.6762, 25, 0, 4210.769, 4233.333, 4142.051, 4140.513, 4172.308, 0, 0, []
1629740139.6842, 26, 0, 4203.077, 4240, 4133.846, 4136.41, 4173.846, 0, 0, []
1629740139.692, 27, 0, 4195.897, 4238.974, 4130.769, 4131.795, 4162.564, 0, 0, []
1629740139.7, 28, 0, 4188.205, 4213.333, 4113.846, 4115.385, 4142.051, 0, 0, []
1629740139.7079, 29, 0, 4179.487, 4203.077, 4103.59, 4100.513, 4140, 0, 0, []
1629740139.7159, 30, 0, 4184.615, 4225.128, 4131.795, 4118.462, 4159.487, 0, 0, []
1629740139.7238, 31, 0, 4184.615, 4216.41, 4122.564, 4128.718, 4157.436, 0, 0, []
1629740139.7317, 32, 0, 4183.59, 4202.051, 4107.692, 4121.538, 4147.179, 0, 0, []
1629740139.7396, 33, 0, 4210.256, 4218.974, 4123.077, 4138.974, 4174.359, 0, 0, []
1629740139.7476, 34, 0, 4224.615, 4230.256, 4141.538, 4157.949, 4195.897, 0, 0, []
1629740139.7555, 35, 0, 4202.564, 4234.872, 4131.282, 4142.051, 4175.897, 0, 0, []
1629740139.7635, 36, 0, 4177.436, 4242.564, 4105.128, 4115.385, 4145.641, 0, 0, []
1629740139.7713, 37, 0, 4164.103, 4211.282, 4106.154, 4096.923, 4134.359, 0, 0, []
1629740139.7791, 38, 0, 4172.821, 4183.59, 4106.667, 4102.051, 4142.051, 0, 0, []
1629740139.787, 39, 0, 4196.41, 4214.359, 4117.949, 4131.795, 4153.846, 0, 0, []
1629740139.7948, 40, 0, 4192.821, 4235.897, 4133.846, 4137.949, 4157.949, 0, 0, []
1629740139.8027, 41, 0, 4164.103, 4206.154, 4113.846, 4115.897, 4147.692, 0, 0, []
1629740139.8104, 42, 0, 4162.051, 4186.667, 4103.077, 4113.333, 4134.359, 0, 0, []
1629740139.8183, 43, 0, 4194.359, 4209.744, 4116.41, 4132.308, 4152.308, 0, 0, []
1629740139.8261, 44, 0, 4211.282, 4237.949, 4129.231, 4143.59, 4187.692, 0, 0, []
1629740139.8341, 45, 0, 4181.026, 4245.641, 4114.872, 4131.282, 4172.821, 0, 0, []
1629740139.842, 46, 0, 4166.154, 4244.615, 4093.846, 4122.051, 4144.615, 0, 0, []
1629740139.8499, 47, 0, 4201.026, 4240.513, 4114.359, 4140.513, 4175.385, 0, 0, []
1629740139.8578, 48, 0, 4214.359, 4231.282, 4126.667, 4160, 4198.974, 0, 0, []
1629740139.8658, 49, 0, 4194.359, 4232.308, 4109.744, 4156.923, 4175.385, 0, 0, []
1629740139.8737, 50, 0, 4189.744, 4235.385, 4107.692, 4143.59, 4165.641, 0, 0, []
1629740139.8817, 51, 0, 4195.897, 4227.179, 4105.641, 4135.897, 4187.692, 0, 0, []
1629740139.8895, 52, 0, 4194.872, 4223.59, 4104.615, 4136.41, 4196.923, 0, 0, []
1629740139.8975, 53, 0, 4193.333, 4229.231, 4100.513, 4128.205, 4174.359, 0, 0, []
1629740139.9054, 54, 0, 4179.487, 4232.821, 4087.692, 4110.256, 4155.385, 0, 0, []
1629740139.9133, 55, 0, 4165.128, 4229.744, 4087.692, 4111.795, 4161.026, 0, 0, []
1629740139.9212, 56, 0, 4177.436, 4228.718, 4091.282, 4134.359, 4172.821, 0, 0, []
1629740139.929, 57, 0, 4185.641, 4226.667, 4098.974, 4141.026, 4173.846, 0, 0, []
1629740139.9368, 58, 0, 4184.615, 4242.564, 4108.718, 4137.949, 4184.103, 0, 0, []
1629740139.9446, 59, 0, 4192.821, 4263.077, 4106.154, 4140.513, 4191.795, 0, 0, []
1629740139.9525, 60, 0, 4197.949, 4244.103, 4109.744, 4143.59, 4174.359, 0, 0, []
1629740139.9603, 61, 0, 4196.923, 4220, 4121.538, 4148.718, 4178.974, 0, 0, []
1629740139.9682, 62, 0, 4195.897, 4233.846, 4130.769, 4157.949, 4200.513, 0, 0, []
1629740139.9759, 63, 0, 4200, 4266.667, 4126.154, 4165.128, 4193.846, 0, 0, []
1629740139.9838, 64, 0, 4193.846, 4268.205, 4113.333, 4154.359, 4167.179, 450, 0, []
1629740139.9916, 65, 0, 4183.077, 4232.821, 4113.333, 4137.436, 4162.564, 450, 0, []
1629740139.9996, 66, 0, 4189.744, 4230.769, 4113.333, 4143.59, 4183.077, 16193, 0, []
1629740140.0075, 67, 0, 4201.026, 4268.718, 4115.897, 4158.462, 4190.769, 450, 0, []
1629740140.0154, 68, 0, 4200, 4265.128, 4121.538, 4155.385, 4181.538, 16116, 0, []
1629740140.0233, 69, 0, 4196.923, 4240, 4115.897, 4149.744, 4183.59, 450, 0, []
1629740140.0313, 70, 0, 4201.538, 4248.718, 4113.846, 4155.897, 4190.256, 16097, 0, []
1629740140.0392, 71, 0, 4199.487, 4235.385, 4103.59, 4154.359, 4173.846, 450, 0, []
1629740140.0472, 72, 0, 4190.769, 4218.974, 4099.487, 4150.769, 4160, 450, 0, []
1629740140.055, 73, 0, 4184.103, 4246.154, 4114.872, 4156.41, 4169.231, 16174, 0, []
1629740140.063, 74, 0, 4185.128, 4257.949, 4110.256, 4150.256, 4171.795, 450, 0, []
1629740140.0709, 75, 0, 4189.231, 4247.179, 4106.154, 4134.872, 4164.103, 16149, 0, []
1629740140.0787, 76, 0, 4174.872, 4233.846, 4104.615, 4126.154, 4154.872, 450, 0, []
1629740140.0866, 77, 0, 4165.641, 4215.385, 4101.026, 4132.308, 4150.256, 450, 0, []
1629740140.0943, 78, 0, 4188.718, 4230.256, 4115.385, 4147.692, 4157.436, 450, 0, []
1629740140.1022, 79, 0, 4186.667, 4250.769, 4108.205, 4136.41, 4154.359, 16149, 0, []
1629740140.11, 80, 0, 4162.051, 4218.462, 4096.923, 4123.59, 4148.718, 450, 0, []
1629740140.1179, 81, 0, 4176.41, 4212.821, 4107.692, 4140.513, 4163.59, 450, 0, []
1629740140.1257, 82, 0, 4194.359, 4261.538, 4107.692, 4145.128, 4167.692, 450, 0, []
1629740140.1335, 83, 0, 4184.615, 4256.41, 4101.026, 4136.923, 4158.974, 16149, 0, []
1629740140.1413, 84, 0, 4197.436, 4221.538, 4111.795, 4158.974, 4174.872, 450, 0, []
1629740140.1493, 85, 0, 4225.128, 4253.846, 4134.359, 4184.615, 4195.897, 450, 0, []
1629740140.1572, 86, 0, 4222.564, 4277.949, 4135.897, 4170.256, 4187.179, 450, 0, []
1629740140.1652, 87, 0, 4210.256, 4244.103, 4123.077, 4148.205, 4171.282, 16149, 0, []
1629740140.173, 88, 0, 4211.795, 4232.821, 4126.667, 4148.718, 4171.282, 450, 0, []
1629740140.181, 89, 0, 4213.333, 4244.103, 4124.615, 4153.846, 4176.923, 450, 0, []
1629740140.1889, 90, 0, 4195.385, 4235.897, 4100.513, 4137.436, 4167.692, 450, 0, []
1629740140.1969, 91, 0, 4175.385, 4232.308, 4089.231, 4115.385, 4148.718, 16149, 0, []
1629740140.2048, 92, 0, 4192.821, 4249.744, 4091.282, 4127.692, 4157.949, 450, 0, []
1629740140.2127, 93, 0, 4204.615, 4246.667, 4103.59, 4142.051, 4170.769, 450, 0, []
1629740140.2206, 94, 0, 4169.231, 4211.795, 4118.974, 4120, 4148.205, 450, 0, []
1629740140.2284, 95, 0, 4156.923, 4206.667, 4085.128, 4114.872, 4138.974, 16149, 0, []
1629740140.2363, 96, 0, 4190.769, 4237.436, 4098.974, 4146.667, 4165.641, 450, 0, []
1629740140.2441, 97, 0, 4205.641, 4256.923, 4149.744, 4152.308, 4178.974, 450, 0, []
1629740140.252, 98, 0, 4197.436, 4247.692, 4117.436, 4131.795, 4168.718, 450, 0, []
1629740140.2597, 99, 0, 4193.333, 4221.538, 4105.128, 4131.282, 4162.564, 16149, 0, []
1629740140.2676, 100, 0, 4188.205, 4218.462, 4109.231, 4140, 4166.667, 450, 0, []
1629740140.2754, 101, 0, 4185.641, 4246.154, 4105.128, 4141.538, 4170.256, 450, 0, []
1629740140.2833, 102, 0, 4188.205, 4245.128, 4115.897, 4140.513, 4160, 450, 0, []
1629740140.2911, 103, 0, 4184.103, 4224.103, 4091.795, 4132.308, 4151.282, 16149, 0, []
1629740140.299, 104, 0, 4183.077, 4242.051, 4105.128, 4132.308, 4164.103, 450, 0, []
1629740140.3069, 105, 0, 4181.026, 4241.026, 4112.308, 4134.359, 4164.615, 450, 0, []
1629740140.3149, 106, 0, 4172.821, 4207.179, 4094.872, 4122.564, 4147.692, 450, 0, []
1629740140.3228, 107, 0, 4181.538, 4242.564, 4117.436, 4126.154, 4165.128, 16149, 0, []
1629740140.3308, 108, 0, 4181.538, 4264.103, 4117.436, 4129.744, 4168.718, 450, 0, []
1629740140.3386, 109, 0, 4167.179, 4211.795, 4103.077, 4112.821, 4135.897, 450, 0, []
1629740140.3466, 110, 0, 4185.641, 4231.795, 4113.333, 4124.615, 4150.769, 450, 0, []
1629740140.3545, 111, 0, 4210.769, 4287.692, 4138.462, 4153.846, 4184.615, 16149, 0, []
1629740140.3625, 112, 0, 4182.564, 4235.897, 4109.744, 4129.744, 4149.231, 450, 0, []
1629740140.3704, 113, 0, 4146.154, 4191.795, 4073.333, 4094.872, 4108.718, 450, 0, []
1629740140.3783, 114, 0, 4157.949, 4242.564, 4108.718, 4112.308, 4133.333, 450, 0, []
1629740140.3862, 115, 0, 4175.897, 4258.974, 4113.846, 4129.231, 4153.333, 16149, 0, []
1629740140.394, 116, 0, 4168.205, 4230.256, 4102.564, 4115.385, 4138.974, 450, 0, []
1629740140.4019, 117, 0, 4151.795, 4221.538, 4105.641, 4103.59, 4126.667, 450, 0, []
1629740140.4097, 118, 0, 4150.256, 4207.179, 4092.308, 4105.641, 4121.538, 450, 0, []
1629740140.4175, 119, 0, 4166.154, 4196.41, 4091.795, 4111.795, 4126.667, 16149, 0, []
1629740140.4253, 120, 0, 4170.256, 4226.154, 4087.692, 4113.846, 4139.487, 450, 0, []
1629740140.4332, 121, 0, 4165.641, 4250.256, 4087.692, 4111.795, 4137.949, 450, 0, []
1629740140.441, 122, 0, 4164.103, 4232.308, 4076.923, 4101.026, 4121.026, 450, 0, []
1629740140.4489, 123, 0, 4167.692, 4213.846, 4079.487, 4103.077, 4132.821, 16149, 0, []
1629740140.4566, 124, 0, 4183.59, 4218.462, 4118.974, 4135.385, 4173.846, 450, 0, []
1629740140.4645, 125, 0, 4207.692, 4243.077, 4130.769, 4160, 4191.795, 450, 0, []
1629740140.4723, 126, 0, 4211.795, 4253.846, 4131.795, 4150.256, 4177.436, 450, 0, []
1629740140.4803, 127, 0, 4190.769, 4232.308, 4112.821, 4134.872, 4167.179, 16149, 0, []
1629740140.4882, 128, 0, 4182.051, 4205.128, 4095.897, 4140, 4172.308, 450, 0, []
1629740140.4961, 0, 0, 4187.692, 4193.333, 4115.385, 4138.462, 4169.744, 450, 0, []
1629740140.504, 1, 0, 4181.026, 4209.744, 4097.436, 4112.821, 4158.974, 450, 0, []
1629740140.5119, 2, 0, 4171.282, 4230.769, 4083.077, 4098.974, 4153.846, 16193, 0, []
1629740140.5198, 3, 0, 4170.256, 4224.103, 4094.359, 4105.128, 4144.103, 450, 0, []
1629740140.5278, 4, 0, 4170.256, 4215.897, 4091.795, 4104.615, 4140.513, 16116, 0, []
1629740140.5356, 5, 0, 4182.564, 4237.436, 4106.154, 4109.231, 4162.051, 450, 0, []
1629740140.5436, 6, 0, 4203.077, 4251.795, 4111.282, 4128.205, 4180, 16100, 0, []
1629740140.5515, 7, 0, 4196.923, 4223.59, 4110.769, 4122.051, 4160, 450, 0, []
1629740140.5593, 8, 0, 4175.897, 4185.641, 4104.615, 4097.949, 4142.564, 450, 0, []
1629740140.5672, 9, 0, 4182.051, 4198.462, 4082.564, 4107.692, 4161.026, 16174, 0, []
1629740140.5749, 10, 0, 4202.051, 4249.231, 4107.692, 4140, 4178.462, 450, 0, []
1629740140.5828, 11, 0, 4200.513, 4241.538, 4116.41, 4138.974, 4167.179, 16192, 0, []
1629740140.5906, 12, 0, 4184.103, 4196.41, 4095.385, 4120, 4152.821, 450, 0, []
1629740140.5985, 13, 0, 4187.692, 4207.179, 4105.641, 4126.667, 4159.487, 450, 0, []
1629740140.6063, 14, 0, 4204.615, 4229.744, 4110.769, 4139.487, 4171.795, 450, 0, []
1629740140.6143, 15, 0, 4205.641, 4218.974, 4120, 4133.333, 4176.923, 16192, 0, []
1629740140.6221, 16, 0, 4200, 4236.41, 4118.974, 4132.308, 4184.103, 0, 0, []
1629740140.6301, 17, 0, 4204.615, 4267.179, 4110.256, 4140.513, 4190.769, 0, 0, []
1629740140.638, 18, 0, 4196.923, 4231.282, 4107.179, 4129.744, 4180.513, 0, 0, []
1629740140.646, 19, 0, 4187.692, 4204.103, 4102.051, 4123.59, 4176.41, 0, 0, []
1629740140.6539, 20, 0, 4202.051, 4248.718, 4128.718, 4145.641, 4191.795, 0, 0, []
1629740140.6618, 21, 0, 4211.795, 4258.974, 4128.718, 4150.256, 4188.718, 0, 0, []
1629740140.6697, 22, 0, 4191.282, 4205.641, 4100.513, 4119.487, 4163.077, 0, 0, []
1629740140.6777, 23, 0, 4169.231, 4205.641, 4093.846, 4100, 4149.231, 0, 0, []
1629740140.6856, 24, 0, 4188.205, 4257.949, 4098.462, 4126.667, 4172.821, 0, 0, []
1629740140.6936, 25, 0, 4220, 4240.513, 4130.256, 4163.077, 4205.641, 0, 0, []
1629740140.7014, 26, 0, 4214.359, 4203.59, 4127.692, 4157.436, 4211.795, 0, 0, []
1629740140.7092, 27, 0, 4193.333, 4226.154, 4093.333, 4134.359, 4198.974, 0, 0, []
1629740140.7171, 28, 0, 4196.41, 4234.359, 4098.462, 4138.974, 4197.949, 0, 0, []
1629740140.7249, 29, 0, 4211.282, 4221.538, 4097.949, 4149.231, 4202.051, 0, 0, []
1629740140.7328, 30, 0, 4210.769, 4236.923, 4098.974, 4138.462, 4193.333, 0, 0, []
1629740140.7405, 31, 0, 4206.667, 4236.923, 4107.179, 4134.872, 4203.077, 0, 0, []
1629740140.7484, 32, 0, 4226.154, 4213.846, 4111.282, 4154.872, 4241.026, 0, 0, []
1629740140.7562, 33, 0, 4269.231, 4237.949, 4135.897, 4175.897, 4277.949, 0, 0, []
1629740140.7641, 34, 0, 4307.179, 4278.974, 4131.795, 4181.026, 4308.205, 0, 0, []
1629740140.7719, 35, 0, 4324.103, 4257.949, 4115.385, 4170.256, 4337.436, 0, 0, []
1629740140.7797, 36, 0, 4336.923, 4223.59, 4109.231, 4158.462, 4357.949, 0, 0, []
1629740140.7875, 37, 0, 4356.41, 4238.462, 4103.59, 4168.205, 4374.359, 0, 0, []
1629740140.7955, 38, 0, 4369.231, 4257.949, 4108.718, 4182.564, 4393.846, 0, 0, []
1629740140.8034, 39, 0, 4362.564, 4247.692, 4102.051, 4181.538, 4392.308, 0, 0, []
1629740140.8114, 40, 0, 4340.513, 4237.949, 4121.026, 4184.103, 4371.795, 0, 0, []
1629740140.8192, 41, 0, 4304.615, 4239.487, 4123.59, 4185.128, 4345.641, 0, 0, []
1629740140.8272, 42, 0, 4258.974, 4224.615, 4094.872, 4170.256, 4310.769, 0, 0, []
1629740140.8351, 43, 0, 4228.205, 4203.59, 4104.615, 4166.667, 4275.385, 0, 0, []
1629740140.8431, 44, 0, 4210.769, 4215.897, 4105.128, 4173.846, 4249.231, 0, 0, []
1629740140.851, 45, 0, 4181.026, 4227.692, 4099.487, 4162.564, 4215.897, 0, 0, []
1629740140.8589, 46, 0, 4158.462, 4208.205, 4091.282, 4153.333, 4190.256, 0, 0, []
1629740140.8668, 47, 0, 4168.718, 4220, 4088.205, 4168.205, 4195.897, 0, 0, []
1629740140.8746, 48, 0, 4170.256, 4250.256, 4111.795, 4175.385, 4199.487, 0, 0, []
1629740140.8825, 49, 0, 4147.179, 4233.333, 4093.333, 4162.564, 4178.974, 0, 0, []
1629740140.8903, 50, 0, 4139.487, 4206.667, 4093.333, 4156.41, 4165.128, 0, 0, []
1629740140.8981, 51, 0, 4144.103, 4214.872, 4123.59, 4157.949, 4165.641, 0, 0, []
1629740140.9059, 52, 0, 4137.436, 4225.128, 4112.821, 4152.821, 4156.923, 0, 0, []
1629740140.9138, 53, 0, 4140, 4224.615, 4115.897, 4156.923, 4152.308, 0, 0, []
1629740140.9216, 54, 0, 4160.513, 4224.103, 4124.615, 4171.795, 4168.205, 0, 0, []
1629740140.9296, 55, 0, 4155.897, 4207.692, 4125.128, 4168.718, 4168.205, 0, 0, []
1629740140.9374, 56, 0, 4133.846, 4207.179, 4096.41, 4153.846, 4143.077, 0, 0, []
1629740140.9454, 57, 0, 4141.026, 4236.41, 4071.282, 4150.256, 4141.538, 0, 0, []
1629740140.9533, 58, 0, 4158.462, 4254.359, 4109.744, 4161.026, 4162.564, 0, 0, []
1629740140.9613, 59, 0, 4156.41, 4243.077, 4102.564, 4167.692, 4163.077, 0, 0, []
1629740140.9692, 60, 0, 4152.308, 4212.821, 4089.231, 4156.41, 4145.128, 0, 0, []
1629740140.9772, 61, 0, 4153.333, 4198.462, 4104.615, 4140.513, 4139.487, 0, 0, []
1629740140.985, 62, 0, 4149.744, 4213.333, 4088.205, 4140, 4138.974, 0, 0, []
1629740140.993, 63, 0, 4155.897, 4240.513, 4111.795, 4155.385, 4136.923, 0, 0, []
1629740141.0009, 64, 0, 4171.795, 4238.462, 4122.051, 4157.949, 4145.641, 450, 0, []
1629740141.0087, 65, 0, 4172.308, 4207.692, 4116.41, 4154.359, 4154.872, 450, 0, []
1629740141.0166, 66, 0, 4173.333, 4214.359, 4126.667, 4166.667, 4156.41, 16193, 0, []
1629740141.0243, 67, 0, 4179.487, 4246.667, 4109.744, 4171.282, 4153.846, 450, 0, []
1629740141.0322, 68, 0, 4161.538, 4223.59, 4106.667, 4148.205, 4140.513, 16116, 0, []
1629740141.04, 69, 0, 4152.308, 4196.41, 4098.462, 4140, 4137.949, 450, 0, []
1629740141.0479, 70, 0, 4189.744, 4237.949, 4112.308, 4176.41, 4164.103, 16101, 0, []
1629740141.0557, 71, 0, 4220.513, 4251.282, 4140, 4202.051, 4181.538, 450, 0, []
1629740141.0635, 72, 0, 4200.513, 4223.077, 4111.795, 4178.974, 4170.769, 450, 0, []
1629740141.0713, 73, 0, 4182.051, 4236.41, 4113.846, 4163.077, 4166.154, 16175, 0, []
1629740141.0793, 74, 0, 4188.718, 4243.59, 4117.949, 4171.282, 4172.308, 450, 0, []
1629740141.0872, 75, 0, 4174.872, 4197.436, 4091.282, 4156.41, 4169.744, 16197, 0, []
1629740141.0952, 76, 0, 4156.923, 4194.359, 4093.333, 4141.026, 4168.205, 450, 0, []
1629740141.103, 77, 0, 4168.205, 4242.564, 4094.359, 4153.846, 4171.795, 450, 0, []
1629740141.111, 78, 0, 4172.821, 4255.385, 4104.103, 4164.615, 4167.692, 450, 0, []
1629740141.1189, 79, 0, 4153.333, 4232.821, 4102.051, 4156.923, 4158.974, 16197, 0, []
1629740141.1269, 80, 0, 4144.103, 4209.231, 4083.59, 4141.026, 4150.256, 450, 0, []
1629740141.1348, 81, 0, 4153.333, 4216.41, 4095.385, 4132.821, 4145.641, 450, 0, []
1629740141.1427, 82, 0, 4172.308, 4230.256, 4112.308, 4153.846, 4160.513, 450, 0, []
1629740141.1506, 83, 0, 4185.641, 4223.077, 4116.923, 4178.462, 4179.487, 16197, 0, []
1629740141.1586, 84, 0, 4177.436, 4224.103, 4105.641, 4161.026, 4165.128, 450, 0, []
1629740141.1665, 85, 0, 4166.667, 4228.718, 4102.564, 4140.513, 4146.667, 450, 0, []
1629740141.1743, 86, 0, 4170.256, 4217.949, 4116.41, 4157.436, 4156.923, 450, 0, []
1629740141.1821, 87, 0, 4181.026, 4224.103, 4117.949, 4172.308, 4164.615, 16197, 0, []
1629740141.1899, 88, 0, 4184.615, 4243.59, 4109.744, 4161.026, 4152.308, 450, 0, []
1629740141.1978, 89, 0, 4174.359, 4235.385, 4110.769, 4147.692, 4145.128, 450, 0, []
1629740141.2056, 90, 0, 4161.026, 4218.974, 4107.179, 4155.385, 4143.077, 450, 0, []
1629740141.2135, 91, 0, 4149.231, 4199.487, 4097.436, 4154.359, 4121.026, 16197, 0, []
1629740141.2212, 92, 0, 4134.359, 4194.359, 4091.795, 4122.564, 4094.359, 450, 0, []
1629740141.2291, 93, 0, 4139.487, 4218.462, 4068.205, 4116.923, 4102.051, 450, 0, []
1629740141.2369, 94, 0, 4167.692, 4216.923, 4084.615, 4150.769, 4131.795, 450, 0, []
1629740141.2448, 95, 0, 4174.872, 4209.231, 4114.359, 4157.949, 4140, 16197, 0, []
1629740141.2526, 96, 0, 4153.846, 4223.59, 4087.179, 4133.333, 4123.077, 450, 0, []
1629740141.2605, 97, 0, 4150.769, 4220.513, 4095.897, 4136.41, 4118.974, 450, 0, []
1629740141.2684, 98, 0, 4159.487, 4218.974, 4100, 4147.692, 4124.103, 450, 0, []
1629740141.2764, 99, 0, 4147.692, 4233.333, 4095.897, 4129.231, 4116.41, 16197, 0, []
1629740141.2843, 100, 0, 4148.718, 4221.538, 4106.154, 4125.641, 4113.333, 450, 0, []
1629740141.2923, 101, 0, 4150.769, 4211.282, 4082.051, 4124.615, 4102.564, 450, 0, []
1629740141.3001, 102, 0, 4126.154, 4218.462, 4086.154, 4107.692, 4080, 450, 0, []
1629740141.3081, 103, 0, 4129.744, 4217.436, 4102.564, 4127.692, 4095.385, 16197, 0, []
1629740141.316, 104, 0, 4164.615, 4222.564, 4125.128, 4162.564, 4130.769, 450, 0, []
1629740141.3238, 105, 0, 4152.821, 4222.564, 4122.564, 4137.436, 4116.923, 450, 0, []
1629740141.3317, 106, 0, 4135.897, 4216.41, 4095.385, 4112.821, 4102.051, 450, 0, []
1629740141.3395, 107, 0, 4164.103, 4225.128, 4115.897, 4145.641, 4124.615, 16197, 0, []
1629740141.3473, 108, 0, 4157.949, 4230.769, 4106.667, 4144.103, 4115.897, 450, 0, []
1629740141.3551, 109, 0, 4132.308, 4237.436, 4094.872, 4122.564, 4099.487, 450, 0, []
1629740141.363, 110, 0, 4151.282, 4257.949, 4111.795, 4141.538, 4120, 450, 0, []
1629740141.3708, 111, 0, 4166.154, 4244.615, 4113.333, 4146.667, 4126.667, 16197, 0, []
1629740141.3787, 112, 0, 4158.974, 4213.333, 4116.923, 4133.846, 4116.41, 450, 0, []
1629740141.3864, 113, 0, 4177.436, 4227.692, 4115.897, 4152.308, 4133.333, 450, 0, []
1629740141.3943, 114, 0, 4190.256, 4233.333, 4122.051, 4163.077, 4146.667, 450, 0, []
1629740141.4021, 115, 0, 4166.154, 4207.692, 4104.103, 4126.667, 4127.179, 16197, 0, []
1629740141.4101, 116, 0, 4167.692, 4208.718, 4103.59, 4123.077, 4125.128, 450, 0, []
1629740141.418, 117, 0, 4186.667, 4226.667, 4133.846, 4151.795, 4143.077, 450, 0, []
1629740141.4259, 118, 0, 4177.436, 4232.821, 4101.538, 4145.128, 4145.128, 450, 0, []
1629740141.4338, 119, 0, 4169.744, 4229.744, 4107.692, 4134.359, 4138.974, 16197, 0, []
1629740141.4418, 120, 0, 4167.692, 4221.026, 4131.282, 4132.308, 4125.128, 450, 0, []
1629740141.4497, 121, 0, 4160, 4213.333, 4093.846, 4120.513, 4114.872, 450, 0, []
1629740141.4577, 122, 0, 4173.333, 4220.513, 4110.256, 4132.308, 4132.308, 450, 0, []
1629740141.4655, 123, 0, 4193.333, 4214.359, 4124.615, 4162.564, 4148.718, 16197, 0, []
1629740141.4735, 124, 0, 4180.513, 4211.795, 4104.615, 4157.949, 4136.41, 450, 0, []
1629740141.4814, 125, 0, 4177.949, 4245.128, 4111.795, 4152.821, 4144.615, 450, 0, []
1629740141.4892, 126, 0, 4201.026, 4249.744, 4120, 4170.769, 4165.128, 450, 0, []
1629740141.4971, 127, 0, 4188.718, 4206.667, 4118.974, 4157.436, 4143.59, 16197, 0, []
1629740141.5049, 128, 0, 4170.769, 4214.872, 4101.026, 4138.462, 4136.41, 450, 0, []
1629740141.5128, 0, 0, 4177.436, 4240.513, 4109.231, 4147.692, 4154.359, 450, 0, []
1629740141.5208, 1, 0, 4167.692, 4216.41, 4104.615, 4142.564, 4134.359, 450, 0, []
1629740141.5287, 2, 0, 4154.872, 4219.487, 4082.051, 4129.744, 4118.974, 16193, 0, []
1629740141.5365, 3, 0, 4166.154, 4253.846, 4098.462, 4138.462, 4138.974, 450, 0, []
1629740141.5444, 4, 0, 4174.359, 4252.821, 4085.641, 4138.462, 4144.103, 16116, 0, []
1629740141.5523, 5, 0, 4167.179, 4241.026, 4087.692, 4127.179, 4139.487, 450, 0, []
1629740141.5603, 6, 0, 4164.615, 4241.026, 4104.103, 4123.59, 4142.564, 16097, 0, []
1629740141.5682, 7, 0, 4166.667, 4221.538, 4086.667, 4122.564, 4134.872, 450, 0, []
1629740141.5762, 8, 0, 4167.179, 4195.897, 4101.026, 4135.385, 4140.513, 450, 0, []
1629740141.584, 9, 0, 4167.692, 4200, 4108.205, 4156.41, 4162.051, 16175, 0, []
1629740141.592, 10, 0, 4156.41, 4212.821, 4101.538, 4147.179, 4147.692, 450, 0, []
1629740141.5999, 11, 0, 4132.821, 4213.333, 4091.282, 4114.872, 4118.462, 16200, 0, []
1629740141.6079, 12, 0, 4142.051, 4232.821, 4080, 4117.949, 4134.359, 450, 0, []
1629740141.6158, 13, 0, 4181.538, 4249.231, 4110.256, 4152.821, 4165.128, 450, 0, []
1629740141.6237, 14, 0, 4198.974, 4226.667, 4105.128, 4155.385, 4171.795, 450, 0, []
1629740141.6316, 15, 0, 4191.282, 4223.077, 4089.231, 4139.487, 4175.385, 16200, 0, []
1629740141.6394, 16, 0, 4196.923, 4238.974, 4107.692, 4150.769, 4184.103, 0, 0, []
1629740141.6473, 17, 0, 4199.487, 4213.846, 4105.128, 4157.949, 4175.897, 0, 0, []
1629740141.6551, 18, 0, 4173.333, 4203.077, 4105.128, 4140, 4159.487, 0, 0, []
1629740141.663, 19, 0, 4173.333, 4243.077, 4098.462, 4146.154, 4171.282, 0, 0, []
1629740141.6707, 20, 0, 4209.231, 4254.872, 4108.718, 4176.41, 4197.949, 0, 0, []
1629740141.6786, 21, 0, 4220.513, 4242.051, 4136.41, 4180.513, 4206.667, 0, 0, []
1629740141.6864, 22, 0, 4199.487, 4258.974, 4116.41, 4166.667, 4196.923, 0, 0, []
1629740141.6943, 23, 0, 4174.359, 4249.231, 4101.026, 4152.821, 4175.385, 0, 0, []
1629740141.7021, 24, 0, 4169.744, 4202.051, 4098.462, 4142.564, 4163.077, 0, 0, []
1629740141.7099, 25, 0, 4186.667, 4210.256, 4117.949, 4149.744, 4178.974, 0, 0, []
1629740141.7177, 26, 0, 4194.359, 4246.667, 4143.59, 4165.128, 4190.769, 0, 0, []
1629740141.7257, 27, 0, 4175.897, 4220, 4104.103, 4155.385, 4169.744, 0, 0, []
1629740141.7336, 28, 0, 4161.538, 4195.385, 4096.923, 4138.974, 4156.41, 0, 0, []
1629740141.7416, 29, 0, 4168.718, 4214.359, 4110.769, 4142.564, 4171.795, 0, 0, []
1629740141.7494, 30, 0, 4172.821, 4214.872, 4090.769, 4143.59, 4176.923, 0, 0, []
1629740141.7574, 31, 0, 4174.359, 4203.59, 4101.538, 4141.026, 4176.41, 0, 0, []
1629740141.7653, 32, 0, 4179.487, 4220, 4109.231, 4148.205, 4193.846, 0, 0, []
1629740141.7733, 33, 0, 4181.026, 4221.538, 4118.974, 4154.872, 4199.487, 0, 0, []
1629740141.7812, 34, 0, 4187.179, 4221.538, 4121.026, 4154.359, 4195.385, 0, 0, []
1629740141.7889, 35, 0, 4189.231, 4246.667, 4111.282, 4154.872, 4208.718, 0, 0, []
1629740141.7968, 36, 0, 4182.564, 4238.974, 4127.179, 4156.41, 4222.564, 0, 0, []
1629740141.8046, 37, 0, 4180.513, 4224.103, 4106.154, 4148.205, 4214.872, 0, 0, []
1629740141.8125, 38, 0, 4193.846, 4240.513, 4106.154, 4146.667, 4219.487, 0, 0, []
1629740141.8203, 39, 0, 4207.692, 4235.897, 4126.154, 4154.872, 4243.077, 0, 0, []
1629740141.8281, 40, 0, 4194.359, 4194.872, 4101.538, 4141.026, 4234.359, 0, 0, []
1629740141.8359, 41, 0, 4198.462, 4203.077, 4101.538, 4132.821, 4229.744, 0, 0, []
1629740141.8438, 42, 0, 4258.462, 4262.051, 4122.051, 4166.667, 4285.128, 0, 0, []
1629740141.8516, 43, 0, 4295.385, 4248.718, 4143.077, 4184.103, 4331.795, 0, 0, []
1629740141.8596, 44, 0, 4282.051, 4208.718, 4132.821, 4153.846, 4325.128, 0, 0, []
1629740141.8674, 45, 0, 4307.692, 4235.385, 4108.718, 4144.615, 4337.436, 0, 0, []
1629740141.8754, 46, 0, 4357.436, 4254.872, 4129.744, 4169.231, 4377.949, 0, 0, []
1629740141.8833, 47, 0, 4361.026, 4230.769, 4122.051, 4167.692, 4389.231, 0, 0, []
1629740141.8913, 48, 0, 4352.821, 4240, 4120, 4153.846, 4391.795, 0, 0, []
1629740141.8992, 49, 0, 4355.897, 4245.641, 4133.846, 4154.359, 4398.974, 0, 0, []
1629740141.9071, 50, 0, 4330.769, 4208.718, 4105.128, 4146.667, 4372.821, 0, 0, []
1629740141.915, 51, 0, 4292.821, 4211.795, 4106.667, 4133.333, 4328.718, 0, 0, []
1629740141.9229, 52, 0, 4287.692, 4231.795, 4116.41, 4137.949, 4311.795, 0, 0, []
1629740141.9308, 53, 0, 4295.897, 4225.641, 4126.667, 4154.359, 4317.949, 0, 0, []
1629740141.9386, 54, 0, 4271.795, 4231.282, 4129.231, 4151.282, 4303.59, 0, 0, []
1629740141.9464, 55, 0, 4237.949, 4234.359, 4090.769, 4129.744, 4272.308, 0, 0, []
1629740141.9542, 56, 0, 4243.077, 4212.821, 4106.667, 4130.256, 4265.128, 0, 0, []
1629740141.9621, 57, 0, 4250.256, 4196.41, 4121.026, 4133.846, 4272.821, 0, 0, []
1629740141.9699, 58, 0, 4230.769, 4200, 4100, 4122.051, 4264.103, 0, 0, []
1629740141.9778, 59, 0, 4230.256, 4222.051, 4117.949, 4138.974, 4259.487, 0, 0, []
1629740141.9855, 60, 0, 4247.692, 4241.026, 4131.795, 4171.795, 4270.769, 0, 0, []
1629740141.9934, 61, 0, 4235.385, 4213.846, 4138.462, 4161.026, 4265.128, 0, 0, []
1629740142.0012, 62, 0, 4207.179, 4195.385, 4121.538, 4128.718, 4246.154, 0, 0, []
1629740142.0092, 63, 0, 4205.128, 4223.077, 4109.231, 4132.821, 4241.026, 0, 0, []
1629740142.0171, 64, 0, 4215.385, 4231.282, 4133.333, 4147.179, 4236.923, 450, 0, []
1629740142.0251, 65, 0, 4204.103, 4216.923, 4117.949, 4130.769, 4218.974, 450, 0, []
1629740142.0329, 66, 0, 4182.564, 4213.333, 4107.179, 4114.872, 4201.538, 16193, 0, []
1629740142.0409, 67, 0, 4181.026, 4216.923, 4107.692, 4123.59, 4199.487, 450, 0, []
1629740142.0488, 68, 0, 4187.692, 4232.308, 4095.897, 4136.41, 4200.513, 16116, 0, []
1629740142.0568, 69, 0, 4182.564, 4245.128, 4110.256, 4133.333, 4196.41, 450, 0, []
1629740142.0647, 70, 0, 4184.103, 4232.308, 4107.692, 4132.308, 4201.026, 16097, 0, []
1629740142.0726, 71, 0, 4186.154, 4206.154, 4109.231, 4141.538, 4200, 450, 0, []
1629740142.0805, 72, 0, 4187.179, 4206.667, 4118.974, 4143.077, 4186.667, 450, 0, []
1629740142.0885, 73, 0, 4186.667, 4235.385, 4114.872, 4132.821, 4184.103, 16175, 0, []
1629740142.0964, 74, 0, 4167.179, 4248.718, 4115.897, 4118.974, 4183.077, 450, 0, []
1629740142.1042, 75, 0, 4158.462, 4240, 4097.949, 4122.564, 4179.487, 16200, 0, []
1629740142.112, 76, 0, 4170.769, 4230.769, 4107.692, 4130.256, 4180.513, 450, 0, []
1629740142.1198, 77, 0, 4159.487, 4224.103, 4105.641, 4109.231, 4167.179, 450, 0, []
1629740142.1277, 78, 0, 4147.692, 4222.051, 4071.282, 4097.949, 4155.385, 450, 0, []
1629740142.1355, 79, 0, 4168.205, 4240, 4103.59, 4125.128, 4170.769, 16200, 0, []
1629740142.1434, 80, 0, 4180.513, 4238.462, 4124.615, 4141.026, 4182.051, 450, 0, []
1629740142.1511, 81, 0, 4169.744, 4205.641, 4113.846, 4127.692, 4170.256, 450, 0, []
1629740142.159, 82, 0, 4171.795, 4218.462, 4113.333, 4121.026, 4164.103, 450, 0, []
1629740142.1668, 83, 0, 4178.462, 4244.615, 4102.564, 4125.128, 4173.846, 16200, 0, []
1629740142.1747, 84, 0, 4161.538, 4213.333, 4114.872, 4116.923, 4168.205, 450, 0, []
1629740142.1825, 85, 0, 4146.154, 4199.487, 4100.513, 4103.077, 4152.308, 450, 0, []
1629740142.1904, 86, 0, 4154.872, 4212.821, 4089.231, 4106.667, 4160, 450, 0, []
1629740142.1983, 87, 0, 4160.513, 4201.538, 4111.282, 4118.974, 4176.923, 16200, 0, []
1629740142.2063, 88, 0, 4154.359, 4215.897, 4099.487, 4120, 4169.231, 450, 0, []
1629740142.2142, 89, 0, 4165.128, 4242.564, 4112.308, 4126.667, 4171.282, 450, 0, []
1629740142.2222, 90, 0, 4176.41, 4206.667, 4121.026, 4138.462, 4192.308, 450, 0, []
1629740142.23, 91, 0, 4167.692, 4203.077, 4110.256, 4142.564, 4188.718, 16200, 0, []
1629740142.238, 92, 0, 4169.231, 4251.282, 4128.205, 4147.692, 4180, 450, 0, []
1629740142.2459, 93, 0, 4174.359, 4233.846, 4121.538, 4146.667, 4192.308, 450, 0, []
1629740142.2539, 94, 0, 4158.974, 4194.359, 4112.308, 4128.718, 4185.128, 450, 0, []
1629740142.2618, 95, 0, 4147.692, 4204.615, 4103.077, 4115.897, 4166.667, 16200, 0, []
1629740142.2695, 96, 0, 4151.795, 4217.949, 4104.103, 4124.615, 4172.821, 450, 0, []
1629740142.2774, 97, 0, 4158.974, 4216.923, 4123.59, 4134.872, 4182.564, 450, 0, []
1629740142.2852, 98, 0, 4168.205, 4218.974, 4107.692, 4136.923, 4182.051, 450, 0, []
1629740142.2931, 99, 0, 4166.154, 4218.462, 4112.308, 4139.487, 4183.59, 16200, 0, []
1629740142.3009, 100, 0, 4166.667, 4234.872, 4120.513, 4141.538, 4188.718, 450, 0, []
1629740142.3087, 101, 0, 4183.59, 4239.487, 4111.795, 4146.667, 4190.256, 450, 0, []
1629740142.3165, 102, 0, 4174.872, 4211.795, 4120.513, 4137.436, 4179.487, 450, 0, []
1629740142.3244, 103, 0, 4150.256, 4220.513, 4103.59, 4121.026, 4170.256, 16200, 0, []
1629740142.3322, 104, 0, 4160, 4240.513, 4116.923, 4129.231, 4177.436, 450, 0, []
1629740142.3401, 105, 0, 4172.821, 4211.282, 4134.359, 4140.513, 4187.179, 450, 0, []
1629740142.3478, 106, 0, 4162.051, 4190.256, 4112.821, 4131.282, 4182.564, 450, 0, []
1629740142.3558, 107, 0, 4163.077, 4233.333, 4128.718, 4137.949, 4180.513, 16200, 0, []
1629740142.3637, 108, 0, 4175.385, 4254.359, 4127.692, 4151.282, 4190.769, 450, 0, []
1629740142.3717, 109, 0, 4168.718, 4203.077, 4114.359, 4143.59, 4198.462, 450, 0, []
1629740142.3796, 110, 0, 4166.667, 4170.769, 4123.077, 4148.205, 4200, 450, 0, []
1629740142.3876, 111, 0, 4175.897, 4206.667, 4125.128, 4158.462, 4199.487, 16200, 0, []
1629740142.3954, 112, 0, 4171.795, 4230.769, 4140.513, 4143.59, 4199.487, 450, 0, []
1629740142.4034, 113, 0, 4167.179, 4196.41, 4132.308, 4138.462, 4201.026, 450, 0, []
1629740142.4113, 114, 0, 4172.821, 4182.051, 4129.744, 4149.231, 4198.974, 450, 0, []
1629740142.4192, 115, 0, 4170.769, 4213.333, 4136.923, 4137.949, 4198.462, 16200, 0, []
1629740142.4271, 116, 0, 4165.641, 4221.026, 4122.051, 4130.256, 4199.487, 450, 0, []
1629740142.4348, 117, 0, 4166.154, 4193.846, 4135.385, 4146.154, 4198.974, 450, 0, []
1629740142.4427, 118, 0, 4169.744, 4196.923, 4128.718, 4147.179, 4205.128, 450, 0, []
1629740142.4505, 119, 0, 4177.436, 4225.641, 4126.667, 4149.231, 4223.59, 16200, 0, []
1629740142.4584, 120, 0, 4173.846, 4210.256, 4135.897, 4151.282, 4219.487, 450, 0, []
1629740142.4662, 121, 0, 4153.333, 4173.333, 4104.103, 4125.641, 4196.41, 450, 0, []
1629740142.474, 122, 0, 4152.821, 4183.077, 4117.436, 4121.538, 4211.795, 450, 0, []
1629740142.4818, 123, 0, 4173.333, 4230.769, 4138.462, 4153.846, 4238.974, 16200, 0, []
1629740142.4897, 124, 0, 4171.795, 4246.154, 4125.128, 4158.974, 4226.667, 450, 0, []
1629740142.4975, 125, 0, 4158.974, 4208.718, 4128.205, 4140.513, 4214.872, 450, 0, []
1629740142.5054, 126, 0, 4173.333, 4187.692, 4125.128, 4152.821, 4236.41, 450, 0, []
1629740142.5132, 127, 0, 4183.59, 4215.385, 4137.949, 4164.103, 4244.103, 16200, 0, []
1629740142.5212, 128, 0, 4171.282, 4232.308, 4134.872, 4150.256, 4234.359, 450, 0, []
1629740142.5292, 0, 0, 4168.718, 4215.385, 4116.923, 4148.205, 4239.487, 450, 0, []
1629740142.5371, 1, 0, 4174.359, 4202.564, 4130.256, 4159.487, 4238.462, 450, 0, []
1629740142.545, 2, 0, 4169.231, 4206.154, 4123.077, 4157.949, 4232.821, 16193, 0, []
1629740142.5529, 3, 0, 4170.256, 4211.282, 4128.718, 4150.769, 4244.103, 450, 0, []
1629740142.5608, 4, 0, 4183.077, 4209.744, 4139.487, 4163.077, 4263.59, 16117, 0, []
1629740142.5688, 5, 0, 4177.949, 4189.744, 4122.564, 4165.641, 4265.128, 450, 0, []
1629740142.5767, 6, 0, 4158.974, 4185.641, 4125.128, 4155.385, 4253.846, 16093, 0, []
1629740142.5845, 7, 0, 4162.564, 4227.692, 4129.744, 4168.718, 4258.462, 450, 0, []
1629740142.5923, 8, 0, 4175.897, 4228.205, 4145.641, 4180.513, 4274.359, 450, 0, []
1629740142.6001, 9, 0, 4168.718, 4176.41, 4133.333, 4159.487, 4278.462, 16175, 0, []
1629740142.608, 10, 0, 4156.923, 4192.821, 4103.077, 4142.564, 4267.179, 450, 0, []
1629740142.6158, 11, 0, 4152.821, 4236.41, 4122.051, 4142.051, 4257.436, 16200, 0, []
1629740142.6237, 12, 0, 4150.769, 4203.077, 4108.718, 4137.436, 4257.949, 450, 0, []
1629740142.6314, 13, 0, 4158.462, 4185.128, 4109.231, 4151.282, 4272.821, 450, 0, []
1629740142.6394, 14, 0, 4174.359, 4229.231, 4137.949, 4170.769, 4289.231, 450, 0, []
1629740142.6473, 15, 0, 4176.41, 4218.974, 4120, 4160.513, 4294.359, 16200, 0, []
1629740142.6552, 16, 0, 4159.487, 4176.923, 4118.462, 4148.718, 4288.718, 0, 0, []
1629740142.663, 17, 0, 4162.051, 4194.359, 4121.538, 4156.41, 4291.795, 0, 0, []
1629740142.6709, 18, 0, 4179.487, 4218.462, 4130.769, 4163.077, 4310.769, 0, 0, []
1629740142.6788, 19, 0, 4173.846, 4204.103, 4138.462, 4155.897, 4318.462, 0, 0, []
1629740142.6868, 20, 0, 4162.051, 4205.128, 4115.385, 4147.179, 4306.667, 0, 0, []
1629740142.6947, 21, 0, 4168.718, 4222.051, 4122.564, 4151.795, 4305.128, 0, 0, []
1629740142.7027, 22, 0, 4182.051, 4223.59, 4123.077, 4165.641, 4326.154, 0, 0, []
1629740142.7106, 23, 0, 4182.564, 4225.641, 4120.513, 4166.154, 4330.769, 0, 0, []
1629740142.7183, 24, 0, 4175.385, 4225.641, 4128.718, 4151.795, 4311.282, 0, 0, []
1629740142.7262, 25, 0, 4165.128, 4225.128, 4103.077, 4143.077, 4300.513, 0, 0, []
1629740142.734, 26, 0, 4166.154, 4218.974, 4114.872, 4152.821, 4308.718, 0, 0, []
1629740142.7419, 27, 0, 4187.179, 4208.205, 4138.462, 4168.718, 4330.256, 0, 0, []
1629740142.7497, 28, 0, 4194.359, 4213.846, 4129.744, 4167.692, 4342.051, 0, 0, []
1629740142.7575, 29, 0, 4180, 4221.026, 4123.59, 4154.872, 4334.872, 0, 0, []
1629740142.7653, 30, 0, 4176.41, 4204.615, 4106.154, 4147.692, 4327.179, 0, 0, []
1629740142.7732, 31, 0, 4192.821, 4201.026, 4120, 4155.385, 4337.949, 0, 0, []
1629740142.781, 32, 0, 4199.487, 4229.231, 4133.846, 4168.205, 4349.744, 0, 0, []
1629740142.7889, 33, 0, 4185.641, 4237.949, 4132.308, 4172.308, 4336.923, 0, 0, []
1629740142.7966, 34, 0, 4180, 4224.615, 4131.795, 4163.077, 4321.538, 0, 0, []
1629740142.8046, 35, 0, 4184.103, 4216.923, 4117.436, 4142.564, 4325.128, 0, 0, []
1629740142.8125, 36, 0, 4183.59, 4223.59, 4131.282, 4147.179, 4336.41, 0, 0, []
1629740142.8205, 37, 0, 4188.718, 4256.923, 4118.974, 4165.128, 4340.513, 0, 0, []
1629740142.8284, 38, 0, 4188.205, 4265.128, 4105.641, 4155.897, 4338.974, 0, 0, []
1629740142.8363, 39, 0, 4169.744, 4234.872, 4114.359, 4141.538, 4330.256, 0, 0, []
1629740142.8442, 40, 0, 4171.795, 4225.641, 4117.949, 4153.333, 4328.205, 0, 0, []
1629740142.8522, 41, 0, 4191.282, 4237.436, 4126.154, 4163.59, 4339.487, 0, 0, []
1629740142.8601, 42, 0, 4163.59, 4218.974, 4073.333, 4134.872, 4316.41, 0, 0, []
1629740142.8681, 43, 0, 4123.077, 4188.718, 4106.667, 4103.077, 4276.923, 0, 0, []
1629740142.8759, 44, 0, 4159.487, 4210.769, 4125.641, 4124.103, 4313.846, 0, 0, []
1629740142.8837, 45, 0, 4204.103, 4250.256, 4063.077, 4167.179, 4378.462, 0, 0, []
1629740142.8916, 46, 0, 4173.846, 4239.487, 4152.308, 4161.538, 4357.436, 0, 0, []
1629740142.8994, 47, 0, 4150.256, 4197.949, 4139.487, 4126.667, 4323.59, 0, 0, []
1629740142.9073, 48, 0, 4172.308, 4193.846, 4080, 4140.513, 4349.231, 0, 0, []
1629740142.915, 49, 0, 4178.974, 4230.256, 4137.436, 4163.077, 4354.872, 0, 0, []
1629740142.9229, 50, 0, 4160.513, 4227.692, 4106.667, 4139.487, 4323.59, 0, 0, []
1629740142.9307, 51, 0, 4149.744, 4203.59, 4104.615, 4126.667, 4316.923, 0, 0, []
1629740142.9386, 52, 0, 4160, 4221.538, 4125.641, 4149.744, 4329.231, 0, 0, []
1629740142.9464, 53, 0, 4171.795, 4230.256, 4104.103, 4154.872, 4325.641, 0, 0, []
1629740142.9543, 54, 0, 4170.256, 4212.308, 4107.179, 4140, 4323.59, 0, 0, []
1629740142.9622, 55, 0, 4171.282, 4213.333, 4109.231, 4143.59, 4334.359, 0, 0, []
1629740142.9702, 56, 0, 4162.564, 4206.667, 4100, 4143.59, 4313.846, 0, 0, []
1629740142.9781, 57, 0, 4135.385, 4195.385, 4074.872, 4116.41, 4278.974, 0, 0, []
1629740142.9861, 58, 0, 4127.692, 4208.718, 4076.923, 4102.564, 4280.513, 0, 0, []
1629740142.9939, 59, 0, 4148.205, 4210.769, 4109.231, 4129.231, 4294.872, 0, 0, []
1629740143.0019, 60, 0, 4144.103, 4197.436, 4101.026, 4140, 4276.923, 0, 0, []
1629740143.0098, 61, 0, 4113.333, 4203.077, 4073.846, 4113.846, 4247.179, 0, 0, []
1629740143.0178, 62, 0, 4124.103, 4207.179, 4076.41, 4115.385, 4252.821, 0, 0, []
1629740143.0257, 63, 0, 4165.641, 4207.692, 4093.846, 4148.205, 4279.487, 0, 0, []
1629740143.0336, 64, 0, 4174.872, 4235.897, 4105.641, 4158.462, 4289.231, 450, 0, []
1629740143.0415, 65, 0, 4165.641, 4252.308, 4104.103, 4150.769, 4283.077, 450, 0, []
1629740143.0493, 66, 0, 4168.718, 4222.051, 4099.487, 4141.026, 4273.333, 16193, 0, []
1629740143.0572, 67, 0, 4163.59, 4204.103, 4097.436, 4119.487, 4264.103, 450, 0, []
1629740143.065, 68, 0, 4155.385, 4231.282, 4091.795, 4109.744, 4261.538, 16119, 0, []
1629740143.0729, 69, 0, 4162.564, 4252.308, 4100.513, 4128.718, 4263.59, 450, 0, []
1629740143.0806, 70, 0, 4163.077, 4234.359, 4111.795, 4135.897, 4263.077, 16097, 0, []
1629740143.0885, 71, 0, 4172.308, 4227.179, 4125.128, 4142.564, 4283.077, 450, 0, []
1629740143.0963, 72, 0, 4200, 4259.487, 4133.846, 4172.821, 4306.667, 450, 0, []
1629740143.1042, 73, 0, 4194.359, 4268.718, 4108.205, 4169.744, 4287.692, 16175, 0, []
1629740143.112, 74, 0, 4165.641, 4232.308, 4087.179, 4129.231, 4257.949, 450, 0, []
1629740143.1199, 75, 0, 4171.282, 4221.026, 4098.462, 4128.205, 4266.667, 16151, 0, []
1629740143.1278, 76, 0, 4189.744, 4254.359, 4110.769, 4157.949, 4281.026, 450, 0, []
1629740143.1358, 77, 0, 4178.462, 4252.308, 4103.077, 4147.179, 4272.308, 450, 0, []
1629740143.1437, 78, 0, 4162.564, 4225.641, 4082.564, 4118.974, 4261.538, 450, 0, []
1629740143.1517, 79, 0, 4163.59, 4225.641, 4083.077, 4116.923, 4256.41, 16151, 0, []
1629740143.1595, 80, 0, 4171.282, 4229.744, 4096.923, 4125.128, 4258.974, 450, 0, []
1629740143.1675, 81, 0, 4181.538, 4248.205, 4103.077, 4132.821, 4278.462, 450, 0, []
1629740143.1754, 82, 0, 4175.385, 4244.103, 4106.667, 4134.872, 4277.949, 450, 0, []
1629740143.1834, 83, 0, 4151.282, 4209.744, 4090.769, 4116.41, 4241.538, 16151, 0, []
1629740143.1913, 84, 0, 4141.538, 4221.538, 4083.59, 4101.026, 4231.795, 450, 0, []
1629740143.199, 85, 0, 4129.231, 4237.436, 4086.667, 4094.359, 4227.179, 450, 0, []
1629740143.2069, 86, 0, 4118.974, 4230.769, 4058.462, 4085.128, 4204.615, 450, 0, []
1629740143.2147, 87, 0, 4156.41, 4246.667, 4093.333, 4105.641, 4234.872, 16151, 0, []
1629740143.2226, 88, 0, 4188.718, 4251.282, 4135.897, 4135.385, 4271.795, 450, 0, []
1629740143.2304, 89, 0, 4164.103, 4235.385, 4061.538, 4121.026, 4237.949, 450, 0, []
1629740143.2382, 90, 0, 4152.821, 4251.282, 4074.872, 4105.128, 4216.923, 450, 0, []
1629740143.246, 91, 0, 4183.077, 4270.769, 4131.795, 4122.564, 4257.436, 16151, 0, []
1629740143.2539, 92, 0, 4191.282, 4265.641, 4102.564, 4137.949, 4267.692, 450, 0, []
1629740143.2617, 93, 0, 4168.718, 4257.436, 4108.205, 4128.205, 4236.923, 450, 0, []
1629740143.2696, 94, 0, 4153.846, 4247.179, 4086.667, 4114.872, 4225.641, 450, 0, []
1629740143.2773, 95, 0, 4150.256, 4266.667, 4091.282, 4115.897, 4229.231, 16151, 0, []
1629740143.2853, 96, 0, 4159.487, 4296.41, 4135.897, 4123.077, 4229.744, 450, 0, []
1629740143.2932, 97, 0, 4173.846, 4278.974, 4119.487, 4125.641, 4231.795, 450, 0, []
1629740143.3012, 98, 0, 4175.385, 4261.026, 4113.333, 4125.128, 4238.462, 450, 0, []
1629740143.3091, 99, 0, 4171.795, 4268.718, 4124.615, 4123.59, 4233.846, 16151, 0, []
1629740143.317, 100, 0, 4170.769, 4275.897, 4129.744, 4126.667, 4217.436, 450, 0, []
1629740143.3249, 101, 0, 4173.846, 4273.333, 4106.667, 4130.256, 4220, 450, 0, []
1629740143.3329, 102, 0, 4168.718, 4240, 4092.821, 4122.564, 4227.179, 450, 0, []
1629740143.3408, 103, 0, 4153.846, 4228.205, 4100.513, 4114.872, 4208.718, 16151, 0, []
1629740143.3486, 104, 0, 4155.897, 4268.718, 4103.59, 4130.256, 4190.256, 450, 0, []
1629740143.3564, 105, 0, 4167.692, 4260.513, 4112.308, 4138.974, 4197.436, 450, 0, []
1629740143.3642, 106, 0, 4162.564, 4221.538, 4094.359, 4120.513, 4204.615, 450, 0, []
1629740143.3721, 107, 0, 4157.949, 4242.564, 4094.872, 4111.795, 4193.333, 16151, 0, []
1629740143.3799, 108, 0, 4170.769, 4272.821, 4105.641, 4125.641, 4186.154, 450, 0, []
1629740143.3878, 109, 0, 4175.897, 4287.179, 4112.821, 4134.359, 4191.282, 450, 0, []
1629740143.3956, 110, 0, 4165.641, 4286.154, 4129.744, 4131.795, 4187.692, 450, 0, []
1629740143.4034, 111, 0, 4160.513, 4243.077, 4101.538, 4125.128, 4166.154, 16151, 0, []
1629740143.4112, 112, 0, 4152.308, 4227.692, 4084.615, 4104.615, 4144.103, 450, 0, []
1629740143.4191, 113, 0, 4141.026, 4248.718, 4083.59, 4080.513, 4133.846, 450, 0, []
1629740143.4269, 114, 0, 4148.718, 4242.051, 4074.872, 4086.667, 4138.462, 450, 0, []
1629740143.4349, 115, 0, 4163.077, 4230.769, 4098.462, 4110.769, 4152.821, 16151, 0, []
1629740143.4427, 116, 0, 4160, 4238.974, 4098.462, 4115.897, 4152.308, 450, 0, []
1629740143.4507, 117, 0, 4151.282, 4246.667, 4097.949, 4113.333, 4139.487, 450, 0, []
1629740143.4586, 118, 0, 4150.256, 4248.205, 4104.103, 4106.667, 4133.846, 450, 0, []
1629740143.4666, 119, 0, 4155.897, 4245.641, 4091.795, 4105.128, 4150.769, 16151, 0, []
1629740143.4745, 120, 0, 4163.59, 4255.897, 4103.59, 4124.615, 4167.692, 450, 0, []
1629740143.4824, 121, 0, 4163.59, 4273.333, 4100.513, 4134.359, 4158.462, 450, 0, []
1629740143.4903, 122, 0, 4154.359, 4242.564, 4094.359, 4118.974, 4142.564, 450, 0, []
1629740143.4982, 123, 0, 4142.564, 4215.385, 4094.872, 4103.077, 4138.974, 16151, 0, []
1629740143.5061, 124, 0, 4146.667, 4251.282, 4075.385, 4103.077, 4140, 450, 0, []
1629740143.5139, 125, 0, 4163.59, 4241.538, 4089.744, 4109.744, 4139.487, 450, 0, []
1629740143.5218, 126, 0, 4168.718, 4202.564, 4108.205, 4116.41, 4145.641, 450, 0, []
1629740143.5297, 127, 0, 4165.128, 4235.897, 4106.154, 4120.513, 4147.692, 16151, 0, []
1629740143.5376, 128, 0, 4164.615, 4255.897, 4104.103, 4115.897, 4134.359, 450, 0, []
1629740143.5454, 0, 0, 4163.59, 4226.154, 4090.256, 4115.385, 4127.179, 450, 0, []
1629740143.5533, 1, 0, 4163.59, 4242.051, 4104.615, 4130.256, 4133.333, 450, 0, []
1629740143.561, 2, 0, 4181.538, 4266.154, 4114.872, 4142.564, 4136.41, 16193, 0, []
1629740143.5689, 3, 0, 4187.179, 4238.462, 4100.513, 4135.385, 4132.308, 450, 0, []
1629740143.5767, 4, 0, 4171.795, 4231.282, 4109.744, 4129.744, 4130.769, 16117, 0, []
1629740143.5847, 5, 0, 4177.436, 4263.077, 4114.359, 4146.154, 4134.359, 450, 0, []
1629740143.5926, 6, 0, 4193.846, 4261.026, 4116.923, 4154.872, 4131.282, 16098, 0, []
1629740143.6005, 7, 0, 4190.769, 4238.462, 4106.667, 4137.949, 4126.154, 450, 0, []
1629740143.6084, 8, 0, 4185.128, 4264.615, 4096.923, 4134.359, 4122.564, 450, 0, []
1629740143.6164, 9, 0, 4188.205, 4287.692, 4124.103, 4141.026, 4115.385, 16175, 0, []
1629740143.6243, 10, 0, 4186.667, 4252.308, 4126.667, 4134.872, 4115.897, 450, 0, []
1629740143.6323, 11, 0, 4192.308, 4223.59, 4126.667, 4140.513, 4124.615, 16190, 0, []
1629740143.6401, 12, 0, 4214.359, 4245.128, 4138.462, 4160.513, 4129.744, 450, 0, []
1629740143.6481, 13, 0, 4211.795, 4261.538, 4118.462, 4154.872, 4111.795, 450, 0, []
1629740143.656, 14, 0, 4177.949, 4254.359, 4105.128, 4129.744, 4085.128, 450, 0, []
1629740143.6638, 15, 0, 4169.744, 4247.179, 4096.923, 4123.59, 4083.59, 16190, 0, []
1629740143.6717, 16, 0, 4195.385, 4242.564, 4107.692, 4129.744, 4091.795, 0, 0, []
1629740143.6794, 17, 0, 4206.154, 4250.256, 4127.692, 4127.692, 4090.256, 0, 0, []
1629740143.6873, 18, 0, 4198.974, 4244.103, 4120, 4134.872, 4090.256, 0, 0, []
1629740143.6951, 19, 0, 4197.949, 4218.974, 4121.538, 4157.436, 4096.923, 0, 0, []
1629740143.703, 20, 0, 4185.128, 4209.231, 4107.179, 4147.692, 4080, 0, 0, []
1629740143.7108, 21, 0, 4164.103, 4212.821, 4098.974, 4118.974, 4056.923, 0, 0, []
1629740143.7186, 22, 0, 4170.256, 4229.744, 4117.436, 4123.59, 4056.923, 0, 0, []
1629740143.7264, 23, 0, 4180, 4234.359, 4106.667, 4125.128, 4048.718, 0, 0, []
1629740143.7343, 24, 0, 4177.949, 4212.821, 4112.308, 4107.179, 4038.974, 0, 0, []
1629740143.7421, 25, 0, 4200, 4228.718, 4128.205, 4131.282, 4066.154, 0, 0, []
1629740143.7501, 26, 0, 4227.692, 4279.487, 4141.026, 4177.436, 4094.359, 0, 0, []
1629740143.758, 27, 0, 4209.231, 4270.256, 4140, 4164.103, 4074.872, 0, 0, []
1629740143.7659, 28, 0, 4190.256, 4209.231, 4109.744, 4131.282, 4057.436, 0, 0, []
1629740143.7738, 29, 0, 4204.615, 4204.103, 4109.231, 4139.487, 4067.692, 0, 0, []
1629740143.7818, 30, 0, 4204.615, 4246.154, 4103.59, 4143.077, 4055.897, 0, 0, []
1629740143.7897, 31, 0, 4189.744, 4243.59, 4094.872, 4124.103, 4036.923, 0, 0, []
1629740143.7977, 32, 0, 4181.026, 4216.923, 4103.077, 4113.846, 4030.769, 0, 0, []
1629740143.8055, 33, 0, 4175.385, 4236.41, 4088.718, 4118.974, 4023.077, 0, 0, []
1629740143.8135, 34, 0, 4176.41, 4242.051, 4103.077, 4129.231, 4018.974, 0, 0, []
1629740143.8214, 35, 0, 4186.667, 4213.846, 4120, 4137.949, 4030.256, 0, 0, []
1629740143.8293, 36, 0, 4192.821, 4230.769, 4111.795, 4144.615, 4034.359, 0, 0, []
1629740143.8372, 37, 0, 4198.974, 4256.41, 4113.333, 4150.769, 4025.641, 0, 0, []
1629740143.8449, 38, 0, 4205.128, 4233.333, 4097.949, 4141.538, 4025.641, 0, 0, []
1629740143.8528, 39, 0, 4195.385, 4216.41, 4102.564, 4128.205, 4027.179, 0, 0, []
1629740143.8606, 40, 0, 4197.949, 4230.769, 4114.359, 4138.462, 4029.231, 0, 0, []
1629740143.8685, 41, 0, 4205.641, 4248.205, 4106.154, 4140, 4023.077, 0, 0, []
1629740143.8763, 42, 0, 4191.282, 4255.385, 4114.872, 4123.59, 4007.692, 0, 0, []
1629740143.8842, 43, 0, 4191.795, 4257.436, 4115.897, 4136.923, 4014.359, 0, 0, []
1629740143.8921, 44, 0, 4205.641, 4251.282, 4118.462, 4153.846, 4026.667, 0, 0, []
1629740143.9001, 45, 0, 4188.718, 4244.615, 4107.692, 4126.667, 4009.744, 0, 0, []
1629740143.908, 46, 0, 4179.487, 4240.513, 4093.333, 4110.769, 3999.487, 0, 0, []
1629740143.916, 47, 0, 4207.179, 4234.872, 4118.974, 4135.385, 4021.026, 0, 0, []
1629740143.9238, 48, 0, 4217.436, 4244.103, 4120, 4142.564, 4035.897, 0, 0, []
1629740143.9318, 49, 0, 4200.513, 4252.821, 4114.359, 4130.256, 4024.615, 0, 0, []
1629740143.9397, 50, 0, 4192.821, 4236.923, 4116.41, 4130.769, 4011.795, 0, 0, []
1629740143.9477, 51, 0, 4186.667, 4231.282, 4100.513, 4127.179, 4003.077, 0, 0, []
1629740143.9556, 52, 0, 4179.487, 4252.821, 4109.744, 4121.026, 4003.077, 0, 0, []
1629740143.9635, 53, 0, 4184.615, 4254.359, 4105.128, 4125.128, 4007.692, 0, 0, []
1629740143.9714, 54, 0, 4184.615, 4228.205, 4098.462, 4120.513, 4003.077, 0, 0, []
1629740143.9792, 55, 0, 4180, 4228.718, 4109.231, 4113.333, 4000.513, 0, 0, []
1629740143.9871, 56, 0, 4187.692, 4242.051, 4104.615, 4122.564, 4003.59, 0, 0, []
1629740143.9949, 57, 0, 4201.026, 4236.41, 4119.487, 4135.385, 4007.179, 0, 0, []
1629740144.0027, 58, 0, 4201.538, 4230.769, 4115.385, 4133.846, 4009.744, 0, 0, []
1629740144.0105, 59, 0, 4194.872, 4236.41, 4094.359, 4128.718, 4005.128, 0, 0, []
1629740144.0184, 60, 0, 4197.436, 4223.59, 4102.051, 4129.231, 3997.436, 0, 0, []
1629740144.0262, 61, 0, 4214.872, 4213.333, 4108.718, 4134.872, 4011.795, 0, 0, []
1629740144.0342, 62, 0, 4233.333, 4238.462, 4130.256, 4151.282, 4034.872, 0, 0, []
1629740144.042, 63, 0, 4226.154, 4236.41, 4117.949, 4149.744, 4020, 0, 0, []
1629740144.05, 64, 0, 4202.051, 4198.462, 4088.718, 4127.179, 3990.256, 450, 0, []
1629740144.0579, 65, 0, 4197.436, 4222.564, 4099.487, 4126.154, 3994.872, 450, 0, []
1629740144.0659, 66, 0, 4211.282, 4266.154, 4090.769, 4141.026, 4006.667, 16193, 0, []
1629740144.0738, 67, 0, 4201.026, 4229.744, 4088.205, 4131.795, 3991.282, 450, 0, []
1629740144.0817, 68, 0, 4182.564, 4211.282, 4096.923, 4118.974, 3981.026, 16117, 0, []
1629740144.0896, 69, 0, 4192.308, 4252.308, 4102.051, 4131.795, 3992.821, 450, 0, []
1629740144.0976, 70, 0, 4191.795, 4234.359, 4105.128, 4123.077, 3984.615, 16094, 0, []
1629740144.1055, 71, 0, 4173.846, 4201.026, 4089.744, 4104.103, 3970.769, 450, 0, []
1629740144.1135, 72, 0, 4183.077, 4225.641, 4116.41, 4120, 3984.103, 450, 0, []
1629740144.1214, 73, 0, 4203.077, 4237.949, 4129.231, 4123.59, 3991.282, 16175, 0, []
1629740144.1291, 74, 0, 4204.615, 4237.436, 4105.641, 4108.718, 3988.718, 450, 0, []
1629740144.137, 75, 0, 4209.231, 4249.744, 4120, 4125.128, 4001.026, 16197, 0, []
1629740144.1448, 76, 0, 4215.385, 4215.897, 4114.872, 4137.436, 4004.615, 450, 0, []
1629740144.1527, 77, 0, 4197.949, 4194.872, 4102.564, 4112.308, 3987.692, 450, 0, []
1629740144.1605, 78, 0, 4192.821, 4233.333, 4108.205, 4106.154, 3990.256, 450, 0, []
1629740144.1683, 79, 0, 4218.462, 4236.41, 4117.949, 4139.487, 4011.795, 16197, 0, []
1629740144.1761, 80, 0, 4220, 4211.795, 4133.333, 4144.615, 4002.564, 450, 0, []
1629740144.1841, 81, 0, 4191.795, 4217.436, 4113.846, 4115.897, 3974.872, 450, 0, []
1629740144.192, 82, 0, 4191.795, 4220.513, 4117.949, 4113.846, 3976.923, 450, 0, []
1629740144.2, 83, 0, 4225.641, 4215.897, 4145.641, 4140, 4008.205, 16197, 0, []
1629740144.2078, 84, 0, 4230.769, 4218.974, 4138.462, 4145.128, 4018.974, 450, 0, []
1629740144.2158, 85, 0, 4206.667, 4216.41, 4142.564, 4134.359, 4000, 450, 0, []
1629740144.2237, 86, 0, 4202.051, 4242.051, 4135.897, 4137.949, 3990.769, 450, 0, []
1629740144.2317, 87, 0, 4203.077, 4257.949, 4125.128, 4130.256, 3993.333, 16197, 0, []
1629740144.2396, 88, 0, 4196.41, 4218.974, 4129.744, 4113.333, 3994.359, 450, 0, []
1629740144.2475, 89, 0, 4206.154, 4222.564, 4127.692, 4126.667, 4000.513, 450, 0, []
1629740144.2554, 90, 0, 4224.103, 4260, 4145.128, 4145.128, 4009.744, 450, 0, []
1629740144.2634, 91, 0, 4221.538, 4249.744, 4129.744, 4138.974, 4014.359, 16197, 0, []
1629740144.2713, 92, 0, 4213.333, 4226.154, 4112.308, 4136.41, 4017.436, 450, 0, []
1629740144.2791, 93, 0, 4223.59, 4221.026, 4134.872, 4146.154, 4021.538, 450, 0, []
1629740144.2869, 94, 0, 4220.513, 4221.538, 4125.641, 4132.308, 4013.846, 450, 0, []
1629740144.2947, 95, 0, 4197.949, 4229.231, 4123.077, 4114.359, 4001.538, 16197, 0, []
1629740144.3026, 96, 0, 4201.026, 4217.436, 4130.256, 4124.615, 4003.59, 450, 0, []
1629740144.3104, 97, 0, 4224.615, 4195.385, 4146.154, 4142.051, 4014.359, 450, 0, []
1629740144.3183, 98, 0, 4231.282, 4221.026, 4165.128, 4149.744, 4029.231, 450, 0, []
1629740144.326, 99, 0, 4211.282, 4238.462, 4127.692, 4133.846, 4027.692, 16197, 0, []
1629740144.3339, 100, 0, 4198.974, 4221.026, 4109.744, 4116.41, 4012.308, 450, 0, []
1629740144.3417, 101, 0, 4228.205, 4253.333, 4128.718, 4140, 4027.692, 450, 0, []
1629740144.3497, 102, 0, 4255.385, 4292.821, 4149.744, 4173.846, 4065.128, 450, 0, []
1629740144.3576, 103, 0, 4238.974, 4250.256, 4156.923, 4169.744, 4061.538, 16197, 0, []
1629740144.3655, 104, 0, 4218.462, 4202.564, 4127.692, 4146.154, 4026.667, 450, 0, []
1629740144.3734, 105, 0, 4212.308, 4234.872, 4127.179, 4127.692, 4013.846, 450, 0, []
1629740144.3814, 106, 0, 4207.692, 4269.744, 4131.795, 4121.538, 4028.718, 450, 0, []
1629740144.3893, 107, 0, 4222.051, 4244.615, 4124.103, 4143.59, 4048.718, 16197, 0, []
1629740144.3973, 108, 0, 4234.359, 4218.974, 4135.897, 4162.051, 4052.821, 450, 0, []
1629740144.4051, 109, 0, 4223.59, 4232.308, 4117.949, 4152.821, 4050.769, 450, 0, []
1629740144.4131, 110, 0, 4212.308, 4241.538, 4105.641, 4152.308, 4054.872, 450, 0, []
1629740144.421, 111, 0, 4208.718, 4221.538, 4106.154, 4163.077, 4055.385, 16197, 0, []
1629740144.4288, 112, 0, 4209.744, 4222.564, 4111.282, 4156.923, 4054.872, 450, 0, []
1629740144.4367, 113, 0, 4210.256, 4240.513, 4133.333, 4144.615, 4056.41, 450, 0, []
1629740144.4444, 114, 0, 4215.897, 4236.41, 4118.462, 4144.615, 4068.205, 450, 0, []
1629740144.4523, 115, 0, 4222.564, 4213.333, 4118.462, 4154.872, 4076.41, 16197, 0, []
1629740144.4601, 116, 0, 4212.821, 4196.923, 4128.205, 4155.897, 4063.077, 450, 0, []
1629740144.468, 117, 0, 4199.487, 4200, 4105.128, 4147.692, 4053.333, 450, 0, []
1629740144.4758, 118, 0, 4208.718, 4206.154, 4103.077, 4141.538, 4063.077, 450, 0, []
1629740144.4837, 119, 0, 4228.718, 4214.359, 4104.615, 4134.872, 4068.718, 16197, 0, []
1629740144.4914, 120, 0, 4232.308, 4222.564, 4119.487, 4127.179, 4066.154, 450, 0, []
1629740144.4993, 121, 0, 4231.282, 4230.256, 4124.615, 4128.718, 4081.026, 450, 0, []
1629740144.5072, 122, 0, 4237.436, 4223.077, 4132.308, 4145.641, 4095.385, 450, 0, []
1629740144.5151, 123, 0, 4246.154, 4204.615, 4134.872, 4159.487, 4093.333, 16197, 0, []
1629740144.5231, 124, 0, 4248.718, 4220.513, 4104.103, 4156.923, 4091.282, 450, 0, []
1629740144.531, 125, 0, 4230.769, 4237.949, 4155.897, 4148.205, 4084.103, 450, 0, []
1629740144.5389, 126, 0, 4216.41, 4225.128, 4108.718, 4140.513, 4072.821, 450, 0, []
1629740144.5469, 127, 0, 4224.615, 4234.872, 4052.308, 4133.333, 4070.769, 16197, 0, []
1629740144.5548, 128, 0, 4229.744, 4257.949, 4155.897, 4131.795, 4077.949, 450, 0, []
1629740144.5628, 0, 0, 4221.026, 4235.385, 4138.462, 4132.821, 4082.051, 450, 0, []
1629740144.5706, 1, 0, 4217.949, 4228.718, 4112.308, 4132.308, 4080, 450, 0, []
1629740144.5784, 2, 0, 4224.615, 4258.974, 4138.974, 4129.231, 4078.974, 16193, 0, []
1629740144.5863, 3, 0, 4214.872, 4228.205, 4114.872, 4123.077, 4077.436, 450, 0, []
1629740144.5943, 4, 0, 4198.462, 4201.538, 4116.41, 4121.026, 4075.385, 16118, 0, []
1629740144.6022, 5, 0, 4200, 4233.333, 4098.974, 4121.538, 4073.333, 450, 0, []
1629740144.6099, 6, 0, 4201.026, 4218.462, 4102.564, 4116.41, 4070.769, 16097, 0, []
1629740144.6178, 7, 0, 4195.385, 4192.308, 4118.974, 4112.308, 4074.359, 450, 0, []
1629740144.6256, 8, 0, 4201.026, 4216.41, 4106.154, 4118.974, 4082.564, 450, 0, []
1629740144.6335, 9, 0, 4208.205, 4223.077, 4106.154, 4127.692, 4082.564, 16175, 0, []
1629740144.6413, 10, 0, 4204.615, 4200.513, 4105.128, 4125.641, 4083.077, 450, 0, []
1629740144.6491, 11, 0, 4204.103, 4189.744, 4107.179, 4124.103, 4091.282, 16202, 0, []
1629740144.6569, 12, 0, 4211.795, 4197.949, 4102.564, 4128.205, 4089.744, 450, 0, []
1629740144.6648, 13, 0, 4217.949, 4215.385, 4085.641, 4122.051, 4081.026, 450, 0, []
1629740144.6726, 14, 0, 4210.256, 4214.359, 4089.744, 4109.231, 4079.487, 450, 0, []
1629740144.6806, 15, 0, 4204.615, 4180, 4091.282, 4107.692, 4090.769, 16202, 0, []
1629740144.6884, 16, 0, 4232.821, 4168.718, 4086.667, 4120.513, 4117.949, 0, 0, []
1629740144.6964, 17, 0, 4281.026, 4209.744, 4105.128, 4132.821, 4152.821, 0, 0, []
1629740144.7043, 18, 0, 4315.897, 4237.436, 4122.564, 4136.41, 4184.615, 0, 0, []
1629740144.7123, 19, 0, 4337.949, 4209.231, 4124.103, 4137.949, 4212.821, 0, 0, []
1629740144.7202, 20, 0, 4360.513, 4194.872, 4114.872, 4137.436, 4232.308, 0, 0, []
1629740144.7281, 21, 0, 4364.103, 4224.615, 4101.538, 4128.205, 4223.59, 0, 0, []
1629740144.736, 22, 0, 4347.179, 4217.949, 4092.821, 4113.846, 4194.359, 0, 0, []
1629740144.7438, 23, 0, 4338.462, 4196.41, 4084.103, 4119.487, 4187.692, 0, 0, []
1629740144.7517, 24, 0, 4324.615, 4218.462, 4098.462, 4141.026, 4191.795, 0, 0, []
1629740144.7595, 25, 0, 4284.615, 4230.256, 4118.462, 4137.949, 4161.538, 0, 0, []
1629740144.7673, 26, 0, 4244.615, 4201.538, 4100.513, 4121.026, 4111.795, 0, 0, []
1629740144.7751, 27, 0, 4230.256, 4201.538, 4098.974, 4128.718, 4087.179, 0, 0, []
1629740144.783, 28, 0, 4208.718, 4245.641, 4128.718, 4136.41, 4077.436, 0, 0, []
1629740144.7908, 29, 0, 4172.308, 4257.436, 4117.436, 4123.077, 4056.41, 0, 0, []
1629740144.7987, 30, 0, 4163.077, 4243.077, 4105.641, 4126.667, 4048.205, 0, 0, []
1629740144.8065, 31, 0, 4175.897, 4265.641, 4126.667, 4143.59, 4064.615, 0, 0, []
1629740144.8143, 32, 0, 4178.462, 4300, 4129.231, 4141.026, 4076.923, 0, 0, []
1629740144.8221, 33, 0, 4182.051, 4307.179, 4122.051, 4136.923, 4082.051, 0, 0, []
1629740144.8301, 34, 0, 4190.256, 4313.333, 4140.513, 4145.128, 4089.744, 0, 0, []
1629740144.838, 35, 0, 4177.949, 4301.538, 4132.308, 4142.564, 4082.564, 0, 0, []
1629740144.846, 36, 0, 4165.641, 4286.154, 4108.718, 4129.231, 4067.692, 0, 0, []
1629740144.8538, 37, 0, 4172.308, 4324.615, 4135.385, 4126.667, 4074.872, 0, 0, []
1629740144.8618, 38, 0, 4165.128, 4336.923, 4123.59, 4121.538, 4079.487, 0, 0, []
1629740144.8697, 39, 0, 4145.128, 4304.615, 4089.231, 4106.667, 4064.103, 0, 0, []
1629740144.8777, 40, 0, 4150.769, 4321.026, 4093.333, 4108.205, 4065.641, 0, 0, []
1629740144.8856, 41, 0, 4161.026, 4345.128, 4092.308, 4114.359, 4078.974, 0, 0, []
1629740144.8934, 42, 0, 4150.256, 4310.769, 4087.179, 4106.154, 4074.872, 0, 0, []
1629740144.9013, 43, 0, 4149.744, 4291.795, 4075.385, 4109.744, 4078.462, 0, 0, []
1629740144.9091, 44, 0, 4161.538, 4328.718, 4086.667, 4120, 4093.846, 0, 0, []
1629740144.917, 45, 0, 4161.538, 4346.667, 4096.923, 4110.769, 4094.872, 0, 0, []
1629740144.9248, 46, 0, 4162.051, 4312.821, 4089.231, 4101.026, 4088.718, 0, 0, []
1629740144.9326, 47, 0, 4171.795, 4292.308, 4109.231, 4114.872, 4100.513, 0, 0, []
1629740144.9404, 48, 0, 4170.769, 4331.795, 4116.41, 4133.333, 4111.795, 0, 0, []
1629740144.9483, 49, 0, 4166.154, 4358.974, 4117.949, 4140, 4109.231, 0, 0, []
1629740144.9561, 50, 0, 4171.282, 4324.103, 4117.436, 4124.615, 4103.077, 0, 0, []
1629740144.9641, 51, 0, 4173.333, 4296.923, 4099.487, 4104.103, 4092.308, 0, 0, []
1629740144.9719, 52, 0, 4167.179, 4315.385, 4096.41, 4108.205, 4078.974, 0, 0, []
1629740144.9799, 53, 0, 4154.872, 4318.974, 4084.615, 4108.718, 4066.667, 0, 0, []
1629740144.9878, 54, 0, 4136.41, 4285.641, 4064.103, 4093.846, 4060, 0, 0, []
1629740144.9958, 55, 0, 4134.872, 4284.615, 4074.359, 4102.564, 4062.564, 0, 0, []
1629740145.0037, 56, 0, 4134.872, 4304.615, 4083.59, 4105.128, 4061.026, 0, 0, []
1629740145.0116, 57, 0, 4125.128, 4300, 4085.128, 4086.154, 4062.051, 0, 0, []
1629740145.0195, 58, 0, 4138.462, 4298.974, 4089.231, 4091.795, 4083.59, 0, 0, []
1629740145.0275, 59, 0, 4147.692, 4286.667, 4087.179, 4101.026, 4090.769, 0, 0, []
1629740145.0354, 60, 0, 4133.846, 4263.59, 4090.256, 4099.487, 4080.513, 0, 0, []
1629740145.0434, 61, 0, 4149.744, 4289.231, 4105.641, 4122.051, 4101.026, 0, 0, []
1629740145.0512, 62, 0, 4176.41, 4313.333, 4115.897, 4137.436, 4127.692, 0, 0, []
1629740145.059, 63, 0, 4163.077, 4274.872, 4103.077, 4121.026, 4123.59, 0, 0, []
1629740145.0669, 64, 0, 4152.821, 4275.897, 4100, 4114.359, 4120, 450, 0, []
1629740145.0747, 65, 0, 4161.538, 4313.333, 4110.769, 4114.872, 4127.692, 450, 0, []
1629740145.0826, 66, 0, 4151.795, 4299.487, 4091.282, 4107.179, 4118.462, 16226, 0, []
1629740145.0903, 67, 0, 4151.282, 4282.564, 4082.051, 4120.513, 4115.385, 450, 0, []
1629740145.0982, 68, 0, 4169.231, 4288.205, 4092.821, 4130.256, 4128.718, 16118, 0, []
1629740145.106, 69, 0, 4172.308, 4283.077, 4091.282, 4122.051, 4141.538, 450, 0, []
1629740145.1139, 70, 0, 4175.385, 4277.949, 4101.026, 4124.615, 4149.744, 16098, 0, []
1629740145.1217, 71, 0, 4182.051, 4281.538, 4104.103, 4115.897, 4145.641, 450, 0, []
1629740145.1296, 72, 0, 4174.872, 4277.436, 4099.487, 4100, 4138.974, 450, 0, []
1629740145.1375, 73, 0, 4175.897, 4262.564, 4107.692, 4107.692, 4145.128, 16175, 0, []
1629740145.1455, 74, 0, 4197.949, 4250.256, 4104.103, 4114.872, 4154.872, 450, 0, []
1629740145.1534, 75, 0, 4202.564, 4269.744, 4100, 4103.59, 4156.923, 16202, 0, []
1629740145.1614, 76, 0, 4195.897, 4301.538, 4106.154, 4108.205, 4163.077, 450, 0, []
1629740145.1693, 77, 0, 4213.846, 4280.513, 4118.462, 4126.667, 4174.359, 450, 0, []
1629740145.1772, 78, 0, 4223.59, 4249.231, 4116.41, 4114.872, 4170.769, 450, 0, []
1629740145.1851, 79, 0, 4202.564, 4262.564, 4094.359, 4088.718, 4160, 16202, 0, []
1629740145.1931, 80, 0, 4204.615, 4284.103, 4111.795, 4107.179, 4169.744, 450, 0, []
1629740145.201, 81, 0, 4232.821, 4282.564, 4142.564, 4141.538, 4195.385, 450, 0, []
1629740145.2088, 82, 0, 4227.692, 4270.256, 4135.897, 4132.821, 4202.564, 450, 0, []
1629740145.2166, 83, 0, 4212.308, 4258.974, 4137.436, 4125.641, 4196.923, 16202, 0, []
1629740145.2244, 84, 0, 4222.564, 4267.179, 4145.641, 4141.538, 4197.436, 450, 0, []
1629740145.2323, 85, 0, 4208.718, 4277.436, 4131.795, 4122.564, 4179.487, 450, 0, []
1629740145.2401, 86, 0, 4193.333, 4268.718, 4123.59, 4106.154, 4171.795, 450, 0, []
1629740145.248, 87, 0, 4232.821, 4273.333, 4146.667, 4145.641, 4208.205, 16202, 0, []
1629740145.2557, 88, 0, 4257.436, 4290.769, 4155.385, 4171.795, 4225.128, 450, 0, []
1629740145.2636, 89, 0, 4227.692, 4286.667, 4132.821, 4147.179, 4198.462, 450, 0, []
1629740145.2714, 90, 0, 4202.051, 4272.821, 4131.282, 4126.154, 4178.462, 450, 0, []
1629740145.2793, 91, 0, 4201.026, 4266.667, 4125.641, 4125.641, 4175.897, 16202, 0, []
1629740145.2871, 92, 0, 4210.769, 4274.872, 4120.513, 4136.41, 4184.615, 450, 0, []
1629740145.295, 93, 0, 4216.923, 4297.436, 4144.103, 4141.026, 4203.59, 450, 0, []
1629740145.3029, 94, 0, 4209.231, 4298.974, 4135.897, 4122.051, 4202.051, 450, 0, []
1629740145.3109, 95, 0, 4208.718, 4281.026, 4125.128, 4121.026, 4192.821, 16202, 0, []
1629740145.3188, 96, 0, 4222.564, 4271.282, 4131.795, 4145.128, 4214.359, 450, 0, []
1629740145.3268, 97, 0, 4219.487, 4274.872, 4122.051, 4146.154, 4238.974, 450, 0, []
1629740145.3346, 98, 0, 4216.41, 4285.128, 4123.077, 4140.513, 4244.615, 450, 0, []
1629740145.3426, 99, 0, 4233.333, 4270.769, 4127.692, 4152.308, 4251.282, 16202, 0, []
1629740145.3505, 100, 0, 4240, 4255.897, 4123.59, 4156.41, 4258.462, 450, 0, []
1629740145.3583, 101, 0, 4223.59, 4277.949, 4117.436, 4148.718, 4256.923, 450, 0, []
1629740145.3662, 102, 0, 4205.641, 4282.051, 4100, 4142.051, 4247.179, 450, 0, []
1629740145.3739, 103, 0, 4195.385, 4266.154, 4095.897, 4126.667, 4238.974, 16202, 0, []
1629740145.3818, 104, 0, 4188.205, 4272.308, 4104.615, 4114.359, 4243.59, 450, 0, []
1629740145.3896, 105, 0, 4189.231, 4270.256, 4113.333, 4122.051, 4255.385, 450, 0, []
1629740145.3975, 106, 0, 4183.077, 4242.051, 4097.949, 4121.538, 4246.154, 450, 0, []
1629740145.4053, 107, 0, 4182.564, 4235.897, 4086.154, 4113.846, 4242.564, 16202, 0, []
1629740145.4131, 108, 0, 4213.846, 4261.026, 4122.564, 4140, 4280, 450, 0, []
1629740145.4209, 109, 0, 4237.949, 4279.487, 4131.795, 4170.256, 4307.179, 450, 0, []
1629740145.4288, 110, 0, 4220, 4275.897, 4103.077, 4157.949, 4282.564, 450, 0, []
1629740145.4366, 111, 0, 4203.077, 4256.923, 4088.718, 4138.974, 4266.667, 16202, 0, []
1629740145.4445, 112, 0, 4205.641, 4256.41, 4075.385, 4139.487, 4278.974, 450, 0, []
1629740145.4522, 113, 0, 4196.923, 4265.128, 4063.59, 4129.231, 4266.667, 450, 0, []
1629740145.4602, 114, 0, 4202.051, 4250.256, 4067.692, 4126.154, 4260.513, 450, 0, []
1629740145.4681, 115, 0, 4228.718, 4244.615, 4094.872, 4154.359, 4297.949, 16202, 0, []
1629740145.4761, 116, 0, 4233.846, 4261.026, 4116.923, 4173.846, 4319.487, 450, 0, []
1629740145.484, 117, 0, 4229.231, 4271.795, 4109.231, 4163.59, 4307.179, 450, 0, []
1629740145.4919, 118, 0, 4236.923, 4257.436, 4108.718, 4154.872, 4304.615, 450, 0, []
1629740145.4998, 119, 0, 4236.41, 4229.744, 4103.59, 4145.128, 4306.154, 16202, 0, []
1629740145.5077, 120, 0, 4222.051, 4214.359, 4086.667, 4121.538, 4293.846, 450, 0, []
1629740145.5156, 121, 0, 4226.154, 4224.103, 4079.487, 4109.744, 4291.282, 450, 0, []
1629740145.5234, 122, 0, 4256.41, 4232.821, 4077.949, 4111.795, 4309.231, 450, 0, []
1629740145.5314, 123, 0, 4287.692, 4226.667, 4096.923, 4111.795, 4337.436, 16202, 0, []
1629740145.5392, 124, 0, 4308.718, 4235.897, 4102.564, 4116.923, 4367.692, 450, 0, []
1629740145.5471, 125, 0, 4331.795, 4240, 4094.359, 4128.718, 4387.179, 450, 0, []
1629740145.5549, 126, 0, 4371.795, 4230.769, 4122.564, 4146.154, 4412.308, 450, 0, []
1629740145.5628, 127, 0, 4394.359, 4242.564, 4139.487, 4153.333, 4433.846, 16202, 0, []
1629740145.5706, 128, 0, 4372.821, 4252.308, 4129.744, 4140, 4419.487, 450, 0, []
1629740145.5784, 0, 0, 4350.769, 4232.821, 4129.744, 4130.769, 4404.103, 450, 0, []
1629740145.5862, 1, 0, 4346.667, 4213.333, 4143.077, 4137.436, 4411.795, 450, 0, []
1629740145.5941, 2, 0, 4333.846, 4212.821, 4150.769, 4137.949, 4399.487, 16198, 0, []
1629740145.6019, 3, 0, 4309.231, 4215.385, 4134.359, 4128.205, 4357.436, 450, 0, []
1629740145.6099, 4, 0, 4288.718, 4217.949, 4122.051, 4127.179, 4329.744, 16118, 0, []
1629740145.6177, 5, 0, 4278.462, 4208.205, 4114.359, 4136.41, 4332.308, 450, 0, []
1629740145.6257, 6, 0, 4266.154, 4198.974, 4103.59, 4140.513, 4331.795, 283, 0, []
1629740145.6336, 7, 0, 4237.949, 4212.821, 4096.41, 4127.692, 4301.026, 450, 0, []
1629740145.6416, 8, 0, 4229.231, 4214.872, 4088.205, 4118.974, 4277.949, 450, 0, []
1629740145.6495, 9, 0, 4265.128, 4222.051, 4122.051, 4146.154, 4309.744, 16127, 0, []
1629740145.6574, 10, 0, 4293.333, 4256.923, 4160.513, 4177.949, 4350.769, 450, 0, []
1629740145.6653, 11, 0, 4288.205, 4270.769, 4161.538, 4182.051, 4354.359, 16202, 0, []
1629740145.6733, 12, 0, 4285.641, 4262.051, 4170.769, 4181.026, 4344.615, 450, 0, []
1629740145.6812, 13, 0, 4278.974, 4265.128, 4160.513, 4166.667, 4326.154, 450, 0, []
1629740145.689, 14, 0, 4249.744, 4247.692, 4128.718, 4125.641, 4295.385, 450, 0, []
1629740145.6968, 15, 0, 4225.641, 4192.821, 4111.795, 4106.667, 4274.872, 16202, 0, []
1629740145.7046, 16, 0, 4229.231, 4198.974, 4105.641, 4129.744, 4273.333, 0, 0, []
1629740145.7125, 17, 0, 4258.974, 4258.974, 4123.077, 4162.564, 4288.205, 0, 0, []
1629740145.7203, 18, 0, 4284.103, 4266.667, 4143.59, 4180.513, 4308.205, 0, 0, []
1629740145.7282, 19, 0, 4276.41, 4250.256, 4156.41, 4177.436, 4316.41, 0, 0, []
1629740145.7359, 20, 0, 4261.026, 4240, 4150.256, 4164.615, 4311.282, 0, 0, []
1629740145.7438, 21, 0, 4266.154, 4224.103, 4125.641, 4152.308, 4302.564, 0, 0, []
1629740145.7516, 22, 0, 4268.718, 4226.667, 4126.667, 4144.103, 4294.872, 0, 0, []
1629740145.7596, 23, 0, 4242.051, 4223.077, 4117.949, 4129.744, 4283.077, 0, 0, []
1629740145.7675, 24, 0, 4213.333, 4191.795, 4099.487, 4120.513, 4262.051, 0, 0, []
1629740145.7754, 25, 0, 4210.256, 4211.282, 4101.026, 4128.718, 4241.538, 0, 0, []
1629740145.7833, 26, 0, 4221.538, 4257.436, 4105.641, 4136.923, 4247.179, 0, 0, []
1629740145.7913, 27, 0, 4232.308, 4231.282, 4121.538, 4141.026, 4272.308, 0, 0, []
1629740145.7992, 28, 0, 4231.795, 4208.205, 4119.487, 4138.462, 4272.821, 0, 0, []
1629740145.8072, 29, 0, 4214.872, 4225.641, 4097.949, 4124.103, 4243.59, 0, 0, []
1629740145.815, 30, 0, 4212.821, 4222.564, 4104.103, 4118.462, 4240, 0, 0, []
1629740145.823, 31, 0, 4245.128, 4224.103, 4136.923, 4141.026, 4283.077, 0, 0, []
1629740145.8309, 32, 0, 4273.333, 4244.103, 4163.59, 4169.744, 4315.385, 0, 0, []
1629740145.8387, 33, 0, 4270.769, 4248.205, 4146.154, 4173.333, 4305.128, 0, 0, []
1629740145.8466, 34, 0, 4254.359, 4237.436, 4128.718, 4151.795, 4283.077, 0, 0, []
1629740145.8544, 35, 0, 4243.59, 4223.59, 4135.385, 4134.872, 4279.487, 0, 0, []
1629740145.8622, 36, 0, 4246.667, 4224.615, 4128.718, 4143.077, 4286.154, 0, 0, []
1629740145.87, 37, 0, 4250.256, 4249.231, 4131.282, 4153.846, 4277.949, 0, 0, []
1629740145.8779, 38, 0, 4239.487, 4252.308, 4128.718, 4150.769, 4267.179, 0, 0, []
1629740145.8857, 39, 0, 4231.795, 4244.615, 4129.231, 4149.231, 4272.821, 0, 0, []
1629740145.8936, 40, 0, 4231.282, 4252.821, 4136.41, 4148.718, 4271.795, 0, 0, []
1629740145.9013, 41, 0, 4222.051, 4236.923, 4116.923, 4136.923, 4247.692, 0, 0, []
1629740145.9092, 42, 0, 4208.205, 4220.513, 4121.538, 4122.564, 4228.718, 0, 0, []
1629740145.917, 43, 0, 4205.128, 4236.41, 4127.179, 4122.051, 4231.795, 0, 0, []
1629740145.925, 44, 0, 4210.769, 4229.744, 4114.359, 4129.231, 4241.538, 0, 0, []
1629740145.9329, 45, 0, 4215.897, 4208.205, 4111.282, 4136.41, 4241.026, 0, 0, []
1629740145.9408, 46, 0, 4216.41, 4221.026, 4103.59, 4142.051, 4238.462, 0, 0, []
1629740145.9487, 47, 0, 4211.795, 4240, 4104.103, 4139.487, 4243.59, 0, 0, []
1629740145.9567, 48, 0, 4211.282, 4244.103, 4097.436, 4132.308, 4242.564, 0, 0, []
1629740145.9646, 49, 0, 4214.359, 4235.897, 4084.103, 4127.692, 4226.154, 0, 0, []
1629740145.9726, 50, 0, 4215.897, 4231.795, 4102.051, 4129.744, 4225.128, 0, 0, []
1629740145.9804, 51, 0, 4217.436, 4256.923, 4112.308, 4135.897, 4241.026, 0, 0, []
1629740145.9884, 52, 0, 4214.872, 4265.128, 4102.051, 4142.051, 4234.872, 0, 0, []
1629740145.9963, 53, 0, 4207.179, 4220.513, 4093.333, 4135.385, 4219.487, 0, 0, []
1629740146.0041, 54, 0, 4198.462, 4197.949, 4086.667, 4118.974, 4223.59, 0, 0, []
1629740146.012, 55, 0, 4204.615, 4215.897, 4097.949, 4125.128, 4233.846, 0, 0, []
1629740146.0197, 56, 0, 4215.897, 4217.436, 4110.256, 4138.462, 4232.821, 0, 0, []
1629740146.0276, 57, 0, 4209.744, 4224.103, 4111.282, 4128.205, 4230.769, 0, 0, []
1629740146.0354, 58, 0, 4194.359, 4244.615, 4111.795, 4115.897, 4230.769, 0, 0, []
1629740146.0433, 59, 0, 4197.436, 4237.949, 4116.923, 4124.615, 4225.641, 0, 0, []
1629740146.0511, 60, 0, 4213.333, 4226.154, 4135.897, 4132.308, 4226.667, 0, 0, []
1629740146.059, 61, 0, 4207.179, 4231.282, 4138.462, 4123.077, 4226.154, 0, 0, []
1629740146.0669, 62, 0, 4183.077, 4210.256, 4117.949, 4113.333, 4208.718, 0, 0, []
1629740146.0749, 63, 0, 4186.667, 4180.513, 4112.308, 4121.538, 4201.538, 0, 0, []
1629740146.0828, 64, 0, 4216.41, 4207.692, 4129.231, 4137.949, 4223.077, 450, 0, []
1629740146.0908, 65, 0, 4227.179, 4255.385, 4144.615, 4149.744, 4242.051, 450, 0, []
1629740146.0986, 66, 0, 4217.949, 4260.513, 4127.179, 4141.538, 4232.308, 16196, 0, []
1629740146.1066, 67, 0, 4207.179, 4243.077, 4110.256, 4116.923, 4211.282, 450, 0, []
1629740146.1145, 68, 0, 4198.974, 4236.923, 4114.872, 4108.205, 4205.128, 16118, 0, []
1629740146.1225, 69, 0, 4194.872, 4228.718, 4107.179, 4116.41, 4203.077, 450, 0, []
1629740146.1304, 70, 0, 4193.333, 4220.513, 4100.513, 4115.385, 4194.359, 16082, 0, []
1629740146.1382, 71, 0, 4198.974, 4246.667, 4111.795, 4117.949, 4206.667, 450, 0, []
1629740146.1461, 72, 0, 4204.615, 4261.538, 4121.026, 4133.333, 4227.692, 450, 0, []
1629740146.1539, 73, 0, 4177.436, 4217.436, 4090.769, 4110.769, 4195.385, 16166, 0, []
1629740146.1618, 74, 0, 4158.462, 4204.615, 4060.513, 4074.359, 4159.487, 450, 0, []
1629740146.1696, 75, 0, 4204.103, 4257.436, 4104.615, 4108.205, 4206.154, 16202, 0, []
1629740146.1774, 76, 0, 4246.667, 4278.974, 4141.026, 4153.846, 4254.359, 450, 0, []
1629740146.1852, 77, 0, 4227.179, 4248.205, 4116.923, 4134.359, 4227.692, 450, 0, []
1629740146.1931, 78, 0, 4214.872, 4226.154, 4118.462, 4117.436, 4212.821, 450, 0, []
1629740146.2009, 79, 0, 4229.231, 4224.615, 4144.615, 4142.564, 4240, 16202, 0, []
1629740146.2089, 80, 0, 4223.59, 4224.103, 4138.974, 4161.026, 4237.949, 450, 0, []
1629740146.2168, 81, 0, 4214.359, 4227.692, 4118.974, 4162.564, 4216.923, 450, 0, []
1629740146.2247, 82, 0, 4215.897, 4244.615, 4109.744, 4154.359, 4210.769, 450, 0, []
1629740146.2326, 83, 0, 4209.231, 4254.359, 4107.692, 4134.359, 4203.59, 16202, 0, []
1629740146.2406, 84, 0, 4210.256, 4230.769, 4105.128, 4123.077, 4197.436, 450, 0, []
1629740146.2485, 85, 0, 4216.41, 4220.513, 4109.744, 4110.256, 4200.513, 450, 0, []
1629740146.2565, 86, 0, 4207.692, 4244.103, 4116.41, 4098.462, 4204.615, 450, 0, []
1629740146.2643, 87, 0, 4197.436, 4215.385, 4106.154, 4105.128, 4200.513, 16202, 0, []
1629740146.2723, 88, 0, 4200, 4171.795, 4099.487, 4129.744, 4195.897, 450, 0, []
1629740146.2802, 89, 0, 4207.179, 4207.179, 4107.692, 4158.974, 4208.718, 450, 0, []
1629740146.2881, 90, 0, 4213.333, 4245.641, 4116.923, 4176.41, 4225.641, 450, 0, []
1629740146.296, 91, 0, 4215.897, 4234.359, 4114.359, 4165.128, 4222.051, 16202, 0, []
1629740146.3037, 92, 0, 4222.564, 4228.205, 4115.385, 4148.718, 4220.513, 450, 0, []
1629740146.3116, 93, 0, 4233.333, 4248.718, 4133.846, 4153.846, 4236.923, 450, 0, []
1629740146.3194, 94, 0, 4235.385, 4240.513, 4130.256, 4157.436, 4243.077, 450, 0, []
1629740146.3273, 95, 0, 4229.744, 4201.026, 4121.538, 4152.821, 4234.872, 16202, 0, []
1629740146.3351, 96, 0, 4216.923, 4188.205, 4125.641, 4158.462, 4229.231, 450, 0, []
1629740146.343, 97, 0, 4201.538, 4199.487, 4121.026, 4163.59, 4226.154, 450, 0, []
1629740146.3509, 98, 0, 4211.795, 4205.128, 4131.282, 4165.128, 4229.231, 450, 0, []
1629740146.3589, 99, 0, 4234.872, 4222.564, 4138.974, 4157.949, 4236.923, 16202, 0, []
1629740146.3668, 100, 0, 4228.205, 4254.872, 4124.615, 4132.308, 4230.256, 450, 0, []
1629740146.3748, 101, 0, 4210.769, 4258.462, 4116.41, 4108.205, 4214.872, 450, 0, []
1629740146.3826, 102, 0, 4200, 4230.769, 4105.641, 4091.282, 4201.026, 450, 0, []
1629740146.3906, 103, 0, 4176.923, 4214.359, 4096.923, 4096.923, 4188.205, 16202, 0, []
1629740146.3985, 104, 0, 4174.359, 4216.923, 4107.692, 4143.59, 4194.359, 450, 0, []
1629740146.4065, 105, 0, 4222.051, 4231.282, 4130.769, 4189.744, 4231.795, 450, 0, []
1629740146.4144, 106, 0, 4266.667, 4246.154, 4143.077, 4199.487, 4271.795, 450, 0, []
1629740146.4223, 107, 0, 4265.641, 4233.846, 4131.282, 4184.615, 4283.077, 16202, 0, []
1629740146.4302, 108, 0, 4263.077, 4223.077, 4129.231, 4171.795, 4274.872, 450, 0, []
1629740146.4382, 109, 0, 4271.282, 4252.821, 4128.205, 4160.513, 4258.462, 450, 0, []
1629740146.4461, 110, 0, 4254.872, 4253.333, 4104.103, 4137.949, 4236.41, 450, 0, []
1629740146.4541, 111, 0, 4229.231, 4212.308, 4084.615, 4117.949, 4230.769, 16202, 0, []
1629740146.4619, 112, 0, 4230.256, 4213.333, 4095.385, 4127.692, 4240, 450, 0, []
1629740146.4697, 113, 0, 4247.692, 4239.487, 4131.282, 4157.949, 4247.692, 450, 0, []
1629740146.4776, 114, 0, 4255.385, 4221.026, 4154.872, 4169.231, 4257.436, 450, 0, []
1629740146.4854, 115, 0, 4252.821, 4213.333, 4157.436, 4168.718, 4269.231, 16202, 0, []
1629740146.4933, 116, 0, 4252.821, 4252.308, 4158.462, 4171.282, 4272.821, 450, 0, []
1629740146.501, 117, 0, 4254.872, 4268.205, 4155.385, 4161.538, 4263.59, 450, 0, []
1629740146.5089, 118, 0, 4242.051, 4251.282, 4148.718, 4138.974, 4249.744, 450, 0, []
1629740146.5168, 119, 0, 4225.128, 4235.385, 4130.256, 4125.128, 4238.462, 16202, 0, []
1629740146.5247, 120, 0, 4210.769, 4218.462, 4096.923, 4116.923, 4220.513, 450, 0, []
1629740146.5325, 121, 0, 4199.487, 4213.333, 4083.59, 4111.795, 4206.667, 450, 0, []
1629740146.5404, 122, 0, 4209.744, 4227.179, 4097.949, 4127.179, 4218.974, 450, 0, []
1629740146.5483, 123, 0, 4234.359, 4218.974, 4116.41, 4156.923, 4238.974, 16202, 0, []
1629740146.5563, 124, 0, 4235.385, 4192.308, 4117.949, 4161.538, 4235.897, 450, 0, []
1629740146.5642, 125, 0, 4214.872, 4206.154, 4106.667, 4143.077, 4225.128, 450, 0, []
1629740146.5722, 126, 0, 4203.077, 4221.538, 4110.256, 4137.436, 4223.077, 450, 0, []
1629740146.5801, 127, 0, 4199.487, 4193.846, 4111.282, 4138.462, 4211.795, 16202, 0, []
1629740146.588, 128, 0, 4218.974, 4200.513, 4108.718, 4144.103, 4220, 450, 0, []
1629740146.5959, 0, 0, 4251.795, 4245.641, 4124.103, 4166.667, 4252.308, 450, 0, []
1629740146.6037, 1, 0, 4243.59, 4250.256, 4121.026, 4168.205, 4248.205, 450, 0, []
1629740146.6116, 2, 0, 4215.385, 4242.051, 4106.154, 4144.615, 4212.308, 16196, 0, []
1629740146.6194, 3, 0, 4215.385, 4259.487, 4110.769, 4136.41, 4209.231, 450, 0, []
1629740146.6272, 4, 0, 4213.333, 4250.769, 4118.462, 4138.974, 4218.462, 16118, 0, []
1629740146.635, 5, 0, 4198.462, 4218.974, 4114.359, 4135.897, 4207.692, 450, 0, []
1629740146.6429, 6, 0, 4204.615, 4215.897, 4108.718, 4134.872, 4202.564, 16090, 0, []
1629740146.6507, 7, 0, 4210.256, 4235.897, 4112.308, 4132.308, 4205.641, 450, 0, []
1629740146.6586, 8, 0, 4209.231, 4245.128, 4112.821, 4133.333, 4209.744, 450, 0, []
1629740146.6663, 9, 0, 4214.872, 4224.615, 4106.667, 4127.179, 4210.769, 16167, 0, []
1629740146.6742, 10, 0, 4231.282, 4207.179, 4117.436, 4125.641, 4220, 450, 0, []
1629740146.682, 11, 0, 4252.821, 4227.179, 4141.026, 4153.333, 4250.256, 16201, 0, []
1629740146.6899, 12, 0, 4261.026, 4261.538, 4162.051, 4181.538, 4268.718, 450, 0, []
1629740146.6977, 13, 0, 4259.487, 4271.795, 4157.949, 4184.103, 4255.385, 450, 0, []
1629740146.7056, 14, 0, 4256.41, 4255.897, 4133.846, 4170.256, 4239.487, 450, 0, []
1629740146.7135, 15, 0, 4256.41, 4227.179, 4117.949, 4152.308, 4245.128, 16201, 0, []
1629740146.7215, 16, 0, 4251.282, 4216.923, 4110.769, 4139.487, 4247.179, 0, 0, []
1629740146.7294, 17, 0, 4246.667, 4244.615, 4111.795, 4141.538, 4235.385, 0, 0, []
1629740146.7374, 18, 0, 4256.923, 4260, 4115.385, 4145.128, 4238.974, 0, 0, []
1629740146.7452, 19, 0, 4282.564, 4247.692, 4126.667, 4149.231, 4270.769, 0, 0, []
1629740146.7532, 20, 0, 4309.744, 4229.744, 4146.154, 4164.103, 4303.077, 0, 0, []
1629740146.7611, 21, 0, 4329.744, 4214.359, 4142.564, 4170.256, 4320.513, 0, 0, []
1629740146.7691, 22, 0, 4352.308, 4223.077, 4133.846, 4165.641, 4335.385, 0, 0, []
1629740146.777, 23, 0, 4349.231, 4243.077, 4128.205, 4150.769, 4328.718, 0, 0, []
1629740146.7847, 24, 0, 4309.744, 4228.718, 4112.821, 4124.615, 4296.41, 0, 0, []
1629740146.7926, 25, 0, 4293.333, 4219.487, 4120, 4125.641, 4289.744, 0, 0, []
1629740146.8004, 26, 0, 4310.769, 4259.487, 4138.462, 4160.513, 4302.564, 0, 0, []
1629740146.8083, 27, 0, 4307.179, 4279.487, 4141.026, 4174.872, 4282.051, 0, 0, []
1629740146.8161, 28, 0, 4264.103, 4248.205, 4129.744, 4147.692, 4243.077, 0, 0, []
1629740146.824, 29, 0, 4226.154, 4235.897, 4114.359, 4125.641, 4225.128, 0, 0, []
1629740146.8319, 30, 0, 4218.462, 4235.897, 4105.641, 4128.205, 4210.256, 0, 0, []
1629740146.8399, 31, 0, 4213.846, 4213.846, 4097.436, 4121.538, 4187.179, 0, 0, []
1629740146.8478, 32, 0, 4209.744, 4223.59, 4103.59, 4116.923, 4194.872, 0, 0, []
1629740146.8558, 33, 0, 4226.154, 4250.769, 4132.821, 4147.692, 4221.538, 0, 0, []
1629740146.8636, 34, 0, 4239.487, 4232.821, 4149.744, 4172.308, 4221.026, 0, 0, []
1629740146.8716, 35, 0, 4221.026, 4230.256, 4144.615, 4151.282, 4202.051, 0, 0, []
1629740146.8795, 36, 0, 4197.949, 4249.231, 4135.897, 4130.256, 4190.769, 0, 0, []
1629740146.8875, 37, 0, 4205.128, 4235.897, 4145.641, 4142.051, 4189.231, 0, 0, []
1629740146.8954, 38, 0, 4214.359, 4232.821, 4156.41, 4151.282, 4185.641, 0, 0, []
1629740146.9033, 39, 0, 4198.462, 4241.538, 4128.718, 4130.769, 4170.256, 0, 0, []
1629740146.9112, 40, 0, 4190.769, 4221.538, 4109.744, 4123.59, 4164.615, 0, 0, []
1629740146.919, 41, 0, 4203.077, 4218.462, 4129.744, 4144.615, 4176.923, 0, 0, []
1629740146.9269, 42, 0, 4205.641, 4237.436, 4145.128, 4150.769, 4179.487, 0, 0, []
1629740146.9347, 43, 0, 4195.385, 4233.333, 4141.538, 4153.846, 4173.846, 0, 0, []
1629740146.9426, 44, 0, 4187.179, 4225.641, 4121.026, 4155.385, 4161.538, 0, 0, []
1629740146.9503, 45, 0, 4165.641, 4230.769, 4095.897, 4125.128, 4128.718, 0, 0, []
1629740146.9582, 46, 0, 4138.462, 4235.385, 4073.846, 4091.282, 4105.641, 0, 0, []
1629740146.966, 47, 0, 4136.41, 4227.692, 4069.231, 4087.692, 4113.333, 0, 0, []
1629740146.9739, 48, 0, 4155.897, 4208.718, 4092.308, 4093.333, 4131.795, 0, 0, []
1629740146.9817, 49, 0, 4169.231, 4206.154, 4113.846, 4100, 4146.154, 0, 0, []
1629740146.9896, 50, 0, 4171.282, 4212.821, 4127.179, 4128.205, 4154.872, 0, 0, []
1629740146.9975, 51, 0, 4175.897, 4225.641, 4133.846, 4153.846, 4156.41, 0, 0, []
1629740147.0055, 52, 0, 4168.718, 4234.872, 4115.897, 4145.641, 4148.718, 0, 0, []
1629740147.0134, 53, 0, 4155.385, 4211.795, 4091.282, 4125.128, 4141.026, 0, 0, []
1629740147.0214, 54, 0, 4162.564, 4194.359, 4085.128, 4110.769, 4141.026, 0, 0, []
1629740147.0292, 55, 0, 4181.538, 4226.154, 4100.513, 4096.923, 4152.308, 0, 0, []
1629740147.0372, 56, 0, 4201.538, 4251.795, 4124.103, 4088.205, 4167.692, 0, 0, []
1629740147.0451, 57, 0, 4198.974, 4222.051, 4131.282, 4076.41, 4154.359, 0, 0, []
1629740147.0531, 58, 0, 4168.205, 4209.231, 4114.872, 4065.641, 4127.692, 0, 0, []
1629740147.061, 59, 0, 4152.821, 4234.359, 4085.128, 4080, 4126.154, 0, 0, []
1629740147.0687, 60, 0, 4168.205, 4228.718, 4078.462, 4115.897, 4130.256, 0, 0, []
1629740147.0766, 61, 0, 4173.333, 4199.487, 4092.821, 4136.41, 4126.667, 0, 0, []
1629740147.0844, 62, 0, 4162.564, 4201.538, 4102.564, 4136.923, 4133.846, 0, 0, []
1629740147.0923, 63, 0, 4169.231, 4221.026, 4116.923, 4134.872, 4140, 0, 0, []
1629740147.1001, 64, 0, 4174.872, 4214.359, 4117.436, 4121.538, 4132.308, 450, 0, []
1629740147.1079, 65, 0, 4170.256, 4205.128, 4107.692, 4110.256, 4132.308, 450, 0, []
1629740147.1157, 66, 0, 4170.769, 4204.103, 4108.718, 4117.949, 4137.949, 16192, 0, []
1629740147.1236, 67, 0, 4170.769, 4193.846, 4107.692, 4121.538, 4137.949, 450, 0, []
1629740147.1314, 68, 0, 4164.103, 4198.462, 4106.667, 4115.897, 4136.923, 16118, 0, []
1629740147.1393, 69, 0, 4144.103, 4199.487, 4102.051, 4108.718, 4118.462, 450, 0, []
1629740147.147, 70, 0, 4114.872, 4183.59, 4091.282, 4099.487, 4092.821, 16090, 0, []
1629740147.155, 71, 0, 4121.026, 4198.462, 4098.974, 4108.205, 4106.667, 450, 0, []
1629740147.1629, 72, 0, 4161.026, 4220.513, 4118.974, 4128.205, 4139.487, 450, 0, []
1629740147.1709, 73, 0, 4177.949, 4204.103, 4127.179, 4132.308, 4149.744, 16167, 0, []
1629740147.1788, 74, 0, 4177.436, 4198.974, 4117.949, 4131.795, 4153.333, 450, 0, []
1629740147.1867, 75, 0, 4185.641, 4218.462, 4112.308, 4134.872, 4162.051, 16201, 0, []
1629740147.1946, 76, 0, 4178.974, 4211.795, 4108.718, 4140, 4163.077, 450, 0, []
1629740147.2026, 77, 0, 4158.462, 4207.179, 4095.385, 4144.615, 4151.795, 450, 0, []
1629740147.2105, 78, 0, 4139.487, 4213.846, 4096.41, 4128.205, 4126.154, 450, 0, []
1629740147.2185, 79, 0, 4133.846, 4193.333, 4107.692, 4120, 4121.026, 16201, 0, []
1629740147.2263, 80, 0, 4167.692, 4206.667, 4120, 4155.897, 4158.462, 450, 0, []
1629740147.2341, 81, 0, 4197.436, 4260, 4125.641, 4174.359, 4176.41, 450, 0, []
1629740147.242, 82, 0, 4168.205, 4244.615, 4102.564, 4136.41, 4146.154, 450, 0, []
1629740147.2498, 83, 0, 4147.692, 4216.41, 4088.718, 4121.026, 4135.385, 16201, 0, []
1629740147.2577, 84, 0, 4172.308, 4233.846, 4107.179, 4142.564, 4154.359, 450, 0, []
1629740147.2655, 85, 0, 4170.769, 4205.128, 4114.872, 4137.436, 4154.359, 450, 0, []
1629740147.2733, 86, 0, 4145.641, 4160, 4113.333, 4123.59, 4143.077, 450, 0, []
1629740147.2811, 87, 0, 4147.179, 4182.564, 4116.923, 4127.692, 4136.41, 16201, 0, []
1629740147.289, 88, 0, 4151.282, 4202.051, 4113.333, 4124.615, 4132.308, 450, 0, []
1629740147.2968, 89, 0, 4138.462, 4175.897, 4098.462, 4109.744, 4126.667, 450, 0, []
1629740147.3047, 90, 0, 4131.282, 4183.59, 4078.462, 4094.872, 4116.41, 450, 0, []
1629740147.3124, 91, 0, 4137.949, 4216.41, 4070.256, 4088.205, 4123.077, 16201, 0, []
1629740147.3204, 92, 0, 4146.154, 4222.564, 4071.795, 4087.692, 4145.641, 450, 0, []
1629740147.3283, 93, 0, 4151.795, 4213.333, 4081.026, 4094.359, 4147.692, 450, 0, []
1629740147.3363, 94, 0, 4156.41, 4203.077, 4092.821, 4104.615, 4141.026, 450, 0, []
1629740147.3442, 95, 0, 4161.538, 4192.308, 4095.897, 4116.41, 4149.744, 16201, 0, []
1629740147.3521, 96, 0, 4163.077, 4187.179, 4097.949, 4127.179, 4154.872, 450, 0, []
1629740147.36, 97, 0, 4162.051, 4184.615, 4094.872, 4129.231, 4157.949, 450, 0, []
1629740147.368, 98, 0, 4167.692, 4165.641, 4087.692, 4132.821, 4168.205, 450, 0, []
1629740147.3759, 99, 0, 4170.256, 4155.897, 4081.538, 4135.897, 4158.462, 16201, 0, []
1629740147.3837, 100, 0, 4159.487, 4172.821, 4064.103, 4118.462, 4137.436, 450, 0, []
1629740147.3915, 101, 0, 4150.256, 4189.744, 4056.923, 4097.436, 4132.308, 450, 0, []
1629740147.3993, 102, 0, 4149.744, 4196.923, 4063.59, 4089.231, 4120, 450, 0, []
1629740147.4072, 103, 0, 4146.154, 4213.333, 4067.692, 4080.513, 4102.051, 16201, 0, []
1629740147.415, 104, 0, 4145.641, 4227.179, 4073.333, 4080, 4107.179, 450, 0, []
1629740147.4229, 105, 0, 4153.846, 4219.487, 4074.872, 4099.487, 4116.923, 450, 0, []
1629740147.4306, 106, 0, 4157.436, 4220, 4082.564, 4112.308, 4119.487, 450, 0, []
1629740147.4385, 107, 0, 4145.641, 4221.538, 4083.59, 4100.513, 4111.282, 16201, 0, []
1629740147.4463, 108, 0, 4129.744, 4202.564, 4057.949, 4080.513, 4089.744, 450, 0, []
1629740147.4543, 109, 0, 4133.846, 4194.359, 4041.026, 4077.949, 4097.436, 450, 0, []
1629740147.4622, 110, 0, 4154.359, 4208.205, 4050.769, 4090.769, 4131.282, 450, 0, []
1629740147.4701, 111, 0, 4177.436, 4210.769, 4082.051, 4105.641, 4140.513, 16201, 0, []
1629740147.478, 112, 0, 4198.462, 4222.051, 4112.308, 4122.051, 4145.641, 450, 0, []
1629740147.486, 113, 0, 4195.385, 4257.949, 4115.385, 4132.821, 4163.59, 450, 0, []
1629740147.4939, 114, 0, 4176.41, 4244.615, 4105.128, 4131.282, 4154.359, 450, 0, []
1629740147.5018, 115, 0, 4173.333, 4208.718, 4092.821, 4115.385, 4134.359, 16201, 0, []
1629740147.5096, 116, 0, 4174.359, 4218.974, 4086.154, 4098.462, 4140, 450, 0, []
1629740147.5175, 117, 0, 4156.923, 4230.256, 4074.872, 4080.513, 4132.821, 450, 0, []
1629740147.5254, 118, 0, 4142.051, 4209.231, 4055.385, 4062.051, 4104.103, 450, 0, []
1629740147.5334, 119, 0, 4148.718, 4213.846, 4060, 4077.436, 4107.692, 16201, 0, []
1629740147.5413, 120, 0, 4162.564, 4242.564, 4075.385, 4114.872, 4131.795, 450, 0, []
1629740147.549, 121, 0, 4171.282, 4243.59, 4082.564, 4125.128, 4134.872, 450, 0, []
1629740147.5569, 122, 0, 4169.744, 4233.846, 4094.872, 4112.821, 4129.231, 450, 0, []
1629740147.5647, 123, 0, 4168.718, 4233.846, 4109.744, 4115.385, 4133.846, 16201, 0, []
1629740147.5726, 124, 0, 4178.974, 4249.744, 4126.154, 4128.205, 4143.59, 450, 0, []
1629740147.5804, 125, 0, 4174.359, 4247.179, 4129.744, 4126.154, 4143.59, 450, 0, []
1629740147.5882, 126, 0, 4156.41, 4227.179, 4115.897, 4122.051, 4130.256, 450, 0, []
1629740147.596, 127, 0, 4153.846, 4241.026, 4105.128, 4126.154, 4115.897, 16201, 0, []
1629740147.604, 128, 0, 4151.795, 4243.59, 4106.154, 4123.59, 4112.308, 450, 0, []
1629740147.6119, 0, 0, 4143.077, 4221.026, 4112.308, 4108.205, 4108.205, 450, 0, []
1629740147.6198, 1, 0, 4135.897, 4218.974, 4098.974, 4086.154, 4087.692, 450, 0, []
1629740147.6276, 2, 0, 4132.821, 4234.359, 4103.59, 4080.513, 4078.974, 16192, 0, []
1629740147.6355, 3, 0, 4143.59, 4241.538, 4123.59, 4098.974, 4098.974, 450, 0, []
1629740147.6434, 4, 0, 4155.897, 4228.718, 4111.282, 4106.667, 4114.872, 16118, 0, []
1629740147.6514, 5, 0, 4156.41, 4205.641, 4101.538, 4105.128, 4117.949, 450, 0, []
1629740147.6593, 6, 0, 4160.513, 4218.462, 4101.026, 4117.949, 4124.103, 16090, 0, []
1629740147.6673, 7, 0, 4181.026, 4244.615, 4104.103, 4129.744, 4140, 450, 0, []
1629740147.6751, 8, 0, 4202.564, 4213.846, 4110.256, 4132.821, 4167.179, 450, 0, []
1629740147.6831, 9, 0, 4204.103, 4196.923, 4095.385, 4123.077, 4174.359, 16173, 0, []
1629740147.691, 10, 0, 4189.744, 4218.974, 4072.308, 4090.769, 4146.154, 450, 0, []
1629740147.6988, 11, 0, 4207.179, 4207.179, 4075.385, 4084.615, 4157.436, 16212, 0, []
1629740147.7067, 12, 0, 4266.154, 4218.974, 4109.231, 4128.718, 4225.641, 450, 0, []
1629740147.7144, 13, 0, 4312.821, 4252.821, 4117.436, 4149.744, 4266.154, 450, 0, []
1629740147.7223, 14, 0, 4327.692, 4226.154, 4082.564, 4127.179, 4268.205, 450, 0, []
1629740147.7301, 15, 0, 4341.026, 4200.513, 4073.846, 4121.026, 4280.513, 16212, 0, []
1629740147.738, 16, 0, 4356.923, 4223.077, 4095.385, 4132.821, 4296.41, 0, 0, []
1629740147.7458, 17, 0, 4353.846, 4243.59, 4102.051, 4129.744, 4294.872, 0, 0, []
1629740147.7536, 18, 0, 4340, 4251.282, 4102.564, 4130.256, 4284.103, 0, 0, []
1629740147.7614, 19, 0, 4325.128, 4241.026, 4097.949, 4135.897, 4266.667, 0, 0, []
1629740147.7694, 20, 0, 4305.641, 4205.641, 4089.231, 4131.282, 4250.256, 0, 0, []
1629740147.7773, 21, 0, 4280, 4203.59, 4091.795, 4126.154, 4240.513, 0, 0, []
1629740147.7853, 22, 0, 4256.923, 4224.615, 4101.538, 4126.154, 4224.103, 0, 0, []
1629740147.7931, 23, 0, 4251.795, 4219.487, 4112.308, 4131.282, 4209.744, 0, 0, []
1629740147.8011, 24, 0, 4250.769, 4228.718, 4108.205, 4130.256, 4201.538, 0, 0, []
1629740147.809, 25, 0, 4234.359, 4249.231, 4100, 4114.359, 4192.308, 0, 0, []
1629740147.817, 26, 0, 4217.949, 4246.154, 4104.103, 4114.872, 4185.641, 0, 0, []
1629740147.8249, 27, 0, 4214.359, 4240, 4099.487, 4134.359, 4177.436, 0, 0, []
1629740147.8328, 28, 0, 4202.051, 4233.333, 4088.205, 4132.308, 4161.026, 0, 0, []
1629740147.8407, 29, 0, 4182.564, 4200, 4085.641, 4118.974, 4152.308, 0, 0, []
1629740147.8487, 30, 0, 4192.308, 4181.026, 4109.231, 4129.231, 4164.103, 0, 0, []
1629740147.8566, 31, 0, 4212.821, 4223.59, 4138.462, 4139.487, 4175.897, 0, 0, []
1629740147.8644, 32, 0, 4197.436, 4242.051, 4127.692, 4111.282, 4164.103, 0, 0, []
1629740147.8722, 33, 0, 4177.949, 4209.744, 4109.231, 4089.744, 4149.231, 0, 0, []
1629740147.88, 34, 0, 4200, 4222.051, 4114.359, 4113.846, 4164.103, 0, 0, []
1629740147.8879, 35, 0, 4215.897, 4266.667, 4121.026, 4136.41, 4181.026, 0, 0, []
1629740147.8957, 36, 0, 4194.872, 4260, 4107.692, 4134.872, 4167.692, 0, 0, []
1629740147.9036, 37, 0, 4186.154, 4238.462, 4094.359, 4138.462, 4153.846, 0, 0, []
1629740147.9113, 38, 0, 4192.821, 4248.205, 4108.718, 4147.692, 4158.974, 0, 0, []
1629740147.9193, 39, 0, 4171.795, 4224.103, 4109.231, 4128.718, 4150.769, 0, 0, []
1629740147.9272, 40, 0, 4147.692, 4201.026, 4089.744, 4101.026, 4129.231, 0, 0, []
1629740147.9352, 41, 0, 4152.821, 4234.872, 4089.744, 4096.41, 4124.103, 0, 0, []
1629740147.9431, 42, 0, 4158.974, 4254.359, 4097.436, 4096.923, 4133.333, 0, 0, []
1629740147.951, 43, 0, 4166.667, 4245.128, 4105.128, 4105.641, 4150.256, 0, 0, []
1629740147.9589, 44, 0, 4181.538, 4244.615, 4107.692, 4116.923, 4162.564, 0, 0, []
1629740147.9669, 45, 0, 4180, 4236.41, 4104.615, 4121.538, 4159.487, 0, 0, []
1629740147.9748, 46, 0, 4171.795, 4221.026, 4112.821, 4127.179, 4163.077, 0, 0, []
1629740147.9828, 47, 0, 4171.282, 4221.538, 4112.821, 4123.59, 4164.615, 0, 0, []
1629740147.9907, 48, 0, 4170.256, 4219.487, 4100.513, 4109.231, 4154.872, 0, 0, []
1629740147.9986, 49, 0, 4165.128, 4225.128, 4090.256, 4105.128, 4155.897, 0, 0, []
1629740148.0065, 50, 0, 4163.077, 4226.667, 4083.59, 4107.692, 4158.462, 0, 0, []
1629740148.0143, 51, 0, 4167.179, 4207.692, 4091.282, 4108.205, 4160.513, 0, 0, []
1629740148.0222, 52, 0, 4190.256, 4224.615, 4108.205, 4121.026, 4191.795, 0, 0, []
1629740148.03, 53, 0, 4230.256, 4257.436, 4121.538, 4145.128, 4234.359, 0, 0, []
1629740148.0378, 54, 0, 4258.462, 4241.538, 4115.385, 4149.231, 4247.179, 0, 0, []
1629740148.0456, 55, 0, 4277.949, 4220, 4106.667, 4140, 4266.154, 0, 0, []
1629740148.0535, 56, 0, 4303.077, 4225.641, 4114.872, 4143.59, 4305.641, 0, 0, []
1629740148.0613, 57, 0, 4317.949, 4212.308, 4103.59, 4139.487, 4315.897, 0, 0, []
1629740148.0693, 58, 0, 4328.718, 4213.333, 4093.333, 4131.282, 4315.897, 0, 0, []
1629740148.0771, 59, 0, 4359.487, 4248.205, 4115.897, 4147.179, 4346.154, 0, 0, []
1629740148.0851, 60, 0, 4389.231, 4257.436, 4136.923, 4172.308, 4377.949, 0, 0, []
1629740148.093, 61, 0, 4384.103, 4234.872, 4137.949, 4173.333, 4380.513, 0, 0, []
1629740148.101, 62, 0, 4368.205, 4208.205, 4124.615, 4153.333, 4377.949, 0, 0, []
1629740148.1089, 63, 0, 4372.821, 4213.846, 4126.154, 4147.179, 4390.769, 0, 0, []
1629740148.1168, 64, 0, 4392.308, 4256.41, 4139.487, 4164.615, 4409.744, 450, 0, []
1629740148.1247, 65, 0, 4397.436, 4267.179, 4130.256, 4172.821, 4416.923, 450, 0, []
1629740148.1327, 66, 0, 4390.769, 4229.744, 4121.538, 4163.077, 4416.923, 16190, 0, []
1629740148.1406, 67, 0, 4395.385, 4224.615, 4134.359, 4166.667, 4428.718, 450, 0, []
1629740148.1484, 68, 0, 4409.744, 4258.462, 4148.718, 4182.564, 4448.205, 16118, 0, []
1629740148.1562, 69, 0, 4415.385, 4248.718, 4152.821, 4181.026, 4455.385, 450, 0, []
1629740148.164, 70, 0, 4399.487, 4208.718, 4149.744, 4163.59, 4443.59, 16093, 0, []
1629740148.1719, 71, 0, 4378.974, 4221.538, 4145.641, 4157.949, 4422.564, 450, 0, []
1629740148.1797, 72, 0, 4371.795, 4255.897, 4133.333, 4152.821, 4403.077, 450, 0, []
1629740148.1876, 73, 0, 4381.538, 4252.821, 4129.744, 4142.564, 4402.564, 16175, 0, []
1629740148.1953, 74, 0, 4397.949, 4240, 4155.897, 4168.718, 4422.051, 450, 0, []
1629740148.2032, 75, 0, 4405.128, 4251.282, 4172.308, 4198.974, 4430.256, 16213, 0, []
1629740148.211, 76, 0, 4400.513, 4252.821, 4164.615, 4186.667, 4420.513, 450, 0, []
1629740148.2189, 77, 0, 4382.564, 4227.179, 4160, 4168.205, 4404.103, 450, 0, []
1629740148.2267, 78, 0, 4353.846, 4233.846, 4168.718, 4172.821, 4382.564, 450, 0, []
1629740148.2346, 79, 0, 4336.41, 4266.154, 4170.256, 4176.41, 4357.436, 16213, 0, []
1629740148.2425, 80, 0, 4325.641, 4254.359, 4145.128, 4172.308, 4329.744, 450, 0, []
1629740148.2505, 81, 0, 4303.077, 4234.872, 4136.923, 4174.359, 4310.256, 450, 0, []
1629740148.2584, 82, 0, 4286.667, 4260, 4162.051, 4186.667, 4310.769, 450, 0, []
1629740148.2664, 83, 0, 4292.821, 4266.667, 4184.615, 4206.154, 4313.846, 16213, 0, []
1629740148.2742, 84, 0, 4295.385, 4240.513, 4189.744, 4214.872, 4298.462, 450, 0, []
1629740148.2822, 85, 0, 4261.538, 4248.205, 4163.077, 4190.769, 4259.487, 450, 0, []
1629740148.2901, 86, 0, 4213.333, 4269.744, 4130.256, 4160, 4219.487, 450, 0, []
1629740148.2981, 87, 0, 4192.821, 4255.897, 4124.615, 4154.872, 4196.923, 16213, 0, []
1629740148.306, 88, 0, 4189.231, 4238.974, 4131.282, 4159.487, 4181.026, 450, 0, []
1629740148.3137, 89, 0, 4176.41, 4253.333, 4136.41, 4152.308, 4171.282, 450, 0, []
1629740148.3216, 90, 0, 4166.667, 4274.359, 4131.282, 4150.256, 4173.846, 450, 0, []
1629740148.3294, 91, 0, 4184.103, 4271.282, 4138.462, 4169.231, 4187.692, 16213, 0, []
1629740148.3373, 92, 0, 4198.462, 4261.026, 4159.487, 4180.513, 4197.436, 450, 0, []
1629740148.3451, 93, 0, 4187.179, 4260, 4168.718, 4179.487, 4197.949, 450, 0, []
1629740148.353, 94, 0, 4185.128, 4249.744, 4182.051, 4190.256, 4193.333, 450, 0, []
1629740148.3607, 95, 0, 4183.077, 4228.718, 4183.59, 4183.59, 4173.846, 16213, 0, []
1629740148.3686, 96, 0, 4157.436, 4223.59, 4157.436, 4153.333, 4149.744, 450, 0, []
1629740148.3764, 97, 0, 4138.974, 4247.692, 4136.923, 4148.205, 4142.564, 450, 0, []
1629740148.3844, 98, 0, 4148.205, 4262.051, 4141.026, 4157.949, 4145.128, 450, 0, []
1629740148.3923, 99, 0, 4164.103, 4261.026, 4165.128, 4158.462, 4156.923, 16213, 0, []
1629740148.4002, 100, 0, 4174.359, 4262.051, 4186.154, 4175.897, 4175.385, 450, 0, []
1629740148.4081, 101, 0, 4163.59, 4245.128, 4184.103, 4186.154, 4166.667, 450, 0, []
1629740148.4161, 102, 0, 4133.333, 4228.718, 4156.923, 4155.385, 4129.231, 450, 0, []
1629740148.424, 103, 0, 4128.205, 4241.026, 4138.974, 4137.949, 4123.077, 16213, 0, []
1629740148.432, 104, 0, 4142.051, 4247.692, 4151.282, 4155.897, 4139.487, 450, 0, []
1629740148.4398, 105, 0, 4138.462, 4226.667, 4153.846, 4164.103, 4135.897, 450, 0, []
1629740148.4478, 106, 0, 4137.949, 4217.436, 4155.897, 4165.641, 4138.974, 450, 0, []
1629740148.4557, 107, 0, 4155.897, 4248.205, 4171.795, 4175.897, 4154.359, 16213, 0, []
1629740148.4635, 108, 0, 4162.051, 4276.41, 4162.564, 4172.821, 4148.718, 450, 0, []
1629740148.4714, 109, 0, 4143.077, 4258.974, 4141.538, 4164.615, 4130.256, 450, 0, []
1629740148.4791, 110, 0, 4130.769, 4238.974, 4128.205, 4162.564, 4124.103, 450, 0, []
1629740148.487, 111, 0, 4132.821, 4236.41, 4121.026, 4149.744, 4118.462, 16213, 0, []
1629740148.4948, 112, 0, 4126.667, 4226.667, 4123.077, 4139.487, 4109.744, 450, 0, []
1629740148.5027, 113, 0, 4117.436, 4224.103, 4122.051, 4141.026, 4106.667, 450, 0, []
1629740148.5106, 114, 0, 4126.667, 4241.026, 4126.667, 4143.077, 4106.154, 450, 0, []
1629740148.5184, 115, 0, 4142.564, 4245.128, 4134.359, 4147.692, 4116.41, 16213, 0, []
1629740148.5264, 116, 0, 4135.385, 4227.692, 4120.513, 4146.154, 4123.077, 450, 0, []
1629740148.5344, 117, 0, 4125.128, 4233.333, 4111.282, 4136.923, 4110.256, 450, 0, []
1629740148.5423, 118, 0, 4124.615, 4250.769, 4114.872, 4130.769, 4098.974, 450, 0, []
1629740148.5503, 119, 0, 4124.103, 4235.897, 4115.385, 4133.333, 4101.538, 16213, 0, []
1629740148.5581, 120, 0, 4125.128, 4211.795, 4107.692, 4135.385, 4091.795, 450, 0, []
1629740148.5661, 121, 0, 4129.231, 4237.949, 4108.718, 4134.872, 4084.103, 450, 0, []
1629740148.574, 122, 0, 4143.59, 4273.846, 4133.846, 4150.769, 4113.333, 450, 0, []
1629740148.582, 123, 0, 4152.821, 4241.538, 4140, 4156.41, 4126.154, 16213, 0, []
1629740148.5899, 124, 0, 4140.513, 4212.308, 4125.641, 4133.846, 4105.128, 450, 0, []
1629740148.5978, 125, 0, 4138.462, 4229.744, 4123.077, 4127.692, 4107.179, 450, 0, []
1629740148.6057, 126, 0, 4151.795, 4240.513, 4132.308, 4151.795, 4120, 450, 0, []
1629740148.6135, 127, 0, 4148.205, 4226.667, 4138.974, 4161.026, 4114.359, 16213, 0, []
1629740148.6214, 128, 0, 4145.641, 4224.615, 4134.359, 4153.333, 4120, 450, 0, []
1629740148.6292, 0, 0, 4170.769, 4269.231, 4146.667, 4170.256, 4141.538, 450, 0, []
1629740148.637, 1, 0, 4184.103, 4296.41, 4167.179, 4184.615, 4147.692, 450, 0, []
1629740148.6448, 2, 0, 4162.564, 4247.692, 4159.487, 4161.538, 4136.923, 16190, 0, []
1629740148.6527, 3, 0, 4142.564, 4224.103, 4143.59, 4140.513, 4125.128, 450, 0, []
1629740148.6605, 4, 0, 4137.949, 4262.051, 4131.282, 4138.462, 4117.949, 16118, 0, []
1629740148.6684, 5, 0, 4130.256, 4250.256, 4117.436, 4132.308, 4106.667, 450, 0, []
1629740148.6762, 6, 0, 4125.128, 4208.718, 4115.385, 4134.359, 4099.487, 16094, 0, []
1629740148.684, 7, 0, 4143.59, 4232.821, 4136.923, 4162.051, 4119.487, 450, 0, []
1629740148.6918, 8, 0, 4165.128, 4273.333, 4158.462, 4180, 4144.103, 450, 0, []
1629740148.6998, 9, 0, 4167.179, 4273.333, 4160, 4171.795, 4141.026, 16175, 0, []
1629740148.7078, 10, 0, 4165.128, 4246.154, 4165.128, 4163.59, 4134.872, 450, 0, []
1629740148.7157, 11, 0, 4154.359, 4220.513, 4149.744, 4152.308, 4128.718, 16210, 0, []
1629740148.7236, 12, 0, 4144.103, 4250.256, 4118.974, 4141.026, 4115.897, 450, 0, []
1629740148.7315, 13, 0, 4163.077, 4296.41, 4152.308, 4161.026, 4129.231, 450, 0, []
1629740148.7395, 14, 0, 4176.41, 4274.359, 4187.179, 4182.051, 4148.718, 450, 0, []
1629740148.7474, 15, 0, 4171.795, 4241.538, 4163.59, 4180, 4142.051, 16210, 0, []
1629740148.7554, 16, 0, 4186.667, 4267.179, 4161.538, 4188.205, 4141.538, 0, 0, []
1629740148.7632, 17, 0, 4188.205, 4289.744, 4164.615, 4188.205, 4148.205, 0, 0, []
1629740148.7712, 18, 0, 4146.667, 4245.128, 4126.154, 4152.308, 4120.513, 0, 0, []
1629740148.7791, 19, 0, 4125.128, 4203.59, 4108.718, 4134.359, 4093.846, 0, 0, []
1629740148.7871, 20, 0, 4135.385, 4232.308, 4131.795, 4149.231, 4107.179, 0, 0, []
1629740148.795, 21, 0, 4140.513, 4268.718, 4146.154, 4160, 4123.59, 0, 0, []
1629740148.8029, 22, 0, 4155.385, 4235.385, 4150.256, 4170.256, 4129.744, 0, 0, []
1629740148.8108, 23, 0, 4185.641, 4201.026, 4167.692, 4180, 4150.256, 0, 0, []
1629740148.8188, 24, 0, 4201.026, 4240, 4171.795, 4182.051, 4172.308, 0, 0, []
1629740148.8267, 25, 0, 4194.359, 4277.436, 4156.923, 4183.077, 4160.513, 0, 0, []
1629740148.8347, 26, 0, 4174.359, 4255.385, 4139.487, 4171.795, 4135.897, 0, 0, []
1629740148.8426, 27, 0, 4148.718, 4207.692, 4115.897, 4155.385, 4125.641, 0, 0, []
1629740148.8505, 28, 0, 4137.436, 4192.308, 4107.179, 4157.436, 4122.564, 0, 0, []
1629740148.8585, 29, 0, 4143.077, 4232.821, 4114.872, 4160.513, 4127.179, 0, 0, []
1629740148.8664, 30, 0, 4149.744, 4256.41, 4117.436, 4148.718, 4138.974, 0, 0, []
1629740148.8744, 31, 0, 4172.308, 4238.462, 4136.923, 4155.897, 4165.128, 0, 0, []
1629740148.8822, 32, 0, 4200, 4248.205, 4156.923, 4180.513, 4187.179, 0, 0, []
1629740148.8902, 33, 0, 4183.59, 4257.949, 4147.692, 4183.59, 4170.256, 0, 0, []
1629740148.8981, 34, 0, 4148.718, 4225.128, 4118.974, 4173.846, 4136.923, 0, 0, []
1629740148.9061, 35, 0, 4147.692, 4231.282, 4102.564, 4163.59, 4135.897, 0, 0, []
1629740148.914, 36, 0, 4162.564, 4266.667, 4117.436, 4158.974, 4156.923, 0, 0, []
1629740148.9219, 37, 0, 4164.103, 4240.513, 4123.077, 4157.949, 4161.026, 0, 0, []
1629740148.9298, 38, 0, 4176.923, 4223.59, 4127.179, 4161.026, 4166.154, 0, 0, []
1629740148.9378, 39, 0, 4205.128, 4274.872, 4160.513, 4178.462, 4195.385, 0, 0, []
1629740148.9457, 40, 0, 4211.282, 4294.359, 4176.923, 4188.205, 4210.256, 0, 0, []
1629740148.9537, 41, 0, 4191.795, 4248.718, 4152.308, 4169.231, 4183.59, 0, 0, []
1629740148.9615, 42, 0, 4167.692, 4227.179, 4115.385, 4141.538, 4151.282, 0, 0, []
1629740148.9695, 43, 0, 4161.026, 4251.282, 4103.077, 4144.615, 4144.103, 0, 0, []
1629740148.9774, 44, 0, 4170.256, 4263.59, 4112.821, 4169.744, 4152.821, 0, 0, []
1629740148.9854, 45, 0, 4177.436, 4251.282, 4127.692, 4184.615, 4162.564, 0, 0, []
1629740148.9933, 46, 0, 4186.667, 4242.051, 4157.436, 4199.487, 4184.103, 0, 0, []
1629740149.0012, 47, 0, 4208.205, 4257.436, 4177.949, 4215.385, 4208.718, 0, 0, []
1629740149.0092, 48, 0, 4218.462, 4263.59, 4168.205, 4205.128, 4206.667, 0, 0, []
1629740149.0171, 49, 0, 4195.897, 4241.026, 4148.718, 4174.872, 4182.051, 0, 0, []
1629740149.0251, 50, 0, 4165.641, 4231.282, 4131.282, 4151.795, 4163.59, 0, 0, []
1629740149.033, 51, 0, 4166.667, 4250.256, 4128.718, 4152.308, 4166.667, 0, 0, []
1629740149.0409, 52, 0, 4183.077, 4243.59, 4133.846, 4163.077, 4176.923, 0, 0, []
1629740149.0488, 53, 0, 4180.513, 4217.436, 4133.846, 4165.641, 4177.949, 0, 0, []
1629740149.0568, 54, 0, 4183.59, 4248.718, 4133.333, 4175.385, 4181.538, 0, 0, []
1629740149.0647, 55, 0, 4197.436, 4278.974, 4130.256, 4186.667, 4188.718, 0, 0, []
1629740149.0727, 56, 0, 4202.051, 4246.667, 4141.026, 4191.282, 4194.872, 0, 0, []
1629740149.0806, 57, 0, 4200.513, 4227.692, 4150.256, 4190.256, 4193.846, 0, 0, []
1629740149.0885, 58, 0, 4192.308, 4248.205, 4134.872, 4169.231, 4176.41, 0, 0, []
1629740149.0964, 59, 0, 4181.026, 4264.103, 4128.205, 4143.077, 4165.641, 0, 0, []
1629740149.1044, 60, 0, 4185.641, 4256.923, 4137.949, 4149.231, 4178.974, 0, 0, []
1629740149.1123, 61, 0, 4202.051, 4233.333, 4141.026, 4165.641, 4187.179, 0, 0, []
1629740149.1203, 62, 0, 4204.103, 4215.897, 4140, 4165.641, 4186.154, 0, 0, []
1629740149.1281, 63, 0, 4204.103, 4238.974, 4145.128, 4176.923, 4208.205, 0, 0, []
1629740149.1361, 64, 0, 4221.026, 4277.949, 4161.538, 4201.538, 4235.385, 450, 0, []
1629740149.144, 65, 0, 4234.359, 4271.282, 4166.154, 4201.026, 4231.282, 450, 0, []
1629740149.152, 66, 0, 4226.667, 4231.282, 4150.769, 4175.897, 4223.077, 16190, 0, []
1629740149.16, 67, 0, 4231.795, 4213.333, 4133.333, 4165.641, 4243.59, 450, 0, []
1629740149.1678, 68, 0, 4279.487, 4228.205, 4120.513, 4167.692, 4282.564, 16118, 0, []
1629740149.1758, 69, 0, 4338.974, 4257.436, 4127.179, 4170.256, 4321.026, 450, 0, []
1629740149.1837, 70, 0, 4371.795, 4266.154, 4143.077, 4180.513, 4353.333, 16094, 0, []
1629740149.1917, 71, 0, 4387.179, 4253.333, 4157.949, 4188.718, 4380, 450, 0, []
1629740149.1996, 72, 0, 4395.897, 4262.051, 4166.154, 4186.667, 4388.205, 450, 0, []
1629740149.2075, 73, 0, 4384.103, 4281.026, 4157.436, 4183.59, 4371.795, 16175, 0, []
1629740149.2154, 74, 0, 4359.487, 4259.487, 4148.718, 4192.821, 4348.205, 450, 0, []
1629740149.2234, 75, 0, 4338.462, 4226.667, 4145.128, 4192.308, 4321.026, 16207, 0, []
1629740149.2313, 76, 0, 4314.359, 4246.154, 4139.487, 4169.231, 4284.615, 450, 0, []
1629740149.2393, 77, 0, 4294.359, 4266.154, 4137.436, 4155.897, 4270.769, 450, 0, []
1629740149.2471, 78, 0, 4292.308, 4238.974, 4150.769, 4172.821, 4287.179, 450, 0, []
1629740149.2551, 79, 0, 4291.282, 4241.538, 4168.718, 4190.256, 4280, 16207, 0, []
1629740149.263, 80, 0, 4270.256, 4262.051, 4156.923, 4178.462, 4242.051, 450, 0, []
1629740149.271, 81, 0, 4242.564, 4231.282, 4136.923, 4155.897, 4220.513, 450, 0, []
1629740149.2789, 82, 0, 4221.538, 4212.308, 4140, 4152.308, 4219.487, 450, 0, []
1629740149.2868, 83, 0, 4213.333, 4241.026, 4140.513, 4161.026, 4214.872, 16207, 0, []
1629740149.2947, 84, 0, 4216.41, 4247.179, 4139.487, 4166.154, 4207.179, 450, 0, []
1629740149.3027, 85, 0, 4218.462, 4223.077, 4144.615, 4163.077, 4204.615, 450, 0, []
1629740149.3106, 86, 0, 4212.821, 4200.513, 4144.615, 4159.487, 4203.59, 450, 0, []
1629740149.3186, 87, 0, 4203.59, 4200, 4137.949, 4155.385, 4190.769, 16207, 0, []
1629740149.3265, 88, 0, 4180.513, 4227.179, 4127.692, 4141.026, 4167.179, 450, 0, []
1629740149.3344, 89, 0, 4165.128, 4238.462, 4137.949, 4135.897, 4162.051, 450, 0, []
1629740149.3424, 90, 0, 4181.538, 4213.846, 4150.256, 4152.308, 4177.949, 450, 0, []
1629740149.3503, 91, 0, 4174.359, 4201.026, 4140.513, 4151.795, 4167.179, 16207, 0, []
1629740149.3583, 92, 0, 4148.205, 4223.59, 4135.897, 4141.538, 4147.692, 450, 0, []
1629740149.3661, 93, 0, 4165.641, 4243.59, 4131.795, 4146.154, 4157.436, 450, 0, []
1629740149.3741, 94, 0, 4182.051, 4233.333, 4122.564, 4137.436, 4150.769, 450, 0, []
1629740149.382, 95, 0, 4152.821, 4203.59, 4116.923, 4112.308, 4117.436, 16207, 0, []
1629740149.39, 96, 0, 4130.256, 4192.308, 4105.641, 4108.718, 4100.513, 450, 0, []
1629740149.3979, 97, 0, 4141.538, 4205.641, 4104.103, 4124.615, 4106.667, 450, 0, []
1629740149.4058, 98, 0, 4148.205, 4220, 4118.974, 4131.282, 4117.949, 450, 0, []
1629740149.4137, 99, 0, 4143.077, 4232.821, 4125.641, 4130.769, 4120, 16207, 0, []
1629740149.4217, 100, 0, 4135.385, 4210.256, 4111.282, 4126.667, 4104.103, 450, 0, []
1629740149.4296, 101, 0, 4136.923, 4189.744, 4104.615, 4120.513, 4101.026, 450, 0, []
1629740149.4376, 102, 0, 4154.872, 4224.615, 4121.538, 4130.769, 4126.667, 450, 0, []
1629740149.4454, 103, 0, 4160.513, 4238.462, 4127.179, 4145.641, 4131.282, 16207, 0, []
1629740149.4532, 104, 0, 4149.744, 4196.923, 4127.179, 4138.974, 4124.103, 450, 0, []
1629740149.4611, 105, 0, 4137.436, 4188.205, 4122.051, 4118.974, 4122.564, 450, 0, []
1629740149.4689, 106, 0, 4129.744, 4215.385, 4101.026, 4108.205, 4105.128, 450, 0, []
1629740149.4769, 107, 0, 4136.923, 4206.667, 4105.641, 4118.974, 4106.667, 16207, 0, []
1629740149.4848, 108, 0, 4148.205, 4193.846, 4119.487, 4136.41, 4133.333, 450, 0, []
1629740149.4927, 109, 0, 4148.205, 4193.846, 4109.231, 4138.462, 4132.308, 450, 0, []
1629740149.5006, 110, 0, 4138.974, 4191.795, 4105.641, 4131.282, 4115.385, 450, 0, []
1629740149.5085, 111, 0, 4127.692, 4197.436, 4108.718, 4127.179, 4112.308, 16207, 0, []
1629740149.5165, 112, 0, 4123.59, 4199.487, 4102.051, 4129.744, 4110.769, 450, 0, []
1629740149.5245, 113, 0, 4132.821, 4195.897, 4102.051, 4132.308, 4114.359, 450, 0, []
1629740149.5323, 114, 0, 4130.256, 4196.923, 4108.718, 4130.256, 4117.949, 450, 0, []
1629740149.5403, 115, 0, 4120, 4201.026, 4107.692, 4128.205, 4113.333, 16207, 0, []
