Timestamp, COUNTER, INTERPOLATED, AF3, T7, Pz, T8, AF4, RAW_CQ, MARKER_HARDWARE, MARKERS
1630236997.6708, 62, 0, 4233.333, 3931.282, 4003.077, 4127.692, 4235.897, 0, 0, []
1630236997.6787, 63, 0, 4237.436, 3938.974, 4015.385, 4131.795, 4236.923, 0, 0, []
1630236997.6864, 64, 0, 4252.821, 3954.872, 4037.436, 4145.641, 4250.769, 450, 0, []
1630236997.6943, 65, 0, 4230.256, 3951.795, 4037.436, 4140, 4228.205, 450, 0, []
1630236997.7021, 66, 0, 4193.846, 3948.718, 4031.282, 4126.154, 4192.308, 16180, 0, []
1630236997.71, 67, 0, 4176.41, 3964.103, 4028.205, 4123.59, 4182.564, 450, 0, []
1630236997.7178, 68, 0, 4168.718, 3981.026, 4051.282, 4131.282, 4181.538, 16110, 0, []
1630236997.7256, 69, 0, 4158.974, 3969.744, 4051.282, 4132.308, 4171.282, 450, 0, []
1630236997.7334, 70, 0, 4152.308, 3951.282, 4034.359, 4135.897, 4160, 16065, 0, []
1630236997.7413, 71, 0, 4147.692, 3976.923, 4042.564, 4144.615, 4154.359, 450, 0, []
1630236997.7491, 72, 0, 4141.538, 4011.282, 4053.333, 4149.231, 4151.795, 450, 0, []
1630236997.7571, 73, 0, 4135.897, 3994.359, 4046.154, 4145.641, 4143.59, 318, 0, []
1630236997.7649, 74, 0, 4125.641, 3988.205, 4009.744, 4122.564, 4127.692, 450, 0, []
1630236997.7729, 75, 0, 4108.718, 4015.897, 3985.128, 4095.385, 4105.641, 16185, 0, []
1630236997.7808, 76, 0, 4090.769, 4022.564, 3991.795, 4096.923, 4087.179, 450, 0, []
1630236997.7888, 77, 0, 4080, 4025.128, 3959.487, 4097.949, 4081.026, 450, 0, []
1630236997.7967, 78, 0, 4086.667, 4076.41, 3875.385, 4048.205, 4085.128, 450, 0, []
1630236997.8046, 79, 0, 4103.59, 4148.205, 3799.487, 3993.846, 4096.923, 16185, 0, []
1630236997.8125, 80, 0, 4110.769, 4175.385, 3774.872, 3986.154, 4105.641, 450, 0, []
1630236997.8205, 81, 0, 4096.923, 4191.282, 3778.462, 3985.641, 4104.615, 450, 0, []
1630236997.8284, 82, 0, 4071.795, 4223.59, 3727.179, 3951.795, 4086.667, 450, 0, []
1630236997.8364, 83, 0, 4066.154, 4236.41, 3682.564, 3928.205, 4067.179, 16185, 0, []
1630236997.8442, 84, 0, 4093.846, 4238.974, 3720, 3954.872, 4088.718, 450, 0, []
1630236997.852, 85, 0, 4122.051, 4254.872, 3764.615, 3985.641, 4131.795, 450, 0, []
1630236997.8599, 86, 0, 4125.641, 4267.179, 3818.462, 4004.103, 4146.154, 450, 0, []
1630236997.8677, 87, 0, 4126.667, 4285.128, 3861.538, 4028.205, 4141.538, 16185, 0, []
1630236997.8756, 88, 0, 4123.59, 4305.128, 3850.256, 4033.333, 4137.436, 450, 0, []
1630236997.8833, 89, 0, 4108.205, 4288.205, 3854.872, 4029.231, 4127.692, 450, 0, []
1630236997.8912, 90, 0, 4099.487, 4269.231, 3901.026, 4042.051, 4117.949, 450, 0, []
1630236997.899, 91, 0, 4104.615, 4284.103, 3973.333, 4073.333, 4122.051, 16185, 0, []
1630236997.907, 92, 0, 4109.744, 4271.795, 4023.077, 4105.128, 4127.692, 450, 0, []
1630236997.9149, 93, 0, 4104.103, 4242.051, 4045.641, 4116.923, 4123.077, 450, 0, []
1630236997.9229, 94, 0, 4109.231, 4261.538, 4071.282, 4132.821, 4125.128, 450, 0, []
1630236997.9307, 95, 0, 4120.513, 4275.385, 4077.949, 4153.333, 4138.462, 16185, 0, []
1630236997.9387, 96, 0, 4108.718, 4250.769, 4081.026, 4156.923, 4127.692, 450, 0, []
1630236997.9466, 97, 0, 4079.487, 4243.59, 4064.103, 4144.615, 4090.256, 450, 0, []
1630236997.9546, 98, 0, 4068.205, 4238.462, 4056.41, 4141.538, 4071.795, 450, 0, []
1630236997.9625, 99, 0, 4095.897, 4227.692, 4094.872, 4167.179, 4093.846, 16185, 0, []
1630236997.9704, 100, 0, 4113.333, 4243.077, 4096.41, 4179.487, 4112.308, 450, 0, []
1630236997.9783, 101, 0, 4091.795, 4243.077, 4074.872, 4170.769, 4095.897, 450, 0, []
1630236997.9861, 102, 0, 4088.205, 4223.077, 4079.487, 4173.846, 4093.846, 450, 0, []
1630236997.994, 103, 0, 4122.564, 4240.513, 4098.974, 4198.974, 4123.077, 16185, 0, []
1630236998.0018, 104, 0, 4132.308, 4261.026, 4105.128, 4212.821, 4130.769, 450, 0, []
1630236998.0096, 105, 0, 4114.872, 4259.487, 4089.744, 4190.769, 4113.846, 450, 0, []
1630236998.0174, 106, 0, 4118.462, 4264.615, 4111.795, 4181.026, 4117.436, 450, 0, []
1630236998.0253, 107, 0, 4128.718, 4256.923, 4124.615, 4185.641, 4126.154, 16185, 0, []
1630236998.0331, 108, 0, 4124.103, 4245.641, 4107.179, 4182.564, 4124.615, 450, 0, []
1630236998.041, 109, 0, 4126.667, 4255.385, 4115.897, 4190.769, 4133.333, 450, 0, []
1630236998.0487, 110, 0, 4125.128, 4258.462, 4106.154, 4192.821, 4126.154, 450, 0, []
1630236998.0566, 111, 0, 4101.538, 4263.077, 4094.872, 4191.282, 4095.385, 16185, 0, []
1630236998.0644, 112, 0, 4106.667, 4279.487, 4104.615, 4204.615, 4110.256, 450, 0, []
1630236998.0724, 113, 0, 4131.795, 4268.205, 4108.718, 4215.385, 4149.231, 450, 0, []
1630236998.0803, 114, 0, 4109.231, 4257.436, 4103.077, 4202.564, 4129.231, 450, 0, []
1630236998.0882, 115, 0, 4083.59, 4286.667, 4095.385, 4195.897, 4100.513, 16185, 0, []
1630236998.0961, 116, 0, 4104.103, 4302.564, 4128.718, 4216.41, 4117.436, 450, 0, []
1630236998.1041, 117, 0, 4111.795, 4273.846, 4139.487, 4217.436, 4123.59, 450, 0, []
1630236998.112, 118, 0, 4094.872, 4251.282, 4117.436, 4208.205, 4108.718, 450, 0, []
1630236998.12, 119, 0, 4102.051, 4271.795, 4143.59, 4230.256, 4113.333, 16185, 0, []
1630236998.1278, 120, 0, 4112.821, 4296.41, 4150.769, 4231.795, 4116.923, 450, 0, []
1630236998.1358, 121, 0, 4097.949, 4278.462, 4140.513, 4208.718, 4098.462, 450, 0, []
1630236998.1437, 122, 0, 4095.897, 4257.436, 4156.41, 4218.974, 4094.872, 450, 0, []
1630236998.1515, 123, 0, 4110.769, 4271.795, 4157.436, 4237.949, 4108.205, 16185, 0, []
1630236998.1594, 124, 0, 4105.641, 4267.179, 4149.744, 4223.077, 4099.487, 450, 0, []
1630236998.1671, 125, 0, 4093.846, 4248.718, 4129.744, 4192.308, 4085.128, 450, 0, []
1630236998.175, 126, 0, 4098.462, 4274.359, 4124.615, 4185.641, 4088.205, 450, 0, []
1630236998.1828, 127, 0, 4105.641, 4289.744, 4135.385, 4196.41, 4094.359, 16185, 0, []
1630236998.1907, 128, 0, 4106.154, 4265.641, 4122.051, 4194.359, 4097.949, 450, 0, []
1630236998.1985, 0, 0, 4106.667, 4276.923, 4124.103, 4189.744, 4101.026, 450, 0, []
1630236998.2065, 1, 0, 4106.154, 4301.026, 4115.385, 4184.103, 4095.897, 450, 0, []
1630236998.2143, 2, 0, 4103.59, 4267.692, 4106.154, 4180, 4089.231, 16190, 0, []
1630236998.2223, 3, 0, 4106.667, 4252.821, 4121.538, 4188.718, 4093.333, 450, 0, []
1630236998.2302, 4, 0, 4115.897, 4288.718, 4113.333, 4190.769, 4102.051, 16108, 0, []
1630236998.2382, 5, 0, 4122.051, 4295.897, 4122.564, 4194.359, 4103.077, 450, 0, []
1630236998.2461, 6, 0, 4113.846, 4268.205, 4136.41, 4192.821, 4092.821, 16086, 0, []
1630236998.254, 7, 0, 4105.128, 4267.179, 4133.846, 4183.59, 4082.564, 450, 0, []
1630236998.2619, 8, 0, 4114.872, 4280, 4146.667, 4196.923, 4093.333, 450, 0, []
1630236998.2699, 9, 0, 4132.308, 4279.487, 4142.564, 4214.359, 4110.256, 287, 0, []
1630236998.2778, 10, 0, 4136.41, 4280.513, 4159.487, 4217.949, 4110.769, 450, 0, []
1630236998.2858, 11, 0, 4136.41, 4280, 4178.462, 4221.538, 4110.769, 16207, 0, []
1630236998.2936, 12, 0, 4138.462, 4273.846, 4163.077, 4221.026, 4121.538, 450, 0, []
1630236998.3014, 13, 0, 4135.385, 4278.462, 4163.59, 4214.359, 4117.436, 450, 0, []
1630236998.3093, 14, 0, 4129.744, 4288.718, 4155.385, 4206.667, 4105.128, 450, 0, []
1630236998.3171, 15, 0, 4133.846, 4273.846, 4150.256, 4215.897, 4107.692, 16207, 0, []
1630236998.325, 16, 0, 4141.538, 4258.974, 4150.769, 4222.564, 4115.385, 0, 0, []
1630236998.3327, 17, 0, 4138.974, 4283.59, 4142.051, 4214.872, 4109.744, 0, 0, []
1630236998.3406, 18, 0, 4130.769, 4295.385, 4151.795, 4216.41, 4104.103, 0, 0, []
1630236998.3484, 19, 0, 4140, 4276.41, 4144.103, 4217.949, 4118.462, 0, 0, []
1630236998.3564, 20, 0, 4155.897, 4267.692, 4142.051, 4227.179, 4131.282, 0, 0, []
1630236998.3643, 21, 0, 4150.769, 4285.128, 4145.128, 4234.359, 4123.077, 0, 0, []
1630236998.3722, 22, 0, 4143.59, 4307.692, 4137.949, 4219.487, 4116.923, 0, 0, []
1630236998.3801, 23, 0, 4152.308, 4315.385, 4144.615, 4215.385, 4127.179, 0, 0, []
1630236998.3881, 24, 0, 4149.744, 4301.538, 4122.564, 4213.846, 4124.615, 0, 0, []
1630236998.396, 25, 0, 4131.795, 4282.564, 4117.436, 4208.205, 4110.769, 0, 0, []
1630236998.404, 26, 0, 4142.051, 4289.231, 4140, 4222.051, 4125.641, 0, 0, []
1630236998.4118, 27, 0, 4165.641, 4289.744, 4142.051, 4236.41, 4150.256, 0, 0, []
1630236998.4198, 28, 0, 4168.205, 4276.41, 4153.333, 4232.308, 4149.231, 0, 0, []
1630236998.4277, 29, 0, 4164.103, 4293.846, 4166.667, 4231.795, 4143.59, 0, 0, []
1630236998.4357, 30, 0, 4158.974, 4298.974, 4182.564, 4241.026, 4138.974, 0, 0, []
1630236998.4436, 31, 0, 4151.795, 4274.359, 4179.487, 4235.385, 4124.103, 0, 0, []
1630236998.4513, 32, 0, 4155.385, 4273.333, 4158.974, 4234.359, 4126.667, 0, 0, []
1630236998.4592, 33, 0, 4156.923, 4283.077, 4152.308, 4235.385, 4136.41, 0, 0, []
1630236998.4671, 34, 0, 4139.487, 4269.744, 4116.923, 4199.487, 4117.436, 0, 0, []
1630236998.475, 35, 0, 4126.667, 4258.974, 4100, 4176.923, 4096.41, 0, 0, []
1630236998.483, 36, 0, 4132.308, 4267.692, 4104.615, 4184.103, 4104.103, 0, 0, []
1630236998.4909, 37, 0, 4135.897, 4268.718, 4079.487, 4172.821, 4113.846, 0, 0, []
1630236998.4986, 38, 0, 4134.359, 4265.128, 4077.436, 4165.641, 4115.385, 0, 0, []
1630236998.5065, 39, 0, 4145.641, 4267.692, 4084.615, 4174.359, 4127.692, 0, 0, []
1630236998.5143, 40, 0, 4152.821, 4274.872, 4085.641, 4175.385, 4127.692, 0, 0, []
1630236998.5222, 41, 0, 4144.615, 4277.436, 4085.128, 4161.026, 4108.718, 0, 0, []
1630236998.53, 42, 0, 4137.436, 4262.564, 4065.641, 4150.769, 4101.538, 0, 0, []
1630236998.5379, 43, 0, 4140, 4250.256, 4069.231, 4165.128, 4108.205, 0, 0, []
1630236998.5458, 44, 0, 4153.333, 4258.974, 4072.308, 4180, 4120.513, 0, 0, []
1630236998.5538, 45, 0, 4170.256, 4280, 4071.795, 4190.256, 4137.949, 0, 0, []
1630236998.5617, 46, 0, 4180.513, 4289.744, 4081.026, 4197.436, 4149.744, 0, 0, []
1630236998.5697, 47, 0, 4179.487, 4264.615, 4073.333, 4191.795, 4149.744, 0, 0, []
1630236998.5775, 48, 0, 4174.872, 4254.359, 4079.487, 4191.282, 4141.026, 0, 0, []
1630236998.5855, 49, 0, 4163.077, 4281.026, 4069.744, 4183.59, 4128.718, 0, 0, []
1630236998.5934, 50, 0, 4144.615, 4275.897, 4048.205, 4161.026, 4111.795, 0, 0, []
1630236998.6014, 51, 0, 4137.436, 4256.41, 4057.436, 4154.359, 4103.077, 0, 0, []
1630236998.6093, 52, 0, 4144.615, 4265.641, 4052.308, 4166.667, 4112.308, 0, 0, []
1630236998.617, 53, 0, 4153.333, 4264.103, 4060.513, 4175.385, 4119.487, 0, 0, []
1630236998.6249, 54, 0, 4155.385, 4260.513, 4069.744, 4164.103, 4112.308, 0, 0, []
1630236998.6327, 55, 0, 4154.359, 4278.462, 4055.385, 4156.923, 4106.667, 0, 0, []
1630236998.6406, 56, 0, 4153.846, 4281.538, 4057.949, 4166.154, 4113.846, 0, 0, []
1630236998.6484, 57, 0, 4162.051, 4263.59, 4059.487, 4166.667, 4126.667, 0, 0, []
1630236998.6562, 58, 0, 4171.282, 4249.231, 4066.667, 4163.077, 4131.795, 0, 0, []
1630236998.664, 59, 0, 4164.615, 4241.026, 4063.59, 4155.897, 4125.641, 0, 0, []
1630236998.6719, 60, 0, 4156.41, 4252.821, 4042.051, 4150.769, 4115.897, 0, 0, []
1630236998.6797, 61, 0, 4167.692, 4266.154, 4057.949, 4164.615, 4120.513, 0, 0, []
1630236998.6877, 62, 0, 4178.974, 4256.41, 4060, 4165.641, 4126.154, 0, 0, []
1630236998.6955, 63, 0, 4167.692, 4251.795, 4046.667, 4150.769, 4116.41, 0, 0, []
1630236998.7035, 64, 0, 4170.256, 4266.667, 4056.41, 4157.949, 4121.026, 450, 0, []
1630236998.7114, 65, 0, 4187.692, 4271.282, 4064.615, 4175.897, 4133.333, 450, 0, []
1630236998.7194, 66, 0, 4174.872, 4256.923, 4066.667, 4178.974, 4124.615, 16181, 0, []
1630236998.7273, 67, 0, 4167.179, 4265.128, 4050.256, 4171.282, 4120, 450, 0, []
1630236998.7352, 68, 0, 4181.026, 4291.282, 4038.462, 4172.821, 4127.692, 16113, 0, []
1630236998.7431, 69, 0, 4177.949, 4286.667, 4040.513, 4174.872, 4126.667, 450, 0, []
1630236998.7511, 70, 0, 4171.795, 4279.487, 4031.795, 4165.641, 4128.718, 16080, 0, []
1630236998.759, 71, 0, 4180, 4308.205, 4031.795, 4154.872, 4133.333, 450, 0, []
1630236998.7669, 72, 0, 4176.923, 4327.692, 4016.923, 4145.641, 4133.333, 450, 0, []
1630236998.7748, 73, 0, 4175.385, 4311.282, 4014.872, 4148.205, 4142.051, 296, 0, []
1630236998.7825, 74, 0, 4181.538, 4288.718, 4034.359, 4149.744, 4146.154, 450, 0, []
1630236998.7904, 75, 0, 4174.872, 4278.974, 4007.179, 4123.59, 4131.282, 16193, 0, []
1630236998.7982, 76, 0, 4172.308, 4292.308, 3970.769, 4099.487, 4119.487, 450, 0, []
1630236998.8061, 77, 0, 4187.692, 4315.385, 3945.641, 4091.795, 4127.692, 450, 0, []
1630236998.8139, 78, 0, 4195.385, 4312.821, 3924.615, 4083.077, 4137.949, 450, 0, []
1630236998.8217, 79, 0, 4185.128, 4291.795, 3929.231, 4078.974, 4131.795, 16193, 0, []
1630236998.8295, 80, 0, 4171.795, 4290.256, 3930.769, 4077.436, 4116.41, 450, 0, []
1630236998.8375, 81, 0, 4165.128, 4307.179, 3944.615, 4079.487, 4112.821, 450, 0, []
1630236998.8454, 82, 0, 4170.769, 4306.667, 3966.154, 4092.821, 4124.615, 450, 0, []
1630236998.8534, 83, 0, 4177.949, 4293.333, 3969.744, 4105.128, 4127.179, 16193, 0, []
1630236998.8612, 84, 0, 4183.077, 4315.897, 3987.179, 4115.897, 4118.974, 450, 0, []
1630236998.8692, 85, 0, 4191.795, 4350.769, 4006.667, 4122.564, 4131.795, 450, 0, []
1630236998.8771, 86, 0, 4198.462, 4330.256, 4032.308, 4126.667, 4149.744, 450, 0, []
1630236998.8851, 87, 0, 4202.564, 4300, 4058.974, 4138.974, 4146.154, 16193, 0, []
1630236998.893, 88, 0, 4205.641, 4318.462, 4072.821, 4164.103, 4145.128, 450, 0, []
1630236998.9009, 89, 0, 4201.026, 4336.41, 4101.026, 4182.051, 4144.103, 450, 0, []
1630236998.9088, 90, 0, 4189.744, 4317.949, 4117.949, 4184.615, 4135.897, 450, 0, []
1630236998.9168, 91, 0, 4191.795, 4291.282, 4138.462, 4200, 4141.026, 16193, 0, []
1630236998.9247, 92, 0, 4197.436, 4289.231, 4142.564, 4205.128, 4153.846, 450, 0, []
1630236998.9325, 93, 0, 4194.359, 4301.538, 4133.846, 4194.359, 4147.179, 450, 0, []
1630236998.9403, 94, 0, 4194.872, 4300, 4163.077, 4199.487, 4138.462, 450, 0, []
1630236998.9481, 95, 0, 4205.128, 4304.615, 4171.282, 4210.256, 4150.769, 16193, 0, []
1630236998.956, 96, 0, 4215.385, 4317.949, 4172.821, 4217.436, 4154.872, 450, 0, []
1630236998.9638, 97, 0, 4214.359, 4322.051, 4172.821, 4219.487, 4152.308, 450, 0, []
1630236998.9717, 98, 0, 4221.538, 4324.615, 4157.436, 4229.231, 4165.128, 450, 0, []
1630236998.9794, 99, 0, 4240.513, 4332.308, 4178.974, 4236.923, 4184.615, 16193, 0, []
1630236998.9873, 100, 0, 4250.256, 4335.897, 4188.205, 4229.744, 4196.41, 450, 0, []
1630236998.9951, 101, 0, 4248.205, 4348.718, 4180.513, 4242.564, 4196.923, 450, 0, []
1630236999.0031, 102, 0, 4244.103, 4355.385, 4170.769, 4243.59, 4194.872, 450, 0, []
1630236999.011, 103, 0, 4242.051, 4316.923, 4161.026, 4216.923, 4193.846, 16193, 0, []
1630236999.0189, 104, 0, 4246.154, 4296.923, 4166.667, 4218.974, 4197.436, 450, 0, []
1630236999.0268, 105, 0, 4245.641, 4331.282, 4134.359, 4226.154, 4194.872, 450, 0, []
1630236999.0348, 106, 0, 4232.308, 4330.256, 4106.154, 4210.769, 4185.641, 450, 0, []
1630236999.0427, 107, 0, 4229.744, 4296.41, 4098.974, 4191.795, 4191.795, 16193, 0, []
1630236999.0507, 108, 0, 4238.462, 4298.974, 4078.462, 4174.359, 4197.949, 450, 0, []
1630236999.0586, 109, 0, 4237.436, 4306.667, 4073.846, 4160, 4185.641, 450, 0, []
1630236999.0663, 110, 0, 4231.795, 4283.59, 4037.949, 4146.667, 4176.923, 450, 0, []
1630236999.0742, 111, 0, 4217.949, 4268.205, 4011.795, 4138.462, 4173.333, 16193, 0, []
1630236999.082, 112, 0, 4197.436, 4257.949, 4046.667, 4132.821, 4158.462, 450, 0, []
1630236999.0899, 113, 0, 4200, 4241.026, 4071.795, 4132.821, 4148.205, 450, 0, []
1630236999.0977, 114, 0, 4209.744, 4224.103, 4101.026, 4155.897, 4157.949, 450, 0, []
1630236999.1055, 115, 0, 4200.513, 4203.59, 4117.436, 4172.308, 4155.897, 16193, 0, []
1630236999.1133, 116, 0, 4200.513, 4202.564, 4083.077, 4154.359, 4141.026, 450, 0, []
1630236999.1212, 117, 0, 4222.051, 4198.974, 4054.872, 4135.897, 4152.308, 450, 0, []
1630236999.129, 118, 0, 4233.846, 4133.333, 4024.103, 4124.615, 4169.231, 450, 0, []
1630236999.1369, 119, 0, 4212.308, 4047.692, 3982.564, 4100.513, 4149.744, 16193, 0, []
1630236999.1446, 120, 0, 4189.744, 3986.667, 3965.128, 4078.462, 4123.077, 450, 0, []
1630236999.1526, 121, 0, 4181.538, 3915.385, 3985.128, 4082.564, 4124.103, 450, 0, []
1630236999.1605, 122, 0, 4180, 3866.154, 4032.308, 4108.205, 4128.205, 450, 0, []
1630236999.1685, 123, 0, 4188.205, 3877.949, 4064.615, 4133.333, 4131.282, 16193, 0, []
1630236999.1764, 124, 0, 4196.923, 3889.744, 4107.692, 4159.487, 4144.615, 450, 0, []
1630236999.1843, 125, 0, 4197.949, 3890.769, 4167.692, 4183.59, 4157.949, 450, 0, []
1630236999.1922, 126, 0, 4187.179, 3903.077, 4204.615, 4196.41, 4153.846, 450, 0, []
1630236999.2002, 127, 0, 4179.487, 3896.41, 4250.256, 4222.051, 4148.718, 16193, 0, []
1630236999.2081, 128, 0, 4191.282, 3882.564, 4277.436, 4254.359, 4160, 450, 0, []
1630236999.2161, 0, 0, 4200, 3888.205, 4255.897, 4257.949, 4168.718, 450, 0, []
1630236999.2239, 1, 0, 4194.359, 3886.667, 4194.359, 4225.128, 4168.718, 450, 0, []
1630236999.2317, 2, 0, 4181.538, 3874.359, 4131.282, 4191.282, 4158.462, 16185, 0, []
1630236999.2396, 3, 0, 4170.256, 3890.769, 4114.359, 4175.385, 4149.231, 450, 0, []
1630236999.2474, 4, 0, 4168.718, 3918.462, 4098.974, 4166.154, 4158.462, 16113, 0, []
1630236999.2553, 5, 0, 4176.41, 3926.154, 4098.974, 4171.282, 4173.846, 450, 0, []
1630236999.263, 6, 0, 4186.667, 3925.128, 4117.949, 4182.051, 4176.923, 16077, 0, []
1630236999.2709, 7, 0, 4198.974, 3920.513, 4115.897, 4188.718, 4188.718, 450, 0, []
1630236999.2787, 8, 0, 4218.974, 3924.103, 4126.154, 4197.436, 4211.795, 450, 0, []
1630236999.2866, 9, 0, 4221.538, 3946.667, 4123.59, 4192.308, 4207.692, 311, 0, []
1630236999.2944, 10, 0, 4203.077, 3959.487, 4117.436, 4192.308, 4191.795, 450, 0, []
1630236999.3022, 11, 0, 4208.718, 3954.872, 4125.128, 4208.718, 4194.359, 16190, 0, []
1630236999.31, 12, 0, 4228.205, 3956.923, 4109.231, 4207.179, 4198.974, 450, 0, []
1630236999.318, 13, 0, 4217.949, 3951.795, 4094.359, 4190.769, 4183.59, 450, 0, []
1630236999.3259, 14, 0, 4193.333, 3938.462, 4085.641, 4176.41, 4169.744, 450, 0, []
1630236999.3339, 15, 0, 4184.103, 3954.872, 4082.051, 4166.667, 4165.641, 16190, 0, []
1630236999.3418, 16, 0, 4176.923, 3968.718, 4094.359, 4159.487, 4160, 0, 0, []
1630236999.3497, 17, 0, 4178.462, 3941.026, 4092.821, 4162.051, 4162.051, 0, 0, []
1630236999.3576, 18, 0, 4200, 3930.769, 4100, 4175.385, 4177.436, 0, 0, []
1630236999.3656, 19, 0, 4217.436, 3972.821, 4110.256, 4191.282, 4196.923, 0, 0, []
1630236999.3735, 20, 0, 4216.923, 3981.026, 4098.974, 4191.795, 4202.051, 0, 0, []
1630236999.3815, 21, 0, 4207.179, 3958.974, 4097.436, 4186.667, 4194.359, 0, 0, []
1630236999.3893, 22, 0, 4208.718, 3975.897, 4087.692, 4189.231, 4193.846, 0, 0, []
1630236999.3971, 23, 0, 4209.744, 3988.205, 4087.692, 4176.41, 4198.462, 0, 0, []
1630236999.405, 24, 0, 4207.179, 3967.179, 4101.026, 4164.103, 4200.513, 0, 0, []
1630236999.4128, 25, 0, 4211.795, 3966.667, 4105.641, 4179.487, 4209.231, 0, 0, []
1630236999.4207, 26, 0, 4217.436, 3982.051, 4122.051, 4193.846, 4213.846, 0, 0, []
1630236999.4284, 27, 0, 4226.667, 3980, 4115.897, 4181.026, 4204.615, 0, 0, []
1630236999.4363, 28, 0, 4241.538, 3993.846, 4104.103, 4189.231, 4213.846, 0, 0, []
1630236999.4441, 29, 0, 4249.744, 4012.308, 4088.205, 4208.718, 4235.897, 0, 0, []
1630236999.452, 30, 0, 4241.026, 4012.308, 4026.667, 4170.256, 4241.026, 0, 0, []
1630236999.4599, 31, 0, 4225.128, 3999.487, 3977.436, 4117.949, 4220, 0, 0, []
1630236999.4677, 32, 0, 4208.205, 3984.615, 3960, 4097.436, 4197.949, 0, 0, []
1630236999.4756, 33, 0, 4198.974, 3981.026, 3962.051, 4092.308, 4193.333, 0, 0, []
1630236999.4834, 34, 0, 4198.462, 3975.897, 3973.846, 4096.923, 4196.41, 0, 0, []
1630236999.4914, 35, 0, 4202.051, 3988.718, 3972.821, 4115.897, 4199.487, 0, 0, []
1630236999.4993, 36, 0, 4205.641, 4022.051, 4007.179, 4140.513, 4193.846, 0, 0, []
1630236999.5071, 37, 0, 4201.538, 4021.538, 4042.051, 4150.769, 4187.179, 0, 0, []
1630236999.5151, 38, 0, 4202.564, 4004.103, 4037.949, 4155.897, 4192.821, 0, 0, []
1630236999.523, 39, 0, 4204.615, 4013.333, 4046.667, 4167.179, 4198.462, 0, 0, []
1630236999.531, 40, 0, 4206.154, 4016.923, 4052.821, 4173.333, 4196.41, 0, 0, []
1630236999.5389, 41, 0, 4209.744, 4007.692, 4074.359, 4174.359, 4195.897, 0, 0, []
1630236999.5468, 42, 0, 4208.205, 4007.179, 4095.385, 4176.41, 4186.154, 0, 0, []
1630236999.5547, 43, 0, 4208.205, 4010.256, 4100, 4187.179, 4174.359, 0, 0, []
1630236999.5625, 44, 0, 4211.282, 4024.103, 4122.051, 4212.308, 4190.256, 0, 0, []
1630236999.5704, 45, 0, 4205.641, 4037.436, 4112.308, 4218.974, 4197.436, 0, 0, []
1630236999.5782, 46, 0, 4201.026, 4039.487, 4103.59, 4208.205, 4188.718, 0, 0, []
1630236999.586, 47, 0, 4222.564, 4051.795, 4117.949, 4211.282, 4201.538, 0, 0, []
1630236999.5938, 48, 0, 4231.282, 4049.231, 4117.436, 4202.564, 4206.154, 0, 0, []
1630236999.6017, 49, 0, 4211.282, 4018.462, 4120, 4194.872, 4186.667, 0, 0, []
1630236999.6095, 50, 0, 4203.59, 4019.487, 4109.744, 4196.923, 4181.026, 0, 0, []
1630236999.6175, 51, 0, 4203.59, 4041.026, 4109.744, 4193.846, 4183.077, 0, 0, []
1630236999.6254, 52, 0, 4201.026, 4054.872, 4117.436, 4202.564, 4178.462, 0, 0, []
1630236999.6333, 53, 0, 4209.231, 4060.513, 4115.897, 4218.974, 4191.795, 0, 0, []
1630236999.6412, 54, 0, 4231.795, 4050.256, 4132.308, 4223.077, 4211.282, 0, 0, []
1630236999.6492, 55, 0, 4240, 4054.872, 4123.077, 4211.282, 4208.205, 0, 0, []
1630236999.6571, 56, 0, 4224.615, 4076.923, 4113.333, 4210.256, 4192.308, 0, 0, []
1630236999.6651, 57, 0, 4214.359, 4081.538, 4123.077, 4215.897, 4183.59, 0, 0, []
1630236999.6729, 58, 0, 4215.385, 4079.487, 4112.821, 4200.513, 4183.59, 0, 0, []
1630236999.6809, 59, 0, 4215.897, 4094.872, 4115.897, 4196.41, 4177.949, 0, 0, []
1630236999.6888, 60, 0, 4216.923, 4091.795, 4123.59, 4210.256, 4182.051, 0, 0, []
1630236999.6968, 61, 0, 4221.538, 4066.154, 4146.667, 4218.462, 4190.256, 0, 0, []
1630236999.7047, 62, 0, 4215.385, 4061.026, 4162.564, 4220, 4180, 0, 0, []
1630236999.7124, 63, 0, 4200.513, 4073.333, 4136.923, 4220.513, 4166.154, 0, 0, []
1630236999.7203, 64, 0, 4194.872, 4079.487, 4140.513, 4225.128, 4155.385, 450, 0, []
1630236999.7281, 65, 0, 4203.59, 4089.231, 4150.256, 4229.744, 4163.077, 450, 0, []
1630236999.736, 66, 0, 4210.256, 4108.718, 4150.769, 4232.308, 4178.462, 16142, 0, []
1630236999.7438, 67, 0, 4208.718, 4116.41, 4164.103, 4232.308, 4181.538, 450, 0, []
1630236999.7516, 68, 0, 4208.205, 4113.846, 4152.821, 4224.103, 4171.282, 16104, 0, []
1630236999.7594, 69, 0, 4193.846, 4097.436, 4150.769, 4214.872, 4153.846, 450, 0, []
1630236999.7674, 70, 0, 4188.205, 4083.077, 4150.769, 4217.949, 4153.333, 16073, 0, []
1630236999.7753, 71, 0, 4206.154, 4095.385, 4148.718, 4232.308, 4163.59, 450, 0, []
1630236999.7833, 72, 0, 4204.103, 4106.154, 4159.487, 4231.282, 4156.923, 450, 0, []
1630236999.7911, 73, 0, 4192.308, 4120.513, 4137.436, 4213.846, 4144.103, 311, 0, []
1630236999.7991, 74, 0, 4203.59, 4136.923, 4141.026, 4228.205, 4163.077, 450, 0, []
1630236999.807, 75, 0, 4208.205, 4136.41, 4150.769, 4240.513, 4175.897, 16201, 0, []
1630236999.815, 76, 0, 4189.231, 4121.538, 4129.231, 4210.769, 4157.949, 450, 0, []
1630236999.8229, 77, 0, 4192.308, 4110.769, 4141.538, 4207.179, 4155.385, 450, 0, []
1630236999.8308, 78, 0, 4207.692, 4120, 4158.462, 4226.667, 4169.231, 450, 0, []
1630236999.8387, 79, 0, 4199.487, 4130.769, 4176.923, 4234.872, 4167.692, 16201, 0, []
1630236999.8467, 80, 0, 4192.308, 4133.846, 4185.641, 4244.615, 4156.41, 450, 0, []
1630236999.8546, 81, 0, 4196.41, 4128.718, 4178.462, 4256.923, 4158.974, 450, 0, []
1630236999.8624, 82, 0, 4201.026, 4140, 4207.692, 4276.41, 4169.231, 450, 0, []
1630236999.8702, 83, 0, 4206.667, 4151.282, 4216.923, 4282.564, 4180, 16201, 0, []
1630236999.878, 84, 0, 4210.769, 4129.231, 4201.538, 4270.769, 4177.949, 450, 0, []
1630236999.8859, 85, 0, 4202.564, 4117.436, 4198.974, 4263.077, 4165.128, 450, 0, []
1630236999.8937, 86, 0, 4203.077, 4128.205, 4196.923, 4266.667, 4167.179, 450, 0, []
1630236999.9016, 87, 0, 4212.308, 4130.769, 4205.641, 4274.872, 4171.282, 16201, 0, []
1630236999.9094, 88, 0, 4199.487, 4124.615, 4184.615, 4264.103, 4163.077, 450, 0, []
1630236999.9172, 89, 0, 4185.128, 4134.359, 4162.051, 4245.641, 4158.974, 450, 0, []
1630236999.925, 90, 0, 4197.436, 4156.923, 4177.949, 4246.667, 4175.897, 450, 0, []
1630236999.933, 91, 0, 4209.744, 4165.128, 4166.667, 4240.513, 4183.59, 16201, 0, []
1630236999.9409, 92, 0, 4211.795, 4170.769, 4165.128, 4233.333, 4182.051, 450, 0, []
1630236999.9489, 93, 0, 4225.641, 4183.077, 4172.821, 4247.692, 4197.949, 450, 0, []
1630236999.9567, 94, 0, 4217.949, 4196.41, 4151.282, 4237.949, 4187.179, 450, 0, []
1630236999.9647, 95, 0, 4186.667, 4202.564, 4131.795, 4222.051, 4158.462, 16201, 0, []
1630236999.9726, 96, 0, 4186.154, 4211.795, 4111.795, 4221.538, 4160.513, 450, 0, []
1630236999.9806, 97, 0, 4192.308, 4223.59, 4112.821, 4213.333, 4173.846, 450, 0, []
1630236999.9885, 98, 0, 4186.154, 4233.846, 4106.667, 4202.051, 4169.744, 450, 0, []
1630236999.9964, 99, 0, 4182.051, 4247.692, 4082.564, 4185.641, 4162.051, 16201, 0, []
1630237000.0043, 100, 0, 4189.744, 4257.436, 4096.923, 4182.564, 4166.667, 450, 0, []
1630237000.0121, 101, 0, 4205.128, 4257.949, 4107.179, 4190.256, 4180, 450, 0, []
1630237000.02, 102, 0, 4208.205, 4253.333, 4103.59, 4195.385, 4182.051, 450, 0, []
1630237000.0278, 103, 0, 4197.436, 4267.692, 4087.179, 4191.795, 4166.667, 16201, 0, []
1630237000.0356, 104, 0, 4191.282, 4303.59, 4075.897, 4180, 4161.538, 450, 0, []
1630237000.0434, 105, 0, 4198.974, 4314.359, 4091.282, 4186.154, 4170.256, 450, 0, []
1630237000.0513, 106, 0, 4195.385, 4303.077, 4075.897, 4183.077, 4169.744, 450, 0, []
1630237000.0591, 107, 0, 4191.795, 4307.179, 4074.872, 4170.769, 4161.538, 16201, 0, []
1630237000.067, 108, 0, 4206.667, 4312.308, 4081.026, 4168.718, 4167.179, 450, 0, []
1630237000.0747, 109, 0, 4217.949, 4294.359, 4064.615, 4172.308, 4180, 450, 0, []
1630237000.0827, 110, 0, 4216.41, 4292.308, 4078.462, 4186.667, 4177.949, 450, 0, []
1630237000.0906, 111, 0, 4208.205, 4298.462, 4074.359, 4185.128, 4169.744, 16201, 0, []
1630237000.0986, 112, 0, 4198.462, 4273.846, 4066.154, 4178.462, 4165.128, 450, 0, []
1630237000.1065, 113, 0, 4193.333, 4261.538, 4056.41, 4171.795, 4163.077, 450, 0, []
1630237000.1144, 114, 0, 4193.846, 4265.641, 4050.769, 4160, 4157.949, 450, 0, []
1630237000.1223, 115, 0, 4198.462, 4238.974, 4077.949, 4165.641, 4163.077, 16201, 0, []
1630237000.1303, 116, 0, 4208.205, 4212.308, 4057.949, 4169.231, 4172.308, 450, 0, []
1630237000.1382, 117, 0, 4211.282, 4220, 4058.462, 4171.795, 4158.462, 450, 0, []
1630237000.1462, 118, 0, 4201.026, 4230.769, 4069.231, 4167.179, 4144.615, 450, 0, []
1630237000.154, 119, 0, 4200.513, 4212.821, 4048.718, 4163.077, 4149.231, 16201, 0, []
1630237000.1618, 120, 0, 4209.744, 4205.641, 4072.821, 4187.179, 4156.923, 450, 0, []
1630237000.1697, 121, 0, 4209.231, 4231.282, 4065.128, 4190.256, 4155.385, 450, 0, []
1630237000.1775, 122, 0, 4197.436, 4224.615, 4063.59, 4181.026, 4152.821, 450, 0, []
1630237000.1854, 123, 0, 4208.718, 4203.59, 4058.974, 4169.744, 4161.026, 16201, 0, []
1630237000.1932, 124, 0, 4234.872, 4230.256, 4044.615, 4158.462, 4173.846, 450, 0, []
1630237000.201, 125, 0, 4231.282, 4235.385, 4085.641, 4181.026, 4174.872, 450, 0, []
1630237000.2088, 126, 0, 4209.744, 4182.564, 4053.333, 4174.359, 4151.795, 450, 0, []
1630237000.2167, 127, 0, 4214.872, 4185.128, 4044.615, 4170.769, 4150.256, 16201, 0, []
1630237000.2245, 128, 0, 4238.462, 4234.359, 4079.487, 4194.359, 4177.949, 450, 0, []
1630237000.2324, 0, 0, 4233.846, 4214.359, 4061.026, 4181.538, 4185.128, 450, 0, []
1630237000.2401, 1, 0, 4218.974, 4188.205, 4081.538, 4172.308, 4174.359, 450, 0, []
1630237000.2481, 2, 0, 4231.282, 4207.179, 4071.795, 4175.385, 4179.487, 16180, 0, []
1630237000.256, 3, 0, 4242.051, 4194.359, 4056.41, 4184.103, 4196.923, 450, 0, []
1630237000.264, 4, 0, 4262.051, 4173.333, 4072.308, 4193.333, 4228.205, 16103, 0, []
1630237000.2719, 5, 0, 4318.974, 4180.513, 4066.667, 4186.667, 4279.487, 450, 0, []
1630237000.2798, 6, 0, 4381.538, 4172.308, 4092.821, 4192.821, 4329.744, 16116, 0, []
1630237000.2877, 7, 0, 4426.154, 4150.769, 4092.308, 4189.231, 4376.41, 450, 0, []
1630237000.2957, 8, 0, 4463.077, 4155.897, 4077.949, 4177.949, 4412.821, 450, 0, []
1630237000.3036, 9, 0, 4487.692, 4173.333, 4071.795, 4169.744, 4418.974, 311, 0, []
1630237000.3116, 10, 0, 4490.769, 4179.487, 4053.846, 4161.026, 4412.821, 450, 0, []
1630237000.3194, 11, 0, 4472.308, 4164.103, 4081.026, 4170.256, 4410.769, 16195, 0, []
1630237000.3272, 12, 0, 4443.077, 4156.41, 4066.667, 4168.205, 4412.821, 450, 0, []
1630237000.3351, 13, 0, 4434.872, 4167.179, 4040, 4169.744, 4413.333, 450, 0, []
1630237000.3429, 14, 0, 4436.923, 4160.513, 4064.103, 4177.436, 4389.744, 450, 0, []
1630237000.3508, 15, 0, 4400.513, 4137.949, 4052.308, 4152.308, 4350.769, 16195, 0, []
1630237000.3585, 16, 0, 4360.513, 4138.974, 4057.949, 4152.308, 4336.923, 0, 0, []
1630237000.3664, 17, 0, 4366.154, 4168.718, 4068.718, 4182.564, 4342.051, 0, 0, []
1630237000.3742, 18, 0, 4357.949, 4170.256, 4054.872, 4183.59, 4327.179, 0, 0, []
1630237000.3821, 19, 0, 4312.821, 4142.564, 4066.667, 4179.487, 4304.103, 0, 0, []
1630237000.3899, 20, 0, 4292.821, 4150.256, 4063.077, 4186.154, 4289.744, 0, 0, []
1630237000.3978, 21, 0, 4282.564, 4181.026, 4064.103, 4177.436, 4268.205, 0, 0, []
1630237000.4057, 22, 0, 4265.128, 4175.385, 4063.077, 4150.769, 4251.795, 0, 0, []
1630237000.4137, 23, 0, 4270.256, 4152.821, 4060, 4147.692, 4253.333, 0, 0, []
1630237000.4216, 24, 0, 4272.821, 4162.051, 4090.256, 4175.897, 4252.821, 0, 0, []
1630237000.4296, 25, 0, 4248.718, 4175.897, 4080, 4173.846, 4238.974, 0, 0, []
1630237000.4374, 26, 0, 4238.462, 4166.667, 4076.41, 4163.077, 4229.231, 0, 0, []
1630237000.4454, 27, 0, 4247.179, 4161.538, 4109.231, 4180, 4226.667, 0, 0, []
1630237000.4533, 28, 0, 4231.282, 4185.641, 4093.846, 4177.436, 4206.667, 0, 0, []
1630237000.4612, 29, 0, 4209.744, 4197.436, 4072.821, 4168.718, 4188.718, 0, 0, []
1630237000.4691, 30, 0, 4220, 4187.692, 4073.333, 4174.359, 4196.923, 0, 0, []
1630237000.477, 31, 0, 4229.744, 4213.846, 4074.872, 4174.872, 4198.462, 0, 0, []
1630237000.4848, 32, 0, 4216.41, 4249.231, 4075.385, 4180.513, 4183.077, 0, 0, []
1630237000.4926, 33, 0, 4214.359, 4261.026, 4076.923, 4189.231, 4190.769, 0, 0, []
1630237000.5005, 34, 0, 4231.282, 4280, 4108.205, 4188.205, 4204.103, 0, 0, []
1630237000.5083, 35, 0, 4232.308, 4288.718, 4117.436, 4184.103, 4189.231, 0, 0, []
1630237000.5162, 36, 0, 4211.795, 4277.436, 4097.436, 4192.308, 4170.769, 0, 0, []
1630237000.5239, 37, 0, 4202.564, 4294.872, 4098.974, 4205.128, 4171.282, 0, 0, []
1630237000.5318, 38, 0, 4211.795, 4316.923, 4087.179, 4195.385, 4183.077, 0, 0, []
1630237000.5396, 39, 0, 4214.359, 4294.872, 4081.026, 4190.769, 4189.231, 0, 0, []
1630237000.5476, 40, 0, 4207.179, 4277.436, 4086.154, 4198.974, 4190.769, 0, 0, []
1630237000.5555, 41, 0, 4207.692, 4286.667, 4088.718, 4193.333, 4186.154, 0, 0, []
1630237000.5634, 42, 0, 4197.949, 4287.692, 4097.436, 4181.026, 4170.769, 0, 0, []
1630237000.5713, 43, 0, 4177.949, 4281.026, 4076.41, 4171.795, 4160.513, 0, 0, []
1630237000.5793, 44, 0, 4188.205, 4282.051, 4095.897, 4189.231, 4166.154, 0, 0, []
1630237000.5872, 45, 0, 4209.744, 4295.897, 4129.744, 4221.026, 4177.436, 0, 0, []
1630237000.5952, 46, 0, 4194.872, 4299.487, 4095.385, 4201.026, 4165.641, 0, 0, []
1630237000.603, 47, 0, 4173.846, 4290.769, 4092.821, 4182.051, 4154.872, 0, 0, []
1630237000.611, 48, 0, 4191.795, 4292.821, 4112.308, 4207.179, 4168.718, 0, 0, []
1630237000.6189, 49, 0, 4224.103, 4298.974, 4108.718, 4211.795, 4195.385, 0, 0, []
1630237000.6267, 50, 0, 4248.205, 4301.538, 4112.308, 4195.385, 4228.205, 0, 0, []
1630237000.6346, 51, 0, 4285.641, 4300.513, 4089.744, 4174.872, 4252.821, 0, 0, []
1630237000.6423, 52, 0, 4346.667, 4297.436, 4091.282, 4173.846, 4292.821, 0, 0, []
1630237000.6502, 53, 0, 4400, 4306.667, 4101.538, 4183.59, 4360.513, 0, 0, []
1630237000.658, 54, 0, 4418.974, 4317.949, 4082.564, 4166.667, 4391.282, 0, 0, []
1630237000.6659, 55, 0, 4436.923, 4309.231, 4087.179, 4169.231, 4385.128, 0, 0, []
1630237000.6737, 56, 0, 4465.641, 4290.256, 4076.41, 4180.513, 4407.179, 0, 0, []
1630237000.6815, 57, 0, 4462.564, 4288.718, 4073.333, 4175.385, 4432.821, 0, 0, []
1630237000.6893, 58, 0, 4448.205, 4296.923, 4081.026, 4168.718, 4434.872, 0, 0, []
1630237000.6972, 59, 0, 4454.872, 4294.872, 4078.462, 4164.615, 4440, 0, 0, []
1630237000.705, 60, 0, 4462.564, 4303.077, 4085.128, 4179.487, 4437.436, 0, 0, []
1630237000.713, 61, 0, 4461.538, 4311.282, 4075.897, 4180, 4430.769, 0, 0, []
1630237000.7209, 62, 0, 4448.718, 4294.359, 4102.564, 4181.026, 4430.256, 0, 0, []
1630237000.7288, 63, 0, 4416.923, 4285.128, 4102.051, 4184.103, 4412.821, 0, 0, []
1630237000.7367, 64, 0, 4400, 4298.462, 4081.538, 4182.564, 4377.949, 450, 0, []
1630237000.7447, 65, 0, 4408.205, 4296.923, 4108.718, 4202.051, 4359.487, 450, 0, []
1630237000.7526, 66, 0, 4390.256, 4278.462, 4101.538, 4189.744, 4360, 16180, 0, []
1630237000.7606, 67, 0, 4355.897, 4273.333, 4112.308, 4190.769, 4347.692, 450, 0, []
1630237000.7685, 68, 0, 4344.103, 4261.026, 4103.59, 4207.692, 4306.154, 16097, 0, []
1630237000.7764, 69, 0, 4323.59, 4243.59, 4079.487, 4182.051, 4271.282, 450, 0, []
1630237000.7844, 70, 0, 4297.949, 4237.436, 4106.154, 4174.872, 4275.385, 16075, 0, []
1630237000.7923, 71, 0, 4290.769, 4233.333, 4096.923, 4187.692, 4262.051, 450, 0, []
1630237000.8003, 72, 0, 4271.282, 4243.077, 4103.077, 4195.897, 4224.103, 450, 0, []
1630237000.8081, 73, 0, 4258.462, 4250.256, 4097.436, 4180.513, 4225.128, 311, 0, []
1630237000.8161, 74, 0, 4280, 4216.41, 4089.744, 4171.282, 4248.718, 450, 0, []
1630237000.824, 75, 0, 4293.333, 4183.59, 4109.231, 4187.692, 4257.436, 16186, 0, []
1630237000.832, 76, 0, 4298.462, 4216.923, 4076.41, 4178.974, 4268.718, 450, 0, []
1630237000.84, 77, 0, 4323.59, 4249.231, 4097.436, 4183.077, 4287.692, 450, 0, []
1630237000.8479, 78, 0, 4344.103, 4212.821, 4113.333, 4188.718, 4311.795, 450, 0, []
1630237000.8558, 79, 0, 4350.256, 4191.282, 4080, 4170.769, 4329.744, 16186, 0, []
1630237000.8638, 80, 0, 4368.718, 4223.59, 4092.308, 4168.718, 4327.179, 450, 0, []
1630237000.8717, 81, 0, 4389.231, 4224.615, 4085.641, 4161.026, 4346.667, 450, 0, []
1630237000.8797, 82, 0, 4393.846, 4186.667, 4093.333, 4171.795, 4381.538, 450, 0, []
1630237000.8875, 83, 0, 4390.256, 4191.795, 4102.051, 4190.769, 4363.077, 16186, 0, []
1630237000.8955, 84, 0, 4362.051, 4207.179, 4074.872, 4164.103, 4311.282, 450, 0, []
1630237000.9034, 85, 0, 4315.897, 4180, 4079.487, 4142.051, 4286.667, 450, 0, []
1630237000.9114, 86, 0, 4289.744, 4172.821, 4074.359, 4146.667, 4271.795, 450, 0, []
1630237000.9193, 87, 0, 4265.641, 4192.308, 4082.051, 4162.051, 4241.026, 16186, 0, []
1630237000.9272, 88, 0, 4240.513, 4198.462, 4088.718, 4161.538, 4222.564, 450, 0, []
1630237000.9351, 89, 0, 4233.333, 4195.385, 4075.897, 4148.718, 4216.923, 450, 0, []
1630237000.9431, 90, 0, 4229.744, 4195.385, 4092.308, 4160.513, 4203.077, 450, 0, []
1630237000.951, 91, 0, 4209.744, 4200, 4083.59, 4162.051, 4180, 16186, 0, []
1630237000.959, 92, 0, 4185.128, 4206.667, 4106.154, 4166.667, 4155.897, 450, 0, []
1630237000.9669, 93, 0, 4179.487, 4203.59, 4118.462, 4177.436, 4148.205, 450, 0, []
1630237000.9748, 94, 0, 4172.308, 4180, 4069.744, 4163.59, 4141.026, 450, 0, []
1630237000.9827, 95, 0, 4147.692, 4174.359, 4062.564, 4158.462, 4120.513, 16186, 0, []
1630237000.9907, 96, 0, 4132.821, 4192.308, 4054.359, 4154.359, 4111.282, 450, 0, []
1630237000.9986, 97, 0, 4141.538, 4196.41, 4076.923, 4167.179, 4114.872, 450, 0, []
1630237001.0066, 98, 0, 4152.308, 4195.897, 4105.641, 4183.59, 4115.897, 450, 0, []
1630237001.0145, 99, 0, 4138.462, 4206.154, 4074.359, 4162.564, 4108.718, 16186, 0, []
1630237001.0224, 100, 0, 4121.538, 4213.333, 4079.487, 4153.846, 4093.846, 450, 0, []
1630237001.0304, 101, 0, 4114.359, 4207.692, 4067.692, 4153.333, 4079.487, 450, 0, []
1630237001.0383, 102, 0, 4100, 4196.41, 4056.41, 4154.872, 4065.128, 450, 0, []
1630237001.0463, 103, 0, 4087.179, 4192.821, 4089.231, 4172.308, 4052.308, 16186, 0, []
1630237001.0542, 104, 0, 4100, 4195.897, 4083.077, 4174.872, 4056.41, 450, 0, []
1630237001.0621, 105, 0, 4125.641, 4193.333, 4102.564, 4189.231, 4072.821, 450, 0, []
1630237001.0701, 106, 0, 4131.795, 4197.436, 4115.385, 4198.462, 4078.974, 450, 0, []
1630237001.078, 107, 0, 4121.538, 4207.692, 4091.282, 4183.077, 4070.256, 16186, 0, []
1630237001.086, 108, 0, 4105.128, 4199.487, 4089.231, 4176.41, 4060, 450, 0, []
1630237001.0938, 109, 0, 4080.513, 4181.538, 4061.026, 4160.513, 4045.641, 450, 0, []
1630237001.1018, 110, 0, 4061.026, 4181.026, 4052.821, 4160, 4028.718, 450, 0, []
1630237001.1097, 111, 0, 4055.385, 4187.692, 4058.462, 4167.179, 4022.564, 16186, 0, []
1630237001.1177, 112, 0, 4055.385, 4188.718, 4059.487, 4158.462, 4023.077, 450, 0, []
1630237001.1256, 113, 0, 4057.436, 4203.077, 4088.718, 4163.59, 4026.667, 450, 0, []
1630237001.1335, 114, 0, 4067.692, 4209.231, 4084.103, 4164.103, 4025.641, 450, 0, []
1630237001.1415, 115, 0, 4071.282, 4190.769, 4088.205, 4160, 4022.051, 16186, 0, []
1630237001.1494, 116, 0, 4063.59, 4198.974, 4078.462, 4156.923, 4023.077, 450, 0, []
1630237001.1574, 117, 0, 4056.41, 4224.103, 4053.333, 4156.41, 4021.026, 450, 0, []
1630237001.1653, 118, 0, 4051.795, 4206.154, 4085.128, 4174.359, 4014.872, 450, 0, []
1630237001.1732, 119, 0, 4049.744, 4177.949, 4075.897, 4166.154, 4005.128, 16186, 0, []
1630237001.1811, 120, 0, 4041.026, 4189.231, 4060.513, 4147.692, 3995.385, 450, 0, []
1630237001.1891, 121, 0, 4043.59, 4197.436, 4070.256, 4152.821, 4000, 450, 0, []
1630237001.197, 122, 0, 4052.308, 4186.667, 4062.564, 4153.846, 4010.256, 450, 0, []
1630237001.205, 123, 0, 4045.641, 4187.692, 4079.487, 4156.41, 4002.564, 16186, 0, []
1630237001.2128, 124, 0, 4043.59, 4203.077, 4072.821, 4155.897, 4000.513, 450, 0, []
1630237001.2208, 125, 0, 4056.923, 4207.692, 4084.103, 4165.128, 4019.487, 450, 0, []
1630237001.2287, 126, 0, 4064.615, 4190.256, 4088.718, 4168.718, 4027.692, 450, 0, []
1630237001.2367, 127, 0, 4058.462, 4176.923, 4048.205, 4148.205, 4021.026, 16186, 0, []
1630237001.2446, 128, 0, 4058.974, 4191.795, 4062.564, 4163.59, 4023.59, 450, 0, []
1630237001.2526, 0, 0, 4057.436, 4212.308, 4057.949, 4170.769, 4029.744, 450, 0, []
1630237001.2604, 1, 0, 4041.026, 4206.154, 4050.769, 4154.872, 4016.923, 450, 0, []
1630237001.2684, 2, 0, 4036.923, 4202.051, 4076.41, 4161.026, 4008.718, 16195, 0, []
1630237001.2763, 3, 0, 4046.667, 4218.462, 4063.59, 4163.077, 4018.462, 450, 0, []
1630237001.2843, 4, 0, 4053.846, 4211.282, 4073.333, 4169.231, 4021.538, 16101, 0, []
1630237001.2923, 5, 0, 4058.462, 4198.462, 4074.872, 4171.795, 4030.769, 450, 0, []
1630237001.3001, 6, 0, 4061.026, 4218.974, 4062.564, 4168.205, 4039.487, 16078, 0, []
1630237001.3081, 7, 0, 4048.718, 4236.41, 4076.923, 4174.359, 4028.718, 450, 0, []
1630237001.316, 8, 0, 4041.026, 4230.769, 4063.077, 4167.692, 4020.513, 450, 0, []
1630237001.324, 9, 0, 4060, 4221.026, 4078.974, 4176.923, 4028.718, 309, 0, []
1630237001.3319, 10, 0, 4076.923, 4213.333, 4099.487, 4195.897, 4038.462, 450, 0, []
1630237001.3398, 11, 0, 4081.538, 4222.564, 4092.821, 4191.282, 4046.154, 16202, 0, []
1630237001.3477, 12, 0, 4089.231, 4238.462, 4100.513, 4183.077, 4054.359, 450, 0, []
1630237001.3557, 13, 0, 4088.718, 4217.949, 4074.872, 4165.641, 4045.641, 450, 0, []
1630237001.3636, 14, 0, 4067.179, 4179.487, 4068.205, 4152.821, 4032.308, 450, 0, []
1630237001.3716, 15, 0, 4058.462, 4195.897, 4071.795, 4153.333, 4040.513, 16202, 0, []
1630237001.3794, 16, 0, 4077.949, 4234.872, 4060.513, 4157.949, 4065.128, 0, 0, []
1630237001.3874, 17, 0, 4092.821, 4233.846, 4077.949, 4174.872, 4078.974, 0, 0, []
1630237001.3953, 18, 0, 4088.718, 4210.256, 4061.026, 4167.179, 4072.821, 0, 0, []
1630237001.4033, 19, 0, 4081.026, 4183.077, 4060.513, 4156.41, 4066.154, 0, 0, []
1630237001.4112, 20, 0, 4090.256, 4176.923, 4070.769, 4163.59, 4075.897, 0, 0, []
1630237001.4191, 21, 0, 4107.692, 4210.256, 4065.641, 4161.026, 4094.359, 0, 0, []
1630237001.427, 22, 0, 4134.872, 4238.462, 4101.026, 4175.385, 4120.513, 0, 0, []
1630237001.4349, 23, 0, 4175.897, 4227.179, 4102.051, 4186.154, 4159.487, 0, 0, []
1630237001.4428, 24, 0, 4210.256, 4224.615, 4094.872, 4190.256, 4202.564, 0, 0, []
1630237001.4507, 25, 0, 4258.462, 4256.923, 4092.308, 4193.846, 4242.564, 0, 0, []
1630237001.4586, 26, 0, 4325.641, 4263.077, 4081.026, 4185.128, 4287.179, 0, 0, []
1630237001.4666, 27, 0, 4362.564, 4243.077, 4112.308, 4193.333, 4333.333, 0, 0, []
1630237001.4745, 28, 0, 4372.308, 4253.333, 4104.615, 4189.231, 4354.872, 0, 0, []
1630237001.4824, 29, 0, 4386.667, 4264.615, 4095.897, 4185.128, 4348.718, 0, 0, []
1630237001.4904, 30, 0, 4384.103, 4244.103, 4111.282, 4194.359, 4351.795, 0, 0, []
1630237001.4983, 31, 0, 4352.821, 4236.41, 4090.769, 4182.564, 4348.718, 0, 0, []
1630237001.5062, 32, 0, 4314.359, 4248.718, 4093.333, 4172.308, 4294.872, 0, 0, []
1630237001.5141, 33, 0, 4272.821, 4244.103, 4077.436, 4157.436, 4236.923, 0, 0, []
1630237001.5221, 34, 0, 4251.282, 4232.821, 4075.897, 4154.872, 4224.615, 0, 0, []
1630237001.5301, 35, 0, 4260.513, 4249.231, 4116.41, 4178.462, 4235.385, 0, 0, []
1630237001.538, 36, 0, 4246.154, 4256.41, 4100, 4181.026, 4221.538, 0, 0, []
1630237001.5458, 37, 0, 4204.103, 4229.231, 4091.795, 4179.487, 4184.103, 0, 0, []
1630237001.5538, 38, 0, 4202.051, 4227.692, 4105.128, 4183.077, 4180.513, 0, 0, []
1630237001.5617, 39, 0, 4220.513, 4269.744, 4115.897, 4183.077, 4197.436, 0, 0, []
1630237001.5697, 40, 0, 4203.077, 4277.436, 4117.436, 4178.974, 4189.231, 0, 0, []
1630237001.5776, 41, 0, 4178.462, 4239.487, 4089.231, 4160.513, 4167.179, 0, 0, []
1630237001.5855, 42, 0, 4180, 4235.385, 4116.41, 4168.205, 4162.564, 0, 0, []
1630237001.5934, 43, 0, 4179.487, 4252.821, 4124.103, 4180.513, 4165.128, 0, 0, []
1630237001.6014, 44, 0, 4153.333, 4229.231, 4100, 4170.769, 4147.179, 0, 0, []
1630237001.6094, 45, 0, 4132.821, 4220, 4117.436, 4178.462, 4131.282, 0, 0, []
1630237001.6173, 46, 0, 4134.359, 4248.718, 4102.051, 4175.897, 4127.179, 0, 0, []
1630237001.6252, 47, 0, 4134.872, 4236.923, 4101.538, 4167.692, 4123.59, 0, 0, []
1630237001.6331, 48, 0, 4134.872, 4221.026, 4109.231, 4172.821, 4124.103, 0, 0, []
1630237001.6411, 49, 0, 4134.359, 4248.205, 4109.744, 4183.077, 4123.59, 0, 0, []
1630237001.649, 50, 0, 4122.051, 4257.436, 4128.718, 4188.205, 4116.923, 0, 0, []
1630237001.657, 51, 0, 4112.821, 4241.538, 4101.538, 4171.795, 4110.769, 0, 0, []
1630237001.6648, 52, 0, 4113.333, 4246.154, 4109.744, 4181.538, 4113.846, 0, 0, []
1630237001.6728, 53, 0, 4116.41, 4262.564, 4117.949, 4193.333, 4117.436, 0, 0, []
1630237001.6807, 54, 0, 4101.026, 4246.667, 4086.154, 4172.308, 4103.59, 0, 0, []
1630237001.6887, 55, 0, 4070.769, 4228.718, 4092.821, 4163.59, 4070.769, 0, 0, []
1630237001.6966, 56, 0, 4053.846, 4229.231, 4064.615, 4151.795, 4048.205, 0, 0, []
1630237001.7045, 57, 0, 4050.256, 4226.154, 4056.923, 4150.256, 4046.154, 0, 0, []
1630237001.7124, 58, 0, 4058.974, 4218.974, 4085.641, 4159.487, 4054.359, 0, 0, []
1630237001.7204, 59, 0, 4078.974, 4208.205, 4092.308, 4160.513, 4068.718, 0, 0, []
1630237001.7283, 60, 0, 4086.667, 4209.231, 4121.026, 4181.538, 4074.359, 0, 0, []
1630237001.7363, 61, 0, 4084.103, 4234.872, 4110.769, 4173.333, 4069.744, 0, 0, []
1630237001.7442, 62, 0, 4090.769, 4246.667, 4097.949, 4147.692, 4064.615, 0, 0, []
1630237001.7521, 63, 0, 4083.077, 4212.821, 4105.128, 4151.282, 4046.154, 0, 0, []
1630237001.7601, 64, 0, 4052.308, 4204.615, 4080, 4142.051, 4015.385, 450, 0, []
1630237001.768, 65, 0, 4042.051, 4229.744, 4084.103, 4132.308, 4009.744, 450, 0, []
1630237001.7759, 66, 0, 4055.897, 4229.231, 4086.667, 4140, 4026.667, 16195, 0, []
1630237001.7839, 67, 0, 4056.923, 4230.256, 4090.256, 4154.872, 4028.205, 450, 0, []
1630237001.7918, 68, 0, 4046.667, 4242.564, 4091.282, 4152.821, 4016.923, 16105, 0, []
1630237001.7997, 69, 0, 4043.077, 4231.795, 4061.026, 4133.333, 4009.231, 450, 0, []
1630237001.8077, 70, 0, 4053.333, 4212.308, 4090.769, 4151.282, 4021.026, 16082, 0, []
1630237001.8156, 71, 0, 4069.231, 4212.308, 4104.615, 4164.615, 4042.051, 450, 0, []
1630237001.8236, 72, 0, 4070.256, 4218.974, 4081.026, 4149.231, 4041.538, 450, 0, []
1630237001.8314, 73, 0, 4071.282, 4234.359, 4091.282, 4154.872, 4033.333, 303, 0, []
1630237001.8394, 74, 0, 4073.333, 4240, 4086.154, 4158.462, 4038.462, 450, 0, []
1630237001.8473, 75, 0, 4058.974, 4222.051, 4086.154, 4152.821, 4033.333, 16212, 0, []
1630237001.8553, 76, 0, 4051.282, 4227.179, 4068.718, 4155.897, 4020.513, 450, 0, []
1630237001.8632, 77, 0, 4063.59, 4235.897, 4062.051, 4166.154, 4026.667, 450, 0, []
1630237001.8711, 78, 0, 4069.231, 4221.538, 4078.462, 4165.128, 4033.333, 450, 0, []
1630237001.879, 79, 0, 4060.513, 4209.231, 4060, 4140, 4023.077, 16212, 0, []
1630237001.887, 80, 0, 4066.154, 4213.333, 4086.667, 4147.179, 4021.026, 450, 0, []
1630237001.8949, 81, 0, 4082.564, 4233.333, 4109.231, 4165.128, 4040.513, 450, 0, []
1630237001.9029, 82, 0, 4077.436, 4245.128, 4087.692, 4151.282, 4046.154, 450, 0, []
1630237001.9108, 83, 0, 4064.103, 4237.949, 4092.308, 4147.179, 4038.462, 16212, 0, []
1630237001.9187, 84, 0, 4068.205, 4234.872, 4079.487, 4152.821, 4040, 450, 0, []
1630237001.9267, 85, 0, 4062.564, 4226.667, 4075.897, 4162.564, 4033.333, 450, 0, []
1630237001.9346, 86, 0, 4045.128, 4195.897, 4066.154, 4149.744, 4013.846, 450, 0, []
1630237001.9426, 87, 0, 4048.205, 4192.308, 4053.846, 4130.256, 4009.744, 16212, 0, []
1630237001.9504, 88, 0, 4054.872, 4214.872, 4083.59, 4144.103, 4019.487, 450, 0, []
1630237001.9584, 89, 0, 4050.256, 4210.769, 4070.769, 4146.154, 4019.487, 450, 0, []
1630237001.9663, 90, 0, 4050.769, 4202.564, 4065.128, 4147.692, 4019.487, 450, 0, []
1630237001.9743, 91, 0, 4061.538, 4219.487, 4072.308, 4161.026, 4029.744, 16212, 0, []
1630237001.9822, 92, 0, 4065.641, 4237.949, 4054.359, 4160.513, 4037.436, 450, 0, []
1630237001.9902, 93, 0, 4067.179, 4236.41, 4073.846, 4168.718, 4038.462, 450, 0, []
1630237001.998, 94, 0, 4071.795, 4229.231, 4065.641, 4164.615, 4039.487, 450, 0, []
1630237002.006, 95, 0, 4067.692, 4212.308, 4069.744, 4156.923, 4040, 16212, 0, []
1630237002.0139, 96, 0, 4062.051, 4192.308, 4090.769, 4160.513, 4043.077, 450, 0, []
1630237002.0219, 97, 0, 4055.385, 4202.564, 4054.872, 4140.513, 4045.128, 450, 0, []
1630237002.0298, 98, 0, 4052.308, 4225.641, 4056.41, 4142.051, 4040, 450, 0, []
1630237002.0377, 99, 0, 4057.949, 4233.333, 4061.538, 4169.231, 4048.718, 16212, 0, []
1630237002.0456, 100, 0, 4055.897, 4226.154, 4052.821, 4176.41, 4056.41, 450, 0, []
1630237002.0536, 101, 0, 4053.846, 4206.667, 4074.359, 4176.41, 4046.667, 450, 0, []
1630237002.0615, 102, 0, 4060.513, 4175.897, 4069.744, 4160.513, 4046.667, 450, 0, []
1630237002.0695, 103, 0, 4055.385, 4180.513, 4072.308, 4135.385, 4045.641, 16212, 0, []
1630237002.0773, 104, 0, 4039.487, 4209.231, 4061.026, 4118.974, 4030.256, 450, 0, []
1630237002.0853, 105, 0, 4035.385, 4206.667, 4044.615, 4123.59, 4021.538, 450, 0, []
1630237002.0933, 106, 0, 4045.128, 4223.59, 4065.128, 4151.282, 4033.333, 450, 0, []
1630237002.1012, 107, 0, 4056.41, 4252.308, 4063.59, 4155.385, 4043.59, 16212, 0, []
1630237002.1092, 108, 0, 4055.897, 4234.872, 4070.256, 4152.308, 4037.949, 450, 0, []
1630237002.117, 109, 0, 4051.282, 4214.872, 4066.667, 4154.359, 4043.59, 450, 0, []
1630237002.125, 110, 0, 4054.872, 4217.436, 4059.487, 4149.231, 4053.846, 450, 0, []
1630237002.1329, 111, 0, 4052.308, 4220, 4075.897, 4153.333, 4042.564, 16212, 0, []
1630237002.1409, 112, 0, 4049.744, 4216.41, 4051.282, 4150.769, 4031.795, 450, 0, []
1630237002.1488, 113, 0, 4060.513, 4197.436, 4050.256, 4154.359, 4037.436, 450, 0, []
1630237002.1567, 114, 0, 4072.308, 4188.205, 4058.462, 4150.769, 4049.231, 450, 0, []
1630237002.1646, 115, 0, 4089.744, 4215.385, 4069.231, 4156.41, 4074.359, 16212, 0, []
1630237002.1726, 116, 0, 4110.256, 4216.923, 4113.846, 4188.718, 4111.795, 450, 0, []
1630237002.1805, 117, 0, 4097.949, 4194.359, 4090.769, 4167.692, 4106.667, 450, 0, []
1630237002.1885, 118, 0, 4068.718, 4202.564, 4071.282, 4137.949, 4074.359, 450, 0, []
1630237002.1963, 119, 0, 4076.41, 4204.615, 4078.974, 4156.923, 4078.462, 16212, 0, []
1630237002.2043, 120, 0, 4100.513, 4197.949, 4067.692, 4168.718, 4093.846, 450, 0, []
1630237002.2122, 121, 0, 4108.205, 4204.615, 4089.231, 4170.769, 4094.872, 450, 0, []
1630237002.2202, 122, 0, 4107.692, 4190.256, 4078.974, 4169.231, 4095.385, 450, 0, []
1630237002.2282, 123, 0, 4103.59, 4185.128, 4071.795, 4169.231, 4089.744, 16212, 0, []
1630237002.2361, 124, 0, 4104.103, 4213.846, 4082.564, 4161.026, 4081.538, 450, 0, []
1630237002.244, 125, 0, 4099.487, 4206.154, 4064.615, 4135.385, 4074.872, 450, 0, []
1630237002.2519, 126, 0, 4088.205, 4190.256, 4068.718, 4134.359, 4068.205, 450, 0, []
1630237002.2599, 127, 0, 4090.256, 4217.949, 4056.923, 4145.641, 4074.359, 16212, 0, []
1630237002.2678, 128, 0, 4100.513, 4212.308, 4066.667, 4162.564, 4080.513, 450, 0, []
1630237002.2758, 0, 0, 4100.513, 4172.821, 4081.026, 4177.436, 4072.308, 450, 0, []
1630237002.2836, 1, 0, 4097.949, 4176.923, 4047.179, 4163.077, 4072.308, 450, 0, []
1630237002.2916, 2, 0, 4110.256, 4201.026, 4062.051, 4160.513, 4088.205, 16192, 0, []
1630237002.2995, 3, 0, 4122.564, 4193.846, 4072.308, 4154.359, 4095.897, 450, 0, []
1630237002.3075, 4, 0, 4115.897, 4186.154, 4065.641, 4143.59, 4086.154, 16104, 0, []
1630237002.3154, 5, 0, 4104.103, 4198.462, 4072.308, 4149.231, 4082.051, 450, 0, []
1630237002.3233, 6, 0, 4108.718, 4212.821, 4053.333, 4149.231, 4086.667, 16078, 0, []
1630237002.3312, 7, 0, 4118.974, 4213.333, 4069.744, 4164.615, 4091.282, 450, 0, []
1630237002.3392, 8, 0, 4125.641, 4210.256, 4071.282, 4175.385, 4101.538, 450, 0, []
1630237002.3471, 9, 0, 4131.795, 4208.205, 4064.615, 4168.718, 4112.821, 307, 0, []
1630237002.3551, 10, 0, 4134.872, 4198.974, 4086.667, 4167.692, 4116.41, 450, 0, []
1630237002.3629, 11, 0, 4133.846, 4212.821, 4075.897, 4155.897, 4112.821, 16207, 0, []
1630237002.3709, 12, 0, 4125.128, 4234.359, 4090.256, 4154.872, 4104.615, 450, 0, []
1630237002.3788, 13, 0, 4115.385, 4234.872, 4090.769, 4150.769, 4097.436, 450, 0, []
1630237002.3868, 14, 0, 4109.744, 4231.795, 4078.462, 4137.949, 4091.795, 450, 0, []
1630237002.3947, 15, 0, 4118.974, 4234.872, 4093.333, 4150.769, 4093.846, 16207, 0, []
1630237002.4026, 16, 0, 4145.641, 4230.769, 4078.974, 4168.718, 4107.179, 0, 0, []
1630237002.4106, 17, 0, 4166.667, 4222.051, 4100.513, 4192.308, 4130.256, 0, 0, []
1630237002.4185, 18, 0, 4175.385, 4235.897, 4113.333, 4202.051, 4145.128, 0, 0, []
1630237002.4265, 19, 0, 4178.974, 4242.564, 4093.333, 4194.872, 4146.154, 0, 0, []
1630237002.4344, 20, 0, 4174.359, 4229.744, 4110.769, 4203.59, 4141.026, 0, 0, []
1630237002.4423, 21, 0, 4155.897, 4221.538, 4097.436, 4191.795, 4127.179, 0, 0, []
1630237002.4502, 22, 0, 4144.103, 4222.564, 4095.385, 4175.385, 4114.359, 0, 0, []
1630237002.4581, 23, 0, 4155.897, 4233.846, 4110.769, 4181.538, 4124.103, 0, 0, []
1630237002.466, 24, 0, 4165.641, 4233.846, 4107.692, 4181.538, 4133.333, 0, 0, []
1630237002.474, 25, 0, 4159.487, 4212.308, 4113.846, 4175.897, 4123.59, 0, 0, []
1630237002.482, 26, 0, 4161.538, 4195.385, 4087.179, 4166.667, 4125.128, 0, 0, []
1630237002.4898, 27, 0, 4172.308, 4218.462, 4094.872, 4182.051, 4145.128, 0, 0, []
1630237002.4977, 28, 0, 4175.897, 4251.282, 4117.436, 4205.128, 4160, 0, 0, []
1630237002.5057, 29, 0, 4174.359, 4252.308, 4101.026, 4204.103, 4162.051, 0, 0, []
1630237002.5136, 30, 0, 4178.974, 4249.231, 4127.692, 4210.769, 4163.077, 0, 0, []
1630237002.5216, 31, 0, 4188.205, 4255.897, 4133.333, 4207.179, 4159.487, 0, 0, []
1630237002.5294, 32, 0, 4182.051, 4254.872, 4120, 4197.436, 4145.128, 0, 0, []
1630237002.5374, 33, 0, 4168.205, 4242.564, 4119.487, 4195.897, 4136.41, 0, 0, []
1630237002.5453, 34, 0, 4171.282, 4237.436, 4103.59, 4185.641, 4145.128, 0, 0, []
1630237002.5533, 35, 0, 4180.513, 4252.308, 4117.949, 4195.897, 4154.359, 0, 0, []
1630237002.5613, 36, 0, 4182.051, 4259.487, 4103.077, 4198.974, 4158.974, 0, 0, []
1630237002.5691, 37, 0, 4178.974, 4237.436, 4095.897, 4192.821, 4164.103, 0, 0, []
1630237002.5771, 38, 0, 4166.667, 4219.487, 4113.846, 4198.462, 4157.436, 0, 0, []
1630237002.585, 39, 0, 4151.282, 4227.692, 4085.641, 4186.667, 4143.077, 0, 0, []
1630237002.593, 40, 0, 4152.821, 4243.59, 4094.872, 4180.513, 4144.615, 0, 0, []
1630237002.6009, 41, 0, 4161.538, 4256.923, 4101.538, 4172.308, 4150.769, 0, 0, []
1630237002.6088, 42, 0, 4151.795, 4239.487, 4089.744, 4150.769, 4138.974, 0, 0, []
1630237002.6167, 43, 0, 4137.949, 4206.667, 4092.308, 4147.692, 4122.051, 0, 0, []
1630237002.6247, 44, 0, 4132.308, 4210.769, 4068.205, 4151.282, 4121.538, 0, 0, []
1630237002.6326, 45, 0, 4131.795, 4231.282, 4078.974, 4168.205, 4123.59, 0, 0, []
1630237002.6406, 46, 0, 4140.513, 4223.077, 4080.513, 4175.897, 4130.769, 0, 0, []
1630237002.6484, 47, 0, 4151.282, 4217.949, 4073.846, 4174.872, 4145.128, 0, 0, []
1630237002.6564, 48, 0, 4145.128, 4237.436, 4095.897, 4182.564, 4142.051, 0, 0, []
1630237002.6643, 49, 0, 4128.205, 4247.692, 4067.179, 4155.897, 4117.436, 0, 0, []
1630237002.6723, 50, 0, 4128.205, 4232.308, 4063.077, 4147.692, 4107.179, 0, 0, []
1630237002.6802, 51, 0, 4145.128, 4213.846, 4074.872, 4175.897, 4126.667, 0, 0, []
1630237002.6881, 52, 0, 4145.641, 4224.103, 4066.154, 4181.538, 4133.333, 0, 0, []
1630237002.696, 53, 0, 4137.949, 4229.744, 4084.103, 4184.103, 4120, 0, 0, []
1630237002.704, 54, 0, 4146.667, 4221.026, 4076.923, 4186.154, 4122.051, 0, 0, []
1630237002.712, 55, 0, 4154.872, 4221.538, 4089.231, 4184.615, 4129.231, 0, 0, []
1630237002.7199, 56, 0, 4152.308, 4232.821, 4093.333, 4172.821, 4125.128, 0, 0, []
1630237002.7279, 57, 0, 4149.231, 4239.487, 4071.282, 4158.974, 4118.974, 0, 0, []
1630237002.7357, 58, 0, 4148.718, 4229.744, 4091.795, 4171.282, 4122.051, 0, 0, []
1630237002.7437, 59, 0, 4152.308, 4227.692, 4075.385, 4172.821, 4125.641, 0, 0, []
1630237002.7516, 60, 0, 4158.974, 4233.333, 4064.615, 4174.872, 4131.282, 0, 0, []
1630237002.7596, 61, 0, 4166.667, 4221.026, 4082.051, 4186.667, 4142.051, 0, 0, []
1630237002.7675, 62, 0, 4169.231, 4208.205, 4075.385, 4178.974, 4141.026, 0, 0, []
1630237002.7754, 63, 0, 4165.641, 4219.487, 4086.154, 4179.487, 4131.795, 0, 0, []
1630237002.7833, 64, 0, 4162.051, 4225.641, 4069.744, 4177.949, 4127.692, 450, 0, []
1630237002.7913, 65, 0, 4163.59, 4217.436, 4069.744, 4176.923, 4126.667, 450, 0, []
1630237002.7992, 66, 0, 4163.59, 4233.846, 4091.795, 4188.718, 4127.692, 16212, 0, []
1630237002.8072, 67, 0, 4154.359, 4230.769, 4071.282, 4184.103, 4121.026, 450, 0, []
1630237002.815, 68, 0, 4158.974, 4203.59, 4076.41, 4188.205, 4120, 16085, 0, []
1630237002.823, 69, 0, 4176.923, 4225.128, 4062.051, 4183.077, 4130.256, 450, 0, []
1630237002.8309, 70, 0, 4171.282, 4243.59, 4045.641, 4167.692, 4119.487, 324, 0, []
1630237002.8389, 71, 0, 4154.872, 4211.282, 4057.436, 4165.128, 4091.795, 450, 0, []
1630237002.8468, 72, 0, 4160, 4214.872, 4044.615, 4152.821, 4093.333, 450, 0, []
1630237002.8547, 73, 0, 4169.744, 4247.179, 4057.949, 4153.846, 4106.154, 320, 0, []
1630237002.8627, 74, 0, 4166.667, 4243.59, 4054.872, 4164.615, 4100.513, 450, 0, []
1630237002.8706, 75, 0, 4158.974, 4234.872, 4051.795, 4173.333, 4094.359, 16198, 0, []
1630237002.8786, 76, 0, 4157.436, 4234.872, 4070.256, 4188.718, 4104.103, 450, 0, []
1630237002.8865, 77, 0, 4165.128, 4224.103, 4048.205, 4183.077, 4117.436, 450, 0, []
1630237002.8944, 78, 0, 4162.564, 4226.667, 4061.026, 4184.615, 4117.949, 450, 0, []
1630237002.9023, 79, 0, 4156.41, 4248.718, 4071.795, 4187.692, 4116.923, 16198, 0, []
1630237002.9103, 80, 0, 4163.077, 4240.513, 4070.769, 4182.051, 4119.487, 450, 0, []
1630237002.9182, 81, 0, 4164.615, 4223.59, 4093.333, 4184.615, 4108.718, 450, 0, []
1630237002.9262, 82, 0, 4157.949, 4232.308, 4072.821, 4169.231, 4095.897, 450, 0, []
1630237002.934, 83, 0, 4157.949, 4231.282, 4070.256, 4161.538, 4096.923, 16198, 0, []
1630237002.942, 84, 0, 4162.564, 4212.308, 4069.744, 4165.641, 4106.154, 450, 0, []
1630237002.9499, 85, 0, 4162.051, 4212.821, 4061.026, 4163.59, 4109.231, 450, 0, []
1630237002.9579, 86, 0, 4162.564, 4238.462, 4096.923, 4172.821, 4112.308, 450, 0, []
1630237002.9658, 87, 0, 4164.615, 4242.051, 4087.179, 4168.205, 4111.282, 16198, 0, []
1630237002.9738, 88, 0, 4154.359, 4229.231, 4072.821, 4163.077, 4103.59, 450, 0, []
1630237002.9816, 89, 0, 4158.462, 4240, 4075.897, 4169.744, 4106.154, 450, 0, []
1630237002.9896, 90, 0, 4172.308, 4236.41, 4075.385, 4169.231, 4111.795, 450, 0, []
1630237002.9975, 91, 0, 4171.795, 4219.487, 4098.462, 4174.359, 4105.641, 16198, 0, []
1630237003.0055, 92, 0, 4169.231, 4234.359, 4082.564, 4166.154, 4108.718, 450, 0, []
1630237003.0135, 93, 0, 4178.462, 4241.538, 4086.667, 4168.718, 4122.564, 450, 0, []
1630237003.0213, 94, 0, 4191.795, 4233.333, 4100, 4187.692, 4133.333, 450, 0, []
1630237003.0293, 95, 0, 4195.385, 4248.205, 4079.487, 4194.359, 4131.795, 16198, 0, []
1630237003.0372, 96, 0, 4189.231, 4260, 4095.385, 4203.077, 4124.103, 450, 0, []
1630237003.0452, 97, 0, 4180.513, 4252.821, 4086.667, 4185.641, 4115.897, 450, 0, []
1630237003.0531, 98, 0, 4168.718, 4230.256, 4086.154, 4159.487, 4100, 450, 0, []
1630237003.061, 99, 0, 4161.538, 4216.41, 4100.513, 4159.487, 4086.667, 16198, 0, []
1630237003.0689, 100, 0, 4156.41, 4235.897, 4070.769, 4158.462, 4087.692, 450, 0, []
1630237003.0769, 101, 0, 4155.897, 4244.615, 4080, 4173.846, 4103.077, 450, 0, []
1630237003.0848, 102, 0, 4167.179, 4222.564, 4090.256, 4190.256, 4116.923, 450, 0, []
1630237003.0928, 103, 0, 4167.692, 4217.436, 4081.538, 4186.667, 4110.256, 16198, 0, []
1630237003.1006, 104, 0, 4157.949, 4239.487, 4070.769, 4177.436, 4100, 450, 0, []
1630237003.1086, 105, 0, 4170.256, 4249.231, 4056.41, 4164.615, 4110.256, 450, 0, []
1630237003.1165, 106, 0, 4183.077, 4231.795, 4092.821, 4173.846, 4118.974, 450, 0, []
1630237003.1245, 107, 0, 4167.179, 4218.462, 4086.154, 4168.205, 4106.667, 16198, 0, []
1630237003.1324, 108, 0, 4156.41, 4222.564, 4063.077, 4149.231, 4097.949, 450, 0, []
1630237003.1403, 109, 0, 4168.205, 4226.667, 4087.179, 4157.436, 4105.641, 450, 0, []
1630237003.1482, 110, 0, 4174.359, 4223.077, 4071.795, 4163.59, 4111.795, 450, 0, []
1630237003.1562, 111, 0, 4174.872, 4212.308, 4075.385, 4169.744, 4115.385, 16198, 0, []
1630237003.1641, 112, 0, 4188.205, 4214.872, 4081.538, 4169.744, 4125.128, 450, 0, []
1630237003.1721, 113, 0, 4192.308, 4236.41, 4067.692, 4165.641, 4124.103, 450, 0, []
1630237003.1799, 114, 0, 4177.949, 4237.949, 4075.385, 4177.436, 4109.231, 450, 0, []
1630237003.1879, 115, 0, 4172.821, 4220, 4062.051, 4177.436, 4104.103, 16198, 0, []
1630237003.1959, 116, 0, 4185.641, 4233.846, 4081.026, 4187.179, 4111.795, 450, 0, []
1630237003.2038, 117, 0, 4196.923, 4260, 4087.179, 4194.359, 4125.641, 450, 0, []
1630237003.2118, 118, 0, 4203.077, 4267.179, 4074.359, 4187.179, 4145.128, 450, 0, []
1630237003.2197, 119, 0, 4227.179, 4283.077, 4111.795, 4203.077, 4166.154, 16198, 0, []
1630237003.2276, 120, 0, 4244.103, 4271.282, 4106.154, 4193.846, 4170.256, 450, 0, []
1630237003.2355, 121, 0, 4220.513, 4235.385, 4093.846, 4176.923, 4158.462, 450, 0, []
1630237003.2435, 122, 0, 4205.641, 4249.744, 4092.308, 4189.231, 4154.359, 450, 0, []
1630237003.2514, 123, 0, 4219.487, 4273.846, 4086.667, 4201.026, 4161.538, 16198, 0, []
1630237003.2594, 124, 0, 4225.128, 4268.205, 4106.667, 4211.282, 4168.718, 450, 0, []
1630237003.2672, 125, 0, 4221.538, 4265.128, 4087.692, 4202.051, 4173.846, 450, 0, []
1630237003.2752, 126, 0, 4227.692, 4253.846, 4091.795, 4194.872, 4176.41, 450, 0, []
1630237003.2831, 127, 0, 4231.282, 4254.359, 4105.641, 4190.256, 4171.795, 16198, 0, []
1630237003.2911, 128, 0, 4215.385, 4271.795, 4075.897, 4177.949, 4152.821, 450, 0, []
1630237003.299, 0, 0, 4205.128, 4265.128, 4083.59, 4187.692, 4138.462, 450, 0, []
1630237003.3069, 1, 0, 4214.872, 4257.436, 4087.692, 4188.718, 4153.333, 450, 0, []
1630237003.3148, 2, 0, 4229.744, 4257.436, 4107.179, 4194.872, 4172.821, 16185, 0, []
1630237003.3228, 3, 0, 4238.462, 4252.308, 4135.385, 4209.231, 4180.513, 450, 0, []
1630237003.3307, 4, 0, 4232.821, 4267.692, 4116.923, 4196.41, 4181.538, 16109, 0, []
1630237003.3387, 5, 0, 4218.462, 4280.513, 4120, 4186.154, 4171.795, 450, 0, []
1630237003.3466, 6, 0, 4208.205, 4260, 4100, 4175.385, 4159.487, 16063, 0, []
1630237003.3545, 7, 0, 4208.205, 4267.179, 4086.667, 4176.923, 4156.923, 450, 0, []
1630237003.3625, 8, 0, 4220, 4294.359, 4109.231, 4202.564, 4173.846, 450, 0, []
1630237003.3704, 9, 0, 4231.795, 4263.59, 4093.846, 4207.179, 4183.077, 325, 0, []
1630237003.3784, 10, 0, 4223.59, 4228.718, 4098.462, 4192.821, 4167.179, 450, 0, []
1630237003.3862, 11, 0, 4214.872, 4257.949, 4097.436, 4170.256, 4165.128, 16185, 0, []
1630237003.3942, 12, 0, 4208.205, 4291.795, 4090.256, 4157.436, 4161.026, 450, 0, []
1630237003.4021, 13, 0, 4201.538, 4283.077, 4104.103, 4177.949, 4145.641, 450, 0, []
1630237003.4101, 14, 0, 4226.154, 4258.974, 4100.513, 4193.846, 4160.513, 450, 0, []
1630237003.418, 15, 0, 4252.308, 4250.769, 4129.744, 4203.077, 4186.667, 16185, 0, []
1630237003.4259, 16, 0, 4242.564, 4268.718, 4126.154, 4206.667, 4177.949, 0, 0, []
1630237003.4338, 17, 0, 4229.231, 4280.513, 4103.077, 4208.205, 4155.897, 0, 0, []
1630237003.4418, 18, 0, 4227.692, 4254.872, 4112.308, 4210.769, 4152.821, 0, 0, []
1630237003.4497, 19, 0, 4208.205, 4243.59, 4075.897, 4177.436, 4141.026, 0, 0, []
1630237003.4576, 20, 0, 4183.59, 4274.872, 4070.256, 4155.897, 4122.051, 0, 0, []
1630237003.4656, 21, 0, 4191.795, 4293.333, 4083.59, 4168.205, 4126.154, 0, 0, []
1630237003.4735, 22, 0, 4217.436, 4272.308, 4088.718, 4183.077, 4148.718, 0, 0, []
1630237003.4815, 23, 0, 4230.256, 4231.282, 4118.462, 4205.128, 4162.051, 0, 0, []
1630237003.4894, 24, 0, 4216.41, 4210.769, 4106.154, 4200, 4141.538, 0, 0, []
1630237003.4974, 25, 0, 4187.692, 4226.154, 4101.026, 4180.513, 4113.333, 0, 0, []
1630237003.5053, 26, 0, 4181.026, 4237.949, 4092.308, 4167.692, 4110.256, 0, 0, []
1630237003.5132, 27, 0, 4191.795, 4234.872, 4075.897, 4162.564, 4125.641, 0, 0, []
1630237003.5211, 28, 0, 4193.333, 4247.179, 4109.744, 4177.949, 4132.821, 0, 0, []
1630237003.5291, 29, 0, 4188.205, 4260, 4092.308, 4169.231, 4128.205, 0, 0, []
1630237003.537, 30, 0, 4196.41, 4253.846, 4067.179, 4159.487, 4129.744, 0, 0, []
1630237003.545, 31, 0, 4211.282, 4248.205, 4082.051, 4178.462, 4145.641, 0, 0, []
1630237003.5528, 32, 0, 4205.128, 4234.359, 4082.564, 4181.026, 4144.103, 0, 0, []
1630237003.5608, 33, 0, 4189.744, 4219.487, 4096.41, 4170.256, 4125.128, 0, 0, []
1630237003.5687, 34, 0, 4198.974, 4236.923, 4089.744, 4164.615, 4129.231, 0, 0, []
1630237003.5767, 35, 0, 4220, 4246.667, 4096.41, 4177.436, 4136.41, 0, 0, []
1630237003.5846, 36, 0, 4218.974, 4239.487, 4100.513, 4184.615, 4130.769, 0, 0, []
1630237003.5925, 37, 0, 4206.154, 4249.231, 4062.051, 4169.231, 4133.846, 0, 0, []
1630237003.6004, 38, 0, 4207.692, 4264.103, 4075.385, 4183.59, 4149.744, 0, 0, []
1630237003.6084, 39, 0, 4220, 4264.615, 4085.128, 4193.333, 4154.359, 0, 0, []
1630237003.6163, 40, 0, 4228.718, 4250.256, 4100, 4183.59, 4153.333, 0, 0, []
1630237003.6243, 41, 0, 4237.436, 4243.59, 4125.128, 4189.744, 4166.667, 0, 0, []
1630237003.6321, 42, 0, 4239.487, 4253.846, 4089.231, 4180.513, 4167.692, 0, 0, []
1630237003.6401, 43, 0, 4222.051, 4258.974, 4081.026, 4171.795, 4150.769, 0, 0, []
1630237003.6481, 44, 0, 4206.154, 4255.385, 4077.436, 4163.59, 4140, 0, 0, []
1630237003.656, 45, 0, 4199.487, 4249.744, 4072.821, 4155.385, 4137.949, 0, 0, []
1630237003.664, 46, 0, 4200.513, 4241.026, 4084.103, 4171.795, 4138.974, 0, 0, []
1630237003.6718, 47, 0, 4206.154, 4242.564, 4073.846, 4182.564, 4143.59, 0, 0, []
1630237003.6798, 48, 0, 4210.769, 4256.923, 4101.538, 4190.256, 4149.744, 0, 0, []
1630237003.6877, 49, 0, 4210.769, 4254.872, 4093.846, 4182.564, 4146.154, 0, 0, []
1630237003.6957, 50, 0, 4198.462, 4229.744, 4063.59, 4177.436, 4130.256, 0, 0, []
1630237003.7036, 51, 0, 4188.205, 4210.256, 4072.821, 4186.667, 4119.487, 0, 0, []
1630237003.7115, 52, 0, 4184.615, 4225.128, 4057.949, 4174.359, 4128.205, 0, 0, []
1630237003.7194, 53, 0, 4181.538, 4243.077, 4068.205, 4176.41, 4135.897, 0, 0, []
1630237003.7274, 54, 0, 4184.615, 4230.769, 4067.179, 4180, 4134.872, 0, 0, []
1630237003.7353, 55, 0, 4192.308, 4224.103, 4050.256, 4170.256, 4133.846, 0, 0, []
1630237003.7433, 56, 0, 4198.974, 4254.872, 4073.846, 4178.974, 4137.949, 0, 0, []
1630237003.7512, 57, 0, 4206.154, 4255.385, 4060.513, 4176.41, 4147.692, 0, 0, []
1630237003.7591, 58, 0, 4214.872, 4217.949, 4063.59, 4176.41, 4154.359, 0, 0, []
1630237003.767, 59, 0, 4211.282, 4220, 4074.359, 4183.59, 4161.538, 0, 0, []
1630237003.775, 60, 0, 4198.974, 4236.41, 4057.949, 4171.795, 4152.821, 0, 0, []
1630237003.7829, 61, 0, 4192.821, 4249.231, 4073.846, 4178.974, 4135.897, 0, 0, []
1630237003.7909, 62, 0, 4202.564, 4268.718, 4062.564, 4192.821, 4145.128, 0, 0, []
1630237003.7988, 63, 0, 4209.744, 4256.923, 4055.897, 4192.308, 4169.744, 0, 0, []
1630237003.8067, 64, 0, 4204.615, 4246.154, 4063.59, 4181.538, 4169.744, 450, 0, []
1630237003.8147, 65, 0, 4208.718, 4255.385, 4063.59, 4168.205, 4162.564, 450, 0, []
1630237003.8226, 66, 0, 4216.41, 4236.41, 4083.077, 4174.872, 4165.128, 16187, 0, []
1630237003.8306, 67, 0, 4202.564, 4215.385, 4057.949, 4173.846, 4154.872, 450, 0, []
1630237003.8384, 68, 0, 4188.718, 4223.59, 4054.359, 4178.974, 4144.103, 16103, 0, []
1630237003.8464, 69, 0, 4201.538, 4228.718, 4075.897, 4196.41, 4155.897, 450, 0, []
1630237003.8543, 70, 0, 4208.718, 4236.41, 4053.846, 4189.231, 4164.615, 16064, 0, []
1630237003.8623, 71, 0, 4191.795, 4240, 4061.538, 4187.692, 4149.231, 450, 0, []
1630237003.8702, 72, 0, 4185.128, 4223.077, 4062.564, 4183.077, 4142.051, 450, 0, []
1630237003.8781, 73, 0, 4189.744, 4218.974, 4057.949, 4174.359, 4148.205, 319, 0, []
1630237003.886, 74, 0, 4181.538, 4230.769, 4059.487, 4172.821, 4147.179, 450, 0, []
1630237003.894, 75, 0, 4170.256, 4245.128, 4034.872, 4157.436, 4139.487, 16192, 0, []
1630237003.9019, 76, 0, 4176.41, 4262.051, 4058.974, 4166.667, 4143.59, 450, 0, []
1630237003.9099, 77, 0, 4197.436, 4253.333, 4065.641, 4186.667, 4166.667, 450, 0, []
1630237003.9177, 78, 0, 4198.462, 4234.359, 4045.128, 4185.128, 4172.308, 450, 0, []
1630237003.9257, 79, 0, 4181.026, 4251.795, 4054.872, 4181.026, 4158.974, 16192, 0, []
1630237003.9336, 80, 0, 4185.641, 4254.872, 4041.538, 4174.872, 4161.538, 450, 0, []
1630237003.9415, 81, 0, 4199.487, 4227.179, 4042.564, 4175.897, 4165.641, 450, 0, []
1630237003.9494, 82, 0, 4186.154, 4215.897, 4036.41, 4159.487, 4149.231, 450, 0, []
1630237003.9571, 83, 0, 4166.154, 4215.385, 4030.769, 4134.872, 4131.282, 16192, 0, []
1630237003.9651, 84, 0, 4176.41, 4212.821, 4058.974, 4149.231, 4143.077, 450, 0, []
1630237003.973, 85, 0, 4191.282, 4220, 4050.256, 4160, 4153.333, 450, 0, []
1630237003.981, 86, 0, 4180, 4227.692, 4062.051, 4163.59, 4143.077, 450, 0, []
1630237003.9889, 87, 0, 4185.128, 4213.333, 4068.205, 4173.333, 4159.487, 16192, 0, []
1630237003.9969, 88, 0, 4224.103, 4213.333, 4054.872, 4181.538, 4209.744, 450, 0, []
1630237004.0047, 89, 0, 4252.821, 4236.923, 4081.026, 4192.308, 4241.538, 450, 0, []
1630237004.0127, 90, 0, 4252.308, 4246.154, 4067.692, 4181.026, 4233.333, 450, 0, []
1630237004.0206, 91, 0, 4248.718, 4245.128, 4066.154, 4178.462, 4226.667, 16192, 0, []
1630237004.0286, 92, 0, 4261.026, 4235.385, 4081.026, 4190.256, 4238.462, 450, 0, []
1630237004.0365, 93, 0, 4263.59, 4228.205, 4077.436, 4188.718, 4238.462, 450, 0, []
1630237004.0444, 94, 0, 4246.667, 4241.026, 4088.718, 4195.385, 4223.077, 450, 0, []
1630237004.0523, 95, 0, 4230.769, 4248.718, 4052.308, 4180.513, 4206.667, 16192, 0, []
1630237004.0603, 96, 0, 4223.59, 4232.821, 4044.615, 4165.128, 4200, 450, 0, []
1630237004.0682, 97, 0, 4223.077, 4243.077, 4073.846, 4171.282, 4203.077, 450, 0, []
1630237004.0762, 98, 0, 4223.077, 4253.846, 4071.282, 4164.615, 4211.795, 450, 0, []
1630237004.084, 99, 0, 4230.256, 4223.077, 4085.641, 4173.333, 4217.436, 16192, 0, []
1630237004.0918, 100, 0, 4238.974, 4210.769, 4077.949, 4184.615, 4218.462, 450, 0, []
1630237004.0997, 101, 0, 4232.308, 4231.795, 4080, 4193.333, 4218.462, 450, 0, []
1630237004.1075, 102, 0, 4221.538, 4248.718, 4076.923, 4190.256, 4211.795, 450, 0, []
1630237004.1154, 103, 0, 4213.846, 4249.231, 4045.641, 4165.128, 4203.077, 16192, 0, []
1630237004.1231, 104, 0, 4211.795, 4247.692, 4075.385, 4170.256, 4195.385, 450, 0, []
1630237004.1311, 105, 0, 4215.897, 4251.282, 4076.41, 4172.308, 4193.846, 450, 0, []
1630237004.139, 106, 0, 4225.641, 4248.205, 4057.949, 4162.564, 4195.897, 450, 0, []
1630237004.147, 107, 0, 4240, 4238.462, 4082.564, 4178.462, 4201.538, 16192, 0, []
1630237004.1549, 108, 0, 4248.205, 4230.769, 4088.205, 4192.821, 4213.333, 450, 0, []
1630237004.1628, 109, 0, 4248.205, 4224.615, 4095.385, 4201.026, 4224.615, 450, 0, []
1630237004.1707, 110, 0, 4241.538, 4235.385, 4078.462, 4182.564, 4228.205, 450, 0, []
1630237004.1787, 111, 0, 4227.179, 4270.256, 4069.231, 4154.872, 4205.128, 16192, 0, []
1630237004.1866, 112, 0, 4226.667, 4268.205, 4088.718, 4161.026, 4193.846, 450, 0, []
1630237004.1946, 113, 0, 4246.154, 4232.308, 4078.462, 4173.846, 4227.179, 450, 0, []
1630237004.2024, 114, 0, 4252.308, 4238.462, 4094.872, 4182.051, 4247.179, 450, 0, []
1630237004.2104, 115, 0, 4247.179, 4257.949, 4092.821, 4171.795, 4244.103, 16192, 0, []
1630237004.2183, 116, 0, 4256.923, 4233.333, 4082.564, 4162.051, 4255.897, 450, 0, []
1630237004.2263, 117, 0, 4256.923, 4220.513, 4102.564, 4168.205, 4258.462, 450, 0, []
1630237004.2342, 118, 0, 4230.256, 4237.436, 4078.974, 4156.923, 4224.615, 450, 0, []
1630237004.242, 119, 0, 4204.103, 4227.179, 4078.974, 4162.564, 4189.744, 16192, 0, []
1630237004.2498, 120, 0, 4204.615, 4231.282, 4078.974, 4174.872, 4191.282, 450, 0, []
1630237004.2576, 121, 0, 4227.179, 4257.949, 4063.077, 4169.744, 4220.513, 450, 0, []
1630237004.2655, 122, 0, 4249.231, 4240, 4092.308, 4178.974, 4250.256, 450, 0, []
1630237004.2733, 123, 0, 4259.487, 4233.333, 4096.41, 4183.59, 4253.846, 16192, 0, []
1630237004.2813, 124, 0, 4260, 4257.436, 4112.308, 4188.718, 4240, 450, 0, []
1630237004.2891, 125, 0, 4255.385, 4245.641, 4117.436, 4188.205, 4236.41, 450, 0, []
1630237004.2971, 126, 0, 4247.179, 4229.744, 4084.103, 4170.769, 4228.205, 450, 0, []
1630237004.305, 127, 0, 4230.769, 4243.077, 4088.205, 4172.821, 4211.795, 16192, 0, []
1630237004.313, 128, 0, 4212.308, 4236.41, 4070.769, 4173.846, 4195.897, 450, 0, []
1630237004.3209, 0, 0, 4205.641, 4214.872, 4069.744, 4173.333, 4192.308, 450, 0, []
1630237004.3288, 1, 0, 4220.513, 4226.667, 4079.487, 4186.667, 4207.692, 450, 0, []
1630237004.3367, 2, 0, 4244.615, 4244.615, 4063.59, 4189.231, 4221.026, 16189, 0, []
1630237004.3447, 3, 0, 4267.692, 4260.513, 4096.41, 4186.667, 4236.41, 450, 0, []
1630237004.3526, 4, 0, 4278.462, 4280.513, 4110.256, 4164.615, 4244.615, 16104, 0, []
1630237004.3606, 5, 0, 4254.872, 4258.974, 4108.718, 4146.154, 4214.359, 450, 0, []
1630237004.3684, 6, 0, 4227.692, 4224.615, 4107.179, 4166.667, 4185.641, 16071, 0, []
1630237004.3762, 7, 0, 4225.128, 4226.667, 4079.487, 4190.256, 4191.795, 450, 0, []
1630237004.3841, 8, 0, 4213.846, 4233.846, 4074.359, 4197.949, 4191.795, 450, 0, []
1630237004.3919, 9, 0, 4205.128, 4224.103, 4055.897, 4188.718, 4183.077, 309, 0, []
1630237004.3998, 10, 0, 4228.718, 4226.154, 4078.462, 4193.846, 4202.564, 450, 0, []
1630237004.4075, 11, 0, 4245.641, 4236.41, 4108.205, 4197.949, 4214.872, 16196, 0, []
1630237004.4154, 12, 0, 4220.513, 4224.615, 4067.179, 4172.821, 4185.128, 450, 0, []
1630237004.4232, 13, 0, 4198.974, 4222.051, 4072.821, 4182.051, 4174.872, 450, 0, []
1630237004.4312, 14, 0, 4219.487, 4247.692, 4075.897, 4189.231, 4213.333, 450, 0, []
1630237004.4391, 15, 0, 4247.692, 4250.769, 4074.359, 4167.179, 4264.615, 16196, 0, []
1630237004.447, 16, 0, 4266.154, 4218.974, 4113.333, 4173.846, 4300.513, 0, 0, []
1630237004.4548, 17, 0, 4277.949, 4211.282, 4098.462, 4186.667, 4318.462, 0, 0, []
1630237004.4627, 18, 0, 4272.308, 4225.128, 4080.513, 4196.923, 4326.667, 0, 0, []
1630237004.4707, 19, 0, 4264.615, 4230.769, 4081.026, 4196.41, 4329.231, 0, 0, []
1630237004.4787, 20, 0, 4265.128, 4220, 4093.846, 4190.769, 4314.872, 0, 0, []
1630237004.4866, 21, 0, 4251.795, 4198.462, 4105.641, 4203.59, 4291.282, 0, 0, []
1630237004.4945, 22, 0, 4228.205, 4207.692, 4071.282, 4191.795, 4277.949, 0, 0, []
1630237004.5024, 23, 0, 4223.077, 4240, 4075.897, 4171.282, 4266.667, 0, 0, []
1630237004.5104, 24, 0, 4236.923, 4249.744, 4087.692, 4163.077, 4254.872, 0, 0, []
1630237004.5183, 25, 0, 4247.692, 4231.282, 4089.744, 4161.538, 4252.821, 0, 0, []
1630237004.5263, 26, 0, 4250.769, 4210.256, 4108.718, 4186.154, 4250.769, 0, 0, []
1630237004.5341, 27, 0, 4246.667, 4212.821, 4068.718, 4193.333, 4237.436, 0, 0, []
1630237004.5419, 28, 0, 4241.538, 4227.179, 4063.077, 4204.103, 4231.282, 0, 0, []
1630237004.5498, 29, 0, 4247.692, 4225.128, 4090.256, 4216.923, 4234.359, 0, 0, []
1630237004.5576, 30, 0, 4242.051, 4204.615, 4084.103, 4192.308, 4221.538, 0, 0, []
1630237004.5655, 31, 0, 4233.846, 4187.179, 4100, 4185.128, 4209.231, 0, 0, []
1630237004.5732, 32, 0, 4243.077, 4181.538, 4090.769, 4187.179, 4214.872, 0, 0, []
1630237004.5811, 33, 0, 4242.051, 4201.538, 4086.154, 4194.872, 4210.256, 0, 0, []
1630237004.5889, 34, 0, 4217.436, 4227.692, 4080, 4196.923, 4184.103, 0, 0, []
1630237004.5969, 35, 0, 4194.872, 4212.821, 4052.308, 4166.667, 4162.051, 0, 0, []
1630237004.6048, 36, 0, 4197.949, 4205.641, 4071.795, 4163.59, 4155.385, 0, 0, []
1630237004.6127, 37, 0, 4211.795, 4219.487, 4074.872, 4169.744, 4161.538, 0, 0, []
1630237004.6206, 38, 0, 4210.256, 4208.718, 4076.923, 4167.179, 4163.077, 0, 0, []
1630237004.6286, 39, 0, 4204.615, 4198.974, 4080.513, 4176.41, 4164.103, 0, 0, []
1630237004.6365, 40, 0, 4202.564, 4200.513, 4060.513, 4180, 4168.718, 0, 0, []
1630237004.6445, 41, 0, 4187.179, 4194.359, 4080.513, 4182.051, 4153.333, 0, 0, []
1630237004.6523, 42, 0, 4165.641, 4184.615, 4069.744, 4177.436, 4130.256, 0, 0, []
1630237004.6603, 43, 0, 4162.564, 4177.436, 4057.949, 4185.128, 4128.205, 0, 0, []
1630237004.6682, 44, 0, 4169.231, 4185.128, 4080.513, 4202.564, 4139.487, 0, 0, []
1630237004.6762, 45, 0, 4175.385, 4215.897, 4078.462, 4195.897, 4143.59, 0, 0, []
1630237004.6841, 46, 0, 4182.051, 4237.436, 4094.872, 4197.436, 4140.513, 0, 0, []
1630237004.6919, 47, 0, 4179.487, 4217.436, 4079.487, 4193.846, 4138.974, 0, 0, []
1630237004.6997, 48, 0, 4165.641, 4196.41, 4064.615, 4186.667, 4130.769, 0, 0, []
1630237004.7075, 49, 0, 4160, 4213.846, 4085.128, 4197.436, 4125.128, 0, 0, []
1630237004.7154, 50, 0, 4164.103, 4227.179, 4069.231, 4189.744, 4128.205, 0, 0, []
1630237004.7232, 51, 0, 4160, 4198.974, 4084.615, 4187.692, 4128.205, 0, 0, []
1630237004.7311, 52, 0, 4161.538, 4195.385, 4083.59, 4185.641, 4126.154, 0, 0, []
1630237004.7388, 53, 0, 4171.282, 4223.077, 4064.615, 4176.923, 4130.769, 0, 0, []
1630237004.7468, 54, 0, 4169.744, 4206.667, 4083.077, 4186.667, 4126.667, 0, 0, []
1630237004.7547, 55, 0, 4160.513, 4185.128, 4067.692, 4180, 4113.846, 0, 0, []
1630237004.7627, 56, 0, 4160, 4212.308, 4070.769, 4178.462, 4117.436, 0, 0, []
1630237004.7706, 57, 0, 4160.513, 4232.308, 4072.821, 4178.974, 4127.179, 0, 0, []
1630237004.7785, 58, 0, 4151.795, 4212.821, 4056.923, 4170.256, 4118.974, 0, 0, []
1630237004.7864, 59, 0, 4151.282, 4201.026, 4079.487, 4178.974, 4113.333, 0, 0, []
1630237004.7944, 60, 0, 4160.513, 4228.718, 4080.513, 4175.897, 4119.487, 0, 0, []
1630237004.8023, 61, 0, 4159.487, 4249.744, 4088.205, 4178.974, 4121.538, 0, 0, []
1630237004.8103, 62, 0, 4154.359, 4222.051, 4081.538, 4188.205, 4124.103, 0, 0, []
1630237004.8181, 63, 0, 4155.897, 4202.051, 4064.615, 4184.103, 4134.359, 0, 0, []
1630237004.8261, 64, 0, 4157.436, 4230.256, 4090.769, 4190.256, 4134.359, 450, 0, []
1630237004.834, 65, 0, 4151.795, 4236.41, 4071.795, 4178.462, 4126.667, 450, 0, []
1630237004.8418, 66, 0, 4149.231, 4206.154, 4062.564, 4172.308, 4131.282, 16213, 0, []
1630237004.8497, 67, 0, 4150.256, 4209.744, 4080, 4170.769, 4137.436, 450, 0, []
1630237004.8574, 68, 0, 4147.692, 4236.923, 4066.667, 4144.103, 4124.615, 16097, 0, []
1630237004.8653, 69, 0, 4136.41, 4226.667, 4075.385, 4150.256, 4113.333, 450, 0, []
1630237004.8731, 70, 0, 4136.923, 4213.333, 4071.795, 4174.359, 4126.154, 16100, 0, []
1630237004.8811, 71, 0, 4152.821, 4231.795, 4084.615, 4187.179, 4145.128, 450, 0, []
1630237004.889, 72, 0, 4155.897, 4237.436, 4087.692, 4187.179, 4144.103, 450, 0, []
1630237004.8968, 73, 0, 4137.949, 4225.128, 4046.667, 4168.205, 4128.718, 284, 0, []
1630237004.9046, 74, 0, 4131.282, 4230.256, 4057.949, 4167.179, 4118.462, 450, 0, []
1630237004.9126, 75, 0, 4142.564, 4223.077, 4060.513, 4160, 4117.436, 16223, 0, []
1630237004.9205, 76, 0, 4148.205, 4196.923, 4057.949, 4157.436, 4115.897, 450, 0, []
1630237004.9285, 77, 0, 4146.154, 4220.513, 4075.385, 4176.923, 4121.538, 450, 0, []
1630237004.9364, 78, 0, 4148.205, 4247.179, 4056.923, 4173.846, 4132.821, 450, 0, []
1630237004.9443, 79, 0, 4158.974, 4212.308, 4065.641, 4176.41, 4133.846, 16223, 0, []
1630237004.9522, 80, 0, 4161.538, 4197.949, 4064.103, 4178.462, 4127.179, 450, 0, []
1630237004.9602, 81, 0, 4146.154, 4213.333, 4055.897, 4173.846, 4121.026, 450, 0, []
1630237004.9681, 82, 0, 4149.744, 4205.641, 4065.641, 4183.077, 4124.615, 450, 0, []
1630237004.9761, 83, 0, 4161.538, 4198.462, 4039.487, 4175.385, 4129.231, 16223, 0, []
1630237004.9839, 84, 0, 4139.487, 4208.205, 4037.436, 4167.692, 4122.051, 450, 0, []
1630237004.9917, 85, 0, 4123.59, 4213.846, 4032.821, 4163.077, 4117.436, 450, 0, []
1630237004.9996, 86, 0, 4142.564, 4207.179, 4038.462, 4165.641, 4122.051, 450, 0, []
1630237005.0074, 87, 0, 4158.462, 4202.564, 4067.179, 4179.487, 4128.205, 16223, 0, []
1630237005.0153, 88, 0, 4152.821, 4204.615, 4037.436, 4162.051, 4128.205, 450, 0, []
1630237005.023, 89, 0, 4149.744, 4213.846, 4043.077, 4164.615, 4127.692, 450, 0, []
1630237005.0309, 90, 0, 4158.462, 4221.026, 4063.59, 4181.026, 4135.897, 450, 0, []
1630237005.0387, 91, 0, 4162.051, 4211.795, 4055.385, 4171.282, 4138.462, 16223, 0, []
1630237005.0466, 92, 0, 4157.436, 4210.769, 4073.846, 4180, 4135.897, 450, 0, []
1630237005.0544, 93, 0, 4165.641, 4221.026, 4066.667, 4185.128, 4146.667, 450, 0, []
1630237005.0623, 94, 0, 4174.359, 4212.308, 4073.846, 4180.513, 4154.359, 450, 0, []
1630237005.0702, 95, 0, 4166.667, 4195.897, 4075.385, 4177.436, 4146.154, 16223, 0, []
1630237005.0782, 96, 0, 4160, 4211.282, 4057.436, 4177.949, 4141.538, 450, 0, []
1630237005.0861, 97, 0, 4158.974, 4238.974, 4077.436, 4185.641, 4143.59, 450, 0, []
1630237005.0941, 98, 0, 4159.487, 4227.179, 4059.487, 4169.744, 4140.513, 450, 0, []
1630237005.1019, 99, 0, 4162.051, 4210.256, 4050.256, 4164.615, 4138.974, 16223, 0, []
1630237005.1099, 100, 0, 4163.077, 4218.974, 4052.821, 4164.615, 4136.923, 450, 0, []
1630237005.1178, 101, 0, 4157.436, 4222.051, 4031.282, 4156.41, 4132.308, 450, 0, []
1630237005.1258, 102, 0, 4150.256, 4215.897, 4058.462, 4173.846, 4136.41, 450, 0, []
1630237005.1337, 103, 0, 4149.744, 4218.462, 4057.949, 4170.769, 4139.487, 16223, 0, []
1630237005.1415, 104, 0, 4154.872, 4216.923, 4050.256, 4162.051, 4136.41, 450, 0, []
1630237005.1493, 105, 0, 4164.103, 4215.897, 4061.026, 4175.897, 4143.077, 450, 0, []
1630237005.1571, 106, 0, 4155.897, 4214.872, 4053.846, 4170.256, 4144.103, 450, 0, []
1630237005.165, 107, 0, 4138.462, 4203.077, 4074.359, 4171.795, 4134.359, 16223, 0, []
1630237005.1728, 108, 0, 4144.615, 4204.615, 4059.487, 4169.744, 4138.974, 450, 0, []
1630237005.1807, 109, 0, 4152.308, 4215.385, 4050.769, 4163.59, 4144.615, 450, 0, []
1630237005.1884, 110, 0, 4146.154, 4225.128, 4069.231, 4173.846, 4138.974, 450, 0, []
1630237005.1963, 111, 0, 4143.59, 4243.077, 4045.641, 4177.436, 4139.487, 16223, 0, []
1630237005.2041, 112, 0, 4145.128, 4245.128, 4048.205, 4180.513, 4138.974, 450, 0, []
1630237005.2121, 113, 0, 4142.564, 4221.026, 4046.667, 4176.923, 4138.462, 450, 0, []
1630237005.22, 114, 0, 4141.538, 4208.205, 4042.564, 4171.282, 4147.179, 450, 0, []
1630237005.2279, 115, 0, 4149.231, 4213.846, 4056.41, 4166.667, 4154.359, 16223, 0, []
1630237005.2358, 116, 0, 4161.538, 4221.538, 4049.231, 4162.051, 4160.513, 450, 0, []
1630237005.2438, 117, 0, 4164.103, 4223.59, 4076.41, 4182.051, 4162.564, 450, 0, []
1630237005.2517, 118, 0, 4160, 4219.487, 4071.795, 4174.359, 4159.487, 450, 0, []
1630237005.2597, 119, 0, 4170.256, 4222.051, 4058.974, 4162.051, 4176.41, 16223, 0, []
1630237005.2675, 120, 0, 4184.615, 4236.923, 4094.872, 4190.256, 4199.487, 450, 0, []
1630237005.2755, 121, 0, 4198.462, 4245.128, 4084.615, 4192.308, 4203.077, 450, 0, []
1630237005.2834, 122, 0, 4227.179, 4235.897, 4084.103, 4191.282, 4231.282, 450, 0, []
1630237005.2912, 123, 0, 4284.615, 4241.026, 4091.282, 4201.538, 4300.513, 16223, 0, []
1630237005.2991, 124, 0, 4357.949, 4258.462, 4088.205, 4197.949, 4352.821, 450, 0, []
1630237005.3068, 125, 0, 4420.513, 4255.897, 4109.231, 4197.949, 4395.385, 450, 0, []
1630237005.3147, 126, 0, 4475.897, 4252.308, 4091.282, 4182.051, 4467.692, 450, 0, []
1630237005.3225, 127, 0, 4535.385, 4274.359, 4087.692, 4170.769, 4529.231, 16223, 0, []
1630237005.3304, 128, 0, 4592.308, 4287.692, 4085.128, 4179.487, 4560.513, 450, 0, []
1630237005.3382, 0, 0, 4623.59, 4256.923, 4071.282, 4181.538, 4583.59, 450, 0, []
1630237005.3461, 1, 0, 4634.359, 4243.59, 4098.974, 4177.949, 4581.538, 450, 0, []
1630237005.354, 2, 0, 4625.641, 4270.769, 4092.308, 4167.692, 4544.103, 16208, 0, []
1630237005.362, 3, 0, 4583.077, 4275.385, 4091.795, 4168.718, 4487.179, 450, 0, []
1630237005.3699, 4, 0, 4537.436, 4260, 4093.846, 4160.513, 4430.256, 16077, 0, []
1630237005.3779, 5, 0, 4496.41, 4268.718, 4066.667, 4140, 4370.256, 450, 0, []
1630237005.3858, 6, 0, 4447.692, 4261.538, 4087.692, 4144.615, 4318.974, 16071, 0, []
1630237005.3937, 7, 0, 4398.974, 4222.564, 4085.128, 4132.821, 4286.667, 450, 0, []
1630237005.4016, 8, 0, 4363.59, 4218.974, 4070.769, 4126.154, 4245.641, 450, 0, []
1630237005.4096, 9, 0, 4348.718, 4231.795, 4076.923, 4138.974, 4217.949, 271, 0, []
1630237005.4175, 10, 0, 4336.923, 4235.897, 4075.385, 4136.923, 4220, 450, 0, []
1630237005.4255, 11, 0, 4312.821, 4248.205, 4092.821, 4139.487, 4203.077, 16185, 0, []
1630237005.4333, 12, 0, 4281.026, 4230.256, 4068.205, 4129.231, 4176.41, 450, 0, []
1630237005.4413, 13, 0, 4269.231, 4209.744, 4064.103, 4129.231, 4183.077, 450, 0, []
1630237005.4492, 14, 0, 4277.949, 4247.179, 4103.59, 4160, 4196.41, 450, 0, []
1630237005.4571, 15, 0, 4267.179, 4266.154, 4106.667, 4173.333, 4185.128, 16185, 0, []
1630237005.465, 16, 0, 4251.795, 4238.462, 4126.154, 4176.923, 4177.436, 0, 0, []
1630237005.4729, 17, 0, 4272.308, 4263.077, 4127.692, 4177.436, 4197.436, 0, 0, []
1630237005.4808, 18, 0, 4287.692, 4293.846, 4126.154, 4184.103, 4213.846, 0, 0, []
1630237005.4886, 19, 0, 4256.41, 4251.795, 4116.923, 4173.846, 4187.692, 0, 0, []
1630237005.4965, 20, 0, 4226.667, 4226.154, 4061.538, 4138.462, 4154.359, 0, 0, []
1630237005.5043, 21, 0, 4224.615, 4250.769, 4078.462, 4150.256, 4161.026, 0, 0, []
1630237005.5121, 22, 0, 4225.128, 4241.538, 4103.59, 4173.333, 4177.949, 0, 0, []
1630237005.5199, 23, 0, 4222.051, 4207.179, 4086.667, 4161.538, 4166.667, 0, 0, []
1630237005.5279, 24, 0, 4211.282, 4216.923, 4089.231, 4160, 4147.179, 0, 0, []
1630237005.5358, 25, 0, 4190.769, 4232.821, 4072.821, 4158.974, 4128.205, 0, 0, []
1630237005.5438, 26, 0, 4182.051, 4213.333, 4081.538, 4161.538, 4114.872, 0, 0, []
1630237005.5516, 27, 0, 4190.256, 4215.385, 4082.051, 4172.821, 4124.103, 0, 0, []
1630237005.5596, 28, 0, 4193.333, 4237.436, 4073.846, 4180.513, 4137.436, 0, 0, []
1630237005.5675, 29, 0, 4199.487, 4232.308, 4109.744, 4188.205, 4150.769, 0, 0, []
1630237005.5755, 30, 0, 4208.718, 4222.051, 4097.436, 4173.333, 4160.513, 0, 0, []
1630237005.5834, 31, 0, 4180.513, 4215.385, 4070.256, 4157.436, 4141.026, 0, 0, []
1630237005.5913, 32, 0, 4141.538, 4202.564, 4050.256, 4152.821, 4108.205, 0, 0, []
1630237005.5992, 33, 0, 4147.179, 4203.077, 4057.436, 4151.795, 4108.718, 0, 0, []
1630237005.607, 34, 0, 4179.487, 4216.41, 4110.769, 4164.615, 4135.897, 0, 0, []
1630237005.6149, 35, 0, 4184.103, 4221.026, 4105.128, 4156.41, 4144.103, 0, 0, []
1630237005.6227, 36, 0, 4170.769, 4224.103, 4107.692, 4160.513, 4134.359, 0, 0, []
1630237005.6306, 37, 0, 4189.231, 4234.359, 4121.538, 4186.154, 4147.179, 0, 0, []
1630237005.6383, 38, 0, 4207.692, 4232.308, 4094.872, 4185.641, 4159.487, 0, 0, []
1630237005.6462, 39, 0, 4185.128, 4217.949, 4096.41, 4176.923, 4138.462, 0, 0, []
1630237005.654, 40, 0, 4168.205, 4224.615, 4081.538, 4167.692, 4116.923, 0, 0, []
1630237005.662, 41, 0, 4177.949, 4237.949, 4078.974, 4168.205, 4121.026, 0, 0, []
1630237005.6699, 42, 0, 4179.487, 4212.308, 4082.564, 4161.538, 4118.974, 0, 0, []
1630237005.6778, 43, 0, 4161.538, 4184.615, 4050.769, 4135.385, 4093.333, 0, 0, []
1630237005.6857, 44, 0, 4145.128, 4193.846, 4065.128, 4136.41, 4073.846, 0, 0, []
1630237005.6937, 45, 0, 4135.385, 4206.667, 4076.923, 4148.205, 4080.513, 0, 0, []
1630237005.7016, 46, 0, 4131.282, 4206.667, 4088.205, 4165.641, 4092.821, 0, 0, []
1630237005.7096, 47, 0, 4135.385, 4203.077, 4105.641, 4184.103, 4099.487, 0, 0, []
1630237005.7174, 48, 0, 4141.538, 4209.744, 4079.487, 4170.769, 4101.538, 0, 0, []
1630237005.7254, 49, 0, 4147.179, 4226.667, 4083.077, 4160.513, 4096.41, 0, 0, []
1630237005.7333, 50, 0, 4153.846, 4234.359, 4071.795, 4147.692, 4095.385, 0, 0, []
1630237005.7411, 51, 0, 4155.385, 4219.487, 4065.641, 4131.282, 4107.692, 0, 0, []
1630237005.749, 52, 0, 4159.487, 4201.026, 4092.308, 4151.795, 4116.923, 0, 0, []
1630237005.7567, 53, 0, 4164.103, 4198.974, 4085.641, 4177.949, 4113.846, 0, 0, []
1630237005.7646, 54, 0, 4154.359, 4192.308, 4102.051, 4190.256, 4103.59, 0, 0, []
1630237005.7724, 55, 0, 4139.487, 4198.974, 4102.051, 4177.436, 4095.897, 0, 0, []
1630237005.7804, 56, 0, 4141.538, 4222.564, 4083.59, 4165.128, 4096.41, 0, 0, []
1630237005.7883, 57, 0, 4155.385, 4236.923, 4094.872, 4178.462, 4105.641, 0, 0, []
1630237005.7961, 58, 0, 4163.077, 4247.692, 4085.128, 4174.872, 4122.051, 0, 0, []
1630237005.8039, 59, 0, 4164.615, 4240.513, 4100.513, 4175.897, 4131.795, 0, 0, []
1630237005.8118, 60, 0, 4168.205, 4234.359, 4097.949, 4178.974, 4134.872, 0, 0, []
1630237005.8196, 61, 0, 4182.564, 4251.282, 4081.538, 4169.231, 4149.231, 0, 0, []
1630237005.8275, 62, 0, 4196.41, 4264.615, 4112.821, 4184.103, 4169.744, 0, 0, []
1630237005.8353, 63, 0, 4192.308, 4259.487, 4109.744, 4191.282, 4171.282, 0, 0, []
1630237005.8432, 64, 0, 4175.385, 4252.308, 4114.872, 4185.641, 4158.462, 450, 0, []
1630237005.8511, 65, 0, 4178.974, 4249.744, 4123.077, 4186.667, 4160, 450, 0, []
1630237005.8591, 66, 0, 4193.846, 4238.462, 4114.872, 4189.231, 4161.538, 16208, 0, []
1630237005.867, 67, 0, 4190.256, 4242.564, 4127.179, 4186.667, 4147.692, 450, 0, []
1630237005.875, 68, 0, 4178.974, 4245.128, 4090.256, 4155.385, 4139.487, 16075, 0, []
1630237005.8828, 69, 0, 4178.974, 4223.59, 4077.436, 4147.179, 4137.436, 450, 0, []
1630237005.8908, 70, 0, 4190.769, 4235.385, 4102.051, 4176.41, 4147.179, 16071, 0, []
1630237005.8987, 71, 0, 4195.897, 4262.564, 4105.128, 4190.256, 4160, 450, 0, []
1630237005.9065, 72, 0, 4188.718, 4251.282, 4129.744, 4197.949, 4155.897, 450, 0, []
1630237005.9144, 73, 0, 4188.205, 4224.615, 4122.564, 4192.821, 4151.282, 302, 0, []
1630237005.9223, 74, 0, 4192.821, 4209.744, 4120, 4184.103, 4158.974, 450, 0, []
1630237005.9302, 75, 0, 4195.385, 4215.897, 4132.308, 4185.641, 4165.641, 16213, 0, []
1630237005.938, 76, 0, 4200, 4243.59, 4113.333, 4181.026, 4162.564, 450, 0, []
1630237005.9459, 77, 0, 4198.462, 4272.821, 4119.487, 4186.667, 4160.513, 450, 0, []
1630237005.9537, 78, 0, 4194.872, 4273.333, 4104.103, 4180, 4158.462, 450, 0, []
1630237005.9615, 79, 0, 4200, 4257.436, 4102.564, 4175.897, 4160.513, 16213, 0, []
1630237005.9693, 80, 0, 4204.103, 4255.385, 4123.077, 4187.179, 4170.769, 450, 0, []
1630237005.9772, 81, 0, 4206.154, 4254.359, 4102.564, 4181.538, 4177.436, 450, 0, []
1630237005.985, 82, 0, 4223.59, 4240.513, 4119.487, 4188.718, 4186.667, 450, 0, []
1630237005.993, 83, 0, 4240.513, 4229.744, 4125.128, 4194.359, 4201.026, 16213, 0, []
1630237006.0008, 84, 0, 4227.179, 4238.974, 4108.205, 4186.154, 4200, 450, 0, []
1630237006.0088, 85, 0, 4206.667, 4262.051, 4103.59, 4183.59, 4180, 450, 0, []
1630237006.0167, 86, 0, 4193.333, 4268.205, 4080, 4173.846, 4162.564, 450, 0, []
1630237006.0247, 87, 0, 4192.308, 4261.026, 4098.974, 4189.231, 4172.821, 16213, 0, []
1630237006.0326, 88, 0, 4202.564, 4264.103, 4106.667, 4202.051, 4202.051, 450, 0, []
1630237006.0405, 89, 0, 4197.436, 4244.615, 4097.949, 4193.333, 4201.026, 450, 0, []
1630237006.0484, 90, 0, 4181.026, 4211.282, 4111.282, 4195.385, 4180.513, 450, 0, []
1630237006.0564, 91, 0, 4182.564, 4231.282, 4085.641, 4186.154, 4189.744, 16213, 0, []
1630237006.0643, 92, 0, 4204.103, 4271.795, 4101.026, 4189.744, 4213.333, 450, 0, []
1630237006.0721, 93, 0, 4219.487, 4265.128, 4116.923, 4195.897, 4224.103, 450, 0, []
1630237006.08, 94, 0, 4221.538, 4253.333, 4096.923, 4187.692, 4224.103, 450, 0, []
1630237006.0877, 95, 0, 4223.077, 4271.795, 4110.769, 4198.462, 4224.615, 16213, 0, []
1630237006.0956, 96, 0, 4226.667, 4276.923, 4109.744, 4208.205, 4222.051, 450, 0, []
1630237006.1034, 97, 0, 4225.641, 4260, 4123.077, 4214.872, 4210.256, 450, 0, []
1630237006.1113, 98, 0, 4228.205, 4252.308, 4128.718, 4216.923, 4215.385, 450, 0, []
1630237006.1191, 99, 0, 4234.359, 4254.872, 4111.795, 4200.513, 4224.103, 16213, 0, []
1630237006.1269, 100, 0, 4229.744, 4258.974, 4122.051, 4191.795, 4216.923, 450, 0, []
1630237006.1347, 101, 0, 4224.103, 4271.795, 4106.667, 4186.667, 4210.769, 450, 0, []
1630237006.1427, 102, 0, 4216.41, 4272.308, 4117.436, 4194.872, 4204.103, 450, 0, []
1630237006.1506, 103, 0, 4195.897, 4255.385, 4116.41, 4202.051, 4183.59, 16213, 0, []
1630237006.1586, 104, 0, 4181.538, 4254.872, 4083.077, 4191.282, 4164.615, 450, 0, []
1630237006.1664, 105, 0, 4183.59, 4265.128, 4114.872, 4203.077, 4168.718, 450, 0, []
1630237006.1744, 106, 0, 4192.308, 4272.308, 4117.949, 4202.564, 4178.462, 450, 0, []
1630237006.1823, 107, 0, 4201.538, 4286.667, 4108.718, 4194.872, 4186.667, 16213, 0, []
1630237006.1903, 108, 0, 4215.385, 4292.821, 4123.59, 4211.795, 4194.359, 450, 0, []
1630237006.1982, 109, 0, 4226.667, 4274.872, 4126.154, 4215.897, 4200, 450, 0, []
1630237006.2061, 110, 0, 4230.769, 4268.718, 4143.077, 4220.513, 4209.231, 450, 0, []
1630237006.214, 111, 0, 4227.692, 4281.026, 4111.795, 4213.846, 4202.564, 16213, 0, []
1630237006.2218, 112, 0, 4206.154, 4281.026, 4105.128, 4205.641, 4182.051, 450, 0, []
1630237006.2297, 113, 0, 4198.462, 4281.026, 4138.462, 4216.41, 4180.513, 450, 0, []
1630237006.2375, 114, 0, 4209.744, 4283.59, 4121.538, 4213.846, 4193.333, 450, 0, []
1630237006.2453, 115, 0, 4214.872, 4289.231, 4132.308, 4217.436, 4194.872, 16213, 0, []
1630237006.2531, 116, 0, 4223.077, 4297.949, 4138.462, 4222.051, 4192.308, 450, 0, []
1630237006.261, 117, 0, 4230.256, 4290.256, 4126.154, 4222.564, 4194.872, 450, 0, []
1630237006.2688, 118, 0, 4226.154, 4295.897, 4123.59, 4220.513, 4193.333, 450, 0, []
1630237006.2767, 119, 0, 4224.103, 4313.846, 4107.179, 4203.59, 4194.872, 16213, 0, []
1630237006.2844, 120, 0, 4230.256, 4295.385, 4134.872, 4208.718, 4200, 450, 0, []
1630237006.2923, 121, 0, 4230.769, 4269.231, 4139.487, 4212.308, 4198.974, 450, 0, []
1630237006.3001, 122, 0, 4216.923, 4285.641, 4119.487, 4209.231, 4183.59, 450, 0, []
1630237006.3081, 123, 0, 4195.385, 4290.769, 4123.077, 4218.974, 4165.128, 16213, 0, []
1630237006.316, 124, 0, 4178.974, 4246.154, 4104.103, 4212.308, 4160.513, 450, 0, []
1630237006.324, 125, 0, 4179.487, 4242.564, 4113.333, 4208.205, 4164.103, 450, 0, []
1630237006.3318, 126, 0, 4186.154, 4290.256, 4110.256, 4205.128, 4171.282, 450, 0, []
1630237006.3398, 127, 0, 4185.128, 4290.769, 4093.846, 4195.385, 4166.154, 16213, 0, []
1630237006.3477, 128, 0, 4174.872, 4254.359, 4110.769, 4192.821, 4147.692, 450, 0, []
1630237006.3557, 0, 0, 4167.179, 4260, 4092.308, 4172.308, 4132.821, 450, 0, []
1630237006.3636, 1, 0, 4163.59, 4267.692, 4096.41, 4163.59, 4128.718, 450, 0, []
1630237006.3713, 2, 0, 4158.974, 4231.795, 4098.974, 4168.718, 4128.205, 16200, 0, []
1630237006.3792, 3, 0, 4148.205, 4201.026, 4077.436, 4162.051, 4120.513, 450, 0, []
1630237006.387, 4, 0, 4141.538, 4203.077, 4102.564, 4170.769, 4112.821, 16095, 0, []
1630237006.3949, 5, 0, 4153.846, 4238.974, 4098.974, 4181.026, 4121.026, 450, 0, []
1630237006.4027, 6, 0, 4166.667, 4257.436, 4088.205, 4186.154, 4135.385, 16070, 0, []
1630237006.4105, 7, 0, 4162.564, 4235.897, 4082.051, 4181.026, 4128.205, 450, 0, []
1630237006.4183, 8, 0, 4148.205, 4236.923, 4069.231, 4164.103, 4109.231, 450, 0, []
1630237006.4262, 9, 0, 4149.231, 4255.897, 4092.821, 4173.846, 4119.487, 311, 0, []
1630237006.434, 10, 0, 4170.256, 4249.231, 4079.487, 4173.846, 4152.821, 450, 0, []
1630237006.4419, 11, 0, 4175.897, 4238.974, 4076.41, 4162.051, 4161.026, 16205, 0, []
1630237006.4496, 12, 0, 4165.128, 4253.333, 4088.718, 4166.667, 4148.205, 450, 0, []
1630237006.4575, 13, 0, 4158.974, 4252.821, 4063.077, 4161.538, 4138.462, 450, 0, []
1630237006.4654, 14, 0, 4152.821, 4244.103, 4081.026, 4164.103, 4132.308, 450, 0, []
1630237006.4732, 15, 0, 4148.718, 4256.923, 4086.154, 4165.641, 4130.769, 16205, 0, []
1630237006.4812, 16, 0, 4154.359, 4256.923, 4082.051, 4163.59, 4132.821, 0, 0, []
1630237006.489, 17, 0, 4165.128, 4244.615, 4096.41, 4170.769, 4141.026, 0, 0, []
1630237006.4969, 18, 0, 4167.179, 4229.231, 4081.538, 4167.179, 4150.769, 0, 0, []
1630237006.5049, 19, 0, 4161.538, 4222.051, 4089.744, 4163.59, 4149.231, 0, 0, []
1630237006.5128, 20, 0, 4157.949, 4239.487, 4081.538, 4154.872, 4141.026, 0, 0, []
1630237006.5208, 21, 0, 4150.769, 4255.385, 4075.385, 4154.359, 4127.692, 0, 0, []
1630237006.5287, 22, 0, 4145.128, 4241.026, 4086.667, 4164.615, 4121.538, 0, 0, []
1630237006.5366, 23, 0, 4144.103, 4214.359, 4065.128, 4159.487, 4122.051, 0, 0, []
1630237006.5445, 24, 0, 4143.59, 4209.744, 4084.103, 4174.872, 4121.538, 0, 0, []
1630237006.5523, 25, 0, 4148.205, 4223.59, 4084.615, 4188.718, 4129.231, 0, 0, []
1630237006.5602, 26, 0, 4158.462, 4235.385, 4066.667, 4176.41, 4141.026, 0, 0, []
1630237006.568, 27, 0, 4163.59, 4235.897, 4086.154, 4176.41, 4141.538, 0, 0, []
1630237006.5758, 28, 0, 4154.359, 4233.333, 4073.846, 4173.333, 4132.821, 0, 0, []
1630237006.5836, 29, 0, 4142.051, 4233.333, 4080, 4173.333, 4120, 0, 0, []
1630237006.5915, 30, 0, 4137.436, 4223.077, 4082.051, 4168.718, 4105.641, 0, 0, []
1630237006.5993, 31, 0, 4143.077, 4213.846, 4071.795, 4165.128, 4113.333, 0, 0, []
1630237006.6072, 32, 0, 4149.231, 4229.231, 4086.154, 4185.641, 4138.462, 0, 0, []
1630237006.6149, 33, 0, 4146.154, 4241.026, 4069.231, 4183.59, 4140, 0, 0, []
1630237006.6229, 34, 0, 4142.564, 4214.872, 4081.538, 4178.462, 4126.667, 0, 0, []
1630237006.6308, 35, 0, 4149.231, 4194.359, 4093.333, 4186.667, 4135.897, 0, 0, []
1630237006.6388, 36, 0, 4153.333, 4215.385, 4074.872, 4185.128, 4146.667, 0, 0, []
1630237006.6467, 37, 0, 4148.718, 4232.821, 4086.667, 4190.769, 4135.897, 0, 0, []
1630237006.6546, 38, 0, 4152.308, 4226.667, 4076.41, 4183.077, 4131.282, 0, 0, []
1630237006.6625, 39, 0, 4150.256, 4232.308, 4081.538, 4176.923, 4136.923, 0, 0, []
1630237006.6705, 40, 0, 4135.897, 4237.949, 4073.333, 4172.821, 4130.769, 0, 0, []
1630237006.6784, 41, 0, 4129.744, 4224.615, 4043.59, 4160.513, 4121.538, 0, 0, []
1630237006.6862, 42, 0, 4134.359, 4221.026, 4068.205, 4168.718, 4127.692, 0, 0, []
1630237006.694, 43, 0, 4136.41, 4229.231, 4060, 4169.744, 4134.359, 0, 0, []
1630237006.7018, 44, 0, 4133.333, 4234.872, 4060.513, 4172.821, 4124.103, 0, 0, []
1630237006.7097, 45, 0, 4133.846, 4226.154, 4071.795, 4175.897, 4118.462, 0, 0, []
1630237006.7175, 46, 0, 4132.308, 4222.564, 4039.487, 4158.462, 4126.667, 0, 0, []
1630237006.7254, 47, 0, 4132.308, 4241.538, 4060.513, 4170.256, 4132.308, 0, 0, []
1630237006.7331, 48, 0, 4139.487, 4247.179, 4073.846, 4182.051, 4131.282, 0, 0, []
1630237006.7411, 49, 0, 4133.333, 4215.385, 4068.718, 4178.462, 4128.718, 0, 0, []
1630237006.749, 50, 0, 4129.231, 4208.718, 4077.436, 4181.538, 4127.179, 0, 0, []
1630237006.757, 51, 0, 4141.538, 4249.231, 4065.641, 4171.282, 4129.231, 0, 0, []
1630237006.7649, 52, 0, 4146.154, 4250.256, 4076.923, 4171.282, 4131.282, 0, 0, []
1630237006.7729, 53, 0, 4144.615, 4224.103, 4066.667, 4174.872, 4136.41, 0, 0, []
1630237006.7807, 54, 0, 4148.205, 4230.769, 4059.487, 4167.179, 4132.821, 0, 0, []
1630237006.7887, 55, 0, 4141.026, 4245.128, 4073.333, 4168.205, 4122.051, 0, 0, []
1630237006.7966, 56, 0, 4126.154, 4232.821, 4048.205, 4163.077, 4116.923, 0, 0, []
1630237006.8046, 57, 0, 4127.692, 4208.205, 4056.41, 4167.179, 4121.026, 0, 0, []
1630237006.8125, 58, 0, 4138.974, 4218.974, 4057.436, 4170.256, 4128.205, 0, 0, []
1630237006.8204, 59, 0, 4134.872, 4243.077, 4045.641, 4162.051, 4124.615, 0, 0, []
1630237006.8283, 60, 0, 4127.179, 4238.462, 4058.974, 4157.436, 4112.821, 0, 0, []
1630237006.8361, 61, 0, 4127.179, 4222.051, 4044.103, 4142.051, 4108.205, 0, 0, []
1630237006.844, 62, 0, 4129.231, 4221.026, 4063.59, 4150.256, 4111.282, 0, 0, []
1630237006.8518, 63, 0, 4138.974, 4231.795, 4079.487, 4168.718, 4120.513, 0, 0, []
1630237006.8596, 64, 0, 4149.744, 4233.846, 4071.282, 4165.641, 4124.615, 450, 0, []
1630237006.8674, 65, 0, 4148.718, 4225.128, 4084.103, 4165.641, 4124.103, 450, 0, []
1630237006.8753, 66, 0, 4148.718, 4213.333, 4063.59, 4161.538, 4129.744, 16156, 0, []
1630237006.8831, 67, 0, 4155.385, 4225.128, 4073.333, 4167.179, 4139.487, 450, 0, []
1630237006.891, 68, 0, 4165.641, 4250.256, 4090.256, 4176.41, 4151.282, 16105, 0, []
1630237006.8987, 69, 0, 4167.179, 4248.205, 4081.538, 4175.385, 4152.821, 450, 0, []
1630237006.9066, 70, 0, 4157.949, 4238.974, 4092.821, 4177.436, 4137.436, 16062, 0, []
1630237006.9144, 71, 0, 4155.897, 4237.436, 4075.897, 4163.077, 4131.795, 450, 0, []
1630237006.9224, 72, 0, 4166.667, 4243.077, 4083.077, 4162.564, 4146.154, 450, 0, []
1630237006.9303, 73, 0, 4171.795, 4250.256, 4095.897, 4170.769, 4159.487, 16069, 0, []
1630237006.9382, 74, 0, 4174.359, 4239.487, 4089.744, 4167.692, 4161.026, 450, 0, []
1630237006.9461, 75, 0, 4187.692, 4222.051, 4127.179, 4195.897, 4169.744, 16158, 0, []
1630237006.9541, 76, 0, 4204.103, 4229.744, 4117.949, 4211.795, 4186.667, 450, 0, []
1630237006.962, 77, 0, 4208.205, 4250.256, 4098.974, 4200.513, 4187.692, 450, 0, []
1630237006.97, 78, 0, 4198.974, 4252.821, 4106.667, 4198.974, 4184.615, 450, 0, []
1630237006.9779, 79, 0, 4205.641, 4247.692, 4090.256, 4196.41, 4201.026, 16158, 0, []
1630237006.9858, 80, 0, 4264.103, 4251.282, 4102.564, 4193.846, 4245.128, 450, 0, []
1630237006.9937, 81, 0, 4346.667, 4259.487, 4100.513, 4178.462, 4306.667, 450, 0, []
1630237007.0015, 82, 0, 4404.615, 4253.333, 4102.564, 4178.974, 4365.641, 450, 0, []
1630237007.0094, 83, 0, 4451.282, 4241.538, 4109.231, 4192.821, 4406.667, 16158, 0, []
1630237007.0174, 84, 0, 4500, 4249.231, 4084.615, 4182.051, 4419.487, 450, 0, []
1630237007.0252, 85, 0, 4515.897, 4262.051, 4114.872, 4186.667, 4420.513, 450, 0, []
1630237007.033, 86, 0, 4493.333, 4272.821, 4118.974, 4189.744, 4429.744, 450, 0, []
1630237007.0409, 87, 0, 4461.538, 4263.59, 4102.051, 4185.128, 4431.282, 16158, 0, []
1630237007.0487, 88, 0, 4439.487, 4243.59, 4117.949, 4201.026, 4411.795, 450, 0, []
1630237007.0566, 89, 0, 4421.538, 4257.436, 4105.641, 4201.538, 4374.359, 450, 0, []
1630237007.0643, 90, 0, 4396.923, 4267.692, 4122.051, 4194.359, 4342.564, 450, 0, []
1630237007.0722, 91, 0, 4362.051, 4247.179, 4123.077, 4185.128, 4329.231, 16158, 0, []
1630237007.08, 92, 0, 4340.513, 4244.103, 4116.41, 4191.282, 4320, 450, 0, []
1630237007.088, 93, 0, 4344.615, 4273.846, 4140.513, 4211.282, 4298.462, 450, 0, []
1630237007.0959, 94, 0, 4335.897, 4288.718, 4122.564, 4195.897, 4281.538, 450, 0, []
1630237007.1038, 95, 0, 4312.308, 4268.205, 4116.41, 4188.205, 4277.949, 16158, 0, []
1630237007.1117, 96, 0, 4301.538, 4251.282, 4109.231, 4193.333, 4257.436, 450, 0, []
1630237007.1197, 97, 0, 4281.026, 4252.308, 4102.051, 4187.179, 4237.436, 450, 0, []
1630237007.1276, 98, 0, 4268.718, 4277.436, 4136.923, 4201.538, 4250.769, 450, 0, []
1630237007.1356, 99, 0, 4295.897, 4289.744, 4144.615, 4212.821, 4261.538, 16158, 0, []
1630237007.1434, 100, 0, 4290.256, 4259.487, 4153.846, 4212.308, 4242.051, 450, 0, []
1630237007.1514, 101, 0, 4254.872, 4254.872, 4139.487, 4205.128, 4230.769, 450, 0, []
1630237007.1593, 102, 0, 4251.795, 4278.974, 4112.308, 4188.718, 4226.154, 450, 0, []
1630237007.1671, 103, 0, 4247.692, 4266.667, 4119.487, 4189.744, 4207.179, 16158, 0, []
1630237007.175, 104, 0, 4228.205, 4250.256, 4085.641, 4191.282, 4200.513, 450, 0, []
1630237007.1827, 105, 0, 4228.718, 4272.821, 4084.103, 4195.385, 4205.641, 450, 0, []
1630237007.1906, 106, 0, 4238.462, 4272.821, 4106.667, 4198.974, 4203.59, 450, 0, []
1630237007.1984, 107, 0, 4234.359, 4246.667, 4101.538, 4194.359, 4206.154, 16158, 0, []
1630237007.2063, 108, 0, 4242.051, 4254.359, 4132.308, 4212.308, 4220, 450, 0, []
1630237007.2141, 109, 0, 4263.077, 4275.897, 4127.692, 4219.487, 4230.256, 450, 0, []
1630237007.222, 110, 0, 4261.538, 4285.128, 4114.359, 4212.308, 4229.744, 450, 0, []
1630237007.2297, 111, 0, 4254.359, 4295.897, 4116.41, 4209.744, 4228.205, 16158, 0, []
1630237007.2377, 112, 0, 4257.436, 4300.513, 4105.641, 4199.487, 4223.077, 450, 0, []
1630237007.2456, 113, 0, 4250.769, 4280.513, 4123.59, 4205.128, 4209.744, 450, 0, []
1630237007.2536, 114, 0, 4236.41, 4262.564, 4106.667, 4209.231, 4196.41, 450, 0, []
1630237007.2615, 115, 0, 4230.769, 4273.333, 4104.103, 4209.744, 4200.513, 16158, 0, []
1630237007.2694, 116, 0, 4244.103, 4293.846, 4129.231, 4212.821, 4220, 450, 0, []
1630237007.2773, 117, 0, 4255.897, 4288.205, 4116.41, 4203.077, 4221.538, 450, 0, []
1630237007.2853, 118, 0, 4253.333, 4260, 4131.795, 4212.308, 4208.718, 450, 0, []
1630237007.2932, 119, 0, 4243.077, 4250.769, 4124.103, 4217.436, 4207.179, 16158, 0, []
1630237007.3012, 120, 0, 4221.538, 4268.718, 4106.154, 4207.692, 4199.487, 450, 0, []
1630237007.309, 121, 0, 4207.692, 4287.179, 4116.41, 4202.564, 4185.641, 450, 0, []
1630237007.3168, 122, 0, 4209.231, 4271.795, 4091.282, 4178.974, 4181.538, 450, 0, []
1630237007.3247, 123, 0, 4199.487, 4232.308, 4082.051, 4167.179, 4160.513, 16158, 0, []
1630237007.3325, 124, 0, 4182.564, 4230.256, 4073.333, 4169.744, 4144.103, 450, 0, []
1630237007.3404, 125, 0, 4183.59, 4247.692, 4079.487, 4180.513, 4156.923, 450, 0, []
1630237007.3481, 126, 0, 4186.667, 4243.59, 4105.641, 4193.333, 4159.487, 450, 0, []
1630237007.356, 127, 0, 4174.872, 4244.615, 4082.051, 4182.564, 4148.205, 16158, 0, []
1630237007.3638, 128, 0, 4168.205, 4242.051, 4090.769, 4181.538, 4143.077, 450, 0, []
1630237007.3717, 0, 0, 4169.231, 4221.538, 4096.41, 4180.513, 4143.077, 450, 0, []
1630237007.3795, 1, 0, 4170.769, 4223.59, 4076.923, 4170.256, 4143.077, 450, 0, []
1630237007.3874, 2, 0, 4167.692, 4234.359, 4081.026, 4176.41, 4142.564, 16182, 0, []
1630237007.3953, 3, 0, 4154.359, 4233.333, 4056.923, 4171.282, 4130.769, 450, 0, []
1630237007.4033, 4, 0, 4146.667, 4238.462, 4076.41, 4174.872, 4114.872, 16102, 0, []
1630237007.4112, 5, 0, 4148.718, 4247.692, 4096.41, 4180, 4118.974, 450, 0, []
1630237007.4192, 6, 0, 4146.667, 4245.128, 4073.333, 4165.128, 4125.128, 324, 0, []
1630237007.427, 7, 0, 4143.077, 4236.41, 4077.949, 4168.205, 4117.949, 450, 0, []
1630237007.435, 8, 0, 4148.205, 4236.41, 4065.641, 4171.282, 4118.974, 450, 0, []
1630237007.4429, 9, 0, 4150.256, 4227.179, 4074.872, 4171.795, 4127.692, 16065, 0, []
1630237007.4508, 10, 0, 4147.179, 4220.513, 4085.641, 4170.256, 4131.795, 450, 0, []
1630237007.4587, 11, 0, 4153.333, 4232.821, 4076.923, 4162.051, 4132.308, 16175, 0, []
1630237007.4666, 12, 0, 4162.564, 4252.821, 4101.026, 4176.41, 4142.564, 450, 0, []
1630237007.4745, 13, 0, 4163.077, 4258.462, 4086.667, 4176.923, 4148.718, 450, 0, []
1630237007.4823, 14, 0, 4154.359, 4228.718, 4077.949, 4171.282, 4137.436, 450, 0, []
1630237007.4902, 15, 0, 4155.385, 4219.487, 4085.128, 4176.923, 4131.795, 16175, 0, []
1630237007.498, 16, 0, 4164.615, 4246.667, 4068.718, 4169.744, 4142.051, 0, 0, []
1630237007.5059, 17, 0, 4168.205, 4260.513, 4082.051, 4172.308, 4144.615, 0, 0, []
1630237007.5136, 18, 0, 4165.641, 4241.538, 4064.103, 4165.641, 4136.41, 0, 0, []
1630237007.5215, 19, 0, 4164.103, 4225.641, 4061.026, 4159.487, 4132.821, 0, 0, []
1630237007.5293, 20, 0, 4170.256, 4237.436, 4088.205, 4171.282, 4144.615, 0, 0, []
1630237007.5372, 21, 0, 4171.282, 4231.282, 4063.59, 4164.103, 4149.231, 0, 0, []
1630237007.545, 22, 0, 4165.641, 4213.846, 4069.231, 4164.615, 4137.436, 0, 0, []
1630237007.5529, 23, 0, 4164.103, 4215.897, 4072.821, 4171.795, 4128.718, 0, 0, []
1630237007.5608, 24, 0, 4160, 4226.154, 4070.769, 4170.769, 4133.333, 0, 0, []
1630237007.5688, 25, 0, 4151.795, 4230.769, 4083.077, 4166.154, 4134.872, 0, 0, []
1630237007.5767, 26, 0, 4143.59, 4218.462, 4064.103, 4154.872, 4119.487, 0, 0, []
1630237007.5847, 27, 0, 4140, 4200.513, 4078.462, 4164.103, 4110.769, 0, 0, []
1630237007.5925, 28, 0, 4150.769, 4194.359, 4083.59, 4173.846, 4126.154, 0, 0, []
1630237007.6005, 29, 0, 4162.051, 4208.718, 4083.59, 4177.949, 4135.385, 0, 0, []
1630237007.6084, 30, 0, 4158.462, 4226.154, 4104.615, 4187.179, 4126.667, 0, 0, []
1630237007.6164, 31, 0, 4151.795, 4219.487, 4084.103, 4175.897, 4121.026, 0, 0, []
1630237007.6243, 32, 0, 4155.385, 4202.564, 4089.744, 4176.41, 4130.769, 0, 0, []
1630237007.632, 33, 0, 4171.795, 4221.538, 4090.256, 4183.59, 4151.795, 0, 0, []
1630237007.6399, 34, 0, 4195.385, 4242.564, 4066.154, 4170.769, 4172.308, 0, 0, []
1630237007.6477, 35, 0, 4230.769, 4209.231, 4075.897, 4164.615, 4207.179, 0, 0, []
1630237007.6556, 36, 0, 4287.692, 4184.103, 4076.923, 4166.154, 4270.256, 0, 0, []
1630237007.6634, 37, 0, 4357.949, 4231.282, 4095.897, 4186.667, 4322.564, 0, 0, []
1630237007.6713, 38, 0, 4415.897, 4261.538, 4090.256, 4192.308, 4349.744, 0, 0, []
1630237007.679, 39, 0, 4447.692, 4234.359, 4078.974, 4170.769, 4388.205, 0, 0, []
1630237007.6869, 40, 0, 4465.641, 4229.231, 4122.564, 4181.026, 4433.333, 0, 0, []
1630237007.6947, 41, 0, 4478.462, 4243.077, 4110.256, 4192.308, 4451.795, 0, 0, []
1630237007.7027, 42, 0, 4474.359, 4229.744, 4095.385, 4189.744, 4445.128, 0, 0, []
1630237007.7106, 43, 0, 4462.051, 4227.179, 4100, 4184.103, 4431.282, 0, 0, []
1630237007.7185, 44, 0, 4444.615, 4243.59, 4085.641, 4172.308, 4408.205, 0, 0, []
1630237007.7264, 45, 0, 4406.154, 4224.615, 4092.308, 4169.744, 4386.667, 0, 0, []
1630237007.7344, 46, 0, 4375.385, 4211.795, 4071.795, 4164.103, 4377.949, 0, 0, []
1630237007.7423, 47, 0, 4370.769, 4234.359, 4073.333, 4174.872, 4354.359, 0, 0, []
1630237007.7503, 48, 0, 4370.256, 4230.256, 4092.308, 4183.59, 4331.282, 0, 0, []
1630237007.7581, 49, 0, 4352.821, 4225.641, 4088.718, 4175.385, 4334.872, 0, 0, []
1630237007.7661, 50, 0, 4331.795, 4251.795, 4104.615, 4193.333, 4322.564, 0, 0, []
1630237007.774, 51, 0, 4327.692, 4246.154, 4079.487, 4187.179, 4298.462, 0, 0, []
1630237007.7818, 52, 0, 4335.385, 4223.077, 4076.923, 4168.718, 4318.462, 0, 0, []
1630237007.7897, 53, 0, 4362.051, 4248.205, 4103.59, 4188.718, 4365.128, 0, 0, []
1630237007.7974, 54, 0, 4413.333, 4254.872, 4075.897, 4196.41, 4385.128, 0, 0, []
1630237007.8053, 55, 0, 4460.513, 4222.564, 4092.308, 4194.359, 4411.795, 0, 0, []
1630237007.8131, 56, 0, 4464.615, 4232.308, 4111.282, 4187.692, 4450.769, 0, 0, []
1630237007.821, 57, 0, 4443.59, 4244.615, 4095.897, 4173.846, 4445.641, 0, 0, []
1630237007.8288, 58, 0, 4444.103, 4229.231, 4082.564, 4174.359, 4420, 0, 0, []
1630237007.8366, 59, 0, 4461.026, 4243.59, 4065.641, 4175.385, 4418.462, 0, 0, []
1630237007.8444, 60, 0, 4466.667, 4253.333, 4097.949, 4182.564, 4431.795, 0, 0, []
1630237007.8524, 61, 0, 4441.026, 4223.077, 4100.513, 4174.359, 4424.103, 0, 0, []
1630237007.8603, 62, 0, 4402.564, 4223.077, 4086.667, 4162.051, 4394.872, 0, 0, []
1630237007.8683, 63, 0, 4388.718, 4251.795, 4105.128, 4189.231, 4368.718, 0, 0, []
1630237007.8761, 64, 0, 4388.205, 4250.769, 4095.897, 4209.231, 4356.923, 450, 0, []
1630237007.8841, 65, 0, 4357.436, 4237.949, 4111.795, 4210.256, 4343.077, 450, 0, []
1630237007.892, 66, 0, 4308.205, 4231.795, 4090.769, 4194.359, 4301.026, 16189, 0, []
1630237007.9, 67, 0, 4270.769, 4220, 4052.821, 4166.667, 4250.256, 450, 0, []
1630237007.9079, 68, 0, 4255.897, 4226.667, 4092.821, 4170.256, 4237.949, 16103, 0, []
1630237007.9159, 69, 0, 4260.513, 4252.821, 4106.154, 4180.513, 4244.103, 450, 0, []
1630237007.9237, 70, 0, 4255.897, 4253.846, 4101.538, 4184.103, 4232.308, 299, 0, []
1630237007.9315, 71, 0, 4241.538, 4237.949, 4094.872, 4178.974, 4224.103, 450, 0, []
1630237007.9394, 72, 0, 4225.128, 4230.769, 4092.308, 4173.846, 4217.436, 450, 0, []
1630237007.9472, 73, 0, 4203.077, 4229.744, 4114.359, 4191.795, 4189.231, 310, 0, []
1630237007.9551, 74, 0, 4181.538, 4222.051, 4092.821, 4188.205, 4156.41, 450, 0, []
1630237007.9628, 75, 0, 4160.513, 4212.821, 4088.205, 4182.051, 4131.795, 16194, 0, []
1630237007.9707, 76, 0, 4151.795, 4242.564, 4085.641, 4181.538, 4123.59, 450, 0, []
1630237007.9785, 77, 0, 4159.487, 4267.692, 4076.41, 4172.821, 4139.487, 450, 0, []
1630237007.9865, 78, 0, 4161.026, 4235.385, 4120.513, 4189.744, 4153.333, 450, 0, []
1630237007.9944, 79, 0, 4146.667, 4219.487, 4119.487, 4192.308, 4147.179, 16194, 0, []
1630237008.0022, 80, 0, 4151.282, 4251.795, 4124.103, 4191.282, 4144.103, 450, 0, []
1630237008.01, 81, 0, 4177.949, 4279.487, 4154.359, 4212.821, 4160.513, 450, 0, []
1630237008.018, 82, 0, 4180.513, 4275.385, 4138.462, 4217.949, 4161.538, 450, 0, []
1630237008.0259, 83, 0, 4160, 4261.026, 4139.487, 4214.359, 4139.487, 16194, 0, []
1630237008.0339, 84, 0, 4137.436, 4257.949, 4118.974, 4194.872, 4125.128, 450, 0, []
1630237008.0417, 85, 0, 4121.538, 4245.641, 4096.923, 4183.59, 4116.41, 450, 0, []
1630237008.0497, 86, 0, 4125.128, 4228.205, 4101.538, 4192.821, 4114.872, 450, 0, []
1630237008.0576, 87, 0, 4130.256, 4246.154, 4097.949, 4184.103, 4116.923, 16194, 0, []
1630237008.0656, 88, 0, 4115.385, 4272.308, 4127.692, 4181.538, 4108.718, 450, 0, []
1630237008.0735, 89, 0, 4108.718, 4257.949, 4118.974, 4186.154, 4100.513, 450, 0, []
1630237008.0813, 90, 0, 4114.872, 4250.256, 4095.385, 4196.923, 4098.974, 450, 0, []
1630237008.0892, 91, 0, 4107.692, 4254.872, 4097.436, 4203.59, 4096.923, 16194, 0, []
1630237008.097, 92, 0, 4107.692, 4238.974, 4084.615, 4189.744, 4095.385, 450, 0, []
1630237008.1049, 93, 0, 4126.154, 4244.615, 4111.795, 4197.949, 4104.615, 450, 0, []
1630237008.1129, 94, 0, 4133.846, 4259.487, 4116.41, 4203.077, 4118.974, 450, 0, []
1630237008.1208, 95, 0, 4124.103, 4246.154, 4108.205, 4195.385, 4118.974, 16194, 0, []
1630237008.1285, 96, 0, 4111.795, 4239.487, 4115.897, 4194.872, 4095.385, 450, 0, []
1630237008.1364, 97, 0, 4104.103, 4243.077, 4089.744, 4182.051, 4080, 450, 0, []
1630237008.1442, 98, 0, 4110.769, 4232.308, 4110.769, 4191.795, 4093.846, 450, 0, []
1630237008.1521, 99, 0, 4123.077, 4244.103, 4120, 4204.615, 4105.128, 16194, 0, []
1630237008.1599, 100, 0, 4130.256, 4270.256, 4106.667, 4191.795, 4105.641, 450, 0, []
1630237008.1678, 101, 0, 4135.897, 4259.487, 4129.744, 4186.154, 4116.923, 450, 0, []
1630237008.1757, 102, 0, 4139.487, 4256.41, 4119.487, 4187.692, 4126.154, 450, 0, []
1630237008.1837, 103, 0, 4134.359, 4274.359, 4122.564, 4203.077, 4124.615, 16194, 0, []
1630237008.1916, 104, 0, 4134.359, 4268.718, 4125.128, 4213.333, 4127.692, 450, 0, []
1630237008.1996, 105, 0, 4130.769, 4249.231, 4110.256, 4202.051, 4122.564, 450, 0, []
1630237008.2074, 106, 0, 4120, 4251.795, 4122.564, 4203.59, 4107.179, 450, 0, []
1630237008.2154, 107, 0, 4125.128, 4263.077, 4112.821, 4205.128, 4112.308, 16194, 0, []
1630237008.2233, 108, 0, 4140.513, 4260.513, 4131.282, 4214.359, 4133.333, 450, 0, []
1630237008.2313, 109, 0, 4154.872, 4274.872, 4150.769, 4224.103, 4146.667, 450, 0, []
1630237008.2392, 110, 0, 4158.462, 4278.462, 4129.744, 4212.308, 4139.487, 450, 0, []
1630237008.2469, 111, 0, 4143.077, 4263.077, 4133.333, 4212.821, 4118.462, 16194, 0, []
1630237008.2548, 112, 0, 4127.179, 4268.205, 4111.282, 4211.795, 4108.718, 450, 0, []
1630237008.2626, 113, 0, 4128.718, 4271.282, 4111.282, 4214.872, 4116.41, 450, 0, []
1630237008.2705, 114, 0, 4142.564, 4265.128, 4130.769, 4229.744, 4131.282, 450, 0, []
1630237008.2783, 115, 0, 4145.128, 4270.769, 4106.667, 4222.051, 4129.744, 16194, 0, []
1630237008.2861, 116, 0, 4135.385, 4284.103, 4113.846, 4214.359, 4111.282, 450, 0, []
1630237008.2939, 117, 0, 4129.744, 4284.615, 4102.564, 4200, 4102.051, 450, 0, []
1630237008.3018, 118, 0, 4124.103, 4265.128, 4087.179, 4188.718, 4097.949, 450, 0, []
1630237008.3096, 119, 0, 4106.667, 4240.513, 4082.051, 4177.949, 4077.949, 16194, 0, []
1630237008.3175, 120, 0, 4093.846, 4235.897, 4058.462, 4162.051, 4057.949, 450, 0, []
1630237008.3252, 121, 0, 4096.923, 4252.821, 4084.103, 4179.487, 4065.128, 450, 0, []
1630237008.3332, 122, 0, 4097.949, 4258.974, 4078.462, 4184.103, 4082.051, 450, 0, []
1630237008.3411, 123, 0, 4097.436, 4241.026, 4063.59, 4173.846, 4092.308, 16194, 0, []
1630237008.3491, 124, 0, 4104.615, 4225.641, 4078.974, 4180.513, 4093.846, 450, 0, []
1630237008.357, 125, 0, 4100.513, 4227.692, 4067.179, 4165.128, 4085.128, 450, 0, []
1630237008.365, 126, 0, 4088.718, 4233.846, 4085.128, 4156.923, 4078.974, 450, 0, []
1630237008.3728, 127, 0, 4093.333, 4224.615, 4086.667, 4162.051, 4085.641, 16194, 0, []
1630237008.3808, 128, 0, 4092.308, 4208.718, 4069.744, 4153.846, 4081.026, 450, 0, []
1630237008.3887, 0, 0, 4086.667, 4209.231, 4073.333, 4149.231, 4071.795, 450, 0, []
1630237008.3967, 1, 0, 4101.026, 4221.538, 4057.949, 4150.769, 4083.077, 450, 0, []
1630237008.4046, 2, 0, 4108.205, 4238.462, 4078.462, 4166.154, 4091.795, 16224, 0, []
1630237008.4123, 3, 0, 4100.513, 4241.026, 4083.59, 4172.821, 4086.667, 450, 0, []
1630237008.4202, 4, 0, 4096.923, 4222.051, 4069.744, 4169.231, 4083.077, 16080, 0, []
1630237008.428, 5, 0, 4092.308, 4215.385, 4077.436, 4176.41, 4076.923, 450, 0, []
1630237008.4359, 6, 0, 4082.564, 4211.795, 4051.282, 4171.795, 4065.128, 315, 0, []
1630237008.4437, 7, 0, 4075.897, 4191.282, 4061.026, 4173.846, 4060.513, 450, 0, []
1630237008.4515, 8, 0, 4082.051, 4204.103, 4074.359, 4177.949, 4067.179, 450, 0, []
1630237008.4594, 9, 0, 4092.308, 4235.897, 4067.179, 4175.385, 4071.795, 312, 0, []
1630237008.4673, 10, 0, 4097.949, 4211.282, 4084.615, 4186.667, 4075.385, 450, 0, []
1630237008.4752, 11, 0, 4104.103, 4184.615, 4061.538, 4180.513, 4084.615, 16221, 0, []
1630237008.483, 12, 0, 4110.256, 4216.923, 4067.179, 4174.872, 4089.231, 450, 0, []
1630237008.4909, 13, 0, 4108.205, 4229.231, 4083.59, 4178.974, 4087.692, 450, 0, []
1630237008.4988, 14, 0, 4106.667, 4203.077, 4059.487, 4169.744, 4085.641, 450, 0, []
1630237008.5067, 15, 0, 4101.026, 4195.385, 4070.256, 4168.205, 4080, 16221, 0, []
1630237008.5147, 16, 0, 4088.205, 4205.128, 4067.179, 4162.051, 4070.256, 0, 0, []
1630237008.5226, 17, 0, 4093.333, 4217.436, 4074.872, 4164.103, 4068.205, 0, 0, []
1630237008.5305, 18, 0, 4108.718, 4221.538, 4077.949, 4170.769, 4068.718, 0, 0, []
1630237008.5384, 19, 0, 4098.462, 4213.333, 4048.718, 4155.385, 4053.846, 0, 0, []
1630237008.5464, 20, 0, 4080.513, 4214.359, 4071.282, 4157.949, 4038.974, 0, 0, []
1630237008.5543, 21, 0, 4082.564, 4225.128, 4071.795, 4161.026, 4041.026, 0, 0, []
1630237008.5621, 22, 0, 4085.641, 4217.949, 4057.949, 4157.949, 4040, 0, 0, []
1630237008.5699, 23, 0, 4083.59, 4215.385, 4059.487, 4163.59, 4036.41, 0, 0, []
1630237008.5778, 24, 0, 4084.615, 4228.718, 4051.282, 4159.487, 4038.974, 0, 0, []
1630237008.5857, 25, 0, 4078.974, 4225.641, 4075.897, 4167.179, 4032.308, 0, 0, []
1630237008.5935, 26, 0, 4077.949, 4221.026, 4070.256, 4170.256, 4027.179, 0, 0, []
1630237008.6014, 27, 0, 4089.231, 4226.667, 4078.974, 4175.385, 4040, 0, 0, []
1630237008.6092, 28, 0, 4100, 4226.154, 4104.103, 4180.513, 4055.385, 0, 0, []
1630237008.617, 29, 0, 4101.538, 4215.897, 4071.795, 4157.949, 4055.897, 0, 0, []
1630237008.6248, 30, 0, 4094.872, 4214.872, 4072.821, 4156.923, 4053.846, 0, 0, []
1630237008.6328, 31, 0, 4088.718, 4228.718, 4071.282, 4162.564, 4053.333, 0, 0, []
1630237008.6407, 32, 0, 4077.436, 4223.59, 4058.462, 4154.872, 4042.564, 0, 0, []
1630237008.6487, 33, 0, 4072.821, 4208.205, 4070.769, 4163.077, 4035.897, 0, 0, []
1630237008.6565, 34, 0, 4081.538, 4223.077, 4062.051, 4163.59, 4047.692, 0, 0, []
1630237008.6645, 35, 0, 4086.667, 4238.974, 4079.487, 4165.128, 4053.846, 0, 0, []
1630237008.6724, 36, 0, 4089.744, 4234.872, 4078.974, 4164.103, 4047.692, 0, 0, []
1630237008.6804, 37, 0, 4097.436, 4233.333, 4065.128, 4158.974, 4050.769, 0, 0, []
1630237008.6883, 38, 0, 4107.179, 4228.205, 4083.077, 4172.821, 4062.051, 0, 0, []
1630237008.6962, 39, 0, 4118.462, 4239.487, 4070.769, 4182.051, 4070.769, 0, 0, []
1630237008.7041, 40, 0, 4118.974, 4251.282, 4080, 4187.179, 4072.821, 0, 0, []
1630237008.7119, 41, 0, 4100.513, 4215.897, 4076.923, 4173.333, 4060, 0, 0, []
1630237008.7198, 42, 0, 4087.692, 4184.103, 4057.436, 4154.872, 4043.077, 0, 0, []
1630237008.7276, 43, 0, 4108.205, 4225.128, 4091.282, 4181.026, 4060.513, 0, 0, []
1630237008.7354, 44, 0, 4126.667, 4255.385, 4083.077, 4192.308, 4090.256, 0, 0, []
1630237008.7432, 45, 0, 4116.41, 4219.487, 4073.846, 4182.564, 4089.744, 0, 0, []
1630237008.7511, 46, 0, 4115.897, 4221.026, 4092.308, 4187.179, 4083.077, 0, 0, []
1630237008.7589, 47, 0, 4130.769, 4245.128, 4093.846, 4187.179, 4089.744, 0, 0, []
1630237008.7669, 48, 0, 4125.641, 4228.718, 4098.462, 4188.205, 4092.821, 0, 0, []
1630237008.7747, 49, 0, 4114.359, 4219.487, 4071.795, 4181.538, 4088.718, 0, 0, []
1630237008.7827, 50, 0, 4121.538, 4227.692, 4082.564, 4187.692, 4087.179, 0, 0, []
1630237008.7906, 51, 0, 4134.872, 4231.282, 4105.128, 4198.974, 4093.333, 0, 0, []
1630237008.7986, 52, 0, 4130.769, 4233.333, 4079.487, 4183.59, 4098.974, 0, 0, []
1630237008.8065, 53, 0, 4118.462, 4218.974, 4088.718, 4176.41, 4091.795, 0, 0, []
1630237008.8145, 54, 0, 4111.282, 4200, 4085.128, 4167.692, 4083.59, 0, 0, []
1630237008.8223, 55, 0, 4114.359, 4218.462, 4090.256, 4165.641, 4089.231, 0, 0, []
1630237008.8303, 56, 0, 4132.821, 4234.872, 4098.974, 4184.615, 4106.154, 0, 0, []
1630237008.8382, 57, 0, 4136.923, 4211.795, 4063.077, 4176.923, 4104.615, 0, 0, []
1630237008.8462, 58, 0, 4123.077, 4214.872, 4068.718, 4169.231, 4089.744, 0, 0, []
1630237008.8541, 59, 0, 4128.205, 4241.538, 4067.179, 4173.333, 4096.41, 0, 0, []
1630237008.8619, 60, 0, 4140, 4233.333, 4066.154, 4178.462, 4103.59, 0, 0, []
1630237008.8698, 61, 0, 4141.026, 4216.923, 4088.205, 4177.949, 4096.923, 0, 0, []
1630237008.8776, 62, 0, 4143.59, 4226.154, 4077.436, 4169.744, 4098.462, 0, 0, []
1630237008.8855, 63, 0, 4148.205, 4228.205, 4091.795, 4181.538, 4104.615, 0, 0, []
1630237008.8933, 64, 0, 4148.718, 4218.462, 4096.923, 4183.077, 4104.615, 450, 0, []
1630237008.9011, 65, 0, 4149.231, 4230.256, 4100.513, 4176.41, 4106.154, 450, 0, []
1630237008.9089, 66, 0, 4151.282, 4247.179, 4111.795, 4187.692, 4105.128, 16219, 0, []
1630237008.9168, 67, 0, 4156.923, 4254.359, 4096.41, 4186.154, 4109.231, 450, 0, []
1630237008.9246, 68, 0, 4158.974, 4253.333, 4125.128, 4182.564, 4118.974, 16096, 0, []
1630237008.9325, 69, 0, 4154.359, 4236.923, 4121.538, 4179.487, 4117.949, 450, 0, []
1630237008.9402, 70, 0, 4152.308, 4226.667, 4093.846, 4185.128, 4117.949, 16087, 0, []
1630237008.9482, 71, 0, 4148.718, 4257.949, 4120, 4205.128, 4128.205, 450, 0, []
