Timestamp, COUNTER, INTERPOLATED, AF3, T7, Pz, T8, AF4, RAW_CQ, MARKER_HARDWARE, MARKERS
1630310526.3406, 72, 0, 4142.051, 4363.59, 4124.615, 4117.949, 4105.641, 450, 0, []
1630310526.3485, 73, 0, 4116.41, 4336.923, 4083.59, 4105.128, 4102.564, 16143, 0, []
1630310526.3565, 74, 0, 4147.692, 4346.154, 4102.051, 4138.974, 4120.513, 450, 0, []
1630310526.3644, 75, 0, 4177.436, 4387.692, 4139.487, 4154.359, 4129.744, 16215, 0, []
1630310526.3723, 76, 0, 4159.487, 4378.462, 4100.513, 4142.051, 4133.333, 450, 0, []
1630310526.3802, 77, 0, 4142.564, 4331.282, 4113.846, 4144.103, 4134.872, 450, 0, []
1630310526.3882, 78, 0, 4165.128, 4338.462, 4089.744, 4151.795, 4130.256, 450, 0, []
1630310526.3961, 79, 0, 4173.846, 4369.231, 4078.974, 4138.462, 4118.462, 16215, 0, []
1630310526.4041, 80, 0, 4144.103, 4361.026, 4103.077, 4113.846, 4107.692, 450, 0, []
1630310526.4121, 81, 0, 4133.333, 4351.282, 4054.872, 4109.231, 4104.615, 450, 0, []
1630310526.4199, 82, 0, 4143.077, 4340.513, 4107.179, 4114.872, 4092.821, 450, 0, []
1630310526.4279, 83, 0, 4131.282, 4323.077, 4137.436, 4097.949, 4074.359, 16215, 0, []
1630310526.4358, 84, 0, 4116.923, 4327.179, 4000.513, 4080.513, 4081.538, 450, 0, []
1630310526.4438, 85, 0, 4136.923, 4338.974, 4203.59, 4112.821, 4105.641, 450, 0, []
1630310526.4517, 86, 0, 4166.154, 4339.487, 4466.154, 4154.359, 4111.795, 450, 0, []
1630310526.4595, 87, 0, 4171.282, 4343.077, 4297.436, 4153.333, 4114.872, 16215, 0, []
1630310526.4674, 88, 0, 4173.333, 4354.359, 4231.795, 4158.974, 4145.128, 450, 0, []
1630310526.4753, 89, 0, 4182.051, 4344.615, 4231.282, 4166.154, 4165.128, 450, 0, []
1630310526.4833, 90, 0, 4172.821, 4321.026, 4138.462, 4144.615, 4135.385, 450, 0, []
1630310526.4913, 91, 0, 4153.846, 4307.692, 4114.872, 4122.564, 4105.641, 16215, 0, []
1630310526.4991, 92, 0, 4144.615, 4307.692, 4104.103, 4116.41, 4117.949, 450, 0, []
1630310526.507, 93, 0, 4143.077, 4312.308, 4115.897, 4130.256, 4133.333, 450, 0, []
1630310526.515, 94, 0, 4148.205, 4312.821, 4073.846, 4141.026, 4121.026, 450, 0, []
1630310526.5229, 95, 0, 4165.641, 4309.744, 4091.795, 4135.897, 4119.487, 16215, 0, []
1630310526.5309, 96, 0, 4171.282, 4298.462, 4092.308, 4130.256, 4136.41, 450, 0, []
1630310526.5387, 97, 0, 4171.282, 4293.846, 4075.897, 4141.538, 4149.744, 450, 0, []
1630310526.5467, 98, 0, 4169.744, 4290.769, 4097.436, 4144.615, 4134.872, 450, 0, []
1630310526.5546, 99, 0, 4148.205, 4277.436, 4055.897, 4110.769, 4094.872, 16215, 0, []
1630310526.5626, 100, 0, 4152.821, 4288.718, 4086.667, 4113.846, 4112.308, 450, 0, []
1630310526.5705, 101, 0, 4196.41, 4315.385, 4083.077, 4164.103, 4179.487, 450, 0, []
1630310526.5784, 102, 0, 4209.744, 4301.026, 4082.051, 4175.897, 4189.744, 450, 0, []
1630310526.5863, 103, 0, 4186.667, 4259.487, 4093.846, 4145.641, 4148.718, 16215, 0, []
1630310526.5943, 104, 0, 4180, 4262.051, 4049.231, 4132.821, 4139.487, 450, 0, []
1630310526.6022, 105, 0, 4185.128, 4283.077, 4074.359, 4140, 4152.308, 450, 0, []
1630310526.6102, 106, 0, 4187.692, 4281.026, 4033.333, 4145.128, 4152.821, 450, 0, []
1630310526.618, 107, 0, 4198.462, 4292.821, 4045.128, 4153.333, 4152.308, 16215, 0, []
1630310526.626, 108, 0, 4217.436, 4306.154, 4088.718, 4146.667, 4164.615, 450, 0, []
1630310526.6339, 109, 0, 4245.641, 4289.231, 4047.179, 4121.026, 4204.103, 450, 0, []
1630310526.6419, 110, 0, 4275.897, 4270.769, 4069.744, 4107.179, 4253.846, 450, 0, []
1630310526.6498, 111, 0, 4313.333, 4267.179, 4043.59, 4114.872, 4301.026, 16215, 0, []
1630310526.6577, 112, 0, 4371.282, 4283.077, 4101.026, 4152.821, 4350.769, 450, 0, []
1630310526.6657, 113, 0, 4401.026, 4309.744, 4096.41, 4169.744, 4363.077, 450, 0, []
1630310526.6736, 114, 0, 4377.949, 4306.667, 3985.128, 4138.462, 4324.103, 450, 0, []
1630310526.6816, 115, 0, 4367.692, 4283.59, 4110.769, 4134.872, 4298.462, 16215, 0, []
1630310526.6895, 116, 0, 4373.333, 4284.103, 4080, 4139.487, 4301.538, 450, 0, []
1630310526.6974, 117, 0, 4353.333, 4291.795, 3998.462, 4115.385, 4289.744, 450, 0, []
1630310526.7053, 118, 0, 4339.487, 4281.538, 4063.077, 4108.205, 4285.128, 450, 0, []
1630310526.7133, 119, 0, 4338.974, 4260.513, 4080.513, 4123.59, 4296.41, 16215, 0, []
1630310526.7212, 120, 0, 4310.769, 4241.538, 4170.256, 4130.769, 4282.051, 450, 0, []
1630310526.7292, 121, 0, 4274.359, 4243.077, 4025.128, 4120.513, 4246.667, 450, 0, []
1630310526.737, 122, 0, 4261.538, 4252.821, 3968.718, 4127.179, 4218.974, 450, 0, []
1630310526.745, 123, 0, 4255.385, 4258.462, 4128.718, 4137.949, 4200.513, 16215, 0, []
1630310526.7529, 124, 0, 4233.846, 4268.205, 4030.256, 4110.769, 4183.077, 450, 0, []
1630310526.7609, 125, 0, 4203.077, 4264.103, 4033.333, 4087.692, 4162.051, 450, 0, []
1630310526.7688, 126, 0, 4198.974, 4258.462, 4075.385, 4103.59, 4154.359, 450, 0, []
1630310526.7768, 127, 0, 4231.795, 4268.718, 4056.923, 4130.769, 4165.128, 16215, 0, []
1630310526.7847, 128, 0, 4245.128, 4277.436, 4120, 4141.026, 4173.333, 450, 0, []
1630310526.7926, 0, 0, 4219.487, 4287.179, 4076.41, 4140.513, 4172.821, 450, 0, []
1630310526.8006, 1, 0, 4196.923, 4278.462, 4083.59, 4151.795, 4161.538, 450, 0, []
1630310526.8085, 2, 0, 4187.692, 4253.333, 4084.103, 4148.718, 4135.897, 16190, 0, []
1630310526.8165, 3, 0, 4185.641, 4263.077, 4056.923, 4133.333, 4126.667, 450, 0, []
1630310526.8243, 4, 0, 4194.872, 4286.154, 4100, 4135.897, 4147.692, 16111, 0, []
1630310526.8323, 5, 0, 4191.282, 4274.359, 4069.231, 4138.462, 4148.205, 450, 0, []
1630310526.8402, 6, 0, 4170.256, 4261.026, 4069.231, 4124.615, 4118.462, 192, 0, []
1630310526.8482, 7, 0, 4164.103, 4257.949, 4074.359, 4113.333, 4120.513, 450, 0, []
1630310526.8561, 8, 0, 4168.718, 4234.359, 4049.231, 4116.41, 4143.077, 450, 0, []
1630310526.864, 9, 0, 4166.667, 4235.385, 4070.256, 4120, 4125.641, 16148, 0, []
1630310526.8719, 10, 0, 4164.103, 4258.462, 4038.462, 4116.923, 4096.41, 450, 0, []
1630310526.8799, 11, 0, 4150.256, 4235.897, 4041.026, 4119.487, 4094.359, 16208, 0, []
1630310526.8878, 12, 0, 4126.667, 4207.179, 4041.538, 4122.051, 4086.667, 450, 0, []
1630310526.8958, 13, 0, 4143.59, 4217.436, 4021.538, 4126.667, 4082.564, 450, 0, []
1630310526.9036, 14, 0, 4179.487, 4240, 4072.821, 4134.872, 4108.205, 450, 0, []
1630310526.9116, 15, 0, 4169.231, 4237.949, 4041.538, 4136.923, 4126.154, 16208, 0, []
1630310526.9195, 16, 0, 4159.487, 4221.538, 4031.282, 4153.846, 4132.308, 0, 0, []
1630310526.9275, 17, 0, 4183.59, 4220.513, 4068.205, 4171.795, 4136.41, 0, 0, []
1630310526.9354, 18, 0, 4172.821, 4223.077, 4027.179, 4149.744, 4121.026, 0, 0, []
1630310526.9433, 19, 0, 4144.103, 4218.462, 4021.538, 4128.205, 4107.692, 0, 0, []
1630310526.9512, 20, 0, 4152.308, 4216.41, 4011.795, 4130.769, 4106.667, 0, 0, []
1630310526.9592, 21, 0, 4150.769, 4216.41, 4003.077, 4120, 4092.821, 0, 0, []
1630310526.9672, 22, 0, 4131.282, 4217.949, 3996.41, 4111.795, 4085.641, 0, 0, []
1630310526.9751, 23, 0, 4137.949, 4226.667, 3961.026, 4128.205, 4089.231, 0, 0, []
1630310526.983, 24, 0, 4146.154, 4226.667, 3992.308, 4135.897, 4083.59, 0, 0, []
1630310526.9909, 25, 0, 4144.615, 4219.487, 3984.103, 4135.897, 4095.385, 0, 0, []
1630310526.9989, 26, 0, 4161.538, 4227.179, 3981.538, 4147.179, 4115.897, 0, 0, []
1630310527.0068, 27, 0, 4176.41, 4237.949, 4023.59, 4151.282, 4120, 0, 0, []
1630310527.0148, 28, 0, 4159.487, 4234.359, 3973.333, 4143.077, 4118.462, 0, 0, []
1630310527.0226, 29, 0, 4138.462, 4216.923, 3961.538, 4142.051, 4108.718, 0, 0, []
1630310527.0306, 30, 0, 4147.692, 4201.026, 3988.718, 4136.923, 4096.923, 0, 0, []
1630310527.0385, 31, 0, 4152.308, 4208.718, 3990.256, 4128.718, 4105.641, 0, 0, []
1630310527.0465, 32, 0, 4140, 4218.462, 3975.385, 4132.308, 4114.872, 0, 0, []
1630310527.0544, 33, 0, 4143.59, 4200.513, 3895.385, 4137.949, 4108.205, 0, 0, []
1630310527.0623, 34, 0, 4148.718, 4194.872, 3876.41, 4133.846, 4108.718, 0, 0, []
1630310527.0702, 35, 0, 4139.487, 4212.821, 3857.949, 4129.231, 4114.872, 0, 0, []
1630310527.0782, 36, 0, 4134.359, 4202.564, 3784.103, 4122.564, 4098.974, 0, 0, []
1630310527.0861, 37, 0, 4119.487, 4182.051, 3758.974, 4097.436, 4071.795, 0, 0, []
1630310527.0941, 38, 0, 4101.026, 4187.179, 3674.872, 4078.462, 4065.641, 0, 0, []
1630310527.1019, 39, 0, 4112.308, 4175.385, 3623.077, 4097.436, 4072.821, 0, 0, []
1630310527.1099, 40, 0, 4122.564, 4153.333, 3648.718, 4115.897, 4082.564, 0, 0, []
1630310527.1179, 41, 0, 4124.103, 4177.436, 3634.872, 4117.436, 4102.564, 0, 0, []
1630310527.1258, 42, 0, 4136.41, 4216.41, 3675.897, 4124.615, 4108.205, 0, 0, []
1630310527.1338, 43, 0, 4133.333, 4204.103, 3705.641, 4125.641, 4101.026, 0, 0, []
1630310527.1416, 44, 0, 4121.538, 4180.513, 3733.333, 4120.513, 4108.718, 0, 0, []
1630310527.1496, 45, 0, 4122.051, 4192.821, 3802.051, 4124.103, 4100.513, 0, 0, []
1630310527.1575, 46, 0, 4109.744, 4206.667, 3832.308, 4118.974, 4074.359, 0, 0, []
1630310527.1655, 47, 0, 4100, 4191.795, 3878.462, 4113.846, 4076.41, 0, 0, []
1630310527.1734, 48, 0, 4117.949, 4177.436, 3865.641, 4119.487, 4083.59, 0, 0, []
1630310527.1814, 49, 0, 4116.41, 4192.821, 3870.769, 4121.538, 4072.308, 0, 0, []
1630310527.1892, 50, 0, 4097.949, 4200.513, 3956.923, 4126.667, 4074.359, 0, 0, []
1630310527.1972, 51, 0, 4105.128, 4169.744, 3997.949, 4134.872, 4078.974, 0, 0, []
1630310527.2051, 52, 0, 4106.154, 4149.744, 4055.897, 4136.923, 4065.641, 0, 0, []
1630310527.2131, 53, 0, 4089.231, 4163.59, 4073.333, 4129.231, 4056.41, 0, 0, []
1630310527.221, 54, 0, 4089.231, 4161.538, 4086.154, 4124.615, 4051.282, 0, 0, []
1630310527.2289, 55, 0, 4087.692, 4143.077, 4135.897, 4127.692, 4043.59, 0, 0, []
1630310527.2368, 56, 0, 4079.487, 4158.462, 4130.256, 4126.154, 4048.718, 0, 0, []
1630310527.2448, 57, 0, 4085.641, 4170.256, 4167.692, 4124.103, 4059.487, 0, 0, []
1630310527.2527, 58, 0, 4076.923, 4153.846, 4175.897, 4122.564, 4053.333, 0, 0, []
1630310527.2607, 59, 0, 4061.538, 4147.179, 4174.359, 4122.564, 4041.026, 0, 0, []
1630310527.2686, 60, 0, 4073.846, 4141.026, 4225.128, 4125.641, 4042.051, 0, 0, []
1630310527.2765, 61, 0, 4074.359, 4129.231, 4213.846, 4121.026, 4049.744, 0, 0, []
1630310527.2845, 62, 0, 4053.846, 4130.256, 4235.385, 4114.359, 4045.128, 0, 0, []
1630310527.2924, 63, 0, 4066.667, 4145.128, 4265.128, 4116.41, 4044.615, 0, 0, []
1630310527.3004, 64, 0, 4087.179, 4170.769, 4304.615, 4135.897, 4065.641, 450, 0, []
1630310527.3082, 65, 0, 4084.615, 4173.846, 4365.641, 4156.41, 4084.103, 450, 0, []
1630310527.3162, 66, 0, 4081.538, 4140.513, 4354.872, 4145.641, 4072.821, 16188, 0, []
1630310527.3241, 67, 0, 4075.385, 4128.718, 4446.154, 4124.615, 4054.872, 450, 0, []
1630310527.3321, 68, 0, 4078.462, 4145.128, 4561.538, 4137.436, 4063.59, 16112, 0, []
1630310527.34, 69, 0, 4088.718, 4126.667, 4547.179, 4151.795, 4063.59, 450, 0, []
1630310527.3479, 70, 0, 4074.359, 4113.846, 4438.462, 4123.59, 4047.179, 174, 0, []
1630310527.3558, 71, 0, 4070.256, 4145.128, 4321.538, 4115.385, 4059.487, 450, 0, []
1630310527.3638, 72, 0, 4092.308, 4157.949, 4373.333, 4150.769, 4072.308, 450, 0, []
1630310527.3717, 73, 0, 4086.154, 4144.103, 4402.051, 4145.128, 4054.872, 16143, 0, []
1630310527.3797, 74, 0, 4069.231, 4129.744, 4373.333, 4120.513, 4049.744, 450, 0, []
1630310527.3875, 75, 0, 4077.436, 4122.051, 4423.59, 4135.897, 4050.769, 16205, 0, []
1630310527.3955, 76, 0, 4060.513, 4113.333, 4390.256, 4119.487, 4031.282, 450, 0, []
1630310527.4034, 77, 0, 4044.103, 4110.256, 4362.051, 4093.846, 4032.308, 450, 0, []
1630310527.4114, 78, 0, 4081.026, 4149.231, 4338.462, 4136.41, 4060.513, 450, 0, []
1630310527.4193, 79, 0, 4105.641, 4190.256, 4280, 4170.256, 4073.333, 16205, 0, []
1630310527.4272, 80, 0, 4090.769, 4165.641, 4284.615, 4158.974, 4074.359, 450, 0, []
1630310527.4351, 81, 0, 4093.333, 4155.385, 4257.949, 4171.282, 4081.538, 450, 0, []
1630310527.4431, 82, 0, 4100, 4191.282, 4255.897, 4175.385, 4087.179, 450, 0, []
1630310527.4511, 83, 0, 4087.179, 4169.744, 4240.513, 4147.692, 4086.667, 16205, 0, []
1630310527.459, 84, 0, 4081.026, 4130.256, 4185.128, 4150.256, 4065.641, 450, 0, []
1630310527.4668, 85, 0, 4073.333, 4147.692, 4198.974, 4155.897, 4045.641, 450, 0, []
1630310527.4747, 86, 0, 4066.667, 4163.077, 4160.513, 4134.872, 4061.538, 450, 0, []
1630310527.4827, 87, 0, 4076.41, 4157.436, 4134.359, 4135.897, 4074.872, 16205, 0, []
1630310527.4906, 88, 0, 4078.974, 4157.949, 4148.205, 4136.923, 4066.667, 450, 0, []
1630310527.4986, 89, 0, 4078.462, 4159.487, 4113.846, 4128.205, 4070.769, 450, 0, []
1630310527.5064, 90, 0, 4091.795, 4173.333, 4120.513, 4139.487, 4073.846, 450, 0, []
1630310527.5144, 91, 0, 4097.436, 4164.615, 4104.103, 4140.513, 4067.692, 16205, 0, []
1630310527.5223, 92, 0, 4092.308, 4128.205, 4095.897, 4132.821, 4074.872, 450, 0, []
1630310527.5303, 93, 0, 4094.359, 4144.615, 4117.949, 4140.513, 4079.487, 450, 0, []
1630310527.5382, 94, 0, 4095.385, 4188.205, 4092.308, 4139.487, 4076.923, 450, 0, []
1630310527.5461, 95, 0, 4090.256, 4189.744, 4108.205, 4140.513, 4082.051, 16205, 0, []
1630310527.554, 96, 0, 4090.256, 4174.359, 4106.154, 4155.385, 4078.462, 450, 0, []
1630310527.562, 97, 0, 4097.436, 4157.949, 4090.769, 4153.333, 4071.795, 450, 0, []
1630310527.5699, 98, 0, 4092.308, 4159.487, 4116.41, 4132.821, 4072.308, 450, 0, []
1630310527.5779, 99, 0, 4084.103, 4180, 4090.256, 4127.692, 4067.179, 16205, 0, []
1630310527.5858, 100, 0, 4089.231, 4173.846, 4092.308, 4137.949, 4065.641, 450, 0, []
1630310527.5937, 101, 0, 4082.564, 4155.385, 4097.436, 4138.974, 4069.231, 450, 0, []
1630310527.6017, 102, 0, 4071.282, 4172.308, 4078.462, 4135.897, 4061.538, 450, 0, []
1630310527.6096, 103, 0, 4086.154, 4184.103, 4099.487, 4135.897, 4056.41, 16205, 0, []
1630310527.6176, 104, 0, 4083.077, 4144.103, 4076.41, 4115.897, 4053.333, 450, 0, []
1630310527.6255, 105, 0, 4068.205, 4127.692, 4076.923, 4100.513, 4056.41, 450, 0, []
1630310527.6334, 106, 0, 4105.641, 4174.359, 4097.436, 4131.795, 4090.769, 450, 0, []
1630310527.6413, 107, 0, 4132.821, 4191.282, 4084.615, 4156.41, 4116.41, 16205, 0, []
1630310527.6493, 108, 0, 4107.179, 4147.692, 4093.333, 4141.026, 4103.077, 450, 0, []
1630310527.6572, 109, 0, 4090.769, 4126.154, 4069.744, 4130.256, 4085.641, 450, 0, []
1630310527.6652, 110, 0, 4086.154, 4141.538, 4069.744, 4129.744, 4081.538, 450, 0, []
1630310527.673, 111, 0, 4079.487, 4147.692, 4074.872, 4122.051, 4083.077, 16205, 0, []
1630310527.681, 112, 0, 4089.231, 4154.872, 4065.128, 4113.846, 4080, 450, 0, []
1630310527.6889, 113, 0, 4100, 4156.41, 4106.154, 4112.308, 4084.615, 450, 0, []
1630310527.6969, 114, 0, 4106.667, 4148.205, 4091.282, 4131.282, 4109.231, 450, 0, []
1630310527.7048, 115, 0, 4127.179, 4160, 4077.949, 4162.564, 4119.487, 16205, 0, []
1630310527.7127, 116, 0, 4137.949, 4162.564, 4093.846, 4160.513, 4107.692, 450, 0, []
1630310527.7206, 117, 0, 4134.872, 4144.615, 4072.821, 4145.128, 4124.103, 450, 0, []
1630310527.7286, 118, 0, 4154.359, 4155.897, 4091.282, 4156.41, 4160.513, 450, 0, []
1630310527.7365, 119, 0, 4196.41, 4182.564, 4086.154, 4154.872, 4179.487, 16205, 0, []
1630310527.7445, 120, 0, 4237.436, 4164.103, 4076.41, 4132.308, 4210.256, 450, 0, []
1630310527.7524, 121, 0, 4267.692, 4145.128, 4090.769, 4144.103, 4262.564, 450, 0, []
1630310527.7603, 122, 0, 4284.103, 4172.821, 4070.769, 4177.949, 4289.744, 450, 0, []
1630310527.7683, 123, 0, 4288.205, 4191.795, 4092.821, 4184.615, 4277.436, 16205, 0, []
1630310527.7762, 124, 0, 4287.179, 4185.641, 4086.667, 4169.231, 4254.872, 450, 0, []
1630310527.7842, 125, 0, 4280, 4185.128, 4064.615, 4158.974, 4248.205, 450, 0, []
1630310527.792, 126, 0, 4256.41, 4165.128, 4090.769, 4151.795, 4247.179, 450, 0, []
1630310527.8, 127, 0, 4232.821, 4129.744, 4081.026, 4145.641, 4237.436, 16205, 0, []
1630310527.8079, 128, 0, 4229.231, 4153.333, 4089.744, 4142.564, 4215.385, 450, 0, []
1630310527.8159, 0, 0, 4223.077, 4191.282, 4088.205, 4132.308, 4194.359, 450, 0, []
1630310527.8238, 1, 0, 4196.41, 4160, 4071.282, 4127.692, 4182.564, 450, 0, []
1630310527.8317, 2, 0, 4177.436, 4122.051, 4092.821, 4154.359, 4173.846, 16188, 0, []
1630310527.8396, 3, 0, 4185.641, 4142.051, 4071.795, 4177.436, 4167.179, 450, 0, []
1630310527.8476, 4, 0, 4186.667, 4165.128, 4074.359, 4163.59, 4164.615, 16117, 0, []
1630310527.8555, 5, 0, 4167.692, 4152.308, 4077.949, 4146.154, 4161.538, 450, 0, []
1630310527.8635, 6, 0, 4161.538, 4137.949, 4049.231, 4147.179, 4153.846, 186, 0, []
1630310527.8713, 7, 0, 4170.769, 4140, 4073.846, 4137.949, 4149.231, 450, 0, []
1630310527.8793, 8, 0, 4172.821, 4143.59, 4065.641, 4112.821, 4157.436, 450, 0, []
1630310527.8872, 9, 0, 4160, 4137.436, 4058.974, 4102.051, 4155.897, 16143, 0, []
1630310527.8952, 10, 0, 4145.128, 4121.538, 4071.282, 4106.667, 4128.718, 450, 0, []
1630310527.9032, 11, 0, 4143.077, 4111.282, 4054.872, 4111.282, 4117.436, 16201, 0, []
1630310527.911, 12, 0, 4149.744, 4129.744, 4060.513, 4129.231, 4145.128, 450, 0, []
1630310527.919, 13, 0, 4148.718, 4142.564, 4023.077, 4151.795, 4154.359, 450, 0, []
1630310527.9269, 14, 0, 4149.231, 4125.128, 4020.513, 4162.564, 4134.359, 450, 0, []
1630310527.9349, 15, 0, 4160, 4110.769, 4062.051, 4158.462, 4145.641, 16201, 0, []
1630310527.9428, 16, 0, 4145.128, 4092.308, 4030.256, 4145.641, 4153.333, 0, 0, []
1630310527.9507, 17, 0, 4112.308, 4071.795, 4027.179, 4131.795, 4114.359, 0, 0, []
1630310527.9586, 18, 0, 4104.103, 4063.077, 4040.513, 4115.385, 4102.051, 0, 0, []
1630310527.9666, 19, 0, 4104.615, 4066.154, 4046.154, 4101.538, 4121.538, 0, 0, []
1630310527.9745, 20, 0, 4116.41, 4081.026, 4060, 4113.333, 4119.487, 0, 0, []
1630310527.9825, 21, 0, 4157.436, 4095.897, 4068.718, 4147.692, 4137.436, 0, 0, []
1630310527.9904, 22, 0, 4168.205, 4084.103, 4107.692, 4156.41, 4172.308, 0, 0, []
1630310527.9983, 23, 0, 4135.385, 4054.872, 4076.41, 4137.436, 4153.846, 0, 0, []
1630310528.0062, 24, 0, 4127.692, 4062.564, 4052.821, 4129.744, 4123.59, 0, 0, []
1630310528.0142, 25, 0, 4133.333, 4075.897, 4086.154, 4135.897, 4136.923, 0, 0, []
1630310528.0221, 26, 0, 4125.128, 4066.154, 4069.744, 4142.564, 4144.615, 0, 0, []
1630310528.0301, 27, 0, 4135.385, 4071.795, 4089.231, 4146.667, 4131.282, 0, 0, []
1630310528.038, 28, 0, 4141.538, 4078.974, 4094.359, 4132.821, 4135.385, 0, 0, []
1630310528.0459, 29, 0, 4127.692, 4071.282, 4082.564, 4104.615, 4143.077, 0, 0, []
1630310528.0539, 30, 0, 4123.077, 4090.769, 4105.641, 4089.231, 4124.103, 0, 0, []
1630310528.0618, 31, 0, 4110.256, 4107.692, 4084.103, 4076.923, 4103.59, 0, 0, []
1630310528.0698, 32, 0, 4101.026, 4080.513, 4094.359, 4081.538, 4114.872, 0, 0, []
1630310528.0776, 33, 0, 4137.436, 4097.436, 4108.718, 4130.769, 4145.128, 0, 0, []
1630310528.0856, 34, 0, 4164.615, 4134.872, 4111.795, 4164.615, 4165.641, 0, 0, []
1630310528.0935, 35, 0, 4148.205, 4101.538, 4125.641, 4157.436, 4176.923, 0, 0, []
1630310528.1015, 36, 0, 4153.846, 4075.385, 4103.077, 4161.538, 4191.795, 0, 0, []
1630310528.1094, 37, 0, 4175.897, 4112.821, 4128.205, 4170.256, 4192.821, 0, 0, []
1630310528.1173, 38, 0, 4164.103, 4130.256, 4128.718, 4146.667, 4178.974, 0, 0, []
1630310528.1252, 39, 0, 4153.846, 4093.846, 4109.231, 4142.564, 4173.333, 0, 0, []
1630310528.1332, 40, 0, 4172.308, 4047.179, 4121.538, 4161.538, 4167.179, 0, 0, []
1630310528.1411, 41, 0, 4178.462, 4017.436, 4093.333, 4148.718, 4152.821, 0, 0, []
1630310528.1491, 42, 0, 4153.846, 4000, 4116.923, 4140.513, 4143.59, 0, 0, []
1630310528.1569, 43, 0, 4136.41, 3966.154, 4116.923, 4149.231, 4130.769, 0, 0, []
1630310528.1649, 44, 0, 4136.923, 3950.256, 4094.359, 4138.974, 4112.308, 0, 0, []
1630310528.1728, 45, 0, 4133.846, 3965.128, 4135.897, 4129.744, 4120.513, 0, 0, []
1630310528.1808, 46, 0, 4131.282, 3952.308, 4125.128, 4146.154, 4144.103, 0, 0, []
1630310528.1887, 47, 0, 4138.974, 3934.359, 4130.256, 4148.718, 4133.846, 0, 0, []
1630310528.1966, 48, 0, 4139.487, 3941.026, 4143.077, 4118.974, 4116.41, 0, 0, []
1630310528.2045, 49, 0, 4122.564, 3929.744, 4144.103, 4116.923, 4118.462, 0, 0, []
1630310528.2125, 50, 0, 4113.333, 3896.923, 4180, 4145.128, 4104.615, 0, 0, []
1630310528.2205, 51, 0, 4124.615, 3898.462, 4169.231, 4148.205, 4094.359, 0, 0, []
1630310528.2284, 52, 0, 4144.103, 3928.718, 4200.513, 4156.41, 4124.615, 0, 0, []
1630310528.2363, 53, 0, 4150.769, 3926.154, 4200.513, 4175.897, 4138.462, 0, 0, []
1630310528.2442, 54, 0, 4146.154, 3905.128, 4155.385, 4161.538, 4112.821, 0, 0, []
1630310528.2522, 55, 0, 4141.538, 3913.846, 4182.051, 4125.128, 4109.744, 0, 0, []
1630310528.2601, 56, 0, 4133.333, 3922.051, 4137.436, 4113.846, 4122.564, 0, 0, []
1630310528.2681, 57, 0, 4134.359, 3911.795, 4094.359, 4138.462, 4114.359, 0, 0, []
1630310528.2759, 58, 0, 4150.256, 3915.385, 4101.026, 4152.821, 4118.462, 0, 0, []
1630310528.2839, 59, 0, 4157.949, 3914.359, 4058.462, 4155.897, 4145.128, 0, 0, []
1630310528.2918, 60, 0, 4153.846, 3890.256, 4053.846, 4171.795, 4148.205, 0, 0, []
1630310528.2998, 61, 0, 4153.846, 3886.667, 4058.462, 4172.821, 4140, 0, 0, []
1630310528.3077, 62, 0, 4138.974, 3902.564, 4050.256, 4149.231, 4138.974, 0, 0, []
1630310528.3156, 63, 0, 4116.41, 3911.282, 4056.41, 4135.897, 4121.026, 0, 0, []
1630310528.3235, 64, 0, 4108.205, 3913.333, 4049.744, 4128.718, 4102.051, 450, 0, []
1630310528.3315, 65, 0, 4101.538, 3885.641, 4073.846, 4117.949, 4114.872, 450, 0, []
1630310528.3394, 66, 0, 4119.487, 3874.872, 4094.359, 4143.59, 4148.205, 16189, 0, []
1630310528.3474, 67, 0, 4151.795, 3905.641, 4108.718, 4173.846, 4160.513, 450, 0, []
1630310528.3552, 68, 0, 4135.385, 3906.154, 4116.923, 4158.462, 4147.692, 16120, 0, []
1630310528.3632, 69, 0, 4110.256, 3892.821, 4081.026, 4145.128, 4146.667, 450, 0, []
1630310528.3712, 70, 0, 4132.821, 3912.821, 4094.872, 4163.077, 4162.051, 192, 0, []
1630310528.3791, 71, 0, 4149.744, 3931.795, 4091.795, 4163.59, 4175.385, 450, 0, []
1630310528.3871, 72, 0, 4133.333, 3929.231, 4053.333, 4151.282, 4177.436, 450, 0, []
1630310528.395, 73, 0, 4130.769, 3917.436, 4067.179, 4150.769, 4167.179, 16136, 0, []
1630310528.4029, 74, 0, 4150.256, 3910.769, 4069.231, 4154.359, 4173.333, 450, 0, []
1630310528.4108, 75, 0, 4156.923, 3928.205, 4080, 4165.641, 4192.821, 16208, 0, []
1630310528.4188, 76, 0, 4140, 3937.949, 4071.282, 4162.051, 4167.179, 450, 0, []
1630310528.4267, 77, 0, 4138.462, 3926.667, 4052.821, 4135.897, 4143.59, 450, 0, []
1630310528.4347, 78, 0, 4165.128, 3946.154, 4091.282, 4143.59, 4184.103, 450, 0, []
1630310528.4425, 79, 0, 4178.974, 3972.821, 4091.282, 4184.103, 4206.154, 16208, 0, []
1630310528.4505, 80, 0, 4163.59, 3982.564, 4078.974, 4186.154, 4167.692, 450, 0, []
1630310528.4584, 81, 0, 4149.231, 3990.769, 4079.487, 4163.077, 4158.974, 450, 0, []
1630310528.4664, 82, 0, 4151.282, 3970.256, 4068.718, 4167.179, 4182.051, 450, 0, []
1630310528.4743, 83, 0, 4160, 3958.462, 4079.487, 4171.282, 4172.308, 16208, 0, []
1630310528.4821, 84, 0, 4169.231, 3985.641, 4074.359, 4160.513, 4167.692, 450, 0, []
1630310528.4901, 85, 0, 4163.59, 3977.949, 4085.128, 4163.077, 4185.641, 450, 0, []
1630310528.4981, 86, 0, 4156.923, 3952.821, 4086.154, 4165.128, 4178.462, 450, 0, []
1630310528.5061, 87, 0, 4162.564, 3956.923, 4065.128, 4152.821, 4167.179, 16208, 0, []
1630310528.514, 88, 0, 4171.282, 3961.538, 4092.821, 4162.051, 4187.179, 450, 0, []
1630310528.5219, 89, 0, 4171.795, 3965.128, 4082.564, 4190.256, 4199.487, 450, 0, []
1630310528.5298, 90, 0, 4151.795, 3973.846, 4061.538, 4181.538, 4170.769, 450, 0, []
1630310528.5378, 91, 0, 4149.744, 3980.513, 4078.462, 4161.538, 4172.821, 16208, 0, []
1630310528.5457, 92, 0, 4188.718, 3994.872, 4093.333, 4197.436, 4220.513, 450, 0, []
1630310528.5537, 93, 0, 4203.077, 4014.872, 4115.385, 4227.179, 4220, 450, 0, []
1630310528.5615, 94, 0, 4175.897, 4013.846, 4093.846, 4206.154, 4183.077, 450, 0, []
1630310528.5695, 95, 0, 4172.308, 4011.282, 4094.872, 4200, 4191.795, 16208, 0, []
1630310528.5774, 96, 0, 4191.282, 4020.513, 4117.436, 4213.846, 4215.385, 450, 0, []
1630310528.5854, 97, 0, 4190.256, 4036.923, 4085.128, 4208.718, 4194.359, 450, 0, []
1630310528.5933, 98, 0, 4186.667, 4048.205, 4093.846, 4195.897, 4172.821, 450, 0, []
1630310528.6012, 99, 0, 4184.615, 4037.949, 4097.949, 4188.205, 4189.231, 16208, 0, []
1630310528.6091, 100, 0, 4172.821, 4030.769, 4078.462, 4181.026, 4189.231, 450, 0, []
1630310528.6171, 101, 0, 4180.513, 4037.949, 4091.795, 4181.538, 4168.718, 450, 0, []
1630310528.625, 102, 0, 4195.897, 4044.615, 4090.256, 4184.103, 4174.359, 450, 0, []
1630310528.633, 103, 0, 4176.41, 4055.897, 4092.821, 4176.41, 4184.103, 16208, 0, []
1630310528.6408, 104, 0, 4164.103, 4075.385, 4078.462, 4174.872, 4168.205, 450, 0, []
1630310528.6488, 105, 0, 4189.231, 4081.026, 4083.59, 4189.231, 4162.051, 450, 0, []
1630310528.6567, 106, 0, 4194.359, 4065.641, 4110.769, 4181.026, 4173.333, 450, 0, []
1630310528.6647, 107, 0, 4179.487, 4062.051, 4094.359, 4167.179, 4181.026, 16208, 0, []
1630310528.6726, 108, 0, 4201.026, 4084.103, 4114.359, 4203.077, 4197.436, 450, 0, []
1630310528.6805, 109, 0, 4234.359, 4116.923, 4125.641, 4240, 4220, 450, 0, []
1630310528.6885, 110, 0, 4235.897, 4119.487, 4106.154, 4225.128, 4226.154, 450, 0, []
1630310528.6964, 111, 0, 4226.667, 4108.718, 4122.051, 4204.615, 4228.718, 16208, 0, []
1630310528.7044, 112, 0, 4224.103, 4118.462, 4104.103, 4205.641, 4227.692, 450, 0, []
1630310528.7123, 113, 0, 4220, 4113.333, 4093.846, 4197.949, 4204.103, 450, 0, []
1630310528.7202, 114, 0, 4212.821, 4096.41, 4100.513, 4177.949, 4186.154, 450, 0, []
1630310528.7281, 115, 0, 4196.923, 4101.026, 4081.026, 4165.128, 4187.692, 16208, 0, []
1630310528.7361, 116, 0, 4192.821, 4103.077, 4084.103, 4170.769, 4193.333, 450, 0, []
1630310528.744, 117, 0, 4214.359, 4096.41, 4087.179, 4185.128, 4197.436, 450, 0, []
1630310528.752, 118, 0, 4227.179, 4110.769, 4101.026, 4172.821, 4192.821, 450, 0, []
1630310528.7598, 119, 0, 4213.333, 4127.179, 4102.564, 4156.923, 4189.231, 16208, 0, []
1630310528.7678, 120, 0, 4209.744, 4127.179, 4081.026, 4179.487, 4197.949, 450, 0, []
1630310528.7757, 121, 0, 4228.205, 4129.744, 4100, 4208.718, 4200.513, 450, 0, []
1630310528.7837, 122, 0, 4232.308, 4127.179, 4098.462, 4200.513, 4198.974, 450, 0, []
1630310528.7916, 123, 0, 4215.897, 4126.154, 4095.897, 4182.051, 4216.41, 16208, 0, []
1630310528.7996, 124, 0, 4215.385, 4122.564, 4106.667, 4185.641, 4229.744, 450, 0, []
1630310528.8074, 125, 0, 4229.744, 4103.59, 4081.538, 4188.718, 4210.256, 450, 0, []
1630310528.8154, 126, 0, 4233.846, 4095.385, 4085.128, 4180, 4198.974, 450, 0, []
1630310528.8233, 127, 0, 4230.769, 4100, 4083.59, 4177.949, 4216.923, 16208, 0, []
1630310528.8313, 128, 0, 4236.923, 4095.897, 4080.513, 4187.179, 4227.179, 450, 0, []
1630310528.8393, 0, 0, 4239.487, 4115.385, 4100.513, 4187.179, 4205.128, 450, 0, []
1630310528.8471, 1, 0, 4227.692, 4141.026, 4084.615, 4171.282, 4180, 450, 0, []
1630310528.8551, 2, 0, 4209.744, 4120.513, 4078.462, 4152.308, 4173.846, 16189, 0, []
1630310528.863, 3, 0, 4207.179, 4101.026, 4077.949, 4151.282, 4184.615, 450, 0, []
1630310528.871, 4, 0, 4223.077, 4116.923, 4081.026, 4173.333, 4195.385, 16118, 0, []
1630310528.8789, 5, 0, 4236.923, 4120.513, 4092.308, 4183.59, 4193.846, 450, 0, []
1630310528.8868, 6, 0, 4233.846, 4106.667, 4065.641, 4170.256, 4198.974, 222, 0, []
1630310528.8947, 7, 0, 4227.692, 4103.59, 4061.538, 4167.179, 4213.846, 450, 0, []
1630310528.9027, 8, 0, 4241.026, 4106.667, 4062.051, 4180.513, 4222.051, 450, 0, []
1630310528.9106, 9, 0, 4254.359, 4110.769, 4051.795, 4182.564, 4212.308, 16139, 0, []
1630310528.9186, 10, 0, 4241.538, 4101.538, 4069.744, 4162.051, 4195.897, 450, 0, []
1630310528.9264, 11, 0, 4228.205, 4088.205, 4062.051, 4151.282, 4200, 16202, 0, []
1630310528.9344, 12, 0, 4247.179, 4118.974, 4065.128, 4173.846, 4222.564, 450, 0, []
1630310528.9423, 13, 0, 4278.462, 4149.231, 4073.846, 4203.077, 4240, 450, 0, []
1630310528.9503, 14, 0, 4283.077, 4120.513, 4046.667, 4194.359, 4239.487, 450, 0, []
1630310528.9582, 15, 0, 4277.436, 4095.385, 4028.718, 4158.974, 4243.077, 16202, 0, []
1630310528.9661, 16, 0, 4299.487, 4112.821, 3998.462, 4153.846, 4277.436, 0, 0, []
1630310528.974, 17, 0, 4342.051, 4124.615, 3990.769, 4183.59, 4321.538, 0, 0, []
1630310528.982, 18, 0, 4385.641, 4116.923, 4012.821, 4207.692, 4350.769, 0, 0, []
1630310528.9899, 19, 0, 4422.564, 4125.641, 4001.538, 4212.308, 4364.615, 0, 0, []
1630310528.9979, 20, 0, 4437.436, 4136.923, 4013.333, 4207.692, 4366.154, 0, 0, []
1630310529.0057, 21, 0, 4420, 4130.769, 4034.872, 4195.385, 4350.769, 0, 0, []
1630310529.0137, 22, 0, 4393.333, 4132.821, 4038.462, 4188.718, 4331.795, 0, 0, []
1630310529.0217, 23, 0, 4378.462, 4162.564, 4044.615, 4193.846, 4323.077, 0, 0, []
1630310529.0296, 24, 0, 4368.205, 4173.846, 4043.59, 4185.128, 4317.436, 0, 0, []
1630310529.0376, 25, 0, 4349.744, 4146.667, 4068.205, 4162.564, 4306.154, 0, 0, []
1630310529.0454, 26, 0, 4338.974, 4139.487, 4078.974, 4169.231, 4301.538, 0, 0, []
1630310529.0534, 27, 0, 4340.513, 4149.231, 4073.333, 4200, 4304.103, 0, 0, []
1630310529.0613, 28, 0, 4327.179, 4143.077, 4088.718, 4205.641, 4285.641, 0, 0, []
1630310529.0693, 29, 0, 4295.385, 4132.821, 4077.436, 4181.026, 4234.872, 0, 0, []
1630310529.0772, 30, 0, 4277.949, 4127.179, 4091.282, 4159.487, 4206.154, 0, 0, []
1630310529.0851, 31, 0, 4291.282, 4126.154, 4117.436, 4168.205, 4235.385, 0, 0, []
1630310529.093, 32, 0, 4306.667, 4145.641, 4122.564, 4192.821, 4266.667, 0, 0, []
1630310529.101, 33, 0, 4302.051, 4160.513, 4134.872, 4202.051, 4253.333, 0, 0, []
1630310529.1089, 34, 0, 4297.436, 4157.436, 4122.564, 4197.436, 4231.795, 0, 0, []
1630310529.1169, 35, 0, 4291.795, 4175.897, 4130.769, 4185.128, 4212.308, 0, 0, []
1630310529.1247, 36, 0, 4276.923, 4189.744, 4136.41, 4169.231, 4192.821, 0, 0, []
1630310529.1327, 37, 0, 4262.051, 4155.385, 4123.59, 4171.795, 4192.308, 0, 0, []
1630310529.1406, 38, 0, 4262.051, 4134.359, 4135.897, 4192.308, 4200.513, 0, 0, []
1630310529.1486, 39, 0, 4274.872, 4162.051, 4119.487, 4207.692, 4201.538, 0, 0, []
1630310529.1566, 40, 0, 4285.641, 4181.538, 4128.205, 4211.795, 4203.59, 0, 0, []
1630310529.1645, 41, 0, 4275.897, 4161.026, 4137.436, 4205.128, 4201.538, 0, 0, []
1630310529.1724, 42, 0, 4252.308, 4145.641, 4107.692, 4188.718, 4193.846, 0, 0, []
1630310529.1803, 43, 0, 4241.026, 4150.769, 4111.282, 4170.769, 4183.077, 0, 0, []
1630310529.1883, 44, 0, 4230.256, 4140.513, 4088.205, 4155.385, 4161.026, 0, 0, []
1630310529.1962, 45, 0, 4214.359, 4142.051, 4084.103, 4146.667, 4148.205, 0, 0, []
1630310529.2042, 46, 0, 4212.821, 4162.564, 4114.359, 4157.436, 4166.154, 0, 0, []
1630310529.212, 47, 0, 4225.128, 4144.615, 4116.923, 4174.872, 4176.41, 0, 0, []
1630310529.22, 48, 0, 4235.385, 4124.615, 4136.41, 4180.513, 4165.128, 0, 0, []
1630310529.2279, 49, 0, 4241.026, 4162.051, 4128.205, 4181.538, 4168.718, 0, 0, []
1630310529.2359, 50, 0, 4235.897, 4180.513, 4118.462, 4183.077, 4182.051, 0, 0, []
1630310529.2438, 51, 0, 4219.487, 4150.256, 4124.615, 4184.103, 4172.821, 0, 0, []
1630310529.2517, 52, 0, 4215.385, 4161.026, 4106.667, 4186.154, 4154.872, 0, 0, []
1630310529.2596, 53, 0, 4223.59, 4185.128, 4117.436, 4185.641, 4150.769, 0, 0, []
1630310529.2676, 54, 0, 4225.128, 4171.795, 4101.538, 4173.846, 4162.051, 0, 0, []
1630310529.2755, 55, 0, 4205.128, 4159.487, 4090.256, 4157.949, 4164.615, 0, 0, []
1630310529.2835, 56, 0, 4187.179, 4157.949, 4109.744, 4154.359, 4149.231, 0, 0, []
1630310529.2913, 57, 0, 4188.205, 4135.385, 4098.462, 4150.256, 4136.923, 0, 0, []
1630310529.2993, 58, 0, 4186.154, 4125.641, 4120, 4144.103, 4138.462, 0, 0, []
1630310529.3072, 59, 0, 4181.026, 4157.436, 4129.744, 4160.513, 4147.179, 0, 0, []
1630310529.3152, 60, 0, 4182.051, 4172.308, 4124.615, 4177.436, 4143.59, 0, 0, []
1630310529.3232, 61, 0, 4175.385, 4168.205, 4143.077, 4162.564, 4133.846, 0, 0, []
1630310529.331, 62, 0, 4168.718, 4182.051, 4128.205, 4146.667, 4143.59, 0, 0, []
1630310529.339, 63, 0, 4178.462, 4179.487, 4133.846, 4155.897, 4158.462, 0, 0, []
1630310529.3469, 64, 0, 4186.154, 4166.154, 4124.615, 4163.077, 4148.205, 450, 0, []
1630310529.3549, 65, 0, 4168.205, 4178.974, 4099.487, 4146.667, 4128.205, 450, 0, []
1630310529.3628, 66, 0, 4145.641, 4166.154, 4113.333, 4138.462, 4131.795, 16188, 0, []
1630310529.3707, 67, 0, 4153.333, 4136.923, 4103.59, 4156.41, 4146.667, 450, 0, []
1630310529.3786, 68, 0, 4168.205, 4164.103, 4106.154, 4161.026, 4137.949, 16116, 0, []
1630310529.3866, 69, 0, 4149.744, 4167.179, 4097.436, 4129.231, 4118.462, 450, 0, []
1630310529.3945, 70, 0, 4135.897, 4133.333, 4089.744, 4122.051, 4123.077, 192, 0, []
1630310529.4025, 71, 0, 4162.564, 4167.692, 4122.051, 4141.026, 4133.333, 450, 0, []
1630310529.4103, 72, 0, 4175.385, 4192.821, 4097.949, 4126.667, 4128.205, 450, 0, []
1630310529.4183, 73, 0, 4162.051, 4161.026, 4096.41, 4121.026, 4136.923, 16142, 0, []
1630310529.4262, 74, 0, 4173.333, 4165.128, 4116.41, 4155.385, 4151.795, 450, 0, []
1630310529.4342, 75, 0, 4182.564, 4177.949, 4097.436, 4164.615, 4131.282, 16204, 0, []
1630310529.4421, 76, 0, 4160, 4144.615, 4106.154, 4136.41, 4113.846, 450, 0, []
1630310529.45, 77, 0, 4147.179, 4135.897, 4096.41, 4128.718, 4125.128, 450, 0, []
1630310529.458, 78, 0, 4146.154, 4167.179, 4092.308, 4132.821, 4113.333, 450, 0, []
1630310529.4659, 79, 0, 4136.41, 4167.692, 4098.462, 4115.385, 4093.846, 16204, 0, []
1630310529.4739, 80, 0, 4134.872, 4161.538, 4086.667, 4115.897, 4109.231, 450, 0, []
1630310529.4818, 81, 0, 4152.821, 4171.282, 4110.769, 4148.205, 4128.718, 450, 0, []
1630310529.4896, 82, 0, 4162.564, 4170.769, 4101.538, 4155.897, 4120.513, 450, 0, []
1630310529.4975, 83, 0, 4145.641, 4165.641, 4096.923, 4128.718, 4106.154, 16204, 0, []
1630310529.5055, 84, 0, 4132.821, 4177.436, 4113.846, 4129.231, 4103.59, 450, 0, []
1630310529.5135, 85, 0, 4140, 4196.923, 4091.282, 4148.205, 4094.359, 450, 0, []
1630310529.5214, 86, 0, 4134.872, 4185.128, 4104.615, 4131.795, 4082.564, 450, 0, []
1630310529.5292, 87, 0, 4117.949, 4150.769, 4102.051, 4115.385, 4090.769, 16204, 0, []
1630310529.5372, 88, 0, 4135.897, 4151.282, 4104.615, 4133.846, 4109.744, 450, 0, []
1630310529.5451, 89, 0, 4160, 4189.744, 4126.154, 4146.667, 4106.154, 450, 0, []
1630310529.5531, 90, 0, 4138.462, 4189.744, 4092.308, 4124.103, 4088.718, 450, 0, []
1630310529.561, 91, 0, 4130.769, 4157.436, 4101.026, 4121.026, 4094.359, 16204, 0, []
1630310529.569, 92, 0, 4167.692, 4174.359, 4111.795, 4146.154, 4112.308, 450, 0, []
1630310529.5768, 93, 0, 4168.718, 4197.436, 4103.59, 4141.026, 4104.103, 450, 0, []
1630310529.5848, 94, 0, 4125.128, 4161.538, 4109.744, 4116.41, 4084.615, 450, 0, []
1630310529.5927, 95, 0, 4124.615, 4144.615, 4097.949, 4125.641, 4092.308, 16204, 0, []
1630310529.6005, 96, 0, 4168.718, 4187.179, 4132.821, 4155.385, 4107.692, 450, 0, []
1630310529.6084, 97, 0, 4183.077, 4200, 4143.077, 4156.41, 4112.821, 450, 0, []
1630310529.6161, 98, 0, 4163.59, 4178.462, 4125.641, 4147.692, 4124.103, 450, 0, []
1630310529.6241, 99, 0, 4161.026, 4188.205, 4134.359, 4157.949, 4134.359, 16204, 0, []
1630310529.632, 100, 0, 4167.179, 4178.974, 4106.667, 4155.897, 4118.974, 450, 0, []
1630310529.64, 101, 0, 4161.538, 4148.718, 4114.872, 4133.333, 4108.718, 450, 0, []
1630310529.6479, 102, 0, 4196.923, 4184.103, 4129.231, 4133.846, 4164.103, 450, 0, []
1630310529.6558, 103, 0, 4267.179, 4217.949, 4111.282, 4161.026, 4230.256, 16204, 0, []
1630310529.6637, 104, 0, 4302.051, 4182.564, 4113.846, 4171.282, 4235.385, 450, 0, []
1630310529.6717, 105, 0, 4318.462, 4177.436, 4100, 4163.077, 4232.308, 450, 0, []
1630310529.6796, 106, 0, 4340, 4227.692, 4113.333, 4160, 4251.282, 450, 0, []
1630310529.6876, 107, 0, 4332.821, 4232.821, 4111.282, 4155.385, 4247.179, 16204, 0, []
1630310529.6954, 108, 0, 4318.462, 4195.385, 4089.231, 4147.179, 4233.846, 450, 0, []
1630310529.7034, 109, 0, 4318.974, 4209.231, 4114.872, 4149.231, 4233.846, 450, 0, []
1630310529.7113, 110, 0, 4303.077, 4252.821, 4095.385, 4162.051, 4222.564, 450, 0, []
1630310529.7193, 111, 0, 4284.103, 4236.923, 4089.231, 4172.308, 4203.59, 16204, 0, []
1630310529.7272, 112, 0, 4266.667, 4183.077, 4103.59, 4161.538, 4177.436, 450, 0, []
1630310529.7351, 113, 0, 4237.949, 4174.872, 4073.333, 4136.41, 4155.385, 450, 0, []
1630310529.743, 114, 0, 4220.513, 4189.231, 4090.256, 4130.769, 4158.462, 450, 0, []
1630310529.7508, 115, 0, 4221.026, 4172.308, 4090.256, 4148.718, 4153.846, 16204, 0, []
1630310529.7587, 116, 0, 4215.385, 4163.59, 4073.846, 4159.487, 4123.59, 450, 0, []
1630310529.7665, 117, 0, 4203.077, 4168.718, 4086.667, 4146.154, 4106.154, 450, 0, []
1630310529.7743, 118, 0, 4191.282, 4157.436, 4081.026, 4134.359, 4111.282, 450, 0, []
1630310529.7821, 119, 0, 4182.051, 4144.615, 4098.462, 4147.692, 4108.718, 16204, 0, []
1630310529.7901, 120, 0, 4181.538, 4162.564, 4085.128, 4162.051, 4091.282, 450, 0, []
1630310529.798, 121, 0, 4175.897, 4182.051, 4064.615, 4146.667, 4080, 450, 0, []
1630310529.806, 122, 0, 4166.154, 4169.231, 4075.385, 4133.846, 4097.949, 450, 0, []
1630310529.8138, 123, 0, 4169.231, 4160.513, 4047.692, 4148.718, 4116.41, 16204, 0, []
1630310529.8218, 124, 0, 4176.41, 4155.385, 4044.615, 4155.385, 4096.923, 450, 0, []
1630310529.8298, 125, 0, 4171.282, 4152.308, 4036.41, 4137.949, 4078.974, 450, 0, []
1630310529.8377, 126, 0, 4159.487, 4170.769, 4025.128, 4134.359, 4091.795, 450, 0, []
1630310529.8457, 127, 0, 4153.846, 4188.205, 4047.692, 4149.744, 4095.897, 16204, 0, []
1630310529.8536, 128, 0, 4154.872, 4183.59, 4025.641, 4137.436, 4070.256, 450, 0, []
1630310529.8615, 0, 0, 4148.205, 4173.846, 4034.359, 4108.718, 4059.487, 450, 0, []
1630310529.8694, 1, 0, 4140, 4179.487, 4054.359, 4119.487, 4081.538, 450, 0, []
1630310529.8774, 2, 1, 4141.595, 4178.746, 4058.006, 4120.342, 4078.519, 16188, 0, []
1630310529.8853, 3, 1, 4143.191, 4178.006, 4061.652, 4121.197, 4075.499, 450, 0, []
1630310529.8932, 4, 1, 4144.786, 4177.265, 4065.299, 4122.051, 4072.479, 16116, 0, []
1630310529.901, 5, 1, 4146.382, 4176.524, 4068.946, 4122.906, 4069.459, 450, 0, []
1630310529.9089, 6, 1, 4147.977, 4175.783, 4072.593, 4123.761, 4066.439, 192, 0, []
1630310529.9168, 7, 1, 4149.573, 4175.043, 4076.239, 4124.615, 4063.419, 450, 0, []
1630310529.9247, 8, 1, 4151.168, 4174.302, 4079.886, 4125.47, 4060.399, 450, 0, []
1630310529.9326, 9, 1, 4152.764, 4173.561, 4083.533, 4126.325, 4057.379, 16142, 0, []
1630310529.9404, 10, 0, 4154.359, 4172.821, 4087.179, 4127.179, 4054.359, 450, 0, []
1630310529.9482, 11, 0, 4153.333, 4146.154, 4104.615, 4127.179, 4067.692, 16205, 0, []
1630310529.9561, 12, 0, 4155.385, 4175.897, 4074.359, 4150.769, 4071.795, 450, 0, []
1630310529.964, 13, 0, 4143.59, 4194.359, 4074.359, 4130.769, 4049.744, 450, 0, []
1630310529.9719, 14, 0, 4130.769, 4178.462, 4071.795, 4111.795, 4048.718, 450, 0, []
1630310529.9796, 15, 0, 4145.641, 4195.897, 4085.128, 4135.897, 4071.282, 16205, 0, []
1630310529.9874, 16, 0, 4164.615, 4217.436, 4107.179, 4145.641, 4065.128, 0, 0, []
1630310529.9953, 17, 0, 4162.564, 4188.718, 4084.103, 4126.667, 4051.282, 0, 0, []
1630310530.0031, 18, 0, 4150.256, 4161.538, 4105.128, 4126.667, 4061.538, 0, 0, []
1630310530.011, 19, 0, 4150.769, 4167.692, 4104.103, 4142.564, 4067.692, 0, 0, []
1630310530.0187, 20, 0, 4169.231, 4185.641, 4089.231, 4153.333, 4065.128, 0, 0, []
1630310530.0266, 21, 0, 4175.897, 4185.128, 4133.333, 4154.872, 4074.359, 0, 0, []
1630310530.0344, 22, 0, 4158.974, 4168.205, 4101.026, 4138.974, 4082.051, 0, 0, []
1630310530.0423, 23, 0, 4144.615, 4183.59, 4075.385, 4133.333, 4070.256, 0, 0, []
1630310530.0501, 24, 0, 4146.667, 4212.308, 4214.872, 4145.128, 4057.949, 0, 0, []
1630310530.0579, 25, 0, 4140, 4193.846, 4253.333, 4130.769, 4057.949, 0, 0, []
1630310530.0657, 26, 0, 4127.692, 4164.103, 4174.359, 4115.385, 4061.538, 0, 0, []
1630310530.0736, 27, 0, 4132.308, 4163.077, 4193.333, 4135.897, 4059.487, 0, 0, []
1630310530.0814, 28, 0, 4139.487, 4176.923, 4186.154, 4145.128, 4055.385, 0, 0, []
1630310530.0893, 29, 0, 4137.949, 4191.282, 4134.872, 4124.615, 4057.949, 0, 0, []
1630310530.097, 30, 0, 4142.564, 4190.256, 4151.282, 4118.462, 4053.333, 0, 0, []
1630310530.1049, 31, 0, 4154.872, 4189.231, 4145.641, 4128.205, 4038.974, 0, 0, []
1630310530.1127, 32, 0, 4155.385, 4196.41, 4070.769, 4122.051, 4046.154, 0, 0, []
1630310530.1206, 33, 0, 4150.769, 4202.051, 4085.641, 4123.59, 4071.795, 0, 0, []
1630310530.1284, 34, 0, 4159.487, 4210.769, 4073.333, 4139.487, 4081.026, 0, 0, []
1630310530.1361, 35, 0, 4171.282, 4215.897, 4031.282, 4137.949, 4083.077, 0, 0, []
1630310530.144, 36, 0, 4169.231, 4224.103, 4098.462, 4130.769, 4086.667, 0, 0, []
1630310530.1518, 37, 0, 4167.179, 4231.795, 4048.718, 4131.282, 4073.846, 0, 0, []
1630310530.1597, 38, 0, 4169.744, 4218.974, 4028.205, 4135.385, 4055.897, 0, 0, []
1630310530.1675, 39, 0, 4164.615, 4208.718, 4069.744, 4130.769, 4066.154, 0, 0, []
1630310530.1753, 40, 0, 4158.974, 4209.231, 4028.718, 4133.333, 4083.077, 0, 0, []
1630310530.1831, 41, 0, 4168.205, 4203.077, 4062.051, 4149.744, 4079.487, 0, 0, []
1630310530.191, 42, 0, 4175.897, 4216.923, 4055.385, 4146.154, 4075.897, 0, 0, []
1630310530.1989, 43, 0, 4163.59, 4234.359, 4038.462, 4136.923, 4080.513, 0, 0, []
1630310530.2068, 44, 0, 4157.949, 4221.026, 4069.744, 4145.641, 4075.385, 0, 0, []
1630310530.2146, 45, 0, 4164.103, 4231.795, 4044.103, 4143.59, 4054.359, 0, 0, []
1630310530.2224, 46, 0, 4161.538, 4260.513, 4061.538, 4126.154, 4056.923, 0, 0, []
1630310530.2302, 47, 0, 4146.667, 4234.872, 4073.846, 4123.077, 4072.821, 0, 0, []
1630310530.238, 48, 0, 4142.564, 4207.692, 4055.385, 4126.154, 4068.205, 0, 0, []
1630310530.2459, 49, 0, 4161.026, 4232.821, 4101.026, 4132.821, 4072.308, 0, 0, []
1630310530.2537, 50, 0, 4167.692, 4260.513, 4111.795, 4146.667, 4095.897, 0, 0, []
1630310530.2615, 51, 0, 4158.974, 4248.718, 4097.949, 4148.205, 4092.821, 0, 0, []
1630310530.2693, 52, 0, 4161.026, 4227.179, 4113.846, 4140.513, 4065.128, 0, 0, []
1630310530.2772, 53, 0, 4173.333, 4241.538, 4105.128, 4135.385, 4067.179, 0, 0, []
1630310530.285, 54, 0, 4164.615, 4250.256, 4116.923, 4131.795, 4087.692, 0, 0, []
1630310530.2929, 55, 0, 4146.667, 4226.667, 4084.615, 4126.667, 4085.641, 0, 0, []
1630310530.3006, 56, 0, 4160, 4229.744, 4062.051, 4134.359, 4081.538, 0, 0, []
1630310530.3085, 57, 0, 4191.795, 4274.359, 4144.615, 4157.949, 4106.667, 0, 0, []
1630310530.3163, 58, 0, 4188.205, 4284.103, 4111.795, 4158.974, 4119.487, 0, 0, []
1630310530.3242, 59, 0, 4158.974, 4248.205, 4071.795, 4137.949, 4092.308, 0, 0, []
1630310530.332, 60, 0, 4174.359, 4246.154, 4121.026, 4140, 4091.795, 0, 0, []
1630310530.3398, 61, 0, 4209.231, 4270.256, 4121.026, 4164.615, 4125.128, 0, 0, []
1630310530.3476, 62, 0, 4205.128, 4277.949, 4109.231, 4182.051, 4135.385, 0, 0, []
1630310530.3555, 63, 0, 4194.872, 4288.718, 4078.462, 4178.462, 4114.359, 0, 0, []
1630310530.3633, 64, 0, 4197.949, 4298.974, 4077.949, 4161.026, 4093.333, 450, 0, []
1630310530.3712, 65, 0, 4188.718, 4290.769, 4077.949, 4139.487, 4095.897, 450, 0, []
1630310530.3789, 66, 0, 4176.41, 4278.974, 4079.487, 4135.897, 4104.615, 16189, 0, []
1630310530.3868, 67, 0, 4185.641, 4266.154, 4097.949, 4152.308, 4095.897, 450, 0, []
1630310530.3946, 68, 0, 4190.256, 4261.538, 4069.231, 4159.487, 4086.667, 16117, 0, []
1630310530.4025, 69, 0, 4186.154, 4277.436, 4102.564, 4168.205, 4109.744, 450, 0, []
1630310530.4103, 70, 0, 4190.256, 4289.231, 4090.769, 4182.051, 4132.308, 191, 0, []
1630310530.4181, 71, 0, 4197.436, 4306.667, 4061.538, 4174.359, 4116.41, 450, 0, []
1630310530.4259, 72, 0, 4199.487, 4339.487, 4093.333, 4161.538, 4099.487, 450, 0, []
1630310530.4337, 73, 0, 4188.718, 4326.154, 4069.744, 4164.103, 4106.154, 16140, 0, []
1630310530.4416, 74, 0, 4183.59, 4283.59, 4083.077, 4170.769, 4112.308, 450, 0, []
1630310530.4494, 75, 0, 4192.308, 4284.103, 4054.359, 4164.103, 4100, 16207, 0, []
1630310530.4571, 76, 0, 4185.641, 4304.103, 4023.59, 4155.897, 4084.615, 450, 0, []
1630310530.465, 77, 0, 4170.256, 4295.385, 4074.359, 4157.436, 4088.718, 450, 0, []
1630310530.4729, 78, 0, 4179.487, 4274.359, 4057.949, 4163.077, 4100.513, 450, 0, []
1630310530.4807, 79, 0, 4195.385, 4287.179, 4075.385, 4167.692, 4094.359, 16207, 0, []
1630310530.4886, 80, 0, 4187.692, 4310.256, 4067.179, 4158.462, 4079.487, 450, 0, []
1630310530.4964, 81, 0, 4176.923, 4288.205, 4037.949, 4147.692, 4083.077, 450, 0, []
1630310530.5042, 82, 0, 4183.077, 4251.795, 4079.487, 4161.538, 4097.436, 450, 0, []
1630310530.5121, 83, 0, 4186.667, 4261.538, 4038.462, 4164.103, 4085.128, 16207, 0, []
1630310530.52, 84, 0, 4168.205, 4286.667, 4045.641, 4142.564, 4062.051, 450, 0, []
1630310530.5279, 85, 0, 4151.282, 4278.974, 4064.103, 4137.949, 4068.718, 450, 0, []
1630310530.5357, 86, 0, 4162.051, 4273.846, 4039.487, 4154.872, 4081.538, 450, 0, []
1630310530.5434, 87, 0, 4176.923, 4282.564, 4074.872, 4163.59, 4076.923, 16207, 0, []
1630310530.5512, 88, 0, 4167.692, 4272.308, 4034.359, 4151.282, 4078.974, 450, 0, []
1630310530.5591, 89, 0, 4159.487, 4260.513, 4046.154, 4143.077, 4083.59, 450, 0, []
1630310530.567, 90, 0, 4175.897, 4276.41, 4066.667, 4150.256, 4081.538, 450, 0, []
1630310530.5748, 91, 0, 4190.256, 4285.128, 4007.692, 4151.795, 4087.692, 16207, 0, []
1630310530.5826, 92, 0, 4185.128, 4268.718, 4050.256, 4150.256, 4106.154, 450, 0, []
1630310530.5904, 93, 0, 4193.333, 4274.359, 4064.103, 4158.974, 4128.205, 450, 0, []
1630310530.5982, 94, 0, 4218.462, 4292.821, 4092.308, 4181.026, 4135.897, 450, 0, []
1630310530.6061, 95, 0, 4226.667, 4310.769, 4127.179, 4188.718, 4130.256, 16207, 0, []
1630310530.6139, 96, 0, 4213.846, 4326.667, 4090.769, 4180, 4131.795, 450, 0, []
1630310530.6217, 97, 0, 4200, 4301.538, 4131.795, 4185.641, 4133.333, 450, 0, []
1630310530.6295, 98, 0, 4196.923, 4261.026, 4106.667, 4182.051, 4112.821, 450, 0, []
1630310530.6374, 99, 0, 4195.897, 4265.641, 4092.308, 4164.103, 4097.949, 16207, 0, []
1630310530.6452, 100, 0, 4193.333, 4302.051, 4144.615, 4166.667, 4124.103, 450, 0, []
1630310530.6531, 101, 0, 4203.59, 4316.41, 4135.385, 4183.077, 4151.282, 450, 0, []
1630310530.6608, 102, 0, 4216.41, 4291.282, 4175.897, 4187.179, 4141.538, 450, 0, []
1630310530.6686, 103, 0, 4207.692, 4265.128, 4156.41, 4169.231, 4118.462, 16207, 0, []
1630310530.6765, 104, 0, 4190.256, 4272.308, 4135.897, 4159.487, 4120, 450, 0, []
1630310530.6843, 105, 0, 4186.154, 4286.154, 4157.436, 4172.821, 4127.179, 450, 0, []
1630310530.6922, 106, 0, 4194.872, 4296.41, 4108.205, 4179.487, 4113.333, 450, 0, []
1630310530.6999, 107, 0, 4208.205, 4310.769, 4142.564, 4175.897, 4108.718, 16207, 0, []
1630310530.7078, 108, 0, 4196.923, 4291.795, 4133.846, 4160.513, 4124.103, 450, 0, []
1630310530.7156, 109, 0, 4184.103, 4261.538, 4110.256, 4156.41, 4136.923, 450, 0, []
1630310530.7234, 110, 0, 4209.744, 4291.795, 4155.385, 4186.667, 4144.615, 450, 0, []
1630310530.7313, 111, 0, 4215.385, 4323.077, 4133.846, 4194.359, 4130.769, 16207, 0, []
1630310530.739, 112, 0, 4186.154, 4292.308, 4163.077, 4171.282, 4108.205, 450, 0, []
1630310530.7469, 113, 0, 4188.205, 4275.385, 4145.641, 4169.231, 4116.923, 450, 0, []
1630310530.7547, 114, 0, 4203.077, 4298.974, 4107.692, 4177.436, 4126.154, 450, 0, []
1630310530.7626, 115, 0, 4188.205, 4293.333, 4132.821, 4164.103, 4109.744, 16207, 0, []
1630310530.7704, 116, 0, 4188.718, 4262.564, 4092.308, 4154.359, 4125.128, 450, 0, []
1630310530.7782, 117, 0, 4210.256, 4277.436, 4124.103, 4178.462, 4162.051, 450, 0, []
1630310530.786, 118, 0, 4210.256, 4304.615, 4118.974, 4191.282, 4155.385, 450, 0, []
1630310530.7939, 119, 0, 4199.487, 4283.59, 4065.641, 4173.333, 4122.564, 16207, 0, []
1630310530.8017, 120, 0, 4193.333, 4264.103, 4100, 4157.436, 4111.282, 450, 0, []
1630310530.8096, 121, 0, 4186.154, 4276.923, 4072.821, 4154.359, 4120.513, 450, 0, []
1630310530.8174, 122, 0, 4190.256, 4284.615, 4087.692, 4168.205, 4128.205, 450, 0, []
1630310530.8252, 123, 0, 4204.615, 4283.59, 4098.974, 4175.897, 4126.667, 16207, 0, []
1630310530.833, 124, 0, 4203.59, 4275.385, 4063.077, 4164.103, 4125.641, 450, 0, []
1630310530.8409, 125, 0, 4190.256, 4263.077, 4107.179, 4164.615, 4141.026, 450, 0, []
1630310530.8487, 126, 0, 4183.59, 4271.282, 4082.051, 4178.462, 4143.59, 450, 0, []
1630310530.8566, 127, 0, 4181.026, 4280, 4084.103, 4174.872, 4118.974, 16207, 0, []
1630310530.8643, 128, 0, 4186.667, 4262.051, 4108.205, 4164.615, 4126.154, 450, 0, []
1630310530.8722, 0, 0, 4195.385, 4248.205, 4081.026, 4173.846, 4158.462, 450, 0, []
1630310530.88, 1, 0, 4190.256, 4261.538, 4118.974, 4186.667, 4141.538, 450, 0, []
1630310530.8878, 2, 0, 4189.231, 4290.769, 4094.872, 4183.59, 4104.103, 16186, 0, []
1630310530.8957, 3, 0, 4203.59, 4292.308, 4100, 4182.564, 4127.179, 450, 0, []
1630310530.9034, 4, 0, 4192.821, 4252.821, 4121.538, 4176.923, 4150.769, 16113, 0, []
1630310530.9113, 5, 0, 4167.179, 4243.59, 4065.128, 4157.949, 4123.59, 450, 0, []
1630310530.9191, 6, 0, 4186.154, 4265.641, 4101.538, 4165.128, 4111.795, 185, 0, []
1630310530.927, 7, 0, 4211.282, 4263.077, 4097.436, 4179.487, 4129.744, 450, 0, []
1630310530.9348, 8, 0, 4195.385, 4264.615, 4083.077, 4182.051, 4143.077, 450, 0, []
1630310530.9426, 9, 0, 4181.026, 4277.949, 4098.974, 4186.154, 4138.462, 16138, 0, []
1630310530.9504, 10, 0, 4190.769, 4276.41, 4057.436, 4185.641, 4120.513, 450, 0, []
1630310530.9583, 11, 0, 4195.897, 4268.718, 4095.385, 4185.128, 4121.538, 16194, 0, []
1630310530.9661, 12, 0, 4185.128, 4249.744, 4078.974, 4180.513, 4140, 450, 0, []
1630310530.974, 13, 0, 4176.41, 4232.821, 4056.923, 4174.359, 4131.795, 450, 0, []
1630310530.9817, 14, 0, 4184.103, 4268.205, 4111.282, 4185.641, 4114.872, 450, 0, []
1630310530.9896, 15, 0, 4193.846, 4300, 4078.974, 4190.256, 4130.256, 16194, 0, []
1630310530.9974, 16, 0, 4177.436, 4264.615, 4082.564, 4172.821, 4132.308, 0, 0, []
1630310531.0053, 17, 0, 4162.564, 4251.282, 4069.231, 4162.564, 4106.667, 0, 0, []
1630310531.0131, 18, 0, 4180, 4279.487, 4057.949, 4169.231, 4105.128, 0, 0, []
1630310531.0209, 19, 0, 4192.308, 4276.923, 4110.769, 4167.179, 4123.077, 0, 0, []
1630310531.0287, 20, 0, 4181.026, 4255.897, 4070.256, 4163.59, 4131.282, 0, 0, []
1630310531.0365, 21, 0, 4183.077, 4261.026, 4081.026, 4181.026, 4134.872, 0, 0, []
1630310531.0444, 22, 0, 4197.436, 4272.308, 4085.128, 4181.538, 4139.487, 0, 0, []
1630310531.0522, 23, 0, 4191.795, 4263.077, 4050.769, 4161.538, 4135.385, 0, 0, []
1630310531.06, 24, 0, 4182.051, 4270.256, 4091.795, 4165.128, 4131.795, 0, 0, []
1630310531.0678, 25, 0, 4189.231, 4292.308, 4067.179, 4180.513, 4131.282, 0, 0, []
1630310531.0757, 26, 0, 4203.077, 4282.564, 4084.103, 4187.179, 4138.462, 0, 0, []
1630310531.0835, 27, 0, 4209.744, 4262.564, 4094.359, 4180.513, 4157.436, 0, 0, []
1630310531.0914, 28, 0, 4195.897, 4265.641, 4044.103, 4165.128, 4155.897, 0, 0, []
1630310531.0991, 29, 0, 4180.513, 4273.846, 4078.462, 4167.179, 4132.308, 0, 0, []
1630310531.107, 30, 0, 4190.256, 4272.821, 4067.179, 4179.487, 4134.359, 0, 0, []
1630310531.1148, 31, 0, 4205.641, 4266.667, 4077.949, 4175.385, 4165.128, 0, 0, []
1630310531.1227, 32, 0, 4201.026, 4265.641, 4087.692, 4165.641, 4180, 0, 0, []
1630310531.1305, 33, 0, 4193.846, 4273.333, 4040.513, 4166.667, 4159.487, 0, 0, []
1630310531.1384, 34, 0, 4201.026, 4277.436, 4086.667, 4173.846, 4132.821, 0, 0, []
1630310531.1461, 35, 0, 4203.59, 4266.667, 4068.205, 4172.308, 4132.821, 0, 0, []
1630310531.154, 36, 0, 4181.538, 4245.128, 4059.487, 4163.59, 4141.538, 0, 0, []
1630310531.1618, 37, 0, 4162.051, 4234.359, 4099.487, 4162.051, 4132.308, 0, 0, []
1630310531.1697, 38, 0, 4174.872, 4238.462, 4071.795, 4173.846, 4126.667, 0, 0, []
1630310531.1775, 39, 0, 4194.359, 4240.513, 4099.487, 4182.564, 4137.436, 0, 0, []
1630310531.1852, 40, 0, 4188.718, 4223.59, 4075.385, 4164.615, 4147.179, 0, 0, []
1630310531.1931, 41, 0, 4189.744, 4224.103, 4068.205, 4163.59, 4160.513, 0, 0, []
1630310531.2009, 42, 0, 4216.923, 4256.923, 4116.41, 4200, 4181.026, 0, 0, []
1630310531.2088, 43, 0, 4224.103, 4265.128, 4071.282, 4202.564, 4170.256, 0, 0, []
1630310531.2166, 44, 0, 4197.949, 4239.487, 4085.128, 4165.128, 4146.154, 0, 0, []
1630310531.2244, 45, 0, 4185.641, 4229.744, 4076.923, 4145.128, 4155.897, 0, 0, []
1630310531.2322, 46, 0, 4198.974, 4247.692, 4065.128, 4150.769, 4166.154, 0, 0, []
1630310531.2401, 47, 0, 4199.487, 4249.744, 4097.436, 4154.359, 4142.564, 0, 0, []
1630310531.2479, 48, 0, 4192.821, 4241.026, 4059.487, 4154.872, 4135.897, 0, 0, []
1630310531.2558, 49, 0, 4206.154, 4253.846, 4107.692, 4170.769, 4171.282, 0, 0, []
1630310531.2635, 50, 0, 4198.974, 4250.256, 4109.744, 4172.308, 4175.897, 0, 0, []
1630310531.2714, 51, 0, 4177.949, 4234.872, 4062.051, 4157.949, 4139.487, 0, 0, []
1630310531.2792, 52, 0, 4197.949, 4249.231, 4107.179, 4167.692, 4137.949, 0, 0, []
1630310531.2871, 53, 0, 4225.128, 4257.949, 4082.564, 4174.359, 4160.513, 0, 0, []
1630310531.2949, 54, 0, 4209.231, 4233.333, 4091.282, 4165.641, 4159.487, 0, 0, []
1630310531.3027, 55, 0, 4192.821, 4220, 4088.718, 4167.692, 4153.333, 0, 0, []
1630310531.3105, 56, 0, 4200, 4229.744, 4050.769, 4171.795, 4150.256, 0, 0, []
1630310531.3184, 57, 0, 4195.897, 4237.949, 4094.359, 4159.487, 4135.385, 0, 0, []
1630310531.3262, 58, 0, 4187.179, 4229.744, 4073.333, 4148.718, 4141.026, 0, 0, []
1630310531.3341, 59, 0, 4185.128, 4210.769, 4080, 4150.256, 4156.923, 0, 0, []
1630310531.3418, 60, 0, 4184.103, 4216.923, 4091.795, 4149.231, 4137.436, 0, 0, []
1630310531.3497, 61, 0, 4194.872, 4241.538, 4066.667, 4154.872, 4122.051, 0, 0, []
1630310531.3575, 62, 0, 4199.487, 4243.077, 4111.795, 4164.103, 4146.154, 0, 0, []
1630310531.3653, 63, 0, 4189.744, 4242.564, 4082.564, 4155.897, 4163.59, 0, 0, []
1630310531.3732, 64, 0, 4189.744, 4264.103, 4084.615, 4154.359, 4145.641, 450, 0, []
1630310531.3809, 65, 0, 4197.436, 4256.41, 4107.692, 4166.667, 4132.308, 450, 0, []
1630310531.3888, 66, 0, 4188.205, 4224.615, 4065.641, 4153.333, 4140.513, 16196, 0, []
1630310531.3966, 67, 0, 4175.897, 4234.359, 4100.513, 4141.026, 4153.333, 450, 0, []
1630310531.4045, 68, 0, 4185.641, 4258.462, 4088.205, 4160, 4162.564, 16116, 0, []
1630310531.4123, 69, 0, 4195.897, 4244.103, 4086.154, 4171.282, 4162.051, 450, 0, []
1630310531.4201, 70, 0, 4192.308, 4234.872, 4108.718, 4154.872, 4163.077, 189, 0, []
1630310531.4279, 71, 0, 4183.59, 4232.308, 4062.051, 4142.051, 4167.179, 450, 0, []
1630310531.4358, 72, 0, 4180, 4215.385, 4088.718, 4152.821, 4155.897, 450, 0, []
1630310531.4436, 73, 0, 4186.154, 4232.308, 4072.308, 4156.923, 4138.462, 16143, 0, []
1630310531.4515, 74, 0, 4187.179, 4266.154, 4064.103, 4148.205, 4140.513, 450, 0, []
1630310531.4593, 75, 0, 4177.949, 4243.59, 4101.026, 4149.231, 4159.487, 16211, 0, []
1630310531.4671, 76, 0, 4175.385, 4202.051, 4060, 4158.462, 4167.179, 450, 0, []
1630310531.4749, 77, 0, 4188.718, 4221.538, 4096.923, 4172.308, 4165.641, 450, 0, []
1630310531.4828, 78, 0, 4192.821, 4254.872, 4101.026, 4170.769, 4163.077, 450, 0, []
1630310531.4906, 79, 0, 4178.462, 4233.846, 4079.487, 4163.59, 4163.59, 16211, 0, []
1630310531.4985, 80, 0, 4170.769, 4202.051, 4107.692, 4169.744, 4166.154, 450, 0, []
1630310531.5063, 81, 0, 4165.641, 4197.949, 4058.462, 4153.333, 4144.615, 450, 0, []
1630310531.5141, 82, 0, 4165.128, 4215.897, 4085.128, 4136.923, 4134.872, 450, 0, []
1630310531.5219, 83, 0, 4190.256, 4246.667, 4099.487, 4157.949, 4178.974, 16211, 0, []
1630310531.5298, 84, 0, 4212.821, 4254.872, 4079.487, 4179.487, 4214.359, 450, 0, []
1630310531.5377, 85, 0, 4211.282, 4227.692, 4116.41, 4177.436, 4198.974, 450, 0, []
1630310531.5454, 86, 0, 4202.564, 4214.359, 4071.795, 4166.154, 4186.154, 450, 0, []
1630310531.5533, 87, 0, 4185.128, 4214.872, 4080.513, 4157.949, 4186.154, 16211, 0, []
1630310531.5611, 88, 0, 4176.41, 4208.718, 4093.333, 4158.974, 4179.487, 450, 0, []
1630310531.569, 89, 0, 4196.923, 4217.949, 4068.205, 4172.308, 4181.026, 450, 0, []
1630310531.5768, 90, 0, 4206.667, 4227.692, 4110.256, 4168.205, 4178.462, 450, 0, []
1630310531.5846, 91, 0, 4189.744, 4210.769, 4082.051, 4141.538, 4174.872, 16211, 0, []
1630310531.5924, 92, 0, 4192.821, 4210.769, 4095.385, 4152.821, 4191.795, 450, 0, []
1630310531.6003, 93, 0, 4207.179, 4224.103, 4111.282, 4181.538, 4195.897, 450, 0, []
1630310531.6081, 94, 0, 4202.564, 4216.923, 4073.846, 4178.462, 4182.051, 450, 0, []
1630310531.616, 95, 0, 4200, 4213.846, 4120, 4174.359, 4195.897, 16211, 0, []
1630310531.6237, 96, 0, 4204.103, 4216.923, 4096.923, 4181.026, 4218.974, 450, 0, []
1630310531.6316, 97, 0, 4196.923, 4197.436, 4087.692, 4180, 4201.538, 450, 0, []
1630310531.6394, 98, 0, 4193.846, 4185.128, 4101.538, 4172.821, 4178.462, 450, 0, []
1630310531.6473, 99, 0, 4197.436, 4206.667, 4066.154, 4165.641, 4187.692, 16211, 0, []
1630310531.6551, 100, 0, 4196.923, 4218.462, 4111.282, 4172.308, 4204.103, 450, 0, []
1630310531.6629, 101, 0, 4198.974, 4211.795, 4094.359, 4183.077, 4204.103, 450, 0, []
1630310531.6707, 102, 0, 4198.462, 4205.128, 4083.59, 4178.462, 4194.872, 450, 0, []
1630310531.6785, 103, 0, 4192.308, 4206.667, 4111.282, 4166.154, 4202.564, 16211, 0, []
1630310531.6864, 104, 0, 4191.795, 4224.615, 4072.821, 4163.077, 4225.641, 450, 0, []
1630310531.6942, 105, 0, 4191.282, 4228.718, 4105.128, 4175.385, 4229.231, 450, 0, []
1630310531.702, 106, 0, 4195.385, 4220, 4100, 4185.128, 4216.923, 450, 0, []
1630310531.7098, 107, 0, 4205.641, 4226.154, 4090.769, 4187.179, 4216.41, 16211, 0, []
1630310531.7177, 108, 0, 4190.256, 4208.205, 4110.256, 4178.462, 4212.821, 450, 0, []
1630310531.7255, 109, 0, 4167.692, 4169.231, 4061.538, 4165.641, 4204.103, 450, 0, []
1630310531.7334, 110, 0, 4181.538, 4193.333, 4096.41, 4171.282, 4205.641, 450, 0, []
1630310531.7411, 111, 0, 4192.821, 4234.359, 4088.205, 4171.795, 4203.59, 16211, 0, []
1630310531.749, 112, 0, 4181.538, 4211.795, 4064.615, 4162.564, 4201.026, 450, 0, []
1630310531.7568, 113, 0, 4187.179, 4190.256, 4121.026, 4174.872, 4221.538, 450, 0, []
1630310531.7647, 114, 0, 4190.769, 4206.667, 4086.154, 4188.205, 4223.59, 450, 0, []
1630310531.7725, 115, 0, 4175.897, 4221.026, 4093.846, 4182.051, 4189.744, 16211, 0, []
1630310531.7804, 116, 0, 4184.103, 4222.564, 4104.615, 4177.436, 4184.615, 450, 0, []
1630310531.7881, 117, 0, 4204.103, 4206.667, 4090.256, 4180.513, 4215.897, 450, 0, []
1630310531.796, 118, 0, 4189.744, 4184.615, 4109.744, 4169.744, 4217.949, 450, 0, []
1630310531.8038, 119, 0, 4176.41, 4185.641, 4056.923, 4156.923, 4191.795, 16211, 0, []
1630310531.8116, 120, 0, 4203.59, 4196.41, 4096.923, 4177.436, 4199.487, 450, 0, []
1630310531.8195, 121, 0, 4222.564, 4208.205, 4127.692, 4201.026, 4231.795, 450, 0, []
1630310531.8272, 122, 0, 4201.538, 4215.897, 4077.949, 4193.333, 4237.949, 450, 0, []
1630310531.8351, 123, 0, 4181.538, 4196.41, 4101.538, 4181.538, 4218.462, 16211, 0, []
1630310531.8429, 124, 0, 4187.692, 4175.385, 4075.385, 4173.333, 4201.538, 450, 0, []
1630310531.8508, 125, 0, 4202.564, 4189.231, 4089.231, 4163.59, 4204.615, 450, 0, []
1630310531.8586, 126, 0, 4205.641, 4198.462, 4110.256, 4152.821, 4218.462, 450, 0, []
1630310531.8664, 127, 0, 4200.513, 4182.564, 4073.846, 4156.923, 4220, 16211, 0, []
1630310531.8742, 128, 0, 4198.462, 4191.282, 4107.692, 4177.949, 4205.128, 450, 0, []
1630310531.8821, 0, 0, 4192.308, 4211.795, 4081.538, 4177.949, 4192.821, 450, 0, []
1630310531.8899, 1, 0, 4170.769, 4180, 4081.538, 4160.513, 4185.128, 450, 0, []
1630310531.8978, 2, 0, 4165.128, 4151.282, 4108.718, 4165.128, 4182.051, 16189, 0, []
1630310531.9055, 3, 0, 4189.744, 4198.462, 4078.462, 4183.077, 4188.718, 450, 0, []
1630310531.9134, 4, 0, 4211.282, 4225.641, 4118.462, 4189.231, 4203.077, 16116, 0, []
1630310531.9212, 5, 0, 4210.256, 4191.795, 4095.897, 4180.513, 4218.974, 450, 0, []
1630310531.9291, 6, 0, 4198.462, 4190.256, 4081.538, 4180, 4217.436, 189, 0, []
1630310531.9369, 7, 0, 4192.308, 4189.231, 4106.667, 4183.077, 4201.026, 450, 0, []
1630310531.9447, 8, 0, 4209.744, 4165.641, 4068.718, 4167.692, 4197.949, 450, 0, []
1630310531.9525, 9, 0, 4247.179, 4194.872, 4112.308, 4166.154, 4233.333, 16146, 0, []
1630310531.9604, 10, 0, 4271.282, 4225.128, 4106.667, 4179.487, 4282.564, 450, 0, []
1630310531.9682, 11, 0, 4263.59, 4192.821, 4083.59, 4180, 4296.41, 16204, 0, []
1630310531.976, 12, 0, 4256.41, 4178.462, 4106.154, 4184.103, 4287.692, 450, 0, []
1630310531.9838, 13, 0, 4261.538, 4195.897, 4058.974, 4193.333, 4284.103, 450, 0, []
1630310531.9916, 14, 0, 4253.846, 4182.564, 4092.308, 4188.718, 4274.872, 450, 0, []
1630310531.9995, 15, 0, 4229.744, 4162.564, 4099.487, 4166.667, 4255.897, 16204, 0, []
1630310532.0073, 16, 0, 4210.769, 4150.256, 4074.359, 4148.718, 4244.615, 0, 0, []
1630310532.0152, 17, 0, 4213.333, 4131.795, 4112.821, 4150.256, 4241.538, 0, 0, []
1630310532.0229, 18, 0, 4224.615, 4141.026, 4089.231, 4162.564, 4228.718, 0, 0, []
1630310532.0308, 19, 0, 4223.59, 4170.256, 4117.436, 4166.667, 4214.872, 0, 0, []
1630310532.0386, 20, 0, 4211.282, 4180, 4108.205, 4154.359, 4222.051, 0, 0, []
1630310532.0465, 21, 0, 4216.923, 4182.051, 4070.256, 4155.897, 4243.077, 0, 0, []
1630310532.0543, 22, 0, 4240.513, 4203.077, 4114.872, 4176.923, 4251.795, 0, 0, []
1630310532.0622, 23, 0, 4242.051, 4188.205, 4077.949, 4162.051, 4233.333, 0, 0, []
1630310532.0699, 24, 0, 4228.205, 4152.308, 4086.154, 4132.821, 4224.615, 0, 0, []
1630310532.0778, 25, 0, 4229.231, 4166.667, 4100, 4150.256, 4247.692, 0, 0, []
1630310532.0856, 26, 0, 4229.231, 4157.436, 4062.564, 4175.385, 4253.333, 0, 0, []
1630310532.0935, 27, 0, 4215.897, 4123.59, 4096.923, 4171.282, 4228.205, 0, 0, []
1630310532.1013, 28, 0, 4218.462, 4137.436, 4085.641, 4169.744, 4223.59, 0, 0, []
1630310532.1091, 29, 0, 4231.795, 4140.513, 4107.179, 4179.487, 4241.026, 0, 0, []
1630310532.1169, 30, 0, 4227.179, 4113.846, 4111.795, 4173.333, 4246.667, 0, 0, []
1630310532.1248, 31, 0, 4213.333, 4110.256, 4065.128, 4158.974, 4236.41, 0, 0, []
1630310532.1326, 32, 0, 4211.282, 4115.897, 4110.769, 4163.077, 4218.462, 0, 0, []
1630310532.1404, 33, 0, 4207.692, 4109.231, 4084.103, 4164.615, 4206.667, 0, 0, []
1630310532.1482, 34, 0, 4194.359, 4120, 4074.872, 4160.513, 4215.385, 0, 0, []
1630310532.156, 35, 0, 4195.897, 4112.821, 4102.051, 4167.179, 4228.718, 0, 0, []
1630310532.1639, 36, 0, 4210.256, 4101.538, 4066.667, 4170.769, 4221.026, 0, 0, []
1630310532.1717, 37, 0, 4212.308, 4113.846, 4108.718, 4157.949, 4208.718, 0, 0, []
1630310532.1796, 38, 0, 4196.41, 4091.795, 4091.795, 4133.846, 4210.769, 0, 0, []
1630310532.1873, 39, 0, 4182.051, 4058.462, 4069.744, 4136.41, 4213.846, 0, 0, []
1630310532.1952, 40, 0, 4185.128, 4074.359, 4091.795, 4158.974, 4201.538, 0, 0, []
1630310532.203, 41, 0, 4187.692, 4081.026, 4062.051, 4155.897, 4189.744, 0, 0, []
1630310532.2109, 42, 0, 4180, 4050.769, 4107.179, 4146.154, 4201.538, 0, 0, []
1630310532.2187, 43, 0, 4182.564, 4048.718, 4095.385, 4155.385, 4223.077, 0, 0, []
1630310532.2265, 44, 0, 4198.974, 4073.846, 4071.795, 4169.744, 4229.744, 0, 0, []
1630310532.2343, 45, 0, 4205.641, 4086.154, 4107.692, 4164.615, 4217.436, 0, 0, []
1630310532.2422, 46, 0, 4198.462, 4089.231, 4079.487, 4146.154, 4216.41, 0, 0, []
1630310532.25, 47, 0, 4196.41, 4083.077, 4107.692, 4153.333, 4233.333, 0, 0, []
1630310532.2579, 48, 0, 4202.564, 4088.718, 4090.769, 4182.564, 4233.846, 0, 0, []
1630310532.2656, 49, 0, 4198.462, 4113.846, 4059.487, 4185.641, 4207.179, 0, 0, []
1630310532.2734, 50, 0, 4190.256, 4102.564, 4101.538, 4160, 4202.051, 0, 0, []
1630310532.2813, 51, 0, 4188.718, 4060, 4070.769, 4147.692, 4222.051, 0, 0, []
1630310532.2891, 52, 0, 4188.205, 4071.282, 4096.41, 4158.462, 4211.282, 0, 0, []
1630310532.297, 53, 0, 4182.564, 4110.769, 4096.923, 4156.41, 4178.462, 0, 0, []
1630310532.3047, 54, 0, 4183.077, 4115.385, 4064.615, 4145.128, 4185.128, 0, 0, []
1630310532.3126, 55, 0, 4190.256, 4093.333, 4109.231, 4156.923, 4218.974, 0, 0, []
1630310532.3204, 56, 0, 4200, 4089.744, 4075.385, 4171.282, 4224.615, 0, 0, []
1630310532.3283, 57, 0, 4209.231, 4108.205, 4086.667, 4170.256, 4205.641, 0, 0, []
1630310532.3361, 58, 0, 4201.026, 4105.641, 4104.103, 4154.872, 4204.103, 0, 0, []
1630310532.3439, 59, 0, 4187.692, 4071.282, 4075.897, 4144.103, 4209.744, 0, 0, []
1630310532.3517, 60, 0, 4197.436, 4068.205, 4123.077, 4161.538, 4202.564, 0, 0, []
1630310532.3596, 61, 0, 4211.282, 4115.897, 4106.667, 4177.436, 4199.487, 0, 0, []
1630310532.3674, 62, 0, 4204.103, 4116.41, 4107.692, 4171.795, 4211.282, 0, 0, []
1630310532.3753, 63, 0, 4195.385, 4086.667, 4108.718, 4165.641, 4215.897, 0, 0, []
1630310532.3831, 64, 0, 4207.692, 4116.41, 4074.359, 4175.897, 4203.59, 450, 0, []
1630310532.3909, 65, 0, 4215.385, 4142.051, 4126.667, 4186.667, 4191.795, 450, 0, []
1630310532.3987, 66, 0, 4203.59, 4123.077, 4101.026, 4170.256, 4192.821, 16194, 0, []
1630310532.4066, 67, 0, 4193.333, 4120, 4090.769, 4156.923, 4196.923, 450, 0, []
1630310532.4144, 68, 0, 4194.872, 4117.949, 4119.487, 4167.179, 4190.769, 16120, 0, []
1630310532.4222, 69, 0, 4200, 4091.282, 4085.128, 4169.231, 4182.564, 450, 0, []
1630310532.43, 70, 0, 4209.231, 4097.949, 4126.154, 4167.692, 4196.41, 189, 0, []
1630310532.4378, 71, 0, 4209.744, 4134.359, 4112.308, 4178.974, 4211.282, 450, 0, []
1630310532.4457, 72, 0, 4196.923, 4134.872, 4094.359, 4189.744, 4194.872, 450, 0, []
1630310532.4535, 73, 0, 4201.538, 4115.897, 4122.051, 4186.154, 4178.462, 16147, 0, []
1630310532.4614, 74, 0, 4212.821, 4120.513, 4087.179, 4168.205, 4192.308, 450, 0, []
1630310532.4691, 75, 0, 4204.615, 4140.513, 4117.436, 4158.974, 4210.769, 16205, 0, []
1630310532.477, 76, 0, 4203.077, 4149.231, 4100.513, 4167.692, 4204.103, 450, 0, []
1630310532.4849, 77, 0, 4219.487, 4146.154, 4084.103, 4176.41, 4193.846, 450, 0, []
1630310532.4928, 78, 0, 4220.513, 4139.487, 4126.667, 4172.308, 4202.564, 450, 0, []
1630310532.5007, 79, 0, 4201.026, 4112.821, 4078.462, 4162.564, 4202.051, 16205, 0, []
1630310532.5084, 80, 0, 4192.308, 4104.103, 4091.282, 4164.615, 4180.513, 450, 0, []
1630310532.5162, 81, 0, 4207.692, 4138.974, 4098.974, 4170.256, 4173.846, 450, 0, []
1630310532.5241, 82, 0, 4215.385, 4158.974, 4089.744, 4167.692, 4189.231, 450, 0, []
1630310532.5319, 83, 0, 4205.641, 4149.744, 4123.59, 4166.667, 4199.487, 16205, 0, []
1630310532.5398, 84, 0, 4211.795, 4149.231, 4085.128, 4174.872, 4203.077, 450, 0, []
1630310532.5475, 85, 0, 4236.41, 4152.308, 4126.667, 4195.385, 4206.154, 450, 0, []
1630310532.5553, 86, 0, 4240, 4139.487, 4140, 4204.103, 4210.769, 450, 0, []
1630310532.5632, 87, 0, 4229.744, 4123.077, 4088.718, 4196.41, 4217.949, 16205, 0, []
1630310532.5711, 88, 0, 4239.487, 4140.513, 4121.538, 4199.487, 4228.718, 450, 0, []
1630310532.5789, 89, 0, 4252.308, 4177.436, 4100.513, 4202.564, 4224.615, 450, 0, []
1630310532.5866, 90, 0, 4242.564, 4173.846, 4114.359, 4191.282, 4213.333, 450, 0, []
1630310532.5945, 91, 0, 4220.513, 4153.333, 4117.949, 4174.359, 4224.615, 16205, 0, []
1630310532.6023, 92, 0, 4206.154, 4154.359, 4081.026, 4167.179, 4234.872, 450, 0, []
1630310532.6102, 93, 0, 4212.821, 4145.128, 4123.077, 4184.103, 4218.462, 450, 0, []
1630310532.618, 94, 0, 4227.692, 4146.667, 4095.897, 4197.436, 4211.795, 450, 0, []
1630310532.6258, 95, 0, 4231.282, 4181.026, 4107.179, 4194.359, 4227.692, 16205, 0, []
1630310532.6336, 96, 0, 4234.872, 4164.615, 4130.769, 4196.41, 4238.462, 450, 0, []
1630310532.6415, 97, 0, 4249.231, 4123.077, 4087.179, 4203.59, 4236.41, 450, 0, []
1630310532.6493, 98, 0, 4253.846, 4146.667, 4123.077, 4203.077, 4228.718, 450, 0, []
1630310532.6572, 99, 0, 4238.462, 4162.051, 4098.462, 4181.026, 4218.462, 16205, 0, []
1630310532.6649, 100, 0, 4231.795, 4142.564, 4088.205, 4173.846, 4230.256, 450, 0, []
1630310532.6728, 101, 0, 4249.231, 4157.436, 4117.949, 4200, 4256.923, 450, 0, []
1630310532.6806, 102, 0, 4275.897, 4174.872, 4085.641, 4209.231, 4270.769, 450, 0, []
1630310532.6885, 103, 0, 4297.949, 4153.846, 4111.282, 4183.59, 4274.359, 16205, 0, []
1630310532.6963, 104, 0, 4324.615, 4156.41, 4084.103, 4161.538, 4291.795, 450, 0, []
1630310532.7042, 105, 0, 4373.846, 4174.359, 4084.103, 4174.359, 4338.974, 450, 0, []
1630310532.7119, 106, 0, 4411.282, 4160, 4130.256, 4191.795, 4392.821, 450, 0, []
1630310532.7198, 107, 0, 4403.59, 4155.385, 4091.282, 4194.359, 4406.667, 16205, 0, []
1630310532.7276, 108, 0, 4372.821, 4162.564, 4122.051, 4202.051, 4385.641, 450, 0, []
1630310532.7354, 109, 0, 4343.077, 4153.846, 4101.538, 4196.41, 4355.897, 450, 0, []
1630310532.7433, 110, 0, 4323.59, 4160.513, 4073.333, 4186.154, 4325.641, 450, 0, []
1630310532.751, 111, 0, 4325.128, 4175.385, 4123.077, 4203.077, 4310.769, 16205, 0, []
1630310532.7589, 112, 0, 4320.513, 4160, 4094.872, 4213.846, 4306.154, 450, 0, []
1630310532.7667, 113, 0, 4294.872, 4170.256, 4118.974, 4207.179, 4291.795, 450, 0, []
1630310532.7746, 114, 0, 4281.538, 4208.205, 4120.513, 4205.128, 4281.538, 450, 0, []
1630310532.7824, 115, 0, 4266.154, 4175.385, 4087.692, 4195.897, 4275.385, 16205, 0, []
1630310532.7902, 116, 0, 4245.641, 4129.231, 4111.282, 4185.641, 4262.564, 450, 0, []
1630310532.798, 117, 0, 4251.795, 4141.538, 4080.513, 4189.231, 4251.795, 450, 0, []
1630310532.8059, 118, 0, 4253.846, 4156.41, 4107.692, 4190.769, 4232.821, 450, 0, []
1630310532.8137, 119, 0, 4226.154, 4167.692, 4104.615, 4173.333, 4202.051, 16205, 0, []
1630310532.8216, 120, 0, 4205.128, 4175.897, 4067.692, 4160.513, 4194.359, 450, 0, []
1630310532.8293, 121, 0, 4211.282, 4159.487, 4117.949, 4172.308, 4215.897, 450, 0, []
1630310532.8372, 122, 0, 4228.205, 4158.974, 4096.923, 4183.077, 4226.154, 450, 0, []
1630310532.845, 123, 0, 4234.872, 4168.205, 4113.846, 4182.051, 4208.205, 16205, 0, []
1630310532.8529, 124, 0, 4226.154, 4153.846, 4134.872, 4173.333, 4190.769, 450, 0, []
1630310532.8607, 125, 0, 4216.923, 4154.872, 4102.051, 4168.205, 4194.872, 450, 0, []
1630310532.8685, 126, 0, 4210.769, 4157.436, 4133.333, 4177.436, 4206.154, 450, 0, []
1630310532.8763, 127, 0, 4198.462, 4127.692, 4095.897, 4176.923, 4191.795, 16205, 0, []
1630310532.8843, 128, 0, 4196.923, 4136.41, 4103.077, 4168.205, 4166.154, 450, 0, []
1630310532.8922, 0, 0, 4202.564, 4177.949, 4128.205, 4167.692, 4165.641, 450, 0, []
1630310532.9, 1, 0, 4190.769, 4176.923, 4083.59, 4169.231, 4178.974, 450, 0, []
1630310532.9078, 2, 0, 4178.462, 4169.744, 4112.821, 4172.821, 4180, 16184, 0, []
1630310532.9156, 3, 0, 4182.564, 4174.359, 4089.744, 4172.821, 4166.154, 450, 0, []
1630310532.9235, 4, 0, 4188.718, 4152.308, 4093.846, 4173.846, 4164.103, 16124, 0, []
1630310532.9313, 5, 0, 4184.615, 4140.513, 4123.59, 4175.897, 4183.077, 450, 0, []
1630310532.9392, 6, 0, 4185.128, 4152.308, 4078.974, 4172.308, 4189.744, 186, 0, []
1630310532.9469, 7, 0, 4195.897, 4153.333, 4115.385, 4174.872, 4166.667, 450, 0, []
1630310532.9548, 8, 0, 4206.154, 4161.538, 4104.615, 4178.974, 4159.487, 450, 0, []
1630310532.9626, 9, 0, 4209.231, 4174.359, 4098.974, 4174.872, 4181.026, 16141, 0, []
1630310532.9705, 10, 0, 4205.128, 4177.949, 4143.077, 4177.949, 4188.718, 450, 0, []
1630310532.9783, 11, 0, 4200.513, 4187.179, 4105.641, 4189.231, 4178.974, 16196, 0, []
1630310532.9861, 12, 0, 4195.897, 4174.359, 4122.051, 4190.256, 4169.744, 450, 0, []
1630310532.9939, 13, 0, 4193.846, 4145.641, 4099.487, 4169.231, 4162.564, 450, 0, []
1630310533.0018, 14, 0, 4181.026, 4157.949, 4077.436, 4156.41, 4152.308, 450, 0, []
1630310533.0096, 15, 0, 4168.205, 4174.872, 4112.821, 4172.308, 4146.154, 16196, 0, []
1630310533.0175, 16, 0, 4174.872, 4153.846, 4071.282, 4174.872, 4137.436, 0, 0, []
1630310533.0253, 17, 0, 4181.026, 4163.077, 4106.154, 4158.462, 4128.205, 0, 0, []
1630310533.0331, 18, 0, 4180, 4211.282, 4114.359, 4156.923, 4144.103, 0, 0, []
1630310533.0409, 19, 0, 4182.564, 4201.538, 4084.103, 4173.333, 4161.026, 0, 0, []
1630310533.0488, 20, 0, 4183.077, 4155.897, 4114.872, 4177.949, 4145.128, 0, 0, []
1630310533.0566, 21, 0, 4168.718, 4176.41, 4076.923, 4155.897, 4122.051, 0, 0, []
1630310533.0646, 22, 0, 4160.513, 4215.897, 4102.564, 4156.923, 4139.487, 0, 0, []
1630310533.0724, 23, 0, 4184.103, 4181.538, 4116.923, 4185.128, 4167.692, 0, 0, []
1630310533.0802, 24, 0, 4199.487, 4151.795, 4080, 4185.641, 4149.744, 0, 0, []
1630310533.0881, 25, 0, 4182.564, 4185.128, 4117.436, 4160.513, 4123.077, 0, 0, []
1630310533.0959, 26, 0, 4167.179, 4176.923, 4092.821, 4150.769, 4135.897, 0, 0, []
1630310533.1038, 27, 0, 4181.538, 4141.026, 4103.077, 4173.846, 4153.846, 0, 0, []
1630310533.1115, 28, 0, 4203.077, 4184.103, 4114.359, 4189.231, 4144.615, 0, 0, []
1630310533.1194, 29, 0, 4195.385, 4219.487, 4078.462, 4165.641, 4131.282, 0, 0, []
1630310533.1272, 30, 0, 4180.513, 4165.641, 4109.744, 4160, 4140, 0, 0, []
1630310533.1351, 31, 0, 4189.231, 4149.744, 4078.462, 4183.59, 4150.256, 0, 0, []
1630310533.1429, 32, 0, 4199.487, 4200, 4100, 4186.154, 4144.103, 0, 0, []
1630310533.1507, 33, 0, 4194.359, 4194.359, 4130.769, 4171.282, 4149.744, 0, 0, []
1630310533.1585, 34, 0, 4185.128, 4143.077, 4066.154, 4163.077, 4161.026, 0, 0, []
1630310533.1664, 35, 0, 4193.333, 4149.744, 4090.256, 4164.615, 4150.256, 0, 0, []
1630310533.1742, 36, 0, 4207.692, 4194.359, 4093.333, 4168.718, 4142.564, 0, 0, []
1630310533.1821, 37, 0, 4202.564, 4206.667, 4107.692, 4174.872, 4156.41, 0, 0, []
1630310533.1898, 38, 0, 4187.692, 4190.256, 4118.974, 4173.846, 4163.59, 0, 0, []
1630310533.1977, 39, 0, 4197.436, 4177.949, 4067.179, 4171.795, 4157.436, 0, 0, []
1630310533.2055, 40, 0, 4205.641, 4186.667, 4109.744, 4171.795, 4148.205, 0, 0, []
1630310533.2135, 41, 0, 4189.744, 4193.846, 4097.949, 4158.974, 4143.077, 0, 0, []
1630310533.2214, 42, 0, 4196.41, 4190.769, 4095.897, 4168.718, 4156.41, 0, 0, []
1630310533.2293, 43, 0, 4223.077, 4189.231, 4142.051, 4192.308, 4167.692, 0, 0, []
1630310533.2372, 44, 0, 4221.026, 4182.564, 4098.974, 4185.128, 4154.872, 0, 0, []
1630310533.2452, 45, 0, 4202.051, 4171.795, 4117.949, 4175.897, 4154.359, 0, 0, []
1630310533.2531, 46, 0, 4186.154, 4169.231, 4098.974, 4173.333, 4160.513, 0, 0, []
1630310533.2609, 47, 0, 4183.59, 4190.769, 4071.795, 4166.154, 4142.564, 0, 0, []
1630310533.2687, 48, 0, 4184.615, 4205.128, 4113.846, 4160.513, 4125.128, 0, 0, []
1630310533.2765, 49, 0, 4172.308, 4185.128, 4079.487, 4148.718, 4130.769, 0, 0, []
1630310533.2844, 50, 0, 4170.256, 4160, 4100.513, 4152.821, 4142.051, 0, 0, []
1630310533.2922, 51, 0, 4188.718, 4154.872, 4101.026, 4169.231, 4141.538, 0, 0, []
1630310533.3001, 52, 0, 4193.846, 4171.282, 4077.436, 4165.641, 4133.333, 0, 0, []
1630310533.3078, 53, 0, 4176.41, 4191.282, 4118.462, 4154.359, 4132.821, 0, 0, []
1630310533.3157, 54, 0, 4171.282, 4180.513, 4090.769, 4153.846, 4141.538, 0, 0, []
1630310533.3235, 55, 0, 4195.897, 4167.692, 4122.564, 4172.821, 4155.385, 0, 0, []
1630310533.3314, 56, 0, 4209.744, 4195.385, 4135.897, 4184.615, 4153.333, 0, 0, []
1630310533.3392, 57, 0, 4180.513, 4201.026, 4092.821, 4163.59, 4137.436, 0, 0, []
1630310533.3471, 58, 0, 4164.615, 4170.256, 4125.128, 4151.795, 4141.026, 0, 0, []
1630310533.3548, 59, 0, 4188.718, 4183.077, 4097.949, 4168.205, 4156.41, 0, 0, []
1630310533.3627, 60, 0, 4196.41, 4223.077, 4104.103, 4171.282, 4152.308, 0, 0, []
1630310533.3705, 61, 0, 4186.667, 4226.667, 4107.179, 4161.026, 4151.282, 0, 0, []
1630310533.3784, 62, 0, 4194.359, 4196.923, 4082.564, 4174.359, 4166.667, 0, 0, []
1630310533.3862, 63, 0, 4211.282, 4175.897, 4129.231, 4193.333, 4171.282, 0, 0, []
1630310533.3941, 64, 0, 4218.462, 4188.205, 4097.436, 4183.59, 4168.205, 450, 0, []
1630310533.402, 65, 0, 4205.641, 4199.487, 4102.051, 4167.692, 4169.231, 450, 0, []
1630310533.41, 66, 0, 4190.769, 4182.051, 4113.846, 4167.179, 4176.41, 16185, 0, []
1630310533.4179, 67, 0, 4207.692, 4177.436, 4076.923, 4173.846, 4188.205, 450, 0, []
1630310533.4257, 68, 0, 4231.795, 4195.385, 4118.974, 4181.538, 4186.154, 16119, 0, []
1630310533.4335, 69, 0, 4224.103, 4200.513, 4099.487, 4170.256, 4175.897, 450, 0, []
1630310533.4413, 70, 0, 4212.308, 4190.256, 4097.436, 4159.487, 4184.615, 187, 0, []
1630310533.4492, 71, 0, 4225.128, 4195.385, 4107.179, 4176.923, 4209.231, 450, 0, []
1630310533.457, 72, 0, 4268.205, 4214.359, 4092.308, 4193.846, 4238.974, 450, 0, []
1630310533.4649, 73, 0, 4332.821, 4203.077, 4144.615, 4189.231, 4277.949, 16142, 0, []
1630310533.4726, 74, 0, 4375.897, 4176.923, 4104.615, 4172.821, 4311.282, 450, 0, []
1630310533.4805, 75, 0, 4377.949, 4193.333, 4102.564, 4167.692, 4330.256, 16125, 0, []
1630310533.4884, 76, 0, 4387.692, 4208.718, 4144.103, 4176.41, 4359.487, 450, 0, []
1630310533.4964, 77, 0, 4404.615, 4184.103, 4100, 4174.872, 4381.026, 450, 0, []
1630310533.5042, 78, 0, 4388.718, 4187.692, 4116.41, 4166.154, 4371.282, 450, 0, []
1630310533.5121, 79, 0, 4368.718, 4207.692, 4100.513, 4170.769, 4367.179, 16125, 0, []
1630310533.52, 80, 0, 4370.256, 4186.154, 4097.436, 4188.205, 4374.359, 450, 0, []
1630310533.528, 81, 0, 4366.667, 4190.769, 4122.051, 4190.256, 4357.949, 450, 0, []
1630310533.5359, 82, 0, 4348.205, 4220.513, 4080, 4176.923, 4322.051, 450, 0, []
1630310533.5439, 83, 0, 4327.179, 4197.949, 4115.897, 4175.385, 4297.436, 16125, 0, []
1630310533.5517, 84, 0, 4313.333, 4193.333, 4114.359, 4180.513, 4293.333, 450, 0, []
1630310533.5597, 85, 0, 4309.231, 4232.821, 4092.821, 4182.564, 4291.795, 450, 0, []
1630310533.5676, 86, 0, 4297.436, 4222.564, 4141.538, 4180.513, 4285.128, 450, 0, []
1630310533.5754, 87, 0, 4269.231, 4190.769, 4102.564, 4174.359, 4279.487, 16125, 0, []
1630310533.5833, 88, 0, 4240, 4201.538, 4096.41, 4167.692, 4259.487, 450, 0, []
1630310533.591, 89, 0, 4230.256, 4209.744, 4102.051, 4152.821, 4222.051, 450, 0, []
1630310533.5989, 90, 0, 4241.026, 4194.359, 4089.231, 4157.436, 4221.026, 450, 0, []
1630310533.6067, 91, 0, 4246.667, 4194.359, 4134.872, 4190.256, 4250.769, 16125, 0, []
1630310533.6146, 92, 0, 4226.667, 4202.564, 4100, 4194.359, 4243.077, 450, 0, []
1630310533.6224, 93, 0, 4212.308, 4210.769, 4092.821, 4181.026, 4217.436, 450, 0, []
1630310533.6302, 94, 0, 4221.026, 4222.051, 4106.667, 4184.615, 4210.256, 450, 0, []
1630310533.638, 95, 0, 4216.41, 4217.436, 4080.513, 4173.333, 4199.487, 16125, 0, []
1630310533.6459, 96, 0, 4198.462, 4199.487, 4112.308, 4152.308, 4187.692, 450, 0, []
1630310533.6537, 97, 0, 4194.872, 4205.641, 4088.718, 4151.282, 4183.59, 450, 0, []
1630310533.6617, 98, 0, 4205.641, 4234.872, 4103.077, 4166.667, 4171.282, 450, 0, []
1630310533.6696, 99, 0, 4210.769, 4230.256, 4139.487, 4178.974, 4166.667, 16125, 0, []
1630310533.6775, 100, 0, 4190.256, 4196.41, 4098.974, 4168.718, 4170.769, 450, 0, []
1630310533.6854, 101, 0, 4161.538, 4187.692, 4105.128, 4156.923, 4153.333, 450, 0, []
1630310533.6934, 102, 0, 4161.538, 4209.231, 4078.462, 4162.564, 4135.385, 450, 0, []
1630310533.7013, 103, 0, 4173.846, 4221.538, 4094.359, 4172.308, 4141.538, 16125, 0, []
1630310533.7093, 104, 0, 4169.744, 4212.821, 4133.333, 4175.897, 4159.487, 450, 0, []
1630310533.7171, 105, 0, 4168.718, 4208.718, 4083.59, 4170.256, 4167.692, 450, 0, []
1630310533.7251, 106, 0, 4177.436, 4212.821, 4105.128, 4161.026, 4156.41, 450, 0, []
1630310533.733, 107, 0, 4176.923, 4215.385, 4097.436, 4146.667, 4140, 16125, 0, []
1630310533.7408, 108, 0, 4166.154, 4207.692, 4085.128, 4144.615, 4143.59, 450, 0, []
1630310533.7488, 109, 0, 4158.462, 4187.179, 4114.359, 4162.564, 4160, 450, 0, []
1630310533.7566, 110, 0, 4157.436, 4182.051, 4083.077, 4176.923, 4153.846, 450, 0, []
1630310533.7645, 111, 0, 4164.103, 4205.641, 4114.359, 4183.59, 4137.949, 16125, 0, []
1630310533.7723, 112, 0, 4170.256, 4215.897, 4106.154, 4174.359, 4150.769, 450, 0, []
1630310533.7802, 113, 0, 4170.769, 4186.154, 4081.538, 4165.641, 4173.846, 450, 0, []
1630310533.788, 114, 0, 4172.308, 4173.846, 4113.846, 4170.256, 4168.205, 450, 0, []
1630310533.7958, 115, 0, 4157.436, 4195.385, 4070.256, 4149.231, 4130.256, 16125, 0, []
1630310533.8036, 116, 0, 4126.667, 4202.051, 4086.667, 4118.974, 4102.051, 450, 0, []
1630310533.8115, 117, 0, 4128.205, 4191.282, 4100.513, 4134.872, 4109.744, 450, 0, []
1630310533.8193, 118, 0, 4166.154, 4183.077, 4079.487, 4184.615, 4131.795, 450, 0, []
1630310533.8272, 119, 0, 4192.821, 4192.821, 4126.667, 4211.282, 4146.667, 16125, 0, []
1630310533.8349, 120, 0, 4184.615, 4194.872, 4102.051, 4203.59, 4151.795, 450, 0, []
1630310533.8429, 121, 0, 4168.718, 4178.974, 4102.051, 4194.359, 4146.154, 450, 0, []
1630310533.8508, 122, 0, 4169.231, 4195.897, 4112.821, 4188.205, 4130.769, 450, 0, []
1630310533.8588, 123, 0, 4172.308, 4220, 4084.615, 4168.718, 4118.462, 16125, 0, []
1630310533.8667, 124, 0, 4165.641, 4186.154, 4108.718, 4154.872, 4119.487, 450, 0, []
1630310533.8746, 125, 0, 4160, 4160.513, 4077.949, 4161.538, 4126.154, 450, 0, []
1630310533.8825, 126, 0, 4165.128, 4197.436, 4092.308, 4180.513, 4123.077, 450, 0, []
1630310533.8903, 127, 0, 4173.333, 4204.615, 4117.436, 4189.744, 4116.923, 16125, 0, []
1630310533.8982, 128, 0, 4166.667, 4171.282, 4091.795, 4181.026, 4127.179, 450, 0, []
1630310533.906, 0, 0, 4153.333, 4189.231, 4123.59, 4177.949, 4140, 450, 0, []
1630310533.9138, 1, 0, 4151.282, 4212.821, 4096.41, 4184.615, 4130.769, 450, 0, []
1630310533.9216, 2, 0, 4156.41, 4191.795, 4102.051, 4185.641, 4115.385, 16188, 0, []
1630310533.9295, 3, 0, 4158.462, 4203.077, 4117.949, 4173.846, 4121.538, 450, 0, []
1630310533.9373, 4, 0, 4153.846, 4225.128, 4075.385, 4163.59, 4135.897, 16119, 0, []
1630310533.9452, 5, 0, 4151.282, 4192.308, 4105.641, 4172.308, 4135.897, 450, 0, []
1630310533.9529, 6, 0, 4163.59, 4187.179, 4087.692, 4185.128, 4132.308, 189, 0, []
1630310533.9608, 7, 0, 4175.385, 4223.59, 4095.897, 4191.282, 4134.359, 450, 0, []
1630310533.9686, 8, 0, 4167.179, 4205.641, 4125.641, 4189.744, 4148.205, 450, 0, []
1630310533.9765, 9, 0, 4161.538, 4178.462, 4075.897, 4187.692, 4156.923, 16140, 0, []
1630310533.9843, 10, 0, 4169.231, 4209.231, 4105.128, 4190.256, 4142.051, 450, 0, []
1630310533.9922, 11, 0, 4166.154, 4221.026, 4102.564, 4176.41, 4129.744, 16181, 0, []
1630310534.0001, 12, 0, 4143.077, 4187.692, 4090.256, 4163.59, 4130.769, 450, 0, []
1630310534.0081, 13, 0, 4129.744, 4186.667, 4114.359, 4173.846, 4118.462, 450, 0, []
1630310534.016, 14, 0, 4141.538, 4212.308, 4075.897, 4175.385, 4097.949, 450, 0, []
1630310534.024, 15, 0, 4155.385, 4215.897, 4103.59, 4161.538, 4102.564, 16181, 0, []
1630310534.0319, 16, 0, 4149.744, 4200, 4092.821, 4156.41, 4116.923, 0, 0, []
1630310534.0398, 17, 0, 4144.615, 4180, 4070.256, 4168.718, 4115.897, 0, 0, []
1630310534.0477, 18, 0, 4157.436, 4180.513, 4123.59, 4177.436, 4115.897, 0, 0, []
1630310534.0555, 19, 0, 4153.846, 4203.59, 4091.795, 4159.487, 4117.436, 0, 0, []
1630310534.0634, 20, 0, 4128.718, 4206.154, 4093.846, 4150.769, 4107.692, 0, 0, []
1630310534.0712, 21, 0, 4123.077, 4179.487, 4089.744, 4162.564, 4087.692, 0, 0, []
1630310534.079, 22, 0, 4142.051, 4187.692, 4063.077, 4166.667, 4092.821, 0, 0, []
1630310534.0868, 23, 0, 4157.949, 4222.564, 4117.949, 4168.205, 4126.154, 0, 0, []
1630310534.0947, 24, 0, 4152.308, 4211.282, 4087.692, 4171.795, 4129.744, 0, 0, []
1630310534.1025, 25, 0, 4132.821, 4177.949, 4084.103, 4163.59, 4088.205, 0, 0, []
1630310534.1104, 26, 0, 4128.718, 4176.923, 4104.103, 4147.179, 4068.205, 0, 0, []
1630310534.1181, 27, 0, 4143.59, 4202.051, 4070.769, 4152.821, 4102.564, 0, 0, []
1630310534.126, 28, 0, 4152.821, 4202.564, 4118.462, 4179.487, 4129.744, 0, 0, []
1630310534.1338, 29, 0, 4159.487, 4177.436, 4098.974, 4184.615, 4117.436, 0, 0, []
1630310534.1418, 30, 0, 4164.103, 4174.359, 4081.026, 4167.179, 4106.667, 0, 0, []
1630310534.1497, 31, 0, 4146.154, 4184.103, 4101.026, 4156.923, 4112.308, 0, 0, []
1630310534.1576, 32, 0, 4130.256, 4178.462, 4070.256, 4160.513, 4109.744, 0, 0, []
1630310534.1655, 33, 0, 4147.179, 4188.205, 4102.051, 4169.744, 4100.513, 0, 0, []
1630310534.1735, 34, 0, 4169.231, 4213.846, 4086.667, 4167.692, 4112.308, 0, 0, []
1630310534.1814, 35, 0, 4164.615, 4208.718, 4085.641, 4165.128, 4132.308, 0, 0, []
1630310534.1894, 36, 0, 4151.282, 4211.795, 4104.615, 4176.923, 4129.231, 0, 0, []
1630310534.1972, 37, 0, 4156.923, 4240, 4064.103, 4184.103, 4112.308, 0, 0, []
1630310534.205, 38, 0, 4173.333, 4223.077, 4118.462, 4176.923, 4114.872, 0, 0, []
1630310534.2129, 39, 0, 4168.718, 4187.179, 4116.923, 4165.641, 4130.769, 0, 0, []
1630310534.2207, 40, 0, 4163.59, 4188.205, 4095.385, 4176.923, 4133.846, 0, 0, []
1630310534.2286, 41, 0, 4178.974, 4210.256, 4116.923, 4190.769, 4126.667, 0, 0, []
1630310534.2363, 42, 0, 4169.744, 4214.872, 4076.923, 4165.641, 4116.923, 0, 0, []
1630310534.2442, 43, 0, 4144.103, 4199.487, 4102.051, 4154.359, 4121.026, 0, 0, []
1630310534.252, 44, 0, 4148.718, 4202.051, 4090.769, 4176.923, 4129.744, 0, 0, []
1630310534.2599, 45, 0, 4153.846, 4216.41, 4078.462, 4173.846, 4106.667, 0, 0, []
1630310534.2677, 46, 0, 4136.923, 4199.487, 4114.872, 4145.641, 4088.205, 0, 0, []
1630310534.2756, 47, 0, 4135.385, 4178.974, 4077.949, 4150.769, 4110.769, 0, 0, []
1630310534.2835, 48, 0, 4153.333, 4202.051, 4104.103, 4180.513, 4125.128, 0, 0, []
1630310534.2914, 49, 0, 4157.436, 4229.231, 4099.487, 4180.513, 4110.256, 0, 0, []
1630310534.2992, 50, 0, 4142.051, 4217.949, 4070.769, 4161.538, 4111.795, 0, 0, []
1630310534.3072, 51, 0, 4125.641, 4197.949, 4097.436, 4161.538, 4127.179, 0, 0, []
1630310534.315, 52, 0, 4129.744, 4186.154, 4063.077, 4167.692, 4123.59, 0, 0, []
1630310534.323, 53, 0, 4142.051, 4187.179, 4095.897, 4166.154, 4114.872, 0, 0, []
1630310534.3309, 54, 0, 4141.538, 4202.564, 4096.41, 4160, 4125.128, 0, 0, []
1630310534.3389, 55, 0, 4145.641, 4203.077, 4061.026, 4165.641, 4138.462, 0, 0, []
1630310534.3468, 56, 0, 4151.795, 4185.641, 4111.282, 4173.333, 4125.128, 0, 0, []
1630310534.3548, 57, 0, 4136.41, 4184.103, 4087.179, 4152.821, 4106.154, 0, 0, []
1630310534.3626, 58, 0, 4131.282, 4208.205, 4103.59, 4143.59, 4123.59, 0, 0, []
1630310534.3704, 59, 0, 4160, 4225.128, 4120, 4172.821, 4151.282, 0, 0, []
1630310534.3783, 60, 0, 4171.795, 4226.667, 4092.821, 4183.59, 4149.744, 0, 0, []
1630310534.3861, 61, 0, 4159.487, 4224.615, 4135.897, 4171.282, 4150.256, 0, 0, []
1630310534.394, 62, 0, 4160.513, 4203.077, 4101.538, 4171.282, 4161.026, 0, 0, []
1630310534.4017, 63, 0, 4161.026, 4196.41, 4094.872, 4178.462, 4145.641, 0, 0, []
1630310534.4096, 64, 0, 4154.359, 4223.077, 4114.872, 4172.821, 4121.026, 450, 0, []
1630310534.4174, 65, 0, 4162.564, 4217.436, 4097.949, 4166.667, 4125.641, 450, 0, []
1630310534.4253, 66, 0, 4167.692, 4186.154, 4134.872, 4171.282, 4140, 16188, 0, []
1630310534.4331, 67, 0, 4155.897, 4202.564, 4093.333, 4169.231, 4129.744, 450, 0, []
1630310534.441, 68, 0, 4156.41, 4220.513, 4101.538, 4164.615, 4112.821, 16118, 0, []
1630310534.4489, 69, 0, 4175.385, 4200, 4142.051, 4164.103, 4127.692, 450, 0, []
1630310534.4569, 70, 0, 4184.103, 4194.359, 4095.385, 4167.179, 4164.615, 189, 0, []
1630310534.4648, 71, 0, 4190.769, 4197.949, 4124.615, 4182.564, 4178.974, 450, 0, []
1630310534.4727, 72, 0, 4190.769, 4198.974, 4100.513, 4178.462, 4155.385, 450, 0, []
1630310534.4805, 73, 0, 4171.282, 4215.897, 4075.897, 4154.359, 4134.359, 16140, 0, []
1630310534.4884, 74, 0, 4151.282, 4211.795, 4103.077, 4150.769, 4140.513, 450, 0, []
1630310534.4963, 75, 0, 4148.205, 4178.462, 4074.872, 4163.077, 4136.923, 16203, 0, []
1630310534.5042, 76, 0, 4155.897, 4185.128, 4123.077, 4168.205, 4118.974, 450, 0, []
1630310534.512, 77, 0, 4157.949, 4212.308, 4118.462, 4157.949, 4125.641, 450, 0, []
1630310534.5199, 78, 0, 4144.615, 4180, 4085.641, 4151.282, 4136.923, 450, 0, []
1630310534.5278, 79, 0, 4136.41, 4151.282, 4108.205, 4161.538, 4121.538, 16203, 0, []
1630310534.5356, 80, 0, 4156.41, 4194.359, 4085.641, 4172.308, 4116.923, 450, 0, []
1630310534.5435, 81, 0, 4180, 4224.103, 4131.795, 4180, 4142.051, 450, 0, []
1630310534.5513, 82, 0, 4176.41, 4185.641, 4121.026, 4176.41, 4150.769, 450, 0, []
1630310534.5591, 83, 0, 4159.487, 4160.513, 4077.949, 4158.462, 4120, 16203, 0, []
1630310534.5669, 84, 0, 4153.846, 4195.385, 4107.692, 4146.154, 4094.872, 450, 0, []
1630310534.5748, 85, 0, 4156.41, 4213.333, 4077.436, 4145.641, 4106.154, 450, 0, []
1630310534.5826, 86, 0, 4153.846, 4180.513, 4103.59, 4153.333, 4119.487, 450, 0, []
1630310534.5906, 87, 0, 4156.41, 4170.769, 4106.667, 4164.103, 4112.308, 16203, 0, []
1630310534.5984, 88, 0, 4162.051, 4200, 4081.538, 4165.641, 4111.795, 450, 0, []
1630310534.6064, 89, 0, 4155.897, 4204.615, 4128.205, 4154.359, 4125.128, 450, 0, []
1630310534.6143, 90, 0, 4152.821, 4178.974, 4090.769, 4143.59, 4126.154, 450, 0, []
1630310534.6223, 91, 0, 4167.692, 4184.615, 4101.026, 4149.744, 4118.462, 16203, 0, []
1630310534.6302, 92, 0, 4177.949, 4201.026, 4123.59, 4158.974, 4119.487, 450, 0, []
1630310534.6381, 93, 0, 4172.821, 4200, 4090.769, 4161.538, 4131.282, 450, 0, []
1630310534.646, 94, 0, 4169.744, 4200.513, 4118.974, 4169.231, 4139.487, 450, 0, []
1630310534.654, 95, 0, 4171.795, 4192.821, 4096.923, 4168.205, 4128.205, 16203, 0, []
1630310534.6619, 96, 0, 4169.744, 4185.641, 4116.41, 4157.949, 4112.821, 450, 0, []
1630310534.6699, 97, 0, 4155.897, 4181.026, 4127.692, 4140.513, 4112.308, 450, 0, []
1630310534.6777, 98, 0, 4144.103, 4178.462, 4074.872, 4127.179, 4110.256, 450, 0, []
1630310534.6855, 99, 0, 4156.923, 4185.641, 4114.359, 4136.923, 4098.974, 16203, 0, []
1630310534.6934, 100, 0, 4174.872, 4206.667, 4102.051, 4150.256, 4107.179, 450, 0, []
1630310534.7012, 101, 0, 4168.718, 4208.205, 4105.641, 4158.974, 4129.744, 450, 0, []
1630310534.7091, 102, 0, 4155.385, 4189.231, 4123.59, 4164.103, 4135.897, 450, 0, []
1630310534.7169, 103, 0, 4152.308, 4187.692, 4071.282, 4153.333, 4121.026, 16203, 0, []
1630310534.7247, 104, 0, 4151.795, 4191.282, 4109.231, 4142.051, 4118.462, 450, 0, []
1630310534.7325, 105, 0, 4152.821, 4194.359, 4104.615, 4141.026, 4135.897, 450, 0, []
1630310534.7404, 106, 0, 4165.128, 4196.41, 4098.462, 4156.923, 4141.538, 450, 0, []
1630310534.7482, 107, 0, 4172.821, 4207.692, 4124.103, 4174.872, 4131.795, 16203, 0, []
1630310534.7561, 108, 0, 4152.821, 4214.359, 4075.385, 4158.974, 4121.026, 450, 0, []
1630310534.7638, 109, 0, 4138.462, 4199.487, 4104.103, 4148.718, 4123.077, 450, 0, []
1630310534.7718, 110, 0, 4161.538, 4187.692, 4101.026, 4174.872, 4137.436, 450, 0, []
1630310534.7797, 111, 0, 4176.41, 4179.487, 4094.872, 4187.179, 4137.436, 16203, 0, []
1630310534.7877, 112, 0, 4160.513, 4170.256, 4130.256, 4166.667, 4130.769, 450, 0, []
1630310534.7956, 113, 0, 4149.744, 4172.821, 4078.462, 4160.513, 4136.41, 450, 0, []
1630310534.8035, 114, 0, 4148.718, 4197.436, 4093.846, 4178.974, 4130.256, 450, 0, []
1630310534.8114, 115, 0, 4149.231, 4215.385, 4092.308, 4174.359, 4112.308, 16203, 0, []
1630310534.8194, 116, 0, 4154.872, 4206.154, 4072.821, 4154.872, 4122.564, 450, 0, []
1630310534.8273, 117, 0, 4156.41, 4190.256, 4107.692, 4157.436, 4144.615, 450, 0, []
1630310534.8352, 118, 0, 4158.974, 4181.538, 4067.692, 4167.692, 4141.026, 450, 0, []
1630310534.843, 119, 0, 4165.641, 4189.231, 4092.308, 4168.205, 4131.282, 16203, 0, []
1630310534.8508, 120, 0, 4158.462, 4203.59, 4105.128, 4149.744, 4133.846, 450, 0, []
1630310534.8587, 121, 0, 4147.692, 4204.615, 4080, 4142.564, 4134.872, 450, 0, []
1630310534.8665, 122, 0, 4160, 4197.949, 4117.949, 4167.179, 4129.231, 450, 0, []
1630310534.8744, 123, 0, 4168.205, 4195.897, 4073.333, 4181.538, 4126.154, 16203, 0, []
1630310534.8821, 124, 0, 4153.846, 4200.513, 4079.487, 4171.282, 4134.359, 450, 0, []
1630310534.89, 125, 0, 4154.359, 4215.897, 4102.564, 4166.154, 4150.769, 450, 0, []
1630310534.8978, 126, 0, 4173.333, 4221.538, 4078.462, 4173.333, 4156.41, 450, 0, []
1630310534.9058, 127, 0, 4175.385, 4206.154, 4114.359, 4168.205, 4142.564, 16203, 0, []
1630310534.9137, 128, 0, 4163.077, 4212.308, 4082.564, 4149.744, 4142.051, 450, 0, []
1630310534.9216, 0, 0, 4166.667, 4232.308, 4092.308, 4156.41, 4155.897, 450, 0, []
1630310534.9295, 1, 0, 4171.795, 4223.59, 4106.667, 4166.154, 4137.436, 450, 0, []
1630310534.9375, 2, 0, 4149.231, 4198.462, 4059.487, 4141.026, 4102.051, 16189, 0, []
1630310534.9454, 3, 0, 4134.872, 4179.487, 4107.692, 4129.231, 4113.846, 450, 0, []
1630310534.9534, 4, 0, 4157.949, 4188.718, 4101.538, 4155.897, 4145.128, 16117, 0, []
1630310534.9612, 5, 0, 4179.487, 4220.513, 4098.974, 4170.256, 4141.026, 450, 0, []
1630310534.9692, 6, 0, 4165.128, 4220.513, 4120, 4151.795, 4128.205, 188, 0, []
1630310534.9771, 7, 0, 4149.744, 4189.231, 4082.564, 4141.538, 4126.667, 450, 0, []
1630310534.9851, 8, 0, 4143.59, 4190.769, 4111.795, 4153.846, 4112.821, 450, 0, []
1630310534.993, 9, 0, 4124.615, 4209.231, 4081.538, 4144.103, 4092.308, 16140, 0, []
1630310535.0007, 10, 0, 4115.897, 4194.359, 4070.769, 4129.744, 4094.872, 450, 0, []
1630310535.0086, 11, 0, 4141.026, 4192.821, 4113.333, 4146.667, 4118.974, 16207, 0, []
1630310535.0164, 12, 0, 4161.538, 4212.308, 4081.026, 4155.897, 4126.667, 450, 0, []
1630310535.0243, 13, 0, 4155.385, 4205.128, 4116.923, 4145.128, 4122.564, 450, 0, []
1630310535.0321, 14, 0, 4150.769, 4183.077, 4103.077, 4147.692, 4128.205, 450, 0, []
1630310535.0399, 15, 0, 4154.872, 4178.974, 4071.282, 4156.41, 4124.103, 16207, 0, []
1630310535.0477, 16, 0, 4156.923, 4192.821, 4112.821, 4143.077, 4118.462, 0, 0, []
1630310535.0557, 17, 0, 4148.205, 4187.692, 4087.692, 4132.821, 4128.205, 0, 0, []
1630310535.0636, 18, 0, 4142.051, 4172.308, 4105.641, 4151.282, 4132.308, 0, 0, []
1630310535.0716, 19, 0, 4148.718, 4197.949, 4097.436, 4159.487, 4117.436, 0, 0, []
1630310535.0795, 20, 0, 4149.231, 4226.154, 4078.462, 4141.538, 4114.872, 0, 0, []
1630310535.0874, 21, 0, 4143.077, 4191.795, 4112.821, 4137.949, 4127.179, 0, 0, []
1630310535.0953, 22, 0, 4148.718, 4166.154, 4070.769, 4151.282, 4125.128, 0, 0, []
1630310535.1033, 23, 0, 4157.436, 4202.051, 4104.615, 4158.974, 4115.385, 0, 0, []
1630310535.1112, 24, 0, 4150.769, 4213.846, 4120.513, 4154.872, 4120.513, 0, 0, []
1630310535.1192, 25, 0, 4146.154, 4179.487, 4073.846, 4153.846, 4131.282, 0, 0, []
1630310535.127, 26, 0, 4163.077, 4178.462, 4102.051, 4169.231, 4129.231, 0, 0, []
1630310535.135, 27, 0, 4178.974, 4210.256, 4079.487, 4171.282, 4127.692, 0, 0, []
1630310535.1429, 28, 0, 4160, 4204.615, 4095.897, 4157.436, 4125.128, 0, 0, []
1630310535.1507, 29, 0, 4139.487, 4186.154, 4098.974, 4159.487, 4115.385, 0, 0, []
1630310535.1586, 30, 0, 4154.359, 4204.615, 4066.667, 4170.256, 4112.308, 0, 0, []
1630310535.1663, 31, 0, 4166.154, 4213.333, 4123.59, 4172.308, 4124.615, 0, 0, []
1630310535.1742, 32, 0, 4153.333, 4174.872, 4099.487, 4164.615, 4135.385, 0, 0, []
1630310535.182, 33, 0, 4145.641, 4167.692, 4094.359, 4158.462, 4125.641, 0, 0, []
1630310535.1899, 34, 0, 4149.744, 4202.051, 4111.795, 4156.923, 4116.923, 0, 0, []
1630310535.1977, 35, 0, 4145.128, 4197.949, 4073.333, 4158.974, 4121.538, 0, 0, []
1630310535.2055, 36, 0, 4143.59, 4181.538, 4113.333, 4162.051, 4126.667, 0, 0, []
1630310535.2133, 37, 0, 4151.282, 4186.154, 4096.923, 4151.795, 4121.026, 0, 0, []
1630310535.2212, 38, 0, 4151.795, 4190.769, 4086.667, 4140, 4119.487, 0, 0, []
1630310535.229, 39, 0, 4140, 4189.231, 4105.641, 4144.103, 4124.615, 0, 0, []
1630310535.237, 40, 0, 4134.872, 4186.154, 4071.795, 4151.795, 4116.41, 0, 0, []
1630310535.2448, 41, 0, 4147.179, 4190.769, 4120, 4157.949, 4113.333, 0, 0, []
1630310535.2528, 42, 0, 4155.897, 4197.949, 4111.795, 4161.026, 4133.333, 0, 0, []
1630310535.2607, 43, 0, 4159.487, 4175.897, 4088.718, 4164.103, 4141.538, 0, 0, []
1630310535.2687, 44, 0, 4159.487, 4146.154, 4102.051, 4154.872, 4118.462, 0, 0, []
1630310535.2766, 45, 0, 4152.308, 4168.205, 4060.513, 4132.308, 4104.103, 0, 0, []
1630310535.2845, 46, 0, 4155.897, 4190.256, 4104.103, 4137.949, 4125.128, 0, 0, []
1630310535.2924, 47, 0, 4172.308, 4166.154, 4097.949, 4157.436, 4140, 0, 0, []
1630310535.3002, 48, 0, 4175.385, 4148.718, 4073.846, 4147.692, 4130.256, 0, 0, []
1630310535.3081, 49, 0, 4153.333, 4152.821, 4118.462, 4135.897, 4132.821, 0, 0, []
1630310535.316, 50, 0, 4136.923, 4141.026, 4080, 4136.41, 4136.923, 0, 0, []
1630310535.3238, 51, 0, 4138.974, 4124.615, 4094.872, 4133.333, 4122.051, 0, 0, []
1630310535.3316, 52, 0, 4145.128, 4145.128, 4097.949, 4127.692, 4124.615, 0, 0, []
1630310535.3395, 53, 0, 4145.128, 4175.897, 4073.333, 4130.256, 4140.513, 0, 0, []
1630310535.3473, 54, 0, 4152.308, 4171.795, 4102.564, 4142.564, 4131.282, 0, 0, []
1630310535.3552, 55, 0, 4157.949, 4163.59, 4077.436, 4144.615, 4121.538, 0, 0, []
1630310535.3629, 56, 0, 4142.051, 4173.333, 4109.744, 4144.103, 4137.436, 0, 0, []
1630310535.3709, 57, 0, 4146.154, 4166.154, 4106.154, 4157.949, 4149.231, 0, 0, []
1630310535.3788, 58, 0, 4171.282, 4167.179, 4073.846, 4166.154, 4140, 0, 0, []
1630310535.3868, 59, 0, 4160, 4180, 4125.128, 4149.231, 4130.256, 0, 0, []
1630310535.3947, 60, 0, 4145.641, 4175.385, 4087.179, 4135.385, 4143.59, 0, 0, []
1630310535.4027, 61, 0, 4167.179, 4177.436, 4085.641, 4151.282, 4156.41, 0, 0, []
1630310535.4105, 62, 0, 4172.308, 4196.41, 4099.487, 4152.308, 4142.564, 0, 0, []
1630310535.4185, 63, 0, 4148.718, 4190.256, 4070.769, 4140.513, 4139.487, 0, 0, []
1630310535.4264, 64, 0, 4153.846, 4178.974, 4111.282, 4154.872, 4159.487, 450, 0, []
1630310535.4344, 65, 0, 4160.513, 4189.231, 4069.744, 4148.718, 4143.077, 450, 0, []
1630310535.4423, 66, 0, 4133.846, 4172.308, 4058.462, 4118.974, 4110.769, 16189, 0, []
1630310535.4501, 67, 0, 4122.564, 4154.872, 4087.179, 4120, 4123.59, 450, 0, []
1630310535.458, 68, 0, 4144.615, 4183.59, 4063.077, 4143.077, 4141.026, 16113, 0, []
1630310535.4658, 69, 0, 4163.59, 4206.667, 4105.128, 4153.333, 4135.385, 450, 0, []
1630310535.4737, 70, 0, 4151.282, 4191.795, 4080.513, 4141.538, 4134.872, 188, 0, []
1630310535.4815, 71, 0, 4132.821, 4176.923, 4077.436, 4135.897, 4138.974, 450, 0, []
1630310535.4893, 72, 0, 4135.385, 4186.667, 4114.359, 4142.564, 4134.359, 450, 0, []
1630310535.4972, 73, 0, 4148.205, 4192.308, 4084.615, 4140, 4138.974, 16142, 0, []
1630310535.5052, 74, 0, 4151.795, 4180, 4125.641, 4142.564, 4158.462, 450, 0, []
1630310535.513, 75, 0, 4155.385, 4163.077, 4105.641, 4154.359, 4168.205, 16204, 0, []
1630310535.5209, 76, 0, 4161.538, 4155.385, 4080.513, 4157.436, 4154.872, 450, 0, []
1630310535.5286, 77, 0, 4157.436, 4151.282, 4106.154, 4149.231, 4151.282, 450, 0, []
1630310535.5365, 78, 0, 4157.436, 4147.692, 4062.051, 4145.641, 4168.718, 450, 0, []
1630310535.5443, 79, 0, 4168.718, 4147.179, 4092.308, 4162.051, 4159.487, 16204, 0, []
1630310535.5523, 80, 0, 4176.41, 4155.385, 4101.026, 4173.333, 4140, 450, 0, []
1630310535.5602, 81, 0, 4173.333, 4163.59, 4092.308, 4166.154, 4156.41, 450, 0, []
1630310535.5681, 82, 0, 4169.744, 4149.231, 4117.436, 4166.667, 4174.872, 450, 0, []
1630310535.576, 83, 0, 4168.718, 4144.103, 4070.256, 4170.256, 4150.769, 16204, 0, []
1630310535.584, 84, 0, 4166.667, 4161.026, 4096.41, 4161.538, 4132.308, 450, 0, []
1630310535.5919, 85, 0, 4160, 4152.821, 4090.769, 4146.667, 4145.641, 450, 0, []
1630310535.5999, 86, 0, 4153.846, 4133.846, 4058.974, 4152.821, 4148.205, 450, 0, []
1630310535.6077, 87, 0, 4155.385, 4144.615, 4100.513, 4163.59, 4126.667, 16204, 0, []
1630310535.6155, 88, 0, 4153.846, 4130.769, 4061.026, 4137.949, 4113.846, 450, 0, []
1630310535.6234, 89, 0, 4156.41, 4106.667, 4074.359, 4126.154, 4129.231, 450, 0, []
1630310535.6312, 90, 0, 4176.41, 4150.769, 4090.256, 4159.487, 4146.154, 450, 0, []
1630310535.6391, 91, 0, 4185.128, 4184.103, 4067.692, 4171.795, 4137.436, 16204, 0, []
1630310535.6468, 92, 0, 4168.205, 4152.308, 4106.667, 4150.769, 4125.641, 450, 0, []
1630310535.6547, 93, 0, 4159.487, 4113.333, 4069.744, 4148.718, 4128.205, 450, 0, []
1630310535.6625, 94, 0, 4172.821, 4100.513, 4078.974, 4167.692, 4128.718, 450, 0, []
1630310535.6704, 95, 0, 4173.846, 4097.436, 4100.513, 4157.436, 4120.513, 16204, 0, []
1630310535.6782, 96, 0, 4152.308, 4094.359, 4061.538, 4132.308, 4117.949, 450, 0, []
1630310535.686, 97, 0, 4151.282, 4101.026, 4092.308, 4142.564, 4125.128, 450, 0, []
1630310535.6938, 98, 0, 4170.769, 4109.231, 4069.744, 4163.077, 4130.256, 450, 0, []
1630310535.7018, 99, 0, 4169.744, 4107.692, 4073.846, 4154.872, 4132.821, 16204, 0, []
1630310535.7097, 100, 0, 4151.795, 4092.308, 4089.744, 4135.897, 4142.051, 450, 0, []
1630310535.7177, 101, 0, 4148.718, 4082.051, 4050.256, 4138.974, 4136.41, 450, 0, []
1630310535.7255, 102, 0, 4158.974, 4111.282, 4097.436, 4151.795, 4122.051, 450, 0, []
1630310535.7335, 103, 0, 4157.436, 4153.333, 4082.051, 4140.513, 4128.205, 16204, 0, []
1630310535.7414, 104, 0, 4150.769, 4149.231, 4069.231, 4125.641, 4133.333, 450, 0, []
1630310535.7494, 105, 0, 4157.949, 4145.128, 4097.436, 4137.436, 4117.949, 450, 0, []
1630310535.7573, 106, 0, 4170.769, 4188.718, 4068.718, 4143.59, 4117.949, 450, 0, []
1630310535.7651, 107, 0, 4172.821, 4208.205, 4102.051, 4134.872, 4144.615, 16204, 0, []
1630310535.7729, 108, 0, 4168.205, 4171.282, 4074.359, 4136.41, 4153.333, 450, 0, []
1630310535.7807, 109, 0, 4171.795, 4147.179, 4061.538, 4147.179, 4136.923, 450, 0, []
1630310535.7886, 110, 0, 4176.923, 4181.026, 4107.692, 4148.205, 4130.769, 450, 0, []
1630310535.7964, 111, 0, 4163.077, 4214.359, 4067.179, 4138.974, 4136.41, 16204, 0, []
1630310535.8043, 112, 0, 4152.821, 4180, 4088.718, 4144.103, 4141.026, 450, 0, []
1630310535.812, 113, 0, 4168.718, 4145.641, 4088.205, 4151.282, 4144.103, 450, 0, []
1630310535.8199, 114, 0, 4181.538, 4180, 4077.949, 4140, 4151.282, 450, 0, []
1630310535.8277, 115, 0, 4168.205, 4201.538, 4112.821, 4122.564, 4155.385, 16204, 0, []
1630310535.8356, 116, 0, 4165.128, 4171.282, 4070.769, 4123.59, 4153.846, 450, 0, []
1630310535.8434, 117, 0, 4187.179, 4173.333, 4102.051, 4147.179, 4153.846, 450, 0, []
1630310535.8512, 118, 0, 4197.949, 4215.897, 4111.282, 4146.667, 4160.513, 450, 0, []
1630310535.859, 119, 0, 4180.513, 4217.949, 4083.59, 4127.692, 4165.128, 16204, 0, []
1630310535.867, 120, 0, 4168.205, 4190.256, 4119.487, 4136.923, 4153.846, 450, 0, []
1630310535.8749, 121, 0, 4176.41, 4190.256, 4073.333, 4142.051, 4135.385, 450, 0, []
1630310535.8829, 122, 0, 4173.846, 4208.205, 4079.487, 4120.513, 4131.282, 450, 0, []
1630310535.8907, 123, 0, 4152.308, 4226.154, 4088.205, 4107.179, 4135.385, 16204, 0, []
1630310535.8987, 124, 0, 4143.077, 4232.821, 4056.41, 4111.282, 4126.154, 450, 0, []
1630310535.9066, 125, 0, 4155.897, 4221.538, 4096.923, 4124.615, 4116.923, 450, 0, []
1630310535.9146, 126, 0, 4164.615, 4211.282, 4071.282, 4130.256, 4126.667, 450, 0, []
1630310535.9225, 127, 0, 4162.564, 4226.154, 4086.667, 4133.846, 4143.077, 16204, 0, []
1630310535.9304, 128, 0, 4168.718, 4264.103, 4104.103, 4144.615, 4144.615, 450, 0, []
1630310535.9383, 0, 0, 4175.385, 4290.256, 4067.692, 4146.154, 4127.179, 450, 0, []
1630310535.9461, 1, 0, 4167.179, 4268.718, 4106.154, 4140, 4120.513, 450, 0, []
1630310535.954, 2, 0, 4161.026, 4235.385, 4074.872, 4141.026, 4138.462, 16217, 0, []
1630310535.9618, 3, 0, 4163.59, 4256.923, 4072.821, 4151.795, 4142.051, 450, 0, []
1630310535.9696, 4, 0, 4158.462, 4283.59, 4100.513, 4151.795, 4117.949, 16115, 0, []
1630310535.9774, 5, 0, 4151.282, 4265.128, 4066.667, 4141.538, 4118.462, 450, 0, []
1630310535.9854, 6, 0, 4154.359, 4255.385, 4101.026, 4148.718, 4139.487, 186, 0, []
1630310535.9933, 7, 0, 4164.103, 4276.41, 4081.026, 4158.462, 4134.359, 450, 0, []
1630310536.0012, 8, 0, 4168.718, 4282.564, 4078.974, 4158.974, 4116.923, 450, 0, []
1630310536.0089, 9, 0, 4154.872, 4270.256, 4100.513, 4145.128, 4117.436, 16144, 0, []
1630310536.0169, 10, 0, 4132.308, 4264.103, 4048.718, 4129.744, 4115.897, 450, 0, []
1630310536.0248, 11, 0, 4139.487, 4272.308, 4087.179, 4140.513, 4102.564, 16201, 0, []
1630310536.0328, 12, 0, 4166.154, 4289.744, 4086.667, 4153.846, 4108.205, 450, 0, []
1630310536.0407, 13, 0, 4163.59, 4287.179, 4068.718, 4148.205, 4132.821, 450, 0, []
1630310536.0486, 14, 0, 4152.821, 4275.385, 4092.821, 4144.103, 4140.513, 450, 0, []
1630310536.0565, 15, 0, 4169.744, 4293.333, 4058.462, 4149.744, 4131.282, 16201, 0, []
1630310536.0645, 16, 0, 4190.256, 4325.641, 4102.051, 4161.026, 4141.538, 0, 0, []
1630310536.0724, 17, 0, 4186.667, 4338.462, 4105.128, 4162.051, 4165.641, 0, 0, []
1630310536.0802, 18, 0, 4176.923, 4336.41, 4078.462, 4161.026, 4170.769, 0, 0, []
1630310536.088, 19, 0, 4172.821, 4318.462, 4102.051, 4165.128, 4154.872, 0, 0, []
1630310536.0958, 20, 0, 4167.179, 4302.051, 4055.897, 4160.513, 4135.385, 0, 0, []
1630310536.1037, 21, 0, 4170.256, 4312.821, 4083.59, 4160.513, 4140, 0, 0, []
1630310536.1115, 22, 0, 4175.897, 4326.154, 4093.333, 4165.641, 4162.051, 0, 0, []
1630310536.1194, 23, 0, 4171.795, 4320.513, 4064.103, 4159.487, 4159.487, 0, 0, []
1630310536.1272, 24, 0, 4163.59, 4315.385, 4100.513, 4151.282, 4134.359, 0, 0, []
1630310536.135, 25, 0, 4158.462, 4322.051, 4068.205, 4144.103, 4128.205, 0, 0, []
1630310536.1428, 26, 0, 4151.795, 4319.487, 4083.077, 4140, 4139.487, 0, 0, []
1630310536.1507, 27, 0, 4150.256, 4305.641, 4094.872, 4146.154, 4141.026, 0, 0, []
1630310536.1585, 28, 0, 4162.564, 4315.897, 4074.359, 4156.41, 4133.333, 0, 0, []
1630310536.1665, 29, 0, 4171.795, 4344.615, 4120.513, 4152.308, 4132.821, 0, 0, []
1630310536.1743, 30, 0, 4167.692, 4344.103, 4077.949, 4137.949, 4145.128, 0, 0, []
1630310536.1823, 31, 0, 4162.564, 4313.846, 4077.949, 4140, 4153.333, 0, 0, []
1630310536.1902, 32, 0, 4170.256, 4323.59, 4103.077, 4157.949, 4148.718, 0, 0, []
1630310536.1982, 33, 0, 4179.487, 4362.051, 4072.308, 4167.179, 4146.667, 0, 0, []
1630310536.2061, 34, 0, 4172.308, 4351.795, 4109.231, 4168.718, 4156.923, 0, 0, []
1630310536.214, 35, 0, 4155.897, 4326.154, 4076.923, 4164.615, 4162.564, 0, 0, []
1630310536.2219, 36, 0, 4151.795, 4347.692, 4072.308, 4163.59, 4152.821, 0, 0, []
1630310536.2299, 37, 0, 4163.59, 4367.692, 4100.513, 4160.513, 4146.667, 0, 0, []
1630310536.2378, 38, 0, 4167.692, 4345.128, 4065.128, 4143.077, 4154.359, 0, 0, []
1630310536.2456, 39, 0, 4165.128, 4330.256, 4102.564, 4143.077, 4165.128, 0, 0, []
1630310536.2534, 40, 0, 4167.179, 4343.59, 4088.718, 4165.128, 4163.077, 0, 0, []
1630310536.2612, 41, 0, 4165.128, 4345.641, 4086.154, 4169.231, 4144.103, 0, 0, []
1630310536.2691, 42, 0, 4154.359, 4334.359, 4111.795, 4145.641, 4130.256, 0, 0, []
1630310536.2769, 43, 0, 4147.692, 4306.154, 4066.154, 4129.744, 4135.385, 0, 0, []
1630310536.2848, 44, 0, 4153.333, 4287.179, 4101.538, 4142.564, 4140, 0, 0, []
1630310536.2925, 45, 0, 4168.205, 4327.692, 4098.462, 4151.795, 4134.872, 0, 0, []
1630310536.3004, 46, 0, 4178.462, 4360.513, 4080, 4143.59, 4139.487, 0, 0, []
1630310536.3082, 47, 0, 4177.949, 4327.692, 4099.487, 4146.667, 4165.128, 0, 0, []
1630310536.3161, 48, 0, 4182.564, 4305.641, 4062.564, 4166.667, 4183.59, 0, 0, []
1630310536.3239, 49, 0, 4185.641, 4348.205, 4101.538, 4175.385, 4162.564, 0, 0, []
1630310536.3318, 50, 0, 4178.974, 4366.667, 4099.487, 4157.436, 4142.564, 0, 0, []
1630310536.3397, 51, 0, 4173.846, 4325.641, 4077.436, 4149.744, 4160.513, 0, 0, []
1630310536.3477, 52, 0, 4178.462, 4320.513, 4120.513, 4167.179, 4174.359, 0, 0, []
1630310536.3556, 53, 0, 4182.051, 4360, 4084.615, 4171.795, 4150.769, 0, 0, []
1630310536.3636, 54, 0, 4183.077, 4364.103, 4108.718, 4164.103, 4137.949, 0, 0, []
1630310536.3714, 55, 0, 4186.154, 4343.59, 4110.256, 4164.103, 4166.667, 0, 0, []
1630310536.3794, 56, 0, 4185.128, 4340.513, 4062.564, 4166.667, 4182.051, 0, 0, []
1630310536.3873, 57, 0, 4186.154, 4326.667, 4092.308, 4168.205, 4167.179, 0, 0, []
1630310536.3952, 58, 0, 4194.359, 4315.897, 4067.692, 4161.026, 4157.436, 0, 0, []
1630310536.4031, 59, 0, 4196.923, 4338.974, 4089.231, 4152.308, 4167.179, 0, 0, []
1630310536.4108, 60, 0, 4182.564, 4346.667, 4101.538, 4151.282, 4176.41, 0, 0, []
1630310536.4187, 61, 0, 4171.282, 4318.974, 4070.769, 4152.821, 4168.205, 0, 0, []
1630310536.4265, 62, 0, 4183.59, 4294.872, 4106.667, 4155.897, 4153.333, 0, 0, []
1630310536.4344, 63, 0, 4190.256, 4296.923, 4070.256, 4150.769, 4145.128, 0, 0, []
1630310536.4422, 64, 0, 4179.487, 4309.744, 4087.179, 4151.795, 4155.385, 450, 0, []
1630310536.4502, 65, 0, 4176.41, 4293.333, 4114.872, 4161.026, 4169.231, 450, 0, []
1630310536.458, 66, 0, 4182.051, 4257.436, 4075.385, 4157.436, 4167.179, 16194, 0, []
1630310536.4659, 67, 0, 4185.641, 4260.513, 4113.333, 4152.308, 4164.103, 450, 0, []
1630310536.4737, 68, 0, 4186.154, 4288.718, 4085.128, 4150.769, 4170.256, 16120, 0, []
1630310536.4816, 69, 0, 4186.154, 4281.538, 4085.128, 4161.538, 4181.538, 450, 0, []
1630310536.4895, 70, 0, 4189.231, 4246.667, 4117.949, 4176.923, 4193.846, 124, 0, []
1630310536.4974, 71, 0, 4190.769, 4230.256, 4073.846, 4167.692, 4183.077, 450, 0, []
1630310536.5054, 72, 0, 4194.359, 4239.487, 4103.077, 4151.282, 4165.128, 450, 0, []
1630310536.5133, 73, 0, 4197.436, 4244.103, 4088.718, 4147.692, 4181.538, 16109, 0, []
1630310536.5212, 74, 0, 4200, 4227.179, 4076.923, 4153.846, 4201.026, 450, 0, []
1630310536.5292, 75, 0, 4208.718, 4228.205, 4103.077, 4162.564, 4193.333, 16197, 0, []
1630310536.537, 76, 0, 4221.538, 4248.718, 4067.179, 4168.718, 4183.077, 450, 0, []
1630310536.545, 77, 0, 4217.436, 4242.564, 4101.026, 4169.231, 4189.231, 450, 0, []
1630310536.5529, 78, 0, 4200.513, 4246.154, 4095.897, 4163.077, 4197.949, 450, 0, []
1630310536.5607, 79, 0, 4202.564, 4273.846, 4087.692, 4166.154, 4198.974, 16197, 0, []
1630310536.5686, 80, 0, 4217.949, 4275.385, 4116.923, 4176.41, 4191.795, 450, 0, []
1630310536.5763, 81, 0, 4220, 4246.667, 4067.179, 4166.667, 4178.974, 450, 0, []
1630310536.5842, 82, 0, 4209.231, 4234.359, 4093.333, 4158.974, 4179.487, 450, 0, []
1630310536.592, 83, 0, 4204.103, 4247.692, 4089.231, 4169.744, 4195.385, 16197, 0, []
1630310536.6, 84, 0, 4202.564, 4251.282, 4068.205, 4172.308, 4196.41, 450, 0, []
1630310536.6079, 85, 0, 4196.923, 4250.769, 4114.872, 4163.077, 4173.846, 450, 0, []
1630310536.6158, 86, 0, 4189.744, 4238.462, 4075.385, 4143.59, 4162.051, 450, 0, []
1630310536.6237, 87, 0, 4178.974, 4210.769, 4084.615, 4137.949, 4177.436, 16197, 0, []
1630310536.6317, 88, 0, 4177.949, 4199.487, 4085.641, 4154.359, 4185.128, 450, 0, []
1630310536.6396, 89, 0, 4190.256, 4209.231, 4060.513, 4168.718, 4175.385, 450, 0, []
1630310536.6476, 90, 0, 4196.41, 4214.872, 4106.667, 4161.538, 4171.282, 450, 0, []
1630310536.6554, 91, 0, 4176.923, 4208.718, 4069.231, 4136.923, 4167.179, 16197, 0, []
1630310536.6634, 92, 0, 4163.59, 4218.462, 4069.744, 4131.282, 4162.051, 450, 0, []
1630310536.6713, 93, 0, 4185.128, 4232.821, 4090.256, 4155.385, 4173.333, 450, 0, []
1630310536.6793, 94, 0, 4196.923, 4229.744, 4078.974, 4173.846, 4179.487, 450, 0, []
1630310536.6872, 95, 0, 4188.718, 4231.795, 4112.821, 4165.128, 4178.462, 16197, 0, []
1630310536.6951, 96, 0, 4197.949, 4231.795, 4065.641, 4147.692, 4191.282, 450, 0, []
1630310536.703, 97, 0, 4215.897, 4216.923, 4072.821, 4148.205, 4191.795, 450, 0, []
1630310536.7108, 98, 0, 4223.59, 4203.077, 4098.462, 4160, 4169.744, 450, 0, []
1630310536.7187, 99, 0, 4231.282, 4200, 4067.179, 4162.564, 4167.692, 16197, 0, []
1630310536.7265, 100, 0, 4223.59, 4198.462, 4106.667, 4153.333, 4186.667, 450, 0, []
1630310536.7343, 101, 0, 4196.923, 4198.974, 4076.41, 4141.538, 4188.205, 450, 0, []
1630310536.7421, 102, 0, 4195.385, 4209.231, 4072.308, 4147.692, 4178.462, 450, 0, []
1630310536.75, 103, 0, 4216.41, 4215.897, 4100, 4154.872, 4170.769, 16197, 0, []
1630310536.7578, 104, 0, 4225.641, 4216.41, 4059.487, 4144.103, 4165.641, 450, 0, []
1630310536.7657, 105, 0, 4220, 4212.821, 4090.256, 4145.128, 4171.282, 450, 0, []
1630310536.7734, 106, 0, 4201.538, 4185.128, 4063.59, 4143.077, 4169.744, 450, 0, []
1630310536.7814, 107, 0, 4197.949, 4156.41, 4057.436, 4142.051, 4166.154, 16197, 0, []
1630310536.7893, 108, 0, 4218.974, 4180, 4108.205, 4161.026, 4171.282, 450, 0, []
1630310536.7973, 109, 0, 4213.846, 4214.359, 4075.897, 4158.974, 4170.769, 450, 0, []
1630310536.8052, 110, 0, 4181.026, 4193.333, 4096.923, 4144.615, 4161.538, 450, 0, []
1630310536.8132, 111, 0, 4173.333, 4180.513, 4075.897, 4150.769, 4156.923, 16197, 0, []
1630310536.821, 112, 0, 4184.103, 4209.231, 4045.641, 4153.846, 4144.103, 450, 0, []
1630310536.829, 113, 0, 4185.128, 4196.41, 4080, 4136.923, 4137.436, 450, 0, []
1630310536.8369, 114, 0, 4197.436, 4167.692, 4061.538, 4132.308, 4172.821, 450, 0, []
1630310536.8447, 115, 0, 4219.487, 4188.205, 4098.462, 4150.769, 4208.205, 16197, 0, []
1630310536.8526, 116, 0, 4224.615, 4198.974, 4089.744, 4155.897, 4199.487, 450, 0, []
1630310536.8603, 117, 0, 4217.949, 4181.538, 4068.718, 4150.256, 4175.385, 450, 0, []
1630310536.8682, 118, 0, 4211.795, 4186.154, 4105.641, 4150.256, 4172.821, 450, 0, []
1630310536.876, 119, 0, 4205.128, 4186.154, 4056.41, 4151.282, 4178.974, 16197, 0, []
1630310536.8839, 120, 0, 4210.256, 4173.846, 4080, 4161.538, 4181.538, 450, 0, []
1630310536.8917, 121, 0, 4229.744, 4189.231, 4100, 4166.667, 4193.846, 450, 0, []
1630310536.8995, 122, 0, 4238.462, 4209.744, 4072.308, 4160, 4200, 450, 0, []
1630310536.9073, 123, 0, 4225.641, 4200.513, 4105.641, 4148.718, 4191.795, 16197, 0, []
1630310536.9153, 124, 0, 4208.205, 4181.538, 4070.256, 4136.923, 4184.103, 450, 0, []
1630310536.9232, 125, 0, 4209.231, 4177.436, 4083.59, 4141.538, 4178.462, 450, 0, []
1630310536.9312, 126, 0, 4216.923, 4196.41, 4098.462, 4149.231, 4160.513, 450, 0, []
1630310536.939, 127, 0, 4200.513, 4200, 4064.615, 4135.385, 4142.051, 16197, 0, []
1630310536.947, 128, 0, 4179.487, 4161.538, 4106.667, 4126.154, 4147.692, 450, 0, []
1630310536.9549, 0, 0, 4192.308, 4160.513, 4089.744, 4145.641, 4171.795, 450, 0, []
1630310536.9629, 1, 0, 4225.641, 4203.59, 4103.59, 4175.385, 4192.821, 450, 0, []
1630310536.9708, 2, 0, 4238.974, 4195.897, 4119.487, 4182.564, 4184.615, 16196, 0, []
1630310536.9787, 3, 0, 4226.154, 4159.487, 4068.205, 4162.564, 4162.051, 450, 0, []
1630310536.9866, 4, 0, 4207.179, 4186.154, 4094.359, 4149.744, 4168.718, 16111, 0, []
1630310536.9946, 5, 0, 4196.923, 4228.718, 4074.872, 4158.462, 4188.205, 450, 0, []
1630310537.0025, 6, 0, 4198.974, 4209.744, 4085.641, 4173.333, 4188.205, 184, 0, []
1630310537.0103, 7, 0, 4208.205, 4188.205, 4121.538, 4177.949, 4182.564, 450, 0, []
1630310537.0181, 8, 0, 4218.974, 4199.487, 4081.538, 4166.154, 4192.308, 450, 0, []
1630310537.0259, 9, 0, 4214.872, 4192.821, 4104.103, 4163.077, 4205.128, 16135, 0, []
1630310537.0338, 10, 0, 4204.615, 4179.487, 4069.231, 4167.692, 4205.128, 450, 0, []
1630310537.0416, 11, 0, 4207.692, 4196.923, 4056.923, 4166.667, 4193.846, 16211, 0, []
1630310537.0495, 12, 0, 4211.795, 4217.949, 4103.077, 4165.128, 4185.641, 450, 0, []
1630310537.0572, 13, 0, 4205.641, 4204.103, 4070.256, 4160, 4193.333, 450, 0, []
1630310537.0651, 14, 0, 4201.538, 4184.615, 4105.641, 4161.026, 4199.487, 450, 0, []
1630310537.0729, 15, 0, 4195.897, 4183.077, 4107.692, 4167.179, 4191.282, 16211, 0, []
1630310537.0809, 16, 0, 4186.667, 4177.949, 4091.795, 4167.179, 4176.41, 0, 0, []
1630310537.0888, 17, 0, 4192.308, 4187.179, 4116.923, 4164.103, 4176.41, 0, 0, []
1630310537.0967, 18, 0, 4203.077, 4213.333, 4072.821, 4154.872, 4189.744, 0, 0, []
1630310537.1046, 19, 0, 4197.436, 4204.103, 4105.641, 4157.436, 4197.949, 0, 0, []
1630310537.1126, 20, 0, 4191.795, 4188.205, 4108.205, 4170.256, 4200, 0, 0, []
1630310537.1205, 21, 0, 4200, 4212.821, 4078.462, 4175.385, 4194.872, 0, 0, []
1630310537.1285, 22, 0, 4204.103, 4209.744, 4110.256, 4165.128, 4182.051, 0, 0, []
1630310537.1363, 23, 0, 4198.462, 4170.256, 4079.487, 4150.769, 4181.026, 0, 0, []
1630310537.1443, 24, 0, 4193.333, 4175.897, 4106.154, 4160, 4196.923, 0, 0, []
1630310537.1522, 25, 0, 4185.128, 4182.564, 4107.692, 4169.744, 4191.795, 0, 0, []
1630310537.16, 26, 0, 4185.641, 4167.692, 4067.179, 4168.718, 4170.256, 0, 0, []
1630310537.1679, 27, 0, 4205.128, 4192.308, 4107.692, 4174.872, 4177.436, 0, 0, []
1630310537.1757, 28, 0, 4214.359, 4211.282, 4083.077, 4177.949, 4201.538, 0, 0, []
1630310537.1835, 29, 0, 4210.256, 4200.513, 4094.872, 4180.513, 4205.128, 0, 0, []
1630310537.1913, 30, 0, 4214.359, 4203.077, 4093.846, 4175.385, 4191.282, 0, 0, []
1630310537.1992, 31, 0, 4213.846, 4201.538, 4049.744, 4156.923, 4181.538, 0, 0, []
1630310537.207, 32, 0, 4212.821, 4193.333, 4108.718, 4156.923, 4202.564, 0, 0, []
1630310537.2149, 33, 0, 4223.077, 4197.949, 4098.974, 4168.205, 4241.026, 0, 0, []
1630310537.2226, 34, 0, 4234.872, 4190.256, 4092.308, 4165.641, 4247.692, 0, 0, []
1630310537.2306, 35, 0, 4258.974, 4180, 4101.026, 4158.462, 4242.564, 0, 0, []
1630310537.2385, 36, 0, 4309.231, 4196.923, 4065.128, 4162.564, 4276.923, 0, 0, []
1630310537.2465, 37, 0, 4361.026, 4206.154, 4107.179, 4174.359, 4332.821, 0, 0, []
1630310537.2544, 38, 0, 4390.256, 4193.846, 4090.256, 4176.41, 4363.59, 0, 0, []
1630310537.2623, 39, 0, 4406.154, 4201.026, 4089.744, 4178.462, 4378.974, 0, 0, []
1630310537.2702, 40, 0, 4417.436, 4209.231, 4113.846, 4184.615, 4399.487, 0, 0, []
1630310537.2782, 41, 0, 4415.897, 4184.615, 4071.282, 4178.974, 4404.103, 0, 0, []
1630310537.2861, 42, 0, 4392.308, 4169.231, 4103.59, 4164.615, 4387.692, 0, 0, []
1630310537.2941, 43, 0, 4355.897, 4192.308, 4084.103, 4148.205, 4370.256, 0, 0, []
1630310537.3019, 44, 0, 4331.795, 4194.872, 4072.821, 4153.333, 4349.744, 0, 0, []
1630310537.3097, 45, 0, 4323.59, 4177.436, 4106.667, 4181.538, 4329.744, 0, 0, []
1630310537.3176, 46, 0, 4316.41, 4197.949, 4066.154, 4193.846, 4323.077, 0, 0, []
1630310537.3254, 47, 0, 4305.641, 4217.949, 4091.282, 4186.667, 4311.795, 0, 0, []
1630310537.3333, 48, 0, 4289.744, 4200, 4076.923, 4176.923, 4286.154, 0, 0, []
1630310537.341, 49, 0, 4279.487, 4173.846, 4055.897, 4169.744, 4274.872, 0, 0, []
1630310537.3489, 50, 0, 4279.487, 4167.692, 4104.615, 4166.667, 4282.564, 0, 0, []
1630310537.3567, 51, 0, 4274.872, 4192.821, 4082.051, 4168.718, 4281.538, 0, 0, []
1630310537.3646, 52, 0, 4260, 4197.436, 4104.103, 4169.744, 4264.103, 0, 0, []
1630310537.3724, 53, 0, 4248.718, 4161.538, 4093.333, 4163.59, 4243.59, 0, 0, []
1630310537.3802, 54, 0, 4235.897, 4154.872, 4068.718, 4158.974, 4226.154, 0, 0, []
1630310537.388, 55, 0, 4220.513, 4168.205, 4117.436, 4157.949, 4217.949, 0, 0, []
1630310537.396, 56, 0, 4222.051, 4154.359, 4084.615, 4160, 4226.667, 0, 0, []
1630310537.4039, 57, 0, 4233.846, 4164.103, 4097.949, 4179.487, 4237.436, 0, 0, []
1630310537.4119, 58, 0, 4236.923, 4194.872, 4102.051, 4192.308, 4227.179, 0, 0, []
1630310537.4197, 59, 0, 4227.179, 4183.077, 4070.769, 4170.769, 4203.59, 0, 0, []
1630310537.4277, 60, 0, 4216.41, 4168.205, 4114.872, 4157.949, 4205.128, 0, 0, []
1630310537.4356, 61, 0, 4215.897, 4191.282, 4082.564, 4170.769, 4221.026, 0, 0, []
1630310537.4436, 62, 0, 4218.974, 4204.615, 4088.718, 4178.974, 4210.256, 0, 0, []
1630310537.4515, 63, 0, 4220, 4201.026, 4107.179, 4169.744, 4189.231, 0, 0, []
1630310537.4594, 64, 0, 4214.872, 4190.256, 4074.359, 4153.333, 4191.795, 450, 0, []
1630310537.4673, 65, 0, 4205.641, 4176.923, 4106.667, 4152.308, 4202.051, 450, 0, []
1630310537.4752, 66, 0, 4206.154, 4183.59, 4082.051, 4166.154, 4206.154, 16194, 0, []
1630310537.4831, 67, 0, 4217.436, 4204.103, 4091.795, 4182.564, 4207.692, 450, 0, []
1630310537.491, 68, 0, 4220.513, 4215.385, 4108.718, 4188.205, 4204.615, 16118, 0, []
1630310537.4989, 69, 0, 4215.897, 4209.231, 4066.154, 4179.487, 4202.051, 450, 0, []
1630310537.5067, 70, 0, 4216.41, 4201.538, 4111.795, 4185.641, 4213.333, 194, 0, []
1630310537.5146, 71, 0, 4225.128, 4209.231, 4098.974, 4200, 4221.026, 450, 0, []
1630310537.5224, 72, 0, 4231.795, 4204.103, 4094.872, 4199.487, 4203.077, 450, 0, []
1630310537.5303, 73, 0, 4226.667, 4176.41, 4127.692, 4185.128, 4190.769, 16136, 0, []
1630310537.5381, 74, 0, 4213.333, 4175.385, 4089.744, 4176.41, 4201.026, 450, 0, []
1630310537.546, 75, 0, 4211.795, 4189.744, 4113.846, 4188.205, 4209.231, 16202, 0, []
1630310537.5539, 76, 0, 4218.974, 4176.923, 4091.282, 4194.872, 4204.615, 450, 0, []
1630310537.5619, 77, 0, 4214.359, 4184.103, 4082.564, 4186.667, 4189.744, 450, 0, []
1630310537.5698, 78, 0, 4204.615, 4208.205, 4112.821, 4178.462, 4188.205, 450, 0, []
1630310537.5778, 79, 0, 4197.436, 4192.821, 4059.487, 4175.897, 4200.513, 16202, 0, []
1630310537.5856, 80, 0, 4195.897, 4174.872, 4093.846, 4186.154, 4195.897, 450, 0, []
1630310537.5936, 81, 0, 4204.103, 4189.744, 4103.59, 4196.41, 4175.385, 450, 0, []
