Timestamp, COUNTER, INTERPOLATED, AF3, T7, Pz, T8, AF4, RAW_CQ, MARKER_HARDWARE, MARKERS
1629046299.8981, 101, 0, 4163.077, 4683.077, 4133.333, 4153.846, 4158.974, 450, 0, []
1629046299.906, 102, 0, 4152.821, 4668.718, 4162.564, 4152.821, 4140.513, 450, 0, []
1629046299.9138, 103, 0, 4137.949, 4645.641, 4166.154, 4148.205, 4124.615, 16208, 0, []
1629046299.9216, 104, 0, 4130.769, 4660, 4108.205, 4145.641, 4127.692, 450, 0, []
1629046299.9294, 105, 0, 4131.795, 4669.231, 4089.744, 4143.077, 4129.744, 450, 0, []
1629046299.9373, 106, 0, 4123.59, 4632.821, 4115.897, 4133.333, 4111.282, 450, 0, []
1629046299.9451, 107, 0, 4115.385, 4623.077, 4194.872, 4136.41, 4095.897, 16208, 0, []
1629046299.9529, 108, 0, 4131.282, 4652.821, 4254.872, 4148.718, 4109.231, 450, 0, []
1629046299.9607, 109, 0, 4144.615, 4647.179, 4248.205, 4144.615, 4112.308, 450, 0, []
1629046299.9685, 110, 0, 4128.718, 4624.615, 4221.538, 4130.256, 4079.487, 450, 0, []
1629046299.9764, 111, 0, 4108.205, 4626.154, 4145.641, 4121.026, 4053.333, 16208, 0, []
1629046299.9842, 112, 0, 4104.615, 4622.051, 4134.359, 4126.154, 4056.41, 450, 0, []
1629046299.9921, 113, 0, 4103.077, 4595.385, 4150.256, 4131.795, 4060.513, 450, 0, []
1629046299.9998, 114, 0, 4092.821, 4572.821, 4114.359, 4118.974, 4049.231, 450, 0, []
1629046300.0077, 115, 0, 4081.026, 4568.718, 4125.641, 4106.667, 4042.051, 16208, 0, []
1629046300.0155, 116, 0, 4074.359, 4564.103, 4117.436, 4106.154, 4047.179, 450, 0, []
1629046300.0234, 117, 0, 4078.462, 4559.487, 4103.077, 4114.359, 4045.641, 450, 0, []
1629046300.0312, 118, 0, 4087.179, 4566.154, 4126.667, 4114.872, 4039.487, 450, 0, []
1629046300.039, 119, 0, 4093.333, 4569.231, 4123.077, 4109.231, 4056.923, 16208, 0, []
1629046300.0468, 120, 0, 4090.769, 4545.641, 4132.821, 4114.872, 4075.385, 450, 0, []
1629046300.0547, 121, 0, 4081.026, 4525.641, 4132.821, 4113.846, 4059.487, 450, 0, []
1629046300.0625, 122, 0, 4080.513, 4526.154, 4125.641, 4104.615, 4047.692, 450, 0, []
1629046300.0704, 123, 0, 4089.231, 4526.154, 4145.641, 4106.154, 4060.513, 16208, 0, []
1629046300.0781, 124, 0, 4088.718, 4523.077, 4126.154, 4105.641, 4055.897, 450, 0, []
1629046300.086, 125, 0, 4083.59, 4518.462, 4123.077, 4101.026, 4038.974, 450, 0, []
1629046300.0938, 126, 0, 4089.231, 4516.41, 4143.077, 4110.769, 4049.744, 450, 0, []
1629046300.1017, 127, 0, 4101.026, 4503.077, 4136.41, 4131.795, 4067.692, 16208, 0, []
1629046300.1095, 128, 0, 4103.59, 4488.718, 4140, 4138.462, 4064.103, 450, 0, []
1629046300.1173, 0, 0, 4100, 4495.385, 4127.179, 4130.769, 4065.641, 450, 0, []
1629046300.1251, 1, 0, 4109.744, 4498.462, 4140.513, 4144.615, 4090.256, 450, 0, []
1629046300.1329, 2, 0, 4126.154, 4490.256, 4168.205, 4165.128, 4111.795, 16188, 0, []
1629046300.1408, 3, 0, 4125.641, 4491.282, 4166.667, 4159.487, 4107.692, 450, 0, []
1629046300.1486, 4, 0, 4124.103, 4491.795, 4170.769, 4151.795, 4106.154, 16149, 0, []
1629046300.1564, 5, 0, 4135.385, 4487.692, 4155.897, 4157.949, 4120.513, 450, 0, []
1629046300.1642, 6, 0, 4138.974, 4488.205, 4162.051, 4165.128, 4121.026, 311, 0, []
1629046300.1721, 7, 0, 4134.359, 4484.103, 4164.615, 4164.103, 4108.205, 450, 0, []
1629046300.1799, 8, 0, 4130.769, 4480, 4145.641, 4159.487, 4103.077, 450, 0, []
1629046300.1878, 9, 0, 4118.462, 4480.513, 4154.359, 4152.308, 4096.923, 16141, 0, []
1629046300.1955, 10, 0, 4106.154, 4464.615, 4140, 4143.077, 4083.077, 450, 0, []
1629046300.2034, 11, 0, 4111.795, 4440.513, 4143.077, 4135.897, 4072.821, 16208, 0, []
1629046300.2112, 12, 0, 4122.564, 4434.359, 4143.59, 4124.615, 4074.359, 450, 0, []
1629046300.2191, 13, 0, 4121.538, 4435.385, 4113.846, 4127.692, 4080, 450, 0, []
1629046300.2269, 14, 0, 4113.333, 4436.923, 4133.846, 4145.641, 4077.436, 450, 0, []
1629046300.2347, 15, 0, 4111.795, 4444.103, 4135.897, 4144.615, 4064.615, 16208, 0, []
1629046300.2425, 16, 0, 4115.897, 4443.59, 4132.821, 4143.077, 4063.077, 0, 0, []
1629046300.2504, 17, 0, 4122.564, 4432.308, 4144.103, 4155.897, 4083.077, 0, 0, []
1629046300.2582, 18, 0, 4125.641, 4412.821, 4116.923, 4150.256, 4091.795, 0, 0, []
1629046300.2661, 19, 0, 4124.103, 4406.154, 4123.59, 4140, 4082.564, 0, 0, []
1629046300.2738, 20, 0, 4123.077, 4423.077, 4132.308, 4149.744, 4085.641, 0, 0, []
1629046300.2816, 21, 0, 4122.051, 4422.564, 4129.231, 4157.436, 4094.359, 0, 0, []
1629046300.2895, 22, 0, 4124.615, 4405.128, 4131.282, 4148.718, 4084.615, 0, 0, []
1629046300.2973, 23, 0, 4126.154, 4405.128, 4109.231, 4134.359, 4077.436, 0, 0, []
1629046300.3052, 24, 0, 4124.103, 4400.513, 4125.641, 4138.974, 4088.205, 0, 0, []
1629046300.3129, 25, 0, 4124.615, 4390.256, 4129.231, 4146.667, 4092.308, 0, 0, []
1629046300.3208, 26, 0, 4130.256, 4375.385, 4114.359, 4142.564, 4085.641, 0, 0, []
1629046300.3286, 27, 0, 4132.308, 4285.128, 4131.282, 4147.179, 4083.59, 0, 0, []
1629046300.3365, 28, 0, 4112.308, 4139.487, 4119.487, 4148.205, 4073.846, 0, 0, []
1629046300.3443, 29, 0, 4102.051, 4061.538, 4114.359, 4141.538, 4071.282, 0, 0, []
1629046300.3522, 30, 0, 4140.513, 4068.718, 4116.923, 4142.051, 4106.154, 0, 0, []
1629046300.3599, 31, 0, 4196.41, 4062.051, 4131.795, 4149.744, 4156.41, 0, 0, []
1629046300.3678, 32, 0, 4228.205, 4027.179, 4159.487, 4148.718, 4191.282, 0, 0, []
1629046300.3756, 33, 0, 4234.872, 4014.872, 4132.821, 4137.436, 4211.795, 0, 0, []
1629046300.3835, 34, 0, 4237.949, 4027.692, 4138.974, 4142.564, 4218.462, 0, 0, []
1629046300.3913, 35, 0, 4239.487, 4045.128, 4161.538, 4157.949, 4211.795, 0, 0, []
1629046300.3991, 36, 0, 4238.462, 4046.154, 4151.282, 4160, 4203.077, 0, 0, []
1629046300.4069, 37, 0, 4233.846, 4037.436, 4151.795, 4156.41, 4208.205, 0, 0, []
1629046300.4148, 38, 0, 4233.333, 4035.897, 4138.462, 4161.026, 4220.513, 0, 0, []
1629046300.4226, 39, 0, 4238.974, 4030.256, 4149.744, 4168.205, 4217.949, 0, 0, []
1629046300.4304, 40, 0, 4237.949, 4012.308, 4153.846, 4160.513, 4202.564, 0, 0, []
1629046300.4382, 41, 0, 4230.256, 4013.333, 4144.103, 4157.949, 4193.846, 0, 0, []
1629046300.446, 42, 0, 4220, 4029.231, 4167.692, 4167.692, 4189.231, 0, 0, []
1629046300.4539, 43, 0, 4217.436, 4013.333, 4152.821, 4160.513, 4188.718, 0, 0, []
1629046300.4617, 44, 0, 4218.974, 3995.385, 4142.564, 4151.282, 4187.179, 0, 0, []
1629046300.4696, 45, 0, 4209.744, 3991.282, 4146.154, 4151.795, 4172.308, 0, 0, []
1629046300.4773, 46, 0, 4199.487, 3976.923, 4132.308, 4150.769, 4165.128, 0, 0, []
1629046300.4852, 47, 0, 4202.051, 3972.821, 4153.333, 4145.641, 4180, 0, 0, []
1629046300.493, 48, 0, 4203.077, 3983.077, 4151.795, 4142.564, 4187.179, 0, 0, []
1629046300.5009, 49, 0, 4198.974, 3976.41, 4148.205, 4151.795, 4182.051, 0, 0, []
1629046300.5087, 50, 0, 4201.026, 3979.487, 4160.513, 4163.077, 4182.051, 0, 0, []
1629046300.5165, 51, 0, 4205.128, 3996.41, 4151.795, 4162.564, 4185.641, 0, 0, []
1629046300.5243, 52, 0, 4202.051, 3988.205, 4166.154, 4158.974, 4188.718, 0, 0, []
1629046300.5322, 53, 0, 4195.897, 3976.923, 4153.333, 4154.872, 4186.667, 0, 0, []
1629046300.54, 54, 0, 4198.974, 3986.154, 4150.256, 4155.897, 4185.128, 0, 0, []
1629046300.5479, 55, 0, 4205.641, 3992.308, 4172.821, 4153.846, 4186.154, 0, 0, []
1629046300.5556, 56, 0, 4195.897, 3994.359, 4153.846, 4133.333, 4177.436, 0, 0, []
1629046300.5634, 57, 0, 4175.385, 4006.667, 4157.436, 4121.538, 4164.103, 0, 0, []
1629046300.5713, 58, 0, 4173.846, 4014.872, 4163.077, 4131.282, 4165.641, 0, 0, []
1629046300.5791, 59, 0, 4184.103, 4000, 4165.641, 4142.051, 4169.744, 0, 0, []
1629046300.587, 60, 0, 4187.179, 3975.897, 4171.282, 4138.974, 4166.154, 0, 0, []
1629046300.5948, 61, 0, 4190.769, 3975.897, 4148.205, 4131.795, 4168.205, 0, 0, []
1629046300.6026, 62, 0, 4196.41, 3997.949, 4165.128, 4142.051, 4176.41, 0, 0, []
1629046300.6104, 63, 0, 4187.692, 3998.974, 4170.769, 4142.564, 4169.231, 0, 0, []
1629046300.6183, 64, 0, 4171.282, 3995.385, 4157.436, 4126.154, 4151.795, 450, 0, []
1629046300.6261, 65, 0, 4169.231, 3998.974, 4169.744, 4119.487, 4146.154, 450, 0, []
1629046300.6339, 66, 0, 4178.974, 3994.872, 4151.282, 4123.077, 4157.436, 16188, 0, []
1629046300.6417, 67, 0, 4181.538, 4000.513, 4143.59, 4127.692, 4156.41, 450, 0, []
1629046300.6496, 68, 0, 4172.308, 4017.436, 4140.513, 4126.154, 4143.077, 16154, 0, []
1629046300.6574, 69, 0, 4174.872, 4032.821, 4130.769, 4131.282, 4157.949, 450, 0, []
1629046300.6653, 70, 0, 4202.564, 4051.282, 4166.667, 4145.128, 4190.256, 16093, 0, []
1629046300.673, 71, 0, 4213.846, 4061.538, 4175.897, 4144.103, 4195.385, 450, 0, []
1629046300.6809, 72, 0, 4201.538, 4058.974, 4183.59, 4141.026, 4181.026, 450, 0, []
1629046300.6887, 73, 0, 4204.103, 4073.333, 4217.949, 4152.308, 4181.026, 16144, 0, []
1629046300.6966, 74, 0, 4220, 4084.103, 4222.051, 4155.897, 4187.692, 450, 0, []
1629046300.7044, 75, 0, 4218.974, 4070.769, 4229.744, 4144.615, 4187.179, 16208, 0, []
1629046300.7122, 76, 0, 4216.41, 4072.308, 4216.923, 4136.923, 4186.667, 450, 0, []
1629046300.72, 77, 0, 4227.179, 4091.282, 4202.051, 4142.564, 4186.154, 450, 0, []
1629046300.7278, 78, 0, 4234.872, 4118.462, 4201.026, 4151.282, 4193.846, 450, 0, []
1629046300.7357, 79, 0, 4234.872, 4138.974, 4174.872, 4155.385, 4200.513, 16208, 0, []
1629046300.7435, 80, 0, 4231.795, 4127.692, 4174.872, 4154.872, 4192.821, 450, 0, []
1629046300.7513, 81, 0, 4227.692, 4185.641, 4173.333, 4148.205, 4189.231, 450, 0, []
1629046300.7591, 82, 0, 4229.231, 4363.077, 4183.59, 4143.077, 4202.051, 450, 0, []
1629046300.767, 83, 0, 4238.974, 4510.769, 4214.872, 4145.128, 4209.231, 16208, 0, []
1629046300.7748, 84, 0, 4241.026, 4552.308, 4216.41, 4152.821, 4200, 450, 0, []
1629046300.7827, 85, 0, 4235.897, 4569.744, 4213.846, 4165.128, 4198.974, 450, 0, []
1629046300.7904, 86, 0, 4234.872, 4593.846, 4190.256, 4160.513, 4200.513, 450, 0, []
1629046300.7983, 87, 0, 4223.59, 4587.692, 4187.692, 4138.462, 4184.103, 16208, 0, []
1629046300.8061, 88, 0, 4219.487, 4579.487, 4170.769, 4140, 4183.59, 450, 0, []
1629046300.814, 89, 0, 4250.769, 4595.385, 4141.026, 4172.821, 4222.051, 450, 0, []
1629046300.8218, 90, 0, 4296.923, 4597.949, 4199.487, 4200.513, 4264.103, 450, 0, []
1629046300.8296, 91, 0, 4326.667, 4575.385, 4207.692, 4194.359, 4289.231, 16208, 0, []
1629046300.8374, 92, 0, 4352.821, 4555.897, 4183.077, 4188.205, 4307.692, 450, 0, []
1629046300.8453, 93, 0, 4388.718, 4564.103, 4223.59, 4206.667, 4331.282, 450, 0, []
1629046300.8531, 94, 0, 4426.667, 4558.462, 4253.333, 4227.179, 4363.59, 450, 0, []
1629046300.861, 95, 0, 4457.949, 4537.949, 4269.231, 4238.974, 4391.282, 16208, 0, []
1629046300.8687, 96, 0, 4478.462, 4547.179, 4230.769, 4230.256, 4394.359, 450, 0, []
1629046300.8765, 97, 0, 4482.564, 4556.41, 4200, 4215.897, 4386.154, 450, 0, []
1629046300.8844, 98, 0, 4464.103, 4534.872, 4222.564, 4209.744, 4380, 450, 0, []
1629046300.8922, 99, 0, 4440.513, 4523.077, 4220.513, 4204.103, 4370.256, 16208, 0, []
1629046300.9001, 100, 0, 4422.051, 4531.282, 4235.385, 4205.128, 4354.872, 450, 0, []
1629046300.9078, 101, 0, 4398.974, 4516.41, 4230.769, 4199.487, 4342.051, 450, 0, []
1629046300.9157, 102, 0, 4377.436, 4494.872, 4200, 4193.846, 4332.821, 450, 0, []
1629046300.9235, 103, 0, 4358.462, 4508.205, 4204.103, 4202.564, 4321.538, 16208, 0, []
1629046300.9314, 104, 0, 4335.897, 4485.641, 4173.333, 4210.769, 4315.385, 450, 0, []
1629046300.9392, 105, 0, 4311.282, 4353.333, 4149.231, 4215.897, 4314.872, 450, 0, []
1629046300.9471, 106, 0, 4295.385, 4213.333, 4161.026, 4220.513, 4309.744, 450, 0, []
1629046300.9548, 107, 0, 4290.256, 4184.615, 4150.769, 4222.564, 4300.513, 16208, 0, []
1629046300.9627, 108, 0, 4283.59, 4195.385, 4161.538, 4221.026, 4295.897, 450, 0, []
1629046300.9705, 109, 0, 4275.897, 4163.59, 4166.667, 4216.923, 4291.795, 450, 0, []
1629046300.9784, 110, 0, 4274.359, 4133.846, 4173.846, 4226.154, 4293.846, 450, 0, []
1629046300.9862, 111, 0, 4271.282, 4125.641, 4187.692, 4238.974, 4302.051, 16208, 0, []
1629046300.994, 112, 0, 4265.128, 4093.333, 4141.026, 4242.051, 4308.205, 450, 0, []
1629046301.0018, 113, 0, 4266.667, 4033.846, 4177.436, 4258.974, 4312.821, 450, 0, []
1629046301.0097, 114, 0, 4255.385, 3974.872, 4191.282, 4256.41, 4301.026, 450, 0, []
1629046301.0175, 115, 0, 4217.436, 3915.385, 4041.026, 4210.256, 4264.103, 16208, 0, []
1629046301.0254, 116, 0, 4196.923, 3840, 4239.487, 4198.974, 4230.256, 450, 0, []
1629046301.0331, 117, 0, 4200, 3784.103, 4417.949, 4204.103, 4226.154, 450, 0, []
1629046301.041, 118, 0, 4188.205, 3764.103, 4196.923, 4182.564, 4228.718, 450, 0, []
1629046301.0488, 119, 0, 4182.564, 3765.641, 4208.205, 4193.846, 4227.692, 16208, 0, []
1629046301.0566, 120, 0, 4209.231, 3790.256, 4233.846, 4225.641, 4249.231, 450, 0, []
1629046301.0645, 121, 0, 4222.051, 3788.718, 4149.231, 4230.769, 4268.718, 450, 0, []
1629046301.0722, 122, 0, 4199.487, 3763.077, 4155.897, 4206.667, 4254.359, 450, 0, []
1629046301.0801, 123, 0, 4189.231, 3778.462, 4132.308, 4188.718, 4241.026, 16208, 0, []
1629046301.0879, 124, 0, 4205.128, 3815.385, 4153.333, 4205.128, 4251.282, 450, 0, []
1629046301.0958, 125, 0, 4207.692, 3832.821, 4144.103, 4218.462, 4258.462, 450, 0, []
1629046301.1036, 126, 0, 4192.308, 3836.923, 4143.077, 4214.359, 4249.744, 450, 0, []
1629046301.1114, 127, 0, 4184.615, 3846.154, 4132.821, 4202.564, 4242.051, 16208, 0, []
1629046301.1192, 128, 0, 4192.308, 3869.231, 4134.872, 4196.41, 4242.564, 450, 0, []
1629046301.1271, 0, 0, 4212.821, 3911.282, 4168.205, 4204.615, 4254.359, 450, 0, []
1629046301.1349, 1, 0, 4219.487, 3935.385, 4140.513, 4203.077, 4261.538, 450, 0, []
1629046301.1428, 2, 0, 4197.949, 3932.308, 4150.256, 4181.538, 4247.179, 16192, 0, []
1629046301.1505, 3, 0, 4188.205, 3958.974, 4127.179, 4170.769, 4241.538, 450, 0, []
1629046301.1584, 4, 0, 4209.231, 4009.231, 4142.564, 4202.051, 4259.487, 16162, 0, []
1629046301.1662, 5, 0, 4232.308, 4035.385, 4192.308, 4223.59, 4269.231, 450, 0, []
1629046301.1741, 6, 0, 4232.308, 4045.641, 4154.359, 4204.615, 4270.769, 16069, 0, []
1629046301.1819, 7, 0, 4217.436, 4057.436, 4176.923, 4197.436, 4275.385, 450, 0, []
1629046301.1896, 8, 0, 4206.154, 4074.359, 4166.667, 4196.41, 4270.769, 450, 0, []
1629046301.1975, 9, 0, 4210.256, 4085.641, 4151.795, 4195.385, 4263.077, 16144, 0, []
1629046301.2053, 10, 0, 4225.641, 4091.282, 4192.308, 4204.103, 4262.051, 450, 0, []
1629046301.2132, 11, 0, 4239.487, 4112.308, 4163.59, 4215.385, 4266.667, 16203, 0, []
1629046301.221, 12, 0, 4248.205, 4144.615, 4189.744, 4235.385, 4282.051, 450, 0, []
1629046301.2288, 13, 0, 4238.974, 4155.897, 4185.128, 4235.897, 4286.667, 450, 0, []
1629046301.2366, 14, 0, 4211.282, 4152.308, 4147.692, 4214.359, 4260.513, 450, 0, []
1629046301.2445, 15, 0, 4203.077, 4165.128, 4176.923, 4210.256, 4244.615, 16203, 0, []
1629046301.2523, 16, 0, 4218.462, 4174.872, 4157.949, 4212.308, 4252.821, 0, 0, []
1629046301.2602, 17, 0, 4215.897, 4161.026, 4171.282, 4204.103, 4245.128, 0, 0, []
1629046301.2679, 18, 0, 4194.359, 4156.923, 4154.872, 4192.821, 4234.872, 0, 0, []
1629046301.2758, 19, 0, 4197.949, 4163.59, 4130.769, 4200.513, 4247.179, 0, 0, []
1629046301.2836, 20, 0, 4218.974, 4157.949, 4176.923, 4207.692, 4252.821, 0, 0, []
1629046301.2915, 21, 0, 4218.974, 4158.974, 4145.641, 4185.641, 4236.41, 0, 0, []
1629046301.2993, 22, 0, 4210.769, 4169.744, 4152.308, 4178.974, 4229.744, 0, 0, []
1629046301.3071, 23, 0, 4219.487, 4175.385, 4175.897, 4195.897, 4243.077, 0, 0, []
1629046301.3149, 24, 0, 4230.256, 4190.769, 4172.308, 4213.333, 4254.872, 0, 0, []
1629046301.3228, 25, 0, 4226.667, 4209.744, 4195.385, 4215.385, 4251.282, 0, 0, []
1629046301.3306, 26, 0, 4218.462, 4203.59, 4148.205, 4202.051, 4237.949, 0, 0, []
1629046301.3385, 27, 0, 4209.744, 4189.744, 4158.462, 4197.436, 4226.154, 0, 0, []
1629046301.3462, 28, 0, 4192.821, 4200, 4172.308, 4185.641, 4216.41, 0, 0, []
1629046301.3541, 29, 0, 4180, 4214.872, 4141.538, 4175.385, 4215.897, 0, 0, []
1629046301.3619, 30, 0, 4186.667, 4217.949, 4172.308, 4187.692, 4222.564, 0, 0, []
1629046301.3697, 31, 0, 4200, 4220.513, 4140.513, 4189.744, 4222.564, 0, 0, []
1629046301.3776, 32, 0, 4203.59, 4229.744, 4146.667, 4180.513, 4216.923, 0, 0, []
1629046301.3853, 33, 0, 4193.846, 4235.897, 4149.744, 4169.744, 4212.821, 0, 0, []
1629046301.3932, 34, 0, 4177.949, 4243.077, 4111.282, 4163.077, 4203.59, 0, 0, []
1629046301.401, 35, 0, 4183.59, 4263.59, 4169.744, 4175.385, 4192.308, 0, 0, []
1629046301.4089, 36, 0, 4206.667, 4263.59, 4158.974, 4185.128, 4196.923, 0, 0, []
1629046301.4167, 37, 0, 4218.462, 4308.718, 4165.128, 4188.718, 4211.795, 0, 0, []
1629046301.4245, 38, 0, 4219.487, 4477.949, 4192.308, 4189.744, 4218.462, 0, 0, []
1629046301.4323, 39, 0, 4218.974, 4624.103, 4146.667, 4182.564, 4218.974, 0, 0, []
1629046301.4402, 40, 0, 4231.795, 4643.077, 4187.179, 4187.692, 4235.385, 0, 0, []
1629046301.448, 41, 0, 4252.821, 4660.513, 4173.846, 4198.974, 4258.974, 0, 0, []
1629046301.4559, 42, 0, 4248.205, 4705.128, 4147.692, 4195.897, 4245.128, 0, 0, []
1629046301.4636, 43, 0, 4231.795, 4707.179, 4171.795, 4178.462, 4216.41, 0, 0, []
1629046301.4715, 44, 0, 4243.077, 4708.205, 4129.744, 4171.282, 4226.667, 0, 0, []
1629046301.4793, 45, 0, 4264.615, 4713.333, 4147.179, 4166.667, 4241.538, 0, 0, []
1629046301.4872, 46, 0, 4301.026, 4722.051, 4164.103, 4160.513, 4262.564, 0, 0, []
1629046301.495, 47, 0, 4378.462, 4769.744, 4170.256, 4187.692, 4327.179, 0, 0, []
1629046301.5028, 48, 0, 4442.564, 4796.41, 4198.462, 4200, 4375.385, 0, 0, []
1629046301.5106, 49, 0, 4456.923, 4780, 4146.154, 4168.205, 4373.846, 0, 0, []
1629046301.5184, 50, 0, 4466.667, 4778.462, 4156.923, 4161.538, 4369.231, 0, 0, []
1629046301.5263, 51, 0, 4475.385, 4797.949, 4176.923, 4170.769, 4366.667, 0, 0, []
1629046301.5341, 52, 0, 4457.949, 4794.359, 4146.154, 4162.564, 4345.641, 0, 0, []
1629046301.542, 53, 0, 4432.821, 4788.205, 4174.872, 4161.026, 4327.179, 0, 0, []
1629046301.5497, 54, 0, 4412.308, 4800, 4164.615, 4163.077, 4314.359, 0, 0, []
1629046301.5576, 55, 0, 4392.821, 4793.333, 4169.744, 4159.487, 4300, 0, 0, []
1629046301.5654, 56, 0, 4378.462, 4778.462, 4183.59, 4158.462, 4298.462, 0, 0, []
1629046301.5733, 57, 0, 4351.795, 4784.615, 4163.077, 4163.077, 4288.718, 0, 0, []
1629046301.5811, 58, 0, 4315.385, 4783.077, 4182.051, 4160.513, 4258.462, 0, 0, []
1629046301.5889, 59, 0, 4290.769, 4760, 4150.769, 4141.538, 4233.333, 0, 0, []
1629046301.5968, 60, 0, 4282.564, 4760, 4160.513, 4144.615, 4230.769, 0, 0, []
1629046301.6046, 61, 0, 4274.359, 4774.359, 4177.949, 4158.974, 4227.179, 0, 0, []
1629046301.6124, 62, 0, 4249.744, 4761.026, 4130.256, 4146.667, 4203.077, 0, 0, []
1629046301.6203, 63, 0, 4232.821, 4757.436, 4155.897, 4146.154, 4193.846, 0, 0, []
1629046301.628, 64, 0, 4235.897, 4781.026, 4163.59, 4167.179, 4203.077, 450, 0, []
1629046301.6359, 65, 0, 4226.667, 4780, 4160, 4167.179, 4191.282, 450, 0, []
1629046301.6437, 66, 0, 4193.846, 4756.923, 4146.667, 4140.513, 4161.538, 16192, 0, []
1629046301.6516, 67, 0, 4182.564, 4748.718, 4119.487, 4134.872, 4155.897, 450, 0, []
1629046301.6594, 68, 0, 4202.564, 4738.974, 4170.769, 4158.974, 4170.256, 16144, 0, []
1629046301.6671, 69, 0, 4199.487, 4731.795, 4159.487, 4158.974, 4162.564, 450, 0, []
1629046301.675, 70, 0, 4167.179, 4727.692, 4142.564, 4137.949, 4132.308, 312, 0, []
1629046301.6828, 71, 0, 4143.077, 4702.051, 4148.205, 4120, 4106.667, 450, 0, []
1629046301.6907, 72, 0, 4133.333, 4678.462, 4111.795, 4112.308, 4101.026, 450, 0, []
1629046301.6985, 73, 0, 4124.103, 4681.026, 4129.231, 4113.333, 4095.897, 16146, 0, []
1629046301.7063, 74, 0, 4118.974, 4687.179, 4107.179, 4111.282, 4083.59, 450, 0, []
1629046301.7141, 75, 0, 4116.923, 4672.308, 4095.897, 4108.718, 4078.462, 16195, 0, []
1629046301.722, 76, 0, 4106.667, 4662.564, 4117.436, 4102.051, 4085.128, 450, 0, []
1629046301.7298, 77, 0, 4109.231, 4677.436, 4096.923, 4104.103, 4096.923, 450, 0, []
1629046301.7377, 78, 0, 4127.179, 4680, 4134.872, 4120, 4099.487, 450, 0, []
1629046301.7454, 79, 0, 4147.692, 4668.205, 4134.359, 4125.128, 4112.821, 16195, 0, []
1629046301.7533, 80, 0, 4167.692, 4672.308, 4135.897, 4140.513, 4149.231, 450, 0, []
1629046301.7611, 81, 0, 4180, 4693.333, 4178.974, 4168.205, 4174.359, 450, 0, []
1629046301.769, 82, 0, 4174.359, 4709.231, 4137.949, 4170.769, 4166.154, 450, 0, []
1629046301.7768, 83, 0, 4168.718, 4694.872, 4145.641, 4164.103, 4151.795, 16195, 0, []
1629046301.7846, 84, 0, 4171.282, 4674.872, 4151.282, 4160, 4154.359, 450, 0, []
1629046301.7924, 85, 0, 4164.615, 4675.897, 4127.179, 4155.897, 4154.872, 450, 0, []
1629046301.8002, 86, 0, 4156.41, 4680, 4160, 4158.974, 4144.103, 450, 0, []
1629046301.8081, 87, 0, 4150.769, 4669.231, 4133.846, 4154.872, 4125.641, 16195, 0, []
1629046301.816, 88, 0, 4151.282, 4660, 4151.795, 4148.205, 4120.513, 450, 0, []
1629046301.8237, 89, 0, 4166.154, 4656.41, 4169.231, 4151.282, 4138.462, 450, 0, []
1629046301.8315, 90, 0, 4172.821, 4649.744, 4133.846, 4166.667, 4147.692, 450, 0, []
1629046301.8394, 91, 0, 4161.538, 4641.538, 4153.846, 4174.872, 4124.615, 16195, 0, []
1629046301.8472, 92, 0, 4142.051, 4618.974, 4112.308, 4145.128, 4088.718, 450, 0, []
1629046301.8551, 93, 0, 4142.051, 4603.077, 4126.154, 4133.333, 4091.795, 450, 0, []
1629046301.8628, 94, 0, 4168.718, 4637.949, 4177.436, 4160.513, 4133.846, 450, 0, []
1629046301.8707, 95, 0, 4191.795, 4673.846, 4144.615, 4173.333, 4151.282, 16195, 0, []
1629046301.8785, 96, 0, 4185.128, 4647.179, 4170.769, 4166.154, 4130.256, 450, 0, []
1629046301.8864, 97, 0, 4169.744, 4621.026, 4158.974, 4165.641, 4118.974, 450, 0, []
1629046301.8942, 98, 0, 4166.667, 4624.103, 4149.744, 4180.513, 4125.128, 450, 0, []
1629046301.902, 99, 0, 4170.256, 4612.308, 4171.282, 4185.641, 4127.692, 16195, 0, []
1629046301.9098, 100, 0, 4179.487, 4595.385, 4151.282, 4183.59, 4137.949, 450, 0, []
1629046301.9177, 101, 0, 4181.026, 4595.897, 4186.667, 4176.41, 4143.077, 450, 0, []
1629046301.9255, 102, 0, 4156.923, 4595.385, 4158.462, 4136.923, 4119.487, 450, 0, []
1629046301.9334, 103, 0, 4146.154, 4588.718, 4135.897, 4116.923, 4103.59, 16195, 0, []
1629046301.9411, 104, 0, 4178.974, 4594.872, 4181.026, 4153.333, 4126.154, 450, 0, []
1629046301.949, 105, 0, 4200, 4600.513, 4157.436, 4175.897, 4140.513, 450, 0, []
1629046301.9568, 106, 0, 4162.051, 4578.462, 4156.41, 4150.256, 4102.564, 450, 0, []
1629046301.9647, 107, 0, 4143.077, 4554.872, 4142.564, 4144.103, 4085.128, 16195, 0, []
1629046301.9725, 108, 0, 4176.923, 4558.462, 4152.821, 4182.051, 4124.103, 450, 0, []
1629046301.9802, 109, 0, 4176.923, 4565.641, 4175.385, 4187.692, 4127.179, 450, 0, []
1629046301.9881, 110, 0, 4150.769, 4566.667, 4133.333, 4163.59, 4097.436, 450, 0, []
1629046301.9959, 111, 0, 4160.513, 4556.41, 4169.231, 4171.795, 4101.538, 16195, 0, []
1629046302.0038, 112, 0, 4161.538, 4546.667, 4162.564, 4175.897, 4109.744, 450, 0, []
1629046302.0116, 113, 0, 4145.128, 4562.051, 4134.872, 4168.205, 4103.59, 450, 0, []
1629046302.0194, 114, 0, 4158.974, 4553.333, 4162.051, 4165.641, 4109.744, 450, 0, []
1629046302.0272, 115, 0, 4175.897, 4515.385, 4132.821, 4147.692, 4117.949, 16195, 0, []
1629046302.0351, 116, 0, 4162.564, 4520, 4146.154, 4144.103, 4121.538, 450, 0, []
1629046302.0429, 117, 0, 4153.846, 4541.026, 4142.051, 4155.897, 4127.179, 450, 0, []
1629046302.0508, 118, 0, 4148.718, 4506.667, 4121.538, 4147.692, 4109.231, 450, 0, []
1629046302.0585, 119, 0, 4154.359, 4489.744, 4148.718, 4146.667, 4103.077, 16195, 0, []
1629046302.0664, 120, 0, 4172.308, 4514.359, 4135.385, 4168.718, 4132.308, 450, 0, []
1629046302.0742, 121, 0, 4154.872, 4496.923, 4151.282, 4175.385, 4128.718, 450, 0, []
1629046302.0821, 122, 0, 4154.872, 4468.718, 4141.026, 4168.718, 4114.872, 450, 0, []
1629046302.0899, 123, 0, 4195.385, 4450.769, 4123.59, 4172.308, 4129.231, 16195, 0, []
1629046302.0977, 124, 0, 4176.923, 4413.846, 4160.513, 4161.538, 4122.051, 450, 0, []
1629046302.1055, 125, 0, 4121.026, 4398.974, 4134.359, 4146.154, 4107.692, 450, 0, []
1629046302.1134, 126, 0, 4125.128, 4407.692, 4143.59, 4155.897, 4112.308, 450, 0, []
1629046302.1212, 127, 0, 4180.513, 4417.949, 4143.59, 4149.744, 4111.282, 16195, 0, []
1629046302.1291, 128, 0, 4201.026, 4413.333, 4106.154, 4135.385, 4112.308, 450, 0, []
1629046302.1369, 0, 0, 4160, 4386.154, 4155.385, 4159.487, 4130.769, 450, 0, []
1629046302.1446, 1, 0, 4150.769, 4380.513, 4157.949, 4189.231, 4151.795, 450, 0, []
1629046302.1525, 2, 0, 4189.231, 4392.308, 4158.462, 4194.872, 4153.333, 16192, 0, []
1629046302.1603, 3, 0, 4194.359, 4386.154, 4166.154, 4182.564, 4140.513, 450, 0, []
1629046302.1682, 4, 0, 4162.564, 4382.564, 4127.179, 4173.333, 4135.897, 16149, 0, []
1629046302.176, 5, 0, 4172.821, 4399.487, 4166.154, 4180, 4150.256, 450, 0, []
1629046302.1838, 6, 0, 4207.692, 4406.154, 4159.487, 4175.385, 4157.949, 317, 0, []
1629046302.1916, 7, 0, 4197.436, 4400.513, 4143.077, 4168.205, 4147.692, 450, 0, []
1629046302.1995, 8, 0, 4163.59, 4393.333, 4154.872, 4162.564, 4141.538, 450, 0, []
1629046302.2073, 9, 0, 4159.487, 4376.923, 4114.872, 4152.821, 4136.923, 16147, 0, []
1629046302.2152, 10, 0, 4183.077, 4372.821, 4142.564, 4160.513, 4131.282, 450, 0, []
1629046302.2229, 11, 0, 4165.641, 4371.795, 4131.795, 4163.59, 4126.667, 16204, 0, []
1629046302.2308, 12, 0, 4124.103, 4366.154, 4113.333, 4156.923, 4122.051, 450, 0, []
1629046302.2386, 13, 0, 4152.308, 4362.564, 4156.923, 4161.026, 4131.282, 450, 0, []
1629046302.2465, 14, 0, 4224.103, 4358.974, 4151.282, 4170.769, 4160.513, 450, 0, []
1629046302.2543, 15, 0, 4231.795, 4353.846, 4169.744, 4174.359, 4168.205, 16204, 0, []
1629046302.2621, 16, 0, 4144.103, 4335.897, 4138.462, 4151.795, 4129.231, 0, 0, []
1629046302.2699, 17, 0, 4107.692, 4331.795, 4116.923, 4132.821, 4109.744, 0, 0, []
1629046302.2777, 18, 0, 4184.615, 4342.564, 4169.744, 4145.128, 4145.641, 0, 0, []
1629046302.2856, 19, 0, 4230.769, 4343.59, 4151.282, 4152.308, 4168.718, 0, 0, []
1629046302.2934, 20, 0, 4196.923, 4322.051, 4143.59, 4137.949, 4137.436, 0, 0, []
1629046302.3012, 21, 0, 4176.41, 4305.128, 4140, 4133.846, 4127.179, 0, 0, []
1629046302.309, 22, 0, 4199.487, 4320.513, 4160, 4151.795, 4175.385, 0, 0, []
1629046302.3169, 23, 0, 4237.949, 4320, 4192.821, 4157.949, 4209.744, 0, 0, []
1629046302.3247, 24, 0, 4272.821, 4278.462, 4138.462, 4154.872, 4209.231, 0, 0, []
1629046302.3326, 25, 0, 4262.051, 4229.744, 4158.974, 4166.154, 4222.564, 0, 0, []
1629046302.3403, 26, 0, 4220.513, 4211.282, 4162.564, 4155.897, 4220.513, 0, 0, []
1629046302.3482, 27, 0, 4244.103, 4206.154, 4122.051, 4136.923, 4181.026, 0, 0, []
1629046302.356, 28, 0, 4299.487, 4170.256, 4162.564, 4148.718, 4207.179, 0, 0, []
1629046302.3639, 29, 0, 4277.436, 4126.667, 4134.872, 4145.641, 4261.026, 0, 0, []
1629046302.3717, 30, 0, 4269.744, 4029.231, 4146.667, 4138.974, 4256.923, 0, 0, []
1629046302.3795, 31, 0, 4367.179, 3869.744, 4186.154, 4160, 4267.692, 0, 0, []
1629046302.3873, 32, 0, 4411.795, 3728.718, 4142.051, 4158.974, 4290.769, 0, 0, []
1629046302.3952, 33, 0, 4354.359, 3681.538, 4150.256, 4136.923, 4268.205, 0, 0, []
1629046302.403, 34, 0, 4388.205, 3724.615, 4161.538, 4148.718, 4271.282, 0, 0, []
1629046302.4109, 35, 0, 4478.974, 3744.103, 4187.179, 4185.128, 4325.128, 0, 0, []
1629046302.4186, 36, 0, 4447.692, 3742.564, 4183.077, 4176.41, 4342.564, 0, 0, []
1629046302.4265, 37, 0, 4377.436, 3737.949, 4134.872, 4154.359, 4313.846, 0, 0, []
1629046302.4343, 38, 0, 4367.179, 3689.744, 4169.744, 4166.667, 4280.513, 0, 0, []
1629046302.4421, 39, 0, 4323.077, 3619.487, 4137.949, 4148.718, 4236.923, 0, 0, []
1629046302.45, 40, 0, 4267.179, 3588.205, 4107.692, 4118.462, 4212.308, 0, 0, []
1629046302.4577, 41, 0, 4276.923, 3565.128, 4144.615, 4130.769, 4215.385, 0, 0, []
1629046302.4656, 42, 0, 4277.949, 3472.308, 4125.128, 4150.769, 4223.077, 0, 0, []
1629046302.4734, 43, 0, 4256.41, 3402.564, 4154.359, 4164.103, 4229.231, 0, 0, []
1629046302.4813, 44, 0, 4273.333, 3427.692, 4177.949, 4183.59, 4237.949, 0, 0, []
1629046302.4891, 45, 0, 4274.872, 3460.513, 4164.103, 4189.744, 4238.974, 0, 0, []
1629046302.4969, 46, 0, 4261.538, 3453.846, 4172.308, 4187.179, 4235.897, 0, 0, []
1629046302.5047, 47, 0, 4269.744, 3471.282, 4158.974, 4203.59, 4241.538, 0, 0, []
1629046302.5126, 48, 0, 4242.564, 3493.333, 4166.154, 4189.231, 4217.949, 0, 0, []
1629046302.5204, 49, 0, 4192.821, 3481.026, 4134.872, 4137.436, 4176.923, 0, 0, []
1629046302.5283, 50, 0, 4203.077, 3507.179, 4136.41, 4138.974, 4186.667, 0, 0, []
1629046302.536, 51, 0, 4219.487, 3542.051, 4181.026, 4154.359, 4195.385, 0, 0, []
1629046302.5439, 52, 0, 4178.974, 3525.641, 4126.154, 4121.538, 4161.026, 0, 0, []
1629046302.5517, 53, 0, 4147.179, 3515.385, 4122.564, 4104.103, 4145.641, 0, 0, []
1629046302.5596, 54, 0, 4152.308, 3546.154, 4132.308, 4114.872, 4149.744, 0, 0, []
1629046302.5674, 55, 0, 4149.744, 3567.692, 4110.769, 4121.538, 4131.795, 0, 0, []
1629046302.5752, 56, 0, 4164.103, 3584.615, 4144.103, 4129.744, 4140, 0, 0, []
1629046302.5831, 57, 0, 4190.256, 3594.359, 4128.718, 4140.513, 4177.949, 0, 0, []
1629046302.5909, 58, 0, 4164.615, 3572.308, 4135.385, 4143.59, 4168.205, 0, 0, []
1629046302.5988, 59, 0, 4120, 3581.538, 4142.564, 4126.667, 4128.205, 0, 0, []
1629046302.6066, 60, 0, 4132.308, 3618.974, 4137.949, 4132.821, 4141.026, 0, 0, []
1629046302.6144, 61, 0, 4165.641, 3646.667, 4192.308, 4170.256, 4180.513, 0, 0, []
1629046302.6222, 62, 0, 4160.513, 3754.872, 4167.179, 4169.744, 4180, 0, 0, []
1629046302.6301, 63, 0, 4149.231, 3964.615, 4161.538, 4152.308, 4167.692, 0, 0, []
1629046302.6379, 64, 0, 4163.59, 4121.026, 4188.718, 4167.179, 4184.615, 450, 0, []
1629046302.6458, 65, 0, 4178.462, 4175.897, 4160, 4176.923, 4192.821, 450, 0, []
1629046302.6535, 66, 0, 4181.026, 4236.41, 4172.308, 4169.744, 4181.026, 16190, 0, []
1629046302.6614, 67, 0, 4193.333, 4330.256, 4167.692, 4178.462, 4191.795, 450, 0, []
1629046302.6692, 68, 0, 4199.487, 4378.462, 4180, 4186.667, 4204.615, 16165, 0, []
1629046302.6771, 69, 0, 4177.949, 4385.641, 4189.744, 4174.359, 4188.718, 450, 0, []
1629046302.6849, 70, 0, 4171.282, 4407.179, 4151.795, 4177.436, 4186.154, 318, 0, []
1629046302.6927, 71, 0, 4176.923, 4424.615, 4177.436, 4191.795, 4184.615, 450, 0, []
1629046302.7005, 72, 0, 4154.872, 4426.154, 4153.333, 4166.154, 4151.282, 450, 0, []
1629046302.7084, 73, 0, 4145.128, 4437.436, 4142.564, 4149.744, 4142.564, 16150, 0, []
1629046302.7162, 74, 0, 4168.205, 4465.128, 4180.513, 4174.359, 4174.872, 450, 0, []
1629046302.7241, 75, 0, 4168.205, 4475.385, 4149.744, 4182.051, 4175.385, 16197, 0, []
1629046302.7319, 76, 0, 4163.59, 4472.821, 4180.513, 4180.513, 4163.59, 450, 0, []
1629046302.7397, 77, 0, 4189.744, 4480, 4189.231, 4195.385, 4192.308, 450, 0, []
1629046302.7475, 78, 0, 4193.846, 4481.026, 4164.615, 4198.974, 4210.256, 450, 0, []
1629046302.7553, 79, 0, 4182.051, 4486.154, 4178.462, 4186.667, 4201.026, 16197, 0, []
1629046302.7632, 80, 0, 4196.923, 4499.487, 4157.436, 4188.205, 4200.513, 450, 0, []
1629046302.771, 81, 0, 4202.564, 4504.103, 4186.154, 4209.744, 4194.872, 450, 0, []
1629046302.7788, 82, 0, 4196.41, 4512.308, 4188.718, 4221.026, 4189.744, 450, 0, []
1629046302.7866, 83, 0, 4209.231, 4536.923, 4178.974, 4216.41, 4207.179, 16197, 0, []
1629046302.7945, 84, 0, 4216.923, 4545.641, 4207.179, 4212.308, 4214.872, 450, 0, []
1629046302.8023, 85, 0, 4196.41, 4528.205, 4164.615, 4200.513, 4199.487, 450, 0, []
1629046302.8102, 86, 0, 4190.769, 4525.641, 4180, 4197.436, 4199.487, 450, 0, []
1629046302.8179, 87, 0, 4216.41, 4544.615, 4198.462, 4213.846, 4218.462, 16197, 0, []
1629046302.8258, 88, 0, 4207.179, 4537.436, 4171.282, 4223.077, 4210.769, 450, 0, []
1629046302.8336, 89, 0, 4166.667, 4507.692, 4182.051, 4201.538, 4180, 450, 0, []
1629046302.8415, 90, 0, 4164.615, 4513.333, 4160.513, 4193.846, 4185.128, 450, 0, []
1629046302.8493, 91, 0, 4195.897, 4535.385, 4195.385, 4235.897, 4221.538, 16197, 0, []
1629046302.8571, 92, 0, 4194.872, 4536.41, 4199.487, 4234.359, 4218.974, 450, 0, []
1629046302.8649, 93, 0, 4171.795, 4530.769, 4152.821, 4177.436, 4193.333, 450, 0, []
1629046302.8728, 94, 0, 4188.718, 4529.744, 4202.051, 4175.385, 4212.821, 450, 0, []
1629046302.8806, 95, 0, 4212.821, 4535.385, 4197.949, 4210.256, 4247.179, 16197, 0, []
1629046302.8885, 96, 0, 4204.615, 4536.923, 4180.513, 4216.923, 4233.333, 450, 0, []
1629046302.8962, 97, 0, 4201.026, 4529.231, 4187.692, 4215.385, 4214.359, 450, 0, []
1629046302.904, 98, 0, 4215.897, 4532.821, 4176.923, 4225.128, 4232.308, 450, 0, []
1629046302.9119, 99, 0, 4215.385, 4554.872, 4211.795, 4228.205, 4247.179, 16197, 0, []
1629046302.9197, 100, 0, 4200.513, 4550.256, 4180, 4208.205, 4236.923, 450, 0, []
1629046302.9276, 101, 0, 4198.462, 4532.308, 4167.692, 4188.718, 4225.641, 450, 0, []
1629046302.9353, 102, 0, 4206.667, 4547.692, 4187.692, 4183.077, 4228.718, 450, 0, []
1629046302.9432, 103, 0, 4210.256, 4558.462, 4155.897, 4185.641, 4232.308, 16197, 0, []
1629046302.951, 104, 0, 4210.256, 4550.769, 4182.564, 4193.846, 4228.205, 450, 0, []
1629046302.9589, 105, 0, 4213.333, 4559.487, 4176.923, 4201.026, 4234.872, 450, 0, []
1629046302.9667, 106, 0, 4216.41, 4556.923, 4169.231, 4210.769, 4246.667, 450, 0, []
1629046302.9745, 107, 0, 4216.41, 4535.897, 4182.564, 4211.795, 4243.59, 16197, 0, []
1629046302.9823, 108, 0, 4224.103, 4544.103, 4146.154, 4201.538, 4240, 450, 0, []
1629046302.9902, 109, 0, 4243.077, 4557.949, 4170.769, 4193.333, 4250.769, 450, 0, []
1629046302.998, 110, 0, 4267.692, 4549.744, 4160, 4177.949, 4272.308, 450, 0, []
1629046303.0059, 111, 0, 4306.154, 4546.154, 4152.308, 4173.333, 4306.154, 16197, 0, []
1629046303.0136, 112, 0, 4367.179, 4570.769, 4207.692, 4195.897, 4349.231, 450, 0, []
1629046303.0215, 113, 0, 4422.564, 4595.385, 4193.333, 4226.667, 4380, 450, 0, []
1629046303.0293, 114, 0, 4441.538, 4576.923, 4198.974, 4242.564, 4391.795, 450, 0, []
1629046303.0371, 115, 0, 4435.897, 4554.872, 4183.59, 4232.821, 4391.795, 16197, 0, []
1629046303.045, 116, 0, 4423.59, 4564.103, 4167.692, 4221.026, 4379.487, 450, 0, []
1629046303.0527, 117, 0, 4402.564, 4576.923, 4200.513, 4211.795, 4362.051, 450, 0, []
1629046303.0606, 118, 0, 4377.949, 4571.795, 4164.615, 4194.872, 4349.231, 450, 0, []
1629046303.0684, 119, 0, 4344.103, 4545.128, 4165.641, 4178.974, 4316.923, 16197, 0, []
1629046303.0763, 120, 0, 4318.462, 4525.128, 4170.769, 4180, 4291.795, 450, 0, []
1629046303.0841, 121, 0, 4324.615, 4550.256, 4167.692, 4210.769, 4314.359, 450, 0, []
1629046303.0919, 122, 0, 4317.436, 4572.308, 4203.077, 4224.615, 4319.487, 450, 0, []
1629046303.0997, 123, 0, 4293.846, 4554.359, 4170.769, 4216.41, 4295.385, 16197, 0, []
1629046303.1076, 124, 0, 4294.872, 4556.41, 4188.205, 4235.385, 4298.462, 450, 0, []
1629046303.1154, 125, 0, 4288.718, 4567.179, 4200.513, 4237.949, 4301.538, 450, 0, []
1629046303.1233, 126, 0, 4255.897, 4541.026, 4156.41, 4203.59, 4280, 450, 0, []
1629046303.131, 127, 0, 4242.564, 4530.769, 4183.59, 4193.846, 4270.769, 16197, 0, []
1629046303.1389, 128, 0, 4245.128, 4537.436, 4172.308, 4206.667, 4270.256, 450, 0, []
1629046303.1467, 0, 0, 4240.513, 4525.128, 4184.103, 4225.128, 4262.564, 450, 0, []
1629046303.1546, 1, 0, 4236.41, 4532.821, 4206.667, 4233.333, 4255.385, 450, 0, []
1629046303.1624, 2, 0, 4213.333, 4547.179, 4170.256, 4205.641, 4228.718, 16190, 0, []
1629046303.1702, 3, 0, 4188.205, 4528.718, 4190.769, 4183.077, 4204.615, 450, 0, []
1629046303.178, 4, 0, 4178.974, 4511.795, 4169.231, 4182.051, 4204.103, 16156, 0, []
1629046303.1858, 5, 0, 4157.436, 4506.154, 4156.41, 4173.333, 4179.487, 450, 0, []
1629046303.1937, 6, 0, 4143.077, 4495.385, 4177.436, 4170.256, 4157.949, 315, 0, []
1629046303.2016, 7, 0, 4163.077, 4499.487, 4161.026, 4187.692, 4185.641, 450, 0, []
1629046303.2093, 8, 0, 4171.282, 4502.564, 4184.615, 4195.897, 4201.026, 450, 0, []
1629046303.2171, 9, 0, 4152.308, 4485.128, 4153.333, 4176.41, 4174.359, 16148, 0, []
1629046303.225, 10, 0, 4145.128, 4472.308, 4143.077, 4168.718, 4161.026, 450, 0, []
1629046303.2328, 11, 0, 4144.615, 4481.538, 4173.333, 4167.692, 4162.051, 16155, 0, []
1629046303.2407, 12, 0, 4134.872, 4490.256, 4138.974, 4160.513, 4152.308, 450, 0, []
1629046303.2484, 13, 0, 4137.949, 4480.513, 4161.026, 4169.744, 4149.231, 450, 0, []
1629046303.2563, 14, 0, 4150.256, 4475.897, 4163.59, 4173.333, 4159.487, 450, 0, []
1629046303.2641, 15, 0, 4142.564, 4473.846, 4160.513, 4164.615, 4157.949, 16155, 0, []
1629046303.272, 16, 0, 4124.103, 4461.538, 4185.128, 4158.974, 4143.077, 0, 0, []
1629046303.2798, 17, 0, 4126.154, 4460, 4149.744, 4156.923, 4141.538, 0, 0, []
1629046303.2876, 18, 0, 4146.154, 4467.179, 4174.359, 4163.59, 4158.462, 0, 0, []
1629046303.2954, 19, 0, 4148.718, 4463.077, 4171.282, 4160, 4168.718, 0, 0, []
1629046303.3033, 20, 0, 4129.744, 4452.821, 4138.974, 4148.718, 4155.385, 0, 0, []
1629046303.3111, 21, 0, 4113.846, 4458.974, 4164.615, 4153.846, 4135.385, 0, 0, []
1629046303.319, 22, 0, 4110.769, 4462.051, 4146.667, 4161.026, 4127.692, 0, 0, []
1629046303.3268, 23, 0, 4104.103, 4443.077, 4160.513, 4150.769, 4121.026, 0, 0, []
1629046303.3346, 24, 0, 4088.718, 4432.308, 4141.538, 4131.282, 4108.205, 0, 0, []
1629046303.3424, 25, 0, 4089.231, 4446.667, 4112.821, 4139.487, 4104.103, 0, 0, []
1629046303.3503, 26, 0, 4105.641, 4457.949, 4167.692, 4161.538, 4119.487, 0, 0, []
1629046303.3581, 27, 0, 4115.897, 4456.923, 4156.41, 4168.718, 4139.487, 0, 0, []
1629046303.3659, 28, 0, 4130.769, 4471.795, 4171.282, 4188.718, 4155.897, 0, 0, []
1629046303.3737, 29, 0, 4145.128, 4476.41, 4183.077, 4198.974, 4163.59, 0, 0, []
1629046303.3815, 30, 0, 4132.821, 4449.744, 4146.154, 4186.667, 4155.897, 0, 0, []
1629046303.3894, 31, 0, 4111.795, 4438.974, 4170.769, 4181.538, 4141.026, 0, 0, []
1629046303.3972, 32, 0, 4101.026, 4447.692, 4146.154, 4168.205, 4125.641, 0, 0, []
1629046303.4051, 33, 0, 4110.769, 4449.744, 4154.872, 4171.795, 4138.974, 0, 0, []
1629046303.4128, 34, 0, 4144.615, 4459.487, 4195.897, 4207.179, 4181.538, 0, 0, []
1629046303.4207, 35, 0, 4166.154, 4473.846, 4182.051, 4227.179, 4196.41, 0, 0, []
1629046303.4285, 36, 0, 4163.077, 4464.615, 4201.538, 4222.564, 4184.103, 0, 0, []
1629046303.4364, 37, 0, 4157.436, 4451.795, 4168.718, 4208.718, 4184.615, 0, 0, []
1629046303.4442, 38, 0, 4147.179, 4435.385, 4150.769, 4196.41, 4185.128, 0, 0, []
1629046303.452, 39, 0, 4140, 4423.077, 4165.641, 4198.974, 4181.538, 0, 0, []
1629046303.4598, 40, 0, 4148.205, 4434.872, 4146.154, 4208.718, 4186.667, 0, 0, []
1629046303.4677, 41, 0, 4141.538, 4434.872, 4175.385, 4197.436, 4176.41, 0, 0, []
1629046303.4755, 42, 0, 4116.923, 4418.974, 4150.769, 4176.923, 4156.923, 0, 0, []
1629046303.4834, 43, 0, 4120.513, 4418.974, 4144.615, 4188.718, 4162.564, 0, 0, []
1629046303.4911, 44, 0, 4154.359, 4435.897, 4188.205, 4211.795, 4184.103, 0, 0, []
1629046303.499, 45, 0, 4170.769, 4436.923, 4169.231, 4213.333, 4192.308, 0, 0, []
1629046303.5068, 46, 0, 4165.641, 4420.513, 4195.897, 4212.821, 4192.821, 0, 0, []
1629046303.5147, 47, 0, 4174.359, 4424.615, 4203.077, 4224.615, 4210.256, 0, 0, []
1629046303.5225, 48, 0, 4185.641, 4437.949, 4195.385, 4235.385, 4222.051, 0, 0, []
1629046303.5303, 49, 0, 4169.231, 4421.026, 4194.872, 4223.077, 4201.026, 0, 0, []
1629046303.5381, 50, 0, 4149.744, 4397.949, 4142.051, 4203.077, 4186.667, 0, 0, []
1629046303.5459, 51, 0, 4148.205, 4404.615, 4163.59, 4197.949, 4188.205, 0, 0, []
1629046303.5538, 52, 0, 4145.128, 4401.026, 4161.538, 4182.051, 4173.333, 0, 0, []
1629046303.5617, 53, 0, 4145.128, 4383.077, 4147.179, 4177.436, 4169.231, 0, 0, []
1629046303.5695, 54, 0, 4160.513, 4389.744, 4188.205, 4197.949, 4193.846, 0, 0, []
1629046303.5774, 55, 0, 4170.769, 4407.179, 4162.564, 4202.564, 4197.949, 0, 0, []
1629046303.5852, 56, 0, 4170.769, 4410.256, 4184.103, 4203.59, 4183.077, 0, 0, []
1629046303.593, 57, 0, 4167.692, 4398.974, 4195.897, 4206.154, 4190.256, 0, 0, []
1629046303.6009, 58, 0, 4163.077, 4388.205, 4162.564, 4202.564, 4205.641, 0, 0, []
1629046303.6086, 59, 0, 4171.282, 4401.538, 4188.718, 4209.231, 4204.615, 0, 0, []
1629046303.6165, 60, 0, 4166.154, 4407.179, 4161.538, 4204.103, 4184.615, 0, 0, []
1629046303.6243, 61, 0, 4140.513, 4370.256, 4159.487, 4188.718, 4161.026, 0, 0, []
1629046303.6322, 62, 0, 4144.103, 4355.385, 4170.769, 4185.641, 4165.128, 0, 0, []
1629046303.64, 63, 0, 4169.744, 4383.59, 4157.436, 4190.769, 4183.077, 0, 0, []
1629046303.6478, 64, 0, 4166.667, 4388.718, 4190.769, 4185.128, 4177.949, 450, 0, []
1629046303.6556, 65, 0, 4138.462, 4369.744, 4154.872, 4165.128, 4164.103, 450, 0, []
1629046303.6635, 66, 0, 4127.692, 4350.256, 4150.256, 4162.564, 4162.564, 16190, 0, []
1629046303.6713, 67, 0, 4141.538, 4341.538, 4168.718, 4176.923, 4168.718, 450, 0, []
1629046303.6791, 68, 0, 4157.949, 4358.462, 4139.487, 4185.641, 4176.923, 16152, 0, []
1629046303.6869, 69, 0, 4155.385, 4361.538, 4169.231, 4183.077, 4183.077, 450, 0, []
1629046303.6947, 70, 0, 4143.077, 4346.154, 4163.077, 4179.487, 4184.615, 312, 0, []
1629046303.7026, 71, 0, 4150.256, 4360.513, 4178.974, 4196.923, 4185.641, 450, 0, []
1629046303.7104, 72, 0, 4164.103, 4378.974, 4197.949, 4201.538, 4186.154, 450, 0, []
1629046303.7183, 73, 0, 4169.231, 4358.462, 4154.872, 4184.103, 4190.769, 16147, 0, []
1629046303.726, 74, 0, 4175.897, 4343.077, 4182.051, 4188.205, 4204.103, 450, 0, []
1629046303.7339, 75, 0, 4174.872, 4360.513, 4176.41, 4198.462, 4203.077, 16195, 0, []
1629046303.7417, 76, 0, 4161.026, 4365.641, 4166.154, 4202.564, 4184.615, 450, 0, []
1629046303.7496, 77, 0, 4151.282, 4355.385, 4172.308, 4197.436, 4177.436, 450, 0, []
1629046303.7574, 78, 0, 4151.282, 4342.564, 4123.59, 4184.103, 4183.59, 450, 0, []
1629046303.7652, 79, 0, 4154.359, 4331.282, 4157.436, 4187.692, 4184.615, 16195, 0, []
1629046303.773, 80, 0, 4165.128, 4345.641, 4175.385, 4202.564, 4189.231, 450, 0, []
1629046303.7809, 81, 0, 4170.256, 4353.333, 4158.462, 4198.462, 4186.667, 450, 0, []
1629046303.7887, 82, 0, 4155.385, 4324.103, 4167.692, 4171.795, 4167.179, 450, 0, []
1629046303.7966, 83, 0, 4156.923, 4320, 4144.103, 4163.59, 4171.795, 16195, 0, []
1629046303.8043, 84, 0, 4174.872, 4333.846, 4173.333, 4180, 4191.282, 450, 0, []
1629046303.8122, 85, 0, 4168.718, 4313.846, 4154.872, 4177.436, 4183.59, 450, 0, []
1629046303.82, 86, 0, 4170.256, 4305.641, 4132.821, 4183.077, 4185.128, 450, 0, []
1629046303.8278, 87, 0, 4186.667, 4321.026, 4177.436, 4202.051, 4202.051, 16195, 0, []
1629046303.8357, 88, 0, 4169.744, 4306.154, 4140.513, 4189.744, 4187.692, 450, 0, []
1629046303.8434, 89, 0, 4148.718, 4284.615, 4139.487, 4172.821, 4164.103, 450, 0, []
1629046303.8513, 90, 0, 4156.923, 4293.333, 4146.154, 4165.128, 4161.538, 450, 0, []
1629046303.8591, 91, 0, 4158.974, 4290.256, 4131.282, 4153.333, 4164.615, 16195, 0, []
1629046303.867, 92, 0, 4157.436, 4285.128, 4173.333, 4161.026, 4174.872, 450, 0, []
1629046303.8748, 93, 0, 4175.385, 4307.179, 4164.103, 4185.641, 4191.795, 450, 0, []
1629046303.8826, 94, 0, 4178.462, 4308.205, 4172.308, 4189.744, 4186.667, 450, 0, []
1629046303.8904, 95, 0, 4169.231, 4285.641, 4171.282, 4172.308, 4180.513, 16195, 0, []
1629046303.8983, 96, 0, 4172.308, 4273.333, 4150.256, 4174.359, 4197.949, 450, 0, []
1629046303.9061, 97, 0, 4172.821, 4276.41, 4185.641, 4187.179, 4200.513, 450, 0, []
1629046303.914, 98, 0, 4176.41, 4282.564, 4160.513, 4177.949, 4184.615, 450, 0, []
1629046303.9218, 99, 0, 4182.051, 4278.462, 4164.103, 4171.282, 4178.974, 16195, 0, []
1629046303.9296, 100, 0, 4176.41, 4269.744, 4176.41, 4173.333, 4185.641, 450, 0, []
1629046303.9374, 101, 0, 4169.231, 4274.872, 4144.103, 4170.769, 4186.154, 450, 0, []
1629046303.9453, 102, 0, 4171.282, 4278.974, 4178.462, 4165.128, 4174.359, 450, 0, []
1629046303.9531, 103, 0, 4181.538, 4270.256, 4165.641, 4159.487, 4176.41, 16195, 0, []
1629046303.961, 104, 0, 4184.615, 4266.667, 4157.949, 4158.462, 4194.359, 450, 0, []
1629046303.9687, 105, 0, 4176.41, 4266.154, 4171.795, 4157.949, 4198.974, 450, 0, []
1629046303.9766, 106, 0, 4191.282, 4276.41, 4150.769, 4176.923, 4203.59, 450, 0, []
1629046303.9844, 107, 0, 4229.744, 4301.026, 4194.872, 4210.256, 4228.205, 16195, 0, []
1629046303.9922, 108, 0, 4237.949, 4307.692, 4182.051, 4204.103, 4240, 450, 0, []
1629046304.0001, 109, 0, 4223.59, 4299.487, 4173.333, 4190.256, 4234.872, 450, 0, []
1629046304.0078, 110, 0, 4224.103, 4292.821, 4198.974, 4198.462, 4233.333, 450, 0, []
1629046304.0157, 111, 0, 4216.923, 4272.821, 4144.103, 4181.538, 4216.41, 16195, 0, []
1629046304.0235, 112, 0, 4202.051, 4255.897, 4150.256, 4156.923, 4192.821, 450, 0, []
1629046304.0314, 113, 0, 4202.564, 4270.256, 4160.513, 4164.103, 4200.513, 450, 0, []
1629046304.0392, 114, 0, 4202.564, 4277.436, 4150.256, 4174.872, 4206.154, 450, 0, []
1629046304.047, 115, 0, 4198.462, 4258.974, 4164.103, 4165.128, 4188.718, 16195, 0, []
1629046304.0548, 116, 0, 4200, 4260, 4140, 4158.462, 4184.615, 450, 0, []
1629046304.0627, 117, 0, 4188.205, 4267.179, 4163.077, 4158.974, 4181.026, 450, 0, []
1629046304.0705, 118, 0, 4165.641, 4246.154, 4146.667, 4149.744, 4166.154, 450, 0, []
1629046304.0784, 119, 0, 4172.821, 4233.333, 4131.282, 4161.538, 4170.769, 16195, 0, []
1629046304.0861, 120, 0, 4192.821, 4247.692, 4176.41, 4182.564, 4186.154, 450, 0, []
1629046304.094, 121, 0, 4188.205, 4261.026, 4146.667, 4179.487, 4185.128, 450, 0, []
1629046304.1018, 122, 0, 4183.59, 4264.103, 4161.538, 4180.513, 4182.564, 450, 0, []
1629046304.1097, 123, 0, 4186.154, 4260, 4164.103, 4169.744, 4183.077, 16195, 0, []
1629046304.1175, 124, 0, 4177.436, 4248.205, 4131.282, 4149.231, 4171.282, 450, 0, []
1629046304.1253, 125, 0, 4187.692, 4254.359, 4176.41, 4169.231, 4174.359, 450, 0, []
1629046304.1331, 126, 0, 4213.846, 4278.974, 4168.718, 4196.41, 4196.923, 450, 0, []
1629046304.1409, 127, 0, 4213.333, 4275.385, 4171.282, 4195.897, 4201.538, 16195, 0, []
1629046304.1488, 128, 0, 4197.949, 4256.923, 4173.846, 4190.769, 4191.795, 450, 0, []
1629046304.1566, 0, 0, 4196.41, 4260.513, 4153.333, 4195.385, 4192.821, 450, 0, []
1629046304.1644, 1, 0, 4208.718, 4274.872, 4193.333, 4206.154, 4200, 450, 0, []
1629046304.1722, 2, 0, 4217.949, 4271.282, 4175.897, 4211.795, 4204.615, 16190, 0, []
1629046304.1801, 3, 0, 4212.308, 4258.974, 4176.41, 4207.692, 4209.744, 450, 0, []
1629046304.1879, 4, 0, 4215.897, 4273.333, 4192.821, 4205.128, 4217.949, 16152, 0, []
1629046304.1958, 5, 0, 4228.718, 4286.154, 4169.744, 4216.41, 4224.615, 450, 0, []
1629046304.2035, 6, 0, 4224.103, 4264.615, 4192.308, 4221.538, 4215.385, 317, 0, []
1629046304.2114, 7, 0, 4214.359, 4252.308, 4160, 4198.462, 4197.949, 450, 0, []
1629046304.2192, 8, 0, 4230.256, 4251.795, 4150.769, 4189.231, 4202.051, 450, 0, []
1629046304.2271, 9, 0, 4268.718, 4250.256, 4180.513, 4215.385, 4242.051, 16147, 0, []
1629046304.2349, 10, 0, 4310.256, 4264.615, 4163.077, 4233.846, 4288.718, 450, 0, []
1629046304.2427, 11, 0, 4335.897, 4262.051, 4180.513, 4215.897, 4302.051, 16202, 0, []
1629046304.2505, 12, 0, 4355.385, 4241.538, 4151.795, 4191.282, 4305.128, 450, 0, []
1629046304.2584, 13, 0, 4397.949, 4253.333, 4150.769, 4201.026, 4329.231, 450, 0, []
1629046304.2662, 14, 0, 4443.59, 4269.744, 4192.308, 4216.923, 4353.333, 450, 0, []
1629046304.2741, 15, 0, 4451.795, 4252.308, 4173.333, 4216.41, 4354.872, 16202, 0, []
1629046304.2818, 16, 0, 4437.949, 4246.667, 4200.513, 4224.103, 4346.154, 0, 0, []
1629046304.2898, 17, 0, 4416.41, 4260, 4176.923, 4221.026, 4334.872, 0, 0, []
1629046304.2977, 18, 0, 4375.385, 4250.769, 4144.615, 4199.487, 4306.154, 0, 0, []
1629046304.3055, 19, 0, 4346.154, 4237.949, 4180, 4190.256, 4282.051, 0, 0, []
1629046304.3134, 20, 0, 4338.462, 4240, 4157.436, 4188.718, 4273.846, 0, 0, []
1629046304.3211, 21, 0, 4318.974, 4245.128, 4169.231, 4185.128, 4254.872, 0, 0, []
1629046304.329, 22, 0, 4297.436, 4254.359, 4171.282, 4183.077, 4242.564, 0, 0, []
1629046304.3368, 23, 0, 4297.436, 4237.436, 4161.026, 4193.333, 4251.795, 0, 0, []
1629046304.3447, 24, 0, 4295.897, 4211.282, 4182.051, 4200.513, 4254.359, 0, 0, []
1629046304.3525, 25, 0, 4280, 4228.718, 4149.231, 4190.256, 4241.538, 0, 0, []
1629046304.3603, 26, 0, 4263.59, 4230.769, 4174.872, 4187.692, 4224.103, 0, 0, []
1629046304.3681, 27, 0, 4242.051, 4198.974, 4172.821, 4176.41, 4199.487, 0, 0, []
1629046304.376, 28, 0, 4229.231, 4209.744, 4137.949, 4169.231, 4190.256, 0, 0, []
1629046304.3838, 29, 0, 4235.385, 4227.179, 4174.359, 4183.077, 4205.128, 0, 0, []
1629046304.3917, 30, 0, 4232.308, 4210.256, 4150.769, 4178.974, 4206.667, 0, 0, []
1629046304.3994, 31, 0, 4229.231, 4212.821, 4166.154, 4172.308, 4197.436, 0, 0, []
1629046304.4073, 32, 0, 4236.41, 4227.179, 4187.692, 4180, 4198.974, 0, 0, []
1629046304.4151, 33, 0, 4221.026, 4209.744, 4152.821, 4175.897, 4191.282, 0, 0, []
1629046304.423, 34, 0, 4186.667, 4185.641, 4170.769, 4162.564, 4166.154, 0, 0, []
1629046304.4308, 35, 0, 4182.051, 4191.282, 4153.846, 4164.615, 4158.974, 0, 0, []
1629046304.4386, 36, 0, 4193.333, 4200, 4153.333, 4172.821, 4162.564, 0, 0, []
1629046304.4464, 37, 0, 4184.615, 4191.282, 4148.205, 4158.462, 4153.333, 0, 0, []
1629046304.4544, 38, 0, 4175.897, 4192.821, 4116.923, 4150.256, 4152.308, 0, 0, []
1629046304.4623, 39, 0, 4184.615, 4203.59, 4164.615, 4170.769, 4167.179, 0, 0, []
1629046304.4703, 40, 0, 4194.359, 4200.513, 4162.051, 4180.513, 4177.949, 0, 0, []
1629046304.4781, 41, 0, 4202.051, 4195.897, 4169.231, 4179.487, 4182.051, 0, 0, []
1629046304.4859, 42, 0, 4205.641, 4198.462, 4190.769, 4183.077, 4188.718, 0, 0, []
1629046304.4938, 43, 0, 4195.385, 4193.846, 4158.974, 4188.205, 4191.795, 0, 0, []
1629046304.5016, 44, 0, 4189.744, 4200.513, 4187.179, 4189.231, 4188.205, 0, 0, []
1629046304.5096, 45, 0, 4184.103, 4212.308, 4167.179, 4166.154, 4176.923, 0, 0, []
1629046304.5175, 46, 0, 4172.821, 4191.795, 4155.385, 4151.282, 4165.641, 0, 0, []
1629046304.5254, 47, 0, 4166.667, 4174.872, 4180, 4157.949, 4160, 0, 0, []
1629046304.5333, 48, 0, 4159.487, 4178.974, 4143.077, 4158.462, 4151.795, 0, 0, []
1629046304.5413, 49, 0, 4161.538, 4181.538, 4171.282, 4169.231, 4151.282, 0, 0, []
1629046304.5492, 50, 0, 4169.744, 4180, 4166.667, 4176.41, 4160, 0, 0, []
1629046304.5572, 51, 0, 4157.949, 4173.846, 4136.41, 4155.385, 4155.385, 0, 0, []
1629046304.565, 52, 0, 4143.077, 4178.462, 4159.487, 4140, 4143.077, 0, 0, []
1629046304.573, 53, 0, 4162.564, 4190.256, 4151.282, 4157.949, 4155.897, 0, 0, []
1629046304.5809, 54, 0, 4178.462, 4186.667, 4174.872, 4167.179, 4165.641, 0, 0, []
1629046304.5889, 55, 0, 4158.462, 4176.923, 4152.308, 4143.077, 4150.256, 0, 0, []
1629046304.5969, 56, 0, 4148.718, 4160.513, 4122.051, 4141.538, 4140, 0, 0, []
1629046304.6047, 57, 0, 4163.59, 4149.231, 4162.564, 4165.128, 4151.795, 0, 0, []
1629046304.6127, 58, 0, 4173.846, 4162.051, 4148.718, 4167.179, 4166.154, 0, 0, []
1629046304.6206, 59, 0, 4165.641, 4166.154, 4156.41, 4159.487, 4170.769, 0, 0, []
1629046304.6286, 60, 0, 4156.41, 4166.667, 4154.872, 4155.385, 4170.769, 0, 0, []
1629046304.6365, 61, 0, 4156.923, 4182.564, 4146.154, 4158.974, 4169.231, 0, 0, []
1629046304.6444, 62, 0, 4157.949, 4168.718, 4179.487, 4165.641, 4168.205, 0, 0, []
1629046304.6523, 63, 0, 4156.41, 4144.103, 4138.974, 4159.487, 4168.718, 0, 0, []
1629046304.6603, 64, 0, 4156.41, 4156.41, 4147.179, 4156.41, 4167.692, 450, 0, []
1629046304.6682, 65, 0, 4156.923, 4166.667, 4168.718, 4157.949, 4162.564, 450, 0, []
1629046304.6762, 66, 0, 4151.795, 4146.667, 4143.077, 4160, 4160.513, 16190, 0, []
1629046304.684, 67, 0, 4157.949, 4145.128, 4169.744, 4167.692, 4173.846, 450, 0, []
1629046304.692, 68, 0, 4171.282, 4163.077, 4148.718, 4170.256, 4185.641, 16154, 0, []
1629046304.6999, 69, 0, 4161.538, 4155.385, 4154.359, 4160, 4168.718, 450, 0, []
1629046304.7079, 70, 0, 4141.026, 4147.692, 4168.718, 4140.513, 4144.103, 315, 0, []
1629046304.7158, 71, 0, 4145.641, 4165.128, 4147.692, 4149.231, 4151.795, 450, 0, []
1629046304.7237, 72, 0, 4151.795, 4169.744, 4183.077, 4170.769, 4157.436, 450, 0, []
1629046304.7316, 73, 0, 4122.051, 4141.026, 4139.487, 4140, 4122.051, 16147, 0, []
1629046304.7396, 74, 0, 4103.59, 4118.974, 4121.538, 4108.205, 4104.103, 450, 0, []
1629046304.7476, 75, 0, 4129.744, 4141.538, 4171.795, 4136.923, 4144.615, 16205, 0, []
1629046304.7555, 76, 0, 4151.795, 4173.333, 4163.077, 4165.641, 4173.846, 450, 0, []
1629046304.7633, 77, 0, 4156.41, 4163.59, 4179.487, 4161.026, 4165.128, 450, 0, []
1629046304.7713, 78, 0, 4170.256, 4147.692, 4173.333, 4163.077, 4177.949, 450, 0, []
1629046304.7793, 79, 0, 4175.385, 4155.897, 4184.103, 4181.026, 4200.513, 16205, 0, []
1629046304.7872, 80, 0, 4160, 4153.333, 4197.436, 4180, 4186.667, 450, 0, []
1629046304.7952, 81, 0, 4153.846, 4147.179, 4149.231, 4166.667, 4165.641, 450, 0, []
1629046304.803, 82, 0, 4152.308, 4155.385, 4171.795, 4156.923, 4166.667, 450, 0, []
1629046304.811, 83, 0, 4136.923, 4166.154, 4155.385, 4137.436, 4173.333, 16205, 0, []
1629046304.8189, 84, 0, 4134.872, 4175.385, 4126.667, 4132.821, 4168.205, 450, 0, []
1629046304.8269, 85, 0, 4155.897, 4178.974, 4161.538, 4151.282, 4164.103, 450, 0, []
1629046304.8348, 86, 0, 4170.256, 4168.718, 4152.821, 4161.026, 4181.026, 450, 0, []
1629046304.8427, 87, 0, 4171.795, 4147.692, 4189.231, 4170.256, 4200, 16205, 0, []
1629046304.8506, 88, 0, 4172.308, 4151.795, 4199.487, 4180, 4198.974, 450, 0, []
1629046304.8586, 89, 0, 4179.487, 4184.615, 4183.077, 4185.641, 4194.872, 450, 0, []
1629046304.8665, 90, 0, 4184.615, 4192.308, 4199.487, 4182.564, 4194.359, 450, 0, []
1629046304.8745, 91, 0, 4175.897, 4184.615, 4162.051, 4166.667, 4186.667, 16205, 0, []
1629046304.8823, 92, 0, 4161.538, 4197.436, 4178.974, 4157.436, 4177.436, 450, 0, []
1629046304.8903, 93, 0, 4153.333, 4198.462, 4176.923, 4148.205, 4172.308, 450, 0, []
1629046304.8982, 94, 0, 4159.487, 4181.538, 4152.308, 4151.795, 4172.308, 450, 0, []
1629046304.906, 95, 0, 4181.026, 4185.128, 4202.051, 4178.974, 4188.718, 16205, 0, []
1629046304.914, 96, 0, 4188.718, 4198.974, 4178.974, 4195.897, 4207.692, 450, 0, []
1629046304.9218, 97, 0, 4167.692, 4204.615, 4170.256, 4194.359, 4195.385, 450, 0, []
1629046304.9298, 98, 0, 4149.231, 4207.179, 4170.256, 4181.538, 4166.667, 450, 0, []
1629046304.9377, 99, 0, 4149.744, 4198.462, 4142.051, 4163.59, 4154.359, 16205, 0, []
1629046304.9457, 100, 0, 4156.923, 4190.769, 4169.744, 4157.949, 4165.128, 450, 0, []
1629046304.9536, 101, 0, 4178.462, 4206.154, 4154.359, 4170.256, 4188.718, 450, 0, []
1629046304.9616, 102, 0, 4198.462, 4208.718, 4176.41, 4191.282, 4202.564, 450, 0, []
1629046304.9694, 103, 0, 4191.795, 4193.846, 4200.513, 4194.359, 4198.462, 16205, 0, []
1629046304.9774, 104, 0, 4187.179, 4193.846, 4172.308, 4195.897, 4198.974, 450, 0, []
1629046304.9853, 105, 0, 4211.282, 4201.026, 4210.769, 4220, 4217.949, 450, 0, []
1629046304.9933, 106, 0, 4225.641, 4199.487, 4200, 4226.667, 4225.128, 450, 0, []
1629046305.0012, 107, 0, 4203.59, 4228.205, 4190.256, 4214.359, 4201.538, 16205, 0, []
1629046305.0091, 108, 0, 4181.538, 4299.487, 4194.872, 4204.103, 4181.026, 450, 0, []
1629046305.017, 109, 0, 4184.103, 4341.538, 4156.923, 4195.385, 4190.769, 450, 0, []
1629046305.025, 110, 0, 4201.538, 4337.436, 4190.256, 4206.154, 4211.795, 450, 0, []
1629046305.0329, 111, 0, 4217.436, 4347.692, 4183.077, 4222.051, 4222.051, 16205, 0, []
1629046305.0409, 112, 0, 4218.974, 4367.179, 4174.359, 4221.026, 4217.436, 450, 0, []
1629046305.0487, 113, 0, 4213.333, 4365.641, 4199.487, 4209.231, 4202.051, 450, 0, []
1629046305.0565, 114, 0, 4209.744, 4348.205, 4171.282, 4209.231, 4204.103, 450, 0, []
1629046305.0645, 115, 0, 4202.564, 4334.359, 4192.308, 4213.333, 4217.436, 16205, 0, []
1629046305.0724, 116, 0, 4194.359, 4355.385, 4179.487, 4201.538, 4211.795, 450, 0, []
1629046305.0804, 117, 0, 4220, 4387.179, 4177.436, 4206.667, 4220.513, 450, 0, []
1629046305.0882, 118, 0, 4272.821, 4379.487, 4217.436, 4221.538, 4263.59, 450, 0, []
1629046305.0962, 119, 0, 4299.487, 4365.128, 4170.769, 4210.256, 4284.615, 16205, 0, []
1629046305.1041, 120, 0, 4298.462, 4354.359, 4163.077, 4192.821, 4272.308, 450, 0, []
1629046305.1121, 121, 0, 4323.59, 4337.436, 4159.487, 4188.718, 4289.744, 450, 0, []
1629046305.12, 122, 0, 4378.462, 4343.077, 4160.513, 4201.538, 4328.718, 450, 0, []
1629046305.1279, 123, 0, 4403.59, 4352.821, 4195.385, 4204.103, 4334.359, 16205, 0, []
1629046305.1358, 124, 0, 4403.59, 4335.897, 4159.487, 4191.282, 4329.744, 450, 0, []
1629046305.1438, 125, 0, 4422.564, 4337.436, 4179.487, 4203.59, 4347.179, 450, 0, []
1629046305.1517, 126, 0, 4424.103, 4357.436, 4187.692, 4207.692, 4345.641, 450, 0, []
1629046305.1597, 127, 0, 4374.872, 4334.359, 4149.231, 4178.974, 4309.231, 16205, 0, []
1629046305.1675, 128, 0, 4350.769, 4316.923, 4177.436, 4181.538, 4300.513, 450, 0, []
1629046305.1754, 0, 0, 4373.846, 4338.462, 4168.205, 4211.795, 4326.154, 450, 0, []
1629046305.1834, 1, 0, 4360.513, 4328.205, 4171.282, 4207.692, 4306.667, 450, 0, []
1629046305.1913, 2, 0, 4321.026, 4307.692, 4171.795, 4182.564, 4264.103, 16190, 0, []
1629046305.1993, 3, 0, 4319.487, 4330.256, 4163.59, 4188.205, 4267.179, 450, 0, []
1629046305.2071, 4, 0, 4324.103, 4349.744, 4198.974, 4204.103, 4279.487, 16154, 0, []
1629046305.2151, 5, 0, 4298.974, 4332.308, 4163.59, 4192.308, 4266.154, 450, 0, []
1629046305.223, 6, 0, 4277.436, 4314.872, 4175.385, 4187.179, 4257.949, 314, 0, []
1629046305.231, 7, 0, 4276.41, 4323.077, 4198.974, 4191.282, 4258.974, 450, 0, []
1629046305.2389, 8, 0, 4279.487, 4332.308, 4163.59, 4192.821, 4256.923, 450, 0, []
1629046305.2468, 9, 0, 4264.103, 4303.59, 4184.103, 4193.333, 4244.615, 16147, 0, []
1629046305.2547, 10, 0, 4232.821, 4281.538, 4160.513, 4176.923, 4212.821, 450, 0, []
1629046305.2627, 11, 0, 4211.795, 4303.077, 4170.256, 4168.718, 4191.282, 16207, 0, []
1629046305.2706, 12, 0, 4205.128, 4315.385, 4201.026, 4176.41, 4194.872, 450, 0, []
1629046305.2786, 13, 0, 4197.949, 4300.513, 4160.513, 4176.923, 4193.846, 450, 0, []
1629046305.2864, 14, 0, 4196.923, 4298.974, 4185.641, 4176.923, 4187.179, 450, 0, []
1629046305.2944, 15, 0, 4211.282, 4311.795, 4188.718, 4178.462, 4203.59, 16207, 0, []
1629046305.3023, 16, 0, 4216.41, 4302.564, 4176.41, 4181.026, 4218.974, 0, 0, []
1629046305.3103, 17, 0, 4206.667, 4289.744, 4176.41, 4179.487, 4208.205, 0, 0, []
1629046305.3182, 18, 0, 4206.667, 4293.846, 4135.385, 4180, 4201.538, 0, 0, []
1629046305.3259, 19, 0, 4208.718, 4281.538, 4155.385, 4173.333, 4196.41, 0, 0, []
1629046305.3338, 20, 0, 4188.205, 4262.051, 4145.128, 4147.179, 4170.256, 0, 0, []
1629046305.3416, 21, 0, 4176.923, 4275.385, 4152.308, 4150.769, 4156.41, 0, 0, []
1629046305.3495, 22, 0, 4198.974, 4309.744, 4212.821, 4188.718, 4181.026, 0, 0, []
1629046305.3573, 23, 0, 4203.077, 4312.308, 4188.718, 4194.359, 4198.974, 0, 0, []
1629046305.3652, 24, 0, 4186.154, 4285.128, 4196.41, 4170.256, 4194.359, 0, 0, []
1629046305.3729, 25, 0, 4189.231, 4283.59, 4190.769, 4160, 4204.615, 0, 0, []
1629046305.3809, 26, 0, 4193.333, 4300, 4168.718, 4165.641, 4207.692, 0, 0, []
1629046305.3888, 27, 0, 4173.333, 4296.41, 4191.282, 4167.179, 4180.513, 0, 0, []
1629046305.3968, 28, 0, 4146.154, 4276.923, 4156.41, 4157.949, 4153.846, 0, 0, []
1629046305.4047, 29, 0, 4133.333, 4264.103, 4167.692, 4154.872, 4149.744, 0, 0, []
1629046305.4126, 30, 0, 4136.923, 4266.154, 4173.846, 4158.974, 4158.462, 0, 0, []
1629046305.4205, 31, 0, 4140, 4267.692, 4145.641, 4154.359, 4150.769, 0, 0, []
1629046305.4285, 32, 0, 4124.615, 4262.051, 4162.564, 4135.897, 4122.564, 0, 0, []
1629046305.4364, 33, 0, 4113.846, 4257.436, 4138.462, 4122.564, 4112.308, 0, 0, []
1629046305.4444, 34, 0, 4126.154, 4260.513, 4163.59, 4143.077, 4122.564, 0, 0, []
1629046305.4522, 35, 0, 4144.615, 4270.769, 4180.513, 4165.128, 4134.872, 0, 0, []
1629046305.4602, 36, 0, 4161.026, 4268.718, 4162.564, 4174.359, 4157.949, 0, 0, []
1629046305.4681, 37, 0, 4169.231, 4256.41, 4204.103, 4185.641, 4185.641, 0, 0, []
1629046305.4761, 38, 0, 4170.256, 4262.051, 4174.359, 4180.513, 4197.949, 0, 0, []
1629046305.484, 39, 0, 4175.385, 4284.615, 4164.615, 4174.359, 4198.974, 0, 0, []
1629046305.4917, 40, 0, 4175.897, 4281.538, 4176.923, 4168.718, 4192.308, 0, 0, []
1629046305.4996, 41, 0, 4164.103, 4253.333, 4152.308, 4162.051, 4184.103, 0, 0, []
1629046305.5074, 42, 0, 4168.205, 4251.282, 4192.821, 4178.974, 4195.385, 0, 0, []
1629046305.5153, 43, 0, 4185.641, 4273.846, 4178.974, 4188.205, 4207.692, 0, 0, []
1629046305.5231, 44, 0, 4181.538, 4270.256, 4172.308, 4174.359, 4194.872, 0, 0, []
1629046305.5309, 45, 0, 4169.744, 4248.718, 4204.103, 4168.718, 4187.692, 0, 0, []
1629046305.5387, 46, 0, 4167.179, 4244.615, 4193.333, 4181.026, 4195.385, 0, 0, []
1629046305.5467, 47, 0, 4168.718, 4255.385, 4214.872, 4185.641, 4194.872, 0, 0, []
1629046305.5546, 48, 0, 4185.641, 4274.359, 4181.026, 4177.949, 4205.641, 0, 0, []
1629046305.5625, 49, 0, 4197.436, 4272.821, 4160.513, 4176.923, 4220.513, 0, 0, []
1629046305.5703, 50, 0, 4179.487, 4250.256, 4173.846, 4169.231, 4208.718, 0, 0, []
1629046305.5782, 51, 0, 4164.103, 4244.103, 4141.538, 4167.179, 4192.821, 0, 0, []
1629046305.586, 52, 0, 4173.846, 4252.821, 4178.974, 4183.59, 4195.385, 0, 0, []
1629046305.594, 53, 0, 4169.231, 4253.333, 4169.744, 4172.821, 4188.718, 0, 0, []
1629046305.6019, 54, 0, 4141.538, 4241.026, 4140, 4144.103, 4165.641, 0, 0, []
1629046305.6098, 55, 0, 4139.487, 4238.974, 4167.179, 4149.744, 4165.128, 0, 0, []
1629046305.6177, 56, 0, 4166.154, 4242.051, 4142.564, 4163.077, 4182.564, 0, 0, []
1629046305.6257, 57, 0, 4176.923, 4235.897, 4161.538, 4157.949, 4185.641, 0, 0, []
1629046305.6336, 58, 0, 4166.667, 4232.308, 4170.769, 4161.026, 4189.744, 0, 0, []
1629046305.6414, 59, 0, 4167.692, 4232.821, 4172.821, 4187.179, 4208.718, 0, 0, []
1629046305.6492, 60, 0, 4176.923, 4232.821, 4198.974, 4201.538, 4211.795, 0, 0, []
1629046305.657, 61, 0, 4171.795, 4234.359, 4149.744, 4184.615, 4188.205, 0, 0, []
1629046305.6649, 62, 0, 4167.692, 4236.41, 4161.026, 4180.513, 4179.487, 0, 0, []
1629046305.6727, 63, 0, 4172.821, 4237.436, 4168.205, 4181.538, 4192.308, 0, 0, []
1629046305.6806, 64, 0, 4167.179, 4246.154, 4142.564, 4164.103, 4186.667, 450, 0, []
1629046305.6883, 65, 0, 4153.333, 4236.923, 4171.795, 4146.154, 4162.564, 450, 0, []
1629046305.6963, 66, 0, 4147.692, 4211.282, 4146.667, 4144.615, 4157.949, 16190, 0, []
1629046305.7042, 67, 0, 4143.59, 4218.462, 4156.923, 4156.923, 4163.59, 450, 0, []
1629046305.7122, 68, 0, 4136.41, 4240, 4165.641, 4157.436, 4153.846, 16154, 0, []
1629046305.7201, 69, 0, 4142.051, 4233.333, 4134.872, 4156.923, 4147.179, 450, 0, []
1629046305.728, 70, 0, 4152.308, 4228.718, 4163.59, 4171.282, 4155.385, 238, 0, []
1629046305.7359, 71, 0, 4152.821, 4255.897, 4148.718, 4176.923, 4164.103, 450, 0, []
1629046305.7439, 72, 0, 4151.282, 4253.846, 4157.949, 4179.487, 4167.692, 450, 0, []
1629046305.7518, 73, 0, 4150.769, 4220, 4172.821, 4183.077, 4169.231, 16147, 0, []
1629046305.7598, 74, 0, 4161.026, 4228.718, 4161.026, 4188.205, 4180.513, 450, 0, []
1629046305.7677, 75, 0, 4178.462, 4253.333, 4211.795, 4200, 4195.897, 16207, 0, []
1629046305.7756, 76, 0, 4177.436, 4242.051, 4193.333, 4204.103, 4190.256, 450, 0, []
1629046305.7835, 77, 0, 4166.667, 4229.231, 4184.103, 4206.667, 4186.667, 450, 0, []
1629046305.7913, 78, 0, 4171.282, 4236.41, 4197.436, 4204.103, 4205.128, 450, 0, []
1629046305.7992, 79, 0, 4176.41, 4235.897, 4154.872, 4193.333, 4201.026, 16207, 0, []
1629046305.807, 80, 0, 4189.744, 4245.128, 4191.795, 4208.718, 4193.333, 450, 0, []
1629046305.8148, 81, 0, 4216.41, 4272.821, 4205.641, 4233.333, 4225.128, 450, 0, []
1629046305.8226, 82, 0, 4224.103, 4264.615, 4201.026, 4242.564, 4246.667, 450, 0, []
1629046305.8305, 83, 0, 4215.897, 4248.718, 4209.231, 4240.513, 4232.821, 16207, 0, []
1629046305.8383, 84, 0, 4210.256, 4263.077, 4167.692, 4233.846, 4222.564, 450, 0, []
1629046305.8463, 85, 0, 4201.538, 4258.974, 4182.051, 4224.103, 4209.231, 450, 0, []
1629046305.8541, 86, 0, 4192.308, 4238.974, 4170.256, 4213.333, 4184.615, 450, 0, []
1629046305.8621, 87, 0, 4190.256, 4238.462, 4158.974, 4218.462, 4185.128, 16207, 0, []
1629046305.87, 88, 0, 4185.641, 4229.744, 4185.128, 4227.179, 4202.051, 450, 0, []
1629046305.878, 89, 0, 4183.077, 4222.564, 4152.308, 4222.051, 4199.487, 450, 0, []
1629046305.8859, 90, 0, 4188.718, 4236.41, 4170.256, 4214.872, 4184.615, 450, 0, []
1629046305.8938, 91, 0, 4184.615, 4232.308, 4157.949, 4194.872, 4173.846, 16207, 0, []
1629046305.9017, 92, 0, 4174.872, 4213.333, 4136.923, 4178.462, 4172.821, 450, 0, []
1629046305.9097, 93, 0, 4183.59, 4219.487, 4183.59, 4185.641, 4180.513, 450, 0, []
1629046305.9176, 94, 0, 4198.462, 4239.487, 4164.615, 4193.333, 4186.667, 450, 0, []
1629046305.9256, 95, 0, 4207.692, 4247.692, 4177.949, 4195.897, 4188.205, 16207, 0, []
1629046305.9334, 96, 0, 4226.154, 4257.949, 4187.692, 4206.667, 4208.718, 450, 0, []
1629046305.9412, 97, 0, 4251.795, 4266.154, 4177.436, 4234.359, 4241.538, 450, 0, []
1629046305.9491, 98, 0, 4259.487, 4254.872, 4216.41, 4251.795, 4250.769, 450, 0, []
1629046305.9569, 99, 0, 4257.436, 4250.256, 4195.897, 4242.564, 4247.179, 16207, 0, []
1629046305.9648, 100, 0, 4265.641, 4265.641, 4213.846, 4245.641, 4249.231, 450, 0, []
1629046305.9725, 101, 0, 4260, 4273.333, 4221.026, 4251.282, 4243.077, 450, 0, []
1629046305.9804, 102, 0, 4239.487, 4251.795, 4179.487, 4233.333, 4229.231, 450, 0, []
1629046305.9882, 103, 0, 4251.282, 4231.795, 4207.692, 4220.513, 4242.051, 16207, 0, []
1629046305.9962, 104, 0, 4291.282, 4238.974, 4193.333, 4213.333, 4278.974, 450, 0, []
1629046306.0041, 105, 0, 4326.667, 4235.385, 4195.897, 4209.744, 4310.769, 450, 0, []
1629046306.012, 106, 0, 4371.795, 4223.077, 4209.744, 4215.385, 4348.718, 450, 0, []
1629046306.02, 107, 0, 4424.103, 4233.333, 4188.718, 4230.769, 4394.872, 16207, 0, []
1629046306.0279, 108, 0, 4450.256, 4251.795, 4221.538, 4247.692, 4420, 450, 0, []
1629046306.0359, 109, 0, 4450.256, 4243.59, 4201.026, 4246.154, 4423.077, 450, 0, []
1629046306.0438, 110, 0, 4432.821, 4215.897, 4191.282, 4242.564, 4415.897, 450, 0, []
1629046306.0517, 111, 0, 4401.538, 4209.231, 4201.538, 4244.615, 4408.205, 16207, 0, []
1629046306.0596, 112, 0, 4368.205, 4212.308, 4174.359, 4249.231, 4402.564, 450, 0, []
1629046306.0676, 113, 0, 4323.077, 4193.333, 4203.59, 4257.436, 4380.513, 450, 0, []
1629046306.0755, 114, 0, 4255.897, 4184.615, 4184.615, 4252.308, 4333.846, 450, 0, []
1629046306.0835, 115, 0, 4201.538, 4198.462, 4179.487, 4252.821, 4295.385, 16207, 0, []
1629046306.0913, 116, 0, 4173.333, 4192.821, 4203.077, 4253.846, 4273.333, 450, 0, []
1629046306.0993, 117, 0, 4150.769, 4168.205, 4161.538, 4236.41, 4253.333, 450, 0, []
1629046306.1072, 118, 0, 4134.359, 4164.615, 4192.821, 4229.231, 4241.538, 450, 0, []
1629046306.1152, 119, 0, 4131.282, 4167.692, 4208.718, 4238.462, 4235.385, 16207, 0, []
1629046306.1231, 120, 0, 4131.795, 4152.308, 4202.051, 4245.128, 4222.564, 450, 0, []
1629046306.131, 121, 0, 4123.59, 4143.077, 4215.385, 4232.821, 4214.872, 450, 0, []
1629046306.1389, 122, 0, 4117.949, 4130.256, 4173.846, 4214.359, 4217.949, 450, 0, []
1629046306.1469, 123, 0, 4118.462, 4083.59, 4193.333, 4218.974, 4209.744, 16207, 0, []
1629046306.1549, 124, 0, 4120.513, 4042.051, 4200.513, 4222.051, 4200.513, 450, 0, []
1629046306.1628, 125, 0, 4124.103, 4015.897, 4190.769, 4220.513, 4210.256, 450, 0, []
1629046306.1708, 126, 0, 4127.179, 3995.897, 4216.41, 4230.769, 4217.436, 450, 0, []
1629046306.1786, 127, 0, 4128.718, 3988.205, 4180, 4226.154, 4212.821, 16207, 0, []
1629046306.1866, 128, 0, 4134.359, 3938.974, 4193.846, 4210.769, 4211.282, 450, 0, []
1629046306.1945, 0, 0, 4142.051, 3824.615, 4200.513, 4204.103, 4218.974, 450, 0, []
1629046306.2025, 1, 0, 4141.538, 3731.282, 4176.41, 4204.615, 4215.897, 450, 0, []
1629046306.2104, 2, 0, 4136.41, 3705.641, 4203.59, 4208.718, 4205.128, 16190, 0, []
1629046306.2183, 3, 0, 4138.462, 3689.231, 4175.897, 4214.359, 4203.077, 450, 0, []
1629046306.2262, 4, 0, 4137.436, 3645.128, 4181.026, 4216.923, 4198.974, 16163, 0, []
1629046306.2342, 5, 0, 4125.128, 3577.949, 4184.615, 4198.462, 4185.641, 450, 0, []
1629046306.2421, 6, 0, 4114.872, 3488.205, 4154.359, 4174.359, 4172.308, 294, 0, []
1629046306.2501, 7, 0, 4121.026, 3391.795, 4193.846, 4170.256, 4167.179, 450, 0, []
1629046306.2579, 8, 0, 4133.846, 3278.462, 4186.667, 4173.846, 4178.974, 450, 0, []
1629046306.2659, 9, 0, 4138.974, 3133.846, 4199.487, 4186.154, 4200, 16147, 0, []
1629046306.2738, 10, 0, 4144.103, 3017.436, 4217.949, 4187.179, 4202.051, 450, 0, []
1629046306.2818, 11, 0, 4151.795, 2975.385, 4188.205, 4178.974, 4194.872, 16207, 0, []
1629046306.2898, 12, 0, 4150.256, 2935.385, 4213.333, 4186.154, 4195.385, 450, 0, []
1629046306.2976, 13, 0, 4138.462, 2854.359, 4188.205, 4182.051, 4188.718, 450, 0, []
1629046306.3056, 14, 0, 4136.41, 2787.179, 4180.513, 4171.795, 4180.513, 450, 0, []
1629046306.3135, 15, 0, 4148.718, 2726.667, 4195.385, 4170.256, 4184.103, 16207, 0, []
1629046306.3215, 16, 0, 4159.487, 2615.897, 4168.205, 4173.846, 4193.333, 0, 0, []
1629046306.3294, 17, 0, 4157.949, 2500.513, 4197.436, 4182.051, 4194.872, 0, 0, []
1629046306.3373, 18, 0, 4149.231, 2370.769, 4172.308, 4180.513, 4184.615, 0, 0, []
1629046306.3452, 19, 0, 4151.282, 2113.846, 4161.538, 4177.436, 4178.462, 0, 0, []
1629046306.3532, 20, 0, 4162.564, 1837.436, 4201.026, 4176.41, 4189.231, 0, 0, []
1629046306.3611, 21, 0, 4175.897, 1744.615, 4182.051, 4182.051, 4206.154, 0, 0, []
1629046306.3691, 22, 0, 4184.103, 1751.795, 4213.333, 4201.538, 4216.41, 0, 0, []
1629046306.3769, 23, 0, 4187.179, 1728.205, 4202.564, 4206.154, 4221.538, 0, 0, []
1629046306.3849, 24, 0, 4188.718, 1717.949, 4174.872, 4200, 4217.949, 0, 0, []
1629046306.3928, 25, 0, 4183.077, 1745.128, 4203.59, 4212.308, 4214.359, 0, 0, []
1629046306.4008, 26, 0, 4178.462, 1757.436, 4178.974, 4224.103, 4219.487, 0, 0, []
1629046306.4087, 27, 0, 4182.051, 1756.41, 4189.744, 4217.949, 4214.872, 0, 0, []
1629046306.4166, 28, 0, 4186.667, 1775.385, 4188.205, 4197.436, 4204.103, 0, 0, []
1629046306.4245, 29, 0, 4180, 1791.795, 4178.462, 4184.615, 4203.59, 0, 0, []
1629046306.4325, 30, 0, 4174.872, 1792.821, 4206.154, 4183.077, 4207.179, 0, 0, []
1629046306.4404, 31, 0, 4170.769, 1818.974, 4171.282, 4176.41, 4201.026, 0, 0, []
1629046306.4484, 32, 0, 4168.718, 1854.359, 4198.974, 4181.538, 4194.872, 0, 0, []
1629046306.4563, 33, 0, 4181.538, 1876.41, 4222.564, 4192.821, 4203.59, 0, 0, []
1629046306.4642, 34, 0, 4185.128, 1916.41, 4190.256, 4192.308, 4209.231, 0, 0, []
1629046306.4722, 35, 0, 4166.154, 1957.436, 4199.487, 4180.513, 4194.872, 0, 0, []
1629046306.4801, 36, 0, 4155.897, 1980, 4177.436, 4177.436, 4183.59, 0, 0, []
1629046306.4881, 37, 0, 4170.256, 2016.41, 4209.231, 4198.462, 4194.872, 0, 0, []
1629046306.4959, 38, 0, 4175.385, 2042.564, 4216.923, 4198.974, 4204.103, 0, 0, []
1629046306.5039, 39, 0, 4155.385, 2049.744, 4171.795, 4178.974, 4189.231, 0, 0, []
1629046306.5118, 40, 0, 4140.513, 2080, 4195.897, 4171.795, 4173.846, 0, 0, []
1629046306.5198, 41, 0, 4146.667, 2117.436, 4177.436, 4169.744, 4183.077, 0, 0, []
1629046306.5277, 42, 0, 4167.692, 2137.949, 4193.333, 4185.641, 4207.179, 0, 0, []
1629046306.5357, 43, 0, 4180, 2161.026, 4213.333, 4202.051, 4220.513, 0, 0, []
1629046306.5435, 44, 0, 4170.769, 2186.667, 4166.154, 4182.564, 4210.769, 0, 0, []
1629046306.5515, 45, 0, 4162.564, 2220, 4186.154, 4162.051, 4195.897, 0, 0, []
1629046306.5594, 46, 0, 4177.436, 2256.41, 4185.641, 4173.333, 4205.641, 0, 0, []
1629046306.5673, 47, 0, 4186.667, 2268.718, 4191.282, 4188.205, 4221.026, 0, 0, []
1629046306.5753, 48, 0, 4175.897, 2281.026, 4198.462, 4176.923, 4217.949, 0, 0, []
1629046306.5832, 49, 0, 4176.41, 2306.154, 4167.692, 4175.897, 4213.846, 0, 0, []
1629046306.5911, 50, 0, 4190.769, 2315.385, 4210.769, 4198.974, 4221.026, 0, 0, []
1629046306.5991, 51, 0, 4185.128, 2340.513, 4195.385, 4202.051, 4219.487, 0, 0, []
1629046306.607, 52, 0, 4169.231, 2390.769, 4172.821, 4192.821, 4202.564, 0, 0, []
1629046306.615, 53, 0, 4175.897, 2422.564, 4190.769, 4185.128, 4196.923, 0, 0, []
1629046306.6229, 54, 0, 4182.051, 2436.923, 4154.359, 4173.846, 4201.538, 0, 0, []
1629046306.6308, 55, 0, 4171.795, 2453.846, 4188.205, 4179.487, 4200, 0, 0, []
1629046306.6388, 56, 0, 4167.692, 2476.41, 4179.487, 4183.59, 4196.41, 0, 0, []
1629046306.6467, 57, 0, 4175.385, 2492.308, 4150.256, 4186.667, 4199.487, 0, 0, []
1629046306.6547, 58, 0, 4180.513, 2510.769, 4197.436, 4195.897, 4202.564, 0, 0, []
1629046306.6625, 59, 0, 4179.487, 2536.41, 4177.436, 4190.256, 4204.615, 0, 0, []
1629046306.6705, 60, 0, 4175.897, 2558.462, 4184.615, 4185.128, 4205.128, 0, 0, []
1629046306.6784, 61, 0, 4181.026, 2588.718, 4180.513, 4183.59, 4207.692, 0, 0, []
1629046306.6864, 62, 0, 4196.923, 2623.59, 4166.667, 4191.282, 4221.538, 0, 0, []
1629046306.6943, 63, 0, 4202.051, 2648.205, 4204.103, 4207.692, 4231.282, 0, 0, []
1629046306.7022, 64, 0, 4195.897, 2668.718, 4166.667, 4205.128, 4227.692, 450, 0, []
1629046306.7101, 65, 0, 4196.41, 2701.538, 4175.385, 4203.077, 4226.667, 450, 0, []
1629046306.7181, 66, 0, 4212.308, 2737.949, 4199.487, 4220.513, 4247.692, 16190, 0, []
1629046306.726, 67, 0, 4232.308, 2758.462, 4187.179, 4234.359, 4266.667, 450, 0, []
1629046306.734, 68, 0, 4227.692, 2773.333, 4194.872, 4218.462, 4251.282, 16186, 0, []
1629046306.7418, 69, 0, 4196.923, 2786.667, 4148.205, 4191.795, 4225.128, 450, 0, []
1629046306.7498, 70, 0, 4177.436, 2798.974, 4167.692, 4190.256, 4215.385, 309, 0, []
1629046306.7578, 71, 0, 4184.615, 2816.41, 4185.128, 4190.256, 4215.897, 450, 0, []
1629046306.7657, 72, 0, 4182.564, 2833.846, 4161.538, 4190.256, 4214.872, 450, 0, []
1629046306.7737, 73, 0, 4171.795, 2854.359, 4193.333, 4207.179, 4212.308, 16146, 0, []
1629046306.7815, 74, 0, 4177.436, 2885.128, 4169.231, 4220, 4219.487, 450, 0, []
1629046306.7895, 75, 0, 4186.154, 2901.538, 4176.41, 4219.487, 4230.769, 16207, 0, []
1629046306.7974, 76, 0, 4188.718, 2914.359, 4192.308, 4202.051, 4231.282, 450, 0, []
1629046306.8054, 77, 0, 4206.154, 2953.846, 4174.872, 4195.897, 4237.949, 450, 0, []
1629046306.8133, 78, 0, 4225.641, 2982.564, 4220.513, 4211.795, 4253.333, 450, 0, []
1629046306.8212, 79, 0, 4214.872, 2992.821, 4200, 4213.333, 4256.41, 16207, 0, []
1629046306.8291, 80, 0, 4203.077, 3017.949, 4192.821, 4218.974, 4257.436, 450, 0, []
1629046306.8371, 81, 0, 4212.308, 3037.949, 4210.256, 4232.308, 4263.077, 450, 0, []
1629046306.845, 82, 0, 4211.282, 3041.538, 4174.872, 4227.692, 4261.026, 450, 0, []
1629046306.853, 83, 0, 4200.513, 3058.974, 4195.897, 4212.821, 4247.692, 16207, 0, []
1629046306.8608, 84, 0, 4209.231, 3087.179, 4178.974, 4198.974, 4241.026, 450, 0, []
1629046306.8688, 85, 0, 4229.744, 3104.615, 4175.385, 4202.564, 4248.718, 450, 0, []
1629046306.8767, 86, 0, 4236.923, 3120.513, 4206.154, 4214.359, 4263.59, 450, 0, []
1629046306.8847, 87, 0, 4229.231, 3140, 4174.359, 4215.897, 4268.205, 16207, 0, []
1629046306.8926, 88, 0, 4215.385, 3137.949, 4194.359, 4215.385, 4255.385, 450, 0, []
1629046306.9003, 89, 0, 4211.795, 3141.026, 4189.231, 4212.821, 4253.846, 450, 0, []
1629046306.9083, 90, 0, 4210.769, 3181.026, 4176.923, 4210.769, 4263.077, 450, 0, []
1629046306.9162, 91, 0, 4208.718, 3218.462, 4200.513, 4209.231, 4264.615, 16207, 0, []
1629046306.9242, 92, 0, 4211.282, 3223.59, 4168.718, 4202.564, 4256.41, 450, 0, []
1629046306.9321, 93, 0, 4204.615, 3224.103, 4185.128, 4198.974, 4242.051, 450, 0, []
1629046306.9401, 94, 0, 4191.282, 3234.872, 4182.564, 4200, 4238.462, 450, 0, []
1629046306.9479, 95, 0, 4185.641, 3235.897, 4169.231, 4209.231, 4237.436, 16207, 0, []
1629046306.9559, 96, 0, 4186.667, 3245.128, 4197.436, 4216.923, 4231.795, 450, 0, []
1629046306.9638, 97, 0, 4185.128, 3284.615, 4167.179, 4217.436, 4238.462, 450, 0, []
1629046306.9718, 98, 0, 4183.59, 3310.256, 4188.718, 4215.385, 4247.692, 450, 0, []
1629046306.9797, 99, 0, 4175.897, 3301.026, 4190.256, 4188.718, 4231.282, 16207, 0, []
1629046306.9876, 100, 0, 4163.59, 3303.59, 4162.051, 4165.128, 4212.821, 450, 0, []
1629046306.9955, 101, 0, 4175.385, 3347.692, 4198.462, 4187.179, 4226.667, 450, 0, []
1629046307.0035, 102, 0, 4197.436, 3374.872, 4174.872, 4211.795, 4242.051, 450, 0, []
1629046307.0114, 103, 0, 4190.256, 3349.231, 4180, 4207.692, 4232.308, 16207, 0, []
1629046307.0194, 104, 0, 4171.795, 3361.026, 4184.615, 4191.795, 4227.179, 450, 0, []
1629046307.0272, 105, 0, 4176.923, 3419.487, 4160.513, 4189.231, 4236.41, 450, 0, []
1629046307.0352, 106, 0, 4188.718, 3431.795, 4200, 4192.308, 4234.872, 450, 0, []
1629046307.0431, 107, 0, 4195.385, 3421.538, 4180, 4178.974, 4233.846, 16207, 0, []
1629046307.0509, 108, 0, 4205.128, 3443.59, 4187.179, 4173.846, 4247.179, 450, 0, []
1629046307.0588, 109, 0, 4208.205, 3476.41, 4210.256, 4190.256, 4255.897, 450, 0, []
1629046307.0665, 110, 0, 4203.077, 3497.949, 4188.205, 4213.333, 4251.795, 450, 0, []
1629046307.0745, 111, 0, 4202.051, 3505.128, 4215.385, 4226.667, 4243.59, 16207, 0, []
1629046307.0824, 112, 0, 4200, 3513.333, 4181.538, 4215.897, 4241.026, 450, 0, []
1629046307.0904, 113, 0, 4197.436, 3530.769, 4174.359, 4211.795, 4246.667, 450, 0, []
1629046307.0983, 114, 0, 4209.231, 3533.846, 4204.103, 4215.385, 4247.692, 450, 0, []
1629046307.1062, 115, 0, 4216.923, 3531.795, 4174.359, 4208.718, 4237.949, 16207, 0, []
1629046307.1141, 116, 0, 4202.564, 3553.846, 4185.641, 4200, 4225.641, 450, 0, []
1629046307.1221, 117, 0, 4188.205, 3574.872, 4156.923, 4193.846, 4218.974, 450, 0, []
1629046307.13, 118, 0, 4197.949, 3591.795, 4164.103, 4209.231, 4224.615, 450, 0, []
1629046307.138, 119, 0, 4208.205, 3616.923, 4208.205, 4219.487, 4234.359, 16207, 0, []
1629046307.1458, 120, 0, 4196.923, 3620, 4169.744, 4207.692, 4234.359, 450, 0, []
1629046307.1538, 121, 0, 4189.231, 3619.487, 4189.744, 4212.308, 4236.923, 450, 0, []
1629046307.1617, 122, 0, 4190.769, 3639.487, 4184.103, 4207.692, 4235.385, 450, 0, []
1629046307.1697, 123, 0, 4189.231, 3637.949, 4163.077, 4189.231, 4218.974, 16207, 0, []
1629046307.1776, 124, 0, 4187.179, 3636.923, 4187.179, 4187.179, 4212.308, 450, 0, []
1629046307.1855, 125, 0, 4182.051, 3668.718, 4151.282, 4185.128, 4217.436, 450, 0, []
1629046307.1934, 126, 0, 4174.359, 3676.41, 4169.744, 4180, 4211.282, 450, 0, []
1629046307.2012, 127, 0, 4173.333, 3667.692, 4172.308, 4178.974, 4207.692, 16207, 0, []
1629046307.2091, 128, 0, 4175.385, 3684.103, 4153.333, 4179.487, 4211.795, 450, 0, []
1629046307.2169, 0, 0, 4164.615, 3699.487, 4175.897, 4172.308, 4204.103, 450, 0, []
1629046307.2247, 1, 0, 4159.487, 3711.795, 4136.923, 4161.026, 4192.821, 450, 0, []
1629046307.2325, 2, 0, 4173.846, 3733.333, 4166.667, 4168.718, 4196.41, 16190, 0, []
1629046307.2405, 3, 0, 4190.256, 3748.718, 4195.897, 4185.128, 4215.385, 450, 0, []
1629046307.2484, 4, 0, 4187.179, 3753.846, 4171.795, 4193.333, 4227.692, 16169, 0, []
1629046307.2564, 5, 0, 4172.821, 3764.103, 4191.282, 4191.795, 4215.385, 450, 0, []
1629046307.2642, 6, 0, 4175.385, 3784.103, 4164.615, 4186.154, 4208.718, 310, 0, []
1629046307.2722, 7, 0, 4185.128, 3797.436, 4175.897, 4186.667, 4215.897, 450, 0, []
1629046307.2801, 8, 0, 4175.385, 3790.769, 4173.333, 4175.385, 4205.641, 450, 0, []
1629046307.2881, 9, 0, 4158.462, 3775.897, 4141.538, 4169.744, 4187.179, 16146, 0, []
1629046307.296, 10, 0, 4166.667, 3784.103, 4186.667, 4189.231, 4196.923, 450, 0, []
1629046307.3039, 11, 0, 4185.128, 3812.308, 4169.231, 4197.436, 4223.077, 16205, 0, []
1629046307.3118, 12, 0, 4178.462, 3834.359, 4170.256, 4189.744, 4228.205, 450, 0, []
1629046307.3198, 13, 0, 4169.744, 3848.718, 4189.231, 4181.538, 4217.949, 450, 0, []
1629046307.3277, 14, 0, 4181.538, 3860, 4172.308, 4186.667, 4218.974, 450, 0, []
1629046307.3357, 15, 0, 4189.744, 3858.974, 4203.59, 4201.538, 4228.718, 16205, 0, []
1629046307.3436, 16, 0, 4175.385, 3843.077, 4159.487, 4195.385, 4225.128, 0, 0, []
1629046307.3513, 17, 0, 4164.615, 3848.205, 4146.154, 4189.231, 4207.692, 0, 0, []
1629046307.3592, 18, 0, 4173.846, 3882.564, 4182.564, 4196.41, 4203.59, 0, 0, []
1629046307.367, 19, 0, 4169.744, 3898.462, 4150.769, 4181.026, 4199.487, 0, 0, []
1629046307.375, 20, 0, 4149.744, 3887.692, 4161.026, 4147.692, 4180.513, 0, 0, []
1629046307.3829, 21, 0, 4158.462, 3908.718, 4156.923, 4144.615, 4183.077, 0, 0, []
1629046307.3907, 22, 0, 4194.359, 3951.795, 4175.897, 4180.513, 4213.846, 0, 0, []
1629046307.3985, 23, 0, 4196.41, 3954.359, 4198.974, 4190.769, 4221.026, 0, 0, []
1629046307.4065, 24, 0, 4159.487, 3938.974, 4144.103, 4161.538, 4195.385, 0, 0, []
1629046307.4144, 25, 0, 4138.462, 3951.282, 4156.41, 4150.769, 4170.256, 0, 0, []
1629046307.4224, 26, 0, 4149.744, 3975.385, 4157.436, 4157.436, 4167.179, 0, 0, []
1629046307.4302, 27, 0, 4165.128, 3976.923, 4153.846, 4160, 4185.641, 0, 0, []
1629046307.4382, 28, 0, 4169.744, 3967.179, 4180.513, 4156.41, 4202.051, 0, 0, []
1629046307.4461, 29, 0, 4176.41, 3977.436, 4160.513, 4164.615, 4205.641, 0, 0, []
1629046307.4541, 30, 0, 4183.59, 4002.051, 4194.872, 4187.692, 4203.59, 0, 0, []
1629046307.462, 31, 0, 4184.103, 4011.795, 4177.949, 4188.718, 4204.103, 0, 0, []
1629046307.4699, 32, 0, 4180.513, 4007.179, 4144.103, 4178.974, 4207.179, 0, 0, []
1629046307.4778, 33, 0, 4173.846, 4021.026, 4185.641, 4176.923, 4203.077, 0, 0, []
1629046307.4856, 34, 0, 4164.615, 4044.615, 4157.436, 4166.667, 4190.256, 0, 0, []
1629046307.4935, 35, 0, 4154.359, 4036.923, 4155.385, 4161.538, 4173.333, 0, 0, []
1629046307.5013, 36, 0, 4151.282, 4025.128, 4161.538, 4166.667, 4170.769, 0, 0, []
1629046307.5091, 37, 0, 4153.333, 4037.436, 4153.846, 4171.282, 4177.949, 0, 0, []
1629046307.5169, 38, 0, 4165.641, 4060, 4189.744, 4170.769, 4182.564, 0, 0, []
1629046307.5248, 39, 0, 4185.641, 4078.974, 4161.026, 4173.846, 4195.385, 0, 0, []
1629046307.5326, 40, 0, 4192.308, 4079.487, 4176.41, 4179.487, 4206.667, 0, 0, []
1629046307.5405, 41, 0, 4176.923, 4076.923, 4182.564, 4161.026, 4194.872, 0, 0, []
1629046307.5482, 42, 0, 4165.128, 4081.026, 4147.692, 4148.205, 4176.41, 0, 0, []
1629046307.5561, 43, 0, 4173.333, 4088.205, 4188.718, 4165.641, 4181.026, 0, 0, []
1629046307.564, 44, 0, 4171.282, 4094.359, 4158.462, 4164.103, 4188.718, 0, 0, []
1629046307.5719, 45, 0, 4162.564, 4094.359, 4146.667, 4154.872, 4180.513, 0, 0, []
1629046307.5799, 46, 0, 4174.359, 4106.667, 4171.795, 4168.718, 4183.077, 0, 0, []
1629046307.5878, 47, 0, 4195.385, 4139.487, 4157.436, 4181.538, 4194.359, 0, 0, []
1629046307.5957, 48, 0, 4205.641, 4163.59, 4193.333, 4184.103, 4197.436, 0, 0, []
1629046307.6037, 49, 0, 4200.513, 4157.436, 4166.667, 4181.538, 4198.462, 0, 0, []
1629046307.6116, 50, 0, 4188.718, 4155.897, 4152.308, 4181.538, 4202.051, 0, 0, []
1629046307.6196, 51, 0, 4180.513, 4169.231, 4167.179, 4173.333, 4193.846, 0, 0, []
1629046307.6274, 52, 0, 4181.026, 4164.615, 4132.821, 4168.718, 4183.59, 0, 0, []
1629046307.6354, 53, 0, 4182.564, 4165.128, 4163.077, 4184.103, 4190.256, 0, 0, []
1629046307.6433, 54, 0, 4181.026, 4208.205, 4162.564, 4190.769, 4200.513, 0, 0, []
1629046307.6511, 55, 0, 4191.795, 4256.923, 4170.769, 4194.872, 4201.538, 0, 0, []
1629046307.659, 56, 0, 4204.103, 4278.974, 4200, 4202.051, 4203.077, 0, 0, []
1629046307.6668, 57, 0, 4203.59, 4289.231, 4165.641, 4198.974, 4203.59, 0, 0, []
1629046307.6746, 58, 0, 4202.564, 4294.872, 4186.667, 4201.538, 4202.051, 0, 0, []
1629046307.6824, 59, 0, 4202.051, 4306.154, 4173.333, 4206.667, 4203.077, 0, 0, []
1629046307.6903, 60, 0, 4185.641, 4305.641, 4158.974, 4208.205, 4200, 0, 0, []
1629046307.6981, 61, 0, 4177.436, 4293.333, 4191.282, 4211.795, 4194.872, 0, 0, []
1629046307.7061, 62, 0, 4198.974, 4304.103, 4172.308, 4215.897, 4198.974, 0, 0, []
1629046307.7139, 63, 0, 4205.128, 4315.385, 4186.667, 4211.282, 4202.564, 0, 0, []
1629046307.7219, 64, 0, 4192.308, 4313.846, 4169.231, 4194.872, 4200, 450, 0, []
1629046307.7298, 65, 0, 4194.872, 4324.103, 4164.103, 4196.41, 4201.026, 450, 0, []
1629046307.7378, 66, 0, 4203.077, 4334.359, 4204.103, 4207.179, 4202.051, 16190, 0, []
1629046307.7457, 67, 0, 4206.667, 4343.077, 4163.077, 4206.154, 4205.641, 450, 0, []
1629046307.7536, 68, 0, 4208.205, 4348.205, 4176.41, 4207.179, 4208.205, 16157, 0, []
1629046307.7615, 69, 0, 4198.974, 4340.513, 4175.385, 4196.41, 4200, 450, 0, []
1629046307.7695, 70, 0, 4189.231, 4339.487, 4138.974, 4190.256, 4195.385, 315, 0, []
1629046307.7774, 71, 0, 4198.974, 4349.231, 4176.41, 4205.128, 4196.923, 450, 0, []
1629046307.7853, 72, 0, 4203.077, 4340, 4155.897, 4198.462, 4187.179, 450, 0, []
1629046307.7931, 73, 0, 4197.436, 4338.462, 4157.949, 4183.077, 4184.615, 16146, 0, []
1629046307.8009, 74, 0, 4210.256, 4370.769, 4168.205, 4187.692, 4208.718, 450, 0, []
1629046307.8088, 75, 0, 4227.179, 4390.769, 4149.231, 4197.949, 4228.205, 16205, 0, []
1629046307.8166, 76, 0, 4220, 4380.513, 4176.41, 4190.256, 4216.41, 450, 0, []
1629046307.8245, 77, 0, 4213.333, 4381.026, 4148.718, 4176.923, 4206.154, 450, 0, []
1629046307.8322, 78, 0, 4226.667, 4390.769, 4161.026, 4186.667, 4216.41, 450, 0, []
1629046307.8401, 79, 0, 4225.641, 4378.974, 4174.359, 4194.872, 4220.513, 16205, 0, []
1629046307.8479, 80, 0, 4204.615, 4364.615, 4131.282, 4187.692, 4206.667, 450, 0, []
1629046307.8558, 81, 0, 4197.949, 4385.128, 4163.59, 4186.667, 4196.41, 450, 0, []
1629046307.8636, 82, 0, 4204.103, 4414.872, 4156.41, 4183.077, 4193.333, 450, 0, []
1629046307.8715, 83, 0, 4203.59, 4407.692, 4164.103, 4176.41, 4183.077, 16205, 0, []
1629046307.8794, 84, 0, 4200.513, 4394.359, 4187.692, 4170.769, 4177.949, 450, 0, []
1629046307.8874, 85, 0, 4202.564, 4414.359, 4149.744, 4171.795, 4190.256, 450, 0, []
1629046307.8953, 86, 0, 4202.051, 4415.385, 4175.897, 4186.667, 4196.41, 450, 0, []
1629046307.9033, 87, 0, 4199.487, 4382.051, 4163.59, 4196.923, 4191.795, 16205, 0, []
1629046307.9111, 88, 0, 4198.462, 4382.051, 4148.718, 4195.385, 4187.179, 450, 0, []
1629046307.9191, 89, 0, 4200.513, 4406.667, 4170.256, 4178.462, 4179.487, 450, 0, []
1629046307.927, 90, 0, 4200, 4399.487, 4138.974, 4158.462, 4169.231, 450, 0, []
1629046307.935, 91, 0, 4194.872, 4394.872, 4169.744, 4168.205, 4166.667, 16205, 0, []
1629046307.9429, 92, 0, 4194.359, 4421.026, 4168.205, 4184.103, 4170.769, 450, 0, []
1629046307.9506, 93, 0, 4199.487, 4435.897, 4142.564, 4182.564, 4169.231, 450, 0, []
1629046307.9585, 94, 0, 4202.564, 4440.513, 4156.41, 4174.872, 4165.128, 450, 0, []
1629046307.9663, 95, 0, 4197.949, 4440.513, 4130.256, 4170.769, 4164.615, 16205, 0, []
1629046307.9742, 96, 0, 4197.436, 4431.795, 4163.077, 4172.821, 4176.41, 450, 0, []
1629046307.982, 97, 0, 4222.051, 4453.333, 4163.59, 4172.308, 4202.564, 450, 0, []
1629046307.9898, 98, 0, 4256.41, 4472.821, 4146.154, 4181.026, 4225.641, 450, 0, []
1629046307.9976, 99, 0, 4273.846, 4461.538, 4187.692, 4194.872, 4237.436, 16205, 0, []
1629046308.0055, 100, 0, 4269.744, 4465.641, 4162.051, 4183.59, 4235.385, 450, 0, []
1629046308.0133, 101, 0, 4258.462, 4487.179, 4175.897, 4171.795, 4227.692, 450, 0, []
1629046308.0213, 102, 0, 4252.308, 4483.077, 4183.59, 4176.41, 4225.128, 450, 0, []
1629046308.0292, 103, 0, 4247.692, 4458.974, 4167.692, 4181.538, 4222.564, 16205, 0, []
1629046308.0371, 104, 0, 4246.154, 4455.897, 4198.974, 4189.231, 4221.026, 450, 0, []
1629046308.045, 105, 0, 4251.282, 4471.795, 4158.462, 4201.026, 4233.846, 450, 0, []
1629046308.053, 106, 0, 4249.231, 4482.564, 4168.205, 4204.103, 4234.872, 450, 0, []
1629046308.0609, 107, 0, 4231.282, 4486.667, 4180, 4177.436, 4208.205, 16205, 0, []
1629046308.0689, 108, 0, 4224.615, 4478.462, 4145.128, 4154.872, 4199.487, 450, 0, []
1629046308.0767, 109, 0, 4234.872, 4471.795, 4176.41, 4160.513, 4210.769, 450, 0, []
1629046308.0847, 110, 0, 4233.846, 4485.128, 4148.718, 4158.974, 4204.103, 450, 0, []
1629046308.0926, 111, 0, 4226.154, 4489.744, 4147.179, 4162.564, 4194.359, 16205, 0, []
1629046308.1005, 112, 0, 4230.256, 4480, 4167.179, 4171.282, 4197.436, 450, 0, []
1629046308.1084, 113, 0, 4232.308, 4485.128, 4134.359, 4164.615, 4196.41, 450, 0, []
1629046308.1161, 114, 0, 4222.051, 4490.256, 4154.359, 4150.769, 4191.795, 450, 0, []
1629046308.124, 115, 0, 4218.974, 4483.59, 4137.949, 4145.641, 4204.103, 16205, 0, []
1629046308.1318, 116, 0, 4220.513, 4481.026, 4145.641, 4156.923, 4211.795, 450, 0, []
1629046308.1397, 117, 0, 4217.436, 4488.205, 4164.103, 4153.846, 4203.59, 450, 0, []
1629046308.1475, 118, 0, 4223.59, 4502.051, 4129.231, 4136.923, 4199.487, 450, 0, []
1629046308.1553, 119, 0, 4230.256, 4510.769, 4163.59, 4141.026, 4201.026, 16205, 0, []
1629046308.1631, 120, 0, 4225.128, 4515.897, 4154.359, 4147.692, 4204.615, 450, 0, []
1629046308.1711, 121, 0, 4211.795, 4522.051, 4139.487, 4139.487, 4198.974, 450, 0, []
1629046308.179, 122, 0, 4204.103, 4509.744, 4158.974, 4132.308, 4186.667, 450, 0, []
1629046308.187, 123, 0, 4207.179, 4490.256, 4136.41, 4137.436, 4188.718, 16205, 0, []
1629046308.1948, 124, 0, 4220.513, 4501.026, 4169.231, 4147.179, 4201.538, 450, 0, []
1629046308.2028, 125, 0, 4247.692, 4522.051, 4162.051, 4149.231, 4221.538, 450, 0, []
1629046308.2107, 126, 0, 4282.051, 4516.923, 4151.282, 4153.333, 4244.615, 450, 0, []
1629046308.2187, 127, 0, 4322.564, 4525.128, 4173.333, 4155.385, 4270.769, 16205, 0, []
1629046308.2266, 128, 0, 4365.641, 4558.462, 4131.795, 4150.769, 4302.564, 450, 0, []
1629046308.2345, 0, 0, 4392.821, 4566.154, 4165.641, 4166.667, 4323.077, 450, 0, []
1629046308.2424, 1, 0, 4392.308, 4549.744, 4176.41, 4177.436, 4324.103, 450, 0, []
1629046308.2504, 2, 0, 4387.692, 4549.231, 4154.359, 4167.692, 4323.077, 16190, 0, []
1629046308.2583, 3, 0, 4390.256, 4560.513, 4187.179, 4160.513, 4320.513, 450, 0, []
1629046308.2661, 4, 0, 4370.769, 4560.513, 4156.923, 4153.846, 4300.513, 16155, 0, []
1629046308.2739, 5, 0, 4341.026, 4547.692, 4169.231, 4157.436, 4282.564, 450, 0, []
1629046308.2817, 6, 0, 4323.59, 4538.462, 4171.282, 4158.462, 4276.41, 315, 0, []
1629046308.2896, 7, 0, 4307.179, 4540.513, 4140, 4154.359, 4264.103, 450, 0, []
1629046308.2974, 8, 0, 4294.872, 4540.513, 4169.744, 4158.462, 4251.795, 450, 0, []
1629046308.3053, 9, 0, 4286.667, 4545.128, 4148.205, 4161.538, 4243.59, 16147, 0, []
1629046308.313, 10, 0, 4275.385, 4563.077, 4162.051, 4163.59, 4229.744, 450, 0, []
1629046308.3209, 11, 0, 4262.564, 4568.718, 4175.897, 4162.564, 4217.949, 16205, 0, []
1629046308.3287, 12, 0, 4247.692, 4558.974, 4145.128, 4162.564, 4217.436, 450, 0, []
1629046308.3367, 13, 0, 4233.333, 4572.821, 4167.179, 4158.974, 4216.41, 450, 0, []
1629046308.3446, 14, 0, 4230.256, 4616.41, 4139.487, 4147.179, 4209.231, 450, 0, []
1629046308.3525, 15, 0, 4229.231, 4658.974, 4150.256, 4151.795, 4203.077, 16205, 0, []
1629046308.3604, 16, 0, 4224.103, 4682.051, 4171.795, 4153.846, 4202.051, 0, 0, []
1629046308.3684, 17, 0, 4230.256, 4703.077, 4150.769, 4147.179, 4205.641, 0, 0, []
1629046308.3763, 18, 0, 4232.308, 4768.205, 4184.103, 4142.051, 4197.949, 0, 0, []
1629046308.3843, 19, 0, 4216.41, 4876.41, 4141.538, 4119.487, 4184.103, 0, 0, []
1629046308.3922, 20, 0, 4213.333, 4955.897, 4129.231, 4122.564, 4189.231, 0, 0, []
1629046308.4001, 21, 0, 4223.59, 4995.385, 4167.179, 4155.385, 4197.949, 0, 0, []
1629046308.408, 22, 0, 4216.41, 5019.487, 4129.744, 4150.256, 4174.359, 0, 0, []
1629046308.4158, 23, 0, 4197.949, 5027.179, 4142.564, 4123.077, 4143.077, 0, 0, []
1629046308.4237, 24, 0, 4184.103, 5040, 4132.821, 4113.846, 4135.897, 0, 0, []
1629046308.4315, 25, 0, 4188.718, 5066.667, 4129.231, 4120, 4143.077, 0, 0, []
1629046308.4393, 26, 0, 4210.256, 5092.821, 4154.359, 4125.641, 4155.385, 0, 0, []
1629046308.4471, 27, 0, 4223.59, 5105.128, 4133.846, 4140, 4155.385, 0, 0, []
1629046308.455, 28, 0, 4216.923, 5090.769, 4161.026, 4158.974, 4138.974, 0, 0, []
1629046308.4628, 29, 0, 4216.923, 5073.846, 4138.974, 4154.359, 4133.846, 0, 0, []
1629046308.4708, 30, 0, 4217.949, 5068.718, 4120.513, 4143.59, 4138.974, 0, 0, []
1629046308.4786, 31, 0, 4205.128, 5057.949, 4152.308, 4133.333, 4136.41, 0, 0, []
1629046308.4866, 32, 0, 4195.897, 5045.128, 4124.103, 4114.359, 4136.41, 0, 0, []
1629046308.4945, 33, 0, 4196.923, 5034.359, 4158.462, 4104.615, 4134.872, 0, 0, []
1629046308.5025, 34, 0, 4200.513, 5033.333, 4160, 4103.077, 4127.179, 0, 0, []
1629046308.5104, 35, 0, 4194.359, 5044.615, 4124.103, 4117.949, 4123.077, 0, 0, []
1629046308.5183, 36, 0, 4189.231, 5044.103, 4153.846, 4148.205, 4126.667, 0, 0, []
1629046308.5262, 37, 0, 4212.821, 5041.538, 4146.667, 4172.308, 4151.795, 0, 0, []
1629046308.5342, 38, 0, 4246.154, 5047.692, 4176.41, 4190.769, 4186.667, 0, 0, []
1629046308.5421, 39, 0, 4253.333, 5043.077, 4185.641, 4195.897, 4203.59, 0, 0, []
1629046308.5501, 40, 0, 4243.59, 5055.897, 4171.795, 4193.846, 4202.564, 0, 0, []
1629046308.5579, 41, 0, 4244.615, 5092.308, 4201.026, 4194.872, 4195.385, 0, 0, []
1629046308.5657, 42, 0, 4250.256, 5105.128, 4156.41, 4193.846, 4197.436, 0, 0, []
1629046308.5736, 43, 0, 4251.282, 5105.128, 4158.974, 4198.462, 4197.949, 0, 0, []
1629046308.5814, 44, 0, 4246.667, 5104.103, 4173.846, 4196.41, 4183.59, 0, 0, []
1629046308.5893, 45, 0, 4229.744, 5067.179, 4148.205, 4189.744, 4167.692, 0, 0, []
1629046308.597, 46, 0, 4215.897, 5039.487, 4186.667, 4191.282, 4170.769, 0, 0, []
1629046308.6049, 47, 0, 4223.077, 5065.641, 4166.154, 4190.256, 4182.051, 0, 0, []
1629046308.6127, 48, 0, 4231.795, 5076.41, 4163.077, 4187.692, 4185.128, 0, 0, []
1629046308.6206, 49, 0, 4236.41, 5064.103, 4177.436, 4186.667, 4193.846, 0, 0, []
1629046308.6284, 50, 0, 4248.205, 5076.41, 4152.308, 4191.795, 4205.128, 0, 0, []
1629046308.6363, 51, 0, 4248.718, 5074.872, 4185.641, 4194.872, 4197.436, 0, 0, []
1629046308.6442, 52, 0, 4226.154, 5050.256, 4158.462, 4173.333, 4177.436, 0, 0, []
1629046308.6522, 53, 0, 4210.769, 5034.872, 4147.692, 4158.462, 4170.256, 0, 0, []
1629046308.6601, 54, 0, 4211.282, 5020, 4168.205, 4163.077, 4165.128, 0, 0, []
1629046308.6681, 55, 0, 4195.385, 4994.359, 4139.487, 4164.615, 4146.154, 0, 0, []
1629046308.6759, 56, 0, 4177.436, 4981.538, 4168.718, 4171.795, 4135.897, 0, 0, []
1629046308.6839, 57, 0, 4193.333, 4991.795, 4150.769, 4183.59, 4154.359, 0, 0, []
1629046308.6918, 58, 0, 4219.487, 5002.564, 4138.974, 4196.41, 4178.462, 0, 0, []
1629046308.6998, 59, 0, 4221.538, 5001.538, 4164.103, 4197.949, 4183.077, 0, 0, []
1629046308.7077, 60, 0, 4220.513, 4980.513, 4138.462, 4190.769, 4181.026, 0, 0, []
1629046308.7156, 61, 0, 4234.872, 4960, 4178.974, 4197.436, 4186.667, 0, 0, []
1629046308.7235, 62, 0, 4235.385, 4968.205, 4174.872, 4194.872, 4186.667, 0, 0, []
1629046308.7313, 63, 0, 4218.974, 4981.026, 4150.769, 4183.077, 4176.923, 0, 0, []
1629046308.7392, 64, 0, 4213.846, 4963.077, 4177.949, 4184.615, 4176.923, 450, 0, []
1629046308.747, 65, 0, 4220.513, 4934.872, 4147.692, 4190.256, 4186.667, 450, 0, []
1629046308.7549, 66, 0, 4216.923, 4922.564, 4156.41, 4188.205, 4180, 16190, 0, []
1629046308.7626, 67, 0, 4209.231, 4920, 4141.538, 4174.359, 4167.179, 450, 0, []
1629046308.7705, 68, 0, 4211.795, 4908.718, 4119.487, 4169.231, 4164.615, 16144, 0, []
1629046308.7783, 69, 0, 4218.974, 4894.872, 4156.923, 4178.462, 4167.179, 450, 0, []
1629046308.7863, 70, 0, 4214.872, 4903.077, 4144.103, 4182.564, 4172.308, 312, 0, []
1629046308.7942, 71, 0, 4202.051, 4901.538, 4174.359, 4183.077, 4169.744, 450, 0, []
1629046308.802, 72, 0, 4192.821, 4882.564, 4163.59, 4175.385, 4154.872, 450, 0, []
1629046308.8098, 73, 0, 4194.872, 4892.308, 4121.026, 4169.744, 4147.692, 16150, 0, []
1629046308.8178, 74, 0, 4211.795, 4923.59, 4168.718, 4184.103, 4162.051, 450, 0, []
1629046308.8257, 75, 0, 4219.487, 4927.692, 4153.846, 4189.231, 4166.667, 16209, 0, []
1629046308.8337, 76, 0, 4204.615, 4912.308, 4148.205, 4176.41, 4151.795, 450, 0, []
1629046308.8415, 77, 0, 4200, 4913.846, 4156.41, 4167.692, 4152.821, 450, 0, []
1629046308.8495, 78, 0, 4210.769, 4912.308, 4145.641, 4180, 4171.282, 450, 0, []
1629046308.8574, 79, 0, 4210.256, 4904.615, 4185.641, 4200.513, 4181.026, 16209, 0, []
1629046308.8653, 80, 0, 4204.103, 4913.846, 4157.949, 4198.462, 4176.923, 450, 0, []
1629046308.8732, 81, 0, 4204.103, 4914.359, 4153.846, 4190.769, 4161.538, 450, 0, []
1629046308.8811, 82, 0, 4202.564, 4889.231, 4164.615, 4184.615, 4149.744, 450, 0, []
1629046308.889, 83, 0, 4200.513, 4874.359, 4135.897, 4182.051, 4156.41, 16209, 0, []
1629046308.8968, 84, 0, 4201.538, 4888.718, 4167.179, 4184.103, 4170.256, 450, 0, []
1629046308.9047, 85, 0, 4204.103, 4893.846, 4151.282, 4178.974, 4174.359, 450, 0, []
1629046308.9125, 86, 0, 4203.59, 4873.333, 4161.026, 4178.462, 4166.667, 450, 0, []
1629046308.9203, 87, 0, 4192.821, 4866.154, 4177.949, 4166.154, 4148.205, 16209, 0, []
1629046308.9281, 88, 0, 4187.692, 4873.333, 4128.718, 4148.718, 4135.897, 450, 0, []
1629046308.936, 89, 0, 4200, 4861.538, 4162.051, 4159.487, 4142.564, 450, 0, []
1629046308.9438, 90, 0, 4207.179, 4858.462, 4154.872, 4168.205, 4153.333, 450, 0, []
1629046308.9518, 91, 0, 4198.974, 4871.795, 4130.256, 4160, 4151.795, 16209, 0, []
1629046308.9596, 92, 0, 4189.744, 4859.487, 4147.692, 4150.769, 4143.077, 450, 0, []
1629046308.9676, 93, 0, 4184.103, 4834.359, 4127.179, 4149.231, 4137.949, 450, 0, []
1629046308.9755, 94, 0, 4183.077, 4831.795, 4163.077, 4158.462, 4136.923, 450, 0, []
1629046308.9835, 95, 0, 4193.333, 4837.949, 4153.333, 4156.41, 4139.487, 16209, 0, []
1629046308.9914, 96, 0, 4198.974, 4823.077, 4128.205, 4144.103, 4138.462, 450, 0, []
1629046308.9993, 97, 0, 4188.718, 4813.333, 4148.205, 4142.564, 4128.718, 450, 0, []
1629046309.0072, 98, 0, 4186.154, 4824.615, 4118.462, 4150.256, 4130.256, 450, 0, []
1629046309.0152, 99, 0, 4195.385, 4820.513, 4147.692, 4165.128, 4144.103, 16209, 0, []
1629046309.0231, 100, 0, 4204.615, 4803.077, 4155.385, 4171.282, 4160.513, 450, 0, []
1629046309.031, 101, 0, 4214.359, 4805.641, 4146.667, 4173.846, 4174.872, 450, 0, []
1629046309.0388, 102, 0, 4217.436, 4822.051, 4182.051, 4178.462, 4176.41, 450, 0, []
1629046309.0466, 103, 0, 4208.718, 4822.564, 4146.667, 4176.923, 4168.205, 16209, 0, []
1629046309.0545, 104, 0, 4209.744, 4812.308, 4169.744, 4178.974, 4159.487, 450, 0, []
1629046309.0623, 105, 0, 4221.026, 4810.256, 4189.231, 4168.205, 4153.333, 450, 0, []
1629046309.0702, 106, 0, 4226.667, 4797.436, 4162.564, 4153.846, 4158.974, 450, 0, []
1629046309.0779, 107, 0, 4238.974, 4782.564, 4184.615, 4159.487, 4177.436, 16209, 0, []
1629046309.0858, 108, 0, 4258.974, 4794.359, 4151.282, 4161.026, 4194.872, 450, 0, []
1629046309.0936, 109, 0, 4276.923, 4807.692, 4160.513, 4157.436, 4206.667, 450, 0, []
1629046309.1016, 110, 0, 4316.41, 4798.974, 4178.974, 4158.462, 4237.949, 450, 0, []
1629046309.1095, 111, 0, 4376.923, 4789.231, 4159.487, 4168.205, 4284.103, 16209, 0, []
1629046309.1175, 112, 0, 4409.744, 4791.795, 4188.205, 4172.821, 4303.59, 450, 0, []
1629046309.1253, 113, 0, 4407.692, 4789.744, 4153.333, 4161.026, 4297.949, 450, 0, []
1629046309.1333, 114, 0, 4409.231, 4770.256, 4157.949, 4165.641, 4306.154, 450, 0, []
1629046309.1412, 115, 0, 4408.718, 4756.923, 4174.872, 4174.359, 4320.513, 16209, 0, []
1629046309.1492, 116, 0, 4379.487, 4768.718, 4131.282, 4167.692, 4305.641, 450, 0, []
1629046309.1571, 117, 0, 4349.744, 4774.359, 4165.641, 4168.718, 4281.026, 450, 0, []
1629046309.165, 118, 0, 4337.436, 4754.359, 4151.795, 4165.641, 4270.256, 450, 0, []
1629046309.1729, 119, 0, 4332.821, 4744.103, 4137.436, 4163.59, 4270.769, 16209, 0, []
1629046309.1808, 120, 0, 4339.487, 4759.487, 4168.718, 4181.538, 4287.692, 450, 0, []
1629046309.1887, 121, 0, 4333.846, 4765.128, 4153.333, 4191.282, 4291.282, 450, 0, []
1629046309.1965, 122, 0, 4301.538, 4756.923, 4175.385, 4178.974, 4258.462, 450, 0, []
1629046309.2043, 123, 0, 4273.846, 4752.821, 4158.974, 4167.179, 4227.692, 16209, 0, []
1629046309.2121, 124, 0, 4261.026, 4748.718, 4150.769, 4169.744, 4217.436, 450, 0, []
1629046309.22, 125, 0, 4252.821, 4741.538, 4155.385, 4162.564, 4208.205, 450, 0, []
1629046309.2278, 126, 0, 4246.154, 4733.846, 4114.359, 4154.872, 4198.974, 450, 0, []
1629046309.2357, 127, 0, 4234.359, 4728.718, 4159.487, 4164.103, 4189.744, 16209, 0, []
1629046309.2434, 128, 0, 4225.641, 4733.333, 4163.077, 4161.538, 4184.615, 450, 0, []
1629046309.2513, 0, 0, 4228.718, 4731.795, 4146.667, 4160, 4189.231, 450, 0, []
1629046309.2591, 1, 0, 4221.026, 4722.051, 4171.282, 4156.923, 4182.564, 450, 0, []
1629046309.2671, 2, 0, 4204.103, 4714.359, 4138.462, 4139.487, 4163.59, 16186, 0, []
1629046309.275, 3, 0, 4192.308, 4706.667, 4162.564, 4133.333, 4148.205, 450, 0, []
1629046309.2829, 4, 0, 4190.256, 4714.359, 4158.974, 4137.949, 4145.128, 16144, 0, []
1629046309.2908, 5, 0, 4196.41, 4716.923, 4131.282, 4146.154, 4155.385, 450, 0, []
1629046309.2988, 6, 0, 4202.564, 4697.949, 4156.923, 4157.949, 4157.949, 306, 0, []
1629046309.3067, 7, 0, 4201.538, 4698.462, 4128.205, 4164.103, 4146.154, 450, 0, []
1629046309.3147, 8, 0, 4194.872, 4706.667, 4148.718, 4161.538, 4135.897, 450, 0, []
1629046309.3225, 9, 0, 4191.795, 4702.051, 4154.872, 4142.564, 4139.487, 16149, 0, []
1629046309.3305, 10, 0, 4198.974, 4703.077, 4127.692, 4132.821, 4149.744, 450, 0, []
1629046309.3384, 11, 0, 4200.513, 4689.744, 4161.026, 4139.487, 4152.821, 16209, 0, []
1629046309.3464, 12, 0, 4188.718, 4662.564, 4139.487, 4134.872, 4142.564, 450, 0, []
1629046309.3543, 13, 0, 4190.769, 4667.179, 4155.385, 4135.897, 4137.436, 450, 0, []
1629046309.362, 14, 0, 4205.641, 4685.128, 4166.667, 4150.256, 4152.308, 450, 0, []
1629046309.3699, 15, 0, 4197.949, 4674.872, 4129.231, 4158.462, 4166.154, 16209, 0, []
1629046309.3777, 16, 0, 4186.667, 4670.256, 4162.564, 4163.59, 4164.615, 0, 0, []
1629046309.3856, 17, 0, 4191.282, 4688.205, 4149.744, 4158.974, 4158.462, 0, 0, []
1629046309.3934, 18, 0, 4188.718, 4694.359, 4151.282, 4152.308, 4149.744, 0, 0, []
1629046309.4012, 19, 0, 4182.564, 4681.538, 4164.103, 4154.872, 4147.692, 0, 0, []
1629046309.409, 20, 0, 4184.615, 4663.077, 4135.897, 4158.462, 4156.923, 0, 0, []
1629046309.417, 21, 0, 4187.179, 4651.795, 4171.282, 4160.513, 4164.103, 0, 0, []
1629046309.4249, 22, 0, 4186.154, 4652.308, 4152.308, 4155.897, 4158.462, 0, 0, []
1629046309.4329, 23, 0, 4180.513, 4646.667, 4146.667, 4154.872, 4143.077, 0, 0, []
1629046309.4408, 24, 0, 4185.641, 4637.436, 4178.462, 4164.103, 4148.718, 0, 0, []
1629046309.4487, 25, 0, 4202.564, 4653.333, 4158.974, 4180.513, 4177.949, 0, 0, []
1629046309.4566, 26, 0, 4204.615, 4662.564, 4182.564, 4193.846, 4183.59, 0, 0, []
1629046309.4646, 27, 0, 4189.231, 4639.487, 4160, 4183.59, 4163.077, 0, 0, []
1629046309.4725, 28, 0, 4195.897, 4635.385, 4162.051, 4187.692, 4162.564, 0, 0, []
1629046309.4805, 29, 0, 4221.026, 4660, 4200.513, 4211.795, 4184.615, 0, 0, []
1629046309.4883, 30, 0, 4221.026, 4653.846, 4157.949, 4212.308, 4193.333, 0, 0, []
1629046309.4961, 31, 0, 4202.564, 4630.256, 4177.436, 4207.179, 4190.256, 0, 0, []
1629046309.504, 32, 0, 4205.128, 4649.231, 4183.59, 4213.846, 4201.538, 0, 0, []
1629046309.5118, 33, 0, 4225.128, 4666.667, 4171.282, 4216.41, 4215.385, 0, 0, []
1629046309.5197, 34, 0, 4225.641, 4649.744, 4195.385, 4206.667, 4209.231, 0, 0, []
1629046309.5274, 35, 0, 4203.59, 4637.949, 4167.179, 4207.179, 4192.308, 0, 0, []
1629046309.5353, 36, 0, 4193.333, 4635.897, 4182.051, 4207.179, 4175.385, 0, 0, []
1629046309.5431, 37, 0, 4204.615, 4625.641, 4170.256, 4182.564, 4168.718, 0, 0, []
1629046309.551, 38, 0, 4217.436, 4614.872, 4156.923, 4177.949, 4169.744, 0, 0, []
1629046309.5588, 39, 0, 4215.385, 4619.487, 4188.718, 4194.359, 4168.205, 0, 0, []
1629046309.5666, 40, 0, 4202.564, 4612.821, 4140.513, 4185.128, 4165.128, 0, 0, []
1629046309.5744, 41, 0, 4196.41, 4593.846, 4153.333, 4177.436, 4161.538, 0, 0, []
1629046309.5824, 42, 0, 4202.564, 4604.615, 4172.821, 4185.641, 4163.077, 0, 0, []
1629046309.5903, 43, 0, 4204.615, 4624.615, 4154.359, 4195.897, 4168.718, 0, 0, []
1629046309.5983, 44, 0, 4200.513, 4607.692, 4185.641, 4202.051, 4169.744, 0, 0, []
1629046309.6061, 45, 0, 4200.513, 4579.487, 4151.282, 4189.231, 4164.103, 0, 0, []
1629046309.6141, 46, 0, 4197.436, 4582.051, 4158.974, 4183.59, 4163.077, 0, 0, []
1629046309.622, 47, 0, 4191.795, 4591.795, 4176.923, 4190.769, 4168.205, 0, 0, []
1629046309.63, 48, 0, 4193.846, 4580.513, 4151.795, 4194.359, 4170.769, 0, 0, []
1629046309.6379, 49, 0, 4197.436, 4561.026, 4187.692, 4197.949, 4167.179, 0, 0, []
1629046309.6457, 50, 0, 4192.821, 4566.154, 4169.744, 4191.795, 4156.923, 0, 0, []
1629046309.6536, 51, 0, 4187.692, 4580.513, 4168.205, 4186.667, 4147.692, 0, 0, []
1629046309.6614, 52, 0, 4182.564, 4567.179, 4176.923, 4183.59, 4146.667, 0, 0, []
1629046309.6693, 53, 0, 4173.846, 4546.667, 4141.538, 4176.923, 4148.718, 0, 0, []
1629046309.6771, 54, 0, 4177.949, 4546.667, 4173.333, 4185.128, 4151.795, 0, 0, []
1629046309.6849, 55, 0, 4198.462, 4556.923, 4164.615, 4208.205, 4163.077, 0, 0, []
1629046309.6927, 56, 0, 4204.615, 4558.974, 4171.795, 4223.077, 4170.769, 0, 0, []
1629046309.7006, 57, 0, 4189.744, 4555.385, 4183.59, 4202.051, 4159.487, 0, 0, []
1629046309.7084, 58, 0, 4180, 4550.769, 4139.487, 4183.59, 4152.821, 0, 0, []
1629046309.7163, 59, 0, 4184.615, 4553.333, 4181.026, 4204.615, 4162.564, 0, 0, []
1629046309.724, 60, 0, 4199.487, 4572.821, 4178.462, 4214.359, 4166.154, 0, 0, []
1629046309.732, 61, 0, 4214.872, 4575.385, 4158.974, 4202.564, 4155.897, 0, 0, []
1629046309.7399, 62, 0, 4211.282, 4553.333, 4182.564, 4192.821, 4147.692, 0, 0, []
1629046309.7479, 63, 0, 4197.949, 4536.41, 4150.769, 4185.128, 4148.718, 0, 0, []
1629046309.7558, 64, 0, 4194.359, 4528.205, 4167.692, 4187.692, 4151.282, 450, 0, []
1629046309.7637, 65, 0, 4189.231, 4527.692, 4155.897, 4188.718, 4146.154, 450, 0, []
1629046309.7716, 66, 0, 4181.538, 4529.231, 4143.077, 4188.718, 4136.923, 16187, 0, []
1629046309.7796, 67, 0, 4183.077, 4527.692, 4176.41, 4192.308, 4131.282, 450, 0, []
1629046309.7875, 68, 0, 4183.59, 4535.897, 4145.128, 4186.667, 4135.897, 16149, 0, []
1629046309.7955, 69, 0, 4187.692, 4538.974, 4167.179, 4189.744, 4149.744, 450, 0, []
1629046309.8034, 70, 0, 4201.538, 4523.077, 4171.282, 4196.923, 4164.615, 311, 0, []
1629046309.8111, 71, 0, 4204.615, 4508.205, 4155.385, 4196.41, 4164.103, 450, 0, []
1629046309.819, 72, 0, 4201.026, 4508.718, 4184.103, 4189.231, 4155.385, 450, 0, []
1629046309.8268, 73, 0, 4201.026, 4515.385, 4147.692, 4180.513, 4154.359, 16149, 0, []
1629046309.8347, 74, 0, 4197.436, 4522.051, 4163.077, 4185.128, 4154.872, 450, 0, []
1629046309.8425, 75, 0, 4190.256, 4524.615, 4169.744, 4186.154, 4151.795, 16209, 0, []
1629046309.8503, 76, 0, 4178.974, 4507.692, 4137.436, 4170.769, 4137.949, 450, 0, []
1629046309.8581, 77, 0, 4172.821, 4494.872, 4167.179, 4162.051, 4128.205, 450, 0, []
1629046309.8661, 78, 0, 4184.615, 4501.538, 4148.205, 4176.41, 4146.667, 450, 0, []
1629046309.874, 79, 0, 4184.103, 4490.256, 4157.436, 4191.282, 4154.872, 16209, 0, []
1629046309.882, 80, 0, 4165.641, 4468.205, 4166.667, 4177.436, 4129.231, 450, 0, []
1629046309.8898, 81, 0, 4168.718, 4465.641, 4148.205, 4172.308, 4116.923, 450, 0, []
1629046309.8978, 82, 0, 4187.179, 4468.718, 4178.462, 4182.051, 4132.821, 450, 0, []
1629046309.9057, 83, 0, 4188.718, 4454.872, 4136.41, 4168.205, 4141.538, 16209, 0, []
1629046309.9137, 84, 0, 4176.923, 4441.026, 4133.333, 4162.564, 4134.872, 450, 0, []
1629046309.9216, 85, 0, 4175.385, 4456.41, 4157.436, 4169.231, 4131.795, 450, 0, []
1629046309.9295, 86, 0, 4178.462, 4462.051, 4124.103, 4161.538, 4132.821, 450, 0, []
1629046309.9374, 87, 0, 4175.385, 4433.333, 4150.769, 4149.231, 4131.282, 16209, 0, []
1629046309.9454, 88, 0, 4175.385, 4432.821, 4140, 4142.051, 4133.333, 450, 0, []
1629046309.9533, 89, 0, 4183.59, 4458.974, 4140, 4148.718, 4135.385, 450, 0, []
1629046309.9611, 90, 0, 4187.179, 4446.154, 4157.436, 4154.872, 4132.821, 450, 0, []
1629046309.9689, 91, 0, 4181.538, 4427.179, 4122.051, 4150.769, 4130.256, 16209, 0, []
1629046309.9767, 92, 0, 4182.564, 4447.179, 4142.051, 4149.744, 4133.333, 450, 0, []
1629046309.9846, 93, 0, 4187.692, 4452.821, 4118.974, 4144.615, 4140, 450, 0, []
1629046309.9924, 94, 0, 4183.077, 4420.513, 4111.282, 4146.667, 4135.897, 450, 0, []
1629046310.0003, 95, 0, 4171.795, 4408.718, 4154.359, 4161.026, 4125.128, 16209, 0, []
1629046310.008, 96, 0, 4164.103, 4416.923, 4127.692, 4157.949, 4122.051, 450, 0, []
1629046310.0159, 97, 0, 4171.282, 4403.59, 4144.103, 4145.128, 4132.308, 450, 0, []
1629046310.0237, 98, 0, 4188.718, 4399.487, 4134.359, 4140.513, 4147.692, 450, 0, []
1629046310.0316, 99, 0, 4200, 4420.513, 4125.128, 4147.692, 4157.436, 16209, 0, []
1629046310.0394, 100, 0, 4183.59, 4413.333, 4163.077, 4147.179, 4146.154, 450, 0, []
1629046310.0473, 101, 0, 4151.795, 4392.308, 4130.769, 4141.026, 4129.744, 450, 0, []
1629046310.0552, 102, 0, 4154.359, 4393.846, 4150.769, 4157.949, 4140, 450, 0, []
1629046310.0632, 103, 0, 4185.128, 4400.513, 4152.821, 4172.308, 4161.026, 16209, 0, []
1629046310.0711, 104, 0, 4191.795, 4402.051, 4133.333, 4169.231, 4162.051, 450, 0, []
1629046310.0791, 105, 0, 4169.744, 4395.897, 4170.769, 4156.923, 4147.692, 450, 0, []
1629046310.0869, 106, 0, 4153.846, 4378.974, 4141.026, 4139.487, 4136.923, 450, 0, []
1629046310.0949, 107, 0, 4161.538, 4381.538, 4153.846, 4147.179, 4141.026, 16209, 0, []
1629046310.1028, 108, 0, 4185.128, 4390.769, 4169.744, 4161.538, 4160.513, 450, 0, []
1629046310.1108, 109, 0, 4190.256, 4362.564, 4147.692, 4155.897, 4169.231, 450, 0, []
1629046310.1187, 110, 0, 4165.128, 4340.513, 4166.667, 4142.051, 4153.333, 450, 0, []
1629046310.1264, 111, 0, 4153.846, 4364.615, 4131.795, 4138.974, 4143.077, 16209, 0, []
1629046310.1343, 112, 0, 4166.154, 4387.179, 4138.974, 4142.564, 4135.385, 450, 0, []
1629046310.1421, 113, 0, 4171.795, 4383.077, 4147.179, 4134.359, 4129.231, 450, 0, []
1629046310.15, 114, 0, 4169.231, 4366.154, 4124.615, 4137.436, 4145.641, 450, 0, []
1629046310.1578, 115, 0, 4171.795, 4348.205, 4164.103, 4151.795, 4168.205, 16209, 0, []
1629046310.1657, 116, 0, 4175.385, 4345.128, 4135.897, 4141.026, 4167.179, 450, 0, []
1629046310.1734, 117, 0, 4168.718, 4349.744, 4130.769, 4124.103, 4147.692, 450, 0, []
1629046310.1813, 118, 0, 4152.821, 4346.667, 4143.077, 4118.462, 4131.282, 450, 0, []
1629046310.1891, 119, 0, 4146.667, 4334.359, 4115.897, 4123.59, 4128.205, 16209, 0, []
1629046310.1971, 120, 0, 4160.513, 4336.41, 4161.538, 4141.538, 4135.897, 450, 0, []
1629046310.205, 121, 0, 4174.359, 4366.667, 4153.846, 4149.744, 4140, 450, 0, []
1629046310.2129, 122, 0, 4171.795, 4373.846, 4146.154, 4142.564, 4134.359, 450, 0, []
1629046310.2208, 123, 0, 4158.974, 4348.205, 4162.564, 4126.667, 4131.282, 16209, 0, []
1629046310.2288, 124, 0, 4151.282, 4340.513, 4126.667, 4116.923, 4134.872, 450, 0, []
1629046310.2367, 125, 0, 4156.41, 4344.103, 4155.385, 4124.103, 4140, 450, 0, []
1629046310.2447, 126, 0, 4156.41, 4332.308, 4143.59, 4123.077, 4141.538, 450, 0, []
1629046310.2525, 127, 0, 4151.795, 4337.949, 4133.846, 4127.692, 4142.564, 16209, 0, []
1629046310.2605, 128, 0, 4162.564, 4363.077, 4167.692, 4152.308, 4156.923, 450, 0, []
1629046310.2684, 0, 0, 4173.333, 4352.821, 4134.359, 4156.41, 4170.256, 450, 0, []
1629046310.2762, 1, 0, 4162.564, 4329.231, 4147.692, 4139.487, 4161.026, 450, 0, []
1629046310.2841, 2, 0, 4163.077, 4343.59, 4137.949, 4129.231, 4152.821, 16188, 0, []
1629046310.2918, 3, 0, 4178.462, 4345.128, 4123.59, 4133.333, 4161.026, 450, 0, []
1629046310.2997, 4, 0, 4178.462, 4322.564, 4157.949, 4138.462, 4170.256, 16149, 0, []
1629046310.3075, 5, 0, 4174.872, 4339.487, 4138.462, 4140.513, 4176.41, 450, 0, []
1629046310.3154, 6, 0, 4183.59, 4354.359, 4162.564, 4147.692, 4178.462, 314, 0, []
1629046310.3232, 7, 0, 4189.744, 4332.821, 4151.282, 4141.538, 4176.41, 450, 0, []
1629046310.331, 8, 0, 4185.128, 4343.59, 4122.051, 4137.949, 4176.923, 450, 0, []
1629046310.3388, 9, 0, 4176.41, 4381.026, 4156.41, 4140, 4178.974, 16149, 0, []
1629046310.3468, 10, 0, 4166.667, 4382.564, 4125.641, 4123.59, 4169.744, 450, 0, []
1629046310.3547, 11, 0, 4165.641, 4362.051, 4138.462, 4119.487, 4162.051, 16209, 0, []
1629046310.3627, 12, 0, 4171.282, 4354.872, 4147.179, 4123.59, 4167.692, 450, 0, []
1629046310.3705, 13, 0, 4169.231, 4342.564, 4121.538, 4124.103, 4172.821, 450, 0, []
1629046310.3785, 14, 0, 4166.667, 4336.923, 4152.821, 4129.744, 4172.308, 450, 0, []
1629046310.3864, 15, 0, 4171.282, 4356.923, 4127.179, 4125.641, 4172.821, 16209, 0, []
1629046310.3944, 16, 0, 4172.821, 4361.538, 4136.923, 4121.026, 4173.333, 0, 0, []
1629046310.4023, 17, 0, 4169.231, 4348.205, 4152.308, 4120.513, 4175.385, 0, 0, []
1629046310.4102, 18, 0, 4173.333, 4356.41, 4133.333, 4134.359, 4188.205, 0, 0, []
1629046310.4181, 19, 0, 4186.667, 4371.282, 4176.41, 4163.077, 4207.692, 0, 0, []
1629046310.4261, 20, 0, 4194.872, 4362.051, 4154.872, 4175.385, 4221.026, 0, 0, []
1629046310.434, 21, 0, 4191.795, 4354.359, 4151.795, 4170.769, 4219.487, 0, 0, []
1629046310.4418, 22, 0, 4181.026, 4372.821, 4165.128, 4154.359, 4202.051, 0, 0, []
1629046310.4496, 23, 0, 4180.513, 4392.821, 4139.487, 4152.821, 4201.538, 0, 0, []
1629046310.4574, 24, 0, 4203.59, 4391.795, 4187.692, 4184.103, 4226.154, 0, 0, []
1629046310.4653, 25, 0, 4217.436, 4385.641, 4175.897, 4198.462, 4232.308, 0, 0, []
1629046310.4731, 26, 0, 4200, 4386.154, 4150.256, 4183.077, 4217.949, 0, 0, []
1629046310.4811, 27, 0, 4186.154, 4378.974, 4158.974, 4177.436, 4220.513, 0, 0, []
1629046310.4889, 28, 0, 4187.179, 4364.615, 4140.513, 4185.641, 4232.308, 0, 0, []
1629046310.4969, 29, 0, 4181.026, 4358.462, 4164.103, 4185.128, 4216.923, 0, 0, []
1629046310.5048, 30, 0, 4171.282, 4359.487, 4140.513, 4168.718, 4189.744, 0, 0, []
1629046310.5128, 31, 0, 4177.436, 4368.205, 4143.077, 4170.256, 4193.333, 0, 0, []
1629046310.5207, 32, 0, 4188.718, 4381.026, 4172.821, 4178.974, 4217.949, 0, 0, []
1629046310.5287, 33, 0, 4191.795, 4381.538, 4137.949, 4178.462, 4231.282, 0, 0, []
1629046310.5365, 34, 0, 4181.026, 4364.103, 4157.436, 4173.846, 4213.846, 0, 0, []
1629046310.5445, 35, 0, 4165.128, 4358.974, 4145.128, 4162.564, 4182.564, 0, 0, []
1629046310.5524, 36, 0, 4160.513, 4380.513, 4137.949, 4165.641, 4174.359, 0, 0, []
1629046310.5603, 37, 0, 4157.949, 4378.462, 4168.718, 4175.385, 4186.667, 0, 0, []
1629046310.5682, 38, 0, 4155.385, 4356.41, 4129.744, 4167.179, 4187.179, 0, 0, []
1629046310.5761, 39, 0, 4163.59, 4375.385, 4153.333, 4168.718, 4180, 0, 0, []
1629046310.5841, 40, 0, 4181.026, 4423.59, 4175.897, 4187.179, 4200, 0, 0, []
1629046310.592, 41, 0, 4178.462, 4434.359, 4160, 4190.256, 4210.769, 0, 0, []
1629046310.6, 42, 0, 4156.923, 4410.769, 4168.718, 4172.308, 4189.744, 0, 0, []
1629046310.6079, 43, 0, 4158.974, 4420.513, 4132.308, 4166.667, 4191.795, 0, 0, []
1629046310.6158, 44, 0, 4181.538, 4456.41, 4160, 4187.692, 4216.41, 0, 0, []
1629046310.6237, 45, 0, 4185.128, 4451.282, 4174.359, 4186.667, 4209.744, 0, 0, []
1629046310.6317, 46, 0, 4162.564, 4412.821, 4140.513, 4160.513, 4183.59, 0, 0, []
1629046310.6396, 47, 0, 4167.692, 4419.487, 4168.718, 4170.256, 4190.769, 0, 0, []
1629046310.6476, 48, 0, 4190.256, 4455.385, 4155.385, 4200, 4212.308, 0, 0, []
1629046310.6555, 49, 0, 4179.487, 4465.128, 4163.59, 4199.487, 4202.051, 0, 0, []
1629046310.6634, 50, 0, 4167.179, 4503.077, 4167.179, 4177.436, 4189.744, 0, 0, []
1629046310.6714, 51, 0, 4180, 4568.718, 4138.462, 4170.769, 4201.026, 0, 0, []
1629046310.6793, 52, 0, 4184.615, 4587.179, 4164.103, 4172.308, 4205.641, 0, 0, []
1629046310.6873, 53, 0, 4166.667, 4579.487, 4134.359, 4158.974, 4190.769, 0, 0, []
1629046310.6951, 54, 0, 4153.846, 4583.077, 4136.41, 4155.897, 4180.513, 0, 0, []
1629046310.7031, 55, 0, 4160, 4576.41, 4156.41, 4162.051, 4185.641, 0, 0, []
1629046310.711, 56, 0, 4166.154, 4561.538, 4118.974, 4163.59, 4186.667, 0, 0, []
1629046310.719, 57, 0, 4166.154, 4562.564, 4142.051, 4161.538, 4182.564, 0, 0, []
1629046310.7269, 58, 0, 4172.308, 4564.103, 4138.974, 4159.487, 4193.846, 0, 0, []
1629046310.7348, 59, 0, 4183.077, 4557.949, 4150.769, 4172.821, 4208.718, 0, 0, []
1629046310.7427, 60, 0, 4186.154, 4568.718, 4168.718, 4178.462, 4210.256, 0, 0, []
1629046310.7507, 61, 0, 4180, 4577.436, 4133.333, 4164.615, 4206.667, 0, 0, []
1629046310.7586, 62, 0, 4173.333, 4566.667, 4170.256, 4166.154, 4203.077, 0, 0, []
1629046310.7666, 63, 0, 4169.231, 4565.641, 4153.846, 4167.179, 4198.462, 0, 0, []
1629046310.7744, 64, 0, 4172.308, 4556.41, 4123.59, 4158.974, 4201.538, 450, 0, []
1629046310.7824, 65, 0, 4181.538, 4536.41, 4157.436, 4162.564, 4213.846, 450, 0, []
1629046310.7903, 66, 0, 4184.103, 4546.667, 4146.667, 4170.256, 4214.359, 16189, 0, []
1629046310.7983, 67, 0, 4182.051, 4570.256, 4165.128, 4171.282, 4204.103, 450, 0, []
1629046310.8063, 68, 0, 4183.077, 4566.154, 4147.179, 4164.615, 4198.974, 16149, 0, []
1629046310.8141, 69, 0, 4181.026, 4546.667, 4129.744, 4162.564, 4201.026, 450, 0, []
1629046310.8221, 70, 0, 4171.282, 4539.487, 4155.385, 4165.128, 4199.487, 314, 0, []
1629046310.83, 71, 0, 4160, 4537.436, 4117.436, 4157.436, 4190.769, 450, 0, []
1629046310.838, 72, 0, 4155.897, 4528.205, 4135.897, 4154.872, 4181.026, 450, 0, []
1629046310.8459, 73, 0, 4160, 4531.282, 4147.179, 4154.872, 4181.026, 16147, 0, []
1629046310.8538, 74, 0, 4168.205, 4540, 4134.359, 4158.462, 4192.308, 450, 0, []
1629046310.8617, 75, 0, 4169.231, 4528.718, 4166.154, 4159.487, 4195.897, 16249, 0, []
1629046310.8697, 76, 0, 4165.128, 4529.231, 4141.538, 4150.256, 4188.718, 450, 0, []
1629046310.8776, 77, 0, 4167.179, 4543.59, 4156.923, 4156.923, 4181.026, 450, 0, []
1629046310.8856, 78, 0, 4162.564, 4526.154, 4157.949, 4157.436, 4174.872, 450, 0, []
1629046310.8935, 79, 0, 4152.308, 4503.59, 4126.154, 4147.692, 4169.744, 16249, 0, []
1629046310.9014, 80, 0, 4155.385, 4524.103, 4165.641, 4152.821, 4170.769, 450, 0, []
1629046310.9094, 81, 0, 4160, 4537.949, 4148.205, 4156.41, 4171.282, 450, 0, []
1629046310.9173, 82, 0, 4154.872, 4508.718, 4151.795, 4161.538, 4168.718, 450, 0, []
1629046310.9252, 83, 0, 4151.795, 4486.667, 4164.615, 4163.59, 4172.308, 16249, 0, []
1629046310.9332, 84, 0, 4144.103, 4491.795, 4130.769, 4145.128, 4166.154, 450, 0, []
1629046310.9411, 85, 0, 4133.333, 4487.692, 4153.846, 4128.205, 4146.154, 450, 0, []
1629046310.949, 86, 0, 4140, 4476.41, 4138.974, 4132.308, 4145.128, 450, 0, []
1629046310.957, 87, 0, 4154.872, 4485.128, 4142.564, 4146.154, 4168.205, 16249, 0, []
1629046310.9649, 88, 0, 4155.385, 4488.205, 4150.769, 4140, 4175.897, 450, 0, []
1629046310.9729, 89, 0, 4150.769, 4479.487, 4121.538, 4133.333, 4160.513, 450, 0, []
1629046310.9807, 90, 0, 4151.795, 4480.513, 4165.641, 4151.795, 4158.462, 450, 0, []
1629046310.9887, 91, 0, 4154.359, 4478.462, 4154.872, 4157.436, 4181.026, 16249, 0, []
1629046310.9966, 92, 0, 4153.333, 4464.615, 4138.974, 4148.205, 4192.821, 450, 0, []
1629046311.0046, 93, 0, 4151.795, 4458.462, 4156.41, 4138.462, 4181.026, 450, 0, []
1629046311.0125, 94, 0, 4154.359, 4458.462, 4126.667, 4133.846, 4177.949, 450, 0, []
1629046311.0204, 95, 0, 4158.974, 4446.154, 4148.718, 4137.436, 4195.897, 16249, 0, []
1629046311.0283, 96, 0, 4154.359, 4453.846, 4131.282, 4131.795, 4204.103, 450, 0, []
1629046311.0363, 97, 0, 4151.282, 4462.564, 4118.974, 4128.205, 4190.256, 450, 0, []
1629046311.0442, 98, 0, 4160, 4441.026, 4151.282, 4133.846, 4182.564, 450, 0, []
1629046311.0522, 99, 0, 4160, 4434.359, 4120, 4129.744, 4184.615, 16249, 0, []
1629046311.06, 100, 0, 4149.231, 4438.974, 4141.026, 4123.077, 4181.538, 450, 0, []
1629046311.068, 101, 0, 4150.769, 4433.333, 4147.692, 4122.564, 4183.077, 450, 0, []
1629046311.0759, 102, 0, 4157.949, 4423.59, 4133.333, 4129.744, 4187.692, 450, 0, []
1629046311.0839, 103, 0, 4156.41, 4415.385, 4157.436, 4129.744, 4182.564, 16249, 0, []
1629046311.0918, 104, 0, 4162.051, 4419.487, 4127.179, 4125.641, 4186.667, 450, 0, []
1629046311.0997, 105, 0, 4169.744, 4421.538, 4149.744, 4136.923, 4197.436, 450, 0, []
1629046311.1076, 106, 0, 4171.282, 4406.667, 4151.282, 4143.59, 4196.41, 450, 0, []
1629046311.1154, 107, 0, 4180, 4404.615, 4123.077, 4140, 4199.487, 16249, 0, []
1629046311.1234, 108, 0, 4183.59, 4422.564, 4162.564, 4142.564, 4209.231, 450, 0, []
1629046311.1313, 109, 0, 4176.923, 4419.487, 4144.103, 4146.154, 4214.872, 450, 0, []
1629046311.1392, 110, 0, 4171.282, 4398.974, 4143.59, 4149.744, 4208.718, 450, 0, []
