Timestamp, COUNTER, INTERPOLATED, AF3, T7, Pz, T8, AF4, RAW_CQ, MARKER_HARDWARE, MARKERS
1627645129.0696, 65, 0, 4151.282, 4261.026, 4173.333, 4183.077, 4185.128, 450, 0, []
1627645129.0774, 66, 0, 4164.615, 4273.846, 4181.026, 4190.256, 4191.282, 16165, 0, []
1627645129.0853, 67, 0, 4177.436, 4284.615, 4196.41, 4203.077, 4198.462, 450, 0, []
1627645129.0931, 68, 0, 4164.615, 4293.333, 4185.128, 4195.897, 4186.154, 314, 0, []
1627645129.101, 69, 0, 4144.103, 4313.333, 4170.769, 4189.231, 4168.205, 450, 0, []
1627645129.1088, 70, 0, 4136.923, 4295.897, 4169.231, 4193.333, 4165.128, 16073, 0, []
1627645129.1167, 71, 0, 4146.667, 4283.077, 4178.974, 4206.154, 4178.974, 450, 0, []
1627645129.1246, 72, 0, 4167.692, 4296.923, 4188.205, 4215.385, 4195.897, 450, 0, []
1627645129.1325, 73, 0, 4169.231, 4291.795, 4183.077, 4205.641, 4196.923, 16152, 0, []
1627645129.1403, 74, 0, 4155.897, 4303.077, 4175.897, 4189.744, 4182.564, 450, 0, []
1627645129.1483, 75, 0, 4149.231, 4324.103, 4168.205, 4185.641, 4169.744, 16210, 0, []
1627645129.1561, 76, 0, 4149.744, 4309.231, 4166.667, 4186.154, 4169.231, 450, 0, []
1627645129.164, 77, 0, 4164.103, 4288.205, 4182.051, 4191.795, 4190.769, 450, 0, []
1627645129.1718, 78, 0, 4180.513, 4296.923, 4193.333, 4205.128, 4216.41, 450, 0, []
1627645129.1798, 79, 0, 4175.897, 4314.359, 4186.667, 4209.231, 4214.872, 16210, 0, []
1627645129.1877, 80, 0, 4159.487, 4298.974, 4173.333, 4203.59, 4197.949, 450, 0, []
1627645129.1956, 81, 0, 4142.051, 4280.513, 4161.026, 4187.179, 4182.564, 450, 0, []
1627645129.2035, 82, 0, 4139.487, 4291.795, 4157.949, 4177.436, 4181.538, 450, 0, []
1627645129.2115, 83, 0, 4171.282, 4319.487, 4178.974, 4202.564, 4211.282, 16210, 0, []
1627645129.2194, 84, 0, 4180, 4320, 4181.026, 4207.179, 4212.821, 450, 0, []
1627645129.2272, 85, 0, 4148.718, 4300, 4154.359, 4175.385, 4178.462, 450, 0, []
1627645129.2351, 86, 0, 4165.641, 4313.333, 4174.872, 4193.333, 4194.359, 450, 0, []
1627645129.243, 87, 0, 4211.795, 4318.462, 4210.769, 4240.513, 4238.462, 16210, 0, []
1627645129.2509, 88, 0, 4191.795, 4301.538, 4182.564, 4226.667, 4224.615, 450, 0, []
1627645129.2589, 89, 0, 4158.974, 4296.923, 4147.179, 4193.333, 4193.333, 450, 0, []
1627645129.2669, 90, 0, 4180, 4310.769, 4162.051, 4203.59, 4201.538, 450, 0, []
1627645129.2747, 91, 0, 4196.923, 4318.974, 4180, 4213.846, 4210.256, 16210, 0, []
1627645129.2827, 92, 0, 4185.641, 4303.077, 4174.359, 4203.077, 4202.564, 450, 0, []
1627645129.2907, 93, 0, 4174.872, 4308.718, 4165.128, 4193.846, 4191.282, 450, 0, []
1627645129.2986, 94, 0, 4177.949, 4336.41, 4169.744, 4193.846, 4190.256, 450, 0, []
1627645129.3065, 95, 0, 4183.077, 4315.897, 4172.308, 4199.487, 4195.897, 16210, 0, []
1627645129.3144, 96, 0, 4176.923, 4281.026, 4159.487, 4201.538, 4194.872, 450, 0, []
1627645129.3224, 97, 1, 4180, 4283.932, 4161.652, 4202.849, 4195.726, 450, 0, []
1627645129.3303, 98, 1, 4183.077, 4286.838, 4163.818, 4204.16, 4196.581, 450, 0, []
1627645129.3382, 99, 1, 4186.154, 4289.744, 4165.983, 4205.47, 4197.436, 450, 0, []
1627645129.3461, 100, 1, 4189.231, 4292.65, 4168.148, 4206.781, 4198.291, 450, 0, []
1627645129.3539, 101, 1, 4192.308, 4295.556, 4170.313, 4208.091, 4199.145, 450, 0, []
1627645129.3618, 102, 1, 4195.385, 4298.462, 4172.479, 4209.402, 4200, 450, 0, []
1627645129.3697, 103, 1, 4198.462, 4301.368, 4174.644, 4210.712, 4200.855, 450, 0, []
1627645129.3776, 104, 1, 4201.538, 4304.274, 4176.809, 4212.023, 4201.709, 450, 0, []
1627645129.3855, 105, 0, 4204.615, 4307.179, 4178.974, 4213.333, 4202.564, 450, 0, []
1627645129.3933, 106, 0, 4196.41, 4298.974, 4175.897, 4200.513, 4196.41, 450, 0, []
1627645129.4011, 107, 0, 4193.333, 4289.744, 4184.103, 4203.59, 4202.564, 16210, 0, []
1627645129.409, 108, 0, 4189.231, 4306.154, 4175.897, 4201.026, 4197.436, 450, 0, []
1627645129.4168, 109, 0, 4191.282, 4314.872, 4162.051, 4191.795, 4185.641, 450, 0, []
1627645129.4247, 110, 0, 4199.487, 4281.538, 4169.744, 4193.846, 4185.128, 450, 0, []
1627645129.4324, 111, 0, 4208.205, 4278.462, 4183.077, 4199.487, 4196.41, 16210, 0, []
1627645129.4402, 112, 0, 4229.744, 4325.641, 4182.051, 4193.846, 4217.949, 450, 0, []
1627645129.448, 113, 0, 4266.667, 4315.385, 4181.538, 4196.923, 4252.821, 450, 0, []
1627645129.456, 114, 0, 4301.538, 4280.513, 4190.769, 4204.615, 4288.205, 450, 0, []
1627645129.4639, 115, 0, 4332.821, 4318.462, 4197.949, 4201.538, 4312.308, 16210, 0, []
1627645129.4718, 116, 0, 4344.615, 4328.718, 4189.744, 4201.026, 4325.128, 450, 0, []
1627645129.4798, 117, 1, 4338.063, 4324.444, 4187.692, 4199.658, 4320.456, 450, 0, []
1627645129.4877, 118, 1, 4331.51, 4320.171, 4185.641, 4198.291, 4315.783, 450, 0, []
1627645129.4956, 119, 1, 4324.957, 4315.897, 4183.59, 4196.923, 4311.111, 450, 0, []
1627645129.5035, 120, 1, 4318.405, 4311.624, 4181.538, 4195.556, 4306.439, 450, 0, []
1627645129.5113, 121, 1, 4311.852, 4307.35, 4179.487, 4194.188, 4301.766, 450, 0, []
1627645129.5192, 122, 1, 4305.299, 4303.077, 4177.436, 4192.821, 4297.094, 450, 0, []
1627645129.5271, 123, 1, 4298.746, 4298.803, 4175.385, 4191.453, 4292.422, 450, 0, []
1627645129.535, 124, 1, 4292.194, 4294.53, 4173.333, 4190.085, 4287.749, 450, 0, []
1627645129.5429, 125, 0, 4285.641, 4290.256, 4171.282, 4188.718, 4283.077, 450, 0, []
1627645129.5506, 126, 0, 4299.487, 4338.974, 4196.923, 4222.051, 4292.308, 450, 0, []
1627645129.5585, 127, 0, 4299.487, 4341.538, 4200.513, 4226.154, 4288.718, 16210, 0, []
1627645129.5663, 128, 0, 4283.077, 4305.641, 4191.795, 4215.897, 4276.923, 450, 0, []
1627645129.5742, 0, 0, 4265.128, 4303.59, 4190.256, 4214.359, 4263.59, 450, 0, []
1627645129.582, 1, 0, 4264.103, 4322.564, 4193.846, 4219.487, 4262.564, 450, 0, []
1627645129.5897, 2, 0, 4262.051, 4320.513, 4183.59, 4216.923, 4264.103, 16165, 0, []
1627645129.5977, 3, 0, 4248.718, 4302.051, 4174.872, 4202.051, 4254.359, 450, 0, []
1627645129.6057, 4, 0, 4246.154, 4273.333, 4180, 4197.949, 4251.282, 314, 0, []
1627645129.6136, 5, 0, 4265.128, 4270.256, 4202.564, 4223.59, 4274.359, 450, 0, []
1627645129.6215, 6, 0, 4274.872, 4325.641, 4218.462, 4244.103, 4291.795, 16073, 0, []
1627645129.6294, 7, 0, 4249.231, 4340, 4202.564, 4225.641, 4267.179, 450, 0, []
1627645129.6374, 8, 0, 4228.205, 4292.308, 4194.359, 4212.308, 4244.615, 450, 0, []
1627645129.6453, 9, 0, 4234.872, 4291.282, 4208.205, 4222.564, 4252.308, 16152, 0, []
1627645129.6533, 10, 0, 4220.513, 4322.051, 4193.846, 4211.282, 4237.436, 450, 0, []
1627645129.6612, 11, 0, 4200, 4310.769, 4174.872, 4198.462, 4213.846, 16207, 0, []
1627645129.6691, 12, 0, 4209.744, 4275.385, 4186.667, 4212.821, 4225.128, 450, 0, []
1627645129.6771, 13, 0, 4214.872, 4271.795, 4195.897, 4214.872, 4229.231, 450, 0, []
1627645129.6851, 14, 0, 4204.615, 4306.667, 4187.179, 4200, 4207.692, 450, 0, []
1627645129.693, 15, 0, 4208.718, 4323.077, 4187.179, 4204.103, 4211.282, 16207, 0, []
1627645129.701, 16, 0, 4208.205, 4292.308, 4181.538, 4204.615, 4221.026, 0, 0, []
1627645129.7089, 17, 1, 4204.672, 4293.105, 4178.974, 4202.279, 4216.638, 0, 0, []
1627645129.7168, 18, 1, 4201.14, 4293.903, 4176.41, 4199.943, 4212.251, 0, 0, []
1627645129.7247, 19, 1, 4197.607, 4294.701, 4173.846, 4197.607, 4207.863, 0, 0, []
1627645129.7326, 20, 1, 4194.074, 4295.499, 4171.282, 4195.271, 4203.476, 0, 0, []
1627645129.7405, 21, 1, 4190.541, 4296.296, 4168.718, 4192.934, 4199.088, 0, 0, []
1627645129.7483, 22, 1, 4187.009, 4297.094, 4166.154, 4190.598, 4194.701, 0, 0, []
1627645129.7562, 23, 1, 4183.476, 4297.892, 4163.59, 4188.262, 4190.313, 0, 0, []
1627645129.7641, 24, 1, 4179.943, 4298.689, 4161.026, 4185.926, 4185.926, 0, 0, []
1627645129.772, 25, 0, 4176.41, 4299.487, 4158.462, 4183.59, 4181.538, 0, 0, []
1627645129.7798, 26, 0, 4206.667, 4289.231, 4199.487, 4220, 4214.872, 0, 0, []
1627645129.7877, 27, 0, 4232.308, 4283.077, 4218.974, 4245.128, 4241.538, 0, 0, []
1627645129.7957, 28, 0, 4217.436, 4311.282, 4192.308, 4221.026, 4221.538, 0, 0, []
1627645129.8036, 29, 1, 4215.442, 4307.407, 4191.567, 4218.689, 4219.031, 0, 0, []
1627645129.8115, 30, 1, 4213.447, 4303.533, 4190.826, 4216.353, 4216.524, 0, 0, []
1627645129.8194, 31, 1, 4211.453, 4299.658, 4190.085, 4214.017, 4214.017, 0, 0, []
1627645129.8272, 32, 1, 4209.459, 4295.783, 4189.345, 4211.681, 4211.51, 0, 0, []
1627645129.8351, 33, 1, 4207.464, 4291.909, 4188.604, 4209.345, 4209.003, 0, 0, []
1627645129.843, 34, 1, 4205.47, 4288.034, 4187.863, 4207.009, 4206.496, 0, 0, []
1627645129.8509, 35, 1, 4203.476, 4284.16, 4187.123, 4204.672, 4203.989, 0, 0, []
1627645129.8588, 36, 1, 4201.481, 4280.285, 4186.382, 4202.336, 4201.481, 0, 0, []
1627645129.8667, 37, 0, 4199.487, 4276.41, 4185.641, 4200, 4198.974, 0, 0, []
1627645129.8744, 38, 0, 4215.897, 4285.641, 4185.128, 4208.718, 4212.308, 0, 0, []
1627645129.8823, 39, 0, 4222.051, 4307.692, 4178.974, 4203.59, 4212.821, 0, 0, []
1627645129.8902, 40, 0, 4217.436, 4303.59, 4185.641, 4198.974, 4210.256, 0, 0, []
1627645129.898, 41, 0, 4224.103, 4295.897, 4197.436, 4204.615, 4217.949, 0, 0, []
1627645129.9059, 42, 0, 4232.308, 4304.103, 4190.256, 4202.564, 4222.051, 0, 0, []
1627645129.9136, 43, 0, 4232.308, 4313.846, 4185.641, 4202.051, 4217.949, 0, 0, []
1627645129.9214, 44, 0, 4236.41, 4299.487, 4195.897, 4212.821, 4220, 0, 0, []
1627645129.9293, 45, 0, 4227.179, 4271.282, 4190.256, 4206.667, 4214.872, 0, 0, []
1627645129.9372, 46, 0, 4219.487, 4273.333, 4191.282, 4198.974, 4212.821, 0, 0, []
1627645129.945, 47, 0, 4229.231, 4315.897, 4196.41, 4203.077, 4221.026, 0, 0, []
1627645129.9528, 48, 0, 4216.923, 4312.821, 4163.59, 4180, 4202.564, 0, 0, []
1627645129.9606, 49, 0, 4200.513, 4258.462, 4141.538, 4148.205, 4176.923, 0, 0, []
1627645129.9684, 50, 0, 4229.231, 4266.154, 4176.923, 4168.205, 4202.051, 0, 0, []
1627645129.9762, 51, 0, 4271.282, 4305.128, 4202.564, 4206.154, 4258.462, 0, 0, []
1627645129.9841, 52, 0, 4284.103, 4300.513, 4188.205, 4203.59, 4288.205, 0, 0, []
1627645129.9918, 53, 0, 4297.949, 4302.564, 4189.231, 4193.846, 4309.231, 0, 0, []
1627645129.9997, 54, 0, 4325.128, 4327.692, 4197.436, 4213.846, 4348.205, 0, 0, []
1627645130.0075, 55, 0, 4350.256, 4314.872, 4188.718, 4233.846, 4384.615, 0, 0, []
1627645130.0154, 56, 0, 4353.333, 4295.385, 4183.077, 4227.692, 4395.385, 0, 0, []
1627645130.0232, 57, 0, 4323.077, 4291.795, 4181.538, 4217.949, 4385.128, 0, 0, []
1627645130.031, 58, 0, 4298.462, 4284.103, 4192.821, 4227.692, 4383.59, 0, 0, []
1627645130.0388, 59, 0, 4296.41, 4293.846, 4211.282, 4243.077, 4394.872, 0, 0, []
1627645130.0467, 60, 0, 4287.179, 4299.487, 4203.077, 4248.205, 4395.897, 0, 0, []
1627645130.0545, 61, 0, 4269.231, 4305.128, 4189.231, 4255.385, 4385.641, 0, 0, []
1627645130.0624, 62, 0, 4265.641, 4323.077, 4210.256, 4278.974, 4384.103, 0, 0, []
1627645130.0701, 63, 0, 4244.615, 4307.692, 4228.205, 4295.385, 4373.846, 0, 0, []
1627645130.0781, 64, 0, 4191.282, 4289.744, 4213.846, 4284.103, 4336.41, 450, 0, []
1627645130.086, 65, 0, 4139.487, 4310.769, 4194.359, 4271.282, 4291.795, 450, 0, []
1627645130.0939, 66, 0, 4099.487, 4303.59, 4184.103, 4278.974, 4252.308, 16164, 0, []
1627645130.1017, 67, 0, 4061.538, 4274.872, 4185.641, 4288.718, 4216.923, 450, 0, []
1627645130.1095, 68, 0, 4015.385, 4282.051, 4181.538, 4274.359, 4171.282, 314, 0, []
1627645130.1173, 69, 0, 3983.077, 4265.128, 4181.538, 4265.641, 4131.282, 450, 0, []
1627645130.1252, 70, 0, 3989.231, 4258.974, 4208.718, 4296.923, 4130.769, 16073, 0, []
1627645130.133, 71, 0, 4002.564, 4307.692, 4226.667, 4327.179, 4148.205, 450, 0, []
1627645130.1409, 72, 0, 3987.179, 4306.667, 4210.769, 4315.897, 4134.359, 450, 0, []
1627645130.1486, 73, 0, 3968.718, 4252.821, 4207.179, 4308.718, 4107.179, 16152, 0, []
1627645130.1565, 74, 0, 3964.615, 4234.359, 4218.462, 4322.564, 4097.436, 450, 0, []
1627645130.1643, 75, 0, 3937.436, 4229.231, 4194.872, 4295.897, 4071.282, 16202, 0, []
1627645130.1722, 76, 0, 3930.769, 4178.462, 4182.564, 4274.872, 4063.59, 450, 0, []
1627645130.18, 77, 0, 3987.692, 4116.41, 4225.128, 4316.923, 4117.949, 450, 0, []
1627645130.1878, 78, 0, 4018.974, 4050.769, 4235.385, 4329.231, 4144.615, 450, 0, []
1627645130.1956, 79, 0, 3988.205, 3972.821, 4194.359, 4286.667, 4108.205, 16202, 0, []
1627645130.2035, 80, 0, 3976.923, 3926.667, 4189.231, 4275.897, 4095.385, 450, 0, []
1627645130.2113, 81, 0, 3990.769, 3917.949, 4204.615, 4288.718, 4112.821, 450, 0, []
1627645130.2192, 82, 0, 3986.154, 3925.641, 4191.282, 4268.205, 4107.179, 450, 0, []
1627645130.2269, 83, 0, 3992.308, 3903.59, 4187.179, 4253.333, 4109.231, 16202, 0, []
1627645130.2348, 84, 0, 4017.949, 3881.026, 4198.462, 4268.718, 4127.692, 450, 0, []
1627645130.2426, 85, 0, 4029.744, 3914.359, 4195.385, 4275.897, 4134.359, 450, 0, []
1627645130.2505, 86, 0, 4027.179, 3936.41, 4187.692, 4267.692, 4136.41, 450, 0, []
1627645130.2583, 87, 0, 4023.077, 3894.872, 4189.744, 4262.051, 4136.41, 16202, 0, []
1627645130.2661, 88, 0, 4025.128, 3869.231, 4189.744, 4255.897, 4136.41, 450, 0, []
1627645130.2739, 89, 0, 4042.051, 3907.692, 4190.256, 4252.821, 4151.282, 450, 0, []
1627645130.2817, 90, 0, 4066.154, 3910.256, 4207.692, 4268.718, 4177.436, 450, 0, []
1627645130.2896, 91, 0, 4077.436, 3868.205, 4217.436, 4285.641, 4199.487, 16202, 0, []
1627645130.2974, 92, 0, 4073.846, 3861.538, 4203.59, 4274.872, 4205.128, 450, 0, []
1627645130.3052, 93, 0, 4070.256, 3864.615, 4194.359, 4257.949, 4195.897, 450, 0, []
1627645130.313, 94, 0, 4085.641, 3840, 4195.385, 4258.974, 4195.897, 450, 0, []
1627645130.3209, 95, 0, 4094.359, 3834.359, 4199.487, 4260, 4199.487, 16202, 0, []
1627645130.3287, 96, 0, 4093.846, 3875.897, 4206.667, 4261.026, 4197.436, 450, 0, []
1627645130.3366, 97, 0, 4112.821, 3870.769, 4203.077, 4254.359, 4195.897, 450, 0, []
1627645130.3443, 98, 0, 4123.59, 3826.154, 4189.231, 4231.795, 4184.615, 450, 0, []
1627645130.3522, 99, 0, 4115.897, 3834.359, 4188.718, 4226.667, 4173.333, 16202, 0, []
1627645130.36, 100, 0, 4126.667, 3860.513, 4201.538, 4244.615, 4184.103, 450, 0, []
1627645130.3679, 101, 0, 4138.462, 3859.487, 4199.487, 4252.308, 4198.974, 450, 0, []
1627645130.3757, 102, 0, 4126.154, 3833.333, 4190.769, 4244.615, 4203.077, 450, 0, []
1627645130.3835, 103, 0, 4124.103, 3810.256, 4189.744, 4233.846, 4211.795, 16202, 0, []
1627645130.3913, 104, 0, 4134.359, 3842.051, 4181.026, 4220.513, 4214.872, 450, 0, []
1627645130.3992, 105, 0, 4137.949, 3874.359, 4174.359, 4213.333, 4209.744, 450, 0, []
1627645130.407, 106, 0, 4147.692, 3833.333, 4177.949, 4218.462, 4217.949, 450, 0, []
1627645130.4149, 107, 0, 4143.59, 3800.513, 4173.846, 4215.385, 4211.282, 16202, 0, []
1627645130.4226, 108, 0, 4138.462, 3848.205, 4177.436, 4210.256, 4203.59, 450, 0, []
1627645130.4304, 109, 0, 4154.359, 3864.615, 4193.333, 4220.513, 4222.051, 450, 0, []
1627645130.4383, 110, 0, 4162.564, 3818.974, 4201.538, 4228.205, 4242.564, 450, 0, []
1627645130.4461, 111, 0, 4170.769, 3824.615, 4210.256, 4245.128, 4268.205, 16202, 0, []
1627645130.454, 112, 0, 4189.231, 3878.974, 4226.667, 4270.256, 4296.923, 450, 0, []
1627645130.4618, 113, 0, 4179.487, 3875.897, 4217.949, 4258.974, 4286.667, 450, 0, []
1627645130.4696, 114, 0, 4158.462, 3838.462, 4189.744, 4228.718, 4257.949, 450, 0, []
1627645130.4774, 115, 0, 4168.718, 3874.872, 4193.333, 4226.154, 4264.615, 16202, 0, []
1627645130.4853, 116, 0, 4177.949, 3909.744, 4200, 4227.179, 4269.744, 450, 0, []
1627645130.4931, 117, 0, 4175.897, 3860.513, 4185.641, 4211.282, 4251.795, 450, 0, []
1627645130.501, 118, 0, 4187.692, 3848.718, 4182.051, 4210.256, 4255.897, 450, 0, []
1627645130.5087, 119, 0, 4209.744, 3890.769, 4193.333, 4226.667, 4286.667, 16202, 0, []
1627645130.5166, 120, 0, 4233.846, 3888.205, 4214.872, 4238.974, 4314.359, 450, 0, []
1627645130.5244, 121, 0, 4235.385, 3869.744, 4217.949, 4234.359, 4309.231, 450, 0, []
1627645130.5323, 122, 0, 4221.026, 3874.872, 4209.744, 4230.256, 4295.897, 450, 0, []
1627645130.5401, 123, 0, 4216.923, 3867.692, 4214.359, 4234.872, 4292.821, 16202, 0, []
1627645130.5479, 124, 0, 4206.154, 3881.026, 4202.564, 4222.564, 4277.436, 450, 0, []
1627645130.5557, 125, 0, 4185.641, 3908.718, 4174.359, 4199.487, 4250.256, 450, 0, []
1627645130.5636, 126, 0, 4193.846, 3884.103, 4172.821, 4207.692, 4253.846, 450, 0, []
1627645130.5714, 127, 0, 4214.872, 3870.256, 4182.051, 4226.667, 4273.333, 16202, 0, []
1627645130.5792, 128, 0, 4198.974, 3888.718, 4166.667, 4205.128, 4251.282, 450, 0, []
1627645130.587, 0, 0, 4196.41, 3898.974, 4174.359, 4197.436, 4238.462, 450, 0, []
1627645130.5948, 1, 0, 4240.513, 3925.641, 4221.538, 4238.462, 4281.026, 450, 0, []
1627645130.6027, 2, 0, 4247.179, 3943.077, 4218.462, 4242.564, 4295.385, 16164, 0, []
1627645130.6105, 3, 0, 4205.641, 3926.667, 4171.282, 4197.949, 4254.872, 450, 0, []
1627645130.6184, 4, 0, 4201.538, 3918.974, 4171.282, 4189.744, 4244.103, 314, 0, []
1627645130.6261, 5, 0, 4229.231, 3918.974, 4192.308, 4215.897, 4272.308, 450, 0, []
1627645130.634, 6, 0, 4228.718, 3921.538, 4188.718, 4216.923, 4265.641, 16073, 0, []
1627645130.6418, 7, 0, 4218.974, 3941.026, 4186.667, 4207.179, 4245.128, 450, 0, []
1627645130.6497, 8, 0, 4223.59, 3924.615, 4185.128, 4205.641, 4252.821, 450, 0, []
1627645130.6575, 9, 0, 4206.154, 3884.615, 4167.692, 4183.59, 4238.974, 16152, 0, []
1627645130.6653, 10, 0, 4177.436, 3890.769, 4156.923, 4157.949, 4210.256, 450, 0, []
1627645130.6731, 11, 0, 4194.872, 3930.256, 4184.103, 4182.564, 4235.385, 16202, 0, []
1627645130.681, 12, 0, 4223.077, 3969.231, 4210.256, 4214.359, 4268.718, 450, 0, []
1627645130.6888, 13, 0, 4225.641, 3964.615, 4213.846, 4216.41, 4264.615, 450, 0, []
1627645130.6967, 14, 0, 4244.103, 3945.128, 4228.718, 4235.385, 4276.923, 450, 0, []
1627645130.7044, 15, 0, 4257.436, 3970.256, 4226.154, 4246.154, 4292.821, 16202, 0, []
1627645130.7123, 16, 0, 4228.205, 3986.154, 4194.872, 4211.795, 4263.077, 0, 0, []
1627645130.7201, 17, 0, 4205.128, 3961.538, 4186.154, 4193.333, 4241.538, 0, 0, []
1627645130.728, 18, 0, 4206.154, 3947.692, 4186.154, 4201.538, 4240.513, 0, 0, []
1627645130.7358, 19, 0, 4199.487, 3969.744, 4175.897, 4188.205, 4222.051, 0, 0, []
1627645130.7435, 20, 0, 4191.282, 3975.897, 4174.872, 4176.923, 4210.256, 0, 0, []
1627645130.7514, 21, 0, 4189.744, 3962.051, 4184.103, 4190.769, 4213.846, 0, 0, []
1627645130.7592, 22, 0, 4198.974, 3969.231, 4197.949, 4207.692, 4219.487, 0, 0, []
1627645130.7671, 23, 0, 4216.923, 3974.359, 4197.436, 4220, 4228.205, 0, 0, []
1627645130.7749, 24, 0, 4218.974, 3970.256, 4191.282, 4217.949, 4231.282, 0, 0, []
1627645130.7827, 25, 0, 4207.179, 3980, 4188.718, 4201.538, 4218.974, 0, 0, []
1627645130.7905, 26, 0, 4208.205, 3990.256, 4190.769, 4198.462, 4217.436, 0, 0, []
1627645130.7984, 27, 0, 4217.436, 3978.974, 4195.385, 4208.718, 4237.436, 0, 0, []
1627645130.8062, 28, 0, 4218.462, 3995.897, 4188.718, 4209.744, 4245.128, 0, 0, []
1627645130.8141, 29, 0, 4215.897, 4000, 4177.949, 4201.026, 4234.872, 0, 0, []
1627645130.8218, 30, 0, 4214.872, 3963.59, 4168.205, 4193.846, 4228.718, 0, 0, []
1627645130.8297, 31, 0, 4222.564, 3982.051, 4173.333, 4200.513, 4236.41, 0, 0, []
1627645130.8375, 32, 0, 4225.641, 4014.872, 4184.615, 4211.282, 4236.923, 0, 0, []
1627645130.8454, 33, 0, 4222.051, 4002.564, 4187.692, 4225.128, 4235.897, 0, 0, []
1627645130.8532, 34, 0, 4228.205, 4006.154, 4207.692, 4244.103, 4250.769, 0, 0, []
1627645130.861, 35, 0, 4235.385, 4021.026, 4217.436, 4240.513, 4250.256, 0, 0, []
1627645130.8688, 36, 0, 4230.256, 3986.154, 4196.41, 4213.333, 4234.359, 0, 0, []
1627645130.8768, 37, 0, 4231.795, 3969.231, 4189.231, 4196.41, 4232.308, 0, 0, []
1627645130.8847, 38, 0, 4228.205, 4011.282, 4187.692, 4186.667, 4225.128, 0, 0, []
1627645130.8925, 39, 0, 4208.718, 4016.41, 4163.59, 4173.333, 4201.538, 0, 0, []
1627645130.9003, 40, 0, 4215.385, 4008.718, 4155.385, 4186.154, 4205.128, 0, 0, []
1627645130.9081, 41, 0, 4237.949, 4035.385, 4176.923, 4212.821, 4229.231, 0, 0, []
1627645130.916, 42, 0, 4234.872, 4038.974, 4195.897, 4216.41, 4230.769, 0, 0, []
1627645130.9238, 43, 0, 4235.385, 4015.385, 4206.667, 4219.487, 4237.436, 0, 0, []
1627645130.9317, 44, 0, 4258.974, 4029.744, 4224.103, 4238.974, 4265.641, 0, 0, []
1627645130.9394, 45, 0, 4260.513, 4050.769, 4218.974, 4238.974, 4269.744, 0, 0, []
1627645130.9473, 46, 0, 4235.897, 4035.897, 4186.154, 4213.846, 4249.231, 0, 0, []
1627645130.9551, 47, 0, 4217.436, 4015.385, 4169.744, 4183.59, 4228.205, 0, 0, []
1627645130.963, 48, 0, 4202.051, 3997.949, 4163.077, 4157.949, 4205.641, 0, 0, []
1627645130.9708, 49, 0, 4201.538, 4011.795, 4161.026, 4161.026, 4205.641, 0, 0, []
1627645130.9786, 50, 0, 4219.487, 4061.026, 4176.41, 4190.769, 4240, 0, 0, []
1627645130.9864, 51, 0, 4229.744, 4081.026, 4182.051, 4203.077, 4261.026, 0, 0, []
1627645130.9943, 52, 0, 4216.41, 4062.564, 4168.205, 4185.641, 4241.538, 0, 0, []
1627645131.0021, 53, 0, 4214.359, 4040.513, 4167.692, 4182.051, 4237.949, 0, 0, []
1627645131.01, 54, 0, 4232.308, 4034.872, 4173.333, 4191.282, 4257.949, 0, 0, []
1627645131.0177, 55, 0, 4234.359, 4047.692, 4163.077, 4185.641, 4251.795, 0, 0, []
1627645131.0256, 56, 0, 4233.333, 4065.641, 4160.513, 4184.615, 4235.897, 0, 0, []
1627645131.0334, 57, 0, 4228.205, 4063.59, 4169.744, 4180, 4225.128, 0, 0, []
1627645131.0413, 58, 0, 4216.41, 4043.077, 4172.308, 4170.769, 4221.026, 0, 0, []
1627645131.0491, 59, 0, 4227.692, 4042.564, 4182.051, 4186.154, 4238.462, 0, 0, []
1627645131.0571, 60, 0, 4251.795, 4062.051, 4195.897, 4212.308, 4258.974, 0, 0, []
1627645131.0649, 61, 0, 4237.436, 4084.615, 4177.436, 4198.974, 4241.026, 0, 0, []
1627645131.0727, 62, 0, 4210.256, 4095.385, 4152.308, 4168.205, 4218.974, 0, 0, []
1627645131.0806, 63, 0, 4218.974, 4085.128, 4152.821, 4167.179, 4239.487, 0, 0, []
1627645131.0884, 64, 0, 4227.179, 4074.359, 4155.385, 4173.333, 4258.974, 450, 0, []
1627645131.0963, 65, 0, 4217.949, 4080, 4153.333, 4167.692, 4254.872, 450, 0, []
1627645131.104, 66, 0, 4213.333, 4067.692, 4146.154, 4160, 4247.179, 16164, 0, []
1627645131.1119, 67, 0, 4219.487, 4044.615, 4150.256, 4165.641, 4252.821, 450, 0, []
1627645131.1197, 68, 0, 4228.205, 4075.897, 4169.744, 4182.051, 4265.641, 316, 0, []
1627645131.1276, 69, 0, 4233.846, 4101.026, 4174.359, 4190.256, 4267.179, 450, 0, []
1627645131.1354, 70, 0, 4234.359, 4076.923, 4159.487, 4186.667, 4265.641, 16075, 0, []
1627645131.1432, 71, 0, 4230.769, 4088.205, 4144.615, 4180, 4269.231, 450, 0, []
1627645131.151, 72, 0, 4223.077, 4123.077, 4145.128, 4173.333, 4262.051, 450, 0, []
1627645131.1589, 73, 0, 4215.385, 4096.41, 4150.256, 4166.154, 4254.872, 16152, 0, []
1627645131.1667, 74, 0, 4223.59, 4078.974, 4163.59, 4175.897, 4265.128, 450, 0, []
1627645131.1746, 75, 0, 4234.872, 4109.231, 4184.103, 4191.795, 4252.821, 16202, 0, []
1627645131.1823, 76, 0, 4234.872, 4102.564, 4177.436, 4185.641, 4213.846, 450, 0, []
1627645131.1902, 77, 0, 4232.821, 4107.179, 4156.923, 4172.308, 4194.359, 450, 0, []
1627645131.198, 78, 0, 4224.103, 4124.103, 4146.667, 4170.769, 4189.744, 450, 0, []
1627645131.206, 79, 0, 4216.41, 4098.974, 4143.077, 4175.897, 4180.513, 16202, 0, []
1627645131.2139, 80, 0, 4217.436, 4092.821, 4149.231, 4170.769, 4176.923, 450, 0, []
1627645131.2218, 81, 0, 4225.641, 4108.718, 4162.564, 4171.282, 4186.667, 450, 0, []
1627645131.2297, 82, 0, 4243.077, 4117.436, 4181.538, 4194.872, 4208.205, 450, 0, []
1627645131.2375, 83, 0, 4249.744, 4142.564, 4182.051, 4207.179, 4217.436, 16202, 0, []
1627645131.2454, 84, 0, 4243.077, 4153.333, 4155.385, 4190.769, 4203.077, 450, 0, []
1627645131.2532, 85, 0, 4246.667, 4125.128, 4149.744, 4180.513, 4197.949, 450, 0, []
1627645131.261, 86, 0, 4247.692, 4128.205, 4164.615, 4184.103, 4200, 450, 0, []
1627645131.2688, 87, 0, 4233.846, 4141.538, 4166.154, 4182.051, 4187.179, 16202, 0, []
1627645131.2767, 88, 0, 4226.667, 4138.974, 4165.641, 4179.487, 4180.513, 450, 0, []
1627645131.2845, 89, 0, 4232.308, 4156.923, 4175.385, 4187.179, 4192.821, 450, 0, []
1627645131.2924, 90, 0, 4247.692, 4164.103, 4195.897, 4208.205, 4216.41, 450, 0, []
1627645131.3001, 91, 0, 4262.564, 4170.769, 4210.256, 4230.256, 4229.744, 16202, 0, []
1627645131.308, 92, 0, 4266.667, 4174.872, 4206.667, 4231.282, 4224.103, 450, 0, []
1627645131.3158, 93, 0, 4259.487, 4150.256, 4192.821, 4215.385, 4211.795, 450, 0, []
1627645131.3237, 94, 0, 4240.513, 4156.923, 4179.487, 4205.128, 4195.897, 450, 0, []
1627645131.3315, 95, 0, 4221.026, 4190.256, 4175.897, 4196.923, 4173.333, 16202, 0, []
1627645131.3394, 96, 0, 4218.974, 4165.641, 4171.282, 4183.077, 4158.974, 450, 0, []
1627645131.3473, 97, 0, 4232.308, 4122.051, 4165.641, 4187.179, 4166.667, 450, 0, []
1627645131.3553, 98, 0, 4243.59, 4132.308, 4171.282, 4206.154, 4181.026, 450, 0, []
1627645131.3632, 99, 0, 4245.128, 4146.154, 4183.59, 4215.385, 4195.385, 16202, 0, []
1627645131.3712, 100, 0, 4244.615, 4158.974, 4193.333, 4218.462, 4204.103, 450, 0, []
1627645131.379, 101, 0, 4240, 4184.103, 4182.564, 4207.179, 4189.744, 450, 0, []
1627645131.387, 102, 0, 4231.795, 4183.077, 4170.256, 4188.205, 4171.795, 450, 0, []
1627645131.3949, 103, 0, 4241.026, 4161.538, 4187.179, 4194.872, 4187.692, 16202, 0, []
1627645131.4027, 104, 0, 4266.667, 4178.462, 4205.641, 4221.538, 4219.487, 450, 0, []
1627645131.4106, 105, 0, 4269.744, 4226.154, 4207.179, 4224.103, 4225.641, 450, 0, []
1627645131.4183, 106, 0, 4251.795, 4209.231, 4200, 4203.077, 4215.385, 450, 0, []
1627645131.4262, 107, 0, 4233.333, 4162.564, 4175.385, 4177.949, 4198.974, 16202, 0, []
1627645131.434, 108, 0, 4229.231, 4193.333, 4169.744, 4173.333, 4188.718, 450, 0, []
1627645131.4419, 109, 0, 4249.744, 4242.051, 4202.564, 4205.641, 4210.769, 450, 0, []
1627645131.4497, 110, 0, 4263.59, 4228.718, 4215.897, 4220, 4228.205, 450, 0, []
1627645131.4575, 111, 0, 4252.308, 4196.41, 4197.949, 4202.051, 4215.385, 16202, 0, []
1627645131.4653, 112, 0, 4250.256, 4186.667, 4193.846, 4211.795, 4215.385, 450, 0, []
1627645131.4732, 113, 0, 4254.359, 4198.974, 4196.923, 4224.615, 4223.59, 450, 0, []
1627645131.481, 114, 0, 4244.615, 4212.308, 4177.436, 4195.897, 4204.615, 450, 0, []
1627645131.489, 115, 0, 4245.641, 4195.897, 4170.256, 4181.026, 4194.872, 16202, 0, []
1627645131.4968, 116, 0, 4256.923, 4185.641, 4188.718, 4198.462, 4210.769, 450, 0, []
1627645131.5048, 117, 0, 4254.872, 4213.333, 4193.333, 4205.128, 4221.538, 450, 0, []
1627645131.5127, 118, 0, 4254.872, 4247.179, 4194.872, 4208.718, 4223.59, 450, 0, []
1627645131.5207, 119, 0, 4265.128, 4263.59, 4201.538, 4222.051, 4233.333, 16202, 0, []
1627645131.5287, 120, 0, 4273.333, 4268.718, 4201.026, 4228.718, 4245.128, 450, 0, []
1627645131.5365, 121, 0, 4268.718, 4254.872, 4194.359, 4223.077, 4244.103, 450, 0, []
1627645131.5445, 122, 0, 4258.974, 4246.667, 4195.897, 4220.513, 4236.923, 450, 0, []
1627645131.5524, 123, 0, 4254.359, 4255.897, 4205.128, 4213.846, 4229.744, 16202, 0, []
1627645131.5604, 124, 0, 4251.795, 4232.821, 4196.41, 4202.564, 4226.154, 450, 0, []
1627645131.5683, 125, 0, 4254.872, 4225.128, 4185.641, 4202.051, 4232.308, 450, 0, []
1627645131.5762, 126, 0, 4262.051, 4257.436, 4190.256, 4205.641, 4236.923, 450, 0, []
1627645131.5841, 127, 0, 4266.667, 4259.487, 4186.667, 4198.974, 4233.333, 16202, 0, []
1627645131.5921, 128, 0, 4264.615, 4241.026, 4180.513, 4188.205, 4234.359, 450, 0, []
1627645131.6, 0, 0, 4271.795, 4253.846, 4190.256, 4198.462, 4255.385, 450, 0, []
1627645131.608, 1, 0, 4284.103, 4281.026, 4201.538, 4218.974, 4270.769, 450, 0, []
1627645131.6158, 2, 0, 4274.872, 4258.462, 4197.949, 4214.872, 4261.538, 16164, 0, []
1627645131.6238, 3, 0, 4263.59, 4228.205, 4192.308, 4203.077, 4255.385, 450, 0, []
1627645131.6317, 4, 0, 4266.667, 4248.718, 4195.897, 4200.513, 4260.513, 316, 0, []
1627645131.6397, 5, 0, 4266.154, 4268.718, 4191.282, 4198.974, 4260, 450, 0, []
1627645131.6477, 6, 0, 4266.667, 4249.231, 4187.179, 4198.974, 4261.538, 16075, 0, []
1627645131.6555, 7, 0, 4276.41, 4241.538, 4197.436, 4198.974, 4272.308, 450, 0, []
1627645131.6635, 8, 0, 4276.923, 4258.974, 4198.462, 4196.923, 4275.385, 450, 0, []
1627645131.6715, 9, 0, 4281.026, 4250.769, 4198.462, 4206.154, 4269.744, 16152, 0, []
1627645131.6795, 10, 0, 4277.949, 4241.026, 4190.769, 4196.923, 4248.205, 450, 0, []
1627645131.6874, 11, 0, 4250.256, 4248.205, 4169.231, 4164.615, 4221.538, 16202, 0, []
1627645131.6952, 12, 0, 4264.103, 4260.513, 4191.795, 4184.615, 4253.333, 450, 0, []
1627645131.7031, 13, 0, 4308.205, 4292.821, 4220, 4227.692, 4306.154, 450, 0, []
1627645131.7111, 14, 1, 4304.103, 4291.909, 4216.467, 4224.843, 4305.242, 450, 0, []
1627645131.719, 15, 1, 4300, 4290.997, 4212.934, 4221.994, 4304.33, 16202, 0, []
1627645131.7269, 16, 1, 4295.897, 4290.085, 4209.402, 4219.145, 4303.419, 300, 0, []
1627645131.7347, 17, 1, 4291.795, 4289.174, 4205.869, 4216.296, 4302.507, 250, 0, []
1627645131.7426, 18, 1, 4287.692, 4288.262, 4202.336, 4213.447, 4301.595, 200, 0, []
1627645131.7505, 19, 1, 4283.59, 4287.35, 4198.803, 4210.598, 4300.684, 150, 0, []
1627645131.7584, 20, 1, 4279.487, 4286.439, 4195.271, 4207.749, 4299.772, 100, 0, []
1627645131.7663, 21, 1, 4275.385, 4285.527, 4191.738, 4204.9, 4298.86, 50, 0, []
1627645131.7741, 22, 0, 4271.282, 4284.615, 4188.205, 4202.051, 4297.949, 0, 0, []
1627645131.7819, 23, 0, 4254.359, 4244.615, 4169.744, 4185.128, 4272.821, 0, 0, []
1627645131.7899, 24, 0, 4251.282, 4254.872, 4165.128, 4178.462, 4262.564, 0, 0, []
1627645131.7978, 25, 0, 4282.564, 4318.462, 4203.59, 4211.795, 4300.513, 0, 0, []
1627645131.8058, 26, 0, 4287.179, 4305.641, 4209.744, 4220.513, 4308.718, 0, 0, []
1627645131.8137, 27, 0, 4260, 4245.128, 4184.615, 4186.667, 4275.385, 0, 0, []
1627645131.8216, 28, 0, 4253.333, 4268.718, 4187.179, 4178.462, 4275.897, 0, 0, []
1627645131.8295, 29, 0, 4262.051, 4315.385, 4201.026, 4200.513, 4297.436, 0, 0, []
1627645131.8375, 30, 0, 4261.538, 4308.718, 4200.513, 4213.846, 4308.718, 0, 0, []
1627645131.8454, 31, 0, 4259.487, 4303.59, 4199.487, 4218.462, 4333.333, 0, 0, []
1627645131.8534, 32, 0, 4250.256, 4293.846, 4193.333, 4211.282, 4344.615, 0, 0, []
1627645131.8613, 33, 0, 4246.154, 4291.795, 4177.949, 4198.974, 4326.667, 0, 0, []
1627645131.8692, 34, 0, 4250.256, 4315.385, 4177.949, 4198.462, 4311.282, 0, 0, []
1627645131.8772, 35, 0, 4245.128, 4310.769, 4187.692, 4199.487, 4303.077, 0, 0, []
1627645131.8851, 36, 0, 4245.128, 4275.385, 4190.769, 4201.026, 4302.051, 0, 0, []
1627645131.8931, 37, 0, 4240.513, 4266.154, 4182.051, 4192.821, 4294.359, 0, 0, []
1627645131.9009, 38, 0, 4222.564, 4285.641, 4164.615, 4176.41, 4273.333, 0, 0, []
1627645131.9089, 39, 0, 4232.821, 4291.282, 4180.513, 4191.282, 4279.487, 0, 0, []
1627645131.9169, 40, 0, 4261.026, 4306.154, 4209.231, 4214.359, 4302.051, 0, 0, []
1627645131.9248, 41, 0, 4258.974, 4334.359, 4205.128, 4200, 4292.308, 0, 0, []
1627645131.9327, 42, 0, 4246.667, 4323.59, 4201.538, 4181.538, 4274.359, 0, 0, []
1627645131.9406, 43, 0, 4245.641, 4298.462, 4210.256, 4184.615, 4282.051, 0, 0, []
1627645131.9486, 44, 0, 4250.769, 4314.359, 4207.692, 4191.282, 4297.436, 0, 0, []
1627645131.9565, 45, 0, 4260.513, 4328.205, 4211.282, 4202.051, 4308.718, 0, 0, []
1627645131.9644, 46, 0, 4251.795, 4295.385, 4209.231, 4199.487, 4302.051, 0, 0, []
1627645131.9724, 47, 0, 4235.897, 4276.923, 4194.872, 4186.667, 4282.564, 0, 0, []
1627645131.9802, 48, 0, 4255.385, 4317.436, 4204.103, 4203.077, 4296.41, 0, 0, []
1627645131.9882, 49, 0, 4274.359, 4351.795, 4216.41, 4225.128, 4321.026, 0, 0, []
1627645131.9961, 50, 0, 4250.256, 4316.41, 4205.641, 4207.692, 4300, 0, 0, []
1627645132.0041, 51, 0, 4242.564, 4284.615, 4201.026, 4194.872, 4280.513, 0, 0, []
1627645132.012, 52, 0, 4255.385, 4304.103, 4194.359, 4194.359, 4282.564, 0, 0, []
1627645132.0199, 53, 0, 4234.872, 4308.718, 4169.231, 4168.205, 4263.077, 0, 0, []
1627645132.0278, 54, 0, 4224.615, 4300, 4173.846, 4165.641, 4258.462, 0, 0, []
1627645132.0358, 55, 0, 4256.923, 4310.256, 4216.41, 4205.641, 4292.821, 0, 0, []
1627645132.0437, 56, 0, 4254.872, 4297.436, 4208.718, 4208.205, 4290.769, 0, 0, []
1627645132.0517, 57, 0, 4210.769, 4295.897, 4160.513, 4161.026, 4244.103, 0, 0, []
1627645132.0596, 58, 0, 4216.923, 4336.923, 4165.128, 4154.359, 4242.564, 0, 0, []
1627645132.0675, 59, 0, 4256.41, 4329.231, 4207.692, 4198.974, 4282.564, 0, 0, []
1627645132.0755, 60, 0, 4246.667, 4287.692, 4213.846, 4206.154, 4281.026, 0, 0, []
1627645132.0834, 61, 0, 4225.641, 4305.641, 4199.487, 4181.026, 4256.41, 0, 0, []
1627645132.0914, 62, 0, 4248.205, 4347.692, 4214.359, 4191.795, 4266.667, 0, 0, []
1627645132.0992, 63, 0, 4257.949, 4353.846, 4217.436, 4204.615, 4273.846, 0, 0, []
1627645132.1072, 64, 0, 4229.231, 4325.641, 4181.538, 4177.949, 4247.179, 450, 0, []
1627645132.1151, 65, 0, 4220.513, 4318.462, 4171.795, 4166.154, 4234.872, 450, 0, []
1627645132.1231, 66, 0, 4232.821, 4337.436, 4193.846, 4186.667, 4246.667, 16164, 0, []
1627645132.131, 67, 0, 4234.359, 4309.744, 4200.513, 4192.308, 4247.692, 450, 0, []
1627645132.1389, 68, 0, 4227.692, 4282.051, 4195.897, 4183.077, 4241.538, 316, 0, []
1627645132.1468, 69, 0, 4231.282, 4323.077, 4199.487, 4193.846, 4248.205, 450, 0, []
1627645132.1548, 70, 0, 4238.974, 4352.308, 4207.692, 4210.256, 4256.41, 16075, 0, []
1627645132.1627, 71, 0, 4220.513, 4316.923, 4192.821, 4190.256, 4238.462, 450, 0, []
1627645132.1707, 72, 0, 4206.667, 4300.513, 4179.487, 4171.795, 4223.59, 450, 0, []
1627645132.1785, 73, 0, 4229.744, 4334.359, 4198.974, 4194.359, 4240, 16152, 0, []
1627645132.1865, 74, 0, 4236.923, 4325.641, 4197.436, 4198.974, 4246.154, 450, 0, []
1627645132.1945, 75, 0, 4215.385, 4296.923, 4169.744, 4174.359, 4229.231, 16202, 0, []
1627645132.2024, 76, 0, 4218.462, 4334.872, 4172.308, 4183.077, 4232.821, 450, 0, []
1627645132.2103, 77, 0, 4232.308, 4371.282, 4188.718, 4205.128, 4243.59, 450, 0, []
1627645132.2181, 78, 0, 4218.974, 4325.641, 4186.667, 4193.846, 4228.718, 450, 0, []
1627645132.2261, 79, 0, 4207.179, 4292.821, 4188.205, 4188.205, 4217.949, 16202, 0, []
1627645132.234, 80, 0, 4223.59, 4326.667, 4204.615, 4201.026, 4230.256, 450, 0, []
1627645132.242, 81, 0, 4230.769, 4338.974, 4202.564, 4192.308, 4233.846, 450, 0, []
1627645132.25, 82, 0, 4208.205, 4325.641, 4180.513, 4169.231, 4211.795, 450, 0, []
1627645132.2578, 83, 0, 4194.359, 4314.872, 4171.282, 4164.615, 4190.769, 16202, 0, []
1627645132.2658, 84, 0, 4216.923, 4329.744, 4184.103, 4183.077, 4202.051, 450, 0, []
1627645132.2737, 85, 0, 4241.538, 4368.718, 4200, 4203.077, 4224.615, 450, 0, []
1627645132.2817, 86, 0, 4236.41, 4357.949, 4198.462, 4202.564, 4220, 450, 0, []
1627645132.2896, 87, 0, 4223.59, 4328.205, 4186.154, 4190.769, 4201.026, 16202, 0, []
1627645132.2975, 88, 0, 4225.128, 4337.949, 4190.256, 4187.179, 4197.949, 450, 0, []
1627645132.3054, 89, 0, 4230.769, 4328.718, 4196.923, 4192.821, 4202.564, 450, 0, []
1627645132.3134, 90, 0, 4230.256, 4291.282, 4187.179, 4195.897, 4203.59, 450, 0, []
1627645132.3213, 91, 0, 4232.308, 4320, 4185.641, 4198.974, 4211.282, 16202, 0, []
1627645132.3293, 92, 0, 4234.359, 4364.615, 4192.821, 4205.128, 4217.436, 450, 0, []
1627645132.3371, 93, 0, 4227.692, 4334.872, 4193.333, 4200, 4208.205, 450, 0, []
1627645132.3451, 94, 0, 4234.872, 4321.026, 4196.41, 4197.949, 4207.692, 450, 0, []
1627645132.353, 95, 0, 4255.897, 4361.538, 4203.59, 4213.846, 4225.128, 16202, 0, []
1627645132.361, 96, 0, 4235.385, 4362.564, 4183.59, 4196.41, 4209.744, 450, 0, []
1627645132.3689, 97, 0, 4207.692, 4304.615, 4164.615, 4164.103, 4184.615, 450, 0, []
1627645132.3768, 98, 0, 4251.282, 4303.59, 4200.513, 4192.308, 4225.641, 450, 0, []
1627645132.3847, 99, 0, 4307.692, 4374.359, 4222.051, 4232.821, 4291.282, 16202, 0, []
1627645132.3927, 100, 0, 4312.308, 4388.205, 4193.846, 4215.897, 4312.308, 450, 0, []
1627645132.4006, 101, 0, 4328.718, 4358.462, 4193.846, 4194.359, 4331.282, 450, 0, []
1627645132.4086, 102, 0, 4382.564, 4350.769, 4213.846, 4203.077, 4383.077, 450, 0, []
1627645132.4165, 103, 0, 4417.949, 4338.974, 4209.231, 4204.615, 4420.513, 16202, 0, []
1627645132.4244, 104, 0, 4418.974, 4327.179, 4200.513, 4197.436, 4422.564, 450, 0, []
1627645132.4324, 105, 0, 4409.231, 4337.949, 4199.487, 4183.59, 4404.615, 450, 0, []
1627645132.4403, 106, 0, 4406.667, 4358.462, 4203.077, 4173.333, 4393.333, 450, 0, []
1627645132.4483, 107, 0, 4415.897, 4366.154, 4212.821, 4189.231, 4402.051, 16202, 0, []
1627645132.4561, 108, 0, 4408.718, 4357.436, 4209.744, 4198.462, 4394.359, 450, 0, []
1627645132.4641, 109, 0, 4367.692, 4337.436, 4185.128, 4175.897, 4352.821, 450, 0, []
1627645132.472, 110, 0, 4335.897, 4340.513, 4176.923, 4164.615, 4323.59, 450, 0, []
1627645132.48, 111, 0, 4324.615, 4351.795, 4184.615, 4170.769, 4311.282, 16202, 0, []
1627645132.4879, 112, 0, 4311.795, 4327.179, 4181.538, 4169.744, 4290.256, 450, 0, []
1627645132.4958, 113, 0, 4307.179, 4332.821, 4188.718, 4169.744, 4278.974, 450, 0, []
1627645132.5037, 114, 0, 4301.538, 4364.103, 4195.385, 4170.256, 4280.513, 450, 0, []
1627645132.5117, 115, 0, 4296.923, 4353.846, 4197.436, 4176.41, 4285.641, 16202, 0, []
1627645132.5196, 116, 0, 4296.923, 4323.59, 4212.821, 4190.256, 4282.051, 450, 0, []
1627645132.5276, 117, 0, 4278.462, 4333.333, 4209.744, 4183.59, 4255.385, 450, 0, []
1627645132.5354, 118, 0, 4249.231, 4369.744, 4188.718, 4166.154, 4230.769, 450, 0, []
1627645132.5434, 119, 0, 4241.538, 4344.615, 4182.564, 4167.179, 4228.205, 16202, 0, []
1627645132.5513, 120, 0, 4252.821, 4313.846, 4187.692, 4173.846, 4227.692, 450, 0, []
1627645132.5593, 121, 0, 4252.821, 4353.846, 4193.846, 4167.692, 4218.974, 450, 0, []
1627645132.5673, 122, 0, 4241.538, 4388.718, 4196.41, 4167.692, 4219.487, 450, 0, []
1627645132.5751, 123, 0, 4218.974, 4347.692, 4171.795, 4158.974, 4202.051, 16202, 0, []
1627645132.5831, 124, 0, 4201.538, 4315.385, 4147.179, 4131.795, 4166.667, 450, 0, []
1627645132.591, 125, 0, 4225.641, 4345.128, 4172.821, 4143.077, 4178.462, 450, 0, []
1627645132.5989, 126, 0, 4256.41, 4363.077, 4206.667, 4187.179, 4213.333, 450, 0, []
1627645132.6068, 127, 0, 4244.103, 4345.641, 4194.872, 4190.769, 4205.128, 16202, 0, []
1627645132.6147, 128, 0, 4226.154, 4323.077, 4186.667, 4168.205, 4189.231, 450, 0, []
1627645132.6226, 0, 0, 4236.923, 4324.615, 4202.051, 4172.308, 4201.538, 450, 0, []
1627645132.6306, 1, 0, 4240.513, 4343.59, 4193.333, 4176.923, 4197.436, 450, 0, []
1627645132.6385, 2, 0, 4236.923, 4344.103, 4180.513, 4168.205, 4184.103, 16164, 0, []
1627645132.6465, 3, 0, 4244.103, 4341.026, 4189.231, 4171.795, 4196.923, 450, 0, []
1627645132.6543, 4, 0, 4245.641, 4354.872, 4196.923, 4182.564, 4199.487, 309, 0, []
1627645132.6623, 5, 0, 4238.974, 4354.872, 4198.974, 4185.641, 4184.615, 450, 0, []
1627645132.6702, 6, 0, 4232.821, 4351.795, 4196.41, 4180, 4182.051, 16075, 0, []
1627645132.6782, 7, 0, 4234.359, 4375.897, 4203.077, 4182.051, 4191.795, 450, 0, []
1627645132.6861, 8, 0, 4228.205, 4386.154, 4205.641, 4180.513, 4183.59, 450, 0, []
1627645132.694, 9, 0, 4205.641, 4360.513, 4192.821, 4164.103, 4154.872, 16152, 0, []
1627645132.702, 10, 0, 4208.205, 4344.103, 4199.487, 4168.205, 4153.846, 450, 0, []
1627645132.7099, 11, 0, 4232.821, 4375.385, 4211.282, 4190.256, 4182.564, 16202, 0, []
1627645132.7179, 12, 0, 4225.641, 4389.231, 4196.923, 4180, 4181.538, 450, 0, []
1627645132.7258, 13, 0, 4208.205, 4354.359, 4184.615, 4162.564, 4165.128, 450, 0, []
1627645132.7337, 14, 0, 4220.513, 4343.077, 4185.641, 4171.795, 4168.718, 450, 0, []
1627645132.7416, 15, 0, 4219.487, 4367.179, 4182.051, 4169.231, 4161.026, 16202, 0, []
1627645132.7496, 16, 0, 4211.282, 4381.538, 4189.231, 4170.769, 4155.897, 0, 0, []
1627645132.7575, 17, 0, 4226.667, 4370.256, 4205.128, 4194.359, 4179.487, 0, 0, []
1627645132.7655, 18, 0, 4231.282, 4364.103, 4195.385, 4195.897, 4190.769, 0, 0, []
1627645132.7733, 19, 0, 4221.026, 4352.308, 4179.487, 4177.949, 4181.538, 0, 0, []
1627645132.7813, 20, 0, 4212.308, 4321.538, 4176.923, 4172.821, 4173.846, 0, 0, []
1627645132.7892, 21, 0, 4193.333, 4314.872, 4166.154, 4164.615, 4160, 0, 0, []
1627645132.7972, 22, 0, 4181.026, 4333.846, 4161.026, 4150.256, 4145.128, 0, 0, []
1627645132.8051, 23, 0, 4197.436, 4355.897, 4172.308, 4155.897, 4155.385, 0, 0, []
1627645132.8131, 24, 0, 4213.333, 4378.462, 4180.513, 4171.795, 4170.769, 0, 0, []
1627645132.8209, 25, 0, 4203.077, 4385.128, 4180, 4168.718, 4158.974, 0, 0, []
1627645132.8289, 26, 0, 4193.846, 4352.821, 4173.846, 4161.538, 4146.154, 0, 0, []
1627645132.8368, 27, 0, 4205.128, 4326.154, 4175.385, 4171.282, 4159.487, 0, 0, []
1627645132.8448, 28, 0, 4213.846, 4355.897, 4181.538, 4174.359, 4163.077, 0, 0, []
1627645132.8527, 29, 0, 4214.359, 4390.256, 4176.923, 4168.205, 4153.333, 0, 0, []
1627645132.8606, 30, 0, 4216.923, 4370.256, 4173.333, 4176.41, 4161.026, 0, 0, []
1627645132.8686, 31, 0, 4217.436, 4340, 4177.949, 4182.564, 4170.769, 0, 0, []
1627645132.8765, 32, 0, 4222.051, 4348.205, 4186.667, 4177.949, 4172.821, 0, 0, []
1627645132.8845, 33, 0, 4218.974, 4366.667, 4185.641, 4168.718, 4167.692, 0, 0, []
1627645132.8924, 34, 0, 4194.359, 4377.436, 4165.128, 4154.359, 4143.59, 0, 0, []
1627645132.9003, 35, 0, 4186.667, 4382.051, 4164.103, 4156.41, 4134.872, 0, 0, []
1627645132.9082, 36, 0, 4208.205, 4373.333, 4177.949, 4176.41, 4160, 0, 0, []
1627645132.9162, 37, 0, 4202.564, 4355.897, 4159.487, 4167.179, 4159.487, 0, 0, []
1627645132.9241, 38, 0, 4188.718, 4354.872, 4148.718, 4149.744, 4143.59, 0, 0, []
1627645132.9321, 39, 0, 4212.821, 4377.949, 4173.846, 4177.949, 4172.308, 0, 0, []
1627645132.9399, 40, 0, 4230.256, 4392.308, 4185.641, 4199.487, 4195.385, 0, 0, []
1627645132.9479, 41, 0, 4210.769, 4373.333, 4166.154, 4177.436, 4173.333, 0, 0, []
1627645132.9558, 42, 0, 4199.487, 4350.769, 4156.41, 4162.564, 4161.538, 0, 0, []
1627645132.9638, 43, 0, 4202.564, 4367.179, 4168.718, 4167.692, 4172.821, 0, 0, []
1627645132.9717, 44, 0, 4197.436, 4365.128, 4170.256, 4170.256, 4170.769, 0, 0, []
1627645132.9796, 45, 0, 4205.128, 4340.513, 4174.872, 4172.308, 4170.256, 0, 0, []
1627645132.9875, 46, 0, 4218.462, 4365.641, 4176.923, 4167.179, 4181.026, 0, 0, []
1627645132.9955, 47, 0, 4207.692, 4367.179, 4162.564, 4154.359, 4177.949, 0, 0, []
1627645133.0034, 48, 0, 4189.744, 4333.333, 4152.821, 4150.769, 4161.026, 0, 0, []
1627645133.0114, 49, 0, 4185.128, 4354.359, 4146.667, 4148.205, 4149.744, 0, 0, []
1627645133.0193, 50, 0, 4195.897, 4393.333, 4150.256, 4147.692, 4157.949, 0, 0, []
1627645133.0272, 51, 0, 4208.718, 4381.026, 4164.103, 4149.231, 4168.205, 0, 0, []
1627645133.0352, 52, 0, 4215.385, 4357.949, 4163.59, 4143.59, 4167.692, 0, 0, []
1627645133.0431, 53, 0, 4227.179, 4351.795, 4162.051, 4138.974, 4180, 0, 0, []
1627645133.0511, 54, 0, 4260, 4353.333, 4178.462, 4151.795, 4218.462, 0, 0, []
1627645133.0589, 55, 0, 4298.462, 4370.256, 4190.256, 4170.769, 4255.385, 0, 0, []
1627645133.0669, 56, 0, 4316.41, 4384.615, 4173.846, 4166.667, 4274.359, 0, 0, []
1627645133.0748, 57, 0, 4331.282, 4397.949, 4162.051, 4159.487, 4297.949, 0, 0, []
1627645133.0828, 58, 0, 4345.128, 4395.897, 4168.718, 4166.667, 4315.385, 0, 0, []
1627645133.0907, 59, 0, 4338.462, 4360, 4167.179, 4169.231, 4306.667, 0, 0, []
1627645133.0986, 60, 0, 4329.231, 4367.179, 4170.256, 4172.821, 4295.385, 0, 0, []
1627645133.1065, 61, 0, 4329.231, 4410.769, 4181.538, 4187.692, 4298.462, 0, 0, []
1627645133.1145, 62, 0, 4321.026, 4396.41, 4179.487, 4194.359, 4294.872, 0, 0, []
1627645133.1224, 63, 0, 4290.769, 4366.667, 4164.103, 4174.359, 4262.564, 0, 0, []
1627645133.1304, 64, 0, 4257.436, 4372.308, 4145.641, 4153.333, 4225.128, 450, 0, []
1627645133.1382, 65, 0, 4247.692, 4372.821, 4152.821, 4158.974, 4214.872, 450, 0, []
1627645133.1462, 66, 0, 4250.256, 4380.513, 4177.436, 4174.872, 4217.436, 16158, 0, []
1627645133.1541, 67, 0, 4248.718, 4412.308, 4176.923, 4173.333, 4207.692, 450, 0, []
1627645133.1621, 68, 0, 4244.615, 4413.846, 4168.718, 4161.538, 4193.846, 308, 0, []
1627645133.1701, 69, 0, 4238.462, 4394.359, 4174.359, 4162.564, 4184.103, 450, 0, []
1627645133.1779, 70, 0, 4227.692, 4392.308, 4168.718, 4166.154, 4173.333, 16075, 0, []
1627645133.1859, 71, 0, 4213.846, 4361.538, 4153.846, 4154.872, 4162.051, 450, 0, []
1627645133.1938, 72, 0, 4216.923, 4354.872, 4160.513, 4157.949, 4165.641, 450, 0, []
1627645133.2018, 73, 0, 4238.462, 4412.308, 4184.103, 4181.026, 4181.538, 16152, 0, []
1627645133.2097, 74, 0, 4236.41, 4414.359, 4185.641, 4182.051, 4179.487, 450, 0, []
1627645133.2176, 75, 0, 4207.692, 4354.359, 4163.077, 4159.487, 4155.385, 16201, 0, []
1627645133.2255, 76, 0, 4199.487, 4349.744, 4152.308, 4154.359, 4142.051, 450, 0, []
1627645133.2335, 77, 0, 4218.462, 4394.872, 4163.077, 4170.769, 4151.795, 450, 0, []
1627645133.2414, 78, 0, 4228.205, 4421.538, 4180.513, 4180, 4161.026, 450, 0, []
1627645133.2494, 79, 0, 4215.897, 4417.949, 4174.872, 4171.282, 4148.718, 16201, 0, []
1627645133.2572, 80, 0, 4199.487, 4398.462, 4149.231, 4158.462, 4133.846, 450, 0, []
1627645133.2652, 81, 0, 4209.231, 4398.462, 4152.308, 4171.795, 4153.333, 450, 0, []
1627645133.2731, 82, 0, 4223.59, 4397.436, 4165.128, 4188.205, 4174.872, 450, 0, []
1627645133.2811, 83, 0, 4211.795, 4354.872, 4155.385, 4174.359, 4158.462, 16201, 0, []
1627645133.289, 84, 0, 4198.462, 4354.359, 4147.179, 4158.462, 4147.692, 450, 0, []
1627645133.2969, 85, 0, 4201.026, 4404.615, 4148.205, 4161.538, 4160, 450, 0, []
1627645133.3048, 86, 0, 4194.872, 4400, 4149.744, 4162.051, 4155.897, 450, 0, []
1627645133.3128, 87, 0, 4183.077, 4363.59, 4151.282, 4160.513, 4143.077, 16201, 0, []
1627645133.3207, 88, 0, 4182.051, 4376.41, 4157.436, 4165.641, 4142.051, 450, 0, []
1627645133.3287, 89, 0, 4158.462, 4399.487, 4140, 4140, 4115.897, 450, 0, []
1627645133.3366, 90, 0, 4147.692, 4398.974, 4126.154, 4120.513, 4097.436, 450, 0, []
1627645133.3445, 91, 0, 4189.744, 4406.667, 4162.051, 4163.077, 4138.974, 16201, 0, []
1627645133.3525, 92, 0, 4223.077, 4401.538, 4193.333, 4206.667, 4177.949, 450, 0, []
1627645133.3604, 93, 0, 4206.667, 4387.692, 4177.949, 4197.436, 4164.615, 450, 0, []
1627645133.3684, 94, 0, 4186.154, 4404.103, 4156.41, 4176.41, 4143.077, 450, 0, []
1627645133.3762, 95, 0, 4191.282, 4404.103, 4162.051, 4180, 4146.667, 16201, 0, []
1627645133.3842, 96, 0, 4189.744, 4397.949, 4169.231, 4174.872, 4147.179, 450, 0, []
1627645133.3921, 97, 0, 4176.41, 4422.051, 4155.385, 4156.41, 4137.949, 450, 0, []
1627645133.4001, 98, 0, 4180.513, 4411.282, 4157.436, 4161.026, 4136.923, 450, 0, []
1627645133.408, 99, 0, 4189.231, 4375.897, 4176.41, 4181.026, 4141.026, 16201, 0, []
1627645133.4159, 100, 0, 4179.487, 4412.821, 4164.103, 4183.077, 4137.949, 450, 0, []
1627645133.4238, 101, 0, 4176.41, 4442.051, 4142.564, 4174.872, 4136.41, 450, 0, []
1627645133.4318, 102, 0, 4198.462, 4398.974, 4153.846, 4182.051, 4155.385, 450, 0, []
1627645133.4397, 103, 0, 4194.359, 4394.359, 4157.436, 4174.359, 4154.872, 16201, 0, []
1627645133.4477, 104, 0, 4168.205, 4413.846, 4150.256, 4158.462, 4125.641, 450, 0, []
1627645133.4555, 105, 0, 4180.513, 4400, 4157.436, 4176.41, 4130.256, 450, 0, []
1627645133.4635, 106, 0, 4194.872, 4412.821, 4154.359, 4182.051, 4143.59, 450, 0, []
1627645133.4714, 107, 0, 4174.359, 4429.744, 4135.897, 4156.923, 4117.949, 16201, 0, []
1627645133.4794, 108, 0, 4165.128, 4395.385, 4137.949, 4158.974, 4101.026, 450, 0, []
1627645133.4874, 109, 0, 4172.308, 4385.641, 4149.744, 4170.769, 4113.333, 450, 0, []
1627645133.4952, 110, 0, 4165.128, 4403.59, 4138.974, 4151.795, 4103.077, 450, 0, []
1627645133.5032, 111, 0, 4152.308, 4380.513, 4130.769, 4134.359, 4077.949, 16201, 0, []
1627645133.5111, 112, 0, 4152.821, 4365.641, 4129.744, 4131.795, 4081.538, 450, 0, []
1627645133.5191, 113, 0, 4152.308, 4389.231, 4120.513, 4127.179, 4091.282, 450, 0, []
1627645133.527, 114, 0, 4151.282, 4415.897, 4128.205, 4141.026, 4094.359, 450, 0, []
1627645133.5349, 115, 0, 4157.949, 4422.564, 4151.282, 4165.128, 4106.154, 16201, 0, []
1627645133.5428, 116, 0, 4165.128, 4400, 4165.128, 4168.205, 4111.795, 450, 0, []
1627645133.5508, 117, 0, 4164.615, 4378.974, 4161.026, 4162.051, 4108.718, 450, 0, []
1627645133.5587, 118, 0, 4161.538, 4415.385, 4153.333, 4163.59, 4110.769, 450, 0, []
1627645133.5667, 119, 0, 4156.41, 4443.077, 4149.744, 4153.333, 4103.077, 16201, 0, []
1627645133.5745, 120, 0, 4139.487, 4385.641, 4143.077, 4131.795, 4081.538, 450, 0, []
1627645133.5825, 121, 0, 4123.59, 4350.256, 4138.462, 4120, 4067.179, 450, 0, []
1627645133.5904, 122, 0, 4116.41, 4401.026, 4134.359, 4120, 4058.462, 450, 0, []
1627645133.5984, 123, 0, 4114.872, 4413.333, 4129.744, 4125.128, 4052.308, 16201, 0, []
1627645133.6063, 124, 0, 4134.872, 4373.333, 4145.641, 4137.949, 4073.333, 450, 0, []
1627645133.6142, 125, 0, 4152.308, 4384.615, 4157.949, 4143.077, 4093.846, 450, 0, []
1627645133.6221, 126, 0, 4143.59, 4411.282, 4144.103, 4127.692, 4078.462, 450, 0, []
1627645133.6301, 127, 0, 4150.256, 4403.077, 4144.615, 4128.718, 4080.513, 16201, 0, []
1627645133.638, 128, 0, 4182.051, 4392.308, 4174.872, 4164.615, 4120, 450, 0, []
1627645133.646, 0, 0, 4194.359, 4393.333, 4192.308, 4183.59, 4141.026, 450, 0, []
1627645133.6539, 1, 0, 4182.051, 4415.897, 4168.718, 4165.128, 4126.667, 450, 0, []
1627645133.6618, 2, 0, 4161.538, 4414.872, 4142.564, 4141.026, 4102.564, 16158, 0, []
1627645133.6698, 3, 0, 4139.487, 4370.769, 4146.154, 4133.846, 4087.692, 450, 0, []
1627645133.6777, 4, 0, 4147.179, 4373.846, 4170.769, 4155.385, 4102.051, 16108, 0, []
1627645133.6857, 5, 0, 4170.769, 4397.949, 4188.718, 4177.949, 4117.949, 450, 0, []
1627645133.6935, 6, 0, 4162.564, 4392.308, 4170.256, 4157.949, 4101.026, 16075, 0, []
1627645133.7015, 7, 0, 4150.256, 4405.641, 4150.769, 4140.513, 4095.897, 450, 0, []
1627645133.7094, 8, 0, 4155.385, 4396.41, 4154.872, 4152.821, 4111.795, 450, 0, []
1627645133.7174, 9, 0, 4152.308, 4357.436, 4157.436, 4154.359, 4107.179, 16152, 0, []
1627645133.7253, 10, 0, 4144.615, 4387.179, 4152.308, 4145.128, 4095.385, 450, 0, []
1627645133.7332, 11, 0, 4147.692, 4430.769, 4145.641, 4146.667, 4096.41, 16201, 0, []
1627645133.7411, 12, 0, 4160, 4390.256, 4143.59, 4149.744, 4108.205, 450, 0, []
1627645133.7491, 13, 0, 4161.026, 4350.769, 4137.949, 4142.051, 4108.205, 450, 0, []
1627645133.757, 14, 0, 4143.077, 4352.308, 4117.949, 4128.205, 4091.795, 450, 0, []
1627645133.765, 15, 0, 4146.667, 4377.436, 4128.205, 4135.385, 4096.923, 16201, 0, []
1627645133.7728, 16, 0, 4173.333, 4407.179, 4162.564, 4167.179, 4127.692, 0, 0, []
1627645133.7808, 17, 0, 4179.487, 4396.41, 4162.051, 4177.949, 4132.308, 0, 0, []
1627645133.7887, 18, 0, 4162.564, 4387.179, 4144.103, 4157.436, 4111.282, 0, 0, []
1627645133.7967, 19, 0, 4155.897, 4402.564, 4136.41, 4142.051, 4102.051, 0, 0, []
1627645133.8047, 20, 0, 4158.462, 4382.564, 4135.385, 4139.487, 4097.436, 0, 0, []
1627645133.8126, 21, 0, 4148.205, 4366.154, 4134.872, 4134.359, 4084.615, 0, 0, []
1627645133.8205, 22, 0, 4140.513, 4393.846, 4134.359, 4134.359, 4082.051, 0, 0, []
1627645133.8284, 23, 0, 4149.231, 4382.051, 4135.897, 4144.103, 4091.282, 0, 0, []
1627645133.8364, 24, 0, 4158.974, 4345.128, 4137.949, 4152.821, 4101.026, 0, 0, []
1627645133.8443, 25, 0, 4155.385, 4360.513, 4129.744, 4145.128, 4100, 0, 0, []
1627645133.8523, 26, 0, 4161.538, 4400.513, 4126.667, 4136.923, 4100.513, 0, 0, []
1627645133.8601, 27, 0, 4192.821, 4416.41, 4155.385, 4156.923, 4126.154, 0, 0, []
1627645133.8681, 28, 0, 4212.821, 4388.205, 4182.051, 4177.436, 4155.897, 0, 0, []
1627645133.876, 29, 0, 4200, 4363.077, 4164.615, 4168.205, 4155.385, 0, 0, []
1627645133.884, 30, 0, 4186.154, 4401.538, 4152.308, 4158.462, 4138.974, 0, 0, []
1627645133.8919, 31, 0, 4191.795, 4433.333, 4170.256, 4166.154, 4136.923, 0, 0, []
1627645133.8998, 32, 0, 4193.333, 4401.538, 4169.744, 4172.308, 4144.615, 0, 0, []
1627645133.9077, 33, 0, 4182.564, 4386.154, 4151.795, 4166.154, 4143.077, 0, 0, []
1627645133.9157, 34, 0, 4180.513, 4389.744, 4142.051, 4159.487, 4141.026, 0, 0, []
1627645133.9236, 35, 0, 4187.179, 4358.974, 4135.385, 4153.333, 4141.026, 0, 0, []
1627645133.9316, 36, 0, 4188.718, 4352.821, 4132.821, 4148.718, 4141.026, 0, 0, []
1627645133.9394, 37, 0, 4191.795, 4373.333, 4138.462, 4154.359, 4147.692, 0, 0, []
1627645133.9474, 38, 0, 4211.795, 4382.564, 4149.744, 4159.487, 4173.846, 0, 0, []
1627645133.9553, 39, 0, 4245.128, 4407.692, 4160, 4158.974, 4218.462, 0, 0, []
1627645133.9633, 40, 0, 4277.436, 4421.538, 4163.59, 4158.462, 4259.487, 0, 0, []
1627645133.9713, 41, 0, 4288.205, 4370.256, 4143.59, 4146.667, 4278.462, 0, 0, []
1627645133.9791, 42, 0, 4292.821, 4357.436, 4119.487, 4136.923, 4291.282, 0, 0, []
1627645133.9871, 43, 0, 4311.795, 4415.385, 4135.897, 4159.487, 4314.359, 0, 0, []
1627645133.995, 44, 0, 4313.333, 4403.077, 4152.821, 4173.333, 4315.385, 0, 0, []
1627645134.003, 45, 0, 4292.821, 4372.308, 4144.615, 4159.487, 4292.308, 0, 0, []
1627645134.0109, 46, 0, 4277.436, 4400.513, 4144.615, 4153.333, 4278.462, 0, 0, []
1627645134.0188, 47, 0, 4262.564, 4390.256, 4149.231, 4154.872, 4267.692, 0, 0, []
1627645134.0267, 48, 0, 4247.692, 4349.231, 4157.436, 4154.872, 4255.385, 0, 0, []
1627645134.0347, 49, 0, 4249.231, 4373.846, 4163.59, 4165.128, 4251.795, 0, 0, []
1627645134.0426, 50, 0, 4254.359, 4430.769, 4158.462, 4174.872, 4256.41, 0, 0, []
1627645134.0506, 51, 0, 4236.41, 4428.205, 4149.744, 4170.256, 4246.154, 0, 0, []
1627645134.0584, 52, 0, 4214.872, 4398.974, 4142.564, 4163.59, 4225.641, 0, 0, []
1627645134.0664, 53, 0, 4209.744, 4402.564, 4146.667, 4159.487, 4210.769, 0, 0, []
1627645134.0743, 54, 0, 4194.872, 4400, 4151.282, 4149.231, 4191.795, 0, 0, []
1627645134.0823, 55, 0, 4181.026, 4377.436, 4148.718, 4151.282, 4183.59, 0, 0, []
1627645134.0902, 56, 0, 4196.923, 4390.769, 4155.897, 4174.359, 4196.923, 0, 0, []
1627645134.0981, 57, 0, 4208.205, 4408.718, 4159.487, 4186.667, 4203.59, 0, 0, []
1627645134.1061, 58, 0, 4188.718, 4381.026, 4150.769, 4170.256, 4184.615, 0, 0, []
1627645134.114, 59, 0, 4178.974, 4380.513, 4154.872, 4162.051, 4173.333, 0, 0, []
1627645134.122, 60, 0, 4183.077, 4406.667, 4155.385, 4161.538, 4171.282, 0, 0, []
1627645134.1299, 61, 0, 4173.333, 4390.256, 4138.974, 4145.128, 4157.949, 0, 0, []
1627645134.1378, 62, 0, 4175.385, 4387.692, 4140.513, 4147.179, 4160, 0, 0, []
1627645134.1457, 63, 0, 4191.282, 4430.256, 4165.641, 4175.385, 4174.872, 0, 0, []
1627645134.1537, 64, 0, 4187.179, 4444.615, 4174.872, 4184.615, 4172.821, 450, 0, []
1627645134.1616, 65, 0, 4175.897, 4406.667, 4166.667, 4181.026, 4168.205, 450, 0, []
1627645134.1696, 66, 0, 4181.026, 4374.359, 4162.564, 4184.615, 4176.923, 16158, 0, []
1627645134.1774, 67, 0, 4186.154, 4397.436, 4157.436, 4182.564, 4180, 450, 0, []
1627645134.1854, 68, 0, 4179.487, 4405.641, 4160.513, 4171.795, 4164.103, 325, 0, []
1627645134.1933, 69, 0, 4169.231, 4379.487, 4168.718, 4166.667, 4150.256, 450, 0, []
1627645134.2013, 70, 0, 4162.564, 4400, 4162.051, 4173.846, 4143.59, 295, 0, []
1627645134.2092, 71, 0, 4154.359, 4426.667, 4151.795, 4173.846, 4126.154, 450, 0, []
1627645134.2171, 72, 0, 4144.103, 4393.333, 4144.615, 4154.359, 4107.179, 450, 0, []
1627645134.225, 73, 0, 4153.333, 4353.846, 4138.462, 4146.667, 4118.974, 16152, 0, []
1627645134.233, 74, 0, 4173.333, 4351.282, 4138.462, 4156.923, 4142.564, 450, 0, []
1627645134.2409, 75, 0, 4185.128, 4376.41, 4155.385, 4171.795, 4160, 16201, 0, []
1627645134.2489, 76, 0, 4195.897, 4426.667, 4184.103, 4194.872, 4180, 450, 0, []
1627645134.2567, 77, 0, 4190.256, 4429.231, 4181.026, 4199.487, 4177.949, 450, 0, []
1627645134.2647, 78, 0, 4166.667, 4376.923, 4156.923, 4173.333, 4146.154, 450, 0, []
1627645134.2726, 79, 0, 4156.41, 4381.026, 4158.462, 4156.923, 4131.282, 16201, 0, []
1627645134.2806, 80, 0, 4157.436, 4425.128, 4157.436, 4157.436, 4135.897, 450, 0, []
1627645134.2886, 81, 0, 4153.846, 4409.744, 4152.308, 4156.41, 4132.308, 450, 0, []
1627645134.2964, 82, 0, 4153.846, 4378.462, 4167.692, 4160, 4133.333, 450, 0, []
1627645134.3044, 83, 0, 4157.436, 4381.538, 4163.077, 4161.026, 4134.872, 16201, 0, []
1627645134.3123, 84, 0, 4155.385, 4386.154, 4139.487, 4155.385, 4129.744, 450, 0, []
1627645134.3203, 85, 0, 4158.462, 4410.769, 4147.179, 4165.641, 4134.359, 450, 0, []
1627645134.3282, 86, 0, 4154.359, 4426.154, 4163.077, 4176.41, 4136.41, 450, 0, []
1627645134.3361, 87, 0, 4135.897, 4382.051, 4148.718, 4168.718, 4122.564, 16201, 0, []
1627645134.344, 88, 0, 4142.051, 4358.462, 4149.744, 4176.41, 4125.128, 450, 0, []
1627645134.352, 89, 0, 4165.128, 4403.59, 4174.872, 4195.385, 4145.641, 450, 0, []
1627645134.3599, 90, 0, 4157.436, 4412.821, 4164.103, 4188.205, 4141.026, 450, 0, []
1627645134.3679, 91, 0, 4136.41, 4390.769, 4146.154, 4168.718, 4118.462, 16201, 0, []
1627645134.3757, 92, 0, 4144.103, 4403.077, 4161.026, 4172.821, 4120.513, 450, 0, []
1627645134.3837, 93, 0, 4160, 4399.487, 4166.667, 4188.205, 4140, 450, 0, []
1627645134.3916, 94, 0, 4159.487, 4398.462, 4161.538, 4188.718, 4142.051, 450, 0, []
1627645134.3996, 95, 0, 4158.462, 4407.692, 4165.641, 4183.077, 4131.282, 16201, 0, []
1627645134.4075, 96, 0, 4157.436, 4384.103, 4160, 4180.513, 4124.615, 450, 0, []
1627645134.4154, 97, 0, 4145.641, 4375.897, 4147.179, 4177.949, 4121.538, 450, 0, []
1627645134.4233, 98, 0, 4142.051, 4391.795, 4151.282, 4176.923, 4123.59, 450, 0, []
1627645134.4313, 99, 0, 4150.769, 4383.077, 4155.897, 4179.487, 4125.641, 16201, 0, []
1627645134.4393, 100, 0, 4154.359, 4376.41, 4145.128, 4178.462, 4119.487, 450, 0, []
1627645134.4472, 101, 0, 4154.872, 4401.538, 4157.436, 4175.385, 4120, 450, 0, []
1627645134.4551, 102, 0, 4155.385, 4402.051, 4175.897, 4173.333, 4124.615, 450, 0, []
1627645134.463, 103, 0, 4145.641, 4387.692, 4154.872, 4165.128, 4110.256, 16201, 0, []
1627645134.471, 104, 0, 4146.154, 4400, 4149.231, 4166.667, 4105.641, 450, 0, []
1627645134.4789, 105, 0, 4167.692, 4402.051, 4180, 4185.128, 4133.333, 450, 0, []
1627645134.4869, 106, 0, 4174.359, 4393.846, 4184.103, 4190.256, 4142.051, 450, 0, []
1627645134.4947, 107, 0, 4157.949, 4416.41, 4158.462, 4167.179, 4123.59, 16201, 0, []
1627645134.5027, 108, 0, 4148.718, 4438.462, 4151.795, 4153.846, 4118.462, 450, 0, []
1627645134.5106, 109, 0, 4145.128, 4392.308, 4155.385, 4156.41, 4114.872, 450, 0, []
1627645134.5186, 110, 0, 4143.077, 4351.795, 4150.769, 4157.949, 4110.256, 450, 0, []
1627645134.5265, 111, 0, 4150.769, 4403.59, 4152.821, 4160, 4117.949, 16201, 0, []
1627645134.5344, 112, 0, 4150.256, 4428.718, 4156.41, 4156.923, 4116.923, 450, 0, []
1627645134.5423, 113, 0, 4152.308, 4384.615, 4165.128, 4166.154, 4121.538, 450, 0, []
1627645134.5503, 114, 0, 4160.513, 4381.538, 4186.154, 4185.128, 4140, 450, 0, []
1627645134.5582, 115, 0, 4142.051, 4396.41, 4170.769, 4171.282, 4126.154, 16201, 0, []
1627645134.5662, 116, 0, 4128.205, 4369.744, 4144.103, 4151.795, 4111.282, 450, 0, []
1627645134.574, 117, 0, 4152.821, 4364.615, 4172.821, 4169.744, 4141.026, 450, 0, []
1627645134.582, 118, 0, 4162.564, 4410.769, 4190.769, 4179.487, 4153.846, 450, 0, []
1627645134.59, 119, 0, 4143.077, 4421.026, 4162.051, 4156.41, 4131.282, 16201, 0, []
1627645134.5979, 120, 0, 4141.538, 4378.462, 4150.256, 4149.231, 4128.718, 450, 0, []
1627645134.6058, 121, 0, 4153.846, 4368.718, 4157.949, 4158.462, 4140, 450, 0, []
1627645134.6136, 122, 0, 4160, 4408.205, 4157.949, 4160.513, 4142.564, 450, 0, []
1627645134.6215, 123, 0, 4152.821, 4407.692, 4153.846, 4153.333, 4134.359, 16201, 0, []
1627645134.6295, 124, 0, 4141.538, 4351.795, 4156.923, 4144.103, 4118.462, 450, 0, []
1627645134.6375, 125, 0, 4156.41, 4374.872, 4168.205, 4156.923, 4131.795, 450, 0, []
1627645134.6454, 126, 0, 4174.872, 4431.282, 4176.41, 4173.846, 4160.513, 450, 0, []
1627645134.6533, 127, 0, 4157.436, 4390.256, 4170.256, 4162.051, 4147.692, 16201, 0, []
1627645134.6612, 128, 0, 4132.308, 4359.487, 4151.282, 4153.846, 4122.564, 450, 0, []
1627645134.6692, 0, 0, 4145.128, 4408.718, 4156.923, 4170.769, 4135.385, 450, 0, []
1627645134.6771, 1, 0, 4166.667, 4396.41, 4172.821, 4181.538, 4156.923, 450, 0, []
1627645134.6851, 2, 0, 4152.821, 4338.462, 4150.256, 4164.103, 4141.026, 16158, 0, []
1627645134.6929, 3, 0, 4131.795, 4374.359, 4138.974, 4146.667, 4118.974, 450, 0, []
1627645134.7009, 4, 0, 4131.795, 4397.949, 4162.051, 4147.692, 4124.103, 317, 0, []
1627645134.7088, 5, 0, 4142.051, 4364.615, 4166.154, 4155.897, 4139.487, 450, 0, []
1627645134.7168, 6, 0, 4148.718, 4391.795, 4150.769, 4162.051, 4146.154, 16059, 0, []
1627645134.7247, 7, 0, 4157.436, 4411.282, 4156.41, 4169.231, 4149.744, 450, 0, []
1627645134.7326, 8, 0, 4151.795, 4359.487, 4160, 4161.026, 4139.487, 450, 0, []
1627645134.7405, 9, 0, 4133.333, 4347.179, 4144.103, 4134.872, 4114.359, 16152, 0, []
1627645134.7485, 10, 0, 4146.667, 4395.385, 4154.359, 4138.974, 4123.59, 450, 0, []
1627645134.7565, 11, 0, 4171.795, 4398.974, 4171.282, 4168.718, 4155.385, 16201, 0, []
1627645134.7644, 12, 0, 4170.769, 4384.615, 4162.564, 4183.077, 4163.077, 450, 0, []
1627645134.7723, 13, 0, 4155.385, 4402.051, 4152.821, 4171.795, 4142.564, 450, 0, []
1627645134.7802, 14, 0, 4138.974, 4398.974, 4141.026, 4143.59, 4117.949, 450, 0, []
1627645134.7882, 15, 0, 4142.051, 4388.718, 4144.615, 4144.103, 4125.128, 16201, 0, []
1627645134.7961, 16, 0, 4153.333, 4379.487, 4165.641, 4162.564, 4143.077, 0, 0, []
1627645134.8041, 17, 0, 4148.205, 4357.436, 4157.949, 4154.872, 4135.897, 0, 0, []
1627645134.812, 18, 0, 4154.872, 4375.897, 4153.846, 4157.949, 4145.128, 0, 0, []
1627645134.8199, 19, 0, 4175.897, 4408.718, 4175.897, 4184.615, 4171.795, 0, 0, []
1627645134.8278, 20, 0, 4173.333, 4378.974, 4177.949, 4182.051, 4162.564, 0, 0, []
1627645134.8358, 21, 0, 4168.718, 4361.538, 4171.282, 4169.744, 4151.282, 0, 0, []
1627645134.8437, 22, 0, 4184.103, 4411.282, 4177.436, 4186.154, 4169.231, 0, 0, []
1627645134.8517, 23, 1, 4183.875, 4408.775, 4177.151, 4186.097, 4168.148, 0, 0, []
1627645134.8595, 24, 1, 4183.647, 4406.268, 4176.866, 4186.04, 4167.066, 0, 0, []
1627645134.8674, 25, 1, 4183.419, 4403.761, 4176.581, 4185.983, 4165.983, 0, 0, []
1627645134.8753, 26, 1, 4183.191, 4401.254, 4176.296, 4185.926, 4164.9, 0, 0, []
1627645134.8832, 27, 1, 4182.963, 4398.746, 4176.011, 4185.869, 4163.818, 0, 0, []
1627645134.8911, 28, 1, 4182.735, 4396.239, 4175.726, 4185.812, 4162.735, 0, 0, []
1627645134.8989, 29, 1, 4182.507, 4393.732, 4175.442, 4185.755, 4161.652, 0, 0, []
1627645134.9068, 30, 1, 4182.279, 4391.225, 4175.157, 4185.698, 4160.57, 0, 0, []
1627645134.9147, 31, 0, 4182.051, 4388.718, 4174.872, 4185.641, 4159.487, 0, 0, []
1627645134.9225, 32, 0, 4162.051, 4401.538, 4149.231, 4171.282, 4145.641, 0, 0, []
1627645134.9304, 33, 0, 4142.564, 4371.282, 4135.897, 4155.897, 4126.667, 0, 0, []
1627645134.9382, 34, 0, 4134.872, 4333.846, 4138.974, 4153.333, 4121.026, 0, 0, []
1627645134.946, 35, 0, 4142.564, 4359.487, 4147.179, 4160.513, 4126.667, 0, 0, []
1627645134.9539, 36, 0, 4156.41, 4403.077, 4157.436, 4168.718, 4133.333, 0, 0, []
1627645134.9617, 37, 0, 4168.205, 4397.436, 4161.026, 4171.795, 4145.128, 0, 0, []
1627645134.9695, 38, 0, 4197.949, 4407.692, 4178.462, 4193.333, 4183.077, 0, 0, []
1627645134.9773, 39, 0, 4209.744, 4415.897, 4185.128, 4207.692, 4200, 0, 0, []
1627645134.9851, 40, 0, 4171.795, 4369.744, 4146.667, 4176.923, 4158.462, 0, 0, []
1627645134.993, 41, 0, 4151.282, 4364.615, 4131.282, 4154.359, 4133.846, 0, 0, []
1627645135.0008, 42, 0, 4170.769, 4412.821, 4152.308, 4178.462, 4155.897, 0, 0, []
1627645135.0087, 43, 0, 4164.103, 4394.359, 4147.179, 4181.026, 4150.769, 0, 0, []
1627645135.0164, 44, 0, 4142.564, 4368.205, 4134.872, 4153.333, 4123.59, 0, 0, []
1627645135.0243, 45, 0, 4165.128, 4407.179, 4150.769, 4161.026, 4137.436, 0, 0, []
1627645135.0321, 46, 0, 4198.974, 4402.564, 4169.231, 4192.308, 4171.795, 0, 0, []
1627645135.04, 47, 0, 4190.256, 4377.436, 4158.974, 4182.564, 4168.205, 0, 0, []
1627645135.0478, 48, 0, 4177.436, 4388.205, 4148.718, 4162.051, 4156.923, 0, 0, []
1627645135.0555, 49, 0, 4195.385, 4387.692, 4164.103, 4181.026, 4171.795, 0, 0, []
1627645135.0634, 50, 0, 4208.205, 4377.436, 4169.744, 4195.897, 4179.487, 0, 0, []
1627645135.0713, 51, 0, 4206.154, 4383.59, 4169.231, 4188.205, 4174.359, 0, 0, []
1627645135.0791, 52, 0, 4208.718, 4396.923, 4171.795, 4187.692, 4180.513, 0, 0, []
1627645135.087, 53, 0, 4210.769, 4410.769, 4159.487, 4190.769, 4188.718, 0, 0, []
1627645135.0947, 54, 0, 4207.179, 4392.308, 4148.718, 4186.667, 4183.59, 0, 0, []
1627645135.1025, 55, 0, 4203.077, 4351.795, 4157.436, 4185.641, 4180, 0, 0, []
1627645135.1104, 56, 0, 4199.487, 4366.667, 4161.538, 4177.949, 4170.256, 0, 0, []
1627645135.1182, 57, 0, 4190.769, 4390.769, 4148.205, 4165.641, 4154.872, 0, 0, []
1627645135.1261, 58, 0, 4189.231, 4375.897, 4151.795, 4170.256, 4162.051, 0, 0, []
1627645135.1338, 59, 0, 4193.846, 4378.462, 4167.179, 4175.897, 4171.795, 0, 0, []
1627645135.1417, 60, 0, 4180.513, 4378.974, 4153.846, 4163.077, 4155.385, 0, 0, []
1627645135.1495, 61, 0, 4171.795, 4369.744, 4140.513, 4152.821, 4144.103, 0, 0, []
1627645135.1574, 62, 0, 4192.308, 4398.462, 4143.59, 4155.897, 4161.026, 0, 0, []
1627645135.1652, 63, 0, 4209.231, 4422.051, 4138.462, 4152.821, 4163.077, 0, 0, []
1627645135.173, 64, 0, 4213.333, 4385.641, 4148.205, 4151.795, 4158.462, 450, 0, []
1627645135.1808, 65, 0, 4225.641, 4357.949, 4167.692, 4164.103, 4174.872, 450, 0, []
1627645135.1887, 66, 0, 4230.769, 4401.026, 4165.641, 4171.282, 4182.051, 16158, 0, []
1627645135.1965, 67, 0, 4216.41, 4421.538, 4150.769, 4156.41, 4168.205, 450, 0, []
1627645135.2044, 68, 0, 4204.615, 4377.949, 4135.897, 4134.359, 4154.872, 314, 0, []
1627645135.2121, 69, 0, 4206.667, 4371.282, 4137.949, 4133.333, 4157.949, 450, 0, []
1627645135.22, 70, 0, 4215.897, 4391.795, 4164.615, 4151.795, 4172.821, 16067, 0, []
1627645135.2278, 71, 0, 4209.744, 4364.615, 4179.487, 4154.872, 4170.769, 450, 0, []
1627645135.2357, 72, 0, 4178.974, 4348.205, 4159.487, 4133.846, 4144.615, 450, 0, []
1627645135.2435, 73, 0, 4179.487, 4378.462, 4153.333, 4134.359, 4147.692, 16152, 0, []
1627645135.2513, 74, 0, 4205.641, 4395.385, 4172.308, 4148.205, 4167.692, 450, 0, []
1627645135.2591, 75, 0, 4200.513, 4379.487, 4170.769, 4134.872, 4158.462, 16201, 0, []
1627645135.2669, 76, 0, 4189.231, 4370.256, 4154.872, 4125.641, 4154.872, 450, 0, []
1627645135.2748, 77, 0, 4199.487, 4385.128, 4152.308, 4135.385, 4172.821, 450, 0, []
1627645135.2826, 78, 0, 4196.41, 4384.615, 4152.308, 4136.41, 4174.359, 450, 0, []
1627645135.2904, 79, 0, 4169.744, 4363.077, 4150.256, 4128.718, 4149.744, 16201, 0, []
1627645135.2982, 80, 0, 4164.103, 4381.538, 4150.769, 4141.026, 4142.564, 450, 0, []
1627645135.3061, 81, 0, 4170.769, 4412.308, 4153.333, 4153.846, 4149.231, 450, 0, []
1627645135.3139, 82, 0, 4165.641, 4383.59, 4163.077, 4151.282, 4148.205, 450, 0, []
1627645135.3218, 83, 0, 4184.103, 4354.872, 4180, 4167.179, 4166.667, 16201, 0, []
1627645135.3295, 84, 0, 4214.359, 4377.949, 4192.308, 4180.513, 4192.821, 450, 0, []
1627645135.3374, 85, 0, 4211.282, 4380.513, 4184.615, 4158.462, 4188.718, 450, 0, []
1627645135.3452, 86, 0, 4196.923, 4358.974, 4175.385, 4146.667, 4172.821, 450, 0, []
1627645135.3531, 87, 0, 4194.359, 4370.256, 4173.846, 4160.513, 4170.256, 16201, 0, []
1627645135.3609, 88, 0, 4176.923, 4398.974, 4157.436, 4158.462, 4160, 450, 0, []
1627645135.3687, 89, 0, 4174.359, 4402.564, 4160.513, 4159.487, 4166.154, 450, 0, []
1627645135.3765, 90, 0, 4213.333, 4361.026, 4191.795, 4182.564, 4205.641, 450, 0, []
1627645135.3844, 91, 0, 4230.256, 4345.128, 4196.923, 4186.667, 4219.487, 16201, 0, []
1627645135.3922, 92, 0, 4206.667, 4391.282, 4176.41, 4167.692, 4194.359, 450, 0, []
1627645135.4001, 93, 0, 4185.641, 4390.256, 4155.897, 4150.769, 4169.231, 450, 0, []
1627645135.4078, 94, 0, 4184.103, 4354.872, 4157.949, 4153.333, 4163.59, 450, 0, []
1627645135.4157, 95, 0, 4194.359, 4380, 4175.897, 4169.744, 4177.436, 16201, 0, []
1627645135.4235, 96, 0, 4214.872, 4403.077, 4185.128, 4177.949, 4196.923, 450, 0, []
1627645135.4313, 97, 0, 4228.205, 4381.538, 4188.718, 4177.436, 4203.077, 450, 0, []
1627645135.4392, 98, 0, 4222.564, 4393.333, 4189.231, 4179.487, 4204.103, 450, 0, []
1627645135.447, 99, 0, 4215.385, 4415.385, 4186.667, 4184.615, 4210.256, 16201, 0, []
1627645135.4548, 100, 0, 4202.564, 4392.821, 4180, 4176.41, 4198.974, 450, 0, []
1627645135.4626, 101, 0, 4190.769, 4391.282, 4169.231, 4167.179, 4185.641, 450, 0, []
1627645135.4705, 102, 0, 4187.692, 4385.641, 4155.385, 4157.436, 4180.513, 450, 0, []
1627645135.4783, 103, 0, 4178.462, 4351.795, 4147.179, 4141.538, 4166.667, 16201, 0, []
1627645135.4861, 104, 0, 4177.949, 4371.795, 4161.538, 4149.744, 4167.692, 450, 0, []
1627645135.4939, 105, 0, 4180, 4378.462, 4165.641, 4163.59, 4183.59, 450, 0, []
1627645135.5018, 106, 0, 4174.359, 4342.051, 4149.231, 4156.923, 4186.154, 450, 0, []
1627645135.5096, 107, 0, 4178.974, 4376.41, 4153.333, 4154.872, 4190.256, 16201, 0, []
1627645135.5175, 108, 0, 4189.744, 4426.154, 4161.026, 4172.308, 4198.462, 450, 0, []
1627645135.5253, 109, 0, 4188.718, 4389.231, 4160, 4184.103, 4192.821, 450, 0, []
1627645135.5331, 110, 0, 4182.051, 4366.154, 4163.077, 4174.872, 4185.641, 450, 0, []
1627645135.5409, 111, 0, 4176.41, 4381.538, 4154.872, 4160, 4178.462, 16201, 0, []
1627645135.5488, 112, 0, 4169.231, 4349.744, 4148.718, 4154.359, 4165.641, 450, 0, []
1627645135.5566, 113, 0, 4174.872, 4344.615, 4165.641, 4166.667, 4169.231, 450, 0, []
1627645135.5645, 114, 0, 4182.564, 4392.308, 4178.974, 4169.231, 4179.487, 450, 0, []
1627645135.5722, 115, 0, 4166.667, 4400, 4165.128, 4148.718, 4167.692, 16201, 0, []
1627645135.58, 116, 0, 4160, 4381.538, 4155.385, 4145.128, 4160, 450, 0, []
1627645135.5879, 117, 0, 4176.41, 4367.692, 4165.641, 4159.487, 4163.59, 450, 0, []
1627645135.5957, 118, 0, 4180.513, 4366.154, 4159.487, 4160, 4155.897, 450, 0, []
1627645135.6036, 119, 0, 4174.872, 4394.359, 4137.949, 4156.41, 4150.769, 16201, 0, []
1627645135.6113, 120, 0, 4174.872, 4401.026, 4132.308, 4156.41, 4157.436, 450, 0, []
1627645135.6192, 121, 0, 4174.872, 4372.821, 4140.513, 4146.667, 4162.051, 450, 0, []
1627645135.627, 122, 0, 4174.872, 4370.256, 4147.692, 4136.923, 4164.103, 450, 0, []
1627645135.6349, 123, 0, 4181.538, 4385.128, 4160.513, 4144.615, 4174.359, 16201, 0, []
1627645135.6427, 124, 0, 4187.179, 4374.872, 4172.308, 4155.897, 4184.103, 450, 0, []
1627645135.6505, 125, 0, 4189.744, 4375.385, 4165.128, 4157.949, 4181.538, 450, 0, []
1627645135.6583, 126, 0, 4203.077, 4406.154, 4161.538, 4166.154, 4186.667, 450, 0, []
1627645135.6662, 127, 0, 4216.923, 4405.641, 4181.538, 4173.333, 4197.436, 16201, 0, []
1627645135.674, 128, 0, 4210.769, 4370.769, 4193.333, 4168.718, 4191.282, 450, 0, []
1627645135.6819, 0, 0, 4202.564, 4367.179, 4180.513, 4173.333, 4185.128, 450, 0, []
1627645135.6896, 1, 0, 4202.051, 4383.077, 4165.128, 4185.128, 4191.795, 450, 0, []
1627645135.6975, 2, 0, 4191.795, 4388.718, 4146.154, 4181.538, 4188.718, 16158, 0, []
1627645135.7053, 3, 0, 4170.769, 4394.872, 4134.872, 4167.692, 4168.718, 450, 0, []
1627645135.7131, 4, 0, 4164.103, 4381.026, 4143.077, 4161.026, 4159.487, 307, 0, []
1627645135.721, 5, 0, 4181.538, 4371.795, 4157.949, 4168.718, 4175.897, 450, 0, []
1627645135.7287, 6, 0, 4191.282, 4400.513, 4172.308, 4169.744, 4189.231, 16071, 0, []
1627645135.7366, 7, 0, 4177.436, 4409.744, 4163.59, 4155.385, 4183.077, 450, 0, []
1627645135.7444, 8, 0, 4169.744, 4364.615, 4148.205, 4153.846, 4184.615, 450, 0, []
1627645135.7523, 9, 0, 4177.949, 4336.41, 4150.256, 4172.821, 4198.974, 16152, 0, []
1627645135.7601, 10, 0, 4185.641, 4373.333, 4157.436, 4184.615, 4206.667, 450, 0, []
1627645135.7679, 11, 0, 4197.949, 4413.846, 4171.795, 4190.769, 4213.333, 16201, 0, []
1627645135.7757, 12, 0, 4207.692, 4398.462, 4176.41, 4199.487, 4218.462, 450, 0, []
1627645135.7836, 13, 0, 4201.026, 4382.564, 4156.923, 4190.256, 4208.205, 450, 0, []
1627645135.7914, 14, 0, 4195.385, 4398.974, 4142.564, 4173.333, 4197.949, 450, 0, []
1627645135.7993, 15, 0, 4187.692, 4368.718, 4137.436, 4164.103, 4187.692, 16201, 0, []
1627645135.807, 16, 0, 4173.333, 4350.769, 4135.897, 4158.462, 4174.872, 0, 0, []
1627645135.8149, 17, 0, 4178.974, 4388.205, 4144.103, 4164.103, 4180.513, 0, 0, []
1627645135.8227, 18, 0, 4200.513, 4384.615, 4157.949, 4178.974, 4192.821, 0, 0, []
1627645135.8306, 19, 0, 4198.974, 4370.769, 4161.026, 4184.103, 4183.59, 0, 0, []
1627645135.8384, 20, 0, 4194.872, 4391.282, 4156.923, 4185.641, 4178.974, 0, 0, []
1627645135.8462, 21, 0, 4209.744, 4379.487, 4157.949, 4188.205, 4195.385, 0, 0, []
1627645135.854, 22, 0, 4209.744, 4381.026, 4165.128, 4180, 4201.026, 0, 0, []
1627645135.8619, 23, 0, 4205.128, 4423.077, 4171.795, 4175.385, 4195.897, 0, 0, []
1627645135.8697, 24, 0, 4208.718, 4412.821, 4162.051, 4175.897, 4191.282, 0, 0, []
1627645135.8775, 25, 0, 4207.179, 4381.538, 4142.051, 4174.872, 4188.718, 0, 0, []
1627645135.8853, 26, 0, 4204.103, 4384.103, 4140, 4177.436, 4189.231, 0, 0, []
1627645135.8931, 27, 0, 4207.692, 4391.795, 4158.974, 4186.154, 4201.026, 0, 0, []
1627645135.901, 28, 0, 4216.923, 4381.538, 4185.641, 4194.359, 4217.436, 0, 0, []
1627645135.9088, 29, 0, 4215.385, 4361.026, 4195.385, 4189.231, 4213.846, 0, 0, []
1627645135.9167, 30, 0, 4201.026, 4380, 4176.41, 4182.051, 4200.513, 0, 0, []
1627645135.9244, 31, 0, 4194.359, 4396.923, 4162.051, 4195.385, 4198.462, 0, 0, []
1627645135.9322, 32, 0, 4200.513, 4366.667, 4160, 4208.718, 4197.436, 0, 0, []
1627645135.9401, 33, 0, 4194.359, 4381.538, 4144.615, 4193.846, 4176.923, 0, 0, []
1627645135.948, 34, 0, 4187.692, 4423.077, 4149.744, 4184.615, 4170.769, 0, 0, []
1627645135.9558, 35, 0, 4209.744, 4386.154, 4176.41, 4202.051, 4205.641, 0, 0, []
1627645135.9636, 36, 0, 4225.128, 4369.744, 4176.923, 4206.667, 4224.615, 0, 0, []
1627645135.9714, 37, 0, 4215.897, 4402.564, 4157.949, 4191.282, 4208.718, 0, 0, []
1627645135.9792, 38, 0, 4213.846, 4377.436, 4154.359, 4190.769, 4200, 0, 0, []
1627645135.9871, 39, 0, 4214.359, 4363.077, 4162.564, 4202.051, 4205.641, 0, 0, []
1627645135.995, 40, 0, 4203.077, 4386.154, 4163.077, 4205.128, 4203.59, 0, 0, []
1627645136.0027, 41, 0, 4199.487, 4367.692, 4167.692, 4203.59, 4202.051, 0, 0, []
1627645136.0105, 42, 0, 4200.513, 4355.897, 4175.897, 4197.949, 4205.128, 0, 0, []
1627645136.0184, 43, 0, 4196.41, 4387.692, 4165.128, 4186.154, 4200.513, 0, 0, []
1627645136.0262, 44, 0, 4201.538, 4388.205, 4160.513, 4182.051, 4200, 0, 0, []
1627645136.0341, 45, 0, 4206.667, 4382.051, 4169.231, 4184.615, 4200.513, 0, 0, []
1627645136.0419, 46, 0, 4190.769, 4395.897, 4161.538, 4174.872, 4182.564, 0, 0, []
1627645136.0497, 47, 0, 4178.974, 4379.487, 4151.795, 4177.436, 4166.154, 0, 0, []
1627645136.0575, 48, 0, 4187.692, 4378.974, 4153.846, 4201.026, 4170.769, 0, 0, []
1627645136.0654, 49, 0, 4191.282, 4399.487, 4153.333, 4205.128, 4171.795, 0, 0, []
1627645136.0732, 50, 0, 4186.154, 4370.256, 4147.179, 4190.256, 4169.744, 0, 0, []
1627645136.081, 51, 0, 4192.821, 4341.538, 4158.974, 4190.769, 4184.103, 0, 0, []
1627645136.0888, 52, 0, 4189.231, 4373.333, 4160.513, 4183.077, 4181.026, 0, 0, []
1627645136.0967, 53, 0, 4168.205, 4393.333, 4143.077, 4160.513, 4164.615, 0, 0, []
1627645136.1045, 54, 0, 4175.385, 4385.128, 4160.513, 4172.821, 4173.333, 0, 0, []
1627645136.1124, 55, 0, 4196.41, 4389.231, 4183.59, 4201.026, 4189.231, 0, 0, []
1627645136.1202, 56, 0, 4199.487, 4374.359, 4181.026, 4209.231, 4193.333, 0, 0, []
1627645136.1279, 57, 0, 4195.897, 4382.564, 4180.513, 4206.154, 4197.436, 0, 0, []
1627645136.1358, 58, 0, 4195.897, 4404.103, 4178.974, 4205.641, 4205.128, 0, 0, []
1627645136.1437, 59, 0, 4190.769, 4373.846, 4174.872, 4206.667, 4202.564, 0, 0, []
1627645136.1515, 60, 0, 4176.923, 4361.026, 4170.769, 4193.333, 4182.564, 0, 0, []
1627645136.1594, 61, 0, 4175.385, 4374.359, 4164.615, 4172.821, 4166.154, 0, 0, []
1627645136.1671, 62, 0, 4185.641, 4367.692, 4166.667, 4167.692, 4169.744, 0, 0, []
1627645136.1749, 63, 0, 4202.051, 4394.359, 4175.385, 4187.692, 4186.154, 0, 0, []
1627645136.1828, 64, 0, 4207.692, 4403.077, 4171.795, 4193.846, 4187.692, 450, 0, []
1627645136.1906, 65, 0, 4191.795, 4354.359, 4160, 4174.359, 4172.821, 450, 0, []
1627645136.1985, 66, 0, 4188.205, 4369.231, 4167.179, 4172.308, 4171.282, 16161, 0, []
1627645136.2062, 67, 0, 4207.692, 4407.179, 4183.59, 4191.795, 4188.718, 450, 0, []
1627645136.2141, 68, 0, 4208.205, 4375.385, 4166.154, 4193.333, 4188.205, 304, 0, []
1627645136.2219, 69, 0, 4184.103, 4361.026, 4141.538, 4175.897, 4169.744, 450, 0, []
1627645136.2298, 70, 0, 4186.667, 4383.59, 4154.872, 4175.385, 4174.872, 16074, 0, []
1627645136.2376, 71, 0, 4208.205, 4405.641, 4178.462, 4195.385, 4194.872, 450, 0, []
1627645136.2454, 72, 0, 4203.077, 4418.974, 4180.513, 4200.513, 4190.769, 450, 0, []
1627645136.2532, 73, 0, 4195.385, 4382.051, 4175.385, 4192.821, 4185.128, 16152, 0, []
1627645136.261, 74, 0, 4208.718, 4342.564, 4177.949, 4190.769, 4196.923, 450, 0, []
1627645136.2689, 75, 0, 4211.795, 4386.667, 4177.436, 4184.615, 4196.923, 16202, 0, []
1627645136.2768, 76, 0, 4200.513, 4414.359, 4167.692, 4173.333, 4185.641, 450, 0, []
1627645136.2845, 77, 0, 4201.026, 4382.051, 4166.154, 4177.436, 4186.154, 450, 0, []
1627645136.2923, 78, 0, 4204.103, 4377.436, 4166.667, 4182.564, 4184.103, 450, 0, []
1627645136.3002, 79, 0, 4200, 4398.974, 4166.667, 4168.205, 4174.359, 16202, 0, []
1627645136.3081, 80, 0, 4202.564, 4396.41, 4175.897, 4167.179, 4179.487, 450, 0, []
1627645136.3159, 81, 0, 4209.231, 4379.487, 4177.949, 4187.692, 4189.744, 450, 0, []
1627645136.3236, 82, 0, 4208.205, 4383.077, 4174.359, 4194.872, 4188.718, 450, 0, []
1627645136.3315, 83, 0, 4200, 4378.974, 4169.744, 4184.103, 4181.538, 16202, 0, []
1627645136.3393, 84, 0, 4191.282, 4357.949, 4162.051, 4173.333, 4167.692, 450, 0, []
1627645136.3472, 85, 0, 4196.923, 4363.59, 4162.564, 4167.179, 4166.667, 450, 0, []
1627645136.355, 86, 0, 4203.077, 4392.308, 4156.41, 4161.026, 4176.41, 450, 0, []
1627645136.3628, 87, 0, 4195.385, 4390.769, 4145.641, 4156.41, 4167.179, 16202, 0, []
1627645136.3706, 88, 0, 4195.897, 4356.41, 4152.308, 4166.154, 4164.615, 450, 0, []
1627645136.3785, 89, 0, 4221.538, 4376.41, 4176.41, 4190.769, 4196.923, 450, 0, []
1627645136.3863, 90, 0, 4232.308, 4410.256, 4180, 4193.333, 4208.205, 450, 0, []
1627645136.3942, 91, 0, 4211.282, 4390.769, 4163.077, 4173.333, 4185.641, 16202, 0, []
1627645136.4019, 92, 0, 4199.487, 4373.333, 4167.179, 4171.795, 4184.615, 450, 0, []
1627645136.4097, 93, 0, 4203.59, 4373.846, 4176.923, 4179.487, 4191.795, 450, 0, []
1627645136.4176, 94, 0, 4205.641, 4364.103, 4171.282, 4173.846, 4176.923, 450, 0, []
1627645136.4255, 95, 0, 4206.154, 4358.462, 4164.615, 4168.205, 4169.744, 16202, 0, []
1627645136.4333, 96, 0, 4213.333, 4381.538, 4170.256, 4178.462, 4186.154, 450, 0, []
1627645136.4411, 97, 0, 4213.333, 4409.744, 4180.513, 4183.59, 4189.231, 450, 0, []
1627645136.4489, 98, 0, 4187.692, 4404.103, 4160.513, 4155.897, 4157.949, 450, 0, []
1627645136.4568, 99, 0, 4171.795, 4394.872, 4135.897, 4131.282, 4135.385, 16202, 0, []
1627645136.4646, 100, 0, 4185.128, 4385.128, 4145.128, 4140, 4141.538, 450, 0, []
1627645136.4725, 101, 0, 4195.897, 4354.359, 4145.641, 4152.821, 4150.256, 450, 0, []
1627645136.4802, 102, 0, 4205.128, 4357.949, 4137.436, 4164.103, 4165.128, 450, 0, []
1627645136.488, 103, 0, 4214.872, 4397.949, 4144.103, 4175.385, 4181.538, 16202, 0, []
1627645136.4959, 104, 0, 4207.692, 4373.333, 4143.077, 4160, 4171.795, 450, 0, []
1627645136.5037, 105, 0, 4202.051, 4319.487, 4144.103, 4140, 4160.513, 450, 0, []
1627645136.5116, 106, 0, 4213.846, 4352.308, 4158.462, 4150.769, 4169.744, 450, 0, []
1627645136.5193, 107, 0, 4221.026, 4401.026, 4167.179, 4167.179, 4172.308, 16202, 0, []
1627645136.5272, 108, 0, 4217.949, 4400, 4160.513, 4174.872, 4173.333, 450, 0, []
1627645136.535, 109, 0, 4211.282, 4381.026, 4146.667, 4177.949, 4177.949, 450, 0, []
1627645136.5429, 110, 0, 4209.231, 4340.513, 4150.769, 4171.795, 4172.821, 450, 0, []
1627645136.5507, 111, 0, 4224.103, 4341.026, 4164.615, 4168.205, 4184.615, 16202, 0, []
1627645136.5585, 112, 0, 4245.641, 4389.231, 4158.462, 4164.615, 4215.897, 450, 0, []
1627645136.5663, 113, 0, 4260, 4392.308, 4145.641, 4147.692, 4233.846, 450, 0, []
1627645136.5742, 114, 0, 4288.718, 4377.949, 4153.846, 4147.692, 4261.538, 450, 0, []
1627645136.582, 115, 0, 4328.718, 4385.128, 4165.128, 4172.308, 4314.872, 16202, 0, []
1627645136.5898, 116, 0, 4357.436, 4370.769, 4153.846, 4180.513, 4350.769, 450, 0, []
1627645136.5977, 117, 0, 4380.513, 4357.949, 4147.692, 4177.436, 4365.128, 450, 0, []
1627645136.6056, 118, 0, 4391.282, 4393.846, 4162.051, 4180, 4377.949, 450, 0, []
1627645136.6136, 119, 1, 4375.726, 4388.775, 4163.761, 4180.969, 4365.869, 2200.222, 0, []
1627645136.6215, 120, 1, 4360.171, 4383.704, 4165.47, 4181.937, 4353.789, 3950.444, 0, []
1627645136.6294, 121, 1, 4344.615, 4378.632, 4167.179, 4182.906, 4341.709, 5700.667, 0, []
1627645136.6373, 122, 1, 4329.06, 4373.561, 4168.889, 4183.875, 4329.63, 7450.889, 0, []
1627645136.6451, 123, 1, 4313.504, 4368.49, 4170.598, 4184.843, 4317.55, 9201.111, 0, []
1627645136.653, 124, 1, 4297.949, 4363.419, 4172.308, 4185.812, 4305.47, 10951.333, 0, []
1627645136.6609, 125, 1, 4282.393, 4358.348, 4174.017, 4186.781, 4293.39, 12701.556, 0, []
1627645136.6688, 126, 1, 4266.838, 4353.276, 4175.726, 4187.749, 4281.311, 14451.778, 0, []
1627645136.6767, 127, 0, 4251.282, 4348.205, 4177.436, 4188.718, 4269.231, 16202, 0, []
1627645136.6844, 128, 0, 4258.462, 4398.462, 4181.538, 4194.359, 4261.538, 450, 0, []
1627645136.6923, 0, 0, 4275.897, 4381.538, 4178.462, 4204.615, 4268.205, 450, 0, []
1627645136.7002, 1, 0, 4263.077, 4342.051, 4165.641, 4193.333, 4253.333, 450, 0, []
1627645136.708, 2, 0, 4242.564, 4390.256, 4174.872, 4183.077, 4241.026, 16161, 0, []
1627645136.7159, 3, 0, 4238.462, 4416.923, 4185.128, 4188.205, 4248.205, 450, 0, []
1627645136.7237, 4, 0, 4242.564, 4363.077, 4181.026, 4192.308, 4247.692, 306, 0, []
1627645136.7315, 5, 0, 4242.051, 4360.513, 4182.051, 4195.385, 4240, 450, 0, []
1627645136.7395, 6, 0, 4232.308, 4408.718, 4178.462, 4195.385, 4231.282, 16074, 0, []
1627645136.7474, 7, 0, 4211.795, 4404.103, 4158.974, 4182.564, 4216.923, 450, 0, []
1627645136.7553, 8, 0, 4203.077, 4372.308, 4154.359, 4177.436, 4209.744, 450, 0, []
1627645136.7631, 9, 0, 4217.949, 4377.949, 4168.718, 4189.231, 4217.949, 16152, 0, []
1627645136.7711, 10, 0, 4237.436, 4404.103, 4169.231, 4202.051, 4229.744, 450, 0, []
1627645136.7791, 11, 0, 4243.59, 4403.077, 4169.744, 4202.051, 4238.462, 16202, 0, []
1627645136.7871, 12, 0, 4230.769, 4367.692, 4179.487, 4189.744, 4238.462, 450, 0, []
1627645136.7951, 13, 1, 4229.382, 4370.347, 4179.427, 4189.472, 4235.686, 450, 0, []
1627645136.8029, 14, 1, 4227.994, 4373.002, 4179.367, 4189.201, 4232.911, 450, 0, []
1627645136.8108, 15, 1, 4226.606, 4375.656, 4179.306, 4188.929, 4230.136, 16202, 0, []
1627645136.8187, 16, 1, 4225.219, 4378.311, 4179.246, 4188.658, 4227.36, 344.118, 0, []
1627645136.8266, 17, 1, 4223.831, 4380.965, 4179.186, 4188.386, 4224.585, 317.647, 0, []
1627645136.8345, 18, 1, 4222.443, 4383.62, 4179.125, 4188.115, 4221.81, 291.176, 0, []
1627645136.8423, 19, 1, 4221.056, 4386.275, 4179.065, 4187.843, 4219.035, 264.706, 0, []
1627645136.8502, 20, 1, 4219.668, 4388.929, 4179.005, 4187.572, 4216.259, 238.235, 0, []
1627645136.8581, 21, 1, 4218.281, 4391.584, 4178.944, 4187.3, 4213.484, 211.765, 0, []
1627645136.866, 22, 1, 4216.893, 4394.238, 4178.884, 4187.029, 4210.709, 185.294, 0, []
1627645136.8739, 23, 1, 4215.505, 4396.893, 4178.824, 4186.757, 4207.934, 158.824, 0, []
1627645136.8817, 24, 1, 4214.118, 4399.548, 4178.763, 4186.486, 4205.158, 132.353, 0, []
1627645136.8896, 25, 1, 4212.73, 4402.202, 4178.703, 4186.214, 4202.383, 105.882, 0, []
1627645136.8975, 26, 1, 4211.342, 4404.857, 4178.643, 4185.943, 4199.608, 79.412, 0, []
1627645136.9054, 27, 1, 4209.955, 4407.511, 4178.582, 4185.671, 4196.833, 52.941, 0, []
1627645136.9133, 28, 1, 4208.567, 4410.166, 4178.522, 4185.4, 4194.057, 26.471, 0, []
1627645136.9211, 29, 0, 4207.179, 4412.821, 4178.462, 4185.128, 4191.282, 0, 0, []
1627645136.9291, 30, 0, 4222.051, 4362.051, 4165.641, 4178.974, 4203.59, 0, 0, []
1627645136.937, 31, 0, 4226.667, 4368.205, 4148.205, 4170.769, 4203.59, 0, 0, []
1627645136.9449, 32, 0, 4219.487, 4389.744, 4155.897, 4182.564, 4200.513, 0, 0, []
1627645136.9527, 33, 0, 4178.974, 4341.538, 4134.872, 4167.179, 4155.897, 0, 0, []
1627645136.9605, 34, 0, 4169.744, 4354.872, 4137.436, 4162.564, 4137.436, 0, 0, []
1627645136.9683, 35, 0, 4211.795, 4426.154, 4190.769, 4205.128, 4187.179, 0, 0, []
1627645136.9762, 36, 0, 4229.744, 4393.333, 4207.179, 4221.026, 4215.385, 0, 0, []
1627645136.984, 37, 0, 4222.051, 4347.692, 4192.821, 4192.308, 4201.026, 0, 0, []
1627645136.992, 38, 0, 4231.282, 4398.974, 4200, 4189.231, 4208.718, 0, 0, []
1627645136.9998, 39, 0, 4232.308, 4409.744, 4188.718, 4194.359, 4209.744, 0, 0, []
1627645137.0078, 40, 0, 4208.718, 4374.359, 4159.487, 4176.923, 4181.538, 0, 0, []
1627645137.0157, 41, 0, 4195.897, 4398.462, 4166.667, 4175.897, 4173.333, 0, 0, []
1627645137.0237, 42, 1, 4197.496, 4397.526, 4166.938, 4176.199, 4173.243, 0, 0, []
1627645137.0316, 43, 1, 4199.095, 4396.591, 4167.21, 4176.501, 4173.152, 0, 0, []
1627645137.0394, 44, 1, 4200.694, 4395.656, 4167.481, 4176.802, 4173.062, 0, 0, []
1627645137.0473, 45, 1, 4202.293, 4394.721, 4167.753, 4177.104, 4172.971, 0, 0, []
1627645137.0552, 46, 1, 4203.891, 4393.786, 4168.024, 4177.406, 4172.881, 0, 0, []
1627645137.0631, 47, 1, 4205.49, 4392.851, 4168.296, 4177.707, 4172.79, 0, 0, []
1627645137.071, 48, 1, 4207.089, 4391.916, 4168.567, 4178.009, 4172.7, 0, 0, []
1627645137.0788, 49, 1, 4208.688, 4390.98, 4168.839, 4178.311, 4172.609, 0, 0, []
1627645137.0867, 50, 1, 4210.287, 4390.045, 4169.11, 4178.612, 4172.519, 0, 0, []
1627645137.0946, 51, 1, 4211.885, 4389.11, 4169.382, 4178.914, 4172.428, 0, 0, []
1627645137.1025, 52, 1, 4213.484, 4388.175, 4169.653, 4179.216, 4172.338, 0, 0, []
1627645137.1104, 53, 1, 4215.083, 4387.24, 4169.925, 4179.517, 4172.247, 0, 0, []
1627645137.1182, 54, 1, 4216.682, 4386.305, 4170.196, 4179.819, 4172.157, 0, 0, []
1627645137.1261, 55, 1, 4218.281, 4385.37, 4170.468, 4180.121, 4172.066, 0, 0, []
1627645137.134, 56, 1, 4219.879, 4384.434, 4170.739, 4180.422, 4171.976, 0, 0, []
1627645137.1419, 57, 1, 4221.478, 4383.499, 4171.011, 4180.724, 4171.885, 0, 0, []
1627645137.1498, 58, 0, 4223.077, 4382.564, 4171.282, 4181.026, 4171.795, 0, 0, []
1627645137.1577, 59, 0, 4217.436, 4390.769, 4179.487, 4187.692, 4174.872, 0, 0, []
1627645137.1657, 60, 0, 4218.462, 4394.359, 4187.692, 4192.308, 4186.667, 0, 0, []
1627645137.1736, 61, 0, 4215.385, 4376.41, 4176.41, 4189.231, 4185.128, 0, 0, []
1627645137.1815, 62, 0, 4206.154, 4356.923, 4166.667, 4179.487, 4170.769, 0, 0, []
1627645137.1895, 63, 0, 4202.564, 4372.308, 4175.385, 4170.256, 4169.231, 0, 0, []
1627645137.1974, 64, 1, 4200.684, 4373.276, 4175.043, 4168.661, 4167.464, 450, 0, []
1627645137.2053, 65, 1, 4198.803, 4374.245, 4174.701, 4167.066, 4165.698, 450, 0, []
1627645137.2132, 66, 1, 4196.923, 4375.214, 4174.359, 4165.47, 4163.932, 16161, 0, []
1627645137.2211, 67, 1, 4195.043, 4376.182, 4174.017, 4163.875, 4162.165, 450, 0, []
1627645137.229, 68, 1, 4193.162, 4377.151, 4173.675, 4162.279, 4160.399, 306, 0, []
1627645137.2368, 69, 1, 4191.282, 4378.12, 4173.333, 4160.684, 4158.632, 450, 0, []
1627645137.2447, 70, 1, 4189.402, 4379.088, 4172.991, 4159.088, 4156.866, 16074, 0, []
1627645137.2526, 71, 1, 4187.521, 4380.057, 4172.65, 4157.493, 4155.1, 450, 0, []
1627645137.2605, 72, 0, 4185.641, 4381.026, 4172.308, 4155.897, 4153.333, 450, 0, []
1627645137.2685, 73, 0, 4184.103, 4342.051, 4167.692, 4149.231, 4151.795, 16152, 0, []
1627645137.2764, 74, 1, 4186.838, 4346.838, 4168.718, 4153.048, 4154.644, 450, 0, []
1627645137.2843, 75, 1, 4189.573, 4351.624, 4169.744, 4156.866, 4157.493, 16202, 0, []
1627645137.2922, 76, 1, 4192.308, 4356.41, 4170.769, 4160.684, 4160.342, 450, 0, []
1627645137.3001, 77, 1, 4195.043, 4361.197, 4171.795, 4164.501, 4163.191, 450, 0, []
1627645137.308, 78, 1, 4197.778, 4365.983, 4172.821, 4168.319, 4166.04, 450, 0, []
1627645137.3158, 79, 1, 4200.513, 4370.769, 4173.846, 4172.137, 4168.889, 16202, 0, []
1627645137.3237, 80, 1, 4203.248, 4375.556, 4174.872, 4175.954, 4171.738, 3939.333, 0, []
1627645137.3316, 81, 1, 4205.983, 4380.342, 4175.897, 4179.772, 4174.587, 2194.667, 0, []
1627645137.3395, 82, 0, 4208.718, 4385.128, 4176.923, 4183.59, 4177.436, 450, 0, []
1627645137.3475, 83, 0, 4211.282, 4373.333, 4181.026, 4196.41, 4180, 16202, 0, []
1627645137.3553, 84, 0, 4203.077, 4361.538, 4163.077, 4184.615, 4170.769, 450, 0, []
1627645137.3632, 85, 0, 4202.051, 4346.667, 4151.795, 4165.128, 4160, 450, 0, []
1627645137.3712, 86, 1, 4203.077, 4349.858, 4153.447, 4165.47, 4159.943, 450, 0, []
1627645137.3791, 87, 1, 4204.103, 4353.048, 4155.1, 4165.812, 4159.886, 450, 0, []
1627645137.387, 88, 1, 4205.128, 4356.239, 4156.752, 4166.154, 4159.829, 450, 0, []
1627645137.3948, 89, 1, 4206.154, 4359.43, 4158.405, 4166.496, 4159.772, 450, 0, []
1627645137.4027, 90, 1, 4207.179, 4362.621, 4160.057, 4166.838, 4159.715, 450, 0, []
1627645137.4106, 91, 1, 4208.205, 4365.812, 4161.709, 4167.179, 4159.658, 450, 0, []
1627645137.4185, 92, 1, 4209.231, 4369.003, 4163.362, 4167.521, 4159.601, 450, 0, []
1627645137.4264, 93, 1, 4210.256, 4372.194, 4165.014, 4167.863, 4159.544, 450, 0, []
1627645137.4343, 94, 0, 4211.282, 4375.385, 4166.667, 4168.205, 4159.487, 450, 0, []
1627645137.4422, 95, 0, 4202.564, 4411.795, 4165.641, 4167.692, 4152.308, 16202, 0, []
1627645137.4502, 96, 1, 4202.383, 4410.95, 4165.279, 4167.813, 4153.454, 15275.412, 0, []
1627645137.4581, 97, 1, 4202.202, 4410.106, 4164.917, 4167.934, 4154.6, 14348.824, 0, []
1627645137.466, 98, 1, 4202.021, 4409.261, 4164.555, 4168.054, 4155.747, 13422.235, 0, []
1627645137.4739, 99, 1, 4201.84, 4408.416, 4164.193, 4168.175, 4156.893, 12495.647, 0, []
1627645137.4817, 100, 1, 4201.659, 4407.572, 4163.831, 4168.296, 4158.039, 11569.059, 0, []
1627645137.4896, 101, 1, 4201.478, 4406.727, 4163.469, 4168.416, 4159.186, 10642.471, 0, []
1627645137.4975, 102, 1, 4201.297, 4405.882, 4163.107, 4168.537, 4160.332, 9715.882, 0, []
1627645137.5054, 103, 1, 4201.116, 4405.038, 4162.745, 4168.658, 4161.478, 8789.294, 0, []
1627645137.5133, 104, 1, 4200.935, 4404.193, 4162.383, 4168.778, 4162.624, 7862.706, 0, []
1627645137.5211, 105, 1, 4200.754, 4403.348, 4162.021, 4168.899, 4163.771, 6936.118, 0, []
1627645137.529, 106, 1, 4200.573, 4402.504, 4161.659, 4169.02, 4164.917, 6009.529, 0, []
1627645137.5369, 107, 1, 4200.392, 4401.659, 4161.297, 4169.14, 4166.063, 5082.941, 0, []
1627645137.5448, 108, 1, 4200.211, 4400.814, 4160.935, 4169.261, 4167.21, 4156.353, 0, []
1627645137.5527, 109, 1, 4200.03, 4399.97, 4160.573, 4169.382, 4168.356, 3229.765, 0, []
1627645137.5605, 110, 1, 4199.849, 4399.125, 4160.211, 4169.502, 4169.502, 2303.176, 0, []
1627645137.5684, 111, 1, 4199.668, 4398.281, 4159.849, 4169.623, 4170.649, 1376.588, 0, []
1627645137.5763, 112, 0, 4199.487, 4397.436, 4159.487, 4169.744, 4171.795, 450, 0, []
1627645137.5843, 113, 0, 4204.103, 4361.538, 4160, 4167.692, 4166.667, 450, 0, []
1627645137.5923, 114, 0, 4226.667, 4355.897, 4165.128, 4176.41, 4182.051, 450, 0, []
1627645137.6002, 115, 0, 4225.641, 4375.385, 4159.487, 4188.718, 4187.179, 16202, 0, []
1627645137.6081, 116, 0, 4222.564, 4380, 4165.128, 4193.333, 4182.051, 450, 0, []
1627645137.6161, 117, 1, 4225.983, 4383.476, 4165.698, 4193.048, 4186.325, 450, 0, []
1627645137.624, 118, 1, 4229.402, 4386.952, 4166.268, 4192.764, 4190.598, 450, 0, []
1627645137.6319, 119, 1, 4232.821, 4390.427, 4166.838, 4192.479, 4194.872, 450, 0, []
1627645137.6397, 120, 1, 4236.239, 4393.903, 4167.407, 4192.194, 4199.145, 450, 0, []
1627645137.6476, 121, 1, 4239.658, 4397.379, 4167.977, 4191.909, 4203.419, 450, 0, []
1627645137.6555, 122, 1, 4243.077, 4400.855, 4168.547, 4191.624, 4207.692, 450, 0, []
1627645137.6634, 123, 1, 4246.496, 4404.33, 4169.117, 4191.339, 4211.966, 450, 0, []
1627645137.6713, 124, 1, 4249.915, 4407.806, 4169.687, 4191.054, 4216.239, 450, 0, []
1627645137.6791, 125, 0, 4253.333, 4411.282, 4170.256, 4190.769, 4220.513, 450, 0, []
1627645137.6871, 126, 0, 4291.795, 4401.538, 4184.615, 4200, 4256.923, 450, 0, []
1627645137.6951, 127, 0, 4333.333, 4361.026, 4192.308, 4205.641, 4306.154, 16202, 0, []
1627645147.3244, 44, 0, 4160, 4288.718, 4141.538, 4140.513, 4086.667, 0, 0, []
1627645147.3323, 45, 0, 4161.538, 4325.641, 4134.359, 4132.308, 4084.103, 0, 0, []
1627645147.3401, 46, 0, 4183.077, 4351.282, 4151.282, 4153.333, 4109.744, 0, 0, []
1627645147.3479, 47, 0, 4202.051, 4365.641, 4177.436, 4186.154, 4138.974, 0, 0, []
1627645147.3558, 48, 0, 4176.923, 4330.256, 4153.333, 4173.333, 4119.487, 0, 0, []
1627645147.3636, 49, 0, 4162.564, 4306.667, 4125.128, 4152.821, 4102.564, 0, 0, []
1627645147.3715, 50, 0, 4186.667, 4340, 4149.231, 4165.641, 4123.077, 0, 0, []
1627645147.3792, 51, 0, 4165.641, 4354.872, 4149.231, 4149.744, 4106.667, 0, 0, []
1627645147.3871, 52, 0, 4125.641, 4310.769, 4120.513, 4109.231, 4069.231, 0, 0, []
1627645147.3949, 53, 0, 4158.462, 4289.744, 4133.846, 4120, 4097.949, 0, 0, []
1627645147.4028, 54, 0, 4201.026, 4333.333, 4165.128, 4155.385, 4140.513, 0, 0, []
1627645147.4106, 55, 0, 4182.564, 4341.538, 4156.923, 4157.436, 4128.205, 0, 0, []
1627645147.4184, 56, 0, 4164.103, 4305.128, 4143.59, 4151.282, 4113.846, 0, 0, []
1627645147.4262, 57, 0, 4176.923, 4303.077, 4146.667, 4155.385, 4122.051, 0, 0, []
1627645147.4342, 58, 0, 4188.718, 4353.333, 4137.949, 4152.308, 4122.051, 0, 0, []
1627645147.4421, 59, 0, 4186.667, 4370.769, 4137.436, 4134.872, 4110.769, 0, 0, []
1627645147.4501, 60, 0, 4184.615, 4322.051, 4146.154, 4121.026, 4108.205, 0, 0, []
1627645147.4579, 61, 0, 4185.641, 4305.128, 4132.821, 4120.513, 4109.744, 0, 0, []
1627645147.4659, 62, 0, 4183.59, 4337.436, 4118.462, 4118.974, 4107.692, 0, 0, []
1627645147.4738, 63, 0, 4177.436, 4339.487, 4127.692, 4128.718, 4110.769, 0, 0, []
1627645147.4818, 64, 0, 4172.821, 4306.667, 4132.821, 4144.615, 4113.333, 450, 0, []
1627645147.4897, 65, 0, 4181.026, 4297.949, 4116.41, 4145.128, 4118.462, 450, 0, []
1627645147.4975, 66, 0, 4204.103, 4324.103, 4118.462, 4142.051, 4141.538, 16162, 0, []
1627645147.5054, 67, 0, 4216.923, 4354.872, 4131.795, 4135.385, 4160, 450, 0, []
1627645147.5132, 68, 0, 4230.769, 4337.949, 4121.538, 4125.128, 4175.385, 300, 0, []
1627645147.5211, 69, 0, 4284.615, 4304.615, 4126.667, 4140.513, 4224.615, 450, 0, []
1627645147.5289, 70, 0, 4331.795, 4346.154, 4148.205, 4166.667, 4276.923, 16077, 0, []
1627645147.5368, 71, 0, 4325.128, 4370.769, 4139.487, 4156.923, 4283.59, 450, 0, []
1627645147.5445, 72, 0, 4314.872, 4310.769, 4129.231, 4134.359, 4275.385, 450, 0, []
1627645147.5524, 73, 0, 4324.103, 4302.051, 4134.359, 4139.487, 4272.308, 16152, 0, []
1627645147.5602, 74, 0, 4320, 4352.821, 4131.795, 4151.282, 4255.385, 450, 0, []
1627645147.5681, 75, 0, 4308.205, 4328.205, 4126.154, 4149.744, 4236.41, 16195, 0, []
1627645147.5759, 76, 0, 4311.795, 4296.923, 4133.333, 4150.256, 4234.872, 450, 0, []
1627645147.5838, 77, 0, 4301.538, 4332.821, 4139.487, 4155.897, 4222.564, 450, 0, []
1627645147.5917, 78, 0, 4267.692, 4351.282, 4126.667, 4154.359, 4191.795, 450, 0, []
1627645147.5996, 79, 0, 4244.615, 4344.103, 4125.128, 4155.385, 4175.897, 16195, 0, []
1627645147.6074, 80, 0, 4244.615, 4344.615, 4143.077, 4159.487, 4182.564, 450, 0, []
1627645147.6154, 81, 0, 4250.769, 4332.308, 4153.846, 4165.641, 4186.667, 450, 0, []
1627645147.6232, 82, 0, 4242.564, 4341.026, 4158.462, 4169.744, 4179.487, 450, 0, []
1627645147.6312, 83, 0, 4227.692, 4373.333, 4166.667, 4170.769, 4175.385, 16195, 0, []
1627645147.6391, 84, 0, 4222.051, 4368.718, 4170.769, 4175.385, 4173.846, 450, 0, []
1627645147.6471, 85, 0, 4214.872, 4345.128, 4166.667, 4177.949, 4164.103, 450, 0, []
1627645147.655, 86, 0, 4205.128, 4342.051, 4164.103, 4174.872, 4153.333, 450, 0, []
1627645147.6627, 87, 0, 4212.308, 4353.846, 4168.205, 4174.872, 4151.795, 16195, 0, []
1627645147.6706, 88, 0, 4217.949, 4366.667, 4168.718, 4176.41, 4153.846, 450, 0, []
1627645147.6784, 89, 0, 4209.231, 4363.59, 4171.282, 4175.385, 4156.923, 450, 0, []
1627645147.6863, 90, 0, 4201.538, 4343.077, 4174.872, 4172.308, 4151.795, 450, 0, []
1627645147.6941, 91, 0, 4189.744, 4335.897, 4159.487, 4170.769, 4127.692, 16195, 0, []
1627645147.7019, 92, 0, 4171.795, 4338.974, 4154.359, 4169.744, 4107.179, 450, 0, []
1627645147.7097, 93, 0, 4157.949, 4302.564, 4159.487, 4164.615, 4106.154, 450, 0, []
1627645147.7176, 94, 0, 4157.436, 4283.59, 4142.564, 4149.744, 4107.179, 450, 0, []
1627645147.7254, 95, 0, 4167.179, 4328.718, 4131.282, 4142.564, 4109.231, 16195, 0, []
1627645147.7333, 96, 0, 4189.744, 4348.718, 4152.308, 4166.154, 4130.769, 450, 0, []
1627645147.741, 97, 0, 4195.897, 4322.051, 4165.641, 4182.051, 4142.564, 450, 0, []
1627645147.7489, 98, 0, 4185.641, 4322.564, 4156.41, 4172.821, 4130.256, 450, 0, []
1627645147.7567, 99, 0, 4189.744, 4338.974, 4153.333, 4170.256, 4123.077, 16195, 0, []
1627645147.7647, 100, 0, 4188.718, 4324.103, 4158.462, 4166.667, 4117.949, 450, 0, []
1627645147.7726, 101, 0, 4184.103, 4312.821, 4154.872, 4158.974, 4121.538, 450, 0, []
1627645147.7805, 102, 0, 4201.538, 4340.513, 4155.385, 4167.179, 4147.692, 450, 0, []
1627645147.7884, 103, 0, 4204.103, 4352.821, 4166.154, 4170.769, 4152.821, 16195, 0, []
1627645147.7964, 104, 0, 4176.41, 4315.385, 4158.462, 4147.692, 4120.513, 450, 0, []
1627645147.8043, 105, 0, 4177.436, 4299.487, 4142.564, 4140, 4117.949, 450, 0, []
1627645147.8123, 106, 0, 4203.59, 4336.923, 4142.564, 4149.744, 4147.692, 450, 0, []
1627645147.8201, 107, 0, 4211.282, 4350.256, 4158.974, 4149.744, 4158.974, 16195, 0, []
1627645147.8279, 108, 0, 4222.051, 4327.179, 4170.256, 4160, 4167.692, 450, 0, []
1627645147.8358, 109, 0, 4229.231, 4324.615, 4161.538, 4171.795, 4180, 450, 0, []
1627645147.8436, 110, 0, 4211.282, 4303.59, 4157.949, 4164.103, 4173.846, 450, 0, []
1627645147.8515, 111, 0, 4192.308, 4289.744, 4151.795, 4148.205, 4153.333, 16195, 0, []
1627645147.8592, 112, 0, 4200, 4318.462, 4148.718, 4149.231, 4145.128, 450, 0, []
1627645147.8671, 113, 0, 4203.59, 4320, 4153.846, 4152.308, 4143.59, 450, 0, []
1627645147.8749, 114, 0, 4185.641, 4303.077, 4138.462, 4138.462, 4130.769, 450, 0, []
1627645147.8828, 115, 0, 4191.282, 4302.051, 4137.949, 4138.462, 4132.308, 16195, 0, []
1627645147.8906, 116, 0, 4214.872, 4303.59, 4163.59, 4157.949, 4157.436, 450, 0, []
1627645147.8984, 117, 0, 4212.308, 4302.051, 4175.897, 4162.564, 4169.744, 450, 0, []
1627645147.9062, 118, 0, 4202.564, 4321.538, 4172.308, 4157.436, 4165.128, 450, 0, []
1627645147.9142, 119, 0, 4214.872, 4347.179, 4170.769, 4169.231, 4177.436, 16195, 0, []
1627645147.9221, 120, 0, 4229.231, 4351.282, 4175.385, 4177.436, 4195.385, 450, 0, []
1627645147.9301, 121, 0, 4228.718, 4336.923, 4168.718, 4168.718, 4194.359, 450, 0, []
1627645147.9379, 122, 0, 4219.487, 4305.128, 4153.846, 4161.026, 4181.538, 450, 0, []
1627645147.9459, 123, 0, 4207.692, 4281.026, 4146.154, 4151.282, 4169.231, 16195, 0, []
1627645147.9538, 124, 0, 4210.256, 4288.718, 4150.769, 4148.718, 4173.846, 450, 0, []
1627645147.9618, 125, 0, 4224.615, 4342.051, 4162.564, 4162.564, 4190.256, 450, 0, []
1627645147.9697, 126, 0, 4227.179, 4362.051, 4164.615, 4173.846, 4200, 450, 0, []
1627645147.9776, 127, 0, 4215.385, 4304.103, 4154.359, 4169.744, 4202.564, 16195, 0, []
1627645147.9855, 128, 0, 4203.077, 4291.282, 4150.769, 4156.41, 4202.051, 450, 0, []
1627645147.9933, 0, 0, 4195.385, 4335.897, 4146.667, 4149.231, 4198.462, 450, 0, []
1627645148.0012, 1, 0, 4200.513, 4346.154, 4151.282, 4161.538, 4207.692, 450, 0, []
1627645148.009, 2, 0, 4221.538, 4323.59, 4174.359, 4188.718, 4234.872, 16162, 0, []
1627645148.0168, 3, 0, 4228.718, 4317.949, 4180, 4190.256, 4235.385, 450, 0, []
1627645148.0246, 4, 0, 4202.564, 4315.897, 4160, 4157.949, 4202.051, 304, 0, []
1627645148.0325, 5, 0, 4185.128, 4311.795, 4153.333, 4150.256, 4194.359, 450, 0, []
1627645148.0403, 6, 0, 4191.795, 4322.051, 4162.051, 4163.077, 4208.205, 16075, 0, []
1627645148.0482, 7, 0, 4187.179, 4317.436, 4153.333, 4150.256, 4196.923, 450, 0, []
1627645148.0559, 8, 0, 4194.359, 4305.641, 4148.718, 4154.872, 4208.205, 450, 0, []
1627645148.0638, 9, 0, 4218.974, 4324.615, 4166.154, 4180.513, 4246.154, 16152, 0, []
1627645148.0716, 10, 0, 4209.231, 4352.308, 4165.128, 4169.744, 4237.436, 450, 0, []
1627645148.0796, 11, 0, 4192.308, 4338.974, 4167.179, 4160.513, 4221.538, 16196, 0, []
1627645148.0875, 12, 0, 4201.026, 4327.179, 4173.846, 4188.205, 4251.282, 450, 0, []
1627645148.0954, 13, 0, 4199.487, 4341.026, 4152.821, 4193.333, 4270.769, 450, 0, []
1627645148.1033, 14, 0, 4182.051, 4314.359, 4142.564, 4167.179, 4256.41, 450, 0, []
1627645148.1113, 15, 0, 4183.59, 4280, 4156.41, 4165.641, 4251.282, 16196, 0, []
1627645148.1192, 16, 0, 4188.205, 4308.718, 4155.897, 4180.513, 4252.308, 0, 0, []
1627645148.1272, 17, 0, 4182.564, 4352.821, 4156.923, 4183.077, 4247.179, 0, 0, []
1627645148.135, 18, 0, 4186.154, 4337.436, 4167.179, 4184.103, 4250.769, 0, 0, []
1627645148.1429, 19, 0, 4192.308, 4308.205, 4166.667, 4186.154, 4252.308, 0, 0, []
1627645148.1508, 20, 0, 4193.846, 4315.385, 4164.103, 4181.538, 4244.615, 0, 0, []
1627645148.1586, 21, 0, 4187.179, 4327.179, 4164.103, 4168.205, 4231.795, 0, 0, []
1627645148.1665, 22, 0, 4182.564, 4334.872, 4159.487, 4164.103, 4224.615, 0, 0, []
1627645148.1742, 23, 0, 4184.615, 4342.564, 4153.846, 4169.231, 4227.179, 0, 0, []
1627645148.1821, 24, 0, 4175.385, 4316.923, 4155.897, 4161.538, 4222.564, 0, 0, []
1627645148.1899, 25, 0, 4163.59, 4278.462, 4154.872, 4149.744, 4213.846, 0, 0, []
1627645148.1978, 26, 0, 4176.923, 4307.692, 4154.872, 4156.923, 4220, 0, 0, []
1627645148.2056, 27, 0, 4186.667, 4338.974, 4158.462, 4158.462, 4220, 0, 0, []
1627645148.2135, 28, 0, 4172.308, 4319.487, 4152.308, 4141.538, 4205.641, 0, 0, []
1627645148.2212, 29, 0, 4175.385, 4316.923, 4157.949, 4142.564, 4207.692, 0, 0, []
1627645148.2292, 30, 0, 4194.872, 4327.692, 4170.256, 4161.026, 4229.231, 0, 0, []
1627645148.2371, 31, 0, 4196.923, 4327.179, 4164.615, 4163.59, 4237.436, 0, 0, []
1627645148.2451, 32, 0, 4190.769, 4332.308, 4156.41, 4156.41, 4231.282, 0, 0, []
1627645148.253, 33, 0, 4198.974, 4338.462, 4155.385, 4163.59, 4233.333, 0, 0, []
1627645148.2609, 34, 0, 4207.692, 4324.615, 4156.41, 4176.923, 4236.923, 0, 0, []
1627645148.2688, 35, 0, 4195.385, 4316.923, 4144.615, 4169.231, 4227.692, 0, 0, []
1627645148.2768, 36, 0, 4182.051, 4327.179, 4128.718, 4151.282, 4210.769, 0, 0, []
1627645148.2847, 37, 0, 4188.718, 4304.103, 4135.897, 4154.359, 4214.359, 0, 0, []
1627645148.2927, 38, 0, 4197.949, 4289.231, 4143.59, 4173.333, 4235.897, 0, 0, []
1627645148.3005, 39, 0, 4194.872, 4324.615, 4134.872, 4173.846, 4237.949, 0, 0, []
1627645148.3083, 40, 0, 4196.41, 4330.769, 4137.949, 4166.667, 4229.231, 0, 0, []
1627645148.3162, 41, 0, 4207.179, 4308.205, 4157.436, 4178.462, 4237.436, 0, 0, []
1627645148.324, 42, 0, 4206.154, 4330.769, 4168.718, 4182.051, 4240, 0, 0, []
1627645148.3319, 43, 0, 4180.513, 4341.026, 4148.205, 4156.923, 4213.333, 0, 0, []
1627645148.3396, 44, 0, 4162.564, 4320.513, 4138.974, 4142.051, 4196.41, 0, 0, []
1627645148.3475, 45, 0, 4184.103, 4340, 4168.205, 4169.744, 4219.487, 0, 0, []
1627645148.3553, 46, 0, 4203.59, 4341.538, 4177.436, 4191.795, 4233.846, 0, 0, []
1627645148.3632, 47, 0, 4191.795, 4307.692, 4155.897, 4173.846, 4215.897, 0, 0, []
1627645148.371, 48, 0, 4186.667, 4327.179, 4150.769, 4163.077, 4210.256, 0, 0, []
1627645148.3788, 49, 0, 4193.333, 4353.846, 4164.615, 4175.385, 4223.077, 0, 0, []
1627645148.3866, 50, 0, 4184.103, 4334.872, 4155.897, 4170.769, 4214.359, 0, 0, []
1627645148.3946, 51, 0, 4178.462, 4327.692, 4133.333, 4160.513, 4202.051, 0, 0, []
1627645148.4025, 52, 0, 4183.59, 4338.462, 4136.923, 4166.154, 4209.231, 0, 0, []
1627645148.4105, 53, 0, 4182.564, 4343.59, 4148.205, 4171.282, 4213.333, 0, 0, []
1627645148.4183, 54, 0, 4191.795, 4341.026, 4149.744, 4176.41, 4215.385, 0, 0, []
1627645148.4263, 55, 0, 4197.949, 4342.051, 4150.769, 4185.128, 4220.513, 0, 0, []
1627645148.4342, 56, 0, 4189.231, 4366.154, 4160.513, 4188.205, 4222.564, 0, 0, []
1627645148.4422, 57, 0, 4187.179, 4373.846, 4171.795, 4186.154, 4218.974, 0, 0, []
1627645148.4501, 58, 0, 4197.436, 4351.282, 4172.308, 4187.692, 4224.615, 0, 0, []
1627645148.4578, 59, 0, 4208.205, 4345.128, 4169.744, 4198.462, 4234.872, 0, 0, []
1627645148.4657, 60, 0, 4197.949, 4351.282, 4161.026, 4193.846, 4221.026, 0, 0, []
1627645148.4735, 61, 0, 4179.487, 4343.077, 4148.205, 4181.026, 4204.615, 0, 0, []
1627645148.4814, 62, 0, 4189.231, 4344.615, 4164.615, 4193.846, 4220.513, 0, 0, []
1627645148.4892, 63, 0, 4206.154, 4351.795, 4177.949, 4206.667, 4236.41, 0, 0, []
1627645148.497, 64, 0, 4193.846, 4349.744, 4157.949, 4190.256, 4222.051, 450, 0, []
1627645148.5048, 65, 0, 4170.769, 4332.821, 4144.103, 4176.41, 4198.974, 450, 0, []
1627645148.5127, 66, 0, 4164.615, 4313.846, 4141.538, 4181.026, 4187.692, 16162, 0, []
1627645148.5205, 67, 0, 4173.846, 4319.487, 4148.718, 4181.026, 4189.744, 450, 0, []
1627645148.5284, 68, 0, 4188.205, 4333.333, 4162.564, 4180.513, 4199.487, 304, 0, []
1627645148.5361, 69, 0, 4194.359, 4342.564, 4168.205, 4188.718, 4206.667, 450, 0, []
1627645148.5441, 70, 0, 4184.615, 4356.923, 4157.436, 4184.103, 4202.051, 16075, 0, []
1627645148.552, 71, 0, 4180, 4357.949, 4145.641, 4176.923, 4196.923, 450, 0, []
1627645148.56, 72, 0, 4191.795, 4321.538, 4160.513, 4190.256, 4210.769, 450, 0, []
1627645148.5679, 73, 0, 4206.154, 4312.821, 4176.923, 4207.692, 4232.308, 16152, 0, []
1627645148.5758, 74, 0, 4203.077, 4372.821, 4170.769, 4206.667, 4228.718, 450, 0, []
1627645148.5837, 75, 0, 4187.692, 4390.256, 4166.154, 4195.385, 4209.744, 16196, 0, []
1627645148.5917, 76, 0, 4191.282, 4343.077, 4169.744, 4196.41, 4212.821, 450, 0, []
1627645148.5996, 77, 0, 4206.667, 4336.41, 4176.923, 4206.667, 4224.615, 450, 0, []
1627645148.6076, 78, 0, 4198.462, 4375.385, 4176.41, 4197.436, 4218.974, 450, 0, []
1627645148.6154, 79, 0, 4179.487, 4374.359, 4159.487, 4169.231, 4200, 16196, 0, []
1627645148.6233, 80, 0, 4179.487, 4342.564, 4159.487, 4169.744, 4192.821, 450, 0, []
1627645148.6311, 81, 0, 4187.692, 4343.59, 4172.821, 4195.385, 4206.154, 450, 0, []
1627645148.6389, 82, 0, 4183.59, 4352.821, 4172.308, 4192.308, 4203.59, 450, 0, []
1627645148.6468, 83, 0, 4183.59, 4346.154, 4170.769, 4172.821, 4176.41, 16196, 0, []
1627645148.6545, 84, 0, 4195.385, 4350.256, 4180.513, 4189.231, 4161.026, 450, 0, []
1627645148.6624, 85, 0, 4209.231, 4367.179, 4201.538, 4225.128, 4173.846, 450, 0, []
1627645148.6702, 86, 0, 4197.436, 4356.923, 4193.333, 4216.41, 4167.179, 450, 0, []
1627645148.6782, 87, 0, 4178.462, 4343.077, 4171.282, 4181.538, 4142.051, 16196, 0, []
1627645148.6861, 88, 0, 4188.718, 4384.615, 4189.744, 4192.308, 4153.333, 450, 0, []
1627645148.694, 89, 0, 4202.051, 4411.282, 4210.769, 4223.59, 4175.897, 450, 0, []
1627645148.7019, 90, 0, 4194.872, 4377.436, 4195.897, 4209.744, 4160, 450, 0, []
1627645148.7099, 91, 0, 4192.821, 4353.333, 4178.462, 4189.744, 4140.513, 16196, 0, []
1627645148.7178, 92, 0, 4204.615, 4332.821, 4188.205, 4204.615, 4147.179, 450, 0, []
1627645148.7258, 93, 0, 4201.538, 4326.667, 4192.821, 4204.103, 4140.513, 450, 0, []
1627645148.7336, 94, 0, 4191.795, 4361.538, 4185.128, 4183.077, 4127.692, 450, 0, []
1627645148.7416, 95, 0, 4200, 4383.59, 4192.821, 4193.333, 4137.949, 16196, 0, []
1627645148.7495, 96, 0, 4213.846, 4380, 4201.538, 4222.564, 4156.41, 450, 0, []
1627645148.7575, 97, 0, 4212.821, 4372.821, 4193.846, 4226.154, 4157.949, 450, 0, []
1627645148.7654, 98, 0, 4183.59, 4352.308, 4170.769, 4195.897, 4132.821, 450, 0, []
1627645148.7731, 99, 0, 4174.872, 4372.308, 4158.974, 4176.41, 4122.051, 16196, 0, []
1627645148.781, 100, 0, 4208.718, 4421.538, 4178.462, 4190.769, 4144.615, 450, 0, []
1627645148.7888, 101, 0, 4226.154, 4374.872, 4189.231, 4206.667, 4160.513, 450, 0, []
1627645148.7967, 102, 0, 4215.385, 4327.179, 4177.949, 4202.564, 4152.308, 450, 0, []
1627645148.8045, 103, 0, 4216.923, 4393.846, 4178.974, 4193.846, 4145.128, 16196, 0, []
1627645148.8123, 104, 0, 4228.205, 4411.282, 4183.077, 4195.385, 4144.615, 450, 0, []
1627645148.8201, 105, 0, 4242.564, 4365.128, 4185.641, 4209.231, 4154.359, 450, 0, []
1627645148.8281, 106, 0, 4258.462, 4396.41, 4191.282, 4219.487, 4176.41, 450, 0, []
1627645148.836, 107, 0, 4256.41, 4426.154, 4181.026, 4203.59, 4179.487, 16196, 0, []
1627645148.844, 108, 0, 4262.564, 4396.41, 4175.385, 4194.359, 4185.128, 450, 0, []
1627645148.8518, 109, 0, 4300.513, 4395.897, 4185.641, 4217.436, 4232.308, 450, 0, []
1627645148.8598, 110, 0, 4327.179, 4386.667, 4190.256, 4224.615, 4273.333, 450, 0, []
1627645148.8677, 111, 0, 4331.795, 4353.846, 4184.615, 4203.077, 4281.026, 16196, 0, []
1627645148.8757, 112, 0, 4346.154, 4390.256, 4184.615, 4192.821, 4290.769, 450, 0, []
1627645148.8836, 113, 0, 4362.564, 4428.205, 4188.205, 4192.308, 4311.282, 450, 0, []
1627645148.8915, 114, 0, 4366.667, 4393.846, 4187.179, 4194.872, 4321.026, 450, 0, []
1627645148.8994, 115, 0, 4365.641, 4381.538, 4187.179, 4205.128, 4320.513, 16196, 0, []
1627645148.9074, 116, 0, 4347.692, 4398.462, 4176.923, 4205.641, 4304.615, 450, 0, []
1627645148.9153, 117, 0, 4310.769, 4368.718, 4155.385, 4187.179, 4271.282, 450, 0, []
1627645148.9231, 118, 0, 4294.872, 4341.538, 4158.974, 4183.59, 4253.846, 450, 0, []
1627645148.9309, 119, 0, 4315.897, 4368.205, 4184.103, 4206.667, 4271.282, 16196, 0, []
1627645148.9387, 120, 0, 4326.154, 4411.795, 4198.974, 4219.487, 4280.513, 450, 0, []
1627645148.9466, 121, 0, 4295.897, 4415.385, 4194.872, 4202.564, 4253.333, 450, 0, []
1627645148.9544, 122, 0, 4262.051, 4369.231, 4182.051, 4189.744, 4222.051, 450, 0, []
1627645148.9623, 123, 0, 4254.359, 4334.872, 4181.026, 4195.897, 4213.333, 16196, 0, []
1627645148.9701, 124, 0, 4260.513, 4355.385, 4189.744, 4204.103, 4214.872, 450, 0, []
1627645148.9779, 125, 0, 4250.769, 4393.333, 4189.744, 4195.385, 4203.077, 450, 0, []
1627645148.9857, 126, 0, 4227.179, 4394.872, 4178.974, 4171.795, 4178.462, 450, 0, []
1627645148.9936, 127, 0, 4227.179, 4362.564, 4184.615, 4174.872, 4174.359, 16196, 0, []
1627645149.0014, 128, 0, 4229.231, 4346.154, 4199.487, 4193.846, 4178.462, 450, 0, []
1627645149.0094, 0, 0, 4201.026, 4372.308, 4179.487, 4176.41, 4158.974, 450, 0, []
1627645149.0172, 1, 0, 4197.949, 4404.615, 4173.846, 4170.769, 4153.846, 450, 0, []
1627645149.0252, 2, 0, 4229.744, 4406.154, 4211.282, 4209.231, 4184.615, 16162, 0, []
1627645149.0331, 3, 0, 4232.308, 4394.872, 4217.949, 4220, 4195.385, 450, 0, []
1627645149.0411, 4, 0, 4203.077, 4387.692, 4186.667, 4182.051, 4166.154, 304, 0, []
1627645149.049, 5, 0, 4188.718, 4372.308, 4175.385, 4161.026, 4143.077, 450, 0, []
1627645149.0569, 6, 0, 4204.615, 4361.026, 4193.333, 4181.538, 4159.487, 16075, 0, []
1627645149.0648, 7, 0, 4223.077, 4382.051, 4207.179, 4202.564, 4179.487, 450, 0, []
1627645149.0726, 8, 0, 4212.308, 4402.051, 4185.641, 4193.846, 4164.615, 450, 0, []
1627645149.0805, 9, 0, 4194.359, 4388.205, 4164.615, 4169.744, 4141.538, 16152, 0, []
1627645149.0883, 10, 0, 4202.051, 4371.795, 4174.359, 4167.692, 4148.205, 450, 0, []
1627645149.0961, 11, 0, 4212.308, 4374.872, 4181.026, 4181.538, 4162.051, 16197, 0, []
1627645149.1039, 12, 0, 4198.974, 4381.026, 4179.487, 4178.974, 4154.872, 450, 0, []
1627645149.1118, 13, 0, 4174.872, 4365.641, 4166.667, 4154.359, 4133.846, 450, 0, []
1627645149.1196, 14, 0, 4174.872, 4345.128, 4157.949, 4149.231, 4136.923, 450, 0, []
1627645149.1275, 15, 0, 4201.026, 4363.077, 4180.513, 4183.59, 4169.744, 16197, 0, []
1627645149.1352, 16, 0, 4207.179, 4408.718, 4198.974, 4206.154, 4184.615, 0, 0, []
1627645149.1431, 17, 0, 4184.615, 4404.615, 4185.128, 4191.282, 4166.154, 0, 0, []
1627645149.1509, 18, 0, 4166.154, 4347.692, 4170.769, 4174.872, 4149.744, 0, 0, []
1627645149.1589, 19, 0, 4149.231, 4330.769, 4159.487, 4162.564, 4129.231, 0, 0, []
1627645149.1668, 20, 0, 4142.564, 4360, 4146.154, 4155.897, 4117.949, 0, 0, []
1627645149.1747, 21, 0, 4171.282, 4381.538, 4168.718, 4180, 4148.718, 0, 0, []
1627645149.1826, 22, 0, 4193.333, 4382.564, 4194.359, 4200, 4171.795, 0, 0, []
1627645149.1906, 23, 0, 4177.436, 4370.769, 4175.897, 4188.205, 4156.923, 0, 0, []
1627645149.1985, 24, 0, 4168.718, 4375.897, 4170.256, 4182.051, 4149.231, 0, 0, []
1627645149.2065, 25, 0, 4180.513, 4391.282, 4182.051, 4187.179, 4149.744, 0, 0, []
1627645149.2143, 26, 0, 4187.179, 4386.154, 4175.897, 4190.256, 4153.333, 0, 0, []
1627645149.2222, 27, 0, 4185.641, 4374.872, 4181.026, 4198.974, 4170.256, 0, 0, []
1627645149.2301, 28, 0, 4188.205, 4379.487, 4193.846, 4204.103, 4188.205, 0, 0, []
1627645149.2379, 29, 0, 4188.205, 4365.641, 4188.205, 4200.513, 4196.41, 0, 0, []
1627645149.2458, 30, 0, 4181.538, 4332.308, 4181.026, 4194.359, 4202.051, 0, 0, []
1627645149.2535, 31, 0, 4180.513, 4353.333, 4176.923, 4189.744, 4205.128, 0, 0, []
1627645149.2614, 32, 0, 4187.179, 4400, 4178.462, 4190.256, 4209.231, 0, 0, []
1627645149.2692, 33, 0, 4185.128, 4405.641, 4182.051, 4196.41, 4208.718, 0, 0, []
1627645149.2771, 34, 0, 4177.436, 4380, 4176.923, 4200, 4196.923, 0, 0, []
1627645149.2849, 35, 0, 4169.231, 4350.256, 4168.205, 4196.41, 4180.513, 0, 0, []
1627645149.2927, 36, 0, 4164.615, 4337.949, 4165.128, 4195.385, 4172.821, 0, 0, []
1627645149.3005, 37, 0, 4181.026, 4374.872, 4180, 4205.641, 4183.077, 0, 0, []
1627645149.3084, 38, 0, 4202.564, 4412.821, 4192.308, 4218.462, 4201.538, 0, 0, []
1627645149.3162, 39, 0, 4199.487, 4390.769, 4186.154, 4223.59, 4212.308, 0, 0, []
1627645149.3242, 40, 0, 4173.333, 4366.154, 4174.359, 4213.333, 4193.846, 0, 0, []
1627645149.332, 41, 0, 4138.974, 4359.487, 4142.564, 4183.59, 4137.436, 0, 0, []
1627645149.34, 42, 0, 4133.333, 4349.231, 4124.103, 4166.667, 4103.077, 0, 0, []
1627645149.3479, 43, 0, 4164.615, 4374.872, 4161.538, 4189.744, 4129.744, 0, 0, []
1627645149.3559, 44, 0, 4178.462, 4395.897, 4194.872, 4211.282, 4152.308, 0, 0, []
1627645149.3639, 45, 0, 4156.923, 4371.282, 4178.462, 4199.487, 4127.179, 0, 0, []
1627645149.3717, 46, 0, 4147.179, 4360, 4158.462, 4191.795, 4103.59, 0, 0, []
1627645149.3796, 47, 0, 4157.949, 4388.718, 4169.744, 4211.282, 4109.231, 0, 0, []
1627645149.3875, 48, 0, 4154.872, 4400.513, 4168.205, 4214.872, 4106.154, 0, 0, []
1627645149.3954, 49, 0, 4145.641, 4384.615, 4156.923, 4191.795, 4085.128, 0, 0, []
1627645149.4032, 50, 0, 4153.333, 4363.077, 4173.333, 4190.256, 4081.026, 0, 0, []
1627645149.411, 51, 0, 4166.667, 4374.872, 4180, 4201.538, 4094.359, 0, 0, []
1627645149.4188, 52, 0, 4174.359, 4413.846, 4168.205, 4195.897, 4098.462, 0, 0, []
1627645149.4267, 53, 0, 4177.949, 4399.487, 4171.282, 4196.923, 4107.692, 0, 0, []
1627645149.4345, 54, 0, 4167.692, 4377.436, 4171.282, 4199.487, 4110.256, 0, 0, []
1627645149.4424, 55, 0, 4149.231, 4398.462, 4170.256, 4185.641, 4096.923, 0, 0, []
1627645149.4501, 56, 0, 4150.256, 4382.564, 4181.026, 4182.051, 4100.513, 0, 0, []
1627645149.458, 57, 0, 4157.949, 4353.846, 4172.308, 4180, 4102.051, 0, 0, []
1627645149.4658, 58, 0, 4149.744, 4387.179, 4149.744, 4165.128, 4083.077, 0, 0, []
1627645149.4738, 59, 0, 4150.256, 4399.487, 4156.41, 4173.846, 4082.051, 0, 0, []
1627645149.4817, 60, 0, 4158.974, 4363.077, 4172.821, 4195.385, 4096.41, 0, 0, []
1627645149.4896, 61, 0, 4152.308, 4373.333, 4167.179, 4196.41, 4094.359, 0, 0, []
1627645149.4975, 62, 0, 4150.769, 4394.359, 4167.692, 4201.538, 4092.821, 0, 0, []
1627645149.5055, 63, 0, 4158.974, 4375.385, 4173.333, 4201.538, 4092.308, 0, 0, []
1627645149.5134, 64, 0, 4149.744, 4376.923, 4156.923, 4172.821, 4077.436, 450, 0, []
1627645149.5214, 65, 0, 4142.051, 4385.641, 4150.769, 4152.821, 4073.333, 450, 0, []
1627645149.5292, 66, 0, 4167.179, 4348.718, 4170.769, 4168.718, 4096.923, 16162, 0, []
1627645149.5372, 67, 0, 4202.051, 4354.872, 4194.359, 4197.949, 4131.282, 450, 0, []
1627645149.5451, 68, 0, 4209.744, 4406.154, 4203.59, 4215.385, 4154.359, 304, 0, []
1627645149.5529, 69, 0, 4198.974, 4400.513, 4189.744, 4209.744, 4152.308, 450, 0, []
1627645149.5608, 70, 0, 4190.769, 4367.179, 4173.333, 4192.308, 4138.462, 16075, 0, []
1627645149.5685, 71, 0, 4176.923, 4367.692, 4161.538, 4174.872, 4118.462, 450, 0, []
1627645149.5764, 72, 0, 4164.615, 4393.333, 4145.128, 4158.974, 4098.974, 450, 0, []
1627645149.5842, 73, 0, 4173.333, 4392.821, 4142.564, 4154.872, 4101.026, 16152, 0, []
1627645149.5922, 74, 0, 4184.103, 4361.538, 4146.667, 4163.077, 4115.897, 450, 0, []
1627645149.6001, 75, 0, 4188.718, 4360.513, 4150.769, 4179.487, 4124.103, 16197, 0, []
1627645149.6079, 76, 0, 4204.615, 4393.333, 4165.128, 4201.538, 4134.872, 450, 0, []
1627645149.6157, 77, 0, 4218.974, 4367.692, 4172.308, 4211.282, 4143.077, 450, 0, []
1627645149.6237, 78, 0, 4214.359, 4327.179, 4168.718, 4200, 4142.564, 450, 0, []
1627645149.6316, 79, 0, 4215.897, 4385.641, 4174.359, 4194.872, 4149.744, 16197, 0, []
1627645149.6396, 80, 0, 4214.359, 4391.795, 4175.385, 4178.462, 4148.205, 450, 0, []
1627645149.6474, 81, 0, 4195.385, 4329.744, 4157.436, 4146.154, 4131.282, 450, 0, []
1627645149.6554, 82, 0, 4202.564, 4370.769, 4155.897, 4155.385, 4147.179, 450, 0, []
1627645149.6634, 83, 0, 4235.385, 4398.974, 4175.897, 4186.667, 4181.538, 16197, 0, []
1627645149.6713, 84, 0, 4243.59, 4348.205, 4183.59, 4193.846, 4189.744, 450, 0, []
1627645149.6792, 85, 0, 4223.59, 4367.692, 4176.923, 4182.564, 4168.205, 450, 0, []
1627645149.6871, 86, 0, 4206.667, 4385.641, 4161.538, 4172.308, 4149.231, 450, 0, []
1627645149.695, 87, 0, 4213.846, 4333.846, 4149.231, 4165.128, 4156.41, 16197, 0, []
1627645149.703, 88, 0, 4216.923, 4349.231, 4152.308, 4158.462, 4156.923, 450, 0, []
1627645149.7109, 89, 0, 4195.897, 4377.949, 4152.308, 4160, 4140.513, 450, 0, []
1627645149.7189, 90, 0, 4197.949, 4336.923, 4157.436, 4176.41, 4160, 450, 0, []
1627645149.7268, 91, 0, 4244.103, 4338.974, 4171.795, 4195.385, 4223.077, 16197, 0, []
1627645149.7347, 92, 0, 4285.128, 4375.385, 4167.179, 4201.538, 4280.513, 450, 0, []
1627645149.7426, 93, 0, 4310.256, 4365.128, 4168.205, 4214.359, 4328.205, 450, 0, []
1627645149.7506, 94, 1, 4300.912, 4364.33, 4169.402, 4218.405, 4329.402, 450, 0, []
1627645149.7585, 95, 1, 4291.567, 4363.533, 4170.598, 4222.45, 4330.598, 450, 0, []
1627645149.7664, 96, 1, 4282.222, 4362.735, 4171.795, 4226.496, 4331.795, 450, 0, []
1627645149.7742, 97, 1, 4272.877, 4361.937, 4172.991, 4230.541, 4332.991, 450, 0, []
1627645149.7821, 98, 1, 4263.533, 4361.14, 4174.188, 4234.587, 4334.188, 450, 0, []
1627645149.79, 99, 1, 4254.188, 4360.342, 4175.385, 4238.632, 4335.385, 450, 0, []
1627645149.7979, 100, 1, 4244.843, 4359.544, 4176.581, 4242.678, 4336.581, 450, 0, []
1627645149.8058, 101, 1, 4235.499, 4358.746, 4177.778, 4246.724, 4337.778, 450, 0, []
1627645149.8136, 102, 0, 4226.154, 4357.949, 4178.974, 4250.769, 4338.974, 450, 0, []
1627645161.4694, 12, 0, 4234.359, 4384.615, 4160, 4141.538, 4234.872, 450, 0, []
1627645161.4773, 13, 0, 4226.667, 4323.59, 4156.41, 4142.051, 4226.154, 450, 0, []
1627645161.4852, 14, 0, 4215.897, 4316.923, 4149.744, 4132.821, 4213.846, 450, 0, []
1627645161.493, 15, 0, 4218.974, 4329.744, 4158.974, 4132.821, 4223.077, 16202, 0, []
1627645161.5009, 16, 0, 4236.41, 4323.59, 4184.615, 4152.821, 4251.282, 0, 0, []
1627645161.5086, 17, 0, 4235.385, 4340, 4189.231, 4158.462, 4249.744, 0, 0, []
1627645161.5165, 18, 0, 4225.641, 4347.179, 4180, 4149.744, 4233.846, 0, 0, []
1627645161.5243, 19, 0, 4225.641, 4335.385, 4172.308, 4148.718, 4237.436, 0, 0, []
1627645161.5323, 20, 0, 4213.846, 4347.692, 4165.128, 4142.051, 4229.744, 0, 0, []
1627645161.5402, 21, 0, 4200, 4332.308, 4152.308, 4132.308, 4210.769, 0, 0, []
1627645161.5481, 22, 0, 4209.231, 4285.128, 4151.282, 4139.487, 4214.359, 0, 0, []
1627645161.556, 23, 0, 4217.436, 4322.564, 4159.487, 4143.077, 4219.487, 0, 0, []
1627645161.564, 24, 0, 4211.795, 4363.077, 4157.949, 4136.923, 4213.846, 0, 0, []
