Timestamp, COUNTER, INTERPOLATED, AF3, T7, Pz, T8, AF4, RAW_CQ, MARKER_HARDWARE, MARKERS
1627803588.0297, 70, 0, 4263.077, 4247.692, 4201.538, 4220, 4259.487, 287, 0, []
1627803588.0376, 71, 0, 4279.487, 4278.974, 4208.718, 4227.179, 4272.308, 450, 0, []
1627803588.0454, 72, 0, 4270.769, 4292.308, 4206.154, 4215.897, 4263.077, 450, 0, []
1627803588.0533, 73, 0, 4247.179, 4263.59, 4194.359, 4193.846, 4232.821, 16170, 0, []
1627803588.061, 74, 0, 4253.333, 4259.487, 4196.41, 4201.538, 4234.872, 450, 0, []
1627803588.0689, 75, 0, 4265.641, 4279.487, 4205.128, 4227.179, 4257.949, 16201, 0, []
1627803588.0767, 76, 0, 4260, 4287.179, 4208.718, 4235.897, 4256.923, 450, 0, []
1627803588.0847, 77, 0, 4255.897, 4275.385, 4205.128, 4229.744, 4242.564, 450, 0, []
1627803588.0926, 78, 0, 4253.846, 4250.769, 4184.103, 4215.897, 4232.821, 450, 0, []
1627803588.1005, 79, 0, 4245.641, 4243.077, 4179.487, 4201.538, 4228.205, 16201, 0, []
1627803588.1084, 80, 0, 4245.641, 4260, 4199.487, 4196.923, 4229.744, 450, 0, []
1627803588.1164, 81, 0, 4249.744, 4266.667, 4201.026, 4198.974, 4226.667, 450, 0, []
1627803588.1243, 82, 0, 4247.692, 4274.872, 4189.744, 4200.513, 4216.923, 450, 0, []
1627803588.1323, 83, 0, 4244.103, 4285.641, 4188.718, 4203.59, 4214.872, 16201, 0, []
1627803588.1401, 84, 0, 4252.821, 4268.205, 4202.051, 4222.564, 4226.667, 450, 0, []
1627803588.1481, 85, 0, 4263.077, 4257.949, 4209.744, 4237.436, 4238.462, 450, 0, []
1627803588.156, 86, 0, 4246.667, 4273.846, 4198.462, 4221.538, 4225.641, 450, 0, []
1627803588.1638, 87, 0, 4225.128, 4269.231, 4190.769, 4203.59, 4207.692, 16201, 0, []
1627803588.1717, 88, 0, 4231.795, 4248.205, 4194.872, 4209.744, 4223.077, 450, 0, []
1627803588.1795, 89, 0, 4239.487, 4252.308, 4195.897, 4210.256, 4237.436, 450, 0, []
1627803588.1873, 90, 0, 4228.718, 4268.718, 4184.615, 4204.103, 4222.564, 450, 0, []
1627803588.1951, 91, 0, 4214.359, 4269.231, 4171.795, 4208.205, 4202.564, 16201, 0, []
1627803588.203, 92, 0, 4200, 4245.641, 4173.846, 4206.154, 4189.231, 450, 0, []
1627803588.2108, 93, 0, 4203.077, 4222.051, 4185.641, 4204.103, 4191.282, 450, 0, []
1627803588.2187, 94, 0, 4227.692, 4237.949, 4203.077, 4224.615, 4215.385, 450, 0, []
1627803588.2264, 95, 0, 4238.462, 4270.256, 4216.41, 4234.872, 4233.333, 16201, 0, []
1627803588.2343, 96, 0, 4229.231, 4256.41, 4212.308, 4218.462, 4230.256, 450, 0, []
1627803588.2421, 97, 0, 4229.231, 4236.41, 4207.692, 4216.41, 4229.231, 450, 0, []
1627803588.2501, 98, 0, 4236.923, 4265.641, 4210.256, 4234.359, 4232.821, 450, 0, []
1627803588.258, 99, 0, 4229.231, 4274.359, 4203.59, 4236.923, 4226.154, 16201, 0, []
1627803588.2659, 100, 0, 4210.769, 4242.564, 4189.231, 4212.821, 4207.179, 450, 0, []
1627803588.2738, 101, 0, 4208.718, 4245.641, 4187.692, 4198.974, 4201.026, 450, 0, []
1627803588.2818, 102, 0, 4221.538, 4265.641, 4207.692, 4210.256, 4220.513, 450, 0, []
1627803588.2897, 103, 0, 4223.077, 4256.923, 4211.795, 4219.487, 4235.897, 16201, 0, []
1627803588.2977, 104, 0, 4215.385, 4246.154, 4193.846, 4211.795, 4228.205, 450, 0, []
1627803588.3055, 105, 0, 4214.872, 4246.154, 4189.231, 4203.077, 4216.923, 450, 0, []
1627803588.3133, 106, 0, 4214.359, 4250.769, 4190.256, 4203.59, 4215.385, 450, 0, []
1627803588.3212, 107, 0, 4203.077, 4256.41, 4184.103, 4202.564, 4208.205, 16201, 0, []
1627803588.329, 108, 0, 4195.385, 4258.974, 4180, 4200, 4194.359, 450, 0, []
1627803588.3369, 109, 0, 4213.333, 4257.436, 4187.692, 4209.744, 4204.103, 450, 0, []
1627803588.3446, 110, 0, 4240.513, 4251.795, 4209.231, 4232.821, 4238.974, 450, 0, []
1627803588.3525, 111, 0, 4251.795, 4261.026, 4218.462, 4250.769, 4256.923, 16201, 0, []
1627803588.3603, 112, 0, 4242.564, 4276.923, 4214.359, 4243.077, 4238.462, 450, 0, []
1627803588.3682, 113, 0, 4225.641, 4266.667, 4204.103, 4222.564, 4215.897, 450, 0, []
1627803588.376, 114, 0, 4219.487, 4250.769, 4201.538, 4215.897, 4214.872, 450, 0, []
1627803588.3839, 115, 0, 4226.154, 4262.051, 4221.538, 4222.051, 4224.103, 16201, 0, []
1627803588.3918, 116, 0, 4224.615, 4249.744, 4218.462, 4215.897, 4221.538, 450, 0, []
1627803588.3998, 117, 0, 4209.744, 4217.436, 4197.949, 4199.487, 4209.231, 450, 0, []
1627803588.4077, 118, 0, 4202.564, 4219.487, 4187.692, 4196.41, 4205.641, 450, 0, []
1627803588.4157, 119, 0, 4204.103, 4234.359, 4184.103, 4204.615, 4208.205, 16201, 0, []
1627803588.4235, 120, 0, 4196.41, 4234.359, 4184.103, 4201.538, 4198.974, 450, 0, []
1627803588.4315, 121, 0, 4194.872, 4228.205, 4176.923, 4195.385, 4200.513, 450, 0, []
1627803588.4394, 122, 0, 4211.795, 4246.667, 4189.231, 4209.744, 4225.641, 450, 0, []
1627803588.4474, 123, 0, 4223.59, 4264.615, 4205.641, 4225.641, 4240, 16201, 0, []
1627803588.4553, 124, 0, 4218.462, 4248.205, 4197.436, 4221.026, 4234.359, 450, 0, []
1627803588.463, 125, 0, 4214.359, 4240.513, 4194.872, 4213.846, 4230.769, 450, 0, []
1627803588.4709, 126, 0, 4214.872, 4247.179, 4191.282, 4214.872, 4232.308, 450, 0, []
1627803588.4787, 127, 0, 4216.41, 4232.821, 4187.692, 4216.41, 4233.333, 16201, 0, []
1627803588.4866, 128, 0, 4217.949, 4235.897, 4194.872, 4219.487, 4235.897, 450, 0, []
1627803588.4944, 0, 0, 4210.256, 4269.231, 4185.641, 4213.846, 4228.205, 450, 0, []
1627803588.5022, 1, 0, 4198.974, 4259.487, 4173.333, 4200, 4210.769, 450, 0, []
1627803588.5101, 2, 0, 4196.923, 4236.41, 4172.308, 4197.436, 4199.487, 16182, 0, []
1627803588.5181, 3, 0, 4200, 4257.949, 4178.974, 4200.513, 4201.538, 450, 0, []
1627803588.5259, 4, 0, 4195.385, 4251.282, 4178.462, 4188.718, 4201.538, 16138, 0, []
1627803588.5338, 5, 0, 4182.051, 4208.718, 4165.128, 4177.949, 4190.256, 450, 0, []
1627803588.5415, 6, 0, 4180.513, 4214.359, 4177.949, 4190.769, 4189.231, 297, 0, []
1627803588.5495, 7, 0, 4190.256, 4241.026, 4194.872, 4203.077, 4203.077, 450, 0, []
1627803588.5574, 8, 0, 4190.256, 4220, 4184.103, 4196.41, 4204.615, 450, 0, []
1627803588.5654, 9, 0, 4184.615, 4209.744, 4185.641, 4197.436, 4199.487, 16165, 0, []
1627803588.5733, 10, 0, 4189.231, 4250.256, 4192.821, 4207.179, 4205.128, 450, 0, []
1627803588.5812, 11, 0, 4185.128, 4260, 4181.026, 4200.513, 4198.974, 16201, 0, []
1627803588.5891, 12, 0, 4174.359, 4227.179, 4182.564, 4189.744, 4186.667, 450, 0, []
1627803588.5971, 13, 0, 4188.205, 4236.41, 4200, 4198.974, 4198.462, 450, 0, []
1627803588.605, 14, 0, 4212.821, 4268.718, 4198.974, 4218.974, 4220.513, 450, 0, []
1627803588.613, 15, 0, 4214.872, 4247.179, 4193.333, 4216.923, 4222.051, 16201, 0, []
1627803588.6208, 16, 0, 4200.513, 4214.872, 4200, 4199.487, 4207.692, 0, 0, []
1627803588.6286, 17, 0, 4178.462, 4234.359, 4197.949, 4200.513, 4192.308, 0, 0, []
1627803588.6365, 18, 0, 4171.282, 4250.256, 4195.385, 4214.872, 4185.641, 0, 0, []
1627803588.6443, 19, 0, 4189.231, 4228.718, 4200.513, 4211.282, 4186.667, 0, 0, []
1627803588.6522, 20, 0, 4201.538, 4222.564, 4191.282, 4194.359, 4182.564, 0, 0, []
1627803588.6599, 21, 0, 4201.026, 4254.359, 4189.744, 4195.385, 4187.692, 0, 0, []
1627803588.6678, 22, 0, 4215.897, 4276.41, 4203.59, 4211.795, 4213.846, 0, 0, []
1627803588.6756, 23, 0, 4222.051, 4244.103, 4187.692, 4208.718, 4215.897, 0, 0, []
1627803588.6835, 24, 0, 4193.333, 4210.256, 4169.231, 4183.077, 4187.179, 0, 0, []
1627803588.6913, 25, 0, 4184.103, 4237.436, 4180.513, 4182.564, 4185.128, 0, 0, []
1627803588.6991, 26, 0, 4208.205, 4261.026, 4198.974, 4212.821, 4208.718, 0, 0, []
1627803588.7069, 27, 0, 4212.821, 4230.769, 4204.615, 4221.026, 4207.692, 0, 0, []
1627803588.7149, 28, 0, 4184.615, 4226.667, 4198.974, 4194.872, 4176.923, 0, 0, []
1627803588.7228, 29, 0, 4167.179, 4251.795, 4200.513, 4180.513, 4156.41, 0, 0, []
1627803588.7308, 30, 0, 4175.385, 4231.282, 4194.359, 4187.692, 4164.615, 0, 0, []
1627803588.7386, 31, 0, 4173.846, 4206.667, 4178.462, 4181.538, 4165.641, 0, 0, []
1627803588.7466, 32, 0, 4168.205, 4229.744, 4184.615, 4176.41, 4160.513, 0, 0, []
1627803588.7545, 33, 0, 4172.308, 4240, 4185.641, 4180.513, 4166.154, 0, 0, []
1627803588.7625, 34, 0, 4174.359, 4211.282, 4182.564, 4173.333, 4163.077, 0, 0, []
1627803588.7704, 35, 0, 4168.205, 4206.667, 4185.128, 4165.641, 4150.256, 0, 0, []
1627803588.7783, 36, 0, 4161.026, 4233.846, 4190.256, 4165.641, 4147.692, 0, 0, []
1627803588.7862, 37, 0, 4167.692, 4234.872, 4200.513, 4174.359, 4159.487, 0, 0, []
1627803588.794, 38, 0, 4191.795, 4217.949, 4213.846, 4194.359, 4176.41, 0, 0, []
1627803588.8019, 39, 0, 4186.154, 4232.821, 4217.436, 4200, 4169.744, 0, 0, []
1627803588.8097, 40, 0, 4142.051, 4241.026, 4190.256, 4168.205, 4131.282, 0, 0, []
1627803588.8175, 41, 0, 4136.923, 4209.744, 4177.949, 4155.385, 4123.077, 0, 0, []
1627803588.8253, 42, 0, 4172.821, 4205.641, 4201.538, 4184.615, 4154.872, 0, 0, []
1627803588.8332, 43, 0, 4170.256, 4226.154, 4204.615, 4188.205, 4153.333, 0, 0, []
1627803588.841, 44, 0, 4144.615, 4217.949, 4196.41, 4166.667, 4127.179, 0, 0, []
1627803588.8489, 45, 0, 4140, 4212.821, 4193.333, 4166.154, 4127.179, 0, 0, []
1627803588.8566, 46, 0, 4149.231, 4224.103, 4187.692, 4172.821, 4140.513, 0, 0, []
1627803588.8646, 47, 0, 4151.795, 4219.487, 4186.667, 4168.205, 4138.462, 0, 0, []
1627803588.8725, 48, 0, 4150.769, 4215.385, 4183.077, 4172.308, 4136.41, 0, 0, []
1627803588.8805, 49, 0, 4153.846, 4212.308, 4185.641, 4185.128, 4151.795, 0, 0, []
1627803588.8884, 50, 0, 4152.821, 4191.282, 4180.513, 4177.949, 4149.231, 0, 0, []
1627803588.8964, 51, 0, 4150.769, 4198.974, 4172.308, 4166.667, 4135.897, 0, 0, []
1627803588.9042, 52, 0, 4152.308, 4225.641, 4181.026, 4172.308, 4139.487, 0, 0, []
1627803588.9122, 53, 0, 4148.718, 4218.462, 4186.154, 4175.897, 4138.462, 0, 0, []
1627803588.9201, 54, 0, 4155.897, 4212.308, 4197.949, 4181.026, 4137.436, 0, 0, []
1627803588.9281, 55, 0, 4174.359, 4234.359, 4218.462, 4197.436, 4152.821, 0, 0, []
1627803588.936, 56, 0, 4171.282, 4238.974, 4213.333, 4199.487, 4157.949, 0, 0, []
1627803588.9437, 57, 0, 4150.256, 4211.795, 4195.897, 4189.744, 4150.769, 0, 0, []
1627803588.9516, 58, 0, 4143.077, 4195.385, 4184.103, 4186.667, 4154.359, 0, 0, []
1627803588.9594, 59, 0, 4134.359, 4201.538, 4176.923, 4176.923, 4148.205, 0, 0, []
1627803588.9673, 60, 0, 4134.359, 4209.744, 4180.513, 4162.564, 4150.256, 0, 0, []
1627803588.9751, 61, 0, 4157.436, 4214.872, 4191.282, 4171.795, 4173.846, 0, 0, []
1627803588.9829, 62, 0, 4147.692, 4220.513, 4192.821, 4184.615, 4160, 0, 0, []
1627803588.9907, 63, 0, 4117.949, 4218.462, 4176.923, 4173.846, 4122.051, 0, 0, []
1627803588.9986, 64, 0, 4124.103, 4210.256, 4170.769, 4167.179, 4120, 450, 0, []
1627803589.0064, 65, 0, 4130.256, 4224.615, 4178.462, 4171.795, 4123.077, 450, 0, []
1627803589.0144, 66, 0, 4123.59, 4243.077, 4177.436, 4170.769, 4115.385, 16190, 0, []
1627803589.0222, 67, 0, 4137.949, 4223.077, 4181.026, 4171.282, 4128.718, 450, 0, []
1627803589.0302, 68, 0, 4142.564, 4200.513, 4180.513, 4171.282, 4141.538, 16138, 0, []
1627803589.0381, 69, 0, 4123.59, 4226.667, 4173.846, 4170.769, 4131.795, 450, 0, []
1627803589.0461, 70, 0, 4115.385, 4246.667, 4170.256, 4171.282, 4120.513, 299, 0, []
1627803589.054, 71, 0, 4122.564, 4220.513, 4168.205, 4174.359, 4122.051, 450, 0, []
1627803589.0619, 72, 0, 4130.769, 4203.077, 4176.923, 4176.923, 4129.744, 450, 0, []
1627803589.0698, 73, 0, 4124.103, 4212.821, 4176.41, 4162.051, 4125.641, 16162, 0, []
1627803589.0778, 74, 0, 4117.949, 4225.128, 4177.949, 4149.231, 4120, 450, 0, []
1627803589.0857, 75, 0, 4145.128, 4235.385, 4201.538, 4185.128, 4147.179, 16201, 0, []
1627803589.0935, 76, 0, 4169.744, 4228.205, 4201.538, 4228.205, 4170.769, 450, 0, []
1627803589.1013, 77, 0, 4157.949, 4215.897, 4188.205, 4218.462, 4152.308, 450, 0, []
1627803589.1091, 78, 0, 4144.615, 4229.744, 4186.154, 4191.795, 4133.333, 450, 0, []
1627803589.117, 79, 0, 4142.051, 4232.821, 4181.026, 4179.487, 4128.205, 16201, 0, []
1627803589.1248, 80, 0, 4144.615, 4214.359, 4182.051, 4169.744, 4127.692, 450, 0, []
1627803589.1327, 81, 0, 4152.308, 4222.564, 4193.333, 4171.282, 4141.026, 450, 0, []
1627803589.1404, 82, 0, 4160.513, 4255.385, 4205.641, 4183.59, 4153.846, 450, 0, []
1627803589.1483, 83, 0, 4171.795, 4257.949, 4198.462, 4190.769, 4158.462, 16201, 0, []
1627803589.1561, 84, 0, 4183.59, 4226.667, 4186.154, 4201.538, 4172.821, 450, 0, []
1627803589.164, 85, 0, 4168.205, 4213.333, 4185.128, 4204.103, 4170.769, 450, 0, []
1627803589.1718, 86, 0, 4146.154, 4215.385, 4177.949, 4187.692, 4149.231, 450, 0, []
1627803589.1797, 87, 0, 4161.538, 4212.308, 4179.487, 4183.077, 4157.436, 16201, 0, []
1627803589.1876, 88, 0, 4182.051, 4225.641, 4191.795, 4185.641, 4172.308, 450, 0, []
1627803589.1956, 89, 0, 4181.538, 4251.795, 4196.923, 4179.487, 4167.692, 450, 0, []
1627803589.2035, 90, 0, 4189.744, 4256.923, 4204.103, 4186.667, 4177.436, 450, 0, []
1627803589.2115, 91, 0, 4201.026, 4245.641, 4201.026, 4202.051, 4184.615, 16201, 0, []
1627803589.2193, 92, 0, 4186.667, 4238.462, 4194.872, 4201.538, 4162.564, 450, 0, []
1627803589.2273, 93, 0, 4178.462, 4233.846, 4197.436, 4195.897, 4162.051, 450, 0, []
1627803589.2352, 94, 0, 4216.41, 4237.949, 4189.231, 4200, 4206.154, 450, 0, []
1627803589.2432, 95, 0, 4271.795, 4230.769, 4184.615, 4201.538, 4248.718, 16201, 0, []
1627803589.2511, 96, 0, 4309.744, 4220, 4193.846, 4201.538, 4280, 450, 0, []
1627803589.2588, 97, 0, 4325.641, 4238.462, 4202.051, 4198.974, 4301.538, 450, 0, []
1627803589.2667, 98, 0, 4311.282, 4253.846, 4198.974, 4182.051, 4285.128, 450, 0, []
1627803589.2745, 99, 0, 4291.282, 4238.462, 4191.795, 4172.308, 4257.949, 16201, 0, []
1627803589.2824, 100, 0, 4287.692, 4213.333, 4197.436, 4184.103, 4257.949, 450, 0, []
1627803589.2902, 101, 0, 4280, 4209.231, 4191.282, 4194.359, 4254.872, 450, 0, []
1627803589.298, 102, 0, 4269.231, 4231.282, 4182.564, 4192.308, 4243.077, 450, 0, []
1627803589.3058, 103, 0, 4273.846, 4246.154, 4193.846, 4189.744, 4251.795, 16201, 0, []
1627803589.3137, 104, 0, 4279.487, 4244.615, 4197.949, 4184.615, 4266.154, 450, 0, []
1627803589.3215, 105, 0, 4276.41, 4248.718, 4200.513, 4178.462, 4261.026, 450, 0, []
1627803589.3295, 106, 0, 4274.359, 4251.282, 4210.256, 4181.026, 4254.872, 450, 0, []
1627803589.3373, 107, 0, 4270.769, 4227.179, 4203.59, 4189.744, 4257.949, 16201, 0, []
1627803589.3453, 108, 0, 4264.615, 4216.923, 4185.641, 4201.026, 4257.436, 450, 0, []
1627803589.3532, 109, 0, 4270.256, 4228.718, 4178.974, 4208.718, 4259.487, 450, 0, []
1627803589.3612, 110, 0, 4274.872, 4220, 4188.205, 4207.692, 4261.538, 450, 0, []
1627803589.3691, 111, 0, 4272.821, 4219.487, 4193.333, 4206.154, 4258.462, 16201, 0, []
1627803589.377, 112, 0, 4280, 4244.615, 4193.333, 4198.974, 4261.026, 450, 0, []
1627803589.3849, 113, 0, 4311.282, 4254.359, 4196.41, 4184.103, 4288.718, 450, 0, []
1627803589.3929, 114, 0, 4377.949, 4245.641, 4193.846, 4190.256, 4351.795, 450, 0, []
1627803589.4008, 115, 0, 4458.462, 4250.256, 4192.308, 4208.205, 4426.154, 16201, 0, []
1627803589.4088, 116, 0, 4506.154, 4250.769, 4182.564, 4203.59, 4472.308, 450, 0, []
1627803589.4166, 117, 0, 4523.59, 4234.872, 4176.41, 4193.333, 4489.744, 450, 0, []
1627803589.4244, 118, 0, 4537.436, 4225.128, 4192.308, 4197.949, 4499.487, 450, 0, []
1627803589.4323, 119, 0, 4545.641, 4234.359, 4197.949, 4198.462, 4501.026, 16201, 0, []
1627803589.4401, 120, 0, 4523.077, 4255.385, 4190.769, 4188.718, 4482.051, 450, 0, []
1627803589.448, 121, 0, 4465.641, 4246.154, 4179.487, 4171.282, 4434.359, 450, 0, []
1627803589.4557, 122, 0, 4414.872, 4228.718, 4172.821, 4166.154, 4391.282, 450, 0, []
1627803589.4636, 123, 0, 4412.821, 4245.128, 4196.923, 4200, 4391.795, 16201, 0, []
1627803589.4714, 124, 0, 4421.026, 4248.718, 4212.821, 4232.308, 4404.103, 450, 0, []
1627803589.4794, 125, 0, 4391.795, 4238.462, 4198.462, 4222.564, 4381.538, 450, 0, []
1627803589.4873, 126, 0, 4349.231, 4250.256, 4184.615, 4195.385, 4337.949, 450, 0, []
1627803589.4951, 127, 0, 4324.103, 4240.513, 4177.949, 4174.872, 4308.718, 16201, 0, []
1627803589.503, 128, 0, 4309.744, 4212.308, 4180, 4173.333, 4294.359, 450, 0, []
1627803589.5109, 0, 0, 4301.026, 4230.256, 4185.641, 4188.718, 4282.564, 450, 0, []
1627803589.5188, 1, 0, 4290.256, 4264.615, 4190.256, 4196.923, 4275.897, 450, 0, []
1627803589.5266, 2, 0, 4278.462, 4254.872, 4187.692, 4188.718, 4274.872, 16190, 0, []
1627803589.5345, 3, 0, 4276.41, 4218.974, 4180.513, 4185.641, 4274.872, 450, 0, []
1627803589.5424, 4, 0, 4278.462, 4200.513, 4193.333, 4194.359, 4273.846, 16135, 0, []
1627803589.5503, 5, 0, 4277.436, 4222.051, 4205.641, 4206.667, 4279.487, 450, 0, []
1627803589.5583, 6, 0, 4269.231, 4248.205, 4195.897, 4198.462, 4274.359, 309, 0, []
1627803589.5662, 7, 0, 4260, 4250.769, 4190.769, 4182.051, 4261.538, 450, 0, []
1627803589.5739, 8, 0, 4265.641, 4250.769, 4193.333, 4189.744, 4265.128, 450, 0, []
1627803589.5818, 9, 0, 4264.103, 4234.359, 4192.821, 4195.385, 4269.744, 16159, 0, []
1627803589.5896, 10, 0, 4248.718, 4209.744, 4185.128, 4185.641, 4257.949, 450, 0, []
1627803589.5975, 11, 0, 4242.564, 4229.231, 4183.077, 4187.692, 4248.205, 16197, 0, []
1627803589.6053, 12, 0, 4245.128, 4261.026, 4190.256, 4196.41, 4246.667, 450, 0, []
1627803589.6131, 13, 0, 4243.077, 4250.769, 4181.538, 4196.923, 4246.667, 450, 0, []
1627803589.6209, 14, 0, 4243.59, 4224.103, 4174.872, 4198.974, 4243.077, 450, 0, []
1627803589.6288, 15, 0, 4243.077, 4235.385, 4181.538, 4203.077, 4234.359, 16197, 0, []
1627803589.6366, 16, 0, 4236.923, 4261.026, 4187.179, 4200.513, 4232.308, 0, 0, []
1627803589.6446, 17, 0, 4235.385, 4252.308, 4185.128, 4195.385, 4231.795, 0, 0, []
1627803589.6525, 18, 0, 4234.359, 4233.846, 4172.308, 4185.641, 4223.077, 0, 0, []
1627803589.6604, 19, 0, 4233.333, 4247.179, 4177.949, 4181.538, 4216.923, 0, 0, []
1627803589.6683, 20, 0, 4236.923, 4258.462, 4194.872, 4184.103, 4218.462, 0, 0, []
1627803589.6763, 21, 0, 4240.513, 4243.077, 4195.897, 4186.154, 4221.538, 0, 0, []
1627803589.6842, 22, 0, 4232.821, 4240.513, 4187.179, 4181.538, 4212.821, 0, 0, []
1627803589.6922, 23, 0, 4216.41, 4251.795, 4178.462, 4174.872, 4197.949, 0, 0, []
1627803589.7, 24, 0, 4215.385, 4252.821, 4187.692, 4185.128, 4202.051, 0, 0, []
1627803589.708, 25, 0, 4231.282, 4260, 4200.513, 4203.077, 4220.513, 0, 0, []
1627803589.7159, 26, 0, 4235.385, 4265.641, 4195.897, 4199.487, 4220.513, 0, 0, []
1627803589.7238, 27, 0, 4221.026, 4236.923, 4179.487, 4179.487, 4196.923, 0, 0, []
1627803589.7317, 28, 0, 4205.641, 4208.718, 4157.436, 4166.667, 4183.59, 0, 0, []
1627803589.7394, 29, 0, 4205.641, 4232.308, 4162.051, 4166.667, 4189.744, 0, 0, []
1627803589.7473, 30, 0, 4211.282, 4258.974, 4182.051, 4176.923, 4198.974, 0, 0, []
1627803589.7551, 31, 0, 4208.205, 4253.333, 4172.308, 4184.103, 4203.077, 0, 0, []
1627803589.763, 32, 0, 4200.513, 4254.359, 4158.462, 4172.821, 4200, 0, 0, []
1627803589.7708, 33, 0, 4195.897, 4258.462, 4154.872, 4158.462, 4190.256, 0, 0, []
1627803589.7786, 34, 0, 4199.487, 4249.744, 4163.077, 4171.795, 4192.821, 0, 0, []
1627803589.7864, 35, 0, 4212.308, 4247.179, 4183.077, 4194.872, 4214.359, 0, 0, []
1627803589.7944, 36, 0, 4222.051, 4248.205, 4180, 4190.256, 4216.41, 0, 0, []
1627803589.8023, 37, 0, 4220, 4247.179, 4170.769, 4180, 4207.692, 0, 0, []
1627803589.8103, 38, 0, 4213.846, 4249.744, 4178.974, 4187.692, 4214.359, 0, 0, []
1627803589.8181, 39, 0, 4205.128, 4255.385, 4187.692, 4191.282, 4209.231, 0, 0, []
1627803589.8261, 40, 0, 4193.846, 4253.846, 4173.846, 4172.308, 4184.615, 0, 0, []
1627803589.834, 41, 0, 4195.385, 4248.718, 4151.795, 4152.821, 4175.385, 0, 0, []
1627803589.842, 42, 0, 4208.718, 4243.077, 4162.564, 4159.487, 4191.282, 0, 0, []
1627803589.8499, 43, 0, 4213.846, 4245.641, 4177.949, 4174.872, 4198.974, 0, 0, []
1627803589.8578, 44, 0, 4213.333, 4255.897, 4172.821, 4179.487, 4195.385, 0, 0, []
1627803589.8657, 45, 0, 4213.333, 4245.641, 4166.667, 4183.59, 4192.821, 0, 0, []
1627803589.8735, 46, 0, 4209.231, 4226.154, 4162.051, 4181.538, 4191.795, 0, 0, []
1627803589.8814, 47, 0, 4204.615, 4247.179, 4166.667, 4176.923, 4187.692, 0, 0, []
1627803589.8892, 48, 0, 4195.385, 4271.795, 4170.256, 4180, 4173.846, 0, 0, []
1627803589.897, 49, 0, 4185.641, 4247.179, 4170.769, 4181.538, 4163.077, 0, 0, []
1627803589.9048, 50, 0, 4202.051, 4236.41, 4187.692, 4191.795, 4175.385, 0, 0, []
1627803589.9127, 51, 0, 4215.385, 4250.769, 4184.615, 4201.026, 4188.205, 0, 0, []
1627803589.9205, 52, 0, 4189.744, 4236.923, 4160.513, 4172.308, 4168.205, 0, 0, []
1627803589.9284, 53, 0, 4177.949, 4226.154, 4158.974, 4148.718, 4159.487, 0, 0, []
1627803589.9361, 54, 0, 4205.128, 4246.667, 4172.821, 4170.256, 4184.615, 0, 0, []
1627803589.9441, 55, 0, 4219.487, 4272.821, 4180, 4189.231, 4198.974, 0, 0, []
1627803589.952, 56, 0, 4213.846, 4286.154, 4176.923, 4186.667, 4201.026, 0, 0, []
1627803589.96, 57, 0, 4207.692, 4256.41, 4174.872, 4179.487, 4200.513, 0, 0, []
1627803589.9679, 58, 0, 4200, 4226.667, 4171.795, 4171.795, 4190.769, 0, 0, []
1627803589.9758, 59, 0, 4202.051, 4251.795, 4174.872, 4178.462, 4184.615, 0, 0, []
1627803589.9837, 60, 0, 4204.103, 4263.077, 4182.564, 4189.231, 4185.128, 0, 0, []
1627803589.9917, 61, 0, 4198.462, 4249.231, 4176.923, 4182.051, 4180.513, 0, 0, []
1627803589.9996, 62, 0, 4203.077, 4266.154, 4181.538, 4183.59, 4184.103, 0, 0, []
1627803590.0076, 63, 0, 4201.026, 4273.846, 4192.821, 4194.872, 4183.077, 0, 0, []
1627803590.0154, 64, 0, 4185.128, 4256.923, 4186.154, 4190.256, 4170.256, 450, 0, []
1627803590.0234, 65, 0, 4186.154, 4256.41, 4181.538, 4180, 4169.231, 450, 0, []
1627803590.0313, 66, 0, 4212.821, 4246.154, 4186.667, 4180.513, 4190.256, 16189, 0, []
1627803590.0391, 67, 0, 4232.821, 4230.256, 4191.282, 4187.692, 4215.385, 450, 0, []
1627803590.047, 68, 0, 4224.103, 4255.897, 4188.205, 4190.769, 4217.949, 16133, 0, []
1627803590.0547, 69, 0, 4215.385, 4267.179, 4178.974, 4187.692, 4205.128, 450, 0, []
1627803590.0626, 70, 0, 4224.103, 4230.769, 4186.667, 4186.667, 4201.026, 309, 0, []
1627803590.0706, 71, 0, 4225.641, 4224.615, 4190.256, 4192.308, 4207.692, 450, 0, []
1627803590.0785, 72, 0, 4206.154, 4262.564, 4175.385, 4187.692, 4198.462, 450, 0, []
1627803590.0863, 73, 0, 4188.205, 4264.103, 4169.231, 4172.308, 4178.462, 16159, 0, []
1627803590.0941, 74, 0, 4196.41, 4246.154, 4177.436, 4180, 4185.128, 450, 0, []
1627803590.1019, 75, 0, 4215.897, 4266.154, 4191.795, 4204.615, 4210.769, 16197, 0, []
1627803590.1099, 76, 0, 4221.026, 4288.205, 4192.821, 4212.821, 4219.487, 450, 0, []
1627803590.1178, 77, 0, 4205.128, 4264.615, 4183.59, 4197.949, 4200.513, 450, 0, []
1627803590.1258, 78, 0, 4194.872, 4238.974, 4183.077, 4183.59, 4182.051, 450, 0, []
1627803590.1336, 79, 0, 4212.308, 4254.359, 4180.513, 4184.103, 4192.308, 16197, 0, []
1627803590.1416, 80, 0, 4220.513, 4257.949, 4175.385, 4189.744, 4202.564, 450, 0, []
1627803590.1495, 81, 0, 4202.051, 4233.333, 4165.128, 4183.59, 4187.179, 450, 0, []
1627803590.1575, 82, 0, 4202.051, 4241.026, 4169.744, 4183.077, 4186.154, 450, 0, []
1627803590.1654, 83, 0, 4222.051, 4259.487, 4189.231, 4195.385, 4206.154, 16197, 0, []
1627803590.1733, 84, 0, 4210.256, 4235.385, 4172.821, 4190.769, 4198.462, 450, 0, []
1627803590.1812, 85, 0, 4186.667, 4234.359, 4149.231, 4177.436, 4178.462, 450, 0, []
1627803590.1891, 86, 0, 4195.897, 4260.513, 4153.846, 4181.538, 4187.692, 450, 0, []
1627803590.197, 87, 0, 4207.179, 4246.667, 4153.333, 4187.692, 4195.897, 16197, 0, []
1627803590.2048, 88, 0, 4191.795, 4241.538, 4148.205, 4185.641, 4185.128, 450, 0, []
1627803590.2126, 89, 0, 4180.513, 4245.641, 4151.282, 4184.615, 4178.974, 450, 0, []
1627803590.2204, 90, 0, 4192.308, 4230.256, 4164.103, 4188.718, 4183.077, 450, 0, []
1627803590.2283, 91, 0, 4203.59, 4244.615, 4176.923, 4190.769, 4187.179, 16197, 0, []
1627803590.2361, 92, 0, 4203.077, 4262.564, 4175.385, 4185.641, 4185.128, 450, 0, []
1627803590.244, 93, 0, 4200, 4233.846, 4167.179, 4181.538, 4181.026, 450, 0, []
1627803590.2517, 94, 0, 4192.821, 4229.744, 4155.385, 4182.051, 4180.513, 450, 0, []
1627803590.2597, 95, 0, 4188.205, 4257.436, 4157.949, 4185.128, 4182.564, 16197, 0, []
1627803590.2676, 96, 0, 4193.846, 4233.333, 4170.256, 4194.872, 4190.256, 450, 0, []
1627803590.2756, 97, 0, 4208.205, 4217.436, 4174.359, 4204.615, 4202.564, 450, 0, []
1627803590.2835, 98, 0, 4216.923, 4253.846, 4179.487, 4206.154, 4209.744, 450, 0, []
1627803590.2914, 99, 0, 4210.256, 4261.538, 4169.744, 4196.41, 4200.513, 16197, 0, []
1627803590.2993, 100, 0, 4196.923, 4245.128, 4160.513, 4186.667, 4185.641, 450, 0, []
1627803590.3073, 101, 0, 4198.462, 4245.641, 4173.846, 4193.333, 4188.718, 450, 0, []
1627803590.3152, 102, 0, 4203.077, 4234.872, 4180, 4205.641, 4203.59, 450, 0, []
1627803590.3232, 103, 0, 4200.513, 4223.59, 4178.462, 4202.051, 4198.462, 16197, 0, []
1627803590.331, 104, 0, 4208.205, 4256.41, 4181.026, 4201.026, 4186.667, 450, 0, []
1627803590.339, 105, 0, 4210.256, 4280.513, 4176.923, 4199.487, 4186.154, 450, 0, []
1627803590.3469, 106, 0, 4194.872, 4254.359, 4167.179, 4183.59, 4182.564, 450, 0, []
1627803590.3547, 107, 0, 4202.051, 4235.897, 4176.41, 4188.718, 4187.692, 16197, 0, []
1627803590.3626, 108, 0, 4218.974, 4252.308, 4195.897, 4207.692, 4200.513, 450, 0, []
1627803590.3703, 109, 0, 4206.154, 4265.641, 4180.513, 4194.872, 4185.128, 450, 0, []
1627803590.3782, 110, 0, 4190.256, 4254.872, 4166.154, 4176.41, 4168.718, 450, 0, []
1627803590.386, 111, 0, 4199.487, 4238.974, 4185.128, 4185.128, 4186.154, 16197, 0, []
1627803590.3939, 112, 0, 4208.205, 4231.795, 4189.231, 4196.41, 4200.513, 450, 0, []
1627803590.4017, 113, 0, 4198.462, 4231.282, 4179.487, 4189.231, 4189.744, 450, 0, []
1627803590.4096, 114, 0, 4183.077, 4231.282, 4172.821, 4175.385, 4175.897, 450, 0, []
1627803590.4173, 115, 0, 4180, 4234.872, 4164.103, 4172.308, 4171.795, 16197, 0, []
1627803590.4253, 116, 0, 4192.308, 4259.487, 4166.154, 4186.154, 4175.897, 450, 0, []
1627803590.4332, 117, 0, 4200.513, 4275.897, 4171.795, 4194.359, 4177.949, 450, 0, []
1627803590.4412, 118, 0, 4189.744, 4234.872, 4166.667, 4180.513, 4166.154, 450, 0, []
1627803590.4491, 119, 0, 4195.897, 4223.59, 4173.846, 4185.641, 4170.769, 16197, 0, []
1627803590.457, 120, 0, 4227.692, 4282.051, 4196.41, 4215.897, 4198.974, 450, 0, []
1627803590.4649, 121, 0, 4229.231, 4274.872, 4199.487, 4212.308, 4198.462, 450, 0, []
1627803590.4729, 122, 0, 4196.41, 4223.077, 4174.359, 4183.59, 4171.282, 450, 0, []
1627803590.4808, 123, 0, 4182.051, 4251.795, 4164.103, 4175.897, 4157.436, 16197, 0, []
1627803590.4887, 124, 0, 4187.692, 4271.795, 4168.205, 4177.949, 4158.462, 450, 0, []
1627803590.4965, 125, 0, 4185.641, 4227.692, 4155.385, 4166.667, 4156.41, 450, 0, []
1627803590.5044, 126, 0, 4183.077, 4239.487, 4153.333, 4166.667, 4155.897, 450, 0, []
1627803590.5123, 127, 0, 4182.564, 4288.718, 4164.103, 4178.462, 4163.077, 16197, 0, []
1627803590.5201, 128, 0, 4188.205, 4275.897, 4172.821, 4186.154, 4168.718, 450, 0, []
1627803590.528, 0, 0, 4195.897, 4250.769, 4175.897, 4189.231, 4166.667, 450, 0, []
1627803590.5357, 1, 0, 4192.308, 4260, 4167.179, 4181.026, 4155.897, 450, 0, []
1627803590.5436, 2, 0, 4189.231, 4259.487, 4161.538, 4170.256, 4148.718, 16189, 0, []
1627803590.5514, 3, 0, 4197.949, 4246.667, 4165.641, 4174.359, 4159.487, 450, 0, []
1627803590.5593, 4, 0, 4211.282, 4255.897, 4185.641, 4193.333, 4180, 16133, 0, []
1627803590.5671, 5, 0, 4217.949, 4294.872, 4196.41, 4206.154, 4190.256, 450, 0, []
1627803590.575, 6, 0, 4211.282, 4304.615, 4178.462, 4203.59, 4187.692, 308, 0, []
1627803590.5829, 7, 0, 4193.846, 4254.359, 4171.795, 4193.846, 4178.974, 450, 0, []
1627803590.5909, 8, 0, 4175.385, 4231.282, 4166.154, 4181.538, 4162.564, 450, 0, []
1627803590.5988, 9, 0, 4171.795, 4265.128, 4154.872, 4176.923, 4154.359, 16159, 0, []
1627803590.6068, 10, 0, 4181.026, 4261.538, 4164.615, 4186.154, 4167.179, 450, 0, []
1627803590.6146, 11, 0, 4188.718, 4232.308, 4171.795, 4184.615, 4171.282, 16197, 0, []
1627803590.6226, 12, 0, 4183.59, 4254.359, 4173.333, 4169.231, 4158.462, 450, 0, []
1627803590.6305, 13, 0, 4176.923, 4263.59, 4171.795, 4164.103, 4153.333, 450, 0, []
1627803590.6385, 14, 0, 4178.462, 4244.103, 4164.615, 4169.231, 4158.462, 450, 0, []
1627803590.6464, 15, 0, 4184.103, 4256.923, 4175.897, 4181.026, 4164.103, 16197, 0, []
1627803590.6541, 16, 0, 4191.795, 4257.949, 4189.744, 4196.923, 4171.795, 0, 0, []
1627803590.662, 17, 0, 4189.231, 4245.641, 4183.077, 4204.615, 4176.41, 0, 0, []
1627803590.6698, 18, 0, 4181.538, 4257.436, 4171.282, 4198.974, 4173.333, 0, 0, []
1627803590.6777, 19, 0, 4192.821, 4256.41, 4181.026, 4191.795, 4173.846, 0, 0, []
1627803590.6855, 20, 0, 4205.128, 4254.359, 4191.795, 4187.692, 4174.872, 0, 0, []
1627803590.6933, 21, 0, 4196.41, 4268.718, 4176.41, 4180.513, 4169.744, 0, 0, []
1627803590.7011, 22, 0, 4180, 4250.256, 4167.692, 4174.359, 4163.077, 0, 0, []
1627803590.709, 23, 0, 4184.615, 4231.282, 4175.897, 4179.487, 4168.718, 0, 0, []
1627803590.7168, 24, 0, 4196.41, 4249.744, 4180.513, 4192.308, 4180.513, 0, 0, []
1627803590.7248, 25, 0, 4188.205, 4249.231, 4171.282, 4186.667, 4175.385, 0, 0, []
1627803590.7326, 26, 0, 4177.436, 4238.462, 4157.436, 4171.282, 4165.641, 0, 0, []
1627803590.7406, 27, 0, 4183.59, 4249.231, 4166.667, 4175.385, 4171.282, 0, 0, []
1627803590.7485, 28, 0, 4188.718, 4242.051, 4181.026, 4179.487, 4175.385, 0, 0, []
1627803590.7565, 29, 0, 4183.59, 4232.308, 4175.385, 4173.846, 4166.667, 0, 0, []
1627803590.7644, 30, 0, 4183.59, 4263.59, 4174.872, 4179.487, 4164.615, 0, 0, []
1627803590.7723, 31, 0, 4185.641, 4273.846, 4173.333, 4188.205, 4170.769, 0, 0, []
1627803590.7802, 32, 0, 4184.103, 4240.513, 4168.205, 4183.59, 4171.795, 0, 0, []
1627803590.7882, 33, 0, 4180.513, 4233.333, 4175.385, 4180.513, 4167.692, 0, 0, []
1627803590.7961, 34, 0, 4182.051, 4261.538, 4185.128, 4188.205, 4170.256, 0, 0, []
1627803590.8039, 35, 0, 4191.795, 4265.641, 4188.718, 4188.205, 4173.846, 0, 0, []
1627803590.8117, 36, 0, 4193.333, 4248.205, 4182.051, 4177.949, 4167.179, 0, 0, []
1627803590.8195, 37, 0, 4197.949, 4246.154, 4187.692, 4183.077, 4173.846, 0, 0, []
1627803590.8274, 38, 0, 4213.333, 4252.308, 4195.385, 4201.026, 4189.744, 0, 0, []
1627803590.8352, 39, 0, 4234.872, 4261.026, 4187.179, 4204.103, 4205.128, 0, 0, []
1627803590.8431, 40, 0, 4272.821, 4260, 4193.846, 4198.974, 4244.615, 0, 0, []
1627803590.8508, 41, 0, 4331.795, 4244.103, 4202.051, 4200.513, 4304.615, 0, 0, []
1627803590.8587, 42, 0, 4394.359, 4243.59, 4193.333, 4202.051, 4357.949, 0, 0, []
1627803590.8665, 43, 0, 4447.179, 4252.821, 4189.744, 4204.615, 4407.179, 0, 0, []
1627803590.8744, 44, 0, 4478.974, 4248.718, 4184.615, 4195.385, 4438.974, 0, 0, []
1627803590.8822, 45, 0, 4484.103, 4251.795, 4184.615, 4182.051, 4442.564, 0, 0, []
1627803590.8901, 46, 0, 4491.795, 4283.077, 4195.897, 4198.974, 4454.872, 0, 0, []
1627803590.898, 47, 0, 4492.308, 4288.718, 4197.949, 4221.538, 4466.154, 0, 0, []
1627803590.906, 48, 0, 4456.923, 4250.256, 4193.333, 4217.949, 4446.667, 0, 0, []
1627803590.9139, 49, 0, 4415.385, 4238.974, 4185.641, 4214.359, 4421.538, 0, 0, []
1627803590.9219, 50, 0, 4386.154, 4256.923, 4174.872, 4210.769, 4394.359, 0, 0, []
1627803590.9297, 51, 0, 4354.872, 4243.59, 4166.667, 4200, 4356.923, 0, 0, []
1627803590.9377, 52, 0, 4333.846, 4219.487, 4177.436, 4202.564, 4334.872, 0, 0, []
1627803590.9456, 53, 0, 4332.821, 4240, 4196.923, 4217.436, 4335.897, 0, 0, []
1627803590.9536, 54, 0, 4321.538, 4278.974, 4194.359, 4217.436, 4327.692, 0, 0, []
1627803590.9615, 55, 0, 4293.846, 4268.718, 4190.256, 4204.103, 4300.513, 0, 0, []
1627803590.9692, 56, 0, 4279.487, 4244.103, 4194.359, 4201.026, 4281.538, 0, 0, []
1627803590.9771, 57, 0, 4280.513, 4257.436, 4194.359, 4210.256, 4279.487, 0, 0, []
1627803590.9849, 58, 0, 4275.385, 4266.154, 4197.949, 4216.41, 4271.795, 0, 0, []
1627803590.9928, 59, 0, 4260.513, 4251.282, 4190.256, 4210.769, 4257.436, 0, 0, []
1627803591.0006, 60, 0, 4242.051, 4249.744, 4183.077, 4202.051, 4244.615, 0, 0, []
1627803591.0084, 61, 0, 4231.795, 4238.974, 4197.949, 4200, 4235.897, 0, 0, []
1627803591.0162, 62, 0, 4232.821, 4218.462, 4210.256, 4202.051, 4231.795, 0, 0, []
1627803591.0241, 63, 0, 4225.641, 4238.974, 4201.538, 4195.385, 4224.103, 0, 0, []
1627803591.0319, 64, 0, 4202.564, 4237.949, 4177.436, 4181.026, 4206.154, 450, 0, []
1627803591.0399, 65, 0, 4184.615, 4204.103, 4170.256, 4179.487, 4195.385, 450, 0, []
1627803591.0477, 66, 0, 4184.103, 4218.974, 4174.872, 4186.667, 4200.513, 16190, 0, []
1627803591.0557, 67, 0, 4192.821, 4240.513, 4170.256, 4188.718, 4205.128, 450, 0, []
1627803591.0636, 68, 0, 4198.462, 4235.897, 4169.744, 4184.615, 4202.564, 16148, 0, []
1627803591.0716, 69, 0, 4201.538, 4241.026, 4168.205, 4185.128, 4202.051, 450, 0, []
1627803591.0795, 70, 0, 4204.103, 4237.949, 4169.231, 4195.897, 4205.128, 307, 0, []
1627803591.0874, 71, 0, 4195.385, 4215.897, 4176.41, 4203.077, 4201.538, 450, 0, []
1627803591.0953, 72, 0, 4189.744, 4200.513, 4181.026, 4197.949, 4197.949, 450, 0, []
1627803591.1033, 73, 0, 4205.641, 4201.538, 4189.231, 4195.897, 4209.231, 16159, 0, []
1627803591.1112, 74, 0, 4221.538, 4237.949, 4187.179, 4205.641, 4222.564, 450, 0, []
1627803591.119, 75, 0, 4213.333, 4269.231, 4175.897, 4207.179, 4212.821, 16188, 0, []
1627803591.1268, 76, 0, 4185.128, 4236.923, 4173.846, 4191.282, 4183.077, 450, 0, []
1627803591.1346, 77, 0, 4167.179, 4218.462, 4174.872, 4186.667, 4166.667, 450, 0, []
1627803591.1425, 78, 0, 4172.308, 4235.385, 4175.385, 4201.026, 4168.718, 450, 0, []
1627803591.1503, 79, 0, 4175.897, 4214.872, 4170.769, 4204.615, 4171.795, 16188, 0, []
1627803591.1582, 80, 0, 4166.154, 4210.769, 4175.897, 4190.769, 4166.154, 450, 0, []
1627803591.166, 81, 0, 4148.205, 4236.923, 4187.179, 4174.872, 4148.205, 450, 0, []
1627803591.1738, 82, 0, 4133.846, 4217.949, 4171.282, 4162.051, 4136.41, 450, 0, []
1627803591.1816, 83, 0, 4145.641, 4203.077, 4166.154, 4170.256, 4152.308, 16188, 0, []
1627803591.1896, 84, 0, 4171.282, 4223.59, 4186.154, 4192.308, 4175.385, 450, 0, []
1627803591.1975, 85, 0, 4173.333, 4211.795, 4194.872, 4193.333, 4176.923, 450, 0, []
1627803591.2055, 86, 0, 4167.179, 4189.744, 4194.359, 4189.744, 4175.385, 450, 0, []
1627803591.2133, 87, 0, 4166.667, 4198.462, 4182.564, 4188.718, 4170.769, 16188, 0, []
1627803591.2213, 88, 0, 4157.436, 4207.179, 4175.897, 4178.974, 4155.897, 450, 0, []
1627803591.2292, 89, 0, 4149.231, 4219.487, 4176.41, 4175.385, 4153.333, 450, 0, []
1627803591.2372, 90, 0, 4153.846, 4232.308, 4171.795, 4184.103, 4165.641, 450, 0, []
1627803591.2451, 91, 0, 4162.051, 4229.231, 4176.41, 4185.641, 4170.256, 16188, 0, []
1627803591.253, 92, 0, 4160, 4231.795, 4177.949, 4181.026, 4164.103, 450, 0, []
1627803591.2609, 93, 0, 4164.615, 4230.256, 4178.974, 4189.744, 4172.308, 450, 0, []
1627803591.2687, 94, 0, 4178.974, 4221.538, 4189.231, 4206.154, 4187.692, 450, 0, []
1627803591.2766, 95, 0, 4179.487, 4227.692, 4193.846, 4214.359, 4180.513, 16188, 0, []
1627803591.2844, 96, 0, 4166.154, 4233.846, 4193.846, 4213.846, 4164.103, 450, 0, []
1627803591.2922, 97, 0, 4166.154, 4235.897, 4195.385, 4214.872, 4167.179, 450, 0, []
1627803591.3, 98, 0, 4171.795, 4249.744, 4194.872, 4206.667, 4168.205, 450, 0, []
1627803591.3079, 99, 0, 4168.205, 4260, 4184.103, 4187.692, 4154.872, 16188, 0, []
1627803591.3157, 100, 0, 4166.154, 4246.667, 4172.308, 4186.154, 4155.897, 450, 0, []
1627803591.3236, 101, 0, 4162.564, 4234.359, 4175.385, 4199.487, 4161.026, 450, 0, []
1627803591.3313, 102, 0, 4151.795, 4236.923, 4174.359, 4198.974, 4147.179, 450, 0, []
1627803591.3392, 103, 0, 4142.564, 4222.051, 4172.308, 4189.744, 4134.359, 16188, 0, []
1627803591.347, 104, 0, 4134.872, 4212.821, 4184.103, 4193.333, 4133.333, 450, 0, []
1627803591.355, 105, 0, 4133.846, 4237.949, 4188.205, 4202.564, 4134.872, 450, 0, []
1627803591.3629, 106, 0, 4146.667, 4246.667, 4186.154, 4205.641, 4145.128, 450, 0, []
1627803591.3708, 107, 0, 4155.385, 4216.923, 4179.487, 4200.513, 4153.333, 16188, 0, []
1627803591.3787, 108, 0, 4147.179, 4207.692, 4165.641, 4183.59, 4140.513, 450, 0, []
1627803591.3867, 109, 0, 4134.359, 4223.077, 4157.949, 4168.718, 4126.667, 450, 0, []
1627803591.3946, 110, 0, 4135.897, 4231.795, 4166.154, 4166.154, 4133.333, 450, 0, []
1627803591.4026, 111, 0, 4146.154, 4246.154, 4185.128, 4166.667, 4141.026, 16188, 0, []
1627803591.4104, 112, 0, 4148.205, 4250.256, 4184.103, 4169.744, 4135.385, 450, 0, []
1627803591.4184, 113, 0, 4141.026, 4249.744, 4174.359, 4177.949, 4127.179, 450, 0, []
1627803591.4263, 114, 0, 4133.333, 4254.359, 4178.974, 4183.59, 4121.538, 450, 0, []
1627803591.4343, 115, 0, 4131.795, 4217.949, 4182.564, 4184.103, 4117.949, 16188, 0, []
1627803591.4422, 116, 0, 4132.821, 4188.205, 4187.179, 4186.667, 4122.051, 450, 0, []
1627803591.4499, 117, 0, 4142.564, 4225.128, 4185.641, 4193.333, 4136.41, 450, 0, []
1627803591.4578, 118, 0, 4149.231, 4246.154, 4174.872, 4189.231, 4135.897, 450, 0, []
1627803591.4656, 119, 0, 4131.282, 4220.513, 4172.308, 4171.282, 4113.846, 16188, 0, []
1627803591.4735, 120, 0, 4123.077, 4223.077, 4170.256, 4164.615, 4109.231, 450, 0, []
1627803591.4813, 121, 0, 4134.872, 4241.538, 4168.205, 4176.923, 4123.59, 450, 0, []
1627803591.4891, 122, 0, 4142.051, 4236.41, 4174.872, 4184.615, 4131.795, 450, 0, []
1627803591.4969, 123, 0, 4147.692, 4230.256, 4181.026, 4183.077, 4131.795, 16188, 0, []
1627803591.5048, 124, 0, 4149.744, 4237.949, 4179.487, 4181.538, 4127.179, 450, 0, []
1627803591.5127, 125, 0, 4146.667, 4248.718, 4174.359, 4181.538, 4127.692, 450, 0, []
1627803591.5207, 126, 0, 4151.282, 4256.923, 4176.923, 4187.692, 4138.974, 450, 0, []
1627803591.5285, 127, 0, 4156.923, 4251.795, 4172.308, 4189.231, 4142.051, 16188, 0, []
1627803591.5365, 128, 0, 4151.795, 4228.205, 4154.872, 4186.154, 4137.949, 450, 0, []
1627803591.5444, 0, 0, 4142.051, 4217.949, 4157.436, 4188.718, 4134.872, 450, 0, []
1627803591.5524, 1, 0, 4136.41, 4248.205, 4167.179, 4188.718, 4128.205, 450, 0, []
1627803591.5603, 2, 0, 4140.513, 4265.641, 4172.821, 4185.128, 4126.667, 16190, 0, []
1627803591.5682, 3, 0, 4148.718, 4251.282, 4177.436, 4185.641, 4137.949, 450, 0, []
1627803591.5761, 4, 0, 4145.641, 4252.821, 4171.795, 4181.538, 4138.462, 16148, 0, []
1627803591.5839, 5, 0, 4136.923, 4250.769, 4168.205, 4175.897, 4125.128, 450, 0, []
1627803591.5918, 6, 0, 4135.385, 4219.487, 4160, 4178.462, 4124.103, 306, 0, []
1627803591.5996, 7, 0, 4146.154, 4224.615, 4158.462, 4186.667, 4138.974, 450, 0, []
1627803591.6074, 8, 0, 4157.436, 4260, 4178.974, 4199.487, 4146.667, 450, 0, []
1627803591.6152, 9, 0, 4150.769, 4254.872, 4185.128, 4203.077, 4141.026, 16159, 0, []
1627803591.6231, 10, 0, 4138.974, 4227.179, 4168.718, 4190.769, 4131.282, 450, 0, []
1627803591.6309, 11, 0, 4149.231, 4224.615, 4161.538, 4198.974, 4135.385, 16196, 0, []
1627803591.6388, 12, 0, 4163.59, 4251.282, 4172.308, 4221.538, 4147.692, 450, 0, []
1627803591.6465, 13, 0, 4154.872, 4260, 4171.282, 4207.179, 4138.974, 450, 0, []
1627803591.6545, 14, 0, 4146.154, 4229.231, 4161.538, 4180.513, 4124.615, 450, 0, []
1627803591.6624, 15, 0, 4156.923, 4219.487, 4173.846, 4186.154, 4135.897, 16196, 0, []
1627803591.6704, 16, 0, 4155.385, 4245.128, 4170.256, 4187.179, 4142.051, 0, 0, []
1627803591.6783, 17, 0, 4137.436, 4247.179, 4145.641, 4167.692, 4120, 0, 0, []
1627803591.6862, 18, 0, 4138.462, 4224.103, 4152.821, 4170.769, 4119.487, 0, 0, []
1627803591.6941, 19, 0, 4154.359, 4235.897, 4172.308, 4185.641, 4145.641, 0, 0, []
1627803591.7021, 20, 0, 4163.59, 4263.59, 4181.538, 4189.744, 4155.897, 0, 0, []
1627803591.71, 21, 0, 4169.744, 4262.564, 4183.077, 4199.487, 4156.923, 0, 0, []
1627803591.718, 22, 0, 4164.615, 4242.051, 4172.821, 4204.615, 4156.41, 0, 0, []
1627803591.7258, 23, 0, 4149.231, 4226.667, 4168.205, 4201.538, 4151.282, 0, 0, []
1627803591.7336, 24, 0, 4151.795, 4230.769, 4175.385, 4213.333, 4155.385, 0, 0, []
1627803591.7415, 25, 0, 4151.282, 4238.974, 4178.974, 4212.308, 4149.744, 0, 0, []
1627803591.7493, 26, 0, 4120, 4224.615, 4165.641, 4185.641, 4114.872, 0, 0, []
1627803591.7572, 27, 0, 4105.128, 4221.026, 4161.026, 4177.949, 4094.359, 0, 0, []
1627803591.7649, 28, 0, 4129.231, 4255.385, 4178.462, 4193.333, 4114.359, 0, 0, []
1627803591.7728, 29, 0, 4139.487, 4265.641, 4177.436, 4194.359, 4124.615, 0, 0, []
1627803591.7806, 30, 0, 4124.615, 4229.744, 4169.231, 4187.179, 4110.256, 0, 0, []
1627803591.7885, 31, 0, 4120, 4213.846, 4172.308, 4187.692, 4101.538, 0, 0, []
1627803591.7963, 32, 0, 4132.821, 4239.487, 4171.795, 4187.692, 4114.872, 0, 0, []
1627803591.8041, 33, 0, 4148.718, 4255.897, 4180.513, 4188.205, 4135.897, 0, 0, []
1627803591.8119, 34, 0, 4153.333, 4233.333, 4183.59, 4188.205, 4137.949, 0, 0, []
1627803591.8199, 35, 0, 4147.179, 4204.103, 4174.359, 4186.667, 4124.615, 0, 0, []
1627803591.8278, 36, 0, 4141.538, 4218.974, 4171.282, 4186.154, 4117.949, 0, 0, []
1627803591.8358, 37, 0, 4142.051, 4255.385, 4177.436, 4186.667, 4120, 0, 0, []
1627803591.8436, 38, 0, 4142.564, 4249.231, 4187.692, 4187.692, 4122.564, 0, 0, []
1627803591.8516, 39, 0, 4138.462, 4223.077, 4175.385, 4185.128, 4121.538, 0, 0, []
1627803591.8595, 40, 0, 4136.923, 4228.205, 4154.872, 4182.051, 4121.026, 0, 0, []
1627803591.8675, 41, 0, 4136.41, 4242.051, 4161.026, 4182.051, 4121.538, 0, 0, []
1627803591.8754, 42, 0, 4138.462, 4248.718, 4173.333, 4182.051, 4121.026, 0, 0, []
1627803591.8833, 43, 0, 4142.051, 4251.282, 4177.436, 4186.154, 4117.949, 0, 0, []
1627803591.8911, 44, 0, 4132.821, 4232.821, 4178.462, 4191.282, 4107.692, 0, 0, []
1627803591.8989, 45, 0, 4118.974, 4224.615, 4184.615, 4188.718, 4105.641, 0, 0, []
1627803591.9068, 46, 0, 4127.179, 4243.077, 4190.769, 4191.795, 4118.974, 0, 0, []
1627803591.9146, 47, 0, 4148.205, 4244.103, 4182.564, 4202.564, 4127.179, 0, 0, []
1627803591.9225, 48, 0, 4153.846, 4230.769, 4172.821, 4188.205, 4118.462, 0, 0, []
1627803591.9302, 49, 0, 4154.359, 4230.769, 4170.769, 4162.564, 4115.385, 0, 0, []
1627803591.9381, 50, 0, 4159.487, 4227.179, 4176.923, 4167.692, 4124.615, 0, 0, []
1627803591.9459, 51, 0, 4147.179, 4211.795, 4169.231, 4181.538, 4120.513, 0, 0, []
1627803591.9538, 52, 0, 4137.436, 4211.282, 4156.923, 4186.667, 4114.872, 0, 0, []
1627803591.9616, 53, 0, 4154.872, 4218.974, 4184.615, 4206.667, 4128.718, 0, 0, []
1627803591.9695, 54, 0, 4173.846, 4215.385, 4207.179, 4224.103, 4139.487, 0, 0, []
1627803591.9774, 55, 0, 4171.282, 4211.282, 4186.154, 4207.692, 4137.436, 0, 0, []
1627803591.9854, 56, 0, 4169.231, 4211.282, 4170.769, 4178.974, 4139.487, 0, 0, []
1627803591.9933, 57, 0, 4167.179, 4215.897, 4160, 4159.487, 4134.359, 0, 0, []
1627803592.0013, 58, 0, 4150.769, 4215.897, 4146.667, 4151.795, 4111.795, 0, 0, []
1627803592.0091, 59, 0, 4158.462, 4216.41, 4156.41, 4176.41, 4117.436, 0, 0, []
1627803592.0171, 60, 0, 4188.718, 4221.026, 4172.821, 4215.385, 4149.744, 0, 0, []
1627803592.025, 61, 0, 4187.179, 4211.795, 4177.436, 4220.513, 4155.897, 0, 0, []
1627803592.033, 62, 0, 4164.615, 4199.487, 4175.385, 4203.077, 4141.538, 0, 0, []
1627803592.0409, 63, 0, 4153.333, 4192.308, 4169.231, 4186.667, 4132.308, 0, 0, []
1627803592.0486, 64, 0, 4140.513, 4206.154, 4150.256, 4167.692, 4122.051, 450, 0, []
1627803592.0565, 65, 0, 4131.795, 4235.385, 4134.872, 4162.051, 4116.923, 450, 0, []
1627803592.0643, 66, 0, 4145.641, 4236.41, 4148.718, 4187.692, 4128.718, 16190, 0, []
1627803592.0722, 67, 0, 4164.615, 4227.692, 4163.077, 4212.308, 4145.641, 450, 0, []
1627803592.08, 68, 0, 4180, 4230.769, 4172.308, 4220.513, 4153.846, 16140, 0, []
1627803592.0878, 69, 0, 4185.641, 4222.564, 4172.308, 4221.538, 4155.385, 450, 0, []
1627803592.0956, 70, 0, 4175.897, 4213.333, 4160, 4205.128, 4151.795, 16063, 0, []
1627803592.1035, 71, 0, 4166.667, 4215.385, 4164.103, 4181.538, 4146.667, 450, 0, []
1627803592.1113, 72, 0, 4165.128, 4208.718, 4166.667, 4175.385, 4148.205, 450, 0, []
1627803592.1193, 73, 0, 4160.513, 4213.333, 4152.821, 4180.513, 4153.846, 16159, 0, []
1627803592.1271, 74, 0, 4155.385, 4230.769, 4146.154, 4183.077, 4153.333, 450, 0, []
1627803592.1351, 75, 0, 4160.513, 4217.949, 4154.872, 4190.769, 4150.256, 16196, 0, []
1627803592.143, 76, 0, 4177.436, 4209.231, 4170.769, 4202.051, 4158.974, 450, 0, []
1627803592.151, 77, 0, 4200, 4220, 4178.462, 4207.692, 4172.821, 450, 0, []
1627803592.1589, 78, 0, 4203.59, 4207.179, 4174.872, 4202.051, 4174.872, 450, 0, []
1627803592.1668, 79, 0, 4182.564, 4205.128, 4165.641, 4185.641, 4166.154, 16196, 0, []
1627803592.1747, 80, 0, 4180, 4236.41, 4163.59, 4185.641, 4165.128, 450, 0, []
1627803592.1827, 81, 0, 4197.436, 4235.897, 4172.821, 4200, 4171.282, 450, 0, []
1627803592.1906, 82, 0, 4199.487, 4207.179, 4167.179, 4193.333, 4171.282, 450, 0, []
1627803592.1986, 83, 0, 4192.821, 4222.564, 4160.513, 4174.872, 4165.128, 16196, 0, []
1627803592.2064, 84, 0, 4197.949, 4250.769, 4173.333, 4175.897, 4163.59, 450, 0, []
1627803592.2142, 85, 0, 4204.103, 4227.692, 4178.462, 4190.256, 4175.385, 450, 0, []
1627803592.2221, 86, 0, 4199.487, 4204.103, 4174.872, 4200.513, 4188.205, 450, 0, []
1627803592.2299, 87, 0, 4186.667, 4232.821, 4161.538, 4203.59, 4179.487, 16196, 0, []
1627803592.2378, 88, 0, 4171.795, 4240.513, 4139.487, 4193.846, 4161.026, 450, 0, []
1627803592.2455, 89, 0, 4163.077, 4214.872, 4136.923, 4180, 4159.487, 450, 0, []
1627803592.2534, 90, 0, 4173.333, 4233.846, 4145.641, 4172.821, 4171.795, 450, 0, []
1627803592.2612, 91, 0, 4196.41, 4256.923, 4157.949, 4176.41, 4189.744, 16196, 0, []
1627803592.2691, 92, 0, 4206.667, 4227.692, 4168.205, 4187.179, 4204.103, 450, 0, []
1627803592.2769, 93, 0, 4193.333, 4203.077, 4160.513, 4195.385, 4198.462, 450, 0, []
1627803592.2848, 94, 0, 4183.59, 4216.923, 4157.436, 4201.538, 4184.103, 450, 0, []
1627803592.2927, 95, 0, 4188.205, 4229.231, 4168.718, 4205.641, 4176.41, 16196, 0, []
1627803592.3007, 96, 0, 4186.154, 4235.897, 4176.923, 4202.051, 4170.256, 450, 0, []
1627803592.3086, 97, 0, 4171.795, 4232.308, 4162.564, 4179.487, 4157.949, 450, 0, []
1627803592.3166, 98, 0, 4162.564, 4213.333, 4142.564, 4149.231, 4146.667, 450, 0, []
1627803592.3244, 99, 0, 4171.282, 4222.051, 4152.821, 4149.744, 4152.821, 16196, 0, []
1627803592.3324, 100, 0, 4189.744, 4241.026, 4167.692, 4179.487, 4173.333, 450, 0, []
1627803592.3403, 101, 0, 4189.744, 4227.692, 4162.051, 4186.667, 4171.795, 450, 0, []
1627803592.3483, 102, 0, 4171.282, 4233.333, 4155.385, 4176.923, 4150.256, 450, 0, []
1627803592.3562, 103, 0, 4166.154, 4258.462, 4164.103, 4185.128, 4149.744, 16196, 0, []
1627803592.3639, 104, 0, 4172.308, 4247.179, 4180, 4186.667, 4156.923, 450, 0, []
1627803592.3718, 105, 0, 4167.692, 4223.077, 4166.667, 4167.692, 4148.205, 450, 0, []
1627803592.3796, 106, 0, 4164.615, 4229.744, 4153.333, 4162.051, 4146.667, 450, 0, []
1627803592.3875, 107, 0, 4176.41, 4234.359, 4170.256, 4171.282, 4160.513, 16196, 0, []
1627803592.3953, 108, 0, 4184.615, 4230.769, 4174.359, 4170.256, 4164.103, 450, 0, []
1627803592.4031, 109, 0, 4182.564, 4241.538, 4177.436, 4171.282, 4163.59, 450, 0, []
1627803592.4109, 110, 0, 4187.692, 4249.231, 4187.179, 4182.564, 4172.308, 450, 0, []
1627803592.4188, 111, 0, 4187.179, 4249.744, 4178.974, 4184.103, 4168.718, 16196, 0, []
1627803592.4266, 112, 0, 4177.436, 4249.231, 4162.564, 4182.051, 4151.795, 450, 0, []
1627803592.4346, 113, 0, 4179.487, 4264.103, 4163.077, 4188.205, 4155.385, 450, 0, []
1627803592.4424, 114, 0, 4189.744, 4281.026, 4174.359, 4186.667, 4168.205, 450, 0, []
1627803592.4504, 115, 0, 4184.103, 4254.872, 4166.154, 4172.821, 4162.564, 16196, 0, []
1627803592.4583, 116, 0, 4172.308, 4220, 4155.897, 4165.641, 4151.282, 450, 0, []
1627803592.4663, 117, 0, 4165.641, 4243.59, 4162.051, 4166.667, 4151.795, 450, 0, []
1627803592.4742, 118, 0, 4158.974, 4272.308, 4160.513, 4165.641, 4154.359, 450, 0, []
1627803592.4821, 119, 0, 4154.359, 4245.641, 4161.538, 4165.128, 4151.282, 16196, 0, []
1627803592.49, 120, 0, 4148.718, 4236.923, 4161.538, 4163.59, 4137.949, 450, 0, []
1627803592.498, 121, 0, 4147.179, 4266.667, 4150.769, 4157.436, 4120, 450, 0, []
1627803592.5059, 122, 0, 4151.282, 4262.051, 4155.385, 4159.487, 4122.564, 450, 0, []
1627803592.5138, 123, 0, 4154.872, 4230.256, 4163.59, 4174.359, 4136.923, 16196, 0, []
1627803592.5216, 124, 0, 4156.41, 4228.718, 4156.923, 4182.564, 4140.513, 450, 0, []
1627803592.5295, 125, 0, 4154.872, 4240, 4147.179, 4172.308, 4135.897, 450, 0, []
1627803592.5374, 126, 0, 4151.795, 4244.103, 4148.205, 4163.077, 4137.436, 450, 0, []
1627803592.5452, 127, 0, 4156.41, 4250.256, 4156.923, 4170.256, 4146.154, 16196, 0, []
1627803592.5531, 128, 0, 4167.179, 4242.051, 4162.051, 4188.205, 4154.359, 450, 0, []
1627803592.5608, 0, 0, 4171.795, 4230.769, 4174.872, 4203.077, 4160, 450, 0, []
1627803592.5687, 1, 0, 4171.795, 4249.744, 4179.487, 4204.615, 4161.538, 450, 0, []
1627803592.5765, 2, 0, 4177.949, 4270.769, 4174.359, 4201.538, 4167.692, 16189, 0, []
1627803592.5845, 3, 0, 4185.641, 4251.282, 4184.103, 4204.615, 4180, 450, 0, []
1627803592.5924, 4, 0, 4189.231, 4227.692, 4186.154, 4205.641, 4184.103, 16140, 0, []
1627803592.6003, 5, 0, 4189.744, 4236.923, 4176.41, 4201.026, 4176.923, 450, 0, []
1627803592.6082, 6, 0, 4175.897, 4246.154, 4163.077, 4188.718, 4165.641, 303, 0, []
1627803592.6162, 7, 0, 4170.256, 4248.718, 4154.872, 4183.077, 4171.282, 450, 0, []
1627803592.6241, 8, 0, 4188.718, 4250.769, 4178.462, 4201.026, 4188.205, 450, 0, []
1627803592.6321, 9, 0, 4196.923, 4238.462, 4195.385, 4215.897, 4195.385, 16159, 0, []
1627803592.64, 10, 0, 4183.59, 4234.359, 4183.59, 4206.667, 4196.923, 450, 0, []
1627803592.6479, 11, 0, 4179.487, 4247.179, 4170.769, 4197.949, 4196.923, 16196, 0, []
1627803592.6558, 12, 0, 4185.641, 4237.436, 4165.641, 4200, 4192.821, 450, 0, []
1627803592.6638, 13, 0, 4186.667, 4219.487, 4165.641, 4203.59, 4191.282, 450, 0, []
1627803592.6717, 14, 0, 4194.872, 4244.103, 4174.359, 4215.385, 4204.103, 450, 0, []
1627803592.6795, 15, 0, 4202.564, 4275.897, 4190.769, 4222.051, 4209.744, 16196, 0, []
1627803592.6873, 16, 0, 4190.256, 4262.564, 4197.436, 4205.641, 4189.744, 0, 0, []
1627803592.6951, 17, 0, 4172.308, 4240.513, 4178.462, 4185.128, 4168.205, 0, 0, []
1627803592.703, 18, 0, 4164.615, 4233.846, 4171.795, 4184.103, 4164.615, 0, 0, []
1627803592.7108, 19, 0, 4168.718, 4218.974, 4179.487, 4187.692, 4166.154, 0, 0, []
1627803592.7187, 20, 0, 4172.821, 4201.538, 4173.333, 4182.051, 4163.59, 0, 0, []
1627803592.7264, 21, 0, 4168.718, 4208.718, 4165.641, 4183.077, 4166.667, 0, 0, []
1627803592.7343, 22, 0, 4167.692, 4228.718, 4165.641, 4196.923, 4172.308, 0, 0, []
1627803592.7421, 23, 0, 4178.462, 4245.641, 4171.282, 4203.59, 4174.359, 0, 0, []
1627803592.7501, 24, 0, 4180, 4253.333, 4168.205, 4194.359, 4173.333, 0, 0, []
1627803592.758, 25, 0, 4162.564, 4238.974, 4150.769, 4173.846, 4155.385, 0, 0, []
1627803592.7659, 26, 0, 4155.385, 4212.308, 4152.308, 4164.103, 4144.103, 0, 0, []
1627803592.7738, 27, 0, 4171.282, 4210.256, 4166.154, 4177.949, 4158.974, 0, 0, []
1627803592.7818, 28, 0, 4183.077, 4232.308, 4174.872, 4190.769, 4172.308, 0, 0, []
1627803592.7897, 29, 0, 4185.641, 4231.795, 4184.615, 4191.795, 4177.949, 0, 0, []
1627803592.7977, 30, 0, 4183.59, 4216.923, 4189.231, 4187.692, 4182.564, 0, 0, []
1627803592.8055, 31, 0, 4169.231, 4224.615, 4179.487, 4177.436, 4172.821, 0, 0, []
1627803592.8135, 32, 0, 4158.462, 4225.128, 4157.436, 4162.051, 4159.487, 0, 0, []
1627803592.8214, 33, 0, 4165.128, 4214.359, 4152.308, 4157.436, 4164.103, 0, 0, []
1627803592.8292, 34, 0, 4168.205, 4221.538, 4162.051, 4163.077, 4167.692, 0, 0, []
1627803592.8371, 35, 0, 4169.231, 4215.897, 4170.256, 4174.359, 4168.205, 0, 0, []
1627803592.8448, 36, 0, 4187.179, 4204.615, 4185.641, 4189.744, 4184.615, 0, 0, []
1627803592.8527, 37, 0, 4204.103, 4227.692, 4187.692, 4196.923, 4203.59, 0, 0, []
1627803592.8605, 38, 0, 4203.077, 4239.487, 4177.949, 4197.949, 4208.205, 0, 0, []
1627803592.8684, 39, 0, 4187.179, 4225.641, 4171.795, 4186.667, 4195.897, 0, 0, []
1627803592.8762, 40, 0, 4172.308, 4221.026, 4170.256, 4168.718, 4181.538, 0, 0, []
1627803592.884, 41, 0, 4172.821, 4217.949, 4176.41, 4170.256, 4179.487, 0, 0, []
1627803592.8918, 42, 0, 4176.41, 4216.923, 4175.897, 4182.051, 4183.59, 0, 0, []
1627803592.8998, 43, 0, 4177.949, 4228.718, 4183.077, 4191.795, 4184.103, 0, 0, []
1627803592.9077, 44, 0, 4182.564, 4233.846, 4198.974, 4202.051, 4190.256, 0, 0, []
1627803592.9157, 45, 0, 4187.179, 4231.795, 4193.333, 4202.564, 4200, 0, 0, []
1627803592.9235, 46, 0, 4189.231, 4231.282, 4183.077, 4194.359, 4199.487, 0, 0, []
1627803592.9315, 47, 0, 4195.897, 4240.513, 4181.026, 4196.41, 4200.513, 0, 0, []
1627803592.9394, 48, 0, 4192.308, 4253.333, 4184.103, 4193.846, 4202.051, 0, 0, []
1627803592.9474, 49, 0, 4163.59, 4237.949, 4178.974, 4174.872, 4180, 0, 0, []
1627803592.9553, 50, 0, 4147.692, 4219.487, 4164.103, 4168.205, 4158.462, 0, 0, []
1627803592.9632, 51, 0, 4169.744, 4212.821, 4168.205, 4172.308, 4164.103, 0, 0, []
1627803592.9711, 52, 0, 4204.103, 4216.41, 4184.103, 4176.41, 4182.051, 0, 0, []
1627803592.9789, 53, 0, 4222.564, 4234.359, 4187.179, 4187.179, 4196.923, 0, 0, []
1627803592.9868, 54, 0, 4224.103, 4236.41, 4179.487, 4186.154, 4193.846, 0, 0, []
1627803592.9946, 55, 0, 4218.462, 4228.718, 4168.205, 4171.795, 4177.949, 0, 0, []
1627803593.0024, 56, 0, 4209.231, 4227.692, 4171.795, 4167.692, 4173.846, 0, 0, []
1627803593.0102, 57, 0, 4201.026, 4226.154, 4175.385, 4170.769, 4175.385, 0, 0, []
1627803593.0181, 58, 0, 4202.051, 4232.308, 4167.692, 4165.641, 4168.718, 0, 0, []
1627803593.0259, 59, 0, 4208.718, 4248.205, 4172.308, 4164.615, 4171.795, 0, 0, []
1627803593.0338, 60, 0, 4216.923, 4240.513, 4185.641, 4177.949, 4189.231, 0, 0, []
1627803593.0415, 61, 0, 4220, 4225.128, 4192.308, 4181.538, 4187.692, 0, 0, []
1627803593.0494, 62, 0, 4211.282, 4233.333, 4181.026, 4162.564, 4171.795, 0, 0, []
1627803593.0572, 63, 0, 4200, 4230.256, 4164.615, 4148.718, 4165.128, 0, 0, []
1627803593.0652, 64, 0, 4198.974, 4208.205, 4172.308, 4151.795, 4166.667, 450, 0, []
1627803593.0731, 65, 0, 4202.564, 4195.385, 4173.333, 4155.897, 4166.154, 450, 0, []
1627803593.081, 66, 0, 4197.949, 4212.308, 4158.462, 4158.974, 4167.179, 16189, 0, []
1627803593.0889, 67, 0, 4194.872, 4238.974, 4158.974, 4164.615, 4173.333, 450, 0, []
1627803593.0969, 68, 0, 4208.205, 4234.872, 4180.513, 4175.385, 4185.641, 16140, 0, []
1627803593.1048, 69, 0, 4228.718, 4229.231, 4202.051, 4195.385, 4204.103, 450, 0, []
1627803593.1128, 70, 0, 4232.821, 4240, 4191.282, 4201.026, 4211.282, 304, 0, []
1627803593.1206, 71, 0, 4222.051, 4224.615, 4174.359, 4186.154, 4201.538, 450, 0, []
1627803593.1286, 72, 0, 4223.077, 4205.641, 4184.103, 4180, 4200, 450, 0, []
1627803593.1365, 73, 0, 4235.897, 4231.282, 4194.359, 4188.205, 4206.667, 16163, 0, []
1627803593.1443, 74, 0, 4236.41, 4248.718, 4196.923, 4187.179, 4204.615, 450, 0, []
1627803593.1522, 75, 0, 4227.179, 4225.128, 4191.795, 4178.462, 4196.41, 16203, 0, []
1627803593.1599, 76, 0, 4220.513, 4211.795, 4185.128, 4171.282, 4189.231, 450, 0, []
1627803593.1678, 77, 0, 4213.846, 4211.282, 4182.564, 4167.692, 4184.103, 450, 0, []
1627803593.1756, 78, 0, 4207.179, 4211.282, 4177.436, 4163.59, 4181.026, 450, 0, []
1627803593.1835, 79, 0, 4194.872, 4215.897, 4179.487, 4156.41, 4166.667, 16203, 0, []
1627803593.1913, 80, 0, 4188.205, 4205.128, 4185.128, 4156.923, 4162.051, 450, 0, []
1627803593.1991, 81, 0, 4203.59, 4195.897, 4188.205, 4171.795, 4196.923, 450, 0, []
1627803593.2069, 82, 0, 4224.103, 4220.513, 4186.667, 4189.744, 4235.897, 450, 0, []
1627803593.2149, 83, 0, 4219.487, 4224.103, 4164.615, 4185.641, 4232.821, 16203, 0, []
1627803593.2228, 84, 0, 4200, 4191.795, 4145.641, 4169.744, 4211.795, 450, 0, []
1627803593.2308, 85, 0, 4205.641, 4202.564, 4159.487, 4185.128, 4218.462, 450, 0, []
1627803593.2386, 86, 0, 4232.821, 4225.128, 4190.769, 4216.923, 4243.077, 450, 0, []
1627803593.2466, 87, 0, 4236.923, 4207.692, 4203.59, 4209.744, 4247.179, 16203, 0, []
1627803593.2545, 88, 0, 4220, 4208.718, 4192.821, 4177.949, 4230.769, 450, 0, []
1627803593.2625, 89, 0, 4212.821, 4217.436, 4189.744, 4166.667, 4211.282, 450, 0, []
1627803593.2704, 90, 0, 4210.256, 4197.436, 4182.564, 4173.333, 4196.41, 450, 0, []
1627803593.2783, 91, 0, 4212.821, 4212.821, 4180.513, 4194.359, 4201.538, 16203, 0, []
1627803593.2862, 92, 0, 4227.179, 4261.026, 4196.41, 4220, 4218.974, 450, 0, []
1627803593.294, 93, 0, 4227.179, 4238.462, 4192.821, 4223.59, 4221.538, 450, 0, []
1627803593.3019, 94, 0, 4216.923, 4188.718, 4190.769, 4206.667, 4216.41, 450, 0, []
1627803593.3097, 95, 0, 4218.462, 4200.513, 4199.487, 4188.718, 4217.949, 16203, 0, []
1627803593.3175, 96, 0, 4223.077, 4231.795, 4193.846, 4175.385, 4217.949, 450, 0, []
1627803593.3253, 97, 0, 4218.974, 4230.256, 4192.821, 4162.564, 4210.769, 450, 0, []
1627803593.3332, 98, 0, 4212.821, 4218.462, 4189.231, 4154.359, 4203.077, 450, 0, []
1627803593.341, 99, 0, 4207.692, 4227.692, 4176.923, 4163.077, 4201.538, 16203, 0, []
1627803593.3489, 100, 0, 4202.564, 4231.795, 4176.41, 4182.564, 4198.462, 450, 0, []
1627803593.3566, 101, 0, 4197.949, 4210.769, 4176.923, 4188.718, 4193.846, 450, 0, []
1627803593.3646, 102, 0, 4200, 4197.949, 4174.872, 4186.154, 4197.949, 450, 0, []
1627803593.3725, 103, 0, 4212.821, 4216.923, 4177.436, 4184.615, 4206.667, 16203, 0, []
1627803593.3805, 104, 0, 4221.538, 4230.769, 4186.154, 4171.282, 4204.103, 450, 0, []
1627803593.3884, 105, 0, 4214.359, 4222.564, 4187.692, 4155.385, 4194.872, 450, 0, []
1627803593.3964, 106, 0, 4203.077, 4221.026, 4173.846, 4142.051, 4185.641, 450, 0, []
1627803593.4042, 107, 0, 4203.59, 4218.974, 4169.231, 4137.436, 4180.513, 16203, 0, []
1627803593.4122, 108, 0, 4217.949, 4220, 4173.846, 4159.487, 4195.385, 450, 0, []
1627803593.4201, 109, 0, 4224.615, 4240.513, 4175.897, 4175.385, 4206.667, 450, 0, []
1627803593.4281, 110, 0, 4214.359, 4254.359, 4171.282, 4158.974, 4191.795, 450, 0, []
1627803593.436, 111, 0, 4210.769, 4236.923, 4168.718, 4151.795, 4187.179, 16203, 0, []
1627803593.4437, 112, 0, 4217.949, 4217.436, 4180, 4157.949, 4200, 450, 0, []
1627803593.4516, 113, 0, 4216.923, 4230.256, 4173.846, 4149.231, 4191.795, 450, 0, []
1627803593.4594, 114, 0, 4213.333, 4249.744, 4164.103, 4144.103, 4177.949, 450, 0, []
1627803593.4673, 115, 0, 4219.487, 4250.256, 4178.462, 4163.59, 4191.795, 16203, 0, []
1627803593.4751, 116, 0, 4231.282, 4233.333, 4186.154, 4186.154, 4209.231, 450, 0, []
1627803593.4829, 117, 0, 4230.256, 4229.231, 4182.051, 4187.692, 4206.667, 450, 0, []
1627803593.4907, 118, 0, 4217.949, 4250.769, 4181.026, 4173.333, 4199.487, 450, 0, []
1627803593.4986, 119, 0, 4214.872, 4254.359, 4182.564, 4166.667, 4198.462, 16203, 0, []
1627803593.5064, 120, 0, 4226.667, 4233.846, 4184.615, 4172.308, 4205.128, 450, 0, []
1627803593.5143, 121, 0, 4224.615, 4235.385, 4176.41, 4171.282, 4204.103, 450, 0, []
1627803593.5221, 122, 0, 4203.59, 4251.795, 4166.667, 4164.615, 4185.641, 450, 0, []
1627803593.53, 123, 0, 4202.564, 4249.744, 4167.692, 4175.897, 4183.59, 16203, 0, []
1627803593.5378, 124, 0, 4229.231, 4253.846, 4183.077, 4197.949, 4212.308, 450, 0, []
1627803593.5458, 125, 0, 4235.385, 4260.513, 4192.821, 4198.974, 4220, 450, 0, []
1627803593.5537, 126, 0, 4212.308, 4236.923, 4172.308, 4178.462, 4194.359, 450, 0, []
1627803593.5616, 127, 0, 4206.154, 4219.487, 4162.051, 4169.744, 4186.154, 16203, 0, []
1627803593.5695, 128, 0, 4213.846, 4232.308, 4173.846, 4171.795, 4195.385, 450, 0, []
1627803593.5775, 0, 0, 4213.333, 4248.205, 4180, 4165.641, 4190.769, 450, 0, []
1627803593.5854, 1, 0, 4213.846, 4248.205, 4183.077, 4164.615, 4185.128, 450, 0, []
1627803593.5934, 2, 0, 4214.359, 4244.103, 4177.436, 4169.744, 4186.667, 16189, 0, []
1627803593.6012, 3, 0, 4212.308, 4249.744, 4174.359, 4172.821, 4191.282, 450, 0, []
1627803593.609, 4, 0, 4211.795, 4256.923, 4177.436, 4175.897, 4200, 16140, 0, []
1627803593.6169, 5, 0, 4205.128, 4240, 4170.256, 4176.41, 4197.436, 450, 0, []
1627803593.6247, 6, 0, 4200, 4215.897, 4169.744, 4174.359, 4186.154, 304, 0, []
1627803593.6326, 7, 0, 4196.923, 4208.718, 4161.026, 4162.564, 4181.538, 450, 0, []
1627803593.6403, 8, 0, 4192.821, 4208.718, 4149.231, 4154.872, 4185.641, 450, 0, []
1627803593.6482, 9, 0, 4212.821, 4240.513, 4166.667, 4180.513, 4204.103, 16163, 0, []
1627803593.656, 10, 0, 4236.41, 4266.667, 4187.179, 4207.179, 4224.103, 450, 0, []
1627803593.6639, 11, 0, 4225.128, 4238.462, 4187.179, 4192.308, 4218.462, 16202, 0, []
1627803593.6717, 12, 0, 4207.179, 4208.718, 4173.333, 4167.692, 4196.923, 450, 0, []
1627803593.6795, 13, 0, 4203.59, 4222.051, 4168.718, 4167.179, 4186.154, 450, 0, []
1627803593.6873, 14, 0, 4200.513, 4246.154, 4176.41, 4171.795, 4185.641, 450, 0, []
1627803593.6953, 15, 0, 4197.949, 4244.615, 4174.359, 4168.718, 4186.667, 16202, 0, []
1627803593.7032, 16, 0, 4202.051, 4227.692, 4174.359, 4168.718, 4192.821, 0, 0, []
1627803593.7112, 17, 0, 4208.718, 4230.769, 4180, 4178.462, 4199.487, 0, 0, []
1627803593.719, 18, 0, 4217.949, 4251.795, 4184.615, 4188.718, 4202.564, 0, 0, []
1627803593.727, 19, 0, 4227.179, 4250.256, 4188.718, 4189.231, 4211.282, 0, 0, []
1627803593.7349, 20, 0, 4231.282, 4235.897, 4188.718, 4186.154, 4216.41, 0, 0, []
1627803593.7429, 21, 0, 4227.179, 4245.641, 4190.256, 4187.179, 4207.692, 0, 0, []
1627803593.7508, 22, 0, 4213.333, 4251.282, 4183.077, 4182.564, 4195.897, 0, 0, []
1627803593.7586, 23, 0, 4210.769, 4240, 4185.641, 4181.026, 4196.923, 0, 0, []
1627803593.7665, 24, 0, 4224.103, 4249.231, 4203.59, 4194.872, 4208.718, 0, 0, []
1627803593.7743, 25, 0, 4227.692, 4255.897, 4198.462, 4203.59, 4217.949, 0, 0, []
1627803593.7822, 26, 0, 4216.923, 4235.897, 4190.256, 4198.462, 4212.821, 0, 0, []
1627803593.79, 27, 0, 4213.846, 4233.333, 4195.385, 4194.872, 4203.077, 0, 0, []
1627803593.7978, 28, 0, 4218.462, 4255.897, 4192.308, 4194.872, 4201.538, 0, 0, []
1627803593.8056, 29, 0, 4207.179, 4254.872, 4179.487, 4182.051, 4189.744, 0, 0, []
1627803593.8135, 30, 0, 4194.359, 4232.821, 4173.846, 4171.795, 4177.949, 0, 0, []
1627803593.8213, 31, 0, 4198.974, 4237.436, 4186.154, 4188.205, 4187.179, 0, 0, []
1627803593.8293, 32, 0, 4205.641, 4253.846, 4187.179, 4203.59, 4200.513, 0, 0, []
1627803593.8371, 33, 0, 4211.282, 4248.205, 4175.897, 4193.333, 4204.615, 0, 0, []
1627803593.8451, 34, 0, 4213.846, 4237.949, 4178.462, 4184.103, 4199.487, 0, 0, []
1627803593.853, 35, 0, 4207.692, 4233.846, 4182.051, 4191.282, 4194.872, 0, 0, []
1627803593.861, 36, 0, 4200.513, 4223.077, 4187.179, 4189.231, 4192.821, 0, 0, []
1627803593.8689, 37, 0, 4209.231, 4228.205, 4192.308, 4181.538, 4195.897, 0, 0, []
1627803593.8768, 38, 0, 4223.077, 4252.821, 4183.077, 4188.718, 4205.128, 0, 0, []
1627803593.8847, 39, 0, 4206.667, 4237.436, 4178.974, 4185.641, 4195.385, 0, 0, []
1627803593.8927, 40, 0, 4183.59, 4206.667, 4184.615, 4174.359, 4172.821, 0, 0, []
1627803593.9006, 41, 0, 4212.308, 4235.897, 4195.385, 4189.744, 4187.179, 0, 0, []
1627803593.9084, 42, 0, 4257.949, 4280, 4205.641, 4208.205, 4214.872, 0, 0, []
1627803593.9162, 43, 0, 4251.795, 4260.513, 4193.333, 4186.154, 4191.282, 0, 0, []
1627803593.924, 44, 0, 4224.615, 4233.333, 4170.256, 4154.872, 4159.487, 0, 0, []
1627803593.9319, 45, 0, 4234.359, 4234.359, 4161.026, 4163.59, 4174.359, 0, 0, []
1627803593.9397, 46, 0, 4252.308, 4238.462, 4178.462, 4189.231, 4193.846, 0, 0, []
1627803593.9476, 47, 0, 4241.538, 4242.051, 4192.308, 4190.256, 4185.641, 0, 0, []
1627803593.9553, 48, 0, 4222.564, 4239.487, 4177.949, 4168.718, 4172.308, 0, 0, []
1627803593.9632, 49, 0, 4212.821, 4222.051, 4177.436, 4156.41, 4167.179, 0, 0, []
1627803593.971, 50, 0, 4211.795, 4211.795, 4189.744, 4161.538, 4168.718, 0, 0, []
1627803593.9789, 51, 0, 4218.462, 4221.538, 4194.359, 4171.282, 4173.333, 0, 0, []
1627803593.9867, 52, 0, 4222.564, 4224.615, 4195.897, 4177.949, 4173.333, 0, 0, []
1627803593.9946, 53, 0, 4213.846, 4225.128, 4184.103, 4174.872, 4168.205, 0, 0, []
1627803594.0025, 54, 0, 4201.538, 4221.026, 4175.385, 4169.231, 4165.641, 0, 0, []
1627803594.0105, 55, 0, 4196.41, 4212.308, 4177.949, 4166.667, 4164.615, 0, 0, []
1627803594.0184, 56, 0, 4205.128, 4224.615, 4185.128, 4169.744, 4172.821, 0, 0, []
1627803594.0264, 57, 0, 4215.897, 4229.744, 4184.103, 4171.795, 4178.974, 0, 0, []
1627803594.0342, 58, 0, 4217.949, 4218.462, 4173.333, 4174.359, 4176.923, 0, 0, []
1627803594.0422, 59, 0, 4218.974, 4215.385, 4178.462, 4181.026, 4175.897, 0, 0, []
1627803594.0501, 60, 0, 4213.846, 4224.103, 4182.564, 4181.026, 4174.359, 0, 0, []
1627803594.058, 61, 0, 4206.154, 4219.487, 4172.821, 4171.795, 4167.179, 0, 0, []
1627803594.0659, 62, 0, 4207.179, 4197.949, 4180.513, 4165.641, 4163.59, 0, 0, []
1627803594.0736, 63, 0, 4222.051, 4196.41, 4203.077, 4176.41, 4175.897, 0, 0, []
1627803594.0815, 64, 0, 4220.513, 4219.487, 4198.462, 4169.231, 4172.308, 450, 0, []
1627803594.0893, 65, 0, 4196.923, 4228.205, 4174.872, 4140.513, 4146.667, 450, 0, []
1627803594.0972, 66, 0, 4201.026, 4220, 4184.615, 4146.667, 4152.821, 16189, 0, []
1627803594.105, 67, 0, 4218.462, 4219.487, 4207.179, 4174.872, 4175.897, 450, 0, []
1627803594.1129, 68, 0, 4211.795, 4212.821, 4189.744, 4175.897, 4175.385, 16140, 0, []
1627803594.1206, 69, 0, 4205.128, 4197.436, 4181.538, 4170.256, 4174.359, 450, 0, []
1627803594.1285, 70, 0, 4205.641, 4197.436, 4189.744, 4167.692, 4174.359, 304, 0, []
1627803594.1363, 71, 0, 4206.667, 4209.231, 4175.385, 4158.974, 4167.179, 450, 0, []
1627803594.1443, 72, 0, 4229.744, 4209.231, 4178.462, 4175.897, 4188.718, 450, 0, []
1627803594.1522, 73, 0, 4245.641, 4200.513, 4193.846, 4190.769, 4210.256, 16163, 0, []
1627803594.1601, 74, 0, 4232.821, 4214.359, 4197.436, 4175.897, 4194.872, 450, 0, []
1627803594.168, 75, 0, 4229.231, 4231.282, 4197.949, 4172.308, 4185.128, 16202, 0, []
1627803594.176, 76, 0, 4226.667, 4217.949, 4186.667, 4175.385, 4184.103, 450, 0, []
1627803594.1839, 77, 0, 4211.282, 4207.179, 4186.154, 4172.308, 4176.923, 450, 0, []
1627803594.1919, 78, 0, 4214.872, 4204.615, 4195.897, 4174.872, 4180.513, 450, 0, []
1627803594.1997, 79, 0, 4217.949, 4205.641, 4186.667, 4167.692, 4181.538, 16202, 0, []
1627803594.2077, 80, 0, 4210.769, 4223.59, 4175.897, 4158.462, 4178.462, 450, 0, []
1627803594.2156, 81, 0, 4226.154, 4228.205, 4187.179, 4176.923, 4198.462, 450, 0, []
1627803594.2236, 82, 0, 4240.513, 4208.718, 4201.026, 4190.769, 4213.333, 450, 0, []
1627803594.2315, 83, 0, 4227.179, 4210.256, 4193.333, 4179.487, 4201.538, 16202, 0, []
1627803594.2392, 84, 0, 4223.077, 4214.359, 4192.308, 4180, 4197.436, 450, 0, []
1627803594.2471, 85, 0, 4235.385, 4209.231, 4199.487, 4190.256, 4206.667, 450, 0, []
1627803594.2549, 86, 0, 4225.641, 4218.462, 4183.59, 4174.359, 4194.872, 450, 0, []
1627803594.2628, 87, 0, 4210.769, 4216.41, 4175.385, 4151.795, 4175.385, 16202, 0, []
1627803594.2706, 88, 0, 4225.641, 4221.538, 4187.692, 4165.641, 4189.744, 450, 0, []
1627803594.2784, 89, 0, 4229.744, 4236.41, 4182.051, 4176.41, 4197.949, 450, 0, []
1627803594.2862, 90, 0, 4201.026, 4210.256, 4168.718, 4157.436, 4165.641, 450, 0, []
1627803594.2941, 91, 0, 4195.385, 4189.744, 4171.282, 4162.564, 4160, 16202, 0, []
1627803594.3019, 92, 0, 4218.974, 4223.077, 4187.692, 4191.282, 4193.846, 450, 0, []
1627803594.3099, 93, 0, 4220, 4234.359, 4186.667, 4183.59, 4198.974, 450, 0, []
1627803594.3177, 94, 0, 4211.795, 4218.974, 4176.41, 4162.564, 4186.154, 450, 0, []
1627803594.3257, 95, 0, 4227.179, 4243.59, 4185.128, 4169.744, 4197.949, 16202, 0, []
1627803594.3336, 96, 0, 4234.872, 4256.41, 4194.359, 4178.462, 4208.718, 450, 0, []
1627803594.3416, 97, 0, 4224.103, 4227.692, 4202.051, 4174.872, 4201.538, 450, 0, []
1627803594.3495, 98, 0, 4224.615, 4221.538, 4204.615, 4183.077, 4202.051, 450, 0, []
1627803594.3574, 99, 0, 4229.231, 4237.949, 4200, 4189.744, 4206.667, 16202, 0, []
1627803594.3653, 100, 0, 4217.949, 4238.462, 4194.359, 4171.282, 4191.795, 450, 0, []
1627803594.3733, 101, 0, 4209.744, 4243.59, 4184.103, 4155.385, 4179.487, 450, 0, []
1627803594.3812, 102, 0, 4216.41, 4248.718, 4184.103, 4166.667, 4188.205, 450, 0, []
1627803594.389, 103, 0, 4218.974, 4235.385, 4186.154, 4177.436, 4192.821, 16202, 0, []
1627803594.3968, 104, 0, 4207.692, 4223.077, 4178.462, 4168.205, 4176.923, 450, 0, []
1627803594.4046, 105, 0, 4193.333, 4225.128, 4181.538, 4161.538, 4164.615, 450, 0, []
1627803594.4125, 106, 0, 4203.59, 4235.897, 4190.769, 4174.872, 4181.538, 450, 0, []
1627803594.4203, 107, 0, 4219.487, 4244.103, 4192.821, 4184.615, 4201.026, 16202, 0, []
1627803594.4282, 108, 0, 4204.103, 4230.769, 4183.077, 4167.692, 4190.256, 450, 0, []
1627803594.4359, 109, 0, 4197.949, 4218.974, 4171.282, 4153.333, 4183.59, 450, 0, []
1627803594.4438, 110, 0, 4218.462, 4236.923, 4178.462, 4166.667, 4203.59, 450, 0, []
1627803594.4516, 111, 0, 4215.897, 4241.538, 4186.154, 4178.974, 4208.718, 16202, 0, []
1627803594.4595, 112, 0, 4201.026, 4222.051, 4187.692, 4177.949, 4197.436, 450, 0, []
1627803594.4673, 113, 0, 4220, 4224.103, 4200, 4185.641, 4210.256, 450, 0, []
1627803594.4752, 114, 0, 4237.949, 4236.923, 4198.974, 4185.128, 4221.026, 450, 0, []
1627803594.4831, 115, 0, 4229.231, 4246.154, 4190.769, 4171.795, 4204.615, 16202, 0, []
1627803594.4911, 116, 0, 4223.077, 4244.103, 4188.205, 4169.744, 4195.897, 450, 0, []
1627803594.499, 117, 0, 4221.538, 4236.923, 4190.256, 4177.436, 4203.077, 450, 0, []
1627803594.507, 118, 0, 4216.41, 4233.333, 4186.667, 4174.359, 4204.103, 450, 0, []
1627803594.5148, 119, 0, 4214.872, 4237.436, 4170.256, 4166.154, 4195.385, 16202, 0, []
1627803594.5228, 120, 0, 4226.667, 4245.641, 4181.538, 4175.385, 4201.538, 450, 0, []
1627803594.5307, 121, 0, 4237.949, 4247.692, 4202.051, 4188.718, 4217.436, 450, 0, []
1627803594.5387, 122, 0, 4238.974, 4233.846, 4194.872, 4186.154, 4222.051, 450, 0, []
1627803594.5466, 123, 0, 4231.282, 4228.205, 4182.564, 4181.538, 4214.872, 16202, 0, []
1627803594.5543, 124, 0, 4218.462, 4249.231, 4169.744, 4178.974, 4205.128, 450, 0, []
1627803594.5622, 125, 0, 4212.821, 4249.231, 4171.795, 4174.359, 4198.462, 450, 0, []
1627803594.57, 126, 0, 4215.385, 4231.795, 4187.692, 4173.846, 4198.462, 450, 0, []
1627803594.5779, 127, 0, 4210.256, 4229.744, 4185.128, 4173.846, 4201.538, 16202, 0, []
1627803594.5857, 128, 0, 4201.026, 4220.513, 4172.821, 4164.103, 4194.359, 450, 0, []
1627803594.5935, 0, 0, 4213.846, 4212.308, 4177.949, 4166.154, 4201.538, 450, 0, []
1627803594.6013, 1, 0, 4227.692, 4225.641, 4185.128, 4181.538, 4218.974, 450, 0, []
1627803594.6093, 2, 0, 4221.026, 4247.692, 4171.795, 4184.615, 4214.872, 16188, 0, []
1627803594.6172, 3, 0, 4217.436, 4248.205, 4174.359, 4177.949, 4202.564, 450, 0, []
1627803594.6252, 4, 0, 4218.974, 4217.949, 4197.949, 4178.974, 4196.41, 16141, 0, []
1627803594.633, 5, 0, 4213.333, 4205.128, 4184.103, 4180.513, 4187.692, 450, 0, []
1627803594.641, 6, 0, 4210.256, 4231.282, 4164.615, 4177.949, 4185.128, 300, 0, []
1627803594.6489, 7, 0, 4215.385, 4244.103, 4180, 4186.154, 4199.487, 450, 0, []
1627803594.6569, 8, 0, 4214.359, 4231.282, 4194.359, 4198.974, 4207.179, 450, 0, []
1627803594.6648, 9, 0, 4206.154, 4224.103, 4191.282, 4195.897, 4195.897, 16163, 0, []
1627803594.6727, 10, 0, 4198.462, 4218.974, 4177.949, 4180, 4181.026, 450, 0, []
1627803594.6806, 11, 0, 4187.179, 4214.872, 4166.154, 4162.051, 4169.231, 16202, 0, []
1627803594.6886, 12, 0, 4188.718, 4222.564, 4168.205, 4162.051, 4171.282, 450, 0, []
1627803594.6965, 13, 0, 4210.769, 4227.179, 4171.795, 4182.564, 4191.282, 450, 0, []
1627803594.7043, 14, 0, 4225.641, 4244.615, 4172.308, 4192.308, 4209.231, 450, 0, []
1627803594.7121, 15, 0, 4218.974, 4260.513, 4165.128, 4183.59, 4201.026, 16202, 0, []
1627803594.7199, 16, 0, 4210.769, 4233.333, 4166.667, 4181.026, 4181.538, 0, 0, []
1627803594.7278, 17, 0, 4217.949, 4232.821, 4183.59, 4191.795, 4188.718, 0, 0, []
1627803594.7356, 18, 0, 4221.026, 4256.923, 4178.974, 4190.769, 4199.487, 0, 0, []
1627803594.7435, 19, 0, 4203.077, 4226.667, 4165.641, 4173.333, 4184.615, 0, 0, []
1627803594.7512, 20, 0, 4191.282, 4207.179, 4173.333, 4173.333, 4176.923, 0, 0, []
1627803594.7591, 21, 0, 4213.333, 4247.179, 4195.385, 4193.846, 4200, 0, 0, []
1627803594.7669, 22, 0, 4237.949, 4257.436, 4204.103, 4209.744, 4220.513, 0, 0, []
1627803594.7749, 23, 0, 4237.436, 4236.923, 4187.692, 4214.872, 4218.974, 0, 0, []
1627803594.7828, 24, 0, 4233.333, 4248.718, 4170.769, 4212.821, 4216.923, 0, 0, []
1627803594.7907, 25, 0, 4228.205, 4251.795, 4161.538, 4198.974, 4213.846, 0, 0, []
1627803594.7986, 26, 0, 4213.846, 4236.41, 4172.308, 4184.103, 4203.59, 0, 0, []
1627803594.8066, 27, 0, 4208.718, 4248.205, 4196.41, 4183.077, 4197.949, 0, 0, []
1627803594.8145, 28, 0, 4225.128, 4252.308, 4194.872, 4187.692, 4209.231, 0, 0, []
1627803594.8225, 29, 0, 4256.923, 4228.718, 4188.205, 4205.128, 4237.436, 0, 0, []
1627803594.8303, 30, 0, 4304.615, 4236.923, 4186.667, 4223.077, 4274.872, 0, 0, []
1627803594.8383, 31, 0, 4372.308, 4266.154, 4185.128, 4223.59, 4326.667, 0, 0, []
1627803594.8462, 32, 0, 4449.231, 4260.513, 4194.359, 4217.949, 4398.974, 0, 0, []
1627803594.8541, 33, 0, 4516.923, 4247.179, 4196.923, 4214.872, 4471.795, 0, 0, []
1627803594.862, 34, 0, 4560, 4267.179, 4189.744, 4203.59, 4511.282, 0, 0, []
1627803594.8698, 35, 0, 4570.256, 4271.795, 4181.538, 4186.154, 4517.436, 0, 0, []
1627803594.8776, 36, 0, 4555.897, 4240, 4178.462, 4182.564, 4515.385, 0, 0, []
1627803594.8854, 37, 0, 4531.795, 4224.103, 4191.282, 4195.385, 4506.154, 0, 0, []
1627803594.8933, 38, 0, 4509.231, 4240.513, 4202.564, 4215.897, 4488.205, 0, 0, []
1627803594.9011, 39, 0, 4478.462, 4263.59, 4199.487, 4222.051, 4458.974, 0, 0, []
1627803594.909, 40, 0, 4430.769, 4261.538, 4178.974, 4203.077, 4416.923, 0, 0, []
1627803594.9167, 41, 0, 4392.821, 4225.641, 4161.026, 4188.205, 4385.128, 0, 0, []
1627803594.9247, 42, 0, 4385.641, 4209.231, 4177.949, 4199.487, 4377.949, 0, 0, []
1627803594.9326, 43, 0, 4376.923, 4236.923, 4192.308, 4207.179, 4369.231, 0, 0, []
1627803594.9406, 44, 0, 4344.103, 4251.282, 4178.462, 4190.256, 4342.051, 0, 0, []
1627803594.9485, 45, 0, 4331.795, 4227.692, 4180, 4186.667, 4336.41, 0, 0, []
1627803594.9564, 46, 0, 4350.256, 4227.692, 4201.538, 4209.231, 4355.897, 0, 0, []
1627803594.9643, 47, 0, 4349.744, 4261.026, 4208.718, 4221.026, 4351.282, 0, 0, []
1627803594.9723, 48, 0, 4327.692, 4271.282, 4192.821, 4214.872, 4326.154, 0, 0, []
1627803594.9802, 49, 0, 4315.897, 4253.846, 4188.718, 4215.385, 4314.872, 0, 0, []
1627803594.9882, 50, 0, 4301.538, 4241.026, 4200.513, 4217.949, 4302.051, 0, 0, []
1627803594.996, 51, 0, 4289.231, 4242.051, 4208.718, 4214.872, 4291.282, 0, 0, []
1627803595.004, 52, 0, 4296.41, 4231.282, 4211.795, 4215.897, 4302.051, 0, 0, []
1627803595.0119, 53, 0, 4297.436, 4213.846, 4194.872, 4212.308, 4302.051, 0, 0, []
1627803595.0197, 54, 0, 4283.59, 4231.282, 4180.513, 4201.026, 4278.462, 0, 0, []
1627803595.0276, 55, 0, 4271.795, 4252.821, 4184.103, 4195.385, 4264.103, 0, 0, []
1627803595.0353, 56, 0, 4262.564, 4221.538, 4174.872, 4197.949, 4262.051, 0, 0, []
1627803595.0432, 57, 0, 4257.436, 4192.821, 4172.821, 4200.513, 4255.897, 0, 0, []
1627803595.051, 58, 0, 4257.949, 4217.949, 4183.59, 4198.462, 4254.872, 0, 0, []
1627803595.0589, 59, 0, 4267.692, 4242.564, 4190.769, 4206.154, 4270.769, 0, 0, []
1627803595.0667, 60, 0, 4279.487, 4234.872, 4195.385, 4220, 4284.615, 0, 0, []
1627803595.0745, 61, 0, 4270.256, 4213.846, 4188.718, 4220, 4275.385, 0, 0, []
1627803595.0823, 62, 0, 4253.333, 4202.051, 4185.641, 4213.846, 4261.538, 0, 0, []
1627803595.0903, 63, 0, 4254.872, 4224.615, 4189.231, 4215.385, 4260, 0, 0, []
1627803595.0982, 64, 0, 4251.282, 4236.41, 4185.641, 4212.308, 4256.41, 450, 0, []
1627803595.1062, 65, 0, 4230.769, 4203.077, 4181.026, 4198.974, 4244.103, 450, 0, []
1627803595.114, 66, 0, 4216.923, 4202.564, 4176.923, 4182.564, 4227.179, 16188, 0, []
1627803595.122, 67, 0, 4212.308, 4235.385, 4184.103, 4177.949, 4220.513, 450, 0, []
1627803595.1299, 68, 0, 4211.795, 4215.385, 4189.231, 4188.718, 4229.744, 16144, 0, []
1627803595.1379, 69, 0, 4217.436, 4195.385, 4185.128, 4200, 4234.359, 450, 0, []
1627803595.1458, 70, 0, 4217.436, 4232.308, 4188.205, 4211.282, 4231.282, 301, 0, []
1627803595.1535, 71, 0, 4215.897, 4246.154, 4189.744, 4224.103, 4242.051, 450, 0, []
1627803595.1614, 72, 0, 4223.077, 4210.769, 4191.795, 4227.179, 4256.923, 450, 0, []
1627803595.1692, 73, 0, 4216.41, 4196.41, 4189.231, 4210.769, 4244.103, 16163, 0, []
1627803595.1771, 74, 0, 4208.205, 4207.692, 4177.436, 4198.974, 4229.231, 450, 0, []
1627803595.1849, 75, 0, 4215.385, 4220.513, 4177.949, 4208.718, 4240.513, 16186, 0, []
1627803595.1927, 76, 0, 4214.872, 4231.282, 4184.103, 4221.538, 4243.077, 450, 0, []
1627803595.2005, 77, 0, 4196.923, 4223.077, 4184.103, 4216.923, 4222.564, 450, 0, []
1627803595.2084, 78, 0, 4186.154, 4212.821, 4179.487, 4203.077, 4209.744, 450, 0, []
1627803595.2162, 79, 0, 4188.205, 4222.051, 4173.333, 4192.308, 4210.256, 16186, 0, []
1627803595.2241, 80, 0, 4185.128, 4227.692, 4180, 4184.103, 4202.564, 450, 0, []
1627803595.2318, 81, 0, 4183.59, 4210.256, 4190.256, 4187.692, 4198.974, 450, 0, []
1627803595.2398, 82, 0, 4188.205, 4191.795, 4195.385, 4195.385, 4205.128, 450, 0, []
1627803595.2477, 83, 0, 4182.051, 4200, 4191.795, 4189.744, 4201.538, 16186, 0, []
1627803595.2557, 84, 0, 4172.821, 4224.615, 4178.462, 4190.256, 4197.949, 450, 0, []
1627803595.2636, 85, 0, 4173.333, 4224.103, 4176.41, 4197.436, 4198.462, 450, 0, []
1627803595.2715, 86, 0, 4170.769, 4195.897, 4173.333, 4189.744, 4192.821, 450, 0, []
1627803595.2794, 87, 0, 4163.077, 4200.513, 4165.641, 4179.487, 4190.256, 16186, 0, []
1627803595.2874, 88, 0, 4170.256, 4227.692, 4169.231, 4190.769, 4197.436, 450, 0, []
1627803595.2953, 89, 0, 4183.077, 4217.949, 4169.744, 4202.564, 4203.59, 450, 0, []
1627803595.3033, 90, 0, 4190.769, 4200, 4174.872, 4205.641, 4207.692, 450, 0, []
1627803595.3111, 91, 0, 4197.949, 4216.923, 4182.564, 4212.308, 4215.385, 16186, 0, []
1627803595.3189, 92, 0, 4189.744, 4232.821, 4172.308, 4211.795, 4209.231, 450, 0, []
1627803595.3268, 93, 0, 4176.41, 4236.41, 4167.692, 4210.769, 4189.744, 450, 0, []
1627803595.3346, 94, 0, 4180.513, 4241.538, 4183.077, 4215.385, 4189.744, 450, 0, []
1627803595.3425, 95, 0, 4188.205, 4229.744, 4193.333, 4213.333, 4203.077, 16186, 0, []
1627803595.3502, 96, 0, 4188.205, 4215.897, 4181.538, 4204.615, 4202.564, 450, 0, []
1627803595.3581, 97, 0, 4181.538, 4218.974, 4168.718, 4192.308, 4187.692, 450, 0, []
1627803595.3659, 98, 0, 4172.308, 4222.564, 4172.821, 4184.103, 4178.462, 450, 0, []
1627803595.3738, 99, 0, 4172.821, 4235.385, 4177.436, 4191.282, 4184.615, 16186, 0, []
1627803595.3816, 100, 0, 4170.256, 4261.026, 4178.462, 4192.308, 4181.026, 450, 0, []
1627803595.3895, 101, 0, 4156.41, 4256.923, 4171.282, 4172.821, 4167.179, 450, 0, []
1627803595.3974, 102, 0, 4157.436, 4228.718, 4164.103, 4168.718, 4177.436, 450, 0, []
1627803595.4054, 103, 0, 4172.308, 4232.821, 4178.462, 4186.154, 4202.051, 16186, 0, []
1627803595.4133, 104, 0, 4172.821, 4254.872, 4182.564, 4189.231, 4208.205, 450, 0, []
1627803595.4213, 105, 0, 4165.641, 4249.744, 4177.949, 4182.564, 4204.103, 450, 0, []
1627803595.4291, 106, 0, 4163.077, 4225.641, 4184.615, 4184.103, 4201.026, 450, 0, []
1627803595.4371, 107, 0, 4167.692, 4222.051, 4189.744, 4191.795, 4198.974, 16186, 0, []
1627803595.445, 108, 0, 4172.821, 4240, 4194.359, 4194.359, 4203.077, 450, 0, []
1627803595.453, 109, 0, 4164.615, 4253.333, 4187.692, 4184.103, 4200, 450, 0, []
1627803595.4609, 110, 0, 4151.795, 4251.795, 4181.538, 4177.436, 4186.154, 450, 0, []
1627803595.4686, 111, 0, 4153.333, 4230.769, 4182.051, 4184.615, 4182.564, 16186, 0, []
1627803595.4765, 112, 0, 4153.846, 4207.179, 4171.282, 4186.154, 4183.59, 450, 0, []
1627803595.4843, 113, 0, 4150.256, 4220, 4175.897, 4181.026, 4182.051, 450, 0, []
1627803595.4922, 114, 0, 4152.821, 4251.795, 4185.128, 4184.615, 4187.179, 450, 0, []
1627803595.5001, 115, 0, 4152.308, 4244.615, 4179.487, 4181.026, 4186.667, 16186, 0, []
1627803595.5079, 116, 0, 4147.179, 4219.487, 4175.385, 4168.718, 4173.333, 450, 0, []
1627803595.5158, 117, 0, 4149.231, 4232.308, 4175.385, 4171.282, 4172.308, 450, 0, []
1627803595.5236, 118, 0, 4153.333, 4252.821, 4169.231, 4182.051, 4179.487, 450, 0, []
1627803595.5314, 119, 0, 4157.436, 4245.128, 4161.026, 4185.641, 4182.564, 16186, 0, []
1627803595.5394, 120, 0, 4168.718, 4243.077, 4170.769, 4187.179, 4193.333, 450, 0, []
1627803595.5472, 121, 0, 4175.385, 4240, 4175.897, 4189.231, 4201.538, 450, 0, []
1627803595.5551, 122, 0, 4178.462, 4227.692, 4162.051, 4191.795, 4204.615, 450, 0, []
1627803595.5629, 123, 0, 4195.897, 4240.513, 4169.744, 4201.026, 4223.59, 16186, 0, []
1627803595.5709, 124, 0, 4215.897, 4257.949, 4183.077, 4208.718, 4249.744, 450, 0, []
1627803595.5788, 125, 0, 4216.41, 4251.282, 4172.821, 4200, 4251.795, 450, 0, []
1627803595.5867, 126, 0, 4210.769, 4242.564, 4170.256, 4189.231, 4242.051, 450, 0, []
1627803595.5946, 127, 0, 4225.128, 4243.077, 4178.974, 4193.333, 4253.846, 16186, 0, []
1627803595.6026, 128, 0, 4248.718, 4246.667, 4171.795, 4195.385, 4272.308, 450, 0, []
1627803595.6105, 0, 0, 4263.59, 4252.308, 4153.846, 4181.026, 4280, 450, 0, []
1627803595.6184, 1, 0, 4312.308, 4236.41, 4161.026, 4181.538, 4315.385, 450, 0, []
1627803595.6263, 2, 0, 4407.692, 4225.128, 4193.333, 4207.179, 4398.462, 16188, 0, []
1627803595.634, 3, 0, 4480, 4264.103, 4206.667, 4225.641, 4474.872, 450, 0, []
1627803595.6419, 4, 0, 4487.179, 4281.026, 4198.462, 4217.949, 4496.41, 16141, 0, []
1627803595.6497, 5, 0, 4480, 4239.487, 4180, 4204.103, 4488.718, 450, 0, []
1627803595.6576, 6, 0, 4487.179, 4232.308, 4176.923, 4210.769, 4488.205, 302, 0, []
1627803595.6654, 7, 0, 4471.795, 4269.744, 4195.385, 4220, 4486.154, 450, 0, []
1627803595.6732, 8, 0, 4431.795, 4254.359, 4190.769, 4206.667, 4460.513, 450, 0, []
1627803595.681, 9, 0, 4407.692, 4225.641, 4184.103, 4202.564, 4435.897, 16162, 0, []
1627803595.6889, 10, 0, 4396.923, 4260.513, 4200.513, 4220.513, 4421.538, 450, 0, []
1627803595.6967, 11, 0, 4361.538, 4265.128, 4190.769, 4210.256, 4381.026, 16187, 0, []
1627803595.7047, 12, 0, 4317.436, 4224.615, 4167.692, 4182.564, 4332.308, 450, 0, []
1627803595.7125, 13, 0, 4305.128, 4243.59, 4174.872, 4189.744, 4322.564, 450, 0, []
1627803595.7205, 14, 0, 4303.077, 4265.128, 4190.256, 4203.077, 4323.077, 450, 0, []
1627803595.7284, 15, 0, 4279.487, 4226.154, 4185.641, 4193.846, 4298.974, 16187, 0, []
1627803595.7364, 16, 0, 4253.333, 4210.256, 4174.872, 4191.282, 4277.436, 0, 0, []
1627803595.7443, 17, 0, 4246.154, 4236.923, 4182.051, 4201.026, 4274.359, 0, 0, []
1627803595.7522, 18, 0, 4248.718, 4253.846, 4191.282, 4206.667, 4275.385, 0, 0, []
1627803595.7601, 19, 0, 4236.41, 4244.103, 4183.077, 4202.051, 4257.949, 0, 0, []
1627803595.7681, 20, 0, 4208.718, 4232.821, 4168.718, 4194.359, 4228.718, 0, 0, []
1627803595.776, 21, 0, 4210.769, 4249.744, 4174.359, 4203.59, 4232.821, 0, 0, []
1627803595.7838, 22, 0, 4231.795, 4270.256, 4198.974, 4223.59, 4252.821, 0, 0, []
1627803595.7916, 23, 0, 4219.487, 4252.821, 4195.385, 4221.026, 4238.462, 0, 0, []
1627803595.7994, 24, 0, 4200, 4235.897, 4181.538, 4211.795, 4218.974, 0, 0, []
1627803595.8073, 25, 0, 4205.128, 4251.795, 4191.282, 4220.513, 4226.667, 0, 0, []
1627803595.8151, 26, 0, 4200.513, 4246.154, 4190.769, 4219.487, 4222.564, 0, 0, []
1627803595.823, 27, 0, 4185.128, 4230.769, 4183.077, 4203.59, 4202.564, 0, 0, []
1627803595.8307, 28, 0, 4180, 4243.59, 4174.872, 4197.949, 4196.41, 0, 0, []
1627803595.8386, 29, 0, 4174.872, 4250.256, 4169.231, 4198.462, 4193.846, 0, 0, []
1627803595.8464, 30, 0, 4177.436, 4243.59, 4181.538, 4203.077, 4195.385, 0, 0, []
1627803595.8544, 31, 0, 4189.744, 4240, 4180.513, 4202.051, 4203.077, 0, 0, []
1627803595.8623, 32, 0, 4181.538, 4239.487, 4171.795, 4189.231, 4197.436, 0, 0, []
1627803595.8702, 33, 0, 4173.846, 4232.821, 4177.949, 4185.641, 4192.308, 0, 0, []
1627803595.8781, 34, 0, 4187.692, 4231.795, 4191.282, 4198.462, 4197.436, 0, 0, []
1627803595.8861, 35, 0, 4188.718, 4232.821, 4195.385, 4206.154, 4193.333, 0, 0, []
1627803595.894, 36, 0, 4167.692, 4233.846, 4180.513, 4198.974, 4181.026, 0, 0, []
1627803595.902, 37, 0, 4162.051, 4245.128, 4173.846, 4197.949, 4178.974, 0, 0, []
1627803595.9098, 38, 0, 4180, 4251.795, 4188.718, 4212.821, 4187.179, 0, 0, []
1627803595.9178, 39, 0, 4176.41, 4245.128, 4191.795, 4215.385, 4183.077, 0, 0, []
1627803595.9257, 40, 0, 4145.128, 4234.359, 4173.333, 4194.872, 4161.538, 0, 0, []
1627803595.9335, 41, 0, 4137.949, 4232.821, 4162.564, 4181.538, 4154.359, 0, 0, []
1627803595.9414, 42, 0, 4152.821, 4216.923, 4178.462, 4189.231, 4167.692, 0, 0, []
1627803595.9491, 43, 0, 4153.846, 4203.59, 4183.59, 4195.385, 4177.949, 0, 0, []
1627803595.957, 44, 0, 4160, 4222.564, 4175.385, 4197.949, 4186.667, 0, 0, []
1627803595.9648, 45, 0, 4169.744, 4234.872, 4181.538, 4206.667, 4186.667, 0, 0, []
1627803595.9727, 46, 0, 4150.769, 4225.128, 4171.282, 4205.128, 4163.59, 0, 0, []
1627803595.9805, 47, 0, 4137.949, 4220, 4158.462, 4201.026, 4146.154, 0, 0, []
1627803595.9883, 48, 0, 4152.308, 4225.128, 4172.308, 4208.205, 4154.872, 0, 0, []
1627803595.9961, 49, 0, 4156.923, 4226.667, 4174.359, 4207.179, 4160.513, 0, 0, []
1627803596.004, 50, 0, 4150.769, 4219.487, 4162.564, 4193.333, 4151.282, 0, 0, []
1627803596.0118, 51, 0, 4147.179, 4213.846, 4163.077, 4186.154, 4140.513, 0, 0, []
1627803596.0198, 52, 0, 4143.077, 4228.205, 4173.846, 4189.744, 4138.462, 0, 0, []
1627803596.0276, 53, 0, 4142.564, 4236.923, 4182.564, 4190.256, 4142.564, 0, 0, []
1627803596.0356, 54, 0, 4141.538, 4225.128, 4177.949, 4180, 4138.462, 0, 0, []
1627803596.0435, 55, 0, 4135.897, 4236.923, 4175.385, 4171.282, 4129.744, 0, 0, []
1627803596.0515, 56, 0, 4132.821, 4255.385, 4171.282, 4174.872, 4131.282, 0, 0, []
1627803596.0594, 57, 0, 4135.897, 4236.923, 4170.769, 4183.077, 4132.821, 0, 0, []
1627803596.0673, 58, 0, 4135.897, 4213.333, 4180, 4191.282, 4127.179, 0, 0, []
1627803596.0752, 59, 0, 4129.231, 4227.179, 4176.41, 4193.846, 4121.538, 0, 0, []
1627803596.0832, 60, 0, 4126.154, 4245.641, 4171.795, 4192.308, 4118.974, 0, 0, []
1627803596.0911, 61, 0, 4140.513, 4241.026, 4178.462, 4198.462, 4128.205, 0, 0, []
1627803596.0989, 62, 0, 4163.077, 4229.231, 4193.333, 4216.923, 4147.692, 0, 0, []
1627803596.1067, 63, 0, 4170.256, 4217.949, 4202.564, 4231.282, 4159.487, 0, 0, []
1627803596.1145, 64, 0, 4162.564, 4213.333, 4197.436, 4226.667, 4156.923, 450, 0, []
1627803596.1224, 65, 0, 4143.59, 4214.359, 4190.256, 4209.231, 4142.051, 450, 0, []
1627803596.1302, 66, 0, 4126.667, 4219.487, 4176.41, 4195.897, 4128.205, 16188, 0, []
1627803596.1381, 67, 0, 4139.487, 4243.077, 4170.769, 4203.59, 4136.41, 450, 0, []
1627803596.1458, 68, 0, 4155.385, 4268.205, 4182.564, 4208.205, 4146.154, 16135, 0, []
1627803596.1537, 69, 0, 4144.103, 4244.103, 4180.513, 4194.872, 4137.949, 450, 0, []
1627803596.1615, 70, 0, 4138.462, 4212.308, 4174.872, 4197.949, 4137.436, 307, 0, []
1627803596.1695, 71, 0, 4138.974, 4223.59, 4169.231, 4203.59, 4136.923, 450, 0, []
1627803596.1774, 72, 0, 4124.615, 4229.231, 4161.026, 4190.769, 4120, 450, 0, []
1627803596.1852, 73, 0, 4123.59, 4211.795, 4176.923, 4190.256, 4121.026, 16162, 0, []
1627803596.193, 74, 0, 4139.487, 4216.923, 4184.103, 4204.615, 4137.949, 450, 0, []
1627803596.201, 75, 0, 4147.179, 4236.923, 4172.308, 4204.615, 4140.513, 16190, 0, []
1627803596.2089, 76, 0, 4149.744, 4231.282, 4181.026, 4198.974, 4134.872, 450, 0, []
1627803596.2169, 77, 0, 4150.769, 4232.821, 4189.744, 4198.974, 4134.872, 450, 0, []
1627803596.2247, 78, 0, 4156.41, 4255.385, 4186.154, 4202.051, 4145.641, 450, 0, []
1627803596.2327, 79, 0, 4159.487, 4236.41, 4176.41, 4204.103, 4154.359, 16190, 0, []
1627803596.2406, 80, 0, 4144.103, 4196.41, 4167.179, 4193.846, 4140, 450, 0, []
1627803596.2484, 81, 0, 4134.872, 4229.744, 4177.436, 4191.282, 4129.231, 450, 0, []
1627803596.2563, 82, 0, 4155.385, 4276.41, 4195.385, 4209.231, 4148.718, 450, 0, []
1627803596.264, 83, 0, 4164.103, 4234.872, 4193.333, 4209.231, 4160, 16190, 0, []
1627803596.2719, 84, 0, 4153.333, 4199.487, 4179.487, 4195.385, 4150.769, 450, 0, []
1627803596.2797, 85, 0, 4154.359, 4230.769, 4185.641, 4201.026, 4151.795, 450, 0, []
1627803596.2876, 86, 0, 4156.923, 4235.897, 4197.436, 4207.179, 4156.41, 450, 0, []
1627803596.2954, 87, 0, 4155.897, 4219.487, 4190.256, 4201.538, 4156.41, 16190, 0, []
1627803596.3032, 88, 0, 4150.256, 4232.308, 4182.051, 4191.282, 4150.256, 450, 0, []
1627803596.311, 89, 0, 4135.897, 4219.487, 4175.385, 4180.513, 4136.923, 450, 0, []
1627803596.319, 90, 0, 4132.821, 4201.538, 4179.487, 4193.333, 4142.564, 450, 0, []
1627803596.3269, 91, 0, 4139.487, 4228.718, 4186.154, 4215.385, 4157.436, 16190, 0, []
1627803596.3349, 92, 0, 4138.462, 4240, 4172.821, 4206.154, 4150.256, 450, 0, []
1627803596.3428, 93, 0, 4142.564, 4221.538, 4176.923, 4188.205, 4144.615, 450, 0, []
1627803596.3507, 94, 0, 4151.282, 4217.436, 4190.769, 4188.205, 4154.359, 450, 0, []
1627803596.3586, 95, 0, 4143.59, 4209.231, 4184.615, 4188.718, 4150.256, 16190, 0, []
1627803596.3666, 96, 0, 4131.282, 4209.231, 4177.436, 4186.667, 4134.872, 450, 0, []
1627803596.3745, 97, 0, 4143.077, 4241.026, 4182.051, 4197.949, 4135.897, 450, 0, []
1627803596.3825, 98, 0, 4161.026, 4253.846, 4196.41, 4211.795, 4150.256, 450, 0, []
1627803596.3903, 99, 0, 4162.051, 4246.154, 4199.487, 4211.282, 4152.308, 16190, 0, []
1627803596.3983, 100, 0, 4153.846, 4237.436, 4186.154, 4200.513, 4141.026, 450, 0, []
1627803596.4062, 101, 0, 4151.282, 4225.128, 4184.615, 4197.436, 4133.333, 450, 0, []
1627803596.414, 102, 0, 4146.667, 4227.179, 4187.179, 4201.026, 4133.333, 450, 0, []
1627803596.4219, 103, 0, 4134.359, 4226.667, 4176.41, 4193.333, 4123.077, 16190, 0, []
1627803596.4296, 104, 0, 4143.077, 4219.487, 4175.385, 4193.846, 4126.667, 450, 0, []
1627803596.4375, 105, 0, 4158.462, 4237.949, 4191.795, 4206.667, 4150.256, 450, 0, []
1627803596.4453, 106, 0, 4145.641, 4250.256, 4192.308, 4197.436, 4145.641, 450, 0, []
1627803596.4532, 107, 0, 4132.821, 4222.564, 4172.308, 4179.487, 4130.769, 16190, 0, []
1627803596.461, 108, 0, 4142.564, 4209.744, 4173.846, 4184.103, 4142.564, 450, 0, []
1627803596.4688, 109, 0, 4146.667, 4220.513, 4181.538, 4193.333, 4149.231, 450, 0, []
1627803596.4766, 110, 0, 4128.205, 4217.436, 4161.026, 4178.974, 4123.077, 450, 0, []
1627803596.4845, 111, 0, 4133.333, 4223.077, 4164.103, 4177.436, 4122.564, 16190, 0, []
1627803596.4923, 112, 0, 4169.744, 4233.846, 4192.821, 4208.205, 4165.641, 450, 0, []
1627803596.5002, 113, 0, 4182.051, 4235.897, 4195.385, 4209.744, 4176.923, 450, 0, []
1627803596.508, 114, 0, 4158.462, 4231.795, 4171.282, 4172.821, 4146.667, 450, 0, []
1627803596.5159, 115, 0, 4151.795, 4217.436, 4164.103, 4169.231, 4145.128, 16190, 0, []
1627803596.5239, 116, 0, 4174.359, 4223.077, 4185.128, 4195.897, 4177.436, 450, 0, []
1627803596.5319, 117, 0, 4198.462, 4245.641, 4187.692, 4188.205, 4196.41, 450, 0, []
1627803596.5398, 118, 0, 4237.436, 4232.308, 4187.692, 4175.897, 4227.692, 450, 0, []
1627803596.5477, 119, 0, 4301.026, 4213.333, 4198.462, 4191.795, 4291.282, 16190, 0, []
1627803596.5556, 120, 0, 4361.538, 4239.487, 4180, 4189.231, 4342.564, 450, 0, []
1627803596.5636, 121, 0, 4412.821, 4256.923, 4173.333, 4175.897, 4372.308, 450, 0, []
1627803596.5715, 122, 0, 4460, 4251.282, 4198.974, 4190.769, 4401.026, 450, 0, []
1627803596.5793, 123, 0, 4476.41, 4247.179, 4201.026, 4195.385, 4411.795, 16190, 0, []
1627803596.5871, 124, 0, 4453.333, 4215.897, 4171.282, 4169.231, 4383.59, 450, 0, []
1627803596.5951, 125, 0, 4424.103, 4198.462, 4170.769, 4165.128, 4348.718, 450, 0, []
1627803596.603, 126, 0, 4406.667, 4238.974, 4203.59, 4191.282, 4340, 450, 0, []
1627803596.6108, 127, 0, 4373.333, 4266.154, 4191.795, 4197.436, 4326.667, 16190, 0, []
1627803596.6187, 128, 0, 4319.487, 4242.051, 4153.846, 4174.872, 4281.026, 450, 0, []
1627803596.6264, 0, 0, 4286.154, 4223.59, 4166.667, 4170.256, 4244.103, 450, 0, []
1627803596.6344, 1, 0, 4277.436, 4231.795, 4192.821, 4188.205, 4238.974, 450, 0, []
1627803596.6423, 2, 0, 4255.897, 4231.795, 4178.974, 4185.641, 4218.974, 16188, 0, []
1627803596.6503, 3, 0, 4225.128, 4225.641, 4163.077, 4165.641, 4184.103, 450, 0, []
1627803596.6582, 4, 0, 4225.641, 4239.487, 4183.59, 4171.795, 4185.641, 16134, 0, []
1627803596.6661, 5, 0, 4235.897, 4263.59, 4202.564, 4193.846, 4205.128, 450, 0, []
1627803596.674, 6, 0, 4213.333, 4257.436, 4180.513, 4182.564, 4184.103, 303, 0, []
1627803596.682, 7, 0, 4184.103, 4216.41, 4166.667, 4157.949, 4152.308, 450, 0, []
1627803596.6899, 8, 0, 4169.744, 4201.026, 4171.795, 4148.205, 4149.231, 450, 0, []
1627803596.6979, 9, 0, 4165.641, 4224.103, 4168.205, 4149.744, 4150.769, 16161, 0, []
1627803596.7057, 10, 0, 4180.513, 4236.923, 4183.077, 4165.641, 4153.333, 450, 0, []
1627803596.7137, 11, 0, 4204.103, 4237.949, 4202.564, 4186.667, 4169.231, 16190, 0, []
1627803596.7216, 12, 0, 4205.128, 4252.821, 4205.128, 4193.846, 4174.359, 450, 0, []
1627803596.7294, 13, 0, 4183.077, 4248.205, 4192.308, 4182.564, 4154.872, 450, 0, []
1627803596.7373, 14, 0, 4159.487, 4207.692, 4169.231, 4160, 4133.846, 450, 0, []
1627803596.745, 15, 0, 4150.256, 4202.051, 4163.077, 4148.718, 4130.256, 16190, 0, []
1627803596.7529, 16, 0, 4158.974, 4235.897, 4174.359, 4161.538, 4138.462, 0, 0, []
1627803596.7607, 17, 0, 4157.949, 4236.41, 4183.077, 4172.308, 4136.41, 0, 0, []
1627803596.7686, 18, 0, 4151.795, 4210.256, 4183.59, 4170.769, 4128.205, 0, 0, []
1627803596.7764, 19, 0, 4153.333, 4205.128, 4172.308, 4167.179, 4126.667, 0, 0, []
1627803596.7843, 20, 0, 4138.462, 4215.385, 4165.128, 4160, 4110.256, 0, 0, []
1627803596.7922, 21, 0, 4139.487, 4225.641, 4176.923, 4168.718, 4106.154, 0, 0, []
1627803596.8002, 22, 0, 4168.205, 4244.615, 4191.282, 4186.667, 4124.615, 0, 0, []
1627803596.8081, 23, 0, 4151.795, 4243.59, 4175.897, 4180, 4103.59, 0, 0, []
1627803596.8161, 24, 0, 4107.692, 4221.026, 4154.872, 4160.513, 4058.974, 0, 0, []
1627803596.8239, 25, 0, 4118.462, 4224.615, 4174.872, 4163.59, 4065.128, 0, 0, []
1627803596.8319, 26, 0, 4151.795, 4249.231, 4190.769, 4178.974, 4092.821, 0, 0, []
1627803596.8398, 27, 0, 4151.795, 4250.256, 4184.103, 4185.128, 4092.821, 0, 0, []
1627803596.8478, 28, 0, 4138.974, 4227.692, 4187.692, 4185.641, 4090.256, 0, 0, []
1627803596.8557, 29, 0, 4130.256, 4221.026, 4183.077, 4181.026, 4093.333, 0, 0, []
1627803596.8636, 30, 0, 4120.513, 4229.744, 4174.359, 4174.872, 4091.795, 0, 0, []
1627803596.8715, 31, 0, 4114.872, 4237.436, 4166.667, 4168.205, 4087.179, 0, 0, []
1627803596.8793, 32, 0, 4128.205, 4230.769, 4165.128, 4169.744, 4096.923, 0, 0, []
1627803596.8872, 33, 0, 4144.103, 4211.795, 4174.359, 4173.846, 4110.769, 0, 0, []
1627803596.895, 34, 0, 4134.872, 4217.436, 4169.744, 4165.641, 4098.974, 0, 0, []
1627803596.9028, 35, 0, 4125.641, 4229.231, 4166.667, 4167.179, 4084.615, 0, 0, []
1627803596.9106, 36, 0, 4140.513, 4233.333, 4178.462, 4186.154, 4095.385, 0, 0, []
1627803596.9185, 37, 0, 4150.256, 4244.615, 4184.615, 4191.282, 4103.59, 0, 0, []
1627803596.9263, 38, 0, 4133.846, 4244.615, 4174.872, 4173.333, 4088.205, 0, 0, []
1627803596.9343, 39, 0, 4120, 4233.333, 4158.974, 4162.051, 4083.59, 0, 0, []
1627803596.9421, 40, 0, 4130.256, 4238.462, 4168.205, 4168.205, 4101.026, 0, 0, []
1627803596.9501, 41, 0, 4138.462, 4248.718, 4183.59, 4175.897, 4105.128, 0, 0, []
1627803596.958, 42, 0, 4136.923, 4232.821, 4178.974, 4182.051, 4100, 0, 0, []
1627803596.9659, 43, 0, 4138.462, 4221.026, 4177.949, 4188.718, 4105.128, 0, 0, []
1627803596.9737, 44, 0, 4141.538, 4230.769, 4180, 4188.205, 4113.333, 0, 0, []
1627803596.9816, 45, 0, 4141.026, 4233.846, 4177.436, 4180.513, 4111.795, 0, 0, []
1627803596.9895, 46, 0, 4132.821, 4221.538, 4173.846, 4172.821, 4100.513, 0, 0, []
1627803596.9975, 47, 0, 4120, 4210.769, 4166.154, 4164.615, 4088.205, 0, 0, []
1627803597.0054, 48, 0, 4126.154, 4225.128, 4167.692, 4168.718, 4092.308, 0, 0, []
1627803597.0134, 49, 0, 4143.077, 4238.462, 4172.308, 4182.564, 4110.769, 0, 0, []
1627803597.0212, 50, 0, 4140.513, 4223.077, 4170.769, 4181.538, 4112.821, 0, 0, []
1627803597.029, 51, 0, 4134.359, 4210.256, 4169.744, 4173.333, 4105.128, 0, 0, []
1627803597.0369, 52, 0, 4149.231, 4230.769, 4178.974, 4180.513, 4112.821, 0, 0, []
1627803597.0447, 53, 0, 4167.692, 4252.821, 4200, 4192.308, 4126.667, 0, 0, []
1627803597.0526, 54, 0, 4168.205, 4235.897, 4195.897, 4187.692, 4129.231, 0, 0, []
1627803597.0603, 55, 0, 4156.41, 4222.564, 4181.026, 4180.513, 4123.59, 0, 0, []
1627803597.0682, 56, 0, 4152.308, 4230.769, 4186.667, 4180, 4121.538, 0, 0, []
1627803597.076, 57, 0, 4153.333, 4226.154, 4186.667, 4175.897, 4118.462, 0, 0, []
1627803597.0839, 58, 0, 4146.154, 4209.231, 4174.359, 4166.154, 4111.795, 0, 0, []
1627803597.0917, 59, 0, 4143.59, 4199.487, 4168.718, 4167.179, 4115.385, 0, 0, []
1627803597.0996, 60, 0, 4154.872, 4204.615, 4172.821, 4179.487, 4126.154, 0, 0, []
1627803597.1075, 61, 0, 4152.821, 4229.744, 4174.359, 4182.564, 4125.641, 0, 0, []
1627803597.1155, 62, 0, 4140.513, 4250.256, 4171.282, 4180.513, 4116.923, 0, 0, []
1627803597.1234, 63, 0, 4132.821, 4236.923, 4169.744, 4179.487, 4109.744, 0, 0, []
1627803597.1314, 64, 0, 4131.795, 4217.436, 4166.667, 4176.923, 4110.256, 450, 0, []
1627803597.1393, 65, 0, 4142.051, 4206.154, 4173.333, 4178.974, 4121.538, 450, 0, []
1627803597.1472, 66, 0, 4152.308, 4215.385, 4183.59, 4183.59, 4131.282, 16188, 0, []
1627803597.1551, 67, 0, 4155.385, 4227.692, 4180.513, 4185.641, 4137.436, 450, 0, []
1627803597.1631, 68, 0, 4150.769, 4212.821, 4184.615, 4183.59, 4140.513, 16134, 0, []
1627803597.171, 69, 0, 4141.538, 4207.179, 4188.718, 4177.949, 4137.436, 450, 0, []
1627803597.1788, 70, 0, 4134.872, 4224.103, 4175.897, 4171.795, 4136.41, 301, 0, []
1627803597.1866, 71, 0, 4135.897, 4234.359, 4169.744, 4170.769, 4137.436, 450, 0, []
1627803597.1944, 72, 0, 4140, 4236.923, 4171.795, 4171.282, 4134.359, 450, 0, []
1627803597.2023, 73, 0, 4138.974, 4234.359, 4171.795, 4170.256, 4127.179, 16159, 0, []
1627803597.2101, 74, 0, 4137.436, 4214.359, 4162.564, 4166.667, 4122.051, 450, 0, []
1627803597.218, 75, 0, 4149.231, 4209.744, 4165.641, 4172.308, 4131.795, 16151, 0, []
1627803597.2257, 76, 0, 4160, 4227.179, 4183.077, 4184.103, 4139.487, 450, 0, []
1627803597.2336, 77, 0, 4148.718, 4207.692, 4170.769, 4175.385, 4127.179, 450, 0, []
1627803597.2414, 78, 0, 4135.897, 4190.769, 4155.897, 4161.538, 4117.436, 450, 0, []
1627803597.2494, 79, 0, 4141.538, 4215.897, 4177.949, 4170.769, 4123.077, 16151, 0, []
1627803597.2573, 80, 0, 4144.615, 4220, 4189.744, 4177.436, 4127.179, 450, 0, []
1627803597.2652, 81, 0, 4135.897, 4200.513, 4172.308, 4161.026, 4120.513, 450, 0, []
1627803597.2731, 82, 0, 4132.308, 4205.641, 4153.333, 4154.872, 4121.026, 450, 0, []
1627803597.2811, 83, 0, 4136.41, 4222.051, 4163.077, 4169.231, 4134.872, 16151, 0, []
1627803597.289, 84, 0, 4136.923, 4219.487, 4183.59, 4174.872, 4137.436, 450, 0, []
1627803597.297, 85, 0, 4135.385, 4210.769, 4177.949, 4168.205, 4127.692, 450, 0, []
1627803597.3048, 86, 0, 4149.744, 4223.59, 4183.077, 4176.41, 4137.949, 450, 0, []
1627803597.3128, 87, 0, 4174.359, 4237.949, 4197.949, 4194.359, 4162.564, 16151, 0, []
1627803597.3207, 88, 0, 4172.308, 4222.564, 4184.103, 4187.692, 4156.923, 450, 0, []
1627803597.3287, 89, 0, 4154.359, 4210.256, 4176.923, 4180, 4135.897, 450, 0, []
1627803597.3366, 90, 0, 4151.795, 4222.564, 4186.667, 4183.59, 4135.385, 450, 0, []
1627803597.3443, 91, 0, 4156.41, 4220, 4187.179, 4176.923, 4138.462, 16151, 0, []
1627803597.3522, 92, 0, 4152.821, 4201.538, 4171.282, 4172.308, 4137.949, 450, 0, []
1627803597.36, 93, 0, 4149.744, 4214.872, 4166.667, 4179.487, 4143.59, 450, 0, []
1627803597.3679, 94, 0, 4158.462, 4237.949, 4181.026, 4188.205, 4155.385, 450, 0, []
1627803597.3757, 95, 0, 4171.282, 4237.436, 4188.718, 4196.923, 4166.667, 16151, 0, []
1627803597.3835, 96, 0, 4162.564, 4233.333, 4181.538, 4187.179, 4157.949, 450, 0, []
1627803597.3913, 97, 0, 4141.026, 4233.333, 4166.667, 4156.923, 4135.897, 450, 0, []
1627803597.3992, 98, 0, 4141.026, 4217.949, 4166.667, 4145.128, 4128.718, 450, 0, []
1627803597.407, 99, 0, 4152.821, 4192.308, 4178.974, 4163.59, 4137.436, 16151, 0, []
1627803597.415, 100, 0, 4155.385, 4208.205, 4180, 4178.974, 4145.128, 450, 0, []
1627803597.4228, 101, 0, 4157.436, 4248.205, 4184.103, 4181.538, 4150.256, 450, 0, []
1627803597.4308, 102, 0, 4158.974, 4242.564, 4179.487, 4171.282, 4155.385, 450, 0, []
1627803597.4387, 103, 0, 4155.385, 4232.308, 4166.154, 4152.821, 4154.359, 16151, 0, []
1627803597.4467, 104, 0, 4160, 4249.231, 4177.949, 4155.385, 4156.923, 450, 0, []
1627803597.4546, 105, 0, 4170.256, 4248.205, 4190.769, 4177.436, 4162.051, 450, 0, []
1627803597.4625, 106, 0, 4168.718, 4228.205, 4189.744, 4189.231, 4158.462, 450, 0, []
1627803597.4704, 107, 0, 4163.59, 4229.744, 4182.564, 4187.692, 4151.282, 16151, 0, []
1627803597.4784, 108, 0, 4170.769, 4237.436, 4170.256, 4189.744, 4155.897, 450, 0, []
1627803597.4863, 109, 0, 4171.282, 4224.103, 4170.256, 4187.179, 4162.051, 450, 0, []
1627803597.4941, 110, 0, 4155.897, 4228.205, 4171.795, 4168.205, 4146.154, 450, 0, []
1627803597.5019, 111, 0, 4155.897, 4246.667, 4173.846, 4161.538, 4142.564, 16151, 0, []
1627803597.5098, 112, 0, 4171.282, 4229.231, 4176.923, 4176.923, 4165.641, 450, 0, []
1627803597.5177, 113, 0, 4175.385, 4210.256, 4180, 4184.615, 4178.462, 450, 0, []
1627803597.5257, 114, 0, 4172.308, 4240.513, 4186.667, 4185.641, 4175.385, 450, 0, []
1627803597.5336, 115, 0, 4169.744, 4246.154, 4173.333, 4183.59, 4170.769, 16151, 0, []
1627803597.5413, 116, 0, 4168.205, 4212.308, 4173.333, 4177.436, 4171.282, 450, 0, []
1627803597.5492, 117, 0, 4172.308, 4232.308, 4192.308, 4181.538, 4177.436, 450, 0, []
1627803597.557, 118, 0, 4166.154, 4261.538, 4172.308, 4181.538, 4170.769, 450, 0, []
1627803597.565, 119, 0, 4155.385, 4217.949, 4148.718, 4172.821, 4154.359, 16151, 0, []
1627803597.5729, 120, 0, 4162.564, 4197.949, 4165.641, 4177.949, 4161.026, 450, 0, []
1627803597.5808, 121, 0, 4168.718, 4235.385, 4182.051, 4178.974, 4169.231, 450, 0, []
1627803597.5887, 122, 0, 4160.513, 4247.179, 4175.385, 4161.026, 4152.821, 450, 0, []
1627803597.5967, 123, 0, 4164.615, 4241.026, 4175.385, 4160, 4153.333, 16151, 0, []
1627803597.6046, 124, 0, 4175.897, 4243.077, 4191.282, 4172.821, 4171.795, 450, 0, []
1627803597.6126, 125, 0, 4165.128, 4232.308, 4183.077, 4160, 4164.103, 450, 0, []
1627803597.6204, 126, 0, 4150.769, 4228.205, 4166.154, 4147.692, 4143.077, 450, 0, []
1627803597.6284, 127, 0, 4160, 4236.923, 4172.308, 4166.154, 4149.231, 16151, 0, []
1627803597.6363, 128, 0, 4169.231, 4212.821, 4173.333, 4178.462, 4164.103, 450, 0, []
1627803597.6441, 0, 0, 4167.692, 4193.333, 4171.282, 4169.231, 4164.615, 450, 0, []
1627803597.652, 1, 0, 4176.923, 4219.487, 4182.051, 4171.282, 4169.231, 450, 0, []
1627803597.6597, 2, 0, 4180.513, 4232.821, 4186.154, 4178.974, 4176.923, 16188, 0, []
1627803597.6676, 3, 0, 4156.41, 4229.231, 4169.744, 4164.615, 4166.667, 450, 0, []
1627803597.6754, 4, 0, 4155.897, 4244.615, 4161.026, 4166.154, 4163.077, 16138, 0, []
1627803597.6833, 5, 0, 4194.872, 4253.333, 4189.744, 4200, 4192.308, 450, 0, []
1627803597.6911, 6, 0, 4206.154, 4232.308, 4210.769, 4212.821, 4207.179, 302, 0, []
1627803597.6989, 7, 0, 4186.154, 4224.103, 4192.308, 4195.897, 4189.231, 450, 0, []
1627803597.7067, 8, 0, 4189.744, 4258.974, 4176.41, 4191.795, 4182.564, 450, 0, []
1627803597.7146, 9, 0, 4207.692, 4281.026, 4179.487, 4202.051, 4195.385, 16159, 0, []
1627803597.7224, 10, 0, 4198.974, 4250.769, 4181.026, 4197.949, 4192.308, 450, 0, []
1627803597.7304, 11, 0, 4176.41, 4222.564, 4170.769, 4179.487, 4173.846, 16190, 0, []
1627803597.7382, 12, 0, 4174.872, 4234.359, 4173.333, 4174.872, 4172.821, 450, 0, []
1627803597.7462, 13, 0, 4182.564, 4236.41, 4187.179, 4182.051, 4181.026, 450, 0, []
1627803597.7541, 14, 0, 4192.821, 4222.051, 4182.564, 4184.103, 4188.205, 450, 0, []
1627803597.7621, 15, 0, 4201.026, 4242.564, 4178.462, 4184.615, 4193.333, 16190, 0, []
1627803597.77, 16, 0, 4189.744, 4256.923, 4183.077, 4183.59, 4185.128, 0, 0, []
1627803597.7779, 17, 0, 4181.538, 4236.923, 4174.872, 4184.103, 4182.051, 0, 0, []
1627803597.7858, 18, 0, 4186.154, 4227.179, 4175.385, 4186.154, 4188.718, 0, 0, []
1627803597.7937, 19, 0, 4175.897, 4235.385, 4180, 4175.385, 4177.949, 0, 0, []
1627803597.8016, 20, 0, 4169.231, 4242.051, 4176.41, 4168.718, 4168.718, 0, 0, []
1627803597.8094, 21, 0, 4194.359, 4245.641, 4178.974, 4189.231, 4200, 0, 0, []
1627803597.8172, 22, 0, 4212.821, 4251.795, 4183.59, 4209.744, 4224.615, 0, 0, []
1627803597.825, 23, 0, 4199.487, 4246.667, 4186.667, 4205.641, 4203.077, 0, 0, []
1627803597.8329, 24, 0, 4178.462, 4233.846, 4180, 4186.667, 4174.872, 0, 0, []
1627803597.8407, 25, 0, 4169.231, 4222.564, 4166.667, 4172.821, 4162.564, 0, 0, []
1627803597.8486, 26, 0, 4178.974, 4228.205, 4169.231, 4178.974, 4166.154, 0, 0, []
1627803597.8564, 27, 0, 4196.41, 4245.641, 4178.974, 4186.667, 4182.051, 0, 0, []
1627803597.8642, 28, 0, 4191.795, 4233.846, 4182.051, 4176.41, 4186.667, 0, 0, []
1627803597.872, 29, 0, 4177.949, 4207.179, 4168.718, 4161.538, 4177.436, 0, 0, []
1627803597.88, 30, 0, 4192.308, 4222.051, 4169.231, 4173.333, 4188.718, 0, 0, []
1627803597.8879, 31, 0, 4215.897, 4260, 4187.692, 4198.974, 4208.205, 0, 0, []
1627803597.8959, 32, 0, 4208.205, 4248.718, 4182.564, 4196.41, 4202.564, 0, 0, []
1627803597.9037, 33, 0, 4184.103, 4206.667, 4171.282, 4172.308, 4186.154, 0, 0, []
1627803597.9117, 34, 0, 4179.487, 4206.154, 4171.795, 4165.128, 4182.051, 0, 0, []
1627803597.9196, 35, 0, 4184.103, 4233.846, 4170.769, 4169.231, 4182.564, 0, 0, []
1627803597.9276, 36, 0, 4182.564, 4234.872, 4173.333, 4168.205, 4187.692, 0, 0, []
1627803597.9355, 37, 0, 4184.103, 4213.846, 4174.359, 4175.385, 4197.949, 0, 0, []
1627803597.9434, 38, 0, 4185.641, 4217.436, 4173.333, 4190.256, 4200.513, 0, 0, []
1627803597.9513, 39, 0, 4185.128, 4241.538, 4168.718, 4196.923, 4196.41, 0, 0, []
1627803597.9591, 40, 0, 4189.231, 4236.923, 4173.846, 4197.436, 4203.59, 0, 0, []
1627803597.967, 41, 0, 4189.231, 4214.359, 4187.692, 4187.692, 4203.077, 0, 0, []
1627803597.9748, 42, 0, 4182.051, 4222.051, 4179.487, 4170.256, 4187.179, 0, 0, []
1627803597.9826, 43, 0, 4185.128, 4244.103, 4168.205, 4168.205, 4188.718, 0, 0, []
1627803597.9904, 44, 0, 4191.282, 4243.077, 4167.692, 4181.538, 4201.026, 0, 0, []
1627803597.9983, 45, 0, 4190.769, 4218.974, 4169.744, 4186.154, 4198.462, 0, 0, []
1627803598.0061, 46, 0, 4191.282, 4212.308, 4181.026, 4187.692, 4194.359, 0, 0, []
1627803598.014, 47, 0, 4189.231, 4232.308, 4182.051, 4186.667, 4194.872, 0, 0, []
1627803598.0217, 48, 0, 4180.513, 4245.128, 4172.308, 4174.872, 4185.128, 0, 0, []
1627803598.0297, 49, 0, 4178.974, 4235.897, 4171.795, 4171.795, 4183.077, 0, 0, []
1627803598.0376, 50, 0, 4192.308, 4225.128, 4175.897, 4186.667, 4198.974, 0, 0, []
1627803598.0456, 51, 0, 4202.051, 4226.667, 4178.462, 4187.692, 4204.615, 0, 0, []
1627803598.0535, 52, 0, 4196.923, 4232.821, 4173.333, 4181.026, 4202.051, 0, 0, []
1627803598.0614, 53, 0, 4188.718, 4232.821, 4171.282, 4182.564, 4200, 0, 0, []
1627803598.0693, 54, 0, 4180, 4216.41, 4169.231, 4172.308, 4185.641, 0, 0, []
1627803598.0773, 55, 0, 4180, 4224.103, 4162.564, 4168.718, 4180, 0, 0, []
1627803598.0852, 56, 0, 4192.308, 4252.821, 4177.436, 4194.359, 4200.513, 0, 0, []
1627803598.0932, 57, 0, 4190.769, 4227.692, 4176.923, 4199.487, 4204.615, 0, 0, []
1627803598.101, 58, 0, 4174.359, 4198.974, 4155.385, 4176.923, 4184.103, 0, 0, []
1627803598.1088, 59, 0, 4185.641, 4220.513, 4172.821, 4184.103, 4189.231, 0, 0, []
1627803598.1167, 60, 0, 4211.282, 4232.308, 4197.436, 4200.513, 4211.795, 0, 0, []
1627803598.1245, 61, 0, 4196.923, 4229.231, 4189.744, 4189.231, 4201.538, 0, 0, []
1627803598.1324, 62, 0, 4180.513, 4251.282, 4177.949, 4186.154, 4182.564, 0, 0, []
1627803598.1401, 63, 0, 4205.128, 4245.641, 4180, 4194.872, 4191.282, 0, 0, []
1627803598.148, 64, 0, 4226.154, 4218.974, 4185.641, 4189.231, 4196.41, 450, 0, []
1627803598.1558, 65, 0, 4217.949, 4236.923, 4181.538, 4183.077, 4181.538, 450, 0, []
1627803598.1637, 66, 0, 4215.385, 4262.051, 4176.923, 4185.128, 4182.564, 16186, 0, []
1627803598.1715, 67, 0, 4225.641, 4253.846, 4178.974, 4185.641, 4198.462, 450, 0, []
1627803598.1793, 68, 0, 4222.564, 4227.179, 4187.692, 4185.128, 4191.795, 16138, 0, []
1627803598.1871, 69, 0, 4212.821, 4205.641, 4182.051, 4185.128, 4173.846, 450, 0, []
1627803598.1951, 70, 0, 4200.513, 4213.846, 4152.821, 4164.615, 4162.051, 301, 0, []
1627803598.203, 71, 0, 4191.282, 4236.923, 4153.846, 4146.667, 4151.795, 450, 0, []
1627803598.211, 72, 0, 4203.077, 4226.667, 4182.564, 4166.154, 4161.026, 450, 0, []
1627803598.2188, 73, 0, 4213.333, 4215.897, 4191.795, 4186.667, 4174.359, 16159, 0, []
1627803598.2268, 74, 0, 4198.462, 4232.821, 4177.949, 4174.872, 4163.59, 450, 0, []
1627803598.2347, 75, 0, 4176.41, 4230.769, 4156.41, 4154.359, 4143.59, 16193, 0, []
1627803598.2427, 76, 0, 4173.846, 4215.385, 4154.359, 4151.795, 4142.564, 450, 0, []
1627803598.2506, 77, 0, 4187.179, 4225.128, 4173.333, 4160, 4153.846, 450, 0, []
1627803598.2583, 78, 0, 4202.564, 4242.564, 4183.59, 4170.256, 4168.718, 450, 0, []
1627803598.2662, 79, 0, 4205.128, 4241.538, 4182.051, 4174.359, 4178.974, 16193, 0, []
1627803598.274, 80, 0, 4198.974, 4233.333, 4174.359, 4169.231, 4174.359, 450, 0, []
1627803598.2819, 81, 0, 4206.154, 4232.308, 4176.41, 4170.256, 4172.821, 450, 0, []
1627803598.2897, 82, 0, 4216.923, 4241.026, 4180, 4176.923, 4173.333, 450, 0, []
1627803598.2975, 83, 0, 4217.949, 4235.385, 4180, 4181.538, 4172.821, 16193, 0, []
1627803598.3053, 84, 0, 4214.359, 4224.615, 4188.205, 4185.641, 4178.462, 450, 0, []
1627803598.3132, 85, 0, 4214.359, 4237.949, 4186.154, 4184.103, 4180.513, 450, 0, []
1627803598.321, 86, 0, 4217.949, 4244.103, 4185.128, 4185.641, 4182.051, 450, 0, []
1627803598.3289, 87, 0, 4218.462, 4237.436, 4186.667, 4189.744, 4183.077, 16193, 0, []
1627803598.3366, 88, 0, 4215.897, 4233.846, 4174.359, 4184.615, 4177.436, 450, 0, []
1627803598.3446, 89, 0, 4213.846, 4227.692, 4180, 4174.359, 4172.821, 450, 0, []
1627803598.3525, 90, 0, 4215.897, 4233.333, 4191.282, 4174.872, 4182.564, 450, 0, []
1627803598.3605, 91, 0, 4214.872, 4253.846, 4180.513, 4185.128, 4185.641, 16193, 0, []
1627803598.3684, 92, 0, 4207.692, 4233.333, 4168.718, 4186.667, 4173.333, 450, 0, []
1627803598.3763, 93, 0, 4195.385, 4188.718, 4157.436, 4169.744, 4164.103, 450, 0, []
1627803598.3842, 94, 0, 4181.026, 4202.564, 4150.769, 4147.179, 4150.769, 450, 0, []
1627803598.3922, 95, 0, 4183.59, 4232.821, 4161.538, 4151.795, 4152.308, 16193, 0, []
1627803598.4001, 96, 0, 4204.103, 4223.59, 4183.59, 4176.923, 4180.513, 450, 0, []
1627803598.4081, 97, 0, 4202.051, 4208.205, 4178.974, 4172.308, 4183.59, 450, 0, []
1627803598.4159, 98, 0, 4181.538, 4211.795, 4150.769, 4150.769, 4161.538, 450, 0, []
1627803598.4237, 99, 0, 4197.436, 4222.564, 4161.026, 4165.641, 4175.897, 16193, 0, []
1627803598.4316, 100, 0, 4237.436, 4233.333, 4182.564, 4192.821, 4211.282, 450, 0, []
1627803598.4394, 101, 0, 4251.795, 4237.436, 4173.846, 4188.205, 4222.051, 450, 0, []
1627803598.4473, 102, 0, 4268.205, 4222.564, 4168.718, 4174.872, 4233.846, 450, 0, []
1627803598.455, 103, 0, 4331.282, 4228.205, 4170.769, 4180.513, 4283.077, 16193, 0, []
1627803598.4629, 104, 0, 4408.718, 4254.872, 4176.923, 4191.795, 4344.615, 450, 0, []
1627803598.4707, 105, 0, 4453.333, 4243.077, 4180.513, 4186.154, 4381.538, 450, 0, []
1627803598.4786, 106, 0, 4476.41, 4223.59, 4174.872, 4172.821, 4400.513, 450, 0, []
1627803598.4864, 107, 0, 4495.385, 4249.231, 4176.41, 4173.333, 4418.462, 16193, 0, []
1627803598.4943, 108, 0, 4489.231, 4261.538, 4176.41, 4174.359, 4415.385, 450, 0, []
1627803598.5022, 109, 0, 4451.795, 4217.436, 4174.872, 4165.128, 4376.923, 450, 0, []
1627803598.5101, 110, 0, 4421.026, 4213.846, 4182.051, 4170.769, 4345.128, 450, 0, []
1627803598.518, 111, 0, 4405.128, 4257.436, 4191.795, 4188.718, 4341.538, 16193, 0, []
1627803598.5258, 112, 0, 4383.077, 4252.308, 4201.538, 4194.872, 4331.795, 450, 0, []
1627803598.5337, 113, 0, 4356.923, 4223.59, 4197.949, 4190.769, 4305.128, 450, 0, []
1627803598.5416, 114, 0, 4332.821, 4233.846, 4182.564, 4180.513, 4277.949, 450, 0, []
1627803598.5495, 115, 0, 4304.103, 4252.821, 4168.718, 4170.256, 4257.949, 16193, 0, []
1627803598.5575, 116, 0, 4291.282, 4252.308, 4173.333, 4175.385, 4255.385, 450, 0, []
1627803598.5654, 117, 0, 4300.513, 4245.641, 4197.949, 4188.718, 4269.231, 450, 0, []
1627803598.5733, 118, 0, 4283.59, 4226.154, 4192.821, 4186.667, 4254.359, 450, 0, []
1627803598.5812, 119, 0, 4251.795, 4227.692, 4175.385, 4180, 4220, 16193, 0, []
1627803598.589, 120, 0, 4253.333, 4261.026, 4186.154, 4185.128, 4221.026, 450, 0, []
1627803598.5969, 121, 0, 4260, 4249.744, 4195.385, 4185.128, 4227.692, 450, 0, []
1627803598.6047, 122, 0, 4248.718, 4221.538, 4186.154, 4182.051, 4213.846, 450, 0, []
1627803598.6126, 123, 0, 4247.692, 4251.795, 4174.359, 4184.103, 4211.795, 16193, 0, []
1627803598.6203, 124, 0, 4245.641, 4260.513, 4174.872, 4178.974, 4213.846, 450, 0, []
1627803598.6282, 125, 0, 4229.231, 4222.564, 4185.641, 4167.692, 4197.436, 450, 0, []
1627803598.636, 126, 0, 4226.154, 4226.667, 4191.282, 4169.231, 4197.436, 450, 0, []
1627803598.6439, 127, 0, 4225.128, 4242.564, 4187.179, 4172.308, 4201.026, 16193, 0, []
1627803598.6517, 128, 0, 4210.256, 4230.769, 4169.231, 4166.154, 4185.641, 450, 0, []
1627803598.6596, 0, 0, 4205.128, 4235.897, 4156.41, 4165.641, 4185.128, 450, 0, []
1627803598.6675, 1, 0, 4198.974, 4246.667, 4156.41, 4158.462, 4180.513, 450, 0, []
1627803598.6755, 2, 0, 4192.308, 4240.513, 4162.564, 4150.769, 4165.641, 16182, 0, []
1627803598.6834, 3, 0, 4201.026, 4229.231, 4182.564, 4163.59, 4176.41, 450, 0, []
1627803598.6914, 4, 0, 4200.513, 4216.923, 4189.231, 4172.821, 4186.154, 16139, 0, []
1627803598.6992, 5, 0, 4193.846, 4227.692, 4180.513, 4171.282, 4178.462, 450, 0, []
1627803598.7072, 6, 0, 4204.615, 4248.718, 4190.256, 4180, 4185.128, 294, 0, []
1627803598.7151, 7, 0, 4221.026, 4241.026, 4195.897, 4193.846, 4205.641, 450, 0, []
1627803598.7231, 8, 0, 4223.077, 4234.359, 4191.282, 4201.026, 4211.795, 450, 0, []
1627803598.731, 9, 0, 4216.923, 4259.487, 4184.615, 4202.051, 4203.59, 16161, 0, []
1627803598.7387, 10, 0, 4203.59, 4265.641, 4172.308, 4190.256, 4190.769, 450, 0, []
1627803598.7466, 11, 0, 4185.641, 4234.872, 4169.744, 4180, 4180, 16193, 0, []
1627803598.7544, 12, 0, 4184.103, 4226.667, 4172.308, 4184.615, 4176.923, 450, 0, []
1627803598.7623, 13, 0, 4186.667, 4246.667, 4176.923, 4183.077, 4171.282, 450, 0, []
1627803598.7701, 14, 0, 4183.59, 4230.769, 4185.128, 4177.436, 4167.179, 450, 0, []
1627803598.7779, 15, 0, 4189.231, 4203.077, 4193.846, 4179.487, 4175.897, 16193, 0, []
1627803598.7857, 16, 0, 4204.103, 4236.923, 4202.564, 4186.154, 4187.179, 0, 0, []
1627803598.7936, 17, 0, 4205.128, 4261.538, 4186.154, 4189.744, 4185.641, 0, 0, []
1627803598.8014, 18, 0, 4185.641, 4218.462, 4161.538, 4180.513, 4167.179, 0, 0, []
1627803598.8094, 19, 0, 4173.333, 4202.051, 4164.615, 4169.744, 4155.385, 0, 0, []
1627803598.8172, 20, 0, 4183.59, 4243.59, 4177.949, 4178.974, 4164.615, 0, 0, []
1627803598.8252, 21, 0, 4202.051, 4268.718, 4187.179, 4202.051, 4180, 0, 0, []
1627803598.8331, 22, 0, 4200, 4249.231, 4182.051, 4204.615, 4186.667, 0, 0, []
1627803598.8411, 23, 0, 4188.205, 4226.154, 4178.462, 4189.231, 4183.077, 0, 0, []
1627803598.849, 24, 0, 4189.231, 4232.821, 4185.128, 4184.615, 4178.974, 0, 0, []
1627803598.8569, 25, 0, 4184.615, 4247.179, 4177.949, 4183.077, 4169.231, 0, 0, []
1627803598.8648, 26, 0, 4175.897, 4237.949, 4174.872, 4182.564, 4166.154, 0, 0, []
1627803598.8728, 27, 0, 4182.564, 4226.667, 4182.051, 4186.667, 4178.462, 0, 0, []
1627803598.8807, 28, 0, 4189.744, 4243.077, 4183.077, 4187.179, 4183.077, 0, 0, []
1627803598.8887, 29, 0, 4188.205, 4252.821, 4178.974, 4190.769, 4177.436, 0, 0, []
1627803598.8965, 30, 0, 4188.205, 4230.769, 4176.923, 4199.487, 4177.949, 0, 0, []
1627803598.9043, 31, 0, 4180, 4228.718, 4176.923, 4192.821, 4171.795, 0, 0, []
1627803598.9122, 32, 0, 4170.769, 4253.846, 4169.744, 4178.974, 4160.513, 0, 0, []
1627803598.92, 33, 0, 4191.282, 4266.667, 4175.897, 4191.282, 4176.923, 0, 0, []
1627803598.9279, 34, 0, 4203.59, 4257.436, 4184.615, 4205.128, 4190.769, 0, 0, []
1627803598.9356, 35, 0, 4191.282, 4245.128, 4178.462, 4202.564, 4176.923, 0, 0, []
1627803598.9435, 36, 0, 4182.051, 4251.282, 4185.641, 4203.59, 4169.231, 0, 0, []
1627803598.9513, 37, 0, 4171.282, 4247.179, 4180.513, 4192.308, 4163.077, 0, 0, []
1627803598.9592, 38, 0, 4164.615, 4217.949, 4162.051, 4178.462, 4160.513, 0, 0, []
1627803598.967, 39, 0, 4176.923, 4230.256, 4176.923, 4190.256, 4176.923, 0, 0, []
1627803598.9748, 40, 0, 4188.205, 4264.615, 4190.256, 4202.051, 4192.821, 0, 0, []
1627803598.9826, 41, 0, 4188.718, 4250.256, 4180, 4194.359, 4190.769, 0, 0, []
1627803598.9906, 42, 0, 4182.564, 4222.564, 4168.718, 4178.974, 4178.974, 0, 0, []
1627803598.9985, 43, 0, 4180, 4240, 4170.256, 4177.949, 4180, 0, 0, []
1627803599.0065, 44, 0, 4187.179, 4264.103, 4184.103, 4194.359, 4193.333, 0, 0, []
1627803599.0143, 45, 0, 4189.231, 4254.359, 4180.513, 4204.103, 4190.769, 0, 0, []
1627803599.0223, 46, 0, 4183.077, 4236.923, 4171.282, 4200.513, 4177.949, 0, 0, []
1627803599.0302, 47, 0, 4183.59, 4230.769, 4172.821, 4194.872, 4182.564, 0, 0, []
1627803599.0382, 48, 0, 4189.231, 4239.487, 4170.769, 4188.718, 4192.821, 0, 0, []
1627803599.0461, 49, 0, 4194.359, 4256.923, 4175.385, 4186.667, 4187.692, 0, 0, []
1627803599.054, 50, 0, 4187.692, 4260.513, 4183.59, 4187.692, 4174.359, 0, 0, []
1627803599.0619, 51, 0, 4178.462, 4251.795, 4187.179, 4188.205, 4170.256, 0, 0, []
1627803599.0697, 52, 0, 4192.821, 4245.128, 4186.154, 4198.974, 4183.59, 0, 0, []
1627803599.0776, 53, 0, 4212.308, 4244.615, 4180, 4207.692, 4194.359, 0, 0, []
1627803599.0854, 54, 0, 4200, 4234.359, 4180, 4194.359, 4181.026, 0, 0, []
1627803599.0932, 55, 0, 4180.513, 4229.231, 4178.974, 4182.564, 4167.692, 0, 0, []
1627803599.101, 56, 0, 4182.051, 4232.308, 4177.949, 4183.59, 4172.821, 0, 0, []
1627803599.1089, 57, 0, 4196.41, 4234.872, 4183.59, 4187.179, 4181.026, 0, 0, []
1627803599.1167, 58, 0, 4206.154, 4252.308, 4187.692, 4199.487, 4188.718, 0, 0, []
1627803599.1247, 59, 0, 4193.846, 4250.256, 4187.692, 4203.077, 4188.718, 0, 0, []
1627803599.1325, 60, 0, 4174.359, 4209.231, 4177.949, 4186.154, 4176.41, 0, 0, []
1627803599.1405, 61, 0, 4180, 4207.692, 4178.462, 4189.231, 4175.897, 0, 0, []
1627803599.1484, 62, 0, 4200.513, 4257.436, 4190.769, 4216.923, 4200.513, 0, 0, []
1627803599.1564, 63, 0, 4201.026, 4257.949, 4180.513, 4220.513, 4217.949, 0, 0, []
1627803599.1643, 64, 0, 4189.744, 4224.615, 4165.641, 4201.026, 4205.128, 450, 0, []
1627803599.1722, 65, 0, 4193.333, 4235.897, 4170.256, 4202.564, 4195.897, 450, 0, []
1627803599.1801, 66, 0, 4201.026, 4248.718, 4177.436, 4214.359, 4207.179, 16185, 0, []
1627803599.1881, 67, 0, 4185.128, 4223.077, 4169.231, 4199.487, 4205.128, 450, 0, []
1627803599.196, 68, 0, 4165.128, 4206.154, 4160.513, 4178.462, 4182.564, 16139, 0, []
1627803599.2038, 69, 0, 4175.385, 4215.897, 4173.846, 4189.231, 4182.564, 450, 0, []
1627803599.2116, 70, 0, 4202.051, 4230.256, 4186.154, 4209.744, 4212.308, 296, 0, []
1627803599.2194, 71, 0, 4207.692, 4231.795, 4183.077, 4204.615, 4212.821, 450, 0, []
1627803599.2273, 72, 0, 4192.821, 4222.051, 4182.564, 4194.872, 4183.59, 450, 0, []
1627803599.2351, 73, 0, 4191.795, 4232.821, 4177.949, 4204.615, 4187.692, 16161, 0, []
1627803599.243, 74, 0, 4197.949, 4248.718, 4173.333, 4205.641, 4204.615, 450, 0, []
1627803599.2507, 75, 0, 4182.051, 4231.795, 4162.051, 4185.641, 4184.103, 16193, 0, []
1627803599.2586, 76, 0, 4166.154, 4218.462, 4150.256, 4178.974, 4167.692, 450, 0, []
1627803599.2664, 77, 0, 4171.282, 4233.333, 4167.692, 4188.205, 4180.513, 450, 0, []
1627803599.2744, 78, 0, 4182.051, 4241.538, 4184.103, 4188.718, 4187.179, 450, 0, []
1627803599.2823, 79, 0, 4182.564, 4216.923, 4174.359, 4184.615, 4181.026, 16193, 0, []
