Timestamp, COUNTER, INTERPOLATED, AF3, T7, Pz, T8, AF4, RAW_CQ, MARKER_HARDWARE, MARKERS
1627631177.8382, 11, 0, 4130.769, 4200.513, 4109.231, 4065.641, 4035.385, 16196, 0, []
1627631177.8461, 12, 0, 4103.59, 4182.051, 4109.231, 4067.179, 4016.41, 450, 0, []
1627631177.8541, 13, 0, 4071.282, 4169.231, 4103.077, 4061.026, 3990.769, 450, 0, []
1627631177.8621, 14, 0, 4073.846, 4186.667, 4103.59, 4069.744, 3994.872, 450, 0, []
1627631177.87, 15, 0, 4096.41, 4204.103, 4114.872, 4090.256, 4020.513, 16196, 0, []
1627631177.8779, 16, 0, 4097.949, 4202.564, 4122.051, 4095.385, 4026.667, 0, 0, []
1627631177.8858, 17, 0, 4092.821, 4204.615, 4126.154, 4095.385, 4025.128, 0, 0, []
1627631177.8938, 18, 0, 4094.359, 4207.692, 4133.333, 4101.026, 4032.821, 0, 0, []
1627631177.9017, 19, 0, 4097.949, 4201.538, 4133.846, 4106.667, 4038.974, 0, 0, []
1627631177.9097, 20, 0, 4106.154, 4199.487, 4136.923, 4116.41, 4049.744, 0, 0, []
1627631177.9175, 21, 0, 4107.692, 4207.692, 4134.872, 4119.487, 4057.436, 0, 0, []
1627631177.9255, 22, 0, 4101.026, 4215.897, 4122.564, 4112.821, 4053.333, 0, 0, []
1627631177.9334, 23, 0, 4108.205, 4216.923, 4132.308, 4120, 4059.487, 0, 0, []
1627631177.9414, 24, 0, 4130.769, 4217.949, 4154.872, 4144.615, 4085.128, 0, 0, []
1627631177.9493, 25, 0, 4138.462, 4228.718, 4152.821, 4161.026, 4101.538, 0, 0, []
1627631177.9572, 26, 0, 4130.256, 4234.872, 4133.846, 4153.846, 4098.462, 0, 0, []
1627631177.9651, 27, 0, 4111.282, 4213.846, 4107.179, 4127.692, 4078.462, 0, 0, []
1627631177.9731, 28, 0, 4097.436, 4190.769, 4097.436, 4107.692, 4060, 0, 0, []
1627631177.981, 29, 0, 4109.231, 4205.128, 4115.897, 4120.513, 4073.333, 0, 0, []
1627631177.989, 30, 0, 4132.821, 4230.769, 4135.897, 4143.077, 4097.949, 0, 0, []
1627631177.9968, 31, 0, 4133.333, 4226.154, 4140.513, 4149.231, 4099.487, 0, 0, []
1627631178.0048, 32, 0, 4103.077, 4198.974, 4131.282, 4136.41, 4078.974, 0, 0, []
1627631178.0128, 33, 0, 4090.256, 4192.308, 4130.769, 4124.615, 4066.667, 0, 0, []
1627631178.0207, 34, 0, 4122.051, 4211.795, 4142.564, 4147.692, 4092.821, 0, 0, []
1627631178.0287, 35, 0, 4152.821, 4220.513, 4155.897, 4178.462, 4125.128, 0, 0, []
1627631178.0365, 36, 0, 4140.513, 4213.333, 4159.487, 4158.974, 4113.846, 0, 0, []
1627631178.0445, 37, 0, 4125.641, 4222.564, 4146.667, 4122.051, 4097.949, 0, 0, []
1627631178.0524, 38, 0, 4138.974, 4235.385, 4138.974, 4121.026, 4114.359, 0, 0, []
1627631178.0604, 39, 0, 4137.949, 4224.615, 4132.821, 4122.051, 4115.897, 0, 0, []
1627631178.0683, 40, 0, 4116.923, 4209.744, 4127.179, 4108.718, 4095.385, 0, 0, []
1627631178.0762, 41, 0, 4113.846, 4200.513, 4139.487, 4114.872, 4096.41, 0, 0, []
1627631178.0841, 42, 0, 4142.051, 4198.462, 4163.077, 4148.718, 4128.718, 0, 0, []
1627631178.0921, 43, 0, 4163.077, 4209.231, 4175.385, 4169.231, 4150.256, 0, 0, []
1627631178.1, 44, 0, 4151.795, 4214.359, 4159.487, 4150.769, 4134.359, 0, 0, []
1627631178.108, 45, 0, 4146.667, 4214.872, 4148.205, 4137.436, 4127.692, 0, 0, []
1627631178.1158, 46, 0, 4161.026, 4225.641, 4161.026, 4148.205, 4144.615, 0, 0, []
1627631178.1238, 47, 0, 4154.872, 4218.462, 4152.308, 4141.538, 4134.359, 0, 0, []
1627631178.1317, 48, 0, 4132.821, 4195.897, 4131.282, 4121.026, 4109.231, 0, 0, []
1627631178.1397, 49, 0, 4139.487, 4203.59, 4145.128, 4133.846, 4122.051, 0, 0, []
1627631178.1476, 50, 0, 4158.462, 4217.436, 4167.179, 4163.077, 4142.051, 0, 0, []
1627631178.1555, 51, 0, 4156.923, 4214.872, 4165.128, 4169.231, 4139.487, 0, 0, []
1627631178.1634, 52, 0, 4152.308, 4223.59, 4151.795, 4167.179, 4141.538, 0, 0, []
1627631178.1714, 53, 0, 4155.897, 4234.359, 4147.179, 4170.769, 4147.179, 0, 0, []
1627631178.1793, 54, 0, 4157.436, 4221.538, 4144.103, 4172.308, 4144.615, 0, 0, []
1627631178.1873, 55, 0, 4152.308, 4203.59, 4131.795, 4157.436, 4142.051, 0, 0, []
1627631178.1951, 56, 0, 4141.538, 4202.051, 4126.667, 4134.359, 4136.41, 0, 0, []
1627631178.2031, 57, 0, 4138.974, 4201.538, 4130.769, 4137.436, 4136.923, 0, 0, []
1627631178.2111, 58, 0, 4156.923, 4203.59, 4141.538, 4164.615, 4154.359, 0, 0, []
1627631178.219, 59, 0, 4167.692, 4215.897, 4156.41, 4175.897, 4160, 0, 0, []
1627631178.227, 60, 0, 4149.231, 4215.897, 4157.949, 4168.718, 4135.897, 0, 0, []
1627631178.2348, 61, 0, 4131.282, 4207.692, 4154.872, 4168.205, 4118.974, 0, 0, []
1627631178.2427, 62, 0, 4126.667, 4213.333, 4147.179, 4171.282, 4116.923, 0, 0, []
1627631178.2507, 63, 0, 4103.077, 4217.436, 4141.538, 4159.487, 4099.487, 0, 0, []
1627631178.2587, 64, 0, 4084.103, 4205.641, 4142.564, 4149.231, 4077.436, 450, 0, []
1627631178.2666, 65, 0, 4112.821, 4195.385, 4133.333, 4155.897, 4096.41, 450, 0, []
1627631178.2745, 66, 0, 4164.103, 4196.41, 4127.179, 4166.667, 4158.974, 16129, 0, []
1627631178.2824, 67, 0, 4206.667, 4205.128, 4131.795, 4174.872, 4227.692, 450, 0, []
1627631178.2904, 68, 0, 4248.205, 4207.692, 4140, 4184.615, 4285.641, 16169, 0, []
1627631178.2983, 69, 0, 4281.538, 4197.436, 4153.846, 4192.308, 4330.769, 450, 0, []
1627631178.3063, 70, 0, 4304.615, 4206.154, 4168.718, 4207.692, 4362.051, 273, 0, []
1627631178.3141, 71, 0, 4331.795, 4227.179, 4189.231, 4237.949, 4386.154, 450, 0, []
1627631178.3221, 72, 0, 4334.872, 4225.128, 4193.846, 4249.744, 4390.769, 450, 0, []
1627631178.33, 73, 0, 4313.333, 4220.513, 4180.513, 4243.077, 4373.333, 16171, 0, []
1627631178.338, 74, 0, 4309.231, 4227.692, 4178.462, 4241.026, 4354.359, 450, 0, []
1627631178.3459, 75, 0, 4310.769, 4230.256, 4179.487, 4238.462, 4338.462, 16196, 0, []
1627631178.3536, 76, 0, 4299.487, 4224.103, 4180.513, 4237.949, 4320, 450, 0, []
1627631178.3616, 77, 0, 4301.538, 4224.103, 4191.795, 4247.179, 4315.897, 450, 0, []
1627631178.3695, 78, 0, 4311.282, 4234.872, 4198.974, 4254.872, 4323.077, 450, 0, []
1627631178.3775, 79, 0, 4297.949, 4232.821, 4192.308, 4242.051, 4311.282, 16196, 0, []
1627631178.3854, 80, 0, 4275.385, 4216.923, 4184.615, 4219.487, 4291.795, 450, 0, []
1627631178.3933, 81, 0, 4274.359, 4214.359, 4191.795, 4214.359, 4289.744, 450, 0, []
1627631178.4012, 82, 0, 4285.641, 4231.282, 4197.949, 4227.179, 4293.846, 450, 0, []
1627631178.4092, 83, 0, 4294.359, 4234.359, 4196.41, 4238.462, 4296.923, 16196, 0, []
1627631178.4172, 84, 0, 4294.872, 4225.128, 4201.538, 4242.564, 4300, 450, 0, []
1627631178.4251, 85, 0, 4274.359, 4212.308, 4196.41, 4234.359, 4280, 450, 0, []
1627631178.433, 86, 0, 4257.436, 4204.615, 4184.615, 4221.538, 4257.436, 450, 0, []
1627631178.4409, 87, 0, 4260, 4220, 4173.846, 4220, 4263.077, 16196, 0, []
1627631178.4488, 88, 0, 4262.051, 4230.256, 4167.692, 4216.923, 4273.846, 450, 0, []
1627631178.4568, 89, 0, 4270.769, 4216.923, 4181.026, 4223.59, 4282.051, 450, 0, []
1627631178.4647, 90, 0, 4288.718, 4223.077, 4197.949, 4250.769, 4300.513, 450, 0, []
1627631178.4726, 91, 0, 4288.205, 4249.231, 4197.436, 4260, 4305.128, 16196, 0, []
1627631178.4805, 92, 0, 4262.051, 4240.513, 4187.692, 4249.231, 4281.026, 450, 0, []
1627631178.4883, 93, 0, 4246.667, 4214.359, 4180.513, 4247.179, 4265.641, 450, 0, []
1627631178.4963, 94, 0, 4249.744, 4216.41, 4173.333, 4237.436, 4263.59, 450, 0, []
1627631178.5042, 95, 0, 4246.154, 4218.462, 4158.462, 4213.333, 4253.333, 16196, 0, []
1627631178.5121, 96, 0, 4234.359, 4204.615, 4149.231, 4199.487, 4244.615, 450, 0, []
1627631178.52, 97, 0, 4242.051, 4213.333, 4166.667, 4210.256, 4258.974, 450, 0, []
1627631178.528, 98, 0, 4266.154, 4232.821, 4193.846, 4238.462, 4279.487, 450, 0, []
1627631178.5359, 99, 0, 4269.231, 4228.718, 4199.487, 4243.59, 4274.872, 16196, 0, []
1627631178.5439, 100, 0, 4252.308, 4217.436, 4176.41, 4223.59, 4259.487, 450, 0, []
1627631178.5517, 101, 0, 4237.436, 4213.846, 4158.462, 4214.872, 4246.154, 450, 0, []
1627631178.5597, 102, 0, 4235.897, 4215.385, 4166.667, 4214.359, 4238.462, 450, 0, []
1627631178.5676, 103, 0, 4250.769, 4230.256, 4174.872, 4215.897, 4251.795, 16196, 0, []
1627631178.5756, 104, 0, 4253.846, 4232.821, 4172.308, 4215.385, 4262.564, 450, 0, []
1627631178.5835, 105, 0, 4230.769, 4213.333, 4163.077, 4199.487, 4246.667, 450, 0, []
1627631178.5914, 106, 0, 4233.846, 4214.872, 4164.103, 4201.026, 4244.615, 450, 0, []
1627631178.5993, 107, 0, 4264.615, 4230.256, 4186.667, 4230.256, 4270.256, 16196, 0, []
1627631178.6073, 108, 0, 4256.923, 4224.103, 4187.692, 4233.333, 4266.667, 450, 0, []
1627631178.6152, 109, 0, 4228.718, 4211.795, 4170.769, 4213.846, 4244.103, 450, 0, []
1627631178.6232, 110, 0, 4233.333, 4209.231, 4167.179, 4212.308, 4244.615, 450, 0, []
1627631178.631, 111, 0, 4232.308, 4201.026, 4156.923, 4197.436, 4239.487, 16196, 0, []
1627631178.6388, 112, 0, 4215.385, 4194.872, 4152.308, 4167.179, 4220.513, 450, 0, []
1627631178.6467, 113, 0, 4227.179, 4200.513, 4172.821, 4178.974, 4229.231, 450, 0, []
1627631178.6547, 114, 0, 4250.256, 4202.051, 4186.154, 4208.205, 4251.795, 450, 0, []
1627631178.6627, 115, 0, 4251.282, 4198.974, 4175.897, 4208.205, 4251.795, 16196, 0, []
1627631178.6705, 116, 0, 4241.538, 4208.718, 4169.744, 4203.59, 4248.205, 450, 0, []
1627631178.6785, 117, 0, 4238.462, 4224.103, 4174.872, 4209.744, 4246.154, 450, 0, []
1627631178.6864, 118, 0, 4232.821, 4219.487, 4163.077, 4200, 4234.359, 450, 0, []
1627631178.6944, 119, 0, 4220, 4209.744, 4156.923, 4185.128, 4225.641, 16196, 0, []
1627631178.7023, 120, 0, 4215.897, 4212.308, 4165.641, 4183.077, 4228.205, 450, 0, []
1627631178.7103, 121, 0, 4231.795, 4208.205, 4166.154, 4187.179, 4240, 450, 0, []
1627631178.7181, 122, 0, 4241.538, 4200, 4172.308, 4196.41, 4250.256, 450, 0, []
1627631178.7261, 123, 0, 4237.949, 4196.923, 4181.538, 4201.026, 4257.949, 16196, 0, []
1627631178.734, 124, 0, 4270.256, 4198.462, 4181.026, 4201.538, 4288.718, 450, 0, []
1627631178.742, 125, 0, 4327.692, 4206.154, 4176.41, 4200.513, 4333.333, 450, 0, []
1627631178.7499, 126, 0, 4367.179, 4212.308, 4167.179, 4187.179, 4365.641, 450, 0, []
1627631178.7578, 127, 0, 4416.923, 4220, 4163.077, 4172.821, 4413.333, 16196, 0, []
1627631178.7657, 128, 0, 4480, 4240, 4167.179, 4174.872, 4471.282, 450, 0, []
1627631178.7735, 0, 0, 4492.308, 4237.436, 4159.487, 4163.077, 4475.385, 450, 0, []
1627631178.7814, 1, 0, 4450.769, 4193.333, 4138.462, 4121.538, 4422.051, 450, 0, []
1627631178.7892, 2, 0, 4414.359, 4180, 4138.974, 4107.179, 4375.897, 16161, 0, []
1627631178.797, 3, 0, 4371.282, 4208.205, 4163.59, 4129.744, 4330.256, 450, 0, []
1627631178.8048, 4, 0, 4297.436, 4210.256, 4158.974, 4130.769, 4246.667, 16169, 0, []
1627631178.8128, 5, 0, 4230.769, 4194.872, 4135.897, 4115.385, 4169.231, 450, 0, []
1627631178.8207, 6, 0, 4204.103, 4201.026, 4138.462, 4129.231, 4146.154, 310, 0, []
1627631178.8287, 7, 0, 4177.949, 4196.41, 4129.231, 4138.974, 4126.667, 450, 0, []
1627631178.8365, 8, 0, 4142.051, 4174.359, 4117.436, 4118.462, 4092.821, 450, 0, []
1627631178.8445, 9, 0, 4133.333, 4181.538, 4136.923, 4122.051, 4094.872, 16171, 0, []
1627631178.8524, 10, 0, 4141.538, 4198.974, 4154.872, 4147.179, 4112.821, 450, 0, []
1627631178.8604, 11, 0, 4138.974, 4198.462, 4149.231, 4147.692, 4106.154, 16193, 0, []
1627631178.8683, 12, 0, 4128.718, 4200.513, 4142.564, 4134.359, 4092.821, 450, 0, []
1627631178.8762, 13, 0, 4126.667, 4208.205, 4154.359, 4130.256, 4088.718, 450, 0, []
1627631178.8841, 14, 0, 4119.487, 4200.513, 4155.897, 4125.128, 4081.538, 450, 0, []
1627631178.8921, 15, 0, 4107.179, 4184.103, 4150.256, 4122.564, 4077.949, 16193, 0, []
1627631178.9, 16, 0, 4111.795, 4184.103, 4161.026, 4130.256, 4090.769, 0, 0, []
1627631178.908, 17, 0, 4124.615, 4194.359, 4152.821, 4128.205, 4097.436, 0, 0, []
1627631178.9158, 18, 0, 4124.103, 4192.308, 4133.333, 4120, 4092.308, 0, 0, []
1627631178.9236, 19, 0, 4120, 4194.359, 4134.872, 4125.641, 4097.949, 0, 0, []
1627631178.9315, 20, 0, 4122.564, 4201.538, 4137.949, 4130.769, 4103.077, 0, 0, []
1627631178.9393, 21, 0, 4118.462, 4186.154, 4124.615, 4112.821, 4089.744, 0, 0, []
1627631178.9472, 22, 0, 4109.231, 4164.103, 4111.282, 4093.333, 4080.513, 0, 0, []
1627631178.9549, 23, 0, 4110.769, 4164.103, 4120.513, 4104.615, 4086.154, 0, 0, []
1627631178.9628, 24, 0, 4118.462, 4176.41, 4140, 4125.641, 4096.923, 0, 0, []
1627631178.9706, 25, 0, 4119.487, 4184.103, 4143.077, 4126.154, 4102.564, 0, 0, []
1627631178.9786, 26, 0, 4117.436, 4182.564, 4139.487, 4117.949, 4101.538, 0, 0, []
1627631178.9865, 27, 0, 4134.359, 4186.154, 4147.179, 4127.179, 4109.744, 0, 0, []
1627631178.9944, 28, 0, 4158.462, 4201.538, 4152.308, 4136.923, 4126.154, 0, 0, []
1627631179.0023, 29, 0, 4156.41, 4204.615, 4135.897, 4124.103, 4123.59, 0, 0, []
1627631179.0103, 30, 0, 4149.231, 4197.949, 4129.744, 4115.897, 4118.462, 0, 0, []
1627631179.0182, 31, 0, 4158.462, 4195.897, 4147.692, 4132.821, 4130.256, 0, 0, []
1627631179.0262, 32, 0, 4149.231, 4183.077, 4138.974, 4141.026, 4128.205, 0, 0, []
1627631179.034, 33, 0, 4133.333, 4180, 4124.615, 4135.385, 4117.949, 0, 0, []
1627631179.042, 34, 0, 4143.59, 4196.41, 4143.59, 4140, 4123.077, 0, 0, []
1627631179.0499, 35, 0, 4151.795, 4202.564, 4151.282, 4140.513, 4126.154, 0, 0, []
1627631179.0579, 36, 0, 4143.077, 4207.179, 4137.436, 4125.128, 4122.051, 0, 0, []
1627631179.0658, 37, 0, 4143.59, 4224.103, 4128.205, 4106.667, 4122.564, 0, 0, []
1627631179.0735, 38, 0, 4151.282, 4223.077, 4130.256, 4095.385, 4122.564, 0, 0, []
1627631179.0814, 39, 0, 4151.282, 4195.385, 4133.846, 4100, 4122.051, 0, 0, []
1627631179.0892, 40, 0, 4155.897, 4174.872, 4138.462, 4132.308, 4141.026, 0, 0, []
1627631179.0971, 41, 0, 4157.949, 4166.667, 4151.795, 4162.564, 4157.436, 0, 0, []
1627631179.1049, 42, 0, 4137.436, 4162.051, 4151.795, 4155.385, 4144.103, 0, 0, []
1627631179.1127, 43, 0, 4129.231, 4176.41, 4147.179, 4141.538, 4137.436, 0, 0, []
1627631179.1205, 44, 0, 4148.718, 4200, 4154.359, 4136.923, 4153.333, 0, 0, []
1627631179.1285, 45, 0, 4158.974, 4211.795, 4143.077, 4116.923, 4158.462, 0, 0, []
1627631179.1364, 46, 0, 4161.026, 4220, 4127.692, 4103.59, 4152.308, 0, 0, []
1627631179.1444, 47, 0, 4169.744, 4223.59, 4130.769, 4116.41, 4154.872, 0, 0, []
1627631179.1522, 48, 0, 4166.154, 4210.256, 4130.256, 4125.641, 4156.41, 0, 0, []
1627631179.1602, 49, 0, 4153.846, 4197.949, 4128.205, 4127.179, 4153.333, 0, 0, []
1627631179.1681, 50, 0, 4150.256, 4202.564, 4132.821, 4138.462, 4148.205, 0, 0, []
1627631179.1761, 51, 0, 4145.641, 4195.385, 4138.462, 4144.615, 4142.564, 0, 0, []
1627631179.184, 52, 0, 4136.41, 4178.462, 4138.974, 4134.359, 4136.41, 0, 0, []
1627631179.1919, 53, 0, 4125.128, 4176.41, 4132.821, 4120.513, 4120, 0, 0, []
1627631179.1998, 54, 0, 4115.897, 4183.59, 4131.795, 4114.872, 4105.641, 0, 0, []
1627631179.2078, 55, 0, 4126.154, 4193.846, 4134.359, 4120.513, 4122.564, 0, 0, []
1627631179.2157, 56, 0, 4151.795, 4201.538, 4141.026, 4126.667, 4154.872, 0, 0, []
1627631179.2235, 57, 0, 4155.897, 4196.41, 4143.59, 4122.051, 4157.949, 0, 0, []
1627631179.2313, 58, 0, 4141.026, 4180, 4132.821, 4122.564, 4141.026, 0, 0, []
1627631179.2391, 59, 0, 4133.846, 4183.077, 4130.769, 4133.846, 4134.872, 0, 0, []
1627631179.247, 60, 0, 4134.872, 4197.436, 4133.846, 4142.051, 4134.359, 0, 0, []
1627631179.2548, 61, 0, 4137.949, 4187.179, 4130.256, 4137.949, 4133.846, 0, 0, []
1627631179.2627, 62, 0, 4135.897, 4183.077, 4126.667, 4132.308, 4134.359, 0, 0, []
1627631179.2704, 63, 0, 4134.359, 4201.026, 4133.846, 4137.436, 4133.333, 0, 0, []
1627631179.2784, 64, 0, 4154.359, 4208.205, 4146.154, 4137.436, 4142.051, 450, 0, []
1627631179.2863, 65, 0, 4177.436, 4192.308, 4135.385, 4127.179, 4154.359, 450, 0, []
1627631179.2943, 66, 0, 4175.385, 4175.385, 4124.103, 4121.538, 4155.385, 16167, 0, []
1627631179.3022, 67, 0, 4169.231, 4172.821, 4138.462, 4125.128, 4155.897, 450, 0, []
1627631179.3101, 68, 0, 4164.615, 4173.846, 4147.179, 4119.487, 4152.308, 16167, 0, []
1627631179.318, 69, 0, 4153.846, 4171.795, 4141.026, 4107.179, 4139.487, 450, 0, []
1627631179.326, 70, 0, 4159.487, 4166.154, 4135.385, 4106.667, 4142.564, 286, 0, []
1627631179.3339, 71, 0, 4168.718, 4169.744, 4131.282, 4110.256, 4153.333, 450, 0, []
1627631179.3419, 72, 0, 4161.538, 4180, 4125.128, 4110.769, 4143.59, 450, 0, []
1627631179.3497, 73, 0, 4160, 4178.462, 4122.564, 4114.359, 4141.538, 16171, 0, []
1627631179.3577, 74, 0, 4174.359, 4179.487, 4134.872, 4125.641, 4160.513, 450, 0, []
1627631179.3656, 75, 0, 4180, 4185.641, 4138.462, 4125.641, 4161.538, 16193, 0, []
1627631179.3736, 76, 0, 4165.128, 4173.846, 4125.641, 4106.154, 4140, 450, 0, []
1627631179.3815, 77, 0, 4156.923, 4164.103, 4136.923, 4104.615, 4140.513, 450, 0, []
1627631179.3892, 78, 0, 4171.282, 4188.718, 4159.487, 4136.923, 4167.692, 450, 0, []
1627631179.3971, 79, 0, 4177.949, 4205.128, 4147.692, 4153.846, 4175.385, 16193, 0, []
1627631179.4049, 80, 0, 4168.205, 4185.641, 4121.538, 4136.41, 4162.051, 450, 0, []
1627631179.4128, 81, 0, 4185.128, 4190.769, 4128.718, 4141.026, 4172.821, 450, 0, []
1627631179.4206, 82, 0, 4214.359, 4210.769, 4145.128, 4160.513, 4195.897, 450, 0, []
1627631179.4285, 83, 0, 4196.41, 4195.385, 4123.59, 4146.154, 4188.718, 16193, 0, []
1627631179.4364, 84, 0, 4168.205, 4177.436, 4111.795, 4131.282, 4172.821, 450, 0, []
1627631179.4444, 85, 0, 4173.333, 4188.205, 4127.179, 4144.103, 4170.256, 450, 0, []
1627631179.4523, 86, 0, 4177.949, 4201.026, 4124.615, 4148.718, 4163.077, 450, 0, []
1627631179.4603, 87, 0, 4167.692, 4203.59, 4115.897, 4127.179, 4149.231, 16193, 0, []
1627631179.4681, 88, 0, 4165.641, 4202.051, 4117.436, 4115.897, 4150.769, 450, 0, []
1627631179.4761, 89, 0, 4174.359, 4196.923, 4120, 4129.744, 4165.641, 450, 0, []
1627631179.484, 90, 0, 4173.333, 4200.513, 4118.974, 4137.436, 4169.744, 450, 0, []
1627631179.492, 91, 0, 4173.333, 4207.179, 4118.974, 4133.846, 4166.667, 16193, 0, []
1627631179.4999, 92, 0, 4179.487, 4200.513, 4122.051, 4136.41, 4172.821, 450, 0, []
1627631179.5079, 93, 0, 4172.308, 4194.872, 4112.821, 4134.872, 4171.795, 450, 0, []
1627631179.5157, 94, 0, 4165.128, 4198.462, 4112.308, 4123.59, 4159.487, 450, 0, []
1627631179.5236, 95, 0, 4168.718, 4200, 4125.128, 4120, 4164.615, 16193, 0, []
1627631179.5315, 96, 0, 4172.821, 4196.923, 4124.615, 4124.615, 4179.487, 450, 0, []
1627631179.5393, 97, 0, 4173.846, 4198.462, 4125.128, 4126.667, 4182.564, 450, 0, []
1627631179.5472, 98, 0, 4183.077, 4209.231, 4131.795, 4134.872, 4182.564, 450, 0, []
1627631179.5549, 99, 0, 4190.769, 4220, 4129.744, 4144.615, 4189.231, 16193, 0, []
1627631179.5628, 100, 0, 4187.179, 4218.974, 4129.744, 4150.256, 4194.359, 450, 0, []
1627631179.5706, 101, 0, 4186.154, 4206.154, 4131.795, 4156.41, 4192.821, 450, 0, []
1627631179.5786, 102, 0, 4188.718, 4200, 4130.769, 4150.769, 4189.231, 450, 0, []
1627631179.5865, 103, 0, 4184.615, 4209.744, 4131.282, 4140, 4180.513, 16193, 0, []
1627631179.5944, 104, 0, 4172.308, 4212.308, 4132.308, 4142.051, 4172.821, 450, 0, []
1627631179.6023, 105, 0, 4168.718, 4198.462, 4129.231, 4145.128, 4167.692, 450, 0, []
1627631179.6103, 106, 0, 4179.487, 4193.333, 4128.718, 4137.949, 4167.179, 450, 0, []
1627631179.6182, 107, 0, 4190.769, 4209.744, 4141.026, 4145.128, 4174.359, 16193, 0, []
1627631179.6262, 108, 0, 4188.718, 4217.949, 4145.128, 4158.974, 4181.538, 450, 0, []
1627631179.634, 109, 0, 4185.128, 4205.641, 4138.462, 4148.205, 4184.103, 450, 0, []
1627631179.642, 110, 0, 4195.385, 4197.949, 4132.821, 4131.795, 4177.436, 450, 0, []
1627631179.6499, 111, 0, 4196.923, 4203.59, 4118.462, 4135.385, 4168.205, 16193, 0, []
1627631179.6579, 112, 0, 4190.769, 4202.564, 4112.308, 4140.513, 4169.744, 450, 0, []
1627631179.6658, 113, 0, 4192.308, 4196.923, 4118.462, 4139.487, 4176.41, 450, 0, []
1627631179.6737, 114, 0, 4192.308, 4198.974, 4117.949, 4143.077, 4175.897, 450, 0, []
1627631179.6816, 115, 0, 4186.154, 4202.051, 4116.41, 4146.154, 4173.333, 16193, 0, []
1627631179.6894, 116, 0, 4177.949, 4201.026, 4121.026, 4141.538, 4172.821, 450, 0, []
1627631179.6973, 117, 0, 4176.923, 4196.923, 4123.077, 4132.308, 4167.692, 450, 0, []
1627631179.7051, 118, 0, 4179.487, 4185.641, 4111.795, 4128.718, 4167.179, 450, 0, []
1627631179.7129, 119, 0, 4181.538, 4174.872, 4108.718, 4132.308, 4169.231, 16193, 0, []
1627631179.7207, 120, 0, 4182.051, 4183.59, 4124.103, 4135.385, 4169.231, 450, 0, []
1627631179.7286, 121, 0, 4194.872, 4191.282, 4122.564, 4136.923, 4182.051, 450, 0, []
1627631179.7364, 122, 0, 4222.564, 4178.462, 4112.821, 4137.949, 4199.487, 450, 0, []
1627631179.7444, 123, 0, 4227.692, 4174.359, 4111.282, 4135.385, 4196.923, 16193, 0, []
1627631179.7522, 124, 0, 4200.513, 4186.667, 4106.154, 4127.179, 4175.897, 450, 0, []
1627631179.7602, 125, 0, 4167.179, 4187.179, 4103.077, 4116.41, 4143.077, 450, 0, []
1627631179.7681, 126, 0, 4134.359, 4177.436, 4097.436, 4102.564, 4095.897, 450, 0, []
1627631179.7761, 127, 0, 4106.154, 4178.974, 4093.846, 4107.179, 4065.641, 16193, 0, []
1627631179.784, 128, 0, 4087.179, 4181.538, 4102.564, 4121.026, 4065.128, 450, 0, []
1627631179.7919, 0, 0, 4086.667, 4188.205, 4115.385, 4122.564, 4068.718, 450, 0, []
1627631179.7998, 1, 0, 4093.846, 4197.949, 4122.564, 4129.744, 4068.205, 450, 0, []
1627631179.8078, 2, 0, 4091.795, 4198.462, 4118.974, 4148.718, 4070.256, 16167, 0, []
1627631179.8157, 3, 0, 4085.641, 4196.41, 4123.59, 4158.462, 4075.897, 450, 0, []
1627631179.8235, 4, 0, 4082.564, 4191.282, 4138.462, 4153.846, 4073.846, 16167, 0, []
1627631179.8313, 5, 0, 4079.487, 4190.256, 4134.872, 4145.128, 4064.103, 450, 0, []
1627631179.8391, 6, 0, 4069.744, 4186.154, 4124.615, 4128.205, 4050.769, 281, 0, []
1627631179.847, 7, 0, 4060, 4172.821, 4125.128, 4115.897, 4041.026, 450, 0, []
1627631179.8548, 8, 0, 4061.026, 4169.231, 4131.795, 4116.923, 4042.051, 450, 0, []
1627631179.8627, 9, 0, 4068.205, 4183.59, 4130.256, 4120.513, 4049.744, 16171, 0, []
1627631179.8704, 10, 0, 4073.333, 4192.308, 4123.59, 4127.692, 4055.385, 450, 0, []
1627631179.8783, 11, 0, 4083.077, 4194.872, 4138.974, 4146.154, 4066.667, 16193, 0, []
1627631179.8861, 12, 0, 4092.308, 4202.564, 4145.641, 4164.103, 4082.564, 450, 0, []
1627631179.8941, 13, 0, 4092.308, 4205.641, 4131.282, 4170.769, 4085.128, 450, 0, []
1627631179.902, 14, 0, 4093.333, 4200, 4134.359, 4174.359, 4084.103, 450, 0, []
1627631179.9099, 15, 0, 4092.308, 4185.128, 4135.385, 4174.872, 4080.513, 16193, 0, []
1627631179.9178, 16, 0, 4086.154, 4179.487, 4125.128, 4168.718, 4070.256, 0, 0, []
1627631179.9258, 17, 0, 4088.205, 4188.205, 4126.154, 4166.154, 4076.923, 0, 0, []
1627631179.9337, 18, 0, 4084.103, 4182.051, 4126.154, 4156.41, 4080.513, 0, 0, []
1627631179.9417, 19, 0, 4066.667, 4168.205, 4112.308, 4127.692, 4054.872, 0, 0, []
1627631179.9495, 20, 0, 4067.179, 4173.846, 4107.179, 4123.077, 4049.231, 0, 0, []
1627631179.9575, 21, 0, 4077.436, 4183.59, 4122.051, 4142.564, 4068.205, 0, 0, []
1627631179.9654, 22, 0, 4077.436, 4184.103, 4124.615, 4141.026, 4066.667, 0, 0, []
1627631179.9732, 23, 0, 4087.692, 4185.641, 4114.359, 4132.821, 4063.59, 0, 0, []
1627631179.9811, 24, 0, 4108.205, 4184.615, 4122.564, 4138.974, 4069.744, 0, 0, []
1627631179.9888, 25, 0, 4110.256, 4171.282, 4130.769, 4140.513, 4060.513, 0, 0, []
1627631179.9967, 26, 0, 4108.718, 4159.487, 4131.795, 4139.487, 4061.538, 0, 0, []
1627631180.0045, 27, 0, 4119.487, 4156.41, 4133.846, 4145.128, 4077.436, 0, 0, []
1627631180.0124, 28, 0, 4101.026, 4138.974, 4120, 4126.154, 4060.513, 0, 0, []
1627631180.0202, 29, 0, 4055.385, 4115.897, 4095.385, 4086.667, 4013.333, 0, 0, []
1627631180.028, 30, 0, 4046.154, 4114.359, 4078.974, 4072.821, 4001.026, 0, 0, []
1627631180.0358, 31, 0, 4085.128, 4130.256, 4100.513, 4102.564, 4044.103, 0, 0, []
1627631180.0438, 32, 0, 4082.564, 4118.974, 4109.744, 4109.744, 4048.205, 0, 0, []
1627631180.0517, 33, 0, 4058.974, 4106.154, 4098.974, 4093.846, 4021.538, 0, 0, []
1627631180.0596, 34, 0, 4114.872, 4144.615, 4142.051, 4134.872, 4071.795, 0, 0, []
1627631180.0673, 35, 0, 4159.487, 4175.385, 4167.692, 4172.821, 4122.564, 0, 0, []
1627631180.0753, 36, 0, 4106.154, 4142.051, 4123.59, 4132.308, 4071.282, 0, 0, []
1627631180.0832, 37, 0, 4046.154, 4097.436, 4091.282, 4081.026, 4003.59, 0, 0, []
1627631180.0912, 38, 0, 4061.538, 4108.205, 4107.692, 4088.718, 4018.974, 0, 0, []
1627631180.0991, 39, 0, 4099.487, 4129.744, 4121.538, 4112.308, 4059.487, 0, 0, []
1627631180.107, 40, 0, 4100, 4118.974, 4103.077, 4110.769, 4060, 0, 0, []
1627631180.1149, 41, 0, 4091.795, 4114.359, 4094.872, 4107.179, 4054.359, 0, 0, []
1627631180.1229, 42, 0, 4103.59, 4128.718, 4109.744, 4118.462, 4072.308, 0, 0, []
1627631180.1308, 43, 0, 4129.744, 4144.103, 4125.641, 4151.795, 4105.128, 0, 0, []
1627631180.1387, 44, 0, 4146.667, 4152.821, 4138.974, 4173.846, 4127.692, 0, 0, []
1627631180.1465, 45, 0, 4148.718, 4153.846, 4140, 4167.179, 4133.333, 0, 0, []
1627631180.1543, 46, 0, 4130.769, 4130.769, 4115.897, 4143.077, 4108.718, 0, 0, []
1627631180.1622, 47, 0, 4128.205, 4123.59, 4108.205, 4141.026, 4099.487, 0, 0, []
1627631180.17, 48, 0, 4145.641, 4145.641, 4121.538, 4156.41, 4116.41, 0, 0, []
1627631180.1779, 49, 0, 4145.128, 4155.385, 4123.077, 4155.897, 4111.282, 0, 0, []
1627631180.1856, 50, 0, 4153.846, 4167.692, 4130.256, 4165.128, 4115.385, 0, 0, []
1627631180.1935, 51, 0, 4167.179, 4168.718, 4133.846, 4167.692, 4131.282, 0, 0, []
1627631180.2013, 52, 0, 4138.974, 4128.205, 4109.231, 4133.846, 4108.205, 0, 0, []
1627631180.2092, 53, 0, 4113.333, 4115.385, 4103.59, 4124.615, 4086.154, 0, 0, []
1627631180.217, 54, 0, 4147.179, 4157.436, 4143.59, 4169.231, 4119.487, 0, 0, []
1627631180.2249, 55, 0, 4166.154, 4166.154, 4138.974, 4181.026, 4131.795, 0, 0, []
1627631180.2328, 56, 0, 4137.949, 4146.154, 4103.59, 4151.282, 4095.897, 0, 0, []
1627631180.2407, 57, 0, 4119.487, 4147.179, 4110.256, 4140.513, 4074.872, 0, 0, []
1627631180.2486, 58, 0, 4136.923, 4158.974, 4127.692, 4155.385, 4092.821, 0, 0, []
1627631180.2566, 59, 0, 4157.436, 4176.41, 4140, 4169.231, 4115.897, 0, 0, []
1627631180.2646, 60, 0, 4142.051, 4183.077, 4142.564, 4158.974, 4099.487, 0, 0, []
1627631180.2724, 61, 0, 4132.308, 4173.846, 4131.795, 4152.308, 4085.641, 0, 0, []
1627631180.2803, 62, 0, 4140, 4166.667, 4122.051, 4158.462, 4095.897, 0, 0, []
1627631180.2883, 63, 0, 4141.538, 4170.256, 4122.051, 4156.923, 4101.026, 0, 0, []
1627631180.2962, 64, 0, 4156.923, 4175.897, 4144.103, 4156.923, 4121.026, 450, 0, []
1627631180.304, 65, 0, 4173.846, 4174.359, 4155.385, 4157.949, 4140, 450, 0, []
1627631180.3118, 66, 0, 4166.667, 4170.256, 4140, 4152.821, 4124.103, 16177, 0, []
1627631180.3196, 67, 0, 4160.513, 4173.333, 4131.282, 4153.333, 4109.231, 450, 0, []
1627631180.3275, 68, 0, 4166.667, 4178.462, 4128.718, 4157.949, 4120.513, 16179, 0, []
1627631180.3353, 69, 0, 4175.385, 4172.308, 4135.385, 4161.538, 4136.923, 450, 0, []
1627631180.3432, 70, 0, 4188.205, 4170.769, 4152.308, 4167.179, 4149.744, 278, 0, []
1627631180.3509, 71, 0, 4185.128, 4168.205, 4145.128, 4157.436, 4146.667, 450, 0, []
1627631180.3588, 72, 0, 4174.359, 4162.051, 4133.846, 4150.769, 4137.949, 450, 0, []
1627631180.3666, 73, 0, 4190.256, 4176.923, 4147.179, 4175.897, 4160, 16169, 0, []
1627631180.3746, 74, 0, 4211.795, 4195.385, 4151.795, 4193.333, 4183.59, 450, 0, []
1627631180.3825, 75, 0, 4203.59, 4195.385, 4139.487, 4186.154, 4171.795, 16197, 0, []
1627631180.3904, 76, 0, 4194.872, 4195.385, 4138.974, 4179.487, 4160.513, 450, 0, []
1627631180.3983, 77, 0, 4217.949, 4201.026, 4148.205, 4175.385, 4178.462, 450, 0, []
1627631180.4063, 78, 0, 4235.897, 4191.795, 4147.692, 4172.308, 4197.949, 450, 0, []
1627631180.4142, 79, 0, 4224.103, 4182.051, 4143.077, 4166.154, 4192.308, 16197, 0, []
1627631180.4222, 80, 0, 4218.974, 4198.462, 4146.667, 4165.128, 4186.667, 450, 0, []
1627631180.43, 81, 0, 4227.692, 4209.231, 4150.256, 4182.051, 4200.513, 450, 0, []
1627631180.438, 82, 0, 4223.077, 4200.513, 4149.744, 4189.231, 4203.077, 450, 0, []
1627631180.4459, 83, 0, 4217.949, 4203.59, 4147.179, 4176.923, 4192.821, 16197, 0, []
1627631180.4539, 84, 0, 4236.41, 4223.077, 4158.462, 4190.769, 4208.718, 450, 0, []
1627631180.4618, 85, 0, 4246.667, 4221.026, 4165.641, 4209.744, 4231.282, 450, 0, []
1627631180.4695, 86, 0, 4235.385, 4191.282, 4147.692, 4186.154, 4228.718, 450, 0, []
1627631180.4774, 87, 0, 4238.462, 4171.282, 4149.744, 4166.667, 4228.718, 16197, 0, []
1627631180.4852, 88, 0, 4235.897, 4171.795, 4154.872, 4160.513, 4220.513, 450, 0, []
1627631180.4931, 89, 0, 4198.974, 4164.615, 4128.718, 4137.436, 4185.128, 450, 0, []
1627631180.5009, 90, 0, 4192.308, 4167.692, 4126.154, 4144.103, 4178.974, 450, 0, []
1627631180.5087, 91, 0, 4245.128, 4203.077, 4153.846, 4198.462, 4229.231, 16197, 0, []
1627631180.5165, 92, 0, 4258.462, 4214.359, 4148.205, 4215.897, 4247.179, 450, 0, []
1627631180.5244, 93, 0, 4225.128, 4201.026, 4130.769, 4193.846, 4221.538, 450, 0, []
1627631180.5322, 94, 0, 4244.615, 4209.231, 4158.462, 4207.179, 4239.487, 450, 0, []
1627631180.5402, 95, 0, 4277.949, 4208.718, 4178.462, 4224.615, 4269.744, 16197, 0, []
1627631180.548, 96, 0, 4252.821, 4185.128, 4149.744, 4201.026, 4248.718, 450, 0, []
1627631180.556, 97, 0, 4228.205, 4181.538, 4143.59, 4178.974, 4222.051, 450, 0, []
1627631180.5639, 98, 0, 4243.59, 4191.795, 4170.769, 4187.692, 4230.769, 450, 0, []
1627631180.5719, 99, 0, 4247.179, 4180.513, 4167.692, 4184.615, 4232.821, 16197, 0, []
1627631180.5798, 100, 0, 4232.308, 4178.974, 4139.487, 4159.487, 4223.077, 450, 0, []
1627631180.5877, 101, 0, 4234.359, 4196.923, 4127.692, 4153.846, 4233.846, 450, 0, []
1627631180.5956, 102, 0, 4250.256, 4195.385, 4139.487, 4158.974, 4250.256, 450, 0, []
1627631180.6036, 103, 0, 4257.436, 4174.359, 4146.667, 4156.923, 4251.795, 16197, 0, []
1627631180.6115, 104, 0, 4248.718, 4163.59, 4132.821, 4157.436, 4243.59, 450, 0, []
1627631180.6193, 105, 0, 4245.641, 4166.667, 4125.128, 4162.564, 4248.718, 450, 0, []
1627631180.6271, 106, 0, 4261.026, 4184.615, 4132.308, 4168.718, 4271.795, 450, 0, []
1627631180.6349, 107, 0, 4271.795, 4193.846, 4141.538, 4174.872, 4285.641, 16197, 0, []
1627631180.6428, 108, 0, 4264.615, 4180.513, 4138.462, 4171.282, 4282.564, 450, 0, []
1627631180.6506, 109, 0, 4267.179, 4190.769, 4135.385, 4171.795, 4289.231, 450, 0, []
1627631180.6585, 110, 0, 4270.256, 4204.103, 4140.513, 4175.897, 4292.308, 450, 0, []
1627631180.6662, 111, 0, 4238.462, 4177.436, 4127.179, 4157.949, 4264.103, 16197, 0, []
1627631180.6741, 112, 0, 4223.077, 4172.308, 4123.59, 4150.769, 4249.744, 450, 0, []
1627631180.6819, 113, 0, 4247.692, 4203.59, 4149.744, 4171.795, 4272.308, 450, 0, []
1627631180.6899, 114, 0, 4253.333, 4197.949, 4146.154, 4172.308, 4280, 450, 0, []
1627631180.6978, 115, 0, 4244.103, 4172.821, 4127.179, 4159.487, 4272.821, 16197, 0, []
1627631180.7057, 116, 0, 4261.026, 4187.179, 4136.923, 4174.872, 4284.103, 450, 0, []
1627631180.7136, 117, 0, 4274.872, 4216.923, 4149.744, 4192.308, 4296.41, 450, 0, []
1627631180.7216, 118, 0, 4267.179, 4219.487, 4145.128, 4179.487, 4292.308, 450, 0, []
1627631180.7295, 119, 0, 4260.513, 4187.692, 4135.897, 4173.333, 4290.769, 16197, 0, []
1627631180.7375, 120, 0, 4258.462, 4174.872, 4129.231, 4185.128, 4290.256, 450, 0, []
1627631180.7453, 121, 0, 4256.41, 4192.308, 4128.718, 4184.103, 4276.923, 450, 0, []
1627631180.7533, 122, 0, 4254.359, 4191.795, 4133.333, 4170.256, 4269.231, 450, 0, []
1627631180.7612, 123, 0, 4249.744, 4191.282, 4136.923, 4169.231, 4272.308, 16197, 0, []
1627631180.769, 124, 0, 4247.692, 4199.487, 4135.897, 4181.538, 4270.256, 450, 0, []
1627631180.7769, 125, 0, 4256.41, 4184.615, 4141.538, 4188.205, 4273.333, 450, 0, []
1627631180.7846, 126, 0, 4266.667, 4177.949, 4149.231, 4188.205, 4282.051, 450, 0, []
1627631180.7925, 127, 0, 4270.769, 4200, 4150.769, 4186.154, 4285.128, 16197, 0, []
1627631180.8003, 128, 0, 4266.667, 4207.692, 4147.692, 4177.949, 4278.462, 450, 0, []
1627631180.8082, 0, 0, 4252.821, 4182.051, 4134.359, 4162.051, 4263.59, 450, 0, []
1627631180.816, 1, 0, 4243.59, 4164.103, 4133.333, 4155.385, 4260.513, 450, 0, []
1627631180.8238, 2, 0, 4247.179, 4187.179, 4153.846, 4168.718, 4270.769, 16177, 0, []
1627631180.8316, 3, 0, 4249.231, 4202.051, 4149.744, 4168.205, 4267.179, 450, 0, []
1627631180.8396, 4, 0, 4232.308, 4164.615, 4116.923, 4144.615, 4243.077, 16173, 0, []
1627631180.8475, 5, 0, 4221.538, 4142.051, 4107.692, 4137.949, 4236.923, 450, 0, []
1627631180.8555, 6, 0, 4240, 4172.308, 4130.769, 4156.923, 4253.333, 278, 0, []
1627631180.8633, 7, 0, 4253.333, 4185.128, 4142.051, 4168.205, 4260, 450, 0, []
1627631180.8713, 8, 0, 4243.59, 4167.179, 4134.872, 4158.462, 4250.256, 450, 0, []
1627631180.8792, 9, 0, 4231.795, 4170.256, 4135.897, 4144.103, 4241.538, 16169, 0, []
1627631180.8872, 10, 0, 4227.692, 4174.872, 4130.769, 4134.359, 4236.41, 450, 0, []
1627631180.8951, 11, 0, 4227.692, 4154.872, 4122.051, 4127.179, 4233.846, 16197, 0, []
1627631180.9029, 12, 0, 4235.897, 4147.692, 4131.282, 4131.282, 4241.026, 450, 0, []
1627631180.9108, 13, 0, 4237.949, 4158.462, 4136.41, 4141.026, 4246.667, 450, 0, []
1627631180.9186, 14, 0, 4217.949, 4146.667, 4120, 4133.846, 4225.128, 450, 0, []
1627631180.9265, 15, 0, 4210.769, 4134.359, 4113.333, 4118.462, 4209.744, 16197, 0, []
1627631180.9343, 16, 0, 4237.949, 4156.41, 4132.308, 4115.897, 4222.051, 0, 0, []
1627631180.9421, 17, 0, 4237.436, 4162.564, 4126.154, 4090.256, 4197.436, 0, 0, []
1627631180.9499, 18, 0, 4205.128, 4140.513, 4101.026, 4063.077, 4161.026, 0, 0, []
1627631180.9578, 19, 0, 4232.308, 4159.487, 4133.333, 4106.154, 4205.128, 0, 0, []
1627631180.9656, 20, 0, 4265.641, 4175.897, 4155.385, 4153.333, 4243.59, 0, 0, []
1627631180.9736, 21, 0, 4225.641, 4138.974, 4116.923, 4131.795, 4208.205, 0, 0, []
1627631180.9814, 22, 0, 4211.282, 4128.718, 4107.692, 4110.769, 4196.41, 0, 0, []
1627631180.9894, 23, 0, 4251.282, 4161.026, 4133.846, 4130.769, 4225.128, 0, 0, []
1627631180.9973, 24, 0, 4238.974, 4152.821, 4136.923, 4128.718, 4215.897, 0, 0, []
1627631181.0053, 25, 0, 4201.026, 4126.154, 4129.231, 4107.179, 4195.385, 0, 0, []
1627631181.0132, 26, 0, 4224.103, 4149.231, 4140.513, 4119.487, 4213.846, 0, 0, []
1627631181.0212, 27, 0, 4246.154, 4160, 4147.692, 4141.026, 4225.128, 0, 0, []
1627631181.029, 28, 0, 4230.256, 4144.103, 4141.026, 4142.564, 4211.795, 0, 0, []
1627631181.037, 29, 0, 4224.103, 4162.564, 4133.846, 4132.821, 4202.051, 0, 0, []
1627631181.0449, 30, 0, 4248.205, 4166.154, 4132.308, 4130.256, 4211.795, 0, 0, []
1627631181.0529, 31, 0, 4277.949, 4129.231, 4151.282, 4146.154, 4234.872, 0, 0, []
1627631181.0609, 32, 0, 4277.949, 4127.692, 4165.128, 4155.897, 4240.513, 0, 0, []
1627631181.0687, 33, 0, 4258.974, 4176.41, 4136.41, 4143.077, 4231.282, 0, 0, []
1627631181.0767, 34, 0, 4257.949, 4171.282, 4115.385, 4135.897, 4227.692, 0, 0, []
1627631181.0846, 35, 0, 4275.897, 4116.41, 4128.205, 4147.692, 4232.308, 0, 0, []
1627631181.0926, 36, 0, 4282.051, 4115.897, 4124.103, 4143.077, 4231.795, 0, 0, []
1627631181.1005, 37, 0, 4275.897, 4157.436, 4123.077, 4127.692, 4227.692, 0, 0, []
1627631181.1084, 38, 0, 4258.462, 4161.538, 4138.462, 4141.538, 4233.333, 0, 0, []
1627631181.1163, 39, 0, 4246.154, 4141.026, 4137.949, 4162.051, 4233.846, 0, 0, []
1627631181.1243, 40, 0, 4261.538, 4161.538, 4130.769, 4150.256, 4226.667, 0, 0, []
1627631181.1323, 41, 0, 4277.949, 4189.231, 4135.897, 4139.487, 4232.821, 0, 0, []
1627631181.1402, 42, 0, 4241.538, 4165.641, 4133.846, 4144.103, 4223.59, 0, 0, []
1627631181.1481, 43, 0, 4212.308, 4144.103, 4129.231, 4149.231, 4213.846, 0, 0, []
1627631181.156, 44, 0, 4296.41, 4173.846, 4152.821, 4162.564, 4258.462, 0, 0, []
1627631181.164, 45, 0, 4335.897, 4195.897, 4163.077, 4155.385, 4273.846, 0, 0, []
1627631181.1719, 46, 0, 4287.179, 4170.256, 4153.846, 4140.513, 4247.179, 0, 0, []
1627631181.1799, 47, 0, 4316.923, 4181.026, 4169.231, 4159.487, 4272.308, 0, 0, []
1627631181.1877, 48, 0, 4351.795, 4227.692, 4166.667, 4178.462, 4290.769, 0, 0, []
1627631181.1957, 49, 0, 4304.615, 4228.205, 4146.154, 4169.744, 4256.923, 0, 0, []
1627631181.2036, 50, 0, 4280, 4202.564, 4149.231, 4170.256, 4242.051, 0, 0, []
1627631181.2116, 51, 0, 4290.769, 4178.462, 4149.231, 4173.333, 4245.641, 0, 0, []
1627631181.2195, 52, 0, 4263.077, 4155.385, 4148.205, 4156.923, 4231.282, 0, 0, []
1627631181.2274, 53, 0, 4278.974, 4177.436, 4154.359, 4141.026, 4237.949, 0, 0, []
1627631181.2353, 54, 0, 4324.615, 4209.744, 4145.128, 4132.308, 4252.308, 0, 0, []
1627631181.2433, 55, 0, 4306.667, 4196.923, 4146.667, 4146.154, 4245.128, 0, 0, []
1627631181.2512, 56, 0, 4297.436, 4177.436, 4165.128, 4172.821, 4249.744, 0, 0, []
1627631181.2592, 57, 0, 4297.949, 4198.462, 4168.205, 4182.564, 4251.795, 0, 0, []
1627631181.267, 58, 0, 4271.795, 4231.795, 4150.769, 4178.462, 4227.692, 0, 0, []
1627631181.275, 59, 0, 4297.949, 4231.795, 4156.41, 4176.923, 4224.103, 0, 0, []
1627631181.283, 60, 0, 4328.205, 4187.179, 4173.846, 4172.308, 4246.667, 0, 0, []
1627631181.2909, 61, 0, 4285.128, 4172.308, 4164.615, 4163.077, 4255.385, 0, 0, []
1627631181.2989, 62, 0, 4284.615, 4204.103, 4167.179, 4166.667, 4263.59, 0, 0, []
1627631181.3067, 63, 0, 4326.667, 4200.513, 4173.333, 4169.231, 4274.359, 0, 0, []
1627631181.3147, 64, 0, 4292.821, 4180.513, 4140, 4155.385, 4238.974, 450, 0, []
1627631181.3226, 65, 0, 4248.205, 4187.179, 4118.974, 4147.179, 4206.667, 450, 0, []
1627631181.3306, 66, 0, 4254.872, 4195.897, 4142.564, 4166.154, 4225.641, 16190, 0, []
1627631181.3385, 67, 0, 4264.103, 4217.949, 4157.436, 4180.513, 4233.846, 450, 0, []
1627631181.3464, 68, 0, 4257.436, 4210.769, 4137.436, 4155.385, 4205.641, 16173, 0, []
1627631181.3543, 69, 0, 4252.308, 4160, 4133.846, 4131.282, 4204.615, 450, 0, []
1627631181.3623, 70, 0, 4273.333, 4175.385, 4162.564, 4145.128, 4236.923, 276, 0, []
1627631181.3702, 71, 0, 4282.564, 4230.769, 4157.436, 4151.282, 4231.795, 450, 0, []
1627631181.3782, 72, 0, 4229.231, 4203.59, 4118.462, 4122.051, 4186.667, 450, 0, []
1627631181.386, 73, 0, 4212.821, 4157.949, 4117.436, 4122.564, 4180, 16162, 0, []
1627631181.394, 74, 0, 4233.846, 4166.667, 4127.179, 4142.051, 4189.231, 450, 0, []
1627631181.4019, 75, 0, 4208.718, 4170.769, 4115.385, 4131.282, 4165.641, 16186, 0, []
1627631181.4099, 76, 0, 4206.154, 4162.564, 4132.308, 4141.026, 4165.128, 450, 0, []
1627631181.4178, 77, 0, 4227.179, 4169.744, 4154.359, 4147.692, 4181.538, 450, 0, []
1627631181.4257, 78, 0, 4202.564, 4183.59, 4140, 4107.692, 4151.795, 450, 0, []
1627631181.4336, 79, 0, 4186.667, 4188.718, 4129.744, 4105.128, 4135.385, 16186, 0, []
1627631181.4416, 80, 0, 4202.564, 4191.795, 4145.641, 4151.282, 4164.103, 450, 0, []
1627631181.4495, 81, 0, 4206.154, 4203.077, 4144.615, 4151.795, 4172.308, 450, 0, []
1627631181.4575, 82, 0, 4194.359, 4202.564, 4123.59, 4120, 4149.744, 450, 0, []
1627631181.4654, 83, 0, 4195.897, 4198.462, 4126.667, 4123.077, 4151.795, 16186, 0, []
1627631181.4733, 84, 0, 4234.359, 4237.949, 4162.051, 4165.128, 4194.872, 450, 0, []
1627631181.4813, 85, 0, 4264.103, 4285.128, 4191.795, 4193.846, 4230.769, 450, 0, []
1627631181.4892, 86, 0, 4243.077, 4272.308, 4173.846, 4169.744, 4213.846, 450, 0, []
1627631181.4972, 87, 0, 4221.538, 4244.615, 4152.308, 4149.231, 4182.051, 16186, 0, []
1627631181.505, 88, 0, 4233.333, 4251.795, 4160, 4176.923, 4189.231, 450, 0, []
1627631181.513, 89, 0, 4233.846, 4261.538, 4156.41, 4192.308, 4202.564, 450, 0, []
1627631181.5209, 90, 0, 4221.026, 4259.487, 4148.718, 4175.385, 4193.846, 450, 0, []
1627631181.5289, 91, 0, 4223.077, 4262.051, 4152.821, 4169.231, 4193.846, 16186, 0, []
1627631181.5368, 92, 0, 4234.872, 4265.128, 4158.462, 4173.333, 4204.615, 450, 0, []
1627631181.5447, 93, 0, 4241.538, 4261.026, 4157.436, 4169.231, 4206.154, 450, 0, []
1627631181.5526, 94, 0, 4235.897, 4260, 4152.821, 4165.641, 4197.949, 450, 0, []
1627631181.5606, 95, 0, 4232.308, 4268.205, 4165.128, 4172.821, 4192.308, 16186, 0, []
1627631181.5685, 96, 0, 4233.333, 4267.692, 4166.667, 4188.718, 4199.487, 450, 0, []
1627631181.5765, 97, 0, 4219.487, 4244.103, 4143.59, 4190.769, 4206.154, 450, 0, []
1627631181.5843, 98, 0, 4201.026, 4212.821, 4135.385, 4171.282, 4193.846, 450, 0, []
1627631181.5923, 99, 0, 4206.667, 4217.436, 4142.051, 4172.308, 4191.282, 16186, 0, []
1627631181.6003, 100, 0, 4215.897, 4237.436, 4138.974, 4172.821, 4196.923, 450, 0, []
1627631181.6082, 101, 0, 4187.179, 4217.436, 4121.026, 4128.718, 4167.179, 450, 0, []
1627631181.6162, 102, 0, 4171.795, 4202.051, 4116.923, 4118.462, 4150.769, 450, 0, []
1627631181.624, 103, 0, 4203.077, 4228.718, 4138.974, 4164.615, 4178.974, 16186, 0, []
1627631181.632, 104, 0, 4193.846, 4221.026, 4131.282, 4154.872, 4166.667, 450, 0, []
1627631181.6399, 105, 0, 4154.872, 4183.077, 4112.821, 4110.256, 4130.769, 450, 0, []
1627631181.6479, 106, 0, 4161.026, 4202.564, 4134.872, 4128.205, 4146.667, 450, 0, []
1627631181.6558, 107, 0, 4165.641, 4224.615, 4133.846, 4136.923, 4153.846, 16186, 0, []
1627631181.6637, 108, 0, 4146.667, 4200, 4106.154, 4101.538, 4129.744, 450, 0, []
1627631181.6716, 109, 0, 4138.462, 4190.256, 4109.231, 4093.333, 4116.41, 450, 0, []
1627631181.6796, 110, 0, 4133.846, 4192.308, 4123.077, 4110.256, 4112.821, 450, 0, []
1627631181.6875, 111, 0, 4129.744, 4181.026, 4122.564, 4124.103, 4116.41, 16186, 0, []
1627631181.6955, 112, 0, 4151.282, 4182.564, 4129.231, 4141.538, 4138.974, 450, 0, []
1627631181.7033, 113, 0, 4163.077, 4188.718, 4128.718, 4145.641, 4150.769, 450, 0, []
1627631181.7113, 114, 0, 4142.564, 4186.154, 4114.359, 4125.128, 4131.282, 450, 0, []
1627631181.7192, 115, 0, 4137.436, 4195.897, 4128.205, 4119.487, 4122.564, 16186, 0, []
1627631181.7272, 116, 0, 4159.487, 4218.462, 4156.41, 4133.846, 4142.051, 450, 0, []
1627631181.7351, 117, 0, 4172.308, 4233.333, 4153.333, 4145.641, 4160, 450, 0, []
1627631181.743, 118, 0, 4151.795, 4219.487, 4129.231, 4137.949, 4142.564, 450, 0, []
1627631181.7509, 119, 0, 4155.897, 4196.923, 4122.564, 4137.949, 4138.974, 16186, 0, []
1627631181.7587, 120, 0, 4200.513, 4213.333, 4147.179, 4170.769, 4183.59, 450, 0, []
1627631181.7667, 121, 0, 4204.615, 4240.513, 4156.41, 4178.462, 4193.333, 450, 0, []
1627631181.7746, 122, 0, 4167.179, 4231.282, 4124.615, 4135.385, 4150.769, 450, 0, []
1627631181.7825, 123, 0, 4169.744, 4222.564, 4122.051, 4120, 4144.615, 16186, 0, []
1627631181.7904, 124, 0, 4197.949, 4234.359, 4143.59, 4149.231, 4169.744, 450, 0, []
1627631181.7984, 125, 0, 4193.846, 4230.769, 4132.821, 4156.41, 4164.103, 450, 0, []
1627631181.8063, 126, 0, 4186.154, 4232.821, 4133.333, 4152.821, 4157.949, 450, 0, []
1627631181.8143, 127, 0, 4195.385, 4250.769, 4148.205, 4161.026, 4175.897, 16186, 0, []
1627631181.8221, 128, 0, 4199.487, 4243.59, 4139.487, 4150.256, 4187.692, 450, 0, []
1627631181.8301, 0, 0, 4188.205, 4214.872, 4127.179, 4128.205, 4180, 450, 0, []
1627631181.838, 1, 0, 4185.128, 4214.872, 4144.615, 4135.385, 4177.436, 450, 0, []
1627631181.846, 2, 0, 4209.231, 4236.923, 4164.615, 4164.615, 4193.846, 16170, 0, []
1627631181.8539, 3, 0, 4228.718, 4240, 4156.41, 4181.538, 4205.641, 450, 0, []
1627631181.8618, 4, 0, 4217.436, 4230.769, 4148.205, 4175.385, 4189.231, 16164, 0, []
1627631181.8697, 5, 0, 4191.282, 4232.308, 4147.179, 4158.974, 4164.103, 450, 0, []
1627631181.8777, 6, 0, 4175.897, 4234.872, 4137.949, 4140, 4153.333, 271, 0, []
1627631181.8856, 7, 0, 4166.667, 4223.077, 4126.667, 4112.308, 4140, 450, 0, []
1627631181.8934, 8, 0, 4164.103, 4222.564, 4125.641, 4108.718, 4133.846, 450, 0, []
1627631181.9012, 9, 0, 4164.103, 4233.846, 4135.385, 4138.462, 4139.487, 16155, 0, []
1627631181.909, 10, 0, 4156.923, 4228.205, 4138.974, 4160, 4135.385, 450, 0, []
1627631181.917, 11, 0, 4147.179, 4215.897, 4131.795, 4156.41, 4121.026, 16185, 0, []
1627631181.9249, 12, 0, 4144.615, 4216.923, 4133.333, 4141.538, 4115.385, 450, 0, []
1627631181.9329, 13, 0, 4149.744, 4216.41, 4130.256, 4124.103, 4118.462, 450, 0, []
1627631181.9407, 14, 0, 4155.385, 4214.872, 4127.179, 4109.231, 4121.538, 450, 0, []
1627631181.9487, 15, 0, 4158.974, 4232.821, 4132.308, 4110.256, 4118.974, 16185, 0, []
1627631181.9566, 16, 0, 4156.923, 4241.026, 4126.667, 4126.154, 4118.462, 0, 0, []
1627631181.9646, 17, 0, 4157.436, 4220.513, 4135.897, 4150.769, 4129.231, 0, 0, []
1627631181.9725, 18, 0, 4160.513, 4215.897, 4152.308, 4163.59, 4141.026, 0, 0, []
1627631181.9804, 19, 0, 4162.564, 4233.333, 4146.667, 4162.051, 4143.59, 0, 0, []
1627631181.9883, 20, 0, 4164.615, 4235.385, 4134.872, 4156.41, 4142.051, 0, 0, []
1627631181.9963, 21, 0, 4162.564, 4229.231, 4131.282, 4138.974, 4132.308, 0, 0, []
1627631182.0042, 22, 0, 4154.359, 4229.744, 4141.538, 4117.436, 4117.436, 0, 0, []
1627631182.0122, 23, 0, 4148.718, 4228.205, 4152.308, 4122.564, 4116.41, 0, 0, []
1627631182.0201, 24, 0, 4157.436, 4223.077, 4159.487, 4151.282, 4130.256, 0, 0, []
1627631182.028, 25, 0, 4165.128, 4220, 4152.308, 4170.256, 4137.949, 0, 0, []
1627631182.0359, 26, 0, 4162.051, 4226.667, 4136.923, 4170.769, 4137.436, 0, 0, []
1627631182.0437, 27, 0, 4158.462, 4238.974, 4135.897, 4160, 4134.359, 0, 0, []
1627631182.0516, 28, 0, 4151.795, 4229.744, 4137.949, 4138.974, 4121.026, 0, 0, []
1627631182.0594, 29, 0, 4141.026, 4210.256, 4138.974, 4125.128, 4105.641, 0, 0, []
1627631182.0672, 30, 0, 4145.641, 4218.462, 4151.282, 4128.718, 4113.846, 0, 0, []
1627631182.075, 31, 0, 4160.513, 4230.769, 4149.231, 4140, 4133.333, 0, 0, []
1627631182.083, 32, 0, 4164.103, 4218.974, 4133.333, 4147.179, 4137.949, 0, 0, []
1627631182.0909, 33, 0, 4155.385, 4209.231, 4127.179, 4152.308, 4131.795, 0, 0, []
1627631182.0989, 34, 0, 4151.795, 4218.462, 4128.718, 4153.846, 4131.282, 0, 0, []
1627631182.1067, 35, 0, 4142.564, 4216.41, 4123.59, 4135.897, 4120, 0, 0, []
1627631182.1147, 36, 0, 4127.179, 4201.538, 4114.359, 4113.846, 4100.513, 0, 0, []
1627631182.1226, 37, 0, 4137.436, 4202.051, 4131.282, 4126.667, 4108.718, 0, 0, []
1627631182.1306, 38, 0, 4171.795, 4218.462, 4158.462, 4157.436, 4139.487, 0, 0, []
1627631182.1385, 39, 0, 4196.923, 4227.179, 4160.513, 4171.795, 4165.641, 0, 0, []
1627631182.1464, 40, 0, 4206.667, 4220.513, 4145.641, 4168.205, 4183.59, 0, 0, []
1627631182.1543, 41, 0, 4240.513, 4210.769, 4131.795, 4157.949, 4221.538, 0, 0, []
1627631182.1623, 42, 0, 4321.026, 4221.026, 4141.026, 4153.333, 4303.077, 0, 0, []
1627631182.1702, 43, 0, 4396.41, 4246.154, 4157.436, 4160.513, 4382.051, 0, 0, []
1627631182.1782, 44, 0, 4428.718, 4250.256, 4161.538, 4171.795, 4420, 0, 0, []
1627631182.186, 45, 0, 4443.077, 4242.051, 4167.692, 4184.615, 4444.615, 0, 0, []
1627631182.1938, 46, 0, 4441.538, 4251.282, 4168.205, 4192.821, 4455.385, 0, 0, []
1627631182.2017, 47, 0, 4407.692, 4248.205, 4154.359, 4177.436, 4418.974, 0, 0, []
1627631182.2095, 48, 0, 4372.821, 4226.154, 4148.205, 4165.641, 4377.949, 0, 0, []
1627631182.2174, 49, 0, 4366.667, 4228.205, 4166.154, 4188.718, 4377.949, 0, 0, []
1627631182.2251, 50, 0, 4360.513, 4253.333, 4192.821, 4209.744, 4372.308, 0, 0, []
1627631182.233, 51, 0, 4336.41, 4254.359, 4184.615, 4199.487, 4343.59, 0, 0, []
1627631182.2409, 52, 0, 4313.333, 4232.821, 4160, 4188.205, 4325.128, 0, 0, []
1627631182.2488, 53, 0, 4299.487, 4227.692, 4163.59, 4192.308, 4315.897, 0, 0, []
1627631182.2568, 54, 0, 4286.154, 4230.769, 4174.872, 4192.308, 4306.667, 0, 0, []
1627631182.2647, 55, 0, 4269.231, 4226.154, 4173.846, 4183.077, 4294.359, 0, 0, []
1627631182.2726, 56, 0, 4251.795, 4229.231, 4164.103, 4173.333, 4273.333, 0, 0, []
1627631182.2806, 57, 0, 4239.487, 4230.769, 4152.821, 4167.692, 4251.282, 0, 0, []
1627631182.2885, 58, 0, 4228.205, 4221.026, 4146.154, 4171.282, 4238.462, 0, 0, []
1627631182.2965, 59, 0, 4226.154, 4224.103, 4157.436, 4191.795, 4243.59, 0, 0, []
1627631182.3043, 60, 0, 4237.949, 4236.923, 4185.128, 4212.308, 4261.538, 0, 0, []
1627631182.3123, 61, 0, 4234.872, 4235.385, 4191.795, 4201.538, 4257.949, 0, 0, []
1627631182.3202, 62, 0, 4215.897, 4225.128, 4177.436, 4171.282, 4231.795, 0, 0, []
1627631182.3282, 63, 0, 4209.231, 4219.487, 4171.282, 4159.487, 4221.538, 0, 0, []
1627631182.3361, 64, 0, 4223.077, 4218.974, 4174.872, 4180.513, 4236.923, 450, 0, []
1627631182.3438, 65, 0, 4229.231, 4220.513, 4171.282, 4190.769, 4238.974, 450, 0, []
1627631182.3517, 66, 0, 4208.718, 4215.897, 4149.231, 4166.154, 4212.821, 16169, 0, []
1627631182.3595, 67, 0, 4198.974, 4208.205, 4144.615, 4161.538, 4205.641, 450, 0, []
1627631182.3674, 68, 0, 4226.667, 4217.436, 4176.923, 4200.513, 4243.077, 16164, 0, []
1627631182.3752, 69, 0, 4236.41, 4227.692, 4182.051, 4212.821, 4256.41, 450, 0, []
1627631182.383, 70, 0, 4186.667, 4202.564, 4134.359, 4153.846, 4195.897, 278, 0, []
1627631182.3908, 71, 0, 4166.154, 4189.744, 4120, 4121.026, 4168.205, 450, 0, []
1627631182.3988, 72, 0, 4226.667, 4238.974, 4171.282, 4183.077, 4233.846, 450, 0, []
1627631182.4067, 73, 0, 4262.564, 4269.744, 4209.744, 4231.795, 4276.923, 16166, 0, []
1627631182.4147, 74, 0, 4215.897, 4230.769, 4177.436, 4196.41, 4232.308, 450, 0, []
1627631182.4225, 75, 0, 4186.667, 4208.205, 4152.821, 4168.205, 4198.974, 16193, 0, []
1627631182.4305, 76, 0, 4220.513, 4234.872, 4181.026, 4198.462, 4230.769, 450, 0, []
1627631182.4384, 77, 0, 4234.872, 4249.744, 4195.385, 4217.436, 4249.744, 450, 0, []
1627631182.4464, 78, 0, 4205.128, 4235.897, 4174.359, 4190.256, 4216.923, 450, 0, []
1627631182.4543, 79, 0, 4182.051, 4215.897, 4149.744, 4163.59, 4188.718, 16193, 0, []
1627631182.4622, 80, 0, 4190.769, 4217.436, 4151.795, 4169.744, 4197.949, 450, 0, []
1627631182.4701, 81, 0, 4204.103, 4232.821, 4165.128, 4187.179, 4207.179, 450, 0, []
1627631182.4781, 82, 0, 4198.462, 4235.385, 4161.026, 4186.154, 4198.974, 450, 0, []
1627631182.486, 83, 0, 4189.231, 4226.154, 4155.897, 4181.538, 4197.436, 16193, 0, []
1627631182.4938, 84, 0, 4184.103, 4216.41, 4152.821, 4183.59, 4194.359, 450, 0, []
1627631182.5016, 85, 0, 4187.179, 4218.974, 4154.872, 4185.641, 4194.359, 450, 0, []
1627631182.5094, 86, 0, 4193.333, 4229.231, 4157.949, 4188.205, 4201.538, 450, 0, []
1627631182.5173, 87, 0, 4192.821, 4233.846, 4152.308, 4188.718, 4201.538, 16193, 0, []
1627631182.5251, 88, 0, 4193.333, 4228.205, 4155.385, 4190.769, 4199.487, 450, 0, []
1627631182.5331, 89, 0, 4198.462, 4223.077, 4168.205, 4199.487, 4204.615, 450, 0, []
1627631182.5409, 90, 0, 4185.128, 4209.744, 4161.538, 4187.692, 4189.231, 450, 0, []
1627631182.5489, 91, 0, 4170.256, 4200.513, 4151.795, 4168.205, 4165.128, 16193, 0, []
1627631182.5568, 92, 0, 4189.744, 4212.821, 4170.256, 4184.103, 4182.051, 450, 0, []
1627631182.5648, 93, 0, 4211.282, 4228.718, 4195.897, 4208.205, 4208.718, 450, 0, []
1627631182.5727, 94, 0, 4204.615, 4237.949, 4187.179, 4205.641, 4207.179, 450, 0, []
1627631182.5806, 95, 0, 4201.026, 4242.051, 4164.103, 4200.513, 4201.538, 16193, 0, []
1627631182.5885, 96, 0, 4203.077, 4230.769, 4165.128, 4203.59, 4203.077, 450, 0, []
1627631182.5965, 97, 0, 4196.41, 4213.846, 4169.744, 4203.59, 4201.538, 450, 0, []
1627631182.6044, 98, 0, 4194.359, 4221.538, 4170.256, 4207.692, 4200.513, 450, 0, []
1627631182.6124, 99, 0, 4196.923, 4235.897, 4168.718, 4198.974, 4196.41, 16193, 0, []
1627631182.6202, 100, 0, 4205.128, 4229.231, 4170.256, 4189.231, 4198.462, 450, 0, []
1627631182.628, 101, 0, 4221.538, 4225.641, 4178.462, 4207.692, 4215.897, 450, 0, []
1627631182.6359, 102, 0, 4212.308, 4237.436, 4170.256, 4212.821, 4210.256, 450, 0, []
1627631182.6437, 103, 0, 4189.744, 4233.846, 4163.077, 4192.308, 4184.103, 16193, 0, []
1627631182.6516, 104, 0, 4187.179, 4209.744, 4161.538, 4179.487, 4180, 450, 0, []
1627631182.6593, 105, 0, 4188.205, 4200.513, 4148.718, 4173.846, 4183.59, 450, 0, []
1627631182.6672, 106, 0, 4183.077, 4209.231, 4154.359, 4171.795, 4181.026, 450, 0, []
1627631182.675, 107, 0, 4191.282, 4217.949, 4176.41, 4184.103, 4189.744, 16193, 0, []
1627631182.683, 108, 0, 4199.487, 4217.436, 4178.974, 4190.256, 4192.821, 450, 0, []
1627631182.6909, 109, 0, 4192.821, 4218.462, 4166.154, 4183.077, 4186.667, 450, 0, []
1627631182.6988, 110, 0, 4182.564, 4217.949, 4156.923, 4176.923, 4185.128, 450, 0, []
1627631182.7067, 111, 0, 4177.949, 4216.41, 4163.59, 4171.795, 4184.615, 16193, 0, []
1627631182.7147, 112, 0, 4188.718, 4218.462, 4171.795, 4178.462, 4190.256, 450, 0, []
1627631182.7226, 113, 0, 4205.128, 4217.949, 4176.923, 4195.385, 4204.615, 450, 0, []
1627631182.7306, 114, 0, 4202.051, 4215.385, 4180.513, 4200.513, 4204.103, 450, 0, []
1627631182.7385, 115, 0, 4192.821, 4215.385, 4177.949, 4198.462, 4193.846, 16193, 0, []
1627631182.7464, 116, 0, 4211.282, 4224.103, 4182.564, 4213.333, 4207.692, 450, 0, []
1627631182.7544, 117, 0, 4230.256, 4235.385, 4181.026, 4230.769, 4224.103, 450, 0, []
1627631182.7623, 118, 0, 4216.923, 4237.949, 4165.128, 4220.513, 4215.897, 450, 0, []
1627631182.7703, 119, 0, 4197.436, 4226.154, 4153.333, 4202.051, 4200, 16193, 0, []
1627631182.7781, 120, 0, 4194.872, 4214.872, 4149.231, 4196.923, 4193.333, 450, 0, []
1627631182.7861, 121, 0, 4197.436, 4218.462, 4151.282, 4196.41, 4193.333, 450, 0, []
1627631182.794, 122, 0, 4182.051, 4213.333, 4144.103, 4184.103, 4179.487, 450, 0, []
1627631182.802, 123, 0, 4164.615, 4209.231, 4143.077, 4167.692, 4162.051, 16193, 0, []
1627631182.8099, 124, 0, 4169.744, 4221.538, 4155.897, 4170.256, 4168.205, 450, 0, []
1627631182.8178, 125, 0, 4181.026, 4222.564, 4154.359, 4182.051, 4183.077, 450, 0, []
1627631182.8257, 126, 0, 4187.692, 4208.718, 4153.846, 4184.615, 4186.667, 450, 0, []
1627631182.8337, 127, 0, 4187.179, 4207.179, 4154.872, 4181.026, 4185.128, 16193, 0, []
1627631182.8417, 128, 0, 4175.897, 4203.077, 4138.462, 4173.846, 4181.538, 450, 0, []
1627631182.8496, 0, 0, 4182.051, 4201.026, 4138.462, 4178.974, 4187.692, 450, 0, []
1627631182.8576, 1, 0, 4224.615, 4236.41, 4174.359, 4212.308, 4222.051, 450, 0, []
1627631182.8654, 2, 0, 4249.744, 4257.436, 4193.846, 4229.744, 4247.692, 16169, 0, []
1627631182.8734, 3, 0, 4230.256, 4228.718, 4164.103, 4204.615, 4228.205, 450, 0, []
1627631182.8813, 4, 0, 4221.026, 4212.308, 4145.641, 4192.308, 4214.359, 16164, 0, []
1627631182.8893, 5, 0, 4231.795, 4219.487, 4164.103, 4203.59, 4225.128, 450, 0, []
1627631182.8972, 6, 0, 4230.769, 4217.436, 4164.615, 4199.487, 4226.154, 279, 0, []
1627631182.9051, 7, 0, 4221.538, 4209.231, 4145.641, 4182.564, 4214.872, 450, 0, []
1627631182.913, 8, 0, 4227.179, 4214.872, 4150.769, 4184.615, 4223.59, 450, 0, []
1627631182.921, 9, 0, 4245.128, 4225.128, 4164.103, 4200.513, 4247.692, 16166, 0, []
1627631182.9289, 10, 0, 4242.564, 4230.769, 4162.051, 4203.077, 4251.282, 450, 0, []
1627631182.9369, 11, 0, 4227.692, 4234.872, 4155.385, 4202.051, 4238.462, 16193, 0, []
1627631182.9447, 12, 0, 4232.308, 4222.051, 4153.333, 4198.974, 4229.231, 450, 0, []
1627631182.9527, 13, 0, 4234.359, 4209.744, 4149.744, 4182.564, 4217.949, 450, 0, []
1627631182.9606, 14, 0, 4230.256, 4221.538, 4154.359, 4178.974, 4211.795, 450, 0, []
1627631182.9686, 15, 0, 4243.59, 4227.692, 4168.205, 4193.333, 4223.59, 16193, 0, []
1627631182.9765, 16, 0, 4248.205, 4218.462, 4160.513, 4192.308, 4230.769, 0, 0, []
1627631182.9844, 17, 0, 4240.513, 4227.179, 4154.872, 4192.821, 4225.641, 0, 0, []
1627631182.9924, 18, 0, 4237.949, 4240, 4156.923, 4201.026, 4217.949, 0, 0, []
1627631183.0003, 19, 0, 4219.487, 4218.974, 4140.513, 4180.513, 4195.897, 0, 0, []
1627631183.0083, 20, 0, 4208.718, 4207.179, 4147.179, 4168.718, 4183.59, 0, 0, []
1627631183.0162, 21, 0, 4224.103, 4227.692, 4164.615, 4185.641, 4196.923, 0, 0, []
1627631183.0241, 22, 0, 4223.077, 4228.205, 4157.949, 4184.615, 4197.949, 0, 0, []
1627631183.032, 23, 0, 4199.487, 4201.026, 4143.59, 4162.051, 4179.487, 0, 0, []
1627631183.04, 24, 0, 4193.846, 4190.256, 4148.205, 4161.026, 4176.41, 0, 0, []
1627631183.0479, 25, 0, 4206.154, 4211.282, 4172.821, 4178.974, 4187.179, 0, 0, []
1627631183.0559, 26, 0, 4210.256, 4227.692, 4178.974, 4186.667, 4192.308, 0, 0, []
1627631183.0637, 27, 0, 4216.923, 4228.205, 4177.949, 4191.282, 4201.026, 0, 0, []
1627631183.0717, 28, 0, 4219.487, 4226.154, 4183.077, 4194.872, 4201.026, 0, 0, []
1627631183.0796, 29, 0, 4204.615, 4224.615, 4168.718, 4190.769, 4187.692, 0, 0, []
1627631183.0876, 30, 0, 4186.154, 4215.897, 4146.154, 4173.333, 4168.205, 0, 0, []
1627631183.0955, 31, 0, 4176.923, 4200.513, 4138.974, 4154.359, 4154.359, 0, 0, []
1627631183.1034, 32, 0, 4188.718, 4195.385, 4146.667, 4160, 4160, 0, 0, []
1627631183.1113, 33, 0, 4203.59, 4202.051, 4157.949, 4172.821, 4171.795, 0, 0, []
1627631183.1193, 34, 0, 4196.41, 4207.179, 4160.513, 4166.154, 4169.744, 0, 0, []
1627631183.1272, 35, 0, 4184.615, 4213.333, 4155.897, 4158.974, 4163.59, 0, 0, []
1627631183.1352, 36, 0, 4185.128, 4218.462, 4144.615, 4162.051, 4161.538, 0, 0, []
1627631183.143, 37, 0, 4177.949, 4204.615, 4128.718, 4148.718, 4147.692, 0, 0, []
1627631183.151, 38, 0, 4174.872, 4194.359, 4138.974, 4144.615, 4145.641, 0, 0, []
1627631183.1589, 39, 0, 4203.59, 4218.462, 4169.744, 4184.103, 4182.051, 0, 0, []
1627631183.1669, 40, 0, 4233.846, 4236.923, 4185.641, 4215.897, 4216.923, 0, 0, []
1627631183.1749, 41, 0, 4233.846, 4213.846, 4175.385, 4205.128, 4216.41, 0, 0, []
1627631183.1827, 42, 0, 4210.769, 4186.154, 4158.462, 4178.974, 4194.359, 0, 0, []
1627631183.1907, 43, 0, 4204.103, 4200, 4158.974, 4178.974, 4192.308, 0, 0, []
1627631183.1986, 44, 0, 4214.359, 4218.974, 4157.949, 4192.308, 4203.077, 0, 0, []
1627631183.2066, 45, 0, 4196.923, 4201.026, 4142.564, 4170.769, 4182.051, 0, 0, []
1627631183.2145, 46, 0, 4174.359, 4196.923, 4139.487, 4146.667, 4158.974, 0, 0, []
1627631183.2224, 47, 0, 4207.179, 4235.385, 4160.513, 4172.308, 4190.769, 0, 0, []
1627631183.2303, 48, 0, 4232.821, 4242.564, 4172.821, 4193.333, 4216.923, 0, 0, []
1627631183.2383, 49, 0, 4194.872, 4197.949, 4155.385, 4164.103, 4181.026, 0, 0, []
1627631183.2462, 50, 0, 4176.923, 4186.154, 4147.179, 4149.231, 4162.051, 0, 0, []
1627631183.2542, 51, 0, 4206.667, 4213.333, 4157.436, 4166.154, 4189.744, 0, 0, []
1627631183.262, 52, 0, 4218.462, 4211.282, 4157.436, 4173.846, 4202.564, 0, 0, []
1627631183.27, 53, 0, 4211.795, 4196.41, 4153.333, 4175.897, 4195.897, 0, 0, []
1627631183.2779, 54, 0, 4209.231, 4209.744, 4150.256, 4182.564, 4194.359, 0, 0, []
1627631183.2859, 55, 0, 4209.231, 4220, 4155.385, 4182.564, 4200.513, 0, 0, []
1627631183.2938, 56, 0, 4208.718, 4210.256, 4165.128, 4178.974, 4204.615, 0, 0, []
1627631183.3017, 57, 0, 4191.795, 4203.59, 4152.308, 4165.641, 4186.667, 0, 0, []
1627631183.3096, 58, 0, 4163.59, 4195.385, 4132.308, 4143.077, 4159.487, 0, 0, []
1627631183.3176, 59, 0, 4169.231, 4192.821, 4142.051, 4145.128, 4165.641, 0, 0, []
1627631183.3256, 60, 0, 4204.103, 4211.282, 4178.462, 4170.256, 4191.282, 0, 0, []
1627631183.3335, 61, 0, 4206.667, 4210.769, 4187.179, 4171.795, 4186.667, 0, 0, []
1627631183.3414, 62, 0, 4190.256, 4196.923, 4160.513, 4165.128, 4170.256, 0, 0, []
1627631183.3493, 63, 0, 4194.872, 4203.077, 4154.359, 4171.282, 4174.359, 0, 0, []
1627631183.3573, 64, 0, 4195.897, 4197.949, 4153.846, 4168.718, 4181.026, 450, 0, []
1627631183.3652, 65, 0, 4197.949, 4189.231, 4148.718, 4170.256, 4183.59, 450, 0, []
1627631183.3732, 66, 0, 4208.718, 4206.667, 4158.462, 4179.487, 4186.667, 16169, 0, []
1627631183.381, 67, 0, 4208.205, 4228.205, 4170.769, 4183.077, 4189.231, 450, 0, []
1627631183.389, 68, 0, 4198.974, 4240, 4176.41, 4187.179, 4185.128, 16164, 0, []
1627631183.3969, 69, 0, 4183.59, 4237.949, 4158.974, 4177.949, 4169.231, 450, 0, []
1627631183.4049, 70, 0, 4182.051, 4222.564, 4143.59, 4166.154, 4168.718, 278, 0, []
1627631183.4128, 71, 0, 4203.59, 4214.872, 4167.179, 4180, 4185.128, 450, 0, []
1627631183.4207, 72, 0, 4207.179, 4216.923, 4174.872, 4189.231, 4186.667, 450, 0, []
1627631183.4286, 73, 0, 4188.205, 4218.462, 4155.897, 4178.462, 4179.487, 16166, 0, []
1627631183.4366, 74, 0, 4177.949, 4217.949, 4149.231, 4186.154, 4176.923, 450, 0, []
1627631183.4445, 75, 0, 4168.718, 4208.205, 4145.128, 4194.872, 4160.513, 16193, 0, []
1627631183.4525, 76, 0, 4163.59, 4209.231, 4144.103, 4186.154, 4152.821, 450, 0, []
1627631183.4604, 77, 0, 4177.436, 4222.051, 4148.205, 4189.744, 4173.333, 450, 0, []
1627631183.4683, 78, 0, 4181.538, 4204.615, 4147.179, 4190.769, 4180, 450, 0, []
1627631183.4763, 79, 0, 4166.154, 4184.615, 4147.692, 4173.333, 4163.59, 16193, 0, []
1627631183.4842, 80, 0, 4155.385, 4192.821, 4152.308, 4164.615, 4154.872, 450, 0, []
1627631183.4922, 81, 0, 4160.513, 4204.103, 4155.897, 4171.282, 4154.359, 450, 0, []
1627631183.5, 82, 0, 4165.641, 4212.308, 4149.744, 4172.821, 4151.795, 450, 0, []
1627631183.508, 83, 0, 4160.513, 4220, 4146.667, 4168.718, 4152.821, 16193, 0, []
1627631183.5159, 84, 0, 4156.923, 4221.538, 4154.872, 4170.769, 4150.769, 450, 0, []
1627631183.5239, 85, 0, 4158.974, 4213.846, 4157.949, 4166.154, 4143.59, 450, 0, []
1627631183.5318, 86, 0, 4160, 4196.41, 4155.385, 4157.436, 4143.077, 450, 0, []
1627631183.5397, 87, 0, 4166.154, 4194.872, 4162.051, 4168.205, 4151.282, 16193, 0, []
1627631183.5476, 88, 0, 4187.179, 4224.615, 4175.897, 4190.769, 4167.179, 450, 0, []
1627631183.5556, 89, 0, 4189.744, 4230.256, 4165.641, 4189.744, 4170.769, 450, 0, []
1627631183.5635, 90, 0, 4163.077, 4198.974, 4133.333, 4164.615, 4148.205, 450, 0, []
1627631183.5715, 91, 0, 4159.487, 4197.949, 4138.462, 4161.538, 4139.487, 16193, 0, []
1627631183.5793, 92, 0, 4188.205, 4220.513, 4166.667, 4185.128, 4165.641, 450, 0, []
1627631183.5873, 93, 0, 4195.385, 4220.513, 4168.205, 4193.846, 4178.974, 450, 0, []
1627631183.5952, 94, 0, 4178.462, 4211.282, 4159.487, 4183.077, 4167.179, 450, 0, []
1627631183.6032, 95, 0, 4176.41, 4213.333, 4160, 4182.051, 4164.615, 16193, 0, []
1627631183.6111, 96, 0, 4185.128, 4214.872, 4158.974, 4183.59, 4167.692, 450, 0, []
1627631183.6188, 97, 0, 4190.256, 4215.897, 4156.923, 4182.051, 4174.359, 450, 0, []
1627631183.6267, 98, 0, 4197.949, 4223.077, 4167.179, 4193.846, 4190.256, 450, 0, []
1627631183.6345, 99, 0, 4186.154, 4213.333, 4159.487, 4191.282, 4177.436, 16193, 0, []
1627631183.6425, 100, 0, 4168.718, 4200.513, 4140.513, 4171.795, 4156.923, 450, 0, []
1627631183.6504, 101, 0, 4196.923, 4227.179, 4164.103, 4189.231, 4187.692, 450, 0, []
1627631183.6583, 102, 0, 4221.538, 4249.231, 4181.026, 4214.359, 4218.462, 450, 0, []
1627631183.6662, 103, 0, 4191.282, 4222.564, 4154.359, 4196.41, 4189.231, 16193, 0, []
1627631183.6742, 104, 0, 4162.564, 4201.026, 4137.436, 4175.385, 4157.949, 450, 0, []
1627631183.6821, 105, 0, 4174.359, 4214.872, 4141.026, 4183.59, 4171.282, 450, 0, []
1627631183.6901, 106, 0, 4197.949, 4223.077, 4156.923, 4198.974, 4198.462, 450, 0, []
1627631183.6979, 107, 0, 4204.103, 4215.897, 4167.179, 4203.59, 4201.538, 16193, 0, []
1627631183.7059, 108, 0, 4203.077, 4217.436, 4162.564, 4200.513, 4191.795, 450, 0, []
1627631183.7138, 109, 0, 4197.436, 4224.103, 4155.897, 4193.333, 4187.692, 450, 0, []
1627631183.7218, 110, 0, 4179.487, 4214.872, 4142.051, 4175.897, 4173.846, 450, 0, []
1627631183.7297, 111, 0, 4176.41, 4211.282, 4148.205, 4174.359, 4168.205, 16193, 0, []
1627631183.7376, 112, 0, 4196.923, 4222.564, 4172.821, 4194.872, 4185.641, 450, 0, []
1627631183.7455, 113, 0, 4205.641, 4216.923, 4171.282, 4194.872, 4195.897, 450, 0, []
1627631183.7533, 114, 0, 4197.436, 4205.641, 4162.051, 4175.897, 4194.359, 450, 0, []
1627631183.7612, 115, 0, 4196.41, 4211.282, 4169.744, 4173.333, 4200.513, 16193, 0, []
1627631183.769, 116, 0, 4198.462, 4214.359, 4170.769, 4175.897, 4203.59, 450, 0, []
1627631183.7769, 117, 0, 4197.949, 4218.462, 4164.103, 4176.923, 4201.538, 450, 0, []
1627631183.7848, 118, 0, 4202.564, 4225.128, 4165.128, 4184.615, 4207.179, 450, 0, []
1627631183.7928, 119, 0, 4197.949, 4212.308, 4163.59, 4175.897, 4203.077, 16193, 0, []
1627631183.8007, 120, 0, 4189.744, 4203.59, 4158.462, 4164.103, 4191.282, 450, 0, []
1627631183.8087, 121, 0, 4203.077, 4219.487, 4168.205, 4183.59, 4204.615, 450, 0, []
1627631183.8166, 122, 0, 4209.231, 4221.026, 4170.256, 4195.897, 4216.41, 450, 0, []
1627631183.8245, 123, 0, 4177.949, 4198.974, 4143.077, 4169.231, 4184.615, 16193, 0, []
1627631183.8324, 124, 0, 4160.513, 4195.897, 4130.769, 4144.615, 4156.923, 450, 0, []
1627631183.8404, 125, 0, 4195.897, 4218.974, 4147.179, 4167.179, 4189.744, 450, 0, []
1627631183.8483, 126, 0, 4234.359, 4227.692, 4165.128, 4204.615, 4231.282, 450, 0, []
1627631183.8563, 127, 0, 4221.026, 4215.897, 4164.615, 4202.564, 4219.487, 16193, 0, []
1627631183.8641, 128, 0, 4190.256, 4213.333, 4153.333, 4177.949, 4189.231, 450, 0, []
1627631183.8721, 0, 0, 4180, 4210.256, 4147.179, 4166.667, 4184.615, 450, 0, []
1627631183.88, 1, 0, 4189.744, 4206.667, 4148.205, 4171.795, 4195.897, 450, 0, []
1627631183.8878, 2, 0, 4215.897, 4231.282, 4167.179, 4186.667, 4210.769, 16170, 0, []
1627631183.8957, 3, 0, 4221.538, 4249.744, 4171.282, 4190.256, 4212.308, 450, 0, []
1627631183.9035, 4, 0, 4203.077, 4229.231, 4152.821, 4183.077, 4202.564, 16164, 0, []
1627631183.9114, 5, 0, 4198.974, 4216.41, 4164.103, 4184.103, 4200.513, 450, 0, []
1627631183.9192, 6, 0, 4201.538, 4222.564, 4177.949, 4185.641, 4200.513, 278, 0, []
1627631183.9271, 7, 0, 4200, 4224.615, 4168.718, 4186.667, 4201.538, 450, 0, []
1627631183.9349, 8, 0, 4198.974, 4221.026, 4172.308, 4183.077, 4203.077, 450, 0, []
1627631183.9428, 9, 0, 4193.333, 4212.821, 4167.179, 4165.641, 4191.795, 16140, 0, []
1627631183.9507, 10, 0, 4183.077, 4208.718, 4149.744, 4158.974, 4175.897, 450, 0, []
1627631183.9587, 11, 0, 4183.59, 4221.538, 4152.821, 4173.333, 4179.487, 16193, 0, []
1627631183.9666, 12, 0, 4186.154, 4229.744, 4153.846, 4176.41, 4188.205, 450, 0, []
1627631183.9746, 13, 0, 4182.051, 4221.026, 4148.205, 4168.205, 4184.615, 450, 0, []
1627631183.9824, 14, 0, 4180, 4210.769, 4152.308, 4169.231, 4182.051, 450, 0, []
1627631183.9904, 15, 0, 4188.205, 4212.821, 4164.103, 4174.872, 4191.282, 16193, 0, []
1627631183.9983, 16, 0, 4204.615, 4227.692, 4173.333, 4180, 4209.744, 0, 0, []
1627631184.0063, 17, 0, 4210.256, 4234.359, 4173.846, 4185.128, 4215.385, 0, 0, []
1627631184.0142, 18, 0, 4201.538, 4218.974, 4172.308, 4182.564, 4202.051, 0, 0, []
1627631184.0221, 19, 0, 4203.59, 4214.359, 4168.205, 4187.692, 4203.077, 0, 0, []
1627631184.0301, 20, 0, 4207.179, 4221.026, 4160.513, 4188.718, 4208.718, 0, 0, []
1627631184.038, 21, 0, 4188.718, 4215.385, 4154.872, 4171.282, 4193.846, 0, 0, []
1627631184.0459, 22, 0, 4179.487, 4218.462, 4156.923, 4168.205, 4186.154, 0, 0, []
1627631184.0537, 23, 0, 4189.231, 4218.462, 4155.897, 4175.897, 4185.641, 0, 0, []
1627631184.0615, 24, 0, 4189.231, 4198.462, 4143.59, 4164.103, 4176.923, 0, 0, []
1627631184.0693, 25, 0, 4193.333, 4202.051, 4150.769, 4158.974, 4188.205, 0, 0, []
1627631184.0772, 26, 0, 4198.462, 4215.385, 4161.538, 4157.949, 4203.59, 0, 0, []
1627631184.085, 27, 0, 4191.795, 4202.564, 4143.59, 4137.436, 4195.385, 0, 0, []
1627631184.0929, 28, 0, 4213.333, 4199.487, 4139.487, 4142.564, 4210.769, 0, 0, []
1627631184.1006, 29, 0, 4269.231, 4227.179, 4166.154, 4182.051, 4269.744, 0, 0, []
1627631184.1086, 30, 0, 4313.333, 4242.564, 4187.692, 4202.051, 4324.103, 0, 0, []
1627631184.1165, 31, 0, 4328.205, 4223.077, 4170.256, 4181.538, 4338.974, 0, 0, []
1627631184.1245, 32, 0, 4345.641, 4208.205, 4146.667, 4162.564, 4348.205, 0, 0, []
1627631184.1324, 33, 0, 4379.487, 4225.128, 4164.615, 4174.359, 4377.436, 0, 0, []
1627631184.1403, 34, 0, 4391.795, 4241.538, 4181.026, 4184.615, 4394.359, 0, 0, []
1627631184.1482, 35, 0, 4374.872, 4230.256, 4172.308, 4173.333, 4380.513, 0, 0, []
1627631184.1562, 36, 0, 4358.974, 4224.103, 4175.897, 4164.615, 4363.59, 0, 0, []
1627631184.1641, 37, 0, 4337.949, 4226.667, 4176.923, 4163.59, 4346.154, 0, 0, []
1627631184.1721, 38, 0, 4302.564, 4208.718, 4164.103, 4150.769, 4317.436, 0, 0, []
1627631184.1799, 39, 0, 4282.051, 4197.949, 4165.641, 4155.897, 4302.051, 0, 0, []
1627631184.1879, 40, 0, 4284.103, 4207.179, 4175.385, 4181.538, 4309.744, 0, 0, []
1627631184.1958, 41, 0, 4280.513, 4207.179, 4180.513, 4188.718, 4310.769, 0, 0, []
1627631184.2036, 42, 0, 4264.103, 4202.564, 4180.513, 4190.256, 4295.897, 0, 0, []
1627631184.2115, 43, 0, 4237.949, 4198.974, 4169.744, 4185.641, 4271.282, 0, 0, []
1627631184.2192, 44, 0, 4221.026, 4197.949, 4162.564, 4176.41, 4254.359, 0, 0, []
1627631184.2271, 45, 0, 4233.846, 4211.795, 4178.462, 4192.821, 4262.051, 0, 0, []
1627631184.235, 46, 0, 4257.949, 4225.641, 4195.897, 4216.41, 4283.077, 0, 0, []
1627631184.2429, 47, 0, 4251.795, 4215.385, 4180.513, 4200.513, 4275.897, 0, 0, []
1627631184.2508, 48, 0, 4216.923, 4196.41, 4159.487, 4161.026, 4236.923, 0, 0, []
1627631184.2585, 49, 0, 4203.077, 4198.974, 4163.59, 4155.385, 4222.564, 0, 0, []
1627631184.2665, 50, 0, 4213.333, 4202.564, 4166.154, 4166.154, 4231.282, 0, 0, []
1627631184.2744, 51, 0, 4209.744, 4200, 4157.436, 4161.026, 4226.667, 0, 0, []
1627631184.2823, 52, 0, 4207.179, 4208.205, 4157.436, 4164.615, 4222.051, 0, 0, []
1627631184.2903, 53, 0, 4218.974, 4215.897, 4173.846, 4185.641, 4232.308, 0, 0, []
1627631184.2981, 54, 0, 4219.487, 4216.41, 4171.795, 4191.795, 4235.897, 0, 0, []
1627631184.3061, 55, 0, 4217.949, 4215.385, 4156.41, 4186.154, 4233.333, 0, 0, []
1627631184.314, 56, 0, 4217.436, 4202.564, 4163.59, 4178.462, 4225.641, 0, 0, []
1627631184.322, 57, 0, 4198.462, 4191.795, 4162.564, 4157.436, 4208.718, 0, 0, []
1627631184.3299, 58, 0, 4198.462, 4211.282, 4155.385, 4156.41, 4212.821, 0, 0, []
1627631184.3378, 59, 0, 4215.385, 4219.487, 4156.923, 4171.795, 4232.308, 0, 0, []
1627631184.3457, 60, 0, 4217.949, 4202.051, 4155.385, 4174.359, 4233.333, 0, 0, []
1627631184.3535, 61, 0, 4211.282, 4208.718, 4156.923, 4165.128, 4218.462, 0, 0, []
1627631184.3614, 62, 0, 4214.872, 4225.641, 4156.923, 4157.949, 4213.333, 0, 0, []
1627631184.3692, 63, 0, 4217.949, 4212.821, 4152.821, 4163.59, 4222.564, 0, 0, []
1627631184.377, 64, 0, 4202.051, 4193.846, 4148.718, 4163.59, 4208.205, 450, 0, []
1627631184.3849, 65, 0, 4194.872, 4205.641, 4151.282, 4161.538, 4192.821, 450, 0, []
1627631184.3929, 66, 0, 4222.051, 4227.692, 4172.308, 4185.641, 4218.974, 16170, 0, []
1627631184.4008, 67, 0, 4236.41, 4225.641, 4179.487, 4201.538, 4237.436, 450, 0, []
1627631184.4087, 68, 0, 4211.795, 4211.282, 4162.051, 4174.872, 4215.385, 16164, 0, []
1627631184.4165, 69, 0, 4207.692, 4214.359, 4161.538, 4161.538, 4207.692, 450, 0, []
1627631184.4245, 70, 0, 4235.897, 4221.538, 4171.282, 4184.615, 4233.846, 278, 0, []
1627631184.4324, 71, 0, 4249.231, 4213.333, 4165.641, 4187.692, 4249.744, 450, 0, []
1627631184.4404, 72, 0, 4266.154, 4210.256, 4161.026, 4178.462, 4265.641, 450, 0, []
1627631184.4483, 73, 0, 4307.179, 4206.667, 4166.667, 4175.897, 4297.436, 16161, 0, []
1627631184.4562, 74, 0, 4343.077, 4197.949, 4157.949, 4160.513, 4329.231, 450, 0, []
1627631184.4641, 75, 0, 4377.949, 4204.103, 4146.667, 4164.615, 4373.333, 16193, 0, []
1627631184.4721, 76, 0, 4427.179, 4220.513, 4166.667, 4204.103, 4422.564, 450, 0, []
1627631184.48, 77, 0, 4434.872, 4225.641, 4175.897, 4208.718, 4424.615, 450, 0, []
1627631184.488, 78, 0, 4395.385, 4215.385, 4158.974, 4181.026, 4395.385, 450, 0, []
1627631184.4958, 79, 0, 4373.846, 4202.564, 4153.333, 4170.769, 4382.051, 16193, 0, []
1627631184.5036, 80, 0, 4377.436, 4202.564, 4160.513, 4171.795, 4377.436, 450, 0, []
1627631184.5115, 81, 0, 4389.231, 4230.769, 4185.641, 4186.154, 4381.538, 450, 0, []
1627631184.5193, 82, 0, 4383.59, 4251.282, 4204.103, 4203.59, 4381.538, 450, 0, []
1627631184.5272, 83, 0, 4338.462, 4232.821, 4172.308, 4180, 4341.538, 16193, 0, []
1627631184.5349, 84, 0, 4298.462, 4212.821, 4144.615, 4158.974, 4296.41, 450, 0, []
1627631184.5428, 85, 0, 4310.769, 4221.538, 4169.744, 4197.949, 4304.103, 450, 0, []
1627631184.5506, 86, 0, 4311.795, 4226.667, 4183.077, 4210.256, 4308.718, 450, 0, []
1627631184.5585, 87, 0, 4262.051, 4202.051, 4153.846, 4164.103, 4258.462, 16193, 0, []
1627631184.5663, 88, 0, 4236.923, 4193.846, 4145.641, 4152.821, 4226.154, 450, 0, []
1627631184.5742, 89, 0, 4247.179, 4210.256, 4165.641, 4171.282, 4237.949, 450, 0, []
1627631184.5821, 90, 0, 4243.59, 4218.974, 4166.667, 4172.308, 4242.051, 450, 0, []
1627631184.5901, 91, 0, 4235.897, 4223.59, 4165.641, 4175.897, 4231.795, 16193, 0, []
1627631184.598, 92, 0, 4232.308, 4223.59, 4171.795, 4182.564, 4225.128, 450, 0, []
1627631184.606, 93, 0, 4220, 4214.872, 4168.205, 4170.769, 4217.436, 450, 0, []
1627631184.6139, 94, 0, 4221.538, 4212.308, 4174.872, 4168.718, 4215.897, 450, 0, []
1627631184.6218, 95, 0, 4230.769, 4221.026, 4172.308, 4184.615, 4221.026, 16193, 0, []
1627631184.6297, 96, 0, 4214.872, 4220, 4152.308, 4184.615, 4206.154, 450, 0, []
1627631184.6377, 97, 0, 4203.077, 4217.436, 4157.949, 4181.026, 4195.897, 450, 0, []
1627631184.6456, 98, 0, 4212.308, 4212.308, 4174.359, 4191.795, 4205.641, 450, 0, []
1627631184.6536, 99, 0, 4210.769, 4200, 4176.41, 4187.692, 4198.462, 16193, 0, []
1627631184.6614, 100, 0, 4195.385, 4201.538, 4162.564, 4170.256, 4181.026, 450, 0, []
1627631184.6694, 101, 0, 4176.41, 4192.821, 4145.128, 4151.282, 4163.59, 450, 0, []
1627631184.6773, 102, 0, 4161.538, 4169.231, 4142.051, 4136.41, 4149.744, 450, 0, []
1627631184.6851, 103, 0, 4165.641, 4173.846, 4149.744, 4143.59, 4156.41, 16193, 0, []
1627631184.693, 104, 0, 4171.795, 4190.256, 4149.231, 4156.41, 4164.103, 450, 0, []
1627631184.7007, 105, 0, 4172.821, 4193.333, 4146.667, 4167.179, 4161.026, 450, 0, []
1627631184.7087, 106, 0, 4188.205, 4210.256, 4162.564, 4183.59, 4169.744, 450, 0, []
1627631184.7166, 107, 0, 4189.744, 4224.103, 4170.256, 4180.513, 4173.846, 16193, 0, []
1627631184.7246, 108, 0, 4168.205, 4205.128, 4149.744, 4158.462, 4154.872, 450, 0, []
1627631184.7325, 109, 0, 4167.692, 4195.897, 4152.308, 4164.615, 4155.897, 450, 0, []
1627631184.7404, 110, 0, 4180, 4203.59, 4169.231, 4181.026, 4172.821, 450, 0, []
1627631184.7483, 111, 0, 4174.359, 4203.077, 4165.641, 4163.077, 4162.564, 16193, 0, []
1627631184.7563, 112, 0, 4167.179, 4197.436, 4164.615, 4143.59, 4150.769, 450, 0, []
1627631184.7642, 113, 0, 4164.103, 4188.205, 4162.051, 4143.59, 4154.872, 450, 0, []
1627631184.7722, 114, 0, 4160.513, 4181.538, 4151.282, 4142.051, 4150.769, 450, 0, []
1627631184.78, 115, 0, 4148.718, 4186.154, 4143.077, 4135.897, 4134.359, 16193, 0, []
1627631184.788, 116, 0, 4137.949, 4183.59, 4135.385, 4136.923, 4130.769, 450, 0, []
1627631184.7959, 117, 0, 4153.846, 4181.538, 4148.718, 4159.487, 4149.744, 450, 0, []
1627631184.8037, 118, 0, 4166.667, 4192.308, 4164.615, 4174.872, 4158.462, 450, 0, []
1627631184.8116, 119, 0, 4145.641, 4192.821, 4153.333, 4155.897, 4140.513, 16193, 0, []
1627631184.8193, 120, 0, 4128.718, 4183.59, 4141.538, 4144.103, 4121.026, 450, 0, []
1627631184.8272, 121, 0, 4127.692, 4185.641, 4147.179, 4154.872, 4110.769, 450, 0, []
1627631184.835, 122, 0, 4105.641, 4181.026, 4137.949, 4143.59, 4091.282, 450, 0, []
1627631184.8429, 123, 0, 4097.949, 4177.436, 4128.718, 4129.231, 4087.179, 16193, 0, []
1627631184.8507, 124, 0, 4137.436, 4199.487, 4161.538, 4156.41, 4123.077, 450, 0, []
1627631184.8586, 125, 0, 4161.538, 4206.667, 4181.538, 4183.077, 4147.179, 450, 0, []
1627631184.8665, 126, 0, 4147.692, 4187.179, 4155.897, 4176.41, 4136.41, 450, 0, []
1627631184.8745, 127, 0, 4138.462, 4184.615, 4149.231, 4166.667, 4129.231, 16193, 0, []
1627631184.8824, 128, 0, 4132.821, 4188.205, 4158.974, 4158.462, 4123.077, 450, 0, []
1627631184.8904, 0, 0, 4124.103, 4183.077, 4160, 4151.795, 4109.231, 450, 0, []
1627631184.8982, 1, 0, 4121.026, 4187.179, 4155.385, 4151.795, 4101.538, 450, 0, []
1627631184.9062, 2, 0, 4115.385, 4189.231, 4143.077, 4138.974, 4094.359, 16174, 0, []
1627631184.9141, 3, 0, 4112.821, 4190.769, 4144.103, 4126.154, 4089.744, 450, 0, []
1627631184.9221, 4, 0, 4118.974, 4196.923, 4143.59, 4133.333, 4091.282, 16164, 0, []
1627631184.93, 5, 0, 4118.462, 4189.231, 4128.718, 4141.026, 4094.359, 450, 0, []
1627631184.9378, 6, 0, 4136.923, 4186.667, 4142.564, 4160, 4120, 277, 0, []
1627631184.9457, 7, 0, 4158.462, 4196.41, 4162.564, 4180.513, 4143.077, 450, 0, []
1627631184.9535, 8, 0, 4129.744, 4188.205, 4145.641, 4154.872, 4109.744, 450, 0, []
1627631184.9614, 9, 0, 4101.026, 4177.949, 4130.769, 4126.154, 4081.026, 16165, 0, []
1627631184.9692, 10, 0, 4129.231, 4190.769, 4152.308, 4148.718, 4112.821, 450, 0, []
1627631184.977, 11, 0, 4147.692, 4200.513, 4165.641, 4167.179, 4129.231, 16195, 0, []
1627631184.9848, 12, 0, 4131.282, 4194.359, 4152.821, 4155.897, 4112.821, 450, 0, []
1627631184.9927, 13, 0, 4144.103, 4189.231, 4145.641, 4155.385, 4121.538, 450, 0, []
1627631185.0005, 14, 0, 4163.077, 4184.615, 4139.487, 4158.974, 4127.179, 450, 0, []
1627631185.0084, 15, 0, 4156.923, 4184.103, 4136.41, 4154.359, 4112.821, 16195, 0, []
1627631185.0161, 16, 0, 4157.949, 4196.41, 4148.205, 4153.333, 4117.949, 0, 0, []
1627631185.0241, 17, 0, 4162.051, 4207.692, 4149.744, 4148.205, 4128.718, 0, 0, []
1627631185.032, 18, 0, 4148.718, 4196.923, 4143.59, 4135.385, 4114.359, 0, 0, []
1627631185.04, 19, 0, 4135.897, 4183.077, 4133.333, 4121.026, 4096.41, 0, 0, []
1627631185.0479, 20, 0, 4140.513, 4181.538, 4129.744, 4115.385, 4096.923, 0, 0, []
1627631185.0558, 21, 0, 4150.256, 4184.103, 4147.692, 4127.692, 4102.564, 0, 0, []
1627631185.0637, 22, 0, 4147.692, 4193.846, 4154.359, 4138.462, 4104.615, 0, 0, []
1627631185.0717, 23, 0, 4143.59, 4198.974, 4148.205, 4138.974, 4109.231, 0, 0, []
1627631185.0796, 24, 0, 4138.462, 4189.744, 4151.795, 4143.59, 4109.744, 0, 0, []
1627631185.0876, 25, 0, 4115.385, 4179.487, 4145.128, 4133.333, 4086.154, 0, 0, []
1627631185.0954, 26, 0, 4107.179, 4187.692, 4143.59, 4116.923, 4072.821, 0, 0, []
1627631185.1034, 27, 0, 4138.462, 4214.359, 4161.538, 4137.436, 4104.103, 0, 0, []
1627631185.1113, 28, 0, 4153.333, 4222.564, 4164.615, 4160, 4122.051, 0, 0, []
1627631185.1191, 29, 0, 4138.462, 4200.513, 4149.744, 4149.744, 4106.154, 0, 0, []
1627631185.127, 30, 0, 4147.692, 4192.821, 4154.359, 4148.205, 4115.385, 0, 0, []
1627631185.1347, 31, 0, 4165.641, 4209.231, 4170.769, 4164.103, 4135.897, 0, 0, []
1627631185.1426, 32, 0, 4146.154, 4202.564, 4154.359, 4154.359, 4115.897, 0, 0, []
1627631185.1504, 33, 0, 4130.256, 4191.282, 4141.538, 4141.026, 4093.846, 0, 0, []
1627631185.1583, 34, 0, 4152.308, 4208.718, 4160, 4159.487, 4110.769, 0, 0, []
1627631185.1661, 35, 0, 4163.59, 4212.308, 4158.974, 4169.744, 4123.077, 0, 0, []
1627631185.1739, 36, 0, 4140, 4198.974, 4146.154, 4153.846, 4105.641, 0, 0, []
1627631185.1817, 37, 0, 4123.077, 4202.564, 4151.282, 4144.103, 4093.846, 0, 0, []
1627631185.1897, 38, 0, 4142.051, 4210.256, 4166.667, 4155.897, 4112.308, 0, 0, []
1627631185.1976, 39, 0, 4163.59, 4204.615, 4172.308, 4170.256, 4130.769, 0, 0, []
1627631185.2056, 40, 0, 4156.41, 4200, 4161.026, 4172.308, 4125.128, 0, 0, []
1627631185.2134, 41, 0, 4149.231, 4197.949, 4158.462, 4170.256, 4124.615, 0, 0, []
1627631185.2214, 42, 0, 4160.513, 4200, 4168.205, 4172.821, 4135.385, 0, 0, []
1627631185.2293, 43, 0, 4156.923, 4203.59, 4164.103, 4159.487, 4122.051, 0, 0, []
1627631185.2373, 44, 0, 4135.385, 4190.769, 4153.333, 4134.872, 4093.846, 0, 0, []
1627631185.2452, 45, 0, 4134.359, 4177.436, 4153.333, 4141.026, 4100, 0, 0, []
1627631185.2531, 46, 0, 4148.718, 4188.718, 4157.436, 4159.487, 4122.564, 0, 0, []
1627631185.261, 47, 0, 4157.949, 4206.154, 4150.256, 4156.41, 4123.59, 0, 0, []
1627631185.2688, 48, 0, 4155.897, 4200, 4144.103, 4149.744, 4114.872, 0, 0, []
1627631185.2767, 49, 0, 4148.718, 4183.59, 4149.231, 4149.744, 4116.41, 0, 0, []
1627631185.2845, 50, 0, 4145.128, 4189.744, 4150.256, 4143.077, 4116.41, 0, 0, []
1627631185.2923, 51, 0, 4145.641, 4196.41, 4146.667, 4136.41, 4110.769, 0, 0, []
1627631185.3001, 52, 0, 4147.179, 4183.077, 4144.103, 4144.103, 4118.974, 0, 0, []
1627631185.308, 53, 0, 4151.282, 4180, 4149.744, 4156.41, 4140, 0, 0, []
1627631185.3158, 54, 0, 4150.769, 4191.282, 4153.333, 4152.821, 4145.128, 0, 0, []
1627631185.3238, 55, 0, 4145.128, 4178.462, 4138.462, 4136.923, 4135.385, 0, 0, []
1627631185.3316, 56, 0, 4152.308, 4163.59, 4135.897, 4135.897, 4141.026, 0, 0, []
1627631185.3395, 57, 0, 4160, 4178.462, 4146.667, 4149.231, 4153.333, 0, 0, []
1627631185.3473, 58, 0, 4149.231, 4189.744, 4141.026, 4150.769, 4143.59, 0, 0, []
1627631185.3553, 59, 0, 4143.59, 4185.641, 4140.513, 4147.692, 4133.333, 0, 0, []
1627631185.3632, 60, 0, 4150.769, 4186.667, 4152.821, 4154.872, 4141.026, 0, 0, []
1627631185.3711, 61, 0, 4146.667, 4182.564, 4156.41, 4145.128, 4137.949, 0, 0, []
1627631185.379, 62, 0, 4129.231, 4171.795, 4148.718, 4123.59, 4117.949, 0, 0, []
1627631185.387, 63, 0, 4134.872, 4168.205, 4146.667, 4129.744, 4123.077, 0, 0, []
1627631185.3949, 64, 0, 4149.744, 4171.795, 4156.41, 4137.949, 4134.872, 450, 0, []
1627631185.4029, 65, 0, 4139.487, 4179.487, 4152.308, 4127.179, 4124.103, 450, 0, []
1627631185.4108, 66, 0, 4135.897, 4183.59, 4146.154, 4132.821, 4123.59, 16174, 0, []
1627631185.4187, 67, 0, 4143.59, 4172.308, 4140, 4138.462, 4130.256, 450, 0, []
1627631185.4266, 68, 0, 4148.205, 4169.744, 4138.462, 4128.718, 4135.897, 16164, 0, []
1627631185.4344, 69, 0, 4170.769, 4191.795, 4166.154, 4151.795, 4165.128, 450, 0, []
1627631185.4423, 70, 0, 4163.077, 4190.769, 4157.949, 4160.513, 4158.462, 277, 0, []
1627631185.4501, 71, 0, 4123.59, 4168.718, 4125.641, 4126.667, 4113.846, 450, 0, []
1627631185.4579, 72, 0, 4137.949, 4184.103, 4151.795, 4141.026, 4125.128, 450, 0, []
1627631185.4657, 73, 0, 4173.333, 4206.154, 4173.846, 4178.462, 4165.641, 16165, 0, []
1627631185.4736, 74, 0, 4159.487, 4192.821, 4152.308, 4161.538, 4160.513, 450, 0, []
1627631185.4814, 75, 0, 4144.615, 4175.385, 4147.179, 4137.949, 4142.564, 16195, 0, []
1627631185.4893, 76, 0, 4160, 4188.718, 4160.513, 4147.179, 4146.154, 450, 0, []
1627631185.497, 77, 0, 4156.41, 4202.051, 4150.769, 4140.513, 4140.513, 450, 0, []
1627631185.505, 78, 0, 4150.769, 4196.923, 4143.077, 4133.846, 4137.949, 450, 0, []
1627631185.5129, 79, 0, 4161.538, 4185.641, 4153.333, 4151.282, 4145.128, 16195, 0, []
1627631185.5209, 80, 0, 4155.385, 4183.077, 4152.308, 4150.769, 4135.897, 450, 0, []
1627631185.5288, 81, 0, 4146.154, 4198.462, 4145.641, 4139.487, 4130.256, 450, 0, []
1627631185.5367, 82, 0, 4149.231, 4203.077, 4142.564, 4135.897, 4136.41, 450, 0, []
1627631185.5446, 83, 0, 4162.564, 4196.923, 4148.718, 4144.103, 4148.718, 16195, 0, []
1627631185.5526, 84, 0, 4181.538, 4210.769, 4168.718, 4166.154, 4164.615, 450, 0, []
1627631185.5605, 85, 0, 4168.205, 4211.795, 4157.949, 4164.615, 4153.333, 450, 0, []
1627631185.5684, 86, 0, 4145.641, 4182.564, 4132.308, 4140, 4132.821, 450, 0, []
1627631185.5762, 87, 0, 4168.718, 4170.769, 4141.026, 4130.769, 4152.821, 16195, 0, []
1627631185.584, 88, 0, 4206.154, 4191.282, 4154.872, 4135.385, 4196.923, 450, 0, []
1627631185.5919, 89, 0, 4208.205, 4199.487, 4150.256, 4132.308, 4208.205, 450, 0, []
1627631185.5997, 90, 0, 4190.769, 4188.718, 4138.974, 4131.795, 4191.282, 450, 0, []
1627631185.6076, 91, 0, 4183.59, 4184.103, 4137.949, 4142.051, 4181.026, 16195, 0, []
1627631185.6153, 92, 0, 4189.744, 4182.564, 4153.846, 4149.744, 4191.282, 450, 0, []
1627631185.6232, 93, 0, 4201.538, 4186.154, 4157.949, 4153.846, 4201.538, 450, 0, []
1627631185.631, 94, 0, 4202.564, 4197.949, 4149.744, 4152.308, 4189.744, 450, 0, []
1627631185.6389, 95, 0, 4196.923, 4207.179, 4151.795, 4152.821, 4185.128, 16195, 0, []
1627631185.6467, 96, 0, 4196.41, 4204.103, 4156.41, 4154.359, 4194.359, 450, 0, []
1627631185.6545, 97, 0, 4200.513, 4198.974, 4162.564, 4159.487, 4198.974, 450, 0, []
1627631185.6623, 98, 0, 4207.692, 4204.615, 4169.231, 4174.872, 4206.154, 450, 0, []
1627631185.6703, 99, 0, 4200, 4201.026, 4167.692, 4167.692, 4204.615, 16195, 0, []
1627631185.6782, 100, 0, 4180, 4183.59, 4154.872, 4140, 4182.051, 450, 0, []
1627631185.6862, 101, 0, 4178.462, 4186.154, 4151.282, 4136.923, 4176.41, 450, 0, []
1627631185.694, 102, 0, 4201.026, 4209.744, 4170.769, 4168.718, 4201.538, 450, 0, []
1627631185.702, 103, 0, 4210.769, 4218.462, 4171.282, 4180, 4209.744, 16195, 0, []
1627631185.7099, 104, 0, 4186.667, 4197.436, 4137.436, 4147.692, 4180, 450, 0, []
1627631185.7179, 105, 0, 4172.308, 4186.154, 4132.308, 4136.41, 4161.026, 450, 0, []
1627631185.7258, 106, 0, 4189.744, 4196.923, 4159.487, 4164.615, 4182.564, 450, 0, []
1627631185.7337, 107, 0, 4197.436, 4195.897, 4158.974, 4161.538, 4189.744, 16195, 0, []
1627631185.7416, 108, 0, 4182.051, 4188.718, 4137.436, 4133.333, 4170.769, 450, 0, []
1627631185.7494, 109, 0, 4185.641, 4196.923, 4146.154, 4143.59, 4177.436, 450, 0, []
1627631185.7573, 110, 0, 4200, 4208.205, 4165.128, 4166.154, 4193.846, 450, 0, []
1627631185.7651, 111, 0, 4187.692, 4201.538, 4147.692, 4149.231, 4179.487, 16195, 0, []
1627631185.7729, 112, 0, 4186.154, 4198.974, 4142.051, 4137.949, 4177.949, 450, 0, []
1627631185.7807, 113, 0, 4208.205, 4208.205, 4159.487, 4155.897, 4206.154, 450, 0, []
1627631185.7886, 114, 0, 4207.179, 4196.923, 4150.256, 4155.897, 4207.179, 450, 0, []
1627631185.7964, 115, 0, 4192.821, 4186.154, 4136.923, 4137.949, 4186.667, 16195, 0, []
1627631185.8043, 116, 0, 4209.231, 4192.308, 4146.154, 4137.949, 4197.949, 450, 0, []
1627631185.812, 117, 0, 4264.103, 4207.692, 4166.667, 4162.051, 4255.897, 450, 0, []
1627631185.82, 118, 0, 4325.128, 4220.513, 4170.256, 4177.949, 4321.538, 450, 0, []
1627631185.8279, 119, 0, 4362.564, 4215.897, 4150.769, 4163.077, 4356.41, 16195, 0, []
1627631185.8359, 120, 0, 4378.974, 4207.692, 4140.513, 4145.128, 4374.872, 450, 0, []
1627631185.8438, 121, 0, 4404.103, 4214.872, 4156.41, 4163.077, 4404.615, 450, 0, []
1627631185.8517, 122, 0, 4421.538, 4226.154, 4174.359, 4186.154, 4415.385, 450, 0, []
1627631185.8596, 123, 0, 4395.897, 4224.615, 4165.128, 4172.308, 4385.641, 16195, 0, []
1627631185.8676, 124, 0, 4365.128, 4227.692, 4158.462, 4162.051, 4364.615, 450, 0, []
1627631185.8755, 125, 0, 4342.051, 4216.41, 4158.462, 4160.513, 4345.641, 450, 0, []
1627631185.8835, 126, 0, 4315.385, 4196.923, 4150.256, 4149.744, 4310.256, 450, 0, []
1627631185.8913, 127, 0, 4301.026, 4209.231, 4156.41, 4157.436, 4294.872, 16195, 0, []
1627631185.8991, 128, 0, 4280, 4217.436, 4156.923, 4169.744, 4286.667, 450, 0, []
1627631185.907, 0, 0, 4268.205, 4216.923, 4159.487, 4175.385, 4275.897, 450, 0, []
1627631185.9148, 1, 0, 4281.026, 4238.462, 4183.077, 4188.205, 4283.077, 450, 0, []
1627631185.9227, 2, 0, 4271.282, 4248.718, 4183.59, 4185.128, 4279.487, 16175, 0, []
1627631185.9304, 3, 0, 4248.205, 4234.359, 4178.974, 4175.385, 4256.41, 450, 0, []
1627631185.9383, 4, 0, 4250.769, 4232.821, 4191.795, 4186.154, 4252.308, 16166, 0, []
1627631185.9461, 5, 0, 4247.692, 4233.333, 4178.974, 4186.667, 4250.256, 450, 0, []
1627631185.9541, 6, 0, 4233.333, 4227.692, 4164.615, 4173.333, 4236.923, 277, 0, []
1627631185.962, 7, 0, 4230.769, 4234.872, 4169.744, 4177.436, 4235.897, 450, 0, []
1627631185.9699, 8, 0, 4209.231, 4218.462, 4151.795, 4164.615, 4216.41, 450, 0, []
1627631185.9778, 9, 0, 4192.821, 4192.821, 4140.513, 4141.026, 4196.41, 16165, 0, []
1627631185.9858, 10, 0, 4212.821, 4211.282, 4163.59, 4160, 4215.897, 450, 0, []
1627631185.9937, 11, 0, 4212.821, 4223.077, 4170.256, 4177.436, 4218.462, 16195, 0, []
1627631186.0017, 12, 0, 4182.564, 4197.436, 4140.513, 4149.744, 4184.103, 450, 0, []
1627631186.0095, 13, 0, 4177.949, 4193.846, 4136.923, 4128.718, 4174.872, 450, 0, []
1627631186.0175, 14, 0, 4201.538, 4225.641, 4172.308, 4156.41, 4204.103, 450, 0, []
1627631186.0254, 15, 0, 4214.359, 4240.513, 4183.077, 4187.179, 4218.462, 16195, 0, []
1627631186.0332, 16, 0, 4211.282, 4230.256, 4168.718, 4183.59, 4211.282, 0, 0, []
1627631186.0411, 17, 0, 4195.385, 4216.923, 4155.385, 4161.538, 4192.308, 0, 0, []
1627631186.0488, 18, 0, 4178.462, 4210.256, 4146.667, 4148.718, 4175.897, 0, 0, []
1627631186.0568, 19, 0, 4189.231, 4217.436, 4158.974, 4162.564, 4189.231, 0, 0, []
1627631186.0647, 20, 0, 4201.538, 4220, 4171.282, 4177.949, 4202.564, 0, 0, []
1627631186.0726, 21, 0, 4184.615, 4211.795, 4159.487, 4165.641, 4187.179, 0, 0, []
1627631186.0804, 22, 0, 4181.538, 4219.487, 4153.846, 4162.564, 4183.077, 0, 0, []
1627631186.0882, 23, 0, 4212.821, 4235.385, 4174.872, 4190.256, 4209.744, 0, 0, []
1627631186.096, 24, 0, 4214.872, 4229.744, 4180, 4193.333, 4209.231, 0, 0, []
1627631186.104, 25, 0, 4181.026, 4207.179, 4154.872, 4159.487, 4175.385, 0, 0, []
1627631186.1119, 26, 0, 4179.487, 4205.641, 4155.385, 4149.231, 4172.308, 0, 0, []
1627631186.1199, 27, 0, 4206.667, 4230.256, 4176.923, 4172.308, 4195.385, 0, 0, []
1627631186.1277, 28, 0, 4218.974, 4240, 4182.051, 4189.744, 4208.718, 0, 0, []
1627631186.1357, 29, 0, 4214.359, 4220.513, 4176.923, 4186.154, 4207.692, 0, 0, []
1627631186.1436, 30, 0, 4198.462, 4210.256, 4161.538, 4171.282, 4190.256, 0, 0, []
1627631186.1516, 31, 0, 4190.256, 4227.692, 4160, 4168.205, 4177.436, 0, 0, []
1627631186.1595, 32, 0, 4202.051, 4237.436, 4177.949, 4179.487, 4185.641, 0, 0, []
1627631186.1675, 33, 0, 4201.026, 4222.051, 4173.846, 4174.872, 4187.179, 0, 0, []
1627631186.1753, 34, 0, 4186.667, 4200, 4158.462, 4159.487, 4168.205, 0, 0, []
1627631186.1833, 35, 0, 4187.692, 4201.538, 4157.949, 4161.538, 4169.744, 0, 0, []
1627631186.1912, 36, 0, 4197.436, 4224.103, 4165.128, 4171.282, 4188.205, 0, 0, []
1627631186.1992, 37, 0, 4193.846, 4228.205, 4160, 4170.769, 4187.179, 0, 0, []
1627631186.2071, 38, 0, 4189.231, 4216.41, 4151.282, 4167.692, 4178.974, 0, 0, []
1627631186.2148, 39, 0, 4185.128, 4211.282, 4158.462, 4160, 4172.821, 0, 0, []
1627631186.2227, 40, 0, 4176.41, 4211.282, 4161.538, 4149.744, 4167.692, 0, 0, []
1627631186.2305, 41, 0, 4182.051, 4206.154, 4163.59, 4154.359, 4171.282, 0, 0, []
1627631186.2384, 42, 0, 4183.077, 4194.359, 4164.103, 4154.872, 4168.205, 0, 0, []
1627631186.2463, 43, 0, 4168.718, 4188.718, 4152.308, 4149.744, 4161.538, 0, 0, []
1627631186.254, 44, 0, 4175.385, 4202.564, 4160, 4164.103, 4174.359, 0, 0, []
1627631186.2618, 45, 0, 4190.769, 4216.41, 4170.256, 4177.436, 4187.179, 0, 0, []
1627631186.2698, 46, 0, 4190.256, 4212.308, 4161.026, 4168.718, 4182.564, 0, 0, []
1627631186.2777, 47, 0, 4195.897, 4215.897, 4161.026, 4168.205, 4184.615, 0, 0, []
1627631186.2857, 48, 0, 4202.564, 4215.385, 4161.538, 4175.385, 4185.128, 0, 0, []
1627631186.2935, 49, 0, 4188.718, 4195.385, 4155.385, 4157.436, 4170.769, 0, 0, []
1627631186.3015, 50, 0, 4193.333, 4201.538, 4165.128, 4153.333, 4177.949, 0, 0, []
1627631186.3094, 51, 0, 4224.103, 4232.821, 4184.103, 4182.564, 4208.205, 0, 0, []
1627631186.3174, 52, 0, 4226.154, 4235.385, 4175.897, 4185.641, 4207.179, 0, 0, []
1627631186.3253, 53, 0, 4203.077, 4214.359, 4154.872, 4166.154, 4185.641, 0, 0, []
1627631186.333, 54, 0, 4200, 4210.769, 4158.462, 4166.667, 4188.205, 0, 0, []
1627631186.3409, 55, 0, 4209.744, 4215.897, 4166.667, 4175.897, 4199.487, 0, 0, []
1627631186.3487, 56, 0, 4203.077, 4204.103, 4161.538, 4165.128, 4191.282, 0, 0, []
1627631186.3566, 57, 0, 4192.821, 4198.974, 4162.564, 4152.308, 4180.513, 0, 0, []
1627631186.3644, 58, 0, 4189.744, 4210.256, 4164.103, 4155.385, 4177.949, 0, 0, []
1627631186.3722, 59, 0, 4196.41, 4218.462, 4165.128, 4171.795, 4189.231, 0, 0, []
1627631186.38, 60, 0, 4203.077, 4217.436, 4161.538, 4181.026, 4202.051, 0, 0, []
1627631186.3879, 61, 0, 4205.641, 4216.923, 4154.359, 4171.795, 4197.436, 0, 0, []
1627631186.3957, 62, 0, 4210.769, 4222.051, 4166.154, 4174.359, 4192.821, 0, 0, []
1627631186.4036, 63, 0, 4211.282, 4227.179, 4176.923, 4183.59, 4198.462, 0, 0, []
1627631186.4113, 64, 0, 4213.333, 4232.821, 4172.308, 4179.487, 4203.59, 450, 0, []
1627631186.4193, 65, 0, 4212.821, 4225.128, 4160.513, 4169.744, 4202.051, 450, 0, []
1627631186.4272, 66, 0, 4194.359, 4201.026, 4142.051, 4150.256, 4185.128, 16175, 0, []
1627631186.4352, 67, 0, 4178.974, 4195.897, 4135.385, 4136.41, 4173.333, 450, 0, []
1627631186.4431, 68, 0, 4193.846, 4214.359, 4146.154, 4154.359, 4190.769, 16166, 0, []
1627631186.451, 69, 0, 4211.795, 4222.564, 4158.974, 4175.385, 4205.128, 450, 0, []
1627631186.4589, 70, 0, 4201.026, 4216.41, 4152.821, 4158.974, 4188.718, 234, 0, []
1627631186.4669, 71, 0, 4191.282, 4210.769, 4144.615, 4142.051, 4178.462, 450, 0, []
1627631186.4748, 72, 0, 4205.641, 4212.308, 4160, 4156.41, 4194.872, 450, 0, []
1627631186.4828, 73, 0, 4216.923, 4227.179, 4169.744, 4175.897, 4207.179, 16165, 0, []
1627631186.4906, 74, 0, 4201.026, 4227.692, 4158.974, 4173.846, 4192.821, 450, 0, []
1627631186.4984, 75, 0, 4187.692, 4205.128, 4155.897, 4165.128, 4180, 16195, 0, []
1627631186.5063, 76, 0, 4205.641, 4211.795, 4168.718, 4178.462, 4198.974, 450, 0, []
1627631186.5141, 77, 0, 4215.897, 4228.205, 4171.795, 4186.667, 4209.231, 450, 0, []
1627631186.522, 78, 0, 4190.256, 4197.949, 4148.205, 4155.897, 4178.974, 450, 0, []
1627631186.5297, 79, 0, 4175.385, 4182.564, 4142.564, 4133.333, 4162.564, 16195, 0, []
1627631186.5376, 80, 0, 4197.949, 4213.333, 4161.538, 4154.872, 4183.59, 450, 0, []
1627631186.5454, 81, 0, 4212.308, 4227.179, 4158.974, 4169.231, 4192.821, 450, 0, []
1627631186.5533, 82, 0, 4207.179, 4218.462, 4152.821, 4161.026, 4185.641, 450, 0, []
1627631186.5611, 83, 0, 4207.692, 4220, 4164.103, 4165.641, 4191.282, 16195, 0, []
1627631186.5689, 84, 0, 4203.077, 4221.026, 4168.718, 4174.359, 4192.821, 450, 0, []
1627631186.5767, 85, 0, 4188.718, 4212.308, 4159.487, 4165.128, 4183.59, 450, 0, []
1627631186.5847, 86, 0, 4194.359, 4212.821, 4157.436, 4166.154, 4191.282, 450, 0, []
1627631186.5926, 87, 0, 4203.077, 4218.462, 4169.231, 4183.59, 4198.462, 16195, 0, []
1627631186.6006, 88, 0, 4168.718, 4207.179, 4158.462, 4169.231, 4161.026, 450, 0, []
1627631186.6084, 89, 0, 4142.564, 4187.179, 4141.538, 4145.641, 4132.308, 450, 0, []
1627631186.6164, 90, 0, 4169.231, 4192.308, 4150.256, 4164.103, 4156.923, 450, 0, []
1627631186.6243, 91, 0, 4176.41, 4207.179, 4152.821, 4182.051, 4164.103, 16195, 0, []
1627631186.6323, 92, 0, 4156.923, 4202.564, 4145.128, 4161.538, 4143.077, 450, 0, []
1627631186.6402, 93, 0, 4153.333, 4196.923, 4141.538, 4145.641, 4141.538, 450, 0, []
1627631186.6481, 94, 0, 4158.462, 4208.718, 4146.154, 4158.974, 4153.846, 450, 0, []
1627631186.656, 95, 0, 4169.744, 4220, 4164.615, 4180, 4165.128, 16195, 0, []
1627631186.6638, 96, 0, 4192.308, 4219.487, 4177.949, 4195.385, 4179.487, 450, 0, []
1627631186.6717, 97, 0, 4194.872, 4215.897, 4173.846, 4193.846, 4180.513, 450, 0, []
1627631186.6795, 98, 0, 4171.795, 4211.282, 4158.974, 4172.308, 4163.077, 450, 0, []
1627631186.6873, 99, 0, 4164.103, 4201.538, 4151.282, 4155.897, 4153.846, 16195, 0, []
1627631186.6951, 100, 0, 4167.179, 4196.41, 4155.897, 4159.487, 4151.795, 450, 0, []
1627631186.703, 101, 0, 4174.872, 4209.231, 4155.385, 4176.41, 4161.026, 450, 0, []
1627631186.7108, 102, 0, 4189.744, 4222.051, 4148.205, 4181.026, 4175.385, 450, 0, []
1627631186.7187, 103, 0, 4182.051, 4216.41, 4138.974, 4160.513, 4167.179, 16195, 0, []
1627631186.7264, 104, 0, 4166.667, 4207.179, 4138.462, 4146.667, 4150.256, 450, 0, []
1627631186.7343, 105, 0, 4171.282, 4209.744, 4156.923, 4157.949, 4149.231, 450, 0, []
1627631186.7421, 106, 0, 4183.59, 4215.385, 4170.769, 4173.846, 4164.103, 450, 0, []
1627631186.7501, 107, 0, 4187.179, 4215.385, 4163.077, 4174.872, 4169.231, 16195, 0, []
1627631186.758, 108, 0, 4183.077, 4212.821, 4153.333, 4167.179, 4155.385, 450, 0, []
1627631186.7659, 109, 0, 4178.974, 4215.897, 4156.41, 4168.718, 4149.231, 450, 0, []
1627631186.7738, 110, 0, 4176.923, 4216.41, 4161.026, 4173.846, 4163.59, 450, 0, []
1627631186.7818, 111, 0, 4171.795, 4208.718, 4151.282, 4169.744, 4171.282, 16195, 0, []
1627631186.7897, 112, 0, 4170.256, 4201.538, 4142.564, 4164.615, 4167.179, 450, 0, []
1627631186.7977, 113, 0, 4175.897, 4199.487, 4147.179, 4167.179, 4168.718, 450, 0, []
1627631186.8055, 114, 0, 4176.923, 4199.487, 4149.231, 4170.256, 4167.179, 450, 0, []
1627631186.8134, 115, 0, 4168.718, 4193.846, 4148.718, 4161.538, 4160, 16195, 0, []
1627631186.8213, 116, 0, 4165.641, 4195.897, 4148.718, 4152.308, 4159.487, 450, 0, []
1627631186.8291, 117, 0, 4180, 4209.231, 4151.795, 4157.949, 4173.333, 450, 0, []
1627631186.837, 118, 0, 4193.333, 4225.128, 4161.026, 4170.769, 4188.205, 450, 0, []
1627631186.8447, 119, 0, 4188.205, 4228.718, 4155.897, 4167.692, 4177.949, 16195, 0, []
1627631186.8526, 120, 0, 4171.282, 4211.282, 4143.59, 4155.385, 4152.821, 450, 0, []
1627631186.8604, 121, 0, 4160.513, 4192.821, 4135.897, 4150.769, 4148.718, 450, 0, []
1627631186.8683, 122, 0, 4172.821, 4204.615, 4142.564, 4157.436, 4171.282, 450, 0, []
1627631186.8761, 123, 0, 4200.513, 4230.769, 4164.103, 4174.359, 4195.385, 16195, 0, []
1627631186.8841, 124, 0, 4204.103, 4227.179, 4160.513, 4180.513, 4193.846, 450, 0, []
1627631186.8919, 125, 0, 4184.103, 4208.718, 4145.641, 4170.256, 4173.846, 450, 0, []
1627631186.8999, 126, 0, 4174.872, 4205.641, 4148.718, 4165.641, 4169.744, 450, 0, []
1627631186.9078, 127, 0, 4186.667, 4208.718, 4153.333, 4172.308, 4189.744, 16195, 0, []
1627631186.9158, 128, 0, 4191.282, 4203.077, 4151.282, 4171.282, 4192.821, 450, 0, []
1627631186.9237, 0, 0, 4164.103, 4197.436, 4145.128, 4155.897, 4161.026, 450, 0, []
1627631186.9316, 1, 0, 4149.231, 4208.718, 4149.744, 4149.744, 4146.154, 450, 0, []
1627631186.9395, 2, 0, 4176.41, 4218.462, 4155.385, 4161.538, 4164.615, 16175, 0, []
1627631186.9475, 3, 0, 4200.513, 4220, 4151.282, 4171.795, 4166.667, 450, 0, []
1627631186.9554, 4, 0, 4205.128, 4222.051, 4154.359, 4169.744, 4155.897, 16166, 0, []
1627631186.9634, 5, 0, 4217.436, 4225.128, 4158.462, 4172.821, 4174.872, 450, 0, []
1627631186.9712, 6, 0, 4214.359, 4225.641, 4156.923, 4169.744, 4182.051, 266, 0, []
1627631186.979, 7, 0, 4185.641, 4221.538, 4150.256, 4146.154, 4149.231, 450, 0, []
1627631186.9869, 8, 0, 4180.513, 4214.872, 4142.051, 4135.897, 4140.513, 450, 0, []
1627631186.9947, 9, 0, 4190.256, 4223.59, 4133.846, 4147.179, 4157.949, 16165, 0, []
1627631187.0026, 10, 0, 4188.205, 4237.949, 4128.718, 4157.436, 4156.923, 450, 0, []
1627631187.0103, 11, 0, 4182.564, 4221.026, 4134.359, 4157.949, 4147.692, 16195, 0, []
1627631187.0182, 12, 0, 4181.026, 4196.923, 4142.051, 4157.949, 4151.282, 450, 0, []
1627631187.026, 13, 0, 4182.564, 4202.051, 4146.667, 4160, 4156.41, 450, 0, []
1627631187.0339, 14, 0, 4166.154, 4197.436, 4141.026, 4143.59, 4133.846, 450, 0, []
1627631187.0417, 15, 0, 4144.103, 4181.538, 4127.692, 4120.513, 4105.128, 16195, 0, []
1627631187.0495, 16, 0, 4165.641, 4197.436, 4142.051, 4135.385, 4128.718, 0, 0, []
1627631187.0573, 17, 0, 4202.051, 4224.103, 4160.513, 4163.59, 4170.256, 0, 0, []
1627631187.0653, 18, 0, 4194.359, 4220.513, 4144.103, 4154.359, 4165.128, 0, 0, []
1627631187.0732, 19, 0, 4180.513, 4211.282, 4137.949, 4143.077, 4152.308, 0, 0, []
1627631187.0812, 20, 0, 4187.179, 4220.513, 4147.692, 4157.436, 4159.487, 0, 0, []
1627631187.089, 21, 0, 4177.949, 4217.436, 4135.897, 4156.923, 4153.846, 0, 0, []
1627631187.097, 22, 0, 4172.821, 4203.077, 4133.333, 4148.205, 4144.103, 0, 0, []
1627631187.1049, 23, 0, 4186.667, 4209.744, 4148.205, 4160, 4152.308, 0, 0, []
1627631187.1129, 24, 0, 4194.359, 4222.051, 4156.923, 4175.897, 4163.077, 0, 0, []
1627631187.1208, 25, 0, 4192.308, 4220, 4152.308, 4171.795, 4161.026, 0, 0, []
1627631187.1285, 26, 0, 4184.103, 4210.256, 4141.026, 4149.744, 4143.077, 0, 0, []
1627631187.1364, 27, 0, 4172.308, 4208.718, 4140.513, 4131.282, 4126.154, 0, 0, []
1627631187.1442, 28, 0, 4176.41, 4210.769, 4143.077, 4142.564, 4139.487, 0, 0, []
1627631187.1521, 29, 0, 4195.897, 4218.462, 4148.718, 4168.718, 4163.077, 0, 0, []
1627631187.1599, 30, 0, 4188.718, 4221.538, 4147.692, 4167.179, 4154.872, 0, 0, []
1627631187.1677, 31, 0, 4165.128, 4201.538, 4135.385, 4146.667, 4130.769, 0, 0, []
1627631187.1755, 32, 0, 4178.974, 4202.564, 4140.513, 4153.333, 4142.051, 0, 0, []
1627631187.1834, 33, 0, 4202.564, 4231.795, 4155.385, 4175.385, 4166.154, 0, 0, []
1627631187.1912, 34, 0, 4195.385, 4234.359, 4157.436, 4172.821, 4162.564, 0, 0, []
1627631187.1991, 35, 0, 4177.436, 4214.359, 4147.692, 4151.795, 4147.179, 0, 0, []
1627631187.2068, 36, 0, 4180.513, 4212.308, 4144.103, 4144.615, 4145.641, 0, 0, []
1627631187.2148, 37, 0, 4174.872, 4202.051, 4136.923, 4141.026, 4142.051, 0, 0, []
1627631187.2227, 38, 0, 4156.41, 4181.026, 4122.051, 4129.231, 4129.231, 0, 0, []
1627631187.2307, 39, 0, 4176.923, 4200, 4139.487, 4144.615, 4153.333, 0, 0, []
1627631187.2386, 40, 0, 4195.897, 4224.615, 4152.821, 4167.179, 4177.436, 0, 0, []
1627631187.2465, 41, 0, 4161.026, 4208.718, 4128.718, 4141.026, 4144.615, 0, 0, []
1627631187.2544, 42, 0, 4140, 4194.359, 4125.128, 4121.026, 4119.487, 0, 0, []
1627631187.2624, 43, 0, 4170.256, 4203.59, 4145.128, 4151.795, 4141.538, 0, 0, []
1627631187.2703, 44, 0, 4183.077, 4206.667, 4145.128, 4166.667, 4148.718, 0, 0, []
1627631187.2783, 45, 0, 4163.077, 4200.513, 4135.897, 4146.667, 4127.692, 0, 0, []
1627631187.2861, 46, 0, 4165.641, 4201.026, 4141.026, 4147.179, 4132.821, 0, 0, []
1627631187.2939, 47, 0, 4181.026, 4203.077, 4147.179, 4156.923, 4148.205, 0, 0, []
1627631187.3018, 48, 0, 4182.051, 4196.923, 4146.154, 4152.308, 4151.795, 0, 0, []
1627631187.3096, 49, 0, 4185.641, 4199.487, 4154.872, 4154.872, 4160, 0, 0, []
1627631187.3175, 50, 0, 4186.667, 4207.692, 4162.564, 4154.872, 4159.487, 0, 0, []
1627631187.3252, 51, 0, 4188.718, 4205.641, 4157.436, 4144.103, 4154.872, 0, 0, []
1627631187.3331, 52, 0, 4195.385, 4206.667, 4156.923, 4136.923, 4155.897, 0, 0, []
1627631187.3409, 53, 0, 4195.385, 4212.821, 4151.282, 4141.026, 4157.436, 0, 0, []
1627631187.3488, 54, 0, 4197.949, 4206.667, 4147.179, 4153.846, 4167.692, 0, 0, []
1627631187.3566, 55, 0, 4203.077, 4196.923, 4153.846, 4156.41, 4179.487, 0, 0, []
1627631187.3645, 56, 0, 4195.385, 4203.59, 4153.846, 4151.795, 4177.949, 0, 0, []
1627631187.3724, 57, 0, 4185.641, 4203.077, 4150.769, 4159.487, 4172.308, 0, 0, []
1627631187.3804, 58, 0, 4182.051, 4184.103, 4140, 4162.051, 4167.692, 0, 0, []
1627631187.3883, 59, 0, 4179.487, 4181.026, 4137.949, 4150.256, 4165.641, 0, 0, []
1627631187.3963, 60, 0, 4199.487, 4200, 4168.718, 4160, 4191.282, 0, 0, []
1627631187.4041, 61, 0, 4232.308, 4223.59, 4192.308, 4191.795, 4224.103, 0, 0, []
1627631187.4121, 62, 0, 4233.846, 4231.282, 4180.513, 4193.333, 4217.949, 0, 0, []
1627631187.42, 63, 0, 4210.769, 4218.462, 4153.846, 4167.179, 4189.231, 0, 0, []
1627631187.4279, 64, 0, 4201.026, 4205.128, 4141.538, 4159.487, 4183.077, 450, 0, []
1627631187.4358, 65, 0, 4203.59, 4202.051, 4149.231, 4168.718, 4192.308, 450, 0, []
1627631187.4437, 66, 0, 4201.538, 4198.974, 4148.205, 4167.179, 4190.769, 16175, 0, []
1627631187.4516, 67, 0, 4187.179, 4191.795, 4133.333, 4143.59, 4169.231, 450, 0, []
1627631187.4594, 68, 0, 4180.513, 4196.41, 4138.462, 4134.872, 4155.897, 16166, 0, []
1627631187.4673, 69, 0, 4203.077, 4214.872, 4167.179, 4165.128, 4183.59, 450, 0, []
1627631187.4751, 70, 0, 4223.077, 4221.538, 4181.026, 4189.231, 4209.231, 271, 0, []
1627631187.4829, 71, 0, 4208.718, 4208.205, 4155.897, 4172.308, 4192.821, 450, 0, []
1627631187.4907, 72, 0, 4191.795, 4196.41, 4137.436, 4146.154, 4174.359, 450, 0, []
1627631187.4987, 73, 0, 4204.615, 4202.564, 4154.359, 4156.41, 4189.231, 16165, 0, []
1627631187.5066, 74, 0, 4220.513, 4211.795, 4165.641, 4174.872, 4202.564, 450, 0, []
1627631187.5146, 75, 0, 4225.128, 4215.897, 4160.513, 4173.846, 4202.564, 16192, 0, []
1627631187.5224, 76, 0, 4233.846, 4218.462, 4156.41, 4166.667, 4214.359, 450, 0, []
1627631187.5304, 77, 0, 4252.821, 4213.846, 4163.077, 4170.769, 4237.949, 450, 0, []
1627631187.5383, 78, 0, 4289.744, 4213.333, 4168.718, 4180, 4271.795, 450, 0, []
1627631187.5463, 79, 0, 4330.769, 4213.846, 4160.513, 4175.897, 4311.795, 16192, 0, []
1627631187.5542, 80, 0, 4352.308, 4196.923, 4149.231, 4165.128, 4338.974, 450, 0, []
1627631187.5621, 81, 0, 4358.974, 4188.718, 4145.128, 4163.077, 4347.179, 450, 0, []
1627631187.57, 82, 0, 4372.821, 4212.821, 4163.59, 4171.795, 4361.026, 450, 0, []
1627631187.578, 83, 0, 4371.795, 4226.154, 4176.923, 4173.846, 4366.667, 16192, 0, []
1627631187.5859, 84, 0, 4346.667, 4207.692, 4160.513, 4166.667, 4341.538, 450, 0, []
1627631187.5937, 85, 0, 4316.923, 4197.949, 4149.231, 4160, 4307.692, 450, 0, []
1627631187.6015, 86, 0, 4286.667, 4199.487, 4147.179, 4148.205, 4285.641, 450, 0, []
1627631187.6093, 87, 0, 4280.513, 4205.641, 4154.359, 4153.333, 4285.641, 16192, 0, []
1627631187.6172, 88, 0, 4282.564, 4216.41, 4168.205, 4168.718, 4278.462, 450, 0, []
1627631187.625, 89, 0, 4256.923, 4216.41, 4167.179, 4164.103, 4246.154, 450, 0, []
1627631187.6329, 90, 0, 4243.59, 4207.179, 4173.333, 4166.667, 4236.41, 450, 0, []
1627631187.6407, 91, 0, 4249.231, 4204.615, 4175.897, 4182.564, 4249.744, 16192, 0, []
1627631187.6485, 92, 0, 4230.769, 4201.538, 4155.897, 4169.231, 4233.846, 450, 0, []
1627631187.6563, 93, 0, 4210.769, 4194.359, 4148.205, 4152.308, 4208.205, 450, 0, []
1627631187.6643, 94, 0, 4217.949, 4200.513, 4150.256, 4166.667, 4214.359, 450, 0, []
1627631187.6722, 95, 0, 4223.59, 4214.872, 4149.744, 4174.872, 4222.051, 16192, 0, []
1627631187.6802, 96, 0, 4219.487, 4216.923, 4156.923, 4169.231, 4214.872, 450, 0, []
1627631187.688, 97, 0, 4214.359, 4202.051, 4165.128, 4172.821, 4210.256, 450, 0, []
1627631187.696, 98, 0, 4207.692, 4196.41, 4164.615, 4167.179, 4206.667, 450, 0, []
1627631187.7039, 99, 0, 4208.205, 4212.821, 4167.692, 4166.154, 4211.795, 16192, 0, []
1627631187.7119, 100, 0, 4205.641, 4210.256, 4173.333, 4175.897, 4215.897, 450, 0, []
1627631187.7198, 101, 0, 4185.641, 4189.744, 4155.385, 4166.154, 4192.821, 450, 0, []
1627631187.7277, 102, 0, 4175.385, 4185.641, 4139.487, 4155.385, 4177.436, 450, 0, []
1627631187.7356, 103, 0, 4190.769, 4202.564, 4152.821, 4175.385, 4201.026, 16192, 0, []
1627631187.7434, 104, 0, 4199.487, 4213.333, 4154.359, 4186.667, 4214.872, 450, 0, []
1627631187.7513, 105, 0, 4190.256, 4198.974, 4143.59, 4162.564, 4191.282, 450, 0, []
1627631187.7591, 106, 0, 4176.923, 4183.077, 4146.667, 4145.641, 4173.846, 450, 0, []
1627631187.7669, 107, 0, 4181.026, 4193.333, 4160.513, 4162.051, 4182.564, 16192, 0, []
1627631187.7747, 108, 0, 4197.949, 4211.282, 4173.846, 4182.051, 4197.949, 450, 0, []
1627631187.7826, 109, 0, 4207.692, 4216.923, 4174.359, 4190.256, 4209.744, 450, 0, []
1627631187.7904, 110, 0, 4204.103, 4214.359, 4165.128, 4185.128, 4206.667, 450, 0, []
1627631187.7983, 111, 0, 4184.615, 4193.846, 4153.846, 4169.231, 4180.513, 16192, 0, []
1627631187.806, 112, 0, 4168.718, 4182.051, 4153.333, 4163.077, 4165.128, 450, 0, []
1627631187.8139, 113, 0, 4180.513, 4206.154, 4168.205, 4178.462, 4181.026, 450, 0, []
1627631187.8217, 114, 0, 4201.538, 4216.923, 4171.795, 4196.41, 4200, 450, 0, []
1627631187.8297, 115, 0, 4190.256, 4193.333, 4155.385, 4186.154, 4188.718, 16192, 0, []
1627631187.8376, 116, 0, 4162.051, 4186.154, 4143.077, 4158.462, 4163.077, 450, 0, []
1627631187.8455, 117, 0, 4168.205, 4203.077, 4149.744, 4160.513, 4164.103, 450, 0, []
1627631187.8534, 118, 0, 4190.769, 4208.718, 4162.564, 4180.513, 4175.897, 450, 0, []
1627631187.8614, 119, 0, 4184.103, 4200.513, 4151.795, 4171.282, 4169.231, 16192, 0, []
1627631187.8693, 120, 0, 4173.333, 4198.974, 4143.077, 4152.821, 4164.103, 450, 0, []
1627631187.8773, 121, 0, 4178.462, 4203.59, 4161.026, 4162.564, 4170.256, 450, 0, []
1627631187.8851, 122, 0, 4176.41, 4206.667, 4162.051, 4171.795, 4165.641, 450, 0, []
1627631187.8931, 123, 0, 4170.256, 4202.051, 4145.128, 4161.538, 4156.923, 16192, 0, []
1627631187.901, 124, 0, 4176.41, 4189.231, 4143.59, 4160.513, 4159.487, 450, 0, []
1627631187.9088, 125, 0, 4189.744, 4189.231, 4160.513, 4176.41, 4175.385, 450, 0, []
1627631187.9167, 126, 0, 4187.692, 4203.59, 4163.077, 4177.949, 4178.974, 450, 0, []
1627631187.9244, 127, 0, 4165.128, 4205.641, 4141.538, 4155.897, 4151.282, 16192, 0, []
1627631187.9323, 128, 0, 4161.538, 4200.513, 4142.051, 4150.256, 4136.923, 450, 0, []
1627631187.9401, 0, 0, 4169.744, 4197.949, 4151.795, 4156.41, 4146.154, 450, 0, []
1627631187.948, 1, 0, 4162.564, 4188.718, 4138.974, 4148.718, 4146.154, 450, 0, []
1627631187.9558, 2, 0, 4155.385, 4182.564, 4130.769, 4142.564, 4143.077, 16174, 0, []
1627631187.9636, 3, 0, 4161.026, 4184.615, 4141.538, 4152.308, 4147.692, 450, 0, []
1627631187.9714, 4, 0, 4168.718, 4182.564, 4155.385, 4157.436, 4152.821, 16166, 0, []
1627631187.9794, 5, 0, 4169.744, 4186.154, 4155.385, 4155.385, 4153.846, 450, 0, []
1627631187.9873, 6, 0, 4156.41, 4183.59, 4150.256, 4153.333, 4146.154, 273, 0, []
1627631187.9953, 7, 0, 4141.538, 4174.872, 4155.897, 4148.205, 4132.821, 450, 0, []
1627631188.0031, 8, 0, 4159.487, 4190.769, 4168.205, 4154.872, 4145.641, 450, 0, []
1627631188.0111, 9, 0, 4178.974, 4210.256, 4167.692, 4161.538, 4165.128, 16165, 0, []
1627631188.019, 10, 0, 4161.026, 4192.821, 4146.667, 4144.615, 4145.641, 450, 0, []
1627631188.027, 11, 0, 4155.897, 4175.385, 4143.077, 4137.949, 4135.385, 16192, 0, []
1627631188.0349, 12, 0, 4169.744, 4190.769, 4165.128, 4150.769, 4151.795, 450, 0, []
1627631188.0428, 13, 0, 4166.667, 4203.59, 4164.103, 4155.385, 4151.795, 450, 0, []
1627631188.0507, 14, 0, 4165.641, 4201.026, 4150.256, 4158.462, 4143.077, 450, 0, []
1627631188.0585, 15, 0, 4173.333, 4204.103, 4155.385, 4165.128, 4150.256, 16192, 0, []
1627631188.0664, 16, 0, 4171.282, 4202.564, 4152.308, 4154.872, 4155.385, 0, 0, []
1627631188.0742, 17, 0, 4176.923, 4196.923, 4150.769, 4144.103, 4153.333, 0, 0, []
1627631188.082, 18, 0, 4204.615, 4215.897, 4164.615, 4165.128, 4170.769, 0, 0, []
1627631188.0898, 19, 0, 4200.513, 4215.385, 4158.462, 4171.795, 4176.41, 0, 0, []
1627631188.0977, 20, 0, 4164.103, 4181.538, 4137.436, 4143.59, 4150.256, 0, 0, []
1627631188.1055, 21, 0, 4189.744, 4201.026, 4151.795, 4153.333, 4171.282, 0, 0, []
1627631188.1134, 22, 0, 4243.59, 4237.949, 4174.359, 4180.513, 4222.564, 0, 0, []
1627631188.1211, 23, 0, 4235.897, 4210.769, 4149.744, 4149.231, 4218.974, 0, 0, []
1627631188.1291, 24, 0, 4241.026, 4191.795, 4136.41, 4120, 4224.615, 0, 0, []
1627631188.137, 25, 0, 4323.59, 4220.513, 4163.077, 4157.436, 4303.59, 0, 0, []
1627631188.145, 26, 0, 4384.103, 4226.667, 4163.077, 4177.949, 4358.974, 0, 0, []
1627631188.1529, 27, 0, 4372.821, 4210.769, 4152.308, 4156.41, 4352.308, 0, 0, []
1627631188.1608, 28, 0, 4366.154, 4224.615, 4165.641, 4166.667, 4361.538, 0, 0, []
1627631188.1687, 29, 0, 4374.872, 4238.462, 4174.872, 4198.462, 4376.923, 0, 0, []
1627631188.1767, 30, 0, 4354.359, 4224.103, 4167.692, 4189.744, 4349.231, 0, 0, []
1627631188.1846, 31, 0, 4316.41, 4216.41, 4154.872, 4157.949, 4310.769, 0, 0, []
1627631188.1926, 32, 0, 4298.974, 4232.821, 4154.359, 4157.436, 4294.359, 0, 0, []
1627631188.2004, 33, 0, 4284.615, 4238.462, 4161.026, 4171.795, 4276.923, 0, 0, []
1627631188.2082, 34, 0, 4253.333, 4211.795, 4160.513, 4158.462, 4245.128, 0, 0, []
1627631188.2161, 35, 0, 4238.974, 4198.974, 4158.974, 4145.128, 4227.179, 0, 0, []
1627631188.2239, 36, 0, 4235.897, 4208.718, 4161.538, 4153.846, 4225.641, 0, 0, []
1627631188.2318, 37, 0, 4220.513, 4205.128, 4170.256, 4157.436, 4217.436, 0, 0, []
1627631188.2395, 38, 0, 4217.436, 4209.231, 4173.846, 4156.41, 4210.769, 0, 0, []
1627631188.2474, 39, 0, 4226.667, 4227.179, 4167.179, 4165.128, 4217.436, 0, 0, []
1627631188.2552, 40, 0, 4224.103, 4224.103, 4167.692, 4173.846, 4217.949, 0, 0, []
1627631188.2631, 41, 0, 4215.897, 4206.154, 4169.231, 4171.795, 4202.564, 0, 0, []
1627631188.2709, 42, 0, 4204.615, 4198.974, 4163.077, 4152.821, 4182.051, 0, 0, []
1627631188.2787, 43, 0, 4200, 4202.564, 4164.103, 4148.205, 4182.051, 0, 0, []
1627631188.2865, 44, 0, 4221.026, 4216.923, 4175.385, 4169.744, 4205.128, 0, 0, []
1627631188.2944, 45, 0, 4226.154, 4222.564, 4176.41, 4167.692, 4206.154, 0, 0, []
1627631188.3022, 46, 0, 4202.564, 4207.692, 4161.026, 4145.128, 4186.667, 0, 0, []
1627631188.3102, 47, 0, 4200.513, 4208.205, 4155.385, 4152.308, 4188.718, 0, 0, []
1627631188.318, 48, 0, 4196.923, 4215.385, 4145.128, 4156.41, 4181.538, 0, 0, []
1627631188.326, 49, 0, 4176.923, 4205.641, 4135.897, 4145.641, 4159.487, 0, 0, []
1627631188.3339, 50, 0, 4191.282, 4212.308, 4158.974, 4169.744, 4176.923, 0, 0, []
1627631188.3419, 51, 0, 4219.487, 4227.692, 4171.795, 4194.872, 4206.667, 0, 0, []
1627631188.3498, 52, 0, 4211.282, 4214.872, 4152.821, 4173.846, 4191.795, 0, 0, []
1627631188.3577, 53, 0, 4191.795, 4197.949, 4142.051, 4148.205, 4164.615, 0, 0, []
1627631188.3656, 54, 0, 4189.231, 4202.051, 4152.821, 4151.282, 4166.154, 0, 0, []
1627631188.3734, 55, 0, 4192.821, 4208.205, 4162.051, 4160.513, 4174.872, 0, 0, []
1627631188.3813, 56, 0, 4184.615, 4205.641, 4147.692, 4155.897, 4166.667, 0, 0, []
1627631188.3891, 57, 0, 4174.359, 4191.282, 4139.487, 4148.205, 4151.282, 0, 0, []
1627631188.397, 58, 0, 4184.615, 4187.692, 4161.538, 4151.282, 4152.308, 0, 0, []
1627631188.4047, 59, 0, 4191.282, 4203.077, 4167.692, 4154.359, 4156.923, 0, 0, []
1627631188.4126, 60, 0, 4178.462, 4206.667, 4156.41, 4146.667, 4149.231, 0, 0, []
1627631188.4204, 61, 0, 4182.564, 4200, 4160.513, 4147.179, 4155.385, 0, 0, []
1627631188.4283, 62, 0, 4202.564, 4205.641, 4167.692, 4159.487, 4172.308, 0, 0, []
1627631188.4361, 63, 0, 4198.462, 4215.897, 4159.487, 4156.41, 4166.154, 0, 0, []
1627631188.444, 64, 0, 4164.103, 4202.051, 4128.718, 4126.154, 4135.385, 450, 0, []
1627631188.4519, 65, 0, 4137.949, 4173.846, 4109.744, 4105.641, 4114.872, 450, 0, []
1627631188.4599, 66, 0, 4161.026, 4174.872, 4133.846, 4138.974, 4136.923, 16174, 0, []
1627631188.4678, 67, 0, 4202.564, 4204.103, 4169.231, 4182.051, 4170.256, 450, 0, []
1627631188.4758, 68, 0, 4192.308, 4210.256, 4164.615, 4168.205, 4161.538, 16166, 0, []
1627631188.4836, 69, 0, 4158.462, 4192.308, 4139.487, 4135.385, 4135.897, 450, 0, []
1627631188.4916, 70, 0, 4168.205, 4195.897, 4147.692, 4136.923, 4145.128, 274, 0, []
1627631188.4995, 71, 0, 4183.077, 4205.641, 4151.282, 4143.59, 4158.974, 450, 0, []
1627631188.5075, 72, 0, 4166.667, 4191.282, 4126.667, 4126.667, 4141.538, 450, 0, []
1627631188.5154, 73, 0, 4154.359, 4181.538, 4122.564, 4114.872, 4130.769, 16165, 0, []
1627631188.5233, 74, 0, 4168.718, 4182.564, 4140, 4134.359, 4153.846, 450, 0, []
1627631188.5312, 75, 0, 4165.641, 4176.41, 4136.923, 4137.436, 4153.846, 16192, 0, []
1627631188.539, 76, 0, 4138.974, 4170.256, 4116.923, 4106.667, 4118.974, 450, 0, []
1627631188.5469, 77, 0, 4161.026, 4192.821, 4133.333, 4121.538, 4136.41, 450, 0, []
1627631188.5547, 78, 0, 4211.282, 4226.154, 4168.205, 4173.333, 4191.282, 450, 0, []
1627631188.5625, 79, 0, 4200.513, 4227.179, 4155.897, 4172.821, 4184.103, 16192, 0, []
1627631188.5703, 80, 0, 4161.026, 4197.949, 4130.256, 4143.077, 4140, 450, 0, []
1627631188.5782, 81, 0, 4169.744, 4186.154, 4145.128, 4153.333, 4144.103, 450, 0, []
1627631188.586, 82, 0, 4189.231, 4210.256, 4165.641, 4174.359, 4170.769, 450, 0, []
1627631188.594, 83, 0, 4175.897, 4221.026, 4156.41, 4163.59, 4164.615, 16192, 0, []
1627631188.6018, 84, 0, 4168.718, 4194.359, 4136.923, 4147.692, 4154.872, 450, 0, []
1627631188.6098, 85, 0, 4186.154, 4177.949, 4148.718, 4151.795, 4167.179, 450, 0, []
1627631188.6177, 86, 0, 4198.974, 4193.333, 4166.667, 4165.128, 4178.462, 450, 0, []
1627631188.6257, 87, 0, 4191.795, 4206.667, 4152.308, 4170.769, 4172.821, 16192, 0, []
1627631188.6336, 88, 0, 4174.359, 4200, 4136.41, 4158.974, 4161.538, 450, 0, []
1627631188.6415, 89, 0, 4156.923, 4192.308, 4126.667, 4136.923, 4146.154, 450, 0, []
1627631188.6494, 90, 0, 4145.641, 4183.077, 4111.282, 4116.923, 4124.103, 450, 0, []
1627631188.6574, 91, 0, 4140, 4174.359, 4114.872, 4110.769, 4117.436, 16192, 0, []
1627631188.6653, 92, 0, 4147.179, 4180.513, 4140, 4126.667, 4137.436, 450, 0, []
1627631188.6733, 93, 0, 4164.103, 4186.667, 4151.282, 4149.231, 4158.462, 450, 0, []
1627631188.6811, 94, 0, 4171.795, 4185.128, 4140.513, 4149.744, 4158.974, 450, 0, []
1627631188.6889, 95, 0, 4171.282, 4184.615, 4134.359, 4140, 4160, 16192, 0, []
1627631188.6968, 96, 0, 4177.436, 4184.615, 4138.974, 4145.641, 4171.282, 450, 0, []
1627631188.7046, 97, 0, 4194.359, 4188.205, 4145.128, 4158.974, 4184.615, 450, 0, []
1627631188.7125, 98, 0, 4205.128, 4200, 4153.333, 4162.564, 4190.769, 450, 0, []
1627631188.7202, 99, 0, 4186.667, 4198.974, 4139.487, 4147.692, 4173.333, 16192, 0, []
1627631188.7281, 100, 0, 4173.846, 4189.231, 4124.103, 4136.923, 4161.026, 450, 0, []
1627631188.7359, 101, 0, 4201.538, 4203.59, 4152.821, 4157.949, 4187.692, 450, 0, []
1627631188.7439, 102, 0, 4221.026, 4223.59, 4175.897, 4180, 4207.692, 450, 0, []
1627631188.7518, 103, 0, 4204.615, 4222.051, 4156.923, 4165.128, 4197.436, 16192, 0, []
1627631188.7596, 104, 0, 4189.231, 4208.718, 4129.231, 4134.359, 4188.205, 450, 0, []
1627631188.7674, 105, 0, 4200.513, 4203.59, 4137.949, 4134.359, 4197.949, 450, 0, []
1627631188.7754, 106, 0, 4216.923, 4212.821, 4167.179, 4158.974, 4213.846, 450, 0, []
1627631188.7833, 107, 0, 4207.179, 4217.436, 4154.359, 4163.077, 4209.231, 16192, 0, []
1627631188.7913, 108, 0, 4195.385, 4210.769, 4138.462, 4157.436, 4198.974, 450, 0, []
1627631188.7991, 109, 0, 4210.769, 4212.821, 4159.487, 4172.308, 4210.256, 450, 0, []
1627631188.8071, 110, 0, 4214.359, 4212.308, 4162.051, 4175.897, 4217.949, 450, 0, []
1627631188.815, 111, 0, 4181.538, 4187.179, 4134.872, 4151.795, 4196.41, 16192, 0, []
1627631188.823, 112, 0, 4175.385, 4185.128, 4138.974, 4153.846, 4189.231, 450, 0, []
1627631188.8309, 113, 0, 4207.692, 4213.333, 4167.692, 4177.436, 4209.744, 450, 0, []
1627631188.8386, 114, 0, 4201.538, 4210.256, 4156.41, 4159.487, 4201.026, 450, 0, []
1627631188.8465, 115, 0, 4175.897, 4185.128, 4133.846, 4134.359, 4180, 16192, 0, []
1627631188.8543, 116, 0, 4191.282, 4197.949, 4157.436, 4157.436, 4193.333, 450, 0, []
1627631188.8622, 117, 0, 4205.641, 4223.59, 4172.821, 4181.538, 4207.179, 450, 0, []
1627631188.87, 118, 0, 4186.667, 4210.769, 4149.744, 4165.641, 4186.667, 450, 0, []
1627631188.8778, 119, 0, 4184.615, 4200, 4135.385, 4161.026, 4173.846, 16192, 0, []
1627631188.8856, 120, 0, 4200, 4202.051, 4135.385, 4175.897, 4190.256, 450, 0, []
1627631188.8935, 121, 0, 4192.308, 4186.154, 4133.333, 4162.051, 4188.205, 450, 0, []
1627631188.9013, 122, 0, 4186.154, 4183.077, 4131.282, 4143.59, 4173.333, 450, 0, []
1627631188.9092, 123, 0, 4209.231, 4213.846, 4142.051, 4162.051, 4192.821, 16192, 0, []
1627631188.9169, 124, 0, 4220, 4225.128, 4146.667, 4178.462, 4211.795, 450, 0, []
1627631188.9249, 125, 0, 4212.308, 4205.128, 4134.359, 4167.692, 4204.615, 450, 0, []
1627631188.9328, 126, 0, 4221.538, 4203.59, 4147.692, 4170.769, 4207.692, 450, 0, []
1627631188.9408, 127, 0, 4228.718, 4216.923, 4168.718, 4186.154, 4212.308, 16192, 0, []
1627631188.9487, 128, 0, 4218.974, 4220.513, 4166.154, 4187.692, 4199.487, 450, 0, []
1627631188.9566, 0, 0, 4211.282, 4214.872, 4156.41, 4183.59, 4191.282, 450, 0, []
1627631188.9645, 1, 0, 4206.154, 4202.051, 4147.179, 4178.974, 4190.769, 450, 0, []
1627631188.9725, 2, 0, 4207.692, 4196.41, 4151.795, 4183.077, 4194.359, 16198, 0, []
1627631188.9804, 3, 0, 4209.744, 4203.077, 4155.385, 4190.256, 4203.59, 450, 0, []
1627631188.9883, 4, 0, 4195.385, 4192.821, 4134.872, 4180, 4195.897, 16184, 0, []
1627631188.9961, 5, 0, 4184.103, 4175.897, 4123.077, 4169.744, 4180.513, 450, 0, []
1627631189.0039, 6, 0, 4203.59, 4200, 4137.436, 4190.256, 4195.897, 274, 0, []
1627631189.0118, 7, 0, 4207.179, 4223.077, 4141.538, 4189.744, 4199.487, 450, 0, []
1627631189.0196, 8, 0, 4173.333, 4202.564, 4127.179, 4148.205, 4167.179, 450, 0, []
1627631189.0275, 9, 0, 4169.231, 4201.026, 4136.41, 4141.538, 4163.077, 16165, 0, []
1627631189.0352, 10, 0, 4195.897, 4224.615, 4154.872, 4168.718, 4188.718, 450, 0, []
1627631189.0431, 11, 0, 4204.615, 4221.538, 4150.256, 4172.308, 4198.974, 16192, 0, []
1627631189.0509, 12, 0, 4208.718, 4212.308, 4152.308, 4172.821, 4200.513, 450, 0, []
1627631189.0588, 13, 0, 4215.385, 4221.026, 4158.462, 4186.154, 4203.077, 450, 0, []
1627631189.0666, 14, 0, 4201.026, 4221.538, 4149.744, 4180, 4192.308, 450, 0, []
1627631189.0745, 15, 0, 4186.667, 4223.59, 4148.718, 4167.692, 4183.59, 16192, 0, []
1627631189.0824, 16, 0, 4190.769, 4231.795, 4148.205, 4169.744, 4183.077, 0, 0, []
1627631189.0904, 17, 0, 4190.769, 4216.41, 4140.513, 4166.154, 4177.436, 0, 0, []
1627631189.0983, 18, 0, 4178.462, 4193.846, 4137.949, 4156.923, 4169.744, 0, 0, []
1627631189.1063, 19, 0, 4189.231, 4205.641, 4151.282, 4169.231, 4185.128, 0, 0, []
1627631189.1143, 20, 0, 4225.641, 4234.359, 4174.872, 4195.897, 4218.974, 0, 0, []
