Timestamp, COUNTER, INTERPOLATED, AF3, T7, Pz, T8, AF4, RAW_CQ, MARKER_HARDWARE, MARKERS
1630343816.2135, 10, 0, 3870.256, 3513.333, 4121.538, 4224.103, 3863.077, 450, 0, []
1630343816.2214, 11, 0, 3832.308, 3490.256, 4136.923, 4225.128, 3852.821, 16202, 0, []
1630343816.2294, 12, 0, 3823.59, 3517.949, 3961.538, 4225.641, 3848.718, 450, 0, []
1630343816.2373, 13, 0, 3833.846, 3529.231, 4044.615, 4233.333, 3861.026, 450, 0, []
1630343816.2452, 14, 0, 3841.026, 3493.846, 4163.59, 4240.513, 3870.256, 450, 0, []
1630343816.2531, 15, 0, 3842.564, 3461.026, 4099.487, 4238.462, 3867.692, 16202, 0, []
1630343816.2611, 16, 0, 3852.821, 3461.538, 4126.667, 4240.513, 3877.436, 0, 0, []
1630343816.269, 17, 0, 3865.641, 3494.359, 3984.615, 4234.872, 3886.154, 0, 0, []
1630343816.277, 18, 0, 3862.051, 3513.333, 4059.487, 4240, 3876.923, 0, 0, []
1630343816.2849, 19, 0, 3852.821, 3508.205, 4198.462, 4250.256, 3870.256, 0, 0, []
1630343816.2928, 20, 0, 3855.897, 3544.103, 4105.641, 4235.897, 3878.974, 0, 0, []
1630343816.3008, 21, 0, 3866.667, 3605.128, 4106.667, 4233.333, 3893.846, 0, 0, []
1630343816.3087, 22, 0, 3876.923, 3621.538, 3998.974, 4247.179, 3900.513, 0, 0, []
1630343816.3167, 23, 0, 3878.974, 3615.385, 4101.538, 4250.256, 3896.923, 0, 0, []
1630343816.3245, 24, 0, 3872.821, 3631.795, 4202.564, 4235.897, 3890.769, 0, 0, []
1630343816.3325, 25, 0, 3876.923, 3658.974, 4020, 4227.179, 3898.974, 0, 0, []
1630343816.3404, 26, 0, 3895.385, 3692.821, 4086.154, 4240, 3914.872, 0, 0, []
1630343816.3484, 27, 0, 3904.615, 3734.359, 4088.718, 4233.846, 3911.795, 0, 0, []
1630343816.3563, 28, 0, 3906.154, 3762.564, 4110.256, 4232.308, 3910.769, 0, 0, []
1630343816.3642, 29, 0, 3923.59, 3778.974, 4177.949, 4256.41, 3933.846, 0, 0, []
1630343816.3721, 30, 0, 3936.41, 3771.795, 4040.513, 4252.821, 3945.641, 0, 0, []
1630343816.3801, 31, 0, 3931.795, 3732.308, 4087.179, 4245.128, 3937.949, 0, 0, []
1630343816.388, 32, 0, 3932.821, 3732.821, 4083.077, 4256.923, 3943.59, 0, 0, []
1630343816.396, 33, 0, 3946.154, 3812.821, 4109.744, 4262.051, 3958.974, 0, 0, []
1630343816.4038, 34, 0, 3943.59, 3884.103, 4169.744, 4260.513, 3962.051, 0, 0, []
1630343816.4118, 35, 0, 3928.205, 3873.333, 4002.051, 4258.974, 3950.256, 0, 0, []
1630343816.4197, 36, 0, 3940, 3856.41, 4075.385, 4256.923, 3946.667, 0, 0, []
1630343816.4277, 37, 0, 3961.538, 3880.513, 4118.974, 4252.821, 3965.641, 0, 0, []
1630343816.4356, 38, 0, 3970.256, 3902.051, 4110.256, 4265.641, 3976.923, 0, 0, []
1630343816.4435, 39, 0, 3981.026, 3900, 4173.846, 4277.949, 3970.256, 0, 0, []
1630343816.4515, 40, 0, 3988.718, 3895.897, 3989.744, 4258.462, 3976.923, 0, 0, []
1630343816.4594, 41, 0, 3995.897, 3931.795, 4052.308, 4261.026, 3993.333, 0, 0, []
1630343816.4674, 42, 0, 4018.462, 3993.333, 4173.846, 4280, 4000.513, 0, 0, []
1630343816.4753, 43, 0, 4037.436, 4022.564, 4144.615, 4280, 4009.231, 0, 0, []
1630343816.4833, 44, 0, 4036.923, 4011.795, 4151.795, 4289.231, 4025.128, 0, 0, []
1630343816.4911, 45, 0, 4048.205, 4030.769, 3989.744, 4306.667, 4041.538, 0, 0, []
1630343816.4991, 46, 0, 4064.103, 4074.359, 4087.692, 4319.487, 4045.641, 0, 0, []
1630343816.507, 47, 0, 4059.487, 4069.744, 4214.872, 4322.564, 4041.538, 0, 0, []
1630343816.515, 48, 0, 4061.026, 4054.359, 4142.564, 4326.154, 4057.436, 0, 0, []
1630343816.5229, 49, 0, 4070.769, 4075.385, 4157.436, 4341.026, 4077.949, 0, 0, []
1630343816.5308, 50, 0, 4070.256, 4115.897, 4014.359, 4338.974, 4074.359, 0, 0, []
1630343816.5387, 51, 0, 4071.795, 4147.692, 4093.846, 4336.41, 4068.205, 0, 0, []
1630343816.5467, 52, 0, 4082.564, 4144.615, 4233.333, 4340, 4085.641, 0, 0, []
1630343816.5546, 53, 0, 4087.179, 4128.205, 4120, 4338.974, 4101.026, 0, 0, []
1630343816.5626, 54, 0, 4092.308, 4151.795, 4117.436, 4352.821, 4110.769, 0, 0, []
1630343816.5704, 55, 0, 4104.103, 4198.974, 4023.077, 4351.795, 4123.077, 0, 0, []
1630343816.5784, 56, 0, 4106.667, 4207.179, 4099.487, 4332.308, 4118.974, 0, 0, []
1630343816.5863, 57, 0, 4104.615, 4192.821, 4226.667, 4332.821, 4114.872, 0, 0, []
1630343816.5943, 58, 0, 4102.051, 4206.667, 4096.923, 4347.692, 4128.205, 0, 0, []
1630343816.6022, 59, 0, 4111.282, 4237.949, 4118.462, 4365.641, 4140.513, 0, 0, []
1630343816.6101, 60, 0, 4131.795, 4254.359, 4056.923, 4366.667, 4144.615, 0, 0, []
1630343816.6181, 61, 0, 4129.744, 4267.179, 4099.487, 4351.282, 4136.41, 0, 0, []
1630343816.626, 62, 0, 4114.359, 4286.154, 4211.282, 4334.359, 4122.051, 0, 0, []
1630343816.634, 63, 0, 4120.513, 4268.718, 4071.795, 4327.179, 4133.846, 0, 0, []
1630343816.6419, 64, 0, 4141.538, 4234.359, 4118.462, 4347.179, 4163.59, 450, 0, []
1630343816.6498, 65, 0, 4146.154, 4243.077, 4106.154, 4355.897, 4169.231, 450, 0, []
1630343816.6577, 66, 0, 4140.513, 4283.59, 4122.564, 4341.026, 4158.462, 16180, 0, []
1630343816.6657, 67, 0, 4162.564, 4327.179, 4205.128, 4346.667, 4172.821, 450, 0, []
1630343816.6736, 68, 0, 4198.462, 4346.667, 4028.718, 4361.026, 4197.949, 16135, 0, []
1630343816.6816, 69, 0, 4219.487, 4354.359, 4083.59, 4369.744, 4223.077, 450, 0, []
1630343816.6894, 70, 0, 4239.487, 4382.051, 4148.718, 4363.077, 4262.051, 16271, 0, []
1630343816.6974, 71, 0, 4269.231, 4405.641, 4147.692, 4358.462, 4295.897, 450, 0, []
1630343816.7053, 72, 0, 4293.846, 4387.179, 4188.718, 4363.59, 4306.154, 450, 0, []
1630343816.7133, 73, 0, 4303.077, 4375.897, 4004.615, 4357.949, 4311.795, 16123, 0, []
1630343816.7212, 74, 0, 4297.949, 4404.103, 4073.333, 4359.487, 4317.436, 450, 0, []
1630343816.7291, 75, 0, 4267.179, 4418.974, 4167.692, 4360, 4302.051, 16188, 0, []
1630343816.7371, 76, 0, 4246.154, 4435.897, 4130.256, 4360, 4280, 450, 0, []
1630343816.745, 77, 0, 4251.282, 4457.436, 4168.718, 4373.333, 4271.795, 450, 0, []
1630343816.7529, 78, 0, 4246.154, 4447.179, 4002.564, 4373.333, 4269.744, 450, 0, []
1630343816.7609, 79, 0, 4234.872, 4436.41, 4067.179, 4368.205, 4256.41, 16188, 0, []
1630343816.7688, 80, 0, 4227.692, 4440, 4198.974, 4360, 4228.718, 450, 0, []
1630343816.7767, 81, 0, 4214.872, 4422.051, 4135.385, 4345.128, 4207.692, 450, 0, []
1630343816.7847, 82, 0, 4200.513, 4410.769, 4137.949, 4337.949, 4201.538, 450, 0, []
1630343816.7926, 83, 0, 4188.205, 4438.974, 3995.897, 4329.231, 4188.205, 16188, 0, []
1630343816.8006, 84, 0, 4174.359, 4437.949, 4084.615, 4324.615, 4174.872, 450, 0, []
1630343816.8084, 85, 0, 4170.769, 4416.923, 4223.077, 4337.949, 4191.795, 450, 0, []
1630343816.8164, 86, 0, 4181.538, 4419.487, 4115.897, 4349.231, 4213.333, 450, 0, []
1630343816.8243, 87, 0, 4191.795, 4425.641, 4138.974, 4362.051, 4217.436, 16188, 0, []
1630343816.8323, 88, 0, 4201.538, 4423.59, 4044.615, 4364.615, 4226.667, 450, 0, []
1630343816.8402, 89, 0, 4202.564, 4416.41, 4100, 4347.692, 4226.154, 450, 0, []
1630343816.8481, 90, 0, 4190.769, 4421.538, 4218.462, 4328.718, 4200, 450, 0, []
1630343816.856, 91, 0, 4177.949, 4432.308, 4081.538, 4321.538, 4184.615, 16188, 0, []
1630343816.864, 92, 0, 4173.333, 4413.333, 4100, 4330.256, 4196.923, 450, 0, []
1630343816.8719, 93, 0, 4171.282, 4370.256, 4050.769, 4317.949, 4210.256, 450, 0, []
1630343816.8799, 94, 0, 4177.436, 4373.333, 4104.615, 4312.308, 4214.872, 450, 0, []
1630343816.8878, 95, 0, 4191.795, 4389.231, 4208.205, 4347.692, 4218.462, 16188, 0, []
1630343816.8957, 96, 0, 4195.897, 4340.513, 4050.256, 4368.205, 4222.051, 450, 0, []
1630343816.9037, 97, 0, 4184.615, 4297.436, 4099.487, 4358.974, 4214.359, 450, 0, []
1630343816.9116, 98, 0, 4163.077, 4305.641, 4100, 4335.385, 4191.795, 450, 0, []
1630343816.9196, 99, 0, 4147.179, 4304.103, 4107.179, 4317.436, 4181.026, 16188, 0, []
1630343816.9275, 100, 0, 4158.462, 4271.282, 4188.205, 4317.436, 4208.205, 450, 0, []
1630343816.9354, 101, 0, 4170.256, 4270.769, 4029.231, 4318.974, 4230.256, 450, 0, []
1630343816.9433, 102, 0, 4169.744, 4296.41, 4093.333, 4333.846, 4221.538, 450, 0, []
1630343816.9513, 103, 0, 4192.308, 4294.872, 4155.897, 4356.923, 4227.179, 16188, 0, []
1630343816.9592, 104, 0, 4206.667, 4303.077, 4144.615, 4362.051, 4234.359, 450, 0, []
1630343816.9672, 105, 0, 4169.744, 4355.385, 4182.051, 4335.897, 4204.103, 450, 0, []
1630343816.975, 106, 0, 4128.205, 4378.974, 3991.282, 4291.282, 4175.897, 450, 0, []
1630343816.983, 107, 0, 4126.667, 4346.667, 4055.897, 4291.795, 4182.051, 16188, 0, []
1630343816.9909, 108, 0, 4128.205, 4308.205, 4169.744, 4316.41, 4183.077, 450, 0, []
1630343816.9989, 109, 0, 4107.692, 4273.846, 4132.821, 4310.256, 4151.282, 450, 0, []
1630343817.0068, 110, 0, 4098.462, 4249.231, 4144.615, 4298.974, 4132.308, 450, 0, []
1630343817.0147, 111, 0, 4108.718, 4238.462, 3975.897, 4294.359, 4151.282, 16188, 0, []
1630343817.0226, 112, 0, 4122.051, 4213.846, 4063.59, 4298.974, 4175.385, 450, 0, []
1630343817.0305, 113, 0, 4131.795, 4178.974, 4196.923, 4300.513, 4176.923, 450, 0, []
1630343817.0384, 114, 0, 4132.308, 4157.436, 4111.282, 4291.795, 4165.128, 450, 0, []
1630343817.0463, 115, 0, 4127.692, 4150.769, 4120, 4292.308, 4156.923, 16188, 0, []
1630343817.054, 116, 0, 4130.769, 4157.436, 3989.744, 4283.077, 4161.026, 450, 0, []
1630343817.0618, 117, 0, 4145.128, 4166.154, 4076.923, 4278.462, 4180, 450, 0, []
1630343817.0698, 118, 0, 4148.205, 4178.462, 4218.974, 4290.256, 4190.256, 450, 0, []
1630343817.0777, 119, 0, 4146.667, 4220, 4102.564, 4294.359, 4183.077, 16188, 0, []
1630343817.0856, 120, 0, 4155.897, 4240.513, 4112.821, 4289.231, 4176.41, 450, 0, []
1630343817.0933, 121, 0, 4152.821, 4225.641, 4030.769, 4280, 4169.744, 450, 0, []
1630343817.1013, 122, 0, 4142.564, 4253.846, 4102.051, 4292.308, 4163.077, 450, 0, []
1630343817.1092, 123, 0, 4136.923, 4306.154, 4225.128, 4303.077, 4163.077, 16188, 0, []
1630343817.1172, 124, 0, 4136.41, 4312.308, 4089.744, 4279.487, 4164.103, 450, 0, []
1630343817.1251, 125, 0, 4148.205, 4302.564, 4117.436, 4266.667, 4162.051, 450, 0, []
1630343817.133, 126, 0, 4158.974, 4313.846, 4071.282, 4258.462, 4157.436, 450, 0, []
1630343817.1409, 127, 0, 4149.744, 4335.385, 4100.513, 4238.974, 4156.41, 16188, 0, []
1630343817.1489, 128, 0, 4138.974, 4362.051, 4185.641, 4239.487, 4166.667, 450, 0, []
1630343817.1568, 0, 0, 4145.641, 4378.462, 4025.641, 4258.974, 4175.897, 450, 0, []
1630343817.1648, 1, 0, 4155.897, 4370.256, 4067.692, 4276.923, 4168.718, 450, 0, []
1630343817.1726, 2, 0, 4164.103, 4376.41, 4079.487, 4272.308, 4162.051, 16179, 0, []
1630343817.1804, 3, 0, 4170.256, 4398.974, 4108.205, 4255.385, 4167.692, 450, 0, []
1630343817.1883, 4, 0, 4172.308, 4396.41, 4191.795, 4250.769, 4173.333, 16135, 0, []
1630343817.1961, 5, 0, 4166.667, 4358.462, 4014.872, 4247.692, 4171.795, 450, 0, []
1630343817.2041, 6, 0, 4151.282, 4345.128, 4071.282, 4241.026, 4163.59, 16258, 0, []
1630343817.2119, 7, 0, 4141.538, 4380, 4141.538, 4235.897, 4155.897, 450, 0, []
1630343817.2199, 8, 0, 4150.256, 4396.41, 4126.667, 4238.974, 4154.359, 450, 0, []
1630343817.2278, 9, 0, 4164.615, 4384.103, 4171.795, 4242.564, 4160.513, 16127, 0, []
1630343817.2358, 10, 0, 4174.872, 4377.949, 3999.487, 4237.436, 4175.385, 450, 0, []
1630343817.2437, 11, 0, 4187.179, 4363.077, 4067.692, 4246.667, 4201.538, 16190, 0, []
1630343817.2517, 12, 0, 4194.872, 4334.359, 4174.359, 4250.769, 4220.513, 450, 0, []
1630343817.2595, 13, 0, 4190.256, 4333.333, 4133.333, 4245.641, 4213.333, 450, 0, []
1630343817.2675, 14, 0, 4189.744, 4377.949, 4162.564, 4256.41, 4201.538, 450, 0, []
1630343817.2754, 15, 0, 4195.385, 4431.795, 4004.103, 4248.205, 4200.513, 16190, 0, []
1630343817.2834, 16, 0, 4195.385, 4454.872, 4069.744, 4233.333, 4201.538, 0, 0, []
1630343817.2913, 17, 0, 4184.615, 4448.205, 4181.538, 4234.872, 4200, 0, 0, []
1630343817.2992, 18, 0, 4175.385, 4443.077, 4101.538, 4230.769, 4195.897, 0, 0, []
1630343817.3071, 19, 0, 4177.436, 4445.641, 4129.744, 4230.256, 4195.897, 0, 0, []
1630343817.3151, 20, 0, 4186.667, 4429.744, 4000, 4234.872, 4200, 0, 0, []
1630343817.323, 21, 0, 4196.923, 4394.359, 4073.333, 4236.923, 4198.974, 0, 0, []
1630343817.3308, 22, 0, 4204.103, 4390.256, 4217.436, 4231.282, 4196.923, 0, 0, []
1630343817.3386, 23, 0, 4205.641, 4410.769, 4096.41, 4228.718, 4203.59, 0, 0, []
1630343817.3464, 24, 0, 4206.667, 4395.385, 4090.256, 4232.821, 4211.795, 0, 0, []
1630343817.3543, 25, 0, 4209.744, 4382.051, 4003.59, 4214.359, 4217.949, 0, 0, []
1630343817.3621, 26, 0, 4214.872, 4422.051, 4078.974, 4212.821, 4223.077, 0, 0, []
1630343817.37, 27, 0, 4218.974, 4436.923, 4199.487, 4237.436, 4223.077, 0, 0, []
1630343817.3777, 28, 0, 4218.974, 4419.487, 4057.949, 4238.462, 4225.641, 0, 0, []
1630343817.3857, 29, 0, 4228.718, 4454.359, 4092.308, 4240.513, 4234.359, 0, 0, []
1630343817.3936, 30, 0, 4244.103, 4487.692, 4062.564, 4247.692, 4239.487, 0, 0, []
1630343817.4016, 31, 0, 4244.103, 4462.564, 4108.718, 4238.462, 4232.308, 0, 0, []
1630343817.4095, 32, 0, 4232.308, 4461.026, 4203.59, 4222.564, 4224.615, 0, 0, []
1630343817.4174, 33, 0, 4225.128, 4497.436, 4033.333, 4211.795, 4220.513, 0, 0, []
1630343817.4253, 34, 0, 4232.821, 4491.282, 4076.923, 4216.923, 4227.179, 0, 0, []
1630343817.4333, 35, 0, 4234.872, 4450.769, 4098.974, 4210.256, 4242.564, 0, 0, []
1630343817.4412, 36, 0, 4230.256, 4452.308, 4111.282, 4205.128, 4248.718, 0, 0, []
1630343817.4492, 37, 0, 4242.564, 4495.897, 4173.333, 4223.077, 4251.282, 0, 0, []
1630343817.457, 38, 0, 4246.154, 4512.821, 3983.59, 4219.487, 4255.385, 0, 0, []
1630343817.465, 39, 0, 4240.513, 4503.077, 4046.154, 4209.744, 4250.769, 0, 0, []
1630343817.4729, 40, 0, 4252.308, 4512.308, 4135.385, 4219.487, 4245.128, 0, 0, []
1630343817.4807, 41, 0, 4260, 4515.385, 4122.564, 4216.923, 4248.205, 0, 0, []
1630343817.4886, 42, 0, 4249.231, 4487.692, 4169.231, 4207.692, 4246.667, 0, 0, []
1630343817.4964, 43, 0, 4249.231, 4481.538, 4005.641, 4204.103, 4235.385, 0, 0, []
1630343817.5044, 44, 0, 4256.41, 4491.795, 4063.59, 4203.59, 4238.974, 0, 0, []
1630343817.5123, 45, 0, 4249.231, 4457.949, 4154.872, 4194.359, 4253.333, 0, 0, []
1630343817.5202, 46, 0, 4250.256, 4423.59, 4120, 4192.308, 4259.487, 0, 0, []
1630343817.528, 47, 0, 4266.154, 4468.205, 4157.436, 4205.128, 4272.308, 0, 0, []
1630343817.5358, 48, 0, 4262.051, 4529.744, 3984.615, 4197.436, 4278.974, 0, 0, []
1630343817.5436, 49, 0, 4246.154, 4523.077, 4053.846, 4200, 4263.077, 0, 0, []
1630343817.5516, 50, 0, 4251.282, 4513.846, 4190.769, 4214.872, 4259.487, 0, 0, []
1630343817.5595, 51, 0, 4263.59, 4556.41, 4100.513, 4203.077, 4267.179, 0, 0, []
1630343817.5675, 52, 0, 4263.077, 4568.718, 4109.231, 4194.872, 4256.923, 0, 0, []
1630343817.5753, 53, 0, 4269.744, 4538.462, 3993.333, 4198.462, 4256.41, 0, 0, []
1630343817.5833, 54, 0, 4288.718, 4550.769, 4073.333, 4204.103, 4281.538, 0, 0, []
1630343817.5912, 55, 0, 4297.436, 4598.974, 4211.282, 4207.692, 4289.231, 0, 0, []
1630343817.5992, 56, 0, 4287.692, 4590.769, 4096.41, 4197.436, 4276.41, 0, 0, []
1630343817.6071, 57, 0, 4282.051, 4549.231, 4098.974, 4189.231, 4276.41, 0, 0, []
1630343817.6151, 58, 0, 4296.923, 4543.077, 4011.795, 4190.256, 4292.821, 0, 0, []
1630343817.6229, 59, 0, 4308.718, 4537.436, 4086.154, 4197.949, 4305.641, 0, 0, []
1630343817.6308, 60, 0, 4297.436, 4515.385, 4208.718, 4188.718, 4307.179, 0, 0, []
1630343817.6387, 61, 0, 4290.256, 4511.795, 4043.077, 4165.641, 4304.103, 0, 0, []
1630343817.6465, 62, 0, 4307.692, 4543.077, 4063.59, 4174.872, 4320.513, 0, 0, []
1630343817.6544, 63, 0, 4329.231, 4568.205, 4048.718, 4189.744, 4356.41, 0, 0, []
1630343817.6621, 64, 0, 4341.538, 4570.256, 4087.692, 4189.231, 4374.872, 450, 0, []
1630343817.67, 65, 0, 4361.026, 4569.744, 4168.718, 4185.128, 4380.513, 450, 0, []
1630343817.6778, 66, 0, 4395.385, 4587.692, 4008.718, 4175.385, 4412.821, 16167, 0, []
1630343817.6857, 67, 0, 4430.256, 4598.462, 4074.359, 4187.179, 4452.308, 450, 0, []
1630343817.6935, 68, 0, 4443.59, 4558.462, 4100, 4196.41, 4459.487, 16125, 0, []
1630343817.7014, 69, 0, 4436.41, 4533.333, 4102.564, 4182.051, 4451.795, 450, 0, []
1630343817.7093, 70, 0, 4420, 4534.872, 4165.128, 4167.692, 4435.897, 16283, 0, []
1630343817.7173, 71, 0, 4403.59, 4514.872, 3983.59, 4165.128, 4412.308, 450, 0, []
1630343817.7252, 72, 0, 4402.051, 4525.128, 4055.385, 4186.154, 4406.154, 450, 0, []
1630343817.7332, 73, 0, 4400.513, 4583.59, 4146.154, 4195.897, 4408.718, 16151, 0, []
1630343817.741, 74, 0, 4391.282, 4596.923, 4121.538, 4184.103, 4400.513, 450, 0, []
1630343817.749, 75, 0, 4386.154, 4565.128, 4149.231, 4181.538, 4393.333, 16188, 0, []
1630343817.7569, 76, 0, 4372.308, 4551.795, 3970.256, 4172.821, 4377.949, 450, 0, []
1630343817.7649, 77, 0, 4347.692, 4531.282, 4041.026, 4163.077, 4358.974, 450, 0, []
1630343817.7728, 78, 0, 4336.923, 4509.744, 4160.513, 4167.692, 4362.564, 450, 0, []
1630343817.7807, 79, 0, 4337.949, 4493.846, 4112.308, 4175.897, 4366.667, 16188, 0, []
1630343817.7886, 80, 0, 4337.436, 4456.41, 4127.179, 4180.513, 4354.359, 450, 0, []
1630343817.7964, 81, 0, 4352.308, 4452.308, 3986.154, 4187.179, 4367.692, 450, 0, []
1630343817.8043, 82, 0, 4372.821, 4486.667, 4074.359, 4209.744, 4397.436, 450, 0, []
1630343817.8121, 83, 0, 4368.205, 4460.513, 4182.051, 4216.923, 4396.41, 16188, 0, []
1630343817.8199, 84, 0, 4351.795, 4420, 4085.641, 4191.795, 4376.923, 450, 0, []
1630343817.8277, 85, 0, 4338.974, 4463.59, 4114.872, 4172.308, 4359.487, 450, 0, []
1630343817.8356, 86, 0, 4328.718, 4484.615, 3991.282, 4164.615, 4348.718, 450, 0, []
1630343817.8434, 87, 0, 4332.821, 4426.154, 4064.103, 4175.897, 4356.41, 16188, 0, []
1630343817.8513, 88, 0, 4340.513, 4419.487, 4210.256, 4187.179, 4367.179, 450, 0, []
1630343817.859, 89, 0, 4330.769, 4464.103, 4081.538, 4178.462, 4351.795, 450, 0, []
1630343817.867, 90, 0, 4326.667, 4476.923, 4085.128, 4180.513, 4337.949, 450, 0, []
1630343817.8749, 91, 0, 4327.179, 4480.513, 4017.949, 4172.308, 4343.59, 16188, 0, []
1630343817.8829, 92, 0, 4312.821, 4508.718, 4085.641, 4170.769, 4336.923, 450, 0, []
1630343817.8908, 93, 0, 4313.846, 4537.949, 4203.59, 4204.103, 4330.769, 450, 0, []
1630343817.8987, 94, 0, 4331.282, 4525.641, 4059.487, 4223.077, 4343.077, 450, 0, []
1630343817.9066, 95, 0, 4341.538, 4499.487, 4094.872, 4231.282, 4352.308, 16188, 0, []
1630343817.9146, 96, 0, 4348.718, 4504.615, 4077.436, 4240, 4355.385, 450, 0, []
1630343817.9225, 97, 0, 4357.436, 4538.974, 4112.308, 4238.462, 4356.41, 450, 0, []
1630343817.9305, 98, 0, 4358.462, 4559.487, 4185.641, 4223.59, 4357.949, 450, 0, []
1630343817.9383, 99, 0, 4352.821, 4535.897, 4023.59, 4198.462, 4359.487, 16188, 0, []
1630343817.9461, 100, 0, 4353.846, 4546.667, 4103.59, 4202.564, 4357.949, 450, 0, []
1630343817.954, 101, 0, 4341.538, 4600.513, 4130.256, 4220.513, 4338.462, 450, 0, []
1630343817.9618, 102, 0, 4315.897, 4600.513, 4113.333, 4216.923, 4305.641, 450, 0, []
1630343817.9697, 103, 0, 4308.718, 4557.949, 4180.513, 4226.667, 4294.359, 16188, 0, []
1630343817.9775, 104, 0, 4311.282, 4540, 4004.615, 4242.051, 4294.872, 450, 0, []
1630343817.9853, 105, 0, 4307.179, 4536.41, 4057.436, 4233.846, 4282.051, 450, 0, []
1630343817.9931, 106, 0, 4310.769, 4535.897, 4153.333, 4219.487, 4280, 450, 0, []
1630343818.001, 107, 0, 4318.462, 4543.077, 4145.128, 4223.077, 4291.795, 16188, 0, []
1630343818.0088, 108, 0, 4317.949, 4535.897, 4177.436, 4231.282, 4288.205, 450, 0, []
1630343818.0168, 109, 0, 4313.846, 4538.462, 3995.897, 4225.128, 4276.41, 450, 0, []
1630343818.0246, 110, 0, 4301.026, 4542.564, 4052.821, 4216.41, 4272.821, 450, 0, []
1630343818.0325, 111, 0, 4292.308, 4518.462, 4156.923, 4203.077, 4272.821, 16188, 0, []
1630343818.0404, 112, 0, 4310.769, 4538.974, 4108.205, 4202.564, 4290.769, 450, 0, []
1630343818.0484, 113, 0, 4336.41, 4603.59, 4137.436, 4214.359, 4320.513, 450, 0, []
1630343818.0564, 114, 0, 4355.897, 4628.718, 3986.667, 4203.077, 4338.462, 450, 0, []
1630343818.0642, 115, 0, 4383.59, 4626.667, 4068.718, 4197.949, 4360, 16188, 0, []
1630343818.0721, 116, 0, 4409.744, 4624.615, 4198.462, 4200.513, 4386.154, 450, 0, []
1630343818.0801, 117, 0, 4430.769, 4608.718, 4110.256, 4204.615, 4400, 450, 0, []
1630343818.088, 118, 0, 4463.59, 4588.205, 4137.949, 4228.205, 4427.692, 450, 0, []
1630343818.0958, 119, 0, 4487.179, 4597.436, 4009.231, 4226.154, 4459.487, 16188, 0, []
1630343818.1036, 120, 0, 4487.692, 4626.154, 4076.41, 4216.923, 4458.462, 450, 0, []
1630343818.1114, 121, 0, 4481.538, 4622.564, 4220, 4231.282, 4455.385, 450, 0, []
1630343818.1193, 122, 0, 4463.59, 4602.051, 4084.103, 4229.744, 4463.59, 450, 0, []
1630343818.1271, 123, 0, 4441.538, 4615.897, 4092.821, 4219.487, 4450.769, 16188, 0, []
1630343818.135, 124, 0, 4448.718, 4657.949, 4034.359, 4226.154, 4449.744, 450, 0, []
1630343818.1427, 125, 0, 4464.615, 4691.282, 4093.333, 4240.513, 4469.744, 450, 0, []
1630343818.1507, 126, 0, 4447.179, 4702.051, 4198.974, 4228.718, 4447.692, 450, 0, []
1630343818.1586, 127, 0, 4424.615, 4709.231, 4059.487, 4205.128, 4411.282, 16188, 0, []
1630343818.1666, 128, 0, 4423.59, 4710.769, 4105.128, 4216.41, 4412.821, 450, 0, []
1630343818.1745, 0, 0, 4426.154, 4703.077, 4078.974, 4226.667, 4415.385, 450, 0, []
1630343818.1824, 1, 0, 4438.974, 4714.359, 4112.821, 4232.308, 4408.718, 450, 0, []
1630343818.1903, 2, 0, 4446.667, 4695.897, 4205.641, 4239.487, 4409.744, 16177, 0, []
1630343818.1983, 3, 0, 4437.436, 4609.744, 4027.179, 4218.462, 4414.872, 450, 0, []
1630343818.2062, 4, 0, 4448.718, 4590.769, 4080, 4221.538, 4437.436, 16128, 0, []
1630343818.2142, 5, 0, 4475.897, 4660.513, 4119.487, 4241.538, 4463.59, 450, 0, []
1630343818.222, 6, 0, 4481.026, 4681.026, 4117.949, 4223.59, 4470.769, 16274, 0, []
1630343818.23, 7, 0, 4479.487, 4670.256, 4175.385, 4209.231, 4472.821, 450, 0, []
1630343818.2379, 8, 0, 4477.436, 4683.59, 3991.795, 4207.692, 4466.154, 450, 0, []
1630343818.2457, 9, 0, 4464.103, 4681.026, 4060.513, 4199.487, 4445.128, 16142, 0, []
1630343818.2536, 10, 0, 4453.333, 4658.462, 4157.436, 4187.692, 4432.821, 450, 0, []
1630343818.2613, 11, 0, 4436.41, 4626.154, 4125.641, 4180.513, 4414.359, 16181, 0, []
1630343818.2692, 12, 0, 4417.949, 4596.41, 4158.974, 4177.949, 4394.359, 450, 0, []
1630343818.277, 13, 0, 4418.462, 4625.641, 3990.769, 4176.923, 4397.949, 450, 0, []
1630343818.2849, 14, 0, 4430.256, 4654.359, 4058.462, 4191.282, 4400, 450, 0, []
1630343818.2927, 15, 0, 4423.077, 4609.231, 4171.282, 4191.282, 4385.128, 16181, 0, []
1630343818.3006, 16, 0, 4393.846, 4560, 4111.795, 4168.205, 4361.026, 0, 0, []
1630343818.3083, 17, 0, 4365.128, 4563.59, 4133.333, 4161.026, 4334.872, 0, 0, []
1630343818.3162, 18, 0, 4347.179, 4585.641, 3985.128, 4155.385, 4313.846, 0, 0, []
1630343818.324, 19, 0, 4350.256, 4572.821, 4062.051, 4155.897, 4309.744, 0, 0, []
1630343818.332, 20, 0, 4363.077, 4550.256, 4197.949, 4171.795, 4320, 0, 0, []
1630343818.3399, 21, 0, 4361.026, 4578.974, 4103.59, 4179.487, 4320.513, 0, 0, []
1630343818.3478, 22, 0, 4345.641, 4613.846, 4112.821, 4183.077, 4300, 0, 0, []
1630343818.3557, 23, 0, 4333.333, 4590.769, 4002.051, 4176.923, 4281.026, 0, 0, []
1630343818.3637, 24, 0, 4327.179, 4564.615, 4080.513, 4160.513, 4273.333, 0, 0, []
1630343818.3716, 25, 0, 4315.897, 4560.513, 4201.538, 4144.615, 4257.436, 0, 0, []
1630343818.3796, 26, 0, 4309.744, 4545.128, 4063.077, 4138.974, 4245.128, 0, 0, []
1630343818.3874, 27, 0, 4310.256, 4568.205, 4077.436, 4147.179, 4244.103, 0, 0, []
1630343818.3954, 28, 0, 4315.897, 4614.872, 4013.846, 4144.103, 4245.128, 0, 0, []
1630343818.4033, 29, 0, 4315.385, 4589.744, 4085.128, 4144.615, 4244.103, 0, 0, []
1630343818.4111, 30, 0, 4292.308, 4547.179, 4201.026, 4145.641, 4234.359, 0, 0, []
1630343818.419, 31, 0, 4270.769, 4574.872, 4042.564, 4134.359, 4221.538, 0, 0, []
1630343818.4267, 32, 0, 4270.769, 4589.231, 4081.538, 4141.538, 4225.128, 0, 0, []
1630343818.4346, 33, 0, 4272.821, 4538.462, 4067.692, 4136.923, 4235.897, 0, 0, []
1630343818.4424, 34, 0, 4260, 4508.205, 4088.205, 4123.077, 4224.615, 0, 0, []
1630343818.4503, 35, 0, 4255.385, 4522.051, 4177.436, 4140.513, 4214.872, 0, 0, []
1630343818.4581, 36, 0, 4258.462, 4525.128, 4004.615, 4153.846, 4222.051, 0, 0, []
1630343818.466, 37, 0, 4266.667, 4514.359, 4049.744, 4155.385, 4222.564, 0, 0, []
1630343818.4739, 38, 0, 4278.974, 4533.846, 4107.692, 4157.436, 4219.487, 0, 0, []
1630343818.4819, 39, 0, 4282.564, 4584.103, 4115.897, 4156.41, 4220.513, 0, 0, []
1630343818.4898, 40, 0, 4285.128, 4612.308, 4174.359, 4161.026, 4226.154, 0, 0, []
1630343818.4978, 41, 0, 4293.846, 4592.821, 3990.256, 4165.641, 4234.359, 0, 0, []
1630343818.5056, 42, 0, 4294.359, 4582.564, 4042.564, 4166.667, 4229.744, 0, 0, []
1630343818.5136, 43, 0, 4267.179, 4596.41, 4136.41, 4143.077, 4200, 0, 0, []
1630343818.5215, 44, 0, 4236.923, 4574.872, 4108.718, 4105.641, 4171.282, 0, 0, []
1630343818.5295, 45, 0, 4234.872, 4553.333, 4130.256, 4096.41, 4170.769, 0, 0, []
1630343818.5374, 46, 0, 4236.41, 4573.333, 3949.744, 4089.744, 4171.795, 0, 0, []
1630343818.5453, 47, 0, 4213.846, 4581.026, 4023.077, 4074.872, 4161.026, 0, 0, []
1630343818.5532, 48, 0, 4192.821, 4568.718, 4151.282, 4075.385, 4161.026, 0, 0, []
1630343818.561, 49, 0, 4202.051, 4577.436, 4110.769, 4100, 4169.231, 0, 0, []
1630343818.5689, 50, 0, 4217.949, 4564.615, 4145.128, 4125.128, 4164.103, 0, 0, []
1630343818.5767, 51, 0, 4211.282, 4518.974, 3980, 4109.744, 4151.282, 0, 0, []
1630343818.5845, 52, 0, 4196.923, 4513.333, 4046.154, 4087.692, 4145.641, 0, 0, []
1630343818.5923, 53, 0, 4210.256, 4544.615, 4186.154, 4084.615, 4153.846, 0, 0, []
1630343818.6002, 54, 0, 4241.538, 4569.231, 4078.974, 4091.795, 4183.077, 0, 0, []
1630343818.608, 55, 0, 4246.667, 4586.667, 4077.436, 4097.949, 4202.051, 0, 0, []
1630343818.6159, 56, 0, 4228.205, 4574.359, 3963.077, 4074.359, 4192.308, 0, 0, []
1630343818.6236, 57, 0, 4221.538, 4535.897, 4047.179, 4073.846, 4181.538, 0, 0, []
1630343818.6315, 58, 0, 4212.821, 4511.795, 4192.308, 4097.949, 4165.641, 0, 0, []
1630343818.6393, 59, 0, 4200.513, 4499.487, 4033.846, 4090.256, 4145.128, 0, 0, []
1630343818.6473, 60, 0, 4218.462, 4506.667, 4032.821, 4090.769, 4156.923, 0, 0, []
1630343818.6552, 61, 0, 4240, 4538.462, 3990.769, 4108.205, 4175.385, 0, 0, []
1630343818.6632, 62, 0, 4229.744, 4543.077, 4064.615, 4098.974, 4165.128, 0, 0, []
1630343818.671, 63, 0, 4214.359, 4535.897, 4174.872, 4076.923, 4163.077, 0, 0, []
1630343818.679, 64, 0, 4211.795, 4546.154, 3986.667, 4066.667, 4173.846, 450, 0, []
1630343818.6869, 65, 0, 4205.641, 4542.564, 4027.692, 4073.846, 4165.641, 450, 0, []
1630343818.6949, 66, 0, 4194.359, 4517.436, 4049.231, 4070.256, 4150.769, 16181, 0, []
1630343818.7028, 67, 0, 4198.462, 4513.333, 4105.128, 4063.077, 4149.744, 450, 0, []
1630343818.7107, 68, 0, 4222.051, 4546.154, 4192.308, 4084.615, 4164.103, 16113, 0, []
1630343818.7186, 69, 0, 4231.282, 4581.026, 3982.564, 4095.385, 4171.795, 450, 0, []
1630343818.7264, 70, 0, 4217.949, 4567.692, 4053.846, 4083.077, 4163.077, 16232, 0, []
1630343818.7343, 71, 0, 4204.103, 4521.538, 4136.41, 4069.231, 4161.538, 450, 0, []
1630343818.7421, 72, 0, 4202.051, 4522.564, 4107.692, 4076.41, 4175.385, 450, 0, []
1630343818.7499, 73, 0, 4212.308, 4548.718, 4156.41, 4097.436, 4186.667, 16141, 0, []
1630343818.7577, 74, 0, 4218.974, 4537.436, 3954.359, 4087.692, 4186.154, 450, 0, []
1630343818.7656, 75, 0, 4218.974, 4524.615, 3980, 4085.128, 4182.051, 16201, 0, []
1630343818.7734, 76, 0, 4224.103, 4527.692, 4122.564, 4102.564, 4175.897, 450, 0, []
1630343818.7813, 77, 0, 4229.231, 4513.333, 4140, 4105.128, 4172.821, 450, 0, []
1630343818.789, 78, 0, 4229.231, 4491.795, 4134.359, 4097.949, 4171.795, 450, 0, []
1630343818.797, 79, 0, 4228.205, 4474.359, 3938.462, 4086.154, 4172.308, 16201, 0, []
1630343818.8049, 80, 0, 4225.641, 4452.821, 4025.128, 4091.282, 4176.923, 450, 0, []
1630343818.8129, 81, 0, 4224.103, 4467.179, 4156.41, 4103.59, 4189.231, 450, 0, []
1630343818.8208, 82, 0, 4235.385, 4509.231, 4115.385, 4108.205, 4198.462, 450, 0, []
1630343818.8287, 83, 0, 4238.462, 4504.103, 4135.385, 4117.949, 4192.308, 16201, 0, []
1630343818.8366, 84, 0, 4225.641, 4452.821, 3958.974, 4111.282, 4182.051, 450, 0, []
1630343818.8446, 85, 0, 4222.564, 4434.359, 4044.615, 4102.051, 4177.949, 450, 0, []
1630343818.8525, 86, 0, 4229.231, 4467.179, 4192.308, 4105.128, 4172.308, 450, 0, []
1630343818.8605, 87, 0, 4225.641, 4492.821, 4100, 4109.231, 4165.128, 16201, 0, []
1630343818.8683, 88, 0, 4216.41, 4481.538, 4087.179, 4110.769, 4172.308, 450, 0, []
1630343818.8761, 89, 0, 4220, 4477.949, 3957.949, 4100.513, 4191.282, 450, 0, []
1630343818.884, 90, 0, 4231.282, 4506.667, 4071.282, 4106.154, 4200, 450, 0, []
1630343818.8918, 91, 0, 4228.718, 4501.026, 4206.154, 4119.487, 4196.41, 16201, 0, []
1630343818.8997, 92, 0, 4212.821, 4443.077, 4046.154, 4114.872, 4184.615, 450, 0, []
1630343818.9074, 93, 0, 4206.154, 4404.615, 4049.231, 4115.897, 4169.744, 450, 0, []
1630343818.9153, 94, 0, 4207.692, 4416.923, 4007.179, 4114.872, 4160, 450, 0, []
1630343818.9231, 95, 0, 4195.897, 4414.359, 4096.41, 4112.308, 4152.308, 16201, 0, []
1630343818.931, 96, 0, 4176.923, 4369.231, 4196.41, 4103.59, 4145.641, 450, 0, []
1630343818.9388, 97, 0, 4176.41, 4347.179, 4016.41, 4089.744, 4153.846, 450, 0, []
1630343818.9467, 98, 0, 4190.769, 4368.718, 4062.051, 4111.282, 4169.744, 450, 0, []
1630343818.9546, 99, 0, 4191.282, 4358.974, 4068.718, 4132.308, 4165.641, 16201, 0, []
1630343818.9626, 100, 0, 4173.846, 4305.128, 4098.974, 4114.872, 4143.59, 450, 0, []
1630343818.9705, 101, 0, 4171.282, 4287.179, 4191.795, 4098.462, 4135.897, 450, 0, []
1630343818.9785, 102, 0, 4184.103, 4309.231, 4020.513, 4098.974, 4143.59, 450, 0, []
1630343818.9863, 103, 0, 4177.436, 4315.897, 4065.128, 4109.231, 4144.103, 16201, 0, []
1630343818.9943, 104, 0, 4157.949, 4276.923, 4116.923, 4106.154, 4138.974, 450, 0, []
1630343819.0022, 105, 0, 4165.128, 4223.077, 4120, 4097.949, 4135.385, 450, 0, []
1630343819.0102, 106, 0, 4180, 4210.769, 4169.744, 4104.103, 4127.179, 450, 0, []
1630343819.0181, 107, 0, 4167.692, 4212.308, 3975.385, 4098.974, 4104.615, 16201, 0, []
1630343819.0259, 108, 0, 4163.077, 4186.154, 4027.692, 4094.872, 4104.615, 450, 0, []
1630343819.0337, 109, 0, 4180, 4181.026, 4132.308, 4091.795, 4134.359, 450, 0, []
1630343819.0416, 110, 0, 4175.897, 4206.667, 4119.487, 4094.359, 4144.103, 450, 0, []
1630343819.0496, 111, 0, 4167.179, 4207.692, 4153.846, 4123.077, 4138.974, 16201, 0, []
1630343819.0574, 112, 0, 4177.949, 4201.538, 3978.974, 4135.897, 4141.026, 450, 0, []
1630343819.0654, 113, 0, 4182.564, 4214.359, 4047.179, 4124.103, 4137.949, 450, 0, []
1630343819.0732, 114, 0, 4173.333, 4241.538, 4170.256, 4115.385, 4129.744, 450, 0, []
1630343819.0811, 115, 0, 4172.308, 4287.692, 4110.769, 4122.564, 4133.846, 16201, 0, []
1630343819.0889, 116, 0, 4178.462, 4307.179, 4125.641, 4132.821, 4138.974, 450, 0, []
1630343819.0969, 117, 0, 4165.128, 4285.128, 3972.821, 4118.462, 4128.205, 450, 0, []
1630343819.1048, 118, 0, 4152.821, 4301.538, 4046.667, 4105.128, 4118.462, 450, 0, []
1630343819.1127, 119, 0, 4166.154, 4330.256, 4186.667, 4103.077, 4116.923, 16201, 0, []
1630343819.1206, 120, 0, 4183.59, 4305.128, 4083.59, 4106.667, 4125.641, 450, 0, []
1630343819.1286, 121, 0, 4186.667, 4295.897, 4085.128, 4121.538, 4134.359, 450, 0, []
1630343819.1365, 122, 0, 4190.256, 4312.308, 3983.59, 4124.615, 4141.538, 450, 0, []
1630343819.1445, 123, 0, 4203.59, 4292.308, 4069.744, 4133.333, 4160, 16201, 0, []
1630343819.1523, 124, 0, 4211.795, 4294.359, 4207.179, 4148.205, 4174.872, 450, 0, []
1630343819.1603, 125, 0, 4213.846, 4335.897, 4064.615, 4140.513, 4170.769, 450, 0, []
1630343819.1682, 126, 0, 4219.487, 4306.667, 4082.051, 4135.897, 4163.077, 450, 0, []
1630343819.176, 127, 0, 4230.769, 4238.974, 4030.256, 4133.333, 4167.692, 16201, 0, []
1630343819.1839, 128, 0, 4238.462, 4246.667, 4082.051, 4130.256, 4173.333, 450, 0, []
1630343819.1916, 0, 0, 4227.179, 4270.769, 4200.513, 4124.615, 4163.59, 450, 0, []
1630343819.1995, 1, 0, 4207.179, 4236.41, 4030.769, 4101.026, 4146.667, 450, 0, []
1630343819.2073, 2, 0, 4204.615, 4212.821, 4062.051, 4096.923, 4156.41, 16195, 0, []
1630343819.2152, 3, 0, 4206.667, 4231.795, 4082.564, 4112.821, 4175.385, 450, 0, []
1630343819.223, 4, 0, 4204.103, 4242.564, 4104.103, 4116.41, 4160.513, 16121, 0, []
1630343819.2308, 5, 0, 4210.769, 4234.872, 4182.564, 4111.282, 4140, 450, 0, []
1630343819.2386, 6, 0, 4217.949, 4220, 3998.974, 4107.692, 4146.154, 16224, 0, []
1630343819.2465, 7, 0, 4212.821, 4215.385, 4032.308, 4116.41, 4152.821, 450, 0, []
1630343819.2543, 8, 0, 4201.538, 4224.103, 4102.051, 4115.897, 4145.641, 450, 0, []
1630343819.2623, 9, 0, 4193.846, 4189.744, 4121.538, 4106.154, 4137.949, 16127, 0, []
1630343819.2701, 10, 0, 4183.59, 4125.128, 4162.564, 4106.154, 4134.359, 450, 0, []
1630343819.2781, 11, 0, 4181.538, 4106.667, 3961.538, 4109.744, 4143.077, 16207, 0, []
1630343819.286, 12, 0, 4202.564, 4112.821, 4041.026, 4121.538, 4154.359, 450, 0, []
1630343819.294, 13, 0, 4221.026, 4100.513, 4172.308, 4122.564, 4157.949, 450, 0, []
1630343819.3019, 14, 0, 4217.436, 4079.487, 4134.359, 4108.718, 4165.641, 450, 0, []
1630343819.3098, 15, 0, 4205.128, 4055.385, 4127.179, 4104.103, 4170.769, 16207, 0, []
1630343819.3177, 16, 0, 4197.436, 4036.923, 3954.359, 4098.974, 4164.103, 0, 0, []
1630343819.3257, 17, 0, 4196.923, 4060.513, 4054.872, 4103.077, 4152.821, 0, 0, []
1630343819.3336, 18, 0, 4200, 4106.667, 4177.949, 4112.308, 4145.641, 0, 0, []
1630343819.3414, 19, 0, 4201.538, 4135.385, 4096.41, 4107.692, 4142.564, 0, 0, []
1630343819.3492, 20, 0, 4207.179, 4145.128, 4105.128, 4103.59, 4144.103, 0, 0, []
1630343819.357, 21, 0, 4214.872, 4132.821, 3963.077, 4097.436, 4147.179, 0, 0, []
1630343819.3649, 22, 0, 4213.846, 4144.103, 4061.538, 4095.897, 4155.385, 0, 0, []
1630343819.3727, 23, 0, 4215.385, 4194.872, 4202.564, 4093.846, 4172.308, 0, 0, []
1630343819.3806, 24, 0, 4213.333, 4190.256, 4062.051, 4084.103, 4173.333, 0, 0, []
1630343819.3884, 25, 0, 4203.59, 4137.436, 4074.872, 4100, 4157.949, 0, 0, []
1630343819.3963, 26, 0, 4205.128, 4157.436, 4006.154, 4113.333, 4156.923, 0, 0, []
1630343819.4042, 27, 0, 4203.59, 4195.897, 4067.692, 4101.538, 4159.487, 0, 0, []
1630343819.4122, 28, 0, 4195.897, 4155.897, 4192.821, 4100.513, 4153.333, 0, 0, []
1630343819.4201, 29, 0, 4203.59, 4118.462, 4057.949, 4112.821, 4160.513, 0, 0, []
1630343819.4281, 30, 0, 4214.359, 4134.359, 4073.333, 4117.436, 4171.795, 0, 0, []
1630343819.4359, 31, 0, 4197.949, 4177.436, 4029.231, 4093.333, 4156.41, 0, 0, []
1630343819.4439, 32, 0, 4175.385, 4218.462, 4076.41, 4070.769, 4128.718, 0, 0, []
1630343819.4518, 33, 0, 4172.821, 4209.231, 4176.923, 4062.051, 4121.026, 0, 0, []
1630343819.4598, 34, 0, 4177.436, 4158.974, 4013.846, 4053.846, 4122.051, 0, 0, []
1630343819.4677, 35, 0, 4188.718, 4130.769, 4059.487, 4073.333, 4132.821, 0, 0, []
1630343819.4756, 36, 0, 4194.359, 4095.385, 4075.897, 4097.949, 4160.513, 0, 0, []
1630343819.4835, 37, 0, 4183.077, 4057.436, 4099.487, 4113.333, 4167.179, 0, 0, []
1630343819.4915, 38, 0, 4176.923, 4103.59, 4176.41, 4124.615, 4147.179, 0, 0, []
1630343819.4994, 39, 0, 4183.077, 4177.949, 3980.513, 4109.744, 4139.487, 0, 0, []
1630343819.5072, 40, 0, 4187.179, 4192.821, 4030.256, 4089.231, 4137.949, 0, 0, []
1630343819.515, 41, 0, 4187.692, 4182.051, 4116.41, 4076.923, 4129.231, 0, 0, []
1630343819.5228, 42, 0, 4191.795, 4186.154, 4116.41, 4081.538, 4139.487, 0, 0, []
1630343819.5308, 43, 0, 4191.282, 4194.359, 4152.308, 4095.897, 4167.692, 0, 0, []
1630343819.5387, 44, 0, 4191.795, 4218.462, 3949.744, 4090.769, 4180.513, 0, 0, []
1630343819.5467, 45, 0, 4204.103, 4236.923, 4017.949, 4097.949, 4179.487, 0, 0, []
1630343819.5545, 46, 0, 4205.641, 4223.59, 4140.513, 4121.026, 4171.795, 0, 0, []
1630343819.5625, 47, 0, 4199.487, 4225.641, 4098.462, 4125.128, 4169.744, 0, 0, []
1630343819.5704, 48, 0, 4204.615, 4217.949, 4125.128, 4114.872, 4171.282, 0, 0, []
1630343819.5784, 49, 0, 4197.436, 4176.41, 3965.128, 4096.923, 4151.795, 0, 0, []
1630343819.5863, 50, 0, 4186.667, 4177.436, 4042.564, 4104.103, 4151.282, 0, 0, []
1630343819.5942, 51, 0, 4197.436, 4205.128, 4171.282, 4119.487, 4187.179, 0, 0, []
1630343819.6021, 52, 0, 4201.538, 4191.282, 4089.231, 4105.641, 4193.333, 0, 0, []
1630343819.6101, 53, 0, 4191.795, 4190.769, 4106.667, 4099.487, 4172.821, 0, 0, []
1630343819.618, 54, 0, 4206.154, 4200, 3977.436, 4117.949, 4184.103, 0, 0, []
1630343819.626, 55, 0, 4227.179, 4177.949, 4057.436, 4136.41, 4197.949, 0, 0, []
1630343819.6338, 56, 0, 4213.333, 4200.513, 4193.333, 4126.154, 4178.462, 0, 0, []
1630343819.6416, 57, 0, 4187.692, 4238.974, 4065.128, 4100, 4162.051, 0, 0, []
1630343819.6495, 58, 0, 4181.026, 4228.718, 4071.282, 4095.385, 4164.103, 0, 0, []
1630343819.6573, 59, 0, 4187.692, 4233.846, 3995.897, 4093.333, 4175.897, 0, 0, []
1630343819.6652, 60, 0, 4196.923, 4250.256, 4077.949, 4098.974, 4188.205, 0, 0, []
1630343819.6729, 61, 0, 4200.513, 4221.026, 4206.667, 4120, 4187.692, 0, 0, []
1630343819.6808, 62, 0, 4198.974, 4189.744, 4051.282, 4124.615, 4181.026, 0, 0, []
1630343819.6886, 63, 0, 4203.59, 4194.872, 4071.795, 4127.179, 4183.077, 0, 0, []
1630343819.6965, 64, 0, 4211.282, 4210.256, 4035.385, 4128.718, 4187.692, 450, 0, []
1630343819.7043, 65, 0, 4205.641, 4219.487, 4077.436, 4118.462, 4181.026, 450, 0, []
1630343819.7121, 66, 0, 4191.282, 4203.59, 4183.077, 4105.641, 4175.897, 16187, 0, []
1630343819.7199, 67, 0, 4183.077, 4175.897, 4005.641, 4088.205, 4175.385, 450, 0, []
1630343819.7279, 68, 0, 4185.641, 4187.179, 4035.385, 4090.256, 4175.897, 16132, 0, []
1630343819.7358, 69, 0, 4196.41, 4222.051, 4066.667, 4113.846, 4178.974, 450, 0, []
1630343819.7438, 70, 0, 4199.487, 4227.179, 4102.564, 4128.205, 4175.385, 16228, 0, []
1630343819.7517, 71, 0, 4201.026, 4221.026, 4178.974, 4124.615, 4173.333, 450, 0, []
1630343819.7596, 72, 0, 4211.282, 4227.692, 3983.077, 4119.487, 4181.026, 450, 0, []
1630343819.7675, 73, 0, 4221.538, 4228.718, 4030.769, 4127.179, 4191.282, 16129, 0, []
1630343819.7755, 74, 0, 4221.538, 4233.333, 4114.359, 4116.41, 4202.564, 450, 0, []
1630343819.7834, 75, 0, 4212.821, 4246.667, 4121.538, 4109.744, 4200.513, 16205, 0, []
1630343819.7912, 76, 0, 4202.564, 4229.744, 4160.513, 4126.154, 4182.051, 450, 0, []
1630343819.799, 77, 0, 4201.538, 4174.359, 3943.077, 4118.974, 4174.359, 450, 0, []
1630343819.8068, 78, 0, 4215.385, 4148.718, 4008.205, 4116.923, 4183.077, 450, 0, []
1630343819.8147, 79, 0, 4220, 4167.179, 4151.282, 4129.744, 4179.487, 16205, 0, []
1630343819.8225, 80, 0, 4199.487, 4182.051, 4116.923, 4125.641, 4166.667, 450, 0, []
1630343819.8304, 81, 0, 4182.564, 4199.487, 4125.641, 4124.103, 4166.154, 450, 0, []
1630343819.8381, 82, 0, 4188.718, 4204.615, 3948.718, 4127.692, 4178.462, 450, 0, []
1630343819.846, 83, 0, 4197.436, 4150.256, 4038.974, 4131.282, 4184.615, 16205, 0, []
1630343819.8538, 84, 0, 4183.077, 4082.051, 4188.718, 4128.718, 4171.795, 450, 0, []
1630343819.8617, 85, 0, 4156.923, 4076.41, 4098.462, 4113.846, 4148.718, 450, 0, []
1630343819.8695, 86, 0, 4154.872, 4106.667, 4092.821, 4107.692, 4136.923, 450, 0, []
1630343819.8773, 87, 0, 4168.718, 4105.641, 3955.385, 4105.641, 4143.59, 16205, 0, []
1630343819.8851, 88, 0, 4158.462, 4079.487, 4050.256, 4113.846, 4151.282, 450, 0, []
1630343819.8931, 89, 0, 4137.436, 4077.436, 4204.103, 4130.256, 4154.359, 450, 0, []
1630343819.901, 90, 0, 4144.103, 4095.897, 4071.795, 4124.615, 4153.846, 450, 0, []
1630343819.909, 91, 0, 4163.59, 4104.615, 4062.051, 4107.692, 4138.462, 16205, 0, []
1630343819.9168, 92, 0, 4168.205, 4121.538, 3979.487, 4097.949, 4121.026, 450, 0, []
1630343819.9248, 93, 0, 4169.744, 4143.59, 4061.026, 4109.231, 4134.359, 450, 0, []
1630343819.9327, 94, 0, 4166.667, 4125.641, 4183.077, 4115.385, 4155.385, 450, 0, []
1630343819.9407, 95, 0, 4148.205, 4096.41, 4015.897, 4105.128, 4142.564, 16205, 0, []
1630343819.9486, 96, 0, 4143.59, 4117.436, 4033.846, 4119.487, 4125.641, 450, 0, []
1630343819.9563, 97, 0, 4161.026, 4144.615, 4020, 4123.077, 4128.718, 450, 0, []
1630343819.9642, 98, 0, 4166.154, 4140.513, 4087.179, 4104.615, 4124.615, 450, 0, []
1630343819.972, 99, 0, 4154.872, 4154.359, 4195.897, 4101.538, 4112.821, 16205, 0, []
1630343819.9799, 100, 0, 4142.051, 4173.846, 4014.872, 4106.154, 4115.897, 450, 0, []
1630343819.9877, 101, 0, 4139.487, 4145.128, 4044.103, 4117.949, 4123.077, 450, 0, []
1630343819.9955, 102, 0, 4152.821, 4116.923, 4078.974, 4128.205, 4123.077, 450, 0, []
1630343820.0033, 103, 0, 4163.59, 4146.667, 4121.026, 4133.333, 4120, 16205, 0, []
1630343820.0112, 104, 0, 4160, 4171.282, 4181.538, 4132.308, 4112.821, 450, 0, []
1630343820.019, 105, 0, 4155.897, 4169.231, 3966.154, 4116.923, 4115.897, 450, 0, []
1630343820.027, 106, 0, 4161.538, 4182.051, 4026.667, 4118.974, 4135.897, 450, 0, []
1630343820.0348, 107, 0, 4152.821, 4175.385, 4111.282, 4126.154, 4139.487, 16205, 0, []
1630343820.0427, 108, 0, 4144.615, 4151.795, 4091.795, 4118.974, 4124.615, 450, 0, []
1630343820.0506, 109, 0, 4160, 4151.282, 4141.026, 4124.615, 4125.128, 450, 0, []
1630343820.0584, 110, 0, 4168.205, 4150.256, 3958.974, 4128.718, 4125.128, 450, 0, []
1630343820.0664, 111, 0, 4155.385, 4145.641, 4019.487, 4127.692, 4116.923, 16205, 0, []
1630343820.0743, 112, 0, 4152.308, 4151.795, 4137.949, 4125.128, 4131.282, 450, 0, []
1630343820.0821, 113, 0, 4164.103, 4161.538, 4100.513, 4122.564, 4148.718, 450, 0, []
1630343820.0901, 114, 0, 4173.846, 4167.179, 4125.128, 4136.923, 4147.692, 450, 0, []
1630343820.098, 115, 0, 4175.385, 4174.359, 3962.051, 4147.692, 4138.462, 16205, 0, []
1630343820.1058, 116, 0, 4167.692, 4173.333, 4042.051, 4140, 4125.128, 450, 0, []
1630343820.1137, 117, 0, 4158.462, 4159.487, 4176.923, 4122.564, 4124.103, 450, 0, []
1630343820.1214, 118, 0, 4160, 4158.974, 4092.821, 4123.077, 4143.59, 450, 0, []
1630343820.1293, 119, 0, 4168.718, 4173.846, 4103.077, 4146.154, 4156.41, 16205, 0, []
1630343820.1371, 120, 0, 4177.436, 4181.538, 3966.667, 4147.179, 4155.385, 450, 0, []
1630343820.145, 121, 0, 4188.205, 4185.641, 4054.359, 4140.513, 4155.385, 450, 0, []
1630343820.1528, 122, 0, 4191.282, 4186.154, 4203.59, 4139.487, 4148.205, 450, 0, []
1630343820.1606, 123, 0, 4176.923, 4159.487, 4064.103, 4123.59, 4133.846, 16205, 0, []
1630343820.1684, 124, 0, 4167.692, 4134.359, 4064.615, 4115.897, 4134.359, 450, 0, []
1630343820.1764, 125, 0, 4174.359, 4168.205, 3997.949, 4123.59, 4148.205, 450, 0, []
1630343820.1843, 126, 0, 4179.487, 4212.308, 4077.436, 4138.974, 4154.872, 450, 0, []
1630343820.1923, 127, 0, 4177.949, 4214.872, 4191.282, 4145.641, 4152.821, 16205, 0, []
1630343820.2001, 128, 0, 4185.641, 4197.436, 4026.667, 4144.103, 4154.872, 450, 0, []
1630343820.2081, 0, 0, 4196.41, 4175.897, 4052.308, 4154.359, 4162.564, 450, 0, []
1630343820.216, 1, 0, 4182.051, 4144.103, 4031.282, 4142.564, 4163.077, 450, 0, []
1630343820.224, 2, 0, 4158.974, 4130.256, 4085.641, 4117.949, 4144.103, 16187, 0, []
1630343820.2319, 3, 0, 4159.487, 4143.077, 4181.538, 4119.487, 4127.179, 450, 0, []
1630343820.2398, 4, 0, 4174.872, 4141.538, 3997.436, 4127.692, 4136.41, 16136, 0, []
1630343820.2477, 5, 0, 4192.308, 4140.513, 4039.487, 4137.949, 4161.026, 450, 0, []
1630343820.2555, 6, 0, 4203.59, 4173.846, 4069.744, 4133.846, 4177.949, 16219, 0, []
1630343820.2634, 7, 0, 4199.487, 4208.205, 4095.897, 4125.641, 4172.821, 450, 0, []
1630343820.2712, 8, 0, 4187.692, 4216.923, 4170.769, 4139.487, 4162.564, 450, 0, []
1630343820.279, 9, 0, 4191.282, 4191.282, 3965.128, 4148.205, 4164.103, 16128, 0, []
1630343820.2868, 10, 0, 4213.846, 4155.897, 4015.897, 4147.692, 4171.795, 450, 0, []
1630343820.2947, 11, 0, 4224.103, 4160, 4118.974, 4134.872, 4169.744, 16167, 0, []
1630343820.3025, 12, 0, 4214.359, 4170.256, 4120, 4124.103, 4165.641, 450, 0, []
1630343820.3104, 13, 0, 4201.538, 4139.487, 4149.744, 4134.359, 4174.359, 450, 0, []
1630343820.3181, 14, 0, 4191.795, 4128.718, 3936.41, 4136.41, 4181.026, 450, 0, []
1630343820.326, 15, 0, 4194.872, 4148.718, 4000.513, 4145.641, 4178.462, 16167, 0, []
1630343820.3338, 16, 0, 4211.282, 4150.769, 4152.821, 4163.077, 4176.923, 0, 0, []
1630343820.3418, 17, 0, 4217.949, 4161.538, 4114.359, 4156.41, 4178.974, 0, 0, []
1630343820.3497, 18, 0, 4220, 4176.923, 4112.308, 4147.179, 4184.103, 0, 0, []
1630343820.3576, 19, 0, 4231.282, 4162.051, 3945.641, 4142.564, 4191.282, 0, 0, []
1630343820.3655, 20, 0, 4233.333, 4168.205, 4040.513, 4142.564, 4199.487, 0, 0, []
1630343820.3735, 21, 0, 4220.513, 4200, 4175.897, 4147.179, 4206.154, 0, 0, []
1630343820.3814, 22, 0, 4215.385, 4213.333, 4082.564, 4155.897, 4201.026, 0, 0, []
1630343820.3894, 23, 0, 4217.436, 4214.872, 4098.462, 4162.564, 4186.667, 0, 0, []
1630343820.3972, 24, 0, 4219.487, 4201.026, 3966.667, 4144.615, 4183.077, 0, 0, []
1630343820.4052, 25, 0, 4229.231, 4196.923, 4047.692, 4136.923, 4196.923, 0, 0, []
1630343820.4131, 26, 0, 4243.59, 4221.538, 4197.436, 4156.923, 4213.846, 0, 0, []
1630343820.4211, 27, 0, 4248.205, 4223.077, 4061.026, 4163.077, 4218.974, 0, 0, []
1630343820.429, 28, 0, 4240.513, 4213.846, 4054.872, 4152.821, 4216.923, 0, 0, []
1630343820.437, 29, 0, 4228.205, 4241.026, 3983.59, 4141.538, 4215.385, 0, 0, []
1630343820.4448, 30, 0, 4230.256, 4255.385, 4069.744, 4157.949, 4219.487, 0, 0, []
1630343820.4526, 31, 0, 4237.949, 4247.692, 4190.256, 4175.897, 4219.487, 0, 0, []
1630343820.4605, 32, 0, 4230.769, 4252.821, 4015.897, 4156.41, 4212.308, 0, 0, []
1630343820.4683, 33, 0, 4231.282, 4248.718, 4038.974, 4149.744, 4212.821, 0, 0, []
1630343820.4762, 34, 0, 4246.154, 4236.923, 4036.923, 4161.026, 4216.923, 0, 0, []
1630343820.4839, 35, 0, 4245.128, 4235.385, 4095.897, 4156.923, 4217.436, 0, 0, []
1630343820.4919, 36, 0, 4230.769, 4230.769, 4184.103, 4151.282, 4216.41, 0, 0, []
1630343820.4998, 37, 0, 4228.718, 4246.154, 3990.769, 4154.359, 4216.923, 0, 0, []
1630343820.5078, 38, 0, 4232.821, 4264.103, 4027.692, 4168.718, 4217.436, 0, 0, []
1630343820.5157, 39, 0, 4232.308, 4251.795, 4064.103, 4180, 4219.487, 0, 0, []
1630343820.5236, 40, 0, 4229.744, 4233.846, 4086.667, 4180.513, 4213.846, 0, 0, []
1630343820.5315, 41, 0, 4231.795, 4236.41, 4160.513, 4171.282, 4203.59, 0, 0, []
1630343820.5395, 42, 0, 4237.436, 4244.103, 3964.103, 4155.385, 4195.897, 0, 0, []
1630343820.5474, 43, 0, 4244.103, 4248.718, 4017.436, 4165.128, 4197.949, 0, 0, []
1630343820.5554, 44, 0, 4250.769, 4253.846, 4118.974, 4176.923, 4216.923, 0, 0, []
1630343820.5632, 45, 0, 4254.359, 4256.923, 4113.846, 4176.41, 4235.897, 0, 0, []
1630343820.5711, 46, 0, 4251.795, 4259.487, 4136.41, 4180.513, 4236.923, 0, 0, []
1630343820.579, 47, 0, 4244.615, 4276.923, 3931.795, 4175.897, 4232.821, 0, 0, []
1630343820.5868, 48, 0, 4247.692, 4280, 4010.769, 4185.641, 4234.872, 0, 0, []
1630343820.5947, 49, 0, 4262.051, 4225.128, 4157.436, 4200.513, 4234.872, 0, 0, []
1630343820.6024, 50, 0, 4262.564, 4171.795, 4113.333, 4194.872, 4228.205, 0, 0, []
1630343820.6104, 51, 0, 4252.308, 4184.615, 4120.513, 4191.795, 4221.538, 0, 0, []
1630343820.6183, 52, 0, 4246.667, 4201.538, 3949.744, 4176.41, 4210.769, 0, 0, []
1630343820.6262, 53, 0, 4245.641, 4196.41, 4033.333, 4159.487, 4208.718, 0, 0, []
1630343820.634, 54, 0, 4254.359, 4207.179, 4174.359, 4167.179, 4239.487, 0, 0, []
1630343820.6419, 55, 0, 4273.333, 4220.513, 4083.077, 4180.513, 4268.205, 0, 0, []
1630343820.6498, 56, 0, 4272.821, 4222.051, 4100, 4185.641, 4254.872, 0, 0, []
1630343820.6578, 57, 0, 4246.154, 4215.897, 3974.359, 4177.436, 4228.205, 0, 0, []
1630343820.6657, 58, 0, 4241.026, 4214.359, 4053.333, 4178.462, 4222.051, 0, 0, []
1630343820.6737, 59, 0, 4265.128, 4230.256, 4203.59, 4193.333, 4231.795, 0, 0, []
1630343820.6815, 60, 0, 4268.205, 4234.872, 4066.154, 4195.385, 4231.282, 0, 0, []
1630343820.6895, 61, 0, 4251.282, 4219.487, 4055.897, 4194.872, 4216.41, 0, 0, []
1630343820.6974, 62, 0, 4242.564, 4225.641, 3988.205, 4188.205, 4209.231, 0, 0, []
1630343820.7054, 63, 0, 4234.359, 4253.333, 4068.718, 4185.128, 4213.846, 0, 0, []
1630343820.7133, 64, 0, 4231.795, 4266.667, 4183.59, 4190.769, 4222.051, 450, 0, []
1630343820.721, 65, 0, 4248.205, 4257.949, 4012.821, 4195.385, 4234.359, 450, 0, []
1630343820.7289, 66, 0, 4258.462, 4245.128, 4040, 4206.154, 4236.923, 16190, 0, []
1630343820.7367, 67, 0, 4247.692, 4251.282, 4034.359, 4195.897, 4218.974, 450, 0, []
1630343820.7446, 68, 0, 4242.564, 4250.256, 4095.385, 4182.051, 4207.179, 16135, 0, []
1630343820.7524, 69, 0, 4252.821, 4224.103, 4200, 4200.513, 4215.897, 450, 0, []
1630343820.7602, 70, 0, 4260.513, 4219.487, 4003.59, 4212.308, 4223.077, 16222, 0, []
1630343820.768, 71, 0, 4257.436, 4234.872, 4028.205, 4210.769, 4227.179, 450, 0, []
1630343820.7759, 72, 0, 4249.231, 4235.897, 4080.513, 4209.231, 4235.385, 450, 0, []
1630343820.7837, 73, 0, 4242.564, 4232.308, 4115.897, 4214.359, 4233.333, 16129, 0, []
1630343820.7916, 74, 0, 4232.821, 4218.974, 4171.795, 4217.436, 4220.513, 450, 0, []
1630343820.7994, 75, 0, 4225.128, 4192.821, 3954.872, 4213.333, 4214.872, 16197, 0, []
1630343820.8073, 76, 0, 4231.282, 4194.872, 4017.436, 4223.59, 4214.872, 450, 0, []
1630343820.8152, 77, 0, 4231.282, 4190.256, 4129.744, 4222.564, 4204.615, 450, 0, []
1630343820.8232, 78, 0, 4216.923, 4137.436, 4110.769, 4204.615, 4197.949, 450, 0, []
1630343820.8311, 79, 0, 4206.667, 4119.487, 4132.821, 4198.462, 4201.538, 16197, 0, []
1630343820.8391, 80, 0, 4200, 4138.974, 3941.026, 4181.026, 4201.538, 450, 0, []
1630343820.8469, 81, 0, 4195.897, 4113.333, 4018.462, 4176.41, 4199.487, 450, 0, []
1630343820.8549, 82, 0, 4201.026, 4092.821, 4154.872, 4199.487, 4199.487, 450, 0, []
1630343820.8628, 83, 0, 4210.256, 4110.769, 4103.59, 4211.282, 4202.564, 16197, 0, []
1630343820.8706, 84, 0, 4221.538, 4108.718, 4119.487, 4211.282, 4208.205, 450, 0, []
1630343820.8785, 85, 0, 4225.128, 4103.59, 3961.538, 4207.179, 4203.59, 450, 0, []
1630343820.8862, 86, 0, 4213.846, 4121.538, 4043.59, 4208.205, 4195.897, 450, 0, []
1630343820.8941, 87, 0, 4203.59, 4118.974, 4178.462, 4198.974, 4202.051, 16197, 0, []
1630343820.9019, 88, 0, 4194.872, 4094.872, 4077.949, 4174.359, 4198.462, 450, 0, []
1630343820.9098, 89, 0, 4189.744, 4086.667, 4084.103, 4174.359, 4180, 450, 0, []
1630343820.9176, 90, 0, 4201.538, 4078.462, 3965.641, 4189.231, 4179.487, 450, 0, []
1630343820.9254, 91, 0, 4212.821, 4059.487, 4058.974, 4197.949, 4186.667, 16197, 0, []
1630343820.9332, 92, 0, 4201.538, 4065.641, 4212.308, 4194.872, 4172.821, 450, 0, []
1630343820.9411, 93, 0, 4185.641, 4081.538, 4065.641, 4182.051, 4160, 450, 0, []
1630343820.9489, 94, 0, 4185.641, 4085.128, 4060.513, 4185.128, 4171.795, 450, 0, []
1630343820.9568, 95, 0, 4190.769, 4064.103, 4006.154, 4189.744, 4187.179, 16197, 0, []
1630343820.9645, 96, 0, 4195.897, 4022.051, 4093.846, 4183.59, 4184.615, 450, 0, []
1630343820.9725, 97, 0, 4203.077, 4005.128, 4205.128, 4167.692, 4174.872, 450, 0, []
1630343820.9804, 98, 0, 4202.564, 4036.923, 4015.385, 4152.308, 4169.744, 450, 0, []
1630343820.9884, 99, 0, 4193.846, 4070.769, 4032.308, 4167.692, 4174.359, 16197, 0, []
1630343820.9963, 100, 0, 4189.231, 4087.692, 4025.641, 4191.795, 4191.282, 450, 0, []
1630343821.0042, 101, 0, 4197.436, 4114.872, 4077.436, 4205.128, 4200, 450, 0, []
1630343821.0121, 102, 0, 4212.821, 4124.103, 4176.923, 4220, 4199.487, 450, 0, []
1630343821.0201, 103, 0, 4215.897, 4104.615, 3985.128, 4219.487, 4200.513, 16197, 0, []
1630343821.028, 104, 0, 4211.795, 4093.333, 4020.513, 4198.462, 4195.897, 450, 0, []
1630343821.0359, 105, 0, 4208.718, 4081.538, 4082.051, 4166.667, 4185.128, 450, 0, []
1630343821.0437, 106, 0, 4202.564, 4078.462, 4121.026, 4155.897, 4183.59, 450, 0, []
1630343821.0515, 107, 0, 4201.538, 4108.205, 4170.769, 4155.385, 4190.769, 16197, 0, []
1630343821.0595, 108, 0, 4203.59, 4136.41, 3947.692, 4126.667, 4182.564, 450, 0, []
1630343821.0674, 109, 0, 4201.026, 4122.564, 4010.769, 4124.615, 4166.667, 450, 0, []
1630343821.0753, 110, 0, 4200.513, 4099.487, 4130.256, 4156.923, 4158.974, 450, 0, []
1630343821.083, 111, 0, 4209.744, 4100, 4118.974, 4185.128, 4164.615, 16197, 0, []
1630343821.0909, 112, 0, 4223.59, 4090.256, 4145.128, 4210.769, 4177.949, 450, 0, []
1630343821.0987, 113, 0, 4225.128, 4074.872, 3950.256, 4209.744, 4184.615, 450, 0, []
1630343821.1066, 114, 0, 4215.897, 4104.103, 4020.513, 4201.026, 4189.231, 450, 0, []
1630343821.1144, 115, 0, 4217.436, 4144.615, 4157.949, 4211.795, 4204.103, 16197, 0, []
1630343821.1224, 116, 0, 4230.256, 4140, 4108.718, 4220, 4211.282, 450, 0, []
1630343821.1302, 117, 0, 4224.103, 4141.026, 4124.615, 4215.385, 4187.692, 450, 0, []
1630343821.1382, 118, 0, 4209.744, 4152.821, 3961.026, 4207.692, 4168.205, 450, 0, []
1630343821.1461, 119, 0, 4214.872, 4132.308, 4041.026, 4211.795, 4168.205, 16197, 0, []
1630343821.1541, 120, 0, 4220, 4125.641, 4181.538, 4194.359, 4163.59, 450, 0, []
1630343821.162, 121, 0, 4212.821, 4137.436, 4076.923, 4160.513, 4166.667, 450, 0, []
1630343821.1699, 122, 0, 4208.718, 4122.564, 4080.513, 4156.923, 4177.436, 450, 0, []
1630343821.1778, 123, 0, 4207.179, 4114.359, 3965.128, 4157.436, 4181.538, 16197, 0, []
1630343821.1856, 124, 0, 4212.821, 4156.923, 4057.949, 4174.872, 4180.513, 450, 0, []
1630343821.1935, 125, 0, 4225.128, 4201.026, 4200, 4206.667, 4183.077, 450, 0, []
1630343821.2013, 126, 0, 4233.333, 4208.205, 4046.154, 4208.205, 4191.795, 450, 0, []
1630343821.2091, 127, 0, 4245.128, 4190.256, 4051.282, 4213.846, 4200.513, 16197, 0, []
1630343821.2169, 128, 0, 4245.641, 4168.205, 3996.41, 4214.359, 4190.256, 450, 0, []
1630343821.2248, 0, 0, 4233.333, 4185.641, 4078.974, 4192.821, 4172.821, 450, 0, []
1630343821.2326, 1, 0, 4233.846, 4212.308, 4207.692, 4194.872, 4179.487, 450, 0, []
1630343821.2405, 2, 0, 4231.795, 4189.231, 4026.154, 4208.205, 4182.564, 16187, 0, []
1630343821.2482, 3, 0, 4214.872, 4163.59, 4035.385, 4196.923, 4167.692, 450, 0, []
1630343821.2561, 4, 0, 4214.872, 4185.641, 4040.513, 4175.897, 4175.385, 16134, 0, []
1630343821.2639, 5, 0, 4228.205, 4215.897, 4101.026, 4181.538, 4191.282, 450, 0, []
1630343821.2719, 6, 0, 4227.692, 4233.846, 4179.487, 4193.846, 4189.231, 16225, 0, []
1630343821.2798, 7, 0, 4227.179, 4261.538, 3971.795, 4188.718, 4190.256, 450, 0, []
1630343821.2877, 8, 0, 4232.308, 4256.41, 4014.872, 4193.846, 4197.436, 450, 0, []
1630343821.2956, 9, 0, 4233.333, 4216.923, 4082.051, 4199.487, 4193.846, 16121, 0, []
1630343821.3036, 10, 0, 4228.718, 4213.846, 4109.744, 4193.846, 4186.154, 450, 0, []
1630343821.3115, 11, 0, 4227.692, 4241.538, 4172.308, 4189.231, 4183.077, 16204, 0, []
1630343821.3195, 12, 0, 4235.385, 4256.41, 3967.692, 4183.59, 4185.641, 450, 0, []
1630343821.3273, 13, 0, 4249.231, 4271.282, 4023.077, 4188.718, 4205.128, 450, 0, []
1630343821.3353, 14, 0, 4256.41, 4279.487, 4138.462, 4194.359, 4227.179, 450, 0, []
1630343821.3432, 15, 0, 4262.564, 4243.077, 4129.231, 4198.462, 4242.564, 16204, 0, []
1630343821.351, 16, 0, 4290.256, 4204.615, 4150.256, 4206.154, 4268.718, 0, 0, []
1630343821.3589, 17, 0, 4335.385, 4228.205, 3953.333, 4199.487, 4308.718, 0, 0, []
1630343821.3666, 18, 0, 4379.487, 4281.538, 4024.103, 4202.564, 4362.051, 0, 0, []
1630343821.3745, 19, 0, 4413.846, 4294.359, 4153.846, 4212.821, 4404.103, 0, 0, []
1630343821.3823, 20, 0, 4430.256, 4264.615, 4105.128, 4209.744, 4412.821, 0, 0, []
1630343821.3902, 21, 0, 4429.744, 4239.487, 4131.795, 4212.821, 4400, 0, 0, []
1630343821.398, 22, 0, 4414.872, 4230.256, 3960.513, 4201.026, 4375.385, 0, 0, []
1630343821.4058, 23, 0, 4395.385, 4233.333, 4035.385, 4187.179, 4348.205, 0, 0, []
1630343821.4136, 24, 0, 4387.179, 4251.282, 4194.872, 4194.359, 4344.103, 0, 0, []
1630343821.4215, 25, 0, 4385.641, 4246.667, 4090.256, 4203.077, 4346.154, 0, 0, []
1630343821.4293, 26, 0, 4365.128, 4221.026, 4075.385, 4201.538, 4321.026, 0, 0, []
1630343821.4373, 27, 0, 4334.359, 4225.641, 3972.821, 4187.179, 4299.487, 0, 0, []
1630343821.4451, 28, 0, 4331.282, 4243.59, 4084.615, 4192.821, 4306.154, 0, 0, []
1630343821.4531, 29, 0, 4343.077, 4242.564, 4220.513, 4213.333, 4310.256, 0, 0, []
1630343821.461, 30, 0, 4332.821, 4234.359, 4056.923, 4211.795, 4297.436, 0, 0, []
1630343821.469, 31, 0, 4314.359, 4233.846, 4063.077, 4207.692, 4284.615, 0, 0, []
1630343821.4769, 32, 0, 4308.205, 4235.897, 4007.179, 4196.923, 4269.231, 0, 0, []
1630343821.4849, 33, 0, 4294.359, 4214.359, 4075.385, 4181.538, 4254.872, 0, 0, []
1630343821.4927, 34, 0, 4277.949, 4180.513, 4199.487, 4182.564, 4261.026, 0, 0, []
1630343821.5005, 35, 0, 4282.051, 4188.205, 4023.59, 4186.667, 4269.744, 0, 0, []
1630343821.5085, 36, 0, 4290.256, 4232.308, 4042.051, 4192.821, 4265.128, 0, 0, []
1630343821.5164, 37, 0, 4281.026, 4241.538, 4057.949, 4192.821, 4265.641, 0, 0, []
1630343821.5243, 38, 0, 4270.769, 4232.821, 4111.282, 4200.513, 4265.128, 0, 0, []
1630343821.532, 39, 0, 4269.744, 4256.923, 4182.051, 4210.256, 4251.282, 0, 0, []
1630343821.5399, 40, 0, 4260.513, 4275.385, 3974.872, 4188.205, 4239.487, 0, 0, []
1630343821.5477, 41, 0, 4254.872, 4265.641, 4024.615, 4181.026, 4233.846, 0, 0, []
1630343821.5556, 42, 0, 4257.949, 4258.462, 4093.846, 4196.41, 4223.59, 0, 0, []
1630343821.5634, 43, 0, 4245.641, 4257.436, 4104.615, 4201.026, 4207.179, 0, 0, []
1630343821.5713, 44, 0, 4234.872, 4250.769, 4154.872, 4206.154, 4199.487, 0, 0, []
1630343821.5792, 45, 0, 4245.641, 4242.564, 3955.897, 4202.051, 4206.667, 0, 0, []
1630343821.5872, 46, 0, 4252.308, 4244.103, 4022.051, 4183.59, 4202.564, 0, 0, []
1630343821.5951, 47, 0, 4241.538, 4248.718, 4136.923, 4162.051, 4188.205, 0, 0, []
1630343821.6031, 48, 0, 4238.462, 4261.026, 4126.154, 4166.154, 4196.923, 0, 0, []
1630343821.6109, 49, 0, 4245.641, 4266.667, 4149.744, 4191.795, 4217.436, 0, 0, []
1630343821.6189, 50, 0, 4245.128, 4225.128, 3948.205, 4192.821, 4218.462, 0, 0, []
1630343821.6268, 51, 0, 4235.385, 4193.333, 4027.692, 4194.359, 4206.667, 0, 0, []
1630343821.6348, 52, 0, 4221.538, 4249.744, 4167.179, 4196.41, 4204.103, 0, 0, []
1630343821.6428, 53, 0, 4229.231, 4303.077, 4102.564, 4176.41, 4210.256, 0, 0, []
1630343821.6506, 54, 0, 4254.359, 4261.538, 4123.59, 4167.692, 4211.795, 0, 0, []
1630343821.6586, 55, 0, 4254.872, 4200.513, 3968.205, 4163.59, 4203.077, 0, 0, []
1630343821.6665, 56, 0, 4246.667, 4196.41, 4044.615, 4150.769, 4197.436, 0, 0, []
1630343821.6745, 57, 0, 4247.692, 4209.231, 4195.385, 4133.846, 4192.821, 0, 0, []
1630343821.6825, 58, 0, 4237.949, 4222.051, 4089.744, 4130.769, 4178.462, 0, 0, []
1630343821.6903, 59, 0, 4234.872, 4249.231, 4081.538, 4151.282, 4180.513, 0, 0, []
1630343821.6982, 60, 0, 4248.718, 4258.462, 3970.256, 4155.385, 4195.897, 0, 0, []
1630343821.7062, 61, 0, 4250.256, 4246.667, 4064.615, 4151.795, 4201.026, 0, 0, []
1630343821.7141, 62, 0, 4249.231, 4243.59, 4208.718, 4156.923, 4214.872, 0, 0, []
1630343821.7221, 63, 0, 4258.462, 4246.154, 4049.744, 4149.231, 4224.615, 0, 0, []
1630343821.73, 64, 0, 4254.872, 4236.923, 4052.308, 4140.513, 4210.256, 450, 0, []
1630343821.7379, 65, 0, 4239.487, 4228.718, 4018.462, 4132.821, 4201.026, 450, 0, []
1630343821.7459, 66, 0, 4231.795, 4237.949, 4101.538, 4133.846, 4195.385, 16195, 0, []
1630343821.7538, 67, 0, 4224.615, 4248.205, 4198.974, 4136.41, 4177.436, 450, 0, []
1630343821.7618, 68, 0, 4212.308, 4228.718, 4008.718, 4129.231, 4169.744, 16140, 0, []
1630343821.7696, 69, 0, 4217.436, 4211.795, 4041.538, 4145.641, 4180.513, 450, 0, []
1630343821.7776, 70, 0, 4238.974, 4244.103, 4053.846, 4169.231, 4189.744, 16228, 0, []
1630343821.7855, 71, 0, 4242.564, 4245.641, 4101.026, 4165.641, 4189.231, 450, 0, []
1630343821.7935, 72, 0, 4224.103, 4168.718, 4189.744, 4142.564, 4180.513, 450, 0, []
1630343821.8014, 73, 0, 4212.308, 4131.282, 3990.256, 4121.026, 4165.128, 16131, 0, []
1630343821.8093, 74, 0, 4215.385, 4162.564, 4028.205, 4126.667, 4165.641, 450, 0, []
1630343821.8172, 75, 0, 4217.436, 4142.051, 4102.051, 4133.333, 4188.718, 16193, 0, []
1630343821.8252, 76, 0, 4213.846, 4092.308, 4126.154, 4135.385, 4200, 450, 0, []
1630343821.8331, 77, 0, 4207.179, 4113.846, 4166.667, 4151.795, 4191.282, 450, 0, []
1630343821.8411, 78, 0, 4191.282, 4161.538, 3945.128, 4151.282, 4181.026, 450, 0, []
1630343821.8489, 79, 0, 4187.179, 4154.359, 4012.821, 4143.077, 4176.41, 16193, 0, []
1630343821.8569, 80, 0, 4203.59, 4107.692, 4144.103, 4136.41, 4170.769, 450, 0, []
1630343821.8648, 81, 0, 4208.718, 4100.513, 4118.974, 4126.667, 4162.564, 450, 0, []
1630343821.8728, 82, 0, 4191.282, 4111.795, 4131.282, 4122.564, 4150.256, 450, 0, []
1630343821.8807, 83, 0, 4179.487, 4083.077, 3945.128, 4111.795, 4132.308, 16193, 0, []
1630343821.8887, 84, 0, 4180, 4073.846, 4031.282, 4119.487, 4132.821, 450, 0, []
1630343821.8966, 85, 0, 4176.41, 4106.667, 4166.154, 4131.282, 4149.231, 450, 0, []
1630343821.9045, 86, 0, 4171.795, 4107.179, 4096.923, 4118.462, 4148.718, 450, 0, []
1630343821.9125, 87, 0, 4174.359, 4088.718, 4117.436, 4118.974, 4135.897, 16193, 0, []
1630343821.9204, 88, 0, 4183.077, 4113.846, 3972.821, 4129.744, 4138.462, 450, 0, []
1630343821.9284, 89, 0, 4188.205, 4140.513, 4059.487, 4132.821, 4143.077, 450, 0, []
1630343821.9362, 90, 0, 4182.051, 4143.59, 4205.641, 4132.308, 4130.769, 450, 0, []
1630343821.9442, 91, 0, 4171.282, 4143.077, 4094.359, 4129.744, 4122.051, 16193, 0, []
1630343821.9521, 92, 0, 4160, 4112.308, 4092.821, 4127.179, 4123.59, 450, 0, []
1630343821.9601, 93, 0, 4149.231, 4075.897, 3979.487, 4119.487, 4125.128, 450, 0, []
1630343821.968, 94, 0, 4147.692, 4076.41, 4061.026, 4121.026, 4117.436, 450, 0, []
1630343821.9759, 95, 0, 4155.385, 4095.385, 4199.487, 4118.462, 4108.205, 16193, 0, []
1630343821.9838, 96, 0, 4163.077, 4093.333, 4043.077, 4110.769, 4109.744, 450, 0, []
1630343821.9918, 97, 0, 4162.051, 4065.641, 4044.615, 4117.949, 4109.231, 450, 0, []
1630343821.9997, 98, 0, 4157.436, 4064.615, 4002.564, 4114.359, 4113.333, 450, 0, []
1630343822.0077, 99, 0, 4160, 4108.205, 4083.077, 4122.051, 4129.231, 16193, 0, []
1630343822.0155, 100, 0, 4166.667, 4139.487, 4194.872, 4151.282, 4138.462, 450, 0, []
1630343822.0235, 101, 0, 4166.667, 4118.974, 4007.692, 4142.564, 4132.821, 450, 0, []
1630343822.0314, 102, 0, 4170.769, 4110.769, 4034.872, 4127.179, 4129.744, 450, 0, []
1630343822.0393, 103, 0, 4178.974, 4123.077, 4050.769, 4135.897, 4128.205, 16193, 0, []
1630343822.0473, 104, 0, 4180, 4114.359, 4098.974, 4136.923, 4128.718, 450, 0, []
1630343822.0552, 105, 0, 4186.154, 4119.487, 4187.692, 4131.282, 4140.513, 450, 0, []
1630343822.0631, 106, 0, 4184.615, 4133.333, 3982.564, 4126.154, 4141.026, 450, 0, []
1630343822.071, 107, 0, 4175.897, 4133.333, 4018.974, 4137.949, 4133.846, 16193, 0, []
1630343822.079, 108, 0, 4188.718, 4134.872, 4099.487, 4151.795, 4147.692, 450, 0, []
1630343822.0869, 109, 0, 4196.41, 4125.128, 4127.692, 4157.436, 4153.333, 450, 0, []
1630343822.0948, 110, 0, 4178.462, 4096.923, 4170.256, 4157.949, 4135.897, 450, 0, []
1630343822.1027, 111, 0, 4170.769, 4096.923, 3949.231, 4144.615, 4129.744, 16193, 0, []
1630343822.1107, 112, 0, 4169.231, 4132.821, 4010.256, 4149.231, 4137.949, 450, 0, []
1630343822.1186, 113, 0, 4141.538, 4147.179, 4130.256, 4157.436, 4131.282, 450, 0, []
1630343822.1266, 114, 0, 4128.205, 4131.795, 4102.564, 4149.744, 4120, 450, 0, []
1630343822.1344, 115, 0, 4150.256, 4128.205, 4134.359, 4149.744, 4124.615, 16193, 0, []
1630343822.1424, 116, 0, 4156.923, 4150.256, 3960, 4147.692, 4124.103, 450, 0, []
1630343822.1503, 117, 0, 4145.128, 4169.744, 4034.359, 4143.59, 4112.308, 450, 0, []
1630343822.1583, 118, 0, 4144.103, 4168.718, 4165.128, 4131.795, 4115.385, 450, 0, []
1630343822.1662, 119, 0, 4141.538, 4163.59, 4100, 4122.564, 4117.949, 16193, 0, []
1630343822.1741, 120, 0, 4142.564, 4161.538, 4117.436, 4142.564, 4111.282, 450, 0, []
1630343822.182, 121, 0, 4157.949, 4148.205, 3966.667, 4158.974, 4115.385, 450, 0, []
1630343822.19, 122, 0, 4166.154, 4145.128, 4047.692, 4159.487, 4131.795, 450, 0, []
1630343822.1979, 123, 0, 4156.41, 4167.179, 4193.333, 4145.128, 4138.462, 16193, 0, []
1630343822.2059, 124, 0, 4145.641, 4183.077, 4075.897, 4124.103, 4129.744, 450, 0, []
1630343822.2138, 125, 0, 4145.641, 4191.795, 4080, 4135.897, 4123.59, 450, 0, []
1630343822.2217, 126, 0, 4153.333, 4213.846, 3985.128, 4148.718, 4122.051, 450, 0, []
1630343822.2297, 127, 0, 4165.128, 4224.103, 4074.872, 4147.692, 4121.026, 16193, 0, []
1630343822.2376, 128, 0, 4175.897, 4207.692, 4209.744, 4154.872, 4127.179, 450, 0, []
1630343822.2456, 0, 0, 4177.436, 4202.051, 4039.487, 4159.487, 4143.59, 450, 0, []
1630343822.2535, 1, 0, 4176.923, 4207.179, 4042.564, 4165.641, 4157.949, 450, 0, []
1630343822.2614, 2, 0, 4166.154, 4208.205, 4013.333, 4163.59, 4146.667, 16200, 0, []
1630343822.2693, 3, 0, 4148.718, 4229.231, 4090.256, 4158.974, 4118.974, 450, 0, []
1630343822.2773, 4, 0, 4143.077, 4230.769, 4190.256, 4163.077, 4110.769, 16131, 0, []
1630343822.2852, 5, 0, 4150.256, 4183.077, 4002.051, 4165.641, 4127.692, 450, 0, []
1630343822.2932, 6, 0, 4156.923, 4160, 4049.744, 4176.923, 4145.641, 16217, 0, []
1630343822.3011, 7, 0, 4156.41, 4187.179, 4083.59, 4178.974, 4148.718, 450, 0, []
1630343822.309, 8, 0, 4161.538, 4215.897, 4119.487, 4170.256, 4140.513, 450, 0, []
1630343822.3169, 9, 0, 4169.744, 4234.872, 4185.128, 4167.692, 4133.333, 16128, 0, []
1630343822.3249, 10, 0, 4166.667, 4261.538, 3987.179, 4164.103, 4131.282, 450, 0, []
1630343822.3328, 11, 0, 4173.846, 4272.821, 4038.974, 4160, 4139.487, 16197, 0, []
1630343822.3407, 12, 0, 4192.821, 4254.359, 4103.077, 4142.051, 4156.923, 450, 0, []
1630343822.3487, 13, 0, 4202.051, 4239.487, 4107.179, 4137.949, 4171.282, 450, 0, []
1630343822.3566, 14, 0, 4195.385, 4226.154, 4163.077, 4162.051, 4170.769, 450, 0, []
1630343822.3646, 15, 0, 4194.359, 4220, 3958.462, 4168.205, 4165.641, 16197, 0, []
1630343822.3725, 16, 0, 4211.282, 4253.846, 4014.359, 4168.205, 4172.821, 0, 0, []
1630343822.3804, 17, 0, 4225.128, 4293.333, 4144.103, 4165.128, 4175.897, 0, 0, []
1630343822.3883, 18, 0, 4215.897, 4284.103, 4124.615, 4148.205, 4165.128, 0, 0, []
1630343822.3963, 19, 0, 4200.513, 4271.282, 4128.205, 4144.103, 4162.051, 0, 0, []
1630343822.4042, 20, 0, 4196.41, 4276.923, 3946.154, 4145.641, 4177.436, 0, 0, []
1630343822.4122, 21, 0, 4194.359, 4248.718, 4051.795, 4155.897, 4181.026, 0, 0, []
1630343822.42, 22, 0, 4185.641, 4230.769, 4187.179, 4166.154, 4162.051, 0, 0, []
1630343822.428, 23, 0, 4184.615, 4246.154, 4100.513, 4162.564, 4152.308, 0, 0, []
1630343822.4359, 24, 0, 4188.718, 4235.897, 4115.897, 4158.462, 4151.795, 0, 0, []
1630343822.4439, 25, 0, 4179.487, 4217.436, 3966.154, 4149.231, 4135.385, 0, 0, []
1630343822.4518, 26, 0, 4157.949, 4226.667, 4033.333, 4148.718, 4118.462, 0, 0, []
1630343822.4597, 27, 0, 4146.667, 4242.564, 4172.821, 4154.872, 4127.692, 0, 0, []
1630343822.4677, 28, 0, 4158.462, 4251.282, 4067.179, 4162.564, 4149.744, 0, 0, []
1630343822.4756, 29, 0, 4181.538, 4253.333, 4085.128, 4187.179, 4159.487, 0, 0, []
1630343822.4835, 30, 0, 4196.923, 4237.436, 3988.718, 4186.667, 4155.385, 0, 0, []
1630343822.4913, 31, 0, 4199.487, 4208.718, 4063.077, 4154.359, 4151.282, 0, 0, []
1630343822.4992, 32, 0, 4197.949, 4192.821, 4193.333, 4137.436, 4158.462, 0, 0, []
1630343822.5072, 33, 0, 4190.256, 4209.231, 4032.308, 4134.872, 4162.564, 0, 0, []
1630343822.5151, 34, 0, 4182.564, 4228.718, 4044.103, 4139.487, 4157.949, 0, 0, []
1630343822.5231, 35, 0, 4188.205, 4213.333, 4020, 4151.795, 4162.564, 0, 0, []
1630343822.531, 36, 0, 4202.051, 4213.333, 4097.949, 4166.154, 4167.692, 0, 0, []
1630343822.5389, 37, 0, 4214.359, 4254.359, 4206.154, 4168.718, 4166.154, 0, 0, []
1630343822.5468, 38, 0, 4214.872, 4278.462, 4022.564, 4161.026, 4167.179, 0, 0, []
1630343822.5548, 39, 0, 4205.128, 4262.051, 4045.128, 4158.462, 4164.615, 0, 0, []
1630343822.5627, 40, 0, 4195.897, 4240.513, 4057.436, 4141.026, 4169.744, 0, 0, []
1630343822.5707, 41, 0, 4200.513, 4251.282, 4106.154, 4144.103, 4184.615, 0, 0, []
1630343822.5785, 42, 0, 4211.282, 4267.179, 4185.641, 4178.974, 4186.667, 0, 0, []
1630343822.5865, 43, 0, 4215.385, 4254.359, 3978.462, 4175.897, 4178.462, 0, 0, []
1630343822.5944, 44, 0, 4217.436, 4251.282, 4032.308, 4153.333, 4172.821, 0, 0, []
1630343822.6024, 45, 0, 4214.872, 4280.513, 4116.41, 4149.744, 4161.026, 0, 0, []
1630343822.6103, 46, 0, 4201.538, 4298.974, 4125.641, 4151.795, 4153.333, 0, 0, []
1630343822.6183, 47, 0, 4186.154, 4283.59, 4168.718, 4146.667, 4159.487, 0, 0, []
1630343822.6261, 48, 0, 4186.154, 4272.308, 3958.462, 4136.41, 4166.667, 0, 0, []
1630343822.6341, 49, 0, 4205.641, 4287.179, 4024.103, 4155.385, 4177.436, 0, 0, []
1630343822.642, 50, 0, 4227.692, 4301.026, 4151.282, 4179.487, 4190.256, 0, 0, []
1630343822.65, 51, 0, 4240.513, 4295.385, 4125.641, 4182.051, 4200.513, 0, 0, []
1630343822.658, 52, 0, 4243.59, 4286.154, 4147.179, 4190.256, 4205.128, 0, 0, []
1630343822.6658, 53, 0, 4231.282, 4281.538, 3961.538, 4181.538, 4181.538, 0, 0, []
1630343822.6738, 54, 0, 4218.974, 4265.128, 4037.436, 4167.692, 4159.487, 0, 0, []
1630343822.6817, 55, 0, 4221.026, 4253.333, 4173.846, 4168.718, 4175.897, 0, 0, []
1630343822.6897, 56, 0, 4221.026, 4261.538, 4099.487, 4166.154, 4184.615, 0, 0, []
1630343822.6976, 57, 0, 4217.436, 4278.462, 4118.462, 4184.103, 4171.282, 0, 0, []
1630343822.7055, 58, 0, 4217.436, 4271.795, 3974.359, 4195.385, 4167.179, 0, 0, []
1630343822.7134, 59, 0, 4221.026, 4246.667, 4052.821, 4179.487, 4167.692, 0, 0, []
1630343822.7214, 60, 0, 4233.333, 4246.154, 4205.641, 4174.359, 4175.897, 0, 0, []
1630343822.7293, 61, 0, 4241.026, 4265.641, 4091.282, 4189.231, 4185.641, 0, 0, []
1630343822.7373, 62, 0, 4224.615, 4273.846, 4083.59, 4185.641, 4172.821, 0, 0, []
1630343822.7451, 63, 0, 4208.718, 4262.564, 3984.615, 4160.513, 4167.692, 0, 0, []
1630343822.7531, 64, 0, 4227.179, 4256.41, 4076.923, 4177.436, 4192.308, 450, 0, []
1630343822.761, 65, 0, 4248.718, 4271.795, 4214.872, 4204.103, 4203.077, 450, 0, []
1630343822.769, 66, 0, 4249.231, 4282.051, 4048.718, 4195.897, 4196.41, 16185, 0, []
1630343822.7769, 67, 0, 4255.385, 4270.256, 4055.897, 4202.564, 4201.538, 450, 0, []
1630343822.7848, 68, 0, 4270.769, 4253.846, 4021.538, 4210.769, 4207.179, 16125, 0, []
1630343822.7927, 69, 0, 4262.051, 4233.846, 4088.205, 4193.333, 4202.564, 450, 0, []
1630343822.8007, 70, 0, 4237.949, 4210.256, 4192.821, 4175.385, 4200.513, 16214, 0, []
1630343822.8087, 71, 0, 4226.667, 4210.769, 4002.564, 4170.769, 4197.436, 450, 0, []
1630343822.8166, 72, 0, 4218.462, 4216.923, 4037.949, 4182.051, 4192.821, 450, 0, []
1630343822.8245, 73, 0, 4220, 4186.667, 4071.282, 4183.077, 4204.615, 16127, 0, []
1630343822.8324, 74, 0, 4248.718, 4150.769, 4115.385, 4181.026, 4224.103, 450, 0, []
1630343822.8404, 75, 0, 4278.462, 4152.821, 4193.846, 4194.359, 4242.564, 16202, 0, []
1630343822.8483, 76, 0, 4281.026, 4153.333, 3991.795, 4188.205, 4252.308, 450, 0, []
1630343822.8563, 77, 0, 4293.846, 4152.308, 4037.949, 4173.333, 4253.333, 450, 0, []
1630343822.8642, 78, 0, 4343.077, 4178.462, 4117.949, 4178.974, 4280, 450, 0, []
1630343822.8721, 79, 0, 4369.231, 4161.538, 4129.231, 4198.974, 4320, 16202, 0, []
1630343822.88, 80, 0, 4354.359, 4100, 4174.359, 4209.744, 4325.128, 450, 0, []
1630343822.888, 81, 0, 4341.538, 4090.256, 3969.744, 4197.949, 4310.769, 450, 0, []
1630343822.8959, 82, 0, 4340, 4094.359, 4039.487, 4201.026, 4311.795, 450, 0, []
1630343822.9039, 83, 0, 4320.513, 4065.641, 4163.59, 4204.615, 4300, 16202, 0, []
1630343822.9117, 84, 0, 4307.692, 4074.872, 4124.615, 4189.231, 4281.538, 450, 0, []
1630343822.9197, 85, 0, 4313.846, 4094.872, 4131.795, 4177.949, 4279.487, 450, 0, []
1630343822.9276, 86, 0, 4298.462, 4080.513, 3938.462, 4163.077, 4272.308, 450, 0, []
1630343822.9356, 87, 0, 4270.769, 4090.256, 4017.436, 4165.641, 4257.949, 16202, 0, []
1630343822.9435, 88, 0, 4259.487, 4102.051, 4166.154, 4178.462, 4254.359, 450, 0, []
1630343822.9514, 89, 0, 4263.077, 4083.59, 4102.051, 4175.897, 4255.385, 450, 0, []
1630343822.9593, 90, 0, 4265.641, 4083.59, 4123.59, 4183.59, 4250.256, 450, 0, []
1630343822.9673, 91, 0, 4253.333, 4101.538, 3978.974, 4184.103, 4235.385, 16202, 0, []
1630343822.9753, 92, 0, 4234.872, 4105.128, 4053.846, 4174.359, 4213.846, 450, 0, []
1630343822.9832, 93, 1, 4230.962, 4101.282, 4053.974, 4173.59, 4206.474, 450, 0, []
1630343822.991, 94, 1, 4227.051, 4097.436, 4054.103, 4172.821, 4199.103, 450, 0, []
1630343822.9989, 95, 1, 4223.141, 4093.59, 4054.231, 4172.051, 4191.731, 450, 0, []
1630343823.0068, 96, 1, 4219.231, 4089.744, 4054.359, 4171.282, 4184.359, 450, 0, []
1630343823.0147, 97, 1, 4215.321, 4085.897, 4054.487, 4170.513, 4176.987, 450, 0, []
1630343823.0226, 98, 1, 4211.41, 4082.051, 4054.615, 4169.744, 4169.615, 450, 0, []
1630343823.0304, 99, 1, 4207.5, 4078.205, 4054.744, 4168.974, 4162.244, 450, 0, []
1630343823.0383, 100, 0, 4203.59, 4074.359, 4054.872, 4168.205, 4154.872, 450, 0, []
1630343823.0461, 101, 0, 4195.897, 4080.513, 4027.179, 4153.333, 4135.897, 450, 0, []
1630343823.0539, 102, 0, 4180, 4087.179, 4092.821, 4143.59, 4134.872, 450, 0, []
1630343823.0618, 103, 0, 4162.564, 4106.154, 4188.205, 4145.128, 4140, 16202, 0, []
1630343823.0696, 104, 0, 4160.513, 4120.513, 4001.026, 4143.59, 4132.821, 450, 0, []
1630343823.0775, 105, 0, 4169.744, 4106.667, 4045.128, 4155.385, 4124.615, 450, 0, []
1630343823.0854, 106, 0, 4172.821, 4095.385, 4069.744, 4155.385, 4123.077, 450, 0, []
1630343823.0932, 107, 0, 4166.154, 4088.205, 4098.974, 4135.385, 4118.462, 16202, 0, []
1630343823.101, 108, 0, 4154.872, 4067.179, 4181.026, 4129.744, 4111.282, 450, 0, []
1630343823.1088, 109, 0, 4146.667, 4080, 3982.051, 4135.385, 4111.795, 450, 0, []
1630343823.1166, 110, 0, 4151.282, 4116.923, 4023.59, 4151.795, 4118.462, 450, 0, []
1630343823.1245, 111, 0, 4164.615, 4119.487, 4112.821, 4155.385, 4120, 16202, 0, []
1630343823.1323, 112, 0, 4172.308, 4131.795, 4128.205, 4144.615, 4118.462, 450, 0, []
1630343823.1402, 113, 0, 4174.872, 4157.949, 4166.667, 4146.667, 4124.103, 450, 0, []
1630343823.148, 114, 0, 4176.923, 4125.641, 3957.436, 4145.641, 4122.564, 450, 0, []
1630343823.1558, 115, 0, 4172.308, 4091.795, 4023.59, 4142.051, 4117.436, 16202, 0, []
1630343823.1636, 116, 0, 4163.59, 4111.282, 4146.154, 4144.615, 4131.282, 450, 0, []
1630343823.1714, 117, 0, 4166.154, 4102.564, 4114.872, 4157.949, 4144.103, 450, 0, []
1630343823.1793, 118, 0, 4180, 4045.641, 4144.103, 4176.41, 4138.462, 450, 0, []
1630343823.1871, 119, 0, 4182.564, 4020, 3959.487, 4170.769, 4132.821, 16202, 0, []
1630343823.1949, 120, 0, 4174.872, 4048.205, 4029.231, 4165.128, 4132.821, 450, 0, []
1630343823.2027, 121, 0, 4177.949, 4075.897, 4175.385, 4171.795, 4131.795, 450, 0, []
1630343823.2106, 122, 0, 4177.949, 4091.795, 4101.026, 4166.667, 4127.179, 450, 0, []
1630343823.2184, 123, 0, 4170.769, 4116.923, 4105.641, 4171.795, 4129.231, 16202, 0, []
1630343823.2263, 124, 0, 4171.795, 4126.154, 3966.154, 4184.103, 4138.462, 450, 0, []
1630343823.234, 125, 0, 4178.974, 4113.333, 4063.077, 4189.744, 4135.385, 450, 0, []
1630343823.2419, 126, 0, 4177.436, 4111.795, 4206.154, 4175.385, 4121.538, 450, 0, []
1630343823.2497, 127, 0, 4183.59, 4126.667, 4077.436, 4160.513, 4127.692, 16202, 0, []
1630343823.2576, 128, 0, 4193.333, 4124.615, 4083.59, 4172.308, 4148.205, 450, 0, []
1630343823.2654, 0, 0, 4171.795, 4091.795, 3987.179, 4164.103, 4143.077, 450, 0, []
1630343823.2732, 1, 0, 4163.077, 4065.128, 4064.615, 4154.872, 4132.308, 450, 0, []
1630343823.281, 2, 0, 4194.872, 4073.846, 4206.154, 4182.051, 4148.718, 16187, 0, []
1630343823.2889, 3, 0, 4205.128, 4087.692, 4047.692, 4199.487, 4156.923, 450, 0, []
1630343823.2967, 4, 0, 4188.205, 4093.333, 4050.256, 4194.872, 4138.974, 16125, 0, []
1630343823.3046, 5, 0, 4189.231, 4118.462, 4017.436, 4188.205, 4136.41, 450, 0, []
1630343823.3123, 6, 0, 4207.692, 4124.103, 4094.872, 4195.385, 4163.59, 16208, 0, []
1630343823.3202, 7, 0, 4209.744, 4096.923, 4201.026, 4196.923, 4178.462, 450, 0, []
1630343823.328, 8, 0, 4198.974, 4097.949, 3995.385, 4188.205, 4169.231, 450, 0, []
1630343823.3358, 9, 0, 4202.051, 4117.949, 4022.564, 4198.462, 4164.103, 16125, 0, []
1630343823.3437, 10, 0, 4222.051, 4118.974, 4068.718, 4197.949, 4169.744, 450, 0, []
1630343823.3514, 11, 0, 4223.59, 4098.974, 4115.385, 4181.026, 4169.231, 16203, 0, []
1630343823.3593, 12, 0, 4203.077, 4067.692, 4187.179, 4177.949, 4161.538, 450, 0, []
1630343823.3671, 13, 0, 4203.59, 4072.821, 3987.692, 4174.872, 4163.59, 450, 0, []
1630343823.375, 14, 0, 4218.462, 4117.949, 4043.077, 4189.231, 4177.949, 450, 0, []
1630343823.3828, 15, 0, 4218.462, 4113.846, 4119.487, 4211.282, 4188.205, 16203, 0, []
1630343823.3906, 16, 0, 4212.308, 4069.744, 4117.949, 4205.128, 4181.026, 0, 0, []
1630343823.3984, 17, 0, 4209.744, 4061.538, 4165.641, 4186.154, 4163.59, 0, 0, []
1630343823.4063, 18, 0, 4216.41, 4079.487, 3963.59, 4180.513, 4156.41, 0, 0, []
1630343823.4141, 19, 0, 4230.256, 4104.103, 4026.667, 4195.897, 4174.872, 0, 0, []
1630343823.422, 20, 0, 4226.154, 4110.769, 4145.128, 4190.769, 4191.795, 0, 0, []
1630343823.4297, 21, 0, 4209.744, 4095.897, 4106.154, 4178.974, 4178.974, 0, 0, []
1630343823.4376, 22, 0, 4216.41, 4115.897, 4141.026, 4206.667, 4167.179, 0, 0, []
1630343823.4454, 23, 0, 4229.231, 4141.026, 3971.282, 4222.051, 4172.821, 0, 0, []
1630343823.4533, 24, 0, 4220.513, 4117.436, 4038.974, 4205.128, 4170.256, 0, 0, []
1630343823.4611, 25, 0, 4215.897, 4101.026, 4173.333, 4192.821, 4164.615, 0, 0, []
1630343823.4689, 26, 0, 4223.077, 4120, 4100, 4195.385, 4172.308, 0, 0, []
1630343823.4767, 27, 0, 4226.154, 4132.308, 4106.154, 4197.949, 4183.077, 0, 0, []
1630343823.4845, 28, 0, 4218.974, 4127.692, 3957.949, 4181.538, 4185.641, 0, 0, []
1630343823.4924, 29, 0, 4216.41, 4110.256, 4056.923, 4183.59, 4183.077, 0, 0, []
1630343823.5002, 30, 0, 4226.154, 4114.359, 4209.744, 4211.795, 4184.615, 0, 0, []
1630343823.5081, 31, 0, 4228.205, 4137.949, 4078.462, 4215.897, 4190.256, 0, 0, []
1630343823.5158, 32, 0, 4227.179, 4109.744, 4077.949, 4205.641, 4187.692, 0, 0, []
1630343823.5237, 33, 0, 4237.949, 4069.744, 3988.718, 4205.128, 4183.077, 0, 0, []
1630343823.5315, 34, 0, 4241.538, 4075.897, 4075.385, 4207.179, 4179.487, 0, 0, []
1630343823.5394, 35, 0, 4223.077, 4081.026, 4203.59, 4195.385, 4174.359, 0, 0, []
1630343823.5472, 36, 0, 4210.769, 4072.308, 4052.308, 4179.487, 4170.256, 0, 0, []
1630343823.555, 37, 0, 4218.462, 4077.436, 4074.872, 4194.872, 4180.513, 0, 0, []
1630343823.5628, 38, 0, 4222.564, 4083.59, 4027.179, 4209.231, 4194.872, 0, 0, []
1630343823.5707, 39, 0, 4225.641, 4111.795, 4098.974, 4211.795, 4189.231, 0, 0, []
1630343823.5785, 40, 0, 4235.897, 4165.641, 4208.718, 4220.513, 4183.077, 0, 0, []
1630343823.5864, 41, 0, 4240.513, 4165.641, 4022.051, 4217.436, 4187.179, 0, 0, []
1630343823.5941, 42, 0, 4237.949, 4133.333, 4070.256, 4212.821, 4182.564, 0, 0, []
1630343823.602, 43, 0, 4228.718, 4140.513, 4080, 4203.077, 4162.564, 0, 0, []
1630343823.6098, 44, 0, 4218.974, 4165.641, 4094.872, 4199.487, 4158.462, 0, 0, []
1630343823.6177, 45, 0, 4216.41, 4154.359, 4180, 4205.128, 4177.949, 0, 0, []
1630343823.6255, 46, 0, 4214.872, 4118.974, 3992.308, 4190.769, 4188.205, 0, 0, []
1630343823.6332, 47, 0, 4215.897, 4133.846, 4045.128, 4191.282, 4178.462, 0, 0, []
1630343823.6411, 48, 0, 4224.103, 4165.641, 4125.641, 4212.821, 4173.333, 0, 0, []
1630343823.6489, 49, 0, 4229.744, 4130.256, 4115.897, 4218.462, 4181.538, 0, 0, []
1630343823.6568, 50, 0, 4225.641, 4087.179, 4164.615, 4210.256, 4177.949, 0, 0, []
1630343823.6646, 51, 0, 4213.333, 4123.077, 3979.487, 4205.128, 4154.872, 0, 0, []
1630343823.6724, 52, 0, 4204.615, 4175.897, 4033.846, 4220, 4154.359, 0, 0, []
1630343823.6802, 53, 0, 4207.692, 4178.462, 4150.769, 4218.974, 4178.974, 0, 0, []
1630343823.6881, 54, 0, 4210.769, 4166.667, 4110.769, 4198.462, 4182.051, 0, 0, []
1630343823.6959, 55, 0, 4207.179, 4162.564, 4131.282, 4209.744, 4173.333, 0, 0, []
1630343823.7038, 56, 0, 4211.282, 4152.821, 3963.077, 4227.692, 4184.103, 0, 0, []
1630343823.7115, 57, 0, 4221.538, 4155.897, 4035.385, 4230.769, 4186.667, 0, 0, []
1630343823.7194, 58, 0, 4220, 4159.487, 4180, 4212.308, 4167.179, 0, 0, []
1630343823.7272, 59, 0, 4213.333, 4149.231, 4108.205, 4188.205, 4160, 0, 0, []
1630343823.7351, 60, 0, 4216.41, 4154.872, 4105.128, 4196.41, 4168.205, 0, 0, []
1630343823.7429, 61, 0, 4216.923, 4152.308, 3950.769, 4192.821, 4175.385, 0, 0, []
1630343823.7507, 62, 0, 4209.231, 4112.308, 4044.103, 4171.282, 4175.385, 0, 0, []
1630343823.7585, 63, 0, 4208.718, 4110.256, 4212.308, 4168.718, 4174.872, 0, 0, []
1630343823.7664, 64, 0, 4221.538, 4144.103, 4086.154, 4170.256, 4178.974, 450, 0, []
1630343823.7742, 65, 0, 4233.846, 4124.103, 4071.282, 4167.692, 4178.974, 450, 0, []
1630343823.782, 66, 0, 4233.846, 4109.744, 3988.205, 4150.256, 4172.308, 16184, 0, []
1630343823.7899, 67, 0, 4232.821, 4161.026, 4089.231, 4142.564, 4178.462, 450, 0, []
1630343823.7976, 68, 0, 4235.385, 4179.487, 4221.026, 4150.256, 4191.795, 16136, 0, []
1630343823.8055, 69, 0, 4228.205, 4136.41, 4040.513, 4143.59, 4186.667, 450, 0, []
1630343823.8133, 70, 0, 4217.436, 4107.179, 4056.923, 4145.128, 4185.128, 16222, 0, []
1630343823.8212, 71, 0, 4207.179, 4107.179, 4046.154, 4160.513, 4188.205, 450, 0, []
1630343823.829, 72, 0, 4189.744, 4108.205, 4102.564, 4160.513, 4163.077, 450, 0, []
1630343823.8368, 73, 0, 4192.308, 4105.641, 4200.513, 4141.538, 4144.103, 16128, 0, []
1630343823.8446, 74, 0, 4207.692, 4100, 4024.615, 4122.564, 4147.692, 450, 0, []
1630343823.8525, 75, 0, 4197.436, 4076.41, 4057.436, 4113.846, 4143.077, 16202, 0, []
1630343823.8603, 76, 0, 4177.436, 4030.256, 4082.051, 4104.103, 4134.359, 450, 0, []
1630343823.8682, 77, 0, 4184.103, 3991.282, 4122.564, 4124.103, 4140.513, 450, 0, []
1630343823.8759, 78, 0, 4192.821, 3992.821, 4194.872, 4156.923, 4140.513, 450, 0, []
1630343823.8838, 79, 0, 4182.051, 4015.897, 3975.385, 4143.077, 4130.256, 16202, 0, []
1630343823.8916, 80, 0, 4182.564, 4015.385, 4020, 4126.154, 4133.333, 450, 0, []
1630343823.8995, 81, 0, 4193.846, 3999.487, 4122.051, 4128.205, 4143.59, 450, 0, []
1630343823.9073, 82, 0, 4188.205, 4011.282, 4131.795, 4124.615, 4140.513, 450, 0, []
1630343823.9151, 83, 0, 4171.282, 4027.692, 4158.974, 4125.128, 4130.256, 16202, 0, []
1630343823.9229, 84, 0, 4164.103, 4007.179, 3944.615, 4124.615, 4127.692, 450, 0, []
1630343823.9308, 85, 0, 4166.667, 3977.436, 4024.615, 4124.615, 4118.974, 450, 0, []
1630343823.9386, 86, 0, 4161.538, 3944.103, 4172.821, 4116.923, 4099.487, 450, 0, []
1630343823.9465, 87, 0, 4145.641, 3916.923, 4135.897, 4100.513, 4090.256, 16202, 0, []
1630343823.9542, 88, 0, 4139.487, 3944.103, 4142.051, 4106.667, 4100.513, 450, 0, []
1630343823.962, 89, 0, 4150.256, 3972.821, 3961.538, 4124.103, 4113.846, 450, 0, []
1630343823.9699, 90, 0, 4163.59, 3955.385, 4046.667, 4140.513, 4116.923, 450, 0, []
1630343823.9777, 91, 0, 4165.641, 3938.974, 4194.872, 4141.026, 4114.872, 16202, 0, []
1630343823.9856, 92, 0, 4154.872, 3934.359, 4114.359, 4123.59, 4116.41, 450, 0, []
1630343823.9933, 93, 0, 4146.154, 3930.256, 4116.923, 4120, 4122.051, 450, 0, []
1630343824.0012, 94, 0, 4145.641, 3923.59, 3971.282, 4121.026, 4123.59, 450, 0, []
1630343824.009, 95, 0, 4155.385, 3896.41, 4067.179, 4128.205, 4117.436, 16202, 0, []
1630343824.0169, 96, 0, 4163.59, 3872.308, 4218.974, 4135.385, 4107.179, 450, 0, []
1630343824.0247, 97, 0, 4158.974, 3888.718, 4073.846, 4131.282, 4108.205, 450, 0, []
1630343824.0325, 98, 0, 4154.872, 3901.538, 4080, 4138.462, 4124.615, 450, 0, []
1630343824.0403, 99, 0, 4163.077, 3890.256, 4012.308, 4139.487, 4135.385, 16202, 0, []
1630343824.0482, 100, 0, 4185.641, 3890.256, 4089.744, 4135.897, 4143.077, 450, 0, []
1630343824.056, 101, 0, 4202.051, 3893.333, 4213.333, 4138.974, 4157.949, 450, 0, []
1630343824.0639, 102, 0, 4202.051, 3910.769, 4046.667, 4133.846, 4166.154, 450, 0, []
1630343824.0718, 103, 0, 4200, 3969.231, 4057.436, 4144.615, 4168.718, 16202, 0, []
1630343824.0795, 104, 0, 4207.179, 4022.564, 4039.487, 4165.641, 4174.872, 450, 0, []
1630343824.0873, 105, 0, 4206.154, 4021.026, 4110.256, 4172.308, 4166.667, 450, 0, []
1630343824.0952, 106, 0, 4193.333, 3985.641, 4202.564, 4163.59, 4149.744, 450, 0, []
1630343824.103, 107, 0, 4193.846, 3940, 4000, 4149.744, 4152.821, 16202, 0, []
1630343824.1108, 108, 0, 4204.615, 3906.667, 4037.949, 4156.41, 4169.231, 450, 0, []
1630343824.1186, 109, 0, 4200.513, 3913.846, 4083.077, 4161.538, 4172.308, 450, 0, []
1630343824.1264, 110, 0, 4197.949, 3943.59, 4122.564, 4160, 4164.615, 450, 0, []
1630343824.1343, 111, 0, 4205.128, 3974.872, 4189.744, 4157.436, 4154.872, 16202, 0, []
1630343824.1421, 112, 0, 4196.41, 3986.667, 3988.718, 4142.564, 4136.923, 450, 0, []
1630343824.15, 113, 0, 4182.051, 3994.872, 4049.744, 4151.795, 4131.795, 450, 0, []
1630343824.1577, 114, 0, 4185.128, 4022.051, 4130.769, 4160.513, 4154.359, 450, 0, []
1630343824.1656, 115, 0, 4183.59, 4021.538, 4114.872, 4142.564, 4157.436, 16202, 0, []
1630343824.1734, 116, 0, 4167.179, 4014.359, 4156.41, 4133.846, 4130.256, 450, 0, []
1630343824.1813, 117, 0, 4166.154, 4032.308, 3956.923, 4129.744, 4117.436, 450, 0, []
1630343824.1891, 118, 0, 4186.154, 4024.103, 4021.538, 4137.436, 4136.923, 450, 0, []
1630343824.1969, 119, 0, 4193.333, 4008.205, 4156.923, 4156.41, 4153.333, 16202, 0, []
1630343824.2047, 120, 0, 4184.103, 4036.923, 4127.692, 4165.128, 4151.282, 450, 0, []
1630343824.2126, 121, 0, 4183.59, 4051.282, 4140.513, 4168.205, 4154.872, 450, 0, []
1630343824.2204, 122, 0, 4194.872, 4042.564, 3960, 4169.231, 4158.462, 450, 0, []
1630343824.2283, 123, 0, 4202.564, 4075.897, 4049.231, 4177.949, 4145.641, 16202, 0, []
1630343824.236, 124, 0, 4201.026, 4108.205, 4190.256, 4173.846, 4135.385, 450, 0, []
1630343824.2438, 125, 0, 4193.846, 4092.308, 4102.564, 4154.359, 4136.41, 450, 0, []
1630343824.2517, 126, 0, 4192.308, 4066.154, 4113.333, 4154.872, 4139.487, 450, 0, []
1630343824.2596, 127, 0, 4186.154, 4039.487, 3964.103, 4150.769, 4139.487, 16202, 0, []
1630343824.2674, 128, 0, 4174.872, 4019.487, 4044.615, 4143.077, 4131.282, 450, 0, []
1630343824.2751, 0, 0, 4177.436, 4027.179, 4202.051, 4148.205, 4116.923, 450, 0, []
1630343824.283, 1, 0, 4180.513, 4029.231, 4073.846, 4144.103, 4108.718, 450, 0, []
1630343824.2908, 2, 0, 4172.308, 4010.769, 4065.641, 4137.949, 4106.154, 16171, 0, []
1630343824.2987, 3, 0, 4168.718, 4007.692, 3984.615, 4131.282, 4108.718, 450, 0, []
1630343824.3065, 4, 0, 4175.897, 4023.59, 4079.487, 4142.051, 4117.436, 16149, 0, []
1630343824.3143, 5, 0, 4172.821, 4041.538, 4205.641, 4153.846, 4119.487, 450, 0, []
1630343824.3221, 6, 0, 4153.846, 4045.641, 4040.513, 4132.821, 4104.615, 16212, 0, []
1630343824.33, 7, 0, 4143.59, 4028.718, 4067.692, 4122.564, 4084.103, 450, 0, []
1630343824.3378, 8, 0, 4144.615, 4016.923, 4040.513, 4128.718, 4072.821, 450, 0, []
1630343824.3457, 9, 0, 4138.462, 4037.436, 4094.872, 4136.923, 4070.256, 16127, 0, []
1630343824.3534, 10, 0, 4121.026, 4039.487, 4185.128, 4138.974, 4068.205, 450, 0, []
1630343824.3613, 11, 0, 4118.462, 4036.923, 3983.077, 4129.744, 4067.179, 16192, 0, []
1630343824.3691, 12, 0, 4145.641, 4093.333, 4024.615, 4140.513, 4075.897, 450, 0, []
1630343824.377, 13, 0, 4164.103, 4137.949, 4073.846, 4145.128, 4080, 450, 0, []
1630343824.3848, 14, 0, 4153.333, 4128.718, 4110.769, 4131.795, 4073.333, 450, 0, []
1630343824.3927, 15, 0, 4143.59, 4133.846, 4180.513, 4134.359, 4077.949, 16192, 0, []
1630343824.4004, 16, 0, 4146.154, 4157.949, 3975.897, 4147.179, 4086.154, 0, 0, []
1630343824.4083, 17, 0, 4158.462, 4155.897, 4024.615, 4155.897, 4084.615, 0, 0, []
1630343824.4161, 18, 0, 4175.385, 4151.795, 4116.41, 4153.846, 4083.59, 0, 0, []
1630343824.4239, 19, 0, 4175.897, 4149.744, 4125.128, 4148.205, 4083.077, 0, 0, []
1630343824.4318, 20, 0, 4157.949, 4131.282, 4161.538, 4141.538, 4076.923, 0, 0, []
1630343824.4395, 21, 0, 4144.615, 4101.538, 3949.231, 4121.538, 4070.769, 0, 0, []
1630343824.4474, 22, 0, 4150.256, 4077.436, 4021.538, 4129.744, 4072.308, 0, 0, []
1630343824.4552, 23, 0, 4162.564, 4086.154, 4158.462, 4155.897, 4081.026, 0, 0, []
1630343824.4631, 24, 0, 4171.795, 4095.897, 4116.923, 4159.487, 4091.282, 0, 0, []
1630343824.4709, 25, 0, 4173.846, 4094.872, 4134.872, 4158.974, 4093.333, 0, 0, []
1630343824.4787, 26, 0, 4172.308, 4098.462, 3968.205, 4148.718, 4089.744, 0, 0, []
1630343824.4865, 27, 0, 4162.564, 4104.103, 4052.308, 4140, 4090.256, 0, 0, []
1630343824.4944, 28, 0, 4152.821, 4125.641, 4190.256, 4147.692, 4092.308, 0, 0, []
1630343824.5022, 29, 0, 4157.436, 4132.821, 4103.077, 4155.385, 4089.231, 0, 0, []
1630343824.5101, 30, 0, 4164.103, 4105.128, 4106.154, 4153.333, 4079.487, 0, 0, []
1630343824.5178, 31, 0, 4171.795, 4111.795, 3974.872, 4151.282, 4078.462, 0, 0, []
1630343824.5257, 32, 0, 4187.179, 4166.154, 4083.59, 4170.769, 4100.513, 0, 0, []
1630343824.5335, 33, 0, 4193.333, 4174.872, 4233.333, 4174.872, 4117.949, 0, 0, []
1630343824.5414, 34, 0, 4177.949, 4165.641, 4077.436, 4150.769, 4111.282, 0, 0, []
1630343824.5492, 35, 0, 4168.205, 4192.821, 4073.333, 4150.769, 4101.538, 0, 0, []
1630343824.5569, 36, 0, 4178.462, 4185.641, 4007.179, 4160, 4106.667, 0, 0, []
1630343824.5648, 37, 0, 4186.154, 4180.513, 4093.333, 4165.641, 4108.205, 0, 0, []
1630343824.5726, 38, 0, 4177.436, 4216.923, 4216.923, 4169.231, 4101.026, 0, 0, []
1630343824.5805, 39, 0, 4162.564, 4212.308, 4045.128, 4154.359, 4100, 0, 0, []
1630343824.5883, 40, 0, 4159.487, 4180, 4059.487, 4150.256, 4102.564, 0, 0, []
1630343824.5961, 41, 0, 4165.641, 4189.744, 4044.615, 4157.436, 4100, 0, 0, []
1630343824.6039, 42, 0, 4166.154, 4215.385, 4103.077, 4157.436, 4091.282, 0, 0, []
1630343824.6118, 43, 0, 4163.077, 4223.077, 4193.333, 4160, 4086.154, 0, 0, []
1630343824.6196, 44, 0, 4164.103, 4234.872, 4012.308, 4161.026, 4089.231, 0, 0, []
1630343824.6275, 45, 0, 4161.026, 4229.231, 4055.385, 4161.026, 4092.308, 0, 0, []
1630343824.6352, 46, 0, 4151.795, 4200, 4083.077, 4150.256, 4089.744, 0, 0, []
1630343824.6431, 47, 0, 4154.359, 4200.513, 4119.487, 4147.692, 4081.538, 0, 0, []
1630343824.6509, 48, 0, 4155.385, 4226.667, 4201.538, 4169.744, 4078.462, 0, 0, []
1630343824.6588, 49, 0, 4168.718, 4238.462, 3993.333, 4180.513, 4093.333, 0, 0, []
1630343824.6666, 50, 0, 4197.436, 4237.949, 4031.282, 4192.821, 4118.974, 0, 0, []
1630343824.6744, 51, 0, 4113.846, 4232.821, 4119.487, 4208.205, 4129.744, 0, 0, []
1630343824.6822, 52, 0, 3914.359, 4207.692, 4125.641, 4207.692, 4122.051, 0, 0, []
1630343824.6901, 53, 0, 3783.59, 4172.821, 4172.308, 4201.538, 4113.333, 0, 0, []
1630343824.6979, 54, 0, 3759.487, 4163.59, 3973.333, 4192.308, 4106.667, 0, 0, []
1630343824.7058, 55, 0, 3746.667, 4190.769, 4043.59, 4209.231, 4104.103, 0, 0, []
1630343824.7136, 56, 0, 3744.615, 4229.231, 4174.359, 4228.718, 4113.846, 0, 0, []
1630343824.7213, 57, 0, 3763.59, 4234.872, 4131.282, 4221.026, 4126.154, 0, 0, []
1630343824.7292, 58, 0, 3762.564, 4211.795, 4147.179, 4212.821, 4120.513, 0, 0, []
1630343824.737, 59, 0, 3754.359, 4197.436, 3975.385, 4200.513, 4109.231, 0, 0, []
1630343824.7449, 60, 0, 3768.718, 4191.795, 4062.564, 4205.128, 4114.359, 0, 0, []
1630343824.7527, 61, 0, 3785.641, 4174.872, 4207.179, 4214.872, 4117.949, 0, 0, []
1630343824.7605, 62, 0, 3783.59, 4159.487, 4121.026, 4213.333, 4105.641, 0, 0, []
1630343824.7683, 63, 0, 3785.641, 4170.769, 4129.744, 4224.615, 4102.051, 0, 0, []
1630343824.7762, 64, 0, 3804.615, 4174.359, 3987.692, 4227.692, 4118.974, 450, 0, []
1630343824.784, 65, 0, 3825.641, 4157.436, 4067.179, 4222.564, 4129.744, 450, 0, []
1630343824.7919, 66, 0, 3833.846, 4160.513, 4222.051, 4218.462, 4125.641, 16182, 0, []
1630343824.7996, 67, 0, 3830.769, 4143.077, 4106.154, 4212.821, 4116.923, 450, 0, []
1630343824.8075, 68, 0, 3833.846, 4098.974, 4111.282, 4217.949, 4112.821, 16143, 0, []
1630343824.8153, 69, 0, 3847.692, 4112.308, 4019.487, 4218.462, 4119.487, 450, 0, []
1630343824.8232, 70, 0, 3866.667, 4157.949, 4094.872, 4225.128, 4128.718, 16224, 0, []
1630343824.831, 71, 0, 3879.487, 4138.462, 4224.615, 4239.487, 4126.154, 450, 0, []
1630343824.8388, 72, 0, 3878.974, 4108.205, 4051.795, 4232.308, 4117.949, 450, 0, []
1630343824.8466, 73, 0, 3885.641, 4144.615, 4061.538, 4224.103, 4123.077, 16125, 0, []
1630343824.8545, 74, 0, 3894.359, 4065.128, 4037.949, 4212.821, 4117.436, 450, 0, []
1630343824.8623, 75, 0, 3884.103, 4029.744, 4092.821, 4201.026, 4084.615, 16196, 0, []
1630343824.8702, 76, 0, 3880.513, 4440, 4200.513, 4215.897, 4071.282, 450, 0, []
1630343824.8779, 77, 0, 3889.231, 4937.949, 4020.513, 4224.615, 4083.077, 450, 0, []
1630343824.8857, 78, 0, 3879.487, 5022.051, 4048.718, 4216.923, 4072.821, 450, 0, []
1630343824.8936, 79, 0, 3874.872, 4963.077, 4080, 4210.256, 4052.308, 16196, 0, []
1630343824.9014, 80, 0, 3894.872, 5031.282, 4117.949, 4209.231, 4057.436, 450, 0, []
1630343824.9093, 81, 0, 3902.051, 5039.487, 4190.256, 4204.103, 4068.718, 450, 0, []
1630343824.917, 82, 0, 3891.795, 5012.308, 3976.41, 4184.615, 4057.436, 450, 0, []
1630343824.9249, 83, 0, 3885.128, 5015.385, 4023.59, 4169.231, 4036.41, 16196, 0, []
1630343824.9327, 84, 0, 3879.487, 4924.103, 4122.564, 4166.667, 4025.641, 450, 0, []
1630343824.9406, 85, 0, 3886.667, 4857.436, 4130.256, 4190.256, 4023.59, 450, 0, []
1630343824.9484, 86, 0, 3907.179, 4891.282, 4170.769, 4214.359, 4026.154, 450, 0, []
1630343824.9562, 87, 0, 3906.154, 4891.795, 3957.436, 4197.436, 4030.256, 16196, 0, []
1630343824.964, 88, 0, 3904.103, 4852.821, 4026.154, 4189.744, 4028.718, 450, 0, []
1630343824.9719, 89, 0, 3924.615, 4883.077, 4166.667, 4188.205, 4014.872, 450, 0, []
1630343824.9797, 90, 0, 3929.744, 4947.692, 4114.872, 4160, 4003.077, 450, 0, []
1630343824.9876, 91, 0, 3918.974, 4976.41, 4127.692, 4156.41, 4009.744, 16196, 0, []
1630343824.9953, 92, 0, 3926.667, 4994.359, 3971.282, 4174.872, 4012.308, 450, 0, []
1630343825.0032, 93, 0, 3934.872, 4981.538, 4055.385, 4180, 3998.462, 450, 0, []
1630343825.011, 94, 0, 3932.308, 4925.128, 4187.179, 4179.487, 4004.615, 450, 0, []
1630343825.0188, 95, 0, 3946.154, 4884.615, 4098.974, 4192.308, 4026.667, 16196, 0, []
1630343825.0267, 96, 0, 3953.846, 4885.128, 4106.154, 4196.923, 4017.436, 450, 0, []
1630343825.0345, 97, 0, 3936.923, 4872.308, 3967.692, 4170.769, 3998.462, 450, 0, []
1630343825.0423, 98, 0, 3939.487, 4830.256, 4064.103, 4171.282, 4005.128, 450, 0, []
1630343825.0502, 99, 0, 3960, 4839.487, 4216.923, 4190.256, 4002.564, 16196, 0, []
1630343825.0581, 100, 0, 3960, 4885.641, 4072.821, 4176.41, 3984.103, 450, 0, []
1630343825.066, 101, 0, 3953.846, 4868.205, 4081.026, 4167.692, 3992.821, 450, 0, []
1630343825.0738, 102, 0, 3965.641, 4806.667, 4015.385, 4168.205, 4009.231, 450, 0, []
1630343825.0815, 103, 0, 3980, 4810.256, 4090.256, 4171.282, 4006.667, 16196, 0, []
1630343825.0894, 104, 0, 3978.462, 4874.872, 4210.769, 4176.41, 4006.154, 450, 0, []
1630343825.0972, 105, 0, 3966.154, 4917.436, 4046.667, 4171.795, 4000.513, 450, 0, []
1630343825.1051, 106, 0, 3965.641, 4919.487, 4066.667, 4182.564, 3980.513, 450, 0, []
1630343825.1129, 107, 0, 3982.051, 4897.949, 4048.718, 4189.744, 3970.769, 16196, 0, []
1630343825.1207, 108, 0, 3990.769, 4908.718, 4107.692, 4174.872, 3981.538, 450, 0, []
1630343825.1285, 109, 0, 3988.718, 4942.051, 4196.923, 4161.026, 3993.846, 450, 0, []
1630343825.1364, 110, 0, 3990.256, 4946.667, 3994.872, 4154.872, 3991.282, 450, 0, []
1630343825.1442, 111, 0, 3997.436, 4950.769, 4039.487, 4160.513, 3975.385, 16196, 0, []
1630343825.1521, 112, 0, 4003.077, 4963.59, 4093.333, 4163.077, 3980, 450, 0, []
1630343825.1598, 113, 0, 4009.231, 4970.256, 4123.077, 4171.795, 4000.513, 450, 0, []
1630343825.1676, 114, 0, 4017.949, 4964.103, 4187.692, 4194.872, 3999.487, 450, 0, []
1630343825.1755, 115, 0, 4017.949, 4955.385, 3987.692, 4196.923, 3985.128, 16196, 0, []
1630343825.1833, 116, 0, 4012.308, 4943.077, 4042.564, 4192.308, 3986.154, 450, 0, []
1630343825.1912, 117, 0, 4006.154, 4923.077, 4127.692, 4190.256, 3990.769, 450, 0, []
1630343825.1989, 118, 0, 4007.179, 4908.718, 4120, 4182.051, 3988.205, 450, 0, []
1630343825.2068, 119, 0, 4021.026, 4888.205, 4162.564, 4183.077, 3987.179, 16196, 0, []
1630343825.2146, 120, 0, 4031.282, 4848.718, 3963.077, 4180.513, 3990.256, 450, 0, []
1630343825.2225, 121, 0, 4027.179, 4842.564, 4032.308, 4183.077, 3989.744, 450, 0, []
1630343825.2303, 122, 0, 4016.923, 4888.205, 4168.205, 4189.231, 3980.513, 450, 0, []
1630343825.2381, 123, 0, 4020, 4911.282, 4128.718, 4195.897, 3971.282, 16196, 0, []
1630343825.2459, 124, 0, 4036.41, 4909.744, 4141.026, 4205.641, 3974.872, 450, 0, []
1630343825.2538, 125, 0, 4036.41, 4930.769, 3948.205, 4195.385, 3980.513, 450, 0, []
1630343825.2616, 126, 0, 4034.359, 4932.821, 4024.103, 4191.795, 3985.641, 450, 0, []
1630343825.2695, 127, 0, 4049.744, 4903.59, 4193.333, 4191.795, 3992.821, 16196, 0, []
1630343825.2772, 128, 0, 4056.923, 4908.205, 4118.462, 4176.41, 3980.513, 450, 0, []
1630343825.2851, 0, 0, 4049.744, 4914.359, 4106.667, 4170.256, 3956.923, 450, 0, []
1630343825.2929, 1, 0, 4049.744, 4859.487, 3957.436, 4160.513, 3958.974, 450, 0, []
1630343825.3008, 2, 0, 4061.026, 4823.59, 4058.974, 4159.487, 3974.359, 16173, 0, []
1630343825.3086, 3, 0, 4070.769, 4864.103, 4214.872, 4183.59, 3979.487, 450, 0, []
1630343825.3165, 4, 0, 4076.41, 4875.385, 4062.051, 4203.59, 3981.026, 16136, 0, []
1630343825.3242, 5, 0, 4082.564, 4825.641, 4053.333, 4204.615, 3985.641, 450, 0, []
1630343825.3321, 6, 0, 4085.128, 4816.41, 3984.615, 4182.051, 3988.205, 16219, 0, []
1630343825.3399, 7, 0, 4085.128, 4850.769, 4075.385, 4172.821, 3987.692, 450, 0, []
1630343825.3477, 8, 0, 4082.564, 4847.179, 4202.564, 4178.462, 3984.615, 450, 0, []
1630343825.3556, 9, 0, 4081.538, 4833.846, 4031.282, 4169.744, 3976.923, 16129, 0, []
1630343825.3633, 10, 0, 4082.564, 4839.487, 4049.744, 4168.205, 3975.897, 450, 0, []
1630343825.3712, 11, 0, 4078.462, 4802.051, 4035.897, 4165.641, 3982.051, 16182, 0, []
1630343825.379, 12, 0, 4071.795, 4751.795, 4103.59, 4161.538, 3977.949, 450, 0, []
1630343825.3869, 13, 0, 4067.692, 4754.872, 4196.41, 4168.718, 3965.641, 450, 0, []
1630343825.3947, 14, 0, 4064.615, 4771.795, 3988.718, 4164.103, 3952.821, 450, 0, []
1630343825.4025, 15, 0, 4066.667, 4771.795, 4029.744, 4156.923, 3956.923, 16182, 0, []
1630343825.4103, 16, 0, 4077.949, 4761.026, 4082.564, 4156.923, 3982.051, 0, 0, []
1630343825.4182, 17, 0, 4090.769, 4721.538, 4114.872, 4165.128, 3995.897, 0, 0, []
1630343825.426, 18, 0, 4100, 4706.154, 4190.769, 4178.462, 3989.231, 0, 0, []
1630343825.4339, 19, 0, 4104.615, 4754.359, 3983.077, 4176.923, 3983.077, 0, 0, []
1630343825.4416, 20, 0, 4104.615, 4736.923, 4020.513, 4180, 3991.282, 0, 0, []
1630343825.4495, 21, 0, 4105.641, 4664.103, 4120.513, 4186.667, 4004.103, 0, 0, []
1630343825.4573, 22, 0, 4107.692, 4691.282, 4132.308, 4185.128, 4008.205, 0, 0, []
1630343825.4652, 23, 0, 4107.179, 4735.385, 4162.564, 4187.692, 4005.641, 0, 0, []
1630343825.473, 24, 0, 4112.308, 4675.385, 3949.744, 4192.308, 4011.795, 0, 0, []
1630343825.4807, 25, 0, 4117.949, 4642.564, 4025.128, 4197.949, 4008.718, 0, 0, []
1630343825.4886, 26, 0, 4113.333, 4701.026, 4160.513, 4180, 3987.179, 0, 0, []
1630343825.4964, 27, 0, 4111.282, 4731.795, 4113.333, 4156.41, 3991.282, 0, 0, []
1630343825.5043, 28, 0, 4111.282, 4709.744, 4128.205, 4163.59, 4016.41, 0, 0, []
1630343825.5121, 29, 0, 4105.641, 4689.744, 3946.154, 4167.692, 4020.513, 0, 0, []
1630343825.5199, 30, 0, 4124.615, 4683.077, 4036.923, 4181.538, 4024.615, 0, 0, []
1630343825.5277, 31, 0, 4157.436, 4700.513, 4205.128, 4209.744, 4046.154, 0, 0, []
1630343825.5356, 32, 0, 4153.333, 4720, 4109.744, 4209.231, 4047.179, 0, 0, []
1630343825.5434, 33, 0, 4132.821, 4700, 4094.359, 4192.308, 4021.538, 0, 0, []
1630343825.5513, 34, 0, 4132.821, 4687.692, 3960, 4178.462, 4006.154, 0, 0, []
1630343825.559, 35, 0, 4129.744, 4696.41, 4064.103, 4177.949, 3998.974, 0, 0, []
1630343825.5669, 36, 0, 4112.308, 4677.436, 4213.846, 4173.846, 3989.744, 0, 0, []
1630343825.5747, 37, 0, 4112.821, 4643.59, 4065.128, 4160, 3995.385, 0, 0, []
1630343825.5826, 38, 0, 4141.026, 4638.974, 4063.59, 4174.359, 4015.385, 0, 0, []
1630343825.5904, 39, 0, 4155.897, 4653.333, 3993.846, 4190.256, 4018.974, 0, 0, []
1630343825.5982, 40, 0, 4145.128, 4652.308, 4082.051, 4183.59, 4007.692, 0, 0, []
1630343825.606, 41, 0, 4143.59, 4652.308, 4209.231, 4177.949, 4022.051, 0, 0, []
1630343825.6139, 42, 0, 4153.846, 4657.436, 4030.769, 4180, 4043.59, 0, 0, []
1630343825.6217, 43, 0, 4158.974, 4648.718, 4047.692, 4190.256, 4040.513, 0, 0, []
1630343825.6295, 44, 0, 4161.538, 4608.718, 4041.026, 4188.205, 4032.308, 0, 0, []
1630343825.6374, 45, 0, 4160.513, 4561.026, 4110.769, 4181.026, 4027.179, 0, 0, []
1630343825.6451, 46, 0, 4150.256, 4571.795, 4207.692, 4170.769, 4015.385, 0, 0, []
1630343825.653, 47, 0, 4144.103, 4603.59, 4000, 4153.333, 4018.462, 0, 0, []
1630343825.6608, 48, 0, 4154.359, 4585.128, 4027.179, 4165.641, 4042.564, 0, 0, []
1630343825.6687, 49, 0, 4160, 4563.59, 4080, 4185.128, 4050.769, 0, 0, []
1630343825.6765, 50, 0, 4162.051, 4584.615, 4126.154, 4186.154, 4043.077, 0, 0, []
1630343825.6843, 51, 0, 4177.436, 4596.41, 4194.359, 4191.795, 4046.154, 0, 0, []
1630343825.6921, 52, 0, 4186.154, 4586.154, 3977.949, 4190.769, 4045.641, 0, 0, []
1630343825.7, 53, 0, 4177.436, 4588.205, 4025.641, 4191.795, 4044.615, 0, 0, []
1630343825.7078, 54, 0, 4174.359, 4592.308, 4125.128, 4191.795, 4065.128, 0, 0, []
1630343825.7157, 55, 0, 4183.077, 4578.974, 4131.795, 4187.692, 4075.385, 0, 0, []
1630343825.7234, 56, 0, 4192.308, 4569.231, 4170.769, 4197.949, 4060, 0, 0, []
1630343825.7313, 57, 0, 4196.923, 4588.205, 3962.051, 4207.179, 4059.487, 0, 0, []
1630343825.7391, 58, 0, 4200, 4608.205, 4032.308, 4218.974, 4076.923, 0, 0, []
1630343825.747, 59, 0, 4193.846, 4589.744, 4170.769, 4214.359, 4074.359, 0, 0, []
1630343825.7548, 60, 0, 4179.487, 4553.846, 4128.205, 4183.077, 4055.385, 0, 0, []
1630343825.7626, 61, 0, 4174.872, 4538.974, 4142.564, 4167.692, 4054.872, 0, 0, []
1630343825.7704, 62, 0, 4177.949, 4557.436, 3964.103, 4172.308, 4064.615, 0, 0, []
1630343825.7783, 63, 0, 4184.615, 4587.179, 4045.128, 4183.59, 4060, 0, 0, []
1630343825.7861, 64, 0, 4187.692, 4566.154, 4190.769, 4175.897, 4050.256, 450, 0, []
1630343825.7939, 65, 0, 4183.077, 4506.154, 4099.487, 4160.513, 4050.256, 450, 0, []
1630343825.8017, 66, 0, 4181.026, 4483.59, 4097.949, 4171.795, 4057.436, 16177, 0, []
1630343825.8095, 67, 0, 4182.564, 4490.769, 3956.41, 4175.897, 4070.769, 450, 0, []
1630343825.8174, 68, 0, 4179.487, 4496.923, 4054.872, 4172.308, 4078.462, 16139, 0, []
1630343825.8252, 69, 0, 4169.744, 4489.231, 4213.846, 4169.231, 4065.128, 450, 0, []
1630343825.8331, 70, 0, 4161.026, 4459.487, 4067.692, 4154.872, 4048.718, 16140, 0, []
1630343825.8408, 71, 0, 4163.59, 4471.795, 4061.538, 4156.41, 4046.667, 450, 0, []
1630343825.8487, 72, 0, 4168.205, 4502.051, 3997.949, 4169.744, 4045.641, 450, 0, []
1630343825.8565, 73, 0, 4159.487, 4450.256, 4092.821, 4172.821, 4042.564, 16129, 0, []
1630343825.8644, 74, 0, 4148.718, 4387.179, 4211.282, 4163.077, 4045.641, 450, 0, []
1630343825.8722, 75, 0, 4153.333, 4424.103, 4032.308, 4160.513, 4052.308, 16201, 0, []
1630343825.88, 76, 0, 4166.154, 4476.923, 4056.923, 4177.949, 4054.872, 450, 0, []
1630343825.8878, 77, 0, 4165.128, 4443.077, 4041.538, 4172.821, 4042.564, 450, 0, []
1630343825.8957, 78, 0, 4150.256, 4401.026, 4095.385, 4152.821, 4029.744, 450, 0, []
1630343825.9035, 79, 0, 4146.154, 4423.59, 4198.974, 4152.308, 4041.026, 16201, 0, []
1630343825.9114, 80, 0, 4149.231, 4437.949, 4004.103, 4152.308, 4049.231, 450, 0, []
1630343825.9191, 81, 0, 4143.077, 4415.385, 4024.615, 4152.308, 4031.795, 450, 0, []
1630343825.927, 82, 0, 4141.538, 4409.231, 4067.179, 4146.154, 4015.897, 450, 0, []
1630343825.9348, 83, 0, 4152.308, 4412.821, 4114.359, 4136.923, 4024.615, 16201, 0, []
1630343825.9426, 84, 0, 4157.949, 4389.744, 4180.513, 4141.026, 4039.487, 450, 0, []
1630343825.9505, 85, 0, 4147.692, 4341.026, 3958.974, 4139.487, 4043.59, 450, 0, []
1630343825.9583, 86, 0, 4146.154, 4273.846, 4010.256, 4142.564, 4036.923, 450, 0, []
1630343825.9661, 87, 0, 4175.385, 4235.385, 4120, 4156.923, 4046.154, 16201, 0, []
1630343825.9739, 88, 0, 4203.59, 4229.231, 4128.205, 4169.231, 4067.692, 450, 0, []
1630343825.9818, 89, 0, 4195.897, 4208.205, 4158.974, 4166.667, 4066.154, 450, 0, []
1630343825.9896, 90, 0, 4185.128, 4203.077, 3949.231, 4141.538, 4061.026, 450, 0, []
1630343825.9975, 91, 0, 4193.846, 4203.59, 4027.179, 4141.026, 4075.385, 16201, 0, []
1630343826.0052, 92, 0, 4189.744, 4182.051, 4167.179, 4158.974, 4076.41, 450, 0, []
1630343826.0131, 93, 0, 4185.128, 4205.128, 4118.462, 4156.923, 4061.026, 450, 0, []
1630343826.0209, 94, 0, 4200.513, 4243.077, 4133.333, 4151.795, 4060.513, 450, 0, []
1630343826.0288, 95, 0, 4204.103, 4217.949, 3962.051, 4144.103, 4060, 16201, 0, []
1630343826.0366, 96, 0, 4195.897, 4205.128, 4045.128, 4149.744, 4058.462, 450, 0, []
1630343826.0444, 97, 0, 4201.538, 4236.41, 4194.359, 4164.615, 4084.103, 450, 0, []
1630343826.0523, 98, 0, 4211.795, 4224.615, 4105.128, 4162.051, 4104.103, 450, 0, []
1630343826.0602, 99, 0, 4217.436, 4189.744, 4107.179, 4155.385, 4093.846, 16201, 0, []
1630343826.0681, 100, 0, 4220, 4176.41, 3972.308, 4145.641, 4085.128, 450, 0, []
1630343826.0759, 101, 0, 4221.538, 4169.231, 4064.615, 4138.462, 4087.692, 450, 0, []
1630343826.0836, 102, 0, 4228.718, 4168.205, 4213.333, 4134.872, 4083.077, 450, 0, []
1630343826.0915, 103, 0, 4227.692, 4170.769, 4069.744, 4128.718, 4072.821, 16201, 0, []
1630343826.0993, 104, 0, 4215.385, 4208.205, 4075.385, 4133.846, 4077.949, 450, 0, []
1630343826.1072, 105, 0, 4206.667, 4282.564, 4001.026, 4130.769, 4090.769, 450, 0, []
1630343826.115, 106, 0, 4204.103, 4292.821, 4070.769, 4130.769, 4085.128, 450, 0, []
1630343826.1227, 107, 0, 4207.692, 4240, 4196.923, 4140.513, 4073.333, 16201, 0, []
1630343826.1306, 108, 0, 4207.692, 4265.128, 4033.333, 4136.923, 4073.333, 450, 0, []
1630343826.1384, 109, 0, 4208.205, 4341.026, 4049.744, 4136.41, 4071.282, 450, 0, []
1630343826.1463, 110, 0, 4213.846, 4347.179, 4029.744, 4137.436, 4062.564, 450, 0, []
1630343826.1541, 111, 0, 4220.513, 4351.282, 4101.026, 4146.667, 4074.359, 16201, 0, []
1630343826.1619, 112, 0, 4228.718, 4397.436, 4214.359, 4164.103, 4097.436, 450, 0, []
1630343826.1697, 113, 0, 4228.718, 4400, 4006.154, 4144.615, 4095.385, 450, 0, []
1630343826.1776, 114, 0, 4215.897, 4376.41, 4026.667, 4125.128, 4086.667, 450, 0, []
1630343826.1854, 115, 0, 4206.667, 4380, 4077.436, 4132.821, 4092.821, 16201, 0, []
1630343826.1933, 116, 0, 4213.846, 4382.051, 4122.564, 4142.051, 4089.744, 450, 0, []
1630343826.201, 117, 0, 4221.538, 4362.564, 4192.308, 4144.103, 4080.513, 450, 0, []
1630343826.2089, 118, 0, 4220, 4341.026, 3967.179, 4138.462, 4087.179, 450, 0, []
1630343826.2167, 119, 0, 4217.436, 4303.59, 4008.205, 4136.41, 4081.026, 16201, 0, []
1630343826.2246, 120, 0, 4209.231, 4271.282, 4119.487, 4130.256, 4061.026, 450, 0, []
1630343826.2324, 121, 0, 4210.769, 4284.615, 4130.256, 4128.718, 4071.282, 450, 0, []
1630343826.2402, 122, 0, 4227.692, 4303.077, 4149.744, 4127.692, 4098.974, 450, 0, []
1630343826.248, 123, 0, 4227.179, 4290.256, 3931.795, 4111.282, 4101.026, 16201, 0, []
1630343826.2559, 124, 0, 4216.41, 4244.615, 4026.154, 4123.077, 4089.744, 450, 0, []
1630343826.2637, 125, 0, 4224.615, 4211.282, 4176.923, 4148.718, 4097.949, 450, 0, []
1630343826.2715, 126, 0, 4245.128, 4223.077, 4113.333, 4153.333, 4121.026, 450, 0, []
1630343826.2794, 127, 0, 4253.846, 4258.462, 4115.385, 4154.359, 4127.692, 16201, 0, []
1630343826.2871, 128, 0, 4246.667, 4305.128, 3954.872, 4145.641, 4111.282, 450, 0, []
1630343826.295, 0, 0, 4234.872, 4332.308, 4045.641, 4132.821, 4101.538, 450, 0, []
1630343826.3028, 1, 0, 4227.179, 4311.282, 4177.436, 4122.564, 4111.795, 450, 0, []
1630343826.3107, 2, 0, 4226.154, 4281.538, 4081.026, 4118.462, 4124.103, 16184, 0, []
1630343826.3185, 3, 0, 4223.077, 4295.385, 4095.897, 4130.769, 4126.667, 450, 0, []
1630343826.3263, 4, 0, 4216.41, 4309.744, 3962.051, 4131.795, 4127.179, 16136, 0, []
1630343826.3341, 5, 0, 4227.692, 4310.769, 4055.385, 4134.872, 4130.769, 450, 0, []
1630343826.342, 6, 0, 4242.564, 4329.744, 4214.359, 4141.538, 4134.359, 16201, 0, []
1630343826.3498, 7, 0, 4233.333, 4341.538, 4066.154, 4129.744, 4127.692, 450, 0, []
1630343826.3577, 8, 0, 4225.128, 4339.487, 4061.026, 4124.615, 4116.923, 450, 0, []
1630343826.3654, 9, 0, 4227.179, 4348.718, 3995.385, 4119.487, 4110.256, 16124, 0, []
1630343826.3733, 10, 0, 4220, 4360, 4084.103, 4118.462, 4117.436, 450, 0, []
1630343826.3811, 11, 0, 4223.077, 4364.615, 4212.821, 4132.308, 4142.051, 16198, 0, []
1630343826.389, 12, 0, 4241.026, 4373.333, 4034.359, 4131.282, 4158.974, 450, 0, []
1630343826.3968, 13, 0, 4242.051, 4379.487, 4043.59, 4128.205, 4150.769, 450, 0, []
1630343826.4046, 14, 0, 4226.667, 4398.974, 4032.308, 4124.615, 4132.821, 450, 0, []
1630343826.4124, 15, 0, 4235.385, 4427.692, 4105.128, 4127.692, 4132.821, 16198, 0, []
1630343826.4203, 16, 0, 4269.231, 4356.41, 4206.667, 4142.051, 4158.462, 0, 0, []
1630343826.4281, 17, 0, 4292.308, 4355.897, 4013.846, 4144.615, 4181.026, 0, 0, []
1630343826.4359, 18, 0, 4297.949, 4430.769, 4050.769, 4145.641, 4188.205, 0, 0, []
1630343826.4437, 19, 0, 4309.744, 3965.641, 4078.974, 4142.564, 4205.128, 0, 0, []
1630343826.4515, 20, 0, 4338.974, 3151.282, 4111.282, 4141.538, 4251.282, 0, 0, []
1630343826.4594, 21, 0, 4354.872, 2896.923, 4189.744, 4148.718, 4285.641, 0, 0, []
1630343826.4672, 22, 0, 4348.205, 3061.538, 3966.667, 4144.103, 4282.564, 0, 0, []
1630343826.4751, 23, 0, 4343.59, 3032.308, 4012.821, 4153.846, 4281.026, 0, 0, []
1630343826.4828, 24, 0, 4349.744, 2983.077, 4127.692, 4162.564, 4295.385, 0, 0, []
1630343826.4907, 25, 0, 4353.333, 3074.359, 4131.282, 4161.026, 4293.333, 0, 0, []
1630343826.4985, 26, 0, 4349.744, 3082.051, 4162.051, 4174.359, 4276.923, 0, 0, []
1630343826.5064, 27, 0, 4342.564, 3055.897, 3954.872, 4180, 4270.769, 0, 0, []
1630343826.5142, 28, 0, 4328.205, 3062.564, 4022.564, 4173.333, 4254.359, 0, 0, []
1630343826.522, 29, 0, 4311.282, 3087.179, 4160, 4161.026, 4223.59, 0, 0, []
1630343826.5298, 30, 0, 4303.077, 3127.692, 4119.487, 4151.282, 4215.385, 0, 0, []
1630343826.5377, 31, 0, 4308.718, 3144.103, 4127.179, 4153.846, 4235.385, 0, 0, []
1630343826.5455, 32, 0, 4317.949, 3154.872, 3951.282, 4146.154, 4254.872, 0, 0, []
1630343826.5533, 33, 0, 4310.769, 3171.795, 4046.154, 4145.128, 4249.744, 0, 0, []
1630343826.5612, 34, 0, 4298.462, 3183.077, 4193.333, 4156.923, 4237.949, 0, 0, []
1630343826.569, 35, 0, 4297.949, 3173.846, 4102.564, 4162.051, 4240, 0, 0, []
1630343826.5768, 36, 0, 4302.564, 3189.231, 4116.923, 4162.564, 4236.41, 0, 0, []
1630343826.5846, 37, 0, 4298.974, 3235.897, 3982.564, 4150.256, 4221.538, 0, 0, []
1630343826.5925, 38, 0, 4292.821, 3254.872, 4067.179, 4143.077, 4221.026, 0, 0, []
1630343826.6003, 39, 0, 4293.333, 3251.282, 4217.949, 4154.359, 4234.872, 0, 0, []
1630343826.6081, 40, 0, 4290.769, 3264.615, 4072.821, 4155.385, 4231.282, 0, 0, []
1630343826.6159, 41, 0, 4274.872, 3283.59, 4062.051, 4144.615, 4214.359, 0, 0, []
1630343826.6238, 42, 0, 4255.385, 3278.974, 3990.256, 4136.41, 4212.821, 0, 0, []
1630343826.6316, 43, 0, 4263.077, 3281.538, 4083.59, 4149.744, 4220, 0, 0, []
1630343826.6395, 44, 0, 4290.256, 3316.923, 4205.641, 4171.282, 4225.128, 0, 0, []
1630343826.6472, 45, 0, 4294.872, 3332.308, 4021.026, 4165.641, 4230.769, 0, 0, []
1630343826.6551, 46, 0, 4284.615, 3327.692, 4037.949, 4151.282, 4231.795, 0, 0, []
1630343826.6629, 47, 0, 4276.41, 3341.538, 4031.282, 4130.256, 4212.821, 0, 0, []
1630343826.6708, 48, 0, 4270.769, 3355.897, 4096.41, 4126.667, 4198.974, 0, 0, []
1630343826.6786, 49, 0, 4271.282, 3349.744, 4186.667, 4149.231, 4214.872, 0, 0, []
1630343826.6864, 50, 0, 4269.744, 3352.308, 3984.615, 4163.59, 4229.744, 0, 0, []
1630343826.6942, 51, 0, 4271.795, 3361.538, 4032.308, 4183.59, 4235.385, 0, 0, []
1630343826.7021, 52, 0, 4278.462, 3364.103, 4088.205, 4187.179, 4232.308, 0, 0, []
1630343826.7099, 53, 0, 4273.333, 3368.718, 4121.538, 4157.436, 4212.308, 0, 0, []
1630343826.7178, 54, 0, 4268.205, 3370.769, 4189.231, 4134.872, 4198.462, 0, 0, []
1630343826.7255, 55, 0, 4268.205, 3364.615, 3983.077, 4118.974, 4198.974, 0, 0, []
1630343826.7333, 56, 0, 4256.923, 3351.282, 4033.333, 4108.718, 4196.923, 0, 0, []
1630343826.7412, 57, 0, 4248.205, 3344.103, 4115.385, 4111.282, 4196.923, 0, 0, []
1630343826.749, 58, 0, 4256.923, 3357.949, 4105.128, 4138.974, 4204.615, 0, 0, []
1630343826.7569, 59, 0, 4257.949, 3381.538, 4157.436, 4178.974, 4202.564, 0, 0, []
1630343826.7646, 60, 0, 4249.231, 3384.103, 3964.615, 4186.154, 4190.769, 0, 0, []
1630343826.7725, 61, 0, 4255.897, 3387.179, 4033.846, 4181.026, 4187.179, 0, 0, []
1630343826.7803, 62, 0, 4255.897, 3414.359, 4168.718, 4163.59, 4179.487, 0, 0, []
1630343826.7882, 63, 0, 4235.897, 3417.949, 4119.487, 4128.205, 4160.513, 0, 0, []
1630343826.796, 64, 0, 4232.821, 3414.872, 4126.154, 4122.051, 4164.615, 450, 0, []
1630343826.8038, 65, 0, 4253.333, 3445.128, 3950.256, 4128.205, 4195.385, 450, 0, []
1630343826.8116, 66, 0, 4266.154, 3462.564, 4042.051, 4128.718, 4207.692, 16186, 0, []
1630343826.8195, 67, 0, 4261.538, 3447.692, 4195.897, 4130.769, 4201.538, 450, 0, []
1630343826.8273, 68, 0, 4253.333, 3450.769, 4095.897, 4133.846, 4197.436, 16156, 0, []
1630343826.8352, 69, 0, 4250.769, 3470.256, 4090.769, 4147.692, 4183.077, 450, 0, []
1630343826.8429, 70, 0, 4254.359, 3486.667, 3962.051, 4161.026, 4173.333, 16220, 0, []
1630343826.8508, 71, 0, 4256.41, 3502.564, 4063.077, 4167.692, 4184.615, 450, 0, []
1630343826.8586, 72, 0, 4249.231, 3482.051, 4208.205, 4152.821, 4191.795, 450, 0, []
1630343826.8665, 73, 0, 4237.949, 3460.513, 4057.436, 4130.769, 4178.462, 16129, 0, []
1630343826.8743, 74, 0, 4234.872, 3483.077, 4065.128, 4142.051, 4170.769, 450, 0, []
1630343826.8822, 75, 0, 4242.051, 3495.897, 3997.949, 4144.103, 4173.846, 16194, 0, []
1630343826.8899, 76, 0, 4245.128, 3490.769, 4076.41, 4126.667, 4171.795, 450, 0, []
1630343826.8977, 77, 0, 4240.513, 3511.795, 4201.538, 4122.564, 4169.231, 450, 0, []
1630343826.9056, 78, 0, 4239.487, 3534.872, 4032.308, 4120, 4175.897, 450, 0, []
1630343826.9134, 79, 0, 4238.974, 3525.641, 4055.897, 4114.359, 4185.641, 16194, 0, []
1630343826.9213, 80, 0, 4226.667, 3524.103, 4043.077, 4106.667, 4189.231, 450, 0, []
1630343826.929, 81, 0, 4225.641, 3541.538, 4103.077, 4113.846, 4183.59, 450, 0, []
1630343826.9369, 82, 0, 4236.41, 3548.205, 4196.41, 4132.308, 4173.846, 450, 0, []
1630343826.9447, 83, 0, 4232.821, 3536.923, 4000, 4131.795, 4172.821, 16194, 0, []
1630343826.9526, 84, 0, 4234.872, 3538.462, 4040.513, 4134.872, 4184.103, 450, 0, []
1630343826.9604, 85, 0, 4243.59, 3555.385, 4082.564, 4137.436, 4190.769, 450, 0, []
1630343826.9682, 86, 0, 4232.308, 3546.154, 4115.897, 4127.692, 4180.513, 450, 0, []
1630343826.976, 87, 0, 4217.436, 3530.256, 4181.538, 4124.103, 4175.385, 16194, 0, []
1630343826.9839, 88, 0, 4226.667, 3553.846, 3965.641, 4131.282, 4192.821, 450, 0, []
1630343826.9917, 89, 0, 4245.641, 3603.077, 4021.026, 4150.256, 4202.564, 450, 0, []
1630343826.9996, 90, 0, 4249.231, 3629.744, 4123.59, 4144.615, 4188.205, 450, 0, []
1630343827.0073, 91, 0, 4247.692, 3622.051, 4121.026, 4124.103, 4180.513, 16194, 0, []
1630343827.0152, 92, 0, 4249.744, 3626.154, 4158.462, 4131.795, 4190.769, 450, 0, []
1630343827.023, 93, 0, 4243.59, 3653.846, 3960, 4132.308, 4195.385, 450, 0, []
1630343827.0308, 94, 0, 4230.769, 3656.41, 4030.256, 4129.744, 4193.846, 450, 0, []
1630343827.0387, 95, 0, 4228.205, 3635.385, 4156.923, 4135.897, 4203.077, 16194, 0, []
1630343827.0465, 96, 0, 4236.41, 3648.718, 4107.692, 4137.436, 4209.231, 450, 0, []
1630343827.0544, 97, 0, 4236.923, 3673.333, 4125.128, 4145.128, 4201.026, 450, 0, []
1630343827.0622, 98, 0, 4234.872, 3665.128, 3951.282, 4141.026, 4190.769, 450, 0, []
1630343827.07, 99, 0, 4242.051, 3647.179, 4029.744, 4138.462, 4196.41, 16194, 0, []
1630343827.0779, 100, 0, 4252.308, 3653.846, 4178.462, 4149.744, 4215.385, 450, 0, []
1630343827.0857, 101, 0, 4248.718, 3683.077, 4095.897, 4147.692, 4217.949, 450, 0, []
1630343827.0935, 102, 0, 4234.359, 3714.359, 4102.051, 4135.897, 4204.103, 450, 0, []
1630343827.1014, 103, 0, 4227.692, 3716.41, 3962.564, 4128.718, 4199.487, 16194, 0, []
1630343827.1092, 104, 0, 4233.846, 3692.308, 4051.282, 4138.462, 4202.564, 450, 0, []
1630343827.1171, 105, 0, 4250.769, 3694.359, 4206.667, 4150.256, 4205.641, 450, 0, []
1630343827.1248, 106, 0, 4260, 3725.128, 4067.179, 4148.205, 4212.308, 450, 0, []
1630343827.1327, 107, 0, 4256.41, 3743.59, 4065.641, 4154.872, 4214.872, 16194, 0, []
1630343827.1405, 108, 0, 4244.615, 3746.154, 3991.282, 4155.385, 4202.051, 450, 0, []
1630343827.1484, 109, 0, 4233.846, 3760, 4081.538, 4149.744, 4197.436, 450, 0, []
1630343827.1562, 110, 0, 4236.41, 3778.974, 4200.513, 4147.179, 4214.359, 450, 0, []
1630343827.164, 111, 0, 4236.41, 3752.821, 4015.385, 4142.051, 4220, 16194, 0, []
1630343827.1718, 112, 0, 4235.897, 3717.436, 4041.538, 4148.205, 4213.846, 450, 0, []
1630343827.1796, 113, 0, 4258.462, 3738.974, 3997.436, 4161.538, 4228.718, 450, 0, []
1630343827.1875, 114, 0, 4276.41, 3793.333, 4046.154, 4180, 4241.026, 450, 0, []
1630343827.1953, 115, 0, 4266.667, 3823.077, 4210.256, 4183.59, 4226.667, 16194, 0, []
1630343827.2032, 116, 0, 4265.128, 3835.385, 4044.103, 4156.923, 4208.205, 450, 0, []
1630343827.2109, 117, 0, 4272.821, 3841.026, 4031.282, 4146.667, 4202.051, 450, 0, []
1630343827.2188, 118, 0, 4260, 3818.462, 4047.692, 4142.051, 4203.59, 450, 0, []
1630343827.2266, 119, 0, 4255.897, 3803.077, 4102.564, 4134.872, 4214.872, 16194, 0, []
1630343827.2345, 120, 0, 4269.744, 3821.538, 4176.923, 4147.179, 4233.846, 450, 0, []
1630343827.2423, 121, 0, 4271.795, 3846.667, 3961.538, 4156.923, 4242.051, 450, 0, []
1630343827.2501, 122, 0, 4272.821, 3866.154, 4017.436, 4168.718, 4236.923, 450, 0, []
1630343827.2579, 123, 0, 4280, 3869.231, 4117.436, 4174.359, 4230.769, 16194, 0, []
1630343827.2658, 124, 0, 4287.179, 3858.462, 4123.59, 4165.641, 4232.821, 450, 0, []
1630343827.2736, 125, 0, 4292.308, 3872.308, 4171.282, 4161.538, 4234.872, 450, 0, []
1630343827.2815, 126, 0, 4286.154, 3893.333, 3961.538, 4149.231, 4228.718, 450, 0, []
1630343827.2892, 127, 0, 4279.487, 3890.256, 4023.077, 4153.333, 4226.154, 16194, 0, []
1630343827.2971, 128, 0, 4282.051, 3900, 4167.692, 4165.128, 4228.718, 450, 0, []
1630343827.3049, 0, 0, 4277.436, 3912.821, 4125.128, 4158.462, 4229.744, 450, 0, []
1630343827.3128, 1, 0, 4274.872, 3905.641, 4119.487, 4155.385, 4232.308, 450, 0, []
1630343827.3206, 2, 0, 4286.667, 3900.513, 3937.949, 4151.282, 4240.513, 16188, 0, []
1630343827.3284, 3, 0, 4288.205, 3897.949, 4030.769, 4146.667, 4247.179, 450, 0, []
1630343827.3362, 4, 0, 4274.872, 3906.154, 4173.846, 4143.077, 4250.769, 16140, 0, []
1630343827.3441, 5, 0, 4274.872, 3933.846, 4085.641, 4150.256, 4255.385, 450, 0, []
1630343827.3519, 6, 0, 4282.051, 3946.667, 4101.538, 4168.718, 4252.308, 16206, 0, []
1630343827.3597, 7, 0, 4273.333, 3937.949, 3970.769, 4165.641, 4236.923, 450, 0, []
1630343827.3675, 8, 0, 4270.769, 3942.051, 4069.231, 4165.641, 4225.128, 450, 0, []
1630343827.3753, 9, 0, 4285.128, 3951.795, 4217.949, 4173.333, 4230.769, 16124, 0, []
1630343827.3832, 10, 0, 4293.846, 3960, 4064.103, 4156.923, 4240.513, 450, 0, []
1630343827.391, 11, 0, 4294.872, 3980, 4059.487, 4149.231, 4242.051, 16201, 0, []
1630343827.3989, 12, 0, 4293.333, 3974.359, 3990.256, 4158.462, 4243.59, 450, 0, []
1630343827.4066, 13, 0, 4293.333, 3934.359, 4079.487, 4154.872, 4260, 450, 0, []
1630343827.4145, 14, 0, 4306.154, 3926.667, 4207.692, 4133.846, 4282.051, 450, 0, []
1630343827.4223, 15, 0, 4310.256, 3963.59, 4027.692, 4116.41, 4283.59, 16201, 0, []
1630343827.4302, 16, 0, 4296.923, 3986.154, 4047.179, 4123.59, 4271.795, 0, 0, []
1630343827.438, 17, 0, 4293.846, 3983.077, 4047.179, 4126.154, 4276.41, 0, 0, []
1630343827.4458, 18, 0, 4306.154, 3986.667, 4116.41, 4123.077, 4280.513, 0, 0, []
1630343827.4536, 19, 0, 4299.487, 3993.846, 4203.59, 4130.769, 4261.538, 0, 0, []
