Timestamp, COUNTER, INTERPOLATED, AF3, T7, Pz, T8, AF4, RAW_CQ, MARKER_HARDWARE, MARKERS
1628797593.7518, 27, 0, 4152.821, 4088.205, 4108.718, 4131.282, 4138.974, 0, 0, []
1628797593.7597, 28, 0, 4173.846, 4109.231, 4134.359, 4148.718, 4152.821, 0, 0, []
1628797593.7675, 29, 0, 4203.077, 4132.308, 4158.462, 4174.872, 4182.564, 0, 0, []
1628797593.7754, 30, 0, 4197.436, 4123.59, 4142.051, 4164.103, 4183.59, 0, 0, []
1628797593.7832, 31, 0, 4177.436, 4112.308, 4124.615, 4149.231, 4161.538, 0, 0, []
1628797593.791, 32, 0, 4159.487, 4104.615, 4109.744, 4140, 4138.974, 0, 0, []
1628797593.7988, 33, 0, 4153.333, 4100, 4094.872, 4124.615, 4129.744, 0, 0, []
1628797593.8067, 34, 0, 4194.872, 4132.821, 4136.923, 4151.795, 4170.256, 0, 0, []
1628797593.8145, 35, 0, 4243.59, 4172.308, 4196.923, 4205.641, 4222.051, 0, 0, []
1628797593.8225, 36, 0, 4232.308, 4162.564, 4184.615, 4210.769, 4213.846, 0, 0, []
1628797593.8303, 37, 0, 4201.538, 4136.923, 4147.692, 4184.103, 4185.128, 0, 0, []
1628797593.8383, 38, 0, 4197.949, 4133.846, 4148.205, 4173.333, 4184.615, 0, 0, []
1628797593.8462, 39, 0, 4203.077, 4140, 4146.154, 4173.333, 4190.256, 0, 0, []
1628797593.8542, 40, 0, 4208.205, 4142.051, 4129.744, 4167.179, 4187.179, 0, 0, []
1628797593.8621, 41, 0, 4204.615, 4128.718, 4115.385, 4141.538, 4173.846, 0, 0, []
1628797593.87, 42, 0, 4204.615, 4117.949, 4118.974, 4138.974, 4178.462, 0, 0, []
1628797593.8779, 43, 0, 4228.205, 4131.795, 4145.641, 4174.359, 4211.282, 0, 0, []
1628797593.8857, 44, 0, 4238.974, 4137.436, 4156.41, 4181.026, 4221.026, 0, 0, []
1628797593.8936, 45, 0, 4228.718, 4133.846, 4154.359, 4171.282, 4208.718, 0, 0, []
1628797593.9014, 46, 0, 4243.59, 4152.821, 4182.051, 4202.051, 4227.179, 0, 0, []
1628797593.9092, 47, 0, 4255.897, 4158.462, 4192.821, 4216.41, 4240.513, 0, 0, []
1628797593.917, 48, 0, 4228.205, 4138.462, 4162.564, 4181.026, 4212.821, 0, 0, []
1628797593.9249, 49, 0, 4209.744, 4132.308, 4146.667, 4158.974, 4197.436, 0, 0, []
1628797593.9327, 50, 0, 4213.846, 4133.846, 4146.154, 4157.949, 4202.051, 0, 0, []
1628797593.9406, 51, 0, 4217.436, 4133.333, 4148.718, 4160, 4205.128, 0, 0, []
1628797593.9484, 52, 0, 4216.923, 4135.385, 4154.359, 4167.179, 4206.154, 0, 0, []
1628797593.9564, 53, 0, 4215.385, 4125.128, 4154.359, 4167.179, 4199.487, 0, 0, []
1628797593.9642, 54, 0, 4229.231, 4120, 4163.077, 4175.897, 4209.231, 0, 0, []
1628797593.9722, 55, 0, 4235.897, 4125.128, 4159.487, 4177.949, 4216.41, 0, 0, []
1628797593.9801, 56, 0, 4215.385, 4121.026, 4136.41, 4151.795, 4197.436, 0, 0, []
1628797593.988, 57, 0, 4215.897, 4120.513, 4136.41, 4144.615, 4199.487, 0, 0, []
1628797593.9959, 58, 0, 4234.359, 4127.179, 4147.179, 4159.487, 4217.436, 0, 0, []
1628797594.0039, 59, 0, 4221.026, 4132.308, 4133.846, 4150.769, 4201.538, 0, 0, []
1628797594.0118, 60, 0, 4206.667, 4133.846, 4128.205, 4142.051, 4192.821, 0, 0, []
1628797594.0198, 61, 0, 4227.179, 4129.744, 4149.231, 4158.462, 4218.462, 0, 0, []
1628797594.0276, 62, 0, 4237.949, 4130.769, 4156.41, 4160.513, 4223.59, 0, 0, []
1628797594.0354, 63, 0, 4224.615, 4130.769, 4144.615, 4146.154, 4207.692, 0, 0, []
1628797594.0433, 64, 0, 4233.333, 4126.154, 4144.103, 4151.795, 4217.949, 450, 0, []
1628797594.0511, 65, 0, 4251.795, 4143.077, 4161.538, 4172.821, 4241.538, 450, 0, []
1628797594.059, 66, 0, 4232.821, 4158.974, 4169.744, 4173.333, 4227.179, 16195, 0, []
1628797594.0667, 67, 0, 4208.718, 4133.846, 4149.744, 4152.821, 4195.897, 450, 0, []
1628797594.0746, 68, 0, 4237.949, 4115.897, 4133.333, 4146.667, 4205.128, 16171, 0, []
1628797594.0824, 69, 0, 4268.718, 4128.205, 4130.256, 4137.436, 4214.359, 450, 0, []
1628797594.0903, 70, 0, 4254.359, 4128.205, 4115.385, 4110.769, 4182.564, 16155, 0, []
1628797594.0981, 71, 0, 4260.513, 4129.231, 4113.846, 4117.949, 4171.795, 450, 0, []
1628797594.1059, 72, 0, 4298.974, 4153.333, 4132.308, 4154.359, 4201.026, 450, 0, []
1628797594.1137, 73, 0, 4301.026, 4165.128, 4130.769, 4153.846, 4199.487, 16165, 0, []
1628797594.1217, 74, 0, 4259.487, 4137.436, 4101.538, 4117.949, 4159.487, 450, 0, []
1628797594.1296, 75, 0, 4226.667, 4105.128, 4080.513, 4094.872, 4129.744, 16204, 0, []
1628797594.1376, 76, 0, 4225.128, 4116.41, 4096.923, 4102.564, 4127.692, 450, 0, []
1628797594.1454, 77, 0, 4242.051, 4147.692, 4130.769, 4127.179, 4148.205, 450, 0, []
1628797594.1534, 78, 0, 4240, 4140, 4135.385, 4133.333, 4157.436, 450, 0, []
1628797594.1613, 79, 0, 4212.821, 4112.308, 4117.949, 4115.385, 4132.308, 16204, 0, []
1628797594.1693, 80, 0, 4218.974, 4126.154, 4133.846, 4122.051, 4133.846, 450, 0, []
1628797594.1772, 81, 0, 4250.769, 4158.462, 4167.692, 4148.718, 4173.846, 450, 0, []
1628797594.185, 82, 0, 4241.538, 4154.359, 4163.59, 4140, 4169.744, 450, 0, []
1628797594.1929, 83, 0, 4211.282, 4134.872, 4136.923, 4115.385, 4133.846, 16204, 0, []
1628797594.2007, 84, 0, 4211.282, 4131.282, 4125.128, 4117.436, 4138.974, 450, 0, []
1628797594.2086, 85, 0, 4225.128, 4133.333, 4130.769, 4127.179, 4156.41, 450, 0, []
1628797594.2164, 86, 0, 4213.846, 4133.846, 4126.667, 4119.487, 4140.513, 450, 0, []
1628797594.2242, 87, 0, 4202.564, 4133.333, 4113.846, 4112.821, 4132.308, 16204, 0, []
1628797594.232, 88, 0, 4222.564, 4139.487, 4126.154, 4126.667, 4158.974, 450, 0, []
1628797594.2399, 89, 0, 4242.051, 4150.256, 4159.487, 4144.615, 4176.41, 450, 0, []
1628797594.2477, 90, 0, 4227.179, 4151.282, 4165.128, 4147.179, 4164.615, 450, 0, []
1628797594.2556, 91, 0, 4198.974, 4133.333, 4134.872, 4126.667, 4142.051, 16204, 0, []
1628797594.2633, 92, 0, 4195.385, 4122.051, 4119.487, 4109.744, 4132.308, 450, 0, []
1628797594.2712, 93, 0, 4213.846, 4134.872, 4131.282, 4118.462, 4148.205, 450, 0, []
1628797594.279, 94, 0, 4222.564, 4141.026, 4137.436, 4129.744, 4160.513, 450, 0, []
1628797594.287, 95, 0, 4195.897, 4123.59, 4116.923, 4113.846, 4137.949, 16204, 0, []
1628797594.2949, 96, 0, 4185.128, 4116.41, 4112.821, 4104.615, 4128.718, 450, 0, []
1628797594.3028, 97, 0, 4215.897, 4139.487, 4141.026, 4130.769, 4158.462, 450, 0, []
1628797594.3107, 98, 0, 4222.051, 4150.769, 4144.103, 4146.154, 4167.692, 450, 0, []
1628797594.3187, 99, 0, 4204.103, 4134.872, 4128.718, 4131.795, 4152.308, 16204, 0, []
1628797594.3266, 100, 0, 4208.718, 4129.744, 4127.179, 4121.538, 4151.795, 450, 0, []
1628797594.3346, 101, 0, 4214.872, 4141.538, 4124.615, 4128.718, 4153.846, 450, 0, []
1628797594.3424, 102, 0, 4179.487, 4126.667, 4095.385, 4109.744, 4124.615, 450, 0, []
1628797594.3502, 103, 0, 4140, 4090.256, 4065.128, 4065.641, 4085.641, 16204, 0, []
1628797594.3581, 104, 0, 4153.333, 4097.949, 4084.103, 4068.718, 4093.846, 450, 0, []
1628797594.3659, 105, 0, 4195.385, 4137.436, 4129.231, 4115.897, 4134.359, 450, 0, []
1628797594.3738, 106, 0, 4205.128, 4140.513, 4135.897, 4129.744, 4145.641, 450, 0, []
1628797594.3815, 107, 0, 4180.513, 4117.949, 4108.718, 4106.667, 4122.051, 16204, 0, []
1628797594.3894, 108, 0, 4160.513, 4105.128, 4086.667, 4090.769, 4099.487, 450, 0, []
1628797594.3972, 109, 0, 4163.077, 4104.103, 4087.179, 4096.41, 4098.974, 450, 0, []
1628797594.4051, 110, 0, 4189.744, 4120, 4108.205, 4124.103, 4131.282, 450, 0, []
1628797594.4129, 111, 0, 4210.769, 4131.795, 4124.615, 4145.128, 4155.897, 16204, 0, []
1628797594.4208, 112, 0, 4193.333, 4125.641, 4121.026, 4126.667, 4133.846, 450, 0, []
1628797594.4285, 113, 0, 4178.462, 4129.744, 4119.487, 4105.128, 4122.564, 450, 0, []
1628797594.4365, 114, 0, 4186.154, 4123.077, 4116.41, 4101.538, 4142.564, 450, 0, []
1628797594.4444, 115, 0, 4182.051, 4092.821, 4094.359, 4090.769, 4142.051, 16204, 0, []
1628797594.4524, 116, 0, 4181.538, 4087.179, 4082.051, 4087.179, 4142.051, 450, 0, []
1628797594.4603, 117, 0, 4213.333, 4105.128, 4092.308, 4106.154, 4177.436, 450, 0, []
1628797594.4682, 118, 0, 4261.538, 4110.769, 4102.564, 4128.205, 4225.641, 450, 0, []
1628797594.4761, 119, 0, 4307.179, 4108.205, 4108.718, 4142.051, 4264.103, 16204, 0, []
1628797594.4841, 120, 0, 4328.718, 4088.205, 4087.692, 4127.179, 4271.795, 450, 0, []
1628797594.492, 121, 0, 4333.846, 4060.513, 4061.026, 4100, 4271.282, 450, 0, []
1628797594.5, 122, 0, 4367.692, 4075.385, 4091.795, 4126.667, 4321.538, 450, 0, []
1628797594.5078, 123, 0, 4411.795, 4111.795, 4137.436, 4183.59, 4378.974, 16204, 0, []
1628797594.5156, 124, 0, 4404.103, 4110.256, 4131.282, 4190.256, 4380.513, 450, 0, []
1628797594.5235, 125, 0, 4369.231, 4099.487, 4124.615, 4181.026, 4373.333, 450, 0, []
1628797594.5313, 126, 0, 4343.59, 4115.385, 4150.769, 4199.487, 4374.359, 450, 0, []
1628797594.5392, 127, 0, 4304.103, 4130.769, 4164.103, 4210.256, 4350.256, 16204, 0, []
1628797594.5469, 128, 0, 4250.256, 4128.205, 4154.872, 4203.59, 4318.974, 450, 0, []
1628797594.5548, 0, 0, 4198.462, 4127.179, 4146.667, 4197.949, 4289.744, 450, 0, []
1628797594.5626, 1, 0, 4154.872, 4132.308, 4148.205, 4197.949, 4258.462, 450, 0, []
1628797594.5705, 2, 0, 4131.795, 4136.923, 4157.436, 4210.769, 4243.077, 16181, 0, []
1628797594.5783, 3, 0, 4122.564, 4144.615, 4162.564, 4229.744, 4236.923, 450, 0, []
1628797594.5862, 4, 0, 4089.744, 4143.077, 4148.205, 4224.103, 4205.641, 16179, 0, []
1628797594.5941, 5, 0, 4031.282, 4114.872, 4120.513, 4189.231, 4147.179, 450, 0, []
1628797594.6021, 6, 0, 4012.821, 4094.872, 4119.487, 4178.974, 4119.487, 16143, 0, []
1628797594.61, 7, 0, 4047.179, 4105.128, 4146.667, 4209.231, 4146.667, 450, 0, []
1628797594.618, 8, 0, 4057.436, 4093.333, 4148.718, 4211.282, 4153.846, 450, 0, []
1628797594.6258, 9, 0, 4036.41, 4059.487, 4130.769, 4183.59, 4130.769, 16167, 0, []
1628797594.6338, 10, 0, 4045.641, 4056.41, 4147.692, 4196.41, 4137.949, 450, 0, []
1628797594.6417, 11, 0, 4065.641, 4053.846, 4170.769, 4221.538, 4153.846, 16189, 0, []
1628797594.6497, 12, 0, 4063.59, 4028.205, 4153.333, 4206.667, 4143.59, 450, 0, []
1628797594.6576, 13, 0, 4059.487, 3995.897, 4129.231, 4186.667, 4132.821, 450, 0, []
1628797594.6654, 14, 0, 4048.718, 3941.026, 4115.385, 4177.436, 4124.615, 450, 0, []
1628797594.6733, 15, 0, 4033.846, 3891.282, 4110.769, 4168.205, 4111.282, 16189, 0, []
1628797594.6811, 16, 0, 4040, 3886.667, 4126.667, 4168.718, 4109.231, 0, 0, []
1628797594.689, 17, 0, 4053.333, 3867.179, 4135.385, 4171.282, 4111.795, 0, 0, []
1628797594.6968, 18, 0, 4053.333, 3807.179, 4111.282, 4168.205, 4103.59, 0, 0, []
1628797594.7046, 19, 0, 4036.923, 3757.436, 4070.769, 4151.795, 4084.615, 0, 0, []
1628797594.7124, 20, 0, 4016.41, 3725.128, 4055.385, 4122.564, 4062.051, 0, 0, []
1628797594.7203, 21, 0, 4026.667, 3715.385, 4083.59, 4128.718, 4070.769, 0, 0, []
1628797594.7281, 22, 0, 4069.231, 3733.333, 4130.256, 4177.436, 4115.897, 0, 0, []
1628797594.7361, 23, 0, 4094.359, 3740, 4155.897, 4194.359, 4142.051, 0, 0, []
1628797594.7439, 24, 0, 4087.179, 3728.718, 4150.256, 4166.154, 4129.744, 0, 0, []
1628797594.7519, 25, 0, 4076.923, 3721.538, 4131.282, 4146.667, 4112.308, 0, 0, []
1628797594.7598, 26, 0, 4071.795, 3720.513, 4123.077, 4147.179, 4106.154, 0, 0, []
1628797594.7678, 27, 0, 4057.949, 3703.077, 4119.487, 4145.641, 4092.821, 0, 0, []
1628797594.7757, 28, 0, 4040.513, 3674.872, 4107.179, 4142.051, 4075.897, 0, 0, []
1628797594.7836, 29, 0, 4052.821, 3669.744, 4109.744, 4147.179, 4087.692, 0, 0, []
1628797594.7915, 30, 0, 4081.538, 3688.718, 4131.795, 4162.564, 4112.308, 0, 0, []
1628797594.7995, 31, 0, 4070.256, 3683.077, 4128.718, 4160, 4096.923, 0, 0, []
1628797594.8074, 32, 0, 4037.949, 3634.359, 4080, 4110.256, 4053.333, 0, 0, []
1628797594.8154, 33, 0, 4038.974, 3595.385, 4039.487, 4063.59, 4046.154, 0, 0, []
1628797594.8232, 34, 0, 4060, 3593.846, 4048.205, 4078.462, 4074.872, 0, 0, []
1628797594.831, 35, 0, 4069.744, 3597.949, 4069.231, 4116.41, 4091.795, 0, 0, []
1628797594.8389, 36, 0, 4073.846, 3577.949, 4073.846, 4129.231, 4098.974, 0, 0, []
1628797594.8467, 37, 0, 4094.359, 3565.641, 4088.718, 4146.154, 4122.564, 0, 0, []
1628797594.8546, 38, 0, 4132.821, 3594.359, 4124.103, 4179.487, 4157.949, 0, 0, []
1628797594.8623, 39, 0, 4166.154, 3623.59, 4148.205, 4191.282, 4178.974, 0, 0, []
1628797594.8702, 40, 0, 4183.077, 3634.359, 4165.128, 4193.846, 4193.333, 0, 0, []
1628797594.878, 41, 0, 4191.282, 3640, 4180, 4202.051, 4205.128, 0, 0, []
1628797594.8859, 42, 0, 4175.897, 3628.205, 4162.051, 4186.154, 4190.256, 0, 0, []
1628797594.8937, 43, 0, 4154.359, 3614.872, 4138.974, 4160.513, 4166.667, 0, 0, []
1628797594.9016, 44, 0, 4159.487, 3619.487, 4153.846, 4168.718, 4171.282, 0, 0, []
1628797594.9095, 45, 0, 4156.923, 3610.769, 4156.923, 4173.846, 4170.256, 0, 0, []
1628797594.9175, 46, 0, 4141.026, 3600, 4140.513, 4156.923, 4153.333, 0, 0, []
1628797594.9254, 47, 0, 4160, 3629.231, 4156.923, 4170.769, 4170.769, 0, 0, []
1628797594.9334, 48, 0, 4186.667, 3656.923, 4176.41, 4192.821, 4197.436, 0, 0, []
1628797594.9412, 49, 0, 4173.333, 3646.154, 4160.513, 4176.923, 4181.026, 0, 0, []
1628797594.9491, 50, 0, 4159.487, 3641.538, 4146.667, 4168.718, 4164.615, 0, 0, []
1628797594.9569, 51, 0, 4176.923, 3662.051, 4159.487, 4196.41, 4183.077, 0, 0, []
1628797594.9649, 52, 0, 4186.667, 3678.974, 4167.179, 4208.718, 4191.795, 0, 0, []
1628797594.9728, 53, 0, 4184.103, 3676.923, 4168.718, 4201.538, 4185.128, 0, 0, []
1628797594.9805, 54, 0, 4184.103, 3667.179, 4169.231, 4205.641, 4190.769, 0, 0, []
1628797594.9884, 55, 0, 4169.231, 3665.128, 4156.41, 4201.026, 4181.538, 0, 0, []
1628797594.9962, 56, 0, 4152.308, 3664.103, 4141.538, 4176.41, 4158.462, 0, 0, []
1628797595.0041, 57, 0, 4168.205, 3666.154, 4136.41, 4167.179, 4164.103, 0, 0, []
1628797595.0119, 58, 0, 4186.667, 3679.487, 4134.872, 4177.949, 4174.359, 0, 0, []
1628797595.0198, 59, 0, 4178.974, 3682.051, 4144.615, 4181.538, 4166.154, 0, 0, []
1628797595.0275, 60, 0, 4178.974, 3672.308, 4166.154, 4188.718, 4175.385, 0, 0, []
1628797595.0354, 61, 0, 4189.231, 3675.385, 4170.769, 4200, 4190.769, 0, 0, []
1628797595.0432, 62, 0, 4185.641, 3678.462, 4157.949, 4195.385, 4184.103, 0, 0, []
1628797595.0512, 63, 0, 4181.026, 3670.256, 4153.846, 4183.077, 4174.359, 0, 0, []
1628797595.0591, 64, 0, 4182.051, 3669.231, 4166.667, 4191.282, 4179.487, 450, 0, []
1628797595.067, 65, 0, 4170.769, 3649.231, 4162.564, 4192.821, 4173.846, 450, 0, []
1628797595.0749, 66, 0, 4143.077, 3603.59, 4132.821, 4164.103, 4145.128, 16181, 0, []
1628797595.0829, 67, 0, 4136.923, 3604.615, 4130.769, 4161.538, 4136.41, 450, 0, []
1628797595.0908, 68, 0, 4157.949, 3633.333, 4153.846, 4186.667, 4161.026, 16188, 0, []
1628797595.0988, 69, 0, 4161.026, 3624.615, 4150.256, 4179.487, 4163.59, 450, 0, []
1628797595.1066, 70, 0, 4151.795, 3613.846, 4133.846, 4157.436, 4144.615, 16151, 0, []
1628797595.1146, 71, 0, 4165.128, 3629.744, 4147.692, 4173.846, 4158.974, 450, 0, []
1628797595.1225, 72, 0, 4178.462, 3637.949, 4168.205, 4199.487, 4187.179, 450, 0, []
1628797595.1305, 73, 0, 4169.744, 3627.179, 4160.513, 4184.615, 4178.974, 16158, 0, []
1628797595.1384, 74, 0, 4167.692, 3614.359, 4150.256, 4167.179, 4164.103, 450, 0, []
1628797595.1461, 75, 0, 4174.359, 3604.103, 4151.282, 4184.615, 4175.385, 16200, 0, []
1628797595.154, 76, 0, 4174.872, 3603.59, 4154.872, 4205.641, 4188.205, 450, 0, []
1628797595.1618, 77, 0, 4178.974, 3601.538, 4163.59, 4200.513, 4187.692, 450, 0, []
1628797595.1697, 78, 0, 4183.59, 3585.641, 4171.795, 4190.769, 4187.692, 450, 0, []
1628797595.1775, 79, 0, 4170.769, 3570.769, 4162.564, 4178.462, 4178.462, 16200, 0, []
1628797595.1853, 80, 0, 4144.615, 3550.256, 4133.333, 4154.359, 4155.897, 450, 0, []
1628797595.1931, 81, 0, 4134.359, 3529.231, 4120.513, 4151.282, 4146.154, 450, 0, []
1628797595.201, 82, 0, 4143.59, 3524.615, 4133.333, 4170.769, 4154.359, 450, 0, []
1628797595.2088, 83, 0, 4148.205, 3520.513, 4139.487, 4174.872, 4159.487, 16200, 0, []
1628797595.2168, 84, 0, 4146.154, 3504.615, 4135.385, 4169.231, 4162.564, 450, 0, []
1628797595.2246, 85, 0, 4155.897, 3496.41, 4142.051, 4169.231, 4172.308, 450, 0, []
1628797595.2326, 86, 0, 4187.179, 3500, 4150.256, 4174.359, 4194.359, 450, 0, []
1628797595.2405, 87, 0, 4224.103, 3498.462, 4143.59, 4178.974, 4223.59, 16200, 0, []
1628797595.2485, 88, 0, 4262.051, 3505.128, 4142.564, 4178.462, 4252.308, 450, 0, []
1628797595.2564, 89, 0, 4307.179, 3515.385, 4153.333, 4175.385, 4281.538, 450, 0, []
1628797595.2643, 90, 0, 4348.718, 3505.641, 4155.897, 4170.769, 4310.769, 450, 0, []
1628797595.2722, 91, 0, 4372.821, 3501.026, 4147.179, 4157.436, 4327.179, 16200, 0, []
1628797595.2802, 92, 0, 4371.795, 3507.179, 4142.051, 4147.692, 4326.154, 450, 0, []
1628797595.2881, 93, 0, 4364.103, 3507.692, 4146.154, 4160, 4332.308, 450, 0, []
1628797595.2959, 94, 0, 4369.744, 3508.205, 4154.872, 4177.436, 4352.821, 450, 0, []
1628797595.3037, 95, 0, 4374.872, 3516.41, 4168.205, 4186.154, 4364.103, 16200, 0, []
1628797595.3115, 96, 0, 4354.359, 3510.769, 4165.128, 4186.154, 4353.846, 450, 0, []
1628797595.3194, 97, 0, 4319.487, 3494.359, 4148.718, 4176.923, 4329.231, 450, 0, []
1628797595.3272, 98, 0, 4298.974, 3484.103, 4142.564, 4170.769, 4313.846, 450, 0, []
1628797595.3351, 99, 0, 4298.974, 3467.179, 4149.231, 4173.846, 4314.359, 16200, 0, []
1628797595.3428, 100, 0, 4294.872, 3446.667, 4149.744, 4173.846, 4305.641, 450, 0, []
1628797595.3507, 101, 0, 4269.231, 3438.462, 4144.615, 4166.154, 4277.949, 450, 0, []
1628797595.3585, 102, 0, 4248.718, 3424.103, 4150.769, 4168.718, 4266.154, 450, 0, []
1628797595.3665, 103, 0, 4237.949, 3374.872, 4143.077, 4171.282, 4261.026, 16200, 0, []
1628797595.3744, 104, 0, 4223.077, 3331.282, 4132.821, 4168.718, 4243.077, 450, 0, []
1628797595.3823, 105, 0, 4212.821, 3336.41, 4132.821, 4169.744, 4228.718, 450, 0, []
1628797595.3902, 106, 0, 4212.308, 3371.795, 4129.231, 4166.667, 4225.128, 450, 0, []
1628797595.3982, 107, 0, 4213.333, 3405.641, 4139.487, 4173.846, 4228.718, 16200, 0, []
1628797595.4061, 108, 0, 4215.385, 3421.538, 4155.385, 4186.154, 4233.846, 450, 0, []
1628797595.4141, 109, 0, 4215.385, 3420.513, 4149.744, 4179.487, 4231.282, 450, 0, []
1628797595.4219, 110, 0, 4213.846, 3432.308, 4150.256, 4174.872, 4227.692, 450, 0, []
1628797595.4299, 111, 0, 4219.487, 3456.923, 4172.821, 4193.333, 4235.385, 16200, 0, []
1628797595.4378, 112, 0, 4216.41, 3455.897, 4169.744, 4197.436, 4233.333, 450, 0, []
1628797595.4458, 113, 0, 4200, 3437.949, 4149.231, 4187.179, 4222.051, 450, 0, []
1628797595.4537, 114, 0, 4183.077, 3438.462, 4150.256, 4181.538, 4215.897, 450, 0, []
1628797595.4614, 115, 0, 4168.205, 3438.462, 4141.538, 4162.051, 4202.051, 16200, 0, []
1628797595.4693, 116, 0, 4165.641, 3435.897, 4115.897, 4143.077, 4194.872, 450, 0, []
1628797595.4771, 117, 0, 4182.564, 3464.615, 4120, 4154.359, 4216.41, 450, 0, []
1628797595.485, 118, 0, 4199.487, 3501.538, 4150.256, 4175.385, 4241.538, 450, 0, []
1628797595.4928, 119, 0, 4197.949, 3500.513, 4153.333, 4174.359, 4238.974, 16200, 0, []
1628797595.5006, 120, 0, 4182.051, 3490.256, 4135.897, 4158.462, 4222.051, 450, 0, []
1628797595.5084, 121, 0, 4166.154, 3502.564, 4129.231, 4150.256, 4208.205, 450, 0, []
1628797595.5163, 122, 0, 4161.026, 3520.513, 4128.718, 4156.923, 4202.564, 450, 0, []
1628797595.5241, 123, 0, 4147.692, 3522.564, 4116.41, 4152.821, 4189.231, 16200, 0, []
1628797595.532, 124, 0, 4112.308, 3517.949, 4095.385, 4129.744, 4158.462, 450, 0, []
1628797595.5397, 125, 0, 4089.744, 3533.846, 4090.256, 4115.897, 4141.538, 450, 0, []
1628797595.5477, 126, 0, 4110.256, 3574.872, 4105.128, 4126.667, 4155.897, 450, 0, []
1628797595.5556, 127, 0, 4143.077, 3617.436, 4128.718, 4146.154, 4182.051, 16200, 0, []
1628797595.5636, 128, 0, 4153.846, 3644.615, 4145.641, 4156.41, 4191.795, 450, 0, []
1628797595.5715, 0, 0, 4147.692, 3660.513, 4143.59, 4149.744, 4184.615, 450, 0, []
1628797595.5794, 1, 0, 4145.641, 3676.41, 4133.333, 4144.615, 4183.59, 450, 0, []
1628797595.5873, 2, 0, 4154.359, 3698.974, 4128.718, 4149.744, 4192.821, 16190, 0, []
1628797595.5953, 3, 0, 4173.333, 3742.051, 4133.846, 4156.923, 4209.231, 450, 0, []
1628797595.6032, 4, 0, 4205.641, 3805.128, 4148.205, 4163.077, 4240, 16178, 0, []
1628797595.611, 5, 0, 4243.077, 3835.385, 4147.692, 4158.462, 4273.333, 450, 0, []
1628797595.6189, 6, 0, 4291.282, 3825.641, 4132.308, 4152.821, 4303.077, 16151, 0, []
1628797595.6266, 7, 0, 4353.846, 3832.821, 4138.974, 4168.718, 4349.744, 450, 0, []
1628797595.6345, 8, 0, 4392.308, 3854.872, 4157.436, 4186.667, 4389.231, 450, 0, []
1628797595.6423, 9, 0, 4395.897, 3857.436, 4150.769, 4180, 4395.385, 16163, 0, []
1628797595.6502, 10, 0, 4405.641, 3872.308, 4144.615, 4171.282, 4400.513, 450, 0, []
1628797595.658, 11, 0, 4414.872, 3898.462, 4157.436, 4175.897, 4409.744, 16201, 0, []
1628797595.6658, 12, 0, 4391.282, 3887.179, 4141.538, 4164.103, 4389.744, 450, 0, []
1628797595.6736, 13, 0, 4361.026, 3863.59, 4107.179, 4132.308, 4353.846, 450, 0, []
1628797595.6816, 14, 0, 4360.513, 3878.462, 4125.641, 4136.41, 4351.282, 450, 0, []
1628797595.6895, 15, 0, 4362.051, 3901.538, 4161.538, 4168.718, 4357.949, 16201, 0, []
1628797595.6975, 16, 0, 4335.897, 3895.385, 4154.872, 4161.026, 4334.359, 0, 0, []
1628797595.7053, 17, 0, 4307.179, 3895.897, 4139.487, 4140, 4308.718, 0, 0, []
1628797595.7133, 18, 0, 4282.564, 3911.795, 4137.436, 4143.59, 4292.308, 0, 0, []
1628797595.7212, 19, 0, 4251.282, 3911.795, 4130.256, 4141.538, 4266.154, 0, 0, []
1628797595.7292, 20, 0, 4235.385, 3915.897, 4128.205, 4133.333, 4250.256, 0, 0, []
1628797595.7371, 21, 0, 4232.821, 3929.744, 4134.872, 4137.436, 4249.744, 0, 0, []
1628797595.745, 22, 0, 4211.795, 3926.667, 4118.462, 4132.821, 4235.385, 0, 0, []
1628797595.7529, 23, 0, 4193.333, 3926.154, 4112.821, 4132.308, 4223.59, 0, 0, []
1628797595.7608, 24, 0, 4195.385, 3943.59, 4137.436, 4145.128, 4224.615, 0, 0, []
1628797595.7687, 25, 0, 4178.974, 3946.667, 4129.744, 4128.718, 4207.179, 0, 0, []
1628797595.7765, 26, 0, 4168.718, 3949.744, 4120, 4114.359, 4196.923, 0, 0, []
1628797595.7843, 27, 0, 4187.692, 3976.923, 4153.846, 4143.077, 4216.923, 0, 0, []
1628797595.7921, 28, 0, 4189.231, 3993.846, 4169.744, 4159.487, 4223.077, 0, 0, []
1628797595.8, 29, 0, 4167.179, 3990.256, 4143.59, 4136.41, 4203.077, 0, 0, []
1628797595.8078, 30, 0, 4159.487, 3987.179, 4130.769, 4128.718, 4195.385, 0, 0, []
1628797595.8157, 31, 0, 4160, 4002.051, 4133.333, 4142.051, 4202.051, 0, 0, []
1628797595.8234, 32, 0, 4153.333, 4015.897, 4127.179, 4137.436, 4198.974, 0, 0, []
1628797595.8314, 33, 0, 4156.41, 4010.769, 4135.385, 4131.795, 4197.949, 0, 0, []
1628797595.8393, 34, 0, 4158.974, 4010.256, 4140.513, 4138.974, 4198.462, 0, 0, []
1628797595.8473, 35, 0, 4153.846, 4021.538, 4126.154, 4137.949, 4193.333, 0, 0, []
1628797595.8552, 36, 0, 4154.359, 4023.59, 4115.385, 4131.795, 4188.718, 0, 0, []
1628797595.8631, 37, 0, 4143.59, 4028.205, 4110.256, 4124.103, 4179.487, 0, 0, []
1628797595.871, 38, 0, 4134.359, 4049.231, 4112.821, 4118.462, 4173.846, 0, 0, []
1628797595.879, 39, 0, 4144.103, 4066.154, 4127.179, 4127.179, 4182.051, 0, 0, []
1628797595.8869, 40, 0, 4158.974, 4074.359, 4137.436, 4138.974, 4191.795, 0, 0, []
1628797595.8949, 41, 0, 4162.564, 4079.487, 4141.026, 4142.564, 4195.385, 0, 0, []
1628797595.9027, 42, 0, 4140, 4077.949, 4139.487, 4134.359, 4176.41, 0, 0, []
1628797595.9105, 43, 0, 4118.974, 4086.154, 4127.179, 4121.026, 4156.923, 0, 0, []
1628797595.9184, 44, 0, 4126.154, 4097.436, 4117.436, 4123.077, 4167.692, 0, 0, []
1628797595.9262, 45, 0, 4113.846, 4083.077, 4106.154, 4123.077, 4166.154, 0, 0, []
1628797595.9341, 46, 0, 4070.769, 4069.231, 4092.821, 4109.744, 4131.795, 0, 0, []
1628797595.9418, 47, 0, 4067.692, 4091.795, 4114.872, 4123.59, 4130.769, 0, 0, []
1628797595.9497, 48, 0, 4100, 4123.59, 4148.718, 4159.487, 4161.026, 0, 0, []
1628797595.9576, 49, 0, 4097.436, 4120.513, 4140, 4159.487, 4155.897, 0, 0, []
1628797595.9656, 50, 0, 4073.333, 4102.051, 4110.256, 4138.462, 4136.41, 0, 0, []
1628797595.9734, 51, 0, 4068.205, 4102.564, 4101.026, 4134.359, 4137.949, 0, 0, []
1628797595.9812, 52, 0, 4078.462, 4108.205, 4111.795, 4130.769, 4145.128, 0, 0, []
1628797595.989, 53, 0, 4084.103, 4109.231, 4120.513, 4120, 4147.179, 0, 0, []
1628797595.997, 54, 0, 4077.436, 4106.154, 4113.333, 4122.564, 4145.128, 0, 0, []
1628797596.0049, 55, 0, 4079.487, 4092.308, 4109.744, 4125.641, 4143.077, 0, 0, []
1628797596.0129, 56, 0, 4088.205, 4078.974, 4121.026, 4122.564, 4141.538, 0, 0, []
1628797596.0207, 57, 0, 4086.667, 4068.205, 4128.205, 4125.128, 4140, 0, 0, []
1628797596.0287, 58, 0, 4073.333, 4037.436, 4115.385, 4121.538, 4125.641, 0, 0, []
1628797596.0366, 59, 0, 4059.487, 4000.513, 4100, 4102.564, 4104.615, 0, 0, []
1628797596.0446, 60, 0, 4060.513, 3991.795, 4098.974, 4098.462, 4109.231, 0, 0, []
1628797596.0525, 61, 0, 4067.692, 3978.462, 4096.923, 4107.179, 4120, 0, 0, []
1628797596.0602, 62, 0, 4073.333, 3937.949, 4096.923, 4105.641, 4118.974, 0, 0, []
1628797596.0681, 63, 0, 4088.718, 3923.077, 4106.154, 4113.333, 4130.769, 0, 0, []
1628797596.0759, 64, 0, 4095.385, 3924.615, 4102.564, 4118.462, 4138.462, 450, 0, []
1628797596.0838, 65, 0, 4084.615, 3887.179, 4086.667, 4113.846, 4121.538, 450, 0, []
1628797596.0916, 66, 0, 4087.179, 3851.282, 4092.308, 4122.564, 4120.513, 16190, 0, []
1628797596.0994, 67, 0, 4088.718, 3855.385, 4098.974, 4115.897, 4125.128, 450, 0, []
1628797596.1072, 68, 0, 4070.769, 3861.026, 4080.513, 4090.256, 4107.692, 16178, 0, []
1628797596.1151, 69, 0, 4080, 3859.487, 4082.564, 4095.385, 4111.282, 450, 0, []
1628797596.1229, 70, 0, 4096.923, 3864.615, 4100, 4108.205, 4127.692, 16150, 0, []
1628797596.1308, 71, 0, 4083.59, 3862.564, 4096.41, 4096.923, 4120, 450, 0, []
1628797596.1385, 72, 0, 4085.128, 3856.923, 4091.282, 4099.487, 4115.385, 450, 0, []
1628797596.1465, 73, 0, 4108.718, 3863.59, 4091.795, 4115.897, 4126.154, 16162, 0, []
1628797596.1544, 74, 0, 4112.821, 3874.872, 4088.718, 4120.513, 4129.231, 450, 0, []
1628797596.1624, 75, 0, 4108.718, 3881.538, 4089.231, 4123.077, 4130.769, 16203, 0, []
1628797596.1703, 76, 0, 4116.923, 3885.641, 4092.308, 4118.462, 4133.846, 450, 0, []
1628797596.1782, 77, 0, 4107.179, 3879.487, 4077.436, 4096.41, 4121.538, 450, 0, []
1628797596.1861, 78, 0, 4096.923, 3878.974, 4068.718, 4085.641, 4114.359, 450, 0, []
1628797596.1941, 79, 0, 4124.615, 3905.641, 4096.41, 4105.128, 4140, 16203, 0, []
1628797596.202, 80, 0, 4134.872, 3917.949, 4112.821, 4116.41, 4147.179, 450, 0, []
1628797596.21, 81, 0, 4107.692, 3895.897, 4091.282, 4106.154, 4120.513, 450, 0, []
1628797596.2178, 82, 0, 4115.385, 3894.359, 4094.872, 4123.077, 4131.795, 450, 0, []
1628797596.2256, 83, 0, 4148.718, 3920, 4122.564, 4151.795, 4165.641, 16203, 0, []
1628797596.2335, 84, 0, 4128.718, 3917.949, 4108.718, 4130.256, 4140.513, 450, 0, []
1628797596.2413, 85, 0, 4102.051, 3913.333, 4086.667, 4101.026, 4105.641, 450, 0, []
1628797596.2492, 86, 0, 4125.641, 3944.103, 4102.051, 4115.897, 4127.692, 450, 0, []
1628797596.257, 87, 0, 4137.436, 3973.846, 4109.231, 4130.256, 4141.538, 16203, 0, []
1628797596.2648, 88, 0, 4111.282, 3971.795, 4078.974, 4100, 4107.692, 450, 0, []
1628797596.2726, 89, 0, 4101.538, 3965.641, 4065.641, 4071.795, 4090.256, 450, 0, []
1628797596.2805, 90, 0, 4130.256, 3993.846, 4107.179, 4101.538, 4123.077, 450, 0, []
1628797596.2883, 91, 0, 4147.692, 4025.128, 4128.205, 4128.718, 4149.231, 16203, 0, []
1628797596.2963, 92, 0, 4135.385, 4019.487, 4097.436, 4107.179, 4128.205, 450, 0, []
1628797596.3041, 93, 0, 4138.974, 4024.103, 4091.795, 4101.538, 4124.103, 450, 0, []
1628797596.3121, 94, 0, 4156.41, 4050.256, 4110.769, 4123.59, 4142.051, 450, 0, []
1628797596.32, 95, 0, 4148.718, 4049.231, 4095.385, 4119.487, 4129.744, 16203, 0, []
1628797596.328, 96, 0, 4146.667, 4037.436, 4072.821, 4099.487, 4116.41, 450, 0, []
1628797596.3359, 97, 0, 4188.205, 4068.205, 4089.744, 4102.564, 4144.615, 450, 0, []
1628797596.3438, 98, 0, 4241.026, 4114.359, 4117.436, 4121.538, 4188.205, 450, 0, []
1628797596.3517, 99, 0, 4275.897, 4123.59, 4117.436, 4129.744, 4218.974, 16203, 0, []
1628797596.3597, 100, 0, 4306.667, 4112.821, 4096.923, 4116.41, 4237.949, 450, 0, []
1628797596.3676, 101, 0, 4335.897, 4110.256, 4083.59, 4100.513, 4243.077, 450, 0, []
1628797596.3756, 102, 0, 4358.462, 4130.256, 4093.333, 4104.615, 4257.949, 450, 0, []
1628797596.3834, 103, 0, 4377.949, 4158.462, 4106.667, 4119.487, 4283.59, 16203, 0, []
1628797596.3912, 104, 0, 4380, 4171.795, 4106.154, 4122.051, 4285.128, 450, 0, []
1628797596.3991, 105, 0, 4353.333, 4181.026, 4095.897, 4113.846, 4266.667, 450, 0, []
1628797596.4069, 106, 0, 4313.333, 4193.846, 4076.923, 4104.615, 4243.077, 450, 0, []
1628797596.4148, 107, 0, 4287.692, 4207.179, 4066.154, 4100, 4221.538, 16203, 0, []
1628797596.4225, 108, 0, 4268.718, 4220, 4065.128, 4095.385, 4201.538, 450, 0, []
1628797596.4304, 109, 0, 4230.256, 4226.154, 4052.308, 4080, 4169.231, 450, 0, []
1628797596.4382, 110, 0, 4213.333, 4238.974, 4055.385, 4081.026, 4158.974, 450, 0, []
1628797596.4462, 111, 0, 4246.667, 4282.051, 4095.897, 4118.974, 4194.872, 16203, 0, []
1628797596.4541, 112, 0, 4260, 4312.821, 4117.949, 4141.026, 4214.359, 450, 0, []
1628797596.4619, 113, 0, 4226.154, 4298.462, 4105.641, 4122.564, 4188.205, 450, 0, []
1628797596.4697, 114, 0, 4207.692, 4295.385, 4103.077, 4111.282, 4176.41, 450, 0, []
1628797596.4777, 115, 0, 4217.436, 4317.436, 4115.385, 4125.128, 4189.231, 16203, 0, []
1628797596.4856, 116, 0, 4219.487, 4321.026, 4116.923, 4133.846, 4187.692, 450, 0, []
1628797596.4936, 117, 0, 4215.385, 4320, 4119.487, 4137.949, 4184.615, 450, 0, []
1628797596.5014, 118, 0, 4203.077, 4321.538, 4114.359, 4128.205, 4174.359, 450, 0, []
1628797596.5094, 119, 0, 4175.897, 4308.205, 4094.872, 4099.487, 4144.615, 16203, 0, []
1628797596.5173, 120, 0, 4176.41, 4315.385, 4104.103, 4113.846, 4143.59, 450, 0, []
1628797596.5253, 121, 0, 4199.487, 4343.59, 4118.974, 4147.179, 4170.256, 450, 0, []
1628797596.5332, 122, 0, 4190.769, 4333.333, 4095.897, 4123.59, 4160.513, 450, 0, []
1628797596.5409, 123, 0, 4165.128, 4306.667, 4077.436, 4087.179, 4135.897, 16203, 0, []
1628797596.5488, 124, 0, 4176.923, 4323.077, 4098.462, 4109.231, 4151.795, 450, 0, []
1628797596.5566, 125, 0, 4190.256, 4332.308, 4108.205, 4134.359, 4162.051, 450, 0, []
1628797596.5645, 126, 0, 4155.385, 4300.513, 4080, 4105.128, 4123.077, 450, 0, []
1628797596.5723, 127, 0, 4132.308, 4290.256, 4080, 4094.872, 4103.59, 16203, 0, []
1628797596.5801, 128, 0, 4152.821, 4303.077, 4113.333, 4127.179, 4129.231, 450, 0, []
1628797596.5879, 0, 0, 4162.051, 4281.026, 4114.872, 4138.462, 4136.41, 450, 0, []
1628797596.5958, 1, 0, 4149.744, 4238.462, 4089.744, 4110.769, 4115.897, 450, 0, []
1628797596.6036, 2, 0, 4148.718, 4217.436, 4090.256, 4093.846, 4110.769, 16181, 0, []
1628797596.6116, 3, 0, 4154.872, 4194.359, 4101.538, 4100.513, 4121.538, 450, 0, []
1628797596.6194, 4, 0, 4150.769, 4164.615, 4097.436, 4102.564, 4122.564, 16173, 0, []
1628797596.6274, 5, 0, 4143.59, 4160, 4100, 4098.974, 4115.385, 450, 0, []
1628797596.6353, 6, 0, 4128.205, 4156.41, 4100, 4092.308, 4101.026, 16142, 0, []
1628797596.6433, 7, 0, 4127.692, 4143.59, 4098.462, 4096.923, 4102.051, 450, 0, []
1628797596.6512, 8, 0, 4157.436, 4149.744, 4110.256, 4118.462, 4132.308, 450, 0, []
1628797596.6591, 9, 0, 4175.897, 4159.487, 4122.051, 4128.205, 4152.821, 16177, 0, []
1628797596.667, 10, 0, 4173.333, 4144.615, 4130.769, 4134.359, 4154.872, 450, 0, []
1628797596.675, 11, 0, 4175.385, 4115.897, 4144.615, 4151.795, 4156.923, 16194, 0, []
1628797596.6829, 12, 0, 4165.641, 4083.59, 4134.872, 4142.051, 4146.154, 450, 0, []
1628797596.6908, 13, 0, 4128.718, 4036.41, 4090.256, 4090.769, 4108.718, 450, 0, []
1628797596.6986, 14, 0, 4107.692, 3994.359, 4074.872, 4067.692, 4084.615, 450, 0, []
1628797596.7064, 15, 0, 4127.692, 3980.513, 4097.949, 4088.205, 4105.128, 16194, 0, []
1628797596.7143, 16, 0, 4143.077, 3976.41, 4101.538, 4096.41, 4124.615, 0, 0, []
1628797596.7221, 17, 0, 4130.769, 3967.179, 4088.205, 4088.205, 4109.231, 0, 0, []
1628797596.73, 18, 0, 4128.205, 3971.282, 4095.897, 4097.436, 4104.103, 0, 0, []
1628797596.7377, 19, 0, 4163.59, 3998.974, 4117.436, 4133.333, 4141.026, 0, 0, []
1628797596.7456, 20, 0, 4188.718, 4010.769, 4116.41, 4152.308, 4168.205, 0, 0, []
1628797596.7534, 21, 0, 4170.256, 3988.718, 4100, 4130.769, 4147.692, 0, 0, []
1628797596.7614, 22, 0, 4150.769, 3958.974, 4091.795, 4104.103, 4126.154, 0, 0, []
1628797596.7693, 23, 0, 4153.333, 3937.949, 4090.256, 4096.41, 4130.769, 0, 0, []
1628797596.7772, 24, 0, 4155.385, 3928.718, 4086.667, 4093.846, 4129.744, 0, 0, []
1628797596.7851, 25, 0, 4148.718, 3925.128, 4079.487, 4092.308, 4121.026, 0, 0, []
1628797596.7931, 26, 0, 4150.769, 3924.103, 4080.513, 4103.077, 4128.205, 0, 0, []
1628797596.801, 27, 0, 4156.41, 3925.128, 4091.795, 4111.795, 4135.897, 0, 0, []
1628797596.809, 28, 0, 4150.769, 3921.026, 4096.41, 4104.103, 4122.564, 0, 0, []
1628797596.8168, 29, 0, 4149.744, 3915.897, 4100.513, 4102.051, 4121.538, 0, 0, []
1628797596.8248, 30, 0, 4162.051, 3927.692, 4105.641, 4116.41, 4144.615, 0, 0, []
1628797596.8327, 31, 0, 4175.385, 3953.846, 4107.692, 4127.692, 4161.026, 0, 0, []
1628797596.8407, 32, 0, 4171.282, 3953.846, 4112.821, 4123.59, 4152.308, 0, 0, []
1628797596.8486, 33, 0, 4149.231, 3928.718, 4108.718, 4108.718, 4128.205, 0, 0, []
1628797596.8563, 34, 0, 4138.462, 3929.231, 4101.538, 4105.641, 4120.513, 0, 0, []
1628797596.8642, 35, 0, 4155.897, 3949.744, 4104.103, 4118.462, 4135.385, 0, 0, []
1628797596.872, 36, 0, 4178.462, 3951.282, 4109.231, 4126.154, 4152.308, 0, 0, []
1628797596.8799, 37, 0, 4187.179, 3936.41, 4107.179, 4131.795, 4161.538, 0, 0, []
1628797596.8877, 38, 0, 4189.744, 3895.897, 4104.615, 4133.846, 4164.103, 0, 0, []
1628797596.8956, 39, 0, 4185.128, 3820.513, 4103.59, 4120, 4158.462, 0, 0, []
1628797596.9033, 40, 0, 4170.769, 3764.615, 4094.872, 4108.718, 4144.103, 0, 0, []
1628797596.9112, 41, 0, 4164.615, 3753.846, 4086.154, 4116.41, 4134.359, 0, 0, []
1628797596.919, 42, 0, 4169.231, 3752.308, 4091.795, 4124.103, 4142.564, 0, 0, []
1628797596.927, 43, 0, 4174.872, 3757.436, 4104.103, 4128.205, 4160, 0, 0, []
1628797596.9349, 44, 0, 4171.282, 3767.179, 4107.692, 4126.667, 4156.41, 0, 0, []
1628797596.9428, 45, 0, 4158.462, 3765.641, 4103.077, 4116.41, 4138.974, 0, 0, []
1628797596.9507, 46, 0, 4150.256, 3771.795, 4103.077, 4111.795, 4137.436, 0, 0, []
1628797596.9587, 47, 0, 4148.205, 3785.641, 4104.615, 4114.359, 4135.897, 0, 0, []
1628797596.9666, 48, 0, 4128.718, 3783.59, 4090.769, 4103.077, 4117.436, 0, 0, []
1628797596.9746, 49, 0, 4115.897, 3791.795, 4077.949, 4097.436, 4112.308, 0, 0, []
1628797596.9824, 50, 0, 4149.744, 3836.923, 4102.051, 4123.077, 4140.513, 0, 0, []
1628797596.9902, 51, 0, 4174.872, 3881.538, 4130.769, 4145.128, 4162.051, 0, 0, []
1628797596.9981, 52, 0, 4151.282, 3898.974, 4125.641, 4136.41, 4148.718, 0, 0, []
1628797597.0059, 53, 0, 4155.385, 3925.128, 4128.718, 4143.077, 4156.923, 0, 0, []
1628797597.0138, 54, 0, 4203.077, 3965.641, 4157.436, 4181.538, 4201.026, 0, 0, []
1628797597.0215, 55, 0, 4215.385, 3974.359, 4166.154, 4197.436, 4218.462, 0, 0, []
1628797597.0294, 56, 0, 4193.846, 3944.615, 4156.41, 4180.513, 4202.564, 0, 0, []
1628797597.0372, 57, 0, 4185.641, 3928.205, 4156.923, 4170.769, 4192.308, 0, 0, []
1628797597.0451, 58, 0, 4186.667, 3929.231, 4154.359, 4172.821, 4194.359, 0, 0, []
1628797597.0529, 59, 0, 4191.282, 3927.179, 4149.231, 4174.359, 4201.026, 0, 0, []
1628797597.0608, 60, 0, 4203.077, 3931.795, 4157.949, 4178.974, 4209.231, 0, 0, []
1628797597.0687, 61, 0, 4200, 3940.513, 4155.385, 4181.538, 4202.051, 0, 0, []
1628797597.0767, 62, 0, 4194.359, 3955.385, 4141.026, 4173.333, 4196.41, 0, 0, []
1628797597.0846, 63, 0, 4210.256, 3976.923, 4143.59, 4174.872, 4212.308, 0, 0, []
1628797597.0926, 64, 0, 4199.487, 3969.744, 4128.718, 4164.103, 4196.41, 450, 0, []
1628797597.1004, 65, 0, 4146.154, 3937.949, 4078.974, 4123.59, 4140, 450, 0, []
1628797597.1084, 66, 0, 4116.41, 3934.359, 4046.667, 4094.872, 4107.692, 16181, 0, []
1628797597.1163, 67, 0, 4128.718, 3953.846, 4056.41, 4105.641, 4116.923, 450, 0, []
1628797597.1243, 68, 0, 4146.154, 3964.103, 4070.769, 4121.026, 4127.692, 16175, 0, []
1628797597.1322, 69, 0, 4152.821, 3971.795, 4074.872, 4120.513, 4131.795, 450, 0, []
1628797597.1399, 70, 0, 4150.769, 3989.231, 4080.513, 4115.385, 4138.462, 16092, 0, []
1628797597.1478, 71, 0, 4144.615, 4003.077, 4082.051, 4109.231, 4136.923, 450, 0, []
1628797597.1556, 72, 0, 4148.205, 3997.436, 4077.949, 4108.205, 4131.282, 450, 0, []
1628797597.1635, 73, 0, 4164.103, 3995.897, 4080.513, 4117.949, 4143.59, 16177, 0, []
1628797597.1713, 74, 0, 4177.436, 4007.692, 4093.333, 4129.744, 4166.667, 450, 0, []
1628797597.1791, 75, 0, 4166.154, 3993.846, 4093.333, 4119.487, 4157.436, 16192, 0, []
1628797597.1869, 76, 0, 4146.154, 3969.231, 4080.513, 4103.077, 4135.385, 450, 0, []
1628797597.1948, 77, 0, 4170.256, 3984.103, 4101.026, 4131.282, 4162.564, 450, 0, []
1628797597.2026, 78, 0, 4205.128, 4002.051, 4133.333, 4162.051, 4198.462, 450, 0, []
1628797597.2106, 79, 0, 4195.385, 3987.179, 4123.077, 4145.641, 4187.179, 16192, 0, []
1628797597.2184, 80, 0, 4177.436, 3973.846, 4104.615, 4130.256, 4166.667, 450, 0, []
1628797597.2264, 81, 0, 4185.128, 3967.179, 4110.769, 4134.359, 4169.744, 450, 0, []
1628797597.2343, 82, 0, 4191.795, 3950.769, 4110.769, 4125.128, 4176.923, 450, 0, []
1628797597.2423, 83, 0, 4192.821, 3938.462, 4099.487, 4127.179, 4182.564, 16192, 0, []
1628797597.2502, 84, 0, 4206.667, 3947.692, 4105.128, 4143.077, 4190.256, 450, 0, []
1628797597.2581, 85, 0, 4215.385, 3961.026, 4119.487, 4131.795, 4190.256, 450, 0, []
1628797597.266, 86, 0, 4208.205, 3947.179, 4110.769, 4108.205, 4180, 450, 0, []
1628797597.274, 87, 0, 4210.769, 3935.897, 4096.923, 4115.897, 4182.564, 16192, 0, []
1628797597.2819, 88, 0, 4236.41, 3963.59, 4116.923, 4149.231, 4209.744, 450, 0, []
1628797597.2899, 89, 0, 4236.923, 3981.026, 4129.744, 4146.154, 4210.769, 450, 0, []
1628797597.2977, 90, 0, 4204.615, 3964.103, 4100.513, 4108.205, 4173.846, 450, 0, []
1628797597.3055, 91, 0, 4216.923, 3969.231, 4086.667, 4115.385, 4176.923, 16192, 0, []
1628797597.3134, 92, 0, 4266.154, 3993.846, 4111.795, 4146.154, 4216.923, 450, 0, []
1628797597.3212, 93, 0, 4275.385, 3988.205, 4134.359, 4133.846, 4221.538, 450, 0, []
1628797597.3291, 94, 0, 4261.538, 3972.308, 4140.513, 4116.41, 4209.744, 450, 0, []
1628797597.3368, 95, 0, 4288.205, 3983.59, 4147.179, 4149.744, 4239.487, 16192, 0, []
1628797597.3447, 96, 0, 4313.846, 3998.974, 4136.923, 4167.179, 4260.513, 450, 0, []
1628797597.3525, 97, 0, 4297.949, 4011.795, 4101.026, 4122.564, 4234.872, 450, 0, []
1628797597.3605, 98, 0, 4316.923, 4057.436, 4090.256, 4099.487, 4247.179, 450, 0, []
1628797597.3684, 99, 0, 4404.103, 4137.949, 4141.026, 4143.077, 4327.692, 16192, 0, []
1628797597.3763, 100, 0, 4470.769, 4211.282, 4205.641, 4186.154, 4384.103, 450, 0, []
1628797597.3842, 101, 0, 4462.564, 4246.667, 4212.821, 4170.769, 4373.333, 450, 0, []
1628797597.3922, 102, 0, 4443.077, 4261.026, 4169.744, 4137.949, 4358.462, 450, 0, []
1628797597.4001, 103, 0, 4443.59, 4271.282, 4132.308, 4142.051, 4356.41, 16192, 0, []
1628797597.4081, 104, 0, 4433.333, 4270.769, 4116.41, 4157.949, 4334.359, 450, 0, []
1628797597.4159, 105, 0, 4425.128, 4256.41, 4117.949, 4159.487, 4321.026, 450, 0, []
1628797597.4239, 106, 0, 4437.436, 4242.051, 4134.359, 4152.308, 4340, 450, 0, []
1628797597.4318, 107, 0, 4451.282, 4247.692, 4159.487, 4155.385, 4370.256, 16192, 0, []
1628797597.4398, 108, 0, 4450.769, 4262.051, 4177.949, 4157.949, 4384.103, 450, 0, []
1628797597.4477, 109, 0, 4450.256, 4261.538, 4176.41, 4143.59, 4385.641, 450, 0, []
1628797597.4555, 110, 0, 4454.359, 4258.462, 4169.744, 4136.923, 4387.692, 450, 0, []
1628797597.4633, 111, 0, 4455.385, 4274.359, 4180, 4157.436, 4389.744, 16192, 0, []
1628797597.4711, 112, 0, 4459.487, 4284.615, 4183.077, 4176.41, 4387.692, 450, 0, []
1628797597.479, 113, 0, 4463.59, 4279.487, 4167.179, 4177.949, 4386.667, 450, 0, []
1628797597.4868, 114, 0, 4448.205, 4280, 4158.462, 4175.897, 4385.641, 450, 0, []
1628797597.4947, 115, 0, 4420, 4271.282, 4156.41, 4169.744, 4380.513, 16192, 0, []
1628797597.5024, 116, 0, 4428.718, 4261.026, 4153.333, 4165.641, 4383.077, 450, 0, []
1628797597.5103, 117, 0, 4447.692, 4275.385, 4155.897, 4166.154, 4385.641, 450, 0, []
1628797597.5181, 118, 0, 4433.846, 4280.513, 4162.051, 4158.462, 4374.872, 450, 0, []
1628797597.526, 119, 0, 4417.949, 4260.513, 4162.051, 4152.821, 4362.051, 16192, 0, []
1628797597.5338, 120, 0, 4416.923, 4259.487, 4162.051, 4156.41, 4344.103, 450, 0, []
1628797597.5417, 121, 0, 4403.077, 4272.821, 4157.436, 4154.359, 4322.564, 450, 0, []
1628797597.5496, 122, 0, 4376.923, 4267.692, 4147.179, 4154.872, 4303.077, 450, 0, []
1628797597.5576, 123, 0, 4352.308, 4259.487, 4144.103, 4159.487, 4270.256, 16192, 0, []
1628797597.5655, 124, 0, 4336.41, 4271.282, 4145.641, 4156.923, 4234.872, 450, 0, []
1628797597.5735, 125, 0, 4342.051, 4291.795, 4153.333, 4155.385, 4232.308, 450, 0, []
1628797597.5813, 126, 0, 4341.538, 4300, 4160, 4148.205, 4233.846, 450, 0, []
1628797597.5893, 127, 0, 4295.897, 4293.333, 4148.205, 4131.282, 4198.974, 16192, 0, []
1628797597.5972, 128, 0, 4245.128, 4290.256, 4129.231, 4124.103, 4161.538, 450, 0, []
1628797597.6052, 0, 0, 4224.615, 4287.179, 4119.487, 4125.641, 4148.718, 450, 0, []
1628797597.6131, 1, 0, 4212.821, 4278.974, 4119.487, 4117.949, 4140.513, 450, 0, []
1628797597.6208, 2, 0, 4200.513, 4277.436, 4128.718, 4118.974, 4132.821, 16179, 0, []
1628797597.6287, 3, 0, 4198.974, 4275.897, 4137.436, 4134.359, 4136.41, 450, 0, []
1628797597.6365, 4, 0, 4203.077, 4279.487, 4144.615, 4137.949, 4149.231, 16175, 0, []
1628797597.6444, 5, 0, 4198.974, 4303.59, 4152.308, 4126.667, 4152.821, 450, 0, []
1628797597.6522, 6, 0, 4183.077, 4324.103, 4149.231, 4116.923, 4141.538, 16131, 0, []
1628797597.66, 7, 0, 4165.128, 4332.821, 4141.538, 4127.692, 4131.282, 450, 0, []
1628797597.6678, 8, 0, 4150.769, 4338.462, 4135.897, 4137.436, 4122.051, 450, 0, []
1628797597.6757, 9, 0, 4138.462, 4329.231, 4124.615, 4120.513, 4104.615, 16166, 0, []
1628797597.6835, 10, 0, 4137.436, 4317.949, 4112.308, 4106.667, 4101.026, 450, 0, []
1628797597.6914, 11, 0, 4160.513, 4336.923, 4120, 4127.179, 4124.615, 16197, 0, []
1628797597.6991, 12, 0, 4171.282, 4348.205, 4136.41, 4145.641, 4142.564, 450, 0, []
1628797597.7071, 13, 0, 4154.359, 4326.667, 4137.949, 4136.923, 4135.897, 450, 0, []
1628797597.715, 14, 0, 4146.667, 4317.436, 4135.385, 4132.821, 4125.641, 450, 0, []
1628797597.723, 15, 0, 4154.359, 4333.333, 4137.436, 4139.487, 4129.744, 16197, 0, []
1628797597.7309, 16, 0, 4156.41, 4342.051, 4138.974, 4141.538, 4140, 0, 0, []
1628797597.7388, 17, 0, 4153.333, 4337.436, 4135.385, 4146.154, 4139.487, 0, 0, []
1628797597.7467, 18, 0, 4153.846, 4344.615, 4134.872, 4154.359, 4135.385, 0, 0, []
1628797597.7547, 19, 0, 4152.821, 4354.359, 4137.436, 4158.974, 4137.436, 0, 0, []
1628797597.7626, 20, 0, 4142.564, 4345.641, 4133.333, 4153.333, 4133.846, 0, 0, []
1628797597.7705, 21, 0, 4131.282, 4330.769, 4126.667, 4143.59, 4126.154, 0, 0, []
1628797597.7783, 22, 0, 4123.077, 4317.436, 4122.051, 4128.718, 4118.462, 0, 0, []
1628797597.7861, 23, 0, 4116.41, 4306.667, 4127.692, 4118.462, 4111.795, 0, 0, []
1628797597.794, 24, 0, 4128.718, 4312.821, 4149.744, 4134.872, 4126.667, 0, 0, []
1628797597.8018, 25, 0, 4150.256, 4319.487, 4161.538, 4158.974, 4152.821, 0, 0, []
1628797597.8097, 26, 0, 4147.179, 4290.256, 4155.385, 4157.949, 4154.872, 0, 0, []
1628797597.8174, 27, 0, 4136.41, 4253.846, 4163.59, 4154.359, 4150.769, 0, 0, []
1628797597.8253, 28, 0, 4140, 4233.333, 4173.333, 4168.205, 4156.41, 0, 0, []
1628797597.8331, 29, 0, 4131.282, 4196.923, 4154.359, 4169.744, 4142.051, 0, 0, []
1628797597.841, 30, 0, 4110.256, 4146.154, 4131.282, 4150.769, 4120.513, 0, 0, []
1628797597.8488, 31, 0, 4082.051, 4115.897, 4120, 4127.692, 4100, 0, 0, []
1628797597.8567, 32, 0, 4049.231, 4112.308, 4107.692, 4105.128, 4063.59, 0, 0, []
1628797597.8646, 33, 0, 4055.897, 4121.538, 4105.128, 4094.872, 4050.256, 0, 0, []
1628797597.8726, 34, 0, 4109.231, 4131.282, 4126.154, 4108.205, 4086.667, 0, 0, []
1628797597.8805, 35, 0, 4162.564, 4140.513, 4154.872, 4134.872, 4134.359, 0, 0, []
1628797597.8885, 36, 0, 4184.103, 4141.538, 4153.333, 4136.923, 4146.154, 0, 0, []
1628797597.8963, 37, 0, 4188.205, 4139.487, 4141.026, 4120.513, 4138.974, 0, 0, []
1628797597.9043, 38, 0, 4207.179, 4160, 4158.974, 4137.436, 4152.821, 0, 0, []
1628797597.9122, 39, 0, 4216.923, 4173.846, 4166.667, 4152.308, 4158.462, 0, 0, []
1628797597.92, 40, 0, 4184.615, 4146.667, 4130.256, 4121.538, 4122.051, 0, 0, []
1628797597.9279, 41, 0, 4167.692, 4132.821, 4112.821, 4112.821, 4097.436, 0, 0, []
1628797597.9356, 42, 0, 4201.026, 4170.256, 4138.974, 4145.128, 4124.103, 0, 0, []
1628797597.9435, 43, 0, 4201.538, 4192.821, 4144.615, 4137.436, 4125.641, 0, 0, []
1628797597.9513, 44, 0, 4154.359, 4183.077, 4113.846, 4093.333, 4077.436, 0, 0, []
1628797597.9592, 45, 0, 4135.385, 4188.718, 4094.359, 4077.949, 4052.821, 0, 0, []
1628797597.967, 46, 0, 4155.385, 4221.026, 4109.744, 4097.436, 4078.462, 0, 0, []
1628797597.9748, 47, 0, 4167.692, 4256.41, 4140, 4122.564, 4104.103, 0, 0, []
1628797597.9826, 48, 0, 4145.128, 4258.974, 4144.615, 4125.641, 4091.795, 0, 0, []
1628797597.9905, 49, 0, 4123.077, 4244.615, 4132.821, 4115.897, 4076.923, 0, 0, []
1628797597.9983, 50, 0, 4116.41, 4255.897, 4138.462, 4107.692, 4071.282, 0, 0, []
1628797598.0063, 51, 0, 4099.487, 4273.333, 4133.333, 4085.128, 4054.872, 0, 0, []
1628797598.0141, 52, 0, 4112.821, 4297.436, 4134.872, 4098.974, 4071.795, 0, 0, []
1628797598.0221, 53, 0, 4171.282, 4343.59, 4176.41, 4171.795, 4133.333, 0, 0, []
1628797598.03, 54, 0, 4188.205, 4370.256, 4185.128, 4195.897, 4152.308, 0, 0, []
1628797598.038, 55, 0, 4147.179, 4374.872, 4140.513, 4139.487, 4108.718, 0, 0, []
1628797598.0459, 56, 0, 4117.949, 4398.462, 4119.487, 4107.179, 4077.949, 0, 0, []
1628797598.0538, 57, 0, 4100.513, 4417.949, 4121.026, 4112.821, 4064.615, 0, 0, []
1628797598.0617, 58, 0, 4088.205, 4433.333, 4113.333, 4112.308, 4058.462, 0, 0, []
1628797598.0697, 59, 0, 4098.462, 4458.974, 4112.821, 4112.308, 4072.308, 0, 0, []
1628797598.0776, 60, 0, 4109.231, 4464.103, 4117.949, 4122.051, 4087.179, 0, 0, []
1628797598.0854, 61, 0, 4120.513, 4469.744, 4129.744, 4142.564, 4103.59, 0, 0, []
1628797598.0933, 62, 0, 4137.949, 4495.897, 4151.282, 4162.564, 4124.103, 0, 0, []
1628797598.101, 63, 0, 4133.333, 4500.513, 4147.692, 4160, 4120.513, 0, 0, []
1628797598.1089, 64, 0, 4114.359, 4494.872, 4129.231, 4153.333, 4100, 450, 0, []
1628797598.1167, 65, 0, 4122.051, 4506.667, 4140, 4166.154, 4108.718, 450, 0, []
1628797598.1246, 66, 0, 4153.333, 4514.872, 4166.154, 4179.487, 4137.949, 16193, 0, []
1628797598.1324, 67, 0, 4146.154, 4501.538, 4150.256, 4151.795, 4122.564, 450, 0, []
1628797598.1402, 68, 0, 4105.641, 4497.949, 4104.103, 4101.026, 4076.41, 16161, 0, []
1628797598.148, 69, 0, 4124.103, 4547.179, 4117.436, 4113.333, 4095.385, 450, 0, []
1628797598.1559, 70, 0, 4175.897, 4617.436, 4175.897, 4171.795, 4155.897, 16150, 0, []
1628797598.1637, 71, 0, 4157.949, 4640.513, 4172.308, 4172.821, 4146.154, 450, 0, []
1628797598.1717, 72, 0, 4112.308, 4640.513, 4128.205, 4132.308, 4098.462, 450, 0, []
1628797598.1795, 73, 0, 4115.385, 4667.179, 4129.231, 4122.564, 4097.436, 16156, 0, []
1628797598.1875, 74, 0, 4134.359, 4712.821, 4138.462, 4126.154, 4118.974, 450, 0, []
1628797598.1954, 75, 0, 4136.923, 4750.256, 4127.692, 4126.154, 4122.564, 16205, 0, []
1628797598.2034, 76, 0, 4131.795, 4768.718, 4133.333, 4132.821, 4111.795, 450, 0, []
1628797598.2113, 77, 0, 4118.974, 4783.077, 4131.795, 4124.615, 4099.487, 450, 0, []
1628797598.2192, 78, 0, 4118.462, 4801.538, 4116.41, 4116.41, 4097.949, 450, 0, []
1628797598.2271, 79, 0, 4124.615, 4799.487, 4111.282, 4121.026, 4096.923, 16205, 0, []
1628797598.2351, 80, 0, 4122.564, 4783.59, 4114.872, 4116.923, 4090.769, 450, 0, []
1628797598.243, 81, 0, 4120.513, 4782.564, 4113.333, 4106.667, 4092.308, 450, 0, []
1628797598.251, 82, 0, 4113.333, 4782.051, 4103.59, 4102.051, 4086.154, 450, 0, []
1628797598.2588, 83, 0, 4105.128, 4778.974, 4100, 4104.103, 4076.923, 16205, 0, []
1628797598.2666, 84, 0, 4102.564, 4780.513, 4106.154, 4107.179, 4081.538, 450, 0, []
1628797598.2745, 85, 0, 4106.667, 4781.538, 4119.487, 4121.026, 4094.872, 450, 0, []
1628797598.2823, 86, 0, 4122.564, 4787.692, 4131.795, 4141.026, 4109.744, 450, 0, []
1628797598.2902, 87, 0, 4138.462, 4800, 4134.359, 4135.897, 4118.462, 16205, 0, []
1628797598.2979, 88, 0, 4131.795, 4794.359, 4129.744, 4110.256, 4110.769, 450, 0, []
1628797598.3058, 89, 0, 4114.359, 4777.949, 4126.667, 4101.538, 4097.949, 450, 0, []
1628797598.3136, 90, 0, 4108.718, 4794.872, 4121.026, 4098.974, 4094.872, 450, 0, []
1628797598.3216, 91, 0, 4113.333, 4845.641, 4108.718, 4093.333, 4093.333, 16205, 0, []
1628797598.3295, 92, 0, 4123.59, 4883.077, 4115.897, 4110.256, 4100, 450, 0, []
1628797598.3374, 93, 0, 4146.667, 4905.641, 4146.667, 4141.026, 4126.667, 450, 0, []
1628797598.3453, 94, 0, 4168.718, 4923.59, 4160, 4151.282, 4147.692, 450, 0, []
1628797598.3533, 95, 0, 4169.744, 4920.513, 4154.359, 4143.077, 4142.051, 16205, 0, []
1628797598.3612, 96, 0, 4155.897, 4909.231, 4149.231, 4127.179, 4129.744, 450, 0, []
1628797598.3692, 97, 0, 4145.641, 4909.231, 4137.436, 4117.436, 4121.538, 450, 0, []
1628797598.377, 98, 0, 4138.974, 4901.026, 4128.205, 4121.026, 4112.308, 450, 0, []
1628797598.385, 99, 0, 4132.821, 4878.974, 4124.615, 4122.564, 4109.231, 16205, 0, []
1628797598.3929, 100, 0, 4145.128, 4877.436, 4121.538, 4125.128, 4122.051, 450, 0, []
1628797598.4007, 101, 0, 4161.538, 4888.205, 4121.026, 4129.744, 4128.718, 450, 0, []
1628797598.4086, 102, 0, 4149.231, 4874.359, 4116.923, 4124.103, 4118.974, 450, 0, []
1628797598.4163, 103, 0, 4134.872, 4852.308, 4114.872, 4117.949, 4123.077, 16205, 0, []
1628797598.4242, 104, 0, 4150.256, 4864.103, 4125.641, 4113.846, 4143.077, 450, 0, []
1628797598.432, 105, 0, 4165.128, 4883.59, 4132.821, 4110.769, 4147.692, 450, 0, []
1628797598.4399, 106, 0, 4149.744, 4870.769, 4119.487, 4107.179, 4125.128, 450, 0, []
1628797598.4477, 107, 0, 4142.051, 4855.385, 4109.231, 4107.179, 4112.821, 16205, 0, []
1628797598.4555, 108, 0, 4162.051, 4859.487, 4121.026, 4127.692, 4131.282, 450, 0, []
1628797598.4633, 109, 0, 4175.385, 4863.59, 4133.333, 4153.333, 4144.103, 450, 0, []
1628797598.4713, 110, 0, 4171.282, 4861.026, 4134.359, 4149.744, 4138.462, 450, 0, []
1628797598.4792, 111, 0, 4167.179, 4852.821, 4136.923, 4133.846, 4140.513, 16205, 0, []
1628797598.4872, 112, 0, 4172.308, 4845.128, 4136.41, 4135.897, 4147.692, 450, 0, []
1628797598.495, 113, 0, 4175.897, 4846.154, 4135.897, 4138.462, 4138.462, 450, 0, []
1628797598.503, 114, 0, 4178.462, 4838.974, 4136.41, 4130.769, 4131.795, 450, 0, []
1628797598.5109, 115, 0, 4184.615, 4816.41, 4128.718, 4126.154, 4128.205, 16205, 0, []
1628797598.5189, 116, 0, 4202.051, 4813.333, 4126.667, 4127.179, 4132.821, 450, 0, []
1628797598.5268, 117, 0, 4244.615, 4830.769, 4137.949, 4141.026, 4181.026, 450, 0, []
1628797598.5347, 118, 0, 4306.667, 4827.179, 4141.026, 4156.923, 4243.077, 450, 0, []
1628797598.5426, 119, 0, 4364.615, 4808.718, 4132.308, 4146.154, 4271.795, 16205, 0, []
1628797598.5504, 120, 0, 4403.59, 4810.256, 4134.872, 4129.744, 4300.513, 450, 0, []
1628797598.5583, 121, 0, 4439.487, 4820, 4152.821, 4147.179, 4356.923, 450, 0, []
1628797598.5662, 122, 0, 4473.846, 4815.385, 4161.538, 4172.821, 4395.897, 450, 0, []
1628797598.574, 123, 0, 4472.308, 4803.077, 4156.41, 4178.462, 4398.462, 16205, 0, []
1628797598.5818, 124, 0, 4427.179, 4787.692, 4151.282, 4182.564, 4382.564, 450, 0, []
1628797598.5897, 125, 0, 4367.179, 4772.308, 4148.205, 4193.333, 4356.41, 450, 0, []
1628797598.5975, 126, 0, 4315.897, 4762.051, 4148.205, 4197.949, 4332.308, 450, 0, []
1628797598.6054, 127, 0, 4276.923, 4750.769, 4153.846, 4202.564, 4311.282, 16205, 0, []
1628797598.6131, 128, 0, 4243.59, 4734.872, 4158.974, 4208.205, 4287.692, 450, 0, []
1628797598.621, 0, 0, 4203.077, 4721.026, 4154.359, 4200, 4256.41, 450, 0, []
1628797598.6288, 1, 0, 4160, 4705.128, 4142.564, 4183.077, 4219.487, 450, 0, []
1628797598.6368, 2, 0, 4137.436, 4678.462, 4142.564, 4176.41, 4194.872, 16190, 0, []
1628797598.6447, 3, 0, 4136.923, 4655.385, 4158.462, 4181.538, 4196.41, 450, 0, []
1628797598.6526, 4, 0, 4142.564, 4647.692, 4171.282, 4188.205, 4199.487, 16158, 0, []
1628797598.6605, 5, 0, 4140, 4631.282, 4164.103, 4190.256, 4188.205, 450, 0, []
1628797598.6685, 6, 0, 4134.872, 4604.615, 4150.256, 4187.692, 4184.103, 16150, 0, []
1628797598.6764, 7, 0, 4134.872, 4601.538, 4151.282, 4184.615, 4181.026, 450, 0, []
1628797598.6844, 8, 0, 4130.769, 4611.795, 4160, 4179.487, 4170.256, 450, 0, []
1628797598.6923, 9, 0, 4123.59, 4603.59, 4162.051, 4166.154, 4167.179, 16159, 0, []
1628797598.7002, 10, 0, 4121.026, 4589.231, 4152.821, 4156.923, 4162.564, 450, 0, []
1628797598.7081, 11, 0, 4118.974, 4580, 4137.949, 4153.846, 4152.308, 16198, 0, []
1628797598.7161, 12, 0, 4119.487, 4575.385, 4133.846, 4151.795, 4156.923, 450, 0, []
1628797598.724, 13, 0, 4130.769, 4584.615, 4136.923, 4158.974, 4171.282, 450, 0, []
1628797598.7318, 14, 0, 4140, 4591.795, 4131.282, 4169.744, 4169.231, 450, 0, []
1628797598.7396, 15, 0, 4137.949, 4580.513, 4124.615, 4170.769, 4165.641, 16198, 0, []
1628797598.7474, 16, 0, 4138.462, 4577.436, 4128.718, 4170.769, 4172.821, 0, 0, []
1628797598.7553, 17, 0, 4137.949, 4582.051, 4131.282, 4173.333, 4169.744, 0, 0, []
1628797598.7631, 18, 0, 4136.41, 4575.897, 4124.615, 4171.282, 4157.949, 0, 0, []
1628797598.771, 19, 0, 4135.897, 4567.179, 4116.41, 4168.718, 4154.872, 0, 0, []
1628797598.7787, 20, 0, 4133.333, 4567.692, 4119.487, 4166.667, 4155.897, 0, 0, []
1628797598.7867, 21, 0, 4130.769, 4574.359, 4122.564, 4164.615, 4150.769, 0, 0, []
1628797598.7946, 22, 0, 4118.462, 4563.59, 4106.667, 4151.282, 4130.256, 0, 0, []
1628797598.8026, 23, 0, 4105.128, 4547.692, 4095.897, 4136.923, 4117.949, 0, 0, []
1628797598.8105, 24, 0, 4126.154, 4564.615, 4116.41, 4155.385, 4138.974, 0, 0, []
1628797598.8184, 25, 0, 4158.974, 4583.077, 4136.41, 4181.538, 4164.103, 0, 0, []
1628797598.8263, 26, 0, 4154.872, 4565.641, 4124.615, 4177.436, 4158.462, 0, 0, []
1628797598.8343, 27, 0, 4141.538, 4556.923, 4113.846, 4172.308, 4147.692, 0, 0, []
1628797598.8422, 28, 0, 4152.308, 4574.872, 4120.513, 4186.667, 4154.872, 0, 0, []
1628797598.8502, 29, 0, 4157.436, 4571.282, 4123.59, 4190.256, 4157.436, 0, 0, []
1628797598.858, 30, 0, 4140, 4554.872, 4133.846, 4187.179, 4143.59, 0, 0, []
1628797598.8658, 31, 0, 4131.795, 4553.333, 4142.051, 4183.077, 4135.897, 0, 0, []
1628797598.8737, 32, 0, 4158.462, 4556.923, 4134.872, 4170.769, 4151.282, 0, 0, []
1628797598.8815, 33, 0, 4196.923, 4554.359, 4133.846, 4170.769, 4179.487, 0, 0, []
1628797598.8894, 34, 0, 4205.128, 4536.41, 4140, 4175.385, 4187.692, 0, 0, []
1628797598.8971, 35, 0, 4186.154, 4518.974, 4135.897, 4167.179, 4171.282, 0, 0, []
1628797598.905, 36, 0, 4173.333, 4519.487, 4121.538, 4165.128, 4155.897, 0, 0, []
1628797598.9128, 37, 0, 4173.333, 4525.128, 4113.846, 4171.282, 4156.923, 0, 0, []
1628797598.9207, 38, 0, 4171.795, 4518.974, 4116.41, 4161.538, 4154.872, 0, 0, []
1628797598.9285, 39, 0, 4164.615, 4509.231, 4117.436, 4147.179, 4140.513, 0, 0, []
1628797598.9363, 40, 0, 4162.564, 4505.641, 4119.487, 4149.231, 4140.513, 0, 0, []
1628797598.9442, 41, 0, 4171.282, 4506.667, 4134.359, 4161.026, 4154.872, 0, 0, []
1628797598.9521, 42, 0, 4185.128, 4510.769, 4152.308, 4169.231, 4167.179, 0, 0, []
1628797598.96, 43, 0, 4184.615, 4509.744, 4153.846, 4170.769, 4167.692, 0, 0, []
1628797598.968, 44, 0, 4170.256, 4504.615, 4145.641, 4163.077, 4158.462, 0, 0, []
1628797598.9758, 45, 0, 4176.41, 4502.564, 4150.256, 4161.538, 4164.103, 0, 0, []
1628797598.9838, 46, 0, 4196.923, 4506.667, 4154.872, 4168.718, 4181.026, 0, 0, []
1628797598.9917, 47, 0, 4200.513, 4508.718, 4151.795, 4168.205, 4181.026, 0, 0, []
1628797598.9997, 48, 0, 4195.897, 4509.744, 4153.846, 4167.692, 4173.846, 0, 0, []
1628797599.0076, 49, 0, 4200, 4507.692, 4154.872, 4172.821, 4175.897, 0, 0, []
1628797599.0155, 50, 0, 4198.974, 4494.359, 4148.205, 4169.231, 4171.795, 0, 0, []
1628797599.0234, 51, 0, 4195.385, 4490.256, 4144.103, 4159.487, 4172.821, 0, 0, []
1628797599.0314, 52, 0, 4203.59, 4505.641, 4152.821, 4166.667, 4188.205, 0, 0, []
1628797599.0393, 53, 0, 4209.744, 4508.205, 4161.538, 4178.462, 4191.282, 0, 0, []
1628797599.0471, 54, 0, 4216.41, 4496.923, 4158.974, 4173.846, 4189.744, 0, 0, []
1628797599.0549, 55, 0, 4231.795, 4505.128, 4151.282, 4169.744, 4207.179, 0, 0, []
1628797599.0627, 56, 0, 4241.026, 4511.795, 4147.692, 4180.513, 4221.026, 0, 0, []
1628797599.0706, 57, 0, 4233.333, 4496.41, 4139.487, 4178.974, 4210.256, 0, 0, []
1628797599.0784, 58, 0, 4214.872, 4483.077, 4120.513, 4148.718, 4190.769, 0, 0, []
1628797599.0863, 59, 0, 4201.538, 4484.103, 4117.949, 4130.769, 4178.974, 0, 0, []
1628797599.094, 60, 0, 4200.513, 4495.385, 4139.487, 4145.641, 4178.974, 0, 0, []
1628797599.102, 61, 0, 4202.564, 4503.077, 4142.051, 4154.872, 4178.462, 0, 0, []
1628797599.1099, 62, 0, 4208.205, 4504.615, 4132.308, 4149.744, 4186.667, 0, 0, []
1628797599.1179, 63, 0, 4231.795, 4514.359, 4148.205, 4156.923, 4209.231, 0, 0, []
1628797599.1258, 64, 0, 4249.231, 4523.59, 4163.077, 4160, 4215.897, 450, 0, []
1628797599.1337, 65, 0, 4232.821, 4507.692, 4151.795, 4149.744, 4197.949, 450, 0, []
1628797599.1416, 66, 0, 4221.026, 4489.744, 4151.282, 4159.487, 4191.795, 16190, 0, []
1628797599.1496, 67, 0, 4229.231, 4491.795, 4153.846, 4172.821, 4202.051, 450, 0, []
1628797599.1575, 68, 0, 4230.769, 4494.872, 4143.59, 4166.667, 4201.538, 16166, 0, []
1628797599.1654, 69, 0, 4230.256, 4495.385, 4141.026, 4171.795, 4202.564, 450, 0, []
1628797599.1732, 70, 0, 4242.051, 4501.026, 4147.179, 4185.641, 4213.846, 16150, 0, []
1628797599.181, 71, 0, 4251.795, 4509.231, 4150.769, 4178.462, 4221.538, 450, 0, []
1628797599.1889, 72, 0, 4245.641, 4504.615, 4145.641, 4154.872, 4218.462, 450, 0, []
1628797599.1967, 73, 0, 4243.077, 4502.564, 4145.128, 4147.692, 4216.41, 16159, 0, []
1628797599.2046, 74, 0, 4258.974, 4521.026, 4159.487, 4168.718, 4229.231, 450, 0, []
1628797599.2123, 75, 0, 4270.769, 4524.615, 4169.744, 4190.256, 4237.949, 16200, 0, []
1628797599.2202, 76, 0, 4266.667, 4505.128, 4157.949, 4193.333, 4232.821, 450, 0, []
1628797599.228, 77, 0, 4260, 4498.462, 4131.282, 4189.744, 4226.154, 450, 0, []
1628797599.2359, 78, 0, 4258.462, 4505.641, 4123.077, 4185.641, 4224.615, 450, 0, []
1628797599.2437, 79, 0, 4266.154, 4508.205, 4129.744, 4175.385, 4232.821, 16200, 0, []
1628797599.2516, 80, 0, 4275.897, 4502.051, 4138.974, 4163.59, 4241.538, 450, 0, []
1628797599.2595, 81, 0, 4269.231, 4482.564, 4147.692, 4146.154, 4232.308, 450, 0, []
1628797599.2675, 82, 0, 4257.436, 4470.769, 4149.744, 4134.359, 4218.462, 450, 0, []
1628797599.2754, 83, 0, 4251.795, 4475.385, 4145.128, 4135.897, 4209.744, 16200, 0, []
1628797599.2834, 84, 0, 4244.615, 4472.308, 4136.41, 4132.308, 4202.051, 450, 0, []
1628797599.2912, 85, 0, 4256.41, 4478.462, 4137.436, 4139.487, 4214.359, 450, 0, []
1628797599.2992, 86, 0, 4277.436, 4491.282, 4144.103, 4164.615, 4235.385, 450, 0, []
1628797599.3071, 87, 0, 4270.256, 4483.077, 4144.615, 4164.103, 4234.872, 16200, 0, []
1628797599.3151, 88, 0, 4263.077, 4466.154, 4145.641, 4150.256, 4229.744, 450, 0, []
1628797599.323, 89, 0, 4280, 4461.538, 4149.744, 4158.462, 4238.462, 450, 0, []
1628797599.3309, 90, 0, 4280, 4458.974, 4154.872, 4167.179, 4236.923, 450, 0, []
1628797599.3387, 91, 0, 4257.949, 4459.487, 4151.795, 4164.615, 4223.59, 16200, 0, []
1628797599.3465, 92, 0, 4248.718, 4465.641, 4137.436, 4163.59, 4213.333, 450, 0, []
1628797599.3544, 93, 0, 4245.128, 4461.538, 4126.154, 4155.897, 4201.538, 450, 0, []
1628797599.3622, 94, 0, 4237.436, 4457.436, 4120.513, 4145.128, 4193.846, 450, 0, []
1628797599.3701, 95, 0, 4247.179, 4461.026, 4125.128, 4148.718, 4203.077, 16200, 0, []
1628797599.3778, 96, 0, 4267.692, 4453.846, 4138.462, 4156.41, 4228.718, 450, 0, []
1628797599.3857, 97, 0, 4266.154, 4429.744, 4145.641, 4145.641, 4234.872, 450, 0, []
1628797599.3935, 98, 0, 4257.436, 4423.59, 4158.462, 4139.487, 4220, 450, 0, []
1628797599.4014, 99, 0, 4263.59, 4448.718, 4185.641, 4162.564, 4220, 16200, 0, []
1628797599.4092, 100, 0, 4254.359, 4464.103, 4190.769, 4181.026, 4215.897, 450, 0, []
1628797599.4171, 101, 0, 4233.846, 4460.513, 4167.179, 4178.974, 4197.436, 450, 0, []
1628797599.425, 102, 0, 4240, 4457.436, 4143.59, 4182.051, 4205.128, 450, 0, []
1628797599.433, 103, 0, 4255.897, 4447.692, 4123.077, 4181.026, 4225.641, 16200, 0, []
1628797599.4409, 104, 0, 4238.462, 4417.436, 4108.718, 4153.846, 4212.821, 450, 0, []
1628797599.4489, 105, 0, 4214.359, 4393.846, 4110.769, 4125.641, 4193.846, 450, 0, []
1628797599.4567, 106, 0, 4219.487, 4392.821, 4128.718, 4115.385, 4198.462, 450, 0, []
1628797599.4647, 107, 0, 4232.821, 4403.59, 4157.949, 4114.359, 4201.538, 16200, 0, []
1628797599.4726, 108, 0, 4235.385, 4414.359, 4190.769, 4120.513, 4198.974, 450, 0, []
1628797599.4805, 109, 0, 4233.333, 4410.769, 4202.564, 4138.462, 4208.718, 450, 0, []
1628797599.4884, 110, 0, 4236.923, 4401.026, 4181.026, 4156.923, 4212.308, 450, 0, []
1628797599.4961, 111, 0, 4230.256, 4394.872, 4145.128, 4152.821, 4192.821, 16200, 0, []
1628797599.504, 112, 0, 4216.923, 4386.154, 4120.513, 4140, 4179.487, 450, 0, []
1628797599.5118, 113, 0, 4218.974, 4371.282, 4115.385, 4146.154, 4188.205, 450, 0, []
1628797599.5197, 114, 0, 4231.795, 4367.692, 4126.667, 4164.615, 4201.026, 450, 0, []
1628797599.5275, 115, 0, 4230.769, 4372.308, 4145.128, 4169.744, 4199.487, 16200, 0, []
1628797599.5353, 116, 0, 4221.026, 4366.154, 4154.359, 4170.256, 4192.821, 450, 0, []
1628797599.5431, 117, 0, 4214.359, 4359.487, 4139.487, 4172.308, 4184.615, 450, 0, []
1628797599.551, 118, 0, 4203.077, 4358.974, 4118.974, 4157.949, 4176.923, 450, 0, []
1628797599.5588, 119, 0, 4196.923, 4348.205, 4111.282, 4135.385, 4173.846, 16200, 0, []
1628797599.5668, 120, 0, 4214.359, 4329.744, 4116.923, 4131.282, 4188.205, 450, 0, []
1628797599.5746, 121, 0, 4242.564, 4327.179, 4145.641, 4153.333, 4221.538, 450, 0, []
1628797599.5826, 122, 0, 4254.359, 4331.282, 4177.949, 4165.128, 4235.385, 450, 0, []
1628797599.5905, 123, 0, 4252.308, 4325.641, 4184.103, 4158.974, 4226.154, 16200, 0, []
1628797599.5985, 124, 0, 4245.128, 4326.154, 4169.231, 4157.949, 4216.41, 450, 0, []
1628797599.6064, 125, 0, 4235.897, 4337.949, 4149.744, 4156.41, 4210.769, 450, 0, []
1628797599.6143, 126, 0, 4233.333, 4341.026, 4136.41, 4157.949, 4206.667, 450, 0, []
1628797599.6222, 127, 0, 4232.308, 4326.667, 4130.769, 4160.513, 4196.41, 16200, 0, []
1628797599.6302, 128, 0, 4227.692, 4318.974, 4135.385, 4153.333, 4189.231, 450, 0, []
1628797599.6381, 0, 0, 4218.974, 4322.564, 4138.974, 4138.974, 4186.667, 450, 0, []
1628797599.6459, 1, 0, 4205.128, 4311.282, 4136.41, 4132.308, 4175.897, 450, 0, []
1628797599.6537, 2, 0, 4197.436, 4297.949, 4140.513, 4136.923, 4165.641, 16189, 0, []
1628797599.6615, 3, 0, 4201.538, 4301.538, 4130.769, 4140, 4169.744, 450, 0, []
1628797599.6694, 4, 0, 4200.513, 4303.59, 4097.949, 4136.923, 4166.154, 16171, 0, []
1628797599.6772, 5, 0, 4202.051, 4300, 4089.744, 4134.359, 4156.41, 450, 0, []
1628797599.6851, 6, 0, 4222.564, 4303.077, 4113.846, 4145.128, 4175.897, 16150, 0, []
1628797599.6928, 7, 0, 4238.462, 4308.205, 4125.641, 4153.333, 4201.026, 450, 0, []
1628797599.7007, 8, 0, 4236.41, 4308.718, 4126.154, 4155.897, 4203.59, 450, 0, []
1628797599.7085, 9, 0, 4227.179, 4305.641, 4132.821, 4166.667, 4194.872, 16162, 0, []
1628797599.7165, 10, 0, 4220, 4297.436, 4137.949, 4173.846, 4191.795, 450, 0, []
1628797599.7244, 11, 0, 4223.077, 4295.897, 4132.308, 4172.821, 4193.333, 16198, 0, []
1628797599.7323, 12, 0, 4227.692, 4300, 4127.692, 4163.59, 4191.795, 450, 0, []
1628797599.7402, 13, 0, 4234.359, 4300, 4135.385, 4156.41, 4194.872, 450, 0, []
1628797599.7482, 14, 0, 4255.897, 4296.923, 4144.615, 4161.538, 4211.282, 450, 0, []
1628797599.7561, 15, 0, 4266.154, 4285.128, 4135.897, 4164.615, 4214.359, 16198, 0, []
1628797599.7641, 16, 0, 4249.231, 4272.821, 4119.487, 4164.103, 4202.051, 0, 0, []
1628797599.7719, 17, 0, 4231.795, 4271.795, 4110.256, 4163.077, 4200.513, 0, 0, []
1628797599.7799, 18, 0, 4228.205, 4275.385, 4103.59, 4159.487, 4193.846, 0, 0, []
1628797599.7878, 19, 0, 4232.308, 4279.487, 4107.692, 4160.513, 4184.103, 0, 0, []
1628797599.7956, 20, 0, 4227.692, 4279.487, 4117.436, 4160, 4185.641, 0, 0, []
1628797599.8035, 21, 0, 4216.41, 4269.744, 4128.718, 4145.641, 4185.641, 0, 0, []
1628797599.8112, 22, 0, 4221.538, 4261.538, 4137.436, 4144.103, 4187.692, 0, 0, []
1628797599.8191, 23, 0, 4237.436, 4266.154, 4133.333, 4165.128, 4202.051, 0, 0, []
1628797599.8269, 24, 0, 4237.436, 4266.154, 4122.051, 4167.692, 4203.59, 0, 0, []
1628797599.8348, 25, 0, 4230.769, 4249.744, 4113.846, 4157.949, 4189.744, 0, 0, []
1628797599.8426, 26, 0, 4229.231, 4245.128, 4114.872, 4151.795, 4184.103, 0, 0, []
1628797599.8504, 27, 0, 4229.231, 4261.026, 4120, 4142.051, 4186.667, 0, 0, []
1628797599.8582, 28, 0, 4235.897, 4270.256, 4124.615, 4138.974, 4198.462, 0, 0, []
1628797599.8662, 29, 0, 4233.846, 4261.538, 4121.538, 4137.949, 4204.103, 0, 0, []
1628797599.8741, 30, 0, 4224.615, 4248.205, 4124.615, 4141.026, 4191.282, 0, 0, []
1628797599.8821, 31, 0, 4226.667, 4235.897, 4136.923, 4150.256, 4186.667, 0, 0, []
1628797599.8899, 32, 0, 4235.385, 4229.744, 4140.513, 4156.41, 4197.949, 0, 0, []
1628797599.8979, 33, 0, 4238.974, 4232.308, 4142.051, 4156.923, 4204.103, 0, 0, []
1628797599.9058, 34, 0, 4233.846, 4221.026, 4137.436, 4154.359, 4200, 0, 0, []
1628797599.9138, 35, 0, 4228.205, 4201.026, 4121.538, 4147.179, 4194.359, 0, 0, []
1628797599.9217, 36, 0, 4225.641, 4195.385, 4111.795, 4141.538, 4193.846, 0, 0, []
1628797599.9297, 37, 0, 4223.077, 4190.769, 4111.795, 4141.538, 4198.974, 0, 0, []
1628797599.9375, 38, 0, 4214.872, 4174.359, 4114.359, 4135.897, 4197.949, 0, 0, []
1628797599.9454, 39, 0, 4224.615, 4170.769, 4125.128, 4144.615, 4198.462, 0, 0, []
1628797599.9533, 40, 0, 4251.282, 4182.051, 4144.615, 4165.128, 4210.769, 0, 0, []
1628797599.9612, 41, 0, 4266.154, 4185.128, 4144.103, 4165.641, 4221.538, 0, 0, []
1628797599.9692, 42, 0, 4267.692, 4185.641, 4126.154, 4155.897, 4223.59, 0, 0, []
1628797599.9769, 43, 0, 4278.462, 4183.59, 4122.564, 4157.436, 4233.333, 0, 0, []
1628797599.9848, 44, 0, 4308.718, 4172.308, 4122.051, 4157.949, 4258.974, 0, 0, []
1628797599.9926, 45, 0, 4353.333, 4168.718, 4114.872, 4153.333, 4291.795, 0, 0, []
1628797600.0005, 46, 0, 4418.974, 4185.128, 4130.769, 4162.051, 4334.872, 0, 0, []
1628797600.0083, 47, 0, 4476.923, 4194.359, 4153.333, 4173.846, 4377.949, 0, 0, []
1628797600.0161, 48, 0, 4497.436, 4187.692, 4148.205, 4175.385, 4403.59, 0, 0, []
1628797600.0239, 49, 0, 4507.179, 4183.59, 4139.487, 4175.385, 4416.41, 0, 0, []
1628797600.0319, 50, 0, 4515.385, 4180.513, 4141.538, 4171.282, 4417.436, 0, 0, []
1628797600.0398, 51, 0, 4495.897, 4171.795, 4137.436, 4163.077, 4402.564, 0, 0, []
1628797600.0478, 52, 0, 4462.564, 4170.256, 4142.051, 4164.103, 4392.821, 0, 0, []
1628797600.0556, 53, 0, 4440.513, 4174.872, 4155.385, 4177.436, 4388.205, 0, 0, []
1628797600.0636, 54, 0, 4421.026, 4169.744, 4154.359, 4186.154, 4368.205, 0, 0, []
1628797600.0715, 55, 0, 4403.59, 4165.641, 4152.308, 4184.615, 4349.744, 0, 0, []
1628797600.0795, 56, 0, 4389.744, 4171.795, 4157.436, 4185.641, 4343.077, 0, 0, []
1628797600.0874, 57, 0, 4375.897, 4164.615, 4151.282, 4182.564, 4328.205, 0, 0, []
1628797600.0953, 58, 0, 4356.41, 4140, 4133.333, 4170.256, 4307.692, 0, 0, []
1628797600.1032, 59, 0, 4331.282, 4131.795, 4120.513, 4164.615, 4291.282, 0, 0, []
1628797600.111, 60, 0, 4314.359, 4147.179, 4123.59, 4171.282, 4279.487, 0, 0, []
1628797600.1189, 61, 0, 4314.359, 4158.974, 4138.974, 4166.667, 4270.256, 0, 0, []
1628797600.1267, 62, 0, 4310.256, 4157.436, 4150.256, 4156.923, 4264.615, 0, 0, []
1628797600.1345, 63, 0, 4298.462, 4153.333, 4155.897, 4172.308, 4265.128, 0, 0, []
1628797600.1423, 64, 0, 4294.359, 4151.282, 4156.923, 4191.282, 4267.692, 450, 0, []
1628797600.1502, 65, 0, 4293.333, 4151.282, 4152.821, 4184.615, 4262.564, 450, 0, []
1628797600.158, 66, 0, 4294.359, 4152.308, 4167.179, 4181.026, 4260, 16189, 0, []
1628797600.1659, 67, 0, 4297.949, 4155.385, 4184.103, 4194.872, 4268.205, 450, 0, []
1628797600.1736, 68, 0, 4292.821, 4153.846, 4168.718, 4193.846, 4265.128, 16177, 0, []
1628797600.1816, 69, 0, 4282.564, 4145.641, 4143.077, 4172.308, 4251.795, 450, 0, []
1628797600.1895, 70, 0, 4276.41, 4132.308, 4133.846, 4156.41, 4243.077, 16126, 0, []
1628797600.1975, 71, 0, 4266.154, 4124.103, 4132.308, 4152.821, 4234.872, 450, 0, []
1628797600.2054, 72, 0, 4255.385, 4128.205, 4128.718, 4150.256, 4226.667, 450, 0, []
1628797600.2133, 73, 0, 4260.513, 4138.974, 4136.41, 4158.462, 4231.282, 16164, 0, []
1628797600.2212, 74, 0, 4267.179, 4135.897, 4152.821, 4169.231, 4236.923, 450, 0, []
1628797600.2292, 75, 0, 4262.051, 4122.564, 4156.923, 4161.026, 4231.282, 16198, 0, []
1628797600.2371, 76, 0, 4260.513, 4127.179, 4148.205, 4151.282, 4229.231, 450, 0, []
1628797600.2451, 77, 0, 4263.077, 4140.513, 4136.41, 4162.051, 4228.205, 450, 0, []
1628797600.2529, 78, 0, 4265.128, 4134.872, 4135.385, 4169.744, 4225.128, 450, 0, []
1628797600.2607, 79, 0, 4262.564, 4123.077, 4146.154, 4167.692, 4226.667, 16198, 0, []
1628797600.2686, 80, 0, 4255.897, 4131.795, 4153.333, 4169.744, 4226.667, 450, 0, []
1628797600.2764, 81, 0, 4249.231, 4138.974, 4145.641, 4161.026, 4220, 450, 0, []
1628797600.2843, 82, 0, 4246.154, 4127.692, 4137.949, 4140, 4211.282, 450, 0, []
1628797600.292, 83, 0, 4243.077, 4128.205, 4143.077, 4136.41, 4207.692, 16198, 0, []
1628797600.2999, 84, 0, 4242.051, 4139.487, 4144.615, 4150.256, 4205.128, 450, 0, []
1628797600.3077, 85, 0, 4237.436, 4130.769, 4136.923, 4146.667, 4201.538, 450, 0, []
1628797600.3156, 86, 0, 4226.154, 4115.385, 4130.769, 4134.872, 4194.359, 450, 0, []
1628797600.3234, 87, 0, 4231.795, 4122.051, 4137.949, 4146.154, 4195.897, 16198, 0, []
1628797600.3312, 88, 0, 4252.308, 4134.359, 4153.333, 4159.487, 4212.821, 450, 0, []
1628797600.339, 89, 0, 4255.385, 4136.41, 4149.744, 4155.897, 4218.462, 450, 0, []
1628797600.347, 90, 0, 4242.051, 4137.949, 4132.821, 4153.846, 4205.641, 450, 0, []
1628797600.3549, 91, 0, 4230.769, 4135.385, 4134.359, 4152.821, 4190.769, 16198, 0, []
1628797600.3629, 92, 0, 4218.974, 4128.718, 4143.59, 4141.538, 4180.513, 450, 0, []
1628797600.3707, 93, 0, 4202.564, 4117.436, 4132.308, 4135.385, 4165.641, 450, 0, []
1628797600.3787, 94, 0, 4193.846, 4107.692, 4125.128, 4144.615, 4157.949, 450, 0, []
1628797600.3866, 95, 0, 4197.949, 4109.744, 4136.923, 4154.359, 4170.769, 16198, 0, []
1628797600.3946, 96, 0, 4205.128, 4114.359, 4142.564, 4152.821, 4173.333, 450, 0, []
1628797600.4025, 97, 0, 4213.333, 4125.641, 4145.128, 4152.308, 4167.692, 450, 0, []
1628797600.4102, 98, 0, 4219.487, 4141.538, 4158.462, 4155.385, 4178.462, 450, 0, []
1628797600.4181, 99, 0, 4204.615, 4134.359, 4153.333, 4143.077, 4173.846, 16198, 0, []
1628797600.4259, 100, 0, 4187.179, 4116.923, 4126.154, 4133.333, 4150.256, 450, 0, []
1628797600.4338, 101, 0, 4196.41, 4126.667, 4117.949, 4142.051, 4155.385, 450, 0, []
1628797600.4416, 102, 0, 4213.846, 4143.59, 4130.256, 4145.128, 4175.897, 450, 0, []
1628797600.4494, 103, 0, 4217.436, 4144.103, 4137.436, 4140, 4175.897, 16198, 0, []
1628797600.4572, 104, 0, 4225.128, 4152.821, 4155.385, 4151.795, 4185.128, 450, 0, []
1628797600.4651, 105, 0, 4236.923, 4157.436, 4162.564, 4164.615, 4206.667, 450, 0, []
1628797600.4729, 106, 0, 4230.769, 4145.128, 4126.667, 4152.821, 4197.436, 450, 0, []
1628797600.4808, 107, 0, 4211.795, 4140, 4092.821, 4133.333, 4172.821, 16198, 0, []
1628797600.4885, 108, 0, 4200, 4138.974, 4095.385, 4123.59, 4165.128, 450, 0, []
1628797600.4965, 109, 0, 4207.179, 4139.487, 4113.846, 4124.615, 4174.359, 450, 0, []
1628797600.5044, 110, 0, 4221.026, 4150.256, 4126.154, 4133.333, 4186.667, 450, 0, []
1628797600.5124, 111, 0, 4218.974, 4149.744, 4121.538, 4138.974, 4187.692, 16198, 0, []
1628797600.5203, 112, 0, 4199.487, 4125.641, 4102.564, 4135.385, 4171.282, 450, 0, []
1628797600.5283, 113, 0, 4190.769, 4113.333, 4097.436, 4133.333, 4161.026, 450, 0, []
1628797600.5361, 114, 0, 4210.256, 4128.718, 4112.308, 4141.026, 4179.487, 450, 0, []
1628797600.5441, 115, 0, 4220.513, 4138.462, 4108.718, 4143.077, 4192.821, 16198, 0, []
1628797600.552, 116, 0, 4195.385, 4132.821, 4092.821, 4143.077, 4174.359, 450, 0, []
1628797600.56, 117, 0, 4186.154, 4133.846, 4096.41, 4152.308, 4160, 450, 0, []
1628797600.5679, 118, 0, 4222.564, 4149.231, 4107.179, 4158.974, 4176.923, 450, 0, []
1628797600.5756, 119, 0, 4244.103, 4154.872, 4102.564, 4150.769, 4189.231, 16198, 0, []
1628797600.5835, 120, 0, 4231.795, 4140.513, 4090.769, 4138.974, 4177.949, 450, 0, []
1628797600.5913, 121, 0, 4230.256, 4142.051, 4093.846, 4137.949, 4171.282, 450, 0, []
1628797600.5992, 122, 0, 4234.872, 4156.41, 4101.026, 4140.513, 4174.872, 450, 0, []
1628797600.607, 123, 0, 4223.077, 4155.897, 4091.795, 4140, 4169.744, 16198, 0, []
1628797600.6148, 124, 0, 4205.128, 4149.744, 4079.487, 4135.897, 4153.846, 450, 0, []
1628797600.6226, 125, 0, 4200, 4155.897, 4082.564, 4136.923, 4149.231, 450, 0, []
1628797600.6306, 126, 0, 4203.59, 4160.513, 4087.179, 4137.949, 4155.385, 450, 0, []
1628797600.6385, 127, 0, 4204.103, 4152.308, 4090.769, 4138.974, 4157.436, 16198, 0, []
1628797600.6465, 128, 0, 4201.538, 4151.795, 4100, 4135.897, 4149.231, 450, 0, []
1628797600.6543, 0, 0, 4197.436, 4160, 4102.051, 4125.128, 4140.513, 450, 0, []
1628797600.6623, 1, 0, 4201.026, 4168.718, 4103.59, 4131.282, 4151.282, 450, 0, []
1628797600.6702, 2, 0, 4215.897, 4177.436, 4121.026, 4154.872, 4173.846, 16189, 0, []
1628797600.6782, 3, 0, 4217.436, 4176.923, 4132.821, 4157.949, 4172.308, 450, 0, []
1628797600.6861, 4, 0, 4200.513, 4160, 4117.949, 4141.538, 4149.744, 16177, 0, []
1628797600.694, 5, 0, 4195.385, 4154.359, 4107.692, 4133.846, 4147.692, 450, 0, []
1628797600.7019, 6, 0, 4203.59, 4170.769, 4108.205, 4127.692, 4160, 16139, 0, []
1628797600.7099, 7, 0, 4196.41, 4173.333, 4093.846, 4114.872, 4153.846, 450, 0, []
1628797600.7178, 8, 0, 4192.821, 4163.59, 4088.205, 4124.103, 4149.744, 450, 0, []
1628797600.7258, 9, 0, 4208.718, 4177.949, 4102.564, 4149.231, 4164.615, 16163, 0, []
1628797600.7336, 10, 0, 4219.487, 4186.667, 4110.256, 4153.846, 4183.077, 450, 0, []
1628797600.7414, 11, 0, 4217.436, 4174.872, 4105.128, 4141.538, 4185.128, 16198, 0, []
1628797600.7493, 12, 0, 4212.821, 4172.308, 4106.667, 4140.513, 4175.897, 450, 0, []
1628797600.7571, 13, 0, 4218.462, 4187.179, 4117.949, 4151.282, 4176.923, 450, 0, []
1628797600.765, 14, 0, 4225.641, 4188.205, 4123.077, 4158.974, 4189.744, 450, 0, []
1628797600.7727, 15, 0, 4223.59, 4173.846, 4123.59, 4156.41, 4192.308, 16198, 0, []
1628797600.7806, 16, 0, 4212.821, 4173.333, 4119.487, 4144.615, 4184.103, 0, 0, []
1628797600.7884, 17, 0, 4205.641, 4182.051, 4104.103, 4131.282, 4180, 0, 0, []
1628797600.7963, 18, 0, 4213.333, 4183.077, 4097.949, 4134.359, 4185.641, 0, 0, []
1628797600.8041, 19, 0, 4216.923, 4183.077, 4112.821, 4142.051, 4185.128, 0, 0, []
1628797600.812, 20, 0, 4203.077, 4187.179, 4119.487, 4135.897, 4173.333, 0, 0, []
1628797600.8199, 21, 0, 4195.385, 4193.333, 4113.846, 4138.462, 4174.872, 0, 0, []
1628797600.8279, 22, 0, 4204.103, 4196.923, 4112.308, 4152.821, 4184.615, 0, 0, []
1628797600.8358, 23, 0, 4200.513, 4192.821, 4105.128, 4147.692, 4177.949, 0, 0, []
1628797600.8438, 24, 0, 4182.051, 4181.538, 4086.154, 4122.564, 4161.538, 0, 0, []
1628797600.8516, 25, 0, 4178.462, 4181.538, 4083.59, 4103.077, 4154.359, 0, 0, []
1628797600.8596, 26, 0, 4188.718, 4193.333, 4109.744, 4103.077, 4162.051, 0, 0, []
1628797600.8675, 27, 0, 4186.154, 4196.923, 4124.615, 4114.872, 4165.641, 0, 0, []
1628797600.8755, 28, 0, 4169.231, 4186.154, 4108.205, 4121.538, 4154.359, 0, 0, []
1628797600.8834, 29, 0, 4164.615, 4170.769, 4091.795, 4126.154, 4146.154, 0, 0, []
1628797600.8911, 30, 0, 4176.923, 4169.744, 4090.769, 4137.436, 4153.333, 0, 0, []
1628797600.899, 31, 0, 4190.769, 4180.513, 4083.59, 4140, 4161.538, 0, 0, []
1628797600.9068, 32, 0, 4200, 4186.667, 4074.359, 4122.564, 4170.769, 0, 0, []
1628797600.9147, 33, 0, 4193.846, 4184.103, 4089.744, 4103.59, 4171.282, 0, 0, []
1628797600.9225, 34, 0, 4181.026, 4172.821, 4111.282, 4094.872, 4155.897, 0, 0, []
1628797600.9303, 35, 0, 4178.462, 4165.641, 4111.282, 4096.41, 4151.795, 0, 0, []
1628797600.9381, 36, 0, 4185.128, 4169.744, 4104.103, 4107.179, 4170.256, 0, 0, []
1628797600.946, 37, 0, 4195.897, 4174.359, 4104.103, 4120, 4188.718, 0, 0, []
1628797600.9539, 38, 0, 4196.923, 4171.282, 4101.026, 4122.051, 4183.077, 0, 0, []
1628797600.9618, 39, 0, 4186.667, 4173.333, 4097.436, 4123.077, 4164.615, 0, 0, []
1628797600.9695, 40, 0, 4190.256, 4180.513, 4107.692, 4133.333, 4162.051, 0, 0, []
1628797600.9775, 41, 0, 4199.487, 4174.872, 4113.333, 4142.564, 4167.179, 0, 0, []
1628797600.9854, 42, 0, 4192.308, 4166.154, 4106.667, 4137.949, 4163.59, 0, 0, []
1628797600.9934, 43, 0, 4203.077, 4168.718, 4112.821, 4134.359, 4175.897, 0, 0, []
1628797601.0013, 44, 0, 4251.282, 4183.077, 4141.026, 4146.154, 4218.462, 0, 0, []
1628797601.0092, 45, 0, 4309.231, 4205.128, 4161.538, 4158.462, 4265.641, 0, 0, []
1628797601.0171, 46, 0, 4375.385, 4222.051, 4164.103, 4162.051, 4308.718, 0, 0, []
1628797601.0251, 47, 0, 4429.231, 4217.949, 4153.333, 4150.256, 4341.026, 0, 0, []
1628797601.033, 48, 0, 4441.026, 4197.949, 4129.231, 4123.077, 4346.667, 0, 0, []
1628797601.0408, 49, 0, 4441.538, 4185.128, 4108.205, 4110.769, 4340, 0, 0, []
1628797601.0486, 50, 0, 4452.821, 4186.667, 4110.256, 4131.795, 4345.641, 0, 0, []
1628797601.0564, 51, 0, 4442.051, 4189.744, 4128.718, 4148.718, 4352.308, 0, 0, []
1628797601.0643, 52, 0, 4404.103, 4190.256, 4141.538, 4137.949, 4337.436, 0, 0, []
1628797601.0721, 53, 0, 4376.923, 4195.385, 4151.282, 4137.436, 4315.385, 0, 0, []
1628797601.08, 54, 0, 4361.538, 4200, 4158.974, 4157.949, 4308.205, 0, 0, []
1628797601.0877, 55, 0, 4335.385, 4192.308, 4147.179, 4161.026, 4300.513, 0, 0, []
1628797601.0957, 56, 0, 4309.231, 4180, 4132.821, 4137.436, 4278.462, 0, 0, []
1628797601.1036, 57, 0, 4293.846, 4181.026, 4132.821, 4120.513, 4254.359, 0, 0, []
1628797601.1116, 58, 0, 4275.897, 4186.667, 4132.308, 4122.051, 4232.821, 0, 0, []
1628797601.1195, 59, 0, 4243.59, 4165.128, 4119.487, 4120, 4208.205, 0, 0, []
1628797601.1275, 60, 0, 4233.333, 4150.769, 4124.615, 4131.795, 4207.179, 0, 0, []
1628797601.1353, 61, 0, 4257.949, 4177.949, 4161.538, 4168.718, 4240.513, 0, 0, []
1628797601.1433, 62, 0, 4268.205, 4190.256, 4175.385, 4180.513, 4254.359, 0, 0, []
1628797601.1512, 63, 0, 4245.641, 4177.436, 4155.385, 4156.41, 4229.744, 0, 0, []
1628797601.1592, 64, 0, 4227.179, 4180, 4141.026, 4138.462, 4205.641, 450, 0, []
1628797601.1671, 65, 0, 4222.051, 4180, 4133.333, 4129.231, 4191.282, 450, 0, []
1628797601.1749, 66, 0, 4210.769, 4163.077, 4129.744, 4116.923, 4181.538, 16188, 0, []
1628797601.1828, 67, 0, 4217.436, 4171.795, 4146.667, 4125.128, 4193.846, 450, 0, []
1628797601.1906, 68, 0, 4236.923, 4190.256, 4161.026, 4148.718, 4221.026, 16177, 0, []
1628797601.1985, 69, 0, 4227.692, 4179.487, 4149.231, 4158.974, 4220, 450, 0, []
1628797601.2063, 70, 0, 4215.385, 4165.641, 4132.821, 4156.923, 4202.051, 16142, 0, []
1628797601.2141, 71, 0, 4230.256, 4166.667, 4125.128, 4154.359, 4202.051, 450, 0, []
1628797601.2219, 72, 0, 4234.359, 4170.769, 4119.487, 4145.128, 4203.59, 450, 0, []
1628797601.2298, 73, 0, 4207.692, 4167.692, 4114.872, 4120.513, 4181.538, 16170, 0, []
1628797601.2376, 74, 0, 4184.615, 4157.436, 4106.667, 4090.769, 4151.282, 450, 0, []
1628797601.2455, 75, 0, 4178.462, 4148.718, 4098.462, 4083.077, 4148.205, 16198, 0, []
1628797601.2532, 76, 0, 4190.256, 4158.974, 4108.205, 4103.59, 4173.333, 450, 0, []
1628797601.2611, 77, 0, 4215.385, 4177.436, 4131.282, 4128.205, 4200, 450, 0, []
1628797601.2689, 78, 0, 4226.154, 4184.103, 4147.179, 4142.051, 4206.154, 450, 0, []
1628797601.2769, 79, 0, 4218.974, 4191.282, 4160.513, 4152.308, 4200.513, 16198, 0, []
1628797601.2848, 80, 0, 4217.949, 4197.436, 4173.333, 4163.077, 4201.026, 450, 0, []
1628797601.2927, 81, 0, 4222.564, 4188.205, 4164.615, 4162.051, 4204.103, 450, 0, []
1628797601.3006, 82, 0, 4217.949, 4176.41, 4141.026, 4145.128, 4197.436, 450, 0, []
1628797601.3086, 83, 0, 4214.359, 4173.333, 4130.769, 4138.462, 4190.256, 16198, 0, []
1628797601.3165, 84, 0, 4219.487, 4173.846, 4136.923, 4150.256, 4191.282, 450, 0, []
1628797601.3245, 85, 0, 4213.846, 4178.974, 4138.974, 4149.744, 4190.256, 450, 0, []
1628797601.3323, 86, 0, 4198.462, 4183.59, 4136.923, 4135.385, 4176.41, 450, 0, []
1628797601.3403, 87, 0, 4197.949, 4183.59, 4147.692, 4136.923, 4168.718, 16198, 0, []
1628797601.3482, 88, 0, 4204.103, 4185.641, 4154.359, 4146.154, 4174.359, 450, 0, []
1628797601.356, 89, 0, 4201.026, 4189.231, 4137.949, 4142.051, 4176.41, 450, 0, []
1628797601.3639, 90, 0, 4207.179, 4193.846, 4121.026, 4135.897, 4178.462, 450, 0, []
1628797601.3716, 91, 0, 4215.385, 4202.564, 4121.026, 4134.359, 4176.923, 16198, 0, []
1628797601.3795, 92, 0, 4204.103, 4206.667, 4122.564, 4134.359, 4169.744, 450, 0, []
1628797601.3873, 93, 0, 4200, 4199.487, 4124.615, 4135.897, 4172.821, 450, 0, []
1628797601.3952, 94, 0, 4198.974, 4190.769, 4118.974, 4127.179, 4169.231, 450, 0, []
1628797601.403, 95, 0, 4185.128, 4189.231, 4104.103, 4116.41, 4153.333, 16198, 0, []
1628797601.4108, 96, 0, 4202.051, 4212.308, 4119.487, 4138.974, 4176.41, 450, 0, []
1628797601.4186, 97, 0, 4246.154, 4247.692, 4154.872, 4180.513, 4225.641, 450, 0, []
1628797601.4266, 98, 0, 4237.949, 4238.462, 4143.077, 4178.974, 4213.846, 450, 0, []
1628797601.4345, 99, 0, 4184.615, 4198.974, 4096.41, 4144.103, 4161.538, 16198, 0, []
1628797601.4425, 100, 0, 4166.667, 4195.385, 4085.641, 4132.821, 4148.205, 450, 0, []
1628797601.4503, 101, 0, 4176.923, 4208.718, 4100, 4136.923, 4156.41, 450, 0, []
1628797601.4583, 102, 0, 4163.59, 4191.282, 4089.231, 4122.051, 4137.949, 450, 0, []
1628797601.4662, 103, 0, 4145.641, 4178.462, 4067.692, 4107.692, 4123.077, 16198, 0, []
1628797601.4742, 104, 0, 4158.462, 4195.897, 4076.923, 4122.564, 4142.051, 450, 0, []
1628797601.4821, 105, 0, 4184.615, 4216.923, 4108.718, 4149.231, 4161.538, 450, 0, []
1628797601.49, 106, 0, 4183.077, 4218.462, 4122.051, 4154.872, 4158.974, 450, 0, []
1628797601.4979, 107, 0, 4170.769, 4216.41, 4124.615, 4152.821, 4154.359, 16198, 0, []
1628797601.5057, 108, 0, 4174.872, 4226.667, 4128.205, 4156.923, 4160, 450, 0, []
1628797601.5136, 109, 0, 4171.795, 4222.564, 4117.949, 4144.615, 4154.359, 450, 0, []
1628797601.5214, 110, 0, 4166.667, 4206.154, 4111.795, 4125.128, 4149.231, 450, 0, []
1628797601.5292, 111, 0, 4178.462, 4209.231, 4116.41, 4126.154, 4157.436, 16198, 0, []
1628797601.537, 112, 0, 4176.41, 4209.231, 4104.103, 4122.564, 4152.308, 450, 0, []
1628797601.5449, 113, 0, 4155.385, 4192.308, 4088.205, 4101.026, 4133.846, 450, 0, []
1628797601.5527, 114, 0, 4151.795, 4202.051, 4098.974, 4103.59, 4137.949, 450, 0, []
1628797601.5606, 115, 0, 4156.923, 4216.923, 4114.872, 4132.821, 4150.256, 16198, 0, []
1628797601.5683, 116, 0, 4150.769, 4203.077, 4111.795, 4141.538, 4144.615, 450, 0, []
1628797601.5763, 117, 0, 4155.385, 4198.974, 4108.718, 4125.641, 4145.128, 450, 0, []
1628797601.5842, 118, 0, 4163.59, 4213.846, 4109.744, 4120.513, 4151.795, 450, 0, []
1628797601.5922, 119, 0, 4164.615, 4224.103, 4114.359, 4132.821, 4151.795, 16198, 0, []
1628797601.6001, 120, 0, 4173.846, 4235.385, 4133.333, 4142.051, 4161.026, 450, 0, []
1628797601.608, 121, 0, 4186.154, 4247.179, 4147.179, 4143.59, 4174.872, 450, 0, []
1628797601.6159, 122, 0, 4194.359, 4248.205, 4143.077, 4152.308, 4178.974, 450, 0, []
1628797601.6239, 123, 0, 4198.974, 4244.103, 4147.179, 4170.769, 4186.154, 16198, 0, []
1628797601.6318, 124, 0, 4202.564, 4247.692, 4168.718, 4190.256, 4199.487, 450, 0, []
1628797601.6398, 125, 0, 4214.359, 4261.026, 4179.487, 4208.718, 4207.692, 450, 0, []
1628797601.6476, 126, 0, 4213.846, 4264.103, 4158.974, 4199.487, 4200, 450, 0, []
1628797601.6556, 127, 0, 4169.231, 4227.179, 4119.487, 4148.718, 4163.077, 16198, 0, []
1628797601.6635, 128, 0, 4122.051, 4183.59, 4088.205, 4105.641, 4123.59, 450, 0, []
1628797601.6713, 0, 0, 4126.667, 4182.051, 4082.051, 4106.154, 4120, 450, 0, []
1628797601.6792, 1, 0, 4151.282, 4203.59, 4096.41, 4128.205, 4141.538, 450, 0, []
1628797601.6869, 2, 0, 4154.359, 4208.205, 4102.051, 4137.949, 4152.821, 16185, 0, []
1628797601.6948, 3, 0, 4157.436, 4202.564, 4102.051, 4138.462, 4150.256, 450, 0, []
1628797601.7026, 4, 0, 4170.256, 4208.718, 4112.821, 4148.718, 4151.795, 16179, 0, []
1628797601.7105, 5, 0, 4168.718, 4215.897, 4120.513, 4155.897, 4158.462, 450, 0, []
1628797601.7183, 6, 0, 4154.872, 4216.923, 4115.385, 4143.077, 4153.846, 16147, 0, []
1628797601.7262, 7, 0, 4146.667, 4213.846, 4099.487, 4118.974, 4135.897, 450, 0, []
1628797601.7339, 8, 0, 4146.154, 4205.641, 4094.872, 4116.41, 4128.205, 450, 0, []
1628797601.7419, 9, 0, 4149.231, 4201.026, 4108.718, 4131.282, 4140.513, 16172, 0, []
1628797601.7498, 10, 0, 4163.59, 4207.692, 4117.436, 4140.513, 4160.513, 450, 0, []
1628797601.7578, 11, 0, 4172.308, 4214.872, 4115.897, 4141.026, 4166.667, 16202, 0, []
1628797601.7657, 12, 0, 4160, 4210.256, 4110.769, 4137.436, 4157.949, 450, 0, []
1628797601.7736, 13, 0, 4150.769, 4214.872, 4108.205, 4138.974, 4152.308, 450, 0, []
1628797601.7815, 14, 0, 4151.795, 4222.564, 4111.282, 4142.564, 4148.205, 450, 0, []
1628797601.7895, 15, 0, 4146.154, 4219.487, 4113.846, 4135.897, 4141.026, 16202, 0, []
1628797601.7974, 16, 0, 4132.821, 4212.308, 4114.359, 4122.564, 4133.333, 0, 0, []
1628797601.8054, 17, 0, 4130.769, 4210.769, 4117.436, 4116.41, 4132.821, 0, 0, []
1628797601.8132, 18, 0, 4145.641, 4216.41, 4120.513, 4122.564, 4149.744, 0, 0, []
1628797601.8211, 19, 0, 4155.897, 4218.462, 4113.846, 4130.256, 4160.513, 0, 0, []
1628797601.829, 20, 0, 4150.256, 4212.308, 4108.718, 4129.231, 4148.205, 0, 0, []
1628797601.8368, 21, 0, 4163.59, 4225.641, 4130.769, 4141.538, 4159.487, 0, 0, []
1628797601.8447, 22, 0, 4194.872, 4250.769, 4149.231, 4169.744, 4195.385, 0, 0, []
1628797601.8524, 23, 0, 4178.462, 4236.923, 4117.949, 4156.41, 4176.41, 0, 0, []
1628797601.8603, 24, 0, 4137.949, 4207.692, 4076.923, 4110.769, 4128.718, 0, 0, []
1628797601.8681, 25, 0, 4147.179, 4216.41, 4085.128, 4111.282, 4136.41, 0, 0, []
1628797601.876, 26, 0, 4174.359, 4234.872, 4114.359, 4141.026, 4166.154, 0, 0, []
1628797601.8838, 27, 0, 4168.718, 4225.641, 4119.487, 4139.487, 4168.718, 0, 0, []
1628797601.8917, 28, 0, 4156.41, 4214.359, 4117.436, 4136.41, 4166.667, 0, 0, []
1628797601.8996, 29, 0, 4152.308, 4212.821, 4112.308, 4139.487, 4157.949, 0, 0, []
1628797601.9076, 30, 0, 4142.051, 4206.154, 4096.41, 4120, 4136.41, 0, 0, []
1628797601.9155, 31, 0, 4138.974, 4213.333, 4107.692, 4119.487, 4135.897, 0, 0, []
1628797601.9235, 32, 0, 4162.051, 4245.128, 4147.179, 4153.846, 4162.564, 0, 0, []
1628797601.9313, 33, 0, 4207.179, 4272.821, 4169.744, 4173.333, 4194.872, 0, 0, []
1628797601.9393, 34, 0, 4240.513, 4275.897, 4170.256, 4174.359, 4210.256, 0, 0, []
1628797601.9472, 35, 0, 4229.744, 4263.077, 4161.538, 4172.308, 4198.462, 0, 0, []
1628797601.9552, 36, 0, 4206.667, 4248.718, 4156.41, 4163.59, 4183.59, 0, 0, []
1628797601.9631, 37, 0, 4206.154, 4238.974, 4157.436, 4154.359, 4189.231, 0, 0, []
1628797601.9708, 38, 0, 4201.026, 4230.769, 4148.718, 4137.949, 4184.103, 0, 0, []
1628797601.9787, 39, 0, 4191.282, 4230.769, 4140, 4126.154, 4173.333, 0, 0, []
1628797601.9865, 40, 0, 4196.923, 4240, 4143.077, 4136.41, 4179.487, 0, 0, []
1628797601.9944, 41, 0, 4192.821, 4230.769, 4141.538, 4131.795, 4176.41, 0, 0, []
1628797602.0022, 42, 0, 4180, 4214.359, 4132.821, 4114.872, 4167.179, 0, 0, []
1628797602.01, 43, 0, 4187.692, 4214.872, 4136.41, 4127.179, 4171.282, 0, 0, []
1628797602.0178, 44, 0, 4195.385, 4220, 4141.538, 4144.103, 4173.846, 0, 0, []
1628797602.0257, 45, 0, 4180.513, 4215.385, 4136.41, 4137.436, 4164.103, 0, 0, []
1628797602.0335, 46, 0, 4170.256, 4203.077, 4137.949, 4130.769, 4156.923, 0, 0, []
1628797602.0414, 47, 0, 4168.205, 4195.897, 4140, 4124.615, 4151.795, 0, 0, []
1628797602.0491, 48, 0, 4157.436, 4202.564, 4133.333, 4115.897, 4148.718, 0, 0, []
1628797602.0571, 49, 0, 4154.872, 4214.872, 4135.897, 4125.641, 4153.333, 0, 0, []
1628797602.065, 50, 0, 4176.923, 4226.154, 4150.256, 4141.026, 4165.641, 0, 0, []
1628797602.073, 51, 0, 4201.026, 4235.385, 4157.436, 4136.923, 4184.103, 0, 0, []
1628797602.0809, 52, 0, 4197.436, 4237.436, 4149.231, 4131.795, 4186.154, 0, 0, []
1628797602.0888, 53, 0, 4182.051, 4235.385, 4133.846, 4132.308, 4166.667, 0, 0, []
1628797602.0967, 54, 0, 4183.077, 4230.769, 4122.564, 4129.744, 4154.872, 0, 0, []
1628797602.1047, 55, 0, 4182.051, 4217.949, 4110.769, 4124.103, 4155.385, 0, 0, []
1628797602.1126, 56, 0, 4168.718, 4212.821, 4107.179, 4120.513, 4146.667, 0, 0, []
1628797602.1204, 57, 0, 4160.513, 4218.462, 4122.051, 4118.462, 4141.538, 0, 0, []
1628797602.1282, 58, 0, 4170.256, 4216.923, 4131.795, 4120.513, 4155.385, 0, 0, []
1628797602.136, 59, 0, 4188.205, 4219.487, 4131.795, 4129.744, 4175.897, 0, 0, []
1628797602.1439, 60, 0, 4203.077, 4225.128, 4133.846, 4131.282, 4188.205, 0, 0, []
1628797602.1517, 61, 0, 4198.974, 4218.462, 4133.333, 4123.077, 4186.154, 0, 0, []
1628797602.1596, 62, 0, 4183.59, 4208.718, 4127.692, 4118.462, 4174.872, 0, 0, []
1628797602.1673, 63, 0, 4180, 4204.103, 4117.436, 4120, 4167.692, 0, 0, []
1628797602.1752, 64, 0, 4182.564, 4205.128, 4109.744, 4121.538, 4166.154, 450, 0, []
1628797602.183, 65, 0, 4186.667, 4206.667, 4110.256, 4118.974, 4168.205, 450, 0, []
1628797602.1909, 66, 0, 4198.974, 4207.179, 4118.974, 4121.538, 4180, 16187, 0, []
1628797602.1987, 67, 0, 4200.513, 4213.333, 4119.487, 4120, 4180.513, 450, 0, []
1628797602.2066, 68, 0, 4197.436, 4225.641, 4119.487, 4118.974, 4174.359, 16177, 0, []
1628797602.2145, 69, 0, 4211.282, 4227.692, 4128.718, 4125.641, 4189.744, 450, 0, []
1628797602.2225, 70, 0, 4217.949, 4213.846, 4120.513, 4121.538, 4206.667, 16147, 0, []
1628797602.2304, 71, 0, 4202.564, 4205.641, 4105.128, 4108.205, 4197.949, 450, 0, []
1628797602.2384, 72, 0, 4186.667, 4205.641, 4103.59, 4103.59, 4183.59, 450, 0, []
1628797602.2462, 73, 0, 4184.103, 4200.513, 4104.103, 4110.769, 4181.538, 16172, 0, []
1628797602.2542, 74, 0, 4191.795, 4198.974, 4105.128, 4117.436, 4186.154, 450, 0, []
1628797602.2621, 75, 0, 4202.051, 4210.256, 4112.308, 4120, 4191.795, 16201, 0, []
1628797602.2701, 76, 0, 4203.59, 4217.436, 4108.718, 4126.667, 4194.872, 450, 0, []
1628797602.278, 77, 0, 4200.513, 4211.282, 4099.487, 4140.513, 4196.923, 450, 0, []
1628797602.2857, 78, 0, 4207.692, 4214.872, 4120.513, 4153.846, 4202.564, 450, 0, []
1628797602.2936, 79, 0, 4213.333, 4223.077, 4142.564, 4161.538, 4201.538, 16201, 0, []
1628797602.3014, 80, 0, 4202.564, 4216.923, 4127.692, 4160, 4190.256, 450, 0, []
1628797602.3093, 81, 0, 4190.769, 4218.974, 4114.872, 4150.256, 4180, 450, 0, []
1628797602.3171, 82, 0, 4183.59, 4228.718, 4123.077, 4138.974, 4169.231, 450, 0, []
1628797602.325, 83, 0, 4162.564, 4216.41, 4110.256, 4122.564, 4151.795, 16201, 0, []
1628797602.3327, 84, 0, 4152.821, 4205.128, 4094.359, 4118.462, 4145.128, 450, 0, []
1628797602.3406, 85, 0, 4175.385, 4222.564, 4111.795, 4143.077, 4161.026, 450, 0, []
1628797602.3484, 86, 0, 4185.641, 4233.333, 4123.59, 4160, 4175.897, 450, 0, []
1628797602.3564, 87, 0, 4170.256, 4224.615, 4111.795, 4152.821, 4169.231, 16201, 0, []
1628797602.3643, 88, 0, 4159.487, 4223.59, 4104.103, 4151.282, 4155.385, 450, 0, []
1628797602.3722, 89, 0, 4156.923, 4230.769, 4109.744, 4153.333, 4151.795, 450, 0, []
1628797602.3801, 90, 0, 4153.333, 4227.692, 4110.769, 4142.564, 4154.872, 450, 0, []
1628797602.3881, 91, 0, 4151.282, 4214.872, 4097.436, 4128.205, 4148.718, 16201, 0, []
1628797602.396, 92, 0, 4153.846, 4214.359, 4092.821, 4122.051, 4141.538, 450, 0, []
1628797602.404, 93, 0, 4160.513, 4231.282, 4104.103, 4127.692, 4146.154, 450, 0, []
1628797602.4118, 94, 0, 4160, 4238.974, 4107.692, 4129.744, 4146.154, 450, 0, []
1628797602.4198, 95, 0, 4151.795, 4231.795, 4100, 4121.538, 4134.359, 16201, 0, []
1628797602.4277, 96, 0, 4151.282, 4233.333, 4102.564, 4126.154, 4132.308, 450, 0, []
1628797602.4355, 97, 0, 4154.359, 4240, 4109.744, 4142.564, 4146.154, 450, 0, []
1628797602.4434, 98, 0, 4153.333, 4228.718, 4107.692, 4145.641, 4150.769, 450, 0, []
1628797602.4511, 99, 0, 4153.846, 4214.359, 4100, 4132.308, 4143.59, 16201, 0, []
1628797602.459, 100, 0, 4153.333, 4219.487, 4093.846, 4123.077, 4139.487, 450, 0, []
1628797602.4668, 101, 0, 4152.308, 4233.333, 4097.949, 4122.564, 4140.513, 450, 0, []
1628797602.4747, 102, 0, 4156.923, 4234.359, 4109.231, 4121.538, 4144.103, 450, 0, []
1628797602.4825, 103, 0, 4156.923, 4224.103, 4112.308, 4120, 4143.077, 16201, 0, []
1628797602.4903, 104, 0, 4156.41, 4214.872, 4106.154, 4127.179, 4143.59, 450, 0, []
1628797602.4981, 105, 0, 4162.564, 4215.897, 4102.051, 4135.897, 4153.333, 450, 0, []
1628797602.506, 106, 0, 4178.974, 4231.795, 4116.923, 4142.564, 4170.769, 450, 0, []
1628797602.5138, 107, 0, 4184.615, 4238.974, 4127.692, 4143.077, 4169.231, 16201, 0, []
1628797602.5218, 108, 0, 4169.231, 4227.179, 4107.692, 4132.308, 4148.718, 450, 0, []
1628797602.5296, 109, 0, 4168.205, 4228.205, 4100.513, 4130.256, 4152.308, 450, 0, []
1628797602.5376, 110, 0, 4184.103, 4241.538, 4124.103, 4143.077, 4170.769, 450, 0, []
1628797602.5455, 111, 0, 4181.026, 4241.538, 4126.667, 4142.564, 4167.692, 16201, 0, []
1628797602.5535, 112, 0, 4164.103, 4231.282, 4106.154, 4132.821, 4160, 450, 0, []
1628797602.5614, 113, 0, 4174.872, 4230.769, 4110.256, 4149.231, 4168.718, 450, 0, []
1628797602.5693, 114, 0, 4186.154, 4236.41, 4122.564, 4162.564, 4172.308, 450, 0, []
1628797602.5772, 115, 0, 4173.846, 4232.821, 4123.59, 4147.179, 4167.179, 16201, 0, []
1628797602.5852, 116, 0, 4168.205, 4223.077, 4129.231, 4135.385, 4166.154, 450, 0, []
1628797602.5931, 117, 0, 4170.256, 4219.487, 4132.308, 4134.359, 4159.487, 450, 0, []
1628797602.6011, 118, 0, 4168.718, 4226.667, 4129.744, 4133.846, 4152.821, 450, 0, []
1628797602.6089, 119, 0, 4170.769, 4236.41, 4131.795, 4135.385, 4156.41, 16201, 0, []
1628797602.6167, 120, 0, 4167.692, 4232.308, 4131.282, 4133.846, 4155.897, 450, 0, []
1628797602.6246, 121, 0, 4153.846, 4217.436, 4118.462, 4127.179, 4149.744, 450, 0, []
1628797602.6324, 122, 0, 4154.872, 4212.308, 4119.487, 4129.231, 4154.872, 450, 0, []
1628797602.6403, 123, 0, 4174.359, 4222.564, 4145.641, 4144.103, 4168.718, 16201, 0, []
1628797602.648, 124, 0, 4188.718, 4236.41, 4164.103, 4156.41, 4175.385, 450, 0, []
1628797602.656, 125, 0, 4183.077, 4234.359, 4155.385, 4147.692, 4169.744, 450, 0, []
1628797602.6639, 126, 0, 4172.308, 4220.513, 4135.897, 4124.103, 4164.103, 450, 0, []
1628797602.6719, 127, 0, 4182.051, 4222.564, 4129.744, 4118.462, 4172.308, 16201, 0, []
1628797602.6798, 128, 0, 4186.154, 4236.923, 4131.795, 4124.615, 4170.256, 450, 0, []
1628797602.6877, 0, 0, 4168.718, 4233.333, 4130.769, 4124.103, 4154.359, 450, 0, []
1628797602.6956, 1, 0, 4172.821, 4217.949, 4137.949, 4143.59, 4166.154, 450, 0, []
1628797602.7036, 2, 0, 4193.333, 4215.897, 4145.641, 4169.231, 4185.641, 16187, 0, []
1628797602.7115, 3, 0, 4185.641, 4224.103, 4135.385, 4157.949, 4172.308, 450, 0, []
1628797602.7195, 4, 0, 4172.308, 4229.744, 4123.077, 4137.949, 4160.513, 16177, 0, []
1628797602.7273, 5, 0, 4187.179, 4224.615, 4129.231, 4137.436, 4177.949, 450, 0, []
1628797602.7353, 6, 0, 4218.462, 4214.359, 4140.513, 4135.897, 4200.513, 16147, 0, []
1628797602.7432, 7, 0, 4268.718, 4216.923, 4142.564, 4138.462, 4234.359, 450, 0, []
1628797602.751, 8, 0, 4334.359, 4220.513, 4138.974, 4151.282, 4280.513, 450, 0, []
1628797602.7589, 9, 0, 4383.59, 4214.359, 4140.513, 4154.359, 4313.846, 16170, 0, []
1628797602.7666, 10, 0, 4413.333, 4222.564, 4146.667, 4150.256, 4344.615, 450, 0, []
1628797602.7745, 11, 0, 4443.59, 4243.59, 4151.282, 4154.359, 4375.897, 16195, 0, []
1628797602.7823, 12, 0, 4467.179, 4246.154, 4146.154, 4153.846, 4382.564, 450, 0, []
1628797602.7902, 13, 0, 4469.231, 4247.692, 4148.718, 4150.256, 4373.846, 450, 0, []
1628797602.798, 14, 0, 4458.974, 4254.872, 4169.231, 4156.41, 4376.41, 450, 0, []
1628797602.8058, 15, 0, 4435.897, 4240.513, 4171.282, 4156.923, 4367.179, 16195, 0, []
1628797602.8136, 16, 0, 4398.462, 4232.308, 4156.41, 4150.256, 4334.359, 0, 0, []
1628797602.8216, 17, 0, 4367.179, 4245.128, 4154.872, 4153.846, 4315.385, 0, 0, []
1628797602.8295, 18, 0, 4343.077, 4236.41, 4151.282, 4152.821, 4307.692, 0, 0, []
1628797602.8375, 19, 0, 4312.821, 4217.949, 4141.026, 4138.462, 4280, 0, 0, []
1628797602.8453, 20, 0, 4295.385, 4225.128, 4146.667, 4137.436, 4260.513, 0, 0, []
1628797602.8533, 21, 0, 4308.205, 4238.974, 4176.41, 4157.949, 4280, 0, 0, []
1628797602.8612, 22, 0, 4322.051, 4248.205, 4198.462, 4173.333, 4298.462, 0, 0, []
1628797602.8692, 23, 0, 4302.564, 4250.256, 4191.282, 4163.59, 4281.026, 0, 0, []
1628797602.8771, 24, 0, 4274.872, 4233.333, 4172.821, 4151.795, 4252.308, 0, 0, []
1628797602.885, 25, 0, 4270.769, 4226.667, 4166.667, 4153.846, 4243.077, 0, 0, []
1628797602.8929, 26, 0, 4280, 4245.641, 4172.821, 4156.41, 4258.462, 0, 0, []
1628797602.9007, 27, 0, 4285.641, 4252.821, 4182.051, 4154.872, 4276.41, 0, 0, []
1628797602.9086, 28, 0, 4278.462, 4236.41, 4179.487, 4155.897, 4261.026, 0, 0, []
1628797602.9164, 29, 0, 4258.974, 4225.641, 4162.564, 4149.231, 4232.308, 0, 0, []
1628797602.9243, 30, 0, 4254.872, 4233.846, 4155.385, 4137.949, 4228.718, 0, 0, []
1628797602.932, 31, 0, 4263.59, 4238.974, 4167.179, 4136.923, 4237.436, 0, 0, []
1628797602.9399, 32, 0, 4256.41, 4233.846, 4170.769, 4139.487, 4234.359, 0, 0, []
1628797602.9478, 33, 0, 4247.692, 4230.769, 4168.205, 4146.667, 4234.359, 0, 0, []
1628797602.9557, 34, 0, 4250.769, 4233.846, 4168.718, 4158.462, 4232.821, 0, 0, []
1628797602.9636, 35, 0, 4237.436, 4235.897, 4161.538, 4154.359, 4211.282, 0, 0, []
1628797602.9713, 36, 0, 4213.333, 4227.179, 4150.769, 4139.487, 4192.308, 0, 0, []
1628797602.9791, 37, 0, 4212.821, 4219.487, 4154.872, 4141.538, 4196.41, 0, 0, []
1628797602.9871, 38, 0, 4220, 4216.41, 4156.923, 4142.051, 4202.051, 0, 0, []
1628797602.995, 39, 0, 4212.308, 4205.128, 4138.462, 4122.564, 4190.256, 0, 0, []
1628797603.003, 40, 0, 4195.897, 4205.128, 4124.615, 4115.385, 4173.846, 0, 0, []
1628797603.0108, 41, 0, 4187.692, 4220.513, 4124.103, 4123.59, 4161.026, 0, 0, []
1628797603.0188, 42, 0, 4204.615, 4228.718, 4136.41, 4134.359, 4170.256, 0, 0, []
1628797603.0267, 43, 0, 4248.205, 4235.385, 4156.923, 4155.897, 4217.949, 0, 0, []
1628797603.0347, 44, 0, 4269.744, 4238.462, 4163.59, 4164.103, 4243.59, 0, 0, []
1628797603.0426, 45, 0, 4243.077, 4227.692, 4155.385, 4141.538, 4216.923, 0, 0, []
1628797603.0503, 46, 0, 4213.846, 4220.513, 4143.59, 4122.564, 4191.795, 0, 0, []
1628797603.0582, 47, 0, 4199.487, 4218.462, 4127.692, 4118.974, 4181.026, 0, 0, []
1628797603.066, 48, 0, 4189.231, 4210.769, 4110.256, 4113.846, 4165.128, 0, 0, []
1628797603.0739, 49, 0, 4195.385, 4214.359, 4119.487, 4118.974, 4164.615, 0, 0, []
1628797603.0817, 50, 0, 4200.513, 4218.974, 4129.744, 4128.718, 4174.872, 0, 0, []
1628797603.0895, 51, 0, 4186.154, 4211.795, 4120.513, 4123.59, 4168.205, 0, 0, []
1628797603.0973, 52, 0, 4183.077, 4215.385, 4127.179, 4129.231, 4164.615, 0, 0, []
1628797603.1052, 53, 0, 4193.333, 4230.769, 4142.051, 4147.179, 4172.821, 0, 0, []
1628797603.113, 54, 0, 4186.154, 4231.795, 4131.282, 4140.513, 4164.103, 0, 0, []
1628797603.1209, 55, 0, 4180.513, 4221.026, 4117.436, 4121.026, 4151.282, 0, 0, []
1628797603.1286, 56, 0, 4186.154, 4217.436, 4123.077, 4120, 4154.359, 0, 0, []
1628797603.1366, 57, 0, 4176.923, 4213.846, 4128.205, 4128.205, 4152.821, 0, 0, []
1628797603.1445, 58, 0, 4164.615, 4205.641, 4125.641, 4126.154, 4140, 0, 0, []
1628797603.1525, 59, 0, 4166.667, 4209.744, 4131.795, 4127.179, 4137.436, 0, 0, []
1628797603.1604, 60, 0, 4170.256, 4214.872, 4137.949, 4130.769, 4142.051, 0, 0, []
1628797603.1683, 61, 0, 4168.718, 4208.205, 4127.692, 4118.462, 4138.462, 0, 0, []
1628797603.1762, 62, 0, 4165.641, 4213.333, 4122.564, 4111.795, 4139.487, 0, 0, []
1628797603.1842, 63, 0, 4156.923, 4216.41, 4131.282, 4122.051, 4141.538, 0, 0, []
1628797603.1922, 64, 0, 4149.744, 4203.59, 4129.744, 4131.282, 4133.333, 450, 0, []
1628797603.2001, 65, 0, 4152.308, 4205.641, 4113.333, 4126.154, 4122.051, 450, 0, []
1628797603.208, 66, 0, 4146.667, 4217.949, 4102.564, 4112.308, 4115.897, 16187, 0, []
1628797603.2159, 67, 0, 4142.051, 4227.692, 4116.41, 4109.744, 4125.128, 450, 0, []
1628797603.2239, 68, 0, 4154.359, 4231.795, 4124.615, 4123.59, 4137.949, 16175, 0, []
1628797603.2318, 69, 0, 4161.026, 4222.564, 4111.282, 4127.179, 4129.744, 450, 0, []
1628797603.2398, 70, 0, 4142.564, 4217.436, 4099.487, 4109.231, 4108.718, 16148, 0, []
1628797603.2476, 71, 0, 4132.821, 4230.769, 4101.026, 4105.641, 4108.205, 450, 0, []
1628797603.2556, 72, 0, 4149.744, 4236.41, 4111.795, 4127.179, 4126.154, 450, 0, []
1628797603.2635, 73, 0, 4151.795, 4230.256, 4119.487, 4134.872, 4125.128, 16164, 0, []
1628797603.2715, 74, 0, 4141.538, 4232.821, 4123.59, 4125.128, 4116.923, 450, 0, []
1628797603.2795, 75, 0, 4156.923, 4233.333, 4126.154, 4128.718, 4134.359, 16201, 0, []
1628797603.2873, 76, 0, 4184.103, 4237.949, 4134.359, 4149.744, 4158.974, 450, 0, []
1628797603.2953, 77, 0, 4187.179, 4253.846, 4146.667, 4158.974, 4157.949, 450, 0, []
1628797603.3032, 78, 0, 4177.436, 4263.077, 4146.667, 4153.846, 4150.769, 450, 0, []
1628797603.3112, 79, 0, 4172.821, 4261.026, 4139.487, 4150.769, 4153.846, 16201, 0, []
1628797603.3191, 80, 0, 4167.692, 4255.385, 4135.385, 4152.308, 4152.821, 450, 0, []
1628797603.327, 81, 0, 4168.205, 4261.026, 4138.462, 4160.513, 4152.821, 450, 0, []
1628797603.3349, 82, 0, 4172.308, 4266.154, 4143.077, 4165.128, 4149.744, 450, 0, []
1628797603.3429, 83, 0, 4169.744, 4254.359, 4140.513, 4152.308, 4136.41, 16201, 0, []
1628797603.3508, 84, 0, 4169.744, 4252.308, 4132.821, 4135.385, 4134.872, 450, 0, []
1628797603.3588, 85, 0, 4167.179, 4270.769, 4129.744, 4129.231, 4135.897, 450, 0, []
1628797603.3666, 86, 0, 4154.872, 4268.205, 4126.667, 4130.256, 4124.103, 450, 0, []
1628797603.3746, 87, 0, 4156.41, 4245.128, 4125.128, 4143.59, 4126.667, 16201, 0, []
1628797603.3825, 88, 0, 4171.282, 4243.59, 4126.667, 4155.385, 4144.103, 450, 0, []
1628797603.3905, 89, 0, 4160.513, 4245.128, 4113.846, 4140.513, 4134.359, 450, 0, []
1628797603.3984, 90, 0, 4135.385, 4237.436, 4101.538, 4122.051, 4114.872, 450, 0, []
1628797603.4064, 91, 0, 4133.333, 4242.051, 4102.051, 4121.538, 4118.462, 16201, 0, []
1628797603.4142, 92, 0, 4136.923, 4250.769, 4104.103, 4123.077, 4125.641, 450, 0, []
1628797603.4222, 93, 0, 4143.59, 4248.718, 4116.41, 4128.205, 4133.846, 450, 0, []
1628797603.4301, 94, 0, 4164.103, 4244.103, 4136.41, 4140, 4147.179, 450, 0, []
1628797603.4381, 95, 0, 4170.769, 4244.615, 4141.026, 4144.103, 4148.718, 16201, 0, []
1628797603.4461, 96, 0, 4155.897, 4245.641, 4133.333, 4135.385, 4135.385, 450, 0, []
1628797603.4539, 97, 0, 4145.641, 4248.205, 4131.795, 4132.821, 4126.154, 450, 0, []
1628797603.4619, 98, 0, 4150.256, 4246.667, 4135.385, 4141.538, 4130.769, 450, 0, []
1628797603.4698, 99, 0, 4147.692, 4244.103, 4126.154, 4133.333, 4129.744, 16201, 0, []
1628797603.4778, 100, 0, 4139.487, 4236.41, 4111.282, 4110.769, 4121.538, 450, 0, []
1628797603.4857, 101, 0, 4144.615, 4233.333, 4113.333, 4111.282, 4128.205, 450, 0, []
1628797603.4936, 102, 0, 4154.359, 4243.077, 4127.179, 4125.641, 4136.923, 450, 0, []
1628797603.5015, 103, 0, 4149.744, 4239.487, 4125.128, 4122.564, 4130.256, 16201, 0, []
1628797603.5095, 104, 0, 4153.333, 4230.769, 4116.41, 4126.154, 4132.821, 450, 0, []
1628797603.5174, 105, 0, 4169.744, 4234.359, 4124.615, 4144.615, 4145.128, 450, 0, []
1628797603.5254, 106, 0, 4169.744, 4232.308, 4131.795, 4146.667, 4141.026, 450, 0, []
1628797603.5332, 107, 0, 4164.615, 4225.128, 4125.641, 4136.923, 4137.949, 16201, 0, []
1628797603.5412, 108, 0, 4171.282, 4232.308, 4127.692, 4135.385, 4151.795, 450, 0, []
1628797603.5491, 109, 0, 4174.359, 4245.641, 4140.513, 4137.436, 4155.897, 450, 0, []
1628797603.5571, 110, 0, 4169.231, 4244.615, 4138.974, 4136.923, 4143.59, 450, 0, []
1628797603.565, 111, 0, 4166.667, 4233.846, 4127.179, 4136.41, 4141.538, 16201, 0, []
1628797603.5729, 112, 0, 4174.872, 4233.846, 4132.821, 4135.385, 4154.872, 450, 0, []
1628797603.5809, 113, 0, 4190.769, 4248.205, 4152.821, 4138.462, 4164.615, 450, 0, []
1628797603.5888, 114, 0, 4198.974, 4251.795, 4160, 4148.205, 4169.231, 450, 0, []
1628797603.5968, 115, 0, 4190.256, 4246.667, 4152.308, 4152.308, 4168.205, 16201, 0, []
1628797603.6047, 116, 0, 4179.487, 4252.308, 4141.538, 4148.718, 4159.487, 450, 0, []
1628797603.6126, 117, 0, 4174.872, 4249.231, 4130.769, 4148.205, 4151.282, 450, 0, []
1628797603.6205, 118, 0, 4169.744, 4233.333, 4123.59, 4149.231, 4152.821, 450, 0, []
1628797603.6285, 119, 0, 4174.872, 4235.385, 4124.615, 4144.103, 4163.077, 16201, 0, []
1628797603.6364, 120, 0, 4192.308, 4251.795, 4133.846, 4139.487, 4171.795, 450, 0, []
1628797603.6444, 121, 0, 4196.923, 4253.333, 4144.103, 4140.513, 4170.769, 450, 0, []
1628797603.6522, 122, 0, 4194.359, 4245.128, 4153.846, 4139.487, 4167.179, 450, 0, []
1628797603.6602, 123, 0, 4198.462, 4250.256, 4162.051, 4138.974, 4172.308, 16201, 0, []
1628797603.6681, 124, 0, 4191.795, 4247.692, 4151.795, 4135.897, 4170.256, 450, 0, []
1628797603.6761, 125, 0, 4185.128, 4234.359, 4140, 4138.462, 4166.667, 450, 0, []
1628797603.684, 126, 0, 4200.513, 4235.897, 4147.692, 4153.333, 4179.487, 450, 0, []
1628797603.6919, 127, 0, 4201.026, 4236.41, 4144.103, 4157.436, 4179.487, 16201, 0, []
1628797603.6998, 128, 0, 4180.513, 4231.282, 4134.359, 4153.333, 4161.026, 450, 0, []
1628797603.7078, 0, 0, 4178.974, 4236.923, 4135.897, 4153.333, 4156.41, 450, 0, []
1628797603.7157, 1, 0, 4181.538, 4235.385, 4124.103, 4141.538, 4153.846, 450, 0, []
1628797603.7237, 2, 0, 4180, 4226.667, 4115.897, 4132.821, 4151.795, 16190, 0, []
1628797603.7315, 3, 0, 4197.436, 4236.923, 4142.051, 4150.256, 4174.359, 450, 0, []
1628797603.7395, 4, 0, 4209.231, 4241.026, 4162.564, 4158.462, 4190.256, 16175, 0, []
1628797603.7474, 5, 0, 4203.077, 4229.744, 4154.872, 4154.359, 4181.026, 450, 0, []
1628797603.7554, 6, 0, 4201.026, 4235.897, 4143.59, 4161.026, 4178.974, 16149, 0, []
1628797603.7634, 7, 0, 4191.282, 4234.872, 4121.538, 4154.872, 4172.308, 450, 0, []
1628797603.7712, 8, 0, 4175.897, 4213.333, 4099.487, 4133.846, 4154.359, 450, 0, []
1628797603.7792, 9, 0, 4176.923, 4213.333, 4109.744, 4131.795, 4150.769, 16172, 0, []
1628797603.7871, 10, 0, 4175.897, 4231.795, 4130.769, 4143.59, 4154.359, 450, 0, []
1628797603.7951, 11, 0, 4172.821, 4235.385, 4137.949, 4152.308, 4159.487, 16202, 0, []
1628797603.803, 12, 0, 4191.795, 4227.179, 4141.538, 4161.026, 4178.462, 450, 0, []
1628797603.811, 13, 0, 4203.59, 4218.462, 4140, 4153.846, 4191.282, 450, 0, []
1628797603.8188, 14, 0, 4191.795, 4218.462, 4130.256, 4132.821, 4181.538, 450, 0, []
1628797603.8268, 15, 0, 4178.974, 4222.564, 4120.513, 4122.051, 4165.641, 16202, 0, []
1628797603.8347, 16, 0, 4171.795, 4221.026, 4112.821, 4122.564, 4156.923, 0, 0, []
1628797603.8427, 17, 0, 4170.769, 4217.949, 4109.744, 4125.128, 4155.385, 0, 0, []
1628797603.8506, 18, 0, 4168.205, 4209.744, 4103.077, 4123.59, 4154.359, 0, 0, []
1628797603.8585, 19, 0, 4162.564, 4202.564, 4105.128, 4122.051, 4156.41, 0, 0, []
1628797603.8664, 20, 0, 4175.897, 4210.256, 4126.154, 4131.282, 4172.821, 0, 0, []
1628797603.8744, 21, 0, 4185.641, 4217.436, 4135.385, 4142.564, 4177.436, 0, 0, []
1628797603.8823, 22, 0, 4167.179, 4211.795, 4127.692, 4141.026, 4157.949, 0, 0, []
1628797603.8903, 23, 0, 4165.128, 4218.974, 4130.256, 4136.41, 4153.846, 0, 0, []
1628797603.8981, 24, 0, 4189.231, 4240, 4139.487, 4140.513, 4173.333, 0, 0, []
1628797603.9059, 25, 0, 4189.744, 4238.462, 4130.769, 4143.077, 4175.385, 0, 0, []
1628797603.9139, 26, 0, 4171.282, 4224.103, 4116.923, 4134.359, 4160.513, 0, 0, []
1628797603.9218, 27, 0, 4167.692, 4213.333, 4118.462, 4130.256, 4155.385, 0, 0, []
1628797603.9297, 28, 0, 4172.308, 4202.564, 4120.513, 4131.795, 4156.41, 0, 0, []
1628797603.9375, 29, 0, 4176.41, 4207.179, 4118.462, 4132.821, 4158.462, 0, 0, []
1628797603.9454, 30, 0, 4172.821, 4214.359, 4112.308, 4117.436, 4157.949, 0, 0, []
1628797603.9533, 31, 0, 4154.872, 4206.154, 4105.128, 4088.718, 4145.641, 0, 0, []
1628797603.9613, 32, 0, 4148.718, 4204.615, 4110.769, 4086.154, 4140, 0, 0, []
1628797603.9692, 33, 0, 4169.231, 4218.462, 4120, 4113.333, 4153.333, 0, 0, []
1628797603.9771, 34, 0, 4186.667, 4223.59, 4123.077, 4124.103, 4167.692, 0, 0, []
1628797603.985, 35, 0, 4185.641, 4218.974, 4126.154, 4119.487, 4169.744, 0, 0, []
1628797603.993, 36, 0, 4188.205, 4220, 4136.923, 4133.333, 4172.821, 0, 0, []
1628797604.0009, 37, 0, 4191.282, 4216.923, 4138.974, 4143.077, 4170.256, 0, 0, []
1628797604.0089, 38, 0, 4176.923, 4209.231, 4125.128, 4121.538, 4156.923, 0, 0, []
1628797604.0167, 39, 0, 4170.769, 4203.59, 4118.462, 4105.128, 4154.872, 0, 0, []
1628797604.0247, 40, 0, 4181.026, 4202.564, 4125.641, 4111.795, 4161.538, 0, 0, []
1628797604.0326, 41, 0, 4178.974, 4203.077, 4115.897, 4111.282, 4156.923, 0, 0, []
1628797604.0404, 42, 0, 4167.692, 4200, 4098.974, 4109.231, 4150.256, 0, 0, []
1628797604.0483, 43, 0, 4166.154, 4200.513, 4109.744, 4121.026, 4153.846, 0, 0, []
1628797604.056, 44, 0, 4164.615, 4197.949, 4121.026, 4119.487, 4153.846, 0, 0, []
1628797604.0639, 45, 0, 4164.615, 4188.205, 4108.718, 4106.667, 4154.359, 0, 0, []
1628797604.0717, 46, 0, 4188.718, 4195.385, 4115.385, 4116.923, 4177.436, 0, 0, []
1628797604.0797, 47, 0, 4207.179, 4214.872, 4145.128, 4127.692, 4194.359, 0, 0, []
1628797604.0876, 48, 0, 4185.641, 4215.385, 4146.667, 4105.641, 4170.256, 0, 0, []
1628797604.0955, 49, 0, 4162.051, 4200, 4127.692, 4091.282, 4145.641, 0, 0, []
1628797604.1034, 50, 0, 4166.667, 4195.897, 4129.231, 4113.333, 4156.41, 0, 0, []
1628797604.1114, 51, 0, 4172.308, 4196.923, 4132.308, 4134.872, 4165.128, 0, 0, []
1628797604.1193, 52, 0, 4166.154, 4188.205, 4124.103, 4126.154, 4153.846, 0, 0, []
1628797604.1273, 53, 0, 4163.077, 4177.949, 4119.487, 4109.231, 4151.795, 0, 0, []
1628797604.1351, 54, 0, 4156.923, 4182.051, 4114.872, 4103.077, 4149.744, 0, 0, []
1628797604.1431, 55, 0, 4148.205, 4198.462, 4109.744, 4101.026, 4140.513, 0, 0, []
1628797604.151, 56, 0, 4156.41, 4203.077, 4111.282, 4105.128, 4144.615, 0, 0, []
1628797604.159, 57, 0, 4168.718, 4188.718, 4104.615, 4118.974, 4153.333, 0, 0, []
1628797604.1669, 58, 0, 4168.718, 4186.154, 4095.385, 4129.744, 4151.795, 0, 0, []
1628797604.1749, 59, 0, 4166.154, 4201.538, 4106.667, 4127.179, 4150.769, 0, 0, []
1628797604.1827, 60, 0, 4168.718, 4207.692, 4121.026, 4124.103, 4151.795, 0, 0, []
1628797604.1905, 61, 0, 4167.692, 4201.538, 4111.795, 4121.538, 4150.256, 0, 0, []
1628797604.1984, 62, 0, 4167.179, 4197.949, 4105.128, 4114.872, 4152.821, 0, 0, []
1628797604.2062, 63, 0, 4172.308, 4202.564, 4115.385, 4109.231, 4157.949, 0, 0, []
1628797604.2142, 64, 0, 4164.615, 4208.205, 4111.795, 4105.641, 4150.769, 450, 0, []
1628797604.222, 65, 0, 4156.41, 4205.128, 4101.026, 4110.256, 4145.128, 450, 0, []
1628797604.23, 66, 0, 4170.256, 4201.026, 4102.564, 4119.487, 4160, 16189, 0, []
1628797604.2379, 67, 0, 4179.487, 4203.077, 4104.615, 4123.59, 4173.333, 450, 0, []
1628797604.2459, 68, 0, 4167.179, 4200, 4103.077, 4122.564, 4164.615, 16175, 0, []
1628797604.2538, 69, 0, 4163.59, 4196.41, 4111.282, 4126.667, 4158.462, 450, 0, []
1628797604.2617, 70, 0, 4174.872, 4206.154, 4120, 4130.769, 4163.59, 16150, 0, []
1628797604.2696, 71, 0, 4168.718, 4198.974, 4103.59, 4123.59, 4153.846, 450, 0, []
1628797604.2776, 72, 0, 4167.179, 4191.795, 4096.41, 4127.692, 4153.333, 450, 0, []
1628797604.2855, 73, 0, 4196.41, 4222.051, 4120, 4153.333, 4187.692, 16175, 0, []
1628797604.2935, 74, 0, 4210.769, 4234.872, 4129.231, 4160, 4200.513, 450, 0, []
1628797604.3013, 75, 0, 4187.179, 4205.641, 4118.462, 4142.051, 4173.333, 16197, 0, []
1628797604.3093, 76, 0, 4173.333, 4199.487, 4118.974, 4132.821, 4159.487, 450, 0, []
1628797604.3172, 77, 0, 4182.051, 4222.051, 4127.692, 4130.769, 4171.282, 450, 0, []
1628797604.325, 78, 0, 4182.051, 4222.564, 4126.667, 4121.026, 4177.949, 450, 0, []
1628797604.3329, 79, 0, 4183.59, 4214.359, 4122.051, 4120, 4180.513, 16197, 0, []
1628797604.3406, 80, 0, 4212.821, 4228.718, 4129.744, 4143.59, 4200, 450, 0, []
1628797604.3485, 81, 0, 4249.744, 4244.103, 4139.487, 4158.974, 4224.103, 450, 0, []
1628797604.3563, 82, 0, 4270.769, 4246.667, 4134.872, 4143.59, 4237.949, 450, 0, []
1628797604.3642, 83, 0, 4293.846, 4236.41, 4122.051, 4128.718, 4247.692, 16197, 0, []
1628797604.372, 84, 0, 4346.154, 4229.744, 4117.949, 4137.436, 4275.897, 450, 0, []
1628797604.3799, 85, 0, 4405.128, 4240.513, 4118.462, 4148.205, 4321.026, 450, 0, []
1628797604.3878, 86, 0, 4437.949, 4249.231, 4113.846, 4145.641, 4360, 450, 0, []
1628797604.3958, 87, 0, 4452.821, 4244.615, 4122.051, 4148.205, 4385.128, 16197, 0, []
1628797604.4037, 88, 0, 4453.333, 4252.821, 4152.821, 4162.564, 4386.667, 450, 0, []
1628797604.4117, 89, 0, 4428.718, 4267.692, 4165.641, 4164.103, 4370.256, 450, 0, []
1628797604.4195, 90, 0, 4396.923, 4256.923, 4143.077, 4153.846, 4354.872, 450, 0, []
1628797604.4275, 91, 0, 4373.333, 4239.487, 4126.154, 4158.462, 4342.051, 16197, 0, []
1628797604.4354, 92, 0, 4351.282, 4247.179, 4137.436, 4168.718, 4328.718, 450, 0, []
1628797604.4434, 93, 0, 4323.59, 4254.872, 4144.103, 4161.026, 4314.359, 450, 0, []
1628797604.4513, 94, 0, 4301.538, 4245.128, 4136.923, 4149.231, 4293.333, 450, 0, []
1628797604.4592, 95, 0, 4308.205, 4254.359, 4159.487, 4162.051, 4288.718, 16197, 0, []
1628797604.4671, 96, 0, 4328.718, 4281.026, 4197.436, 4190.769, 4312.308, 450, 0, []
1628797604.475, 97, 0, 4320.513, 4275.385, 4183.59, 4192.821, 4309.231, 450, 0, []
1628797604.4829, 98, 0, 4284.615, 4248.205, 4147.692, 4164.103, 4273.846, 450, 0, []
1628797604.4907, 99, 0, 4258.462, 4240.513, 4144.615, 4145.641, 4257.436, 16197, 0, []
1628797604.4985, 100, 0, 4253.846, 4235.385, 4151.282, 4145.641, 4254.872, 450, 0, []
1628797604.5063, 101, 0, 4246.154, 4214.359, 4147.692, 4140, 4235.897, 450, 0, []
1628797604.5143, 102, 0, 4232.308, 4206.667, 4144.615, 4135.385, 4223.077, 450, 0, []
1628797604.5222, 103, 0, 4234.872, 4217.436, 4136.923, 4148.718, 4233.333, 16197, 0, []
1628797604.5302, 104, 0, 4251.795, 4222.564, 4129.744, 4166.667, 4247.179, 450, 0, []
1628797604.5381, 105, 0, 4245.128, 4216.923, 4136.923, 4158.462, 4245.641, 450, 0, []
1628797604.546, 106, 0, 4219.487, 4221.026, 4144.103, 4129.231, 4228.718, 450, 0, []
1628797604.5539, 107, 0, 4214.872, 4233.333, 4141.026, 4118.974, 4222.051, 16197, 0, []
1628797604.5619, 108, 0, 4213.846, 4215.897, 4129.231, 4129.744, 4217.436, 450, 0, []
1628797604.5698, 109, 0, 4199.487, 4182.051, 4113.333, 4129.744, 4202.564, 450, 0, []
1628797604.5778, 110, 0, 4196.41, 4180, 4113.846, 4128.718, 4196.923, 450, 0, []
1628797604.5856, 111, 0, 4203.59, 4187.692, 4129.231, 4142.564, 4202.051, 16197, 0, []
1628797604.5936, 112, 0, 4203.59, 4183.077, 4136.923, 4154.872, 4201.538, 450, 0, []
1628797604.6015, 113, 0, 4203.077, 4192.308, 4141.026, 4154.359, 4196.923, 450, 0, []
1628797604.6095, 114, 0, 4200, 4207.692, 4137.436, 4137.436, 4190.256, 450, 0, []
1628797604.6174, 115, 0, 4189.231, 4199.487, 4119.487, 4116.923, 4183.59, 16197, 0, []
1628797604.6251, 116, 0, 4178.462, 4184.615, 4107.692, 4113.846, 4181.026, 450, 0, []
1628797604.633, 117, 0, 4173.333, 4186.154, 4111.282, 4119.487, 4180, 450, 0, []
1628797604.6408, 118, 0, 4183.59, 4196.923, 4123.59, 4128.718, 4181.026, 450, 0, []
1628797604.6487, 119, 0, 4197.949, 4200.513, 4133.846, 4137.949, 4186.667, 16197, 0, []
1628797604.6565, 120, 0, 4191.795, 4196.923, 4135.897, 4138.462, 4188.205, 450, 0, []
1628797604.6643, 121, 0, 4186.667, 4198.462, 4140, 4142.564, 4191.795, 450, 0, []
1628797604.6721, 122, 0, 4188.205, 4204.615, 4138.462, 4135.385, 4187.179, 450, 0, []
1628797604.68, 123, 0, 4175.385, 4199.487, 4123.077, 4111.282, 4170.256, 16197, 0, []
1628797604.6878, 124, 0, 4171.795, 4185.641, 4111.282, 4107.179, 4168.205, 450, 0, []
1628797604.6958, 125, 0, 4179.487, 4181.026, 4112.821, 4121.538, 4173.333, 450, 0, []
1628797604.7036, 126, 0, 4172.821, 4185.641, 4113.846, 4119.487, 4168.205, 450, 0, []
1628797604.7116, 127, 0, 4167.179, 4184.103, 4114.872, 4114.359, 4173.846, 16197, 0, []
1628797604.7195, 128, 0, 4171.795, 4178.462, 4119.487, 4125.641, 4187.179, 450, 0, []
1628797604.7275, 0, 0, 4174.872, 4187.692, 4128.718, 4142.051, 4187.179, 450, 0, []
1628797604.7354, 1, 0, 4180, 4210.256, 4141.026, 4150.769, 4182.564, 450, 0, []
1628797604.7433, 2, 0, 4188.205, 4218.462, 4152.821, 4142.564, 4185.641, 16181, 0, []
1628797604.7512, 3, 0, 4197.436, 4205.641, 4149.744, 4133.333, 4197.436, 450, 0, []
1628797604.7592, 4, 0, 4202.051, 4195.897, 4129.231, 4134.872, 4202.051, 16158, 0, []
1628797604.7671, 5, 0, 4192.821, 4200, 4116.923, 4131.282, 4190.769, 450, 0, []
1628797604.7751, 6, 0, 4186.154, 4197.949, 4123.59, 4126.667, 4184.615, 16167, 0, []
1628797604.7829, 7, 0, 4180, 4184.103, 4120, 4124.103, 4180.513, 450, 0, []
1628797604.7907, 8, 0, 4169.231, 4184.615, 4108.718, 4123.077, 4169.231, 450, 0, []
1628797604.7986, 9, 0, 4187.692, 4209.744, 4133.333, 4148.205, 4183.59, 16175, 0, []
1628797604.8064, 10, 0, 4209.744, 4226.667, 4154.359, 4166.154, 4207.692, 450, 0, []
1628797604.8143, 11, 0, 4188.718, 4208.205, 4125.641, 4135.385, 4190.769, 16184, 0, []
1628797604.822, 12, 0, 4164.615, 4181.026, 4103.077, 4110.256, 4167.179, 450, 0, []
1628797604.8299, 13, 0, 4168.718, 4181.538, 4111.795, 4124.103, 4176.41, 450, 0, []
1628797604.8377, 14, 0, 4174.872, 4195.897, 4115.385, 4131.282, 4184.615, 450, 0, []
1628797604.8457, 15, 0, 4171.282, 4189.231, 4114.359, 4115.385, 4172.821, 16184, 0, []
1628797604.8536, 16, 0, 4164.615, 4182.051, 4114.872, 4110.256, 4161.538, 0, 0, []
1628797604.8615, 17, 0, 4172.308, 4201.026, 4114.872, 4135.385, 4169.231, 0, 0, []
1628797604.8694, 18, 0, 4198.974, 4224.103, 4128.205, 4169.744, 4194.359, 0, 0, []
1628797604.8774, 19, 0, 4203.077, 4226.154, 4145.641, 4176.923, 4204.103, 0, 0, []
1628797604.8853, 20, 0, 4184.615, 4211.795, 4138.462, 4157.949, 4194.359, 0, 0, []
1628797604.8933, 21, 0, 4189.744, 4198.462, 4112.821, 4131.795, 4188.718, 0, 0, []
1628797604.9012, 22, 0, 4216.923, 4202.564, 4116.923, 4114.872, 4192.308, 0, 0, []
1628797604.9091, 23, 0, 4232.308, 4220.513, 4151.282, 4128.205, 4198.462, 0, 0, []
1628797604.917, 24, 0, 4220, 4214.872, 4148.718, 4141.026, 4188.718, 0, 0, []
1628797604.925, 25, 0, 4201.026, 4190.769, 4109.744, 4128.718, 4170.256, 0, 0, []
1628797604.9329, 26, 0, 4196.923, 4189.744, 4096.41, 4120.513, 4164.103, 0, 0, []
1628797604.9407, 27, 0, 4201.538, 4196.41, 4107.692, 4126.154, 4170.256, 0, 0, []
1628797604.9485, 28, 0, 4211.282, 4203.077, 4122.051, 4133.846, 4181.538, 0, 0, []
1628797604.9563, 29, 0, 4217.949, 4218.974, 4139.487, 4133.333, 4193.333, 0, 0, []
1628797604.9642, 30, 0, 4195.897, 4214.872, 4131.282, 4115.897, 4180, 0, 0, []
1628797604.972, 31, 0, 4165.128, 4184.615, 4102.564, 4097.949, 4150.769, 0, 0, []
1628797604.9799, 32, 0, 4165.128, 4177.949, 4103.59, 4103.59, 4141.538, 0, 0, []
1628797604.9876, 33, 0, 4170.769, 4192.308, 4111.795, 4110.769, 4141.026, 0, 0, []
1628797604.9956, 34, 0, 4165.641, 4181.538, 4101.026, 4106.667, 4143.077, 0, 0, []
1628797605.0035, 35, 0, 4167.692, 4167.692, 4105.641, 4110.256, 4154.872, 0, 0, []
1628797605.0115, 36, 0, 4168.205, 4166.667, 4119.487, 4109.744, 4153.333, 0, 0, []
1628797605.0194, 37, 0, 4166.154, 4169.744, 4118.974, 4107.179, 4149.744, 0, 0, []
