Timestamp, COUNTER, INTERPOLATED, AF3, T7, Pz, T8, AF4, RAW_CQ, MARKER_HARDWARE, MARKERS
1632390859.5248, 48, 0, 4174.872, 5817.949, 4074.872, 4208.718, 4158.974, 0, 0, []
1632390859.5326, 49, 0, 4203.59, 5945.128, 4075.385, 4235.897, 4158.974, 0, 0, []
1632390859.5404, 50, 0, 4205.641, 5844.615, 4070.256, 4252.308, 4160.513, 0, 0, []
1632390859.5483, 51, 0, 4178.462, 5639.487, 4077.436, 4225.128, 4155.385, 0, 0, []
1632390859.5561, 52, 0, 4170.769, 5728.718, 4076.923, 4195.385, 4142.051, 0, 0, []
1632390859.564, 53, 0, 4173.846, 5702.051, 4047.179, 4190.256, 4119.487, 0, 0, []
1632390859.5717, 54, 0, 4169.744, 5477.436, 4028.718, 4200, 4115.897, 0, 0, []
1632390859.5796, 55, 0, 4163.59, 5681.538, 4045.128, 4205.128, 4141.538, 0, 0, []
1632390859.5874, 56, 0, 4163.59, 6092.821, 4075.385, 4203.59, 4158.462, 0, 0, []
1632390859.5954, 57, 0, 4185.128, 6139.487, 4072.821, 4206.154, 4153.333, 0, 0, []
1632390859.6033, 58, 0, 4198.974, 5967.179, 4060.513, 4214.872, 4147.692, 0, 0, []
1632390859.6112, 59, 0, 4185.128, 5874.872, 4076.923, 4208.205, 4160, 0, 0, []
1632390859.6191, 60, 0, 4177.949, 5930.256, 4069.744, 4192.821, 4162.051, 0, 0, []
1632390859.6271, 61, 0, 4195.897, 6113.846, 4049.744, 4202.564, 4146.154, 0, 0, []
1632390859.635, 62, 0, 4203.077, 6261.538, 4056.923, 4216.41, 4156.923, 0, 0, []
1632390859.643, 63, 0, 4194.359, 6251.282, 4075.897, 4211.282, 4179.487, 0, 0, []
1632390859.6508, 64, 0, 4217.436, 6208.205, 4085.641, 4220, 4183.59, 450, 0, []
1632390859.6587, 65, 0, 4250.769, 6176.41, 4075.897, 4226.154, 4212.308, 450, 0, []
1632390859.6666, 66, 0, 4254.872, 6084.103, 4075.897, 4205.128, 4250.769, 16185, 0, []
1632390859.6746, 67, 0, 4282.564, 5882.051, 4088.718, 4204.103, 4263.59, 450, 0, []
1632390859.6825, 68, 0, 4338.462, 5468.205, 4096.41, 4226.667, 4305.641, 16106, 0, []
1632390859.6902, 69, 0, 4355.897, 5082.564, 4098.462, 4228.718, 4351.282, 450, 0, []
1632390859.6981, 70, 0, 4346.154, 5170.769, 4083.59, 4225.128, 4329.231, 16158, 0, []
1632390859.7059, 71, 0, 4346.667, 5364.103, 4088.205, 4226.154, 4308.718, 450, 0, []
1632390859.7138, 72, 0, 4333.846, 5201.538, 4095.897, 4215.385, 4311.795, 450, 0, []
1632390859.7216, 73, 0, 4319.487, 5039.487, 4073.333, 4209.744, 4283.077, 16154, 0, []
1632390859.7295, 74, 0, 4316.41, 5185.641, 4072.821, 4211.282, 4269.744, 450, 0, []
1632390859.7374, 75, 0, 4300, 5325.128, 4089.231, 4201.026, 4287.179, 16197, 0, []
1632390859.7453, 76, 0, 4287.692, 5222.564, 4082.564, 4192.821, 4270.256, 450, 0, []
1632390859.7531, 77, 0, 4286.154, 5069.231, 4073.846, 4197.436, 4243.077, 450, 0, []
1632390859.7611, 78, 0, 4266.154, 4990.256, 4095.897, 4204.103, 4254.872, 450, 0, []
1632390859.7689, 79, 0, 4246.667, 5018.462, 4131.795, 4220, 4261.538, 16197, 0, []
1632390859.7769, 80, 0, 4249.744, 5142.564, 4109.231, 4227.692, 4230.769, 450, 0, []
1632390859.7848, 81, 0, 4244.103, 5249.744, 4057.949, 4211.795, 4201.026, 450, 0, []
1632390859.7928, 82, 0, 4218.974, 5233.333, 4061.538, 4205.128, 4199.487, 450, 0, []
1632390859.8007, 83, 0, 4203.59, 5144.103, 4086.667, 4208.718, 4206.154, 16197, 0, []
1632390859.8086, 84, 0, 4218.462, 5016.41, 4091.795, 4218.462, 4201.026, 450, 0, []
1632390859.8165, 85, 0, 4245.128, 4935.385, 4085.128, 4234.872, 4194.872, 450, 0, []
1632390859.8243, 86, 0, 4234.359, 5114.872, 4085.641, 4232.821, 4191.795, 450, 0, []
1632390859.8322, 87, 0, 4197.436, 5376.923, 4092.821, 4206.667, 4189.744, 16197, 0, []
1632390859.84, 88, 0, 4190.769, 5516.923, 4087.179, 4188.205, 4186.154, 450, 0, []
1632390859.8478, 89, 0, 4223.077, 5598.974, 4087.179, 4202.564, 4183.077, 450, 0, []
1632390859.8556, 90, 0, 4237.436, 5512.308, 4086.667, 4215.385, 4192.308, 450, 0, []
1632390859.8635, 91, 0, 4211.795, 5357.436, 4083.59, 4205.641, 4204.615, 16197, 0, []
1632390859.8713, 92, 0, 4200.513, 5536.41, 4086.667, 4209.231, 4195.385, 450, 0, []
1632390859.8792, 93, 0, 4213.333, 5731.282, 4067.692, 4227.179, 4174.872, 450, 0, []
1632390859.8869, 94, 0, 4205.128, 5549.744, 4053.333, 4227.692, 4173.333, 450, 0, []
1632390859.8949, 95, 0, 4192.308, 5448.205, 4076.41, 4211.282, 4191.795, 16197, 0, []
1632390859.9028, 96, 0, 4201.026, 5464.615, 4085.641, 4208.205, 4186.154, 450, 0, []
1632390859.9108, 97, 0, 4217.436, 5423.59, 4069.744, 4224.615, 4165.128, 450, 0, []
1632390859.9187, 98, 0, 4226.667, 5523.59, 4070.769, 4239.487, 4178.974, 450, 0, []
1632390859.9266, 99, 0, 4218.462, 5445.641, 4095.385, 4228.205, 4201.538, 16197, 0, []
1632390859.9345, 100, 0, 4200, 5157.949, 4092.821, 4204.615, 4180.513, 450, 0, []
1632390859.9425, 101, 0, 4203.077, 5291.282, 4071.795, 4201.026, 4154.872, 450, 0, []
1632390859.9504, 102, 0, 4217.436, 5544.615, 4083.077, 4212.308, 4161.538, 450, 0, []
1632390859.9584, 103, 0, 4190.769, 5335.385, 4071.795, 4204.103, 4160.513, 16197, 0, []
1632390859.9662, 104, 0, 4160.513, 5292.308, 4052.821, 4192.308, 4148.718, 450, 0, []
1632390859.9741, 105, 0, 4187.179, 5730.256, 4062.564, 4201.538, 4157.949, 450, 0, []
1632390859.982, 106, 0, 4214.359, 6031.282, 4056.923, 4224.103, 4161.026, 450, 0, []
1632390859.9898, 107, 0, 4196.923, 5984.615, 4057.436, 4243.59, 4157.949, 16197, 0, []
1632390859.9977, 108, 0, 4167.179, 5872.821, 4065.128, 4230.769, 4158.462, 450, 0, []
1632390860.0054, 109, 0, 4153.333, 6000, 4058.974, 4201.026, 4137.949, 450, 0, []
1632390860.0133, 110, 0, 4160.513, 6168.718, 4049.744, 4203.59, 4113.333, 450, 0, []
1632390860.0211, 111, 0, 4165.641, 5872.821, 4053.846, 4214.872, 4118.974, 16197, 0, []
1632390860.029, 112, 0, 4152.821, 5313.846, 4064.103, 4205.128, 4134.359, 450, 0, []
1632390860.0368, 113, 0, 4157.949, 5203.59, 4071.282, 4202.051, 4150.256, 450, 0, []
1632390860.0446, 114, 0, 4197.436, 5360.513, 4094.359, 4224.103, 4166.154, 450, 0, []
1632390860.0524, 115, 0, 4213.846, 5110.256, 4095.897, 4228.718, 4153.846, 16197, 0, []
1632390860.0604, 116, 0, 4187.179, 4694.359, 4062.051, 4204.615, 4134.872, 450, 0, []
1632390860.0683, 117, 0, 4169.744, 4463.59, 4070.769, 4198.974, 4145.128, 450, 0, []
1632390860.0763, 118, 0, 4168.718, 4318.462, 4088.718, 4205.641, 4150.769, 450, 0, []
1632390860.0841, 119, 0, 4160.513, 4402.564, 4074.359, 4192.821, 4135.385, 16197, 0, []
1632390860.0921, 120, 0, 4166.667, 4701.538, 4076.923, 4185.128, 4132.308, 450, 0, []
1632390860.1, 121, 0, 4182.564, 4905.128, 4079.487, 4194.872, 4129.231, 450, 0, []
1632390860.108, 122, 0, 4180.513, 5008.205, 4067.692, 4192.308, 4117.436, 450, 0, []
1632390860.1159, 123, 0, 4170.256, 5061.538, 4067.179, 4186.154, 4125.128, 16197, 0, []
1632390860.1239, 124, 0, 4169.744, 4932.308, 4083.077, 4194.359, 4141.538, 450, 0, []
1632390860.1317, 125, 0, 4172.308, 4935.385, 4093.846, 4195.385, 4144.103, 450, 0, []
1632390860.1395, 126, 0, 4171.282, 5103.59, 4073.333, 4185.641, 4130.256, 450, 0, []
1632390860.1474, 127, 0, 4172.821, 4892.308, 4057.436, 4191.282, 4111.795, 16197, 0, []
1632390860.1552, 128, 0, 4174.359, 4660, 4060, 4200.513, 4108.205, 450, 0, []
1632390860.1631, 0, 0, 4168.205, 4872.308, 4064.615, 4193.333, 4121.026, 450, 0, []
1632390860.1708, 1, 0, 4156.41, 4975.385, 4079.487, 4192.821, 4124.615, 450, 0, []
1632390860.1787, 2, 0, 4149.744, 4797.436, 4088.205, 4203.59, 4122.564, 16173, 0, []
1632390860.1865, 3, 0, 4151.795, 4844.615, 4086.667, 4196.41, 4120, 450, 0, []
1632390860.1945, 4, 0, 4151.795, 4905.128, 4075.385, 4180.513, 4100.513, 16117, 0, []
1632390860.2024, 5, 0, 4146.667, 4596.41, 4055.897, 4187.692, 4080.513, 450, 0, []
1632390860.2103, 6, 0, 4145.641, 4303.59, 4056.41, 4209.744, 4083.59, 16151, 0, []
1632390860.2182, 7, 0, 4156.923, 4362.564, 4063.59, 4210.769, 4099.487, 450, 0, []
1632390860.2262, 8, 0, 4156.41, 4702.564, 4066.667, 4198.462, 4110.769, 450, 0, []
1632390860.2341, 9, 0, 4135.385, 4987.692, 4066.154, 4196.923, 4106.667, 16159, 0, []
1632390860.2421, 10, 0, 4130.256, 4912.821, 4055.897, 4196.923, 4101.026, 450, 0, []
1632390860.2499, 11, 0, 4168.718, 4740, 4062.051, 4183.077, 4122.564, 16200, 0, []
1632390860.2579, 12, 0, 4221.026, 4834.872, 4066.154, 4173.846, 4157.436, 450, 0, []
1632390860.2658, 13, 0, 4252.308, 4937.436, 4058.462, 4177.436, 4174.872, 450, 0, []
1632390860.2738, 14, 0, 4265.641, 4895.897, 4057.436, 4179.487, 4190.256, 450, 0, []
1632390860.2817, 15, 0, 4266.667, 5013.846, 4060.513, 4172.308, 4207.692, 16200, 0, []
1632390860.2894, 16, 0, 4266.154, 5231.282, 4068.205, 4168.718, 4205.641, 0, 0, []
1632390860.2973, 17, 0, 4272.308, 5177.949, 4058.462, 4182.564, 4192.308, 0, 0, []
1632390860.3051, 18, 0, 4263.077, 4921.538, 4056.41, 4207.692, 4181.026, 0, 0, []
1632390860.313, 19, 0, 4226.154, 4930.256, 4067.692, 4212.821, 4162.051, 0, 0, []
1632390860.3208, 20, 0, 4179.487, 5093.333, 4050.769, 4185.641, 4133.333, 0, 0, []
1632390860.3286, 21, 0, 4165.128, 5032.821, 4041.026, 4159.487, 4119.487, 0, 0, []
1632390860.3364, 22, 0, 4178.974, 5042.051, 4043.59, 4156.41, 4111.795, 0, 0, []
1632390860.3443, 23, 0, 4188.205, 5366.667, 4040, 4175.897, 4093.846, 0, 0, []
1632390860.3521, 24, 0, 4191.795, 5443.077, 4044.615, 4192.821, 4091.795, 0, 0, []
1632390860.3601, 25, 0, 4186.667, 5056.41, 4052.821, 4180.513, 4108.718, 0, 0, []
1632390860.3679, 26, 0, 4159.487, 4863.59, 4061.538, 4165.641, 4101.538, 0, 0, []
1632390860.3759, 27, 0, 4141.026, 5015.897, 4056.923, 4161.538, 4085.128, 0, 0, []
1632390860.3838, 28, 0, 4158.462, 5077.949, 4050.769, 4160.513, 4094.872, 0, 0, []
1632390860.3918, 29, 0, 4177.949, 5012.821, 4045.128, 4168.205, 4089.231, 0, 0, []
1632390860.3997, 30, 0, 4174.359, 5004.615, 4021.538, 4175.897, 4064.615, 0, 0, []
1632390860.4076, 31, 0, 4170.769, 4950.769, 4015.897, 4172.308, 4073.333, 0, 0, []
1632390860.4155, 32, 0, 4174.359, 4777.436, 4033.333, 4163.077, 4096.923, 0, 0, []
1632390860.4235, 33, 0, 4163.59, 4634.359, 4046.667, 4152.308, 4095.897, 0, 0, []
1632390860.4314, 34, 0, 4147.692, 4488.718, 4064.103, 4158.462, 4089.744, 0, 0, []
1632390860.4392, 35, 0, 4153.333, 4347.692, 4071.795, 4173.333, 4104.103, 0, 0, []
1632390860.447, 36, 0, 4182.564, 4491.282, 4071.282, 4178.462, 4123.59, 0, 0, []
1632390860.4548, 37, 0, 4209.231, 4806.667, 4064.103, 4189.231, 4127.179, 0, 0, []
1632390860.4627, 38, 0, 4201.026, 4768.205, 4036.923, 4194.359, 4097.949, 0, 0, []
1632390860.4705, 39, 0, 4180.513, 4573.846, 4026.154, 4177.436, 4072.308, 0, 0, []
1632390860.4784, 40, 0, 4187.692, 4826.154, 4048.205, 4171.282, 4100.513, 0, 0, []
1632390860.4861, 41, 0, 4202.051, 5002.564, 4088.718, 4190.769, 4135.897, 0, 0, []
1632390860.494, 42, 0, 4190.769, 4419.487, 4103.077, 4186.667, 4127.692, 0, 0, []
1632390860.5018, 43, 0, 4177.436, 3713.846, 4095.897, 4171.282, 4114.359, 0, 0, []
1632390860.5097, 44, 0, 4176.923, 3518.462, 4100, 4183.59, 4114.872, 0, 0, []
1632390860.5175, 45, 0, 4164.103, 3454.359, 4080.513, 4185.128, 4100, 0, 0, []
1632390860.5254, 46, 0, 4164.103, 3265.128, 4077.949, 4180, 4103.077, 0, 0, []
1632390860.5333, 47, 0, 4204.103, 3198.462, 4116.41, 4202.051, 4147.179, 0, 0, []
1632390860.5413, 48, 0, 4231.282, 3199.487, 4125.641, 4217.949, 4167.692, 0, 0, []
1632390860.5492, 49, 0, 4227.179, 3120.513, 4114.872, 4209.744, 4161.026, 0, 0, []
1632390860.5572, 50, 0, 4219.487, 3057.949, 4103.077, 4196.923, 4154.359, 0, 0, []
1632390860.565, 51, 0, 4217.949, 3028.205, 4089.744, 4193.333, 4144.615, 0, 0, []
1632390860.573, 52, 0, 4224.103, 2981.538, 4085.128, 4203.077, 4146.154, 0, 0, []
1632390860.5809, 53, 0, 4232.821, 2929.231, 4075.385, 4208.718, 4155.385, 0, 0, []
1632390860.5887, 54, 0, 4229.744, 2896.923, 4075.385, 4206.667, 4152.821, 0, 0, []
1632390860.5966, 55, 0, 4222.564, 2858.462, 4076.923, 4216.41, 4147.179, 0, 0, []
1632390860.6043, 56, 0, 4222.564, 2813.846, 4073.846, 4228.718, 4154.872, 0, 0, []
1632390860.6122, 57, 0, 4233.846, 2785.641, 4085.128, 4232.308, 4167.692, 0, 0, []
1632390860.62, 58, 0, 4236.41, 2757.436, 4089.231, 4223.077, 4175.385, 0, 0, []
1632390860.6279, 59, 0, 4231.795, 2721.026, 4089.231, 4215.385, 4176.923, 0, 0, []
1632390860.6357, 60, 0, 4246.667, 2704.103, 4098.462, 4231.795, 4190.256, 0, 0, []
1632390860.6435, 61, 0, 4263.59, 2693.333, 4108.718, 4249.744, 4210.769, 0, 0, []
1632390860.6514, 62, 0, 4262.564, 2662.051, 4113.333, 4237.436, 4219.487, 0, 0, []
1632390860.6594, 63, 0, 4280.513, 2643.077, 4113.333, 4222.051, 4242.051, 0, 0, []
1632390860.6674, 64, 0, 4322.564, 2629.744, 4121.538, 4232.821, 4289.231, 450, 0, []
1632390860.6753, 65, 0, 4352.821, 2600.513, 4126.154, 4236.41, 4329.231, 450, 0, []
1632390860.6831, 66, 0, 4375.897, 2592.821, 4126.154, 4215.897, 4359.487, 16172, 0, []
1632390860.6911, 67, 0, 4403.59, 2610.769, 4126.667, 4208.718, 4388.205, 450, 0, []
1632390860.699, 68, 0, 4413.333, 2603.59, 4107.179, 4222.051, 4388.205, 16234, 0, []
1632390860.707, 69, 0, 4389.231, 2574.359, 4094.359, 4237.436, 4356.41, 450, 0, []
1632390860.7149, 70, 0, 4358.462, 2566.154, 4098.462, 4246.667, 4332.308, 16111, 0, []
1632390860.7228, 71, 0, 4330.769, 2555.385, 4097.949, 4247.692, 4328.718, 450, 0, []
1632390860.7307, 72, 0, 4301.538, 2533.333, 4107.692, 4248.205, 4318.462, 450, 0, []
1632390860.7387, 73, 0, 4276.41, 2541.026, 4117.436, 4258.974, 4296.923, 16126, 0, []
1632390860.7466, 74, 0, 4252.821, 2547.692, 4131.282, 4267.179, 4276.923, 450, 0, []
1632390860.7544, 75, 0, 4224.103, 2516.923, 4136.923, 4255.385, 4258.974, 16169, 0, []
1632390860.7622, 76, 0, 4207.179, 2503.077, 4121.538, 4247.692, 4246.667, 450, 0, []
1632390860.77, 77, 0, 4208.205, 2511.282, 4127.692, 4257.436, 4236.41, 450, 0, []
1632390860.7779, 78, 0, 4188.718, 2498.974, 4129.231, 4250.769, 4218.462, 450, 0, []
1632390860.7857, 79, 0, 4160.513, 2490.769, 4111.795, 4241.538, 4205.128, 16169, 0, []
1632390860.7936, 80, 0, 4165.641, 2496.923, 4110.769, 4258.974, 4211.282, 450, 0, []
1632390860.8013, 81, 0, 4172.308, 2486.667, 4112.821, 4264.103, 4211.282, 450, 0, []
1632390860.8092, 82, 0, 4160.513, 2476.41, 4117.949, 4241.538, 4198.462, 450, 0, []
1632390860.817, 83, 0, 4162.564, 2478.462, 4126.154, 4235.897, 4196.923, 16169, 0, []
1632390860.825, 84, 0, 4178.462, 2471.282, 4129.231, 4246.667, 4202.564, 450, 0, []
1632390860.8329, 85, 0, 4186.154, 2477.436, 4115.385, 4240.513, 4204.103, 450, 0, []
1632390860.8408, 86, 0, 4193.333, 2495.385, 4093.333, 4232.308, 4208.718, 450, 0, []
1632390860.8487, 87, 0, 4197.436, 2487.692, 4085.641, 4236.41, 4206.667, 16169, 0, []
1632390860.8567, 88, 0, 4187.179, 2472.821, 4073.333, 4238.462, 4190.256, 450, 0, []
1632390860.8646, 89, 0, 4179.487, 2473.846, 4070.769, 4243.077, 4183.077, 450, 0, []
1632390860.8726, 90, 0, 4187.692, 2477.949, 4080.513, 4255.897, 4183.59, 450, 0, []
1632390860.8805, 91, 0, 4189.744, 2482.051, 4069.744, 4256.923, 4174.359, 16169, 0, []
1632390860.8884, 92, 0, 4176.923, 2484.615, 4069.744, 4251.795, 4161.026, 450, 0, []
1632390860.8963, 93, 0, 4176.41, 2484.103, 4088.205, 4251.282, 4165.641, 450, 0, []
1632390860.9043, 94, 0, 4191.795, 2474.872, 4094.359, 4236.41, 4182.051, 450, 0, []
1632390860.9122, 95, 0, 4193.333, 2461.538, 4091.795, 4208.718, 4186.667, 16169, 0, []
1632390860.92, 96, 0, 4183.59, 2482.564, 4092.821, 4204.615, 4186.154, 450, 0, []
1632390860.9278, 97, 0, 4176.41, 2516.923, 4101.026, 4224.103, 4190.769, 450, 0, []
1632390860.9356, 98, 0, 4161.026, 2502.564, 4087.179, 4216.41, 4186.154, 450, 0, []
1632390860.9435, 99, 0, 4158.974, 2487.179, 4086.154, 4197.436, 4180, 16169, 0, []
1632390860.9513, 100, 0, 4187.179, 2518.462, 4128.718, 4220.513, 4198.974, 450, 0, []
1632390860.9592, 101, 0, 4194.359, 2531.282, 4127.179, 4237.436, 4206.667, 450, 0, []
1632390860.9669, 102, 0, 4158.462, 2500.513, 4092.308, 4212.821, 4174.359, 450, 0, []
1632390860.9748, 103, 0, 4141.538, 2484.615, 4092.821, 4204.615, 4153.846, 16169, 0, []
1632390860.9826, 104, 0, 4156.41, 2503.59, 4109.231, 4227.179, 4173.846, 450, 0, []
1632390860.9906, 105, 0, 4173.333, 2520, 4117.949, 4234.872, 4201.026, 450, 0, []
1632390860.9985, 106, 0, 4179.487, 2522.564, 4101.026, 4227.179, 4208.205, 450, 0, []
1632390861.0064, 107, 0, 4173.333, 2514.872, 4076.41, 4226.667, 4193.333, 16169, 0, []
1632390861.0143, 108, 0, 4162.051, 2509.744, 4064.103, 4222.564, 4169.231, 450, 0, []
1632390861.0223, 109, 0, 4151.795, 2525.641, 4053.333, 4208.718, 4148.205, 450, 0, []
1632390861.0302, 110, 0, 4147.179, 2542.051, 4048.205, 4202.051, 4134.872, 450, 0, []
1632390861.0382, 111, 0, 4143.59, 2546.667, 4045.128, 4207.179, 4128.205, 16169, 0, []
1632390861.046, 112, 0, 4136.41, 2550.769, 4056.923, 4212.308, 4115.897, 450, 0, []
1632390861.054, 113, 0, 4129.231, 2562.051, 4068.205, 4205.128, 4098.462, 450, 0, []
1632390861.0619, 114, 0, 4119.487, 2554.872, 4059.487, 4189.744, 4089.231, 450, 0, []
1632390861.0697, 115, 0, 4108.205, 2540, 4060, 4188.205, 4086.154, 16169, 0, []
1632390861.0776, 116, 0, 4098.974, 2564.615, 4058.974, 4185.641, 4085.128, 450, 0, []
1632390861.0853, 117, 0, 4087.692, 2590.256, 4056.41, 4171.282, 4086.667, 450, 0, []
1632390861.0932, 118, 1, 4088.333, 2595.128, 4056.41, 4172.372, 4085.705, 450, 0, []
1632390861.1011, 119, 1, 4088.974, 2600, 4056.41, 4173.462, 4084.744, 450, 0, []
1632390861.109, 120, 1, 4089.615, 2604.872, 4056.41, 4174.551, 4083.782, 450, 0, []
1632390861.1169, 121, 1, 4090.256, 2609.744, 4056.41, 4175.641, 4082.821, 450, 0, []
1632390861.1247, 122, 1, 4090.897, 2614.615, 4056.41, 4176.731, 4081.859, 450, 0, []
1632390861.1326, 123, 1, 4091.538, 2619.487, 4056.41, 4177.821, 4080.897, 450, 0, []
1632390861.1405, 124, 1, 4092.179, 2624.359, 4056.41, 4178.91, 4079.936, 450, 0, []
1632390861.1484, 125, 0, 4092.821, 2629.231, 4056.41, 4180, 4078.974, 450, 0, []
1632390861.1562, 126, 0, 4098.462, 2634.872, 4071.795, 4187.692, 4100, 450, 0, []
1632390861.164, 127, 0, 4085.641, 2651.282, 4049.744, 4178.462, 4091.795, 16169, 0, []
1632390861.1718, 128, 0, 4084.615, 2670.769, 4052.821, 4191.795, 4099.487, 450, 0, []
1632390861.1797, 0, 0, 4100.513, 2663.077, 4063.077, 4215.385, 4121.538, 450, 0, []
1632390861.1875, 1, 0, 4106.154, 2653.333, 4054.359, 4204.615, 4116.41, 450, 0, []
1632390861.1954, 2, 0, 4113.333, 2677.949, 4049.231, 4195.897, 4103.077, 16159, 0, []
1632390861.2031, 3, 0, 4131.795, 2701.538, 4057.436, 4211.282, 4106.667, 450, 0, []
1632390861.2109, 4, 0, 4144.103, 2697.949, 4060.513, 4213.846, 4111.795, 16175, 0, []
1632390861.2188, 5, 0, 4145.641, 2705.128, 4043.077, 4203.077, 4106.154, 450, 0, []
1632390861.2266, 6, 0, 4132.308, 2721.538, 4042.051, 4197.436, 4094.872, 16187, 0, []
1632390861.2345, 7, 0, 4112.308, 2723.59, 4051.795, 4186.154, 4093.333, 450, 0, []
1632390861.2422, 8, 0, 4109.231, 2727.179, 4053.333, 4178.462, 4107.179, 450, 0, []
1632390861.2501, 9, 0, 4121.538, 2749.231, 4070.256, 4186.154, 4121.538, 16158, 0, []
1632390861.2579, 10, 0, 4126.154, 2769.744, 4083.59, 4185.641, 4130.769, 450, 0, []
1632390861.2658, 11, 0, 4114.872, 2764.615, 4076.41, 4179.487, 4133.846, 16208, 0, []
1632390861.2736, 12, 0, 4105.641, 2752.821, 4067.692, 4189.744, 4128.718, 450, 0, []
1632390861.2814, 13, 0, 4115.385, 2761.538, 4077.949, 4213.333, 4134.359, 450, 0, []
1632390861.2892, 14, 0, 4128.205, 2773.333, 4089.744, 4230.256, 4147.179, 450, 0, []
1632390861.2971, 15, 0, 4115.897, 2775.385, 4050.769, 4217.436, 4127.179, 16208, 0, []
1632390861.3049, 16, 0, 4100.513, 2800, 4020, 4202.564, 4097.949, 0, 0, []
1632390861.3128, 17, 0, 4112.308, 2824.615, 4047.179, 4215.385, 4106.154, 0, 0, []
1632390861.3205, 18, 0, 4114.872, 2811.282, 4060.513, 4211.282, 4111.795, 0, 0, []
1632390861.3284, 19, 0, 4095.385, 2803.077, 4054.359, 4180, 4103.59, 0, 0, []
1632390861.3362, 20, 0, 4100.513, 2838.462, 4067.692, 4182.564, 4122.564, 0, 0, []
1632390861.344, 21, 0, 4106.154, 2855.897, 4077.436, 4204.615, 4135.385, 0, 0, []
1632390861.3519, 22, 0, 4076.923, 2831.282, 4058.462, 4192.821, 4108.205, 0, 0, []
1632390861.3597, 23, 0, 4067.179, 2846.667, 4049.744, 4186.667, 4106.154, 0, 0, []
1632390861.3676, 24, 0, 4095.385, 2883.59, 4080, 4207.692, 4142.564, 0, 0, []
1632390861.3754, 25, 0, 4101.026, 2871.282, 4072.308, 4190.256, 4136.41, 0, 0, []
1632390861.3833, 26, 0, 4087.179, 2845.128, 4034.359, 4163.59, 4100, 0, 0, []
1632390861.3911, 27, 0, 4078.462, 2853.333, 4020.513, 4175.897, 4084.103, 0, 0, []
1632390861.3989, 28, 0, 4075.385, 2881.026, 4017.436, 4185.641, 4079.487, 0, 0, []
1632390861.4067, 29, 0, 4092.308, 2900.513, 4035.385, 4185.641, 4085.641, 0, 0, []
1632390861.4146, 30, 0, 4113.333, 2914.872, 4048.205, 4189.231, 4109.231, 0, 0, []
1632390861.4224, 31, 0, 4098.974, 2935.897, 4032.821, 4173.846, 4116.41, 0, 0, []
1632390861.4303, 32, 0, 4078.974, 2951.282, 4029.744, 4150.256, 4104.103, 0, 0, []
1632390861.438, 33, 0, 4083.59, 2947.692, 4039.487, 4156.41, 4110.769, 0, 0, []
1632390861.4459, 34, 0, 4080, 2938.974, 4047.179, 4181.538, 4121.026, 0, 0, []
1632390861.4537, 35, 0, 4066.154, 2935.385, 4041.538, 4196.923, 4118.974, 0, 0, []
1632390861.4616, 36, 0, 4057.949, 2927.179, 4020.513, 4184.103, 4105.128, 0, 0, []
1632390861.4694, 37, 0, 4064.103, 2949.231, 4024.103, 4173.846, 4099.487, 0, 0, []
1632390861.4772, 38, 0, 4074.872, 2984.103, 4031.282, 4185.641, 4100, 0, 0, []
1632390861.485, 39, 0, 4064.615, 2973.333, 4022.051, 4177.949, 4076.41, 0, 0, []
1632390861.4928, 40, 0, 4063.077, 2968.718, 4026.667, 4167.692, 4073.333, 0, 0, []
1632390861.5007, 41, 0, 4080, 3000, 4037.949, 4174.359, 4107.179, 0, 0, []
1632390861.5085, 42, 0, 4075.897, 3023.077, 4036.41, 4168.718, 4111.282, 0, 0, []
1632390861.5163, 43, 0, 4049.744, 3026.154, 4021.538, 4154.872, 4088.205, 0, 0, []
1632390861.5241, 44, 0, 4051.282, 3022.051, 4028.718, 4167.692, 4097.436, 0, 0, []
1632390861.532, 45, 0, 4076.41, 3023.59, 4044.103, 4185.128, 4117.949, 0, 0, []
1632390861.5398, 46, 0, 4077.949, 3039.487, 4032.308, 4176.41, 4106.667, 0, 0, []
1632390861.5477, 47, 0, 4065.641, 3045.128, 4014.359, 4170.256, 4085.641, 0, 0, []
1632390861.5555, 48, 0, 4067.179, 3033.846, 4007.179, 4174.872, 4070.769, 0, 0, []
1632390861.5633, 49, 0, 4082.051, 3055.897, 4027.692, 4181.026, 4068.205, 0, 0, []
1632390861.5711, 50, 0, 4088.205, 3086.154, 4040, 4177.949, 4081.026, 0, 0, []
1632390861.579, 51, 0, 4074.359, 3091.282, 4020, 4162.564, 4090.256, 0, 0, []
1632390861.5868, 52, 0, 4065.128, 3102.051, 4033.846, 4163.59, 4102.051, 0, 0, []
1632390861.5947, 53, 0, 4072.308, 3118.974, 4058.462, 4176.41, 4118.974, 0, 0, []
1632390861.6024, 54, 0, 4070.769, 3129.744, 4060, 4183.59, 4121.538, 0, 0, []
1632390861.6103, 55, 0, 4069.231, 3135.385, 4078.462, 4201.026, 4129.231, 0, 0, []
1632390861.6181, 56, 0, 4079.487, 3130.769, 4094.872, 4219.487, 4144.615, 0, 0, []
1632390861.6259, 57, 0, 4084.103, 3132.821, 4082.564, 4214.872, 4129.744, 0, 0, []
1632390861.6338, 58, 0, 4083.59, 3153.333, 4056.41, 4196.41, 4104.103, 0, 0, []
1632390861.6416, 59, 0, 4087.692, 3166.667, 4047.692, 4190.769, 4104.615, 0, 0, []
1632390861.6494, 60, 0, 4094.359, 3171.795, 4050.769, 4199.487, 4107.692, 0, 0, []
1632390861.6572, 61, 0, 4102.564, 3183.59, 4035.385, 4198.974, 4095.897, 0, 0, []
1632390861.6651, 62, 0, 4105.641, 3193.333, 4027.179, 4187.692, 4089.744, 0, 0, []
1632390861.6729, 63, 0, 4091.282, 3198.974, 4025.128, 4175.385, 4091.282, 0, 0, []
1632390861.6807, 64, 0, 4088.205, 3206.667, 4032.308, 4178.462, 4107.179, 450, 0, []
1632390861.6885, 65, 0, 4107.692, 3226.154, 4059.487, 4192.821, 4135.385, 450, 0, []
1632390861.6964, 66, 0, 4111.795, 3263.077, 4071.795, 4198.462, 4147.692, 16144, 0, []
1632390861.7042, 67, 0, 4101.026, 3286.667, 4076.923, 4199.487, 4139.487, 450, 0, []
1632390861.7121, 68, 0, 4111.282, 3284.103, 4088.718, 4208.718, 4146.667, 16149, 0, []
1632390861.7198, 69, 0, 4130.769, 3285.128, 4094.872, 4215.897, 4163.59, 450, 0, []
1632390861.7277, 70, 0, 4132.821, 3302.051, 4094.872, 4212.308, 4162.051, 16143, 0, []
1632390861.7355, 71, 0, 4130.256, 3320, 4084.103, 4210.769, 4155.385, 450, 0, []
1632390861.7434, 72, 0, 4121.026, 3312.308, 4073.846, 4206.667, 4148.205, 450, 0, []
1632390861.7512, 73, 0, 4109.744, 3308.205, 4063.077, 4194.359, 4136.41, 16088, 0, []
1632390861.759, 74, 0, 4114.359, 3340.513, 4061.538, 4195.385, 4141.538, 450, 0, []
1632390861.7668, 75, 0, 4122.564, 3352.308, 4083.59, 4210.256, 4158.974, 16296, 0, []
1632390861.7747, 76, 0, 4117.949, 3327.179, 4086.667, 4209.744, 4157.436, 450, 0, []
1632390861.7825, 77, 0, 4110.256, 3326.667, 4077.436, 4198.974, 4149.231, 450, 0, []
1632390861.7904, 78, 0, 4121.026, 3356.923, 4081.538, 4203.59, 4162.564, 450, 0, []
1632390861.7981, 79, 0, 4132.821, 3376.923, 4085.128, 4215.897, 4174.872, 16296, 0, []
1632390861.8059, 80, 0, 4128.718, 3372.308, 4087.179, 4224.103, 4171.282, 450, 0, []
1632390861.8138, 81, 0, 4111.282, 3356.923, 4068.718, 4216.41, 4155.385, 450, 0, []
1632390861.8216, 82, 0, 4093.846, 3360, 4061.538, 4200.513, 4138.974, 450, 0, []
1632390861.8295, 83, 0, 4097.436, 3385.641, 4081.026, 4202.051, 4141.538, 16296, 0, []
1632390861.8372, 84, 0, 4114.359, 3389.231, 4091.282, 4210.769, 4156.41, 450, 0, []
1632390861.8451, 85, 0, 4118.462, 3379.487, 4096.923, 4206.154, 4156.923, 450, 0, []
1632390861.8529, 86, 0, 4108.718, 3406.667, 4095.385, 4205.641, 4152.308, 450, 0, []
1632390861.8608, 87, 0, 4106.154, 3426.154, 4084.103, 4218.974, 4154.359, 16296, 0, []
1632390861.8686, 88, 0, 4095.385, 3399.487, 4061.026, 4206.154, 4129.744, 450, 0, []
1632390861.8764, 89, 0, 4079.487, 3398.462, 4029.744, 4176.41, 4103.077, 450, 0, []
1632390861.8842, 90, 0, 4114.359, 3432.821, 4041.026, 4188.205, 4140.513, 450, 0, []
1632390861.892, 91, 0, 4174.872, 3435.385, 4075.385, 4218.974, 4206.154, 16296, 0, []
1632390861.8999, 92, 0, 4190.256, 3429.744, 4088.718, 4219.487, 4230.769, 450, 0, []
1632390861.9077, 93, 0, 4178.974, 3454.872, 4095.385, 4215.897, 4227.179, 450, 0, []
1632390861.9155, 94, 0, 4172.308, 3468.718, 4090.256, 4222.051, 4217.436, 450, 0, []
1632390861.9233, 95, 0, 4155.897, 3454.359, 4078.462, 4215.385, 4196.41, 16296, 0, []
1632390861.9312, 96, 0, 4136.41, 3458.974, 4070.769, 4203.077, 4180, 450, 0, []
1632390861.939, 97, 0, 4121.538, 3474.872, 4065.128, 4194.359, 4168.718, 450, 0, []
1632390861.9468, 98, 0, 4116.923, 3467.179, 4066.667, 4186.154, 4157.436, 450, 0, []
1632390861.9546, 99, 0, 4131.282, 3473.846, 4074.359, 4187.692, 4167.179, 16296, 0, []
1632390861.9625, 100, 0, 4149.231, 3513.333, 4100.513, 4199.487, 4191.795, 450, 0, []
1632390861.9703, 101, 0, 4164.103, 3528.718, 4114.872, 4210.769, 4206.154, 450, 0, []
1632390861.9781, 102, 0, 4167.692, 3527.692, 4100.513, 4211.282, 4203.077, 450, 0, []
1632390861.986, 103, 0, 4158.462, 3547.179, 4093.846, 4203.077, 4201.538, 16296, 0, []
1632390861.9937, 104, 0, 4164.103, 3560, 4090.256, 4194.359, 4210.256, 450, 0, []
1632390862.0016, 105, 0, 4183.077, 3563.59, 4087.179, 4196.41, 4206.667, 450, 0, []
1632390862.0094, 106, 0, 4193.333, 3589.231, 4083.077, 4214.872, 4195.385, 450, 0, []
1632390862.0173, 107, 0, 4192.308, 3600, 4072.308, 4227.179, 4195.897, 16296, 0, []
1632390862.0251, 108, 0, 4184.615, 3577.436, 4065.128, 4226.667, 4191.282, 450, 0, []
1632390862.0329, 109, 0, 4174.359, 3585.128, 4060, 4227.692, 4183.59, 450, 0, []
1632390862.0407, 110, 0, 4178.974, 3611.795, 4074.359, 4237.949, 4199.487, 450, 0, []
1632390862.0486, 111, 0, 4196.41, 3606.667, 4087.692, 4241.538, 4220.513, 16296, 0, []
1632390862.0564, 112, 0, 4201.026, 3600.513, 4080, 4238.974, 4228.718, 450, 0, []
1632390862.0643, 113, 0, 4202.051, 3624.615, 4093.846, 4251.795, 4241.026, 450, 0, []
1632390862.072, 114, 0, 4203.077, 3641.026, 4109.744, 4258.462, 4254.872, 450, 0, []
1632390862.0799, 115, 0, 4189.231, 3643.077, 4111.282, 4242.564, 4248.718, 16296, 0, []
1632390862.0877, 116, 0, 4174.872, 3656.923, 4106.154, 4224.615, 4230.256, 450, 0, []
1632390862.0956, 117, 0, 4168.205, 3649.231, 4089.231, 4213.846, 4217.949, 450, 0, []
1632390862.1034, 118, 0, 4165.641, 3635.385, 4086.667, 4212.821, 4209.231, 450, 0, []
1632390862.1112, 119, 0, 4172.308, 3668.205, 4085.128, 4212.308, 4203.59, 16296, 0, []
1632390862.119, 120, 0, 4188.205, 3692.821, 4078.974, 4215.385, 4204.615, 450, 0, []
1632390862.1268, 121, 0, 4196.923, 3676.41, 4078.462, 4225.641, 4204.615, 450, 0, []
1632390862.1347, 122, 0, 4189.231, 3678.462, 4064.615, 4228.718, 4190.769, 450, 0, []
1632390862.1425, 123, 0, 4183.077, 3695.385, 4064.615, 4235.897, 4190.256, 16296, 0, []
1632390862.1504, 124, 0, 4194.359, 3706.154, 4080, 4252.308, 4217.949, 450, 0, []
1632390862.1581, 125, 0, 4206.667, 3716.923, 4087.692, 4251.795, 4235.897, 450, 0, []
1632390862.166, 126, 0, 4206.667, 3709.744, 4088.205, 4238.462, 4235.897, 450, 0, []
1632390862.1738, 127, 0, 4199.487, 3707.179, 4083.077, 4236.923, 4234.872, 16296, 0, []
1632390862.1817, 128, 0, 4190.769, 3725.641, 4090.769, 4238.462, 4235.385, 450, 0, []
1632390862.1895, 0, 0, 4187.692, 3735.385, 4096.923, 4238.974, 4236.923, 450, 0, []
1632390862.1973, 1, 0, 4192.308, 3737.436, 4089.744, 4236.41, 4234.872, 450, 0, []
1632390862.2051, 2, 0, 4190.769, 3741.538, 4088.718, 4223.077, 4226.667, 16085, 0, []
1632390862.213, 3, 0, 4182.051, 3738.974, 4090.256, 4211.282, 4217.949, 450, 0, []
1632390862.2208, 4, 0, 4202.564, 3746.154, 4100.513, 4216.923, 4215.385, 16120, 0, []
1632390862.2287, 5, 0, 4234.359, 3760.513, 4100, 4223.077, 4206.667, 450, 0, []
1632390862.2364, 6, 0, 4224.615, 3765.641, 4075.385, 4224.615, 4193.333, 16236, 0, []
1632390862.2443, 7, 0, 4202.564, 3779.487, 4070.256, 4236.41, 4194.872, 450, 0, []
1632390862.2521, 8, 0, 4200, 3788.718, 4074.359, 4237.436, 4200, 450, 0, []
1632390862.2599, 9, 0, 4196.923, 3774.359, 4076.923, 4224.615, 4202.051, 16115, 0, []
1632390862.2678, 10, 0, 4193.846, 3765.128, 4085.128, 4228.718, 4215.385, 450, 0, []
1632390862.2755, 11, 0, 4190.769, 3763.59, 4094.872, 4235.385, 4218.462, 16299, 0, []
1632390862.2834, 12, 0, 4174.359, 3764.615, 4104.615, 4224.615, 4197.436, 450, 0, []
1632390862.2912, 13, 0, 4166.667, 3795.897, 4107.179, 4214.872, 4189.744, 450, 0, []
1632390862.2991, 14, 0, 4178.462, 3840, 4121.538, 4215.385, 4197.436, 450, 0, []
1632390862.3069, 15, 0, 4189.744, 3851.795, 4121.026, 4214.359, 4194.872, 16299, 0, []
1632390862.3147, 16, 0, 4198.974, 3842.051, 4103.59, 4216.41, 4192.308, 0, 0, []
1632390862.3225, 17, 0, 4207.179, 3828.718, 4111.795, 4227.179, 4186.154, 0, 0, []
1632390862.3304, 18, 0, 4210.769, 3820, 4112.821, 4237.436, 4177.949, 0, 0, []
1632390862.3382, 19, 0, 4213.333, 3821.538, 4098.462, 4246.154, 4190.256, 0, 0, []
1632390862.3461, 20, 0, 4207.692, 3828.205, 4091.795, 4244.615, 4205.128, 0, 0, []
1632390862.3538, 21, 0, 4189.744, 3840.513, 4080.513, 4225.641, 4198.974, 0, 0, []
1632390862.3617, 22, 0, 4176.41, 3860.513, 4097.436, 4219.487, 4192.308, 0, 0, []
1632390862.3695, 23, 0, 4178.974, 3881.026, 4126.667, 4240, 4204.615, 0, 0, []
1632390862.3774, 24, 0, 4182.051, 3881.538, 4114.872, 4242.564, 4210.769, 0, 0, []
1632390862.3852, 25, 0, 4176.41, 3872.308, 4092.821, 4223.077, 4202.051, 0, 0, []
1632390862.393, 26, 0, 4170.769, 3885.641, 4095.385, 4217.949, 4203.59, 0, 0, []
1632390862.4008, 27, 0, 4179.487, 3894.872, 4111.282, 4226.154, 4212.308, 0, 0, []
1632390862.4086, 28, 0, 4194.359, 3885.641, 4107.692, 4230.769, 4208.205, 0, 0, []
1632390862.4165, 29, 0, 4199.487, 3894.872, 4100.513, 4240.513, 4195.385, 0, 0, []
1632390862.4243, 30, 0, 4197.436, 3921.538, 4093.333, 4244.103, 4188.205, 0, 0, []
1632390862.4321, 31, 0, 4183.59, 3918.462, 4071.282, 4227.179, 4181.026, 0, 0, []
1632390862.4399, 32, 0, 4168.718, 3897.949, 4070.769, 4224.615, 4182.564, 0, 0, []
1632390862.4478, 33, 0, 4174.359, 3905.641, 4080.513, 4236.923, 4198.462, 0, 0, []
1632390862.4556, 34, 0, 4180, 3913.846, 4086.667, 4233.333, 4202.051, 0, 0, []
1632390862.4635, 35, 0, 4175.385, 3905.641, 4101.538, 4234.359, 4202.051, 0, 0, []
1632390862.4712, 36, 0, 4176.923, 3914.359, 4100, 4242.564, 4211.282, 0, 0, []
1632390862.4791, 37, 0, 4182.051, 3938.462, 4097.436, 4235.385, 4208.205, 0, 0, []
1632390862.4869, 38, 0, 4192.821, 3960.513, 4101.538, 4226.154, 4207.692, 0, 0, []
1632390862.4948, 39, 0, 4202.051, 3968.205, 4090.769, 4224.615, 4213.333, 0, 0, []
1632390862.5026, 40, 0, 4194.872, 3954.359, 4078.462, 4221.538, 4193.846, 0, 0, []
1632390862.5104, 41, 0, 4187.692, 3944.103, 4078.974, 4230.769, 4170.769, 0, 0, []
1632390862.5182, 42, 0, 4197.949, 3967.692, 4085.128, 4256.41, 4182.051, 0, 0, []
1632390862.5261, 43, 0, 4203.077, 3990.769, 4073.333, 4263.077, 4198.974, 0, 0, []
1632390862.5339, 44, 0, 4193.333, 3969.231, 4061.538, 4238.974, 4200, 0, 0, []
1632390862.5418, 45, 0, 4197.949, 3936.923, 4084.103, 4223.077, 4207.692, 0, 0, []
1632390862.5495, 46, 0, 4210.256, 3942.564, 4093.846, 4231.282, 4226.667, 0, 0, []
1632390862.5574, 47, 0, 4209.231, 3973.846, 4093.846, 4244.103, 4233.333, 0, 0, []
1632390862.5652, 48, 0, 4206.154, 3987.692, 4105.128, 4238.974, 4221.026, 0, 0, []
1632390862.5731, 49, 0, 4196.41, 3992.308, 4091.282, 4212.308, 4203.59, 0, 0, []
1632390862.5809, 50, 0, 4185.641, 4017.949, 4078.974, 4208.718, 4194.872, 0, 0, []
1632390862.5886, 51, 0, 4194.359, 4023.077, 4084.615, 4234.872, 4193.333, 0, 0, []
1632390862.5965, 52, 0, 4198.462, 3993.333, 4086.154, 4243.077, 4181.538, 0, 0, []
1632390862.6043, 53, 0, 4183.077, 4000.513, 4068.205, 4228.205, 4161.538, 0, 0, []
1632390862.6122, 54, 0, 4173.333, 4025.641, 4049.744, 4220, 4159.487, 0, 0, []
1632390862.62, 55, 0, 4183.59, 4004.615, 4068.718, 4220, 4178.974, 0, 0, []
1632390862.6278, 56, 0, 4193.333, 4002.564, 4088.205, 4221.538, 4197.436, 0, 0, []
1632390862.6356, 57, 0, 4190.769, 4031.282, 4097.436, 4235.385, 4204.615, 0, 0, []
1632390862.6435, 58, 0, 4175.897, 4022.051, 4098.462, 4232.821, 4195.385, 0, 0, []
1632390862.6513, 59, 0, 4160.513, 4012.821, 4085.641, 4210.769, 4178.974, 0, 0, []
1632390862.6592, 60, 0, 4169.231, 4039.487, 4095.385, 4215.385, 4187.692, 0, 0, []
1632390862.6669, 61, 0, 4191.282, 4059.487, 4097.949, 4224.615, 4206.667, 0, 0, []
1632390862.6748, 62, 0, 4202.051, 4062.051, 4069.744, 4208.718, 4197.949, 0, 0, []
1632390862.6827, 63, 0, 4209.231, 4064.615, 4058.974, 4210.256, 4181.538, 0, 0, []
1632390862.6906, 64, 0, 4216.923, 4051.795, 4072.821, 4238.462, 4184.103, 450, 0, []
1632390862.6984, 65, 0, 4211.795, 4042.051, 4084.103, 4253.846, 4193.333, 450, 0, []
1632390862.7063, 66, 0, 4205.128, 4056.41, 4085.641, 4260, 4202.051, 16169, 0, []
1632390862.714, 67, 0, 4204.103, 4069.744, 4092.308, 4264.615, 4214.872, 450, 0, []
1632390862.7219, 68, 0, 4195.385, 4063.077, 4103.077, 4250.256, 4221.026, 16141, 0, []
1632390862.7297, 69, 0, 4185.128, 4055.897, 4094.872, 4230.256, 4214.872, 450, 0, []
1632390862.7375, 70, 0, 4192.308, 4077.436, 4097.436, 4229.744, 4210.256, 16152, 0, []
1632390862.7454, 71, 0, 4205.641, 4094.359, 4103.59, 4229.744, 4216.41, 450, 0, []
1632390862.7531, 72, 0, 4209.744, 4083.59, 4098.462, 4223.077, 4219.487, 450, 0, []
1632390862.761, 73, 0, 4215.897, 4077.436, 4101.538, 4238.974, 4208.718, 16150, 0, []
1632390862.7688, 74, 0, 4219.487, 4081.538, 4087.692, 4257.949, 4201.538, 450, 0, []
1632390862.7767, 75, 0, 4229.231, 4094.359, 4084.103, 4252.308, 4219.487, 16209, 0, []
1632390862.7845, 76, 0, 4263.59, 4116.41, 4095.385, 4236.923, 4257.949, 450, 0, []
1632390862.7923, 77, 0, 4291.282, 4129.744, 4089.231, 4226.667, 4288.205, 450, 0, []
1632390862.8001, 78, 0, 4306.667, 4120.513, 4093.333, 4225.128, 4313.333, 450, 0, []
1632390862.808, 79, 0, 4327.179, 4112.308, 4099.487, 4221.026, 4332.308, 16209, 0, []
1632390862.8158, 80, 0, 4333.846, 4107.179, 4086.667, 4212.821, 4320.513, 450, 0, []
1632390862.8237, 81, 0, 4319.487, 4104.615, 4078.462, 4218.974, 4310.769, 450, 0, []
1632390862.8314, 82, 0, 4305.128, 4117.949, 4090.256, 4234.359, 4324.615, 450, 0, []
1632390862.8393, 83, 0, 4293.846, 4135.385, 4101.026, 4229.231, 4325.128, 16209, 0, []
1632390862.8471, 84, 0, 4281.538, 4163.077, 4093.846, 4210.769, 4300, 450, 0, []
1632390862.855, 85, 0, 4274.872, 4185.128, 4086.154, 4212.821, 4267.692, 450, 0, []
1632390862.8628, 86, 0, 4270.769, 4171.282, 4074.872, 4230.769, 4249.231, 450, 0, []
1632390862.8705, 87, 0, 4257.949, 4150.769, 4075.897, 4238.462, 4255.385, 16209, 0, []
1632390862.8784, 88, 0, 4245.128, 4167.692, 4109.231, 4245.641, 4269.231, 450, 0, []
1632390862.8862, 89, 0, 4244.615, 4207.179, 4120.513, 4253.846, 4267.692, 450, 0, []
1632390862.8941, 90, 0, 4241.538, 4215.897, 4108.718, 4246.667, 4262.051, 450, 0, []
1632390862.9019, 91, 0, 4221.538, 4194.872, 4090.769, 4213.846, 4239.487, 16209, 0, []
1632390862.9097, 92, 0, 4212.308, 4183.59, 4052.308, 4182.051, 4200, 450, 0, []
1632390862.9175, 93, 0, 4228.205, 4203.59, 4053.846, 4200.513, 4194.359, 450, 0, []
1632390862.9254, 94, 0, 4225.128, 4229.231, 4083.59, 4235.385, 4204.615, 450, 0, []
1632390862.9332, 95, 0, 4190.256, 4233.333, 4077.436, 4216.923, 4185.128, 16209, 0, []
1632390862.9411, 96, 0, 4180.513, 4232.308, 4068.718, 4190.769, 4173.846, 450, 0, []
1632390862.9488, 97, 0, 4197.436, 4262.051, 4082.564, 4212.821, 4196.923, 450, 0, []
1632390862.9567, 98, 0, 4189.231, 4331.795, 4095.385, 4226.154, 4203.077, 450, 0, []
1632390862.9645, 99, 0, 4172.821, 4387.692, 4092.821, 4203.59, 4185.128, 16209, 0, []
1632390862.9724, 100, 0, 4175.897, 4402.564, 4088.718, 4188.718, 4181.026, 450, 0, []
1632390862.9802, 101, 0, 4170.256, 4413.846, 4071.795, 4179.487, 4173.333, 450, 0, []
1632390862.988, 102, 0, 4154.359, 4408.718, 4036.41, 4164.615, 4153.333, 450, 0, []
1632390862.9958, 103, 0, 4174.872, 4368.718, 4049.231, 4187.179, 4155.385, 16209, 0, []
1632390863.0037, 104, 0, 4208.718, 4370.769, 4076.923, 4218.974, 4166.667, 450, 0, []
1632390863.0115, 105, 0, 4194.359, 4386.667, 4051.282, 4203.077, 4146.667, 450, 0, []
1632390863.0194, 106, 0, 4180, 4352.821, 4037.436, 4195.897, 4136.41, 450, 0, []
1632390863.0271, 107, 0, 4207.179, 4382.564, 4066.154, 4221.026, 4172.821, 16209, 0, []
1632390863.0349, 108, 0, 4222.564, 4470.256, 4089.744, 4223.077, 4195.897, 450, 0, []
1632390863.0428, 109, 0, 4194.872, 4467.692, 4080, 4199.487, 4178.974, 450, 0, []
1632390863.0506, 110, 0, 4163.077, 4408.718, 4064.103, 4184.103, 4155.385, 450, 0, []
1632390863.0585, 111, 0, 4159.487, 4417.436, 4072.308, 4184.615, 4145.128, 16209, 0, []
1632390863.0662, 112, 0, 4172.308, 4503.59, 4073.333, 4184.103, 4147.179, 450, 0, []
1632390863.0741, 113, 0, 4182.564, 4567.179, 4070.256, 4183.077, 4150.256, 450, 0, []
1632390863.0819, 114, 0, 4190.769, 4534.359, 4068.205, 4196.41, 4141.538, 450, 0, []
1632390863.0898, 115, 0, 4190.769, 4487.692, 4055.897, 4213.846, 4130.769, 16209, 0, []
1632390863.0976, 116, 0, 4182.564, 4513.333, 4067.179, 4215.385, 4142.564, 450, 0, []
1632390863.1054, 117, 0, 4178.974, 4525.128, 4090.256, 4214.872, 4162.564, 450, 0, []
1632390863.1132, 118, 0, 4178.462, 4479.487, 4104.103, 4226.154, 4168.205, 450, 0, []
1632390863.1211, 119, 0, 4171.795, 4469.744, 4102.051, 4226.154, 4159.487, 16209, 0, []
1632390863.1289, 120, 0, 4164.103, 4476.41, 4092.821, 4210.256, 4151.795, 450, 0, []
1632390863.1368, 121, 0, 4167.179, 4434.872, 4095.897, 4204.103, 4155.897, 450, 0, []
1632390863.1445, 122, 0, 4177.436, 4434.872, 4085.641, 4213.333, 4152.821, 450, 0, []
1632390863.1524, 123, 0, 4178.974, 4493.333, 4071.795, 4229.744, 4137.436, 16209, 0, []
1632390863.1602, 124, 0, 4173.333, 4520.513, 4068.205, 4235.385, 4128.718, 450, 0, []
1632390863.1681, 125, 0, 4171.795, 4506.154, 4063.077, 4221.026, 4137.949, 450, 0, []
1632390863.1759, 126, 0, 4177.949, 4514.359, 4079.487, 4216.923, 4151.795, 450, 0, []
1632390863.1836, 127, 0, 4168.718, 4671.795, 4090.256, 4220, 4150.769, 16209, 0, []
1632390863.1915, 128, 0, 4147.692, 4969.744, 4076.923, 4205.128, 4136.923, 450, 0, []
1632390863.1993, 0, 0, 4152.308, 5168.205, 4068.718, 4195.897, 4127.692, 450, 0, []
1632390863.2072, 1, 0, 4177.949, 5143.077, 4069.744, 4212.821, 4130.256, 450, 0, []
1632390863.215, 2, 0, 4186.667, 4960.513, 4074.872, 4227.692, 4130.769, 16171, 0, []
1632390863.2228, 3, 0, 4184.615, 4765.641, 4073.333, 4220, 4134.872, 450, 0, []
1632390863.2306, 4, 0, 4176.41, 4952.308, 4074.359, 4215.897, 4138.974, 16115, 0, []
1632390863.2385, 5, 0, 4162.051, 5737.949, 4091.795, 4214.359, 4132.821, 450, 0, []
1632390863.2463, 6, 0, 4166.154, 6542.051, 4096.923, 4212.821, 4130.256, 16147, 0, []
1632390863.2542, 7, 0, 4177.949, 6592.308, 4080.513, 4221.538, 4126.667, 450, 0, []
1632390863.2619, 8, 0, 4167.692, 6066.154, 4052.308, 4214.872, 4113.333, 450, 0, []
1632390863.2698, 9, 0, 4140, 5600, 4045.641, 4198.462, 4103.077, 16146, 0, []
1632390863.2776, 10, 0, 4120, 5258.462, 4072.308, 4198.462, 4109.744, 450, 0, []
1632390863.2855, 11, 0, 4114.872, 5388.205, 4070.256, 4206.154, 4108.718, 16210, 0, []
1632390863.2933, 12, 0, 4132.821, 6410.769, 4050.769, 4211.795, 4098.974, 450, 0, []
1632390863.3012, 13, 0, 4144.103, 7475.385, 4043.59, 4214.872, 4111.795, 450, 0, []
1632390863.3089, 14, 0, 4129.231, 7712.308, 4037.436, 4212.821, 4126.154, 450, 0, []
1632390863.3168, 15, 0, 4144.103, 7665.128, 4048.718, 4219.487, 4121.538, 16210, 0, []
1632390863.3246, 16, 0, 4162.564, 7840.513, 4052.308, 4224.615, 4124.103, 0, 0, []
1632390863.3325, 17, 0, 4145.641, 7852.821, 4047.179, 4213.333, 4130.769, 0, 0, []
1632390863.3403, 18, 0, 4156.41, 7665.641, 4061.538, 4223.077, 4126.154, 0, 0, []
1632390863.3481, 19, 0, 4176.41, 7614.872, 4074.359, 4230.769, 4131.282, 0, 0, []
1632390863.3559, 20, 0, 4143.59, 7731.795, 4068.205, 4212.308, 4133.333, 0, 0, []
1632390863.3637, 21, 0, 4126.154, 7805.641, 4060.513, 4222.051, 4114.872, 0, 0, []
1632390863.3716, 22, 0, 4161.538, 7760, 4083.077, 4243.077, 4122.564, 0, 0, []
1632390863.3794, 23, 0, 4179.487, 7760.513, 4085.641, 4223.59, 4145.641, 0, 0, []
1632390863.3872, 24, 0, 4162.564, 7786.154, 4055.385, 4208.718, 4138.974, 0, 0, []
1632390863.395, 25, 0, 4154.359, 7762.564, 4072.821, 4233.846, 4129.231, 0, 0, []
1632390863.4029, 26, 0, 4171.282, 7755.897, 4089.231, 4237.949, 4132.308, 0, 0, []
1632390863.4107, 27, 0, 4181.538, 7767.692, 4069.744, 4214.872, 4139.487, 0, 0, []
1632390863.4186, 28, 0, 4171.795, 7791.282, 4071.795, 4221.538, 4147.179, 0, 0, []
1632390863.4263, 29, 0, 4170.769, 7822.051, 4086.667, 4244.615, 4143.077, 0, 0, []
1632390863.4342, 30, 0, 4183.077, 7807.179, 4095.897, 4243.077, 4138.974, 0, 0, []
1632390863.442, 31, 0, 4193.846, 7808.205, 4095.897, 4232.821, 4153.333, 0, 0, []
1632390863.4499, 32, 0, 4197.436, 7861.538, 4092.308, 4235.385, 4164.615, 0, 0, []
1632390863.4577, 33, 0, 4193.846, 7612.308, 4096.923, 4244.103, 4165.128, 0, 0, []
1632390863.4655, 34, 0, 4188.205, 6934.359, 4088.205, 4240, 4161.026, 0, 0, []
1632390863.4733, 35, 0, 4191.795, 6306.667, 4072.308, 4226.154, 4147.692, 0, 0, []
1632390863.4812, 36, 0, 4188.718, 5993.846, 4077.949, 4225.128, 4153.846, 0, 0, []
1632390863.489, 37, 0, 4172.821, 5776.41, 4104.103, 4233.333, 4174.359, 0, 0, []
1632390863.4969, 38, 0, 4173.846, 5550.769, 4101.026, 4230.769, 4157.949, 0, 0, []
1632390863.5046, 39, 0, 4187.179, 5399.487, 4060.513, 4222.051, 4131.282, 0, 0, []
1632390863.5124, 40, 0, 4200, 5293.333, 4066.154, 4235.897, 4144.615, 0, 0, []
1632390863.5203, 41, 0, 4193.846, 5186.667, 4105.128, 4248.205, 4166.154, 0, 0, []
1632390863.5281, 42, 0, 4167.179, 5064.615, 4099.487, 4224.615, 4152.308, 0, 0, []
1632390863.536, 43, 0, 4165.641, 4963.59, 4080, 4201.538, 4142.564, 0, 0, []
1632390863.5437, 44, 0, 4184.103, 4905.128, 4069.231, 4203.077, 4147.179, 0, 0, []
1632390863.5516, 45, 0, 4185.128, 4833.333, 4062.051, 4217.436, 4128.205, 0, 0, []
1632390863.5594, 46, 0, 4185.128, 4754.872, 4059.487, 4227.692, 4124.615, 0, 0, []
1632390863.5673, 47, 0, 4190.256, 4686.154, 4074.359, 4219.487, 4150.769, 0, 0, []
1632390863.5751, 48, 0, 4176.41, 4607.179, 4094.359, 4206.154, 4153.846, 0, 0, []
1632390863.5829, 49, 0, 4158.974, 4540, 4083.077, 4204.615, 4136.41, 0, 0, []
1632390863.5907, 50, 0, 4163.077, 4522.051, 4074.872, 4200, 4143.077, 0, 0, []
1632390863.5986, 51, 0, 4188.205, 4502.051, 4080, 4194.359, 4166.154, 0, 0, []
1632390863.6064, 52, 0, 4217.949, 4441.538, 4078.974, 4218.462, 4174.359, 0, 0, []
1632390863.6143, 53, 0, 4222.051, 4392.821, 4071.795, 4243.59, 4165.128, 0, 0, []
1632390863.622, 54, 0, 4211.282, 4357.436, 4058.462, 4226.667, 4163.077, 0, 0, []
1632390863.6299, 55, 0, 4212.821, 4301.538, 4067.179, 4207.692, 4178.462, 0, 0, []
1632390863.6377, 56, 0, 4195.385, 4258.974, 4072.821, 4208.718, 4170.769, 0, 0, []
1632390863.6456, 57, 0, 4161.026, 4234.359, 4053.333, 4185.641, 4137.436, 0, 0, []
1632390863.6534, 58, 0, 4163.077, 4187.179, 4058.462, 4158.462, 4132.308, 0, 0, []
1632390863.6612, 59, 0, 4176.923, 4146.667, 4064.103, 4167.692, 4145.128, 0, 0, []
1632390863.669, 60, 0, 4164.103, 4117.436, 4041.538, 4178.462, 4127.692, 0, 0, []
1632390863.6768, 61, 0, 4152.308, 4063.077, 4020.513, 4167.179, 4088.205, 0, 0, []
1632390863.6847, 62, 0, 4152.308, 4026.667, 4008.718, 4161.026, 4072.821, 0, 0, []
1632390863.6925, 63, 0, 4156.923, 4028.205, 4011.282, 4169.744, 4086.154, 0, 0, []
1632390863.7003, 64, 0, 4157.436, 4000.513, 4009.744, 4168.718, 4088.718, 450, 0, []
1632390863.7081, 65, 0, 4144.103, 3952.821, 4000, 4163.077, 4074.359, 450, 0, []
1632390863.716, 66, 0, 4145.641, 3948.718, 4010.769, 4168.205, 4083.59, 16174, 0, []
1632390863.7238, 67, 0, 4162.051, 3946.154, 4018.974, 4167.692, 4107.179, 450, 0, []
1632390863.7317, 68, 0, 4153.333, 3900, 4016.41, 4160.513, 4104.103, 204, 0, []
1632390863.7394, 69, 0, 4135.897, 3871.282, 4007.692, 4151.282, 4090.769, 450, 0, []
1632390863.7473, 70, 0, 4132.821, 3863.59, 3996.41, 4135.897, 4080.513, 16186, 0, []
1632390863.7551, 71, 0, 4142.051, 3843.077, 4010.256, 4143.077, 4081.026, 450, 0, []
1632390863.763, 72, 0, 4156.923, 3833.846, 4032.308, 4164.103, 4104.615, 450, 0, []
1632390863.7708, 73, 0, 4153.846, 3825.128, 4038.462, 4157.436, 4111.282, 16169, 0, []
1632390863.7786, 74, 0, 4134.872, 3802.051, 4029.744, 4138.462, 4090.256, 450, 0, []
1632390863.7864, 75, 0, 4137.436, 3804.103, 4036.41, 4137.436, 4085.128, 16202, 0, []
1632390863.7943, 76, 0, 4151.282, 3817.949, 4046.154, 4144.615, 4100, 450, 0, []
1632390863.8021, 77, 0, 4137.949, 3789.744, 4013.846, 4141.538, 4093.846, 450, 0, []
1632390863.8099, 78, 0, 4126.667, 3754.872, 4000.513, 4133.333, 4084.103, 450, 0, []
1632390863.8177, 79, 0, 4149.744, 3756.923, 4011.282, 4129.744, 4100, 16202, 0, []
1632390863.8255, 80, 0, 4161.026, 3760.513, 4003.077, 4123.077, 4108.718, 450, 0, []
1632390863.8334, 81, 0, 4161.026, 3753.846, 4016.41, 4128.718, 4108.718, 450, 0, []
1632390863.8412, 82, 0, 4171.282, 3744.103, 4031.795, 4142.564, 4110.256, 450, 0, []
1632390863.8491, 83, 0, 4179.487, 3720.513, 4026.667, 4147.692, 4105.641, 16202, 0, []
1632390863.8568, 84, 0, 4181.538, 3709.231, 4026.667, 4157.949, 4103.077, 450, 0, []
1632390863.8647, 85, 0, 4186.154, 3728.205, 4028.718, 4175.385, 4105.641, 450, 0, []
1632390863.8725, 86, 0, 4190.769, 3736.41, 4038.462, 4183.59, 4104.103, 450, 0, []
1632390863.8804, 87, 0, 4184.615, 3712.308, 4033.333, 4178.974, 4098.462, 16202, 0, []
1632390863.8882, 88, 0, 4165.128, 3689.744, 4012.308, 4169.744, 4087.692, 450, 0, []
1632390863.8961, 89, 0, 4154.872, 3696.923, 4022.051, 4164.615, 4082.051, 450, 0, []
1632390863.9038, 90, 0, 4163.077, 3708.718, 4047.692, 4175.897, 4095.385, 450, 0, []
1632390863.9117, 91, 0, 4164.103, 3687.179, 4032.308, 4185.641, 4102.564, 16202, 0, []
1632390863.9195, 92, 0, 4143.59, 3650.769, 3991.795, 4164.615, 4083.077, 450, 0, []
1632390863.9274, 93, 0, 4130.769, 3647.692, 4010.256, 4157.436, 4073.333, 450, 0, []
1632390863.9352, 94, 0, 4141.538, 3660.513, 4045.641, 4172.308, 4088.718, 450, 0, []
1632390863.943, 95, 0, 4141.538, 3651.795, 4026.667, 4163.59, 4087.179, 16202, 0, []
1632390863.9508, 96, 0, 4136.923, 3640.513, 4014.359, 4154.872, 4071.795, 450, 0, []
1632390863.9587, 97, 0, 4153.846, 3658.974, 4013.846, 4157.949, 4081.538, 450, 0, []
1632390863.9665, 98, 0, 4163.077, 3672.821, 4013.846, 4158.974, 4094.872, 450, 0, []
1632390863.9743, 99, 0, 4150.256, 3649.744, 4021.538, 4160, 4083.077, 16202, 0, []
1632390863.9821, 100, 0, 4145.128, 3632.308, 4016.41, 4164.615, 4074.872, 450, 0, []
1632390863.9899, 101, 0, 4152.308, 3631.795, 4016.41, 4172.308, 4089.231, 450, 0, []
1632390863.9978, 102, 0, 4148.718, 3624.615, 4012.821, 4165.128, 4091.282, 450, 0, []
1632390864.0056, 103, 0, 4147.179, 3628.205, 4010.769, 4155.897, 4078.974, 16202, 0, []
1632390864.0135, 104, 0, 4148.718, 3645.128, 4025.128, 4158.974, 4075.385, 450, 0, []
1632390864.0212, 105, 0, 4134.872, 3630.256, 4018.974, 4151.282, 4070.769, 450, 0, []
1632390864.0291, 106, 0, 4127.179, 3594.359, 4009.744, 4134.359, 4063.59, 450, 0, []
1632390864.0369, 107, 0, 4135.897, 3585.641, 4020, 4147.179, 4069.744, 16202, 0, []
1632390864.0448, 108, 0, 4132.821, 3584.103, 4024.103, 4156.923, 4071.795, 450, 0, []
1632390864.0526, 109, 0, 4121.538, 3586.667, 4014.872, 4130.769, 4054.359, 450, 0, []
1632390864.0604, 110, 0, 4117.949, 3603.077, 4000, 4122.051, 4042.564, 450, 0, []
1632390864.0682, 111, 0, 4118.974, 3604.615, 3991.282, 4133.846, 4042.564, 16202, 0, []
1632390864.0761, 112, 0, 4133.846, 3598.974, 3987.179, 4138.974, 4047.692, 450, 0, []
1632390864.0839, 113, 0, 4163.077, 3603.077, 4002.051, 4160.513, 4072.308, 450, 0, []
1632390864.0918, 114, 0, 4170.256, 3591.795, 4030.256, 4180.513, 4093.846, 450, 0, []
1632390864.0995, 115, 0, 4153.846, 3580.513, 4025.641, 4170.256, 4086.667, 16202, 0, []
1632390864.1074, 116, 0, 4152.308, 3608.205, 4016.41, 4168.205, 4077.949, 450, 0, []
1632390864.1152, 117, 0, 4161.538, 3627.692, 4025.128, 4181.026, 4080, 450, 0, []
1632390864.1231, 118, 0, 4158.974, 3622.564, 4020, 4179.487, 4077.949, 450, 0, []
1632390864.1309, 119, 0, 4158.462, 3632.308, 4013.846, 4186.154, 4083.077, 16202, 0, []
1632390864.1386, 120, 0, 4157.949, 3633.846, 4014.359, 4195.897, 4091.282, 450, 0, []
1632390864.1465, 121, 0, 4146.667, 3613.333, 4020, 4188.718, 4084.103, 450, 0, []
1632390864.1543, 122, 0, 4147.692, 3602.051, 4030.769, 4187.692, 4084.103, 450, 0, []
1632390864.1622, 123, 0, 4160, 3595.897, 4038.974, 4191.795, 4097.949, 16202, 0, []
1632390864.17, 124, 0, 4155.897, 3616.923, 4048.205, 4184.103, 4096.923, 450, 0, []
1632390864.1778, 125, 0, 4140, 3659.487, 4035.385, 4180.513, 4084.615, 450, 0, []
1632390864.1856, 126, 0, 4135.385, 3684.615, 4012.821, 4180, 4077.436, 450, 0, []
1632390864.1935, 127, 0, 4141.026, 3741.538, 4007.179, 4175.385, 4075.897, 16202, 0, []
1632390864.2013, 128, 0, 4138.974, 3804.103, 4001.026, 4173.333, 4078.462, 450, 0, []
1632390864.2092, 0, 0, 4134.872, 3763.077, 4007.692, 4180, 4094.872, 450, 0, []
1632390864.2169, 1, 0, 4132.308, 3763.077, 4015.385, 4181.026, 4103.077, 450, 0, []
1632390864.2248, 2, 0, 4124.103, 3969.744, 4014.359, 4171.795, 4095.385, 33, 0, []
1632390864.2326, 3, 0, 4126.667, 4142.051, 4020.513, 4171.795, 4102.051, 450, 0, []
1632390864.2405, 4, 0, 4133.333, 4055.385, 4021.026, 4182.564, 4113.846, 16278, 0, []
1632390864.2483, 5, 0, 4115.897, 4016.923, 4022.564, 4185.641, 4105.641, 450, 0, []
1632390864.2561, 6, 0, 4105.641, 4203.077, 4028.718, 4189.231, 4097.949, 292, 0, []
1632390864.2639, 7, 0, 4126.667, 4190.769, 4047.179, 4209.231, 4112.308, 450, 0, []
1632390864.2717, 8, 0, 4133.846, 4215.897, 4061.538, 4218.974, 4120.513, 450, 0, []
1632390864.2796, 9, 0, 4122.051, 4723.077, 4043.077, 4197.949, 4109.744, 16165, 0, []
1632390864.2874, 10, 0, 4132.821, 4973.846, 4030.256, 4179.487, 4108.205, 450, 0, []
1632390864.2952, 11, 0, 4148.205, 4569.231, 4029.231, 4182.564, 4110.256, 317, 0, []
1632390864.303, 12, 0, 4141.026, 4438.974, 4019.487, 4192.308, 4092.821, 450, 0, []
1632390864.3109, 13, 0, 4141.026, 4919.487, 4013.333, 4207.179, 4081.538, 450, 0, []
1632390864.3187, 14, 0, 4152.821, 4991.282, 4012.821, 4209.744, 4103.077, 450, 0, []
1632390864.3266, 15, 0, 4149.744, 4598.974, 4027.179, 4197.436, 4122.564, 317, 0, []
1632390864.3343, 16, 0, 4128.718, 4628.718, 4032.821, 4185.128, 4116.41, 0, 0, []
1632390864.3422, 17, 0, 4115.385, 4843.077, 4024.615, 4174.872, 4104.103, 0, 0, []
1632390864.35, 18, 0, 4119.487, 4728.718, 4029.231, 4169.231, 4097.949, 0, 0, []
1632390864.3579, 19, 0, 4124.103, 4717.949, 4025.641, 4161.026, 4098.462, 0, 0, []
1632390864.3657, 20, 0, 4132.821, 5078.462, 4026.154, 4164.615, 4105.128, 0, 0, []
1632390864.3735, 21, 0, 4146.667, 5174.359, 4031.795, 4187.692, 4101.538, 0, 0, []
1632390864.3813, 22, 0, 4136.923, 4885.641, 4026.154, 4193.333, 4087.692, 0, 0, []
1632390864.3892, 23, 0, 4123.077, 4791.282, 4025.641, 4177.436, 4096.41, 0, 0, []
1632390864.397, 24, 0, 4129.231, 5176.923, 4022.051, 4172.308, 4118.974, 0, 0, []
1632390864.4049, 25, 0, 4136.41, 5650.769, 4023.59, 4177.949, 4126.154, 0, 0, []
1632390864.4126, 26, 0, 4136.41, 5675.385, 4037.949, 4174.359, 4121.026, 0, 0, []
1632390864.4204, 27, 0, 4144.103, 5538.462, 4036.41, 4178.462, 4106.667, 0, 0, []
1632390864.4283, 28, 0, 4155.897, 5366.154, 4025.641, 4188.205, 4103.077, 0, 0, []
1632390864.4361, 29, 0, 4158.974, 5202.564, 4026.154, 4191.282, 4128.205, 0, 0, []
1632390864.444, 30, 0, 4154.359, 6023.077, 4042.564, 4197.436, 4144.615, 0, 0, []
1632390864.4517, 31, 0, 4154.359, 7167.692, 4044.103, 4205.128, 4130.256, 0, 0, []
1632390864.4596, 32, 0, 4154.359, 6615.897, 4026.154, 4202.564, 4114.872, 0, 0, []
1632390864.4674, 33, 0, 4149.744, 5148.718, 4034.872, 4197.436, 4122.051, 0, 0, []
1632390864.4753, 34, 0, 4149.744, 4722.564, 4057.436, 4198.462, 4145.641, 0, 0, []
1632390864.4831, 35, 0, 4144.103, 4810.769, 4068.718, 4201.026, 4153.333, 0, 0, []
1632390864.491, 36, 0, 4135.897, 4549.744, 4065.128, 4191.282, 4138.974, 0, 0, []
1632390864.4987, 37, 0, 4150.256, 4388.718, 4047.692, 4177.436, 4138.974, 0, 0, []
1632390864.5066, 38, 0, 4168.205, 4370.256, 4044.103, 4186.667, 4143.59, 0, 0, []
1632390864.5144, 39, 0, 4166.154, 4288.205, 4032.308, 4203.59, 4126.667, 0, 0, []
1632390864.5223, 40, 0, 4157.949, 4278.974, 4017.949, 4196.923, 4118.974, 0, 0, []
1632390864.5301, 41, 0, 4156.923, 4276.923, 4042.051, 4191.282, 4132.821, 0, 0, []
1632390864.5379, 42, 0, 4160.513, 4217.436, 4064.103, 4198.462, 4146.154, 0, 0, []
1632390864.5457, 43, 0, 4163.59, 4147.692, 4071.282, 4209.231, 4157.436, 0, 0, []
1632390864.5536, 44, 0, 4157.436, 4095.897, 4072.821, 4203.59, 4160.513, 0, 0, []
1632390864.5614, 45, 0, 4146.667, 4063.077, 4060, 4188.718, 4155.385, 0, 0, []
1632390864.5692, 46, 0, 4154.359, 4105.128, 4058.974, 4189.744, 4160, 0, 0, []
1632390864.577, 47, 0, 4164.103, 4203.59, 4056.923, 4195.897, 4157.949, 0, 0, []
1632390864.5848, 48, 0, 4156.923, 4223.077, 4050.256, 4200.513, 4134.359, 0, 0, []
1632390864.5927, 49, 0, 4165.641, 4587.179, 4064.615, 4221.026, 4129.744, 0, 0, []
1632390864.6005, 50, 0, 4174.359, 5757.949, 4081.026, 4233.846, 4154.359, 0, 0, []
1632390864.6084, 51, 0, 4156.923, 6976.923, 4067.692, 4218.974, 4153.846, 0, 0, []
1632390864.6161, 52, 0, 4160.513, 7338.974, 4044.615, 4214.872, 4140.513, 0, 0, []
1632390864.624, 53, 0, 4189.231, 7267.692, 4060.513, 4226.154, 4158.974, 0, 0, []
1632390864.6318, 54, 0, 4185.641, 7401.026, 4066.154, 4216.923, 4165.128, 0, 0, []
1632390864.6397, 55, 0, 4155.897, 7581.026, 4042.564, 4216.41, 4134.872, 0, 0, []
1632390864.6475, 56, 0, 4152.821, 7638.974, 4062.564, 4230.256, 4125.128, 0, 0, []
1632390864.6553, 57, 0, 4166.667, 7645.641, 4075.897, 4220, 4146.154, 0, 0, []
1632390864.6631, 58, 0, 4161.538, 7596.41, 4056.923, 4206.154, 4150.769, 0, 0, []
1632390864.671, 59, 0, 4158.462, 7575.897, 4059.487, 4219.487, 4149.231, 0, 0, []
1632390864.6788, 60, 0, 4184.103, 7635.385, 4074.359, 4232.821, 4161.538, 0, 0, []
1632390864.6867, 61, 0, 4198.974, 7685.128, 4076.923, 4227.179, 4172.308, 0, 0, []
1632390864.6944, 62, 0, 4178.974, 7693.846, 4062.564, 4208.718, 4169.231, 0, 0, []
1632390864.7023, 63, 0, 4174.359, 7712.308, 4062.564, 4197.949, 4165.128, 0, 0, []
1632390864.7101, 64, 0, 4197.436, 7735.385, 4072.821, 4217.949, 4174.359, 450, 0, []
1632390864.718, 65, 0, 4191.282, 7729.744, 4072.308, 4238.462, 4175.385, 450, 0, []
1632390864.7258, 66, 0, 4170.769, 7720, 4080, 4225.641, 4158.462, 16225, 0, []
1632390864.7335, 67, 0, 4177.436, 7722.564, 4073.846, 4200, 4147.692, 450, 0, []
1632390864.7414, 68, 0, 4175.385, 7725.128, 4060.513, 4187.692, 4154.359, 177, 0, []
1632390864.7492, 69, 0, 4156.923, 7739.487, 4058.974, 4193.846, 4152.308, 450, 0, []
1632390864.7571, 70, 0, 4152.308, 7755.385, 4054.359, 4210.256, 4138.462, 16123, 0, []
1632390864.7649, 71, 0, 4166.667, 7756.923, 4062.564, 4224.615, 4137.436, 450, 0, []
1632390864.7727, 72, 0, 4183.077, 7753.846, 4071.795, 4225.128, 4148.718, 450, 0, []
1632390864.7805, 73, 0, 4184.103, 7754.359, 4073.846, 4216.41, 4157.436, 16154, 0, []
1632390864.7884, 74, 0, 4177.949, 7757.949, 4073.333, 4216.41, 4154.872, 450, 0, []
1632390864.7962, 75, 0, 4170.769, 7760.513, 4050.769, 4211.282, 4138.462, 16172, 0, []
1632390864.8041, 76, 0, 4177.949, 7754.872, 4046.667, 4206.667, 4135.897, 450, 0, []
1632390864.8118, 77, 0, 4205.128, 7742.564, 4077.436, 4225.128, 4166.154, 450, 0, []
1632390864.8197, 78, 0, 4214.872, 7740.513, 4089.744, 4237.436, 4185.641, 450, 0, []
1632390864.8275, 79, 0, 4204.103, 7753.333, 4077.436, 4232.821, 4172.308, 16172, 0, []
1632390864.8354, 80, 0, 4195.385, 7762.051, 4074.359, 4228.205, 4165.128, 450, 0, []
1632390864.8432, 81, 0, 4187.179, 7784.103, 4073.333, 4216.41, 4156.923, 450, 0, []
1632390864.851, 82, 0, 4179.487, 7813.333, 4051.282, 4194.872, 4140, 450, 0, []
1632390864.8588, 83, 0, 4192.308, 7757.436, 4060.513, 4188.718, 4148.205, 16172, 0, []
1632390864.8667, 84, 0, 4224.615, 7806.154, 4104.103, 4210.769, 4174.872, 450, 0, []
1632390864.8745, 85, 0, 4220, 7794.872, 4096.41, 4226.154, 4171.282, 450, 0, []
1632390864.8823, 86, 0, 4185.128, 7046.667, 4073.333, 4223.59, 4145.641, 450, 0, []
1632390864.8901, 87, 0, 4178.974, 5929.744, 4075.385, 4217.949, 4142.564, 16172, 0, []
1632390864.8979, 88, 0, 4197.436, 5407.692, 4052.821, 4210.256, 4149.231, 450, 0, []
1632390864.9058, 89, 0, 4206.667, 5273.333, 4040, 4208.205, 4154.872, 450, 0, []
1632390864.9136, 90, 0, 4199.487, 4973.333, 4068.205, 4204.615, 4171.282, 450, 0, []
1632390864.9215, 91, 0, 4191.282, 4736.41, 4081.026, 4184.615, 4171.795, 16172, 0, []
1632390864.9292, 92, 0, 4194.359, 4650.256, 4064.615, 4175.385, 4153.846, 450, 0, []
1632390864.9371, 93, 0, 4205.128, 4510.769, 4056.923, 4204.103, 4147.692, 450, 0, []
1632390864.9449, 94, 0, 4204.615, 4396.923, 4059.487, 4233.846, 4150.769, 450, 0, []
1632390864.9528, 95, 0, 4202.564, 4320, 4050.769, 4225.641, 4161.538, 16172, 0, []
1632390864.9606, 96, 0, 4213.333, 4217.436, 4067.692, 4215.385, 4184.103, 450, 0, []
1632390864.9684, 97, 0, 4206.154, 4103.077, 4091.795, 4211.795, 4186.667, 450, 0, []
1632390864.9762, 98, 0, 4188.205, 4023.59, 4071.282, 4185.128, 4174.359, 450, 0, []
1632390864.9841, 99, 0, 4198.462, 3975.897, 4064.615, 4171.282, 4182.564, 16172, 0, []
1632390864.9919, 100, 0, 4213.333, 3896.41, 4077.436, 4187.179, 4186.154, 450, 0, []
1632390864.9998, 101, 0, 4208.205, 3805.641, 4065.128, 4198.974, 4162.564, 450, 0, []
1632390865.0075, 102, 0, 4210.256, 3765.128, 4051.795, 4209.744, 4153.333, 450, 0, []
1632390865.0154, 103, 0, 4222.051, 3737.436, 4049.744, 4226.667, 4167.692, 16172, 0, []
1632390865.0232, 104, 0, 4217.949, 3665.128, 4046.667, 4225.128, 4168.718, 450, 0, []
1632390865.031, 105, 0, 4209.744, 3596.41, 4043.59, 4201.538, 4167.692, 450, 0, []
1632390865.0389, 106, 0, 4216.923, 3564.103, 4067.179, 4192.308, 4189.744, 450, 0, []
1632390865.0466, 107, 0, 4220, 3521.538, 4096.923, 4198.974, 4201.538, 16172, 0, []
1632390865.0545, 108, 0, 4201.026, 3478.974, 4085.641, 4205.641, 4187.692, 450, 0, []
1632390865.0623, 109, 0, 4187.692, 3459.487, 4078.462, 4218.462, 4184.103, 450, 0, []
1632390865.0702, 110, 0, 4189.231, 3423.077, 4080, 4223.59, 4187.179, 450, 0, []
1632390865.078, 111, 0, 4194.872, 3369.231, 4069.744, 4211.795, 4183.59, 16172, 0, []
1632390865.0859, 112, 0, 4202.051, 3328.718, 4071.795, 4204.103, 4185.128, 450, 0, []
1632390865.0936, 113, 0, 4204.615, 3306.154, 4068.205, 4200, 4191.282, 450, 0, []
1632390865.1015, 114, 0, 4198.974, 3281.538, 4062.564, 4183.077, 4185.641, 450, 0, []
1632390865.1093, 115, 0, 4207.179, 3261.538, 4068.205, 4171.795, 4175.897, 16172, 0, []
1632390865.1172, 116, 0, 4226.667, 3253.333, 4074.872, 4194.359, 4179.487, 450, 0, []
1632390865.125, 117, 0, 4229.231, 3230.769, 4078.462, 4230.256, 4180.513, 450, 0, []
1632390865.1328, 118, 0, 4222.051, 3192.308, 4065.641, 4245.641, 4175.897, 450, 0, []
1632390865.1406, 119, 0, 4224.103, 3162.564, 4059.487, 4251.282, 4182.564, 16172, 0, []
1632390865.1485, 120, 0, 4233.846, 3154.872, 4069.744, 4257.949, 4202.564, 450, 0, []
1632390865.1563, 121, 0, 4229.744, 3142.564, 4071.282, 4244.615, 4207.179, 450, 0, []
1632390865.1642, 122, 0, 4216.923, 3120.513, 4069.231, 4224.103, 4193.333, 450, 0, []
1632390865.1719, 123, 0, 4216.41, 3104.103, 4075.385, 4212.821, 4190.769, 16172, 0, []
1632390865.1798, 124, 0, 4219.487, 3084.103, 4090.769, 4198.974, 4196.41, 450, 0, []
1632390865.1876, 125, 0, 4227.179, 3066.667, 4106.667, 4201.538, 4209.231, 450, 0, []
1632390865.1955, 126, 0, 4229.231, 3050.769, 4102.051, 4230.256, 4217.949, 450, 0, []
1632390865.2033, 127, 0, 4214.872, 3028.718, 4094.872, 4251.795, 4207.692, 16172, 0, []
1632390865.211, 128, 0, 4207.179, 3020, 4100, 4260, 4200.513, 450, 0, []
1632390865.2189, 0, 0, 4207.692, 3023.59, 4112.308, 4265.641, 4205.128, 450, 0, []
1632390865.2267, 1, 0, 4200, 3007.179, 4109.231, 4256.41, 4211.282, 450, 0, []
1632390865.2346, 2, 0, 4194.872, 2978.462, 4088.718, 4238.462, 4214.872, 16188, 0, []
1632390865.2424, 3, 0, 4214.872, 2985.128, 4101.026, 4238.462, 4228.718, 450, 0, []
1632390865.2502, 4, 0, 4232.308, 3003.077, 4114.872, 4238.974, 4235.897, 238, 0, []
1632390865.258, 5, 0, 4224.615, 2978.462, 4102.051, 4225.641, 4221.538, 450, 0, []
1632390865.2659, 6, 0, 4222.564, 2947.179, 4092.821, 4225.641, 4204.615, 16121, 0, []
1632390865.2737, 7, 0, 4230.769, 2956.923, 4089.231, 4240, 4200, 450, 0, []
1632390865.2816, 8, 0, 4233.333, 2956.923, 4093.846, 4254.359, 4202.051, 450, 0, []
1632390865.2893, 9, 0, 4227.692, 2933.333, 4082.051, 4257.949, 4201.026, 16152, 0, []
1632390865.2972, 10, 0, 4226.154, 2944.103, 4065.641, 4251.282, 4203.077, 450, 0, []
1632390865.305, 11, 0, 4241.026, 2966.667, 4096.41, 4252.821, 4218.974, 16170, 0, []
1632390865.3129, 12, 0, 4246.667, 2937.949, 4124.615, 4243.59, 4227.692, 450, 0, []
1632390865.3207, 13, 0, 4223.59, 2894.872, 4108.718, 4219.487, 4211.795, 450, 0, []
1632390865.3284, 14, 0, 4209.231, 2893.333, 4087.692, 4220, 4206.154, 450, 0, []
1632390865.3363, 15, 0, 4223.077, 2913.333, 4102.051, 4242.564, 4227.692, 16170, 0, []
1632390865.3442, 16, 0, 4229.231, 2909.744, 4117.949, 4251.282, 4241.026, 0, 0, []
1632390865.352, 17, 0, 4217.949, 2896.41, 4095.897, 4252.308, 4238.974, 0, 0, []
1632390865.3598, 18, 0, 4218.462, 2907.179, 4100.513, 4263.59, 4242.564, 0, 0, []
1632390865.3676, 19, 0, 4222.564, 2916.41, 4124.103, 4256.41, 4244.615, 0, 0, []
1632390865.3754, 20, 0, 4208.205, 2898.462, 4117.949, 4228.205, 4228.718, 0, 0, []
1632390865.3833, 21, 0, 4198.974, 2889.744, 4118.462, 4225.128, 4217.949, 0, 0, []
1632390865.3911, 22, 0, 4205.641, 2902.051, 4117.949, 4236.923, 4218.974, 0, 0, []
1632390865.399, 23, 0, 4209.231, 2902.564, 4109.744, 4231.282, 4215.385, 0, 0, []
1632390865.4067, 24, 0, 4212.821, 2891.282, 4104.103, 4222.564, 4221.538, 0, 0, []
1632390865.4146, 25, 0, 4221.026, 2889.231, 4102.564, 4225.641, 4233.846, 0, 0, []
1632390865.4224, 26, 0, 4212.821, 2888.718, 4104.103, 4227.692, 4220.513, 0, 0, []
1632390865.4303, 27, 0, 4195.897, 2885.128, 4092.821, 4224.615, 4201.538, 0, 0, []
1632390865.4381, 28, 0, 4201.538, 2878.462, 4098.974, 4232.821, 4212.308, 0, 0, []
1632390865.4459, 29, 0, 4212.821, 2878.974, 4110.769, 4239.487, 4221.538, 0, 0, []
1632390865.4537, 30, 0, 4220.513, 2891.795, 4105.128, 4236.923, 4211.795, 0, 0, []
1632390865.4616, 31, 0, 4241.538, 2900, 4117.436, 4250.769, 4218.462, 0, 0, []
1632390865.4694, 32, 0, 4246.667, 2901.538, 4117.949, 4262.051, 4224.103, 0, 0, []
1632390865.4773, 33, 0, 4218.462, 2896.923, 4097.436, 4245.128, 4197.436, 0, 0, []
1632390865.485, 34, 0, 4203.59, 2882.564, 4088.205, 4226.667, 4172.821, 0, 0, []
1632390865.4929, 35, 0, 4206.154, 2870.769, 4078.462, 4227.179, 4171.282, 0, 0, []
1632390865.5007, 36, 0, 4200.513, 2872.308, 4075.385, 4230.256, 4171.795, 0, 0, []
1632390865.5085, 37, 0, 4195.385, 2888.718, 4086.154, 4232.821, 4171.282, 0, 0, []
1632390865.5164, 38, 0, 4194.359, 2900.513, 4088.718, 4237.436, 4176.41, 0, 0, []
1632390865.5241, 39, 0, 4195.897, 2897.436, 4075.897, 4236.923, 4182.051, 0, 0, []
1632390865.532, 40, 0, 4198.462, 2899.487, 4070.256, 4235.385, 4187.179, 0, 0, []
1632390865.5398, 41, 0, 4196.41, 2913.333, 4092.308, 4237.949, 4183.077, 0, 0, []
1632390865.5477, 42, 0, 4194.872, 2918.462, 4102.564, 4238.462, 4174.359, 0, 0, []
1632390865.5555, 43, 0, 4197.436, 2913.846, 4089.744, 4240, 4178.462, 0, 0, []
1632390865.5633, 44, 0, 4193.846, 2916.923, 4085.128, 4246.667, 4182.564, 0, 0, []
1632390865.5711, 45, 0, 4188.718, 2914.359, 4083.59, 4244.615, 4173.333, 0, 0, []
1632390865.579, 46, 0, 4193.846, 2910.769, 4090.769, 4238.974, 4169.231, 0, 0, []
1632390865.5868, 47, 0, 4195.385, 2922.564, 4093.846, 4236.923, 4168.718, 0, 0, []
1632390865.5947, 48, 0, 4193.333, 2946.154, 4097.949, 4241.538, 4171.795, 0, 0, []
1632390865.6024, 49, 0, 4204.615, 2964.615, 4107.179, 4248.718, 4184.103, 0, 0, []
1632390865.6103, 50, 0, 4213.846, 2953.333, 4087.692, 4242.051, 4189.231, 0, 0, []
1632390865.6181, 51, 0, 4204.615, 2938.974, 4075.897, 4235.897, 4178.974, 0, 0, []
1632390865.626, 52, 0, 4195.385, 2950.769, 4075.385, 4234.359, 4167.179, 0, 0, []
1632390865.6338, 53, 0, 4192.308, 2960, 4062.051, 4218.974, 4159.487, 0, 0, []
1632390865.6416, 54, 0, 4196.41, 2956.923, 4070.256, 4216.41, 4162.564, 0, 0, []
1632390865.6495, 55, 0, 4200.513, 2966.667, 4080, 4229.231, 4175.385, 0, 0, []
1632390865.6574, 56, 0, 4191.795, 2983.59, 4070.769, 4224.103, 4166.667, 0, 0, []
1632390865.6653, 57, 0, 4182.051, 2994.359, 4058.974, 4201.026, 4143.077, 0, 0, []
1632390865.6732, 58, 0, 4178.462, 3020.513, 4052.308, 4185.641, 4135.897, 0, 0, []
1632390865.681, 59, 0, 4173.333, 3055.385, 4061.026, 4180, 4138.974, 0, 0, []
1632390865.6887, 60, 0, 4168.718, 3087.692, 4065.641, 4190.769, 4142.051, 0, 0, []
1632390865.6966, 61, 0, 4159.487, 3141.538, 4049.231, 4201.026, 4133.333, 0, 0, []
1632390865.7044, 62, 0, 4147.179, 3184.103, 4026.154, 4194.872, 4115.385, 0, 0, []
1632390865.7123, 63, 0, 4151.282, 3178.974, 4028.205, 4204.103, 4115.385, 0, 0, []
1632390865.7201, 64, 0, 4169.744, 3201.026, 4050.256, 4223.077, 4137.436, 450, 0, []
1632390865.7279, 65, 0, 4178.462, 3273.846, 4046.154, 4207.179, 4150.769, 450, 0, []
1632390865.7357, 66, 0, 4180, 3308.205, 4040, 4179.487, 4144.103, 16304, 0, []
1632390865.7436, 67, 0, 4190.769, 3391.282, 4056.923, 4186.154, 4153.333, 450, 0, []
1632390865.7514, 68, 0, 4200, 3637.949, 4064.615, 4203.59, 4180.513, 16309, 0, []
1632390865.7593, 69, 0, 4188.205, 3883.077, 4069.231, 4213.333, 4188.718, 450, 0, []
1632390865.767, 70, 0, 4174.359, 4032.821, 4076.923, 4221.538, 4182.051, 271, 0, []
1632390865.7749, 71, 0, 4176.923, 4184.103, 4084.615, 4218.462, 4178.974, 450, 0, []
1632390865.7827, 72, 0, 4181.026, 4304.103, 4087.692, 4204.615, 4175.897, 450, 0, []
1632390865.7906, 73, 0, 4177.436, 4333.333, 4069.231, 4193.333, 4152.308, 16101, 0, []
1632390865.7984, 74, 0, 4174.872, 4403.077, 4061.538, 4192.308, 4119.487, 450, 0, []
1632390865.8062, 75, 0, 4170.769, 4594.872, 4062.564, 4191.282, 4116.41, 245, 0, []
1632390865.814, 76, 0, 4167.692, 4750.256, 4068.718, 4195.897, 4149.231, 450, 0, []
1632390865.8218, 77, 0, 4170.256, 4825.641, 4086.154, 4214.359, 4173.333, 450, 0, []
1632390865.8297, 78, 0, 4166.154, 4972.308, 4082.564, 4216.923, 4168.205, 450, 0, []
1632390865.8375, 79, 0, 4163.077, 5101.538, 4075.385, 4203.077, 4162.564, 245, 0, []
1632390865.8453, 80, 0, 4173.846, 5011.795, 4069.744, 4200.513, 4153.846, 450, 0, []
1632390865.8531, 81, 0, 4174.872, 4972.821, 4047.692, 4204.615, 4136.41, 450, 0, []
1632390865.861, 82, 0, 4171.282, 5169.744, 4031.795, 4194.359, 4140.513, 450, 0, []
1632390865.8688, 83, 0, 4174.872, 5320, 4033.846, 4178.462, 4170.769, 245, 0, []
1632390865.8767, 84, 0, 4195.897, 5305.641, 4057.949, 4178.462, 4200, 450, 0, []
1632390865.8844, 85, 0, 4260.513, 5260, 4062.051, 4190.769, 4234.872, 450, 0, []
1632390865.8923, 86, 0, 4326.154, 5237.436, 4047.692, 4208.205, 4290.769, 450, 0, []
1632390865.9001, 87, 0, 4352.308, 5273.333, 4074.872, 4224.615, 4342.564, 245, 0, []
1632390865.908, 88, 0, 4373.846, 5384.103, 4093.333, 4221.538, 4355.897, 450, 0, []
1632390865.9158, 89, 0, 4378.974, 5335.385, 4073.846, 4212.821, 4338.974, 450, 0, []
1632390865.9236, 90, 0, 4345.128, 5074.359, 4072.308, 4211.282, 4334.359, 450, 0, []
1632390865.9314, 91, 0, 4323.59, 4976.923, 4093.846, 4211.282, 4332.821, 245, 0, []
1632390865.9393, 92, 0, 4331.795, 5170.769, 4102.564, 4226.154, 4314.872, 450, 0, []
1632390865.9471, 93, 0, 4300.513, 5355.385, 4078.974, 4232.308, 4294.872, 450, 0, []
1632390865.955, 94, 0, 4250.769, 5358.462, 4066.154, 4207.692, 4273.333, 450, 0, []
1632390865.9627, 95, 0, 4257.436, 5414.359, 4072.308, 4200, 4252.821, 245, 0, []
1632390865.9706, 96, 0, 4274.872, 5474.872, 4075.385, 4224.615, 4247.692, 450, 0, []
1632390865.9784, 97, 0, 4248.205, 5273.333, 4085.128, 4231.795, 4246.667, 450, 0, []
1632390865.9862, 98, 0, 4224.615, 5089.231, 4089.231, 4214.872, 4240, 450, 0, []
1632390865.9941, 99, 0, 4234.872, 5352.821, 4083.59, 4216.41, 4228.718, 245, 0, []
1632390866.0018, 100, 0, 4234.872, 5873.846, 4069.744, 4228.205, 4207.692, 450, 0, []
1632390866.0097, 101, 0, 4196.41, 6361.026, 4057.949, 4215.385, 4187.179, 450, 0, []
1632390866.0175, 102, 0, 4168.205, 6874.359, 4058.974, 4201.538, 4177.436, 450, 0, []
1632390866.0254, 103, 0, 4187.179, 7284.615, 4059.487, 4217.949, 4176.41, 245, 0, []
1632390866.0332, 104, 0, 4198.974, 7402.051, 4073.846, 4236.41, 4182.564, 450, 0, []
1632390866.041, 105, 0, 4166.667, 7407.692, 4071.795, 4222.051, 4168.205, 450, 0, []
1632390866.0488, 106, 0, 4164.615, 7443.59, 4054.359, 4206.667, 4142.051, 450, 0, []
1632390866.0567, 107, 0, 4196.923, 7425.641, 4080.513, 4216.41, 4160.513, 245, 0, []
1632390866.0645, 108, 0, 4195.897, 7366.667, 4101.026, 4227.179, 4191.282, 450, 0, []
1632390866.0724, 109, 0, 4190.256, 7323.59, 4084.615, 4227.692, 4175.385, 450, 0, []
1632390866.0801, 110, 0, 4197.949, 7288.718, 4081.026, 4221.538, 4163.59, 450, 0, []
1632390866.088, 111, 0, 4178.974, 7292.821, 4088.718, 4213.333, 4170.769, 245, 0, []
1632390866.0958, 112, 0, 4180, 7314.872, 4094.359, 4222.564, 4158.974, 450, 0, []
1632390866.1037, 113, 0, 4193.333, 7317.949, 4077.949, 4229.231, 4152.308, 450, 0, []
1632390866.1115, 114, 0, 4171.282, 7314.872, 4057.949, 4216.923, 4163.077, 450, 0, []
1632390866.1193, 115, 0, 4170.769, 7336.923, 4057.949, 4218.974, 4163.59, 245, 0, []
1632390866.1271, 116, 0, 4175.385, 7352.821, 4041.026, 4224.103, 4145.128, 450, 0, []
1632390866.1349, 117, 0, 4155.385, 7337.436, 4036.41, 4211.282, 4140, 450, 0, []
1632390866.1428, 118, 0, 4169.231, 7357.949, 4051.795, 4208.718, 4153.333, 450, 0, []
1632390866.1506, 119, 0, 4185.641, 7422.564, 4054.359, 4229.231, 4159.487, 245, 0, []
1632390866.1584, 120, 0, 4169.231, 7348.718, 4075.385, 4240.513, 4164.103, 450, 0, []
1632390866.1662, 121, 0, 4185.641, 7304.615, 4093.846, 4229.744, 4177.949, 450, 0, []
1632390866.1741, 122, 0, 4209.231, 7417.436, 4087.179, 4231.795, 4178.462, 450, 0, []
1632390866.1819, 123, 0, 4179.487, 6925.128, 4085.641, 4239.487, 4162.564, 245, 0, []
1632390866.1898, 124, 0, 4165.128, 5737.436, 4098.974, 4227.179, 4166.154, 450, 0, []
1632390866.1975, 125, 0, 4186.667, 4970.769, 4096.923, 4217.949, 4170.769, 450, 0, []
1632390866.2054, 126, 0, 4181.026, 4835.897, 4071.795, 4228.718, 4156.923, 450, 0, []
1632390866.2132, 127, 0, 4166.154, 4618.974, 4070.256, 4233.846, 4156.41, 245, 0, []
1632390866.2211, 128, 0, 4167.179, 4336.41, 4084.615, 4226.154, 4170.769, 450, 0, []
1632390866.2289, 0, 0, 4161.538, 4246.154, 4086.667, 4233.333, 4174.872, 450, 0, []
1632390866.2367, 1, 0, 4148.718, 4157.949, 4090.769, 4244.103, 4165.641, 450, 0, []
1632390866.2445, 2, 0, 4146.154, 4047.179, 4089.744, 4234.359, 4163.59, 16194, 0, []
1632390866.2524, 3, 0, 4147.179, 3956.923, 4085.641, 4215.897, 4165.128, 450, 0, []
1632390866.2602, 4, 0, 4155.897, 3869.744, 4093.846, 4210.769, 4164.103, 16164, 0, []
1632390866.268, 5, 0, 4167.179, 3801.026, 4092.821, 4211.282, 4161.538, 450, 0, []
1632390866.2759, 6, 0, 4163.077, 3730.769, 4079.487, 4206.154, 4156.923, 16105, 0, []
1632390866.2836, 7, 0, 4160, 3660.513, 4066.154, 4205.641, 4146.154, 450, 0, []
1632390866.2915, 8, 0, 4170.769, 3596.41, 4073.333, 4222.051, 4137.949, 450, 0, []
1632390866.2993, 9, 0, 4172.308, 3545.641, 4085.128, 4239.487, 4143.077, 16120, 0, []
1632390866.3072, 10, 0, 4161.026, 3500.513, 4068.205, 4238.974, 4143.077, 450, 0, []
1632390866.315, 11, 0, 4159.487, 3444.615, 4060.513, 4234.359, 4133.846, 16141, 0, []
1632390866.3228, 12, 0, 4173.333, 3390.769, 4072.308, 4238.462, 4144.615, 450, 0, []
1632390866.3306, 13, 0, 4180, 3360, 4077.436, 4238.974, 4157.949, 450, 0, []
1632390866.3385, 14, 0, 4165.641, 3321.026, 4061.538, 4224.103, 4137.949, 450, 0, []
1632390866.3463, 15, 0, 4150.256, 3271.282, 4037.436, 4205.641, 4118.462, 16141, 0, []
1632390866.3542, 16, 0, 4161.538, 3244.615, 4058.462, 4212.821, 4138.974, 0, 0, []
1632390866.3619, 17, 0, 4177.949, 3221.538, 4088.718, 4238.974, 4160.513, 0, 0, []
1632390866.3698, 18, 0, 4170.256, 3182.051, 4086.667, 4242.564, 4155.897, 0, 0, []
1632390866.3776, 19, 0, 4169.744, 3162.564, 4091.282, 4237.436, 4160, 0, 0, []
1632390866.3855, 20, 0, 4176.923, 3149.231, 4090.256, 4236.923, 4171.795, 0, 0, []
1632390866.3933, 21, 0, 4162.564, 3105.641, 4074.872, 4228.205, 4163.077, 0, 0, []
1632390866.4011, 22, 0, 4156.41, 3075.385, 4077.949, 4222.564, 4160, 0, 0, []
1632390866.4089, 23, 0, 4166.667, 3065.128, 4088.205, 4231.282, 4170.256, 0, 0, []
1632390866.4168, 24, 0, 4160.513, 3037.436, 4081.026, 4230.256, 4161.026, 0, 0, []
1632390866.4246, 25, 0, 4152.308, 3010.769, 4070.769, 4218.974, 4149.744, 0, 0, []
1632390866.4324, 26, 0, 4166.667, 2994.872, 4084.615, 4230.256, 4169.231, 0, 0, []
1632390866.4402, 27, 0, 4181.538, 2985.641, 4096.41, 4239.487, 4192.308, 0, 0, []
1632390866.448, 28, 0, 4174.872, 2978.462, 4094.359, 4218.974, 4186.667, 0, 0, []
1632390866.4559, 29, 0, 4154.359, 2958.462, 4090.256, 4202.051, 4163.59, 0, 0, []
1632390866.4637, 30, 0, 4142.051, 2935.385, 4064.103, 4203.59, 4147.692, 0, 0, []
1632390866.4716, 31, 0, 4147.692, 2917.436, 4058.462, 4211.282, 4150.256, 0, 0, []
1632390866.4793, 32, 0, 4149.744, 2901.026, 4073.846, 4214.359, 4156.41, 0, 0, []
1632390866.4872, 33, 0, 4133.846, 2903.59, 4060.513, 4210.256, 4143.077, 0, 0, []
1632390866.495, 34, 0, 4126.154, 2912.308, 4050.769, 4202.564, 4119.487, 0, 0, []
1632390866.5029, 35, 0, 4144.615, 2904.615, 4063.077, 4205.128, 4125.128, 0, 0, []
1632390866.5107, 36, 0, 4162.564, 2897.436, 4075.385, 4218.462, 4148.205, 0, 0, []
1632390866.5185, 37, 0, 4160, 2882.564, 4066.154, 4224.615, 4139.487, 0, 0, []
1632390866.5263, 38, 0, 4148.205, 2850.769, 4050.769, 4212.308, 4112.308, 0, 0, []
1632390866.5342, 39, 0, 4148.205, 2841.026, 4067.692, 4205.641, 4117.436, 0, 0, []
1632390866.542, 40, 0, 4166.154, 2848.205, 4077.436, 4222.051, 4148.205, 0, 0, []
1632390866.5499, 41, 0, 4177.949, 2840, 4068.718, 4236.923, 4158.974, 0, 0, []
1632390866.5576, 42, 0, 4171.795, 2831.795, 4072.821, 4225.128, 4145.128, 0, 0, []
1632390866.5655, 43, 0, 4159.487, 2826.667, 4065.128, 4205.641, 4137.949, 0, 0, []
1632390866.5733, 44, 0, 4156.923, 2814.872, 4063.077, 4209.744, 4149.744, 0, 0, []
1632390866.5811, 45, 0, 4162.051, 2812.308, 4077.949, 4222.051, 4152.308, 0, 0, []
1632390866.589, 46, 0, 4152.308, 2811.795, 4075.385, 4214.359, 4130.769, 0, 0, []
1632390866.5967, 47, 0, 4146.667, 2798.462, 4063.077, 4202.051, 4123.077, 0, 0, []
1632390866.6046, 48, 0, 4157.436, 2796.41, 4064.103, 4203.077, 4136.923, 0, 0, []
1632390866.6124, 49, 0, 4165.128, 2807.179, 4073.846, 4209.231, 4140, 0, 0, []
1632390866.6203, 50, 0, 4166.154, 2809.231, 4069.744, 4207.692, 4137.949, 0, 0, []
1632390866.6281, 51, 0, 4162.051, 2804.615, 4068.718, 4200.513, 4138.974, 0, 0, []
1632390866.6359, 52, 0, 4151.282, 2799.487, 4078.974, 4195.897, 4133.846, 0, 0, []
1632390866.6437, 53, 0, 4137.436, 2795.897, 4065.641, 4184.615, 4125.128, 0, 0, []
1632390866.6516, 54, 0, 4129.744, 2795.897, 4055.897, 4169.744, 4120.513, 0, 0, []
1632390866.6595, 55, 0, 4129.744, 2797.949, 4062.051, 4169.744, 4123.59, 0, 0, []
1632390866.6674, 56, 0, 4140, 2801.538, 4071.282, 4177.949, 4135.385, 0, 0, []
1632390866.6751, 57, 0, 4156.41, 2806.154, 4084.103, 4183.59, 4150.256, 0, 0, []
1632390866.6829, 58, 0, 4160, 2809.231, 4080, 4185.641, 4154.872, 0, 0, []
1632390866.6908, 59, 0, 4150.769, 2806.667, 4077.436, 4189.744, 4153.846, 0, 0, []
1632390866.6987, 60, 0, 4137.436, 2805.641, 4078.974, 4188.205, 4157.436, 0, 0, []
1632390866.7065, 61, 0, 4127.179, 2812.821, 4070.769, 4175.897, 4152.308, 0, 0, []
1632390866.7143, 62, 0, 4115.897, 2801.538, 4065.128, 4157.949, 4127.692, 0, 0, []
1632390866.7221, 63, 0, 4112.821, 2784.615, 4068.205, 4163.077, 4121.026, 0, 0, []
1632390866.73, 64, 0, 4127.179, 2790.769, 4085.128, 4188.718, 4148.205, 450, 0, []
1632390866.7378, 65, 0, 4140.513, 2798.974, 4080.513, 4191.795, 4159.487, 450, 0, []
1632390866.7457, 66, 0, 4142.051, 2807.179, 4070.256, 4188.718, 4152.308, 16203, 0, []
1632390866.7534, 67, 0, 4138.462, 2814.872, 4089.231, 4206.667, 4155.897, 450, 0, []
1632390866.7612, 68, 0, 4126.154, 2798.974, 4081.026, 4202.051, 4149.231, 16261, 0, []
1632390866.7691, 69, 0, 4118.974, 2779.487, 4066.154, 4183.077, 4131.282, 450, 0, []
1632390866.7769, 70, 0, 4136.923, 2802.051, 4081.026, 4195.385, 4140.513, 310, 0, []
1632390866.7848, 71, 0, 4155.385, 2828.718, 4081.538, 4208.718, 4156.41, 450, 0, []
1632390866.7925, 72, 0, 4155.385, 2818.462, 4075.897, 4203.077, 4155.385, 450, 0, []
1632390866.8004, 73, 0, 4146.667, 2828.205, 4074.872, 4200.513, 4154.872, 16124, 0, []
1632390866.8082, 74, 0, 4139.487, 2848.718, 4076.41, 4201.026, 4149.744, 450, 0, []
1632390866.8161, 75, 0, 4145.128, 2840, 4070.769, 4198.462, 4141.538, 16111, 0, []
1632390866.8239, 76, 0, 4150.769, 2826.667, 4050.256, 4191.795, 4132.821, 450, 0, []
1632390866.8317, 77, 0, 4150.769, 2836.923, 4049.231, 4190.256, 4121.026, 450, 0, []
1632390866.8395, 78, 0, 4161.538, 2861.026, 4062.051, 4197.436, 4125.128, 450, 0, []
1632390866.8474, 79, 0, 4170.769, 2867.692, 4071.795, 4202.051, 4135.385, 16111, 0, []
1632390866.8552, 80, 0, 4164.103, 2869.744, 4079.487, 4193.333, 4129.231, 450, 0, []
1632390866.8631, 81, 0, 4155.385, 2876.923, 4068.718, 4184.615, 4128.205, 450, 0, []
1632390866.8709, 82, 0, 4154.359, 2876.923, 4064.615, 4186.667, 4137.436, 450, 0, []
1632390866.8787, 83, 0, 4160, 2881.538, 4067.179, 4189.231, 4142.564, 16111, 0, []
1632390866.8865, 84, 0, 4155.897, 2889.231, 4062.051, 4183.077, 4140, 450, 0, []
1632390866.8943, 85, 0, 4133.846, 2874.872, 4054.359, 4167.179, 4127.179, 450, 0, []
1632390866.9022, 86, 0, 4123.077, 2871.282, 4052.821, 4162.564, 4121.538, 450, 0, []
1632390866.91, 87, 0, 4137.436, 2907.179, 4067.692, 4181.538, 4143.077, 16111, 0, []
1632390866.9178, 88, 0, 4149.744, 2933.333, 4069.231, 4189.231, 4160.513, 450, 0, []
1632390866.9256, 89, 0, 4148.718, 2938.974, 4063.59, 4180.513, 4155.385, 450, 0, []
1632390866.9335, 90, 0, 4145.641, 2950.769, 4077.949, 4189.744, 4155.385, 450, 0, []
1632390866.9413, 91, 0, 4140.513, 2971.282, 4080, 4198.462, 4162.051, 16111, 0, []
1632390866.9492, 92, 0, 4136.41, 3019.487, 4075.897, 4188.205, 4154.872, 450, 0, []
1632390866.9569, 93, 0, 4137.949, 3104.615, 4074.872, 4188.205, 4141.026, 450, 0, []
1632390866.9648, 94, 0, 4140.513, 3164.615, 4067.692, 4196.41, 4141.538, 450, 0, []
1632390866.9726, 95, 0, 4142.564, 3172.308, 4070.769, 4195.897, 4154.359, 16111, 0, []
1632390866.9805, 96, 0, 4139.487, 3167.692, 4068.718, 4187.179, 4155.897, 450, 0, []
1632390866.9883, 97, 0, 4135.897, 3148.205, 4068.205, 4185.128, 4154.359, 450, 0, []
1632390866.9961, 98, 0, 4147.692, 3166.667, 4077.436, 4202.564, 4161.538, 450, 0, []
1632390867.0039, 99, 0, 4157.949, 3301.538, 4075.385, 4208.718, 4160.513, 16111, 0, []
1632390867.0118, 100, 0, 4148.718, 3408.718, 4065.128, 4192.308, 4147.692, 450, 0, []
1632390867.0196, 101, 0, 4137.436, 3372.821, 4050.769, 4188.205, 4143.077, 450, 0, []
1632390867.0275, 102, 0, 4145.128, 3343.077, 4049.744, 4198.974, 4150.256, 450, 0, []
1632390867.0352, 103, 0, 4157.436, 3410.769, 4054.872, 4196.923, 4155.897, 16111, 0, []
1632390867.0431, 104, 0, 4150.769, 3555.385, 4049.231, 4192.821, 4146.667, 450, 0, []
1632390867.0509, 105, 0, 4140.513, 3777.436, 4051.282, 4207.179, 4129.231, 450, 0, []
1632390867.0587, 106, 0, 4149.744, 3991.282, 4054.359, 4217.949, 4128.205, 450, 0, []
1632390867.0666, 107, 0, 4155.897, 4083.077, 4060, 4220, 4135.897, 16111, 0, []
1632390867.0743, 108, 0, 4146.154, 4091.282, 4057.949, 4220, 4133.846, 450, 0, []
1632390867.0822, 109, 0, 4142.051, 4081.538, 4045.128, 4216.41, 4138.974, 450, 0, []
1632390867.09, 110, 0, 4146.667, 4113.846, 4061.026, 4218.462, 4153.333, 450, 0, []
1632390867.0979, 111, 0, 4151.282, 4245.641, 4077.949, 4226.667, 4160.513, 16111, 0, []
1632390867.1057, 112, 0, 4153.846, 4342.564, 4074.872, 4230.256, 4157.436, 450, 0, []
1632390867.1135, 113, 0, 4150.769, 4403.077, 4069.744, 4218.462, 4150.256, 450, 0, []
1632390867.1213, 114, 0, 4155.897, 4596.41, 4065.641, 4207.692, 4146.667, 450, 0, []
1632390867.1292, 115, 0, 4180, 4837.949, 4071.282, 4222.564, 4148.205, 16111, 0, []
1632390867.137, 116, 0, 4193.846, 4969.231, 4063.077, 4235.385, 4141.026, 450, 0, []
1632390867.1449, 117, 0, 4179.487, 5015.897, 4046.154, 4223.59, 4131.282, 450, 0, []
1632390867.1526, 118, 0, 4167.692, 5063.59, 4051.795, 4215.897, 4138.462, 450, 0, []
1632390867.1605, 119, 0, 4169.744, 5139.487, 4061.026, 4217.949, 4151.282, 16111, 0, []
1632390867.1683, 120, 0, 4165.128, 5232.821, 4063.59, 4208.205, 4154.359, 450, 0, []
1632390867.1762, 121, 0, 4154.359, 5290.256, 4058.974, 4193.333, 4142.564, 450, 0, []
1632390867.184, 122, 0, 4155.385, 5327.692, 4051.282, 4199.487, 4121.538, 450, 0, []
1632390867.1918, 123, 0, 4169.231, 5362.564, 4062.051, 4212.308, 4124.615, 16111, 0, []
1632390867.1996, 124, 0, 4176.41, 5354.872, 4083.077, 4214.872, 4152.308, 450, 0, []
1632390867.2075, 125, 0, 4170.256, 5367.692, 4096.923, 4213.333, 4165.641, 450, 0, []
1632390867.2153, 126, 0, 4166.667, 5412.308, 4092.308, 4209.231, 4151.282, 450, 0, []
1632390867.2231, 127, 0, 4172.821, 5438.974, 4073.333, 4209.231, 4129.744, 16111, 0, []
1632390867.2309, 128, 0, 4176.41, 5500, 4066.154, 4218.974, 4123.59, 450, 0, []
1632390867.2387, 0, 0, 4166.667, 5501.026, 4073.846, 4225.128, 4140.513, 450, 0, []
1632390867.2466, 1, 0, 4162.564, 5427.179, 4095.385, 4223.59, 4165.641, 450, 0, []
1632390867.2544, 2, 0, 4179.487, 5584.103, 4101.026, 4220, 4168.205, 16148, 0, []
1632390867.2623, 3, 0, 4185.641, 5877.436, 4073.333, 4212.821, 4143.59, 450, 0, []
1632390867.27, 4, 0, 4172.821, 5914.872, 4068.718, 4220.513, 4128.718, 16126, 0, []
1632390867.2779, 5, 0, 4170.256, 5860, 4091.795, 4232.821, 4146.667, 450, 0, []
1632390867.2857, 6, 0, 4172.821, 5947.692, 4090.256, 4217.949, 4164.615, 16074, 0, []
1632390867.2936, 7, 0, 4169.744, 6005.641, 4053.846, 4196.923, 4142.564, 450, 0, []
1632390867.3014, 8, 0, 4173.333, 6023.59, 4042.051, 4207.179, 4121.026, 450, 0, []
1632390867.3092, 9, 0, 4175.385, 6109.231, 4076.41, 4232.821, 4141.026, 16094, 0, []
1632390867.317, 10, 0, 4172.821, 6118.974, 4095.385, 4233.333, 4165.641, 450, 0, []
1632390867.3249, 11, 0, 4181.538, 6004.615, 4085.641, 4217.949, 4153.333, 16203, 0, []
1632390867.3327, 12, 0, 4193.333, 5899.487, 4074.359, 4223.59, 4138.974, 450, 0, []
1632390867.3406, 13, 0, 4191.795, 5857.436, 4065.128, 4234.872, 4155.897, 450, 0, []
1632390867.3483, 14, 0, 4178.462, 5880, 4072.308, 4220.513, 4170.769, 450, 0, []
1632390867.3562, 15, 0, 4174.872, 5908.205, 4076.923, 4206.154, 4165.641, 16203, 0, []
1632390867.364, 16, 0, 4184.615, 5861.538, 4064.103, 4220.513, 4150.769, 0, 0, []
1632390867.3718, 17, 0, 4187.179, 5813.333, 4060, 4235.385, 4147.692, 0, 0, []
1632390867.3797, 18, 0, 4173.333, 5821.538, 4067.692, 4225.128, 4164.615, 0, 0, []
1632390867.3874, 19, 0, 4164.103, 5824.103, 4075.385, 4206.667, 4168.718, 0, 0, []
1632390867.3953, 20, 0, 4177.949, 5824.615, 4063.077, 4205.128, 4157.436, 0, 0, []
1632390867.4031, 21, 0, 4192.821, 5860, 4047.179, 4217.436, 4157.436, 0, 0, []
1632390867.411, 22, 0, 4190.256, 5884.615, 4060, 4222.564, 4169.231, 0, 0, []
1632390867.4188, 23, 0, 4177.436, 5882.564, 4071.795, 4207.692, 4174.359, 0, 0, []
1632390867.4266, 24, 0, 4182.051, 5884.615, 4072.308, 4195.897, 4163.59, 0, 0, []
1632390867.4344, 25, 0, 4208.718, 5890.769, 4066.154, 4206.667, 4152.308, 0, 0, []
1632390867.4423, 26, 0, 4216.923, 5893.846, 4068.205, 4212.821, 4171.795, 0, 0, []
1632390867.4501, 27, 0, 4227.692, 5872.308, 4090.769, 4206.667, 4215.897, 0, 0, []
1632390867.458, 28, 0, 4292.821, 5812.308, 4092.821, 4217.949, 4261.026, 0, 0, []
1632390867.4658, 29, 0, 4353.333, 5775.385, 4086.667, 4236.923, 4310.769, 0, 0, []
1632390867.4736, 30, 0, 4359.487, 5803.077, 4096.923, 4235.897, 4345.128, 0, 0, []
1632390867.4814, 31, 0, 4369.231, 5822.564, 4107.179, 4239.487, 4342.564, 0, 0, []
1632390867.4893, 32, 0, 4384.615, 5795.385, 4118.974, 4242.564, 4343.59, 0, 0, []
1632390867.4971, 33, 0, 4357.436, 5783.59, 4108.205, 4220, 4340, 0, 0, []
1632390867.5049, 34, 0, 4323.077, 5797.436, 4082.564, 4213.333, 4296.923, 0, 0, []
1632390867.5127, 35, 0, 4310.769, 5780, 4076.41, 4227.692, 4273.333, 0, 0, []
1632390867.5205, 36, 0, 4286.667, 5737.949, 4082.051, 4219.487, 4278.462, 0, 0, []
1632390867.5284, 37, 0, 4280, 5748.205, 4081.538, 4214.359, 4263.077, 0, 0, []
1632390867.5362, 38, 0, 4282.051, 5805.128, 4069.744, 4224.615, 4245.641, 0, 0, []
1632390867.5441, 39, 0, 4253.846, 5806.154, 4085.641, 4216.41, 4250.769, 0, 0, []
1632390867.5518, 40, 0, 4238.462, 5763.077, 4103.077, 4211.282, 4245.641, 0, 0, []
1632390867.5597, 41, 0, 4252.308, 5742.564, 4091.282, 4231.795, 4230.256, 0, 0, []
1632390867.5675, 42, 0, 4241.026, 5730.769, 4090.256, 4243.59, 4230.256, 0, 0, []
1632390867.5754, 43, 0, 4222.564, 5718.462, 4097.436, 4235.385, 4229.231, 0, 0, []
1632390867.5832, 44, 0, 4244.103, 5710.769, 4097.949, 4238.974, 4221.026, 0, 0, []
1632390867.591, 45, 0, 4266.154, 5682.051, 4095.385, 4258.462, 4226.154, 0, 0, []
1632390867.5988, 46, 0, 4250.256, 5678.974, 4096.923, 4248.205, 4236.41, 0, 0, []
1632390867.6067, 47, 0, 4228.718, 5722.564, 4109.744, 4225.128, 4222.564, 0, 0, []
1632390867.6145, 48, 0, 4226.154, 5685.128, 4091.795, 4230.769, 4192.308, 0, 0, []
1632390867.6224, 49, 0, 4217.949, 5595.897, 4061.026, 4238.974, 4174.872, 0, 0, []
1632390867.6301, 50, 0, 4197.949, 5581.026, 4074.359, 4222.564, 4174.872, 0, 0, []
1632390867.638, 51, 0, 4199.487, 5582.564, 4096.923, 4205.641, 4181.026, 0, 0, []
1632390867.6458, 52, 0, 4215.385, 5555.897, 4081.026, 4201.026, 4171.795, 0, 0, []
1632390867.6537, 53, 0, 4229.231, 5549.231, 4066.154, 4209.231, 4164.615, 0, 0, []
1632390867.6615, 54, 0, 4228.205, 5521.026, 4091.795, 4232.308, 4178.974, 0, 0, []
1632390867.6693, 55, 0, 4203.59, 5468.718, 4109.744, 4227.692, 4187.179, 0, 0, []
1632390867.6771, 56, 0, 4178.462, 5492.821, 4077.949, 4186.154, 4160, 0, 0, []
1632390867.6849, 57, 0, 4177.436, 5556.41, 4052.308, 4174.872, 4123.077, 0, 0, []
1632390867.6928, 58, 0, 4191.282, 5558.462, 4054.872, 4203.59, 4125.641, 0, 0, []
1632390867.7006, 59, 0, 4192.308, 5517.949, 4066.667, 4218.974, 4160, 0, 0, []
1632390867.7084, 60, 0, 4190.769, 5557.949, 4088.205, 4208.205, 4183.077, 0, 0, []
1632390867.7162, 61, 0, 4201.026, 5830.256, 4080.513, 4201.026, 4168.718, 0, 0, []
1632390867.7241, 62, 0, 4215.897, 6261.026, 4063.59, 4222.051, 4153.333, 0, 0, []
1632390867.7319, 63, 0, 4213.333, 6565.641, 4075.385, 4244.103, 4170.256, 0, 0, []
1632390867.7398, 64, 0, 4188.718, 6678.974, 4084.103, 4226.667, 4172.821, 450, 0, []
1632390867.7475, 65, 0, 4183.077, 6761.026, 4076.923, 4205.641, 4143.077, 450, 0, []
1632390867.7554, 66, 0, 4187.179, 6825.128, 4066.667, 4212.821, 4127.692, 16163, 0, []
1632390867.7632, 67, 0, 4166.154, 6837.436, 4076.41, 4204.103, 4141.026, 450, 0, []
1632390867.7711, 68, 0, 4152.821, 6867.179, 4082.564, 4186.154, 4138.462, 16115, 0, []
1632390867.7789, 69, 0, 4182.564, 6897.436, 4075.897, 4205.128, 4132.308, 450, 0, []
1632390867.7867, 70, 0, 4205.641, 6898.462, 4089.231, 4234.359, 4160, 16131, 0, []
1632390867.7945, 71, 0, 4187.179, 6908.205, 4089.744, 4227.692, 4178.974, 450, 0, []
1632390867.8024, 72, 0, 4177.436, 6914.359, 4074.872, 4211.795, 4156.923, 450, 0, []
1632390867.8102, 73, 0, 4182.051, 6872.821, 4068.718, 4216.923, 4134.359, 16141, 0, []
1632390867.8182, 74, 0, 4168.205, 6824.103, 4073.333, 4208.718, 4143.077, 450, 0, []
1632390867.826, 75, 0, 4158.462, 6838.974, 4086.667, 4191.795, 4141.026, 16196, 0, []
1632390867.8338, 76, 0, 4178.974, 6842.564, 4083.59, 4200.513, 4125.128, 450, 0, []
1632390867.8417, 77, 0, 4184.615, 6797.949, 4072.821, 4209.231, 4124.615, 450, 0, []
1632390867.8495, 78, 0, 4166.667, 6813.846, 4086.154, 4194.359, 4132.308, 450, 0, []
1632390867.8574, 79, 0, 4173.333, 6873.846, 4086.667, 4184.615, 4132.821, 16196, 0, []
1632390867.8651, 80, 0, 4193.846, 6840, 4068.205, 4205.641, 4127.692, 450, 0, []
1632390867.873, 81, 0, 4190.769, 6789.231, 4070.256, 4216.923, 4141.026, 450, 0, []
1632390867.8808, 82, 0, 4170.256, 6821.538, 4088.718, 4200.513, 4152.308, 450, 0, []
1632390867.8887, 83, 0, 4176.41, 6805.128, 4079.487, 4187.179, 4132.821, 16196, 0, []
1632390867.8965, 84, 0, 4185.641, 6756.923, 4051.795, 4190.256, 4117.949, 450, 0, []
1632390867.9043, 85, 0, 4172.821, 6771.795, 4075.897, 4205.128, 4136.41, 450, 0, []
1632390867.9121, 86, 0, 4178.462, 6766.667, 4093.333, 4217.949, 4148.718, 450, 0, []
1632390867.92, 87, 0, 4201.538, 6749.744, 4066.154, 4228.718, 4133.846, 16196, 0, []
1632390867.9278, 88, 0, 4196.923, 6752.821, 4066.154, 4226.154, 4136.41, 450, 0, []
1632390867.9357, 89, 0, 4172.308, 6697.436, 4076.923, 4212.308, 4144.615, 450, 0, []
1632390867.9434, 90, 0, 4176.41, 6733.333, 4068.205, 4217.436, 4132.821, 450, 0, []
1632390867.9513, 91, 0, 4186.667, 6545.128, 4046.667, 4224.615, 4121.026, 16196, 0, []
1632390867.9591, 92, 0, 4163.077, 5621.538, 4032.308, 4201.026, 4112.821, 450, 0, []
1632390867.9671, 93, 0, 4146.667, 4620, 4049.744, 4191.795, 4115.897, 450, 0, []
1632390867.975, 94, 0, 4165.641, 4287.179, 4073.333, 4210.769, 4132.308, 450, 0, []
1632390867.9829, 95, 0, 4186.667, 4174.359, 4076.41, 4207.179, 4142.051, 16196, 0, []
1632390867.9908, 96, 0, 4186.154, 3902.051, 4058.974, 4185.641, 4138.974, 450, 0, []
1632390867.9988, 97, 0, 4183.077, 3738.974, 4050.256, 4186.154, 4135.897, 450, 0, []
1632390868.0067, 98, 0, 4190.256, 3663.59, 4063.59, 4201.538, 4135.897, 450, 0, []
1632390868.0145, 99, 0, 4192.308, 3539.487, 4063.59, 4198.462, 4126.154, 16196, 0, []
1632390868.0223, 100, 0, 4181.538, 3440, 4063.077, 4186.154, 4108.205, 450, 0, []
1632390868.0301, 101, 0, 4182.051, 3340.513, 4067.692, 4194.359, 4104.615, 450, 0, []
1632390868.038, 102, 0, 4190.769, 3249.744, 4060, 4212.821, 4116.923, 450, 0, []
1632390868.0458, 103, 0, 4189.231, 3172.308, 4064.615, 4221.026, 4126.154, 16196, 0, []
1632390868.0537, 104, 0, 4184.103, 3112.308, 4060.513, 4221.026, 4122.564, 450, 0, []
1632390868.0615, 105, 0, 4176.923, 3059.487, 4047.692, 4216.923, 4113.846, 450, 0, []
1632390868.0693, 106, 0, 4170.769, 2995.897, 4050.769, 4209.231, 4112.308, 450, 0, []
1632390868.0771, 107, 0, 4173.846, 2948.718, 4060, 4205.128, 4118.462, 16196, 0, []
1632390868.085, 108, 0, 4188.718, 2906.667, 4071.795, 4214.359, 4127.179, 450, 0, []
1632390868.0928, 109, 0, 4198.462, 2854.872, 4067.179, 4222.051, 4129.744, 450, 0, []
1632390868.1007, 110, 0, 4192.821, 2802.564, 4057.949, 4221.538, 4125.641, 450, 0, []
1632390868.1084, 111, 0, 4187.692, 2754.359, 4065.128, 4226.667, 4124.615, 16196, 0, []
1632390868.1164, 112, 0, 4186.154, 2716.41, 4071.795, 4229.231, 4130.769, 450, 0, []
1632390868.1243, 113, 0, 4178.462, 2689.231, 4073.333, 4215.385, 4130.256, 450, 0, []
1632390868.1322, 114, 0, 4169.744, 2656.923, 4065.128, 4201.538, 4121.026, 450, 0, []
1632390868.14, 115, 0, 4165.128, 2615.385, 4065.128, 4202.051, 4122.051, 16196, 0, []
1632390868.1479, 116, 0, 4163.077, 2583.077, 4069.744, 4197.436, 4130.769, 450, 0, []
1632390868.1558, 117, 0, 4166.667, 2562.051, 4057.949, 4181.538, 4134.872, 450, 0, []
1632390868.1638, 118, 0, 4167.179, 2541.026, 4056.41, 4172.821, 4131.795, 450, 0, []
1632390868.1717, 119, 0, 4153.846, 2514.872, 4054.872, 4169.231, 4126.667, 16196, 0, []
1632390868.1795, 120, 0, 4147.692, 2489.744, 4054.359, 4178.462, 4129.744, 450, 0, []
1632390868.1873, 121, 0, 4156.923, 2474.359, 4073.846, 4199.487, 4138.974, 450, 0, []
1632390868.1951, 122, 0, 4152.821, 2451.795, 4080.513, 4208.205, 4140, 450, 0, []
1632390868.203, 123, 0, 4137.436, 2426.667, 4077.436, 4205.641, 4133.846, 16196, 0, []
1632390868.2108, 124, 0, 4138.974, 2423.077, 4078.462, 4209.231, 4138.974, 450, 0, []
1632390868.2187, 125, 0, 4151.795, 2421.538, 4085.128, 4215.385, 4153.333, 450, 0, []
1632390868.2264, 126, 0, 4154.359, 2389.231, 4088.718, 4217.436, 4155.385, 450, 0, []
1632390868.2343, 127, 0, 4145.128, 2353.333, 4067.692, 4212.821, 4146.667, 16196, 0, []
1632390868.2421, 128, 0, 4142.564, 2350.769, 4056.923, 4210.769, 4144.615, 450, 0, []
1632390868.25, 0, 0, 4151.282, 2353.846, 4062.051, 4213.846, 4145.128, 450, 0, []
1632390868.2578, 1, 0, 4155.897, 2333.333, 4058.462, 4211.795, 4137.436, 450, 0, []
1632390868.2656, 2, 0, 4152.308, 2315.385, 4054.872, 4207.179, 4125.641, 16078, 0, []
1632390868.2734, 3, 0, 4145.641, 2312.308, 4037.436, 4201.026, 4116.923, 450, 0, []
1632390868.2813, 4, 0, 4149.744, 2317.949, 4033.333, 4206.154, 4119.487, 16327, 0, []
1632390868.2891, 5, 0, 4158.462, 2323.59, 4043.077, 4217.436, 4121.026, 450, 0, []
1632390868.2971, 6, 0, 4151.795, 2313.846, 4037.436, 4211.795, 4110.256, 16086, 0, []
1632390868.3049, 7, 0, 4148.718, 2299.487, 4049.744, 4207.179, 4112.821, 450, 0, []
1632390868.3129, 8, 0, 4164.615, 2303.077, 4069.231, 4213.846, 4131.282, 450, 0, []
1632390868.3208, 9, 0, 4169.231, 2296.41, 4067.179, 4204.615, 4140, 318, 0, []
1632390868.3288, 10, 0, 4153.846, 2277.949, 4056.923, 4182.564, 4140, 450, 0, []
1632390868.3367, 11, 0, 4145.641, 2279.487, 4061.026, 4180.513, 4138.462, 16187, 0, []
1632390868.3444, 12, 0, 4154.872, 2286.667, 4079.487, 4203.077, 4143.59, 450, 0, []
1632390868.3523, 13, 0, 4160.513, 2281.026, 4074.872, 4214.872, 4155.385, 450, 0, []
1632390868.3601, 14, 0, 4143.59, 2265.128, 4060, 4202.051, 4150.256, 450, 0, []
1632390868.368, 15, 0, 4129.744, 2248.205, 4059.487, 4194.359, 4135.385, 16187, 0, []
1632390868.3758, 16, 0, 4136.923, 2258.462, 4059.487, 4201.026, 4138.462, 0, 0, []
1632390868.3836, 17, 0, 4138.974, 2264.103, 4055.385, 4185.128, 4134.359, 0, 0, []
1632390868.3914, 18, 0, 4129.744, 2252.821, 4038.462, 4158.462, 4104.615, 0, 0, []
1632390868.3993, 19, 0, 4135.385, 2267.692, 4037.436, 4178.462, 4097.436, 0, 0, []
1632390868.4071, 20, 0, 4170.256, 2280.513, 4067.179, 4229.231, 4134.359, 0, 0, []
1632390868.415, 21, 0, 4193.846, 2261.538, 4078.462, 4243.077, 4161.026, 0, 0, []
1632390868.4227, 22, 0, 4165.641, 2247.179, 4076.923, 4218.974, 4141.026, 0, 0, []
1632390868.4307, 23, 0, 4133.846, 2258.974, 4074.359, 4194.872, 4117.436, 0, 0, []
1632390868.4386, 24, 0, 4137.436, 2277.436, 4061.026, 4180, 4121.026, 0, 0, []
1632390868.4465, 25, 0, 4141.538, 2282.051, 4052.821, 4173.333, 4123.59, 0, 0, []
1632390868.4543, 26, 0, 4129.231, 2276.41, 4051.795, 4176.41, 4119.487, 0, 0, []
1632390868.4622, 27, 0, 4135.897, 2268.205, 4057.436, 4177.436, 4127.179, 0, 0, []
1632390868.4701, 28, 0, 4150.256, 2253.333, 4056.41, 4161.026, 4134.359, 0, 0, []
1632390868.4781, 29, 0, 4137.949, 2239.487, 4049.231, 4141.538, 4120.513, 0, 0, []
1632390868.486, 30, 0, 4133.846, 2244.103, 4053.333, 4154.359, 4109.231, 0, 0, []
1632390868.494, 31, 0, 4157.436, 2264.103, 4056.41, 4194.872, 4120, 0, 0, []
1632390868.5018, 32, 0, 4172.308, 2291.795, 4067.179, 4225.641, 4123.077, 0, 0, []
1632390868.5098, 33, 0, 4158.974, 2322.051, 4073.846, 4224.615, 4106.154, 0, 0, []
1632390868.5177, 34, 0, 4138.974, 2323.077, 4063.59, 4202.051, 4096.41, 0, 0, []
1632390868.5255, 35, 0, 4131.282, 2306.154, 4056.41, 4182.564, 4108.205, 0, 0, []
1632390868.5334, 36, 0, 4125.128, 2311.795, 4051.795, 4162.564, 4120.513, 0, 0, []
1632390868.5411, 37, 0, 4115.897, 2329.231, 4067.692, 4154.359, 4118.462, 0, 0, []
1632390868.549, 38, 0, 4113.333, 2334.359, 4082.564, 4171.795, 4110.769, 0, 0, []
1632390868.5568, 39, 0, 4123.077, 2324.615, 4070.769, 4189.231, 4110.256, 0, 0, []
1632390868.5647, 40, 0, 4136.41, 2326.154, 4067.692, 4190.769, 4119.487, 0, 0, []
1632390868.5725, 41, 0, 4143.077, 2343.077, 4062.564, 4187.692, 4121.538, 0, 0, []
1632390868.5803, 42, 0, 4155.385, 2353.846, 4066.667, 4204.103, 4124.103, 0, 0, []
1632390868.5881, 43, 0, 4180, 2366.154, 4091.282, 4231.282, 4144.103, 0, 0, []
1632390868.596, 44, 0, 4191.282, 2373.846, 4087.692, 4233.333, 4151.795, 0, 0, []
1632390868.6038, 45, 0, 4183.59, 2381.538, 4064.615, 4219.487, 4133.333, 0, 0, []
1632390868.6118, 46, 0, 4175.897, 2399.487, 4053.846, 4215.897, 4120, 0, 0, []
1632390868.6196, 47, 0, 4165.641, 2399.487, 4062.564, 4211.282, 4122.564, 0, 0, []
1632390868.6276, 48, 0, 4151.282, 2386.154, 4068.205, 4193.333, 4122.564, 0, 0, []
1632390868.6355, 49, 0, 4143.077, 2398.462, 4062.564, 4180.513, 4119.487, 0, 0, []
1632390868.6434, 50, 0, 4141.538, 2417.436, 4070.256, 4189.231, 4127.179, 0, 0, []
1632390868.6513, 51, 0, 4147.179, 2411.282, 4076.41, 4195.385, 4140, 0, 0, []
1632390868.6591, 52, 0, 4152.308, 2412.821, 4076.923, 4189.744, 4145.641, 0, 0, []
1632390868.6669, 53, 0, 4148.718, 2424.103, 4077.949, 4191.282, 4142.564, 0, 0, []
1632390868.6747, 54, 0, 4132.821, 2429.231, 4063.077, 4190.769, 4128.205, 0, 0, []
1632390868.6826, 55, 0, 4120.513, 2443.077, 4064.103, 4186.154, 4118.462, 0, 0, []
1632390868.6904, 56, 0, 4131.282, 2450.769, 4071.282, 4193.333, 4129.744, 0, 0, []
1632390868.6982, 57, 0, 4142.564, 2446.154, 4062.051, 4195.385, 4138.462, 0, 0, []
1632390868.706, 58, 0, 4154.872, 2452.308, 4063.59, 4189.231, 4136.41, 0, 0, []
1632390868.7139, 59, 0, 4175.385, 2469.744, 4068.718, 4203.077, 4150.256, 0, 0, []
1632390868.7217, 60, 0, 4180.513, 2475.385, 4068.205, 4218.974, 4161.538, 0, 0, []
1632390868.7296, 61, 0, 4158.974, 2482.564, 4054.872, 4200.513, 4146.154, 0, 0, []
1632390868.7374, 62, 0, 4144.103, 2513.846, 4042.051, 4188.718, 4128.205, 0, 0, []
1632390868.7453, 63, 0, 4147.692, 2533.333, 4048.205, 4208.718, 4120.513, 0, 0, []
1632390868.7532, 64, 0, 4143.59, 2522.051, 4041.538, 4214.872, 4107.692, 450, 0, []
1632390868.7612, 65, 0, 4133.333, 2505.641, 4033.846, 4200.513, 4097.949, 450, 0, []
1632390868.7691, 66, 0, 4131.282, 2507.692, 4037.436, 4185.128, 4102.051, 16149, 0, []
1632390868.7771, 67, 0, 4136.923, 2528.205, 4046.667, 4171.282, 4113.333, 450, 0, []
1632390868.7849, 68, 0, 4153.846, 2557.949, 4065.128, 4171.795, 4135.897, 16204, 0, []
1632390868.7929, 69, 0, 4164.615, 2589.744, 4068.205, 4182.564, 4156.41, 450, 0, []
1632390868.8008, 70, 0, 4155.897, 2598.974, 4067.179, 4187.692, 4157.436, 16096, 0, []
1632390868.8088, 71, 0, 4148.205, 2602.051, 4069.744, 4186.154, 4155.385, 450, 0, []
1632390868.8167, 72, 0, 4144.103, 2621.026, 4065.128, 4183.077, 4152.308, 450, 0, []
1632390868.8245, 73, 0, 4126.154, 2613.333, 4060, 4168.718, 4132.821, 16096, 0, []
1632390868.8324, 74, 0, 4120, 2601.538, 4042.564, 4144.615, 4127.692, 450, 0, []
1632390868.8402, 75, 0, 4152.308, 2671.282, 4047.692, 4145.128, 4162.564, 16249, 0, []
1632390868.8481, 76, 0, 4196.41, 2743.59, 4069.744, 4165.128, 4200.513, 450, 0, []
1632390868.8559, 77, 0, 4223.59, 2727.179, 4061.026, 4166.154, 4221.026, 450, 0, []
1632390868.8637, 78, 0, 4252.821, 2746.154, 4055.385, 4173.333, 4248.718, 450, 0, []
1632390868.8715, 79, 0, 4290.256, 2815.385, 4062.051, 4201.538, 4272.821, 16249, 0, []
1632390868.8794, 80, 0, 4305.641, 2776.41, 4054.359, 4206.154, 4269.231, 450, 0, []
1632390868.8872, 81, 0, 4297.436, 2733.846, 4045.641, 4187.692, 4264.103, 450, 0, []
1632390868.8951, 82, 0, 4281.026, 2796.923, 4051.282, 4171.795, 4269.231, 450, 0, []
1632390868.9028, 83, 0, 4253.846, 2856.41, 4066.154, 4158.462, 4257.436, 16249, 0, []
1632390868.9107, 84, 0, 4229.231, 2927.692, 4061.026, 4158.974, 4246.154, 450, 0, []
1632390868.9185, 85, 0, 4229.744, 3301.538, 4063.077, 4186.154, 4249.744, 450, 0, []
1632390868.9265, 86, 0, 4224.615, 4070.256, 4076.923, 4205.641, 4243.59, 450, 0, []
1632390868.9344, 87, 0, 4196.923, 4866.667, 4064.615, 4204.615, 4221.538, 16249, 0, []
1632390868.9423, 88, 0, 4193.333, 5387.179, 4057.436, 4216.41, 4200, 450, 0, []
1632390868.9502, 89, 0, 4203.59, 5703.077, 4058.462, 4226.667, 4185.128, 450, 0, []
1632390868.9582, 90, 0, 4168.205, 5902.564, 4052.821, 4204.615, 4167.179, 450, 0, []
1632390868.9661, 91, 0, 4132.821, 5982.564, 4054.872, 4176.923, 4154.359, 16249, 0, []
1632390868.9741, 92, 0, 4147.692, 6066.154, 4045.128, 4173.333, 4144.615, 450, 0, []
1632390868.9819, 93, 0, 4169.231, 6197.436, 4040, 4186.154, 4134.872, 450, 0, []
1632390868.9897, 94, 0, 4163.59, 6279.487, 4052.308, 4196.41, 4143.077, 450, 0, []
1632390868.9976, 95, 0, 4142.051, 6334.359, 4068.205, 4191.282, 4151.795, 16249, 0, []
1632390869.0054, 96, 0, 4133.846, 6372.821, 4073.846, 4187.692, 4135.385, 450, 0, []
1632390869.0133, 97, 0, 4152.821, 6416.923, 4053.333, 4209.231, 4124.103, 450, 0, []
1632390869.021, 98, 0, 4146.667, 6489.231, 4038.462, 4216.923, 4131.282, 450, 0, []
1632390869.0289, 99, 0, 4111.282, 6550.256, 4042.051, 4190.769, 4127.179, 16249, 0, []
1632390869.0367, 100, 0, 4119.487, 6566.154, 4045.641, 4185.641, 4115.385, 450, 0, []
1632390869.0446, 101, 0, 4162.564, 6564.615, 4052.308, 4208.718, 4116.923, 450, 0, []
1632390869.0524, 102, 0, 4156.41, 6582.051, 4053.846, 4207.179, 4122.051, 450, 0, []
1632390869.0603, 103, 0, 4120, 6605.641, 4063.077, 4184.615, 4121.538, 16249, 0, []
1632390869.0682, 104, 0, 4122.564, 6626.154, 4067.692, 4185.641, 4111.282, 450, 0, []
1632390869.0762, 105, 0, 4150.769, 6640.513, 4052.821, 4203.077, 4104.615, 450, 0, []
1632390869.0841, 106, 0, 4154.872, 6667.179, 4052.821, 4210.256, 4115.385, 450, 0, []
1632390869.0921, 107, 0, 4143.077, 6697.949, 4061.026, 4199.487, 4127.692, 16249, 0, []
1632390869.0999, 108, 0, 4150.256, 6717.949, 4063.077, 4202.051, 4124.615, 450, 0, []
1632390869.1079, 109, 0, 4164.103, 6744.103, 4052.308, 4216.923, 4114.359, 450, 0, []
1632390869.1158, 110, 0, 4140.513, 6752.821, 4034.872, 4204.615, 4104.615, 450, 0, []
1632390869.1238, 111, 0, 4123.59, 6743.59, 4052.308, 4180, 4109.231, 16249, 0, []
1632390869.1317, 112, 0, 4152.821, 6785.641, 4065.641, 4184.615, 4126.154, 450, 0, []
1632390869.1394, 113, 0, 4167.179, 6850.256, 4056.923, 4206.667, 4125.128, 450, 0, []
1632390869.1473, 114, 0, 4138.974, 6895.897, 4050.256, 4200.513, 4113.333, 450, 0, []
1632390869.1551, 115, 0, 4128.205, 6940, 4047.179, 4176.923, 4118.462, 16249, 0, []
1632390869.163, 116, 0, 4151.795, 6912.821, 4051.795, 4183.59, 4119.487, 450, 0, []
1632390869.1708, 117, 0, 4153.846, 6960, 4049.231, 4202.051, 4110.256, 450, 0, []
1632390869.1786, 118, 0, 4128.718, 6910.769, 4051.795, 4198.462, 4113.846, 450, 0, []
1632390869.1864, 119, 0, 4127.692, 6147.179, 4065.641, 4189.231, 4129.744, 16249, 0, []
1632390869.1943, 120, 0, 4148.718, 5048.718, 4058.462, 4186.154, 4125.641, 450, 0, []
1632390869.2021, 121, 0, 4155.385, 4559.487, 4047.692, 4190.769, 4103.077, 450, 0, []
1632390869.2101, 122, 0, 4143.59, 4487.179, 4044.615, 4209.744, 4092.821, 450, 0, []
1632390869.2179, 123, 0, 4132.821, 4248.718, 4050.256, 4217.949, 4094.872, 16249, 0, []
1632390869.2259, 124, 0, 4125.128, 4021.538, 4056.41, 4203.077, 4093.333, 450, 0, []
1632390869.2338, 125, 0, 4127.179, 3942.564, 4048.718, 4194.872, 4102.564, 450, 0, []
1632390869.2418, 126, 0, 4141.538, 3851.795, 4062.051, 4199.487, 4125.128, 450, 0, []
1632390869.2497, 127, 0, 4143.59, 3759.487, 4081.026, 4198.974, 4126.154, 16249, 0, []
1632390869.2576, 128, 0, 4124.103, 3672.821, 4069.744, 4188.205, 4109.744, 450, 0, []
1632390869.2655, 0, 0, 4111.795, 3610.769, 4045.128, 4175.385, 4101.026, 450, 0, []
1632390869.2735, 1, 0, 4114.359, 3558.974, 4027.692, 4170.769, 4097.949, 450, 0, []
1632390869.2814, 2, 0, 4120, 3483.59, 4044.103, 4186.667, 4103.077, 16225, 0, []
1632390869.2894, 3, 0, 4131.795, 3423.077, 4059.487, 4196.41, 4120, 450, 0, []
1632390869.2972, 4, 0, 4135.385, 3383.077, 4050.256, 4186.154, 4123.59, 16104, 0, []
1632390869.305, 5, 0, 4127.692, 3343.077, 4052.308, 4185.128, 4112.308, 450, 0, []
1632390869.3129, 6, 0, 4128.205, 3292.821, 4061.538, 4193.846, 4114.359, 16094, 0, []
1632390869.3207, 7, 0, 4133.333, 3238.462, 4065.128, 4193.333, 4122.564, 450, 0, []
1632390869.3286, 8, 0, 4134.872, 3204.103, 4057.949, 4192.308, 4122.564, 450, 0, []
1632390869.3363, 9, 0, 4135.897, 3183.59, 4048.205, 4195.897, 4120.513, 16264, 0, []
1632390869.3442, 10, 0, 4132.821, 3152.821, 4056.41, 4196.41, 4113.846, 450, 0, []
1632390869.352, 11, 0, 4115.385, 3124.615, 4049.231, 4183.59, 4094.359, 16126, 0, []
1632390869.3599, 12, 0, 4103.077, 3105.641, 4031.795, 4177.436, 4082.564, 450, 0, []
1632390869.3677, 13, 0, 4123.59, 3083.59, 4044.103, 4200, 4094.359, 450, 0, []
1632390869.3755, 14, 0, 4141.026, 3059.487, 4056.923, 4215.385, 4098.462, 450, 0, []
1632390869.3833, 15, 0, 4136.923, 3042.051, 4057.949, 4206.154, 4091.282, 16126, 0, []
1632390869.3913, 16, 0, 4143.59, 3028.205, 4055.385, 4203.59, 4101.026, 0, 0, []
1632390869.3992, 17, 0, 4151.282, 3010.256, 4055.897, 4212.821, 4113.333, 0, 0, []
1632390869.4072, 18, 0, 4138.974, 2995.385, 4048.205, 4203.077, 4107.179, 0, 0, []
1632390869.415, 19, 0, 4137.949, 2987.692, 4041.026, 4192.821, 4100.513, 0, 0, []
1632390869.423, 20, 0, 4151.282, 2980, 4058.974, 4204.615, 4106.667, 0, 0, []
1632390869.4309, 21, 0, 4149.744, 2962.051, 4061.538, 4204.103, 4109.744, 0, 0, []
1632390869.4389, 22, 0, 4143.59, 2938.974, 4057.949, 4195.897, 4108.205, 0, 0, []
1632390869.4468, 23, 0, 4145.641, 2924.103, 4070.256, 4202.564, 4110.256, 0, 0, []
1632390869.4545, 24, 0, 4140, 2915.385, 4065.128, 4201.026, 4113.333, 0, 0, []
1632390869.4624, 25, 0, 4133.333, 2910.769, 4060.513, 4188.205, 4118.462, 0, 0, []
1632390869.4702, 26, 0, 4143.59, 2897.949, 4061.026, 4190.769, 4125.128, 0, 0, []
1632390869.4781, 27, 0, 4149.744, 2886.154, 4054.359, 4195.385, 4125.641, 0, 0, []
1632390869.4859, 28, 0, 4143.077, 2894.359, 4066.154, 4194.872, 4122.051, 0, 0, []
1632390869.4938, 29, 0, 4142.564, 2900, 4075.385, 4201.538, 4126.667, 0, 0, []
1632390869.5015, 30, 0, 4149.744, 2884.615, 4072.821, 4205.128, 4137.436, 0, 0, []
1632390869.5094, 31, 0, 4153.846, 2870.256, 4069.744, 4199.487, 4142.564, 0, 0, []
1632390869.5172, 32, 0, 4143.59, 2860, 4070.256, 4185.128, 4137.949, 0, 0, []
1632390869.5251, 33, 0, 4129.744, 2845.128, 4075.385, 4175.385, 4134.872, 0, 0, []
1632390869.5329, 34, 0, 4127.179, 2841.026, 4067.179, 4173.333, 4135.897, 0, 0, []
1632390869.5408, 35, 0, 4132.308, 2856.41, 4068.718, 4173.846, 4134.359, 0, 0, []
1632390869.5487, 36, 0, 4136.923, 2855.897, 4073.333, 4175.897, 4133.846, 0, 0, []
1632390869.5567, 37, 0, 4134.872, 2833.333, 4068.205, 4176.923, 4133.333, 0, 0, []
1632390869.5646, 38, 0, 4131.795, 2827.179, 4073.846, 4178.462, 4134.872, 0, 0, []
1632390869.5726, 39, 0, 4132.821, 2833.846, 4067.692, 4178.462, 4138.974, 0, 0, []
1632390869.5804, 40, 0, 4128.205, 2827.179, 4063.077, 4184.615, 4131.282, 0, 0, []
1632390869.5884, 41, 0, 4119.487, 2821.538, 4068.205, 4195.897, 4121.538, 0, 0, []
1632390869.5963, 42, 0, 4118.462, 2817.949, 4067.179, 4206.667, 4130.769, 0, 0, []
1632390869.6043, 43, 0, 4124.615, 2803.59, 4061.026, 4210.256, 4143.077, 0, 0, []
1632390869.6122, 44, 0, 4122.564, 2808.718, 4046.154, 4201.026, 4143.077, 0, 0, []
1632390869.6199, 45, 0, 4122.051, 2819.487, 4045.641, 4191.795, 4135.897, 0, 0, []
1632390869.6278, 46, 0, 4125.641, 2807.692, 4043.59, 4187.179, 4122.051, 0, 0, []
1632390869.6356, 47, 0, 4127.179, 2824.615, 4034.359, 4191.795, 4118.462, 0, 0, []
1632390869.6435, 48, 0, 4141.538, 2861.026, 4052.821, 4215.897, 4137.436, 0, 0, []
1632390869.6513, 49, 0, 4154.872, 2852.821, 4064.615, 4231.795, 4145.128, 0, 0, []
1632390869.6591, 50, 0, 4144.103, 2833.846, 4057.436, 4223.59, 4124.103, 0, 0, []
1632390869.6669, 51, 0, 4132.308, 2844.103, 4051.282, 4214.872, 4108.205, 0, 0, []
1632390869.6748, 52, 0, 4133.846, 2848.718, 4045.641, 4204.615, 4107.692, 0, 0, []
1632390869.6826, 53, 0, 4142.051, 2844.615, 4059.487, 4191.282, 4108.718, 0, 0, []
1632390869.6906, 54, 0, 4143.077, 2849.744, 4060.513, 4183.59, 4112.308, 0, 0, []
1632390869.6984, 55, 0, 4128.205, 2847.179, 4041.026, 4176.923, 4114.359, 0, 0, []
1632390869.7064, 56, 0, 4126.154, 2843.59, 4042.051, 4176.923, 4119.487, 0, 0, []
1632390869.7143, 57, 0, 4138.462, 2848.205, 4054.872, 4190.256, 4131.795, 0, 0, []
1632390869.7223, 58, 0, 4129.231, 2854.359, 4066.667, 4197.949, 4133.846, 0, 0, []
1632390869.7302, 59, 0, 4109.231, 2866.667, 4073.333, 4183.59, 4127.179, 0, 0, []
1632390869.7381, 60, 0, 4113.846, 2867.692, 4081.538, 4173.333, 4130.769, 0, 0, []
1632390869.746, 61, 0, 4124.103, 2854.359, 4083.59, 4180, 4138.462, 0, 0, []
1632390869.754, 62, 0, 4120.513, 2868.205, 4075.385, 4189.231, 4140.513, 0, 0, []
1632390869.7619, 63, 0, 4127.692, 2880.513, 4093.846, 4203.59, 4149.744, 0, 0, []
1632390869.7697, 64, 0, 4146.154, 2866.154, 4113.333, 4221.538, 4165.128, 450, 0, []
1632390869.7775, 65, 0, 4140.513, 2870.256, 4092.821, 4212.821, 4155.897, 450, 0, []
1632390869.7853, 66, 0, 4125.128, 2893.333, 4070.769, 4191.282, 4139.487, 16146, 0, []
1632390869.7932, 67, 0, 4134.872, 2908.205, 4080, 4200.513, 4153.333, 450, 0, []
1632390869.801, 68, 0, 4149.231, 2914.359, 4107.692, 4225.641, 4177.949, 16161, 0, []
1632390869.8089, 69, 0, 4144.615, 2915.897, 4098.974, 4219.487, 4179.487, 450, 0, []
1632390869.8166, 70, 0, 4136.41, 2914.872, 4072.308, 4207.179, 4161.026, 16174, 0, []
1632390869.8246, 71, 0, 4134.359, 2916.923, 4080.513, 4217.949, 4150.256, 450, 0, []
1632390869.8325, 72, 0, 4129.744, 2915.385, 4086.154, 4219.487, 4154.872, 450, 0, []
1632390869.8405, 73, 0, 4128.718, 2916.41, 4081.026, 4206.667, 4164.103, 16100, 0, []
1632390869.8484, 74, 0, 4143.59, 2934.359, 4077.949, 4200, 4172.821, 450, 0, []
1632390869.8563, 75, 0, 4153.333, 2942.564, 4069.744, 4201.026, 4177.949, 16281, 0, []
1632390869.8642, 76, 0, 4138.974, 2931.795, 4069.231, 4202.051, 4171.795, 450, 0, []
1632390869.8722, 77, 0, 4125.641, 2937.436, 4074.359, 4203.59, 4165.128, 450, 0, []
1632390869.8801, 78, 0, 4142.564, 2961.026, 4097.949, 4217.949, 4180.513, 450, 0, []
1632390869.8881, 79, 0, 4154.359, 2966.154, 4108.205, 4226.667, 4185.641, 16281, 0, []
1632390869.8959, 80, 0, 4131.282, 2970.769, 4077.436, 4205.128, 4156.923, 450, 0, []
1632390869.9037, 81, 0, 4128.718, 2992.308, 4079.487, 4194.872, 4151.282, 450, 0, []
1632390869.9116, 82, 0, 4153.333, 2994.872, 4106.154, 4213.846, 4179.487, 450, 0, []
1632390869.9196, 83, 0, 4151.795, 2982.564, 4106.667, 4223.59, 4188.718, 16281, 0, []
1632390869.9275, 84, 0, 4145.641, 2995.385, 4098.462, 4222.051, 4177.949, 450, 0, []
1632390869.9352, 85, 0, 4146.154, 3007.179, 4092.308, 4217.436, 4171.795, 450, 0, []
1632390869.9431, 86, 0, 4131.795, 2997.949, 4083.077, 4208.205, 4160, 450, 0, []
1632390869.9509, 87, 0, 4122.564, 3007.692, 4064.615, 4201.538, 4151.795, 16281, 0, []
1632390869.9588, 88, 0, 4129.744, 3023.59, 4056.923, 4200, 4157.949, 450, 0, []
1632390869.9666, 89, 0, 4130.256, 3018.974, 4067.179, 4200, 4157.949, 450, 0, []
1632390869.9744, 90, 0, 4120, 3019.487, 4065.641, 4207.692, 4149.231, 450, 0, []
1632390869.9822, 91, 0, 4117.436, 3027.179, 4060, 4220, 4148.718, 16281, 0, []
1632390869.9901, 92, 0, 4119.487, 3030.256, 4056.923, 4217.436, 4155.385, 450, 0, []
1632390869.9979, 93, 0, 4120, 3050.256, 4062.564, 4207.692, 4157.436, 450, 0, []
1632390870.0059, 94, 0, 4123.077, 3075.385, 4071.282, 4208.205, 4157.436, 450, 0, []
1632390870.0137, 95, 0, 4129.744, 3075.897, 4066.667, 4209.231, 4161.026, 16281, 0, []
1632390870.0217, 96, 0, 4136.41, 3058.462, 4072.821, 4207.692, 4167.179, 450, 0, []
1632390870.0296, 97, 0, 4135.897, 3081.538, 4074.359, 4207.692, 4168.718, 450, 0, []
1632390870.0376, 98, 0, 4132.821, 3108.718, 4075.385, 4212.308, 4168.718, 450, 0, []
1632390870.0455, 99, 0, 4133.333, 3103.077, 4091.795, 4224.615, 4173.846, 16281, 0, []
1632390870.0534, 100, 0, 4130.769, 3197.949, 4087.692, 4223.077, 4172.821, 450, 0, []
1632390870.0613, 101, 0, 4133.333, 3338.974, 4086.667, 4208.718, 4169.231, 450, 0, []
1632390870.0692, 102, 0, 4146.667, 3438.462, 4093.333, 4206.154, 4175.897, 450, 0, []
1632390870.0771, 103, 0, 4144.103, 3514.872, 4077.949, 4200, 4168.718, 16281, 0, []
1632390870.0849, 104, 0, 4129.231, 3546.667, 4060, 4188.718, 4149.231, 450, 0, []
1632390870.0927, 105, 0, 4133.333, 3752.308, 4056.923, 4193.846, 4150.769, 450, 0, []
1632390870.1005, 106, 0, 4153.333, 4251.282, 4071.795, 4217.436, 4163.077, 450, 0, []
1632390870.1084, 107, 0, 4158.974, 4854.872, 4069.231, 4230.769, 4150.769, 16281, 0, []
1632390870.1162, 108, 0, 4141.538, 5416.923, 4043.59, 4224.103, 4129.231, 450, 0, []
1632390870.1241, 109, 0, 4125.128, 5917.949, 4049.231, 4218.974, 4137.436, 450, 0, []
1632390870.1318, 110, 0, 4124.103, 6206.154, 4072.308, 4212.308, 4156.41, 450, 0, []
1632390870.1397, 111, 0, 4135.385, 6319.487, 4078.462, 4211.795, 4143.077, 16281, 0, []
1632390870.1475, 112, 0, 4154.359, 6469.231, 4078.974, 4238.462, 4133.846, 450, 0, []
1632390870.1555, 113, 0, 4160.513, 6603.59, 4083.077, 4256.923, 4163.59, 450, 0, []
1632390870.1634, 114, 0, 4140.513, 6685.641, 4080, 4237.949, 4168.205, 450, 0, []
1632390870.1713, 115, 0, 4147.179, 6742.051, 4068.718, 4231.795, 4144.103, 16281, 0, []
1632390870.1792, 116, 0, 4171.795, 6791.795, 4072.308, 4252.308, 4156.923, 450, 0, []
1632390870.1872, 117, 0, 4161.538, 6867.179, 4078.974, 4239.487, 4175.897, 450, 0, []
1632390870.1951, 118, 0, 4154.359, 6935.385, 4066.154, 4217.949, 4163.59, 450, 0, []
1632390870.2031, 119, 0, 4168.205, 6990.769, 4066.667, 4236.41, 4157.436, 16281, 0, []
1632390870.2109, 120, 0, 4166.667, 6992.821, 4077.949, 4244.615, 4175.897, 450, 0, []
1632390870.2187, 121, 0, 4162.564, 6995.385, 4073.846, 4226.667, 4179.487, 450, 0, []
1632390870.2266, 122, 0, 4169.231, 7042.564, 4064.103, 4238.462, 4164.615, 450, 0, []
1632390870.2344, 123, 0, 4153.333, 7060.513, 4062.564, 4249.231, 4161.026, 16281, 0, []
1632390870.2423, 124, 0, 4142.051, 7068.718, 4067.692, 4221.538, 4151.795, 450, 0, []
1632390870.2501, 125, 0, 4160.513, 7126.154, 4061.538, 4223.077, 4137.436, 450, 0, []
1632390870.2579, 126, 0, 4169.744, 7160.513, 4070.769, 4252.821, 4152.308, 450, 0, []
1632390870.2657, 127, 0, 4170.256, 7164.615, 4076.923, 4241.026, 4175.385, 16281, 0, []
1632390870.2736, 128, 0, 4169.744, 7224.615, 4046.154, 4227.692, 4156.923, 450, 0, []
1632390870.2814, 0, 0, 4163.59, 7274.872, 4052.308, 4246.667, 4146.154, 450, 0, []
1632390870.2893, 1, 0, 4164.103, 7203.59, 4069.744, 4237.949, 4165.128, 450, 0, []
1632390870.297, 2, 0, 4166.667, 7250.256, 4053.333, 4223.077, 4156.923, 302, 0, []
1632390870.3049, 3, 0, 4161.026, 7326.667, 4062.564, 4241.026, 4148.205, 450, 0, []
1632390870.3127, 4, 0, 4156.41, 6714.872, 4074.359, 4236.923, 4165.641, 16077, 0, []
1632390870.3207, 5, 0, 4163.59, 5603.59, 4053.333, 4212.308, 4150.256, 450, 0, []
1632390870.3286, 6, 0, 4172.821, 5005.128, 4031.795, 4214.872, 4124.615, 16313, 0, []
1632390870.3365, 7, 0, 4173.846, 4891.795, 4047.692, 4228.718, 4148.718, 450, 0, []
1632390870.3444, 8, 0, 4166.667, 4637.949, 4082.564, 4231.282, 4173.846, 450, 0, []
1632390870.3524, 9, 0, 4157.949, 4401.538, 4074.359, 4215.897, 4162.564, 16141, 0, []
1632390870.3603, 10, 0, 4162.564, 4358.974, 4063.077, 4201.026, 4161.538, 450, 0, []
1632390870.3683, 11, 0, 4183.59, 4279.487, 4086.154, 4219.487, 4175.897, 16292, 0, []
1632390870.3761, 12, 0, 4190.256, 4174.872, 4090.769, 4247.692, 4161.538, 450, 0, []
1632390870.3841, 13, 0, 4173.846, 4094.359, 4061.026, 4240.513, 4131.282, 450, 0, []
1632390870.392, 14, 0, 4167.692, 4019.487, 4042.051, 4224.103, 4133.333, 450, 0, []
1632390870.3999, 15, 0, 4184.615, 3950.769, 4064.103, 4237.436, 4165.641, 16292, 0, []
1632390870.4078, 16, 0, 4183.077, 3877.436, 4077.436, 4243.077, 4180, 0, 0, []
1632390870.4155, 17, 0, 4152.308, 3806.667, 4063.59, 4216.41, 4165.641, 0, 0, []
1632390870.4234, 18, 0, 4143.59, 3760, 4074.359, 4202.051, 4163.59, 0, 0, []
1632390870.4312, 19, 0, 4161.538, 3736.923, 4086.154, 4207.692, 4174.359, 0, 0, []
1632390870.4391, 20, 0, 4166.154, 3703.077, 4071.282, 4201.538, 4171.795, 0, 0, []
1632390870.4469, 21, 0, 4165.128, 3662.051, 4057.949, 4189.744, 4163.59, 0, 0, []
1632390870.4548, 22, 0, 4177.949, 3629.744, 4061.026, 4194.872, 4161.026, 0, 0, []
1632390870.4627, 23, 0, 4187.179, 3605.128, 4064.615, 4206.667, 4151.282, 0, 0, []
1632390870.4707, 24, 0, 4180, 3572.821, 4043.59, 4209.231, 4140.513, 0, 0, []
1632390870.4786, 25, 0, 4169.231, 3533.333, 4032.308, 4214.359, 4142.564, 0, 0, []
1632390870.4866, 26, 0, 4171.795, 3502.564, 4052.308, 4224.615, 4151.795, 0, 0, []
1632390870.4944, 27, 0, 4181.026, 3480.513, 4065.128, 4222.564, 4158.974, 0, 0, []
1632390870.5024, 28, 0, 4177.436, 3457.436, 4071.795, 4217.949, 4166.154, 0, 0, []
1632390870.5103, 29, 0, 4169.744, 3432.308, 4068.718, 4214.359, 4172.821, 0, 0, []
1632390870.5183, 30, 0, 4169.231, 3405.641, 4059.487, 4201.538, 4170.256, 0, 0, []
1632390870.5262, 31, 0, 4176.41, 3375.385, 4067.179, 4199.487, 4174.872, 0, 0, []
1632390870.5341, 32, 0, 4174.872, 3359.487, 4078.974, 4218.974, 4188.205, 0, 0, []
1632390870.542, 33, 0, 4162.564, 3346.667, 4085.641, 4228.205, 4184.103, 0, 0, []
1632390870.5498, 34, 0, 4160, 3315.897, 4073.333, 4215.897, 4172.821, 0, 0, []
1632390870.5577, 35, 0, 4165.128, 3299.487, 4067.179, 4208.718, 4169.744, 0, 0, []
1632390870.5655, 36, 0, 4171.795, 3311.282, 4084.103, 4211.282, 4173.333, 0, 0, []
1632390870.5733, 37, 0, 4180, 3313.333, 4082.051, 4199.487, 4182.564, 0, 0, []
1632390870.5811, 38, 0, 4179.487, 3292.308, 4072.821, 4171.795, 4180.513, 0, 0, []
1632390870.589, 39, 0, 4171.795, 3280, 4070.256, 4154.872, 4161.026, 0, 0, []
1632390870.5968, 40, 0, 4163.077, 3273.846, 4070.769, 4159.487, 4152.308, 0, 0, []
1632390870.6047, 41, 0, 4156.923, 3260, 4076.41, 4170.769, 4158.974, 0, 0, []
1632390870.6124, 42, 0, 4158.462, 3254.872, 4066.667, 4178.462, 4157.436, 0, 0, []
1632390870.6203, 43, 0, 4164.615, 3250.256, 4060.513, 4191.282, 4154.359, 0, 0, []
1632390870.6281, 44, 0, 4165.128, 3229.231, 4062.564, 4194.872, 4155.385, 0, 0, []
1632390870.636, 45, 0, 4170.256, 3220.513, 4055.385, 4178.974, 4152.821, 0, 0, []
1632390870.644, 46, 0, 4185.128, 3236.923, 4065.641, 4177.949, 4154.872, 0, 0, []
1632390870.6519, 47, 0, 4188.205, 3228.205, 4071.795, 4182.564, 4153.333, 0, 0, []
1632390870.6598, 48, 0, 4186.154, 3196.41, 4067.179, 4172.308, 4142.051, 0, 0, []
1632390870.6678, 49, 0, 4181.538, 3198.974, 4064.615, 4157.436, 4131.795, 0, 0, []
1632390870.6757, 50, 0, 4165.128, 3220, 4059.487, 4146.667, 4127.179, 0, 0, []
1632390870.6837, 51, 0, 4166.154, 3221.026, 4071.282, 4153.846, 4131.282, 0, 0, []
1632390870.6915, 52, 0, 4187.179, 3217.949, 4080, 4181.026, 4140.513, 0, 0, []
1632390870.6993, 53, 0, 4183.59, 3211.282, 4071.795, 4203.077, 4138.974, 0, 0, []
1632390870.7072, 54, 0, 4168.718, 3190.256, 4056.41, 4205.641, 4132.308, 0, 0, []
1632390870.715, 55, 0, 4170.769, 3182.051, 4051.282, 4211.282, 4141.538, 0, 0, []
1632390870.7229, 56, 0, 4174.872, 3183.59, 4069.744, 4227.179, 4151.795, 0, 0, []
1632390870.7306, 57, 0, 4177.436, 3191.795, 4076.41, 4232.821, 4157.949, 0, 0, []
1632390870.7385, 58, 0, 4181.538, 3207.692, 4074.872, 4233.846, 4165.128, 0, 0, []
1632390870.7463, 59, 0, 4183.077, 3203.59, 4084.615, 4241.026, 4170.769, 0, 0, []
