Timestamp, COUNTER, INTERPOLATED, AF3, T7, Pz, T8, AF4, RAW_CQ, MARKER_HARDWARE, MARKERS
1631431285.3999, 84, 0, 4245.641, 7770.256, 4245.641, 4192.308, 4167.179, 450, 0, []
1631431285.4078, 85, 0, 4233.846, 7770.256, 4263.077, 4180, 4153.846, 450, 0, []
1631431285.4157, 86, 0, 4223.077, 7770.256, 4331.282, 4179.487, 4145.128, 450, 0, []
1631431285.4236, 87, 0, 4233.846, 7770.256, 4415.385, 4193.846, 4151.282, 16161, 0, []
1631431285.4314, 88, 0, 4247.692, 7770.256, 4417.436, 4195.385, 4155.385, 450, 0, []
1631431285.4393, 89, 0, 4244.615, 7770.256, 4324.615, 4180.513, 4149.231, 450, 0, []
1631431285.4471, 90, 0, 4249.744, 7770.256, 4211.282, 4176.41, 4152.308, 450, 0, []
1631431285.4549, 91, 0, 4272.308, 7770.256, 4213.333, 4193.333, 4173.846, 16161, 0, []
1631431285.4627, 92, 0, 4283.077, 7770.256, 4211.795, 4210.769, 4185.641, 450, 0, []
1631431285.4706, 93, 0, 4269.744, 7770.256, 4164.615, 4208.718, 4174.872, 450, 0, []
1631431285.4784, 94, 0, 4257.949, 7770.256, 4164.615, 4203.077, 4168.718, 450, 0, []
1631431285.4863, 95, 0, 4255.897, 7770.256, 4149.744, 4204.615, 4176.923, 16161, 0, []
1631431285.494, 96, 0, 4247.179, 7770.769, 4144.103, 4195.897, 4175.897, 450, 0, []
1631431285.502, 97, 0, 4234.359, 7770.769, 4130.769, 4172.821, 4167.179, 450, 0, []
1631431285.5099, 98, 0, 4234.872, 7769.744, 4103.077, 4160, 4167.692, 450, 0, []
1631431285.5179, 99, 0, 4244.615, 7776.41, 4117.949, 4161.538, 4167.179, 16161, 0, []
1631431285.5258, 100, 0, 4245.641, 7776.923, 4111.795, 4160, 4157.949, 450, 0, []
1631431285.5337, 101, 0, 4246.154, 7755.385, 4113.846, 4163.59, 4157.949, 450, 0, []
1631431285.5416, 102, 0, 4262.564, 7771.282, 4127.179, 4188.205, 4173.333, 450, 0, []
1631431285.5496, 103, 0, 4272.308, 7780.513, 4109.744, 4203.59, 4174.359, 16161, 0, []
1631431285.5575, 104, 0, 4253.846, 7691.282, 4110.769, 4186.667, 4150.256, 450, 0, []
1631431285.5655, 105, 0, 4239.487, 7634.359, 4101.538, 4165.641, 4134.872, 450, 0, []
1631431285.5734, 106, 0, 4251.282, 7691.795, 4102.564, 4172.821, 4149.744, 450, 0, []
1631431285.5812, 107, 0, 4261.026, 7731.795, 4114.872, 4183.59, 4163.59, 16161, 0, []
1631431285.5891, 108, 0, 4260, 7736.923, 4098.462, 4173.846, 4157.436, 450, 0, []
1631431285.5969, 109, 0, 4267.692, 7765.641, 4111.282, 4171.795, 4160, 450, 0, []
1631431285.6048, 110, 0, 4273.846, 7749.231, 4122.051, 4184.103, 4171.282, 450, 0, []
1631431285.6126, 111, 0, 4269.231, 7630.256, 4118.974, 4193.333, 4172.308, 16161, 0, []
1631431285.6204, 112, 0, 4262.051, 7518.462, 4115.385, 4186.154, 4167.179, 450, 0, []
1631431285.6282, 113, 0, 4252.821, 7552.308, 4093.846, 4169.231, 4157.436, 450, 0, []
1631431285.6361, 114, 0, 4245.641, 7605.641, 4111.795, 4170.256, 4149.744, 450, 0, []
1631431285.6439, 115, 0, 4249.744, 7559.487, 4119.487, 4182.564, 4160, 16161, 0, []
1631431285.6519, 116, 0, 4254.872, 7603.59, 4101.538, 4176.923, 4171.795, 450, 0, []
1631431285.6597, 117, 0, 4257.949, 7767.179, 4112.308, 4168.718, 4167.692, 450, 0, []
1631431285.6677, 118, 0, 4267.692, 7794.359, 4115.897, 4185.641, 4172.821, 450, 0, []
1631431285.6756, 119, 0, 4271.795, 7699.487, 4118.462, 4194.359, 4180, 16161, 0, []
1631431285.6836, 120, 0, 4266.154, 7676.41, 4108.205, 4181.538, 4173.846, 450, 0, []
1631431285.6915, 121, 0, 4267.692, 7686.667, 4104.103, 4174.359, 4169.231, 450, 0, []
1631431285.6994, 122, 0, 4265.641, 7656.41, 4118.462, 4171.282, 4163.077, 450, 0, []
1631431285.7073, 123, 0, 4254.872, 7582.051, 4099.487, 4164.615, 4152.821, 16161, 0, []
1631431285.7153, 124, 0, 4252.821, 7486.154, 4105.128, 4167.179, 4158.974, 450, 0, []
1631431285.7232, 125, 0, 4256.923, 7442.564, 4115.897, 4170.256, 4172.308, 450, 0, []
1631431285.7311, 126, 0, 4254.872, 7433.846, 4108.205, 4170.769, 4170.769, 450, 0, []
1631431285.7389, 127, 0, 4255.897, 7412.308, 4120.513, 4175.897, 4170.769, 16161, 0, []
1631431285.7467, 128, 0, 4264.103, 7404.103, 4103.59, 4173.846, 4182.564, 450, 0, []
1631431285.7546, 0, 0, 4265.641, 7409.231, 4100, 4163.59, 4185.128, 450, 0, []
1631431285.7624, 1, 0, 4264.103, 7371.795, 4108.205, 4163.077, 4182.051, 450, 0, []
1631431285.7703, 2, 0, 4267.692, 7328.205, 4089.231, 4167.692, 4186.154, 16215, 0, []
1631431285.778, 3, 0, 4258.974, 7286.154, 4093.846, 4159.487, 4183.077, 450, 0, []
1631431285.7859, 4, 0, 4242.051, 7288.718, 4094.872, 4149.231, 4168.205, 16081, 0, []
1631431285.7937, 5, 0, 4238.462, 7363.077, 4100.513, 4154.359, 4161.026, 450, 0, []
1631431285.8016, 6, 0, 4240.513, 7349.231, 4101.538, 4158.462, 4165.128, 231, 0, []
1631431285.8094, 7, 0, 4241.538, 7363.59, 4090.769, 4154.359, 4170.256, 450, 0, []
1631431285.8173, 8, 0, 4246.154, 7642.564, 4113.333, 4156.41, 4167.179, 450, 0, []
1631431285.8252, 9, 0, 4238.974, 7797.436, 4106.154, 4151.795, 4153.333, 16173, 0, []
1631431285.8332, 10, 0, 4229.744, 7550.256, 4092.821, 4148.205, 4152.308, 450, 0, []
1631431285.8411, 11, 0, 4243.077, 7336.41, 4106.667, 4162.564, 4169.231, 16111, 0, []
1631431285.8491, 12, 0, 4248.205, 7271.795, 4094.872, 4173.846, 4171.282, 450, 0, []
1631431285.8569, 13, 0, 4231.282, 7120.513, 4096.923, 4168.205, 4154.872, 450, 0, []
1631431285.8649, 14, 0, 4229.744, 7039.487, 4100, 4169.744, 4154.359, 450, 0, []
1631431285.8728, 15, 0, 4234.359, 7091.282, 4100, 4175.897, 4156.41, 16111, 0, []
1631431285.8808, 16, 0, 4225.641, 7089.231, 4098.462, 4171.282, 4141.026, 0, 0, []
1631431285.8887, 17, 0, 4227.692, 7009.744, 4082.564, 4175.897, 4138.462, 0, 0, []
1631431285.8966, 18, 0, 4242.564, 6950.256, 4102.564, 4192.308, 4152.821, 0, 0, []
1631431285.9045, 19, 0, 4251.795, 6921.538, 4101.538, 4195.385, 4156.923, 0, 0, []
1631431285.9123, 20, 0, 4254.872, 6918.974, 4094.359, 4183.59, 4148.718, 0, 0, []
1631431285.9202, 21, 0, 4262.564, 6886.154, 4117.949, 4185.128, 4153.846, 0, 0, []
1631431285.928, 22, 0, 4270.256, 6753.333, 4101.538, 4189.231, 4163.59, 0, 0, []
1631431285.9359, 23, 0, 4264.103, 6683.077, 4097.436, 4167.179, 4156.923, 0, 0, []
1631431285.9436, 24, 0, 4256.41, 6743.59, 4104.615, 4152.308, 4157.436, 0, 0, []
1631431285.9515, 25, 0, 4260.513, 6702.564, 4097.436, 4162.564, 4171.795, 0, 0, []
1631431285.9593, 26, 0, 4259.487, 6647.692, 4103.077, 4169.231, 4173.846, 0, 0, []
1631431285.9672, 27, 0, 4251.795, 6862.564, 4092.308, 4172.308, 4166.667, 0, 0, []
1631431285.975, 28, 0, 4246.154, 7014.359, 4094.872, 4183.59, 4165.641, 0, 0, []
1631431285.9829, 29, 0, 4252.308, 6668.205, 4105.641, 4195.897, 4169.231, 0, 0, []
1631431285.9908, 30, 0, 4272.308, 6301.538, 4112.308, 4202.051, 4175.385, 0, 0, []
1631431285.9988, 31, 0, 4276.923, 6404.103, 4115.897, 4195.897, 4168.718, 0, 0, []
1631431286.0067, 32, 0, 4263.59, 6635.385, 4088.205, 4177.949, 4154.359, 0, 0, []
1631431286.0147, 33, 0, 4266.154, 6665.641, 4103.59, 4181.538, 4161.538, 0, 0, []
1631431286.0225, 34, 0, 4283.077, 6652.821, 4128.718, 4200.513, 4173.333, 0, 0, []
1631431286.0305, 35, 0, 4281.538, 6686.154, 4112.308, 4194.872, 4171.795, 0, 0, []
1631431286.0384, 36, 0, 4273.846, 6641.538, 4123.077, 4185.641, 4175.897, 0, 0, []
1631431286.0462, 37, 0, 4277.949, 6586.154, 4129.744, 4192.308, 4189.744, 0, 0, []
1631431286.0541, 38, 0, 4280, 6603.59, 4135.897, 4197.436, 4197.949, 0, 0, []
1631431286.0618, 39, 0, 4277.949, 6628.205, 4134.872, 4191.282, 4196.41, 0, 0, []
1631431286.0697, 40, 0, 4277.436, 6625.128, 4107.692, 4185.128, 4185.641, 0, 0, []
1631431286.0775, 41, 0, 4273.846, 6576.41, 4116.41, 4188.205, 4173.846, 0, 0, []
1631431286.0854, 42, 0, 4265.128, 6605.128, 4112.308, 4190.256, 4164.103, 0, 0, []
1631431286.0932, 43, 0, 4257.949, 6529.231, 4097.949, 4182.051, 4150.769, 0, 0, []
1631431286.101, 44, 0, 4267.692, 6075.897, 4109.744, 4176.923, 4151.795, 0, 0, []
1631431286.1088, 45, 0, 4282.564, 5734.359, 4106.667, 4185.128, 4159.487, 0, 0, []
1631431286.1167, 46, 0, 4278.974, 5780.513, 4118.462, 4191.795, 4156.41, 0, 0, []
1631431286.1245, 47, 0, 4267.692, 5710.256, 4120.513, 4180, 4164.103, 0, 0, []
1631431286.1324, 48, 0, 4257.436, 5480.513, 4114.359, 4168.718, 4170.769, 0, 0, []
1631431286.1401, 49, 0, 4250.256, 5356.923, 4126.667, 4171.282, 4154.872, 0, 0, []
1631431286.1481, 50, 0, 4248.205, 5265.128, 4101.538, 4170.769, 4135.897, 0, 0, []
1631431286.156, 51, 0, 4243.59, 5411.795, 4101.026, 4165.641, 4130.769, 0, 0, []
1631431286.164, 52, 0, 4246.667, 5840.513, 4151.282, 4167.179, 4139.487, 0, 0, []
1631431286.1719, 53, 0, 4256.41, 6020, 4172.821, 4164.103, 4155.385, 0, 0, []
1631431286.1798, 54, 0, 4252.308, 5947.179, 4174.872, 4156.41, 4155.897, 0, 0, []
1631431286.1877, 55, 0, 4244.103, 5933.333, 4160.513, 4164.615, 4149.744, 0, 0, []
1631431286.1957, 56, 0, 4254.872, 6015.385, 4163.077, 4176.923, 4161.538, 0, 0, []
1631431286.2036, 57, 0, 4269.231, 6069.744, 4249.231, 4171.282, 4168.718, 0, 0, []
1631431286.2115, 58, 0, 4269.744, 5795.897, 4292.308, 4161.026, 4154.872, 0, 0, []
1631431286.2193, 59, 0, 4265.641, 5467.179, 4252.308, 4162.051, 4147.692, 0, 0, []
1631431286.2271, 60, 0, 4266.154, 5461.026, 4221.026, 4167.179, 4161.538, 0, 0, []
1631431286.235, 61, 0, 4262.051, 5448.205, 4183.59, 4165.128, 4168.205, 0, 0, []
1631431286.2428, 62, 0, 4254.872, 5163.077, 4191.282, 4171.795, 4161.538, 0, 0, []
1631431286.2507, 63, 0, 4266.154, 4882.051, 4174.359, 4186.667, 4168.718, 0, 0, []
1631431286.2585, 64, 0, 4281.026, 4991.282, 4131.795, 4184.615, 4173.846, 450, 0, []
1631431286.2664, 65, 0, 4275.385, 5426.154, 4147.692, 4170.256, 4158.462, 450, 0, []
1631431286.2743, 66, 0, 4254.359, 5865.641, 4116.41, 4152.308, 4146.667, 16187, 0, []
1631431286.2823, 67, 0, 4238.462, 6036.41, 4095.385, 4135.385, 4154.359, 450, 0, []
1631431286.2902, 68, 0, 4238.462, 5972.821, 4098.462, 4141.026, 4159.487, 248, 0, []
1631431286.2982, 69, 0, 4253.333, 5870.256, 4089.231, 4167.179, 4155.385, 450, 0, []
1631431286.306, 70, 0, 4265.128, 5823.077, 4083.59, 4175.897, 4155.897, 261, 0, []
1631431286.314, 71, 0, 4259.487, 5837.436, 4069.231, 4163.077, 4148.205, 450, 0, []
1631431286.3219, 72, 0, 4245.641, 5759.487, 4084.103, 4154.872, 4128.718, 450, 0, []
1631431286.3299, 73, 0, 4241.538, 5710.256, 4074.359, 4149.744, 4126.667, 16155, 0, []
1631431286.3378, 74, 0, 4246.667, 5718.462, 4081.026, 4144.615, 4143.59, 450, 0, []
1631431286.3457, 75, 0, 4248.718, 5658.462, 4096.923, 4149.744, 4153.846, 16185, 0, []
1631431286.3536, 76, 0, 4250.769, 5616.41, 4084.103, 4155.897, 4151.282, 450, 0, []
1631431286.3614, 77, 0, 4262.564, 5609.744, 4094.359, 4152.308, 4146.154, 450, 0, []
1631431286.3693, 78, 0, 4274.872, 5600, 4078.462, 4152.308, 4145.128, 450, 0, []
1631431286.3771, 79, 0, 4269.744, 5604.615, 4090.769, 4153.333, 4148.205, 16185, 0, []
1631431286.3849, 80, 0, 4254.359, 5619.487, 4102.564, 4141.538, 4152.821, 450, 0, []
1631431286.3927, 81, 0, 4251.282, 5576.41, 4082.564, 4133.846, 4156.41, 450, 0, []
1631431286.4006, 82, 0, 4260, 5583.077, 4096.923, 4141.026, 4153.333, 450, 0, []
1631431286.4084, 83, 0, 4268.718, 5603.077, 4077.949, 4143.077, 4154.359, 16185, 0, []
1631431286.4163, 84, 0, 4285.128, 5253.846, 4081.538, 4134.359, 4166.667, 450, 0, []
1631431286.424, 85, 0, 4309.231, 4625.128, 4089.231, 4124.103, 4181.538, 450, 0, []
1631431286.432, 86, 0, 4344.615, 4294.872, 4067.692, 4118.974, 4223.077, 450, 0, []
1631431286.4399, 87, 0, 4407.179, 4514.359, 4105.128, 4123.59, 4301.538, 16185, 0, []
1631431286.4478, 88, 0, 4467.692, 4937.949, 4099.487, 4123.59, 4360, 450, 0, []
1631431286.4557, 89, 0, 4481.538, 5150.256, 4095.897, 4120.513, 4370.769, 450, 0, []
1631431286.4635, 90, 0, 4474.359, 5120.513, 4128.205, 4131.795, 4374.359, 450, 0, []
1631431286.4714, 91, 0, 4464.615, 5161.026, 4109.744, 4133.846, 4368.205, 16185, 0, []
1631431286.4792, 92, 0, 4443.077, 5463.59, 4125.128, 4125.641, 4348.718, 450, 0, []
1631431286.4872, 93, 0, 4431.795, 5661.026, 4119.487, 4139.487, 4349.744, 450, 0, []
1631431286.4951, 94, 0, 4426.154, 5548.718, 4104.103, 4152.308, 4349.231, 450, 0, []
1631431286.5029, 95, 0, 4399.487, 5334.872, 4111.795, 4133.846, 4314.872, 16185, 0, []
1631431286.5109, 96, 0, 4368.718, 5026.154, 4080.513, 4124.103, 4276.41, 450, 0, []
1631431286.5188, 97, 0, 4355.897, 4758.462, 4097.436, 4145.641, 4264.103, 450, 0, []
1631431286.5266, 98, 0, 4360, 4796.41, 4098.974, 4160.513, 4262.051, 450, 0, []
1631431286.5345, 99, 0, 4369.744, 4910.769, 4084.103, 4155.897, 4255.897, 16185, 0, []
1631431286.5422, 100, 0, 4374.359, 4855.385, 4110.256, 4141.026, 4255.897, 450, 0, []
1631431286.5501, 101, 0, 4384.615, 4869.744, 4093.333, 4125.128, 4272.308, 450, 0, []
1631431286.5579, 102, 0, 4423.077, 4822.051, 4104.103, 4120, 4316.923, 450, 0, []
1631431286.5658, 103, 0, 4461.026, 4567.692, 4109.744, 4129.231, 4365.641, 16185, 0, []
1631431286.5736, 104, 0, 4459.487, 4547.179, 4096.41, 4134.872, 4379.487, 450, 0, []
1631431286.5815, 105, 0, 4462.051, 4730.256, 4113.333, 4140, 4383.077, 450, 0, []
1631431286.5894, 106, 0, 4486.667, 4786.154, 4101.538, 4151.795, 4400.513, 450, 0, []
1631431286.5974, 107, 0, 4488.718, 4777.949, 4122.564, 4152.821, 4399.487, 16185, 0, []
1631431286.6053, 108, 0, 4472.308, 4767.179, 4115.385, 4140.513, 4378.462, 450, 0, []
1631431286.6133, 109, 0, 4455.897, 4707.692, 4076.41, 4131.282, 4357.436, 450, 0, []
1631431286.6212, 110, 0, 4433.333, 4664.615, 4101.026, 4142.564, 4336.41, 450, 0, []
1631431286.6291, 111, 0, 4412.308, 4660, 4096.41, 4155.385, 4317.436, 16185, 0, []
1631431286.637, 112, 0, 4386.154, 4572.308, 4101.026, 4142.564, 4287.179, 450, 0, []
1631431286.645, 113, 0, 4352.821, 4463.077, 4100, 4125.128, 4247.692, 450, 0, []
1631431286.6529, 114, 0, 4328.718, 4475.385, 4087.179, 4123.077, 4228.205, 450, 0, []
1631431286.6609, 115, 0, 4309.744, 4573.846, 4112.308, 4123.59, 4225.641, 16185, 0, []
1631431286.6687, 116, 0, 4292.308, 4610.256, 4088.718, 4125.641, 4218.974, 450, 0, []
1631431286.6765, 117, 0, 4291.795, 4577.436, 4106.667, 4142.564, 4206.154, 450, 0, []
1631431286.6844, 118, 0, 4288.718, 4585.128, 4122.564, 4147.692, 4185.641, 450, 0, []
1631431286.6922, 119, 0, 4262.564, 4549.744, 4079.487, 4124.103, 4167.179, 16185, 0, []
1631431286.7001, 120, 0, 4244.103, 4459.487, 4101.026, 4116.41, 4161.538, 450, 0, []
1631431286.7078, 121, 0, 4249.744, 4574.872, 4100, 4131.282, 4153.846, 450, 0, []
1631431286.7157, 122, 0, 4247.179, 4653.846, 4103.59, 4136.41, 4138.974, 450, 0, []
1631431286.7235, 123, 0, 4220, 4092.308, 4109.231, 4120.513, 4130.769, 16185, 0, []
1631431286.7314, 124, 0, 4206.154, 3271.282, 4068.718, 4115.385, 4127.692, 450, 0, []
1631431286.7392, 125, 0, 4214.872, 3274.359, 4092.821, 4125.641, 4116.41, 450, 0, []
1631431286.747, 126, 0, 4198.462, 3772.308, 4087.179, 4113.333, 4100, 450, 0, []
1631431286.7548, 127, 0, 4166.667, 3830.256, 4074.872, 4097.436, 4087.179, 16185, 0, []
1631431286.7628, 128, 0, 4166.667, 3808.205, 4094.872, 4103.59, 4079.487, 450, 0, []
1631431286.7707, 0, 0, 4172.308, 3884.615, 4074.359, 4110.769, 4081.026, 450, 0, []
1631431286.7787, 1, 0, 4169.744, 3755.897, 4088.205, 4111.282, 4091.795, 450, 0, []
1631431286.7865, 2, 0, 4174.359, 3953.333, 4078.974, 4108.205, 4089.744, 16192, 0, []
1631431286.7945, 3, 0, 4158.462, 4453.846, 4075.385, 4097.436, 4069.231, 450, 0, []
1631431286.8024, 4, 0, 4137.436, 4311.282, 4092.821, 4091.282, 4062.051, 16092, 0, []
1631431286.8104, 5, 0, 4144.103, 3803.59, 4061.538, 4092.308, 4060.513, 450, 0, []
1631431286.8183, 6, 0, 4147.692, 3855.385, 4084.615, 4094.359, 4056.923, 270, 0, []
1631431286.8262, 7, 0, 4147.692, 4181.538, 4084.103, 4107.179, 4071.282, 450, 0, []
1631431286.8341, 8, 0, 4157.436, 4438.974, 4065.128, 4116.923, 4077.436, 450, 0, []
1631431286.8419, 9, 0, 4158.974, 4671.795, 4091.795, 4108.205, 4072.821, 16157, 0, []
1631431286.8498, 10, 0, 4159.487, 4487.692, 4082.051, 4107.179, 4081.538, 450, 0, []
1631431286.8576, 11, 0, 4161.538, 3904.615, 4092.821, 4109.231, 4076.41, 16209, 0, []
1631431286.8654, 12, 0, 4131.795, 3576.923, 4066.154, 4088.205, 4044.103, 450, 0, []
1631431286.8732, 13, 0, 4102.051, 3619.487, 4046.667, 4075.897, 4030.256, 450, 0, []
1631431286.8811, 14, 0, 4126.154, 3532.308, 4101.538, 4095.385, 4053.846, 450, 0, []
1631431286.8889, 15, 0, 4151.795, 3445.128, 4087.692, 4109.744, 4075.385, 16209, 0, []
1631431286.8968, 16, 0, 4134.359, 3854.359, 4075.385, 4101.026, 4064.615, 0, 0, []
1631431286.9045, 17, 0, 4122.051, 4320, 4072.821, 4089.744, 4051.795, 0, 0, []
1631431286.9125, 18, 0, 4135.897, 4213.846, 4071.282, 4096.923, 4067.692, 0, 0, []
1631431286.9204, 19, 0, 4136.41, 3766.154, 4100, 4110.769, 4071.282, 0, 0, []
1631431286.9284, 20, 0, 4129.231, 3373.333, 4063.59, 4105.128, 4056.923, 0, 0, []
1631431286.9363, 21, 0, 4142.051, 3351.282, 4072.821, 4109.744, 4065.641, 0, 0, []
1631431286.9442, 22, 0, 4152.308, 3830.256, 4091.795, 4128.718, 4072.821, 0, 0, []
1631431286.9521, 23, 0, 4133.846, 4166.667, 4055.897, 4117.436, 4056.923, 0, 0, []
1631431286.9601, 24, 0, 4120, 4056.41, 4069.744, 4095.897, 4053.846, 0, 0, []
1631431286.968, 25, 0, 4133.333, 3982.051, 4070.256, 4104.103, 4066.667, 0, 0, []
1631431286.976, 26, 0, 4140, 4142.051, 4088.205, 4118.462, 4068.205, 0, 0, []
1631431286.9839, 27, 0, 4134.359, 4085.641, 4091.282, 4115.385, 4065.128, 0, 0, []
1631431286.9918, 28, 0, 4145.641, 3564.615, 4067.692, 4122.051, 4077.949, 0, 0, []
1631431286.9997, 29, 0, 4162.564, 3317.949, 4111.795, 4142.051, 4096.923, 0, 0, []
1631431287.0075, 30, 0, 4151.795, 3616.41, 4089.744, 4141.026, 4082.564, 0, 0, []
1631431287.0154, 31, 0, 4125.641, 3499.487, 4053.846, 4114.872, 4050.256, 0, 0, []
1631431287.0232, 32, 0, 4118.974, 2901.026, 4061.538, 4105.641, 4051.282, 0, 0, []
1631431287.031, 33, 0, 4130.256, 3105.128, 4053.333, 4112.308, 4069.744, 0, 0, []
1631431287.0388, 34, 0, 4138.974, 3866.154, 4086.667, 4118.462, 4070.256, 0, 0, []
1631431287.0467, 35, 0, 4141.538, 4007.692, 4081.026, 4128.718, 4063.59, 0, 0, []
1631431287.0545, 36, 0, 4140, 3637.949, 4075.385, 4124.103, 4068.205, 0, 0, []
1631431287.0625, 37, 0, 4135.385, 3342.051, 4084.103, 4106.154, 4072.308, 0, 0, []
1631431287.0703, 38, 0, 4131.282, 4216.923, 4054.359, 4108.718, 4056.41, 0, 0, []
1631431287.0783, 39, 0, 4136.41, 6325.128, 4085.641, 4125.128, 4046.154, 0, 0, []
1631431287.0862, 40, 0, 4152.308, 7808.718, 4089.231, 4128.205, 4067.692, 0, 0, []
1631431287.0942, 41, 0, 4149.744, 7902.564, 4072.821, 4122.051, 4081.026, 0, 0, []
1631431287.1021, 42, 0, 4141.538, 7788.205, 4083.59, 4123.077, 4081.538, 0, 0, []
1631431287.11, 43, 0, 4153.333, 7931.282, 4060, 4127.179, 4092.308, 0, 0, []
1631431287.1179, 44, 0, 4158.974, 7880.513, 4086.667, 4128.205, 4090.256, 0, 0, []
1631431287.1259, 45, 0, 4147.179, 7778.974, 4084.615, 4117.949, 4076.41, 0, 0, []
1631431287.1338, 46, 0, 4125.128, 7771.795, 4040, 4089.231, 4056.923, 0, 0, []
1631431287.1416, 47, 0, 4123.59, 7770.256, 4051.282, 4085.641, 4058.462, 0, 0, []
1631431287.1494, 48, 0, 4169.231, 7771.282, 4073.333, 4133.846, 4108.718, 0, 0, []
1631431287.1572, 49, 0, 4214.359, 7769.231, 4126.667, 4171.795, 4146.667, 0, 0, []
1631431287.1651, 50, 0, 4203.077, 7770.769, 4114.872, 4158.462, 4130.769, 0, 0, []
1631431287.1729, 51, 0, 4179.487, 7769.744, 4077.436, 4140.513, 4115.385, 0, 0, []
1631431287.1808, 52, 0, 4186.154, 7770.769, 4111.282, 4142.051, 4122.564, 0, 0, []
1631431287.1885, 53, 0, 4189.744, 7770.256, 4092.821, 4135.897, 4116.923, 0, 0, []
1631431287.1964, 54, 0, 4187.692, 7770.256, 4093.846, 4134.872, 4114.872, 0, 0, []
1631431287.2042, 55, 0, 4191.795, 7770.256, 4106.154, 4148.718, 4126.667, 0, 0, []
1631431287.2122, 56, 0, 4186.154, 7770.256, 4088.205, 4151.795, 4122.051, 0, 0, []
1631431287.2201, 57, 0, 4188.205, 7770.256, 4096.41, 4140.513, 4117.436, 0, 0, []
1631431287.228, 58, 0, 4209.231, 7770.256, 4079.487, 4138.462, 4134.359, 0, 0, []
1631431287.2359, 59, 0, 4218.462, 7770.256, 4106.154, 4155.897, 4145.641, 0, 0, []
1631431287.2439, 60, 0, 4219.487, 7770.256, 4107.692, 4162.051, 4143.59, 0, 0, []
1631431287.2518, 61, 0, 4234.872, 7770.256, 4086.154, 4149.231, 4147.692, 0, 0, []
1631431287.2598, 62, 0, 4233.333, 7770.256, 4117.949, 4142.051, 4136.41, 0, 0, []
1631431287.2676, 63, 0, 4207.179, 7770.256, 4076.41, 4136.41, 4103.59, 0, 0, []
1631431287.2756, 64, 0, 4198.974, 7770.256, 4074.872, 4126.667, 4093.846, 450, 0, []
1631431287.2835, 65, 0, 4213.846, 7770.769, 4104.615, 4127.692, 4109.231, 450, 0, []
1631431287.2914, 66, 0, 4218.974, 7770.769, 4088.205, 4134.359, 4111.795, 16225, 0, []
1631431287.2993, 67, 0, 4212.821, 7771.282, 4093.846, 4130.256, 4104.103, 450, 0, []
1631431287.307, 68, 0, 4208.718, 7772.308, 4069.231, 4122.564, 4105.641, 16166, 0, []
1631431287.3149, 69, 0, 4205.641, 7772.308, 4101.026, 4124.615, 4105.641, 450, 0, []
1631431287.3227, 70, 0, 4200.513, 7770.769, 4111.282, 4127.179, 4100.513, 274, 0, []
1631431287.3306, 71, 0, 4189.744, 7769.231, 4063.59, 4119.487, 4092.821, 450, 0, []
1631431287.3384, 72, 0, 4176.923, 7761.026, 4098.462, 4109.231, 4082.051, 450, 0, []
1631431287.3464, 73, 0, 4169.744, 7738.974, 4086.154, 4109.231, 4078.462, 16134, 0, []
1631431287.3542, 74, 0, 4176.923, 7714.359, 4062.564, 4121.026, 4086.667, 450, 0, []
1631431287.3621, 75, 0, 4183.077, 7697.436, 4076.923, 4118.462, 4085.641, 16230, 0, []
1631431287.3701, 76, 0, 4185.641, 7694.359, 4071.282, 4108.718, 4082.564, 450, 0, []
1631431287.378, 77, 0, 4204.103, 7760.513, 4106.667, 4130.256, 4108.205, 450, 0, []
1631431287.386, 78, 0, 4221.538, 7821.026, 4099.487, 4154.359, 4128.205, 450, 0, []
1631431287.3938, 79, 0, 4215.897, 7666.154, 4088.205, 4152.821, 4116.923, 16230, 0, []
1631431287.4018, 80, 0, 4215.385, 7735.897, 4115.897, 4157.436, 4118.462, 450, 0, []
1631431287.4097, 81, 0, 4220.513, 7738.974, 4094.359, 4169.231, 4127.692, 450, 0, []
1631431287.4177, 82, 0, 4210.769, 6249.744, 4097.436, 4158.974, 4112.308, 450, 0, []
1631431287.4256, 83, 0, 4200, 3914.872, 4091.282, 4130.769, 4093.333, 16230, 0, []
1631431287.4335, 84, 0, 4196.923, 2720, 4078.974, 4114.359, 4088.205, 450, 0, []
1631431287.4414, 85, 0, 4200, 2409.231, 4104.103, 4125.128, 4096.41, 450, 0, []
1631431287.4493, 86, 0, 4205.641, 1849.744, 4091.282, 4135.385, 4107.692, 450, 0, []
1631431287.4572, 87, 0, 4194.872, 1364.103, 4090.256, 4118.462, 4095.385, 16230, 0, []
1631431287.4652, 88, 0, 4182.051, 1194.359, 4084.615, 4104.103, 4076.41, 450, 0, []
1631431287.473, 89, 0, 4193.333, 1026.154, 4079.487, 4117.949, 4090.256, 450, 0, []
1631431287.481, 90, 0, 4203.59, 927.179, 4109.744, 4125.128, 4108.718, 450, 0, []
1631431287.4889, 91, 0, 4196.41, 853.333, 4089.231, 4118.462, 4101.026, 16230, 0, []
1631431287.4969, 92, 0, 4189.744, 790.769, 4089.231, 4123.077, 4096.923, 450, 0, []
1631431287.5048, 93, 0, 4194.872, 794.872, 4097.949, 4127.692, 4107.692, 450, 0, []
1631431287.5127, 94, 0, 4197.949, 809.231, 4074.359, 4124.103, 4109.231, 450, 0, []
1631431287.5206, 95, 0, 4192.308, 812.821, 4093.333, 4123.59, 4099.487, 16230, 0, []
1631431287.5286, 96, 0, 4188.718, 812.308, 4087.692, 4122.564, 4100.513, 450, 0, []
1631431287.5366, 97, 0, 4182.564, 816.923, 4080, 4115.897, 4103.077, 450, 0, []
1631431287.5445, 98, 0, 4171.795, 819.487, 4085.128, 4105.128, 4094.359, 450, 0, []
1631431287.5524, 99, 0, 4170.769, 818.974, 4067.179, 4101.538, 4090.256, 16230, 0, []
1631431287.5603, 100, 0, 4183.59, 817.436, 4097.949, 4118.974, 4106.154, 450, 0, []
1631431287.5683, 101, 0, 4177.949, 816.923, 4089.744, 4126.154, 4112.821, 450, 0, []
1631431287.5762, 102, 0, 4148.205, 818.462, 4058.974, 4098.462, 4083.077, 450, 0, []
1631431287.5842, 103, 0, 4144.615, 818.462, 4074.872, 4088.205, 4073.333, 16230, 0, []
1631431287.592, 104, 0, 4180, 817.949, 4072.308, 4123.59, 4114.872, 450, 0, []
1631431287.6, 105, 0, 4198.974, 818.462, 4101.538, 4146.667, 4142.564, 450, 0, []
1631431287.6079, 106, 0, 4182.051, 818.462, 4096.923, 4128.205, 4128.718, 450, 0, []
1631431287.6159, 107, 0, 4166.154, 818.462, 4063.077, 4107.692, 4109.231, 16230, 0, []
1631431287.6238, 108, 0, 4164.103, 818.462, 4088.718, 4105.641, 4103.59, 450, 0, []
1631431287.6317, 109, 0, 4163.59, 818.462, 4074.359, 4107.692, 4104.615, 450, 0, []
1631431287.6396, 110, 0, 4164.103, 818.462, 4077.436, 4106.667, 4108.718, 450, 0, []
1631431287.6476, 111, 0, 4170.769, 818.462, 4098.462, 4104.615, 4113.846, 16230, 0, []
1631431287.6555, 112, 0, 4174.359, 818.462, 4085.128, 4101.538, 4118.974, 450, 0, []
1631431287.6635, 113, 0, 4172.821, 818.462, 4103.59, 4103.59, 4125.128, 450, 0, []
1631431287.6714, 114, 0, 4171.282, 818.462, 4083.59, 4105.641, 4126.154, 450, 0, []
1631431287.6793, 115, 0, 4164.103, 818.462, 4079.487, 4094.872, 4120.513, 16230, 0, []
1631431287.6873, 116, 0, 4155.385, 818.462, 4084.103, 4085.641, 4116.923, 450, 0, []
1631431287.6952, 117, 0, 4160, 818.462, 4061.026, 4089.231, 4117.949, 450, 0, []
1631431287.7032, 118, 0, 4169.744, 818.462, 4095.897, 4097.436, 4122.564, 450, 0, []
1631431287.7111, 119, 0, 4170.769, 818.462, 4087.692, 4101.538, 4130.256, 16230, 0, []
1631431287.719, 120, 0, 4173.333, 818.462, 4091.282, 4106.667, 4140.513, 450, 0, []
1631431287.7269, 121, 0, 4177.949, 818.462, 4105.641, 4106.154, 4142.564, 450, 0, []
1631431287.7349, 122, 0, 4164.103, 818.462, 4073.846, 4097.949, 4129.744, 450, 0, []
1631431287.7428, 123, 0, 4148.718, 818.462, 4093.333, 4095.897, 4114.359, 16230, 0, []
1631431287.7508, 124, 0, 4159.487, 818.462, 4083.59, 4101.538, 4114.359, 450, 0, []
1631431287.7586, 125, 0, 4171.282, 818.462, 4091.282, 4109.744, 4124.615, 450, 0, []
1631431287.7666, 126, 0, 4161.538, 818.462, 4097.949, 4110.256, 4125.128, 450, 0, []
1631431287.7745, 127, 0, 4148.718, 818.462, 4053.846, 4099.487, 4111.795, 16230, 0, []
1631431287.7825, 128, 0, 4148.205, 818.462, 4083.077, 4093.333, 4107.179, 450, 0, []
1631431287.7904, 0, 0, 4148.718, 818.462, 4082.051, 4096.923, 4116.41, 450, 0, []
1631431287.7983, 1, 0, 4137.436, 818.462, 4065.128, 4085.641, 4110.256, 450, 0, []
1631431287.8062, 2, 0, 4132.821, 818.462, 4073.333, 4078.974, 4104.103, 16207, 0, []
1631431287.8142, 3, 0, 4151.282, 818.462, 4071.795, 4106.667, 4127.692, 450, 0, []
1631431287.8222, 4, 0, 4161.538, 818.462, 4116.923, 4127.692, 4143.59, 152, 0, []
1631431287.8301, 5, 0, 4144.615, 818.462, 4096.41, 4103.59, 4120.513, 450, 0, []
1631431287.838, 6, 0, 4139.487, 818.462, 4083.59, 4084.615, 4103.59, 258, 0, []
1631431287.8459, 7, 0, 4147.692, 818.462, 4103.59, 4088.205, 4114.872, 450, 0, []
1631431287.8539, 8, 0, 4133.333, 818.462, 4065.128, 4080.513, 4114.359, 450, 0, []
1631431287.8618, 9, 0, 4119.487, 818.462, 4084.103, 4085.641, 4105.128, 16177, 0, []
1631431287.8698, 10, 0, 4131.282, 818.462, 4090.256, 4110.769, 4115.385, 450, 0, []
1631431287.8776, 11, 0, 4134.359, 818.462, 4085.128, 4115.385, 4124.615, 16209, 0, []
1631431287.8856, 12, 0, 4120, 818.462, 4093.846, 4101.538, 4114.872, 450, 0, []
1631431287.8935, 13, 0, 4125.128, 818.462, 4076.923, 4100.513, 4114.359, 450, 0, []
1631431287.9015, 14, 0, 4137.436, 818.462, 4106.667, 4106.154, 4124.615, 450, 0, []
1631431287.9094, 15, 0, 4130.769, 818.462, 4089.744, 4107.692, 4122.564, 16209, 0, []
1631431287.9173, 16, 0, 4127.692, 818.462, 4081.538, 4119.487, 4125.128, 0, 0, []
1631431287.9252, 17, 0, 4136.41, 818.462, 4102.051, 4125.641, 4135.897, 0, 0, []
1631431287.9332, 18, 0, 4131.282, 818.462, 4069.231, 4110.256, 4129.231, 0, 0, []
1631431287.9411, 19, 0, 4118.462, 818.462, 4089.231, 4089.744, 4115.385, 0, 0, []
1631431287.9491, 20, 0, 4119.487, 818.462, 4082.051, 4086.667, 4121.026, 0, 0, []
1631431287.9569, 21, 0, 4129.231, 818.462, 4074.359, 4100.513, 4138.974, 0, 0, []
1631431287.9649, 22, 0, 4141.026, 818.462, 4099.487, 4115.385, 4153.846, 0, 0, []
1631431287.9728, 23, 0, 4152.308, 818.462, 4074.359, 4127.692, 4159.487, 0, 0, []
1631431287.9808, 24, 0, 4152.308, 818.462, 4096.923, 4141.538, 4156.923, 0, 0, []
1631431287.9888, 25, 0, 4145.641, 818.462, 4087.692, 4142.051, 4150.769, 0, 0, []
1631431287.9966, 26, 0, 4139.487, 818.462, 4062.564, 4126.667, 4137.436, 0, 0, []
1631431288.0046, 27, 0, 4129.744, 818.462, 4086.667, 4116.41, 4123.59, 0, 0, []
1631431288.0125, 28, 0, 4120, 818.462, 4058.462, 4103.59, 4117.436, 0, 0, []
1631431288.0205, 29, 0, 4123.59, 818.462, 4081.538, 4090.769, 4118.974, 0, 0, []
1631431288.0284, 30, 0, 4146.667, 818.462, 4103.59, 4103.59, 4139.487, 0, 0, []
1631431288.0363, 31, 0, 4160.513, 818.462, 4084.103, 4123.077, 4158.462, 0, 0, []
1631431288.0442, 32, 0, 4154.359, 818.462, 4108.205, 4130.256, 4157.436, 0, 0, []
1631431288.0522, 33, 0, 4150.256, 818.462, 4087.692, 4132.308, 4158.974, 0, 0, []
1631431288.0601, 34, 0, 4152.308, 818.462, 4083.077, 4131.282, 4169.231, 0, 0, []
1631431288.0681, 35, 0, 4153.333, 818.462, 4085.641, 4126.667, 4173.846, 0, 0, []
1631431288.0759, 36, 0, 4151.795, 818.462, 4065.128, 4126.154, 4170.769, 0, 0, []
1631431288.0839, 37, 0, 4148.205, 818.462, 4096.923, 4121.026, 4167.179, 0, 0, []
1631431288.0918, 38, 0, 4137.949, 818.462, 4077.436, 4106.667, 4158.974, 0, 0, []
1631431288.0998, 39, 0, 4116.41, 818.462, 4061.538, 4091.795, 4145.128, 0, 0, []
1631431288.1077, 40, 0, 4108.718, 818.462, 4076.923, 4093.846, 4144.615, 0, 0, []
1631431288.1157, 41, 0, 4124.615, 818.462, 4070.769, 4112.308, 4152.821, 0, 0, []
1631431288.1235, 42, 0, 4133.846, 818.462, 4096.41, 4125.641, 4152.308, 0, 0, []
1631431288.1314, 43, 0, 4127.692, 818.462, 4073.846, 4128.205, 4149.744, 0, 0, []
1631431288.1394, 44, 0, 4122.051, 818.462, 4072.308, 4130.256, 4145.128, 0, 0, []
1631431288.1473, 45, 0, 4120, 818.462, 4091.795, 4130.769, 4140, 0, 0, []
1631431288.1553, 46, 0, 4117.436, 818.462, 4060.513, 4120.513, 4144.615, 0, 0, []
1631431288.1631, 47, 0, 4121.026, 818.462, 4082.051, 4112.821, 4151.795, 0, 0, []
1631431288.1711, 48, 0, 4125.641, 818.462, 4078.974, 4117.949, 4150.256, 0, 0, []
1631431288.179, 49, 0, 4122.051, 818.462, 4069.231, 4118.974, 4146.154, 0, 0, []
1631431288.187, 50, 0, 4121.026, 818.462, 4083.077, 4110.769, 4141.026, 0, 0, []
1631431288.1949, 51, 0, 4120.513, 818.462, 4052.821, 4101.026, 4139.487, 0, 0, []
1631431288.2028, 52, 0, 4119.487, 818.462, 4081.026, 4097.436, 4150.256, 0, 0, []
1631431288.2107, 53, 0, 4128.205, 818.462, 4090.769, 4095.385, 4157.949, 0, 0, []
1631431288.2187, 54, 0, 4132.821, 818.462, 4075.385, 4098.974, 4152.821, 0, 0, []
1631431288.2266, 55, 0, 4132.308, 818.462, 4094.359, 4117.436, 4156.923, 0, 0, []
1631431288.2346, 56, 0, 4133.333, 818.462, 4070.256, 4130.256, 4165.128, 0, 0, []
1631431288.2424, 57, 0, 4126.667, 818.462, 4074.359, 4126.154, 4156.41, 0, 0, []
1631431288.2504, 58, 0, 4113.333, 818.462, 4063.077, 4112.821, 4143.59, 0, 0, []
1631431288.2583, 59, 0, 4115.385, 818.462, 4042.051, 4104.103, 4148.205, 0, 0, []
1631431288.2663, 60, 0, 4119.487, 818.462, 4072.308, 4099.487, 4155.385, 0, 0, []
1631431288.2742, 61, 0, 4106.154, 818.462, 4066.667, 4086.667, 4143.077, 0, 0, []
1631431288.2819, 62, 0, 4104.615, 818.462, 4086.154, 4085.128, 4132.821, 0, 0, []
1631431288.2899, 63, 0, 4124.615, 818.462, 4085.641, 4097.436, 4137.949, 0, 0, []
1631431288.2978, 64, 0, 4131.795, 817.949, 4067.179, 4109.231, 4142.564, 450, 0, []
1631431288.3058, 65, 0, 4121.538, 817.436, 4088.205, 4115.385, 4141.026, 450, 0, []
1631431288.3137, 66, 0, 4113.333, 818.974, 4055.897, 4110.256, 4141.026, 16200, 0, []
1631431288.3216, 67, 0, 4109.231, 818.462, 4058.974, 4100.513, 4136.923, 450, 0, []
1631431288.3295, 68, 0, 4108.205, 818.462, 4077.949, 4097.436, 4132.308, 0, 0, []
1631431288.3375, 69, 0, 4108.205, 826.154, 4069.231, 4096.41, 4130.256, 450, 0, []
1631431288.3454, 70, 0, 4107.692, 833.333, 4082.051, 4094.872, 4130.769, 261, 0, []
1631431288.3534, 71, 0, 4114.359, 840.513, 4057.436, 4104.103, 4135.385, 450, 0, []
1631431288.3612, 72, 0, 4108.205, 846.667, 4072.821, 4108.205, 4125.641, 450, 0, []
1631431288.3692, 73, 0, 4097.436, 853.333, 4093.846, 4102.051, 4118.974, 16173, 0, []
1631431288.3771, 74, 0, 4107.179, 863.077, 4074.359, 4107.179, 4136.923, 450, 0, []
1631431288.3851, 75, 0, 4110.769, 869.744, 4101.026, 4103.077, 4139.487, 16195, 0, []
1631431288.393, 76, 0, 4096.923, 883.59, 4087.692, 4080, 4120, 450, 0, []
1631431288.4009, 77, 0, 4085.641, 901.026, 4072.821, 4071.795, 4107.692, 450, 0, []
1631431288.4088, 78, 0, 4070.769, 909.744, 4068.205, 4073.846, 4088.718, 450, 0, []
1631431288.4166, 79, 0, 4065.128, 918.974, 4046.154, 4087.179, 4082.564, 16195, 0, []
1631431288.4245, 80, 0, 4096.41, 945.641, 4088.205, 4128.205, 4123.077, 450, 0, []
1631431288.4323, 81, 0, 4126.667, 967.179, 4094.359, 4151.795, 4154.872, 450, 0, []
1631431288.4401, 82, 0, 4120.513, 967.179, 4092.308, 4131.282, 4141.026, 450, 0, []
1631431288.4479, 83, 0, 4109.744, 970.256, 4086.154, 4109.231, 4128.718, 16195, 0, []
1631431288.4558, 84, 0, 4107.692, 988.205, 4053.333, 4098.462, 4136.923, 450, 0, []
1631431288.4637, 85, 0, 4103.077, 1008.718, 4090.256, 4089.231, 4135.897, 450, 0, []
1631431288.4715, 86, 0, 4104.615, 1025.128, 4080, 4093.846, 4127.179, 450, 0, []
1631431288.4794, 87, 0, 4114.359, 1044.615, 4074.359, 4116.41, 4131.795, 16195, 0, []
1631431288.4873, 88, 0, 4121.538, 1058.974, 4102.051, 4128.205, 4148.718, 450, 0, []
1631431288.4952, 89, 0, 4122.564, 1063.59, 4072.821, 4121.538, 4156.41, 450, 0, []
1631431288.5032, 90, 0, 4130.769, 1082.051, 4094.359, 4127.179, 4161.538, 450, 0, []
1631431288.5111, 91, 0, 4133.333, 1108.718, 4082.051, 4126.154, 4162.051, 16195, 0, []
1631431288.5191, 92, 0, 4113.846, 1121.026, 4038.462, 4094.872, 4142.051, 450, 0, []
1631431288.5269, 93, 0, 4095.897, 1130.769, 4058.462, 4075.897, 4124.103, 450, 0, []
1631431288.5349, 94, 0, 4094.359, 1146.154, 4060.513, 4092.821, 4119.487, 450, 0, []
1631431288.5428, 95, 0, 4099.487, 1158.974, 4069.744, 4114.872, 4121.538, 16195, 0, []
1631431288.5508, 96, 0, 4104.103, 1169.744, 4064.615, 4127.179, 4138.462, 450, 0, []
1631431288.5587, 97, 0, 4108.718, 1185.641, 4063.077, 4135.385, 4162.051, 450, 0, []
1631431288.5664, 98, 0, 4111.282, 1202.051, 4074.359, 4134.359, 4164.615, 450, 0, []
1631431288.5743, 99, 0, 4105.641, 1221.538, 4046.154, 4113.846, 4146.154, 16195, 0, []
1631431288.5821, 100, 0, 4103.077, 1246.154, 4084.103, 4091.282, 4138.974, 450, 0, []
1631431288.59, 101, 0, 4113.333, 1280, 4088.718, 4089.744, 4151.795, 450, 0, []
1631431288.5978, 102, 0, 4118.974, 1308.718, 4053.846, 4109.231, 4156.41, 450, 0, []
1631431288.6056, 103, 0, 4105.641, 1318.974, 4072.308, 4130.256, 4145.641, 16195, 0, []
1631431288.6134, 104, 0, 4094.872, 1334.359, 4066.154, 4138.974, 4146.154, 450, 0, []
1631431288.6214, 105, 0, 4100, 1360.513, 4106.667, 4140.513, 4149.744, 450, 0, []
1631431288.6293, 106, 0, 4102.051, 1387.692, 4096.923, 4138.974, 4142.564, 450, 0, []
1631431288.6373, 107, 0, 4096.923, 1429.231, 4070.769, 4127.692, 4141.538, 16195, 0, []
1631431288.6451, 108, 0, 4091.282, 1470.769, 4097.436, 4111.795, 4138.462, 450, 0, []
1631431288.6531, 109, 0, 4084.103, 1483.077, 4055.897, 4101.538, 4122.564, 450, 0, []
1631431288.661, 110, 0, 4081.026, 1502.051, 4101.538, 4104.103, 4118.974, 450, 0, []
1631431288.669, 111, 0, 4096.41, 1552.821, 4096.923, 4115.385, 4136.41, 16195, 0, []
1631431288.6769, 112, 0, 4115.897, 1573.846, 4035.385, 4126.667, 4150.256, 450, 0, []
1631431288.6848, 113, 0, 4119.487, 1572.308, 4100.513, 4130.769, 4160, 450, 0, []
1631431288.6927, 114, 0, 4130.769, 1610.256, 4091.795, 4136.41, 4184.615, 450, 0, []
1631431288.7007, 115, 0, 4142.564, 1647.692, 4078.974, 4140.513, 4189.231, 16195, 0, []
1631431288.7086, 116, 0, 4127.692, 1655.897, 4082.051, 4126.154, 4160, 450, 0, []
1631431288.7164, 117, 0, 4108.205, 1683.59, 4050.256, 4106.667, 4140, 450, 0, []
1631431288.7242, 118, 0, 4108.205, 1720.513, 4074.359, 4102.051, 4143.59, 450, 0, []
1631431288.732, 119, 0, 4113.846, 1726.154, 4062.564, 4103.077, 4149.231, 16195, 0, []
1631431288.7399, 120, 0, 4118.462, 1738.974, 4066.154, 4114.359, 4150.769, 450, 0, []
1631431288.7477, 121, 0, 4122.051, 1765.128, 4089.231, 4133.846, 4156.923, 450, 0, []
1631431288.7556, 122, 0, 4113.333, 1774.359, 4074.359, 4136.41, 4157.436, 450, 0, []
1631431288.7633, 123, 0, 4100.513, 1809.744, 4078.462, 4121.538, 4143.59, 16195, 0, []
1631431288.7713, 124, 0, 4104.615, 1871.282, 4068.718, 4115.897, 4140, 450, 0, []
1631431288.7792, 125, 0, 4115.385, 1902.051, 4075.385, 4125.128, 4149.231, 450, 0, []
1631431288.7872, 126, 0, 4109.744, 1909.744, 4077.949, 4120, 4145.128, 450, 0, []
1631431288.7951, 127, 0, 4093.333, 1926.667, 4052.821, 4103.59, 4130.769, 16195, 0, []
1631431288.803, 128, 0, 4093.846, 1949.744, 4068.205, 4108.205, 4139.487, 450, 0, []
1631431288.8109, 0, 0, 4109.744, 1965.128, 4066.154, 4128.205, 4154.359, 450, 0, []
1631431288.8189, 1, 0, 4116.923, 1962.051, 4068.718, 4141.538, 4158.974, 450, 0, []
1631431288.8268, 2, 0, 4129.231, 1965.641, 4097.949, 4146.667, 4174.872, 16175, 0, []
1631431288.8348, 3, 0, 4158.462, 1998.974, 4090.769, 4140, 4212.821, 450, 0, []
1631431288.8426, 4, 0, 4194.872, 2049.744, 4096.41, 4135.385, 4259.487, 92, 0, []
1631431288.8506, 5, 0, 4219.487, 2100.513, 4094.359, 4143.077, 4280.513, 450, 0, []
1631431288.8585, 6, 0, 4207.179, 2135.385, 4083.077, 4136.41, 4261.026, 245, 0, []
1631431288.8663, 7, 0, 4183.59, 2145.128, 4082.564, 4124.103, 4238.462, 450, 0, []
1631431288.8742, 8, 0, 4181.538, 2155.385, 4068.205, 4134.359, 4238.974, 450, 0, []
1631431288.882, 9, 0, 4178.974, 2178.462, 4077.436, 4141.026, 4232.821, 16192, 0, []
1631431288.8898, 10, 0, 4164.103, 2197.949, 4068.718, 4124.103, 4215.897, 450, 0, []
1631431288.8976, 11, 0, 4163.59, 2208.205, 4068.718, 4115.897, 4218.974, 16175, 0, []
1631431288.9055, 12, 0, 4177.436, 2223.077, 4111.282, 4127.692, 4233.846, 450, 0, []
1631431288.9133, 13, 0, 4176.923, 2253.846, 4115.897, 4140.513, 4239.487, 450, 0, []
1631431288.9213, 14, 0, 4165.641, 2288.718, 4106.667, 4149.744, 4227.179, 450, 0, []
1631431288.9291, 15, 0, 4164.615, 2308.205, 4091.282, 4154.872, 4217.436, 16175, 0, []
1631431288.9371, 16, 0, 4174.359, 2328.718, 4080.513, 4153.846, 4218.462, 0, 0, []
1631431288.945, 17, 0, 4168.718, 2350.769, 4091.795, 4135.385, 4210.769, 0, 0, []
1631431288.953, 18, 0, 4152.821, 2351.795, 4074.872, 4111.795, 4196.41, 0, 0, []
1631431288.9609, 19, 0, 4148.718, 2350.769, 4080, 4103.077, 4193.846, 0, 0, []
1631431288.9688, 20, 0, 4156.923, 2381.538, 4087.179, 4105.641, 4203.077, 0, 0, []
1631431288.9767, 21, 0, 4170.769, 2418.974, 4082.051, 4117.436, 4214.872, 0, 0, []
1631431288.9847, 22, 0, 4170.769, 2426.667, 4102.564, 4135.385, 4216.41, 0, 0, []
1631431288.9926, 23, 0, 4152.821, 2435.385, 4071.795, 4137.436, 4195.897, 0, 0, []
1631431289.0006, 24, 0, 4145.641, 2468.718, 4049.744, 4134.872, 4182.564, 0, 0, []
1631431289.0084, 25, 0, 4164.615, 2490.769, 4081.026, 4151.795, 4203.59, 0, 0, []
1631431289.0162, 26, 0, 4183.077, 2504.103, 4087.692, 4164.615, 4225.128, 0, 0, []
1631431289.0241, 27, 0, 4176.41, 2530.769, 4076.41, 4151.795, 4211.795, 0, 0, []
1631431289.0319, 28, 0, 4171.282, 2553.333, 4074.359, 4137.436, 4202.564, 0, 0, []
1631431289.0398, 29, 0, 4192.821, 2570.256, 4095.385, 4143.077, 4232.308, 0, 0, []
1631431289.0475, 30, 0, 4213.333, 2596.41, 4103.077, 4149.231, 4255.897, 0, 0, []
1631431289.0554, 31, 0, 4202.564, 2619.487, 4084.103, 4136.41, 4239.487, 0, 0, []
1631431289.0632, 32, 0, 4183.077, 2637.949, 4091.795, 4123.59, 4218.974, 0, 0, []
1631431289.0712, 33, 0, 4178.462, 2660, 4089.744, 4123.077, 4215.897, 0, 0, []
1631431289.0791, 34, 0, 4172.308, 2670.769, 4079.487, 4121.026, 4205.641, 0, 0, []
1631431289.087, 35, 0, 4157.436, 2668.205, 4082.051, 4115.897, 4192.308, 0, 0, []
1631431289.0949, 36, 0, 4157.949, 2679.487, 4069.744, 4126.154, 4193.846, 0, 0, []
1631431289.1029, 37, 0, 4169.744, 2708.718, 4074.359, 4142.051, 4200.513, 0, 0, []
1631431289.1108, 38, 0, 4167.692, 2729.744, 4079.487, 4144.615, 4207.692, 0, 0, []
1631431289.1188, 39, 0, 4153.333, 2742.564, 4077.949, 4135.385, 4197.949, 0, 0, []
1631431289.1266, 40, 0, 4148.205, 2757.436, 4085.128, 4122.051, 4182.564, 0, 0, []
1631431289.1346, 41, 0, 4162.564, 2775.385, 4072.821, 4118.974, 4186.667, 0, 0, []
1631431289.1425, 42, 0, 4168.205, 2797.436, 4078.462, 4122.564, 4190.769, 0, 0, []
1631431289.1505, 43, 0, 4145.641, 2808.718, 4066.154, 4110.256, 4170.256, 0, 0, []
1631431289.1584, 44, 0, 4134.359, 2802.051, 4033.333, 4095.897, 4160.513, 0, 0, []
1631431289.1663, 45, 0, 4161.026, 2817.949, 4055.897, 4123.077, 4194.872, 0, 0, []
1631431289.1742, 46, 0, 4180.513, 2867.179, 4074.872, 4154.872, 4219.487, 0, 0, []
1631431289.182, 47, 0, 4163.59, 2890.256, 4067.179, 4141.538, 4200, 0, 0, []
1631431289.1899, 48, 0, 4151.795, 2894.359, 4059.487, 4120, 4180.513, 0, 0, []
1631431289.1977, 49, 0, 4161.026, 2913.333, 4062.564, 4124.615, 4191.282, 0, 0, []
1631431289.2055, 50, 0, 4167.692, 2920, 4082.564, 4135.897, 4201.026, 0, 0, []
1631431289.2133, 51, 0, 4171.795, 2939.487, 4082.564, 4137.436, 4201.538, 0, 0, []
1631431289.2212, 52, 0, 4180.513, 2981.026, 4097.949, 4141.538, 4207.692, 0, 0, []
1631431289.229, 53, 0, 4180.513, 2988.718, 4100, 4141.026, 4203.077, 0, 0, []
1631431289.2369, 54, 0, 4168.718, 2990.256, 4082.564, 4134.872, 4196.923, 0, 0, []
1631431289.2447, 55, 0, 4184.103, 3025.641, 4102.051, 4145.128, 4214.359, 0, 0, []
1631431289.2526, 56, 0, 4228.205, 3053.333, 4099.487, 4158.462, 4252.821, 0, 0, []
1631431289.2605, 57, 0, 4261.026, 3060, 4101.538, 4157.949, 4291.795, 0, 0, []
1631431289.2685, 58, 0, 4290.256, 3074.359, 4090.769, 4154.872, 4326.667, 0, 0, []
1631431289.2764, 59, 0, 4334.359, 3089.744, 4074.359, 4152.308, 4355.385, 0, 0, []
1631431289.2844, 60, 0, 4375.897, 3117.436, 4114.872, 4141.026, 4386.667, 0, 0, []
1631431289.2922, 61, 0, 4395.385, 3149.744, 4096.923, 4143.59, 4420.513, 0, 0, []
1631431289.3002, 62, 0, 4392.308, 3147.692, 4077.436, 4161.026, 4415.897, 0, 0, []
1631431289.3081, 63, 0, 4377.436, 3145.641, 4081.026, 4156.41, 4378.462, 0, 0, []
1631431289.3161, 64, 0, 4355.385, 3167.179, 4057.949, 4138.462, 4360.513, 450, 0, []
1631431289.324, 65, 0, 4327.179, 3175.897, 4084.103, 4135.385, 4354.359, 450, 0, []
1631431289.3317, 66, 0, 4309.231, 3190.769, 4078.974, 4144.615, 4330.256, 16181, 0, []
1631431289.3396, 67, 0, 4304.615, 3227.179, 4084.103, 4146.154, 4312.821, 450, 0, []
1631431289.3474, 68, 0, 4284.103, 3242.051, 4109.231, 4141.026, 4306.154, 16120, 0, []
1631431289.3553, 69, 0, 4248.205, 3245.128, 4072.821, 4138.974, 4273.846, 450, 0, []
1631431289.3631, 70, 0, 4225.641, 3260, 4082.051, 4134.872, 4243.077, 264, 0, []
1631431289.3709, 71, 0, 4223.077, 3260, 4089.744, 4136.41, 4246.667, 450, 0, []
1631431289.3787, 72, 0, 4224.615, 3254.872, 4098.462, 4152.821, 4251.282, 450, 0, []
1631431289.3866, 73, 0, 4220.513, 3289.231, 4111.282, 4159.487, 4246.667, 16165, 0, []
1631431289.3944, 74, 0, 4214.359, 3321.026, 4063.59, 4141.026, 4243.59, 450, 0, []
1631431289.4024, 75, 0, 4212.821, 3315.897, 4072.308, 4130.256, 4234.872, 16187, 0, []
1631431289.4102, 76, 0, 4213.333, 3326.667, 4089.231, 4142.051, 4236.923, 450, 0, []
1631431289.4182, 77, 0, 4200, 3353.846, 4079.487, 4148.718, 4236.923, 450, 0, []
1631431289.4261, 78, 0, 4185.641, 3367.692, 4097.436, 4148.718, 4214.872, 450, 0, []
1631431289.4341, 79, 0, 4185.641, 3375.897, 4093.333, 4155.385, 4208.205, 16187, 0, []
1631431289.442, 80, 0, 4184.615, 3387.179, 4098.974, 4165.128, 4214.872, 450, 0, []
1631431289.4499, 81, 0, 4173.846, 3402.051, 4085.128, 4154.359, 4202.564, 450, 0, []
1631431289.4578, 82, 0, 4157.949, 3413.846, 4070.256, 4122.564, 4185.641, 450, 0, []
1631431289.4657, 83, 0, 4146.667, 3418.462, 4087.179, 4103.077, 4172.308, 16187, 0, []
1631431289.4737, 84, 0, 4144.103, 3438.462, 4074.872, 4106.667, 4168.718, 450, 0, []
1631431289.4815, 85, 0, 4151.795, 3470.769, 4086.667, 4128.205, 4181.026, 450, 0, []
1631431289.4893, 86, 0, 4156.41, 3465.128, 4088.718, 4146.154, 4182.564, 450, 0, []
1631431289.4971, 87, 0, 4149.231, 3448.205, 4071.282, 4148.718, 4166.154, 16187, 0, []
1631431289.505, 88, 0, 4149.231, 3478.462, 4095.385, 4162.564, 4164.615, 450, 0, []
1631431289.5128, 89, 0, 4159.487, 3513.846, 4092.308, 4174.359, 4182.051, 450, 0, []
1631431289.5207, 90, 0, 4160.513, 3513.846, 4078.462, 4149.744, 4190.256, 450, 0, []
1631431289.5284, 91, 0, 4144.615, 3513.846, 4073.333, 4113.333, 4176.923, 16187, 0, []
1631431289.5364, 92, 0, 4130.256, 3523.59, 4071.282, 4105.641, 4155.897, 450, 0, []
1631431289.5443, 93, 0, 4141.538, 3538.974, 4083.077, 4110.256, 4152.308, 450, 0, []
1631431289.5522, 94, 0, 4156.923, 3557.949, 4053.846, 4105.128, 4159.487, 450, 0, []
1631431289.56, 95, 0, 4157.949, 3554.359, 4054.359, 4111.795, 4158.974, 16187, 0, []
1631431289.568, 96, 0, 4152.821, 3545.128, 4075.385, 4124.103, 4151.282, 450, 0, []
1631431289.5758, 97, 0, 4139.487, 3557.949, 4050.769, 4113.333, 4136.923, 450, 0, []
1631431289.5838, 98, 0, 4126.154, 3580.513, 4060, 4101.538, 4132.308, 450, 0, []
1631431289.5917, 99, 0, 4132.308, 3607.692, 4068.718, 4109.744, 4139.487, 16187, 0, []
1631431289.5997, 100, 0, 4141.538, 3635.385, 4075.385, 4115.385, 4140.513, 450, 0, []
1631431289.6076, 101, 0, 4138.462, 3643.077, 4088.718, 4113.333, 4135.385, 450, 0, []
1631431289.6155, 102, 0, 4135.385, 3635.385, 4066.154, 4107.179, 4136.41, 450, 0, []
1631431289.6234, 103, 0, 4135.385, 3635.897, 4074.359, 4098.974, 4137.949, 16187, 0, []
1631431289.6313, 104, 0, 4138.462, 3657.949, 4087.692, 4100.513, 4129.231, 450, 0, []
1631431289.6392, 105, 0, 4131.795, 3685.128, 4089.231, 4112.308, 4118.974, 450, 0, []
1631431289.647, 106, 0, 4119.487, 3688.205, 4091.282, 4122.051, 4119.487, 450, 0, []
1631431289.6548, 107, 0, 4128.718, 3688.205, 4065.128, 4125.128, 4131.282, 16187, 0, []
1631431289.6626, 108, 0, 4144.103, 3709.231, 4074.359, 4125.641, 4140.513, 450, 0, []
1631431289.6705, 109, 0, 4143.077, 3723.077, 4085.641, 4126.154, 4140, 450, 0, []
1631431289.6783, 110, 0, 4143.077, 3724.615, 4081.026, 4122.564, 4140.513, 450, 0, []
1631431289.6862, 111, 0, 4143.077, 3733.846, 4087.179, 4106.154, 4135.385, 16187, 0, []
1631431289.6939, 112, 0, 4129.231, 3754.359, 4069.744, 4098.974, 4123.59, 450, 0, []
1631431289.7019, 113, 0, 4116.923, 3767.179, 4081.026, 4115.385, 4118.974, 450, 0, []
1631431289.7098, 114, 0, 4099.487, 3757.949, 4084.615, 4113.333, 4103.077, 450, 0, []
1631431289.7178, 115, 0, 4082.051, 3742.051, 4043.59, 4094.359, 4084.615, 16187, 0, []
1631431289.7257, 116, 0, 4103.077, 3757.949, 4065.641, 4103.59, 4109.744, 450, 0, []
1631431289.7336, 117, 0, 4137.949, 3791.282, 4134.872, 4116.923, 4142.564, 450, 0, []
1631431289.7415, 118, 0, 4137.436, 3808.718, 4160, 4126.154, 4140.513, 450, 0, []
1631431289.7495, 119, 0, 4139.487, 3830.256, 4132.308, 4156.923, 4145.641, 16187, 0, []
1631431289.7574, 120, 0, 4162.564, 3849.231, 4118.462, 4169.231, 4164.615, 450, 0, []
1631431289.7654, 121, 0, 4157.436, 3840, 4122.051, 4146.154, 4157.949, 450, 0, []
1631431289.7732, 122, 0, 4131.282, 3831.795, 4077.949, 4132.821, 4128.718, 450, 0, []
1631431289.7812, 123, 0, 4115.385, 3852.821, 4080.513, 4125.641, 4108.718, 16187, 0, []
1631431289.7891, 124, 0, 4117.949, 3875.385, 4096.923, 4121.026, 4120, 450, 0, []
1631431289.797, 125, 0, 4130.769, 3869.231, 4082.051, 4138.462, 4137.949, 450, 0, []
1631431289.8049, 126, 0, 4129.231, 3856.923, 4105.641, 4150.256, 4130.769, 450, 0, []
1631431289.8126, 127, 0, 4109.744, 3873.333, 4078.462, 4138.462, 4116.41, 16187, 0, []
1631431289.8205, 128, 0, 4101.026, 3886.667, 4069.231, 4121.026, 4112.821, 450, 0, []
1631431289.8283, 0, 0, 4103.077, 3868.205, 4085.641, 4102.564, 4107.179, 450, 0, []
1631431289.8362, 1, 0, 4102.564, 3870.769, 4062.564, 4103.59, 4103.077, 450, 0, []
1631431289.844, 2, 0, 4106.154, 3903.59, 4083.077, 4128.718, 4105.128, 16187, 0, []
1631431289.8519, 3, 0, 4111.795, 3924.103, 4078.462, 4141.538, 4107.179, 450, 0, []
1631431289.8598, 4, 0, 4114.872, 3941.026, 4077.949, 4133.846, 4113.333, 16142, 0, []
1631431289.8678, 5, 0, 4122.051, 3953.333, 4091.795, 4129.231, 4123.59, 450, 0, []
1631431289.8757, 6, 0, 4125.128, 3943.59, 4072.821, 4133.333, 4126.154, 270, 0, []
1631431289.8837, 7, 0, 4113.333, 3945.128, 4096.41, 4138.462, 4114.359, 450, 0, []
1631431289.8915, 8, 0, 4106.667, 3971.795, 4100, 4141.538, 4109.231, 450, 0, []
1631431289.8995, 9, 0, 4113.333, 3987.692, 4091.795, 4146.667, 4123.59, 16164, 0, []
1631431289.9074, 10, 0, 4115.385, 3982.051, 4091.282, 4142.051, 4122.051, 450, 0, []
1631431289.9154, 11, 0, 4115.385, 3987.692, 4064.615, 4131.795, 4103.077, 16197, 0, []
1631431289.9233, 12, 0, 4118.974, 4018.974, 4090.769, 4144.615, 4106.154, 450, 0, []
1631431289.9313, 13, 0, 4114.872, 4031.795, 4096.923, 4154.359, 4115.385, 450, 0, []
1631431289.9391, 14, 0, 4104.103, 4019.487, 4069.744, 4132.821, 4108.205, 450, 0, []
1631431289.9469, 15, 0, 4107.692, 4017.949, 4076.923, 4128.205, 4108.205, 16197, 0, []
1631431289.9548, 16, 0, 4116.41, 4026.667, 4083.077, 4146.154, 4112.821, 0, 0, []
1631431289.9626, 17, 0, 4105.128, 4031.795, 4100.513, 4150.769, 4101.026, 0, 0, []
1631431289.9705, 18, 0, 4091.282, 4031.795, 4081.026, 4144.615, 4090.769, 0, 0, []
1631431289.9782, 19, 0, 4096.923, 4032.821, 4073.333, 4141.538, 4094.359, 0, 0, []
1631431289.9861, 20, 0, 4105.641, 4047.692, 4112.821, 4140, 4096.41, 0, 0, []
1631431289.9939, 21, 0, 4092.821, 4062.051, 4100, 4144.103, 4083.59, 0, 0, []
1631431290.0019, 22, 0, 4068.718, 4064.103, 4094.872, 4150.256, 4065.641, 0, 0, []
1631431290.0098, 23, 0, 4058.974, 4076.923, 4097.436, 4149.231, 4061.538, 0, 0, []
1631431290.0177, 24, 0, 4054.872, 4082.564, 4089.744, 4144.615, 4057.949, 0, 0, []
1631431290.0256, 25, 0, 4061.538, 4067.692, 4094.872, 4145.128, 4050.769, 0, 0, []
1631431290.0336, 26, 0, 4082.051, 4065.128, 4062.564, 4130.256, 4065.128, 0, 0, []
1631431290.0415, 27, 0, 4104.103, 4078.462, 4067.692, 4101.026, 4102.051, 0, 0, []
1631431290.0495, 28, 0, 4141.026, 4093.846, 4094.872, 4101.026, 4151.282, 0, 0, []
1631431290.0573, 29, 0, 4187.692, 4100, 4102.564, 4138.974, 4204.103, 0, 0, []
1631431290.0653, 30, 0, 4200, 4108.205, 4116.923, 4168.205, 4227.179, 0, 0, []
1631431290.0732, 31, 0, 4172.308, 4123.077, 4073.333, 4154.359, 4195.385, 0, 0, []
1631431290.0812, 32, 0, 4164.615, 4123.077, 4060.513, 4131.795, 4166.667, 0, 0, []
1631431290.0891, 33, 0, 4177.436, 4124.615, 4087.179, 4132.821, 4171.282, 0, 0, []
1631431290.097, 34, 0, 4161.026, 4143.077, 4096.41, 4138.974, 4151.795, 0, 0, []
1631431290.1049, 35, 0, 4130.769, 4155.385, 4121.538, 4126.154, 4112.308, 0, 0, []
1631431290.1127, 36, 0, 4121.538, 4152.308, 4097.436, 4104.103, 4103.59, 0, 0, []
1631431290.1206, 37, 0, 4126.667, 4146.154, 4080.513, 4094.872, 4110.256, 0, 0, []
1631431290.1284, 38, 0, 4119.487, 4154.872, 4094.359, 4093.333, 4105.128, 0, 0, []
1631431290.1362, 39, 0, 4105.641, 4188.718, 4081.538, 4098.974, 4101.026, 0, 0, []
1631431290.144, 40, 0, 4105.641, 4203.59, 4081.026, 4108.718, 4099.487, 0, 0, []
1631431290.1519, 41, 0, 4111.795, 4184.615, 4077.436, 4110.769, 4091.795, 0, 0, []
1631431290.1597, 42, 0, 4101.026, 4182.564, 4101.026, 4104.615, 4076.41, 0, 0, []
1631431290.1676, 43, 0, 4074.872, 4186.667, 4101.026, 4092.308, 4052.308, 0, 0, []
1631431290.1753, 44, 0, 4057.436, 4175.385, 4052.308, 4075.385, 4039.487, 0, 0, []
1631431290.1833, 45, 0, 4055.897, 4184.615, 4056.41, 4065.128, 4044.615, 0, 0, []
1631431290.1912, 46, 0, 4066.154, 4209.231, 4052.308, 4063.59, 4050.769, 0, 0, []
1631431290.1992, 47, 0, 4067.179, 4202.564, 4050.769, 4058.462, 4046.154, 0, 0, []
1631431290.2071, 48, 0, 4055.897, 4183.077, 4069.231, 4051.795, 4032.308, 0, 0, []
1631431290.215, 49, 0, 4055.897, 4186.154, 4054.359, 4052.821, 4026.667, 0, 0, []
1631431290.2229, 50, 0, 4059.487, 4185.641, 4070.769, 4071.282, 4035.385, 0, 0, []
1631431290.2309, 51, 0, 4052.308, 4184.103, 4071.282, 4082.564, 4035.897, 0, 0, []
1631431290.2388, 52, 0, 4054.359, 4209.231, 4063.077, 4072.308, 4034.872, 0, 0, []
1631431290.2468, 53, 0, 4070.256, 4237.436, 4083.59, 4064.615, 4050.769, 0, 0, []
1631431290.2546, 54, 0, 4063.077, 4235.385, 4070.256, 4062.051, 4059.487, 0, 0, []
1631431290.2624, 55, 0, 4052.308, 4209.744, 4070.256, 4059.487, 4043.59, 0, 0, []
1631431290.2703, 56, 0, 4057.949, 4191.795, 4060.513, 4049.231, 4022.564, 0, 0, []
1631431290.2781, 57, 0, 4053.846, 4197.949, 4046.154, 4045.128, 4022.564, 0, 0, []
1631431290.286, 58, 0, 4054.359, 4229.231, 4070.769, 4074.359, 4042.564, 0, 0, []
1631431290.2938, 59, 0, 4061.538, 4256.923, 4061.026, 4086.154, 4053.333, 0, 0, []
1631431290.3016, 60, 0, 4051.282, 4245.641, 4055.385, 4057.949, 4035.897, 0, 0, []
1631431290.3094, 61, 0, 4047.692, 4228.205, 4058.462, 4053.333, 4029.744, 0, 0, []
1631431290.3174, 62, 0, 4063.59, 4245.641, 4064.103, 4078.974, 4051.795, 0, 0, []
1631431290.3253, 63, 0, 4056.41, 4258.974, 4075.897, 4073.846, 4045.128, 0, 0, []
1631431290.3333, 64, 0, 4039.487, 4250.256, 4049.744, 4053.333, 4027.692, 450, 0, []
1631431290.3411, 65, 0, 4061.026, 4260.513, 4079.487, 4073.846, 4047.692, 450, 0, []
1631431290.3491, 66, 0, 4088.718, 4268.718, 4103.59, 4092.821, 4072.308, 16194, 0, []
1631431290.357, 67, 0, 4088.205, 4256.923, 4070.256, 4086.667, 4070.256, 450, 0, []
1631431290.365, 68, 0, 4086.154, 4282.564, 4078.974, 4088.205, 4062.051, 16143, 0, []
1631431290.3729, 69, 0, 4094.359, 4317.436, 4080, 4090.769, 4066.667, 450, 0, []
1631431290.3808, 70, 0, 4097.949, 4308.205, 4081.026, 4082.051, 4068.718, 272, 0, []
1631431290.3887, 71, 0, 4092.821, 4299.487, 4074.872, 4075.897, 4057.436, 450, 0, []
1631431290.3965, 72, 0, 4083.59, 4316.41, 4050.256, 4078.974, 4052.308, 450, 0, []
1631431290.4044, 73, 0, 4085.128, 4335.897, 4067.179, 4089.231, 4068.718, 16163, 0, []
1631431290.4122, 74, 0, 4109.744, 4343.59, 4066.154, 4103.077, 4091.795, 450, 0, []
1631431290.42, 75, 0, 4129.744, 4341.026, 4069.744, 4111.282, 4098.974, 16204, 0, []
1631431290.4278, 76, 0, 4116.41, 4345.128, 4073.333, 4101.026, 4081.538, 450, 0, []
1631431290.4357, 77, 0, 4096.41, 4355.897, 4046.667, 4076.41, 4062.564, 450, 0, []
1631431290.4435, 78, 0, 4102.051, 4354.359, 4071.795, 4075.385, 4076.41, 450, 0, []
1631431290.4514, 79, 0, 4116.923, 4357.949, 4080.513, 4107.179, 4097.949, 16204, 0, []
1631431290.4591, 80, 0, 4101.538, 4368.205, 4059.487, 4116.923, 4077.436, 450, 0, []
1631431290.467, 81, 0, 4080.513, 4366.667, 4060.513, 4102.564, 4055.385, 450, 0, []
1631431290.4749, 82, 0, 4093.333, 4364.103, 4053.333, 4101.026, 4072.308, 450, 0, []
1631431290.4828, 83, 0, 4104.615, 4362.051, 4065.128, 4101.538, 4084.103, 16204, 0, []
1631431290.4906, 84, 0, 4108.205, 4363.59, 4060.513, 4109.744, 4085.128, 450, 0, []
1631431290.4985, 85, 0, 4119.487, 4376.41, 4056.923, 4122.564, 4097.949, 450, 0, []
1631431290.5064, 86, 0, 4117.436, 4388.205, 4068.718, 4104.615, 4090.769, 450, 0, []
1631431290.5144, 87, 0, 4107.179, 4394.359, 4046.154, 4082.564, 4068.205, 16204, 0, []
1631431290.5223, 88, 0, 4109.231, 4408.205, 4064.615, 4097.949, 4078.462, 450, 0, []
1631431290.5303, 89, 0, 4112.821, 4416.923, 4080.513, 4113.333, 4096.923, 450, 0, []
1631431290.5381, 90, 0, 4114.872, 4408.718, 4070.256, 4105.128, 4090.769, 450, 0, []
1631431290.5461, 91, 0, 4121.026, 4416.41, 4084.615, 4111.282, 4091.795, 16204, 0, []
1631431290.554, 92, 0, 4117.949, 4430.769, 4065.641, 4125.128, 4098.462, 450, 0, []
1631431290.5618, 93, 0, 4118.974, 4428.718, 4060, 4113.333, 4092.821, 450, 0, []
1631431290.5697, 94, 0, 4133.333, 4430.769, 4061.026, 4103.077, 4102.564, 450, 0, []
1631431290.5774, 95, 0, 4141.538, 4455.385, 4050.769, 4116.41, 4111.795, 16204, 0, []
1631431290.5853, 96, 0, 4133.846, 4466.667, 4066.667, 4108.718, 4093.846, 450, 0, []
1631431290.5931, 97, 0, 4120, 4447.179, 4052.308, 4086.667, 4084.615, 450, 0, []
1631431290.601, 98, 0, 4123.59, 4449.744, 4063.59, 4106.667, 4095.385, 450, 0, []
1631431290.6088, 99, 0, 4136.923, 4488.205, 4074.359, 4128.718, 4104.103, 16204, 0, []
1631431290.6166, 100, 0, 4144.615, 4492.308, 4052.821, 4117.436, 4115.385, 450, 0, []
1631431290.6244, 101, 0, 4152.308, 4460.513, 4073.333, 4116.923, 4122.051, 450, 0, []
1631431290.6323, 102, 0, 4156.923, 4464.103, 4069.231, 4123.077, 4118.974, 450, 0, []
1631431290.6401, 103, 0, 4149.744, 4486.667, 4063.59, 4120.513, 4128.205, 16204, 0, []
1631431290.6481, 104, 0, 4148.205, 4481.538, 4070.769, 4123.077, 4138.974, 450, 0, []
1631431290.656, 105, 0, 4155.897, 4476.923, 4063.077, 4123.59, 4130.256, 450, 0, []
1631431290.6639, 106, 0, 4153.846, 4484.103, 4081.026, 4116.923, 4130.256, 450, 0, []
1631431290.6718, 107, 0, 4165.641, 4491.282, 4065.641, 4116.923, 4153.333, 16204, 0, []
1631431290.6798, 108, 0, 4199.487, 4499.487, 4056.923, 4115.385, 4162.564, 450, 0, []
1631431290.6877, 109, 0, 4220.513, 4492.821, 4075.897, 4096.41, 4171.282, 450, 0, []
1631431290.6957, 110, 0, 4232.821, 4494.359, 4056.41, 4093.333, 4214.872, 450, 0, []
1631431290.7035, 111, 0, 4267.179, 4518.974, 4070.769, 4114.359, 4260.513, 16204, 0, []
1631431290.7113, 112, 0, 4318.462, 4525.128, 4120, 4110.256, 4282.564, 450, 0, []
1631431290.7192, 113, 0, 4371.282, 4509.744, 4117.949, 4093.333, 4324.615, 450, 0, []
1631431290.727, 114, 0, 4431.282, 4521.026, 4128.205, 4117.949, 4402.564, 450, 0, []
1631431290.7349, 115, 0, 4482.051, 4547.692, 4125.128, 4145.641, 4461.026, 16204, 0, []
1631431290.7426, 116, 0, 4503.59, 4545.641, 4090.256, 4134.359, 4480.513, 450, 0, []
1631431290.7505, 117, 0, 4494.872, 4529.231, 4136.923, 4124.103, 4478.462, 450, 0, []
1631431290.7583, 118, 0, 4456.41, 4529.231, 4133.333, 4122.051, 4444.615, 450, 0, []
1631431290.7662, 119, 0, 4401.026, 4544.103, 4070.769, 4116.41, 4392.308, 16204, 0, []
1631431290.774, 120, 0, 4344.103, 4544.615, 4072.308, 4111.282, 4339.487, 450, 0, []
1631431290.7819, 121, 0, 4307.692, 4528.205, 4105.641, 4111.282, 4290.256, 450, 0, []
1631431290.7898, 122, 0, 4284.615, 4527.692, 4125.641, 4113.846, 4251.282, 450, 0, []
1631431290.7978, 123, 0, 4245.128, 4548.718, 4079.487, 4104.103, 4225.641, 16204, 0, []
1631431290.8057, 124, 0, 4202.564, 4555.385, 4070.769, 4103.077, 4197.949, 450, 0, []
1631431290.8137, 125, 0, 4178.974, 4534.872, 4084.615, 4114.359, 4161.538, 450, 0, []
1631431290.8215, 126, 0, 4169.231, 4536.41, 4062.051, 4110.256, 4142.564, 450, 0, []
1631431290.8295, 127, 0, 4166.154, 4557.949, 4063.077, 4108.718, 4155.385, 16204, 0, []
1631431290.8374, 128, 0, 4162.564, 4560, 4062.564, 4126.154, 4159.487, 450, 0, []
1631431290.8454, 0, 0, 4154.359, 4555.897, 4073.333, 4130.769, 4135.385, 450, 0, []
1631431290.8533, 1, 0, 4144.615, 4565.641, 4063.59, 4124.615, 4125.128, 450, 0, []
1631431290.8612, 2, 0, 4139.487, 4569.744, 4063.59, 4131.795, 4126.667, 16190, 0, []
1631431290.8691, 3, 0, 4134.872, 4562.564, 4074.359, 4127.179, 4103.59, 450, 0, []
1631431290.8769, 4, 0, 4131.795, 4578.974, 4078.462, 4114.359, 4095.897, 16139, 0, []
1631431290.8848, 5, 0, 4136.923, 4596.41, 4112.308, 4125.128, 4122.051, 450, 0, []
1631431290.8926, 6, 0, 4153.333, 4591.282, 4087.692, 4141.538, 4137.436, 272, 0, []
1631431290.9004, 7, 0, 4160, 4594.872, 4086.667, 4132.821, 4133.846, 450, 0, []
1631431290.9082, 8, 0, 4150.769, 4603.077, 4093.846, 4124.615, 4140, 450, 0, []
1631431290.9161, 9, 0, 4163.077, 4588.718, 4062.051, 4149.744, 4153.333, 16162, 0, []
1631431290.9239, 10, 0, 4174.359, 4581.026, 4079.487, 4164.103, 4146.667, 450, 0, []
1631431290.9319, 11, 0, 4147.692, 4597.949, 4046.154, 4130.256, 4124.615, 16190, 0, []
1631431290.9397, 12, 0, 4137.949, 4595.385, 4073.333, 4127.692, 4125.641, 450, 0, []
1631431290.9477, 13, 0, 4161.538, 4584.103, 4115.897, 4168.205, 4139.487, 450, 0, []
1631431290.9556, 14, 0, 4160.513, 4588.718, 4052.821, 4161.538, 4136.923, 450, 0, []
1631431290.9636, 15, 0, 4145.128, 4582.564, 4077.949, 4135.897, 4143.077, 16190, 0, []
1631431290.9715, 16, 0, 4155.385, 4583.077, 4102.564, 4149.744, 4149.744, 0, 0, []
1631431290.9795, 17, 0, 4154.359, 4600, 4097.949, 4154.359, 4130.256, 0, 0, []
1631431290.9873, 18, 0, 4130.769, 4593.333, 4102.564, 4138.974, 4121.538, 0, 0, []
1631431290.9953, 19, 0, 4144.103, 4580, 4071.795, 4158.974, 4144.615, 0, 0, []
1631431291.0032, 20, 0, 4175.897, 4589.744, 4112.821, 4184.103, 4156.923, 0, 0, []
1631431291.0112, 21, 0, 4166.667, 4594.359, 4121.026, 4168.205, 4153.333, 0, 0, []
1631431291.0191, 22, 0, 4147.179, 4593.333, 4080.513, 4163.59, 4152.821, 0, 0, []
1631431291.0268, 23, 0, 4149.744, 4605.128, 4091.282, 4173.846, 4134.872, 0, 0, []
1631431291.0347, 24, 0, 4141.026, 4605.641, 4065.128, 4149.231, 4115.385, 0, 0, []
1631431291.0425, 25, 0, 4122.051, 4595.897, 4055.897, 4132.308, 4115.897, 0, 0, []
1631431291.0504, 26, 0, 4136.923, 4597.949, 4093.333, 4151.282, 4122.051, 0, 0, []
1631431291.0582, 27, 0, 4172.308, 4600.513, 4076.923, 4158.462, 4139.487, 0, 0, []
1631431291.066, 28, 0, 4184.615, 4611.795, 4085.128, 4159.487, 4168.718, 0, 0, []
1631431291.0738, 29, 0, 4177.436, 4618.462, 4103.59, 4167.692, 4169.231, 0, 0, []
1631431291.0817, 30, 0, 4168.718, 4604.615, 4077.436, 4152.821, 4146.154, 0, 0, []
1631431291.0895, 31, 0, 4160, 4604.615, 4072.821, 4137.949, 4151.282, 0, 0, []
1631431291.0975, 32, 0, 4161.026, 4612.821, 4093.846, 4154.359, 4160, 0, 0, []
1631431291.1053, 33, 0, 4165.641, 4610.256, 4110.256, 4165.641, 4143.59, 0, 0, []
1631431291.1133, 34, 0, 4154.872, 4619.487, 4080.513, 4150.769, 4133.846, 0, 0, []
1631431291.1212, 35, 0, 4147.692, 4631.795, 4077.436, 4146.667, 4138.974, 0, 0, []
1631431291.1292, 36, 0, 4169.744, 4630.256, 4108.718, 4164.615, 4140.513, 0, 0, []
1631431291.1371, 37, 0, 4174.872, 4634.359, 4081.538, 4161.026, 4136.923, 0, 0, []
1631431291.145, 38, 0, 4151.282, 4633.846, 4079.487, 4136.923, 4134.359, 0, 0, []
1631431291.1529, 39, 0, 4153.846, 4615.897, 4092.308, 4142.564, 4137.949, 0, 0, []
1631431291.1609, 40, 0, 4168.205, 4612.308, 4102.051, 4158.974, 4136.923, 0, 0, []
1631431291.1688, 41, 0, 4155.385, 4623.59, 4109.744, 4149.744, 4131.282, 0, 0, []
1631431291.1766, 42, 0, 4147.692, 4636.41, 4076.923, 4148.718, 4129.231, 0, 0, []
1631431291.1844, 43, 0, 4158.974, 4628.205, 4087.179, 4158.974, 4127.692, 0, 0, []
1631431291.1922, 44, 0, 4138.974, 4606.667, 4077.436, 4142.564, 4112.821, 0, 0, []
1631431291.2001, 45, 0, 4110.769, 4610.256, 4053.846, 4133.846, 4097.436, 0, 0, []
1631431291.2079, 46, 0, 4134.872, 4628.205, 4087.179, 4153.333, 4107.179, 0, 0, []
1631431291.2158, 47, 0, 4165.641, 4626.154, 4061.538, 4143.077, 4127.692, 0, 0, []
1631431291.2235, 48, 0, 4168.205, 4607.692, 4049.744, 4118.462, 4149.744, 0, 0, []
1631431291.2314, 49, 0, 4200.513, 4609.744, 4080.513, 4138.462, 4187.692, 0, 0, []
1631431291.2392, 50, 0, 4252.308, 4646.154, 4097.949, 4173.846, 4225.128, 0, 0, []
1631431291.2472, 51, 0, 4254.872, 4660.513, 4114.359, 4164.103, 4230.256, 0, 0, []
1631431291.2551, 52, 0, 4221.538, 4625.641, 4083.077, 4133.846, 4211.795, 0, 0, []
1631431291.263, 53, 0, 4204.615, 4612.821, 4090.769, 4138.462, 4193.333, 0, 0, []
1631431291.2709, 54, 0, 4206.667, 4645.641, 4096.923, 4156.41, 4175.385, 0, 0, []
1631431291.2789, 55, 0, 4205.641, 4655.385, 4075.897, 4150.256, 4165.641, 0, 0, []
1631431291.2868, 56, 0, 4192.308, 4636.923, 4106.154, 4146.667, 4167.692, 0, 0, []
1631431291.2948, 57, 0, 4184.103, 4642.051, 4098.974, 4163.077, 4159.487, 0, 0, []
1631431291.3026, 58, 0, 4183.59, 4652.308, 4110.256, 4170.256, 4136.923, 0, 0, []
1631431291.3106, 59, 0, 4174.359, 4648.205, 4122.564, 4150.769, 4131.795, 0, 0, []
1631431291.3185, 60, 0, 4167.179, 4647.179, 4090.769, 4138.462, 4142.564, 0, 0, []
1631431291.3263, 61, 0, 4175.897, 4651.282, 4113.333, 4151.282, 4134.359, 0, 0, []
1631431291.3342, 62, 0, 4183.59, 4659.487, 4107.692, 4162.051, 4124.615, 0, 0, []
1631431291.342, 63, 0, 4170.256, 4653.333, 4096.923, 4157.949, 4128.718, 0, 0, []
1631431291.3498, 64, 0, 4155.897, 4629.231, 4096.41, 4151.282, 4123.077, 450, 0, []
1631431291.3576, 65, 0, 4154.872, 4629.231, 4069.231, 4147.179, 4102.564, 450, 0, []
1631431291.3655, 66, 0, 4151.282, 4662.051, 4088.718, 4137.436, 4094.359, 16188, 0, []
1631431291.3733, 67, 0, 4136.923, 4662.051, 4070.256, 4129.231, 4094.872, 450, 0, []
1631431291.3812, 68, 0, 4128.718, 4642.564, 4058.462, 4134.872, 4079.487, 16143, 0, []
1631431291.3889, 69, 0, 4142.564, 4668.205, 4091.795, 4143.077, 4077.436, 450, 0, []
1631431291.3969, 70, 0, 4153.846, 4681.026, 4076.923, 4146.667, 4102.564, 304, 0, []
1631431291.4048, 71, 0, 4152.308, 4652.308, 4083.59, 4146.667, 4115.385, 450, 0, []
1631431291.4128, 72, 0, 4152.821, 4653.846, 4072.821, 4140, 4098.974, 450, 0, []
1631431291.4207, 73, 0, 4147.692, 4665.641, 4073.333, 4127.692, 4093.333, 16163, 0, []
1631431291.4286, 74, 0, 4145.128, 4645.128, 4097.949, 4119.487, 4109.744, 450, 0, []
1631431291.4365, 75, 0, 4153.846, 4644.103, 4072.308, 4123.59, 4105.128, 16202, 0, []
1631431291.4445, 76, 0, 4151.795, 4662.051, 4095.385, 4119.487, 4091.282, 450, 0, []
1631431291.4524, 77, 0, 4136.41, 4652.821, 4090.256, 4106.667, 4091.282, 450, 0, []
1631431291.4603, 78, 0, 4128.718, 4654.872, 4067.179, 4105.641, 4080, 450, 0, []
1631431291.4681, 79, 0, 4136.923, 4669.231, 4091.795, 4114.872, 4076.41, 16202, 0, []
1631431291.476, 80, 0, 4147.179, 4652.308, 4072.821, 4121.026, 4103.59, 450, 0, []
1631431291.4838, 81, 0, 4147.179, 4640.513, 4082.051, 4125.128, 4106.154, 450, 0, []
1631431291.4916, 82, 0, 4151.282, 4657.436, 4085.128, 4130.769, 4092.821, 450, 0, []
1631431291.4995, 83, 0, 4161.026, 4670.769, 4083.59, 4140, 4114.359, 16202, 0, []
1631431291.5072, 84, 0, 4157.949, 4664.103, 4102.564, 4143.59, 4123.077, 450, 0, []
1631431291.5151, 85, 0, 4157.949, 4657.436, 4074.872, 4130.256, 4104.103, 450, 0, []
1631431291.5229, 86, 0, 4164.615, 4664.103, 4096.41, 4116.923, 4113.333, 450, 0, []
1631431291.5308, 87, 0, 4158.974, 4663.59, 4092.308, 4117.436, 4129.231, 16202, 0, []
1631431291.5386, 88, 0, 4157.949, 4652.308, 4075.897, 4126.154, 4117.436, 450, 0, []
1631431291.5464, 89, 0, 4172.821, 4658.462, 4104.615, 4136.923, 4123.077, 450, 0, []
1631431291.5542, 90, 0, 4179.487, 4670.256, 4087.692, 4144.103, 4144.103, 450, 0, []
1631431291.5622, 91, 0, 4182.564, 4667.179, 4096.923, 4146.667, 4135.897, 16202, 0, []
1631431291.5701, 92, 0, 4183.077, 4674.359, 4077.436, 4131.795, 4115.385, 450, 0, []
1631431291.5781, 93, 0, 4162.564, 4672.821, 4069.231, 4115.897, 4115.385, 450, 0, []
1631431291.5859, 94, 0, 4155.385, 4648.205, 4103.59, 4128.718, 4124.103, 450, 0, []
1631431291.5939, 95, 0, 4168.718, 4643.077, 4062.051, 4133.333, 4123.077, 16202, 0, []
1631431291.6018, 96, 0, 4168.718, 4653.333, 4083.077, 4121.538, 4127.692, 450, 0, []
1631431291.6098, 97, 0, 4169.231, 4661.538, 4104.103, 4132.821, 4136.923, 450, 0, []
1631431291.6177, 98, 0, 4170.769, 4658.462, 4055.897, 4131.795, 4125.641, 450, 0, []
1631431291.6256, 99, 0, 4142.564, 4642.051, 4064.615, 4097.949, 4098.974, 16202, 0, []
1631431291.6335, 100, 0, 4124.103, 4646.667, 4058.462, 4098.974, 4092.821, 450, 0, []
1631431291.6413, 101, 0, 4146.154, 4662.051, 4071.282, 4130.256, 4105.128, 450, 0, []
1631431291.6492, 102, 0, 4149.744, 4655.385, 4086.667, 4125.641, 4105.128, 450, 0, []
1631431291.657, 103, 0, 4128.205, 4651.282, 4054.359, 4112.308, 4095.385, 16202, 0, []
1631431291.6648, 104, 0, 4142.051, 4658.462, 4083.077, 4129.744, 4105.641, 450, 0, []
1631431291.6726, 105, 0, 4162.564, 4661.026, 4088.205, 4137.949, 4123.59, 450, 0, []
1631431291.6805, 106, 0, 4153.846, 4655.897, 4081.026, 4127.692, 4127.179, 450, 0, []
1631431291.6883, 107, 0, 4152.308, 4642.051, 4097.436, 4126.154, 4120, 16202, 0, []
1631431291.6962, 108, 0, 4154.872, 4629.231, 4069.231, 4122.564, 4111.795, 450, 0, []
1631431291.704, 109, 0, 4148.205, 4641.026, 4081.538, 4115.897, 4108.205, 450, 0, []
1631431291.7119, 110, 0, 4152.308, 4664.103, 4080.513, 4114.872, 4107.179, 450, 0, []
1631431291.7198, 111, 0, 4157.949, 4658.974, 4067.179, 4111.282, 4107.692, 16202, 0, []
1631431291.7278, 112, 0, 4153.846, 4642.051, 4088.718, 4112.821, 4112.308, 450, 0, []
1631431291.7357, 113, 0, 4154.359, 4648.718, 4069.231, 4123.59, 4105.641, 450, 0, []
1631431291.7437, 114, 0, 4148.718, 4656.41, 4070.256, 4119.487, 4091.795, 450, 0, []
1631431291.7515, 115, 0, 4138.974, 4650.256, 4072.821, 4112.821, 4099.487, 16202, 0, []
1631431291.7595, 116, 0, 4149.231, 4658.462, 4074.872, 4129.744, 4116.923, 450, 0, []
1631431291.7674, 117, 0, 4156.923, 4657.949, 4088.205, 4128.718, 4114.872, 450, 0, []
1631431291.7754, 118, 0, 4137.949, 4632.308, 4041.538, 4102.564, 4099.487, 450, 0, []
1631431291.7833, 119, 0, 4127.692, 4627.179, 4046.154, 4105.641, 4089.231, 16202, 0, []
1631431291.791, 120, 0, 4149.231, 4648.205, 4076.41, 4133.333, 4103.077, 450, 0, []
1631431291.7989, 121, 0, 4161.538, 4658.974, 4081.538, 4140, 4126.667, 450, 0, []
1631431291.8067, 122, 0, 4153.846, 4659.487, 4103.077, 4126.154, 4122.051, 450, 0, []
1631431291.8146, 123, 0, 4152.308, 4650.256, 4072.308, 4109.231, 4094.872, 16202, 0, []
1631431291.8224, 124, 0, 4148.205, 4641.026, 4066.667, 4101.538, 4089.231, 450, 0, []
1631431291.8302, 125, 0, 4140, 4640, 4073.846, 4112.308, 4100.513, 450, 0, []
1631431291.838, 126, 0, 4136.41, 4634.872, 4051.282, 4118.974, 4085.641, 450, 0, []
1631431291.8459, 127, 0, 4131.282, 4636.923, 4071.282, 4105.128, 4071.282, 16202, 0, []
1631431291.8537, 128, 0, 4134.872, 4643.077, 4061.026, 4108.205, 4093.846, 450, 0, []
1631431291.8616, 0, 0, 4152.821, 4632.821, 4066.154, 4129.231, 4105.641, 450, 0, []
1631431291.8693, 1, 0, 4156.923, 4628.718, 4078.462, 4123.59, 4095.897, 450, 0, []
1631431291.8773, 2, 0, 4152.308, 4639.487, 4060.513, 4112.821, 4105.641, 16190, 0, []
1631431291.8852, 3, 0, 4158.974, 4637.949, 4081.026, 4125.641, 4114.359, 450, 0, []
1631431291.8932, 4, 0, 4165.641, 4634.872, 4069.231, 4122.564, 4111.795, 16139, 0, []
1631431291.9011, 5, 0, 4158.974, 4640, 4072.821, 4109.231, 4121.538, 450, 0, []
1631431291.909, 6, 0, 4156.923, 4646.154, 4085.641, 4122.051, 4122.051, 277, 0, []
1631431291.9169, 7, 0, 4170.256, 4651.282, 4068.205, 4137.949, 4113.333, 450, 0, []
1631431291.9249, 8, 0, 4173.333, 4644.615, 4101.026, 4131.282, 4125.128, 450, 0, []
1631431291.9328, 9, 0, 4163.59, 4644.103, 4086.154, 4130.769, 4130.769, 16164, 0, []
1631431291.9408, 10, 0, 4171.795, 4658.462, 4071.795, 4140.513, 4118.462, 450, 0, []
1631431291.9486, 11, 0, 4181.026, 4658.462, 4099.487, 4132.821, 4123.077, 16203, 0, []
1631431291.9564, 12, 0, 4156.41, 4634.872, 4070.256, 4117.436, 4123.077, 450, 0, []
1631431291.9643, 13, 0, 4140.513, 4621.026, 4072.308, 4120.513, 4105.641, 450, 0, []
1631431291.9721, 14, 0, 4161.538, 4629.744, 4077.949, 4127.179, 4103.59, 450, 0, []
1631431291.98, 15, 0, 4165.641, 4633.333, 4075.385, 4116.41, 4116.923, 16203, 0, []
1631431291.9877, 16, 0, 4156.923, 4621.026, 4089.744, 4117.949, 4123.59, 0, 0, []
1631431291.9956, 17, 0, 4174.872, 4625.641, 4075.385, 4135.385, 4120, 0, 0, []
1631431292.0034, 18, 0, 4182.051, 4651.282, 4106.154, 4133.846, 4116.41, 0, 0, []
1631431292.0113, 19, 0, 4157.436, 4660.513, 4095.385, 4120, 4113.846, 0, 0, []
1631431292.0191, 20, 0, 4151.795, 4652.308, 4061.026, 4123.077, 4115.385, 0, 0, []
1631431292.0271, 21, 0, 4176.41, 4653.333, 4097.436, 4128.718, 4118.974, 0, 0, []
1631431292.0349, 22, 0, 4178.462, 4667.692, 4089.744, 4118.974, 4126.667, 0, 0, []
1631431292.0429, 23, 0, 4167.179, 4675.385, 4090.769, 4124.103, 4135.385, 0, 0, []
1631431292.0508, 24, 0, 4177.949, 4672.308, 4092.821, 4142.051, 4131.795, 0, 0, []
1631431292.0588, 25, 0, 4185.641, 4663.077, 4080.513, 4135.897, 4125.128, 0, 0, []
1631431292.0667, 26, 0, 4170.769, 4643.59, 4095.385, 4123.59, 4128.205, 0, 0, []
1631431292.0746, 27, 0, 4167.692, 4633.846, 4075.897, 4134.359, 4127.692, 0, 0, []
1631431292.0825, 28, 0, 4178.974, 4646.667, 4097.949, 4142.051, 4120, 0, 0, []
1631431292.0905, 29, 0, 4171.795, 4661.538, 4103.59, 4132.308, 4126.667, 0, 0, []
1631431292.0984, 30, 0, 4167.692, 4655.897, 4074.359, 4134.359, 4134.872, 0, 0, []
1631431292.1064, 31, 0, 4182.564, 4649.231, 4096.41, 4140.513, 4125.641, 0, 0, []
1631431292.1142, 32, 0, 4177.436, 4643.077, 4074.359, 4122.564, 4117.436, 0, 0, []
1631431292.122, 33, 0, 4158.462, 4626.667, 4078.462, 4116.923, 4124.615, 0, 0, []
1631431292.1299, 34, 0, 4169.744, 4631.795, 4100.513, 4138.462, 4129.231, 0, 0, []
1631431292.1377, 35, 0, 4192.821, 4655.385, 4083.59, 4138.974, 4133.333, 0, 0, []
1631431292.1456, 36, 0, 4192.821, 4651.795, 4100.513, 4125.641, 4141.538, 0, 0, []
1631431292.1533, 37, 0, 4184.615, 4637.436, 4079.487, 4130.769, 4133.333, 0, 0, []
1631431292.1612, 38, 0, 4178.462, 4635.897, 4080, 4129.744, 4111.795, 0, 0, []
1631431292.169, 39, 0, 4174.872, 4633.846, 4101.026, 4122.051, 4114.359, 0, 0, []
1631431292.177, 40, 0, 4180.513, 4627.692, 4077.949, 4133.333, 4137.436, 0, 0, []
1631431292.1849, 41, 0, 4189.231, 4620.513, 4093.333, 4139.487, 4134.872, 0, 0, []
1631431292.1928, 42, 0, 4185.641, 4620.513, 4078.462, 4120.513, 4121.538, 0, 0, []
1631431292.2007, 43, 0, 4178.462, 4632.821, 4075.897, 4118.462, 4128.205, 0, 0, []
1631431292.2087, 44, 0, 4186.667, 4646.667, 4095.897, 4136.923, 4136.923, 0, 0, []
1631431292.2166, 45, 0, 4189.744, 4646.154, 4069.744, 4127.692, 4130.769, 0, 0, []
1631431292.2246, 46, 0, 4182.051, 4646.154, 4091.795, 4112.308, 4133.846, 0, 0, []
1631431292.2324, 47, 0, 4191.282, 4650.769, 4089.231, 4124.103, 4150.256, 0, 0, []
1631431292.2404, 48, 0, 4206.154, 4644.615, 4079.487, 4134.359, 4148.205, 0, 0, []
1631431292.2483, 49, 0, 4200.513, 4637.949, 4094.359, 4121.026, 4141.538, 0, 0, []
1631431292.2563, 50, 0, 4189.744, 4633.846, 4070.256, 4116.923, 4144.103, 0, 0, []
1631431292.2642, 51, 0, 4197.436, 4631.795, 4092.308, 4127.692, 4139.487, 0, 0, []
1631431292.2719, 52, 0, 4206.154, 4641.026, 4084.615, 4121.538, 4131.282, 0, 0, []
1631431292.2798, 53, 0, 4195.897, 4655.897, 4071.282, 4115.385, 4135.385, 0, 0, []
1631431292.2876, 54, 0, 4183.59, 4654.359, 4098.462, 4125.128, 4143.077, 0, 0, []
1631431292.2955, 55, 0, 4183.077, 4636.41, 4066.154, 4120, 4132.308, 0, 0, []
1631431292.3033, 56, 0, 4179.487, 4632.308, 4070.256, 4104.615, 4122.051, 0, 0, []
1631431292.3111, 57, 0, 4180, 4648.205, 4081.538, 4116.41, 4132.308, 0, 0, []
1631431292.3189, 58, 0, 4195.897, 4651.795, 4078.462, 4136.41, 4139.487, 0, 0, []
1631431292.3268, 59, 0, 4207.692, 4631.282, 4101.026, 4126.154, 4137.436, 0, 0, []
1631431292.3346, 60, 0, 4201.538, 4628.205, 4084.103, 4116.41, 4148.718, 0, 0, []
1631431292.3426, 61, 0, 4196.923, 4641.538, 4104.615, 4137.949, 4154.359, 0, 0, []
1631431292.3504, 62, 0, 4205.128, 4638.974, 4100, 4157.949, 4140, 0, 0, []
1631431292.3584, 63, 0, 4204.103, 4627.179, 4070.256, 4148.205, 4138.462, 0, 0, []
1631431292.3663, 64, 0, 4196.41, 4620, 4100.513, 4142.051, 4149.231, 450, 0, []
1631431292.3743, 65, 0, 4207.179, 4622.051, 4078.974, 4153.333, 4145.641, 450, 0, []
1631431292.3822, 66, 0, 4220.513, 4638.462, 4082.051, 4147.179, 4137.436, 16187, 0, []
1631431292.3902, 67, 0, 4208.718, 4656.923, 4097.436, 4124.103, 4141.026, 450, 0, []
1631431292.398, 68, 0, 4201.538, 4644.103, 4070.769, 4124.103, 4146.154, 16138, 0, []
1631431292.406, 69, 0, 4213.333, 4628.205, 4090.769, 4136.41, 4145.128, 450, 0, []
1631431292.4139, 70, 0, 4209.744, 4638.974, 4078.974, 4123.59, 4144.103, 274, 0, []
1631431292.4218, 71, 0, 4194.872, 4640.513, 4076.41, 4117.949, 4147.692, 450, 0, []
1631431292.4297, 72, 0, 4201.538, 4623.59, 4084.615, 4139.487, 4152.821, 450, 0, []
1631431292.4374, 73, 0, 4211.795, 4622.564, 4073.846, 4142.564, 4145.641, 16161, 0, []
1631431292.4453, 74, 0, 4197.436, 4641.538, 4105.641, 4125.128, 4140, 450, 0, []
1631431292.4531, 75, 0, 4185.128, 4644.615, 4077.949, 4117.436, 4137.436, 16202, 0, []
1631431292.461, 76, 0, 4187.692, 4629.231, 4067.692, 4120, 4125.641, 450, 0, []
1631431292.4689, 77, 0, 4182.564, 4622.051, 4088.718, 4114.872, 4119.487, 450, 0, []
1631431292.4767, 78, 0, 4169.744, 4631.282, 4056.41, 4114.872, 4120.513, 450, 0, []
1631431292.4845, 79, 0, 4170.256, 4638.974, 4080, 4126.154, 4113.333, 16202, 0, []
1631431292.4924, 80, 0, 4170.769, 4627.692, 4087.179, 4114.359, 4109.231, 450, 0, []
1631431292.5002, 81, 0, 4169.744, 4611.795, 4077.436, 4096.41, 4121.026, 450, 0, []
1631431292.5082, 82, 0, 4185.641, 4617.949, 4084.615, 4107.179, 4123.59, 450, 0, []
1631431292.516, 83, 0, 4188.205, 4635.385, 4057.436, 4116.41, 4113.846, 16202, 0, []
1631431292.524, 84, 0, 4169.744, 4628.205, 4081.026, 4114.872, 4121.538, 450, 0, []
1631431292.5319, 85, 0, 4173.333, 4627.179, 4080, 4122.564, 4130.256, 450, 0, []
1631431292.5399, 86, 0, 4197.949, 4650.769, 4069.231, 4120.513, 4132.308, 450, 0, []
1631431292.5478, 87, 0, 4209.231, 4642.564, 4094.359, 4112.308, 4152.308, 16202, 0, []
1631431292.5557, 88, 0, 4199.487, 4612.308, 4067.692, 4121.026, 4156.923, 450, 0, []
1631431292.5636, 89, 0, 4182.051, 4612.821, 4067.179, 4118.974, 4128.718, 450, 0, []
1631431292.5714, 90, 0, 4168.205, 4611.282, 4063.077, 4100.513, 4119.487, 450, 0, []
1631431292.5793, 91, 0, 4173.333, 4581.538, 4067.692, 4108.205, 4133.333, 16202, 0, []
1631431292.5871, 92, 0, 4193.333, 4575.385, 4105.641, 4132.821, 4137.436, 450, 0, []
1631431292.5949, 93, 0, 4202.564, 4589.744, 4075.385, 4129.744, 4145.128, 450, 0, []
1631431292.6027, 94, 0, 4195.385, 4576.41, 4074.359, 4118.974, 4157.436, 450, 0, []
1631431292.6106, 95, 0, 4198.974, 4567.692, 4074.359, 4128.205, 4154.872, 16202, 0, []
1631431292.6184, 96, 0, 4207.179, 4576.41, 4060, 4130.769, 4149.744, 450, 0, []
1631431292.6263, 97, 0, 4187.179, 4568.205, 4085.641, 4118.974, 4142.564, 450, 0, []
1631431292.634, 98, 0, 4168.718, 4561.538, 4065.641, 4122.564, 4127.179, 450, 0, []
1631431292.6419, 99, 0, 4173.333, 4571.282, 4075.385, 4128.718, 4118.462, 16202, 0, []
1631431292.6497, 100, 0, 4175.897, 4576.923, 4083.077, 4106.154, 4124.615, 450, 0, []
1631431292.6576, 101, 0, 4182.051, 4572.308, 4074.359, 4095.385, 4136.41, 450, 0, []
1631431292.6654, 102, 0, 4204.615, 4573.333, 4112.821, 4117.949, 4140, 450, 0, []
1631431292.6733, 103, 0, 4210.256, 4577.949, 4082.564, 4121.538, 4138.974, 16202, 0, []
1631431292.6812, 104, 0, 4189.231, 4570.256, 4068.718, 4107.179, 4141.538, 450, 0, []
1631431292.6892, 105, 0, 4177.436, 4557.949, 4075.385, 4111.795, 4131.795, 450, 0, []
1631431292.6971, 106, 0, 4177.949, 4562.051, 4053.333, 4121.026, 4121.538, 450, 0, []
1631431292.7051, 107, 0, 4184.103, 4583.077, 4084.615, 4120.513, 4138.462, 16202, 0, []
1631431292.7129, 108, 0, 4205.641, 4597.436, 4067.692, 4127.179, 4158.462, 450, 0, []
1631431292.7209, 109, 0, 4222.051, 4597.949, 4059.487, 4131.795, 4160, 450, 0, []
1631431292.7288, 110, 0, 4214.872, 4595.385, 4082.051, 4126.667, 4167.179, 450, 0, []
1631431292.7366, 111, 0, 4205.641, 4590.769, 4065.641, 4134.872, 4173.333, 16202, 0, []
1631431292.7445, 112, 0, 4210.769, 4585.128, 4090.769, 4148.718, 4165.641, 450, 0, []
1631431292.7523, 113, 0, 4215.385, 4577.436, 4081.538, 4138.462, 4160.513, 450, 0, []
1631431292.7601, 114, 0, 4213.333, 4575.385, 4071.282, 4131.795, 4171.795, 450, 0, []
1631431292.7679, 115, 0, 4218.974, 4575.385, 4086.667, 4150.256, 4184.615, 16202, 0, []
1631431292.7758, 116, 0, 4229.744, 4581.026, 4062.564, 4155.897, 4183.077, 450, 0, []
1631431292.7836, 117, 0, 4230.256, 4598.974, 4087.179, 4142.051, 4179.487, 450, 0, []
1631431292.7915, 118, 0, 4223.077, 4601.026, 4082.051, 4137.436, 4184.615, 450, 0, []
1631431292.7992, 119, 0, 4207.692, 4587.179, 4060.513, 4138.462, 4163.59, 16202, 0, []
1631431292.8072, 120, 0, 4184.615, 4592.821, 4069.231, 4126.667, 4124.103, 450, 0, []
1631431292.8151, 121, 0, 4163.59, 4596.41, 4042.564, 4113.846, 4119.487, 450, 0, []
1631431292.8231, 122, 0, 4159.487, 4578.462, 4062.564, 4120, 4135.897, 450, 0, []
1631431292.831, 123, 0, 4174.359, 4590.256, 4068.718, 4130.769, 4132.821, 16202, 0, []
1631431292.8389, 124, 0, 4182.051, 4601.026, 4064.615, 4125.128, 4130.769, 450, 0, []
1631431292.8468, 125, 0, 4179.487, 4575.897, 4088.718, 4121.538, 4150.256, 450, 0, []
1631431292.8548, 126, 0, 4194.359, 4575.385, 4058.462, 4140.513, 4171.795, 450, 0, []
1631431292.8627, 127, 0, 4207.692, 4595.897, 4065.128, 4148.205, 4166.667, 16202, 0, []
1631431292.8707, 128, 0, 4191.795, 4602.564, 4070.769, 4125.641, 4154.872, 450, 0, []
1631431292.8785, 0, 0, 4181.026, 4608.718, 4054.359, 4115.897, 4153.333, 450, 0, []
1631431292.8863, 1, 0, 4196.41, 4611.282, 4065.128, 4124.103, 4147.179, 450, 0, []
1631431292.8942, 2, 0, 4205.128, 4604.103, 4045.641, 4120.513, 4142.051, 16190, 0, []
1631431292.902, 3, 0, 4202.051, 4595.385, 4074.359, 4116.923, 4160, 450, 0, []
1631431292.9099, 4, 0, 4216.923, 4584.615, 4087.179, 4132.821, 4188.205, 16136, 0, []
1631431292.9176, 5, 0, 4257.436, 4590.256, 4069.744, 4151.795, 4210.769, 450, 0, []
1631431292.9255, 6, 0, 4307.179, 4611.795, 4108.205, 4157.949, 4251.282, 271, 0, []
1631431292.9333, 7, 0, 4365.128, 4608.718, 4088.205, 4156.41, 4325.641, 450, 0, []
1631431292.9412, 8, 0, 4431.795, 4591.795, 4079.487, 4158.974, 4407.692, 450, 0, []
1631431292.949, 9, 0, 4495.897, 4598.462, 4090.256, 4156.41, 4467.179, 16150, 0, []
1631431292.9568, 10, 0, 4538.974, 4614.872, 4072.821, 4144.615, 4499.487, 450, 0, []
1631431292.9646, 11, 0, 4558.462, 4604.615, 4098.462, 4144.615, 4518.462, 16201, 0, []
1631431292.9726, 12, 0, 4554.872, 4588.205, 4081.538, 4152.308, 4520, 450, 0, []
1631431292.9805, 13, 0, 4525.641, 4599.487, 4081.026, 4155.897, 4494.359, 450, 0, []
1631431292.9885, 14, 0, 4487.692, 4606.154, 4102.051, 4159.487, 4456.923, 450, 0, []
1631431292.9963, 15, 0, 4448.205, 4587.692, 4080.513, 4163.59, 4418.462, 16201, 0, []
1631431293.0043, 16, 0, 4403.077, 4590.256, 4108.718, 4171.795, 4372.308, 0, 0, []
1631431293.0122, 17, 0, 4356.41, 4597.949, 4095.385, 4176.923, 4316.41, 0, 0, []
1631431293.0202, 18, 0, 4313.846, 4565.641, 4069.744, 4168.718, 4254.872, 0, 0, []
1631431293.0281, 19, 0, 4275.897, 4539.487, 4078.462, 4153.333, 4207.179, 0, 0, []
1631431293.036, 20, 0, 4248.205, 4547.179, 4073.333, 4149.744, 4197.436, 0, 0, []
1631431293.0439, 21, 0, 4235.385, 4547.179, 4109.231, 4160, 4198.462, 0, 0, []
1631431293.0519, 22, 0, 4226.667, 4537.436, 4087.179, 4159.487, 4174.872, 0, 0, []
1631431293.0598, 23, 0, 4220.513, 4540.513, 4067.692, 4151.795, 4162.051, 0, 0, []
1631431293.0676, 24, 0, 4216.923, 4546.154, 4102.564, 4157.949, 4183.59, 0, 0, []
1631431293.0754, 25, 0, 4212.821, 4540.513, 4086.154, 4166.154, 4190.256, 0, 0, []
1631431293.0832, 26, 0, 4216.923, 4530.769, 4096.41, 4174.872, 4173.333, 0, 0, []
1631431293.0911, 27, 0, 4225.641, 4537.436, 4099.487, 4184.615, 4174.872, 0, 0, []
1631431293.0989, 28, 0, 4220.513, 4551.795, 4104.615, 4181.538, 4185.641, 0, 0, []
1631431293.1069, 29, 0, 4213.333, 4545.641, 4126.667, 4176.923, 4186.154, 0, 0, []
1631431293.1148, 30, 0, 4223.077, 4527.692, 4092.821, 4188.718, 4184.615, 0, 0, []
1631431293.1227, 31, 0, 4230.256, 4520, 4104.615, 4191.795, 4184.615, 0, 0, []
1631431293.1306, 32, 0, 4219.487, 4520.513, 4100.513, 4173.333, 4185.128, 0, 0, []
1631431293.1386, 33, 0, 4208.718, 4514.872, 4072.821, 4166.667, 4183.077, 0, 0, []
1631431293.1465, 34, 0, 4221.026, 4517.949, 4101.026, 4180.513, 4180.513, 0, 0, []
1631431293.1545, 35, 0, 4241.538, 4535.385, 4093.846, 4189.231, 4189.231, 0, 0, []
1631431293.1623, 36, 0, 4231.795, 4536.923, 4106.154, 4184.615, 4198.974, 0, 0, []
1631431293.1703, 37, 0, 4211.795, 4520, 4108.718, 4181.538, 4193.333, 0, 0, []
1631431293.1782, 38, 0, 4218.462, 4515.385, 4084.103, 4188.718, 4175.897, 0, 0, []
1631431293.1862, 39, 0, 4230.256, 4522.564, 4106.154, 4187.179, 4168.205, 0, 0, []
1631431293.1941, 40, 0, 4219.487, 4522.051, 4088.718, 4177.436, 4177.949, 0, 0, []
1631431293.2018, 41, 0, 4215.897, 4523.59, 4098.974, 4184.103, 4189.744, 0, 0, []
1631431293.2097, 42, 0, 4231.795, 4534.359, 4116.41, 4196.923, 4186.154, 0, 0, []
1631431293.2175, 43, 0, 4234.359, 4522.051, 4095.897, 4182.564, 4178.462, 0, 0, []
1631431293.2254, 44, 0, 4224.103, 4501.026, 4112.821, 4168.205, 4184.615, 0, 0, []
1631431293.2332, 45, 0, 4230.769, 4506.154, 4094.359, 4181.026, 4191.282, 0, 0, []
1631431293.241, 46, 0, 4231.795, 4509.231, 4100.513, 4181.026, 4183.077, 0, 0, []
1631431293.2488, 47, 0, 4220.513, 4499.487, 4117.436, 4158.462, 4179.487, 0, 0, []
1631431293.2567, 48, 0, 4220.513, 4510.256, 4097.436, 4156.923, 4193.333, 0, 0, []
1631431293.2645, 49, 0, 4233.846, 4522.564, 4123.077, 4183.59, 4205.128, 0, 0, []
1631431293.2725, 50, 0, 4242.051, 4510.769, 4104.103, 4192.821, 4197.436, 0, 0, []
1631431293.2803, 51, 0, 4241.026, 4499.487, 4097.436, 4179.487, 4196.41, 0, 0, []
1631431293.2883, 52, 0, 4240, 4507.179, 4122.564, 4178.462, 4208.718, 0, 0, []
1631431293.2962, 53, 0, 4235.385, 4518.462, 4102.564, 4186.154, 4201.538, 0, 0, []
1631431293.3042, 54, 0, 4231.795, 4512.821, 4115.385, 4187.179, 4177.949, 0, 0, []
1631431293.3121, 55, 0, 4233.333, 4496.923, 4101.026, 4179.487, 4181.026, 0, 0, []
1631431293.32, 56, 0, 4231.282, 4496.41, 4101.026, 4174.872, 4197.949, 0, 0, []
1631431293.3279, 57, 0, 4229.744, 4495.385, 4115.385, 4177.436, 4189.744, 0, 0, []
1631431293.3359, 58, 0, 4230.769, 4474.872, 4077.436, 4180, 4180.513, 0, 0, []
1631431293.3438, 59, 0, 4233.333, 4472.308, 4108.718, 4184.103, 4196.41, 0, 0, []
1631431293.3516, 60, 0, 4240, 4495.385, 4125.128, 4191.795, 4210.769, 0, 0, []
1631431293.3594, 61, 0, 4249.231, 4497.949, 4114.359, 4202.564, 4205.128, 0, 0, []
1631431293.3672, 62, 0, 4249.744, 4481.538, 4127.179, 4201.026, 4188.718, 0, 0, []
1631431293.3751, 63, 0, 4244.615, 4482.051, 4099.487, 4185.128, 4188.718, 0, 0, []
1631431293.3829, 64, 0, 4244.615, 4489.744, 4123.077, 4184.103, 4208.718, 450, 0, []
1631431293.3908, 65, 0, 4249.744, 4485.641, 4126.667, 4200, 4214.359, 450, 0, []
1631431293.3985, 66, 0, 4245.641, 4487.692, 4106.154, 4202.564, 4196.923, 16195, 0, []
1631431293.4064, 67, 0, 4233.333, 4501.538, 4133.846, 4188.205, 4192.308, 450, 0, []
1631431293.4142, 68, 0, 4231.282, 4504.615, 4109.744, 4188.205, 4209.744, 16138, 0, []
1631431293.4222, 69, 0, 4238.974, 4498.462, 4106.667, 4206.154, 4215.385, 450, 0, []
1631431293.4301, 70, 0, 4246.667, 4514.359, 4109.744, 4209.231, 4205.128, 273, 0, []
1631431293.4381, 71, 0, 4249.744, 4527.692, 4097.436, 4187.179, 4202.051, 450, 0, []
1631431293.4459, 72, 0, 4230.769, 4523.077, 4123.59, 4165.641, 4195.897, 450, 0, []
1631431293.4538, 73, 0, 4213.846, 4532.821, 4097.436, 4171.795, 4183.59, 16151, 0, []
1631431293.4617, 74, 0, 4235.897, 4532.821, 4093.846, 4189.744, 4182.564, 450, 0, []
1631431293.4696, 75, 0, 4266.154, 4516.41, 4113.333, 4193.846, 4196.41, 16200, 0, []
1631431293.4775, 76, 0, 4262.564, 4517.949, 4112.308, 4198.974, 4217.949, 450, 0, []
1631431293.4852, 77, 0, 4258.974, 4514.872, 4135.897, 4209.231, 4237.436, 450, 0, []
1631431293.4932, 78, 0, 4265.641, 4505.641, 4096.41, 4182.564, 4225.128, 450, 0, []
1631431293.5011, 79, 0, 4250.769, 4530.256, 4084.615, 4132.821, 4190.256, 16200, 0, []
1631431293.509, 80, 0, 4232.821, 4551.795, 4105.641, 4125.128, 4190.769, 450, 0, []
1631431293.5168, 81, 0, 4231.282, 4527.692, 4089.231, 4160.513, 4202.051, 450, 0, []
1631431293.5246, 82, 0, 4232.821, 4511.282, 4112.308, 4193.333, 4184.615, 450, 0, []
1631431293.5324, 83, 0, 4234.872, 4524.615, 4098.974, 4202.051, 4182.564, 16200, 0, []
1631431293.5403, 84, 0, 4242.051, 4520, 4103.077, 4198.974, 4211.282, 450, 0, []
1631431293.5481, 85, 0, 4248.205, 4501.538, 4126.667, 4198.974, 4225.128, 450, 0, []
1631431293.556, 86, 0, 4247.179, 4511.795, 4107.179, 4188.205, 4205.641, 450, 0, []
1631431293.5637, 87, 0, 4248.718, 4542.051, 4136.41, 4157.436, 4196.41, 16200, 0, []
1631431293.5717, 88, 0, 4246.667, 4544.615, 4121.026, 4129.744, 4203.59, 450, 0, []
1631431293.5796, 89, 0, 4234.359, 4530.256, 4104.103, 4134.359, 4195.897, 450, 0, []
1631431293.5876, 90, 0, 4231.795, 4546.667, 4121.026, 4158.462, 4176.41, 450, 0, []
1631431293.5955, 91, 0, 4234.359, 4558.462, 4087.692, 4168.718, 4164.103, 16200, 0, []
1631431293.6034, 92, 0, 4217.436, 4521.026, 4097.949, 4170.769, 4168.718, 450, 0, []
1631431293.6113, 93, 0, 4208.205, 4495.897, 4096.41, 4183.077, 4184.103, 450, 0, []
1631431293.6193, 94, 0, 4225.641, 4518.974, 4088.718, 4196.41, 4188.205, 450, 0, []
1631431293.6272, 95, 0, 4237.436, 4534.359, 4103.59, 4193.846, 4183.077, 16200, 0, []
1631431293.6352, 96, 0, 4226.667, 4523.077, 4074.359, 4175.897, 4191.282, 450, 0, []
1631431293.643, 97, 0, 4213.846, 4515.897, 4098.974, 4173.846, 4192.821, 450, 0, []
1631431293.651, 98, 0, 4215.897, 4527.179, 4109.231, 4191.795, 4174.359, 450, 0, []
1631431293.6589, 99, 0, 4230.256, 4551.282, 4100.513, 4200, 4168.718, 16200, 0, []
1631431293.6667, 100, 0, 4232.821, 4551.282, 4124.615, 4190.769, 4185.128, 450, 0, []
1631431293.6746, 101, 0, 4228.205, 4523.59, 4096.923, 4193.333, 4197.436, 450, 0, []
1631431293.6823, 102, 0, 4235.897, 4513.846, 4101.026, 4206.154, 4190.769, 450, 0, []
1631431293.6902, 103, 0, 4241.026, 4521.026, 4100.513, 4190.769, 4180.513, 16200, 0, []
1631431293.698, 104, 0, 4230.256, 4530.256, 4094.872, 4168.205, 4186.154, 450, 0, []
1631431293.7059, 105, 0, 4226.667, 4544.615, 4129.744, 4175.385, 4197.949, 450, 0, []
1631431293.7137, 106, 0, 4239.487, 4545.641, 4090.769, 4185.128, 4189.744, 450, 0, []
1631431293.7215, 107, 0, 4244.615, 4541.538, 4088.718, 4182.564, 4178.462, 16200, 0, []
1631431293.7293, 108, 0, 4237.436, 4546.667, 4112.308, 4179.487, 4191.282, 450, 0, []
1631431293.7372, 109, 0, 4237.436, 4532.821, 4098.462, 4183.59, 4204.615, 450, 0, []
1631431293.745, 110, 0, 4248.205, 4512.821, 4119.487, 4195.385, 4202.051, 450, 0, []
1631431293.753, 111, 0, 4255.897, 4528.718, 4111.282, 4205.641, 4200.513, 16200, 0, []
1631431293.7608, 112, 0, 4244.615, 4549.744, 4115.897, 4191.795, 4200, 450, 0, []
1631431293.7688, 113, 0, 4232.308, 4540, 4112.821, 4174.872, 4200, 450, 0, []
1631431293.7767, 114, 0, 4242.564, 4523.077, 4085.128, 4194.359, 4208.718, 450, 0, []
1631431293.7847, 115, 0, 4250.769, 4519.487, 4105.128, 4210.256, 4204.615, 16200, 0, []
1631431293.7926, 116, 0, 4237.436, 4527.692, 4085.128, 4189.744, 4190.256, 450, 0, []
1631431293.8006, 117, 0, 4223.59, 4515.897, 4091.282, 4179.487, 4194.359, 450, 0, []
1631431293.8084, 118, 0, 4227.692, 4503.59, 4111.795, 4190.769, 4197.949, 450, 0, []
1631431293.8164, 119, 0, 4235.897, 4515.385, 4088.205, 4188.718, 4183.59, 16200, 0, []
1631431293.8243, 120, 0, 4238.974, 4512.821, 4119.487, 4175.897, 4183.59, 450, 0, []
1631431293.8321, 121, 0, 4232.821, 4497.949, 4111.282, 4165.641, 4198.974, 450, 0, []
1631431293.84, 122, 0, 4223.59, 4498.462, 4100.513, 4160, 4197.949, 450, 0, []
1631431293.8477, 123, 0, 4237.436, 4505.641, 4123.59, 4178.462, 4193.333, 16200, 0, []
1631431293.8556, 124, 0, 4253.333, 4515.897, 4101.026, 4195.897, 4200.513, 450, 0, []
1631431293.8634, 125, 0, 4244.615, 4536.41, 4113.333, 4189.231, 4209.231, 450, 0, []
1631431293.8713, 126, 0, 4238.974, 4538.462, 4098.974, 4190.256, 4211.282, 450, 0, []
1631431293.8791, 127, 0, 4245.128, 4510.256, 4086.667, 4203.077, 4205.641, 16200, 0, []
1631431293.887, 128, 0, 4243.077, 4495.897, 4114.872, 4193.846, 4191.795, 450, 0, []
1631431293.8949, 0, 0, 4229.231, 4515.385, 4096.41, 4171.282, 4183.59, 450, 0, []
1631431293.9029, 1, 0, 4220, 4525.128, 4112.308, 4169.744, 4190.769, 450, 0, []
1631431293.9108, 2, 0, 4221.538, 4509.231, 4115.385, 4179.487, 4191.795, 16189, 0, []
1631431293.9188, 3, 0, 4229.231, 4509.744, 4114.359, 4187.692, 4180.513, 450, 0, []
1631431293.9266, 4, 0, 4229.744, 4521.538, 4135.897, 4191.795, 4186.667, 16139, 0, []
1631431293.9346, 5, 0, 4211.282, 4523.59, 4095.897, 4190.769, 4205.128, 450, 0, []
1631431293.9425, 6, 0, 4190.769, 4518.462, 4096.41, 4197.436, 4190.256, 271, 0, []
1631431293.9505, 7, 0, 4190.769, 4509.744, 4088.205, 4201.026, 4157.436, 450, 0, []
1631431293.9584, 8, 0, 4203.077, 4514.872, 4075.897, 4188.718, 4157.436, 450, 0, []
1631431293.9661, 9, 0, 4198.974, 4522.564, 4111.282, 4184.103, 4171.282, 16158, 0, []
1631431293.974, 10, 0, 4184.103, 4508.205, 4080, 4189.231, 4160, 450, 0, []
1631431293.9818, 11, 0, 4184.103, 4503.077, 4082.564, 4185.128, 4144.615, 16200, 0, []
1631431293.9897, 12, 0, 4185.641, 4521.538, 4096.923, 4173.846, 4149.744, 450, 0, []
1631431293.9975, 13, 0, 4184.615, 4512.821, 4085.641, 4177.436, 4164.103, 450, 0, []
1631431294.0053, 14, 0, 4197.949, 4500, 4121.026, 4195.897, 4170.256, 450, 0, []
1631431294.0131, 15, 0, 4210.256, 4516.923, 4108.205, 4208.205, 4171.282, 16200, 0, []
1631431294.021, 16, 0, 4196.41, 4518.974, 4111.795, 4204.615, 4174.359, 0, 0, []
1631431294.0288, 17, 0, 4186.667, 4503.59, 4128.718, 4200, 4173.333, 0, 0, []
1631431294.0368, 18, 0, 4195.385, 4496.923, 4106.667, 4200, 4155.897, 0, 0, []
1631431294.0446, 19, 0, 4192.308, 4494.359, 4121.026, 4190.256, 4150.256, 0, 0, []
1631431294.0526, 20, 0, 4180.513, 4491.795, 4100.513, 4178.974, 4165.641, 0, 0, []
1631431294.0605, 21, 0, 4182.051, 4498.974, 4095.897, 4185.128, 4162.051, 0, 0, []
1631431294.0685, 22, 0, 4190.769, 4508.718, 4110.256, 4188.718, 4145.641, 0, 0, []
1631431294.0764, 23, 0, 4186.154, 4505.641, 4095.385, 4181.026, 4151.282, 0, 0, []
1631431294.0843, 24, 0, 4180, 4500.513, 4120.513, 4189.744, 4163.077, 0, 0, []
1631431294.0922, 25, 0, 4193.846, 4505.641, 4102.051, 4206.667, 4156.41, 0, 0, []
1631431294.1002, 26, 0, 4200, 4510.256, 4090.769, 4196.41, 4154.359, 0, 0, []
1631431294.1081, 27, 0, 4186.154, 4502.564, 4103.59, 4185.128, 4168.718, 0, 0, []
1631431294.1161, 28, 0, 4188.205, 4508.205, 4085.128, 4205.128, 4178.974, 0, 0, []
1631431294.1239, 29, 0, 4201.538, 4538.462, 4116.923, 4213.333, 4165.128, 0, 0, []
1631431294.1317, 30, 0, 4188.718, 4576.923, 4107.692, 4183.59, 4148.718, 0, 0, []
1631431294.1396, 31, 0, 4181.026, 4585.128, 4095.897, 4171.795, 4160.513, 0, 0, []
1631431294.1474, 32, 0, 4198.974, 4564.103, 4113.846, 4188.718, 4169.231, 0, 0, []
1631431294.1553, 33, 0, 4210.256, 4571.795, 4086.154, 4188.205, 4162.051, 0, 0, []
1631431294.1631, 34, 0, 4203.077, 4593.333, 4113.333, 4184.103, 4173.846, 0, 0, []
1631431294.1709, 35, 0, 4198.974, 4575.897, 4115.385, 4194.872, 4193.846, 0, 0, []
1631431294.1787, 36, 0, 4209.744, 4556.923, 4100, 4196.923, 4183.59, 0, 0, []
1631431294.1866, 37, 0, 4217.949, 4568.718, 4120, 4180, 4173.333, 0, 0, []
1631431294.1944, 38, 0, 4206.154, 4582.051, 4083.077, 4165.128, 4185.641, 0, 0, []
1631431294.2024, 39, 0, 4200, 4591.282, 4087.692, 4172.821, 4184.103, 0, 0, []
1631431294.2102, 40, 0, 4218.462, 4625.128, 4092.821, 4184.615, 4169.231, 0, 0, []
1631431294.2182, 41, 0, 4216.41, 4641.026, 4075.897, 4177.949, 4165.128, 0, 0, []
1631431294.2261, 42, 0, 4196.923, 4643.077, 4090.769, 4167.692, 4174.872, 0, 0, []
1631431294.2341, 43, 0, 4204.103, 4732.308, 4068.205, 4168.718, 4177.436, 0, 0, []
1631431294.242, 44, 0, 4220.513, 4861.538, 4094.359, 4171.282, 4170.769, 0, 0, []
1631431294.2499, 45, 0, 4219.487, 4896.41, 4112.308, 4169.231, 4177.436, 0, 0, []
1631431294.2578, 46, 0, 4215.385, 4882.564, 4096.41, 4176.923, 4191.282, 0, 0, []
1631431294.2658, 47, 0, 4217.436, 4927.179, 4118.974, 4190.256, 4190.256, 0, 0, []
1631431294.2737, 48, 0, 4218.462, 4988.205, 4097.949, 4187.692, 4178.462, 0, 0, []
1631431294.2817, 49, 0, 4222.051, 4967.179, 4109.744, 4182.051, 4184.615, 0, 0, []
1631431294.2895, 50, 0, 4230.769, 4988.718, 4124.615, 4197.436, 4206.154, 0, 0, []
1631431294.2973, 51, 0, 4231.795, 5114.359, 4091.282, 4212.821, 4207.692, 0, 0, []
1631431294.3052, 52, 0, 4227.179, 5138.974, 4091.282, 4202.051, 4181.026, 0, 0, []
1631431294.313, 53, 0, 4229.744, 5012.821, 4073.333, 4182.051, 4173.846, 0, 0, []
1631431294.3209, 54, 0, 4228.718, 4929.231, 4096.41, 4173.846, 4193.846, 0, 0, []
1631431294.3286, 55, 0, 4216.923, 5075.897, 4113.333, 4169.231, 4196.923, 0, 0, []
1631431294.3365, 56, 0, 4216.41, 5326.667, 4080, 4162.564, 4174.872, 0, 0, []
1631431294.3443, 57, 0, 4227.692, 5377.949, 4107.179, 4164.615, 4166.154, 0, 0, []
1631431294.3522, 58, 0, 4225.128, 5272.308, 4097.436, 4166.667, 4181.538, 0, 0, []
1631431294.36, 59, 0, 4214.872, 5281.026, 4086.154, 4170.769, 4189.744, 0, 0, []
1631431294.3679, 60, 0, 4215.897, 5309.744, 4107.179, 4186.154, 4189.231, 0, 0, []
1631431294.3758, 61, 0, 4220.513, 5132.821, 4094.359, 4190.769, 4183.59, 0, 0, []
1631431294.3838, 62, 0, 4216.923, 5017.949, 4111.795, 4171.282, 4172.821, 0, 0, []
1631431294.3917, 63, 0, 4211.795, 5129.231, 4096.923, 4148.205, 4171.795, 0, 0, []
1631431294.3997, 64, 0, 4216.923, 5186.667, 4098.462, 4145.641, 4185.641, 450, 0, []
1631431294.4075, 65, 0, 4226.154, 5116.41, 4111.795, 4148.205, 4188.718, 450, 0, []
1631431294.4155, 66, 0, 4227.179, 5073.333, 4077.436, 4144.615, 4173.846, 16189, 0, []
1631431294.4234, 67, 0, 4241.538, 5024.615, 4120, 4162.564, 4187.692, 450, 0, []
1631431294.4312, 68, 0, 4269.744, 5183.59, 4132.308, 4187.179, 4224.103, 16106, 0, []
1631431294.4391, 69, 0, 4274.359, 5887.692, 4094.359, 4172.821, 4232.821, 450, 0, []
1631431294.4468, 70, 0, 4273.333, 6745.128, 4096.41, 4144.615, 4233.846, 270, 0, []
1631431294.4547, 71, 0, 4321.538, 7272.308, 4091.795, 4152.308, 4275.897, 450, 0, []
1631431294.4626, 72, 0, 4384.615, 7607.692, 4118.974, 4164.103, 4326.667, 450, 0, []
1631431294.4706, 73, 0, 4417.436, 7839.487, 4102.564, 4150.256, 4344.103, 16158, 0, []
1631431294.4784, 74, 0, 4441.026, 7849.231, 4081.026, 4147.179, 4353.846, 450, 0, []
1631431294.4862, 75, 0, 4452.821, 7802.051, 4114.359, 4166.154, 4363.077, 16200, 0, []
1631431294.494, 76, 0, 4427.692, 7805.641, 4093.333, 4173.846, 4356.41, 450, 0, []
1631431294.5019, 77, 0, 4391.795, 7781.026, 4101.538, 4163.59, 4337.436, 450, 0, []
1631431294.5097, 78, 0, 4382.564, 7772.308, 4099.487, 4160, 4315.897, 450, 0, []
1631431294.5177, 79, 0, 4378.974, 7771.282, 4071.795, 4172.821, 4296.923, 16200, 0, []
1631431294.5256, 80, 0, 4360.513, 7768.718, 4092.821, 4178.974, 4280.513, 450, 0, []
1631431294.5335, 81, 0, 4342.564, 7771.282, 4082.051, 4169.231, 4264.103, 450, 0, []
1631431294.5414, 82, 0, 4328.718, 7770.769, 4106.154, 4174.872, 4256.923, 450, 0, []
1631431294.5494, 83, 0, 4316.41, 7770.256, 4120.513, 4189.231, 4262.051, 16200, 0, []
1631431294.5573, 84, 0, 4307.692, 7768.718, 4098.974, 4180.513, 4262.051, 450, 0, []
1631431294.5653, 85, 0, 4303.59, 7770.256, 4125.641, 4166.667, 4250.769, 450, 0, []
1631431294.5731, 86, 0, 4294.872, 7770.769, 4105.128, 4165.641, 4231.795, 450, 0, []
1631431294.5811, 87, 0, 4284.615, 7770.256, 4110.256, 4168.205, 4218.462, 16200, 0, []
1631431294.589, 88, 0, 4294.872, 7770.256, 4131.795, 4176.41, 4228.718, 450, 0, []
1631431294.5968, 89, 0, 4305.128, 7770.256, 4111.795, 4189.744, 4235.385, 450, 0, []
1631431294.6047, 90, 0, 4296.923, 7770.256, 4136.41, 4186.154, 4215.385, 450, 0, []
1631431294.6124, 91, 0, 4294.872, 7770.256, 4124.615, 4182.564, 4207.692, 16200, 0, []
1631431294.6203, 92, 0, 4304.615, 7770.256, 4126.154, 4202.564, 4226.154, 450, 0, []
1631431294.6281, 93, 0, 4291.282, 7770.256, 4142.051, 4206.667, 4222.564, 450, 0, []
1631431294.636, 94, 0, 4262.051, 7770.256, 4103.077, 4178.462, 4200, 450, 0, []
1631431294.6438, 95, 0, 4261.538, 7770.256, 4112.821, 4166.154, 4202.564, 16200, 0, []
1631431294.6516, 96, 0, 4273.846, 7770.256, 4109.744, 4167.179, 4207.692, 450, 0, []
1631431294.6594, 97, 0, 4258.462, 7770.256, 4103.59, 4149.744, 4186.667, 450, 0, []
1631431294.6674, 98, 0, 4241.538, 7770.256, 4109.744, 4139.487, 4173.846, 450, 0, []
1631431294.6753, 99, 0, 4257.436, 7770.256, 4090.256, 4153.333, 4189.744, 16200, 0, []
1631431294.6833, 100, 0, 4267.692, 7770.256, 4116.41, 4161.538, 4189.744, 450, 0, []
1631431294.6911, 101, 0, 4251.795, 7770.256, 4096.41, 4156.41, 4164.615, 450, 0, []
1631431294.6991, 102, 0, 4242.051, 7770.256, 4081.026, 4156.923, 4156.41, 450, 0, []
1631431294.707, 103, 0, 4248.718, 7770.256, 4116.41, 4160.513, 4168.718, 16200, 0, []
1631431294.715, 104, 0, 4254.359, 7770.256, 4095.385, 4154.872, 4171.795, 450, 0, []
1631431294.7229, 105, 0, 4254.872, 7770.256, 4101.538, 4147.692, 4160, 450, 0, []
1631431294.7308, 106, 0, 4256.41, 7770.256, 4100.513, 4147.692, 4155.897, 450, 0, []
1631431294.7387, 107, 0, 4261.026, 7770.256, 4102.564, 4156.923, 4164.103, 16200, 0, []
1631431294.7466, 108, 0, 4264.615, 7770.256, 4131.282, 4171.282, 4166.667, 450, 0, []
1631431294.7545, 109, 0, 4263.59, 7770.256, 4093.333, 4180.513, 4160, 450, 0, []
1631431294.7623, 110, 0, 4273.333, 7770.256, 4101.026, 4183.077, 4163.59, 450, 0, []
1631431294.7701, 111, 0, 4292.308, 7770.256, 4104.103, 4173.333, 4183.59, 16200, 0, []
1631431294.7779, 112, 0, 4296.41, 7770.256, 4085.128, 4150.256, 4189.231, 450, 0, []
1631431294.7858, 113, 0, 4290.769, 7770.256, 4124.615, 4140.513, 4180.513, 450, 0, []
1631431294.7936, 114, 0, 4280.513, 7770.256, 4111.282, 4151.795, 4176.41, 450, 0, []
1631431294.8015, 115, 0, 4256.41, 7770.256, 4103.077, 4156.41, 4167.179, 16200, 0, []
1631431294.8092, 116, 0, 4242.051, 7770.256, 4097.949, 4154.872, 4160, 450, 0, []
1631431294.8172, 117, 0, 4244.615, 7770.256, 4078.462, 4161.026, 4166.154, 450, 0, []
1631431294.8251, 118, 0, 4238.462, 7770.256, 4099.487, 4159.487, 4166.667, 450, 0, []
1631431294.8331, 119, 0, 4239.487, 7770.256, 4085.128, 4147.692, 4162.564, 16200, 0, []
1631431294.841, 120, 0, 4251.282, 7770.256, 4101.538, 4140, 4157.949, 450, 0, []
1631431294.849, 121, 0, 4255.385, 7770.256, 4115.897, 4135.385, 4154.872, 450, 0, []
1631431294.8568, 122, 0, 4262.564, 7770.256, 4098.974, 4136.923, 4162.564, 450, 0, []
1631431294.8648, 123, 0, 4271.282, 7770.256, 4130.256, 4142.564, 4164.103, 16200, 0, []
1631431294.8727, 124, 0, 4269.231, 7770.256, 4114.872, 4146.667, 4152.308, 450, 0, []
1631431294.8807, 125, 0, 4268.718, 7770.256, 4112.308, 4154.872, 4150.769, 450, 0, []
1631431294.8886, 126, 0, 4272.821, 7770.256, 4120, 4162.564, 4157.436, 450, 0, []
1631431294.8963, 127, 0, 4272.308, 7770.256, 4092.821, 4171.795, 4157.436, 16200, 0, []
1631431294.9042, 128, 0, 4265.128, 7770.256, 4109.231, 4172.308, 4149.231, 450, 0, []
1631431294.912, 0, 0, 4249.744, 7770.256, 4077.436, 4150.769, 4129.744, 450, 0, []
1631431294.9199, 1, 0, 4244.103, 7770.256, 4079.487, 4141.026, 4123.59, 450, 0, []
1631431294.9277, 2, 0, 4259.487, 7770.256, 4121.026, 4153.333, 4140.513, 16210, 0, []
1631431294.9355, 3, 0, 4263.59, 7770.256, 4093.333, 4153.333, 4141.026, 450, 0, []
1631431294.9433, 4, 0, 4260.513, 7770.256, 4107.179, 4157.436, 4138.462, 72, 0, []
1631431294.9512, 5, 0, 4267.692, 7770.256, 4100.513, 4168.718, 4145.641, 450, 0, []
1631431294.959, 6, 0, 4261.538, 7770.256, 4080, 4160.513, 4132.308, 260, 0, []
1631431294.9669, 7, 0, 4248.205, 7770.256, 4088.205, 4151.282, 4118.974, 450, 0, []
1631431294.9746, 8, 0, 4244.103, 7770.256, 4055.897, 4147.179, 4120.513, 450, 0, []
1631431294.9826, 9, 0, 4240, 7770.256, 4069.744, 4134.359, 4113.846, 16164, 0, []
1631431294.9905, 10, 0, 4239.487, 7770.256, 4074.359, 4137.436, 4110.256, 450, 0, []
1631431294.9985, 11, 0, 4242.564, 7770.256, 4072.308, 4160, 4118.974, 16162, 0, []
1631431295.0064, 12, 0, 4244.615, 7770.256, 4102.051, 4175.385, 4127.692, 450, 0, []
1631431295.0143, 13, 0, 4253.333, 7770.256, 4091.282, 4181.538, 4139.487, 450, 0, []
1631431295.0222, 14, 0, 4254.359, 7770.256, 4109.744, 4180, 4144.615, 450, 0, []
1631431295.0302, 15, 0, 4246.667, 7770.256, 4096.41, 4166.154, 4136.923, 16162, 0, []
1631431295.0381, 16, 0, 4258.974, 7770.256, 4073.846, 4157.436, 4143.077, 0, 0, []
1631431295.0461, 17, 0, 4271.795, 7770.256, 4110.256, 4163.59, 4154.359, 0, 0, []
1631431295.0539, 18, 0, 4254.359, 7770.256, 4085.128, 4163.59, 4142.051, 0, 0, []
1631431295.0617, 19, 0, 4238.462, 7770.256, 4076.923, 4154.359, 4121.026, 0, 0, []
1631431295.0696, 20, 0, 4245.641, 7770.256, 4084.615, 4153.333, 4117.436, 0, 0, []
1631431295.0774, 21, 0, 4257.436, 7770.256, 4086.154, 4166.667, 4127.179, 0, 0, []
1631431295.0853, 22, 0, 4268.718, 7770.256, 4115.385, 4181.538, 4136.41, 0, 0, []
1631431295.093, 23, 0, 4286.667, 7770.256, 4087.179, 4187.692, 4146.154, 0, 0, []
1631431295.1009, 24, 0, 4292.308, 7772.821, 4096.923, 4186.154, 4148.205, 0, 0, []
1631431295.1087, 25, 0, 4281.026, 7792.308, 4116.923, 4185.641, 4141.538, 0, 0, []
1631431295.1166, 26, 0, 4270.769, 7810.256, 4090.256, 4184.615, 4140.513, 0, 0, []
1631431295.1244, 27, 0, 4265.641, 7750.256, 4100, 4173.846, 4140.513, 0, 0, []
1631431295.1322, 28, 0, 4267.179, 7790.256, 4072.821, 4166.154, 4135.897, 0, 0, []
1631431295.14, 29, 0, 4275.385, 7847.692, 4080, 4174.872, 4139.487, 0, 0, []
1631431295.148, 30, 0, 4286.667, 7369.231, 4107.692, 4177.436, 4153.333, 0, 0, []
1631431295.1559, 31, 0, 4289.231, 6938.974, 4076.41, 4166.667, 4160, 0, 0, []
1631431295.1639, 32, 0, 4291.795, 7153.333, 4086.154, 4170.256, 4161.538, 0, 0, []
1631431295.1717, 33, 0, 4307.692, 7165.641, 4080.513, 4186.154, 4168.718, 0, 0, []
1631431295.1797, 34, 0, 4316.41, 6941.538, 4082.564, 4184.615, 4174.359, 0, 0, []
1631431295.1876, 35, 0, 4313.846, 7285.128, 4093.846, 4179.487, 4179.487, 0, 0, []
1631431295.1956, 36, 0, 4316.923, 7699.487, 4077.436, 4188.205, 4193.846, 0, 0, []
1631431295.2035, 37, 0, 4323.077, 7600, 4107.692, 4185.641, 4206.667, 0, 0, []
1631431295.2115, 38, 0, 4335.385, 7545.641, 4090.256, 4172.308, 4216.923, 0, 0, []
1631431295.2193, 39, 0, 4367.692, 7619.487, 4085.641, 4182.564, 4239.487, 0, 0, []
1631431295.2271, 40, 0, 4405.128, 7592.308, 4112.308, 4194.872, 4263.59, 0, 0, []
1631431295.235, 41, 0, 4421.026, 7635.385, 4071.795, 4173.333, 4266.667, 0, 0, []
1631431295.2428, 42, 0, 4446.154, 7569.231, 4090.256, 4172.821, 4285.128, 0, 0, []
1631431295.2507, 43, 0, 4485.128, 7455.897, 4105.641, 4205.128, 4331.795, 0, 0, []
1631431295.2584, 44, 0, 4481.026, 7512.821, 4088.718, 4197.949, 4344.103, 0, 0, []
1631431295.2663, 45, 0, 4450.769, 7229.744, 4095.897, 4168.205, 4324.103, 0, 0, []
1631431295.2741, 46, 0, 4446.667, 6397.436, 4086.667, 4178.462, 4315.897, 0, 0, []
1631431295.2821, 47, 0, 4435.897, 6054.872, 4117.949, 4196.923, 4292.821, 0, 0, []
1631431295.29, 48, 0, 4396.923, 6696.923, 4104.615, 4180, 4249.744, 0, 0, []
1631431295.2979, 49, 0, 4369.744, 7230.769, 4083.077, 4173.846, 4226.154, 0, 0, []
1631431295.3058, 50, 0, 4354.359, 7220.513, 4112.821, 4192.308, 4210.256, 0, 0, []
1631431295.3138, 51, 0, 4331.795, 7293.333, 4085.128, 4186.667, 4180.513, 0, 0, []
1631431295.3217, 52, 0, 4314.872, 7164.103, 4091.795, 4169.231, 4162.564, 0, 0, []
1631431295.3297, 53, 0, 4312.308, 6576.41, 4100.513, 4175.897, 4169.231, 0, 0, []
1631431295.3375, 54, 0, 4308.205, 6417.949, 4091.795, 4187.692, 4171.795, 0, 0, []
1631431295.3455, 55, 0, 4292.821, 6536.923, 4113.333, 4176.41, 4161.026, 0, 0, []
1631431295.3534, 56, 0, 4273.846, 5962.564, 4083.077, 4160.513, 4149.231, 0, 0, []
1631431295.3612, 57, 0, 4263.077, 5584.615, 4098.462, 4168.205, 4144.103, 0, 0, []
1631431295.3691, 58, 0, 4263.077, 6255.897, 4111.282, 4180.513, 4135.897, 0, 0, []
1631431295.3768, 59, 0, 4258.974, 6816.923, 4080, 4174.359, 4121.026, 0, 0, []
1631431295.3847, 60, 0, 4254.872, 6746.154, 4106.154, 4166.667, 4116.923, 0, 0, []
1631431295.3925, 61, 0, 4260.513, 6793.333, 4099.487, 4171.795, 4123.59, 0, 0, []
1631431295.4004, 62, 0, 4262.564, 6914.359, 4103.59, 4171.282, 4119.487, 0, 0, []
1631431295.4082, 63, 0, 4256.41, 6808.718, 4108.718, 4154.359, 4106.667, 0, 0, []
1631431295.416, 64, 0, 4249.744, 6819.487, 4078.974, 4147.692, 4103.077, 450, 0, []
1631431295.4238, 65, 0, 4242.051, 6968.205, 4098.974, 4156.923, 4102.564, 450, 0, []
1631431295.4317, 66, 0, 4241.026, 6917.949, 4089.744, 4155.385, 4107.179, 16203, 0, []
1631431295.4395, 67, 0, 4243.59, 6766.154, 4097.949, 4153.846, 4117.436, 450, 0, []
1631431295.4474, 68, 0, 4234.359, 6808.205, 4119.487, 4160.513, 4117.436, 16199, 0, []
1631431295.4551, 69, 0, 4229.744, 6850.769, 4081.026, 4149.231, 4110.256, 450, 0, []
1631431295.463, 70, 0, 4244.103, 6632.821, 4090.256, 4135.385, 4112.308, 250, 0, []
1631431295.4709, 71, 0, 4254.359, 6380.513, 4094.359, 4155.385, 4122.051, 450, 0, []
1631431295.4788, 72, 0, 4250.769, 6291.795, 4102.051, 4177.436, 4117.949, 450, 0, []
1631431295.4866, 73, 0, 4257.436, 6229.231, 4117.949, 4173.333, 4110.256, 16175, 0, []
1631431295.4945, 74, 0, 4268.205, 6123.077, 4087.179, 4168.205, 4110.769, 450, 0, []
1631431295.5024, 75, 0, 4258.462, 5996.41, 4098.462, 4169.231, 4103.077, 16169, 0, []
1631431295.5104, 76, 0, 4237.436, 5625.641, 4087.179, 4150.769, 4089.744, 450, 0, []
1631431295.5183, 77, 0, 4225.128, 5133.846, 4088.718, 4133.333, 4093.846, 450, 0, []
1631431295.5262, 78, 0, 4227.179, 5169.231, 4117.949, 4141.538, 4104.615, 450, 0, []
1631431295.5341, 79, 0, 4236.41, 5656.41, 4076.923, 4153.333, 4095.385, 16169, 0, []
1631431295.5418, 80, 0, 4241.538, 5948.205, 4089.744, 4155.897, 4086.667, 450, 0, []
1631431295.5497, 81, 0, 4238.462, 6047.692, 4094.359, 4157.436, 4085.128, 450, 0, []
1631431295.5575, 82, 0, 4223.077, 5931.795, 4073.333, 4152.821, 4081.026, 450, 0, []
1631431295.5654, 83, 0, 4221.538, 5374.359, 4098.462, 4146.154, 4094.359, 16169, 0, []
1631431295.5732, 84, 0, 4229.744, 5144.615, 4086.667, 4141.026, 4109.231, 450, 0, []
1631431295.581, 85, 0, 4233.846, 5431.795, 4101.026, 4133.846, 4096.41, 450, 0, []
1631431295.5888, 86, 0, 4241.026, 5166.667, 4099.487, 4124.615, 4082.051, 450, 0, []
1631431295.5968, 87, 0, 4241.026, 4580.513, 4084.103, 4116.41, 4087.179, 16169, 0, []
1631431295.6047, 88, 0, 4229.231, 4554.872, 4110.769, 4122.564, 4097.949, 450, 0, []
1631431295.6127, 89, 0, 4229.231, 4540, 4087.179, 4150.256, 4104.103, 450, 0, []
1631431295.6205, 90, 0, 4249.231, 4306.667, 4096.923, 4173.846, 4107.179, 450, 0, []
1631431295.6285, 91, 0, 4255.385, 4447.692, 4102.051, 4164.103, 4108.205, 16169, 0, []
1631431295.6364, 92, 0, 4233.333, 4649.744, 4069.231, 4132.821, 4106.667, 450, 0, []
1631431295.6444, 93, 0, 4224.615, 4677.436, 4090.769, 4126.154, 4105.641, 450, 0, []
1631431295.6523, 94, 0, 4246.154, 4883.077, 4081.538, 4142.051, 4109.744, 450, 0, []
1631431295.6602, 95, 0, 4255.897, 4894.359, 4095.385, 4151.282, 4108.205, 16169, 0, []
1631431295.6681, 96, 0, 4245.641, 4607.179, 4112.308, 4147.692, 4110.769, 450, 0, []
1631431295.6761, 97, 0, 4252.821, 4600.513, 4089.744, 4153.846, 4131.282, 450, 0, []
1631431295.684, 98, 0, 4260, 4686.667, 4100.513, 4165.128, 4133.333, 450, 0, []
1631431295.6918, 99, 0, 4245.641, 4574.872, 4073.333, 4154.872, 4105.128, 16169, 0, []
1631431295.6996, 100, 0, 4238.462, 4552.821, 4082.564, 4142.051, 4103.59, 450, 0, []
1631431295.7074, 101, 0, 4249.231, 4541.538, 4102.564, 4147.692, 4133.846, 450, 0, []
1631431295.7153, 102, 0, 4259.487, 4394.359, 4076.923, 4156.923, 4141.026, 450, 0, []
1631431295.7231, 103, 0, 4261.538, 4345.128, 4115.897, 4151.795, 4124.615, 16169, 0, []
1631431295.731, 104, 0, 4255.385, 4411.795, 4111.795, 4136.923, 4118.974, 450, 0, []
1631431295.7387, 105, 0, 4240, 4427.692, 4090.256, 4135.385, 4125.128, 450, 0, []
1631431295.7466, 106, 0, 4230.769, 4436.41, 4098.974, 4148.205, 4122.051, 450, 0, []
1631431295.7544, 107, 0, 4238.974, 4511.282, 4084.615, 4158.974, 4109.231, 16169, 0, []
1631431295.7624, 108, 0, 4248.718, 4618.462, 4109.744, 4158.462, 4112.821, 450, 0, []
1631431295.7703, 109, 0, 4236.923, 4643.077, 4093.333, 4150.256, 4131.282, 450, 0, []
1631431295.7782, 110, 0, 4225.641, 4607.692, 4080.513, 4144.615, 4137.436, 450, 0, []
1631431295.7861, 111, 0, 4244.615, 4661.538, 4111.795, 4149.744, 4133.846, 16169, 0, []
1631431295.7941, 112, 0, 4260, 4692.308, 4097.436, 4155.897, 4130.769, 450, 0, []
1631431295.802, 113, 0, 4238.462, 4597.436, 4107.692, 4144.615, 4122.564, 450, 0, []
1631431295.81, 114, 0, 4222.564, 4548.205, 4097.436, 4147.692, 4128.205, 450, 0, []
1631431295.8178, 115, 0, 4234.872, 4568.718, 4092.821, 4181.538, 4141.026, 16169, 0, []
1631431295.8258, 116, 0, 4227.179, 4548.718, 4110.769, 4187.692, 4122.051, 450, 0, []
1631431295.8337, 117, 0, 4198.974, 4550.769, 4067.692, 4150.769, 4103.077, 450, 0, []
1631431295.8416, 118, 0, 4199.487, 4574.359, 4083.59, 4133.333, 4117.949, 450, 0, []
1631431295.8495, 119, 0, 4220, 4545.641, 4100, 4147.179, 4121.538, 16169, 0, []
1631431295.8572, 120, 0, 4220.513, 4506.667, 4084.615, 4147.692, 4100, 450, 0, []
1631431295.8651, 121, 0, 4207.692, 4446.154, 4109.231, 4133.846, 4107.179, 450, 0, []
1631431295.8729, 122, 0, 4207.179, 4377.436, 4094.872, 4136.923, 4128.205, 450, 0, []
1631431295.8808, 123, 0, 4217.436, 4408.718, 4105.641, 4161.026, 4115.897, 16169, 0, []
1631431295.8886, 124, 0, 4216.41, 4512.821, 4095.385, 4161.538, 4098.462, 450, 0, []
1631431295.8965, 125, 0, 4195.385, 4516.41, 4060.513, 4126.667, 4098.462, 450, 0, []
1631431295.9042, 126, 0, 4195.385, 4397.949, 4092.308, 4128.205, 4107.692, 450, 0, []
1631431295.9122, 127, 0, 4222.564, 4328.718, 4078.462, 4156.923, 4108.205, 16169, 0, []
1631431295.9201, 128, 0, 4219.487, 4352.308, 4076.923, 4137.436, 4103.59, 450, 0, []
1631431295.9281, 0, 0, 4203.077, 4356.41, 4088.718, 4113.846, 4112.308, 450, 0, []
1631431295.936, 1, 0, 4216.923, 4327.179, 4076.41, 4143.59, 4120.513, 450, 0, []
1631431295.9439, 2, 0, 4230.769, 4303.077, 4104.103, 4158.462, 4114.359, 16195, 0, []
1631431295.9518, 3, 0, 4212.308, 4262.564, 4083.59, 4132.821, 4107.692, 450, 0, []
1631431295.9598, 4, 0, 4194.872, 4235.897, 4079.487, 4132.308, 4105.641, 16094, 0, []
1631431295.9677, 5, 0, 4201.026, 4277.949, 4094.359, 4145.641, 4098.462, 450, 0, []
1631431295.9757, 6, 0, 4209.744, 4292.821, 4076.923, 4137.436, 4107.179, 265, 0, []
1631431295.9835, 7, 0, 4212.821, 4240.513, 4100, 4138.974, 4126.154, 450, 0, []
1631431295.9914, 8, 0, 4214.872, 4130.256, 4077.436, 4154.359, 4119.487, 450, 0, []
1631431295.9993, 9, 0, 4216.41, 3978.974, 4077.436, 4156.41, 4113.333, 16165, 0, []
1631431296.0071, 10, 0, 4215.897, 3876.923, 4107.179, 4153.333, 4124.103, 450, 0, []
1631431296.015, 11, 0, 4216.923, 3682.564, 4077.436, 4156.923, 4123.59, 16194, 0, []
1631431296.0227, 12, 0, 4213.333, 3380, 4086.154, 4155.385, 4125.128, 450, 0, []
1631431296.0306, 13, 0, 4216.923, 3275.897, 4085.641, 4159.487, 4149.744, 450, 0, []
1631431296.0384, 14, 0, 4230.256, 3385.128, 4094.359, 4169.744, 4152.308, 450, 0, []
1631431296.0463, 15, 0, 4233.333, 3586.154, 4111.282, 4161.026, 4137.949, 16194, 0, []
1631431296.0541, 16, 0, 4227.692, 3723.59, 4076.923, 4147.692, 4146.667, 0, 0, []
1631431296.062, 17, 0, 4223.077, 3645.641, 4095.385, 4156.923, 4141.026, 0, 0, []
1631431296.0699, 18, 0, 4224.615, 3588.718, 4094.359, 4156.41, 4127.179, 0, 0, []
1631431296.0779, 19, 0, 4220.513, 3585.641, 4082.051, 4137.436, 4138.974, 0, 0, []
1631431296.0858, 20, 0, 4220.513, 3410.769, 4103.077, 4148.205, 4147.692, 0, 0, []
1631431296.0938, 21, 0, 4227.692, 3391.282, 4083.077, 4170.769, 4137.436, 0, 0, []
1631431296.1016, 22, 0, 4221.538, 3722.564, 4110.769, 4165.128, 4139.487, 0, 0, []
1631431296.1096, 23, 0, 4214.359, 3880, 4108.205, 4151.282, 4145.128, 0, 0, []
1631431296.1175, 24, 0, 4221.026, 3814.359, 4075.897, 4150.256, 4130.256, 0, 0, []
1631431296.1255, 25, 0, 4224.103, 3887.179, 4102.051, 4146.667, 4125.128, 0, 0, []
1631431296.1334, 26, 0, 4206.154, 3964.103, 4090.256, 4142.564, 4130.769, 0, 0, []
1631431296.1413, 27, 0, 4196.41, 3959.487, 4098.462, 4154.359, 4121.026, 0, 0, []
1631431296.1492, 28, 0, 4203.59, 3967.692, 4096.923, 4155.897, 4112.308, 0, 0, []
1631431296.157, 29, 0, 4195.897, 4003.077, 4074.359, 4134.359, 4118.974, 0, 0, []
1631431296.1649, 30, 0, 4191.795, 4057.949, 4093.846, 4129.231, 4124.615, 0, 0, []
1631431296.1727, 31, 0, 4208.718, 4003.59, 4074.872, 4144.615, 4122.051, 0, 0, []
1631431296.1805, 32, 0, 4214.872, 3984.615, 4092.308, 4151.282, 4133.846, 0, 0, []
1631431296.1883, 33, 0, 4206.667, 4073.333, 4106.667, 4155.897, 4145.128, 0, 0, []
1631431296.1962, 34, 0, 4212.308, 3622.051, 4081.538, 4166.667, 4135.897, 0, 0, []
1631431296.204, 35, 0, 4218.462, 2553.333, 4100.513, 4160, 4128.718, 0, 0, []
1631431296.2119, 36, 0, 4216.41, 1808.205, 4081.538, 4148.718, 4134.872, 0, 0, []
1631431296.2196, 37, 0, 4222.564, 1612.821, 4093.846, 4156.41, 4145.128, 0, 0, []
1631431296.2276, 38, 0, 4221.026, 1387.692, 4107.692, 4160, 4146.154, 0, 0, []
1631431296.2355, 39, 0, 4205.128, 1134.872, 4077.949, 4148.718, 4138.974, 0, 0, []
1631431296.2435, 40, 0, 4202.051, 1077.949, 4114.359, 4151.795, 4135.897, 0, 0, []
1631431296.2514, 41, 0, 4213.333, 1047.692, 4112.308, 4165.641, 4142.051, 0, 0, []
1631431296.2594, 42, 0, 4214.359, 988.718, 4098.462, 4162.564, 4146.667, 0, 0, []
1631431296.2672, 43, 0, 4201.538, 936.41, 4090.769, 4142.564, 4132.308, 0, 0, []
1631431296.2752, 44, 0, 4196.923, 893.333, 4059.487, 4130.769, 4125.641, 0, 0, []
1631431296.2831, 45, 0, 4211.282, 868.205, 4098.462, 4144.103, 4138.462, 0, 0, []
1631431296.2911, 46, 0, 4212.308, 839.487, 4097.436, 4147.179, 4142.051, 0, 0, []
1631431296.299, 47, 0, 4195.385, 817.436, 4085.128, 4131.282, 4130.769, 0, 0, []
1631431296.3067, 48, 0, 4206.154, 815.385, 4107.692, 4136.923, 4133.333, 0, 0, []
1631431296.3146, 49, 0, 4222.051, 815.385, 4090.769, 4157.949, 4141.538, 0, 0, []
1631431296.3224, 50, 0, 4211.282, 813.333, 4100.513, 4161.538, 4132.308, 0, 0, []
1631431296.3303, 51, 0, 4204.615, 817.436, 4080.513, 4151.282, 4131.795, 0, 0, []
1631431296.3381, 52, 0, 4195.385, 817.949, 4072.308, 4144.103, 4132.308, 0, 0, []
1631431296.3459, 53, 0, 4183.59, 817.436, 4102.564, 4142.051, 4129.231, 0, 0, []
1631431296.3537, 54, 0, 4205.641, 817.949, 4085.128, 4141.538, 4143.077, 0, 0, []
1631431296.3616, 55, 0, 4226.154, 817.949, 4096.923, 4134.872, 4148.718, 0, 0, []
1631431296.3694, 56, 0, 4207.692, 818.974, 4082.051, 4127.179, 4127.179, 0, 0, []
1631431296.3773, 57, 0, 4194.872, 818.462, 4071.795, 4138.974, 4115.385, 0, 0, []
1631431296.385, 58, 0, 4199.487, 818.462, 4104.103, 4153.333, 4122.051, 0, 0, []
1631431296.393, 59, 0, 4196.41, 818.462, 4074.872, 4147.179, 4120, 0, 0, []
1631431296.4009, 60, 0, 4195.385, 818.462, 4081.538, 4140, 4117.436, 0, 0, []
1631431296.4089, 61, 0, 4202.051, 818.462, 4082.051, 4143.077, 4127.692, 0, 0, []
1631431296.4168, 62, 0, 4202.564, 818.462, 4074.872, 4146.667, 4138.462, 0, 0, []
1631431296.4247, 63, 0, 4197.436, 818.462, 4107.179, 4146.667, 4133.333, 0, 0, []
1631431296.4326, 64, 0, 4184.103, 818.462, 4069.231, 4136.41, 4112.821, 450, 0, []
1631431296.4406, 65, 0, 4178.462, 818.462, 4077.436, 4133.333, 4108.205, 450, 0, []
1631431296.4485, 66, 0, 4194.872, 818.462, 4109.231, 4145.128, 4128.718, 16188, 0, []
1631431296.4564, 67, 0, 4206.154, 818.462, 4090.769, 4146.154, 4142.564, 450, 0, []
1631431296.4642, 68, 0, 4201.026, 818.462, 4100, 4133.333, 4141.538, 16360, 0, []
1631431296.4721, 69, 0, 4195.897, 818.462, 4080.513, 4128.718, 4137.949, 450, 0, []
1631431296.4801, 70, 0, 4195.385, 818.462, 4097.436, 4138.462, 4137.436, 240, 0, []
1631431296.4879, 71, 0, 4195.385, 818.462, 4113.846, 4142.051, 4136.41, 450, 0, []
1631431296.4958, 72, 0, 4183.077, 818.462, 4084.103, 4126.667, 4121.538, 450, 0, []
1631431296.5035, 73, 0, 4166.667, 818.462, 4103.077, 4104.103, 4100, 16158, 0, []
1631431296.5114, 74, 0, 4171.282, 818.462, 4092.821, 4106.667, 4098.974, 450, 0, []
1631431296.5192, 75, 0, 4186.667, 818.462, 4101.538, 4124.615, 4113.333, 16198, 0, []
1631431296.5271, 76, 0, 4187.692, 818.462, 4121.538, 4124.615, 4122.051, 450, 0, []
1631431296.5349, 77, 0, 4188.205, 818.462, 4095.897, 4116.923, 4130.256, 450, 0, []
1631431296.5427, 78, 0, 4200.513, 818.462, 4121.026, 4126.154, 4141.538, 450, 0, []
1631431296.5505, 79, 0, 4194.872, 818.462, 4109.231, 4133.846, 4137.949, 16198, 0, []
1631431296.5585, 80, 0, 4168.718, 818.462, 4085.641, 4120, 4115.385, 450, 0, []
1631431296.5664, 81, 0, 4164.615, 818.462, 4091.795, 4112.308, 4109.231, 450, 0, []
1631431296.5744, 82, 0, 4180, 818.462, 4076.923, 4117.949, 4126.154, 450, 0, []
1631431296.5822, 83, 0, 4176.923, 818.462, 4095.385, 4114.359, 4128.718, 16198, 0, []
1631431296.5902, 84, 0, 4167.692, 818.462, 4075.385, 4109.744, 4118.974, 450, 0, []
1631431296.5981, 85, 0, 4172.821, 818.462, 4073.846, 4122.051, 4124.615, 450, 0, []
1631431296.6061, 86, 0, 4176.923, 818.462, 4105.641, 4131.795, 4138.974, 450, 0, []
1631431296.614, 87, 0, 4171.282, 818.462, 4077.436, 4124.103, 4135.897, 16198, 0, []
1631431296.6218, 88, 0, 4162.564, 818.462, 4088.718, 4116.41, 4118.462, 450, 0, []
1631431296.6296, 89, 0, 4161.026, 818.462, 4076.41, 4113.846, 4112.821, 450, 0, []
1631431296.6374, 90, 0, 4162.051, 818.462, 4062.051, 4118.462, 4122.051, 450, 0, []
1631431296.6453, 91, 0, 4167.692, 818.462, 4101.538, 4133.846, 4135.897, 16198, 0, []
1631431296.6531, 92, 0, 4178.974, 818.462, 4083.077, 4142.051, 4148.205, 450, 0, []
1631431296.661, 93, 0, 4180.513, 818.462, 4091.282, 4139.487, 4150.769, 450, 0, []
1631431296.6687, 94, 0, 4176.923, 818.462, 4093.333, 4140, 4145.128, 450, 0, []
1631431296.6766, 95, 0, 4177.436, 818.462, 4079.487, 4140.513, 4142.051, 16198, 0, []
