Timestamp, COUNTER, INTERPOLATED, AF3, T7, Pz, T8, AF4, RAW_CQ, MARKER_HARDWARE, MARKERS
1631429690.6497, 117, 0, 4378.974, 4204.103, 4087.692, 4069.744, 4167.179, 450, 0, []
1631429690.6577, 118, 0, 4359.487, 4191.795, 4068.205, 4069.744, 4156.41, 450, 0, []
1631429690.6655, 119, 0, 4333.333, 4196.923, 4078.974, 4080.513, 4145.641, 16204, 0, []
1631429690.6735, 120, 0, 4316.41, 4230.256, 4093.846, 4082.564, 4142.564, 450, 0, []
1631429690.6814, 121, 0, 4300, 4251.282, 4049.744, 4085.641, 4134.872, 450, 0, []
1631429690.6894, 122, 0, 4269.744, 4258.462, 4090.769, 4101.026, 4116.923, 450, 0, []
1631429690.6973, 123, 0, 4254.359, 4257.436, 4088.718, 4089.231, 4110.769, 16204, 0, []
1631429690.7052, 124, 0, 4264.615, 4248.205, 4075.385, 4088.205, 4123.59, 450, 0, []
1631429690.7131, 125, 0, 4262.564, 4245.641, 4093.333, 4118.974, 4130.769, 450, 0, []
1631429690.7211, 126, 0, 4250.256, 4249.231, 4061.538, 4117.949, 4118.974, 450, 0, []
1631429690.729, 127, 0, 4242.564, 4236.923, 4084.103, 4095.897, 4107.692, 16204, 0, []
1631429690.737, 128, 0, 4225.641, 4226.154, 4065.641, 4092.308, 4106.667, 450, 0, []
1631429690.7448, 0, 0, 4212.308, 4230.256, 4058.974, 4096.41, 4104.103, 450, 0, []
1631429690.7526, 1, 0, 4214.872, 4234.359, 4098.462, 4097.949, 4100, 450, 0, []
1631429690.7605, 2, 0, 4211.795, 4235.385, 4060.513, 4100.513, 4105.641, 16185, 0, []
1631429690.7683, 3, 0, 4199.487, 4223.077, 4081.026, 4096.923, 4109.231, 450, 0, []
1631429690.7762, 4, 0, 4194.359, 4208.205, 4085.128, 4083.59, 4094.872, 16152, 0, []
1631429690.7839, 5, 0, 4192.308, 4206.667, 4078.974, 4077.436, 4081.538, 450, 0, []
1631429690.7918, 6, 0, 4193.333, 4209.744, 4121.538, 4100.513, 4097.949, 194, 0, []
1631429690.7996, 7, 0, 4205.128, 4229.231, 4093.846, 4123.077, 4123.077, 450, 0, []
1631429690.8076, 8, 0, 4206.667, 4249.231, 4107.692, 4128.205, 4120.513, 450, 0, []
1631429690.8155, 9, 0, 4191.282, 4239.487, 4093.846, 4141.538, 4102.051, 16152, 0, []
1631429690.8234, 10, 0, 4177.436, 4235.897, 4061.026, 4138.462, 4100, 450, 0, []
1631429690.8313, 11, 0, 4183.077, 4261.538, 4100.513, 4106.667, 4114.359, 16207, 0, []
1631429690.8393, 12, 0, 4198.462, 4262.051, 4077.436, 4100.513, 4120.513, 450, 0, []
1631429690.8472, 13, 0, 4201.026, 4228.205, 4096.923, 4114.359, 4119.487, 450, 0, []
1631429690.8552, 14, 0, 4180.513, 4208.205, 4110.769, 4081.026, 4110.769, 450, 0, []
1631429690.8631, 15, 0, 4163.59, 4201.026, 4080.513, 4041.026, 4091.282, 16207, 0, []
1631429690.871, 16, 0, 4167.692, 4203.077, 4114.359, 4068.718, 4082.051, 0, 0, []
1631429690.8789, 17, 0, 4172.308, 4218.974, 4099.487, 4113.333, 4097.436, 0, 0, []
1631429690.8867, 18, 0, 4170.769, 4221.538, 4109.231, 4115.385, 4110.256, 0, 0, []
1631429690.8946, 19, 0, 4182.051, 4223.59, 4114.872, 4107.692, 4110.769, 0, 0, []
1631429690.9024, 20, 0, 4203.077, 4234.359, 4089.744, 4130.769, 4125.641, 0, 0, []
1631429690.9102, 21, 0, 4200, 4227.179, 4127.179, 4149.231, 4138.462, 0, 0, []
1631429690.918, 22, 0, 4182.564, 4228.718, 4095.897, 4140.513, 4130.769, 0, 0, []
1631429690.9259, 23, 0, 4184.103, 4244.615, 4092.308, 4144.615, 4120.513, 0, 0, []
1631429690.9337, 24, 0, 4186.154, 4226.667, 4113.333, 4146.667, 4112.821, 0, 0, []
1631429690.9416, 25, 0, 4167.692, 4205.641, 4089.231, 4128.718, 4104.103, 0, 0, []
1631429690.9493, 26, 0, 4160, 4220, 4137.949, 4128.718, 4106.154, 0, 0, []
1631429690.9572, 27, 0, 4176.41, 4215.385, 4127.692, 4140, 4115.385, 0, 0, []
1631429690.965, 28, 0, 4182.051, 4178.462, 4119.487, 4133.846, 4121.538, 0, 0, []
1631429690.973, 29, 0, 4170.256, 4182.564, 4138.462, 4122.564, 4123.59, 0, 0, []
1631429690.9809, 30, 0, 4166.154, 4213.333, 4095.385, 4127.692, 4109.744, 0, 0, []
1631429690.9888, 31, 0, 4168.205, 4209.744, 4115.385, 4147.692, 4094.872, 0, 0, []
1631429690.9967, 32, 0, 4153.333, 4182.564, 4090.769, 4159.487, 4092.308, 0, 0, []
1631429691.0047, 33, 0, 4136.923, 4178.974, 4072.821, 4171.282, 4101.538, 0, 0, []
1631429691.0126, 34, 0, 4145.641, 4202.051, 4113.846, 4204.103, 4115.897, 0, 0, []
1631429691.0206, 35, 0, 4163.077, 4209.744, 4091.795, 4243.077, 4123.077, 0, 0, []
1631429691.0284, 36, 0, 4168.718, 4186.154, 4109.231, 4258.974, 4128.205, 0, 0, []
1631429691.0363, 37, 0, 4168.718, 4167.179, 4092.308, 4255.897, 4140.513, 0, 0, []
1631429691.0442, 38, 0, 4171.282, 4172.821, 4077.949, 4260.513, 4144.103, 0, 0, []
1631429691.052, 39, 0, 4174.872, 4189.231, 4117.436, 4275.385, 4133.846, 0, 0, []
1631429691.0599, 40, 0, 4166.667, 4192.308, 4084.103, 4277.436, 4127.692, 0, 0, []
1631429691.0676, 41, 0, 4149.231, 4167.179, 4098.974, 4264.103, 4128.718, 0, 0, []
1631429691.0755, 42, 0, 4150.256, 4150.256, 4103.59, 4263.59, 4128.205, 0, 0, []
1631429691.0833, 43, 0, 4160.513, 4161.026, 4085.128, 4275.897, 4123.077, 0, 0, []
1631429691.0912, 44, 0, 4148.718, 4163.59, 4104.103, 4279.487, 4121.538, 0, 0, []
1631429691.099, 45, 0, 4143.077, 4155.385, 4069.744, 4281.026, 4134.872, 0, 0, []
1631429691.107, 46, 0, 4158.974, 4162.051, 4109.744, 4287.179, 4145.641, 0, 0, []
1631429691.1148, 47, 0, 4169.231, 4176.41, 4128.718, 4291.795, 4141.026, 0, 0, []
1631429691.1228, 48, 0, 4161.026, 4179.487, 4091.282, 4292.821, 4135.385, 0, 0, []
1631429691.1307, 49, 0, 4154.872, 4178.462, 4117.949, 4290.256, 4131.795, 0, 0, []
1631429691.1387, 50, 0, 4156.41, 4181.538, 4081.538, 4283.59, 4124.103, 0, 0, []
1631429691.1466, 51, 0, 4155.897, 4169.231, 4071.795, 4285.128, 4113.333, 0, 0, []
1631429691.1545, 52, 0, 4149.744, 4152.308, 4073.846, 4291.282, 4110.256, 0, 0, []
1631429691.1624, 53, 0, 4151.282, 4166.154, 4058.462, 4292.821, 4124.615, 0, 0, []
1631429691.1704, 54, 0, 4165.641, 4188.718, 4108.205, 4295.385, 4142.564, 0, 0, []
1631429691.1783, 55, 0, 4173.846, 4178.974, 4081.538, 4293.333, 4138.974, 0, 0, []
1631429691.1861, 56, 0, 4167.179, 4162.051, 4081.538, 4295.385, 4134.359, 0, 0, []
1631429691.1939, 57, 0, 4165.128, 4165.641, 4102.564, 4303.077, 4151.282, 0, 0, []
1631429691.2017, 58, 0, 4173.846, 4176.41, 4067.179, 4297.949, 4153.846, 0, 0, []
1631429691.2096, 59, 0, 4182.051, 4180.513, 4092.308, 4293.333, 4139.487, 0, 0, []
1631429691.2174, 60, 0, 4178.974, 4170.256, 4078.974, 4292.821, 4147.179, 0, 0, []
1631429691.2253, 61, 0, 4166.667, 4159.487, 4091.795, 4284.615, 4152.821, 0, 0, []
1631429691.233, 62, 0, 4167.692, 4166.154, 4119.487, 4285.641, 4137.949, 0, 0, []
1631429691.2409, 63, 0, 4183.59, 4172.821, 4083.077, 4297.949, 4140.513, 0, 0, []
1631429691.2487, 64, 0, 4194.359, 4169.744, 4117.949, 4303.077, 4166.154, 450, 0, []
1631429691.2566, 65, 0, 4212.308, 4174.872, 4104.103, 4307.692, 4184.615, 450, 0, []
1631429691.2644, 66, 0, 4217.949, 4178.462, 4082.051, 4314.872, 4180, 16190, 0, []
1631429691.2723, 67, 0, 4195.385, 4170.769, 4102.564, 4303.077, 4167.692, 450, 0, []
1631429691.2802, 68, 0, 4185.641, 4177.436, 4069.744, 4287.692, 4160, 16152, 0, []
1631429691.2882, 69, 0, 4200, 4198.462, 4097.949, 4294.359, 4153.846, 450, 0, []
1631429691.2961, 70, 0, 4197.436, 4209.744, 4095.897, 4297.436, 4154.872, 200, 0, []
1631429691.3041, 71, 0, 4182.051, 4203.59, 4081.538, 4283.59, 4160.513, 450, 0, []
1631429691.3119, 72, 0, 4186.667, 4194.359, 4106.667, 4280.513, 4165.641, 450, 0, []
1631429691.3199, 73, 0, 4198.462, 4195.385, 4083.59, 4294.359, 4172.308, 16154, 0, []
1631429691.3278, 74, 0, 4210.256, 4202.564, 4123.077, 4307.692, 4186.154, 450, 0, []
1631429691.3358, 75, 0, 4220.513, 4209.231, 4114.359, 4310.256, 4192.308, 16201, 0, []
1631429691.3437, 76, 0, 4207.692, 4203.077, 4078.462, 4301.026, 4183.077, 450, 0, []
1631429691.3515, 77, 0, 4186.154, 4194.872, 4113.333, 4289.231, 4175.385, 450, 0, []
1631429691.3593, 78, 0, 4183.077, 4201.538, 4083.077, 4277.949, 4168.205, 450, 0, []
1631429691.3671, 79, 0, 4189.231, 4198.974, 4093.846, 4274.872, 4161.538, 16201, 0, []
1631429691.375, 80, 0, 4184.615, 4177.949, 4099.487, 4274.872, 4164.103, 450, 0, []
1631429691.3828, 81, 0, 4178.462, 4169.231, 4076.41, 4268.205, 4166.154, 450, 0, []
1631429691.3907, 82, 0, 4191.282, 4176.41, 4111.795, 4270.256, 4166.154, 450, 0, []
1631429691.3984, 83, 0, 4204.103, 4182.564, 4090.256, 4285.641, 4175.897, 16201, 0, []
1631429691.4063, 84, 0, 4203.59, 4189.744, 4100.513, 4285.641, 4183.59, 450, 0, []
1631429691.4141, 85, 0, 4202.564, 4194.359, 4097.436, 4269.231, 4176.41, 450, 0, []
1631429691.422, 86, 0, 4200.513, 4186.667, 4060.513, 4256.41, 4167.692, 450, 0, []
1631429691.4298, 87, 0, 4196.41, 4183.59, 4105.641, 4255.897, 4169.744, 16201, 0, []
1631429691.4377, 88, 0, 4210.769, 4191.795, 4089.231, 4267.692, 4177.949, 450, 0, []
1631429691.4456, 89, 0, 4230.256, 4197.436, 4092.821, 4288.205, 4188.205, 450, 0, []
1631429691.4535, 90, 0, 4227.179, 4199.487, 4112.821, 4285.128, 4192.821, 450, 0, []
1631429691.4614, 91, 0, 4209.744, 4190.256, 4081.538, 4260.513, 4174.359, 16201, 0, []
1631429691.4693, 92, 0, 4200.513, 4177.436, 4103.59, 4252.308, 4154.872, 450, 0, []
1631429691.477, 93, 0, 4199.487, 4187.692, 4080, 4252.308, 4155.385, 450, 0, []
1631429691.485, 94, 0, 4194.359, 4201.026, 4084.103, 4234.359, 4156.923, 450, 0, []
1631429691.4929, 95, 0, 4186.667, 4188.718, 4103.59, 4220, 4149.231, 16201, 0, []
1631429691.5009, 96, 0, 4186.667, 4174.359, 4064.103, 4232.308, 4152.308, 450, 0, []
1631429691.5088, 97, 0, 4198.462, 4176.923, 4096.923, 4252.308, 4171.282, 450, 0, []
1631429691.5165, 98, 0, 4205.641, 4188.205, 4086.154, 4255.897, 4179.487, 450, 0, []
1631429691.5244, 99, 0, 4200, 4184.615, 4081.538, 4256.41, 4175.897, 16201, 0, []
1631429691.5322, 100, 0, 4199.487, 4168.205, 4111.795, 4261.538, 4184.103, 450, 0, []
1631429691.5401, 101, 0, 4203.077, 4167.179, 4079.487, 4251.282, 4183.59, 450, 0, []
1631429691.5479, 102, 0, 4201.026, 4177.949, 4108.205, 4228.205, 4161.538, 450, 0, []
1631429691.5558, 103, 0, 4186.154, 4170.256, 4093.846, 4204.103, 4149.231, 16201, 0, []
1631429691.5635, 104, 0, 4168.718, 4156.923, 4068.718, 4185.128, 4151.282, 450, 0, []
1631429691.5714, 105, 0, 4175.385, 4164.615, 4094.872, 4192.821, 4148.718, 450, 0, []
1631429691.5792, 106, 0, 4196.41, 4171.795, 4071.282, 4228.205, 4152.821, 450, 0, []
1631429691.5872, 107, 0, 4201.026, 4164.615, 4097.436, 4251.282, 4175.385, 16201, 0, []
1631429691.5951, 108, 0, 4198.974, 4169.231, 4078.974, 4245.641, 4187.692, 450, 0, []
1631429691.603, 109, 0, 4214.872, 4175.897, 4062.564, 4238.974, 4184.615, 450, 0, []
1631429691.6109, 110, 0, 4221.538, 4170.769, 4115.897, 4231.795, 4185.128, 450, 0, []
1631429691.6189, 111, 0, 4211.282, 4167.179, 4084.615, 4217.436, 4186.154, 16201, 0, []
1631429691.6268, 112, 0, 4223.077, 4171.282, 4092.821, 4216.923, 4189.744, 450, 0, []
1631429691.6348, 113, 0, 4242.051, 4187.692, 4097.949, 4230.769, 4202.564, 450, 0, []
1631429691.6426, 114, 0, 4233.333, 4192.821, 4077.949, 4231.795, 4201.026, 450, 0, []
1631429691.6506, 115, 0, 4227.179, 4177.949, 4114.872, 4221.026, 4188.718, 16201, 0, []
1631429691.6585, 116, 0, 4236.41, 4176.923, 4088.718, 4217.949, 4195.385, 450, 0, []
1631429691.6663, 117, 0, 4225.641, 4183.077, 4101.026, 4204.615, 4195.385, 450, 0, []
1631429691.6742, 118, 0, 4210.256, 4177.436, 4115.385, 4175.385, 4175.385, 450, 0, []
1631429691.6819, 119, 0, 4221.538, 4179.487, 4086.667, 4177.436, 4170.256, 16201, 0, []
1631429691.6898, 120, 0, 4231.795, 4193.333, 4117.436, 4211.282, 4189.744, 450, 0, []
1631429691.6976, 121, 0, 4229.231, 4191.795, 4093.846, 4219.487, 4198.974, 450, 0, []
1631429691.7055, 122, 0, 4231.795, 4182.051, 4091.795, 4213.846, 4188.718, 450, 0, []
1631429691.7133, 123, 0, 4246.667, 4188.718, 4102.051, 4224.103, 4201.026, 16201, 0, []
1631429691.7211, 124, 0, 4277.436, 4198.974, 4085.128, 4218.974, 4239.487, 450, 0, []
1631429691.7289, 125, 0, 4326.154, 4194.872, 4120, 4192.308, 4277.949, 450, 0, []
1631429691.7369, 126, 0, 4388.718, 4189.744, 4087.692, 4179.487, 4328.718, 450, 0, []
1631429691.7448, 127, 0, 4449.231, 4192.308, 4090.769, 4185.641, 4395.897, 16201, 0, []
1631429691.7527, 128, 0, 4489.744, 4191.795, 4116.41, 4188.718, 4435.897, 450, 0, []
1631429691.7604, 0, 0, 4503.077, 4189.744, 4077.436, 4189.231, 4443.077, 450, 0, []
1631429691.7684, 1, 0, 4497.949, 4190.256, 4107.179, 4205.128, 4444.615, 450, 0, []
1631429691.7763, 2, 0, 4484.103, 4191.282, 4093.333, 4224.103, 4441.026, 16182, 0, []
1631429691.7843, 3, 0, 4461.026, 4184.615, 4083.59, 4220, 4425.128, 450, 0, []
1631429691.7922, 4, 0, 4426.667, 4172.821, 4109.231, 4204.103, 4396.923, 16159, 0, []
1631429691.8002, 5, 0, 4388.718, 4172.821, 4080.513, 4198.974, 4362.564, 450, 0, []
1631429691.808, 6, 0, 4354.359, 4176.41, 4111.282, 4195.897, 4327.179, 196, 0, []
1631429691.816, 7, 0, 4327.692, 4161.026, 4096.41, 4178.462, 4296.41, 450, 0, []
1631429691.8239, 8, 0, 4318.974, 4158.462, 4080.513, 4170.769, 4280.513, 450, 0, []
1631429691.8317, 9, 0, 4321.538, 4195.897, 4122.051, 4198.462, 4286.667, 16159, 0, []
1631429691.8396, 10, 0, 4308.718, 4212.821, 4105.128, 4227.692, 4288.718, 450, 0, []
1631429691.8473, 11, 0, 4287.692, 4196.41, 4133.333, 4226.154, 4269.231, 16188, 0, []
1631429691.8552, 12, 0, 4265.641, 4197.949, 4107.692, 4205.641, 4238.974, 450, 0, []
1631429691.863, 13, 0, 4231.795, 4189.231, 4065.128, 4185.641, 4213.846, 450, 0, []
1631429691.8709, 14, 0, 4221.026, 4165.128, 4107.692, 4177.949, 4211.795, 450, 0, []
1631429691.8787, 15, 0, 4242.051, 4170.769, 4094.359, 4184.615, 4221.538, 16188, 0, []
1631429691.8866, 16, 0, 4235.897, 4179.487, 4112.308, 4182.564, 4218.974, 0, 0, []
1631429691.8945, 17, 0, 4212.308, 4184.615, 4113.333, 4164.103, 4205.641, 0, 0, []
1631429691.9025, 18, 0, 4215.385, 4198.974, 4094.872, 4165.641, 4195.897, 0, 0, []
1631429691.9104, 19, 0, 4216.41, 4203.077, 4122.564, 4181.026, 4192.308, 0, 0, []
1631429691.9184, 20, 0, 4190.256, 4198.462, 4083.077, 4169.231, 4176.41, 0, 0, []
1631429691.9262, 21, 0, 4178.462, 4195.385, 4104.103, 4161.538, 4156.923, 0, 0, []
1631429691.9342, 22, 0, 4189.744, 4183.077, 4117.949, 4185.641, 4160, 0, 0, []
1631429691.9421, 23, 0, 4180, 4164.615, 4074.359, 4186.154, 4163.077, 0, 0, []
1631429691.9501, 24, 0, 4155.897, 4160.513, 4099.487, 4158.462, 4146.667, 0, 0, []
1631429691.958, 25, 0, 4161.538, 4165.641, 4081.026, 4156.41, 4136.41, 0, 0, []
1631429691.9659, 26, 0, 4180.513, 4174.872, 4085.128, 4172.308, 4150.256, 0, 0, []
1631429691.9738, 27, 0, 4184.103, 4187.692, 4097.949, 4174.872, 4167.179, 0, 0, []
1631429691.9816, 28, 0, 4191.282, 4203.077, 4080.513, 4173.333, 4164.103, 0, 0, []
1631429691.9895, 29, 0, 4205.128, 4216.41, 4116.923, 4181.538, 4152.308, 0, 0, []
1631429691.9973, 30, 0, 4188.718, 4208.205, 4079.487, 4173.846, 4140, 0, 0, []
1631429692.0051, 31, 0, 4150.256, 4180, 4074.872, 4141.026, 4119.487, 0, 0, []
1631429692.0129, 32, 0, 4145.128, 4170.256, 4105.128, 4127.692, 4107.692, 0, 0, []
1631429692.0208, 33, 0, 4173.333, 4179.487, 4085.641, 4148.718, 4130.256, 0, 0, []
1631429692.0286, 34, 0, 4168.718, 4167.692, 4114.872, 4157.436, 4148.718, 0, 0, []
1631429692.0365, 35, 0, 4131.795, 4157.436, 4077.436, 4132.308, 4128.205, 0, 0, []
1631429692.0443, 36, 0, 4129.231, 4184.615, 4070.769, 4127.692, 4117.436, 0, 0, []
1631429692.0522, 37, 0, 4159.487, 4210.256, 4113.846, 4152.308, 4129.231, 0, 0, []
1631429692.0601, 38, 0, 4167.179, 4192.821, 4077.436, 4157.436, 4124.615, 0, 0, []
1631429692.0681, 39, 0, 4153.333, 4173.333, 4093.846, 4152.308, 4116.41, 0, 0, []
1631429692.076, 40, 0, 4144.615, 4177.949, 4086.154, 4158.974, 4114.359, 0, 0, []
1631429692.084, 41, 0, 4145.128, 4180, 4078.974, 4164.615, 4108.205, 0, 0, []
1631429692.0918, 42, 0, 4155.385, 4183.59, 4105.641, 4170.256, 4116.41, 0, 0, []
1631429692.0998, 43, 0, 4152.821, 4194.359, 4068.718, 4170.256, 4130.256, 0, 0, []
1631429692.1077, 44, 0, 4134.872, 4201.026, 4087.179, 4149.744, 4116.41, 0, 0, []
1631429692.1157, 45, 0, 4135.897, 4206.667, 4082.051, 4138.974, 4105.641, 0, 0, []
1631429692.1236, 46, 0, 4152.308, 4200.513, 4073.846, 4157.949, 4117.949, 0, 0, []
1631429692.1313, 47, 0, 4161.026, 4189.744, 4111.282, 4173.846, 4129.231, 0, 0, []
1631429692.1392, 48, 0, 4151.795, 4193.846, 4084.615, 4167.692, 4123.59, 0, 0, []
1631429692.147, 49, 0, 4137.436, 4199.487, 4101.538, 4160, 4106.154, 0, 0, []
1631429692.1549, 50, 0, 4145.128, 4201.538, 4094.872, 4159.487, 4095.385, 0, 0, []
1631429692.1627, 51, 0, 4162.564, 4212.821, 4078.974, 4161.538, 4104.103, 0, 0, []
1631429692.1705, 52, 0, 4153.846, 4216.41, 4112.308, 4152.821, 4113.846, 0, 0, []
1631429692.1783, 53, 0, 4139.487, 4201.538, 4065.128, 4128.718, 4104.615, 0, 0, []
1631429692.1862, 54, 0, 4145.128, 4191.282, 4076.923, 4116.923, 4089.231, 0, 0, []
1631429692.194, 55, 0, 4143.077, 4188.205, 4093.846, 4117.436, 4078.462, 0, 0, []
1631429692.202, 56, 0, 4127.179, 4186.154, 4064.615, 4111.282, 4075.897, 0, 0, []
1631429692.2098, 57, 0, 4115.897, 4188.205, 4090.256, 4105.128, 4076.923, 0, 0, []
1631429692.2178, 58, 0, 4106.667, 4190.256, 4052.821, 4102.564, 4064.103, 0, 0, []
1631429692.2257, 59, 0, 4116.41, 4204.615, 4070.256, 4118.462, 4060, 0, 0, []
1631429692.2337, 60, 0, 4143.59, 4220.513, 4102.564, 4148.718, 4089.744, 0, 0, []
1631429692.2416, 61, 0, 4145.128, 4208.205, 4068.718, 4152.308, 4108.205, 0, 0, []
1631429692.2496, 62, 0, 4132.308, 4187.179, 4100.513, 4134.872, 4095.897, 0, 0, []
1631429692.2574, 63, 0, 4137.949, 4192.821, 4085.128, 4129.231, 4089.231, 0, 0, []
1631429692.2654, 64, 0, 4143.077, 4203.59, 4087.692, 4131.795, 4086.667, 450, 0, []
1631429692.2733, 65, 0, 4135.385, 4203.59, 4105.128, 4124.615, 4082.564, 450, 0, []
1631429692.2813, 66, 0, 4130.769, 4211.282, 4075.897, 4114.872, 4090.256, 16184, 0, []
1631429692.2892, 67, 0, 4129.231, 4210.256, 4107.179, 4118.462, 4096.41, 450, 0, []
1631429692.2969, 68, 0, 4138.974, 4199.487, 4086.154, 4136.923, 4095.897, 16165, 0, []
1631429692.3048, 69, 0, 4161.026, 4204.615, 4087.179, 4156.41, 4107.179, 450, 0, []
1631429692.3126, 70, 0, 4163.077, 4222.051, 4114.359, 4159.487, 4117.436, 199, 0, []
1631429692.3205, 71, 0, 4149.744, 4222.564, 4085.641, 4154.359, 4116.923, 450, 0, []
1631429692.3283, 72, 0, 4161.026, 4225.641, 4125.128, 4158.462, 4118.462, 450, 0, []
1631429692.3361, 73, 0, 4182.564, 4239.487, 4109.231, 4167.179, 4116.923, 16155, 0, []
1631429692.3439, 74, 0, 4163.59, 4226.154, 4078.462, 4160.513, 4103.59, 450, 0, []
1631429692.3518, 75, 0, 4144.103, 4219.487, 4106.667, 4155.897, 4102.564, 16202, 0, []
1631429692.3596, 76, 0, 4168.718, 4238.462, 4092.308, 4162.051, 4118.974, 450, 0, []
1631429692.3676, 77, 0, 4183.077, 4228.718, 4115.897, 4162.564, 4116.923, 450, 0, []
1631429692.3754, 78, 0, 4167.692, 4216.41, 4097.436, 4158.462, 4111.282, 450, 0, []
1631429692.3834, 79, 0, 4162.051, 4239.487, 4089.744, 4162.564, 4127.692, 16202, 0, []
1631429692.3913, 80, 0, 4176.41, 4258.974, 4130.769, 4172.308, 4138.462, 450, 0, []
1631429692.3993, 81, 0, 4175.385, 4250.769, 4085.641, 4169.744, 4125.641, 450, 0, []
1631429692.4072, 82, 0, 4149.744, 4229.744, 4088.718, 4154.872, 4112.308, 450, 0, []
1631429692.4151, 83, 0, 4138.974, 4218.462, 4088.718, 4146.154, 4116.923, 16202, 0, []
1631429692.423, 84, 0, 4152.308, 4232.308, 4077.436, 4146.667, 4115.897, 450, 0, []
1631429692.431, 85, 0, 4153.333, 4236.923, 4110.256, 4139.487, 4098.462, 450, 0, []
1631429692.4389, 86, 0, 4133.846, 4215.897, 4080, 4129.231, 4084.103, 450, 0, []
1631429692.4467, 87, 0, 4125.641, 4212.308, 4098.974, 4136.923, 4088.205, 16202, 0, []
1631429692.4545, 88, 0, 4132.821, 4222.051, 4092.821, 4145.128, 4092.308, 450, 0, []
1631429692.4624, 89, 0, 4145.641, 4213.846, 4060.513, 4148.205, 4094.872, 450, 0, []
1631429692.4703, 90, 0, 4161.026, 4214.872, 4111.282, 4160, 4116.923, 450, 0, []
1631429692.4781, 91, 0, 4156.41, 4222.564, 4084.615, 4152.308, 4127.179, 16202, 0, []
1631429692.486, 92, 0, 4138.974, 4217.949, 4073.333, 4130.769, 4108.718, 450, 0, []
1631429692.4938, 93, 0, 4146.667, 4215.897, 4083.077, 4130.769, 4099.487, 450, 0, []
1631429692.5016, 94, 0, 4160, 4215.385, 4062.051, 4140, 4101.026, 450, 0, []
1631429692.5094, 95, 0, 4152.821, 4211.282, 4096.41, 4142.051, 4101.026, 16202, 0, []
1631429692.5174, 96, 0, 4156.923, 4217.436, 4075.897, 4156.41, 4116.923, 450, 0, []
1631429692.5253, 97, 0, 4180.513, 4217.949, 4086.667, 4174.872, 4138.974, 450, 0, []
1631429692.5333, 98, 0, 4181.026, 4203.59, 4099.487, 4168.205, 4138.462, 450, 0, []
1631429692.5411, 99, 0, 4168.205, 4210.256, 4067.692, 4150.769, 4135.897, 16202, 0, []
1631429692.5491, 100, 0, 4173.846, 4231.795, 4110.256, 4148.718, 4136.923, 450, 0, []
1631429692.557, 101, 0, 4183.077, 4229.744, 4086.667, 4151.282, 4122.051, 450, 0, []
1631429692.565, 102, 0, 4182.564, 4212.821, 4082.564, 4150.256, 4117.949, 450, 0, []
1631429692.5729, 103, 0, 4178.974, 4210.256, 4108.205, 4151.795, 4136.41, 16202, 0, []
1631429692.5808, 104, 0, 4188.718, 4222.051, 4067.692, 4149.231, 4145.128, 450, 0, []
1631429692.5887, 105, 0, 4209.231, 4226.154, 4092.821, 4145.641, 4155.897, 450, 0, []
1631429692.5965, 106, 0, 4227.179, 4221.026, 4081.538, 4141.538, 4186.154, 450, 0, []
1631429692.6044, 107, 0, 4240, 4220, 4075.897, 4133.846, 4210.769, 16202, 0, []
1631429692.6122, 108, 0, 4262.564, 4233.333, 4110.256, 4136.923, 4234.872, 450, 0, []
1631429692.62, 109, 0, 4281.538, 4238.974, 4083.077, 4146.667, 4256.41, 450, 0, []
1631429692.6278, 110, 0, 4271.795, 4213.846, 4103.077, 4142.564, 4235.385, 450, 0, []
1631429692.6357, 111, 0, 4248.718, 4192.821, 4082.051, 4126.154, 4202.051, 16202, 0, []
1631429692.6435, 112, 0, 4240, 4212.821, 4076.41, 4134.872, 4208.205, 450, 0, []
1631429692.6514, 113, 0, 4252.308, 4234.872, 4125.128, 4161.026, 4223.077, 450, 0, []
1631429692.6591, 114, 0, 4251.282, 4225.641, 4087.179, 4152.821, 4217.949, 450, 0, []
1631429692.6671, 115, 0, 4233.333, 4218.974, 4097.436, 4131.282, 4211.795, 16202, 0, []
1631429692.675, 116, 0, 4231.795, 4221.026, 4100.513, 4136.41, 4207.692, 450, 0, []
1631429692.683, 117, 0, 4235.385, 4211.282, 4088.205, 4148.718, 4198.462, 450, 0, []
1631429692.6909, 118, 0, 4217.949, 4222.564, 4120, 4147.692, 4186.667, 450, 0, []
1631429692.6988, 119, 0, 4196.923, 4238.462, 4083.077, 4144.103, 4166.154, 16202, 0, []
1631429692.7067, 120, 0, 4197.949, 4218.462, 4097.436, 4151.282, 4158.974, 450, 0, []
1631429692.7147, 121, 0, 4210.769, 4212.821, 4109.231, 4155.897, 4177.436, 450, 0, []
1631429692.7226, 122, 0, 4212.821, 4232.308, 4086.667, 4145.128, 4184.615, 450, 0, []
1631429692.7306, 123, 0, 4214.872, 4232.821, 4111.282, 4139.487, 4183.077, 16202, 0, []
1631429692.7385, 124, 0, 4228.205, 4238.974, 4085.128, 4145.128, 4196.41, 450, 0, []
1631429692.7464, 125, 0, 4227.179, 4247.692, 4098.974, 4144.615, 4191.795, 450, 0, []
1631429692.7543, 126, 0, 4207.692, 4229.744, 4097.949, 4141.538, 4167.179, 450, 0, []
1631429692.7621, 127, 0, 4211.282, 4220, 4070.256, 4151.795, 4174.872, 16202, 0, []
1631429692.77, 128, 0, 4235.897, 4236.923, 4118.974, 4158.974, 4204.615, 450, 0, []
1631429692.7778, 0, 0, 4242.564, 4241.538, 4092.821, 4151.282, 4206.667, 450, 0, []
1631429692.7856, 1, 0, 4222.051, 4221.026, 4090.769, 4141.026, 4194.872, 450, 0, []
1631429692.7934, 2, 0, 4203.077, 4205.641, 4104.103, 4127.692, 4185.641, 16187, 0, []
1631429692.8013, 3, 0, 4203.59, 4207.179, 4063.077, 4115.897, 4170.769, 450, 0, []
1631429692.8091, 4, 0, 4213.846, 4210.769, 4095.385, 4130.256, 4174.359, 16161, 0, []
1631429692.817, 5, 0, 4218.462, 4209.231, 4091.282, 4153.846, 4193.846, 450, 0, []
1631429692.8247, 6, 0, 4212.308, 4210.256, 4091.795, 4144.615, 4183.59, 208, 0, []
1631429692.8327, 7, 0, 4200.513, 4216.923, 4105.128, 4126.667, 4163.59, 450, 0, []
1631429692.8406, 8, 0, 4193.846, 4215.897, 4083.59, 4128.205, 4173.333, 450, 0, []
1631429692.8486, 9, 0, 4196.41, 4216.923, 4125.641, 4128.718, 4180.513, 16162, 0, []
1631429692.8565, 10, 0, 4203.59, 4218.974, 4099.487, 4123.59, 4169.231, 450, 0, []
1631429692.8644, 11, 0, 4194.359, 4212.821, 4080.513, 4128.205, 4161.026, 16195, 0, []
1631429692.8723, 12, 0, 4172.821, 4212.308, 4108.205, 4132.821, 4153.846, 450, 0, []
1631429692.8803, 13, 0, 4171.795, 4224.103, 4068.718, 4128.718, 4147.179, 450, 0, []
1631429692.8882, 14, 0, 4187.692, 4231.795, 4091.282, 4132.308, 4148.718, 450, 0, []
1631429692.8962, 15, 0, 4187.692, 4223.59, 4083.59, 4130.256, 4153.333, 16195, 0, []
1631429692.904, 16, 0, 4179.487, 4212.821, 4071.795, 4117.436, 4153.846, 0, 0, []
1631429692.9119, 17, 0, 4194.872, 4212.308, 4110.256, 4123.59, 4163.59, 0, 0, []
1631429692.9198, 18, 0, 4208.718, 4226.154, 4088.205, 4141.538, 4184.103, 0, 0, []
1631429692.9276, 19, 0, 4192.308, 4228.205, 4103.59, 4135.897, 4181.538, 0, 0, []
1631429692.9355, 20, 0, 4182.051, 4220, 4080.513, 4118.462, 4158.462, 0, 0, []
1631429692.9433, 21, 0, 4193.333, 4225.128, 4064.103, 4128.718, 4156.923, 0, 0, []
1631429692.9511, 22, 0, 4204.103, 4225.641, 4110.256, 4134.359, 4178.462, 0, 0, []
1631429692.9589, 23, 0, 4215.897, 4223.077, 4079.487, 4112.308, 4188.718, 0, 0, []
1631429692.9668, 24, 0, 4240, 4231.795, 4095.897, 4110.769, 4198.462, 0, 0, []
1631429692.9746, 25, 0, 4260, 4238.974, 4096.923, 4124.103, 4227.179, 0, 0, []
1631429692.9826, 26, 0, 4271.282, 4232.308, 4061.538, 4116.41, 4242.564, 0, 0, []
1631429692.9904, 27, 0, 4285.641, 4236.41, 4091.795, 4124.103, 4244.103, 0, 0, []
1631429692.9984, 28, 0, 4285.128, 4237.436, 4069.744, 4146.154, 4242.564, 0, 0, []
1631429693.0063, 29, 0, 4268.718, 4214.359, 4083.077, 4135.897, 4228.718, 0, 0, []
1631429693.0143, 30, 0, 4262.051, 4209.231, 4090.256, 4121.538, 4224.615, 0, 0, []
1631429693.0222, 31, 0, 4258.974, 4229.744, 4068.205, 4135.385, 4238.974, 0, 0, []
1631429693.0301, 32, 0, 4254.872, 4231.795, 4113.333, 4143.59, 4243.077, 0, 0, []
1631429693.038, 33, 0, 4251.795, 4215.897, 4085.128, 4130.769, 4232.821, 0, 0, []
1631429693.046, 34, 0, 4246.667, 4220, 4086.154, 4132.308, 4231.795, 0, 0, []
1631429693.0539, 35, 0, 4244.615, 4242.564, 4114.359, 4153.333, 4232.308, 0, 0, []
1631429693.0617, 36, 0, 4244.615, 4251.795, 4093.846, 4156.923, 4229.231, 0, 0, []
1631429693.0695, 37, 0, 4234.359, 4245.641, 4115.385, 4141.026, 4224.103, 0, 0, []
1631429693.0773, 38, 0, 4225.641, 4238.462, 4071.795, 4129.231, 4209.231, 0, 0, []
1631429693.0852, 39, 0, 4240.513, 4229.744, 4071.282, 4129.231, 4215.385, 0, 0, []
1631429693.093, 40, 0, 4279.487, 4220.513, 4111.282, 4130.256, 4258.974, 0, 0, []
1631429693.1009, 41, 0, 4331.795, 4219.487, 4080.513, 4130.769, 4307.692, 0, 0, []
1631429693.1086, 42, 0, 4385.641, 4224.103, 4098.462, 4133.333, 4352.308, 0, 0, []
1631429693.1165, 43, 0, 4425.128, 4225.641, 4078.974, 4127.179, 4395.385, 0, 0, []
1631429693.1243, 44, 0, 4438.462, 4216.923, 4068.718, 4113.333, 4410.256, 0, 0, []
1631429693.1322, 45, 0, 4441.538, 4210.769, 4087.179, 4108.205, 4404.103, 0, 0, []
1631429693.14, 46, 0, 4447.179, 4218.462, 4065.641, 4114.359, 4401.538, 0, 0, []
1631429693.1479, 47, 0, 4441.026, 4223.077, 4110.256, 4125.641, 4395.385, 0, 0, []
1631429693.1558, 48, 0, 4412.308, 4222.564, 4090.769, 4129.231, 4373.846, 0, 0, []
1631429693.1638, 49, 0, 4377.436, 4222.564, 4067.179, 4129.231, 4344.103, 0, 0, []
1631429693.1717, 50, 0, 4357.949, 4220, 4102.051, 4134.872, 4322.564, 0, 0, []
1631429693.1797, 51, 0, 4345.641, 4221.026, 4069.231, 4134.359, 4301.026, 0, 0, []
1631429693.1876, 52, 0, 4315.897, 4231.795, 4085.128, 4133.846, 4278.974, 0, 0, []
1631429693.1955, 53, 0, 4275.897, 4230.769, 4087.179, 4136.923, 4261.026, 0, 0, []
1631429693.2034, 54, 0, 4260, 4213.846, 4086.667, 4129.231, 4240, 0, 0, []
1631429693.2112, 55, 0, 4250.256, 4212.821, 4119.487, 4115.897, 4217.436, 0, 0, []
1631429693.2191, 56, 0, 4218.974, 4223.077, 4079.487, 4108.718, 4198.462, 0, 0, []
1631429693.2269, 57, 0, 4190.256, 4216.41, 4097.949, 4100.513, 4174.359, 0, 0, []
1631429693.2347, 58, 0, 4188.718, 4217.949, 4106.154, 4101.026, 4157.436, 0, 0, []
1631429693.2427, 59, 0, 4187.692, 4233.846, 4083.077, 4119.487, 4164.615, 0, 0, []
1631429693.2506, 60, 0, 4173.333, 4239.487, 4105.128, 4124.615, 4167.179, 0, 0, []
1631429693.2584, 61, 0, 4164.103, 4234.359, 4068.718, 4110.769, 4148.205, 0, 0, []
1631429693.2663, 62, 0, 4162.564, 4222.051, 4082.564, 4104.103, 4134.359, 0, 0, []
1631429693.274, 63, 0, 4155.897, 4217.949, 4090.256, 4104.103, 4137.949, 0, 0, []
1631429693.2819, 64, 0, 4150.256, 4235.385, 4069.231, 4102.051, 4147.692, 450, 0, []
1631429693.2897, 65, 0, 4155.897, 4240, 4111.282, 4094.872, 4147.692, 450, 0, []
1631429693.2977, 66, 0, 4157.949, 4221.538, 4084.615, 4087.692, 4129.744, 16188, 0, []
1631429693.3056, 67, 0, 4146.667, 4214.872, 4092.821, 4105.128, 4118.974, 450, 0, []
1631429693.3135, 68, 0, 4140, 4225.641, 4107.179, 4132.821, 4128.205, 16159, 0, []
1631429693.3214, 69, 0, 4138.974, 4227.692, 4064.615, 4131.282, 4125.641, 450, 0, []
1631429693.3294, 70, 0, 4133.846, 4223.077, 4087.692, 4114.872, 4105.128, 195, 0, []
1631429693.3373, 71, 0, 4124.103, 4209.231, 4059.487, 4101.538, 4091.282, 450, 0, []
1631429693.3453, 72, 0, 4114.359, 4190.769, 4055.897, 4091.282, 4087.692, 450, 0, []
1631429693.3531, 73, 0, 4113.846, 4204.615, 4087.179, 4087.692, 4094.359, 16170, 0, []
1631429693.3611, 74, 0, 4113.333, 4222.564, 4067.179, 4077.436, 4094.359, 450, 0, []
1631429693.369, 75, 0, 4100, 4208.205, 4098.462, 4065.641, 4068.718, 16188, 0, []
1631429693.3768, 76, 0, 4095.385, 4195.385, 4085.128, 4087.692, 4058.974, 450, 0, []
1631429693.3847, 77, 0, 4112.821, 4198.462, 4088.205, 4134.872, 4090.256, 450, 0, []
1631429693.3924, 78, 0, 4129.231, 4207.692, 4112.308, 4153.846, 4115.897, 450, 0, []
1631429693.4003, 79, 0, 4127.692, 4220.513, 4066.667, 4133.846, 4114.872, 16188, 0, []
1631429693.4081, 80, 0, 4123.077, 4216.923, 4086.667, 4110.256, 4103.077, 450, 0, []
1631429693.416, 81, 0, 4124.103, 4201.538, 4090.769, 4096.41, 4089.744, 450, 0, []
1631429693.4238, 82, 0, 4120, 4205.641, 4101.538, 4090.256, 4089.231, 450, 0, []
1631429693.4318, 83, 0, 4113.846, 4215.385, 4133.846, 4096.923, 4106.667, 16188, 0, []
1631429693.4396, 84, 0, 4120, 4212.821, 4094.872, 4111.795, 4111.795, 450, 0, []
1631429693.4476, 85, 0, 4131.795, 4220, 4122.051, 4123.59, 4106.154, 450, 0, []
1631429693.4555, 86, 0, 4133.846, 4236.923, 4111.282, 4134.359, 4113.333, 450, 0, []
1631429693.4634, 87, 0, 4118.462, 4231.282, 4082.051, 4140.513, 4111.282, 16188, 0, []
1631429693.4713, 88, 0, 4100.513, 4216.923, 4114.359, 4121.538, 4094.872, 450, 0, []
1631429693.4792, 89, 0, 4104.615, 4222.564, 4091.282, 4098.462, 4086.154, 450, 0, []
1631429693.4872, 90, 0, 4115.385, 4228.205, 4112.821, 4106.667, 4078.462, 450, 0, []
1631429693.4951, 91, 0, 4111.795, 4225.641, 4107.179, 4122.051, 4071.282, 16188, 0, []
1631429693.503, 92, 0, 4104.103, 4223.59, 4085.641, 4122.564, 4078.462, 450, 0, []
1631429693.511, 93, 0, 4105.128, 4219.487, 4121.538, 4127.179, 4089.744, 450, 0, []
1631429693.5188, 94, 0, 4105.128, 4211.282, 4078.462, 4125.641, 4083.59, 450, 0, []
1631429693.5266, 95, 0, 4096.923, 4210.256, 4085.641, 4112.308, 4070.769, 16188, 0, []
1631429693.5345, 96, 0, 4096.41, 4216.923, 4098.974, 4111.795, 4066.154, 450, 0, []
1631429693.5423, 97, 0, 4100.513, 4216.923, 4074.872, 4121.026, 4071.282, 450, 0, []
1631429693.5502, 98, 0, 4093.333, 4208.718, 4107.179, 4119.487, 4077.949, 450, 0, []
1631429693.5579, 99, 0, 4081.538, 4200, 4073.846, 4107.692, 4071.282, 16188, 0, []
1631429693.5658, 100, 0, 4083.59, 4198.974, 4074.872, 4102.564, 4062.051, 450, 0, []
1631429693.5736, 101, 0, 4097.436, 4201.026, 4100, 4112.308, 4069.231, 450, 0, []
1631429693.5815, 102, 0, 4104.103, 4199.487, 4082.051, 4118.974, 4078.462, 450, 0, []
1631429693.5893, 103, 0, 4098.974, 4196.41, 4094.872, 4116.41, 4072.821, 16188, 0, []
1631429693.5971, 104, 0, 4088.718, 4193.333, 4056.41, 4116.923, 4069.744, 450, 0, []
1631429693.6049, 105, 0, 4086.667, 4194.359, 4070.256, 4117.949, 4073.846, 450, 0, []
1631429693.6128, 106, 0, 4093.333, 4201.538, 4092.821, 4114.872, 4069.231, 450, 0, []
1631429693.6206, 107, 0, 4092.308, 4202.051, 4055.897, 4110.769, 4055.385, 16188, 0, []
1631429693.6286, 108, 0, 4089.744, 4196.923, 4089.744, 4111.282, 4056.923, 450, 0, []
1631429693.6364, 109, 0, 4096.41, 4197.949, 4078.974, 4116.923, 4076.41, 450, 0, []
1631429693.6444, 110, 0, 4102.564, 4196.41, 4084.615, 4123.077, 4086.667, 450, 0, []
1631429693.6523, 111, 0, 4105.128, 4198.974, 4113.333, 4129.744, 4084.103, 16188, 0, []
1631429693.6603, 112, 0, 4113.846, 4213.846, 4076.41, 4135.385, 4083.077, 450, 0, []
1631429693.6682, 113, 0, 4123.077, 4213.846, 4100, 4134.872, 4083.59, 450, 0, []
1631429693.6761, 114, 0, 4122.564, 4207.692, 4080.513, 4127.179, 4084.615, 450, 0, []
1631429693.6839, 115, 0, 4121.026, 4221.026, 4069.231, 4120.513, 4089.744, 16188, 0, []
1631429693.6917, 116, 0, 4125.128, 4226.667, 4102.051, 4117.436, 4093.333, 450, 0, []
1631429693.6996, 117, 0, 4124.103, 4220.513, 4066.154, 4117.436, 4089.231, 450, 0, []
1631429693.7074, 118, 0, 4115.385, 4225.128, 4092.821, 4127.692, 4084.103, 450, 0, []
1631429693.7153, 119, 0, 4107.692, 4222.051, 4085.641, 4130.256, 4080, 16188, 0, []
1631429693.723, 120, 0, 4107.692, 4215.385, 4069.744, 4123.077, 4085.641, 450, 0, []
1631429693.7309, 121, 0, 4113.333, 4229.744, 4103.077, 4121.026, 4090.769, 450, 0, []
1631429693.7387, 122, 0, 4116.41, 4240, 4061.538, 4116.923, 4082.564, 450, 0, []
1631429693.7466, 123, 0, 4127.179, 4232.821, 4081.538, 4123.077, 4092.821, 16188, 0, []
1631429693.7544, 124, 0, 4141.026, 4233.846, 4092.821, 4132.821, 4116.923, 450, 0, []
1631429693.7623, 125, 0, 4132.821, 4231.795, 4077.436, 4126.154, 4108.205, 450, 0, []
1631429693.7702, 126, 0, 4126.154, 4224.103, 4111.282, 4125.641, 4094.359, 450, 0, []
1631429693.7782, 127, 0, 4137.436, 4221.026, 4075.385, 4140.513, 4106.154, 16188, 0, []
1631429693.7861, 128, 0, 4129.744, 4208.205, 4086.667, 4141.538, 4106.154, 450, 0, []
1631429693.7941, 0, 0, 4113.846, 4205.641, 4103.59, 4130.256, 4096.41, 450, 0, []
1631429693.8019, 1, 0, 4130.769, 4227.692, 4087.692, 4130.256, 4104.103, 450, 0, []
1631429693.8099, 2, 0, 4145.641, 4237.436, 4113.333, 4134.359, 4103.077, 16193, 0, []
1631429693.8178, 3, 0, 4128.205, 4220, 4074.872, 4128.205, 4093.333, 450, 0, []
1631429693.8258, 4, 0, 4113.333, 4208.205, 4076.41, 4122.051, 4099.487, 16161, 0, []
1631429693.8337, 5, 0, 4122.051, 4225.641, 4081.026, 4123.59, 4102.051, 450, 0, []
1631429693.8416, 6, 0, 4134.359, 4235.897, 4054.359, 4132.308, 4092.308, 193, 0, []
1631429693.8495, 7, 0, 4141.026, 4223.59, 4107.179, 4144.615, 4102.051, 450, 0, []
1631429693.8573, 8, 0, 4142.051, 4223.077, 4098.462, 4146.667, 4121.026, 450, 0, []
1631429693.8652, 9, 0, 4138.462, 4232.821, 4095.897, 4133.333, 4116.41, 16167, 0, []
1631429693.873, 10, 0, 4141.538, 4228.205, 4106.154, 4127.179, 4107.692, 450, 0, []
1631429693.8809, 11, 0, 4141.538, 4217.436, 4072.308, 4129.744, 4103.59, 16195, 0, []
1631429693.8886, 12, 0, 4129.744, 4219.487, 4095.897, 4126.667, 4096.41, 450, 0, []
1631429693.8965, 13, 0, 4133.333, 4227.692, 4075.897, 4126.154, 4104.615, 450, 0, []
1631429693.9043, 14, 0, 4151.282, 4230.256, 4085.641, 4128.205, 4118.462, 450, 0, []
1631429693.9123, 15, 0, 4158.462, 4231.795, 4113.333, 4127.179, 4122.051, 16195, 0, []
1631429693.9202, 16, 0, 4154.359, 4233.846, 4080, 4131.795, 4125.641, 0, 0, []
1631429693.9281, 17, 0, 4155.897, 4231.795, 4114.872, 4143.077, 4135.897, 0, 0, []
1631429693.936, 18, 0, 4166.154, 4227.179, 4099.487, 4142.564, 4136.923, 0, 0, []
1631429693.944, 19, 0, 4167.179, 4228.718, 4080, 4141.026, 4127.692, 0, 0, []
1631429693.9519, 20, 0, 4160.513, 4233.333, 4102.051, 4145.128, 4130.256, 0, 0, []
1631429693.9599, 21, 0, 4156.41, 4230.769, 4070.769, 4140.513, 4137.949, 0, 0, []
1631429693.9677, 22, 0, 4157.949, 4231.282, 4092.821, 4133.846, 4130.256, 0, 0, []
1631429693.9757, 23, 0, 4154.359, 4233.846, 4077.949, 4133.333, 4116.923, 0, 0, []
1631429693.9836, 24, 0, 4141.538, 4231.795, 4066.667, 4134.872, 4113.333, 0, 0, []
1631429693.9916, 25, 0, 4135.385, 4230.256, 4103.077, 4133.846, 4111.282, 0, 0, []
1631429693.9995, 26, 0, 4144.103, 4236.41, 4063.077, 4133.333, 4105.128, 0, 0, []
1631429694.0072, 27, 0, 4155.385, 4231.282, 4081.026, 4139.487, 4108.718, 0, 0, []
1631429694.0151, 28, 0, 4145.128, 4211.282, 4081.538, 4130.256, 4110.256, 0, 0, []
1631429694.0229, 29, 0, 4127.692, 4201.026, 4058.974, 4110.256, 4098.462, 0, 0, []
1631429694.0308, 30, 0, 4131.282, 4209.231, 4087.692, 4112.821, 4091.282, 0, 0, []
1631429694.0386, 31, 0, 4139.487, 4215.385, 4055.385, 4118.462, 4093.846, 0, 0, []
1631429694.0464, 32, 0, 4138.974, 4209.744, 4080.513, 4114.872, 4100.513, 0, 0, []
1631429694.0542, 33, 0, 4141.538, 4211.795, 4096.41, 4120.513, 4112.821, 0, 0, []
1631429694.0621, 34, 0, 4152.821, 4218.462, 4073.846, 4125.641, 4118.974, 0, 0, []
1631429694.0699, 35, 0, 4158.462, 4210.769, 4105.641, 4122.051, 4113.846, 0, 0, []
1631429694.0779, 36, 0, 4150.769, 4204.103, 4076.923, 4120.513, 4110.256, 0, 0, []
1631429694.0857, 37, 0, 4153.846, 4214.359, 4093.333, 4129.744, 4121.538, 0, 0, []
1631429694.0937, 38, 0, 4171.282, 4229.744, 4108.205, 4141.026, 4134.359, 0, 0, []
1631429694.1016, 39, 0, 4175.385, 4224.615, 4074.359, 4141.538, 4131.795, 0, 0, []
1631429694.1096, 40, 0, 4168.205, 4213.846, 4102.051, 4134.359, 4132.308, 0, 0, []
1631429694.1175, 41, 0, 4173.333, 4231.795, 4083.077, 4133.846, 4143.077, 0, 0, []
1631429694.1255, 42, 0, 4175.897, 4247.179, 4090.256, 4137.436, 4137.949, 0, 0, []
1631429694.1333, 43, 0, 4161.538, 4225.128, 4095.897, 4132.308, 4120.513, 0, 0, []
1631429694.1413, 44, 0, 4150.769, 4209.231, 4056.41, 4130.256, 4120, 0, 0, []
1631429694.1492, 45, 0, 4150.769, 4216.923, 4101.026, 4135.385, 4125.128, 0, 0, []
1631429694.157, 46, 0, 4160.513, 4212.308, 4092.308, 4133.846, 4118.462, 0, 0, []
1631429694.1649, 47, 0, 4170.256, 4198.462, 4082.051, 4126.667, 4117.436, 0, 0, []
1631429694.1726, 48, 0, 4157.949, 4200.513, 4098.974, 4118.462, 4125.128, 0, 0, []
1631429694.1805, 49, 0, 4150.769, 4216.41, 4070.256, 4120, 4128.718, 0, 0, []
1631429694.1883, 50, 0, 4176.41, 4226.667, 4100.513, 4129.744, 4128.718, 0, 0, []
1631429694.1962, 51, 0, 4194.872, 4222.051, 4078.974, 4126.154, 4128.205, 0, 0, []
1631429694.204, 52, 0, 4182.564, 4219.487, 4069.744, 4113.846, 4130.256, 0, 0, []
1631429694.2118, 53, 0, 4181.026, 4230.256, 4103.077, 4114.359, 4132.308, 0, 0, []
1631429694.2196, 54, 0, 4192.308, 4226.667, 4067.179, 4123.077, 4127.692, 0, 0, []
1631429694.2276, 55, 0, 4181.538, 4209.231, 4080, 4126.667, 4123.077, 0, 0, []
1631429694.2355, 56, 0, 4167.692, 4210.256, 4070.256, 4122.051, 4123.59, 0, 0, []
1631429694.2435, 57, 0, 4171.795, 4214.872, 4071.795, 4117.436, 4114.872, 0, 0, []
1631429694.2513, 58, 0, 4170.256, 4216.41, 4103.077, 4118.974, 4108.205, 0, 0, []
1631429694.2593, 59, 0, 4152.308, 4212.821, 4060.513, 4108.718, 4105.641, 0, 0, []
1631429694.2672, 60, 0, 4143.59, 4194.872, 4082.051, 4087.692, 4096.923, 0, 0, []
1631429694.2752, 61, 0, 4160, 4194.872, 4085.128, 4084.615, 4097.949, 0, 0, []
1631429694.2831, 62, 0, 4170.769, 4210.256, 4071.282, 4091.795, 4106.154, 0, 0, []
1631429694.291, 63, 0, 4160, 4208.205, 4098.462, 4084.103, 4100.513, 0, 0, []
1631429694.2989, 64, 0, 4157.436, 4203.59, 4054.872, 4067.692, 4091.795, 450, 0, []
1631429694.3067, 65, 0, 4169.744, 4216.923, 4076.923, 4070.769, 4092.308, 450, 0, []
1631429694.3146, 66, 0, 4173.846, 4220.513, 4097.436, 4091.282, 4095.385, 16189, 0, []
1631429694.3224, 67, 0, 4164.615, 4211.282, 4072.308, 4093.846, 4098.974, 450, 0, []
1631429694.3302, 68, 0, 4164.103, 4213.333, 4098.462, 4084.103, 4104.103, 16156, 0, []
1631429694.338, 69, 0, 4178.462, 4217.949, 4078.974, 4084.615, 4102.564, 450, 0, []
1631429694.3459, 70, 0, 4184.103, 4215.385, 4097.436, 4092.308, 4107.692, 194, 0, []
1631429694.3537, 71, 0, 4177.436, 4217.949, 4096.41, 4094.359, 4121.538, 450, 0, []
1631429694.3616, 72, 0, 4174.872, 4223.59, 4062.051, 4098.974, 4117.949, 450, 0, []
1631429694.3694, 73, 0, 4181.538, 4219.487, 4101.538, 4111.282, 4109.744, 16159, 0, []
1631429694.3772, 74, 0, 4169.744, 4205.641, 4070.769, 4107.179, 4103.59, 450, 0, []
1631429694.385, 75, 0, 4141.026, 4197.949, 4069.744, 4087.179, 4087.179, 16201, 0, []
1631429694.3929, 76, 0, 4152.821, 4210.769, 4101.026, 4087.692, 4090.769, 450, 0, []
1631429694.4007, 77, 0, 4192.821, 4232.308, 4086.154, 4110.769, 4129.231, 450, 0, []
1631429694.4087, 78, 0, 4198.462, 4234.872, 4115.385, 4116.923, 4147.179, 450, 0, []
1631429694.4165, 79, 0, 4180, 4218.974, 4077.949, 4096.923, 4127.692, 16201, 0, []
1631429694.4245, 80, 0, 4181.026, 4208.718, 4071.282, 4090.256, 4113.333, 450, 0, []
1631429694.4324, 81, 0, 4187.692, 4219.487, 4103.077, 4103.59, 4117.949, 450, 0, []
1631429694.4404, 82, 0, 4178.974, 4224.615, 4067.692, 4106.154, 4123.077, 450, 0, []
1631429694.4483, 83, 0, 4177.949, 4213.846, 4092.308, 4100.513, 4121.538, 16201, 0, []
1631429694.4561, 84, 0, 4189.744, 4217.436, 4088.205, 4102.564, 4123.077, 450, 0, []
1631429694.464, 85, 0, 4190.769, 4226.667, 4082.564, 4106.667, 4132.821, 450, 0, []
1631429694.472, 86, 0, 4177.949, 4223.59, 4088.718, 4107.692, 4131.282, 450, 0, []
1631429694.4799, 87, 0, 4175.897, 4218.974, 4053.846, 4111.282, 4118.462, 16201, 0, []
1631429694.4877, 88, 0, 4184.103, 4218.974, 4096.923, 4116.41, 4120, 450, 0, []
1631429694.4955, 89, 0, 4175.385, 4214.872, 4078.974, 4103.59, 4123.077, 450, 0, []
1631429694.5033, 90, 0, 4162.564, 4212.308, 4055.897, 4085.641, 4117.436, 450, 0, []
1631429694.5112, 91, 0, 4172.308, 4213.846, 4092.821, 4091.282, 4118.974, 16201, 0, []
1631429694.519, 92, 0, 4183.59, 4213.846, 4058.462, 4097.436, 4124.615, 450, 0, []
1631429694.5269, 93, 0, 4176.41, 4216.41, 4083.59, 4092.308, 4122.051, 450, 0, []
1631429694.5346, 94, 0, 4190.769, 4223.59, 4096.41, 4106.667, 4131.795, 450, 0, []
1631429694.5426, 95, 0, 4214.359, 4229.231, 4088.205, 4138.974, 4156.41, 16201, 0, []
1631429694.5505, 96, 0, 4204.615, 4235.385, 4120.513, 4150.256, 4161.538, 450, 0, []
1631429694.5585, 97, 0, 4188.718, 4236.41, 4085.128, 4129.744, 4151.282, 450, 0, []
1631429694.5664, 98, 0, 4201.538, 4228.718, 4094.359, 4117.436, 4152.821, 450, 0, []
1631429694.5744, 99, 0, 4208.718, 4218.974, 4093.333, 4120, 4152.821, 16201, 0, []
1631429694.5822, 100, 0, 4196.923, 4221.026, 4073.846, 4117.949, 4135.385, 450, 0, []
1631429694.5902, 101, 0, 4197.436, 4230.256, 4104.615, 4125.128, 4134.359, 450, 0, []
1631429694.5981, 102, 0, 4200.513, 4230.769, 4077.949, 4135.897, 4151.795, 450, 0, []
1631429694.6061, 103, 0, 4200.513, 4237.436, 4102.564, 4131.795, 4157.949, 16201, 0, []
1631429694.614, 104, 0, 4208.205, 4251.282, 4110.769, 4129.231, 4153.846, 450, 0, []
1631429694.6217, 105, 0, 4205.641, 4243.59, 4072.821, 4138.462, 4155.385, 450, 0, []
1631429694.6296, 106, 0, 4188.205, 4229.231, 4107.692, 4127.692, 4147.179, 450, 0, []
1631429694.6374, 107, 0, 4182.051, 4233.846, 4086.667, 4100, 4123.077, 16201, 0, []
1631429694.6453, 108, 0, 4182.564, 4228.718, 4087.692, 4098.462, 4112.821, 450, 0, []
1631429694.6531, 109, 0, 4174.872, 4214.359, 4095.897, 4109.231, 4125.128, 450, 0, []
1631429694.6609, 110, 0, 4172.821, 4214.359, 4064.103, 4106.667, 4123.59, 450, 0, []
1631429694.6687, 111, 0, 4181.026, 4212.821, 4095.897, 4110.769, 4110.256, 16201, 0, []
1631429694.6766, 112, 0, 4183.59, 4210.256, 4068.718, 4117.436, 4121.026, 450, 0, []
1631429694.6844, 113, 0, 4176.41, 4217.436, 4077.949, 4114.359, 4137.436, 450, 0, []
1631429694.6924, 114, 0, 4173.333, 4220.513, 4113.333, 4111.282, 4130.769, 450, 0, []
1631429694.7002, 115, 0, 4171.282, 4214.872, 4073.333, 4110.769, 4113.846, 16201, 0, []
1631429694.7082, 116, 0, 4168.205, 4212.308, 4096.923, 4113.846, 4119.487, 450, 0, []
1631429694.7161, 117, 0, 4172.821, 4227.692, 4089.744, 4122.564, 4134.872, 450, 0, []
1631429694.7241, 118, 0, 4181.538, 4241.538, 4092.821, 4128.205, 4131.795, 450, 0, []
1631429694.732, 119, 0, 4185.128, 4235.385, 4117.949, 4132.308, 4127.692, 16201, 0, []
1631429694.7399, 120, 0, 4183.077, 4226.154, 4076.923, 4137.436, 4137.436, 450, 0, []
1631429694.7478, 121, 0, 4186.154, 4229.744, 4093.846, 4134.359, 4146.154, 450, 0, []
1631429694.7558, 122, 0, 4191.795, 4227.179, 4078.974, 4125.641, 4140, 450, 0, []
1631429694.7637, 123, 0, 4190.256, 4211.795, 4067.692, 4125.641, 4138.462, 16201, 0, []
1631429694.7717, 124, 0, 4187.179, 4217.436, 4095.897, 4130.256, 4144.615, 450, 0, []
1631429694.7795, 125, 0, 4198.462, 4232.821, 4068.718, 4132.821, 4145.641, 450, 0, []
1631429694.7873, 126, 0, 4215.385, 4231.795, 4104.103, 4140.513, 4157.949, 450, 0, []
1631429694.7952, 127, 0, 4220, 4238.462, 4103.077, 4147.179, 4175.897, 16201, 0, []
1631429694.803, 128, 0, 4213.846, 4247.692, 4075.385, 4139.487, 4168.205, 450, 0, []
1631429694.8109, 0, 0, 4203.59, 4233.333, 4092.821, 4123.077, 4145.641, 450, 0, []
1631429694.8187, 1, 0, 4197.436, 4220, 4062.051, 4116.923, 4141.538, 450, 0, []
1631429694.8265, 2, 0, 4197.949, 4225.128, 4090.769, 4122.564, 4143.077, 16186, 0, []
1631429694.8343, 3, 0, 4199.487, 4224.615, 4089.231, 4131.282, 4144.615, 450, 0, []
1631429694.8422, 4, 0, 4204.103, 4218.462, 4068.718, 4148.205, 4168.205, 16156, 0, []
1631429694.85, 5, 0, 4220.513, 4234.359, 4117.949, 4164.615, 4194.359, 450, 0, []
1631429694.858, 6, 0, 4223.077, 4248.718, 4087.179, 4159.487, 4184.615, 188, 0, []
1631429694.8658, 7, 0, 4203.077, 4237.436, 4092.308, 4147.692, 4166.667, 450, 0, []
1631429694.8738, 8, 0, 4197.436, 4230.769, 4104.615, 4146.667, 4169.744, 450, 0, []
1631429694.8817, 9, 0, 4210.256, 4233.333, 4083.077, 4147.692, 4172.308, 16166, 0, []
1631429694.8897, 10, 0, 4209.744, 4225.128, 4114.359, 4144.103, 4165.641, 450, 0, []
1631429694.8976, 11, 0, 4195.897, 4218.974, 4084.615, 4131.282, 4159.487, 16189, 0, []
1631429694.9055, 12, 0, 4199.487, 4227.692, 4089.744, 4124.615, 4154.359, 450, 0, []
1631429694.9134, 13, 0, 4203.077, 4227.692, 4098.462, 4126.154, 4147.692, 450, 0, []
1631429694.9212, 14, 0, 4183.59, 4214.872, 4064.615, 4115.385, 4141.538, 450, 0, []
1631429694.9291, 15, 0, 4175.385, 4212.821, 4103.077, 4110.256, 4136.923, 16189, 0, []
1631429694.9369, 16, 0, 4190.256, 4223.59, 4084.615, 4124.103, 4135.897, 0, 0, []
1631429694.9447, 17, 0, 4182.051, 4223.077, 4082.564, 4126.154, 4135.385, 0, 0, []
1631429694.9525, 18, 0, 4163.59, 4216.923, 4103.59, 4115.385, 4136.41, 0, 0, []
1631429694.9604, 19, 0, 4177.949, 4224.615, 4078.974, 4118.974, 4140, 0, 0, []
1631429694.9682, 20, 0, 4191.795, 4225.641, 4111.282, 4128.718, 4136.923, 0, 0, []
1631429694.9761, 21, 0, 4185.128, 4214.872, 4093.846, 4127.179, 4140.513, 0, 0, []
1631429694.9838, 22, 0, 4190.769, 4221.538, 4098.462, 4133.333, 4154.359, 0, 0, []
1631429694.9917, 23, 0, 4206.154, 4234.872, 4125.128, 4150.256, 4156.923, 0, 0, []
1631429694.9995, 24, 0, 4206.154, 4232.821, 4084.615, 4154.359, 4158.974, 0, 0, []
1631429695.0075, 25, 0, 4197.436, 4227.692, 4114.359, 4152.308, 4167.692, 0, 0, []
1631429695.0154, 26, 0, 4196.923, 4219.487, 4095.385, 4145.128, 4156.41, 0, 0, []
1631429695.0233, 27, 0, 4195.385, 4217.436, 4076.41, 4138.974, 4143.077, 0, 0, []
1631429695.0312, 28, 0, 4200.513, 4231.282, 4118.462, 4149.231, 4162.564, 0, 0, []
1631429695.0392, 29, 0, 4214.872, 4228.205, 4091.795, 4152.821, 4174.359, 0, 0, []
1631429695.0471, 30, 0, 4213.333, 4210.769, 4099.487, 4141.538, 4155.385, 0, 0, []
1631429695.0551, 31, 0, 4200.513, 4217.436, 4092.308, 4140, 4151.282, 0, 0, []
1631429695.063, 32, 0, 4194.359, 4231.795, 4089.744, 4147.179, 4159.487, 0, 0, []
1631429695.0709, 33, 0, 4195.385, 4225.128, 4117.436, 4150.256, 4153.846, 0, 0, []
1631429695.0788, 34, 0, 4194.359, 4215.385, 4072.308, 4148.718, 4153.333, 0, 0, []
1631429695.0866, 35, 0, 4186.667, 4210.769, 4092.821, 4138.462, 4152.308, 0, 0, []
1631429695.0945, 36, 0, 4186.154, 4210.256, 4096.923, 4125.641, 4140, 0, 0, []
1631429695.1023, 37, 0, 4193.846, 4205.128, 4070.769, 4130.769, 4142.051, 0, 0, []
1631429695.1101, 38, 0, 4195.385, 4192.308, 4099.487, 4137.436, 4151.795, 0, 0, []
1631429695.1179, 39, 0, 4184.103, 4193.846, 4066.667, 4122.051, 4141.538, 0, 0, []
1631429695.1258, 40, 0, 4179.487, 4194.359, 4085.128, 4113.846, 4128.205, 0, 0, []
1631429695.1336, 41, 0, 4189.231, 4187.179, 4101.026, 4127.692, 4141.538, 0, 0, []
1631429695.1415, 42, 0, 4192.308, 4189.744, 4075.385, 4137.949, 4156.41, 0, 0, []
1631429695.1492, 43, 0, 4189.744, 4202.564, 4102.051, 4128.718, 4151.282, 0, 0, []
1631429695.1572, 44, 0, 4188.205, 4204.615, 4072.308, 4116.923, 4145.128, 0, 0, []
1631429695.1651, 45, 0, 4181.026, 4191.795, 4080.513, 4109.744, 4146.667, 0, 0, []
1631429695.1731, 46, 0, 4171.795, 4193.846, 4091.795, 4100.513, 4143.077, 0, 0, []
1631429695.181, 47, 0, 4180.513, 4202.564, 4073.846, 4109.231, 4138.462, 0, 0, []
1631429695.1889, 48, 0, 4190.769, 4195.385, 4115.385, 4126.667, 4143.077, 0, 0, []
1631429695.1968, 49, 0, 4182.564, 4191.282, 4081.026, 4118.462, 4145.128, 0, 0, []
1631429695.2048, 50, 0, 4187.179, 4208.718, 4082.564, 4113.333, 4149.744, 0, 0, []
1631429695.2127, 51, 0, 4208.205, 4226.154, 4113.333, 4136.41, 4166.154, 0, 0, []
1631429695.2207, 52, 0, 4207.179, 4223.59, 4076.41, 4144.103, 4174.359, 0, 0, []
1631429695.2285, 53, 0, 4196.41, 4225.641, 4103.59, 4128.718, 4171.795, 0, 0, []
1631429695.2363, 54, 0, 4203.59, 4234.872, 4088.718, 4130.769, 4170.256, 0, 0, []
1631429695.2442, 55, 0, 4204.103, 4221.538, 4072.308, 4140.513, 4165.128, 0, 0, []
1631429695.252, 56, 0, 4187.692, 4197.949, 4084.103, 4127.179, 4155.385, 0, 0, []
1631429695.2599, 57, 0, 4183.077, 4203.59, 4063.59, 4112.821, 4150.256, 0, 0, []
1631429695.2677, 58, 0, 4191.795, 4212.821, 4107.179, 4124.103, 4149.231, 0, 0, []
1631429695.2755, 59, 0, 4191.282, 4200.513, 4085.641, 4128.205, 4149.744, 0, 0, []
1631429695.2833, 60, 0, 4178.462, 4202.564, 4067.692, 4111.795, 4152.821, 0, 0, []
1631429695.2912, 61, 0, 4182.051, 4218.462, 4102.051, 4113.333, 4155.385, 0, 0, []
1631429695.299, 62, 0, 4191.795, 4208.718, 4064.103, 4125.641, 4154.359, 0, 0, []
1631429695.3069, 63, 0, 4185.128, 4196.923, 4080.513, 4120.513, 4155.897, 0, 0, []
1631429695.3146, 64, 0, 4187.692, 4211.795, 4084.615, 4122.051, 4164.615, 450, 0, []
1631429695.3226, 65, 0, 4205.128, 4218.462, 4082.564, 4142.051, 4167.179, 450, 0, []
1631429695.3305, 66, 0, 4209.231, 4206.154, 4111.795, 4148.205, 4170.256, 16186, 0, []
1631429695.3385, 67, 0, 4199.487, 4204.615, 4072.821, 4135.897, 4173.846, 450, 0, []
1631429695.3464, 68, 0, 4196.923, 4209.231, 4094.359, 4128.205, 4163.59, 16152, 0, []
1631429695.3543, 69, 0, 4208.205, 4219.487, 4100, 4132.821, 4164.615, 450, 0, []
1631429695.3622, 70, 0, 4213.333, 4230.769, 4075.385, 4134.359, 4180.513, 196, 0, []
1631429695.3702, 71, 0, 4203.59, 4220, 4088.718, 4126.154, 4172.308, 450, 0, []
1631429695.3781, 72, 0, 4195.897, 4209.231, 4051.282, 4118.974, 4158.462, 450, 0, []
1631429695.3861, 73, 0, 4193.846, 4212.308, 4081.026, 4121.026, 4166.667, 16157, 0, []
1631429695.3939, 74, 0, 4191.282, 4205.641, 4094.872, 4125.128, 4166.667, 450, 0, []
1631429695.4017, 75, 0, 4192.821, 4193.846, 4071.795, 4131.795, 4156.923, 16195, 0, []
1631429695.4096, 76, 0, 4200, 4210.769, 4117.949, 4140.513, 4171.795, 450, 0, []
1631429695.4174, 77, 0, 4191.795, 4224.615, 4085.128, 4128.205, 4173.333, 450, 0, []
1631429695.4253, 78, 0, 4177.436, 4207.179, 4072.308, 4114.872, 4147.692, 450, 0, []
1631429695.433, 79, 0, 4186.667, 4200.513, 4086.667, 4133.846, 4156.41, 16195, 0, []
1631429695.4409, 80, 0, 4200, 4219.487, 4083.077, 4152.308, 4184.615, 450, 0, []
1631429695.4487, 81, 0, 4199.487, 4232.821, 4127.179, 4144.615, 4180, 450, 0, []
1631429695.4566, 82, 0, 4201.538, 4222.051, 4086.667, 4129.231, 4175.385, 450, 0, []
1631429695.4645, 83, 0, 4226.154, 4217.949, 4083.077, 4129.231, 4215.897, 16195, 0, []
1631429695.4723, 84, 0, 4265.641, 4234.872, 4113.846, 4148.718, 4257.949, 450, 0, []
1631429695.4802, 85, 0, 4286.667, 4238.462, 4091.282, 4162.564, 4268.205, 450, 0, []
1631429695.4881, 86, 0, 4276.923, 4232.308, 4123.59, 4160, 4265.641, 450, 0, []
1631429695.4959, 87, 0, 4258.462, 4235.897, 4106.667, 4157.436, 4251.282, 16195, 0, []
1631429695.5039, 88, 0, 4247.179, 4231.282, 4101.538, 4152.821, 4231.282, 450, 0, []
1631429695.5118, 89, 0, 4240.513, 4227.179, 4104.615, 4135.897, 4219.487, 450, 0, []
1631429695.5197, 90, 0, 4245.128, 4244.103, 4065.641, 4137.436, 4218.462, 450, 0, []
1631429695.5276, 91, 0, 4255.385, 4249.231, 4116.41, 4154.359, 4227.692, 16195, 0, []
1631429695.5356, 92, 0, 4250.769, 4234.872, 4106.154, 4144.615, 4225.641, 450, 0, []
1631429695.5435, 93, 0, 4233.846, 4225.641, 4084.103, 4127.692, 4203.59, 450, 0, []
1631429695.5513, 94, 0, 4216.923, 4217.436, 4116.41, 4128.718, 4189.744, 450, 0, []
1631429695.5591, 95, 0, 4205.128, 4208.718, 4086.154, 4116.41, 4185.641, 16195, 0, []
1631429695.5669, 96, 0, 4210.769, 4209.231, 4102.051, 4111.282, 4181.026, 450, 0, []
1631429695.5748, 97, 0, 4226.667, 4218.462, 4094.872, 4126.667, 4196.41, 450, 0, []
1631429695.5826, 98, 0, 4227.692, 4227.692, 4081.026, 4122.051, 4204.103, 450, 0, []
1631429695.5905, 99, 0, 4218.462, 4231.795, 4106.667, 4120.513, 4185.641, 16195, 0, []
1631429695.5982, 100, 0, 4214.359, 4228.718, 4075.385, 4141.026, 4187.692, 450, 0, []
1631429695.6062, 101, 0, 4216.923, 4225.641, 4094.872, 4136.923, 4201.026, 450, 0, []
1631429695.6141, 102, 0, 4221.026, 4225.128, 4087.179, 4114.872, 4189.231, 450, 0, []
1631429695.6221, 103, 0, 4213.333, 4212.821, 4070.769, 4113.846, 4179.487, 16195, 0, []
1631429695.63, 104, 0, 4202.564, 4200.513, 4105.641, 4119.487, 4186.154, 450, 0, []
1631429695.6379, 105, 0, 4214.359, 4203.59, 4077.436, 4128.205, 4188.718, 450, 0, []
1631429695.6458, 106, 0, 4235.385, 4203.077, 4110.256, 4148.205, 4200, 450, 0, []
1631429695.6538, 107, 0, 4229.744, 4188.718, 4117.436, 4140.513, 4203.59, 16195, 0, []
1631429695.6617, 108, 0, 4214.359, 4189.231, 4077.436, 4114.872, 4182.564, 450, 0, []
1631429695.6697, 109, 0, 4215.897, 4211.282, 4113.333, 4115.385, 4179.487, 450, 0, []
1631429695.6775, 110, 0, 4217.949, 4222.051, 4095.897, 4121.538, 4189.744, 450, 0, []
1631429695.6855, 111, 0, 4217.436, 4218.974, 4099.487, 4118.462, 4182.564, 16195, 0, []
1631429695.6934, 112, 0, 4219.487, 4218.462, 4095.897, 4123.077, 4184.103, 450, 0, []
1631429695.7012, 113, 0, 4218.462, 4216.923, 4075.897, 4132.821, 4202.564, 450, 0, []
1631429695.7091, 114, 0, 4222.564, 4212.821, 4130.256, 4138.462, 4202.564, 450, 0, []
1631429695.7169, 115, 0, 4222.051, 4205.641, 4097.949, 4132.308, 4186.667, 16195, 0, []
1631429695.7247, 116, 0, 4203.077, 4200, 4082.564, 4114.359, 4177.949, 450, 0, []
1631429695.7325, 117, 0, 4195.385, 4215.897, 4109.744, 4110.769, 4181.026, 450, 0, []
1631429695.7404, 118, 0, 4215.385, 4238.462, 4094.359, 4135.385, 4195.385, 450, 0, []
1631429695.7482, 119, 0, 4220.513, 4224.615, 4115.385, 4144.103, 4200.513, 16195, 0, []
1631429695.7561, 120, 0, 4213.333, 4209.744, 4089.744, 4128.718, 4191.795, 450, 0, []
1631429695.7638, 121, 0, 4223.077, 4225.641, 4096.41, 4135.897, 4192.308, 450, 0, []
1631429695.7717, 122, 0, 4227.179, 4236.41, 4108.205, 4141.538, 4200.513, 450, 0, []
1631429695.7795, 123, 0, 4214.359, 4226.667, 4063.59, 4117.436, 4198.974, 16195, 0, []
1631429695.7875, 124, 0, 4214.872, 4212.821, 4104.103, 4111.282, 4193.333, 450, 0, []
1631429695.7954, 125, 0, 4235.897, 4210.256, 4098.462, 4128.205, 4207.179, 450, 0, []
1631429695.8033, 126, 0, 4252.308, 4225.128, 4092.821, 4139.487, 4230.769, 450, 0, []
1631429695.8112, 127, 0, 4259.487, 4235.385, 4127.179, 4156.41, 4242.051, 16195, 0, []
1631429695.8192, 128, 0, 4262.051, 4221.538, 4095.385, 4162.564, 4244.103, 450, 0, []
1631429695.8271, 0, 0, 4255.897, 4219.487, 4113.333, 4142.564, 4237.949, 450, 0, []
1631429695.8351, 1, 0, 4253.333, 4246.154, 4100, 4137.949, 4228.205, 450, 0, []
1631429695.8429, 2, 0, 4267.179, 4246.667, 4085.641, 4148.718, 4239.487, 16186, 0, []
1631429695.8508, 3, 0, 4300, 4222.051, 4112.308, 4148.718, 4276.41, 450, 0, []
1631429695.8587, 4, 0, 4352.308, 4223.077, 4079.487, 4144.615, 4323.077, 16156, 0, []
1631429695.8665, 5, 0, 4421.538, 4242.564, 4106.667, 4149.231, 4381.538, 450, 0, []
1631429695.8744, 6, 0, 4486.667, 4252.308, 4106.154, 4151.282, 4436.41, 209, 0, []
1631429695.8821, 7, 0, 4521.538, 4252.821, 4087.692, 4150.256, 4455.897, 450, 0, []
1631429695.89, 8, 0, 4517.949, 4254.872, 4123.59, 4157.949, 4452.308, 450, 0, []
1631429695.8978, 9, 0, 4492.308, 4257.949, 4083.59, 4161.538, 4440.513, 16141, 0, []
1631429695.9057, 10, 0, 4468.718, 4254.359, 4091.795, 4163.077, 4416.41, 450, 0, []
1631429695.9135, 11, 0, 4451.795, 4240, 4106.154, 4169.231, 4397.436, 16203, 0, []
1631429695.9213, 12, 0, 4428.205, 4226.154, 4102.051, 4172.308, 4387.179, 450, 0, []
1631429695.9291, 13, 0, 4404.615, 4228.718, 4135.385, 4169.231, 4370.256, 450, 0, []
1631429695.9371, 14, 0, 4383.077, 4234.872, 4087.179, 4160, 4343.077, 450, 0, []
1631429695.945, 15, 0, 4357.949, 4239.487, 4092.821, 4152.821, 4317.949, 16203, 0, []
1631429695.953, 16, 0, 4336.41, 4244.615, 4111.282, 4149.744, 4300.513, 0, 0, []
1631429695.9609, 17, 0, 4320, 4237.436, 4082.564, 4150.256, 4282.051, 0, 0, []
1631429695.9688, 18, 0, 4304.615, 4219.487, 4113.846, 4159.487, 4264.615, 0, 0, []
1631429695.9767, 19, 0, 4301.538, 4221.538, 4096.41, 4168.205, 4266.154, 0, 0, []
1631429695.9847, 20, 0, 4310.769, 4229.231, 4102.564, 4165.641, 4276.923, 0, 0, []
1631429695.9926, 21, 0, 4307.692, 4218.462, 4106.667, 4153.333, 4269.744, 0, 0, []
1631429696.0006, 22, 0, 4284.103, 4221.026, 4072.308, 4142.564, 4244.103, 0, 0, []
1631429696.0084, 23, 0, 4265.641, 4226.154, 4112.308, 4141.026, 4221.538, 0, 0, []
1631429696.0164, 24, 0, 4254.359, 4219.487, 4093.846, 4144.103, 4212.308, 0, 0, []
1631429696.0243, 25, 0, 4244.615, 4225.128, 4095.385, 4152.821, 4214.359, 0, 0, []
1631429696.0321, 26, 0, 4251.282, 4226.667, 4118.462, 4159.487, 4218.462, 0, 0, []
1631429696.04, 27, 0, 4249.231, 4198.462, 4068.205, 4141.026, 4206.154, 0, 0, []
1631429696.0477, 28, 0, 4230.769, 4193.846, 4092.821, 4122.564, 4199.487, 0, 0, []
1631429696.0556, 29, 0, 4241.538, 4223.59, 4100.513, 4140.513, 4212.821, 0, 0, []
1631429696.0634, 30, 0, 4251.282, 4220, 4101.026, 4155.385, 4212.308, 0, 0, []
1631429696.0713, 31, 0, 4223.077, 4209.231, 4109.231, 4146.154, 4189.744, 0, 0, []
1631429696.0791, 32, 0, 4215.897, 4226.154, 4074.872, 4156.923, 4180, 0, 0, []
1631429696.087, 33, 0, 4231.282, 4223.077, 4108.205, 4175.897, 4190.769, 0, 0, []
1631429696.0949, 34, 0, 4222.051, 4200.513, 4093.333, 4161.538, 4192.821, 0, 0, []
1631429696.1029, 35, 0, 4214.872, 4205.641, 4083.077, 4144.615, 4184.103, 0, 0, []
1631429696.1108, 36, 0, 4225.641, 4221.026, 4116.923, 4152.308, 4186.154, 0, 0, []
1631429696.1188, 37, 0, 4218.462, 4205.128, 4074.872, 4154.359, 4189.744, 0, 0, []
1631429696.1266, 38, 0, 4196.923, 4193.333, 4096.923, 4150.769, 4175.385, 0, 0, []
1631429696.1346, 39, 0, 4190.769, 4208.205, 4103.59, 4158.974, 4156.41, 0, 0, []
1631429696.1425, 40, 0, 4188.718, 4201.538, 4077.949, 4157.436, 4151.795, 0, 0, []
1631429696.1505, 41, 0, 4183.59, 4180, 4100.513, 4141.026, 4153.333, 0, 0, []
1631429696.1584, 42, 0, 4188.718, 4187.179, 4080, 4137.436, 4150.769, 0, 0, []
1631429696.1663, 43, 0, 4194.872, 4199.487, 4105.641, 4143.59, 4147.692, 0, 0, []
1631429696.1742, 44, 0, 4190.769, 4202.051, 4095.385, 4137.436, 4153.333, 0, 0, []
1631429696.182, 45, 0, 4189.231, 4205.641, 4068.718, 4131.795, 4156.923, 0, 0, []
1631429696.1899, 46, 0, 4199.487, 4203.077, 4114.359, 4145.641, 4152.308, 0, 0, []
1631429696.1977, 47, 0, 4203.077, 4209.744, 4081.538, 4155.897, 4158.974, 0, 0, []
1631429696.2056, 48, 0, 4198.462, 4227.179, 4091.282, 4160.513, 4170.769, 0, 0, []
1631429696.2133, 49, 0, 4195.897, 4222.051, 4108.718, 4157.949, 4161.026, 0, 0, []
1631429696.2212, 50, 0, 4197.436, 4207.692, 4083.59, 4151.282, 4151.282, 0, 0, []
1631429696.229, 51, 0, 4201.538, 4213.846, 4118.974, 4151.795, 4162.564, 0, 0, []
1631429696.2369, 52, 0, 4203.59, 4225.641, 4098.974, 4151.795, 4164.615, 0, 0, []
1631429696.2447, 53, 0, 4202.051, 4220, 4106.667, 4151.795, 4150.256, 0, 0, []
1631429696.2526, 54, 0, 4195.897, 4214.359, 4115.385, 4154.872, 4148.718, 0, 0, []
1631429696.2605, 55, 0, 4185.641, 4213.333, 4080, 4151.282, 4148.205, 0, 0, []
1631429696.2685, 56, 0, 4177.436, 4205.128, 4107.179, 4133.846, 4128.205, 0, 0, []
1631429696.2764, 57, 0, 4176.923, 4201.026, 4077.436, 4118.462, 4120, 0, 0, []
1631429696.2844, 58, 0, 4181.026, 4208.718, 4081.538, 4125.128, 4141.026, 0, 0, []
1631429696.2922, 59, 0, 4184.615, 4218.462, 4116.923, 4143.077, 4157.949, 0, 0, []
1631429696.3002, 60, 0, 4188.205, 4220, 4093.333, 4149.231, 4154.872, 0, 0, []
1631429696.3081, 61, 0, 4183.59, 4210.769, 4117.436, 4143.077, 4147.692, 0, 0, []
1631429696.3161, 62, 0, 4173.846, 4201.538, 4090.769, 4143.59, 4145.128, 0, 0, []
1631429696.324, 63, 0, 4167.692, 4202.051, 4084.615, 4150.256, 4138.462, 0, 0, []
1631429696.3317, 64, 0, 4169.231, 4204.103, 4112.821, 4156.923, 4129.231, 450, 0, []
1631429696.3396, 65, 0, 4174.359, 4203.077, 4077.949, 4165.128, 4137.436, 450, 0, []
1631429696.3474, 66, 0, 4182.051, 4211.282, 4110.256, 4175.897, 4161.538, 16190, 0, []
1631429696.3553, 67, 0, 4190.256, 4211.795, 4108.205, 4173.846, 4167.179, 450, 0, []
1631429696.3631, 68, 0, 4184.615, 4197.436, 4089.744, 4157.949, 4146.154, 16148, 0, []
1631429696.3709, 69, 0, 4173.846, 4198.462, 4108.205, 4141.026, 4134.359, 450, 0, []
1631429696.3787, 70, 0, 4171.795, 4220.513, 4078.462, 4125.641, 4135.385, 199, 0, []
1631429696.3866, 71, 0, 4181.026, 4225.641, 4111.282, 4132.308, 4137.436, 450, 0, []
1631429696.3944, 72, 0, 4189.744, 4209.231, 4100, 4148.718, 4143.59, 450, 0, []
1631429696.4024, 73, 0, 4182.051, 4206.154, 4067.179, 4146.154, 4143.077, 16144, 0, []
1631429696.4103, 74, 0, 4170.256, 4219.487, 4099.487, 4139.487, 4133.333, 450, 0, []
1631429696.4182, 75, 0, 4169.231, 4210.769, 4078.462, 4145.641, 4119.487, 16201, 0, []
1631429696.4261, 76, 0, 4167.692, 4189.744, 4103.077, 4146.154, 4117.949, 450, 0, []
1631429696.4341, 77, 0, 4169.744, 4207.692, 4110.256, 4137.436, 4135.897, 450, 0, []
1631429696.442, 78, 0, 4175.385, 4222.051, 4088.718, 4133.846, 4141.538, 450, 0, []
1631429696.45, 79, 0, 4166.667, 4194.359, 4106.154, 4128.718, 4124.103, 16201, 0, []
1631429696.4578, 80, 0, 4153.846, 4183.077, 4071.282, 4120, 4122.564, 450, 0, []
1631429696.4657, 81, 0, 4159.487, 4200, 4104.103, 4121.538, 4138.974, 450, 0, []
1631429696.4736, 82, 0, 4174.872, 4203.59, 4110.256, 4136.923, 4140, 450, 0, []
1631429696.4814, 83, 0, 4178.974, 4201.538, 4066.154, 4150.769, 4132.821, 16201, 0, []
1631429696.4894, 84, 0, 4174.872, 4206.667, 4109.744, 4149.231, 4135.897, 450, 0, []
1631429696.4972, 85, 0, 4173.333, 4202.564, 4098.974, 4139.487, 4133.846, 450, 0, []
1631429696.5051, 86, 0, 4171.795, 4197.436, 4097.949, 4133.846, 4123.59, 450, 0, []
1631429696.5129, 87, 0, 4170.256, 4199.487, 4103.59, 4134.872, 4128.205, 16201, 0, []
1631429696.5208, 88, 0, 4166.667, 4199.487, 4074.872, 4130.256, 4137.949, 450, 0, []
1631429696.5286, 89, 0, 4163.59, 4193.333, 4102.564, 4119.487, 4126.154, 450, 0, []
1631429696.5364, 90, 0, 4161.026, 4190.769, 4070.769, 4111.795, 4109.744, 450, 0, []
1631429696.5442, 91, 0, 4155.897, 4192.821, 4077.436, 4117.436, 4111.795, 16201, 0, []
1631429696.5521, 92, 0, 4151.795, 4191.795, 4106.667, 4126.667, 4116.41, 450, 0, []
1631429696.5599, 93, 0, 4153.333, 4190.769, 4071.795, 4134.872, 4112.308, 450, 0, []
1631429696.5678, 94, 0, 4148.718, 4191.282, 4098.462, 4145.128, 4102.051, 450, 0, []
1631429696.5755, 95, 0, 4125.128, 4181.538, 4075.385, 4138.974, 4085.128, 16201, 0, []
1631429696.5835, 96, 0, 4108.718, 4163.59, 4065.641, 4121.538, 4079.487, 450, 0, []
1631429696.5914, 97, 0, 4126.154, 4176.923, 4100, 4126.667, 4097.949, 450, 0, []
1631429696.5994, 98, 0, 4151.795, 4206.667, 4075.385, 4146.154, 4111.282, 450, 0, []
1631429696.6073, 99, 0, 4149.231, 4197.436, 4095.897, 4147.692, 4103.077, 16201, 0, []
1631429696.6152, 100, 0, 4131.282, 4179.487, 4080.513, 4131.795, 4094.359, 450, 0, []
1631429696.6231, 101, 0, 4127.692, 4192.308, 4081.538, 4125.641, 4087.692, 450, 0, []
1631429696.6311, 102, 0, 4131.795, 4200.513, 4113.333, 4130.769, 4075.897, 450, 0, []
1631429696.639, 103, 0, 4131.795, 4189.231, 4075.385, 4135.385, 4075.897, 16201, 0, []
1631429696.647, 104, 0, 4134.872, 4188.718, 4105.641, 4146.667, 4100, 450, 0, []
1631429696.6549, 105, 0, 4140, 4202.564, 4102.051, 4155.385, 4117.436, 450, 0, []
1631429696.6626, 106, 0, 4142.564, 4197.436, 4070.256, 4147.179, 4105.128, 450, 0, []
1631429696.6705, 107, 0, 4140.513, 4180.513, 4096.41, 4134.872, 4093.333, 16201, 0, []
1631429696.6783, 108, 0, 4130.256, 4178.974, 4074.359, 4121.538, 4092.308, 450, 0, []
1631429696.6862, 109, 0, 4117.949, 4187.692, 4090.769, 4106.154, 4085.128, 450, 0, []
1631429696.694, 110, 0, 4122.051, 4194.359, 4084.103, 4109.744, 4081.538, 450, 0, []
1631429696.7018, 111, 0, 4129.744, 4191.282, 4075.385, 4131.795, 4083.077, 16201, 0, []
1631429696.7096, 112, 0, 4136.41, 4188.205, 4124.103, 4152.821, 4094.359, 450, 0, []
1631429696.7176, 113, 0, 4150.256, 4194.359, 4094.872, 4165.641, 4112.821, 450, 0, []
1631429696.7255, 114, 0, 4150.256, 4201.026, 4103.077, 4157.949, 4104.103, 450, 0, []
1631429696.7335, 115, 0, 4140.513, 4199.487, 4101.026, 4140, 4081.538, 16201, 0, []
1631429696.7413, 116, 0, 4134.359, 4186.154, 4066.154, 4129.231, 4086.154, 450, 0, []
1631429696.7493, 117, 0, 4125.128, 4180, 4105.128, 4121.026, 4099.487, 450, 0, []
1631429696.7572, 118, 0, 4128.718, 4195.385, 4090.256, 4119.487, 4096.41, 450, 0, []
1631429696.7652, 119, 0, 4149.744, 4200, 4100, 4134.359, 4100.513, 16201, 0, []
1631429696.7731, 120, 0, 4162.564, 4186.667, 4106.667, 4154.359, 4121.538, 450, 0, []
1631429696.781, 121, 0, 4154.359, 4193.333, 4075.385, 4154.872, 4120.513, 450, 0, []
1631429696.7889, 122, 0, 4148.205, 4211.795, 4107.179, 4136.41, 4093.333, 450, 0, []
1631429696.7967, 123, 0, 4149.744, 4206.154, 4072.821, 4122.564, 4083.59, 16201, 0, []
1631429696.8046, 124, 0, 4139.487, 4191.795, 4065.128, 4128.718, 4100, 450, 0, []
1631429696.8124, 125, 0, 4122.051, 4190.769, 4084.103, 4129.231, 4094.359, 450, 0, []
1631429696.8202, 126, 0, 4129.744, 4191.795, 4060.513, 4125.128, 4077.949, 450, 0, []
1631429696.828, 127, 0, 4153.333, 4187.179, 4105.128, 4147.692, 4093.333, 16201, 0, []
1631429696.8359, 128, 0, 4146.154, 4188.718, 4088.718, 4156.923, 4107.692, 450, 0, []
1631429696.8437, 0, 0, 4131.282, 4200.513, 4081.026, 4134.872, 4100, 450, 0, []
1631429696.8516, 1, 0, 4133.846, 4208.718, 4110.256, 4122.564, 4086.667, 450, 0, []
1631429696.8593, 2, 0, 4128.718, 4204.103, 4073.846, 4123.59, 4076.923, 16192, 0, []
1631429696.8673, 3, 0, 4119.487, 4193.333, 4093.333, 4120.513, 4082.564, 450, 0, []
1631429696.8752, 4, 0, 4123.59, 4188.205, 4091.282, 4124.615, 4096.923, 16154, 0, []
1631429696.8832, 5, 0, 4123.077, 4188.718, 4095.385, 4136.923, 4088.205, 450, 0, []
1631429696.8911, 6, 0, 4120.513, 4189.231, 4113.846, 4138.974, 4070.769, 199, 0, []
1631429696.8991, 7, 0, 4127.692, 4192.308, 4072.308, 4136.41, 4078.462, 450, 0, []
1631429696.9069, 8, 0, 4132.308, 4204.103, 4110.769, 4141.538, 4094.872, 450, 0, []
1631429696.9149, 9, 0, 4132.308, 4207.692, 4111.795, 4140, 4095.897, 16151, 0, []
1631429696.9228, 10, 0, 4135.897, 4197.949, 4085.128, 4122.051, 4084.103, 450, 0, []
1631429696.9308, 11, 0, 4134.359, 4202.051, 4112.821, 4114.872, 4080.513, 16196, 0, []
1631429696.9387, 12, 0, 4125.641, 4205.641, 4085.641, 4127.692, 4092.308, 450, 0, []
1631429696.9464, 13, 0, 4127.692, 4199.487, 4107.692, 4143.59, 4107.179, 450, 0, []
1631429696.9543, 14, 0, 4145.128, 4205.128, 4102.564, 4147.692, 4110.769, 450, 0, []
1631429696.9621, 15, 0, 4147.179, 4193.333, 4070.256, 4137.436, 4100.513, 16196, 0, []
1631429696.97, 16, 0, 4131.795, 4166.154, 4097.949, 4134.872, 4108.718, 0, 0, []
1631429696.9778, 17, 0, 4127.692, 4172.821, 4069.231, 4132.821, 4123.59, 0, 0, []
1631429696.9856, 18, 0, 4135.897, 4187.179, 4081.538, 4120, 4112.821, 0, 0, []
1631429696.9934, 19, 0, 4131.795, 4172.308, 4081.026, 4105.128, 4095.385, 0, 0, []
1631429697.0013, 20, 0, 4118.974, 4167.179, 4058.462, 4103.59, 4102.051, 0, 0, []
1631429697.0091, 21, 0, 4125.641, 4187.692, 4106.154, 4116.41, 4115.897, 0, 0, []
1631429697.017, 22, 0, 4142.051, 4190.769, 4079.487, 4122.564, 4113.333, 0, 0, []
1631429697.0247, 23, 0, 4142.051, 4168.205, 4078.974, 4123.077, 4108.718, 0, 0, []
1631429697.0327, 24, 0, 4138.974, 4162.051, 4094.359, 4130.769, 4118.974, 0, 0, []
1631429697.0406, 25, 0, 4142.051, 4180.513, 4073.846, 4140, 4125.641, 0, 0, []
1631429697.0486, 26, 0, 4144.615, 4189.231, 4100.513, 4140.513, 4114.872, 0, 0, []
1631429697.0565, 27, 0, 4150.769, 4178.974, 4068.205, 4135.385, 4110.256, 0, 0, []
1631429697.0644, 28, 0, 4149.744, 4174.359, 4079.487, 4129.231, 4124.103, 0, 0, []
1631429697.0723, 29, 0, 4147.179, 4186.667, 4108.205, 4118.462, 4131.282, 0, 0, []
1631429697.0803, 30, 0, 4149.231, 4192.308, 4074.359, 4104.615, 4116.923, 0, 0, []
1631429697.0882, 31, 0, 4139.487, 4182.051, 4095.897, 4095.385, 4095.385, 0, 0, []
1631429697.0962, 32, 0, 4131.282, 4185.128, 4073.333, 4102.051, 4098.462, 0, 0, []
1631429697.104, 33, 0, 4137.949, 4193.846, 4075.385, 4121.026, 4111.795, 0, 0, []
1631429697.1118, 34, 0, 4142.564, 4189.744, 4100, 4139.487, 4110.256, 0, 0, []
1631429697.1197, 35, 0, 4144.103, 4189.744, 4074.872, 4158.974, 4109.231, 0, 0, []
1631429697.1275, 36, 0, 4149.231, 4197.436, 4116.41, 4163.59, 4123.59, 0, 0, []
1631429697.1354, 37, 0, 4152.308, 4197.436, 4102.051, 4143.59, 4128.205, 0, 0, []
1631429697.1432, 38, 0, 4162.564, 4194.359, 4089.231, 4137.436, 4124.103, 0, 0, []
1631429697.151, 39, 0, 4175.385, 4198.462, 4123.077, 4147.692, 4132.821, 0, 0, []
1631429697.1588, 40, 0, 4169.231, 4204.615, 4084.615, 4136.923, 4141.026, 0, 0, []
1631429697.1667, 41, 0, 4164.103, 4201.538, 4104.615, 4125.128, 4136.923, 0, 0, []
1631429697.1745, 42, 0, 4171.282, 4190.769, 4103.59, 4142.564, 4133.333, 0, 0, []
1631429697.1825, 43, 0, 4175.897, 4183.077, 4091.282, 4161.026, 4145.128, 0, 0, []
1631429697.1903, 44, 0, 4169.744, 4195.385, 4117.949, 4160.513, 4145.641, 0, 0, []
1631429697.1983, 45, 0, 4158.974, 4205.128, 4082.564, 4155.897, 4122.051, 0, 0, []
1631429697.2062, 46, 0, 4152.308, 4201.026, 4097.436, 4155.897, 4118.974, 0, 0, []
1631429697.2142, 47, 0, 4154.359, 4198.462, 4083.59, 4149.744, 4140.513, 0, 0, []
1631429697.2221, 48, 0, 4161.538, 4201.538, 4062.051, 4138.462, 4145.641, 0, 0, []
1631429697.23, 49, 0, 4162.051, 4198.974, 4104.103, 4131.795, 4134.872, 0, 0, []
1631429697.2379, 50, 0, 4156.41, 4191.282, 4074.359, 4122.564, 4134.359, 0, 0, []
1631429697.2459, 51, 0, 4160.513, 4190.256, 4096.923, 4117.949, 4140, 0, 0, []
1631429697.2538, 52, 0, 4174.359, 4201.538, 4111.795, 4133.846, 4145.128, 0, 0, []
1631429697.2616, 53, 0, 4175.385, 4205.128, 4080.513, 4150.256, 4148.718, 0, 0, []
1631429697.2694, 54, 0, 4166.154, 4189.231, 4108.718, 4153.846, 4150.256, 0, 0, []
1631429697.2772, 55, 0, 4169.231, 4186.154, 4092.308, 4156.923, 4157.436, 0, 0, []
1631429697.2851, 56, 0, 4170.256, 4190.769, 4100.513, 4158.462, 4151.282, 0, 0, []
1631429697.2929, 57, 0, 4160, 4173.846, 4098.462, 4153.333, 4137.949, 0, 0, []
1631429697.3008, 58, 0, 4154.872, 4173.846, 4079.487, 4149.231, 4144.103, 0, 0, []
1631429697.3085, 59, 0, 4150.769, 4198.462, 4116.923, 4137.436, 4144.103, 0, 0, []
1631429697.3164, 60, 0, 4144.103, 4196.923, 4069.231, 4114.359, 4120.513, 0, 0, []
1631429697.3242, 61, 0, 4144.103, 4174.872, 4066.667, 4117.436, 4116.923, 0, 0, []
1631429697.3321, 62, 0, 4151.282, 4182.051, 4102.051, 4140, 4140.513, 0, 0, []
1631429697.3399, 63, 0, 4154.359, 4201.026, 4074.872, 4147.179, 4140.513, 0, 0, []
1631429697.3478, 64, 0, 4155.897, 4190.256, 4100, 4152.308, 4121.026, 450, 0, []
1631429697.3555, 65, 0, 4155.897, 4169.231, 4074.872, 4155.897, 4124.103, 450, 0, []
1631429697.3635, 66, 0, 4147.179, 4176.41, 4069.744, 4143.077, 4134.359, 16192, 0, []
1631429697.3714, 67, 0, 4149.231, 4205.128, 4094.872, 4137.949, 4131.282, 450, 0, []
1631429697.3794, 68, 0, 4163.59, 4211.282, 4068.205, 4149.231, 4133.846, 16104, 0, []
1631429697.3873, 69, 0, 4170.256, 4191.282, 4099.487, 4151.282, 4150.256, 450, 0, []
1631429697.3952, 70, 0, 4167.179, 4184.615, 4081.026, 4140, 4149.231, 200, 0, []
1631429697.4031, 71, 0, 4165.128, 4191.795, 4082.051, 4146.154, 4132.308, 450, 0, []
1631429697.411, 72, 0, 4170.769, 4199.487, 4124.103, 4169.231, 4141.538, 450, 0, []
1631429697.4189, 73, 0, 4168.718, 4206.154, 4083.077, 4173.846, 4160, 16152, 0, []
1631429697.4269, 74, 0, 4168.205, 4211.282, 4097.436, 4159.487, 4156.923, 450, 0, []
1631429697.4347, 75, 0, 4180.513, 4216.923, 4091.282, 4160, 4155.897, 16195, 0, []
1631429697.4425, 76, 0, 4189.231, 4214.872, 4077.949, 4172.821, 4172.821, 450, 0, []
1631429697.4504, 77, 0, 4182.051, 4215.385, 4098.462, 4163.59, 4170.256, 450, 0, []
1631429697.4583, 78, 0, 4177.436, 4219.487, 4058.974, 4152.821, 4150.256, 450, 0, []
1631429697.4662, 79, 0, 4182.564, 4208.718, 4086.154, 4167.692, 4157.949, 16195, 0, []
1631429697.4741, 80, 0, 4187.179, 4203.59, 4091.282, 4172.308, 4174.359, 450, 0, []
1631429697.4821, 81, 0, 4191.795, 4214.359, 4073.333, 4158.462, 4168.205, 450, 0, []
1631429697.49, 82, 0, 4189.231, 4212.821, 4096.41, 4153.333, 4160.513, 450, 0, []
1631429697.498, 83, 0, 4184.615, 4199.487, 4064.615, 4149.744, 4172.821, 16195, 0, []
1631429697.5059, 84, 0, 4190.256, 4199.487, 4096.41, 4144.103, 4174.872, 450, 0, []
1631429697.5138, 85, 0, 4187.179, 4201.538, 4106.154, 4141.538, 4154.359, 450, 0, []
1631429697.5217, 86, 0, 4172.821, 4197.949, 4070.769, 4135.897, 4145.641, 450, 0, []
1631429697.5297, 87, 0, 4175.897, 4198.974, 4096.923, 4143.077, 4152.308, 16195, 0, []
1631429697.5376, 88, 0, 4190.256, 4195.385, 4073.846, 4157.949, 4160, 450, 0, []
1631429697.5456, 89, 0, 4186.154, 4178.974, 4088.205, 4158.462, 4164.615, 450, 0, []
1631429697.5534, 90, 0, 4184.615, 4168.205, 4095.897, 4153.333, 4165.128, 450, 0, []
1631429697.5612, 91, 0, 4184.615, 4175.897, 4060, 4139.487, 4148.205, 16195, 0, []
1631429697.5691, 92, 0, 4165.641, 4181.538, 4085.641, 4118.974, 4125.128, 450, 0, []
1631429697.5769, 93, 0, 4156.41, 4180, 4059.487, 4118.974, 4129.744, 450, 0, []
1631429697.5848, 94, 0, 4164.615, 4188.718, 4071.282, 4134.872, 4144.615, 450, 0, []
1631429697.5926, 95, 0, 4174.359, 4191.795, 4099.487, 4146.154, 4147.179, 16195, 0, []
1631429697.6004, 96, 0, 4176.41, 4178.462, 4077.949, 4151.282, 4147.692, 450, 0, []
1631429697.6082, 97, 0, 4168.718, 4175.385, 4112.821, 4149.231, 4153.333, 450, 0, []
1631429697.6161, 98, 0, 4157.436, 4188.205, 4082.051, 4130.256, 4142.564, 450, 0, []
1631429697.6239, 99, 0, 4150.256, 4185.128, 4071.795, 4117.436, 4117.949, 16195, 0, []
1631429697.6318, 100, 0, 4154.359, 4179.487, 4093.333, 4127.179, 4125.641, 450, 0, []
1631429697.6395, 101, 0, 4163.077, 4196.923, 4067.179, 4141.026, 4149.744, 450, 0, []
1631429697.6475, 102, 0, 4168.718, 4202.051, 4107.179, 4149.231, 4143.077, 450, 0, []
1631429697.6554, 103, 0, 4168.205, 4176.923, 4089.231, 4151.795, 4128.718, 16195, 0, []
1631429697.6634, 104, 0, 4167.179, 4166.667, 4072.308, 4148.205, 4141.538, 450, 0, []
1631429697.6713, 105, 0, 4165.128, 4186.154, 4091.282, 4131.795, 4145.128, 450, 0, []
1631429697.6792, 106, 0, 4170.256, 4188.205, 4050.256, 4114.359, 4127.692, 450, 0, []
1631429697.6871, 107, 0, 4181.026, 4183.077, 4082.051, 4128.205, 4140.513, 16195, 0, []
1631429697.6951, 108, 0, 4180, 4202.051, 4086.667, 4155.897, 4164.103, 450, 0, []
1631429697.703, 109, 0, 4174.872, 4202.051, 4071.795, 4152.308, 4146.154, 450, 0, []
1631429697.711, 110, 0, 4189.231, 4189.744, 4093.333, 4130.769, 4129.744, 450, 0, []
1631429697.7188, 111, 0, 4216.41, 4210.769, 4072.821, 4130.769, 4151.795, 16195, 0, []
1631429697.7266, 112, 0, 4231.795, 4224.103, 4106.667, 4135.897, 4163.59, 450, 0, []
1631429697.7345, 113, 0, 4218.974, 4201.026, 4087.692, 4124.615, 4144.103, 450, 0, []
1631429697.7423, 114, 0, 4197.949, 4188.718, 4052.821, 4115.385, 4131.795, 450, 0, []
1631429697.7502, 115, 0, 4201.538, 4209.744, 4092.308, 4126.154, 4139.487, 16195, 0, []
1631429697.7579, 116, 0, 4213.333, 4228.718, 4073.846, 4142.051, 4145.641, 450, 0, []
1631429697.7658, 117, 0, 4197.436, 4213.846, 4090.256, 4142.051, 4137.949, 450, 0, []
1631429697.7736, 118, 0, 4177.949, 4196.923, 4086.154, 4125.641, 4122.051, 450, 0, []
1631429697.7815, 119, 0, 4182.051, 4211.795, 4067.179, 4114.359, 4115.897, 16195, 0, []
1631429697.7893, 120, 0, 4189.744, 4215.897, 4100.513, 4118.462, 4130.256, 450, 0, []
1631429697.7971, 121, 0, 4182.564, 4187.179, 4063.59, 4110.769, 4135.385, 450, 0, []
1631429697.8049, 122, 0, 4180, 4182.051, 4077.436, 4103.077, 4122.051, 450, 0, []
1631429697.8129, 123, 0, 4188.205, 4201.538, 4093.333, 4116.41, 4116.923, 16195, 0, []
1631429697.8208, 124, 0, 4183.59, 4190.769, 4064.103, 4125.641, 4129.231, 450, 0, []
1631429697.8288, 125, 0, 4179.487, 4179.487, 4094.872, 4119.487, 4136.923, 450, 0, []
1631429697.8367, 126, 0, 4193.333, 4197.949, 4078.462, 4125.128, 4134.359, 450, 0, []
1631429697.8446, 127, 0, 4198.974, 4205.641, 4092.821, 4138.974, 4140, 16195, 0, []
1631429697.8525, 128, 0, 4188.205, 4199.487, 4101.538, 4131.795, 4138.974, 450, 0, []
1631429697.8605, 0, 0, 4185.641, 4198.974, 4069.231, 4116.923, 4120, 450, 0, []
1631429697.8684, 1, 0, 4187.179, 4200.513, 4106.667, 4121.538, 4119.487, 450, 0, []
1631429697.8764, 2, 0, 4189.231, 4203.077, 4076.41, 4129.744, 4146.667, 16181, 0, []
1631429697.8842, 3, 0, 4198.974, 4196.923, 4069.744, 4127.179, 4150.769, 450, 0, []
1631429697.892, 4, 0, 4204.615, 4181.026, 4099.487, 4128.718, 4137.949, 16154, 0, []
1631429697.8999, 5, 0, 4198.462, 4177.949, 4068.718, 4133.846, 4147.692, 450, 0, []
1631429697.9077, 6, 0, 4196.41, 4192.308, 4094.359, 4127.179, 4155.385, 254, 0, []
1631429697.9156, 7, 0, 4204.103, 4200.513, 4076.41, 4123.077, 4150.256, 450, 0, []
1631429697.9233, 8, 0, 4204.615, 4200, 4066.667, 4134.359, 4156.923, 450, 0, []
1631429697.9312, 9, 0, 4196.41, 4201.538, 4094.872, 4132.821, 4155.897, 16155, 0, []
1631429697.939, 10, 0, 4190.769, 4195.897, 4066.667, 4108.718, 4134.872, 450, 0, []
1631429697.9469, 11, 0, 4196.41, 4193.846, 4098.974, 4109.231, 4142.051, 16193, 0, []
1631429697.9547, 12, 0, 4212.308, 4217.436, 4092.308, 4133.846, 4174.872, 450, 0, []
1631429697.9626, 13, 0, 4216.923, 4228.205, 4078.462, 4140, 4172.308, 450, 0, []
1631429697.9705, 14, 0, 4205.641, 4207.179, 4104.103, 4128.205, 4152.308, 450, 0, []
1631429697.9785, 15, 0, 4196.923, 4199.487, 4066.667, 4118.974, 4152.821, 16193, 0, []
1631429697.9864, 16, 0, 4202.051, 4200.513, 4083.077, 4121.026, 4153.846, 0, 0, []
1631429697.9944, 17, 0, 4204.615, 4192.821, 4076.41, 4122.051, 4146.667, 0, 0, []
1631429698.0022, 18, 0, 4192.821, 4197.949, 4067.179, 4112.821, 4149.231, 0, 0, []
1631429698.0102, 19, 0, 4191.795, 4205.641, 4106.154, 4111.795, 4156.41, 0, 0, []
1631429698.0181, 20, 0, 4204.103, 4189.744, 4066.667, 4125.128, 4155.385, 0, 0, []
1631429698.026, 21, 0, 4195.897, 4178.462, 4075.897, 4129.744, 4154.359, 0, 0, []
1631429698.0339, 22, 0, 4185.641, 4186.667, 4076.41, 4125.641, 4154.359, 0, 0, []
1631429698.0417, 23, 0, 4204.103, 4187.179, 4063.59, 4133.846, 4154.359, 0, 0, []
1631429698.0495, 24, 0, 4210.769, 4185.128, 4109.231, 4132.308, 4154.872, 0, 0, []
1631429698.0573, 25, 0, 4188.205, 4189.744, 4083.077, 4115.385, 4150.256, 0, 0, []
1631429698.0652, 26, 0, 4195.897, 4186.667, 4096.923, 4124.103, 4152.821, 0, 0, []
1631429698.073, 27, 0, 4220, 4189.744, 4100.513, 4142.051, 4170.256, 0, 0, []
1631429698.0809, 28, 0, 4211.282, 4196.923, 4062.564, 4135.385, 4178.974, 0, 0, []
1631429698.0886, 29, 0, 4194.359, 4186.667, 4093.846, 4123.59, 4161.538, 0, 0, []
1631429698.0965, 30, 0, 4200.513, 4180.513, 4072.821, 4122.051, 4145.641, 0, 0, []
1631429698.1043, 31, 0, 4201.538, 4194.359, 4083.59, 4122.564, 4153.846, 0, 0, []
1631429698.1122, 32, 0, 4189.231, 4203.59, 4100, 4121.026, 4159.487, 0, 0, []
1631429698.12, 33, 0, 4189.744, 4198.462, 4062.051, 4112.821, 4144.103, 0, 0, []
1631429698.1279, 34, 0, 4198.974, 4201.026, 4089.231, 4108.205, 4142.564, 0, 0, []
1631429698.1358, 35, 0, 4203.59, 4206.667, 4083.077, 4116.41, 4169.744, 0, 0, []
1631429698.1438, 36, 0, 4205.641, 4200, 4093.846, 4124.615, 4174.359, 0, 0, []
1631429698.1517, 37, 0, 4205.128, 4197.949, 4099.487, 4130.256, 4155.897, 0, 0, []
1631429698.1597, 38, 0, 4205.641, 4211.282, 4064.103, 4137.949, 4161.538, 0, 0, []
1631429698.1675, 39, 0, 4208.205, 4228.718, 4100, 4143.59, 4171.795, 0, 0, []
1631429698.1755, 40, 0, 4208.205, 4227.179, 4074.872, 4142.051, 4162.051, 0, 0, []
1631429698.1834, 41, 0, 4200.513, 4212.308, 4070.256, 4137.949, 4163.077, 0, 0, []
1631429698.1912, 42, 0, 4199.487, 4213.846, 4108.718, 4134.359, 4171.795, 0, 0, []
1631429698.1991, 43, 0, 4213.333, 4222.564, 4083.077, 4128.205, 4167.692, 0, 0, []
1631429698.2068, 44, 0, 4215.897, 4215.385, 4121.026, 4121.538, 4167.179, 0, 0, []
1631429698.2147, 45, 0, 4202.051, 4216.923, 4113.333, 4125.128, 4172.308, 0, 0, []
1631429698.2225, 46, 0, 4201.026, 4230.769, 4090.256, 4144.615, 4163.59, 0, 0, []
1631429698.2304, 47, 0, 4212.308, 4223.59, 4115.897, 4166.154, 4165.128, 0, 0, []
1631429698.2382, 48, 0, 4215.385, 4222.051, 4090.769, 4173.333, 4183.59, 0, 0, []
1631429698.246, 49, 0, 4216.923, 4241.538, 4114.872, 4171.282, 4185.641, 0, 0, []
1631429698.2538, 50, 0, 4214.872, 4230.769, 4102.564, 4162.051, 4171.282, 0, 0, []
1631429698.2617, 51, 0, 4198.974, 4201.538, 4086.154, 4145.128, 4165.128, 0, 0, []
1631429698.2695, 52, 0, 4197.949, 4206.667, 4120.513, 4141.026, 4169.231, 0, 0, []
1631429698.2774, 53, 0, 4209.744, 4223.077, 4086.154, 4156.923, 4171.795, 0, 0, []
1631429698.2852, 54, 0, 4205.641, 4212.821, 4106.667, 4165.128, 4172.821, 0, 0, []
1631429698.2931, 55, 0, 4197.436, 4203.59, 4101.538, 4152.821, 4171.282, 0, 0, []
1631429698.301, 56, 0, 4201.026, 4205.128, 4065.128, 4151.282, 4165.641, 0, 0, []
1631429698.309, 57, 0, 4204.103, 4208.205, 4101.538, 4164.103, 4169.744, 0, 0, []
1631429698.3169, 58, 0, 4204.103, 4217.949, 4082.051, 4153.333, 4175.897, 0, 0, []
1631429698.3249, 59, 0, 4204.103, 4214.872, 4089.744, 4128.205, 4164.615, 0, 0, []
1631429698.3327, 60, 0, 4208.205, 4208.205, 4091.795, 4124.615, 4163.077, 0, 0, []
1631429698.3407, 61, 0, 4213.333, 4219.487, 4076.923, 4135.385, 4182.564, 0, 0, []
1631429698.3486, 62, 0, 4212.308, 4223.077, 4119.487, 4141.026, 4182.564, 0, 0, []
1631429698.3564, 63, 0, 4204.103, 4210.256, 4081.538, 4138.974, 4166.667, 0, 0, []
1631429698.3643, 64, 0, 4196.923, 4204.615, 4077.436, 4134.872, 4167.179, 450, 0, []
1631429698.372, 65, 0, 4198.974, 4206.154, 4097.436, 4137.949, 4169.744, 450, 0, []
1631429698.3799, 66, 0, 4197.949, 4200.513, 4077.949, 4151.795, 4166.667, 16175, 0, []
1631429698.3877, 67, 0, 4186.667, 4192.821, 4114.359, 4163.077, 4168.205, 450, 0, []
1631429698.3956, 68, 0, 4185.641, 4187.179, 4086.154, 4155.897, 4158.974, 16159, 0, []
1631429698.4034, 69, 0, 4193.846, 4194.359, 4084.103, 4154.872, 4150.256, 450, 0, []
1631429698.4112, 70, 0, 4192.821, 4205.641, 4105.641, 4162.564, 4164.615, 214, 0, []
1631429698.419, 71, 0, 4192.308, 4201.538, 4078.462, 4149.231, 4171.282, 450, 0, []
1631429698.427, 72, 0, 4200, 4201.026, 4106.154, 4132.821, 4154.872, 450, 0, []
1631429698.4349, 73, 0, 4194.359, 4195.897, 4077.949, 4124.615, 4151.282, 16156, 0, []
1631429698.4429, 74, 0, 4179.487, 4180, 4073.333, 4117.436, 4164.103, 450, 0, []
1631429698.4507, 75, 0, 4182.051, 4182.051, 4096.41, 4129.231, 4165.641, 16194, 0, []
1631429698.4586, 76, 0, 4197.949, 4191.795, 4060, 4157.949, 4163.077, 450, 0, []
1631429698.4665, 77, 0, 4197.949, 4180.513, 4097.949, 4170.256, 4171.282, 450, 0, []
1631429698.4745, 78, 0, 4188.205, 4173.333, 4090.769, 4160, 4172.308, 450, 0, []
1631429698.4824, 79, 0, 4191.282, 4184.103, 4071.795, 4150.769, 4162.564, 16194, 0, []
1631429698.4903, 80, 0, 4199.487, 4190.769, 4102.051, 4146.154, 4168.205, 450, 0, []
1631429698.4982, 81, 0, 4190.769, 4187.179, 4077.949, 4135.897, 4171.795, 450, 0, []
1631429698.5062, 82, 0, 4181.026, 4182.564, 4098.462, 4129.744, 4148.205, 450, 0, []
1631429698.5141, 83, 0, 4187.179, 4188.718, 4089.231, 4140.513, 4140.513, 16194, 0, []
1631429698.5219, 84, 0, 4187.692, 4190.256, 4078.462, 4148.718, 4156.923, 450, 0, []
1631429698.5298, 85, 0, 4194.359, 4185.128, 4109.744, 4149.231, 4165.641, 450, 0, []
1631429698.5375, 86, 0, 4204.103, 4194.872, 4070.769, 4154.359, 4168.718, 450, 0, []
1631429698.5454, 87, 0, 4187.692, 4196.41, 4090.256, 4147.692, 4164.615, 16194, 0, []
1631429698.5532, 88, 0, 4186.154, 4182.051, 4097.949, 4132.308, 4152.821, 450, 0, []
1631429698.5611, 89, 0, 4210.769, 4185.641, 4082.051, 4134.359, 4158.974, 450, 0, []
1631429698.5689, 90, 0, 4214.872, 4196.923, 4114.359, 4142.051, 4172.308, 450, 0, []
1631429698.5768, 91, 0, 4202.051, 4189.744, 4073.846, 4131.795, 4160, 16194, 0, []
1631429698.5847, 92, 0, 4196.41, 4179.487, 4081.026, 4128.205, 4144.103, 450, 0, []
1631429698.5927, 93, 0, 4190.769, 4178.974, 4090.256, 4142.051, 4152.821, 450, 0, []
1631429698.6006, 94, 0, 4195.385, 4184.615, 4072.821, 4153.333, 4166.154, 450, 0, []
1631429698.6086, 95, 0, 4212.821, 4195.385, 4110.256, 4159.487, 4163.59, 16194, 0, []
1631429698.6164, 96, 0, 4204.615, 4194.359, 4076.41, 4154.359, 4155.385, 450, 0, []
1631429698.6244, 97, 0, 4185.641, 4181.538, 4083.077, 4137.949, 4150.769, 450, 0, []
1631429698.6323, 98, 0, 4193.333, 4183.59, 4101.538, 4130.256, 4153.333, 450, 0, []
1631429698.6403, 99, 0, 4199.487, 4194.872, 4080, 4130.256, 4160.513, 16194, 0, []
1631429698.6482, 100, 0, 4186.154, 4193.333, 4113.846, 4129.231, 4160.513, 450, 0, []
1631429698.6561, 101, 0, 4185.128, 4190.769, 4083.59, 4138.462, 4150.769, 450, 0, []
1631429698.664, 102, 0, 4198.462, 4192.308, 4086.154, 4154.872, 4157.949, 450, 0, []
1631429698.6718, 103, 0, 4202.564, 4193.333, 4107.179, 4156.923, 4173.846, 16194, 0, []
1631429698.6797, 104, 0, 4207.692, 4189.231, 4084.103, 4154.872, 4171.282, 450, 0, []
1631429698.6875, 105, 0, 4217.436, 4195.385, 4127.692, 4155.897, 4168.205, 450, 0, []
1631429698.6953, 106, 0, 4209.744, 4212.821, 4104.615, 4145.128, 4170.256, 450, 0, []
1631429698.7031, 107, 0, 4215.385, 4215.897, 4100, 4148.718, 4175.385, 16194, 0, []
1631429698.711, 108, 0, 4240, 4207.692, 4130.769, 4172.821, 4197.436, 450, 0, []
1631429698.7188, 109, 0, 4232.308, 4208.718, 4090.769, 4176.923, 4204.103, 450, 0, []
1631429698.7268, 110, 0, 4211.795, 4215.385, 4112.308, 4171.282, 4184.103, 450, 0, []
1631429698.7347, 111, 0, 4226.667, 4214.359, 4107.179, 4172.308, 4188.205, 16194, 0, []
1631429698.7426, 112, 0, 4234.359, 4209.744, 4098.462, 4156.41, 4196.923, 450, 0, []
1631429698.7505, 113, 0, 4217.949, 4204.615, 4113.333, 4134.872, 4174.872, 450, 0, []
1631429698.7585, 114, 0, 4211.795, 4193.333, 4073.846, 4129.744, 4169.744, 450, 0, []
1631429698.7664, 115, 0, 4205.641, 4182.564, 4098.974, 4125.641, 4181.026, 16194, 0, []
1631429698.7744, 116, 0, 4202.051, 4183.59, 4091.282, 4122.564, 4178.462, 450, 0, []
1631429698.7822, 117, 0, 4211.282, 4194.359, 4076.41, 4133.846, 4181.538, 450, 0, []
1631429698.7902, 118, 0, 4208.718, 4203.077, 4108.718, 4141.538, 4186.667, 450, 0, []
1631429698.7981, 119, 0, 4205.128, 4203.59, 4078.974, 4135.897, 4177.436, 16194, 0, []
1631429698.8061, 120, 0, 4214.359, 4200, 4107.692, 4133.333, 4175.385, 450, 0, []
1631429698.814, 121, 0, 4205.641, 4203.59, 4115.897, 4134.359, 4176.923, 450, 0, []
1631429698.8217, 122, 0, 4199.487, 4203.077, 4098.974, 4135.897, 4163.59, 450, 0, []
1631429698.8296, 123, 0, 4216.923, 4199.487, 4129.231, 4140.513, 4165.128, 16194, 0, []
1631429698.8374, 124, 0, 4219.487, 4208.718, 4093.846, 4144.103, 4183.59, 450, 0, []
1631429698.8453, 125, 0, 4212.308, 4211.282, 4110.769, 4146.667, 4182.051, 450, 0, []
1631429698.8531, 126, 0, 4219.487, 4201.026, 4115.385, 4141.026, 4170.769, 450, 0, []
1631429698.8609, 127, 0, 4204.615, 4189.231, 4082.051, 4126.154, 4168.718, 16194, 0, []
1631429698.8687, 128, 0, 4182.564, 4172.308, 4108.718, 4113.846, 4160.513, 450, 0, []
1631429698.8766, 0, 0, 4190.256, 4176.41, 4081.026, 4110.769, 4152.821, 450, 0, []
1631429698.8844, 1, 0, 4202.051, 4204.615, 4104.103, 4126.154, 4171.795, 450, 0, []
1631429698.8924, 2, 0, 4207.692, 4216.923, 4128.205, 4146.667, 4191.795, 16192, 0, []
1631429698.9002, 3, 0, 4217.436, 4208.718, 4094.872, 4151.795, 4182.051, 450, 0, []
1631429698.9082, 4, 0, 4216.923, 4208.718, 4122.051, 4152.821, 4181.026, 16147, 0, []
1631429698.9161, 5, 0, 4202.051, 4209.744, 4100, 4147.179, 4187.179, 450, 0, []
1631429698.9241, 6, 0, 4197.436, 4194.872, 4106.667, 4134.872, 4167.179, 200, 0, []
1631429698.932, 7, 0, 4204.615, 4194.359, 4125.641, 4133.333, 4161.026, 450, 0, []
1631429698.9399, 8, 0, 4203.077, 4205.128, 4091.795, 4139.487, 4180, 450, 0, []
1631429698.9478, 9, 0, 4197.949, 4195.385, 4112.821, 4138.974, 4177.949, 16147, 0, []
1631429698.9558, 10, 0, 4200.513, 4184.103, 4090.769, 4138.462, 4165.641, 450, 0, []
1631429698.9637, 11, 0, 4196.923, 4187.692, 4100.513, 4140, 4166.667, 16190, 0, []
1631429698.9715, 12, 0, 4187.179, 4194.872, 4121.026, 4128.205, 4161.026, 450, 0, []
1631429698.9794, 13, 0, 4187.179, 4181.026, 4075.897, 4113.333, 4150.769, 450, 0, []
1631429698.9871, 14, 0, 4190.769, 4162.564, 4108.718, 4115.897, 4154.359, 450, 0, []
1631429698.995, 15, 0, 4193.846, 4175.385, 4103.59, 4127.179, 4163.077, 16190, 0, []
1631429699.0028, 16, 0, 4202.051, 4197.436, 4094.872, 4136.923, 4167.179, 0, 0, []
1631429699.0107, 17, 0, 4201.538, 4190.256, 4118.974, 4140, 4167.692, 0, 0, []
1631429699.0185, 18, 0, 4194.359, 4187.692, 4087.692, 4132.821, 4165.128, 0, 0, []
1631429699.0263, 19, 0, 4201.538, 4209.231, 4117.949, 4134.359, 4162.051, 0, 0, []
1631429699.0341, 20, 0, 4214.359, 4213.333, 4105.641, 4137.436, 4166.667, 0, 0, []
1631429699.0421, 21, 0, 4208.718, 4205.641, 4078.974, 4126.154, 4166.667, 0, 0, []
1631429699.05, 22, 0, 4202.564, 4204.615, 4108.718, 4127.692, 4156.923, 0, 0, []
1631429699.058, 23, 0, 4206.154, 4193.846, 4084.103, 4140, 4157.949, 0, 0, []
1631429699.0658, 24, 0, 4204.103, 4191.282, 4108.205, 4138.462, 4170.769, 0, 0, []
1631429699.0738, 25, 0, 4209.231, 4207.692, 4112.308, 4143.077, 4174.359, 0, 0, []
1631429699.0817, 26, 0, 4219.487, 4212.308, 4100, 4155.897, 4174.872, 0, 0, []
1631429699.0897, 27, 0, 4211.282, 4198.462, 4123.077, 4146.154, 4175.385, 0, 0, []
1631429699.0976, 28, 0, 4197.436, 4181.538, 4079.487, 4127.692, 4157.436, 0, 0, []
1631429699.1055, 29, 0, 4196.41, 4176.41, 4104.103, 4133.333, 4148.718, 0, 0, []
1631429699.1134, 30, 0, 4200.513, 4187.692, 4115.385, 4149.744, 4169.231, 0, 0, []
1631429699.1212, 31, 0, 4195.385, 4188.718, 4083.077, 4146.667, 4167.179, 0, 0, []
1631429699.1291, 32, 0, 4186.154, 4174.359, 4113.333, 4137.949, 4149.744, 0, 0, []
1631429699.1369, 33, 0, 4184.615, 4166.667, 4087.692, 4145.128, 4166.154, 0, 0, []
1631429699.1447, 34, 0, 4200.513, 4175.385, 4104.103, 4154.872, 4186.667, 0, 0, []
1631429699.1525, 35, 0, 4211.795, 4191.282, 4117.436, 4153.333, 4180, 0, 0, []
1631429699.1604, 36, 0, 4194.872, 4187.179, 4079.487, 4136.41, 4167.692, 0, 0, []
1631429699.1682, 37, 0, 4175.385, 4174.872, 4102.564, 4124.103, 4159.487, 0, 0, []
1631429699.1761, 38, 0, 4187.692, 4179.487, 4088.718, 4134.872, 4156.41, 0, 0, []
1631429699.1838, 39, 0, 4199.487, 4180, 4105.128, 4142.564, 4163.59, 0, 0, []
1631429699.1917, 40, 0, 4186.154, 4169.231, 4110.256, 4129.231, 4161.026, 0, 0, []
1631429699.1995, 41, 0, 4182.564, 4166.154, 4076.923, 4128.205, 4152.308, 0, 0, []
1631429699.2075, 42, 0, 4194.359, 4167.179, 4116.923, 4146.667, 4164.103, 0, 0, []
1631429699.2154, 43, 0, 4189.744, 4164.103, 4081.538, 4142.051, 4174.872, 0, 0, []
1631429699.2234, 44, 0, 4184.103, 4166.154, 4073.846, 4133.846, 4166.154, 0, 0, []
1631429699.2312, 45, 0, 4192.308, 4171.282, 4109.744, 4145.641, 4155.897, 0, 0, []
1631429699.2392, 46, 0, 4182.051, 4170.769, 4075.897, 4145.641, 4153.333, 0, 0, []
1631429699.2471, 47, 0, 4166.667, 4167.692, 4102.564, 4129.744, 4150.769, 0, 0, []
1631429699.2551, 48, 0, 4179.487, 4170.769, 4094.872, 4119.487, 4148.718, 0, 0, []
1631429699.263, 49, 0, 4187.179, 4174.359, 4084.615, 4124.103, 4147.179, 0, 0, []
1631429699.2709, 50, 0, 4173.333, 4169.744, 4105.128, 4125.641, 4148.718, 0, 0, []
1631429699.2788, 51, 0, 4172.308, 4178.462, 4083.59, 4120, 4147.692, 0, 0, []
1631429699.2866, 52, 0, 4186.154, 4190.256, 4122.564, 4124.103, 4142.051, 0, 0, []
1631429699.2945, 53, 0, 4175.897, 4171.795, 4101.026, 4125.128, 4137.949, 0, 0, []
1631429699.3023, 54, 0, 4158.462, 4153.333, 4072.308, 4118.974, 4140, 0, 0, []
1631429699.3101, 55, 0, 4176.923, 4167.179, 4108.205, 4121.538, 4151.282, 0, 0, []
1631429699.3179, 56, 0, 4191.795, 4183.59, 4083.077, 4122.564, 4154.359, 0, 0, []
1631429699.3258, 57, 0, 4185.641, 4176.923, 4113.333, 4122.051, 4152.821, 0, 0, []
1631429699.3336, 58, 0, 4193.846, 4177.436, 4116.923, 4132.308, 4164.103, 0, 0, []
1631429699.3415, 59, 0, 4202.051, 4183.077, 4091.282, 4136.41, 4165.641, 0, 0, []
1631429699.3492, 60, 0, 4188.205, 4180.513, 4117.436, 4130.769, 4157.949, 0, 0, []
1631429699.3572, 61, 0, 4178.974, 4187.692, 4089.744, 4131.282, 4157.436, 0, 0, []
1631429699.3651, 62, 0, 4183.077, 4195.897, 4109.744, 4138.462, 4150.256, 0, 0, []
1631429699.3731, 63, 0, 4191.282, 4189.744, 4113.333, 4147.179, 4154.359, 0, 0, []
1631429699.381, 64, 0, 4206.667, 4182.051, 4094.359, 4152.308, 4180, 450, 0, []
1631429699.3889, 65, 0, 4220.513, 4186.154, 4129.744, 4160, 4186.154, 450, 0, []
1631429699.3968, 66, 0, 4215.897, 4189.744, 4096.41, 4162.051, 4175.897, 16196, 0, []
1631429699.4048, 67, 0, 4201.538, 4191.282, 4102.564, 4144.103, 4173.333, 450, 0, []
1631429699.4127, 68, 0, 4200, 4187.692, 4109.231, 4133.846, 4171.282, 16147, 0, []
1631429699.4207, 69, 0, 4209.744, 4180, 4089.744, 4145.128, 4174.359, 450, 0, []
1631429699.4285, 70, 0, 4212.308, 4193.846, 4132.308, 4153.333, 4185.128, 192, 0, []
1631429699.4363, 71, 0, 4211.795, 4210.769, 4100, 4151.282, 4180, 450, 0, []
1631429699.4442, 72, 0, 4206.667, 4189.744, 4092.821, 4147.179, 4171.795, 450, 0, []
1631429699.452, 73, 0, 4191.282, 4168.205, 4098.462, 4141.538, 4168.718, 16151, 0, []
1631429699.4599, 74, 0, 4193.846, 4185.641, 4073.846, 4145.641, 4161.026, 450, 0, []
1631429699.4677, 75, 0, 4215.385, 4200.513, 4116.923, 4161.026, 4177.436, 16195, 0, []
1631429699.4755, 76, 0, 4212.821, 4192.308, 4094.872, 4162.564, 4199.487, 450, 0, []
1631429699.4833, 77, 0, 4203.59, 4185.641, 4098.974, 4161.026, 4190.256, 450, 0, []
1631429699.4912, 78, 0, 4209.231, 4186.667, 4123.59, 4159.487, 4180.513, 450, 0, []
1631429699.499, 79, 0, 4204.103, 4190.769, 4087.179, 4152.821, 4183.077, 16195, 0, []
1631429699.507, 80, 0, 4197.949, 4198.974, 4118.462, 4156.41, 4173.846, 450, 0, []
1631429699.5148, 81, 0, 4203.59, 4207.179, 4100, 4158.462, 4167.179, 450, 0, []
1631429699.5228, 82, 0, 4196.923, 4206.154, 4092.308, 4156.41, 4175.385, 450, 0, []
1631429699.5307, 83, 0, 4184.103, 4198.462, 4122.564, 4157.436, 4165.128, 16195, 0, []
1631429699.5387, 84, 0, 4181.026, 4192.308, 4085.641, 4148.205, 4145.128, 450, 0, []
1631429699.5466, 85, 0, 4177.949, 4194.872, 4113.333, 4141.538, 4156.41, 450, 0, []
1631429699.5545, 86, 0, 4188.718, 4207.179, 4114.359, 4156.41, 4180, 450, 0, []
1631429699.5624, 87, 0, 4200.513, 4207.179, 4103.59, 4172.308, 4178.462, 16195, 0, []
1631429699.5704, 88, 0, 4191.282, 4196.923, 4132.821, 4170.769, 4168.718, 450, 0, []
1631429699.5783, 89, 0, 4186.667, 4197.436, 4108.718, 4164.103, 4168.718, 450, 0, []
1631429699.5861, 90, 0, 4195.385, 4201.538, 4128.205, 4162.051, 4166.667, 450, 0, []
1631429699.5939, 91, 0, 4195.897, 4202.564, 4105.128, 4156.923, 4171.795, 16195, 0, []
1631429699.6017, 92, 0, 4191.282, 4207.692, 4081.026, 4151.282, 4182.564, 450, 0, []
1631429699.6096, 93, 0, 4198.974, 4209.744, 4125.641, 4167.692, 4183.077, 450, 0, []
1631429699.6174, 94, 0, 4204.103, 4204.615, 4098.462, 4185.128, 4183.59, 450, 0, []
1631429699.6253, 95, 0, 4195.897, 4206.154, 4107.692, 4173.333, 4185.641, 16195, 0, []
1631429699.633, 96, 0, 4196.41, 4218.974, 4112.308, 4169.231, 4182.051, 450, 0, []
1631429699.6409, 97, 0, 4200, 4222.051, 4097.949, 4176.41, 4180, 450, 0, []
1631429699.6487, 98, 0, 4187.179, 4209.744, 4120, 4157.949, 4170.256, 450, 0, []
1631429699.6566, 99, 0, 4189.744, 4199.487, 4085.128, 4145.128, 4166.154, 16195, 0, []
1631429699.6644, 100, 0, 4212.308, 4202.564, 4113.846, 4167.692, 4188.205, 450, 0, []
1631429699.6724, 101, 0, 4210.769, 4218.974, 4116.41, 4176.41, 4193.846, 450, 0, []
1631429699.6802, 102, 0, 4202.051, 4219.487, 4077.436, 4161.026, 4175.897, 450, 0, []
1631429699.6882, 103, 0, 4208.718, 4203.59, 4115.385, 4165.641, 4179.487, 16195, 0, []
1631429699.6961, 104, 0, 4198.462, 4203.59, 4077.436, 4164.615, 4183.077, 450, 0, []
1631429699.7041, 105, 0, 4185.641, 4212.821, 4081.026, 4146.667, 4167.179, 450, 0, []
1631429699.712, 106, 0, 4194.359, 4210.256, 4116.41, 4150.256, 4169.231, 450, 0, []
1631429699.7199, 107, 0, 4190.769, 4201.026, 4088.718, 4164.103, 4178.974, 16195, 0, []
1631429699.7278, 108, 0, 4184.615, 4197.436, 4116.41, 4159.487, 4176.41, 450, 0, []
1631429699.7358, 109, 0, 4190.256, 4200, 4098.462, 4153.333, 4166.154, 450, 0, []
1631429699.7437, 110, 0, 4181.538, 4198.974, 4091.282, 4147.692, 4154.872, 450, 0, []
1631429699.7515, 111, 0, 4184.615, 4197.949, 4103.077, 4135.385, 4152.821, 16195, 0, []
1631429699.7593, 112, 0, 4215.385, 4192.308, 4081.026, 4131.795, 4154.359, 450, 0, []
1631429699.7671, 113, 0, 4230.769, 4184.103, 4116.41, 4132.821, 4160.513, 450, 0, []
1631429699.775, 114, 0, 4228.205, 4191.795, 4098.974, 4122.051, 4169.744, 450, 0, []
1631429699.7828, 115, 0, 4224.103, 4194.872, 4093.846, 4124.103, 4158.974, 16195, 0, []
1631429699.7907, 116, 0, 4204.615, 4173.846, 4105.128, 4132.821, 4140.513, 450, 0, []
1631429699.7984, 117, 0, 4174.872, 4160.513, 4059.487, 4114.359, 4137.436, 450, 0, []
1631429699.8063, 118, 0, 4164.615, 4167.179, 4083.077, 4094.359, 4121.026, 450, 0, []
1631429699.8141, 119, 0, 4172.308, 4173.846, 4069.231, 4107.179, 4105.641, 16195, 0, []
1631429699.822, 120, 0, 4180.513, 4179.487, 4078.462, 4127.692, 4134.872, 450, 0, []
1631429699.8298, 121, 0, 4184.103, 4185.641, 4123.077, 4123.077, 4150.256, 450, 0, []
1631429699.8377, 122, 0, 4180.513, 4177.436, 4072.308, 4109.231, 4119.487, 450, 0, []
1631429699.8456, 123, 0, 4182.564, 4175.897, 4090.769, 4120.513, 4119.487, 16195, 0, []
1631429699.8536, 124, 0, 4191.795, 4195.897, 4100.513, 4137.436, 4148.718, 450, 0, []
1631429699.8615, 125, 0, 4189.744, 4202.564, 4077.949, 4125.641, 4134.872, 450, 0, []
1631429699.8695, 126, 0, 4182.051, 4188.205, 4101.538, 4111.282, 4110.769, 450, 0, []
1631429699.8773, 127, 0, 4187.179, 4180, 4084.615, 4116.923, 4129.744, 16195, 0, []
1631429699.8853, 128, 0, 4195.385, 4186.667, 4112.821, 4122.051, 4143.59, 450, 0, []
1631429699.8932, 0, 0, 4192.821, 4193.333, 4107.179, 4123.59, 4133.333, 450, 0, []
1631429699.9012, 1, 0, 4192.308, 4190.256, 4096.923, 4129.744, 4141.026, 450, 0, []
1631429699.9091, 2, 0, 4200.513, 4194.872, 4140.513, 4133.846, 4151.795, 16188, 0, []
1631429699.9169, 3, 0, 4205.641, 4210.769, 4093.846, 4136.923, 4143.077, 450, 0, []
1631429699.9247, 4, 0, 4205.128, 4214.359, 4095.897, 4146.154, 4148.718, 16159, 0, []
1631429699.9325, 5, 0, 4203.59, 4203.077, 4098.462, 4135.897, 4160, 450, 0, []
1631429699.9404, 6, 0, 4199.487, 4196.923, 4063.59, 4118.462, 4142.564, 197, 0, []
1631429699.9482, 7, 0, 4202.051, 4201.026, 4100, 4121.026, 4137.436, 450, 0, []
1631429699.9562, 8, 0, 4212.308, 4209.744, 4086.667, 4122.564, 4157.436, 450, 0, []
1631429699.964, 9, 0, 4218.974, 4209.231, 4107.179, 4130.256, 4158.462, 16155, 0, []
1631429699.972, 10, 0, 4220, 4203.59, 4119.487, 4146.154, 4153.333, 450, 0, []
1631429699.9799, 11, 0, 4215.385, 4210.769, 4076.923, 4141.026, 4156.41, 16158, 0, []
1631429699.9879, 12, 0, 4210.769, 4215.385, 4106.154, 4132.308, 4150.769, 450, 0, []
1631429699.9958, 13, 0, 4214.872, 4212.308, 4092.308, 4137.949, 4155.385, 450, 0, []
1631429700.0037, 14, 0, 4214.359, 4221.538, 4100, 4132.308, 4165.128, 450, 0, []
1631429700.0116, 15, 0, 4206.154, 4224.103, 4116.41, 4124.615, 4153.846, 16158, 0, []
1631429700.0196, 16, 0, 4205.128, 4207.179, 4088.718, 4138.462, 4146.667, 0, 0, []
1631429700.0275, 17, 0, 4215.897, 4216.923, 4130.769, 4155.897, 4165.128, 0, 0, []
1631429700.0355, 18, 0, 4233.846, 4241.026, 4116.41, 4168.718, 4183.59, 0, 0, []
1631429700.0433, 19, 0, 4241.538, 4235.897, 4113.333, 4170.256, 4185.128, 0, 0, []
1631429700.0511, 20, 0, 4232.308, 4226.667, 4128.205, 4147.692, 4177.436, 0, 0, []
1631429700.059, 21, 0, 4223.077, 4227.692, 4070.769, 4125.128, 4166.154, 0, 0, []
1631429700.0668, 22, 0, 4216.41, 4222.051, 4092.821, 4124.615, 4160.513, 0, 0, []
1631429700.0747, 23, 0, 4208.718, 4223.077, 4092.308, 4128.718, 4155.385, 0, 0, []
1631429700.0824, 24, 0, 4210.256, 4232.308, 4091.282, 4143.59, 4147.692, 0, 0, []
1631429700.0903, 25, 0, 4216.923, 4233.846, 4122.051, 4158.462, 4153.333, 0, 0, []
1631429700.0981, 26, 0, 4213.846, 4233.333, 4086.667, 4148.718, 4157.436, 0, 0, []
1631429700.106, 27, 0, 4211.795, 4224.103, 4107.692, 4145.128, 4151.795, 0, 0, []
1631429700.1138, 28, 0, 4217.949, 4211.795, 4101.538, 4147.692, 4156.923, 0, 0, []
1631429700.1217, 29, 0, 4226.154, 4216.923, 4095.385, 4133.333, 4171.282, 0, 0, []
1631429700.1296, 30, 0, 4230.256, 4223.59, 4132.821, 4136.923, 4173.846, 0, 0, []
1631429700.1376, 31, 0, 4227.179, 4217.949, 4096.923, 4155.385, 4171.795, 0, 0, []
1631429700.1455, 32, 0, 4226.667, 4220, 4110.769, 4147.692, 4172.821, 0, 0, []
1631429700.1535, 33, 0, 4226.154, 4220.513, 4104.615, 4140.513, 4165.641, 0, 0, []
1631429700.1614, 34, 0, 4208.205, 4198.974, 4083.59, 4150.256, 4158.462, 0, 0, []
1631429700.1693, 35, 0, 4203.59, 4194.872, 4114.872, 4144.103, 4160, 0, 0, []
1631429700.1772, 36, 0, 4215.897, 4212.821, 4078.462, 4122.564, 4156.41, 0, 0, []
1631429700.1852, 37, 0, 4206.667, 4208.718, 4088.718, 4112.308, 4151.795, 0, 0, []
1631429700.1931, 38, 0, 4196.923, 4204.103, 4090.256, 4104.615, 4155.385, 0, 0, []
1631429700.201, 39, 0, 4204.103, 4205.128, 4066.154, 4090.256, 4149.231, 0, 0, []
1631429700.2088, 40, 0, 4191.795, 4180.513, 4097.436, 4084.103, 4133.846, 0, 0, []
1631429700.2166, 41, 0, 4170.256, 4169.744, 4060.513, 4094.359, 4126.154, 0, 0, []
1631429700.2245, 42, 0, 4178.462, 4193.846, 4077.949, 4118.462, 4123.077, 0, 0, []
1631429700.2323, 43, 0, 4192.308, 4203.59, 4097.949, 4137.436, 4124.615, 0, 0, []
1631429700.2402, 44, 0, 4182.051, 4189.231, 4059.487, 4128.718, 4132.821, 0, 0, []
1631429700.2479, 45, 0, 4179.487, 4185.128, 4095.385, 4114.359, 4140, 0, 0, []
1631429700.2558, 46, 0, 4187.179, 4182.564, 4081.026, 4114.872, 4140.513, 0, 0, []
1631429700.2636, 47, 0, 4173.333, 4166.154, 4074.872, 4115.385, 4134.359, 0, 0, []
1631429700.2715, 48, 0, 4159.487, 4164.615, 4083.077, 4110.769, 4125.128, 0, 0, []
1631429700.2793, 49, 0, 4175.897, 4175.385, 4058.462, 4116.923, 4125.641, 0, 0, []
1631429700.2872, 50, 0, 4191.795, 4180, 4096.923, 4124.615, 4135.897, 0, 0, []
1631429700.2951, 51, 0, 4191.795, 4191.282, 4084.103, 4126.667, 4148.718, 0, 0, []
1631429700.3031, 52, 0, 4199.487, 4202.564, 4089.744, 4134.872, 4161.538, 0, 0, []
1631429700.311, 53, 0, 4205.641, 4188.205, 4106.667, 4142.564, 4170.256, 0, 0, []
1631429700.319, 54, 0, 4197.436, 4173.846, 4068.205, 4136.41, 4171.795, 0, 0, []
1631429700.3268, 55, 0, 4193.333, 4185.641, 4096.41, 4126.154, 4162.051, 0, 0, []
1631429700.3348, 56, 0, 4191.282, 4190.256, 4067.179, 4116.923, 4146.667, 0, 0, []
1631429700.3427, 57, 0, 4180, 4177.436, 4055.897, 4111.282, 4144.103, 0, 0, []
1631429700.3507, 58, 0, 4186.154, 4190.769, 4106.154, 4115.897, 4154.872, 0, 0, []
1631429700.3586, 59, 0, 4204.615, 4217.949, 4078.974, 4124.615, 4157.436, 0, 0, []
1631429700.3664, 60, 0, 4202.564, 4210.256, 4095.385, 4125.641, 4156.41, 0, 0, []
1631429700.3742, 61, 0, 4197.436, 4193.333, 4095.897, 4124.615, 4165.128, 0, 0, []
1631429700.382, 62, 0, 4206.667, 4196.923, 4090.769, 4132.821, 4167.179, 0, 0, []
1631429700.3899, 63, 0, 4198.974, 4193.333, 4104.103, 4130.769, 4155.897, 0, 0, []
1631429700.3977, 64, 0, 4174.359, 4182.051, 4055.897, 4102.564, 4140.513, 450, 0, []
1631429700.4056, 65, 0, 4182.564, 4194.359, 4097.949, 4101.538, 4137.949, 450, 0, []
1631429700.4133, 66, 0, 4206.154, 4210.256, 4113.846, 4125.641, 4155.897, 16187, 0, []
1631429700.4212, 67, 0, 4203.59, 4203.077, 4083.59, 4127.179, 4167.179, 450, 0, []
1631429700.429, 68, 0, 4200.513, 4197.436, 4114.872, 4133.846, 4163.59, 16161, 0, []
1631429700.437, 69, 0, 4206.667, 4202.564, 4092.821, 4152.308, 4163.59, 450, 0, []
1631429700.4449, 70, 0, 4194.872, 4201.026, 4104.615, 4146.154, 4157.949, 204, 0, []
1631429700.4528, 71, 0, 4191.795, 4191.795, 4101.538, 4129.744, 4143.59, 450, 0, []
1631429700.4607, 72, 0, 4199.487, 4179.487, 4084.615, 4133.333, 4142.564, 450, 0, []
1631429700.4687, 73, 0, 4190.769, 4185.641, 4127.179, 4148.205, 4156.41, 16158, 0, []
1631429700.4766, 74, 0, 4191.282, 4197.949, 4092.821, 4155.385, 4162.051, 450, 0, []
1631429700.4846, 75, 0, 4200.513, 4187.179, 4088.718, 4148.205, 4153.846, 16178, 0, []
1631429700.4924, 76, 0, 4197.436, 4175.897, 4098.462, 4145.641, 4156.923, 450, 0, []
1631429700.5004, 77, 0, 4211.795, 4191.795, 4092.308, 4164.615, 4179.487, 450, 0, []
1631429700.5083, 78, 0, 4227.179, 4201.538, 4138.462, 4180, 4188.718, 450, 0, []
1631429700.5163, 79, 0, 4208.205, 4190.256, 4103.59, 4173.846, 4172.821, 16178, 0, []
1631429700.5242, 80, 0, 4204.615, 4191.282, 4110.769, 4173.333, 4168.205, 450, 0, []
1631429700.5319, 81, 0, 4220, 4207.179, 4131.282, 4176.41, 4180.513, 450, 0, []
1631429700.5398, 82, 0, 4204.615, 4204.103, 4081.026, 4164.615, 4172.821, 450, 0, []
1631429700.5476, 83, 0, 4192.308, 4184.615, 4104.615, 4154.359, 4154.359, 16178, 0, []
1631429700.5555, 84, 0, 4203.59, 4183.59, 4095.385, 4159.487, 4157.949, 450, 0, []
1631429700.5633, 85, 0, 4200.513, 4195.385, 4098.462, 4165.641, 4167.179, 450, 0, []
1631429700.5711, 86, 0, 4196.923, 4201.026, 4115.897, 4165.641, 4160, 450, 0, []
1631429700.5789, 87, 0, 4200.513, 4202.051, 4079.487, 4157.436, 4153.333, 16178, 0, []
1631429700.5868, 88, 0, 4190.769, 4193.333, 4109.744, 4148.718, 4160, 450, 0, []
1631429700.5946, 89, 0, 4190.769, 4190.256, 4090.256, 4143.59, 4161.026, 450, 0, []
1631429700.6026, 90, 0, 4197.949, 4192.308, 4075.385, 4139.487, 4154.359, 450, 0, []
1631429700.6105, 91, 0, 4195.385, 4184.615, 4098.462, 4145.128, 4164.615, 16178, 0, []
1631429700.6184, 92, 0, 4196.923, 4178.462, 4066.154, 4149.231, 4172.308, 450, 0, []
1631429700.6263, 93, 0, 4194.872, 4177.949, 4092.821, 4143.077, 4151.795, 450, 0, []
1631429700.6343, 94, 0, 4191.282, 4178.974, 4090.769, 4146.667, 4150.769, 450, 0, []
1631429700.6422, 95, 0, 4206.667, 4193.846, 4092.308, 4163.077, 4178.462, 16178, 0, []
1631429700.6502, 96, 0, 4214.359, 4203.59, 4122.564, 4169.744, 4182.564, 450, 0, []
1631429700.658, 97, 0, 4198.974, 4180.513, 4078.462, 4162.051, 4170.256, 450, 0, []
1631429700.666, 98, 0, 4200, 4168.205, 4102.564, 4158.462, 4178.462, 450, 0, []
1631429700.6739, 99, 0, 4215.385, 4195.385, 4103.59, 4162.564, 4184.103, 16178, 0, []
1631429700.6817, 100, 0, 4208.718, 4203.59, 4086.154, 4167.179, 4181.026, 450, 0, []
1631429700.6896, 101, 0, 4200, 4185.641, 4117.436, 4166.154, 4183.077, 450, 0, []
1631429700.6973, 102, 0, 4197.949, 4187.692, 4076.923, 4157.949, 4170.256, 450, 0, []
1631429700.7052, 103, 0, 4192.308, 4200, 4093.846, 4154.359, 4154.872, 16178, 0, []
1631429700.713, 104, 0, 4205.641, 4193.846, 4105.641, 4152.821, 4173.846, 450, 0, []
1631429700.7209, 105, 0, 4239.487, 4190.256, 4080.513, 4154.359, 4212.308, 450, 0, []
1631429700.7287, 106, 0, 4277.436, 4197.436, 4109.744, 4164.615, 4249.231, 450, 0, []
1631429700.7365, 107, 0, 4338.462, 4199.487, 4089.231, 4176.41, 4306.154, 16178, 0, []
1631429700.7443, 108, 0, 4425.128, 4202.564, 4114.359, 4191.282, 4383.077, 450, 0, []
1631429700.7522, 109, 0, 4477.436, 4213.333, 4120, 4190.769, 4430.256, 450, 0, []
1631429700.76, 110, 0, 4484.103, 4222.564, 4080, 4173.333, 4436.41, 450, 0, []
1631429700.768, 111, 0, 4481.026, 4227.692, 4120, 4169.231, 4439.487, 16178, 0, []
1631429700.7758, 112, 0, 4464.103, 4222.564, 4104.103, 4174.359, 4430.256, 450, 0, []
1631429700.7838, 113, 0, 4435.897, 4209.744, 4100.513, 4170.256, 4397.436, 450, 0, []
1631429700.7917, 114, 0, 4418.974, 4214.359, 4107.179, 4172.308, 4378.462, 450, 0, []
1631429700.7997, 115, 0, 4398.974, 4218.974, 4082.564, 4175.897, 4370.256, 16178, 0, []
1631429700.8076, 116, 0, 4366.154, 4202.564, 4118.974, 4165.128, 4341.026, 450, 0, []
1631429700.8155, 117, 0, 4340.513, 4196.41, 4090.256, 4153.846, 4311.282, 450, 0, []
1631429700.8234, 118, 0, 4324.103, 4201.026, 4086.667, 4155.385, 4296.41, 450, 0, []
1631429700.8312, 119, 0, 4311.795, 4198.462, 4116.923, 4162.564, 4287.692, 16178, 0, []
1631429700.8391, 120, 0, 4304.103, 4206.667, 4090.769, 4162.051, 4278.462, 450, 0, []
1631429700.8469, 121, 0, 4291.282, 4226.154, 4121.026, 4163.077, 4266.667, 450, 0, []
1631429700.8548, 122, 0, 4282.564, 4228.205, 4109.744, 4169.744, 4260, 450, 0, []
1631429700.8625, 123, 0, 4283.59, 4212.308, 4110.769, 4171.282, 4260, 16178, 0, []
1631429700.8704, 124, 0, 4273.333, 4200, 4128.718, 4157.436, 4249.744, 450, 0, []
1631429700.8782, 125, 0, 4246.667, 4196.41, 4084.615, 4147.179, 4229.231, 450, 0, []
1631429700.8862, 126, 0, 4226.154, 4181.026, 4117.949, 4156.923, 4206.667, 450, 0, []
1631429700.8941, 127, 0, 4220, 4161.538, 4107.692, 4153.333, 4189.744, 16178, 0, []
1631429700.902, 128, 0, 4227.692, 4169.744, 4086.154, 4133.333, 4191.282, 450, 0, []
1631429700.9099, 0, 0, 4233.846, 4185.641, 4111.282, 4129.744, 4200.513, 450, 0, []
1631429700.9179, 1, 0, 4225.128, 4180, 4076.41, 4134.872, 4197.949, 450, 0, []
1631429700.9258, 2, 0, 4220.513, 4183.077, 4102.564, 4136.923, 4189.744, 16180, 0, []
1631429700.9338, 3, 0, 4225.128, 4205.641, 4105.128, 4147.692, 4187.692, 450, 0, []
1631429700.9416, 4, 0, 4216.923, 4197.949, 4091.795, 4158.974, 4190.256, 16159, 0, []
1631429700.9496, 5, 0, 4216.923, 4178.462, 4123.59, 4162.051, 4192.308, 450, 0, []
1631429700.9575, 6, 0, 4225.128, 4194.359, 4090.769, 4163.077, 4187.692, 202, 0, []
1631429700.9655, 7, 0, 4218.974, 4198.974, 4113.846, 4158.462, 4184.103, 450, 0, []
1631429700.9734, 8, 0, 4217.949, 4176.923, 4115.385, 4141.538, 4187.692, 450, 0, []
1631429700.9813, 9, 0, 4211.795, 4170.256, 4092.821, 4134.872, 4177.949, 16156, 0, []
1631429700.9892, 10, 0, 4196.923, 4185.128, 4122.564, 4142.051, 4167.692, 450, 0, []
1631429700.997, 11, 0, 4212.308, 4188.205, 4073.333, 4137.436, 4172.821, 16207, 0, []
1631429701.0049, 12, 0, 4235.897, 4182.051, 4081.026, 4129.744, 4185.641, 450, 0, []
1631429701.0127, 13, 0, 4225.128, 4189.744, 4105.128, 4134.359, 4190.769, 450, 0, []
1631429701.0205, 14, 0, 4215.385, 4195.385, 4081.538, 4141.026, 4180.513, 450, 0, []
1631429701.0283, 15, 0, 4217.436, 4189.744, 4107.692, 4138.974, 4173.846, 16207, 0, []
1631429701.0362, 16, 0, 4204.103, 4195.385, 4087.179, 4136.41, 4176.41, 0, 0, []
1631429701.044, 17, 0, 4198.974, 4210.769, 4098.462, 4136.41, 4171.795, 0, 0, []
1631429701.0519, 18, 0, 4202.051, 4205.128, 4105.641, 4134.872, 4158.462, 0, 0, []
1631429701.0597, 19, 0, 4192.308, 4180.513, 4077.436, 4132.821, 4150.256, 0, 0, []
1631429701.0676, 20, 0, 4195.897, 4175.385, 4116.923, 4138.974, 4152.308, 0, 0, []
1631429701.0755, 21, 0, 4209.744, 4189.744, 4091.282, 4149.231, 4164.615, 0, 0, []
1631429701.0835, 22, 0, 4197.436, 4187.179, 4088.205, 4148.205, 4166.667, 0, 0, []
1631429701.0914, 23, 0, 4180.513, 4179.487, 4115.897, 4137.436, 4151.795, 0, 0, []
1631429701.0994, 24, 0, 4182.564, 4189.231, 4095.385, 4136.41, 4145.128, 0, 0, []
1631429701.1072, 25, 0, 4184.103, 4200, 4134.359, 4145.128, 4156.41, 0, 0, []
1631429701.1152, 26, 0, 4190.256, 4202.051, 4109.744, 4147.692, 4164.615, 0, 0, []
1631429701.1231, 27, 0, 4196.41, 4197.949, 4091.282, 4150.256, 4163.59, 0, 0, []
1631429701.1311, 28, 0, 4190.769, 4194.872, 4115.897, 4153.846, 4165.641, 0, 0, []
1631429701.139, 29, 0, 4190.256, 4207.692, 4083.59, 4144.103, 4168.718, 0, 0, []
1631429701.1468, 30, 0, 4204.615, 4209.744, 4109.744, 4147.692, 4170.256, 0, 0, []
1631429701.1547, 31, 0, 4206.154, 4187.692, 4099.487, 4163.077, 4171.282, 0, 0, []
1631429701.1625, 32, 0, 4188.205, 4190.256, 4090.769, 4155.897, 4165.641, 0, 0, []
1631429701.1704, 33, 0, 4183.077, 4209.744, 4120.513, 4153.333, 4156.923, 0, 0, []
1631429701.1782, 34, 0, 4194.872, 4197.436, 4091.795, 4166.154, 4162.564, 0, 0, []
1631429701.186, 35, 0, 4198.974, 4187.692, 4120.513, 4166.667, 4173.333, 0, 0, []
1631429701.1938, 36, 0, 4191.795, 4205.641, 4108.718, 4160, 4164.615, 0, 0, []
1631429701.2017, 37, 0, 4183.077, 4209.744, 4087.692, 4159.487, 4152.821, 0, 0, []
1631429701.2095, 38, 0, 4184.103, 4203.59, 4126.667, 4161.538, 4157.436, 0, 0, []
1631429701.2175, 39, 0, 4195.385, 4206.667, 4098.974, 4159.487, 4158.974, 0, 0, []
1631429701.2253, 40, 0, 4191.282, 4201.538, 4111.795, 4152.308, 4147.179, 0, 0, []
1631429701.2333, 41, 0, 4176.41, 4198.462, 4102.564, 4141.026, 4141.026, 0, 0, []
1631429701.2412, 42, 0, 4173.333, 4199.487, 4076.41, 4132.821, 4136.41, 0, 0, []
1631429701.2492, 43, 0, 4177.949, 4188.205, 4107.692, 4131.795, 4125.641, 0, 0, []
1631429701.2571, 44, 0, 4177.949, 4183.59, 4075.897, 4136.923, 4129.231, 0, 0, []
1631429701.265, 45, 0, 4182.051, 4201.026, 4095.385, 4145.128, 4143.077, 0, 0, []
1631429701.2729, 46, 0, 4188.205, 4210.769, 4105.128, 4147.179, 4141.538, 0, 0, []
1631429701.2809, 47, 0, 4185.641, 4199.487, 4076.923, 4150.769, 4140.513, 0, 0, []
1631429701.2888, 48, 0, 4184.615, 4197.436, 4114.872, 4158.974, 4149.744, 0, 0, []
1631429701.2968, 49, 0, 4188.205, 4208.205, 4093.846, 4155.385, 4141.538, 0, 0, []
1631429701.3047, 50, 0, 4181.538, 4199.487, 4105.641, 4148.718, 4132.821, 0, 0, []
1631429701.3124, 51, 0, 4170.256, 4178.462, 4117.436, 4146.667, 4142.564, 0, 0, []
1631429701.3203, 52, 0, 4175.385, 4175.897, 4083.59, 4140, 4140.513, 0, 0, []
1631429701.3281, 53, 0, 4186.667, 4189.231, 4113.333, 4142.564, 4132.821, 0, 0, []
1631429701.336, 54, 0, 4174.872, 4192.821, 4081.538, 4145.128, 4140, 0, 0, []
1631429701.3438, 55, 0, 4156.41, 4176.41, 4075.897, 4129.744, 4131.795, 0, 0, []
1631429701.3516, 56, 0, 4166.667, 4170.256, 4098.974, 4125.128, 4120.513, 0, 0, []
1631429701.3594, 57, 0, 4176.923, 4174.359, 4067.179, 4140, 4129.231, 0, 0, []
1631429701.3673, 58, 0, 4154.872, 4160, 4089.231, 4128.718, 4126.667, 0, 0, []
1631429701.3751, 59, 0, 4143.59, 4154.359, 4071.282, 4101.026, 4108.205, 0, 0, []
1631429701.3831, 60, 0, 4162.564, 4169.231, 4079.487, 4105.641, 4101.026, 0, 0, []
1631429701.3909, 61, 0, 4166.667, 4177.949, 4104.615, 4117.949, 4104.615, 0, 0, []
1631429701.3989, 62, 0, 4152.821, 4173.846, 4063.59, 4116.923, 4113.333, 0, 0, []
1631429701.4068, 63, 0, 4164.615, 4178.974, 4096.923, 4126.154, 4125.128, 0, 0, []
1631429701.4148, 64, 0, 4181.026, 4186.667, 4094.359, 4130.256, 4126.154, 450, 0, []
1631429701.4227, 65, 0, 4165.128, 4172.821, 4081.026, 4116.41, 4121.538, 450, 0, []
1631429701.4306, 66, 0, 4150.256, 4165.641, 4099.487, 4110.769, 4122.564, 16188, 0, []
1631429701.4385, 67, 0, 4161.026, 4181.538, 4069.231, 4116.41, 4113.846, 450, 0, []
1631429701.4465, 68, 0, 4166.154, 4186.667, 4100, 4121.538, 4105.641, 16157, 0, []
1631429701.4544, 69, 0, 4151.795, 4174.872, 4088.205, 4123.59, 4108.205, 450, 0, []
1631429701.4623, 70, 0, 4143.077, 4171.282, 4068.205, 4121.538, 4108.718, 196, 0, []
1631429701.4701, 71, 0, 4154.359, 4176.41, 4097.949, 4119.487, 4109.744, 450, 0, []
1631429701.4779, 72, 0, 4161.026, 4174.872, 4063.077, 4114.872, 4120, 450, 0, []
1631429701.4859, 73, 0, 4147.179, 4168.205, 4089.231, 4103.077, 4122.051, 16161, 0, []
1631429701.4938, 74, 0, 4143.077, 4169.231, 4092.308, 4095.897, 4112.308, 450, 0, []
1631429701.5017, 75, 0, 4161.026, 4177.436, 4069.744, 4111.282, 4107.179, 16203, 0, []
1631429701.5094, 76, 0, 4166.667, 4175.897, 4107.692, 4126.154, 4114.872, 450, 0, []
1631429701.5173, 77, 0, 4157.436, 4176.923, 4082.051, 4120.513, 4122.564, 450, 0, []
1631429701.5251, 78, 0, 4164.103, 4186.154, 4098.462, 4123.077, 4120, 450, 0, []
1631429701.5331, 79, 0, 4179.487, 4178.974, 4106.667, 4129.744, 4126.154, 16203, 0, []
1631429701.541, 80, 0, 4178.462, 4168.205, 4086.154, 4124.103, 4142.564, 450, 0, []
1631429701.549, 81, 0, 4175.385, 4184.615, 4119.487, 4127.179, 4145.641, 450, 0, []
1631429701.5568, 82, 0, 4181.026, 4200, 4080, 4145.128, 4138.974, 450, 0, []
1631429701.5648, 83, 0, 4177.949, 4179.487, 4082.564, 4150.769, 4140.513, 16203, 0, []
1631429701.5727, 84, 0, 4161.538, 4162.051, 4105.641, 4134.872, 4133.846, 450, 0, []
1631429701.5807, 85, 0, 4148.205, 4170.256, 4078.462, 4117.949, 4109.744, 450, 0, []
1631429701.5886, 86, 0, 4146.154, 4166.667, 4094.359, 4111.795, 4105.128, 450, 0, []
1631429701.5965, 87, 0, 4156.923, 4148.205, 4067.692, 4104.615, 4127.692, 16203, 0, []
1631429701.6044, 88, 0, 4172.308, 4160.513, 4088.718, 4104.615, 4145.128, 450, 0, []
1631429701.6122, 89, 0, 4181.538, 4188.205, 4114.359, 4128.205, 4147.179, 450, 0, []
1631429701.6201, 90, 0, 4180, 4183.59, 4072.821, 4150.256, 4152.308, 450, 0, []
1631429701.6279, 91, 0, 4177.949, 4171.795, 4094.872, 4153.846, 4156.41, 16203, 0, []
1631429701.6357, 92, 0, 4177.436, 4184.103, 4082.051, 4152.308, 4146.154, 450, 0, []
1631429701.6435, 93, 0, 4163.59, 4189.231, 4098.462, 4148.205, 4132.308, 450, 0, []
1631429701.6514, 94, 0, 4141.538, 4177.436, 4126.154, 4130.256, 4126.667, 450, 0, []
1631429701.6592, 95, 0, 4133.846, 4171.795, 4073.333, 4108.718, 4118.974, 16203, 0, []
1631429701.6671, 96, 0, 4149.231, 4169.744, 4098.974, 4110.769, 4114.872, 450, 0, []
1631429701.6748, 97, 0, 4164.615, 4175.897, 4097.949, 4132.821, 4130.769, 450, 0, []
1631429701.6828, 98, 0, 4148.205, 4175.385, 4081.026, 4131.282, 4132.308, 450, 0, []
1631429701.6907, 99, 0, 4128.718, 4163.077, 4090.256, 4111.795, 4103.59, 16203, 0, []
1631429701.6987, 100, 0, 4142.564, 4165.128, 4070.769, 4126.667, 4095.385, 450, 0, []
1631429701.7066, 101, 0, 4168.718, 4186.667, 4127.692, 4159.487, 4131.282, 450, 0, []
1631429701.7145, 102, 0, 4173.846, 4197.436, 4116.923, 4158.974, 4157.436, 450, 0, []
1631429701.7224, 103, 0, 4173.333, 4193.333, 4086.154, 4144.103, 4145.641, 16203, 0, []
1631429701.7304, 104, 0, 4182.051, 4194.359, 4118.974, 4149.744, 4144.103, 450, 0, []
1631429701.7383, 105, 0, 4178.462, 4189.231, 4085.641, 4152.308, 4160.513, 450, 0, []
1631429701.7463, 106, 0, 4170.256, 4180, 4097.436, 4144.103, 4161.538, 450, 0, []
1631429701.7541, 107, 0, 4169.744, 4175.897, 4092.821, 4138.974, 4147.692, 16203, 0, []
1631429701.7619, 108, 0, 4166.154, 4169.744, 4076.923, 4128.718, 4144.103, 450, 0, []
1631429701.7698, 109, 0, 4162.051, 4170.256, 4107.179, 4114.359, 4145.641, 450, 0, []
1631429701.7776, 110, 0, 4176.41, 4171.795, 4074.359, 4114.872, 4145.128, 450, 0, []
1631429701.7855, 111, 0, 4201.538, 4165.641, 4094.359, 4127.692, 4163.077, 16203, 0, []
1631429701.7933, 112, 0, 4226.667, 4164.615, 4088.718, 4122.564, 4198.462, 450, 0, []
1631429701.8011, 113, 0, 4277.949, 4179.487, 4065.641, 4124.615, 4248.205, 450, 0, []
1631429701.8089, 114, 0, 4369.231, 4186.154, 4125.128, 4154.359, 4321.026, 450, 0, []
1631429701.8168, 115, 0, 4440.513, 4178.462, 4097.949, 4162.564, 4387.692, 16203, 0, []
1631429701.8246, 116, 0, 4457.436, 4178.974, 4091.795, 4145.128, 4409.744, 450, 0, []
1631429701.8325, 117, 0, 4456.923, 4185.128, 4111.282, 4140.513, 4403.59, 450, 0, []
1631429701.8402, 118, 0, 4440, 4167.179, 4081.538, 4132.308, 4380, 450, 0, []
1631429701.8482, 119, 0, 4402.051, 4144.615, 4087.692, 4118.462, 4348.718, 16203, 0, []
1631429701.8561, 120, 0, 4378.462, 4154.359, 4061.026, 4123.59, 4329.231, 450, 0, []
1631429701.8641, 121, 0, 4349.231, 4151.795, 4078.974, 4122.051, 4299.487, 450, 0, []
1631429701.872, 122, 0, 4303.077, 4131.282, 4089.231, 4109.744, 4264.615, 450, 0, []
1631429701.8799, 123, 0, 4285.128, 4133.333, 4062.051, 4117.949, 4258.462, 16203, 0, []
1631429701.8878, 124, 0, 4286.154, 4132.308, 4107.179, 4123.077, 4256.41, 450, 0, []
1631429701.8958, 125, 0, 4268.205, 4121.538, 4076.923, 4108.205, 4231.282, 450, 0, []
1631429701.9037, 126, 0, 4240.513, 4123.59, 4065.128, 4115.385, 4208.205, 450, 0, []
1631429701.9115, 127, 0, 4220.513, 4130.769, 4097.436, 4136.41, 4196.923, 16203, 0, []
