Timestamp, COUNTER, INTERPOLATED, AF3, T7, Pz, T8, AF4, RAW_CQ, MARKER_HARDWARE, MARKERS
1632652054.7989, 110, 0, 4316.923, 4381.538, 4180, 4333.846, 4314.359, 450, 0, []
1632652054.8069, 111, 0, 4314.872, 4426.667, 4207.692, 4298.462, 4313.333, 16195, 0, []
1632652054.8147, 112, 0, 4305.128, 4484.103, 4203.077, 4280, 4292.308, 450, 0, []
1632652054.8227, 113, 0, 4282.564, 4478.974, 4139.487, 4288.718, 4275.897, 450, 0, []
1632652054.8306, 114, 0, 4289.231, 4577.949, 4194.872, 4298.974, 4291.282, 450, 0, []
1632652054.8386, 115, 0, 4308.718, 4772.308, 4160, 4311.795, 4304.615, 16195, 0, []
1632652054.8465, 116, 0, 4292.308, 4824.103, 4162.051, 4320.513, 4292.308, 450, 0, []
1632652054.8544, 117, 0, 4300.513, 4860, 4211.282, 4337.949, 4298.974, 450, 0, []
1632652054.8623, 118, 0, 4337.949, 4988.718, 4185.641, 4357.949, 4330.769, 450, 0, []
1632652054.8703, 119, 0, 4327.179, 5010.256, 4208.205, 4336.923, 4323.59, 16195, 0, []
1632652054.8782, 120, 0, 4298.462, 5007.692, 4165.128, 4316.923, 4290.256, 450, 0, []
1632652054.886, 121, 0, 4302.051, 5111.795, 4185.641, 4335.385, 4288.205, 450, 0, []
1632652054.8938, 122, 0, 4333.846, 5125.128, 4238.462, 4364.103, 4326.154, 450, 0, []
1632652054.9018, 123, 0, 4363.59, 5021.538, 4199.487, 4382.564, 4361.026, 16195, 0, []
1632652054.9097, 124, 0, 4358.974, 4949.744, 4229.231, 4371.795, 4352.821, 450, 0, []
1632652054.9175, 125, 0, 4318.974, 4894.359, 4178.462, 4332.821, 4321.026, 450, 0, []
1632652054.9254, 126, 0, 4288.718, 4823.077, 4173.846, 4314.359, 4301.026, 450, 0, []
1632652054.9331, 127, 0, 4295.897, 4716.923, 4230.256, 4335.897, 4302.051, 16195, 0, []
1632652054.941, 128, 0, 4278.462, 4550.769, 4152.821, 4330.769, 4283.077, 450, 0, []
1632652054.9488, 0, 0, 4236.923, 4456.923, 4156.923, 4300.513, 4246.154, 450, 0, []
1632652054.9568, 1, 0, 4254.872, 4527.179, 4160.513, 4302.564, 4254.359, 450, 0, []
1632652054.9647, 2, 0, 4281.538, 4600.513, 4146.154, 4310.769, 4271.282, 16159, 0, []
1632652054.9726, 3, 0, 4247.179, 4602.564, 4176.41, 4296.923, 4243.59, 450, 0, []
1632652054.9805, 4, 0, 4247.179, 4638.462, 4176.923, 4308.718, 4235.897, 16088, 0, []
1632652054.9885, 5, 0, 4294.872, 4746.154, 4252.821, 4349.744, 4281.538, 450, 0, []
1632652054.9964, 6, 0, 4286.154, 4817.436, 4235.897, 4362.564, 4292.821, 178, 0, []
1632652055.0044, 7, 0, 4266.667, 4784.615, 4216.41, 4369.744, 4272.308, 450, 0, []
1632652055.0122, 8, 0, 4309.231, 4722.564, 4284.615, 4393.846, 4310.769, 450, 0, []
1632652055.0202, 9, 0, 4339.487, 4729.231, 4221.538, 4374.872, 4345.641, 16151, 0, []
1632652055.0281, 10, 0, 4343.59, 4875.897, 4225.641, 4355.385, 4340, 450, 0, []
1632652055.0361, 11, 0, 4414.359, 5080.513, 4285.641, 4425.641, 4400.513, 16198, 0, []
1632652055.044, 12, 0, 4510.256, 5231.795, 4315.897, 4521.026, 4503.59, 450, 0, []
1632652055.0518, 13, 0, 4521.538, 5368.205, 4358.462, 4542.051, 4517.949, 450, 0, []
1632652055.0596, 14, 0, 4468.205, 5435.385, 4304.615, 4517.436, 4462.564, 450, 0, []
1632652055.0674, 15, 0, 4435.385, 5354.872, 4310.769, 4511.795, 4431.795, 16198, 0, []
1632652055.0753, 16, 0, 4433.846, 5296.41, 4304.615, 4503.077, 4422.051, 0, 0, []
1632652055.0831, 17, 0, 4426.667, 5350.769, 4247.692, 4482.564, 4416.923, 0, 0, []
1632652055.091, 18, 0, 4450.256, 5375.385, 4301.538, 4501.026, 4440.513, 0, 0, []
1632652055.0987, 19, 0, 4508.718, 5362.564, 4312.308, 4541.538, 4486.667, 0, 0, []
1632652055.1066, 20, 0, 4536.41, 5316.41, 4340, 4562.051, 4513.846, 0, 0, []
1632652055.1144, 21, 0, 4510.256, 5309.231, 4354.359, 4548.205, 4491.282, 0, 0, []
1632652055.1224, 22, 0, 4481.538, 5476.923, 4297.436, 4513.846, 4469.231, 0, 0, []
1632652055.1303, 23, 0, 4504.615, 5698.974, 4340, 4522.051, 4500, 0, 0, []
1632652055.1382, 24, 0, 4529.744, 5843.59, 4352.821, 4568.205, 4525.641, 0, 0, []
1632652055.1461, 25, 0, 4508.718, 5883.077, 4354.872, 4571.282, 4509.744, 0, 0, []
1632652055.1541, 26, 0, 4497.949, 5944.615, 4355.385, 4551.795, 4511.795, 0, 0, []
1632652055.162, 27, 0, 4528.205, 6192.308, 4320, 4573.846, 4518.462, 0, 0, []
1632652055.17, 28, 0, 4532.821, 6225.128, 4354.872, 4578.462, 4493.333, 0, 0, []
1632652055.1778, 29, 0, 4491.795, 5671.282, 4307.179, 4531.795, 4471.795, 0, 0, []
1632652055.1858, 30, 0, 4469.744, 5091.282, 4285.641, 4494.872, 4462.051, 0, 0, []
1632652055.1937, 31, 0, 4470.769, 4952.821, 4322.564, 4482.564, 4445.128, 0, 0, []
1632652055.2015, 32, 0, 4459.487, 5043.077, 4285.641, 4480, 4434.359, 0, 0, []
1632652055.2094, 33, 0, 4450.769, 5102.564, 4326.667, 4482.564, 4426.154, 0, 0, []
1632652055.2171, 34, 0, 4451.282, 5035.897, 4315.385, 4472.308, 4416.41, 0, 0, []
1632652055.225, 35, 0, 4440, 4984.103, 4287.692, 4461.538, 4410.256, 0, 0, []
1632652055.2328, 36, 0, 4420, 5057.436, 4305.641, 4462.564, 4395.897, 0, 0, []
1632652055.2407, 37, 0, 4406.667, 5021.538, 4243.59, 4461.026, 4382.051, 0, 0, []
1632652055.2485, 38, 0, 4382.051, 4798.462, 4264.103, 4431.282, 4354.872, 0, 0, []
1632652055.2563, 39, 0, 4350.769, 4676.41, 4247.179, 4377.949, 4317.436, 0, 0, []
1632652055.2641, 40, 0, 4331.795, 4713.846, 4196.41, 4345.128, 4298.462, 0, 0, []
1632652055.2721, 41, 0, 4317.436, 4728.205, 4231.795, 4345.641, 4282.051, 0, 0, []
1632652055.28, 42, 0, 4307.179, 4699.487, 4202.051, 4353.846, 4264.103, 0, 0, []
1632652055.288, 43, 0, 4305.641, 4751.795, 4224.615, 4352.308, 4261.538, 0, 0, []
1632652055.2958, 44, 0, 4312.821, 4904.615, 4235.897, 4352.308, 4284.615, 0, 0, []
1632652055.3038, 45, 0, 4322.564, 5040.513, 4211.795, 4361.026, 4301.538, 0, 0, []
1632652055.3117, 46, 0, 4331.795, 5245.641, 4254.872, 4369.231, 4288.718, 0, 0, []
1632652055.3197, 47, 0, 4337.436, 5566.667, 4223.59, 4373.846, 4286.667, 0, 0, []
1632652055.3276, 48, 0, 4342.051, 5746.667, 4242.051, 4371.282, 4295.897, 0, 0, []
1632652055.3356, 49, 0, 4344.615, 5733.333, 4253.846, 4360.513, 4290.769, 0, 0, []
1632652055.3434, 50, 0, 4333.333, 5742.564, 4209.744, 4351.795, 4272.308, 0, 0, []
1632652055.3512, 51, 0, 4336.923, 5697.436, 4258.974, 4370.256, 4274.872, 0, 0, []
1632652055.3591, 52, 0, 4336.923, 5425.641, 4226.154, 4377.436, 4290.769, 0, 0, []
1632652055.3669, 53, 0, 4309.744, 5072.308, 4201.538, 4342.564, 4266.667, 0, 0, []
1632652055.3748, 54, 0, 4304.615, 4851.282, 4229.744, 4337.436, 4256.41, 0, 0, []
1632652055.3825, 55, 0, 4328.205, 4720.513, 4229.231, 4366.154, 4288.205, 0, 0, []
1632652055.3904, 56, 0, 4341.538, 4599.487, 4276.41, 4362.051, 4298.974, 0, 0, []
1632652055.3982, 57, 0, 4341.026, 4501.538, 4237.436, 4336.41, 4298.462, 0, 0, []
1632652055.4061, 58, 0, 4341.538, 4432.308, 4227.179, 4344.615, 4306.667, 0, 0, []
1632652055.4139, 59, 0, 4344.103, 4374.359, 4260.513, 4370.256, 4298.974, 0, 0, []
1632652055.4218, 60, 0, 4339.487, 4306.154, 4222.564, 4368.205, 4292.821, 0, 0, []
1632652055.4297, 61, 0, 4325.128, 4275.385, 4253.333, 4342.051, 4296.41, 0, 0, []
1632652055.4377, 62, 0, 4305.128, 4275.385, 4225.641, 4327.692, 4275.897, 0, 0, []
1632652055.4456, 63, 0, 4292.821, 4219.487, 4199.487, 4328.718, 4264.615, 0, 0, []
1632652055.4536, 64, 0, 4312.821, 4178.462, 4233.846, 4328.718, 4294.872, 450, 0, []
1632652055.4614, 65, 0, 4342.051, 4185.128, 4200, 4346.667, 4306.667, 450, 0, []
1632652055.4694, 66, 0, 4335.897, 4162.051, 4249.231, 4362.051, 4294.359, 16171, 0, []
1632652055.4773, 67, 0, 4322.051, 4127.692, 4261.026, 4346.667, 4296.923, 450, 0, []
1632652055.4853, 68, 0, 4320.513, 4123.59, 4222.564, 4337.436, 4280.513, 16105, 0, []
1632652055.4932, 69, 0, 4311.282, 4107.692, 4238.974, 4338.462, 4269.744, 450, 0, []
1632652055.5011, 70, 0, 4296.41, 4081.538, 4205.128, 4329.231, 4273.846, 182, 0, []
1632652055.509, 71, 0, 4290.769, 4062.564, 4233.333, 4329.744, 4246.667, 450, 0, []
1632652055.5168, 72, 0, 4293.846, 4034.359, 4233.846, 4333.333, 4247.692, 450, 0, []
1632652055.5247, 73, 0, 4310.256, 4016.923, 4205.128, 4322.051, 4295.385, 16147, 0, []
1632652055.5325, 74, 0, 4341.026, 4009.744, 4252.308, 4326.667, 4317.949, 450, 0, []
1632652055.5404, 75, 0, 4370.256, 3990.769, 4227.692, 4340, 4339.487, 16197, 0, []
1632652055.5481, 76, 0, 4398.974, 3979.487, 4237.949, 4333.333, 4389.231, 450, 0, []
1632652055.556, 77, 0, 4398.974, 3983.077, 4243.077, 4318.974, 4395.385, 450, 0, []
1632652055.5638, 78, 0, 4363.59, 3969.231, 4201.026, 4314.359, 4354.872, 450, 0, []
1632652055.5718, 79, 0, 4354.872, 3945.641, 4233.333, 4320.513, 4338.974, 16197, 0, []
1632652055.5797, 80, 0, 4353.333, 3938.462, 4210.256, 4334.359, 4330.256, 450, 0, []
1632652055.5876, 81, 0, 4311.795, 3915.385, 4218.974, 4326.154, 4298.974, 450, 0, []
1632652055.5955, 82, 0, 4278.462, 3886.667, 4224.103, 4290.256, 4267.179, 450, 0, []
1632652055.6035, 83, 0, 4281.538, 3891.795, 4176.923, 4273.333, 4244.615, 16197, 0, []
1632652055.6114, 84, 0, 4274.872, 3908.718, 4218.462, 4280, 4243.077, 450, 0, []
1632652055.6194, 85, 0, 4255.385, 3894.872, 4195.385, 4271.795, 4246.667, 450, 0, []
1632652055.6272, 86, 0, 4250.769, 3865.128, 4196.923, 4262.051, 4221.026, 450, 0, []
1632652055.6352, 87, 0, 4249.744, 3860.513, 4220.513, 4269.231, 4193.846, 16197, 0, []
1632652055.6431, 88, 0, 4225.128, 3867.179, 4162.051, 4253.333, 4190.769, 450, 0, []
1632652055.651, 89, 0, 4204.615, 3866.667, 4192.821, 4221.538, 4189.744, 450, 0, []
1632652055.6589, 90, 0, 4236.41, 3887.692, 4203.077, 4234.359, 4193.846, 450, 0, []
1632652055.6666, 91, 0, 4272.308, 3924.615, 4213.846, 4277.436, 4210.256, 16197, 0, []
1632652055.6745, 92, 0, 4255.385, 3948.205, 4224.615, 4286.154, 4222.051, 450, 0, []
1632652055.6823, 93, 0, 4236.923, 4031.795, 4174.359, 4277.436, 4219.487, 450, 0, []
1632652055.6902, 94, 0, 4261.538, 4152.821, 4221.538, 4298.974, 4216.41, 450, 0, []
1632652055.698, 95, 0, 4287.179, 4152.821, 4219.487, 4321.026, 4240.513, 16197, 0, []
1632652055.7058, 96, 0, 4265.128, 4122.564, 4197.436, 4298.974, 4253.846, 450, 0, []
1632652055.7136, 97, 0, 4244.615, 4253.333, 4213.333, 4263.077, 4228.718, 450, 0, []
1632652055.7215, 98, 0, 4242.564, 4442.051, 4166.154, 4256.923, 4206.154, 450, 0, []
1632652055.7293, 99, 0, 4236.923, 4514.359, 4203.077, 4270.769, 4213.333, 16197, 0, []
1632652055.7372, 100, 0, 4247.692, 4512.308, 4192.821, 4280, 4232.308, 450, 0, []
1632652055.7449, 101, 0, 4267.692, 4525.128, 4174.359, 4293.333, 4235.385, 450, 0, []
1632652055.7529, 102, 0, 4264.615, 4571.795, 4226.154, 4297.436, 4238.462, 450, 0, []
1632652055.7608, 103, 0, 4246.154, 4633.333, 4175.897, 4279.487, 4234.359, 16197, 0, []
1632652055.7688, 104, 0, 4248.205, 4665.128, 4200.513, 4275.385, 4212.308, 450, 0, []
1632652055.7767, 105, 0, 4246.667, 4627.692, 4221.538, 4283.077, 4211.282, 450, 0, []
1632652055.7846, 106, 0, 4228.718, 4537.436, 4187.692, 4268.205, 4227.692, 450, 0, []
1632652055.7925, 107, 0, 4233.333, 4512.308, 4216.41, 4255.897, 4219.487, 16197, 0, []
1632652055.8005, 108, 0, 4230.256, 4503.59, 4173.333, 4258.974, 4187.692, 450, 0, []
1632652055.8084, 109, 0, 4206.667, 4390.769, 4175.897, 4251.282, 4187.179, 450, 0, []
1632652055.8164, 110, 0, 4215.897, 4350.769, 4195.897, 4256.41, 4212.821, 450, 0, []
1632652055.8243, 111, 0, 4254.872, 4460.513, 4185.641, 4278.974, 4215.897, 16197, 0, []
1632652055.832, 112, 0, 4258.462, 4508.205, 4214.872, 4275.385, 4208.718, 450, 0, []
1632652055.8399, 113, 0, 4235.897, 4489.744, 4172.308, 4262.564, 4219.487, 450, 0, []
1632652055.8477, 114, 0, 4239.487, 4553.333, 4189.231, 4258.974, 4217.949, 450, 0, []
1632652055.8556, 115, 0, 4242.051, 4542.051, 4201.538, 4252.821, 4193.846, 16197, 0, []
1632652055.8634, 116, 0, 4225.128, 4484.103, 4156.923, 4251.795, 4196.41, 450, 0, []
1632652055.8712, 117, 0, 4230.256, 4684.615, 4204.103, 4257.436, 4215.897, 450, 0, []
1632652055.879, 118, 0, 4234.872, 5050.256, 4172.821, 4257.436, 4204.615, 450, 0, []
1632652055.887, 119, 0, 4216.41, 5299.487, 4158.462, 4252.308, 4191.282, 16197, 0, []
1632652055.8949, 120, 0, 4241.026, 5368.718, 4193.333, 4270.769, 4226.154, 450, 0, []
1632652055.9029, 121, 0, 4289.744, 5549.231, 4177.436, 4312.821, 4276.41, 450, 0, []
1632652055.9107, 122, 0, 4289.744, 5884.615, 4221.538, 4331.795, 4276.41, 450, 0, []
1632652055.9187, 123, 0, 4282.051, 5900, 4200.513, 4328.718, 4261.538, 16197, 0, []
1632652055.9266, 124, 0, 4297.436, 5781.538, 4199.487, 4332.821, 4270.769, 450, 0, []
1632652055.9346, 125, 0, 4309.744, 5941.538, 4234.872, 4342.564, 4284.103, 450, 0, []
1632652055.9425, 126, 0, 4310.256, 5956.41, 4192.821, 4332.821, 4287.179, 450, 0, []
1632652055.9504, 127, 0, 4300.513, 5474.359, 4226.667, 4310.256, 4274.359, 16197, 0, []
1632652055.9583, 128, 0, 4284.103, 4930.256, 4207.692, 4307.692, 4259.487, 450, 0, []
1632652055.9661, 0, 0, 4285.641, 4651.282, 4206.667, 4321.538, 4263.077, 450, 0, []
1632652055.974, 1, 0, 4306.667, 4588.205, 4250.769, 4317.436, 4278.462, 450, 0, []
1632652055.9818, 2, 0, 4307.692, 4595.897, 4186.667, 4311.282, 4275.897, 16159, 0, []
1632652055.9896, 3, 0, 4298.974, 4461.026, 4217.949, 4331.795, 4273.333, 450, 0, []
1632652055.9976, 4, 0, 4324.103, 4312.308, 4242.564, 4351.282, 4297.949, 16109, 0, []
1632652056.0055, 5, 0, 4339.487, 4264.615, 4221.538, 4343.59, 4298.974, 450, 0, []
1632652056.0133, 6, 0, 4306.154, 4186.154, 4240, 4320.513, 4273.333, 186, 0, []
1632652056.0212, 7, 0, 4275.897, 4142.564, 4189.231, 4286.667, 4250.769, 450, 0, []
1632652056.029, 8, 0, 4274.872, 4121.026, 4207.179, 4266.667, 4225.128, 450, 0, []
1632652056.0369, 9, 0, 4262.564, 4087.692, 4217.436, 4276.41, 4217.436, 16147, 0, []
1632652056.0448, 10, 0, 4238.974, 4149.231, 4192.821, 4281.026, 4234.359, 450, 0, []
1632652056.0528, 11, 0, 4248.205, 4263.59, 4228.205, 4274.872, 4240, 16203, 0, []
1632652056.0607, 12, 0, 4268.205, 4276.923, 4201.538, 4278.462, 4226.154, 450, 0, []
1632652056.0687, 13, 0, 4252.308, 4268.205, 4204.615, 4272.308, 4216.41, 450, 0, []
1632652056.0765, 14, 0, 4229.744, 4287.179, 4193.846, 4252.308, 4213.846, 450, 0, []
1632652056.0845, 15, 0, 4236.923, 4173.846, 4171.795, 4246.667, 4200, 16203, 0, []
1632652056.0924, 16, 0, 4253.846, 3974.872, 4217.949, 4264.103, 4193.333, 0, 0, []
1632652056.1004, 17, 0, 4249.744, 3914.872, 4178.974, 4277.436, 4216.923, 0, 0, []
1632652056.1083, 18, 0, 4245.128, 3958.974, 4197.436, 4266.667, 4240.513, 0, 0, []
1632652056.116, 19, 0, 4271.282, 3924.615, 4214.872, 4260.513, 4243.077, 0, 0, []
1632652056.1239, 20, 0, 4291.282, 3942.564, 4162.564, 4280, 4244.615, 0, 0, []
1632652056.1317, 21, 0, 4271.795, 4230.769, 4205.128, 4282.564, 4246.667, 0, 0, []
1632652056.1396, 22, 0, 4247.692, 4596.923, 4174.872, 4249.744, 4228.205, 0, 0, []
1632652056.1474, 23, 0, 4250.769, 4853.846, 4171.282, 4243.59, 4212.308, 0, 0, []
1632652056.1552, 24, 0, 4281.538, 5008.718, 4208.205, 4288.205, 4241.538, 0, 0, []
1632652056.163, 25, 0, 4316.923, 5045.641, 4186.154, 4325.128, 4283.077, 0, 0, []
1632652056.1709, 26, 0, 4329.231, 5252.821, 4236.923, 4324.615, 4297.436, 0, 0, []
1632652056.1787, 27, 0, 4326.667, 5636.41, 4212.821, 4315.897, 4304.615, 0, 0, []
1632652056.1866, 28, 0, 4327.179, 5535.385, 4206.154, 4319.487, 4308.718, 0, 0, []
1632652056.1943, 29, 0, 4321.026, 5061.026, 4232.308, 4324.615, 4293.333, 0, 0, []
1632652056.2022, 30, 0, 4313.333, 4874.872, 4193.333, 4330.769, 4271.795, 0, 0, []
1632652056.21, 31, 0, 4312.308, 4758.974, 4251.282, 4328.718, 4277.436, 0, 0, []
1632652056.218, 32, 0, 4304.615, 4502.051, 4242.051, 4321.026, 4287.692, 0, 0, []
1632652056.2259, 33, 0, 4305.128, 4560.513, 4214.872, 4333.333, 4278.462, 0, 0, []
1632652056.2337, 34, 0, 4320, 4763.59, 4257.436, 4341.026, 4286.154, 0, 0, []
1632652056.2415, 35, 0, 4322.564, 4672.821, 4225.128, 4324.615, 4308.205, 0, 0, []
1632652056.2495, 36, 0, 4319.487, 4464.103, 4252.821, 4333.846, 4301.026, 0, 0, []
1632652056.2574, 37, 0, 4329.231, 4286.154, 4261.538, 4362.051, 4287.179, 0, 0, []
1632652056.2654, 38, 0, 4342.564, 4265.128, 4244.103, 4361.538, 4297.436, 0, 0, []
1632652056.2733, 39, 0, 4356.923, 4551.282, 4267.179, 4355.385, 4323.077, 0, 0, []
1632652056.281, 40, 0, 4345.128, 4858.462, 4218.462, 4354.359, 4321.538, 0, 0, []
1632652056.2889, 41, 0, 4318.974, 4922.564, 4247.179, 4349.231, 4289.744, 0, 0, []
1632652056.2967, 42, 0, 4336.41, 4903.077, 4266.154, 4365.641, 4292.821, 0, 0, []
1632652056.3046, 43, 0, 4367.692, 4801.538, 4248.718, 4384.103, 4327.179, 0, 0, []
1632652056.3124, 44, 0, 4376.923, 4493.333, 4287.692, 4376.41, 4347.692, 0, 0, []
1632652056.3202, 45, 0, 4395.897, 4266.667, 4251.282, 4388.205, 4370.256, 0, 0, []
1632652056.328, 46, 0, 4416.41, 4211.282, 4285.128, 4424.615, 4392.821, 0, 0, []
1632652056.3359, 47, 0, 4410.256, 4137.436, 4304.615, 4429.744, 4381.538, 0, 0, []
1632652056.3437, 48, 0, 4405.641, 4065.128, 4261.538, 4422.051, 4362.564, 0, 0, []
1632652056.3517, 49, 0, 4414.872, 4031.282, 4293.846, 4413.333, 4370.769, 0, 0, []
1632652056.3595, 50, 0, 4410.256, 4013.846, 4249.231, 4390.769, 4377.436, 0, 0, []
1632652056.3675, 51, 0, 4375.385, 3983.077, 4247.692, 4371.795, 4342.564, 0, 0, []
1632652056.3754, 52, 0, 4338.974, 3923.077, 4245.641, 4361.026, 4303.59, 0, 0, []
1632652056.3834, 53, 0, 4332.308, 3880.513, 4204.103, 4348.205, 4298.462, 0, 0, []
1632652056.3913, 54, 0, 4341.026, 3872.821, 4265.128, 4352.821, 4296.923, 0, 0, []
1632652056.3992, 55, 0, 4327.179, 3843.59, 4215.385, 4355.385, 4292.821, 0, 0, []
1632652056.4071, 56, 0, 4299.487, 3795.897, 4190.256, 4319.487, 4282.564, 0, 0, []
1632652056.4151, 57, 0, 4316.41, 3776.41, 4236.41, 4310.769, 4277.949, 0, 0, []
1632652056.423, 58, 0, 4322.051, 3770.256, 4203.077, 4327.179, 4288.205, 0, 0, []
1632652056.431, 59, 0, 4284.615, 3773.333, 4228.718, 4296.41, 4276.923, 0, 0, []
1632652056.4388, 60, 0, 4293.333, 3778.974, 4201.538, 4261.026, 4258.974, 0, 0, []
1632652056.4466, 61, 0, 4340.513, 3754.872, 4176.41, 4261.538, 4274.872, 0, 0, []
1632652056.4545, 62, 0, 4365.128, 3717.436, 4201.538, 4255.897, 4310.256, 0, 0, []
1632652056.4623, 63, 0, 4386.154, 3692.821, 4174.872, 4226.154, 4327.692, 0, 0, []
1632652056.4702, 64, 0, 4420, 3694.872, 4198.462, 4200, 4355.385, 450, 0, []
1632652056.4779, 65, 0, 4427.179, 3731.282, 4169.231, 4182.051, 4373.333, 450, 0, []
1632652056.4858, 66, 0, 4404.615, 3740, 4155.897, 4168.205, 4331.282, 16193, 0, []
1632652056.4936, 67, 0, 4375.385, 3714.359, 4174.359, 4171.795, 4292.821, 450, 0, []
1632652056.5015, 68, 0, 4325.641, 3735.385, 4110.256, 4175.897, 4283.077, 16140, 0, []
1632652056.5093, 69, 0, 4281.026, 3756.923, 4138.462, 4163.077, 4244.103, 450, 0, []
1632652056.5172, 70, 0, 4260.513, 3881.538, 4135.897, 4155.897, 4194.359, 194, 0, []
1632652056.5249, 71, 0, 4228.205, 4213.333, 4118.462, 4153.846, 4172.821, 450, 0, []
1632652056.5329, 72, 0, 4188.718, 4409.744, 4150.769, 4130.256, 4158.974, 450, 0, []
1632652056.5408, 73, 0, 4175.385, 4378.462, 4097.436, 4090.769, 4127.692, 16154, 0, []
1632652056.5488, 74, 0, 4181.026, 4454.359, 4139.487, 4076.923, 4101.026, 450, 0, []
1632652056.5567, 75, 0, 4180, 4552.821, 4146.154, 4093.846, 4106.667, 16193, 0, []
1632652056.5646, 76, 0, 4156.923, 4436.41, 4107.692, 4089.231, 4116.41, 450, 0, []
1632652056.5725, 77, 0, 4131.282, 4235.385, 4154.872, 4055.385, 4102.051, 450, 0, []
1632652056.5805, 78, 0, 4116.923, 4067.179, 4100, 4038.974, 4072.308, 450, 0, []
1632652056.5884, 79, 0, 4111.282, 3918.462, 4108.205, 4057.436, 4050.769, 16193, 0, []
1632652056.5963, 80, 0, 4105.641, 3821.026, 4116.41, 4076.923, 4042.051, 450, 0, []
1632652056.6041, 81, 0, 4083.59, 3728.205, 4081.026, 4072.821, 4014.872, 450, 0, []
1632652056.6119, 82, 0, 4061.538, 3648.718, 4143.59, 4067.692, 3982.564, 450, 0, []
1632652056.6198, 83, 0, 4057.949, 3644.615, 4098.974, 4080, 3982.051, 16193, 0, []
1632652056.6276, 84, 0, 4064.615, 3646.154, 4093.333, 4090.256, 4003.077, 450, 0, []
1632652056.6355, 85, 0, 4064.615, 3618.462, 4121.538, 4089.231, 4017.436, 450, 0, []
1632652056.6432, 86, 0, 4054.872, 3592.308, 4074.359, 4085.128, 4013.846, 450, 0, []
1632652056.6511, 87, 0, 4047.692, 3587.179, 4111.282, 4080.513, 3998.462, 16193, 0, []
1632652056.6589, 88, 0, 4037.436, 3574.872, 4093.333, 4077.949, 3986.667, 450, 0, []
1632652056.6668, 89, 0, 4031.795, 3548.718, 4102.564, 4082.564, 3989.231, 450, 0, []
1632652056.6746, 90, 0, 4048.718, 3555.897, 4130.256, 4081.538, 4003.59, 450, 0, []
1632652056.6825, 91, 0, 4065.128, 3558.462, 4087.179, 4072.308, 4008.718, 16193, 0, []
1632652056.6904, 92, 0, 4051.282, 3534.872, 4125.641, 4066.154, 3995.385, 450, 0, []
1632652056.6984, 93, 0, 4019.487, 3525.641, 4084.103, 4055.897, 3974.872, 450, 0, []
1632652056.7063, 94, 0, 4008.205, 3522.051, 4071.282, 4045.128, 3962.051, 450, 0, []
1632652056.7143, 95, 0, 4017.436, 3516.923, 4105.641, 4046.154, 3954.359, 16193, 0, []
1632652056.7221, 96, 0, 3996.41, 3509.744, 4041.026, 4029.231, 3924.615, 450, 0, []
1632652056.7301, 97, 0, 3963.59, 3487.692, 4068.718, 4006.154, 3902.051, 450, 0, []
1632652056.738, 98, 0, 3963.59, 3478.974, 4055.385, 4008.205, 3918.462, 450, 0, []
1632652056.746, 99, 0, 3960.513, 3485.128, 4053.846, 4007.179, 3923.077, 16193, 0, []
1632652056.7539, 100, 0, 3945.128, 3470.256, 4088.205, 4004.103, 3912.308, 450, 0, []
1632652056.7617, 101, 0, 3952.308, 3462.051, 4032.821, 4008.205, 3926.154, 450, 0, []
1632652056.7695, 102, 0, 3953.846, 3470.769, 4084.103, 4011.795, 3936.923, 450, 0, []
1632652056.7773, 103, 0, 3935.897, 3474.359, 4064.615, 4014.872, 3925.128, 16193, 0, []
1632652056.7852, 104, 0, 3937.436, 3475.385, 4032.821, 4014.872, 3922.564, 450, 0, []
1632652056.793, 105, 0, 3961.026, 3479.487, 4102.051, 4020.513, 3931.282, 450, 0, []
1632652056.8009, 106, 0, 3975.897, 3482.564, 4056.923, 4033.333, 3934.359, 450, 0, []
1632652056.8086, 107, 0, 3992.308, 3491.795, 4082.564, 4050.256, 3942.564, 16193, 0, []
1632652056.8166, 108, 0, 4006.154, 3506.667, 4092.308, 4058.974, 3953.333, 450, 0, []
1632652056.8245, 109, 0, 4000.513, 3526.667, 4060.513, 4054.872, 3950.256, 450, 0, []
1632652056.8325, 110, 0, 4006.667, 3546.154, 4114.359, 4063.59, 3950.769, 450, 0, []
1632652056.8404, 111, 0, 4011.282, 3535.385, 4061.026, 4063.59, 3950.769, 16193, 0, []
1632652056.8483, 112, 0, 3974.359, 3514.359, 4048.205, 4024.103, 3925.128, 450, 0, []
1632652056.8562, 113, 0, 3941.026, 3525.128, 4045.128, 3987.692, 3902.051, 450, 0, []
1632652056.8642, 114, 0, 3953.333, 3537.949, 4016.41, 3994.872, 3916.923, 450, 0, []
1632652056.8721, 115, 0, 3991.795, 3549.744, 4096.923, 4024.103, 3965.641, 16193, 0, []
1632652056.8801, 116, 0, 4020.513, 3591.795, 4088.718, 4046.154, 4004.103, 450, 0, []
1632652056.8879, 117, 0, 4031.795, 3618.462, 4096.41, 4062.564, 4007.179, 450, 0, []
1632652056.8958, 118, 0, 4008.718, 3569.744, 4090.769, 4045.641, 3975.897, 450, 0, []
1632652056.9037, 119, 0, 3946.667, 3505.128, 4006.154, 3988.205, 3915.385, 16193, 0, []
1632652056.9116, 120, 0, 3910.769, 3518.974, 4035.385, 3973.333, 3883.59, 450, 0, []
1632652056.9195, 121, 0, 3935.385, 3581.026, 4028.718, 4021.026, 3918.462, 450, 0, []
1632652056.9272, 122, 0, 3962.564, 3588.718, 4045.128, 4045.641, 3947.179, 450, 0, []
1632652056.9351, 123, 0, 3939.487, 3534.872, 4043.59, 4004.103, 3914.359, 16193, 0, []
1632652056.9429, 124, 0, 3895.385, 3516.41, 3963.59, 3953.333, 3867.179, 450, 0, []
1632652056.9508, 125, 0, 3901.026, 3554.359, 4015.897, 3950.256, 3856.41, 450, 0, []
1632652056.9586, 126, 0, 3916.41, 3572.821, 4000.513, 3956.41, 3855.385, 450, 0, []
1632652056.9664, 127, 0, 3883.59, 3666.667, 3984.103, 3937.949, 3841.026, 16193, 0, []
1632652056.9742, 128, 0, 3892.308, 4018.462, 4026.667, 3961.026, 3872.308, 450, 0, []
1632652056.9822, 0, 0, 3981.538, 4485.128, 4039.487, 4038.974, 3955.897, 450, 0, []
1632652056.9901, 1, 0, 4029.231, 4756.41, 4122.564, 4081.026, 3998.974, 450, 0, []
1632652056.9981, 2, 0, 4021.026, 4820, 4070.256, 4077.436, 3991.795, 16220, 0, []
1632652057.006, 3, 0, 4061.026, 4866.667, 4067.692, 4106.667, 4012.308, 450, 0, []
1632652057.0139, 4, 0, 4128.205, 4954.872, 4160.513, 4169.231, 4078.974, 16172, 0, []
1632652057.0218, 5, 0, 4142.051, 5020, 4109.744, 4193.333, 4121.538, 450, 0, []
1632652057.0298, 6, 0, 4133.846, 5010.256, 4150.769, 4187.179, 4114.872, 226, 0, []
1632652057.0377, 7, 0, 4160.513, 5025.128, 4166.667, 4196.41, 4120.513, 450, 0, []
1632652057.0457, 8, 0, 4198.462, 5120, 4148.205, 4223.59, 4155.897, 450, 0, []
1632652057.0535, 9, 0, 4199.487, 4987.692, 4186.667, 4228.718, 4167.692, 16120, 0, []
1632652057.0613, 10, 0, 4162.051, 4530.256, 4123.59, 4188.718, 4126.154, 450, 0, []
1632652057.0692, 11, 0, 4149.744, 4178.462, 4140, 4169.744, 4091.795, 16202, 0, []
1632652057.077, 12, 0, 4160, 4109.744, 4138.974, 4188.205, 4102.051, 450, 0, []
1632652057.0849, 13, 0, 4136.923, 4047.179, 4101.026, 4189.744, 4104.103, 450, 0, []
1632652057.0926, 14, 0, 4130.769, 3939.487, 4148.205, 4191.795, 4107.692, 450, 0, []
1632652057.1005, 15, 0, 4158.974, 3920.513, 4125.128, 4202.564, 4127.692, 16202, 0, []
1632652057.1083, 16, 0, 4158.974, 3933.333, 4155.385, 4192.308, 4118.462, 0, 0, []
1632652057.1162, 17, 0, 4157.949, 3933.333, 4156.41, 4189.231, 4110.769, 0, 0, []
1632652057.124, 18, 0, 4188.718, 3928.718, 4133.846, 4224.103, 4146.154, 0, 0, []
1632652057.1319, 19, 0, 4207.179, 3913.333, 4188.205, 4243.59, 4178.462, 0, 0, []
1632652057.1398, 20, 0, 4185.641, 3891.795, 4120, 4216.41, 4164.615, 0, 0, []
1632652057.1478, 21, 0, 4158.462, 3852.821, 4131.282, 4197.949, 4126.154, 0, 0, []
1632652057.1557, 22, 0, 4151.282, 3812.308, 4159.487, 4217.436, 4103.59, 0, 0, []
1632652057.1637, 23, 0, 4146.154, 3797.436, 4108.205, 4224.103, 4098.462, 0, 0, []
1632652057.1715, 24, 0, 4113.333, 3780, 4134.872, 4180.513, 4076.923, 0, 0, []
1632652057.1795, 25, 0, 4064.615, 3743.077, 4068.205, 4115.897, 4034.872, 0, 0, []
1632652057.1874, 26, 0, 4039.487, 3724.615, 4060, 4082.564, 4010.256, 0, 0, []
1632652057.1954, 27, 0, 4037.436, 3738.974, 4083.077, 4076.41, 4009.744, 0, 0, []
1632652057.2033, 28, 0, 4033.846, 3737.949, 4045.128, 4078.462, 4007.179, 0, 0, []
1632652057.211, 29, 0, 4037.436, 3717.949, 4106.154, 4097.949, 4009.744, 0, 0, []
1632652057.2189, 30, 0, 4054.872, 3724.615, 4074.359, 4113.846, 4015.385, 0, 0, []
1632652057.2267, 31, 0, 4067.692, 3754.872, 4081.026, 4113.846, 4018.974, 0, 0, []
1632652057.2346, 32, 0, 4074.359, 3760, 4117.436, 4114.872, 4024.103, 0, 0, []
1632652057.2424, 33, 0, 4075.385, 3751.795, 4058.462, 4118.462, 4014.359, 0, 0, []
1632652057.2503, 34, 0, 4077.949, 3753.846, 4108.718, 4122.051, 4004.103, 0, 0, []
1632652057.258, 35, 0, 4081.538, 3745.128, 4090.256, 4123.59, 4014.359, 0, 0, []
1632652057.2659, 36, 0, 4077.436, 3733.846, 4077.949, 4120.513, 4022.051, 0, 0, []
1632652057.2737, 37, 0, 4080, 3735.385, 4116.923, 4119.487, 4024.615, 0, 0, []
1632652057.2816, 38, 0, 4092.821, 3725.128, 4072.821, 4131.282, 4047.692, 0, 0, []
1632652057.2894, 39, 0, 4104.103, 3720.513, 4127.692, 4156.923, 4079.487, 0, 0, []
1632652057.2973, 40, 0, 4104.103, 3736.41, 4107.692, 4165.641, 4085.641, 0, 0, []
1632652057.3052, 41, 0, 4094.359, 3735.897, 4074.872, 4143.077, 4070.256, 0, 0, []
1632652057.3132, 42, 0, 4090.769, 3720, 4118.974, 4128.205, 4061.026, 0, 0, []
1632652057.3211, 43, 0, 4088.718, 3722.564, 4070.769, 4122.051, 4055.385, 0, 0, []
1632652057.3291, 44, 0, 4083.59, 3720.513, 4106.154, 4111.795, 4038.462, 0, 0, []
1632652057.3369, 45, 0, 4080, 3707.692, 4093.333, 4105.128, 4022.564, 0, 0, []
1632652057.3449, 46, 0, 4071.795, 3702.564, 4058.462, 4105.128, 4012.308, 0, 0, []
1632652057.3528, 47, 0, 4068.205, 3703.077, 4105.641, 4102.051, 4011.795, 0, 0, []
1632652057.3608, 48, 0, 4075.897, 3713.333, 4053.846, 4093.333, 4027.692, 0, 0, []
1632652057.3687, 49, 0, 4081.026, 3725.641, 4082.051, 4096.41, 4035.897, 0, 0, []
1632652057.3764, 50, 0, 4062.051, 3744.615, 4081.538, 4096.923, 4028.205, 0, 0, []
1632652057.3843, 51, 0, 4041.538, 3787.692, 4038.974, 4084.615, 4026.154, 0, 0, []
1632652057.3921, 52, 0, 4052.308, 3822.051, 4090.256, 4084.615, 4036.41, 0, 0, []
1632652057.4, 53, 0, 4060, 3840, 4042.564, 4095.385, 4040, 0, 0, []
1632652057.4078, 54, 0, 4050.769, 3868.718, 4069.231, 4098.462, 4029.744, 0, 0, []
1632652057.4156, 55, 0, 4041.538, 3890.769, 4082.564, 4082.564, 4017.949, 0, 0, []
1632652057.4234, 56, 0, 4028.205, 3878.974, 4040.513, 4075.897, 4013.333, 0, 0, []
1632652057.4313, 57, 0, 4025.128, 3898.974, 4109.231, 4089.744, 4025.641, 0, 0, []
1632652057.4391, 58, 0, 4034.872, 4006.667, 4063.077, 4089.231, 4036.923, 0, 0, []
1632652057.447, 59, 0, 4025.128, 4119.487, 4062.051, 4072.821, 4023.077, 0, 0, []
1632652057.4547, 60, 0, 3995.897, 4167.179, 4077.436, 4050.769, 3990.769, 0, 0, []
1632652057.4627, 61, 0, 3974.872, 4187.692, 4010.256, 4022.051, 3954.872, 0, 0, []
1632652057.4706, 62, 0, 3952.308, 4202.564, 4049.744, 3996.923, 3927.692, 0, 0, []
1632652057.4786, 63, 0, 3925.641, 4150.769, 4015.897, 3986.667, 3913.333, 0, 0, []
1632652057.4865, 64, 0, 3935.385, 4039.487, 4031.795, 4005.641, 3930.256, 450, 0, []
1632652057.4945, 65, 0, 3965.128, 3960.513, 4084.103, 4036.923, 3966.667, 450, 0, []
1632652057.5023, 66, 0, 3968.718, 3912.821, 4014.872, 4044.103, 3975.897, 16179, 0, []
1632652057.5103, 67, 0, 3966.154, 3836.41, 4052.821, 4035.897, 3966.154, 450, 0, []
1632652057.5182, 68, 0, 3964.103, 3752.821, 4037.436, 4029.231, 3961.538, 16127, 0, []
1632652057.526, 69, 0, 3947.179, 3729.231, 4007.692, 4012.821, 3943.077, 450, 0, []
1632652057.5339, 70, 0, 3951.795, 3735.897, 4058.974, 4001.026, 3931.282, 169, 0, []
1632652057.5416, 71, 0, 3971.795, 3724.615, 4016.923, 4005.128, 3943.59, 450, 0, []
1632652057.5495, 72, 0, 3958.462, 3715.897, 4033.846, 4001.026, 3931.282, 450, 0, []
1632652057.5573, 73, 0, 3936.923, 3711.795, 4012.308, 3988.205, 3903.59, 16179, 0, []
1632652057.5652, 74, 0, 3953.333, 3700, 3995.385, 4003.077, 3917.949, 450, 0, []
1632652057.573, 75, 0, 3985.641, 3701.538, 4067.179, 4028.205, 3948.205, 16212, 0, []
1632652057.5808, 76, 0, 3981.538, 3715.897, 4030.256, 4023.59, 3936.41, 450, 0, []
1632652057.5886, 77, 0, 3972.308, 3718.974, 4055.385, 4022.051, 3932.308, 450, 0, []
1632652057.5966, 78, 0, 4001.026, 3729.744, 4051.282, 4047.179, 3973.333, 450, 0, []
1632652057.6045, 79, 0, 4010.769, 3732.821, 4018.974, 4049.744, 3980.513, 16212, 0, []
1632652057.6125, 80, 0, 3985.128, 3706.667, 4052.821, 4026.667, 3948.205, 450, 0, []
1632652057.6203, 81, 0, 3974.359, 3700.513, 4001.538, 4019.487, 3944.615, 450, 0, []
1632652057.6283, 82, 0, 3962.564, 3707.179, 4040, 4013.333, 3947.179, 450, 0, []
1632652057.6362, 83, 0, 3923.077, 3679.487, 4007.692, 3974.872, 3913.846, 16212, 0, []
1632652057.6442, 84, 0, 3918.462, 3661.026, 3961.026, 3961.538, 3911.282, 450, 0, []
1632652057.6521, 85, 0, 3982.564, 3697.436, 4081.026, 4019.487, 3985.128, 450, 0, []
1632652057.66, 86, 0, 4020.513, 3724.103, 4051.795, 4059.487, 4032.308, 450, 0, []
1632652057.6679, 87, 0, 3998.974, 3708.718, 4038.462, 4047.179, 4003.077, 16212, 0, []
1632652057.6759, 88, 0, 3981.026, 3689.744, 4040.513, 4041.538, 3979.487, 450, 0, []
1632652057.6838, 89, 0, 3969.231, 3673.333, 4000.513, 4034.359, 3971.795, 450, 0, []
1632652057.6916, 90, 0, 3942.051, 3663.59, 4032.821, 4011.795, 3943.59, 450, 0, []
1632652057.6994, 91, 0, 3919.487, 3657.949, 3953.846, 4002.051, 3923.59, 16212, 0, []
1632652057.7072, 92, 0, 3928.205, 3644.103, 3983.59, 4002.564, 3930.256, 450, 0, []
1632652057.7151, 93, 0, 3957.436, 3644.615, 4028.718, 3995.385, 3947.692, 450, 0, []
1632652057.7229, 94, 0, 3981.026, 3664.615, 3982.051, 4007.179, 3966.667, 450, 0, []
1632652057.7308, 95, 0, 3994.359, 3677.949, 4055.897, 4034.872, 3981.026, 16212, 0, []
1632652057.7386, 96, 0, 4000.513, 3690.256, 4030.769, 4040.513, 3985.128, 450, 0, []
1632652057.7465, 97, 0, 4000, 3702.564, 4026.667, 4035.897, 3978.974, 450, 0, []
1632652057.7544, 98, 0, 3987.692, 3685.641, 4042.564, 4034.359, 3964.615, 450, 0, []
1632652057.7623, 99, 0, 3978.462, 3672.308, 3991.282, 4026.154, 3948.205, 16212, 0, []
1632652057.7701, 100, 0, 3988.718, 3694.359, 4035.385, 4021.538, 3947.692, 450, 0, []
1632652057.7781, 101, 0, 3996.923, 3718.974, 4012.821, 4023.077, 3949.231, 450, 0, []
1632652057.7859, 102, 0, 3992.308, 3720, 4026.667, 4016.41, 3944.615, 450, 0, []
1632652057.7939, 103, 0, 4008.205, 3733.333, 4046.667, 4010.769, 3964.615, 16212, 0, []
1632652057.8018, 104, 0, 4038.462, 3767.692, 4017.949, 4028.718, 3996.923, 450, 0, []
1632652057.8098, 105, 0, 4035.385, 3770.256, 4072.821, 4048.205, 3993.333, 450, 0, []
1632652057.8177, 106, 0, 4021.026, 3803.077, 4012.308, 4048.718, 3976.923, 450, 0, []
1632652057.8256, 107, 0, 4029.744, 3918.974, 4025.128, 4051.282, 3987.179, 16212, 0, []
1632652057.8335, 108, 0, 4038.462, 4002.051, 4082.564, 4058.462, 4001.538, 450, 0, []
1632652057.8413, 109, 0, 4030.256, 4035.897, 3994.359, 4054.359, 4000, 450, 0, []
1632652057.8492, 110, 0, 4021.538, 4132.821, 4044.103, 4050.256, 3987.692, 450, 0, []
1632652057.857, 111, 0, 4012.821, 4248.718, 4049.744, 4051.795, 3980, 16212, 0, []
1632652057.8648, 112, 0, 4002.564, 4479.487, 3995.385, 4048.205, 3984.103, 450, 0, []
1632652057.8726, 113, 0, 4004.615, 4851.795, 4030.769, 4041.026, 3990.769, 450, 0, []
1632652057.8805, 114, 0, 4004.103, 5006.154, 3993.333, 4031.795, 3998.462, 450, 0, []
1632652057.8883, 115, 0, 4004.615, 5094.872, 4021.026, 4048.718, 4015.897, 16212, 0, []
1632652057.8962, 116, 0, 4017.949, 5414.872, 4006.154, 4070.769, 4027.179, 450, 0, []
1632652057.9041, 117, 0, 4019.487, 5655.897, 3987.179, 4054.872, 4016.41, 450, 0, []
1632652057.9121, 118, 0, 4013.846, 5770.256, 4056.923, 4039.487, 4005.128, 450, 0, []
1632652057.92, 119, 0, 4013.846, 5793.846, 3976.923, 4045.641, 3996.41, 16212, 0, []
1632652057.928, 120, 0, 4020.513, 5387.179, 4011.795, 4057.436, 3992.308, 450, 0, []
1632652057.9359, 121, 0, 4028.718, 4792.821, 4072.821, 4069.744, 4008.205, 450, 0, []
1632652057.9438, 122, 0, 4029.231, 4614.872, 4001.538, 4077.436, 4027.692, 450, 0, []
1632652057.9517, 123, 0, 4041.026, 4679.487, 4074.359, 4092.308, 4048.718, 16212, 0, []
1632652057.9597, 124, 0, 4058.462, 4682.564, 4071.282, 4108.205, 4066.667, 450, 0, []
1632652057.9676, 125, 0, 4049.744, 4710.256, 4040, 4098.974, 4060.513, 450, 0, []
1632652057.9756, 126, 0, 4035.385, 4752.308, 4072.821, 4074.359, 4047.179, 450, 0, []
1632652057.9834, 127, 0, 4029.231, 4682.051, 4032.308, 4056.41, 4033.846, 16212, 0, []
1632652057.9912, 128, 0, 4024.103, 4455.897, 4054.359, 4046.154, 4017.949, 450, 0, []
1632652057.9991, 0, 0, 4024.103, 4235.385, 4029.744, 4038.974, 4008.718, 450, 0, []
1632652058.0069, 1, 0, 4040.513, 4145.128, 4041.026, 4051.282, 4015.385, 450, 0, []
1632652058.0148, 2, 0, 4066.667, 4089.231, 4080.513, 4082.051, 4036.41, 16217, 0, []
1632652058.0226, 3, 0, 4070.256, 4043.077, 4026.154, 4100, 4040.513, 450, 0, []
1632652058.0304, 4, 0, 4057.949, 4033.333, 4071.795, 4092.308, 4026.154, 16185, 0, []
1632652058.0382, 5, 0, 4052.308, 4011.282, 4034.359, 4072.308, 4024.615, 450, 0, []
1632652058.0461, 6, 0, 4057.949, 3978.462, 4020.513, 4070.256, 4036.41, 273, 0, []
1632652058.0539, 7, 0, 4062.051, 3970.769, 4073.846, 4081.538, 4047.179, 450, 0, []
1632652058.0619, 8, 0, 4050.256, 3952.308, 4007.179, 4074.872, 4043.59, 450, 0, []
1632652058.0697, 9, 0, 4045.641, 3911.795, 4044.615, 4071.795, 4040.513, 16161, 0, []
1632652058.0777, 10, 0, 4061.538, 3894.359, 4043.59, 4088.205, 4065.128, 450, 0, []
1632652058.0856, 11, 0, 4070.256, 3892.308, 4038.974, 4102.051, 4090.256, 16152, 0, []
1632652058.0936, 12, 0, 4061.026, 3866.667, 4082.051, 4094.359, 4080, 450, 0, []
1632652058.1015, 13, 0, 4043.59, 3841.026, 4013.333, 4065.128, 4049.744, 450, 0, []
1632652058.1094, 14, 0, 4037.949, 3842.564, 4049.744, 4053.846, 4041.026, 450, 0, []
1632652058.1173, 15, 0, 4045.641, 3835.897, 4034.359, 4064.615, 4046.154, 16152, 0, []
1632652058.1253, 16, 0, 4049.231, 3822.564, 4015.897, 4065.641, 4043.077, 0, 0, []
1632652058.1332, 17, 0, 4059.487, 3837.949, 4081.538, 4073.333, 4053.846, 0, 0, []
1632652058.141, 18, 0, 4072.308, 3848.718, 4013.846, 4095.385, 4061.538, 0, 0, []
1632652058.1488, 19, 0, 4071.795, 3820.513, 4051.795, 4097.949, 4041.026, 0, 0, []
1632652058.1566, 20, 0, 4065.128, 3792.308, 4048.205, 4086.154, 4033.333, 0, 0, []
1632652058.1645, 21, 0, 4067.179, 3795.897, 4004.103, 4094.872, 4051.795, 0, 0, []
1632652058.1723, 22, 0, 4074.359, 3799.487, 4073.846, 4103.077, 4062.564, 0, 0, []
1632652058.1802, 23, 0, 4073.846, 3786.667, 4008.718, 4087.692, 4058.974, 0, 0, []
1632652058.1879, 24, 0, 4078.462, 3780, 4032.308, 4088.718, 4068.205, 0, 0, []
1632652058.1958, 25, 0, 4084.103, 3791.795, 4069.744, 4103.59, 4085.128, 0, 0, []
1632652058.2036, 26, 0, 4064.103, 3787.692, 4023.077, 4093.846, 4081.538, 0, 0, []
1632652058.2115, 27, 0, 4041.026, 3757.436, 4064.615, 4080, 4061.026, 0, 0, []
1632652058.2193, 28, 0, 4050.256, 3762.564, 4029.744, 4087.179, 4059.487, 0, 0, []
1632652058.2273, 29, 0, 4069.231, 3795.897, 4062.051, 4100, 4081.026, 0, 0, []
1632652058.2351, 30, 0, 4073.333, 3793.333, 4072.308, 4098.974, 4092.821, 0, 0, []
1632652058.2431, 31, 0, 4071.795, 3768.718, 4009.231, 4092.821, 4077.436, 0, 0, []
1632652058.251, 32, 0, 4072.821, 3778.974, 4086.154, 4093.846, 4060, 0, 0, []
1632652058.259, 33, 0, 4072.308, 3796.923, 4064.615, 4096.41, 4056.923, 0, 0, []
1632652058.2669, 34, 0, 4083.077, 3782.051, 4061.538, 4112.308, 4063.077, 0, 0, []
1632652058.2748, 35, 0, 4096.41, 3780.513, 4122.564, 4133.846, 4073.333, 0, 0, []
1632652058.2827, 36, 0, 4090.769, 3798.974, 4091.282, 4135.385, 4079.487, 0, 0, []
1632652058.2907, 37, 0, 4093.846, 3795.385, 4106.154, 4123.59, 4084.103, 0, 0, []
1632652058.2986, 38, 0, 4101.538, 3790.256, 4055.897, 4097.949, 4085.641, 0, 0, []
1632652058.3064, 39, 0, 4089.231, 3821.538, 4063.077, 4082.564, 4077.436, 0, 0, []
1632652058.3142, 40, 0, 4083.077, 3861.538, 4097.436, 4093.846, 4079.487, 0, 0, []
1632652058.322, 41, 0, 4086.667, 3921.538, 4028.718, 4093.333, 4082.051, 0, 0, []
1632652058.3299, 42, 0, 4080.513, 4003.59, 4072.308, 4073.846, 4068.205, 0, 0, []
1632652058.3377, 43, 0, 4080, 4123.077, 4044.103, 4073.846, 4061.026, 0, 0, []
1632652058.3456, 44, 0, 4101.026, 4342.564, 4039.487, 4104.615, 4068.205, 0, 0, []
1632652058.3533, 45, 0, 4124.615, 4523.077, 4111.795, 4134.359, 4084.615, 0, 0, []
1632652058.3612, 46, 0, 4125.128, 4547.692, 4042.564, 4126.154, 4098.462, 0, 0, []
1632652058.369, 47, 0, 4113.333, 4604.615, 4074.872, 4110.256, 4097.949, 0, 0, []
1632652058.377, 48, 0, 4109.231, 4745.128, 4084.615, 4122.564, 4095.385, 0, 0, []
1632652058.3849, 49, 0, 4109.744, 4833.333, 4061.026, 4130.769, 4098.974, 0, 0, []
1632652058.3928, 50, 0, 4107.179, 4923.077, 4105.128, 4123.077, 4089.231, 0, 0, []
1632652058.4007, 51, 0, 4109.231, 5065.128, 4052.821, 4129.231, 4072.821, 0, 0, []
1632652058.4087, 52, 0, 4112.308, 5319.487, 4088.205, 4147.179, 4085.128, 0, 0, []
1632652058.4166, 53, 0, 4103.59, 5873.333, 4081.538, 4136.923, 4093.333, 0, 0, []
1632652058.4246, 54, 0, 4101.538, 6445.641, 4045.641, 4108.205, 4068.718, 0, 0, []
1632652058.4324, 55, 0, 4124.103, 6585.641, 4106.154, 4117.949, 4062.051, 0, 0, []
1632652058.4404, 56, 0, 4126.667, 6594.872, 4042.051, 4134.359, 4087.179, 0, 0, []
1632652058.4483, 57, 0, 4120, 6774.359, 4069.744, 4127.692, 4102.564, 0, 0, []
1632652058.4561, 58, 0, 4136.41, 6894.359, 4096.923, 4138.974, 4107.179, 0, 0, []
1632652058.464, 59, 0, 4146.667, 6706.667, 4048.718, 4162.564, 4120, 0, 0, []
1632652058.4718, 60, 0, 4144.103, 6124.615, 4102.564, 4154.359, 4128.205, 0, 0, []
1632652058.4796, 61, 0, 4143.077, 5428.205, 4064.615, 4131.795, 4117.436, 0, 0, []
1632652058.4874, 62, 0, 4142.564, 5023.077, 4085.128, 4140.513, 4111.795, 0, 0, []
1632652058.4953, 63, 0, 4139.487, 4837.436, 4097.436, 4148.205, 4123.59, 0, 0, []
1632652058.5031, 64, 0, 4141.538, 4592.308, 4049.744, 4133.846, 4128.718, 450, 0, []
1632652058.511, 65, 0, 4162.564, 4387.692, 4129.231, 4137.436, 4131.795, 450, 0, []
1632652058.5187, 66, 0, 4170.256, 4311.795, 4085.128, 4145.128, 4129.744, 16193, 0, []
1632652058.5267, 67, 0, 4148.718, 4226.154, 4073.333, 4135.897, 4109.744, 450, 0, []
1632652058.5346, 68, 0, 4143.077, 4155.385, 4104.103, 4131.795, 4115.385, 16110, 0, []
1632652058.5426, 69, 0, 4164.103, 4119.487, 4056.923, 4142.564, 4148.718, 450, 0, []
1632652058.5505, 70, 0, 4167.692, 4081.026, 4109.744, 4148.205, 4149.744, 189, 0, []
1632652058.5584, 71, 0, 4158.974, 4033.846, 4063.59, 4146.154, 4128.718, 450, 0, []
1632652058.5663, 72, 0, 4177.949, 4001.026, 4072.821, 4160, 4140, 450, 0, []
1632652058.5743, 73, 0, 4188.205, 3968.205, 4112.308, 4157.436, 4162.051, 16170, 0, []
1632652058.5822, 74, 0, 4156.41, 3941.538, 4030.769, 4125.128, 4146.154, 450, 0, []
1632652058.5902, 75, 0, 4143.077, 3936.923, 4098.974, 4125.641, 4131.795, 16187, 0, []
1632652058.598, 76, 0, 4169.744, 3916.41, 4085.128, 4159.487, 4144.103, 450, 0, []
1632652058.606, 77, 0, 4183.077, 3892.821, 4064.103, 4181.026, 4143.59, 450, 0, []
1632652058.6139, 78, 0, 4178.462, 3891.282, 4127.692, 4188.718, 4146.667, 450, 0, []
1632652058.6217, 79, 0, 4183.59, 3873.333, 4072.821, 4191.282, 4177.949, 16187, 0, []
1632652058.6296, 80, 0, 4196.41, 3843.59, 4124.615, 4179.487, 4204.615, 450, 0, []
1632652058.6373, 81, 0, 4202.051, 3843.59, 4135.897, 4151.282, 4189.231, 450, 0, []
1632652058.6452, 82, 0, 4192.308, 3849.744, 4094.359, 4130.769, 4149.231, 450, 0, []
1632652058.653, 83, 0, 4187.692, 3841.026, 4136.923, 4134.872, 4139.487, 16187, 0, []
1632652058.6609, 84, 0, 4189.744, 3820.513, 4094.359, 4144.103, 4161.538, 450, 0, []
1632652058.6687, 85, 0, 4185.641, 3794.872, 4115.897, 4163.59, 4189.231, 450, 0, []
1632652058.6765, 86, 0, 4192.308, 3799.487, 4120, 4190.256, 4202.564, 450, 0, []
1632652058.6843, 87, 0, 4213.846, 3818.462, 4108.718, 4205.641, 4192.308, 16187, 0, []
1632652058.6923, 88, 0, 4235.897, 3817.949, 4162.051, 4220.513, 4190.256, 450, 0, []
1632652058.7002, 89, 0, 4235.385, 3796.923, 4102.564, 4228.718, 4209.744, 450, 0, []
1632652058.7082, 90, 0, 4204.103, 3771.282, 4122.051, 4211.282, 4210.256, 450, 0, []
1632652058.7161, 91, 0, 4180, 3772.821, 4117.949, 4186.154, 4186.154, 16187, 0, []
1632652058.724, 92, 0, 4199.487, 3792.821, 4094.872, 4183.59, 4184.615, 450, 0, []
1632652058.7319, 93, 0, 4231.282, 3805.641, 4183.59, 4201.026, 4205.641, 450, 0, []
1632652058.7399, 94, 0, 4227.692, 3802.564, 4109.231, 4207.179, 4215.897, 450, 0, []
1632652058.7478, 95, 0, 4221.026, 3774.872, 4114.872, 4215.385, 4216.41, 16187, 0, []
1632652058.7556, 96, 0, 4229.231, 3757.949, 4151.795, 4221.538, 4218.974, 450, 0, []
1632652058.7634, 97, 0, 4220, 3779.487, 4091.795, 4191.282, 4214.872, 450, 0, []
1632652058.7712, 98, 0, 4209.231, 3791.795, 4141.538, 4162.564, 4201.538, 450, 0, []
1632652058.7791, 99, 0, 4208.718, 3782.051, 4103.59, 4173.846, 4191.795, 16187, 0, []
1632652058.7869, 100, 0, 4205.641, 3777.436, 4124.615, 4191.282, 4188.718, 450, 0, []
1632652058.7948, 101, 0, 4201.538, 3766.154, 4155.897, 4187.179, 4193.846, 450, 0, []
1632652058.8025, 102, 0, 4201.026, 3768.718, 4091.282, 4185.128, 4204.103, 450, 0, []
1632652058.8104, 103, 0, 4208.205, 3799.487, 4157.436, 4200.513, 4214.359, 16187, 0, []
1632652058.8182, 104, 0, 4217.436, 3803.077, 4124.615, 4208.718, 4209.744, 450, 0, []
1632652058.8261, 105, 0, 4232.821, 3772.821, 4115.385, 4210.769, 4204.615, 450, 0, []
1632652058.8339, 106, 0, 4243.077, 3776.41, 4153.846, 4216.41, 4223.59, 450, 0, []
1632652058.8418, 107, 0, 4228.718, 3798.462, 4096.41, 4207.179, 4233.846, 16187, 0, []
1632652058.8497, 108, 0, 4214.359, 3788.205, 4147.692, 4193.846, 4218.462, 450, 0, []
1632652058.8577, 109, 0, 4231.282, 3786.667, 4116.41, 4207.692, 4216.923, 450, 0, []
1632652058.8656, 110, 0, 4247.692, 3808.718, 4114.872, 4234.872, 4227.692, 450, 0, []
1632652058.8736, 111, 0, 4238.974, 3820.513, 4157.949, 4228.718, 4232.821, 16187, 0, []
1632652058.8814, 112, 0, 4234.872, 3828.205, 4082.051, 4205.128, 4237.949, 450, 0, []
1632652058.8894, 113, 0, 4249.231, 3846.667, 4149.744, 4205.641, 4230.769, 450, 0, []
1632652058.8973, 114, 0, 4251.282, 3837.436, 4139.487, 4214.872, 4215.385, 450, 0, []
1632652058.9053, 115, 0, 4230.769, 3806.154, 4107.692, 4217.949, 4218.462, 16187, 0, []
1632652058.9132, 116, 0, 4228.205, 3828.205, 4164.103, 4226.667, 4238.462, 450, 0, []
1632652058.9209, 117, 0, 4237.436, 3885.641, 4096.923, 4227.179, 4231.282, 450, 0, []
1632652058.9288, 118, 0, 4233.333, 3894.359, 4130.769, 4217.949, 4201.026, 450, 0, []
1632652058.9366, 119, 0, 4229.744, 3873.846, 4128.205, 4212.308, 4199.487, 16187, 0, []
1632652058.9445, 120, 0, 4213.333, 3922.564, 4095.385, 4203.59, 4213.846, 450, 0, []
1632652058.9523, 121, 0, 4199.487, 3972.308, 4147.179, 4192.821, 4210.256, 450, 0, []
1632652058.9602, 122, 0, 4211.795, 3964.103, 4097.436, 4187.692, 4196.41, 450, 0, []
1632652058.9679, 123, 0, 4232.308, 4220.513, 4136.923, 4206.667, 4206.667, 16187, 0, []
1632652058.9758, 124, 0, 4237.949, 4684.615, 4143.077, 4226.667, 4230.256, 450, 0, []
1632652058.9836, 125, 0, 4232.308, 4769.744, 4112.308, 4222.051, 4224.615, 450, 0, []
1632652058.9916, 126, 0, 4241.538, 4512.821, 4168.718, 4229.231, 4218.462, 450, 0, []
1632652058.9995, 127, 0, 4238.974, 4354.359, 4087.179, 4241.026, 4228.718, 16187, 0, []
1632652059.0074, 128, 0, 4218.974, 4228.205, 4112.308, 4224.103, 4233.333, 450, 0, []
1632652059.0153, 0, 0, 4225.641, 4037.436, 4162.564, 4213.846, 4232.308, 450, 0, []
1632652059.0233, 1, 0, 4250.769, 3961.538, 4112.308, 4230.769, 4232.308, 450, 0, []
1632652059.0312, 2, 0, 4251.282, 3957.436, 4167.179, 4245.128, 4241.538, 16194, 0, []
1632652059.0392, 3, 0, 4231.795, 3933.333, 4120.513, 4233.846, 4253.846, 450, 0, []
1632652059.047, 4, 0, 4226.667, 3922.564, 4114.872, 4217.949, 4236.923, 16126, 0, []
1632652059.055, 5, 0, 4229.744, 3891.795, 4160, 4216.41, 4212.308, 450, 0, []
1632652059.0629, 6, 0, 4230.256, 3876.41, 4095.897, 4231.282, 4222.051, 187, 0, []
1632652059.0709, 7, 0, 4235.385, 3889.744, 4137.949, 4241.026, 4248.718, 450, 0, []
1632652059.0788, 8, 0, 4237.949, 3884.615, 4156.41, 4227.692, 4244.103, 450, 0, []
1632652059.0865, 9, 0, 4241.026, 3884.103, 4145.641, 4228.205, 4222.051, 16150, 0, []
1632652059.0944, 10, 0, 4243.077, 3895.897, 4158.462, 4248.205, 4225.641, 450, 0, []
1632652059.1022, 11, 0, 4240, 3897.436, 4146.667, 4252.308, 4251.282, 16200, 0, []
1632652059.1101, 12, 0, 4248.205, 3897.436, 4202.564, 4253.846, 4264.103, 450, 0, []
1632652059.1179, 13, 0, 4257.436, 3892.308, 4147.692, 4260, 4249.744, 450, 0, []
1632652059.1257, 14, 0, 4252.308, 3876.41, 4134.872, 4268.205, 4239.487, 450, 0, []
1632652059.1335, 15, 0, 4248.205, 3884.103, 4184.615, 4269.744, 4256.41, 16200, 0, []
1632652059.1414, 16, 0, 4251.282, 3904.103, 4124.615, 4258.462, 4258.974, 0, 0, []
1632652059.1492, 17, 0, 4259.487, 3891.282, 4173.846, 4262.564, 4240, 0, 0, []
1632652059.1572, 18, 0, 4254.872, 3872.821, 4137.949, 4270.769, 4240, 0, 0, []
1632652059.165, 19, 0, 4229.231, 3874.872, 4105.128, 4249.744, 4253.333, 0, 0, []
1632652059.173, 20, 0, 4227.179, 3901.538, 4183.077, 4242.051, 4249.231, 0, 0, []
1632652059.1809, 21, 0, 4247.692, 3928.718, 4124.103, 4256.923, 4235.385, 0, 0, []
1632652059.1889, 22, 0, 4253.333, 3914.872, 4160.513, 4267.692, 4246.154, 0, 0, []
1632652059.1968, 23, 0, 4243.59, 3900.513, 4158.462, 4268.205, 4264.103, 0, 0, []
1632652059.2048, 24, 0, 4248.718, 3931.282, 4140.513, 4271.282, 4261.538, 0, 0, []
1632652059.2126, 25, 0, 4271.282, 3944.615, 4206.667, 4273.846, 4255.897, 0, 0, []
1632652059.2206, 26, 0, 4267.692, 3909.744, 4118.462, 4264.103, 4251.795, 0, 0, []
1632652059.2285, 27, 0, 4252.308, 3889.231, 4142.051, 4262.051, 4265.641, 0, 0, []
1632652059.2365, 28, 0, 4271.795, 3909.744, 4175.897, 4277.949, 4298.974, 0, 0, []
1632652059.2444, 29, 0, 4306.154, 3936.41, 4153.846, 4299.487, 4305.641, 0, 0, []
1632652059.2523, 30, 0, 4303.077, 3950.769, 4212.821, 4298.974, 4293.333, 0, 0, []
1632652059.2602, 31, 0, 4268.718, 3947.692, 4141.538, 4262.051, 4285.641, 0, 0, []
1632652059.2681, 32, 0, 4248.718, 3937.436, 4156.41, 4234.359, 4254.359, 0, 0, []
1632652059.276, 33, 0, 4245.128, 3942.051, 4197.949, 4252.308, 4228.205, 0, 0, []
1632652059.2838, 34, 0, 4237.949, 3940, 4150.256, 4276.923, 4250.769, 0, 0, []
1632652059.2916, 35, 0, 4227.692, 3925.641, 4188.205, 4261.538, 4255.385, 0, 0, []
1632652059.2994, 36, 0, 4231.795, 3938.462, 4158.462, 4238.974, 4223.59, 0, 0, []
1632652059.3074, 37, 0, 4248.205, 3959.487, 4179.487, 4251.282, 4229.744, 0, 0, []
1632652059.3153, 38, 0, 4260.513, 3950.769, 4205.128, 4264.615, 4266.154, 0, 0, []
1632652059.3233, 39, 0, 4265.641, 3937.949, 4163.077, 4255.897, 4259.487, 0, 0, []
1632652059.3311, 40, 0, 4269.231, 3942.051, 4219.487, 4260, 4234.359, 0, 0, []
1632652059.3391, 41, 0, 4263.077, 3951.282, 4168.718, 4269.231, 4247.179, 0, 0, []
1632652059.347, 42, 0, 4245.641, 3957.436, 4158.462, 4260, 4269.231, 0, 0, []
1632652059.355, 43, 0, 4251.282, 3965.128, 4183.59, 4253.333, 4264.615, 0, 0, []
1632652059.3629, 44, 0, 4265.128, 3963.59, 4116.923, 4257.436, 4244.103, 0, 0, []
1632652059.3707, 45, 0, 4259.487, 3951.282, 4177.949, 4255.897, 4250.256, 0, 0, []
1632652059.3786, 46, 0, 4250.769, 3965.128, 4152.821, 4246.154, 4268.718, 0, 0, []
1632652059.3866, 47, 0, 4258.974, 3995.897, 4164.103, 4249.744, 4252.821, 0, 0, []
1632652059.3945, 48, 0, 4263.59, 3982.564, 4214.359, 4260, 4242.564, 0, 0, []
1632652059.4023, 49, 0, 4250.769, 3961.026, 4120.513, 4259.487, 4263.077, 0, 0, []
1632652059.4101, 50, 0, 4252.308, 3996.923, 4180.513, 4257.436, 4262.564, 0, 0, []
1632652059.4179, 51, 0, 4254.872, 4022.051, 4174.872, 4263.077, 4239.487, 0, 0, []
1632652059.4258, 52, 0, 4235.897, 4012.821, 4126.154, 4270.769, 4243.59, 0, 0, []
1632652059.4336, 53, 0, 4225.641, 4055.385, 4185.128, 4262.564, 4257.949, 0, 0, []
1632652059.4415, 54, 0, 4222.051, 4091.282, 4140.513, 4232.821, 4230.769, 0, 0, []
1632652059.4493, 55, 0, 4215.897, 4057.949, 4161.538, 4224.615, 4197.436, 0, 0, []
1632652059.4572, 56, 0, 4217.949, 4076.923, 4155.385, 4237.436, 4210.769, 0, 0, []
1632652059.4651, 57, 0, 4221.026, 4171.282, 4141.026, 4232.308, 4238.462, 0, 0, []
1632652059.4731, 58, 0, 4229.231, 4215.385, 4200.513, 4227.179, 4235.385, 0, 0, []
1632652059.481, 59, 0, 4243.077, 4223.59, 4147.179, 4244.103, 4224.103, 0, 0, []
1632652059.489, 60, 0, 4237.436, 4279.487, 4168.205, 4256.923, 4241.026, 0, 0, []
1632652059.4968, 61, 0, 4219.487, 4370.769, 4161.538, 4243.59, 4249.231, 0, 0, []
1632652059.5048, 62, 0, 4216.41, 4457.436, 4118.462, 4232.308, 4217.436, 0, 0, []
1632652059.5127, 63, 0, 4218.462, 4472.821, 4173.333, 4238.462, 4203.59, 0, 0, []
1632652059.5207, 64, 0, 4197.436, 4461.026, 4108.205, 4224.103, 4210.769, 450, 0, []
1632652059.5286, 65, 0, 4181.538, 4564.615, 4120, 4197.949, 4187.692, 450, 0, []
1632652059.5363, 66, 0, 4192.821, 4726.667, 4145.128, 4206.154, 4168.205, 16180, 0, []
1632652059.5442, 67, 0, 4195.385, 4800, 4100.513, 4224.103, 4186.667, 450, 0, []
1632652059.552, 68, 0, 4184.103, 4806.667, 4163.59, 4217.436, 4198.462, 16125, 0, []
1632652059.5599, 69, 0, 4198.974, 4881.538, 4129.231, 4214.359, 4196.923, 450, 0, []
1632652059.5677, 70, 0, 4221.538, 4800.513, 4144.615, 4230.256, 4206.667, 177, 0, []
1632652059.5755, 71, 0, 4219.487, 4605.641, 4159.487, 4224.103, 4214.872, 450, 0, []
1632652059.5833, 72, 0, 4198.974, 4928.205, 4087.179, 4191.282, 4189.744, 450, 0, []
1632652059.5912, 73, 0, 4193.333, 5434.872, 4148.205, 4197.949, 4163.077, 16155, 0, []
1632652059.599, 74, 0, 4204.103, 5366.667, 4121.538, 4225.641, 4182.051, 450, 0, []
1632652059.6069, 75, 0, 4208.205, 5061.538, 4131.282, 4220, 4205.641, 16190, 0, []
1632652059.6146, 76, 0, 4217.436, 4933.333, 4165.641, 4209.231, 4201.026, 450, 0, []
1632652059.6226, 77, 0, 4222.051, 4763.077, 4094.872, 4214.872, 4202.564, 450, 0, []
1632652059.6305, 78, 0, 4237.436, 4663.59, 4160.513, 4220.513, 4230.256, 450, 0, []
1632652059.6385, 79, 0, 4283.59, 4746.154, 4140.513, 4213.846, 4264.103, 16190, 0, []
1632652059.6464, 80, 0, 4341.026, 4707.692, 4118.974, 4213.846, 4313.846, 450, 0, []
1632652059.6543, 81, 0, 4388.205, 4665.641, 4153.333, 4218.974, 4375.897, 450, 0, []
1632652059.6622, 82, 0, 4405.128, 4725.641, 4093.333, 4213.846, 4394.872, 450, 0, []
1632652059.6702, 83, 0, 4409.231, 4679.487, 4163.077, 4214.872, 4380, 16190, 0, []
1632652059.6781, 84, 0, 4407.179, 4492.308, 4158.462, 4224.103, 4370.769, 450, 0, []
1632652059.6861, 85, 0, 4395.385, 4282.564, 4125.128, 4229.231, 4381.538, 450, 0, []
1632652059.694, 86, 0, 4381.538, 4198.974, 4164.103, 4219.487, 4380, 450, 0, []
1632652059.7017, 87, 0, 4364.615, 4188.205, 4110.769, 4209.231, 4342.564, 16190, 0, []
1632652059.7096, 88, 0, 4342.051, 4124.103, 4152.821, 4210.769, 4323.077, 450, 0, []
1632652059.7174, 89, 0, 4317.949, 4091.282, 4140, 4208.718, 4323.077, 450, 0, []
1632652059.7253, 90, 0, 4313.846, 4107.179, 4115.897, 4203.59, 4292.308, 450, 0, []
1632652059.7331, 91, 0, 4297.436, 4071.282, 4157.949, 4193.333, 4260.513, 16190, 0, []
1632652059.7409, 92, 0, 4262.564, 4040.513, 4087.692, 4181.538, 4261.538, 450, 0, []
1632652059.7487, 93, 0, 4283.077, 4063.077, 4151.795, 4207.179, 4276.41, 450, 0, []
1632652059.7566, 94, 0, 4324.103, 4063.59, 4164.103, 4246.667, 4294.359, 450, 0, []
1632652059.7644, 95, 0, 4297.436, 4025.128, 4101.538, 4233.333, 4295.385, 16190, 0, []
1632652059.7724, 96, 0, 4266.154, 4031.795, 4155.385, 4204.615, 4271.795, 450, 0, []
1632652059.7802, 97, 0, 4287.692, 4047.179, 4106.154, 4213.333, 4260, 450, 0, []
1632652059.7882, 98, 0, 4297.949, 4009.231, 4144.103, 4234.359, 4268.718, 450, 0, []
1632652059.7961, 99, 0, 4271.282, 3984.615, 4167.692, 4227.692, 4265.641, 16190, 0, []
1632652059.8041, 100, 0, 4254.872, 3991.282, 4112.308, 4203.077, 4236.923, 450, 0, []
1632652059.812, 101, 0, 4263.59, 3986.667, 4169.744, 4200, 4215.385, 450, 0, []
1632652059.8199, 102, 0, 4260.513, 3962.051, 4121.538, 4208.205, 4220.513, 450, 0, []
1632652059.8278, 103, 0, 4235.385, 3941.026, 4117.949, 4199.487, 4227.179, 16190, 0, []
1632652059.8358, 104, 0, 4228.205, 3948.718, 4136.923, 4184.615, 4221.026, 450, 0, []
1632652059.8437, 105, 0, 4234.359, 3964.615, 4088.718, 4185.641, 4199.487, 450, 0, []
1632652059.8515, 106, 0, 4228.205, 3946.667, 4142.564, 4197.949, 4187.692, 450, 0, []
1632652059.8593, 107, 0, 4222.051, 3931.282, 4102.564, 4202.051, 4208.718, 16190, 0, []
1632652059.8671, 108, 0, 4235.385, 3941.538, 4112.821, 4202.564, 4233.846, 450, 0, []
1632652059.875, 109, 0, 4259.487, 3930.769, 4156.923, 4201.538, 4234.359, 450, 0, []
1632652059.8828, 110, 0, 4265.128, 3912.821, 4098.974, 4205.641, 4228.205, 450, 0, []
1632652059.8907, 111, 0, 4245.641, 3918.974, 4145.128, 4216.923, 4235.897, 16190, 0, []
1632652059.8984, 112, 0, 4217.949, 3921.026, 4109.744, 4201.026, 4227.692, 450, 0, []
1632652059.9063, 113, 0, 4220.513, 3920.513, 4111.282, 4183.59, 4200.513, 450, 0, []
1632652059.9142, 114, 0, 4249.744, 3942.051, 4175.897, 4210.769, 4209.231, 450, 0, []
1632652059.9222, 115, 0, 4249.744, 3950.769, 4113.333, 4235.385, 4240.513, 16190, 0, []
1632652059.93, 116, 0, 4231.282, 3934.359, 4146.154, 4217.436, 4243.59, 450, 0, []
1632652059.938, 117, 0, 4232.821, 3930.256, 4125.641, 4197.436, 4221.026, 450, 0, []
1632652059.9458, 118, 0, 4240.513, 3942.051, 4117.436, 4212.308, 4207.692, 450, 0, []
1632652059.9538, 119, 0, 4233.846, 3937.436, 4162.564, 4225.128, 4210.769, 16190, 0, []
1632652059.9617, 120, 0, 4201.538, 3910.256, 4083.59, 4203.077, 4203.077, 450, 0, []
1632652059.9697, 121, 0, 4181.538, 3905.641, 4131.282, 4189.231, 4191.282, 450, 0, []
1632652059.9776, 122, 0, 4205.641, 3930.769, 4140.513, 4202.051, 4197.949, 450, 0, []
1632652059.9855, 123, 0, 4224.103, 3940.513, 4101.026, 4200.513, 4195.385, 16190, 0, []
1632652059.9934, 124, 0, 4200.513, 3918.462, 4134.872, 4188.718, 4177.949, 450, 0, []
1632652060.0012, 125, 0, 4181.538, 3911.795, 4086.667, 4194.872, 4181.538, 450, 0, []
1632652060.0091, 126, 0, 4199.487, 3934.872, 4144.615, 4207.692, 4201.538, 450, 0, []
1632652060.0169, 127, 0, 4215.385, 3941.026, 4142.051, 4209.231, 4200.513, 16190, 0, []
1632652060.0247, 128, 0, 4217.949, 3918.462, 4102.564, 4210.256, 4189.744, 450, 0, []
1632652060.0325, 0, 0, 4227.179, 3920.513, 4166.154, 4221.538, 4203.077, 450, 0, []
1632652060.0404, 1, 0, 4224.615, 3950.256, 4100.513, 4216.41, 4218.974, 450, 0, []
1632652060.0482, 2, 0, 4211.795, 3951.795, 4135.897, 4197.949, 4205.128, 16178, 0, []
1632652060.0561, 3, 0, 4217.949, 3943.59, 4153.846, 4199.487, 4190.256, 450, 0, []
1632652060.0638, 4, 0, 4228.205, 3951.795, 4091.282, 4218.974, 4197.949, 16129, 0, []
1632652060.0717, 5, 0, 4216.41, 3960, 4161.538, 4226.667, 4207.692, 450, 0, []
1632652060.0795, 6, 0, 4205.641, 3962.051, 4126.154, 4211.795, 4207.179, 179, 0, []
1632652060.0875, 7, 0, 4222.564, 3975.385, 4142.051, 4208.205, 4197.949, 450, 0, []
1632652060.0954, 8, 0, 4240, 3974.872, 4178.974, 4220, 4194.872, 450, 0, []
1632652060.1033, 9, 0, 4222.051, 3956.41, 4118.462, 4214.872, 4203.077, 16154, 0, []
1632652060.1112, 10, 0, 4211.795, 3965.128, 4160.513, 4208.205, 4209.231, 450, 0, []
1632652060.1192, 11, 0, 4233.846, 3975.897, 4145.641, 4224.103, 4201.538, 16144, 0, []
1632652060.1271, 12, 0, 4243.59, 3959.487, 4156.923, 4241.026, 4186.154, 450, 0, []
1632652060.1351, 13, 0, 4225.128, 3960, 4157.436, 4231.795, 4186.154, 450, 0, []
1632652060.1429, 14, 0, 4207.692, 3990.769, 4094.359, 4216.923, 4193.846, 450, 0, []
1632652060.1509, 15, 0, 4212.308, 4001.538, 4168.718, 4216.41, 4192.821, 16144, 0, []
1632652060.1588, 16, 0, 4215.385, 3984.103, 4132.308, 4204.103, 4178.462, 0, 0, []
1632652060.1666, 17, 0, 4214.359, 3957.949, 4116.41, 4190.769, 4176.41, 0, 0, []
1632652060.1745, 18, 0, 4219.487, 3960, 4161.538, 4202.051, 4197.949, 0, 0, []
1632652060.1823, 19, 0, 4207.692, 3986.667, 4092.821, 4204.615, 4201.538, 0, 0, []
1632652060.1901, 20, 0, 4206.667, 3992.821, 4155.897, 4206.154, 4187.179, 0, 0, []
1632652060.1979, 21, 0, 4235.385, 4009.744, 4166.154, 4241.026, 4195.897, 0, 0, []
1632652060.2058, 22, 0, 4238.462, 4030.769, 4143.077, 4271.795, 4214.872, 0, 0, []
1632652060.2136, 23, 0, 4208.718, 4002.051, 4174.359, 4247.179, 4209.231, 0, 0, []
1632652060.2215, 24, 0, 4208.205, 3984.615, 4127.692, 4212.821, 4186.667, 0, 0, []
1632652060.2292, 25, 0, 4229.231, 4024.103, 4182.051, 4225.641, 4176.923, 0, 0, []
1632652060.2371, 26, 0, 4218.974, 4028.205, 4157.949, 4232.821, 4180.513, 0, 0, []
1632652060.2449, 27, 0, 4190.256, 4000.513, 4120.513, 4209.231, 4186.154, 0, 0, []
1632652060.2529, 28, 0, 4185.128, 4021.538, 4173.846, 4201.538, 4186.154, 0, 0, []
1632652060.2608, 29, 0, 4196.923, 4041.538, 4111.795, 4211.282, 4170.769, 0, 0, []
1632652060.2687, 30, 0, 4204.103, 4016.41, 4146.154, 4229.744, 4160, 0, 0, []
1632652060.2766, 31, 0, 4209.231, 3997.436, 4146.154, 4247.692, 4180, 0, 0, []
1632652060.2846, 32, 0, 4209.231, 4009.744, 4115.897, 4237.949, 4196.923, 0, 0, []
1632652060.2925, 33, 0, 4198.974, 4031.282, 4183.077, 4215.897, 4180, 0, 0, []
1632652060.3005, 34, 0, 4189.231, 4031.282, 4124.103, 4209.744, 4157.436, 0, 0, []
1632652060.3083, 35, 0, 4185.641, 4004.615, 4154.872, 4211.282, 4156.41, 0, 0, []
1632652060.3161, 36, 0, 4184.103, 4006.667, 4175.897, 4210.256, 4171.795, 0, 0, []
1632652060.324, 37, 0, 4192.821, 4042.051, 4130.769, 4218.974, 4185.128, 0, 0, []
1632652060.3318, 38, 0, 4213.846, 4051.282, 4202.051, 4233.846, 4187.179, 0, 0, []
1632652060.3397, 39, 0, 4208.718, 4040.513, 4148.205, 4233.846, 4176.923, 0, 0, []
1632652060.3474, 40, 0, 4189.744, 4034.872, 4145.641, 4237.949, 4174.359, 0, 0, []
1632652060.3553, 41, 0, 4191.795, 4034.872, 4182.051, 4248.718, 4185.641, 0, 0, []
1632652060.3631, 42, 0, 4196.923, 4042.564, 4151.795, 4243.077, 4179.487, 0, 0, []
1632652060.371, 43, 0, 4203.59, 4054.359, 4203.077, 4241.026, 4167.179, 0, 0, []
1632652060.3788, 44, 0, 4211.282, 4053.846, 4146.154, 4244.615, 4177.949, 0, 0, []
1632652060.3867, 45, 0, 4204.615, 4045.641, 4151.282, 4241.026, 4197.949, 0, 0, []
1632652060.3944, 46, 0, 4199.487, 4049.744, 4186.154, 4232.308, 4201.538, 0, 0, []
1632652060.4024, 47, 0, 4195.385, 4057.949, 4121.538, 4224.615, 4176.41, 0, 0, []
1632652060.4103, 48, 0, 4184.615, 4043.59, 4170.769, 4227.179, 4156.41, 0, 0, []
1632652060.4183, 49, 0, 4177.436, 4026.154, 4137.436, 4227.179, 4167.179, 0, 0, []
1632652060.4262, 50, 0, 4185.641, 4046.667, 4145.641, 4214.872, 4182.564, 0, 0, []
1632652060.4341, 51, 0, 4210.256, 4074.872, 4198.462, 4215.385, 4189.744, 0, 0, []
1632652060.442, 52, 0, 4221.026, 4060.513, 4132.308, 4233.333, 4193.846, 0, 0, []
1632652060.45, 53, 0, 4197.436, 4038.974, 4170.256, 4239.487, 4191.795, 0, 0, []
1632652060.4579, 54, 0, 4183.59, 4058.974, 4142.564, 4232.821, 4189.231, 0, 0, []
1632652060.4657, 55, 0, 4213.333, 4089.744, 4143.59, 4247.179, 4191.282, 0, 0, []
1632652060.4735, 56, 0, 4228.718, 4092.821, 4197.436, 4262.564, 4192.308, 0, 0, []
1632652060.4813, 57, 0, 4196.41, 4080, 4115.385, 4243.077, 4186.154, 0, 0, []
1632652060.4892, 58, 0, 4178.462, 4070.256, 4155.385, 4218.974, 4182.051, 0, 0, []
1632652060.497, 59, 0, 4185.128, 4072.821, 4151.795, 4213.846, 4166.154, 0, 0, []
1632652060.5049, 60, 0, 4177.436, 4075.897, 4120.513, 4212.308, 4137.949, 0, 0, []
1632652060.5126, 61, 0, 4175.897, 4081.026, 4164.103, 4225.641, 4142.051, 0, 0, []
1632652060.5205, 62, 0, 4191.282, 4090.256, 4108.718, 4240.513, 4177.436, 0, 0, []
1632652060.5283, 63, 0, 4202.051, 4092.821, 4161.538, 4230.769, 4189.744, 0, 0, []
1632652060.5362, 64, 0, 4202.564, 4090.769, 4155.385, 4211.282, 4175.385, 450, 0, []
1632652060.544, 65, 0, 4209.231, 4088.718, 4116.41, 4226.667, 4173.846, 450, 0, []
1632652060.5519, 66, 0, 4213.333, 4080.513, 4185.641, 4250.769, 4190.256, 16169, 0, []
1632652060.5598, 67, 0, 4192.821, 4076.923, 4116.41, 4227.179, 4186.154, 450, 0, []
1632652060.5678, 68, 0, 4180, 4091.795, 4144.615, 4208.205, 4163.077, 16132, 0, []
1632652060.5757, 69, 0, 4187.179, 4095.385, 4176.923, 4229.231, 4154.359, 450, 0, []
1632652060.5837, 70, 0, 4183.077, 4082.051, 4119.487, 4240, 4157.436, 177, 0, []
1632652060.5915, 71, 0, 4168.718, 4077.949, 4158.974, 4216.923, 4157.436, 450, 0, []
1632652060.5995, 72, 0, 4169.744, 4077.949, 4121.026, 4189.744, 4153.333, 450, 0, []
1632652060.6074, 73, 0, 4183.077, 4082.564, 4138.462, 4191.282, 4143.077, 16154, 0, []
1632652060.6154, 74, 0, 4182.051, 4082.051, 4149.231, 4204.615, 4134.359, 450, 0, []
1632652060.6233, 75, 0, 4161.538, 4065.641, 4099.487, 4209.744, 4132.308, 16166, 0, []
1632652060.6311, 76, 0, 4157.949, 4068.718, 4161.538, 4208.718, 4146.154, 450, 0, []
1632652060.6389, 77, 0, 4172.821, 4092.308, 4127.692, 4198.974, 4158.974, 450, 0, []
1632652060.6467, 78, 0, 4164.615, 4081.538, 4133.333, 4181.538, 4131.795, 450, 0, []
1632652060.6546, 79, 0, 4155.385, 4067.179, 4145.641, 4181.026, 4110.256, 16166, 0, []
1632652060.6624, 80, 0, 4170.256, 4091.795, 4085.641, 4208.205, 4140.513, 450, 0, []
1632652060.6703, 81, 0, 4186.667, 4107.692, 4157.436, 4230.256, 4178.462, 450, 0, []
1632652060.678, 82, 0, 4187.179, 4096.41, 4123.59, 4223.59, 4174.872, 450, 0, []
1632652060.6859, 83, 0, 4183.59, 4094.359, 4124.615, 4215.385, 4152.308, 16166, 0, []
1632652060.6937, 84, 0, 4192.308, 4116.41, 4175.385, 4230.769, 4151.795, 450, 0, []
1632652060.7017, 85, 0, 4188.205, 4105.641, 4109.744, 4240, 4157.949, 450, 0, []
1632652060.7096, 86, 0, 4167.179, 4074.872, 4154.872, 4224.103, 4162.564, 450, 0, []
1632652060.7175, 87, 0, 4168.205, 4090.769, 4125.128, 4206.154, 4162.564, 16166, 0, []
1632652060.7254, 88, 0, 4190.769, 4125.128, 4116.923, 4210.769, 4149.744, 450, 0, []
1632652060.7334, 89, 0, 4202.051, 4134.872, 4170.769, 4233.846, 4151.795, 450, 0, []
1632652060.7413, 90, 0, 4190.256, 4142.051, 4111.795, 4246.667, 4177.949, 450, 0, []
1632652060.7493, 91, 0, 4186.154, 4142.051, 4168.205, 4245.128, 4195.385, 16166, 0, []
1632652060.7571, 92, 0, 4197.436, 4121.538, 4146.154, 4235.897, 4185.641, 450, 0, []
1632652060.7651, 93, 0, 4205.641, 4117.436, 4117.949, 4226.154, 4170.256, 450, 0, []
1632652060.773, 94, 0, 4206.667, 4128.205, 4184.615, 4230.769, 4174.872, 450, 0, []
1632652060.781, 95, 0, 4193.333, 4127.692, 4112.821, 4232.308, 4184.103, 16166, 0, []
1632652060.7889, 96, 0, 4185.128, 4133.333, 4143.59, 4224.615, 4182.051, 450, 0, []
1632652060.7968, 97, 0, 4197.949, 4147.179, 4167.179, 4229.231, 4174.872, 450, 0, []
1632652060.8047, 98, 0, 4206.154, 4135.385, 4131.795, 4242.051, 4169.744, 450, 0, []
1632652060.8125, 99, 0, 4196.923, 4111.282, 4168.205, 4242.564, 4178.462, 16166, 0, []
1632652060.8204, 100, 0, 4186.154, 4126.154, 4116.923, 4223.077, 4186.667, 450, 0, []
1632652060.8282, 101, 0, 4182.564, 4143.59, 4147.179, 4207.692, 4165.641, 450, 0, []
1632652060.836, 102, 0, 4178.462, 4123.077, 4157.436, 4208.718, 4142.051, 450, 0, []
1632652060.8438, 103, 0, 4175.897, 4119.487, 4113.333, 4211.795, 4143.59, 16166, 0, []
1632652060.8517, 104, 0, 4169.231, 4161.026, 4156.923, 4208.718, 4157.436, 450, 0, []
1632652060.8595, 105, 0, 4155.897, 4185.641, 4111.282, 4193.846, 4160, 450, 0, []
1632652060.8675, 106, 0, 4163.077, 4184.615, 4145.641, 4191.282, 4147.179, 450, 0, []
1632652060.8754, 107, 0, 4187.179, 4206.154, 4153.333, 4204.103, 4140.513, 16166, 0, []
1632652060.8833, 108, 0, 4186.154, 4234.872, 4094.872, 4211.282, 4148.718, 450, 0, []
1632652060.8912, 109, 0, 4174.359, 4245.128, 4164.615, 4214.872, 4168.718, 450, 0, []
1632652060.8992, 110, 0, 4174.872, 4254.872, 4112.308, 4203.59, 4172.308, 450, 0, []
1632652060.9071, 111, 0, 4173.333, 4291.282, 4124.615, 4188.205, 4149.231, 16166, 0, []
1632652060.9151, 112, 0, 4167.179, 4355.897, 4152.821, 4195.897, 4136.923, 450, 0, []
1632652060.9229, 113, 0, 4158.462, 4400.513, 4084.103, 4205.641, 4144.103, 450, 0, []
1632652060.9309, 114, 0, 4154.359, 4405.128, 4147.179, 4192.821, 4155.897, 450, 0, []
1632652060.9388, 115, 0, 4157.949, 4437.436, 4105.128, 4177.949, 4149.744, 16166, 0, []
1632652060.9466, 116, 0, 4168.205, 4517.436, 4112.308, 4186.154, 4132.308, 450, 0, []
1632652060.9545, 117, 0, 4177.436, 4554.359, 4155.385, 4198.974, 4136.41, 450, 0, []
1632652060.9622, 118, 0, 4165.128, 4577.949, 4077.436, 4196.923, 4157.436, 450, 0, []
1632652060.9701, 119, 0, 4158.462, 4655.897, 4150.256, 4201.538, 4159.487, 16166, 0, []
1632652060.9779, 120, 0, 4172.821, 4679.487, 4143.59, 4207.179, 4141.026, 450, 0, []
1632652060.9858, 121, 0, 4182.051, 4613.333, 4107.692, 4211.282, 4152.308, 450, 0, []
1632652060.9936, 122, 0, 4183.077, 4603.59, 4162.564, 4223.59, 4176.41, 450, 0, []
1632652061.0014, 123, 0, 4183.59, 4745.641, 4139.487, 4218.462, 4156.41, 16166, 0, []
1632652061.0092, 124, 0, 4188.718, 4889.231, 4176.41, 4212.308, 4134.872, 450, 0, []
1632652061.0172, 125, 0, 4193.846, 4836.923, 4142.051, 4220, 4158.974, 450, 0, []
1632652061.0251, 126, 0, 4191.282, 4686.154, 4121.538, 4210.769, 4167.692, 450, 0, []
1632652061.0331, 127, 0, 4190.769, 4667.179, 4166.154, 4197.949, 4143.59, 16166, 0, []
1632652061.0409, 128, 0, 4195.385, 4790.769, 4110.256, 4215.385, 4157.436, 450, 0, []
1632652061.0489, 0, 0, 4200.513, 4897.949, 4178.974, 4239.487, 4194.359, 450, 0, []
1632652061.0568, 1, 0, 4208.205, 4964.103, 4188.205, 4229.744, 4191.795, 450, 0, []
1632652061.0648, 2, 0, 4213.333, 5028.205, 4133.846, 4220, 4172.821, 16169, 0, []
1632652061.0727, 3, 0, 4214.872, 5086.667, 4187.692, 4229.744, 4183.077, 450, 0, []
1632652061.0806, 4, 0, 4206.667, 5134.872, 4144.103, 4222.564, 4183.59, 16125, 0, []
1632652061.0885, 5, 0, 4199.487, 5101.538, 4157.949, 4213.846, 4156.923, 450, 0, []
1632652061.0963, 6, 0, 4197.436, 4979.487, 4142.051, 4210.769, 4153.846, 184, 0, []
1632652061.1042, 7, 0, 4184.615, 4889.744, 4104.103, 4197.949, 4160.513, 450, 0, []
1632652061.112, 8, 0, 4185.128, 4892.308, 4168.205, 4192.821, 4148.718, 450, 0, []
1632652061.1199, 9, 0, 4191.282, 4890.256, 4109.744, 4200, 4138.974, 16149, 0, []
1632652061.1276, 10, 0, 4182.051, 4832.821, 4132.821, 4198.462, 4154.872, 450, 0, []
1632652061.1355, 11, 0, 4182.051, 4837.436, 4151.795, 4195.897, 4168.718, 16184, 0, []
1632652061.1433, 12, 0, 4193.333, 4918.974, 4110.256, 4197.436, 4149.231, 450, 0, []
1632652061.1512, 13, 0, 4183.077, 4931.795, 4172.821, 4190.769, 4130.256, 450, 0, []
1632652061.159, 14, 0, 4164.103, 4871.282, 4111.282, 4184.103, 4142.564, 450, 0, []
1632652061.1668, 15, 0, 4182.564, 4917.949, 4131.795, 4199.487, 4160, 16184, 0, []
1632652061.1746, 16, 0, 4208.205, 5022.564, 4176.923, 4225.128, 4158.462, 0, 0, []
1632652061.1826, 17, 0, 4203.59, 4996.41, 4117.436, 4235.385, 4168.718, 0, 0, []
1632652061.1905, 18, 0, 4210.256, 4978.462, 4180.513, 4237.949, 4193.846, 0, 0, []
1632652061.1985, 19, 0, 4229.744, 5079.487, 4151.795, 4245.128, 4196.923, 0, 0, []
1632652061.2063, 20, 0, 4227.692, 5105.641, 4143.59, 4249.231, 4197.436, 0, 0, []
1632652061.2143, 21, 0, 4216.41, 5068.205, 4180.513, 4242.051, 4206.667, 0, 0, []
1632652061.2222, 22, 0, 4211.282, 5102.564, 4126.154, 4233.333, 4186.667, 0, 0, []
1632652061.2302, 23, 0, 4198.462, 5134.359, 4162.564, 4227.692, 4167.179, 0, 0, []
1632652061.2381, 24, 0, 4185.641, 5139.487, 4125.641, 4210.256, 4168.205, 0, 0, []
1632652061.2459, 25, 0, 4198.462, 5142.051, 4128.718, 4204.103, 4156.923, 0, 0, []
1632652061.2538, 26, 0, 4211.795, 5114.872, 4174.359, 4220, 4160.513, 0, 0, []
1632652061.2616, 27, 0, 4202.564, 5097.949, 4112.308, 4228.205, 4179.487, 0, 0, []
1632652061.2695, 28, 0, 4207.179, 5140.513, 4174.359, 4227.179, 4171.282, 0, 0, []
1632652061.2773, 29, 0, 4210.769, 5185.128, 4149.744, 4219.487, 4157.436, 0, 0, []
1632652061.2851, 30, 0, 4183.59, 5172.821, 4106.154, 4203.59, 4161.026, 0, 0, []
1632652061.2929, 31, 0, 4178.462, 5133.846, 4153.846, 4201.026, 4161.026, 0, 0, []
1632652061.3008, 32, 0, 4205.641, 5106.667, 4107.179, 4218.974, 4164.103, 0, 0, []
1632652061.3086, 33, 0, 4218.462, 5107.179, 4155.385, 4233.846, 4198.462, 0, 0, []
1632652061.3166, 34, 0, 4220, 5098.462, 4135.897, 4227.692, 4223.077, 0, 0, []
1632652061.3244, 35, 0, 4230.769, 5059.487, 4120, 4229.231, 4203.077, 0, 0, []
1632652061.3324, 36, 0, 4232.308, 5023.077, 4181.538, 4237.949, 4193.846, 0, 0, []
1632652061.3403, 37, 0, 4218.462, 5073.333, 4095.385, 4225.128, 4205.641, 0, 0, []
1632652061.3483, 38, 0, 4225.128, 5144.103, 4144.615, 4225.128, 4193.333, 0, 0, []
1632652061.3562, 39, 0, 4226.667, 4988.205, 4153.846, 4231.282, 4173.333, 0, 0, []
1632652061.3642, 40, 0, 4192.821, 4758.974, 4090.769, 4206.154, 4177.436, 0, 0, []
1632652061.372, 41, 0, 4189.231, 4786.154, 4166.154, 4196.41, 4185.128, 0, 0, []
1632652061.38, 42, 0, 4221.026, 4865.641, 4135.897, 4218.974, 4180.513, 0, 0, []
1632652061.3879, 43, 0, 4216.923, 4673.333, 4154.872, 4229.231, 4181.026, 0, 0, []
1632652061.3958, 44, 0, 4193.333, 4524.615, 4175.897, 4218.462, 4180.513, 0, 0, []
1632652061.4037, 45, 0, 4198.974, 4731.795, 4144.103, 4218.462, 4167.692, 0, 0, []
1632652061.4115, 46, 0, 4207.179, 4958.462, 4193.846, 4232.821, 4157.949, 0, 0, []
1632652061.4194, 47, 0, 4189.231, 5012.821, 4128.205, 4223.077, 4160.513, 0, 0, []
1632652061.4272, 48, 0, 4173.846, 5102.051, 4137.949, 4201.026, 4161.538, 0, 0, []
1632652061.4351, 49, 0, 4183.077, 5135.897, 4170.769, 4206.154, 4159.487, 0, 0, []
1632652061.4429, 50, 0, 4190.769, 4931.795, 4107.692, 4225.128, 4165.128, 0, 0, []
1632652061.4507, 51, 0, 4183.077, 4800, 4157.436, 4217.436, 4177.949, 0, 0, []
1632652061.4585, 52, 0, 4178.974, 4955.385, 4136.41, 4192.821, 4181.538, 0, 0, []
1632652061.4664, 53, 0, 4197.436, 5171.795, 4141.026, 4200, 4169.231, 0, 0, []
1632652061.4742, 54, 0, 4212.308, 5153.333, 4168.718, 4221.538, 4174.359, 0, 0, []
1632652061.4822, 55, 0, 4193.846, 4786.667, 4107.692, 4204.615, 4188.718, 0, 0, []
1632652061.49, 56, 0, 4185.128, 4396.923, 4159.487, 4186.667, 4180, 0, 0, []
1632652061.498, 57, 0, 4195.897, 4284.615, 4132.821, 4201.538, 4165.128, 0, 0, []
1632652061.5059, 58, 0, 4194.359, 4253.846, 4127.179, 4217.949, 4172.821, 0, 0, []
1632652061.5139, 59, 0, 4198.974, 4145.128, 4181.026, 4223.59, 4195.385, 0, 0, []
1632652061.5218, 60, 0, 4211.282, 4117.436, 4130.769, 4224.103, 4193.333, 0, 0, []
1632652061.5297, 61, 0, 4213.333, 4132.308, 4171.282, 4218.462, 4170.769, 0, 0, []
1632652061.5376, 62, 0, 4216.923, 4082.564, 4140, 4214.872, 4185.641, 0, 0, []
1632652061.5456, 63, 0, 4247.179, 4066.667, 4138.974, 4224.103, 4241.026, 0, 0, []
1632652061.5535, 64, 0, 4310.256, 4066.667, 4203.077, 4233.846, 4286.154, 450, 0, []
1632652061.5613, 65, 0, 4355.897, 4045.641, 4125.128, 4226.154, 4307.692, 450, 0, []
1632652061.5691, 66, 0, 4359.487, 4030.256, 4167.692, 4220, 4318.974, 16166, 0, []
1632652061.5769, 67, 0, 4370.256, 4018.974, 4173.846, 4237.949, 4331.282, 450, 0, []
1632652061.5848, 68, 0, 4387.692, 3994.359, 4143.59, 4256.923, 4348.205, 16133, 0, []
1632652061.5926, 69, 0, 4380, 3991.795, 4189.231, 4256.41, 4347.179, 450, 0, []
1632652061.6005, 70, 0, 4359.487, 4004.103, 4128.205, 4253.846, 4312.821, 182, 0, []
1632652061.6083, 71, 0, 4334.872, 3962.051, 4162.051, 4243.59, 4291.282, 450, 0, []
1632652061.6161, 72, 0, 4306.154, 3920, 4147.179, 4218.974, 4291.795, 450, 0, []
1632652061.6239, 73, 0, 4303.59, 3934.359, 4112.821, 4217.949, 4271.795, 16158, 0, []
1632652061.6319, 74, 0, 4304.103, 3936.923, 4182.051, 4238.974, 4253.333, 450, 0, []
1632652061.6398, 75, 0, 4267.179, 3914.359, 4105.641, 4224.615, 4250.256, 16185, 0, []
1632652061.6478, 76, 0, 4246.154, 3913.846, 4128.718, 4201.026, 4235.897, 450, 0, []
1632652061.6556, 77, 0, 4256.923, 3922.051, 4160, 4208.718, 4219.487, 450, 0, []
1632652061.6636, 78, 0, 4250.256, 3915.897, 4109.231, 4224.103, 4221.538, 450, 0, []
1632652061.6715, 79, 0, 4243.077, 3917.436, 4174.872, 4232.308, 4235.385, 16185, 0, []
1632652061.6795, 80, 0, 4251.282, 3909.744, 4157.436, 4235.897, 4233.333, 450, 0, []
1632652061.6874, 81, 0, 4249.744, 3882.051, 4164.103, 4236.41, 4212.308, 450, 0, []
1632652061.6953, 82, 0, 4232.308, 3877.436, 4167.179, 4224.615, 4202.564, 450, 0, []
1632652061.7032, 83, 0, 4210.256, 3879.487, 4124.103, 4202.051, 4205.641, 16185, 0, []
1632652061.7112, 84, 0, 4204.103, 3861.026, 4178.974, 4198.462, 4198.974, 450, 0, []
1632652061.7191, 85, 0, 4216.923, 3867.692, 4133.846, 4213.846, 4189.744, 450, 0, []
1632652061.7269, 86, 0, 4225.128, 3893.846, 4151.795, 4230.769, 4191.282, 450, 0, []
1632652061.7347, 87, 0, 4220, 3885.641, 4181.538, 4235.385, 4203.077, 16185, 0, []
1632652061.7425, 88, 0, 4203.59, 3860, 4113.333, 4219.487, 4201.538, 450, 0, []
1632652061.7504, 89, 0, 4191.282, 3854.872, 4161.026, 4202.051, 4178.462, 450, 0, []
1632652061.7582, 90, 0, 4192.308, 3855.385, 4111.795, 4198.462, 4158.462, 450, 0, []
1632652061.7661, 91, 0, 4200.513, 3844.103, 4119.487, 4206.154, 4157.949, 16185, 0, []
1632652061.7738, 92, 0, 4198.462, 3833.846, 4181.026, 4205.128, 4169.744, 450, 0, []
1632652061.7817, 93, 0, 4182.564, 3840.513, 4097.949, 4187.179, 4173.333, 450, 0, []
1632652061.7895, 94, 0, 4180, 3857.949, 4148.205, 4189.744, 4170.769, 450, 0, []
1632652061.7975, 95, 0, 4182.564, 3843.077, 4148.205, 4201.538, 4164.103, 16185, 0, []
1632652061.8054, 96, 0, 4177.436, 3813.333, 4119.487, 4193.846, 4149.744, 450, 0, []
1632652061.8133, 97, 0, 4180, 3820, 4155.385, 4192.821, 4156.41, 450, 0, []
1632652061.8212, 98, 0, 4178.974, 3842.051, 4111.795, 4204.615, 4176.41, 450, 0, []
1632652061.8292, 99, 0, 4174.872, 3850.256, 4165.641, 4205.641, 4174.359, 16185, 0, []
1632652061.8371, 100, 0, 4184.103, 3860, 4149.744, 4202.051, 4161.538, 450, 0, []
1632652061.8451, 101, 0, 4197.949, 3868.205, 4124.615, 4215.385, 4163.59, 450, 0, []
1632652061.853, 102, 0, 4202.564, 3856.923, 4178.974, 4227.692, 4177.949, 450, 0, []
1632652061.8609, 103, 0, 4187.179, 3847.179, 4108.718, 4216.41, 4180, 16185, 0, []
1632652061.8688, 104, 0, 4164.615, 3828.205, 4135.897, 4195.897, 4161.538, 450, 0, []
1632652061.8766, 105, 0, 4158.462, 3808.718, 4138.462, 4183.077, 4137.949, 450, 0, []
1632652061.8845, 106, 0, 4171.282, 3830.256, 4102.564, 4189.744, 4128.718, 450, 0, []
1632652061.8924, 107, 0, 4187.179, 3858.462, 4163.59, 4215.897, 4146.667, 16185, 0, []
1632652061.9002, 108, 0, 4183.077, 3860.513, 4124.103, 4222.051, 4160, 450, 0, []
1632652061.9081, 109, 0, 4165.128, 3849.231, 4158.462, 4206.667, 4154.872, 450, 0, []
1632652061.9159, 110, 0, 4173.846, 3852.821, 4164.103, 4208.205, 4156.41, 450, 0, []
1632652061.9237, 111, 0, 4194.359, 3867.179, 4114.872, 4218.462, 4152.308, 16185, 0, []
1632652061.9316, 112, 0, 4189.744, 3853.333, 4169.744, 4222.051, 4140, 450, 0, []
1632652061.9393, 113, 0, 4169.744, 3816.923, 4109.744, 4218.462, 4138.974, 450, 0, []
1632652061.9473, 114, 0, 4161.026, 3822.051, 4122.051, 4210.256, 4149.744, 450, 0, []
1632652061.9552, 115, 0, 4161.026, 3860, 4149.744, 4200.513, 4150.256, 16185, 0, []
1632652061.9632, 116, 0, 4163.59, 3866.154, 4106.154, 4201.538, 4128.718, 450, 0, []
1632652061.9711, 117, 0, 4170.769, 3863.59, 4173.333, 4208.205, 4107.692, 450, 0, []
1632652061.979, 118, 0, 4164.103, 3866.154, 4121.026, 4194.359, 4113.333, 450, 0, []
1632652061.9869, 119, 0, 4158.462, 3858.462, 4115.897, 4190.769, 4136.41, 16185, 0, []
1632652061.9949, 120, 0, 4166.667, 3869.744, 4153.333, 4202.051, 4151.282, 450, 0, []
1632652062.0028, 121, 0, 4166.154, 3874.872, 4103.077, 4187.692, 4148.718, 450, 0, []
1632652062.0108, 122, 0, 4159.487, 3855.385, 4154.359, 4172.308, 4136.41, 450, 0, []
1632652062.0186, 123, 0, 4159.487, 3853.333, 4108.718, 4183.59, 4125.641, 16185, 0, []
1632652062.0266, 124, 0, 4162.564, 3849.231, 4111.795, 4194.359, 4122.564, 450, 0, []
1632652062.0345, 125, 0, 4154.359, 3826.667, 4150.769, 4177.436, 4124.103, 450, 0, []
1632652062.0423, 126, 0, 4127.179, 3835.385, 4078.462, 4158.462, 4112.821, 450, 0, []
1632652062.0502, 127, 0, 4112.308, 3861.026, 4135.385, 4155.897, 4103.59, 16185, 0, []
1632652062.0579, 128, 0, 4137.436, 3869.744, 4106.667, 4158.462, 4113.333, 450, 0, []
1632652062.0658, 0, 0, 4161.538, 3870.769, 4095.897, 4170.769, 4112.821, 450, 0, []
1632652062.0736, 1, 0, 4153.333, 3871.282, 4162.564, 4182.564, 4100, 450, 0, []
1632652062.0815, 2, 0, 4135.897, 3866.154, 4089.231, 4175.385, 4102.051, 16193, 0, []
1632652062.0893, 3, 0, 4134.872, 3856.923, 4125.128, 4174.359, 4119.487, 450, 0, []
1632652062.0972, 4, 0, 4139.487, 3860, 4143.59, 4182.564, 4127.179, 16123, 0, []
1632652062.1049, 5, 0, 4136.923, 3863.077, 4113.846, 4169.744, 4116.41, 450, 0, []
1632652062.1129, 6, 0, 4146.667, 3868.205, 4144.103, 4163.59, 4112.821, 177, 0, []
1632652062.1208, 7, 0, 4167.179, 3876.923, 4113.846, 4184.615, 4123.59, 450, 0, []
1632652062.1288, 8, 0, 4176.923, 3869.231, 4158.974, 4199.487, 4135.385, 450, 0, []
1632652062.1367, 9, 0, 4171.795, 3864.103, 4124.615, 4192.308, 4137.949, 16154, 0, []
1632652062.1446, 10, 0, 4158.974, 3886.154, 4092.821, 4184.615, 4133.846, 450, 0, []
1632652062.1525, 11, 0, 4152.821, 3903.59, 4161.538, 4187.179, 4130.256, 16204, 0, []
1632652062.1605, 12, 0, 4152.821, 3886.667, 4088.718, 4188.718, 4121.026, 450, 0, []
1632652062.1684, 13, 0, 4164.615, 3880, 4129.744, 4197.949, 4116.41, 450, 0, []
1632652062.1762, 14, 0, 4171.282, 3896.41, 4151.795, 4205.641, 4134.359, 450, 0, []
1632652062.184, 15, 0, 4160, 3908.205, 4097.436, 4195.897, 4152.308, 16204, 0, []
1632652062.1918, 16, 0, 4169.744, 3910.256, 4168.718, 4187.692, 4158.974, 0, 0, []
1632652062.1997, 17, 0, 4191.282, 3898.462, 4122.051, 4181.026, 4151.282, 0, 0, []
1632652062.2075, 18, 0, 4190.769, 3899.487, 4128.205, 4175.897, 4131.795, 0, 0, []
1632652062.2154, 19, 0, 4180, 3929.231, 4145.641, 4184.103, 4131.282, 0, 0, []
1632652062.2231, 20, 0, 4161.026, 3941.538, 4097.949, 4191.795, 4133.846, 0, 0, []
1632652062.231, 21, 0, 4140, 3925.128, 4157.436, 4190.256, 4119.487, 0, 0, []
1632652062.2388, 22, 0, 4143.59, 3935.897, 4114.872, 4186.667, 4108.718, 0, 0, []
1632652062.2467, 23, 0, 4158.462, 3965.128, 4128.718, 4182.564, 4105.128, 0, 0, []
1632652062.2545, 24, 0, 4147.179, 3961.538, 4133.333, 4166.667, 4094.359, 0, 0, []
1632652062.2624, 25, 0, 4130.769, 3943.59, 4067.692, 4164.615, 4094.359, 0, 0, []
1632652062.2703, 26, 0, 4145.641, 3954.359, 4144.103, 4187.179, 4129.744, 0, 0, []
1632652062.2783, 27, 0, 4172.821, 3990.256, 4099.487, 4190.256, 4156.41, 0, 0, []
1632652062.2862, 28, 0, 4185.128, 4020, 4101.538, 4185.128, 4140, 0, 0, []
1632652062.2942, 29, 0, 4179.487, 4056.923, 4168.205, 4197.436, 4122.051, 0, 0, []
1632652062.302, 30, 0, 4161.538, 4112.308, 4100.513, 4198.974, 4128.718, 0, 0, []
1632652062.31, 31, 0, 4151.795, 4142.051, 4140, 4181.538, 4138.974, 0, 0, []
1632652062.3179, 32, 0, 4151.282, 4152.308, 4142.051, 4168.205, 4132.308, 0, 0, []
1632652062.3259, 33, 0, 4153.333, 4220, 4128.205, 4179.487, 4116.41, 0, 0, []
1632652062.3338, 34, 0, 4174.359, 4304.615, 4167.179, 4208.718, 4125.641, 0, 0, []
1632652062.3416, 35, 0, 4198.462, 4295.385, 4136.41, 4215.897, 4159.487, 0, 0, []
1632652062.3494, 36, 0, 4212.821, 4211.795, 4169.744, 4199.487, 4183.59, 0, 0, []
1632652062.3572, 37, 0, 4220, 4142.564, 4140, 4196.41, 4182.564, 0, 0, []
1632652062.3651, 38, 0, 4216.41, 4097.436, 4135.897, 4208.205, 4171.795, 0, 0, []
1632652062.3729, 39, 0, 4206.667, 4075.897, 4179.487, 4207.692, 4172.821, 0, 0, []
1632652062.3808, 40, 0, 4192.308, 4076.923, 4099.487, 4188.205, 4173.333, 0, 0, []
1632652062.3885, 41, 0, 4192.308, 4078.974, 4150.256, 4186.667, 4157.949, 0, 0, []
1632652062.3964, 42, 0, 4201.538, 4077.436, 4155.385, 4207.179, 4147.179, 0, 0, []
1632652062.4042, 43, 0, 4189.744, 4080, 4110.769, 4212.308, 4155.897, 0, 0, []
1632652062.4122, 44, 0, 4178.462, 4106.154, 4160, 4198.974, 4164.615, 0, 0, []
1632652062.4201, 45, 0, 4185.641, 4140, 4104.615, 4183.59, 4147.692, 0, 0, []
1632652062.428, 46, 0, 4189.231, 4167.692, 4151.795, 4181.538, 4119.487, 0, 0, []
1632652062.4359, 47, 0, 4174.872, 4323.59, 4150.256, 4184.103, 4109.231, 0, 0, []
1632652062.4439, 48, 0, 4156.923, 4549.744, 4094.359, 4180, 4122.051, 0, 0, []
1632652062.4518, 49, 0, 4149.231, 4525.641, 4158.462, 4175.897, 4129.744, 0, 0, []
1632652062.4598, 50, 0, 4160, 4588.205, 4104.615, 4170.256, 4117.436, 0, 0, []
1632652062.4676, 51, 0, 4180, 5146.154, 4127.692, 4178.974, 4124.103, 0, 0, []
1632652062.4756, 52, 0, 4178.462, 5487.179, 4134.872, 4192.308, 4143.077, 0, 0, []
1632652062.4835, 53, 0, 4162.564, 5411.282, 4088.205, 4176.923, 4120, 0, 0, []
1632652062.4913, 54, 0, 4163.077, 5627.692, 4161.538, 4165.128, 4094.359, 0, 0, []
1632652062.4992, 55, 0, 4167.692, 5767.692, 4102.564, 4183.077, 4114.872, 0, 0, []
1632652062.5069, 56, 0, 4172.308, 5403.077, 4102.051, 4194.872, 4134.872, 0, 0, []
1632652062.5148, 57, 0, 4182.564, 5248.205, 4140, 4194.872, 4131.282, 0, 0, []
1632652062.5226, 58, 0, 4176.923, 5336.41, 4120, 4195.385, 4136.923, 0, 0, []
1632652062.5305, 59, 0, 4161.026, 5131.795, 4165.641, 4186.667, 4138.462, 0, 0, []
1632652062.5383, 60, 0, 4160, 5081.538, 4110.256, 4175.385, 4117.949, 0, 0, []
1632652062.5461, 61, 0, 4157.436, 5343.59, 4135.385, 4183.077, 4110.256, 0, 0, []
1632652062.5539, 62, 0, 4144.103, 5207.692, 4163.077, 4185.641, 4124.103, 0, 0, []
1632652062.5618, 63, 0, 4154.359, 4753.333, 4115.385, 4188.205, 4134.359, 0, 0, []
1632652062.5696, 64, 0, 4194.359, 4557.436, 4196.923, 4220.513, 4148.205, 450, 0, []
1632652062.5776, 65, 0, 4205.641, 4525.641, 4162.051, 4232.821, 4163.59, 450, 0, []
1632652062.5855, 66, 0, 4182.051, 4376.41, 4142.564, 4201.538, 4166.154, 16174, 0, []
1632652062.5934, 67, 0, 4181.538, 4269.231, 4181.538, 4180.513, 4164.615, 450, 0, []
1632652062.6013, 68, 0, 4198.974, 4291.282, 4117.436, 4193.333, 4155.897, 16140, 0, []
1632652062.6093, 69, 0, 4186.154, 4240.513, 4147.179, 4207.692, 4138.974, 450, 0, []
1632652062.6172, 70, 0, 4159.487, 4152.308, 4114.872, 4197.949, 4139.487, 182, 0, []
1632652062.6252, 71, 0, 4169.744, 4151.282, 4113.333, 4193.846, 4155.385, 450, 0, []
1632652062.633, 72, 0, 4202.051, 4159.487, 4182.051, 4207.179, 4155.385, 450, 0, []
1632652062.641, 73, 0, 4198.462, 4106.154, 4107.692, 4205.128, 4143.077, 16154, 0, []
1632652062.649, 74, 0, 4177.436, 4072.308, 4134.359, 4198.974, 4155.385, 450, 0, []
1632652062.6569, 75, 0, 4183.077, 4100, 4133.846, 4203.077, 4175.897, 16193, 0, []
1632652062.6648, 76, 0, 4194.359, 4092.821, 4107.179, 4199.487, 4155.897, 450, 0, []
1632652062.6725, 77, 0, 4184.103, 4069.231, 4157.436, 4188.205, 4121.026, 450, 0, []
1632652062.6804, 78, 0, 4166.667, 4095.897, 4096.923, 4186.667, 4122.564, 450, 0, []
1632652062.6882, 79, 0, 4165.641, 4170.769, 4129.744, 4192.308, 4150.769, 16193, 0, []
1632652062.6961, 80, 0, 4185.128, 4315.897, 4149.231, 4193.846, 4166.154, 450, 0, []
1632652062.7039, 81, 0, 4204.103, 4526.667, 4123.077, 4204.103, 4151.795, 450, 0, []
1632652062.7117, 82, 0, 4200.513, 4746.154, 4174.359, 4217.949, 4156.41, 450, 0, []
1632652062.7195, 83, 0, 4189.744, 4798.974, 4122.564, 4213.333, 4185.641, 16193, 0, []
1632652062.7275, 84, 0, 4196.41, 4580, 4145.641, 4204.615, 4174.359, 450, 0, []
1632652062.7354, 85, 0, 4200.513, 4455.385, 4157.436, 4209.231, 4146.154, 450, 0, []
1632652062.7434, 86, 0, 4181.026, 4656.41, 4111.795, 4214.872, 4157.949, 450, 0, []
1632652062.7512, 87, 0, 4171.795, 4719.487, 4170.256, 4212.308, 4169.744, 16193, 0, []
1632652062.7592, 88, 0, 4181.026, 4427.692, 4133.846, 4204.103, 4145.128, 450, 0, []
1632652062.7671, 89, 0, 4188.205, 4216.41, 4148.205, 4206.667, 4138.462, 450, 0, []
1632652062.7751, 90, 0, 4182.564, 4219.487, 4166.667, 4206.154, 4165.128, 450, 0, []
1632652062.783, 91, 0, 4158.974, 4179.487, 4111.795, 4177.949, 4160.513, 16193, 0, []
1632652062.7908, 92, 0, 4166.667, 4185.641, 4158.974, 4168.205, 4140.513, 450, 0, []
1632652062.7987, 93, 0, 4205.641, 4342.564, 4122.564, 4196.923, 4153.333, 450, 0, []
1632652062.8065, 94, 0, 4200, 4336.41, 4131.282, 4213.846, 4172.308, 450, 0, []
1632652062.8144, 95, 0, 4166.667, 4185.641, 4156.923, 4199.487, 4160.513, 16193, 0, []
1632652062.8222, 96, 0, 4166.154, 4174.872, 4108.205, 4187.179, 4131.282, 450, 0, []
1632652062.8301, 97, 0, 4184.615, 4125.128, 4162.564, 4197.949, 4122.564, 450, 0, []
1632652062.8378, 98, 0, 4184.103, 4154.359, 4118.462, 4203.077, 4145.128, 450, 0, []
1632652062.8457, 99, 0, 4184.615, 4564.615, 4123.59, 4203.59, 4166.154, 16193, 0, []
1632652062.8535, 100, 0, 4207.692, 4893.846, 4178.462, 4214.359, 4169.231, 450, 0, []
1632652062.8614, 101, 0, 4209.744, 4792.821, 4108.205, 4217.436, 4167.179, 450, 0, []
1632652062.8692, 102, 0, 4180.513, 4700.513, 4144.103, 4200.513, 4163.077, 450, 0, []
1632652062.8771, 103, 0, 4173.846, 4801.026, 4134.359, 4186.667, 4155.385, 16193, 0, []
1632652062.885, 104, 0, 4196.923, 4871.282, 4128.718, 4198.462, 4149.231, 450, 0, []
1632652062.8929, 105, 0, 4202.564, 4833.846, 4162.051, 4206.154, 4163.59, 450, 0, []
1632652062.9008, 106, 0, 4187.179, 4695.385, 4104.615, 4192.308, 4175.897, 450, 0, []
1632652062.9087, 107, 0, 4191.795, 4633.333, 4158.974, 4192.308, 4158.462, 16193, 0, []
1632652062.9166, 108, 0, 4193.846, 4679.487, 4129.744, 4204.615, 4141.026, 450, 0, []
1632652062.9246, 109, 0, 4172.308, 4543.077, 4093.333, 4194.359, 4146.667, 450, 0, []
1632652062.9325, 110, 0, 4170.256, 4283.077, 4170.256, 4180, 4153.333, 450, 0, []
1632652062.9405, 111, 0, 4180.513, 4175.897, 4113.846, 4185.641, 4142.051, 16193, 0, []
1632652062.9484, 112, 0, 4161.538, 4238.462, 4122.051, 4196.41, 4135.897, 450, 0, []
1632652062.9561, 113, 0, 4146.667, 4197.436, 4142.051, 4192.821, 4143.59, 450, 0, []
1632652062.964, 114, 0, 4173.333, 4161.026, 4128.205, 4187.179, 4144.103, 450, 0, []
1632652062.9718, 115, 0, 4202.564, 4546.667, 4180.513, 4208.205, 4148.718, 16193, 0, []
1632652062.9797, 116, 0, 4198.462, 5071.282, 4147.692, 4215.385, 4166.667, 450, 0, []
1632652062.9875, 117, 0, 4191.282, 5115.897, 4163.59, 4192.821, 4170.769, 450, 0, []
1632652062.9953, 118, 0, 4203.077, 4780.513, 4166.667, 4205.641, 4167.179, 450, 0, []
1632652063.0031, 119, 0, 4214.359, 4569.231, 4151.282, 4247.692, 4188.205, 16193, 0, []
1632652063.011, 120, 0, 4231.282, 4603.077, 4208.205, 4264.103, 4220.513, 450, 0, []
1632652063.0188, 121, 0, 4249.231, 4786.667, 4151.795, 4270.769, 4235.385, 450, 0, []
1632652063.0267, 122, 0, 4264.615, 4957.949, 4188.205, 4303.59, 4246.154, 450, 0, []
1632652063.0344, 123, 0, 4292.821, 4876.923, 4232.821, 4330.769, 4269.231, 16193, 0, []
1632652063.0423, 124, 0, 4305.128, 4655.897, 4175.385, 4317.436, 4278.974, 450, 0, []
1632652063.0501, 125, 0, 4303.077, 4470.256, 4225.128, 4308.718, 4280.513, 450, 0, []
1632652063.0581, 126, 0, 4314.359, 4327.692, 4199.487, 4326.667, 4297.949, 450, 0, []
1632652063.066, 127, 0, 4323.077, 4568.718, 4216.41, 4341.538, 4302.051, 16193, 0, []
1632652063.074, 128, 0, 4309.744, 5074.872, 4227.692, 4334.872, 4288.718, 450, 0, []
1632652063.0818, 0, 0, 4308.205, 5034.359, 4171.795, 4332.308, 4290.256, 450, 0, []
1632652063.0898, 1, 0, 4337.436, 4517.949, 4262.051, 4356.923, 4314.359, 450, 0, []
1632652063.0977, 2, 0, 4349.744, 4333.333, 4223.077, 4363.077, 4323.59, 16161, 0, []
1632652063.1057, 3, 0, 4343.077, 4394.872, 4197.949, 4353.333, 4312.821, 450, 0, []
1632652063.1136, 4, 0, 4336.41, 4284.103, 4263.077, 4358.974, 4308.718, 16125, 0, []
1632652063.1213, 5, 0, 4336.41, 4241.026, 4226.154, 4368.205, 4311.795, 450, 0, []
1632652063.1292, 6, 0, 4364.615, 4368.205, 4277.436, 4388.205, 4330.769, 95, 0, []
1632652063.137, 7, 0, 4397.436, 4364.103, 4281.538, 4408.718, 4352.308, 450, 0, []
1632652063.1449, 8, 0, 4393.333, 4237.436, 4256.41, 4403.59, 4342.564, 450, 0, []
1632652063.1527, 9, 0, 4373.846, 4387.179, 4271.795, 4385.641, 4327.692, 16148, 0, []
1632652063.1605, 10, 0, 4384.615, 4727.179, 4231.282, 4385.641, 4339.487, 450, 0, []
1632652063.1683, 11, 0, 4396.41, 4723.59, 4279.487, 4386.667, 4356.923, 16202, 0, []
1632652063.1762, 12, 0, 4389.231, 4544.615, 4261.538, 4367.692, 4355.897, 450, 0, []
1632652063.184, 13, 0, 4380, 4573.333, 4232.821, 4359.487, 4347.692, 450, 0, []
1632652063.1919, 14, 0, 4367.179, 4618.462, 4266.154, 4362.051, 4335.897, 450, 0, []
1632652063.1996, 15, 0, 4337.436, 4588.718, 4191.282, 4348.205, 4312.821, 16202, 0, []
1632652063.2076, 16, 0, 4309.744, 4633.846, 4223.077, 4331.795, 4290.769, 0, 0, []
1632652063.2155, 17, 0, 4317.949, 4602.051, 4233.846, 4334.872, 4284.103, 0, 0, []
1632652063.2235, 18, 0, 4334.359, 4403.077, 4196.923, 4338.462, 4291.282, 0, 0, []
1632652063.2314, 19, 0, 4330.256, 4240.513, 4243.59, 4329.231, 4292.821, 0, 0, []
1632652063.2393, 20, 0, 4318.462, 4180.513, 4189.744, 4320, 4283.077, 0, 0, []
1632652063.2472, 21, 0, 4310.256, 4200.513, 4213.333, 4318.462, 4275.385, 0, 0, []
1632652063.2552, 22, 0, 4311.795, 4462.564, 4220, 4313.846, 4278.462, 0, 0, []
1632652063.2631, 23, 0, 4320, 4984.615, 4181.538, 4315.385, 4295.385, 0, 0, []
1632652063.271, 24, 0, 4328.718, 5423.077, 4243.077, 4325.128, 4308.718, 0, 0, []
1632652063.2788, 25, 0, 4317.949, 5846.154, 4196.41, 4316.41, 4299.487, 0, 0, []
1632652063.2866, 26, 0, 4320.513, 6446.154, 4221.538, 4325.128, 4293.333, 0, 0, []
1632652063.2945, 27, 0, 4349.744, 6681.538, 4247.692, 4357.436, 4313.333, 0, 0, []
1632652063.3023, 28, 0, 4349.231, 6542.564, 4196.41, 4360.513, 4312.821, 0, 0, []
1632652063.3102, 29, 0, 4325.641, 6827.179, 4245.128, 4346.154, 4275.385, 0, 0, []
1632652063.318, 30, 0, 4308.205, 7315.897, 4187.692, 4332.308, 4258.974, 0, 0, []
1632652063.3258, 31, 0, 4301.538, 7317.949, 4193.333, 4313.846, 4261.026, 0, 0, []
1632652063.3336, 32, 0, 4300.513, 7213.846, 4230.256, 4303.59, 4261.538, 0, 0, []
1632652063.3416, 33, 0, 4307.692, 7407.179, 4170.256, 4320.513, 4264.103, 0, 0, []
1632652063.3495, 34, 0, 4315.385, 7622.051, 4229.231, 4337.436, 4261.538, 0, 0, []
1632652063.3575, 35, 0, 4292.821, 7522.051, 4204.103, 4313.846, 4245.641, 0, 0, []
1632652063.3653, 36, 0, 4268.205, 7166.154, 4183.077, 4291.282, 4229.231, 0, 0, []
1632652063.3733, 37, 0, 4276.41, 7007.179, 4227.179, 4293.846, 4243.077, 0, 0, []
1632652063.3812, 38, 0, 4288.205, 6698.462, 4187.692, 4282.051, 4249.231, 0, 0, []
1632652063.3892, 39, 0, 4270.769, 5702.564, 4202.051, 4259.487, 4232.308, 0, 0, []
1632652063.3971, 40, 0, 4253.333, 4806.667, 4172.308, 4269.231, 4219.487, 0, 0, []
1632652063.405, 41, 0, 4272.308, 4652.821, 4193.333, 4296.41, 4220, 0, 0, []
1632652063.4129, 42, 0, 4291.282, 4595.897, 4237.436, 4294.359, 4243.077, 0, 0, []
1632652063.4209, 43, 0, 4287.179, 4367.692, 4168.205, 4276.923, 4255.385, 0, 0, []
1632652063.4288, 44, 0, 4294.359, 4301.026, 4216.923, 4281.026, 4242.051, 0, 0, []
1632652063.4366, 45, 0, 4308.718, 4261.538, 4200, 4281.026, 4235.385, 0, 0, []
1632652063.4444, 46, 0, 4289.231, 4166.667, 4151.795, 4249.744, 4236.923, 0, 0, []
1632652063.4522, 47, 0, 4269.744, 4105.128, 4192.821, 4237.949, 4226.667, 0, 0, []
1632652063.4601, 48, 0, 4261.538, 4026.154, 4133.846, 4246.667, 4209.744, 0, 0, []
1632652063.4679, 49, 0, 4224.103, 3943.59, 4154.872, 4224.615, 4191.795, 0, 0, []
1632652063.4758, 50, 0, 4191.282, 3886.667, 4147.179, 4195.897, 4158.462, 0, 0, []
1632652063.4835, 51, 0, 4194.872, 3857.949, 4117.436, 4198.462, 4133.333, 0, 0, []
1632652063.4914, 52, 0, 4199.487, 3832.821, 4166.154, 4205.128, 4140.513, 0, 0, []
1632652063.4992, 53, 0, 4186.667, 3797.949, 4113.846, 4191.795, 4149.231, 0, 0, []
1632652063.5071, 54, 0, 4185.641, 3772.308, 4164.615, 4190.769, 4148.718, 0, 0, []
1632652063.5149, 55, 0, 4206.667, 3762.564, 4177.949, 4213.333, 4152.821, 0, 0, []
1632652063.5228, 56, 0, 4220.513, 3728.205, 4124.103, 4217.436, 4150.256, 0, 0, []
1632652063.5307, 57, 0, 4205.128, 3669.744, 4171.282, 4200, 4144.103, 0, 0, []
1632652063.5387, 58, 0, 4181.026, 3661.026, 4113.333, 4196.923, 4152.308, 0, 0, []
1632652063.5466, 59, 0, 4175.897, 3666.667, 4133.846, 4203.077, 4152.308, 0, 0, []
1632652063.5546, 60, 0, 4182.051, 3622.051, 4165.128, 4193.333, 4132.308, 0, 0, []
1632652063.5625, 61, 0, 4186.154, 3576.41, 4113.333, 4184.103, 4123.59, 0, 0, []
1632652063.5704, 62, 0, 4192.821, 3565.128, 4166.154, 4195.897, 4138.462, 0, 0, []
1632652063.5783, 63, 0, 4191.795, 3565.128, 4149.744, 4207.179, 4149.744, 0, 0, []
1632652063.5862, 64, 0, 4171.282, 3546.667, 4156.41, 4194.359, 4141.538, 450, 0, []
1632652063.5941, 65, 0, 4157.436, 3517.949, 4153.333, 4165.641, 4124.615, 450, 0, []
1632652063.6019, 66, 0, 4169.231, 3518.974, 4105.641, 4168.718, 4116.923, 16181, 0, []
1632652063.6097, 67, 0, 4188.718, 3537.436, 4182.051, 4201.538, 4126.154, 450, 0, []
1632652063.6175, 68, 0, 4184.615, 3517.949, 4142.564, 4196.923, 4138.974, 16135, 0, []
1632652063.6254, 69, 0, 4162.051, 3480, 4118.974, 4185.128, 4144.615, 450, 0, []
1632652063.6332, 70, 0, 4165.128, 3475.897, 4167.692, 4208.205, 4155.385, 178, 0, []
1632652063.6411, 71, 0, 4186.154, 3474.872, 4134.359, 4214.872, 4156.923, 450, 0, []
1632652063.6488, 72, 0, 4184.615, 3471.282, 4169.231, 4195.385, 4133.846, 450, 0, []
1632652063.6568, 73, 0, 4165.128, 3492.308, 4132.308, 4183.59, 4118.974, 16143, 0, []
1632652063.6647, 74, 0, 4158.974, 3488.718, 4134.359, 4187.179, 4126.667, 450, 0, []
1632652063.6727, 75, 0, 4166.667, 3447.692, 4167.179, 4197.949, 4140.513, 16208, 0, []
1632652063.6806, 76, 0, 4167.692, 3442.564, 4100.513, 4203.59, 4155.897, 450, 0, []
1632652063.6885, 77, 0, 4186.154, 3473.333, 4183.077, 4216.41, 4182.051, 450, 0, []
1632652063.6964, 78, 0, 4212.308, 3485.641, 4173.846, 4235.897, 4191.282, 450, 0, []
1632652063.7044, 79, 0, 4206.154, 3468.718, 4120, 4223.59, 4164.103, 16208, 0, []
1632652063.7123, 80, 0, 4191.282, 3452.821, 4162.051, 4196.41, 4157.949, 450, 0, []
1632652063.7203, 81, 0, 4182.564, 3463.59, 4112.308, 4194.359, 4171.282, 450, 0, []
1632652063.7281, 82, 0, 4166.154, 3481.538, 4152.821, 4196.923, 4157.949, 450, 0, []
1632652063.7359, 83, 0, 4167.179, 3459.487, 4151.795, 4191.282, 4140.513, 16208, 0, []
1632652063.7438, 84, 0, 4185.128, 3425.641, 4133.333, 4203.077, 4145.128, 450, 0, []
1632652063.7516, 85, 0, 4186.667, 3449.231, 4194.359, 4218.462, 4156.923, 450, 0, []
1632652063.7595, 86, 0, 4172.821, 3470.256, 4130.256, 4211.282, 4162.051, 450, 0, []
1632652063.7672, 87, 0, 4153.333, 3443.59, 4141.538, 4193.333, 4152.308, 16208, 0, []
1632652063.7751, 88, 0, 4137.436, 3454.359, 4143.077, 4164.615, 4131.282, 450, 0, []
1632652063.7829, 89, 0, 4148.205, 3481.026, 4107.692, 4138.462, 4122.051, 450, 0, []
1632652063.7908, 90, 0, 4177.949, 3463.077, 4170.769, 4149.744, 4133.333, 450, 0, []
1632652063.7986, 91, 0, 4191.795, 3458.974, 4143.59, 4191.795, 4152.821, 16208, 0, []
1632652063.8065, 92, 0, 4188.718, 3478.462, 4166.667, 4227.179, 4167.179, 450, 0, []
1632652063.8142, 93, 0, 4176.923, 3462.564, 4179.487, 4231.795, 4169.231, 450, 0, []
1632652063.8221, 94, 0, 4160.513, 3457.436, 4129.744, 4216.923, 4166.154, 450, 0, []
1632652063.8299, 95, 0, 4160.513, 3493.846, 4171.282, 4203.077, 4153.846, 16208, 0, []
1632652063.8379, 96, 0, 4163.59, 3500, 4134.359, 4181.026, 4123.077, 450, 0, []
1632652063.8458, 97, 0, 4151.795, 3490.256, 4136.923, 4149.744, 4094.359, 450, 0, []
1632652063.8537, 98, 0, 4138.974, 3494.872, 4146.154, 4120.513, 4094.872, 450, 0, []
1632652063.8616, 99, 0, 4128.718, 3469.744, 4097.949, 4107.179, 4107.692, 16208, 0, []
1632652063.8696, 100, 0, 4129.231, 3438.462, 4149.231, 4123.077, 4123.59, 450, 0, []
1632652063.8775, 101, 0, 4135.385, 3455.897, 4115.385, 4135.385, 4134.359, 450, 0, []
1632652063.8854, 102, 0, 4135.897, 3480.513, 4125.641, 4133.333, 4129.231, 450, 0, []
1632652063.8932, 103, 0, 4145.128, 3477.436, 4153.333, 4143.077, 4125.641, 16208, 0, []
1632652063.9012, 104, 0, 4153.846, 3479.487, 4088.718, 4160, 4113.846, 450, 0, []
1632652063.9091, 105, 0, 4156.923, 3486.154, 4161.026, 4175.897, 4104.103, 450, 0, []
1632652063.9169, 106, 0, 4163.59, 3490.256, 4149.744, 4186.667, 4127.179, 450, 0, []
1632652063.9248, 107, 0, 4160.513, 3502.051, 4123.59, 4192.821, 4155.897, 16208, 0, []
1632652063.9325, 108, 0, 4153.846, 3514.359, 4158.974, 4203.077, 4163.59, 450, 0, []
1632652063.9404, 109, 0, 4165.128, 3515.897, 4117.436, 4213.846, 4156.41, 450, 0, []
1632652063.9482, 110, 0, 4186.667, 3520, 4162.564, 4210.769, 4148.205, 450, 0, []
1632652063.9561, 111, 0, 4190.256, 3526.667, 4127.179, 4190.256, 4155.385, 16208, 0, []
1632652063.9639, 112, 0, 4180, 3527.179, 4115.385, 4170.769, 4172.821, 450, 0, []
1632652063.9718, 113, 0, 4202.051, 3526.667, 4170.769, 4156.923, 4193.333, 450, 0, []
1632652063.9797, 114, 0, 4258.462, 3530.769, 4103.59, 4139.487, 4222.564, 450, 0, []
1632652063.9877, 115, 0, 4306.154, 3537.436, 4146.154, 4144.103, 4257.436, 16208, 0, []
1632652063.9956, 116, 0, 4337.436, 3543.077, 4133.846, 4178.462, 4302.564, 450, 0, []
1632652064.0036, 117, 0, 4367.692, 3552.308, 4101.538, 4206.667, 4334.359, 450, 0, []
1632652064.0114, 118, 0, 4366.154, 3550.769, 4175.385, 4212.821, 4318.462, 450, 0, []
1632652064.0194, 119, 0, 4314.359, 3527.692, 4115.385, 4197.436, 4277.949, 16208, 0, []
1632652064.0273, 120, 0, 4271.282, 3508.205, 4117.436, 4164.615, 4259.487, 450, 0, []
1632652064.0353, 121, 0, 4253.333, 3510.256, 4123.077, 4130.769, 4231.795, 450, 0, []
1632652064.0432, 122, 0, 4228.718, 3521.538, 4088.718, 4118.462, 4186.154, 450, 0, []
1632652064.0511, 123, 0, 4209.744, 3518.974, 4128.205, 4127.692, 4181.538, 16208, 0, []
1632652064.0589, 124, 0, 4191.282, 3515.385, 4081.538, 4123.59, 4191.282, 450, 0, []
1632652064.0667, 125, 0, 4178.462, 3519.487, 4107.692, 4117.949, 4171.282, 450, 0, []
1632652064.0746, 126, 0, 4191.795, 3526.667, 4112.821, 4141.026, 4162.564, 450, 0, []
1632652064.0824, 127, 0, 4200.513, 3528.718, 4074.359, 4160.513, 4166.667, 16208, 0, []
1632652064.0903, 128, 0, 4178.462, 3522.051, 4132.308, 4148.205, 4153.333, 450, 0, []
1632652064.098, 0, 0, 4150.256, 3524.103, 4074.359, 4133.333, 4138.974, 450, 0, []
1632652064.1059, 1, 0, 4139.487, 3549.231, 4087.179, 4131.795, 4137.949, 450, 0, []
1632652064.1137, 2, 0, 4142.051, 3575.897, 4129.744, 4125.641, 4134.359, 16198, 0, []
1632652064.1217, 3, 0, 4143.59, 3575.897, 4091.795, 4130.769, 4110.256, 450, 0, []
1632652064.1296, 4, 0, 4142.051, 3570.256, 4150.769, 4147.692, 4086.667, 16144, 0, []
1632652064.1375, 5, 0, 4137.436, 3574.359, 4109.744, 4136.923, 4093.846, 450, 0, []
1632652064.1454, 6, 0, 4138.974, 3574.359, 4104.615, 4132.821, 4126.154, 187, 0, []
1632652064.1534, 7, 0, 4153.846, 3578.462, 4156.923, 4160, 4149.744, 450, 0, []
1632652064.1613, 8, 0, 4154.359, 3595.385, 4118.462, 4157.949, 4138.462, 450, 0, []
1632652064.1693, 9, 0, 4136.923, 3605.128, 4144.103, 4131.795, 4113.846, 16161, 0, []
1632652064.1771, 10, 0, 4125.641, 3601.026, 4091.795, 4126.154, 4100, 450, 0, []
1632652064.1851, 11, 0, 4118.462, 3587.692, 4086.667, 4129.744, 4087.692, 16205, 0, []
1632652064.193, 12, 0, 4109.744, 3580, 4119.487, 4121.538, 4082.564, 450, 0, []
1632652064.201, 13, 0, 4100.513, 3587.692, 4048.718, 4107.179, 4090.769, 450, 0, []
1632652064.2089, 14, 0, 4093.846, 3576.923, 4107.692, 4104.103, 4094.359, 450, 0, []
1632652064.2166, 15, 0, 4085.128, 3552.821, 4089.231, 4103.59, 4087.692, 16205, 0, []
1632652064.2245, 16, 0, 4070.769, 3570.256, 4058.462, 4095.385, 4074.359, 0, 0, []
1632652064.2323, 17, 0, 4064.103, 3606.154, 4113.846, 4085.128, 4060, 0, 0, []
1632652064.2402, 18, 0, 4063.59, 3598.974, 4061.538, 4078.462, 4047.692, 0, 0, []
1632652064.248, 19, 0, 4070.256, 3576.41, 4104.615, 4086.667, 4049.231, 0, 0, []
1632652064.2558, 20, 0, 4094.359, 3598.462, 4115.897, 4112.308, 4067.692, 0, 0, []
1632652064.2636, 21, 0, 4099.487, 3622.564, 4083.077, 4126.667, 4064.615, 0, 0, []
1632652064.2715, 22, 0, 4071.795, 3612.821, 4113.846, 4112.308, 4040.513, 0, 0, []
1632652064.2793, 23, 0, 4051.282, 3603.59, 4063.077, 4092.821, 4036.41, 0, 0, []
1632652064.2872, 24, 0, 4064.103, 3593.333, 4095.897, 4093.846, 4054.359, 0, 0, []
1632652064.295, 25, 0, 4076.41, 3587.692, 4095.897, 4101.538, 4062.564, 0, 0, []
1632652064.3029, 26, 0, 4058.974, 3612.821, 4060.513, 4104.103, 4055.385, 0, 0, []
1632652064.3108, 27, 0, 4047.179, 3640.513, 4117.436, 4113.333, 4056.41, 0, 0, []
1632652064.3188, 28, 0, 4057.949, 3634.872, 4076.923, 4118.974, 4068.718, 0, 0, []
1632652064.3267, 29, 0, 4066.154, 3634.359, 4104.103, 4116.923, 4073.846, 0, 0, []
1632652064.3347, 30, 0, 4067.179, 3666.667, 4116.923, 4112.821, 4068.205, 0, 0, []
1632652064.3425, 31, 0, 4072.308, 3669.231, 4074.359, 4101.538, 4059.487, 0, 0, []
1632652064.3505, 32, 0, 4086.667, 3648.205, 4121.538, 4096.41, 4057.436, 0, 0, []
1632652064.3584, 33, 0, 4093.846, 3660.513, 4064.103, 4107.692, 4056.41, 0, 0, []
1632652064.3662, 34, 0, 4083.077, 3664.615, 4079.487, 4121.538, 4046.667, 0, 0, []
1632652064.3741, 35, 0, 4070.769, 3642.564, 4090.769, 4114.872, 4043.59, 0, 0, []
1632652064.3818, 36, 0, 4074.359, 3646.154, 4036.41, 4103.59, 4054.359, 0, 0, []
1632652064.3897, 37, 0, 4093.333, 3672.821, 4116.923, 4118.462, 4072.308, 0, 0, []
1632652064.3975, 38, 0, 4098.974, 3692.308, 4090.256, 4130.256, 4088.718, 0, 0, []
1632652064.4054, 39, 0, 4091.282, 3704.615, 4108.718, 4120, 4095.897, 0, 0, []
1632652064.4132, 40, 0, 4085.641, 3696.923, 4137.949, 4109.231, 4096.41, 0, 0, []
1632652064.421, 41, 0, 4063.077, 3674.872, 4058.974, 4105.641, 4077.436, 0, 0, []
1632652064.4288, 42, 0, 4050.769, 3675.897, 4116.41, 4104.615, 4053.333, 0, 0, []
1632652064.4368, 43, 0, 4072.308, 3696.923, 4088.205, 4097.949, 4049.744, 0, 0, []
1632652064.4447, 44, 0, 4087.692, 3714.359, 4066.154, 4091.282, 4047.692, 0, 0, []
1632652064.4527, 45, 0, 4085.128, 3721.026, 4108.718, 4093.333, 4043.077, 0, 0, []
1632652064.4605, 46, 0, 4091.282, 3722.564, 4071.282, 4103.59, 4047.692, 0, 0, []
1632652064.4685, 47, 0, 4088.205, 3713.333, 4107.692, 4101.538, 4038.974, 0, 0, []
1632652064.4764, 48, 0, 4057.949, 3701.026, 4058.462, 4072.308, 4009.231, 0, 0, []
1632652064.4844, 49, 0, 4052.821, 3714.359, 4049.744, 4064.615, 4011.282, 0, 0, []
1632652064.4923, 50, 0, 4085.128, 3738.462, 4129.231, 4100, 4055.385, 0, 0, []
1632652064.5002, 51, 0, 4100.513, 3736.41, 4081.026, 4127.692, 4083.59, 0, 0, []
1632652064.5081, 52, 0, 4085.641, 3731.282, 4103.59, 4125.128, 4073.333, 0, 0, []
1632652064.5159, 53, 0, 4063.077, 3745.641, 4096.41, 4108.718, 4054.359, 0, 0, []
1632652064.5238, 54, 0, 4049.744, 3753.333, 4087.692, 4098.974, 4047.692, 0, 0, []
1632652064.5316, 55, 0, 4047.692, 3749.744, 4129.231, 4094.872, 4046.154, 0, 0, []
1632652064.5395, 56, 0, 4049.744, 3753.846, 4063.077, 4083.59, 4038.462, 0, 0, []
1632652064.5472, 57, 0, 4054.872, 3761.026, 4106.154, 4075.897, 4037.436, 0, 0, []
1632652064.5551, 58, 0, 4064.103, 3761.538, 4100.513, 4080.513, 4041.538, 0, 0, []
1632652064.5629, 59, 0, 4073.846, 3751.795, 4050.256, 4087.179, 4035.385, 0, 0, []
1632652064.5708, 60, 0, 4085.641, 3763.077, 4113.846, 4098.974, 4036.41, 0, 0, []
1632652064.5786, 61, 0, 4087.179, 3803.59, 4081.538, 4112.821, 4042.564, 0, 0, []
1632652064.5865, 62, 0, 4081.538, 3819.487, 4111.282, 4118.462, 4034.359, 0, 0, []
1632652064.5944, 63, 0, 4076.41, 3800, 4109.231, 4116.923, 4029.744, 0, 0, []
1632652064.6023, 64, 0, 4069.231, 3800.513, 4060.513, 4116.923, 4041.026, 450, 0, []
1632652064.6101, 65, 0, 4069.231, 3814.872, 4124.103, 4121.026, 4050.769, 450, 0, []
1632652064.6181, 66, 0, 4064.615, 3801.538, 4072.821, 4116.923, 4045.641, 16196, 0, []
1632652064.6259, 67, 0, 4056.41, 3793.333, 4084.103, 4110.256, 4042.564, 450, 0, []
1632652064.6339, 68, 0, 4059.487, 3808.205, 4110.769, 4102.564, 4047.692, 16140, 0, []
1632652064.6418, 69, 0, 4055.385, 3781.538, 4062.051, 4083.59, 4038.974, 450, 0, []
1632652064.6498, 70, 0, 4067.179, 3786.154, 4127.179, 4092.308, 4048.718, 191, 0, []
1632652064.6577, 71, 0, 4105.128, 3903.59, 4105.128, 4131.282, 4080.513, 450, 0, []
1632652064.6656, 72, 0, 4120, 3867.692, 4117.949, 4144.615, 4079.487, 450, 0, []
1632652064.6735, 73, 0, 4105.641, 3981.026, 4142.051, 4126.154, 4058.974, 16144, 0, []
1632652064.6815, 74, 0, 4094.359, 4891.795, 4048.205, 4122.051, 4061.538, 450, 0, []
1632652064.6894, 75, 0, 4096.923, 5878.462, 4104.615, 4133.846, 4081.538, 16210, 0, []
1632652064.6972, 76, 0, 4100.513, 6090.769, 4115.385, 4126.667, 4086.154, 450, 0, []
1632652064.705, 77, 0, 4101.538, 6186.667, 4078.462, 4122.564, 4068.718, 450, 0, []
1632652064.7128, 78, 0, 4103.59, 6244.615, 4095.385, 4135.897, 4069.744, 450, 0, []
1632652064.7207, 79, 0, 4097.949, 5514.359, 4058.462, 4130.769, 4090.256, 16210, 0, []
1632652064.7285, 80, 0, 4093.333, 4719.487, 4105.641, 4112.308, 4085.641, 450, 0, []
1632652064.7365, 81, 0, 4091.282, 4754.872, 4081.538, 4108.205, 4056.923, 450, 0, []
1632652064.7443, 82, 0, 4092.821, 5042.564, 4063.59, 4124.615, 4044.615, 450, 0, []
1632652064.7523, 83, 0, 4090.769, 5107.179, 4103.077, 4137.436, 4051.282, 16210, 0, []
1632652064.7602, 84, 0, 4073.333, 5083.077, 4041.026, 4127.692, 4057.949, 450, 0, []
1632652064.7682, 85, 0, 4071.795, 5285.641, 4092.821, 4123.077, 4064.103, 450, 0, []
1632652064.7761, 86, 0, 4095.897, 5912.308, 4087.692, 4130.769, 4064.615, 450, 0, []
1632652064.7841, 87, 0, 4095.897, 6491.282, 4051.282, 4123.59, 4064.615, 16210, 0, []
1632652064.7919, 88, 0, 4085.641, 6558.974, 4105.641, 4120.513, 4074.872, 450, 0, []
1632652064.7999, 89, 0, 4102.051, 6488.205, 4067.179, 4126.667, 4073.333, 450, 0, []
1632652064.8078, 90, 0, 4099.487, 6650.256, 4095.897, 4120, 4056.41, 450, 0, []
1632652064.8158, 91, 0, 4076.923, 6875.897, 4065.641, 4113.846, 4054.872, 16210, 0, []
1632652064.8237, 92, 0, 4094.359, 7005.641, 4049.231, 4131.282, 4063.59, 450, 0, []
1632652064.8314, 93, 0, 4121.538, 7130.256, 4129.231, 4140, 4075.897, 450, 0, []
1632652064.8393, 94, 0, 4115.897, 7328.205, 4052.308, 4129.231, 4085.641, 450, 0, []
1632652064.8471, 95, 0, 4109.231, 7411.795, 4080, 4139.487, 4078.462, 16210, 0, []
1632652064.855, 96, 0, 4110.256, 7353.333, 4105.641, 4150.256, 4062.051, 450, 0, []
1632652064.8628, 97, 0, 4102.564, 7415.897, 4060, 4130.256, 4049.744, 450, 0, []
1632652064.8706, 98, 0, 4101.026, 7300, 4110.769, 4123.077, 4060.513, 450, 0, []
1632652064.8784, 99, 0, 4106.667, 6964.103, 4054.872, 4143.077, 4079.487, 16210, 0, []
1632652064.8863, 100, 0, 4115.897, 7092.821, 4088.205, 4154.359, 4079.487, 450, 0, []
1632652064.8941, 101, 0, 4129.744, 7532.821, 4123.59, 4146.154, 4071.795, 450, 0, []
1632652064.902, 102, 0, 4130.769, 7589.744, 4073.333, 4143.077, 4069.231, 450, 0, []
1632652064.9098, 103, 0, 4123.59, 7431.282, 4124.615, 4145.128, 4077.436, 16210, 0, []
1632652064.9176, 104, 0, 4118.462, 7431.795, 4056.41, 4135.385, 4081.026, 450, 0, []
1632652064.9256, 105, 0, 4112.821, 7474.872, 4056.923, 4133.846, 4073.333, 450, 0, []
1632652064.9335, 106, 0, 4116.923, 7477.436, 4110.769, 4145.641, 4067.692, 450, 0, []
1632652064.9414, 107, 0, 4124.615, 7442.051, 4054.359, 4146.154, 4072.308, 16210, 0, []
1632652064.9493, 108, 0, 4130.769, 7477.436, 4095.897, 4135.897, 4082.051, 450, 0, []
1632652064.9572, 109, 0, 4138.974, 7625.128, 4080, 4137.436, 4090.256, 450, 0, []
1632652064.9652, 110, 0, 4142.051, 7568.718, 4085.128, 4149.231, 4100.513, 450, 0, []
1632652064.9731, 111, 0, 4145.641, 7566.667, 4121.026, 4159.487, 4105.641, 16210, 0, []
1632652064.9809, 112, 0, 4143.59, 7620.513, 4065.641, 4150.769, 4104.103, 450, 0, []
1632652064.9887, 113, 0, 4139.487, 6777.949, 4111.795, 4139.487, 4098.462, 450, 0, []
1632652064.9965, 114, 0, 4140.513, 5387.179, 4092.821, 4140.513, 4086.154, 450, 0, []
1632652065.0044, 115, 0, 4138.462, 4760, 4075.385, 4141.026, 4076.41, 16210, 0, []
1632652065.0122, 116, 0, 4132.308, 4706.667, 4093.333, 4132.308, 4088.718, 450, 0, []
1632652065.0201, 117, 0, 4131.282, 4469.744, 4037.436, 4125.641, 4104.615, 450, 0, []
1632652065.0279, 118, 0, 4154.359, 4266.667, 4123.077, 4141.538, 4106.154, 450, 0, []
1632652065.0357, 119, 0, 4172.308, 4229.744, 4109.231, 4160, 4118.462, 16210, 0, []
1632652065.0435, 120, 0, 4148.718, 4123.59, 4064.615, 4155.385, 4123.59, 450, 0, []
1632652065.0515, 121, 0, 4127.692, 4038.974, 4107.179, 4141.538, 4106.154, 450, 0, []
1632652065.0594, 122, 0, 4143.077, 3963.077, 4044.615, 4133.846, 4100, 450, 0, []
1632652065.0674, 123, 0, 4174.359, 3871.795, 4097.949, 4133.333, 4112.821, 16210, 0, []
1632652065.0752, 124, 0, 4190.769, 3818.974, 4078.462, 4132.308, 4134.359, 450, 0, []
1632652065.0832, 125, 0, 4211.795, 3781.026, 4042.564, 4142.564, 4180.513, 450, 0, []
1632652065.0911, 126, 0, 4277.436, 3748.718, 4144.103, 4158.974, 4241.538, 450, 0, []
1632652065.0991, 127, 0, 4336.923, 3711.282, 4091.795, 4164.103, 4273.333, 16210, 0, []
1632652065.107, 128, 0, 4345.128, 3665.128, 4107.692, 4162.564, 4288.205, 450, 0, []
1632652065.1149, 0, 0, 4351.282, 3622.564, 4137.949, 4158.974, 4306.154, 450, 0, []
1632652065.1228, 1, 0, 4361.538, 3581.538, 4092.821, 4160.513, 4294.359, 450, 0, []
1632652065.1308, 2, 0, 4339.487, 3536.41, 4130.256, 4165.641, 4277.949, 16185, 0, []
1632652065.1387, 3, 0, 4305.641, 3509.744, 4098.462, 4158.974, 4269.744, 450, 0, []
1632652065.1465, 4, 0, 4296.923, 3493.846, 4119.487, 4156.923, 4236.923, 16086, 0, []
1632652065.1543, 5, 0, 4281.538, 3453.333, 4116.923, 4159.487, 4208.718, 450, 0, []
1632652065.1621, 6, 0, 4240.513, 3412.308, 4059.487, 4133.846, 4205.641, 193, 0, []
1632652065.17, 7, 0, 4225.128, 3404.615, 4115.385, 4124.615, 4202.051, 450, 0, []
1632652065.1778, 8, 0, 4238.462, 3406.667, 4085.641, 4158.974, 4191.282, 450, 0, []
1632652065.1857, 9, 0, 4234.872, 3376.41, 4103.077, 4167.179, 4175.897, 16147, 0, []
1632652065.1934, 10, 0, 4209.231, 3338.462, 4112.821, 4146.667, 4168.718, 450, 0, []
1632652065.2013, 11, 0, 4203.077, 3345.641, 4056.41, 4150.256, 4187.179, 16190, 0, []
1632652065.2091, 12, 0, 4218.462, 3361.538, 4141.026, 4169.231, 4198.974, 450, 0, []
1632652065.2171, 13, 0, 4208.205, 3329.231, 4104.103, 4168.718, 4164.615, 450, 0, []
1632652065.225, 14, 0, 4191.282, 3294.872, 4090.769, 4166.667, 4136.41, 450, 0, []
1632652065.2329, 15, 0, 4203.59, 3305.641, 4131.282, 4180, 4161.026, 16190, 0, []
1632652065.2408, 16, 0, 4194.359, 3301.538, 4076.923, 4180.513, 4170.769, 0, 0, []
1632652065.2488, 17, 0, 4165.128, 3269.231, 4137.949, 4171.795, 4149.231, 0, 0, []
1632652065.2567, 18, 0, 4170.256, 3267.179, 4097.949, 4166.154, 4141.538, 0, 0, []
1632652065.2647, 19, 0, 4181.538, 3272.821, 4087.179, 4165.128, 4130.256, 0, 0, []
1632652065.2726, 20, 0, 4176.41, 3253.333, 4131.795, 4167.179, 4114.359, 0, 0, []
1632652065.2805, 21, 0, 4176.41, 3236.41, 4054.872, 4160.513, 4130.256, 0, 0, []
1632652065.2884, 22, 0, 4171.795, 3235.897, 4112.821, 4154.872, 4153.846, 0, 0, []
1632652065.2963, 23, 0, 4155.385, 3240, 4097.949, 4150.769, 4148.718, 0, 0, []
1632652065.3042, 24, 0, 4158.974, 3238.462, 4082.051, 4148.718, 4145.128, 0, 0, []
1632652065.312, 25, 0, 4166.154, 3228.205, 4137.949, 4148.205, 4144.103, 0, 0, []
1632652065.3198, 26, 0, 4152.308, 3230.256, 4052.821, 4147.692, 4121.026, 0, 0, []
1632652065.3276, 27, 0, 4165.641, 3254.872, 4098.462, 4168.205, 4126.667, 0, 0, []
1632652065.3355, 28, 0, 4193.333, 3263.077, 4129.231, 4186.154, 4167.179, 0, 0, []
1632652065.3433, 29, 0, 4170.256, 3236.41, 4090.256, 4174.872, 4169.231, 0, 0, []
1632652065.3512, 30, 0, 4145.641, 3222.564, 4143.077, 4166.667, 4142.051, 0, 0, []
1632652065.3589, 31, 0, 4171.282, 3233.846, 4128.718, 4180, 4141.538, 0, 0, []
1632652065.3669, 32, 0, 4204.615, 3253.333, 4163.59, 4198.974, 4152.821, 0, 0, []
1632652065.3748, 33, 0, 4195.385, 3261.538, 4150.256, 4201.026, 4149.231, 0, 0, []
1632652065.3828, 34, 0, 4165.128, 3242.564, 4096.41, 4190.256, 4140.513, 0, 0, []
1632652065.3907, 35, 0, 4155.385, 3230.256, 4133.333, 4187.179, 4142.564, 0, 0, []
1632652065.3986, 36, 0, 4157.436, 3257.436, 4087.179, 4179.487, 4144.103, 0, 0, []
1632652065.4065, 37, 0, 4160.513, 3272.308, 4127.179, 4170.256, 4139.487, 0, 0, []
1632652065.4145, 38, 0, 4171.795, 3252.308, 4140.513, 4180, 4138.974, 0, 0, []
1632652065.4224, 39, 0, 4177.949, 3263.077, 4095.897, 4193.333, 4132.308, 0, 0, []
1632652065.4304, 40, 0, 4174.872, 3287.179, 4157.436, 4190.769, 4127.179, 0, 0, []
1632652065.4382, 41, 0, 4160.513, 3260, 4081.538, 4176.923, 4128.205, 0, 0, []
1632652065.446, 42, 0, 4145.641, 3242.051, 4092.821, 4172.821, 4130.256, 0, 0, []
1632652065.4539, 43, 0, 4149.231, 3284.615, 4135.897, 4178.974, 4134.359, 0, 0, []
1632652065.4617, 44, 0, 4159.487, 3303.077, 4074.872, 4173.333, 4125.641, 0, 0, []
1632652065.4696, 45, 0, 4163.59, 3281.538, 4136.923, 4168.718, 4113.846, 0, 0, []
1632652065.4773, 46, 0, 4152.308, 3290.256, 4097.949, 4177.949, 4108.718, 0, 0, []
1632652065.4852, 47, 0, 4135.897, 3300.513, 4088.205, 4178.462, 4100.513, 0, 0, []
1632652065.493, 48, 0, 4134.359, 3280.513, 4117.436, 4158.462, 4100, 0, 0, []
1632652065.5009, 49, 0, 4140, 3267.179, 4068.718, 4154.872, 4115.385, 0, 0, []
1632652065.5087, 50, 0, 4149.744, 3284.103, 4132.821, 4176.923, 4135.897, 0, 0, []
1632652065.5167, 51, 0, 4150.769, 3309.231, 4086.154, 4169.231, 4136.41, 0, 0, []
1632652065.5245, 52, 0, 4142.051, 3311.795, 4092.308, 4146.154, 4117.949, 0, 0, []
1632652065.5325, 53, 0, 4150.769, 3310.769, 4158.462, 4165.641, 4114.872, 0, 0, []
1632652065.5404, 54, 0, 4154.359, 3325.128, 4072.821, 4181.026, 4113.333, 0, 0, []
1632652065.5484, 55, 0, 4140, 3317.949, 4117.949, 4165.128, 4104.615, 0, 0, []
1632652065.5563, 56, 0, 4136.41, 3302.564, 4121.538, 4163.077, 4112.308, 0, 0, []
1632652065.5642, 57, 0, 4137.949, 3320, 4092.308, 4181.026, 4126.667, 0, 0, []
1632652065.5721, 58, 0, 4132.821, 3326.667, 4130.769, 4187.179, 4128.205, 0, 0, []
1632652065.5801, 59, 0, 4129.231, 3317.949, 4081.538, 4173.846, 4118.462, 0, 0, []
1632652065.588, 60, 0, 4130.769, 3344.615, 4125.128, 4165.128, 4109.231, 0, 0, []
1632652065.5958, 61, 0, 4135.385, 3366.667, 4126.667, 4174.359, 4107.179, 0, 0, []
1632652065.6036, 62, 0, 4134.359, 3339.487, 4102.564, 4180.513, 4094.872, 0, 0, []
1632652065.6114, 63, 0, 4128.718, 3334.359, 4140.513, 4171.282, 4076.923, 0, 0, []
1632652065.6193, 64, 0, 4128.718, 3356.923, 4086.154, 4165.641, 4095.385, 450, 0, []
1632652065.6271, 65, 0, 4136.41, 3342.564, 4124.103, 4184.615, 4130.256, 450, 0, []
1632652065.635, 66, 0, 4139.487, 3336.41, 4122.051, 4190.256, 4131.795, 16187, 0, []
1632652065.6427, 67, 0, 4141.538, 3371.282, 4103.077, 4173.846, 4126.154, 450, 0, []
1632652065.6506, 68, 0, 4143.077, 3398.462, 4163.59, 4175.385, 4135.385, 16155, 0, []
1632652065.6584, 69, 0, 4135.897, 3388.205, 4081.538, 4187.692, 4124.103, 450, 0, []
1632652065.6663, 70, 0, 4132.821, 3369.744, 4110.769, 4186.154, 4102.051, 182, 0, []
1632652065.6741, 71, 0, 4129.744, 3371.795, 4117.949, 4169.744, 4103.077, 450, 0, []
1632652065.682, 72, 0, 4126.154, 3379.487, 4063.59, 4166.154, 4119.487, 450, 0, []
1632652065.6899, 73, 0, 4143.077, 3388.205, 4151.282, 4186.667, 4143.59, 16156, 0, []
1632652065.6979, 74, 0, 4153.846, 3397.949, 4101.538, 4192.308, 4153.333, 450, 0, []
1632652065.7058, 75, 0, 4148.718, 3408.205, 4114.872, 4185.128, 4142.051, 16180, 0, []
1632652065.7138, 76, 0, 4158.974, 3428.718, 4159.487, 4198.462, 4143.59, 450, 0, []
1632652065.7216, 77, 0, 4177.949, 3453.333, 4111.282, 4216.41, 4159.487, 450, 0, []
1632652065.7296, 78, 0, 4177.436, 3449.231, 4168.718, 4215.897, 4164.103, 450, 0, []
1632652065.7375, 79, 0, 4157.436, 3435.385, 4124.615, 4196.923, 4148.205, 16180, 0, []
1632652065.7455, 80, 0, 4143.59, 3445.641, 4111.282, 4177.949, 4138.974, 450, 0, []
1632652065.7534, 81, 0, 4149.744, 3443.59, 4150.256, 4180, 4148.205, 450, 0, []
1632652065.7612, 82, 0, 4154.872, 3429.744, 4109.231, 4199.487, 4142.051, 450, 0, []
1632652065.769, 83, 0, 4157.436, 3445.128, 4152.821, 4210.256, 4130.256, 16180, 0, []
1632652065.7768, 84, 0, 4162.564, 3460.513, 4122.564, 4199.487, 4146.154, 450, 0, []
1632652065.7847, 85, 0, 4155.385, 3451.282, 4113.333, 4193.846, 4158.974, 450, 0, []
1632652065.7925, 86, 0, 4145.128, 3465.641, 4148.718, 4196.923, 4147.692, 450, 0, []
1632652065.8004, 87, 0, 4149.744, 3508.205, 4100.513, 4192.308, 4135.897, 16180, 0, []
1632652065.8081, 88, 0, 4159.487, 3516.41, 4147.692, 4189.231, 4126.667, 450, 0, []
1632652065.816, 89, 0, 4155.385, 3494.359, 4111.795, 4188.205, 4122.051, 450, 0, []
1632652065.8238, 90, 0, 4152.308, 3496.923, 4096.923, 4190.769, 4136.41, 450, 0, []
1632652065.8318, 91, 0, 4157.949, 3511.795, 4141.538, 4190.256, 4152.821, 16180, 0, []
1632652065.8397, 92, 0, 4164.615, 3509.744, 4071.795, 4184.103, 4155.897, 450, 0, []
1632652065.8476, 93, 0, 4183.59, 3525.128, 4146.667, 4199.487, 4168.718, 450, 0, []
1632652065.8555, 94, 0, 4198.974, 3549.744, 4153.333, 4222.051, 4181.026, 450, 0, []
1632652065.8635, 95, 0, 4194.359, 3540.513, 4104.103, 4218.974, 4167.692, 16180, 0, []
1632652065.8714, 96, 0, 4184.615, 3534.359, 4149.231, 4207.179, 4163.077, 450, 0, []
1632652065.8794, 97, 0, 4171.795, 3574.359, 4089.744, 4200, 4172.308, 450, 0, []
1632652065.8872, 98, 0, 4166.667, 3596.41, 4129.744, 4195.385, 4167.179, 450, 0, []
1632652065.8952, 99, 0, 4179.487, 3570.769, 4129.744, 4197.949, 4162.564, 16180, 0, []
1632652065.9031, 100, 0, 4196.41, 3556.923, 4093.846, 4208.718, 4174.872, 450, 0, []
1632652065.9111, 101, 0, 4203.077, 3584.103, 4163.077, 4220, 4192.308, 450, 0, []
1632652065.919, 102, 0, 4183.59, 3618.974, 4110.769, 4210.256, 4186.154, 450, 0, []
1632652065.9267, 103, 0, 4160.513, 3614.872, 4135.385, 4189.231, 4161.026, 16180, 0, []
1632652065.9346, 104, 0, 4176.41, 3599.487, 4148.718, 4190.769, 4163.59, 450, 0, []
1632652065.9424, 105, 0, 4193.333, 3602.051, 4098.974, 4198.974, 4178.462, 450, 0, []
1632652065.9503, 106, 0, 4177.949, 3613.333, 4147.692, 4197.436, 4172.821, 450, 0, []
1632652065.9581, 107, 0, 4161.026, 3635.385, 4099.487, 4199.487, 4167.692, 16180, 0, []
1632652065.9659, 108, 0, 4166.667, 3657.436, 4137.949, 4215.385, 4180.513, 450, 0, []
1632652065.9737, 109, 0, 4177.949, 3664.103, 4169.744, 4225.128, 4181.026, 450, 0, []
1632652065.9817, 110, 0, 4172.308, 3650.256, 4100.513, 4223.077, 4164.615, 450, 0, []
1632652065.9896, 111, 0, 4156.923, 3634.872, 4151.282, 4224.103, 4162.564, 16180, 0, []
1632652065.9976, 112, 0, 4153.846, 3645.641, 4118.974, 4215.897, 4171.795, 450, 0, []
1632652066.0055, 113, 0, 4173.846, 3683.077, 4135.897, 4208.205, 4178.462, 450, 0, []
1632652066.0134, 114, 0, 4194.872, 3708.718, 4171.795, 4215.385, 4178.974, 450, 0, []
1632652066.0213, 115, 0, 4194.872, 3695.385, 4110.256, 4223.59, 4174.359, 16180, 0, []
1632652066.0293, 116, 0, 4186.154, 3678.462, 4160.513, 4232.308, 4183.59, 450, 0, []
1632652066.0372, 117, 0, 4175.897, 3695.897, 4123.077, 4227.179, 4195.897, 450, 0, []
1632652066.0452, 118, 0, 4175.897, 3735.385, 4122.051, 4218.974, 4187.179, 450, 0, []
1632652066.053, 119, 0, 4186.154, 3743.077, 4159.487, 4216.41, 4169.231, 16180, 0, []
