Timestamp, COUNTER, INTERPOLATED, AF3, T7, Pz, T8, AF4, RAW_CQ, MARKER_HARDWARE, MARKERS
1630164668.6387, 66, 0, 4184.103, 4277.949, 4067.692, 4144.615, 4128.205, 16181, 0, []
1630164668.6466, 67, 0, 4180.513, 4272.308, 4091.282, 4138.974, 4115.385, 450, 0, []
1630164668.6546, 68, 0, 4194.359, 4274.359, 4086.154, 4137.949, 4124.615, 16093, 0, []
1630164668.6625, 69, 0, 4201.026, 4292.308, 4105.128, 4141.538, 4146.154, 450, 0, []
1630164668.6705, 70, 0, 4181.538, 4285.128, 4101.538, 4136.923, 4137.949, 262, 0, []
1630164668.6783, 71, 0, 4186.154, 4282.564, 4080.513, 4142.051, 4137.949, 450, 0, []
1630164668.6863, 72, 0, 4216.923, 4296.923, 4109.231, 4162.564, 4161.538, 450, 0, []
1630164668.6942, 73, 0, 4219.487, 4290.256, 4091.282, 4168.205, 4162.564, 16126, 0, []
1630164668.7022, 74, 0, 4203.59, 4310.769, 4086.667, 4164.103, 4150.256, 450, 0, []
1630164668.7101, 75, 0, 4196.923, 4343.077, 4098.462, 4154.872, 4153.333, 16202, 0, []
1630164668.718, 76, 0, 4196.923, 4315.385, 4089.744, 4149.744, 4153.333, 450, 0, []
1630164668.7259, 77, 0, 4193.846, 4294.359, 4107.179, 4157.949, 4142.051, 450, 0, []
1630164668.7337, 78, 0, 4188.718, 4334.359, 4083.59, 4154.359, 4135.385, 450, 0, []
1630164668.7416, 79, 0, 4186.667, 4353.846, 4079.487, 4144.615, 4140.513, 16202, 0, []
1630164668.7494, 80, 0, 4185.128, 4333.846, 4099.487, 4143.077, 4150.769, 450, 0, []
1630164668.7572, 81, 0, 4189.231, 4322.564, 4081.538, 4145.128, 4155.897, 450, 0, []
1630164668.765, 82, 0, 4204.615, 4329.231, 4094.872, 4158.462, 4151.795, 450, 0, []
1630164668.773, 83, 0, 4218.462, 4329.744, 4097.436, 4177.436, 4154.359, 16202, 0, []
1630164668.7809, 84, 0, 4217.436, 4321.026, 4088.205, 4175.897, 4167.179, 450, 0, []
1630164668.7888, 85, 0, 4209.744, 4328.718, 4106.667, 4158.974, 4174.872, 450, 0, []
1630164668.7965, 86, 0, 4205.128, 4330.256, 4108.205, 4156.41, 4168.205, 450, 0, []
1630164668.8045, 87, 0, 4194.359, 4313.333, 4093.846, 4153.846, 4151.282, 16202, 0, []
1630164668.8124, 88, 0, 4187.692, 4306.667, 4082.051, 4145.128, 4147.692, 450, 0, []
1630164668.8204, 89, 0, 4198.462, 4313.846, 4095.897, 4155.385, 4158.974, 450, 0, []
1630164668.8283, 90, 0, 4211.282, 4309.744, 4117.949, 4170.256, 4171.795, 450, 0, []
1630164668.8362, 91, 0, 4221.538, 4303.59, 4120, 4177.949, 4189.231, 16202, 0, []
1630164668.8441, 92, 0, 4229.744, 4323.077, 4127.179, 4189.231, 4204.615, 450, 0, []
1630164668.8521, 93, 0, 4222.051, 4330.256, 4103.077, 4189.744, 4199.487, 450, 0, []
1630164668.86, 94, 0, 4206.667, 4316.41, 4087.179, 4181.026, 4178.974, 450, 0, []
1630164668.868, 95, 0, 4214.359, 4322.051, 4128.718, 4189.744, 4186.154, 16202, 0, []
1630164668.8759, 96, 0, 4229.231, 4345.128, 4101.026, 4194.359, 4216.923, 450, 0, []
1630164668.8836, 97, 0, 4232.821, 4358.462, 4084.615, 4186.667, 4218.974, 450, 0, []
1630164668.8915, 98, 0, 4244.103, 4357.436, 4195.897, 4194.359, 4213.846, 450, 0, []
1630164668.8993, 99, 0, 4244.615, 4370.256, 4132.821, 4198.462, 4233.846, 16202, 0, []
1630164668.9072, 100, 0, 4235.897, 4385.128, 4038.974, 4198.462, 4234.359, 450, 0, []
1630164668.915, 101, 0, 4236.41, 4366.154, 4142.051, 4204.615, 4217.949, 450, 0, []
1630164668.9228, 102, 0, 4229.231, 4348.205, 4137.949, 4200, 4222.051, 450, 0, []
1630164668.9306, 103, 0, 4237.436, 4366.667, 4098.974, 4210.769, 4235.385, 16202, 0, []
1630164668.9385, 104, 0, 4270.256, 4394.872, 4122.564, 4225.641, 4241.538, 450, 0, []
1630164668.9463, 105, 0, 4276.41, 4409.744, 4119.487, 4216.41, 4249.744, 450, 0, []
1630164668.9543, 106, 0, 4264.103, 4408.205, 4118.974, 4213.333, 4261.538, 450, 0, []
1630164668.9621, 107, 0, 4280, 4388.718, 4124.103, 4221.026, 4263.077, 16202, 0, []
1630164668.9701, 108, 0, 4291.795, 4377.949, 4136.41, 4214.872, 4257.949, 450, 0, []
1630164668.978, 109, 0, 4272.308, 4379.487, 4115.897, 4209.231, 4268.205, 450, 0, []
1630164668.986, 110, 0, 4273.846, 4390.769, 4129.744, 4230.256, 4287.179, 450, 0, []
1630164668.9939, 111, 0, 4298.974, 4402.051, 4121.026, 4235.897, 4286.154, 16202, 0, []
1630164669.0018, 112, 0, 4314.359, 4373.846, 4091.282, 4204.615, 4288.718, 450, 0, []
1630164669.0097, 113, 0, 4336.41, 4347.692, 4119.487, 4195.385, 4328.718, 450, 0, []
1630164669.0177, 114, 0, 4376.923, 4389.231, 4111.282, 4212.308, 4372.308, 450, 0, []
1630164669.0256, 115, 0, 4424.615, 4409.744, 4120, 4224.103, 4395.897, 16202, 0, []
1630164669.0334, 116, 0, 4461.538, 4363.077, 4109.744, 4220.513, 4410.256, 450, 0, []
1630164669.0412, 117, 0, 4469.744, 4349.744, 4096.923, 4211.795, 4413.846, 450, 0, []
1630164669.049, 118, 0, 4460.513, 4366.667, 4144.103, 4217.949, 4418.462, 450, 0, []
1630164669.0569, 119, 0, 4449.231, 4365.128, 4127.179, 4221.026, 4426.667, 16202, 0, []
1630164669.0647, 120, 0, 4434.359, 4370.256, 4131.795, 4216.41, 4414.872, 450, 0, []
1630164669.0726, 121, 0, 4410.769, 4366.667, 4144.103, 4215.897, 4387.179, 450, 0, []
1630164669.0803, 122, 0, 4377.436, 4344.103, 4117.436, 4207.692, 4353.333, 450, 0, []
1630164669.0882, 123, 0, 4360, 4346.667, 4136.923, 4198.974, 4327.179, 16202, 0, []
1630164669.096, 124, 0, 4363.077, 4364.615, 4129.744, 4198.462, 4326.154, 450, 0, []
1630164669.104, 125, 0, 4351.795, 4352.821, 4137.436, 4203.59, 4325.641, 450, 0, []
1630164669.1119, 126, 0, 4329.744, 4331.282, 4131.282, 4201.026, 4303.077, 450, 0, []
1630164669.1198, 127, 0, 4325.641, 4322.564, 4107.179, 4203.077, 4282.564, 16202, 0, []
1630164669.1277, 128, 0, 4322.051, 4319.487, 4147.179, 4211.795, 4293.333, 450, 0, []
1630164669.1357, 0, 0, 4307.692, 4313.846, 4126.667, 4199.487, 4298.462, 450, 0, []
1630164669.1436, 1, 0, 4296.923, 4308.205, 4110.769, 4186.154, 4270.769, 450, 0, []
1630164669.1516, 2, 0, 4282.564, 4314.359, 4126.154, 4179.487, 4251.795, 16181, 0, []
1630164669.1594, 3, 0, 4273.333, 4318.462, 4121.026, 4180.513, 4260.513, 450, 0, []
1630164669.1674, 4, 0, 4276.923, 4306.154, 4151.795, 4190.769, 4255.385, 16089, 0, []
1630164669.1753, 5, 0, 4273.846, 4297.436, 4121.538, 4179.487, 4230.256, 450, 0, []
1630164669.1833, 6, 0, 4257.436, 4294.872, 4112.308, 4163.59, 4227.692, 254, 0, []
1630164669.1912, 7, 0, 4252.308, 4302.051, 4138.974, 4173.333, 4233.333, 450, 0, []
1630164669.1989, 8, 0, 4265.128, 4316.923, 4104.103, 4184.615, 4228.718, 450, 0, []
1630164669.2068, 9, 0, 4261.538, 4324.615, 4118.462, 4182.051, 4228.718, 16126, 0, []
1630164669.2146, 10, 0, 4244.615, 4331.795, 4117.436, 4172.308, 4224.103, 450, 0, []
1630164669.2225, 11, 0, 4248.718, 4332.821, 4114.359, 4176.41, 4213.333, 16246, 0, []
1630164669.2303, 12, 0, 4253.846, 4317.949, 4147.179, 4186.667, 4215.385, 450, 0, []
1630164669.2382, 13, 0, 4248.205, 4309.744, 4122.051, 4183.077, 4221.538, 450, 0, []
1630164669.2459, 14, 0, 4261.538, 4309.231, 4126.667, 4191.282, 4225.641, 450, 0, []
1630164669.2538, 15, 0, 4275.897, 4320, 4125.641, 4194.359, 4233.846, 16246, 0, []
1630164669.2616, 16, 0, 4258.974, 4337.949, 4122.051, 4177.949, 4233.846, 0, 0, []
1630164669.2696, 17, 0, 4244.615, 4324.103, 4141.026, 4174.872, 4215.897, 0, 0, []
1630164669.2775, 18, 0, 4251.795, 4300, 4109.744, 4177.949, 4207.179, 0, 0, []
1630164669.2854, 19, 0, 4244.615, 4301.538, 4131.282, 4174.872, 4220.513, 0, 0, []
1630164669.2933, 20, 0, 4234.872, 4303.59, 4134.872, 4173.846, 4221.026, 0, 0, []
1630164669.3013, 21, 0, 4242.564, 4285.128, 4111.282, 4176.923, 4201.026, 0, 0, []
1630164669.3092, 22, 0, 4238.462, 4266.667, 4136.41, 4166.154, 4194.872, 0, 0, []
1630164669.3172, 23, 0, 4220, 4270.769, 4118.974, 4146.154, 4200.513, 0, 0, []
1630164669.325, 24, 0, 4227.692, 4280, 4131.795, 4156.923, 4199.487, 0, 0, []
1630164669.333, 25, 0, 4240.513, 4296.923, 4135.897, 4173.846, 4202.051, 0, 0, []
1630164669.3409, 26, 0, 4236.41, 4306.667, 4113.333, 4172.821, 4208.205, 0, 0, []
1630164669.3487, 27, 0, 4235.897, 4296.923, 4140, 4175.897, 4196.923, 0, 0, []
1630164669.3566, 28, 0, 4222.051, 4285.641, 4116.41, 4171.795, 4183.077, 0, 0, []
1630164669.3643, 29, 0, 4205.128, 4288.718, 4117.949, 4164.103, 4181.026, 0, 0, []
1630164669.3722, 30, 0, 4216.41, 4294.872, 4132.308, 4174.359, 4173.333, 0, 0, []
1630164669.38, 31, 0, 4215.385, 4280, 4106.667, 4176.923, 4167.692, 0, 0, []
1630164669.3879, 32, 0, 4196.41, 4274.872, 4127.179, 4168.718, 4183.077, 0, 0, []
1630164669.3957, 33, 0, 4198.974, 4277.436, 4114.359, 4170.769, 4189.744, 0, 0, []
1630164669.4035, 34, 0, 4201.026, 4270.769, 4113.846, 4174.872, 4171.282, 0, 0, []
1630164669.4113, 35, 0, 4192.821, 4266.154, 4121.026, 4168.718, 4165.128, 0, 0, []
1630164669.4193, 36, 0, 4200, 4270.769, 4097.949, 4167.179, 4175.897, 0, 0, []
1630164669.4272, 37, 0, 4207.179, 4289.744, 4128.205, 4180, 4185.128, 0, 0, []
1630164669.4352, 38, 0, 4204.615, 4291.282, 4105.641, 4182.051, 4186.154, 0, 0, []
1630164669.443, 39, 0, 4195.385, 4229.744, 4091.282, 4169.231, 4175.385, 0, 0, []
1630164669.451, 40, 0, 4183.077, 4151.282, 4116.41, 4163.077, 4167.692, 0, 0, []
1630164669.4589, 41, 0, 4185.641, 4140, 4093.333, 4170.256, 4166.667, 0, 0, []
1630164669.4669, 42, 0, 4201.538, 4156.41, 4112.821, 4179.487, 4174.872, 0, 0, []
1630164669.4748, 43, 0, 4200.513, 4150.769, 4113.846, 4175.897, 4188.718, 0, 0, []
1630164669.4827, 44, 0, 4186.154, 4155.897, 4113.333, 4171.282, 4178.462, 0, 0, []
1630164669.4906, 45, 0, 4180.513, 4173.846, 4124.615, 4166.154, 4158.462, 0, 0, []
1630164669.4984, 46, 0, 4191.795, 4172.821, 4091.795, 4153.333, 4164.103, 0, 0, []
1630164669.5063, 47, 0, 4200.513, 4162.051, 4120, 4150.256, 4173.846, 0, 0, []
1630164669.5141, 48, 0, 4190.769, 4154.872, 4120, 4151.282, 4167.179, 0, 0, []
1630164669.5219, 49, 0, 4182.051, 4145.641, 4097.436, 4158.974, 4161.026, 0, 0, []
1630164669.5297, 50, 0, 4178.462, 4139.487, 4107.179, 4159.487, 4151.795, 0, 0, []
1630164669.5376, 51, 0, 4168.205, 4147.179, 4070.256, 4146.667, 4146.154, 0, 0, []
1630164669.5454, 52, 0, 4167.692, 4159.487, 4095.385, 4161.026, 4152.821, 0, 0, []
1630164669.5534, 53, 0, 4181.026, 4170.256, 4115.897, 4169.744, 4160.513, 0, 0, []
1630164669.5612, 54, 0, 4184.103, 4193.846, 4102.564, 4149.744, 4167.692, 0, 0, []
1630164669.5692, 55, 0, 4186.154, 4200, 4127.692, 4150.769, 4172.821, 0, 0, []
1630164669.5771, 56, 0, 4188.718, 4185.128, 4114.359, 4159.487, 4171.282, 0, 0, []
1630164669.5851, 57, 0, 4178.974, 4189.744, 4129.744, 4161.538, 4166.667, 0, 0, []
1630164669.593, 58, 0, 4170.769, 4196.41, 4125.641, 4166.154, 4160.513, 0, 0, []
1630164669.601, 59, 0, 4167.692, 4185.641, 4101.026, 4172.308, 4159.487, 0, 0, []
1630164669.6088, 60, 0, 4158.462, 4194.872, 4125.641, 4175.385, 4151.282, 0, 0, []
1630164669.6167, 61, 0, 4149.231, 4218.462, 4093.333, 4161.026, 4141.026, 0, 0, []
1630164669.6246, 62, 0, 4163.59, 4220.513, 4111.282, 4155.385, 4151.282, 0, 0, []
1630164669.6324, 63, 0, 4185.641, 4226.667, 4139.487, 4171.282, 4163.077, 0, 0, []
1630164669.6404, 64, 0, 4177.436, 4219.487, 4103.59, 4176.41, 4155.385, 450, 0, []
1630164669.6482, 65, 0, 4155.385, 4206.667, 4115.385, 4165.641, 4150.256, 450, 0, []
1630164669.6561, 66, 0, 4151.795, 4219.487, 4107.179, 4158.974, 4153.333, 16186, 0, []
1630164669.6639, 67, 0, 4160.513, 4229.744, 4122.051, 4176.41, 4153.846, 450, 0, []
1630164669.6718, 68, 0, 4164.615, 4235.385, 4129.744, 4195.385, 4157.436, 16088, 0, []
1630164669.6796, 69, 0, 4169.231, 4243.077, 4090.769, 4186.667, 4164.103, 450, 0, []
1630164669.6874, 70, 0, 4178.974, 4251.282, 4123.077, 4172.821, 4171.282, 257, 0, []
1630164669.6952, 71, 0, 4190.769, 4253.333, 4128.205, 4173.333, 4173.333, 450, 0, []
1630164669.7031, 72, 0, 4180.513, 4243.59, 4123.077, 4177.949, 4166.154, 450, 0, []
1630164669.7109, 73, 0, 4156.41, 4218.462, 4124.615, 4168.718, 4160.513, 16120, 0, []
1630164669.7188, 74, 0, 4156.923, 4216.923, 4093.846, 4157.436, 4158.974, 450, 0, []
1630164669.7265, 75, 0, 4169.744, 4246.154, 4122.051, 4167.179, 4160.513, 16209, 0, []
1630164669.7345, 76, 0, 4166.667, 4248.205, 4110.256, 4166.154, 4155.385, 450, 0, []
1630164669.7424, 77, 0, 4157.949, 4222.564, 4098.462, 4149.231, 4144.615, 450, 0, []
1630164669.7504, 78, 0, 4165.641, 4214.872, 4124.615, 4148.718, 4148.718, 450, 0, []
1630164669.7583, 79, 0, 4181.538, 4239.487, 4101.538, 4158.974, 4165.128, 16209, 0, []
1630164669.7662, 80, 0, 4177.949, 4255.897, 4121.026, 4169.231, 4168.205, 450, 0, []
1630164669.7741, 81, 0, 4158.462, 4252.821, 4111.282, 4167.692, 4151.282, 450, 0, []
1630164669.7821, 82, 0, 4145.641, 4246.667, 4083.077, 4146.667, 4130.769, 450, 0, []
1630164669.79, 83, 0, 4145.128, 4237.949, 4097.436, 4133.333, 4124.103, 16209, 0, []
1630164669.798, 84, 0, 4136.41, 4234.872, 4072.308, 4136.41, 4123.077, 450, 0, []
1630164669.8058, 85, 0, 4132.821, 4226.154, 4091.795, 4148.205, 4118.974, 450, 0, []
1630164669.8136, 86, 0, 4145.128, 4212.821, 4092.308, 4152.821, 4123.077, 450, 0, []
1630164669.8215, 87, 0, 4150.769, 4224.615, 4074.872, 4149.231, 4140.513, 16209, 0, []
1630164669.8293, 88, 0, 4153.846, 4241.538, 4112.308, 4152.821, 4154.872, 450, 0, []
1630164669.8372, 89, 0, 4162.564, 4228.205, 4105.128, 4155.385, 4156.923, 450, 0, []
1630164669.8449, 90, 0, 4166.667, 4218.462, 4112.308, 4160.513, 4146.154, 450, 0, []
1630164669.8528, 91, 0, 4161.026, 4237.436, 4096.41, 4155.897, 4135.385, 16209, 0, []
1630164669.8606, 92, 0, 4156.41, 4245.641, 4071.795, 4143.59, 4133.846, 450, 0, []
1630164669.8685, 93, 0, 4156.41, 4235.385, 4108.205, 4141.026, 4135.897, 450, 0, []
1630164669.8763, 94, 0, 4151.795, 4217.949, 4086.667, 4138.974, 4134.872, 450, 0, []
1630164669.8842, 95, 0, 4149.744, 4202.564, 4096.41, 4153.846, 4136.41, 16209, 0, []
1630164669.8921, 96, 0, 4154.359, 4212.308, 4108.718, 4162.564, 4133.333, 450, 0, []
1630164669.9001, 97, 0, 4149.744, 4244.103, 4071.282, 4144.103, 4121.026, 450, 0, []
1630164669.908, 98, 0, 4143.59, 4255.385, 4088.718, 4137.436, 4117.949, 450, 0, []
1630164669.916, 99, 0, 4150.256, 4228.718, 4084.103, 4141.538, 4125.641, 16209, 0, []
1630164669.9239, 100, 0, 4162.564, 4206.154, 4093.846, 4149.744, 4130.769, 450, 0, []
1630164669.9318, 101, 0, 4174.359, 4220, 4099.487, 4160.513, 4143.077, 450, 0, []
1630164669.9397, 102, 0, 4182.564, 4236.923, 4073.846, 4170.256, 4161.026, 450, 0, []
1630164669.9477, 103, 0, 4177.949, 4196.41, 4106.667, 4173.333, 4155.897, 16209, 0, []
1630164669.9556, 104, 0, 4163.59, 4139.487, 4093.846, 4162.564, 4141.026, 450, 0, []
1630164669.9634, 105, 0, 4162.564, 4135.897, 4088.718, 4160, 4137.436, 450, 0, []
1630164669.9712, 106, 0, 4171.795, 4143.59, 4108.718, 4165.128, 4131.795, 450, 0, []
1630164669.979, 107, 0, 4171.795, 4124.615, 4082.051, 4163.077, 4128.718, 16209, 0, []
1630164669.9869, 108, 0, 4166.154, 4121.538, 4107.179, 4160, 4133.333, 450, 0, []
1630164669.9947, 109, 0, 4167.692, 4135.897, 4103.077, 4155.385, 4129.744, 450, 0, []
1630164670.0026, 110, 0, 4172.308, 4152.821, 4095.897, 4152.821, 4121.538, 450, 0, []
1630164670.0103, 111, 0, 4171.282, 4197.436, 4109.744, 4155.385, 4117.949, 16209, 0, []
1630164670.0182, 112, 0, 4176.923, 4228.718, 4078.462, 4156.41, 4122.564, 450, 0, []
1630164670.026, 113, 0, 4190.769, 4222.051, 4100.513, 4163.077, 4132.308, 450, 0, []
1630164670.0339, 114, 0, 4187.692, 4241.026, 4089.744, 4160.513, 4129.744, 450, 0, []
1630164670.0417, 115, 0, 4171.282, 4271.282, 4079.487, 4159.487, 4122.564, 16209, 0, []
1630164670.0496, 116, 0, 4170.769, 4256.41, 4114.872, 4163.59, 4127.692, 450, 0, []
1630164670.0575, 117, 0, 4173.846, 4249.744, 4074.872, 4151.282, 4126.667, 450, 0, []
1630164670.0655, 118, 0, 4170.256, 4259.487, 4080.513, 4155.385, 4122.564, 450, 0, []
1630164670.0734, 119, 0, 4178.462, 4235.897, 4098.462, 4176.923, 4136.923, 16209, 0, []
1630164670.0814, 120, 0, 4187.179, 4237.436, 4088.205, 4173.846, 4148.205, 450, 0, []
1630164670.0892, 121, 0, 4186.154, 4270.256, 4106.154, 4158.974, 4142.051, 450, 0, []
1630164670.0972, 122, 0, 4190.256, 4257.949, 4090.769, 4162.564, 4135.385, 450, 0, []
1630164670.1051, 123, 0, 4186.667, 4235.897, 4110.769, 4173.846, 4137.949, 16209, 0, []
1630164670.1129, 124, 0, 4178.462, 4264.103, 4111.282, 4173.333, 4150.769, 450, 0, []
1630164670.1208, 125, 0, 4188.205, 4278.462, 4084.615, 4171.795, 4157.949, 450, 0, []
1630164670.1285, 126, 0, 4189.744, 4265.128, 4108.205, 4173.333, 4150.256, 450, 0, []
1630164670.1364, 127, 0, 4170.769, 4268.205, 4086.154, 4167.692, 4140.513, 16209, 0, []
1630164670.1442, 128, 0, 4167.692, 4250.769, 4088.205, 4163.59, 4141.026, 450, 0, []
1630164670.1521, 0, 0, 4173.333, 4241.026, 4093.846, 4164.103, 4152.821, 450, 0, []
1630164670.1599, 1, 0, 4166.667, 4274.872, 4078.974, 4166.154, 4149.744, 450, 0, []
1630164670.1677, 2, 0, 4170.769, 4279.487, 4114.872, 4167.692, 4142.051, 16186, 0, []
1630164670.1755, 3, 0, 4184.103, 4243.59, 4089.231, 4156.41, 4149.744, 450, 0, []
1630164670.1835, 4, 0, 4186.154, 4237.949, 4084.103, 4151.282, 4150.769, 16089, 0, []
1630164670.1914, 5, 0, 4183.077, 4262.051, 4100, 4153.846, 4144.103, 450, 0, []
1630164670.1994, 6, 0, 4187.179, 4272.308, 4073.846, 4149.231, 4148.205, 257, 0, []
1630164670.2072, 7, 0, 4185.641, 4264.103, 4096.923, 4148.205, 4139.487, 450, 0, []
1630164670.2152, 8, 0, 4171.282, 4253.333, 4078.974, 4138.462, 4123.59, 450, 0, []
1630164670.2231, 9, 0, 4164.103, 4240.513, 4077.949, 4132.821, 4131.795, 16121, 0, []
1630164670.2311, 10, 0, 4174.872, 4228.718, 4101.026, 4139.487, 4137.949, 450, 0, []
1630164670.239, 11, 0, 4179.487, 4225.128, 4070.256, 4141.026, 4132.308, 16202, 0, []
1630164670.2469, 12, 0, 4175.385, 4233.846, 4093.333, 4148.718, 4137.436, 450, 0, []
1630164670.2548, 13, 0, 4176.41, 4253.333, 4087.692, 4147.692, 4143.077, 450, 0, []
1630164670.2628, 14, 0, 4174.872, 4247.692, 4072.821, 4134.872, 4139.487, 450, 0, []
1630164670.2707, 15, 0, 4170.769, 4215.897, 4087.692, 4129.744, 4137.949, 16202, 0, []
1630164670.2785, 16, 0, 4169.231, 4205.641, 4063.59, 4125.641, 4139.487, 0, 0, []
1630164670.2864, 17, 0, 4169.744, 4231.282, 4084.615, 4128.718, 4138.462, 0, 0, []
1630164670.2941, 18, 0, 4180, 4246.667, 4085.641, 4138.462, 4142.564, 0, 0, []
1630164670.302, 19, 0, 4185.128, 4216.41, 4088.205, 4148.718, 4146.154, 0, 0, []
1630164670.3098, 20, 0, 4172.308, 4192.821, 4109.744, 4145.641, 4140.513, 0, 0, []
1630164670.3177, 21, 0, 4165.641, 4211.282, 4065.128, 4124.103, 4145.128, 0, 0, []
1630164670.3255, 22, 0, 4174.359, 4218.974, 4077.949, 4121.026, 4153.333, 0, 0, []
1630164670.3334, 23, 0, 4173.846, 4186.667, 4087.179, 4127.692, 4137.949, 0, 0, []
1630164670.3413, 24, 0, 4165.128, 4184.615, 4074.359, 4116.41, 4119.487, 0, 0, []
1630164670.3493, 25, 0, 4167.692, 4210.769, 4096.923, 4107.692, 4123.59, 0, 0, []
1630164670.3572, 26, 0, 4172.308, 4185.128, 4074.359, 4110.256, 4131.282, 0, 0, []
1630164670.3652, 27, 0, 4164.615, 4188.205, 4092.308, 4120, 4133.846, 0, 0, []
1630164670.373, 28, 0, 4161.538, 4245.128, 4091.795, 4127.692, 4139.487, 0, 0, []
1630164670.381, 29, 0, 4170.769, 4229.744, 4065.641, 4125.128, 4148.718, 0, 0, []
1630164670.3889, 30, 0, 4175.385, 4190.256, 4102.564, 4126.667, 4154.872, 0, 0, []
1630164670.3969, 31, 0, 4168.205, 4228.718, 4088.205, 4127.179, 4144.615, 0, 0, []
1630164670.4048, 32, 0, 4161.026, 4250.769, 4094.872, 4124.615, 4135.385, 0, 0, []
1630164670.4127, 33, 0, 4164.103, 4219.487, 4105.128, 4124.103, 4145.641, 0, 0, []
1630164670.4206, 34, 0, 4163.077, 4221.538, 4084.615, 4122.564, 4137.949, 0, 0, []
1630164670.4284, 35, 0, 4155.385, 4246.154, 4117.436, 4121.026, 4117.949, 0, 0, []
1630164670.4363, 36, 0, 4160.513, 4243.59, 4098.974, 4121.538, 4127.692, 0, 0, []
1630164670.4441, 37, 0, 4170.769, 4216.41, 4089.231, 4128.205, 4138.462, 0, 0, []
1630164670.4519, 38, 0, 4163.077, 4200.513, 4085.641, 4122.564, 4116.923, 0, 0, []
1630164670.4597, 39, 0, 4148.205, 4231.795, 4057.436, 4110.769, 4095.897, 0, 0, []
1630164670.4676, 40, 0, 4138.462, 4249.231, 4086.667, 4112.821, 4090.769, 0, 0, []
1630164670.4754, 41, 0, 4135.385, 4216.923, 4060.513, 4111.282, 4090.769, 0, 0, []
1630164670.4833, 42, 0, 4156.41, 4218.462, 4062.564, 4119.487, 4107.179, 0, 0, []
1630164670.491, 43, 0, 4171.282, 4255.385, 4106.667, 4131.795, 4130.256, 0, 0, []
1630164670.4989, 44, 0, 4157.949, 4246.154, 4086.667, 4128.718, 4128.205, 0, 0, []
1630164670.5067, 45, 0, 4149.231, 4222.564, 4104.103, 4123.077, 4118.462, 0, 0, []
1630164670.5147, 46, 0, 4157.949, 4231.795, 4093.846, 4116.923, 4122.051, 0, 0, []
1630164670.5226, 47, 0, 4167.179, 4247.179, 4084.103, 4120, 4121.538, 0, 0, []
1630164670.5305, 48, 0, 4171.795, 4258.974, 4103.077, 4129.744, 4122.564, 0, 0, []
1630164670.5384, 49, 0, 4170.256, 4261.538, 4075.385, 4126.154, 4131.282, 0, 0, []
1630164670.5464, 50, 0, 4161.538, 4232.821, 4094.359, 4122.564, 4128.205, 0, 0, []
1630164670.5543, 51, 0, 4162.564, 4220.513, 4093.846, 4121.538, 4123.59, 0, 0, []
1630164670.5623, 52, 0, 4170.256, 4229.744, 4081.538, 4117.949, 4125.641, 0, 0, []
1630164670.5701, 53, 0, 4174.359, 4218.462, 4094.359, 4121.026, 4124.103, 0, 0, []
1630164670.5781, 54, 0, 4173.846, 4210.256, 4066.667, 4129.744, 4122.051, 0, 0, []
1630164670.586, 55, 0, 4162.564, 4209.744, 4088.205, 4138.462, 4116.923, 0, 0, []
1630164670.5938, 56, 0, 4150.256, 4191.282, 4089.231, 4143.59, 4109.744, 0, 0, []
1630164670.6017, 57, 0, 4148.718, 4177.436, 4091.282, 4154.872, 4114.359, 0, 0, []
1630164670.6094, 58, 0, 4155.385, 4183.077, 4130.769, 4164.615, 4126.154, 0, 0, []
1630164670.6173, 59, 0, 4155.385, 4171.282, 4092.821, 4152.308, 4130.769, 0, 0, []
1630164670.6251, 60, 0, 4161.026, 4148.718, 4095.385, 4148.718, 4142.564, 0, 0, []
1630164670.633, 61, 0, 4183.59, 4148.205, 4112.821, 4163.077, 4168.205, 0, 0, []
1630164670.641, 62, 0, 4185.641, 4165.128, 4102.564, 4165.641, 4163.59, 0, 0, []
1630164670.649, 63, 0, 4162.051, 4200.513, 4120.513, 4163.077, 4132.308, 0, 0, []
1630164670.6568, 64, 0, 4150.769, 4223.59, 4083.59, 4160, 4120.513, 450, 0, []
1630164670.6648, 65, 0, 4149.231, 4212.308, 4084.615, 4145.128, 4119.487, 450, 0, []
1630164670.6727, 66, 0, 4138.974, 4195.385, 4088.718, 4122.564, 4112.308, 16186, 0, []
1630164670.6807, 67, 0, 4129.231, 4183.59, 4056.923, 4111.795, 4109.231, 450, 0, []
1630164670.6886, 68, 0, 4132.308, 4190.256, 4077.436, 4116.923, 4111.282, 16089, 0, []
1630164670.6965, 69, 0, 4150.256, 4225.641, 4064.615, 4116.41, 4110.256, 450, 0, []
1630164670.7044, 70, 0, 4170.769, 4237.436, 4081.538, 4132.308, 4126.154, 256, 0, []
1630164670.7124, 71, 0, 4175.897, 4224.615, 4102.051, 4157.949, 4152.821, 450, 0, []
1630164670.7203, 72, 0, 4174.872, 4231.795, 4077.436, 4157.436, 4156.41, 450, 0, []
1630164670.7281, 73, 0, 4185.641, 4230.769, 4103.077, 4157.436, 4151.795, 16123, 0, []
1630164670.7359, 74, 0, 4189.744, 4199.487, 4087.692, 4163.59, 4154.872, 450, 0, []
1630164670.7437, 75, 0, 4186.154, 4190.769, 4092.308, 4166.154, 4152.821, 16200, 0, []
1630164670.7516, 76, 0, 4186.154, 4216.923, 4109.744, 4162.051, 4144.103, 450, 0, []
1630164670.7594, 77, 0, 4171.795, 4237.436, 4070.769, 4151.795, 4134.872, 450, 0, []
1630164670.7673, 78, 0, 4148.718, 4230.256, 4085.128, 4148.205, 4127.692, 450, 0, []
1630164670.775, 79, 0, 4142.564, 4219.487, 4066.667, 4134.872, 4116.923, 16200, 0, []
1630164670.7829, 80, 0, 4146.667, 4244.615, 4057.949, 4120, 4108.718, 450, 0, []
1630164670.7907, 81, 0, 4157.949, 4266.667, 4096.41, 4129.744, 4111.282, 450, 0, []
1630164670.7987, 82, 0, 4178.974, 4245.128, 4081.538, 4147.692, 4124.103, 450, 0, []
1630164670.8066, 83, 0, 4185.128, 4245.641, 4100.513, 4149.231, 4129.744, 16200, 0, []
1630164670.8145, 84, 0, 4170.769, 4254.872, 4092.308, 4133.333, 4116.41, 450, 0, []
1630164670.8224, 85, 0, 4162.051, 4220, 4078.974, 4133.846, 4106.667, 450, 0, []
1630164670.8304, 86, 0, 4165.128, 4225.128, 4105.128, 4153.846, 4115.897, 450, 0, []
1630164670.8383, 87, 0, 4174.359, 4280, 4084.615, 4160, 4133.846, 16200, 0, []
1630164670.8463, 88, 0, 4189.231, 4275.385, 4106.154, 4160.513, 4151.282, 450, 0, []
1630164670.8541, 89, 0, 4192.308, 4254.872, 4102.051, 4168.205, 4155.385, 450, 0, []
1630164670.8621, 90, 0, 4182.564, 4296.41, 4076.41, 4173.333, 4144.103, 450, 0, []
1630164670.87, 91, 0, 4184.103, 4316.41, 4092.308, 4163.59, 4133.846, 16200, 0, []
1630164670.878, 92, 0, 4189.744, 4285.128, 4063.59, 4148.718, 4137.949, 450, 0, []
1630164670.8859, 93, 0, 4190.256, 4271.282, 4085.641, 4154.872, 4142.051, 450, 0, []
1630164670.8936, 94, 0, 4183.59, 4287.179, 4092.821, 4163.077, 4140.513, 450, 0, []
1630164670.9015, 95, 0, 4172.308, 4323.59, 4070.769, 4161.538, 4147.692, 16200, 0, []
1630164670.9093, 96, 0, 4171.282, 4337.436, 4105.128, 4163.59, 4157.436, 450, 0, []
1630164670.9172, 97, 0, 4176.41, 4306.667, 4091.282, 4162.564, 4148.205, 450, 0, []
1630164670.925, 98, 0, 4169.744, 4296.923, 4093.846, 4163.59, 4123.077, 450, 0, []
1630164670.9328, 99, 0, 4165.641, 4317.949, 4092.821, 4160, 4117.949, 16200, 0, []
1630164670.9406, 100, 0, 4179.487, 4302.564, 4082.564, 4155.897, 4142.564, 450, 0, []
1630164670.9486, 101, 0, 4186.667, 4284.615, 4121.538, 4163.59, 4149.744, 450, 0, []
1630164670.9565, 102, 0, 4170.769, 4299.487, 4095.897, 4164.615, 4129.744, 450, 0, []
1630164670.9645, 103, 0, 4152.821, 4280.513, 4098.974, 4167.692, 4116.923, 16200, 0, []
1630164670.9723, 104, 0, 4152.308, 4264.615, 4119.487, 4171.795, 4118.974, 450, 0, []
1630164670.9803, 105, 0, 4164.615, 4303.59, 4093.846, 4162.564, 4120.513, 450, 0, []
1630164670.9882, 106, 0, 4172.821, 4298.462, 4108.205, 4163.077, 4118.974, 450, 0, []
1630164670.9962, 107, 0, 4167.692, 4266.667, 4086.154, 4165.128, 4123.59, 16200, 0, []
1630164671.0041, 108, 0, 4166.154, 4310.256, 4095.897, 4165.641, 4138.974, 450, 0, []
1630164671.0121, 109, 0, 4190.256, 4349.744, 4122.564, 4176.41, 4155.897, 450, 0, []
1630164671.0199, 110, 0, 4200.513, 4324.103, 4091.795, 4178.462, 4155.897, 450, 0, []
1630164671.0279, 111, 0, 4185.128, 4325.128, 4107.692, 4173.846, 4152.821, 16200, 0, []
1630164671.0358, 112, 0, 4189.744, 4349.231, 4095.897, 4170.769, 4152.821, 450, 0, []
1630164671.0436, 113, 0, 4206.667, 4324.103, 4099.487, 4178.974, 4151.795, 450, 0, []
1630164671.0515, 114, 0, 4206.667, 4309.744, 4125.641, 4188.718, 4162.051, 450, 0, []
1630164671.0592, 115, 0, 4200, 4315.897, 4089.231, 4178.974, 4170.256, 16200, 0, []
1630164671.0671, 116, 0, 4198.462, 4299.487, 4103.59, 4178.462, 4162.051, 450, 0, []
1630164671.0749, 117, 0, 4201.026, 4307.692, 4103.077, 4195.385, 4148.718, 450, 0, []
1630164671.0828, 118, 0, 4198.974, 4320.513, 4098.462, 4196.41, 4149.744, 450, 0, []
1630164671.0906, 119, 0, 4187.692, 4297.436, 4113.846, 4185.128, 4154.359, 16200, 0, []
1630164671.0984, 120, 0, 4185.641, 4302.051, 4096.41, 4186.667, 4147.692, 450, 0, []
1630164671.1062, 121, 0, 4195.897, 4335.385, 4138.974, 4198.462, 4158.462, 450, 0, []
1630164671.1141, 122, 0, 4212.308, 4332.308, 4134.359, 4206.154, 4193.333, 450, 0, []
1630164671.1219, 123, 0, 4222.564, 4318.974, 4100.513, 4214.359, 4201.026, 16200, 0, []
1630164671.1299, 124, 0, 4206.154, 4322.051, 4117.949, 4202.564, 4171.282, 450, 0, []
1630164671.1377, 125, 0, 4191.795, 4317.949, 4100, 4182.051, 4160, 450, 0, []
1630164671.1457, 126, 0, 4218.974, 4330.769, 4113.846, 4195.897, 4174.359, 450, 0, []
1630164671.1536, 127, 0, 4262.051, 4346.667, 4109.744, 4197.436, 4188.718, 16200, 0, []
1630164671.1616, 128, 0, 4294.359, 4333.846, 4106.667, 4185.641, 4215.897, 450, 0, []
1630164671.1695, 0, 0, 4329.231, 4330.256, 4148.205, 4205.128, 4243.077, 450, 0, []
1630164671.1774, 1, 0, 4346.154, 4347.692, 4114.872, 4211.795, 4243.077, 450, 0, []
1630164671.1853, 2, 0, 4328.205, 4367.692, 4107.692, 4190.256, 4229.231, 16185, 0, []
1630164671.1931, 3, 0, 4297.949, 4362.051, 4100, 4169.231, 4219.487, 450, 0, []
1630164671.201, 4, 0, 4277.949, 4336.41, 4080, 4164.103, 4207.692, 16089, 0, []
1630164671.2088, 5, 0, 4270.769, 4330.769, 4093.846, 4166.154, 4185.128, 450, 0, []
1630164671.2166, 6, 0, 4260.513, 4332.821, 4095.385, 4152.821, 4163.077, 255, 0, []
1630164671.2244, 7, 0, 4252.821, 4321.538, 4129.744, 4151.795, 4162.051, 450, 0, []
1630164671.2323, 8, 0, 4264.615, 4324.103, 4032.308, 4158.462, 4172.821, 450, 0, []
1630164671.2401, 9, 0, 4264.615, 4341.538, 4035.897, 4149.744, 4165.641, 16123, 0, []
1630164671.248, 10, 0, 4232.821, 4320.513, 4170.769, 4134.872, 4144.615, 450, 0, []
1630164671.2557, 11, 0, 4228.718, 4292.308, 4091.795, 4144.615, 4147.692, 16198, 0, []
1630164671.2636, 12, 0, 4263.59, 4311.282, 4109.231, 4180, 4174.359, 450, 0, []
1630164671.2714, 13, 0, 4257.949, 4328.205, 4157.949, 4172.308, 4179.487, 450, 0, []
1630164671.2794, 14, 0, 4218.462, 4300, 4074.872, 4132.821, 4149.744, 450, 0, []
1630164671.2873, 15, 0, 4206.667, 4254.872, 4078.462, 4116.923, 4129.231, 16198, 0, []
1630164671.2952, 16, 0, 4213.846, 4245.641, 4080.513, 4127.692, 4142.051, 0, 0, []
1630164671.3031, 17, 0, 4221.538, 4246.667, 4089.231, 4152.308, 4151.282, 0, 0, []
1630164671.3111, 18, 0, 4234.872, 4237.949, 4100, 4158.462, 4152.821, 0, 0, []
1630164671.319, 19, 0, 4245.641, 4240.513, 4085.641, 4158.974, 4174.872, 0, 0, []
1630164671.327, 20, 0, 4253.846, 4241.538, 4114.359, 4176.41, 4194.872, 0, 0, []
1630164671.3349, 21, 0, 4252.308, 4252.821, 4104.615, 4166.154, 4180.513, 0, 0, []
1630164671.3428, 22, 0, 4221.026, 4257.949, 4095.897, 4133.846, 4149.231, 0, 0, []
1630164671.3507, 23, 0, 4203.077, 4216.923, 4107.692, 4131.795, 4142.564, 0, 0, []
1630164671.3585, 24, 0, 4238.974, 4197.436, 4092.821, 4148.718, 4169.231, 0, 0, []
1630164671.3664, 25, 0, 4257.436, 4234.872, 4112.821, 4155.385, 4188.718, 0, 0, []
1630164671.3742, 26, 0, 4235.385, 4252.821, 4101.538, 4152.821, 4190.769, 0, 0, []
1630164671.382, 27, 0, 4237.436, 4243.59, 4097.436, 4161.026, 4201.026, 0, 0, []
1630164671.3898, 28, 0, 4250.256, 4253.333, 4124.103, 4171.282, 4203.077, 0, 0, []
1630164671.3977, 29, 0, 4237.949, 4244.615, 4087.179, 4168.205, 4185.128, 0, 0, []
1630164671.4055, 30, 0, 4241.026, 4198.974, 4083.59, 4162.564, 4185.128, 0, 0, []
1630164671.4134, 31, 0, 4255.897, 4181.538, 4115.385, 4160, 4207.692, 0, 0, []
1630164671.4211, 32, 0, 4242.051, 4190.256, 4104.615, 4149.231, 4203.59, 0, 0, []
1630164671.429, 33, 0, 4215.385, 4188.205, 4073.333, 4124.103, 4171.282, 0, 0, []
1630164671.4368, 34, 0, 4208.205, 4189.744, 4062.564, 4111.795, 4156.41, 0, 0, []
1630164671.4448, 35, 0, 4229.231, 4196.923, 4097.949, 4133.846, 4171.795, 0, 0, []
1630164671.4527, 36, 0, 4250.769, 4184.103, 4088.718, 4144.103, 4189.744, 0, 0, []
1630164671.4606, 37, 0, 4239.487, 4169.744, 4083.59, 4134.872, 4186.154, 0, 0, []
1630164671.4685, 38, 0, 4225.128, 4185.128, 4107.179, 4141.026, 4173.333, 0, 0, []
1630164671.4765, 39, 0, 4237.436, 4189.744, 4070.256, 4150.256, 4180, 0, 0, []
1630164671.4844, 40, 0, 4240.513, 4173.333, 4077.436, 4151.282, 4188.205, 0, 0, []
1630164671.4924, 41, 0, 4216.923, 4151.795, 4076.41, 4148.718, 4164.103, 0, 0, []
1630164671.5002, 42, 0, 4207.692, 4141.026, 4062.051, 4138.462, 4148.718, 0, 0, []
1630164671.5082, 43, 0, 4218.462, 4159.487, 4105.128, 4131.795, 4170.256, 0, 0, []
1630164671.5161, 44, 0, 4221.026, 4164.103, 4083.077, 4136.41, 4171.795, 0, 0, []
1630164671.5239, 45, 0, 4220, 4139.487, 4081.538, 4149.744, 4165.641, 0, 0, []
1630164671.5318, 46, 0, 4232.821, 4140.513, 4103.59, 4165.641, 4195.385, 0, 0, []
1630164671.5395, 47, 0, 4241.538, 4162.051, 4095.897, 4169.231, 4205.641, 0, 0, []
1630164671.5474, 48, 0, 4228.205, 4140.513, 4102.564, 4150.769, 4178.974, 0, 0, []
1630164671.5552, 49, 0, 4209.744, 4104.103, 4071.795, 4127.179, 4163.59, 0, 0, []
1630164671.5631, 50, 0, 4197.949, 4100, 4079.487, 4121.026, 4152.821, 0, 0, []
1630164671.5709, 51, 0, 4197.436, 4132.308, 4094.359, 4134.872, 4150.256, 0, 0, []
1630164671.5787, 52, 0, 4207.692, 4154.359, 4073.846, 4149.744, 4164.103, 0, 0, []
1630164671.5865, 53, 0, 4220, 4112.821, 4087.179, 4144.615, 4165.641, 0, 0, []
1630164671.5945, 54, 0, 4217.949, 4080.513, 4066.154, 4125.128, 4155.897, 0, 0, []
1630164671.6024, 55, 0, 4200.513, 4120.513, 4064.615, 4121.026, 4143.59, 0, 0, []
1630164671.6104, 56, 0, 4195.897, 4165.641, 4073.846, 4124.103, 4133.846, 0, 0, []
1630164671.6182, 57, 0, 4208.718, 4163.077, 4063.077, 4131.282, 4142.564, 0, 0, []
1630164671.6261, 58, 0, 4216.41, 4168.205, 4102.564, 4145.128, 4154.359, 0, 0, []
1630164671.6341, 59, 0, 4215.897, 4178.462, 4093.333, 4133.846, 4157.436, 0, 0, []
1630164671.6421, 60, 0, 4213.846, 4152.821, 4082.564, 4125.128, 4156.41, 0, 0, []
1630164671.65, 61, 0, 4214.359, 4138.974, 4094.872, 4145.128, 4151.282, 0, 0, []
1630164671.6579, 62, 0, 4225.641, 4166.667, 4076.41, 4161.026, 4167.692, 0, 0, []
1630164671.6658, 63, 0, 4244.615, 4191.795, 4108.718, 4167.692, 4202.564, 0, 0, []
1630164671.6736, 64, 0, 4249.231, 4180, 4100, 4165.128, 4195.897, 450, 0, []
1630164671.6815, 65, 0, 4227.179, 4161.026, 4064.103, 4143.077, 4162.051, 450, 0, []
1630164671.6893, 66, 0, 4218.974, 4159.487, 4130.769, 4139.487, 4162.051, 16185, 0, []
1630164671.6972, 67, 0, 4246.154, 4175.385, 4098.974, 4161.538, 4182.051, 450, 0, []
1630164671.7049, 68, 0, 4256.923, 4178.462, 4010.256, 4164.615, 4184.615, 16089, 0, []
1630164671.7128, 69, 0, 4233.333, 4144.103, 4099.487, 4158.974, 4170.256, 450, 0, []
1630164671.7206, 70, 0, 4208.718, 4118.974, 4120, 4145.641, 4146.154, 256, 0, []
1630164671.7286, 71, 0, 4198.974, 4131.282, 4053.333, 4132.821, 4138.974, 450, 0, []
1630164671.7365, 72, 0, 4207.692, 4147.692, 4085.641, 4144.615, 4153.333, 450, 0, []
1630164671.7444, 73, 0, 4214.872, 4122.051, 4111.282, 4153.846, 4157.436, 16133, 0, []
1630164671.7523, 74, 0, 4197.436, 4092.308, 4075.897, 4137.949, 4139.487, 450, 0, []
1630164671.7603, 75, 0, 4192.308, 4117.436, 4058.462, 4125.641, 4129.744, 16203, 0, []
1630164671.7682, 76, 0, 4229.744, 4146.667, 4109.231, 4144.103, 4165.641, 450, 0, []
1630164671.7762, 77, 0, 4250.256, 4131.282, 4103.59, 4161.026, 4198.462, 450, 0, []
1630164671.784, 78, 0, 4221.538, 4111.282, 4083.59, 4151.282, 4171.282, 450, 0, []
1630164671.792, 79, 0, 4205.641, 4137.436, 4106.154, 4144.103, 4151.795, 16203, 0, []
1630164671.7999, 80, 0, 4227.179, 4162.051, 4083.077, 4152.308, 4182.564, 450, 0, []
1630164671.8079, 81, 0, 4234.359, 4125.641, 4083.077, 4161.026, 4188.718, 450, 0, []
1630164671.8158, 82, 0, 4197.949, 4094.872, 4074.872, 4155.897, 4158.462, 450, 0, []
1630164671.8235, 83, 0, 4177.436, 4127.179, 4078.974, 4149.744, 4146.154, 16203, 0, []
1630164671.8314, 84, 0, 4202.051, 4147.179, 4101.026, 4150.256, 4156.923, 450, 0, []
1630164671.8392, 85, 0, 4221.026, 4127.692, 4093.846, 4155.897, 4174.872, 450, 0, []
1630164671.8471, 86, 0, 4222.564, 4141.538, 4126.154, 4167.692, 4188.205, 450, 0, []
1630164671.8549, 87, 0, 4240, 4182.564, 4115.897, 4168.718, 4189.231, 16203, 0, []
1630164671.8627, 88, 0, 4252.821, 4171.282, 4098.974, 4166.154, 4187.692, 450, 0, []
1630164671.8705, 89, 0, 4233.333, 4141.026, 4107.179, 4165.128, 4178.462, 450, 0, []
1630164671.8785, 90, 0, 4216.41, 4150.256, 4078.462, 4149.231, 4169.744, 450, 0, []
1630164671.8864, 91, 0, 4220.513, 4156.41, 4101.026, 4138.974, 4166.667, 16203, 0, []
1630164671.8944, 92, 0, 4215.897, 4135.897, 4093.333, 4142.051, 4146.154, 450, 0, []
1630164671.9022, 93, 0, 4208.205, 4136.41, 4082.564, 4149.231, 4141.026, 450, 0, []
1630164671.9102, 94, 0, 4218.462, 4180.513, 4111.795, 4161.026, 4172.308, 450, 0, []
1630164671.9181, 95, 0, 4210.769, 4185.128, 4075.385, 4147.692, 4169.231, 16203, 0, []
1630164671.9261, 96, 0, 4177.949, 4141.538, 4085.641, 4126.667, 4133.846, 450, 0, []
1630164671.934, 97, 0, 4192.308, 4155.385, 4119.487, 4150.256, 4148.205, 450, 0, []
1630164671.9419, 98, 0, 4236.41, 4189.231, 4123.59, 4183.59, 4186.154, 450, 0, []
1630164671.9498, 99, 0, 4222.051, 4162.051, 4107.692, 4168.205, 4169.744, 16203, 0, []
1630164671.9578, 100, 0, 4186.667, 4138.462, 4067.179, 4142.564, 4134.359, 450, 0, []
1630164671.9657, 101, 0, 4205.128, 4176.923, 4103.077, 4156.41, 4152.821, 450, 0, []
1630164671.9736, 102, 0, 4236.41, 4198.974, 4117.949, 4175.385, 4196.41, 450, 0, []
1630164671.9814, 103, 0, 4232.308, 4166.154, 4110.256, 4173.333, 4192.821, 16203, 0, []
1630164671.9892, 104, 0, 4215.385, 4152.821, 4085.641, 4154.872, 4165.128, 450, 0, []
1630164671.9971, 105, 0, 4205.128, 4156.923, 4088.718, 4146.667, 4167.179, 450, 0, []
1630164672.0049, 106, 0, 4206.154, 4138.974, 4172.308, 4158.974, 4172.308, 450, 0, []
1630164672.0128, 107, 0, 4226.667, 4143.077, 4009.231, 4146.154, 4183.077, 16203, 0, []
1630164672.0205, 108, 0, 4263.077, 4187.692, 3990.256, 4153.333, 4229.231, 450, 0, []
1630164672.0284, 109, 0, 4292.308, 4200, 4186.154, 4173.846, 4254.872, 450, 0, []
1630164672.0362, 110, 0, 4304.615, 4179.487, 4087.179, 4129.744, 4241.538, 450, 0, []
1630164672.0442, 111, 0, 4346.667, 4186.667, 4075.385, 4116.923, 4287.692, 16203, 0, []
1630164672.0521, 112, 0, 4426.154, 4197.949, 4151.282, 4171.795, 4381.538, 450, 0, []
1630164672.0601, 113, 0, 4478.462, 4194.359, 4136.41, 4205.128, 4415.385, 450, 0, []
1630164672.0679, 114, 0, 4482.564, 4197.436, 4145.641, 4198.974, 4401.026, 450, 0, []
1630164672.0759, 115, 0, 4470.256, 4212.308, 4107.692, 4188.205, 4391.282, 16203, 0, []
1630164672.0838, 116, 0, 4461.026, 4236.41, 4134.872, 4201.538, 4388.205, 450, 0, []
1630164672.0918, 117, 0, 4453.846, 4254.359, 4155.897, 4206.154, 4385.641, 450, 0, []
1630164672.0997, 118, 0, 4432.308, 4240.513, 4131.795, 4185.128, 4371.795, 450, 0, []
1630164672.1076, 119, 0, 4393.333, 4210.256, 4130.256, 4174.359, 4342.051, 16203, 0, []
1630164672.1155, 120, 0, 4372.308, 4207.692, 4108.718, 4187.692, 4315.385, 450, 0, []
1630164672.1233, 121, 0, 4370.769, 4220, 4121.026, 4197.436, 4296.923, 450, 0, []
1630164672.1312, 122, 0, 4352.308, 4221.538, 4124.103, 4189.231, 4287.179, 450, 0, []
1630164672.139, 123, 0, 4327.692, 4216.923, 4121.538, 4201.026, 4297.949, 16203, 0, []
1630164672.1468, 124, 0, 4311.282, 4213.846, 4134.359, 4210.769, 4287.179, 450, 0, []
1630164672.1546, 125, 0, 4293.846, 4200.513, 4106.154, 4188.205, 4247.179, 450, 0, []
1630164672.1625, 126, 0, 4285.128, 4204.103, 4121.538, 4180, 4239.487, 450, 0, []
1630164672.1703, 127, 0, 4290.769, 4242.564, 4146.667, 4198.462, 4264.103, 16203, 0, []
1630164672.1782, 128, 0, 4287.692, 4257.436, 4128.205, 4197.949, 4253.333, 450, 0, []
1630164672.1859, 0, 0, 4263.59, 4227.179, 4121.538, 4176.41, 4216.41, 450, 0, []
1630164672.1938, 1, 0, 4245.641, 4211.282, 4107.692, 4177.436, 4214.872, 450, 0, []
1630164672.2016, 2, 0, 4235.385, 4226.154, 4120, 4188.205, 4214.872, 16184, 0, []
1630164672.2095, 3, 0, 4231.795, 4204.615, 4128.205, 4177.949, 4206.154, 450, 0, []
1630164672.2173, 4, 0, 4250.769, 4165.128, 4113.846, 4170.256, 4226.154, 16090, 0, []
1630164672.2252, 5, 0, 4254.872, 4178.974, 4118.974, 4165.128, 4218.974, 450, 0, []
1630164672.2331, 6, 0, 4224.103, 4195.897, 4088.718, 4145.128, 4173.333, 295, 0, []
1630164672.2411, 7, 0, 4214.359, 4191.795, 4087.692, 4143.59, 4168.205, 450, 0, []
1630164672.249, 8, 0, 4232.821, 4206.154, 4112.821, 4164.103, 4187.179, 450, 0, []
1630164672.257, 9, 0, 4233.846, 4211.282, 4096.923, 4170.769, 4183.59, 16146, 0, []
1630164672.2648, 10, 0, 4222.564, 4200.513, 4102.564, 4173.846, 4185.641, 450, 0, []
1630164672.2728, 11, 0, 4221.538, 4204.103, 4094.359, 4167.692, 4188.205, 16202, 0, []
1630164672.2807, 12, 0, 4226.667, 4191.795, 4085.641, 4138.974, 4178.974, 450, 0, []
1630164672.2885, 13, 0, 4221.538, 4181.026, 4085.641, 4129.744, 4171.282, 450, 0, []
1630164672.2964, 14, 0, 4226.154, 4217.949, 4078.462, 4150.769, 4187.179, 450, 0, []
1630164672.3041, 15, 0, 4239.487, 4234.359, 4103.077, 4157.949, 4207.692, 16202, 0, []
1630164672.312, 16, 0, 4227.692, 4214.359, 4093.333, 4152.308, 4193.333, 0, 0, []
1630164672.3198, 17, 0, 4215.897, 4227.692, 4070.256, 4162.051, 4172.821, 0, 0, []
1630164672.3277, 18, 0, 4223.59, 4226.667, 4054.359, 4154.359, 4177.436, 0, 0, []
1630164672.3355, 19, 0, 4234.872, 4174.872, 3991.282, 4132.308, 4190.256, 0, 0, []
1630164672.3433, 20, 0, 4243.59, 4162.564, 3978.462, 4143.59, 4195.385, 0, 0, []
1630164672.3511, 21, 0, 4273.333, 4209.744, 4021.538, 4172.308, 4208.205, 0, 0, []
1630164672.3591, 22, 0, 4276.41, 4215.385, 4026.154, 4169.744, 4203.077, 0, 0, []
1630164672.367, 23, 0, 4259.487, 4204.615, 4029.231, 4173.333, 4210.769, 0, 0, []
1630164672.375, 24, 0, 4230.769, 4215.385, 4001.026, 4169.744, 4210.769, 0, 0, []
1630164672.3829, 25, 0, 4131.795, 4173.846, 3941.026, 4087.692, 4127.692, 0, 0, []
1630164672.3908, 26, 0, 4125.128, 4133.333, 3943.077, 4038.974, 4099.487, 0, 0, []
1630164672.3987, 27, 0, 4270.256, 4180, 4008.718, 4108.718, 4178.974, 0, 0, []
1630164672.4067, 28, 0, 4298.462, 4223.59, 4055.385, 4168.205, 4212.308, 0, 0, []
1630164672.4146, 29, 0, 4183.59, 4201.538, 4018.974, 4158.462, 4175.385, 0, 0, []
1630164672.4226, 30, 0, 4165.641, 4177.436, 3996.923, 4148.718, 4160, 0, 0, []
1630164672.4304, 31, 0, 4188.205, 4163.077, 4001.026, 4144.615, 4144.103, 0, 0, []
1630164672.4382, 32, 0, 4120, 4154.359, 3990.769, 4126.154, 4101.026, 0, 0, []
1630164672.4461, 33, 0, 4106.667, 4180.513, 4023.077, 4122.564, 4093.846, 0, 0, []
1630164672.4539, 34, 0, 4155.385, 4194.359, 4043.077, 4123.59, 4105.128, 0, 0, []
1630164672.4618, 35, 0, 4161.538, 4167.179, 4065.128, 4137.436, 4120, 0, 0, []
1630164672.4695, 36, 0, 4147.692, 4154.872, 4086.154, 4154.359, 4133.333, 0, 0, []
1630164672.4774, 37, 0, 4135.897, 4167.692, 4067.179, 4135.897, 4120.513, 0, 0, []
1630164672.4852, 38, 0, 4110.256, 4147.179, 4071.282, 4113.333, 4090.769, 0, 0, []
1630164672.4931, 39, 0, 4094.359, 4118.974, 4073.846, 4114.359, 4073.846, 0, 0, []
1630164672.5009, 40, 0, 4109.231, 4134.359, 4074.872, 4110.769, 4079.487, 0, 0, []
1630164672.5087, 41, 0, 4133.333, 4165.641, 4081.026, 4093.333, 4088.718, 0, 0, []
1630164672.5165, 42, 0, 4143.077, 4172.308, 4076.41, 4082.564, 4094.872, 0, 0, []
1630164672.5245, 43, 0, 4136.923, 4165.641, 4092.821, 4084.103, 4091.282, 0, 0, []
1630164672.5324, 44, 0, 4125.641, 4169.231, 4083.59, 4090.769, 4079.487, 0, 0, []
1630164672.5404, 45, 0, 4109.744, 4191.282, 4074.872, 4103.59, 4072.308, 0, 0, []
1630164672.5482, 46, 0, 4096.923, 4218.974, 4082.051, 4105.128, 4066.154, 0, 0, []
1630164672.5562, 47, 0, 4112.308, 4214.872, 4081.538, 4102.051, 4080.513, 0, 0, []
1630164672.5641, 48, 0, 4127.692, 4190.769, 4104.615, 4107.179, 4094.872, 0, 0, []
1630164672.5721, 49, 0, 4127.692, 4213.846, 4095.385, 4102.564, 4087.179, 0, 0, []
1630164672.58, 50, 0, 4143.59, 4251.795, 4092.308, 4104.103, 4089.744, 0, 0, []
1630164672.5879, 51, 0, 4153.333, 4230.769, 4122.564, 4127.179, 4106.154, 0, 0, []
1630164672.5958, 52, 0, 4142.051, 4216.923, 4119.487, 4142.051, 4116.923, 0, 0, []
1630164672.6036, 53, 0, 4150.769, 4263.59, 4129.744, 4138.974, 4117.436, 0, 0, []
1630164672.6115, 54, 0, 4173.333, 4275.897, 4132.821, 4143.59, 4122.564, 0, 0, []
1630164672.6194, 55, 0, 4179.487, 4246.154, 4125.641, 4158.462, 4137.949, 0, 0, []
1630164672.6272, 56, 0, 4165.641, 4257.949, 4124.615, 4151.282, 4138.462, 0, 0, []
1630164672.6352, 57, 0, 4141.538, 4264.103, 4083.59, 4127.179, 4120, 0, 0, []
1630164672.6431, 58, 0, 4120, 4223.59, 4042.051, 4108.718, 4101.538, 0, 0, []
1630164672.6509, 59, 0, 4112.821, 4209.231, 3962.564, 4088.205, 4094.359, 0, 0, []
1630164672.6588, 60, 0, 4104.615, 4218.462, 3855.385, 4063.59, 4082.564, 0, 0, []
1630164672.6665, 61, 0, 4089.744, 4193.846, 3825.128, 4060, 4070.769, 0, 0, []
1630164672.6744, 62, 0, 4077.436, 4182.051, 3809.231, 4059.487, 4061.538, 0, 0, []
1630164672.6822, 63, 0, 4072.821, 4212.821, 3790.256, 4043.59, 4049.744, 0, 0, []
1630164672.6902, 64, 0, 4074.872, 4213.333, 3796.41, 4046.667, 4049.744, 450, 0, []
1630164672.6981, 65, 0, 4078.462, 4203.59, 3802.051, 4070.256, 4052.821, 450, 0, []
1630164672.706, 66, 0, 4074.872, 4204.103, 3814.359, 4075.385, 4050.769, 16188, 0, []
1630164672.7139, 67, 0, 4059.487, 4188.718, 3811.282, 4053.846, 4038.462, 450, 0, []
1630164672.7219, 68, 0, 4052.821, 4189.744, 3818.974, 4044.615, 4026.667, 16097, 0, []
1630164672.7298, 69, 0, 4066.667, 4186.154, 3840, 4063.077, 4036.41, 450, 0, []
1630164672.7378, 70, 0, 4074.359, 4158.462, 3852.821, 4072.308, 4050.769, 263, 0, []
1630164672.7457, 71, 0, 4089.231, 4158.462, 3890.256, 4059.487, 4062.051, 450, 0, []
1630164672.7534, 72, 0, 4138.974, 4169.744, 3904.103, 4044.103, 4096.923, 450, 0, []
1630164672.7613, 73, 0, 4189.231, 4149.744, 3918.462, 4052.821, 4143.59, 16135, 0, []
1630164672.7691, 74, 0, 4208.718, 4143.59, 3958.974, 4062.051, 4162.564, 450, 0, []
1630164672.777, 75, 0, 4228.718, 4151.795, 3984.103, 4067.692, 4184.103, 16197, 0, []
1630164672.7848, 76, 0, 4265.128, 4143.59, 4020, 4094.872, 4231.282, 450, 0, []
1630164672.7926, 77, 0, 4288.718, 4161.026, 4025.128, 4111.795, 4248.718, 450, 0, []
1630164672.8004, 78, 0, 4258.974, 4170.256, 4006.667, 4093.846, 4207.179, 450, 0, []
1630164672.8083, 79, 0, 4204.103, 4149.231, 4002.051, 4073.333, 4163.077, 16197, 0, []
1630164672.8161, 80, 0, 4193.846, 4144.103, 3997.949, 4077.436, 4166.154, 450, 0, []
1630164672.824, 81, 0, 4202.564, 4149.744, 4014.872, 4087.179, 4171.795, 450, 0, []
1630164672.8317, 82, 0, 4180, 4156.41, 4009.744, 4086.667, 4144.615, 450, 0, []
1630164672.8397, 83, 0, 4144.615, 4162.051, 4000.513, 4083.59, 4112.308, 16197, 0, []
1630164672.8476, 84, 0, 4129.744, 4166.154, 4014.872, 4083.077, 4104.615, 450, 0, []
1630164672.8556, 85, 0, 4136.923, 4190.256, 4009.744, 4088.205, 4115.385, 450, 0, []
1630164672.8635, 86, 0, 4146.667, 4215.897, 4033.333, 4096.923, 4120.513, 450, 0, []
1630164672.8714, 87, 0, 4143.59, 4205.128, 4062.051, 4108.718, 4118.974, 16197, 0, []
1630164672.8793, 88, 0, 4133.333, 4200.513, 4067.692, 4123.59, 4118.462, 450, 0, []
1630164672.8873, 89, 0, 4123.077, 4214.359, 4082.051, 4127.179, 4114.872, 450, 0, []
1630164672.8952, 90, 0, 4109.744, 4201.026, 4084.103, 4124.615, 4108.718, 450, 0, []
1630164672.9032, 91, 0, 4106.667, 4209.231, 4108.718, 4126.667, 4107.179, 16197, 0, []
1630164672.911, 92, 0, 4113.333, 4245.128, 4116.41, 4122.564, 4110.769, 450, 0, []
1630164672.9188, 93, 0, 4110.769, 4239.487, 4089.744, 4110.769, 4107.179, 450, 0, []
1630164672.9267, 94, 0, 4102.564, 4226.154, 4084.615, 4111.282, 4100, 450, 0, []
1630164672.9345, 95, 0, 4103.59, 4250.256, 4076.41, 4124.103, 4096.923, 16197, 0, []
1630164672.9424, 96, 0, 4108.718, 4257.949, 4077.949, 4134.872, 4095.385, 450, 0, []
1630164672.9501, 97, 0, 4108.205, 4243.077, 4063.59, 4132.821, 4094.872, 450, 0, []
1630164672.958, 98, 0, 4106.667, 4246.667, 4042.051, 4123.077, 4097.949, 450, 0, []
1630164672.9658, 99, 0, 4103.077, 4252.308, 4056.923, 4124.615, 4105.641, 16197, 0, []
1630164672.9738, 100, 0, 4101.026, 4257.436, 4046.154, 4135.897, 4107.692, 450, 0, []
1630164672.9817, 101, 0, 4105.128, 4269.744, 4045.128, 4136.923, 4095.897, 450, 0, []
1630164672.9896, 102, 0, 4109.744, 4266.154, 4046.667, 4131.282, 4093.333, 450, 0, []
1630164672.9975, 103, 0, 4117.436, 4261.026, 4003.077, 4134.359, 4103.59, 16197, 0, []
1630164673.0055, 104, 0, 4124.103, 4269.744, 3965.128, 4136.41, 4106.667, 450, 0, []
1630164673.0134, 105, 0, 4125.641, 4265.128, 3918.974, 4132.308, 4104.615, 450, 0, []
1630164673.0214, 106, 0, 4124.615, 4257.436, 3876.41, 4133.846, 4105.641, 450, 0, []
1630164673.0292, 107, 0, 4135.897, 4285.128, 3835.385, 4144.615, 4122.051, 16197, 0, []
1630164673.0372, 108, 0, 4169.231, 4320, 3772.308, 4156.923, 4158.974, 450, 0, []
1630164673.0451, 109, 0, 4192.821, 4338.974, 3742.051, 4158.462, 4184.615, 450, 0, []
1630164673.0531, 110, 0, 4183.59, 4344.615, 3717.949, 4152.821, 4178.462, 450, 0, []
1630164673.061, 111, 0, 4166.154, 4337.436, 3695.897, 4148.205, 4165.128, 16197, 0, []
1630164673.0687, 112, 0, 4169.744, 4337.436, 3703.077, 4147.179, 4170.256, 450, 0, []
1630164673.0766, 113, 0, 4177.949, 4346.154, 3704.103, 4152.821, 4174.872, 450, 0, []
1630164673.0844, 114, 0, 4163.077, 4338.462, 3700, 4153.333, 4157.436, 450, 0, []
1630164673.0923, 115, 0, 4149.744, 4334.359, 3683.59, 4151.795, 4152.308, 16197, 0, []
1630164673.1001, 116, 0, 4160.513, 4360.513, 3732.308, 4170.769, 4177.949, 450, 0, []
1630164673.108, 117, 0, 4164.615, 4380.513, 3874.359, 4190.256, 4188.718, 450, 0, []
1630164673.1157, 118, 0, 4152.821, 4369.231, 3966.154, 4181.026, 4165.641, 450, 0, []
1630164673.1236, 119, 0, 4146.667, 4331.795, 4042.051, 4178.974, 4149.231, 16197, 0, []
1630164673.1314, 120, 0, 4143.077, 4330.769, 4131.795, 4201.026, 4154.872, 450, 0, []
1630164673.1393, 121, 0, 4140.513, 4373.846, 4178.462, 4209.231, 4151.795, 450, 0, []
1630164673.1471, 122, 0, 4143.077, 4377.949, 4220.513, 4203.59, 4140, 450, 0, []
1630164673.155, 123, 0, 4150.769, 4367.179, 4257.949, 4207.179, 4144.103, 16197, 0, []
1630164673.1629, 124, 0, 4159.487, 4378.974, 4298.974, 4219.487, 4150.769, 450, 0, []
1630164673.1709, 125, 0, 4163.077, 4367.179, 4315.385, 4220, 4140.513, 450, 0, []
1630164673.1788, 126, 0, 4156.41, 4350.256, 4314.872, 4206.154, 4135.897, 450, 0, []
1630164673.1868, 127, 0, 4151.795, 4366.667, 4350.256, 4211.795, 4144.103, 16197, 0, []
1630164673.1946, 128, 0, 4149.231, 4372.821, 4344.103, 4221.538, 4138.974, 450, 0, []
1630164673.2026, 0, 0, 4134.872, 4330.769, 4322.051, 4205.128, 4122.051, 450, 0, []
1630164673.2105, 1, 0, 4123.077, 4278.462, 4316.41, 4188.205, 4121.538, 450, 0, []
1630164673.2183, 2, 0, 4126.154, 4260, 4293.333, 4195.897, 4126.667, 16189, 0, []
1630164673.2262, 3, 0, 4117.949, 4252.821, 4283.077, 4201.538, 4113.846, 450, 0, []
1630164673.2339, 4, 0, 4106.154, 4232.308, 4265.641, 4193.333, 4110.769, 16094, 0, []
1630164673.2418, 5, 0, 4115.897, 4248.205, 4264.103, 4188.718, 4125.128, 450, 0, []
1630164673.2496, 6, 0, 4122.051, 4291.282, 4260.513, 4184.103, 4117.436, 256, 0, []
1630164673.2575, 7, 0, 4121.026, 4299.487, 4238.462, 4182.564, 4106.154, 450, 0, []
1630164673.2653, 8, 0, 4137.436, 4308.205, 4265.128, 4197.436, 4130.256, 450, 0, []
1630164673.2731, 9, 0, 4156.41, 4313.846, 4266.667, 4208.718, 4151.282, 16127, 0, []
1630164673.2809, 10, 0, 4139.487, 4269.744, 4236.923, 4195.897, 4130.769, 450, 0, []
1630164673.2888, 11, 0, 4110.256, 4251.795, 4229.744, 4173.846, 4109.231, 16200, 0, []
1630164673.2966, 12, 0, 4118.462, 4283.077, 4232.308, 4165.128, 4120.513, 450, 0, []
1630164673.3046, 13, 0, 4141.026, 4283.59, 4262.051, 4172.308, 4135.385, 450, 0, []
1630164673.3124, 14, 0, 4134.872, 4248.718, 4260, 4178.974, 4130.256, 450, 0, []
1630164673.3204, 15, 0, 4118.462, 4215.385, 4244.103, 4171.282, 4121.026, 16200, 0, []
1630164673.3283, 16, 0, 4137.436, 4228.718, 4262.564, 4175.385, 4136.923, 0, 0, []
1630164673.3363, 17, 0, 4172.821, 4278.462, 4269.744, 4192.821, 4164.615, 0, 0, []
1630164673.3442, 18, 0, 4170.769, 4273.333, 4291.795, 4198.974, 4167.179, 0, 0, []
1630164673.3521, 19, 0, 4152.821, 4242.564, 4292.308, 4190.256, 4154.359, 0, 0, []
1630164673.36, 20, 0, 4150.769, 4266.667, 4278.462, 4179.487, 4146.154, 0, 0, []
1630164673.368, 21, 0, 4161.026, 4303.077, 4298.462, 4185.641, 4152.308, 0, 0, []
1630164673.3759, 22, 0, 4171.282, 4302.051, 4290.256, 4196.923, 4167.692, 0, 0, []
1630164673.3837, 23, 0, 4173.333, 4304.615, 4281.538, 4196.41, 4169.744, 0, 0, []
1630164673.3915, 24, 0, 4172.821, 4323.077, 4270.769, 4190.256, 4169.744, 0, 0, []
1630164673.3993, 25, 0, 4177.949, 4301.538, 4250.769, 4187.179, 4175.385, 0, 0, []
1630164673.4072, 26, 0, 4166.154, 4258.974, 4243.077, 4174.359, 4154.359, 0, 0, []
1630164673.415, 27, 0, 4141.538, 4252.308, 4218.462, 4156.41, 4123.59, 0, 0, []
1630164673.4229, 28, 0, 4146.154, 4243.077, 4232.308, 4167.692, 4133.333, 0, 0, []
1630164673.4307, 29, 0, 4173.846, 4194.872, 4240, 4184.103, 4156.923, 0, 0, []
1630164673.4386, 30, 0, 4178.462, 4164.615, 4213.333, 4180.513, 4157.436, 0, 0, []
1630164673.4465, 31, 0, 4157.949, 4166.667, 4212.821, 4177.436, 4139.487, 0, 0, []
1630164673.4545, 32, 0, 4144.615, 4165.641, 4195.897, 4170.769, 4124.103, 0, 0, []
1630164673.4624, 33, 0, 4162.051, 4202.564, 4215.385, 4177.949, 4139.487, 0, 0, []
1630164673.4704, 34, 0, 4188.205, 4275.385, 4250.256, 4198.974, 4163.077, 0, 0, []
1630164673.4782, 35, 0, 4181.538, 4291.795, 4221.538, 4192.308, 4156.41, 0, 0, []
1630164673.4862, 36, 0, 4181.538, 4260, 4225.128, 4178.974, 4152.308, 0, 0, []
1630164673.4941, 37, 0, 4205.641, 4269.744, 4247.692, 4189.231, 4159.487, 0, 0, []
1630164673.5021, 38, 0, 4194.872, 4312.821, 4254.359, 4198.462, 4152.821, 0, 0, []
1630164673.51, 39, 0, 4171.282, 4314.359, 4247.179, 4193.333, 4148.718, 0, 0, []
1630164673.5179, 40, 0, 4181.026, 4289.744, 4235.385, 4180.513, 4152.821, 0, 0, []
1630164673.5258, 41, 0, 4190.256, 4302.051, 4259.487, 4181.026, 4156.923, 0, 0, []
1630164673.5336, 42, 0, 4186.154, 4331.282, 4250.769, 4188.205, 4157.436, 0, 0, []
1630164673.5415, 43, 0, 4182.564, 4313.333, 4241.538, 4181.026, 4153.846, 0, 0, []
1630164673.5493, 44, 0, 4180, 4278.462, 4269.231, 4177.949, 4154.359, 0, 0, []
1630164673.5571, 45, 0, 4191.282, 4282.051, 4261.538, 4189.744, 4157.436, 0, 0, []
1630164673.5649, 46, 0, 4201.026, 4294.359, 4249.744, 4183.59, 4156.923, 0, 0, []
1630164673.5728, 47, 0, 4185.641, 4280, 4231.795, 4163.077, 4148.718, 0, 0, []
1630164673.5806, 48, 0, 4182.051, 4273.333, 4229.231, 4173.333, 4140.513, 0, 0, []
1630164673.5885, 49, 0, 4202.051, 4286.667, 4248.718, 4192.308, 4148.718, 0, 0, []
1630164673.5962, 50, 0, 4201.026, 4284.103, 4235.385, 4190.256, 4156.41, 0, 0, []
1630164673.6041, 51, 0, 4196.41, 4271.282, 4242.564, 4195.897, 4148.718, 0, 0, []
1630164673.6119, 52, 0, 4216.41, 4270.769, 4240, 4195.897, 4165.641, 0, 0, []
1630164673.6198, 53, 0, 4234.872, 4285.128, 4233.333, 4185.128, 4204.615, 0, 0, []
1630164673.6276, 54, 0, 4241.026, 4292.821, 4246.154, 4187.692, 4206.154, 0, 0, []
1630164673.6355, 55, 0, 4235.897, 4276.923, 4226.154, 4179.487, 4184.615, 0, 0, []
1630164673.6434, 56, 0, 4215.385, 4281.026, 4241.026, 4166.667, 4184.615, 0, 0, []
1630164673.6514, 57, 0, 4209.744, 4315.385, 4257.436, 4179.487, 4186.154, 0, 0, []
1630164673.6593, 58, 0, 4223.59, 4308.205, 4256.923, 4193.846, 4174.872, 0, 0, []
1630164673.6673, 59, 0, 4214.359, 4258.974, 4287.692, 4185.128, 4168.205, 0, 0, []
1630164673.6751, 60, 0, 4205.128, 4263.59, 4298.974, 4177.436, 4169.744, 0, 0, []
1630164673.6831, 61, 0, 4213.846, 4289.744, 4322.564, 4183.59, 4163.59, 0, 0, []
1630164673.691, 62, 0, 4206.154, 4260, 4343.077, 4182.564, 4154.872, 0, 0, []
1630164673.6988, 63, 0, 4198.462, 4236.923, 4361.026, 4183.077, 4155.897, 0, 0, []
1630164673.7067, 64, 0, 4214.872, 4263.59, 4381.026, 4192.308, 4158.974, 450, 0, []
1630164673.7144, 65, 0, 4216.923, 4270.769, 4329.744, 4183.59, 4160, 450, 0, []
1630164673.7223, 66, 0, 4204.103, 4254.359, 4280.513, 4167.179, 4157.436, 16187, 0, []
1630164673.7301, 67, 0, 4221.026, 4270.769, 4244.103, 4163.077, 4157.436, 450, 0, []
1630164673.738, 68, 0, 4238.974, 4297.949, 4201.026, 4165.128, 4168.718, 16093, 0, []
1630164673.7458, 69, 0, 4229.744, 4294.872, 4196.41, 4170.769, 4174.872, 450, 0, []
1630164673.7537, 70, 0, 4220.513, 4278.974, 4168.205, 4166.154, 4154.872, 254, 0, []
1630164673.7616, 71, 0, 4210.769, 4280.513, 4150.256, 4154.872, 4137.949, 450, 0, []
1630164673.7696, 72, 0, 4207.179, 4286.154, 4155.385, 4159.487, 4149.744, 450, 0, []
1630164673.7775, 73, 0, 4214.872, 4286.667, 4146.154, 4166.667, 4151.282, 16125, 0, []
1630164673.7855, 74, 0, 4200.513, 4297.436, 4141.026, 4150.256, 4129.744, 450, 0, []
1630164673.7934, 75, 0, 4181.026, 4304.103, 4115.897, 4132.308, 4126.667, 16200, 0, []
1630164673.8013, 76, 0, 4195.897, 4289.744, 4127.179, 4155.897, 4147.692, 450, 0, []
1630164673.8092, 77, 0, 4207.179, 4264.615, 4149.231, 4181.538, 4158.974, 450, 0, []
1630164673.8172, 78, 0, 4195.897, 4258.462, 4122.564, 4174.359, 4147.179, 450, 0, []
1630164673.8251, 79, 0, 4192.308, 4271.282, 4119.487, 4163.077, 4135.897, 16200, 0, []
1630164673.8329, 80, 0, 4195.897, 4267.692, 4117.436, 4155.897, 4133.333, 450, 0, []
1630164673.8407, 81, 0, 4194.359, 4249.744, 4112.821, 4146.667, 4125.128, 450, 0, []
1630164673.8485, 82, 0, 4199.487, 4243.59, 4122.564, 4138.462, 4125.641, 450, 0, []
1630164673.8564, 83, 0, 4215.385, 4233.846, 4117.949, 4141.026, 4142.564, 16200, 0, []
1630164673.8642, 84, 0, 4217.949, 4212.308, 4124.103, 4151.795, 4142.051, 450, 0, []
1630164673.8721, 85, 0, 4205.128, 4201.026, 4106.667, 4152.821, 4136.41, 450, 0, []
1630164673.8798, 86, 0, 4198.974, 4192.308, 4091.795, 4147.179, 4143.077, 450, 0, []
1630164673.8877, 87, 0, 4197.949, 4175.385, 4111.795, 4147.179, 4127.692, 16200, 0, []
1630164673.8955, 88, 0, 4187.179, 4154.359, 4102.564, 4152.821, 4113.333, 450, 0, []
1630164673.9035, 89, 0, 4182.564, 4135.897, 4096.923, 4157.949, 4130.769, 450, 0, []
1630164673.9114, 90, 0, 4190.256, 4134.359, 4095.897, 4144.615, 4136.923, 450, 0, []
1630164673.9193, 91, 0, 4194.872, 4124.103, 4096.923, 4134.872, 4130.256, 16200, 0, []
1630164673.9272, 92, 0, 4194.359, 4103.59, 4110.256, 4145.641, 4136.41, 450, 0, []
1630164673.9352, 93, 0, 4192.308, 4099.487, 4102.051, 4149.744, 4141.026, 450, 0, []
1630164673.9431, 94, 0, 4186.154, 4074.359, 4111.795, 4147.692, 4127.692, 450, 0, []
1630164673.9511, 95, 0, 4176.41, 4029.744, 4106.154, 4144.103, 4108.205, 16200, 0, []
1630164673.9589, 96, 0, 4179.487, 4028.718, 4093.333, 4147.692, 4123.59, 450, 0, []
1630164673.9669, 97, 0, 4207.179, 4051.282, 4121.026, 4172.821, 4163.59, 450, 0, []
1630164673.9748, 98, 0, 4226.154, 4035.897, 4115.897, 4179.487, 4165.641, 450, 0, []
1630164673.9828, 99, 0, 4212.821, 4015.385, 4108.718, 4157.949, 4144.103, 16200, 0, []
1630164673.9907, 100, 0, 4200.513, 4044.103, 4109.231, 4156.41, 4149.744, 450, 0, []
1630164673.9984, 101, 0, 4206.154, 4086.667, 4092.821, 4167.179, 4162.051, 450, 0, []
1630164674.0063, 102, 0, 4202.564, 4070.256, 4092.308, 4157.436, 4148.205, 450, 0, []
1630164674.0141, 103, 0, 4200.513, 4043.59, 4075.385, 4152.821, 4128.718, 16200, 0, []
1630164674.022, 104, 0, 4205.641, 4080, 4064.103, 4153.846, 4126.154, 450, 0, []
1630164674.0298, 105, 0, 4197.436, 4078.462, 4055.385, 4144.615, 4126.154, 450, 0, []
1630164674.0376, 106, 0, 4190.256, 4010.769, 4031.282, 4143.077, 4115.385, 450, 0, []
1630164674.0454, 107, 0, 4193.846, 3974.872, 4037.436, 4148.718, 4117.949, 16200, 0, []
1630164674.0533, 108, 0, 4200, 3966.154, 4030.769, 4148.718, 4141.026, 450, 0, []
1630164674.0611, 109, 0, 4203.59, 3948.205, 4037.949, 4158.462, 4147.179, 450, 0, []
1630164674.069, 110, 0, 4194.359, 3957.949, 4051.282, 4160, 4135.385, 450, 0, []
1630164674.0767, 111, 0, 4174.872, 3972.821, 4014.359, 4130.256, 4124.103, 16200, 0, []
1630164674.0847, 112, 0, 4174.872, 3934.359, 4002.051, 4114.872, 4124.103, 450, 0, []
1630164674.0926, 113, 0, 4198.974, 3908.205, 3993.846, 4134.872, 4144.103, 450, 0, []
1630164674.1006, 114, 0, 4210.256, 3958.974, 3973.846, 4156.41, 4160, 450, 0, []
1630164674.1085, 115, 0, 4216.41, 4036.923, 3970.769, 4161.026, 4167.179, 16200, 0, []
1630164674.1164, 116, 0, 4224.615, 4058.974, 3958.462, 4155.385, 4175.385, 450, 0, []
1630164674.1243, 117, 0, 4210.769, 4033.333, 3952.821, 4148.718, 4157.436, 450, 0, []
1630164674.1323, 118, 0, 4201.026, 4044.615, 3941.026, 4145.128, 4141.026, 450, 0, []
1630164674.1402, 119, 0, 4217.949, 4081.538, 3952.821, 4150.769, 4159.487, 16200, 0, []
1630164674.1482, 120, 0, 4233.846, 4080, 3972.821, 4155.385, 4168.205, 450, 0, []
1630164674.1561, 121, 0, 4235.385, 4058.462, 3952.308, 4145.641, 4170.256, 450, 0, []
1630164674.1638, 122, 0, 4245.128, 4064.615, 3960, 4134.872, 4185.128, 450, 0, []
1630164674.1717, 123, 0, 4294.872, 4086.154, 3964.103, 4133.333, 4207.692, 16200, 0, []
1630164674.1795, 124, 0, 4373.333, 4078.462, 3968.718, 4141.026, 4258.974, 450, 0, []
1630164674.1874, 125, 0, 4426.667, 4071.282, 3995.897, 4157.436, 4329.231, 450, 0, []
1630164674.1952, 126, 0, 4428.718, 4074.872, 3969.744, 4162.051, 4356.41, 450, 0, []
1630164674.203, 127, 0, 4412.821, 4062.051, 3955.385, 4156.41, 4332.308, 16200, 0, []
1630164674.2108, 128, 0, 4408.718, 4064.103, 3969.744, 4155.385, 4299.487, 450, 0, []
1630164674.2187, 0, 0, 4395.385, 4075.385, 3979.487, 4152.821, 4278.974, 450, 0, []
1630164674.2265, 1, 0, 4358.974, 4081.538, 3996.923, 4150.769, 4269.231, 450, 0, []
1630164674.2345, 2, 0, 4325.641, 4092.308, 3984.615, 4155.385, 4252.821, 16182, 0, []
1630164674.2423, 3, 0, 4310.256, 4073.333, 3978.462, 4157.949, 4224.103, 450, 0, []
1630164674.2503, 4, 0, 4285.128, 4030.256, 3976.41, 4140, 4201.026, 16088, 0, []
1630164674.2582, 5, 0, 4249.744, 4034.359, 3981.538, 4128.205, 4187.179, 450, 0, []
1630164674.2662, 6, 0, 4236.41, 4067.179, 4011.795, 4142.564, 4175.385, 253, 0, []
1630164674.2741, 7, 0, 4244.103, 4054.872, 4011.795, 4151.795, 4180.513, 450, 0, []
1630164674.282, 8, 0, 4258.974, 4029.744, 4035.385, 4165.641, 4210.256, 450, 0, []
1630164674.2899, 9, 0, 4269.744, 4027.179, 4069.231, 4182.051, 4220.513, 16121, 0, []
1630164674.2979, 10, 0, 4257.436, 4038.462, 4065.641, 4172.821, 4203.077, 450, 0, []
1630164674.3058, 11, 0, 4233.333, 4051.282, 4075.897, 4162.051, 4193.333, 16196, 0, []
1630164674.3136, 12, 0, 4225.641, 4057.949, 4071.795, 4168.205, 4185.641, 450, 0, []
1630164674.3214, 13, 0, 4218.462, 4053.846, 4076.923, 4158.462, 4167.692, 450, 0, []
1630164674.3292, 14, 0, 4211.795, 4070.769, 4109.231, 4145.128, 4169.744, 450, 0, []
1630164674.3371, 15, 0, 4225.641, 4132.308, 4122.051, 4165.128, 4182.564, 16196, 0, []
1630164674.3449, 16, 0, 4233.333, 4128.718, 4138.462, 4173.846, 4174.359, 0, 0, []
1630164674.3528, 17, 0, 4221.538, 4029.744, 4137.436, 4153.333, 4168.205, 0, 0, []
1630164674.3605, 18, 0, 4216.41, 3990.256, 4140, 4154.872, 4168.205, 0, 0, []
1630164674.3684, 19, 0, 4226.154, 4058.974, 4163.59, 4174.359, 4176.923, 0, 0, []
1630164674.3762, 20, 0, 4234.359, 4116.41, 4177.949, 4180, 4196.923, 0, 0, []
1630164674.3842, 21, 0, 4230.769, 4101.538, 4202.051, 4181.538, 4194.872, 0, 0, []
1630164674.3921, 22, 0, 4214.872, 4091.795, 4194.359, 4172.821, 4170.769, 0, 0, []
1630164674.4, 23, 0, 4204.103, 4157.436, 4203.077, 4167.692, 4162.051, 0, 0, []
1630164674.4079, 24, 0, 4214.359, 4263.077, 4258.462, 4189.231, 4167.179, 0, 0, []
1630164674.4159, 25, 0, 4216.41, 4289.744, 4286.154, 4194.359, 4168.205, 0, 0, []
1630164674.4238, 26, 0, 4193.846, 4250.256, 4321.538, 4175.385, 4162.564, 0, 0, []
1630164674.4318, 27, 0, 4182.564, 4274.872, 4350.256, 4168.718, 4145.641, 0, 0, []
1630164674.4396, 28, 0, 4195.897, 4325.128, 4394.359, 4180.513, 4145.128, 0, 0, []
1630164674.4476, 29, 0, 4195.385, 4290.769, 4455.385, 4191.282, 4161.538, 0, 0, []
1630164674.4555, 30, 0, 4183.59, 4250.256, 4449.231, 4195.385, 4163.59, 0, 0, []
1630164674.4633, 31, 0, 4187.179, 4282.564, 4413.333, 4193.333, 4169.231, 0, 0, []
1630164674.4712, 32, 0, 4193.846, 4302.564, 4339.487, 4181.026, 4183.59, 0, 0, []
1630164674.4789, 33, 0, 4193.333, 4300.513, 4268.718, 4175.385, 4166.667, 0, 0, []
1630164674.4868, 34, 0, 4194.359, 4321.026, 4251.795, 4175.897, 4149.744, 0, 0, []
1630164674.4946, 35, 0, 4203.59, 4305.641, 4213.333, 4170.256, 4160, 0, 0, []
1630164674.5025, 36, 0, 4202.051, 4271.282, 4194.359, 4164.615, 4154.872, 0, 0, []
1630164674.5103, 37, 0, 4189.231, 4291.282, 4193.333, 4155.385, 4152.308, 0, 0, []
1630164674.5182, 38, 0, 4189.231, 4309.744, 4172.308, 4152.821, 4171.795, 0, 0, []
1630164674.5259, 39, 0, 4200.513, 4297.436, 4172.821, 4162.564, 4171.282, 0, 0, []
1630164674.5338, 40, 0, 4183.59, 4303.59, 4153.333, 4152.821, 4149.744, 0, 0, []
1630164674.5416, 41, 0, 4158.462, 4305.641, 4140.513, 4140, 4150.256, 0, 0, []
1630164674.5496, 42, 0, 4174.872, 4287.692, 4151.795, 4153.333, 4165.641, 0, 0, []
1630164674.5575, 43, 0, 4191.282, 4304.103, 4143.077, 4163.077, 4174.359, 0, 0, []
1630164674.5654, 44, 0, 4178.462, 4325.128, 4143.59, 4155.897, 4174.872, 0, 0, []
1630164674.5733, 45, 0, 4183.59, 4300.513, 4130.256, 4146.667, 4170.256, 0, 0, []
1630164674.5813, 46, 0, 4206.154, 4290.769, 4129.231, 4147.179, 4182.051, 0, 0, []
1630164674.5892, 47, 0, 4203.077, 4298.462, 4142.564, 4155.385, 4185.641, 0, 0, []
1630164674.5972, 48, 0, 4185.641, 4278.974, 4123.077, 4149.744, 4160.513, 0, 0, []
1630164674.605, 49, 0, 4187.179, 4293.846, 4130.769, 4134.872, 4152.308, 0, 0, []
1630164674.6128, 50, 0, 4205.128, 4330.769, 4142.051, 4140, 4173.846, 0, 0, []
1630164674.6207, 51, 0, 4217.949, 4299.487, 4135.385, 4154.359, 4179.487, 0, 0, []
1630164674.6285, 52, 0, 4207.179, 4256.923, 4118.462, 4134.872, 4164.103, 0, 0, []
1630164674.6364, 53, 0, 4190.769, 4269.744, 4090.256, 4112.308, 4158.974, 0, 0, []
1630164674.6443, 54, 0, 4182.564, 4286.667, 4106.154, 4124.615, 4148.718, 0, 0, []
1630164674.6522, 55, 0, 4181.538, 4279.487, 4115.385, 4131.795, 4147.692, 0, 0, []
1630164674.66, 56, 0, 4196.923, 4256.41, 4113.846, 4141.026, 4175.897, 0, 0, []
1630164674.6679, 57, 0, 4215.385, 4244.615, 4131.795, 4168.205, 4189.744, 0, 0, []
1630164674.6757, 58, 0, 4211.795, 4275.897, 4112.821, 4162.051, 4178.462, 0, 0, []
1630164674.6836, 59, 0, 4193.333, 4308.205, 4102.564, 4137.949, 4170.256, 0, 0, []
1630164674.6915, 60, 0, 4188.205, 4281.026, 4102.564, 4138.974, 4161.026, 0, 0, []
1630164674.6995, 61, 0, 4188.718, 4257.949, 4093.333, 4136.41, 4154.359, 0, 0, []
1630164674.7074, 62, 0, 4187.179, 4279.487, 4102.564, 4131.795, 4169.231, 0, 0, []
1630164674.7154, 63, 0, 4186.667, 4271.795, 4091.795, 4143.59, 4171.795, 0, 0, []
1630164674.7232, 64, 0, 4178.974, 4252.308, 4090.769, 4138.974, 4158.974, 450, 0, []
1630164674.7312, 65, 0, 4180, 4267.179, 4102.051, 4125.128, 4175.385, 450, 0, []
1630164674.7391, 66, 0, 4195.897, 4276.41, 4109.231, 4126.667, 4183.59, 16181, 0, []
1630164674.7471, 67, 0, 4199.487, 4267.179, 4118.462, 4126.667, 4161.026, 450, 0, []
1630164674.755, 68, 0, 4196.41, 4276.923, 4098.462, 4129.744, 4153.333, 16085, 0, []
1630164674.7627, 69, 0, 4199.487, 4270.769, 4105.641, 4146.154, 4157.949, 450, 0, []
1630164674.7706, 70, 0, 4192.308, 4227.692, 4114.872, 4152.308, 4161.026, 249, 0, []
1630164674.7784, 71, 0, 4176.923, 4203.077, 4102.051, 4152.821, 4166.154, 450, 0, []
1630164674.7863, 72, 0, 4180, 4204.615, 4108.718, 4144.615, 4167.179, 450, 0, []
1630164674.7941, 73, 0, 4193.846, 4232.308, 4088.718, 4115.385, 4174.359, 16119, 0, []
1630164674.8019, 74, 0, 4201.538, 4256.41, 4090.769, 4102.564, 4187.179, 450, 0, []
1630164674.8097, 75, 0, 4199.487, 4238.462, 4104.103, 4100.513, 4174.359, 16195, 0, []
1630164674.8176, 76, 0, 4188.205, 4205.128, 4069.744, 4101.538, 4154.359, 450, 0, []
1630164674.8254, 77, 0, 4181.538, 4191.282, 4038.974, 4132.821, 4157.949, 450, 0, []
1630164674.8334, 78, 0, 4187.692, 4208.718, 3986.154, 4154.872, 4170.256, 450, 0, []
1630164674.8413, 79, 0, 4186.667, 4227.179, 3938.974, 4143.59, 4176.41, 16195, 0, []
1630164674.8492, 80, 0, 4172.821, 4244.103, 3927.179, 4141.026, 4166.154, 450, 0, []
1630164674.8571, 81, 0, 4169.231, 4260, 3903.59, 4145.128, 4160.513, 450, 0, []
1630164674.8651, 82, 0, 4182.051, 4262.564, 3911.795, 4138.462, 4172.821, 450, 0, []
1630164674.873, 83, 0, 4184.103, 4233.846, 3919.487, 4129.744, 4166.154, 16195, 0, []
1630164674.881, 84, 0, 4172.308, 4191.282, 3921.026, 4128.205, 4152.821, 450, 0, []
1630164674.8888, 85, 0, 4172.308, 4192.308, 3947.692, 4133.846, 4161.026, 450, 0, []
1630164674.8968, 86, 0, 4183.077, 4215.385, 3952.308, 4132.308, 4163.077, 450, 0, []
1630164674.9047, 87, 0, 4180.513, 4204.103, 3967.179, 4126.667, 4147.692, 16195, 0, []
1630164674.9127, 88, 0, 4179.487, 4197.436, 3987.692, 4131.282, 4148.205, 450, 0, []
1630164674.9206, 89, 0, 4186.154, 4227.692, 3995.385, 4134.359, 4160, 450, 0, []
1630164674.9283, 90, 0, 4177.949, 4230.769, 4004.615, 4122.564, 4152.308, 450, 0, []
1630164674.9362, 91, 0, 4175.385, 4236.923, 4001.538, 4122.051, 4142.564, 16195, 0, []
1630164674.944, 92, 0, 4182.051, 4276.923, 4022.564, 4129.231, 4148.205, 450, 0, []
1630164674.9519, 93, 0, 4175.897, 4242.051, 4033.846, 4116.923, 4154.359, 450, 0, []
1630164674.9597, 94, 0, 4172.821, 4190.769, 4043.077, 4116.923, 4146.667, 450, 0, []
1630164674.9675, 95, 0, 4181.538, 4238.462, 4087.692, 4131.795, 4140.513, 16195, 0, []
1630164674.9753, 96, 0, 4190.769, 4290.769, 4100.513, 4135.385, 4152.308, 450, 0, []
1630164674.9832, 97, 0, 4195.385, 4276.923, 4112.821, 4142.051, 4152.308, 450, 0, []
1630164674.991, 98, 0, 4186.667, 4262.051, 4118.462, 4149.231, 4136.923, 450, 0, []
1630164674.999, 99, 0, 4182.051, 4281.026, 4120.513, 4153.333, 4141.026, 16195, 0, []
1630164675.0068, 100, 0, 4200, 4301.026, 4160, 4166.667, 4156.923, 450, 0, []
1630164675.0148, 101, 0, 4199.487, 4291.795, 4174.359, 4170.769, 4160, 450, 0, []
1630164675.0227, 102, 0, 4177.949, 4276.41, 4192.308, 4166.667, 4154.359, 450, 0, []
1630164675.0307, 103, 0, 4185.128, 4282.051, 4198.974, 4166.667, 4156.41, 16195, 0, []
1630164675.0386, 104, 0, 4182.051, 4283.59, 4189.744, 4151.795, 4142.051, 450, 0, []
1630164675.0465, 105, 0, 4158.462, 4280, 4211.795, 4138.974, 4121.538, 450, 0, []
1630164675.0544, 106, 0, 4168.205, 4271.795, 4227.179, 4156.923, 4126.154, 450, 0, []
1630164675.0624, 107, 0, 4186.667, 4247.692, 4258.974, 4176.923, 4145.641, 16195, 0, []
1630164675.0703, 108, 0, 4192.821, 4249.231, 4254.359, 4179.487, 4163.077, 450, 0, []
1630164675.0781, 109, 0, 4208.205, 4256.923, 4211.795, 4176.41, 4167.692, 450, 0, []
1630164675.0859, 110, 0, 4210.256, 4224.103, 4197.436, 4173.846, 4168.205, 450, 0, []
1630164675.0937, 111, 0, 4189.744, 4216.41, 4133.846, 4159.487, 4167.179, 16195, 0, []
1630164675.1016, 112, 0, 4185.641, 4251.795, 4077.436, 4140, 4156.923, 450, 0, []
1630164675.1094, 113, 0, 4195.897, 4254.872, 4057.949, 4137.436, 4152.308, 450, 0, []
1630164675.1173, 114, 0, 4196.41, 4254.359, 4023.077, 4149.231, 4155.897, 450, 0, []
1630164675.125, 115, 0, 4197.436, 4288.205, 4019.487, 4152.821, 4161.026, 16195, 0, []
1630164675.1329, 116, 0, 4201.538, 4308.205, 4007.692, 4156.41, 4179.487, 450, 0, []
1630164675.1407, 117, 0, 4202.051, 4298.462, 3990.769, 4171.795, 4190.769, 450, 0, []
1630164675.1487, 118, 0, 4196.923, 4285.641, 3995.897, 4162.051, 4173.846, 450, 0, []
1630164675.1566, 119, 0, 4188.718, 4278.974, 3982.051, 4132.821, 4165.128, 16195, 0, []
1630164675.1645, 120, 0, 4176.923, 4279.487, 3981.538, 4125.128, 4166.154, 450, 0, []
1630164675.1724, 121, 0, 4174.359, 4297.949, 3975.385, 4119.487, 4155.385, 450, 0, []
1630164675.1804, 122, 0, 4173.846, 4300, 3972.821, 4109.231, 4155.385, 450, 0, []
1630164675.1883, 123, 0, 4178.462, 4289.231, 3995.897, 4122.564, 4163.59, 16195, 0, []
1630164675.1963, 124, 0, 4207.692, 4299.487, 4002.564, 4147.692, 4180, 450, 0, []
1630164675.2042, 125, 0, 4221.538, 4291.282, 4019.487, 4155.897, 4193.333, 450, 0, []
1630164675.2121, 126, 0, 4209.231, 4283.077, 4028.205, 4155.385, 4183.077, 450, 0, []
1630164675.22, 127, 0, 4221.538, 4315.385, 4029.744, 4159.487, 4182.051, 16195, 0, []
1630164675.2278, 128, 0, 4238.974, 4314.872, 4051.282, 4162.051, 4198.462, 450, 0, []
1630164675.2357, 0, 0, 4211.795, 4282.564, 4034.359, 4143.077, 4178.462, 450, 0, []
1630164675.2435, 1, 0, 4192.308, 4306.667, 4048.205, 4126.154, 4157.949, 450, 0, []
1630164675.2513, 2, 0, 4206.667, 4323.077, 4073.846, 4131.795, 4179.487, 16181, 0, []
1630164675.2591, 3, 0, 4202.051, 4280, 4051.795, 4133.333, 4177.949, 450, 0, []
1630164675.267, 4, 0, 4212.821, 4271.282, 4073.333, 4143.59, 4173.333, 16090, 0, []
1630164675.2748, 5, 0, 4248.718, 4301.026, 4094.872, 4167.179, 4204.615, 450, 0, []
1630164675.2827, 6, 0, 4237.949, 4303.077, 4081.026, 4167.179, 4203.59, 256, 0, []
1630164675.2904, 7, 0, 4210.769, 4290.256, 4057.436, 4141.538, 4175.385, 450, 0, []
1630164675.2984, 8, 0, 4223.077, 4283.077, 4049.231, 4127.179, 4187.179, 450, 0, []
1630164675.3063, 9, 0, 4237.436, 4275.897, 4074.872, 4141.538, 4208.205, 16124, 0, []
1630164675.3143, 10, 0, 4228.718, 4282.051, 4061.026, 4146.154, 4191.282, 450, 0, []
1630164675.3222, 11, 0, 4220.513, 4293.846, 4052.821, 4123.077, 4176.41, 16197, 0, []
1630164675.3301, 12, 0, 4210.769, 4288.205, 4055.385, 4103.59, 4180, 450, 0, []
1630164675.338, 13, 0, 4208.205, 4287.179, 4037.949, 4113.846, 4182.564, 450, 0, []
1630164675.346, 14, 0, 4220.513, 4295.385, 4064.103, 4128.205, 4188.205, 450, 0, []
1630164675.3539, 15, 0, 4217.949, 4278.462, 4071.795, 4124.615, 4192.821, 16197, 0, []
1630164675.3619, 16, 0, 4199.487, 4258.462, 4056.923, 4126.667, 4182.564, 0, 0, []
1630164675.3697, 17, 0, 4204.615, 4269.744, 4072.821, 4138.462, 4185.128, 0, 0, []
1630164675.3777, 18, 0, 4225.128, 4284.615, 4077.949, 4144.615, 4205.641, 0, 0, []
1630164675.3856, 19, 0, 4230.256, 4292.308, 4087.179, 4151.282, 4207.692, 0, 0, []
1630164675.3934, 20, 0, 4232.821, 4282.051, 4082.564, 4152.308, 4197.949, 0, 0, []
1630164675.4013, 21, 0, 4235.385, 4245.128, 4078.974, 4144.103, 4199.487, 0, 0, []
1630164675.409, 22, 0, 4218.974, 4248.718, 4081.538, 4135.897, 4194.872, 0, 0, []
1630164675.4169, 23, 0, 4204.103, 4252.308, 4061.538, 4126.667, 4179.487, 0, 0, []
1630164675.4247, 24, 0, 4201.026, 4188.718, 4082.564, 4126.667, 4168.718, 0, 0, []
1630164675.4326, 25, 0, 4200.513, 4153.333, 4078.462, 4131.795, 4163.59, 0, 0, []
1630164675.4404, 26, 0, 4205.641, 4182.564, 4059.487, 4130.769, 4172.821, 0, 0, []
1630164675.4482, 27, 0, 4207.692, 4193.846, 4081.026, 4131.282, 4186.667, 0, 0, []
1630164675.456, 28, 0, 4204.103, 4184.103, 4063.077, 4124.615, 4181.538, 0, 0, []
1630164675.4639, 29, 0, 4210.769, 4182.564, 4059.487, 4112.308, 4173.333, 0, 0, []
1630164675.4717, 30, 0, 4217.436, 4179.487, 4073.333, 4118.974, 4184.615, 0, 0, []
1630164675.4797, 31, 0, 4213.846, 4184.615, 4079.487, 4144.615, 4192.308, 0, 0, []
1630164675.4875, 32, 0, 4217.949, 4182.564, 4106.667, 4156.41, 4183.077, 0, 0, []
1630164675.4955, 33, 0, 4219.487, 4174.872, 4103.077, 4147.692, 4184.103, 0, 0, []
1630164675.5034, 34, 0, 4208.718, 4214.872, 4106.154, 4147.692, 4188.205, 0, 0, []
1630164675.5114, 35, 0, 4206.154, 4261.026, 4108.205, 4146.154, 4172.821, 0, 0, []
1630164675.5193, 36, 0, 4210.256, 4253.846, 4098.462, 4134.872, 4167.179, 0, 0, []
1630164675.5272, 37, 0, 4209.744, 4249.744, 4120.513, 4141.026, 4186.667, 0, 0, []
1630164675.5351, 38, 0, 4205.128, 4291.795, 4109.231, 4148.205, 4191.282, 0, 0, []
1630164675.5431, 39, 0, 4192.308, 4307.692, 4100.513, 4137.949, 4172.821, 0, 0, []
1630164675.551, 40, 0, 4196.923, 4270.769, 4119.487, 4138.974, 4182.051, 0, 0, []
1630164675.5588, 41, 0, 4223.59, 4261.026, 4127.692, 4158.974, 4197.949, 0, 0, []
1630164675.5667, 42, 0, 4226.154, 4276.41, 4130.769, 4148.205, 4187.692, 0, 0, []
1630164675.5744, 43, 0, 4216.923, 4270.769, 4102.564, 4113.846, 4191.282, 0, 0, []
1630164675.5823, 44, 0, 4237.949, 4275.385, 4113.846, 4118.462, 4214.872, 0, 0, []
1630164675.5901, 45, 0, 4273.846, 4283.077, 4129.744, 4128.718, 4241.026, 0, 0, []
1630164675.598, 46, 0, 4321.026, 4266.154, 4111.282, 4123.59, 4294.359, 0, 0, []
1630164675.6058, 47, 0, 4379.487, 4274.872, 4141.026, 4149.744, 4357.949, 0, 0, []
1630164675.6136, 48, 0, 4408.205, 4313.846, 4142.564, 4172.308, 4384.615, 0, 0, []
1630164675.6215, 49, 0, 4404.615, 4307.692, 4133.333, 4155.385, 4379.487, 0, 0, []
1630164675.6294, 50, 0, 4391.795, 4267.692, 4143.077, 4138.462, 4360, 0, 0, []
1630164675.6372, 51, 0, 4371.282, 4278.462, 4128.718, 4133.333, 4341.538, 0, 0, []
1630164675.6452, 52, 0, 4354.872, 4311.795, 4149.744, 4136.923, 4347.179, 0, 0, []
1630164675.653, 53, 0, 4338.974, 4305.128, 4146.667, 4148.205, 4342.051, 0, 0, []
1630164675.661, 54, 0, 4311.282, 4287.179, 4121.026, 4152.308, 4301.026, 0, 0, []
1630164675.6689, 55, 0, 4299.487, 4307.692, 4127.692, 4144.615, 4273.333, 0, 0, []
1630164675.6769, 56, 0, 4312.821, 4322.051, 4127.692, 4136.41, 4286.667, 0, 0, []
1630164675.6848, 57, 0, 4321.026, 4290.769, 4147.179, 4144.615, 4307.179, 0, 0, []
1630164675.6927, 58, 0, 4325.641, 4277.436, 4151.795, 4153.846, 4311.795, 0, 0, []
1630164675.7006, 59, 0, 4354.359, 4300.513, 4152.821, 4150.769, 4321.026, 0, 0, []
1630164675.7084, 60, 0, 4397.436, 4316.923, 4167.179, 4149.231, 4350.769, 0, 0, []
1630164675.7163, 61, 0, 4411.795, 4328.205, 4138.974, 4141.026, 4371.795, 0, 0, []
1630164675.7241, 62, 0, 4395.897, 4321.538, 4135.385, 4126.667, 4378.462, 0, 0, []
1630164675.7319, 63, 0, 4396.923, 4289.231, 4135.897, 4127.692, 4394.359, 0, 0, []
1630164675.7397, 64, 0, 4427.692, 4295.897, 4145.641, 4159.487, 4428.205, 450, 0, []
1630164675.7476, 65, 0, 4445.641, 4343.59, 4181.538, 4188.205, 4444.615, 450, 0, []
1630164675.7554, 66, 0, 4429.231, 4346.154, 4158.974, 4181.026, 4423.59, 16177, 0, []
1630164675.7633, 67, 0, 4408.718, 4305.128, 4155.897, 4173.333, 4394.359, 450, 0, []
1630164675.771, 68, 0, 4401.026, 4305.128, 4155.897, 4172.308, 4378.974, 16090, 0, []
1630164675.7789, 69, 0, 4375.385, 4315.897, 4124.103, 4157.436, 4357.436, 450, 0, []
1630164675.7867, 70, 0, 4334.359, 4291.282, 4132.308, 4149.231, 4313.846, 256, 0, []
1630164675.7947, 71, 0, 4318.462, 4281.538, 4126.154, 4156.41, 4281.026, 450, 0, []
1630164675.8026, 72, 0, 4301.026, 4296.41, 4123.59, 4150.769, 4268.718, 450, 0, []
1630164675.8105, 73, 0, 4252.308, 4301.026, 4120.513, 4130.769, 4246.667, 16124, 0, []
1630164675.8184, 74, 0, 4219.487, 4289.744, 4109.231, 4132.308, 4218.462, 450, 0, []
1630164675.8264, 75, 0, 4220, 4288.205, 4129.744, 4140.513, 4205.641, 16188, 0, []
1630164675.8343, 76, 0, 4212.821, 4301.026, 4118.462, 4130.256, 4203.077, 450, 0, []
1630164675.8423, 77, 0, 4196.41, 4293.333, 4118.974, 4138.974, 4201.026, 450, 0, []
1630164675.8501, 78, 0, 4200, 4274.359, 4135.897, 4162.564, 4195.897, 450, 0, []
1630164675.8581, 79, 0, 4191.795, 4288.718, 4126.667, 4156.923, 4176.41, 16188, 0, []
1630164675.866, 80, 0, 4165.128, 4301.538, 4127.692, 4132.308, 4147.692, 450, 0, []
1630164675.8738, 81, 0, 4174.359, 4272.308, 4116.923, 4132.308, 4155.385, 450, 0, []
1630164675.8817, 82, 0, 4200, 4290.769, 4140, 4160.513, 4190.256, 450, 0, []
1630164675.8895, 83, 0, 4182.564, 4328.205, 4151.795, 4166.154, 4181.538, 16188, 0, []
1630164675.8973, 84, 0, 4149.744, 4287.692, 4111.282, 4138.974, 4145.128, 450, 0, []
1630164675.9051, 85, 0, 4149.231, 4265.641, 4122.051, 4137.436, 4148.718, 450, 0, []
1630164675.913, 86, 0, 4150.256, 4292.308, 4113.333, 4146.667, 4156.41, 450, 0, []
1630164675.9208, 87, 0, 4137.949, 4270.769, 4094.872, 4131.795, 4130.769, 16188, 0, []
1630164675.9287, 88, 0, 4135.385, 4255.897, 4110.769, 4129.744, 4119.487, 450, 0, []
1630164675.9364, 89, 0, 4139.487, 4282.051, 4092.308, 4138.974, 4118.462, 450, 0, []
1630164675.9444, 90, 0, 4133.846, 4270.769, 4097.436, 4130.769, 4110.256, 450, 0, []
1630164675.9523, 91, 0, 4132.308, 4255.385, 4109.744, 4128.205, 4117.436, 16188, 0, []
1630164675.9603, 92, 0, 4144.615, 4285.128, 4116.41, 4142.564, 4131.282, 450, 0, []
1630164675.9682, 93, 0, 4146.154, 4293.846, 4126.154, 4142.051, 4134.359, 450, 0, []
1630164675.9761, 94, 0, 4136.41, 4257.436, 4101.538, 4128.718, 4131.795, 450, 0, []
1630164675.984, 95, 0, 4132.308, 4235.385, 4107.692, 4130.769, 4127.179, 16188, 0, []
1630164675.992, 96, 0, 4125.128, 4258.462, 4102.051, 4128.205, 4123.077, 450, 0, []
1630164675.9999, 97, 0, 4114.359, 4280.513, 4087.179, 4121.538, 4121.026, 450, 0, []
1630164676.0077, 98, 0, 4124.615, 4258.462, 4114.359, 4133.846, 4129.744, 450, 0, []
1630164676.0155, 99, 0, 4141.538, 4237.949, 4113.333, 4142.051, 4142.564, 16188, 0, []
1630164676.0233, 100, 0, 4132.821, 4247.692, 4118.974, 4131.795, 4130.256, 450, 0, []
1630164676.0312, 101, 0, 4117.949, 4252.308, 4125.128, 4132.821, 4117.949, 450, 0, []
1630164676.039, 102, 0, 4111.282, 4256.923, 4112.308, 4144.615, 4118.974, 450, 0, []
1630164676.0469, 103, 0, 4100.513, 4268.205, 4113.333, 4128.205, 4097.436, 16188, 0, []
1630164676.0546, 104, 0, 4112.821, 4259.487, 4101.538, 4122.564, 4091.795, 450, 0, []
1630164676.0625, 105, 0, 4151.282, 4257.436, 4130.769, 4163.077, 4126.667, 450, 0, []
1630164676.0703, 106, 0, 4154.872, 4271.282, 4136.923, 4165.128, 4129.744, 450, 0, []
1630164676.0783, 107, 0, 4129.744, 4255.897, 4104.615, 4130.256, 4103.59, 16188, 0, []
1630164676.0862, 108, 0, 4133.846, 4241.026, 4127.692, 4142.564, 4108.718, 450, 0, []
1630164676.0941, 109, 0, 4145.641, 4271.795, 4125.128, 4166.154, 4127.692, 450, 0, []
1630164676.102, 110, 0, 4140.513, 4290.256, 4114.872, 4161.026, 4129.231, 450, 0, []
1630164676.11, 111, 0, 4132.308, 4268.205, 4122.564, 4152.821, 4126.154, 16188, 0, []
1630164676.1179, 112, 0, 4128.718, 4257.436, 4111.795, 4145.641, 4129.744, 450, 0, []
1630164676.1259, 113, 0, 4126.154, 4245.128, 4108.205, 4130.256, 4121.026, 450, 0, []
1630164676.1337, 114, 0, 4094.359, 4201.026, 4058.974, 4097.436, 4068.205, 450, 0, []
1630164676.1417, 115, 0, 4053.333, 4185.641, 4048.718, 4085.641, 4021.538, 16188, 0, []
1630164676.1496, 116, 0, 4077.436, 4229.744, 4106.154, 4127.179, 4053.846, 450, 0, []
1630164676.1576, 117, 0, 4129.231, 4241.026, 4122.564, 4161.026, 4104.103, 450, 0, []
1630164676.1655, 118, 0, 4125.128, 4188.718, 4126.154, 4147.692, 4087.179, 450, 0, []
1630164676.1732, 119, 0, 4100.513, 4152.308, 4115.385, 4129.744, 4060.513, 16188, 0, []
1630164676.1811, 120, 0, 4104.615, 4155.385, 4131.795, 4138.462, 4078.462, 450, 0, []
1630164676.1889, 121, 0, 4111.282, 4181.026, 4163.077, 4145.641, 4097.949, 450, 0, []
1630164676.1968, 122, 0, 4114.872, 4193.333, 4177.436, 4148.205, 4089.231, 450, 0, []
1630164676.2046, 123, 0, 4111.282, 4174.872, 4226.667, 4149.231, 4072.821, 16188, 0, []
1630164676.2124, 124, 0, 4092.821, 4165.641, 4261.026, 4135.385, 4066.667, 450, 0, []
1630164676.2202, 125, 0, 4088.205, 4183.077, 4333.846, 4133.333, 4074.872, 450, 0, []
1630164676.2281, 126, 0, 4118.462, 4195.897, 4358.974, 4149.231, 4096.41, 450, 0, []
1630164676.2359, 127, 0, 4149.744, 4186.667, 4240.513, 4156.41, 4116.923, 16188, 0, []
1630164676.2438, 128, 0, 4137.436, 4174.872, 4170.256, 4147.179, 4110.256, 450, 0, []
1630164676.2516, 0, 0, 4116.923, 4165.128, 4146.154, 4132.308, 4092.308, 450, 0, []
1630164676.2595, 1, 0, 4130.256, 4163.077, 4127.179, 4129.744, 4090.256, 450, 0, []
1630164676.2674, 2, 0, 4145.128, 4173.846, 4125.641, 4135.897, 4090.769, 16185, 0, []
1630164676.2754, 3, 0, 4142.051, 4176.41, 4097.436, 4128.205, 4087.692, 450, 0, []
1630164676.2833, 4, 0, 4136.41, 4166.154, 4090.769, 4111.795, 4088.205, 16092, 0, []
1630164676.2913, 5, 0, 4124.103, 4145.128, 4073.333, 4092.821, 4079.487, 450, 0, []
1630164676.2991, 6, 0, 4102.051, 4130.769, 4055.385, 4071.795, 4056.41, 249, 0, []
1630164676.3071, 7, 0, 4086.667, 4134.872, 4072.308, 4062.564, 4041.538, 450, 0, []
1630164676.315, 8, 0, 4079.487, 4121.026, 4059.487, 4063.59, 4038.462, 450, 0, []
1630164676.323, 9, 0, 4072.308, 4109.231, 4061.538, 4063.077, 4032.308, 16125, 0, []
1630164676.3309, 10, 0, 4081.026, 4125.128, 4066.667, 4062.564, 4032.308, 450, 0, []
1630164676.3386, 11, 0, 4095.385, 4132.821, 4047.179, 4058.974, 4038.462, 16198, 0, []
1630164676.3465, 12, 0, 4088.718, 4111.282, 4042.564, 4047.692, 4036.41, 450, 0, []
1630164676.3543, 13, 0, 4084.615, 4083.59, 4029.231, 4042.051, 4035.897, 450, 0, []
1630164676.3622, 14, 0, 4083.59, 4070.256, 4039.487, 4041.026, 4035.385, 450, 0, []
1630164676.37, 15, 0, 4075.897, 4063.59, 4037.436, 4035.897, 4022.564, 16198, 0, []
1630164676.3778, 16, 0, 4086.154, 4077.949, 4026.667, 4045.128, 4025.641, 0, 0, []
1630164676.3856, 17, 0, 4107.179, 4101.538, 4065.128, 4070.769, 4056.923, 0, 0, []
1630164676.3935, 18, 0, 4112.821, 4111.795, 4062.051, 4079.487, 4069.231, 0, 0, []
1630164676.4013, 19, 0, 4103.59, 4103.59, 4047.692, 4079.487, 4052.308, 0, 0, []
1630164676.4093, 20, 0, 4089.744, 4100.513, 4045.641, 4077.436, 4045.128, 0, 0, []
1630164676.4171, 21, 0, 4075.897, 4128.718, 4017.949, 4062.051, 4049.744, 0, 0, []
1630164676.4251, 22, 0, 4068.718, 4131.282, 4023.077, 4050.256, 4036.923, 0, 0, []
1630164676.433, 23, 0, 4081.026, 4103.077, 4038.974, 4059.487, 4038.462, 0, 0, []
1630164676.441, 24, 0, 4098.462, 4125.641, 4061.026, 4083.59, 4072.308, 0, 0, []
1630164676.4489, 25, 0, 4096.41, 4174.359, 4062.051, 4086.154, 4077.949, 0, 0, []
1630164676.4568, 26, 0, 4075.897, 4161.026, 4027.179, 4060.513, 4053.333, 0, 0, []
1630164676.4647, 27, 0, 4067.692, 4135.385, 4033.333, 4051.282, 4051.282, 0, 0, []
1630164676.4727, 28, 0, 4073.846, 4163.077, 4023.59, 4058.974, 4057.949, 0, 0, []
1630164676.4806, 29, 0, 4075.897, 4182.051, 4016.41, 4063.077, 4052.308, 0, 0, []
1630164676.4884, 30, 0, 4078.462, 4154.359, 4042.051, 4064.103, 4059.487, 0, 0, []
1630164676.4962, 31, 0, 4081.026, 4127.692, 4029.231, 4064.615, 4077.949, 0, 0, []
1630164676.504, 32, 0, 4085.641, 4112.821, 4043.077, 4077.949, 4094.359, 0, 0, []
1630164676.5119, 33, 0, 4092.308, 4120, 4052.821, 4093.333, 4107.179, 0, 0, []
1630164676.5197, 34, 0, 4091.795, 4160.513, 4027.179, 4085.128, 4095.897, 0, 0, []
1630164676.5276, 35, 0, 4087.692, 4170.256, 4023.077, 4075.385, 4071.282, 0, 0, []
1630164676.5353, 36, 0, 4085.641, 4154.872, 4023.59, 4086.667, 4061.538, 0, 0, []
1630164676.5432, 37, 0, 4092.308, 4149.744, 4038.462, 4094.359, 4073.846, 0, 0, []
1630164676.551, 38, 0, 4110.769, 4133.333, 4034.872, 4084.615, 4094.359, 0, 0, []
1630164676.5589, 39, 0, 4124.103, 4121.026, 4037.949, 4081.538, 4111.282, 0, 0, []
1630164676.5667, 40, 0, 4124.615, 4125.128, 4057.949, 4089.231, 4119.487, 0, 0, []
1630164676.5746, 41, 0, 4120.513, 4111.282, 4028.205, 4085.128, 4113.333, 0, 0, []
1630164676.5825, 42, 0, 4114.872, 4100, 4032.821, 4079.487, 4097.436, 0, 0, []
1630164676.5905, 43, 0, 4111.795, 4116.41, 4053.333, 4082.051, 4088.718, 0, 0, []
1630164676.5984, 44, 0, 4112.821, 4130.769, 4040, 4086.154, 4094.872, 0, 0, []
1630164676.6064, 45, 0, 4117.436, 4144.615, 4051.282, 4095.897, 4101.538, 0, 0, []
1630164676.6143, 46, 0, 4113.333, 4150.769, 4043.59, 4087.179, 4094.872, 0, 0, []
1630164676.6222, 47, 0, 4088.205, 4142.564, 4035.897, 4063.077, 4068.718, 0, 0, []
1630164676.6301, 48, 0, 4070.256, 4134.872, 4040.513, 4061.538, 4051.795, 0, 0, []
1630164676.6381, 49, 0, 4081.026, 4135.385, 4037.949, 4076.923, 4063.59, 0, 0, []
1630164676.646, 50, 0, 4081.538, 4153.333, 4043.59, 4071.282, 4057.949, 0, 0, []
1630164676.6538, 51, 0, 4054.359, 4147.179, 4010.256, 4043.077, 4029.231, 0, 0, []
1630164676.6616, 52, 0, 4058.462, 4137.436, 4020, 4058.462, 4037.949, 0, 0, []
1630164676.6694, 53, 0, 4110.769, 4198.974, 4077.949, 4115.897, 4097.436, 0, 0, []
1630164676.6773, 54, 0, 4138.462, 4231.795, 4078.974, 4128.205, 4126.154, 0, 0, []
1630164676.6851, 55, 0, 4122.564, 4175.897, 4064.103, 4090.769, 4104.103, 0, 0, []
1630164676.693, 56, 0, 4118.974, 4183.077, 4046.667, 4083.59, 4101.538, 0, 0, []
1630164676.7007, 57, 0, 4127.692, 4236.41, 4049.231, 4106.667, 4109.231, 0, 0, []
1630164676.7086, 58, 0, 4111.282, 4192.821, 4052.308, 4096.41, 4090.256, 0, 0, []
1630164676.7164, 59, 0, 4102.564, 4138.974, 4033.333, 4077.949, 4076.923, 0, 0, []
1630164676.7244, 60, 0, 4122.564, 4159.487, 4055.385, 4088.718, 4092.821, 0, 0, []
1630164676.7323, 61, 0, 4128.718, 4178.974, 4053.333, 4098.974, 4105.128, 0, 0, []
1630164676.7402, 62, 0, 4117.436, 4182.051, 4040.513, 4100, 4102.051, 0, 0, []
1630164676.7481, 63, 0, 4113.846, 4183.59, 4054.359, 4105.128, 4103.59, 0, 0, []
1630164676.7561, 64, 0, 4124.615, 4151.282, 4046.154, 4109.231, 4108.718, 450, 0, []
1630164676.764, 65, 0, 4128.718, 4107.692, 4056.41, 4108.205, 4107.692, 450, 0, []
1630164676.772, 66, 0, 4111.282, 4110.256, 4046.154, 4097.436, 4095.897, 16185, 0, []
1630164676.7798, 67, 0, 4092.308, 4112.821, 4025.128, 4090.256, 4080, 450, 0, []
1630164676.7878, 68, 0, 4088.718, 4091.282, 4036.923, 4094.872, 4073.333, 16093, 0, []
1630164676.7957, 69, 0, 4091.282, 4110.769, 4026.154, 4093.333, 4078.462, 450, 0, []
1630164676.8035, 70, 0, 4094.872, 4143.59, 4034.359, 4095.385, 4097.436, 256, 0, []
1630164676.8114, 71, 0, 4106.667, 4129.744, 4041.538, 4103.59, 4104.103, 450, 0, []
1630164676.8191, 72, 0, 4111.795, 4129.744, 4037.436, 4102.051, 4094.359, 450, 0, []
1630164676.827, 73, 0, 4105.641, 4173.846, 4051.282, 4100.513, 4091.282, 16120, 0, []
1630164676.8348, 74, 0, 4111.282, 4174.872, 4026.667, 4100.513, 4094.359, 450, 0, []
1630164676.8427, 75, 0, 4118.974, 4146.154, 4021.026, 4103.077, 4090.256, 16198, 0, []
1630164676.8505, 76, 0, 4121.026, 4157.436, 4042.051, 4111.282, 4093.333, 450, 0, []
1630164676.8584, 77, 0, 4130.769, 4194.359, 4052.308, 4119.487, 4116.41, 450, 0, []
1630164676.8663, 78, 0, 4145.128, 4218.462, 4073.846, 4125.128, 4124.103, 450, 0, []
1630164676.8743, 79, 0, 4142.051, 4196.41, 4058.462, 4111.282, 4101.026, 16198, 0, []
1630164676.8822, 80, 0, 4118.974, 4165.641, 4043.59, 4094.872, 4091.282, 450, 0, []
1630164676.8902, 81, 0, 4117.436, 4182.051, 4044.615, 4111.282, 4114.359, 450, 0, []
1630164676.898, 82, 0, 4132.821, 4209.744, 4046.667, 4126.154, 4130.769, 450, 0, []
1630164676.906, 83, 0, 4128.718, 4203.59, 4058.462, 4106.154, 4110.769, 16198, 0, []
1630164676.9139, 84, 0, 4124.103, 4189.744, 4041.026, 4095.897, 4103.59, 450, 0, []
1630164676.9219, 85, 0, 4146.154, 4203.59, 4063.077, 4133.333, 4141.026, 450, 0, []
1630164676.9298, 86, 0, 4164.103, 4225.128, 4084.103, 4151.282, 4161.026, 450, 0, []
1630164676.9377, 87, 0, 4153.846, 4226.667, 4051.282, 4121.026, 4141.026, 16198, 0, []
1630164676.9456, 88, 0, 4140.513, 4200.513, 4063.59, 4110.769, 4132.821, 450, 0, []
1630164676.9534, 89, 0, 4138.462, 4181.026, 4063.077, 4126.154, 4138.462, 450, 0, []
1630164676.9613, 90, 0, 4144.103, 4192.308, 4048.718, 4127.179, 4128.718, 450, 0, []
1630164676.9691, 91, 0, 4155.385, 4210.256, 4056.41, 4116.41, 4122.564, 16198, 0, []
1630164676.977, 92, 0, 4150.769, 4206.154, 4049.744, 4104.615, 4123.077, 450, 0, []
1630164676.9847, 93, 0, 4150.256, 4181.026, 4060, 4105.128, 4122.051, 450, 0, []
1630164676.9926, 94, 0, 4161.538, 4182.564, 4048.718, 4105.641, 4122.051, 450, 0, []
1630164677.0004, 95, 0, 4134.359, 4194.872, 4031.795, 4088.205, 4093.846, 16198, 0, []
1630164677.0083, 96, 0, 4098.462, 4195.897, 4033.333, 4075.897, 4066.667, 450, 0, []
1630164677.0161, 97, 0, 4121.538, 4217.436, 4030.769, 4091.795, 4095.385, 450, 0, []
1630164677.0239, 98, 0, 4162.564, 4238.974, 4065.128, 4112.821, 4133.846, 450, 0, []
1630164677.0317, 99, 0, 4156.923, 4221.538, 4064.103, 4106.154, 4125.128, 16198, 0, []
1630164677.0397, 100, 0, 4137.436, 4222.051, 4051.795, 4101.538, 4108.205, 450, 0, []
1630164677.0476, 101, 0, 4158.462, 4270.256, 4082.051, 4137.949, 4132.308, 450, 0, []
1630164677.0556, 102, 0, 4185.641, 4276.41, 4081.026, 4165.128, 4160, 450, 0, []
1630164677.0634, 103, 0, 4178.462, 4249.744, 4072.821, 4149.231, 4152.308, 16198, 0, []
1630164677.0714, 104, 0, 4163.59, 4248.718, 4060.513, 4133.846, 4134.872, 450, 0, []
1630164677.0793, 105, 0, 4168.205, 4242.564, 4069.744, 4141.538, 4136.41, 450, 0, []
1630164677.0873, 106, 0, 4170.769, 4219.487, 4092.308, 4143.077, 4143.59, 450, 0, []
1630164677.0952, 107, 0, 4169.231, 4240.513, 4068.205, 4137.436, 4135.897, 16198, 0, []
1630164677.1031, 108, 0, 4183.077, 4291.795, 4087.179, 4151.282, 4141.026, 450, 0, []
1630164677.111, 109, 0, 4196.41, 4300, 4104.103, 4169.231, 4168.718, 450, 0, []
1630164677.1188, 110, 0, 4188.205, 4280.513, 4067.692, 4162.051, 4168.205, 450, 0, []
1630164677.1267, 111, 0, 4167.179, 4256.41, 4055.897, 4129.231, 4132.308, 16198, 0, []
1630164677.1345, 112, 0, 4168.718, 4258.974, 4056.923, 4115.385, 4128.205, 450, 0, []
1630164677.1423, 113, 0, 4189.744, 4272.308, 4076.923, 4132.308, 4148.718, 450, 0, []
1630164677.1501, 114, 0, 4186.667, 4256.923, 4073.333, 4120, 4146.154, 450, 0, []
1630164677.158, 115, 0, 4167.179, 4246.667, 4043.59, 4083.077, 4128.205, 16198, 0, []
1630164677.1658, 116, 0, 4164.615, 4253.846, 4055.385, 4077.436, 4120, 450, 0, []
1630164677.1737, 117, 0, 4170.256, 4249.744, 4060, 4103.077, 4128.205, 450, 0, []
1630164677.1814, 118, 0, 4165.641, 4251.795, 4063.077, 4122.051, 4131.795, 450, 0, []
1630164677.1894, 119, 0, 4163.59, 4281.026, 4067.692, 4115.385, 4129.744, 16198, 0, []
1630164677.1973, 120, 0, 4175.897, 4284.103, 4066.154, 4114.872, 4141.026, 450, 0, []
1630164677.2053, 121, 0, 4182.564, 4273.846, 4085.641, 4128.205, 4135.897, 450, 0, []
1630164677.2132, 122, 0, 4181.538, 4282.564, 4069.231, 4121.026, 4124.103, 450, 0, []
1630164677.2211, 123, 0, 4187.179, 4269.744, 4069.231, 4117.436, 4148.205, 16198, 0, []
1630164677.229, 124, 0, 4189.231, 4252.821, 4089.231, 4129.744, 4157.949, 450, 0, []
1630164677.237, 125, 0, 4188.718, 4263.077, 4075.897, 4125.641, 4144.103, 450, 0, []
1630164677.2449, 126, 0, 4200, 4277.949, 4087.692, 4120.513, 4155.897, 450, 0, []
1630164677.2529, 127, 0, 4200, 4291.795, 4075.897, 4123.077, 4159.487, 16198, 0, []
1630164677.2607, 128, 0, 4178.974, 4298.462, 4053.846, 4125.641, 4142.051, 450, 0, []
1630164677.2685, 0, 0, 4178.974, 4282.564, 4060.513, 4133.846, 4146.154, 450, 0, []
1630164677.2764, 1, 0, 4199.487, 4279.487, 4048.205, 4135.385, 4161.538, 450, 0, []
1630164677.2842, 2, 0, 4205.128, 4305.641, 4057.436, 4131.795, 4160.513, 16184, 0, []
1630164677.2921, 3, 0, 4192.821, 4301.026, 4048.718, 4121.538, 4145.641, 450, 0, []
1630164677.2999, 4, 0, 4176.923, 4252.308, 4022.051, 4100, 4130.256, 16093, 0, []
1630164677.3077, 5, 0, 4182.051, 4229.231, 4037.436, 4094.872, 4142.051, 450, 0, []
1630164677.3155, 6, 0, 4206.154, 4256.923, 4048.718, 4113.333, 4161.538, 256, 0, []
1630164677.3234, 7, 0, 4197.436, 4269.744, 4049.744, 4115.897, 4145.128, 450, 0, []
1630164677.3312, 8, 0, 4182.051, 4248.718, 4036.923, 4112.308, 4134.359, 450, 0, []
1630164677.3392, 9, 0, 4211.282, 4267.179, 4050.256, 4137.436, 4169.744, 16120, 0, []
1630164677.347, 10, 0, 4239.487, 4303.59, 4086.667, 4152.308, 4208.205, 450, 0, []
1630164677.355, 11, 0, 4226.154, 4278.974, 4065.641, 4133.333, 4200, 16203, 0, []
1630164677.3629, 12, 0, 4204.615, 4251.795, 4062.564, 4122.051, 4173.846, 450, 0, []
1630164677.3709, 13, 0, 4203.59, 4267.179, 4066.667, 4117.949, 4190.769, 450, 0, []
1630164677.3788, 14, 0, 4227.692, 4269.744, 4048.205, 4114.872, 4235.385, 450, 0, []
1630164677.3867, 15, 0, 4262.564, 4263.077, 4062.564, 4123.077, 4258.462, 16203, 0, []
1630164677.3946, 16, 0, 4270.769, 4265.128, 4054.872, 4114.359, 4266.154, 0, 0, []
1630164677.4026, 17, 0, 4260.513, 4251.795, 4060.513, 4101.538, 4263.59, 0, 0, []
1630164677.4105, 18, 0, 4264.615, 4241.538, 4084.103, 4124.615, 4250.256, 0, 0, []
1630164677.4185, 19, 0, 4271.795, 4257.436, 4097.436, 4152.821, 4261.026, 0, 0, []
1630164677.4263, 20, 0, 4264.103, 4272.308, 4122.051, 4153.846, 4278.462, 0, 0, []
1630164677.4341, 21, 0, 4246.667, 4255.897, 4104.615, 4139.487, 4256.41, 0, 0, []
1630164677.442, 22, 0, 4240.513, 4236.41, 4107.692, 4138.974, 4245.641, 0, 0, []
1630164677.4498, 23, 0, 4251.282, 4257.436, 4138.974, 4155.385, 4275.897, 0, 0, []
1630164677.4577, 24, 0, 4266.667, 4295.897, 4141.538, 4164.103, 4284.103, 0, 0, []
1630164677.4654, 25, 0, 4263.077, 4303.077, 4146.154, 4155.897, 4254.872, 0, 0, []
1630164677.4734, 26, 0, 4238.974, 4277.949, 4122.564, 4142.051, 4241.538, 0, 0, []
1630164677.4813, 27, 0, 4235.385, 4258.974, 4117.949, 4147.179, 4250.256, 0, 0, []
1630164677.4892, 28, 0, 4252.821, 4272.821, 4131.282, 4155.385, 4249.744, 0, 0, []
1630164677.497, 29, 0, 4249.231, 4280, 4112.821, 4143.077, 4244.103, 0, 0, []
1630164677.5049, 30, 0, 4242.564, 4260, 4122.564, 4135.897, 4251.282, 0, 0, []
1630164677.5128, 31, 0, 4247.179, 4257.436, 4115.385, 4129.744, 4244.103, 0, 0, []
1630164677.5208, 32, 0, 4233.333, 4264.103, 4102.051, 4117.436, 4224.615, 0, 0, []
1630164677.5287, 33, 0, 4230.769, 4268.718, 4112.821, 4134.359, 4242.564, 0, 0, []
1630164677.5367, 34, 0, 4263.077, 4314.872, 4105.641, 4169.231, 4273.846, 0, 0, []
1630164677.5445, 35, 0, 4271.795, 4354.359, 4120, 4175.385, 4272.821, 0, 0, []
1630164677.5525, 36, 0, 4244.615, 4317.436, 4112.308, 4160.513, 4261.026, 0, 0, []
1630164677.5604, 37, 0, 4225.641, 4285.641, 4089.744, 4146.667, 4245.641, 0, 0, []
1630164677.5682, 38, 0, 4224.615, 4295.897, 4103.59, 4131.795, 4219.487, 0, 0, []
1630164677.5761, 39, 0, 4238.974, 4295.897, 4110.256, 4141.026, 4233.333, 0, 0, []
1630164677.5838, 40, 0, 4252.821, 4292.308, 4121.538, 4170.256, 4268.718, 0, 0, []
1630164677.5917, 41, 0, 4239.487, 4280, 4105.128, 4168.205, 4254.359, 0, 0, []
1630164677.5995, 42, 0, 4225.641, 4278.462, 4094.359, 4160.513, 4238.462, 0, 0, []
1630164677.6074, 43, 0, 4231.795, 4312.308, 4122.051, 4184.615, 4263.59, 0, 0, []
1630164677.6152, 44, 0, 4234.872, 4318.974, 4105.128, 4195.897, 4267.692, 0, 0, []
1630164677.623, 45, 0, 4244.615, 4292.821, 4101.538, 4191.282, 4257.949, 0, 0, []
1630164677.6309, 46, 0, 4269.231, 4296.41, 4123.077, 4206.154, 4289.744, 0, 0, []
1630164677.6389, 47, 0, 4275.385, 4323.59, 4130.256, 4223.59, 4308.718, 0, 0, []
1630164677.6467, 48, 0, 4263.077, 4330.769, 4133.846, 4213.333, 4276.923, 0, 0, []
1630164677.6547, 49, 0, 4261.026, 4313.333, 4111.795, 4188.718, 4264.615, 0, 0, []
1630164677.6626, 50, 0, 4261.538, 4310.256, 4128.718, 4191.795, 4284.615, 0, 0, []
1630164677.6705, 51, 0, 4267.179, 4343.077, 4146.667, 4211.795, 4285.641, 0, 0, []
1630164677.6784, 52, 0, 4276.41, 4347.692, 4119.487, 4206.667, 4265.641, 0, 0, []
1630164677.6864, 53, 0, 4263.077, 4311.795, 4120.513, 4185.641, 4258.462, 0, 0, []
1630164677.6943, 54, 0, 4247.692, 4304.615, 4121.538, 4184.103, 4263.077, 0, 0, []
1630164677.7023, 55, 0, 4243.077, 4305.641, 4115.385, 4189.231, 4246.667, 0, 0, []
1630164677.7101, 56, 0, 4233.846, 4286.667, 4105.641, 4173.846, 4224.103, 0, 0, []
1630164677.7179, 57, 0, 4238.462, 4280, 4111.795, 4167.179, 4230.256, 0, 0, []
1630164677.7258, 58, 0, 4258.462, 4289.231, 4147.692, 4188.205, 4236.923, 0, 0, []
1630164677.7336, 59, 0, 4269.744, 4299.487, 4138.462, 4199.487, 4226.154, 0, 0, []
1630164677.7415, 60, 0, 4269.231, 4311.795, 4137.949, 4202.564, 4233.846, 0, 0, []
1630164677.7492, 61, 0, 4274.872, 4325.128, 4152.308, 4215.897, 4255.385, 0, 0, []
1630164677.7571, 62, 0, 4273.846, 4341.026, 4126.667, 4211.795, 4242.051, 0, 0, []
1630164677.7649, 63, 0, 4253.333, 4333.333, 4124.615, 4182.051, 4209.231, 0, 0, []
1630164677.7728, 64, 0, 4249.231, 4302.564, 4126.154, 4176.923, 4217.949, 450, 0, []
1630164677.7806, 65, 0, 4260, 4288.205, 4124.615, 4194.359, 4235.897, 450, 0, []
1630164677.7885, 66, 0, 4245.128, 4293.333, 4125.128, 4178.462, 4216.923, 16177, 0, []
1630164677.7964, 67, 0, 4229.744, 4291.282, 4125.128, 4173.333, 4213.846, 450, 0, []
1630164677.8044, 68, 0, 4252.308, 4295.385, 4167.692, 4212.308, 4237.436, 16090, 0, []
1630164677.8123, 69, 0, 4257.436, 4312.821, 4157.436, 4209.231, 4228.205, 450, 0, []
1630164677.8203, 70, 0, 4230.769, 4300.513, 4118.462, 4168.205, 4211.282, 251, 0, []
1630164677.8281, 71, 0, 4240, 4281.538, 4127.692, 4175.897, 4225.128, 450, 0, []
1630164677.8361, 72, 0, 4275.385, 4305.641, 4129.744, 4202.051, 4232.821, 450, 0, []
1630164677.844, 73, 0, 4278.974, 4319.487, 4141.538, 4201.026, 4229.744, 16121, 0, []
1630164677.852, 74, 0, 4258.974, 4293.846, 4127.179, 4200.513, 4230.769, 450, 0, []
1630164677.8599, 75, 0, 4245.128, 4285.128, 4109.231, 4208.205, 4217.436, 16197, 0, []
1630164677.8678, 76, 0, 4248.718, 4300, 4120, 4202.564, 4211.795, 450, 0, []
1630164677.8757, 77, 0, 4263.59, 4292.821, 4098.974, 4192.821, 4224.103, 450, 0, []
1630164677.8835, 78, 0, 4268.718, 4290.256, 4101.026, 4190.769, 4207.692, 450, 0, []
1630164677.8914, 79, 0, 4248.718, 4304.615, 4095.385, 4174.359, 4181.538, 16197, 0, []
1630164677.8992, 80, 0, 4232.308, 4302.564, 4072.308, 4162.051, 4186.667, 450, 0, []
1630164677.907, 81, 0, 4230.256, 4275.385, 4088.718, 4166.667, 4180, 450, 0, []
1630164677.9148, 82, 0, 4228.205, 4272.821, 4087.692, 4161.026, 4164.103, 450, 0, []
1630164677.9227, 83, 0, 4244.103, 4306.154, 4109.744, 4178.462, 4188.718, 16197, 0, []
1630164677.9305, 84, 0, 4267.179, 4312.308, 4133.846, 4210.769, 4210.769, 450, 0, []
1630164677.9384, 85, 0, 4246.154, 4289.744, 4105.128, 4191.282, 4197.436, 450, 0, []
1630164677.9461, 86, 0, 4223.077, 4276.41, 4103.59, 4164.103, 4198.974, 450, 0, []
1630164677.9541, 87, 0, 4234.872, 4280.513, 4116.41, 4172.308, 4203.59, 16197, 0, []
1630164677.962, 88, 0, 4227.179, 4294.872, 4124.615, 4169.231, 4188.718, 450, 0, []
1630164677.97, 89, 0, 4216.41, 4315.897, 4116.923, 4170.256, 4192.821, 450, 0, []
1630164677.9779, 90, 0, 4240, 4309.744, 4101.026, 4196.41, 4205.128, 450, 0, []
1630164677.9858, 91, 0, 4240, 4277.949, 4113.333, 4202.051, 4195.897, 16197, 0, []
1630164677.9937, 92, 0, 4225.128, 4284.103, 4099.487, 4187.179, 4198.462, 450, 0, []
1630164678.0017, 93, 0, 4237.949, 4305.641, 4097.436, 4183.077, 4213.846, 450, 0, []
1630164678.0096, 94, 0, 4241.026, 4285.128, 4107.179, 4170.256, 4208.718, 450, 0, []
1630164678.0176, 95, 0, 4229.744, 4275.385, 4093.333, 4155.385, 4199.487, 16197, 0, []
1630164678.0255, 96, 0, 4229.231, 4304.615, 4112.308, 4168.718, 4195.897, 450, 0, []
1630164678.0332, 97, 0, 4220.513, 4298.974, 4108.205, 4185.128, 4192.308, 450, 0, []
1630164678.0411, 98, 0, 4212.308, 4267.179, 4098.462, 4190.256, 4192.821, 450, 0, []
1630164678.0489, 99, 0, 4228.718, 4276.923, 4118.974, 4196.41, 4196.41, 16197, 0, []
1630164678.0568, 100, 0, 4233.846, 4292.308, 4111.282, 4200, 4205.128, 450, 0, []
1630164678.0646, 101, 0, 4214.872, 4273.846, 4104.103, 4187.692, 4200, 450, 0, []
1630164678.0724, 102, 0, 4218.974, 4270.769, 4101.538, 4169.744, 4188.205, 450, 0, []
1630164678.0802, 103, 0, 4240, 4298.462, 4125.641, 4180.513, 4204.103, 16197, 0, []
1630164678.0881, 104, 0, 4236.923, 4307.692, 4133.846, 4193.333, 4216.41, 450, 0, []
1630164678.0959, 105, 0, 4215.897, 4281.538, 4080.513, 4165.641, 4186.667, 450, 0, []
1630164678.1038, 106, 0, 4212.308, 4276.41, 4091.282, 4153.846, 4175.385, 450, 0, []
1630164678.1115, 107, 0, 4225.641, 4289.744, 4117.949, 4179.487, 4200, 16197, 0, []
1630164678.1195, 108, 0, 4226.667, 4287.179, 4106.154, 4181.538, 4196.41, 450, 0, []
1630164678.1274, 109, 0, 4215.897, 4287.179, 4110.769, 4169.231, 4176.41, 450, 0, []
1630164678.1354, 110, 0, 4213.333, 4283.077, 4097.949, 4173.846, 4167.179, 450, 0, []
1630164678.1433, 111, 0, 4212.308, 4269.231, 4096.923, 4166.667, 4161.538, 16197, 0, []
1630164678.1512, 112, 0, 4214.359, 4278.974, 4099.487, 4161.026, 4178.462, 450, 0, []
1630164678.1591, 113, 0, 4234.872, 4295.385, 4103.077, 4183.59, 4202.564, 450, 0, []
1630164678.1671, 114, 0, 4247.179, 4270.769, 4119.487, 4182.564, 4196.41, 450, 0, []
1630164678.175, 115, 0, 4235.385, 4227.179, 4094.872, 4156.923, 4185.641, 16197, 0, []
1630164678.183, 116, 0, 4234.872, 4212.821, 4098.974, 4169.744, 4191.795, 450, 0, []
1630164678.1908, 117, 0, 4250.256, 4221.538, 4116.41, 4183.59, 4190.256, 450, 0, []
1630164678.1986, 118, 0, 4249.744, 4235.897, 4103.59, 4165.641, 4185.128, 450, 0, []
1630164678.2065, 119, 0, 4234.359, 4236.923, 4101.026, 4151.795, 4172.821, 16197, 0, []
1630164678.2144, 120, 0, 4237.949, 4236.923, 4088.718, 4147.692, 4152.821, 450, 0, []
1630164678.2223, 121, 0, 4252.821, 4261.538, 4104.615, 4143.59, 4164.103, 450, 0, []
1630164678.23, 122, 0, 4253.333, 4281.538, 4122.564, 4145.128, 4188.718, 450, 0, []
1630164678.2379, 123, 0, 4255.897, 4263.59, 4110.256, 4156.41, 4185.641, 16197, 0, []
1630164678.2457, 124, 0, 4270.769, 4234.872, 4126.667, 4171.795, 4188.205, 450, 0, []
1630164678.2536, 125, 0, 4269.231, 4251.795, 4121.538, 4176.41, 4206.667, 450, 0, []
1630164678.2614, 126, 0, 4252.308, 4275.897, 4108.718, 4169.744, 4189.231, 450, 0, []
1630164678.2692, 127, 0, 4252.821, 4253.333, 4108.718, 4161.026, 4167.692, 16197, 0, []
1630164678.277, 128, 0, 4263.077, 4240.513, 4094.359, 4148.718, 4189.231, 450, 0, []
1630164678.285, 0, 0, 4257.436, 4264.103, 4111.282, 4149.744, 4201.026, 450, 0, []
1630164678.2929, 1, 0, 4253.333, 4266.667, 4121.026, 4162.564, 4181.538, 450, 0, []
1630164678.3009, 2, 0, 4262.564, 4233.333, 4117.949, 4162.564, 4178.974, 16177, 0, []
1630164678.3087, 3, 0, 4283.077, 4239.487, 4113.333, 4164.103, 4198.462, 450, 0, []
1630164678.3167, 4, 0, 4307.179, 4265.641, 4100.513, 4175.897, 4207.179, 16089, 0, []
1630164678.3246, 5, 0, 4312.821, 4249.744, 4130.769, 4178.974, 4198.974, 450, 0, []
1630164678.3326, 6, 0, 4287.692, 4220.513, 4124.615, 4163.59, 4189.231, 256, 0, []
1630164678.3405, 7, 0, 4263.59, 4212.821, 4094.872, 4151.282, 4180, 450, 0, []
1630164678.3483, 8, 0, 4261.538, 4217.436, 4094.872, 4141.026, 4161.026, 450, 0, []
1630164678.3561, 9, 0, 4266.154, 4202.564, 4081.026, 4123.59, 4155.897, 16121, 0, []
1630164678.3639, 10, 0, 4273.333, 4189.231, 4102.051, 4134.359, 4173.333, 450, 0, []
1630164678.3718, 11, 0, 4274.872, 4191.795, 4113.333, 4157.436, 4171.795, 16196, 0, []
1630164678.3796, 12, 0, 4266.154, 4188.718, 4110.769, 4153.333, 4153.846, 450, 0, []
1630164678.3875, 13, 0, 4266.667, 4194.872, 4132.821, 4149.744, 4166.154, 450, 0, []
1630164678.3952, 14, 0, 4272.821, 4201.538, 4114.359, 4158.974, 4176.41, 450, 0, []
1630164678.4031, 15, 0, 4256.41, 4173.846, 4106.154, 4152.308, 4147.692, 16196, 0, []
1630164678.4109, 16, 0, 4230.769, 4160.513, 4109.231, 4133.333, 4131.282, 0, 0, []
1630164678.4189, 17, 0, 4228.718, 4214.872, 4104.103, 4131.795, 4137.949, 0, 0, []
1630164678.4268, 18, 0, 4242.564, 4227.692, 4109.744, 4127.179, 4132.308, 0, 0, []
1630164678.4347, 19, 0, 4249.231, 4180.513, 4093.846, 4112.308, 4137.949, 0, 0, []
1630164678.4426, 20, 0, 4247.179, 4187.692, 4103.077, 4117.949, 4154.872, 0, 0, []
1630164678.4506, 21, 0, 4247.179, 4216.41, 4107.692, 4132.308, 4148.718, 0, 0, []
1630164678.4585, 22, 0, 4230.256, 4183.59, 4085.641, 4132.821, 4136.41, 0, 0, []
1630164678.4665, 23, 0, 4192.308, 4154.359, 4082.564, 4117.949, 4125.641, 0, 0, []
1630164678.4743, 24, 0, 4191.795, 4188.205, 4083.59, 4115.385, 4125.641, 0, 0, []
1630164678.4823, 25, 0, 4233.846, 4207.692, 4131.282, 4149.231, 4159.487, 0, 0, []
1630164678.4902, 26, 0, 4246.154, 4187.692, 4152.308, 4172.308, 4180, 0, 0, []
1630164678.4982, 27, 0, 4216.41, 4178.974, 4104.103, 4138.462, 4150.769, 0, 0, []
1630164678.5061, 28, 0, 4211.795, 4170.256, 4110.256, 4117.436, 4144.103, 0, 0, []
1630164678.5138, 29, 0, 4249.744, 4160.513, 4126.154, 4151.282, 4178.462, 0, 0, []
1630164678.5217, 30, 0, 4258.462, 4189.231, 4115.385, 4166.667, 4182.051, 0, 0, []
1630164678.5295, 31, 0, 4218.974, 4200.513, 4095.897, 4143.59, 4155.897, 0, 0, []
1630164678.5374, 32, 0, 4194.359, 4162.051, 4076.41, 4137.436, 4138.462, 0, 0, []
1630164678.5452, 33, 0, 4207.692, 4177.436, 4096.41, 4145.128, 4142.564, 0, 0, []
1630164678.553, 34, 0, 4220.513, 4214.359, 4088.718, 4139.487, 4153.333, 0, 0, []
1630164678.5608, 35, 0, 4217.436, 4177.949, 4078.462, 4136.923, 4141.026, 0, 0, []
1630164678.5687, 36, 0, 4216.41, 4146.667, 4104.103, 4144.615, 4131.795, 0, 0, []
1630164678.5765, 37, 0, 4221.026, 4178.974, 4112.821, 4158.974, 4152.821, 0, 0, []
1630164678.5845, 38, 0, 4215.897, 4193.333, 4120.513, 4174.872, 4154.359, 0, 0, []
1630164678.5923, 39, 0, 4208.205, 4178.462, 4106.667, 4161.026, 4136.41, 0, 0, []
1630164678.6003, 40, 0, 4207.692, 4182.564, 4093.333, 4132.308, 4137.949, 0, 0, []
1630164678.6082, 41, 0, 4201.538, 4150.256, 4085.641, 4116.923, 4127.692, 0, 0, []
1630164678.6161, 42, 0, 4199.487, 4116.41, 4062.564, 4115.385, 4114.359, 0, 0, []
1630164678.624, 43, 0, 4216.923, 4156.41, 4088.205, 4135.897, 4136.923, 0, 0, []
1630164678.6318, 44, 0, 4221.538, 4171.282, 4092.821, 4146.667, 4149.231, 0, 0, []
1630164678.6397, 45, 0, 4203.077, 4128.718, 4084.103, 4136.923, 4136.923, 0, 0, []
1630164678.6476, 46, 0, 4221.026, 4157.436, 4121.026, 4157.436, 4159.487, 0, 0, []
1630164678.6554, 47, 0, 4247.179, 4217.436, 4124.615, 4177.949, 4181.026, 0, 0, []
1630164678.6634, 48, 0, 4214.872, 4186.154, 4109.744, 4152.821, 4151.795, 0, 0, []
1630164678.6712, 49, 0, 4183.59, 4150.769, 4082.564, 4130.256, 4132.821, 0, 0, []
1630164678.679, 50, 0, 4186.154, 4175.385, 4069.231, 4142.051, 4147.179, 0, 0, []
1630164678.6869, 51, 0, 4167.179, 4198.462, 4087.179, 4145.641, 4128.718, 0, 0, []
1630164678.6947, 52, 0, 4148.718, 4204.615, 4074.872, 4138.974, 4096.41, 0, 0, []
1630164678.7026, 53, 0, 4163.59, 4210.769, 4087.692, 4157.436, 4106.667, 0, 0, []
1630164678.7104, 54, 0, 4170.769, 4208.205, 4100, 4177.436, 4125.641, 0, 0, []
1630164678.7183, 55, 0, 4175.385, 4189.744, 4091.795, 4177.436, 4139.487, 0, 0, []
1630164678.7262, 56, 0, 4196.41, 4195.385, 4116.923, 4182.564, 4161.538, 0, 0, []
1630164678.7341, 57, 0, 4197.949, 4203.077, 4109.231, 4180, 4154.359, 0, 0, []
1630164678.7419, 58, 0, 4173.846, 4174.872, 4095.385, 4160, 4130.256, 0, 0, []
1630164678.7499, 59, 0, 4168.205, 4174.872, 4091.795, 4150.769, 4131.282, 0, 0, []
1630164678.7577, 60, 0, 4171.795, 4197.949, 4082.051, 4154.359, 4128.718, 0, 0, []
1630164678.7657, 61, 0, 4157.949, 4200, 4098.974, 4153.846, 4113.333, 0, 0, []
1630164678.7736, 62, 0, 4155.385, 4215.385, 4090.769, 4154.872, 4123.077, 0, 0, []
1630164678.7816, 63, 0, 4174.359, 4223.59, 4089.744, 4162.564, 4134.872, 0, 0, []
1630164678.7895, 64, 0, 4181.538, 4199.487, 4103.077, 4168.718, 4130.256, 450, 0, []
1630164678.7974, 65, 0, 4161.538, 4192.821, 4078.974, 4161.026, 4118.974, 450, 0, []
1630164678.8053, 66, 0, 4148.205, 4200.513, 4074.359, 4147.692, 4108.718, 16184, 0, []
1630164678.8132, 67, 0, 4169.231, 4196.923, 4078.974, 4153.846, 4123.077, 450, 0, []
1630164678.8211, 68, 0, 4180.513, 4206.154, 4089.744, 4157.436, 4131.282, 16090, 0, []
1630164678.8289, 69, 0, 4147.179, 4210.769, 4089.231, 4131.282, 4106.667, 450, 0, []
1630164678.8367, 70, 0, 4136.41, 4208.205, 4080, 4129.744, 4100, 258, 0, []
1630164678.8445, 71, 0, 4176.923, 4228.205, 4124.103, 4165.641, 4125.128, 450, 0, []
1630164678.8524, 72, 0, 4197.949, 4238.462, 4126.667, 4171.282, 4133.333, 450, 0, []
1630164678.8602, 73, 0, 4182.564, 4229.231, 4101.026, 4153.846, 4120, 16121, 0, []
1630164678.8681, 74, 0, 4167.179, 4231.282, 4107.179, 4149.744, 4111.795, 450, 0, []
1630164678.8758, 75, 0, 4164.103, 4233.333, 4088.205, 4137.949, 4107.692, 16200, 0, []
1630164678.8837, 76, 0, 4174.872, 4233.333, 4097.436, 4130.256, 4111.282, 450, 0, []
1630164678.8915, 77, 0, 4191.795, 4229.231, 4116.923, 4149.744, 4123.59, 450, 0, []
1630164678.8995, 78, 0, 4199.487, 4226.667, 4123.59, 4176.41, 4138.974, 450, 0, []
1630164678.9074, 79, 0, 4185.128, 4208.205, 4118.462, 4164.615, 4137.436, 16200, 0, []
1630164678.9153, 80, 0, 4152.308, 4179.487, 4073.333, 4113.846, 4105.641, 450, 0, []
1630164678.9232, 81, 0, 4146.667, 4189.231, 4081.538, 4103.077, 4090.256, 450, 0, []
1630164678.9312, 82, 0, 4173.333, 4207.179, 4105.641, 4142.051, 4117.436, 450, 0, []
1630164678.9391, 83, 0, 4176.923, 4213.846, 4091.282, 4157.436, 4133.333, 16200, 0, []
1630164678.9471, 84, 0, 4165.128, 4227.692, 4092.308, 4142.564, 4124.103, 450, 0, []
1630164678.9549, 85, 0, 4170.769, 4220, 4093.333, 4138.974, 4129.744, 450, 0, []
1630164678.9629, 86, 0, 4174.359, 4213.846, 4109.744, 4147.692, 4136.923, 450, 0, []
1630164678.9708, 87, 0, 4161.538, 4226.154, 4105.128, 4144.615, 4125.641, 16200, 0, []
1630164678.9786, 88, 0, 4153.333, 4198.462, 4085.128, 4131.282, 4118.974, 450, 0, []
1630164678.9865, 89, 0, 4161.026, 4132.821, 4095.897, 4121.538, 4118.462, 450, 0, []
1630164678.9942, 90, 0, 4167.179, 4100.513, 4085.641, 4117.949, 4112.308, 450, 0, []
1630164679.0021, 91, 0, 4174.359, 4100.513, 4102.564, 4135.897, 4132.821, 16200, 0, []
1630164679.0099, 92, 0, 4195.385, 4088.205, 4121.026, 4171.282, 4171.282, 450, 0, []
1630164679.0178, 93, 0, 4203.59, 4084.615, 4093.333, 4181.026, 4167.179, 450, 0, []
1630164679.0256, 94, 0, 4179.487, 4109.744, 4091.795, 4154.872, 4136.923, 450, 0, []
1630164679.0334, 95, 0, 4169.231, 4147.179, 4091.282, 4137.949, 4135.897, 16200, 0, []
1630164679.0412, 96, 0, 4181.538, 4169.231, 4096.923, 4146.667, 4141.538, 450, 0, []
1630164679.0492, 97, 0, 4176.41, 4191.795, 4101.026, 4149.744, 4130.769, 450, 0, []
1630164679.0571, 98, 0, 4169.231, 4218.974, 4086.154, 4142.051, 4132.308, 450, 0, []
1630164679.0651, 99, 0, 4177.949, 4218.462, 4100, 4143.59, 4142.564, 16200, 0, []
1630164679.073, 100, 0, 4180, 4208.718, 4094.872, 4143.59, 4141.538, 450, 0, []
1630164679.0809, 101, 0, 4148.205, 4196.41, 4082.051, 4118.462, 4108.205, 450, 0, []
1630164679.0888, 102, 0, 4117.436, 4176.41, 4080.513, 4092.308, 4071.795, 450, 0, []
1630164679.0968, 103, 0, 4149.744, 4195.897, 4084.615, 4117.949, 4104.615, 16200, 0, []
1630164679.1047, 104, 0, 4206.154, 4238.462, 4119.487, 4165.641, 4162.564, 450, 0, []
1630164679.1127, 105, 0, 4212.308, 4231.282, 4106.154, 4157.949, 4160, 450, 0, []
1630164679.1205, 106, 0, 4191.282, 4202.051, 4090.769, 4133.333, 4137.436, 450, 0, []
1630164679.1283, 107, 0, 4183.077, 4207.692, 4101.026, 4132.308, 4128.718, 16200, 0, []
1630164679.1362, 108, 0, 4173.333, 4221.538, 4073.333, 4115.385, 4106.154, 450, 0, []
1630164679.144, 109, 0, 4175.897, 4221.538, 4082.564, 4112.821, 4109.744, 450, 0, []
1630164679.1519, 110, 0, 4205.128, 4205.641, 4106.667, 4142.564, 4151.795, 450, 0, []
1630164679.1596, 111, 0, 4209.231, 4189.231, 4103.077, 4147.692, 4160, 16200, 0, []
1630164679.1675, 112, 0, 4186.154, 4196.923, 4093.333, 4135.385, 4136.923, 450, 0, []
1630164679.1753, 113, 0, 4181.538, 4204.103, 4067.692, 4141.026, 4131.795, 450, 0, []
1630164679.1833, 114, 0, 4184.615, 4194.359, 4078.974, 4141.538, 4137.436, 450, 0, []
1630164679.1912, 115, 0, 4187.179, 4207.692, 4090.769, 4125.641, 4138.974, 16200, 0, []
1630164679.1991, 116, 0, 4194.359, 4212.821, 4088.205, 4122.051, 4135.897, 450, 0, []
1630164679.207, 117, 0, 4183.59, 4177.436, 4100.513, 4127.692, 4125.641, 450, 0, []
1630164679.215, 118, 0, 4166.667, 4192.308, 4082.564, 4127.179, 4120.513, 450, 0, []
1630164679.2229, 119, 0, 4176.41, 4236.923, 4091.795, 4133.333, 4133.846, 16200, 0, []
1630164679.2309, 120, 0, 4198.974, 4215.385, 4105.641, 4142.564, 4151.282, 450, 0, []
1630164679.2387, 121, 0, 4199.487, 4187.692, 4083.077, 4137.949, 4152.821, 450, 0, []
1630164679.2467, 122, 0, 4210.256, 4209.231, 4087.179, 4129.231, 4167.179, 450, 0, []
1630164679.2546, 123, 0, 4272.821, 4220.513, 4088.718, 4132.821, 4232.821, 16200, 0, []
1630164679.2626, 124, 0, 4331.282, 4189.231, 4092.308, 4134.359, 4290.769, 450, 0, []
1630164679.2705, 125, 0, 4356.923, 4162.051, 4084.615, 4119.487, 4296.41, 450, 0, []
1630164679.2782, 126, 0, 4410.769, 4189.744, 4089.231, 4131.795, 4335.385, 450, 0, []
1630164679.2861, 127, 0, 4464.615, 4251.795, 4131.282, 4168.718, 4396.923, 16200, 0, []
1630164679.2939, 128, 0, 4449.744, 4279.487, 4116.923, 4171.795, 4389.744, 450, 0, []
1630164679.3018, 0, 0, 4416.41, 4219.487, 4099.487, 4149.744, 4348.205, 450, 0, []
1630164679.3096, 1, 0, 4410.769, 4128.205, 4105.128, 4135.897, 4326.154, 450, 0, []
1630164679.3174, 2, 0, 4399.487, 4107.692, 4091.282, 4128.718, 4319.487, 16186, 0, []
1630164679.3252, 3, 0, 4371.795, 4124.103, 4107.179, 4136.923, 4323.077, 450, 0, []
1630164679.3331, 4, 0, 4356.923, 4104.103, 4102.564, 4150.769, 4319.487, 16090, 0, []
1630164679.3409, 5, 0, 4341.026, 4069.744, 4089.231, 4142.051, 4276.923, 450, 0, []
1630164679.3488, 6, 0, 4310.769, 4055.897, 4095.385, 4128.718, 4236.923, 254, 0, []
1630164679.3565, 7, 0, 4277.949, 4054.359, 4078.462, 4126.154, 4230.769, 450, 0, []
1630164679.3645, 8, 0, 4271.282, 4071.795, 4080.513, 4131.282, 4225.641, 450, 0, []
1630164679.3724, 9, 0, 4285.128, 4084.615, 4085.641, 4130.769, 4218.462, 16125, 0, []
1630164679.3804, 10, 0, 4277.949, 4074.872, 4098.974, 4137.436, 4223.59, 450, 0, []
1630164679.3883, 11, 0, 4265.641, 4082.051, 4113.333, 4161.538, 4227.692, 16198, 0, []
1630164679.3963, 12, 0, 4265.128, 4106.667, 4091.282, 4162.564, 4211.795, 450, 0, []
1630164679.4041, 13, 0, 4250.769, 4115.385, 4102.051, 4148.718, 4198.462, 450, 0, []
1630164679.4121, 14, 0, 4233.333, 4109.231, 4099.487, 4148.205, 4197.436, 450, 0, []
1630164679.42, 15, 0, 4240, 4098.462, 4085.128, 4144.103, 4188.718, 16198, 0, []
1630164679.4279, 16, 0, 4244.103, 4106.154, 4106.154, 4133.333, 4186.667, 0, 0, []
1630164679.4358, 17, 0, 4221.026, 4122.564, 4091.795, 4124.103, 4186.154, 0, 0, []
1630164679.4435, 18, 0, 4206.154, 4106.667, 4088.718, 4117.436, 4174.872, 0, 0, []
1630164679.4514, 19, 0, 4210.769, 4089.744, 4096.41, 4121.026, 4171.795, 0, 0, []
1630164679.4592, 20, 0, 4210.769, 4119.487, 4091.282, 4126.667, 4170.769, 0, 0, []
1630164679.4671, 21, 0, 4204.615, 4144.103, 4091.795, 4114.872, 4161.026, 0, 0, []
1630164679.4749, 22, 0, 4215.385, 4124.615, 4077.436, 4116.41, 4177.949, 0, 0, []
1630164679.4827, 23, 0, 4228.205, 4095.897, 4090.769, 4138.974, 4195.897, 0, 0, []
1630164679.4905, 24, 0, 4200.513, 4086.667, 4090.769, 4133.333, 4169.231, 0, 0, []
1630164679.4985, 25, 0, 4184.615, 4108.205, 4083.59, 4123.59, 4159.487, 0, 0, []
1630164679.5064, 26, 0, 4221.026, 4150.256, 4114.359, 4142.564, 4190.256, 0, 0, []
1630164679.5144, 27, 0, 4222.051, 4158.462, 4104.103, 4141.538, 4180.513, 0, 0, []
1630164679.5222, 28, 0, 4169.231, 4138.462, 4086.154, 4123.59, 4125.641, 0, 0, []
1630164679.5302, 29, 0, 4150.256, 4138.974, 4074.359, 4117.436, 4104.615, 0, 0, []
1630164679.5381, 30, 0, 4168.205, 4163.59, 4062.051, 4123.59, 4122.564, 0, 0, []
1630164679.5461, 31, 0, 4172.308, 4202.564, 4084.615, 4134.359, 4123.59, 0, 0, []
1630164679.554, 32, 0, 4165.641, 4224.615, 4076.41, 4131.795, 4110.769, 0, 0, []
1630164679.5619, 33, 0, 4160, 4215.385, 4075.897, 4127.179, 4113.333, 0, 0, []
1630164679.5698, 34, 0, 4156.923, 4205.641, 4086.667, 4133.333, 4120, 0, 0, []
1630164679.5778, 35, 0, 4156.41, 4201.026, 4067.179, 4125.641, 4108.718, 0, 0, []
1630164679.5857, 36, 0, 4148.205, 4203.077, 4079.487, 4113.846, 4095.897, 0, 0, []
1630164679.5935, 37, 0, 4148.205, 4229.744, 4091.795, 4128.718, 4111.282, 0, 0, []
1630164679.6013, 38, 0, 4160, 4237.436, 4100.513, 4154.359, 4130.256, 0, 0, []
1630164679.6091, 39, 0, 4154.359, 4200.513, 4088.718, 4145.641, 4115.385, 0, 0, []
1630164679.617, 40, 0, 4141.538, 4198.974, 4053.333, 4115.897, 4091.795, 0, 0, []
1630164679.6249, 41, 0, 4154.872, 4233.333, 4087.692, 4124.615, 4101.538, 0, 0, []
1630164679.6327, 42, 0, 4179.487, 4237.949, 4106.667, 4153.846, 4129.744, 0, 0, []
1630164679.6404, 43, 0, 4171.282, 4242.051, 4079.487, 4151.282, 4129.231, 0, 0, []
1630164679.6484, 44, 0, 4147.692, 4265.128, 4069.744, 4128.205, 4118.974, 0, 0, []
1630164679.6563, 45, 0, 4143.077, 4264.615, 4063.59, 4124.103, 4124.103, 0, 0, []
1630164679.6642, 46, 0, 4137.949, 4251.795, 4079.487, 4129.744, 4118.974, 0, 0, []
1630164679.672, 47, 0, 4131.282, 4270.256, 4074.872, 4127.692, 4106.667, 0, 0, []
1630164679.6799, 48, 0, 4150.256, 4289.231, 4077.949, 4137.949, 4116.923, 0, 0, []
1630164679.6878, 49, 0, 4170.769, 4272.308, 4105.641, 4157.436, 4138.462, 0, 0, []
1630164679.6958, 50, 0, 4157.949, 4268.205, 4085.641, 4153.333, 4140.513, 0, 0, []
1630164679.7037, 51, 0, 4148.205, 4287.692, 4086.667, 4148.718, 4132.308, 0, 0, []
1630164679.7117, 52, 0, 4153.846, 4281.538, 4088.205, 4151.282, 4129.231, 0, 0, []
1630164679.7195, 53, 0, 4133.333, 4239.487, 4062.051, 4131.282, 4117.436, 0, 0, []
1630164679.7275, 54, 0, 4118.974, 4238.974, 4062.564, 4114.872, 4110.769, 0, 0, []
1630164679.7354, 55, 0, 4138.462, 4277.436, 4064.615, 4133.333, 4122.564, 0, 0, []
1630164679.7433, 56, 0, 4134.359, 4266.154, 4081.538, 4145.641, 4121.538, 0, 0, []
1630164679.7512, 57, 0, 4110.256, 4248.718, 4082.051, 4127.692, 4109.231, 0, 0, []
1630164679.759, 58, 0, 4126.667, 4268.718, 4085.641, 4128.205, 4123.59, 0, 0, []
1630164679.7668, 59, 0, 4151.795, 4282.051, 4112.821, 4150.256, 4147.179, 0, 0, []
1630164679.7746, 60, 0, 4142.051, 4262.564, 4087.179, 4146.667, 4134.872, 0, 0, []
1630164679.7825, 61, 0, 4114.872, 4212.308, 4070.769, 4122.051, 4099.487, 0, 0, []
1630164679.7903, 62, 0, 4096.923, 4157.949, 4064.103, 4102.564, 4078.462, 0, 0, []
1630164679.7982, 63, 0, 4115.897, 4143.077, 4058.974, 4111.795, 4100, 0, 0, []
1630164679.8059, 64, 0, 4152.308, 4154.872, 4100, 4141.538, 4147.692, 450, 0, []
1630164679.8138, 65, 0, 4150.256, 4148.718, 4096.923, 4146.154, 4152.821, 450, 0, []
1630164679.8216, 66, 0, 4116.41, 4143.59, 4074.359, 4126.154, 4117.949, 16186, 0, []
1630164679.8296, 67, 0, 4103.077, 4143.59, 4078.462, 4126.154, 4110.769, 450, 0, []
1630164679.8375, 68, 0, 4112.308, 4157.949, 4076.41, 4142.051, 4123.077, 16095, 0, []
1630164679.8454, 69, 0, 4112.821, 4202.051, 4091.282, 4141.538, 4124.615, 450, 0, []
1630164679.8533, 70, 0, 4126.667, 4212.308, 4100, 4147.692, 4137.436, 204, 0, []
1630164679.8613, 71, 0, 4152.821, 4198.974, 4115.897, 4167.692, 4158.462, 450, 0, []
1630164679.8692, 72, 0, 4148.205, 4230.769, 4112.308, 4164.615, 4156.41, 450, 0, []
1630164679.8772, 73, 0, 4127.179, 4246.154, 4072.821, 4141.538, 4138.974, 16096, 0, []
1630164679.885, 74, 0, 4128.718, 4209.231, 4080, 4128.718, 4128.205, 450, 0, []
