Timestamp, COUNTER, INTERPOLATED, AF3, T7, Pz, T8, AF4, RAW_CQ, MARKER_HARDWARE, MARKERS
1628706365.0938, 122, 0, 4397.949, 4152.821, 4219.487, 4168.718, 4268.718, 450, 0, []
1628706365.1016, 123, 0, 4380.513, 4143.59, 4209.744, 4165.128, 4258.462, 16194, 0, []
1628706365.1095, 124, 0, 4365.128, 4130.769, 4195.385, 4146.154, 4236.41, 450, 0, []
1628706365.1174, 125, 0, 4374.359, 4136.923, 4201.538, 4136.923, 4235.385, 450, 0, []
1628706365.1252, 126, 0, 4387.692, 4155.385, 4224.103, 4147.692, 4247.692, 450, 0, []
1628706365.1329, 127, 0, 4382.051, 4150.769, 4223.59, 4158.974, 4246.154, 16194, 0, []
1628706365.1408, 128, 0, 4366.667, 4127.179, 4202.564, 4147.692, 4231.282, 450, 0, []
1628706365.1487, 0, 0, 4362.051, 4121.026, 4201.538, 4140, 4224.103, 450, 0, []
1628706365.1565, 1, 0, 4371.795, 4127.692, 4194.359, 4151.795, 4233.846, 450, 0, []
1628706365.1643, 2, 0, 4376.41, 4124.103, 4152.308, 4148.205, 4244.103, 16152, 0, []
1628706365.1721, 3, 0, 4369.744, 4126.154, 4124.103, 4134.872, 4242.051, 450, 0, []
1628706365.1799, 4, 0, 4371.795, 4140, 4134.872, 4142.564, 4241.026, 16217, 0, []
1628706365.1878, 5, 0, 4385.641, 4141.026, 4140.513, 4154.359, 4248.718, 450, 0, []
1628706365.1956, 6, 0, 4390.769, 4144.103, 4134.872, 4156.41, 4255.897, 16156, 0, []
1628706365.2035, 7, 0, 4385.641, 4156.41, 4136.923, 4157.436, 4251.282, 450, 0, []
1628706365.2112, 8, 0, 4385.128, 4152.821, 4139.487, 4160.513, 4250.256, 450, 0, []
1628706365.2191, 9, 0, 4383.077, 4138.974, 4134.872, 4161.538, 4250.256, 16117, 0, []
1628706365.2269, 10, 0, 4369.231, 4134.359, 4122.051, 4150.769, 4231.795, 450, 0, []
1628706365.2347, 11, 0, 4360.513, 4138.462, 4114.872, 4143.077, 4218.974, 16204, 0, []
1628706365.2426, 12, 0, 4358.974, 4137.436, 4109.231, 4141.538, 4216.41, 450, 0, []
1628706365.2504, 13, 0, 4340.513, 4130.256, 4096.41, 4131.795, 4198.974, 450, 0, []
1628706365.2582, 14, 0, 4329.744, 4138.462, 4109.231, 4138.974, 4187.179, 450, 0, []
1628706365.2661, 15, 0, 4350.769, 4154.872, 4130.769, 4160, 4203.077, 16204, 0, []
1628706365.2739, 16, 0, 4365.128, 4155.897, 4113.846, 4147.692, 4203.59, 0, 0, []
1628706365.2817, 17, 0, 4359.487, 4153.333, 4092.308, 4123.077, 4186.154, 0, 0, []
1628706365.2896, 18, 0, 4365.641, 4167.692, 4102.051, 4135.897, 4195.385, 0, 0, []
1628706365.2975, 19, 0, 4368.205, 4183.077, 4110.256, 4152.308, 4208.718, 0, 0, []
1628706365.3055, 20, 0, 4355.385, 4182.564, 4108.205, 4143.077, 4190.769, 0, 0, []
1628706365.3134, 21, 0, 4360, 4178.974, 4106.154, 4138.462, 4179.487, 0, 0, []
1628706365.3213, 22, 0, 4369.744, 4183.59, 4094.872, 4142.564, 4187.692, 0, 0, []
1628706365.3292, 23, 0, 4356.923, 4186.154, 4089.744, 4137.436, 4178.462, 0, 0, []
1628706365.3371, 24, 0, 4351.795, 4186.154, 4105.641, 4133.846, 4167.179, 0, 0, []
1628706365.3451, 25, 0, 4362.051, 4194.359, 4117.436, 4136.923, 4180, 0, 0, []
1628706365.353, 26, 0, 4365.128, 4200.513, 4113.333, 4132.308, 4186.667, 0, 0, []
1628706365.361, 27, 0, 4366.154, 4192.821, 4107.692, 4127.692, 4174.872, 0, 0, []
1628706365.3688, 28, 0, 4370.769, 4190.256, 4111.795, 4133.846, 4173.846, 0, 0, []
1628706365.3768, 29, 0, 4373.846, 4193.846, 4124.103, 4144.615, 4179.487, 0, 0, []
1628706365.3847, 30, 0, 4361.026, 4187.692, 4124.615, 4138.462, 4162.051, 0, 0, []
1628706365.3927, 31, 0, 4336.923, 4183.077, 4102.051, 4116.41, 4142.051, 0, 0, []
1628706365.4006, 32, 0, 4338.462, 4198.974, 4090.769, 4120, 4160, 0, 0, []
1628706365.4085, 33, 0, 4356.923, 4213.333, 4102.564, 4143.077, 4183.077, 0, 0, []
1628706365.4164, 34, 0, 4353.846, 4203.077, 4108.205, 4133.846, 4171.795, 0, 0, []
1628706365.4244, 35, 0, 4352.821, 4192.821, 4116.41, 4122.051, 4174.359, 0, 0, []
1628706365.4324, 36, 0, 4380, 4203.59, 4147.692, 4154.359, 4213.846, 0, 0, []
1628706365.4404, 37, 0, 4392.821, 4210.769, 4158.974, 4175.385, 4227.179, 0, 0, []
1628706365.4482, 38, 0, 4375.385, 4201.538, 4129.231, 4155.897, 4200, 0, 0, []
1628706365.4561, 39, 0, 4360, 4189.744, 4111.282, 4146.154, 4181.026, 0, 0, []
1628706365.4641, 40, 0, 4349.231, 4176.41, 4114.872, 4148.205, 4172.308, 0, 0, []
1628706365.472, 41, 0, 4339.487, 4164.615, 4110.256, 4141.538, 4163.59, 0, 0, []
1628706365.48, 42, 0, 4341.538, 4167.179, 4107.692, 4139.487, 4166.154, 0, 0, []
1628706365.4878, 43, 0, 4349.744, 4174.359, 4115.897, 4145.128, 4170.256, 0, 0, []
1628706365.4958, 44, 0, 4347.692, 4164.615, 4113.333, 4137.436, 4158.974, 0, 0, []
1628706365.5037, 45, 0, 4336.923, 4147.179, 4092.821, 4124.103, 4145.641, 0, 0, []
1628706365.5117, 46, 0, 4340, 4144.615, 4093.333, 4128.718, 4151.795, 0, 0, []
1628706365.5196, 47, 0, 4354.359, 4156.41, 4117.436, 4152.821, 4170.769, 0, 0, []
1628706365.5275, 48, 0, 4351.282, 4158.462, 4123.59, 4158.974, 4173.333, 0, 0, []
1628706365.5354, 49, 0, 4338.462, 4150.256, 4114.872, 4146.667, 4164.615, 0, 0, []
1628706365.5434, 50, 0, 4343.59, 4157.436, 4122.051, 4146.154, 4166.667, 0, 0, []
1628706365.5513, 51, 0, 4351.795, 4171.282, 4129.231, 4157.949, 4176.923, 0, 0, []
1628706365.5593, 52, 0, 4341.538, 4162.051, 4114.872, 4161.538, 4180, 0, 0, []
1628706365.5671, 53, 0, 4317.949, 4135.897, 4102.051, 4147.692, 4165.128, 0, 0, []
1628706365.5751, 54, 0, 4309.231, 4127.179, 4109.231, 4141.538, 4150.769, 0, 0, []
1628706365.5831, 55, 0, 4324.103, 4141.538, 4121.538, 4153.846, 4160.513, 0, 0, []
1628706365.591, 56, 0, 4334.359, 4154.872, 4125.641, 4157.436, 4174.872, 0, 0, []
1628706365.599, 57, 0, 4325.128, 4160, 4121.538, 4140.513, 4164.103, 0, 0, []
1628706365.6068, 58, 0, 4317.949, 4157.436, 4115.897, 4130.256, 4149.744, 0, 0, []
1628706365.6148, 59, 0, 4318.974, 4157.949, 4114.359, 4139.487, 4148.718, 0, 0, []
1628706365.6227, 60, 0, 4306.667, 4156.41, 4112.821, 4143.59, 4137.436, 0, 0, []
1628706365.6307, 61, 0, 4294.872, 4145.641, 4104.615, 4137.949, 4118.974, 0, 0, []
1628706365.6386, 62, 0, 4310.256, 4143.077, 4109.744, 4142.051, 4130.769, 0, 0, []
1628706365.6465, 63, 0, 4335.897, 4163.077, 4145.641, 4160.513, 4163.077, 0, 0, []
1628706365.6544, 64, 0, 4327.179, 4173.333, 4158.462, 4156.41, 4165.128, 450, 0, []
1628706365.6624, 65, 0, 4298.974, 4155.385, 4135.385, 4128.205, 4142.051, 450, 0, []
1628706365.6703, 66, 0, 4294.359, 4150.256, 4132.821, 4124.615, 4136.923, 16164, 0, []
1628706365.6783, 67, 0, 4295.385, 4158.462, 4138.974, 4140, 4139.487, 450, 0, []
1628706365.6861, 68, 0, 4289.744, 4146.667, 4118.462, 4139.487, 4128.205, 16185, 0, []
1628706365.6941, 69, 0, 4288.205, 4130.256, 4099.487, 4133.333, 4120, 450, 0, []
1628706365.702, 70, 0, 4281.026, 4135.385, 4106.154, 4142.051, 4119.487, 16172, 0, []
1628706365.71, 71, 0, 4277.949, 4145.128, 4120.513, 4146.154, 4119.487, 450, 0, []
1628706365.7179, 72, 0, 4289.744, 4140.513, 4116.41, 4125.641, 4115.897, 450, 0, []
1628706365.7258, 73, 0, 4305.128, 4133.333, 4097.436, 4103.59, 4119.487, 16165, 0, []
1628706365.7337, 74, 0, 4332.821, 4145.128, 4102.564, 4117.949, 4155.385, 450, 0, []
1628706365.7417, 75, 0, 4349.744, 4156.923, 4117.436, 4142.051, 4176.923, 16218, 0, []
1628706365.7496, 76, 0, 4318.462, 4144.103, 4100.513, 4135.897, 4145.128, 450, 0, []
1628706365.7576, 77, 0, 4300.513, 4143.59, 4096.923, 4134.359, 4133.333, 450, 0, []
1628706365.7655, 78, 0, 4322.564, 4162.051, 4122.564, 4156.41, 4155.385, 450, 0, []
1628706365.7734, 79, 0, 4323.59, 4163.077, 4130.256, 4161.026, 4145.641, 16218, 0, []
1628706365.7814, 80, 0, 4306.667, 4157.436, 4117.949, 4145.641, 4125.128, 450, 0, []
1628706365.7893, 81, 0, 4296.923, 4153.846, 4110.256, 4140, 4117.436, 450, 0, []
1628706365.7973, 82, 0, 4279.487, 4136.923, 4103.077, 4137.436, 4094.359, 450, 0, []
1628706365.8051, 83, 0, 4275.897, 4132.308, 4107.179, 4135.385, 4089.744, 16218, 0, []
1628706365.8131, 84, 0, 4287.692, 4153.333, 4125.128, 4146.667, 4113.333, 450, 0, []
1628706365.821, 85, 0, 4282.051, 4164.103, 4125.128, 4155.385, 4114.359, 450, 0, []
1628706365.829, 86, 0, 4279.487, 4166.667, 4111.282, 4153.333, 4110.256, 450, 0, []
1628706365.8369, 87, 0, 4295.385, 4172.308, 4099.487, 4155.385, 4125.128, 16218, 0, []
1628706365.8448, 88, 0, 4294.872, 4164.615, 4091.282, 4157.949, 4125.128, 450, 0, []
1628706365.8527, 89, 0, 4280.513, 4154.359, 4087.179, 4155.897, 4110.256, 450, 0, []
1628706365.8607, 90, 0, 4272.308, 4161.026, 4084.615, 4150.769, 4097.436, 450, 0, []
1628706365.8686, 91, 0, 4274.359, 4173.846, 4084.103, 4140, 4089.744, 16218, 0, []
1628706365.8766, 92, 0, 4281.026, 4186.667, 4095.385, 4136.923, 4101.538, 450, 0, []
1628706365.8845, 93, 0, 4278.974, 4193.846, 4098.974, 4138.462, 4120, 450, 0, []
1628706365.8924, 94, 0, 4283.077, 4196.41, 4095.385, 4136.923, 4130.769, 450, 0, []
1628706365.9003, 95, 0, 4301.538, 4203.59, 4109.231, 4149.231, 4145.641, 16218, 0, []
1628706365.9083, 96, 0, 4282.051, 4194.359, 4108.205, 4145.128, 4130.769, 450, 0, []
1628706365.9163, 97, 0, 4254.872, 4180, 4093.333, 4125.641, 4097.949, 450, 0, []
1628706365.9242, 98, 0, 4282.564, 4201.026, 4112.308, 4152.821, 4123.077, 450, 0, []
1628706365.9321, 99, 0, 4297.436, 4213.846, 4126.667, 4180.513, 4148.205, 16218, 0, []
1628706365.94, 100, 0, 4262.564, 4190.256, 4104.615, 4147.692, 4101.026, 450, 0, []
1628706365.948, 101, 0, 4253.846, 4198.974, 4109.744, 4135.385, 4080, 450, 0, []
1628706365.9559, 102, 0, 4272.821, 4226.667, 4128.718, 4163.077, 4109.744, 450, 0, []
1628706365.9639, 103, 0, 4265.128, 4202.051, 4106.667, 4153.333, 4104.103, 16218, 0, []
1628706365.9717, 104, 0, 4258.462, 4178.462, 4092.821, 4135.385, 4088.718, 450, 0, []
1628706365.9797, 105, 1, 4261.474, 4177.821, 4093.077, 4136.218, 4089.295, 450, 0, []
1628706365.9876, 106, 1, 4264.487, 4177.179, 4093.333, 4137.051, 4089.872, 450, 0, []
1628706365.9955, 107, 1, 4267.5, 4176.538, 4093.59, 4137.885, 4090.449, 450, 0, []
1628706366.0034, 108, 1, 4270.513, 4175.897, 4093.846, 4138.718, 4091.026, 450, 0, []
1628706366.0112, 109, 1, 4273.526, 4175.256, 4094.103, 4139.551, 4091.603, 450, 0, []
1628706366.0191, 110, 1, 4276.538, 4174.615, 4094.359, 4140.385, 4092.179, 450, 0, []
1628706366.027, 111, 1, 4279.551, 4173.974, 4094.615, 4141.218, 4092.756, 450, 0, []
1628706366.0349, 112, 0, 4282.564, 4173.333, 4094.872, 4142.051, 4093.333, 450, 0, []
1628706366.0427, 113, 0, 4286.667, 4185.128, 4094.359, 4144.103, 4098.974, 450, 0, []
1628706366.0504, 114, 0, 4260.513, 4175.897, 4071.282, 4114.359, 4074.359, 450, 0, []
1628706366.0583, 115, 0, 4245.641, 4168.205, 4059.487, 4111.795, 4050.769, 16218, 0, []
1628706366.0662, 116, 0, 4253.333, 4174.359, 4067.692, 4124.103, 4051.795, 450, 0, []
1628706366.074, 117, 0, 4240, 4174.872, 4067.179, 4110.256, 4049.744, 450, 0, []
1628706366.0818, 118, 0, 4215.897, 4162.051, 4061.026, 4104.103, 4035.897, 450, 0, []
1628706366.0896, 119, 0, 4222.051, 4157.436, 4061.538, 4119.487, 4030.256, 16218, 0, []
1628706366.0974, 120, 0, 4240.513, 4166.154, 4053.846, 4115.897, 4026.667, 450, 0, []
1628706366.1052, 121, 0, 4233.846, 4162.051, 4025.128, 4096.923, 4016.41, 450, 0, []
1628706366.1131, 122, 0, 4222.564, 4152.821, 4008.205, 4094.872, 4011.795, 450, 0, []
1628706366.1209, 123, 0, 4222.564, 4162.564, 4016.41, 4106.154, 4013.846, 16218, 0, []
1628706366.1288, 124, 0, 4224.615, 4170.256, 4018.462, 4118.462, 4013.333, 450, 0, []
1628706366.1368, 125, 0, 4224.615, 4167.692, 4003.077, 4116.41, 4003.077, 450, 0, []
1628706366.1447, 126, 0, 4214.359, 4168.718, 3987.179, 4107.692, 3983.59, 450, 0, []
1628706366.1526, 127, 0, 4220.513, 4172.821, 3993.846, 4124.103, 3996.41, 16218, 0, []
1628706366.1605, 128, 0, 4251.282, 4179.487, 4004.615, 4138.462, 4049.744, 450, 0, []
1628706366.1684, 0, 0, 4269.744, 4181.538, 3989.231, 4121.026, 4085.641, 450, 0, []
1628706366.1763, 1, 0, 4279.487, 4167.692, 3968.718, 4115.897, 4103.077, 450, 0, []
1628706366.1843, 2, 0, 4313.846, 4151.795, 3966.667, 4134.359, 4148.205, 16186, 0, []
1628706366.1922, 3, 0, 4362.051, 4152.821, 3968.718, 4143.59, 4200.513, 450, 0, []
1628706366.2002, 4, 0, 4390.769, 4156.41, 3968.205, 4153.333, 4229.231, 16177, 0, []
1628706366.208, 5, 0, 4407.179, 4152.821, 3980, 4165.128, 4260, 450, 0, []
1628706366.216, 6, 0, 4424.103, 4155.897, 3997.949, 4175.385, 4293.846, 16166, 0, []
1628706366.2239, 7, 0, 4424.103, 4160, 4003.59, 4193.846, 4297.949, 450, 0, []
1628706366.2319, 8, 0, 4382.051, 4154.872, 3993.846, 4200.513, 4270.769, 450, 0, []
1628706366.2399, 9, 0, 4318.974, 4153.333, 3990.769, 4193.333, 4243.077, 16201, 0, []
1628706366.2477, 10, 0, 4280, 4156.41, 4001.538, 4201.026, 4223.59, 450, 0, []
1628706366.2557, 11, 0, 4253.846, 4141.026, 4002.564, 4204.103, 4199.487, 16197, 0, []
1628706366.2636, 12, 0, 4217.949, 4120.513, 3993.333, 4185.641, 4175.897, 450, 0, []
1628706366.2716, 13, 0, 4188.718, 4121.538, 4004.615, 4188.718, 4168.718, 450, 0, []
1628706366.2795, 14, 0, 4173.846, 4127.692, 4020.513, 4207.179, 4162.051, 450, 0, []
1628706366.2874, 15, 0, 4166.154, 4123.59, 4006.154, 4200, 4143.077, 16197, 0, []
1628706366.2953, 16, 0, 4165.128, 4123.077, 3988.205, 4190.769, 4125.128, 0, 0, []
1628706366.3033, 17, 0, 4167.179, 4128.718, 3999.487, 4199.487, 4125.641, 0, 0, []
1628706366.3112, 18, 0, 4165.128, 4125.641, 4021.538, 4205.128, 4134.872, 0, 0, []
1628706366.3192, 19, 0, 4168.718, 4123.077, 4028.205, 4198.974, 4132.308, 0, 0, []
1628706366.327, 20, 0, 4170.256, 4117.949, 4021.538, 4186.154, 4109.231, 0, 0, []
1628706366.335, 21, 0, 4161.538, 4103.59, 4022.051, 4171.795, 4094.872, 0, 0, []
1628706366.3429, 22, 0, 4172.308, 4110.769, 4052.821, 4188.205, 4119.487, 0, 0, []
1628706366.3509, 23, 0, 4204.615, 4134.872, 4092.821, 4230.256, 4157.436, 0, 0, []
1628706366.3588, 24, 0, 4221.026, 4134.872, 4096.41, 4240, 4168.205, 0, 0, []
1628706366.3667, 25, 0, 4217.436, 4126.154, 4076.923, 4228.205, 4154.359, 0, 0, []
1628706366.3746, 26, 0, 4217.949, 4133.333, 4065.128, 4229.744, 4142.564, 0, 0, []
1628706366.3826, 27, 0, 4216.923, 4137.436, 4056.41, 4221.026, 4143.077, 0, 0, []
1628706366.3906, 28, 0, 4206.667, 4136.41, 4055.385, 4205.641, 4147.692, 0, 0, []
1628706366.3985, 29, 0, 4202.051, 4133.846, 4061.026, 4208.718, 4145.641, 0, 0, []
1628706366.4064, 30, 0, 4206.667, 4128.718, 4051.282, 4210.256, 4136.41, 0, 0, []
1628706366.4143, 31, 0, 4224.103, 4135.897, 4044.615, 4197.949, 4142.564, 0, 0, []
1628706366.4223, 32, 0, 4243.077, 4147.179, 4061.538, 4194.872, 4164.103, 0, 0, []
1628706366.4302, 33, 0, 4238.974, 4137.436, 4076.923, 4196.923, 4171.795, 0, 0, []
1628706366.4382, 34, 0, 4216.923, 4121.538, 4080, 4189.744, 4155.385, 0, 0, []
1628706366.446, 35, 0, 4209.744, 4120, 4082.051, 4187.692, 4135.897, 0, 0, []
1628706366.454, 36, 0, 4218.462, 4128.205, 4072.308, 4193.333, 4131.282, 0, 0, []
1628706366.4619, 37, 0, 4234.872, 4138.974, 4062.564, 4197.436, 4147.179, 0, 0, []
1628706366.4699, 38, 0, 4247.179, 4144.615, 4073.846, 4186.154, 4163.077, 0, 0, []
1628706366.4778, 39, 0, 4227.692, 4137.949, 4073.846, 4147.692, 4147.692, 0, 0, []
1628706366.4857, 40, 0, 4203.077, 4123.59, 4050.769, 4121.026, 4129.231, 0, 0, []
1628706366.4936, 41, 0, 4213.846, 4120, 4043.077, 4144.615, 4144.103, 0, 0, []
1628706366.5016, 42, 0, 4229.744, 4125.641, 4050.256, 4176.923, 4157.949, 0, 0, []
1628706366.5095, 43, 0, 4240, 4129.744, 4052.308, 4186.667, 4159.487, 0, 0, []
1628706366.5174, 44, 0, 4268.205, 4130.769, 4073.333, 4204.103, 4182.051, 0, 0, []
1628706366.5253, 45, 0, 4290.256, 4126.667, 4108.718, 4215.385, 4205.128, 0, 0, []
1628706366.5333, 46, 0, 4283.59, 4124.615, 4107.692, 4182.564, 4195.897, 0, 0, []
1628706366.5412, 47, 0, 4268.718, 4129.744, 4080, 4135.385, 4182.564, 0, 0, []
1628706366.5492, 48, 0, 4237.436, 4120.513, 4055.385, 4094.872, 4156.923, 0, 0, []
1628706366.5572, 49, 0, 4191.795, 4101.026, 4023.077, 4067.692, 4099.487, 0, 0, []
1628706366.565, 50, 0, 4175.385, 4104.615, 3996.923, 4094.872, 4066.154, 0, 0, []
1628706366.573, 51, 0, 4203.077, 4121.538, 4019.487, 4161.538, 4094.359, 0, 0, []
1628706366.5809, 52, 0, 4241.026, 4127.692, 4063.59, 4203.077, 4142.564, 0, 0, []
1628706366.5889, 53, 0, 4250.256, 4123.59, 4079.487, 4212.821, 4166.667, 0, 0, []
1628706366.5968, 54, 0, 4234.359, 4110.769, 4074.359, 4209.231, 4169.231, 0, 0, []
1628706366.6047, 55, 0, 4225.641, 4103.59, 4065.128, 4197.436, 4168.205, 0, 0, []
1628706366.6126, 56, 0, 4235.897, 4120, 4056.923, 4188.205, 4171.282, 0, 0, []
1628706366.6206, 57, 0, 4244.103, 4140.513, 4052.308, 4189.231, 4171.795, 0, 0, []
1628706366.6285, 58, 0, 4242.564, 4140.513, 4049.231, 4182.051, 4169.744, 0, 0, []
1628706366.6365, 59, 0, 4242.564, 4134.872, 4050.256, 4166.667, 4168.205, 0, 0, []
1628706366.6443, 60, 0, 4246.154, 4138.462, 4056.923, 4171.282, 4168.205, 0, 0, []
1628706366.6523, 61, 0, 4249.744, 4140, 4060.513, 4185.641, 4180, 0, 0, []
1628706366.6602, 62, 0, 4251.795, 4140.513, 4056.923, 4181.026, 4189.744, 0, 0, []
1628706366.6682, 63, 0, 4239.487, 4144.103, 4043.59, 4161.538, 4168.718, 0, 0, []
1628706366.6761, 64, 0, 4216.41, 4140, 4021.026, 4146.667, 4133.333, 450, 0, []
1628706366.684, 65, 0, 4206.154, 4140, 4015.897, 4141.538, 4124.103, 450, 0, []
1628706366.6919, 66, 0, 4214.359, 4154.359, 4029.231, 4149.231, 4143.077, 16193, 0, []
1628706366.6999, 67, 0, 4216.41, 4156.41, 4026.667, 4165.641, 4160.513, 450, 0, []
1628706366.7079, 68, 0, 4212.308, 4144.103, 4012.308, 4165.641, 4164.615, 16179, 0, []
1628706366.7158, 69, 0, 4225.641, 4152.821, 4019.487, 4157.436, 4174.359, 450, 0, []
1628706366.7237, 70, 0, 4248.205, 4175.385, 4039.487, 4166.154, 4186.667, 16165, 0, []
1628706366.7316, 71, 0, 4254.872, 4177.949, 4048.205, 4179.487, 4189.744, 450, 0, []
1628706366.7396, 72, 0, 4251.282, 4169.231, 4045.128, 4167.692, 4189.231, 450, 0, []
1628706366.7475, 73, 0, 4258.462, 4169.744, 4035.897, 4148.718, 4195.385, 16187, 0, []
1628706366.7555, 74, 0, 4263.59, 4175.385, 4042.051, 4166.667, 4206.154, 450, 0, []
1628706366.7633, 75, 0, 4249.231, 4175.897, 4060, 4189.744, 4197.436, 16202, 0, []
1628706366.7713, 76, 0, 4249.744, 4177.949, 4054.359, 4178.974, 4184.615, 450, 0, []
1628706366.7792, 77, 0, 4283.59, 4180.513, 4034.359, 4162.564, 4193.846, 450, 0, []
1628706366.7872, 78, 0, 4311.795, 4185.128, 4036.41, 4164.103, 4203.59, 450, 0, []
1628706366.7951, 79, 0, 4320, 4197.949, 4051.795, 4166.154, 4199.487, 16202, 0, []
1628706366.803, 80, 0, 4318.462, 4196.41, 4052.308, 4158.462, 4197.949, 450, 0, []
1628706366.8109, 81, 0, 4304.615, 4174.359, 4047.179, 4144.615, 4196.41, 450, 0, []
1628706366.8189, 82, 0, 4286.667, 4164.103, 4044.103, 4139.487, 4181.538, 450, 0, []
1628706366.8268, 83, 0, 4284.103, 4171.282, 4043.59, 4155.897, 4176.41, 16202, 0, []
1628706366.8348, 84, 0, 4295.897, 4172.308, 4054.359, 4174.359, 4190.256, 450, 0, []
1628706366.8427, 85, 0, 4308.718, 4169.231, 4062.051, 4177.436, 4199.487, 450, 0, []
1628706366.8506, 86, 0, 4308.205, 4170.256, 4056.41, 4168.718, 4194.359, 450, 0, []
1628706366.8586, 87, 0, 4290.256, 4168.205, 4050.256, 4152.308, 4178.974, 16202, 0, []
1628706366.8665, 88, 0, 4279.487, 4168.205, 4051.795, 4142.051, 4170.256, 450, 0, []
1628706366.8745, 89, 0, 4274.359, 4168.718, 4047.179, 4138.462, 4167.692, 450, 0, []
1628706366.8824, 90, 0, 4262.051, 4163.077, 4033.846, 4126.154, 4162.051, 450, 0, []
1628706366.8903, 91, 0, 4258.974, 4154.359, 4024.615, 4116.41, 4166.667, 16202, 0, []
1628706366.8982, 92, 0, 4262.564, 4144.615, 4026.667, 4120, 4174.359, 450, 0, []
1628706366.9062, 93, 0, 4260, 4135.385, 4036.41, 4124.103, 4169.744, 450, 0, []
1628706366.9141, 94, 0, 4262.564, 4131.795, 4040, 4121.538, 4172.308, 450, 0, []
1628706366.9221, 95, 0, 4279.487, 4143.59, 4044.103, 4126.667, 4191.795, 16202, 0, []
1628706366.9299, 96, 0, 4298.462, 4163.077, 4065.128, 4143.59, 4205.128, 450, 0, []
1628706366.9379, 97, 0, 4303.59, 4174.872, 4083.077, 4155.897, 4211.795, 450, 0, []
1628706366.9458, 98, 0, 4297.949, 4174.359, 4072.821, 4150.769, 4217.949, 450, 0, []
1628706366.9538, 99, 0, 4288.205, 4170.769, 4058.462, 4141.026, 4211.795, 16202, 0, []
1628706366.9617, 100, 0, 4283.077, 4177.436, 4057.436, 4144.615, 4200, 450, 0, []
1628706366.9696, 101, 0, 4286.667, 4184.103, 4056.923, 4155.385, 4200, 450, 0, []
1628706366.9775, 102, 0, 4291.282, 4171.795, 4048.718, 4154.872, 4199.487, 450, 0, []
1628706366.9855, 103, 0, 4287.179, 4153.333, 4037.436, 4143.077, 4189.231, 16202, 0, []
1628706366.9934, 104, 0, 4280, 4150.256, 4035.897, 4137.436, 4181.538, 450, 0, []
1628706367.0014, 105, 0, 4287.692, 4154.872, 4044.615, 4139.487, 4186.667, 450, 0, []
1628706367.0092, 106, 0, 4305.128, 4152.821, 4045.641, 4140, 4207.179, 450, 0, []
1628706367.0172, 107, 0, 4321.538, 4151.282, 4032.308, 4136.41, 4230.256, 16202, 0, []
1628706367.0252, 108, 0, 4350.769, 4145.641, 4025.641, 4132.308, 4256.923, 450, 0, []
1628706367.0331, 109, 0, 4401.026, 4136.923, 4033.846, 4132.821, 4295.897, 450, 0, []
1628706367.0411, 110, 0, 4446.154, 4137.436, 4037.949, 4136.41, 4336.41, 450, 0, []
1628706367.0489, 111, 0, 4470.769, 4137.949, 4031.282, 4134.872, 4361.026, 16202, 0, []
1628706367.0569, 112, 0, 4488.205, 4135.897, 4030.256, 4133.846, 4366.154, 450, 0, []
1628706367.0648, 113, 0, 4498.462, 4150.769, 4034.872, 4142.051, 4362.051, 450, 0, []
1628706367.0728, 114, 0, 4494.872, 4173.846, 4031.282, 4148.718, 4355.897, 450, 0, []
1628706367.0807, 115, 0, 4482.051, 4177.949, 4031.795, 4142.564, 4348.718, 16202, 0, []
1628706367.0886, 116, 0, 4458.974, 4169.744, 4033.333, 4138.974, 4330.769, 450, 0, []
1628706367.0965, 117, 0, 4436.41, 4170.769, 4027.179, 4147.179, 4311.795, 450, 0, []
1628706367.1045, 118, 0, 4431.282, 4175.385, 4033.333, 4158.462, 4312.308, 450, 0, []
1628706367.1124, 119, 0, 4416.923, 4173.846, 4042.564, 4156.41, 4309.744, 16202, 0, []
1628706367.1204, 120, 0, 4378.462, 4166.667, 4025.641, 4136.923, 4280.513, 450, 0, []
1628706367.1282, 121, 0, 4356.41, 4166.154, 4014.359, 4130.769, 4256.41, 450, 0, []
1628706367.1362, 122, 0, 4369.231, 4173.846, 4040.513, 4151.795, 4266.154, 450, 0, []
1628706367.1441, 123, 0, 4371.795, 4166.154, 4050.769, 4151.795, 4268.718, 16202, 0, []
1628706367.1521, 124, 0, 4346.667, 4145.128, 4027.179, 4128.205, 4241.538, 450, 0, []
1628706367.16, 125, 0, 4325.641, 4133.333, 4023.077, 4128.205, 4225.128, 450, 0, []
1628706367.1679, 126, 0, 4318.974, 4135.385, 4037.436, 4141.538, 4233.333, 450, 0, []
1628706367.1759, 127, 0, 4306.154, 4144.615, 4029.231, 4127.692, 4229.231, 16202, 0, []
1628706367.1838, 128, 0, 4286.667, 4150.256, 4017.436, 4112.821, 4205.641, 450, 0, []
1628706367.1918, 0, 0, 4282.051, 4144.615, 4035.385, 4129.744, 4204.615, 450, 0, []
1628706367.1997, 1, 0, 4283.59, 4135.385, 4050.769, 4147.179, 4215.897, 450, 0, []
1628706367.2076, 2, 0, 4270.769, 4132.821, 4041.026, 4144.615, 4205.128, 16195, 0, []
1628706367.2155, 3, 0, 4267.179, 4134.872, 4036.41, 4141.538, 4196.41, 450, 0, []
1628706367.2235, 4, 0, 4280.513, 4135.385, 4036.923, 4135.385, 4201.026, 16188, 0, []
1628706367.2314, 5, 0, 4287.179, 4144.615, 4033.846, 4122.564, 4196.41, 450, 0, []
1628706367.2394, 6, 0, 4276.923, 4153.846, 4037.436, 4116.923, 4185.128, 16152, 0, []
1628706367.2472, 7, 0, 4256.923, 4152.821, 4032.821, 4116.923, 4177.436, 450, 0, []
1628706367.2552, 8, 0, 4245.128, 4149.744, 4021.026, 4112.821, 4169.744, 450, 0, []
1628706367.2631, 9, 0, 4242.051, 4153.846, 4025.128, 4118.462, 4166.154, 16166, 0, []
1628706367.2711, 10, 0, 4237.436, 4155.385, 4027.179, 4124.103, 4159.487, 450, 0, []
1628706367.279, 11, 0, 4236.41, 4152.821, 4015.385, 4120.513, 4149.231, 16195, 0, []
1628706367.2869, 12, 0, 4246.667, 4155.385, 4016.41, 4127.179, 4154.359, 450, 0, []
1628706367.2948, 13, 0, 4256.41, 4152.821, 4026.667, 4129.744, 4168.718, 450, 0, []
1628706367.3028, 14, 0, 4259.487, 4144.615, 4033.846, 4125.641, 4176.41, 450, 0, []
1628706367.3107, 15, 0, 4254.872, 4135.385, 4034.359, 4132.821, 4173.846, 16195, 0, []
1628706367.3187, 16, 0, 4241.026, 4122.564, 4029.231, 4132.821, 4165.641, 0, 0, []
1628706367.3265, 17, 0, 4247.179, 4122.051, 4041.026, 4125.641, 4175.385, 0, 0, []
1628706367.3343, 18, 0, 4268.205, 4141.026, 4060, 4135.897, 4192.821, 0, 0, []
1628706367.3423, 19, 0, 4263.59, 4153.333, 4057.436, 4145.128, 4181.538, 0, 0, []
1628706367.3502, 20, 0, 4248.718, 4150.769, 4048.205, 4133.846, 4163.59, 0, 0, []
1628706367.3582, 21, 0, 4245.128, 4151.795, 4048.718, 4121.026, 4168.718, 0, 0, []
1628706367.366, 22, 0, 4238.974, 4157.436, 4042.564, 4120, 4170.769, 0, 0, []
1628706367.374, 23, 0, 4237.436, 4156.41, 4036.41, 4131.795, 4166.154, 0, 0, []
1628706367.3819, 24, 0, 4247.179, 4149.744, 4032.821, 4138.462, 4170.256, 0, 0, []
1628706367.3899, 25, 0, 4245.641, 4155.385, 4023.077, 4127.179, 4167.179, 0, 0, []
1628706367.3978, 26, 0, 4233.846, 4172.308, 4023.59, 4122.051, 4157.949, 0, 0, []
1628706367.4057, 27, 0, 4232.821, 4173.846, 4034.359, 4124.103, 4163.59, 0, 0, []
1628706367.4136, 28, 0, 4234.872, 4160.513, 4037.949, 4120.513, 4177.949, 0, 0, []
1628706367.4216, 29, 0, 4233.333, 4149.744, 4036.923, 4126.667, 4183.59, 0, 0, []
1628706367.4295, 30, 0, 4234.359, 4144.615, 4035.897, 4144.615, 4185.641, 0, 0, []
1628706367.4375, 31, 0, 4235.897, 4137.436, 4030.256, 4149.744, 4186.667, 0, 0, []
1628706367.4453, 32, 0, 4234.359, 4137.436, 4027.692, 4145.128, 4185.641, 0, 0, []
1628706367.4533, 33, 0, 4237.436, 4149.744, 4037.436, 4144.103, 4189.744, 0, 0, []
1628706367.4612, 34, 0, 4237.949, 4154.359, 4040, 4133.846, 4192.821, 0, 0, []
1628706367.4692, 35, 0, 4224.615, 4134.872, 4024.615, 4121.026, 4185.128, 0, 0, []
1628706367.4771, 36, 0, 4211.795, 4122.051, 4021.026, 4120.513, 4174.359, 0, 0, []
1628706367.4848, 37, 0, 4206.154, 4130.256, 4032.821, 4122.051, 4160.513, 0, 0, []
1628706367.4928, 38, 0, 4201.538, 4133.846, 4034.872, 4118.462, 4154.359, 0, 0, []
1628706367.5007, 39, 0, 4201.026, 4132.821, 4045.128, 4128.205, 4169.231, 0, 0, []
1628706367.5087, 40, 0, 4196.923, 4138.462, 4058.974, 4140.513, 4175.385, 0, 0, []
1628706367.5166, 41, 0, 4200.513, 4135.897, 4049.231, 4129.744, 4163.59, 0, 0, []
1628706367.5245, 42, 0, 4233.846, 4132.821, 4046.667, 4122.564, 4170.769, 0, 0, []
1628706367.5324, 43, 0, 4262.051, 4138.462, 4055.897, 4124.615, 4177.436, 0, 0, []
1628706367.5404, 44, 0, 4265.128, 4145.128, 4050.256, 4116.41, 4153.846, 0, 0, []
1628706367.5483, 45, 0, 4286.154, 4156.923, 4058.462, 4119.487, 4155.897, 0, 0, []
1628706367.5563, 46, 0, 4298.974, 4153.333, 4068.718, 4117.436, 4177.436, 0, 0, []
1628706367.5641, 47, 0, 4270.256, 4121.538, 4038.974, 4086.154, 4156.923, 0, 0, []
1628706367.5721, 48, 0, 4267.179, 4119.487, 4031.282, 4080, 4142.564, 0, 0, []
1628706367.58, 49, 0, 4312.308, 4160.513, 4076.923, 4117.949, 4179.487, 0, 0, []
1628706367.588, 50, 0, 4333.846, 4174.872, 4099.487, 4131.282, 4197.436, 0, 0, []
1628706367.5959, 51, 0, 4316.923, 4153.333, 4091.795, 4118.974, 4171.282, 0, 0, []
1628706367.6038, 52, 0, 4313.333, 4150.769, 4100, 4118.974, 4164.615, 0, 0, []
1628706367.6117, 53, 0, 4320.513, 4165.128, 4102.564, 4117.949, 4173.846, 0, 0, []
1628706367.6195, 54, 0, 4301.026, 4162.564, 4084.103, 4104.103, 4154.872, 0, 0, []
1628706367.6274, 55, 0, 4268.205, 4158.974, 4076.41, 4090.769, 4131.795, 0, 0, []
1628706367.6352, 56, 0, 4262.051, 4171.282, 4092.821, 4091.795, 4144.103, 0, 0, []
1628706367.6431, 57, 0, 4269.231, 4169.231, 4096.923, 4096.923, 4160.513, 0, 0, []
1628706367.651, 58, 0, 4256.41, 4151.795, 4077.949, 4089.231, 4149.744, 0, 0, []
1628706367.659, 59, 0, 4241.538, 4147.692, 4067.692, 4080, 4140, 0, 0, []
1628706367.6669, 60, 0, 4245.128, 4151.282, 4073.333, 4084.615, 4145.641, 0, 0, []
1628706367.6749, 61, 0, 4253.846, 4155.385, 4078.462, 4100, 4160, 0, 0, []
1628706367.6827, 62, 0, 4247.179, 4165.641, 4076.923, 4108.718, 4166.154, 0, 0, []
1628706367.6907, 63, 0, 4230.256, 4169.231, 4067.179, 4109.744, 4155.897, 0, 0, []
1628706367.6986, 64, 0, 4224.615, 4165.641, 4058.462, 4115.897, 4148.718, 450, 0, []
1628706367.7066, 65, 0, 4229.231, 4172.821, 4056.41, 4126.667, 4150.769, 450, 0, []
1628706367.7145, 66, 0, 4223.077, 4169.744, 4053.846, 4126.667, 4148.205, 16197, 0, []
1628706367.7224, 67, 0, 4215.897, 4157.436, 4057.949, 4117.436, 4146.667, 450, 0, []
1628706367.7303, 68, 0, 4221.026, 4163.59, 4080, 4124.615, 4163.077, 16188, 0, []
1628706367.7383, 69, 0, 4222.051, 4170.256, 4103.077, 4140.513, 4174.872, 450, 0, []
1628706367.7462, 70, 0, 4215.385, 4157.436, 4108.205, 4141.538, 4170.769, 16161, 0, []
1628706367.7542, 71, 0, 4214.359, 4144.615, 4101.538, 4137.949, 4163.077, 450, 0, []
1628706367.762, 72, 0, 4211.282, 4141.026, 4090.769, 4134.359, 4152.821, 450, 0, []
1628706367.7698, 73, 0, 4192.308, 4133.333, 4083.59, 4117.949, 4141.026, 16185, 0, []
1628706367.7777, 74, 0, 4185.128, 4133.333, 4099.487, 4115.385, 4147.179, 450, 0, []
1628706367.7855, 75, 0, 4223.077, 4159.487, 4133.333, 4155.385, 4184.103, 16200, 0, []
1628706367.7935, 76, 0, 4253.846, 4173.333, 4143.077, 4181.026, 4211.795, 450, 0, []
1628706367.8014, 77, 0, 4236.41, 4156.41, 4125.128, 4169.744, 4205.128, 450, 0, []
1628706367.8092, 78, 0, 4218.462, 4154.359, 4125.641, 4165.641, 4192.821, 450, 0, []
1628706367.817, 79, 0, 4220, 4170.256, 4142.564, 4169.744, 4191.795, 16200, 0, []
1628706367.825, 80, 0, 4203.077, 4164.103, 4139.487, 4157.436, 4184.615, 450, 0, []
1628706367.8329, 81, 0, 4179.487, 4151.795, 4126.154, 4143.077, 4169.231, 450, 0, []
1628706367.8409, 82, 0, 4168.718, 4154.359, 4118.974, 4134.359, 4150.769, 450, 0, []
1628706367.8487, 83, 0, 4174.872, 4158.974, 4122.564, 4131.282, 4140, 16200, 0, []
1628706367.8567, 84, 0, 4193.846, 4169.231, 4138.974, 4142.564, 4148.205, 450, 0, []
1628706367.8646, 85, 0, 4194.359, 4174.359, 4144.615, 4150.769, 4156.41, 450, 0, []
1628706367.8726, 86, 0, 4168.718, 4146.667, 4119.487, 4131.282, 4140, 450, 0, []
1628706367.8805, 87, 0, 4163.59, 4128.718, 4107.179, 4123.59, 4121.026, 16200, 0, []
1628706367.8884, 88, 0, 4178.974, 4149.231, 4131.282, 4149.744, 4124.615, 450, 0, []
1628706367.8963, 89, 0, 4162.564, 4155.897, 4133.846, 4150.769, 4116.41, 450, 0, []
1628706367.9043, 90, 0, 4131.282, 4136.41, 4108.718, 4121.026, 4091.795, 450, 0, []
1628706367.9122, 91, 0, 4132.308, 4134.359, 4102.051, 4120.513, 4087.179, 16200, 0, []
1628706367.92, 92, 0, 4140, 4141.538, 4100.513, 4130.256, 4088.205, 450, 0, []
1628706367.9279, 93, 0, 4127.692, 4131.795, 4088.205, 4118.974, 4076.41, 450, 0, []
1628706367.9358, 94, 0, 4121.538, 4124.615, 4089.744, 4121.538, 4072.821, 450, 0, []
1628706367.9438, 95, 0, 4127.692, 4126.154, 4093.846, 4137.436, 4078.462, 16200, 0, []
1628706367.9517, 96, 0, 4134.359, 4128.718, 4088.718, 4138.462, 4085.128, 450, 0, []
1628706367.9597, 97, 0, 4142.564, 4126.667, 4088.205, 4136.41, 4099.487, 450, 0, []
1628706367.9676, 98, 0, 4130.769, 4107.179, 4071.282, 4124.103, 4096.923, 450, 0, []
1628706367.9755, 99, 0, 4126.154, 4100.513, 4057.949, 4115.385, 4087.179, 16200, 0, []
1628706367.9834, 100, 0, 4160, 4128.205, 4084.103, 4132.308, 4109.744, 450, 0, []
1628706367.9914, 101, 0, 4179.487, 4145.641, 4101.538, 4142.564, 4134.359, 450, 0, []
1628706367.9994, 102, 0, 4154.872, 4126.154, 4073.333, 4128.718, 4114.359, 450, 0, []
1628706368.0072, 103, 0, 4138.462, 4117.949, 4048.205, 4124.103, 4085.128, 16200, 0, []
1628706368.0152, 104, 0, 4141.538, 4132.308, 4048.205, 4126.154, 4080, 450, 0, []
1628706368.0231, 105, 0, 4134.359, 4129.231, 4052.308, 4114.359, 4073.333, 450, 0, []
1628706368.0311, 106, 0, 4142.051, 4126.667, 4063.59, 4124.615, 4078.974, 450, 0, []
1628706368.039, 107, 0, 4163.077, 4136.923, 4065.128, 4140, 4092.821, 16200, 0, []
1628706368.0469, 108, 0, 4149.231, 4128.205, 4048.205, 4113.846, 4077.436, 450, 0, []
1628706368.0548, 109, 0, 4121.026, 4117.949, 4039.487, 4091.282, 4058.974, 450, 0, []
1628706368.0628, 110, 0, 4122.564, 4135.385, 4039.487, 4104.615, 4061.538, 450, 0, []
1628706368.0707, 111, 0, 4127.179, 4140.513, 4026.667, 4106.154, 4050.256, 16200, 0, []
1628706368.0787, 112, 0, 4112.308, 4122.051, 4012.821, 4082.564, 4033.333, 450, 0, []
1628706368.0866, 113, 0, 4120, 4128.205, 4027.179, 4086.154, 4050.769, 450, 0, []
1628706368.0945, 114, 0, 4150.769, 4152.308, 4051.795, 4115.897, 4067.179, 450, 0, []
1628706368.1025, 115, 0, 4155.385, 4152.821, 4049.744, 4123.59, 4060, 16200, 0, []
1628706368.1104, 116, 0, 4143.077, 4141.538, 4037.949, 4113.846, 4067.692, 450, 0, []
1628706368.1184, 117, 0, 4134.359, 4136.41, 4034.872, 4110.256, 4069.231, 450, 0, []
1628706368.1262, 118, 0, 4121.538, 4134.872, 4025.641, 4107.692, 4040, 450, 0, []
1628706368.1342, 119, 0, 4128.205, 4144.615, 4028.718, 4112.308, 4038.974, 16200, 0, []
1628706368.1421, 120, 0, 4150.769, 4158.462, 4052.308, 4130.256, 4072.821, 450, 0, []
1628706368.1501, 121, 0, 4145.641, 4154.359, 4048.205, 4131.795, 4068.718, 450, 0, []
1628706368.158, 122, 0, 4137.436, 4149.231, 4032.821, 4119.487, 4045.128, 450, 0, []
1628706368.1659, 123, 0, 4142.564, 4152.308, 4040, 4115.897, 4048.718, 16200, 0, []
1628706368.1738, 124, 0, 4126.667, 4142.051, 4040.513, 4105.641, 4050.256, 450, 0, []
1628706368.1818, 125, 0, 4120.513, 4138.462, 4040, 4105.641, 4047.692, 450, 0, []
1628706368.1897, 126, 0, 4147.179, 4156.923, 4053.846, 4132.308, 4060.513, 450, 0, []
1628706368.1977, 127, 0, 4151.282, 4161.026, 4055.897, 4138.462, 4063.077, 16200, 0, []
1628706368.2055, 128, 0, 4129.744, 4147.179, 4048.718, 4122.051, 4053.333, 450, 0, []
1628706368.2135, 0, 0, 4121.026, 4142.564, 4033.846, 4120, 4045.641, 450, 0, []
1628706368.2215, 1, 0, 4127.692, 4149.231, 4024.103, 4122.564, 4040.513, 450, 0, []
1628706368.2294, 2, 0, 4143.59, 4157.436, 4044.615, 4126.667, 4057.949, 16197, 0, []
1628706368.2373, 3, 0, 4146.667, 4145.128, 4056.923, 4131.282, 4074.872, 450, 0, []
1628706368.2452, 4, 0, 4123.59, 4112.821, 4028.205, 4120.513, 4050.256, 16188, 0, []
1628706368.2531, 5, 0, 4117.436, 4108.718, 4027.179, 4126.154, 4030.256, 450, 0, []
1628706368.2611, 6, 0, 4123.59, 4122.564, 4051.282, 4143.59, 4042.564, 16223, 0, []
1628706368.2691, 7, 0, 4107.692, 4107.179, 4032.821, 4125.128, 4040, 450, 0, []
1628706368.277, 8, 0, 4110.769, 4101.026, 4018.974, 4114.872, 4033.846, 450, 0, []
1628706368.2849, 9, 0, 4138.974, 4130.769, 4047.692, 4141.026, 4048.718, 16186, 0, []
1628706368.2928, 10, 0, 4145.641, 4142.564, 4069.231, 4151.282, 4063.077, 450, 0, []
1628706368.3008, 11, 0, 4142.564, 4128.205, 4069.231, 4149.744, 4068.205, 16203, 0, []
1628706368.3087, 12, 0, 4141.026, 4118.462, 4057.949, 4152.308, 4055.897, 450, 0, []
1628706368.3167, 13, 0, 4125.641, 4116.923, 4048.718, 4138.974, 4033.333, 450, 0, []
1628706368.3245, 14, 0, 4119.487, 4129.744, 4069.231, 4137.436, 4036.41, 450, 0, []
1628706368.3325, 15, 0, 4129.231, 4137.436, 4092.308, 4155.897, 4051.282, 16203, 0, []
1628706368.3404, 16, 0, 4130.256, 4123.077, 4071.795, 4159.487, 4043.077, 0, 0, []
1628706368.3484, 17, 0, 4138.462, 4121.538, 4058.462, 4153.333, 4038.974, 0, 0, []
1628706368.3563, 18, 0, 4143.077, 4133.846, 4064.615, 4145.128, 4043.077, 0, 0, []
1628706368.3642, 19, 0, 4123.077, 4121.538, 4045.128, 4132.821, 4032.821, 0, 0, []
1628706368.3721, 20, 0, 4118.974, 4111.282, 4031.282, 4132.308, 4027.179, 0, 0, []
1628706368.3801, 21, 0, 4143.59, 4135.897, 4057.949, 4147.692, 4040.513, 0, 0, []
1628706368.388, 22, 0, 4158.462, 4161.538, 4091.795, 4163.59, 4059.487, 0, 0, []
1628706368.396, 23, 0, 4146.154, 4158.462, 4093.846, 4160.513, 4055.897, 0, 0, []
1628706368.4038, 24, 0, 4126.154, 4138.974, 4068.205, 4130.769, 4016.41, 0, 0, []
1628706368.4118, 25, 0, 4124.103, 4135.897, 4057.436, 4113.333, 3992.308, 0, 0, []
1628706368.4198, 26, 0, 4135.897, 4151.795, 4082.564, 4129.231, 4014.872, 0, 0, []
1628706368.4277, 27, 0, 4141.538, 4157.436, 4105.641, 4144.615, 4035.897, 0, 0, []
1628706368.4357, 28, 0, 4139.487, 4154.359, 4091.795, 4144.103, 4021.026, 0, 0, []
1628706368.4435, 29, 0, 4128.718, 4154.359, 4068.718, 4130.256, 3993.846, 0, 0, []
1628706368.4515, 30, 0, 4107.179, 4149.231, 4063.59, 4114.359, 3982.564, 0, 0, []
1628706368.4594, 31, 0, 4105.641, 4140, 4064.103, 4116.41, 3990.769, 0, 0, []
1628706368.4674, 32, 0, 4125.641, 4144.615, 4065.641, 4129.744, 4002.051, 0, 0, []
1628706368.4753, 33, 0, 4123.59, 4154.359, 4080, 4125.641, 3995.385, 0, 0, []
1628706368.4832, 34, 0, 4107.179, 4156.41, 4104.103, 4116.41, 3987.692, 0, 0, []
1628706368.4911, 35, 0, 4105.128, 4155.385, 4109.231, 4119.487, 3988.718, 0, 0, []
1628706368.4991, 36, 0, 4109.231, 4158.462, 4100.513, 4121.026, 3983.59, 0, 0, []
1628706368.507, 37, 0, 4124.615, 4181.026, 4118.462, 4134.359, 3996.923, 0, 0, []
1628706368.515, 38, 0, 4144.615, 4201.538, 4142.564, 4157.436, 4026.667, 0, 0, []
1628706368.5228, 39, 0, 4142.564, 4188.205, 4137.436, 4161.026, 4032.308, 0, 0, []
1628706368.5307, 40, 0, 4126.667, 4170.256, 4124.103, 4147.179, 4017.949, 0, 0, []
1628706368.5387, 41, 0, 4122.051, 4172.308, 4118.974, 4133.333, 4004.615, 0, 0, []
1628706368.5467, 42, 0, 4118.974, 4171.795, 4106.667, 4120.513, 3997.436, 0, 0, []
1628706368.5547, 43, 0, 4113.846, 4169.231, 4104.103, 4121.538, 4009.744, 0, 0, []
1628706368.5625, 44, 0, 4126.667, 4177.436, 4127.179, 4140, 4026.154, 0, 0, []
1628706368.5704, 45, 0, 4140, 4187.179, 4141.538, 4151.282, 4018.974, 0, 0, []
1628706368.5784, 46, 0, 4122.051, 4190.256, 4132.308, 4140.513, 4008.205, 0, 0, []
1628706368.5864, 47, 0, 4102.564, 4183.077, 4123.077, 4121.538, 4011.795, 0, 0, []
1628706368.5943, 48, 0, 4114.359, 4170.769, 4122.051, 4116.923, 4024.103, 0, 0, []
1628706368.6022, 49, 0, 4126.154, 4166.154, 4121.538, 4122.051, 4029.744, 0, 0, []
1628706368.6101, 50, 0, 4127.179, 4169.744, 4124.615, 4121.026, 4024.103, 0, 0, []
1628706368.6181, 51, 0, 4133.846, 4168.718, 4137.436, 4123.59, 4035.385, 0, 0, []
1628706368.6261, 52, 1, 4134.587, 4165.356, 4134.53, 4123.305, 4037.721, 0, 0, []
1628706368.634, 53, 1, 4135.328, 4161.994, 4131.624, 4123.02, 4040.057, 0, 0, []
1628706368.6418, 54, 1, 4136.068, 4158.632, 4128.718, 4122.735, 4042.393, 0, 0, []
1628706368.6497, 55, 1, 4136.809, 4155.271, 4125.812, 4122.45, 4044.729, 0, 0, []
1628706368.6576, 56, 1, 4137.55, 4151.909, 4122.906, 4122.165, 4047.066, 0, 0, []
1628706368.6655, 57, 1, 4138.291, 4148.547, 4120, 4121.88, 4049.402, 0, 0, []
1628706368.6734, 58, 1, 4139.031, 4145.185, 4117.094, 4121.595, 4051.738, 0, 0, []
1628706368.6812, 59, 1, 4139.772, 4141.823, 4114.188, 4121.311, 4054.074, 0, 0, []
1628706368.6891, 60, 0, 4140.513, 4138.462, 4111.282, 4121.026, 4056.41, 0, 0, []
1628706368.6969, 61, 0, 4174.359, 4156.923, 4143.59, 4144.615, 4098.974, 0, 0, []
1628706368.7047, 62, 0, 4172.308, 4154.359, 4137.436, 4140, 4092.308, 0, 0, []
1628706368.7126, 63, 0, 4165.128, 4149.231, 4131.795, 4130.769, 4075.385, 0, 0, []
1628706368.7204, 64, 0, 4166.667, 4149.744, 4141.538, 4127.692, 4083.077, 450, 0, []
1628706368.7282, 65, 0, 4157.436, 4141.538, 4142.051, 4119.487, 4088.718, 450, 0, []
1628706368.7361, 66, 0, 4150.256, 4133.846, 4140.513, 4123.077, 4087.692, 16188, 0, []
1628706368.7439, 67, 0, 4152.308, 4138.974, 4142.051, 4138.462, 4089.231, 450, 0, []
1628706368.7517, 68, 0, 4157.949, 4146.667, 4142.564, 4141.026, 4089.231, 16187, 0, []
1628706368.7595, 69, 0, 4169.231, 4154.359, 4149.744, 4136.41, 4104.615, 450, 0, []
1628706368.7673, 70, 0, 4173.333, 4158.462, 4162.564, 4138.462, 4124.615, 16177, 0, []
1628706368.7751, 71, 0, 4170.256, 4148.205, 4155.897, 4140, 4124.103, 450, 0, []
1628706368.783, 72, 0, 4182.564, 4132.821, 4130.769, 4136.923, 4123.59, 450, 0, []
1628706368.7908, 73, 0, 4202.051, 4142.051, 4125.128, 4140.513, 4141.538, 16186, 0, []
1628706368.7988, 74, 0, 4201.026, 4167.692, 4135.385, 4144.103, 4151.282, 450, 0, []
1628706368.8066, 75, 0, 4191.282, 4171.795, 4128.205, 4128.205, 4141.026, 16202, 0, []
1628706368.8145, 76, 0, 4193.846, 4163.59, 4116.41, 4105.128, 4138.974, 450, 0, []
1628706368.8225, 77, 0, 4214.872, 4165.641, 4120, 4103.59, 4161.026, 450, 0, []
1628706368.8304, 78, 0, 4250.769, 4167.692, 4116.923, 4110.769, 4194.872, 450, 0, []
1628706368.8384, 79, 0, 4296.41, 4165.128, 4100.513, 4096.923, 4233.333, 16202, 0, []
1628706368.8463, 80, 0, 4370.769, 4183.59, 4108.718, 4102.051, 4295.385, 450, 0, []
1628706368.8542, 81, 0, 4463.59, 4213.846, 4144.103, 4142.051, 4374.872, 450, 0, []
1628706368.8622, 82, 0, 4510.769, 4211.795, 4160, 4162.564, 4418.462, 450, 0, []
1628706368.8701, 83, 0, 4519.487, 4199.487, 4155.385, 4160.513, 4434.359, 16202, 0, []
1628706368.8781, 84, 0, 4538.462, 4213.846, 4168.205, 4174.359, 4466.154, 450, 0, []
1628706368.8859, 85, 0, 4532.308, 4218.974, 4181.026, 4185.128, 4470.256, 450, 0, []
1628706368.8939, 86, 0, 4473.333, 4199.487, 4153.846, 4165.641, 4424.103, 450, 0, []
1628706368.9018, 87, 0, 4416.923, 4193.333, 4126.667, 4155.897, 4386.154, 16202, 0, []
1628706368.9098, 88, 0, 4386.154, 4202.564, 4133.846, 4174.359, 4371.795, 450, 0, []
1628706368.9177, 89, 0, 4343.59, 4204.615, 4142.051, 4184.615, 4345.641, 450, 0, []
1628706368.9256, 90, 0, 4280, 4205.641, 4140.513, 4177.949, 4300.513, 450, 0, []
1628706368.9335, 91, 0, 4214.872, 4194.359, 4131.795, 4163.077, 4249.231, 16202, 0, []
1628706368.9415, 92, 0, 4165.641, 4173.333, 4118.974, 4150.256, 4210.256, 450, 0, []
1628706368.9494, 93, 0, 4145.128, 4172.821, 4126.667, 4160, 4207.179, 450, 0, []
1628706368.9574, 94, 0, 4151.795, 4186.154, 4160, 4191.282, 4222.564, 450, 0, []
1628706368.9652, 95, 0, 4146.154, 4188.718, 4170.769, 4193.333, 4208.718, 16202, 0, []
1628706368.9732, 96, 0, 4122.564, 4189.231, 4152.821, 4166.154, 4184.615, 450, 0, []
1628706368.9811, 97, 0, 4127.692, 4201.026, 4154.359, 4174.359, 4200, 450, 0, []
1628706368.9891, 98, 0, 4148.205, 4207.692, 4164.615, 4200.513, 4218.974, 450, 0, []
1628706368.997, 99, 0, 4137.436, 4207.179, 4156.41, 4196.923, 4195.385, 16202, 0, []
1628706369.0049, 100, 0, 4121.538, 4214.872, 4151.282, 4178.974, 4167.179, 450, 0, []
1628706369.0129, 101, 0, 4125.641, 4222.051, 4152.821, 4164.615, 4159.487, 450, 0, []
1628706369.0208, 102, 0, 4121.026, 4220.513, 4142.564, 4152.308, 4155.385, 450, 0, []
1628706369.0288, 103, 0, 4106.154, 4213.846, 4129.744, 4147.179, 4149.744, 16202, 0, []
1628706369.0367, 104, 0, 4109.744, 4209.744, 4126.154, 4158.974, 4140, 450, 0, []
1628706369.0446, 105, 0, 4120, 4214.359, 4125.128, 4168.718, 4132.821, 450, 0, []
1628706369.0525, 106, 0, 4113.846, 4210.256, 4115.385, 4157.949, 4135.385, 450, 0, []
1628706369.0605, 107, 0, 4108.718, 4201.026, 4107.179, 4150.256, 4140.513, 16202, 0, []
1628706369.0684, 108, 0, 4114.359, 4203.59, 4105.128, 4157.436, 4132.308, 450, 0, []
1628706369.0764, 109, 0, 4096.923, 4197.436, 4087.179, 4140, 4097.436, 450, 0, []
1628706369.0842, 110, 0, 4078.462, 4187.179, 4078.462, 4115.897, 4077.436, 450, 0, []
1628706369.0922, 111, 0, 4105.641, 4210.769, 4117.436, 4138.974, 4107.179, 16202, 0, []
1628706369.1001, 112, 0, 4142.051, 4236.41, 4147.179, 4172.821, 4133.846, 450, 0, []
1628706369.1081, 113, 0, 4138.462, 4225.128, 4129.231, 4173.333, 4112.821, 450, 0, []
1628706369.116, 114, 0, 4125.128, 4210.769, 4118.462, 4164.103, 4093.333, 450, 0, []
1628706369.1239, 115, 0, 4126.154, 4212.308, 4133.333, 4161.026, 4104.615, 16202, 0, []
1628706369.1318, 116, 0, 4120, 4200, 4128.205, 4155.897, 4106.154, 450, 0, []
1628706369.1398, 117, 0, 4109.231, 4182.564, 4106.667, 4148.205, 4087.179, 450, 0, []
1628706369.1477, 118, 0, 4109.231, 4178.462, 4100.513, 4138.974, 4072.308, 450, 0, []
1628706369.1557, 119, 0, 4110.256, 4177.949, 4107.692, 4134.872, 4074.872, 16202, 0, []
1628706369.1635, 120, 0, 4105.641, 4171.282, 4110.256, 4136.923, 4080.513, 450, 0, []
1628706369.1715, 121, 0, 4107.179, 4167.179, 4113.846, 4137.949, 4077.949, 450, 0, []
1628706369.1795, 122, 0, 4116.41, 4171.282, 4118.974, 4139.487, 4073.846, 450, 0, []
1628706369.1874, 123, 0, 4116.41, 4172.821, 4113.846, 4141.026, 4070.769, 16202, 0, []
1628706369.1954, 124, 0, 4106.667, 4166.667, 4109.231, 4146.667, 4073.333, 450, 0, []
1628706369.2032, 125, 0, 4106.154, 4162.051, 4110.769, 4151.795, 4077.436, 450, 0, []
1628706369.2112, 126, 0, 4116.41, 4165.128, 4104.103, 4145.641, 4076.923, 450, 0, []
1628706369.2191, 127, 0, 4119.487, 4169.744, 4094.872, 4134.359, 4077.436, 16202, 0, []
1628706369.2271, 128, 0, 4117.436, 4166.667, 4095.897, 4133.846, 4092.308, 450, 0, []
1628706369.235, 0, 0, 4128.205, 4168.205, 4108.205, 4146.667, 4115.385, 450, 0, []
1628706369.2429, 1, 0, 4144.103, 4175.897, 4114.359, 4156.923, 4124.615, 450, 0, []
1628706369.2508, 2, 0, 4147.692, 4175.385, 4105.128, 4153.846, 4120.513, 16189, 0, []
1628706369.2588, 3, 0, 4137.436, 4166.154, 4098.974, 4142.051, 4117.436, 450, 0, []
1628706369.2667, 4, 0, 4132.821, 4160.513, 4105.128, 4136.923, 4126.667, 16188, 0, []
1628706369.2747, 5, 0, 4148.718, 4165.128, 4109.744, 4144.103, 4145.128, 450, 0, []
1628706369.2825, 6, 0, 4161.026, 4176.923, 4109.231, 4153.333, 4151.795, 16174, 0, []
1628706369.2905, 7, 0, 4168.205, 4184.615, 4110.256, 4157.436, 4160.513, 450, 0, []
1628706369.2984, 8, 0, 4204.615, 4186.154, 4104.103, 4155.385, 4192.821, 450, 0, []
1628706369.3064, 9, 0, 4253.333, 4189.231, 4096.923, 4145.641, 4229.744, 16186, 0, []
1628706369.3143, 10, 0, 4271.282, 4184.103, 4100.513, 4135.897, 4252.308, 450, 0, []
1628706369.3222, 11, 0, 4270.256, 4173.846, 4106.667, 4137.436, 4267.692, 16201, 0, []
1628706369.3302, 12, 0, 4267.179, 4174.872, 4107.692, 4141.538, 4274.359, 450, 0, []
1628706369.3381, 13, 0, 4255.385, 4174.872, 4108.205, 4138.462, 4268.718, 450, 0, []
1628706369.3461, 14, 0, 4246.667, 4168.205, 4117.436, 4139.487, 4264.103, 450, 0, []
1628706369.354, 15, 0, 4249.744, 4165.128, 4125.641, 4146.154, 4266.667, 16201, 0, []
1628706369.3619, 16, 0, 4251.282, 4159.487, 4121.538, 4152.308, 4274.359, 0, 0, []
1628706369.3698, 17, 0, 4250.256, 4160, 4121.026, 4164.103, 4283.59, 0, 0, []
1628706369.3778, 18, 0, 4245.641, 4172.821, 4127.692, 4169.231, 4276.923, 0, 0, []
1628706369.3857, 19, 0, 4233.846, 4169.231, 4128.718, 4158.974, 4263.59, 0, 0, []
1628706369.3937, 20, 0, 4229.231, 4150.769, 4128.205, 4143.077, 4271.282, 0, 0, []
1628706369.4015, 21, 0, 4230.256, 4154.359, 4138.974, 4136.923, 4292.821, 0, 0, []
1628706369.4095, 22, 0, 4222.051, 4162.051, 4142.564, 4147.179, 4300.513, 0, 0, []
1628706369.4174, 23, 0, 4212.821, 4154.359, 4127.692, 4150.769, 4291.795, 0, 0, []
1628706369.4254, 24, 0, 4212.821, 4153.846, 4112.308, 4137.949, 4287.179, 0, 0, []
1628706369.4333, 25, 0, 4217.436, 4167.692, 4105.641, 4133.333, 4294.872, 0, 0, []
1628706369.4412, 26, 0, 4225.641, 4174.872, 4110.256, 4143.59, 4305.128, 0, 0, []
1628706369.4491, 27, 0, 4230.256, 4172.308, 4125.641, 4148.718, 4309.744, 0, 0, []
1628706369.4571, 28, 0, 4216.923, 4169.231, 4130.769, 4149.231, 4309.744, 0, 0, []
1628706369.465, 29, 0, 4200, 4166.667, 4122.564, 4153.846, 4307.692, 0, 0, []
1628706369.473, 30, 0, 4197.949, 4163.59, 4122.051, 4157.949, 4311.795, 0, 0, []
1628706369.4809, 31, 0, 4203.59, 4167.179, 4126.667, 4158.974, 4321.538, 0, 0, []
1628706369.4888, 32, 0, 4201.538, 4172.308, 4122.051, 4147.692, 4318.462, 0, 0, []
1628706369.4968, 33, 0, 4196.41, 4173.333, 4128.205, 4132.308, 4311.282, 0, 0, []
1628706369.5047, 34, 0, 4205.641, 4177.949, 4149.231, 4135.385, 4325.641, 0, 0, []
1628706369.5127, 35, 0, 4218.974, 4190.256, 4162.564, 4150.769, 4348.718, 0, 0, []
1628706369.5205, 36, 0, 4222.564, 4200.513, 4172.308, 4167.179, 4364.103, 0, 0, []
1628706369.5285, 37, 0, 4219.487, 4201.538, 4180.513, 4178.974, 4372.821, 0, 0, []
1628706369.5364, 38, 0, 4208.718, 4193.333, 4169.744, 4172.821, 4368.718, 0, 0, []
1628706369.5444, 39, 0, 4201.026, 4178.974, 4154.872, 4157.436, 4361.026, 0, 0, []
1628706369.5523, 40, 0, 4213.846, 4176.41, 4164.103, 4150.256, 4367.179, 0, 0, []
1628706369.5602, 41, 0, 4232.308, 4191.282, 4184.103, 4152.821, 4381.538, 0, 0, []
1628706369.5681, 42, 0, 4231.282, 4198.462, 4192.308, 4153.846, 4386.667, 0, 0, []
1628706369.5761, 43, 0, 4220, 4192.308, 4190.769, 4146.667, 4377.949, 0, 0, []
1628706369.584, 44, 0, 4208.205, 4184.103, 4180.513, 4142.051, 4367.179, 0, 0, []
1628706369.592, 45, 0, 4199.487, 4178.462, 4172.308, 4150.769, 4367.179, 0, 0, []
1628706369.5998, 46, 0, 4200, 4175.897, 4167.179, 4166.667, 4374.359, 0, 0, []
1628706369.6078, 47, 0, 4198.462, 4169.744, 4154.359, 4162.564, 4366.154, 0, 0, []
1628706369.6157, 48, 0, 4203.077, 4167.179, 4151.795, 4147.692, 4356.41, 0, 0, []
1628706369.6237, 49, 0, 4222.564, 4180, 4167.179, 4149.744, 4365.641, 0, 0, []
1628706369.6316, 50, 0, 4231.795, 4192.308, 4176.923, 4153.333, 4371.282, 0, 0, []
1628706369.6395, 51, 0, 4212.308, 4176.923, 4173.846, 4134.872, 4346.154, 0, 0, []
1628706369.6475, 52, 0, 4187.179, 4154.359, 4171.795, 4122.051, 4323.59, 0, 0, []
1628706369.6554, 53, 0, 4182.051, 4152.821, 4179.487, 4141.026, 4334.872, 0, 0, []
1628706369.6634, 54, 0, 4199.487, 4166.154, 4194.359, 4163.077, 4352.308, 0, 0, []
1628706369.6713, 55, 0, 4214.359, 4178.974, 4196.41, 4160.513, 4355.385, 0, 0, []
1628706369.6792, 56, 0, 4213.333, 4182.564, 4174.359, 4141.026, 4351.282, 0, 0, []
1628706369.6871, 57, 0, 4222.051, 4186.667, 4163.077, 4132.821, 4354.872, 0, 0, []
1628706369.6951, 58, 0, 4231.282, 4188.718, 4170.256, 4125.128, 4354.872, 0, 0, []
1628706369.703, 59, 0, 4218.462, 4182.564, 4165.641, 4107.179, 4345.641, 0, 0, []
1628706369.711, 60, 0, 4226.154, 4187.692, 4165.128, 4118.462, 4357.949, 0, 0, []
1628706369.7189, 61, 0, 4275.385, 4203.077, 4179.487, 4154.872, 4402.564, 0, 0, []
1628706369.7268, 62, 0, 4305.128, 4207.692, 4181.538, 4160, 4437.436, 0, 0, []
1628706369.7347, 63, 0, 4307.692, 4198.974, 4169.231, 4138.974, 4452.308, 0, 0, []
1628706369.7427, 64, 0, 4338.462, 4197.436, 4165.641, 4135.897, 4486.667, 450, 0, []
1628706369.7506, 65, 0, 4373.846, 4202.564, 4167.692, 4141.026, 4527.179, 450, 0, []
1628706369.7586, 66, 0, 4376.923, 4197.436, 4168.718, 4138.462, 4531.282, 16180, 0, []
1628706369.7664, 67, 0, 4370.256, 4187.179, 4172.308, 4136.41, 4515.897, 450, 0, []
1628706369.7744, 68, 0, 4368.718, 4185.128, 4167.179, 4137.436, 4502.051, 16171, 0, []
1628706369.7823, 69, 0, 4349.231, 4187.692, 4154.872, 4138.974, 4482.564, 450, 0, []
1628706369.7903, 70, 0, 4321.026, 4184.615, 4145.128, 4137.949, 4463.077, 16186, 0, []
1628706369.7982, 71, 0, 4301.538, 4181.538, 4143.59, 4139.487, 4450.256, 450, 0, []
1628706369.8061, 72, 0, 4276.923, 4174.359, 4142.051, 4141.026, 4428.718, 450, 0, []
1628706369.8141, 73, 0, 4255.385, 4158.462, 4131.795, 4140, 4404.615, 16180, 0, []
1628706369.822, 74, 0, 4251.795, 4148.718, 4124.615, 4139.487, 4401.538, 450, 0, []
1628706369.83, 75, 0, 4262.564, 4153.333, 4134.872, 4145.128, 4412.308, 16230, 0, []
1628706369.8379, 76, 0, 4268.205, 4155.385, 4146.667, 4141.026, 4409.744, 450, 0, []
1628706369.8458, 77, 0, 4261.026, 4152.308, 4144.615, 4122.564, 4392.308, 450, 0, []
1628706369.8537, 78, 0, 4266.154, 4161.538, 4151.795, 4123.59, 4390.769, 450, 0, []
1628706369.8617, 79, 0, 4291.282, 4174.872, 4157.436, 4138.462, 4407.179, 16230, 0, []
1628706369.8696, 80, 0, 4312.821, 4175.385, 4142.051, 4134.872, 4418.462, 450, 0, []
1628706369.8776, 81, 0, 4325.641, 4171.795, 4132.308, 4128.205, 4427.179, 450, 0, []
1628706369.8854, 82, 0, 4351.795, 4171.282, 4134.359, 4138.462, 4446.154, 450, 0, []
1628706369.8934, 83, 0, 4388.205, 4169.744, 4132.308, 4145.128, 4468.205, 16230, 0, []
1628706369.9013, 84, 0, 4410.256, 4165.641, 4135.385, 4141.538, 4477.949, 450, 0, []
1628706369.9093, 85, 0, 4410.256, 4154.872, 4141.538, 4140.513, 4475.897, 450, 0, []
1628706369.9172, 86, 0, 4387.179, 4128.205, 4122.051, 4128.718, 4455.897, 450, 0, []
1628706369.9251, 87, 0, 4363.59, 4108.718, 4095.385, 4111.795, 4429.231, 16230, 0, []
1628706369.933, 88, 0, 4360.513, 4118.462, 4100.513, 4116.923, 4422.051, 450, 0, []
1628706369.941, 89, 0, 4359.487, 4143.59, 4127.179, 4145.128, 4426.154, 450, 0, []
1628706369.9489, 90, 0, 4334.872, 4161.538, 4132.821, 4159.487, 4407.179, 450, 0, []
1628706369.9569, 91, 0, 4292.821, 4166.667, 4109.231, 4136.923, 4365.641, 16230, 0, []
1628706369.9647, 92, 0, 4261.538, 4168.205, 4103.59, 4120.513, 4335.897, 450, 0, []
1628706369.9727, 93, 0, 4250.769, 4173.846, 4123.59, 4136.41, 4330.256, 450, 0, []
1628706369.9807, 94, 0, 4242.051, 4181.026, 4130.256, 4148.718, 4329.231, 450, 0, []
1628706369.9886, 95, 0, 4218.974, 4177.949, 4115.385, 4139.487, 4313.333, 16230, 0, []
1628706369.9966, 96, 0, 4202.051, 4172.308, 4104.615, 4132.308, 4290.769, 450, 0, []
1628706370.0044, 97, 0, 4203.59, 4178.974, 4103.077, 4134.872, 4280, 450, 0, []
1628706370.0124, 98, 0, 4197.436, 4185.641, 4100.513, 4136.923, 4268.718, 450, 0, []
1628706370.0203, 99, 0, 4188.718, 4191.795, 4097.436, 4137.436, 4257.949, 16230, 0, []
1628706370.0283, 100, 0, 4192.821, 4206.667, 4091.795, 4126.154, 4260, 450, 0, []
1628706370.0362, 101, 0, 4191.282, 4214.359, 4089.744, 4107.692, 4264.103, 450, 0, []
1628706370.0441, 102, 0, 4180.513, 4214.359, 4100.513, 4110.769, 4260.513, 450, 0, []
1628706370.052, 103, 0, 4183.077, 4219.487, 4105.128, 4128.205, 4255.897, 16230, 0, []
1628706370.06, 104, 0, 4187.179, 4214.872, 4088.718, 4129.231, 4248.205, 450, 0, []
1628706370.0679, 105, 0, 4176.923, 4198.462, 4070.769, 4119.487, 4228.205, 450, 0, []
1628706370.0759, 106, 0, 4168.205, 4197.949, 4069.744, 4115.385, 4212.821, 450, 0, []
1628706370.0837, 107, 0, 4171.282, 4208.205, 4071.795, 4110.256, 4215.897, 16230, 0, []
1628706370.0917, 108, 0, 4168.718, 4204.615, 4069.231, 4102.564, 4217.949, 450, 0, []
1628706370.0996, 109, 0, 4160, 4197.949, 4063.077, 4101.538, 4211.795, 450, 0, []
1628706370.1076, 110, 0, 4163.077, 4202.051, 4055.897, 4114.359, 4216.41, 450, 0, []
1628706370.1155, 111, 0, 4170.256, 4202.564, 4049.744, 4125.128, 4215.385, 16230, 0, []
1628706370.1234, 112, 0, 4171.795, 4204.615, 4056.923, 4120.513, 4203.59, 450, 0, []
1628706370.1314, 113, 0, 4173.333, 4216.41, 4081.026, 4124.615, 4207.692, 450, 0, []
1628706370.1393, 114, 0, 4170.769, 4222.564, 4092.308, 4145.641, 4225.128, 450, 0, []
1628706370.1473, 115, 0, 4152.308, 4212.308, 4073.333, 4140, 4217.949, 16230, 0, []
1628706370.1552, 116, 0, 4131.795, 4195.897, 4046.667, 4112.821, 4184.615, 450, 0, []
1628706370.1631, 117, 0, 4131.282, 4190.769, 4048.718, 4114.359, 4171.795, 450, 0, []
1628706370.171, 118, 0, 4140, 4202.051, 4071.795, 4136.923, 4191.795, 450, 0, []
1628706370.179, 119, 0, 4145.641, 4216.41, 4085.641, 4147.179, 4206.154, 16230, 0, []
1628706370.1869, 120, 0, 4138.462, 4216.923, 4078.462, 4147.179, 4188.718, 450, 0, []
1628706370.1949, 121, 0, 4120.513, 4205.641, 4060.513, 4138.462, 4165.128, 450, 0, []
1628706370.2027, 122, 0, 4110.769, 4198.462, 4048.718, 4125.641, 4161.538, 450, 0, []
1628706370.2107, 123, 0, 4113.846, 4202.564, 4050.256, 4122.051, 4169.744, 16230, 0, []
1628706370.2186, 124, 0, 4111.795, 4204.615, 4052.821, 4113.846, 4166.667, 450, 0, []
1628706370.2266, 125, 0, 4100, 4201.026, 4044.103, 4096.41, 4150.256, 450, 0, []
1628706370.2345, 126, 0, 4112.821, 4218.974, 4055.385, 4122.051, 4160, 450, 0, []
1628706370.2424, 127, 0, 4135.385, 4244.615, 4087.692, 4170.256, 4190.769, 16230, 0, []
1628706370.2503, 128, 0, 4126.154, 4239.487, 4096.41, 4172.308, 4194.359, 450, 0, []
1628706370.2583, 0, 0, 4100.513, 4217.949, 4077.949, 4144.615, 4165.128, 450, 0, []
1628706370.2662, 1, 0, 4100, 4216.923, 4070.256, 4142.051, 4148.718, 450, 0, []
1628706370.2741, 2, 0, 4118.974, 4227.179, 4078.462, 4142.051, 4163.077, 16165, 0, []
1628706370.282, 3, 0, 4120, 4231.282, 4079.487, 4126.154, 4170.769, 450, 0, []
1628706370.2899, 4, 0, 4107.692, 4228.718, 4074.872, 4125.641, 4161.026, 16187, 0, []
1628706370.2979, 5, 0, 4105.128, 4220, 4076.923, 4144.103, 4150.256, 450, 0, []
1628706370.3058, 6, 0, 4098.462, 4204.103, 4073.846, 4142.051, 4140.513, 16171, 0, []
1628706370.3138, 7, 0, 4081.026, 4192.308, 4067.179, 4122.564, 4131.282, 450, 0, []
1628706370.3216, 8, 0, 4075.385, 4183.59, 4066.154, 4122.051, 4131.282, 450, 0, []
1628706370.3296, 9, 0, 4076.923, 4172.308, 4057.436, 4127.692, 4121.026, 16165, 0, []
1628706370.3375, 10, 0, 4070.256, 4166.667, 4048.718, 4116.41, 4102.564, 450, 0, []
1628706370.3455, 11, 0, 4078.462, 4168.718, 4057.436, 4111.795, 4107.179, 16210, 0, []
1628706370.3534, 12, 0, 4102.564, 4176.923, 4067.692, 4126.667, 4129.231, 450, 0, []
1628706370.3613, 13, 0, 4112.821, 4187.179, 4067.179, 4143.59, 4141.538, 450, 0, []
1628706370.3692, 14, 0, 4098.974, 4181.026, 4061.026, 4139.487, 4126.154, 450, 0, []
1628706370.3772, 15, 0, 4090.256, 4168.718, 4064.103, 4129.744, 4113.846, 16210, 0, []
1628706370.3851, 16, 0, 4091.282, 4171.282, 4075.897, 4135.385, 4121.538, 0, 0, []
1628706370.3931, 17, 0, 4072.821, 4171.795, 4074.359, 4135.385, 4104.615, 0, 0, []
1628706370.4009, 18, 0, 4064.103, 4160, 4057.949, 4109.231, 4073.846, 0, 0, []
1628706370.4089, 19, 0, 4097.436, 4156.923, 4055.385, 4089.744, 4087.179, 0, 0, []
1628706370.4168, 20, 0, 4133.333, 4158.462, 4058.462, 4095.897, 4122.051, 0, 0, []
1628706370.4246, 21, 0, 4135.897, 4148.205, 4034.359, 4093.846, 4115.385, 0, 0, []
1628706370.4325, 22, 0, 4135.897, 4148.205, 4020.513, 4090.769, 4102.564, 0, 0, []
1628706370.4402, 23, 0, 4145.641, 4168.718, 4046.154, 4113.333, 4125.641, 0, 0, []
1628706370.4482, 24, 0, 4144.103, 4174.872, 4068.718, 4132.308, 4148.205, 0, 0, []
1628706370.4561, 25, 0, 4125.128, 4154.359, 4052.821, 4111.795, 4127.179, 0, 0, []
1628706370.4641, 26, 0, 4113.333, 4149.231, 4044.103, 4096.923, 4103.077, 0, 0, []
1628706370.472, 27, 0, 4128.718, 4169.744, 4066.667, 4122.051, 4118.974, 0, 0, []
1628706370.4799, 28, 0, 4141.538, 4175.385, 4067.179, 4129.744, 4129.231, 0, 0, []
1628706370.4878, 29, 0, 4137.949, 4162.564, 4054.872, 4113.846, 4115.385, 0, 0, []
1628706370.4958, 30, 0, 4136.923, 4158.462, 4075.897, 4128.205, 4122.564, 0, 0, []
1628706370.5037, 31, 0, 4130.256, 4149.744, 4081.026, 4140.513, 4128.205, 0, 0, []
1628706370.5117, 32, 0, 4126.154, 4132.821, 4052.308, 4118.974, 4109.744, 0, 0, []
1628706370.5195, 33, 0, 4134.359, 4140, 4052.308, 4108.205, 4105.641, 0, 0, []
1628706370.5274, 34, 0, 4121.026, 4154.359, 4060, 4109.231, 4105.128, 0, 0, []
1628706370.5354, 35, 0, 4101.026, 4152.308, 4041.538, 4108.205, 4093.333, 0, 0, []
1628706370.5434, 36, 0, 4127.692, 4155.385, 4030.256, 4131.282, 4101.026, 0, 0, []
1628706370.5513, 37, 0, 4148.718, 4157.436, 4027.179, 4142.564, 4109.231, 0, 0, []
1628706370.5592, 38, 0, 4111.282, 4141.026, 4017.436, 4113.846, 4091.282, 0, 0, []
1628706370.5671, 39, 0, 4090.769, 4131.282, 4021.026, 4105.128, 4084.615, 0, 0, []
1628706370.5749, 40, 0, 4120, 4145.641, 4030.256, 4125.128, 4096.923, 0, 0, []
1628706370.5828, 41, 0, 4126.154, 4159.487, 4026.154, 4119.487, 4091.795, 0, 0, []
1628706370.5906, 42, 0, 4107.179, 4152.821, 4025.641, 4101.538, 4087.692, 0, 0, []
1628706370.5985, 43, 0, 4108.205, 4140.513, 4029.744, 4110.769, 4095.385, 0, 0, []
1628706370.6064, 44, 0, 4114.872, 4138.974, 4029.231, 4121.538, 4085.128, 0, 0, []
1628706370.6144, 45, 0, 4125.128, 4156.41, 4043.59, 4114.359, 4076.41, 0, 0, []
1628706370.6223, 46, 0, 4143.077, 4174.872, 4065.128, 4107.179, 4098.974, 0, 0, []
1628706370.6303, 47, 0, 4131.282, 4163.59, 4052.821, 4097.436, 4106.667, 0, 0, []
1628706370.6381, 48, 0, 4090.256, 4135.897, 4017.949, 4078.462, 4064.615, 0, 0, []
1628706370.6461, 49, 0, 4087.692, 4142.051, 4009.744, 4084.103, 4037.436, 0, 0, []
1628706370.654, 50, 0, 4115.897, 4164.103, 4022.564, 4107.692, 4057.949, 0, 0, []
1628706370.662, 51, 0, 4115.385, 4148.205, 4027.692, 4109.744, 4073.333, 0, 0, []
1628706370.6699, 52, 0, 4104.103, 4136.923, 4024.103, 4103.077, 4060, 0, 0, []
1628706370.6779, 53, 0, 4111.282, 4155.385, 4013.333, 4102.051, 4040.513, 0, 0, []
1628706370.6857, 54, 0, 4111.795, 4156.41, 3997.949, 4093.333, 4027.179, 0, 0, []
1628706370.6937, 55, 0, 4117.436, 4150.769, 4000, 4085.641, 4025.128, 0, 0, []
1628706370.7016, 56, 0, 4134.872, 4151.282, 4016.923, 4093.333, 4035.385, 0, 0, []
1628706370.7094, 57, 0, 4139.487, 4140.513, 4024.615, 4112.308, 4044.103, 0, 0, []
1628706370.7173, 58, 0, 4144.615, 4137.949, 4022.051, 4134.359, 4046.667, 0, 0, []
1628706370.725, 59, 0, 4144.615, 4150.256, 4004.615, 4133.333, 4038.974, 0, 0, []
1628706370.7329, 60, 0, 4128.718, 4162.564, 3990.769, 4114.359, 4028.718, 0, 0, []
1628706370.7407, 61, 0, 4121.538, 4160, 3995.897, 4105.128, 4027.179, 0, 0, []
1628706370.7487, 62, 0, 4130.256, 4152.821, 4006.667, 4108.718, 4028.718, 0, 0, []
1628706370.7566, 63, 0, 4144.615, 4163.077, 4016.923, 4113.846, 4032.308, 0, 0, []
1628706370.7645, 64, 0, 4175.897, 4176.923, 4023.077, 4122.564, 4041.538, 450, 0, []
1628706370.7724, 65, 0, 4173.333, 4168.718, 4007.692, 4131.795, 4035.897, 450, 0, []
1628706370.7804, 66, 0, 4150.256, 4168.205, 3993.846, 4138.462, 4030.256, 16188, 0, []
1628706370.7883, 67, 0, 4174.359, 4196.41, 4000.513, 4142.564, 4041.538, 450, 0, []
1628706370.7963, 68, 0, 4183.077, 4197.949, 3994.359, 4130.256, 4030.769, 16181, 0, []
1628706370.8041, 69, 0, 4153.846, 4170.256, 3977.949, 4110.256, 3999.487, 450, 0, []
1628706370.8121, 70, 0, 4144.103, 4168.205, 3977.949, 4098.974, 3988.718, 16171, 0, []
1628706370.82, 71, 0, 4148.205, 4186.667, 3987.179, 4111.282, 4000.513, 450, 0, []
1628706370.828, 72, 0, 4150.769, 4185.641, 3992.821, 4147.179, 4015.385, 450, 0, []
1628706370.8359, 73, 0, 4182.051, 4188.718, 4005.641, 4175.897, 4027.179, 16181, 0, []
1628706370.8438, 74, 0, 4212.821, 4201.026, 4016.923, 4170.769, 4027.692, 450, 0, []
1628706370.8517, 75, 0, 4201.538, 4197.949, 4013.846, 4145.641, 4025.128, 16208, 0, []
1628706370.8595, 76, 0, 4186.667, 4220.513, 4016.41, 4132.308, 4028.205, 450, 0, []
1628706370.8674, 77, 0, 4181.538, 4233.846, 4018.974, 4127.179, 4017.949, 450, 0, []
1628706370.8752, 78, 0, 4190.769, 4201.026, 4013.333, 4122.564, 4008.205, 450, 0, []
1628706370.883, 79, 0, 4183.077, 4190.769, 4000.513, 4117.436, 4006.667, 16208, 0, []
1628706370.8908, 80, 0, 4158.462, 4206.154, 4002.051, 4122.564, 4013.846, 450, 0, []
1628706370.8987, 81, 0, 4167.692, 4187.179, 4029.744, 4138.974, 4032.308, 450, 0, []
1628706370.9065, 82, 0, 4183.59, 4158.974, 4024.615, 4141.026, 4030.769, 450, 0, []
1628706370.9145, 83, 0, 4183.077, 4168.205, 3965.128, 4125.641, 4015.385, 16208, 0, []
1628706370.9223, 84, 0, 4170.256, 4183.59, 3913.333, 4118.974, 4014.872, 450, 0, []
1628706370.9303, 85, 0, 4182.051, 4181.538, 3918.462, 4137.949, 4035.897, 450, 0, []
1628706370.9382, 86, 0, 4223.077, 4172.821, 3935.385, 4145.128, 4056.923, 450, 0, []
1628706370.9462, 87, 0, 4216.923, 4165.128, 3924.615, 4124.615, 4051.282, 16208, 0, []
1628706370.9541, 88, 0, 4164.615, 4154.359, 3918.974, 4115.385, 4034.359, 450, 0, []
1628706370.962, 89, 0, 4154.359, 4137.949, 3924.103, 4127.692, 4036.41, 450, 0, []
1628706370.9699, 90, 0, 4180.513, 4133.333, 3906.154, 4109.744, 4029.231, 450, 0, []
1628706370.9779, 91, 0, 4160.513, 4131.282, 3871.795, 4065.641, 3988.718, 16208, 0, []
1628706370.9858, 92, 0, 4136.41, 4133.846, 3873.846, 4074.872, 3978.974, 450, 0, []
1628706370.9938, 93, 0, 4132.821, 4134.359, 3882.051, 4110.256, 3990.769, 450, 0, []
1628706371.0016, 94, 0, 4128.205, 4120.513, 3865.641, 4114.359, 3984.103, 450, 0, []
1628706371.0094, 95, 0, 4158.462, 4122.564, 3878.462, 4125.641, 4008.718, 16208, 0, []
1628706371.0173, 96, 0, 4174.359, 4127.692, 3898.974, 4138.462, 4029.744, 450, 0, []
1628706371.0251, 97, 0, 4152.308, 4120.513, 3894.872, 4121.538, 4007.692, 450, 0, []
1628706371.033, 98, 0, 4158.462, 4130.769, 3903.59, 4120, 4011.282, 450, 0, []
1628706371.0407, 99, 0, 4188.718, 4144.103, 3920.513, 4143.077, 4040.513, 16208, 0, []
1628706371.0486, 100, 0, 4192.308, 4136.923, 3908.718, 4145.128, 4037.949, 450, 0, []
1628706371.0564, 101, 0, 4171.795, 4132.308, 3900, 4130.769, 4025.128, 450, 0, []
1628706371.0644, 102, 0, 4166.154, 4135.897, 3917.436, 4130.769, 4034.359, 450, 0, []
1628706371.0723, 103, 0, 4178.974, 4133.846, 3926.667, 4147.179, 4045.128, 16208, 0, []
1628706371.0802, 104, 0, 4191.795, 4126.154, 3916.41, 4156.41, 4049.231, 450, 0, []
1628706371.0881, 105, 0, 4184.615, 4119.487, 3905.641, 4134.359, 4038.462, 450, 0, []
1628706371.0961, 106, 0, 4181.538, 4126.667, 3916.923, 4119.487, 4028.205, 450, 0, []
1628706371.104, 107, 0, 4193.846, 4138.462, 3929.744, 4128.205, 4037.949, 16208, 0, []
1628706371.112, 108, 0, 4176.41, 4135.385, 3914.872, 4115.897, 4029.231, 450, 0, []
1628706371.1198, 109, 0, 4149.231, 4129.744, 3906.667, 4102.051, 4004.615, 450, 0, []
1628706371.1278, 110, 0, 4159.487, 4137.436, 3923.59, 4120.513, 4007.179, 450, 0, []
1628706371.1357, 111, 0, 4174.872, 4137.436, 3927.692, 4126.667, 4018.462, 16208, 0, []
1628706371.1437, 112, 0, 4175.385, 4133.333, 3916.923, 4111.282, 4022.051, 450, 0, []
1628706371.1516, 113, 0, 4183.59, 4147.692, 3922.051, 4115.385, 4039.487, 450, 0, []
1628706371.1593, 114, 0, 4191.282, 4154.359, 3929.231, 4128.718, 4049.744, 450, 0, []
1628706371.1672, 115, 0, 4180, 4142.564, 3921.538, 4134.359, 4027.692, 16208, 0, []
1628706371.175, 116, 0, 4181.026, 4148.718, 3923.59, 4145.641, 4020.513, 450, 0, []
1628706371.1829, 117, 0, 4192.821, 4162.051, 3931.282, 4148.205, 4040.513, 450, 0, []
1628706371.1907, 118, 0, 4170.769, 4145.641, 3927.692, 4133.846, 4034.872, 450, 0, []
1628706371.1985, 119, 0, 4145.128, 4124.103, 3926.154, 4130.256, 4022.051, 16208, 0, []
1628706371.2063, 120, 0, 4163.59, 4126.667, 3926.667, 4137.949, 4034.359, 450, 0, []
1628706371.2142, 121, 0, 4175.385, 4127.692, 3917.436, 4139.487, 4029.231, 450, 0, []
1628706371.222, 122, 0, 4150.256, 4118.974, 3903.077, 4121.538, 4000, 450, 0, []
1628706371.23, 123, 0, 4142.051, 4117.436, 3904.615, 4098.462, 4000, 16208, 0, []
1628706371.2378, 124, 0, 4155.385, 4124.615, 3919.487, 4106.667, 4017.949, 450, 0, []
1628706371.2458, 125, 0, 4153.333, 4125.128, 3922.051, 4134.359, 4010.769, 450, 0, []
1628706371.2537, 126, 0, 4146.154, 4123.59, 3904.615, 4140.513, 3996.923, 450, 0, []
1628706371.2617, 127, 0, 4138.974, 4129.744, 3890.769, 4121.538, 3989.231, 16208, 0, []
1628706371.2696, 128, 0, 4134.359, 4135.385, 3900.513, 4110.769, 3984.615, 450, 0, []
1628706371.2775, 0, 0, 4151.795, 4128.205, 3913.333, 4112.308, 3997.436, 450, 0, []
1628706371.2854, 1, 0, 4167.692, 4117.436, 3910.256, 4106.667, 4010.256, 450, 0, []
1628706371.2934, 2, 0, 4177.436, 4126.154, 3915.385, 4115.385, 4021.538, 16193, 0, []
1628706371.3013, 3, 0, 4176.41, 4140, 3930.769, 4134.872, 4028.205, 450, 0, []
1628706371.3091, 4, 0, 4148.718, 4132.308, 3930.256, 4132.821, 4011.282, 16182, 0, []
1628706371.3169, 5, 0, 4146.154, 4131.795, 3931.282, 4127.692, 4007.692, 450, 0, []
1628706371.3247, 6, 0, 4171.282, 4156.41, 3951.795, 4137.436, 4019.487, 16171, 0, []
1628706371.3326, 7, 0, 4175.385, 4175.897, 3958.462, 4130.769, 4011.795, 450, 0, []
1628706371.3404, 8, 0, 4175.897, 4168.718, 3945.128, 4115.897, 4016.923, 450, 0, []
1628706371.3483, 9, 0, 4180, 4149.231, 3941.538, 4123.077, 4034.359, 16181, 0, []
1628706371.356, 10, 0, 4155.897, 4141.026, 3946.154, 4136.923, 4015.385, 450, 0, []
1628706371.3639, 11, 0, 4143.077, 4149.231, 3936.923, 4148.205, 3990.769, 16207, 0, []
1628706371.3717, 12, 0, 4168.718, 4162.564, 3931.795, 4155.385, 4005.641, 450, 0, []
1628706371.3797, 13, 0, 4176.923, 4169.231, 3948.718, 4147.179, 4024.615, 450, 0, []
1628706371.3876, 14, 0, 4165.128, 4166.667, 3962.051, 4135.385, 4032.821, 450, 0, []
1628706371.3955, 15, 0, 4173.333, 4167.692, 3968.718, 4139.487, 4052.308, 16207, 0, []
1628706371.4034, 16, 0, 4189.231, 4179.487, 3974.359, 4147.692, 4062.564, 0, 0, []
1628706371.4114, 17, 0, 4184.615, 4184.103, 3971.795, 4145.128, 4050.769, 0, 0, []
1628706371.4193, 18, 0, 4170.769, 4170.769, 3967.692, 4139.487, 4040, 0, 0, []
1628706371.4273, 19, 0, 4169.744, 4167.179, 3971.795, 4139.487, 4043.59, 0, 0, []
1628706371.4351, 20, 0, 4172.821, 4174.359, 3974.359, 4137.949, 4040.513, 0, 0, []
1628706371.4431, 21, 0, 4171.795, 4169.744, 3967.692, 4134.359, 4035.897, 0, 0, []
1628706371.451, 22, 0, 4182.051, 4167.179, 3966.667, 4138.974, 4049.744, 0, 0, []
1628706371.459, 23, 0, 4191.282, 4174.872, 3976.923, 4136.41, 4052.308, 0, 0, []
1628706371.4669, 24, 0, 4177.436, 4169.744, 3981.026, 4112.821, 4037.436, 0, 0, []
1628706371.4747, 25, 0, 4156.41, 4156.41, 3976.41, 4097.949, 4031.282, 0, 0, []
1628706371.4825, 26, 0, 4150.769, 4156.923, 3980, 4107.692, 4032.821, 0, 0, []
1628706371.4903, 27, 0, 4160, 4168.205, 3985.128, 4113.333, 4031.795, 0, 0, []
1628706371.4982, 28, 0, 4168.718, 4178.462, 3980, 4107.692, 4032.308, 0, 0, []
1628706371.506, 29, 0, 4165.641, 4186.154, 3981.538, 4115.897, 4041.538, 0, 0, []
1628706371.5139, 30, 0, 4157.436, 4184.103, 3989.744, 4126.154, 4045.128, 0, 0, []
1628706371.5216, 31, 0, 4165.641, 4180, 3989.744, 4124.103, 4049.744, 0, 0, []
1628706371.5295, 32, 0, 4184.103, 4191.282, 3986.667, 4124.103, 4064.615, 0, 0, []
1628706371.5374, 33, 0, 4183.077, 4204.103, 3986.667, 4128.205, 4066.667, 0, 0, []
1628706371.5454, 34, 0, 4166.667, 4198.974, 3986.154, 4123.59, 4053.846, 0, 0, []
1628706371.5534, 35, 0, 4155.385, 4184.615, 3981.538, 4113.333, 4048.205, 0, 0, []
1628706371.5612, 36, 0, 4154.872, 4185.128, 3980, 4117.949, 4054.359, 0, 0, []
1628706371.5691, 37, 0, 4165.128, 4205.128, 3994.359, 4137.436, 4056.41, 0, 0, []
1628706371.5771, 38, 0, 4178.974, 4224.103, 4006.154, 4149.744, 4062.564, 0, 0, []
1628706371.585, 39, 0, 4187.692, 4229.231, 4003.077, 4138.462, 4077.949, 0, 0, []
1628706371.593, 40, 0, 4189.744, 4224.615, 3998.462, 4119.487, 4083.077, 0, 0, []
1628706371.6008, 41, 0, 4182.564, 4217.436, 3994.872, 4116.923, 4077.436, 0, 0, []
1628706371.6088, 42, 0, 4172.821, 4215.385, 3987.179, 4124.103, 4072.308, 0, 0, []
1628706371.6167, 43, 0, 4168.718, 4217.949, 3984.103, 4126.154, 4062.564, 0, 0, []
1628706371.6245, 44, 0, 4161.538, 4214.359, 3986.154, 4121.538, 4046.667, 0, 0, []
1628706371.6324, 45, 0, 4154.359, 4210.256, 3992.308, 4124.103, 4047.179, 0, 0, []
1628706371.6401, 46, 0, 4154.872, 4207.692, 3997.949, 4132.821, 4061.538, 0, 0, []
1628706371.648, 47, 0, 4152.821, 4203.077, 3989.231, 4133.333, 4058.462, 0, 0, []
1628706371.6558, 48, 0, 4150.256, 4196.923, 3971.282, 4122.051, 4047.692, 0, 0, []
1628706371.6637, 49, 0, 4157.949, 4193.333, 3970.256, 4102.564, 4053.846, 0, 0, []
1628706371.6715, 50, 0, 4157.436, 4184.103, 3982.051, 4084.103, 4061.026, 0, 0, []
1628706371.6793, 51, 0, 4151.795, 4168.205, 3984.103, 4087.692, 4061.538, 0, 0, []
1628706371.6871, 52, 0, 4169.744, 4171.282, 3984.615, 4123.077, 4085.641, 0, 0, []
1628706371.6951, 53, 0, 4193.333, 4186.667, 3990.256, 4152.308, 4113.333, 0, 0, []
1628706371.703, 54, 0, 4187.692, 4183.077, 3996.923, 4145.641, 4101.538, 0, 0, []
1628706371.711, 55, 0, 4168.205, 4175.385, 4001.538, 4129.231, 4079.487, 0, 0, []
1628706371.7188, 56, 0, 4165.128, 4181.026, 3998.462, 4116.923, 4078.974, 0, 0, []
1628706371.7268, 57, 0, 4171.795, 4178.462, 3990.769, 4111.282, 4083.59, 0, 0, []
1628706371.7347, 58, 0, 4172.308, 4165.641, 3986.667, 4115.385, 4081.538, 0, 0, []
1628706371.7427, 59, 0, 4166.154, 4162.051, 3984.615, 4120.513, 4076.41, 0, 0, []
1628706371.7506, 60, 0, 4173.846, 4175.897, 3987.692, 4129.744, 4081.026, 0, 0, []
1628706371.7585, 61, 0, 4189.231, 4196.41, 4003.077, 4135.897, 4091.282, 0, 0, []
1628706371.7664, 62, 0, 4180.513, 4197.949, 4015.897, 4128.205, 4083.077, 0, 0, []
1628706371.7742, 63, 0, 4169.231, 4190.256, 4017.436, 4117.949, 4063.59, 0, 0, []
1628706371.7821, 64, 0, 4181.026, 4205.128, 4016.923, 4120.513, 4058.462, 450, 0, []
1628706371.7899, 65, 0, 4189.744, 4221.538, 4011.795, 4123.077, 4066.154, 450, 0, []
1628706371.7977, 66, 0, 4190.769, 4217.949, 4015.385, 4121.538, 4080, 16193, 0, []
1628706371.8055, 67, 0, 4198.462, 4220.513, 4027.692, 4132.821, 4092.821, 450, 0, []
1628706371.8134, 68, 0, 4193.333, 4219.487, 4018.462, 4136.41, 4091.795, 16182, 0, []
1628706371.8212, 69, 0, 4182.564, 4203.59, 4001.026, 4123.59, 4090.769, 450, 0, []
1628706371.8292, 70, 0, 4188.718, 4198.974, 4008.205, 4121.026, 4089.744, 16172, 0, []
1628706371.837, 71, 0, 4191.282, 4206.154, 4016.41, 4125.641, 4069.744, 450, 0, []
1628706371.845, 72, 0, 4189.231, 4201.538, 4002.564, 4115.897, 4055.385, 450, 0, []
1628706371.8529, 73, 0, 4197.436, 4197.436, 3997.436, 4105.641, 4071.282, 16190, 0, []
1628706371.8609, 74, 0, 4209.231, 4212.821, 4014.359, 4116.923, 4101.026, 450, 0, []
1628706371.8688, 75, 0, 4219.487, 4221.026, 4024.103, 4131.282, 4120, 16207, 0, []
1628706371.8767, 76, 0, 4224.103, 4207.692, 4014.359, 4130.256, 4118.974, 450, 0, []
1628706371.8846, 77, 0, 4208.718, 4203.077, 4004.103, 4119.487, 4097.949, 450, 0, []
1628706371.8926, 78, 0, 4202.051, 4214.359, 4012.308, 4123.59, 4089.231, 450, 0, []
1628706371.9005, 79, 0, 4226.154, 4216.41, 4025.641, 4141.538, 4103.59, 16207, 0, []
1628706371.9085, 80, 0, 4234.359, 4207.692, 4027.179, 4138.462, 4112.308, 450, 0, []
1628706371.9163, 81, 0, 4221.026, 4208.718, 4035.385, 4126.154, 4113.333, 450, 0, []
1628706371.9241, 82, 0, 4222.051, 4201.538, 4035.897, 4132.308, 4117.949, 450, 0, []
1628706371.932, 83, 0, 4234.872, 4186.667, 4021.026, 4143.59, 4125.128, 16207, 0, []
1628706371.9398, 84, 0, 4236.923, 4190.256, 4024.615, 4146.154, 4124.615, 450, 0, []
1628706371.9477, 85, 0, 4232.308, 4199.487, 4039.487, 4144.615, 4110.256, 450, 0, []
1628706371.9554, 86, 0, 4228.718, 4196.923, 4033.846, 4139.487, 4095.385, 450, 0, []
1628706371.9633, 87, 0, 4227.179, 4193.846, 4026.667, 4138.462, 4095.385, 16207, 0, []
1628706371.9711, 88, 0, 4222.051, 4193.333, 4038.462, 4144.615, 4095.897, 450, 0, []
1628706371.9791, 89, 0, 4203.59, 4187.692, 4037.949, 4135.385, 4081.026, 450, 0, []
1628706371.987, 90, 0, 4191.282, 4180, 4026.154, 4119.487, 4070.256, 450, 0, []
1628706371.9949, 91, 0, 4194.359, 4169.744, 4027.692, 4127.692, 4076.41, 16207, 0, []
1628706372.0028, 92, 0, 4198.462, 4163.077, 4027.692, 4142.051, 4080.513, 450, 0, []
1628706372.0108, 93, 0, 4195.385, 4167.692, 4015.385, 4137.949, 4074.872, 450, 0, []
1628706372.0187, 94, 0, 4196.41, 4169.231, 4012.308, 4133.846, 4075.385, 450, 0, []
1628706372.0267, 95, 0, 4206.667, 4174.872, 4031.282, 4144.615, 4087.692, 16207, 0, []
1628706372.0345, 96, 0, 4208.205, 4186.667, 4047.692, 4150.256, 4094.359, 450, 0, []
1628706372.0425, 97, 0, 4198.974, 4181.538, 4051.282, 4152.308, 4088.205, 450, 0, []
1628706372.0504, 98, 0, 4197.949, 4169.744, 4048.718, 4154.872, 4083.077, 450, 0, []
1628706372.0584, 99, 0, 4200, 4172.821, 4037.436, 4143.077, 4078.462, 16207, 0, []
1628706372.0663, 100, 0, 4204.615, 4187.692, 4035.897, 4133.333, 4078.462, 450, 0, []
1628706372.074, 101, 0, 4216.41, 4204.615, 4059.487, 4137.436, 4092.308, 450, 0, []
1628706372.0819, 102, 0, 4220.513, 4216.923, 4078.974, 4149.744, 4113.333, 450, 0, []
1628706372.0897, 103, 0, 4218.974, 4219.487, 4071.795, 4163.077, 4123.077, 16207, 0, []
1628706372.0976, 104, 0, 4220.513, 4215.385, 4057.949, 4166.154, 4115.385, 450, 0, []
1628706372.1054, 105, 0, 4216.41, 4211.282, 4061.026, 4155.897, 4106.154, 450, 0, []
1628706372.1132, 106, 0, 4218.462, 4215.897, 4074.359, 4149.231, 4115.385, 450, 0, []
1628706372.121, 107, 0, 4230.256, 4228.205, 4078.974, 4151.795, 4124.615, 16207, 0, []
1628706372.129, 108, 0, 4218.974, 4228.718, 4074.872, 4152.308, 4110.256, 450, 0, []
1628706372.1369, 109, 0, 4198.462, 4215.897, 4072.821, 4151.795, 4098.462, 450, 0, []
1628706372.1449, 110, 0, 4199.487, 4208.718, 4069.744, 4153.846, 4103.59, 450, 0, []
1628706372.1527, 111, 0, 4201.026, 4202.051, 4055.385, 4153.333, 4105.128, 16207, 0, []
1628706372.1607, 112, 0, 4195.897, 4184.103, 4044.615, 4144.103, 4099.487, 450, 0, []
1628706372.1686, 113, 0, 4206.154, 4178.974, 4054.872, 4135.897, 4103.077, 450, 0, []
1628706372.1766, 114, 0, 4211.282, 4192.821, 4072.308, 4146.667, 4103.077, 450, 0, []
1628706372.1845, 115, 0, 4192.821, 4190.769, 4074.872, 4153.333, 4095.897, 16207, 0, []
1628706372.1924, 116, 0, 4177.949, 4171.795, 4060.513, 4141.026, 4098.974, 450, 0, []
1628706372.2003, 117, 0, 4180, 4164.615, 4047.179, 4138.974, 4106.667, 450, 0, []
1628706372.2083, 118, 0, 4192.308, 4168.205, 4049.231, 4152.821, 4112.308, 450, 0, []
1628706372.2162, 119, 0, 4202.051, 4169.231, 4067.179, 4155.897, 4115.385, 16207, 0, []
1628706372.224, 120, 0, 4202.564, 4177.436, 4086.154, 4153.846, 4121.538, 450, 0, []
1628706372.2319, 121, 0, 4198.974, 4187.692, 4091.282, 4155.385, 4125.641, 450, 0, []
1628706372.2396, 122, 0, 4186.154, 4179.487, 4080, 4141.538, 4116.923, 450, 0, []
1628706372.2475, 123, 0, 4167.692, 4162.564, 4066.154, 4122.051, 4103.59, 16207, 0, []
1628706372.2553, 124, 0, 4165.641, 4156.923, 4061.026, 4116.923, 4107.179, 450, 0, []
1628706372.2632, 125, 0, 4184.615, 4165.128, 4068.718, 4128.205, 4123.077, 450, 0, []
1628706372.271, 126, 0, 4203.59, 4172.308, 4084.103, 4150.256, 4135.897, 450, 0, []
1628706372.2788, 127, 0, 4202.051, 4173.333, 4094.359, 4154.872, 4140.513, 16207, 0, []
1628706372.2866, 128, 0, 4186.154, 4176.923, 4087.692, 4130.256, 4133.846, 450, 0, []
1628706372.2946, 0, 0, 4180.513, 4182.051, 4080, 4112.308, 4124.103, 450, 0, []
1628706372.3025, 1, 0, 4182.051, 4185.641, 4085.641, 4120, 4118.462, 450, 0, []
1628706372.3105, 2, 0, 4175.897, 4189.231, 4087.692, 4125.641, 4110.256, 16189, 0, []
1628706372.3183, 3, 0, 4173.846, 4185.641, 4081.538, 4119.487, 4106.154, 450, 0, []
1628706372.3263, 4, 0, 4181.026, 4183.59, 4082.051, 4123.59, 4120.513, 16182, 0, []
1628706372.3342, 5, 0, 4190.769, 4192.821, 4090.256, 4136.923, 4136.923, 450, 0, []
1628706372.3422, 6, 0, 4184.103, 4194.359, 4095.897, 4139.487, 4129.744, 16172, 0, []
1628706372.3501, 7, 0, 4166.667, 4191.282, 4088.205, 4124.615, 4107.179, 450, 0, []
1628706372.358, 8, 0, 4185.128, 4197.436, 4071.795, 4105.641, 4102.051, 450, 0, []
1628706372.3659, 9, 0, 4230.769, 4193.333, 4075.897, 4101.538, 4118.462, 16192, 0, []
1628706372.3738, 10, 0, 4241.538, 4181.026, 4095.897, 4113.333, 4127.179, 450, 0, []
1628706372.3817, 11, 0, 4219.487, 4181.538, 4095.385, 4122.564, 4120, 16209, 0, []
1628706372.3895, 12, 0, 4211.795, 4186.154, 4085.128, 4126.154, 4118.974, 450, 0, []
1628706372.3973, 13, 0, 4218.974, 4184.615, 4090.769, 4130.769, 4123.077, 450, 0, []
1628706372.4051, 14, 0, 4218.462, 4182.051, 4088.205, 4122.564, 4116.923, 450, 0, []
1628706372.413, 15, 0, 4218.462, 4184.103, 4076.923, 4113.846, 4111.282, 16209, 0, []
1628706372.4208, 16, 0, 4224.615, 4193.846, 4084.103, 4119.487, 4117.436, 0, 0, []
1628706372.4287, 17, 0, 4225.128, 4200, 4102.051, 4119.487, 4117.949, 0, 0, []
1628706372.4364, 18, 0, 4224.103, 4200, 4107.179, 4117.436, 4116.41, 0, 0, []
1628706372.4444, 19, 0, 4226.667, 4196.923, 4101.026, 4122.564, 4114.359, 0, 0, []
1628706372.4523, 20, 0, 4217.949, 4185.641, 4088.718, 4112.821, 4096.41, 0, 0, []
1628706372.4603, 21, 0, 4209.744, 4182.564, 4084.615, 4102.564, 4082.564, 0, 0, []
1628706372.4682, 22, 0, 4218.974, 4195.385, 4089.231, 4113.333, 4089.744, 0, 0, []
1628706372.4761, 23, 0, 4216.41, 4193.333, 4081.538, 4116.41, 4096.41, 0, 0, []
1628706372.484, 24, 0, 4197.949, 4171.282, 4065.128, 4104.103, 4088.718, 0, 0, []
1628706372.492, 25, 0, 4193.333, 4164.103, 4059.487, 4106.154, 4082.051, 0, 0, []
1628706372.4999, 26, 0, 4198.974, 4180, 4066.154, 4121.538, 4083.59, 0, 0, []
1628706372.5079, 27, 0, 4204.615, 4196.923, 4073.846, 4130.769, 4090.256, 0, 0, []
1628706372.5157, 28, 0, 4202.564, 4200, 4076.41, 4125.128, 4091.795, 0, 0, []
1628706372.5236, 29, 0, 4191.795, 4201.538, 4075.385, 4118.462, 4087.692, 0, 0, []
1628706372.5315, 30, 0, 4188.718, 4200, 4077.949, 4122.564, 4088.718, 0, 0, []
1628706372.5393, 31, 0, 4197.949, 4187.179, 4074.872, 4123.59, 4091.282, 0, 0, []
1628706372.5472, 32, 0, 4202.051, 4188.718, 4066.667, 4122.564, 4090.769, 0, 0, []
1628706372.5549, 33, 0, 4201.538, 4205.641, 4072.308, 4126.667, 4085.128, 0, 0, []
1628706372.5628, 34, 0, 4195.385, 4203.59, 4077.436, 4117.949, 4077.436, 0, 0, []
1628706372.5706, 35, 0, 4186.154, 4193.846, 4071.282, 4104.615, 4078.974, 0, 0, []
1628706372.5785, 36, 0, 4185.128, 4202.051, 4076.923, 4115.897, 4085.128, 0, 0, []
1628706372.5863, 37, 0, 4184.103, 4202.051, 4080.513, 4129.231, 4080.513, 0, 0, []
1628706372.5941, 38, 0, 4174.872, 4187.692, 4059.487, 4121.538, 4067.179, 0, 0, []
1628706372.6019, 39, 0, 4179.487, 4190.256, 4049.744, 4117.436, 4066.667, 0, 0, []
1628706372.6099, 40, 0, 4198.462, 4208.205, 4069.744, 4125.641, 4083.59, 0, 0, []
1628706372.6178, 41, 0, 4205.641, 4224.103, 4091.282, 4127.179, 4096.923, 0, 0, []
1628706372.6258, 42, 0, 4196.41, 4220.513, 4088.205, 4122.051, 4091.282, 0, 0, []
1628706372.6336, 43, 0, 4190.769, 4203.077, 4068.718, 4120, 4080.513, 0, 0, []
1628706372.6416, 44, 0, 4196.41, 4203.59, 4061.538, 4128.205, 4079.487, 0, 0, []
1628706372.6495, 45, 0, 4203.077, 4220.513, 4071.795, 4140, 4085.641, 0, 0, []
1628706372.6575, 46, 0, 4206.154, 4224.103, 4076.41, 4140.513, 4093.846, 0, 0, []
1628706372.6654, 47, 0, 4208.205, 4216.923, 4074.359, 4132.308, 4099.487, 0, 0, []
1628706372.6733, 48, 0, 4215.385, 4212.821, 4075.385, 4127.179, 4108.718, 0, 0, []
1628706372.6812, 49, 0, 4236.41, 4201.538, 4072.308, 4124.615, 4127.179, 0, 0, []
1628706372.689, 50, 0, 4269.744, 4189.231, 4070.256, 4127.692, 4148.205, 0, 0, []
1628706372.697, 51, 0, 4306.154, 4186.154, 4074.359, 4136.923, 4169.231, 0, 0, []
1628706372.7049, 52, 0, 4345.128, 4185.128, 4071.282, 4139.487, 4195.897, 0, 0, []
1628706372.7127, 53, 0, 4392.308, 4188.718, 4071.795, 4138.974, 4234.359, 0, 0, []
1628706372.7205, 54, 0, 4443.59, 4191.282, 4083.59, 4137.949, 4277.949, 0, 0, []
1628706372.7284, 55, 0, 4478.974, 4181.026, 4089.231, 4138.974, 4311.795, 0, 0, []
1628706372.7362, 56, 0, 4481.538, 4176.41, 4099.487, 4146.154, 4321.026, 0, 0, []
1628706372.7441, 57, 0, 4453.333, 4178.974, 4110.256, 4152.821, 4295.897, 0, 0, []
1628706372.7518, 58, 0, 4412.821, 4176.923, 4098.462, 4153.333, 4254.359, 0, 0, []
1628706372.7598, 59, 0, 4380, 4173.846, 4083.077, 4154.359, 4231.282, 0, 0, []
1628706372.7677, 60, 0, 4354.359, 4166.154, 4075.897, 4150.769, 4221.538, 0, 0, []
1628706372.7757, 61, 0, 4328.205, 4154.359, 4068.205, 4139.487, 4202.564, 0, 0, []
1628706372.7836, 62, 0, 4310.769, 4152.821, 4069.231, 4131.282, 4187.179, 0, 0, []
1628706372.7915, 63, 0, 4295.897, 4150.769, 4079.487, 4124.615, 4171.795, 0, 0, []
1628706372.7994, 64, 0, 4271.795, 4142.564, 4077.949, 4112.821, 4147.692, 450, 0, []
1628706372.8074, 65, 0, 4251.795, 4153.846, 4075.385, 4117.436, 4132.308, 450, 0, []
1628706372.8153, 66, 0, 4248.718, 4173.846, 4081.026, 4136.923, 4126.667, 16207, 0, []
1628706372.8233, 67, 0, 4249.744, 4171.795, 4083.59, 4144.103, 4125.128, 450, 0, []
1628706372.8311, 68, 0, 4246.154, 4155.897, 4084.615, 4138.462, 4130.256, 16182, 0, []
1628706372.8389, 69, 0, 4235.385, 4150.256, 4088.205, 4132.308, 4128.205, 450, 0, []
1628706372.8468, 70, 0, 4226.667, 4162.564, 4098.462, 4139.487, 4121.026, 16166, 0, []
1628706372.8546, 71, 0, 4218.462, 4170.769, 4105.128, 4149.744, 4113.333, 450, 0, []
1628706372.8625, 72, 0, 4198.974, 4156.923, 4089.744, 4144.615, 4093.333, 450, 0, []
1628706372.8702, 73, 0, 4183.59, 4146.667, 4065.128, 4132.821, 4074.359, 16209, 0, []
1628706372.8781, 74, 0, 4184.615, 4155.385, 4055.385, 4127.179, 4078.462, 450, 0, []
1628706372.8859, 75, 0, 4187.692, 4169.744, 4061.538, 4127.692, 4093.333, 16190, 0, []
1628706372.8938, 76, 0, 4192.308, 4173.333, 4068.718, 4135.897, 4105.641, 450, 0, []
1628706372.9016, 77, 0, 4200.513, 4161.538, 4068.205, 4142.564, 4114.359, 450, 0, []
1628706372.9095, 78, 0, 4203.077, 4151.795, 4056.923, 4141.026, 4110.256, 450, 0, []
1628706372.9174, 79, 0, 4200.513, 4162.051, 4047.179, 4146.154, 4101.026, 16190, 0, []
1628706372.9254, 80, 0, 4196.41, 4173.846, 4047.692, 4149.744, 4102.051, 450, 0, []
1628706372.9333, 81, 0, 4186.154, 4171.282, 4054.359, 4136.41, 4106.154, 450, 0, []
1628706372.9413, 82, 0, 4181.026, 4167.179, 4064.103, 4133.846, 4111.795, 450, 0, []
1628706372.9491, 83, 0, 4192.308, 4170.256, 4067.179, 4141.026, 4122.051, 16190, 0, []
1628706372.9571, 84, 0, 4199.487, 4170.769, 4060, 4139.487, 4121.026, 450, 0, []
1628706372.965, 85, 0, 4195.897, 4167.179, 4062.051, 4141.026, 4106.667, 450, 0, []
1628706372.973, 86, 0, 4195.385, 4165.641, 4072.821, 4144.103, 4103.59, 450, 0, []
1628706372.9809, 87, 0, 4193.846, 4170.256, 4076.923, 4140.513, 4110.256, 16190, 0, []
1628706372.9887, 88, 0, 4182.051, 4170.256, 4076.41, 4139.487, 4105.128, 450, 0, []
1628706372.9965, 89, 0, 4171.282, 4163.59, 4075.897, 4135.897, 4097.949, 450, 0, []
1628706373.0043, 90, 0, 4167.179, 4162.051, 4069.231, 4121.538, 4090.256, 450, 0, []
1628706373.0122, 91, 0, 4166.154, 4171.795, 4064.615, 4117.949, 4084.103, 16190, 0, []
1628706373.02, 92, 0, 4170.769, 4185.128, 4070.256, 4129.231, 4092.821, 450, 0, []
1628706373.0279, 93, 0, 4165.641, 4192.308, 4073.333, 4130.256, 4100.513, 450, 0, []
1628706373.0356, 94, 0, 4151.795, 4195.897, 4073.333, 4122.051, 4093.846, 450, 0, []
1628706373.0435, 95, 0, 4152.821, 4204.615, 4078.462, 4123.59, 4086.667, 16190, 0, []
1628706373.0513, 96, 0, 4156.923, 4202.564, 4075.897, 4127.179, 4084.615, 450, 0, []
1628706373.0592, 97, 0, 4144.615, 4189.231, 4064.103, 4115.897, 4079.487, 450, 0, []
1628706373.067, 98, 0, 4141.026, 4190.769, 4072.821, 4112.821, 4086.154, 450, 0, []
1628706373.0749, 99, 0, 4153.846, 4206.667, 4095.897, 4132.308, 4102.564, 16190, 0, []
1628706373.0828, 100, 0, 4148.205, 4205.128, 4090.769, 4137.949, 4100, 450, 0, []
1628706373.0908, 101, 0, 4135.385, 4194.359, 4071.282, 4127.692, 4090.769, 450, 0, []
1628706373.0987, 102, 0, 4136.41, 4199.487, 4078.462, 4127.179, 4090.256, 450, 0, []
1628706373.1067, 103, 0, 4132.821, 4202.564, 4086.154, 4127.692, 4089.231, 16190, 0, []
1628706373.1145, 104, 0, 4121.538, 4184.103, 4075.385, 4119.487, 4084.615, 450, 0, []
1628706373.1225, 105, 0, 4119.487, 4168.718, 4072.821, 4121.026, 4075.897, 450, 0, []
1628706373.1304, 106, 0, 4122.564, 4172.308, 4075.897, 4121.026, 4062.564, 450, 0, []
1628706373.1384, 107, 0, 4122.564, 4170.769, 4069.231, 4107.692, 4060.513, 16190, 0, []
1628706373.1463, 108, 0, 4119.487, 4156.923, 4058.462, 4106.667, 4073.333, 450, 0, []
1628706373.154, 109, 0, 4113.333, 4149.744, 4058.462, 4122.051, 4067.692, 450, 0, []
1628706373.1619, 110, 0, 4108.205, 4150.256, 4062.051, 4128.205, 4044.615, 450, 0, []
1628706373.1697, 111, 0, 4103.077, 4151.282, 4054.359, 4112.821, 4037.949, 16190, 0, []
1628706373.1776, 112, 0, 4105.641, 4153.333, 4052.821, 4101.026, 4052.308, 450, 0, []
1628706373.1854, 113, 0, 4127.692, 4157.436, 4075.897, 4116.41, 4073.333, 450, 0, []
1628706373.1932, 114, 0, 4136.923, 4155.385, 4082.051, 4131.282, 4072.308, 450, 0, []
1628706373.201, 115, 0, 4118.974, 4153.333, 4062.051, 4121.538, 4054.872, 16190, 0, []
1628706373.2089, 116, 0, 4113.846, 4163.59, 4068.205, 4113.333, 4055.897, 450, 0, []
1628706373.2167, 117, 0, 4122.564, 4168.205, 4085.641, 4120.513, 4069.231, 450, 0, []
1628706373.2246, 118, 0, 4123.077, 4158.974, 4074.359, 4122.564, 4066.667, 450, 0, []
1628706373.2323, 119, 0, 4128.205, 4155.897, 4067.179, 4124.615, 4062.564, 16190, 0, []
1628706373.2403, 120, 0, 4136.41, 4160, 4074.359, 4125.641, 4065.128, 450, 0, []
1628706373.2482, 121, 0, 4130.256, 4163.077, 4072.308, 4110.256, 4063.077, 450, 0, []
1628706373.2562, 122, 0, 4123.59, 4174.359, 4070.256, 4101.026, 4070.256, 450, 0, []
1628706373.2641, 123, 0, 4123.59, 4187.179, 4071.282, 4114.872, 4072.308, 16190, 0, []
1628706373.272, 124, 0, 4118.462, 4185.128, 4058.462, 4119.487, 4053.333, 450, 0, []
1628706373.2799, 125, 0, 4122.564, 4183.59, 4047.179, 4109.231, 4049.744, 450, 0, []
1628706373.2879, 126, 0, 4135.897, 4188.205, 4057.436, 4115.385, 4070.256, 450, 0, []
1628706373.2958, 127, 0, 4138.974, 4185.128, 4063.077, 4129.231, 4081.538, 16190, 0, []
1628706373.3038, 128, 0, 4134.359, 4188.205, 4055.897, 4124.615, 4073.333, 450, 0, []
1628706373.3116, 0, 0, 4136.923, 4200.513, 4052.308, 4109.231, 4065.641, 450, 0, []
1628706373.3194, 1, 0, 4137.436, 4201.026, 4056.923, 4104.103, 4069.231, 450, 0, []
1628706373.3273, 2, 0, 4126.154, 4186.667, 4056.41, 4112.308, 4080, 16202, 0, []
1628706373.3351, 3, 0, 4122.051, 4174.359, 4046.667, 4124.103, 4080.513, 450, 0, []
1628706373.343, 4, 0, 4131.282, 4171.795, 4042.564, 4124.103, 4065.128, 16182, 0, []
1628706373.3507, 5, 0, 4139.487, 4175.897, 4052.821, 4121.538, 4066.154, 450, 0, []
1628706373.3586, 6, 0, 4138.462, 4176.923, 4062.564, 4121.026, 4080, 16170, 0, []
1628706373.3664, 7, 0, 4125.128, 4163.59, 4049.231, 4111.795, 4073.333, 450, 0, []
1628706373.3743, 8, 0, 4118.462, 4151.795, 4034.872, 4104.103, 4061.026, 450, 0, []
1628706373.3821, 9, 0, 4123.077, 4154.359, 4040, 4111.795, 4065.641, 16192, 0, []
1628706373.3899, 10, 0, 4116.923, 4157.436, 4044.615, 4114.872, 4066.667, 450, 0, []
1628706373.3977, 11, 0, 4106.154, 4156.923, 4046.667, 4110.769, 4055.385, 16201, 0, []
1628706373.4057, 12, 0, 4114.359, 4157.949, 4055.897, 4118.974, 4062.051, 450, 0, []
1628706373.4136, 13, 0, 4128.205, 4159.487, 4063.077, 4131.795, 4080, 450, 0, []
1628706373.4216, 14, 0, 4127.692, 4156.41, 4063.59, 4130.769, 4074.872, 450, 0, []
1628706373.4294, 15, 0, 4117.949, 4154.359, 4062.051, 4115.897, 4053.333, 16201, 0, []
1628706373.4374, 16, 0, 4106.154, 4155.385, 4057.949, 4102.051, 4040, 0, 0, []
1628706373.4453, 17, 0, 4108.205, 4153.846, 4049.744, 4106.154, 4048.718, 0, 0, []
1628706373.4533, 18, 0, 4122.564, 4149.231, 4044.103, 4120.513, 4063.59, 0, 0, []
1628706373.4612, 19, 0, 4125.128, 4148.205, 4048.205, 4125.641, 4062.051, 0, 0, []
1628706373.4691, 20, 0, 4119.487, 4153.846, 4060, 4121.538, 4054.872, 0, 0, []
1628706373.477, 21, 0, 4120, 4156.923, 4064.615, 4120, 4061.538, 0, 0, []
1628706373.4848, 22, 0, 4127.692, 4155.897, 4061.538, 4125.641, 4071.282, 0, 0, []
1628706373.4927, 23, 0, 4137.436, 4161.538, 4061.538, 4137.949, 4071.282, 0, 0, []
1628706373.5005, 24, 0, 4139.487, 4166.667, 4056.41, 4141.538, 4068.205, 0, 0, []
1628706373.5083, 25, 0, 4135.897, 4171.282, 4060, 4135.385, 4074.359, 0, 0, []
1628706373.5161, 26, 0, 4145.128, 4183.59, 4077.949, 4141.026, 4089.744, 0, 0, []
1628706373.524, 27, 0, 4160, 4190.769, 4077.436, 4152.308, 4098.462, 0, 0, []
1628706373.5319, 28, 0, 4157.949, 4185.128, 4062.564, 4145.641, 4093.333, 0, 0, []
1628706373.5398, 29, 0, 4151.282, 4186.667, 4063.59, 4136.41, 4089.231, 0, 0, []
1628706373.5475, 30, 0, 4152.821, 4192.821, 4074.872, 4138.462, 4089.231, 0, 0, []
1628706373.5555, 31, 0, 4152.308, 4190.769, 4085.128, 4135.385, 4089.231, 0, 0, []
1628706373.5634, 32, 0, 4143.59, 4188.205, 4087.692, 4126.154, 4085.128, 0, 0, []
1628706373.5714, 33, 0, 4134.872, 4184.615, 4065.641, 4117.949, 4070.769, 0, 0, []
1628706373.5793, 34, 0, 4135.897, 4182.051, 4042.051, 4109.744, 4063.59, 0, 0, []
1628706373.5872, 35, 0, 4143.59, 4189.231, 4051.795, 4115.385, 4078.462, 0, 0, []
1628706373.5951, 36, 0, 4134.872, 4187.692, 4062.051, 4124.103, 4080.513, 0, 0, []
1628706373.6031, 37, 0, 4122.051, 4170.256, 4056.41, 4120, 4066.154, 0, 0, []
1628706373.611, 38, 0, 4140.513, 4162.564, 4065.128, 4126.154, 4075.385, 0, 0, []
1628706373.619, 39, 0, 4160, 4171.795, 4077.436, 4140, 4092.821, 0, 0, []
1628706373.6268, 40, 0, 4145.128, 4178.462, 4069.231, 4137.949, 4090.256, 0, 0, []
1628706373.6346, 41, 0, 4130.769, 4175.897, 4063.077, 4132.821, 4086.667, 0, 0, []
1628706373.6425, 42, 0, 4138.462, 4170.256, 4075.385, 4138.462, 4095.385, 0, 0, []
1628706373.6503, 43, 0, 4147.692, 4167.692, 4077.949, 4144.615, 4102.051, 0, 0, []
1628706373.6582, 44, 0, 4153.846, 4169.744, 4068.718, 4141.026, 4104.615, 0, 0, []
1628706373.6659, 45, 0, 4153.333, 4168.205, 4071.795, 4127.179, 4107.692, 0, 0, []
1628706373.6738, 46, 0, 4141.026, 4160.513, 4077.949, 4121.026, 4102.564, 0, 0, []
1628706373.6816, 47, 0, 4132.821, 4152.308, 4070.256, 4128.205, 4089.231, 0, 0, []
1628706373.6895, 48, 0, 4134.872, 4152.821, 4062.051, 4136.923, 4079.487, 0, 0, []
1628706373.6973, 49, 0, 4134.872, 4159.487, 4069.744, 4140, 4081.026, 0, 0, []
1628706373.7052, 50, 0, 4127.179, 4155.897, 4073.333, 4130.769, 4081.026, 0, 0, []
1628706373.7131, 51, 0, 4115.897, 4149.744, 4068.718, 4115.897, 4079.487, 0, 0, []
1628706373.7211, 52, 0, 4128.205, 4160, 4073.333, 4125.641, 4096.41, 0, 0, []
1628706373.729, 53, 0, 4151.795, 4180, 4081.538, 4149.231, 4110.769, 0, 0, []
1628706373.737, 54, 0, 4149.744, 4186.154, 4078.974, 4144.615, 4097.949, 0, 0, []
1628706373.7449, 55, 0, 4133.846, 4183.59, 4075.385, 4123.59, 4084.615, 0, 0, []
1628706373.7528, 56, 0, 4134.872, 4182.051, 4076.41, 4121.538, 4095.385, 0, 0, []
1628706373.7607, 57, 0, 4148.205, 4183.077, 4071.795, 4123.59, 4107.179, 0, 0, []
1628706373.7687, 58, 0, 4160.513, 4190.769, 4069.231, 4121.026, 4108.718, 0, 0, []
1628706373.7766, 59, 0, 4173.846, 4199.487, 4075.897, 4133.333, 4115.385, 0, 0, []
1628706373.7844, 60, 0, 4174.872, 4200.513, 4078.462, 4146.667, 4115.385, 0, 0, []
1628706373.7922, 61, 0, 4152.821, 4197.436, 4068.205, 4133.846, 4101.026, 0, 0, []
1628706373.8, 62, 0, 4137.436, 4202.051, 4056.41, 4118.974, 4088.718, 0, 0, []
1628706373.8079, 63, 0, 4146.667, 4211.282, 4057.949, 4126.667, 4095.897, 0, 0, []
1628706373.8157, 64, 0, 4164.103, 4215.897, 4073.333, 4138.974, 4112.821, 450, 0, []
1628706373.8236, 65, 0, 4171.282, 4213.846, 4094.359, 4144.103, 4122.564, 450, 0, []
1628706373.8313, 66, 0, 4177.949, 4202.051, 4107.692, 4149.231, 4130.769, 16196, 0, []
1628706373.8392, 67, 0, 4183.59, 4189.231, 4119.487, 4150.769, 4138.974, 450, 0, []
1628706373.847, 68, 0, 4171.795, 4184.615, 4112.821, 4142.051, 4135.897, 16182, 0, []
1628706373.8549, 69, 0, 4153.333, 4184.103, 4082.051, 4134.872, 4118.462, 450, 0, []
1628706373.8627, 70, 0, 4152.821, 4187.179, 4062.051, 4142.051, 4106.667, 16169, 0, []
1628706373.8706, 71, 0, 4154.359, 4184.615, 4057.436, 4134.872, 4104.103, 450, 0, []
1628706373.8785, 72, 0, 4140, 4174.359, 4061.538, 4117.949, 4102.051, 450, 0, []
1628706373.8865, 73, 0, 4144.615, 4172.308, 4086.667, 4127.179, 4114.359, 16187, 0, []
1628706373.8944, 74, 0, 4171.795, 4173.846, 4107.692, 4137.949, 4132.308, 450, 0, []
1628706373.9024, 75, 0, 4175.897, 4167.692, 4087.692, 4121.026, 4131.282, 16202, 0, []
1628706373.9102, 76, 0, 4158.462, 4169.744, 4069.744, 4112.308, 4118.462, 450, 0, []
1628706373.9182, 77, 0, 4151.282, 4187.692, 4078.974, 4121.538, 4118.974, 450, 0, []
1628706373.9261, 78, 0, 4152.308, 4189.231, 4085.641, 4122.564, 4127.692, 450, 0, []
1628706373.9341, 79, 0, 4152.821, 4173.333, 4090.769, 4127.179, 4128.205, 16202, 0, []
1628706373.942, 80, 0, 4154.359, 4172.821, 4105.128, 4138.462, 4123.59, 450, 0, []
1628706373.9497, 81, 0, 4152.308, 4190.769, 4117.949, 4141.538, 4121.538, 450, 0, []
1628706373.9576, 82, 0, 4154.359, 4198.974, 4113.846, 4133.846, 4123.59, 450, 0, []
1628706373.9654, 83, 0, 4155.897, 4189.744, 4101.026, 4124.103, 4121.538, 16202, 0, []
1628706373.9733, 84, 0, 4144.615, 4184.103, 4095.897, 4115.385, 4112.821, 450, 0, []
1628706373.9811, 85, 0, 4138.462, 4186.154, 4095.385, 4108.718, 4103.59, 450, 0, []
1628706373.9889, 86, 0, 4153.846, 4193.333, 4100, 4114.359, 4109.231, 450, 0, []
1628706373.9967, 87, 0, 4160, 4205.128, 4109.231, 4120.513, 4125.128, 16202, 0, []
1628706374.0046, 88, 0, 4138.974, 4204.615, 4101.026, 4108.718, 4125.128, 450, 0, []
1628706374.0124, 89, 0, 4130.769, 4194.359, 4080, 4096.41, 4110.769, 450, 0, []
1628706374.0204, 90, 0, 4140.513, 4201.026, 4079.487, 4105.128, 4093.846, 450, 0, []
1628706374.0282, 91, 0, 4140, 4219.487, 4084.103, 4112.821, 4088.205, 16202, 0, []
1628706374.0362, 92, 0, 4148.205, 4217.436, 4075.385, 4109.744, 4104.103, 450, 0, []
1628706374.0441, 93, 0, 4180.513, 4205.641, 4077.949, 4109.744, 4133.333, 450, 0, []
1628706374.0521, 94, 0, 4194.872, 4198.462, 4090.769, 4105.128, 4145.641, 450, 0, []
1628706374.06, 95, 0, 4175.897, 4183.077, 4085.641, 4095.385, 4132.308, 16202, 0, []
1628706374.0679, 96, 0, 4163.59, 4167.692, 4071.795, 4089.744, 4115.385, 450, 0, []
1628706374.0758, 97, 0, 4168.205, 4164.615, 4073.846, 4089.744, 4111.795, 450, 0, []
1628706374.0838, 98, 0, 4165.641, 4157.949, 4082.564, 4097.436, 4122.051, 450, 0, []
1628706374.0917, 99, 0, 4150.769, 4149.231, 4075.385, 4106.154, 4125.641, 16202, 0, []
1628706374.0995, 100, 0, 4149.744, 4157.436, 4070.256, 4108.718, 4117.949, 450, 0, []
1628706374.1073, 101, 0, 4167.692, 4173.846, 4087.179, 4115.385, 4125.128, 450, 0, []
1628706374.1151, 102, 0, 4176.41, 4179.487, 4094.359, 4122.051, 4138.974, 450, 0, []
1628706374.123, 103, 0, 4170.769, 4182.051, 4076.923, 4115.385, 4133.333, 16202, 0, []
1628706374.1308, 104, 0, 4163.077, 4186.667, 4070.769, 4101.026, 4116.923, 450, 0, []
1628706374.1387, 105, 0, 4150.256, 4180.513, 4084.103, 4096.41, 4113.333, 450, 0, []
1628706374.1464, 106, 0, 4147.179, 4173.846, 4085.128, 4097.436, 4121.026, 450, 0, []
1628706374.1543, 107, 0, 4162.564, 4183.077, 4075.897, 4096.923, 4120.513, 16202, 0, []
1628706374.1621, 108, 0, 4165.128, 4190.769, 4071.795, 4090.256, 4111.282, 450, 0, []
1628706374.1701, 109, 0, 4149.744, 4182.051, 4063.077, 4082.051, 4104.615, 450, 0, []
1628706374.178, 110, 0, 4144.615, 4182.564, 4063.077, 4091.282, 4111.282, 450, 0, []
1628706374.1859, 111, 0, 4158.462, 4201.026, 4081.026, 4109.744, 4127.692, 16202, 0, []
1628706374.1938, 112, 0, 4171.795, 4213.333, 4084.103, 4113.333, 4131.795, 450, 0, []
1628706374.2018, 113, 0, 4168.205, 4210.769, 4065.128, 4101.538, 4114.359, 450, 0, []
1628706374.2097, 114, 0, 4158.462, 4201.538, 4057.949, 4092.308, 4099.487, 450, 0, []
1628706374.2177, 115, 0, 4161.538, 4200.513, 4076.923, 4097.949, 4113.333, 16202, 0, []
1628706374.2255, 116, 0, 4174.359, 4209.231, 4093.846, 4110.769, 4138.974, 450, 0, []
1628706374.2335, 117, 0, 4176.41, 4209.231, 4087.692, 4120, 4143.59, 450, 0, []
1628706374.2414, 118, 0, 4171.795, 4201.026, 4075.897, 4120.513, 4127.179, 450, 0, []
1628706374.2493, 119, 0, 4169.231, 4199.487, 4082.564, 4117.436, 4120.513, 16202, 0, []
1628706374.2572, 120, 0, 4170.769, 4196.41, 4098.462, 4113.333, 4125.128, 450, 0, []
1628706374.2649, 121, 0, 4167.692, 4177.436, 4091.282, 4105.641, 4123.077, 450, 0, []
1628706374.2728, 122, 0, 4166.667, 4166.154, 4077.436, 4110.256, 4127.692, 450, 0, []
1628706374.2806, 123, 0, 4178.974, 4174.359, 4084.615, 4123.59, 4140, 16202, 0, []
1628706374.2885, 124, 0, 4181.538, 4176.923, 4092.821, 4120, 4134.359, 450, 0, []
1628706374.2963, 125, 0, 4176.41, 4171.282, 4090.769, 4112.821, 4127.692, 450, 0, []
1628706374.3041, 126, 0, 4182.564, 4173.333, 4089.744, 4121.538, 4137.436, 450, 0, []
1628706374.3119, 127, 0, 4177.949, 4170.769, 4085.128, 4124.615, 4138.462, 16202, 0, []
1628706374.3198, 128, 0, 4163.59, 4153.333, 4073.846, 4118.462, 4131.795, 450, 0, []
1628706374.3276, 0, 0, 4177.436, 4153.333, 4070.769, 4122.051, 4142.564, 450, 0, []
1628706374.3356, 1, 0, 4203.59, 4170.256, 4083.077, 4129.744, 4154.359, 450, 0, []
1628706374.3434, 2, 0, 4200, 4168.205, 4087.179, 4129.744, 4149.744, 16194, 0, []
1628706374.3514, 3, 0, 4192.821, 4151.795, 4080.513, 4124.103, 4144.103, 450, 0, []
1628706374.3593, 4, 0, 4209.231, 4149.231, 4084.615, 4126.667, 4158.462, 16177, 0, []
1628706374.3673, 5, 0, 4244.615, 4158.462, 4093.333, 4135.897, 4192.308, 450, 0, []
1628706374.3752, 6, 0, 4284.103, 4161.026, 4090.769, 4130.256, 4222.564, 16175, 0, []
1628706374.3831, 7, 0, 4320, 4155.897, 4082.051, 4121.026, 4245.641, 450, 0, []
1628706374.391, 8, 0, 4357.949, 4150.256, 4081.538, 4124.615, 4279.487, 450, 0, []
1628706374.399, 9, 0, 4398.462, 4155.385, 4085.641, 4124.103, 4316.41, 16173, 0, []
1628706374.4069, 10, 0, 4422.051, 4174.872, 4087.692, 4123.59, 4335.385, 450, 0, []
1628706374.4147, 11, 0, 4415.385, 4188.205, 4089.744, 4134.359, 4336.923, 16221, 0, []
1628706374.4225, 12, 0, 4402.051, 4188.718, 4093.846, 4143.077, 4331.795, 450, 0, []
1628706374.4303, 13, 0, 4394.872, 4188.718, 4089.231, 4136.41, 4317.436, 450, 0, []
1628706374.4382, 14, 0, 4371.795, 4186.667, 4071.282, 4122.564, 4289.231, 450, 0, []
1628706374.446, 15, 0, 4339.487, 4182.051, 4062.051, 4118.462, 4257.436, 16221, 0, []
1628706374.4539, 16, 0, 4324.615, 4186.667, 4069.744, 4123.59, 4247.179, 0, 0, []
1628706374.4617, 17, 0, 4314.359, 4188.718, 4072.308, 4121.538, 4248.205, 0, 0, []
1628706374.4695, 18, 0, 4297.436, 4182.051, 4066.154, 4120.513, 4237.436, 0, 0, []
1628706374.4773, 19, 0, 4293.846, 4191.282, 4075.385, 4135.385, 4231.282, 0, 0, []
1628706374.4853, 20, 0, 4286.667, 4205.128, 4090.256, 4136.41, 4225.128, 0, 0, []
1628706374.4932, 21, 0, 4261.026, 4193.846, 4086.154, 4124.103, 4208.205, 0, 0, []
1628706374.5012, 22, 0, 4249.231, 4183.077, 4080.513, 4126.667, 4197.949, 0, 0, []
1628706374.509, 23, 0, 4261.538, 4194.359, 4085.128, 4133.846, 4202.564, 0, 0, []
1628706374.517, 24, 0, 4266.154, 4202.564, 4085.128, 4125.641, 4204.103, 0, 0, []
1628706374.5249, 25, 0, 4245.641, 4206.667, 4091.282, 4116.41, 4193.333, 0, 0, []
1628706374.5328, 26, 0, 4232.308, 4225.128, 4111.795, 4131.795, 4190.256, 0, 0, []
1628706374.5406, 27, 0, 4241.026, 4233.333, 4115.897, 4152.821, 4199.487, 0, 0, []
1628706374.5485, 28, 0, 4237.949, 4222.051, 4111.282, 4152.821, 4205.641, 0, 0, []
1628706374.5564, 29, 0, 4211.282, 4215.897, 4118.974, 4135.897, 4190.769, 0, 0, []
1628706374.5642, 30, 0, 4195.385, 4218.974, 4116.923, 4130.769, 4178.462, 0, 0, []
1628706374.5721, 31, 0, 4201.026, 4220.513, 4109.231, 4146.154, 4190.769, 0, 0, []
1628706374.5799, 32, 0, 4204.615, 4218.974, 4110.769, 4158.974, 4202.564, 0, 0, []
1628706374.5877, 33, 0, 4200, 4213.333, 4107.692, 4157.436, 4192.308, 0, 0, []
1628706374.5955, 34, 0, 4197.949, 4215.385, 4104.615, 4151.282, 4178.462, 0, 0, []
1628706374.6034, 35, 0, 4201.538, 4226.667, 4117.949, 4156.923, 4183.077, 0, 0, []
1628706374.6112, 36, 0, 4195.897, 4224.615, 4126.667, 4158.462, 4186.667, 0, 0, []
1628706374.6191, 37, 0, 4184.615, 4214.359, 4115.385, 4140.513, 4175.897, 0, 0, []
1628706374.6268, 38, 0, 4184.615, 4215.385, 4107.692, 4132.821, 4170.769, 0, 0, []
1628706374.6348, 39, 0, 4181.026, 4210.769, 4105.128, 4138.462, 4168.718, 0, 0, []
1628706374.6427, 40, 0, 4168.205, 4199.487, 4094.872, 4131.282, 4158.462, 0, 0, []
1628706374.6507, 41, 0, 4164.103, 4205.128, 4092.821, 4121.538, 4148.718, 0, 0, []
1628706374.6586, 42, 0, 4169.231, 4214.359, 4111.795, 4132.821, 4143.59, 0, 0, []
1628706374.6665, 43, 0, 4171.282, 4209.231, 4125.641, 4144.103, 4143.59, 0, 0, []
1628706374.6744, 44, 0, 4163.59, 4192.821, 4120, 4138.974, 4147.692, 0, 0, []
1628706374.6824, 45, 0, 4158.462, 4185.641, 4122.051, 4141.538, 4154.872, 0, 0, []
1628706374.6903, 46, 0, 4165.128, 4192.308, 4127.692, 4153.846, 4156.41, 0, 0, []
1628706374.6983, 47, 0, 4163.59, 4191.795, 4113.846, 4150.256, 4141.026, 0, 0, []
1628706374.7061, 48, 0, 4153.846, 4184.615, 4103.077, 4141.026, 4130.256, 0, 0, []
1628706374.7141, 49, 0, 4154.872, 4185.128, 4113.846, 4136.41, 4141.538, 0, 0, []
1628706374.722, 50, 0, 4159.487, 4185.641, 4128.718, 4136.923, 4154.872, 0, 0, []
1628706374.7298, 51, 0, 4170.256, 4191.282, 4139.487, 4149.744, 4167.692, 0, 0, []
1628706374.7377, 52, 0, 4194.359, 4204.103, 4141.026, 4162.564, 4191.795, 0, 0, []
1628706374.7454, 53, 0, 4191.795, 4188.205, 4124.103, 4148.205, 4190.769, 0, 0, []
1628706374.7533, 54, 0, 4166.154, 4161.026, 4112.308, 4122.564, 4160, 0, 0, []
1628706374.7611, 55, 0, 4162.564, 4166.667, 4120.513, 4117.436, 4154.359, 0, 0, []
1628706374.769, 56, 0, 4170.769, 4175.897, 4125.641, 4128.718, 4171.282, 0, 0, []
1628706374.7768, 57, 0, 4166.154, 4158.974, 4122.564, 4137.949, 4172.308, 0, 0, []
1628706374.7846, 58, 0, 4164.615, 4147.692, 4121.538, 4134.872, 4158.462, 0, 0, []
1628706374.7924, 59, 0, 4168.718, 4154.872, 4121.538, 4131.282, 4145.641, 0, 0, []
1628706374.8004, 60, 0, 4162.051, 4154.359, 4121.026, 4133.333, 4141.026, 0, 0, []
1628706374.8083, 61, 0, 4151.282, 4143.59, 4121.538, 4124.615, 4147.179, 0, 0, []
1628706374.8163, 62, 0, 4150.769, 4141.026, 4121.538, 4115.385, 4152.308, 0, 0, []
1628706374.8241, 63, 0, 4160, 4150.769, 4126.667, 4127.692, 4157.436, 0, 0, []
1628706374.8321, 64, 0, 4169.231, 4157.949, 4133.333, 4142.051, 4165.641, 450, 0, []
1628706374.84, 65, 0, 4169.744, 4149.231, 4127.179, 4140, 4160.513, 450, 0, []
1628706374.848, 66, 0, 4167.692, 4137.949, 4117.436, 4138.462, 4152.308, 16180, 0, []
1628706374.8559, 67, 0, 4170.769, 4143.59, 4118.974, 4142.564, 4164.103, 450, 0, []
1628706374.8638, 68, 0, 4170.256, 4150.769, 4124.615, 4142.051, 4174.359, 16165, 0, []
1628706374.8717, 69, 0, 4157.949, 4141.026, 4122.564, 4137.949, 4160, 450, 0, []
1628706374.8795, 70, 0, 4153.333, 4140, 4123.077, 4131.282, 4151.795, 16174, 0, []
1628706374.8874, 71, 0, 4165.641, 4156.41, 4123.077, 4126.154, 4158.974, 450, 0, []
1628706374.8952, 72, 0, 4167.179, 4157.949, 4122.564, 4124.103, 4157.949, 450, 0, []
1628706374.903, 73, 0, 4151.795, 4149.231, 4122.051, 4115.385, 4152.308, 16180, 0, []
1628706374.9108, 74, 0, 4153.333, 4153.333, 4120, 4105.128, 4159.487, 450, 0, []
1628706374.9187, 75, 0, 4171.795, 4158.462, 4129.231, 4112.308, 4174.872, 16216, 0, []
1628706374.9265, 76, 0, 4177.949, 4153.333, 4140, 4124.615, 4177.436, 450, 0, []
1628706374.9344, 77, 0, 4172.308, 4150.769, 4125.128, 4119.487, 4161.538, 450, 0, []
1628706374.9421, 78, 0, 4162.564, 4156.923, 4109.231, 4107.179, 4151.795, 450, 0, []
1628706374.9501, 79, 0, 4151.795, 4167.179, 4127.692, 4106.667, 4164.103, 16216, 0, []
1628706374.958, 80, 0, 4157.949, 4177.436, 4142.051, 4114.359, 4177.949, 450, 0, []
1628706374.966, 81, 0, 4169.744, 4182.051, 4127.179, 4108.718, 4171.795, 450, 0, []
1628706374.9739, 82, 0, 4168.205, 4183.077, 4118.462, 4099.487, 4164.103, 450, 0, []
1628706374.9818, 83, 0, 4168.718, 4189.231, 4125.128, 4103.077, 4169.231, 16216, 0, []
1628706374.9897, 84, 0, 4176.923, 4186.667, 4126.667, 4110.769, 4172.821, 450, 0, []
1628706374.9977, 85, 0, 4171.282, 4172.821, 4127.692, 4113.846, 4168.205, 450, 0, []
1628706375.0056, 86, 0, 4162.051, 4164.103, 4138.462, 4127.692, 4168.205, 450, 0, []
1628706375.0136, 87, 0, 4174.872, 4170.769, 4139.487, 4142.564, 4174.359, 16216, 0, []
1628706375.0214, 88, 0, 4186.154, 4180.513, 4127.179, 4134.872, 4173.846, 450, 0, []
1628706375.0294, 89, 0, 4177.436, 4185.641, 4122.051, 4122.051, 4166.154, 450, 0, []
1628706375.0373, 90, 0, 4170.769, 4185.641, 4125.128, 4112.308, 4153.333, 450, 0, []
1628706375.0451, 91, 0, 4168.718, 4183.077, 4114.872, 4087.179, 4138.462, 16216, 0, []
1628706375.053, 92, 0, 4159.487, 4188.205, 4102.564, 4069.231, 4136.41, 450, 0, []
1628706375.0607, 93, 0, 4151.282, 4189.231, 4106.154, 4080.513, 4138.974, 450, 0, []
1628706375.0686, 94, 0, 4151.795, 4185.128, 4103.077, 4097.949, 4125.641, 450, 0, []
1628706375.0764, 95, 0, 4157.436, 4191.795, 4097.436, 4109.231, 4123.077, 16216, 0, []
1628706375.0843, 96, 0, 4174.872, 4202.051, 4113.846, 4124.615, 4143.59, 450, 0, []
1628706375.0921, 97, 0, 4194.872, 4192.308, 4123.59, 4129.231, 4155.897, 450, 0, []
1628706375.1, 98, 0, 4197.949, 4173.333, 4112.821, 4125.641, 4159.487, 450, 0, []
1628706375.1079, 99, 0, 4192.821, 4163.077, 4105.128, 4126.667, 4162.564, 16216, 0, []
1628706375.1159, 100, 0, 4205.641, 4155.897, 4102.564, 4120.513, 4159.487, 450, 0, []
1628706375.1238, 101, 0, 4229.744, 4152.821, 4100, 4106.154, 4161.538, 450, 0, []
1628706375.1318, 102, 0, 4257.436, 4160.513, 4106.154, 4102.051, 4181.026, 450, 0, []
1628706375.1396, 103, 0, 4312.308, 4168.718, 4107.179, 4106.667, 4220.513, 16216, 0, []
1628706375.1476, 104, 0, 4378.974, 4169.744, 4093.333, 4106.154, 4261.538, 450, 0, []
1628706375.1555, 105, 0, 4410.256, 4168.205, 4087.692, 4103.59, 4281.538, 450, 0, []
1628706375.1635, 106, 0, 4419.487, 4169.231, 4095.385, 4111.795, 4286.154, 450, 0, []
1628706375.1714, 107, 0, 4442.051, 4172.308, 4103.077, 4129.231, 4300, 16216, 0, []
1628706375.1792, 108, 0, 4457.949, 4171.282, 4113.846, 4140.513, 4311.795, 450, 0, []
1628706375.1871, 109, 0, 4441.538, 4175.385, 4124.615, 4140.513, 4298.974, 450, 0, []
1628706375.1949, 110, 0, 4408.718, 4186.154, 4122.564, 4134.872, 4271.282, 450, 0, []
1628706375.2028, 111, 0, 4380.513, 4183.59, 4111.795, 4122.051, 4241.538, 16216, 0, []
1628706375.2106, 112, 0, 4351.282, 4172.308, 4107.692, 4108.205, 4216.41, 450, 0, []
1628706375.2185, 113, 0, 4318.974, 4175.385, 4106.154, 4096.41, 4194.872, 450, 0, []
1628706375.2262, 114, 0, 4302.051, 4189.744, 4103.077, 4091.282, 4176.923, 450, 0, []
1628706375.2341, 115, 0, 4298.462, 4193.846, 4108.718, 4101.026, 4168.205, 16216, 0, []
1628706375.2419, 116, 0, 4283.077, 4190.256, 4112.308, 4109.231, 4154.359, 450, 0, []
1628706375.2498, 117, 0, 4260, 4194.872, 4100.513, 4100.513, 4134.872, 450, 0, []
1628706375.2576, 118, 0, 4255.385, 4201.026, 4092.821, 4101.026, 4129.744, 450, 0, []
1628706375.2655, 119, 0, 4268.718, 4203.077, 4108.205, 4122.051, 4138.974, 16216, 0, []
1628706375.2734, 120, 0, 4270.256, 4208.205, 4126.154, 4129.231, 4135.897, 450, 0, []
1628706375.2814, 121, 0, 4248.205, 4218.462, 4128.205, 4114.359, 4120, 450, 0, []
1628706375.2893, 122, 0, 4223.59, 4222.051, 4125.128, 4110.769, 4107.179, 450, 0, []
1628706375.2973, 123, 0, 4211.282, 4217.436, 4118.462, 4120.513, 4097.949, 16216, 0, []
1628706375.3051, 124, 0, 4215.385, 4216.41, 4109.231, 4125.641, 4100.513, 450, 0, []
1628706375.3131, 125, 0, 4228.205, 4221.538, 4107.179, 4122.564, 4105.128, 450, 0, []
1628706375.321, 126, 0, 4219.487, 4217.949, 4102.564, 4110.769, 4089.231, 450, 0, []
1628706375.329, 127, 0, 4200, 4203.077, 4090.256, 4095.385, 4070.256, 16216, 0, []
1628706375.3369, 128, 0, 4210.256, 4198.974, 4095.385, 4096.923, 4081.026, 450, 0, []
1628706375.3446, 0, 0, 4220, 4198.974, 4104.103, 4113.333, 4098.462, 450, 0, []
1628706375.3525, 1, 0, 4205.641, 4183.077, 4098.462, 4129.744, 4092.821, 450, 0, []
1628706375.3603, 2, 0, 4197.949, 4169.231, 4102.051, 4152.821, 4078.462, 16212, 0, []
1628706375.3682, 3, 0, 4197.949, 4167.179, 4101.538, 4163.077, 4069.231, 450, 0, []
1628706375.376, 4, 0, 4193.333, 4174.359, 4082.564, 4148.718, 4064.615, 16184, 0, []
1628706375.3838, 5, 0, 4194.872, 4184.103, 4080.513, 4145.641, 4062.564, 450, 0, []
1628706375.3916, 6, 0, 4192.821, 4178.974, 4089.231, 4154.359, 4063.59, 16156, 0, []
1628706375.3995, 7, 0, 4174.359, 4165.128, 4081.538, 4147.692, 4053.846, 450, 0, []
1628706375.4073, 8, 0, 4165.128, 4164.615, 4077.436, 4135.385, 4038.462, 450, 0, []
1628706375.4153, 9, 0, 4171.282, 4172.308, 4091.282, 4140, 4034.872, 16216, 0, []
1628706375.4231, 10, 0, 4167.692, 4173.333, 4094.872, 4138.974, 4027.692, 450, 0, []
1628706375.4311, 11, 0, 4153.846, 4166.667, 4079.487, 4126.154, 4010.256, 16182, 0, []
1628706375.439, 12, 0, 4147.692, 4156.41, 4076.923, 4132.308, 4005.641, 450, 0, []
1628706375.447, 13, 0, 4152.308, 4154.872, 4095.385, 4163.077, 4016.41, 450, 0, []
1628706375.4549, 14, 0, 4153.333, 4166.154, 4105.128, 4188.718, 4012.821, 450, 0, []
1628706375.4628, 15, 0, 4143.077, 4174.872, 4098.462, 4187.692, 3994.872, 16182, 0, []
1628706375.4707, 16, 0, 4133.333, 4175.385, 4093.333, 4175.897, 3987.692, 0, 0, []
1628706375.4787, 17, 0, 4132.821, 4169.744, 4090.769, 4173.333, 3992.308, 0, 0, []
1628706375.4866, 18, 0, 4135.385, 4166.154, 4083.077, 4176.923, 3988.718, 0, 0, []
1628706375.4944, 19, 0, 4123.077, 4157.949, 4071.282, 4166.667, 3963.59, 0, 0, []
1628706375.5022, 20, 0, 4104.103, 4141.026, 4066.667, 4150.769, 3940.513, 0, 0, []
1628706375.51, 21, 0, 4095.385, 4132.308, 4077.949, 4156.41, 3945.641, 0, 0, []
1628706375.5179, 22, 0, 4091.795, 4132.821, 4083.077, 4163.59, 3947.179, 0, 0, []
1628706375.5258, 23, 0, 4088.718, 4136.41, 4073.333, 4156.41, 3928.205, 0, 0, []
1628706375.5337, 24, 0, 4089.744, 4147.179, 4071.282, 4157.436, 3918.974, 0, 0, []
1628706375.5414, 25, 0, 4085.128, 4154.872, 4070.769, 4169.744, 3922.564, 0, 0, []
1628706375.5494, 26, 0, 4065.128, 4148.718, 4053.333, 4174.359, 3901.538, 0, 0, []
1628706375.5573, 27, 0, 4048.718, 4147.179, 4044.615, 4175.897, 3873.846, 0, 0, []
1628706375.5652, 28, 0, 4050.256, 4162.051, 4058.974, 4187.179, 3877.949, 0, 0, []
1628706375.573, 29, 0, 4052.821, 4171.282, 4065.128, 4183.59, 3885.641, 0, 0, []
1628706375.5809, 30, 0, 4042.051, 4166.667, 4051.795, 4157.949, 3866.667, 0, 0, []
1628706375.5888, 31, 0, 4033.333, 4171.795, 4052.308, 4148.718, 3854.359, 0, 0, []
1628706375.5968, 32, 0, 4030.256, 4185.641, 4066.667, 4164.615, 3861.026, 0, 0, []
1628706375.6047, 33, 0, 4011.282, 4186.667, 4053.333, 4172.821, 3842.051, 0, 0, []
1628706375.6127, 34, 0, 3986.154, 4180.513, 4027.692, 4162.051, 3804.103, 0, 0, []
1628706375.6205, 35, 0, 3982.564, 4184.103, 4038.974, 4162.051, 3798.974, 0, 0, []
1628706375.6285, 36, 0, 3984.103, 4186.154, 4057.436, 4183.077, 3802.564, 0, 0, []
1628706375.6364, 37, 0, 3968.718, 4183.077, 4045.641, 4186.154, 3786.667, 0, 0, []
1628706375.6443, 38, 0, 3956.41, 4187.692, 4036.41, 4171.795, 3780.513, 0, 0, []
1628706375.6522, 39, 0, 3957.949, 4197.436, 4043.077, 4177.436, 3780.513, 0, 0, []
1628706375.6599, 40, 0, 3948.205, 4200.513, 4041.538, 4184.103, 3761.026, 0, 0, []
1628706375.6678, 41, 0, 3931.282, 4198.974, 4035.897, 4171.795, 3743.077, 0, 0, []
1628706375.6756, 42, 0, 3928.718, 4201.538, 4040, 4167.692, 3740, 0, 0, []
1628706375.6835, 43, 0, 3922.564, 4200, 4043.077, 4171.795, 3727.692, 0, 0, []
1628706375.6913, 44, 0, 3911.282, 4198.974, 4041.538, 4170.256, 3714.359, 0, 0, []
1628706375.6991, 45, 0, 3906.154, 4209.231, 4037.949, 4176.41, 3712.308, 0, 0, []
1628706375.7069, 46, 0, 3892.821, 4212.308, 4025.641, 4171.282, 3702.564, 0, 0, []
1628706375.7148, 47, 0, 3875.897, 4199.487, 4010.256, 4153.846, 3679.487, 0, 0, []
1628706375.7226, 48, 0, 3872.821, 4194.359, 4008.718, 4163.59, 3665.641, 0, 0, []
1628706375.7306, 49, 0, 3872.821, 4199.487, 4021.538, 4182.564, 3668.205, 0, 0, []
1628706375.7384, 50, 0, 3858.462, 4192.308, 4023.077, 4178.974, 3662.564, 0, 0, []
1628706375.7464, 51, 0, 3837.436, 4182.051, 4006.667, 4167.179, 3636.923, 0, 0, []
1628706375.7543, 52, 0, 3816.923, 4189.231, 3998.462, 4162.564, 3613.846, 0, 0, []
1628706375.7623, 53, 0, 3809.744, 4202.564, 4010.769, 4161.026, 3609.744, 0, 0, []
1628706375.7702, 54, 0, 3818.462, 4204.103, 4025.641, 4166.154, 3619.487, 0, 0, []
1628706375.7781, 55, 0, 3816.41, 4194.359, 4025.128, 4176.923, 3623.077, 0, 0, []
1628706375.786, 56, 0, 3802.564, 4180, 4020, 4186.154, 3612.821, 0, 0, []
1628706375.794, 57, 0, 3791.282, 4169.744, 4021.026, 4185.128, 3602.051, 0, 0, []
1628706375.8019, 58, 0, 3782.564, 4164.615, 4014.872, 4176.923, 3592.821, 0, 0, []
1628706375.8097, 59, 0, 3766.667, 4159.487, 3999.487, 4170.256, 3583.077, 0, 0, []
1628706375.8175, 60, 0, 3743.59, 4149.744, 3987.179, 4162.564, 3567.692, 0, 0, []
1628706375.8253, 61, 0, 3728.205, 4147.179, 3988.205, 4156.41, 3553.846, 0, 0, []
1628706375.8332, 62, 0, 3727.692, 4161.538, 3995.897, 4163.077, 3553.846, 0, 0, []
1628706375.841, 63, 0, 3728.718, 4167.179, 3994.872, 4169.744, 3552.821, 0, 0, []
1628706375.8489, 64, 0, 3725.128, 4155.897, 3993.333, 4167.179, 3544.615, 450, 0, []
1628706375.8566, 65, 0, 3723.077, 4156.41, 4000.513, 4170.256, 3542.564, 450, 0, []
1628706375.8645, 66, 0, 3717.436, 4170.769, 4001.026, 4173.846, 3544.103, 16211, 0, []
1628706375.8723, 67, 0, 3710.256, 4179.487, 3997.949, 4172.308, 3546.667, 450, 0, []
1628706375.8803, 68, 0, 3711.282, 4174.872, 3998.974, 4183.59, 3552.308, 16184, 0, []
1628706375.8882, 69, 0, 3698.462, 4155.897, 3989.231, 4196.923, 3547.179, 450, 0, []
1628706375.8961, 70, 0, 3683.59, 4141.538, 3987.692, 4200.513, 3537.949, 16123, 0, []
1628706375.904, 71, 0, 3686.667, 4153.846, 4001.026, 4205.128, 3540, 450, 0, []
1628706375.912, 72, 0, 3674.359, 4156.41, 3994.872, 4203.077, 3532.308, 450, 0, []
1628706375.9199, 73, 0, 3649.744, 4137.436, 3984.103, 4189.231, 3516.923, 16194, 0, []
1628706375.9279, 74, 0, 3644.615, 4132.821, 3977.949, 4181.026, 3509.231, 450, 0, []
1628706375.9357, 75, 0, 3636.923, 4137.436, 3974.872, 4190.256, 3505.641, 16217, 0, []
1628706375.9437, 76, 0, 3621.026, 4136.923, 3983.59, 4201.026, 3510.256, 450, 0, []
1628706375.9516, 77, 0, 3620, 4138.974, 3985.641, 4193.846, 3507.692, 450, 0, []
1628706375.9594, 78, 0, 3613.333, 4132.821, 3973.846, 4176.923, 3488.718, 450, 0, []
1628706375.9673, 79, 0, 3590.769, 4123.59, 3968.718, 4162.051, 3477.436, 16217, 0, []
1628706375.9751, 80, 0, 3577.949, 4121.026, 3964.615, 4159.487, 3472.821, 450, 0, []
1628706375.9829, 81, 0, 3574.872, 4111.282, 3954.359, 4162.564, 3464.615, 450, 0, []
1628706375.9907, 82, 0, 3572.308, 4098.974, 3964.615, 4167.179, 3468.205, 450, 0, []
1628706375.9986, 83, 0, 3571.795, 4105.641, 3980, 4176.41, 3483.59, 16217, 0, []
1628706376.0064, 84, 0, 3572.821, 4112.308, 3970.256, 4180.513, 3485.128, 450, 0, []
1628706376.0143, 85, 0, 3574.359, 4100, 3953.846, 4172.308, 3476.923, 450, 0, []
1628706376.022, 86, 0, 3569.744, 4091.282, 3951.795, 4166.667, 3477.436, 450, 0, []
1628706376.0299, 87, 0, 3563.59, 4101.026, 3953.333, 4170.256, 3481.538, 16217, 0, []
1628706376.0377, 88, 0, 3565.128, 4109.744, 3944.103, 4170.769, 3478.462, 450, 0, []
1628706376.0457, 89, 0, 3570.769, 4106.667, 3942.051, 4175.897, 3480, 450, 0, []
1628706376.0536, 90, 0, 3573.333, 4109.231, 3958.462, 4181.538, 3493.333, 450, 0, []
1628706376.0615, 91, 0, 3570.256, 4121.026, 3966.154, 4178.462, 3499.487, 16217, 0, []
1628706376.0694, 92, 0, 3564.615, 4118.974, 3948.718, 4180, 3489.231, 450, 0, []
1628706376.0774, 93, 0, 3558.974, 4106.667, 3931.795, 4179.487, 3477.436, 450, 0, []
1628706376.0853, 94, 0, 3549.231, 4101.026, 3924.103, 4172.308, 3474.872, 450, 0, []
1628706376.0933, 95, 0, 3548.205, 4110.256, 3917.436, 4165.128, 3480, 16217, 0, []
1628706376.1011, 96, 0, 3551.795, 4123.077, 3910.769, 4154.359, 3473.846, 450, 0, []
1628706376.1091, 97, 0, 3543.077, 4118.974, 3906.667, 4148.718, 3457.436, 450, 0, []
1628706376.117, 98, 0, 3544.103, 4110.256, 3908.718, 4156.923, 3461.538, 450, 0, []
1628706376.1248, 99, 0, 3559.487, 4115.897, 3911.282, 4161.026, 3480.513, 16217, 0, []
1628706376.1327, 100, 0, 3564.615, 4123.59, 3911.795, 4160.513, 3482.564, 450, 0, []
1628706376.1404, 101, 0, 3563.59, 4129.744, 3910.256, 4169.231, 3479.487, 450, 0, []
1628706376.1483, 102, 0, 3559.487, 4134.872, 3907.179, 4172.308, 3486.154, 450, 0, []
1628706376.1561, 103, 0, 3555.385, 4126.154, 3903.077, 4169.231, 3493.846, 16217, 0, []
1628706376.164, 104, 0, 3567.692, 4120, 3894.359, 4164.103, 3494.872, 450, 0, []
1628706376.1718, 105, 0, 3575.385, 4134.872, 3889.231, 4160.513, 3494.359, 450, 0, []
1628706376.1796, 106, 0, 3569.744, 4141.538, 3890.769, 4167.692, 3502.564, 450, 0, []
1628706376.1874, 107, 0, 3588.205, 4136.923, 3897.949, 4184.103, 3527.692, 16217, 0, []
1628706376.1954, 108, 0, 3610.256, 4141.026, 3895.897, 4192.308, 3538.974, 450, 0, []
1628706376.2033, 109, 0, 3591.795, 4145.128, 3880.513, 4186.667, 3518.462, 450, 0, []
1628706376.2113, 110, 0, 3561.026, 4143.59, 3872.821, 4175.385, 3504.615, 450, 0, []
1628706376.2191, 111, 0, 3556.41, 4135.385, 3875.897, 4161.026, 3507.692, 16217, 0, []
1628706376.2271, 112, 0, 3571.795, 4128.205, 3877.436, 4158.462, 3509.744, 450, 0, []
1628706376.235, 113, 0, 3583.077, 4136.41, 3875.385, 4167.179, 3519.487, 450, 0, []
1628706376.243, 114, 0, 3577.949, 4136.923, 3875.897, 4161.538, 3530.769, 450, 0, []
1628706376.2509, 115, 0, 3568.205, 4115.385, 3876.923, 4149.744, 3524.103, 16217, 0, []
1628706376.2588, 116, 0, 3569.744, 4115.897, 3877.949, 4153.333, 3516.41, 450, 0, []
1628706376.2667, 117, 0, 3576.923, 4137.436, 3886.667, 4163.59, 3529.231, 450, 0, []
1628706376.2745, 118, 0, 3584.103, 4142.564, 3901.538, 4164.615, 3549.744, 450, 0, []
1628706376.2824, 119, 0, 3594.872, 4143.077, 3907.692, 4169.231, 3552.821, 16217, 0, []
1628706376.2902, 120, 0, 3604.103, 4144.615, 3898.974, 4171.282, 3543.59, 450, 0, []
1628706376.298, 121, 0, 3602.051, 4138.974, 3890.256, 4157.436, 3546.667, 450, 0, []
1628706376.3058, 122, 0, 3602.564, 4145.641, 3887.692, 4147.692, 3556.923, 450, 0, []
1628706376.3137, 123, 0, 3608.205, 4166.154, 3889.744, 4152.821, 3560.513, 16217, 0, []
1628706376.3215, 124, 0, 3610.256, 4173.846, 3893.846, 4157.436, 3562.564, 450, 0, []
1628706376.3294, 125, 0, 3602.564, 4171.795, 3894.359, 4143.59, 3551.282, 450, 0, []
1628706376.3371, 126, 0, 3597.436, 4168.718, 3887.179, 4128.718, 3538.974, 450, 0, []
1628706376.3451, 127, 0, 3614.359, 4160, 3889.231, 4138.974, 3567.692, 16217, 0, []
1628706376.353, 128, 0, 3638.462, 4153.333, 3903.59, 4154.359, 3605.641, 450, 0, []
1628706376.361, 0, 0, 3641.026, 4158.974, 3907.692, 4147.179, 3607.179, 450, 0, []
1628706376.3689, 1, 0, 3634.872, 4170.769, 3902.564, 4137.949, 3607.179, 450, 0, []
1628706376.3768, 2, 0, 3652.308, 4172.821, 3907.692, 4143.077, 3623.077, 16210, 0, []
1628706376.3847, 3, 0, 3674.872, 4171.795, 3914.359, 4144.103, 3632.821, 450, 0, []
