Timestamp, COUNTER, INTERPOLATED, AF3, T7, Pz, T8, AF4, RAW_CQ, MARKER_HARDWARE, MARKERS
1627749506.4738, 103, 0, 4158.462, 4205.641, 4155.897, 4184.615, 4228.205, 16195, 0, []
1627749506.4818, 104, 0, 4157.949, 4201.538, 4158.974, 4182.051, 4223.077, 450, 0, []
1627749506.4898, 105, 0, 4135.385, 4186.154, 4132.308, 4149.231, 4192.821, 450, 0, []
1627749506.4977, 106, 0, 4114.872, 4169.744, 4124.103, 4136.41, 4172.821, 450, 0, []
1627749506.5057, 107, 0, 4107.179, 4162.051, 4134.872, 4145.128, 4172.308, 16195, 0, []
1627749506.5135, 108, 0, 4122.051, 4174.359, 4135.897, 4156.923, 4184.103, 450, 0, []
1627749506.5215, 109, 0, 4145.128, 4187.179, 4136.923, 4166.667, 4197.436, 450, 0, []
1627749506.5294, 110, 0, 4141.538, 4184.615, 4136.923, 4160.513, 4190.769, 450, 0, []
1627749506.5374, 111, 0, 4129.744, 4185.641, 4136.923, 4155.385, 4176.41, 16195, 0, []
1627749506.5453, 112, 0, 4139.487, 4195.385, 4143.59, 4170.769, 4182.564, 450, 0, []
1627749506.5532, 113, 0, 4148.718, 4194.872, 4144.103, 4176.923, 4193.333, 450, 0, []
1627749506.5611, 114, 0, 4136.41, 4187.179, 4136.41, 4166.154, 4183.59, 450, 0, []
1627749506.5691, 115, 0, 4123.59, 4188.718, 4138.974, 4166.154, 4178.462, 16195, 0, []
1627749506.577, 116, 0, 4129.231, 4191.282, 4142.051, 4171.795, 4186.154, 450, 0, []
1627749506.585, 117, 0, 4120, 4183.59, 4128.718, 4154.359, 4170.256, 450, 0, []
1627749506.5928, 118, 0, 4101.026, 4179.487, 4123.59, 4136.41, 4148.718, 450, 0, []
1627749506.6008, 119, 0, 4124.103, 4188.718, 4143.59, 4154.359, 4167.179, 16195, 0, []
1627749506.6087, 120, 0, 4163.077, 4201.538, 4161.026, 4187.692, 4201.538, 450, 0, []
1627749506.6167, 121, 0, 4159.487, 4204.103, 4157.436, 4193.333, 4205.128, 450, 0, []
1627749506.6246, 122, 0, 4137.949, 4198.462, 4150.769, 4183.077, 4188.205, 450, 0, []
1627749506.6325, 123, 0, 4138.462, 4200, 4156.923, 4183.59, 4183.59, 16195, 0, []
1627749506.6404, 124, 0, 4144.615, 4200, 4160.513, 4189.231, 4192.308, 450, 0, []
1627749506.6484, 125, 0, 4136.923, 4189.744, 4157.949, 4187.692, 4195.385, 450, 0, []
1627749506.6564, 126, 0, 4123.077, 4181.026, 4154.359, 4177.949, 4182.051, 450, 0, []
1627749506.6643, 127, 0, 4117.949, 4182.564, 4153.333, 4170.256, 4168.205, 16195, 0, []
1627749506.6722, 128, 0, 4118.974, 4186.154, 4158.462, 4173.333, 4166.667, 450, 0, []
1627749506.6801, 0, 0, 4112.308, 4191.282, 4153.333, 4174.359, 4161.538, 450, 0, []
1627749506.6881, 1, 0, 4100, 4189.231, 4138.462, 4162.564, 4144.615, 450, 0, []
1627749506.696, 2, 0, 4084.615, 4176.923, 4133.846, 4150.256, 4134.359, 16182, 0, []
1627749506.704, 3, 0, 4081.026, 4173.846, 4141.026, 4150.256, 4139.487, 450, 0, []
1627749506.7118, 4, 0, 4095.897, 4184.615, 4142.564, 4157.949, 4139.487, 16182, 0, []
1627749506.7198, 5, 0, 4100, 4197.949, 4146.667, 4161.026, 4137.436, 450, 0, []
1627749506.7277, 6, 0, 4088.718, 4198.462, 4154.872, 4154.872, 4138.462, 16172, 0, []
1627749506.7357, 7, 0, 4089.744, 4188.205, 4147.179, 4151.795, 4130.256, 450, 0, []
1627749506.7436, 8, 0, 4094.359, 4189.744, 4137.436, 4158.974, 4125.128, 450, 0, []
1627749506.7516, 9, 0, 4095.897, 4200, 4142.051, 4163.077, 4138.974, 16181, 0, []
1627749506.7594, 10, 0, 4097.436, 4193.846, 4135.897, 4158.462, 4141.538, 450, 0, []
1627749506.7674, 11, 0, 4089.231, 4178.974, 4121.538, 4150.256, 4122.051, 16196, 0, []
1627749506.7753, 12, 0, 4088.205, 4183.077, 4128.718, 4150.256, 4120.513, 450, 0, []
1627749506.7833, 13, 0, 4103.077, 4187.179, 4141.538, 4161.026, 4136.923, 450, 0, []
1627749506.7912, 14, 0, 4109.231, 4180, 4140.513, 4171.282, 4141.026, 450, 0, []
1627749506.7991, 15, 0, 4104.103, 4184.103, 4141.026, 4169.231, 4135.385, 16196, 0, []
1627749506.8071, 16, 0, 4108.205, 4196.41, 4149.231, 4164.103, 4135.385, 0, 0, []
1627749506.815, 17, 0, 4123.077, 4203.59, 4160, 4175.385, 4146.667, 0, 0, []
1627749506.823, 18, 0, 4133.333, 4217.436, 4171.795, 4194.359, 4162.051, 0, 0, []
1627749506.8309, 19, 0, 4142.051, 4235.385, 4181.538, 4203.59, 4173.333, 0, 0, []
1627749506.8388, 20, 0, 4138.462, 4228.718, 4169.231, 4196.41, 4168.718, 0, 0, []
1627749506.8467, 21, 0, 4116.41, 4211.795, 4145.128, 4177.436, 4152.821, 0, 0, []
1627749506.8547, 22, 0, 4106.667, 4213.846, 4143.077, 4168.205, 4149.231, 0, 0, []
1627749506.8626, 23, 0, 4123.59, 4219.487, 4150.256, 4174.359, 4153.846, 0, 0, []
1627749506.8706, 24, 0, 4123.077, 4209.744, 4136.923, 4174.872, 4144.615, 0, 0, []
1627749506.8784, 25, 0, 4102.051, 4201.538, 4122.564, 4161.538, 4135.385, 0, 0, []
1627749506.8864, 26, 0, 4113.333, 4203.077, 4133.846, 4158.974, 4145.641, 0, 0, []
1627749506.8943, 27, 0, 4139.487, 4205.641, 4152.308, 4174.872, 4159.487, 0, 0, []
1627749506.9023, 28, 0, 4140.513, 4208.205, 4156.923, 4185.641, 4162.564, 0, 0, []
1627749506.9102, 29, 0, 4133.846, 4210.769, 4164.615, 4186.667, 4164.103, 0, 0, []
1627749506.9181, 30, 0, 4137.436, 4204.615, 4169.744, 4185.641, 4167.692, 0, 0, []
1627749506.926, 31, 0, 4137.949, 4206.154, 4157.949, 4184.103, 4168.718, 0, 0, []
1627749506.934, 32, 0, 4135.897, 4223.077, 4155.385, 4185.641, 4169.231, 0, 0, []
1627749506.9419, 33, 0, 4143.59, 4223.077, 4163.077, 4187.179, 4171.282, 0, 0, []
1627749506.9499, 34, 0, 4149.231, 4207.692, 4157.436, 4183.077, 4169.231, 0, 0, []
1627749506.9577, 35, 0, 4155.897, 4214.359, 4159.487, 4183.59, 4171.795, 0, 0, []
1627749506.9657, 36, 0, 4158.462, 4220, 4167.179, 4185.128, 4177.436, 0, 0, []
1627749506.9737, 37, 0, 4146.667, 4211.795, 4154.872, 4180, 4169.744, 0, 0, []
1627749506.9816, 38, 0, 4146.154, 4225.128, 4153.333, 4186.154, 4169.744, 0, 0, []
1627749506.9896, 39, 0, 4161.538, 4234.872, 4169.744, 4196.41, 4180, 0, 0, []
1627749506.9974, 40, 0, 4164.103, 4220.513, 4168.205, 4187.179, 4175.897, 0, 0, []
1627749507.0054, 41, 0, 4159.487, 4221.026, 4166.154, 4177.436, 4172.821, 0, 0, []
1627749507.0133, 42, 0, 4166.667, 4235.385, 4171.795, 4183.59, 4184.103, 0, 0, []
1627749507.0213, 43, 0, 4170.769, 4233.333, 4164.615, 4192.308, 4186.154, 0, 0, []
1627749507.0292, 44, 0, 4170.256, 4237.949, 4171.282, 4209.231, 4186.667, 0, 0, []
1627749507.0371, 45, 0, 4173.846, 4248.205, 4190.769, 4220, 4195.385, 0, 0, []
1627749507.045, 46, 0, 4167.179, 4235.385, 4180, 4203.077, 4185.641, 0, 0, []
1627749507.053, 47, 0, 4164.615, 4236.41, 4176.41, 4203.077, 4182.051, 0, 0, []
1627749507.0609, 48, 0, 4172.308, 4258.462, 4198.462, 4228.718, 4198.974, 0, 0, []
1627749507.0689, 49, 0, 4173.333, 4260, 4198.974, 4224.103, 4194.359, 0, 0, []
1627749507.0767, 50, 0, 4166.667, 4243.59, 4183.59, 4200.513, 4174.359, 0, 0, []
1627749507.0847, 51, 0, 4151.282, 4235.897, 4181.026, 4202.564, 4164.103, 0, 0, []
1627749507.0926, 52, 0, 4137.949, 4228.718, 4176.41, 4201.026, 4155.385, 0, 0, []
1627749507.1005, 53, 0, 4142.051, 4218.974, 4165.128, 4184.615, 4151.282, 0, 0, []
1627749507.1084, 54, 0, 4153.333, 4222.564, 4165.128, 4190.256, 4163.59, 0, 0, []
1627749507.1162, 55, 0, 4162.051, 4234.359, 4171.795, 4202.051, 4173.846, 0, 0, []
1627749507.1242, 56, 0, 4165.641, 4235.897, 4169.231, 4191.282, 4164.103, 0, 0, []
1627749507.1321, 57, 0, 4157.436, 4226.154, 4163.077, 4178.462, 4154.872, 0, 0, []
1627749507.1401, 58, 0, 4147.692, 4222.564, 4163.077, 4182.051, 4160.513, 0, 0, []
1627749507.148, 59, 0, 4150.256, 4218.974, 4166.154, 4190.256, 4170.256, 0, 0, []
1627749507.1559, 60, 0, 4162.564, 4213.333, 4174.359, 4196.41, 4174.872, 0, 0, []
1627749507.1638, 61, 0, 4183.077, 4224.615, 4196.923, 4204.103, 4184.615, 0, 0, []
1627749507.1718, 62, 0, 4188.718, 4233.846, 4211.795, 4204.103, 4192.308, 0, 0, []
1627749507.1797, 63, 0, 4163.59, 4220.513, 4195.897, 4190.769, 4180, 0, 0, []
1627749507.1877, 64, 0, 4156.923, 4211.795, 4182.051, 4181.538, 4169.231, 450, 0, []
1627749507.1955, 65, 0, 4169.231, 4218.974, 4189.744, 4180, 4166.667, 450, 0, []
1627749507.2035, 66, 0, 4160.513, 4215.385, 4193.333, 4178.462, 4162.564, 16185, 0, []
1627749507.2114, 67, 0, 4150.256, 4210.769, 4188.205, 4180.513, 4167.692, 450, 0, []
1627749507.2194, 68, 0, 4156.923, 4218.974, 4187.179, 4186.667, 4170.256, 16182, 0, []
1627749507.2273, 69, 0, 4159.487, 4217.436, 4182.051, 4185.641, 4157.949, 450, 0, []
1627749507.2352, 70, 0, 4153.333, 4210.769, 4177.949, 4185.641, 4154.359, 16169, 0, []
1627749507.2431, 71, 0, 4148.718, 4212.821, 4182.564, 4185.641, 4157.436, 450, 0, []
1627749507.2511, 72, 0, 4144.615, 4213.333, 4184.103, 4173.846, 4148.718, 450, 0, []
1627749507.259, 73, 0, 4151.282, 4215.897, 4191.282, 4175.897, 4153.333, 16181, 0, []
1627749507.2668, 74, 0, 4161.026, 4215.385, 4203.077, 4192.308, 4169.744, 450, 0, []
1627749507.2746, 75, 0, 4148.205, 4195.385, 4186.667, 4184.103, 4158.974, 16196, 0, []
1627749507.2824, 76, 0, 4137.949, 4193.846, 4163.59, 4174.359, 4144.615, 450, 0, []
1627749507.2904, 77, 0, 4159.487, 4223.59, 4180.513, 4196.41, 4162.051, 450, 0, []
1627749507.2983, 78, 0, 4179.487, 4233.333, 4203.59, 4214.872, 4179.487, 450, 0, []
1627749507.3063, 79, 0, 4166.154, 4212.821, 4188.205, 4198.462, 4166.154, 16196, 0, []
1627749507.3141, 80, 0, 4148.718, 4201.538, 4166.667, 4175.897, 4149.231, 450, 0, []
1627749507.3221, 81, 0, 4149.744, 4201.538, 4164.615, 4174.872, 4149.744, 450, 0, []
1627749507.33, 82, 0, 4154.872, 4202.051, 4170.256, 4193.333, 4160, 450, 0, []
1627749507.338, 83, 0, 4155.385, 4203.59, 4170.769, 4204.615, 4168.205, 16196, 0, []
1627749507.3459, 84, 0, 4154.872, 4201.026, 4172.308, 4195.897, 4171.795, 450, 0, []
1627749507.3538, 85, 0, 4158.974, 4195.897, 4173.846, 4183.59, 4168.205, 450, 0, []
1627749507.3617, 86, 0, 4149.744, 4185.128, 4155.897, 4168.205, 4153.846, 450, 0, []
1627749507.3697, 87, 0, 4141.538, 4178.974, 4144.103, 4157.436, 4145.128, 16196, 0, []
1627749507.3776, 88, 0, 4159.487, 4195.385, 4164.103, 4175.897, 4162.051, 450, 0, []
1627749507.3856, 89, 0, 4167.692, 4200.513, 4168.718, 4187.692, 4171.795, 450, 0, []
1627749507.3934, 90, 0, 4150.256, 4182.051, 4148.718, 4172.821, 4156.41, 450, 0, []
1627749507.4012, 91, 0, 4147.179, 4178.974, 4146.667, 4165.641, 4150.256, 16196, 0, []
1627749507.4091, 92, 0, 4156.41, 4190.769, 4161.538, 4174.359, 4155.385, 450, 0, []
1627749507.4169, 93, 0, 4152.821, 4188.205, 4168.205, 4180.513, 4154.359, 450, 0, []
1627749507.4249, 94, 0, 4154.359, 4189.231, 4170.256, 4186.667, 4159.487, 450, 0, []
1627749507.4327, 95, 0, 4156.41, 4198.462, 4168.205, 4185.641, 4168.205, 16196, 0, []
1627749507.4407, 96, 0, 4152.308, 4201.538, 4167.179, 4178.974, 4169.231, 450, 0, []
1627749507.4486, 97, 0, 4166.154, 4206.154, 4175.897, 4186.154, 4170.769, 450, 0, []
1627749507.4566, 98, 0, 4169.744, 4198.462, 4167.692, 4186.667, 4163.077, 450, 0, []
1627749507.4645, 99, 0, 4158.974, 4185.128, 4152.308, 4177.436, 4149.744, 16196, 0, []
1627749507.4724, 100, 0, 4165.128, 4195.897, 4157.949, 4182.564, 4158.974, 450, 0, []
1627749507.4803, 101, 0, 4174.872, 4206.667, 4160.513, 4187.179, 4171.795, 450, 0, []
1627749507.4883, 102, 0, 4167.179, 4198.462, 4148.205, 4173.846, 4164.103, 450, 0, []
1627749507.4962, 103, 0, 4169.231, 4201.026, 4154.359, 4166.667, 4167.692, 16196, 0, []
1627749507.5042, 104, 0, 4189.231, 4211.795, 4169.744, 4179.487, 4187.692, 450, 0, []
1627749507.512, 105, 0, 4195.897, 4202.051, 4163.077, 4183.59, 4190.256, 450, 0, []
1627749507.52, 106, 0, 4196.41, 4197.949, 4156.41, 4181.026, 4185.128, 450, 0, []
1627749507.5279, 107, 0, 4205.641, 4212.308, 4168.205, 4190.256, 4197.949, 16196, 0, []
1627749507.5359, 108, 0, 4211.282, 4211.795, 4172.308, 4193.846, 4202.564, 450, 0, []
1627749507.5438, 109, 0, 4207.692, 4196.923, 4166.154, 4183.59, 4189.744, 450, 0, []
1627749507.5515, 110, 0, 4216.41, 4196.923, 4167.692, 4180, 4200, 450, 0, []
1627749507.5594, 111, 0, 4242.564, 4203.59, 4164.103, 4184.615, 4236.41, 16196, 0, []
1627749507.5672, 112, 0, 4285.128, 4200, 4154.872, 4184.103, 4281.538, 450, 0, []
1627749507.5751, 113, 0, 4345.641, 4196.923, 4161.538, 4178.462, 4342.051, 450, 0, []
1627749507.5829, 114, 0, 4412.308, 4202.051, 4170.256, 4172.821, 4412.821, 450, 0, []
1627749507.5908, 115, 0, 4473.333, 4213.846, 4171.795, 4173.846, 4470.256, 16196, 0, []
1627749507.5987, 116, 0, 4509.231, 4218.974, 4175.897, 4178.462, 4494.872, 450, 0, []
1627749507.6067, 117, 0, 4496.923, 4203.59, 4169.231, 4169.231, 4483.077, 450, 0, []
1627749507.6146, 118, 0, 4467.179, 4195.385, 4157.949, 4162.564, 4460.513, 450, 0, []
1627749507.6226, 119, 0, 4449.744, 4202.051, 4163.59, 4173.333, 4445.128, 16196, 0, []
1627749507.6304, 120, 0, 4426.154, 4201.026, 4167.179, 4178.462, 4424.103, 450, 0, []
1627749507.6384, 121, 0, 4397.949, 4198.462, 4154.359, 4171.282, 4398.462, 450, 0, []
1627749507.6463, 122, 0, 4375.385, 4203.077, 4149.231, 4169.744, 4372.821, 450, 0, []
1627749507.6543, 123, 0, 4351.282, 4204.103, 4156.41, 4172.821, 4351.282, 16196, 0, []
1627749507.6622, 124, 0, 4330.256, 4201.026, 4156.923, 4170.256, 4341.026, 450, 0, []
1627749507.6702, 125, 0, 4315.897, 4197.436, 4154.872, 4169.231, 4329.744, 450, 0, []
1627749507.678, 126, 0, 4303.59, 4203.59, 4170.769, 4183.077, 4310.769, 450, 0, []
1627749507.686, 127, 0, 4293.846, 4221.538, 4186.667, 4199.487, 4297.436, 16196, 0, []
1627749507.6939, 128, 0, 4276.923, 4218.462, 4181.538, 4190.256, 4282.051, 450, 0, []
1627749507.7017, 0, 0, 4256.41, 4197.949, 4169.744, 4171.795, 4258.974, 450, 0, []
1627749507.7096, 1, 0, 4244.103, 4197.949, 4164.615, 4170.769, 4241.026, 450, 0, []
1627749507.7173, 2, 0, 4222.051, 4204.103, 4164.103, 4169.744, 4216.41, 16186, 0, []
1627749507.7252, 3, 0, 4186.154, 4189.744, 4162.564, 4144.615, 4183.59, 450, 0, []
1627749507.733, 4, 0, 4172.821, 4183.077, 4160.513, 4130.256, 4173.333, 16182, 0, []
1627749507.741, 5, 0, 4188.718, 4201.026, 4166.667, 4159.487, 4186.154, 450, 0, []
1627749507.7489, 6, 0, 4184.103, 4204.615, 4172.308, 4182.564, 4181.538, 16166, 0, []
1627749507.7568, 7, 0, 4155.385, 4181.026, 4157.436, 4164.615, 4150.256, 450, 0, []
1627749507.7647, 8, 0, 4145.128, 4170.256, 4143.077, 4150.256, 4133.333, 450, 0, []
1627749507.7727, 9, 0, 4152.308, 4183.077, 4151.282, 4158.462, 4138.462, 16181, 0, []
1627749507.7806, 10, 0, 4151.795, 4191.795, 4156.41, 4158.974, 4142.564, 450, 0, []
1627749507.7886, 11, 0, 4147.179, 4184.103, 4145.641, 4148.718, 4134.872, 16196, 0, []
1627749507.7964, 12, 0, 4140, 4171.282, 4128.718, 4142.051, 4116.41, 450, 0, []
1627749507.8044, 13, 0, 4122.564, 4168.205, 4119.487, 4136.41, 4100, 450, 0, []
1627749507.8123, 14, 0, 4122.564, 4172.308, 4137.949, 4137.949, 4108.205, 450, 0, []
1627749507.8203, 15, 0, 4136.41, 4173.846, 4156.41, 4143.59, 4122.051, 16196, 0, []
1627749507.8282, 16, 0, 4133.333, 4168.205, 4148.205, 4142.051, 4112.308, 0, 0, []
1627749507.8359, 17, 0, 4123.59, 4166.667, 4142.564, 4141.026, 4107.692, 0, 0, []
1627749507.8438, 18, 0, 4132.821, 4176.41, 4157.436, 4154.872, 4129.744, 0, 0, []
1627749507.8516, 19, 0, 4150.256, 4188.205, 4172.308, 4171.282, 4146.154, 0, 0, []
1627749507.8595, 20, 0, 4154.872, 4190.256, 4172.308, 4171.795, 4137.949, 0, 0, []
1627749507.8673, 21, 0, 4152.821, 4186.667, 4164.615, 4169.744, 4130.769, 0, 0, []
1627749507.8751, 22, 0, 4146.667, 4187.179, 4160.513, 4168.718, 4127.179, 0, 0, []
1627749507.8829, 23, 0, 4128.718, 4181.538, 4152.821, 4156.41, 4112.308, 0, 0, []
1627749507.8908, 24, 0, 4119.487, 4175.385, 4138.462, 4149.231, 4105.128, 0, 0, []
1627749507.8986, 25, 0, 4137.436, 4183.59, 4136.923, 4160, 4118.974, 0, 0, []
1627749507.9066, 26, 0, 4158.462, 4195.897, 4150.256, 4170.769, 4137.949, 0, 0, []
1627749507.9144, 27, 0, 4167.179, 4199.487, 4159.487, 4174.872, 4152.821, 0, 0, []
1627749507.9224, 28, 0, 4172.308, 4202.051, 4157.436, 4176.923, 4157.436, 0, 0, []
1627749507.9303, 29, 0, 4172.308, 4204.615, 4154.872, 4172.308, 4148.205, 0, 0, []
1627749507.9383, 30, 0, 4167.179, 4201.026, 4161.026, 4167.692, 4137.436, 0, 0, []
1627749507.9462, 31, 0, 4167.179, 4206.154, 4170.769, 4176.41, 4137.436, 0, 0, []
1627749507.9541, 32, 0, 4167.692, 4215.385, 4173.333, 4186.667, 4137.949, 0, 0, []
1627749507.962, 33, 0, 4167.692, 4207.179, 4167.179, 4183.077, 4134.359, 0, 0, []
1627749507.97, 34, 0, 4170.256, 4196.923, 4165.641, 4180, 4136.923, 0, 0, []
1627749507.9779, 35, 0, 4162.564, 4200.513, 4168.205, 4185.128, 4138.974, 0, 0, []
1627749507.9859, 36, 0, 4157.436, 4200.513, 4168.718, 4185.128, 4133.846, 0, 0, []
1627749507.9937, 37, 0, 4169.744, 4195.385, 4171.282, 4184.103, 4137.949, 0, 0, []
1627749508.0015, 38, 0, 4178.462, 4201.538, 4174.359, 4188.718, 4153.333, 0, 0, []
1627749508.0094, 39, 0, 4171.795, 4209.231, 4168.718, 4184.615, 4155.385, 0, 0, []
1627749508.0172, 40, 0, 4167.179, 4214.359, 4163.59, 4179.487, 4148.718, 0, 0, []
1627749508.0251, 41, 0, 4170.769, 4222.564, 4170.256, 4193.333, 4154.872, 0, 0, []
1627749508.0328, 42, 0, 4171.282, 4219.487, 4170.256, 4204.103, 4151.282, 0, 0, []
1627749508.0408, 43, 0, 4168.718, 4212.821, 4163.59, 4198.974, 4141.538, 0, 0, []
1627749508.0487, 44, 0, 4169.744, 4221.026, 4162.564, 4198.974, 4148.718, 0, 0, []
1627749508.0567, 45, 0, 4175.897, 4226.154, 4160.513, 4203.59, 4154.359, 0, 0, []
1627749508.0646, 46, 0, 4179.487, 4218.462, 4153.846, 4198.462, 4144.103, 0, 0, []
1627749508.0725, 47, 0, 4172.308, 4213.846, 4154.359, 4195.385, 4136.41, 0, 0, []
1627749508.0804, 48, 0, 4168.718, 4216.923, 4157.436, 4197.436, 4138.462, 0, 0, []
1627749508.0884, 49, 0, 4171.795, 4220.513, 4150.256, 4193.333, 4140, 0, 0, []
1627749508.0963, 50, 0, 4162.051, 4213.846, 4142.564, 4188.718, 4132.308, 0, 0, []
1627749508.1043, 51, 0, 4146.667, 4199.487, 4142.564, 4188.718, 4123.59, 0, 0, []
1627749508.1121, 52, 0, 4150.256, 4196.923, 4140, 4183.59, 4128.205, 0, 0, []
1627749508.1201, 53, 0, 4155.897, 4206.667, 4140, 4181.538, 4138.974, 0, 0, []
1627749508.128, 54, 0, 4145.128, 4198.462, 4145.641, 4184.103, 4132.821, 0, 0, []
1627749508.1358, 55, 0, 4135.385, 4181.026, 4146.667, 4176.923, 4119.487, 0, 0, []
1627749508.1437, 56, 0, 4136.41, 4178.974, 4141.538, 4165.641, 4117.436, 0, 0, []
1627749508.1514, 57, 0, 4142.564, 4188.718, 4142.564, 4166.154, 4125.641, 0, 0, []
1627749508.1593, 58, 0, 4149.231, 4195.385, 4137.436, 4168.205, 4128.205, 0, 0, []
1627749508.1671, 59, 0, 4152.821, 4196.41, 4128.205, 4165.128, 4119.487, 0, 0, []
1627749508.175, 60, 0, 4154.359, 4203.077, 4144.103, 4175.385, 4125.128, 0, 0, []
1627749508.1828, 61, 0, 4154.872, 4205.641, 4155.385, 4191.795, 4141.026, 0, 0, []
1627749508.1906, 62, 0, 4155.385, 4190.769, 4132.821, 4189.744, 4139.487, 0, 0, []
1627749508.1984, 63, 0, 4152.821, 4178.974, 4123.077, 4179.487, 4131.282, 0, 0, []
1627749508.2064, 64, 0, 4150.769, 4194.359, 4146.667, 4177.949, 4135.897, 450, 0, []
1627749508.2143, 65, 0, 4153.333, 4205.128, 4160, 4175.897, 4138.974, 450, 0, []
1627749508.2223, 66, 0, 4152.308, 4189.744, 4154.872, 4173.333, 4134.872, 16187, 0, []
1627749508.2301, 67, 0, 4142.564, 4180.513, 4150.769, 4181.026, 4137.436, 450, 0, []
1627749508.2381, 68, 0, 4134.359, 4185.128, 4143.077, 4185.641, 4134.872, 16182, 0, []
1627749508.246, 69, 0, 4141.026, 4182.564, 4142.051, 4181.538, 4131.795, 450, 0, []
1627749508.254, 70, 0, 4163.077, 4183.077, 4155.897, 4184.615, 4144.615, 16166, 0, []
1627749508.2619, 71, 0, 4174.359, 4192.308, 4154.872, 4186.154, 4151.282, 450, 0, []
1627749508.2698, 72, 0, 4149.744, 4182.051, 4132.308, 4169.231, 4128.718, 450, 0, []
1627749508.2777, 73, 0, 4135.897, 4174.359, 4135.897, 4166.154, 4118.974, 16181, 0, []
1627749508.2857, 74, 0, 4164.103, 4194.872, 4160.513, 4187.179, 4147.179, 450, 0, []
1627749508.2936, 75, 0, 4173.846, 4196.41, 4156.41, 4186.154, 4155.897, 16196, 0, []
1627749508.3014, 76, 0, 4151.282, 4176.923, 4137.949, 4169.231, 4136.41, 450, 0, []
1627749508.3092, 77, 0, 4143.077, 4176.41, 4131.282, 4166.667, 4128.205, 450, 0, []
1627749508.317, 78, 0, 4159.487, 4185.641, 4131.282, 4176.41, 4143.077, 450, 0, []
1627749508.3249, 79, 0, 4179.487, 4184.615, 4143.59, 4189.744, 4162.051, 16196, 0, []
1627749508.3327, 80, 0, 4181.026, 4181.026, 4145.128, 4190.769, 4164.103, 450, 0, []
1627749508.3407, 81, 0, 4169.231, 4178.462, 4131.795, 4178.974, 4151.795, 450, 0, []
1627749508.3485, 82, 0, 4166.667, 4180.513, 4137.949, 4177.949, 4151.282, 450, 0, []
1627749508.3565, 83, 0, 4168.718, 4186.667, 4157.436, 4185.128, 4160, 16196, 0, []
1627749508.3644, 84, 0, 4170.769, 4190.769, 4166.667, 4185.128, 4161.026, 450, 0, []
1627749508.3724, 85, 0, 4169.744, 4188.718, 4164.615, 4178.974, 4155.897, 450, 0, []
1627749508.3803, 86, 0, 4152.308, 4177.949, 4154.872, 4170.256, 4142.564, 450, 0, []
1627749508.3882, 87, 0, 4143.077, 4173.846, 4150.769, 4168.205, 4133.846, 16196, 0, []
1627749508.3961, 88, 0, 4155.897, 4182.051, 4159.487, 4173.846, 4141.026, 450, 0, []
1627749508.4041, 89, 0, 4155.385, 4181.026, 4154.359, 4170.769, 4140.513, 450, 0, []
1627749508.412, 90, 0, 4148.718, 4180.513, 4146.667, 4165.641, 4131.795, 450, 0, []
1627749508.42, 91, 0, 4157.949, 4198.974, 4155.385, 4172.308, 4140, 16196, 0, []
1627749508.4278, 92, 0, 4158.462, 4204.615, 4162.564, 4175.897, 4154.359, 450, 0, []
1627749508.4357, 93, 0, 4152.821, 4185.128, 4160.513, 4173.333, 4148.718, 450, 0, []
1627749508.4436, 94, 0, 4151.282, 4174.872, 4151.795, 4175.897, 4134.872, 450, 0, []
1627749508.4515, 95, 0, 4144.103, 4183.59, 4151.282, 4179.487, 4133.333, 16196, 0, []
1627749508.4595, 96, 0, 4144.103, 4189.744, 4157.436, 4172.821, 4133.846, 450, 0, []
1627749508.4673, 97, 0, 4155.385, 4185.641, 4149.231, 4158.974, 4127.179, 450, 0, []
1627749508.4751, 98, 0, 4148.205, 4180, 4135.897, 4150.256, 4120.513, 450, 0, []
1627749508.4829, 99, 0, 4124.103, 4169.231, 4123.077, 4136.923, 4105.641, 16196, 0, []
1627749508.4908, 100, 0, 4122.564, 4164.103, 4119.487, 4131.795, 4102.051, 450, 0, []
1627749508.4986, 101, 0, 4143.077, 4178.974, 4142.051, 4157.949, 4128.205, 450, 0, []
1627749508.5065, 102, 0, 4147.179, 4189.744, 4151.795, 4177.436, 4137.436, 450, 0, []
1627749508.5142, 103, 0, 4135.385, 4183.59, 4134.872, 4166.667, 4118.974, 16196, 0, []
1627749508.5221, 104, 0, 4138.462, 4183.077, 4134.872, 4164.615, 4121.538, 450, 0, []
1627749508.5299, 105, 0, 4146.667, 4186.667, 4142.051, 4174.872, 4131.282, 450, 0, []
1627749508.5379, 106, 0, 4138.974, 4183.59, 4127.179, 4167.692, 4119.487, 450, 0, []
1627749508.5458, 107, 0, 4137.436, 4182.564, 4122.564, 4155.897, 4117.436, 16196, 0, []
1627749508.5537, 108, 0, 4143.59, 4180, 4129.231, 4151.795, 4122.564, 450, 0, []
1627749508.5616, 109, 0, 4134.359, 4170.256, 4123.59, 4141.538, 4109.231, 450, 0, []
1627749508.5696, 110, 0, 4125.641, 4166.667, 4122.051, 4135.385, 4105.641, 450, 0, []
1627749508.5775, 111, 0, 4131.795, 4167.179, 4119.487, 4137.436, 4117.436, 16196, 0, []
1627749508.5855, 112, 0, 4128.205, 4167.692, 4103.077, 4135.897, 4117.949, 450, 0, []
1627749508.5933, 113, 0, 4114.872, 4166.154, 4099.487, 4133.333, 4112.821, 450, 0, []
1627749508.6011, 114, 0, 4122.564, 4159.487, 4116.923, 4142.564, 4123.077, 450, 0, []
1627749508.609, 115, 0, 4135.897, 4161.538, 4126.154, 4151.282, 4135.897, 16196, 0, []
1627749508.6168, 116, 0, 4136.41, 4177.949, 4127.692, 4154.359, 4136.923, 450, 0, []
1627749508.6247, 117, 0, 4145.128, 4185.128, 4136.41, 4160.513, 4136.923, 450, 0, []
1627749508.6324, 118, 0, 4155.385, 4182.051, 4139.487, 4161.026, 4138.462, 450, 0, []
1627749508.6403, 119, 0, 4151.795, 4185.641, 4131.282, 4154.359, 4139.487, 16196, 0, []
1627749508.6481, 120, 0, 4155.385, 4189.231, 4126.154, 4150.256, 4143.077, 450, 0, []
1627749508.6561, 121, 0, 4167.692, 4182.051, 4122.051, 4151.795, 4149.744, 450, 0, []
1627749508.664, 122, 0, 4176.923, 4173.333, 4118.462, 4153.846, 4165.128, 450, 0, []
1627749508.6719, 123, 0, 4187.692, 4174.872, 4130.769, 4155.385, 4186.667, 16196, 0, []
1627749508.6798, 124, 0, 4203.077, 4188.718, 4144.615, 4155.897, 4203.077, 450, 0, []
1627749508.6878, 125, 0, 4220, 4202.051, 4138.974, 4160.513, 4213.333, 450, 0, []
1627749508.6957, 126, 0, 4235.897, 4202.564, 4135.385, 4170.256, 4221.538, 450, 0, []
1627749508.7037, 127, 0, 4237.949, 4192.821, 4148.718, 4175.385, 4221.026, 16196, 0, []
1627749508.7115, 128, 0, 4224.103, 4187.179, 4149.744, 4173.846, 4212.821, 450, 0, []
1627749508.7195, 0, 0, 4219.487, 4193.846, 4145.641, 4168.205, 4207.692, 450, 0, []
1627749508.7274, 1, 0, 4235.897, 4204.615, 4157.949, 4170.256, 4214.359, 450, 0, []
1627749508.7354, 2, 0, 4255.385, 4206.667, 4166.667, 4172.821, 4229.744, 16187, 0, []
1627749508.7433, 3, 0, 4260, 4202.051, 4161.538, 4159.487, 4237.436, 450, 0, []
1627749508.751, 4, 0, 4270.256, 4201.538, 4162.564, 4144.103, 4250.769, 16182, 0, []
1627749508.7589, 5, 0, 4318.462, 4205.641, 4175.897, 4150.769, 4302.051, 450, 0, []
1627749508.7667, 6, 0, 4368.718, 4197.949, 4170.256, 4159.487, 4353.333, 16166, 0, []
1627749508.7746, 7, 0, 4385.128, 4185.128, 4145.641, 4147.179, 4375.385, 450, 0, []
1627749508.7824, 8, 0, 4402.564, 4183.59, 4135.385, 4139.487, 4405.641, 450, 0, []
1627749508.7902, 9, 0, 4439.487, 4184.103, 4143.077, 4152.821, 4442.051, 16180, 0, []
1627749508.798, 10, 0, 4476.923, 4184.615, 4164.103, 4175.897, 4468.718, 450, 0, []
1627749508.8059, 11, 0, 4488.205, 4184.103, 4174.359, 4189.744, 4485.128, 16196, 0, []
1627749508.8137, 12, 0, 4457.436, 4166.667, 4155.897, 4176.923, 4473.333, 450, 0, []
1627749508.8216, 13, 0, 4431.282, 4158.462, 4147.179, 4168.205, 4456.923, 450, 0, []
1627749508.8293, 14, 0, 4446.667, 4175.897, 4177.949, 4192.821, 4474.872, 450, 0, []
1627749508.8373, 15, 0, 4449.231, 4184.615, 4194.359, 4209.231, 4478.462, 16196, 0, []
1627749508.8452, 16, 0, 4410.769, 4183.59, 4168.205, 4188.205, 4445.128, 0, 0, []
1627749508.8532, 17, 0, 4377.949, 4184.615, 4152.821, 4173.333, 4426.154, 0, 0, []
1627749508.8611, 18, 0, 4359.487, 4173.333, 4159.487, 4181.538, 4416.41, 0, 0, []
1627749508.869, 19, 0, 4338.974, 4165.641, 4169.231, 4186.154, 4397.436, 0, 0, []
1627749508.8769, 20, 0, 4316.41, 4169.744, 4170.256, 4184.615, 4374.872, 0, 0, []
1627749508.8849, 21, 0, 4289.744, 4169.744, 4152.308, 4184.103, 4344.615, 0, 0, []
1627749508.8928, 22, 0, 4258.462, 4172.821, 4135.385, 4185.128, 4312.308, 0, 0, []
1627749508.9006, 23, 0, 4227.179, 4183.59, 4144.615, 4189.744, 4280.513, 0, 0, []
1627749508.9084, 24, 0, 4207.179, 4189.231, 4164.103, 4195.897, 4251.282, 0, 0, []
1627749508.9162, 25, 0, 4191.282, 4184.615, 4169.231, 4201.538, 4229.744, 0, 0, []
1627749508.9241, 26, 0, 4156.41, 4176.923, 4166.154, 4205.128, 4197.949, 0, 0, []
1627749508.9319, 27, 0, 4113.333, 4171.795, 4170.256, 4202.051, 4148.718, 0, 0, []
1627749508.9398, 28, 0, 4089.231, 4170.256, 4170.256, 4192.821, 4107.179, 0, 0, []
1627749508.9475, 29, 0, 4072.821, 4175.897, 4157.949, 4184.103, 4075.385, 0, 0, []
1627749508.9554, 30, 0, 4047.179, 4188.718, 4154.359, 4183.59, 4041.538, 0, 0, []
1627749508.9632, 31, 0, 4028.205, 4187.692, 4151.282, 4186.667, 4020, 0, 0, []
1627749508.9711, 32, 0, 4014.359, 4168.205, 4135.385, 4180.513, 3999.487, 0, 0, []
1627749508.9789, 33, 0, 4004.615, 4176.41, 4135.385, 4180, 3982.564, 0, 0, []
1627749508.9868, 34, 0, 4005.128, 4199.487, 4152.308, 4188.205, 3987.179, 0, 0, []
1627749508.9947, 35, 0, 4014.359, 4195.385, 4160.513, 4181.026, 3996.923, 0, 0, []
1627749509.0027, 36, 0, 4025.641, 4191.795, 4167.692, 4172.308, 4000.513, 0, 0, []
1627749509.0106, 37, 0, 4032.308, 4201.538, 4173.333, 4181.026, 3998.974, 0, 0, []
1627749509.0186, 38, 0, 4034.872, 4201.026, 4157.949, 4188.718, 3992.821, 0, 0, []
1627749509.0264, 39, 0, 4036.923, 4201.026, 4137.949, 4184.103, 3991.795, 0, 0, []
1627749509.0344, 40, 0, 4031.282, 4197.436, 4129.231, 4174.872, 3989.231, 0, 0, []
1627749509.0423, 41, 0, 4022.051, 4174.359, 4127.179, 4168.718, 3977.949, 0, 0, []
1627749509.0503, 42, 0, 4024.103, 4165.128, 4131.795, 4170.769, 3978.974, 0, 0, []
1627749509.0582, 43, 0, 4033.846, 4181.026, 4142.051, 4176.41, 3991.795, 0, 0, []
1627749509.0659, 44, 0, 4041.538, 4194.872, 4149.231, 4179.487, 3993.333, 0, 0, []
1627749509.0738, 45, 0, 4042.051, 4200.513, 4144.615, 4181.026, 3987.692, 0, 0, []
1627749509.0816, 46, 0, 4036.41, 4203.077, 4128.718, 4176.41, 3988.205, 0, 0, []
1627749509.0895, 47, 0, 4041.026, 4199.487, 4112.308, 4167.179, 3995.897, 0, 0, []
1627749509.0973, 48, 0, 4054.359, 4198.974, 4117.436, 4163.59, 4007.179, 0, 0, []
1627749509.1051, 49, 0, 4065.128, 4203.59, 4142.564, 4176.923, 4017.436, 0, 0, []
1627749509.1129, 50, 0, 4075.385, 4202.564, 4164.103, 4197.436, 4028.718, 0, 0, []
1627749509.1208, 51, 0, 4071.282, 4202.051, 4163.077, 4196.923, 4025.641, 0, 0, []
1627749509.1286, 52, 0, 4057.436, 4208.205, 4150.256, 4182.051, 4007.179, 0, 0, []
1627749509.1366, 53, 0, 4068.205, 4217.436, 4154.359, 4180.513, 4009.231, 0, 0, []
1627749509.1444, 54, 0, 4077.436, 4215.897, 4156.41, 4181.026, 4020.513, 0, 0, []
1627749509.1524, 55, 0, 4065.128, 4208.718, 4137.949, 4166.667, 4015.385, 0, 0, []
1627749509.1603, 56, 0, 4062.051, 4207.692, 4125.641, 4154.872, 4006.667, 0, 0, []
1627749509.1683, 57, 0, 4065.641, 4209.231, 4132.821, 4158.462, 4007.179, 0, 0, []
1627749509.1762, 58, 0, 4062.051, 4214.359, 4141.538, 4166.667, 4008.718, 0, 0, []
1627749509.1841, 59, 0, 4062.051, 4215.385, 4144.103, 4165.641, 4010.769, 0, 0, []
1627749509.192, 60, 0, 4083.59, 4214.359, 4152.308, 4165.641, 4027.692, 0, 0, []
1627749509.2, 61, 0, 4108.718, 4219.487, 4163.59, 4174.359, 4053.333, 0, 0, []
1627749509.2079, 62, 0, 4105.128, 4214.359, 4156.41, 4165.128, 4056.923, 0, 0, []
1627749509.2159, 63, 0, 4088.718, 4197.436, 4141.538, 4151.795, 4043.59, 0, 0, []
1627749509.2238, 64, 0, 4103.077, 4200, 4147.692, 4167.179, 4054.872, 450, 0, []
1627749509.2315, 65, 0, 4119.487, 4207.179, 4158.974, 4175.897, 4072.821, 450, 0, []
1627749509.2394, 66, 0, 4113.846, 4202.564, 4160.513, 4168.718, 4070.769, 16187, 0, []
1627749509.2472, 67, 0, 4129.231, 4217.436, 4173.333, 4186.154, 4085.128, 450, 0, []
1627749509.2551, 68, 0, 4151.795, 4235.385, 4184.615, 4206.667, 4109.744, 16182, 0, []
1627749509.2629, 69, 0, 4148.718, 4224.615, 4171.282, 4193.846, 4108.205, 450, 0, []
1627749509.2707, 70, 0, 4130.769, 4210.769, 4160, 4177.949, 4092.821, 16166, 0, []
1627749509.2785, 71, 0, 4113.846, 4215.897, 4171.282, 4186.154, 4097.436, 450, 0, []
1627749509.2865, 72, 0, 4095.385, 4215.385, 4172.821, 4185.128, 4102.564, 450, 0, []
1627749509.2944, 73, 0, 4087.692, 4206.154, 4162.051, 4174.872, 4093.846, 16179, 0, []
1627749509.3024, 74, 0, 4116.41, 4225.128, 4181.026, 4198.462, 4115.385, 450, 0, []
1627749509.3102, 75, 0, 4140.513, 4249.231, 4193.846, 4220.513, 4137.949, 16200, 0, []
1627749509.3182, 76, 0, 4124.615, 4238.462, 4168.718, 4201.026, 4116.41, 450, 0, []
1627749509.3261, 77, 0, 4110.256, 4218.974, 4160, 4190.769, 4104.615, 450, 0, []
1627749509.3341, 78, 0, 4118.462, 4213.333, 4171.795, 4204.615, 4124.103, 450, 0, []
1627749509.342, 79, 0, 4111.795, 4200, 4158.974, 4197.436, 4125.128, 16200, 0, []
1627749509.3499, 80, 0, 4104.103, 4192.308, 4150.769, 4192.821, 4121.026, 450, 0, []
1627749509.3578, 81, 0, 4109.231, 4192.821, 4159.487, 4201.026, 4127.692, 450, 0, []
1627749509.3656, 82, 0, 4095.897, 4173.333, 4148.718, 4181.538, 4115.385, 450, 0, []
1627749509.3735, 83, 0, 4081.538, 4159.487, 4141.538, 4162.051, 4107.179, 16200, 0, []
1627749509.3813, 84, 0, 4089.744, 4171.282, 4151.795, 4170.256, 4117.949, 450, 0, []
1627749509.3891, 85, 0, 4103.077, 4178.462, 4157.949, 4184.103, 4130.256, 450, 0, []
1627749509.3969, 86, 0, 4102.051, 4163.59, 4151.795, 4183.59, 4133.846, 450, 0, []
1627749509.4048, 87, 0, 4091.795, 4154.359, 4138.462, 4173.846, 4126.667, 16200, 0, []
1627749509.4126, 88, 0, 4098.462, 4163.077, 4148.718, 4179.487, 4132.821, 450, 0, []
1627749509.4205, 89, 0, 4109.744, 4161.026, 4169.744, 4188.718, 4143.077, 450, 0, []
1627749509.4282, 90, 0, 4100, 4140, 4152.821, 4173.333, 4124.615, 450, 0, []
1627749509.4361, 91, 0, 4106.154, 4131.795, 4146.154, 4172.821, 4127.692, 16200, 0, []
1627749509.444, 92, 0, 4136.923, 4141.538, 4175.385, 4198.974, 4164.103, 450, 0, []
1627749509.4519, 93, 0, 4143.077, 4148.205, 4181.026, 4206.667, 4165.641, 450, 0, []
1627749509.4599, 94, 0, 4138.462, 4148.718, 4169.744, 4209.744, 4152.308, 450, 0, []
1627749509.4678, 95, 0, 4140, 4141.538, 4167.179, 4212.308, 4156.41, 16200, 0, []
1627749509.4757, 96, 0, 4123.077, 4131.795, 4157.436, 4188.718, 4143.077, 450, 0, []
1627749509.4837, 97, 0, 4111.795, 4130.769, 4144.615, 4182.564, 4131.795, 450, 0, []
1627749509.4916, 98, 0, 4130.769, 4138.462, 4158.462, 4208.718, 4150.256, 450, 0, []
1627749509.4996, 99, 0, 4146.154, 4142.564, 4182.051, 4215.897, 4161.538, 16200, 0, []
1627749509.5074, 100, 0, 4137.949, 4138.974, 4191.282, 4210.256, 4157.436, 450, 0, []
1627749509.5154, 101, 0, 4131.282, 4137.949, 4184.103, 4227.179, 4157.949, 450, 0, []
1627749509.5233, 102, 0, 4119.487, 4134.359, 4167.179, 4231.282, 4145.128, 450, 0, []
1627749509.5311, 103, 0, 4085.128, 4124.103, 4163.59, 4215.385, 4106.154, 16200, 0, []
1627749509.539, 104, 0, 4061.538, 4115.897, 4163.59, 4205.128, 4087.179, 450, 0, []
1627749509.5467, 105, 0, 4071.795, 4096.41, 4141.026, 4183.077, 4102.051, 450, 0, []
1627749509.5546, 106, 0, 4122.051, 4088.718, 4141.538, 4181.538, 4133.846, 450, 0, []
1627749509.5624, 107, 0, 4210.769, 4125.641, 4201.538, 4235.385, 4201.026, 16200, 0, []
1627749509.5703, 108, 0, 4287.692, 4145.641, 4234.872, 4266.667, 4275.897, 450, 0, []
1627749509.5781, 109, 0, 4293.846, 4115.897, 4211.795, 4231.795, 4296.923, 450, 0, []
1627749509.5859, 110, 0, 4280, 4103.59, 4204.615, 4203.59, 4280, 450, 0, []
1627749509.5937, 111, 0, 4330.256, 4112.308, 4214.359, 4203.59, 4278.974, 16200, 0, []
1627749509.6016, 112, 0, 4394.359, 4098.974, 4205.128, 4190.256, 4296.923, 450, 0, []
1627749509.6094, 113, 0, 4409.231, 4087.179, 4210.769, 4177.949, 4307.179, 450, 0, []
1627749509.6174, 114, 0, 4404.103, 4093.846, 4232.308, 4186.154, 4304.615, 450, 0, []
1627749509.6252, 115, 0, 4417.436, 4094.359, 4233.333, 4196.41, 4294.872, 16200, 0, []
1627749509.6332, 116, 0, 4437.949, 4084.615, 4227.692, 4195.897, 4289.744, 450, 0, []
1627749509.6411, 117, 0, 4447.179, 4076.923, 4231.795, 4187.692, 4285.128, 450, 0, []
1627749509.6491, 118, 0, 4449.231, 4080, 4236.41, 4190.256, 4288.205, 450, 0, []
1627749509.657, 119, 0, 4452.308, 4103.59, 4246.154, 4207.179, 4293.333, 16200, 0, []
1627749509.6649, 120, 0, 4451.282, 4129.744, 4261.538, 4222.051, 4276.923, 450, 0, []
1627749509.6728, 121, 0, 4424.103, 4122.051, 4251.282, 4219.487, 4247.692, 450, 0, []
1627749509.6808, 122, 0, 4391.282, 4099.487, 4227.179, 4212.821, 4223.59, 450, 0, []
1627749509.6887, 123, 0, 4386.154, 4096.41, 4237.436, 4223.59, 4218.462, 16200, 0, []
1627749509.6965, 124, 0, 4388.205, 4096.41, 4256.41, 4233.333, 4218.462, 450, 0, []
1627749509.7043, 125, 0, 4367.692, 4096.923, 4247.179, 4232.821, 4199.487, 450, 0, []
1627749509.7121, 126, 0, 4332.821, 4105.641, 4235.385, 4229.744, 4176.41, 450, 0, []
1627749509.72, 127, 0, 4313.333, 4101.538, 4234.359, 4223.59, 4168.205, 16200, 0, []
1627749509.7278, 128, 0, 4307.179, 4092.821, 4229.231, 4217.949, 4164.103, 450, 0, []
1627749509.7357, 0, 0, 4296.41, 4106.667, 4239.487, 4231.795, 4157.436, 450, 0, []
1627749509.7434, 1, 0, 4293.333, 4115.897, 4259.487, 4247.692, 4157.436, 450, 0, []
1627749509.7514, 2, 0, 4289.231, 4102.564, 4246.154, 4231.282, 4146.154, 16185, 0, []
1627749509.7593, 3, 0, 4282.051, 4108.205, 4222.564, 4219.487, 4130.769, 450, 0, []
1627749509.7673, 4, 0, 4282.564, 4128.205, 4228.718, 4236.41, 4137.949, 16182, 0, []
1627749509.7752, 5, 0, 4263.59, 4121.026, 4231.795, 4232.821, 4132.821, 450, 0, []
1627749509.7831, 6, 0, 4243.077, 4118.974, 4232.308, 4220.513, 4117.949, 16161, 0, []
1627749509.791, 7, 0, 4266.154, 4149.744, 4262.564, 4251.282, 4140, 450, 0, []
1627749509.799, 8, 0, 4283.59, 4158.462, 4269.744, 4272.308, 4149.744, 450, 0, []
1627749509.8069, 9, 0, 4258.462, 4132.308, 4230.769, 4237.949, 4118.974, 16179, 0, []
1627749509.8149, 10, 0, 4259.487, 4128.718, 4225.128, 4225.641, 4123.077, 450, 0, []
1627749509.8227, 11, 0, 4276.41, 4144.615, 4249.231, 4251.795, 4151.795, 16200, 0, []
1627749509.8307, 12, 0, 4258.462, 4143.077, 4240.513, 4250.256, 4138.462, 450, 0, []
1627749509.8386, 13, 0, 4238.974, 4132.308, 4226.154, 4229.744, 4116.923, 450, 0, []
1627749509.8464, 14, 0, 4229.231, 4131.282, 4227.179, 4226.667, 4109.231, 450, 0, []
1627749509.8543, 15, 0, 4217.949, 4132.308, 4223.077, 4217.436, 4091.795, 16200, 0, []
1627749509.862, 16, 0, 4211.795, 4138.462, 4221.026, 4200.513, 4089.744, 0, 0, []
1627749509.8699, 17, 0, 4214.359, 4149.744, 4233.846, 4206.154, 4104.615, 0, 0, []
1627749509.8777, 18, 0, 4229.744, 4157.949, 4244.103, 4223.077, 4107.692, 0, 0, []
1627749509.8856, 19, 0, 4248.718, 4157.949, 4240, 4223.077, 4104.615, 0, 0, []
1627749509.8934, 20, 0, 4255.897, 4157.436, 4231.795, 4216.41, 4107.692, 0, 0, []
1627749509.9013, 21, 0, 4231.282, 4155.385, 4221.538, 4209.231, 4098.462, 0, 0, []
1627749509.9092, 22, 0, 4202.051, 4145.641, 4213.333, 4196.923, 4079.487, 0, 0, []
1627749509.9172, 23, 0, 4207.692, 4138.462, 4215.385, 4196.41, 4077.436, 0, 0, []
1627749509.9251, 24, 0, 4218.462, 4142.564, 4216.41, 4196.923, 4076.923, 0, 0, []
1627749509.9331, 25, 0, 4210.769, 4152.308, 4208.718, 4188.205, 4070.256, 0, 0, []
1627749509.9409, 26, 0, 4218.462, 4153.846, 4203.59, 4192.821, 4078.462, 0, 0, []
1627749509.9489, 27, 0, 4236.923, 4138.974, 4193.846, 4194.359, 4079.487, 0, 0, []
1627749509.9568, 28, 0, 4229.744, 4135.385, 4177.436, 4175.897, 4064.103, 0, 0, []
1627749509.9648, 29, 0, 4230.769, 4158.974, 4182.051, 4177.436, 4071.282, 0, 0, []
1627749509.9727, 30, 0, 4235.897, 4167.179, 4181.026, 4190.256, 4084.615, 0, 0, []
1627749509.9807, 31, 0, 4217.436, 4148.205, 4160, 4177.436, 4071.282, 0, 0, []
1627749509.9885, 32, 0, 4235.897, 4160, 4183.077, 4188.718, 4082.051, 0, 0, []
1627749509.9963, 33, 0, 4277.436, 4189.231, 4225.641, 4224.615, 4110.769, 0, 0, []
1627749510.0042, 34, 0, 4259.487, 4170.256, 4203.077, 4208.205, 4091.795, 0, 0, []
1627749510.012, 35, 0, 4223.59, 4143.077, 4169.231, 4176.41, 4063.077, 0, 0, []
1627749510.0199, 36, 0, 4240.513, 4162.564, 4194.359, 4194.872, 4078.974, 0, 0, []
1627749510.0276, 37, 0, 4256.923, 4176.923, 4212.821, 4208.205, 4091.282, 0, 0, []
1627749510.0355, 38, 0, 4229.231, 4166.154, 4189.231, 4183.59, 4071.795, 0, 0, []
1627749510.0433, 39, 0, 4226.667, 4176.41, 4182.051, 4186.667, 4076.41, 0, 0, []
1627749510.0512, 40, 0, 4249.744, 4187.692, 4188.718, 4207.179, 4102.564, 0, 0, []
1627749510.059, 41, 0, 4224.615, 4170.769, 4172.821, 4187.179, 4084.615, 0, 0, []
1627749510.0668, 42, 0, 4185.128, 4163.077, 4155.385, 4157.436, 4043.077, 0, 0, []
1627749510.0746, 43, 0, 4201.026, 4179.487, 4162.051, 4161.538, 4050.769, 0, 0, []
1627749510.0826, 44, 0, 4225.641, 4190.769, 4182.051, 4175.385, 4083.59, 0, 0, []
1627749510.0905, 45, 0, 4222.051, 4188.718, 4198.462, 4179.487, 4087.692, 0, 0, []
1627749510.0985, 46, 0, 4231.795, 4196.923, 4199.487, 4191.795, 4087.692, 0, 0, []
1627749510.1063, 47, 0, 4242.051, 4212.821, 4192.821, 4202.564, 4102.051, 0, 0, []
1627749510.1143, 48, 0, 4223.59, 4207.179, 4184.103, 4194.359, 4097.436, 0, 0, []
1627749510.1222, 49, 0, 4210.769, 4190.769, 4172.308, 4181.538, 4081.538, 0, 0, []
1627749510.1302, 50, 0, 4225.641, 4196.923, 4174.872, 4183.077, 4097.436, 0, 0, []
1627749510.1381, 51, 0, 4229.744, 4204.615, 4185.128, 4187.179, 4108.205, 0, 0, []
1627749510.1458, 52, 0, 4215.385, 4196.923, 4181.538, 4181.538, 4088.205, 0, 0, []
1627749510.1537, 53, 0, 4221.538, 4203.59, 4182.051, 4186.154, 4088.205, 0, 0, []
1627749510.1615, 54, 0, 4235.897, 4213.846, 4182.564, 4190.769, 4100.513, 0, 0, []
1627749510.1694, 55, 0, 4215.897, 4200.513, 4164.615, 4171.282, 4079.487, 0, 0, []
1627749510.1772, 56, 0, 4196.41, 4197.436, 4167.692, 4165.641, 4069.744, 0, 0, []
1627749510.185, 57, 0, 4215.897, 4209.744, 4190.256, 4190.256, 4099.487, 0, 0, []
1627749510.1928, 58, 0, 4227.692, 4202.051, 4183.077, 4189.744, 4110.256, 0, 0, []
1627749510.2007, 59, 0, 4217.949, 4191.795, 4174.359, 4168.205, 4101.026, 0, 0, []
1627749510.2085, 60, 0, 4226.667, 4200.513, 4190.256, 4175.385, 4111.795, 0, 0, []
1627749510.2164, 61, 0, 4234.872, 4203.59, 4187.692, 4188.718, 4120.513, 0, 0, []
1627749510.2241, 62, 0, 4222.564, 4203.59, 4170.256, 4188.718, 4120, 0, 0, []
1627749510.2321, 63, 0, 4215.897, 4204.103, 4167.179, 4186.667, 4119.487, 0, 0, []
1627749510.24, 64, 0, 4216.923, 4190.769, 4168.718, 4178.974, 4110.256, 450, 0, []
1627749510.248, 65, 0, 4215.385, 4186.154, 4174.359, 4176.923, 4103.59, 450, 0, []
1627749510.2559, 66, 0, 4212.821, 4205.641, 4184.615, 4184.103, 4110.769, 16185, 0, []
1627749510.2638, 67, 0, 4200, 4205.128, 4175.385, 4175.385, 4106.154, 450, 0, []
1627749510.2717, 68, 0, 4181.538, 4185.128, 4151.282, 4154.872, 4081.538, 16182, 0, []
1627749510.2797, 69, 0, 4181.026, 4182.051, 4149.231, 4151.282, 4075.897, 450, 0, []
1627749510.2876, 70, 0, 4182.051, 4189.231, 4158.462, 4149.744, 4083.077, 16159, 0, []
1627749510.2956, 71, 0, 4173.846, 4187.179, 4148.718, 4141.026, 4078.974, 450, 0, []
1627749510.3034, 72, 0, 4165.641, 4178.462, 4127.692, 4133.333, 4069.744, 450, 0, []
1627749510.3112, 73, 0, 4158.974, 4175.897, 4115.897, 4122.564, 4072.308, 16179, 0, []
1627749510.3191, 74, 0, 4166.667, 4183.077, 4124.615, 4126.667, 4092.308, 450, 0, []
1627749510.3269, 75, 0, 4184.103, 4188.718, 4143.077, 4146.154, 4107.692, 16200, 0, []
1627749510.3348, 76, 0, 4189.744, 4187.692, 4156.923, 4156.41, 4107.179, 450, 0, []
1627749510.3425, 77, 0, 4180.513, 4181.538, 4154.872, 4155.897, 4106.154, 450, 0, []
1627749510.3504, 78, 0, 4170.256, 4173.333, 4142.051, 4150.256, 4107.692, 450, 0, []
1627749510.3582, 79, 0, 4164.615, 4173.846, 4144.103, 4137.949, 4103.59, 16200, 0, []
1627749510.3661, 80, 0, 4170.769, 4185.641, 4158.974, 4138.462, 4109.744, 450, 0, []
1627749510.3739, 81, 0, 4181.026, 4192.308, 4165.128, 4151.282, 4126.154, 450, 0, []
1627749510.3818, 82, 0, 4173.846, 4180, 4157.949, 4145.641, 4125.641, 450, 0, []
1627749510.3897, 83, 0, 4163.59, 4164.615, 4148.718, 4135.385, 4117.436, 16200, 0, []
1627749510.3977, 84, 0, 4166.154, 4171.282, 4145.128, 4140.513, 4119.487, 450, 0, []
1627749510.4056, 85, 0, 4164.103, 4186.667, 4142.564, 4144.615, 4126.667, 450, 0, []
1627749510.4136, 86, 0, 4160, 4187.692, 4131.282, 4137.949, 4130.769, 450, 0, []
1627749510.4214, 87, 0, 4171.795, 4189.744, 4125.641, 4137.949, 4131.795, 16200, 0, []
1627749510.4294, 88, 0, 4188.718, 4203.59, 4145.641, 4157.949, 4143.077, 450, 0, []
1627749510.4373, 89, 0, 4193.333, 4209.231, 4159.487, 4177.436, 4160.513, 450, 0, []
1627749510.4453, 90, 0, 4182.564, 4207.692, 4131.282, 4164.615, 4149.231, 450, 0, []
1627749510.4532, 91, 0, 4165.641, 4197.436, 4104.615, 4140, 4122.051, 16200, 0, []
1627749510.4609, 92, 0, 4163.077, 4185.128, 4111.795, 4135.385, 4124.103, 450, 0, []
1627749510.4688, 93, 0, 4175.385, 4188.718, 4120, 4140, 4138.462, 450, 0, []
1627749510.4766, 94, 0, 4185.641, 4198.974, 4119.487, 4143.59, 4136.923, 450, 0, []
1627749510.4845, 95, 0, 4184.615, 4200, 4131.795, 4150.769, 4138.462, 16200, 0, []
1627749510.4923, 96, 0, 4183.077, 4197.949, 4143.077, 4155.385, 4148.718, 450, 0, []
1627749510.5001, 97, 0, 4193.333, 4204.615, 4140.513, 4155.385, 4157.949, 450, 0, []
1627749510.5079, 98, 0, 4203.59, 4212.821, 4144.103, 4158.462, 4165.641, 450, 0, []
1627749510.5158, 99, 0, 4193.333, 4206.667, 4145.641, 4158.462, 4159.487, 16200, 0, []
1627749510.5236, 100, 0, 4182.051, 4196.41, 4130.769, 4155.897, 4147.179, 450, 0, []
1627749510.5315, 101, 0, 4185.128, 4192.821, 4119.487, 4153.333, 4150.256, 450, 0, []
1627749510.5392, 102, 0, 4195.897, 4195.897, 4123.077, 4153.333, 4157.949, 450, 0, []
1627749510.5472, 103, 0, 4206.667, 4198.462, 4128.205, 4155.385, 4160.513, 16200, 0, []
1627749510.5551, 104, 0, 4207.179, 4201.538, 4140, 4153.846, 4165.641, 450, 0, []
1627749510.5631, 105, 0, 4202.564, 4210.256, 4161.026, 4158.974, 4172.821, 450, 0, []
1627749510.571, 106, 0, 4205.128, 4218.462, 4172.308, 4164.615, 4171.795, 450, 0, []
1627749510.5789, 107, 0, 4212.821, 4220.513, 4172.821, 4159.487, 4171.795, 16200, 0, []
1627749510.5868, 108, 0, 4220, 4217.436, 4173.846, 4157.436, 4182.564, 450, 0, []
1627749510.5948, 109, 0, 4212.821, 4211.282, 4167.692, 4157.436, 4179.487, 450, 0, []
1627749510.6027, 110, 0, 4201.026, 4202.051, 4152.308, 4151.282, 4162.564, 450, 0, []
1627749510.6105, 111, 0, 4216.923, 4199.487, 4148.205, 4154.359, 4169.744, 16200, 0, []
1627749510.6183, 112, 0, 4236.41, 4197.949, 4153.333, 4158.974, 4190.256, 450, 0, []
1627749510.6261, 113, 0, 4236.41, 4196.41, 4156.923, 4147.692, 4198.974, 450, 0, []
1627749510.634, 114, 0, 4265.641, 4202.051, 4168.205, 4149.231, 4231.282, 450, 0, []
1627749510.6418, 115, 0, 4316.923, 4196.923, 4171.282, 4156.41, 4281.026, 16200, 0, []
1627749510.6497, 116, 0, 4345.128, 4187.179, 4148.205, 4143.077, 4307.179, 450, 0, []
1627749510.6574, 117, 0, 4383.077, 4195.385, 4134.359, 4138.974, 4346.154, 450, 0, []
1627749510.6653, 118, 0, 4444.615, 4211.282, 4147.179, 4160, 4415.897, 450, 0, []
1627749510.6731, 119, 0, 4481.026, 4212.308, 4153.333, 4173.846, 4460, 16200, 0, []
1627749510.681, 120, 0, 4484.615, 4205.128, 4137.949, 4165.641, 4475.385, 450, 0, []
1627749510.6888, 121, 0, 4481.538, 4201.538, 4125.641, 4156.41, 4493.333, 450, 0, []
1627749510.6968, 122, 0, 4476.41, 4196.41, 4133.333, 4154.359, 4494.359, 450, 0, []
1627749510.7046, 123, 0, 4453.846, 4188.718, 4141.026, 4146.667, 4463.59, 16200, 0, []
1627749510.7126, 124, 0, 4407.179, 4182.564, 4134.872, 4134.359, 4417.436, 450, 0, []
1627749510.7205, 125, 0, 4366.667, 4184.103, 4136.41, 4147.179, 4384.103, 450, 0, []
1627749510.7285, 126, 0, 4333.846, 4189.231, 4146.667, 4172.821, 4351.795, 450, 0, []
1627749510.7364, 127, 0, 4271.282, 4185.641, 4144.615, 4173.846, 4294.872, 16200, 0, []
1627749510.7443, 128, 0, 4205.641, 4182.051, 4135.385, 4169.231, 4232.821, 450, 0, []
1627749510.7522, 0, 0, 4181.026, 4194.359, 4130.769, 4178.974, 4200, 450, 0, []
1627749510.7602, 1, 0, 4165.641, 4202.564, 4128.205, 4179.487, 4181.026, 450, 0, []
1627749510.7681, 2, 0, 4139.487, 4189.231, 4125.128, 4168.718, 4155.385, 16185, 0, []
1627749510.776, 3, 0, 4132.821, 4179.487, 4130.769, 4170.769, 4142.564, 450, 0, []
1627749510.7838, 4, 0, 4136.923, 4186.154, 4139.487, 4167.179, 4136.923, 16182, 0, []
1627749510.7916, 5, 0, 4127.179, 4190.256, 4133.333, 4152.308, 4118.974, 450, 0, []
1627749510.7995, 6, 0, 4116.923, 4181.538, 4123.077, 4149.231, 4102.564, 16159, 0, []
1627749510.8073, 7, 0, 4123.077, 4176.41, 4122.564, 4152.821, 4101.026, 450, 0, []
1627749510.8152, 8, 0, 4131.282, 4181.026, 4121.026, 4150.256, 4101.538, 450, 0, []
1627749510.8229, 9, 0, 4122.564, 4181.026, 4105.641, 4150.256, 4089.231, 16179, 0, []
1627749510.8308, 10, 0, 4119.487, 4166.667, 4098.974, 4154.359, 4077.949, 450, 0, []
1627749510.8386, 11, 0, 4143.59, 4161.538, 4108.205, 4153.846, 4084.615, 16200, 0, []
1627749510.8466, 12, 0, 4166.667, 4178.974, 4111.282, 4151.282, 4093.333, 450, 0, []
1627749510.8545, 13, 0, 4170.769, 4190.256, 4108.205, 4151.282, 4094.359, 450, 0, []
1627749510.8624, 14, 0, 4174.872, 4182.564, 4106.667, 4153.846, 4098.462, 450, 0, []
1627749510.8703, 15, 0, 4189.744, 4176.923, 4106.667, 4159.487, 4108.205, 16200, 0, []
1627749510.8783, 16, 0, 4193.846, 4184.615, 4107.692, 4163.077, 4111.795, 0, 0, []
1627749510.8862, 17, 0, 4186.154, 4185.128, 4103.077, 4156.923, 4106.154, 0, 0, []
1627749510.8942, 18, 0, 4188.205, 4173.846, 4097.949, 4151.795, 4103.59, 0, 0, []
1627749510.902, 19, 0, 4201.538, 4182.564, 4107.179, 4158.462, 4110.769, 0, 0, []
1627749510.91, 20, 0, 4216.923, 4197.949, 4123.59, 4166.154, 4117.949, 0, 0, []
1627749510.9179, 21, 0, 4228.718, 4190.256, 4125.128, 4159.487, 4109.231, 0, 0, []
1627749510.9258, 22, 0, 4234.872, 4189.231, 4122.051, 4152.308, 4102.051, 0, 0, []
1627749510.9337, 23, 0, 4237.949, 4200, 4124.615, 4153.846, 4110.769, 0, 0, []
1627749510.9414, 24, 0, 4234.359, 4192.821, 4117.949, 4153.333, 4110.256, 0, 0, []
1627749510.9493, 25, 0, 4223.59, 4189.231, 4111.795, 4152.821, 4102.051, 0, 0, []
1627749510.9571, 26, 0, 4210.769, 4200.513, 4114.872, 4155.385, 4105.128, 0, 0, []
1627749510.965, 27, 0, 4202.564, 4195.385, 4108.718, 4148.718, 4108.718, 0, 0, []
1627749510.9728, 28, 0, 4202.564, 4183.59, 4099.487, 4135.897, 4102.564, 0, 0, []
1627749510.9806, 29, 0, 4212.308, 4190.256, 4107.179, 4136.923, 4105.641, 0, 0, []
1627749510.9884, 30, 0, 4217.949, 4189.231, 4108.205, 4142.564, 4112.308, 0, 0, []
1627749510.9964, 31, 0, 4219.487, 4177.949, 4091.795, 4138.974, 4111.282, 0, 0, []
1627749511.0043, 32, 0, 4220.513, 4182.564, 4101.538, 4149.231, 4114.359, 0, 0, []
1627749511.0123, 33, 0, 4205.641, 4188.205, 4126.154, 4157.949, 4111.795, 0, 0, []
1627749511.0201, 34, 0, 4200, 4178.462, 4124.615, 4147.692, 4106.667, 0, 0, []
1627749511.0281, 35, 0, 4215.897, 4173.846, 4112.821, 4146.154, 4104.103, 0, 0, []
1627749511.036, 36, 0, 4206.667, 4181.538, 4110.256, 4158.462, 4095.385, 0, 0, []
1627749511.044, 37, 0, 4180, 4186.667, 4108.205, 4157.436, 4092.308, 0, 0, []
1627749511.0519, 38, 0, 4182.564, 4185.641, 4105.128, 4149.744, 4104.615, 0, 0, []
1627749511.0598, 39, 0, 4188.718, 4186.667, 4107.692, 4151.795, 4114.872, 0, 0, []
1627749511.0677, 40, 0, 4175.385, 4187.179, 4112.308, 4155.385, 4118.462, 0, 0, []
1627749511.0755, 41, 0, 4164.103, 4185.128, 4118.974, 4154.872, 4124.615, 0, 0, []
1627749511.0834, 42, 0, 4154.359, 4187.179, 4127.179, 4154.872, 4120, 0, 0, []
1627749511.0912, 43, 0, 4146.667, 4184.615, 4122.051, 4150.256, 4113.333, 0, 0, []
1627749511.099, 44, 0, 4151.282, 4185.128, 4111.282, 4145.128, 4120.513, 0, 0, []
1627749511.1068, 45, 0, 4151.795, 4185.641, 4108.718, 4142.051, 4122.051, 0, 0, []
1627749511.1147, 46, 0, 4133.846, 4169.231, 4104.615, 4130.769, 4101.538, 0, 0, []
1627749511.1225, 47, 0, 4135.385, 4165.641, 4110.769, 4128.718, 4096.923, 0, 0, []
1627749511.1304, 48, 0, 4158.974, 4184.103, 4128.205, 4148.718, 4123.077, 0, 0, []
1627749511.1381, 49, 0, 4163.077, 4187.179, 4130.256, 4160, 4135.385, 0, 0, []
1627749511.146, 50, 0, 4155.385, 4174.872, 4124.615, 4158.974, 4129.744, 0, 0, []
1627749511.1538, 51, 0, 4150.256, 4162.051, 4120, 4152.308, 4123.077, 0, 0, []
1627749511.1618, 52, 0, 4135.897, 4142.051, 4101.026, 4135.385, 4114.359, 0, 0, []
1627749511.1697, 53, 0, 4139.487, 4141.538, 4100.513, 4140, 4123.077, 0, 0, []
1627749511.1776, 54, 0, 4169.231, 4162.564, 4130.256, 4174.359, 4148.718, 0, 0, []
1627749511.1855, 55, 0, 4163.077, 4152.821, 4126.667, 4172.308, 4145.128, 0, 0, []
1627749511.1935, 56, 0, 4127.179, 4130.256, 4107.692, 4144.615, 4116.923, 0, 0, []
1627749511.2014, 57, 0, 4133.333, 4137.949, 4117.949, 4151.282, 4121.026, 0, 0, []
1627749511.2094, 58, 0, 4162.051, 4144.103, 4121.026, 4158.974, 4142.564, 0, 0, []
1627749511.2172, 59, 0, 4170.769, 4133.333, 4116.923, 4149.744, 4151.795, 0, 0, []
1627749511.2252, 60, 0, 4169.231, 4132.821, 4123.077, 4157.436, 4161.538, 0, 0, []
1627749511.2331, 61, 0, 4170.769, 4143.59, 4128.718, 4168.205, 4171.795, 0, 0, []
1627749511.2411, 62, 0, 4167.692, 4142.564, 4133.333, 4162.564, 4165.128, 0, 0, []
1627749511.249, 63, 0, 4165.128, 4136.41, 4141.026, 4164.103, 4161.026, 0, 0, []
1627749511.2567, 64, 0, 4174.359, 4136.923, 4148.205, 4180.513, 4177.436, 450, 0, []
1627749511.2646, 65, 0, 4183.077, 4139.487, 4153.846, 4191.795, 4191.795, 450, 0, []
1627749511.2724, 66, 0, 4178.462, 4136.41, 4154.359, 4189.744, 4187.179, 16185, 0, []
1627749511.2803, 67, 0, 4163.077, 4127.179, 4138.974, 4175.385, 4168.205, 450, 0, []
1627749511.2881, 68, 0, 4153.846, 4122.051, 4125.128, 4167.179, 4160, 16182, 0, []
1627749511.2959, 69, 0, 4157.949, 4122.051, 4131.795, 4174.872, 4169.231, 450, 0, []
1627749511.3037, 70, 0, 4156.41, 4121.026, 4133.333, 4169.231, 4164.103, 16159, 0, []
1627749511.3116, 71, 0, 4148.205, 4117.436, 4122.051, 4148.718, 4148.205, 450, 0, []
1627749511.3194, 72, 0, 4148.718, 4122.051, 4120.513, 4145.641, 4155.897, 450, 0, []
1627749511.3274, 73, 0, 4146.667, 4129.231, 4120.513, 4153.846, 4170.256, 16179, 0, []
1627749511.3352, 74, 0, 4136.41, 4128.205, 4111.282, 4148.205, 4164.615, 450, 0, []
1627749511.3432, 75, 0, 4151.795, 4129.744, 4120, 4155.897, 4176.41, 16148, 0, []
1627749511.3511, 76, 0, 4177.436, 4137.949, 4143.077, 4181.538, 4201.026, 450, 0, []
1627749511.3591, 77, 0, 4164.103, 4141.026, 4142.564, 4177.436, 4190.256, 450, 0, []
1627749511.367, 78, 0, 4140, 4137.436, 4130.256, 4154.872, 4166.154, 450, 0, []
1627749511.3749, 79, 0, 4160.513, 4136.923, 4144.103, 4164.615, 4181.538, 16148, 0, []
1627749511.3828, 80, 0, 4180, 4142.564, 4161.026, 4175.385, 4201.538, 450, 0, []
1627749511.3906, 81, 0, 4139.487, 4136.41, 4136.923, 4144.103, 4170.256, 450, 0, []
1627749511.3985, 82, 0, 4125.641, 4132.821, 4131.282, 4138.462, 4162.051, 450, 0, []
1627749511.4063, 83, 0, 4182.564, 4149.231, 4169.744, 4183.59, 4213.333, 16148, 0, []
1627749511.4141, 84, 0, 4204.103, 4155.897, 4174.872, 4200, 4235.385, 450, 0, []
1627749511.4219, 85, 0, 4166.667, 4140.513, 4151.282, 4182.051, 4211.282, 450, 0, []
1627749511.4298, 86, 0, 4162.051, 4137.436, 4161.538, 4186.154, 4210.769, 450, 0, []
1627749511.4376, 87, 0, 4183.59, 4155.897, 4174.359, 4197.436, 4223.077, 16148, 0, []
1627749511.4455, 88, 0, 4166.667, 4157.436, 4149.231, 4175.385, 4202.051, 450, 0, []
1627749511.4534, 89, 0, 4154.872, 4145.128, 4138.974, 4165.128, 4192.821, 450, 0, []
1627749511.4612, 90, 0, 4180, 4155.385, 4163.077, 4194.872, 4216.41, 450, 0, []
1627749511.469, 91, 0, 4187.179, 4167.179, 4177.436, 4210.769, 4224.103, 16148, 0, []
1627749511.477, 92, 0, 4170.769, 4157.949, 4165.641, 4190.769, 4211.282, 450, 0, []
1627749511.4849, 93, 0, 4184.103, 4156.923, 4166.667, 4189.744, 4220.513, 450, 0, []
1627749511.4929, 94, 0, 4205.641, 4170.769, 4186.667, 4211.282, 4242.564, 450, 0, []
1627749511.5007, 95, 0, 4195.897, 4175.385, 4184.103, 4205.641, 4234.872, 16148, 0, []
1627749511.5087, 96, 0, 4183.59, 4169.744, 4163.077, 4189.231, 4217.949, 450, 0, []
1627749511.5166, 97, 0, 4170.769, 4155.385, 4148.205, 4182.564, 4208.718, 450, 0, []
1627749511.5246, 98, 0, 4163.077, 4152.308, 4161.538, 4191.282, 4211.282, 450, 0, []
1627749511.5325, 99, 0, 4193.846, 4175.897, 4207.692, 4223.077, 4236.923, 16148, 0, []
1627749511.5404, 100, 0, 4221.538, 4187.179, 4227.179, 4242.564, 4257.949, 450, 0, []
1627749511.5483, 101, 0, 4204.615, 4170.769, 4196.923, 4223.077, 4241.538, 450, 0, []
1627749511.5561, 102, 0, 4180.513, 4162.051, 4175.897, 4196.923, 4212.821, 450, 0, []
1627749511.564, 103, 0, 4183.077, 4166.667, 4195.385, 4198.462, 4215.897, 16148, 0, []
1627749511.5718, 104, 0, 4195.897, 4174.872, 4214.359, 4207.179, 4235.385, 450, 0, []
1627749511.5796, 105, 0, 4179.487, 4168.205, 4189.744, 4188.718, 4220.513, 450, 0, []
1627749511.5874, 106, 0, 4144.103, 4147.179, 4154.359, 4164.615, 4189.744, 450, 0, []
1627749511.5953, 107, 0, 4152.821, 4154.872, 4174.872, 4188.718, 4210.256, 16148, 0, []
1627749511.6031, 108, 0, 4192.821, 4176.923, 4216.923, 4231.282, 4252.821, 450, 0, []
1627749511.611, 109, 0, 4193.333, 4170.256, 4205.128, 4218.462, 4246.154, 450, 0, []
1627749511.6187, 110, 0, 4179.487, 4168.718, 4175.897, 4189.231, 4226.667, 450, 0, []
1627749511.6267, 111, 0, 4189.231, 4194.872, 4170.769, 4200, 4230.769, 16148, 0, []
1627749511.6346, 112, 0, 4181.026, 4191.795, 4157.949, 4207.179, 4227.692, 450, 0, []
1627749511.6426, 113, 0, 4153.333, 4154.872, 4148.205, 4183.59, 4210.769, 450, 0, []
1627749511.6505, 114, 0, 4163.077, 4145.641, 4175.897, 4177.949, 4216.41, 450, 0, []
1627749511.6584, 115, 0, 4198.974, 4172.821, 4206.667, 4204.615, 4244.615, 16148, 0, []
1627749511.6663, 116, 0, 4200.513, 4197.436, 4206.667, 4217.436, 4250.256, 450, 0, []
1627749511.6743, 117, 0, 4172.308, 4202.564, 4187.179, 4206.154, 4221.026, 450, 0, []
1627749511.6822, 118, 0, 4163.59, 4191.795, 4160, 4196.923, 4197.949, 450, 0, []
1627749511.6902, 119, 0, 4168.718, 4169.231, 4136.41, 4194.359, 4207.692, 16148, 0, []
1627749511.698, 120, 0, 4166.667, 4153.846, 4149.744, 4193.333, 4228.205, 450, 0, []
1627749511.7058, 121, 0, 4169.231, 4152.821, 4189.744, 4191.795, 4232.821, 450, 0, []
1627749511.7137, 122, 0, 4166.154, 4155.897, 4201.026, 4177.436, 4215.385, 450, 0, []
1627749511.7215, 123, 0, 4149.744, 4172.308, 4188.205, 4162.564, 4194.359, 16148, 0, []
1627749511.7294, 124, 0, 4155.385, 4201.538, 4195.385, 4180, 4196.923, 450, 0, []
1627749511.7371, 125, 0, 4170.256, 4206.154, 4194.359, 4201.538, 4203.59, 450, 0, []
1627749511.745, 126, 0, 4158.974, 4185.641, 4163.077, 4188.718, 4195.385, 450, 0, []
1627749511.7528, 127, 0, 4159.487, 4178.974, 4168.718, 4184.615, 4208.205, 16148, 0, []
1627749511.7607, 128, 0, 4182.051, 4185.128, 4213.846, 4211.795, 4235.897, 450, 0, []
1627749511.7685, 0, 0, 4174.359, 4175.385, 4218.462, 4222.051, 4230.769, 450, 0, []
1627749511.7763, 1, 0, 4150.769, 4160.513, 4199.487, 4206.154, 4208.718, 450, 0, []
1627749511.7841, 2, 0, 4161.538, 4170.769, 4204.103, 4204.615, 4215.385, 16185, 0, []
1627749511.7921, 3, 0, 4177.949, 4189.231, 4206.667, 4208.205, 4227.179, 450, 0, []
1627749511.8, 4, 0, 4167.179, 4188.205, 4196.41, 4200, 4223.59, 16182, 0, []
1627749511.808, 5, 0, 4160, 4181.538, 4200.513, 4197.436, 4225.128, 450, 0, []
1627749511.8158, 6, 0, 4165.128, 4185.128, 4205.641, 4196.923, 4227.692, 16159, 0, []
1627749511.8238, 7, 0, 4163.59, 4185.128, 4194.359, 4188.205, 4220, 450, 0, []
1627749511.8317, 8, 0, 4148.718, 4170.769, 4166.154, 4170.256, 4200.513, 450, 0, []
1627749511.8397, 9, 0, 4132.821, 4160, 4145.128, 4154.872, 4178.974, 16179, 0, []
1627749511.8476, 10, 0, 4137.949, 4171.795, 4160, 4165.641, 4184.103, 450, 0, []
1627749511.8555, 11, 0, 4163.59, 4188.718, 4189.744, 4191.795, 4211.795, 16192, 0, []
1627749511.8634, 12, 0, 4174.359, 4190.256, 4194.359, 4197.436, 4225.641, 450, 0, []
1627749511.8712, 13, 0, 4158.974, 4185.641, 4182.051, 4185.641, 4213.846, 450, 0, []
1627749511.8791, 14, 0, 4147.692, 4182.564, 4178.462, 4185.641, 4205.128, 450, 0, []
1627749511.8869, 15, 0, 4150.256, 4178.974, 4180.513, 4196.923, 4211.795, 16192, 0, []
1627749511.8947, 16, 0, 4162.051, 4182.564, 4187.179, 4208.205, 4230.256, 0, 0, []
1627749511.9025, 17, 0, 4176.41, 4188.718, 4186.667, 4204.615, 4237.949, 0, 0, []
1627749511.9104, 18, 0, 4166.154, 4181.538, 4167.692, 4184.103, 4222.051, 0, 0, []
1627749511.9182, 19, 0, 4147.692, 4180, 4160.513, 4175.897, 4209.231, 0, 0, []
1627749511.9261, 20, 0, 4160.513, 4196.923, 4169.744, 4188.205, 4216.41, 0, 0, []
1627749511.9338, 21, 0, 4171.282, 4201.026, 4172.308, 4192.821, 4223.077, 0, 0, []
1627749511.9418, 22, 0, 4151.795, 4182.564, 4165.128, 4178.462, 4211.795, 0, 0, []
1627749511.9497, 23, 0, 4149.744, 4168.718, 4166.667, 4170.769, 4205.128, 0, 0, []
1627749511.9577, 24, 0, 4171.795, 4169.744, 4171.795, 4183.077, 4215.385, 0, 0, []
1627749511.9656, 25, 0, 4173.846, 4169.231, 4160.513, 4189.231, 4218.462, 0, 0, []
1627749511.9735, 26, 0, 4168.205, 4172.821, 4154.872, 4183.077, 4211.282, 0, 0, []
1627749511.9814, 27, 0, 4187.692, 4195.897, 4174.872, 4195.897, 4224.615, 0, 0, []
1627749511.9894, 28, 0, 4202.051, 4209.744, 4186.154, 4215.385, 4245.128, 0, 0, []
1627749511.9973, 29, 0, 4190.769, 4194.872, 4171.795, 4210.256, 4239.487, 0, 0, []
1627749512.0053, 30, 0, 4183.59, 4183.59, 4166.667, 4197.436, 4230.256, 0, 0, []
1627749512.0131, 31, 0, 4186.667, 4185.128, 4170.769, 4188.718, 4230.256, 0, 0, []
1627749512.0209, 32, 0, 4183.59, 4177.949, 4166.154, 4181.026, 4221.538, 0, 0, []
1627749512.0288, 33, 0, 4183.077, 4167.179, 4163.59, 4183.077, 4214.872, 0, 0, []
1627749512.0366, 34, 0, 4184.103, 4166.154, 4161.026, 4184.615, 4215.897, 0, 0, []
1627749512.0445, 35, 0, 4161.538, 4158.462, 4146.154, 4168.205, 4198.974, 0, 0, []
1627749512.0522, 36, 0, 4135.385, 4142.051, 4131.282, 4145.128, 4173.846, 0, 0, []
1627749512.0601, 37, 0, 4153.846, 4146.154, 4142.051, 4150.769, 4186.154, 0, 0, []
1627749512.0679, 38, 0, 4186.667, 4159.487, 4163.077, 4169.231, 4217.436, 0, 0, []
1627749512.0758, 39, 0, 4185.128, 4154.872, 4163.59, 4165.128, 4214.872, 0, 0, []
1627749512.0836, 40, 0, 4174.359, 4150.256, 4152.821, 4157.949, 4199.487, 0, 0, []
1627749512.0915, 41, 0, 4176.41, 4155.897, 4149.231, 4163.077, 4202.051, 0, 0, []
1627749512.0994, 42, 0, 4175.385, 4150.769, 4147.692, 4165.641, 4204.615, 0, 0, []
1627749512.1074, 43, 0, 4165.128, 4137.436, 4145.128, 4165.641, 4202.051, 0, 0, []
1627749512.1153, 44, 0, 4168.718, 4137.436, 4153.333, 4173.846, 4213.846, 0, 0, []
1627749512.1233, 45, 0, 4184.103, 4142.051, 4156.41, 4173.333, 4226.154, 0, 0, []
1627749512.1311, 46, 0, 4185.641, 4139.487, 4145.641, 4154.359, 4214.359, 0, 0, []
1627749512.1391, 47, 0, 4178.974, 4137.949, 4142.051, 4147.692, 4199.487, 0, 0, []
1627749512.147, 48, 0, 4180.513, 4143.59, 4151.282, 4161.026, 4204.103, 0, 0, []
1627749512.155, 49, 0, 4194.359, 4151.795, 4162.564, 4175.897, 4221.538, 0, 0, []
1627749512.1629, 50, 0, 4195.385, 4152.821, 4152.821, 4169.231, 4221.538, 0, 0, []
1627749512.1706, 51, 0, 4179.487, 4150.256, 4136.923, 4153.333, 4203.59, 0, 0, []
1627749512.1785, 52, 0, 4177.436, 4151.795, 4145.128, 4154.359, 4201.026, 0, 0, []
1627749512.1863, 53, 0, 4186.154, 4154.359, 4158.974, 4164.103, 4211.282, 0, 0, []
1627749512.1942, 54, 0, 4187.179, 4152.308, 4157.949, 4169.231, 4218.974, 0, 0, []
1627749512.202, 55, 0, 4183.077, 4146.667, 4152.308, 4170.256, 4215.897, 0, 0, []
1627749512.2099, 56, 0, 4180, 4141.538, 4155.897, 4169.744, 4204.615, 0, 0, []
1627749512.2176, 57, 0, 4169.231, 4139.487, 4151.795, 4164.615, 4196.923, 0, 0, []
1627749512.2255, 58, 0, 4163.077, 4144.615, 4136.923, 4160.513, 4197.949, 0, 0, []
1627749512.2333, 59, 0, 4176.41, 4149.744, 4137.436, 4170.256, 4208.205, 0, 0, []
1627749512.2412, 60, 0, 4197.436, 4150.769, 4154.872, 4192.308, 4227.179, 0, 0, []
1627749512.249, 61, 0, 4215.897, 4161.538, 4166.667, 4206.667, 4251.282, 0, 0, []
1627749512.2569, 62, 0, 4230.256, 4168.205, 4171.795, 4206.154, 4263.59, 0, 0, []
1627749512.2648, 63, 0, 4231.282, 4157.436, 4174.872, 4201.026, 4256.41, 0, 0, []
1627749512.2728, 64, 0, 4222.564, 4148.205, 4158.974, 4187.179, 4245.641, 450, 0, []
1627749512.2807, 65, 0, 4234.872, 4153.333, 4145.128, 4177.949, 4262.051, 450, 0, []
1627749512.2887, 66, 0, 4269.744, 4162.051, 4160.513, 4185.128, 4301.026, 16185, 0, []
1627749512.2965, 67, 0, 4299.487, 4163.59, 4177.949, 4184.103, 4334.359, 450, 0, []
1627749512.3045, 68, 0, 4336.923, 4170.256, 4184.103, 4184.103, 4384.103, 16182, 0, []
1627749512.3124, 69, 0, 4388.205, 4171.795, 4185.128, 4197.436, 4443.077, 450, 0, []
1627749512.3204, 70, 0, 4405.128, 4149.744, 4169.744, 4188.205, 4456.923, 16159, 0, []
1627749512.3283, 71, 0, 4393.333, 4134.359, 4154.872, 4167.692, 4444.103, 450, 0, []
1627749512.336, 72, 0, 4398.462, 4161.026, 4166.667, 4182.051, 4451.795, 450, 0, []
1627749512.3439, 73, 0, 4395.897, 4176.923, 4170.256, 4194.359, 4451.282, 16179, 0, []
1627749512.3517, 74, 0, 4364.615, 4156.41, 4149.744, 4173.333, 4420, 450, 0, []
1627749512.3596, 75, 0, 4347.692, 4162.564, 4151.282, 4170.769, 4403.077, 16193, 0, []
1627749512.3674, 76, 0, 4360, 4190.769, 4181.026, 4200.513, 4417.949, 450, 0, []
1627749512.3752, 77, 0, 4356.923, 4189.744, 4195.897, 4211.795, 4420.513, 450, 0, []
1627749512.383, 78, 0, 4318.974, 4170.769, 4177.436, 4189.231, 4377.949, 450, 0, []
1627749512.3909, 79, 0, 4281.026, 4159.487, 4153.333, 4160, 4327.179, 16193, 0, []
1627749512.3987, 80, 0, 4278.462, 4164.103, 4161.026, 4157.949, 4318.974, 450, 0, []
1627749512.4067, 81, 0, 4293.333, 4176.923, 4184.103, 4180, 4337.436, 450, 0, []
1627749512.4145, 82, 0, 4286.154, 4178.462, 4183.59, 4185.128, 4332.308, 450, 0, []
1627749512.4225, 83, 0, 4265.641, 4171.282, 4158.974, 4167.692, 4309.231, 16193, 0, []
1627749512.4304, 84, 0, 4277.949, 4178.462, 4157.949, 4170.769, 4324.103, 450, 0, []
1627749512.4383, 85, 0, 4305.128, 4186.667, 4185.128, 4184.103, 4357.436, 450, 0, []
1627749512.4462, 86, 0, 4316.923, 4176.41, 4187.179, 4170.256, 4371.795, 450, 0, []
1627749512.4541, 87, 0, 4362.564, 4170.769, 4173.846, 4162.051, 4408.205, 16193, 0, []
1627749512.462, 88, 0, 4431.795, 4175.385, 4175.897, 4180, 4462.564, 450, 0, []
1627749512.47, 89, 0, 4443.59, 4163.59, 4170.769, 4176.41, 4471.282, 450, 0, []
1627749512.4779, 90, 0, 4432.821, 4156.923, 4162.564, 4165.641, 4464.615, 450, 0, []
1627749512.4857, 91, 0, 4467.692, 4180, 4180, 4177.436, 4487.179, 16193, 0, []
1627749512.4935, 92, 0, 4489.231, 4188.718, 4189.744, 4180.513, 4498.462, 450, 0, []
1627749512.5013, 93, 0, 4453.333, 4169.744, 4166.667, 4163.59, 4474.872, 450, 0, []
1627749512.5092, 94, 0, 4420, 4165.128, 4161.026, 4163.077, 4448.718, 450, 0, []
1627749512.517, 95, 0, 4411.282, 4173.333, 4178.462, 4183.59, 4435.385, 16193, 0, []
1627749512.5249, 96, 0, 4389.744, 4175.385, 4175.385, 4195.385, 4417.436, 450, 0, []
1627749512.5326, 97, 0, 4345.128, 4176.923, 4165.641, 4193.333, 4385.641, 450, 0, []
1627749512.5405, 98, 0, 4311.795, 4175.897, 4170.769, 4182.564, 4355.897, 450, 0, []
1627749512.5483, 99, 0, 4294.872, 4163.077, 4170.256, 4172.821, 4335.385, 16193, 0, []
1627749512.5563, 100, 0, 4262.564, 4150.256, 4153.333, 4166.667, 4305.641, 450, 0, []
1627749512.5642, 101, 0, 4232.308, 4152.821, 4148.205, 4168.205, 4279.487, 450, 0, []
1627749512.5721, 102, 0, 4227.692, 4157.436, 4160, 4174.359, 4273.846, 450, 0, []
1627749512.58, 103, 0, 4210.256, 4148.718, 4154.359, 4168.205, 4255.897, 16193, 0, []
1627749512.588, 104, 0, 4203.077, 4159.487, 4153.846, 4177.436, 4249.744, 450, 0, []
1627749512.5959, 105, 0, 4229.744, 4188.205, 4173.333, 4208.718, 4274.872, 450, 0, []
1627749512.6039, 106, 0, 4226.667, 4186.667, 4168.205, 4209.231, 4270.769, 450, 0, []
1627749512.6117, 107, 0, 4199.487, 4172.821, 4156.923, 4189.231, 4246.154, 16193, 0, []
1627749512.6197, 108, 0, 4198.974, 4174.359, 4171.795, 4187.692, 4247.692, 450, 0, []
1627749512.6276, 109, 0, 4188.718, 4154.872, 4165.641, 4177.949, 4236.923, 450, 0, []
1627749512.6356, 110, 0, 4169.744, 4136.923, 4150.769, 4164.615, 4214.359, 450, 0, []
1627749512.6435, 111, 0, 4189.231, 4157.436, 4171.795, 4191.795, 4231.795, 16193, 0, []
1627749512.6513, 112, 0, 4197.949, 4167.179, 4173.846, 4214.359, 4243.59, 450, 0, []
1627749512.6592, 113, 0, 4163.077, 4147.179, 4136.923, 4194.872, 4212.308, 450, 0, []
1627749512.667, 114, 0, 4145.641, 4143.59, 4127.179, 4177.436, 4195.385, 450, 0, []
1627749512.6749, 115, 0, 4161.026, 4162.564, 4145.641, 4185.641, 4207.179, 16193, 0, []
1627749512.6827, 116, 0, 4176.41, 4173.846, 4153.333, 4203.077, 4218.974, 450, 0, []
1627749512.6905, 117, 0, 4176.923, 4162.564, 4146.667, 4202.051, 4218.974, 450, 0, []
1627749512.6983, 118, 0, 4170.256, 4146.154, 4136.923, 4181.026, 4207.179, 450, 0, []
1627749512.7062, 119, 0, 4170.769, 4148.718, 4139.487, 4173.333, 4204.103, 16193, 0, []
1627749512.714, 120, 0, 4165.641, 4157.949, 4141.026, 4177.436, 4198.974, 450, 0, []
1627749512.722, 121, 0, 4134.872, 4144.103, 4122.564, 4159.487, 4168.205, 450, 0, []
1627749512.7298, 122, 0, 4113.333, 4129.231, 4116.41, 4140.513, 4146.667, 450, 0, []
1627749512.7378, 123, 0, 4141.026, 4146.154, 4151.282, 4167.692, 4177.436, 16193, 0, []
1627749512.7457, 124, 0, 4171.795, 4169.744, 4184.615, 4204.103, 4211.795, 450, 0, []
1627749512.7537, 125, 0, 4156.41, 4157.949, 4174.359, 4193.333, 4198.974, 450, 0, []
1627749512.7616, 126, 0, 4131.795, 4137.436, 4157.436, 4166.667, 4177.949, 450, 0, []
1627749512.7695, 127, 0, 4138.974, 4146.667, 4172.308, 4172.308, 4184.103, 16193, 0, []
1627749512.7774, 128, 0, 4160, 4160, 4191.282, 4194.359, 4201.026, 450, 0, []
1627749512.7854, 0, 0, 4167.692, 4158.974, 4189.744, 4200, 4207.692, 450, 0, []
1627749512.7933, 1, 0, 4158.974, 4154.872, 4177.949, 4188.718, 4192.821, 450, 0, []
1627749512.8011, 2, 0, 4133.333, 4145.641, 4156.923, 4167.179, 4158.974, 16185, 0, []
1627749512.8089, 3, 0, 4121.538, 4136.41, 4144.615, 4161.026, 4147.179, 450, 0, []
1627749512.8167, 4, 0, 4143.077, 4140, 4158.462, 4180.513, 4170.769, 16182, 0, []
1627749512.8246, 5, 0, 4145.641, 4140, 4153.333, 4177.949, 4170.769, 450, 0, []
1627749512.8324, 6, 0, 4130.256, 4141.538, 4137.436, 4162.051, 4149.231, 16159, 0, []
1627749512.8403, 7, 0, 4151.795, 4163.077, 4169.231, 4186.667, 4168.718, 450, 0, []
1627749512.848, 8, 0, 4179.487, 4180.513, 4202.051, 4211.282, 4200, 450, 0, []
1627749512.8559, 9, 0, 4161.026, 4175.385, 4181.026, 4190.256, 4185.641, 16179, 0, []
1627749512.8637, 10, 0, 4133.846, 4169.231, 4162.564, 4173.333, 4163.077, 450, 0, []
1627749512.8717, 11, 0, 4142.051, 4170.256, 4183.077, 4190.769, 4170.769, 16193, 0, []
1627749512.8796, 12, 0, 4155.385, 4163.077, 4189.231, 4198.974, 4174.359, 450, 0, []
1627749512.8875, 13, 0, 4137.949, 4145.128, 4169.231, 4186.154, 4157.949, 450, 0, []
1627749512.8954, 14, 0, 4117.949, 4135.897, 4161.026, 4179.487, 4146.667, 450, 0, []
1627749512.9034, 15, 0, 4132.821, 4148.718, 4170.256, 4188.205, 4154.359, 16193, 0, []
1627749512.9113, 16, 0, 4149.744, 4160.513, 4170.256, 4187.179, 4162.564, 0, 0, []
1627749512.9193, 17, 0, 4134.359, 4149.231, 4150.769, 4170.769, 4152.821, 0, 0, []
1627749512.9272, 18, 0, 4118.974, 4135.385, 4136.41, 4165.641, 4138.974, 0, 0, []
1627749512.9351, 19, 0, 4113.846, 4126.667, 4130.256, 4162.564, 4128.205, 0, 0, []
1627749512.943, 20, 0, 4105.128, 4121.538, 4121.026, 4148.205, 4124.103, 0, 0, []
1627749512.9509, 21, 0, 4094.872, 4116.41, 4115.385, 4135.385, 4117.436, 0, 0, []
1627749512.9588, 22, 0, 4089.744, 4107.692, 4125.641, 4134.359, 4109.744, 0, 0, []
1627749512.9666, 23, 0, 4099.487, 4104.615, 4141.026, 4147.692, 4123.077, 0, 0, []
1627749512.9744, 24, 0, 4111.282, 4108.205, 4138.974, 4156.923, 4136.923, 0, 0, []
1627749512.9822, 25, 0, 4110.256, 4106.667, 4131.282, 4145.128, 4126.667, 0, 0, []
1627749512.9901, 26, 0, 4102.564, 4103.077, 4130.256, 4133.846, 4116.41, 0, 0, []
1627749512.9979, 27, 0, 4097.949, 4106.667, 4132.308, 4137.949, 4120.513, 0, 0, []
1627749513.0058, 28, 0, 4099.487, 4108.718, 4135.385, 4140.513, 4123.59, 0, 0, []
1627749513.0135, 29, 0, 4108.718, 4112.308, 4137.436, 4146.154, 4131.282, 0, 0, []
1627749513.0214, 30, 0, 4108.205, 4117.436, 4128.205, 4153.846, 4135.385, 0, 0, []
1627749513.0292, 31, 0, 4091.282, 4113.846, 4118.462, 4144.615, 4118.462, 0, 0, []
1627749513.0372, 32, 0, 4078.462, 4106.154, 4119.487, 4131.282, 4100.513, 0, 0, []
1627749513.0451, 33, 0, 4084.615, 4104.615, 4126.154, 4136.923, 4105.641, 0, 0, []
1627749513.053, 34, 0, 4108.205, 4123.077, 4140, 4154.872, 4132.308, 0, 0, []
1627749513.0609, 35, 0, 4120.513, 4144.615, 4150.769, 4163.077, 4144.103, 0, 0, []
1627749513.0689, 36, 0, 4104.103, 4130.769, 4134.359, 4149.231, 4118.974, 0, 0, []
1627749513.0768, 37, 0, 4101.026, 4109.744, 4122.051, 4142.564, 4105.641, 0, 0, []
1627749513.0848, 38, 0, 4126.667, 4126.154, 4145.128, 4162.051, 4131.795, 0, 0, []
1627749513.0926, 39, 0, 4133.333, 4146.667, 4160.513, 4174.359, 4147.179, 0, 0, []
1627749513.1006, 40, 0, 4116.41, 4142.051, 4149.231, 4169.744, 4136.41, 0, 0, []
1627749513.1085, 41, 0, 4122.564, 4141.538, 4146.154, 4165.128, 4132.821, 0, 0, []
1627749513.1163, 42, 0, 4141.538, 4145.128, 4156.41, 4158.974, 4138.462, 0, 0, []
1627749513.1242, 43, 0, 4136.923, 4141.026, 4154.872, 4153.846, 4140.513, 0, 0, []
1627749513.1319, 44, 0, 4123.59, 4141.538, 4147.692, 4154.872, 4137.949, 0, 0, []
1627749513.1398, 45, 0, 4116.923, 4137.949, 4139.487, 4147.179, 4124.615, 0, 0, []
1627749513.1476, 46, 0, 4111.282, 4129.231, 4127.692, 4134.872, 4113.846, 0, 0, []
1627749513.1555, 47, 0, 4123.59, 4133.333, 4138.462, 4148.205, 4133.333, 0, 0, []
1627749513.1633, 48, 0, 4148.205, 4146.154, 4162.564, 4169.744, 4162.564, 0, 0, []
1627749513.1711, 49, 0, 4160, 4152.821, 4168.205, 4173.846, 4171.282, 0, 0, []
1627749513.1789, 50, 0, 4159.487, 4154.872, 4156.923, 4168.718, 4168.205, 0, 0, []
1627749513.1869, 51, 0, 4149.744, 4151.795, 4141.026, 4166.667, 4161.538, 0, 0, []
1627749513.1948, 52, 0, 4143.077, 4150.769, 4137.436, 4168.718, 4155.385, 0, 0, []
1627749513.2028, 53, 0, 4158.974, 4166.154, 4160, 4172.308, 4164.103, 0, 0, []
1627749513.2106, 54, 0, 4175.385, 4165.641, 4174.359, 4170.769, 4173.846, 0, 0, []
1627749513.2186, 55, 0, 4166.667, 4132.308, 4156.923, 4161.026, 4164.615, 0, 0, []
1627749513.2265, 56, 0, 4153.846, 4113.846, 4143.077, 4153.333, 4156.41, 0, 0, []
1627749513.2345, 57, 0, 4152.308, 4126.667, 4142.051, 4149.231, 4155.385, 0, 0, []
1627749513.2424, 58, 0, 4157.436, 4128.718, 4142.051, 4155.897, 4156.923, 0, 0, []
1627749513.2503, 59, 0, 4170.769, 4127.692, 4162.051, 4177.436, 4173.333, 0, 0, []
1627749513.2582, 60, 0, 4174.359, 4140.513, 4173.333, 4172.308, 4180.513, 0, 0, []
1627749513.266, 61, 0, 4164.103, 4142.051, 4156.923, 4152.821, 4165.641, 0, 0, []
1627749513.2739, 62, 0, 4168.205, 4137.949, 4156.923, 4168.205, 4170.256, 0, 0, []
1627749513.2817, 63, 0, 4185.128, 4141.538, 4173.846, 4192.308, 4194.872, 0, 0, []
1627749513.2895, 64, 0, 4192.308, 4143.077, 4173.846, 4189.231, 4199.487, 450, 0, []
1627749513.2973, 65, 0, 4182.051, 4139.487, 4168.205, 4177.949, 4184.103, 450, 0, []
1627749513.3052, 66, 0, 4170.769, 4138.974, 4167.692, 4174.872, 4174.359, 16216, 0, []
1627749513.313, 67, 0, 4172.308, 4144.103, 4165.128, 4173.846, 4177.949, 450, 0, []
1627749513.3209, 68, 0, 4181.026, 4154.359, 4167.179, 4182.051, 4185.128, 16182, 0, []
1627749513.3286, 69, 0, 4182.564, 4161.538, 4176.923, 4189.744, 4187.692, 450, 0, []
1627749513.3366, 70, 0, 4160.513, 4144.103, 4168.718, 4170.256, 4170.769, 16159, 0, []
1627749513.3445, 71, 0, 4138.974, 4125.128, 4148.718, 4146.154, 4145.641, 450, 0, []
1627749513.3525, 72, 0, 4163.077, 4137.436, 4162.564, 4168.205, 4164.615, 450, 0, []
1627749513.3604, 73, 0, 4208.718, 4160.513, 4196.923, 4216.41, 4212.821, 16179, 0, []
1627749513.3683, 74, 0, 4206.154, 4157.949, 4196.41, 4221.026, 4216.41, 450, 0, []
1627749513.3762, 75, 0, 4176.41, 4147.179, 4178.462, 4191.795, 4182.051, 16194, 0, []
1627749513.3842, 76, 0, 4169.231, 4151.795, 4181.026, 4181.026, 4167.179, 450, 0, []
1627749513.3921, 77, 0, 4172.308, 4157.949, 4187.692, 4181.538, 4168.205, 450, 0, []
1627749513.4001, 78, 0, 4176.923, 4154.872, 4183.077, 4188.205, 4169.231, 450, 0, []
1627749513.4079, 79, 0, 4181.538, 4148.718, 4177.436, 4201.026, 4173.846, 16194, 0, []
1627749513.4157, 80, 0, 4173.333, 4141.026, 4172.821, 4201.538, 4169.744, 450, 0, []
1627749513.4236, 81, 0, 4164.103, 4137.436, 4166.154, 4198.462, 4164.615, 450, 0, []
1627749513.4314, 82, 0, 4162.564, 4136.923, 4170.256, 4208.205, 4167.692, 450, 0, []
1627749513.4393, 83, 0, 4160, 4137.436, 4186.667, 4216.41, 4168.205, 16194, 0, []
1627749513.447, 84, 0, 4160.513, 4138.462, 4191.282, 4217.436, 4168.718, 450, 0, []
1627749513.4549, 85, 0, 4161.538, 4137.949, 4174.359, 4217.436, 4169.231, 450, 0, []
1627749513.4627, 86, 0, 4153.333, 4144.103, 4169.744, 4217.949, 4160, 450, 0, []
1627749513.4706, 87, 0, 4149.231, 4152.308, 4183.59, 4223.077, 4150.769, 16194, 0, []
1627749513.4784, 88, 0, 4156.41, 4152.308, 4188.718, 4229.231, 4156.923, 450, 0, []
1627749513.4862, 89, 0, 4156.41, 4145.641, 4177.436, 4224.615, 4157.436, 450, 0, []
1627749513.494, 90, 0, 4137.436, 4136.41, 4163.59, 4205.641, 4136.41, 450, 0, []
1627749513.502, 91, 0, 4141.026, 4138.462, 4170.256, 4200.513, 4134.872, 16194, 0, []
1627749513.5099, 92, 0, 4162.051, 4145.128, 4182.051, 4211.795, 4153.846, 450, 0, []
1627749513.5179, 93, 0, 4161.026, 4141.026, 4173.846, 4216.923, 4155.385, 450, 0, []
1627749513.5257, 94, 0, 4154.872, 4141.026, 4162.051, 4216.923, 4152.821, 450, 0, []
1627749513.5337, 95, 0, 4166.667, 4150.769, 4164.615, 4216.41, 4163.077, 16194, 0, []
1627749513.5416, 96, 0, 4179.487, 4157.949, 4169.231, 4217.436, 4169.744, 450, 0, []
1627749513.5496, 97, 0, 4185.641, 4160.513, 4166.154, 4226.667, 4176.41, 450, 0, []
1627749513.5575, 98, 0, 4185.128, 4160, 4162.564, 4228.718, 4180.513, 450, 0, []
1627749513.5652, 99, 0, 4182.564, 4158.462, 4173.333, 4222.564, 4177.949, 16194, 0, []
1627749513.5731, 100, 0, 4197.436, 4167.692, 4198.462, 4231.795, 4188.205, 450, 0, []
1627749513.5809, 101, 0, 4208.205, 4175.385, 4201.026, 4242.564, 4196.41, 450, 0, []
1627749513.5888, 102, 0, 4192.821, 4170.769, 4182.564, 4239.487, 4185.641, 450, 0, []
1627749513.5966, 103, 0, 4182.564, 4166.154, 4178.462, 4241.026, 4182.564, 16194, 0, []
1627749513.6044, 104, 0, 4192.308, 4163.077, 4177.949, 4238.974, 4188.205, 450, 0, []
1627749513.6122, 105, 0, 4200.513, 4161.538, 4171.795, 4228.205, 4185.641, 450, 0, []
1627749513.6201, 106, 0, 4202.564, 4169.744, 4188.718, 4226.154, 4187.179, 450, 0, []
1627749513.6279, 107, 0, 4205.641, 4169.744, 4204.615, 4222.051, 4188.205, 16194, 0, []
1627749513.6358, 108, 0, 4207.692, 4156.41, 4186.667, 4210.769, 4178.974, 450, 0, []
1627749513.6435, 109, 0, 4215.385, 4152.308, 4174.872, 4217.949, 4183.077, 450, 0, []
1627749513.6515, 110, 0, 4232.821, 4159.487, 4180, 4226.154, 4198.462, 450, 0, []
1627749513.6594, 111, 0, 4248.718, 4170.769, 4183.077, 4222.564, 4198.462, 16194, 0, []
1627749513.6674, 112, 0, 4249.231, 4175.897, 4177.949, 4219.487, 4186.667, 450, 0, []
1627749513.6753, 113, 0, 4246.667, 4166.154, 4165.128, 4212.821, 4177.949, 450, 0, []
1627749513.6833, 114, 0, 4265.641, 4168.205, 4158.974, 4209.744, 4181.026, 450, 0, []
1627749513.6911, 115, 0, 4298.974, 4193.846, 4184.615, 4225.641, 4207.692, 16194, 0, []
1627749513.6991, 116, 0, 4313.846, 4214.872, 4212.821, 4244.615, 4236.41, 450, 0, []
1627749513.707, 117, 0, 4292.821, 4200, 4190.769, 4230.256, 4218.974, 450, 0, []
1627749513.715, 118, 0, 4272.308, 4184.615, 4167.179, 4209.231, 4188.205, 450, 0, []
1627749513.7229, 119, 0, 4281.026, 4195.897, 4185.128, 4220, 4195.385, 16194, 0, []
1627749513.7306, 120, 0, 4286.154, 4196.41, 4191.282, 4229.744, 4201.026, 450, 0, []
1627749513.7385, 121, 0, 4275.385, 4183.077, 4169.744, 4218.462, 4186.667, 450, 0, []
1627749513.7463, 122, 0, 4271.282, 4185.128, 4161.538, 4208.205, 4176.923, 450, 0, []
1627749513.7542, 123, 0, 4275.385, 4196.923, 4168.718, 4207.692, 4176.923, 16194, 0, []
1627749513.762, 124, 0, 4284.103, 4206.667, 4174.872, 4217.949, 4191.282, 450, 0, []
1627749513.7698, 125, 0, 4294.359, 4215.897, 4182.051, 4234.872, 4209.231, 450, 0, []
1627749513.7776, 126, 0, 4273.333, 4213.846, 4186.667, 4229.231, 4199.487, 450, 0, []
1627749513.7856, 127, 0, 4235.897, 4218.974, 4190.769, 4213.846, 4188.205, 16194, 0, []
1627749513.7935, 128, 0, 4231.282, 4241.538, 4192.308, 4221.026, 4207.692, 450, 0, []
1627749513.8015, 0, 0, 4241.026, 4236.923, 4182.051, 4227.692, 4223.077, 450, 0, []
1627749513.8093, 1, 0, 4229.231, 4212.308, 4174.359, 4217.949, 4215.385, 450, 0, []
1627749513.8173, 2, 0, 4210.769, 4202.051, 4175.897, 4204.103, 4196.923, 16209, 0, []
1627749513.8252, 3, 0, 4202.051, 4193.333, 4177.949, 4200.513, 4187.692, 450, 0, []
1627749513.8332, 4, 0, 4200.513, 4181.026, 4184.615, 4210.256, 4197.436, 16184, 0, []
1627749513.8411, 5, 0, 4200.513, 4182.564, 4188.718, 4205.641, 4204.103, 450, 0, []
1627749513.849, 6, 0, 4200.513, 4191.282, 4172.308, 4184.615, 4201.538, 16077, 0, []
1627749513.8569, 7, 0, 4197.436, 4191.282, 4143.59, 4175.385, 4201.026, 450, 0, []
1627749513.8649, 8, 0, 4190.256, 4179.487, 4125.128, 4165.128, 4190.256, 450, 0, []
1627749513.8728, 9, 0, 4175.897, 4167.692, 4136.41, 4144.103, 4167.692, 16139, 0, []
1627749513.8808, 10, 0, 4171.795, 4179.487, 4167.179, 4152.308, 4162.564, 450, 0, []
1627749513.8886, 11, 0, 4178.974, 4190.769, 4175.385, 4182.051, 4176.41, 16197, 0, []
1627749513.8964, 12, 0, 4178.462, 4174.359, 4149.231, 4184.615, 4182.564, 450, 0, []
1627749513.9043, 13, 0, 4176.923, 4164.103, 4125.128, 4180, 4187.692, 450, 0, []
1627749513.9121, 14, 0, 4187.692, 4167.179, 4127.692, 4192.308, 4200.513, 450, 0, []
1627749513.92, 15, 0, 4188.205, 4151.795, 4151.795, 4192.821, 4202.564, 16197, 0, []
1627749513.9277, 16, 0, 4170.769, 4140.513, 4176.923, 4163.077, 4185.641, 0, 0, []
1627749513.9356, 17, 0, 4167.692, 4166.667, 4186.154, 4130.256, 4168.718, 0, 0, []
1627749513.9434, 18, 0, 4174.359, 4200, 4187.179, 4119.487, 4159.487, 0, 0, []
1627749513.9514, 19, 0, 4178.462, 4215.385, 4184.103, 4135.385, 4172.308, 0, 0, []
1627749513.9593, 20, 0, 4188.718, 4228.205, 4174.359, 4166.154, 4209.744, 0, 0, []
1627749513.9672, 21, 0, 4195.385, 4226.667, 4168.205, 4185.641, 4229.231, 0, 0, []
1627749513.9751, 22, 0, 4190.769, 4204.103, 4166.154, 4193.846, 4219.487, 0, 0, []
1627749513.9831, 23, 0, 4186.154, 4189.744, 4163.077, 4203.59, 4213.846, 0, 0, []
1627749513.991, 24, 0, 4185.641, 4181.538, 4169.744, 4207.692, 4217.436, 0, 0, []
1627749513.999, 25, 0, 4184.615, 4167.179, 4185.641, 4195.385, 4209.231, 0, 0, []
1627749514.0068, 26, 0, 4184.103, 4172.308, 4188.205, 4174.872, 4189.231, 0, 0, []
1627749514.0148, 27, 0, 4184.615, 4197.436, 4180, 4165.128, 4183.59, 0, 0, []
1627749514.0227, 28, 0, 4185.641, 4203.59, 4164.103, 4172.821, 4194.359, 0, 0, []
1627749514.0307, 29, 0, 4183.59, 4200, 4149.231, 4191.282, 4205.641, 0, 0, []
1627749514.0386, 30, 0, 4182.051, 4207.692, 4160, 4205.641, 4206.667, 0, 0, []
1627749514.0463, 31, 0, 4183.59, 4203.077, 4173.846, 4199.487, 4203.59, 0, 0, []
1627749514.0542, 32, 0, 4183.59, 4185.128, 4168.718, 4177.949, 4204.103, 0, 0, []
1627749514.062, 33, 0, 4186.667, 4182.564, 4166.154, 4168.718, 4208.718, 0, 0, []
1627749514.0699, 34, 0, 4187.692, 4193.846, 4170.769, 4165.641, 4200.513, 0, 0, []
1627749514.0777, 35, 0, 4183.59, 4201.538, 4174.359, 4156.41, 4183.077, 0, 0, []
1627749514.0855, 36, 0, 4180.513, 4197.949, 4166.154, 4149.231, 4177.949, 0, 0, []
1627749514.0933, 37, 0, 4180, 4187.692, 4151.795, 4150.769, 4177.949, 0, 0, []
1627749514.1012, 38, 0, 4184.615, 4183.59, 4155.897, 4166.667, 4178.974, 0, 0, []
1627749514.109, 39, 0, 4186.154, 4187.692, 4181.538, 4183.077, 4191.282, 0, 0, []
1627749514.117, 40, 0, 4176.923, 4189.744, 4190.769, 4179.487, 4196.41, 0, 0, []
1627749514.1248, 41, 0, 4169.744, 4196.923, 4182.051, 4176.41, 4190.256, 0, 0, []
1627749514.1328, 42, 0, 4174.872, 4215.897, 4188.205, 4187.692, 4187.692, 0, 0, []
1627749514.1407, 43, 0, 4171.795, 4222.051, 4190.769, 4181.026, 4182.564, 0, 0, []
1627749514.1487, 44, 0, 4154.872, 4201.026, 4158.462, 4153.333, 4164.103, 0, 0, []
1627749514.1566, 45, 0, 4158.462, 4191.282, 4146.667, 4158.974, 4166.667, 0, 0, []
1627749514.1645, 46, 0, 4183.59, 4204.615, 4173.333, 4189.231, 4195.897, 0, 0, []
1627749514.1724, 47, 0, 4187.692, 4200.513, 4173.846, 4190.769, 4202.564, 0, 0, []
1627749514.1804, 48, 0, 4183.077, 4191.795, 4158.974, 4183.077, 4196.923, 0, 0, []
1627749514.1883, 49, 0, 4190.769, 4206.667, 4163.59, 4188.205, 4203.077, 0, 0, []
1627749514.1961, 50, 0, 4180.513, 4215.385, 4158.974, 4172.821, 4191.282, 0, 0, []
1627749514.2039, 51, 0, 4166.154, 4221.026, 4158.462, 4150.256, 4172.308, 0, 0, []
1627749514.2117, 52, 0, 4180.513, 4235.385, 4176.923, 4157.436, 4178.974, 0, 0, []
1627749514.2196, 53, 0, 4197.436, 4225.128, 4177.436, 4171.282, 4196.41, 0, 0, []
1627749514.2274, 54, 0, 4198.974, 4202.564, 4166.667, 4174.872, 4198.974, 0, 0, []
1627749514.2353, 55, 0, 4203.59, 4206.667, 4170.769, 4181.026, 4192.821, 0, 0, []
1627749514.243, 56, 0, 4202.564, 4216.923, 4164.103, 4185.641, 4190.769, 0, 0, []
1627749514.2509, 57, 0, 4189.744, 4216.923, 4150.256, 4182.051, 4197.949, 0, 0, []
1627749514.2587, 58, 0, 4184.103, 4220, 4143.077, 4174.872, 4197.436, 0, 0, []
1627749514.2667, 59, 0, 4183.077, 4212.308, 4133.846, 4158.974, 4183.59, 0, 0, []
1627749514.2746, 60, 0, 4178.974, 4197.436, 4140, 4142.051, 4179.487, 0, 0, []
1627749514.2825, 61, 0, 4177.436, 4203.59, 4162.564, 4142.564, 4184.615, 0, 0, []
1627749514.2904, 62, 0, 4185.128, 4220.513, 4172.821, 4162.051, 4192.308, 0, 0, []
1627749514.2984, 63, 0, 4194.872, 4221.538, 4170.769, 4180.513, 4199.487, 0, 0, []
1627749514.3063, 64, 0, 4198.974, 4209.231, 4164.615, 4188.205, 4199.487, 450, 0, []
1627749514.3143, 65, 0, 4203.59, 4202.564, 4151.282, 4198.462, 4200.513, 450, 0, []
1627749514.3221, 66, 0, 4203.077, 4201.538, 4141.026, 4201.538, 4201.026, 16197, 0, []
1627749514.3301, 67, 0, 4202.564, 4206.154, 4148.205, 4194.359, 4207.179, 450, 0, []
1627749514.338, 68, 0, 4215.897, 4214.359, 4160.513, 4197.949, 4215.897, 16184, 0, []
1627749514.346, 69, 0, 4218.974, 4207.692, 4152.308, 4192.821, 4204.103, 450, 0, []
1627749514.3539, 70, 0, 4193.333, 4194.359, 4124.615, 4161.026, 4177.949, 16138, 0, []
1627749514.3616, 71, 0, 4186.154, 4205.128, 4115.897, 4150.256, 4179.487, 450, 0, []
1627749514.3695, 72, 0, 4216.41, 4223.077, 4132.821, 4176.923, 4204.103, 450, 0, []
1627749514.3773, 73, 0, 4236.41, 4218.974, 4144.615, 4195.897, 4218.462, 16167, 0, []
1627749514.3852, 74, 0, 4233.846, 4215.385, 4148.205, 4203.59, 4225.641, 450, 0, []
1627749514.393, 75, 0, 4232.308, 4221.538, 4144.103, 4203.077, 4228.718, 16197, 0, []
1627749514.4008, 76, 0, 4230.256, 4215.385, 4125.128, 4182.051, 4213.846, 450, 0, []
1627749514.4086, 77, 0, 4232.821, 4213.846, 4120.513, 4166.154, 4199.487, 450, 0, []
1627749514.4166, 78, 0, 4244.103, 4221.026, 4144.103, 4168.718, 4207.692, 450, 0, []
1627749514.4245, 79, 0, 4251.795, 4217.949, 4163.59, 4170.769, 4216.41, 16197, 0, []
1627749514.4325, 80, 0, 4260.513, 4218.462, 4172.308, 4180.513, 4213.333, 450, 0, []
1627749514.4404, 81, 0, 4274.872, 4228.718, 4175.897, 4203.077, 4217.436, 450, 0, []
1627749514.4482, 82, 0, 4285.128, 4229.231, 4152.308, 4206.154, 4220.513, 450, 0, []
1627749514.4561, 83, 0, 4280, 4215.897, 4113.333, 4183.59, 4203.077, 16197, 0, []
1627749514.4639, 84, 0, 4266.154, 4209.744, 4099.487, 4164.103, 4179.487, 450, 0, []
1627749514.4719, 85, 0, 4266.667, 4210.769, 4119.487, 4170.769, 4193.846, 450, 0, []
1627749514.4798, 86, 0, 4292.308, 4218.974, 4153.846, 4200, 4235.385, 450, 0, []
1627749514.4876, 87, 0, 4301.538, 4217.949, 4159.487, 4199.487, 4237.949, 16197, 0, []
1627749514.4954, 88, 0, 4276.41, 4202.051, 4134.872, 4161.538, 4199.487, 450, 0, []
1627749514.5033, 89, 0, 4270.769, 4206.154, 4136.41, 4160.513, 4192.821, 450, 0, []
1627749514.5111, 90, 0, 4290.256, 4232.308, 4164.615, 4194.872, 4216.923, 450, 0, []
1627749514.519, 91, 0, 4297.436, 4239.487, 4169.744, 4204.615, 4220, 16197, 0, []
1627749514.5267, 92, 0, 4293.333, 4223.077, 4153.846, 4196.923, 4212.821, 450, 0, []
1627749514.5346, 93, 0, 4289.231, 4213.333, 4148.205, 4195.897, 4217.949, 450, 0, []
1627749514.5424, 94, 0, 4295.897, 4211.795, 4155.897, 4198.462, 4231.282, 450, 0, []
1627749514.5503, 95, 0, 4306.667, 4215.897, 4156.923, 4199.487, 4237.436, 16197, 0, []
1627749514.5581, 96, 0, 4292.308, 4224.103, 4137.949, 4189.231, 4220.513, 450, 0, []
1627749514.5659, 97, 0, 4274.359, 4228.205, 4127.692, 4178.462, 4204.615, 450, 0, []
1627749514.5737, 98, 0, 4292.821, 4240.513, 4154.872, 4193.846, 4215.897, 450, 0, []
1627749514.5817, 99, 0, 4309.744, 4250.256, 4180, 4206.667, 4222.564, 16197, 0, []
1627749514.5896, 100, 0, 4294.872, 4238.462, 4166.667, 4189.744, 4206.667, 450, 0, []
1627749514.5976, 101, 0, 4288.718, 4226.154, 4155.385, 4182.564, 4207.692, 450, 0, []
1627749514.6054, 102, 0, 4307.692, 4235.385, 4165.641, 4208.205, 4232.308, 450, 0, []
1627749514.6134, 103, 0, 4315.385, 4237.949, 4164.103, 4222.564, 4237.436, 16197, 0, []
1627749514.6213, 104, 0, 4299.487, 4227.179, 4148.718, 4203.59, 4213.846, 450, 0, []
1627749514.6293, 105, 0, 4289.231, 4230.769, 4156.41, 4194.359, 4201.026, 450, 0, []
1627749514.6372, 106, 0, 4289.744, 4233.846, 4176.923, 4201.538, 4202.564, 450, 0, []
1627749514.6451, 107, 0, 4289.231, 4215.385, 4165.641, 4191.282, 4200, 16197, 0, []
1627749514.653, 108, 0, 4307.179, 4215.385, 4154.359, 4188.205, 4214.872, 450, 0, []
1627749514.6608, 109, 0, 4325.641, 4243.59, 4176.41, 4202.564, 4240.513, 450, 0, []
1627749514.6687, 110, 0, 4309.231, 4251.282, 4185.641, 4195.385, 4231.795, 450, 0, []
1627749514.6765, 111, 0, 4290.256, 4245.641, 4172.308, 4180.513, 4211.795, 16197, 0, []
1627749514.6843, 112, 0, 4287.692, 4249.744, 4171.282, 4187.179, 4216.41, 450, 0, []
1627749514.6921, 113, 0, 4255.385, 4237.949, 4173.846, 4187.692, 4215.385, 450, 0, []
1627749514.7, 114, 0, 4204.103, 4217.949, 4158.974, 4174.359, 4200, 450, 0, []
1627749514.7078, 115, 0, 4182.051, 4213.333, 4150.256, 4174.359, 4197.949, 16197, 0, []
1627749514.7157, 116, 0, 4173.333, 4208.205, 4148.205, 4173.846, 4190.769, 450, 0, []
1627749514.7234, 117, 0, 4151.282, 4194.359, 4130.769, 4156.41, 4168.205, 450, 0, []
1627749514.7313, 118, 0, 4147.692, 4195.385, 4122.051, 4146.667, 4167.179, 450, 0, []
1627749514.7391, 119, 0, 4164.615, 4207.179, 4133.846, 4156.41, 4184.103, 16197, 0, []
1627749514.7471, 120, 0, 4164.103, 4206.154, 4133.846, 4166.154, 4189.744, 450, 0, []
1627749514.755, 121, 0, 4152.308, 4188.205, 4120.513, 4166.667, 4184.615, 450, 0, []
1627749514.7629, 122, 0, 4154.872, 4175.897, 4120, 4162.051, 4183.077, 450, 0, []
1627749514.7708, 123, 0, 4171.282, 4186.667, 4139.487, 4161.538, 4197.949, 16197, 0, []
1627749514.7788, 124, 0, 4192.308, 4209.231, 4162.564, 4169.744, 4220.513, 450, 0, []
1627749514.7867, 125, 0, 4197.949, 4218.462, 4168.205, 4168.205, 4223.59, 450, 0, []
1627749514.7947, 126, 0, 4176.41, 4212.308, 4156.923, 4155.385, 4205.128, 450, 0, []
1627749514.8025, 127, 0, 4156.923, 4198.974, 4150.769, 4157.949, 4192.308, 16197, 0, []
1627749514.8105, 128, 0, 4153.333, 4186.667, 4146.667, 4175.385, 4186.667, 450, 0, []
1627749514.8184, 0, 0, 4154.872, 4182.564, 4131.282, 4183.077, 4182.051, 450, 0, []
1627749514.8262, 1, 0, 4155.385, 4188.205, 4136.923, 4185.128, 4187.179, 450, 0, []
1627749514.8341, 2, 0, 4143.077, 4183.59, 4156.41, 4178.462, 4182.564, 16193, 0, []
1627749514.8418, 3, 0, 4135.385, 4177.949, 4145.128, 4151.795, 4167.692, 450, 0, []
1627749514.8497, 4, 0, 4158.462, 4191.795, 4127.692, 4127.179, 4172.308, 16179, 0, []
1627749514.8575, 5, 0, 4184.103, 4203.077, 4141.538, 4126.667, 4184.103, 450, 0, []
1627749514.8654, 6, 0, 4188.205, 4207.179, 4160, 4149.744, 4193.846, 16150, 0, []
1627749514.8732, 7, 0, 4190.256, 4219.487, 4151.282, 4174.359, 4206.667, 450, 0, []
1627749514.8811, 8, 0, 4184.103, 4215.897, 4134.359, 4173.333, 4204.615, 450, 0, []
1627749514.889, 9, 0, 4169.744, 4202.564, 4132.821, 4160.513, 4188.205, 16173, 0, []
1627749514.897, 10, 0, 4168.205, 4207.179, 4138.462, 4158.974, 4183.077, 450, 0, []
1627749514.9049, 11, 0, 4165.641, 4207.179, 4136.41, 4148.718, 4175.897, 16197, 0, []
1627749514.9129, 12, 0, 4173.846, 4203.077, 4145.641, 4143.077, 4177.949, 450, 0, []
1627749514.9207, 13, 0, 4216.41, 4227.179, 4192.308, 4185.128, 4218.462, 450, 0, []
1627749514.9287, 14, 0, 4235.385, 4241.538, 4214.359, 4212.821, 4238.974, 450, 0, []
1627749514.9366, 15, 0, 4201.026, 4218.974, 4177.436, 4176.923, 4204.103, 16197, 0, []
1627749514.9446, 16, 0, 4185.641, 4213.333, 4162.051, 4157.436, 4186.154, 0, 0, []
1627749514.9525, 17, 0, 4211.282, 4231.282, 4192.821, 4184.103, 4213.846, 0, 0, []
1627749514.9604, 18, 0, 4217.949, 4236.923, 4202.564, 4188.718, 4225.641, 0, 0, []
1627749514.9683, 19, 0, 4194.872, 4230.769, 4177.949, 4165.641, 4198.974, 0, 0, []
1627749514.9761, 20, 0, 4177.436, 4221.026, 4166.154, 4163.077, 4183.59, 0, 0, []
1627749514.984, 21, 0, 4186.154, 4213.333, 4170.769, 4188.718, 4197.949, 0, 0, []
1627749514.9918, 22, 0, 4197.949, 4212.821, 4172.308, 4203.077, 4210.769, 0, 0, []
1627749514.9996, 23, 0, 4199.487, 4215.897, 4169.231, 4196.41, 4211.795, 0, 0, []
1627749515.0074, 24, 0, 4202.051, 4212.308, 4165.128, 4185.641, 4210.769, 0, 0, []
1627749515.0153, 25, 0, 4199.487, 4217.436, 4167.179, 4173.846, 4205.128, 0, 0, []
1627749515.0231, 26, 0, 4188.205, 4231.282, 4169.231, 4166.667, 4200.513, 0, 0, []
1627749515.031, 27, 0, 4187.179, 4227.692, 4165.128, 4168.205, 4202.564, 0, 0, []
1627749515.0387, 28, 0, 4193.333, 4209.744, 4162.051, 4169.231, 4197.949, 0, 0, []
1627749515.0467, 29, 0, 4188.205, 4204.615, 4165.128, 4174.359, 4200.513, 0, 0, []
1627749515.0546, 30, 0, 4187.692, 4215.897, 4170.256, 4189.744, 4216.923, 0, 0, []
1627749515.0626, 31, 0, 4185.641, 4217.436, 4156.923, 4179.487, 4207.692, 0, 0, []
1627749515.0705, 32, 0, 4165.641, 4209.744, 4132.821, 4142.564, 4176.41, 0, 0, []
1627749515.0784, 33, 0, 4170.256, 4218.974, 4143.59, 4145.128, 4184.615, 0, 0, []
1627749515.0863, 34, 0, 4208.718, 4236.923, 4177.949, 4180.513, 4224.103, 0, 0, []
1627749515.0943, 35, 0, 4225.128, 4237.949, 4185.641, 4192.821, 4235.385, 0, 0, []
1627749515.1022, 36, 0, 4206.667, 4231.795, 4168.718, 4186.154, 4220.513, 0, 0, []
1627749515.1102, 37, 0, 4194.872, 4238.462, 4157.949, 4185.128, 4204.615, 0, 0, []
1627749515.118, 38, 0, 4186.667, 4234.872, 4144.615, 4176.923, 4186.667, 0, 0, []
1627749515.126, 39, 0, 4176.923, 4218.462, 4133.846, 4168.205, 4183.077, 0, 0, []
1627749515.1339, 40, 0, 4191.795, 4214.359, 4143.59, 4174.359, 4207.692, 0, 0, []
1627749515.1417, 41, 0, 4212.308, 4216.41, 4157.436, 4166.667, 4218.974, 0, 0, []
1627749515.1496, 42, 0, 4220.513, 4220, 4173.846, 4154.872, 4215.385, 0, 0, []
1627749515.1573, 43, 0, 4230.256, 4232.821, 4193.846, 4175.385, 4229.744, 0, 0, []
1627749515.1652, 44, 0, 4228.718, 4234.872, 4186.667, 4187.179, 4227.692, 0, 0, []
1627749515.173, 45, 0, 4213.333, 4224.615, 4166.154, 4167.179, 4204.615, 0, 0, []
1627749515.181, 46, 0, 4221.538, 4232.308, 4168.718, 4169.744, 4209.231, 0, 0, []
1627749515.1889, 47, 0, 4241.026, 4241.026, 4169.744, 4188.205, 4226.667, 0, 0, []
1627749515.1969, 48, 0, 4229.744, 4222.051, 4152.821, 4172.308, 4218.974, 0, 0, []
1627749515.2047, 49, 0, 4218.974, 4210.769, 4154.872, 4154.872, 4210.256, 0, 0, []
1627749515.2127, 50, 0, 4225.641, 4217.436, 4154.872, 4158.462, 4216.923, 0, 0, []
1627749515.2206, 51, 0, 4230.256, 4217.949, 4135.385, 4157.949, 4215.897, 0, 0, []
1627749515.2286, 52, 0, 4249.744, 4227.692, 4142.051, 4168.205, 4218.462, 0, 0, []
1627749515.2365, 53, 0, 4268.718, 4234.359, 4162.564, 4175.897, 4223.59, 0, 0, []
1627749515.2444, 54, 0, 4255.385, 4221.538, 4151.795, 4154.359, 4209.744, 0, 0, []
1627749515.2523, 55, 0, 4245.128, 4219.487, 4144.615, 4148.718, 4200, 0, 0, []
1627749515.2603, 56, 0, 4262.051, 4237.436, 4169.231, 4175.897, 4211.282, 0, 0, []
1627749515.2682, 57, 0, 4262.051, 4242.564, 4180, 4185.641, 4206.667, 0, 0, []
1627749515.276, 58, 0, 4237.436, 4227.692, 4163.59, 4165.641, 4180, 0, 0, []
1627749515.2838, 59, 0, 4242.051, 4219.487, 4168.718, 4166.667, 4186.667, 0, 0, []
1627749515.2916, 60, 0, 4272.821, 4224.103, 4187.692, 4182.051, 4215.897, 0, 0, []
1627749515.2995, 61, 0, 4271.795, 4228.205, 4176.923, 4167.692, 4206.667, 0, 0, []
1627749515.3073, 62, 0, 4250.256, 4231.282, 4162.564, 4156.41, 4188.718, 0, 0, []
1627749515.3152, 63, 0, 4252.821, 4234.359, 4165.641, 4168.205, 4195.897, 0, 0, []
1627749515.3229, 64, 0, 4250.769, 4223.077, 4149.744, 4159.487, 4190.769, 450, 0, []
1627749515.3308, 65, 0, 4241.538, 4204.615, 4137.949, 4146.667, 4176.923, 450, 0, []
1627749515.3386, 66, 0, 4256.923, 4204.103, 4163.077, 4165.128, 4191.282, 16193, 0, []
1627749515.3465, 67, 0, 4265.128, 4211.795, 4174.359, 4170.769, 4203.077, 450, 0, []
1627749515.3543, 68, 0, 4250.769, 4213.333, 4157.436, 4150.769, 4186.667, 16179, 0, []
1627749515.3622, 69, 0, 4253.846, 4215.385, 4150.769, 4157.436, 4184.103, 450, 0, []
1627749515.3701, 70, 0, 4265.641, 4214.359, 4147.692, 4180.513, 4206.154, 16154, 0, []
1627749515.3781, 71, 0, 4271.282, 4218.462, 4154.872, 4182.564, 4215.897, 450, 0, []
1627749515.386, 72, 0, 4277.436, 4224.103, 4181.026, 4170.256, 4207.179, 450, 0, []
1627749515.394, 73, 0, 4266.154, 4211.282, 4180.513, 4150.256, 4193.846, 16173, 0, []
1627749515.4018, 74, 0, 4257.949, 4208.205, 4170.256, 4147.692, 4194.359, 450, 0, []
1627749515.4098, 75, 0, 4261.538, 4217.949, 4184.615, 4167.692, 4201.538, 16200, 0, []
1627749515.4177, 76, 0, 4241.538, 4206.154, 4179.487, 4168.718, 4185.641, 450, 0, []
1627749515.4255, 77, 0, 4223.59, 4197.949, 4162.564, 4158.974, 4169.231, 450, 0, []
1627749515.4334, 78, 0, 4248.205, 4223.077, 4182.564, 4177.436, 4187.692, 450, 0, []
1627749515.4411, 79, 0, 4275.897, 4242.564, 4208.718, 4202.051, 4215.385, 16200, 0, []
1627749515.449, 80, 0, 4277.436, 4237.436, 4202.564, 4196.41, 4220, 450, 0, []
1627749515.4569, 81, 0, 4262.564, 4232.821, 4182.051, 4171.282, 4204.615, 450, 0, []
1627749515.4647, 82, 0, 4248.718, 4233.333, 4167.692, 4161.026, 4191.795, 450, 0, []
1627749515.4725, 83, 0, 4256.41, 4237.436, 4167.179, 4173.333, 4196.41, 16200, 0, []
1627749515.4803, 84, 0, 4267.692, 4239.487, 4172.821, 4185.641, 4208.205, 450, 0, []
1627749515.4881, 85, 0, 4254.872, 4234.872, 4176.41, 4180.513, 4203.59, 450, 0, []
1627749515.496, 86, 0, 4243.077, 4236.41, 4179.487, 4168.205, 4189.231, 450, 0, []
1627749515.5038, 87, 0, 4247.692, 4234.872, 4174.872, 4158.974, 4184.103, 16200, 0, []
1627749515.5118, 88, 0, 4251.795, 4219.487, 4168.205, 4151.282, 4186.154, 450, 0, []
1627749515.5196, 89, 0, 4247.179, 4209.231, 4171.282, 4146.154, 4186.667, 450, 0, []
1627749515.5276, 90, 0, 4236.41, 4206.667, 4168.718, 4142.564, 4180.513, 450, 0, []
1627749515.5355, 91, 0, 4234.872, 4201.538, 4165.128, 4146.154, 4179.487, 16200, 0, []
1627749515.5435, 92, 0, 4243.59, 4203.59, 4171.795, 4154.872, 4185.641, 450, 0, []
1627749515.5514, 93, 0, 4228.718, 4203.59, 4169.744, 4141.026, 4165.641, 450, 0, []
1627749515.5593, 94, 0, 4217.436, 4201.026, 4172.308, 4136.41, 4153.846, 450, 0, []
1627749515.5672, 95, 0, 4238.462, 4213.846, 4186.154, 4163.077, 4184.103, 16200, 0, []
1627749515.5752, 96, 0, 4247.692, 4222.564, 4183.077, 4170.769, 4205.128, 450, 0, []
1627749515.5831, 97, 0, 4243.077, 4220, 4181.026, 4169.744, 4197.949, 450, 0, []
1627749515.591, 98, 0, 4252.308, 4218.462, 4193.333, 4186.154, 4202.051, 450, 0, []
1627749515.5988, 99, 0, 4239.487, 4207.692, 4180, 4181.538, 4201.026, 16200, 0, []
1627749515.6066, 100, 0, 4190.256, 4196.923, 4154.872, 4155.897, 4181.538, 450, 0, []
1627749515.6145, 101, 0, 4167.179, 4209.231, 4163.59, 4163.59, 4191.282, 450, 0, []
1627749515.6223, 102, 0, 4172.308, 4221.538, 4181.026, 4188.718, 4211.795, 450, 0, []
1627749515.6302, 103, 0, 4152.308, 4210.769, 4167.692, 4178.462, 4193.846, 16200, 0, []
1627749515.6379, 104, 0, 4132.821, 4194.872, 4152.821, 4158.974, 4172.308, 450, 0, []
1627749515.6458, 105, 0, 4130.256, 4189.744, 4152.308, 4153.846, 4168.718, 450, 0, []
1627749515.6536, 106, 0, 4125.128, 4193.333, 4151.282, 4152.821, 4168.205, 450, 0, []
1627749515.6615, 107, 0, 4128.205, 4203.59, 4158.462, 4160, 4177.436, 16200, 0, []
1627749515.6693, 108, 0, 4140.513, 4211.282, 4167.692, 4171.282, 4186.667, 450, 0, []
1627749515.6772, 109, 0, 4133.846, 4206.154, 4165.641, 4170.256, 4182.564, 450, 0, []
1627749515.6851, 110, 0, 4118.974, 4198.462, 4156.41, 4157.436, 4174.872, 450, 0, []
1627749515.6931, 111, 0, 4123.077, 4200.513, 4155.385, 4156.41, 4173.333, 16200, 0, []
1627749515.701, 112, 0, 4126.154, 4195.897, 4155.385, 4154.872, 4167.692, 450, 0, []
1627749515.709, 113, 0, 4118.462, 4185.128, 4145.641, 4142.051, 4163.077, 450, 0, []
1627749515.7168, 114, 0, 4119.487, 4185.641, 4140.513, 4137.436, 4171.282, 450, 0, []
1627749515.7248, 115, 0, 4127.179, 4194.872, 4147.692, 4145.641, 4182.051, 16200, 0, []
1627749515.7327, 116, 0, 4128.718, 4201.538, 4160, 4156.923, 4185.641, 450, 0, []
1627749515.7407, 117, 0, 4117.949, 4196.923, 4156.923, 4153.846, 4179.487, 450, 0, []
1627749515.7486, 118, 0, 4124.615, 4193.333, 4147.179, 4147.179, 4189.744, 450, 0, []
1627749515.7565, 119, 0, 4158.462, 4198.974, 4152.821, 4154.872, 4219.487, 16200, 0, []
1627749515.7644, 120, 0, 4174.359, 4201.538, 4165.128, 4165.128, 4235.897, 450, 0, []
1627749515.7722, 121, 0, 4163.077, 4204.615, 4173.846, 4169.744, 4233.846, 450, 0, []
1627749515.7801, 122, 0, 4153.333, 4209.744, 4172.821, 4166.667, 4220.513, 450, 0, []
1627749515.7879, 123, 0, 4148.205, 4199.487, 4161.538, 4156.41, 4205.641, 16200, 0, []
1627749515.7957, 124, 0, 4147.179, 4187.179, 4151.282, 4157.436, 4203.59, 450, 0, []
1627749515.8035, 125, 0, 4149.744, 4187.179, 4149.744, 4170.256, 4209.744, 450, 0, []
1627749515.8114, 126, 0, 4141.026, 4185.128, 4155.897, 4164.615, 4204.615, 450, 0, []
1627749515.8192, 127, 0, 4136.923, 4188.205, 4170.256, 4146.667, 4195.385, 16200, 0, []
1627749515.8272, 128, 0, 4150.769, 4201.026, 4187.179, 4148.718, 4198.462, 450, 0, []
1627749515.835, 0, 0, 4158.974, 4211.282, 4189.744, 4163.077, 4210.256, 450, 0, []
1627749515.843, 1, 0, 4155.897, 4214.872, 4171.795, 4169.744, 4213.333, 450, 0, []
1627749515.8509, 2, 0, 4148.718, 4206.154, 4147.692, 4162.564, 4201.026, 16192, 0, []
1627749515.8589, 3, 0, 4143.59, 4196.41, 4144.615, 4158.974, 4194.872, 450, 0, []
1627749515.8668, 4, 0, 4136.923, 4195.385, 4151.795, 4158.974, 4195.897, 16179, 0, []
1627749515.8747, 5, 0, 4120.513, 4180.513, 4135.897, 4129.744, 4172.308, 450, 0, []
1627749515.8826, 6, 0, 4119.487, 4173.846, 4128.718, 4107.179, 4160.513, 16154, 0, []
1627749515.8905, 7, 0, 4150.256, 4202.564, 4162.051, 4141.538, 4194.359, 450, 0, []
1627749515.8984, 8, 0, 4166.154, 4220, 4177.949, 4174.359, 4217.436, 450, 0, []
1627749515.9064, 9, 0, 4158.974, 4210.256, 4160, 4173.333, 4212.821, 16173, 0, []
1627749515.9142, 10, 0, 4153.333, 4196.41, 4150.256, 4168.718, 4204.615, 450, 0, []
1627749515.922, 11, 0, 4130.256, 4183.59, 4133.846, 4150.256, 4178.974, 16200, 0, []
1627749515.9299, 12, 0, 4118.462, 4182.051, 4121.026, 4133.333, 4162.564, 450, 0, []
1627749515.9377, 13, 0, 4137.436, 4188.718, 4143.077, 4136.923, 4174.872, 450, 0, []
1627749515.9456, 14, 0, 4139.487, 4185.641, 4158.462, 4131.795, 4175.897, 450, 0, []
1627749515.9534, 15, 0, 4134.359, 4190.769, 4156.923, 4130.769, 4171.282, 16200, 0, []
1627749515.9612, 16, 0, 4153.846, 4208.205, 4170.769, 4152.308, 4187.179, 0, 0, []
1627749515.969, 17, 0, 4154.872, 4199.487, 4174.359, 4160.513, 4191.282, 0, 0, []
1627749515.977, 18, 0, 4131.795, 4180.513, 4155.897, 4157.436, 4181.538, 0, 0, []
1627749515.9849, 19, 0, 4132.821, 4185.128, 4152.308, 4167.179, 4188.718, 0, 0, []
1627749515.9929, 20, 0, 4137.949, 4178.974, 4144.615, 4163.077, 4190.769, 0, 0, []
1627749516.0007, 21, 0, 4130.769, 4164.103, 4126.667, 4146.154, 4178.462, 0, 0, []
1627749516.0087, 22, 0, 4147.179, 4178.974, 4136.923, 4153.846, 4187.692, 0, 0, []
1627749516.0166, 23, 0, 4172.308, 4201.538, 4160.513, 4171.282, 4214.359, 0, 0, []
1627749516.0246, 24, 0, 4174.359, 4204.615, 4165.641, 4171.795, 4222.051, 0, 0, []
1627749516.0325, 25, 0, 4163.077, 4197.436, 4153.846, 4155.385, 4206.154, 0, 0, []
1627749516.0404, 26, 0, 4152.821, 4187.692, 4140.513, 4137.949, 4191.795, 0, 0, []
1627749516.0483, 27, 0, 4152.308, 4183.59, 4141.026, 4137.436, 4192.308, 0, 0, []
1627749516.0561, 28, 0, 4164.615, 4193.846, 4155.385, 4146.154, 4205.128, 0, 0, []
1627749516.064, 29, 0, 4174.872, 4203.59, 4163.077, 4153.333, 4216.41, 0, 0, []
1627749516.0718, 30, 0, 4178.462, 4201.538, 4158.462, 4162.051, 4217.436, 0, 0, []
1627749516.0796, 31, 0, 4183.077, 4197.949, 4158.974, 4167.692, 4213.333, 0, 0, []
1627749516.0874, 32, 0, 4183.077, 4198.462, 4163.59, 4164.103, 4210.769, 0, 0, []
1627749516.0953, 33, 0, 4184.103, 4202.051, 4168.718, 4166.154, 4218.462, 0, 0, []
1627749516.1031, 34, 0, 4187.692, 4204.103, 4174.359, 4177.436, 4232.821, 0, 0, []
1627749516.1111, 35, 0, 4189.744, 4202.051, 4164.615, 4176.41, 4234.872, 0, 0, []
1627749516.1189, 36, 0, 4196.923, 4203.59, 4156.41, 4171.282, 4230.769, 0, 0, []
1627749516.1269, 37, 0, 4199.487, 4206.154, 4163.59, 4172.308, 4230.256, 0, 0, []
1627749516.1348, 38, 0, 4187.179, 4194.872, 4157.949, 4161.026, 4219.487, 0, 0, []
1627749516.1428, 39, 0, 4175.897, 4182.564, 4136.41, 4148.205, 4209.231, 0, 0, []
1627749516.1507, 40, 0, 4183.59, 4189.744, 4132.821, 4158.462, 4212.308, 0, 0, []
1627749516.1586, 41, 0, 4192.821, 4202.051, 4151.282, 4182.051, 4218.974, 0, 0, []
1627749516.1665, 42, 0, 4187.179, 4202.051, 4159.487, 4187.179, 4218.462, 0, 0, []
1627749516.1745, 43, 0, 4183.59, 4198.974, 4153.333, 4177.949, 4210.769, 0, 0, []
1627749516.1824, 44, 0, 4180, 4191.795, 4137.436, 4162.051, 4194.872, 0, 0, []
1627749516.1903, 45, 0, 4168.205, 4183.077, 4117.949, 4138.974, 4180.513, 0, 0, []
1627749516.1981, 46, 0, 4174.359, 4200, 4128.205, 4140, 4189.744, 0, 0, []
1627749516.2059, 47, 0, 4194.872, 4218.462, 4149.744, 4162.051, 4201.026, 0, 0, []
1627749516.2138, 48, 0, 4193.333, 4201.026, 4135.385, 4160.513, 4192.821, 0, 0, []
1627749516.2216, 49, 0, 4207.179, 4190.256, 4123.59, 4150.256, 4208.718, 0, 0, []
1627749516.2295, 50, 0, 4256.923, 4203.077, 4128.718, 4158.974, 4257.436, 0, 0, []
1627749516.2372, 51, 0, 4300.513, 4201.026, 4122.051, 4154.872, 4298.974, 0, 0, []
1627749516.2451, 52, 0, 4359.487, 4203.59, 4141.538, 4156.41, 4359.487, 0, 0, []
1627749516.2529, 53, 0, 4426.154, 4217.949, 4177.949, 4184.103, 4436.923, 0, 0, []
1627749516.2608, 54, 0, 4445.128, 4207.692, 4169.744, 4187.692, 4467.179, 0, 0, []
1627749516.2686, 55, 0, 4444.615, 4191.795, 4154.872, 4175.897, 4469.744, 0, 0, []
1627749516.2764, 56, 0, 4467.179, 4205.128, 4174.359, 4183.59, 4485.128, 0, 0, []
1627749516.2842, 57, 0, 4471.795, 4220.513, 4179.487, 4186.154, 4488.718, 0, 0, []
1627749516.2922, 58, 0, 4440, 4215.897, 4167.692, 4175.897, 4466.154, 0, 0, []
1627749516.3001, 59, 0, 4410.256, 4204.103, 4168.205, 4165.641, 4432.821, 0, 0, []
1627749516.3081, 60, 0, 4397.436, 4198.462, 4169.231, 4156.41, 4405.128, 0, 0, []
1627749516.3159, 61, 0, 4391.282, 4198.974, 4172.308, 4160, 4397.949, 0, 0, []
1627749516.3239, 62, 0, 4377.949, 4202.564, 4177.436, 4174.359, 4392.308, 0, 0, []
1627749516.3318, 63, 0, 4367.692, 4212.308, 4184.615, 4176.41, 4375.385, 0, 0, []
1627749516.3398, 64, 0, 4363.077, 4223.077, 4188.205, 4173.846, 4363.077, 450, 0, []
1627749516.3477, 65, 0, 4342.564, 4215.897, 4175.385, 4167.692, 4340.513, 450, 0, []
1627749516.3556, 66, 0, 4314.359, 4199.487, 4162.051, 4151.795, 4306.154, 16192, 0, []
1627749516.3635, 67, 0, 4302.051, 4199.487, 4166.154, 4149.231, 4291.795, 450, 0, []
1627749516.3713, 68, 0, 4299.487, 4208.205, 4170.769, 4155.385, 4292.308, 16179, 0, []
1627749516.3792, 69, 0, 4288.718, 4211.795, 4170.769, 4148.205, 4280, 450, 0, []
1627749516.387, 70, 0, 4289.231, 4214.359, 4181.538, 4153.846, 4275.897, 16156, 0, []
1627749516.3948, 71, 0, 4310.256, 4215.385, 4193.846, 4181.026, 4297.436, 450, 0, []
1627749516.4026, 72, 0, 4317.949, 4210.769, 4190.769, 4191.282, 4303.59, 450, 0, []
1627749516.4105, 73, 0, 4297.949, 4202.564, 4179.487, 4174.872, 4276.923, 16178, 0, []
1627749516.4183, 74, 0, 4280, 4198.974, 4176.41, 4162.051, 4259.487, 450, 0, []
1627749516.4262, 75, 0, 4283.59, 4205.128, 4176.923, 4164.103, 4262.564, 16212, 0, []
1627749516.4339, 76, 0, 4281.538, 4202.051, 4164.103, 4158.974, 4254.872, 450, 0, []
1627749516.4418, 77, 0, 4261.538, 4184.615, 4149.231, 4141.538, 4232.308, 450, 0, []
1627749516.4497, 78, 0, 4254.872, 4189.744, 4145.128, 4133.846, 4222.564, 450, 0, []
1627749516.4577, 79, 0, 4265.641, 4201.026, 4142.051, 4139.487, 4226.154, 16212, 0, []
1627749516.4657, 80, 0, 4260, 4182.564, 4136.41, 4140.513, 4218.974, 450, 0, []
1627749516.4735, 81, 0, 4248.718, 4167.692, 4143.077, 4145.128, 4210.769, 450, 0, []
1627749516.4814, 82, 0, 4256.923, 4185.641, 4154.872, 4156.923, 4214.872, 450, 0, []
1627749516.4894, 83, 0, 4260, 4199.487, 4161.538, 4158.974, 4218.974, 16212, 0, []
1627749516.4973, 84, 0, 4255.385, 4198.974, 4171.795, 4156.923, 4219.487, 450, 0, []
1627749516.5053, 85, 0, 4266.667, 4208.718, 4182.051, 4166.154, 4229.231, 450, 0, []
1627749516.5131, 86, 0, 4269.744, 4221.538, 4188.718, 4173.333, 4236.41, 450, 0, []
1627749516.5209, 87, 0, 4247.179, 4213.846, 4182.051, 4162.564, 4221.026, 16212, 0, []
1627749516.5288, 88, 0, 4241.538, 4199.487, 4164.103, 4149.744, 4216.41, 450, 0, []
1627749516.5366, 89, 0, 4272.308, 4206.154, 4154.872, 4157.436, 4240, 450, 0, []
1627749516.5445, 90, 0, 4291.795, 4222.051, 4160, 4170.769, 4251.282, 450, 0, []
1627749516.5522, 91, 0, 4255.385, 4215.385, 4168.718, 4169.231, 4233.846, 16212, 0, []
1627749516.5601, 92, 0, 4196.923, 4202.564, 4176.923, 4157.949, 4219.487, 450, 0, []
1627749516.5679, 93, 0, 4167.692, 4198.462, 4173.333, 4145.641, 4207.179, 450, 0, []
1627749516.5758, 94, 0, 4161.538, 4195.385, 4155.385, 4129.744, 4188.205, 450, 0, []
1627749516.5836, 95, 0, 4151.795, 4197.949, 4146.667, 4121.026, 4180.513, 16212, 0, []
1627749516.5914, 96, 0, 4136.923, 4198.974, 4137.436, 4124.103, 4173.333, 450, 0, []
1627749516.5992, 97, 0, 4124.615, 4187.179, 4109.744, 4125.641, 4160.513, 450, 0, []
1627749516.6072, 98, 0, 4131.282, 4186.667, 4107.692, 4136.923, 4172.821, 450, 0, []
1627749516.6151, 99, 0, 4150.256, 4196.41, 4135.897, 4151.795, 4190.769, 16212, 0, []
1627749516.6231, 100, 0, 4145.128, 4188.718, 4152.821, 4148.718, 4179.487, 450, 0, []
1627749516.6309, 101, 0, 4123.077, 4181.538, 4150.769, 4130.256, 4160, 450, 0, []
1627749516.6389, 102, 0, 4113.846, 4187.692, 4142.564, 4108.718, 4146.154, 450, 0, []
1627749516.6468, 103, 0, 4107.179, 4184.615, 4128.205, 4093.846, 4133.333, 16212, 0, []
1627749516.6548, 104, 0, 4098.974, 4175.385, 4120.513, 4093.846, 4131.795, 450, 0, []
1627749516.6627, 105, 0, 4107.179, 4176.41, 4137.436, 4119.487, 4142.564, 450, 0, []
1627749516.6705, 106, 0, 4119.487, 4174.359, 4154.872, 4151.282, 4152.821, 450, 0, []
1627749516.6784, 107, 0, 4115.897, 4168.718, 4150.769, 4158.462, 4154.359, 16212, 0, []
1627749516.6862, 108, 0, 4109.744, 4177.436, 4140, 4144.615, 4146.667, 450, 0, []
1627749516.6941, 109, 0, 4107.179, 4188.205, 4134.872, 4128.205, 4134.872, 450, 0, []
1627749516.7019, 110, 0, 4108.205, 4188.718, 4144.615, 4121.026, 4134.359, 450, 0, []
1627749516.7098, 111, 0, 4114.872, 4189.744, 4163.077, 4121.538, 4138.462, 16212, 0, []
1627749516.7175, 112, 0, 4113.846, 4186.154, 4174.359, 4123.077, 4137.949, 450, 0, []
1627749516.7254, 113, 0, 4101.026, 4183.59, 4176.41, 4125.128, 4131.795, 450, 0, []
1627749516.7332, 114, 0, 4105.641, 4207.179, 4187.692, 4149.744, 4136.923, 450, 0, []
1627749516.7411, 115, 0, 4111.282, 4222.051, 4182.564, 4176.923, 4143.077, 16212, 0, []
1627749516.7489, 116, 0, 4087.692, 4190.256, 4153.333, 4168.205, 4126.154, 450, 0, []
1627749516.7568, 117, 0, 4074.872, 4162.564, 4160, 4156.923, 4112.308, 450, 0, []
1627749516.7647, 118, 0, 4085.641, 4166.154, 4188.718, 4152.308, 4116.41, 450, 0, []
1627749516.7727, 119, 0, 4092.308, 4181.538, 4186.667, 4133.333, 4119.487, 16212, 0, []
1627749516.7806, 120, 0, 4106.154, 4210.769, 4186.154, 4129.744, 4133.333, 450, 0, []
1627749516.7886, 121, 0, 4124.615, 4236.41, 4200.513, 4152.308, 4158.974, 450, 0, []
1627749516.7964, 122, 0, 4115.385, 4238.974, 4192.308, 4160.513, 4155.385, 450, 0, []
1627749516.8044, 123, 0, 4091.795, 4236.923, 4165.128, 4158.462, 4133.846, 16212, 0, []
1627749516.8123, 124, 0, 4074.359, 4223.077, 4152.308, 4156.923, 4125.641, 450, 0, []
1627749516.8203, 125, 0, 4058.462, 4196.923, 4156.41, 4141.538, 4120.513, 450, 0, []
1627749516.8282, 126, 0, 4064.103, 4197.436, 4167.692, 4134.359, 4125.128, 450, 0, []
1627749516.8359, 127, 0, 4080, 4201.538, 4173.846, 4137.949, 4133.846, 16212, 0, []
1627749516.8438, 128, 0, 4085.128, 4188.205, 4173.333, 4143.59, 4134.359, 450, 0, []
1627749516.8516, 0, 0, 4091.795, 4184.615, 4166.154, 4148.205, 4133.846, 450, 0, []
1627749516.8595, 1, 0, 4099.487, 4200.513, 4164.103, 4150.769, 4136.41, 450, 0, []
1627749516.8673, 2, 0, 4098.974, 4211.795, 4180.513, 4162.051, 4138.974, 16192, 0, []
1627749516.8751, 3, 0, 4089.231, 4205.128, 4183.077, 4168.718, 4131.795, 450, 0, []
1627749516.8829, 4, 0, 4072.308, 4194.359, 4147.692, 4152.821, 4117.436, 16180, 0, []
1627749516.8908, 5, 0, 4065.641, 4194.872, 4119.487, 4132.821, 4113.846, 450, 0, []
1627749516.8986, 6, 0, 4074.872, 4204.615, 4132.308, 4138.462, 4123.077, 16156, 0, []
1627749516.9066, 7, 0, 4081.026, 4210.256, 4155.385, 4153.333, 4124.103, 450, 0, []
1627749516.9144, 8, 0, 4083.077, 4211.795, 4156.923, 4156.923, 4127.179, 450, 0, []
1627749516.9224, 9, 0, 4090.256, 4219.487, 4136.41, 4154.359, 4134.872, 16182, 0, []
1627749516.9303, 10, 0, 4091.282, 4220, 4118.974, 4153.846, 4129.231, 450, 0, []
1627749516.9383, 11, 0, 4082.051, 4210.256, 4124.103, 4154.872, 4116.923, 16208, 0, []
1627749516.9462, 12, 0, 4069.231, 4205.128, 4135.385, 4151.795, 4108.718, 450, 0, []
1627749516.9541, 13, 0, 4068.205, 4215.897, 4139.487, 4158.974, 4110.769, 450, 0, []
1627749516.962, 14, 0, 4083.077, 4228.205, 4142.564, 4174.872, 4122.564, 450, 0, []
1627749516.97, 15, 0, 4090.769, 4229.231, 4142.564, 4176.41, 4125.641, 16208, 0, []
1627749516.9779, 16, 0, 4093.846, 4225.128, 4138.974, 4168.718, 4120.513, 0, 0, []
1627749516.9857, 17, 0, 4106.154, 4220.513, 4146.667, 4167.179, 4123.077, 0, 0, []
1627749516.9935, 18, 0, 4108.205, 4217.436, 4151.282, 4164.103, 4123.077, 0, 0, []
1627749517.0013, 19, 0, 4094.872, 4218.462, 4132.308, 4149.231, 4111.282, 0, 0, []
1627749517.0092, 20, 0, 4080, 4222.564, 4112.308, 4142.564, 4100.513, 0, 0, []
1627749517.017, 21, 0, 4073.333, 4228.205, 4116.41, 4151.282, 4097.949, 0, 0, []
1627749517.0249, 22, 0, 4074.872, 4232.821, 4125.128, 4153.333, 4096.41, 0, 0, []
1627749517.0326, 23, 0, 4075.385, 4229.744, 4117.949, 4138.974, 4088.205, 0, 0, []
1627749517.0405, 24, 0, 4075.897, 4218.462, 4110.769, 4133.333, 4083.59, 0, 0, []
1627749517.0483, 25, 0, 4091.282, 4216.41, 4119.487, 4145.641, 4095.385, 0, 0, []
1627749517.0562, 26, 0, 4098.462, 4226.667, 4127.692, 4155.385, 4108.205, 0, 0, []
1627749517.064, 27, 0, 4086.154, 4238.974, 4128.205, 4154.359, 4106.154, 0, 0, []
1627749517.0719, 28, 0, 4084.103, 4251.795, 4139.487, 4153.846, 4105.641, 0, 0, []
1627749517.0798, 29, 0, 4093.333, 4260, 4156.923, 4156.41, 4113.846, 0, 0, []
1627749517.0878, 30, 0, 4098.974, 4265.128, 4158.974, 4157.949, 4121.026, 0, 0, []
1627749517.0957, 31, 0, 4106.154, 4274.359, 4151.282, 4157.949, 4125.641, 0, 0, []
1627749517.1037, 32, 0, 4106.154, 4272.308, 4138.462, 4154.359, 4124.103, 0, 0, []
1627749517.1115, 33, 0, 4097.436, 4256.923, 4131.282, 4149.744, 4114.872, 0, 0, []
1627749517.1195, 34, 0, 4105.128, 4259.487, 4143.077, 4161.538, 4117.949, 0, 0, []
1627749517.1274, 35, 0, 4115.385, 4278.974, 4153.846, 4178.462, 4127.692, 0, 0, []
1627749517.1354, 36, 0, 4095.897, 4281.538, 4141.026, 4166.667, 4110.769, 0, 0, []
1627749517.1433, 37, 0, 4078.974, 4277.949, 4124.615, 4142.051, 4085.641, 0, 0, []
1627749517.151, 38, 0, 4088.718, 4289.231, 4132.308, 4147.179, 4093.333, 0, 0, []
1627749517.1589, 39, 0, 4086.667, 4291.282, 4144.615, 4161.538, 4097.949, 0, 0, []
1627749517.1667, 40, 0, 4075.385, 4278.974, 4140.513, 4153.846, 4081.538, 0, 0, []
1627749517.1746, 41, 0, 4091.795, 4276.41, 4134.872, 4156.923, 4091.795, 0, 0, []
1627749517.1824, 42, 0, 4110.256, 4282.051, 4135.385, 4172.821, 4114.359, 0, 0, []
1627749517.1902, 43, 0, 4110.256, 4289.744, 4140, 4171.282, 4106.667, 0, 0, []
1627749517.198, 44, 0, 4102.564, 4294.359, 4136.41, 4149.744, 4085.641, 0, 0, []
1627749517.2059, 45, 0, 4082.564, 4284.615, 4121.538, 4125.641, 4069.231, 0, 0, []
1627749517.2137, 46, 0, 4069.744, 4271.795, 4110.769, 4116.41, 4058.462, 0, 0, []
1627749517.2217, 47, 0, 4085.128, 4276.41, 4118.462, 4135.385, 4072.821, 0, 0, []
1627749517.2295, 48, 0, 4096.41, 4285.641, 4131.795, 4162.564, 4098.974, 0, 0, []
1627749517.2375, 49, 0, 4094.872, 4292.308, 4137.949, 4169.231, 4105.641, 0, 0, []
1627749517.2454, 50, 0, 4096.923, 4294.872, 4134.359, 4161.538, 4100, 0, 0, []
1627749517.2534, 51, 0, 4096.923, 4289.744, 4122.564, 4149.744, 4090.256, 0, 0, []
1627749517.2613, 52, 0, 4099.487, 4293.333, 4131.795, 4149.231, 4084.103, 0, 0, []
1627749517.2692, 53, 0, 4112.821, 4303.077, 4157.949, 4165.128, 4096.41, 0, 0, []
1627749517.2771, 54, 0, 4111.795, 4300, 4153.846, 4159.487, 4101.026, 0, 0, []
1627749517.2851, 55, 0, 4096.41, 4290.769, 4132.821, 4137.949, 4084.103, 0, 0, []
1627749517.293, 56, 0, 4096.923, 4293.846, 4135.385, 4143.077, 4082.051, 0, 0, []
1627749517.3008, 57, 0, 4104.615, 4298.974, 4144.103, 4151.795, 4093.846, 0, 0, []
1627749517.3086, 58, 0, 4102.051, 4294.359, 4133.333, 4140.513, 4087.179, 0, 0, []
1627749517.3164, 59, 0, 4107.692, 4292.821, 4135.897, 4144.615, 4091.282, 0, 0, []
1627749517.3243, 60, 0, 4116.41, 4297.949, 4147.179, 4156.923, 4109.231, 0, 0, []
1627749517.3321, 61, 0, 4107.179, 4304.103, 4134.359, 4144.615, 4100, 0, 0, []
1627749517.34, 62, 0, 4107.179, 4311.795, 4129.231, 4142.564, 4091.795, 0, 0, []
1627749517.3477, 63, 0, 4121.026, 4311.795, 4150.256, 4164.103, 4107.179, 0, 0, []
1627749517.3556, 64, 0, 4114.359, 4302.564, 4153.333, 4169.231, 4109.744, 450, 0, []
1627749517.3634, 65, 0, 4102.564, 4303.077, 4144.103, 4169.231, 4103.59, 450, 0, []
1627749517.3714, 66, 0, 4109.744, 4313.846, 4152.308, 4173.846, 4107.692, 16192, 0, []
1627749517.3793, 67, 0, 4108.205, 4311.282, 4160, 4158.974, 4099.487, 450, 0, []
1627749517.3872, 68, 0, 4094.872, 4307.179, 4156.41, 4143.59, 4088.205, 16180, 0, []
1627749517.3951, 69, 0, 4098.974, 4321.026, 4156.41, 4148.718, 4101.026, 450, 0, []
1627749517.4031, 70, 0, 4110.256, 4332.821, 4159.487, 4156.41, 4112.308, 16156, 0, []
1627749517.411, 71, 0, 4103.077, 4322.564, 4152.821, 4153.333, 4104.615, 450, 0, []
1627749517.419, 72, 0, 4094.359, 4306.154, 4141.538, 4152.308, 4096.41, 450, 0, []
1627749517.4269, 73, 0, 4110.256, 4307.179, 4150.256, 4163.077, 4108.718, 16182, 0, []
1627749517.4347, 74, 0, 4129.231, 4318.974, 4171.795, 4174.359, 4126.667, 450, 0, []
1627749517.4426, 75, 0, 4120, 4313.846, 4164.103, 4167.179, 4115.385, 16207, 0, []
1627749517.4505, 76, 0, 4098.462, 4294.872, 4131.282, 4137.949, 4088.205, 450, 0, []
1627749517.4583, 77, 0, 4092.308, 4292.821, 4124.103, 4118.974, 4083.077, 450, 0, []
1627749517.4661, 78, 0, 4095.385, 4298.462, 4130.256, 4126.667, 4092.821, 450, 0, []
1627749517.4739, 79, 0, 4097.949, 4285.128, 4126.667, 4142.051, 4100, 16207, 0, []
1627749517.4817, 80, 0, 4100, 4276.41, 4135.385, 4157.436, 4107.692, 450, 0, []
1627749517.4896, 81, 0, 4101.026, 4286.154, 4145.641, 4170.769, 4106.667, 450, 0, []
1627749517.4974, 82, 0, 4093.333, 4282.564, 4127.692, 4163.59, 4092.821, 450, 0, []
1627749517.5053, 83, 0, 4080.513, 4276.923, 4102.051, 4136.41, 4085.128, 16207, 0, []
1627749517.513, 84, 0, 4082.051, 4281.026, 4099.487, 4126.667, 4087.179, 450, 0, []
1627749517.5209, 85, 0, 4092.821, 4273.846, 4110.256, 4135.897, 4090.769, 450, 0, []
1627749517.5287, 86, 0, 4097.436, 4267.179, 4127.692, 4136.923, 4097.949, 450, 0, []
1627749517.5367, 87, 0, 4101.538, 4274.359, 4149.231, 4136.923, 4106.667, 16207, 0, []
1627749517.5446, 88, 0, 4122.051, 4287.692, 4160.513, 4155.897, 4122.051, 450, 0, []
1627749517.5525, 89, 0, 4143.077, 4298.974, 4157.436, 4172.821, 4138.974, 450, 0, []
1627749517.5604, 90, 0, 4141.026, 4300, 4148.205, 4170.256, 4138.462, 450, 0, []
1627749517.5684, 91, 0, 4125.641, 4285.128, 4137.949, 4157.436, 4122.051, 16207, 0, []
1627749517.5763, 92, 0, 4115.385, 4273.846, 4134.872, 4141.026, 4104.103, 450, 0, []
1627749517.5843, 93, 0, 4122.564, 4282.564, 4145.128, 4139.487, 4107.692, 450, 0, []
1627749517.5921, 94, 0, 4138.462, 4289.744, 4150.256, 4154.872, 4132.308, 450, 0, []
1627749517.6001, 95, 0, 4145.128, 4282.564, 4140, 4154.872, 4143.077, 16207, 0, []
1627749517.608, 96, 0, 4139.487, 4275.897, 4131.282, 4136.923, 4127.692, 450, 0, []
1627749517.616, 97, 0, 4138.974, 4277.436, 4135.897, 4141.026, 4122.051, 450, 0, []
1627749517.6239, 98, 0, 4139.487, 4280, 4146.154, 4157.949, 4125.641, 450, 0, []
1627749517.6316, 99, 0, 4129.231, 4285.641, 4149.231, 4153.333, 4116.41, 16207, 0, []
1627749517.6395, 100, 0, 4125.641, 4290.769, 4149.231, 4147.692, 4114.359, 450, 0, []
1627749517.6473, 101, 0, 4127.179, 4282.564, 4139.487, 4154.359, 4123.077, 450, 0, []
1627749517.6552, 102, 0, 4122.564, 4272.821, 4127.179, 4156.41, 4130.256, 450, 0, []
1627749517.663, 103, 0, 4123.59, 4275.897, 4135.897, 4154.872, 4134.872, 16207, 0, []
1627749517.6708, 104, 0, 4128.205, 4280, 4150.769, 4155.897, 4130.769, 450, 0, []
1627749517.6786, 105, 0, 4122.051, 4275.385, 4147.692, 4151.282, 4118.462, 450, 0, []
1627749517.6866, 106, 0, 4117.436, 4272.308, 4137.949, 4148.205, 4117.949, 450, 0, []
1627749517.6945, 107, 0, 4124.615, 4274.872, 4135.385, 4161.538, 4133.846, 16207, 0, []
1627749517.7025, 108, 0, 4125.641, 4282.051, 4131.282, 4174.872, 4133.333, 450, 0, []
1627749517.7103, 109, 0, 4124.103, 4286.154, 4136.923, 4174.359, 4120, 450, 0, []
1627749517.7183, 110, 0, 4131.282, 4278.974, 4156.923, 4169.231, 4122.564, 450, 0, []
1627749517.7262, 111, 0, 4137.949, 4275.897, 4168.205, 4170.769, 4137.436, 16207, 0, []
