Timestamp, COUNTER, INTERPOLATED, AF3, T7, Pz, T8, AF4, RAW_CQ, MARKER_HARDWARE, MARKERS
1632408025.5717, 75, 0, 4113.846, 4511.795, 4022.564, 4108.205, 4010.256, 16184, 0, []
1632408025.5795, 76, 0, 4111.795, 4520, 4016.41, 4112.308, 4005.128, 450, 0, []
1632408025.5875, 77, 0, 4127.179, 4584.615, 4027.179, 4141.026, 4028.205, 450, 0, []
1632408025.5954, 78, 0, 4127.179, 4647.179, 4040.513, 4149.231, 4032.308, 450, 0, []
1632408025.6034, 79, 0, 4107.179, 4691.282, 4027.179, 4129.231, 4010.769, 16184, 0, []
1632408025.6113, 80, 0, 4094.872, 4707.692, 4017.949, 4125.641, 4008.205, 450, 0, []
1632408025.6192, 81, 0, 4098.462, 4810.769, 4008.718, 4142.051, 4021.538, 450, 0, []
1632408025.6271, 82, 0, 4112.821, 4911.795, 4010.769, 4146.154, 4030.256, 450, 0, []
1632408025.6351, 83, 0, 4123.59, 4784.103, 4014.359, 4136.923, 4035.897, 16184, 0, []
1632408025.643, 84, 0, 4130.769, 4586.154, 4016.41, 4136.41, 4043.59, 450, 0, []
1632408025.651, 85, 0, 4139.487, 4608.205, 4040, 4140, 4050.256, 450, 0, []
1632408025.6588, 86, 0, 4143.59, 4814.872, 4034.872, 4144.615, 4041.026, 450, 0, []
1632408025.6666, 87, 0, 4122.564, 5017.436, 4025.128, 4149.744, 4027.179, 16184, 0, []
1632408025.6745, 88, 0, 4110.769, 5142.564, 4033.333, 4156.41, 4027.692, 450, 0, []
1632408025.6823, 89, 0, 4126.667, 5221.026, 4029.231, 4159.487, 4042.564, 450, 0, []
1632408025.6902, 90, 0, 4135.897, 5175.385, 4029.744, 4155.897, 4058.974, 450, 0, []
1632408025.6979, 91, 0, 4151.795, 5045.641, 4036.923, 4162.051, 4064.103, 16184, 0, []
1632408025.7058, 92, 0, 4168.205, 4993.846, 4064.103, 4186.154, 4068.205, 450, 0, []
1632408025.7136, 93, 0, 4150.256, 5009.744, 4060.513, 4201.026, 4061.538, 450, 0, []
1632408025.7215, 94, 0, 4128.205, 5025.128, 4010.256, 4188.718, 4056.923, 450, 0, []
1632408025.7293, 95, 0, 4147.692, 5005.641, 4004.103, 4182.051, 4077.949, 16184, 0, []
1632408025.7371, 96, 0, 4167.179, 4996.41, 4026.667, 4193.333, 4085.128, 450, 0, []
1632408025.7449, 97, 0, 4151.282, 5009.231, 4039.487, 4201.538, 4062.564, 450, 0, []
1632408025.7529, 98, 0, 4135.897, 4896.923, 4035.385, 4195.897, 4053.846, 450, 0, []
1632408025.7608, 99, 0, 4121.538, 4724.103, 4000.513, 4174.359, 4063.59, 16184, 0, []
1632408025.7688, 100, 0, 4121.026, 4769.744, 3994.872, 4168.718, 4069.744, 450, 0, []
1632408025.7766, 101, 0, 4147.179, 4923.59, 4021.538, 4183.59, 4080, 450, 0, []
1632408025.7846, 102, 0, 4152.308, 4867.179, 4029.231, 4189.231, 4080.513, 450, 0, []
1632408025.7925, 103, 0, 4140, 4706.154, 4031.282, 4193.846, 4066.667, 16184, 0, []
1632408025.8005, 104, 0, 4144.615, 4701.538, 4038.462, 4209.231, 4070.769, 450, 0, []
1632408025.8084, 105, 0, 4151.282, 4855.385, 4036.923, 4209.231, 4076.41, 450, 0, []
1632408025.8161, 106, 0, 4141.026, 4960.513, 4010.256, 4185.128, 4074.359, 450, 0, []
1632408025.824, 107, 0, 4142.051, 4880, 4003.59, 4176.41, 4083.077, 16184, 0, []
1632408025.8318, 108, 0, 4161.026, 4771.795, 4036.41, 4190.769, 4093.333, 450, 0, []
1632408025.8397, 109, 0, 4160.513, 4774.359, 4041.538, 4210.256, 4094.359, 450, 0, []
1632408025.8475, 110, 0, 4134.359, 4817.436, 4028.205, 4217.949, 4077.949, 450, 0, []
1632408025.8553, 111, 0, 4113.846, 4803.59, 4024.103, 4207.692, 4069.231, 16184, 0, []
1632408025.8631, 112, 0, 4124.103, 4801.538, 4017.436, 4204.615, 4081.538, 450, 0, []
1632408025.871, 113, 0, 4144.103, 4940, 4027.692, 4219.487, 4094.359, 450, 0, []
1632408025.8788, 114, 0, 4143.077, 5113.333, 4020.513, 4230.769, 4101.026, 450, 0, []
1632408025.8867, 115, 0, 4138.974, 5040.513, 4005.128, 4223.077, 4092.821, 16184, 0, []
1632408025.8944, 116, 0, 4135.897, 4807.179, 3998.974, 4198.974, 4084.103, 450, 0, []
1632408025.9024, 117, 0, 4133.333, 4890.769, 3997.949, 4183.59, 4094.359, 450, 0, []
1632408025.9103, 118, 0, 4148.205, 5214.872, 4031.282, 4199.487, 4107.692, 450, 0, []
1632408025.9183, 119, 0, 4158.462, 5306.667, 4031.282, 4221.026, 4099.487, 16184, 0, []
1632408025.9262, 120, 0, 4150.769, 5159.487, 4008.205, 4219.487, 4099.487, 450, 0, []
1632408025.9341, 121, 0, 4152.821, 4994.359, 4030.256, 4210.769, 4122.051, 450, 0, []
1632408025.942, 122, 0, 4158.462, 4800, 4055.385, 4209.744, 4118.462, 450, 0, []
1632408025.95, 123, 0, 4140, 4580, 4065.641, 4202.564, 4091.282, 16184, 0, []
1632408025.9579, 124, 0, 4115.897, 4485.641, 4043.59, 4186.154, 4077.949, 450, 0, []
1632408025.9659, 125, 0, 4119.487, 4481.538, 4025.641, 4180.513, 4080, 450, 0, []
1632408025.9738, 126, 0, 4137.949, 4473.846, 4038.974, 4186.667, 4097.949, 450, 0, []
1632408025.9815, 127, 0, 4150.256, 4435.385, 4031.282, 4187.179, 4108.205, 16184, 0, []
1632408025.9894, 128, 0, 4146.667, 4420.513, 4035.897, 4183.59, 4102.051, 450, 0, []
1632408025.9972, 0, 0, 4133.846, 4472.821, 4045.128, 4185.128, 4101.026, 450, 0, []
1632408026.0051, 1, 0, 4118.974, 4506.667, 4031.282, 4187.179, 4084.103, 450, 0, []
1632408026.0129, 2, 0, 4107.692, 4538.462, 4024.103, 4183.59, 4067.179, 16184, 0, []
1632408026.0207, 3, 0, 4128.205, 4601.538, 4015.897, 4178.974, 4096.923, 450, 0, []
1632408026.0285, 4, 0, 4183.59, 4613.846, 4021.538, 4173.333, 4153.846, 16117, 0, []
1632408026.0364, 5, 0, 4223.077, 4561.026, 4030.256, 4174.359, 4197.436, 450, 0, []
1632408026.0442, 6, 0, 4237.949, 4575.385, 4040.513, 4192.308, 4230.256, 16103, 0, []
1632408026.0521, 7, 0, 4266.154, 4625.128, 4062.051, 4214.359, 4260, 450, 0, []
1632408026.0598, 8, 0, 4276.923, 4609.744, 4072.308, 4225.128, 4268.718, 450, 0, []
1632408026.0678, 9, 0, 4242.564, 4594.359, 4078.974, 4218.462, 4262.564, 16147, 0, []
1632408026.0757, 10, 0, 4227.179, 4620, 4038.462, 4194.872, 4236.923, 450, 0, []
1632408026.0837, 11, 0, 4237.436, 4642.051, 4026.154, 4175.897, 4218.462, 16196, 0, []
1632408026.0916, 12, 0, 4240.513, 4594.872, 4075.897, 4189.231, 4244.615, 450, 0, []
1632408026.0995, 13, 0, 4251.282, 4543.077, 4066.154, 4208.205, 4255.385, 450, 0, []
1632408026.1074, 14, 0, 4242.051, 4556.41, 4057.949, 4211.282, 4229.744, 450, 0, []
1632408026.1154, 15, 0, 4208.205, 4556.923, 4080, 4226.667, 4230.256, 16196, 0, []
1632408026.1233, 16, 0, 4214.359, 4487.692, 4071.282, 4235.897, 4245.128, 0, 0, []
1632408026.1311, 17, 0, 4229.231, 4391.795, 4075.897, 4206.154, 4235.897, 0, 0, []
1632408026.1389, 18, 0, 4212.308, 4369.744, 4084.103, 4181.538, 4227.692, 0, 0, []
1632408026.1467, 19, 0, 4217.436, 4380.513, 4082.051, 4181.538, 4237.436, 0, 0, []
1632408026.1546, 20, 0, 4221.026, 4369.744, 4080, 4184.103, 4235.385, 0, 0, []
1632408026.1624, 21, 0, 4197.436, 4393.333, 4069.231, 4196.41, 4217.436, 0, 0, []
1632408026.1703, 22, 0, 4212.821, 4407.692, 4067.179, 4215.385, 4224.103, 0, 0, []
1632408026.178, 23, 0, 4242.564, 4411.795, 4070.769, 4221.538, 4251.795, 0, 0, []
1632408026.1859, 24, 0, 4233.846, 4477.436, 4065.128, 4225.128, 4255.385, 0, 0, []
1632408026.1937, 25, 0, 4242.051, 4511.282, 4040.513, 4221.538, 4247.179, 0, 0, []
1632408026.2016, 26, 0, 4264.615, 4488.205, 4042.564, 4198.462, 4265.128, 0, 0, []
1632408026.2094, 27, 0, 4259.487, 4558.462, 4078.974, 4191.282, 4273.333, 0, 0, []
1632408026.2173, 28, 0, 4273.846, 4646.154, 4063.59, 4213.333, 4258.974, 0, 0, []
1632408026.2252, 29, 0, 4311.282, 4617.949, 4054.359, 4228.718, 4291.282, 0, 0, []
1632408026.2332, 30, 0, 4337.436, 4628.718, 4084.103, 4243.077, 4369.231, 0, 0, []
1632408026.2411, 31, 0, 4378.462, 4678.974, 4092.821, 4264.103, 4430.256, 0, 0, []
1632408026.2491, 32, 0, 4433.846, 4582.564, 4097.436, 4263.077, 4457.436, 0, 0, []
1632408026.2569, 33, 0, 4481.026, 4438.974, 4082.051, 4247.179, 4483.59, 0, 0, []
1632408026.2649, 34, 0, 4520.513, 4431.795, 4071.795, 4243.077, 4519.487, 0, 0, []
1632408026.2728, 35, 0, 4537.436, 4459.487, 4093.333, 4242.564, 4535.385, 0, 0, []
1632408026.2808, 36, 0, 4506.667, 4411.282, 4085.128, 4228.205, 4515.897, 0, 0, []
1632408026.2887, 37, 0, 4454.359, 4372.308, 4077.949, 4223.59, 4491.282, 0, 0, []
1632408026.2964, 38, 0, 4399.487, 4380.513, 4080, 4237.949, 4468.718, 0, 0, []
1632408026.3043, 39, 0, 4342.564, 4386.667, 4078.462, 4255.897, 4421.026, 0, 0, []
1632408026.3121, 40, 0, 4314.872, 4383.59, 4092.821, 4269.231, 4374.359, 0, 0, []
1632408026.32, 41, 0, 4280, 4335.385, 4096.923, 4269.744, 4343.59, 0, 0, []
1632408026.3278, 42, 0, 4211.795, 4253.846, 4093.846, 4255.897, 4303.077, 0, 0, []
1632408026.3356, 43, 0, 4169.231, 4232.308, 4067.692, 4235.385, 4256.41, 0, 0, []
1632408026.3434, 44, 0, 4165.128, 4210.769, 4048.205, 4223.59, 4229.231, 0, 0, []
1632408026.3514, 45, 0, 4162.051, 4206.154, 4068.205, 4234.359, 4218.462, 0, 0, []
1632408026.3593, 46, 0, 4147.179, 4310.256, 4061.538, 4238.462, 4202.051, 0, 0, []
1632408026.3673, 47, 0, 4135.385, 4362.051, 4045.128, 4220.513, 4192.821, 0, 0, []
1632408026.3751, 48, 0, 4136.41, 4330.769, 4048.718, 4205.641, 4205.641, 0, 0, []
1632408026.3831, 49, 0, 4148.718, 4352.821, 4062.051, 4206.154, 4215.897, 0, 0, []
1632408026.391, 50, 0, 4148.718, 4355.385, 4084.615, 4209.744, 4197.949, 0, 0, []
1632408026.399, 51, 0, 4121.538, 4274.872, 4069.231, 4197.949, 4166.154, 0, 0, []
1632408026.4069, 52, 0, 4103.59, 4233.333, 4053.846, 4177.949, 4150.769, 0, 0, []
1632408026.4148, 53, 0, 4107.692, 4237.949, 4054.359, 4176.41, 4157.436, 0, 0, []
1632408026.4227, 54, 0, 4103.077, 4225.128, 4023.59, 4182.564, 4153.333, 0, 0, []
1632408026.4306, 55, 0, 4081.538, 4283.59, 4010.256, 4173.333, 4140, 0, 0, []
1632408026.4385, 56, 0, 4078.974, 4414.872, 4003.077, 4167.179, 4141.026, 0, 0, []
1632408026.4463, 57, 0, 4090.769, 4461.538, 4000.513, 4174.872, 4150.769, 0, 0, []
1632408026.4541, 58, 0, 4093.333, 4392.821, 4014.359, 4179.487, 4157.436, 0, 0, []
1632408026.4619, 59, 0, 4103.077, 4353.333, 4027.179, 4180.513, 4161.026, 0, 0, []
1632408026.4698, 60, 0, 4124.103, 4357.436, 4061.026, 4188.718, 4174.359, 0, 0, []
1632408026.4776, 61, 0, 4133.333, 4324.103, 4070.256, 4196.923, 4178.462, 0, 0, []
1632408026.4855, 62, 0, 4127.179, 4316.923, 4067.179, 4201.026, 4165.128, 0, 0, []
1632408026.4932, 63, 0, 4120, 4337.436, 4066.154, 4205.641, 4159.487, 0, 0, []
1632408026.5011, 64, 0, 4110.256, 4308.205, 4037.949, 4200, 4152.821, 450, 0, []
1632408026.5089, 65, 0, 4107.179, 4300.513, 4034.359, 4196.41, 4143.077, 450, 0, []
1632408026.5168, 66, 0, 4109.744, 4350.256, 4031.795, 4198.462, 4147.179, 16174, 0, []
1632408026.5246, 67, 0, 4108.205, 4346.667, 4024.615, 4183.59, 4154.872, 450, 0, []
1632408026.5325, 68, 0, 4113.333, 4312.821, 4033.846, 4169.231, 4153.333, 16156, 0, []
1632408026.5404, 69, 0, 4124.103, 4290.769, 4032.821, 4184.615, 4160.513, 450, 0, []
1632408026.5484, 70, 0, 4124.615, 4274.359, 4039.487, 4205.128, 4168.205, 16098, 0, []
1632408026.5563, 71, 0, 4123.59, 4293.333, 4047.179, 4212.821, 4164.103, 450, 0, []
1632408026.5643, 72, 0, 4137.436, 4276.41, 4070.256, 4224.103, 4161.538, 450, 0, []
1632408026.5721, 73, 0, 4131.282, 4245.128, 4073.333, 4228.718, 4156.41, 16148, 0, []
1632408026.5801, 74, 0, 4108.718, 4291.795, 4033.333, 4224.103, 4138.462, 450, 0, []
1632408026.588, 75, 0, 4103.59, 4294.872, 4026.667, 4220.513, 4130.256, 16173, 0, []
1632408026.5959, 76, 0, 4101.026, 4200, 4015.897, 4208.718, 4132.821, 450, 0, []
1632408026.6038, 77, 0, 4094.872, 4187.179, 3992.821, 4199.487, 4130.769, 450, 0, []
1632408026.6115, 78, 0, 4101.538, 4194.359, 3991.795, 4210.256, 4132.308, 450, 0, []
1632408026.6194, 79, 0, 4115.897, 4155.897, 3994.359, 4213.846, 4146.154, 16173, 0, []
1632408026.6272, 80, 0, 4115.897, 4299.487, 4006.154, 4202.051, 4154.872, 450, 0, []
1632408026.6351, 81, 0, 4114.872, 4494.872, 4002.564, 4206.154, 4146.154, 450, 0, []
1632408026.6429, 82, 0, 4122.051, 4572.308, 4003.59, 4215.897, 4140.513, 450, 0, []
1632408026.6507, 83, 0, 4118.462, 4713.846, 4023.077, 4217.436, 4143.077, 16173, 0, []
1632408026.6585, 84, 0, 4103.077, 4861.538, 4022.051, 4225.641, 4136.923, 450, 0, []
1632408026.6664, 85, 0, 4108.718, 4836.41, 4023.077, 4236.41, 4130.769, 450, 0, []
1632408026.6743, 86, 0, 4123.077, 4797.949, 4011.795, 4221.026, 4136.41, 450, 0, []
1632408026.6823, 87, 0, 4112.821, 4825.641, 3984.103, 4194.872, 4134.872, 16173, 0, []
1632408026.6903, 88, 0, 4101.538, 4824.103, 3988.718, 4190.769, 4128.205, 450, 0, []
1632408026.6981, 89, 0, 4105.128, 4852.308, 3981.538, 4192.821, 4130.769, 450, 0, []
1632408026.706, 90, 0, 4115.897, 4856.41, 3976.923, 4195.897, 4133.333, 450, 0, []
1632408026.714, 91, 0, 4120, 4820.513, 4002.051, 4204.103, 4131.282, 16173, 0, []
1632408026.7219, 92, 0, 4114.872, 4844.103, 3997.436, 4209.744, 4121.026, 450, 0, []
1632408026.7299, 93, 0, 4100, 4898.462, 3993.846, 4211.795, 4114.872, 450, 0, []
1632408026.7377, 94, 0, 4099.487, 4930.769, 3997.436, 4215.385, 4121.026, 450, 0, []
1632408026.7456, 95, 0, 4121.538, 4880.513, 4005.128, 4218.974, 4143.59, 16173, 0, []
1632408026.7535, 96, 0, 4141.026, 4795.897, 4018.974, 4220.513, 4163.59, 450, 0, []
1632408026.7613, 97, 0, 4144.615, 4782.051, 4021.538, 4219.487, 4154.359, 450, 0, []
1632408026.7692, 98, 0, 4134.359, 4816.41, 4029.744, 4220, 4141.026, 450, 0, []
1632408026.7769, 99, 0, 4126.667, 4782.564, 4006.154, 4221.026, 4136.923, 16173, 0, []
1632408026.7848, 100, 0, 4117.436, 4743.59, 3987.179, 4206.667, 4133.846, 450, 0, []
1632408026.7926, 101, 0, 4118.974, 4844.615, 3997.949, 4198.462, 4138.974, 450, 0, []
1632408026.8005, 102, 0, 4134.359, 4927.179, 3994.872, 4204.615, 4151.282, 450, 0, []
1632408026.8083, 103, 0, 4136.41, 4819.487, 4002.564, 4204.615, 4152.308, 16173, 0, []
1632408026.8161, 104, 0, 4136.41, 4745.641, 4006.154, 4207.692, 4146.667, 450, 0, []
1632408026.8239, 105, 0, 4137.436, 4841.538, 4001.538, 4222.051, 4148.718, 450, 0, []
1632408026.8318, 106, 0, 4137.436, 4796.41, 3998.974, 4226.154, 4157.436, 450, 0, []
1632408026.8396, 107, 0, 4148.718, 4567.692, 3995.897, 4215.385, 4173.846, 16173, 0, []
1632408026.8476, 108, 0, 4168.718, 4523.077, 4024.103, 4216.41, 4193.333, 450, 0, []
1632408026.8554, 109, 0, 4176.41, 4684.615, 4040.513, 4228.205, 4192.821, 450, 0, []
1632408026.8634, 110, 0, 4162.051, 4783.077, 4031.282, 4231.795, 4177.949, 450, 0, []
1632408026.8713, 111, 0, 4150.769, 4803.59, 4021.538, 4234.359, 4173.846, 16173, 0, []
1632408026.8793, 112, 0, 4149.231, 4837.436, 4007.179, 4234.359, 4186.667, 450, 0, []
1632408026.8872, 113, 0, 4151.282, 4845.128, 4022.564, 4230.769, 4197.949, 450, 0, []
1632408026.8951, 114, 0, 4161.538, 4955.385, 4034.872, 4233.333, 4186.154, 450, 0, []
1632408026.903, 115, 0, 4170.256, 5226.667, 4020, 4234.872, 4181.026, 16173, 0, []
1632408026.9108, 116, 0, 4172.308, 5201.026, 4031.282, 4225.128, 4205.128, 450, 0, []
1632408026.9187, 117, 0, 4172.308, 4853.846, 4035.897, 4220, 4207.692, 450, 0, []
1632408026.9265, 118, 0, 4161.026, 4721.538, 4036.923, 4226.667, 4183.59, 450, 0, []
1632408026.9343, 119, 0, 4146.154, 4754.872, 4045.128, 4225.128, 4184.615, 16173, 0, []
1632408026.9421, 120, 0, 4152.821, 4593.846, 4032.821, 4215.385, 4201.538, 450, 0, []
1632408026.95, 121, 0, 4168.718, 4483.59, 4035.897, 4211.795, 4197.436, 450, 0, []
1632408026.9578, 122, 0, 4168.718, 4660.513, 4035.385, 4212.821, 4185.128, 450, 0, []
1632408026.9657, 123, 0, 4156.41, 4775.385, 4035.897, 4216.923, 4182.051, 16173, 0, []
1632408026.9734, 124, 0, 4154.872, 4756.923, 4041.538, 4222.051, 4190.256, 450, 0, []
1632408026.9813, 125, 0, 4165.128, 4847.692, 4024.103, 4212.821, 4197.436, 450, 0, []
1632408026.9891, 126, 0, 4166.667, 4974.872, 4032.821, 4207.179, 4196.923, 450, 0, []
1632408026.997, 127, 0, 4160, 4982.564, 4040.513, 4220.513, 4189.744, 16173, 0, []
1632408027.0048, 128, 0, 4158.462, 4845.641, 4017.436, 4221.538, 4185.128, 450, 0, []
1632408027.0127, 0, 0, 4164.615, 4635.897, 4011.795, 4204.615, 4195.897, 450, 0, []
1632408027.0206, 1, 0, 4177.436, 4559.487, 4025.128, 4209.744, 4210.769, 450, 0, []
1632408027.0286, 2, 0, 4182.051, 4738.462, 4050.256, 4222.051, 4206.667, 16189, 0, []
1632408027.0365, 3, 0, 4163.59, 4929.231, 4037.436, 4209.744, 4185.128, 450, 0, []
1632408027.0445, 4, 0, 4141.538, 4954.872, 4003.59, 4190.256, 4166.667, 16169, 0, []
1632408027.0523, 5, 0, 4150.256, 4906.154, 4020, 4189.231, 4176.923, 450, 0, []
1632408027.0603, 6, 0, 4179.487, 4881.026, 4049.231, 4201.538, 4197.949, 16110, 0, []
1632408027.0682, 7, 0, 4181.538, 4869.744, 4056.41, 4197.949, 4194.872, 450, 0, []
1632408027.076, 8, 0, 4159.487, 4800.513, 4028.205, 4171.795, 4188.205, 450, 0, []
1632408027.0839, 9, 0, 4162.564, 4827.179, 4015.385, 4156.41, 4202.564, 16151, 0, []
1632408027.0916, 10, 0, 4181.026, 4934.872, 4048.718, 4161.026, 4208.718, 450, 0, []
1632408027.0995, 11, 0, 4170.769, 4936.41, 4046.154, 4154.872, 4190.769, 16180, 0, []
1632408027.1073, 12, 0, 4173.333, 4940.513, 4029.744, 4139.487, 4190.769, 450, 0, []
1632408027.1152, 13, 0, 4206.154, 4921.026, 4045.128, 4140.513, 4227.179, 450, 0, []
1632408027.123, 14, 0, 4229.231, 4829.231, 4068.718, 4152.308, 4258.974, 450, 0, []
1632408027.1309, 15, 0, 4256.41, 4875.385, 4060.513, 4157.949, 4259.487, 16180, 0, []
1632408027.1388, 16, 0, 4299.487, 4933.333, 4033.333, 4152.821, 4276.41, 0, 0, []
1632408027.1468, 17, 0, 4333.846, 4759.487, 4048.718, 4147.692, 4328.205, 0, 0, []
1632408027.1547, 18, 0, 4352.308, 4621.026, 4037.949, 4144.615, 4338.462, 0, 0, []
1632408027.1627, 19, 0, 4352.308, 4657.949, 4005.641, 4133.846, 4313.333, 0, 0, []
1632408027.1705, 20, 0, 4326.667, 4694.872, 4018.974, 4126.154, 4311.282, 0, 0, []
1632408027.1785, 21, 0, 4302.564, 4752.821, 4019.487, 4125.641, 4311.282, 0, 0, []
1632408027.1864, 22, 0, 4296.923, 4720, 4006.154, 4122.051, 4285.641, 0, 0, []
1632408027.1944, 23, 0, 4280, 4538.462, 4009.744, 4117.436, 4267.692, 0, 0, []
1632408027.2023, 24, 0, 4255.385, 4449.231, 4022.051, 4125.128, 4268.205, 0, 0, []
1632408027.2102, 25, 0, 4250.769, 4515.897, 4029.744, 4137.949, 4255.385, 0, 0, []
1632408027.2181, 26, 0, 4238.462, 4644.615, 4030.256, 4136.923, 4236.923, 0, 0, []
1632408027.226, 27, 0, 4206.154, 4803.077, 4043.077, 4131.282, 4223.077, 0, 0, []
1632408027.2339, 28, 0, 4190.769, 4907.179, 4030.256, 4121.026, 4209.231, 0, 0, []
1632408027.2417, 29, 0, 4185.641, 4898.974, 4010.256, 4106.667, 4203.59, 0, 0, []
1632408027.2495, 30, 0, 4181.026, 4928.718, 4033.846, 4124.615, 4200, 0, 0, []
1632408027.2573, 31, 0, 4186.154, 4950.256, 4040, 4152.308, 4207.692, 0, 0, []
1632408027.2652, 32, 0, 4185.128, 4825.128, 4034.872, 4148.205, 4230.769, 0, 0, []
1632408027.273, 33, 0, 4184.615, 4827.179, 4048.205, 4138.974, 4230.256, 0, 0, []
1632408027.281, 34, 0, 4176.923, 5014.872, 4040.513, 4139.487, 4195.897, 0, 0, []
1632408027.2888, 35, 0, 4147.179, 5111.282, 4023.077, 4128.718, 4168.718, 0, 0, []
1632408027.2968, 36, 0, 4137.949, 5113.333, 4013.846, 4115.897, 4168.205, 0, 0, []
1632408027.3047, 37, 0, 4156.41, 5084.615, 4031.795, 4115.897, 4172.821, 0, 0, []
1632408027.3127, 38, 0, 4168.205, 4964.615, 4052.308, 4126.667, 4172.821, 0, 0, []
1632408027.3206, 39, 0, 4163.077, 4898.462, 4034.359, 4141.026, 4166.667, 0, 0, []
1632408027.3285, 40, 0, 4150.256, 4968.205, 4030.256, 4155.385, 4163.59, 0, 0, []
1632408027.3364, 41, 0, 4142.564, 5010.256, 4034.359, 4151.795, 4166.667, 0, 0, []
1632408027.3444, 42, 0, 4152.308, 4974.359, 4037.436, 4149.744, 4169.744, 0, 0, []
1632408027.3523, 43, 0, 4161.026, 4897.436, 4048.205, 4166.667, 4170.256, 0, 0, []
1632408027.3603, 44, 0, 4147.692, 4794.359, 4034.359, 4175.385, 4156.41, 0, 0, []
1632408027.3681, 45, 0, 4144.615, 4668.718, 4040, 4171.282, 4148.718, 0, 0, []
1632408027.3759, 46, 0, 4153.846, 4491.282, 4053.846, 4167.179, 4163.59, 0, 0, []
1632408027.3838, 47, 0, 4148.718, 4332.308, 4043.59, 4152.308, 4164.615, 0, 0, []
1632408027.3916, 48, 0, 4130.256, 4238.462, 4037.949, 4133.333, 4150.769, 0, 0, []
1632408027.3995, 49, 0, 4128.718, 4133.333, 4023.077, 4139.487, 4147.692, 0, 0, []
1632408027.4072, 50, 0, 4142.564, 4062.564, 4036.923, 4160, 4156.923, 0, 0, []
1632408027.4151, 51, 0, 4145.641, 4083.077, 4062.564, 4177.436, 4167.692, 0, 0, []
1632408027.4229, 52, 0, 4141.538, 4114.872, 4058.974, 4184.103, 4159.487, 0, 0, []
1632408027.4308, 53, 0, 4134.359, 4249.231, 4056.41, 4176.923, 4136.41, 0, 0, []
1632408027.4386, 54, 0, 4130.769, 4532.308, 4045.128, 4176.41, 4122.564, 0, 0, []
1632408027.4466, 55, 0, 4128.205, 4650.769, 4048.718, 4187.692, 4113.333, 0, 0, []
1632408027.4544, 56, 0, 4120, 4486.667, 4054.872, 4192.308, 4101.026, 0, 0, []
1632408027.4624, 57, 0, 4114.872, 4383.59, 4035.385, 4183.59, 4101.538, 0, 0, []
1632408027.4703, 58, 0, 4118.974, 4550.769, 4022.051, 4184.103, 4110.256, 0, 0, []
1632408027.4783, 59, 0, 4127.179, 4774.872, 4015.385, 4198.462, 4120, 0, 0, []
1632408027.4862, 60, 0, 4138.974, 4769.231, 4024.103, 4208.718, 4147.692, 0, 0, []
1632408027.4941, 61, 0, 4149.231, 4640, 4032.308, 4201.026, 4164.103, 0, 0, []
1632408027.502, 62, 0, 4144.103, 4687.692, 4037.436, 4197.436, 4156.923, 0, 0, []
1632408027.51, 63, 0, 4139.487, 4856.41, 4049.744, 4212.308, 4145.641, 0, 0, []
1632408027.5179, 64, 0, 4135.385, 4904.103, 4041.538, 4214.359, 4138.974, 450, 0, []
1632408027.5259, 65, 0, 4130.256, 4837.436, 4039.487, 4203.077, 4138.462, 450, 0, []
1632408027.5337, 66, 0, 4135.897, 4709.744, 4042.564, 4191.795, 4148.205, 16194, 0, []
1632408027.5415, 67, 0, 4137.949, 4525.641, 4033.846, 4182.564, 4144.615, 450, 0, []
1632408027.5494, 68, 0, 4135.897, 4530.769, 4054.359, 4184.103, 4130.256, 16128, 0, []
1632408027.5572, 69, 0, 4136.923, 4710.256, 4066.667, 4196.41, 4127.692, 450, 0, []
1632408027.5651, 70, 0, 4123.59, 4697.949, 4057.436, 4189.231, 4111.795, 16102, 0, []
1632408027.5728, 71, 0, 4101.538, 4545.641, 4048.205, 4177.436, 4099.487, 450, 0, []
1632408027.5807, 72, 0, 4097.436, 4553.846, 4032.821, 4190.256, 4097.949, 450, 0, []
1632408027.5885, 73, 0, 4086.667, 4634.872, 4038.974, 4190.256, 4078.974, 16154, 0, []
1632408027.5964, 74, 0, 4084.103, 4652.308, 4041.538, 4182.564, 4069.744, 450, 0, []
1632408027.6042, 75, 0, 4102.051, 4752.308, 4042.564, 4193.333, 4088.205, 16198, 0, []
1632408027.6121, 76, 0, 4103.077, 4821.026, 4035.897, 4204.103, 4094.359, 450, 0, []
1632408027.62, 77, 0, 4078.462, 4749.744, 4005.128, 4189.231, 4073.846, 450, 0, []
1632408027.628, 78, 0, 4063.59, 4686.667, 4013.333, 4173.846, 4058.462, 450, 0, []
1632408027.6359, 79, 0, 4070.256, 4626.154, 4013.846, 4175.897, 4057.949, 16198, 0, []
1632408027.6439, 80, 0, 4071.795, 4609.744, 4001.538, 4184.615, 4060, 450, 0, []
1632408027.6517, 81, 0, 4063.59, 4814.359, 4028.718, 4189.231, 4053.333, 450, 0, []
1632408027.6596, 82, 0, 4072.308, 4887.179, 4027.692, 4173.846, 4048.718, 450, 0, []
1632408027.6675, 83, 0, 4125.641, 4603.59, 4027.179, 4171.795, 4086.667, 16198, 0, []
1632408027.6753, 84, 0, 4171.795, 4577.949, 4053.846, 4188.718, 4129.744, 450, 0, []
1632408027.6833, 85, 0, 4169.744, 4847.692, 4028.718, 4176.41, 4124.103, 450, 0, []
1632408027.6911, 86, 0, 4183.077, 4860, 4006.667, 4155.897, 4127.692, 450, 0, []
1632408027.699, 87, 0, 4212.308, 4648.718, 4030.769, 4164.103, 4163.59, 16198, 0, []
1632408027.7068, 88, 0, 4202.564, 4499.487, 4034.872, 4175.897, 4155.897, 450, 0, []
1632408027.7147, 89, 0, 4166.154, 4507.692, 4016.41, 4166.154, 4116.923, 450, 0, []
1632408027.7225, 90, 0, 4155.897, 4551.795, 4022.051, 4160.513, 4105.641, 450, 0, []
1632408027.7303, 91, 0, 4154.359, 4350.256, 4043.59, 4162.051, 4109.744, 16198, 0, []
1632408027.7381, 92, 0, 4142.051, 4060, 4033.333, 4157.949, 4102.564, 450, 0, []
1632408027.746, 93, 0, 4136.923, 4077.436, 4032.821, 4154.872, 4102.564, 450, 0, []
1632408027.7538, 94, 0, 4133.333, 4090.769, 4038.974, 4156.41, 4097.436, 450, 0, []
1632408027.7618, 95, 0, 4112.308, 3864.103, 4022.051, 4148.205, 4071.282, 16198, 0, []
1632408027.7696, 96, 0, 4095.385, 3818.462, 4026.154, 4140, 4060, 450, 0, []
1632408027.7776, 97, 0, 4103.59, 3996.41, 4035.897, 4146.667, 4071.795, 450, 0, []
1632408027.7855, 98, 0, 4108.718, 4026.667, 4039.487, 4155.385, 4074.359, 450, 0, []
1632408027.7935, 99, 0, 4101.538, 3948.205, 4037.436, 4158.974, 4070.256, 16198, 0, []
1632408027.8014, 100, 0, 4104.615, 4020.513, 4031.282, 4162.564, 4082.051, 450, 0, []
1632408027.8093, 101, 0, 4105.128, 4082.564, 4042.564, 4158.974, 4089.231, 450, 0, []
1632408027.8172, 102, 0, 4107.179, 4016.41, 4037.949, 4154.872, 4079.487, 450, 0, []
1632408027.8252, 103, 0, 4120.513, 4047.179, 4038.462, 4163.59, 4082.564, 16198, 0, []
1632408027.8331, 104, 0, 4126.667, 4136.41, 4050.256, 4177.436, 4095.897, 450, 0, []
1632408027.8411, 105, 0, 4130.256, 4034.872, 4043.59, 4192.308, 4098.974, 450, 0, []
1632408027.8489, 106, 0, 4135.897, 3824.615, 4049.744, 4205.128, 4095.897, 450, 0, []
1632408027.8567, 107, 0, 4122.564, 3715.385, 4053.333, 4195.897, 4090.769, 16198, 0, []
1632408027.8646, 108, 0, 4101.538, 3685.128, 4037.949, 4169.231, 4071.795, 450, 0, []
1632408027.8724, 109, 0, 4101.026, 3674.359, 4038.462, 4156.923, 4063.077, 450, 0, []
1632408027.8803, 110, 0, 4113.333, 3670.256, 4038.974, 4163.077, 4074.359, 450, 0, []
1632408027.888, 111, 0, 4109.231, 3658.974, 4052.308, 4172.308, 4076.923, 16198, 0, []
1632408027.8959, 112, 0, 4101.026, 3634.872, 4054.872, 4177.949, 4073.333, 450, 0, []
1632408027.9037, 113, 0, 4100, 3653.333, 4040, 4177.436, 4085.128, 450, 0, []
1632408027.9116, 114, 0, 4107.692, 3777.436, 4038.974, 4180.513, 4096.41, 450, 0, []
1632408027.9194, 115, 0, 4108.718, 3938.974, 4034.359, 4180, 4086.667, 16198, 0, []
1632408027.9273, 116, 0, 4098.974, 4052.308, 4033.333, 4174.359, 4073.846, 450, 0, []
1632408027.9352, 117, 0, 4101.538, 4074.872, 4032.308, 4177.949, 4080, 450, 0, []
1632408027.9432, 118, 0, 4115.385, 4051.795, 4043.077, 4197.436, 4093.333, 450, 0, []
1632408027.9511, 119, 0, 4123.59, 4057.949, 4070.769, 4214.359, 4096.41, 16198, 0, []
1632408027.9591, 120, 0, 4128.205, 4049.744, 4072.308, 4222.051, 4094.872, 450, 0, []
1632408027.9669, 121, 0, 4135.897, 4051.282, 4081.538, 4231.795, 4096.923, 450, 0, []
1632408027.9749, 122, 0, 4130.769, 4130.769, 4081.538, 4228.205, 4093.333, 450, 0, []
1632408027.9828, 123, 0, 4112.821, 4297.436, 4051.795, 4209.231, 4084.103, 16198, 0, []
1632408027.9908, 124, 0, 4105.128, 4479.487, 4051.282, 4199.487, 4091.795, 450, 0, []
1632408027.9987, 125, 0, 4109.744, 4518.974, 4058.462, 4203.077, 4115.897, 450, 0, []
1632408028.0065, 126, 0, 4120, 4336.923, 4060, 4200.513, 4125.641, 450, 0, []
1632408028.0144, 127, 0, 4126.667, 4325.641, 4063.077, 4190.256, 4118.462, 16198, 0, []
1632408028.0222, 128, 0, 4121.026, 4714.872, 4053.846, 4186.154, 4094.872, 450, 0, []
1632408028.0301, 0, 0, 4103.077, 4877.949, 4051.282, 4175.897, 4075.385, 450, 0, []
1632408028.0379, 1, 0, 4091.282, 4640, 4037.436, 4150.256, 4073.846, 450, 0, []
1632408028.0457, 2, 0, 4083.59, 4581.538, 4029.231, 4128.718, 4073.846, 16207, 0, []
1632408028.0535, 3, 0, 4082.051, 4736.41, 4031.795, 4126.154, 4070.256, 450, 0, []
1632408028.0615, 4, 0, 4097.949, 4662.051, 4021.026, 4123.077, 4084.615, 16157, 0, []
1632408028.0694, 5, 0, 4121.026, 4380, 4022.051, 4121.538, 4110.256, 450, 0, []
1632408028.0774, 6, 0, 4135.385, 4371.282, 4029.744, 4130.256, 4111.795, 16113, 0, []
1632408028.0852, 7, 0, 4129.744, 4621.026, 4044.615, 4138.974, 4104.615, 450, 0, []
1632408028.0932, 8, 0, 4120, 4637.949, 4051.282, 4150.256, 4100.513, 450, 0, []
1632408028.1011, 9, 0, 4116.41, 4453.333, 4037.949, 4157.949, 4091.795, 16081, 0, []
1632408028.1091, 10, 0, 4111.795, 4552.821, 4041.026, 4148.718, 4086.154, 450, 0, []
1632408028.117, 11, 0, 4108.205, 4712.308, 4042.051, 4143.077, 4094.359, 16255, 0, []
1632408028.1249, 12, 0, 4121.538, 4568.205, 4041.026, 4156.923, 4115.385, 450, 0, []
1632408028.1328, 13, 0, 4137.436, 4455.385, 4061.538, 4150.769, 4124.615, 450, 0, []
1632408028.1406, 14, 0, 4141.538, 4469.231, 4063.077, 4132.308, 4120.513, 450, 0, []
1632408028.1485, 15, 0, 4152.308, 4396.923, 4066.667, 4156.923, 4124.615, 16255, 0, []
1632408028.1563, 16, 0, 4150.256, 4314.872, 4068.718, 4177.949, 4127.692, 0, 0, []
1632408028.1641, 17, 0, 4129.744, 4291.795, 4042.564, 4158.974, 4108.205, 0, 0, []
1632408028.1719, 18, 0, 4127.692, 4205.128, 4044.615, 4157.436, 4096.923, 0, 0, []
1632408028.1798, 19, 0, 4145.128, 4042.564, 4051.795, 4175.897, 4112.308, 0, 0, []
1632408028.1876, 20, 0, 4141.538, 3932.308, 4043.59, 4160.513, 4122.564, 0, 0, []
1632408028.1955, 21, 0, 4126.667, 3914.359, 4036.41, 4133.846, 4114.359, 0, 0, []
1632408028.2033, 22, 0, 4129.231, 3898.462, 4028.205, 4132.308, 4103.59, 0, 0, []
1632408028.2111, 23, 0, 4140, 3830.769, 4035.385, 4140, 4110.769, 0, 0, []
1632408028.2189, 24, 0, 4143.59, 3758.974, 4036.41, 4144.103, 4125.128, 0, 0, []
1632408028.2269, 25, 0, 4137.949, 3683.077, 4027.179, 4136.41, 4118.974, 0, 0, []
1632408028.2348, 26, 0, 4134.359, 3629.744, 4018.974, 4120.513, 4113.333, 0, 0, []
1632408028.2428, 27, 0, 4136.41, 3658.974, 4010.769, 4119.487, 4121.538, 0, 0, []
1632408028.2506, 28, 0, 4137.949, 3672.821, 4018.462, 4124.103, 4119.487, 0, 0, []
1632408028.2586, 29, 0, 4138.462, 3575.897, 4016.41, 4117.436, 4110.256, 0, 0, []
1632408028.2665, 30, 0, 4133.846, 3629.231, 4011.795, 4118.974, 4117.949, 0, 0, []
1632408028.2745, 31, 0, 4132.821, 3880.513, 4026.667, 4140.513, 4129.744, 0, 0, []
1632408028.2824, 32, 0, 4138.974, 3943.077, 4034.359, 4145.128, 4124.615, 0, 0, []
1632408028.2903, 33, 0, 4150.769, 3944.103, 4044.103, 4137.436, 4128.718, 0, 0, []
1632408028.2982, 34, 0, 4164.103, 4158.974, 4057.436, 4154.359, 4137.949, 0, 0, []
1632408028.306, 35, 0, 4164.103, 4377.436, 4061.026, 4173.333, 4130.256, 0, 0, []
1632408028.3139, 36, 0, 4155.385, 4416.41, 4055.385, 4163.077, 4118.974, 0, 0, []
1632408028.3217, 37, 0, 4150.769, 4305.641, 4038.974, 4147.692, 4116.923, 0, 0, []
1632408028.3295, 38, 0, 4151.795, 4093.846, 4041.026, 4151.282, 4129.231, 0, 0, []
1632408028.3373, 39, 0, 4165.128, 3947.179, 4047.692, 4160.513, 4147.179, 0, 0, []
1632408028.3452, 40, 0, 4178.974, 4098.974, 4061.026, 4165.641, 4156.41, 0, 0, []
1632408028.353, 41, 0, 4181.026, 4431.282, 4074.359, 4181.026, 4144.103, 0, 0, []
1632408028.3609, 42, 0, 4169.744, 4729.231, 4063.077, 4184.103, 4131.795, 0, 0, []
1632408028.3686, 43, 0, 4166.154, 4875.897, 4068.718, 4173.333, 4141.538, 0, 0, []
1632408028.3766, 44, 0, 4175.385, 4930.256, 4071.282, 4172.308, 4143.59, 0, 0, []
1632408028.3845, 45, 0, 4166.667, 4958.974, 4056.923, 4172.308, 4120, 0, 0, []
1632408028.3925, 46, 0, 4153.333, 4820, 4063.077, 4169.744, 4104.615, 0, 0, []
1632408028.4004, 47, 0, 4160, 4489.231, 4063.59, 4167.179, 4114.872, 0, 0, []
1632408028.4083, 48, 0, 4167.179, 4247.179, 4060.513, 4155.385, 4123.59, 0, 0, []
1632408028.4162, 49, 0, 4164.615, 4359.487, 4063.59, 4149.744, 4125.128, 0, 0, []
1632408028.4242, 50, 0, 4160, 4585.641, 4073.333, 4174.872, 4119.487, 0, 0, []
1632408028.4321, 51, 0, 4157.436, 4618.462, 4079.487, 4197.436, 4109.744, 0, 0, []
1632408028.4401, 52, 0, 4161.026, 4651.282, 4056.41, 4189.744, 4121.026, 0, 0, []
1632408028.4479, 53, 0, 4169.231, 4799.487, 4061.538, 4183.59, 4144.103, 0, 0, []
1632408028.4557, 54, 0, 4166.667, 4855.385, 4073.333, 4185.641, 4133.846, 0, 0, []
1632408028.4636, 55, 0, 4149.231, 4770.769, 4045.128, 4175.385, 4103.077, 0, 0, []
1632408028.4715, 56, 0, 4137.949, 4727.179, 4031.795, 4158.974, 4101.026, 0, 0, []
1632408028.4794, 57, 0, 4146.154, 4778.974, 4036.41, 4156.41, 4122.051, 0, 0, []
1632408028.4871, 58, 0, 4166.667, 4693.333, 4054.872, 4176.923, 4133.333, 0, 0, []
1632408028.495, 59, 0, 4168.205, 4442.564, 4065.128, 4191.282, 4119.487, 0, 0, []
1632408028.5028, 60, 0, 4157.949, 4462.051, 4051.282, 4183.077, 4107.179, 0, 0, []
1632408028.5107, 61, 0, 4173.846, 4627.692, 4062.564, 4185.128, 4131.795, 0, 0, []
1632408028.5185, 62, 0, 4200.513, 4540.513, 4073.846, 4206.154, 4161.538, 0, 0, []
1632408028.5264, 63, 0, 4202.051, 4438.974, 4070.769, 4216.41, 4154.359, 0, 0, []
1632408028.5343, 64, 0, 4174.872, 4520.513, 4058.974, 4211.282, 4123.59, 450, 0, []
1632408028.5423, 65, 0, 4146.667, 4600.513, 4034.872, 4192.821, 4105.128, 450, 0, []
1632408028.5502, 66, 0, 4153.333, 4559.487, 4040.513, 4176.41, 4114.872, 16172, 0, []
1632408028.5582, 67, 0, 4185.128, 4414.872, 4057.436, 4192.308, 4136.923, 450, 0, []
1632408028.566, 68, 0, 4191.795, 4190.769, 4069.744, 4214.872, 4136.41, 16146, 0, []
1632408028.574, 69, 0, 4172.821, 4057.436, 4075.385, 4209.744, 4120, 450, 0, []
1632408028.5819, 70, 0, 4156.923, 4087.179, 4054.359, 4195.385, 4118.974, 16118, 0, []
1632408028.5899, 71, 0, 4156.41, 4133.846, 4042.051, 4188.205, 4125.128, 450, 0, []
1632408028.5978, 72, 0, 4170.256, 4103.59, 4045.641, 4187.179, 4128.205, 450, 0, []
1632408028.6057, 73, 0, 4182.051, 4038.462, 4061.538, 4196.923, 4130.769, 16125, 0, []
1632408028.6136, 74, 0, 4181.026, 3995.897, 4065.641, 4208.718, 4137.949, 450, 0, []
1632408028.6214, 75, 0, 4189.231, 3929.744, 4040, 4203.59, 4154.359, 16184, 0, []
1632408028.6293, 76, 0, 4229.231, 3835.385, 4064.103, 4198.974, 4189.231, 450, 0, []
1632408028.6371, 77, 0, 4275.385, 3778.974, 4090.769, 4212.821, 4224.103, 450, 0, []
1632408028.6449, 78, 0, 4311.282, 3731.795, 4065.641, 4215.385, 4240.513, 450, 0, []
1632408028.6527, 79, 0, 4349.231, 3669.744, 4076.923, 4188.718, 4279.487, 16184, 0, []
1632408028.6606, 80, 0, 4397.436, 3595.385, 4098.462, 4189.744, 4349.744, 450, 0, []
1632408028.6686, 81, 0, 4457.949, 3526.154, 4081.538, 4236.41, 4391.795, 450, 0, []
1632408028.6765, 82, 0, 4497.949, 3478.974, 4054.872, 4241.538, 4394.359, 450, 0, []
1632408028.6842, 83, 0, 4487.179, 3427.179, 4055.897, 4209.744, 4396.41, 16184, 0, []
1632408028.6921, 84, 0, 4450.769, 3414.872, 4083.077, 4216.923, 4404.103, 450, 0, []
1632408028.6999, 85, 0, 4433.846, 3456.41, 4072.308, 4241.026, 4389.231, 450, 0, []
1632408028.7079, 86, 0, 4417.436, 3482.051, 4046.154, 4229.231, 4348.718, 450, 0, []
1632408028.7158, 87, 0, 4359.487, 3546.154, 4049.231, 4205.128, 4309.744, 16184, 0, []
1632408028.7237, 88, 0, 4301.026, 3701.538, 4055.385, 4212.308, 4273.846, 450, 0, []
1632408028.7316, 89, 0, 4285.641, 3840, 4055.385, 4222.051, 4247.179, 450, 0, []
1632408028.7396, 90, 0, 4278.974, 3860, 4052.308, 4214.872, 4243.077, 450, 0, []
1632408028.7475, 91, 0, 4257.949, 3789.231, 4070.256, 4221.538, 4234.872, 16184, 0, []
1632408028.7555, 92, 0, 4240.513, 3750.256, 4081.538, 4236.41, 4214.359, 450, 0, []
1632408028.7633, 93, 0, 4230.769, 3756.923, 4061.026, 4230.256, 4215.897, 450, 0, []
1632408028.7711, 94, 0, 4224.615, 3737.949, 4060, 4210.256, 4219.487, 450, 0, []
1632408028.779, 95, 0, 4207.692, 3835.897, 4053.846, 4198.974, 4192.821, 16184, 0, []
1632408028.7868, 96, 0, 4183.077, 4158.462, 4047.179, 4196.41, 4164.103, 450, 0, []
1632408028.7947, 97, 0, 4167.692, 4298.462, 4058.462, 4199.487, 4157.949, 450, 0, []
1632408028.8024, 98, 0, 4174.359, 4138.974, 4061.538, 4207.179, 4167.692, 450, 0, []
1632408028.8103, 99, 0, 4189.231, 4185.641, 4076.923, 4211.795, 4185.128, 16184, 0, []
1632408028.8181, 100, 0, 4194.872, 4407.179, 4086.154, 4218.462, 4193.333, 450, 0, []
1632408028.826, 101, 0, 4195.385, 4367.692, 4089.744, 4228.718, 4176.923, 450, 0, []
1632408028.8338, 102, 0, 4185.128, 4283.59, 4084.615, 4227.692, 4160.513, 450, 0, []
1632408028.8416, 103, 0, 4158.974, 4501.026, 4045.641, 4200, 4154.359, 16184, 0, []
1632408028.8494, 104, 0, 4143.59, 4591.795, 4038.974, 4174.872, 4145.641, 450, 0, []
1632408028.8574, 105, 0, 4156.41, 4342.564, 4057.949, 4195.385, 4143.077, 450, 0, []
1632408028.8653, 106, 0, 4162.564, 4207.179, 4058.462, 4225.641, 4144.615, 450, 0, []
1632408028.8733, 107, 0, 4144.615, 4220, 4042.051, 4218.462, 4140, 16184, 0, []
1632408028.8811, 108, 0, 4135.897, 4142.051, 4016.923, 4194.359, 4131.282, 450, 0, []
1632408028.8891, 109, 0, 4135.897, 4041.538, 4028.718, 4185.641, 4131.795, 450, 0, []
1632408028.897, 110, 0, 4143.59, 3945.641, 4043.59, 4189.744, 4136.41, 450, 0, []
1632408028.905, 111, 0, 4150.256, 3765.641, 4043.077, 4186.667, 4136.923, 16184, 0, []
1632408028.9129, 112, 0, 4152.308, 3668.718, 4053.846, 4189.231, 4141.026, 450, 0, []
1632408028.9208, 113, 0, 4163.59, 3692.821, 4060, 4200.513, 4145.641, 450, 0, []
1632408028.9287, 114, 0, 4168.205, 3631.795, 4073.333, 4206.667, 4150.769, 450, 0, []
1632408028.9365, 115, 0, 4161.026, 3555.897, 4072.308, 4202.564, 4152.308, 16184, 0, []
1632408028.9444, 116, 0, 4157.436, 3560, 4064.615, 4193.846, 4146.667, 450, 0, []
1632408028.9522, 117, 0, 4152.821, 3556.41, 4079.487, 4186.154, 4139.487, 450, 0, []
1632408028.9601, 118, 0, 4141.538, 3522.051, 4074.872, 4183.077, 4136.923, 450, 0, []
1632408028.9678, 119, 0, 4133.333, 3502.051, 4067.179, 4182.051, 4136.923, 16184, 0, []
1632408028.9757, 120, 0, 4135.897, 3465.128, 4060, 4171.282, 4127.179, 450, 0, []
1632408028.9835, 121, 0, 4142.564, 3412.308, 4050.256, 4164.615, 4125.641, 450, 0, []
1632408028.9915, 122, 0, 4155.385, 3424.103, 4065.641, 4180.513, 4140.513, 450, 0, []
1632408028.9994, 123, 0, 4159.487, 3472.308, 4068.205, 4188.205, 4143.59, 16184, 0, []
1632408029.0073, 124, 0, 4148.718, 3503.077, 4061.538, 4192.308, 4131.795, 450, 0, []
1632408029.0152, 125, 0, 4144.103, 3553.846, 4060.513, 4201.026, 4120, 450, 0, []
1632408029.0232, 126, 0, 4142.051, 3578.974, 4048.205, 4189.744, 4105.641, 450, 0, []
1632408029.0311, 127, 0, 4130.256, 3526.667, 4051.282, 4171.795, 4097.949, 16184, 0, []
1632408029.0391, 128, 0, 4121.026, 3480.513, 4054.359, 4175.385, 4105.641, 450, 0, []
1632408029.0469, 0, 0, 4118.462, 3452.821, 4056.923, 4172.308, 4106.667, 450, 0, []
1632408029.0549, 1, 0, 4112.308, 3441.026, 4053.333, 4160.513, 4100.513, 450, 0, []
1632408029.0628, 2, 0, 4106.154, 3512.308, 4031.795, 4158.974, 4093.333, 16212, 0, []
1632408029.0708, 3, 0, 4115.385, 3592.821, 4044.615, 4165.641, 4095.385, 450, 0, []
1632408029.0787, 4, 0, 4129.744, 3612.308, 4061.026, 4171.795, 4114.359, 16120, 0, []
1632408029.0866, 5, 0, 4127.692, 3604.615, 4055.897, 4165.641, 4116.923, 450, 0, []
1632408029.0945, 6, 0, 4121.026, 3625.641, 4057.436, 4155.897, 4101.026, 308, 0, []
1632408029.1023, 7, 0, 4128.205, 3668.205, 4050.769, 4161.538, 4102.051, 450, 0, []
1632408029.1102, 8, 0, 4135.897, 3686.667, 4055.897, 4175.897, 4115.897, 450, 0, []
1632408029.118, 9, 0, 4132.308, 3690.769, 4055.385, 4181.026, 4116.923, 16217, 0, []
1632408029.1258, 10, 0, 4127.179, 3729.231, 4042.051, 4178.974, 4116.923, 450, 0, []
1632408029.1336, 11, 0, 4125.641, 3765.641, 4042.564, 4180.513, 4121.538, 16201, 0, []
1632408029.1415, 12, 0, 4126.667, 3755.385, 4044.615, 4182.051, 4114.359, 450, 0, []
1632408029.1493, 13, 0, 4132.821, 3751.795, 4055.385, 4176.41, 4116.923, 450, 0, []
1632408029.1573, 14, 0, 4142.564, 3745.641, 4045.128, 4175.897, 4130.256, 450, 0, []
1632408029.1651, 15, 0, 4140, 3694.872, 4031.795, 4184.615, 4134.359, 16201, 0, []
1632408029.1731, 16, 0, 4138.974, 3691.282, 4050.769, 4193.333, 4142.051, 0, 0, []
1632408029.181, 17, 0, 4156.923, 3762.051, 4062.051, 4206.154, 4162.051, 0, 0, []
1632408029.189, 18, 0, 4176.41, 3787.179, 4076.41, 4222.564, 4172.821, 0, 0, []
1632408029.1969, 19, 0, 4169.744, 3660.513, 4079.487, 4215.385, 4157.949, 0, 0, []
1632408029.2048, 20, 0, 4155.385, 3498.462, 4068.718, 4197.436, 4143.077, 0, 0, []
1632408029.2127, 21, 0, 4171.282, 3507.692, 4085.641, 4208.205, 4151.282, 0, 0, []
1632408029.2207, 22, 0, 4186.667, 3602.564, 4091.282, 4218.462, 4165.128, 0, 0, []
1632408029.2286, 23, 0, 4175.385, 3645.641, 4074.359, 4210.256, 4156.923, 0, 0, []
1632408029.2364, 24, 0, 4171.795, 3735.385, 4062.564, 4201.538, 4157.949, 0, 0, []
1632408029.2442, 25, 0, 4197.949, 3796.41, 4071.282, 4210.769, 4201.026, 0, 0, []
1632408029.252, 26, 0, 4246.667, 3686.667, 4091.282, 4234.872, 4235.897, 0, 0, []
1632408029.2599, 27, 0, 4284.615, 3662.564, 4066.154, 4235.385, 4243.59, 0, 0, []
1632408029.2677, 28, 0, 4307.692, 3827.692, 4050.256, 4211.795, 4278.462, 0, 0, []
1632408029.2756, 29, 0, 4346.667, 3904.615, 4076.923, 4217.949, 4327.179, 0, 0, []
1632408029.2833, 30, 0, 4384.615, 3880.513, 4070.769, 4238.974, 4320.513, 0, 0, []
1632408029.2912, 31, 0, 4376.41, 3925.641, 4063.59, 4214.359, 4302.051, 0, 0, []
1632408029.299, 32, 0, 4364.615, 3941.538, 4084.103, 4205.641, 4330.256, 0, 0, []
1632408029.307, 33, 0, 4376.923, 3856.923, 4089.231, 4251.282, 4340.513, 0, 0, []
1632408029.3149, 34, 0, 4371.282, 3784.103, 4065.641, 4265.128, 4306.667, 0, 0, []
1632408029.3228, 35, 0, 4338.462, 3772.308, 4060, 4237.949, 4284.615, 0, 0, []
1632408029.3307, 36, 0, 4310.256, 3787.179, 4084.103, 4243.077, 4285.128, 0, 0, []
1632408029.3387, 37, 0, 4307.692, 3775.385, 4068.205, 4266.154, 4274.872, 0, 0, []
1632408029.3466, 38, 0, 4294.359, 3759.487, 4061.538, 4269.231, 4250.256, 0, 0, []
1632408029.3546, 39, 0, 4253.333, 3788.718, 4086.154, 4268.205, 4226.154, 0, 0, []
1632408029.3624, 40, 0, 4229.744, 3788.205, 4071.795, 4252.821, 4209.231, 0, 0, []
1632408029.3703, 41, 0, 4230.256, 3782.564, 4072.308, 4234.872, 4203.59, 0, 0, []
1632408029.3782, 42, 0, 4222.564, 3869.231, 4082.564, 4250.769, 4192.308, 0, 0, []
1632408029.386, 43, 0, 4206.667, 3995.897, 4072.821, 4267.179, 4178.462, 0, 0, []
1632408029.3939, 44, 0, 4202.051, 4109.744, 4072.821, 4252.308, 4190.256, 0, 0, []
1632408029.4016, 45, 0, 4210.769, 4188.205, 4069.744, 4242.051, 4192.308, 0, 0, []
1632408029.4095, 46, 0, 4203.077, 4166.667, 4082.051, 4255.385, 4165.641, 0, 0, []
1632408029.4173, 47, 0, 4182.564, 4083.077, 4086.667, 4271.795, 4156.923, 0, 0, []
1632408029.4252, 48, 0, 4191.795, 4002.564, 4080.513, 4282.564, 4184.103, 0, 0, []
1632408029.433, 49, 0, 4214.872, 3897.949, 4093.333, 4283.59, 4201.026, 0, 0, []
1632408029.4408, 50, 0, 4210.256, 3831.282, 4087.179, 4283.59, 4182.564, 0, 0, []
1632408029.4486, 51, 0, 4186.667, 3837.436, 4083.077, 4283.077, 4163.59, 0, 0, []
1632408029.4566, 52, 0, 4166.667, 3878.462, 4083.59, 4275.385, 4152.821, 0, 0, []
1632408029.4645, 53, 0, 4158.974, 3962.051, 4065.641, 4265.128, 4147.692, 0, 0, []
1632408029.4724, 54, 0, 4169.744, 4051.795, 4058.974, 4261.026, 4161.026, 0, 0, []
1632408029.4801, 55, 0, 4178.974, 4109.231, 4062.051, 4268.718, 4172.821, 0, 0, []
1632408029.488, 56, 0, 4162.051, 4156.41, 4077.436, 4284.615, 4153.333, 0, 0, []
1632408029.4958, 57, 0, 4151.795, 4201.538, 4077.436, 4289.744, 4132.821, 0, 0, []
1632408029.5038, 58, 0, 4165.641, 4112.821, 4055.897, 4266.667, 4149.744, 0, 0, []
1632408029.5117, 59, 0, 4182.564, 4029.744, 4067.179, 4256.41, 4173.333, 0, 0, []
1632408029.5196, 60, 0, 4171.282, 4176.41, 4074.359, 4271.795, 4160, 0, 0, []
1632408029.5275, 61, 0, 4150.769, 4251.795, 4065.641, 4278.974, 4135.897, 0, 0, []
1632408029.5355, 62, 0, 4150.256, 4156.923, 4066.154, 4281.026, 4131.282, 0, 0, []
1632408029.5434, 63, 0, 4149.744, 4178.462, 4068.205, 4275.897, 4134.359, 0, 0, []
1632408029.5512, 64, 0, 4155.385, 4284.103, 4085.128, 4273.846, 4144.103, 450, 0, []
1632408029.559, 65, 0, 4175.897, 4300.513, 4094.359, 4291.795, 4152.308, 450, 0, []
1632408029.5668, 66, 0, 4167.179, 4414.872, 4094.359, 4303.59, 4140.513, 16219, 0, []
1632408029.5747, 67, 0, 4139.487, 4701.026, 4089.231, 4281.538, 4129.231, 450, 0, []
1632408029.5825, 68, 0, 4143.59, 4767.179, 4080, 4263.077, 4142.051, 16125, 0, []
1632408029.5904, 69, 0, 4165.128, 4576.923, 4103.59, 4285.641, 4158.974, 450, 0, []
1632408029.5981, 70, 0, 4167.692, 4455.385, 4109.744, 4311.282, 4158.974, 16067, 0, []
1632408029.606, 71, 0, 4155.897, 4391.795, 4085.128, 4297.436, 4152.821, 450, 0, []
1632408029.6138, 72, 0, 4149.744, 4153.333, 4073.333, 4271.282, 4147.179, 450, 0, []
1632408029.6217, 73, 0, 4152.308, 3910.769, 4067.692, 4266.154, 4147.179, 16177, 0, []
1632408029.6295, 74, 0, 4168.205, 4009.231, 4085.128, 4283.59, 4165.128, 450, 0, []
1632408029.6374, 75, 0, 4184.103, 4230.769, 4103.077, 4299.487, 4175.385, 16188, 0, []
1632408029.6453, 76, 0, 4162.564, 4333.333, 4099.487, 4294.359, 4149.231, 450, 0, []
1632408029.6533, 77, 0, 4140.513, 4442.051, 4085.641, 4287.692, 4135.385, 450, 0, []
1632408029.6612, 78, 0, 4157.949, 4512.308, 4064.615, 4293.846, 4164.103, 450, 0, []
1632408029.6692, 79, 0, 4166.667, 4503.077, 4080, 4303.077, 4178.974, 16188, 0, []
1632408029.677, 80, 0, 4144.103, 4552.821, 4086.154, 4308.205, 4153.333, 450, 0, []
1632408029.685, 81, 0, 4135.385, 4605.128, 4063.077, 4304.103, 4140, 450, 0, []
1632408029.6929, 82, 0, 4154.359, 4592.308, 4071.282, 4292.821, 4167.179, 450, 0, []
1632408029.7007, 83, 0, 4170.769, 4588.205, 4085.128, 4300, 4185.128, 16188, 0, []
1632408029.7086, 84, 0, 4164.615, 4490.256, 4084.103, 4305.128, 4164.103, 450, 0, []
1632408029.7164, 85, 0, 4141.538, 4497.949, 4075.385, 4290.769, 4148.205, 450, 0, []
1632408029.7242, 86, 0, 4149.744, 4984.615, 4075.385, 4300, 4157.436, 450, 0, []
1632408029.732, 87, 0, 4176.923, 5463.59, 4102.051, 4322.051, 4169.231, 16188, 0, []
1632408029.7399, 88, 0, 4177.436, 5371.282, 4106.154, 4319.487, 4192.308, 450, 0, []
1632408029.7477, 89, 0, 4179.487, 5111.795, 4095.897, 4318.974, 4197.949, 450, 0, []
1632408029.7556, 90, 0, 4181.026, 5095.385, 4099.487, 4322.564, 4168.718, 450, 0, []
1632408029.7633, 91, 0, 4172.308, 5169.744, 4098.462, 4319.487, 4169.744, 16188, 0, []
1632408029.7713, 92, 0, 4181.538, 5141.538, 4086.667, 4327.179, 4181.026, 450, 0, []
1632408029.7792, 93, 0, 4171.795, 5101.026, 4058.462, 4320.513, 4155.897, 450, 0, []
1632408029.7872, 94, 0, 4153.846, 5245.641, 4067.179, 4309.231, 4163.59, 450, 0, []
1632408029.7951, 95, 0, 4186.154, 5315.897, 4093.846, 4328.718, 4195.897, 16188, 0, []
1632408029.803, 96, 0, 4197.436, 5114.359, 4077.949, 4329.744, 4176.41, 450, 0, []
1632408029.8109, 97, 0, 4164.615, 4992.821, 4076.923, 4311.795, 4164.103, 450, 0, []
1632408029.8189, 98, 0, 4176.41, 5004.103, 4080, 4320.513, 4180.513, 450, 0, []
1632408029.8268, 99, 0, 4187.692, 4895.897, 4072.308, 4320.513, 4164.615, 16188, 0, []
1632408029.8348, 100, 0, 4168.205, 4883.59, 4080, 4301.538, 4157.949, 450, 0, []
1632408029.8426, 101, 0, 4188.205, 5087.692, 4082.564, 4303.077, 4172.821, 450, 0, []
1632408029.8506, 102, 0, 4193.333, 5164.615, 4084.103, 4295.897, 4151.795, 450, 0, []
1632408029.8585, 103, 0, 4161.026, 5082.564, 4081.026, 4274.359, 4142.564, 16188, 0, []
1632408029.8663, 104, 0, 4179.487, 4976.923, 4092.821, 4283.077, 4176.923, 450, 0, []
1632408029.8742, 105, 0, 4194.872, 4878.974, 4105.641, 4293.846, 4180, 450, 0, []
1632408029.8819, 106, 0, 4155.897, 4851.282, 4081.026, 4276.923, 4147.179, 450, 0, []
1632408029.8898, 107, 0, 4154.359, 4853.846, 4083.59, 4269.231, 4152.308, 16188, 0, []
1632408029.8976, 108, 0, 4183.59, 4711.282, 4103.077, 4267.692, 4178.462, 450, 0, []
1632408029.9055, 109, 0, 4172.308, 4472.821, 4084.615, 4246.667, 4165.128, 450, 0, []
1632408029.9133, 110, 0, 4157.949, 4424.615, 4062.564, 4229.231, 4149.231, 450, 0, []
1632408029.9211, 111, 0, 4161.026, 4586.667, 4052.821, 4226.154, 4164.103, 16188, 0, []
1632408029.9289, 112, 0, 4158.974, 4743.077, 4064.615, 4228.205, 4165.128, 450, 0, []
1632408029.9369, 113, 0, 4158.974, 4740.513, 4080, 4239.487, 4152.821, 450, 0, []
1632408029.9448, 114, 0, 4161.538, 4749.231, 4070.769, 4250.256, 4144.103, 450, 0, []
1632408029.9528, 115, 0, 4168.718, 4975.897, 4057.949, 4238.974, 4143.077, 16188, 0, []
1632408029.9606, 116, 0, 4174.872, 5258.974, 4055.385, 4217.436, 4157.949, 450, 0, []
1632408029.9686, 117, 0, 4167.692, 5264.103, 4065.641, 4220, 4154.359, 450, 0, []
1632408029.9765, 118, 0, 4154.359, 5063.077, 4054.359, 4216.923, 4128.205, 450, 0, []
1632408029.9845, 119, 0, 4150.256, 5096.923, 4040.513, 4193.333, 4136.923, 16188, 0, []
1632408029.9924, 120, 0, 4161.026, 5321.026, 4056.41, 4198.974, 4148.718, 450, 0, []
1632408030.0003, 121, 0, 4160, 5372.308, 4052.821, 4207.179, 4119.487, 450, 0, []
1632408030.0082, 122, 0, 4143.077, 5224.615, 4057.436, 4195.897, 4119.487, 450, 0, []
1632408030.016, 123, 0, 4149.744, 5086.667, 4067.179, 4215.385, 4140, 16188, 0, []
1632408030.0239, 124, 0, 4159.487, 4929.744, 4058.974, 4241.026, 4127.692, 450, 0, []
1632408030.0317, 125, 0, 4145.641, 4642.564, 4064.615, 4226.667, 4125.641, 450, 0, []
1632408030.0395, 126, 0, 4147.692, 4598.974, 4053.333, 4205.641, 4144.103, 450, 0, []
1632408030.0473, 127, 0, 4155.385, 4941.538, 4053.333, 4203.077, 4141.026, 16188, 0, []
1632408030.0552, 128, 0, 4134.359, 5216.41, 4061.538, 4198.462, 4108.205, 450, 0, []
1632408030.063, 0, 0, 4117.436, 5208.718, 4039.487, 4187.692, 4087.692, 450, 0, []
1632408030.0709, 1, 0, 4134.359, 5115.385, 4037.436, 4183.59, 4110.256, 450, 0, []
1632408030.0786, 2, 0, 4161.538, 4976.41, 4045.128, 4189.744, 4132.821, 16208, 0, []
1632408030.0865, 3, 0, 4160.513, 4857.436, 4051.795, 4196.41, 4117.949, 450, 0, []
1632408030.0943, 4, 0, 4137.949, 4921.538, 4055.897, 4191.282, 4095.385, 16103, 0, []
1632408030.1023, 5, 0, 4132.308, 5031.282, 4031.282, 4181.538, 4098.462, 450, 0, []
1632408030.1102, 6, 0, 4150.256, 5044.103, 4031.282, 4183.59, 4117.949, 16096, 0, []
1632408030.1181, 7, 0, 4167.692, 4986.667, 4048.718, 4199.487, 4128.205, 450, 0, []
1632408030.126, 8, 0, 4164.103, 4861.026, 4051.282, 4211.282, 4120, 450, 0, []
1632408030.134, 9, 0, 4147.692, 4762.564, 4050.769, 4205.641, 4114.359, 16166, 0, []
1632408030.1419, 10, 0, 4136.41, 4853.333, 4037.949, 4191.282, 4119.487, 450, 0, []
1632408030.1499, 11, 0, 4137.949, 4931.795, 4034.872, 4187.179, 4118.974, 16185, 0, []
1632408030.1577, 12, 0, 4140.513, 4784.103, 4032.308, 4190.769, 4112.308, 450, 0, []
1632408030.1657, 13, 0, 4128.205, 4880.513, 4023.077, 4182.051, 4098.462, 450, 0, []
1632408030.1736, 14, 0, 4118.974, 5163.077, 4021.538, 4170.769, 4087.179, 450, 0, []
1632408030.1814, 15, 0, 4127.692, 4878.974, 4019.487, 4169.744, 4102.564, 16185, 0, []
1632408030.1893, 16, 0, 4144.103, 4436.923, 4044.103, 4184.615, 4127.692, 0, 0, []
1632408030.197, 17, 0, 4159.487, 4564.103, 4058.462, 4209.744, 4127.179, 0, 0, []
1632408030.2049, 18, 0, 4165.128, 4786.667, 4047.179, 4218.462, 4118.974, 0, 0, []
1632408030.2127, 19, 0, 4165.641, 4853.333, 4060, 4209.231, 4130.256, 0, 0, []
1632408030.2206, 20, 0, 4176.41, 4825.128, 4073.333, 4205.128, 4143.077, 0, 0, []
1632408030.2284, 21, 0, 4188.205, 4520.513, 4084.615, 4211.282, 4140.513, 0, 0, []
1632408030.2362, 22, 0, 4170.256, 4533.846, 4071.282, 4209.231, 4121.538, 0, 0, []
1632408030.244, 23, 0, 4140, 4983.077, 4036.923, 4192.308, 4101.026, 0, 0, []
1632408030.252, 24, 0, 4150.769, 4898.974, 4056.41, 4191.282, 4122.051, 0, 0, []
1632408030.2599, 25, 0, 4180.513, 4474.359, 4076.41, 4208.718, 4146.667, 0, 0, []
1632408030.2679, 26, 0, 4170.769, 4585.128, 4062.564, 4209.231, 4116.923, 0, 0, []
1632408030.2757, 27, 0, 4146.154, 4843.077, 4049.744, 4198.974, 4089.231, 0, 0, []
1632408030.2837, 28, 0, 4147.692, 4763.077, 4049.231, 4202.564, 4108.205, 0, 0, []
1632408030.2916, 29, 0, 4156.923, 4738.462, 4069.231, 4205.641, 4121.538, 0, 0, []
1632408030.2996, 30, 0, 4162.051, 4877.949, 4069.744, 4205.128, 4107.692, 0, 0, []
1632408030.3075, 31, 0, 4164.103, 4890.256, 4055.385, 4216.923, 4104.615, 0, 0, []
1632408030.3154, 32, 0, 4163.59, 4752.308, 4053.846, 4223.59, 4127.179, 0, 0, []
1632408030.3233, 33, 0, 4173.333, 4630.769, 4057.949, 4221.026, 4142.051, 0, 0, []
1632408030.3311, 34, 0, 4183.59, 4616.923, 4074.872, 4228.718, 4134.872, 0, 0, []
1632408030.339, 35, 0, 4172.821, 4529.744, 4067.179, 4231.795, 4118.974, 0, 0, []
1632408030.3468, 36, 0, 4155.897, 4324.615, 4055.897, 4222.051, 4108.718, 0, 0, []
1632408030.3546, 37, 0, 4164.615, 4336.923, 4061.538, 4215.385, 4118.974, 0, 0, []
1632408030.3624, 38, 0, 4191.795, 4545.128, 4056.41, 4221.538, 4140, 0, 0, []
1632408030.3703, 39, 0, 4194.872, 4716.923, 4070.769, 4232.821, 4141.538, 0, 0, []
1632408030.3781, 40, 0, 4166.154, 4906.667, 4067.179, 4235.385, 4117.949, 0, 0, []
1632408030.386, 41, 0, 4154.872, 5016.41, 4046.667, 4227.179, 4113.333, 0, 0, []
1632408030.3937, 42, 0, 4174.359, 4889.744, 4067.179, 4221.026, 4137.949, 0, 0, []
1632408030.4017, 43, 0, 4178.974, 4730.256, 4074.359, 4231.795, 4133.333, 0, 0, []
1632408030.4096, 44, 0, 4154.872, 4645.641, 4045.641, 4233.333, 4096.923, 0, 0, []
1632408030.4176, 45, 0, 4145.128, 4596.923, 4037.949, 4218.974, 4098.462, 0, 0, []
1632408030.4255, 46, 0, 4169.231, 4650.769, 4074.359, 4229.744, 4127.692, 0, 0, []
1632408030.4335, 47, 0, 4173.333, 4605.641, 4095.897, 4256.41, 4116.41, 0, 0, []
1632408030.4413, 48, 0, 4137.436, 4393.333, 4069.744, 4264.103, 4083.59, 0, 0, []
1632408030.4493, 49, 0, 4125.128, 4189.744, 4063.59, 4253.846, 4084.103, 0, 0, []
1632408030.4572, 50, 0, 4158.462, 4015.385, 4064.615, 4248.205, 4118.974, 0, 0, []
1632408030.4652, 51, 0, 4197.949, 4020.513, 4056.41, 4244.103, 4157.949, 0, 0, []
1632408030.4731, 52, 0, 4221.026, 4177.949, 4076.41, 4238.974, 4182.051, 0, 0, []
1632408030.481, 53, 0, 4243.59, 4141.538, 4073.333, 4237.949, 4208.205, 0, 0, []
1632408030.4889, 54, 0, 4277.949, 4017.949, 4056.41, 4240, 4233.846, 0, 0, []
1632408030.4967, 55, 0, 4289.231, 4002.051, 4064.103, 4237.436, 4232.308, 0, 0, []
1632408030.5046, 56, 0, 4266.667, 3891.282, 4057.436, 4225.641, 4217.436, 0, 0, []
1632408030.5124, 57, 0, 4275.897, 3888.205, 4054.872, 4221.026, 4222.564, 0, 0, []
1632408030.5202, 58, 0, 4293.333, 4221.538, 4068.718, 4223.59, 4233.846, 0, 0, []
1632408030.528, 59, 0, 4262.051, 4438.462, 4080, 4231.282, 4222.051, 0, 0, []
1632408030.5359, 60, 0, 4234.872, 4262.564, 4072.821, 4233.333, 4194.359, 0, 0, []
1632408030.5437, 61, 0, 4228.718, 4063.59, 4080.513, 4232.821, 4184.615, 0, 0, []
1632408030.5517, 62, 0, 4216.923, 4018.974, 4107.179, 4250.256, 4184.615, 0, 0, []
1632408030.5595, 63, 0, 4194.872, 4045.128, 4082.564, 4254.872, 4172.308, 0, 0, []
1632408030.5675, 64, 0, 4163.077, 4190.256, 4064.615, 4231.282, 4155.385, 450, 0, []
1632408030.5754, 65, 0, 4152.821, 4242.564, 4098.462, 4217.949, 4153.333, 450, 0, []
1632408030.5834, 66, 0, 4168.205, 4158.974, 4124.615, 4230.769, 4168.205, 16184, 0, []
1632408030.5913, 67, 0, 4176.41, 4135.385, 4132.821, 4254.359, 4177.949, 450, 0, []
1632408030.5992, 68, 0, 4171.795, 4036.41, 4121.026, 4263.59, 4177.949, 16166, 0, []
1632408030.6071, 69, 0, 4161.026, 3881.026, 4112.308, 4249.744, 4168.205, 450, 0, []
1632408030.6151, 70, 0, 4129.744, 3973.846, 4101.538, 4228.718, 4152.308, 16108, 0, []
1632408030.623, 71, 0, 4109.744, 4158.974, 4069.231, 4221.026, 4142.564, 450, 0, []
1632408030.6309, 72, 0, 4117.949, 4045.641, 4077.949, 4215.897, 4145.128, 450, 0, []
1632408030.6387, 73, 0, 4126.667, 3908.205, 4091.795, 4211.795, 4150.256, 16151, 0, []
1632408030.6465, 74, 0, 4136.41, 4036.923, 4093.846, 4222.564, 4154.359, 450, 0, []
1632408030.6544, 75, 0, 4141.026, 4107.692, 4116.41, 4233.846, 4165.128, 16192, 0, []
1632408030.6623, 76, 0, 4137.436, 4005.641, 4107.179, 4230.769, 4161.026, 450, 0, []
1632408030.6703, 77, 0, 4128.205, 3943.59, 4089.744, 4228.205, 4143.59, 450, 0, []
1632408030.678, 78, 0, 4103.59, 3952.308, 4074.359, 4223.077, 4121.026, 450, 0, []
1632408030.6859, 79, 0, 4078.462, 4022.564, 4048.205, 4203.59, 4097.949, 16192, 0, []
1632408030.6937, 80, 0, 4078.974, 4073.846, 4054.359, 4195.385, 4097.949, 450, 0, []
1632408030.7017, 81, 0, 4097.949, 4132.308, 4076.923, 4215.385, 4122.051, 450, 0, []
1632408030.7096, 82, 0, 4109.744, 4457.436, 4093.846, 4230.256, 4140, 450, 0, []
1632408030.7174, 83, 0, 4124.103, 4769.231, 4097.436, 4226.667, 4142.051, 16192, 0, []
1632408030.7252, 84, 0, 4142.564, 4549.744, 4106.154, 4226.667, 4147.692, 450, 0, []
1632408030.7332, 85, 0, 4153.846, 4268.205, 4126.667, 4232.308, 4155.385, 450, 0, []
1632408030.7411, 86, 0, 4152.821, 4489.744, 4123.59, 4229.744, 4163.077, 450, 0, []
1632408030.7491, 87, 0, 4160.513, 4680.513, 4125.128, 4233.333, 4171.282, 16192, 0, []
1632408030.7569, 88, 0, 4173.333, 4558.974, 4125.641, 4236.41, 4176.41, 450, 0, []
1632408030.7649, 89, 0, 4174.359, 4522.051, 4108.718, 4229.231, 4183.077, 450, 0, []
1632408030.7728, 90, 0, 4183.077, 4570.769, 4120.513, 4238.462, 4188.718, 450, 0, []
1632408030.7808, 91, 0, 4184.615, 4530.769, 4125.641, 4250.769, 4177.436, 16192, 0, []
1632408030.7887, 92, 0, 4166.667, 4463.077, 4106.154, 4239.487, 4161.026, 450, 0, []
1632408030.7964, 93, 0, 4168.205, 4446.667, 4096.923, 4231.282, 4171.795, 450, 0, []
1632408030.8043, 94, 0, 4188.205, 4541.026, 4109.231, 4245.641, 4186.154, 450, 0, []
1632408030.8121, 95, 0, 4195.897, 4556.41, 4123.077, 4259.487, 4174.872, 16192, 0, []
1632408030.82, 96, 0, 4204.103, 4430.769, 4100, 4251.282, 4172.821, 450, 0, []
1632408030.8278, 97, 0, 4219.487, 4537.436, 4108.718, 4234.359, 4209.231, 450, 0, []
1632408030.8356, 98, 0, 4237.436, 4827.692, 4138.974, 4235.897, 4227.179, 450, 0, []
1632408030.8434, 99, 0, 4241.538, 4785.641, 4113.846, 4228.718, 4202.051, 16192, 0, []
1632408030.8513, 100, 0, 4224.615, 4543.077, 4109.744, 4200, 4202.564, 450, 0, []
1632408030.8591, 101, 0, 4223.077, 4523.59, 4125.128, 4198.462, 4221.026, 450, 0, []
1632408030.8671, 102, 0, 4237.436, 4642.051, 4122.051, 4209.231, 4206.154, 450, 0, []
1632408030.8749, 103, 0, 4234.359, 4712.821, 4129.231, 4193.846, 4201.026, 16192, 0, []
1632408030.8829, 104, 0, 4229.744, 4567.179, 4129.231, 4182.564, 4207.179, 450, 0, []
1632408030.8908, 105, 0, 4222.564, 4216.41, 4130.256, 4169.231, 4185.128, 450, 0, []
1632408030.8988, 106, 0, 4212.308, 4095.385, 4125.128, 4148.205, 4169.231, 450, 0, []
1632408030.9067, 107, 0, 4216.41, 4136.41, 4117.436, 4142.051, 4176.41, 16192, 0, []
1632408030.9146, 108, 0, 4224.103, 3930.256, 4126.154, 4140.513, 4182.564, 450, 0, []
1632408030.9225, 109, 0, 4225.128, 3702.051, 4122.051, 4144.615, 4175.897, 450, 0, []
1632408030.9305, 110, 0, 4220, 3774.872, 4126.154, 4161.538, 4167.179, 450, 0, []
1632408030.9384, 111, 0, 4227.692, 3893.333, 4127.179, 4168.205, 4188.718, 16192, 0, []
1632408030.9462, 112, 0, 4264.103, 3831.795, 4127.692, 4163.077, 4223.077, 450, 0, []
1632408030.954, 113, 0, 4292.308, 3769.744, 4151.795, 4167.179, 4230.256, 450, 0, []
1632408030.9618, 114, 0, 4297.436, 3840.513, 4150.769, 4172.821, 4236.41, 450, 0, []
1632408030.9697, 115, 0, 4319.487, 3845.128, 4143.077, 4183.077, 4256.41, 16192, 0, []
1632408030.9775, 116, 0, 4354.359, 3778.974, 4152.308, 4197.436, 4270.769, 450, 0, []
1632408030.9854, 117, 0, 4372.821, 3897.949, 4164.103, 4188.718, 4301.538, 450, 0, []
1632408030.9931, 118, 0, 4411.282, 4123.077, 4169.744, 4183.59, 4355.897, 450, 0, []
1632408031.001, 119, 0, 4477.949, 4279.487, 4152.308, 4206.154, 4391.795, 16192, 0, []
1632408031.0088, 120, 0, 4517.436, 4375.897, 4154.359, 4222.564, 4400.513, 450, 0, []
1632408031.0168, 121, 0, 4523.59, 4346.154, 4165.128, 4210.769, 4417.949, 450, 0, []
1632408031.0247, 122, 0, 4517.436, 4347.179, 4155.385, 4193.333, 4442.564, 450, 0, []
1632408031.0326, 123, 0, 4492.308, 4472.821, 4164.103, 4197.436, 4429.744, 16192, 0, []
1632408031.0405, 124, 0, 4452.308, 4461.026, 4170.769, 4221.026, 4394.872, 450, 0, []
1632408031.0485, 125, 0, 4422.564, 4374.359, 4165.128, 4243.59, 4376.923, 450, 0, []
1632408031.0564, 126, 0, 4407.692, 4483.59, 4149.231, 4257.949, 4342.051, 450, 0, []
1632408031.0644, 127, 0, 4375.897, 4557.949, 4135.385, 4244.103, 4272.308, 16192, 0, []
1632408031.0722, 128, 0, 4314.359, 4445.128, 4151.795, 4210.256, 4225.641, 450, 0, []
1632408031.0802, 0, 0, 4268.718, 4328.205, 4128.205, 4194.872, 4205.641, 450, 0, []
1632408031.0881, 1, 0, 4269.744, 4196.41, 4088.718, 4198.462, 4177.436, 450, 0, []
1632408031.0961, 2, 0, 4268.718, 4335.385, 4101.026, 4187.692, 4163.077, 16186, 0, []
1632408031.104, 3, 0, 4241.538, 4808.718, 4120, 4174.359, 4171.282, 450, 0, []
1632408031.1117, 4, 0, 4237.436, 4942.051, 4120.513, 4190.256, 4161.026, 16161, 0, []
1632408031.1196, 5, 0, 4242.051, 4521.026, 4101.538, 4180, 4133.846, 450, 0, []
1632408031.1274, 6, 0, 4229.231, 4111.282, 4110.769, 4158.462, 4145.641, 16094, 0, []
1632408031.1353, 7, 0, 4237.949, 4119.487, 4134.359, 4186.154, 4169.231, 450, 0, []
1632408031.1431, 8, 0, 4262.564, 4475.897, 4117.436, 4202.564, 4154.359, 450, 0, []
1632408031.1509, 9, 0, 4258.974, 4768.718, 4115.897, 4182.564, 4151.795, 16150, 0, []
1632408031.1587, 10, 0, 4250.256, 4694.359, 4119.487, 4189.231, 4177.436, 450, 0, []
1632408031.1667, 11, 0, 4254.872, 4616.41, 4095.385, 4201.538, 4160.513, 16194, 0, []
1632408031.1746, 12, 0, 4234.872, 4831.795, 4081.538, 4175.385, 4124.103, 450, 0, []
1632408031.1826, 13, 0, 4208.718, 5015.897, 4076.41, 4162.051, 4126.667, 450, 0, []
1632408031.1905, 14, 0, 4218.974, 4975.897, 4075.385, 4171.795, 4120, 450, 0, []
1632408031.1984, 15, 0, 4234.872, 4914.359, 4064.615, 4152.308, 4104.103, 16194, 0, []
1632408031.2063, 16, 0, 4228.718, 4912.821, 4062.564, 4133.333, 4125.641, 0, 0, []
1632408031.2143, 17, 0, 4227.179, 4933.333, 4085.128, 4150.256, 4138.462, 0, 0, []
1632408031.2222, 18, 0, 4220.513, 4843.59, 4088.718, 4160.513, 4113.846, 0, 0, []
1632408031.2302, 19, 0, 4196.923, 4566.667, 4087.692, 4147.692, 4111.795, 0, 0, []
1632408031.238, 20, 0, 4199.487, 4378.974, 4089.744, 4163.59, 4121.538, 0, 0, []
1632408031.246, 21, 0, 4206.667, 4221.026, 4090.256, 4191.282, 4103.077, 0, 0, []
1632408031.2539, 22, 0, 4196.41, 4101.026, 4092.821, 4187.179, 4107.692, 0, 0, []
1632408031.2617, 23, 0, 4217.949, 4518.462, 4078.462, 4187.692, 4132.821, 0, 0, []
1632408031.2696, 24, 0, 4237.949, 5030.769, 4090.256, 4197.949, 4135.897, 0, 0, []
1632408031.2773, 25, 0, 4221.538, 4852.821, 4104.103, 4196.41, 4144.615, 0, 0, []
1632408031.2852, 26, 0, 4221.538, 4628.718, 4076.41, 4200, 4142.051, 0, 0, []
1632408031.293, 27, 0, 4236.41, 4997.436, 4079.487, 4207.692, 4125.128, 0, 0, []
1632408031.3009, 28, 0, 4226.154, 5199.487, 4103.077, 4207.692, 4136.41, 0, 0, []
1632408031.3087, 29, 0, 4224.615, 4980.513, 4094.872, 4215.385, 4147.692, 0, 0, []
1632408031.3165, 30, 0, 4252.821, 4922.051, 4086.154, 4227.692, 4140, 0, 0, []
1632408031.3243, 31, 0, 4251.795, 5113.846, 4105.641, 4229.231, 4148.718, 0, 0, []
1632408031.3322, 32, 0, 4229.744, 5270.769, 4125.128, 4234.872, 4163.59, 0, 0, []
1632408031.34, 33, 0, 4235.385, 4962.051, 4096.41, 4232.821, 4140.513, 0, 0, []
1632408031.348, 34, 0, 4230.256, 4365.128, 4072.821, 4204.103, 4114.359, 0, 0, []
1632408031.3558, 35, 0, 4205.641, 4412.308, 4083.59, 4187.692, 4132.308, 0, 0, []
1632408031.3638, 36, 0, 4215.385, 4987.179, 4078.974, 4208.718, 4148.718, 0, 0, []
1632408031.3717, 37, 0, 4232.308, 4947.692, 4080, 4221.538, 4139.487, 0, 0, []
1632408031.3797, 38, 0, 4220, 4462.051, 4084.615, 4215.897, 4147.692, 0, 0, []
1632408031.3876, 39, 0, 4223.59, 4441.538, 4089.231, 4230.769, 4156.923, 0, 0, []
1632408031.3954, 40, 0, 4228.718, 4556.923, 4092.821, 4238.974, 4140, 0, 0, []
1632408031.4033, 41, 0, 4211.282, 4498.462, 4077.949, 4230.256, 4144.103, 0, 0, []
1632408031.4112, 42, 0, 4223.59, 4696.923, 4087.179, 4248.205, 4151.282, 0, 0, []
1632408031.4191, 43, 0, 4236.41, 4881.026, 4088.205, 4257.949, 4128.718, 0, 0, []
1632408031.4269, 44, 0, 4212.821, 4656.41, 4083.59, 4239.487, 4140.513, 0, 0, []
1632408031.4347, 45, 0, 4217.436, 4567.692, 4101.026, 4254.872, 4164.615, 0, 0, []
1632408031.4425, 46, 0, 4237.949, 4855.385, 4086.154, 4271.282, 4147.692, 0, 0, []
1632408031.4504, 47, 0, 4213.846, 4969.231, 4086.154, 4247.179, 4143.59, 0, 0, []
1632408031.4582, 48, 0, 4185.128, 4943.077, 4101.026, 4244.615, 4142.051, 0, 0, []
1632408031.4661, 49, 0, 4184.103, 5070.769, 4083.077, 4246.667, 4106.154, 0, 0, []
1632408031.4738, 50, 0, 4185.128, 4982.051, 4085.641, 4232.308, 4105.641, 0, 0, []
1632408031.4818, 51, 0, 4186.667, 4694.872, 4094.872, 4254.359, 4134.872, 0, 0, []
1632408031.4897, 52, 0, 4197.949, 4682.564, 4088.718, 4281.026, 4136.923, 0, 0, []
1632408031.4977, 53, 0, 4210.256, 4883.59, 4097.949, 4266.667, 4154.872, 0, 0, []
1632408031.5056, 54, 0, 4214.359, 4983.077, 4098.974, 4257.949, 4175.897, 0, 0, []
1632408031.5135, 55, 0, 4212.821, 4835.385, 4074.872, 4254.359, 4156.923, 0, 0, []
1632408031.5214, 56, 0, 4209.744, 4518.462, 4058.462, 4237.949, 4146.667, 0, 0, []
1632408031.5294, 57, 0, 4207.692, 4301.026, 4065.128, 4243.59, 4152.308, 0, 0, []
1632408031.5373, 58, 0, 4207.692, 4280, 4052.821, 4245.128, 4146.154, 0, 0, []
1632408031.5453, 59, 0, 4216.923, 4262.051, 4045.128, 4229.744, 4167.692, 0, 0, []
1632408031.5531, 60, 0, 4252.308, 4262.051, 4073.333, 4251.282, 4214.359, 0, 0, []
1632408031.5609, 61, 0, 4308.205, 4346.667, 4065.641, 4271.282, 4243.077, 0, 0, []
1632408031.5688, 62, 0, 4348.205, 4276.41, 4065.641, 4249.231, 4274.872, 0, 0, []
1632408031.5766, 63, 0, 4368.718, 3877.949, 4096.923, 4240, 4322.051, 0, 0, []
1632408031.5845, 64, 0, 4404.103, 3811.282, 4082.564, 4254.359, 4350.256, 450, 0, []
1632408031.5922, 65, 0, 4439.487, 4357.436, 4067.179, 4255.897, 4346.667, 450, 0, []
1632408031.6001, 66, 0, 4441.538, 4584.103, 4067.692, 4253.333, 4330.256, 16196, 0, []
1632408031.6079, 67, 0, 4412.821, 4309.744, 4081.538, 4259.487, 4320, 450, 0, []
1632408031.6158, 68, 0, 4375.385, 4332.308, 4110.769, 4273.333, 4327.692, 16151, 0, []
1632408031.6236, 69, 0, 4344.615, 4629.744, 4103.59, 4287.692, 4314.872, 450, 0, []
1632408031.6315, 70, 0, 4332.308, 4662.564, 4082.564, 4285.641, 4271.282, 16100, 0, []
1632408031.6394, 71, 0, 4331.795, 4585.641, 4071.282, 4265.128, 4250.256, 450, 0, []
1632408031.6473, 72, 0, 4314.872, 4623.59, 4091.795, 4262.564, 4262.564, 450, 0, []
1632408031.6551, 73, 0, 4290.256, 4562.564, 4107.179, 4284.103, 4252.308, 16158, 0, []
1632408031.6631, 74, 0, 4276.923, 4295.385, 4073.846, 4290.256, 4210.256, 450, 0, []
1632408031.6709, 75, 0, 4262.564, 4264.103, 4079.487, 4280, 4198.462, 16186, 0, []
1632408031.6789, 76, 0, 4251.282, 4629.744, 4109.744, 4288.205, 4229.744, 450, 0, []
1632408031.6868, 77, 0, 4264.615, 4690.769, 4096.41, 4307.179, 4231.282, 450, 0, []
1632408031.6948, 78, 0, 4258.462, 4547.179, 4072.821, 4291.795, 4197.949, 450, 0, []
1632408031.7027, 79, 0, 4218.462, 4703.077, 4074.872, 4267.179, 4185.128, 16186, 0, []
1632408031.7104, 80, 0, 4211.795, 4664.103, 4099.487, 4278.974, 4190.256, 450, 0, []
1632408031.7183, 81, 0, 4242.564, 4494.359, 4104.103, 4291.282, 4193.846, 450, 0, []
1632408031.7261, 82, 0, 4241.538, 4669.231, 4103.077, 4274.359, 4196.41, 450, 0, []
1632408031.734, 83, 0, 4209.231, 4867.692, 4098.974, 4266.154, 4175.385, 16186, 0, []
1632408031.7418, 84, 0, 4197.949, 4803.59, 4066.667, 4268.205, 4147.179, 450, 0, []
1632408031.7496, 85, 0, 4198.974, 4620, 4068.718, 4256.923, 4156.923, 450, 0, []
1632408031.7574, 86, 0, 4200.513, 4570.769, 4072.821, 4261.538, 4168.718, 450, 0, []
1632408031.7653, 87, 0, 4204.615, 4626.667, 4049.231, 4272.308, 4160, 16186, 0, []
1632408031.7731, 88, 0, 4198.974, 4345.641, 4087.692, 4271.795, 4173.333, 450, 0, []
1632408031.781, 89, 0, 4206.667, 4010.769, 4114.359, 4289.231, 4191.282, 450, 0, []
1632408031.7887, 90, 0, 4243.077, 4314.872, 4081.538, 4293.333, 4196.41, 450, 0, []
1632408031.7967, 91, 0, 4256.923, 4727.179, 4079.487, 4270.769, 4208.718, 16186, 0, []
1632408031.8046, 92, 0, 4228.718, 4674.872, 4093.846, 4280, 4198.974, 450, 0, []
1632408031.8126, 93, 0, 4212.308, 4582.051, 4090.769, 4293.333, 4173.333, 450, 0, []
1632408031.8205, 94, 0, 4210.769, 4588.205, 4085.128, 4265.641, 4173.333, 450, 0, []
1632408031.8284, 95, 0, 4199.487, 4610.256, 4089.231, 4254.359, 4166.154, 16186, 0, []
1632408031.8363, 96, 0, 4188.205, 4536.41, 4083.59, 4264.103, 4153.846, 450, 0, []
1632408031.8443, 97, 0, 4182.051, 4285.128, 4075.385, 4251.795, 4165.641, 450, 0, []
1632408031.8522, 98, 0, 4189.744, 4209.231, 4094.359, 4244.103, 4167.692, 450, 0, []
1632408031.8602, 99, 0, 4189.231, 4331.282, 4087.692, 4242.051, 4152.308, 16186, 0, []
1632408031.868, 100, 0, 4164.615, 4388.205, 4073.846, 4227.179, 4140.513, 450, 0, []
1632408031.8758, 101, 0, 4150.769, 4446.154, 4089.231, 4217.436, 4134.872, 450, 0, []
1632408031.8837, 102, 0, 4159.487, 4427.179, 4085.128, 4205.641, 4135.385, 450, 0, []
1632408031.8915, 103, 0, 4172.308, 4266.667, 4092.821, 4195.385, 4145.128, 16186, 0, []
1632408031.8994, 104, 0, 4170.769, 4304.103, 4111.795, 4204.615, 4148.205, 450, 0, []
1632408031.9071, 105, 0, 4158.974, 4490.256, 4107.692, 4212.821, 4132.821, 450, 0, []
1632408031.915, 106, 0, 4151.795, 4557.949, 4092.308, 4196.923, 4123.59, 450, 0, []
1632408031.9228, 107, 0, 4153.333, 4444.615, 4080, 4181.026, 4131.795, 16186, 0, []
1632408031.9307, 108, 0, 4157.436, 4267.692, 4093.333, 4189.744, 4140.513, 450, 0, []
1632408031.9385, 109, 0, 4156.41, 4350.256, 4091.795, 4206.154, 4132.821, 450, 0, []
1632408031.9465, 110, 0, 4146.154, 4600.513, 4065.641, 4203.077, 4116.923, 450, 0, []
1632408031.9543, 111, 0, 4125.641, 4575.897, 4060, 4186.154, 4109.231, 16186, 0, []
1632408031.9623, 112, 0, 4127.692, 4551.795, 4064.615, 4181.026, 4114.359, 450, 0, []
1632408031.9702, 113, 0, 4147.179, 4722.564, 4086.667, 4188.205, 4132.308, 450, 0, []
1632408031.9782, 114, 0, 4133.333, 4660.513, 4088.718, 4195.385, 4129.744, 450, 0, []
1632408031.9861, 115, 0, 4102.051, 4555.897, 4068.718, 4202.051, 4097.949, 16186, 0, []
1632408031.994, 116, 0, 4095.897, 4773.846, 4072.821, 4212.821, 4090.256, 450, 0, []
1632408032.0019, 117, 0, 4106.667, 4904.615, 4059.487, 4217.949, 4103.077, 450, 0, []
1632408032.0099, 118, 0, 4102.564, 4644.615, 4056.41, 4205.641, 4112.821, 450, 0, []
1632408032.0178, 119, 0, 4108.205, 4239.487, 4069.744, 4202.051, 4128.718, 16186, 0, []
1632408032.0258, 120, 0, 4128.205, 4029.231, 4072.308, 4207.179, 4141.026, 450, 0, []
1632408032.0336, 121, 0, 4132.308, 4066.154, 4080.513, 4208.205, 4130.769, 450, 0, []
1632408032.0414, 122, 0, 4127.179, 3974.872, 4075.385, 4207.179, 4114.872, 450, 0, []
1632408032.0493, 123, 0, 4116.923, 3838.462, 4086.154, 4214.359, 4115.385, 16186, 0, []
1632408032.0571, 124, 0, 4109.744, 4387.179, 4088.205, 4220, 4106.667, 450, 0, []
1632408032.065, 125, 0, 4104.103, 4974.359, 4060.513, 4205.128, 4086.667, 450, 0, []
1632408032.0727, 126, 0, 4092.821, 4590.256, 4065.128, 4185.128, 4084.615, 450, 0, []
1632408032.0806, 127, 0, 4080.513, 4125.128, 4070.256, 4171.795, 4085.128, 16186, 0, []
1632408032.0884, 128, 0, 4076.923, 4322.564, 4061.538, 4168.718, 4071.282, 450, 0, []
1632408032.0963, 0, 0, 4083.59, 4498.974, 4066.667, 4171.795, 4067.179, 450, 0, []
1632408032.1041, 1, 0, 4090.769, 4405.641, 4060, 4171.795, 4081.026, 450, 0, []
1632408032.112, 2, 0, 4097.949, 4367.692, 4052.308, 4171.282, 4094.359, 16192, 0, []
1632408032.12, 3, 0, 4106.154, 4377.949, 4047.692, 4175.897, 4104.103, 450, 0, []
1632408032.1279, 4, 0, 4114.359, 4314.872, 4054.872, 4179.487, 4110.769, 16132, 0, []
1632408032.1359, 5, 0, 4124.615, 4102.564, 4064.615, 4178.462, 4115.385, 450, 0, []
1632408032.1438, 6, 0, 4130.256, 3950.769, 4057.436, 4171.795, 4117.436, 16104, 0, []
1632408032.1517, 7, 0, 4119.487, 3952.821, 4062.564, 4157.949, 4099.487, 450, 0, []
1632408032.1596, 8, 0, 4115.897, 3831.795, 4070.769, 4153.846, 4088.205, 450, 0, []
1632408032.1676, 9, 0, 4142.051, 3889.231, 4082.051, 4178.974, 4122.051, 16147, 0, []
1632408032.1755, 10, 0, 4162.051, 4272.308, 4088.718, 4206.154, 4147.179, 450, 0, []
1632408032.1835, 11, 0, 4148.718, 4235.385, 4065.641, 4207.179, 4126.667, 16208, 0, []
1632408032.1913, 12, 0, 4129.744, 3779.487, 4069.231, 4201.026, 4112.821, 450, 0, []
1632408032.1993, 13, 0, 4126.667, 3761.538, 4082.051, 4201.026, 4115.897, 450, 0, []
1632408032.2072, 14, 0, 4126.154, 4108.718, 4076.41, 4198.462, 4106.667, 450, 0, []
1632408032.2152, 15, 0, 4114.872, 4128.205, 4077.436, 4188.205, 4097.949, 16208, 0, []
1632408032.2231, 16, 0, 4090.769, 3789.744, 4056.923, 4168.205, 4089.744, 0, 0, []
1632408032.231, 17, 0, 4078.974, 3762.564, 4043.59, 4160.513, 4074.872, 0, 0, []
1632408032.2389, 18, 0, 4090.256, 4188.205, 4051.795, 4178.462, 4073.846, 0, 0, []
1632408032.2469, 19, 0, 4102.564, 4311.282, 4056.41, 4194.872, 4093.846, 0, 0, []
1632408032.2549, 20, 0, 4108.205, 3986.154, 4060, 4193.333, 4108.205, 0, 0, []
1632408032.2628, 21, 0, 4105.641, 3835.385, 4046.667, 4186.154, 4101.538, 0, 0, []
1632408032.2707, 22, 0, 4103.59, 4033.846, 4049.744, 4178.974, 4089.744, 0, 0, []
1632408032.2786, 23, 0, 4107.692, 4171.795, 4057.436, 4169.744, 4091.795, 0, 0, []
1632408032.2866, 24, 0, 4112.308, 4179.487, 4040.513, 4169.231, 4093.846, 0, 0, []
1632408032.2945, 25, 0, 4115.897, 4330.256, 4045.641, 4182.564, 4099.487, 0, 0, []
1632408032.3025, 26, 0, 4125.641, 4522.564, 4051.282, 4196.923, 4111.795, 0, 0, []
1632408032.3103, 27, 0, 4129.231, 4521.538, 4045.128, 4198.462, 4106.154, 0, 0, []
1632408032.3183, 28, 0, 4130.256, 4434.872, 4050.256, 4204.103, 4100.513, 0, 0, []
1632408032.3262, 29, 0, 4135.897, 4435.385, 4056.923, 4225.641, 4110.256, 0, 0, []
1632408032.3342, 30, 0, 4132.821, 4353.846, 4065.641, 4238.974, 4109.744, 0, 0, []
1632408032.3421, 31, 0, 4132.308, 4181.026, 4050.769, 4228.718, 4101.538, 0, 0, []
1632408032.35, 32, 0, 4130.256, 4210.769, 4032.308, 4215.385, 4102.564, 0, 0, []
1632408032.3579, 33, 0, 4126.154, 4369.744, 4030.769, 4216.41, 4110.769, 0, 0, []
1632408032.3659, 34, 0, 4137.436, 4405.128, 4033.333, 4223.59, 4121.026, 0, 0, []
1632408032.3738, 35, 0, 4144.615, 4223.59, 4051.282, 4221.026, 4122.564, 0, 0, []
1632408032.3818, 36, 0, 4140, 4050.769, 4047.692, 4212.308, 4114.359, 0, 0, []
1632408032.3896, 37, 0, 4144.615, 3948.718, 4044.615, 4213.846, 4115.385, 0, 0, []
1632408032.3976, 38, 0, 4153.846, 3769.231, 4062.051, 4227.179, 4123.077, 0, 0, []
1632408032.4055, 39, 0, 4142.051, 3605.128, 4061.026, 4229.231, 4113.846, 0, 0, []
1632408032.4135, 40, 0, 4133.846, 3506.667, 4067.179, 4226.154, 4107.179, 0, 0, []
1632408032.4214, 41, 0, 4137.436, 3464.615, 4059.487, 4230.256, 4112.821, 0, 0, []
1632408032.4293, 42, 0, 4127.179, 3435.385, 4043.077, 4226.667, 4108.205, 0, 0, []
1632408032.4373, 43, 0, 4120.513, 3385.128, 4046.154, 4219.487, 4103.077, 0, 0, []
1632408032.4452, 44, 0, 4122.564, 3397.436, 4034.359, 4217.949, 4109.231, 0, 0, []
1632408032.4532, 45, 0, 4117.436, 3524.615, 4028.205, 4218.974, 4104.615, 0, 0, []
1632408032.4611, 46, 0, 4104.615, 3626.667, 4033.846, 4215.385, 4093.846, 0, 0, []
1632408032.469, 47, 0, 4108.205, 3555.385, 4042.564, 4213.846, 4106.667, 0, 0, []
1632408032.4769, 48, 0, 4131.282, 3684.615, 4062.564, 4218.462, 4134.359, 0, 0, []
1632408032.4849, 49, 0, 4149.231, 3997.949, 4052.821, 4231.282, 4141.026, 0, 0, []
1632408032.4928, 50, 0, 4152.308, 3812.308, 4050.769, 4249.744, 4138.974, 0, 0, []
1632408032.5008, 51, 0, 4153.333, 3354.872, 4058.974, 4262.564, 4142.051, 0, 0, []
1632408032.5086, 52, 0, 4150.256, 3508.718, 4048.718, 4261.026, 4136.41, 0, 0, []
1632408032.5166, 53, 0, 4141.026, 3951.795, 4051.795, 4259.487, 4126.154, 0, 0, []
1632408032.5245, 54, 0, 4143.59, 3911.795, 4058.462, 4263.59, 4124.103, 0, 0, []
1632408032.5325, 55, 0, 4150.256, 3752.308, 4070.769, 4260, 4125.128, 0, 0, []
1632408032.5404, 56, 0, 4145.641, 3822.051, 4068.205, 4245.641, 4117.436, 0, 0, []
1632408032.5483, 57, 0, 4133.333, 3802.564, 4046.667, 4242.051, 4104.103, 0, 0, []
1632408032.5562, 58, 0, 4119.487, 3753.333, 4050.256, 4247.179, 4098.974, 0, 0, []
1632408032.5642, 59, 0, 4111.282, 3821.026, 4052.821, 4246.667, 4109.231, 0, 0, []
1632408032.5722, 60, 0, 4115.897, 3898.462, 4055.385, 4244.615, 4117.949, 0, 0, []
1632408032.5801, 61, 0, 4129.231, 4017.949, 4061.538, 4251.282, 4125.128, 0, 0, []
1632408032.588, 62, 0, 4145.128, 4168.718, 4055.385, 4263.59, 4141.538, 0, 0, []
1632408032.5959, 63, 0, 4156.923, 4167.179, 4064.103, 4261.538, 4150.769, 0, 0, []
1632408032.6039, 64, 0, 4154.872, 4042.564, 4066.154, 4250.769, 4143.59, 450, 0, []
1632408032.6118, 65, 0, 4145.641, 3854.359, 4073.333, 4248.718, 4139.487, 450, 0, []
1632408032.6198, 66, 0, 4141.538, 3546.667, 4084.615, 4243.59, 4140.513, 16189, 0, []
1632408032.6276, 67, 0, 4137.949, 3358.462, 4070.769, 4230.256, 4134.872, 450, 0, []
1632408032.6356, 68, 0, 4141.538, 3395.385, 4070.769, 4228.205, 4136.41, 16193, 0, []
1632408032.6435, 69, 0, 4152.308, 3394.872, 4076.41, 4240.513, 4151.795, 450, 0, []
1632408032.6515, 70, 0, 4157.436, 3296.923, 4077.949, 4245.128, 4153.333, 16162, 0, []
1632408032.6594, 71, 0, 4148.205, 3234.872, 4089.231, 4236.923, 4147.692, 450, 0, []
1632408032.6672, 72, 0, 4138.462, 3238.974, 4083.077, 4228.718, 4146.667, 450, 0, []
1632408032.6751, 73, 0, 4126.667, 3248.718, 4076.923, 4227.179, 4134.359, 16100, 0, []
1632408032.6831, 74, 0, 4120, 3129.231, 4061.538, 4230.769, 4116.41, 450, 0, []
1632408032.6911, 75, 0, 4127.179, 2990.256, 4057.436, 4245.128, 4124.103, 16218, 0, []
1632408032.699, 76, 0, 4140.513, 3141.026, 4077.436, 4271.282, 4142.564, 450, 0, []
1632408032.7068, 77, 0, 4142.564, 3242.051, 4072.308, 4283.59, 4145.128, 450, 0, []
1632408032.7148, 78, 0, 4137.436, 3113.333, 4073.333, 4276.923, 4136.923, 450, 0, []
1632408032.7227, 79, 0, 4138.462, 3184.103, 4082.051, 4268.718, 4126.154, 16218, 0, []
1632408032.7307, 80, 0, 4136.41, 3262.051, 4073.333, 4256.41, 4115.897, 450, 0, []
1632408032.7387, 81, 0, 4131.795, 3150.256, 4079.487, 4254.872, 4121.538, 450, 0, []
1632408032.7465, 82, 0, 4143.077, 3224.103, 4089.231, 4273.333, 4134.872, 450, 0, []
1632408032.7545, 83, 0, 4153.846, 3312.308, 4096.41, 4286.667, 4141.538, 16218, 0, []
1632408032.7624, 84, 0, 4145.641, 3167.692, 4077.949, 4281.538, 4145.128, 450, 0, []
1632408032.7704, 85, 0, 4131.282, 3120.513, 4052.308, 4266.667, 4138.974, 450, 0, []
1632408032.7783, 86, 0, 4132.308, 3157.949, 4068.718, 4250.256, 4126.154, 450, 0, []
1632408032.7862, 87, 0, 4143.077, 3049.744, 4083.59, 4240.513, 4123.59, 16218, 0, []
1632408032.7941, 88, 0, 4153.846, 2960.513, 4091.795, 4241.026, 4136.41, 450, 0, []
1632408032.8021, 89, 0, 4157.436, 2989.744, 4089.231, 4240.513, 4150.256, 450, 0, []
1632408032.81, 90, 0, 4151.795, 3074.359, 4063.077, 4234.359, 4154.872, 450, 0, []
1632408032.818, 91, 0, 4149.231, 3175.385, 4060, 4249.744, 4153.333, 16218, 0, []
1632408032.8258, 92, 0, 4149.231, 3170.256, 4063.59, 4270.256, 4145.128, 450, 0, []
1632408032.8338, 93, 0, 4143.077, 3146.667, 4058.462, 4264.615, 4134.872, 450, 0, []
1632408032.8417, 94, 0, 4133.333, 3249.744, 4049.231, 4254.872, 4126.667, 450, 0, []
1632408032.8497, 95, 0, 4131.282, 3310.769, 4047.692, 4257.436, 4120, 16218, 0, []
1632408032.8576, 96, 0, 4133.846, 3224.103, 4068.205, 4246.154, 4120, 450, 0, []
1632408032.8656, 97, 0, 4134.359, 3162.051, 4064.103, 4226.154, 4127.179, 450, 0, []
1632408032.8734, 98, 0, 4148.205, 3312.821, 4070.769, 4225.128, 4143.59, 450, 0, []
1632408032.8812, 99, 0, 4173.333, 3568.205, 4092.821, 4235.897, 4164.103, 16218, 0, []
1632408032.8892, 100, 0, 4181.026, 3765.128, 4069.231, 4231.282, 4170.256, 450, 0, []
1632408032.8971, 101, 0, 4161.538, 3864.615, 4055.385, 4223.59, 4161.538, 450, 0, []
1632408032.9051, 102, 0, 4146.154, 4026.154, 4065.128, 4216.923, 4146.667, 450, 0, []
1632408032.9129, 103, 0, 4144.615, 4233.333, 4066.667, 4202.051, 4138.462, 16218, 0, []
1632408032.9209, 104, 0, 4141.538, 4070.769, 4071.795, 4181.026, 4137.949, 450, 0, []
1632408032.9288, 105, 0, 4141.538, 3730.256, 4068.718, 4167.692, 4137.949, 450, 0, []
1632408032.9368, 106, 0, 4150.256, 3696.923, 4071.282, 4164.615, 4142.051, 450, 0, []
1632408032.9447, 107, 0, 4152.821, 3726.667, 4074.359, 4158.974, 4149.744, 16218, 0, []
1632408032.9526, 108, 0, 4139.487, 3767.692, 4073.846, 4153.333, 4138.462, 450, 0, []
1632408032.9605, 109, 0, 4126.154, 4007.179, 4077.949, 4157.949, 4124.103, 450, 0, []
1632408032.9685, 110, 0, 4128.205, 4113.333, 4064.615, 4161.026, 4130.256, 450, 0, []
1632408032.9764, 111, 0, 4132.821, 4032.821, 4056.41, 4158.974, 4142.051, 16218, 0, []
1632408032.9844, 112, 0, 4134.872, 4010.256, 4046.667, 4162.564, 4143.59, 450, 0, []
1632408032.9922, 113, 0, 4141.026, 3949.231, 4047.179, 4168.205, 4146.667, 450, 0, []
1632408033.0002, 114, 0, 4152.821, 4068.205, 4080.513, 4172.308, 4160, 450, 0, []
1632408033.0081, 115, 0, 4158.974, 4303.59, 4085.128, 4174.872, 4158.462, 16218, 0, []
1632408033.0159, 116, 0, 4157.436, 4189.744, 4080.513, 4170.769, 4146.667, 450, 0, []
1632408033.0238, 117, 0, 4173.333, 4119.487, 4068.205, 4166.667, 4161.538, 450, 0, []
1632408033.0315, 118, 0, 4207.179, 4332.821, 4041.026, 4166.154, 4190.769, 450, 0, []
1632408033.0394, 119, 0, 4233.333, 4347.179, 4055.897, 4165.128, 4215.897, 16218, 0, []
1632408033.0472, 120, 0, 4265.128, 4231.282, 4063.077, 4176.41, 4250.256, 450, 0, []
1632408033.0552, 121, 0, 4313.333, 4169.744, 4047.179, 4192.308, 4283.077, 450, 0, []
1632408033.0631, 122, 0, 4339.487, 4121.026, 4048.205, 4182.564, 4295.897, 450, 0, []
1632408033.071, 123, 0, 4340, 4128.205, 4062.564, 4167.179, 4317.949, 16218, 0, []
1632408033.0789, 124, 0, 4362.564, 4115.897, 4070.256, 4185.641, 4334.872, 450, 0, []
1632408033.0869, 125, 0, 4385.641, 4078.462, 4067.179, 4200, 4328.205, 450, 0, []
1632408033.0948, 126, 0, 4360, 4146.154, 4092.308, 4187.692, 4325.128, 450, 0, []
1632408033.1028, 127, 0, 4323.59, 4309.744, 4094.872, 4190.769, 4320, 16218, 0, []
1632408033.1107, 128, 0, 4318.462, 4434.359, 4056.41, 4213.846, 4293.846, 450, 0, []
1632408033.1186, 0, 0, 4304.615, 4450.256, 4065.641, 4208.205, 4267.692, 450, 0, []
1632408033.1265, 1, 0, 4277.436, 4407.692, 4083.077, 4191.795, 4266.667, 450, 0, []
1632408033.1345, 2, 0, 4275.385, 4324.615, 4070.769, 4209.744, 4260.513, 16212, 0, []
1632408033.1424, 3, 0, 4266.154, 4154.359, 4069.231, 4224.103, 4238.462, 450, 0, []
1632408033.1503, 4, 0, 4230.256, 4033.333, 4071.282, 4212.821, 4225.641, 16147, 0, []
1632408033.1583, 5, 0, 4221.026, 4118.462, 4085.128, 4212.821, 4218.462, 450, 0, []
1632408033.1662, 6, 0, 4230.769, 4162.564, 4092.308, 4220, 4202.051, 16082, 0, []
1632408033.1741, 7, 0, 4213.333, 4128.718, 4086.154, 4221.538, 4181.538, 450, 0, []
1632408033.1819, 8, 0, 4197.436, 4188.205, 4082.051, 4217.436, 4182.564, 450, 0, []
1632408033.1897, 9, 0, 4206.154, 4152.821, 4077.436, 4210.256, 4200.513, 16167, 0, []
1632408033.1975, 10, 0, 4221.026, 4119.487, 4097.949, 4225.641, 4209.744, 450, 0, []
1632408033.2055, 11, 0, 4213.846, 4320, 4108.205, 4250.256, 4197.949, 16230, 0, []
1632408033.2134, 12, 0, 4196.923, 4443.077, 4097.436, 4238.974, 4186.667, 450, 0, []
1632408033.2214, 13, 0, 4198.462, 4238.462, 4097.436, 4211.282, 4190.769, 450, 0, []
1632408033.2292, 14, 0, 4202.564, 4015.897, 4089.744, 4208.205, 4181.538, 450, 0, []
1632408033.2372, 15, 0, 4198.974, 4050.769, 4102.564, 4223.59, 4166.154, 16230, 0, []
1632408033.2451, 16, 0, 4198.462, 4210.769, 4116.923, 4234.872, 4172.821, 0, 0, []
1632408033.2531, 17, 0, 4189.744, 4364.615, 4092.821, 4228.205, 4165.128, 0, 0, []
1632408033.261, 18, 0, 4174.359, 4316.41, 4077.949, 4220.513, 4153.846, 0, 0, []
1632408033.2689, 19, 0, 4181.026, 4123.077, 4079.487, 4236.923, 4170.769, 0, 0, []
1632408033.2768, 20, 0, 4185.641, 4139.487, 4090.769, 4242.051, 4172.821, 0, 0, []
1632408033.2848, 21, 0, 4171.282, 4168.718, 4088.205, 4231.282, 4148.718, 0, 0, []
1632408033.2927, 22, 0, 4167.179, 3973.333, 4071.795, 4239.487, 4142.051, 0, 0, []
1632408033.3007, 23, 0, 4171.282, 3845.641, 4078.974, 4241.538, 4152.308, 0, 0, []
1632408033.3086, 24, 0, 4170.256, 3841.538, 4066.667, 4217.436, 4148.718, 0, 0, []
1632408033.3165, 25, 0, 4161.026, 3941.538, 4057.949, 4205.641, 4148.718, 0, 0, []
1632408033.3244, 26, 0, 4163.077, 4127.692, 4064.103, 4220, 4161.026, 0, 0, []
1632408033.3322, 27, 0, 4171.795, 4096.41, 4061.538, 4214.872, 4164.615, 0, 0, []
1632408033.3402, 28, 0, 4173.333, 3975.385, 4076.41, 4210.769, 4171.282, 0, 0, []
1632408033.348, 29, 0, 4180.513, 4001.026, 4083.59, 4237.949, 4169.231, 0, 0, []
1632408033.356, 30, 0, 4180, 3920.513, 4093.333, 4254.872, 4158.974, 0, 0, []
1632408033.3639, 31, 0, 4164.615, 3851.795, 4092.821, 4242.564, 4151.795, 0, 0, []
1632408033.3719, 32, 0, 4149.744, 4015.385, 4070.769, 4224.103, 4151.282, 0, 0, []
1632408033.3798, 33, 0, 4154.359, 4128.718, 4078.462, 4223.59, 4157.949, 0, 0, []
1632408033.3877, 34, 0, 4172.308, 4158.974, 4083.59, 4233.846, 4162.051, 0, 0, []
1632408033.3956, 35, 0, 4170.769, 4269.231, 4075.897, 4243.59, 4155.897, 0, 0, []
1632408033.4036, 36, 0, 4153.846, 4196.41, 4069.231, 4247.692, 4136.923, 0, 0, []
1632408033.4115, 37, 0, 4150.769, 4045.641, 4061.026, 4241.538, 4138.462, 0, 0, []
1632408033.4195, 38, 0, 4169.744, 4229.231, 4076.923, 4255.385, 4166.154, 0, 0, []
1632408033.4273, 39, 0, 4186.667, 4428.718, 4084.103, 4269.231, 4179.487, 0, 0, []
1632408033.4353, 40, 0, 4183.59, 4200, 4073.846, 4258.974, 4167.179, 0, 0, []
1632408033.4432, 41, 0, 4173.846, 3833.333, 4077.949, 4254.359, 4148.205, 0, 0, []
1632408033.451, 42, 0, 4173.333, 3685.641, 4077.949, 4270.256, 4148.205, 0, 0, []
1632408033.4589, 43, 0, 4168.205, 3637.949, 4076.41, 4271.282, 4150.256, 0, 0, []
1632408033.4666, 44, 0, 4146.154, 3613.333, 4066.667, 4243.077, 4142.051, 0, 0, []
1632408033.4745, 45, 0, 4142.564, 3595.385, 4062.564, 4239.487, 4141.026, 0, 0, []
1632408033.4823, 46, 0, 4158.974, 3444.103, 4078.974, 4261.026, 4156.41, 0, 0, []
1632408033.4902, 47, 0, 4160.513, 3405.128, 4070.256, 4263.59, 4161.538, 0, 0, []
1632408033.498, 48, 0, 4149.231, 3637.949, 4071.282, 4248.205, 4157.436, 0, 0, []
1632408033.5059, 49, 0, 4153.333, 3765.128, 4077.436, 4250.769, 4165.641, 0, 0, []
1632408033.5138, 50, 0, 4167.179, 3687.692, 4061.026, 4260.513, 4165.641, 0, 0, []
1632408033.5218, 51, 0, 4168.718, 3567.692, 4065.641, 4254.359, 4162.051, 0, 0, []
1632408033.5297, 52, 0, 4162.051, 3422.564, 4076.41, 4250.769, 4158.462, 0, 0, []
1632408033.5377, 53, 0, 4162.564, 3395.385, 4087.179, 4257.949, 4152.308, 0, 0, []
1632408033.5455, 54, 0, 4172.821, 3638.974, 4086.154, 4270.256, 4158.462, 0, 0, []
1632408033.5535, 55, 0, 4173.333, 3971.795, 4074.359, 4280, 4170.256, 0, 0, []
1632408033.5614, 56, 0, 4164.615, 4076.923, 4070.256, 4269.231, 4163.077, 0, 0, []
1632408033.5694, 57, 0, 4156.41, 4029.744, 4050.256, 4246.154, 4150.769, 0, 0, []
1632408033.5773, 58, 0, 4162.051, 4033.846, 4057.949, 4247.692, 4163.077, 0, 0, []
1632408033.5852, 59, 0, 4191.795, 4108.718, 4087.179, 4267.179, 4178.462, 0, 0, []
1632408033.5931, 60, 0, 4200, 4136.923, 4090.769, 4275.385, 4177.436, 0, 0, []
1632408033.6009, 61, 0, 4175.385, 4098.974, 4087.179, 4280, 4164.103, 0, 0, []
1632408033.6088, 62, 0, 4163.59, 4091.795, 4078.462, 4277.949, 4162.051, 0, 0, []
1632408033.6166, 63, 0, 4172.308, 4053.846, 4076.41, 4258.974, 4165.641, 0, 0, []
1632408033.6244, 64, 0, 4173.333, 3966.667, 4081.538, 4242.051, 4160, 450, 0, []
1632408033.6322, 65, 0, 4167.692, 3844.103, 4074.872, 4243.077, 4158.974, 450, 0, []
1632408033.6402, 66, 0, 4171.795, 3770.256, 4085.641, 4248.718, 4157.436, 16186, 0, []
1632408033.6481, 67, 0, 4177.949, 3884.615, 4097.436, 4258.974, 4160, 450, 0, []
1632408033.656, 68, 0, 4176.41, 3983.59, 4090.256, 4261.026, 4160, 16146, 0, []
1632408033.6638, 69, 0, 4161.538, 3904.103, 4080.513, 4241.538, 4152.821, 450, 0, []
1632408033.6716, 70, 0, 4158.462, 3899.487, 4072.308, 4233.333, 4152.308, 16098, 0, []
1632408033.6796, 71, 0, 4163.59, 3990.769, 4086.154, 4247.692, 4163.59, 450, 0, []
1632408033.6875, 72, 0, 4156.41, 3891.795, 4078.462, 4252.821, 4168.718, 450, 0, []
1632408033.6954, 73, 0, 4163.077, 3806.154, 4069.231, 4241.026, 4167.692, 16151, 0, []
1632408033.7033, 74, 0, 4179.487, 3937.436, 4093.333, 4237.436, 4174.872, 450, 0, []
1632408033.7112, 75, 0, 4175.897, 4057.949, 4080.513, 4240, 4158.974, 16197, 0, []
1632408033.7192, 76, 0, 4158.974, 4087.179, 4071.282, 4227.692, 4143.59, 450, 0, []
1632408033.7271, 77, 0, 4163.59, 4088.718, 4081.538, 4208.718, 4150.769, 450, 0, []
1632408033.7351, 78, 0, 4164.615, 4018.462, 4074.359, 4189.744, 4152.308, 450, 0, []
1632408033.743, 79, 0, 4156.923, 4021.026, 4071.282, 4183.077, 4158.462, 16197, 0, []
1632408033.7509, 80, 0, 4180.513, 4295.385, 4069.231, 4216.923, 4170.769, 450, 0, []
1632408033.7588, 81, 0, 4193.846, 4502.051, 4074.872, 4256.41, 4172.308, 450, 0, []
1632408033.7666, 82, 0, 4174.872, 4417.949, 4065.128, 4261.026, 4164.103, 450, 0, []
1632408033.7745, 83, 0, 4170.256, 4428.718, 4054.872, 4251.282, 4169.744, 16197, 0, []
1632408033.7823, 84, 0, 4182.564, 4647.692, 4072.821, 4252.308, 4179.487, 450, 0, []
1632408033.7901, 85, 0, 4174.359, 4658.974, 4072.821, 4245.641, 4165.128, 450, 0, []
1632408033.7979, 86, 0, 4151.282, 4553.846, 4076.41, 4229.231, 4140.513, 450, 0, []
1632408033.8059, 87, 0, 4140.513, 4687.692, 4081.538, 4219.487, 4132.308, 16197, 0, []
1632408033.8138, 88, 0, 4147.179, 4671.795, 4071.795, 4215.385, 4146.154, 450, 0, []
1632408033.8218, 89, 0, 4171.282, 4378.974, 4074.872, 4222.051, 4161.538, 450, 0, []
1632408033.8296, 90, 0, 4179.487, 4322.564, 4065.128, 4208.205, 4149.231, 450, 0, []
1632408033.8376, 91, 0, 4153.333, 4471.282, 4056.923, 4171.795, 4121.538, 16197, 0, []
1632408033.8455, 92, 0, 4137.949, 4578.462, 4055.385, 4169.231, 4109.744, 450, 0, []
1632408033.8535, 93, 0, 4135.897, 4753.846, 4044.615, 4193.333, 4114.872, 450, 0, []
1632408033.8614, 94, 0, 4129.231, 4694.359, 4045.128, 4207.692, 4115.897, 450, 0, []
1632408033.8693, 95, 0, 4142.564, 4265.128, 4046.154, 4220.513, 4131.282, 16197, 0, []
1632408033.8772, 96, 0, 4171.795, 4168.205, 4067.179, 4247.692, 4159.487, 450, 0, []
1632408033.8852, 97, 0, 4168.718, 4435.897, 4084.103, 4258.462, 4150.256, 450, 0, []
1632408033.8931, 98, 0, 4136.923, 4544.615, 4067.692, 4240.513, 4120.513, 450, 0, []
1632408033.9011, 99, 0, 4126.667, 4527.179, 4064.103, 4221.026, 4111.795, 16197, 0, []
1632408033.9089, 100, 0, 4132.821, 4429.744, 4064.103, 4205.128, 4121.538, 450, 0, []
1632408033.9167, 101, 0, 4135.385, 4262.051, 4061.538, 4198.974, 4120, 450, 0, []
1632408033.9246, 102, 0, 4138.462, 4321.538, 4067.692, 4200.513, 4113.333, 450, 0, []
1632408033.9324, 103, 0, 4142.051, 4397.436, 4072.308, 4198.462, 4123.077, 16197, 0, []
1632408033.9403, 104, 0, 4150.769, 4193.333, 4092.308, 4202.051, 4136.923, 450, 0, []
1632408033.948, 105, 0, 4147.179, 4229.231, 4091.795, 4201.026, 4136.923, 450, 0, []
1632408033.9559, 106, 0, 4127.179, 4540, 4066.667, 4183.59, 4117.949, 450, 0, []
1632408033.9637, 107, 0, 4121.538, 4411.282, 4059.487, 4161.538, 4111.795, 16197, 0, []
1632408033.9716, 108, 0, 4131.282, 4244.103, 4051.795, 4151.795, 4123.077, 450, 0, []
1632408033.9794, 109, 0, 4140, 4581.026, 4070.256, 4147.179, 4123.077, 450, 0, []
1632408033.9873, 110, 0, 4143.077, 4581.026, 4093.846, 4147.179, 4121.026, 450, 0, []
1632408033.9952, 111, 0, 4136.923, 4136.923, 4081.026, 4153.333, 4122.564, 16197, 0, []
1632408034.0032, 112, 0, 4122.051, 4219.487, 4080, 4153.333, 4125.128, 450, 0, []
1632408034.0111, 113, 0, 4115.897, 4664.615, 4075.385, 4152.308, 4118.462, 450, 0, []
1632408034.0191, 114, 0, 4109.231, 4909.231, 4065.128, 4147.692, 4111.282, 450, 0, []
1632408034.0269, 115, 0, 4097.949, 4900.513, 4055.385, 4135.897, 4109.744, 16197, 0, []
1632408034.0349, 116, 0, 4104.103, 4614.359, 4055.385, 4132.821, 4109.231, 450, 0, []
1632408034.0428, 117, 0, 4121.538, 4481.538, 4077.949, 4144.103, 4115.385, 450, 0, []
1632408034.0507, 118, 0, 4128.718, 4669.744, 4079.487, 4150.256, 4118.462, 450, 0, []
1632408034.0586, 119, 0, 4124.103, 4607.692, 4087.692, 4154.872, 4117.436, 16197, 0, []
1632408034.0663, 120, 0, 4113.846, 4381.538, 4085.641, 4162.564, 4109.231, 450, 0, []
1632408034.0742, 121, 0, 4090.256, 4375.385, 4050.256, 4149.231, 4084.103, 450, 0, []
1632408034.082, 122, 0, 4077.436, 4393.846, 4042.564, 4134.872, 4069.744, 450, 0, []
1632408034.0899, 123, 0, 4088.718, 4416.41, 4043.077, 4143.077, 4089.231, 16197, 0, []
1632408034.0977, 124, 0, 4093.846, 4450.769, 4033.846, 4138.974, 4103.59, 450, 0, []
1632408034.1055, 125, 0, 4091.282, 4359.487, 4025.128, 4118.974, 4096.41, 450, 0, []
1632408034.1133, 126, 0, 4098.462, 4410.256, 4018.974, 4114.359, 4098.462, 450, 0, []
1632408034.1213, 127, 0, 4107.692, 4611.282, 4028.718, 4120.513, 4108.718, 16197, 0, []
1632408034.1292, 128, 0, 4109.744, 4546.667, 4028.205, 4124.103, 4109.231, 450, 0, []
1632408034.1372, 0, 0, 4115.897, 4287.179, 4037.949, 4131.795, 4100.513, 450, 0, []
1632408034.145, 1, 0, 4122.051, 4064.615, 4059.487, 4140.513, 4096.923, 450, 0, []
1632408034.153, 2, 0, 4120.513, 3957.436, 4055.897, 4146.154, 4104.103, 16189, 0, []
1632408034.1609, 3, 0, 4120, 4197.949, 4056.923, 4153.333, 4111.282, 450, 0, []
1632408034.1689, 4, 0, 4130.769, 4457.949, 4054.872, 4160, 4114.359, 16115, 0, []
1632408034.1768, 5, 0, 4137.436, 4184.103, 4056.923, 4167.692, 4122.564, 450, 0, []
1632408034.1847, 6, 0, 4129.744, 3937.949, 4058.974, 4177.436, 4124.615, 16104, 0, []
1632408034.1926, 7, 0, 4116.923, 4412.821, 4038.974, 4167.692, 4107.692, 450, 0, []
1632408034.2004, 8, 0, 4116.923, 4964.615, 4045.128, 4155.385, 4103.59, 450, 0, []
1632408034.2083, 9, 0, 4126.667, 4807.179, 4052.308, 4161.026, 4112.308, 16152, 0, []
1632408034.2161, 10, 0, 4130.256, 4324.615, 4050.256, 4169.744, 4123.077, 450, 0, []
1632408034.2239, 11, 0, 4148.718, 4247.179, 4067.179, 4187.179, 4141.026, 16192, 0, []
1632408034.2317, 12, 0, 4156.923, 4594.872, 4075.897, 4202.564, 4145.641, 450, 0, []
1632408034.2396, 13, 0, 4132.821, 4732.308, 4072.821, 4189.744, 4123.077, 450, 0, []
1632408034.2474, 14, 0, 4117.436, 4458.462, 4056.923, 4159.487, 4111.795, 450, 0, []
1632408034.2553, 15, 0, 4124.615, 4204.615, 4041.026, 4130.769, 4111.282, 16192, 0, []
1632408034.263, 16, 0, 4125.128, 4163.59, 4048.205, 4114.872, 4102.564, 0, 0, []
1632408034.271, 17, 0, 4128.205, 4125.128, 4049.744, 4139.487, 4108.718, 0, 0, []
1632408034.2789, 18, 0, 4144.615, 4057.949, 4060.513, 4191.795, 4127.692, 0, 0, []
1632408034.2869, 19, 0, 4148.718, 4168.718, 4073.333, 4210.256, 4138.462, 0, 0, []
1632408034.2948, 20, 0, 4150.769, 4305.641, 4070.256, 4198.462, 4134.359, 0, 0, []
1632408034.3027, 21, 0, 4155.385, 4328.718, 4075.897, 4192.821, 4132.821, 0, 0, []
1632408034.3106, 22, 0, 4145.128, 4522.564, 4053.846, 4170.769, 4123.59, 0, 0, []
1632408034.3186, 23, 0, 4118.974, 4760.513, 4043.59, 4119.487, 4095.385, 0, 0, []
1632408034.3265, 24, 0, 4108.205, 4578.974, 4055.385, 4100.513, 4084.103, 0, 0, []
1632408034.3345, 25, 0, 4125.128, 4323.077, 4044.615, 4134.359, 4107.692, 0, 0, []
1632408034.3423, 26, 0, 4136.923, 4269.231, 4041.538, 4172.821, 4136.41, 0, 0, []
1632408034.3503, 27, 0, 4131.795, 4052.308, 4034.872, 4187.179, 4135.385, 0, 0, []
1632408034.3582, 28, 0, 4128.205, 3833.846, 4031.795, 4185.128, 4124.615, 0, 0, []
1632408034.3662, 29, 0, 4130.256, 3886.667, 4038.974, 4178.462, 4123.59, 0, 0, []
1632408034.3741, 30, 0, 4125.128, 3905.641, 4046.154, 4165.128, 4115.897, 0, 0, []
1632408034.3818, 31, 0, 4116.923, 3748.718, 4051.282, 4147.179, 4104.103, 0, 0, []
1632408034.3897, 32, 0, 4117.436, 3667.692, 4032.821, 4140.513, 4100, 0, 0, []
1632408034.3975, 33, 0, 4120.513, 3702.051, 4033.333, 4151.282, 4108.718, 0, 0, []
1632408034.4054, 34, 0, 4127.179, 3747.179, 4041.538, 4162.051, 4119.487, 0, 0, []
1632408034.4132, 35, 0, 4129.231, 3771.795, 4029.231, 4173.846, 4124.615, 0, 0, []
1632408034.421, 36, 0, 4128.718, 3747.692, 4046.154, 4186.154, 4126.154, 0, 0, []
1632408034.4288, 37, 0, 4129.231, 3713.846, 4059.487, 4176.41, 4127.692, 0, 0, []
1632408034.4368, 38, 0, 4120.513, 3665.128, 4037.436, 4157.949, 4118.462, 0, 0, []
1632408034.4447, 39, 0, 4106.154, 3599.487, 4025.641, 4158.462, 4105.641, 0, 0, []
1632408034.4527, 40, 0, 4103.077, 3586.667, 4017.436, 4169.744, 4103.077, 0, 0, []
1632408034.4605, 41, 0, 4112.308, 3658.974, 4025.641, 4180.513, 4111.795, 0, 0, []
1632408034.4685, 42, 0, 4125.128, 3734.872, 4034.359, 4200.513, 4124.103, 0, 0, []
1632408034.4764, 43, 0, 4131.282, 3707.179, 4032.821, 4212.821, 4133.333, 0, 0, []
1632408034.4844, 44, 0, 4132.308, 3622.564, 4034.872, 4207.179, 4127.692, 0, 0, []
1632408034.4923, 45, 0, 4129.744, 3538.974, 4031.282, 4204.615, 4117.949, 0, 0, []
1632408034.5003, 46, 0, 4134.359, 3520, 4046.154, 4221.026, 4125.128, 0, 0, []
1632408034.5081, 47, 0, 4141.026, 3611.282, 4054.359, 4236.41, 4141.026, 0, 0, []
1632408034.5159, 48, 0, 4147.692, 3721.538, 4054.872, 4243.077, 4142.051, 0, 0, []
1632408034.5238, 49, 0, 4160, 3749.744, 4089.231, 4251.282, 4141.026, 0, 0, []
1632408034.5316, 50, 0, 4170.256, 3693.846, 4105.128, 4252.821, 4146.667, 0, 0, []
1632408034.5395, 51, 0, 4171.795, 3621.026, 4112.308, 4250.256, 4151.282, 0, 0, []
1632408034.5472, 52, 0, 4175.385, 3638.974, 4117.949, 4256.923, 4152.308, 0, 0, []
1632408034.5551, 53, 0, 4179.487, 3703.077, 4098.462, 4261.026, 4149.231, 0, 0, []
1632408034.5629, 54, 0, 4174.872, 3625.641, 4084.615, 4257.436, 4148.205, 0, 0, []
1632408034.5708, 55, 0, 4171.282, 3520, 4077.436, 4260.513, 4158.462, 0, 0, []
1632408034.5786, 56, 0, 4178.462, 3582.051, 4088.205, 4264.103, 4169.744, 0, 0, []
1632408034.5865, 57, 0, 4189.744, 3603.077, 4088.205, 4258.974, 4176.923, 0, 0, []
1632408034.5944, 58, 0, 4198.974, 3472.308, 4071.795, 4253.846, 4183.077, 0, 0, []
1632408034.6023, 59, 0, 4201.538, 3457.949, 4083.077, 4262.564, 4189.231, 0, 0, []
1632408034.6101, 60, 0, 4200, 3606.154, 4088.718, 4271.795, 4184.103, 0, 0, []
1632408034.6181, 61, 0, 4189.744, 3681.538, 4092.821, 4270.769, 4176.41, 0, 0, []
1632408034.6259, 62, 0, 4178.462, 3773.846, 4087.692, 4270.769, 4168.718, 0, 0, []
1632408034.6339, 63, 0, 4171.795, 3929.231, 4068.205, 4272.821, 4164.103, 0, 0, []
1632408034.6418, 64, 0, 4173.846, 3822.051, 4080.513, 4287.179, 4177.436, 450, 0, []
1632408034.6498, 65, 0, 4173.333, 3698.974, 4083.077, 4295.897, 4190.256, 450, 0, []
1632408034.6577, 66, 0, 4162.051, 3840.513, 4069.231, 4278.462, 4181.538, 16172, 0, []
1632408034.6654, 67, 0, 4169.231, 3904.615, 4080.513, 4264.103, 4169.231, 450, 0, []
1632408034.6733, 68, 0, 4185.128, 3869.744, 4102.051, 4268.718, 4173.846, 16182, 0, []
1632408034.6811, 69, 0, 4187.692, 3944.103, 4113.333, 4270.256, 4169.744, 450, 0, []
1632408034.689, 70, 0, 4180.513, 3882.564, 4101.026, 4262.564, 4162.051, 16178, 0, []
1632408034.6968, 71, 0, 4182.051, 3803.077, 4091.282, 4273.846, 4178.974, 450, 0, []
1632408034.7046, 72, 0, 4192.821, 4113.846, 4088.205, 4290.256, 4193.846, 450, 0, []
1632408034.7124, 73, 0, 4186.667, 4391.282, 4076.41, 4295.385, 4181.538, 16072, 0, []
1632408034.7203, 74, 0, 4172.308, 4278.974, 4093.333, 4298.974, 4162.564, 450, 0, []
1632408034.7281, 75, 0, 4168.205, 4076.41, 4104.103, 4294.872, 4168.718, 16226, 0, []
1632408034.736, 76, 0, 4183.077, 3958.974, 4096.923, 4286.667, 4192.821, 450, 0, []
1632408034.7437, 77, 0, 4215.897, 4048.718, 4112.308, 4290.256, 4207.179, 450, 0, []
1632408034.7516, 78, 0, 4228.205, 4306.667, 4124.103, 4303.077, 4207.179, 450, 0, []
1632408034.7594, 79, 0, 4205.641, 4366.667, 4127.692, 4309.744, 4210.769, 16226, 0, []
1632408034.7674, 80, 0, 4209.744, 4120, 4118.974, 4314.359, 4217.949, 450, 0, []
1632408034.7753, 81, 0, 4232.308, 3980.513, 4122.051, 4324.103, 4212.821, 450, 0, []
1632408034.7832, 82, 0, 4218.974, 4114.359, 4145.128, 4329.744, 4210.769, 450, 0, []
1632408034.7911, 83, 0, 4218.974, 4174.872, 4134.359, 4328.718, 4219.487, 16226, 0, []
1632408034.7991, 84, 0, 4241.026, 4075.897, 4140.513, 4320.513, 4226.154, 450, 0, []
1632408034.807, 85, 0, 4226.154, 4067.692, 4150.769, 4311.282, 4218.462, 450, 0, []
1632408034.815, 86, 0, 4208.718, 4157.436, 4129.744, 4306.667, 4209.231, 450, 0, []
1632408034.8228, 87, 0, 4222.051, 4120, 4146.154, 4308.718, 4218.462, 16226, 0, []
1632408034.8306, 88, 0, 4222.051, 4012.308, 4153.846, 4318.462, 4212.821, 450, 0, []
1632408034.8385, 89, 0, 4192.821, 4009.231, 4130.256, 4313.846, 4181.026, 450, 0, []
1632408034.8465, 90, 0, 4178.974, 4035.385, 4124.103, 4304.103, 4184.615, 450, 0, []
1632408034.8544, 91, 0, 4205.128, 4009.744, 4132.821, 4307.179, 4212.308, 16226, 0, []
1632408034.8621, 92, 0, 4219.487, 3940, 4147.692, 4307.692, 4205.641, 450, 0, []
1632408034.87, 93, 0, 4201.538, 3882.564, 4131.282, 4294.872, 4187.179, 450, 0, []
1632408034.8778, 94, 0, 4200, 3836.41, 4114.359, 4277.436, 4194.872, 450, 0, []
1632408034.8857, 95, 0, 4217.949, 3786.154, 4119.487, 4274.872, 4211.282, 16226, 0, []
1632408034.8935, 96, 0, 4224.615, 3856.41, 4120.513, 4295.385, 4213.333, 450, 0, []
1632408034.9014, 97, 0, 4220, 4068.718, 4130.256, 4310.256, 4212.821, 450, 0, []
1632408034.9093, 98, 0, 4206.154, 4166.154, 4114.359, 4291.795, 4205.128, 450, 0, []
1632408034.9173, 99, 0, 4194.872, 4095.385, 4097.436, 4264.615, 4188.718, 16226, 0, []
1632408034.9252, 100, 0, 4202.564, 4127.692, 4117.949, 4267.692, 4189.744, 450, 0, []
1632408034.9332, 101, 0, 4203.077, 4303.077, 4113.333, 4284.103, 4188.718, 450, 0, []
1632408034.941, 102, 0, 4191.795, 4393.333, 4092.821, 4278.974, 4181.026, 450, 0, []
1632408034.949, 103, 0, 4202.564, 4291.282, 4098.974, 4268.718, 4205.641, 16226, 0, []
1632408034.9569, 104, 0, 4215.897, 4119.487, 4121.026, 4285.641, 4222.051, 450, 0, []
1632408034.9649, 105, 0, 4205.641, 4032.308, 4118.462, 4293.333, 4200, 450, 0, []
1632408034.9728, 106, 0, 4201.538, 4061.026, 4109.744, 4272.821, 4208.205, 450, 0, []
1632408034.9807, 107, 0, 4222.564, 4114.359, 4129.744, 4278.462, 4230.256, 16226, 0, []
1632408034.9886, 108, 0, 4221.026, 4186.154, 4121.026, 4283.59, 4211.282, 450, 0, []
1632408034.9964, 109, 0, 4200, 4301.538, 4112.821, 4262.051, 4212.821, 450, 0, []
1632408035.0043, 110, 0, 4215.897, 4400.513, 4136.923, 4265.128, 4229.231, 450, 0, []
1632408035.0121, 111, 0, 4226.154, 4507.179, 4125.128, 4258.974, 4204.615, 16226, 0, []
1632408035.0199, 112, 0, 4198.974, 4613.846, 4112.308, 4221.026, 4193.846, 450, 0, []
1632408035.0277, 113, 0, 4203.077, 4604.103, 4123.077, 4221.026, 4208.205, 450, 0, []
1632408035.0356, 114, 0, 4216.923, 4423.59, 4131.282, 4241.026, 4194.359, 450, 0, []
1632408035.0434, 115, 0, 4197.436, 4217.949, 4131.282, 4232.821, 4191.282, 16226, 0, []
1632408035.0514, 116, 0, 4208.718, 4118.974, 4118.974, 4239.487, 4215.385, 450, 0, []
1632408035.0592, 117, 0, 4226.667, 4069.744, 4130.256, 4259.487, 4214.359, 450, 0, []
1632408035.0671, 118, 0, 4194.872, 4078.462, 4118.462, 4234.872, 4188.205, 450, 0, []
1632408035.0749, 119, 0, 4181.026, 4260, 4084.615, 4191.282, 4177.949, 16226, 0, []
1632408035.0829, 120, 0, 4200.513, 4365.641, 4106.667, 4184.615, 4189.231, 450, 0, []
1632408035.0908, 121, 0, 4201.026, 4134.872, 4115.385, 4205.128, 4196.41, 450, 0, []
1632408035.0987, 122, 0, 4189.231, 4031.795, 4102.051, 4217.949, 4193.333, 450, 0, []
1632408035.1066, 123, 0, 4193.846, 4271.282, 4108.205, 4223.077, 4198.462, 16226, 0, []
1632408035.1146, 124, 0, 4211.795, 4257.949, 4113.846, 4231.282, 4206.667, 450, 0, []
1632408035.1225, 125, 0, 4217.436, 3925.128, 4126.667, 4226.667, 4204.615, 450, 0, []
1632408035.1305, 126, 0, 4202.564, 3924.103, 4114.872, 4208.205, 4184.615, 450, 0, []
1632408035.1383, 127, 0, 4188.718, 4219.487, 4097.949, 4195.897, 4174.359, 16226, 0, []
1632408035.1461, 128, 0, 4201.538, 4272.308, 4102.564, 4200.513, 4202.051, 450, 0, []
1632408035.154, 0, 0, 4217.436, 4132.821, 4101.026, 4210.769, 4221.026, 450, 0, []
1632408035.1618, 1, 0, 4205.641, 4185.641, 4111.795, 4218.974, 4203.59, 450, 0, []
1632408035.1697, 2, 0, 4190.769, 4379.487, 4113.333, 4223.59, 4189.231, 16187, 0, []
1632408035.1774, 3, 0, 4199.487, 4307.179, 4108.718, 4215.385, 4198.462, 450, 0, []
1632408035.1853, 4, 0, 4212.308, 4044.615, 4105.641, 4201.538, 4208.205, 16120, 0, []
1632408035.1931, 5, 0, 4204.103, 4013.846, 4092.821, 4192.821, 4198.974, 450, 0, []
1632408035.201, 6, 0, 4193.333, 4151.795, 4094.872, 4196.923, 4187.692, 16121, 0, []
1632408035.2088, 7, 0, 4185.641, 4115.897, 4085.128, 4204.103, 4180, 450, 0, []
1632408035.2167, 8, 0, 4166.667, 3957.436, 4073.333, 4183.59, 4173.333, 450, 0, []
1632408035.2246, 9, 0, 4163.077, 3920, 4083.077, 4157.949, 4173.846, 16141, 0, []
1632408035.2326, 10, 0, 4175.897, 3964.103, 4092.308, 4167.692, 4174.359, 450, 0, []
1632408035.2405, 11, 0, 4184.103, 3957.436, 4114.872, 4204.103, 4173.333, 16194, 0, []
1632408035.2485, 12, 0, 4189.231, 3972.821, 4117.436, 4223.077, 4172.821, 450, 0, []
1632408035.2564, 13, 0, 4184.615, 4134.359, 4094.359, 4207.692, 4173.846, 450, 0, []
1632408035.2643, 14, 0, 4174.872, 4332.821, 4089.231, 4188.718, 4175.385, 450, 0, []
1632408035.2722, 15, 0, 4180.513, 4382.564, 4098.974, 4190.769, 4174.359, 16194, 0, []
1632408035.2802, 16, 0, 4186.667, 4281.026, 4125.128, 4203.077, 4171.795, 0, 0, []
1632408035.2881, 17, 0, 4182.564, 4165.128, 4125.128, 4204.615, 4174.359, 0, 0, []
1632408035.2959, 18, 0, 4181.026, 4074.359, 4103.59, 4193.333, 4184.103, 0, 0, []
1632408035.3037, 19, 0, 4183.59, 3971.282, 4103.077, 4184.103, 4181.538, 0, 0, []
1632408035.3115, 20, 0, 4173.333, 3831.282, 4100.513, 4188.205, 4168.205, 0, 0, []
1632408035.3194, 21, 0, 4165.641, 3691.795, 4104.103, 4202.051, 4163.077, 0, 0, []
1632408035.3272, 22, 0, 4171.282, 3751.282, 4096.923, 4203.59, 4151.795, 0, 0, []
1632408035.3351, 23, 0, 4171.282, 4046.667, 4089.744, 4204.615, 4141.026, 0, 0, []
1632408035.3428, 24, 0, 4170.256, 4270.769, 4105.641, 4214.872, 4147.179, 0, 0, []
1632408035.3507, 25, 0, 4171.795, 4188.205, 4102.564, 4202.564, 4155.897, 0, 0, []
1632408035.3585, 26, 0, 4172.821, 4078.462, 4101.538, 4184.615, 4155.385, 0, 0, []
1632408035.3664, 27, 0, 4168.205, 4147.692, 4102.564, 4183.077, 4145.641, 0, 0, []
1632408035.3742, 28, 0, 4153.333, 4122.564, 4089.744, 4181.026, 4135.385, 0, 0, []
1632408035.3821, 29, 0, 4153.846, 4055.897, 4100.513, 4187.692, 4123.077, 0, 0, []
1632408035.39, 30, 0, 4165.641, 4215.897, 4108.205, 4202.564, 4127.692, 0, 0, []
1632408035.398, 31, 0, 4168.718, 4247.179, 4094.359, 4205.641, 4147.179, 0, 0, []
1632408035.4059, 32, 0, 4174.359, 4178.974, 4083.59, 4195.897, 4155.897, 0, 0, []
1632408035.4139, 33, 0, 4181.538, 4505.641, 4091.795, 4191.795, 4152.308, 0, 0, []
1632408035.4217, 34, 0, 4175.897, 4791.282, 4109.231, 4198.974, 4143.077, 0, 0, []
1632408035.4297, 35, 0, 4154.872, 4521.538, 4091.795, 4200, 4132.821, 0, 0, []
1632408035.4376, 36, 0, 4142.564, 4251.282, 4077.436, 4202.564, 4128.718, 0, 0, []
1632408035.4456, 37, 0, 4172.821, 4446.667, 4086.154, 4221.026, 4138.462, 0, 0, []
1632408035.4535, 38, 0, 4207.179, 4640.513, 4078.462, 4233.333, 4148.205, 0, 0, []
1632408035.4612, 39, 0, 4202.564, 4475.385, 4084.103, 4228.205, 4153.846, 0, 0, []
1632408035.4691, 40, 0, 4197.436, 4252.821, 4089.744, 4221.538, 4166.154, 0, 0, []
1632408035.4769, 41, 0, 4206.667, 4263.59, 4093.333, 4220.513, 4171.282, 0, 0, []
1632408035.4848, 42, 0, 4194.872, 4239.487, 4098.462, 4224.615, 4156.923, 0, 0, []
1632408035.4926, 43, 0, 4175.897, 4060.513, 4083.59, 4223.59, 4141.026, 0, 0, []
1632408035.5004, 44, 0, 4181.026, 4128.205, 4084.103, 4216.923, 4147.179, 0, 0, []
1632408035.5082, 45, 0, 4189.744, 4236.41, 4081.538, 4224.615, 4145.641, 0, 0, []
1632408035.5162, 46, 0, 4180, 4283.077, 4088.718, 4235.385, 4122.051, 0, 0, []
1632408035.5241, 47, 0, 4169.231, 4547.179, 4098.462, 4235.897, 4125.128, 0, 0, []
1632408035.5321, 48, 0, 4188.205, 4621.538, 4087.179, 4235.897, 4154.872, 0, 0, []
1632408035.5399, 49, 0, 4209.744, 4408.718, 4117.436, 4241.538, 4167.692, 0, 0, []
1632408035.5479, 50, 0, 4190.256, 4417.436, 4115.385, 4241.538, 4144.103, 0, 0, []
1632408035.5558, 51, 0, 4156.41, 4599.487, 4067.692, 4220, 4117.436, 0, 0, []
1632408035.5638, 52, 0, 4157.949, 4614.359, 4071.282, 4210.769, 4130.256, 0, 0, []
1632408035.5717, 53, 0, 4175.385, 4495.385, 4091.795, 4233.846, 4142.051, 0, 0, []
1632408035.5796, 54, 0, 4172.308, 4285.641, 4103.077, 4247.692, 4128.718, 0, 0, []
1632408035.5875, 55, 0, 4165.128, 4166.667, 4090.256, 4237.949, 4134.359, 0, 0, []
1632408035.5955, 56, 0, 4178.462, 4212.821, 4079.487, 4235.897, 4158.462, 0, 0, []
1632408035.6034, 57, 0, 4190.256, 4073.846, 4097.949, 4233.846, 4158.462, 0, 0, []
1632408035.6112, 58, 0, 4186.154, 3861.538, 4096.923, 4224.615, 4139.487, 0, 0, []
1632408035.6191, 59, 0, 4178.974, 3824.615, 4092.821, 4235.385, 4135.385, 0, 0, []
1632408035.627, 60, 0, 4172.308, 3793.846, 4088.205, 4243.077, 4143.077, 0, 0, []
1632408035.635, 61, 0, 4175.897, 3768.205, 4073.846, 4230.256, 4160.513, 0, 0, []
1632408035.6429, 62, 0, 4188.205, 3852.308, 4088.205, 4233.333, 4173.333, 0, 0, []
1632408035.6508, 63, 0, 4189.744, 3924.615, 4096.41, 4246.154, 4160.513, 0, 0, []
1632408035.6586, 64, 0, 4175.385, 3888.718, 4081.538, 4241.538, 4144.103, 450, 0, []
1632408035.6666, 65, 0, 4171.282, 3869.231, 4074.872, 4223.077, 4150.769, 450, 0, []
1632408035.6745, 66, 0, 4182.564, 3894.872, 4061.026, 4203.59, 4166.154, 16200, 0, []
1632408035.6825, 67, 0, 4196.923, 3876.923, 4069.231, 4205.128, 4173.333, 450, 0, []
1632408035.6905, 68, 0, 4206.667, 3860, 4099.487, 4235.897, 4175.897, 16165, 0, []
1632408035.6983, 69, 0, 4195.897, 3878.974, 4094.872, 4263.077, 4165.128, 450, 0, []
1632408035.7063, 70, 0, 4182.564, 3830.769, 4079.487, 4269.231, 4159.487, 16174, 0, []
1632408035.7142, 71, 0, 4190.769, 3788.205, 4073.333, 4256.41, 4177.436, 450, 0, []
1632408035.7222, 72, 0, 4202.051, 3864.103, 4076.923, 4241.026, 4186.154, 450, 0, []
1632408035.7301, 73, 0, 4193.333, 3874.872, 4082.564, 4239.487, 4167.179, 16152, 0, []
1632408035.738, 74, 0, 4169.744, 3864.615, 4076.41, 4228.718, 4140.513, 450, 0, []
1632408035.7459, 75, 0, 4158.462, 4120.513, 4064.103, 4200.513, 4130.256, 16194, 0, []
1632408035.7539, 76, 0, 4175.385, 4408.205, 4056.41, 4202.564, 4143.077, 450, 0, []
1632408035.7618, 77, 0, 4195.897, 4363.59, 4080.513, 4237.949, 4161.538, 450, 0, []
1632408035.7698, 78, 0, 4185.641, 4297.949, 4082.564, 4255.897, 4157.436, 450, 0, []
1632408035.7776, 79, 0, 4164.615, 4544.615, 4047.692, 4239.487, 4141.538, 16194, 0, []
1632408035.7856, 80, 0, 4167.179, 4775.897, 4052.821, 4219.487, 4146.667, 450, 0, []
1632408035.7935, 81, 0, 4176.41, 4668.718, 4068.718, 4223.077, 4147.692, 450, 0, []
1632408035.8015, 82, 0, 4164.615, 4285.641, 4062.051, 4229.744, 4134.872, 450, 0, []
1632408035.8094, 83, 0, 4160.513, 4028.718, 4045.641, 4219.487, 4144.615, 16194, 0, []
1632408035.8173, 84, 0, 4188.718, 4221.026, 4053.333, 4220.513, 4170.256, 450, 0, []
1632408035.8253, 85, 0, 4209.744, 4430.256, 4091.282, 4236.923, 4180.513, 450, 0, []
1632408035.8332, 86, 0, 4189.744, 4163.077, 4086.667, 4241.538, 4165.641, 450, 0, []
1632408035.8412, 87, 0, 4150.256, 3852.308, 4053.333, 4231.795, 4134.872, 16194, 0, []
1632408035.8491, 88, 0, 4137.436, 3913.333, 4030.769, 4217.949, 4124.615, 450, 0, []
1632408035.8569, 89, 0, 4158.462, 3964.615, 4034.359, 4212.308, 4150.769, 450, 0, []
1632408035.8649, 90, 0, 4169.744, 3863.59, 4060.513, 4223.59, 4160, 450, 0, []
1632408035.8729, 91, 0, 4153.846, 3869.744, 4057.949, 4228.205, 4136.923, 16194, 0, []
1632408035.8808, 92, 0, 4144.615, 3906.667, 4061.538, 4221.538, 4133.333, 450, 0, []
1632408035.8888, 93, 0, 4155.897, 3900.513, 4067.179, 4224.615, 4142.051, 450, 0, []
1632408035.8966, 94, 0, 4154.872, 3932.821, 4047.692, 4226.667, 4141.026, 450, 0, []
1632408035.9046, 95, 0, 4147.692, 3927.692, 4040, 4217.949, 4140.513, 16194, 0, []
1632408035.9125, 96, 0, 4156.923, 3830.769, 4047.179, 4210.256, 4155.385, 450, 0, []
1632408035.9205, 97, 0, 4168.205, 3707.179, 4064.615, 4216.923, 4167.692, 450, 0, []
1632408035.9284, 98, 0, 4166.667, 3598.462, 4070.256, 4224.615, 4160.513, 450, 0, []
1632408035.9363, 99, 0, 4174.872, 3509.744, 4068.205, 4236.41, 4172.821, 16194, 0, []
1632408035.9442, 100, 0, 4198.974, 3447.692, 4091.282, 4257.949, 4201.538, 450, 0, []
1632408035.9522, 101, 0, 4195.385, 3425.641, 4091.282, 4256.923, 4202.051, 450, 0, []
1632408035.9601, 102, 0, 4180.513, 3382.051, 4072.308, 4246.154, 4182.051, 450, 0, []
1632408035.9681, 103, 0, 4179.487, 3295.897, 4076.923, 4250.256, 4173.846, 16194, 0, []
1632408035.976, 104, 0, 4171.795, 3252.308, 4072.308, 4257.436, 4173.333, 450, 0, []
1632408035.9839, 105, 0, 4164.103, 3289.744, 4075.897, 4266.154, 4181.538, 450, 0, []
1632408035.9919, 106, 0, 4175.385, 3346.154, 4075.897, 4269.744, 4191.795, 450, 0, []
1632408035.9998, 107, 0, 4173.846, 3426.667, 4062.564, 4242.051, 4186.154, 16194, 0, []
1632408036.0078, 108, 0, 4156.923, 3509.744, 4070.769, 4216.41, 4183.077, 450, 0, []
1632408036.0156, 109, 0, 4158.974, 3502.564, 4085.128, 4222.051, 4186.667, 450, 0, []
1632408036.0236, 110, 0, 4173.846, 3537.436, 4103.077, 4225.128, 4191.282, 450, 0, []
1632408036.0315, 111, 0, 4179.487, 3710.256, 4095.897, 4215.385, 4193.333, 16194, 0, []
1632408036.0395, 112, 0, 4168.718, 3786.667, 4081.026, 4204.103, 4174.872, 450, 0, []
1632408036.0474, 113, 0, 4158.974, 3680.513, 4090.769, 4193.333, 4154.872, 450, 0, []
1632408036.0553, 114, 0, 4155.897, 3706.154, 4084.103, 4184.615, 4154.359, 450, 0, []
1632408036.0632, 115, 0, 4146.667, 3887.179, 4073.846, 4181.538, 4149.231, 16194, 0, []
1632408036.0712, 116, 0, 4134.872, 3881.026, 4065.128, 4169.744, 4135.897, 450, 0, []
1632408036.0791, 117, 0, 4123.59, 3752.308, 4055.385, 4146.154, 4124.103, 450, 0, []
1632408036.0871, 118, 0, 4120.513, 3751.795, 4059.487, 4144.615, 4126.154, 450, 0, []
1632408036.0949, 119, 0, 4132.308, 3809.231, 4051.282, 4166.154, 4149.231, 16194, 0, []
1632408036.1029, 120, 0, 4149.744, 3795.897, 4059.487, 4177.949, 4168.718, 450, 0, []
1632408036.1108, 121, 0, 4157.436, 3766.154, 4071.795, 4171.795, 4164.615, 450, 0, []
1632408036.1188, 122, 0, 4152.821, 3724.103, 4061.538, 4161.026, 4161.026, 450, 0, []
1632408036.1267, 123, 0, 4156.923, 3685.128, 4067.692, 4155.897, 4173.846, 16194, 0, []
1632408036.1347, 124, 0, 4166.667, 3650.256, 4067.179, 4162.051, 4171.795, 450, 0, []
1632408036.1426, 125, 0, 4162.051, 3612.821, 4066.667, 4170.256, 4157.436, 450, 0, []
1632408036.1505, 126, 0, 4150.256, 3741.538, 4072.821, 4164.103, 4150.769, 450, 0, []
1632408036.1585, 127, 0, 4151.282, 3950.256, 4073.846, 4168.718, 4152.308, 16194, 0, []
1632408036.1664, 128, 0, 4160, 3964.615, 4083.077, 4187.179, 4158.462, 450, 0, []
1632408036.1744, 0, 0, 4155.897, 3929.744, 4070.256, 4180.513, 4155.897, 450, 0, []
1632408036.1822, 1, 0, 4144.103, 4018.462, 4058.974, 4167.179, 4147.179, 450, 0, []
1632408036.1902, 2, 0, 4138.974, 4017.949, 4060, 4167.179, 4146.154, 16184, 0, []
1632408036.1981, 3, 0, 4138.462, 3881.026, 4048.718, 4160, 4152.308, 450, 0, []
1632408036.2061, 4, 0, 4137.949, 3842.051, 4062.051, 4153.333, 4157.436, 16179, 0, []
1632408036.214, 5, 0, 4143.59, 3836.923, 4066.667, 4163.59, 4162.564, 450, 0, []
1632408036.2219, 6, 0, 4155.897, 3757.949, 4057.436, 4172.821, 4158.974, 16131, 0, []
1632408036.2298, 7, 0, 4155.897, 3799.487, 4068.205, 4173.333, 4153.846, 450, 0, []
1632408036.2378, 8, 0, 4146.154, 3992.821, 4069.744, 4176.41, 4153.333, 450, 0, []
1632408036.2457, 9, 0, 4139.487, 3972.308, 4060, 4175.897, 4141.026, 16151, 0, []
1632408036.2537, 10, 0, 4133.333, 3764.103, 4044.103, 4170.256, 4123.077, 450, 0, []
1632408036.2615, 11, 0, 4113.333, 3897.436, 4046.154, 4162.564, 4116.923, 16194, 0, []
1632408036.2695, 12, 0, 4100, 4178.462, 4052.821, 4160, 4115.897, 450, 0, []
1632408036.2774, 13, 0, 4114.359, 4120, 4027.179, 4157.949, 4117.949, 450, 0, []
1632408036.2854, 14, 0, 4122.051, 4081.538, 4021.026, 4143.077, 4122.051, 450, 0, []
1632408036.2933, 15, 0, 4108.718, 4330.769, 4024.103, 4122.564, 4117.949, 16194, 0, []
1632408036.3011, 16, 0, 4107.692, 4418.974, 4019.487, 4124.615, 4125.641, 0, 0, []
1632408036.309, 17, 0, 4131.282, 4282.564, 4040, 4148.718, 4145.128, 0, 0, []
1632408036.3168, 18, 0, 4144.103, 4188.205, 4055.385, 4151.282, 4146.154, 0, 0, []
1632408036.3248, 19, 0, 4135.385, 4039.487, 4060, 4132.308, 4132.821, 0, 0, []
1632408036.3327, 20, 0, 4129.744, 3817.436, 4053.846, 4138.974, 4135.385, 0, 0, []
1632408036.3406, 21, 0, 4136.923, 3723.077, 4051.282, 4167.692, 4149.231, 0, 0, []
1632408036.3485, 22, 0, 4141.026, 3786.667, 4068.718, 4177.436, 4148.718, 0, 0, []
1632408036.3565, 23, 0, 4133.846, 3880, 4066.667, 4173.846, 4138.462, 0, 0, []
1632408036.3644, 24, 0, 4141.538, 3950.769, 4076.41, 4185.641, 4151.795, 0, 0, []
1632408036.3724, 25, 0, 4156.923, 4043.59, 4080.513, 4193.333, 4169.744, 0, 0, []
1632408036.3802, 26, 0, 4142.564, 4254.872, 4056.41, 4175.897, 4158.462, 0, 0, []
1632408036.3882, 27, 0, 4131.282, 4407.692, 4060.513, 4166.667, 4156.923, 0, 0, []
1632408036.3961, 28, 0, 4155.385, 4284.615, 4066.667, 4173.846, 4174.872, 0, 0, []
1632408036.4041, 29, 0, 4171.795, 4047.692, 4075.385, 4175.385, 4180, 0, 0, []
1632408036.412, 30, 0, 4170.769, 3974.359, 4085.128, 4182.051, 4175.385, 0, 0, []
1632408036.4199, 31, 0, 4172.308, 4173.846, 4082.051, 4197.949, 4180.513, 0, 0, []
1632408036.4278, 32, 0, 4164.103, 4393.333, 4085.128, 4200.513, 4174.359, 0, 0, []
1632408036.4356, 33, 0, 4143.59, 4355.385, 4065.641, 4174.359, 4154.872, 0, 0, []
1632408036.4435, 34, 0, 4143.077, 4140.513, 4046.154, 4154.872, 4151.282, 0, 0, []
1632408036.4514, 35, 0, 4158.974, 4057.949, 4054.872, 4158.974, 4158.974, 0, 0, []
1632408036.4592, 36, 0, 4158.462, 4229.744, 4063.077, 4168.205, 4155.385, 0, 0, []
1632408036.467, 37, 0, 4150.769, 4331.282, 4070.256, 4169.231, 4140.513, 0, 0, []
1632408036.475, 38, 0, 4147.179, 4264.103, 4068.205, 4163.59, 4133.846, 0, 0, []
1632408036.4829, 39, 0, 4147.179, 4163.077, 4061.538, 4161.026, 4136.41, 0, 0, []
1632408036.4909, 40, 0, 4139.487, 4064.615, 4055.385, 4156.41, 4141.538, 0, 0, []
1632408036.4987, 41, 0, 4124.615, 4038.974, 4030.769, 4149.231, 4132.308, 0, 0, []
1632408036.5067, 42, 0, 4126.154, 4154.359, 4038.974, 4155.897, 4129.231, 0, 0, []
1632408036.5146, 43, 0, 4153.846, 4205.641, 4065.641, 4176.41, 4161.538, 0, 0, []
1632408036.5226, 44, 0, 4174.359, 4065.641, 4073.333, 4187.179, 4176.41, 0, 0, []
1632408036.5305, 45, 0, 4161.538, 4059.487, 4083.077, 4182.564, 4156.41, 0, 0, []
1632408036.5384, 46, 0, 4159.487, 4258.462, 4082.564, 4184.103, 4148.718, 0, 0, []
1632408036.5463, 47, 0, 4171.282, 4314.872, 4090.769, 4186.667, 4159.487, 0, 0, []
1632408036.5543, 48, 0, 4163.077, 4227.692, 4082.051, 4189.231, 4154.872, 0, 0, []
1632408036.5622, 49, 0, 4157.436, 4269.744, 4067.179, 4189.744, 4146.154, 0, 0, []
1632408036.5702, 50, 0, 4172.308, 4467.179, 4086.667, 4197.949, 4163.077, 0, 0, []
1632408036.578, 51, 0, 4178.974, 4471.282, 4081.538, 4210.769, 4160.513, 0, 0, []
1632408036.5858, 52, 0, 4157.949, 4208.205, 4069.231, 4201.538, 4132.821, 0, 0, []
1632408036.5937, 53, 0, 4152.308, 4039.487, 4065.128, 4193.333, 4132.308, 0, 0, []
1632408036.6015, 54, 0, 4165.128, 4008.718, 4060, 4203.59, 4162.051, 0, 0, []
1632408036.6094, 55, 0, 4170.256, 4044.615, 4066.154, 4209.231, 4175.385, 0, 0, []
1632408036.6171, 56, 0, 4176.923, 4185.641, 4067.692, 4214.872, 4162.051, 0, 0, []
1632408036.6251, 57, 0, 4181.026, 4249.744, 4076.41, 4231.282, 4158.462, 0, 0, []
1632408036.633, 58, 0, 4170.769, 4112.821, 4065.641, 4232.821, 4160, 0, 0, []
1632408036.641, 59, 0, 4144.103, 4002.564, 4035.385, 4211.282, 4146.154, 0, 0, []
1632408036.6489, 60, 0, 4136.41, 4315.385, 4028.718, 4204.103, 4138.974, 0, 0, []
1632408036.6567, 61, 0, 4158.462, 4762.564, 4027.692, 4216.41, 4156.923, 0, 0, []
1632408036.6646, 62, 0, 4172.308, 4772.308, 4051.282, 4231.282, 4173.846, 0, 0, []
1632408036.6724, 63, 0, 4171.282, 4528.205, 4073.846, 4236.41, 4166.667, 0, 0, []
1632408036.6804, 64, 0, 4162.564, 4562.564, 4061.538, 4228.718, 4160, 450, 0, []
1632408036.6883, 65, 0, 4156.41, 4696.41, 4058.974, 4224.103, 4168.718, 450, 0, []
1632408036.6961, 66, 0, 4160, 4503.59, 4058.462, 4226.154, 4171.795, 16201, 0, []
1632408036.7041, 67, 0, 4161.026, 4252.821, 4050.256, 4229.231, 4157.949, 450, 0, []
1632408036.712, 68, 0, 4157.949, 4212.308, 4037.949, 4232.821, 4143.077, 16133, 0, []
1632408036.72, 69, 0, 4156.923, 4304.615, 4035.897, 4238.974, 4153.333, 450, 0, []
1632408036.7279, 70, 0, 4158.462, 4403.077, 4060, 4242.564, 4170.769, 16097, 0, []
1632408036.7358, 71, 0, 4159.487, 4523.077, 4053.846, 4233.846, 4168.718, 450, 0, []
1632408036.7437, 72, 0, 4161.538, 4593.333, 4052.821, 4237.436, 4162.051, 450, 0, []
1632408036.7515, 73, 0, 4158.974, 4462.051, 4078.974, 4256.41, 4154.872, 16165, 0, []
1632408036.7594, 74, 0, 4155.897, 4287.692, 4062.564, 4245.641, 4148.205, 450, 0, []
1632408036.7672, 75, 0, 4174.359, 4221.026, 4038.974, 4217.949, 4160, 16193, 0, []
1632408036.7751, 76, 0, 4198.462, 4263.077, 4048.718, 4215.897, 4173.333, 450, 0, []
1632408036.783, 77, 0, 4201.026, 4203.59, 4068.205, 4230.256, 4161.026, 450, 0, []
1632408036.791, 78, 0, 4188.205, 4107.179, 4069.744, 4233.846, 4139.487, 450, 0, []
1632408036.7989, 79, 0, 4170.256, 4131.795, 4043.077, 4226.667, 4129.231, 16193, 0, []
1632408036.8069, 80, 0, 4158.462, 4232.308, 4029.231, 4220, 4124.103, 450, 0, []
1632408036.8147, 81, 0, 4156.923, 4435.385, 4030.769, 4211.795, 4128.718, 450, 0, []
1632408036.8227, 82, 0, 4164.615, 4488.205, 4041.538, 4217.949, 4136.923, 450, 0, []
1632408036.8306, 83, 0, 4172.821, 4164.103, 4068.205, 4237.949, 4134.872, 16193, 0, []
1632408036.8386, 84, 0, 4171.282, 3896.923, 4072.308, 4250.256, 4143.59, 450, 0, []
