Timestamp, COUNTER, INTERPOLATED, AF3, T7, Pz, T8, AF4, RAW_CQ, MARKER_HARDWARE, MARKERS
1627804120.4085, 128, 0, 4160.513, 4232.821, 4194.872, 4185.641, 4164.103, 450, 0, []
1627804120.4164, 0, 0, 4165.128, 4194.872, 4189.744, 4184.103, 4172.821, 450, 0, []
1627804120.4242, 1, 0, 4164.103, 4184.615, 4170.256, 4175.897, 4176.923, 450, 0, []
1627804120.4321, 2, 0, 4179.487, 4215.385, 4161.026, 4169.744, 4187.692, 16188, 0, []
1627804120.4399, 3, 0, 4194.359, 4220, 4163.59, 4167.179, 4195.385, 450, 0, []
1627804120.4477, 4, 0, 4204.615, 4197.949, 4171.282, 4172.821, 4211.795, 16132, 0, []
1627804120.4555, 5, 0, 4242.564, 4202.564, 4169.231, 4183.59, 4254.872, 450, 0, []
1627804120.4635, 6, 0, 4297.436, 4222.051, 4169.744, 4189.744, 4301.026, 310, 0, []
1627804120.4714, 7, 0, 4360, 4216.41, 4178.462, 4187.692, 4348.205, 450, 0, []
1627804120.4794, 8, 0, 4433.846, 4201.026, 4176.923, 4186.667, 4417.436, 450, 0, []
1627804120.4872, 9, 0, 4483.59, 4198.462, 4169.744, 4187.179, 4476.923, 16159, 0, []
1627804120.4951, 10, 0, 4489.744, 4198.462, 4157.436, 4185.128, 4486.667, 450, 0, []
1627804120.5031, 11, 0, 4481.538, 4210.256, 4158.462, 4182.051, 4475.385, 16195, 0, []
1627804120.5111, 12, 0, 4464.615, 4227.692, 4173.333, 4184.615, 4463.077, 450, 0, []
1627804120.519, 13, 0, 4427.179, 4223.59, 4169.744, 4188.718, 4432.308, 450, 0, []
1627804120.5269, 14, 0, 4381.538, 4200.513, 4170.769, 4190.256, 4391.795, 450, 0, []
1627804120.5348, 15, 0, 4326.667, 4189.231, 4174.359, 4192.821, 4347.692, 16195, 0, []
1627804120.5428, 16, 0, 4255.385, 4188.718, 4161.026, 4189.744, 4281.538, 0, 0, []
1627804120.5507, 17, 0, 4171.795, 4186.667, 4147.692, 4175.385, 4191.795, 0, 0, []
1627804120.5585, 18, 0, 4092.821, 4188.205, 4138.974, 4164.615, 4117.949, 0, 0, []
1627804120.5663, 19, 0, 4038.462, 4183.59, 4145.641, 4173.333, 4073.846, 0, 0, []
1627804120.5741, 20, 0, 3991.795, 4180.513, 4152.308, 4184.615, 4030.769, 0, 0, []
1627804120.582, 21, 0, 3950.769, 4183.59, 4150.256, 4185.128, 3988.205, 0, 0, []
1627804120.5898, 22, 0, 3931.795, 4188.718, 4148.718, 4185.641, 3968.205, 0, 0, []
1627804120.5977, 23, 0, 3922.564, 4198.974, 4141.026, 4181.538, 3960.513, 0, 0, []
1627804120.6054, 24, 0, 3918.974, 4210.769, 4143.59, 4170.256, 3956.923, 0, 0, []
1627804120.6133, 25, 0, 3933.333, 4200.513, 4152.821, 4174.872, 3968.718, 0, 0, []
1627804120.6211, 26, 0, 3952.308, 4191.795, 4160.513, 4194.359, 3983.59, 0, 0, []
1627804120.6291, 27, 0, 3958.462, 4225.641, 4169.231, 4202.051, 3986.154, 0, 0, []
1627804120.637, 28, 0, 3966.667, 4248.205, 4171.795, 4201.026, 3994.359, 0, 0, []
1627804120.6449, 29, 0, 3974.359, 4233.333, 4174.872, 4202.051, 4003.59, 0, 0, []
1627804120.6528, 30, 0, 3970.256, 4223.077, 4168.205, 4203.077, 4005.128, 0, 0, []
1627804120.6608, 31, 0, 3971.795, 4214.359, 4154.359, 4203.59, 4012.821, 0, 0, []
1627804120.6687, 32, 0, 3984.103, 4208.205, 4157.436, 4203.077, 4020, 0, 0, []
1627804120.6767, 33, 0, 3994.872, 4239.487, 4157.436, 4197.949, 4016.41, 0, 0, []
1627804120.6845, 34, 0, 3997.949, 4250.769, 4155.897, 4195.385, 4016.923, 0, 0, []
1627804120.6925, 35, 0, 3995.385, 4218.462, 4153.846, 4195.897, 4021.026, 0, 0, []
1627804120.7004, 36, 0, 3982.051, 4215.897, 4142.051, 4189.744, 4010.769, 0, 0, []
1627804120.7084, 37, 0, 3968.205, 4227.692, 4140.513, 4178.462, 3994.872, 0, 0, []
1627804120.7163, 38, 0, 3980.513, 4215.385, 4151.282, 4181.538, 4001.538, 0, 0, []
1627804120.724, 39, 0, 4017.949, 4228.205, 4169.744, 4203.59, 4037.949, 0, 0, []
1627804120.7319, 40, 0, 4045.128, 4256.41, 4178.462, 4222.051, 4073.333, 0, 0, []
1627804120.7397, 41, 0, 4047.179, 4242.564, 4169.744, 4215.385, 4080, 0, 0, []
1627804120.7476, 42, 0, 4041.026, 4232.821, 4170.256, 4203.59, 4071.282, 0, 0, []
1627804120.7554, 43, 0, 4047.692, 4236.923, 4168.718, 4207.692, 4073.846, 0, 0, []
1627804120.7633, 44, 0, 4064.615, 4231.282, 4172.308, 4215.385, 4086.154, 0, 0, []
1627804120.771, 45, 0, 4072.821, 4247.179, 4178.462, 4213.333, 4091.795, 0, 0, []
1627804120.7789, 46, 0, 4077.436, 4258.974, 4172.821, 4210.769, 4094.872, 0, 0, []
1627804120.7867, 47, 0, 4088.205, 4240, 4177.949, 4217.949, 4106.667, 0, 0, []
1627804120.7947, 48, 0, 4087.179, 4226.667, 4173.846, 4215.897, 4109.231, 0, 0, []
1627804120.8026, 49, 0, 4074.359, 4246.154, 4158.974, 4199.487, 4103.59, 0, 0, []
1627804120.8105, 50, 0, 4073.846, 4258.462, 4162.051, 4196.41, 4113.333, 0, 0, []
1627804120.8184, 51, 0, 4077.949, 4245.641, 4165.641, 4209.744, 4123.59, 0, 0, []
1627804120.8264, 52, 0, 4086.154, 4240, 4165.641, 4214.872, 4121.026, 0, 0, []
1627804120.8343, 53, 0, 4118.974, 4236.923, 4165.641, 4212.821, 4141.538, 0, 0, []
1627804120.8423, 54, 0, 4150.256, 4244.103, 4169.231, 4221.026, 4175.897, 0, 0, []
1627804120.8501, 55, 0, 4141.026, 4258.974, 4172.308, 4222.051, 4173.333, 0, 0, []
1627804120.8581, 56, 0, 4112.308, 4249.231, 4159.487, 4198.462, 4141.026, 0, 0, []
1627804120.866, 57, 0, 4103.077, 4234.359, 4152.308, 4178.974, 4130.256, 0, 0, []
1627804120.8738, 58, 0, 4113.333, 4254.872, 4156.41, 4189.231, 4144.615, 0, 0, []
1627804120.8817, 59, 0, 4122.564, 4275.385, 4161.026, 4202.564, 4154.872, 0, 0, []
1627804120.8894, 60, 0, 4130.769, 4245.128, 4168.205, 4207.692, 4158.974, 0, 0, []
1627804120.8973, 61, 0, 4140, 4227.692, 4168.718, 4212.308, 4170.256, 0, 0, []
1627804120.9051, 62, 0, 4144.103, 4262.564, 4168.205, 4209.231, 4176.923, 0, 0, []
1627804120.913, 63, 0, 4142.051, 4270.769, 4164.103, 4201.538, 4172.308, 0, 0, []
1627804120.9208, 64, 0, 4139.487, 4240.513, 4161.026, 4200.513, 4171.282, 450, 0, []
1627804120.9286, 65, 0, 4136.923, 4230.769, 4162.051, 4191.282, 4167.179, 450, 0, []
1627804120.9364, 66, 0, 4135.385, 4244.103, 4150.769, 4177.436, 4157.436, 16188, 0, []
1627804120.9443, 67, 0, 4137.436, 4248.205, 4147.179, 4180, 4160.513, 450, 0, []
1627804120.9521, 68, 0, 4137.949, 4244.615, 4155.385, 4187.179, 4167.692, 16133, 0, []
1627804120.9601, 69, 0, 4144.103, 4235.385, 4160, 4186.154, 4166.154, 450, 0, []
1627804120.9679, 70, 0, 4152.308, 4236.923, 4159.487, 4187.179, 4169.744, 307, 0, []
1627804120.9759, 71, 0, 4152.821, 4251.795, 4152.308, 4189.231, 4182.564, 450, 0, []
1627804120.9838, 72, 0, 4152.821, 4248.718, 4158.462, 4187.179, 4191.282, 450, 0, []
1627804120.9918, 73, 0, 4164.103, 4253.333, 4178.974, 4189.744, 4194.872, 16159, 0, []
1627804120.9997, 74, 0, 4181.538, 4273.846, 4192.821, 4205.641, 4202.051, 450, 0, []
1627804121.0076, 75, 0, 4188.718, 4264.103, 4195.897, 4216.41, 4213.333, 16197, 0, []
1627804121.0155, 76, 0, 4186.667, 4262.051, 4179.487, 4208.718, 4218.974, 450, 0, []
1627804121.0235, 77, 0, 4183.077, 4285.641, 4168.718, 4200.513, 4215.897, 450, 0, []
1627804121.0314, 78, 0, 4184.615, 4263.59, 4179.487, 4208.205, 4218.974, 450, 0, []
1627804121.0392, 79, 0, 4197.949, 4232.308, 4185.641, 4222.564, 4233.333, 16197, 0, []
1627804121.047, 80, 0, 4201.538, 4266.667, 4189.744, 4232.308, 4236.923, 450, 0, []
1627804121.0548, 81, 0, 4187.692, 4291.282, 4194.359, 4235.385, 4220, 450, 0, []
1627804121.0627, 82, 0, 4178.462, 4272.308, 4192.308, 4232.308, 4202.564, 450, 0, []
1627804121.0705, 83, 0, 4171.795, 4281.026, 4175.385, 4221.026, 4185.641, 16197, 0, []
1627804121.0784, 84, 0, 4158.462, 4306.667, 4161.026, 4211.795, 4177.436, 450, 0, []
1627804121.0861, 85, 0, 4168.205, 4285.641, 4179.487, 4216.923, 4199.487, 450, 0, []
1627804121.094, 86, 0, 4196.923, 4255.385, 4199.487, 4225.128, 4227.179, 450, 0, []
1627804121.1018, 87, 0, 4203.077, 4266.667, 4203.077, 4223.59, 4230.256, 16197, 0, []
1627804121.1098, 88, 0, 4198.974, 4285.641, 4214.359, 4231.282, 4228.205, 450, 0, []
1627804121.1177, 89, 0, 4207.692, 4282.564, 4222.564, 4248.205, 4237.949, 450, 0, []
1627804121.1256, 90, 0, 4218.974, 4272.308, 4220, 4255.385, 4240, 450, 0, []
1627804121.1335, 91, 0, 4216.923, 4285.128, 4209.231, 4250.256, 4236.41, 16197, 0, []
1627804121.1415, 92, 0, 4208.205, 4306.667, 4204.103, 4241.538, 4231.282, 450, 0, []
1627804121.1494, 93, 0, 4200, 4307.692, 4206.667, 4233.333, 4222.051, 450, 0, []
1627804121.1574, 94, 0, 4188.205, 4294.872, 4195.897, 4216.41, 4210.769, 450, 0, []
1627804121.1652, 95, 0, 4181.026, 4282.564, 4186.154, 4203.59, 4201.026, 16197, 0, []
1627804121.1732, 96, 0, 4178.462, 4273.846, 4185.641, 4204.103, 4194.359, 450, 0, []
1627804121.1811, 97, 0, 4183.59, 4274.359, 4192.308, 4215.385, 4201.026, 450, 0, []
1627804121.1889, 98, 0, 4196.923, 4292.821, 4197.436, 4230.256, 4216.923, 450, 0, []
1627804121.1968, 99, 0, 4204.103, 4302.051, 4194.359, 4235.897, 4221.026, 16197, 0, []
1627804121.2045, 100, 0, 4201.538, 4281.026, 4202.564, 4233.333, 4216.923, 450, 0, []
1627804121.2124, 101, 0, 4196.923, 4274.359, 4206.667, 4227.179, 4213.333, 450, 0, []
1627804121.2202, 102, 0, 4191.282, 4294.872, 4195.897, 4216.923, 4205.641, 450, 0, []
1627804121.2281, 103, 0, 4181.026, 4278.974, 4188.718, 4206.667, 4191.795, 16197, 0, []
1627804121.2359, 104, 0, 4177.949, 4243.077, 4182.564, 4201.538, 4186.154, 450, 0, []
1627804121.2437, 105, 0, 4181.026, 4270.769, 4185.128, 4200.513, 4194.359, 450, 0, []
1627804121.2515, 106, 0, 4185.128, 4300.513, 4199.487, 4207.692, 4210.769, 450, 0, []
1627804121.2595, 107, 0, 4186.154, 4266.667, 4203.59, 4221.538, 4216.923, 16197, 0, []
1627804121.2674, 108, 0, 4185.128, 4256.41, 4191.795, 4218.462, 4212.821, 450, 0, []
1627804121.2754, 109, 0, 4205.641, 4281.538, 4182.051, 4210.256, 4235.385, 450, 0, []
1627804121.2832, 110, 0, 4236.41, 4272.308, 4185.641, 4215.385, 4270.769, 450, 0, []
1627804121.2912, 111, 0, 4233.846, 4264.615, 4188.205, 4216.923, 4269.231, 16197, 0, []
1627804121.2991, 112, 0, 4208.718, 4290.769, 4191.282, 4215.385, 4249.744, 450, 0, []
1627804121.3071, 113, 0, 4199.487, 4295.897, 4201.538, 4217.949, 4245.128, 450, 0, []
1627804121.315, 114, 0, 4202.051, 4275.897, 4191.282, 4215.897, 4237.949, 450, 0, []
1627804121.3229, 115, 0, 4199.487, 4274.872, 4180, 4206.154, 4233.333, 16197, 0, []
1627804121.3308, 116, 0, 4202.564, 4270.256, 4192.308, 4204.103, 4243.077, 450, 0, []
1627804121.3386, 117, 0, 4208.718, 4252.821, 4193.846, 4206.667, 4245.128, 450, 0, []
1627804121.3465, 118, 0, 4212.308, 4269.744, 4187.179, 4212.821, 4241.026, 450, 0, []
1627804121.3543, 119, 0, 4221.026, 4297.436, 4189.744, 4225.128, 4249.744, 16197, 0, []
1627804121.3621, 120, 0, 4223.59, 4278.462, 4195.897, 4227.179, 4254.872, 450, 0, []
1627804121.3699, 121, 0, 4217.949, 4247.692, 4198.462, 4220.513, 4245.128, 450, 0, []
1627804121.3778, 122, 0, 4214.359, 4255.897, 4197.436, 4221.538, 4240, 450, 0, []
1627804121.3856, 123, 0, 4216.41, 4281.538, 4205.128, 4228.205, 4244.103, 16197, 0, []
1627804121.3935, 124, 0, 4226.667, 4288.205, 4211.282, 4231.282, 4249.744, 450, 0, []
1627804121.4012, 125, 0, 4237.436, 4280.513, 4206.667, 4228.205, 4251.282, 450, 0, []
1627804121.4092, 126, 0, 4222.051, 4270.769, 4194.359, 4221.538, 4237.436, 450, 0, []
1627804121.4171, 127, 0, 4197.949, 4276.41, 4180, 4213.333, 4216.923, 16197, 0, []
1627804121.4251, 128, 0, 4206.154, 4288.718, 4181.026, 4216.41, 4221.026, 450, 0, []
1627804121.433, 0, 0, 4217.436, 4278.974, 4186.154, 4225.128, 4233.846, 450, 0, []
1627804121.4409, 1, 0, 4219.487, 4267.179, 4178.974, 4231.282, 4232.308, 450, 0, []
1627804121.4488, 2, 0, 4226.154, 4271.282, 4176.923, 4230.256, 4231.282, 16185, 0, []
1627804121.4568, 3, 0, 4222.564, 4275.897, 4181.026, 4218.974, 4232.308, 450, 0, []
1627804121.4647, 4, 0, 4220.513, 4266.667, 4183.077, 4215.385, 4228.718, 16139, 0, []
1627804121.4727, 5, 0, 4229.744, 4256.923, 4182.051, 4221.026, 4231.795, 450, 0, []
1627804121.4805, 6, 0, 4231.282, 4269.744, 4182.051, 4217.949, 4235.385, 304, 0, []
1627804121.4883, 7, 0, 4222.564, 4281.538, 4184.615, 4213.333, 4230.769, 450, 0, []
1627804121.4962, 8, 0, 4219.487, 4269.231, 4183.077, 4215.385, 4227.692, 450, 0, []
1627804121.504, 9, 0, 4221.538, 4261.538, 4184.615, 4217.949, 4229.744, 16159, 0, []
1627804121.5119, 10, 0, 4228.718, 4268.718, 4189.231, 4218.462, 4238.974, 450, 0, []
1627804121.5197, 11, 0, 4233.333, 4269.231, 4188.205, 4215.897, 4246.667, 16198, 0, []
1627804121.5275, 12, 0, 4230.256, 4259.487, 4192.308, 4215.897, 4244.615, 450, 0, []
1627804121.5353, 13, 0, 4239.487, 4263.59, 4198.974, 4226.154, 4248.718, 450, 0, []
1627804121.5432, 14, 0, 4253.333, 4270.769, 4206.154, 4231.795, 4263.59, 450, 0, []
1627804121.551, 15, 0, 4246.667, 4265.128, 4205.128, 4216.41, 4260, 16198, 0, []
1627804121.5589, 16, 0, 4237.436, 4268.718, 4193.333, 4198.462, 4243.077, 0, 0, []
1627804121.5666, 17, 0, 4256.923, 4285.128, 4190.769, 4197.949, 4258.462, 0, 0, []
1627804121.5746, 18, 0, 4293.333, 4284.103, 4195.385, 4209.231, 4295.897, 0, 0, []
1627804121.5825, 19, 0, 4321.026, 4257.949, 4198.462, 4214.359, 4315.897, 0, 0, []
1627804121.5905, 20, 0, 4354.359, 4263.077, 4202.051, 4212.821, 4339.487, 0, 0, []
1627804121.5984, 21, 0, 4404.103, 4284.615, 4211.282, 4219.487, 4386.154, 0, 0, []
1627804121.6063, 22, 0, 4450.769, 4269.744, 4224.103, 4232.821, 4428.718, 0, 0, []
1627804121.6142, 23, 0, 4485.641, 4267.179, 4214.359, 4232.821, 4461.026, 0, 0, []
1627804121.6222, 24, 0, 4506.667, 4294.872, 4199.487, 4227.179, 4485.641, 0, 0, []
1627804121.6301, 25, 0, 4504.615, 4289.744, 4198.462, 4232.821, 4490.256, 0, 0, []
1627804121.6381, 26, 0, 4487.692, 4260, 4190.769, 4238.462, 4472.821, 0, 0, []
1627804121.6459, 27, 0, 4462.051, 4261.026, 4188.718, 4233.846, 4438.462, 0, 0, []
1627804121.6537, 28, 0, 4419.487, 4267.179, 4191.282, 4229.231, 4398.974, 0, 0, []
1627804121.6616, 29, 0, 4373.333, 4264.103, 4181.026, 4218.462, 4359.487, 0, 0, []
1627804121.6694, 30, 0, 4341.538, 4271.282, 4178.462, 4204.615, 4328.205, 0, 0, []
1627804121.6773, 31, 0, 4323.59, 4266.154, 4188.205, 4208.718, 4315.385, 0, 0, []
1627804121.685, 32, 0, 4303.59, 4261.538, 4193.333, 4218.974, 4304.103, 0, 0, []
1627804121.6929, 33, 0, 4278.974, 4261.026, 4188.718, 4217.436, 4282.051, 0, 0, []
1627804121.7007, 34, 0, 4266.667, 4246.154, 4193.333, 4215.385, 4272.821, 0, 0, []
1627804121.7086, 35, 0, 4261.026, 4257.436, 4202.564, 4217.436, 4271.282, 0, 0, []
1627804121.7164, 36, 0, 4251.282, 4281.538, 4196.41, 4213.846, 4254.872, 0, 0, []
1627804121.7243, 37, 0, 4243.59, 4269.231, 4197.436, 4214.872, 4246.667, 0, 0, []
1627804121.7322, 38, 0, 4233.333, 4257.436, 4204.615, 4214.872, 4244.615, 0, 0, []
1627804121.7402, 39, 0, 4216.41, 4260.513, 4199.487, 4201.538, 4229.744, 0, 0, []
1627804121.7481, 40, 0, 4209.744, 4264.103, 4205.641, 4197.436, 4224.615, 0, 0, []
1627804121.7561, 41, 0, 4218.974, 4278.462, 4215.897, 4209.744, 4233.333, 0, 0, []
1627804121.7639, 42, 0, 4215.897, 4266.154, 4209.231, 4209.231, 4226.154, 0, 0, []
1627804121.7719, 43, 0, 4199.487, 4242.564, 4192.821, 4195.897, 4211.282, 0, 0, []
1627804121.7798, 44, 0, 4198.462, 4265.641, 4188.718, 4197.436, 4213.846, 0, 0, []
1627804121.7878, 45, 0, 4201.538, 4278.462, 4192.308, 4204.103, 4213.846, 0, 0, []
1627804121.7957, 46, 0, 4188.718, 4230.769, 4181.026, 4197.436, 4200.513, 0, 0, []
1627804121.8034, 47, 0, 4178.462, 4215.385, 4178.462, 4196.923, 4195.897, 0, 0, []
1627804121.8113, 48, 0, 4183.077, 4255.897, 4187.692, 4210.769, 4198.974, 0, 0, []
1627804121.8191, 49, 0, 4183.59, 4264.103, 4184.615, 4214.359, 4198.974, 0, 0, []
1627804121.827, 50, 0, 4181.538, 4241.026, 4188.205, 4206.154, 4201.538, 0, 0, []
1627804121.8348, 51, 0, 4185.128, 4246.667, 4194.359, 4202.051, 4200, 0, 0, []
1627804121.8426, 52, 0, 4183.59, 4267.692, 4194.872, 4200.513, 4187.179, 0, 0, []
1627804121.8504, 53, 0, 4180, 4266.667, 4195.385, 4199.487, 4180, 0, 0, []
1627804121.8583, 54, 0, 4185.641, 4260.513, 4195.385, 4206.154, 4186.667, 0, 0, []
1627804121.8661, 55, 0, 4190.769, 4243.077, 4196.41, 4210.256, 4188.205, 0, 0, []
1627804121.874, 56, 0, 4185.641, 4221.538, 4191.795, 4194.359, 4184.615, 0, 0, []
1627804121.8817, 57, 0, 4183.077, 4241.538, 4190.769, 4170.769, 4183.077, 0, 0, []
1627804121.8897, 58, 0, 4186.154, 4260, 4190.256, 4161.026, 4183.077, 0, 0, []
1627804121.8976, 59, 0, 4182.564, 4237.436, 4186.667, 4173.846, 4184.615, 0, 0, []
1627804121.9056, 60, 0, 4171.795, 4226.667, 4187.692, 4189.744, 4178.974, 0, 0, []
1627804121.9135, 61, 0, 4167.179, 4254.872, 4182.564, 4189.231, 4167.179, 0, 0, []
1627804121.9214, 62, 0, 4170.769, 4280, 4189.231, 4192.821, 4165.128, 0, 0, []
1627804121.9293, 63, 0, 4169.744, 4269.231, 4202.564, 4205.641, 4169.744, 0, 0, []
1627804121.9373, 64, 0, 4171.795, 4250.769, 4185.128, 4191.795, 4177.436, 450, 0, []
1627804121.9452, 65, 0, 4197.436, 4246.154, 4168.205, 4161.538, 4200.513, 450, 0, []
1627804121.9532, 66, 0, 4227.692, 4250.769, 4173.333, 4152.308, 4227.179, 16192, 0, []
1627804121.961, 67, 0, 4220.513, 4261.538, 4170.256, 4147.692, 4220, 450, 0, []
1627804121.969, 68, 0, 4187.179, 4257.436, 4158.462, 4132.308, 4185.128, 16141, 0, []
1627804121.9769, 69, 0, 4173.846, 4226.667, 4160.513, 4136.41, 4163.077, 450, 0, []
1627804121.9847, 70, 0, 4188.205, 4213.846, 4183.077, 4165.641, 4174.359, 304, 0, []
1627804121.9926, 71, 0, 4200, 4233.846, 4188.718, 4185.128, 4184.615, 450, 0, []
1627804122.0003, 72, 0, 4197.436, 4240, 4172.821, 4183.59, 4177.436, 450, 0, []
1627804122.0082, 73, 0, 4203.077, 4242.564, 4176.41, 4184.103, 4180.513, 16159, 0, []
1627804122.016, 74, 0, 4205.641, 4258.462, 4186.667, 4192.821, 4188.718, 450, 0, []
1627804122.0239, 75, 0, 4187.179, 4255.897, 4174.359, 4189.231, 4172.821, 16196, 0, []
1627804122.0317, 76, 0, 4172.821, 4231.282, 4161.026, 4171.282, 4150.256, 450, 0, []
1627804122.0396, 77, 0, 4180, 4207.692, 4165.128, 4164.103, 4152.821, 450, 0, []
1627804122.0475, 78, 0, 4188.205, 4214.872, 4176.923, 4171.795, 4170.256, 450, 0, []
1627804122.0555, 79, 0, 4186.667, 4246.154, 4177.949, 4171.282, 4176.41, 16196, 0, []
1627804122.0634, 80, 0, 4185.128, 4235.385, 4169.744, 4168.718, 4169.744, 450, 0, []
1627804122.0714, 81, 0, 4182.051, 4201.026, 4164.615, 4183.077, 4166.667, 450, 0, []
1627804122.0792, 82, 0, 4181.538, 4222.564, 4166.154, 4189.744, 4169.231, 450, 0, []
1627804122.0872, 83, 0, 4188.205, 4246.154, 4170.256, 4176.923, 4171.282, 16196, 0, []
1627804122.0951, 84, 0, 4182.051, 4205.128, 4162.051, 4166.154, 4165.641, 450, 0, []
1627804122.1031, 85, 0, 4166.154, 4189.231, 4154.359, 4156.923, 4147.692, 450, 0, []
1627804122.111, 86, 0, 4167.179, 4226.154, 4161.026, 4143.077, 4140, 450, 0, []
1627804122.1187, 87, 0, 4186.667, 4221.026, 4167.179, 4136.41, 4150.769, 16196, 0, []
1627804122.1266, 88, 0, 4201.026, 4201.026, 4174.872, 4137.436, 4163.59, 450, 0, []
1627804122.1344, 89, 0, 4200, 4229.231, 4178.974, 4138.974, 4167.692, 450, 0, []
1627804122.1423, 90, 0, 4189.744, 4224.103, 4172.821, 4141.026, 4161.538, 450, 0, []
1627804122.1501, 91, 0, 4183.59, 4180, 4166.154, 4153.333, 4156.923, 16196, 0, []
1627804122.1579, 92, 0, 4185.641, 4197.949, 4167.179, 4173.846, 4166.154, 450, 0, []
1627804122.1657, 93, 0, 4188.718, 4240.513, 4179.487, 4185.128, 4171.795, 450, 0, []
1627804122.1736, 94, 0, 4194.872, 4227.692, 4182.564, 4186.154, 4166.667, 450, 0, []
1627804122.1814, 95, 0, 4208.205, 4208.718, 4181.538, 4186.667, 4168.718, 16196, 0, []
1627804122.1894, 96, 0, 4193.846, 4221.538, 4180.513, 4171.282, 4155.385, 450, 0, []
1627804122.1972, 97, 0, 4158.462, 4217.949, 4158.462, 4145.128, 4131.282, 450, 0, []
1627804122.2052, 98, 0, 4152.308, 4198.462, 4148.205, 4151.282, 4137.436, 450, 0, []
1627804122.2131, 99, 0, 4168.205, 4192.821, 4158.974, 4176.41, 4153.846, 16196, 0, []
1627804122.2211, 100, 0, 4181.026, 4206.667, 4168.205, 4182.564, 4155.897, 450, 0, []
1627804122.229, 101, 0, 4199.487, 4238.974, 4182.564, 4188.718, 4167.179, 450, 0, []
1627804122.2369, 102, 0, 4219.487, 4241.538, 4194.872, 4202.051, 4190.256, 450, 0, []
1627804122.2448, 103, 0, 4212.308, 4217.436, 4188.718, 4192.308, 4191.282, 16196, 0, []
1627804122.2528, 104, 0, 4185.641, 4225.641, 4172.821, 4164.103, 4165.641, 450, 0, []
1627804122.2607, 105, 0, 4173.333, 4232.821, 4174.359, 4154.872, 4152.308, 450, 0, []
1627804122.2685, 106, 0, 4180, 4203.59, 4180, 4165.641, 4158.974, 450, 0, []
1627804122.2764, 107, 0, 4195.897, 4191.795, 4175.897, 4181.026, 4169.231, 16196, 0, []
1627804122.2841, 108, 0, 4205.641, 4210.256, 4182.564, 4193.846, 4180, 450, 0, []
1627804122.292, 109, 0, 4202.051, 4217.949, 4189.744, 4193.333, 4180, 450, 0, []
1627804122.2998, 110, 0, 4196.41, 4221.026, 4177.436, 4181.538, 4171.282, 450, 0, []
1627804122.3077, 111, 0, 4189.231, 4220, 4160, 4169.744, 4165.128, 16196, 0, []
1627804122.3155, 112, 0, 4181.026, 4222.051, 4148.205, 4161.026, 4161.026, 450, 0, []
1627804122.3233, 113, 0, 4187.692, 4231.795, 4158.462, 4155.385, 4166.154, 450, 0, []
1627804122.3311, 114, 0, 4203.077, 4218.462, 4177.949, 4151.282, 4183.077, 450, 0, []
1627804122.339, 115, 0, 4201.026, 4200.513, 4178.974, 4151.795, 4191.795, 16196, 0, []
1627804122.3468, 116, 0, 4187.179, 4213.846, 4174.359, 4166.667, 4185.641, 450, 0, []
1627804122.3548, 117, 0, 4177.949, 4226.154, 4170.256, 4194.359, 4178.974, 450, 0, []
1627804122.3626, 118, 0, 4176.41, 4206.154, 4162.564, 4204.615, 4173.333, 450, 0, []
1627804122.3706, 119, 0, 4171.282, 4201.026, 4157.436, 4190.769, 4164.615, 16196, 0, []
1627804122.3785, 120, 0, 4174.872, 4225.128, 4166.667, 4190.769, 4166.667, 450, 0, []
1627804122.3865, 121, 0, 4190.256, 4244.103, 4187.692, 4205.128, 4184.615, 450, 0, []
1627804122.3944, 122, 0, 4186.667, 4238.462, 4185.128, 4194.359, 4185.641, 450, 0, []
1627804122.4023, 123, 0, 4169.744, 4217.436, 4167.692, 4172.821, 4165.641, 16196, 0, []
1627804122.4102, 124, 0, 4179.487, 4203.077, 4175.897, 4184.615, 4168.718, 450, 0, []
1627804122.4182, 125, 0, 4201.538, 4209.231, 4191.795, 4206.667, 4192.308, 450, 0, []
1627804122.4261, 126, 0, 4202.051, 4225.128, 4195.897, 4201.026, 4188.205, 450, 0, []
1627804122.4339, 127, 0, 4190.256, 4205.128, 4194.359, 4185.641, 4159.487, 16196, 0, []
1627804122.4417, 128, 0, 4189.744, 4174.872, 4193.333, 4180, 4148.718, 450, 0, []
1627804122.4495, 0, 0, 4195.897, 4197.436, 4190.256, 4180.513, 4163.59, 450, 0, []
1627804122.4574, 1, 0, 4199.487, 4240.513, 4187.179, 4187.692, 4187.179, 450, 0, []
1627804122.4652, 2, 0, 4214.872, 4253.333, 4185.641, 4188.718, 4205.128, 16186, 0, []
1627804122.4731, 3, 0, 4231.282, 4250.769, 4170.769, 4166.667, 4209.744, 450, 0, []
1627804122.4808, 4, 0, 4225.641, 4240, 4172.821, 4163.077, 4201.026, 16134, 0, []
1627804122.4887, 5, 0, 4211.795, 4216.923, 4202.051, 4193.333, 4188.205, 450, 0, []
1627804122.4965, 6, 0, 4211.795, 4229.231, 4210.256, 4208.718, 4178.974, 253, 0, []
1627804122.5045, 7, 0, 4211.795, 4252.821, 4198.462, 4203.077, 4176.41, 450, 0, []
1627804122.5124, 8, 0, 4207.179, 4240, 4186.154, 4206.667, 4181.538, 450, 0, []
1627804122.5203, 9, 0, 4214.872, 4226.154, 4175.897, 4206.154, 4185.641, 16159, 0, []
1627804122.5282, 10, 0, 4219.487, 4228.718, 4184.615, 4193.846, 4182.564, 450, 0, []
1627804122.5362, 11, 0, 4210.256, 4233.846, 4197.949, 4189.744, 4175.897, 16196, 0, []
1627804122.5441, 12, 0, 4192.308, 4230.256, 4183.077, 4177.949, 4161.026, 450, 0, []
1627804122.5521, 13, 0, 4182.051, 4204.615, 4168.205, 4162.051, 4147.692, 450, 0, []
1627804122.5599, 14, 0, 4183.59, 4207.179, 4174.359, 4172.821, 4148.205, 450, 0, []
1627804122.5679, 15, 0, 4191.282, 4246.154, 4183.59, 4194.872, 4155.385, 16196, 0, []
1627804122.5758, 16, 0, 4208.205, 4238.462, 4178.462, 4203.59, 4174.359, 0, 0, []
1627804122.5838, 17, 0, 4222.051, 4216.923, 4177.436, 4196.923, 4195.897, 0, 0, []
1627804122.5917, 18, 0, 4217.949, 4242.051, 4186.154, 4189.744, 4196.923, 0, 0, []
1627804122.5994, 19, 0, 4199.487, 4247.692, 4188.718, 4185.641, 4178.974, 0, 0, []
1627804122.6073, 20, 0, 4185.128, 4224.103, 4184.103, 4192.821, 4174.359, 0, 0, []
1627804122.6151, 21, 0, 4192.308, 4227.692, 4173.333, 4209.231, 4187.179, 0, 0, []
1627804122.623, 22, 0, 4206.154, 4238.462, 4180.513, 4214.359, 4192.821, 0, 0, []
1627804122.6308, 23, 0, 4199.487, 4228.205, 4186.154, 4207.179, 4187.179, 0, 0, []
1627804122.6386, 24, 0, 4195.897, 4215.385, 4168.205, 4206.667, 4192.821, 0, 0, []
1627804122.6464, 25, 0, 4214.359, 4213.846, 4172.821, 4219.487, 4207.179, 0, 0, []
1627804122.6544, 26, 0, 4209.231, 4214.872, 4186.667, 4216.923, 4199.487, 0, 0, []
1627804122.6623, 27, 0, 4184.615, 4226.154, 4183.59, 4200.513, 4183.077, 0, 0, []
1627804122.6703, 28, 0, 4185.128, 4251.282, 4183.077, 4204.615, 4178.462, 0, 0, []
1627804122.6781, 29, 0, 4208.205, 4266.667, 4188.718, 4225.128, 4189.231, 0, 0, []
1627804122.6861, 30, 0, 4223.077, 4260, 4196.923, 4237.436, 4204.103, 0, 0, []
1627804122.694, 31, 0, 4215.897, 4242.051, 4189.231, 4225.641, 4197.949, 0, 0, []
1627804122.702, 32, 0, 4209.744, 4238.462, 4177.436, 4209.231, 4186.667, 0, 0, []
1627804122.7099, 33, 0, 4217.436, 4257.949, 4183.59, 4203.59, 4196.923, 0, 0, []
1627804122.7178, 34, 0, 4216.923, 4260.513, 4188.718, 4204.103, 4203.59, 0, 0, []
1627804122.7257, 35, 0, 4208.205, 4235.385, 4187.692, 4202.051, 4185.641, 0, 0, []
1627804122.7335, 36, 0, 4211.282, 4234.872, 4193.846, 4200, 4182.051, 0, 0, []
1627804122.7414, 37, 0, 4207.692, 4255.385, 4196.923, 4195.385, 4189.744, 0, 0, []
1627804122.7492, 38, 0, 4195.897, 4244.103, 4193.846, 4193.846, 4184.615, 0, 0, []
1627804122.757, 39, 0, 4205.128, 4244.103, 4198.462, 4207.692, 4188.718, 0, 0, []
1627804122.7648, 40, 0, 4211.795, 4270.256, 4209.744, 4216.41, 4196.41, 0, 0, []
1627804122.7727, 41, 0, 4198.974, 4261.538, 4207.692, 4208.718, 4181.538, 0, 0, []
1627804122.7805, 42, 0, 4196.41, 4246.667, 4200, 4204.103, 4169.231, 0, 0, []
1627804122.7884, 43, 0, 4206.667, 4262.564, 4201.026, 4201.538, 4175.897, 0, 0, []
1627804122.7961, 44, 0, 4198.974, 4253.846, 4198.462, 4198.974, 4176.923, 0, 0, []
1627804122.804, 45, 0, 4181.538, 4238.462, 4187.692, 4197.949, 4165.641, 0, 0, []
1627804122.8118, 46, 0, 4188.718, 4253.846, 4178.974, 4197.436, 4169.744, 0, 0, []
1627804122.8198, 47, 0, 4203.59, 4258.462, 4186.154, 4207.179, 4185.128, 0, 0, []
1627804122.8277, 48, 0, 4197.949, 4248.205, 4193.846, 4217.436, 4188.718, 0, 0, []
1627804122.8356, 49, 0, 4201.538, 4249.744, 4180.513, 4210.256, 4186.667, 0, 0, []
1627804122.8435, 50, 0, 4214.872, 4248.205, 4177.436, 4199.487, 4186.667, 0, 0, []
1627804122.8515, 51, 0, 4205.641, 4250.769, 4181.538, 4194.359, 4174.872, 0, 0, []
1627804122.8594, 52, 0, 4198.974, 4248.718, 4168.718, 4189.231, 4166.154, 0, 0, []
1627804122.8674, 53, 0, 4215.897, 4230.769, 4170.769, 4198.462, 4177.949, 0, 0, []
1627804122.8752, 54, 0, 4219.487, 4243.077, 4182.051, 4204.103, 4182.564, 0, 0, []
1627804122.8832, 55, 0, 4202.051, 4258.974, 4181.026, 4184.615, 4166.667, 0, 0, []
1627804122.8911, 56, 0, 4200, 4240, 4187.179, 4185.128, 4167.179, 0, 0, []
1627804122.8989, 57, 0, 4214.359, 4236.923, 4190.256, 4207.179, 4182.564, 0, 0, []
1627804122.9068, 58, 0, 4214.872, 4251.795, 4174.359, 4196.923, 4177.436, 0, 0, []
1627804122.9145, 59, 0, 4203.59, 4251.795, 4157.949, 4175.385, 4163.077, 0, 0, []
1627804122.9224, 60, 0, 4209.231, 4247.179, 4167.692, 4184.615, 4173.333, 0, 0, []
1627804122.9302, 61, 0, 4221.538, 4244.615, 4188.205, 4202.051, 4186.667, 0, 0, []
1627804122.9381, 62, 0, 4215.385, 4242.051, 4195.385, 4205.641, 4182.564, 0, 0, []
1627804122.9459, 63, 0, 4214.359, 4261.026, 4199.487, 4215.897, 4189.744, 0, 0, []
1627804122.9537, 64, 0, 4224.615, 4277.436, 4188.718, 4219.487, 4200.513, 450, 0, []
1627804122.9615, 65, 0, 4221.026, 4255.385, 4169.744, 4198.974, 4188.205, 450, 0, []
1627804122.9695, 66, 0, 4217.436, 4228.718, 4172.308, 4190.769, 4186.154, 16185, 0, []
1627804122.9774, 67, 0, 4236.923, 4233.333, 4190.256, 4205.641, 4212.821, 450, 0, []
1627804122.9854, 68, 0, 4251.795, 4249.231, 4207.692, 4220, 4232.821, 16134, 0, []
1627804122.9932, 69, 0, 4252.308, 4254.359, 4206.154, 4225.641, 4233.846, 450, 0, []
1627804123.0012, 70, 0, 4248.205, 4263.59, 4190.769, 4218.462, 4227.179, 293, 0, []
1627804123.0091, 71, 0, 4237.436, 4262.051, 4184.615, 4204.103, 4215.385, 450, 0, []
1627804123.0171, 72, 0, 4229.231, 4236.41, 4181.026, 4197.949, 4210.769, 450, 0, []
1627804123.025, 73, 0, 4237.949, 4232.821, 4183.59, 4203.077, 4218.974, 16159, 0, []
1627804123.033, 74, 0, 4237.436, 4259.487, 4187.692, 4206.667, 4218.462, 450, 0, []
1627804123.0408, 75, 0, 4218.974, 4253.333, 4173.333, 4191.795, 4197.436, 16196, 0, []
1627804123.0486, 76, 0, 4218.974, 4226.667, 4166.667, 4178.462, 4188.205, 450, 0, []
1627804123.0565, 77, 0, 4236.41, 4233.333, 4182.564, 4186.667, 4202.051, 450, 0, []
1627804123.0643, 78, 0, 4236.41, 4249.231, 4184.103, 4191.795, 4204.615, 450, 0, []
1627804123.0722, 79, 0, 4224.103, 4242.051, 4169.231, 4182.051, 4193.846, 16196, 0, []
1627804123.0799, 80, 0, 4228.718, 4242.051, 4176.41, 4191.282, 4206.154, 450, 0, []
1627804123.0878, 81, 0, 4241.026, 4261.538, 4195.897, 4208.205, 4219.487, 450, 0, []
1627804123.0956, 82, 0, 4230.256, 4266.154, 4185.128, 4200, 4204.103, 450, 0, []
1627804123.1035, 83, 0, 4217.436, 4256.41, 4180, 4194.872, 4194.872, 16196, 0, []
1627804123.1113, 84, 0, 4217.949, 4240, 4187.179, 4197.436, 4198.462, 450, 0, []
1627804123.1192, 85, 0, 4212.821, 4225.641, 4179.487, 4186.154, 4181.538, 450, 0, []
1627804123.1271, 86, 0, 4202.564, 4237.949, 4174.872, 4182.051, 4170.256, 450, 0, []
1627804123.1351, 87, 0, 4196.41, 4244.615, 4169.231, 4189.231, 4183.077, 16196, 0, []
1627804123.143, 88, 0, 4191.282, 4230.256, 4161.026, 4181.026, 4183.077, 450, 0, []
1627804123.151, 89, 0, 4194.872, 4241.026, 4168.205, 4176.41, 4181.026, 450, 0, []
1627804123.1588, 90, 0, 4219.487, 4255.897, 4183.59, 4203.59, 4210.769, 450, 0, []
1627804123.1668, 91, 0, 4230.769, 4229.744, 4186.667, 4216.41, 4225.128, 16196, 0, []
1627804123.1747, 92, 0, 4218.462, 4219.487, 4171.795, 4193.846, 4205.641, 450, 0, []
1627804123.1827, 93, 0, 4214.872, 4229.744, 4172.821, 4184.103, 4198.974, 450, 0, []
1627804123.1906, 94, 0, 4217.436, 4218.974, 4190.256, 4194.872, 4204.615, 450, 0, []
1627804123.1985, 95, 0, 4220, 4236.923, 4186.667, 4195.897, 4206.154, 16196, 0, []
1627804123.2064, 96, 0, 4221.026, 4266.154, 4173.333, 4189.231, 4203.077, 450, 0, []
1627804123.2142, 97, 0, 4211.282, 4240, 4171.282, 4189.231, 4194.359, 450, 0, []
1627804123.2221, 98, 0, 4200, 4203.59, 4171.282, 4191.795, 4187.179, 450, 0, []
1627804123.2299, 99, 0, 4193.846, 4214.872, 4163.59, 4188.718, 4187.179, 16196, 0, []
1627804123.2377, 100, 0, 4192.821, 4231.795, 4158.974, 4184.615, 4191.282, 450, 0, []
1627804123.2455, 101, 0, 4196.923, 4229.744, 4163.077, 4187.692, 4200, 450, 0, []
1627804123.2534, 102, 0, 4200.513, 4228.205, 4154.872, 4189.744, 4199.487, 450, 0, []
1627804123.2612, 103, 0, 4195.897, 4233.846, 4147.179, 4184.615, 4186.154, 16196, 0, []
1627804123.2691, 104, 0, 4193.333, 4236.41, 4156.923, 4183.077, 4185.641, 450, 0, []
1627804123.2768, 105, 0, 4208.718, 4236.41, 4169.231, 4195.385, 4210.256, 450, 0, []
1627804123.2848, 106, 0, 4224.615, 4232.308, 4184.615, 4208.718, 4229.231, 450, 0, []
1627804123.2927, 107, 0, 4224.103, 4231.795, 4195.897, 4210.256, 4228.205, 16196, 0, []
1627804123.3007, 108, 0, 4216.923, 4237.949, 4189.744, 4203.59, 4219.487, 450, 0, []
1627804123.3086, 109, 0, 4211.795, 4233.846, 4177.436, 4195.385, 4214.872, 450, 0, []
1627804123.3165, 110, 0, 4214.359, 4228.205, 4174.872, 4195.385, 4219.487, 450, 0, []
1627804123.3244, 111, 0, 4214.359, 4225.128, 4179.487, 4197.436, 4218.462, 16196, 0, []
1627804123.3324, 112, 0, 4203.077, 4209.744, 4172.821, 4187.692, 4201.026, 450, 0, []
1627804123.3403, 113, 0, 4200, 4207.692, 4159.487, 4181.538, 4191.795, 450, 0, []
1627804123.3483, 114, 0, 4213.846, 4234.872, 4165.641, 4191.282, 4206.154, 450, 0, []
1627804123.3561, 115, 0, 4217.949, 4248.205, 4179.487, 4200.513, 4220, 16196, 0, []
1627804123.3639, 116, 0, 4217.436, 4241.538, 4192.308, 4206.667, 4225.641, 450, 0, []
1627804123.3718, 117, 0, 4229.231, 4245.128, 4196.41, 4220.513, 4231.795, 450, 0, []
1627804123.3796, 118, 0, 4227.692, 4251.795, 4185.128, 4221.538, 4226.154, 450, 0, []
1627804123.3875, 119, 0, 4213.846, 4244.615, 4180, 4210.256, 4213.333, 16196, 0, []
1627804123.3952, 120, 0, 4211.282, 4216.41, 4170.256, 4196.923, 4203.59, 450, 0, []
1627804123.4031, 121, 0, 4216.923, 4213.846, 4164.103, 4186.154, 4201.026, 450, 0, []
1627804123.4109, 122, 0, 4215.897, 4235.385, 4164.615, 4184.615, 4204.103, 450, 0, []
1627804123.4188, 123, 0, 4205.128, 4217.949, 4150.769, 4186.154, 4197.436, 16196, 0, []
1627804123.4266, 124, 0, 4205.128, 4194.872, 4148.718, 4189.744, 4191.282, 450, 0, []
1627804123.4345, 125, 0, 4221.538, 4228.718, 4170.256, 4206.667, 4208.205, 450, 0, []
1627804123.4424, 126, 0, 4234.359, 4241.538, 4186.667, 4217.949, 4223.077, 450, 0, []
1627804123.4504, 127, 0, 4229.744, 4213.333, 4182.051, 4212.308, 4218.462, 16196, 0, []
1627804123.4583, 128, 0, 4221.026, 4216.923, 4167.692, 4200, 4216.41, 450, 0, []
1627804123.4663, 0, 0, 4215.385, 4216.41, 4165.128, 4190.256, 4213.333, 450, 0, []
1627804123.4741, 1, 0, 4213.846, 4205.641, 4166.667, 4188.718, 4203.59, 450, 0, []
1627804123.4821, 2, 0, 4216.923, 4225.641, 4163.077, 4197.949, 4198.462, 16185, 0, []
1627804123.49, 3, 0, 4217.436, 4232.821, 4171.282, 4204.103, 4200, 450, 0, []
1627804123.4979, 4, 0, 4217.949, 4226.667, 4178.974, 4194.872, 4201.026, 16129, 0, []
1627804123.5057, 5, 0, 4218.462, 4240, 4174.359, 4185.128, 4200.513, 450, 0, []
1627804123.5136, 6, 0, 4218.462, 4231.795, 4165.641, 4190.256, 4200, 312, 0, []
1627804123.5215, 7, 0, 4216.923, 4209.744, 4164.103, 4197.436, 4199.487, 450, 0, []
1627804123.5293, 8, 0, 4212.821, 4218.462, 4166.154, 4196.41, 4200.513, 450, 0, []
1627804123.5372, 9, 0, 4216.41, 4216.923, 4162.564, 4201.538, 4208.718, 16155, 0, []
1627804123.545, 10, 0, 4228.718, 4207.692, 4167.179, 4214.359, 4221.026, 450, 0, []
1627804123.5528, 11, 0, 4231.282, 4221.538, 4175.385, 4207.179, 4222.051, 16203, 0, []
1627804123.5606, 12, 0, 4220.513, 4212.308, 4165.641, 4185.128, 4208.205, 450, 0, []
1627804123.5685, 13, 0, 4209.231, 4198.974, 4156.923, 4177.436, 4197.436, 450, 0, []
1627804123.5763, 14, 0, 4209.231, 4229.231, 4166.667, 4195.385, 4198.462, 450, 0, []
1627804123.5843, 15, 0, 4216.41, 4240.513, 4189.231, 4218.462, 4204.615, 16203, 0, []
1627804123.5921, 16, 0, 4218.974, 4214.359, 4198.462, 4225.128, 4203.59, 0, 0, []
1627804123.6001, 17, 0, 4215.385, 4212.308, 4184.615, 4213.333, 4202.564, 0, 0, []
1627804123.608, 18, 0, 4211.795, 4218.974, 4176.41, 4195.897, 4209.744, 0, 0, []
1627804123.616, 19, 0, 4214.359, 4206.154, 4174.359, 4189.744, 4212.821, 0, 0, []
1627804123.6239, 20, 0, 4211.282, 4202.051, 4162.564, 4198.974, 4200, 0, 0, []
1627804123.6318, 21, 0, 4201.538, 4211.795, 4144.615, 4207.692, 4179.487, 0, 0, []
1627804123.6397, 22, 0, 4213.846, 4226.154, 4148.205, 4213.846, 4185.128, 0, 0, []
1627804123.6477, 23, 0, 4260.513, 4246.667, 4176.41, 4223.077, 4224.615, 0, 0, []
1627804123.6556, 24, 0, 4322.564, 4241.538, 4182.564, 4215.897, 4278.974, 0, 0, []
1627804123.6636, 25, 0, 4393.333, 4218.462, 4178.462, 4201.538, 4347.179, 0, 0, []
1627804123.6714, 26, 0, 4458.462, 4220.513, 4183.59, 4195.385, 4416.41, 0, 0, []
1627804123.6792, 27, 0, 4488.718, 4238.974, 4178.974, 4183.59, 4453.333, 0, 0, []
1627804123.6871, 28, 0, 4490.769, 4243.077, 4173.333, 4176.923, 4457.949, 0, 0, []
1627804123.6949, 29, 0, 4484.103, 4228.205, 4173.846, 4195.385, 4451.795, 0, 0, []
1627804123.7028, 30, 0, 4469.744, 4231.795, 4179.487, 4223.077, 4435.897, 0, 0, []
1627804123.7105, 31, 0, 4446.154, 4258.462, 4189.744, 4241.538, 4412.308, 0, 0, []
1627804123.7184, 32, 0, 4415.385, 4253.846, 4191.795, 4247.692, 4386.154, 0, 0, []
1627804123.7262, 33, 0, 4382.564, 4237.949, 4187.179, 4242.564, 4361.026, 0, 0, []
1627804123.7341, 34, 0, 4351.282, 4249.744, 4175.897, 4229.744, 4342.051, 0, 0, []
1627804123.7419, 35, 0, 4328.205, 4241.026, 4167.179, 4215.897, 4324.103, 0, 0, []
1627804123.7499, 36, 0, 4318.974, 4208.205, 4175.385, 4213.846, 4311.795, 0, 0, []
1627804123.7577, 37, 0, 4317.949, 4235.897, 4185.641, 4225.641, 4308.205, 0, 0, []
1627804123.7657, 38, 0, 4312.821, 4270.769, 4196.923, 4230.256, 4297.949, 0, 0, []
1627804123.7736, 39, 0, 4298.974, 4243.077, 4202.564, 4224.103, 4277.949, 0, 0, []
1627804123.7816, 40, 0, 4274.359, 4221.538, 4190.256, 4212.308, 4258.462, 0, 0, []
1627804123.7895, 41, 0, 4254.359, 4233.846, 4185.641, 4208.718, 4242.564, 0, 0, []
1627804123.7974, 42, 0, 4263.077, 4233.846, 4198.462, 4228.718, 4243.077, 0, 0, []
1627804123.8053, 43, 0, 4280, 4226.154, 4210.769, 4252.821, 4256.41, 0, 0, []
1627804123.8133, 44, 0, 4272.308, 4241.026, 4205.128, 4251.282, 4257.949, 0, 0, []
1627804123.8212, 45, 0, 4252.308, 4253.333, 4186.667, 4227.179, 4240, 0, 0, []
1627804123.829, 46, 0, 4239.487, 4235.385, 4174.872, 4205.641, 4221.538, 0, 0, []
1627804123.8368, 47, 0, 4237.436, 4213.333, 4170.769, 4200.513, 4216.41, 0, 0, []
1627804123.8446, 48, 0, 4243.59, 4218.974, 4176.923, 4203.59, 4222.051, 0, 0, []
1627804123.8525, 49, 0, 4243.59, 4244.103, 4177.949, 4202.051, 4219.487, 0, 0, []
1627804123.8603, 50, 0, 4237.436, 4241.026, 4171.795, 4205.128, 4216.923, 0, 0, []
1627804123.8682, 51, 0, 4233.846, 4211.282, 4173.846, 4216.41, 4223.077, 0, 0, []
1627804123.8759, 52, 0, 4227.692, 4204.103, 4165.128, 4214.359, 4223.077, 0, 0, []
1627804123.8838, 53, 0, 4220.513, 4222.564, 4153.846, 4205.641, 4219.487, 0, 0, []
1627804123.8916, 54, 0, 4213.846, 4218.974, 4157.949, 4200, 4215.385, 0, 0, []
1627804123.8996, 55, 0, 4207.179, 4200.513, 4166.154, 4191.282, 4201.538, 0, 0, []
1627804123.9075, 56, 0, 4211.282, 4221.538, 4182.051, 4197.949, 4197.436, 0, 0, []
1627804123.9154, 57, 0, 4216.41, 4250.769, 4195.385, 4211.795, 4200, 0, 0, []
1627804123.9233, 58, 0, 4203.59, 4230.769, 4190.769, 4203.077, 4187.179, 0, 0, []
1627804123.9313, 59, 0, 4193.846, 4210.769, 4186.154, 4202.564, 4184.615, 0, 0, []
1627804123.9392, 60, 0, 4207.179, 4232.821, 4192.308, 4220, 4202.564, 0, 0, []
1627804123.9472, 61, 0, 4200.513, 4245.128, 4190.769, 4210.256, 4190.256, 0, 0, []
1627804123.955, 62, 0, 4178.974, 4230.256, 4173.846, 4188.718, 4162.564, 0, 0, []
1627804123.963, 63, 0, 4191.795, 4228.718, 4171.795, 4197.949, 4174.359, 0, 0, []
1627804123.9709, 64, 0, 4206.154, 4232.308, 4186.154, 4212.821, 4190.769, 450, 0, []
1627804123.9787, 65, 0, 4181.538, 4232.308, 4184.615, 4203.077, 4168.718, 450, 0, []
1627804123.9866, 66, 0, 4169.231, 4238.974, 4174.872, 4182.051, 4146.154, 16184, 0, []
1627804123.9943, 67, 0, 4195.385, 4225.128, 4170.256, 4168.718, 4157.436, 450, 0, []
1627804124.0022, 68, 0, 4213.846, 4209.231, 4173.846, 4177.436, 4183.59, 16124, 0, []
1627804124.01, 69, 0, 4206.154, 4234.359, 4173.846, 4188.718, 4188.718, 450, 0, []
1627804124.0179, 70, 0, 4190.256, 4257.436, 4160, 4182.564, 4168.205, 314, 0, []
1627804124.0257, 71, 0, 4180.513, 4227.179, 4156.923, 4188.205, 4151.795, 450, 0, []
1627804124.0335, 72, 0, 4180.513, 4203.59, 4163.59, 4201.026, 4157.949, 450, 0, []
1627804124.0413, 73, 0, 4182.564, 4224.103, 4168.718, 4193.333, 4164.615, 16155, 0, []
1627804124.0492, 74, 0, 4182.051, 4236.923, 4178.462, 4182.051, 4164.103, 450, 0, []
1627804124.057, 75, 0, 4187.179, 4226.154, 4178.462, 4183.077, 4169.231, 16203, 0, []
1627804124.065, 76, 0, 4187.179, 4234.872, 4172.821, 4181.538, 4170.769, 450, 0, []
1627804124.0728, 77, 0, 4182.564, 4252.821, 4171.795, 4184.615, 4169.231, 450, 0, []
1627804124.0808, 78, 0, 4186.154, 4244.103, 4171.795, 4201.026, 4171.795, 450, 0, []
1627804124.0887, 79, 0, 4178.462, 4223.077, 4168.205, 4204.615, 4161.026, 16203, 0, []
1627804124.0967, 80, 0, 4152.821, 4207.692, 4155.897, 4187.179, 4134.872, 450, 0, []
1627804124.1046, 81, 0, 4148.205, 4203.077, 4157.949, 4178.974, 4130.256, 450, 0, []
1627804124.1125, 82, 0, 4173.846, 4211.795, 4173.846, 4191.282, 4155.385, 450, 0, []
1627804124.1204, 83, 0, 4190.256, 4226.667, 4177.949, 4203.077, 4174.359, 16203, 0, []
1627804124.1284, 84, 0, 4187.692, 4234.872, 4175.897, 4201.026, 4172.308, 450, 0, []
1627804124.1363, 85, 0, 4178.974, 4227.179, 4172.821, 4190.256, 4166.154, 450, 0, []
1627804124.1441, 86, 0, 4172.308, 4216.923, 4166.154, 4177.949, 4169.744, 450, 0, []
1627804124.1519, 87, 0, 4165.641, 4232.308, 4164.615, 4177.436, 4173.333, 16203, 0, []
1627804124.1597, 88, 0, 4155.897, 4258.462, 4172.821, 4180.513, 4155.897, 450, 0, []
1627804124.1676, 89, 0, 4147.692, 4236.41, 4175.897, 4176.41, 4136.41, 450, 0, []
1627804124.1754, 90, 0, 4151.282, 4194.872, 4160.513, 4176.41, 4144.615, 450, 0, []
1627804124.1833, 91, 0, 4156.923, 4206.154, 4153.846, 4178.974, 4156.41, 16203, 0, []
1627804124.191, 92, 0, 4157.436, 4243.077, 4166.154, 4174.872, 4153.333, 450, 0, []
1627804124.1989, 93, 0, 4158.974, 4240, 4165.641, 4172.308, 4153.333, 450, 0, []
1627804124.2067, 94, 0, 4154.359, 4213.846, 4158.462, 4165.128, 4145.641, 450, 0, []
1627804124.2147, 95, 0, 4155.385, 4219.487, 4158.974, 4153.846, 4136.41, 16203, 0, []
1627804124.2226, 96, 0, 4172.308, 4235.897, 4165.128, 4158.462, 4149.231, 450, 0, []
1627804124.2305, 97, 0, 4169.744, 4223.077, 4164.103, 4163.59, 4155.385, 450, 0, []
1627804124.2384, 98, 0, 4147.692, 4207.179, 4157.436, 4151.282, 4143.59, 450, 0, []
1627804124.2464, 99, 0, 4153.333, 4218.462, 4164.103, 4155.897, 4148.205, 16203, 0, []
1627804124.2543, 100, 0, 4169.744, 4226.154, 4167.692, 4173.846, 4158.974, 450, 0, []
1627804124.2623, 101, 0, 4159.487, 4212.821, 4167.692, 4167.179, 4152.308, 450, 0, []
1627804124.2701, 102, 0, 4148.205, 4221.026, 4177.949, 4151.282, 4141.026, 450, 0, []
1627804124.2779, 103, 0, 4152.821, 4233.846, 4170.769, 4157.436, 4139.487, 16203, 0, []
1627804124.2858, 104, 0, 4151.795, 4216.41, 4147.692, 4168.718, 4143.59, 450, 0, []
1627804124.2936, 105, 0, 4149.231, 4210.769, 4140, 4171.282, 4150.256, 450, 0, []
1627804124.3015, 106, 0, 4166.667, 4228.205, 4154.359, 4181.026, 4165.128, 450, 0, []
1627804124.3092, 107, 0, 4185.128, 4236.923, 4166.667, 4191.282, 4177.949, 16203, 0, []
1627804124.3171, 108, 0, 4177.949, 4238.974, 4164.615, 4182.051, 4169.231, 450, 0, []
1627804124.3249, 109, 0, 4166.154, 4244.615, 4172.308, 4169.744, 4156.41, 450, 0, []
1627804124.3328, 110, 0, 4165.128, 4237.436, 4176.923, 4168.718, 4150.256, 450, 0, []
1627804124.3406, 111, 0, 4169.744, 4227.179, 4168.718, 4169.744, 4145.128, 16203, 0, []
1627804124.3484, 112, 0, 4174.359, 4235.385, 4170.256, 4177.436, 4149.231, 450, 0, []
1627804124.3562, 113, 0, 4177.436, 4252.308, 4171.795, 4178.974, 4152.821, 450, 0, []
1627804124.3641, 114, 0, 4169.231, 4240.513, 4163.59, 4161.538, 4140, 450, 0, []
1627804124.3719, 115, 0, 4156.41, 4197.436, 4151.282, 4147.692, 4127.692, 16203, 0, []
1627804124.3799, 116, 0, 4151.282, 4196.923, 4141.538, 4148.205, 4126.154, 450, 0, []
1627804124.3877, 117, 0, 4148.718, 4238.974, 4149.744, 4148.718, 4126.154, 450, 0, []
1627804124.3957, 118, 0, 4149.231, 4228.718, 4163.077, 4156.923, 4126.154, 450, 0, []
1627804124.4036, 119, 0, 4151.795, 4200, 4166.154, 4170.256, 4125.641, 16203, 0, []
1627804124.4116, 120, 0, 4147.179, 4213.333, 4161.538, 4168.205, 4120, 450, 0, []
1627804124.4195, 121, 0, 4151.282, 4231.795, 4167.179, 4172.308, 4131.282, 450, 0, []
1627804124.4274, 122, 0, 4168.718, 4231.282, 4188.205, 4193.846, 4156.923, 450, 0, []
1627804124.4353, 123, 0, 4174.359, 4228.205, 4184.103, 4193.846, 4159.487, 16203, 0, []
1627804124.4431, 124, 0, 4167.692, 4227.692, 4162.564, 4180.513, 4142.051, 450, 0, []
1627804124.451, 125, 0, 4167.692, 4234.872, 4163.59, 4187.179, 4140, 450, 0, []
1627804124.4588, 126, 0, 4171.282, 4235.385, 4169.231, 4200.513, 4153.333, 450, 0, []
1627804124.4666, 127, 0, 4177.949, 4215.385, 4167.692, 4217.436, 4162.564, 16203, 0, []
1627804124.4744, 128, 0, 4185.641, 4209.744, 4165.128, 4244.615, 4167.692, 450, 0, []
1627804124.4823, 0, 0, 4187.179, 4219.487, 4167.692, 4265.641, 4168.205, 450, 0, []
1627804124.4901, 1, 0, 4184.615, 4217.436, 4173.333, 4278.974, 4164.615, 450, 0, []
1627804124.498, 2, 0, 4179.487, 4220, 4172.821, 4295.385, 4162.564, 16184, 0, []
1627804124.506, 3, 0, 4169.231, 4225.641, 4166.667, 4299.487, 4150.256, 450, 0, []
1627804124.5138, 4, 0, 4163.59, 4212.308, 4156.923, 4289.744, 4131.282, 16128, 0, []
1627804124.5216, 5, 0, 4171.282, 4214.872, 4160.513, 4294.872, 4134.872, 450, 0, []
1627804124.5296, 6, 0, 4181.538, 4241.538, 4174.872, 4309.231, 4158.462, 309, 0, []
1627804124.5375, 7, 0, 4185.641, 4237.436, 4170.769, 4312.821, 4173.333, 450, 0, []
1627804124.5455, 8, 0, 4185.128, 4215.385, 4166.667, 4311.795, 4173.333, 450, 0, []
1627804124.5533, 9, 0, 4182.051, 4228.718, 4174.359, 4315.385, 4168.205, 16155, 0, []
1627804124.5613, 10, 0, 4182.051, 4241.026, 4176.923, 4322.051, 4167.692, 450, 0, []
1627804124.5692, 11, 0, 4192.821, 4217.436, 4181.538, 4326.154, 4177.949, 16200, 0, []
1627804124.5772, 12, 0, 4204.103, 4217.949, 4186.667, 4329.744, 4183.077, 450, 0, []
1627804124.5851, 13, 0, 4203.59, 4228.718, 4181.538, 4328.205, 4176.41, 450, 0, []
1627804124.593, 14, 0, 4204.103, 4213.333, 4175.897, 4317.949, 4178.462, 450, 0, []
1627804124.6009, 15, 0, 4208.205, 4224.103, 4177.949, 4313.846, 4188.718, 16200, 0, []
1627804124.6089, 16, 0, 4206.154, 4227.692, 4180.513, 4320, 4190.256, 0, 0, []
1627804124.6168, 17, 0, 4195.897, 4201.026, 4173.846, 4321.026, 4186.667, 0, 0, []
1627804124.6246, 18, 0, 4185.128, 4202.564, 4165.128, 4311.282, 4184.615, 0, 0, []
1627804124.6324, 19, 0, 4190.769, 4226.667, 4161.538, 4308.205, 4184.615, 0, 0, []
1627804124.6402, 20, 0, 4206.154, 4227.179, 4168.205, 4313.846, 4187.692, 0, 0, []
1627804124.6481, 21, 0, 4205.641, 4225.128, 4176.923, 4310.769, 4184.615, 0, 0, []
1627804124.6559, 22, 0, 4195.385, 4221.538, 4170.769, 4308.718, 4178.974, 0, 0, []
1627804124.6639, 23, 0, 4196.923, 4194.872, 4173.333, 4317.949, 4185.641, 0, 0, []
1627804124.6717, 24, 0, 4205.128, 4194.359, 4185.641, 4330.769, 4201.026, 0, 0, []
1627804124.6797, 25, 0, 4206.154, 4220.513, 4182.051, 4328.718, 4204.103, 0, 0, []
1627804124.6876, 26, 0, 4193.333, 4223.59, 4176.923, 4312.821, 4191.795, 0, 0, []
1627804124.6956, 27, 0, 4179.487, 4209.744, 4167.179, 4306.154, 4182.051, 0, 0, []
1627804124.7035, 28, 0, 4181.538, 4212.308, 4158.974, 4310.769, 4184.615, 0, 0, []
1627804124.7114, 29, 0, 4187.179, 4226.667, 4165.128, 4307.692, 4186.667, 0, 0, []
1627804124.7193, 30, 0, 4178.462, 4209.231, 4165.641, 4294.872, 4179.487, 0, 0, []
1627804124.7273, 31, 0, 4175.897, 4204.615, 4170.256, 4291.795, 4174.872, 0, 0, []
1627804124.7352, 32, 0, 4194.359, 4228.718, 4177.949, 4294.872, 4185.128, 0, 0, []
1627804124.743, 33, 0, 4223.077, 4220, 4174.359, 4293.846, 4208.718, 0, 0, []
1627804124.7508, 34, 0, 4267.179, 4201.538, 4174.359, 4295.385, 4245.128, 0, 0, []
1627804124.7586, 35, 0, 4335.385, 4214.359, 4177.949, 4297.436, 4303.077, 0, 0, []
1627804124.7665, 36, 0, 4400, 4223.59, 4177.949, 4294.872, 4364.615, 0, 0, []
1627804124.7743, 37, 0, 4432.308, 4218.462, 4177.436, 4294.872, 4397.436, 0, 0, []
1627804124.7822, 38, 0, 4443.077, 4225.128, 4178.974, 4298.974, 4411.282, 0, 0, []
1627804124.7899, 39, 0, 4434.359, 4225.641, 4171.795, 4290.256, 4409.231, 0, 0, []
1627804124.7978, 40, 0, 4411.282, 4223.59, 4160.513, 4280.513, 4391.795, 0, 0, []
1627804124.8056, 41, 0, 4397.436, 4220, 4168.205, 4284.103, 4380, 0, 0, []
1627804124.8136, 42, 0, 4380, 4201.026, 4174.872, 4285.128, 4359.487, 0, 0, []
1627804124.8215, 43, 0, 4347.692, 4206.667, 4163.077, 4274.872, 4317.436, 0, 0, []
1627804124.8294, 44, 0, 4321.538, 4225.641, 4157.436, 4264.103, 4288.718, 0, 0, []
1627804124.8373, 45, 0, 4303.077, 4202.564, 4161.026, 4260, 4279.487, 0, 0, []
1627804124.8453, 46, 0, 4283.59, 4185.641, 4166.154, 4261.026, 4266.154, 0, 0, []
1627804124.8532, 47, 0, 4271.282, 4209.744, 4165.641, 4263.077, 4255.897, 0, 0, []
1627804124.8612, 48, 0, 4262.051, 4221.538, 4164.615, 4264.103, 4254.872, 0, 0, []
1627804124.869, 49, 0, 4257.949, 4215.385, 4178.462, 4276.923, 4261.538, 0, 0, []
1627804124.877, 50, 0, 4269.231, 4214.359, 4188.205, 4294.872, 4272.821, 0, 0, []
1627804124.8849, 51, 0, 4270.256, 4216.923, 4187.179, 4291.795, 4267.692, 0, 0, []
1627804124.8929, 52, 0, 4250.256, 4219.487, 4182.564, 4273.846, 4245.128, 0, 0, []
1627804124.9008, 53, 0, 4236.41, 4214.359, 4178.462, 4257.436, 4229.744, 0, 0, []
1627804124.9085, 54, 0, 4233.846, 4215.897, 4185.641, 4254.359, 4229.231, 0, 0, []
1627804124.9164, 55, 0, 4233.846, 4233.846, 4188.205, 4263.077, 4230.769, 0, 0, []
1627804124.9242, 56, 0, 4229.231, 4219.487, 4178.462, 4262.564, 4223.59, 0, 0, []
1627804124.9321, 57, 0, 4217.949, 4192.308, 4170.769, 4247.179, 4214.359, 0, 0, []
1627804124.9399, 58, 0, 4215.385, 4209.744, 4170.256, 4242.051, 4215.385, 0, 0, []
1627804124.9477, 59, 0, 4221.026, 4221.538, 4169.744, 4247.179, 4220.513, 0, 0, []
1627804124.9555, 60, 0, 4218.462, 4208.205, 4167.692, 4247.179, 4218.462, 0, 0, []
1627804124.9634, 61, 0, 4211.795, 4207.179, 4175.897, 4246.667, 4208.718, 0, 0, []
1627804124.9712, 62, 0, 4211.795, 4207.179, 4181.538, 4248.205, 4202.051, 0, 0, []
1627804124.9791, 63, 0, 4203.59, 4203.59, 4176.41, 4244.615, 4200, 0, 0, []
1627804124.9868, 64, 0, 4185.641, 4207.692, 4183.59, 4236.923, 4185.128, 450, 0, []
1627804124.9948, 65, 0, 4178.462, 4213.846, 4188.718, 4232.821, 4167.692, 450, 0, []
1627804125.0027, 66, 0, 4180.513, 4225.128, 4175.897, 4230.769, 4164.615, 16187, 0, []
1627804125.0107, 67, 0, 4171.795, 4231.282, 4169.231, 4232.308, 4158.462, 450, 0, []
1627804125.0186, 68, 0, 4163.59, 4222.051, 4171.282, 4235.897, 4148.718, 16140, 0, []
1627804125.0265, 69, 0, 4176.923, 4230.256, 4172.308, 4236.41, 4154.359, 450, 0, []
1627804125.0344, 70, 0, 4185.128, 4238.974, 4173.333, 4228.205, 4160, 308, 0, []
1627804125.0424, 71, 0, 4173.846, 4212.821, 4182.564, 4224.103, 4153.333, 450, 0, []
1627804125.0503, 72, 0, 4168.718, 4196.41, 4191.282, 4231.795, 4153.333, 450, 0, []
1627804125.0583, 73, 0, 4168.205, 4208.718, 4182.564, 4233.846, 4155.385, 16156, 0, []
1627804125.0661, 74, 0, 4160.513, 4204.615, 4174.359, 4221.026, 4142.564, 450, 0, []
1627804125.0739, 75, 0, 4152.308, 4197.436, 4171.282, 4210.769, 4131.795, 16196, 0, []
1627804125.0818, 76, 0, 4154.872, 4214.359, 4170.256, 4214.359, 4137.949, 450, 0, []
1627804125.0896, 77, 0, 4152.308, 4222.051, 4170.256, 4212.308, 4140, 450, 0, []
1627804125.0975, 78, 0, 4151.282, 4216.41, 4169.231, 4209.744, 4135.385, 450, 0, []
1627804125.1052, 79, 0, 4150.769, 4231.282, 4176.923, 4211.282, 4135.897, 16196, 0, []
1627804125.1131, 80, 0, 4141.538, 4242.051, 4175.897, 4207.692, 4135.385, 450, 0, []
1627804125.1209, 81, 0, 4142.564, 4209.231, 4164.615, 4208.205, 4138.974, 450, 0, []
1627804125.1288, 82, 0, 4154.872, 4194.872, 4174.359, 4221.538, 4151.282, 450, 0, []
1627804125.1366, 83, 0, 4162.051, 4221.538, 4187.692, 4232.821, 4156.923, 16196, 0, []
1627804125.1445, 84, 0, 4166.667, 4232.821, 4186.667, 4238.462, 4153.333, 450, 0, []
1627804125.1524, 85, 0, 4171.282, 4232.308, 4187.179, 4244.615, 4154.872, 450, 0, []
1627804125.1604, 86, 0, 4170.769, 4223.077, 4186.667, 4236.923, 4155.385, 450, 0, []
1627804125.1683, 87, 0, 4168.205, 4204.615, 4182.564, 4218.974, 4145.128, 16196, 0, []
1627804125.1763, 88, 0, 4161.538, 4206.667, 4178.974, 4205.128, 4136.923, 450, 0, []
1627804125.1841, 89, 0, 4152.308, 4220, 4183.59, 4200, 4137.436, 450, 0, []
1627804125.1921, 90, 0, 4153.333, 4215.385, 4187.692, 4206.154, 4138.974, 450, 0, []
1627804125.2, 91, 0, 4158.462, 4204.615, 4180, 4213.846, 4141.026, 16196, 0, []
1627804125.208, 92, 0, 4167.179, 4206.154, 4178.462, 4219.487, 4150.769, 450, 0, []
1627804125.2159, 93, 0, 4167.692, 4202.051, 4178.974, 4217.436, 4155.897, 450, 0, []
1627804125.2236, 94, 0, 4153.333, 4213.846, 4174.359, 4204.615, 4145.128, 450, 0, []
1627804125.2315, 95, 0, 4149.231, 4230.769, 4170.769, 4195.897, 4138.974, 16196, 0, []
1627804125.2393, 96, 0, 4170.256, 4218.974, 4167.692, 4200.513, 4153.846, 450, 0, []
1627804125.2472, 97, 0, 4181.538, 4200.513, 4175.897, 4209.231, 4164.615, 450, 0, []
1627804125.255, 98, 0, 4166.667, 4207.179, 4183.59, 4214.359, 4153.333, 450, 0, []
1627804125.2629, 99, 0, 4174.872, 4230.769, 4180, 4218.974, 4161.026, 16196, 0, []
1627804125.2706, 100, 0, 4220, 4230.256, 4179.487, 4220, 4206.154, 450, 0, []
1627804125.2785, 101, 0, 4254.359, 4226.667, 4181.538, 4218.974, 4241.538, 450, 0, []
1627804125.2863, 102, 0, 4251.282, 4233.333, 4188.205, 4213.846, 4239.487, 450, 0, []
1627804125.2942, 103, 0, 4230.256, 4215.897, 4185.641, 4205.128, 4220, 16196, 0, []
1627804125.302, 104, 0, 4207.179, 4193.846, 4167.179, 4198.462, 4200, 450, 0, []
1627804125.3099, 105, 0, 4184.615, 4195.897, 4153.333, 4188.718, 4180.513, 450, 0, []
1627804125.3178, 106, 0, 4177.436, 4201.026, 4156.41, 4184.103, 4173.846, 450, 0, []
1627804125.3258, 107, 0, 4191.282, 4204.615, 4172.821, 4195.897, 4182.564, 16196, 0, []
1627804125.3337, 108, 0, 4199.487, 4231.282, 4173.846, 4203.077, 4187.179, 450, 0, []
1627804125.3417, 109, 0, 4187.692, 4238.462, 4163.59, 4190.256, 4180.513, 450, 0, []
1627804125.3495, 110, 0, 4182.564, 4214.872, 4169.231, 4183.077, 4176.41, 450, 0, []
1627804125.3575, 111, 0, 4200, 4214.872, 4180.513, 4196.41, 4187.179, 16196, 0, []
1627804125.3654, 112, 0, 4205.128, 4218.974, 4186.154, 4202.051, 4197.436, 450, 0, []
1627804125.3732, 113, 0, 4186.154, 4195.385, 4180.513, 4190.769, 4188.718, 450, 0, []
1627804125.3811, 114, 0, 4184.103, 4209.231, 4177.436, 4189.231, 4185.641, 450, 0, []
1627804125.3889, 115, 0, 4206.154, 4251.282, 4189.231, 4203.59, 4208.205, 16196, 0, []
1627804125.3968, 116, 0, 4214.359, 4240, 4189.231, 4208.205, 4222.051, 450, 0, []
1627804125.4046, 117, 0, 4203.077, 4203.077, 4172.821, 4195.897, 4203.077, 450, 0, []
1627804125.4125, 118, 0, 4192.308, 4202.564, 4161.538, 4184.615, 4183.59, 450, 0, []
1627804125.4203, 119, 0, 4185.641, 4210.256, 4161.026, 4180.513, 4180.513, 16196, 0, []
1627804125.4281, 120, 0, 4188.205, 4197.949, 4174.872, 4187.179, 4180.513, 450, 0, []
1627804125.4359, 121, 0, 4203.077, 4199.487, 4185.128, 4200, 4189.744, 450, 0, []
1627804125.4438, 122, 0, 4205.641, 4222.564, 4182.051, 4201.026, 4200, 450, 0, []
1627804125.4516, 123, 0, 4195.385, 4216.923, 4174.359, 4189.744, 4195.385, 16196, 0, []
1627804125.4596, 124, 0, 4202.564, 4193.846, 4171.282, 4183.077, 4192.821, 450, 0, []
1627804125.4674, 125, 0, 4224.615, 4210.769, 4176.923, 4190.769, 4204.103, 450, 0, []
1627804125.4754, 126, 0, 4234.872, 4220.513, 4181.026, 4201.026, 4216.41, 450, 0, []
1627804125.4833, 127, 0, 4237.436, 4196.41, 4182.564, 4205.128, 4222.051, 16196, 0, []
1627804125.4913, 128, 0, 4244.103, 4203.077, 4175.897, 4205.128, 4226.667, 450, 0, []
1627804125.4992, 0, 0, 4256.923, 4219.487, 4158.974, 4203.077, 4233.333, 450, 0, []
1627804125.5071, 1, 0, 4274.359, 4206.667, 4157.949, 4204.615, 4247.692, 450, 0, []
1627804125.515, 2, 0, 4297.436, 4211.282, 4165.641, 4207.692, 4271.795, 16181, 0, []
1627804125.523, 3, 0, 4327.179, 4228.205, 4167.179, 4209.231, 4303.59, 450, 0, []
1627804125.5309, 4, 0, 4361.538, 4217.949, 4174.872, 4210.256, 4336.923, 16140, 0, []
1627804125.5389, 5, 0, 4400, 4221.026, 4180.513, 4210.769, 4373.846, 450, 0, []
1627804125.5467, 6, 0, 4445.128, 4241.538, 4176.41, 4210.769, 4420.513, 303, 0, []
1627804125.5545, 7, 0, 4481.538, 4221.026, 4168.205, 4211.795, 4460.513, 450, 0, []
1627804125.5624, 8, 0, 4502.051, 4197.949, 4172.821, 4214.872, 4477.949, 450, 0, []
1627804125.5702, 9, 0, 4516.41, 4230.256, 4189.744, 4218.462, 4487.692, 16157, 0, []
1627804125.5781, 10, 0, 4505.641, 4240.513, 4185.128, 4216.41, 4480.513, 450, 0, []
1627804125.5858, 11, 0, 4464.615, 4203.077, 4168.205, 4213.846, 4452.308, 16196, 0, []
1627804125.5937, 12, 0, 4435.385, 4211.795, 4170.256, 4219.487, 4432.308, 450, 0, []
1627804125.6015, 13, 0, 4417.949, 4247.692, 4181.538, 4217.949, 4412.821, 450, 0, []
1627804125.6095, 14, 0, 4383.59, 4232.308, 4185.128, 4202.051, 4374.359, 450, 0, []
1627804125.6174, 15, 0, 4348.205, 4197.949, 4173.846, 4195.385, 4337.949, 16196, 0, []
1627804125.6253, 16, 0, 4329.231, 4205.641, 4168.205, 4197.949, 4316.41, 0, 0, []
1627804125.6332, 17, 0, 4301.538, 4234.872, 4168.205, 4189.744, 4291.795, 0, 0, []
1627804125.6412, 18, 0, 4271.795, 4228.205, 4161.026, 4176.923, 4267.692, 0, 0, []
1627804125.6491, 19, 0, 4269.231, 4195.385, 4163.077, 4187.692, 4266.667, 0, 0, []
1627804125.6571, 20, 0, 4275.385, 4204.103, 4169.231, 4212.821, 4271.795, 0, 0, []
1627804125.6649, 21, 0, 4265.128, 4236.923, 4178.974, 4216.41, 4258.462, 0, 0, []
1627804125.6729, 22, 0, 4255.385, 4227.179, 4188.718, 4202.564, 4246.667, 0, 0, []
1627804125.6808, 23, 0, 4252.308, 4212.308, 4183.077, 4198.462, 4245.641, 0, 0, []
1627804125.6888, 24, 0, 4238.974, 4223.59, 4178.974, 4200.513, 4233.333, 0, 0, []
1627804125.6967, 25, 0, 4231.282, 4233.333, 4186.154, 4200.513, 4225.128, 0, 0, []
1627804125.7044, 26, 0, 4236.923, 4243.077, 4193.846, 4206.154, 4233.333, 0, 0, []
1627804125.7123, 27, 0, 4229.231, 4252.821, 4191.282, 4204.103, 4228.205, 0, 0, []
1627804125.7201, 28, 0, 4214.359, 4240.513, 4184.103, 4188.718, 4209.231, 0, 0, []
1627804125.728, 29, 0, 4210.256, 4223.59, 4184.615, 4185.128, 4198.462, 0, 0, []
1627804125.7358, 30, 0, 4214.872, 4214.359, 4181.538, 4197.949, 4198.462, 0, 0, []
1627804125.7436, 31, 0, 4218.462, 4207.692, 4177.949, 4204.103, 4202.051, 0, 0, []
1627804125.7514, 32, 0, 4217.949, 4234.359, 4181.026, 4199.487, 4204.103, 0, 0, []
1627804125.7593, 33, 0, 4215.385, 4256.923, 4178.462, 4196.923, 4198.974, 0, 0, []
1627804125.7671, 34, 0, 4205.641, 4222.051, 4169.744, 4191.282, 4187.179, 0, 0, []
1627804125.7751, 35, 0, 4197.949, 4201.026, 4162.051, 4181.538, 4182.051, 0, 0, []
1627804125.7829, 36, 0, 4204.103, 4220, 4172.308, 4185.641, 4183.59, 0, 0, []
1627804125.7909, 37, 0, 4197.949, 4209.744, 4185.128, 4187.692, 4173.846, 0, 0, []
1627804125.7988, 38, 0, 4180.513, 4197.949, 4172.308, 4173.846, 4159.487, 0, 0, []
1627804125.8068, 39, 0, 4191.282, 4228.205, 4169.744, 4175.385, 4168.718, 0, 0, []
1627804125.8147, 40, 0, 4203.59, 4236.41, 4178.974, 4188.205, 4181.538, 0, 0, []
1627804125.8226, 41, 0, 4189.231, 4218.462, 4180, 4182.051, 4173.333, 0, 0, []
1627804125.8305, 42, 0, 4183.077, 4214.359, 4182.051, 4175.385, 4167.692, 0, 0, []
1627804125.8385, 43, 0, 4186.667, 4208.205, 4173.333, 4174.872, 4168.718, 0, 0, []
1627804125.8464, 44, 0, 4176.41, 4206.667, 4161.538, 4164.103, 4162.051, 0, 0, []
1627804125.8542, 45, 0, 4170.256, 4221.026, 4166.667, 4160.513, 4154.872, 0, 0, []
1627804125.862, 46, 0, 4176.923, 4218.462, 4180.513, 4171.282, 4159.487, 0, 0, []
1627804125.8698, 47, 0, 4180.513, 4205.128, 4188.205, 4173.846, 4164.615, 0, 0, []
1627804125.8777, 48, 0, 4184.103, 4220.513, 4183.59, 4170.769, 4166.154, 0, 0, []
1627804125.8855, 49, 0, 4189.231, 4243.59, 4182.564, 4174.872, 4165.641, 0, 0, []
1627804125.8934, 50, 0, 4183.077, 4239.487, 4182.051, 4174.872, 4157.436, 0, 0, []
1627804125.9011, 51, 0, 4170.769, 4208.718, 4171.795, 4170.256, 4151.282, 0, 0, []
1627804125.909, 52, 0, 4168.205, 4188.205, 4168.205, 4169.231, 4152.821, 0, 0, []
1627804125.9168, 53, 0, 4167.179, 4211.282, 4174.872, 4171.795, 4155.385, 0, 0, []
1627804125.9248, 54, 0, 4161.026, 4229.744, 4178.462, 4169.744, 4152.308, 0, 0, []
1627804125.9327, 55, 0, 4161.538, 4202.051, 4166.667, 4168.205, 4150.769, 0, 0, []
1627804125.9406, 56, 0, 4171.795, 4195.385, 4157.949, 4174.872, 4157.949, 0, 0, []
1627804125.9485, 57, 0, 4171.795, 4222.564, 4173.333, 4178.462, 4158.974, 0, 0, []
1627804125.9565, 58, 0, 4166.667, 4207.179, 4178.462, 4175.385, 4156.41, 0, 0, []
1627804125.9644, 59, 0, 4162.051, 4185.128, 4167.179, 4167.692, 4148.205, 0, 0, []
1627804125.9724, 60, 0, 4150.256, 4208.205, 4169.744, 4162.051, 4133.846, 0, 0, []
1627804125.9802, 61, 0, 4163.077, 4226.667, 4181.026, 4168.718, 4144.103, 0, 0, []
1627804125.9882, 62, 0, 4184.103, 4224.615, 4185.641, 4176.41, 4163.077, 0, 0, []
1627804125.9961, 63, 0, 4172.821, 4227.179, 4181.026, 4171.282, 4154.359, 0, 0, []
1627804126.0039, 64, 0, 4162.051, 4230.256, 4181.026, 4167.179, 4149.744, 450, 0, []
1627804126.0118, 65, 0, 4161.026, 4230.769, 4176.41, 4170.256, 4153.333, 450, 0, []
1627804126.0196, 66, 0, 4137.436, 4232.308, 4161.538, 4166.667, 4131.795, 16186, 0, []
1627804126.0274, 67, 0, 4121.026, 4222.564, 4165.128, 4166.667, 4113.846, 450, 0, []
1627804126.0352, 68, 0, 4132.821, 4205.128, 4169.744, 4174.359, 4122.564, 16131, 0, []
1627804126.0431, 69, 0, 4137.949, 4218.974, 4165.641, 4178.462, 4130.256, 450, 0, []
1627804126.0509, 70, 0, 4137.436, 4245.128, 4180, 4184.103, 4133.846, 308, 0, []
1627804126.0588, 71, 0, 4146.154, 4242.564, 4190.769, 4190.256, 4142.051, 450, 0, []
1627804126.0665, 72, 0, 4143.59, 4225.128, 4180, 4182.564, 4136.923, 450, 0, []
1627804126.0745, 73, 0, 4135.385, 4227.692, 4172.308, 4171.795, 4125.128, 16157, 0, []
1627804126.0824, 74, 0, 4138.462, 4236.923, 4176.41, 4171.795, 4127.179, 450, 0, []
1627804126.0904, 75, 0, 4142.051, 4230.256, 4176.923, 4173.846, 4137.949, 16196, 0, []
1627804126.0983, 76, 0, 4134.872, 4220.513, 4163.077, 4169.744, 4135.897, 450, 0, []
1627804126.1062, 77, 0, 4121.538, 4223.59, 4156.41, 4162.051, 4121.538, 450, 0, []
1627804126.1141, 78, 0, 4117.436, 4238.462, 4164.615, 4159.487, 4117.436, 450, 0, []
1627804126.1221, 79, 0, 4122.564, 4231.282, 4172.821, 4157.949, 4121.538, 16196, 0, []
1627804126.13, 80, 0, 4122.051, 4218.462, 4176.923, 4154.872, 4121.026, 450, 0, []
1627804126.138, 81, 0, 4118.974, 4231.282, 4172.821, 4156.41, 4120, 450, 0, []
1627804126.1458, 82, 0, 4120.513, 4220.513, 4173.333, 4166.154, 4120, 450, 0, []
1627804126.1538, 83, 0, 4126.154, 4197.436, 4178.974, 4172.821, 4124.103, 16196, 0, []
1627804126.1617, 84, 0, 4125.641, 4225.128, 4180, 4169.231, 4128.205, 450, 0, []
1627804126.1695, 85, 0, 4120.513, 4253.333, 4182.564, 4173.846, 4132.308, 450, 0, []
1627804126.1774, 86, 0, 4123.077, 4223.59, 4181.026, 4186.154, 4135.897, 450, 0, []
1627804126.1851, 87, 0, 4125.128, 4199.487, 4174.872, 4177.436, 4132.821, 16196, 0, []
1627804126.193, 88, 0, 4109.744, 4217.436, 4162.564, 4154.359, 4121.538, 450, 0, []
1627804126.2008, 89, 0, 4103.077, 4231.795, 4160, 4155.897, 4118.462, 450, 0, []
1627804126.2087, 90, 0, 4119.487, 4213.333, 4177.949, 4167.692, 4123.59, 450, 0, []
1627804126.2165, 91, 0, 4126.154, 4193.846, 4181.026, 4162.051, 4121.026, 16196, 0, []
1627804126.2243, 92, 0, 4120.513, 4216.41, 4170.769, 4162.051, 4119.487, 450, 0, []
1627804126.2321, 93, 0, 4123.077, 4239.487, 4171.282, 4173.846, 4123.59, 450, 0, []
1627804126.2401, 94, 0, 4123.59, 4207.179, 4169.744, 4168.205, 4123.077, 450, 0, []
1627804126.248, 95, 0, 4113.333, 4183.077, 4166.667, 4152.821, 4123.59, 16196, 0, []
1627804126.256, 96, 0, 4105.641, 4212.308, 4165.641, 4143.59, 4119.487, 450, 0, []
1627804126.2638, 97, 0, 4106.667, 4216.41, 4158.462, 4126.667, 4105.641, 450, 0, []
1627804126.2718, 98, 0, 4121.026, 4212.308, 4157.949, 4122.564, 4107.179, 450, 0, []
1627804126.2797, 99, 0, 4138.974, 4237.949, 4169.231, 4150.256, 4126.154, 16196, 0, []
1627804126.2877, 100, 0, 4138.974, 4232.308, 4177.436, 4175.385, 4129.231, 450, 0, []
1627804126.2956, 101, 0, 4131.282, 4210.256, 4173.333, 4173.846, 4124.615, 450, 0, []
1627804126.3035, 102, 0, 4140.513, 4231.282, 4176.41, 4171.282, 4136.41, 450, 0, []
1627804126.3114, 103, 0, 4152.821, 4246.667, 4187.692, 4176.41, 4149.231, 16196, 0, []
1627804126.3192, 104, 0, 4142.564, 4203.59, 4170.769, 4158.462, 4140.513, 450, 0, []
1627804126.3271, 105, 0, 4136.41, 4188.205, 4155.385, 4138.974, 4134.359, 450, 0, []
1627804126.3349, 106, 0, 4155.385, 4233.846, 4173.333, 4155.385, 4152.308, 450, 0, []
1627804126.3427, 107, 0, 4163.59, 4250.256, 4187.179, 4178.462, 4162.564, 16196, 0, []
1627804126.3505, 108, 0, 4142.564, 4223.59, 4175.897, 4169.744, 4144.615, 450, 0, []
1627804126.3584, 109, 0, 4129.744, 4230.769, 4169.744, 4156.41, 4128.718, 450, 0, []
1627804126.3662, 110, 0, 4138.974, 4258.462, 4186.667, 4166.667, 4138.462, 450, 0, []
1627804126.3741, 111, 0, 4143.59, 4232.308, 4187.692, 4170.256, 4149.744, 16196, 0, []
1627804126.3818, 112, 0, 4138.462, 4203.59, 4176.923, 4156.923, 4145.641, 450, 0, []
1627804126.3898, 113, 0, 4137.436, 4222.051, 4183.59, 4150.769, 4138.462, 450, 0, []
1627804126.3977, 114, 0, 4134.872, 4239.487, 4186.154, 4159.487, 4137.949, 450, 0, []
1627804126.4057, 115, 0, 4130.256, 4231.282, 4182.051, 4170.769, 4139.487, 16196, 0, []
1627804126.4136, 116, 0, 4130.256, 4213.333, 4175.385, 4167.692, 4135.385, 450, 0, []
1627804126.4215, 117, 0, 4134.872, 4213.846, 4167.692, 4155.897, 4135.385, 450, 0, []
1627804126.4294, 118, 0, 4143.59, 4232.821, 4172.308, 4158.974, 4142.564, 450, 0, []
1627804126.4374, 119, 0, 4148.718, 4238.462, 4173.846, 4169.231, 4139.487, 16196, 0, []
1627804126.4453, 120, 0, 4151.282, 4229.744, 4173.846, 4169.231, 4136.923, 450, 0, []
1627804126.4533, 121, 0, 4150.769, 4238.462, 4177.949, 4167.179, 4142.564, 450, 0, []
1627804126.4611, 122, 0, 4144.103, 4253.846, 4168.205, 4171.795, 4139.487, 450, 0, []
1627804126.4689, 123, 0, 4150.769, 4239.487, 4165.641, 4173.846, 4144.615, 16196, 0, []
1627804126.4768, 124, 0, 4180, 4224.615, 4176.923, 4175.897, 4172.308, 450, 0, []
1627804126.4846, 125, 0, 4190.769, 4234.872, 4175.897, 4173.846, 4186.154, 450, 0, []
1627804126.4925, 126, 0, 4161.026, 4227.692, 4161.026, 4156.923, 4164.615, 450, 0, []
1627804126.5004, 127, 0, 4144.615, 4194.359, 4158.462, 4151.795, 4152.821, 16196, 0, []
1627804126.5083, 128, 0, 4160.513, 4204.615, 4174.872, 4174.359, 4166.667, 450, 0, []
1627804126.5161, 0, 0, 4170.769, 4245.641, 4173.333, 4186.667, 4174.872, 450, 0, []
1627804126.524, 1, 0, 4171.795, 4246.154, 4163.077, 4179.487, 4171.795, 450, 0, []
1627804126.5318, 2, 0, 4180.513, 4222.564, 4167.692, 4181.026, 4171.282, 16189, 0, []
1627804126.5397, 3, 0, 4188.718, 4228.718, 4170.256, 4182.051, 4178.462, 450, 0, []
1627804126.5476, 4, 0, 4180, 4240.513, 4170.256, 4166.667, 4175.385, 16134, 0, []
1627804126.5556, 5, 0, 4167.692, 4236.41, 4172.821, 4161.538, 4160, 450, 0, []
1627804126.5635, 6, 0, 4170.769, 4233.333, 4177.949, 4166.154, 4155.897, 309, 0, []
1627804126.5715, 7, 0, 4169.231, 4227.692, 4178.462, 4158.462, 4151.795, 450, 0, []
1627804126.5793, 8, 0, 4158.974, 4228.205, 4165.128, 4150.769, 4138.974, 450, 0, []
1627804126.5873, 9, 0, 4161.538, 4225.641, 4163.077, 4151.282, 4140.513, 16162, 0, []
1627804126.5952, 10, 0, 4170.256, 4215.897, 4177.436, 4158.462, 4154.872, 450, 0, []
1627804126.6032, 11, 0, 4171.795, 4230.769, 4182.564, 4169.744, 4159.487, 16197, 0, []
1627804126.6111, 12, 0, 4177.436, 4238.974, 4175.385, 4168.718, 4155.385, 450, 0, []
1627804126.6188, 13, 0, 4187.692, 4217.949, 4163.077, 4153.846, 4154.359, 450, 0, []
1627804126.6267, 14, 0, 4200.513, 4235.897, 4166.154, 4157.436, 4165.641, 450, 0, []
1627804126.6345, 15, 0, 4203.077, 4268.205, 4175.897, 4170.256, 4170.256, 16197, 0, []
1627804126.6424, 16, 0, 4190.256, 4227.692, 4172.821, 4165.128, 4155.897, 0, 0, []
1627804126.6502, 17, 0, 4191.282, 4203.59, 4171.795, 4166.667, 4155.385, 0, 0, []
1627804126.658, 18, 0, 4201.538, 4242.564, 4178.462, 4174.359, 4169.231, 0, 0, []
1627804126.6658, 19, 0, 4183.077, 4228.205, 4180, 4159.487, 4156.923, 0, 0, []
1627804126.6738, 20, 0, 4167.692, 4191.795, 4170.769, 4148.205, 4141.538, 0, 0, []
1627804126.6817, 21, 0, 4187.179, 4223.59, 4166.667, 4161.538, 4155.385, 0, 0, []
1627804126.6897, 22, 0, 4187.179, 4248.205, 4166.667, 4161.538, 4158.974, 0, 0, []
1627804126.6975, 23, 0, 4167.692, 4229.231, 4162.564, 4148.718, 4150.256, 0, 0, []
1627804126.7055, 24, 0, 4175.385, 4218.974, 4172.821, 4153.333, 4158.974, 0, 0, []
1627804126.7134, 25, 0, 4184.615, 4216.923, 4185.128, 4160.513, 4165.128, 0, 0, []
1627804126.7214, 26, 0, 4176.41, 4222.564, 4181.538, 4158.974, 4154.872, 0, 0, []
1627804126.7293, 27, 0, 4176.41, 4226.667, 4181.538, 4162.564, 4151.282, 0, 0, []
1627804126.7372, 28, 0, 4184.615, 4213.333, 4175.897, 4168.205, 4161.026, 0, 0, []
1627804126.7451, 29, 0, 4192.308, 4225.128, 4173.846, 4173.333, 4168.205, 0, 0, []
1627804126.7531, 30, 0, 4202.564, 4262.564, 4190.769, 4186.154, 4176.41, 0, 0, []
1627804126.761, 31, 0, 4208.718, 4246.154, 4191.795, 4191.795, 4185.641, 0, 0, []
1627804126.769, 32, 0, 4203.59, 4211.282, 4176.923, 4181.538, 4177.949, 0, 0, []
1627804126.7769, 33, 0, 4194.872, 4238.462, 4175.897, 4176.41, 4165.128, 0, 0, []
1627804126.7846, 34, 0, 4192.821, 4261.026, 4184.103, 4180, 4167.692, 0, 0, []
1627804126.7925, 35, 0, 4197.436, 4235.897, 4187.179, 4180.513, 4175.385, 0, 0, []
1627804126.8003, 36, 0, 4197.436, 4221.538, 4176.41, 4171.795, 4171.795, 0, 0, []
1627804126.8082, 37, 0, 4195.897, 4235.897, 4174.359, 4168.718, 4174.872, 0, 0, []
1627804126.816, 38, 0, 4197.949, 4241.538, 4182.051, 4171.282, 4181.026, 0, 0, []
1627804126.8238, 39, 0, 4195.385, 4230.256, 4179.487, 4167.179, 4179.487, 0, 0, []
1627804126.8316, 40, 0, 4202.051, 4229.231, 4174.872, 4173.333, 4189.231, 0, 0, []
1627804126.8395, 41, 0, 4221.538, 4241.026, 4178.974, 4184.615, 4204.615, 0, 0, []
1627804126.8473, 42, 0, 4222.051, 4238.974, 4184.103, 4177.436, 4197.949, 0, 0, []
1627804126.8553, 43, 0, 4198.974, 4226.154, 4167.692, 4156.923, 4177.436, 0, 0, []
1627804126.8631, 44, 0, 4190.256, 4236.923, 4157.949, 4150.769, 4172.821, 0, 0, []
1627804126.8711, 45, 0, 4202.051, 4251.282, 4171.282, 4160, 4176.923, 0, 0, []
1627804126.879, 46, 0, 4213.333, 4233.333, 4170.769, 4164.615, 4180.513, 0, 0, []
1627804126.887, 47, 0, 4216.923, 4230.256, 4167.692, 4166.154, 4187.692, 0, 0, []
1627804126.8949, 48, 0, 4220, 4260, 4172.308, 4169.231, 4191.795, 0, 0, []
1627804126.9028, 49, 0, 4237.949, 4264.103, 4173.846, 4171.795, 4206.154, 0, 0, []
1627804126.9107, 50, 0, 4277.949, 4241.026, 4180.513, 4170.769, 4244.103, 0, 0, []
1627804126.9185, 51, 0, 4330.769, 4232.821, 4185.128, 4175.385, 4297.949, 0, 0, []
1627804126.9264, 52, 0, 4394.872, 4249.744, 4190.256, 4186.154, 4361.026, 0, 0, []
1627804126.9342, 53, 0, 4463.59, 4262.051, 4194.872, 4188.718, 4421.538, 0, 0, []
1627804126.942, 54, 0, 4502.051, 4253.846, 4188.205, 4187.179, 4457.949, 0, 0, []
1627804126.9498, 55, 0, 4493.846, 4243.59, 4176.923, 4180.513, 4454.872, 0, 0, []
1627804126.9577, 56, 0, 4469.744, 4258.462, 4174.872, 4171.795, 4429.744, 0, 0, []
1627804126.9655, 57, 0, 4448.205, 4273.846, 4185.128, 4170.256, 4405.128, 0, 0, []
1627804126.9734, 58, 0, 4413.333, 4268.718, 4188.205, 4169.744, 4378.974, 0, 0, []
1627804126.9811, 59, 0, 4376.923, 4258.462, 4182.564, 4168.718, 4346.667, 0, 0, []
1627804126.989, 60, 0, 4355.897, 4247.179, 4182.564, 4172.821, 4325.128, 0, 0, []
1627804126.9968, 61, 0, 4332.821, 4245.128, 4175.897, 4171.795, 4309.744, 0, 0, []
1627804127.0048, 62, 0, 4306.667, 4250.769, 4171.282, 4160, 4287.692, 0, 0, []
1627804127.0127, 63, 0, 4291.795, 4238.974, 4182.051, 4153.846, 4269.744, 0, 0, []
1627804127.0206, 64, 0, 4282.051, 4224.615, 4188.718, 4154.359, 4261.538, 450, 0, []
1627804127.0285, 65, 0, 4268.718, 4235.385, 4188.718, 4158.974, 4248.718, 450, 0, []
1627804127.0365, 66, 0, 4255.385, 4251.795, 4182.564, 4169.231, 4231.795, 16188, 0, []
1627804127.0444, 67, 0, 4238.974, 4258.974, 4174.872, 4168.205, 4217.436, 450, 0, []
1627804127.0524, 68, 0, 4225.128, 4264.103, 4178.462, 4158.974, 4211.795, 16134, 0, []
1627804127.0602, 69, 0, 4228.718, 4264.615, 4187.179, 4165.128, 4216.41, 450, 0, []
1627804127.0682, 70, 0, 4229.744, 4252.308, 4194.359, 4170.256, 4210.769, 307, 0, []
1627804127.0761, 71, 0, 4212.308, 4227.179, 4193.333, 4161.026, 4187.692, 450, 0, []
1627804127.0839, 72, 0, 4197.436, 4223.59, 4185.641, 4154.359, 4171.795, 450, 0, []
1627804127.0918, 73, 0, 4197.949, 4253.333, 4179.487, 4155.897, 4175.385, 16162, 0, []
1627804127.0995, 74, 0, 4201.538, 4254.872, 4174.872, 4155.897, 4181.538, 450, 0, []
1627804127.1074, 75, 0, 4200.513, 4223.59, 4176.41, 4151.282, 4174.872, 16204, 0, []
1627804127.1152, 76, 0, 4192.308, 4225.641, 4171.795, 4146.154, 4167.179, 450, 0, []
1627804127.1231, 77, 0, 4189.231, 4236.41, 4167.692, 4149.744, 4170.256, 450, 0, []
1627804127.1309, 78, 0, 4198.462, 4230.256, 4176.923, 4165.641, 4173.846, 450, 0, []
1627804127.1387, 79, 0, 4200, 4250.769, 4181.026, 4173.333, 4169.231, 16204, 0, []
1627804127.1465, 80, 0, 4189.231, 4265.641, 4185.641, 4172.821, 4171.795, 450, 0, []
1627804127.1544, 81, 0, 4180, 4244.103, 4177.949, 4169.231, 4171.282, 450, 0, []
1627804127.1622, 82, 0, 4173.333, 4234.872, 4155.385, 4158.974, 4151.795, 450, 0, []
1627804127.1702, 83, 0, 4166.667, 4244.615, 4160.513, 4151.282, 4136.923, 16204, 0, []
1627804127.178, 84, 0, 4165.641, 4241.538, 4178.974, 4154.872, 4146.667, 450, 0, []
1627804127.186, 85, 0, 4169.744, 4247.692, 4183.077, 4163.077, 4156.41, 450, 0, []
1627804127.1939, 86, 0, 4172.821, 4254.359, 4177.436, 4161.538, 4148.205, 450, 0, []
1627804127.2019, 87, 0, 4168.718, 4228.718, 4170.769, 4149.231, 4140, 16204, 0, []
1627804127.2098, 88, 0, 4155.385, 4201.538, 4166.667, 4136.923, 4134.359, 450, 0, []
1627804127.2177, 89, 0, 4150.256, 4208.718, 4168.718, 4135.897, 4129.744, 450, 0, []
1627804127.2256, 90, 0, 4156.41, 4230.769, 4175.385, 4142.564, 4135.897, 450, 0, []
1627804127.2336, 91, 0, 4153.333, 4224.615, 4168.718, 4141.026, 4135.385, 16204, 0, []
1627804127.2415, 92, 0, 4148.718, 4204.103, 4161.026, 4138.462, 4127.692, 450, 0, []
1627804127.2493, 93, 0, 4151.795, 4204.103, 4165.641, 4146.154, 4130.256, 450, 0, []
1627804127.2571, 94, 0, 4155.897, 4224.615, 4169.231, 4157.436, 4140.513, 450, 0, []
1627804127.2649, 95, 0, 4155.897, 4241.538, 4169.744, 4151.282, 4140.513, 16204, 0, []
1627804127.2728, 96, 0, 4151.795, 4231.795, 4163.077, 4137.949, 4129.744, 450, 0, []
1627804127.2806, 97, 0, 4151.795, 4210.769, 4155.385, 4141.538, 4122.564, 450, 0, []
1627804127.2885, 98, 0, 4155.897, 4211.795, 4164.103, 4151.282, 4127.179, 450, 0, []
1627804127.2962, 99, 0, 4157.949, 4246.667, 4171.795, 4152.821, 4140, 16204, 0, []
1627804127.3041, 100, 0, 4157.436, 4262.564, 4170.256, 4154.359, 4141.538, 450, 0, []
1627804127.3119, 101, 0, 4153.333, 4229.231, 4171.282, 4155.385, 4134.872, 450, 0, []
1627804127.3199, 102, 0, 4150.769, 4207.179, 4167.179, 4150.769, 4134.359, 450, 0, []
1627804127.3278, 103, 0, 4161.538, 4237.949, 4170.769, 4150.256, 4138.462, 16204, 0, []
1627804127.3357, 104, 0, 4170.256, 4248.205, 4176.41, 4152.308, 4143.077, 450, 0, []
1627804127.3436, 105, 0, 4152.308, 4222.051, 4161.026, 4142.564, 4137.436, 450, 0, []
1627804127.3516, 106, 0, 4134.872, 4226.667, 4151.282, 4132.308, 4122.564, 450, 0, []
1627804127.3595, 107, 0, 4142.564, 4233.333, 4159.487, 4133.846, 4124.615, 16204, 0, []
1627804127.3674, 108, 0, 4155.385, 4225.128, 4170.256, 4141.538, 4142.564, 450, 0, []
1627804127.3751, 109, 0, 4155.897, 4235.385, 4174.359, 4145.128, 4145.128, 450, 0, []
1627804127.3831, 110, 0, 4148.205, 4221.026, 4169.231, 4139.487, 4132.821, 450, 0, []
1627804127.391, 111, 0, 4149.231, 4198.462, 4162.564, 4136.41, 4133.333, 16204, 0, []
1627804127.3988, 112, 0, 4158.462, 4229.744, 4156.41, 4139.487, 4141.026, 450, 0, []
1627804127.4067, 113, 0, 4156.41, 4246.667, 4154.872, 4136.41, 4133.846, 450, 0, []
1627804127.4144, 114, 0, 4154.359, 4209.744, 4155.897, 4137.436, 4131.795, 450, 0, []
1627804127.4223, 115, 0, 4187.179, 4209.744, 4167.692, 4152.821, 4164.103, 16204, 0, []
1627804127.4301, 116, 0, 4223.59, 4245.641, 4182.564, 4157.436, 4204.615, 450, 0, []
1627804127.438, 117, 0, 4220, 4242.051, 4174.359, 4148.718, 4207.692, 450, 0, []
1627804127.4458, 118, 0, 4202.051, 4217.949, 4168.205, 4149.744, 4189.744, 450, 0, []
1627804127.4536, 119, 0, 4189.231, 4224.615, 4172.821, 4154.359, 4182.051, 16204, 0, []
1627804127.4614, 120, 0, 4177.436, 4243.077, 4170.256, 4151.795, 4178.974, 450, 0, []
1627804127.4694, 121, 0, 4171.795, 4238.974, 4170.769, 4150.256, 4172.821, 450, 0, []
1627804127.4773, 122, 0, 4172.821, 4230.769, 4168.205, 4151.795, 4164.615, 450, 0, []
1627804127.4853, 123, 0, 4174.359, 4234.359, 4169.744, 4155.385, 4161.026, 16204, 0, []
1627804127.4932, 124, 0, 4169.744, 4233.846, 4182.051, 4154.872, 4157.949, 450, 0, []
1627804127.5011, 125, 0, 4166.667, 4233.333, 4183.077, 4149.231, 4153.846, 450, 0, []
1627804127.509, 126, 0, 4175.385, 4237.949, 4188.205, 4157.436, 4161.026, 450, 0, []
1627804127.517, 127, 0, 4182.051, 4224.103, 4202.051, 4168.205, 4170.256, 16204, 0, []
1627804127.5249, 128, 0, 4172.821, 4209.744, 4195.897, 4159.487, 4162.564, 450, 0, []
1627804127.5329, 0, 0, 4162.564, 4223.077, 4181.538, 4147.179, 4149.744, 450, 0, []
1627804127.5407, 1, 0, 4168.718, 4236.923, 4183.077, 4150.256, 4155.897, 450, 0, []
1627804127.5485, 2, 0, 4177.436, 4242.564, 4194.872, 4161.538, 4168.718, 16188, 0, []
1627804127.5564, 3, 0, 4177.436, 4249.231, 4188.205, 4164.615, 4168.205, 450, 0, []
1627804127.5642, 4, 0, 4172.308, 4243.59, 4171.282, 4158.974, 4158.974, 16134, 0, []
1627804127.5721, 5, 0, 4161.538, 4217.949, 4165.128, 4150.769, 4149.744, 450, 0, []
1627804127.5798, 6, 0, 4153.333, 4218.462, 4167.692, 4150.769, 4148.205, 16069, 0, []
1627804127.5877, 7, 0, 4163.59, 4238.462, 4185.641, 4161.538, 4157.436, 450, 0, []
1627804127.5955, 8, 0, 4182.564, 4237.436, 4195.897, 4172.308, 4168.205, 450, 0, []
1627804127.6034, 9, 0, 4188.205, 4235.385, 4187.692, 4169.231, 4170.256, 16162, 0, []
1627804127.6112, 10, 0, 4183.077, 4234.872, 4185.128, 4158.462, 4166.667, 450, 0, []
1627804127.619, 11, 0, 4177.436, 4215.897, 4183.59, 4153.846, 4161.026, 16204, 0, []
1627804127.6268, 12, 0, 4174.872, 4203.077, 4180.513, 4151.795, 4152.821, 450, 0, []
1627804127.6348, 13, 0, 4178.974, 4231.795, 4180.513, 4153.846, 4153.846, 450, 0, []
1627804127.6427, 14, 0, 4180, 4257.436, 4178.974, 4154.359, 4158.462, 450, 0, []
1627804127.6507, 15, 0, 4167.179, 4237.436, 4168.718, 4143.077, 4155.897, 16204, 0, []
1627804127.6585, 16, 0, 4163.077, 4209.744, 4164.103, 4143.59, 4164.103, 0, 0, []
1627804127.6665, 17, 0, 4177.436, 4214.872, 4183.077, 4161.026, 4174.872, 0, 0, []
1627804127.6744, 18, 0, 4185.128, 4242.564, 4192.308, 4174.359, 4168.205, 0, 0, []
1627804127.6824, 19, 0, 4182.051, 4234.359, 4173.333, 4166.154, 4157.436, 0, 0, []
1627804127.6903, 20, 0, 4183.077, 4200.513, 4166.154, 4156.923, 4166.667, 0, 0, []
1627804127.6982, 21, 0, 4188.718, 4202.051, 4169.231, 4158.974, 4172.308, 0, 0, []
1627804127.7061, 22, 0, 4186.154, 4230.769, 4172.821, 4161.538, 4158.974, 0, 0, []
1627804127.7139, 23, 0, 4178.974, 4228.205, 4176.923, 4163.59, 4154.872, 0, 0, []
1627804127.7218, 24, 0, 4181.026, 4203.59, 4172.308, 4167.179, 4165.128, 0, 0, []
1627804127.7296, 25, 0, 4190.769, 4215.897, 4177.436, 4171.282, 4171.282, 0, 0, []
1627804127.7374, 26, 0, 4193.846, 4239.487, 4183.59, 4171.282, 4172.821, 0, 0, []
1627804127.7452, 27, 0, 4183.077, 4226.154, 4178.462, 4168.718, 4169.231, 0, 0, []
1627804127.7531, 28, 0, 4182.564, 4199.487, 4173.846, 4169.744, 4167.179, 0, 0, []
1627804127.7609, 29, 0, 4195.385, 4195.897, 4175.385, 4174.359, 4177.949, 0, 0, []
1627804127.7688, 30, 0, 4195.385, 4218.462, 4181.538, 4174.872, 4182.564, 0, 0, []
1627804127.7765, 31, 0, 4185.128, 4234.872, 4179.487, 4167.692, 4172.821, 0, 0, []
1627804127.7845, 32, 0, 4183.59, 4225.641, 4171.795, 4166.667, 4162.564, 0, 0, []
1627804127.7924, 33, 0, 4183.077, 4208.718, 4166.667, 4168.205, 4155.897, 0, 0, []
1627804127.8004, 34, 0, 4182.051, 4213.333, 4167.692, 4165.128, 4158.462, 0, 0, []
1627804127.8083, 35, 0, 4186.154, 4226.667, 4178.974, 4166.667, 4169.744, 0, 0, []
1627804127.8162, 36, 0, 4189.744, 4210.769, 4180, 4170.256, 4168.205, 0, 0, []
1627804127.8241, 37, 0, 4184.103, 4187.692, 4174.359, 4165.128, 4154.359, 0, 0, []
1627804127.8321, 38, 0, 4183.077, 4213.333, 4179.487, 4166.154, 4157.949, 0, 0, []
1627804127.84, 39, 0, 4188.205, 4243.077, 4181.538, 4176.923, 4176.923, 0, 0, []
1627804127.848, 40, 0, 4188.205, 4216.923, 4180.513, 4176.41, 4184.103, 0, 0, []
1627804127.8558, 41, 0, 4187.179, 4202.051, 4180.513, 4169.231, 4181.026, 0, 0, []
1627804127.8636, 42, 0, 4191.795, 4230.256, 4175.897, 4171.795, 4184.615, 0, 0, []
1627804127.8715, 43, 0, 4191.795, 4230.256, 4161.538, 4171.282, 4185.128, 0, 0, []
1627804127.8793, 44, 0, 4178.462, 4201.538, 4149.744, 4154.872, 4170.769, 0, 0, []
1627804127.8872, 45, 0, 4171.795, 4199.487, 4159.487, 4146.154, 4163.59, 0, 0, []
1627804127.8949, 46, 0, 4181.026, 4215.897, 4169.744, 4160.513, 4173.846, 0, 0, []
1627804127.9028, 47, 0, 4192.821, 4233.333, 4168.205, 4171.795, 4185.128, 0, 0, []
1627804127.9106, 48, 0, 4200.513, 4246.667, 4169.231, 4171.282, 4189.744, 0, 0, []
1627804127.9185, 49, 0, 4202.564, 4246.667, 4170.769, 4169.744, 4190.256, 0, 0, []
1627804127.9263, 50, 0, 4197.949, 4235.385, 4171.282, 4167.179, 4187.179, 0, 0, []
1627804127.9341, 51, 0, 4187.692, 4211.282, 4165.641, 4157.949, 4181.026, 0, 0, []
1627804127.9419, 52, 0, 4186.667, 4198.462, 4165.641, 4155.897, 4183.077, 0, 0, []
1627804127.9499, 53, 0, 4187.179, 4208.205, 4172.821, 4157.949, 4182.564, 0, 0, []
1627804127.9578, 54, 0, 4183.59, 4220, 4172.308, 4156.41, 4172.308, 0, 0, []
1627804127.9658, 55, 0, 4189.231, 4214.872, 4175.897, 4158.974, 4176.923, 0, 0, []
1627804127.9736, 56, 0, 4184.615, 4208.205, 4175.385, 4157.949, 4176.41, 0, 0, []
1627804127.9816, 57, 0, 4170.256, 4226.667, 4162.564, 4148.205, 4154.359, 0, 0, []
1627804127.9895, 58, 0, 4179.487, 4234.359, 4168.205, 4150.256, 4156.923, 0, 0, []
1627804127.9975, 59, 0, 4201.538, 4218.462, 4177.949, 4162.564, 4184.615, 0, 0, []
1627804128.0054, 60, 0, 4203.59, 4231.795, 4176.41, 4169.744, 4189.744, 0, 0, []
1627804128.0133, 61, 0, 4197.436, 4255.385, 4181.026, 4169.231, 4188.205, 0, 0, []
1627804128.0212, 62, 0, 4202.051, 4229.231, 4177.949, 4163.077, 4200, 0, 0, []
1627804128.029, 63, 0, 4213.333, 4225.128, 4171.795, 4162.051, 4206.667, 0, 0, []
1627804128.0369, 64, 0, 4220.513, 4266.667, 4178.974, 4171.282, 4210.769, 450, 0, []
1627804128.0447, 65, 0, 4220.513, 4255.897, 4184.615, 4172.308, 4212.821, 450, 0, []
1627804128.0525, 66, 0, 4222.051, 4217.949, 4175.897, 4168.205, 4212.821, 16188, 0, []
1627804128.0603, 67, 0, 4218.974, 4220, 4166.154, 4170.769, 4210.769, 450, 0, []
1627804128.0682, 68, 0, 4205.641, 4246.154, 4174.872, 4171.795, 4204.103, 16134, 0, []
1627804128.076, 69, 0, 4202.051, 4253.846, 4185.641, 4168.205, 4202.051, 450, 0, []
1627804128.0839, 70, 0, 4208.205, 4225.641, 4184.103, 4169.744, 4205.128, 318, 0, []
1627804128.0916, 71, 0, 4202.051, 4207.179, 4174.872, 4169.744, 4199.487, 450, 0, []
1627804128.0996, 72, 0, 4196.41, 4229.231, 4166.667, 4167.179, 4192.308, 450, 0, []
1627804128.1075, 73, 0, 4207.692, 4230.256, 4173.333, 4169.744, 4198.974, 16162, 0, []
1627804128.1155, 74, 0, 4214.359, 4206.154, 4181.026, 4178.462, 4208.718, 450, 0, []
1627804128.1234, 75, 0, 4206.154, 4221.026, 4178.462, 4185.128, 4208.718, 16201, 0, []
1627804128.1313, 76, 0, 4202.564, 4239.487, 4173.333, 4186.667, 4202.564, 450, 0, []
1627804128.1392, 77, 0, 4212.821, 4234.872, 4171.795, 4187.692, 4207.692, 450, 0, []
1627804128.1472, 78, 0, 4222.564, 4245.641, 4178.974, 4192.821, 4223.077, 450, 0, []
1627804128.1551, 79, 0, 4216.923, 4248.205, 4172.821, 4191.282, 4220.513, 16201, 0, []
1627804128.1631, 80, 0, 4211.795, 4229.231, 4163.59, 4185.128, 4212.821, 450, 0, []
1627804128.1709, 81, 0, 4222.051, 4230.769, 4183.59, 4189.744, 4217.436, 450, 0, []
1627804128.1787, 82, 0, 4217.436, 4235.385, 4189.231, 4185.641, 4205.128, 450, 0, []
1627804128.1866, 83, 0, 4197.949, 4224.103, 4175.385, 4168.205, 4185.128, 16201, 0, []
1627804128.1944, 84, 0, 4208.718, 4245.128, 4184.103, 4173.333, 4198.974, 450, 0, []
1627804128.2023, 85, 0, 4232.821, 4265.641, 4198.462, 4190.256, 4221.026, 450, 0, []
1627804128.21, 86, 0, 4234.359, 4228.205, 4188.205, 4187.692, 4217.949, 450, 0, []
1627804128.2179, 87, 0, 4228.718, 4214.872, 4176.41, 4183.59, 4215.897, 16201, 0, []
1627804128.2257, 88, 0, 4226.667, 4246.154, 4182.051, 4183.59, 4218.974, 450, 0, []
1627804128.2336, 89, 0, 4213.333, 4241.538, 4175.385, 4173.333, 4202.051, 450, 0, []
1627804128.2414, 90, 0, 4211.282, 4226.154, 4166.667, 4172.308, 4194.872, 450, 0, []
1627804128.2494, 91, 0, 4229.231, 4243.077, 4177.949, 4186.154, 4212.308, 16201, 0, []
1627804128.2572, 92, 0, 4229.744, 4246.667, 4174.359, 4185.641, 4215.385, 450, 0, []
1627804128.2652, 93, 0, 4217.436, 4222.051, 4162.564, 4167.179, 4201.026, 450, 0, []
1627804128.2731, 94, 0, 4207.692, 4210.256, 4164.103, 4151.795, 4190.769, 450, 0, []
1627804128.2811, 95, 0, 4206.667, 4226.667, 4167.692, 4151.282, 4190.769, 16201, 0, []
1627804128.289, 96, 0, 4217.436, 4240, 4181.026, 4163.077, 4200.513, 450, 0, []
1627804128.2969, 97, 0, 4240, 4232.821, 4198.974, 4180, 4220.513, 450, 0, []
1627804128.3048, 98, 0, 4263.59, 4226.154, 4200.513, 4184.103, 4239.487, 450, 0, []
1627804128.3128, 99, 0, 4277.436, 4233.846, 4193.846, 4172.821, 4249.231, 16201, 0, []
1627804128.3207, 100, 0, 4311.795, 4231.282, 4192.308, 4165.128, 4279.487, 450, 0, []
1627804128.3285, 101, 0, 4376.923, 4230.769, 4193.846, 4170.769, 4338.462, 450, 0, []
1627804128.3363, 102, 0, 4435.897, 4233.333, 4187.179, 4175.897, 4394.359, 450, 0, []
1627804128.3441, 103, 0, 4447.179, 4229.231, 4173.846, 4171.795, 4413.333, 16201, 0, []
1627804128.352, 104, 0, 4426.667, 4244.615, 4174.359, 4169.744, 4403.077, 450, 0, []
1627804128.3598, 105, 0, 4406.154, 4253.333, 4179.487, 4174.872, 4384.103, 450, 0, []
1627804128.3677, 106, 0, 4378.462, 4224.615, 4181.538, 4176.41, 4354.359, 450, 0, []
1627804128.3754, 107, 0, 4347.692, 4210.256, 4189.231, 4172.821, 4329.231, 16201, 0, []
1627804128.3833, 108, 0, 4320.513, 4238.974, 4200, 4171.282, 4310.256, 450, 0, []
1627804128.3911, 109, 0, 4294.872, 4249.231, 4197.949, 4169.744, 4288.718, 450, 0, []
1627804128.399, 110, 0, 4276.923, 4222.564, 4184.615, 4170.256, 4273.846, 450, 0, []
1627804128.4068, 111, 0, 4266.154, 4207.692, 4183.077, 4172.821, 4266.154, 16201, 0, []
1627804128.4147, 112, 0, 4242.564, 4213.333, 4174.359, 4161.538, 4242.564, 450, 0, []
1627804128.4226, 113, 0, 4214.872, 4229.744, 4163.59, 4147.179, 4213.846, 450, 0, []
1627804128.4306, 114, 0, 4209.744, 4240, 4176.923, 4153.846, 4211.795, 450, 0, []
1627804128.4385, 115, 0, 4214.359, 4221.026, 4183.077, 4167.179, 4218.974, 16201, 0, []
1627804128.4465, 116, 0, 4213.333, 4207.179, 4185.641, 4171.282, 4218.974, 450, 0, []
1627804128.4543, 117, 0, 4205.641, 4225.641, 4192.308, 4171.282, 4210.769, 450, 0, []
1627804128.4623, 118, 0, 4196.923, 4235.385, 4190.769, 4167.179, 4198.974, 450, 0, []
1627804128.4702, 119, 0, 4198.462, 4225.641, 4201.026, 4166.667, 4197.949, 16201, 0, []
1627804128.4782, 120, 0, 4200, 4238.974, 4211.282, 4171.282, 4197.949, 450, 0, []
1627804128.4861, 121, 0, 4188.205, 4251.795, 4199.487, 4165.128, 4188.718, 450, 0, []
1627804128.4938, 122, 0, 4171.795, 4227.179, 4185.641, 4154.359, 4174.872, 450, 0, []
1627804128.5017, 123, 0, 4157.949, 4200.513, 4178.462, 4151.282, 4157.436, 16201, 0, []
1627804128.5095, 124, 0, 4150.256, 4200, 4170.769, 4153.333, 4150.769, 450, 0, []
1627804128.5174, 125, 0, 4160, 4216.923, 4169.744, 4161.026, 4164.615, 450, 0, []
1627804128.5252, 126, 0, 4173.333, 4242.051, 4182.051, 4170.769, 4175.385, 450, 0, []
1627804128.533, 127, 0, 4170.256, 4248.718, 4184.103, 4171.282, 4174.359, 16201, 0, []
1627804128.5408, 128, 0, 4169.231, 4225.128, 4177.949, 4171.795, 4182.051, 450, 0, []
1627804128.5487, 0, 0, 4177.436, 4209.231, 4186.667, 4176.41, 4186.154, 450, 0, []
1627804128.5565, 1, 0, 4170.769, 4215.897, 4181.026, 4171.795, 4172.308, 450, 0, []
1627804128.5645, 2, 0, 4162.564, 4230.256, 4170.256, 4165.128, 4165.641, 16186, 0, []
1627804128.5723, 3, 0, 4166.667, 4238.462, 4182.564, 4169.231, 4172.821, 450, 0, []
1627804128.5803, 4, 0, 4169.744, 4228.718, 4192.308, 4173.333, 4174.359, 16131, 0, []
1627804128.5882, 5, 0, 4169.744, 4207.179, 4192.821, 4174.359, 4169.744, 450, 0, []
1627804128.5962, 6, 0, 4164.103, 4209.744, 4185.128, 4168.718, 4162.564, 307, 0, []
1627804128.6041, 7, 0, 4150.769, 4238.974, 4175.385, 4156.41, 4152.308, 450, 0, []
1627804128.612, 8, 0, 4146.667, 4235.385, 4171.795, 4154.359, 4150.256, 450, 0, []
1627804128.6199, 9, 0, 4149.231, 4213.333, 4171.795, 4164.103, 4154.872, 16161, 0, []
1627804128.6279, 10, 0, 4137.436, 4224.103, 4173.846, 4164.615, 4146.667, 450, 0, []
1627804128.6358, 11, 0, 4135.385, 4231.795, 4166.667, 4149.744, 4140.513, 16201, 0, []
1627804128.6436, 12, 0, 4174.872, 4226.667, 4160.513, 4144.103, 4172.308, 450, 0, []
1627804128.6514, 13, 0, 4234.359, 4243.077, 4173.846, 4164.615, 4230.769, 450, 0, []
1627804128.6592, 14, 0, 4256.923, 4241.538, 4181.026, 4179.487, 4258.974, 450, 0, []
1627804128.6671, 15, 0, 4233.333, 4208.205, 4178.974, 4170.256, 4238.462, 16201, 0, []
1627804128.6749, 16, 0, 4209.744, 4214.359, 4183.59, 4164.615, 4218.462, 0, 0, []
1627804128.6828, 17, 0, 4206.154, 4234.872, 4182.564, 4166.667, 4216.41, 0, 0, []
1627804128.6905, 18, 0, 4203.077, 4222.051, 4173.846, 4159.487, 4207.692, 0, 0, []
1627804128.6984, 19, 0, 4200, 4216.41, 4172.821, 4156.923, 4198.974, 0, 0, []
1627804128.7062, 20, 0, 4202.564, 4217.949, 4184.103, 4161.538, 4204.615, 0, 0, []
1627804128.7142, 21, 0, 4194.872, 4217.949, 4183.077, 4158.462, 4201.026, 0, 0, []
1627804128.7221, 22, 0, 4184.103, 4235.897, 4171.795, 4159.487, 4188.205, 0, 0, []
1627804128.73, 23, 0, 4184.615, 4229.744, 4176.41, 4163.59, 4188.718, 0, 0, []
1627804128.7379, 24, 0, 4183.59, 4201.538, 4180.513, 4155.385, 4189.231, 0, 0, []
1627804128.7459, 25, 0, 4186.154, 4221.026, 4181.026, 4150.256, 4185.641, 0, 0, []
1627804128.7538, 26, 0, 4193.333, 4244.615, 4183.077, 4154.872, 4187.692, 0, 0, []
1627804128.7618, 27, 0, 4189.744, 4220.513, 4180.513, 4153.333, 4184.615, 0, 0, []
1627804128.7696, 28, 0, 4181.538, 4220.513, 4180.513, 4153.846, 4174.359, 0, 0, []
1627804128.7776, 29, 0, 4182.051, 4246.154, 4180.513, 4155.385, 4169.231, 0, 0, []
1627804128.7855, 30, 0, 4187.692, 4237.949, 4185.641, 4152.821, 4171.795, 0, 0, []
1627804128.7935, 31, 0, 4189.231, 4228.205, 4188.718, 4156.923, 4171.282, 0, 0, []
1627804128.8014, 32, 0, 4188.718, 4221.538, 4183.077, 4163.077, 4171.795, 0, 0, []
1627804128.8091, 33, 0, 4181.026, 4202.051, 4177.436, 4158.462, 4171.282, 0, 0, []
1627804128.817, 34, 0, 4170.769, 4212.308, 4166.667, 4151.795, 4160.513, 0, 0, []
1627804128.8248, 35, 0, 4169.744, 4237.949, 4162.051, 4155.897, 4158.974, 0, 0, []
1627804128.8327, 36, 0, 4177.436, 4234.872, 4170.769, 4164.103, 4167.692, 0, 0, []
1627804128.8405, 37, 0, 4185.641, 4230.256, 4175.385, 4168.205, 4171.282, 0, 0, []
1627804128.8483, 38, 0, 4184.103, 4232.821, 4179.487, 4167.179, 4175.385, 0, 0, []
1627804128.8561, 39, 0, 4182.564, 4220.513, 4183.077, 4166.154, 4185.641, 0, 0, []
1627804128.864, 40, 0, 4191.282, 4213.846, 4177.436, 4169.231, 4187.179, 0, 0, []
1627804128.8718, 41, 0, 4198.974, 4224.103, 4176.923, 4171.795, 4181.538, 0, 0, []
1627804128.8798, 42, 0, 4199.487, 4237.949, 4181.538, 4172.308, 4183.077, 0, 0, []
1627804128.8876, 43, 0, 4201.026, 4249.231, 4185.128, 4172.308, 4185.641, 0, 0, []
1627804128.8956, 44, 0, 4201.538, 4238.974, 4177.949, 4171.282, 4184.615, 0, 0, []
1627804128.9035, 45, 0, 4200.513, 4230.256, 4172.308, 4166.154, 4187.179, 0, 0, []
1627804128.9115, 46, 0, 4209.231, 4241.026, 4185.641, 4167.179, 4192.308, 0, 0, []
1627804128.9194, 47, 0, 4224.615, 4229.231, 4193.333, 4174.359, 4201.538, 0, 0, []
1627804128.9273, 48, 0, 4242.051, 4211.282, 4196.923, 4177.949, 4222.051, 0, 0, []
1627804128.9352, 49, 0, 4249.744, 4222.564, 4192.308, 4172.308, 4235.385, 0, 0, []
1627804128.9432, 50, 0, 4245.641, 4227.179, 4172.821, 4163.59, 4232.308, 0, 0, []
1627804128.9511, 51, 0, 4254.359, 4225.128, 4170.256, 4170.769, 4236.923, 0, 0, []
1627804128.9589, 52, 0, 4267.179, 4247.179, 4183.59, 4187.179, 4250.256, 0, 0, []
1627804128.9667, 53, 0, 4256.923, 4246.667, 4181.026, 4183.077, 4249.231, 0, 0, []
1627804128.9745, 54, 0, 4244.103, 4228.205, 4170.769, 4173.846, 4241.026, 0, 0, []
1627804128.9824, 55, 0, 4259.487, 4228.205, 4178.462, 4180.513, 4250.256, 0, 0, []
1627804128.9902, 56, 0, 4287.179, 4236.41, 4191.282, 4187.692, 4280, 0, 0, []
1627804128.9981, 57, 0, 4327.179, 4256.41, 4189.231, 4189.231, 4326.154, 0, 0, []
1627804129.0059, 58, 0, 4391.795, 4260, 4190.769, 4192.821, 4377.436, 0, 0, []
1627804129.0137, 59, 0, 4449.744, 4229.231, 4187.179, 4184.615, 4418.974, 0, 0, []
1627804129.0215, 60, 0, 4484.615, 4230.256, 4180, 4177.949, 4453.846, 0, 0, []
1627804129.0295, 61, 0, 4506.667, 4262.564, 4190.769, 4192.821, 4476.923, 0, 0, []
1627804129.0374, 62, 0, 4508.718, 4262.564, 4188.205, 4200, 4472.821, 0, 0, []
1627804129.0454, 63, 0, 4489.231, 4241.026, 4171.795, 4188.205, 4449.744, 0, 0, []
1627804129.0532, 64, 0, 4465.128, 4229.744, 4173.333, 4181.026, 4430.256, 450, 0, []
1627804129.0612, 65, 0, 4440, 4242.051, 4183.077, 4187.179, 4413.846, 450, 0, []
1627804129.0691, 66, 0, 4406.154, 4248.205, 4185.641, 4190.769, 4387.179, 16186, 0, []
1627804129.0771, 67, 0, 4368.718, 4228.718, 4177.436, 4176.41, 4350.256, 450, 0, []
1627804129.085, 68, 0, 4343.077, 4236.41, 4169.744, 4169.231, 4321.538, 16132, 0, []
1627804129.0929, 69, 0, 4325.641, 4257.436, 4171.282, 4176.41, 4301.026, 450, 0, []
1627804129.1008, 70, 0, 4304.615, 4241.538, 4174.359, 4175.897, 4278.974, 307, 0, []
1627804129.1086, 71, 0, 4287.179, 4228.205, 4177.949, 4170.769, 4258.974, 450, 0, []
1627804129.1165, 72, 0, 4281.538, 4250.769, 4182.564, 4181.538, 4254.359, 450, 0, []
1627804129.1243, 73, 0, 4263.59, 4259.487, 4185.128, 4192.308, 4250.769, 16161, 0, []
1627804129.1321, 74, 0, 4229.231, 4249.231, 4185.641, 4184.615, 4232.821, 450, 0, []
1627804129.1399, 75, 0, 4214.872, 4253.333, 4182.051, 4177.949, 4215.385, 16196, 0, []
1627804129.1478, 76, 0, 4214.872, 4265.641, 4185.641, 4178.974, 4207.179, 450, 0, []
1627804129.1556, 77, 0, 4201.538, 4260, 4182.051, 4172.308, 4195.385, 450, 0, []
1627804129.1635, 78, 0, 4184.103, 4218.974, 4172.821, 4158.974, 4177.949, 450, 0, []
1627804129.1712, 79, 0, 4179.487, 4201.026, 4177.436, 4154.872, 4171.282, 16196, 0, []
1627804129.1792, 80, 0, 4185.641, 4242.051, 4181.026, 4165.128, 4184.103, 450, 0, []
1627804129.1871, 81, 0, 4192.308, 4251.795, 4180, 4175.385, 4192.308, 450, 0, []
1627804129.1951, 82, 0, 4182.051, 4227.692, 4180.513, 4169.744, 4175.897, 450, 0, []
1627804129.203, 83, 0, 4168.205, 4243.077, 4187.692, 4163.077, 4162.051, 16196, 0, []
1627804129.2109, 84, 0, 4176.923, 4263.59, 4202.051, 4177.949, 4172.308, 450, 0, []
1627804129.2188, 85, 0, 4186.154, 4251.282, 4196.41, 4190.256, 4176.41, 450, 0, []
1627804129.2268, 86, 0, 4170.769, 4242.051, 4173.846, 4170.769, 4153.333, 450, 0, []
1627804129.2347, 87, 0, 4151.282, 4232.821, 4163.59, 4152.821, 4131.795, 16196, 0, []
1627804129.2427, 88, 0, 4151.795, 4228.718, 4172.821, 4164.615, 4138.462, 450, 0, []
1627804129.2505, 89, 0, 4162.564, 4255.385, 4187.692, 4175.897, 4152.821, 450, 0, []
1627804129.2583, 90, 0, 4163.59, 4257.436, 4185.128, 4172.308, 4155.897, 450, 0, []
1627804129.2662, 91, 0, 4155.897, 4224.615, 4175.385, 4170.256, 4156.41, 16196, 0, []
1627804129.274, 92, 0, 4151.282, 4218.974, 4176.41, 4166.154, 4157.436, 450, 0, []
1627804129.2819, 93, 0, 4154.359, 4225.641, 4177.436, 4159.487, 4156.41, 450, 0, []
1627804129.2896, 94, 0, 4155.385, 4213.333, 4170.769, 4152.308, 4152.821, 450, 0, []
1627804129.2975, 95, 0, 4149.231, 4208.205, 4161.538, 4145.641, 4150.769, 16196, 0, []
1627804129.3053, 96, 0, 4147.179, 4233.333, 4168.718, 4148.205, 4150.256, 450, 0, []
1627804129.3132, 97, 0, 4149.744, 4253.333, 4184.103, 4162.051, 4152.821, 450, 0, []
1627804129.321, 98, 0, 4147.692, 4241.026, 4187.179, 4167.179, 4153.333, 450, 0, []
1627804129.3288, 99, 0, 4150.256, 4231.282, 4194.872, 4168.205, 4153.333, 16196, 0, []
1627804129.3366, 100, 0, 4152.308, 4232.308, 4197.949, 4172.308, 4154.872, 450, 0, []
1627804129.3446, 101, 0, 4142.051, 4221.538, 4191.282, 4166.667, 4152.821, 450, 0, []
1627804129.3525, 102, 0, 4137.949, 4216.41, 4193.846, 4162.564, 4152.821, 450, 0, []
1627804129.3605, 103, 0, 4147.179, 4215.385, 4190.256, 4166.154, 4158.974, 16196, 0, []
1627804129.3683, 104, 0, 4139.487, 4191.282, 4170.769, 4156.41, 4154.359, 450, 0, []
1627804129.3763, 105, 0, 4120, 4190.769, 4157.949, 4137.949, 4139.487, 450, 0, []
1627804129.3842, 106, 0, 4120, 4221.538, 4166.667, 4140.513, 4131.282, 450, 0, []
1627804129.3922, 107, 0, 4134.872, 4229.231, 4177.436, 4159.487, 4136.41, 16196, 0, []
1627804129.4001, 108, 0, 4145.128, 4225.128, 4177.949, 4172.308, 4146.154, 450, 0, []
1627804129.408, 109, 0, 4143.077, 4228.205, 4180.513, 4169.744, 4145.128, 450, 0, []
1627804129.4159, 110, 0, 4145.128, 4231.795, 4181.026, 4156.41, 4141.538, 450, 0, []
1627804129.4237, 111, 0, 4160, 4230.256, 4182.564, 4158.974, 4152.821, 16196, 0, []
1627804129.4316, 112, 0, 4162.051, 4218.974, 4190.256, 4171.282, 4161.026, 450, 0, []
1627804129.4394, 113, 0, 4147.179, 4213.333, 4184.103, 4169.231, 4150.256, 450, 0, []
1627804129.4472, 114, 0, 4138.974, 4226.154, 4171.282, 4154.872, 4138.974, 450, 0, []
1627804129.455, 115, 0, 4137.436, 4241.026, 4163.59, 4144.615, 4137.949, 16196, 0, []
1627804129.4629, 116, 0, 4135.897, 4230.769, 4164.615, 4146.667, 4138.462, 450, 0, []
1627804129.4707, 117, 0, 4136.41, 4216.923, 4175.897, 4154.872, 4137.949, 450, 0, []
1627804129.4787, 118, 0, 4136.923, 4219.487, 4176.923, 4152.821, 4136.41, 450, 0, []
1627804129.4865, 119, 0, 4137.949, 4233.333, 4173.333, 4120.513, 4136.923, 16196, 0, []
1627804129.4944, 120, 0, 4140, 4238.974, 4170.769, 4077.949, 4135.897, 450, 0, []
1627804129.5022, 121, 0, 4140, 4227.179, 4167.692, 4053.333, 4133.846, 450, 0, []
1627804129.5102, 122, 0, 4142.051, 4226.667, 4182.564, 4051.795, 4138.462, 450, 0, []
1627804129.5181, 123, 0, 4141.538, 4232.308, 4186.154, 4050.256, 4138.462, 16196, 0, []
1627804129.526, 124, 0, 4135.385, 4220, 4174.359, 4035.385, 4126.154, 450, 0, []
1627804129.5339, 125, 0, 4134.872, 4211.282, 4173.333, 4027.179, 4121.026, 450, 0, []
1627804129.5419, 126, 0, 4136.41, 4222.051, 4170.769, 4027.179, 4127.179, 450, 0, []
1627804129.5498, 127, 0, 4137.949, 4234.359, 4170.769, 4033.846, 4135.385, 16196, 0, []
1627804129.5578, 128, 0, 4148.718, 4232.821, 4180.513, 4046.667, 4141.538, 450, 0, []
1627804129.5656, 0, 0, 4155.385, 4231.282, 4180, 4048.718, 4140, 450, 0, []
1627804129.5734, 1, 0, 4147.179, 4227.179, 4167.692, 4035.385, 4134.359, 450, 0, []
1627804129.5813, 2, 0, 4148.205, 4209.744, 4169.231, 4032.821, 4135.385, 16193, 0, []
1627804129.5891, 3, 0, 4154.359, 4196.41, 4178.462, 4040.513, 4140, 450, 0, []
1627804129.597, 4, 0, 4153.333, 4205.128, 4173.846, 4045.128, 4144.615, 16136, 0, []
1627804129.6047, 5, 0, 4161.026, 4226.667, 4180.513, 4054.872, 4156.923, 450, 0, []
1627804129.6126, 6, 0, 4163.077, 4235.385, 4184.615, 4056.41, 4157.949, 307, 0, []
1627804129.6204, 7, 0, 4142.564, 4236.41, 4163.077, 4042.051, 4140.513, 450, 0, []
1627804129.6283, 8, 0, 4134.359, 4230.256, 4156.41, 4038.462, 4138.974, 450, 0, []
1627804129.6361, 9, 0, 4153.333, 4214.359, 4168.718, 4051.282, 4154.359, 16164, 0, []
1627804129.6439, 10, 0, 4161.538, 4218.462, 4175.385, 4050.769, 4150.256, 450, 0, []
1627804129.6517, 11, 0, 4149.744, 4246.667, 4183.077, 4041.538, 4136.41, 16198, 0, []
1627804129.6597, 12, 0, 4155.897, 4248.205, 4188.718, 4050.769, 4149.744, 450, 0, []
1627804129.6676, 13, 0, 4182.564, 4223.59, 4194.872, 4074.359, 4174.359, 450, 0, []
1627804129.6756, 14, 0, 4189.744, 4227.179, 4192.308, 4087.692, 4172.308, 450, 0, []
1627804129.6834, 15, 0, 4166.154, 4231.795, 4177.949, 4075.897, 4154.872, 16198, 0, []
1627804129.6914, 16, 0, 4155.385, 4220.513, 4176.41, 4066.667, 4153.333, 0, 0, []
1627804129.6993, 17, 0, 4169.231, 4237.436, 4182.564, 4072.821, 4162.564, 0, 0, []
1627804129.7073, 18, 0, 4173.846, 4245.128, 4183.077, 4076.41, 4160.513, 0, 0, []
1627804129.7152, 19, 0, 4165.641, 4226.667, 4183.077, 4072.308, 4157.436, 0, 0, []
1627804129.7231, 20, 0, 4161.538, 4241.026, 4183.59, 4073.333, 4162.051, 0, 0, []
1627804129.731, 21, 0, 4155.897, 4248.205, 4181.026, 4075.385, 4154.872, 0, 0, []
1627804129.7388, 22, 0, 4147.179, 4209.744, 4174.359, 4070.769, 4149.744, 0, 0, []
1627804129.7467, 23, 0, 4155.897, 4221.538, 4177.949, 4075.897, 4166.667, 0, 0, []
1627804129.7545, 24, 0, 4157.436, 4248.205, 4169.231, 4075.385, 4164.103, 0, 0, []
1627804129.7624, 25, 0, 4138.462, 4214.872, 4153.846, 4061.026, 4138.974, 0, 0, []
1627804129.7701, 26, 0, 4145.128, 4211.795, 4176.923, 4073.846, 4151.282, 0, 0, []
1627804129.778, 27, 0, 4173.333, 4253.333, 4201.026, 4106.667, 4184.103, 0, 0, []
1627804129.7858, 28, 0, 4176.41, 4258.462, 4196.41, 4107.692, 4181.026, 0, 0, []
1627804129.7937, 29, 0, 4160.513, 4232.308, 4187.179, 4086.667, 4165.128, 0, 0, []
1627804129.8015, 30, 0, 4155.897, 4223.077, 4178.974, 4086.667, 4169.744, 0, 0, []
1627804129.8094, 31, 0, 4157.436, 4232.821, 4171.795, 4094.872, 4173.333, 0, 0, []
1627804129.8173, 32, 0, 4152.821, 4234.359, 4168.718, 4088.718, 4163.59, 0, 0, []
1627804129.8253, 33, 0, 4147.179, 4229.744, 4174.872, 4085.128, 4154.359, 0, 0, []
1627804129.8332, 34, 0, 4141.538, 4237.949, 4181.538, 4091.795, 4147.692, 0, 0, []
1627804129.8412, 35, 0, 4140.513, 4240, 4173.846, 4090.769, 4138.462, 0, 0, []
1627804129.849, 36, 0, 4137.436, 4225.641, 4170.769, 4082.564, 4130.769, 0, 0, []
1627804129.857, 37, 0, 4138.462, 4222.051, 4176.41, 4087.692, 4139.487, 0, 0, []
1627804129.8649, 38, 0, 4149.744, 4235.897, 4172.308, 4103.59, 4154.359, 0, 0, []
1627804129.8729, 39, 0, 4157.949, 4245.128, 4171.795, 4108.718, 4156.923, 0, 0, []
1627804129.8808, 40, 0, 4155.385, 4232.821, 4181.026, 4106.667, 4155.385, 0, 0, []
1627804129.8885, 41, 0, 4145.641, 4212.821, 4181.026, 4108.718, 4155.385, 0, 0, []
1627804129.8964, 42, 0, 4136.923, 4214.359, 4172.308, 4109.744, 4151.795, 0, 0, []
1627804129.9042, 43, 0, 4140, 4235.385, 4176.41, 4109.744, 4147.692, 0, 0, []
1627804129.9121, 44, 0, 4140, 4234.359, 4177.436, 4109.744, 4143.077, 0, 0, []
1627804129.9199, 45, 0, 4120.513, 4213.333, 4162.051, 4104.615, 4127.179, 0, 0, []
1627804129.9277, 46, 0, 4104.615, 4208.718, 4166.154, 4100.513, 4108.718, 0, 0, []
1627804129.9355, 47, 0, 4114.359, 4220, 4178.974, 4104.103, 4103.59, 0, 0, []
1627804129.9434, 48, 0, 4129.231, 4218.462, 4178.974, 4107.179, 4115.385, 0, 0, []
1627804129.9512, 49, 0, 4124.615, 4213.333, 4176.41, 4104.615, 4118.462, 0, 0, []
1627804129.9592, 50, 0, 4114.359, 4226.154, 4175.897, 4105.128, 4107.692, 0, 0, []
1627804129.967, 51, 0, 4116.923, 4224.103, 4176.41, 4110.256, 4105.128, 0, 0, []
1627804129.975, 52, 0, 4113.846, 4209.744, 4158.462, 4107.179, 4105.641, 0, 0, []
1627804129.9829, 53, 0, 4111.282, 4221.538, 4145.641, 4105.128, 4105.641, 0, 0, []
1627804129.9909, 54, 0, 4124.103, 4213.333, 4165.128, 4113.333, 4112.308, 0, 0, []
1627804129.9988, 55, 0, 4125.128, 4182.564, 4179.487, 4112.308, 4110.769, 0, 0, []
1627804130.0067, 56, 0, 4118.974, 4191.795, 4180, 4107.179, 4105.641, 0, 0, []
1627804130.0146, 57, 0, 4131.282, 4220, 4179.487, 4116.923, 4118.462, 0, 0, []
1627804130.0226, 58, 0, 4139.487, 4218.462, 4172.308, 4126.154, 4129.744, 0, 0, []
1627804130.0305, 59, 0, 4124.615, 4221.026, 4162.564, 4114.872, 4121.538, 0, 0, []
1627804130.0383, 60, 0, 4117.949, 4236.923, 4151.282, 4103.59, 4118.462, 0, 0, []
1627804130.0461, 61, 0, 4125.641, 4228.718, 4154.359, 4109.744, 4130.256, 0, 0, []
1627804130.0539, 62, 0, 4126.667, 4208.205, 4171.795, 4122.051, 4134.872, 0, 0, []
1627804130.0618, 63, 0, 4122.564, 4211.282, 4165.641, 4123.59, 4123.59, 0, 0, []
1627804130.0696, 64, 0, 4125.128, 4213.333, 4153.333, 4117.436, 4115.385, 450, 0, []
1627804130.0775, 65, 0, 4137.436, 4211.282, 4165.641, 4124.615, 4127.179, 450, 0, []
1627804130.0852, 66, 0, 4146.667, 4224.615, 4180, 4136.923, 4139.487, 16193, 0, []
1627804130.0931, 67, 0, 4147.179, 4228.205, 4181.538, 4140, 4138.462, 450, 0, []
1627804130.1009, 68, 0, 4147.692, 4217.949, 4178.974, 4136.923, 4137.949, 16138, 0, []
1627804130.1088, 69, 0, 4141.026, 4220.513, 4171.795, 4132.821, 4134.872, 450, 0, []
1627804130.1166, 70, 0, 4137.949, 4236.41, 4165.641, 4136.41, 4133.846, 16075, 0, []
1627804130.1245, 71, 0, 4143.077, 4229.231, 4169.744, 4140.513, 4137.949, 450, 0, []
1627804130.1324, 72, 0, 4141.026, 4205.128, 4172.308, 4140, 4136.41, 450, 0, []
1627804130.1404, 73, 0, 4137.436, 4202.564, 4166.154, 4136.41, 4134.359, 16164, 0, []
1627804130.1483, 74, 0, 4138.974, 4215.385, 4166.154, 4128.718, 4131.282, 450, 0, []
1627804130.1563, 75, 0, 4137.436, 4225.641, 4157.949, 4117.436, 4119.487, 16198, 0, []
1627804130.1641, 76, 0, 4137.436, 4232.308, 4153.333, 4118.974, 4121.026, 450, 0, []
1627804130.1721, 77, 0, 4140.513, 4233.333, 4166.667, 4128.718, 4136.41, 450, 0, []
1627804130.18, 78, 0, 4135.385, 4205.128, 4166.667, 4126.667, 4137.949, 450, 0, []
1627804130.188, 79, 0, 4129.744, 4180.513, 4160.513, 4118.974, 4128.205, 16198, 0, []
1627804130.1959, 80, 0, 4132.308, 4208.205, 4155.897, 4118.974, 4124.103, 450, 0, []
1627804130.2036, 81, 0, 4135.385, 4233.333, 4150.256, 4127.179, 4126.154, 450, 0, []
1627804130.2115, 82, 0, 4144.103, 4215.897, 4161.538, 4138.462, 4133.846, 450, 0, []
1627804130.2193, 83, 0, 4154.872, 4200, 4171.795, 4141.026, 4144.103, 16198, 0, []
1627804130.2272, 84, 0, 4155.897, 4213.846, 4168.205, 4136.923, 4147.179, 450, 0, []
1627804130.235, 85, 0, 4156.41, 4230.256, 4169.744, 4141.026, 4150.256, 450, 0, []
1627804130.2428, 86, 0, 4169.744, 4230.256, 4184.615, 4151.795, 4161.538, 450, 0, []
1627804130.2506, 87, 0, 4181.026, 4232.821, 4199.487, 4156.923, 4172.821, 16198, 0, []
1627804130.2585, 88, 0, 4175.385, 4233.333, 4190.256, 4154.872, 4172.308, 450, 0, []
1627804130.2663, 89, 0, 4166.154, 4221.026, 4175.385, 4152.821, 4165.128, 450, 0, []
1627804130.2743, 90, 0, 4170.256, 4222.051, 4177.436, 4155.897, 4170.256, 450, 0, []
1627804130.2821, 91, 0, 4170.769, 4224.103, 4177.949, 4155.897, 4171.795, 16198, 0, []
1627804130.2901, 92, 0, 4156.41, 4201.538, 4173.333, 4149.231, 4155.897, 450, 0, []
1627804130.298, 93, 0, 4157.436, 4188.718, 4176.41, 4155.897, 4156.41, 450, 0, []
1627804130.306, 94, 0, 4177.949, 4222.564, 4187.692, 4169.744, 4178.462, 450, 0, []
1627804130.3139, 95, 0, 4183.59, 4240, 4190.769, 4165.128, 4185.641, 16198, 0, []
1627804130.3218, 96, 0, 4177.949, 4201.538, 4184.615, 4151.282, 4175.897, 450, 0, []
1627804130.3297, 97, 0, 4180, 4181.026, 4185.641, 4147.692, 4173.333, 450, 0, []
1627804130.3377, 98, 0, 4194.872, 4215.897, 4186.154, 4154.359, 4187.179, 450, 0, []
1627804130.3456, 99, 0, 4211.795, 4241.538, 4181.026, 4156.41, 4207.692, 16198, 0, []
1627804130.3536, 100, 0, 4234.872, 4219.487, 4170.769, 4151.282, 4229.231, 450, 0, []
1627804130.3614, 101, 0, 4290.256, 4207.179, 4170.769, 4157.436, 4272.821, 450, 0, []
1627804130.3692, 102, 0, 4358.462, 4226.667, 4190.769, 4176.41, 4334.872, 450, 0, []
1627804130.3771, 103, 0, 4393.846, 4217.436, 4184.615, 4176.41, 4375.385, 16198, 0, []
1627804130.3849, 104, 0, 4413.846, 4196.923, 4157.436, 4163.59, 4395.385, 450, 0, []
1627804130.3928, 105, 0, 4438.974, 4220.513, 4162.051, 4174.872, 4421.026, 450, 0, []
1627804130.4005, 106, 0, 4442.051, 4245.128, 4177.436, 4191.795, 4431.282, 450, 0, []
1627804130.4085, 107, 0, 4420, 4233.333, 4181.026, 4181.538, 4409.231, 16198, 0, []
1627804130.4164, 108, 0, 4393.333, 4222.564, 4179.487, 4164.103, 4378.974, 450, 0, []
1627804130.4244, 109, 0, 4366.667, 4233.333, 4177.949, 4167.179, 4353.333, 450, 0, []
1627804130.4323, 110, 0, 4341.026, 4237.949, 4180.513, 4170.256, 4330.769, 450, 0, []
1627804130.4402, 111, 0, 4313.846, 4229.231, 4176.923, 4155.897, 4309.231, 16198, 0, []
1627804130.4481, 112, 0, 4294.872, 4229.744, 4175.385, 4152.308, 4296.41, 450, 0, []
1627804130.4561, 113, 0, 4291.795, 4246.667, 4184.103, 4165.641, 4290.256, 450, 0, []
1627804130.464, 114, 0, 4292.308, 4255.385, 4193.333, 4178.974, 4286.154, 450, 0, []
1627804130.472, 115, 0, 4283.077, 4224.615, 4198.974, 4183.59, 4280, 16198, 0, []
1627804130.4798, 116, 0, 4271.282, 4211.795, 4197.436, 4179.487, 4269.744, 450, 0, []
1627804130.4878, 117, 0, 4259.487, 4246.667, 4191.282, 4172.821, 4259.487, 450, 0, []
1627804130.4957, 118, 0, 4252.821, 4251.795, 4189.231, 4167.692, 4258.974, 450, 0, []
1627804130.5036, 119, 0, 4260.513, 4234.359, 4201.026, 4171.282, 4265.128, 16198, 0, []
1627804130.5115, 120, 0, 4269.744, 4248.718, 4213.333, 4184.615, 4269.231, 450, 0, []
1627804130.5194, 121, 0, 4257.436, 4247.692, 4201.538, 4186.154, 4265.128, 450, 0, []
1627804130.5272, 122, 0, 4235.897, 4223.077, 4189.744, 4170.256, 4247.692, 450, 0, []
1627804130.535, 123, 0, 4231.795, 4240, 4184.615, 4164.615, 4231.282, 16198, 0, []
1627804130.543, 124, 0, 4234.872, 4256.923, 4178.974, 4171.795, 4227.692, 450, 0, []
1627804130.5509, 125, 0, 4232.308, 4227.692, 4180.513, 4171.282, 4225.128, 450, 0, []
1627804130.5588, 126, 0, 4233.333, 4218.462, 4180.513, 4165.641, 4219.487, 450, 0, []
1627804130.5665, 127, 0, 4231.282, 4235.385, 4180.513, 4165.641, 4217.949, 16198, 0, []
1627804130.5744, 128, 0, 4213.846, 4232.821, 4174.872, 4177.949, 4215.385, 450, 0, []
1627804130.5822, 0, 0, 4198.974, 4213.333, 4153.333, 4183.077, 4198.974, 450, 0, []
1627804130.5901, 1, 0, 4195.897, 4215.385, 4153.333, 4170.256, 4183.59, 450, 0, []
1627804130.5979, 2, 0, 4195.897, 4232.821, 4175.385, 4172.308, 4191.282, 16192, 0, []
1627804130.6058, 3, 0, 4217.436, 4229.744, 4188.718, 4191.282, 4220, 450, 0, []
1627804130.6137, 4, 0, 4253.333, 4216.41, 4187.692, 4184.615, 4246.154, 16138, 0, []
1627804130.6217, 5, 0, 4272.821, 4215.897, 4188.205, 4163.077, 4265.128, 450, 0, []
1627804130.6296, 6, 0, 4270.256, 4229.231, 4201.538, 4172.308, 4275.385, 318, 0, []
1627804130.6376, 7, 0, 4252.308, 4244.615, 4201.538, 4198.462, 4264.615, 450, 0, []
1627804130.6454, 8, 0, 4235.385, 4248.718, 4192.308, 4213.846, 4243.59, 450, 0, []
1627804130.6534, 9, 0, 4229.231, 4217.436, 4187.179, 4213.333, 4232.821, 16164, 0, []
1627804130.6613, 10, 0, 4225.641, 4197.436, 4178.462, 4206.154, 4232.821, 450, 0, []
1627804130.6691, 11, 0, 4223.077, 4223.59, 4186.154, 4197.436, 4231.282, 16194, 0, []
1627804130.677, 12, 0, 4229.231, 4239.487, 4202.564, 4188.205, 4230.769, 450, 0, []
1627804130.6847, 13, 0, 4232.821, 4231.795, 4206.154, 4182.564, 4231.795, 450, 0, []
1627804130.6926, 14, 0, 4230.769, 4225.641, 4210.256, 4184.103, 4232.821, 450, 0, []
1627804130.7004, 15, 0, 4232.821, 4224.615, 4210.769, 4185.641, 4232.308, 16194, 0, []
1627804130.7083, 16, 0, 4235.897, 4234.872, 4205.641, 4192.308, 4225.641, 0, 0, []
1627804130.7161, 17, 0, 4233.846, 4253.846, 4199.487, 4202.051, 4218.462, 0, 0, []
1627804130.7239, 18, 0, 4225.128, 4242.564, 4188.718, 4194.872, 4217.949, 0, 0, []
1627804130.7317, 19, 0, 4213.333, 4213.333, 4178.974, 4182.051, 4218.974, 0, 0, []
1627804130.7397, 20, 0, 4214.359, 4207.179, 4181.026, 4186.154, 4220, 0, 0, []
1627804130.7476, 21, 0, 4222.564, 4219.487, 4192.308, 4191.795, 4216.923, 0, 0, []
1627804130.7556, 22, 0, 4215.897, 4229.744, 4190.769, 4181.538, 4204.615, 0, 0, []
1627804130.7634, 23, 0, 4203.59, 4216.923, 4179.487, 4167.179, 4195.385, 0, 0, []
1627804130.7714, 24, 0, 4208.205, 4197.436, 4180, 4168.718, 4202.051, 0, 0, []
1627804130.7793, 25, 0, 4213.846, 4206.667, 4184.615, 4186.667, 4211.282, 0, 0, []
1627804130.7873, 26, 0, 4206.154, 4237.949, 4187.692, 4205.128, 4207.692, 0, 0, []
1627804130.7952, 27, 0, 4197.436, 4238.974, 4186.667, 4205.641, 4197.949, 0, 0, []
1627804130.8031, 28, 0, 4208.718, 4215.385, 4187.692, 4202.564, 4202.564, 0, 0, []
1627804130.811, 29, 0, 4219.487, 4212.821, 4189.231, 4201.026, 4208.205, 0, 0, []
1627804130.8188, 30, 0, 4201.538, 4227.179, 4176.41, 4183.077, 4188.718, 0, 0, []
1627804130.8267, 31, 0, 4188.205, 4234.359, 4175.385, 4169.231, 4180, 0, 0, []
1627804130.8345, 32, 0, 4208.718, 4228.205, 4191.282, 4181.538, 4199.487, 0, 0, []
1627804130.8423, 33, 0, 4224.615, 4215.385, 4189.744, 4190.256, 4209.744, 0, 0, []
1627804130.8501, 34, 0, 4212.821, 4210.256, 4183.077, 4188.205, 4210.769, 0, 0, []
1627804130.858, 35, 0, 4212.308, 4238.974, 4194.359, 4202.564, 4223.59, 0, 0, []
1627804130.8658, 36, 0, 4234.872, 4262.051, 4210.256, 4226.667, 4241.026, 0, 0, []
1627804130.8737, 37, 0, 4238.462, 4231.795, 4204.615, 4224.615, 4237.436, 0, 0, []
1627804130.8814, 38, 0, 4212.821, 4220, 4178.974, 4197.949, 4215.897, 0, 0, []
1627804130.8894, 39, 0, 4192.821, 4244.103, 4170.769, 4179.487, 4195.385, 0, 0, []
1627804130.8973, 40, 0, 4198.974, 4232.308, 4183.077, 4185.641, 4196.923, 0, 0, []
1627804130.9053, 41, 0, 4206.154, 4217.436, 4192.821, 4199.487, 4210.769, 0, 0, []
1627804130.9132, 42, 0, 4198.462, 4230.769, 4194.872, 4199.487, 4212.308, 0, 0, []
1627804130.9211, 43, 0, 4200, 4226.154, 4192.308, 4201.538, 4213.846, 0, 0, []
1627804130.929, 44, 0, 4209.231, 4219.487, 4186.154, 4207.179, 4214.359, 0, 0, []
1627804130.937, 45, 0, 4198.462, 4226.667, 4169.744, 4197.436, 4200, 0, 0, []
1627804130.9449, 46, 0, 4191.795, 4215.385, 4161.538, 4190.256, 4200.513, 0, 0, []
1627804130.9529, 47, 0, 4206.667, 4221.026, 4177.949, 4201.026, 4216.923, 0, 0, []
1627804130.9607, 48, 0, 4204.103, 4240, 4185.641, 4203.077, 4210.769, 0, 0, []
1627804130.9685, 49, 0, 4190.256, 4218.974, 4185.641, 4197.949, 4197.436, 0, 0, []
1627804130.9764, 50, 0, 4206.667, 4206.154, 4195.385, 4213.333, 4214.359, 0, 0, []
1627804130.9842, 51, 0, 4224.103, 4229.231, 4200.513, 4217.949, 4226.154, 0, 0, []
1627804130.9921, 52, 0, 4218.462, 4242.051, 4196.41, 4200, 4216.41, 0, 0, []
1627804130.9998, 53, 0, 4210.769, 4245.128, 4185.128, 4201.026, 4211.795, 0, 0, []
1627804131.0077, 54, 0, 4203.59, 4243.59, 4173.846, 4213.846, 4209.231, 0, 0, []
1627804131.0155, 55, 0, 4196.41, 4225.128, 4165.128, 4207.692, 4195.897, 0, 0, []
1627804131.0234, 56, 0, 4198.974, 4213.846, 4160.513, 4200.513, 4186.154, 0, 0, []
1627804131.0312, 57, 0, 4201.538, 4216.923, 4177.436, 4208.205, 4193.846, 0, 0, []
1627804131.039, 58, 0, 4204.615, 4221.538, 4193.333, 4204.615, 4205.641, 0, 0, []
1627804131.0468, 59, 0, 4202.051, 4241.538, 4192.308, 4180, 4194.359, 0, 0, []
1627804131.0548, 60, 0, 4187.692, 4251.282, 4190.769, 4163.077, 4178.462, 0, 0, []
1627804131.0627, 61, 0, 4181.538, 4229.231, 4190.256, 4169.231, 4182.564, 0, 0, []
1627804131.0707, 62, 0, 4183.59, 4219.487, 4181.026, 4172.821, 4185.128, 0, 0, []
1627804131.0785, 63, 0, 4182.564, 4225.128, 4169.231, 4166.667, 4176.41, 0, 0, []
1627804131.0865, 64, 0, 4190.256, 4221.538, 4177.949, 4184.103, 4183.077, 450, 0, []
1627804131.0944, 65, 0, 4208.718, 4222.051, 4196.41, 4216.41, 4205.641, 450, 0, []
1627804131.1024, 66, 0, 4216.923, 4224.615, 4193.846, 4226.667, 4220.513, 16185, 0, []
1627804131.1103, 67, 0, 4212.821, 4216.41, 4177.949, 4214.872, 4213.333, 450, 0, []
1627804131.1182, 68, 0, 4216.41, 4221.538, 4168.205, 4210.256, 4208.205, 16134, 0, []
1627804131.1261, 69, 0, 4234.359, 4234.359, 4180, 4213.846, 4227.179, 450, 0, []
1627804131.1339, 70, 0, 4241.538, 4234.872, 4179.487, 4211.282, 4237.949, 300, 0, []
1627804131.1418, 71, 0, 4223.077, 4227.179, 4155.385, 4198.974, 4221.538, 450, 0, []
1627804131.1496, 72, 0, 4213.333, 4210.256, 4160, 4194.872, 4210.256, 450, 0, []
1627804131.1574, 73, 0, 4230.769, 4215.385, 4180, 4209.744, 4223.59, 16158, 0, []
1627804131.1652, 74, 0, 4256.41, 4239.487, 4175.385, 4217.949, 4244.103, 450, 0, []
1627804131.1731, 75, 0, 4287.179, 4226.154, 4162.051, 4202.051, 4264.615, 16194, 0, []
1627804131.1809, 76, 0, 4347.692, 4220, 4166.667, 4192.821, 4317.949, 450, 0, []
1627804131.1888, 77, 0, 4435.385, 4251.795, 4194.872, 4214.872, 4408.205, 450, 0, []
1627804131.1965, 78, 0, 4497.949, 4251.795, 4202.564, 4223.077, 4470.256, 450, 0, []
1627804131.2045, 79, 0, 4509.744, 4223.59, 4178.974, 4202.051, 4477.949, 16194, 0, []
1627804131.2124, 80, 0, 4511.795, 4226.667, 4173.333, 4202.051, 4481.026, 450, 0, []
1627804131.2204, 81, 0, 4519.487, 4251.282, 4186.667, 4215.385, 4482.564, 450, 0, []
1627804131.2283, 82, 0, 4505.128, 4262.564, 4191.282, 4208.205, 4453.333, 450, 0, []
1627804131.2363, 83, 0, 4477.949, 4263.59, 4187.692, 4203.077, 4425.128, 16194, 0, []
1627804131.2441, 84, 0, 4458.974, 4255.385, 4183.077, 4214.359, 4414.872, 450, 0, []
1627804131.2521, 85, 0, 4432.308, 4239.487, 4178.974, 4214.359, 4393.846, 450, 0, []
1627804131.26, 86, 0, 4401.026, 4237.436, 4177.949, 4204.103, 4366.154, 450, 0, []
1627804131.268, 87, 0, 4378.462, 4245.641, 4188.205, 4202.051, 4346.667, 16194, 0, []
1627804131.2759, 88, 0, 4351.282, 4232.821, 4192.308, 4205.128, 4323.59, 450, 0, []
1627804131.2836, 89, 0, 4315.897, 4213.333, 4184.615, 4203.077, 4294.359, 450, 0, []
1627804131.2915, 90, 0, 4291.282, 4236.41, 4187.179, 4199.487, 4271.795, 450, 0, []
1627804131.2993, 91, 0, 4283.077, 4256.41, 4193.333, 4205.641, 4265.128, 16194, 0, []
1627804131.3072, 92, 0, 4275.897, 4232.821, 4200.513, 4217.949, 4261.538, 450, 0, []
1627804131.315, 93, 0, 4262.564, 4230.256, 4203.077, 4222.564, 4253.846, 450, 0, []
1627804131.3228, 94, 0, 4247.179, 4256.41, 4193.846, 4211.795, 4244.615, 450, 0, []
1627804131.3306, 95, 0, 4235.897, 4247.179, 4186.154, 4200.513, 4231.795, 16194, 0, []
1627804131.3385, 96, 0, 4224.615, 4208.718, 4177.436, 4199.487, 4214.872, 450, 0, []
1627804131.3463, 97, 0, 4215.385, 4209.744, 4172.308, 4203.59, 4207.692, 450, 0, []
1627804131.3542, 98, 0, 4215.385, 4245.128, 4182.564, 4210.769, 4215.897, 450, 0, []
1627804131.3619, 99, 0, 4212.308, 4244.615, 4187.179, 4214.872, 4213.846, 16194, 0, []
1627804131.3699, 100, 0, 4205.641, 4230.769, 4190.256, 4217.949, 4205.641, 450, 0, []
1627804131.3778, 101, 0, 4203.077, 4246.667, 4198.974, 4216.923, 4204.615, 450, 0, []
1627804131.3858, 102, 0, 4200, 4250.769, 4192.821, 4202.051, 4196.923, 450, 0, []
1627804131.3937, 103, 0, 4199.487, 4231.282, 4181.026, 4193.333, 4190.769, 16194, 0, []
1627804131.4016, 104, 0, 4202.051, 4228.205, 4187.179, 4204.103, 4195.385, 450, 0, []
1627804131.4095, 105, 0, 4192.821, 4232.308, 4194.872, 4209.231, 4192.308, 450, 0, []
1627804131.4175, 106, 0, 4182.564, 4224.103, 4181.538, 4205.641, 4180, 450, 0, []
1627804131.4254, 107, 0, 4185.128, 4229.744, 4183.077, 4212.821, 4178.462, 16194, 0, []
1627804131.4334, 108, 0, 4176.923, 4230.769, 4196.41, 4209.231, 4170.769, 450, 0, []
1627804131.4412, 109, 0, 4161.538, 4206.667, 4178.462, 4191.795, 4149.744, 450, 0, []
1627804131.449, 110, 0, 4168.718, 4214.872, 4171.282, 4197.949, 4153.846, 450, 0, []
1627804131.4569, 111, 0, 4188.205, 4250.769, 4190.769, 4223.077, 4179.487, 16194, 0, []
1627804131.4647, 112, 0, 4188.718, 4243.077, 4194.359, 4224.615, 4184.103, 450, 0, []
1627804131.4726, 113, 0, 4168.718, 4216.923, 4177.436, 4203.077, 4159.487, 450, 0, []
1627804131.4803, 114, 0, 4164.103, 4225.641, 4169.744, 4200, 4155.385, 450, 0, []
1627804131.4882, 115, 0, 4184.615, 4236.923, 4183.59, 4223.077, 4183.59, 16194, 0, []
1627804131.496, 116, 0, 4183.59, 4235.897, 4183.59, 4220, 4180, 450, 0, []
1627804131.504, 117, 0, 4164.615, 4244.615, 4173.846, 4197.949, 4152.821, 450, 0, []
1627804131.5119, 118, 0, 4173.846, 4248.718, 4186.667, 4204.103, 4155.897, 450, 0, []
1627804131.5198, 119, 0, 4189.231, 4261.538, 4196.923, 4224.615, 4173.333, 16194, 0, []
1627804131.5277, 120, 0, 4175.897, 4267.692, 4192.308, 4218.462, 4163.077, 450, 0, []
1627804131.5357, 121, 0, 4162.564, 4239.487, 4191.795, 4201.538, 4149.231, 450, 0, []
1627804131.5436, 122, 0, 4169.744, 4233.846, 4202.564, 4205.128, 4158.974, 450, 0, []
1627804131.5516, 123, 0, 4172.308, 4248.205, 4208.718, 4216.41, 4169.231, 16194, 0, []
1627804131.5594, 124, 0, 4168.718, 4237.949, 4200, 4215.897, 4168.718, 450, 0, []
1627804131.5674, 125, 0, 4170.769, 4236.41, 4197.436, 4214.359, 4167.692, 450, 0, []
1627804131.5753, 126, 0, 4172.821, 4247.179, 4197.436, 4218.462, 4164.103, 450, 0, []
1627804131.5832, 127, 0, 4170.769, 4236.923, 4186.154, 4219.487, 4157.949, 16194, 0, []
1627804131.5911, 128, 0, 4168.205, 4234.872, 4176.41, 4218.974, 4155.385, 450, 0, []
1627804131.5988, 0, 0, 4166.154, 4246.667, 4174.872, 4215.897, 4154.872, 450, 0, []
1627804131.6067, 1, 0, 4173.846, 4243.077, 4178.462, 4216.41, 4161.538, 450, 0, []
1627804131.6145, 2, 0, 4179.487, 4240, 4188.205, 4223.077, 4167.692, 16182, 0, []
1627804131.6224, 3, 0, 4167.179, 4236.923, 4193.333, 4220.513, 4161.538, 450, 0, []
1627804131.6302, 4, 0, 4164.103, 4232.821, 4200, 4217.436, 4164.615, 16134, 0, []
1627804131.638, 5, 0, 4166.154, 4238.974, 4193.846, 4219.487, 4169.744, 450, 0, []
1627804131.6458, 6, 0, 4155.385, 4241.538, 4176.923, 4213.846, 4157.436, 300, 0, []
1627804131.6537, 7, 0, 4157.436, 4245.128, 4185.641, 4217.949, 4160.513, 450, 0, []
1627804131.6615, 8, 0, 4171.795, 4252.821, 4198.974, 4231.795, 4177.436, 450, 0, []
