Timestamp, COUNTER, INTERPOLATED, AF3, T7, Pz, T8, AF4, RAW_CQ, MARKER_HARDWARE, MARKERS
1630164441.9712, 70, 0, 4139.487, 4200, 4033.846, 4094.872, 4122.051, 253, 0, []
1630164441.9791, 71, 0, 4151.795, 4209.744, 3995.385, 4090.256, 4122.564, 450, 0, []
1630164441.987, 72, 0, 4158.462, 4201.538, 4049.231, 4101.026, 4137.949, 450, 0, []
1630164441.9949, 73, 0, 4183.59, 4180, 4129.744, 4117.436, 4168.718, 16120, 0, []
1630164442.0029, 74, 0, 4215.897, 4141.538, 4056.923, 4101.026, 4193.333, 450, 0, []
1630164442.0108, 75, 0, 4233.846, 4112.821, 3995.385, 4079.487, 4201.538, 16196, 0, []
1630164442.0188, 76, 0, 4262.051, 4109.231, 4078.974, 4092.308, 4214.872, 450, 0, []
1630164442.0266, 77, 0, 4315.385, 4117.949, 4071.795, 4103.077, 4251.282, 450, 0, []
1630164442.0346, 78, 0, 4344.615, 4120, 4024.103, 4100, 4290.256, 450, 0, []
1630164442.0425, 79, 0, 4345.128, 4103.077, 4048.718, 4109.231, 4304.615, 16196, 0, []
1630164442.0505, 80, 0, 4352.821, 4092.821, 4053.846, 4110.256, 4293.846, 450, 0, []
1630164442.0584, 81, 0, 4357.949, 4111.795, 4062.051, 4095.897, 4291.795, 450, 0, []
1630164442.0663, 82, 0, 4346.667, 4116.923, 4053.333, 4085.128, 4306.154, 450, 0, []
1630164442.0742, 83, 0, 4344.103, 4077.949, 4048.205, 4089.231, 4313.846, 16196, 0, []
1630164442.0822, 84, 0, 4357.436, 4051.282, 4071.282, 4100.513, 4315.897, 450, 0, []
1630164442.0901, 85, 0, 4361.538, 4094.872, 4057.436, 4093.846, 4328.718, 450, 0, []
1630164442.0981, 86, 0, 4356.923, 4133.846, 4055.897, 4090.256, 4343.077, 450, 0, []
1630164442.106, 87, 0, 4366.667, 4107.179, 4055.897, 4113.846, 4345.128, 16196, 0, []
1630164442.1139, 88, 0, 4385.128, 4101.026, 4072.821, 4127.179, 4347.179, 450, 0, []
1630164442.1219, 89, 0, 4368.718, 4128.205, 4062.564, 4101.538, 4338.974, 450, 0, []
1630164442.1298, 90, 0, 4340, 4133.846, 4031.282, 4082.564, 4324.615, 450, 0, []
1630164442.1378, 91, 0, 4364.103, 4137.436, 4085.641, 4105.128, 4341.538, 16196, 0, []
1630164442.1456, 92, 0, 4406.154, 4155.385, 4083.077, 4122.051, 4365.128, 450, 0, []
1630164442.1536, 93, 0, 4403.077, 4160.513, 4058.974, 4108.718, 4356.41, 450, 0, []
1630164442.1615, 94, 0, 4378.462, 4154.872, 4079.487, 4095.897, 4335.385, 450, 0, []
1630164442.1695, 95, 0, 4370.256, 4160.513, 4068.205, 4106.154, 4324.103, 16196, 0, []
1630164442.1774, 96, 0, 4376.41, 4165.641, 4084.615, 4127.692, 4324.103, 450, 0, []
1630164442.1853, 97, 0, 4382.051, 4174.359, 4077.436, 4129.231, 4331.795, 450, 0, []
1630164442.1932, 98, 0, 4365.641, 4181.026, 4074.872, 4112.308, 4322.564, 450, 0, []
1630164442.2012, 99, 0, 4344.103, 4162.564, 4092.821, 4110.256, 4298.462, 16196, 0, []
1630164442.2091, 100, 0, 4339.487, 4154.872, 4060.513, 4126.667, 4284.103, 450, 0, []
1630164442.2171, 101, 0, 4332.308, 4171.282, 4076.41, 4132.308, 4276.923, 450, 0, []
1630164442.2249, 102, 0, 4308.718, 4185.128, 4083.077, 4115.897, 4265.641, 450, 0, []
1630164442.2329, 103, 0, 4297.436, 4194.359, 4075.897, 4116.923, 4251.282, 16196, 0, []
1630164442.2409, 104, 0, 4296.923, 4208.718, 4097.436, 4136.923, 4235.897, 450, 0, []
1630164442.2488, 105, 0, 4273.333, 4206.667, 4078.462, 4125.641, 4218.974, 450, 0, []
1630164442.2568, 106, 0, 4242.564, 4202.564, 4078.974, 4109.231, 4197.949, 450, 0, []
1630164442.2646, 107, 0, 4232.308, 4222.564, 4073.333, 4113.333, 4180.513, 16196, 0, []
1630164442.2726, 108, 0, 4213.333, 4217.949, 4072.308, 4109.744, 4161.538, 450, 0, []
1630164442.2805, 109, 0, 4186.154, 4202.564, 4046.154, 4100, 4140.513, 450, 0, []
1630164442.2885, 110, 0, 4187.692, 4213.333, 4057.436, 4103.59, 4132.821, 450, 0, []
1630164442.2964, 111, 0, 4192.308, 4190.769, 4113.333, 4104.615, 4127.179, 16196, 0, []
1630164442.3044, 112, 0, 4164.615, 4154.872, 3970.769, 4075.897, 4103.077, 450, 0, []
1630164442.3122, 113, 0, 4142.564, 4164.103, 4031.282, 4074.872, 4075.897, 450, 0, []
1630164442.3202, 114, 0, 4147.179, 4182.564, 4184.615, 4090.256, 4075.897, 450, 0, []
1630164442.3281, 115, 0, 4154.359, 4164.103, 4036.923, 4077.949, 4094.872, 16196, 0, []
1630164442.3361, 116, 0, 4151.282, 4161.538, 4046.667, 4083.077, 4099.487, 450, 0, []
1630164442.344, 117, 0, 4144.615, 4196.923, 4085.641, 4076.41, 4086.667, 450, 0, []
1630164442.3519, 118, 0, 4145.128, 4202.051, 4035.385, 4057.949, 4079.487, 450, 0, []
1630164442.3598, 119, 0, 4152.821, 4177.436, 4079.487, 4067.179, 4090.256, 16196, 0, []
1630164442.3678, 120, 0, 4161.026, 4187.179, 4066.667, 4077.949, 4097.436, 450, 0, []
1630164442.3757, 121, 0, 4155.385, 4209.231, 4067.179, 4072.308, 4081.538, 450, 0, []
1630164442.3835, 122, 0, 4134.359, 4189.744, 4058.974, 4058.462, 4056.41, 450, 0, []
1630164442.3913, 123, 0, 4120.513, 4169.231, 4038.462, 4058.974, 4049.231, 16196, 0, []
1630164442.3991, 124, 0, 4119.487, 4172.821, 4054.359, 4067.692, 4056.923, 450, 0, []
1630164442.407, 125, 0, 4120, 4173.846, 4043.59, 4068.205, 4062.564, 450, 0, []
1630164442.4148, 126, 0, 4113.333, 4173.333, 4058.974, 4066.667, 4068.718, 450, 0, []
1630164442.4228, 127, 0, 4110.256, 4162.564, 4057.436, 4065.128, 4073.333, 16196, 0, []
1630164442.4306, 128, 0, 4124.103, 4146.154, 4054.359, 4071.282, 4080, 450, 0, []
1630164442.4386, 0, 0, 4144.615, 4154.359, 4084.615, 4088.718, 4091.282, 450, 0, []
1630164442.4465, 1, 0, 4140, 4166.154, 4060, 4088.205, 4084.615, 450, 0, []
1630164442.4545, 2, 0, 4120.513, 4146.154, 4044.615, 4068.718, 4060, 16181, 0, []
1630164442.4624, 3, 0, 4118.462, 4139.487, 4035.897, 4061.026, 4047.692, 450, 0, []
1630164442.4703, 4, 0, 4122.564, 4160, 4021.538, 4068.205, 4051.282, 16096, 0, []
1630164442.4782, 5, 0, 4127.692, 4174.359, 4042.564, 4075.385, 4056.41, 450, 0, []
1630164442.4862, 6, 0, 4137.436, 4177.436, 4036.41, 4070.769, 4064.615, 248, 0, []
1630164442.4941, 7, 0, 4130.769, 4181.538, 4042.564, 4061.538, 4065.128, 450, 0, []
1630164442.5021, 8, 0, 4118.974, 4194.872, 4049.231, 4061.026, 4063.077, 450, 0, []
1630164442.5099, 9, 0, 4127.692, 4187.179, 4036.41, 4074.872, 4067.179, 16121, 0, []
1630164442.5179, 10, 0, 4134.359, 4154.359, 4055.897, 4085.128, 4056.923, 450, 0, []
1630164442.5258, 11, 0, 4125.128, 4160.513, 4049.231, 4080.513, 4041.026, 16151, 0, []
1630164442.5336, 12, 0, 4115.897, 4179.487, 4046.154, 4068.718, 4037.949, 450, 0, []
1630164442.5415, 13, 0, 4111.795, 4147.692, 4054.872, 4057.949, 4048.205, 450, 0, []
1630164442.5492, 14, 0, 4121.026, 4138.462, 4048.718, 4067.179, 4064.615, 450, 0, []
1630164442.5571, 15, 0, 4135.897, 4168.718, 4065.128, 4085.641, 4078.462, 16151, 0, []
1630164442.5649, 16, 0, 4141.026, 4155.385, 4053.333, 4088.205, 4081.538, 0, 0, []
1630164442.5729, 17, 0, 4135.385, 4144.615, 4049.744, 4084.615, 4078.974, 0, 0, []
1630164442.5808, 18, 0, 4125.641, 4184.615, 4064.103, 4086.154, 4080, 0, 0, []
1630164442.5887, 19, 0, 4117.436, 4186.154, 4049.744, 4086.667, 4074.359, 0, 0, []
1630164442.5966, 20, 0, 4110.769, 4140.513, 4055.897, 4082.564, 4064.615, 0, 0, []
1630164442.6046, 21, 0, 4107.692, 4148.718, 4045.128, 4080.513, 4061.538, 0, 0, []
1630164442.6125, 22, 0, 4112.308, 4183.59, 4040.513, 4077.436, 4066.154, 0, 0, []
1630164442.6205, 23, 0, 4127.179, 4169.744, 4064.103, 4080.513, 4074.359, 0, 0, []
1630164442.6283, 24, 0, 4131.795, 4144.615, 4065.641, 4095.385, 4081.026, 0, 0, []
1630164442.6362, 25, 0, 4117.949, 4141.026, 4069.744, 4102.564, 4075.385, 0, 0, []
1630164442.6442, 26, 0, 4104.615, 4133.846, 4051.282, 4087.692, 4061.538, 0, 0, []
1630164442.6522, 27, 0, 4092.821, 4128.718, 4049.231, 4075.385, 4051.282, 0, 0, []
1630164442.6601, 28, 0, 4081.538, 4140, 4071.282, 4074.359, 4041.538, 0, 0, []
1630164442.6681, 29, 0, 4090.256, 4135.897, 4062.564, 4079.487, 4054.872, 0, 0, []
1630164442.6759, 30, 0, 4113.333, 4139.487, 4084.615, 4099.487, 4080.513, 0, 0, []
1630164442.6837, 31, 0, 4126.667, 4171.282, 4091.282, 4109.744, 4090.769, 0, 0, []
1630164442.6916, 32, 0, 4134.872, 4168.205, 4082.564, 4110.769, 4090.256, 0, 0, []
1630164442.6994, 33, 0, 4138.462, 4154.359, 4094.872, 4116.41, 4089.231, 0, 0, []
1630164442.7073, 34, 0, 4126.154, 4167.179, 4067.692, 4110.256, 4086.667, 0, 0, []
1630164442.715, 35, 0, 4123.59, 4172.821, 4056.41, 4098.974, 4090.256, 0, 0, []
1630164442.7229, 36, 0, 4134.359, 4151.795, 4043.59, 4091.795, 4097.436, 0, 0, []
1630164442.7307, 37, 0, 4137.436, 4145.641, 4032.821, 4090.769, 4091.282, 0, 0, []
1630164442.7387, 38, 0, 4136.41, 4161.538, 4056.923, 4097.436, 4094.872, 0, 0, []
1630164442.7466, 39, 0, 4130.256, 4159.487, 4040.513, 4102.564, 4104.615, 0, 0, []
1630164442.7545, 40, 0, 4129.744, 4155.897, 4046.154, 4106.667, 4104.615, 0, 0, []
1630164442.7624, 41, 0, 4151.795, 4175.897, 4062.051, 4123.59, 4134.872, 0, 0, []
1630164442.7704, 42, 0, 4191.282, 4201.538, 4041.538, 4145.128, 4182.564, 0, 0, []
1630164442.7783, 43, 0, 4213.333, 4206.154, 4031.282, 4146.154, 4189.231, 0, 0, []
1630164442.7863, 44, 0, 4203.077, 4212.821, 3991.282, 4132.821, 4171.282, 0, 0, []
1630164442.7941, 45, 0, 4196.923, 4228.718, 3954.872, 4128.718, 4174.359, 0, 0, []
1630164442.8021, 46, 0, 4217.949, 4230.769, 3941.538, 4131.282, 4184.103, 0, 0, []
1630164442.81, 47, 0, 4234.872, 4228.205, 3928.205, 4129.744, 4187.692, 0, 0, []
1630164442.818, 48, 0, 4252.308, 4246.667, 3950.256, 4134.872, 4213.846, 0, 0, []
1630164442.8259, 49, 0, 4304.103, 4272.308, 3952.821, 4146.154, 4256.41, 0, 0, []
1630164442.8337, 50, 0, 4348.205, 4254.872, 3948.205, 4144.615, 4285.128, 0, 0, []
1630164442.8416, 51, 0, 4349.231, 4233.333, 3965.128, 4142.564, 4297.949, 0, 0, []
1630164442.8494, 52, 0, 4346.154, 4264.103, 3952.821, 4150.256, 4298.462, 0, 0, []
1630164442.8573, 53, 0, 4341.026, 4273.846, 3960, 4146.667, 4285.128, 0, 0, []
1630164442.8651, 54, 0, 4306.667, 4242.564, 3970.256, 4130.769, 4270.256, 0, 0, []
1630164442.873, 55, 0, 4277.436, 4252.821, 3967.179, 4132.308, 4258.462, 0, 0, []
1630164442.8809, 56, 0, 4272.821, 4274.359, 3986.154, 4148.205, 4238.974, 0, 0, []
1630164442.8889, 57, 0, 4254.872, 4248.718, 3995.385, 4149.744, 4215.897, 0, 0, []
1630164442.8968, 58, 0, 4223.59, 4232.821, 4007.692, 4143.59, 4194.359, 0, 0, []
1630164442.9048, 59, 0, 4210.256, 4252.821, 4003.077, 4145.128, 4174.872, 0, 0, []
1630164442.9126, 60, 0, 4208.205, 4253.333, 3997.436, 4149.744, 4167.692, 0, 0, []
1630164442.9206, 61, 0, 4198.974, 4241.026, 4014.872, 4148.718, 4161.538, 0, 0, []
1630164442.9285, 62, 0, 4194.359, 4250.769, 4010.256, 4148.718, 4158.462, 0, 0, []
1630164442.9365, 63, 0, 4184.103, 4253.846, 4022.564, 4144.615, 4150.256, 0, 0, []
1630164442.9444, 64, 0, 4167.692, 4248.718, 4031.795, 4134.359, 4134.872, 450, 0, []
1630164442.9523, 65, 0, 4173.846, 4263.59, 4025.641, 4151.795, 4140, 450, 0, []
1630164442.9602, 66, 0, 4183.59, 4294.872, 4040.513, 4175.385, 4152.308, 16185, 0, []
1630164442.9682, 67, 0, 4170.769, 4302.051, 4000, 4150.769, 4142.564, 450, 0, []
1630164442.9761, 68, 0, 4166.154, 4277.949, 3970.256, 4127.179, 4132.308, 16092, 0, []
1630164442.9839, 69, 0, 4171.795, 4263.077, 3989.231, 4141.026, 4136.41, 450, 0, []
1630164442.9917, 70, 0, 4157.949, 4254.872, 3978.462, 4147.692, 4130.256, 253, 0, []
1630164442.9995, 71, 0, 4145.641, 4239.487, 3986.667, 4146.154, 4121.538, 450, 0, []
1630164443.0074, 72, 0, 4153.846, 4229.231, 3990.256, 4147.692, 4124.615, 450, 0, []
1630164443.0152, 73, 0, 4154.872, 4230.256, 4000, 4138.974, 4113.846, 16127, 0, []
1630164443.0231, 74, 0, 4145.641, 4221.538, 4038.462, 4137.949, 4107.692, 450, 0, []
1630164443.0309, 75, 0, 4134.872, 4201.026, 4037.949, 4145.641, 4109.231, 16165, 0, []
1630164443.0388, 76, 0, 4124.103, 4189.744, 4052.308, 4143.077, 4094.872, 450, 0, []
1630164443.0467, 77, 0, 4129.231, 4200.513, 4070.256, 4144.103, 4092.821, 450, 0, []
1630164443.0546, 78, 0, 4134.359, 4232.821, 4079.487, 4153.333, 4105.641, 450, 0, []
1630164443.0624, 79, 0, 4121.026, 4251.795, 4092.308, 4156.41, 4099.487, 16165, 0, []
1630164443.0704, 80, 0, 4129.231, 4251.282, 4089.231, 4158.462, 4095.385, 450, 0, []
1630164443.0782, 81, 0, 4154.359, 4248.205, 4118.974, 4161.538, 4106.667, 450, 0, []
1630164443.0862, 82, 0, 4137.436, 4246.154, 4114.359, 4158.462, 4091.282, 450, 0, []
1630164443.0941, 83, 0, 4095.897, 4259.487, 4100, 4149.744, 4054.872, 16165, 0, []
1630164443.1021, 84, 0, 4091.795, 4262.564, 4130.769, 4143.59, 4056.41, 450, 0, []
1630164443.11, 85, 0, 4115.897, 4238.462, 4133.846, 4146.154, 4081.026, 450, 0, []
1630164443.1179, 86, 0, 4126.667, 4227.179, 4156.923, 4161.538, 4092.821, 450, 0, []
1630164443.1258, 87, 0, 4126.154, 4236.41, 4174.359, 4169.231, 4084.615, 16165, 0, []
1630164443.1338, 88, 0, 4115.385, 4237.436, 4167.692, 4153.333, 4055.897, 450, 0, []
1630164443.1417, 89, 0, 4099.487, 4241.538, 4182.051, 4147.692, 4042.564, 450, 0, []
1630164443.1495, 90, 0, 4099.487, 4250.256, 4185.641, 4155.385, 4057.436, 450, 0, []
1630164443.1573, 91, 0, 4107.179, 4240, 4206.154, 4151.282, 4067.179, 16165, 0, []
1630164443.1651, 92, 0, 4108.205, 4230.256, 4206.154, 4144.103, 4065.128, 450, 0, []
1630164443.1731, 93, 0, 4104.615, 4229.231, 4199.487, 4150.256, 4071.795, 450, 0, []
1630164443.181, 94, 0, 4109.231, 4221.538, 4216.41, 4155.897, 4076.41, 450, 0, []
1630164443.1889, 95, 0, 4127.179, 4205.641, 4191.282, 4151.282, 4075.897, 16165, 0, []
1630164443.1966, 96, 0, 4142.564, 4215.385, 4202.564, 4165.641, 4092.308, 450, 0, []
1630164443.2045, 97, 0, 4145.641, 4258.462, 4225.128, 4192.821, 4110.769, 450, 0, []
1630164443.2123, 98, 0, 4138.974, 4273.333, 4213.333, 4194.359, 4109.744, 450, 0, []
1630164443.2203, 99, 0, 4138.974, 4253.333, 4223.59, 4175.385, 4100, 16165, 0, []
1630164443.2282, 100, 0, 4143.59, 4268.718, 4217.436, 4169.231, 4102.564, 450, 0, []
1630164443.2361, 101, 0, 4143.59, 4304.103, 4235.897, 4187.179, 4111.795, 450, 0, []
1630164443.244, 102, 0, 4138.462, 4285.128, 4239.487, 4185.128, 4109.231, 450, 0, []
1630164443.252, 103, 0, 4136.41, 4256.41, 4207.692, 4167.179, 4111.795, 16165, 0, []
1630164443.2599, 104, 0, 4144.103, 4283.59, 4219.487, 4167.692, 4120.513, 450, 0, []
1630164443.2678, 105, 0, 4144.103, 4311.282, 4202.051, 4163.077, 4105.128, 450, 0, []
1630164443.2756, 106, 0, 4126.154, 4296.41, 4196.41, 4150.769, 4077.436, 450, 0, []
1630164443.2834, 107, 0, 4119.487, 4291.795, 4216.41, 4154.359, 4071.795, 16165, 0, []
1630164443.2913, 108, 0, 4134.872, 4311.795, 4206.667, 4157.949, 4086.667, 450, 0, []
1630164443.2991, 109, 0, 4138.462, 4293.333, 4227.179, 4152.308, 4091.282, 450, 0, []
1630164443.307, 110, 0, 4128.205, 4227.692, 4228.205, 4153.846, 4083.59, 450, 0, []
1630164443.3147, 111, 0, 4136.923, 4181.026, 4229.231, 4165.641, 4087.179, 16165, 0, []
1630164443.3226, 112, 0, 4162.051, 4196.923, 4233.846, 4168.718, 4100.513, 450, 0, []
1630164443.3304, 113, 0, 4171.282, 4223.077, 4204.103, 4158.462, 4109.744, 450, 0, []
1630164443.3384, 114, 0, 4161.538, 4226.154, 4214.359, 4146.667, 4106.154, 450, 0, []
1630164443.3463, 115, 0, 4147.692, 4250.256, 4208.718, 4133.333, 4092.821, 16165, 0, []
1630164443.3542, 116, 0, 4132.308, 4268.718, 4202.051, 4123.59, 4077.436, 450, 0, []
1630164443.3621, 117, 0, 4117.436, 4255.897, 4214.359, 4123.077, 4075.385, 450, 0, []
1630164443.3701, 118, 0, 4109.231, 4260, 4187.179, 4123.59, 4078.462, 450, 0, []
1630164443.378, 119, 0, 4112.821, 4254.872, 4195.897, 4128.205, 4073.333, 16165, 0, []
1630164443.386, 120, 0, 4119.487, 4230.769, 4199.487, 4136.41, 4075.385, 450, 0, []
1630164443.3939, 121, 0, 4121.026, 4248.718, 4193.846, 4145.128, 4082.564, 450, 0, []
1630164443.4018, 122, 0, 4120, 4274.872, 4208.718, 4148.718, 4088.205, 450, 0, []
1630164443.4097, 123, 0, 4120, 4267.179, 4184.103, 4142.051, 4098.462, 16165, 0, []
1630164443.4177, 124, 0, 4118.974, 4284.103, 4187.692, 4137.949, 4096.41, 450, 0, []
1630164443.4256, 125, 0, 4115.897, 4308.205, 4195.897, 4138.974, 4074.872, 450, 0, []
1630164443.4334, 126, 0, 4110.769, 4277.949, 4182.564, 4136.41, 4064.103, 450, 0, []
1630164443.4412, 127, 0, 4103.077, 4264.103, 4175.897, 4127.692, 4073.333, 16165, 0, []
1630164443.449, 128, 0, 4097.436, 4301.026, 4143.077, 4115.385, 4078.462, 450, 0, []
1630164443.4569, 0, 0, 4105.128, 4317.949, 4153.846, 4112.821, 4070.769, 450, 0, []
1630164443.4647, 1, 0, 4120.513, 4300.513, 4161.026, 4122.564, 4077.436, 450, 0, []
1630164443.4726, 2, 0, 4125.641, 4286.154, 4138.462, 4133.846, 4100, 16185, 0, []
1630164443.4803, 3, 0, 4116.41, 4297.436, 4152.821, 4135.897, 4104.103, 450, 0, []
1630164443.4883, 4, 0, 4118.974, 4316.41, 4152.821, 4136.41, 4106.154, 16092, 0, []
1630164443.4962, 5, 0, 4132.821, 4298.462, 4175.385, 4141.026, 4114.359, 450, 0, []
1630164443.5042, 6, 0, 4121.026, 4267.179, 4176.41, 4123.59, 4104.103, 250, 0, []
1630164443.5121, 7, 0, 4105.128, 4298.462, 4148.718, 4114.359, 4093.333, 450, 0, []
1630164443.52, 8, 0, 4117.949, 4350.769, 4181.026, 4141.538, 4100, 450, 0, []
1630164443.5279, 9, 0, 4124.103, 4331.282, 4168.718, 4151.795, 4098.462, 16123, 0, []
1630164443.5359, 10, 0, 4115.385, 4295.897, 4148.718, 4143.59, 4088.718, 450, 0, []
1630164443.5438, 11, 0, 4122.564, 4295.385, 4166.667, 4153.846, 4091.795, 16200, 0, []
1630164443.5518, 12, 0, 4127.179, 4281.538, 4159.487, 4161.538, 4099.487, 450, 0, []
1630164443.5596, 13, 0, 4111.282, 4263.077, 4154.359, 4149.231, 4110.256, 450, 0, []
1630164443.5676, 14, 0, 4114.359, 4252.821, 4131.282, 4138.462, 4127.179, 450, 0, []
1630164443.5755, 15, 0, 4128.718, 4228.205, 4136.41, 4129.744, 4124.103, 16200, 0, []
1630164443.5833, 16, 0, 4117.436, 4224.103, 4144.103, 4113.846, 4104.615, 0, 0, []
1630164443.5912, 17, 0, 4100.513, 4217.949, 4111.795, 4112.821, 4089.231, 0, 0, []
1630164443.5989, 18, 0, 4106.667, 4169.744, 4134.872, 4133.846, 4087.179, 0, 0, []
1630164443.6068, 19, 0, 4117.436, 4139.487, 4145.128, 4147.179, 4096.923, 0, 0, []
1630164443.6146, 20, 0, 4111.795, 4144.103, 4138.974, 4142.051, 4089.231, 0, 0, []
1630164443.6225, 21, 0, 4105.641, 4140, 4154.359, 4141.538, 4086.154, 0, 0, []
1630164443.6304, 22, 0, 4114.359, 4126.667, 4137.436, 4149.744, 4108.205, 0, 0, []
1630164443.6381, 23, 0, 4108.205, 4107.179, 4137.949, 4132.308, 4100.513, 0, 0, []
1630164443.6459, 24, 0, 4078.462, 4081.538, 4117.949, 4096.41, 4057.436, 0, 0, []
1630164443.6538, 25, 0, 4071.282, 4101.026, 4104.615, 4096.923, 4051.282, 0, 0, []
1630164443.6616, 26, 0, 4092.308, 4163.59, 4127.179, 4121.538, 4081.026, 0, 0, []
1630164443.6696, 27, 0, 4094.359, 4183.077, 4084.615, 4106.154, 4074.359, 0, 0, []
1630164443.6774, 28, 0, 4086.154, 4153.333, 4097.949, 4089.231, 4056.923, 0, 0, []
1630164443.6854, 29, 0, 4116.923, 4156.41, 4153.846, 4125.128, 4089.231, 0, 0, []
1630164443.6933, 30, 0, 4150.769, 4199.487, 4068.205, 4144.615, 4125.128, 0, 0, []
1630164443.7013, 31, 0, 4144.615, 4201.538, 4225.641, 4150.769, 4123.59, 0, 0, []
1630164443.7092, 32, 0, 4129.231, 4163.59, 4665.641, 4195.385, 4101.026, 0, 0, []
1630164443.7171, 33, 0, 4113.333, 4146.154, 4695.385, 4197.949, 4077.949, 0, 0, []
1630164443.725, 34, 0, 4108.718, 4160.513, 4464.103, 4155.897, 4068.205, 0, 0, []
1630164443.7329, 35, 0, 4130.769, 4186.667, 4383.59, 4149.231, 4077.949, 0, 0, []
1630164443.7408, 36, 0, 4131.795, 4182.051, 4305.641, 4157.436, 4078.974, 0, 0, []
1630164443.7486, 37, 0, 4113.333, 4167.179, 4206.667, 4145.128, 4066.667, 0, 0, []
1630164443.7565, 38, 0, 4111.795, 4177.949, 4136.923, 4123.077, 4066.667, 0, 0, []
1630164443.7642, 39, 0, 4116.41, 4168.205, 4102.564, 4111.282, 4069.744, 0, 0, []
1630164443.7721, 40, 0, 4114.872, 4154.359, 4077.949, 4110.769, 4071.795, 0, 0, []
1630164443.7799, 41, 0, 4111.282, 4169.744, 4069.231, 4109.744, 4071.282, 0, 0, []
1630164443.7878, 42, 0, 4118.974, 4170.769, 4065.128, 4112.821, 4080.513, 0, 0, []
1630164443.7956, 43, 0, 4140.513, 4170.256, 4073.333, 4126.154, 4111.282, 0, 0, []
1630164443.8034, 44, 0, 4154.359, 4211.282, 4106.154, 4143.077, 4129.744, 0, 0, []
1630164443.8112, 45, 0, 4137.436, 4228.205, 4076.923, 4133.846, 4108.718, 0, 0, []
1630164443.8192, 46, 0, 4118.974, 4184.103, 4066.154, 4119.487, 4085.128, 0, 0, []
1630164443.8271, 47, 0, 4124.615, 4180.513, 4061.538, 4123.59, 4086.667, 0, 0, []
1630164443.8351, 48, 0, 4128.205, 4214.872, 4046.154, 4121.026, 4082.051, 0, 0, []
1630164443.8429, 49, 0, 4134.359, 4211.282, 4056.41, 4114.359, 4078.462, 0, 0, []
1630164443.8509, 50, 0, 4152.308, 4211.282, 4037.436, 4118.462, 4098.974, 0, 0, []
1630164443.8588, 51, 0, 4162.564, 4239.487, 4062.564, 4134.872, 4111.282, 0, 0, []
1630164443.8668, 52, 0, 4150.256, 4232.821, 4061.026, 4138.974, 4092.308, 0, 0, []
1630164443.8747, 53, 0, 4136.41, 4204.103, 4040.513, 4135.385, 4087.179, 0, 0, []
1630164443.8826, 54, 0, 4150.256, 4224.103, 4076.41, 4148.718, 4110.769, 0, 0, []
1630164443.8905, 55, 0, 4167.179, 4257.436, 4059.487, 4150.769, 4120.513, 0, 0, []
1630164443.8983, 56, 0, 4164.103, 4244.103, 4071.282, 4144.615, 4116.923, 0, 0, []
1630164443.9062, 57, 0, 4159.487, 4229.744, 4074.359, 4141.026, 4117.436, 0, 0, []
1630164443.914, 58, 0, 4171.282, 4238.974, 4042.051, 4137.436, 4129.231, 0, 0, []
1630164443.9218, 59, 0, 4188.205, 4237.949, 4081.538, 4147.179, 4151.795, 0, 0, []
1630164443.9296, 60, 0, 4189.744, 4236.41, 4077.949, 4161.538, 4164.615, 0, 0, []
1630164443.9375, 61, 0, 4182.051, 4256.41, 4069.744, 4160, 4161.026, 0, 0, []
1630164443.9453, 62, 0, 4175.385, 4253.333, 4075.897, 4149.744, 4156.41, 0, 0, []
1630164443.9532, 63, 0, 4170.769, 4224.615, 4050.256, 4150.769, 4145.128, 0, 0, []
1630164443.9609, 64, 0, 4166.154, 4240, 4075.385, 4159.487, 4134.872, 450, 0, []
1630164443.9689, 65, 0, 4160.513, 4253.333, 4060, 4152.821, 4144.615, 450, 0, []
1630164443.9768, 66, 0, 4169.231, 4232.821, 4041.538, 4142.051, 4152.308, 16184, 0, []
1630164443.9848, 67, 0, 4186.667, 4253.333, 4064.615, 4148.205, 4151.282, 450, 0, []
1630164443.9927, 68, 0, 4189.231, 4282.564, 4061.538, 4157.949, 4161.026, 16092, 0, []
1630164444.0006, 69, 0, 4186.667, 4260.513, 4078.462, 4161.026, 4167.692, 450, 0, []
1630164444.0085, 70, 0, 4190.256, 4226.154, 4065.641, 4157.436, 4164.615, 254, 0, []
1630164444.0165, 71, 0, 4176.41, 4212.308, 4067.179, 4155.385, 4146.154, 450, 0, []
1630164444.0244, 72, 0, 4150.256, 4219.487, 4076.41, 4149.744, 4125.641, 450, 0, []
1630164444.0324, 73, 0, 4149.231, 4234.359, 4043.59, 4145.641, 4134.359, 16123, 0, []
1630164444.0402, 74, 0, 4166.154, 4227.179, 4073.333, 4161.026, 4156.41, 450, 0, []
1630164444.048, 75, 0, 4176.923, 4226.667, 4073.846, 4170.256, 4165.641, 16200, 0, []
1630164444.0559, 76, 0, 4188.718, 4240, 4062.051, 4164.615, 4168.718, 450, 0, []
1630164444.0637, 77, 0, 4204.615, 4230.769, 4078.462, 4155.897, 4181.026, 450, 0, []
1630164444.0716, 78, 0, 4205.641, 4243.59, 4051.282, 4150.769, 4186.154, 450, 0, []
1630164444.0794, 79, 0, 4197.949, 4268.205, 4064.615, 4161.026, 4169.231, 16200, 0, []
1630164444.0872, 80, 0, 4191.282, 4246.667, 4057.436, 4158.974, 4155.385, 450, 0, []
1630164444.095, 81, 0, 4171.795, 4215.385, 4028.718, 4134.359, 4149.744, 450, 0, []
1630164444.1029, 82, 0, 4168.718, 4210.769, 4059.487, 4136.923, 4151.795, 450, 0, []
1630164444.1107, 83, 0, 4212.308, 4240, 4069.231, 4165.641, 4191.282, 16200, 0, []
1630164444.1186, 84, 0, 4251.795, 4277.436, 4102.564, 4182.051, 4240, 450, 0, []
1630164444.1263, 85, 0, 4237.949, 4256.41, 4099.487, 4174.359, 4222.564, 450, 0, []
1630164444.1343, 86, 0, 4203.077, 4207.692, 4053.846, 4155.385, 4182.051, 450, 0, []
1630164444.1422, 87, 0, 4196.41, 4226.667, 4075.897, 4161.538, 4188.205, 16200, 0, []
1630164444.1502, 88, 0, 4205.641, 4271.282, 4063.59, 4178.462, 4186.154, 450, 0, []
1630164444.1581, 89, 0, 4203.59, 4248.718, 4066.667, 4175.385, 4168.205, 450, 0, []
1630164444.166, 90, 0, 4219.487, 4222.564, 4082.564, 4161.538, 4190.769, 450, 0, []
1630164444.1739, 91, 0, 4263.077, 4242.564, 4060.513, 4151.795, 4229.231, 16200, 0, []
1630164444.1819, 92, 0, 4304.615, 4238.462, 4086.154, 4151.282, 4259.487, 450, 0, []
1630164444.1898, 93, 0, 4340.513, 4201.538, 4071.282, 4158.974, 4307.692, 450, 0, []
1630164444.1978, 94, 0, 4374.359, 4206.154, 4067.179, 4182.564, 4348.718, 450, 0, []
1630164444.2056, 95, 0, 4394.872, 4242.564, 4085.128, 4201.026, 4354.872, 16200, 0, []
1630164444.2134, 96, 0, 4393.846, 4247.692, 4051.795, 4187.692, 4352.308, 450, 0, []
1630164444.2213, 97, 0, 4387.179, 4244.103, 4073.846, 4167.179, 4361.026, 450, 0, []
1630164444.2291, 98, 0, 4396.41, 4250.256, 4079.487, 4159.487, 4372.821, 450, 0, []
1630164444.237, 99, 0, 4402.564, 4252.821, 4081.026, 4167.692, 4364.103, 16200, 0, []
1630164444.2447, 100, 0, 4374.872, 4273.333, 4091.795, 4169.744, 4320, 450, 0, []
1630164444.2526, 101, 0, 4340, 4295.385, 4050.769, 4156.41, 4285.641, 450, 0, []
1630164444.2604, 102, 0, 4333.846, 4293.846, 4076.923, 4170.769, 4294.872, 450, 0, []
1630164444.2683, 103, 0, 4326.667, 4274.359, 4082.564, 4191.795, 4298.462, 16200, 0, []
1630164444.2761, 104, 0, 4320.513, 4251.282, 4081.538, 4192.821, 4283.59, 450, 0, []
1630164444.284, 105, 0, 4337.436, 4239.487, 4132.308, 4197.436, 4291.795, 450, 0, []
1630164444.2919, 106, 0, 4336.923, 4240.513, 4113.846, 4202.051, 4300, 450, 0, []
1630164444.2999, 107, 0, 4310.256, 4243.59, 4111.282, 4201.026, 4277.949, 16200, 0, []
1630164444.3078, 108, 0, 4287.692, 4242.564, 4099.487, 4183.59, 4240, 450, 0, []
1630164444.3158, 109, 0, 4272.308, 4258.462, 4079.487, 4162.564, 4213.846, 450, 0, []
1630164444.3236, 110, 0, 4273.333, 4282.564, 4103.077, 4168.205, 4215.385, 450, 0, []
1630164444.3316, 111, 0, 4280.513, 4282.564, 4083.59, 4173.846, 4220, 16200, 0, []
1630164444.3395, 112, 0, 4265.128, 4269.231, 4087.692, 4157.436, 4211.795, 450, 0, []
1630164444.3475, 113, 0, 4247.179, 4256.41, 4082.051, 4151.282, 4212.821, 450, 0, []
1630164444.3554, 114, 0, 4248.718, 4248.205, 4070.769, 4158.974, 4209.231, 450, 0, []
1630164444.3632, 115, 0, 4231.282, 4250.769, 4089.231, 4135.385, 4182.564, 16200, 0, []
1630164444.3711, 116, 0, 4211.282, 4262.564, 4064.615, 4113.333, 4174.359, 450, 0, []
1630164444.3789, 117, 0, 4222.051, 4256.923, 4088.205, 4138.462, 4180, 450, 0, []
1630164444.3868, 118, 0, 4224.615, 4228.205, 4091.795, 4147.179, 4172.821, 450, 0, []
1630164444.3946, 119, 0, 4210.256, 4224.615, 4063.077, 4122.051, 4173.846, 16200, 0, []
1630164444.4024, 120, 0, 4215.385, 4257.949, 4091.795, 4121.026, 4176.41, 450, 0, []
1630164444.4102, 121, 0, 4217.949, 4272.308, 4078.462, 4133.333, 4166.154, 450, 0, []
1630164444.4182, 122, 0, 4211.795, 4252.821, 4092.308, 4140, 4165.641, 450, 0, []
1630164444.4261, 123, 0, 4228.205, 4258.974, 4109.744, 4144.103, 4178.462, 16200, 0, []
1630164444.4341, 124, 0, 4221.538, 4284.103, 4077.436, 4132.821, 4165.641, 450, 0, []
1630164444.442, 125, 0, 4188.205, 4277.949, 4085.641, 4127.179, 4147.179, 450, 0, []
1630164444.4499, 126, 0, 4198.974, 4264.103, 4084.103, 4138.974, 4167.179, 450, 0, []
1630164444.4578, 127, 0, 4234.359, 4264.103, 4112.308, 4153.333, 4196.923, 16200, 0, []
1630164444.4658, 128, 0, 4241.026, 4267.179, 4114.359, 4152.821, 4196.41, 450, 0, []
1630164444.4737, 0, 0, 4226.667, 4262.564, 4071.282, 4136.41, 4175.897, 450, 0, []
1630164444.4817, 1, 0, 4212.821, 4242.564, 4104.103, 4135.897, 4168.718, 450, 0, []
1630164444.4895, 2, 0, 4212.308, 4210.256, 4093.846, 4150.769, 4175.897, 16184, 0, []
1630164444.4975, 3, 0, 4212.308, 4187.179, 4082.564, 4148.718, 4180.513, 450, 0, []
1630164444.5054, 4, 0, 4204.103, 4203.59, 4105.128, 4141.026, 4182.564, 16092, 0, []
1630164444.5132, 5, 0, 4212.308, 4236.41, 4095.897, 4162.051, 4189.231, 450, 0, []
1630164444.5211, 6, 0, 4214.872, 4220, 4115.897, 4170.769, 4185.128, 250, 0, []
1630164444.5288, 7, 0, 4183.59, 4179.487, 4081.026, 4133.846, 4153.333, 450, 0, []
1630164444.5367, 8, 0, 4183.077, 4203.077, 4076.923, 4138.974, 4143.59, 450, 0, []
1630164444.5445, 9, 0, 4216.41, 4245.128, 4128.718, 4183.077, 4175.897, 16124, 0, []
1630164444.5524, 10, 0, 4223.077, 4231.282, 4099.487, 4176.41, 4193.333, 450, 0, []
1630164444.5602, 11, 0, 4212.821, 4200, 4106.667, 4155.385, 4181.538, 16200, 0, []
1630164444.568, 12, 0, 4203.077, 4208.718, 4111.282, 4162.051, 4181.538, 450, 0, []
1630164444.5758, 13, 0, 4205.641, 4236.41, 4095.385, 4171.795, 4193.333, 450, 0, []
1630164444.5838, 14, 0, 4216.923, 4238.462, 4113.846, 4166.667, 4181.538, 450, 0, []
1630164444.5917, 15, 0, 4199.487, 4218.462, 4085.128, 4152.308, 4162.051, 16200, 0, []
1630164444.5997, 16, 0, 4178.462, 4203.59, 4088.205, 4153.846, 4159.487, 0, 0, []
1630164444.6075, 17, 0, 4196.923, 4217.436, 4093.846, 4166.154, 4169.744, 0, 0, []
1630164444.6154, 18, 0, 4209.744, 4232.308, 4084.615, 4169.231, 4182.051, 0, 0, []
1630164444.6233, 19, 0, 4199.487, 4211.795, 4104.615, 4169.231, 4181.538, 0, 0, []
1630164444.6312, 20, 0, 4209.744, 4197.949, 4080.513, 4167.179, 4177.436, 0, 0, []
1630164444.639, 21, 0, 4221.538, 4221.538, 4098.462, 4170.769, 4176.41, 0, 0, []
1630164444.6469, 22, 0, 4215.897, 4254.872, 4102.564, 4174.359, 4168.205, 0, 0, []
1630164444.6548, 23, 0, 4215.897, 4264.615, 4072.821, 4166.154, 4162.051, 0, 0, []
1630164444.6628, 24, 0, 4213.846, 4245.128, 4100.513, 4157.949, 4170.256, 0, 0, []
1630164444.6707, 25, 0, 4206.667, 4212.308, 4076.41, 4153.333, 4175.385, 0, 0, []
1630164444.6785, 26, 0, 4214.359, 4207.179, 4084.615, 4154.359, 4172.308, 0, 0, []
1630164444.6863, 27, 0, 4219.487, 4235.897, 4112.821, 4165.128, 4175.897, 0, 0, []
1630164444.6941, 28, 0, 4198.462, 4264.615, 4083.59, 4168.205, 4165.128, 0, 0, []
1630164444.702, 29, 0, 4177.949, 4271.795, 4088.205, 4159.487, 4147.179, 0, 0, []
1630164444.7098, 30, 0, 4185.128, 4253.846, 4069.744, 4154.359, 4149.744, 0, 0, []
1630164444.7177, 31, 0, 4204.103, 4245.641, 4087.179, 4161.538, 4158.462, 0, 0, []
1630164444.7254, 32, 0, 4216.41, 4269.744, 4118.974, 4160, 4170.256, 0, 0, []
1630164444.7333, 33, 0, 4218.462, 4270.769, 4100.513, 4143.077, 4183.59, 0, 0, []
1630164444.7411, 34, 0, 4218.974, 4242.051, 4129.744, 4140, 4176.923, 0, 0, []
1630164444.7491, 35, 0, 4220, 4249.231, 4120.513, 4157.436, 4167.179, 0, 0, []
1630164444.757, 36, 0, 4213.333, 4272.308, 4108.205, 4178.462, 4170.769, 0, 0, []
1630164444.7649, 37, 0, 4199.487, 4264.103, 4106.667, 4175.897, 4160, 0, 0, []
1630164444.7728, 38, 0, 4182.564, 4236.923, 4072.308, 4160, 4145.641, 0, 0, []
1630164444.7808, 39, 0, 4183.077, 4231.282, 4110.769, 4169.744, 4158.462, 0, 0, []
1630164444.7887, 40, 0, 4205.641, 4233.846, 4114.359, 4173.846, 4175.385, 0, 0, []
1630164444.7967, 41, 0, 4215.897, 4224.103, 4103.59, 4157.436, 4174.872, 0, 0, []
1630164444.8046, 42, 0, 4206.667, 4245.128, 4122.051, 4143.077, 4163.077, 0, 0, []
1630164444.8125, 43, 0, 4189.231, 4274.872, 4091.795, 4121.538, 4135.385, 0, 0, []
1630164444.8204, 44, 0, 4164.103, 4250.769, 4101.026, 4118.462, 4111.282, 0, 0, []
1630164444.8282, 45, 0, 4155.385, 4224.103, 4085.128, 4150.256, 4121.026, 0, 0, []
1630164444.8361, 46, 0, 4170.769, 4247.179, 4074.359, 4165.128, 4141.538, 0, 0, []
1630164444.8439, 47, 0, 4193.846, 4260.513, 4116.41, 4165.641, 4155.897, 0, 0, []
1630164444.8517, 48, 0, 4215.897, 4253.333, 4105.641, 4182.051, 4170.256, 0, 0, []
1630164444.8595, 49, 0, 4216.41, 4255.385, 4113.846, 4173.846, 4167.692, 0, 0, []
1630164444.8674, 50, 0, 4202.564, 4226.667, 4103.077, 4137.436, 4158.462, 0, 0, []
1630164444.8752, 51, 0, 4206.667, 4188.205, 4097.949, 4143.077, 4165.641, 0, 0, []
1630164444.8831, 52, 0, 4207.692, 4197.949, 4125.641, 4169.744, 4171.282, 0, 0, []
1630164444.8908, 53, 0, 4192.308, 4220.513, 4081.538, 4156.923, 4155.897, 0, 0, []
1630164444.8987, 54, 0, 4194.359, 4216.923, 4092.308, 4142.051, 4144.103, 0, 0, []
1630164444.9065, 55, 0, 4205.641, 4210.256, 4113.333, 4148.718, 4157.949, 0, 0, []
1630164444.9145, 56, 0, 4201.026, 4203.077, 4089.744, 4157.436, 4168.205, 0, 0, []
1630164444.9224, 57, 0, 4195.385, 4192.821, 4113.333, 4157.949, 4169.744, 0, 0, []
1630164444.9303, 58, 0, 4197.949, 4204.103, 4108.718, 4155.385, 4176.923, 0, 0, []
1630164444.9382, 59, 0, 4181.538, 4231.282, 4114.872, 4153.846, 4155.897, 0, 0, []
1630164444.9462, 60, 0, 4155.897, 4241.026, 4103.59, 4133.846, 4114.359, 0, 0, []
1630164444.9541, 61, 0, 4167.179, 4246.667, 4080.513, 4129.231, 4122.051, 0, 0, []
1630164444.9621, 62, 0, 4198.974, 4261.026, 4125.641, 4172.821, 4154.359, 0, 0, []
1630164444.9699, 63, 0, 4196.923, 4249.231, 4106.667, 4188.718, 4159.487, 0, 0, []
1630164444.9779, 64, 0, 4187.692, 4233.846, 4103.59, 4165.641, 4164.615, 450, 0, []
1630164444.9858, 65, 0, 4207.179, 4267.179, 4125.128, 4164.615, 4179.487, 450, 0, []
1630164444.9936, 66, 0, 4203.59, 4305.128, 4088.718, 4161.026, 4170.769, 16184, 0, []
1630164445.0015, 67, 0, 4186.667, 4298.974, 4095.385, 4145.641, 4161.538, 450, 0, []
1630164445.0092, 68, 0, 4200, 4278.462, 4093.846, 4147.692, 4167.692, 16094, 0, []
1630164445.0171, 69, 0, 4203.59, 4277.949, 4107.692, 4161.538, 4167.692, 450, 0, []
1630164445.0249, 70, 0, 4204.103, 4301.538, 4127.692, 4178.974, 4173.333, 255, 0, []
1630164445.0328, 71, 0, 4231.282, 4305.128, 4110.769, 4195.385, 4182.564, 450, 0, []
1630164445.0406, 72, 0, 4235.385, 4264.615, 4134.359, 4192.308, 4187.692, 450, 0, []
1630164445.0484, 73, 0, 4206.154, 4243.077, 4102.051, 4165.128, 4187.179, 16126, 0, []
1630164445.0562, 74, 0, 4209.231, 4266.667, 4085.128, 4157.949, 4177.436, 450, 0, []
1630164445.0642, 75, 0, 4225.641, 4288.205, 4109.231, 4162.564, 4173.846, 16200, 0, []
1630164445.0721, 76, 0, 4208.205, 4282.051, 4075.385, 4150.256, 4169.744, 450, 0, []
1630164445.0801, 77, 0, 4204.103, 4274.359, 4102.564, 4160, 4158.462, 450, 0, []
1630164445.0879, 78, 0, 4221.026, 4293.846, 4112.308, 4174.359, 4166.154, 450, 0, []
1630164445.0959, 79, 0, 4217.436, 4295.385, 4093.846, 4166.667, 4186.154, 16200, 0, []
1630164445.1038, 80, 0, 4212.308, 4265.128, 4114.872, 4174.872, 4185.128, 450, 0, []
1630164445.1118, 81, 0, 4219.487, 4272.308, 4092.308, 4176.41, 4177.436, 450, 0, []
1630164445.1197, 82, 0, 4202.564, 4276.41, 4098.462, 4148.205, 4166.154, 450, 0, []
1630164445.1276, 83, 0, 4176.41, 4213.846, 4096.923, 4134.872, 4138.974, 16200, 0, []
1630164445.1355, 84, 0, 4190.256, 4170.769, 4094.359, 4155.385, 4146.154, 450, 0, []
1630164445.1433, 85, 0, 4223.077, 4189.231, 4130.256, 4179.487, 4188.205, 450, 0, []
1630164445.1512, 86, 0, 4228.718, 4206.667, 4095.897, 4183.59, 4192.821, 450, 0, []
1630164445.159, 87, 0, 4214.359, 4182.051, 4090.256, 4168.718, 4175.897, 16200, 0, []
1630164445.1669, 88, 0, 4213.333, 4150.769, 4096.923, 4152.821, 4185.128, 450, 0, []
1630164445.1746, 89, 0, 4218.974, 4165.641, 4082.051, 4147.179, 4183.59, 450, 0, []
1630164445.1825, 90, 0, 4216.41, 4189.744, 4106.667, 4145.128, 4165.128, 450, 0, []
1630164445.1903, 91, 0, 4216.41, 4147.692, 4082.564, 4144.615, 4165.641, 16200, 0, []
1630164445.1983, 92, 0, 4220, 4113.333, 4086.667, 4155.385, 4167.179, 450, 0, []
1630164445.2062, 93, 0, 4220.513, 4162.051, 4098.974, 4155.897, 4168.718, 450, 0, []
1630164445.2141, 94, 0, 4214.359, 4198.974, 4077.949, 4146.154, 4177.436, 450, 0, []
1630164445.222, 95, 0, 4205.641, 4175.897, 4110.769, 4144.103, 4171.795, 16200, 0, []
1630164445.23, 96, 0, 4199.487, 4163.077, 4103.59, 4138.462, 4170.256, 450, 0, []
1630164445.2379, 97, 0, 4211.795, 4182.051, 4110.769, 4142.564, 4184.615, 450, 0, []
1630164445.2459, 98, 0, 4218.462, 4167.692, 4124.103, 4147.692, 4171.282, 450, 0, []
1630164445.2537, 99, 0, 4201.026, 4141.538, 4094.359, 4149.231, 4154.359, 16200, 0, []
1630164445.2617, 100, 0, 4201.026, 4148.205, 4116.41, 4173.846, 4169.744, 450, 0, []
1630164445.2696, 101, 0, 4217.949, 4144.615, 4097.436, 4178.462, 4174.359, 450, 0, []
1630164445.2776, 102, 0, 4215.897, 4137.436, 4095.897, 4165.641, 4170.256, 450, 0, []
1630164445.2855, 103, 0, 4215.385, 4153.333, 4126.154, 4181.538, 4192.308, 16200, 0, []
1630164445.2932, 104, 0, 4216.923, 4145.128, 4093.333, 4178.462, 4198.974, 450, 0, []
1630164445.3011, 105, 0, 4202.051, 4122.564, 4104.615, 4156.41, 4185.128, 450, 0, []
1630164445.3089, 106, 0, 4206.154, 4150.769, 4107.179, 4166.667, 4191.795, 450, 0, []
1630164445.3168, 107, 0, 4232.308, 4156.923, 4107.692, 4187.179, 4208.205, 16200, 0, []
1630164445.3246, 108, 0, 4226.154, 4118.974, 4117.436, 4179.487, 4204.615, 450, 0, []
1630164445.3324, 109, 0, 4203.077, 4144.103, 4076.41, 4158.974, 4183.59, 450, 0, []
1630164445.3402, 110, 0, 4207.692, 4196.41, 4090.256, 4154.359, 4176.41, 450, 0, []
1630164445.3482, 111, 0, 4218.974, 4188.205, 4084.103, 4152.821, 4188.718, 16200, 0, []
1630164445.3561, 112, 0, 4211.282, 4174.872, 4068.718, 4149.231, 4185.641, 450, 0, []
1630164445.3641, 113, 0, 4198.462, 4209.231, 4094.359, 4142.564, 4167.692, 450, 0, []
1630164445.3719, 114, 0, 4193.846, 4212.821, 4070.769, 4131.795, 4162.564, 450, 0, []
1630164445.3799, 115, 0, 4201.026, 4178.974, 4088.718, 4136.41, 4175.897, 16200, 0, []
1630164445.3878, 116, 0, 4208.718, 4190.769, 4095.385, 4150.769, 4189.744, 450, 0, []
1630164445.3958, 117, 0, 4198.974, 4209.231, 4068.718, 4150.256, 4181.538, 450, 0, []
1630164445.4037, 118, 0, 4198.462, 4188.205, 4086.667, 4134.872, 4171.795, 450, 0, []
1630164445.4116, 119, 0, 4210.769, 4189.744, 4073.846, 4134.359, 4188.205, 16200, 0, []
1630164445.4195, 120, 0, 4191.282, 4195.385, 4079.487, 4140, 4180.513, 450, 0, []
1630164445.4275, 121, 0, 4171.795, 4183.077, 4078.974, 4120.513, 4157.949, 450, 0, []
1630164445.4354, 122, 0, 4189.231, 4202.564, 4078.974, 4110.256, 4173.333, 450, 0, []
1630164445.4432, 123, 0, 4197.436, 4218.974, 4108.718, 4125.641, 4181.026, 16200, 0, []
1630164445.451, 124, 0, 4187.692, 4191.282, 4068.718, 4124.615, 4174.359, 450, 0, []
1630164445.4588, 125, 0, 4195.897, 4187.692, 4089.744, 4131.795, 4195.385, 450, 0, []
1630164445.4667, 126, 0, 4200, 4212.308, 4123.59, 4145.641, 4189.744, 450, 0, []
1630164445.4745, 127, 0, 4177.949, 4204.615, 4081.538, 4125.128, 4144.103, 16200, 0, []
1630164445.4824, 128, 0, 4168.718, 4206.154, 4089.231, 4107.179, 4134.359, 450, 0, []
1630164445.4902, 0, 0, 4182.564, 4222.564, 4084.615, 4107.179, 4146.154, 450, 0, []
1630164445.498, 1, 0, 4181.538, 4194.872, 4092.821, 4103.077, 4137.949, 450, 0, []
1630164445.5058, 2, 0, 4166.667, 4178.974, 4092.308, 4095.897, 4134.359, 16184, 0, []
1630164445.5138, 3, 0, 4167.179, 4215.385, 4056.41, 4091.795, 4144.615, 450, 0, []
1630164445.5217, 4, 0, 4184.615, 4233.846, 4094.359, 4109.231, 4159.487, 16094, 0, []
1630164445.5297, 5, 0, 4190.769, 4211.795, 4090.769, 4132.308, 4163.077, 450, 0, []
1630164445.5375, 6, 0, 4175.897, 4205.128, 4080, 4131.282, 4153.333, 191, 0, []
1630164445.5455, 7, 0, 4168.205, 4226.154, 4105.128, 4123.077, 4161.026, 450, 0, []
1630164445.5534, 8, 0, 4180, 4233.333, 4098.462, 4126.667, 4169.231, 450, 0, []
1630164445.5614, 9, 0, 4188.718, 4218.462, 4125.128, 4132.308, 4156.41, 16125, 0, []
1630164445.5693, 10, 0, 4173.846, 4191.795, 4098.974, 4121.538, 4140, 450, 0, []
1630164445.5772, 11, 0, 4151.282, 4173.846, 4074.872, 4107.179, 4123.077, 16200, 0, []
1630164445.5851, 12, 0, 4155.897, 4191.795, 4105.128, 4114.359, 4121.026, 450, 0, []
1630164445.5931, 13, 0, 4178.974, 4206.154, 4089.744, 4133.333, 4141.026, 450, 0, []
1630164445.601, 14, 0, 4193.846, 4202.564, 4105.128, 4140.513, 4158.462, 450, 0, []
1630164445.6088, 15, 0, 4188.205, 4208.205, 4087.692, 4127.692, 4155.385, 16200, 0, []
1630164445.6166, 16, 0, 4176.923, 4221.026, 4071.282, 4127.692, 4145.128, 0, 0, []
1630164445.6245, 17, 0, 4176.923, 4220.513, 4100.513, 4134.359, 4143.59, 0, 0, []
1630164445.6324, 18, 0, 4178.974, 4209.231, 4071.795, 4118.462, 4149.744, 0, 0, []
1630164445.6402, 19, 0, 4185.641, 4194.872, 4092.821, 4116.923, 4155.385, 0, 0, []
1630164445.6481, 20, 0, 4188.718, 4184.615, 4107.692, 4131.795, 4158.462, 0, 0, []
1630164445.6558, 21, 0, 4178.462, 4181.538, 4084.615, 4128.718, 4145.641, 0, 0, []
1630164445.6637, 22, 0, 4168.718, 4184.103, 4100.513, 4120, 4126.667, 0, 0, []
1630164445.6715, 23, 0, 4166.667, 4200, 4078.974, 4122.564, 4127.692, 0, 0, []
1630164445.6795, 24, 0, 4167.692, 4202.051, 4085.641, 4130.769, 4125.641, 0, 0, []
1630164445.6874, 25, 0, 4174.359, 4186.154, 4088.718, 4129.231, 4121.026, 0, 0, []
1630164445.6953, 26, 0, 4189.744, 4197.436, 4077.949, 4131.282, 4146.154, 0, 0, []
1630164445.7032, 27, 0, 4192.308, 4199.487, 4095.385, 4130.256, 4147.692, 0, 0, []
1630164445.7112, 28, 0, 4177.949, 4161.538, 4064.615, 4111.282, 4120.513, 0, 0, []
1630164445.7191, 29, 0, 4186.667, 4157.949, 4089.231, 4127.692, 4136.923, 0, 0, []
1630164445.7271, 30, 0, 4206.154, 4176.41, 4111.795, 4156.923, 4155.897, 0, 0, []
1630164445.7349, 31, 0, 4191.795, 4165.128, 4078.974, 4140.513, 4137.949, 0, 0, []
1630164445.7429, 32, 0, 4170.769, 4177.436, 4101.538, 4121.538, 4130.769, 0, 0, []
1630164445.7508, 33, 0, 4174.872, 4207.179, 4080.513, 4115.385, 4129.231, 0, 0, []
1630164445.7586, 34, 0, 4178.462, 4214.359, 4081.538, 4114.359, 4125.128, 0, 0, []
1630164445.7665, 35, 0, 4180.513, 4218.974, 4111.795, 4134.872, 4137.949, 0, 0, []
1630164445.7742, 36, 0, 4197.436, 4226.154, 4092.308, 4151.795, 4146.667, 0, 0, []
1630164445.7821, 37, 0, 4193.846, 4220.513, 4105.128, 4142.564, 4132.821, 0, 0, []
1630164445.7899, 38, 0, 4165.641, 4202.051, 4083.077, 4125.641, 4111.282, 0, 0, []
1630164445.7978, 39, 0, 4160.513, 4201.538, 4087.692, 4126.154, 4107.179, 0, 0, []
1630164445.8056, 40, 0, 4176.923, 4215.385, 4114.872, 4134.872, 4128.718, 0, 0, []
1630164445.8134, 41, 0, 4175.897, 4209.231, 4080, 4132.308, 4127.692, 0, 0, []
1630164445.8212, 42, 0, 4158.974, 4192.821, 4098.974, 4135.897, 4101.026, 0, 0, []
1630164445.8291, 43, 0, 4162.051, 4203.077, 4096.41, 4150.256, 4110.256, 0, 0, []
1630164445.8369, 44, 0, 4173.333, 4210.769, 4084.103, 4151.795, 4141.538, 0, 0, []
1630164445.8449, 45, 0, 4173.333, 4220.513, 4106.667, 4137.949, 4143.59, 0, 0, []
1630164445.8528, 46, 0, 4176.41, 4239.487, 4086.667, 4130.256, 4127.692, 0, 0, []
1630164445.8607, 47, 0, 4185.641, 4211.795, 4101.538, 4133.333, 4125.128, 0, 0, []
1630164445.8686, 48, 0, 4189.744, 4201.538, 4102.564, 4137.436, 4138.974, 0, 0, []
1630164445.8766, 49, 0, 4182.564, 4234.359, 4099.487, 4144.615, 4140, 0, 0, []
1630164445.8845, 50, 0, 4163.077, 4218.462, 4114.359, 4145.128, 4119.487, 0, 0, []
1630164445.8925, 51, 0, 4144.103, 4200, 4075.897, 4139.487, 4103.077, 0, 0, []
1630164445.9003, 52, 0, 4157.949, 4245.128, 4095.385, 4153.846, 4121.026, 0, 0, []
1630164445.9083, 53, 0, 4186.667, 4254.872, 4110.256, 4164.615, 4149.744, 0, 0, []
1630164445.9162, 54, 0, 4173.333, 4194.872, 4088.205, 4138.974, 4127.179, 0, 0, []
1630164445.924, 55, 0, 4142.051, 4176.923, 4096.923, 4113.333, 4088.718, 0, 0, []
1630164445.9319, 56, 0, 4167.692, 4217.949, 4082.051, 4128.205, 4121.538, 0, 0, []
1630164445.9396, 57, 0, 4211.282, 4231.282, 4124.615, 4161.026, 4169.744, 0, 0, []
1630164445.9475, 58, 0, 4190.256, 4191.282, 4132.308, 4156.41, 4148.718, 0, 0, []
1630164445.9553, 59, 0, 4160, 4183.077, 4083.59, 4137.949, 4118.462, 0, 0, []
1630164445.9632, 60, 0, 4184.103, 4224.103, 4112.308, 4151.282, 4137.436, 0, 0, []
1630164445.971, 61, 0, 4199.487, 4212.821, 4111.282, 4160, 4152.308, 0, 0, []
1630164445.9788, 62, 0, 4173.333, 4169.744, 4105.641, 4144.615, 4124.615, 0, 0, []
1630164445.9866, 63, 0, 4160.513, 4190.256, 4102.564, 4131.282, 4106.154, 0, 0, []
1630164445.9946, 64, 0, 4177.949, 4235.897, 4094.872, 4142.051, 4128.205, 450, 0, []
1630164446.0025, 65, 0, 4197.436, 4228.718, 4135.385, 4165.641, 4151.795, 450, 0, []
1630164446.0105, 66, 0, 4187.179, 4193.846, 4103.077, 4154.359, 4138.974, 16185, 0, []
1630164446.0183, 67, 0, 4164.103, 4180, 4089.231, 4132.821, 4115.385, 450, 0, []
1630164446.0263, 68, 0, 4172.308, 4205.641, 4115.385, 4141.026, 4123.077, 16094, 0, []
1630164446.0342, 69, 0, 4190.256, 4241.026, 4101.026, 4151.795, 4139.487, 450, 0, []
1630164446.0422, 70, 0, 4179.487, 4217.949, 4117.949, 4152.308, 4128.205, 240, 0, []
1630164446.0501, 71, 0, 4165.128, 4189.231, 4096.923, 4147.692, 4113.846, 450, 0, []
1630164446.058, 72, 0, 4174.359, 4222.564, 4098.974, 4154.872, 4127.179, 450, 0, []
1630164446.0659, 73, 0, 4188.718, 4251.795, 4130.256, 4171.282, 4149.744, 16125, 0, []
1630164446.0738, 74, 0, 4190.256, 4242.051, 4108.205, 4176.41, 4161.026, 450, 0, []
1630164446.0817, 75, 0, 4178.462, 4228.718, 4118.974, 4172.308, 4152.821, 16200, 0, []
1630164446.0895, 76, 0, 4169.744, 4219.487, 4101.538, 4161.026, 4141.026, 450, 0, []
1630164446.0973, 77, 0, 4177.949, 4213.846, 4100, 4157.949, 4151.795, 450, 0, []
1630164446.1051, 78, 0, 4178.974, 4216.41, 4120.513, 4157.436, 4148.718, 450, 0, []
1630164446.113, 79, 0, 4165.128, 4218.462, 4077.436, 4141.026, 4120.513, 16200, 0, []
1630164446.1208, 80, 0, 4168.718, 4235.385, 4096.923, 4140.513, 4125.641, 450, 0, []
1630164446.1288, 81, 0, 4190.256, 4262.051, 4106.667, 4157.436, 4147.692, 450, 0, []
1630164446.1366, 82, 0, 4189.744, 4241.538, 4095.897, 4166.154, 4133.846, 450, 0, []
1630164446.1445, 83, 0, 4162.051, 4212.821, 4107.692, 4161.026, 4104.103, 16200, 0, []
1630164446.1523, 84, 0, 4155.897, 4226.667, 4073.333, 4148.205, 4109.744, 450, 0, []
1630164446.1603, 85, 0, 4178.462, 4236.923, 4098.462, 4154.359, 4136.923, 450, 0, []
1630164446.1682, 86, 0, 4192.821, 4249.231, 4108.718, 4169.744, 4141.538, 450, 0, []
1630164446.1761, 87, 0, 4189.744, 4277.436, 4085.128, 4167.179, 4134.359, 16200, 0, []
1630164446.184, 88, 0, 4187.692, 4271.795, 4106.667, 4161.538, 4147.179, 450, 0, []
1630164446.192, 89, 0, 4191.282, 4255.385, 4082.051, 4165.641, 4153.333, 450, 0, []
1630164446.1999, 90, 0, 4185.128, 4278.974, 4091.282, 4166.154, 4137.949, 450, 0, []
1630164446.2079, 91, 0, 4177.949, 4285.641, 4100.513, 4160.513, 4137.436, 16200, 0, []
1630164446.2158, 92, 0, 4180.513, 4241.026, 4081.538, 4160.513, 4140.513, 450, 0, []
1630164446.2235, 93, 0, 4185.128, 4238.974, 4108.718, 4168.718, 4139.487, 450, 0, []
1630164446.2314, 94, 0, 4186.667, 4266.667, 4092.821, 4170.256, 4146.667, 450, 0, []
1630164446.2392, 95, 0, 4182.564, 4260, 4096.923, 4162.051, 4144.103, 16200, 0, []
1630164446.2471, 96, 0, 4172.308, 4240.513, 4098.462, 4152.308, 4135.385, 450, 0, []
1630164446.2549, 97, 0, 4149.744, 4226.667, 4053.846, 4137.436, 4115.385, 450, 0, []
1630164446.2627, 98, 0, 4136.41, 4240.513, 4062.051, 4123.59, 4095.385, 450, 0, []
1630164446.2705, 99, 0, 4159.487, 4270.769, 4060.513, 4133.333, 4113.846, 16200, 0, []
1630164446.2784, 100, 0, 4180.513, 4271.282, 4083.59, 4154.872, 4143.077, 450, 0, []
1630164446.2862, 101, 0, 4165.128, 4257.436, 4095.897, 4154.872, 4138.974, 450, 0, []
1630164446.2942, 102, 0, 4156.41, 4261.538, 4062.051, 4146.667, 4133.333, 450, 0, []
1630164446.302, 103, 0, 4163.59, 4251.795, 4083.59, 4147.179, 4141.538, 16200, 0, []
1630164446.31, 104, 0, 4154.359, 4227.692, 4065.128, 4133.333, 4129.744, 450, 0, []
1630164446.3179, 105, 0, 4152.308, 4221.538, 4064.103, 4127.179, 4118.974, 450, 0, []
1630164446.3259, 106, 0, 4171.795, 4228.205, 4096.41, 4149.231, 4134.359, 450, 0, []
1630164446.3338, 107, 0, 4175.385, 4245.641, 4073.333, 4160.513, 4143.077, 16200, 0, []
1630164446.3417, 108, 0, 4162.564, 4265.128, 4088.718, 4150.256, 4131.795, 450, 0, []
1630164446.3496, 109, 0, 4152.308, 4274.872, 4072.308, 4133.333, 4118.462, 450, 0, []
1630164446.3576, 110, 0, 4149.231, 4253.846, 4065.128, 4129.744, 4108.718, 450, 0, []
1630164446.3655, 111, 0, 4161.538, 4210.256, 4097.436, 4140.513, 4108.718, 16200, 0, []
1630164446.3733, 112, 0, 4184.103, 4218.974, 4076.923, 4147.179, 4129.231, 450, 0, []
1630164446.3811, 113, 0, 4194.359, 4256.41, 4101.538, 4153.846, 4145.128, 450, 0, []
1630164446.3889, 114, 0, 4177.436, 4236.923, 4098.974, 4148.205, 4131.795, 450, 0, []
1630164446.3968, 115, 0, 4165.128, 4225.128, 4078.974, 4140, 4115.897, 16200, 0, []
1630164446.4046, 116, 0, 4181.026, 4256.41, 4097.436, 4145.128, 4123.59, 450, 0, []
1630164446.4125, 117, 0, 4182.564, 4244.103, 4072.308, 4143.077, 4128.718, 450, 0, []
1630164446.4202, 118, 0, 4153.846, 4218.462, 4083.077, 4136.41, 4108.718, 450, 0, []
1630164446.4281, 119, 0, 4134.872, 4226.667, 4070.769, 4123.59, 4082.564, 16200, 0, []
1630164446.4359, 120, 0, 4132.308, 4228.205, 4047.692, 4108.205, 4068.718, 450, 0, []
1630164446.4438, 121, 0, 4143.077, 4217.949, 4083.077, 4114.359, 4083.077, 450, 0, []
1630164446.4516, 122, 0, 4163.077, 4230.256, 4074.872, 4127.692, 4106.154, 450, 0, []
1630164446.4595, 123, 0, 4162.564, 4242.051, 4091.795, 4124.103, 4100, 16200, 0, []
1630164446.4674, 124, 0, 4156.41, 4231.282, 4092.821, 4110.769, 4080.513, 450, 0, []
1630164446.4754, 125, 0, 4147.179, 4226.154, 4057.949, 4099.487, 4063.077, 450, 0, []
1630164446.4833, 126, 0, 4122.564, 4221.538, 4078.974, 4101.026, 4047.692, 450, 0, []
1630164446.4913, 127, 0, 4135.385, 4221.026, 4074.359, 4117.436, 4065.128, 16200, 0, []
1630164446.4991, 128, 0, 4172.821, 4237.949, 4084.615, 4132.821, 4105.128, 450, 0, []
1630164446.5071, 0, 0, 4163.59, 4246.154, 4076.923, 4122.051, 4104.103, 450, 0, []
1630164446.515, 1, 0, 4135.897, 4210.256, 4054.872, 4096.923, 4076.923, 450, 0, []
1630164446.523, 2, 0, 4150.256, 4191.795, 4098.974, 4104.615, 4086.154, 16187, 0, []
1630164446.5309, 3, 0, 4162.564, 4229.744, 4077.436, 4123.59, 4107.179, 450, 0, []
1630164446.5386, 4, 0, 4137.436, 4239.487, 4060, 4119.487, 4100.513, 16094, 0, []
1630164446.5465, 5, 0, 4127.692, 4224.615, 4070.256, 4109.744, 4091.795, 450, 0, []
1630164446.5543, 6, 0, 4140.513, 4215.897, 4052.821, 4108.205, 4104.615, 254, 0, []
1630164446.5622, 7, 0, 4141.026, 4205.641, 4080.513, 4106.667, 4105.128, 450, 0, []
1630164446.57, 8, 0, 4135.385, 4206.154, 4065.128, 4096.41, 4083.59, 450, 0, []
1630164446.5779, 9, 0, 4147.692, 4207.692, 4074.872, 4110.256, 4082.051, 16123, 0, []
1630164446.5856, 10, 0, 4161.538, 4201.538, 4101.538, 4127.692, 4096.923, 450, 0, []
1630164446.5936, 11, 0, 4162.051, 4202.564, 4072.821, 4106.667, 4096.923, 16202, 0, []
1630164446.6015, 12, 0, 4172.308, 4214.359, 4105.641, 4111.795, 4107.179, 450, 0, []
1630164446.6095, 13, 0, 4169.744, 4210.256, 4083.077, 4130.256, 4112.821, 450, 0, []
1630164446.6174, 14, 0, 4147.692, 4196.41, 4039.487, 4112.821, 4092.308, 450, 0, []
1630164446.6252, 15, 0, 4152.821, 4202.564, 4075.385, 4108.205, 4085.641, 16202, 0, []
1630164446.6331, 16, 0, 4181.026, 4221.026, 4085.128, 4131.795, 4107.179, 0, 0, []
1630164446.641, 17, 0, 4192.308, 4222.564, 4102.564, 4144.615, 4125.128, 0, 0, []
1630164446.6489, 18, 0, 4165.128, 4187.692, 4071.282, 4123.59, 4108.205, 0, 0, []
1630164446.6567, 19, 0, 4149.744, 4167.179, 4044.615, 4110.769, 4096.41, 0, 0, []
1630164446.6646, 20, 0, 4182.564, 4194.359, 4100.513, 4136.923, 4125.128, 0, 0, []
1630164446.6725, 21, 0, 4197.949, 4198.974, 4087.179, 4151.282, 4128.718, 0, 0, []
1630164446.6804, 22, 0, 4169.231, 4168.718, 4074.872, 4140, 4092.821, 0, 0, []
1630164446.6882, 23, 0, 4174.359, 4171.282, 4094.872, 4148.718, 4105.641, 0, 0, []
1630164446.6961, 24, 0, 4202.564, 4190.256, 4106.667, 4165.641, 4141.026, 0, 0, []
1630164446.7038, 25, 0, 4191.282, 4186.667, 4126.667, 4153.846, 4127.179, 0, 0, []
1630164446.7117, 26, 0, 4181.026, 4197.436, 4098.462, 4142.051, 4118.462, 0, 0, []
1630164446.7195, 27, 0, 4187.692, 4224.615, 4108.718, 4147.692, 4137.949, 0, 0, []
1630164446.7274, 28, 0, 4176.923, 4221.538, 4110.256, 4142.051, 4138.462, 0, 0, []
1630164446.7352, 29, 0, 4166.154, 4205.128, 4086.667, 4136.923, 4112.308, 0, 0, []
1630164446.743, 30, 0, 4180.513, 4203.077, 4128.718, 4154.872, 4111.282, 0, 0, []
1630164446.7508, 31, 0, 4212.821, 4203.59, 4131.282, 4179.487, 4157.436, 0, 0, []
1630164446.7587, 32, 0, 4217.949, 4204.103, 4131.282, 4175.897, 4164.103, 0, 0, []
1630164446.7665, 33, 0, 4180.513, 4200, 4110.769, 4143.59, 4116.41, 0, 0, []
1630164446.7745, 34, 0, 4163.59, 4200.513, 4072.821, 4134.359, 4111.282, 0, 0, []
1630164446.7823, 35, 0, 4172.308, 4201.538, 4105.128, 4145.128, 4133.333, 0, 0, []
1630164446.7903, 36, 0, 4165.641, 4192.821, 4088.718, 4133.846, 4124.615, 0, 0, []
1630164446.7982, 37, 0, 4168.205, 4207.179, 4092.821, 4141.538, 4124.103, 0, 0, []
1630164446.8062, 38, 0, 4186.667, 4241.026, 4113.846, 4164.103, 4143.077, 0, 0, []
1630164446.8141, 39, 0, 4197.436, 4247.179, 4086.667, 4163.59, 4148.205, 0, 0, []
1630164446.822, 40, 0, 4200, 4209.744, 4110.256, 4159.487, 4141.026, 0, 0, []
1630164446.8299, 41, 0, 4183.59, 4196.923, 4086.154, 4141.026, 4131.282, 0, 0, []
1630164446.8379, 42, 0, 4183.59, 4230.256, 4078.462, 4140, 4144.103, 0, 0, []
1630164446.8458, 43, 0, 4227.179, 4244.103, 4123.077, 4178.462, 4175.897, 0, 0, []
1630164446.8536, 44, 0, 4235.385, 4238.462, 4106.667, 4192.821, 4178.462, 0, 0, []
1630164446.8614, 45, 0, 4196.41, 4235.385, 4110.769, 4180, 4152.821, 0, 0, []
1630164446.8692, 46, 0, 4176.41, 4228.205, 4085.128, 4154.872, 4134.359, 0, 0, []
1630164446.8771, 47, 0, 4180, 4212.821, 4063.59, 4126.154, 4123.59, 0, 0, []
1630164446.8849, 48, 0, 4200, 4208.718, 4088.718, 4141.026, 4128.205, 0, 0, []
1630164446.8928, 49, 0, 4216.41, 4228.205, 4066.154, 4160, 4148.205, 0, 0, []
1630164446.9006, 50, 0, 4202.051, 4242.564, 4072.308, 4138.974, 4147.179, 0, 0, []
1630164446.9084, 51, 0, 4196.41, 4245.641, 4062.564, 4141.026, 4134.359, 0, 0, []
1630164446.9162, 52, 0, 4206.154, 4238.462, 4056.923, 4169.744, 4137.949, 0, 0, []
1630164446.9242, 53, 0, 4189.231, 4239.487, 4090.256, 4158.462, 4133.333, 0, 0, []
1630164446.9321, 54, 0, 4180.513, 4253.846, 4063.59, 4140, 4115.385, 0, 0, []
1630164446.9401, 55, 0, 4199.487, 4278.462, 4091.795, 4164.103, 4131.282, 0, 0, []
1630164446.9479, 56, 0, 4209.744, 4291.795, 4118.974, 4181.538, 4160, 0, 0, []
1630164446.9559, 57, 0, 4197.436, 4253.333, 4101.538, 4154.872, 4135.897, 0, 0, []
1630164446.9638, 58, 0, 4169.231, 4223.077, 4122.564, 4122.051, 4096.41, 0, 0, []
1630164446.9718, 59, 0, 4169.231, 4255.897, 4104.615, 4132.821, 4114.872, 0, 0, []
1630164446.9797, 60, 0, 4207.179, 4273.846, 4130.769, 4168.718, 4161.026, 0, 0, []
1630164446.9876, 61, 0, 4215.385, 4250.769, 4148.718, 4169.231, 4167.692, 0, 0, []
1630164446.9955, 62, 0, 4192.821, 4275.385, 4112.821, 4157.436, 4149.744, 0, 0, []
1630164447.0035, 63, 0, 4198.462, 4311.795, 4131.795, 4170.256, 4157.949, 0, 0, []
1630164447.0114, 64, 0, 4209.744, 4272.821, 4116.41, 4167.179, 4177.436, 450, 0, []
1630164447.0192, 65, 0, 4202.051, 4242.051, 4121.538, 4158.462, 4165.128, 450, 0, []
1630164447.027, 66, 0, 4198.974, 4263.59, 4122.564, 4154.359, 4145.128, 16185, 0, []
1630164447.0348, 67, 0, 4202.564, 4268.718, 4098.462, 4145.128, 4153.846, 450, 0, []
1630164447.0427, 68, 0, 4211.795, 4242.051, 4146.154, 4162.051, 4169.744, 16090, 0, []
1630164447.0505, 69, 0, 4213.846, 4246.154, 4134.359, 4180, 4180.513, 450, 0, []
1630164447.0584, 70, 0, 4213.333, 4282.051, 4129.231, 4171.282, 4185.641, 250, 0, []
1630164447.0661, 71, 0, 4216.41, 4280.513, 4148.205, 4162.051, 4171.795, 450, 0, []
1630164447.074, 72, 0, 4204.103, 4261.538, 4124.615, 4162.564, 4156.41, 450, 0, []
1630164447.0818, 73, 0, 4204.615, 4280.513, 4154.872, 4175.385, 4168.205, 16120, 0, []
1630164447.0898, 74, 0, 4227.692, 4303.077, 4158.462, 4178.974, 4176.923, 450, 0, []
1630164447.0977, 75, 0, 4226.667, 4276.923, 4171.795, 4173.846, 4166.667, 16201, 0, []
1630164447.1056, 76, 0, 4215.897, 4254.872, 4207.692, 4177.949, 4169.744, 450, 0, []
1630164447.1135, 77, 0, 4218.974, 4254.359, 4189.744, 4168.205, 4169.744, 450, 0, []
1630164447.1215, 78, 0, 4201.538, 4237.436, 4147.179, 4142.051, 4143.077, 450, 0, []
1630164447.1294, 79, 0, 4186.154, 4238.974, 4063.59, 4134.872, 4132.821, 16201, 0, []
1630164447.1374, 80, 0, 4202.564, 4236.923, 4069.231, 4146.154, 4156.923, 450, 0, []
1630164447.1452, 81, 0, 4215.385, 4213.846, 4112.821, 4150.769, 4174.872, 450, 0, []
1630164447.1532, 82, 0, 4217.436, 4225.641, 4082.051, 4160, 4174.872, 450, 0, []
1630164447.1611, 83, 0, 4216.923, 4248.205, 4104.615, 4163.59, 4180, 16201, 0, []
1630164447.1689, 84, 0, 4217.949, 4238.974, 4096.41, 4151.795, 4192.821, 450, 0, []
1630164447.1768, 85, 0, 4227.692, 4253.333, 4084.103, 4160.513, 4190.769, 450, 0, []
1630164447.1845, 86, 0, 4228.718, 4284.615, 4117.949, 4173.846, 4188.205, 450, 0, []
1630164447.1924, 87, 0, 4217.436, 4267.692, 4086.667, 4152.308, 4183.077, 16201, 0, []
1630164447.2002, 88, 0, 4209.744, 4251.282, 4105.641, 4141.538, 4160, 450, 0, []
1630164447.2081, 89, 0, 4205.128, 4260.513, 4113.333, 4150.256, 4158.974, 450, 0, []
1630164447.2159, 90, 0, 4209.744, 4250.256, 4084.615, 4147.692, 4183.59, 450, 0, []
1630164447.2238, 91, 0, 4218.974, 4248.205, 4106.667, 4150.769, 4183.59, 16201, 0, []
1630164447.2317, 92, 0, 4202.564, 4241.026, 4081.026, 4142.564, 4164.615, 450, 0, []
1630164447.2397, 93, 0, 4185.128, 4215.385, 4089.231, 4130.769, 4166.667, 450, 0, []
1630164447.2476, 94, 0, 4188.718, 4211.282, 4099.487, 4130.256, 4163.077, 450, 0, []
1630164447.2556, 95, 0, 4183.077, 4208.205, 4081.026, 4132.308, 4148.205, 16201, 0, []
1630164447.2635, 96, 0, 4185.641, 4193.333, 4106.667, 4143.59, 4151.795, 450, 0, []
1630164447.2714, 97, 0, 4201.026, 4185.641, 4089.744, 4145.128, 4152.308, 450, 0, []
1630164447.2793, 98, 0, 4203.59, 4195.385, 4106.667, 4152.821, 4161.538, 450, 0, []
1630164447.2873, 99, 0, 4206.667, 4216.41, 4120, 4170.256, 4187.179, 16201, 0, []
1630164447.2952, 100, 0, 4198.974, 4208.205, 4083.59, 4149.744, 4175.385, 450, 0, []
1630164447.3032, 101, 0, 4172.821, 4177.949, 4097.436, 4116.923, 4142.564, 450, 0, []
1630164447.311, 102, 0, 4177.949, 4191.795, 4083.59, 4128.205, 4148.718, 450, 0, []
1630164447.3188, 103, 0, 4204.103, 4204.615, 4096.41, 4152.821, 4172.308, 16201, 0, []
1630164447.3267, 104, 0, 4210.769, 4173.846, 4120.513, 4153.333, 4185.128, 450, 0, []
1630164447.3345, 105, 0, 4222.564, 4194.872, 4101.026, 4164.615, 4200.513, 450, 0, []
1630164447.3424, 106, 0, 4235.897, 4235.897, 4125.641, 4180.513, 4210.256, 450, 0, []
1630164447.3501, 107, 0, 4218.462, 4210.769, 4104.103, 4160.513, 4193.846, 16201, 0, []
1630164447.358, 108, 0, 4196.923, 4180, 4086.667, 4134.872, 4158.974, 450, 0, []
1630164447.3658, 109, 0, 4198.462, 4210.256, 4100, 4132.308, 4155.385, 450, 0, []
1630164447.3737, 110, 0, 4219.487, 4256.41, 4087.692, 4148.718, 4195.385, 450, 0, []
1630164447.3815, 111, 0, 4242.564, 4250.256, 4125.641, 4170.769, 4211.282, 16201, 0, []
1630164447.3894, 112, 0, 4236.41, 4218.974, 4118.462, 4170.256, 4195.385, 450, 0, []
1630164447.3973, 113, 0, 4215.897, 4222.051, 4100.513, 4155.897, 4191.282, 450, 0, []
1630164447.4053, 114, 0, 4213.846, 4234.359, 4114.359, 4152.308, 4190.256, 450, 0, []
1630164447.4132, 115, 0, 4207.692, 4221.538, 4086.154, 4144.615, 4174.359, 16201, 0, []
1630164447.4212, 116, 0, 4196.41, 4215.385, 4113.846, 4144.615, 4165.128, 450, 0, []
1630164447.429, 117, 0, 4202.564, 4208.205, 4111.795, 4148.718, 4165.641, 450, 0, []
1630164447.437, 118, 0, 4197.949, 4190.256, 4085.641, 4145.128, 4163.077, 450, 0, []
1630164447.4449, 119, 0, 4185.128, 4194.872, 4110.769, 4152.308, 4161.538, 16201, 0, []
1630164447.4529, 120, 0, 4185.641, 4200, 4096.41, 4153.846, 4163.077, 450, 0, []
1630164447.4608, 121, 0, 4191.282, 4178.462, 4115.385, 4148.205, 4171.282, 450, 0, []
1630164447.4685, 122, 0, 4196.923, 4182.564, 4108.205, 4146.667, 4166.667, 450, 0, []
1630164447.4764, 123, 0, 4198.974, 4208.718, 4082.564, 4145.641, 4150.256, 16201, 0, []
1630164447.4842, 124, 0, 4206.667, 4194.359, 4114.359, 4151.282, 4159.487, 450, 0, []
1630164447.4921, 125, 0, 4229.231, 4185.641, 4101.026, 4159.487, 4181.538, 450, 0, []
1630164447.4999, 126, 0, 4232.308, 4210.769, 4113.846, 4162.564, 4183.077, 450, 0, []
1630164447.5077, 127, 0, 4220.513, 4218.462, 4113.846, 4153.846, 4178.462, 16201, 0, []
1630164447.5155, 128, 0, 4229.744, 4190.256, 4086.667, 4143.59, 4180.513, 450, 0, []
1630164447.5234, 0, 0, 4224.103, 4170.256, 4108.205, 4130.769, 4168.718, 450, 0, []
1630164447.5312, 1, 0, 4212.821, 4178.462, 4092.308, 4120, 4162.564, 450, 0, []
1630164447.5391, 2, 0, 4242.051, 4178.462, 4109.231, 4136.923, 4181.026, 16184, 0, []
1630164447.5468, 3, 0, 4245.641, 4173.846, 4107.692, 4136.41, 4188.205, 450, 0, []
1630164447.5548, 4, 0, 4218.974, 4192.308, 4067.179, 4116.41, 4182.564, 16090, 0, []
1630164447.5627, 5, 0, 4247.179, 4220, 4116.923, 4136.41, 4201.026, 450, 0, []
1630164447.5707, 6, 0, 4301.026, 4226.154, 4130.769, 4163.077, 4243.59, 253, 0, []
1630164447.5786, 7, 0, 4303.077, 4220.513, 4112.308, 4150.769, 4262.564, 450, 0, []
1630164447.5865, 8, 0, 4295.897, 4223.59, 4094.872, 4126.667, 4255.897, 450, 0, []
1630164447.5944, 9, 0, 4325.641, 4212.308, 4072.308, 4121.026, 4268.718, 16120, 0, []
1630164447.6024, 10, 0, 4363.077, 4209.231, 4112.308, 4132.308, 4308.718, 450, 0, []
1630164447.6103, 11, 0, 4375.385, 4219.487, 4103.077, 4136.923, 4336.41, 16201, 0, []
1630164447.6183, 12, 0, 4372.821, 4219.487, 4100.513, 4136.41, 4327.692, 450, 0, []
1630164447.6262, 13, 0, 4367.179, 4218.974, 4114.872, 4136.41, 4302.564, 450, 0, []
1630164447.634, 14, 0, 4347.179, 4211.282, 4075.897, 4122.564, 4284.615, 450, 0, []
1630164447.6419, 15, 0, 4333.846, 4206.667, 4101.026, 4126.667, 4296.41, 16201, 0, []
1630164447.6498, 16, 0, 4337.436, 4212.308, 4105.128, 4151.795, 4311.795, 0, 0, []
1630164447.6576, 17, 0, 4317.436, 4202.564, 4089.744, 4146.667, 4281.538, 0, 0, []
1630164447.6654, 18, 0, 4285.128, 4195.385, 4102.051, 4116.41, 4248.718, 0, 0, []
1630164447.6732, 19, 0, 4278.462, 4223.077, 4081.538, 4110.256, 4254.872, 0, 0, []
1630164447.681, 20, 0, 4291.282, 4229.744, 4116.923, 4140, 4261.538, 0, 0, []
1630164447.6889, 21, 0, 4302.051, 4198.462, 4120, 4155.385, 4262.051, 0, 0, []
1630164447.6967, 22, 0, 4297.949, 4205.641, 4095.897, 4147.692, 4269.231, 0, 0, []
1630164447.7047, 23, 0, 4282.051, 4233.846, 4113.846, 4147.179, 4256.41, 0, 0, []
1630164447.7125, 24, 0, 4286.154, 4241.538, 4097.949, 4160, 4241.538, 0, 0, []
1630164447.7205, 25, 0, 4290.769, 4234.359, 4113.333, 4169.231, 4258.462, 0, 0, []
1630164447.7284, 26, 0, 4263.59, 4220, 4098.462, 4153.846, 4252.308, 0, 0, []
1630164447.7364, 27, 0, 4260.513, 4225.641, 4086.667, 4147.692, 4226.154, 0, 0, []
1630164447.7443, 28, 0, 4289.744, 4241.026, 4136.923, 4160.513, 4244.103, 0, 0, []
1630164447.7522, 29, 0, 4267.179, 4234.872, 4102.564, 4152.308, 4246.667, 0, 0, []
1630164447.7601, 30, 0, 4213.846, 4200, 4077.436, 4135.385, 4191.282, 0, 0, []
1630164447.7679, 31, 0, 4209.231, 4189.744, 4073.333, 4123.59, 4168.718, 0, 0, []
1630164447.7758, 32, 0, 4242.564, 4227.692, 4069.744, 4128.718, 4209.744, 0, 0, []
1630164447.7837, 33, 0, 4252.308, 4249.231, 4099.487, 4151.282, 4216.41, 0, 0, []
1630164447.7915, 34, 0, 4223.077, 4228.718, 4063.077, 4140, 4181.026, 0, 0, []
1630164447.7993, 35, 0, 4217.949, 4218.974, 4075.897, 4126.154, 4192.308, 0, 0, []
1630164447.8072, 36, 0, 4247.179, 4241.538, 4106.154, 4148.718, 4214.359, 0, 0, []
1630164447.815, 37, 0, 4231.282, 4227.692, 4070.769, 4141.538, 4181.026, 0, 0, []
1630164447.8229, 38, 0, 4199.487, 4199.487, 4080.513, 4121.026, 4157.436, 0, 0, []
1630164447.8306, 39, 0, 4217.949, 4212.308, 4075.385, 4129.744, 4170.769, 0, 0, []
1630164447.8385, 40, 0, 4209.231, 4214.359, 4076.923, 4120.513, 4143.59, 0, 0, []
1630164447.8463, 41, 0, 4164.615, 4201.026, 4078.462, 4097.436, 4103.59, 0, 0, []
1630164447.8543, 42, 0, 4181.026, 4209.231, 4065.128, 4117.436, 4124.103, 0, 0, []
1630164447.8622, 43, 0, 4215.385, 4222.051, 4101.538, 4141.538, 4150.256, 0, 0, []
1630164447.8701, 44, 0, 4179.487, 4205.128, 4068.205, 4112.308, 4122.564, 0, 0, []
1630164447.878, 45, 0, 4143.59, 4176.923, 4048.718, 4086.154, 4097.949, 0, 0, []
1630164447.886, 46, 0, 4160.513, 4178.974, 4079.487, 4101.538, 4110.769, 0, 0, []
1630164447.8939, 47, 0, 4147.692, 4203.077, 4055.897, 4097.436, 4097.436, 0, 0, []
1630164447.9019, 48, 0, 4105.641, 4203.59, 4064.103, 4073.846, 4058.974, 0, 0, []
1630164447.9097, 49, 0, 4113.846, 4161.026, 4057.436, 4079.487, 4068.718, 0, 0, []
1630164447.9177, 50, 0, 4148.205, 4161.538, 4061.538, 4106.154, 4098.462, 0, 0, []
1630164447.9256, 51, 0, 4140, 4200, 4083.077, 4110.256, 4077.436, 0, 0, []
1630164447.9336, 52, 0, 4113.846, 4190.256, 4048.205, 4098.974, 4049.231, 0, 0, []
1630164447.9415, 53, 0, 4118.462, 4185.641, 4072.308, 4096.41, 4054.872, 0, 0, []
1630164447.9493, 54, 0, 4129.744, 4211.795, 4075.897, 4081.026, 4062.051, 0, 0, []
1630164447.9571, 55, 0, 4125.641, 4196.923, 4060, 4076.923, 4058.974, 0, 0, []
1630164447.9649, 56, 0, 4122.564, 4170.256, 4087.692, 4102.051, 4057.436, 0, 0, []
1630164447.9728, 57, 0, 4124.103, 4182.564, 4059.487, 4114.359, 4055.385, 0, 0, []
1630164447.9806, 58, 0, 4111.795, 4193.846, 4057.949, 4109.744, 4034.872, 0, 0, []
1630164447.9885, 59, 0, 4097.949, 4185.641, 4059.487, 4100.513, 4019.487, 0, 0, []
1630164447.9962, 60, 0, 4109.744, 4173.333, 4054.359, 4094.872, 4030.256, 0, 0, []
1630164448.0041, 61, 0, 4125.641, 4174.872, 4088.718, 4094.872, 4050.769, 0, 0, []
1630164448.0119, 62, 0, 4124.615, 4189.231, 4069.744, 4092.821, 4065.128, 0, 0, []
1630164448.0199, 63, 0, 4126.667, 4186.667, 4080, 4089.744, 4065.641, 0, 0, []
1630164448.0278, 64, 0, 4131.282, 4176.41, 4081.026, 4086.667, 4060, 450, 0, []
1630164448.0357, 65, 0, 4121.538, 4185.641, 4057.949, 4092.308, 4054.872, 450, 0, []
1630164448.0436, 66, 0, 4112.821, 4195.385, 4078.974, 4095.385, 4057.949, 16192, 0, []
1630164448.0516, 67, 0, 4125.641, 4180.513, 4042.051, 4082.051, 4058.462, 450, 0, []
1630164448.0595, 68, 0, 4135.897, 4156.923, 4045.128, 4076.923, 4060, 16093, 0, []
1630164448.0675, 69, 0, 4130.769, 4167.179, 4069.744, 4085.641, 4073.846, 450, 0, []
1630164448.0753, 70, 0, 4124.103, 4200, 4044.615, 4083.59, 4076.41, 255, 0, []
1630164448.0833, 71, 0, 4122.564, 4186.667, 4063.59, 4083.59, 4069.744, 450, 0, []
1630164448.0912, 72, 0, 4130.769, 4170.769, 4051.282, 4083.59, 4075.897, 450, 0, []
1630164448.099, 73, 0, 4142.564, 4188.205, 4054.359, 4083.59, 4089.231, 16127, 0, []
1630164448.1069, 74, 0, 4147.692, 4188.718, 4072.821, 4098.974, 4098.974, 450, 0, []
1630164448.1146, 75, 0, 4148.205, 4190.769, 4055.897, 4106.667, 4100, 16207, 0, []
1630164448.1225, 76, 0, 4140.513, 4192.821, 4075.385, 4087.179, 4093.846, 450, 0, []
1630164448.1303, 77, 0, 4144.103, 4177.436, 4055.385, 4074.872, 4096.41, 450, 0, []
1630164448.1382, 78, 0, 4159.487, 4181.026, 4063.077, 4098.974, 4106.667, 450, 0, []
1630164448.146, 79, 0, 4154.872, 4200.513, 4090.256, 4117.949, 4105.128, 16207, 0, []
1630164448.1538, 80, 0, 4130.256, 4193.846, 4051.282, 4104.615, 4091.795, 450, 0, []
1630164448.1616, 81, 0, 4129.231, 4195.897, 4068.718, 4098.974, 4095.897, 450, 0, []
1630164448.1696, 82, 0, 4148.718, 4199.487, 4061.026, 4093.846, 4111.282, 450, 0, []
1630164448.1775, 83, 0, 4158.462, 4163.59, 4044.103, 4082.051, 4124.103, 16207, 0, []
1630164448.1855, 84, 0, 4168.718, 4150.256, 4073.846, 4096.41, 4138.974, 450, 0, []
1630164448.1933, 85, 0, 4166.154, 4185.641, 4054.359, 4104.615, 4131.282, 450, 0, []
1630164448.2013, 86, 0, 4151.795, 4211.795, 4064.103, 4090.769, 4114.872, 450, 0, []
1630164448.2092, 87, 0, 4161.538, 4205.641, 4064.103, 4085.128, 4122.051, 16207, 0, []
1630164448.2172, 88, 0, 4172.308, 4198.974, 4062.564, 4087.179, 4126.154, 450, 0, []
1630164448.2251, 89, 0, 4169.744, 4195.385, 4092.308, 4095.385, 4119.487, 450, 0, []
1630164448.233, 90, 0, 4171.795, 4193.333, 4079.487, 4110.256, 4131.282, 450, 0, []
1630164448.2409, 91, 0, 4163.59, 4211.795, 4094.872, 4110.769, 4133.846, 16207, 0, []
1630164448.2487, 92, 0, 4136.41, 4212.821, 4059.487, 4078.974, 4098.974, 450, 0, []
1630164448.2566, 93, 0, 4145.641, 4174.359, 4035.385, 4079.487, 4105.641, 450, 0, []
1630164448.2644, 94, 0, 4181.538, 4164.615, 4095.385, 4121.026, 4146.667, 450, 0, []
1630164448.2722, 95, 0, 4165.641, 4191.282, 4058.974, 4105.128, 4126.667, 16207, 0, []
1630164448.28, 96, 0, 4132.308, 4188.718, 4040, 4073.846, 4087.179, 450, 0, []
1630164448.2879, 97, 0, 4150.256, 4185.128, 4064.103, 4097.436, 4106.667, 450, 0, []
1630164448.2957, 98, 0, 4176.41, 4213.846, 4055.897, 4120.513, 4136.41, 450, 0, []
1630164448.3036, 99, 0, 4166.667, 4225.128, 4063.59, 4105.641, 4122.051, 16207, 0, []
1630164448.3114, 100, 0, 4154.359, 4206.667, 4042.564, 4094.872, 4112.308, 450, 0, []
1630164448.3192, 101, 0, 4157.949, 4191.795, 4066.154, 4111.795, 4124.615, 450, 0, []
1630164448.327, 102, 0, 4158.974, 4210.256, 4082.564, 4116.923, 4119.487, 450, 0, []
1630164448.335, 103, 0, 4152.821, 4230.256, 4057.436, 4106.667, 4107.692, 16207, 0, []
1630164448.3429, 104, 0, 4157.949, 4210.256, 4086.154, 4105.641, 4108.205, 450, 0, []
1630164448.3509, 105, 0, 4175.897, 4197.949, 4079.487, 4104.615, 4111.282, 450, 0, []
1630164448.3587, 106, 0, 4178.974, 4226.667, 4085.128, 4111.795, 4114.872, 450, 0, []
1630164448.3667, 107, 0, 4175.385, 4249.744, 4101.026, 4127.179, 4131.282, 16207, 0, []
1630164448.3746, 108, 0, 4193.846, 4251.282, 4080, 4134.872, 4147.179, 450, 0, []
1630164448.3826, 109, 0, 4199.487, 4240, 4097.949, 4131.795, 4138.462, 450, 0, []
1630164448.3905, 110, 0, 4174.359, 4223.59, 4058.462, 4116.41, 4115.897, 450, 0, []
1630164448.3982, 111, 0, 4169.231, 4242.051, 4054.359, 4107.692, 4114.872, 16207, 0, []
1630164448.4061, 112, 0, 4199.487, 4285.128, 4108.205, 4127.179, 4153.333, 450, 0, []
1630164448.4139, 113, 0, 4212.308, 4282.051, 4088.205, 4147.179, 4172.308, 450, 0, []
1630164448.4218, 114, 0, 4197.949, 4226.154, 4100.513, 4141.538, 4154.359, 450, 0, []
1630164448.4296, 115, 0, 4191.795, 4185.641, 4093.846, 4124.615, 4153.333, 16207, 0, []
1630164448.4374, 116, 0, 4200, 4202.564, 4085.128, 4132.821, 4166.154, 450, 0, []
1630164448.4452, 117, 0, 4215.897, 4236.41, 4118.462, 4163.59, 4181.538, 450, 0, []
1630164448.4531, 118, 0, 4230.769, 4252.308, 4101.538, 4175.897, 4201.538, 450, 0, []
1630164448.4609, 119, 0, 4225.128, 4252.821, 4108.205, 4160, 4188.718, 16207, 0, []
1630164448.4689, 120, 0, 4211.282, 4249.744, 4097.436, 4143.59, 4169.744, 450, 0, []
1630164448.4767, 121, 0, 4224.103, 4261.538, 4094.872, 4155.897, 4188.205, 450, 0, []
1630164448.4847, 122, 0, 4243.077, 4283.59, 4128.718, 4164.615, 4198.462, 450, 0, []
1630164448.4926, 123, 0, 4229.231, 4270.256, 4104.103, 4151.282, 4185.128, 16207, 0, []
1630164448.5006, 124, 0, 4212.308, 4240, 4109.231, 4157.436, 4177.436, 450, 0, []
1630164448.5085, 125, 0, 4217.436, 4262.051, 4097.949, 4158.462, 4173.846, 450, 0, []
1630164448.5164, 126, 0, 4234.872, 4299.487, 4090.256, 4154.872, 4190.769, 450, 0, []
1630164448.5243, 127, 0, 4252.821, 4298.974, 4133.333, 4177.949, 4212.308, 16207, 0, []
1630164448.5323, 128, 0, 4247.692, 4287.692, 4107.179, 4175.897, 4194.359, 450, 0, []
1630164448.5402, 0, 0, 4231.282, 4270.769, 4109.744, 4154.872, 4176.923, 450, 0, []
1630164448.5482, 1, 0, 4217.436, 4236.923, 4102.051, 4145.128, 4169.231, 450, 0, []
1630164448.556, 2, 0, 4193.333, 4219.487, 4054.359, 4113.846, 4141.026, 16185, 0, []
1630164448.5638, 3, 0, 4186.667, 4222.051, 4076.41, 4094.872, 4135.897, 450, 0, []
1630164448.5717, 4, 0, 4220, 4206.154, 4081.026, 4125.641, 4168.205, 16093, 0, []
1630164448.5795, 5, 0, 4236.41, 4195.897, 4101.026, 4151.282, 4184.103, 450, 0, []
1630164448.5874, 6, 0, 4220, 4207.692, 4102.051, 4140, 4174.872, 256, 0, []
1630164448.5951, 7, 0, 4218.462, 4212.821, 4073.846, 4133.846, 4174.359, 450, 0, []
1630164448.603, 8, 0, 4222.051, 4219.487, 4104.103, 4146.154, 4183.077, 450, 0, []
1630164448.6108, 9, 0, 4216.41, 4229.231, 4086.667, 4144.103, 4190.256, 16124, 0, []
1630164448.6187, 10, 0, 4224.103, 4221.026, 4095.385, 4140.513, 4198.462, 450, 0, []
1630164448.6266, 11, 0, 4238.462, 4224.103, 4131.282, 4152.821, 4208.205, 16205, 0, []
1630164448.6344, 12, 0, 4234.359, 4244.103, 4098.974, 4155.385, 4203.59, 450, 0, []
1630164448.6423, 13, 0, 4222.564, 4224.103, 4096.41, 4138.974, 4185.641, 450, 0, []
1630164448.6501, 14, 0, 4220.513, 4189.744, 4084.103, 4129.231, 4188.205, 450, 0, []
1630164448.6581, 15, 0, 4214.872, 4186.667, 4091.795, 4132.821, 4188.718, 16205, 0, []
1630164448.666, 16, 0, 4196.923, 4165.641, 4098.974, 4120, 4164.615, 0, 0, []
1630164448.6739, 17, 0, 4202.051, 4129.231, 4069.744, 4114.872, 4170.256, 0, 0, []
1630164448.6818, 18, 0, 4231.282, 4125.641, 4113.333, 4146.667, 4198.974, 0, 0, []
1630164448.6897, 19, 0, 4224.615, 4125.641, 4097.949, 4138.462, 4192.821, 0, 0, []
1630164448.6977, 20, 0, 4208.205, 4093.846, 4075.897, 4114.872, 4184.615, 0, 0, []
1630164448.7056, 21, 0, 4233.333, 4103.077, 4121.026, 4144.615, 4204.615, 0, 0, []
1630164448.7136, 22, 0, 4236.923, 4154.359, 4105.641, 4158.974, 4209.231, 0, 0, []
1630164448.7214, 23, 0, 4214.872, 4147.179, 4110.769, 4144.103, 4195.897, 0, 0, []
1630164448.7292, 24, 0, 4220, 4108.205, 4096.41, 4141.538, 4189.231, 0, 0, []
1630164448.7371, 25, 0, 4221.538, 4105.128, 4083.077, 4138.974, 4182.051, 0, 0, []
1630164448.7449, 26, 0, 4212.308, 4115.385, 4118.462, 4133.846, 4183.59, 0, 0, []
1630164448.7528, 27, 0, 4220, 4094.359, 4098.974, 4131.282, 4189.231, 0, 0, []
1630164448.7605, 28, 0, 4213.333, 4068.205, 4100, 4128.205, 4176.923, 0, 0, []
1630164448.7684, 29, 0, 4206.154, 4070.769, 4100, 4137.436, 4174.359, 0, 0, []
1630164448.7762, 30, 0, 4228.205, 4088.718, 4102.564, 4155.897, 4188.718, 0, 0, []
1630164448.7841, 31, 0, 4234.359, 4092.308, 4128.718, 4151.795, 4183.59, 0, 0, []
1630164448.7919, 32, 0, 4209.744, 4074.359, 4080, 4127.179, 4150.256, 0, 0, []
1630164448.7998, 33, 0, 4202.564, 4071.795, 4085.641, 4126.667, 4142.564, 0, 0, []
1630164448.8077, 34, 0, 4231.795, 4086.154, 4119.487, 4155.897, 4178.462, 0, 0, []
1630164448.8157, 35, 0, 4250.256, 4106.154, 4109.744, 4171.795, 4192.308, 0, 0, []
1630164448.8236, 36, 0, 4223.077, 4114.872, 4113.846, 4153.846, 4164.615, 0, 0, []
1630164448.8316, 37, 0, 4208.205, 4105.128, 4087.692, 4141.026, 4155.897, 0, 0, []
1630164448.8394, 38, 0, 4237.949, 4101.538, 4121.538, 4164.103, 4184.103, 0, 0, []
1630164448.8474, 39, 0, 4245.641, 4124.615, 4134.359, 4174.359, 4191.795, 0, 0, []
1630164448.8553, 40, 0, 4215.897, 4155.385, 4088.205, 4155.897, 4168.718, 0, 0, []
1630164448.8632, 41, 0, 4212.308, 4153.333, 4118.974, 4152.308, 4163.077, 0, 0, []
1630164448.8711, 42, 0, 4222.051, 4146.154, 4107.179, 4156.41, 4174.359, 0, 0, []
1630164448.8788, 43, 0, 4209.231, 4144.103, 4092.308, 4152.821, 4161.026, 0, 0, []
1630164448.8867, 44, 0, 4198.462, 4118.974, 4103.59, 4140, 4142.051, 0, 0, []
1630164448.8945, 45, 0, 4211.795, 4115.897, 4090.769, 4144.615, 4159.487, 0, 0, []
1630164448.9024, 46, 0, 4223.59, 4141.538, 4124.103, 4168.205, 4177.436, 0, 0, []
1630164448.9102, 47, 0, 4212.308, 4145.128, 4104.615, 4157.949, 4169.744, 0, 0, []
1630164448.918, 48, 0, 4214.872, 4146.667, 4098.462, 4150.256, 4168.205, 0, 0, []
1630164448.9258, 49, 0, 4238.462, 4173.333, 4135.385, 4181.026, 4174.872, 0, 0, []
1630164448.9337, 50, 0, 4238.974, 4174.359, 4111.282, 4186.154, 4170.256, 0, 0, []
1630164448.9415, 51, 0, 4228.205, 4175.385, 4116.41, 4172.308, 4170.769, 0, 0, []
1630164448.9495, 52, 0, 4233.846, 4195.385, 4104.103, 4178.974, 4173.846, 0, 0, []
1630164448.9573, 53, 0, 4227.179, 4166.667, 4098.462, 4168.205, 4162.051, 0, 0, []
1630164448.9653, 54, 0, 4215.385, 4150.769, 4121.026, 4151.795, 4157.949, 0, 0, []
1630164448.9732, 55, 0, 4216.41, 4188.205, 4095.897, 4160.513, 4157.436, 0, 0, []
1630164448.9812, 56, 0, 4204.615, 4196.923, 4110.769, 4159.487, 4147.692, 0, 0, []
1630164448.9891, 57, 0, 4206.667, 4189.744, 4108.718, 4152.308, 4154.872, 0, 0, []
1630164448.9971, 58, 0, 4244.615, 4209.744, 4113.333, 4176.923, 4182.051, 0, 0, []
1630164449.0049, 59, 0, 4255.897, 4222.051, 4143.077, 4188.718, 4200.513, 0, 0, []
1630164449.0129, 60, 0, 4232.308, 4200, 4101.538, 4163.59, 4202.564, 0, 0, []
1630164449.0208, 61, 0, 4230.256, 4169.744, 4116.41, 4168.205, 4190.256, 0, 0, []
1630164449.0286, 62, 0, 4241.026, 4154.872, 4127.179, 4182.564, 4191.282, 0, 0, []
1630164449.0365, 63, 0, 4244.103, 4153.333, 4103.077, 4178.974, 4217.436, 0, 0, []
1630164449.0442, 64, 0, 4256.41, 4157.949, 4126.154, 4193.333, 4218.974, 450, 0, []
1630164449.0521, 65, 0, 4255.385, 4154.872, 4109.744, 4197.436, 4202.051, 450, 0, []
1630164449.0599, 66, 0, 4236.923, 4133.846, 4119.487, 4184.615, 4207.179, 16184, 0, []
1630164449.0678, 67, 0, 4231.282, 4124.615, 4120, 4184.103, 4200.513, 450, 0, []
1630164449.0756, 68, 0, 4226.667, 4150.769, 4091.795, 4182.051, 4177.436, 16092, 0, []
1630164449.0834, 69, 0, 4213.333, 4166.154, 4110.769, 4172.308, 4178.974, 450, 0, []
1630164449.0912, 70, 0, 4211.795, 4139.487, 4090.256, 4170.256, 4181.538, 248, 0, []
1630164449.0992, 71, 0, 4212.821, 4123.077, 4107.692, 4174.872, 4170.769, 450, 0, []
1630164449.1071, 72, 0, 4221.538, 4152.308, 4126.667, 4182.564, 4187.692, 450, 0, []
1630164449.1151, 73, 0, 4245.128, 4168.205, 4103.077, 4197.436, 4204.615, 16123, 0, []
1630164449.1229, 74, 0, 4243.077, 4133.333, 4127.692, 4198.462, 4193.333, 450, 0, []
1630164449.1309, 75, 0, 4213.846, 4117.436, 4100.513, 4172.821, 4178.974, 16197, 0, []
1630164449.1388, 76, 0, 4210.769, 4143.59, 4084.103, 4161.026, 4173.333, 450, 0, []
1630164449.1468, 77, 0, 4211.795, 4137.949, 4091.282, 4165.641, 4166.667, 450, 0, []
1630164449.1547, 78, 0, 4186.154, 4122.051, 4064.103, 4156.923, 4151.282, 450, 0, []
1630164449.1626, 79, 0, 4184.615, 4143.077, 4102.051, 4154.872, 4144.615, 16197, 0, []
1630164449.1705, 80, 0, 4209.744, 4154.872, 4107.692, 4163.077, 4162.564, 450, 0, []
1630164449.1785, 81, 0, 4210.769, 4147.179, 4101.538, 4166.154, 4173.846, 450, 0, []
1630164449.1864, 82, 0, 4204.103, 4154.359, 4110.256, 4162.564, 4169.231, 450, 0, []
1630164449.1942, 83, 0, 4215.897, 4165.641, 4091.795, 4166.154, 4179.487, 16197, 0, []
1630164449.202, 84, 0, 4218.974, 4178.974, 4126.667, 4181.026, 4183.077, 450, 0, []
1630164449.2098, 85, 0, 4212.308, 4186.667, 4117.436, 4178.974, 4175.385, 450, 0, []
1630164449.2177, 86, 0, 4219.487, 4157.436, 4108.205, 4171.795, 4184.615, 450, 0, []
1630164449.2255, 87, 0, 4215.385, 4135.897, 4131.795, 4172.308, 4177.949, 16197, 0, []
1630164449.2335, 88, 0, 4196.41, 4152.821, 4099.487, 4169.231, 4155.385, 450, 0, []
1630164449.2413, 89, 0, 4194.359, 4142.051, 4112.308, 4172.308, 4151.282, 450, 0, []
1630164449.2492, 90, 0, 4204.615, 4123.077, 4110.256, 4172.821, 4156.41, 450, 0, []
1630164449.257, 91, 0, 4208.718, 4160, 4098.462, 4173.846, 4163.59, 16197, 0, []
1630164449.265, 92, 0, 4200.513, 4186.154, 4099.487, 4171.795, 4158.462, 450, 0, []
1630164449.2729, 93, 0, 4190.769, 4165.128, 4053.333, 4152.308, 4145.128, 450, 0, []
1630164449.2808, 94, 0, 4196.923, 4160, 4092.308, 4153.333, 4158.974, 450, 0, []
1630164449.2887, 95, 0, 4207.692, 4173.846, 4111.282, 4167.179, 4169.744, 16197, 0, []
1630164449.2967, 96, 0, 4194.872, 4172.308, 4077.436, 4156.41, 4148.205, 450, 0, []
1630164449.3046, 97, 0, 4184.103, 4177.949, 4113.333, 4155.897, 4151.282, 450, 0, []
1630164449.3126, 98, 0, 4193.846, 4204.103, 4107.692, 4167.179, 4169.744, 450, 0, []
1630164449.3204, 99, 0, 4189.744, 4220, 4096.923, 4156.923, 4154.872, 16197, 0, []
1630164449.3284, 100, 0, 4190.256, 4230.256, 4087.179, 4149.744, 4150.256, 450, 0, []
1630164449.3363, 101, 0, 4214.359, 4236.41, 4089.744, 4166.154, 4180, 450, 0, []
1630164449.3441, 102, 0, 4215.385, 4220, 4135.385, 4177.436, 4192.821, 450, 0, []
1630164449.352, 103, 0, 4182.564, 4204.615, 4094.872, 4156.923, 4160.513, 16197, 0, []
1630164449.3598, 104, 0, 4175.897, 4215.385, 4090.769, 4145.128, 4147.179, 450, 0, []
1630164449.3676, 105, 0, 4206.667, 4246.154, 4126.667, 4169.231, 4185.641, 450, 0, []
1630164449.3754, 106, 0, 4207.179, 4241.538, 4106.667, 4177.436, 4188.718, 450, 0, []
1630164449.3833, 107, 0, 4162.564, 4195.897, 4105.128, 4151.795, 4131.282, 16197, 0, []
1630164449.3911, 108, 0, 4147.179, 4207.692, 4088.718, 4144.615, 4115.897, 450, 0, []
1630164449.3991, 109, 0, 4178.974, 4247.692, 4114.872, 4170.256, 4156.41, 450, 0, []
1630164449.4069, 110, 0, 4194.359, 4216.923, 4124.615, 4169.231, 4169.231, 450, 0, []
1630164449.4149, 111, 0, 4184.615, 4188.718, 4078.974, 4149.231, 4148.718, 16197, 0, []
1630164449.4228, 112, 0, 4178.462, 4220.513, 4112.308, 4156.41, 4136.923, 450, 0, []
1630164449.4308, 113, 0, 4180.513, 4233.846, 4111.282, 4158.974, 4138.462, 450, 0, []
1630164449.4387, 114, 0, 4190.256, 4209.744, 4101.538, 4151.795, 4143.59, 450, 0, []
1630164449.4466, 115, 0, 4201.538, 4201.538, 4124.615, 4156.923, 4151.282, 16197, 0, []
1630164449.4545, 116, 0, 4208.205, 4208.718, 4110.769, 4171.795, 4160.513, 450, 0, []
1630164449.4625, 117, 0, 4212.821, 4233.333, 4137.436, 4186.667, 4168.205, 450, 0, []
1630164449.4704, 118, 0, 4202.051, 4271.795, 4118.974, 4176.41, 4164.103, 450, 0, []
1630164449.4782, 119, 0, 4182.051, 4271.795, 4098.462, 4159.487, 4147.179, 16197, 0, []
1630164449.486, 120, 0, 4188.205, 4249.744, 4131.282, 4167.179, 4155.897, 450, 0, []
1630164449.4938, 121, 0, 4201.026, 4247.179, 4106.667, 4168.718, 4175.897, 450, 0, []
1630164449.5017, 122, 0, 4187.179, 4249.231, 4107.692, 4152.308, 4157.949, 450, 0, []
1630164449.5095, 123, 0, 4174.872, 4252.308, 4106.154, 4152.308, 4142.051, 16197, 0, []
1630164449.5174, 124, 0, 4183.077, 4263.077, 4106.154, 4168.205, 4150.256, 450, 0, []
1630164449.5251, 125, 0, 4187.692, 4269.744, 4122.051, 4164.103, 4148.205, 450, 0, []
1630164449.533, 126, 0, 4186.667, 4267.179, 4091.795, 4154.872, 4152.308, 450, 0, []
1630164449.5408, 127, 0, 4197.949, 4270.769, 4121.026, 4176.41, 4173.846, 16197, 0, []
1630164449.5487, 128, 0, 4207.692, 4274.872, 4125.641, 4185.641, 4181.026, 450, 0, []
1630164449.5565, 0, 0, 4204.103, 4269.231, 4103.59, 4171.795, 4178.974, 450, 0, []
1630164449.5644, 1, 0, 4190.769, 4257.949, 4121.538, 4165.128, 4164.615, 450, 0, []
1630164449.5723, 2, 0, 4182.051, 4249.744, 4083.59, 4155.897, 4151.282, 16184, 0, []
1630164449.5803, 3, 0, 4215.897, 4271.282, 4108.718, 4167.692, 4185.128, 450, 0, []
1630164449.5882, 4, 0, 4247.179, 4282.564, 4140.513, 4196.923, 4205.641, 16090, 0, []
1630164449.5962, 5, 0, 4208.718, 4236.923, 4103.59, 4181.538, 4160, 450, 0, []
1630164449.604, 6, 0, 4176.41, 4199.487, 4109.231, 4146.154, 4136.923, 250, 0, []
1630164449.612, 7, 0, 4207.179, 4205.128, 4103.59, 4146.667, 4171.282, 450, 0, []
1630164449.6199, 8, 0, 4218.974, 4214.872, 4123.59, 4167.692, 4175.385, 450, 0, []
1630164449.6278, 9, 0, 4186.667, 4207.692, 4122.051, 4164.103, 4144.615, 16124, 0, []
1630164449.6357, 10, 0, 4173.846, 4177.436, 4088.205, 4143.59, 4145.641, 450, 0, []
1630164449.6435, 11, 0, 4193.333, 4166.154, 4124.103, 4147.692, 4171.282, 16198, 0, []
1630164449.6513, 12, 0, 4209.231, 4190.256, 4114.359, 4165.641, 4176.41, 450, 0, []
1630164449.6591, 13, 0, 4189.231, 4176.41, 4102.051, 4155.385, 4148.718, 450, 0, []
1630164449.667, 14, 0, 4168.718, 4160.513, 4103.59, 4134.872, 4133.846, 450, 0, []
1630164449.6748, 15, 0, 4181.026, 4178.974, 4089.231, 4136.923, 4152.308, 16198, 0, []
1630164449.6826, 16, 0, 4187.179, 4162.564, 4131.795, 4152.821, 4171.795, 0, 0, []
1630164449.6904, 17, 0, 4176.41, 4138.974, 4112.821, 4149.744, 4172.821, 0, 0, []
1630164449.6983, 18, 0, 4174.359, 4149.231, 4097.436, 4144.103, 4170.769, 0, 0, []
1630164449.7061, 19, 0, 4181.026, 4150.769, 4120, 4148.718, 4174.359, 0, 0, []
1630164449.714, 20, 0, 4178.462, 4150.769, 4089.744, 4142.051, 4167.692, 0, 0, []
1630164449.7218, 21, 0, 4168.718, 4164.615, 4103.59, 4137.949, 4163.59, 0, 0, []
1630164449.7297, 22, 0, 4169.744, 4147.179, 4095.897, 4137.949, 4169.231, 0, 0, []
1630164449.7376, 23, 0, 4178.974, 4127.179, 4090.256, 4130.256, 4167.179, 0, 0, []
1630164449.7456, 24, 0, 4189.744, 4140, 4117.949, 4133.846, 4165.128, 0, 0, []
1630164449.7535, 25, 0, 4204.103, 4145.128, 4101.538, 4149.744, 4174.872, 0, 0, []
1630164449.7615, 26, 0, 4221.026, 4149.744, 4134.359, 4157.949, 4192.308, 0, 0, []
1630164449.7693, 27, 0, 4225.641, 4171.282, 4136.41, 4150.769, 4206.154, 0, 0, []
1630164449.7773, 28, 0, 4210.256, 4169.231, 4108.718, 4148.205, 4190.769, 0, 0, []
1630164449.7852, 29, 0, 4196.41, 4151.282, 4120.513, 4151.282, 4164.615, 0, 0, []
1630164449.7932, 30, 0, 4209.231, 4146.667, 4105.641, 4155.385, 4180, 0, 0, []
1630164449.8011, 31, 0, 4222.051, 4143.077, 4127.179, 4161.026, 4197.436, 0, 0, []
1630164449.809, 32, 0, 4197.949, 4144.103, 4115.385, 4149.231, 4174.359, 0, 0, []
1630164449.8169, 33, 0, 4178.974, 4151.282, 4091.282, 4141.026, 4161.538, 0, 0, []
1630164449.8247, 34, 0, 4188.718, 4154.359, 4117.949, 4142.051, 4168.718, 0, 0, []
1630164449.8326, 35, 0, 4185.128, 4171.282, 4085.641, 4129.231, 4165.128, 0, 0, []
1630164449.8404, 36, 0, 4180.513, 4204.103, 4102.051, 4141.538, 4169.231, 0, 0, []
1630164449.8482, 37, 0, 4187.692, 4213.333, 4115.385, 4158.974, 4187.179, 0, 0, []
1630164449.856, 38, 0, 4186.667, 4198.974, 4088.718, 4144.103, 4186.667, 0, 0, []
1630164449.8639, 39, 0, 4193.333, 4198.974, 4129.231, 4147.179, 4182.051, 0, 0, []
1630164449.8717, 40, 0, 4203.077, 4213.846, 4122.051, 4163.59, 4196.41, 0, 0, []
1630164449.8797, 41, 0, 4201.538, 4222.051, 4117.436, 4162.564, 4207.179, 0, 0, []
1630164449.8875, 42, 0, 4203.077, 4218.462, 4122.564, 4158.462, 4195.385, 0, 0, []
1630164449.8955, 43, 0, 4202.564, 4234.359, 4104.615, 4163.59, 4187.179, 0, 0, []
1630164449.9034, 44, 0, 4201.026, 4246.154, 4131.795, 4172.308, 4198.974, 0, 0, []
1630164449.9114, 45, 0, 4212.821, 4226.667, 4115.897, 4168.718, 4205.641, 0, 0, []
1630164449.9193, 46, 0, 4218.974, 4219.487, 4120.513, 4167.179, 4200, 0, 0, []
1630164449.9272, 47, 0, 4217.949, 4229.744, 4137.949, 4175.385, 4203.077, 0, 0, []
1630164449.9351, 48, 0, 4227.692, 4221.026, 4113.333, 4170.256, 4208.718, 0, 0, []
1630164449.9431, 49, 0, 4214.872, 4208.718, 4127.692, 4155.385, 4193.333, 0, 0, []
1630164449.951, 50, 0, 4181.538, 4222.564, 4097.949, 4144.615, 4164.103, 0, 0, []
1630164449.9588, 51, 0, 4184.103, 4231.795, 4103.59, 4144.615, 4169.231, 0, 0, []
1630164449.9666, 52, 0, 4215.385, 4231.795, 4140, 4161.026, 4206.667, 0, 0, []
1630164449.9744, 53, 0, 4220.513, 4238.462, 4100, 4177.949, 4202.564, 0, 0, []
1630164449.9823, 54, 0, 4214.359, 4250.256, 4117.949, 4176.41, 4181.026, 0, 0, []
1630164449.9901, 55, 0, 4225.641, 4265.128, 4124.615, 4167.179, 4197.436, 0, 0, []
1630164449.998, 56, 0, 4223.59, 4277.436, 4104.615, 4167.179, 4197.436, 0, 0, []
1630164450.0057, 57, 0, 4205.641, 4280.513, 4107.692, 4160.513, 4167.179, 0, 0, []
1630164450.0136, 58, 0, 4196.41, 4258.974, 4082.051, 4141.026, 4150.769, 0, 0, []
1630164450.0214, 59, 0, 4198.462, 4232.821, 4110.256, 4145.641, 4154.872, 0, 0, []
1630164450.0294, 60, 0, 4207.692, 4249.231, 4119.487, 4169.231, 4178.974, 0, 0, []
1630164450.0373, 61, 0, 4225.128, 4272.308, 4120.513, 4186.667, 4204.103, 0, 0, []
1630164450.0453, 62, 0, 4237.949, 4248.718, 4148.205, 4198.974, 4209.231, 0, 0, []
1630164450.0531, 63, 0, 4223.59, 4237.436, 4116.923, 4191.282, 4203.59, 0, 0, []
1630164450.0611, 64, 0, 4192.821, 4264.615, 4120, 4161.538, 4176.923, 450, 0, []
1630164450.069, 65, 0, 4192.821, 4279.487, 4109.744, 4142.564, 4153.846, 450, 0, []
1630164450.077, 66, 0, 4208.718, 4271.795, 4092.821, 4158.974, 4162.051, 16184, 0, []
1630164450.0849, 67, 0, 4200.513, 4265.128, 4111.795, 4172.821, 4153.333, 450, 0, []
1630164450.0928, 68, 0, 4188.205, 4240.513, 4067.692, 4147.179, 4136.923, 16090, 0, []
1630164450.1007, 69, 0, 4200, 4207.179, 4074.872, 4135.897, 4160.513, 450, 0, []
1630164450.1085, 70, 0, 4215.385, 4202.051, 4097.436, 4154.359, 4186.667, 254, 0, []
1630164450.1164, 71, 0, 4213.333, 4214.359, 4085.641, 4161.538, 4196.41, 450, 0, []
1630164450.1242, 72, 0, 4206.667, 4221.026, 4113.846, 4161.026, 4204.103, 450, 0, []
1630164450.132, 73, 0, 4197.436, 4203.077, 4092.308, 4156.41, 4184.615, 16124, 0, []
1630164450.1398, 74, 0, 4191.795, 4193.846, 4103.59, 4165.128, 4167.692, 450, 0, []
1630164450.1477, 75, 0, 4209.231, 4230.256, 4126.154, 4187.179, 4193.846, 16198, 0, []
1630164450.1555, 76, 0, 4226.667, 4248.718, 4100, 4181.026, 4204.103, 450, 0, []
1630164450.1634, 77, 0, 4219.487, 4242.564, 4120, 4163.59, 4186.667, 450, 0, []
1630164450.1711, 78, 0, 4211.795, 4263.077, 4107.692, 4171.795, 4186.667, 450, 0, []
1630164450.179, 79, 0, 4214.872, 4271.795, 4109.231, 4176.923, 4188.718, 16198, 0, []
1630164450.1868, 80, 0, 4206.667, 4252.821, 4121.538, 4167.692, 4175.385, 450, 0, []
1630164450.1948, 81, 0, 4201.026, 4242.564, 4106.667, 4175.897, 4169.744, 450, 0, []
1630164450.2027, 82, 0, 4207.179, 4227.179, 4136.41, 4182.564, 4171.282, 450, 0, []
1630164450.2106, 83, 0, 4199.487, 4204.103, 4100, 4156.41, 4158.974, 16198, 0, []
1630164450.2185, 84, 0, 4192.308, 4206.154, 4083.59, 4149.744, 4144.103, 450, 0, []
1630164450.2265, 85, 0, 4198.462, 4220.513, 4116.923, 4171.795, 4154.359, 450, 0, []
1630164450.2344, 86, 0, 4192.821, 4223.077, 4092.308, 4168.205, 4166.154, 450, 0, []
1630164450.2424, 87, 0, 4182.051, 4232.308, 4102.051, 4153.846, 4156.923, 16198, 0, []
1630164450.2502, 88, 0, 4193.333, 4249.744, 4094.872, 4155.897, 4154.872, 450, 0, []
1630164450.2582, 89, 0, 4221.026, 4271.282, 4105.128, 4177.436, 4175.897, 450, 0, []
1630164450.2661, 90, 0, 4237.949, 4263.077, 4138.974, 4185.641, 4190.256, 450, 0, []
1630164450.2739, 91, 0, 4229.231, 4241.538, 4110.256, 4167.692, 4184.103, 16198, 0, []
1630164450.2818, 92, 0, 4218.462, 4279.487, 4127.179, 4167.179, 4172.821, 450, 0, []
1630164450.2895, 93, 0, 4219.487, 4315.385, 4120.513, 4172.821, 4177.436, 450, 0, []
1630164450.2974, 94, 0, 4215.385, 4281.026, 4094.872, 4162.051, 4185.641, 450, 0, []
1630164450.3052, 95, 0, 4198.974, 4237.436, 4108.718, 4150.256, 4168.205, 16198, 0, []
1630164450.3131, 96, 0, 4192.821, 4240, 4086.154, 4145.128, 4161.026, 450, 0, []
1630164450.3209, 97, 0, 4210.769, 4261.538, 4115.385, 4161.538, 4183.077, 450, 0, []
1630164450.3287, 98, 0, 4225.641, 4254.359, 4120, 4176.923, 4183.077, 450, 0, []
1630164450.3365, 99, 0, 4214.872, 4223.077, 4091.795, 4165.641, 4168.205, 16198, 0, []
1630164450.3445, 100, 0, 4212.821, 4232.308, 4125.641, 4165.641, 4181.026, 450, 0, []
1630164450.3524, 101, 0, 4223.077, 4277.436, 4118.462, 4176.923, 4190.769, 450, 0, []
1630164450.3604, 102, 0, 4210.769, 4281.538, 4122.051, 4171.282, 4178.462, 450, 0, []
1630164450.3682, 103, 0, 4194.872, 4248.205, 4110.256, 4160.513, 4172.821, 16198, 0, []
1630164450.3762, 104, 0, 4198.974, 4245.128, 4080, 4154.359, 4167.179, 450, 0, []
1630164450.3841, 105, 0, 4184.103, 4258.974, 4098.462, 4140, 4149.231, 450, 0, []
1630164450.3921, 106, 0, 4162.051, 4262.051, 4071.282, 4125.128, 4136.923, 450, 0, []
1630164450.4, 107, 0, 4182.051, 4287.179, 4096.41, 4141.026, 4151.795, 16198, 0, []
1630164450.408, 108, 0, 4212.821, 4316.923, 4124.615, 4164.615, 4187.179, 450, 0, []
1630164450.4158, 109, 0, 4206.667, 4307.179, 4083.077, 4157.949, 4190.769, 450, 0, []
1630164450.4236, 110, 0, 4188.718, 4294.359, 4096.923, 4136.923, 4164.615, 450, 0, []
1630164450.4315, 111, 0, 4187.179, 4302.564, 4093.846, 4135.897, 4168.205, 16198, 0, []
1630164450.4393, 112, 0, 4199.487, 4308.205, 4099.487, 4157.949, 4186.667, 450, 0, []
1630164450.4472, 113, 0, 4208.205, 4304.103, 4107.179, 4160, 4178.974, 450, 0, []
1630164450.4549, 114, 0, 4192.308, 4308.718, 4075.385, 4138.462, 4170.256, 450, 0, []
1630164450.4628, 115, 0, 4181.538, 4321.538, 4103.077, 4146.154, 4176.923, 16198, 0, []
1630164450.4706, 116, 0, 4198.974, 4326.154, 4100.513, 4157.949, 4175.385, 450, 0, []
1630164450.4785, 117, 0, 4201.026, 4302.564, 4101.026, 4147.692, 4170.256, 450, 0, []
1630164450.4863, 118, 0, 4195.897, 4280.513, 4120.513, 4152.308, 4184.103, 450, 0, []
1630164450.4942, 119, 0, 4213.846, 4300, 4097.436, 4169.744, 4198.974, 16198, 0, []
1630164450.5021, 120, 0, 4211.795, 4302.051, 4118.974, 4169.231, 4191.282, 450, 0, []
1630164450.5101, 121, 0, 4193.333, 4288.205, 4100.513, 4160.513, 4188.718, 450, 0, []
1630164450.518, 122, 0, 4217.949, 4315.385, 4095.897, 4174.872, 4210.256, 450, 0, []
1630164450.526, 123, 0, 4241.538, 4345.128, 4127.692, 4184.615, 4226.154, 16198, 0, []
1630164450.5338, 124, 0, 4222.051, 4324.615, 4094.359, 4165.641, 4210.769, 450, 0, []
1630164450.5418, 125, 0, 4208.718, 4285.128, 4107.179, 4155.897, 4187.179, 450, 0, []
1630164450.5497, 126, 0, 4206.667, 4273.846, 4105.128, 4148.205, 4188.718, 450, 0, []
1630164450.5577, 127, 0, 4199.487, 4294.872, 4096.41, 4147.179, 4200, 16198, 0, []
1630164450.5656, 128, 0, 4206.154, 4329.744, 4123.077, 4167.692, 4193.846, 450, 0, []
1630164450.5735, 0, 0, 4206.667, 4312.308, 4087.692, 4165.641, 4177.949, 450, 0, []
1630164450.5814, 1, 0, 4194.359, 4272.821, 4100, 4152.821, 4182.051, 450, 0, []
1630164450.5892, 2, 0, 4208.205, 4303.077, 4111.795, 4165.641, 4196.923, 16186, 0, []
1630164450.5971, 3, 0, 4237.949, 4340.513, 4101.538, 4180, 4213.846, 450, 0, []
1630164450.6049, 4, 0, 4236.923, 4324.615, 4127.179, 4179.487, 4230.256, 16090, 0, []
1630164450.6127, 5, 0, 4218.974, 4312.821, 4100.513, 4174.359, 4222.051, 450, 0, []
1630164450.6206, 6, 0, 4214.359, 4327.179, 4109.231, 4174.872, 4197.949, 257, 0, []
1630164450.6285, 7, 0, 4210.256, 4312.821, 4113.333, 4168.205, 4192.308, 450, 0, []
1630164450.6364, 8, 0, 4203.077, 4291.795, 4085.128, 4164.103, 4196.923, 450, 0, []
1630164450.6443, 9, 0, 4197.949, 4306.667, 4104.615, 4169.231, 4177.949, 16123, 0, []
1630164450.6522, 10, 0, 4186.154, 4327.692, 4087.179, 4163.077, 4163.59, 450, 0, []
1630164450.6602, 11, 0, 4183.59, 4322.051, 4103.077, 4161.026, 4180, 16201, 0, []
1630164450.6681, 12, 0, 4193.333, 4313.846, 4108.718, 4165.128, 4182.564, 450, 0, []
1630164450.6761, 13, 0, 4188.718, 4314.872, 4072.308, 4157.949, 4164.103, 450, 0, []
1630164450.684, 14, 0, 4178.974, 4293.333, 4101.026, 4154.359, 4163.59, 450, 0, []
1630164450.6919, 15, 0, 4186.667, 4276.923, 4086.154, 4157.436, 4172.308, 16201, 0, []
1630164450.6998, 16, 0, 4187.692, 4295.897, 4084.103, 4149.231, 4165.641, 0, 0, []
1630164450.7078, 17, 0, 4186.667, 4310.769, 4106.154, 4143.59, 4174.359, 0, 0, []
1630164450.7157, 18, 0, 4196.41, 4303.59, 4084.103, 4155.385, 4185.128, 0, 0, []
1630164450.7237, 19, 0, 4204.103, 4314.872, 4110.256, 4168.205, 4181.538, 0, 0, []
1630164450.7315, 20, 0, 4201.026, 4337.949, 4100, 4166.667, 4195.385, 0, 0, []
1630164450.7393, 21, 0, 4197.949, 4312.821, 4085.128, 4157.436, 4195.385, 0, 0, []
1630164450.7472, 22, 0, 4208.718, 4276.41, 4101.026, 4156.41, 4174.872, 0, 0, []
1630164450.755, 23, 0, 4219.487, 4312.308, 4088.718, 4161.026, 4185.641, 0, 0, []
1630164450.7629, 24, 0, 4216.41, 4351.282, 4118.974, 4167.692, 4205.641, 0, 0, []
1630164450.7707, 25, 0, 4213.846, 4318.462, 4103.077, 4157.949, 4187.179, 0, 0, []
1630164450.7785, 26, 0, 4212.308, 4307.179, 4083.59, 4141.538, 4173.333, 0, 0, []
1630164450.7863, 27, 0, 4200.513, 4315.385, 4096.923, 4137.436, 4183.077, 0, 0, []
1630164450.7942, 28, 0, 4200, 4282.564, 4071.282, 4141.538, 4176.923, 0, 0, []
1630164450.802, 29, 0, 4218.462, 4284.615, 4107.692, 4153.846, 4177.949, 0, 0, []
1630164450.81, 30, 0, 4222.564, 4334.872, 4115.897, 4154.359, 4198.462, 0, 0, []
1630164450.8178, 31, 0, 4210.769, 4329.744, 4095.385, 4148.718, 4198.462, 0, 0, []
1630164450.8258, 32, 0, 4208.718, 4308.205, 4111.795, 4147.692, 4184.615, 0, 0, []
1630164450.8337, 33, 0, 4196.41, 4341.026, 4085.641, 4134.872, 4179.487, 0, 0, []
1630164450.8417, 34, 0, 4172.821, 4341.538, 4095.897, 4123.077, 4166.154, 0, 0, []
1630164450.8496, 35, 0, 4170.256, 4312.308, 4084.103, 4113.846, 4149.744, 0, 0, []
1630164450.8575, 36, 0, 4182.051, 4325.641, 4068.718, 4117.436, 4163.59, 0, 0, []
1630164450.8654, 37, 0, 4205.128, 4358.462, 4120.513, 4148.718, 4203.077, 0, 0, []
1630164450.8732, 38, 0, 4236.41, 4360.513, 4117.436, 4167.692, 4221.538, 0, 0, []
1630164450.8811, 39, 0, 4244.103, 4347.179, 4125.641, 4157.436, 4221.538, 0, 0, []
1630164450.8889, 40, 0, 4226.667, 4353.333, 4119.487, 4152.308, 4223.59, 0, 0, []
1630164450.8967, 41, 0, 4228.718, 4374.359, 4092.821, 4162.564, 4223.59, 0, 0, []
1630164450.9045, 42, 0, 4242.051, 4377.949, 4116.923, 4161.538, 4221.538, 0, 0, []
1630164450.9124, 43, 0, 4234.359, 4362.564, 4088.205, 4147.179, 4224.103, 0, 0, []
1630164450.9202, 44, 0, 4225.641, 4363.077, 4092.308, 4150.769, 4222.051, 0, 0, []
1630164450.9281, 45, 0, 4223.077, 4353.333, 4107.179, 4157.436, 4206.154, 0, 0, []
1630164450.9358, 46, 0, 4207.692, 4326.154, 4082.564, 4149.744, 4199.487, 0, 0, []
1630164450.9437, 47, 0, 4195.897, 4329.231, 4107.179, 4147.179, 4196.41, 0, 0, []
1630164450.9515, 48, 0, 4208.205, 4358.974, 4094.359, 4142.051, 4185.128, 0, 0, []
1630164450.9594, 49, 0, 4215.385, 4366.667, 4103.077, 4135.385, 4185.641, 0, 0, []
1630164450.9672, 50, 0, 4205.641, 4339.487, 4125.641, 4143.59, 4200.513, 0, 0, []
1630164450.9751, 51, 0, 4199.487, 4326.667, 4095.897, 4149.231, 4194.359, 0, 0, []
1630164450.983, 52, 0, 4191.282, 4351.282, 4106.154, 4134.872, 4167.179, 0, 0, []
1630164450.991, 53, 0, 4188.718, 4352.308, 4090.256, 4123.59, 4168.718, 0, 0, []
1630164450.9989, 54, 0, 4203.59, 4328.205, 4110.256, 4147.179, 4184.103, 0, 0, []
1630164451.0069, 55, 0, 4212.308, 4358.974, 4146.154, 4169.231, 4192.308, 0, 0, []
1630164451.0147, 56, 0, 4199.487, 4374.872, 4092.821, 4143.59, 4191.282, 0, 0, []
1630164451.0227, 57, 0, 4186.667, 4326.154, 4091.282, 4115.897, 4169.744, 0, 0, []
1630164451.0306, 58, 0, 4188.205, 4323.59, 4094.872, 4117.949, 4169.231, 0, 0, []
1630164451.0386, 59, 0, 4204.615, 4352.308, 4095.385, 4132.308, 4198.974, 0, 0, []
1630164451.0465, 60, 0, 4205.128, 4344.615, 4105.641, 4136.41, 4187.692, 0, 0, []
1630164451.0542, 61, 0, 4168.718, 4337.436, 4061.538, 4116.923, 4152.821, 0, 0, []
1630164451.0621, 62, 0, 4165.128, 4331.795, 4089.744, 4113.333, 4175.897, 0, 0, []
1630164451.0699, 63, 0, 4212.308, 4324.103, 4109.231, 4140, 4209.744, 0, 0, []
1630164451.0778, 64, 0, 4225.641, 4354.872, 4101.538, 4152.821, 4204.103, 450, 0, []
1630164451.0856, 65, 0, 4192.821, 4369.231, 4115.385, 4139.487, 4196.923, 450, 0, []
1630164451.0934, 66, 0, 4177.949, 4344.103, 4084.615, 4131.795, 4184.615, 16182, 0, []
1630164451.1012, 67, 0, 4189.231, 4338.974, 4105.641, 4137.436, 4167.179, 450, 0, []
1630164451.1091, 68, 0, 4190.769, 4340.513, 4103.077, 4131.795, 4174.359, 16092, 0, []
1630164451.1169, 69, 0, 4195.385, 4329.231, 4081.538, 4134.359, 4186.154, 450, 0, []
1630164451.1249, 70, 0, 4212.308, 4337.436, 4123.59, 4153.333, 4187.179, 248, 0, []
1630164451.1328, 71, 0, 4213.846, 4357.436, 4102.564, 4150.769, 4190.769, 450, 0, []
1630164451.1407, 72, 0, 4193.333, 4340, 4090.769, 4134.359, 4181.026, 450, 0, []
1630164451.1486, 73, 0, 4189.231, 4334.359, 4098.462, 4135.385, 4175.897, 16123, 0, []
1630164451.1566, 74, 0, 4204.615, 4376.41, 4101.026, 4149.744, 4194.872, 450, 0, []
1630164451.1645, 75, 0, 4202.564, 4377.436, 4120.513, 4156.41, 4194.872, 16196, 0, []
1630164451.1725, 76, 0, 4195.897, 4334.872, 4084.615, 4144.103, 4184.615, 450, 0, []
1630164451.1803, 77, 0, 4210.256, 4353.846, 4104.103, 4149.231, 4206.667, 450, 0, []
1630164451.1883, 78, 0, 4224.615, 4390.769, 4123.077, 4169.231, 4231.795, 450, 0, []
1630164451.1962, 79, 0, 4207.179, 4338.462, 4081.538, 4149.231, 4213.333, 16196, 0, []
1630164451.204, 80, 0, 4182.051, 4295.897, 4097.436, 4121.538, 4188.718, 450, 0, []
1630164451.2119, 81, 0, 4192.821, 4324.103, 4085.128, 4136.923, 4193.333, 450, 0, []
1630164451.2196, 82, 0, 4217.949, 4345.128, 4096.923, 4163.077, 4198.462, 450, 0, []
1630164451.2275, 83, 0, 4221.538, 4354.872, 4120, 4157.949, 4201.538, 16196, 0, []
1630164451.2353, 84, 0, 4213.846, 4349.744, 4089.231, 4144.103, 4201.026, 450, 0, []
1630164451.2432, 85, 0, 4191.282, 4306.667, 4098.462, 4131.282, 4164.103, 450, 0, []
1630164451.251, 86, 0, 4169.744, 4308.718, 4078.462, 4116.41, 4134.359, 450, 0, []
1630164451.2589, 87, 0, 4200, 4367.179, 4091.795, 4144.615, 4176.41, 16196, 0, []
1630164451.2668, 88, 0, 4234.872, 4360, 4123.59, 4172.308, 4213.846, 450, 0, []
1630164451.2748, 89, 0, 4211.282, 4315.897, 4086.154, 4149.231, 4190.769, 450, 0, []
1630164451.2827, 90, 0, 4190.769, 4325.128, 4104.615, 4141.538, 4174.359, 450, 0, []
1630164451.2907, 91, 0, 4206.667, 4340, 4100, 4149.231, 4186.154, 16196, 0, []
1630164451.2985, 92, 0, 4204.615, 4317.949, 4087.179, 4140.513, 4184.615, 450, 0, []
1630164451.3065, 93, 0, 4184.615, 4300.513, 4100.513, 4137.436, 4163.59, 450, 0, []
1630164451.3144, 94, 0, 4180.513, 4308.205, 4070.769, 4132.821, 4159.487, 450, 0, []
1630164451.3224, 95, 0, 4185.641, 4315.897, 4100, 4132.821, 4177.436, 16196, 0, []
1630164451.3303, 96, 0, 4197.949, 4328.718, 4103.077, 4153.333, 4185.641, 450, 0, []
1630164451.338, 97, 0, 4212.308, 4336.923, 4082.564, 4157.949, 4188.718, 450, 0, []
1630164451.3459, 98, 0, 4213.846, 4312.821, 4102.051, 4137.949, 4209.231, 450, 0, []
1630164451.3537, 99, 0, 4220.513, 4299.487, 4077.436, 4130.256, 4221.026, 16196, 0, []
1630164451.3616, 100, 0, 4267.179, 4332.821, 4097.436, 4135.897, 4234.359, 450, 0, []
1630164451.3694, 101, 0, 4329.744, 4342.051, 4112.821, 4131.795, 4288.205, 450, 0, []
1630164451.3772, 102, 0, 4353.333, 4309.231, 4092.821, 4133.333, 4326.154, 450, 0, []
1630164451.385, 103, 0, 4345.641, 4313.333, 4090.256, 4135.897, 4305.641, 16196, 0, []
1630164451.3929, 104, 0, 4345.128, 4326.154, 4052.308, 4119.487, 4282.051, 450, 0, []
1630164451.4007, 105, 0, 4350.256, 4305.641, 4084.615, 4114.872, 4292.821, 450, 0, []
1630164451.4087, 106, 0, 4340.513, 4306.154, 4112.821, 4123.59, 4304.103, 450, 0, []
1630164451.4165, 107, 0, 4327.179, 4321.026, 4085.641, 4132.308, 4289.231, 16196, 0, []
1630164451.4245, 108, 0, 4318.462, 4293.333, 4101.026, 4144.103, 4258.462, 450, 0, []
1630164451.4324, 109, 0, 4299.487, 4261.026, 4080.513, 4135.897, 4237.436, 450, 0, []
1630164451.4404, 110, 0, 4274.359, 4278.974, 4089.744, 4123.077, 4235.385, 450, 0, []
1630164451.4483, 111, 0, 4266.154, 4313.846, 4098.974, 4129.744, 4240.513, 16196, 0, []
1630164451.4563, 112, 0, 4261.538, 4319.487, 4073.846, 4128.205, 4225.128, 450, 0, []
1630164451.4641, 113, 0, 4251.282, 4302.051, 4105.641, 4125.128, 4215.385, 450, 0, []
1630164451.4721, 114, 0, 4246.154, 4294.359, 4090.769, 4138.974, 4229.231, 450, 0, []
1630164451.48, 115, 0, 4237.949, 4307.692, 4090.769, 4146.154, 4211.795, 16196, 0, []
1630164451.488, 116, 0, 4222.564, 4302.564, 4102.051, 4128.718, 4175.897, 450, 0, []
1630164451.4959, 117, 0, 4220.513, 4287.692, 4078.974, 4127.692, 4192.821, 450, 0, []
1630164451.5036, 118, 0, 4230.256, 4327.692, 4116.923, 4159.487, 4223.077, 450, 0, []
1630164451.5115, 119, 0, 4222.564, 4351.795, 4102.051, 4154.359, 4203.59, 16196, 0, []
1630164451.5193, 120, 0, 4208.205, 4300, 4085.128, 4130.256, 4186.154, 450, 0, []
1630164451.5272, 121, 0, 4223.59, 4291.282, 4111.795, 4151.282, 4201.026, 450, 0, []
1630164451.535, 122, 0, 4240, 4337.949, 4090.256, 4173.333, 4197.436, 450, 0, []
1630164451.5428, 123, 0, 4220.513, 4326.667, 4105.641, 4161.026, 4181.026, 16196, 0, []
1630164451.5506, 124, 0, 4201.026, 4283.077, 4087.692, 4142.051, 4170.256, 450, 0, []
1630164451.5585, 125, 0, 4194.359, 4278.974, 4065.128, 4130.769, 4151.282, 450, 0, []
1630164451.5663, 126, 0, 4183.59, 4312.308, 4090.256, 4134.872, 4151.282, 450, 0, []
1630164451.5742, 127, 0, 4190.256, 4347.692, 4078.974, 4160, 4171.282, 16196, 0, []
1630164451.5819, 128, 0, 4199.487, 4340.513, 4095.897, 4168.205, 4163.59, 450, 0, []
1630164451.5899, 0, 0, 4183.077, 4298.462, 4082.564, 4146.667, 4148.718, 450, 0, []
1630164451.5978, 1, 0, 4180, 4286.667, 4073.846, 4150.256, 4157.436, 450, 0, []
1630164451.6058, 2, 0, 4203.077, 4305.641, 4104.615, 4165.128, 4166.667, 16187, 0, []
1630164451.6137, 3, 0, 4205.128, 4295.385, 4075.897, 4148.718, 4166.154, 450, 0, []
1630164451.6215, 4, 0, 4196.41, 4281.026, 4093.333, 4146.154, 4159.487, 16090, 0, []
1630164451.6294, 5, 0, 4204.103, 4313.333, 4097.949, 4155.385, 4156.41, 450, 0, []
1630164451.6373, 6, 0, 4203.59, 4329.231, 4074.872, 4144.103, 4161.026, 256, 0, []
1630164451.6452, 7, 0, 4191.795, 4303.59, 4096.41, 4141.538, 4151.795, 450, 0, []
1630164451.6531, 8, 0, 4186.154, 4296.41, 4074.359, 4145.128, 4136.923, 450, 0, []
1630164451.6608, 9, 0, 4176.41, 4303.59, 4087.692, 4134.359, 4135.385, 16121, 0, []
1630164451.6686, 10, 0, 4177.949, 4307.179, 4094.872, 4135.385, 4138.462, 450, 0, []
1630164451.6765, 11, 0, 4193.333, 4319.487, 4075.385, 4156.923, 4148.205, 16203, 0, []
1630164451.6843, 12, 0, 4196.41, 4320, 4113.846, 4170.256, 4162.051, 450, 0, []
1630164451.6922, 13, 0, 4195.897, 4315.897, 4109.744, 4169.744, 4165.641, 450, 0, []
1630164451.6999, 14, 0, 4193.846, 4329.744, 4107.692, 4168.718, 4156.923, 450, 0, []
1630164451.7078, 15, 0, 4172.308, 4324.103, 4087.692, 4154.359, 4130.769, 16203, 0, []
1630164451.7156, 16, 0, 4158.974, 4303.077, 4061.026, 4135.385, 4110.256, 0, 0, []
1630164451.7235, 17, 0, 4173.846, 4287.179, 4108.205, 4147.179, 4120, 0, 0, []
1630164451.7313, 18, 0, 4167.692, 4256.923, 4078.974, 4153.333, 4115.897, 0, 0, []
1630164451.7392, 19, 0, 4149.744, 4233.846, 4066.667, 4140.513, 4098.974, 0, 0, []
1630164451.7471, 20, 0, 4167.179, 4243.59, 4109.231, 4142.564, 4115.897, 0, 0, []
1630164451.7551, 21, 0, 4180, 4263.077, 4092.821, 4148.205, 4125.128, 0, 0, []
1630164451.763, 22, 0, 4172.821, 4268.718, 4097.436, 4151.795, 4116.923, 0, 0, []
1630164451.771, 23, 0, 4176.923, 4262.051, 4077.949, 4151.795, 4125.641, 0, 0, []
1630164451.7788, 24, 0, 4170.256, 4225.128, 4076.41, 4135.897, 4115.385, 0, 0, []
1630164451.7868, 25, 0, 4159.487, 4183.59, 4101.538, 4132.308, 4104.103, 0, 0, []
1630164451.7947, 26, 0, 4173.333, 4202.564, 4084.615, 4155.385, 4127.692, 0, 0, []
1630164451.8027, 27, 0, 4174.359, 4239.487, 4100.513, 4160.513, 4128.205, 0, 0, []
1630164451.8106, 28, 0, 4161.026, 4220.513, 4082.564, 4137.436, 4104.615, 0, 0, []
1630164451.8184, 29, 0, 4166.667, 4178.462, 4086.667, 4139.487, 4101.026, 0, 0, []
1630164451.8262, 30, 0, 4163.077, 4195.897, 4117.436, 4152.821, 4096.923, 0, 0, []
1630164451.834, 31, 0, 4153.333, 4239.487, 4087.692, 4145.641, 4091.282, 0, 0, []
1630164451.8419, 32, 0, 4163.077, 4230.256, 4116.923, 4145.641, 4105.641, 0, 0, []
1630164451.8497, 33, 0, 4156.923, 4226.667, 4121.026, 4149.231, 4112.308, 0, 0, []
1630164451.8576, 34, 0, 4149.231, 4285.641, 4108.205, 4159.487, 4102.051, 0, 0, []
1630164451.8653, 35, 0, 4168.718, 4310.769, 4131.282, 4173.846, 4107.179, 0, 0, []
1630164451.8732, 36, 0, 4173.846, 4270.769, 4091.795, 4163.59, 4120.513, 0, 0, []
1630164451.881, 37, 0, 4165.641, 4263.59, 4095.897, 4149.744, 4112.308, 0, 0, []
1630164451.8889, 38, 0, 4167.179, 4286.667, 4103.59, 4139.487, 4098.974, 0, 0, []
1630164451.8967, 39, 0, 4169.231, 4286.154, 4098.974, 4129.231, 4105.641, 0, 0, []
1630164451.9046, 40, 0, 4168.718, 4271.795, 4126.154, 4130.769, 4117.436, 0, 0, []
1630164451.9125, 41, 0, 4165.128, 4272.308, 4092.821, 4140, 4115.897, 0, 0, []
1630164451.9205, 42, 0, 4169.231, 4298.462, 4107.179, 4162.564, 4118.462, 0, 0, []
1630164451.9284, 43, 0, 4196.41, 4305.641, 4128.205, 4177.436, 4134.359, 0, 0, []
1630164451.9364, 44, 0, 4203.077, 4275.385, 4102.051, 4166.667, 4137.436, 0, 0, []
1630164451.9442, 45, 0, 4180, 4271.282, 4114.872, 4156.923, 4125.641, 0, 0, []
1630164451.9522, 46, 0, 4174.359, 4289.231, 4093.333, 4149.231, 4118.462, 0, 0, []
1630164451.9601, 47, 0, 4176.923, 4277.436, 4099.487, 4142.564, 4119.487, 0, 0, []
1630164451.9681, 48, 0, 4184.103, 4275.385, 4112.821, 4151.795, 4131.282, 0, 0, []
1630164451.976, 49, 0, 4198.462, 4296.41, 4090.769, 4156.923, 4140, 0, 0, []
1630164451.9837, 50, 0, 4193.333, 4280, 4114.872, 4151.282, 4137.436, 0, 0, []
1630164451.9916, 51, 0, 4188.205, 4258.974, 4094.359, 4148.205, 4135.385, 0, 0, []
1630164451.9994, 52, 0, 4200.513, 4272.308, 4095.385, 4149.231, 4138.974, 0, 0, []
1630164452.0073, 53, 0, 4195.897, 4293.333, 4113.846, 4149.744, 4143.077, 0, 0, []
1630164452.0151, 54, 0, 4185.641, 4288.718, 4086.667, 4148.718, 4144.615, 0, 0, []
1630164452.0229, 55, 0, 4197.949, 4246.154, 4110.769, 4145.128, 4149.231, 0, 0, []
1630164452.0307, 56, 0, 4205.128, 4242.051, 4106.667, 4142.564, 4156.41, 0, 0, []
1630164452.0387, 57, 0, 4201.026, 4281.026, 4113.333, 4159.487, 4153.333, 0, 0, []
1630164452.0466, 58, 0, 4182.564, 4262.564, 4116.923, 4150.256, 4128.718, 0, 0, []
1630164452.0546, 59, 0, 4165.641, 4222.051, 4076.41, 4122.051, 4117.436, 0, 0, []
1630164452.0624, 60, 0, 4195.385, 4255.897, 4121.026, 4151.795, 4144.103, 0, 0, []
1630164452.0704, 61, 0, 4220.513, 4281.538, 4116.923, 4172.821, 4160.513, 0, 0, []
1630164452.0783, 62, 0, 4185.641, 4238.462, 4076.41, 4133.333, 4133.846, 0, 0, []
1630164452.0863, 63, 0, 4156.923, 4231.282, 4086.667, 4115.385, 4106.667, 0, 0, []
1630164452.0942, 64, 0, 4177.436, 4271.282, 4075.385, 4137.436, 4120, 450, 0, []
1630164452.1021, 65, 0, 4188.718, 4284.103, 4096.923, 4148.718, 4141.538, 450, 0, []
1630164452.11, 66, 0, 4165.128, 4260, 4080.513, 4135.897, 4124.615, 16187, 0, []
1630164452.118, 67, 0, 4146.667, 4229.744, 4067.692, 4128.205, 4109.744, 450, 0, []
1630164452.1259, 68, 0, 4166.154, 4245.641, 4109.231, 4146.667, 4140.513, 16094, 0, []
1630164452.1337, 69, 0, 4189.744, 4279.487, 4088.205, 4157.436, 4158.974, 450, 0, []
1630164452.1415, 70, 0, 4171.795, 4260, 4088.718, 4143.59, 4130.769, 253, 0, []
1630164452.1493, 71, 0, 4156.41, 4216.41, 4081.026, 4131.795, 4111.795, 450, 0, []
1630164452.1572, 72, 0, 4182.051, 4216.41, 4076.923, 4137.949, 4133.846, 450, 0, []
1630164452.165, 73, 0, 4204.103, 4256.41, 4125.641, 4153.846, 4168.718, 16120, 0, []
1630164452.1729, 74, 0, 4205.641, 4279.487, 4103.077, 4165.128, 4177.436, 450, 0, []
1630164452.1807, 75, 0, 4210.769, 4272.821, 4101.538, 4170.769, 4167.692, 16203, 0, []
1630164452.1886, 76, 0, 4205.128, 4278.974, 4105.128, 4160, 4169.744, 450, 0, []
1630164452.1965, 77, 0, 4191.282, 4298.974, 4086.154, 4150.256, 4170.256, 450, 0, []
1630164452.2045, 78, 0, 4192.308, 4286.154, 4111.795, 4148.718, 4156.41, 450, 0, []
1630164452.2124, 79, 0, 4186.667, 4267.692, 4088.718, 4138.974, 4149.231, 16203, 0, []
1630164452.2204, 80, 0, 4184.615, 4287.179, 4097.436, 4146.154, 4152.821, 450, 0, []
1630164452.2282, 81, 0, 4206.667, 4295.897, 4113.333, 4166.667, 4160, 450, 0, []
1630164452.2362, 82, 0, 4194.359, 4280, 4078.462, 4156.923, 4154.872, 450, 0, []
1630164452.2441, 83, 0, 4150.769, 4271.795, 4086.667, 4132.821, 4131.282, 16203, 0, []
1630164452.2521, 84, 0, 4156.923, 4260.513, 4076.923, 4139.487, 4134.359, 450, 0, []
1630164452.26, 85, 0, 4180, 4251.795, 4093.846, 4160.513, 4151.282, 450, 0, []
1630164452.2679, 86, 0, 4171.282, 4259.487, 4106.154, 4159.487, 4138.462, 450, 0, []
1630164452.2758, 87, 0, 4170.256, 4251.795, 4071.795, 4147.692, 4130.769, 16203, 0, []
1630164452.2836, 88, 0, 4183.077, 4241.026, 4098.974, 4152.821, 4144.103, 450, 0, []
1630164452.2915, 89, 0, 4177.949, 4259.487, 4085.641, 4148.718, 4131.795, 450, 0, []
1630164452.2993, 90, 0, 4172.821, 4265.641, 4078.462, 4133.333, 4113.333, 450, 0, []
1630164452.3072, 91, 0, 4185.641, 4238.974, 4099.487, 4135.897, 4126.154, 16203, 0, []
1630164452.3151, 92, 0, 4181.538, 4219.487, 4064.103, 4134.359, 4125.128, 450, 0, []
1630164452.323, 93, 0, 4174.359, 4234.872, 4089.231, 4126.154, 4114.872, 450, 0, []
1630164452.3308, 94, 0, 4191.795, 4269.231, 4100, 4131.282, 4134.872, 450, 0, []
1630164452.3387, 95, 0, 4203.59, 4262.051, 4094.872, 4144.615, 4143.59, 16203, 0, []
1630164452.3464, 96, 0, 4193.846, 4241.538, 4115.897, 4148.718, 4135.897, 450, 0, []
1630164452.3543, 97, 0, 4185.128, 4263.077, 4093.846, 4144.103, 4142.051, 450, 0, []
1630164452.3621, 98, 0, 4185.128, 4274.359, 4104.103, 4149.231, 4141.026, 450, 0, []
1630164452.3701, 99, 0, 4188.718, 4268.205, 4089.744, 4149.744, 4140, 16203, 0, []
1630164452.378, 100, 0, 4188.205, 4272.821, 4086.154, 4149.231, 4152.821, 450, 0, []
1630164452.3859, 101, 0, 4184.103, 4258.462, 4119.487, 4155.897, 4143.59, 450, 0, []
1630164452.3938, 102, 0, 4190.769, 4247.179, 4089.231, 4144.103, 4126.667, 450, 0, []
1630164452.4018, 103, 0, 4191.795, 4265.128, 4097.436, 4131.795, 4131.282, 16203, 0, []
1630164452.4097, 104, 0, 4173.846, 4245.128, 4090.769, 4136.41, 4133.846, 450, 0, []
1630164452.4177, 105, 0, 4177.949, 4207.179, 4080, 4146.667, 4138.462, 450, 0, []
1630164452.4255, 106, 0, 4190.256, 4230.769, 4119.487, 4152.821, 4149.744, 450, 0, []
1630164452.4334, 107, 0, 4177.436, 4265.128, 4085.128, 4146.154, 4135.897, 16203, 0, []
1630164452.4413, 108, 0, 4178.462, 4245.128, 4089.744, 4143.59, 4122.564, 450, 0, []
1630164452.4491, 109, 0, 4192.308, 4217.436, 4110.769, 4144.615, 4132.308, 450, 0, []
1630164452.457, 110, 0, 4181.026, 4218.974, 4090.769, 4138.974, 4124.615, 450, 0, []
1630164452.4647, 111, 0, 4181.538, 4225.641, 4118.974, 4141.538, 4117.436, 16203, 0, []
1630164452.4726, 112, 0, 4190.769, 4232.308, 4103.59, 4143.077, 4124.103, 450, 0, []
1630164452.4804, 113, 0, 4164.615, 4227.692, 4088.205, 4131.795, 4097.436, 450, 0, []
1630164452.4883, 114, 0, 4150.769, 4213.333, 4084.103, 4121.538, 4084.103, 450, 0, []
1630164452.4961, 115, 0, 4178.462, 4215.897, 4083.077, 4133.333, 4123.59, 16203, 0, []
1630164452.504, 116, 0, 4194.359, 4220, 4126.154, 4145.641, 4137.436, 450, 0, []
1630164452.5117, 117, 0, 4187.692, 4209.744, 4101.026, 4120, 4118.462, 450, 0, []
1630164452.5197, 118, 0, 4181.026, 4199.487, 4098.462, 4104.103, 4118.974, 450, 0, []
1630164452.5276, 119, 0, 4169.744, 4217.949, 4108.718, 4118.974, 4103.59, 16203, 0, []
1630164452.5355, 120, 0, 4149.231, 4244.615, 4067.692, 4121.538, 4076.41, 450, 0, []
1630164452.5433, 121, 0, 4144.103, 4221.538, 4084.615, 4123.077, 4098.974, 450, 0, []
1630164452.5512, 122, 0, 4147.692, 4145.128, 4069.231, 4127.179, 4125.128, 450, 0, []
1630164452.5591, 123, 0, 4148.205, 4114.872, 4074.359, 4129.744, 4117.436, 16203, 0, []
1630164452.5671, 124, 0, 4167.692, 4148.205, 4120, 4146.667, 4136.41, 450, 0, []
1630164452.575, 125, 0, 4173.846, 4128.205, 4101.538, 4141.538, 4147.179, 450, 0, []
1630164452.583, 126, 0, 4146.667, 4104.103, 4103.077, 4113.333, 4111.282, 450, 0, []
1630164452.5908, 127, 0, 4147.692, 4142.051, 4093.333, 4119.487, 4097.436, 16203, 0, []
1630164452.5986, 128, 0, 4178.462, 4135.385, 4096.923, 4142.564, 4119.487, 450, 0, []
1630164452.6065, 0, 0, 4179.487, 4094.872, 4105.128, 4138.462, 4128.718, 450, 0, []
1630164452.6143, 1, 0, 4161.538, 4096.923, 4073.333, 4130.769, 4116.41, 450, 0, []
1630164452.6222, 2, 0, 4152.308, 4091.282, 4093.846, 4138.974, 4110.256, 16138, 0, []
1630164452.63, 3, 0, 4157.436, 4062.564, 4089.744, 4144.615, 4128.205, 450, 0, []
1630164452.6379, 4, 0, 4176.41, 4054.359, 4095.897, 4154.359, 4149.744, 16094, 0, []
1630164452.6458, 5, 0, 4181.538, 4066.667, 4116.923, 4155.897, 4150.769, 450, 0, []
1630164452.6536, 6, 0, 4176.923, 4086.667, 4086.154, 4135.385, 4142.564, 257, 0, []
1630164452.6614, 7, 0, 4173.846, 4080.513, 4108.718, 4116.923, 4128.718, 450, 0, []
1630164452.6692, 8, 0, 4157.949, 4051.282, 4096.41, 4111.795, 4113.333, 450, 0, []
1630164452.677, 9, 0, 4164.103, 4069.744, 4084.103, 4141.026, 4125.641, 16123, 0, []
1630164452.685, 10, 0, 4188.718, 4104.615, 4126.667, 4170.769, 4149.744, 450, 0, []
1630164452.6929, 11, 0, 4172.308, 4089.231, 4089.231, 4154.872, 4142.051, 16202, 0, []
1630164452.7009, 12, 0, 4147.179, 4072.821, 4087.179, 4144.615, 4121.026, 450, 0, []
1630164452.7087, 13, 0, 4158.974, 4092.821, 4105.641, 4151.282, 4129.231, 450, 0, []
1630164452.7167, 14, 0, 4160, 4099.487, 4084.103, 4133.846, 4141.026, 450, 0, []
1630164452.7246, 15, 0, 4154.359, 4084.615, 4097.436, 4118.974, 4129.231, 16202, 0, []
1630164452.7326, 16, 0, 4161.538, 4089.744, 4081.026, 4123.077, 4123.59, 0, 0, []
1630164452.7405, 17, 0, 4168.718, 4102.051, 4110.256, 4134.872, 4141.538, 0, 0, []
1630164452.7482, 18, 0, 4182.051, 4092.821, 4133.846, 4143.077, 4158.462, 0, 0, []
1630164452.7561, 19, 0, 4180.513, 4096.923, 4090.256, 4145.128, 4159.487, 0, 0, []
1630164452.7639, 20, 0, 4144.615, 4106.667, 4089.231, 4141.026, 4137.436, 0, 0, []
1630164452.7718, 21, 0, 4127.692, 4086.667, 4063.59, 4127.692, 4122.564, 0, 0, []
1630164452.7796, 22, 0, 4166.667, 4089.231, 4089.744, 4148.205, 4157.949, 0, 0, []
1630164452.7874, 23, 0, 4196.41, 4110.769, 4137.949, 4175.385, 4189.231, 0, 0, []
1630164452.7952, 24, 0, 4180, 4092.308, 4094.872, 4145.128, 4171.795, 0, 0, []
1630164452.8031, 25, 0, 4164.615, 4077.436, 4098.462, 4119.487, 4157.949, 0, 0, []
1630164452.8109, 26, 0, 4161.026, 4071.795, 4098.974, 4134.359, 4151.282, 0, 0, []
1630164452.8189, 27, 0, 4148.718, 4060.513, 4088.718, 4138.974, 4135.897, 0, 0, []
1630164452.8267, 28, 0, 4151.282, 4084.615, 4109.231, 4138.462, 4144.103, 0, 0, []
1630164452.8347, 29, 0, 4176.923, 4106.154, 4106.154, 4148.205, 4165.641, 0, 0, []
1630164452.8426, 30, 0, 4178.462, 4086.154, 4121.538, 4145.641, 4171.795, 0, 0, []
1630164452.8506, 31, 0, 4164.103, 4075.897, 4095.897, 4131.282, 4171.795, 0, 0, []
1630164452.8585, 32, 0, 4173.846, 4054.872, 4098.462, 4133.333, 4170.769, 0, 0, []
1630164452.8665, 33, 0, 4182.564, 4026.154, 4135.385, 4149.744, 4172.308, 0, 0, []
1630164452.8743, 34, 0, 4167.179, 4059.487, 4090.256, 4159.487, 4173.846, 0, 0, []
1630164452.8823, 35, 0, 4152.821, 4101.538, 4099.487, 4153.846, 4171.282, 0, 0, []
1630164452.8902, 36, 0, 4157.949, 4100.513, 4104.103, 4135.897, 4173.846, 0, 0, []
1630164452.8981, 37, 0, 4165.128, 4105.641, 4078.462, 4126.667, 4167.179, 0, 0, []
1630164452.906, 38, 0, 4167.179, 4114.359, 4098.462, 4130.769, 4164.615, 0, 0, []
1630164452.9137, 39, 0, 4175.897, 4106.154, 4086.154, 4136.923, 4183.59, 0, 0, []
1630164452.9216, 40, 0, 4182.051, 4109.231, 4112.308, 4153.333, 4186.154, 0, 0, []
1630164452.9294, 41, 0, 4169.231, 4119.487, 4122.051, 4165.641, 4168.718, 0, 0, []
1630164452.9373, 42, 0, 4153.846, 4104.615, 4087.179, 4152.308, 4162.564, 0, 0, []
1630164452.9451, 43, 0, 4153.846, 4082.051, 4094.359, 4128.205, 4163.077, 0, 0, []
1630164452.9529, 44, 0, 4161.026, 4082.051, 4085.128, 4121.026, 4165.641, 0, 0, []
1630164452.9607, 45, 0, 4171.795, 4089.231, 4112.308, 4140, 4170.256, 0, 0, []
1630164452.9686, 46, 0, 4177.949, 4084.615, 4113.846, 4145.128, 4174.359, 0, 0, []
1630164452.9764, 47, 0, 4170.769, 4067.179, 4084.103, 4140.513, 4180.513, 0, 0, []
1630164452.9844, 48, 0, 4165.641, 4040.513, 4115.897, 4158.974, 4181.538, 0, 0, []
1630164452.9922, 49, 0, 4174.359, 4021.538, 4089.744, 4160, 4180.513, 0, 0, []
1630164453.0002, 50, 0, 4201.538, 4010.256, 4088.205, 4144.615, 4197.949, 0, 0, []
1630164453.0081, 51, 0, 4223.59, 3992.308, 4109.231, 4149.231, 4213.846, 0, 0, []
1630164453.0161, 52, 0, 4210.256, 3987.692, 4090.256, 4157.949, 4203.077, 0, 0, []
1630164453.024, 53, 0, 4182.051, 4009.231, 4105.641, 4150.256, 4182.051, 0, 0, []
1630164453.0319, 54, 0, 4172.308, 4020, 4074.359, 4130.256, 4169.231, 0, 0, []
1630164453.0398, 55, 0, 4170.769, 4004.615, 4071.795, 4131.795, 4170.256, 0, 0, []
1630164453.0478, 56, 0, 4169.744, 3987.692, 4089.231, 4148.718, 4174.359, 0, 0, []
1630164453.0557, 57, 0, 4165.641, 3992.308, 4064.615, 4135.897, 4162.564, 0, 0, []
1630164453.0637, 58, 0, 4162.564, 4006.667, 4102.051, 4126.154, 4157.436, 0, 0, []
1630164453.0715, 59, 0, 4177.949, 4017.436, 4101.026, 4145.641, 4173.333, 0, 0, []
1630164453.0793, 60, 0, 4199.487, 4021.026, 4094.359, 4152.821, 4195.897, 0, 0, []
1630164453.0872, 61, 0, 4203.077, 4004.103, 4109.744, 4138.462, 4206.667, 0, 0, []
1630164453.095, 62, 0, 4191.795, 3983.59, 4084.615, 4129.231, 4194.359, 0, 0, []
1630164453.1029, 63, 0, 4183.077, 3987.179, 4104.103, 4130.256, 4177.436, 0, 0, []
1630164453.1106, 64, 0, 4189.744, 4017.949, 4090.769, 4126.154, 4186.154, 450, 0, []
1630164453.1185, 65, 0, 4197.436, 4031.795, 4085.641, 4125.641, 4199.487, 450, 0, []
1630164453.1263, 66, 0, 4190.256, 4029.231, 4115.897, 4131.282, 4190.769, 16169, 0, []
1630164453.1342, 67, 0, 4180, 4031.282, 4086.154, 4136.41, 4180, 450, 0, []
1630164453.142, 68, 0, 4183.59, 4017.949, 4097.436, 4139.487, 4189.231, 16098, 0, []
1630164453.1499, 69, 0, 4192.308, 3996.41, 4093.333, 4130.769, 4201.026, 450, 0, []
1630164453.1578, 70, 0, 4205.641, 3988.718, 4089.231, 4141.026, 4204.103, 322, 0, []
1630164453.1658, 71, 0, 4228.205, 4005.128, 4125.128, 4166.667, 4222.564, 450, 0, []
1630164453.1737, 72, 0, 4232.821, 4020, 4090.769, 4155.897, 4231.282, 450, 0, []
1630164453.1817, 73, 0, 4216.41, 3987.179, 4087.692, 4133.333, 4199.487, 16171, 0, []
1630164453.1895, 74, 0, 4214.359, 3961.538, 4087.692, 4128.205, 4190.769, 450, 0, []
1630164453.1975, 75, 0, 4225.641, 3990.256, 4074.359, 4131.282, 4217.436, 16198, 0, []
1630164453.2054, 76, 0, 4227.692, 3991.795, 4102.564, 4136.41, 4208.718, 450, 0, []
1630164453.2134, 77, 0, 4210.256, 3961.026, 4082.051, 4130.769, 4181.026, 450, 0, []
1630164453.2213, 78, 0, 4200.513, 3977.949, 4089.744, 4123.077, 4186.667, 450, 0, []
1630164453.2291, 79, 0, 4213.333, 3994.359, 4092.821, 4126.667, 4200.513, 16198, 0, []
