Timestamp, COUNTER, INTERPOLATED, AF3, T7, Pz, T8, AF4, RAW_CQ, MARKER_HARDWARE, MARKERS
1629045764.0689, 93, 0, 4167.179, 4189.231, 4130.769, 4156.41, 4187.179, 450, 0, []
1629045764.0769, 94, 0, 4181.538, 4206.154, 4154.359, 4170.769, 4198.974, 450, 0, []
1629045764.0848, 95, 0, 4176.41, 4205.641, 4137.436, 4169.744, 4200, 16204, 0, []
1629045764.0927, 96, 0, 4168.205, 4185.641, 4126.667, 4152.821, 4192.308, 450, 0, []
1629045764.1006, 97, 0, 4184.103, 4189.231, 4142.051, 4148.205, 4203.077, 450, 0, []
1629045764.1086, 98, 0, 4189.231, 4190.256, 4144.103, 4159.487, 4206.667, 450, 0, []
1629045764.1165, 99, 0, 4166.667, 4170.256, 4142.051, 4153.846, 4181.026, 16204, 0, []
1629045764.1245, 100, 0, 4155.385, 4186.154, 4129.231, 4135.897, 4165.128, 450, 0, []
1629045764.1323, 101, 0, 4161.538, 4201.026, 4146.667, 4142.051, 4177.436, 450, 0, []
1629045764.1403, 102, 0, 4171.795, 4180, 4153.333, 4160.513, 4186.154, 450, 0, []
1629045764.1482, 103, 0, 4177.949, 4172.821, 4126.154, 4154.359, 4182.051, 16204, 0, []
1629045764.156, 104, 0, 4172.308, 4178.974, 4124.615, 4140, 4182.051, 450, 0, []
1629045764.1639, 105, 0, 4172.821, 4184.615, 4123.59, 4146.154, 4191.282, 450, 0, []
1629045764.1716, 106, 0, 4186.667, 4189.744, 4138.974, 4157.949, 4193.846, 450, 0, []
1629045764.1795, 107, 0, 4194.872, 4172.308, 4148.205, 4154.872, 4190.256, 16204, 0, []
1629045764.1873, 108, 0, 4193.333, 4158.974, 4132.821, 4147.692, 4195.897, 450, 0, []
1629045764.1952, 109, 0, 4183.59, 4166.667, 4139.487, 4138.462, 4193.846, 450, 0, []
1629045764.203, 110, 0, 4174.872, 4152.308, 4133.846, 4137.436, 4184.103, 450, 0, []
1629045764.2108, 111, 0, 4187.692, 4144.615, 4143.077, 4161.538, 4193.846, 16204, 0, []
1629045764.2186, 112, 0, 4204.615, 4176.923, 4154.359, 4172.308, 4200, 450, 0, []
1629045764.2266, 113, 0, 4191.795, 4175.385, 4125.128, 4142.051, 4182.564, 450, 0, []
1629045764.2345, 114, 0, 4176.923, 4149.744, 4128.205, 4124.103, 4172.821, 450, 0, []
1629045764.2425, 115, 0, 4187.692, 4154.872, 4147.692, 4138.462, 4187.692, 16204, 0, []
1629045764.2503, 116, 0, 4193.333, 4155.385, 4153.333, 4141.538, 4196.923, 450, 0, []
1629045764.2583, 117, 0, 4183.077, 4148.718, 4140.513, 4127.692, 4189.744, 450, 0, []
1629045764.2662, 118, 0, 4167.179, 4153.846, 4110.256, 4118.974, 4172.308, 450, 0, []
1629045764.2742, 119, 0, 4150.256, 4153.846, 4122.564, 4120.513, 4161.538, 16204, 0, []
1629045764.2821, 120, 0, 4151.282, 4156.41, 4140, 4130.769, 4169.231, 450, 0, []
1629045764.29, 121, 0, 4158.462, 4147.692, 4136.41, 4129.231, 4168.718, 450, 0, []
1629045764.2979, 122, 0, 4151.282, 4120, 4142.564, 4113.846, 4165.641, 450, 0, []
1629045764.3057, 123, 0, 4158.974, 4122.564, 4148.205, 4121.538, 4181.026, 16204, 0, []
1629045764.3136, 124, 0, 4180.513, 4138.462, 4172.308, 4144.103, 4191.795, 450, 0, []
1629045764.3214, 125, 0, 4181.538, 4138.462, 4171.795, 4154.359, 4189.744, 450, 0, []
1629045764.3292, 126, 0, 4170.256, 4152.821, 4149.231, 4163.59, 4185.641, 450, 0, []
1629045764.337, 127, 0, 4178.974, 4161.026, 4158.974, 4170.256, 4188.718, 16204, 0, []
1629045764.3449, 128, 0, 4210.769, 4150.256, 4167.179, 4164.103, 4213.333, 450, 0, []
1629045764.3527, 0, 0, 4228.205, 4155.897, 4185.128, 4161.026, 4238.974, 450, 0, []
1629045764.3606, 1, 0, 4223.59, 4171.795, 4190.769, 4176.41, 4239.487, 450, 0, []
1629045764.3683, 2, 0, 4218.974, 4174.872, 4184.103, 4198.462, 4233.333, 16192, 0, []
1629045764.3762, 3, 0, 4212.821, 4180.513, 4190.256, 4203.59, 4234.359, 450, 0, []
1629045764.384, 4, 0, 4210.769, 4193.846, 4169.231, 4198.462, 4235.385, 16163, 0, []
1629045764.392, 5, 0, 4227.692, 4202.051, 4172.821, 4203.077, 4241.026, 450, 0, []
1629045764.3999, 6, 0, 4241.026, 4208.205, 4184.103, 4202.051, 4247.179, 311, 0, []
1629045764.4078, 7, 0, 4231.282, 4197.949, 4165.128, 4181.026, 4244.103, 450, 0, []
1629045764.4157, 8, 0, 4225.128, 4187.179, 4171.795, 4173.846, 4241.538, 450, 0, []
1629045764.4237, 9, 0, 4230.769, 4190.256, 4172.308, 4183.077, 4242.564, 16147, 0, []
1629045764.4316, 10, 0, 4214.359, 4174.359, 4167.179, 4169.744, 4228.718, 450, 0, []
1629045764.4396, 11, 0, 4197.436, 4154.872, 4163.077, 4149.231, 4211.795, 16209, 0, []
1629045764.4474, 12, 0, 4210.256, 4168.205, 4157.949, 4166.667, 4207.179, 450, 0, []
1629045764.4554, 13, 0, 4220.513, 4199.487, 4169.744, 4193.333, 4203.077, 450, 0, []
1629045764.4633, 14, 0, 4218.974, 4206.667, 4154.872, 4190.769, 4198.974, 450, 0, []
1629045764.4711, 15, 0, 4231.282, 4194.872, 4155.897, 4197.949, 4210.769, 16209, 0, []
1629045764.479, 16, 0, 4234.872, 4191.282, 4164.615, 4215.897, 4224.103, 0, 0, []
1629045764.4867, 17, 0, 4213.333, 4194.872, 4141.026, 4215.385, 4220, 0, 0, []
1629045764.4946, 18, 0, 4216.41, 4201.538, 4161.026, 4231.282, 4225.641, 0, 0, []
1629045764.5024, 19, 0, 4237.436, 4203.077, 4176.923, 4255.385, 4237.436, 0, 0, []
1629045764.5103, 20, 0, 4231.795, 4195.385, 4164.103, 4241.026, 4231.795, 0, 0, []
1629045764.5181, 21, 0, 4223.077, 4185.128, 4155.897, 4208.718, 4226.667, 0, 0, []
1629045764.5259, 22, 0, 4234.359, 4187.692, 4146.667, 4190.769, 4234.872, 0, 0, []
1629045764.5337, 23, 0, 4238.462, 4188.205, 4160.513, 4182.564, 4231.282, 0, 0, []
1629045764.5417, 24, 0, 4223.077, 4173.333, 4149.744, 4177.436, 4211.795, 0, 0, []
1629045764.5496, 25, 0, 4220, 4173.846, 4128.205, 4173.846, 4207.692, 0, 0, []
1629045764.5575, 26, 0, 4241.026, 4184.103, 4132.821, 4169.744, 4219.487, 0, 0, []
1629045764.5654, 27, 0, 4283.077, 4178.462, 4134.359, 4178.974, 4249.231, 0, 0, []
1629045764.5734, 28, 0, 4338.974, 4182.051, 4150.256, 4194.359, 4297.436, 0, 0, []
1629045764.5813, 29, 0, 4388.205, 4200.513, 4147.179, 4197.949, 4342.564, 0, 0, []
1629045764.5893, 30, 0, 4424.103, 4205.128, 4145.128, 4194.872, 4370.256, 0, 0, []
1629045764.5972, 31, 0, 4449.744, 4196.41, 4173.333, 4196.41, 4388.718, 0, 0, []
1629045764.6051, 32, 0, 4452.308, 4178.462, 4160.513, 4195.385, 4391.795, 0, 0, []
1629045764.613, 33, 0, 4426.154, 4166.667, 4145.128, 4187.179, 4374.359, 0, 0, []
1629045764.6208, 34, 0, 4406.154, 4185.128, 4148.205, 4188.205, 4363.59, 0, 0, []
1629045764.6287, 35, 0, 4403.59, 4205.641, 4153.333, 4198.462, 4365.641, 0, 0, []
1629045764.6365, 36, 0, 4393.333, 4202.564, 4165.128, 4199.487, 4356.923, 0, 0, []
1629045764.6443, 37, 0, 4371.795, 4191.282, 4149.744, 4194.359, 4334.359, 0, 0, []
1629045764.6521, 38, 0, 4348.718, 4181.538, 4153.333, 4192.308, 4310.769, 0, 0, []
1629045764.66, 39, 0, 4337.949, 4184.103, 4165.641, 4193.333, 4309.744, 0, 0, []
1629045764.6678, 40, 0, 4331.795, 4192.821, 4165.128, 4203.59, 4320, 0, 0, []
1629045764.6757, 41, 0, 4303.59, 4187.692, 4170.256, 4202.051, 4291.795, 0, 0, []
1629045764.6834, 42, 0, 4273.846, 4176.41, 4145.128, 4177.436, 4245.641, 0, 0, []
1629045764.6914, 43, 0, 4271.795, 4162.051, 4142.051, 4173.333, 4247.179, 0, 0, []
1629045764.6993, 44, 0, 4283.59, 4149.744, 4161.026, 4198.462, 4278.974, 0, 0, []
1629045764.7073, 45, 0, 4286.154, 4163.077, 4155.897, 4206.154, 4279.487, 0, 0, []
1629045764.7152, 46, 0, 4271.282, 4174.359, 4155.385, 4184.615, 4252.821, 0, 0, []
1629045764.7231, 47, 0, 4260.513, 4166.154, 4142.564, 4175.897, 4252.308, 0, 0, []
1629045764.731, 48, 0, 4262.564, 4172.308, 4146.154, 4192.308, 4268.205, 0, 0, []
1629045764.739, 49, 0, 4256.41, 4176.923, 4152.308, 4186.667, 4251.795, 0, 0, []
1629045764.7469, 50, 0, 4226.667, 4153.846, 4129.231, 4153.846, 4214.359, 0, 0, []
1629045764.7549, 51, 0, 4204.615, 4140.513, 4135.385, 4145.641, 4203.077, 0, 0, []
1629045764.7627, 52, 0, 4220.513, 4167.179, 4143.077, 4166.154, 4222.051, 0, 0, []
1629045764.7705, 53, 0, 4236.41, 4183.077, 4141.026, 4172.308, 4230.256, 0, 0, []
1629045764.7784, 54, 0, 4230.769, 4175.897, 4146.667, 4173.333, 4229.744, 0, 0, []
1629045764.7862, 55, 0, 4230.256, 4166.154, 4134.872, 4185.128, 4232.821, 0, 0, []
1629045764.7941, 56, 0, 4232.308, 4163.077, 4137.436, 4181.026, 4227.179, 0, 0, []
1629045764.8019, 57, 0, 4222.564, 4176.41, 4133.333, 4169.744, 4221.026, 0, 0, []
1629045764.8097, 58, 0, 4198.974, 4167.692, 4120, 4163.59, 4203.077, 0, 0, []
1629045764.8175, 59, 0, 4180.513, 4142.564, 4122.051, 4149.231, 4181.026, 0, 0, []
1629045764.8254, 60, 0, 4186.154, 4160.513, 4125.128, 4150.769, 4191.795, 0, 0, []
1629045764.8332, 61, 0, 4202.564, 4190.769, 4142.564, 4166.154, 4213.333, 0, 0, []
1629045764.8412, 62, 0, 4204.615, 4180.513, 4135.897, 4160.513, 4201.538, 0, 0, []
1629045764.849, 63, 0, 4195.897, 4158.974, 4130.256, 4152.821, 4189.231, 0, 0, []
1629045764.857, 64, 0, 4201.026, 4149.744, 4148.205, 4159.487, 4198.974, 450, 0, []
1629045764.8649, 65, 0, 4205.641, 4146.667, 4134.872, 4156.41, 4197.436, 450, 0, []
1629045764.8729, 66, 0, 4193.846, 4154.872, 4140, 4152.308, 4184.615, 16192, 0, []
1629045764.8808, 67, 0, 4182.564, 4145.641, 4145.128, 4146.154, 4177.436, 450, 0, []
1629045764.8887, 68, 0, 4186.154, 4120.513, 4133.333, 4127.179, 4171.795, 16163, 0, []
1629045764.8966, 69, 0, 4184.615, 4125.128, 4144.103, 4123.077, 4160, 450, 0, []
1629045764.9046, 70, 0, 4169.231, 4153.333, 4129.231, 4132.821, 4142.564, 310, 0, []
1629045764.9125, 71, 0, 4162.051, 4163.59, 4125.641, 4133.846, 4137.436, 450, 0, []
1629045764.9205, 72, 0, 4170.256, 4152.308, 4133.333, 4136.923, 4153.846, 450, 0, []
1629045764.9283, 73, 0, 4178.974, 4144.103, 4123.077, 4141.538, 4161.538, 16147, 0, []
1629045764.9361, 74, 0, 4167.179, 4139.487, 4125.641, 4125.128, 4142.564, 450, 0, []
1629045764.944, 75, 0, 4159.487, 4147.692, 4126.667, 4120, 4137.436, 16209, 0, []
1629045764.9518, 76, 0, 4189.744, 4177.949, 4150.769, 4153.333, 4165.128, 450, 0, []
1629045764.9597, 77, 0, 4207.179, 4182.051, 4162.051, 4161.026, 4175.385, 450, 0, []
1629045764.9674, 78, 0, 4187.179, 4153.846, 4142.051, 4137.949, 4156.923, 450, 0, []
1629045764.9753, 79, 0, 4178.974, 4164.103, 4147.692, 4145.641, 4151.282, 16209, 0, []
1629045764.9831, 80, 0, 4177.436, 4189.231, 4128.205, 4153.333, 4150.256, 450, 0, []
1629045764.991, 81, 0, 4153.333, 4160.513, 4103.077, 4127.692, 4124.615, 450, 0, []
1629045764.9988, 82, 0, 4147.179, 4142.564, 4105.128, 4120, 4114.359, 450, 0, []
1629045765.0066, 83, 0, 4169.744, 4171.795, 4110.256, 4138.974, 4134.872, 16209, 0, []
1629045765.0144, 84, 0, 4166.667, 4190.256, 4130.256, 4142.564, 4137.436, 450, 0, []
1629045765.0224, 85, 0, 4146.667, 4183.077, 4123.59, 4130.256, 4122.051, 450, 0, []
1629045765.0303, 86, 0, 4143.59, 4161.538, 4110.769, 4118.974, 4116.923, 450, 0, []
1629045765.0383, 87, 0, 4151.282, 4152.821, 4114.359, 4121.026, 4124.103, 16209, 0, []
1629045765.0461, 88, 0, 4154.359, 4167.179, 4110.256, 4139.487, 4132.821, 450, 0, []
1629045765.0541, 89, 0, 4155.385, 4184.103, 4129.231, 4151.795, 4137.949, 450, 0, []
1629045765.062, 90, 0, 4166.667, 4190.256, 4131.282, 4151.795, 4147.179, 450, 0, []
1629045765.07, 91, 0, 4184.615, 4190.256, 4128.718, 4153.846, 4164.103, 16209, 0, []
1629045765.0779, 92, 0, 4183.59, 4187.692, 4135.897, 4146.667, 4169.231, 450, 0, []
1629045765.0856, 93, 0, 4171.795, 4179.487, 4117.436, 4138.974, 4158.462, 450, 0, []
1629045765.0935, 94, 0, 4173.333, 4180, 4128.205, 4148.718, 4151.282, 450, 0, []
1629045765.1013, 95, 0, 4175.385, 4181.026, 4135.897, 4143.077, 4148.718, 16209, 0, []
1629045765.1092, 96, 0, 4161.538, 4181.538, 4133.333, 4124.103, 4141.026, 450, 0, []
1629045765.117, 97, 0, 4148.718, 4192.821, 4155.897, 4126.667, 4135.897, 450, 0, []
1629045765.1248, 98, 0, 4160.513, 4195.385, 4153.846, 4142.564, 4143.59, 450, 0, []
1629045765.1326, 99, 0, 4167.692, 4182.051, 4144.103, 4140, 4139.487, 16209, 0, []
1629045765.1405, 100, 0, 4149.231, 4180.513, 4137.436, 4127.692, 4120, 450, 0, []
1629045765.1483, 101, 0, 4143.077, 4195.385, 4141.538, 4135.385, 4121.538, 450, 0, []
1629045765.1563, 102, 0, 4152.821, 4201.026, 4151.795, 4143.59, 4129.231, 450, 0, []
1629045765.1641, 103, 0, 4150.256, 4205.128, 4127.692, 4138.462, 4120.513, 16209, 0, []
1629045765.1721, 104, 0, 4144.103, 4198.462, 4134.872, 4140.513, 4119.487, 450, 0, []
1629045765.18, 105, 0, 4150.256, 4184.103, 4153.333, 4152.821, 4132.308, 450, 0, []
1629045765.188, 106, 0, 4149.231, 4195.385, 4141.026, 4151.795, 4130.769, 450, 0, []
1629045765.1959, 107, 0, 4151.282, 4211.282, 4151.282, 4144.615, 4135.897, 16209, 0, []
1629045765.2038, 108, 0, 4176.923, 4216.923, 4163.59, 4155.385, 4165.128, 450, 0, []
1629045765.2117, 109, 0, 4183.077, 4214.872, 4168.718, 4167.692, 4174.872, 450, 0, []
1629045765.2197, 110, 0, 4158.974, 4203.077, 4156.923, 4161.538, 4154.359, 450, 0, []
1629045765.2276, 111, 0, 4166.154, 4212.308, 4148.205, 4169.231, 4154.359, 16209, 0, []
1629045765.2356, 112, 0, 4196.923, 4229.231, 4173.333, 4195.897, 4177.436, 450, 0, []
1629045765.2434, 113, 0, 4197.436, 4225.641, 4163.077, 4200, 4184.103, 450, 0, []
1629045765.2512, 114, 0, 4187.179, 4232.308, 4155.897, 4188.205, 4179.487, 450, 0, []
1629045765.2591, 115, 0, 4189.231, 4242.564, 4169.744, 4188.718, 4178.974, 16209, 0, []
1629045765.2669, 116, 0, 4184.103, 4217.949, 4154.872, 4190.769, 4173.846, 450, 0, []
1629045765.2748, 117, 0, 4175.897, 4209.744, 4157.436, 4187.692, 4166.154, 450, 0, []
1629045765.2825, 118, 0, 4174.359, 4226.154, 4152.821, 4188.718, 4158.974, 450, 0, []
1629045765.2904, 119, 0, 4166.667, 4209.744, 4144.103, 4190.256, 4152.308, 16209, 0, []
1629045765.2982, 120, 0, 4160.513, 4201.026, 4154.872, 4185.641, 4156.41, 450, 0, []
1629045765.3062, 121, 0, 4157.436, 4217.949, 4150.256, 4178.974, 4155.385, 450, 0, []
1629045765.3141, 122, 0, 4144.103, 4204.615, 4149.744, 4167.179, 4137.949, 450, 0, []
1629045765.3219, 123, 0, 4145.641, 4187.692, 4143.077, 4161.538, 4140, 16209, 0, []
1629045765.3297, 124, 0, 4167.179, 4202.564, 4153.333, 4181.538, 4156.41, 450, 0, []
1629045765.3377, 125, 0, 4166.667, 4216.41, 4166.154, 4192.821, 4151.795, 450, 0, []
1629045765.3456, 126, 0, 4144.615, 4200, 4142.051, 4168.718, 4135.385, 450, 0, []
1629045765.3536, 127, 0, 4149.231, 4184.103, 4158.974, 4162.051, 4137.436, 16209, 0, []
1629045765.3614, 128, 0, 4175.897, 4200, 4173.333, 4181.538, 4161.538, 450, 0, []
1629045765.3694, 0, 0, 4175.897, 4222.564, 4155.897, 4173.846, 4170.769, 450, 0, []
1629045765.3773, 1, 0, 4161.538, 4218.462, 4159.487, 4156.923, 4156.923, 450, 0, []
1629045765.3853, 2, 0, 4166.154, 4210.769, 4157.949, 4176.923, 4155.385, 16192, 0, []
1629045765.3932, 3, 0, 4165.641, 4216.923, 4159.487, 4196.41, 4158.462, 450, 0, []
1629045765.4009, 4, 0, 4153.333, 4197.436, 4147.692, 4184.103, 4144.103, 16163, 0, []
1629045765.4088, 5, 0, 4155.897, 4180, 4141.538, 4184.615, 4143.077, 450, 0, []
1629045765.4166, 6, 0, 4164.615, 4207.692, 4153.333, 4191.282, 4158.462, 273, 0, []
1629045765.4245, 7, 0, 4158.974, 4221.538, 4132.308, 4166.667, 4150.256, 450, 0, []
1629045765.4323, 8, 0, 4151.795, 4198.462, 4130.769, 4147.179, 4137.436, 450, 0, []
1629045765.4401, 9, 0, 4155.897, 4191.282, 4137.436, 4150.769, 4139.487, 16147, 0, []
1629045765.4479, 10, 0, 4157.436, 4210.256, 4123.077, 4139.487, 4128.718, 450, 0, []
1629045765.4558, 11, 0, 4161.538, 4213.846, 4135.385, 4129.744, 4130.256, 16209, 0, []
1629045765.4636, 12, 0, 4176.41, 4206.154, 4138.462, 4148.718, 4156.41, 450, 0, []
1629045765.4716, 13, 0, 4168.205, 4201.026, 4131.282, 4158.974, 4148.205, 450, 0, []
1629045765.4794, 14, 0, 4149.231, 4196.923, 4128.205, 4156.41, 4127.179, 450, 0, []
1629045765.4874, 15, 0, 4157.949, 4198.462, 4135.385, 4168.718, 4143.077, 16209, 0, []
1629045765.4953, 16, 0, 4166.667, 4201.026, 4155.385, 4171.795, 4151.282, 0, 0, []
1629045765.5033, 17, 0, 4158.974, 4204.615, 4138.462, 4158.974, 4140.513, 0, 0, []
1629045765.5112, 18, 0, 4161.026, 4203.59, 4136.41, 4156.41, 4143.59, 0, 0, []
1629045765.5191, 19, 0, 4163.59, 4201.026, 4148.718, 4154.872, 4140, 0, 0, []
1629045765.527, 20, 0, 4153.846, 4207.179, 4131.282, 4148.718, 4125.641, 0, 0, []
1629045765.535, 21, 0, 4154.872, 4208.205, 4138.974, 4157.436, 4128.205, 0, 0, []
1629045765.5429, 22, 0, 4175.385, 4201.538, 4149.231, 4169.744, 4145.641, 0, 0, []
1629045765.5507, 23, 0, 4184.615, 4201.538, 4157.436, 4162.564, 4150.769, 0, 0, []
1629045765.5586, 24, 0, 4183.59, 4215.385, 4162.051, 4152.821, 4152.821, 0, 0, []
1629045765.5664, 25, 0, 4196.41, 4221.538, 4152.308, 4163.077, 4170.769, 0, 0, []
1629045765.5744, 26, 0, 4211.282, 4213.846, 4165.128, 4183.59, 4181.026, 0, 0, []
1629045765.5822, 27, 0, 4209.744, 4203.077, 4151.795, 4188.205, 4174.359, 0, 0, []
1629045765.5901, 28, 0, 4203.077, 4195.385, 4140, 4181.538, 4173.333, 0, 0, []
1629045765.5979, 29, 0, 4198.974, 4212.821, 4157.949, 4180, 4175.385, 0, 0, []
1629045765.6057, 30, 0, 4188.205, 4234.359, 4147.179, 4171.795, 4158.462, 0, 0, []
1629045765.6135, 31, 0, 4176.923, 4227.692, 4145.641, 4143.077, 4145.641, 0, 0, []
1629045765.6215, 32, 0, 4184.103, 4227.179, 4146.154, 4134.872, 4155.385, 0, 0, []
1629045765.6294, 33, 0, 4197.949, 4241.026, 4143.077, 4164.615, 4164.103, 0, 0, []
1629045765.6374, 34, 0, 4201.026, 4224.615, 4149.744, 4175.385, 4162.051, 0, 0, []
1629045765.6452, 35, 0, 4201.026, 4213.846, 4142.564, 4169.231, 4166.667, 0, 0, []
1629045765.6532, 36, 0, 4205.641, 4241.538, 4155.897, 4178.974, 4174.872, 0, 0, []
1629045765.6611, 37, 0, 4202.564, 4242.564, 4149.744, 4171.795, 4166.667, 0, 0, []
1629045765.6691, 38, 0, 4187.179, 4209.744, 4130.256, 4148.205, 4150.769, 0, 0, []
1629045765.677, 39, 0, 4175.897, 4211.795, 4149.231, 4148.718, 4147.692, 0, 0, []
1629045765.6849, 40, 0, 4175.897, 4227.179, 4155.385, 4155.897, 4149.744, 0, 0, []
1629045765.6928, 41, 0, 4169.744, 4209.231, 4160.513, 4146.154, 4139.487, 0, 0, []
1629045765.7006, 42, 0, 4156.923, 4199.487, 4153.333, 4128.205, 4123.59, 0, 0, []
1629045765.7085, 43, 0, 4152.308, 4212.308, 4131.282, 4113.846, 4113.333, 0, 0, []
1629045765.7163, 44, 0, 4159.487, 4215.385, 4142.564, 4126.154, 4123.59, 0, 0, []
1629045765.7241, 45, 0, 4178.462, 4225.641, 4150.769, 4167.179, 4152.821, 0, 0, []
1629045765.7319, 46, 0, 4190.769, 4244.615, 4154.872, 4192.308, 4162.564, 0, 0, []
1629045765.7398, 47, 0, 4178.462, 4239.487, 4147.692, 4185.641, 4146.667, 0, 0, []
1629045765.7476, 48, 0, 4170.256, 4217.949, 4141.026, 4178.462, 4139.487, 0, 0, []
1629045765.7555, 49, 0, 4173.846, 4211.282, 4160, 4175.385, 4136.923, 0, 0, []
1629045765.7632, 50, 0, 4174.872, 4214.872, 4153.333, 4167.179, 4135.385, 0, 0, []
1629045765.7711, 51, 0, 4185.128, 4221.026, 4162.564, 4171.282, 4154.359, 0, 0, []
1629045765.7789, 52, 0, 4193.846, 4243.077, 4170.769, 4170.256, 4165.128, 0, 0, []
1629045765.7869, 53, 0, 4182.564, 4248.205, 4143.077, 4143.59, 4151.282, 0, 0, []
1629045765.7948, 54, 0, 4174.872, 4228.205, 4143.077, 4120.513, 4144.615, 0, 0, []
1629045765.8027, 55, 0, 4186.667, 4226.667, 4136.923, 4124.615, 4152.821, 0, 0, []
1629045765.8106, 56, 0, 4190.769, 4229.744, 4133.846, 4143.077, 4160, 0, 0, []
1629045765.8186, 57, 0, 4183.59, 4216.923, 4149.231, 4152.821, 4166.154, 0, 0, []
1629045765.8265, 58, 0, 4191.795, 4221.538, 4145.128, 4156.41, 4175.385, 0, 0, []
1629045765.8345, 59, 0, 4197.949, 4231.282, 4149.231, 4152.308, 4169.231, 0, 0, []
1629045765.8423, 60, 0, 4190.769, 4214.359, 4140.513, 4141.538, 4159.487, 0, 0, []
1629045765.8503, 61, 0, 4186.667, 4214.359, 4138.462, 4143.59, 4161.026, 0, 0, []
1629045765.8582, 62, 0, 4195.385, 4236.41, 4156.41, 4154.872, 4168.205, 0, 0, []
1629045765.866, 63, 0, 4207.692, 4232.821, 4151.282, 4158.462, 4180, 0, 0, []
1629045765.8739, 64, 0, 4209.744, 4232.821, 4154.872, 4155.385, 4185.128, 450, 0, []
1629045765.8816, 65, 0, 4204.615, 4242.051, 4149.231, 4157.436, 4178.974, 450, 0, []
1629045765.8895, 66, 0, 4206.667, 4242.564, 4156.41, 4168.205, 4186.154, 16192, 0, []
1629045765.8973, 67, 0, 4220, 4247.179, 4180.513, 4182.564, 4204.103, 450, 0, []
1629045765.9052, 68, 0, 4215.897, 4234.359, 4151.282, 4173.333, 4192.308, 16163, 0, []
1629045765.913, 69, 0, 4196.923, 4216.923, 4138.462, 4147.692, 4166.667, 450, 0, []
1629045765.9208, 70, 0, 4198.462, 4232.821, 4152.821, 4147.692, 4171.795, 306, 0, []
1629045765.9286, 71, 0, 4214.359, 4244.103, 4154.872, 4160, 4178.974, 450, 0, []
1629045765.9366, 72, 0, 4212.821, 4224.615, 4157.436, 4156.923, 4168.718, 450, 0, []
1629045765.9445, 73, 0, 4205.128, 4213.333, 4143.59, 4153.333, 4171.795, 16147, 0, []
1629045765.9525, 74, 0, 4199.487, 4216.41, 4148.205, 4157.949, 4174.872, 450, 0, []
1629045765.9603, 75, 0, 4192.308, 4219.487, 4150.769, 4153.846, 4158.462, 16209, 0, []
1629045765.9683, 76, 0, 4190.256, 4216.923, 4148.718, 4152.308, 4156.41, 450, 0, []
1629045765.9762, 77, 0, 4196.923, 4191.795, 4167.692, 4160, 4173.846, 450, 0, []
1629045765.9842, 78, 0, 4208.718, 4185.641, 4165.128, 4152.308, 4182.564, 450, 0, []
1629045765.9921, 79, 0, 4200, 4214.359, 4169.231, 4127.692, 4170.256, 16209, 0, []
1629045766, 80, 0, 4177.436, 4212.821, 4169.744, 4116.923, 4149.744, 450, 0, []
1629045766.0079, 81, 0, 4173.846, 4193.333, 4152.308, 4131.795, 4142.564, 450, 0, []
1629045766.0157, 82, 0, 4189.231, 4221.026, 4162.564, 4151.795, 4156.923, 450, 0, []
1629045766.0236, 83, 0, 4188.718, 4243.59, 4150.769, 4151.282, 4165.128, 16209, 0, []
1629045766.0314, 84, 0, 4163.59, 4216.923, 4134.359, 4136.923, 4142.051, 450, 0, []
1629045766.0392, 85, 0, 4167.179, 4206.667, 4149.231, 4149.231, 4148.205, 450, 0, []
1629045766.047, 86, 0, 4203.077, 4223.59, 4161.538, 4177.436, 4189.744, 450, 0, []
1629045766.0549, 87, 0, 4210.256, 4214.359, 4167.179, 4168.718, 4183.59, 16209, 0, []
1629045766.0627, 88, 0, 4184.103, 4203.077, 4142.051, 4128.718, 4147.179, 450, 0, []
1629045766.0706, 89, 0, 4181.026, 4224.615, 4142.564, 4114.872, 4154.872, 450, 0, []
1629045766.0783, 90, 0, 4195.385, 4236.41, 4162.051, 4121.026, 4174.359, 450, 0, []
1629045766.0863, 91, 0, 4192.308, 4224.615, 4147.692, 4135.385, 4170.256, 16209, 0, []
1629045766.0942, 92, 0, 4180, 4219.487, 4153.846, 4163.077, 4169.744, 450, 0, []
1629045766.1022, 93, 0, 4179.487, 4218.974, 4164.103, 4180, 4173.846, 450, 0, []
1629045766.1101, 94, 0, 4206.154, 4222.564, 4187.179, 4200, 4197.949, 450, 0, []
1629045766.118, 95, 0, 4233.846, 4232.821, 4211.282, 4223.077, 4228.718, 16209, 0, []
1629045766.1259, 96, 0, 4222.564, 4232.308, 4181.026, 4200.513, 4212.308, 450, 0, []
1629045766.1339, 97, 0, 4205.128, 4233.333, 4167.179, 4171.282, 4194.359, 450, 0, []
1629045766.1418, 98, 0, 4228.205, 4257.436, 4171.795, 4192.821, 4220.513, 450, 0, []
1629045766.1498, 99, 0, 4234.872, 4249.744, 4162.564, 4202.564, 4215.385, 16209, 0, []
1629045766.1576, 100, 0, 4210.256, 4210.256, 4158.974, 4176.41, 4182.051, 450, 0, []
1629045766.1656, 101, 0, 4232.821, 4219.487, 4163.077, 4190.256, 4213.846, 450, 0, []
1629045766.1735, 102, 0, 4274.359, 4235.897, 4174.872, 4212.308, 4251.795, 450, 0, []
1629045766.1813, 103, 0, 4285.128, 4221.538, 4160.513, 4189.744, 4247.692, 16209, 0, []
1629045766.1892, 104, 0, 4312.821, 4238.974, 4163.077, 4178.974, 4276.923, 450, 0, []
1629045766.1969, 105, 0, 4355.897, 4254.359, 4183.077, 4183.077, 4324.615, 450, 0, []
1629045766.2048, 106, 0, 4375.897, 4224.103, 4156.923, 4174.872, 4339.487, 450, 0, []
1629045766.2126, 107, 0, 4402.051, 4228.205, 4168.718, 4188.205, 4358.974, 16209, 0, []
1629045766.2205, 108, 0, 4439.487, 4268.718, 4196.923, 4218.462, 4392.308, 450, 0, []
1629045766.2283, 109, 0, 4452.821, 4258.462, 4187.179, 4231.795, 4401.026, 450, 0, []
1629045766.2361, 110, 0, 4425.128, 4216.41, 4178.462, 4217.436, 4376.41, 450, 0, []
1629045766.2439, 111, 0, 4391.795, 4218.462, 4162.564, 4196.41, 4359.487, 16209, 0, []
1629045766.2519, 112, 0, 4378.974, 4226.667, 4173.333, 4189.744, 4356.41, 450, 0, []
1629045766.2598, 113, 0, 4358.462, 4195.385, 4175.385, 4177.949, 4333.333, 450, 0, []
1629045766.2678, 114, 0, 4337.949, 4178.974, 4158.462, 4170.256, 4306.667, 450, 0, []
1629045766.2756, 115, 0, 4345.641, 4194.872, 4181.026, 4192.308, 4308.718, 16209, 0, []
1629045766.2836, 116, 0, 4349.231, 4197.436, 4178.974, 4205.641, 4311.795, 450, 0, []
1629045766.2915, 117, 0, 4344.615, 4191.282, 4173.846, 4202.564, 4317.436, 450, 0, []
1629045766.2995, 118, 0, 4373.846, 4202.051, 4200, 4221.538, 4354.359, 450, 0, []
1629045766.3074, 119, 0, 4417.436, 4206.667, 4194.359, 4234.359, 4385.128, 16209, 0, []
1629045766.3154, 120, 0, 4446.667, 4212.308, 4187.179, 4222.051, 4396.41, 450, 0, []
1629045766.3232, 121, 0, 4467.179, 4224.103, 4175.897, 4208.205, 4417.436, 450, 0, []
1629045766.331, 122, 0, 4467.692, 4206.154, 4173.333, 4190.769, 4424.103, 450, 0, []
1629045766.3389, 123, 0, 4481.538, 4194.872, 4200, 4196.41, 4433.333, 16209, 0, []
1629045766.3467, 124, 0, 4512.821, 4215.897, 4203.59, 4223.59, 4464.615, 450, 0, []
1629045766.3546, 125, 0, 4502.564, 4215.897, 4195.897, 4218.974, 4461.026, 450, 0, []
1629045766.3623, 126, 0, 4482.051, 4205.641, 4182.564, 4206.154, 4441.538, 450, 0, []
1629045766.3702, 127, 0, 4489.744, 4227.692, 4189.231, 4219.487, 4448.205, 16209, 0, []
1629045766.378, 128, 0, 4483.59, 4244.615, 4197.949, 4221.026, 4439.487, 450, 0, []
1629045766.3859, 0, 0, 4445.128, 4216.923, 4163.59, 4192.308, 4394.872, 450, 0, []
1629045766.3937, 1, 0, 4423.59, 4200.513, 4168.205, 4185.641, 4370.256, 450, 0, []
1629045766.4016, 2, 0, 4424.103, 4231.282, 4191.795, 4209.231, 4377.949, 16192, 0, []
1629045766.4095, 3, 0, 4403.077, 4251.795, 4187.692, 4209.231, 4366.667, 450, 0, []
1629045766.4175, 4, 0, 4374.359, 4230.769, 4170.769, 4182.051, 4340, 16159, 0, []
1629045766.4254, 5, 0, 4365.128, 4202.051, 4144.103, 4175.385, 4325.128, 450, 0, []
1629045766.4334, 6, 0, 4348.718, 4198.462, 4160.513, 4186.154, 4304.615, 310, 0, []
1629045766.4412, 7, 0, 4316.923, 4207.692, 4170.256, 4180, 4272.308, 450, 0, []
1629045766.4492, 8, 0, 4302.051, 4220.513, 4153.846, 4175.897, 4263.077, 450, 0, []
1629045766.4571, 9, 0, 4300.513, 4234.359, 4165.641, 4186.667, 4271.282, 16147, 0, []
1629045766.4651, 10, 0, 4284.615, 4226.667, 4167.179, 4180.513, 4252.308, 450, 0, []
1629045766.473, 11, 0, 4260, 4205.128, 4170.256, 4163.59, 4213.333, 16205, 0, []
1629045766.4807, 12, 0, 4242.564, 4196.41, 4165.641, 4155.385, 4194.359, 450, 0, []
1629045766.4886, 13, 0, 4246.154, 4207.692, 4157.949, 4168.718, 4204.615, 450, 0, []
1629045766.4964, 14, 0, 4270.256, 4236.923, 4187.179, 4201.026, 4225.128, 450, 0, []
1629045766.5043, 15, 0, 4276.41, 4251.282, 4190.769, 4212.821, 4227.179, 16205, 0, []
1629045766.5121, 16, 0, 4243.077, 4217.949, 4186.154, 4193.846, 4205.641, 0, 0, []
1629045766.5199, 17, 0, 4218.462, 4191.795, 4184.103, 4181.538, 4189.231, 0, 0, []
1629045766.5277, 18, 0, 4217.949, 4207.179, 4163.077, 4177.436, 4177.949, 0, 0, []
1629045766.5356, 19, 0, 4213.846, 4217.949, 4178.462, 4171.282, 4165.641, 0, 0, []
1629045766.5434, 20, 0, 4215.897, 4216.41, 4190.769, 4180, 4174.872, 0, 0, []
1629045766.5513, 21, 0, 4210.769, 4204.103, 4183.077, 4179.487, 4172.821, 0, 0, []
1629045766.559, 22, 0, 4168.205, 4163.077, 4160.513, 4139.487, 4124.103, 0, 0, []
1629045766.5669, 23, 0, 4152.308, 4158.974, 4144.103, 4127.179, 4110.256, 0, 0, []
1629045766.5748, 24, 0, 4190.769, 4203.077, 4181.026, 4168.718, 4151.282, 0, 0, []
1629045766.5827, 25, 0, 4193.333, 4201.026, 4178.462, 4178.462, 4146.154, 0, 0, []
1629045766.5905, 26, 0, 4149.231, 4163.59, 4151.282, 4140.513, 4101.538, 0, 0, []
1629045766.5984, 27, 0, 4145.641, 4170.256, 4169.231, 4140, 4101.026, 0, 0, []
1629045766.6063, 28, 0, 4161.026, 4175.385, 4163.59, 4159.487, 4107.692, 0, 0, []
1629045766.6143, 29, 0, 4134.872, 4144.615, 4147.179, 4133.333, 4071.282, 0, 0, []
1629045766.6222, 30, 0, 4126.667, 4148.718, 4152.821, 4117.949, 4062.564, 0, 0, []
1629045766.6302, 31, 0, 4146.667, 4171.282, 4176.41, 4133.333, 4087.179, 0, 0, []
1629045766.638, 32, 0, 4138.974, 4161.538, 4182.051, 4127.692, 4077.436, 0, 0, []
1629045766.646, 33, 0, 4120.513, 4160.513, 4149.744, 4107.179, 4051.282, 0, 0, []
1629045766.6539, 34, 0, 4116.923, 4162.564, 4162.051, 4108.718, 4049.231, 0, 0, []
1629045766.6617, 35, 0, 4127.692, 4148.718, 4176.41, 4119.487, 4063.077, 0, 0, []
1629045766.6696, 36, 0, 4143.59, 4159.487, 4166.154, 4110.769, 4067.179, 0, 0, []
1629045766.6773, 37, 0, 4142.051, 4175.385, 4181.538, 4099.487, 4058.462, 0, 0, []
1629045766.6852, 38, 0, 4117.949, 4150.256, 4169.231, 4097.436, 4037.949, 0, 0, []
1629045766.693, 39, 0, 4118.974, 4138.462, 4172.821, 4107.179, 4034.872, 0, 0, []
1629045766.7009, 40, 0, 4155.897, 4156.41, 4192.821, 4123.077, 4068.205, 0, 0, []
1629045766.7087, 41, 0, 4176.923, 4156.923, 4187.692, 4135.385, 4087.692, 0, 0, []
1629045766.7165, 42, 0, 4165.641, 4150.256, 4186.154, 4137.949, 4070.769, 0, 0, []
1629045766.7243, 43, 0, 4144.615, 4145.128, 4156.41, 4120, 4051.795, 0, 0, []
1629045766.7323, 44, 0, 4141.538, 4144.103, 4149.231, 4108.205, 4045.641, 0, 0, []
1629045766.7402, 45, 0, 4154.359, 4153.846, 4161.538, 4114.359, 4048.205, 0, 0, []
1629045766.7482, 46, 0, 4150.256, 4148.718, 4150.769, 4113.846, 4044.615, 0, 0, []
1629045766.756, 47, 0, 4130.769, 4125.641, 4156.41, 4097.436, 4030.769, 0, 0, []
1629045766.764, 48, 0, 4143.077, 4136.41, 4156.41, 4100, 4044.615, 0, 0, []
1629045766.7719, 49, 0, 4183.59, 4162.564, 4177.949, 4132.308, 4087.692, 0, 0, []
1629045766.7799, 50, 0, 4183.59, 4161.026, 4177.436, 4131.795, 4084.615, 0, 0, []
1629045766.7878, 51, 0, 4161.538, 4156.41, 4133.333, 4096.923, 4055.385, 0, 0, []
1629045766.7957, 52, 0, 4173.333, 4165.128, 4153.846, 4096.923, 4071.795, 0, 0, []
1629045766.8036, 53, 0, 4205.641, 4182.564, 4173.846, 4123.077, 4104.615, 0, 0, []
1629045766.8114, 54, 0, 4225.641, 4190.256, 4163.077, 4121.538, 4111.282, 0, 0, []
1629045766.8193, 55, 0, 4238.974, 4180, 4159.487, 4104.615, 4119.487, 0, 0, []
1629045766.8271, 56, 0, 4264.615, 4180, 4148.205, 4107.692, 4142.051, 0, 0, []
1629045766.8349, 57, 0, 4290.256, 4195.897, 4155.897, 4109.231, 4153.333, 0, 0, []
1629045766.8427, 58, 0, 4301.026, 4196.41, 4133.333, 4090.769, 4156.41, 0, 0, []
1629045766.8506, 59, 0, 4303.077, 4165.641, 4117.436, 4082.051, 4165.128, 0, 0, []
1629045766.8584, 60, 0, 4325.128, 4158.462, 4184.615, 4101.026, 4183.59, 0, 0, []
1629045766.8664, 61, 0, 4360.513, 4190.256, 4164.615, 4122.051, 4206.667, 0, 0, []
1629045766.8742, 62, 0, 4369.744, 4192.821, 4145.641, 4134.359, 4219.487, 0, 0, []
1629045766.8822, 63, 0, 4360, 4170.256, 4263.077, 4140.513, 4217.436, 0, 0, []
1629045766.8901, 64, 0, 4344.103, 4184.103, 4146.154, 4115.385, 4207.692, 450, 0, []
1629045766.8981, 65, 0, 4328.718, 4199.487, 4070.769, 4098.462, 4192.821, 450, 0, []
1629045766.906, 66, 0, 4336.923, 4193.846, 4214.872, 4109.231, 4190.769, 16192, 0, []
1629045766.9139, 67, 0, 4369.744, 4218.974, 4167.692, 4116.923, 4217.436, 450, 0, []
1629045766.9218, 68, 0, 4378.974, 4234.872, 4141.538, 4118.974, 4232.308, 16161, 0, []
1629045766.9298, 69, 0, 4363.077, 4215.385, 4166.667, 4107.179, 4216.923, 450, 0, []
1629045766.9377, 70, 0, 4382.051, 4230.256, 4161.538, 4115.897, 4223.59, 312, 0, []
1629045766.9456, 71, 0, 4411.282, 4258.462, 4189.231, 4144.103, 4251.795, 450, 0, []
1629045766.9534, 72, 0, 4397.949, 4248.205, 4178.974, 4139.487, 4250.769, 450, 0, []
1629045766.9612, 73, 0, 4376.41, 4239.487, 4186.154, 4125.128, 4234.872, 16147, 0, []
1629045766.9691, 74, 0, 4375.897, 4258.462, 4184.103, 4135.385, 4239.487, 450, 0, []
1629045766.9769, 75, 0, 4370.769, 4264.103, 4194.872, 4146.667, 4241.538, 16205, 0, []
1629045766.9848, 76, 0, 4351.795, 4261.538, 4169.744, 4138.974, 4224.103, 450, 0, []
1629045766.9925, 77, 0, 4326.667, 4271.795, 4158.974, 4128.718, 4198.462, 450, 0, []
1629045767.0004, 78, 0, 4298.974, 4269.231, 4175.385, 4122.564, 4176.41, 450, 0, []
1629045767.0082, 79, 0, 4282.051, 4264.103, 4151.282, 4124.615, 4166.667, 16205, 0, []
1629045767.0161, 80, 0, 4270.769, 4267.179, 4176.41, 4138.974, 4158.462, 450, 0, []
1629045767.0239, 81, 0, 4267.179, 4268.718, 4172.308, 4151.795, 4153.846, 450, 0, []
1629045767.0318, 82, 0, 4284.615, 4291.282, 4191.795, 4176.41, 4174.359, 450, 0, []
1629045767.0397, 83, 0, 4291.282, 4314.872, 4216.41, 4198.974, 4190.256, 16205, 0, []
1629045767.0477, 84, 0, 4254.359, 4300, 4166.154, 4179.487, 4154.872, 450, 0, []
1629045767.0556, 85, 0, 4219.487, 4286.667, 4179.487, 4160.513, 4121.538, 450, 0, []
1629045767.0636, 86, 0, 4227.179, 4302.051, 4172.308, 4176.41, 4145.128, 450, 0, []
1629045767.0715, 87, 0, 4239.487, 4305.128, 4178.974, 4191.795, 4161.538, 16205, 0, []
1629045767.0794, 88, 0, 4232.308, 4309.744, 4210.769, 4185.641, 4140.513, 450, 0, []
1629045767.0873, 89, 0, 4222.564, 4325.641, 4158.974, 4175.897, 4134.872, 450, 0, []
1629045767.0953, 90, 0, 4205.128, 4307.179, 4180.513, 4182.051, 4135.897, 450, 0, []
1629045767.1032, 91, 0, 4187.179, 4295.385, 4195.385, 4184.615, 4114.872, 16205, 0, []
1629045767.111, 92, 0, 4180.513, 4316.41, 4163.59, 4179.487, 4104.103, 450, 0, []
1629045767.1188, 93, 0, 4176.41, 4322.564, 4201.538, 4183.077, 4109.231, 450, 0, []
1629045767.1266, 94, 0, 4170.256, 4315.385, 4183.077, 4188.718, 4101.026, 450, 0, []
1629045767.1345, 95, 0, 4162.051, 4304.103, 4169.231, 4184.103, 4084.103, 16205, 0, []
1629045767.1423, 96, 0, 4156.41, 4297.436, 4186.667, 4167.692, 4081.538, 450, 0, []
1629045767.1502, 97, 0, 4172.308, 4312.308, 4180, 4176.923, 4100.513, 450, 0, []
1629045767.1579, 98, 0, 4187.179, 4317.436, 4200, 4200, 4108.718, 450, 0, []
1629045767.1658, 99, 0, 4166.154, 4291.282, 4160.513, 4183.59, 4090.256, 16205, 0, []
1629045767.1736, 100, 0, 4147.179, 4274.359, 4151.282, 4167.179, 4081.538, 450, 0, []
1629045767.1816, 101, 0, 4146.154, 4286.154, 4168.718, 4171.282, 4082.564, 450, 0, []
1629045767.1895, 102, 0, 4120, 4287.179, 4135.897, 4152.308, 4057.949, 450, 0, []
1629045767.1974, 103, 0, 4115.897, 4279.487, 4163.077, 4144.103, 4048.205, 16205, 0, []
1629045767.2053, 104, 0, 4153.333, 4285.128, 4166.667, 4164.615, 4075.897, 450, 0, []
1629045767.2133, 105, 0, 4145.641, 4282.564, 4168.205, 4164.615, 4075.385, 450, 0, []
1629045767.2212, 106, 0, 4125.641, 4281.538, 4180.513, 4153.333, 4063.59, 450, 0, []
1629045767.2292, 107, 0, 4144.615, 4294.359, 4166.667, 4163.59, 4070.256, 16205, 0, []
1629045767.237, 108, 0, 4135.897, 4295.385, 4193.333, 4166.154, 4052.821, 450, 0, []
1629045767.245, 109, 0, 4117.436, 4292.821, 4174.872, 4162.564, 4044.615, 450, 0, []
1629045767.2529, 110, 0, 4138.974, 4292.821, 4182.051, 4175.385, 4068.205, 450, 0, []
1629045767.2608, 111, 0, 4142.564, 4282.564, 4196.923, 4175.385, 4069.231, 16205, 0, []
1629045767.2687, 112, 0, 4105.641, 4278.974, 4133.846, 4144.615, 4032.308, 450, 0, []
1629045767.2764, 113, 0, 4100.513, 4285.641, 4152.821, 4133.846, 4019.487, 450, 0, []
1629045767.2843, 114, 0, 4132.821, 4285.641, 4188.718, 4172.308, 4053.333, 450, 0, []
1629045767.2921, 115, 0, 4150.256, 4295.385, 4199.487, 4208.718, 4080, 16205, 0, []
1629045767.3, 116, 0, 4141.538, 4320.513, 4187.692, 4187.179, 4075.897, 450, 0, []
1629045767.3078, 117, 0, 4123.59, 4314.872, 4149.744, 4149.231, 4061.026, 450, 0, []
1629045767.3156, 118, 0, 4105.641, 4275.897, 4174.359, 4144.615, 4037.949, 450, 0, []
1629045767.3234, 119, 0, 4095.897, 4263.59, 4155.385, 4148.718, 4019.487, 16205, 0, []
1629045767.3313, 120, 0, 4107.692, 4290.769, 4171.795, 4167.179, 4033.333, 450, 0, []
1629045767.3391, 121, 0, 4116.41, 4303.077, 4208.205, 4188.205, 4049.744, 450, 0, []
1629045767.3471, 122, 0, 4101.026, 4288.718, 4173.333, 4175.385, 4038.462, 450, 0, []
1629045767.3549, 123, 0, 4102.051, 4287.179, 4194.872, 4172.308, 4039.487, 16205, 0, []
1629045767.3629, 124, 0, 4115.385, 4289.744, 4150.256, 4174.359, 4045.641, 450, 0, []
1629045767.3708, 125, 0, 4105.128, 4272.308, 4134.359, 4149.744, 4028.718, 450, 0, []
1629045767.3788, 126, 0, 4102.564, 4272.821, 4202.051, 4136.923, 4028.718, 450, 0, []
1629045767.3867, 127, 0, 4097.436, 4279.487, 4161.538, 4138.462, 4034.359, 16205, 0, []
1629045767.3946, 128, 0, 4071.282, 4255.897, 4169.231, 4139.487, 4011.282, 450, 0, []
1629045767.4025, 0, 0, 4089.231, 4260, 4206.667, 4163.59, 4025.641, 450, 0, []
1629045767.4105, 1, 0, 4129.744, 4299.487, 4182.051, 4196.923, 4067.692, 450, 0, []
1629045767.4184, 2, 0, 4112.821, 4295.385, 4192.821, 4186.667, 4050.256, 16192, 0, []
1629045767.4262, 3, 0, 4072.821, 4269.231, 4158.974, 4142.051, 4009.744, 450, 0, []
1629045767.434, 4, 0, 4061.538, 4273.846, 4147.179, 4125.128, 4006.667, 16161, 0, []
1629045767.4418, 5, 0, 4058.974, 4272.308, 4186.154, 4130.256, 4007.692, 450, 0, []
1629045767.4497, 6, 0, 4048.205, 4257.949, 4164.103, 4117.436, 3987.692, 314, 0, []
1629045767.4575, 7, 0, 4028.718, 4255.897, 4163.59, 4103.077, 3967.179, 450, 0, []
1629045767.4654, 8, 0, 4014.872, 4251.282, 4152.821, 4108.205, 3964.103, 450, 0, []
1629045767.4731, 9, 0, 4025.128, 4259.487, 4148.205, 4134.872, 3975.385, 16147, 0, []
1629045767.4811, 10, 0, 4038.974, 4290.256, 4168.718, 4152.821, 3979.487, 450, 0, []
1629045767.489, 11, 0, 4042.564, 4287.179, 4145.641, 4147.179, 3976.923, 16205, 0, []
1629045767.497, 12, 0, 4044.615, 4256.923, 4172.308, 4149.231, 3981.538, 450, 0, []
1629045767.5049, 13, 0, 4036.41, 4266.667, 4172.308, 4144.615, 3978.974, 450, 0, []
1629045767.5128, 14, 0, 4024.103, 4290.256, 4152.308, 4126.667, 3966.154, 450, 0, []
1629045767.5207, 15, 0, 4021.026, 4275.385, 4160, 4114.359, 3955.385, 16205, 0, []
1629045767.5287, 16, 0, 4015.897, 4249.231, 4132.308, 4106.667, 3946.154, 0, 0, []
1629045767.5366, 17, 0, 4005.641, 4248.205, 4164.103, 4103.59, 3942.051, 0, 0, []
1629045767.5446, 18, 0, 4000.513, 4263.59, 4158.974, 4102.051, 3942.564, 0, 0, []
1629045767.5524, 19, 0, 3997.949, 4261.538, 4133.333, 4105.641, 3944.615, 0, 0, []
1629045767.5603, 20, 0, 4003.077, 4248.205, 4172.821, 4115.897, 3957.436, 0, 0, []
1629045767.5682, 21, 0, 4014.872, 4261.538, 4156.41, 4118.462, 3973.333, 0, 0, []
1629045767.5761, 22, 0, 4014.872, 4278.462, 4157.436, 4120, 3971.795, 0, 0, []
1629045767.5839, 23, 0, 4019.487, 4270.256, 4156.41, 4125.128, 3974.359, 0, 0, []
1629045767.5916, 24, 0, 4045.128, 4272.308, 4143.59, 4132.308, 3998.462, 0, 0, []
1629045767.5995, 25, 0, 4071.282, 4283.59, 4171.795, 4137.949, 4020.513, 0, 0, []
1629045767.6073, 26, 0, 4076.923, 4275.385, 4145.128, 4134.872, 4025.128, 0, 0, []
1629045767.6152, 27, 0, 4073.333, 4267.692, 4149.231, 4131.795, 4028.205, 0, 0, []
1629045767.623, 28, 0, 4095.897, 4281.538, 4151.795, 4133.846, 4049.231, 0, 0, []
1629045767.6308, 29, 0, 4127.692, 4290.769, 4131.282, 4143.59, 4071.282, 0, 0, []
1629045767.6386, 30, 0, 4138.974, 4295.385, 4165.641, 4152.308, 4087.692, 0, 0, []
1629045767.6466, 31, 0, 4141.026, 4301.538, 4150.256, 4148.718, 4108.205, 0, 0, []
1629045767.6545, 32, 0, 4141.538, 4281.026, 4151.282, 4141.026, 4103.59, 0, 0, []
1629045767.6625, 33, 0, 4133.846, 4262.564, 4147.179, 4130.256, 4082.051, 0, 0, []
1629045767.6703, 34, 0, 4142.051, 4288.205, 4137.949, 4144.615, 4099.487, 0, 0, []
1629045767.6783, 35, 0, 4180, 4316.41, 4194.872, 4175.385, 4138.462, 0, 0, []
1629045767.6862, 36, 0, 4204.615, 4293.846, 4167.179, 4164.615, 4150.769, 0, 0, []
1629045767.6942, 37, 0, 4216.41, 4267.692, 4144.615, 4143.59, 4162.564, 0, 0, []
1629045767.7021, 38, 0, 4266.667, 4300, 4155.897, 4151.282, 4203.59, 0, 0, []
1629045767.71, 39, 0, 4326.154, 4328.718, 4141.026, 4157.949, 4237.949, 0, 0, []
1629045767.7179, 40, 0, 4350.769, 4308.718, 4165.641, 4155.385, 4254.359, 0, 0, []
1629045767.7259, 41, 0, 4355.385, 4294.872, 4141.026, 4153.333, 4270.256, 0, 0, []
1629045767.7338, 42, 0, 4351.282, 4303.59, 4139.487, 4150.256, 4273.846, 0, 0, []
1629045767.7416, 43, 0, 4340.513, 4302.051, 4153.333, 4148.205, 4266.667, 0, 0, []
1629045767.7494, 44, 0, 4347.692, 4295.385, 4135.897, 4160.513, 4274.359, 0, 0, []
1629045767.7572, 45, 0, 4358.974, 4297.949, 4182.051, 4173.333, 4281.026, 0, 0, []
1629045767.7651, 46, 0, 4334.359, 4311.282, 4169.231, 4165.641, 4262.564, 0, 0, []
1629045767.7729, 47, 0, 4307.179, 4322.564, 4156.923, 4165.128, 4249.744, 0, 0, []
1629045767.7808, 48, 0, 4304.615, 4308.718, 4179.487, 4178.974, 4256.923, 0, 0, []
1629045767.7885, 49, 0, 4304.103, 4296.41, 4150.256, 4179.487, 4263.59, 0, 0, []
1629045767.7964, 50, 0, 4296.41, 4308.205, 4169.231, 4175.897, 4254.872, 0, 0, []
1629045767.8042, 51, 0, 4281.538, 4305.128, 4161.026, 4176.41, 4237.949, 0, 0, []
1629045767.8122, 52, 0, 4269.231, 4283.077, 4149.231, 4176.923, 4229.744, 0, 0, []
1629045767.8201, 53, 0, 4250.256, 4263.077, 4163.077, 4160.513, 4211.795, 0, 0, []
1629045767.8281, 54, 0, 4211.795, 4241.026, 4118.462, 4131.795, 4168.205, 0, 0, []
1629045767.8359, 55, 0, 4200.513, 4235.385, 4144.103, 4142.564, 4160.513, 0, 0, []
1629045767.8439, 56, 0, 4224.103, 4260, 4157.949, 4173.333, 4199.487, 0, 0, []
1629045767.8518, 57, 0, 4225.128, 4257.436, 4143.59, 4173.333, 4203.077, 0, 0, []
1629045767.8598, 58, 0, 4212.308, 4229.744, 4176.41, 4168.205, 4184.615, 0, 0, []
1629045767.8677, 59, 0, 4196.923, 4215.385, 4147.692, 4164.615, 4179.487, 0, 0, []
1629045767.8756, 60, 0, 4183.077, 4202.564, 4153.846, 4156.41, 4173.846, 0, 0, []
1629045767.8835, 61, 0, 4209.231, 4206.667, 4169.231, 4168.205, 4184.103, 0, 0, []
1629045767.8913, 62, 0, 4234.359, 4215.385, 4161.026, 4187.692, 4206.154, 0, 0, []
1629045767.8992, 63, 0, 4211.282, 4202.564, 4180, 4189.231, 4202.564, 0, 0, []
1629045767.907, 64, 0, 4192.308, 4196.923, 4145.641, 4185.128, 4187.179, 450, 0, []
1629045767.9148, 65, 0, 4198.462, 4194.359, 4150.256, 4189.744, 4184.103, 450, 0, []
1629045767.9226, 66, 0, 4203.077, 4181.538, 4154.872, 4195.897, 4197.436, 16192, 0, []
1629045767.9305, 67, 0, 4218.462, 4189.231, 4147.179, 4214.872, 4222.564, 450, 0, []
1629045767.9383, 68, 0, 4220.513, 4213.846, 4167.692, 4219.487, 4211.795, 16164, 0, []
1629045767.9463, 69, 0, 4202.051, 4206.667, 4113.846, 4191.282, 4183.077, 450, 0, []
1629045767.9541, 70, 0, 4221.538, 4196.923, 4143.59, 4206.154, 4212.308, 314, 0, []
1629045767.9621, 71, 0, 4261.026, 4219.487, 4198.974, 4244.103, 4263.077, 450, 0, []
1629045767.97, 72, 0, 4256.41, 4222.051, 4163.077, 4233.333, 4254.359, 450, 0, []
1629045767.978, 73, 0, 4231.282, 4191.795, 4171.282, 4212.308, 4222.051, 16147, 0, []
1629045767.9859, 74, 0, 4231.282, 4183.077, 4159.487, 4214.872, 4228.718, 450, 0, []
1629045767.9938, 75, 0, 4234.872, 4187.692, 4163.077, 4220.513, 4234.359, 16205, 0, []
1629045768.0017, 76, 0, 4221.026, 4173.333, 4168.205, 4208.205, 4221.026, 450, 0, []
1629045768.0097, 77, 0, 4216.923, 4174.872, 4138.974, 4203.077, 4221.538, 450, 0, []
1629045768.0176, 78, 0, 4227.692, 4181.026, 4180.513, 4217.949, 4229.744, 450, 0, []
1629045768.0256, 79, 0, 4231.282, 4177.436, 4168.718, 4226.154, 4231.282, 16205, 0, []
1629045768.0334, 80, 0, 4231.282, 4193.846, 4157.949, 4232.308, 4242.051, 450, 0, []
1629045768.0412, 81, 0, 4236.923, 4194.872, 4186.154, 4237.436, 4252.821, 450, 0, []
1629045768.0491, 82, 0, 4226.667, 4169.744, 4147.179, 4223.59, 4230.256, 450, 0, []
1629045768.0569, 83, 0, 4211.282, 4175.897, 4156.41, 4208.205, 4205.128, 16205, 0, []
1629045768.0648, 84, 0, 4215.897, 4197.949, 4162.051, 4210.769, 4215.385, 450, 0, []
1629045768.0725, 85, 0, 4217.949, 4177.436, 4162.564, 4210.769, 4218.974, 450, 0, []
1629045768.0804, 86, 0, 4199.487, 4150.256, 4169.744, 4184.103, 4189.744, 450, 0, []
1629045768.0882, 87, 0, 4197.949, 4170.769, 4135.385, 4174.872, 4187.179, 16205, 0, []
1629045768.0961, 88, 0, 4216.41, 4192.821, 4181.538, 4201.538, 4213.846, 450, 0, []
1629045768.1039, 89, 0, 4217.949, 4191.282, 4180.513, 4202.564, 4210.256, 450, 0, []
1629045768.1117, 90, 0, 4213.333, 4187.692, 4154.872, 4197.949, 4204.103, 450, 0, []
1629045768.1195, 91, 0, 4223.077, 4193.333, 4198.974, 4222.564, 4235.385, 16205, 0, []
1629045768.1275, 92, 0, 4225.641, 4196.41, 4164.103, 4218.974, 4244.103, 450, 0, []
1629045768.1354, 93, 0, 4207.692, 4186.154, 4158.462, 4191.795, 4211.282, 450, 0, []
1629045768.1434, 94, 0, 4196.41, 4186.154, 4166.667, 4194.359, 4207.179, 450, 0, []
1629045768.1512, 95, 0, 4202.051, 4194.872, 4148.718, 4211.795, 4223.59, 16205, 0, []
1629045768.1592, 96, 0, 4216.923, 4194.872, 4180, 4217.436, 4220, 450, 0, []
1629045768.1671, 97, 0, 4220.513, 4193.333, 4158.974, 4206.154, 4213.846, 450, 0, []
1629045768.1751, 98, 0, 4197.949, 4198.974, 4160, 4188.718, 4210.256, 450, 0, []
1629045768.183, 99, 0, 4187.692, 4207.179, 4168.205, 4184.615, 4205.128, 16205, 0, []
1629045768.1909, 100, 0, 4195.897, 4212.821, 4158.462, 4192.308, 4202.051, 450, 0, []
1629045768.1988, 101, 0, 4190.769, 4216.41, 4186.667, 4193.846, 4197.436, 450, 0, []
1629045768.2066, 102, 0, 4183.077, 4211.282, 4151.282, 4189.231, 4190.769, 450, 0, []
1629045768.2145, 103, 0, 4195.897, 4215.385, 4165.128, 4202.564, 4195.385, 16205, 0, []
1629045768.2223, 104, 0, 4208.205, 4235.897, 4186.154, 4208.718, 4212.308, 450, 0, []
1629045768.2301, 105, 0, 4204.615, 4243.59, 4150.256, 4200, 4218.974, 450, 0, []
1629045768.2379, 106, 0, 4196.923, 4221.538, 4168.718, 4191.795, 4201.026, 450, 0, []
1629045768.2458, 107, 0, 4183.077, 4194.872, 4136.923, 4166.154, 4178.974, 16205, 0, []
1629045768.2536, 108, 0, 4177.949, 4198.974, 4148.718, 4161.538, 4180.513, 450, 0, []
1629045768.2615, 109, 0, 4187.179, 4223.077, 4190.256, 4190.256, 4190.769, 450, 0, []
1629045768.2692, 110, 0, 4185.641, 4224.615, 4157.436, 4195.385, 4187.692, 450, 0, []
1629045768.2772, 111, 0, 4187.179, 4220, 4183.59, 4193.333, 4194.359, 16205, 0, []
1629045768.2851, 112, 0, 4203.59, 4243.077, 4176.41, 4208.718, 4207.692, 450, 0, []
1629045768.2931, 113, 0, 4193.333, 4234.872, 4152.821, 4202.051, 4186.667, 450, 0, []
1629045768.301, 114, 0, 4159.487, 4193.333, 4152.821, 4170.256, 4156.41, 450, 0, []
1629045768.3089, 115, 0, 4158.974, 4205.128, 4133.333, 4170.256, 4162.051, 16205, 0, []
1629045768.3168, 116, 0, 4193.333, 4240, 4176.923, 4201.026, 4184.103, 450, 0, []
1629045768.3248, 117, 0, 4209.744, 4233.333, 4169.231, 4204.615, 4194.872, 450, 0, []
1629045768.3327, 118, 0, 4188.718, 4215.385, 4151.282, 4184.615, 4187.179, 450, 0, []
1629045768.3407, 119, 0, 4165.128, 4203.077, 4157.436, 4169.231, 4167.179, 16205, 0, []
1629045768.3485, 120, 0, 4182.051, 4192.821, 4131.795, 4174.872, 4173.846, 450, 0, []
1629045768.3563, 121, 0, 4217.436, 4207.692, 4183.59, 4201.538, 4207.692, 450, 0, []
1629045768.3642, 122, 0, 4214.872, 4221.026, 4175.897, 4205.128, 4208.718, 450, 0, []
1629045768.372, 123, 0, 4176.923, 4195.385, 4135.897, 4183.59, 4166.667, 16205, 0, []
1629045768.3799, 124, 0, 4151.795, 4186.154, 4158.462, 4166.667, 4145.128, 450, 0, []
1629045768.3876, 125, 0, 4156.923, 4210.256, 4143.59, 4167.692, 4159.487, 450, 0, []
1629045768.3955, 126, 0, 4168.718, 4211.282, 4169.231, 4185.641, 4168.205, 450, 0, []
1629045768.4033, 127, 0, 4169.744, 4211.282, 4165.128, 4194.872, 4168.718, 16205, 0, []
1629045768.4112, 128, 0, 4167.692, 4218.462, 4150.256, 4194.359, 4171.282, 450, 0, []
1629045768.419, 0, 0, 4167.692, 4202.051, 4175.385, 4193.333, 4165.641, 450, 0, []
1629045768.4268, 1, 0, 4152.308, 4192.821, 4141.538, 4175.897, 4147.179, 450, 0, []
1629045768.4346, 2, 0, 4140.513, 4209.744, 4149.744, 4166.667, 4140.513, 16192, 0, []
1629045768.4426, 3, 0, 4163.59, 4227.179, 4153.846, 4186.154, 4162.564, 450, 0, []
1629045768.4505, 4, 0, 4175.897, 4215.897, 4143.077, 4192.308, 4173.333, 16164, 0, []
1629045768.4585, 5, 0, 4144.103, 4183.59, 4155.385, 4160.513, 4149.744, 450, 0, []
1629045768.4663, 6, 0, 4133.846, 4184.103, 4134.359, 4143.59, 4137.436, 312, 0, []
1629045768.4743, 7, 0, 4160.513, 4222.051, 4166.154, 4168.205, 4160.513, 450, 0, []
1629045768.4822, 8, 0, 4162.564, 4225.128, 4152.821, 4163.59, 4168.205, 450, 0, []
1629045768.4902, 9, 0, 4151.795, 4196.923, 4128.718, 4146.154, 4157.949, 16147, 0, []
1629045768.4981, 10, 0, 4164.615, 4205.128, 4181.026, 4167.692, 4167.692, 450, 0, []
1629045768.5059, 11, 0, 4164.615, 4220.513, 4147.179, 4176.923, 4172.308, 16207, 0, []
1629045768.5138, 12, 0, 4158.974, 4212.821, 4138.974, 4167.179, 4168.205, 450, 0, []
1629045768.5216, 13, 0, 4189.744, 4226.667, 4169.231, 4174.359, 4188.205, 450, 0, []
1629045768.5295, 14, 0, 4214.872, 4249.231, 4156.923, 4181.538, 4211.282, 450, 0, []
1629045768.5373, 15, 0, 4203.59, 4228.205, 4170.769, 4176.923, 4209.744, 16207, 0, []
1629045768.5452, 16, 0, 4188.718, 4203.077, 4136.923, 4165.128, 4192.821, 0, 0, []
1629045768.5529, 17, 0, 4203.077, 4216.923, 4140.513, 4163.077, 4193.333, 0, 0, []
1629045768.5608, 18, 0, 4260.513, 4241.538, 4184.615, 4183.59, 4243.077, 0, 0, []
1629045768.5687, 19, 0, 4308.205, 4247.179, 4165.128, 4196.923, 4295.385, 0, 0, []
1629045768.5766, 20, 0, 4304.103, 4223.59, 4162.564, 4169.231, 4280.513, 0, 0, []
1629045768.5845, 21, 0, 4313.846, 4200.513, 4136.41, 4141.026, 4268.205, 0, 0, []
1629045768.5922, 22, 0, 4379.487, 4221.026, 4156.41, 4172.821, 4330.256, 0, 0, []
1629045768.6002, 23, 0, 4421.026, 4250.256, 4201.538, 4208.718, 4375.385, 0, 0, []
1629045768.6081, 24, 0, 4403.077, 4242.051, 4156.923, 4195.897, 4356.41, 0, 0, []
1629045768.616, 25, 0, 4383.59, 4238.462, 4175.385, 4186.154, 4343.077, 0, 0, []
1629045768.624, 26, 0, 4373.846, 4262.564, 4174.359, 4185.641, 4342.051, 0, 0, []
1629045768.6318, 27, 0, 4345.128, 4254.359, 4137.436, 4173.333, 4311.795, 0, 0, []
1629045768.6398, 28, 0, 4325.128, 4244.103, 4165.641, 4176.923, 4289.744, 0, 0, []
1629045768.6477, 29, 0, 4316.923, 4263.077, 4132.308, 4178.462, 4292.308, 0, 0, []
1629045768.6557, 30, 0, 4275.385, 4249.744, 4125.128, 4148.718, 4263.59, 0, 0, []
1629045768.6636, 31, 0, 4254.872, 4231.282, 4145.641, 4145.641, 4253.846, 0, 0, []
1629045768.6713, 32, 0, 4289.744, 4256.923, 4155.897, 4187.692, 4287.692, 0, 0, []
1629045768.6792, 33, 0, 4293.846, 4288.205, 4196.41, 4200, 4285.641, 0, 0, []
1629045768.687, 34, 0, 4244.103, 4285.128, 4152.821, 4167.692, 4248.718, 0, 0, []
1629045768.6949, 35, 0, 4215.897, 4269.744, 4141.538, 4154.872, 4230.256, 0, 0, []
1629045768.7027, 36, 0, 4217.949, 4278.462, 4155.385, 4164.103, 4226.154, 0, 0, []
1629045768.7105, 37, 0, 4210.256, 4303.077, 4141.026, 4171.795, 4224.103, 0, 0, []
1629045768.7183, 38, 0, 4194.359, 4293.846, 4166.667, 4169.231, 4217.436, 0, 0, []
1629045768.7263, 39, 0, 4184.615, 4267.179, 4141.026, 4155.385, 4198.462, 0, 0, []
1629045768.7342, 40, 0, 4196.923, 4289.744, 4180.513, 4177.949, 4205.641, 0, 0, []
1629045768.7422, 41, 0, 4218.974, 4316.923, 4227.692, 4213.846, 4236.923, 0, 0, []
1629045768.75, 42, 0, 4217.436, 4301.026, 4187.692, 4209.231, 4240.513, 0, 0, []
1629045768.758, 43, 0, 4203.59, 4288.718, 4197.949, 4192.308, 4223.077, 0, 0, []
1629045768.7659, 44, 0, 4196.923, 4297.436, 4181.538, 4189.744, 4218.462, 0, 0, []
1629045768.7739, 45, 0, 4205.641, 4314.359, 4185.641, 4207.692, 4236.41, 0, 0, []
1629045768.7818, 46, 0, 4219.487, 4324.615, 4204.615, 4222.051, 4249.231, 0, 0, []
1629045768.7897, 47, 0, 4211.795, 4308.718, 4178.974, 4213.333, 4235.385, 0, 0, []
1629045768.7976, 48, 0, 4197.949, 4289.744, 4203.077, 4208.718, 4225.641, 0, 0, []
1629045768.8055, 49, 0, 4199.487, 4296.41, 4183.077, 4210.769, 4230.256, 0, 0, []
1629045768.8134, 50, 0, 4196.41, 4302.051, 4172.821, 4202.564, 4215.385, 0, 0, []
1629045768.8212, 51, 0, 4202.051, 4309.744, 4201.538, 4205.641, 4215.897, 0, 0, []
1629045768.829, 52, 0, 4228.205, 4323.59, 4197.436, 4231.795, 4246.667, 0, 0, []
1629045768.8368, 53, 0, 4226.154, 4310.769, 4218.974, 4238.974, 4244.615, 0, 0, []
1629045768.8447, 54, 0, 4197.949, 4285.128, 4189.744, 4210.256, 4211.795, 0, 0, []
1629045768.8525, 55, 0, 4191.795, 4280, 4195.897, 4202.564, 4204.615, 0, 0, []
1629045768.8604, 56, 0, 4207.692, 4300.513, 4231.282, 4224.615, 4228.718, 0, 0, []
1629045768.8681, 57, 0, 4209.231, 4314.359, 4188.205, 4223.077, 4236.41, 0, 0, []
1629045768.876, 58, 0, 4196.923, 4302.051, 4209.744, 4209.231, 4224.103, 0, 0, []
1629045768.8838, 59, 0, 4203.077, 4299.487, 4205.128, 4219.487, 4233.333, 0, 0, []
1629045768.8918, 60, 0, 4208.718, 4290.769, 4175.385, 4228.718, 4242.051, 0, 0, []
1629045768.8997, 61, 0, 4190.256, 4279.487, 4197.436, 4213.333, 4218.462, 0, 0, []
1629045768.9076, 62, 0, 4191.795, 4308.205, 4187.179, 4215.897, 4221.026, 0, 0, []
1629045768.9155, 63, 0, 4217.949, 4320.513, 4219.487, 4245.128, 4257.949, 0, 0, []
1629045768.9235, 64, 0, 4225.128, 4290.769, 4213.333, 4246.154, 4260.513, 450, 0, []
1629045768.9314, 65, 0, 4216.923, 4286.667, 4181.026, 4229.231, 4232.821, 450, 0, []
1629045768.9394, 66, 0, 4204.615, 4300.513, 4197.436, 4214.872, 4214.359, 16192, 0, []
1629045768.9472, 67, 0, 4191.282, 4294.359, 4162.051, 4198.974, 4215.897, 450, 0, []
1629045768.9552, 68, 0, 4196.923, 4288.718, 4186.154, 4202.051, 4228.205, 16159, 0, []
1629045768.9631, 69, 0, 4207.179, 4285.128, 4200.513, 4209.231, 4236.41, 450, 0, []
1629045768.9709, 70, 0, 4198.974, 4284.103, 4167.692, 4212.821, 4231.795, 308, 0, []
1629045768.9788, 71, 0, 4190.256, 4284.615, 4197.949, 4218.462, 4216.41, 450, 0, []
1629045768.9865, 72, 0, 4187.179, 4272.821, 4173.846, 4202.051, 4203.59, 450, 0, []
1629045768.9944, 73, 0, 4182.564, 4264.615, 4171.282, 4187.692, 4204.615, 16146, 0, []
1629045769.0022, 74, 0, 4186.154, 4273.333, 4181.026, 4191.795, 4213.333, 450, 0, []
1629045769.0101, 75, 0, 4184.103, 4267.179, 4157.436, 4194.872, 4207.692, 16202, 0, []
1629045769.0179, 76, 0, 4172.308, 4249.744, 4184.103, 4192.308, 4189.231, 450, 0, []
1629045769.0257, 77, 0, 4164.103, 4257.949, 4155.897, 4182.564, 4172.308, 450, 0, []
1629045769.0335, 78, 0, 4163.59, 4264.615, 4155.385, 4177.949, 4168.718, 450, 0, []
1629045769.0415, 79, 0, 4172.821, 4261.538, 4180, 4186.154, 4188.718, 16202, 0, []
1629045769.0494, 80, 0, 4179.487, 4277.436, 4161.026, 4183.077, 4202.051, 450, 0, []
1629045769.0574, 81, 0, 4171.795, 4280, 4183.59, 4173.333, 4185.641, 450, 0, []
1629045769.0652, 82, 0, 4172.308, 4269.231, 4168.718, 4188.718, 4186.667, 450, 0, []
1629045769.0732, 83, 0, 4192.821, 4281.026, 4185.641, 4220.513, 4212.821, 16202, 0, []
1629045769.0811, 84, 0, 4193.846, 4292.821, 4200, 4210.769, 4207.692, 450, 0, []
1629045769.0891, 85, 0, 4182.051, 4276.41, 4151.282, 4184.103, 4191.795, 450, 0, []
1629045769.097, 86, 0, 4185.641, 4265.641, 4186.667, 4189.744, 4202.564, 450, 0, []
1629045769.1049, 87, 0, 4177.436, 4267.692, 4173.846, 4184.103, 4193.333, 16202, 0, []
1629045769.1128, 88, 0, 4160, 4252.308, 4144.615, 4168.718, 4168.718, 450, 0, []
1629045769.1206, 89, 0, 4168.718, 4245.128, 4170.769, 4182.051, 4184.103, 450, 0, []
1629045769.1285, 90, 0, 4169.744, 4252.308, 4143.077, 4181.538, 4191.282, 450, 0, []
1629045769.1363, 91, 0, 4152.821, 4255.897, 4154.359, 4164.103, 4169.744, 16202, 0, []
1629045769.1441, 92, 0, 4150.256, 4265.128, 4146.154, 4163.077, 4170.256, 450, 0, []
1629045769.1519, 93, 0, 4152.821, 4264.615, 4137.949, 4162.564, 4173.333, 450, 0, []
1629045769.1598, 94, 0, 4160.513, 4249.231, 4173.333, 4160.513, 4174.872, 450, 0, []
1629045769.1676, 95, 0, 4177.436, 4252.821, 4160.513, 4180, 4198.462, 16202, 0, []
1629045769.1755, 96, 0, 4179.487, 4270.769, 4188.205, 4201.026, 4204.103, 450, 0, []
1629045769.1832, 97, 0, 4177.949, 4274.872, 4185.641, 4195.385, 4191.282, 450, 0, []
1629045769.1912, 98, 0, 4183.59, 4273.333, 4168.718, 4195.897, 4198.974, 450, 0, []
1629045769.1991, 99, 0, 4180, 4262.564, 4188.718, 4196.923, 4200, 16202, 0, []
1629045769.2071, 100, 0, 4183.077, 4257.949, 4144.615, 4176.923, 4183.59, 450, 0, []
1629045769.215, 101, 0, 4206.154, 4290.256, 4165.128, 4181.538, 4187.692, 450, 0, []
1629045769.2229, 102, 0, 4215.897, 4295.897, 4184.615, 4200.513, 4199.487, 450, 0, []
1629045769.2308, 103, 0, 4198.462, 4249.744, 4156.923, 4195.385, 4188.718, 16202, 0, []
1629045769.2388, 104, 0, 4172.821, 4228.205, 4173.846, 4181.538, 4170.769, 450, 0, []
1629045769.2467, 105, 0, 4171.795, 4251.282, 4156.923, 4186.154, 4178.974, 450, 0, []
1629045769.2547, 106, 0, 4187.692, 4249.744, 4175.897, 4196.923, 4192.821, 450, 0, []
1629045769.2625, 107, 0, 4178.462, 4234.359, 4164.103, 4177.949, 4178.462, 16202, 0, []
1629045769.2705, 108, 0, 4154.872, 4246.154, 4116.41, 4160, 4161.026, 450, 0, []
1629045769.2784, 109, 0, 4152.821, 4255.897, 4161.026, 4172.308, 4164.615, 450, 0, []
1629045769.2862, 110, 0, 4158.462, 4246.667, 4155.897, 4173.846, 4165.128, 450, 0, []
1629045769.2941, 111, 0, 4152.308, 4227.179, 4152.308, 4157.436, 4155.385, 16202, 0, []
1629045769.3019, 112, 0, 4141.538, 4213.846, 4155.897, 4135.385, 4146.667, 450, 0, []
1629045769.3097, 113, 0, 4136.41, 4212.308, 4133.333, 4119.487, 4145.128, 450, 0, []
1629045769.3175, 114, 0, 4153.846, 4232.308, 4185.641, 4140, 4170.769, 450, 0, []
1629045769.3254, 115, 0, 4176.923, 4264.103, 4177.436, 4169.744, 4198.462, 16202, 0, []
1629045769.3332, 116, 0, 4165.128, 4251.795, 4160.513, 4167.692, 4181.026, 450, 0, []
1629045769.3411, 117, 0, 4142.564, 4216.923, 4170.256, 4156.41, 4163.077, 450, 0, []
1629045769.3488, 118, 0, 4138.974, 4216.923, 4142.564, 4158.974, 4171.795, 450, 0, []
1629045769.3567, 119, 0, 4141.026, 4227.179, 4166.667, 4156.41, 4167.692, 16202, 0, []
1629045769.3645, 120, 0, 4141.538, 4224.615, 4137.949, 4132.821, 4151.795, 450, 0, []
1629045769.3725, 121, 0, 4147.179, 4234.872, 4123.077, 4128.718, 4146.667, 450, 0, []
1629045769.3804, 122, 0, 4153.846, 4244.615, 4163.59, 4152.821, 4150.769, 450, 0, []
1629045769.3883, 123, 0, 4139.487, 4231.795, 4145.128, 4162.051, 4144.103, 16202, 0, []
1629045769.3962, 124, 0, 4106.667, 4229.744, 4158.974, 4146.154, 4121.026, 450, 0, []
1629045769.4042, 125, 0, 4114.872, 4247.179, 4153.333, 4140.513, 4130.769, 450, 0, []
1629045769.4121, 126, 0, 4156.923, 4239.487, 4157.436, 4155.897, 4169.744, 450, 0, []
1629045769.4201, 127, 0, 4167.179, 4230.769, 4188.205, 4159.487, 4173.846, 16202, 0, []
1629045769.4279, 128, 0, 4159.487, 4241.026, 4152.821, 4153.333, 4160, 450, 0, []
1629045769.4359, 0, 0, 4166.154, 4232.821, 4165.641, 4164.615, 4163.077, 450, 0, []
1629045769.4438, 1, 0, 4159.487, 4232.308, 4151.795, 4166.667, 4155.897, 450, 0, []
1629045769.4516, 2, 0, 4133.846, 4243.077, 4128.205, 4153.846, 4134.359, 16192, 0, []
1629045769.4595, 3, 0, 4130.769, 4230.769, 4167.692, 4151.795, 4133.846, 450, 0, []
1629045769.4672, 4, 0, 4144.615, 4217.949, 4153.846, 4156.41, 4144.615, 16159, 0, []
1629045769.4751, 5, 0, 4160.513, 4224.615, 4176.923, 4172.821, 4155.897, 450, 0, []
1629045769.4829, 6, 0, 4181.026, 4231.282, 4178.974, 4187.179, 4171.282, 311, 0, []
1629045769.4908, 7, 0, 4184.615, 4225.128, 4147.692, 4177.436, 4170.256, 450, 0, []
1629045769.4986, 8, 0, 4170.769, 4224.103, 4175.385, 4169.231, 4158.974, 450, 0, []
1629045769.5065, 9, 0, 4162.564, 4224.103, 4147.692, 4167.179, 4153.846, 16146, 0, []
1629045769.5144, 10, 0, 4165.128, 4222.564, 4152.821, 4159.487, 4155.897, 450, 0, []
1629045769.5224, 11, 0, 4168.718, 4232.308, 4165.128, 4149.744, 4166.154, 16202, 0, []
1629045769.5303, 12, 0, 4171.795, 4236.41, 4148.718, 4161.026, 4177.436, 450, 0, []
1629045769.5383, 13, 0, 4168.205, 4214.872, 4177.949, 4173.333, 4165.128, 450, 0, []
1629045769.5461, 14, 0, 4166.154, 4202.051, 4152.308, 4163.59, 4152.308, 450, 0, []
1629045769.554, 15, 0, 4184.615, 4224.615, 4167.179, 4173.846, 4170.256, 16202, 0, []
1629045769.5619, 16, 0, 4196.923, 4247.692, 4191.282, 4182.564, 4181.538, 0, 0, []
1629045769.5698, 17, 0, 4182.564, 4246.667, 4156.923, 4163.59, 4167.179, 0, 0, []
1629045769.5777, 18, 0, 4174.359, 4241.538, 4176.41, 4157.436, 4158.462, 0, 0, []
1629045769.5856, 19, 0, 4199.487, 4244.615, 4166.154, 4174.872, 4177.949, 0, 0, []
1629045769.5935, 20, 0, 4220.513, 4247.179, 4182.564, 4188.205, 4200.513, 0, 0, []
1629045769.6013, 21, 0, 4202.564, 4234.872, 4191.282, 4176.41, 4190.769, 0, 0, []
1629045769.6092, 22, 0, 4183.59, 4216.41, 4133.846, 4166.154, 4171.282, 0, 0, []
1629045769.617, 23, 0, 4193.333, 4220, 4165.128, 4180, 4182.051, 0, 0, []
1629045769.6248, 24, 0, 4213.333, 4235.897, 4172.821, 4192.308, 4211.795, 0, 0, []
1629045769.6326, 25, 0, 4214.872, 4227.692, 4151.282, 4182.051, 4208.205, 0, 0, []
1629045769.6405, 26, 0, 4213.846, 4225.641, 4159.487, 4162.051, 4194.359, 0, 0, []
1629045769.6483, 27, 0, 4231.795, 4251.795, 4157.436, 4165.128, 4217.436, 0, 0, []
1629045769.6562, 28, 0, 4250.256, 4253.333, 4212.308, 4190.769, 4241.026, 0, 0, []
1629045769.6639, 29, 0, 4243.59, 4237.436, 4195.897, 4196.41, 4228.205, 0, 0, []
1629045769.6719, 30, 0, 4218.974, 4233.333, 4156.923, 4185.641, 4205.128, 0, 0, []
1629045769.6798, 31, 0, 4234.872, 4232.821, 4177.949, 4199.487, 4229.744, 0, 0, []
1629045769.6878, 32, 0, 4296.41, 4240, 4156.41, 4217.949, 4290.256, 0, 0, []
1629045769.6957, 33, 0, 4348.718, 4236.923, 4182.564, 4211.282, 4321.026, 0, 0, []
1629045769.7036, 34, 0, 4373.846, 4224.615, 4181.538, 4189.744, 4325.128, 0, 0, []
1629045769.7115, 35, 0, 4399.487, 4238.462, 4159.487, 4181.026, 4344.615, 0, 0, []
1629045769.7195, 36, 0, 4427.692, 4257.436, 4178.974, 4184.103, 4374.872, 0, 0, []
1629045769.7274, 37, 0, 4441.026, 4248.205, 4150.256, 4190.769, 4391.795, 0, 0, []
1629045769.7354, 38, 0, 4446.154, 4235.897, 4185.128, 4224.103, 4405.641, 0, 0, []
1629045769.7432, 39, 0, 4443.077, 4232.308, 4202.564, 4245.128, 4418.462, 0, 0, []
1629045769.751, 40, 0, 4414.359, 4217.949, 4169.744, 4220, 4400, 0, 0, []
1629045769.7589, 41, 0, 4376.41, 4216.41, 4192.308, 4197.949, 4357.949, 0, 0, []
1629045769.7667, 42, 0, 4350.256, 4229.744, 4173.333, 4195.897, 4328.205, 0, 0, []
1629045769.7746, 43, 0, 4318.974, 4227.692, 4166.667, 4191.795, 4305.128, 0, 0, []
1629045769.7823, 44, 0, 4277.949, 4215.897, 4141.538, 4173.846, 4262.051, 0, 0, []
1629045769.7902, 45, 0, 4266.154, 4224.615, 4117.949, 4168.718, 4236.923, 0, 0, []
1629045769.798, 46, 0, 4299.487, 4246.667, 4193.333, 4203.59, 4278.974, 0, 0, []
1629045769.8059, 47, 0, 4331.282, 4236.41, 4212.821, 4250.256, 4338.462, 0, 0, []
1629045769.8137, 48, 0, 4313.846, 4203.077, 4216.923, 4264.103, 4329.744, 0, 0, []
1629045769.8215, 49, 0, 4263.59, 4195.385, 4193.333, 4228.718, 4275.897, 0, 0, []
1629045769.8293, 50, 0, 4229.231, 4210.256, 4141.026, 4190.769, 4239.487, 0, 0, []
1629045769.8373, 51, 0, 4229.744, 4233.333, 4181.538, 4191.282, 4235.897, 0, 0, []
1629045769.8452, 52, 0, 4235.897, 4247.692, 4166.667, 4190.769, 4235.897, 0, 0, []
1629045769.8532, 53, 0, 4226.667, 4235.385, 4153.333, 4167.179, 4216.923, 0, 0, []
1629045769.861, 54, 0, 4212.821, 4219.487, 4170.769, 4146.667, 4200, 0, 0, []
1629045769.869, 55, 0, 4206.154, 4217.436, 4147.692, 4150.769, 4202.051, 0, 0, []
1629045769.8769, 56, 0, 4195.385, 4215.897, 4171.795, 4160, 4192.821, 0, 0, []
1629045769.8849, 57, 0, 4181.026, 4206.154, 4145.128, 4151.282, 4169.231, 0, 0, []
1629045769.8928, 58, 0, 4183.59, 4190.769, 4135.385, 4167.179, 4174.872, 0, 0, []
1629045769.9007, 59, 0, 4174.359, 4166.154, 4150.769, 4177.436, 4169.231, 0, 0, []
1629045769.9086, 60, 0, 4146.154, 4151.795, 4113.846, 4149.744, 4133.333, 0, 0, []
1629045769.9164, 61, 0, 4172.308, 4184.615, 4165.641, 4174.359, 4162.051, 0, 0, []
1629045769.9243, 62, 0, 4235.385, 4238.462, 4193.333, 4232.821, 4230.769, 0, 0, []
1629045769.9321, 63, 0, 4231.795, 4253.333, 4169.231, 4213.333, 4221.026, 0, 0, []
1629045769.9399, 64, 0, 4191.795, 4231.795, 4151.795, 4160, 4177.949, 450, 0, []
1629045769.9477, 65, 0, 4186.154, 4209.744, 4151.282, 4163.59, 4174.872, 450, 0, []
1629045769.9556, 66, 0, 4184.615, 4188.205, 4164.615, 4182.051, 4167.179, 16188, 0, []
1629045769.9634, 67, 0, 4174.359, 4188.718, 4118.462, 4187.179, 4153.846, 450, 0, []
1629045769.9713, 68, 0, 4181.026, 4197.436, 4179.487, 4210.256, 4166.667, 16162, 0, []
1629045769.979, 69, 0, 4194.359, 4191.795, 4186.667, 4211.795, 4181.026, 450, 0, []
1629045769.987, 70, 0, 4184.615, 4191.795, 4105.128, 4183.59, 4171.282, 312, 0, []
1629045769.9949, 71, 0, 4156.41, 4186.154, 4172.308, 4163.077, 4145.641, 450, 0, []
1629045770.0029, 72, 0, 4147.692, 4166.154, 4147.692, 4148.205, 4136.923, 450, 0, []
1629045770.0108, 73, 0, 4154.359, 4149.231, 4121.538, 4154.872, 4146.154, 16146, 0, []
1629045770.0187, 74, 0, 4145.641, 4150.256, 4171.795, 4172.308, 4138.462, 450, 0, []
1629045770.0266, 75, 0, 4132.821, 4153.846, 4109.744, 4165.128, 4122.051, 16208, 0, []
1629045770.0346, 76, 0, 4143.077, 4153.846, 4128.205, 4164.615, 4133.333, 450, 0, []
1629045770.0425, 77, 0, 4163.59, 4156.41, 4180, 4186.154, 4159.487, 450, 0, []
1629045770.0505, 78, 0, 4162.051, 4139.487, 4157.436, 4189.744, 4161.026, 450, 0, []
1629045770.0584, 79, 0, 4136.923, 4104.615, 4170.256, 4158.462, 4135.897, 16208, 0, []
1629045770.0661, 80, 0, 4121.026, 4089.231, 4152.821, 4133.333, 4118.974, 450, 0, []
1629045770.074, 81, 0, 4132.308, 4102.051, 4146.667, 4153.333, 4131.282, 450, 0, []
1629045770.0818, 82, 0, 4141.026, 4099.487, 4158.974, 4174.359, 4142.051, 450, 0, []
1629045770.0897, 83, 0, 4143.59, 4087.179, 4129.744, 4173.333, 4134.872, 16208, 0, []
1629045770.0975, 84, 0, 4155.897, 4105.641, 4155.385, 4186.154, 4141.026, 450, 0, []
1629045770.1053, 85, 0, 4143.077, 4115.385, 4150.769, 4184.103, 4137.949, 450, 0, []
1629045770.1131, 86, 0, 4110.769, 4098.462, 4123.59, 4154.359, 4106.667, 450, 0, []
1629045770.121, 87, 0, 4120, 4100, 4148.205, 4149.231, 4104.615, 16208, 0, []
1629045770.1288, 88, 0, 4146.667, 4112.308, 4150.256, 4161.026, 4128.718, 450, 0, []
1629045770.1368, 89, 0, 4133.846, 4115.897, 4157.949, 4151.282, 4122.564, 450, 0, []
1629045770.1446, 90, 0, 4127.179, 4133.846, 4137.949, 4145.641, 4116.41, 450, 0, []
1629045770.1526, 91, 0, 4147.692, 4137.436, 4134.872, 4163.077, 4130.769, 16208, 0, []
1629045770.1605, 92, 0, 4148.205, 4120.513, 4164.103, 4164.615, 4129.231, 450, 0, []
1629045770.1685, 93, 0, 4138.974, 4131.282, 4144.615, 4156.41, 4126.667, 450, 0, []
1629045770.1764, 94, 0, 4137.436, 4131.795, 4155.385, 4154.872, 4128.718, 450, 0, []
1629045770.1843, 95, 0, 4127.179, 4115.897, 4143.077, 4142.564, 4124.615, 16208, 0, []
1629045770.1922, 96, 0, 4126.154, 4121.026, 4130.769, 4139.487, 4127.692, 450, 0, []
1629045770.2002, 97, 0, 4136.41, 4122.051, 4153.846, 4147.692, 4124.615, 450, 0, []
1629045770.2081, 98, 0, 4132.821, 4124.103, 4123.59, 4138.462, 4111.795, 450, 0, []
1629045770.216, 99, 0, 4122.051, 4141.538, 4133.333, 4131.282, 4106.154, 16208, 0, []
1629045770.2238, 100, 0, 4117.949, 4139.487, 4136.41, 4129.744, 4108.718, 450, 0, []
1629045770.2316, 101, 0, 4115.897, 4122.564, 4128.718, 4130.256, 4110.769, 450, 0, []
1629045770.2395, 102, 0, 4121.538, 4133.333, 4160.513, 4146.667, 4113.333, 450, 0, []
1629045770.2473, 103, 0, 4132.308, 4148.718, 4151.282, 4158.974, 4118.974, 16208, 0, []
1629045770.2552, 104, 0, 4135.897, 4136.923, 4163.077, 4158.974, 4124.103, 450, 0, []
1629045770.2629, 105, 0, 4131.282, 4130.769, 4165.641, 4152.821, 4124.615, 450, 0, []
1629045770.2709, 106, 0, 4120, 4146.667, 4169.231, 4146.154, 4111.795, 450, 0, []
1629045770.2788, 107, 0, 4115.385, 4153.333, 4167.692, 4148.205, 4104.103, 16208, 0, []
1629045770.2868, 108, 0, 4125.128, 4144.103, 4118.462, 4152.308, 4117.436, 450, 0, []
1629045770.2947, 109, 0, 4134.872, 4142.564, 4147.692, 4148.718, 4126.667, 450, 0, []
1629045770.3026, 110, 0, 4134.872, 4149.744, 4151.282, 4142.564, 4125.128, 450, 0, []
1629045770.3105, 111, 0, 4134.872, 4146.154, 4137.949, 4152.308, 4127.692, 16208, 0, []
1629045770.3185, 112, 0, 4149.231, 4143.077, 4180.513, 4170.769, 4138.974, 450, 0, []
1629045770.3264, 113, 0, 4161.538, 4156.923, 4152.308, 4174.872, 4141.538, 450, 0, []
1629045770.3344, 114, 0, 4150.769, 4163.59, 4152.821, 4175.385, 4132.821, 450, 0, []
1629045770.3422, 115, 0, 4145.641, 4147.179, 4158.974, 4173.846, 4134.359, 16208, 0, []
1629045770.3502, 116, 0, 4161.538, 4137.436, 4135.385, 4165.641, 4145.128, 450, 0, []
1629045770.3581, 117, 0, 4160.513, 4143.59, 4170.769, 4155.897, 4140.513, 450, 0, []
1629045770.3659, 118, 0, 4140, 4134.872, 4141.538, 4139.487, 4118.462, 450, 0, []
1629045770.3738, 119, 0, 4129.744, 4115.897, 4117.436, 4131.282, 4108.718, 16208, 0, []
1629045770.3815, 120, 0, 4134.872, 4111.795, 4153.846, 4145.128, 4128.718, 450, 0, []
1629045770.3894, 121, 0, 4144.103, 4117.436, 4136.923, 4157.949, 4142.564, 450, 0, []
1629045770.3972, 122, 0, 4143.077, 4131.282, 4140, 4147.692, 4127.179, 450, 0, []
1629045770.4051, 123, 0, 4135.897, 4141.538, 4135.385, 4128.205, 4112.821, 16208, 0, []
1629045770.4129, 124, 0, 4139.487, 4147.692, 4140.513, 4130.256, 4125.128, 450, 0, []
1629045770.4207, 125, 0, 4158.462, 4170.769, 4163.59, 4151.282, 4154.359, 450, 0, []
1629045770.4285, 126, 0, 4164.103, 4175.897, 4130.769, 4160, 4162.051, 450, 0, []
1629045770.4365, 127, 0, 4144.615, 4163.59, 4144.103, 4154.872, 4138.462, 16208, 0, []
1629045770.4444, 128, 0, 4128.718, 4176.923, 4144.615, 4154.359, 4123.59, 450, 0, []
1629045770.4523, 0, 0, 4124.103, 4171.795, 4126.154, 4154.359, 4124.103, 450, 0, []
1629045770.46, 1, 0, 4117.949, 4152.308, 4136.41, 4138.462, 4116.41, 450, 0, []
1629045770.468, 2, 0, 4124.615, 4166.667, 4111.795, 4131.282, 4122.051, 16188, 0, []
1629045770.4759, 3, 0, 4143.077, 4164.615, 4143.077, 4155.385, 4145.641, 450, 0, []
1629045770.4839, 4, 0, 4147.179, 4148.205, 4145.641, 4160, 4145.128, 16162, 0, []
1629045770.4918, 5, 0, 4143.59, 4165.128, 4117.436, 4140, 4125.641, 450, 0, []
1629045770.4997, 6, 0, 4148.205, 4168.718, 4146.154, 4140.513, 4120, 311, 0, []
1629045770.5076, 7, 0, 4150.769, 4157.436, 4140.513, 4151.795, 4131.795, 450, 0, []
1629045770.5156, 8, 0, 4154.872, 4181.026, 4157.436, 4163.59, 4145.641, 450, 0, []
1629045770.5235, 9, 0, 4168.718, 4198.974, 4152.308, 4171.282, 4154.872, 16146, 0, []
1629045770.5313, 10, 0, 4164.103, 4170.256, 4126.154, 4167.179, 4157.949, 450, 0, []
1629045770.5391, 11, 0, 4153.333, 4158.462, 4159.487, 4170.769, 4159.487, 16226, 0, []
1629045770.5469, 12, 0, 4158.462, 4186.154, 4143.077, 4172.821, 4158.462, 450, 0, []
1629045770.5548, 13, 0, 4154.359, 4183.59, 4141.538, 4166.667, 4149.744, 450, 0, []
1629045770.5627, 14, 0, 4158.462, 4166.154, 4151.795, 4170.769, 4153.846, 450, 0, []
1629045770.5706, 15, 0, 4175.897, 4176.41, 4141.538, 4183.59, 4168.205, 16226, 0, []
1629045770.5783, 16, 0, 4172.821, 4172.308, 4166.154, 4184.615, 4170.769, 0, 0, []
1629045770.5862, 17, 0, 4173.846, 4161.538, 4151.282, 4188.205, 4177.436, 0, 0, []
1629045770.594, 18, 0, 4193.846, 4176.41, 4168.205, 4203.59, 4186.667, 0, 0, []
1629045770.602, 19, 0, 4189.744, 4180.513, 4170.769, 4196.41, 4177.436, 0, 0, []
1629045770.6099, 20, 0, 4176.41, 4174.872, 4132.821, 4183.59, 4168.718, 0, 0, []
1629045770.6178, 21, 0, 4187.179, 4176.41, 4165.128, 4187.692, 4174.872, 0, 0, []
1629045770.6257, 22, 0, 4180.513, 4166.667, 4146.667, 4178.462, 4170.769, 0, 0, []
1629045770.6337, 23, 0, 4169.744, 4161.538, 4141.538, 4177.949, 4166.667, 0, 0, []
1629045770.6416, 24, 0, 4194.872, 4169.231, 4172.308, 4194.359, 4185.128, 0, 0, []
1629045770.6496, 25, 0, 4206.154, 4175.385, 4145.128, 4193.333, 4193.846, 0, 0, []
1629045770.6574, 26, 0, 4185.128, 4170.256, 4149.231, 4177.949, 4177.949, 0, 0, []
1629045770.6654, 27, 0, 4182.564, 4156.41, 4139.487, 4171.282, 4170.769, 0, 0, []
1629045770.6733, 28, 0, 4197.949, 4156.41, 4160, 4186.154, 4186.667, 0, 0, []
1629045770.6811, 29, 0, 4200, 4157.436, 4181.026, 4198.462, 4195.385, 0, 0, []
1629045770.689, 30, 0, 4200.513, 4134.872, 4127.692, 4181.026, 4184.615, 0, 0, []
1629045770.6967, 31, 0, 4214.359, 4122.564, 4148.718, 4174.359, 4188.205, 0, 0, []
1629045770.7046, 32, 0, 4221.538, 4133.846, 4160.513, 4190.256, 4208.205, 0, 0, []
1629045770.7124, 33, 0, 4205.641, 4128.205, 4149.744, 4197.949, 4201.026, 0, 0, []
1629045770.7204, 34, 0, 4185.641, 4113.846, 4151.282, 4185.641, 4175.385, 0, 0, []
1629045770.7283, 35, 0, 4172.821, 4101.538, 4101.026, 4155.897, 4160, 0, 0, []
1629045770.7361, 36, 0, 4177.436, 4109.744, 4130.256, 4154.359, 4161.538, 0, 0, []
1629045770.7439, 37, 0, 4209.231, 4155.897, 4167.179, 4192.821, 4194.872, 0, 0, []
1629045770.7519, 38, 0, 4232.308, 4151.282, 4168.718, 4221.026, 4228.205, 0, 0, []
1629045770.7598, 39, 0, 4223.077, 4106.154, 4175.897, 4208.718, 4216.923, 0, 0, []
1629045770.7678, 40, 0, 4213.333, 4130.769, 4136.923, 4188.205, 4197.949, 0, 0, []
1629045770.7756, 41, 0, 4216.41, 4156.923, 4150.256, 4188.205, 4205.128, 0, 0, []
1629045770.7836, 42, 0, 4216.923, 4122.051, 4152.821, 4187.179, 4206.667, 0, 0, []
1629045770.7915, 43, 0, 4216.923, 4112.821, 4143.077, 4184.615, 4193.846, 0, 0, []
1629045770.7995, 44, 0, 4220, 4133.846, 4168.718, 4190.769, 4196.923, 0, 0, []
1629045770.8074, 45, 0, 4221.026, 4126.154, 4135.897, 4188.718, 4206.667, 0, 0, []
1629045770.8154, 46, 0, 4216.923, 4121.538, 4150.256, 4184.103, 4198.462, 0, 0, []
1629045770.8232, 47, 0, 4208.205, 4134.872, 4149.744, 4176.41, 4184.615, 0, 0, []
1629045770.831, 48, 0, 4207.692, 4122.564, 4112.308, 4170.256, 4187.179, 0, 0, []
1629045770.8389, 49, 0, 4217.436, 4109.231, 4151.282, 4174.872, 4195.385, 0, 0, []
1629045770.8467, 50, 0, 4221.026, 4131.282, 4147.179, 4175.897, 4202.051, 0, 0, []
1629045770.8546, 51, 0, 4212.308, 4135.385, 4144.615, 4170.256, 4197.949, 0, 0, []
1629045770.8623, 52, 0, 4211.795, 4123.077, 4147.692, 4166.154, 4189.231, 0, 0, []
1629045770.8702, 53, 0, 4220.513, 4142.564, 4135.385, 4172.308, 4202.051, 0, 0, []
1629045770.878, 54, 0, 4226.154, 4155.897, 4177.949, 4184.103, 4215.897, 0, 0, []
1629045770.8859, 55, 0, 4221.538, 4131.795, 4152.821, 4182.051, 4200, 0, 0, []
1629045770.8937, 56, 0, 4205.641, 4112.308, 4131.795, 4169.744, 4181.026, 0, 0, []
1629045770.9016, 57, 0, 4204.103, 4127.179, 4148.205, 4170.769, 4195.897, 0, 0, []
1629045770.9095, 58, 0, 4232.821, 4140.513, 4143.59, 4193.846, 4217.436, 0, 0, []
1629045770.9175, 59, 0, 4254.359, 4130.769, 4175.897, 4208.205, 4223.077, 0, 0, []
1629045770.9254, 60, 0, 4235.897, 4127.179, 4146.154, 4190.769, 4222.051, 0, 0, []
1629045770.9334, 61, 0, 4213.333, 4123.077, 4129.744, 4178.974, 4210.256, 0, 0, []
1629045770.9412, 62, 0, 4215.385, 4110.769, 4149.744, 4183.077, 4201.026, 0, 0, []
1629045770.9492, 63, 0, 4218.974, 4118.974, 4123.077, 4178.974, 4205.128, 0, 0, []
1629045770.9571, 64, 0, 4212.821, 4132.821, 4147.692, 4175.897, 4201.538, 450, 0, []
1629045770.9651, 65, 0, 4206.154, 4113.333, 4137.949, 4167.179, 4186.154, 450, 0, []
1629045770.973, 66, 0, 4202.051, 4090.769, 4128.718, 4160.513, 4180, 16188, 0, []
1629045770.9807, 67, 0, 4208.718, 4118.462, 4155.385, 4167.179, 4187.179, 450, 0, []
1629045770.9886, 68, 0, 4218.974, 4142.564, 4129.744, 4170.769, 4189.744, 16162, 0, []
1629045770.9964, 69, 0, 4216.41, 4128.718, 4155.897, 4178.462, 4191.795, 450, 0, []
1629045771.0043, 70, 0, 4215.897, 4131.795, 4158.462, 4186.154, 4197.436, 310, 0, []
1629045771.0121, 71, 0, 4225.641, 4146.667, 4154.359, 4190.256, 4200, 450, 0, []
1629045771.0199, 72, 0, 4227.692, 4140, 4186.154, 4192.308, 4204.615, 450, 0, []
1629045771.0277, 73, 0, 4216.41, 4133.333, 4145.128, 4180.513, 4202.564, 16146, 0, []
1629045771.0356, 74, 0, 4206.154, 4129.231, 4143.59, 4166.667, 4185.641, 450, 0, []
1629045771.0434, 75, 0, 4200.513, 4109.744, 4140, 4157.436, 4173.333, 16212, 0, []
1629045771.0513, 76, 0, 4196.923, 4113.846, 4125.128, 4160, 4177.949, 450, 0, []
1629045771.059, 77, 0, 4203.59, 4130.769, 4156.923, 4167.692, 4182.564, 450, 0, []
1629045771.067, 78, 0, 4198.974, 4103.59, 4124.615, 4157.436, 4170.769, 450, 0, []
1629045771.0749, 79, 0, 4183.077, 4081.026, 4128.205, 4143.59, 4157.949, 16212, 0, []
1629045771.0829, 80, 0, 4190.256, 4101.538, 4147.692, 4148.205, 4166.667, 450, 0, []
1629045771.0908, 81, 0, 4207.179, 4109.231, 4144.103, 4169.231, 4189.231, 450, 0, []
1629045771.0987, 82, 0, 4207.692, 4098.974, 4170.256, 4180.513, 4189.744, 450, 0, []
1629045771.1066, 83, 0, 4195.897, 4111.282, 4134.359, 4161.026, 4170.769, 16212, 0, []
1629045771.1146, 84, 0, 4188.718, 4124.615, 4138.462, 4149.231, 4167.692, 450, 0, []
1629045771.1225, 85, 0, 4200.513, 4135.385, 4168.205, 4170.256, 4187.692, 450, 0, []
1629045771.1304, 86, 0, 4221.026, 4161.538, 4151.795, 4185.128, 4201.026, 450, 0, []
1629045771.1382, 87, 0, 4211.795, 4162.564, 4163.077, 4169.744, 4192.821, 16212, 0, []
1629045771.146, 88, 0, 4200.513, 4148.718, 4143.077, 4162.051, 4190.769, 450, 0, []
1629045771.1539, 89, 0, 4214.872, 4152.821, 4161.026, 4180.513, 4196.923, 450, 0, []
1629045771.1617, 90, 0, 4216.923, 4161.026, 4175.385, 4176.41, 4193.846, 450, 0, []
1629045771.1696, 91, 0, 4209.744, 4160.513, 4143.59, 4163.077, 4191.795, 16212, 0, []
1629045771.1773, 92, 0, 4212.821, 4155.385, 4171.282, 4173.333, 4191.282, 450, 0, []
1629045771.1852, 93, 0, 4209.744, 4146.154, 4148.205, 4176.41, 4190.256, 450, 0, []
1629045771.193, 94, 0, 4196.41, 4134.872, 4138.974, 4169.231, 4191.282, 450, 0, []
1629045771.2009, 95, 0, 4191.282, 4147.692, 4163.59, 4159.487, 4186.154, 16212, 0, []
1629045771.2087, 96, 0, 4185.128, 4173.333, 4132.308, 4144.615, 4172.821, 450, 0, []
1629045771.2165, 97, 0, 4170.769, 4174.872, 4151.282, 4136.923, 4158.462, 450, 0, []
1629045771.2243, 98, 0, 4170.256, 4171.795, 4145.641, 4135.897, 4153.846, 450, 0, []
1629045771.2323, 99, 0, 4181.538, 4183.59, 4139.487, 4142.051, 4161.026, 16212, 0, []
1629045771.2402, 100, 0, 4185.641, 4199.487, 4155.385, 4144.615, 4165.641, 450, 0, []
1629045771.2482, 101, 0, 4180.513, 4208.718, 4120, 4135.897, 4166.154, 450, 0, []
1629045771.256, 102, 0, 4191.795, 4211.282, 4148.718, 4147.179, 4187.179, 450, 0, []
1629045771.264, 103, 0, 4210.256, 4202.051, 4151.795, 4156.41, 4205.128, 16212, 0, []
1629045771.2719, 104, 0, 4200.513, 4189.231, 4128.718, 4135.897, 4184.103, 450, 0, []
1629045771.2799, 105, 0, 4180, 4201.026, 4147.179, 4124.615, 4161.026, 450, 0, []
1629045771.2878, 106, 0, 4189.744, 4207.692, 4127.179, 4146.154, 4171.282, 450, 0, []
1629045771.2957, 107, 0, 4215.385, 4189.744, 4153.333, 4168.205, 4192.821, 16212, 0, []
1629045771.3036, 108, 0, 4209.231, 4184.615, 4152.308, 4154.872, 4197.949, 450, 0, []
1629045771.3114, 109, 0, 4175.385, 4186.154, 4127.179, 4128.718, 4172.308, 450, 0, []
1629045771.3193, 110, 0, 4151.282, 4177.436, 4151.282, 4117.949, 4140.513, 450, 0, []
1629045771.3271, 111, 0, 4153.846, 4191.795, 4122.564, 4116.41, 4136.41, 16212, 0, []
1629045771.3349, 112, 0, 4170.769, 4208.205, 4133.846, 4128.205, 4151.282, 450, 0, []
1629045771.3427, 113, 0, 4189.744, 4195.385, 4149.744, 4150.769, 4172.308, 450, 0, []
1629045771.3507, 114, 0, 4189.231, 4194.872, 4142.051, 4162.564, 4178.462, 450, 0, []
1629045771.3586, 115, 0, 4174.872, 4209.744, 4179.487, 4156.923, 4163.077, 16212, 0, []
1629045771.3666, 116, 0, 4177.949, 4191.282, 4155.897, 4145.641, 4168.718, 450, 0, []
1629045771.3744, 117, 0, 4196.41, 4175.385, 4154.872, 4145.128, 4201.538, 450, 0, []
1629045771.3824, 118, 0, 4210.769, 4201.538, 4163.077, 4151.795, 4225.641, 450, 0, []
1629045771.3903, 119, 0, 4198.974, 4208.205, 4128.205, 4152.821, 4226.667, 16212, 0, []
1629045771.3983, 120, 0, 4181.026, 4191.795, 4145.641, 4162.051, 4225.641, 450, 0, []
1629045771.4062, 121, 0, 4198.974, 4212.308, 4142.564, 4190.769, 4247.179, 450, 0, []
1629045771.4141, 122, 0, 4223.59, 4224.615, 4159.487, 4212.821, 4268.718, 450, 0, []
1629045771.422, 123, 0, 4213.846, 4206.154, 4163.59, 4201.026, 4258.974, 16212, 0, []
1629045771.43, 124, 0, 4189.744, 4198.462, 4127.179, 4181.538, 4233.846, 450, 0, []
1629045771.4379, 125, 0, 4183.59, 4191.282, 4156.923, 4183.59, 4233.333, 450, 0, []
1629045771.4459, 126, 0, 4178.974, 4176.923, 4133.333, 4174.872, 4238.974, 450, 0, []
1629045771.4537, 127, 0, 4166.154, 4182.564, 4120, 4157.436, 4221.026, 16212, 0, []
1629045771.4615, 128, 0, 4163.59, 4207.179, 4153.333, 4163.077, 4212.308, 450, 0, []
1629045771.4694, 0, 0, 4182.564, 4215.385, 4150.769, 4185.641, 4228.205, 450, 0, []
1629045771.4772, 1, 0, 4205.128, 4207.179, 4186.667, 4204.103, 4235.385, 450, 0, []
1629045771.4851, 2, 0, 4208.718, 4218.462, 4173.333, 4202.564, 4232.308, 16188, 0, []
1629045771.4928, 3, 0, 4204.615, 4230.769, 4165.128, 4204.615, 4238.462, 450, 0, []
1629045771.5007, 4, 0, 4205.641, 4217.436, 4187.692, 4206.154, 4240, 16162, 0, []
1629045771.5085, 5, 0, 4210.256, 4222.051, 4151.282, 4189.744, 4236.923, 450, 0, []
1629045771.5164, 6, 0, 4212.308, 4247.179, 4175.897, 4197.436, 4242.564, 311, 0, []
1629045771.5242, 7, 0, 4207.179, 4232.821, 4181.026, 4225.128, 4238.974, 450, 0, []
1629045771.5321, 8, 0, 4203.077, 4200.513, 4165.641, 4231.795, 4225.641, 450, 0, []
1629045771.54, 9, 0, 4216.923, 4218.462, 4183.077, 4221.538, 4231.282, 16146, 0, []
1629045771.548, 10, 0, 4230.256, 4250.256, 4154.872, 4217.436, 4243.59, 450, 0, []
1629045771.5559, 11, 0, 4221.538, 4236.923, 4184.103, 4218.462, 4236.923, 16209, 0, []
1629045771.5638, 12, 0, 4214.872, 4225.641, 4195.385, 4209.231, 4237.949, 450, 0, []
1629045771.5717, 13, 0, 4209.231, 4224.103, 4167.692, 4199.487, 4244.615, 450, 0, []
1629045771.5794, 14, 0, 4194.872, 4206.667, 4174.359, 4196.923, 4229.744, 450, 0, []
1629045771.5874, 15, 0, 4187.692, 4214.872, 4144.615, 4202.051, 4215.385, 16209, 0, []
1629045771.5953, 16, 0, 4189.744, 4241.538, 4163.077, 4216.923, 4216.923, 0, 0, []
1629045771.6032, 17, 0, 4185.128, 4249.744, 4163.077, 4214.359, 4209.744, 0, 0, []
1629045771.6112, 18, 0, 4182.051, 4237.436, 4131.282, 4194.872, 4194.872, 0, 0, []
1629045771.619, 19, 0, 4189.744, 4236.41, 4163.077, 4189.231, 4195.897, 0, 0, []
1629045771.6268, 20, 0, 4190.256, 4246.667, 4147.179, 4189.744, 4204.103, 0, 0, []
1629045771.6347, 21, 0, 4178.462, 4240.513, 4158.462, 4191.282, 4203.59, 0, 0, []
1629045771.6425, 22, 0, 4165.641, 4227.179, 4181.538, 4203.077, 4204.103, 0, 0, []
1629045771.6504, 23, 0, 4172.821, 4229.744, 4161.538, 4216.41, 4205.128, 0, 0, []
1629045771.6581, 24, 0, 4204.103, 4244.615, 4174.359, 4214.872, 4202.564, 0, 0, []
1629045771.666, 25, 0, 4232.308, 4259.487, 4144.103, 4199.487, 4200, 0, 0, []
1629045771.6738, 26, 0, 4243.077, 4269.744, 4151.795, 4196.923, 4197.436, 0, 0, []
1629045771.6817, 27, 0, 4250.769, 4258.462, 4171.795, 4198.974, 4200.513, 0, 0, []
1629045771.6895, 28, 0, 4253.846, 4250.256, 4145.128, 4192.821, 4207.692, 0, 0, []
1629045771.6974, 29, 0, 4235.897, 4256.923, 4168.205, 4190.256, 4203.077, 0, 0, []
1629045771.7053, 30, 0, 4215.385, 4247.692, 4142.564, 4184.615, 4187.179, 0, 0, []
1629045771.7133, 31, 0, 4214.359, 4240.513, 4137.436, 4181.026, 4181.026, 0, 0, []
1629045771.7212, 32, 0, 4228.205, 4245.128, 4171.282, 4186.154, 4193.846, 0, 0, []
1629045771.7292, 33, 0, 4231.795, 4248.205, 4150.769, 4189.231, 4206.154, 0, 0, []
1629045771.737, 34, 0, 4227.179, 4253.333, 4174.359, 4191.282, 4199.487, 0, 0, []
1629045771.745, 35, 0, 4227.692, 4251.795, 4170.769, 4189.744, 4188.205, 0, 0, []
1629045771.7529, 36, 0, 4228.205, 4235.897, 4172.308, 4191.282, 4190.769, 0, 0, []
1629045771.7607, 37, 0, 4235.897, 4235.385, 4200, 4200.513, 4199.487, 0, 0, []
1629045771.7686, 38, 0, 4237.436, 4235.897, 4160.513, 4199.487, 4189.744, 0, 0, []
1629045771.7763, 39, 0, 4216.923, 4222.051, 4153.846, 4185.128, 4167.692, 0, 0, []
1629045771.7842, 40, 0, 4207.179, 4236.923, 4137.436, 4169.744, 4165.641, 0, 0, []
1629045771.792, 41, 0, 4222.051, 4248.718, 4142.564, 4176.923, 4177.949, 0, 0, []
1629045771.7999, 42, 0, 4225.128, 4230.256, 4173.333, 4188.205, 4178.462, 0, 0, []
1629045771.8077, 43, 0, 4213.846, 4218.974, 4134.359, 4183.077, 4172.821, 0, 0, []
1629045771.8155, 44, 0, 4210.769, 4224.615, 4156.41, 4184.615, 4165.128, 0, 0, []
1629045771.8233, 45, 0, 4205.128, 4233.846, 4162.564, 4187.179, 4156.41, 0, 0, []
1629045771.8313, 46, 0, 4204.615, 4248.205, 4142.564, 4187.692, 4160.513, 0, 0, []
1629045771.8392, 47, 0, 4217.949, 4257.949, 4171.795, 4188.205, 4164.615, 0, 0, []
1629045771.8472, 48, 0, 4221.026, 4240.513, 4145.128, 4174.872, 4155.385, 0, 0, []
1629045771.855, 49, 0, 4215.897, 4223.59, 4151.282, 4167.692, 4154.359, 0, 0, []
1629045771.863, 50, 0, 4219.487, 4242.564, 4156.923, 4170.769, 4162.564, 0, 0, []
1629045771.8709, 51, 0, 4225.641, 4271.282, 4143.077, 4175.385, 4161.026, 0, 0, []
1629045771.8789, 52, 0, 4229.744, 4267.692, 4174.872, 4181.026, 4163.59, 0, 0, []
1629045771.8868, 53, 0, 4231.795, 4246.667, 4143.077, 4174.359, 4172.308, 0, 0, []
1629045771.8947, 54, 0, 4233.333, 4251.795, 4144.103, 4174.359, 4175.385, 0, 0, []
1629045771.9026, 55, 0, 4232.821, 4273.333, 4157.436, 4184.615, 4178.462, 0, 0, []
1629045771.9106, 56, 0, 4228.205, 4265.128, 4128.718, 4181.026, 4181.538, 0, 0, []
1629045771.9185, 57, 0, 4228.718, 4250.256, 4150.256, 4172.308, 4177.949, 0, 0, []
1629045771.9263, 58, 0, 4233.846, 4264.103, 4133.846, 4172.308, 4180, 0, 0, []
1629045771.9341, 59, 0, 4232.308, 4263.077, 4139.487, 4178.462, 4183.59, 0, 0, []
1629045771.9419, 60, 0, 4224.615, 4248.718, 4153.333, 4173.333, 4176.923, 0, 0, []
1629045771.9498, 61, 0, 4213.846, 4249.744, 4128.205, 4166.154, 4167.692, 0, 0, []
1629045771.9576, 62, 0, 4204.103, 4234.359, 4163.077, 4170.769, 4163.59, 0, 0, []
1629045771.9655, 63, 0, 4204.103, 4218.462, 4154.872, 4174.359, 4166.154, 0, 0, []
1629045771.9732, 64, 0, 4200, 4244.615, 4147.692, 4171.282, 4166.154, 450, 0, []
1629045771.9811, 65, 0, 4187.179, 4256.923, 4155.897, 4158.974, 4158.462, 450, 0, []
1629045771.9889, 66, 0, 4193.333, 4237.949, 4127.179, 4154.872, 4154.359, 16188, 0, []
1629045771.9969, 67, 0, 4202.564, 4248.205, 4149.744, 4162.051, 4155.897, 450, 0, []
1629045772.0048, 68, 0, 4202.564, 4271.795, 4140.513, 4164.103, 4161.538, 16162, 0, []
1629045772.0127, 69, 0, 4214.359, 4267.179, 4156.923, 4181.026, 4171.795, 450, 0, []
1629045772.0206, 70, 0, 4227.692, 4268.205, 4194.872, 4196.923, 4179.487, 310, 0, []
1629045772.0286, 71, 0, 4221.026, 4281.538, 4145.641, 4177.436, 4174.359, 450, 0, []
1629045772.0365, 72, 0, 4209.231, 4268.205, 4153.846, 4163.59, 4166.667, 450, 0, []
1629045772.0445, 73, 0, 4205.641, 4255.897, 4160.513, 4172.308, 4170.769, 16146, 0, []
1629045772.0523, 74, 0, 4205.128, 4269.744, 4143.077, 4166.667, 4172.308, 450, 0, []
1629045772.0603, 75, 0, 4217.949, 4272.308, 4151.795, 4146.667, 4167.692, 16208, 0, []
1629045772.0682, 76, 0, 4229.744, 4256.41, 4126.154, 4152.308, 4169.231, 450, 0, []
1629045772.076, 77, 0, 4223.077, 4256.923, 4154.872, 4173.846, 4169.744, 450, 0, []
1629045772.0839, 78, 0, 4217.436, 4264.103, 4154.359, 4169.231, 4164.103, 450, 0, []
1629045772.0916, 79, 0, 4211.282, 4236.923, 4130.256, 4151.795, 4151.282, 16208, 0, []
1629045772.0995, 80, 0, 4204.103, 4209.231, 4155.897, 4148.718, 4150.256, 450, 0, []
1629045772.1073, 81, 0, 4207.179, 4238.462, 4128.718, 4143.077, 4161.538, 450, 0, []
1629045772.1152, 82, 0, 4201.538, 4264.615, 4136.923, 4136.923, 4152.821, 450, 0, []
1629045772.123, 83, 0, 4184.615, 4229.744, 4142.051, 4142.564, 4137.436, 16208, 0, []
1629045772.1308, 84, 0, 4180, 4205.641, 4124.615, 4152.821, 4144.103, 450, 0, []
1629045772.1386, 85, 0, 4184.103, 4233.333, 4156.41, 4157.436, 4149.744, 450, 0, []
1629045772.1466, 86, 0, 4178.462, 4251.282, 4133.846, 4153.846, 4143.59, 450, 0, []
1629045772.1545, 87, 0, 4184.615, 4238.974, 4138.462, 4159.487, 4151.795, 16208, 0, []
1629045772.1625, 88, 0, 4209.231, 4239.487, 4151.282, 4166.667, 4174.359, 450, 0, []
1629045772.1703, 89, 0, 4210.256, 4238.974, 4134.872, 4163.077, 4177.949, 450, 0, []
1629045772.1783, 90, 0, 4188.718, 4225.128, 4157.436, 4156.41, 4160.513, 450, 0, []
1629045772.1862, 91, 0, 4189.231, 4242.051, 4135.897, 4152.821, 4156.923, 16208, 0, []
1629045772.1942, 92, 0, 4196.41, 4253.846, 4147.692, 4159.487, 4167.692, 450, 0, []
1629045772.2021, 93, 0, 4181.026, 4226.154, 4156.41, 4157.949, 4166.154, 450, 0, []
1629045772.21, 94, 0, 4173.846, 4211.795, 4119.487, 4145.641, 4158.462, 450, 0, []
1629045772.2179, 95, 0, 4178.974, 4225.128, 4141.538, 4140, 4155.385, 16208, 0, []
1629045772.2258, 96, 0, 4172.821, 4232.821, 4116.923, 4133.846, 4152.308, 450, 0, []
1629045772.2337, 97, 0, 4178.974, 4243.077, 4127.179, 4143.59, 4161.538, 450, 0, []
1629045772.2415, 98, 0, 4206.154, 4262.051, 4173.333, 4174.359, 4188.718, 450, 0, []
1629045772.2493, 99, 0, 4206.154, 4248.205, 4140, 4184.103, 4193.846, 16208, 0, []
1629045772.2571, 100, 0, 4186.667, 4232.308, 4151.282, 4172.308, 4175.385, 450, 0, []
1629045772.265, 101, 0, 4185.641, 4255.897, 4146.667, 4166.154, 4171.282, 450, 0, []
1629045772.2728, 102, 0, 4186.154, 4253.846, 4137.436, 4162.051, 4168.718, 450, 0, []
1629045772.2807, 103, 0, 4179.487, 4225.128, 4157.949, 4152.308, 4161.026, 16208, 0, []
1629045772.2885, 104, 0, 4186.154, 4235.897, 4140.513, 4157.436, 4172.308, 450, 0, []
1629045772.2963, 105, 0, 4198.974, 4253.333, 4158.974, 4168.205, 4181.538, 450, 0, []
1629045772.3041, 106, 0, 4209.231, 4241.026, 4141.538, 4161.026, 4183.077, 450, 0, []
1629045772.3121, 107, 0, 4237.949, 4245.641, 4137.949, 4165.641, 4211.795, 16208, 0, []
1629045772.32, 108, 0, 4295.897, 4262.564, 4177.949, 4187.692, 4265.641, 450, 0, []
1629045772.328, 109, 0, 4357.436, 4247.692, 4149.744, 4187.692, 4307.692, 450, 0, []
1629045772.3358, 110, 0, 4405.128, 4237.949, 4160.513, 4176.923, 4335.897, 450, 0, []
1629045772.3438, 111, 0, 4435.897, 4258.974, 4153.846, 4174.359, 4361.538, 16208, 0, []
1629045772.3517, 112, 0, 4445.128, 4263.59, 4136.923, 4175.385, 4371.795, 450, 0, []
1629045772.3597, 113, 0, 4438.462, 4248.718, 4173.846, 4175.897, 4366.154, 450, 0, []
1629045772.3676, 114, 0, 4421.026, 4247.179, 4147.692, 4174.359, 4355.385, 450, 0, []
1629045772.3754, 115, 0, 4393.846, 4244.615, 4148.718, 4177.436, 4341.026, 16208, 0, []
1629045772.3833, 116, 0, 4378.974, 4226.667, 4160.513, 4172.821, 4331.282, 450, 0, []
1629045772.3911, 117, 0, 4373.333, 4223.077, 4156.41, 4161.538, 4325.128, 450, 0, []
1629045772.399, 118, 0, 4350.769, 4244.103, 4174.872, 4160, 4310.769, 450, 0, []
1629045772.4068, 119, 0, 4326.154, 4256.41, 4135.897, 4164.615, 4296.923, 16208, 0, []
1629045772.4146, 120, 0, 4325.128, 4246.667, 4165.128, 4183.59, 4298.974, 450, 0, []
1629045772.4224, 121, 0, 4316.923, 4231.795, 4187.692, 4192.308, 4293.333, 450, 0, []
1629045772.4303, 122, 0, 4281.026, 4214.359, 4139.487, 4173.846, 4266.154, 450, 0, []
1629045772.4381, 123, 0, 4266.667, 4217.949, 4158.974, 4172.821, 4255.897, 16208, 0, []
1629045772.446, 124, 0, 4285.641, 4242.564, 4153.846, 4190.769, 4269.744, 450, 0, []
1629045772.4537, 125, 0, 4279.487, 4230.769, 4150.769, 4187.692, 4262.051, 450, 0, []
1629045772.4617, 126, 0, 4248.718, 4202.051, 4153.846, 4161.026, 4235.897, 450, 0, []
1629045772.4696, 127, 0, 4243.59, 4213.333, 4143.59, 4154.872, 4229.231, 16208, 0, []
1629045772.4776, 128, 0, 4258.462, 4236.923, 4191.282, 4181.026, 4243.59, 450, 0, []
1629045772.4855, 0, 0, 4259.487, 4232.821, 4172.308, 4194.359, 4256.41, 450, 0, []
1629045772.4934, 1, 0, 4244.103, 4223.59, 4152.821, 4189.744, 4244.103, 450, 0, []
1629045772.5013, 2, 0, 4231.282, 4228.718, 4156.923, 4182.051, 4218.974, 16188, 0, []
1629045772.5093, 3, 0, 4236.923, 4239.487, 4137.436, 4184.615, 4218.974, 450, 0, []
1629045772.5172, 4, 0, 4246.154, 4244.103, 4177.436, 4201.026, 4234.872, 16159, 0, []
1629045772.5252, 5, 0, 4242.051, 4244.615, 4161.026, 4204.615, 4233.333, 450, 0, []
1629045772.533, 6, 0, 4225.641, 4234.359, 4138.462, 4191.795, 4213.333, 308, 0, []
1629045772.5408, 7, 0, 4208.718, 4223.59, 4153.846, 4181.538, 4202.051, 450, 0, []
1629045772.5487, 8, 0, 4203.59, 4236.923, 4138.462, 4190.256, 4210.769, 450, 0, []
1629045772.5566, 9, 0, 4214.359, 4246.667, 4170.769, 4212.308, 4213.846, 16146, 0, []
1629045772.5645, 10, 0, 4222.564, 4237.949, 4159.487, 4214.359, 4204.103, 450, 0, []
1629045772.5723, 11, 0, 4213.333, 4246.154, 4147.692, 4208.205, 4202.051, 16208, 0, []
1629045772.5801, 12, 0, 4204.615, 4245.128, 4172.821, 4208.718, 4197.436, 450, 0, []
1629045772.5879, 13, 0, 4208.718, 4226.667, 4148.718, 4207.179, 4187.692, 450, 0, []
1629045772.5958, 14, 0, 4223.59, 4236.923, 4180.513, 4216.41, 4203.077, 450, 0, []
1629045772.6036, 15, 0, 4231.795, 4261.538, 4177.949, 4226.154, 4222.564, 16208, 0, []
1629045772.6115, 16, 0, 4228.718, 4260.513, 4157.436, 4225.128, 4215.385, 0, 0, []
1629045772.6194, 17, 0, 4235.385, 4267.692, 4192.308, 4228.205, 4211.795, 0, 0, []
1629045772.6274, 18, 0, 4234.359, 4277.949, 4152.308, 4224.615, 4210.256, 0, 0, []
1629045772.6353, 19, 0, 4224.103, 4252.821, 4148.205, 4222.051, 4204.103, 0, 0, []
1629045772.6433, 20, 0, 4229.744, 4233.333, 4171.795, 4234.359, 4214.872, 0, 0, []
1629045772.6511, 21, 0, 4234.359, 4243.59, 4163.59, 4238.974, 4220.513, 0, 0, []
1629045772.6591, 22, 0, 4226.667, 4253.333, 4170.769, 4229.231, 4210.769, 0, 0, []
1629045772.667, 23, 0, 4228.205, 4253.846, 4138.974, 4222.051, 4210.256, 0, 0, []
1629045772.675, 24, 0, 4233.333, 4241.538, 4164.103, 4226.667, 4215.897, 0, 0, []
1629045772.6829, 25, 0, 4235.385, 4240.513, 4185.641, 4231.795, 4218.974, 0, 0, []
1629045772.6906, 26, 0, 4242.051, 4252.308, 4155.897, 4237.436, 4218.974, 0, 0, []
1629045772.6985, 27, 0, 4240.513, 4258.462, 4171.795, 4233.846, 4213.333, 0, 0, []
1629045772.7063, 28, 0, 4232.308, 4255.385, 4156.41, 4210.256, 4215.897, 0, 0, []
1629045772.7142, 29, 0, 4229.231, 4238.974, 4165.641, 4202.051, 4223.59, 0, 0, []
1629045772.722, 30, 0, 4223.077, 4229.231, 4162.051, 4197.436, 4210.256, 0, 0, []
1629045772.7298, 31, 0, 4212.308, 4241.538, 4130.256, 4182.051, 4197.949, 0, 0, []
1629045772.7376, 32, 0, 4212.308, 4255.897, 4174.872, 4186.154, 4211.282, 0, 0, []
1629045772.7455, 33, 0, 4225.641, 4249.744, 4161.026, 4203.59, 4222.564, 0, 0, []
1629045772.7533, 34, 0, 4230.769, 4237.436, 4149.744, 4211.282, 4215.897, 0, 0, []
1629045772.7612, 35, 0, 4222.564, 4236.41, 4165.128, 4206.154, 4214.872, 0, 0, []
1629045772.7689, 36, 0, 4213.333, 4232.308, 4135.385, 4194.359, 4213.333, 0, 0, []
1629045772.7769, 37, 0, 4214.359, 4233.846, 4163.59, 4191.282, 4202.564, 0, 0, []
1629045772.7848, 38, 0, 4218.974, 4236.923, 4164.615, 4194.872, 4211.282, 0, 0, []
1629045772.7928, 39, 0, 4211.282, 4217.949, 4158.974, 4202.051, 4220, 0, 0, []
1629045772.8007, 40, 0, 4204.103, 4206.667, 4171.282, 4202.564, 4204.103, 0, 0, []
1629045772.8086, 41, 0, 4207.179, 4220.513, 4146.667, 4197.436, 4195.897, 0, 0, []
1629045772.8165, 42, 0, 4218.462, 4228.718, 4174.872, 4207.692, 4214.872, 0, 0, []
1629045772.8245, 43, 0, 4232.308, 4236.41, 4165.641, 4220, 4226.154, 0, 0, []
1629045772.8324, 44, 0, 4230.256, 4254.872, 4151.795, 4213.333, 4215.385, 0, 0, []
1629045772.8404, 45, 0, 4222.564, 4256.41, 4180, 4203.59, 4216.41, 0, 0, []
1629045772.8482, 46, 0, 4222.051, 4240.513, 4152.308, 4202.051, 4223.077, 0, 0, []
1629045772.856, 47, 0, 4207.179, 4240.513, 4161.026, 4192.821, 4200, 0, 0, []
1629045772.8639, 48, 0, 4186.154, 4249.231, 4158.462, 4175.897, 4180.513, 0, 0, []
1629045772.8717, 49, 0, 4194.872, 4246.667, 4152.821, 4184.103, 4195.897, 0, 0, []
1629045772.8796, 50, 0, 4209.744, 4246.667, 4173.333, 4198.974, 4207.692, 0, 0, []
1629045772.8873, 51, 0, 4201.026, 4250.256, 4135.897, 4190.256, 4199.487, 0, 0, []
1629045772.8952, 52, 0, 4204.103, 4255.385, 4158.462, 4194.359, 4197.436, 0, 0, []
1629045772.903, 53, 0, 4221.026, 4273.333, 4174.359, 4204.103, 4195.897, 0, 0, []
1629045772.9109, 54, 0, 4214.359, 4283.077, 4148.718, 4197.949, 4188.718, 0, 0, []
1629045772.9187, 55, 0, 4198.974, 4263.59, 4164.615, 4186.154, 4183.077, 0, 0, []
1629045772.9266, 56, 0, 4190.256, 4248.718, 4146.154, 4172.821, 4173.846, 0, 0, []
1629045772.9345, 57, 0, 4184.615, 4257.436, 4166.667, 4177.949, 4172.821, 0, 0, []
1629045772.9425, 58, 0, 4193.846, 4257.436, 4168.718, 4185.641, 4182.051, 0, 0, []
1629045772.9504, 59, 0, 4202.051, 4243.59, 4132.821, 4176.923, 4173.846, 0, 0, []
1629045772.9584, 60, 0, 4182.564, 4238.462, 4160, 4170.256, 4153.846, 0, 0, []
1629045772.9662, 61, 0, 4171.282, 4243.077, 4140, 4169.231, 4150.769, 0, 0, []
1629045772.9742, 62, 0, 4179.487, 4234.359, 4132.308, 4168.718, 4152.308, 0, 0, []
1629045772.9821, 63, 0, 4180.513, 4228.718, 4148.205, 4166.154, 4151.282, 0, 0, []
1629045772.9901, 64, 0, 4182.564, 4247.692, 4142.564, 4166.154, 4153.333, 450, 0, []
1629045772.998, 65, 0, 4180, 4244.615, 4165.641, 4160, 4143.59, 450, 0, []
1629045773.0059, 66, 0, 4163.59, 4222.051, 4129.231, 4147.692, 4131.282, 16188, 0, []
1629045773.0138, 67, 0, 4157.436, 4223.077, 4124.615, 4147.179, 4132.821, 450, 0, []
1629045773.0216, 68, 0, 4161.026, 4244.103, 4146.154, 4148.718, 4141.538, 16159, 0, []
1629045773.0295, 69, 0, 4160.513, 4256.923, 4123.59, 4148.718, 4139.487, 450, 0, []
1629045773.0373, 70, 0, 4158.462, 4241.538, 4153.846, 4150.769, 4124.103, 16117, 0, []
1629045773.0452, 71, 0, 4147.179, 4225.128, 4138.462, 4141.538, 4111.282, 450, 0, []
1629045773.0529, 72, 0, 4128.718, 4232.821, 4126.667, 4135.385, 4109.744, 450, 0, []
1629045773.0608, 73, 0, 4129.231, 4243.077, 4154.872, 4143.077, 4108.718, 16147, 0, []
1629045773.0686, 74, 0, 4140.513, 4240.513, 4138.462, 4151.282, 4112.308, 450, 0, []
1629045773.0765, 75, 0, 4145.641, 4242.564, 4165.128, 4157.949, 4126.154, 16208, 0, []
1629045773.0843, 76, 0, 4134.872, 4231.795, 4142.564, 4141.538, 4115.897, 450, 0, []
1629045773.0921, 77, 0, 4115.897, 4207.692, 4106.154, 4117.436, 4090.256, 450, 0, []
1629045773.0999, 78, 0, 4121.538, 4214.872, 4138.974, 4121.538, 4096.923, 450, 0, []
1629045773.1079, 79, 0, 4145.128, 4227.692, 4146.667, 4138.462, 4123.59, 16208, 0, []
1629045773.1158, 80, 0, 4153.333, 4213.333, 4170.256, 4151.282, 4129.744, 450, 0, []
1629045773.1238, 81, 0, 4140.513, 4205.128, 4149.231, 4144.615, 4114.872, 450, 0, []
1629045773.1316, 82, 0, 4134.872, 4222.051, 4133.846, 4136.923, 4109.744, 450, 0, []
1629045773.1396, 83, 0, 4142.564, 4232.308, 4164.103, 4142.564, 4118.462, 16208, 0, []
1629045773.1475, 84, 0, 4149.231, 4220, 4133.846, 4146.154, 4122.051, 450, 0, []
1629045773.1555, 85, 0, 4158.974, 4221.026, 4149.744, 4156.41, 4132.308, 450, 0, []
1629045773.1634, 86, 0, 4156.923, 4233.333, 4147.179, 4152.308, 4141.026, 450, 0, []
1629045773.1711, 87, 0, 4153.333, 4231.282, 4121.026, 4137.436, 4132.308, 16208, 0, []
1629045773.179, 88, 0, 4173.333, 4227.179, 4161.026, 4150.256, 4140, 450, 0, []
1629045773.1868, 89, 0, 4196.41, 4251.282, 4153.333, 4171.282, 4175.897, 450, 0, []
1629045773.1947, 90, 0, 4189.744, 4263.59, 4147.179, 4161.026, 4178.974, 450, 0, []
1629045773.2025, 91, 0, 4172.821, 4234.359, 4137.436, 4136.41, 4151.795, 16208, 0, []
1629045773.2103, 92, 0, 4166.667, 4224.103, 4114.359, 4133.846, 4142.051, 450, 0, []
1629045773.2181, 93, 0, 4166.154, 4243.077, 4141.026, 4136.923, 4137.949, 450, 0, []
1629045773.226, 94, 0, 4178.462, 4233.846, 4121.538, 4131.795, 4137.949, 450, 0, []
1629045773.2338, 95, 0, 4183.077, 4211.282, 4128.205, 4135.897, 4141.026, 16208, 0, []
1629045773.2418, 96, 0, 4181.538, 4236.41, 4149.744, 4147.692, 4145.641, 450, 0, []
1629045773.2496, 97, 0, 4182.051, 4249.231, 4124.615, 4137.949, 4142.051, 450, 0, []
1629045773.2576, 98, 0, 4178.462, 4215.385, 4144.615, 4128.718, 4139.487, 450, 0, []
1629045773.2655, 99, 0, 4183.59, 4224.103, 4136.41, 4146.154, 4154.872, 16208, 0, []
1629045773.2735, 100, 0, 4190.256, 4257.436, 4138.974, 4148.205, 4156.41, 450, 0, []
1629045773.2814, 101, 0, 4189.231, 4257.436, 4150.256, 4125.128, 4148.718, 450, 0, []
1629045773.2893, 102, 0, 4194.872, 4252.308, 4132.308, 4129.231, 4166.667, 450, 0, []
1629045773.2972, 103, 0, 4214.872, 4256.41, 4171.282, 4158.974, 4189.744, 16208, 0, []
1629045773.3052, 104, 0, 4210.256, 4238.462, 4145.128, 4144.103, 4171.282, 450, 0, []
1629045773.3131, 105, 0, 4181.538, 4221.026, 4116.923, 4110.256, 4146.154, 450, 0, []
1629045773.3209, 106, 0, 4186.154, 4238.974, 4150.256, 4120.513, 4159.487, 450, 0, []
1629045773.3287, 107, 0, 4221.026, 4261.538, 4147.692, 4144.615, 4180, 16208, 0, []
1629045773.3365, 108, 0, 4224.103, 4256.923, 4161.538, 4139.487, 4175.385, 450, 0, []
1629045773.3444, 109, 0, 4197.436, 4261.026, 4141.538, 4120, 4161.026, 450, 0, []
1629045773.3522, 110, 0, 4199.487, 4275.385, 4142.564, 4127.179, 4165.641, 450, 0, []
1629045773.3601, 111, 0, 4226.154, 4260, 4168.718, 4147.692, 4184.615, 16208, 0, []
1629045773.3678, 112, 0, 4218.462, 4240.513, 4127.179, 4140.513, 4183.59, 450, 0, []
1629045773.3757, 113, 0, 4192.821, 4240.513, 4140, 4127.692, 4162.564, 450, 0, []
1629045773.3835, 114, 0, 4204.615, 4243.59, 4142.051, 4134.359, 4165.641, 450, 0, []
1629045773.3915, 115, 0, 4237.949, 4256.923, 4131.282, 4150.256, 4196.923, 16208, 0, []
1629045773.3994, 116, 0, 4231.282, 4274.872, 4158.462, 4146.667, 4200.513, 450, 0, []
1629045773.4073, 117, 0, 4200.513, 4258.462, 4133.333, 4122.564, 4172.308, 450, 0, []
1629045773.4152, 118, 0, 4198.462, 4233.846, 4151.282, 4114.872, 4158.462, 450, 0, []
1629045773.4232, 119, 0, 4225.641, 4260.513, 4164.103, 4128.205, 4184.103, 16208, 0, []
1629045773.4311, 120, 0, 4238.974, 4280, 4147.179, 4143.077, 4204.103, 450, 0, []
1629045773.4391, 121, 0, 4224.103, 4256.41, 4165.128, 4134.872, 4178.462, 450, 0, []
1629045773.4469, 122, 0, 4211.282, 4263.59, 4142.051, 4116.41, 4163.077, 450, 0, []
1629045773.4549, 123, 0, 4217.436, 4280.513, 4163.077, 4135.385, 4188.205, 16208, 0, []
1629045773.4628, 124, 0, 4217.949, 4259.487, 4167.179, 4152.308, 4192.821, 450, 0, []
1629045773.4706, 125, 0, 4212.821, 4252.821, 4138.462, 4143.077, 4174.872, 450, 0, []
1629045773.4785, 126, 0, 4210.769, 4266.154, 4175.385, 4133.333, 4174.872, 450, 0, []
1629045773.4862, 127, 0, 4200.513, 4253.333, 4152.308, 4124.103, 4171.795, 16208, 0, []
1629045773.4941, 128, 0, 4193.846, 4244.615, 4146.154, 4130.769, 4159.487, 450, 0, []
1629045773.5019, 0, 0, 4203.077, 4265.641, 4167.179, 4143.077, 4165.128, 450, 0, []
1629045773.5098, 1, 0, 4204.103, 4269.231, 4144.615, 4136.923, 4176.41, 450, 0, []
1629045773.5176, 2, 0, 4196.41, 4254.872, 4168.718, 4137.949, 4177.949, 16186, 0, []
1629045773.5254, 3, 0, 4213.333, 4270.256, 4169.231, 4161.026, 4185.641, 450, 0, []
1629045773.5332, 4, 0, 4246.667, 4293.846, 4179.487, 4186.667, 4208.718, 16159, 0, []
1629045773.5412, 5, 0, 4245.641, 4272.821, 4180.513, 4181.538, 4221.538, 450, 0, []
1629045773.5491, 6, 0, 4216.923, 4249.744, 4143.077, 4158.974, 4203.59, 322, 0, []
1629045773.557, 7, 0, 4216.923, 4267.692, 4180, 4164.103, 4188.205, 450, 0, []
1629045773.5648, 8, 0, 4241.026, 4278.974, 4183.59, 4182.564, 4210.769, 450, 0, []
1629045773.5727, 9, 0, 4234.872, 4266.667, 4172.308, 4180, 4224.103, 16143, 0, []
1629045773.5805, 10, 0, 4216.923, 4259.487, 4176.41, 4157.436, 4199.487, 450, 0, []
1629045773.5885, 11, 0, 4229.744, 4258.462, 4154.872, 4158.974, 4190.256, 16207, 0, []
1629045773.5964, 12, 0, 4249.231, 4265.128, 4197.949, 4189.231, 4217.436, 450, 0, []
1629045773.6043, 13, 0, 4238.974, 4278.462, 4186.667, 4194.872, 4221.538, 450, 0, []
1629045773.6122, 14, 0, 4229.744, 4285.641, 4171.795, 4193.846, 4206.154, 450, 0, []
1629045773.6202, 15, 0, 4250.769, 4295.385, 4210.769, 4214.359, 4232.308, 16207, 0, []
1629045773.6281, 16, 0, 4244.615, 4287.179, 4156.923, 4197.949, 4237.436, 0, 0, []
1629045773.6359, 17, 0, 4209.744, 4258.974, 4137.949, 4160, 4196.923, 0, 0, []
1629045773.6437, 18, 0, 4221.538, 4260.513, 4158.974, 4168.718, 4205.641, 0, 0, []
1629045773.6515, 19, 0, 4224.103, 4256.41, 4150.256, 4166.667, 4211.795, 0, 0, []
1629045773.6594, 20, 0, 4205.128, 4251.282, 4159.487, 4150.256, 4188.205, 0, 0, []
1629045773.6672, 21, 0, 4212.308, 4269.231, 4151.282, 4157.949, 4193.846, 0, 0, []
1629045773.6751, 22, 0, 4192.308, 4250.256, 4164.615, 4147.179, 4181.538, 0, 0, []
1629045773.6828, 23, 0, 4164.615, 4223.59, 4152.821, 4129.231, 4162.564, 0, 0, []
1629045773.6907, 24, 0, 4211.795, 4261.026, 4155.897, 4163.077, 4214.872, 0, 0, []
1629045773.6985, 25, 0, 4229.744, 4283.59, 4183.077, 4173.333, 4229.744, 0, 0, []
1629045773.7065, 26, 0, 4175.385, 4249.744, 4139.487, 4130.769, 4173.333, 0, 0, []
1629045773.7144, 27, 0, 4184.615, 4252.308, 4167.179, 4138.974, 4187.692, 0, 0, []
1629045773.7223, 28, 0, 4231.282, 4284.615, 4182.564, 4164.615, 4234.359, 0, 0, []
1629045773.7302, 29, 0, 4223.077, 4275.385, 4138.462, 4150.256, 4217.949, 0, 0, []
1629045773.7382, 30, 0, 4210.769, 4260.513, 4168.205, 4147.179, 4196.923, 0, 0, []
1629045773.7461, 31, 0, 4215.385, 4254.872, 4156.41, 4148.718, 4200, 0, 0, []
1629045773.7541, 32, 0, 4214.359, 4240, 4164.615, 4147.179, 4203.59, 0, 0, []
1629045773.7619, 33, 0, 4220, 4248.205, 4192.308, 4149.744, 4213.846, 0, 0, []
1629045773.7699, 34, 0, 4225.128, 4266.667, 4163.077, 4146.667, 4219.487, 0, 0, []
1629045773.7778, 35, 0, 4209.231, 4238.974, 4158.462, 4131.795, 4201.026, 0, 0, []
1629045773.7856, 36, 0, 4206.667, 4232.308, 4141.538, 4130.256, 4200, 0, 0, []
1629045773.7935, 37, 0, 4231.282, 4269.231, 4169.744, 4152.821, 4226.667, 0, 0, []
1629045773.8015, 38, 0, 4246.154, 4267.692, 4193.333, 4161.538, 4234.872, 0, 0, []
1629045773.8093, 39, 0, 4223.077, 4234.872, 4146.154, 4138.974, 4205.128, 0, 0, []
1629045773.8171, 40, 0, 4209.744, 4241.538, 4164.103, 4136.923, 4198.462, 0, 0, []
1629045773.825, 41, 0, 4222.564, 4242.564, 4153.846, 4143.077, 4220, 0, 0, []
1629045773.8328, 42, 0, 4217.436, 4210.769, 4143.077, 4128.718, 4211.795, 0, 0, []
1629045773.8407, 43, 0, 4214.359, 4213.846, 4170.769, 4125.641, 4203.077, 0, 0, []
1629045773.8484, 44, 0, 4244.615, 4242.564, 4165.641, 4152.308, 4233.333, 0, 0, []
1629045773.8563, 45, 0, 4240.513, 4237.436, 4181.538, 4165.128, 4231.795, 0, 0, []
1629045773.8641, 46, 0, 4195.897, 4215.385, 4153.333, 4137.949, 4185.128, 0, 0, []
1629045773.8721, 47, 0, 4204.615, 4216.923, 4157.436, 4129.744, 4193.333, 0, 0, []
1629045773.88, 48, 0, 4224.615, 4222.051, 4186.667, 4136.923, 4218.462, 0, 0, []
1629045773.8879, 49, 0, 4207.179, 4226.154, 4143.077, 4133.846, 4205.641, 0, 0, []
1629045773.8958, 50, 0, 4213.846, 4226.667, 4158.974, 4139.487, 4206.154, 0, 0, []
1629045773.9038, 51, 0, 4232.821, 4217.436, 4152.821, 4131.795, 4218.974, 0, 0, []
1629045773.9117, 52, 0, 4232.308, 4222.051, 4138.974, 4127.179, 4222.564, 0, 0, []
1629045773.9197, 53, 0, 4230.769, 4227.179, 4176.923, 4135.385, 4220, 0, 0, []
1629045773.9275, 54, 0, 4226.667, 4221.026, 4142.051, 4124.103, 4210.769, 0, 0, []
1629045773.9355, 55, 0, 4212.308, 4213.333, 4144.615, 4117.949, 4207.692, 0, 0, []
1629045773.9434, 56, 0, 4196.41, 4206.154, 4155.385, 4120.513, 4206.667, 0, 0, []
1629045773.9512, 57, 0, 4177.949, 4198.462, 4128.205, 4100, 4182.051, 0, 0, []
1629045773.9591, 58, 0, 4190.769, 4214.359, 4154.872, 4105.641, 4186.154, 0, 0, []
1629045773.9668, 59, 0, 4212.308, 4229.231, 4151.282, 4136.923, 4212.308, 0, 0, []
1629045773.9747, 60, 0, 4182.051, 4196.41, 4140.513, 4111.795, 4172.821, 0, 0, []
1629045773.9825, 61, 0, 4160, 4166.154, 4118.974, 4075.897, 4142.564, 0, 0, []
1629045773.9904, 62, 0, 4195.897, 4183.077, 4116.923, 4110.769, 4191.282, 0, 0, []
1629045773.9982, 63, 0, 4221.538, 4210.769, 4167.692, 4146.154, 4222.564, 0, 0, []
1629045774.006, 64, 0, 4207.692, 4218.974, 4134.359, 4122.051, 4202.051, 450, 0, []
1629045774.0138, 65, 0, 4195.385, 4205.128, 4126.154, 4112.308, 4191.795, 450, 0, []
1629045774.0218, 66, 0, 4203.59, 4187.179, 4149.744, 4130.769, 4203.077, 16208, 0, []
1629045774.0297, 67, 0, 4207.692, 4176.923, 4133.846, 4130.256, 4207.179, 450, 0, []
1629045774.0377, 68, 0, 4188.718, 4174.359, 4149.231, 4117.436, 4188.205, 16173, 0, []
1629045774.0455, 69, 0, 4177.949, 4185.641, 4125.128, 4113.333, 4172.308, 450, 0, []
1629045774.0535, 70, 0, 4180, 4189.231, 4122.051, 4105.641, 4170.769, 16062, 0, []
1629045774.0614, 71, 0, 4181.026, 4182.564, 4137.949, 4098.974, 4180.513, 450, 0, []
1629045774.0694, 72, 0, 4201.026, 4189.231, 4131.795, 4124.103, 4206.154, 450, 0, []
1629045774.0773, 73, 0, 4223.077, 4204.615, 4172.308, 4152.308, 4216.923, 16163, 0, []
1629045774.0852, 74, 0, 4197.436, 4191.282, 4140, 4122.564, 4187.179, 450, 0, []
1629045774.0931, 75, 0, 4161.538, 4172.821, 4125.641, 4090.769, 4165.128, 16225, 0, []
1629045774.1009, 76, 0, 4177.436, 4194.359, 4171.282, 4110.256, 4181.026, 450, 0, []
1629045774.1088, 77, 0, 4202.564, 4207.179, 4141.026, 4122.564, 4191.282, 450, 0, []
1629045774.1166, 78, 0, 4197.949, 4194.872, 4140.513, 4115.385, 4188.718, 450, 0, []
1629045774.1244, 79, 0, 4199.487, 4202.051, 4154.872, 4126.667, 4201.026, 16225, 0, []
1629045774.1322, 80, 0, 4210.769, 4206.154, 4164.615, 4137.949, 4209.231, 450, 0, []
1629045774.1401, 81, 0, 4202.051, 4192.308, 4157.436, 4116.923, 4203.59, 450, 0, []
1629045774.1479, 82, 0, 4195.385, 4201.538, 4116.41, 4104.103, 4203.077, 450, 0, []
1629045774.1558, 83, 0, 4211.282, 4212.821, 4164.103, 4132.821, 4212.308, 16225, 0, []
1629045774.1635, 84, 0, 4217.436, 4196.41, 4160, 4145.128, 4222.564, 450, 0, []
1629045774.1714, 85, 0, 4224.615, 4195.897, 4132.308, 4151.282, 4235.897, 450, 0, []
1629045774.1792, 86, 0, 4246.667, 4221.538, 4182.564, 4172.821, 4242.051, 450, 0, []
1629045774.1872, 87, 0, 4244.103, 4221.026, 4170.769, 4160.513, 4232.308, 16225, 0, []
1629045774.1951, 88, 0, 4223.077, 4206.667, 4170.256, 4138.462, 4224.103, 450, 0, []
1629045774.203, 89, 0, 4230.256, 4218.462, 4174.359, 4149.231, 4235.385, 450, 0, []
1629045774.2109, 90, 0, 4234.359, 4217.436, 4160, 4157.949, 4242.564, 450, 0, []
1629045774.2189, 91, 0, 4215.385, 4197.436, 4168.205, 4144.103, 4229.744, 16225, 0, []
1629045774.2268, 92, 0, 4215.385, 4196.923, 4140.513, 4141.538, 4228.205, 450, 0, []
1629045774.2348, 93, 0, 4233.333, 4211.795, 4164.103, 4158.974, 4240, 450, 0, []
1629045774.2426, 94, 0, 4238.462, 4218.974, 4168.718, 4156.923, 4241.538, 450, 0, []
1629045774.2506, 95, 0, 4232.821, 4217.436, 4133.846, 4144.615, 4234.359, 16225, 0, []
1629045774.2585, 96, 0, 4243.077, 4214.872, 4175.897, 4156.923, 4237.436, 450, 0, []
1629045774.2663, 97, 0, 4263.077, 4205.128, 4170.769, 4176.923, 4255.897, 450, 0, []
1629045774.2742, 98, 0, 4266.154, 4192.308, 4158.462, 4175.897, 4272.821, 450, 0, []
1629045774.2819, 99, 0, 4258.462, 4199.487, 4157.436, 4157.436, 4274.359, 16225, 0, []
1629045774.2898, 100, 0, 4253.333, 4215.385, 4147.692, 4145.128, 4264.615, 450, 0, []
1629045774.2976, 101, 0, 4263.59, 4209.231, 4186.154, 4146.154, 4270.256, 450, 0, []
1629045774.3055, 102, 0, 4287.179, 4210.256, 4168.205, 4149.744, 4294.872, 450, 0, []
1629045774.3133, 103, 0, 4305.128, 4223.59, 4168.718, 4169.744, 4307.692, 16225, 0, []
1629045774.3211, 104, 0, 4320.513, 4227.692, 4193.333, 4194.872, 4308.718, 450, 0, []
1629045774.3289, 105, 0, 4336.41, 4229.744, 4178.462, 4196.41, 4309.744, 450, 0, []
1629045774.3368, 106, 0, 4328.718, 4221.538, 4196.41, 4180.513, 4292.308, 450, 0, []
1629045774.3446, 107, 0, 4295.897, 4210.769, 4157.949, 4156.923, 4254.359, 16225, 0, []
1629045774.3526, 108, 0, 4274.359, 4214.359, 4143.59, 4137.949, 4229.744, 450, 0, []
1629045774.3604, 109, 0, 4275.385, 4219.487, 4173.846, 4128.718, 4229.744, 450, 0, []
1629045774.3684, 110, 0, 4274.872, 4228.205, 4152.821, 4123.077, 4233.333, 450, 0, []
1629045774.3763, 111, 0, 4266.154, 4244.615, 4173.333, 4115.897, 4234.359, 16225, 0, []
1629045774.3843, 112, 0, 4259.487, 4238.974, 4169.231, 4103.59, 4230.256, 450, 0, []
1629045774.3922, 113, 0, 4254.872, 4225.641, 4169.744, 4115.897, 4219.487, 450, 0, []
1629045774.4001, 114, 0, 4251.795, 4227.179, 4203.59, 4151.282, 4217.436, 450, 0, []
1629045774.408, 115, 0, 4253.333, 4218.462, 4185.128, 4175.897, 4233.333, 16225, 0, []
1629045774.4158, 116, 0, 4261.026, 4204.615, 4212.308, 4198.974, 4251.282, 450, 0, []
1629045774.4237, 117, 0, 4265.641, 4202.051, 4215.385, 4210.256, 4256.41, 450, 0, []
1629045774.4315, 118, 0, 4263.077, 4215.897, 4198.462, 4202.051, 4251.282, 450, 0, []
1629045774.4393, 119, 0, 4250.256, 4235.385, 4207.692, 4189.744, 4236.41, 16225, 0, []
1629045774.4471, 120, 0, 4223.077, 4229.744, 4153.846, 4166.667, 4206.154, 450, 0, []
1629045774.455, 121, 0, 4197.436, 4208.205, 4152.308, 4147.179, 4175.897, 450, 0, []
1629045774.4628, 122, 0, 4194.872, 4218.974, 4160.513, 4149.744, 4184.615, 450, 0, []
1629045774.4707, 123, 0, 4209.231, 4226.154, 4151.282, 4153.846, 4212.308, 16225, 0, []
1629045774.4784, 124, 0, 4214.872, 4187.692, 4181.026, 4140.513, 4214.359, 450, 0, []
1629045774.4863, 125, 0, 4209.744, 4171.795, 4154.872, 4136.41, 4200, 450, 0, []
1629045774.4941, 126, 0, 4197.436, 4184.103, 4161.538, 4143.59, 4187.179, 450, 0, []
1629045774.5021, 127, 0, 4191.282, 4184.103, 4166.667, 4131.795, 4177.949, 16225, 0, []
1629045774.51, 128, 0, 4211.795, 4198.974, 4157.949, 4143.59, 4195.897, 450, 0, []
1629045774.518, 0, 0, 4241.026, 4234.359, 4205.641, 4190.256, 4234.872, 450, 0, []
1629045774.5258, 1, 0, 4243.077, 4246.154, 4188.205, 4200, 4246.154, 450, 0, []
1629045774.5338, 2, 0, 4227.179, 4231.795, 4183.077, 4185.641, 4223.59, 16195, 0, []
1629045774.5417, 3, 0, 4229.744, 4234.359, 4197.436, 4199.487, 4220, 450, 0, []
1629045774.5497, 4, 0, 4244.615, 4254.359, 4180.513, 4221.538, 4242.564, 16161, 0, []
1629045774.5576, 5, 0, 4252.821, 4272.821, 4209.231, 4234.359, 4252.821, 450, 0, []
1629045774.5654, 6, 0, 4252.821, 4273.333, 4194.359, 4233.333, 4236.923, 316, 0, []
1629045774.5733, 7, 0, 4243.077, 4265.128, 4192.821, 4216.41, 4221.538, 450, 0, []
1629045774.5812, 8, 0, 4244.103, 4271.795, 4210.769, 4209.744, 4238.462, 450, 0, []
1629045774.5892, 9, 0, 4256.41, 4273.333, 4195.385, 4228.718, 4259.487, 16147, 0, []
1629045774.597, 10, 0, 4235.385, 4246.154, 4203.077, 4215.897, 4232.308, 450, 0, []
1629045774.6048, 11, 0, 4218.462, 4229.744, 4169.231, 4181.538, 4215.385, 16207, 0, []
1629045774.6126, 12, 0, 4280, 4259.487, 4191.282, 4216.923, 4273.333, 450, 0, []
1629045774.6205, 13, 0, 4359.487, 4289.744, 4234.359, 4262.564, 4332.308, 450, 0, []
1629045774.6283, 14, 0, 4410.769, 4305.641, 4207.179, 4252.308, 4360, 450, 0, []
1629045774.6362, 15, 0, 4476.41, 4328.205, 4246.667, 4256.41, 4412.308, 16207, 0, []
1629045774.6439, 16, 0, 4531.795, 4324.103, 4243.077, 4263.59, 4457.436, 0, 0, []
1629045774.6519, 17, 0, 4531.282, 4278.462, 4207.692, 4241.026, 4451.282, 0, 0, []
1629045774.6598, 18, 0, 4523.077, 4258.462, 4214.872, 4231.282, 4443.59, 0, 0, []
1629045774.6678, 19, 0, 4514.872, 4283.077, 4179.487, 4231.795, 4446.667, 0, 0, []
1629045774.6757, 20, 0, 4478.974, 4284.615, 4189.231, 4223.077, 4425.641, 0, 0, []
1629045774.6836, 21, 0, 4451.282, 4266.154, 4193.846, 4226.667, 4412.821, 0, 0, []
1629045774.6915, 22, 0, 4445.128, 4268.718, 4185.128, 4231.282, 4412.821, 0, 0, []
1629045774.6995, 23, 0, 4417.949, 4272.308, 4192.821, 4209.231, 4384.103, 0, 0, []
1629045774.7074, 24, 0, 4371.795, 4250.769, 4152.308, 4185.128, 4339.487, 0, 0, []
1629045774.7154, 25, 0, 4366.667, 4258.462, 4195.897, 4209.744, 4338.462, 0, 0, []
1629045774.7232, 26, 0, 4391.795, 4295.385, 4240, 4253.333, 4365.641, 0, 0, []
1629045774.731, 27, 0, 4379.487, 4289.231, 4228.718, 4264.103, 4361.538, 0, 0, []
1629045774.7389, 28, 0, 4345.128, 4267.179, 4245.641, 4257.436, 4341.026, 0, 0, []
1629045774.7467, 29, 0, 4328.718, 4272.821, 4218.974, 4257.436, 4332.308, 0, 0, []
1629045774.7546, 30, 0, 4315.385, 4267.179, 4233.846, 4260, 4315.385, 0, 0, []
1629045774.7623, 31, 0, 4292.821, 4249.231, 4234.872, 4237.949, 4286.667, 0, 0, []
1629045774.7702, 32, 0, 4274.872, 4247.692, 4193.333, 4210.256, 4272.821, 0, 0, []
1629045774.778, 33, 0, 4265.128, 4244.615, 4208.718, 4211.795, 4276.41, 0, 0, []
1629045774.786, 34, 0, 4263.077, 4245.641, 4202.051, 4224.103, 4281.026, 0, 0, []
1629045774.7939, 35, 0, 4262.051, 4257.436, 4223.59, 4232.308, 4273.846, 0, 0, []
1629045774.8018, 36, 0, 4257.436, 4260, 4229.744, 4236.923, 4269.231, 0, 0, []
1629045774.8097, 37, 0, 4247.179, 4246.154, 4189.231, 4234.359, 4271.795, 0, 0, []
1629045774.8177, 38, 0, 4237.436, 4242.051, 4201.538, 4224.103, 4259.487, 0, 0, []
1629045774.8256, 39, 0, 4234.872, 4262.564, 4181.538, 4211.282, 4241.538, 0, 0, []
1629045774.8336, 40, 0, 4236.41, 4263.59, 4190.769, 4213.846, 4244.103, 0, 0, []
1629045774.8414, 41, 0, 4232.308, 4234.359, 4204.103, 4224.103, 4247.179, 0, 0, []
1629045774.8494, 42, 0, 4218.974, 4228.718, 4166.154, 4225.128, 4234.359, 0, 0, []
1629045774.8573, 43, 0, 4206.667, 4248.718, 4190.256, 4216.41, 4224.615, 0, 0, []
1629045774.8653, 44, 0, 4201.538, 4255.385, 4182.051, 4200, 4219.487, 0, 0, []
1629045774.8732, 45, 0, 4188.718, 4245.641, 4175.897, 4192.821, 4198.974, 0, 0, []
1629045774.8809, 46, 0, 4180.513, 4236.923, 4190.256, 4192.308, 4190.769, 0, 0, []
1629045774.8888, 47, 0, 4190.256, 4234.872, 4165.641, 4197.436, 4210.769, 0, 0, []
1629045774.8966, 48, 0, 4189.231, 4242.051, 4189.231, 4210.256, 4217.436, 0, 0, []
1629045774.9045, 49, 0, 4175.385, 4242.051, 4174.872, 4207.179, 4204.615, 0, 0, []
1629045774.9123, 50, 0, 4183.077, 4225.641, 4180.513, 4207.692, 4212.308, 0, 0, []
1629045774.9201, 51, 0, 4212.308, 4231.282, 4231.282, 4231.282, 4237.949, 0, 0, []
1629045774.9279, 52, 0, 4223.59, 4255.385, 4212.308, 4243.077, 4241.026, 0, 0, []
1629045774.9358, 53, 0, 4211.282, 4244.615, 4221.538, 4236.41, 4230.256, 0, 0, []
1629045774.9436, 54, 0, 4207.692, 4227.692, 4208.205, 4238.462, 4236.41, 0, 0, []
1629045774.9516, 55, 0, 4214.872, 4228.205, 4190.256, 4248.205, 4237.436, 0, 0, []
1629045774.9594, 56, 0, 4202.564, 4220.513, 4213.846, 4237.949, 4217.436, 0, 0, []
1629045774.9674, 57, 0, 4188.205, 4216.41, 4197.436, 4228.205, 4218.462, 0, 0, []
1629045774.9753, 58, 0, 4205.128, 4224.103, 4222.051, 4242.051, 4242.051, 0, 0, []
1629045774.9833, 59, 0, 4211.795, 4223.077, 4208.718, 4231.282, 4240, 0, 0, []
1629045774.9912, 60, 0, 4185.641, 4218.974, 4171.282, 4200.513, 4214.359, 0, 0, []
1629045774.9991, 61, 0, 4181.538, 4224.103, 4200.513, 4200, 4211.795, 0, 0, []
1629045775.007, 62, 0, 4197.436, 4218.974, 4184.615, 4209.744, 4222.564, 0, 0, []
1629045775.015, 63, 0, 4192.308, 4210.256, 4194.359, 4214.359, 4215.897, 0, 0, []
1629045775.0229, 64, 0, 4185.128, 4211.795, 4195.897, 4219.487, 4207.179, 450, 0, []
1629045775.0307, 65, 0, 4182.051, 4209.744, 4166.154, 4207.179, 4204.103, 450, 0, []
1629045775.0385, 66, 0, 4168.205, 4213.846, 4188.205, 4187.692, 4189.744, 16190, 0, []
1629045775.0463, 67, 0, 4161.538, 4225.641, 4180, 4188.718, 4174.359, 450, 0, []
1629045775.0542, 68, 0, 4163.59, 4218.462, 4198.974, 4194.872, 4171.282, 16157, 0, []
1629045775.062, 69, 0, 4159.487, 4205.128, 4203.077, 4180.513, 4164.615, 450, 0, []
1629045775.0699, 70, 0, 4146.154, 4201.538, 4167.692, 4165.641, 4149.231, 314, 0, []
1629045775.0776, 71, 0, 4132.821, 4189.744, 4190.256, 4177.436, 4143.077, 450, 0, []
1629045775.0855, 72, 0, 4137.949, 4182.051, 4168.718, 4195.385, 4151.282, 450, 0, []
1629045775.0933, 73, 0, 4155.385, 4193.846, 4176.41, 4206.154, 4163.077, 16148, 0, []
1629045775.1013, 74, 0, 4146.667, 4192.821, 4187.179, 4194.359, 4158.974, 450, 0, []
1629045775.1092, 75, 0, 4118.462, 4174.359, 4132.821, 4158.462, 4136.923, 16203, 0, []
1629045775.1171, 76, 0, 4115.897, 4174.872, 4152.821, 4141.538, 4129.744, 450, 0, []
1629045775.125, 77, 0, 4127.179, 4191.282, 4158.974, 4152.308, 4143.59, 450, 0, []
1629045775.133, 78, 0, 4134.359, 4196.923, 4170.256, 4174.872, 4152.821, 450, 0, []
1629045775.1409, 79, 0, 4148.205, 4200.513, 4200, 4193.333, 4157.436, 16203, 0, []
1629045775.1489, 80, 0, 4153.333, 4209.231, 4173.846, 4194.359, 4158.974, 450, 0, []
1629045775.1567, 81, 0, 4143.59, 4200, 4187.692, 4190.769, 4152.821, 450, 0, []
1629045775.1647, 82, 0, 4141.026, 4188.718, 4174.359, 4192.821, 4157.949, 450, 0, []
1629045775.1726, 83, 0, 4142.051, 4193.846, 4163.077, 4191.795, 4160.513, 16203, 0, []
1629045775.1804, 84, 0, 4124.103, 4175.385, 4169.744, 4169.744, 4140.513, 450, 0, []
1629045775.1883, 85, 0, 4117.436, 4148.205, 4146.667, 4163.077, 4134.359, 450, 0, []
1629045775.196, 86, 0, 4148.718, 4157.436, 4200.513, 4204.615, 4164.103, 450, 0, []
1629045775.2039, 87, 0, 4161.026, 4167.179, 4194.872, 4217.949, 4176.41, 16203, 0, []
1629045775.2117, 88, 0, 4129.744, 4166.154, 4144.103, 4181.026, 4147.179, 450, 0, []
1629045775.2196, 89, 0, 4117.436, 4182.051, 4162.564, 4167.692, 4130.769, 450, 0, []
1629045775.2274, 90, 0, 4138.462, 4183.59, 4157.949, 4185.641, 4151.282, 450, 0, []
1629045775.2352, 91, 0, 4142.051, 4165.641, 4176.41, 4194.359, 4160, 16203, 0, []
1629045775.243, 92, 0, 4130.256, 4180, 4165.641, 4177.949, 4148.718, 450, 0, []
1629045775.251, 93, 0, 4131.795, 4201.026, 4151.282, 4167.692, 4148.718, 450, 0, []
1629045775.2589, 94, 0, 4136.41, 4188.205, 4186.154, 4175.897, 4149.231, 450, 0, []
1629045775.2669, 95, 0, 4144.103, 4175.897, 4161.538, 4182.051, 4150.256, 16203, 0, []
1629045775.2748, 96, 0, 4148.205, 4173.846, 4167.692, 4183.077, 4154.359, 450, 0, []
1629045775.2827, 97, 0, 4144.103, 4172.821, 4164.103, 4178.974, 4151.795, 450, 0, []
1629045775.2906, 98, 0, 4146.154, 4173.333, 4136.923, 4177.436, 4148.205, 450, 0, []
1629045775.2986, 99, 0, 4150.769, 4172.821, 4164.615, 4174.359, 4147.692, 16203, 0, []
1629045775.3065, 100, 0, 4150.256, 4182.051, 4146.154, 4160, 4146.154, 450, 0, []
1629045775.3145, 101, 0, 4157.949, 4189.231, 4161.026, 4165.128, 4155.897, 450, 0, []
