Timestamp, COUNTER, INTERPOLATED, AF3, T7, Pz, T8, AF4, RAW_CQ, MARKER_HARDWARE, MARKERS
1629739946.5821, 36, 0, 4161.538, 4203.59, 4124.615, 4136.41, 4159.487, 0, 0, []
1629739946.5901, 37, 0, 4200.513, 4210.256, 4107.692, 4133.846, 4190.256, 0, 0, []
1629739946.5979, 38, 0, 4217.436, 4190.769, 4122.051, 4126.154, 4208.205, 0, 0, []
1629739946.6059, 39, 0, 4199.487, 4173.333, 4120, 4115.385, 4200, 0, 0, []
1629739946.6138, 40, 0, 4223.077, 4204.615, 4092.821, 4118.974, 4224.615, 0, 0, []
1629739946.6218, 41, 0, 4295.897, 4223.077, 4129.231, 4125.128, 4274.872, 0, 0, []
1629739946.6297, 42, 0, 4336.923, 4214.872, 4124.103, 4117.949, 4305.641, 0, 0, []
1629739946.6376, 43, 0, 4328.718, 4221.026, 4121.026, 4104.103, 4310.769, 0, 0, []
1629739946.6455, 44, 0, 4316.41, 4225.128, 4138.462, 4097.949, 4308.718, 0, 0, []
1629739946.6534, 45, 0, 4309.231, 4209.744, 4122.564, 4109.744, 4312.308, 0, 0, []
1629739946.6613, 46, 0, 4309.744, 4209.744, 4142.564, 4130.769, 4311.795, 0, 0, []
1629739946.6691, 47, 0, 4319.487, 4221.538, 4127.692, 4133.333, 4296.923, 0, 0, []
1629739946.6769, 48, 0, 4300.513, 4200, 4109.744, 4113.333, 4266.154, 0, 0, []
1629739946.6847, 49, 0, 4263.59, 4171.282, 4115.897, 4096.41, 4232.308, 0, 0, []
1629739946.6926, 50, 0, 4254.872, 4180.513, 4107.179, 4102.564, 4221.538, 0, 0, []
1629739946.7004, 51, 0, 4257.949, 4188.205, 4141.538, 4111.282, 4218.974, 0, 0, []
1629739946.7083, 52, 0, 4251.795, 4178.974, 4129.744, 4108.718, 4206.667, 0, 0, []
1629739946.716, 53, 0, 4249.744, 4193.846, 4130.256, 4119.487, 4203.59, 0, 0, []
1629739946.7239, 54, 0, 4253.333, 4220, 4177.949, 4146.667, 4217.436, 0, 0, []
1629739946.7317, 55, 0, 4251.282, 4213.846, 4145.641, 4157.949, 4226.154, 0, 0, []
1629739946.7397, 56, 0, 4249.744, 4192.821, 4127.692, 4149.231, 4223.077, 0, 0, []
1629739946.7476, 57, 0, 4260.513, 4169.744, 4140.513, 4143.59, 4227.692, 0, 0, []
1629739946.7556, 58, 0, 4266.667, 4167.179, 4158.462, 4133.846, 4233.333, 0, 0, []
1629739946.7634, 59, 0, 4262.051, 4201.026, 4163.077, 4107.179, 4230.256, 0, 0, []
1629739946.7714, 60, 0, 4265.128, 4215.385, 4115.385, 4093.846, 4231.282, 0, 0, []
1629739946.7793, 61, 0, 4267.179, 4204.615, 4128.205, 4115.385, 4232.821, 0, 0, []
1629739946.7873, 62, 0, 4265.128, 4221.026, 4140, 4143.59, 4233.333, 0, 0, []
1629739946.7952, 63, 0, 4271.282, 4223.077, 4133.333, 4161.538, 4237.949, 0, 0, []
1629739946.8031, 64, 0, 4271.795, 4182.051, 4163.59, 4171.795, 4240, 450, 0, []
1629739946.811, 65, 0, 4276.41, 4185.128, 4148.718, 4166.667, 4251.282, 450, 0, []
1629739946.8188, 66, 0, 4296.923, 4230.256, 4167.692, 4161.026, 4272.821, 16192, 0, []
1629739946.8267, 67, 0, 4306.667, 4212.308, 4170.769, 4158.974, 4275.385, 450, 0, []
1629739946.8345, 68, 0, 4302.564, 4183.59, 4133.846, 4148.718, 4265.128, 16072, 0, []
1629739946.8423, 69, 0, 4307.692, 4216.923, 4158.974, 4144.615, 4269.231, 450, 0, []
1629739946.8501, 70, 0, 4309.231, 4228.205, 4146.154, 4154.872, 4273.846, 16096, 0, []
1629739946.858, 71, 0, 4291.795, 4187.692, 4132.308, 4156.41, 4268.718, 450, 0, []
1629739946.8658, 72, 0, 4280, 4183.59, 4129.744, 4143.077, 4266.154, 450, 0, []
1629739946.8737, 73, 0, 4279.487, 4197.949, 4107.692, 4132.821, 4259.487, 16174, 0, []
1629739946.8814, 74, 0, 4284.615, 4196.41, 4140.513, 4140, 4258.974, 450, 0, []
1629739946.8894, 75, 0, 4303.077, 4227.179, 4150.256, 4152.821, 4283.077, 16201, 0, []
1629739946.8973, 76, 0, 4308.205, 4226.667, 4158.974, 4150.256, 4294.872, 450, 0, []
1629739946.9053, 77, 0, 4292.821, 4189.744, 4170.769, 4144.103, 4285.641, 450, 0, []
1629739946.9132, 78, 0, 4286.667, 4213.333, 4154.359, 4159.487, 4287.692, 450, 0, []
1629739946.9211, 79, 0, 4283.077, 4225.641, 4175.897, 4174.359, 4287.179, 16201, 0, []
1629739946.929, 80, 0, 4276.923, 4191.795, 4156.41, 4165.641, 4275.385, 450, 0, []
1629739946.937, 81, 0, 4273.333, 4213.846, 4137.436, 4152.821, 4265.128, 450, 0, []
1629739946.9449, 82, 0, 4256.923, 4246.154, 4137.949, 4140.513, 4253.333, 450, 0, []
1629739946.9529, 83, 0, 4250.769, 4207.692, 4113.333, 4130.769, 4253.333, 16201, 0, []
1629739946.9607, 84, 0, 4277.949, 4200.513, 4143.077, 4146.154, 4275.897, 450, 0, []
1629739946.9687, 85, 0, 4303.077, 4251.282, 4144.615, 4170.256, 4298.462, 450, 0, []
1629739946.9766, 86, 0, 4295.385, 4242.564, 4138.974, 4172.821, 4291.795, 450, 0, []
1629739946.9844, 87, 0, 4278.974, 4192.821, 4155.385, 4166.154, 4271.795, 16201, 0, []
1629739946.9923, 88, 0, 4276.923, 4201.538, 4131.795, 4167.179, 4272.308, 450, 0, []
1629739947, 89, 0, 4277.436, 4243.59, 4148.718, 4163.59, 4283.077, 450, 0, []
1629739947.0079, 90, 0, 4268.205, 4251.795, 4138.974, 4154.359, 4272.308, 450, 0, []
1629739947.0157, 91, 0, 4252.308, 4228.205, 4118.462, 4150.256, 4251.795, 16201, 0, []
1629739947.0236, 92, 0, 4260.513, 4223.59, 4140, 4154.359, 4257.436, 450, 0, []
1629739947.0314, 93, 0, 4283.59, 4227.692, 4116.923, 4157.949, 4274.359, 450, 0, []
1629739947.0392, 94, 0, 4277.949, 4204.615, 4130.769, 4156.41, 4272.308, 450, 0, []
1629739947.047, 95, 0, 4265.641, 4204.103, 4144.615, 4155.385, 4275.897, 16201, 0, []
1629739947.055, 96, 0, 4272.308, 4220.513, 4138.974, 4159.487, 4288.718, 450, 0, []
1629739947.0629, 97, 0, 4273.846, 4203.077, 4158.974, 4161.026, 4286.154, 450, 0, []
1629739947.0709, 98, 0, 4263.077, 4200.513, 4121.538, 4148.718, 4269.744, 450, 0, []
1629739947.0788, 99, 0, 4265.641, 4227.692, 4121.026, 4140.513, 4264.615, 16201, 0, []
1629739947.0867, 100, 0, 4282.051, 4224.615, 4137.436, 4146.667, 4280, 450, 0, []
1629739947.0946, 101, 0, 4295.897, 4209.744, 4127.692, 4157.436, 4305.128, 450, 0, []
1629739947.1026, 102, 0, 4307.692, 4215.385, 4149.744, 4158.462, 4321.538, 450, 0, []
1629739947.1105, 103, 0, 4325.128, 4211.795, 4129.231, 4152.821, 4332.821, 16201, 0, []
1629739947.1185, 104, 0, 4358.974, 4213.846, 4132.821, 4161.026, 4365.641, 450, 0, []
1629739947.1263, 105, 0, 4401.538, 4229.231, 4147.179, 4174.872, 4412.308, 450, 0, []
1629739947.1341, 106, 0, 4423.077, 4207.179, 4123.077, 4169.231, 4439.487, 450, 0, []
1629739947.142, 107, 0, 4429.744, 4191.282, 4136.41, 4152.308, 4456.923, 16201, 0, []
1629739947.1498, 108, 0, 4454.872, 4229.231, 4127.692, 4150.769, 4491.282, 450, 0, []
1629739947.1577, 109, 0, 4482.564, 4244.615, 4131.795, 4164.615, 4524.615, 450, 0, []
1629739947.1654, 110, 0, 4488.205, 4220.513, 4137.436, 4172.821, 4530.769, 450, 0, []
1629739947.1733, 111, 0, 4480.513, 4222.564, 4113.846, 4171.282, 4526.154, 16201, 0, []
1629739947.1811, 112, 0, 4459.487, 4242.564, 4138.974, 4168.718, 4510.769, 450, 0, []
1629739947.1891, 113, 0, 4418.974, 4248.718, 4131.282, 4171.795, 4470.256, 450, 0, []
1629739947.197, 114, 0, 4357.436, 4231.282, 4124.103, 4168.205, 4414.359, 450, 0, []
1629739947.2049, 115, 0, 4294.359, 4207.179, 4129.744, 4157.949, 4365.128, 16201, 0, []
1629739947.2128, 116, 0, 4252.821, 4221.538, 4100, 4149.744, 4317.436, 450, 0, []
1629739947.2208, 117, 0, 4221.026, 4236.41, 4120.513, 4144.103, 4267.179, 450, 0, []
1629739947.2287, 118, 0, 4187.692, 4205.128, 4113.333, 4135.385, 4241.026, 450, 0, []
1629739947.2367, 119, 0, 4164.615, 4196.41, 4104.103, 4135.897, 4237.436, 16201, 0, []
1629739947.2445, 120, 0, 4157.949, 4221.026, 4126.154, 4152.821, 4226.667, 450, 0, []
1629739947.2525, 121, 0, 4150.256, 4202.564, 4097.436, 4146.667, 4198.974, 450, 0, []
1629739947.2604, 122, 0, 4130.769, 4176.41, 4096.923, 4119.487, 4173.333, 450, 0, []
1629739947.2682, 123, 0, 4131.282, 4208.718, 4101.538, 4129.231, 4181.538, 16201, 0, []
1629739947.2761, 124, 0, 4148.718, 4229.744, 4110.256, 4164.615, 4201.538, 450, 0, []
1629739947.2838, 125, 0, 4136.41, 4190.769, 4122.564, 4155.385, 4189.231, 450, 0, []
1629739947.2917, 126, 0, 4119.487, 4182.564, 4088.718, 4129.744, 4179.487, 450, 0, []
1629739947.2995, 127, 0, 4133.846, 4223.077, 4120, 4147.692, 4193.846, 16201, 0, []
1629739947.3074, 128, 0, 4138.974, 4220, 4136.923, 4157.949, 4191.795, 450, 0, []
1629739947.3152, 0, 0, 4129.231, 4200, 4107.179, 4141.026, 4176.41, 450, 0, []
1629739947.323, 1, 0, 4142.051, 4217.436, 4126.154, 4148.205, 4184.103, 450, 0, []
1629739947.3308, 2, 0, 4153.333, 4223.077, 4113.846, 4167.179, 4194.359, 16194, 0, []
1629739947.3388, 3, 0, 4135.897, 4204.615, 4108.718, 4153.846, 4179.487, 450, 0, []
1629739947.3467, 4, 0, 4125.128, 4202.564, 4098.974, 4138.462, 4165.128, 16112, 0, []
1629739947.3547, 5, 0, 4113.333, 4198.974, 4082.564, 4142.564, 4147.692, 450, 0, []
1629739947.3625, 6, 0, 4085.128, 4188.718, 4103.077, 4126.667, 4125.128, 16138, 0, []
1629739947.3705, 7, 0, 4090.769, 4212.821, 4077.949, 4109.744, 4128.718, 450, 0, []
1629739947.3784, 8, 0, 4113.846, 4227.179, 4092.308, 4131.282, 4139.487, 450, 0, []
1629739947.3864, 9, 0, 4105.128, 4217.949, 4116.41, 4147.692, 4133.333, 16174, 0, []
1629739947.3943, 10, 0, 4089.231, 4233.846, 4088.205, 4130.769, 4126.154, 450, 0, []
1629739947.4022, 11, 0, 4095.897, 4250.256, 4108.718, 4128.718, 4123.077, 16202, 0, []
1629739947.4101, 12, 0, 4106.154, 4232.821, 4107.692, 4142.564, 4123.077, 450, 0, []
1629739947.4181, 13, 0, 4105.128, 4217.436, 4111.795, 4142.564, 4130.769, 450, 0, []
1629739947.426, 14, 0, 4105.128, 4227.692, 4121.026, 4137.436, 4130.769, 450, 0, []
1629739947.434, 15, 0, 4106.667, 4227.179, 4094.872, 4128.718, 4123.59, 16202, 0, []
1629739947.4419, 16, 0, 4102.051, 4218.974, 4116.41, 4122.564, 4115.897, 0, 0, []
1629739947.4496, 17, 0, 4095.385, 4217.436, 4105.641, 4121.026, 4098.974, 0, 0, []
1629739947.4575, 18, 0, 4087.179, 4221.538, 4093.333, 4109.744, 4090.256, 0, 0, []
1629739947.4653, 19, 0, 4079.487, 4222.051, 4103.59, 4090.769, 4090.256, 0, 0, []
1629739947.4732, 20, 0, 4084.103, 4205.128, 4085.641, 4091.795, 4096.41, 0, 0, []
1629739947.481, 21, 0, 4100, 4212.821, 4115.897, 4113.333, 4120.513, 0, 0, []
1629739947.4888, 22, 0, 4109.744, 4244.103, 4112.821, 4123.077, 4136.923, 0, 0, []
1629739947.4966, 23, 0, 4111.795, 4227.692, 4104.103, 4120, 4127.179, 0, 0, []
1629739947.5045, 24, 0, 4113.333, 4196.923, 4128.718, 4127.179, 4125.128, 0, 0, []
1629739947.5124, 25, 0, 4116.923, 4220, 4105.128, 4134.359, 4136.41, 0, 0, []
1629739947.5204, 26, 0, 4117.949, 4235.897, 4120, 4134.359, 4133.846, 0, 0, []
1629739947.5283, 27, 0, 4116.41, 4221.026, 4118.974, 4132.821, 4129.744, 0, 0, []
1629739947.5362, 28, 0, 4106.154, 4217.436, 4090.769, 4131.795, 4122.051, 0, 0, []
1629739947.5441, 29, 0, 4096.923, 4233.333, 4100, 4125.128, 4105.128, 0, 0, []
1629739947.5521, 30, 0, 4102.564, 4248.205, 4087.692, 4118.462, 4108.205, 0, 0, []
1629739947.56, 31, 0, 4116.923, 4231.795, 4103.077, 4130.256, 4127.692, 0, 0, []
1629739947.5679, 32, 0, 4129.231, 4221.538, 4105.128, 4148.205, 4141.026, 0, 0, []
1629739947.5758, 33, 0, 4122.051, 4250.256, 4097.436, 4145.641, 4141.026, 0, 0, []
1629739947.5836, 34, 0, 4104.615, 4245.128, 4117.436, 4136.923, 4132.308, 0, 0, []
1629739947.5915, 35, 0, 4103.59, 4206.154, 4091.795, 4136.41, 4117.436, 0, 0, []
1629739947.5993, 36, 0, 4104.103, 4206.154, 4103.077, 4126.667, 4109.231, 0, 0, []
1629739947.6071, 37, 0, 4102.564, 4222.051, 4107.692, 4117.949, 4116.923, 0, 0, []
1629739947.6149, 38, 0, 4120, 4226.667, 4093.333, 4135.897, 4131.795, 0, 0, []
1629739947.6228, 39, 0, 4130.256, 4242.051, 4122.051, 4142.564, 4135.897, 0, 0, []
1629739947.6306, 40, 0, 4123.59, 4247.692, 4100.513, 4127.692, 4134.359, 0, 0, []
1629739947.6385, 41, 0, 4127.179, 4220.513, 4107.692, 4136.923, 4139.487, 0, 0, []
1629739947.6462, 42, 0, 4138.462, 4226.154, 4130.256, 4154.872, 4150.769, 0, 0, []
1629739947.6542, 43, 0, 4133.333, 4260.513, 4109.231, 4148.205, 4153.333, 0, 0, []
1629739947.6621, 44, 0, 4130.256, 4245.641, 4121.026, 4136.41, 4148.205, 0, 0, []
1629739947.6701, 45, 0, 4142.051, 4221.026, 4110.256, 4134.872, 4152.821, 0, 0, []
1629739947.678, 46, 0, 4140.513, 4233.846, 4118.974, 4132.821, 4156.923, 0, 0, []
1629739947.6859, 47, 0, 4136.923, 4257.436, 4131.795, 4135.897, 4152.821, 0, 0, []
1629739947.6938, 48, 0, 4142.564, 4257.436, 4106.667, 4150.769, 4150.769, 0, 0, []
1629739947.7018, 49, 0, 4140, 4246.154, 4130.256, 4159.487, 4146.667, 0, 0, []
1629739947.7097, 50, 0, 4134.359, 4251.282, 4122.564, 4152.821, 4141.538, 0, 0, []
1629739947.7177, 51, 0, 4136.41, 4262.564, 4113.846, 4141.538, 4142.564, 0, 0, []
1629739947.7255, 52, 0, 4144.615, 4255.385, 4139.487, 4145.128, 4160.513, 0, 0, []
1629739947.7335, 53, 0, 4148.718, 4223.077, 4125.641, 4149.744, 4174.359, 0, 0, []
1629739947.7414, 54, 0, 4143.077, 4213.333, 4129.231, 4143.59, 4160.513, 0, 0, []
1629739947.7492, 55, 0, 4138.974, 4238.462, 4109.231, 4145.641, 4144.615, 0, 0, []
1629739947.7571, 56, 0, 4133.846, 4233.333, 4102.564, 4148.205, 4146.667, 0, 0, []
1629739947.7648, 57, 0, 4129.744, 4208.718, 4124.615, 4145.128, 4153.846, 0, 0, []
1629739947.7727, 58, 0, 4144.103, 4220, 4111.282, 4156.923, 4162.564, 0, 0, []
1629739947.7805, 59, 0, 4155.385, 4251.795, 4136.41, 4168.205, 4173.333, 0, 0, []
1629739947.7884, 60, 0, 4141.026, 4254.359, 4118.462, 4152.308, 4168.718, 0, 0, []
1629739947.7962, 61, 0, 4134.359, 4241.026, 4088.718, 4148.205, 4156.923, 0, 0, []
1629739947.8041, 62, 0, 4142.051, 4245.128, 4114.359, 4162.564, 4151.795, 0, 0, []
1629739947.8118, 63, 0, 4128.205, 4245.641, 4087.179, 4148.205, 4144.615, 0, 0, []
1629739947.8198, 64, 0, 4113.333, 4228.718, 4087.692, 4129.744, 4136.923, 450, 0, []
1629739947.8277, 65, 0, 4135.897, 4222.564, 4103.59, 4146.667, 4150.769, 450, 0, []
1629739947.8356, 66, 0, 4155.897, 4241.538, 4105.641, 4157.949, 4172.821, 16194, 0, []
1629739947.8434, 67, 0, 4149.744, 4250.256, 4127.179, 4146.154, 4178.462, 450, 0, []
1629739947.8513, 68, 0, 4156.41, 4233.333, 4103.59, 4147.692, 4180, 16116, 0, []
1629739947.8592, 69, 0, 4171.282, 4224.103, 4109.231, 4154.359, 4182.051, 450, 0, []
1629739947.8672, 70, 0, 4174.359, 4227.692, 4114.872, 4154.872, 4187.179, 16103, 0, []
1629739947.8751, 71, 0, 4171.282, 4237.436, 4103.59, 4167.692, 4191.282, 450, 0, []
1629739947.8831, 72, 0, 4165.641, 4244.103, 4128.205, 4170.256, 4176.923, 450, 0, []
1629739947.8909, 73, 0, 4158.974, 4241.538, 4102.564, 4149.744, 4162.051, 16174, 0, []
1629739947.8989, 74, 0, 4150.769, 4232.308, 4101.538, 4144.615, 4163.59, 450, 0, []
1629739947.9068, 75, 0, 4152.821, 4231.795, 4114.872, 4154.359, 4171.795, 16202, 0, []
1629739947.9146, 76, 0, 4169.744, 4250.769, 4100, 4157.436, 4177.436, 450, 0, []
1629739947.9225, 77, 0, 4176.41, 4242.051, 4125.641, 4157.436, 4177.949, 450, 0, []
1629739947.9302, 78, 0, 4166.154, 4218.974, 4107.179, 4154.359, 4170.769, 450, 0, []
1629739947.9381, 79, 0, 4165.128, 4235.385, 4100.513, 4154.872, 4170.256, 16202, 0, []
1629739947.9459, 80, 0, 4171.282, 4259.487, 4115.385, 4155.897, 4171.282, 450, 0, []
1629739947.9538, 81, 0, 4169.744, 4248.718, 4096.923, 4149.231, 4168.718, 450, 0, []
1629739947.9616, 82, 0, 4174.359, 4224.103, 4124.615, 4155.385, 4178.974, 450, 0, []
1629739947.9695, 83, 0, 4181.538, 4226.667, 4115.897, 4154.872, 4184.103, 16202, 0, []
1629739947.9774, 84, 0, 4170.769, 4237.949, 4094.359, 4131.282, 4167.692, 450, 0, []
1629739947.9854, 85, 0, 4161.026, 4250.769, 4104.103, 4134.359, 4165.641, 450, 0, []
1629739947.9933, 86, 0, 4163.59, 4249.231, 4090.256, 4155.385, 4176.41, 450, 0, []
1629739948.0013, 87, 0, 4162.564, 4220.513, 4103.077, 4145.128, 4160.513, 16202, 0, []
1629739948.0091, 88, 0, 4167.692, 4233.333, 4095.385, 4132.821, 4156.923, 450, 0, []
1629739948.0171, 89, 0, 4183.077, 4267.692, 4107.179, 4154.872, 4186.154, 450, 0, []
1629739948.025, 90, 0, 4188.205, 4243.077, 4130.256, 4170.256, 4193.333, 450, 0, []
1629739948.033, 91, 0, 4187.692, 4218.974, 4096.41, 4161.026, 4181.026, 16202, 0, []
1629739948.0409, 92, 0, 4183.59, 4247.692, 4113.333, 4153.333, 4178.462, 450, 0, []
1629739948.0488, 93, 0, 4175.897, 4241.538, 4112.308, 4153.333, 4180, 450, 0, []
1629739948.0567, 94, 0, 4179.487, 4202.564, 4096.41, 4155.385, 4178.462, 450, 0, []
1629739948.0645, 95, 0, 4185.641, 4231.795, 4114.872, 4145.641, 4173.846, 16202, 0, []
1629739948.0724, 96, 0, 4174.872, 4261.538, 4092.308, 4133.333, 4163.59, 450, 0, []
1629739948.0802, 97, 0, 4165.128, 4229.744, 4108.205, 4140, 4156.923, 450, 0, []
1629739948.088, 98, 0, 4164.103, 4218.462, 4110.256, 4142.051, 4153.846, 450, 0, []
1629739948.0958, 99, 0, 4164.103, 4237.949, 4093.846, 4136.41, 4157.436, 16202, 0, []
1629739948.1038, 100, 0, 4166.667, 4241.026, 4118.974, 4141.538, 4171.282, 450, 0, []
1629739948.1117, 101, 0, 4164.103, 4237.436, 4097.436, 4137.949, 4167.692, 450, 0, []
1629739948.1196, 102, 0, 4160, 4238.462, 4112.308, 4126.667, 4153.846, 450, 0, []
1629739948.1273, 103, 0, 4171.795, 4234.359, 4133.846, 4131.282, 4165.641, 16202, 0, []
1629739948.1353, 104, 0, 4183.077, 4229.744, 4115.385, 4140.513, 4181.538, 450, 0, []
1629739948.1432, 105, 0, 4182.051, 4226.154, 4122.564, 4144.615, 4176.923, 450, 0, []
1629739948.1512, 106, 0, 4182.051, 4236.41, 4094.359, 4138.462, 4169.744, 450, 0, []
1629739948.1591, 107, 0, 4174.359, 4251.282, 4101.538, 4125.128, 4171.795, 16202, 0, []
1629739948.1671, 108, 0, 4165.641, 4237.436, 4119.487, 4130.256, 4175.897, 450, 0, []
1629739948.1749, 109, 0, 4174.359, 4231.282, 4098.974, 4138.462, 4171.795, 450, 0, []
1629739948.1829, 110, 0, 4178.974, 4246.154, 4121.026, 4123.59, 4164.615, 450, 0, []
1629739948.1908, 111, 0, 4171.282, 4244.103, 4115.897, 4120.513, 4172.308, 16202, 0, []
1629739948.1988, 112, 0, 4161.538, 4227.179, 4115.385, 4137.949, 4175.385, 450, 0, []
1629739948.2067, 113, 0, 4165.641, 4232.308, 4124.615, 4140.513, 4165.128, 450, 0, []
1629739948.2144, 114, 0, 4174.359, 4241.026, 4108.205, 4127.692, 4163.59, 450, 0, []
1629739948.2223, 115, 0, 4180, 4226.667, 4132.821, 4132.821, 4183.59, 16202, 0, []
1629739948.2301, 116, 0, 4193.846, 4222.564, 4125.641, 4149.744, 4207.179, 450, 0, []
1629739948.238, 117, 0, 4203.59, 4240.513, 4124.103, 4157.436, 4206.154, 450, 0, []
1629739948.2458, 118, 0, 4201.538, 4266.154, 4136.41, 4155.385, 4195.897, 450, 0, []
1629739948.2536, 119, 0, 4201.026, 4258.974, 4112.308, 4148.718, 4207.179, 16202, 0, []
1629739948.2614, 120, 0, 4198.462, 4232.821, 4132.308, 4143.077, 4214.872, 450, 0, []
1629739948.2694, 121, 0, 4188.718, 4240.513, 4120, 4140, 4198.462, 450, 0, []
1629739948.2773, 122, 0, 4180, 4232.308, 4105.641, 4134.359, 4186.667, 450, 0, []
1629739948.2853, 123, 0, 4172.308, 4206.667, 4122.564, 4126.154, 4190.256, 16202, 0, []
1629739948.2931, 124, 0, 4169.744, 4227.692, 4098.462, 4128.205, 4187.179, 450, 0, []
1629739948.3011, 125, 0, 4177.949, 4260.513, 4118.974, 4142.564, 4177.436, 450, 0, []
1629739948.309, 126, 0, 4189.744, 4254.359, 4130.256, 4151.282, 4184.103, 450, 0, []
1629739948.317, 127, 0, 4192.308, 4247.179, 4122.051, 4147.179, 4197.436, 16202, 0, []
1629739948.3249, 128, 0, 4177.949, 4243.077, 4123.077, 4130.256, 4185.641, 450, 0, []
1629739948.3328, 0, 0, 4177.949, 4230.256, 4095.385, 4127.692, 4180, 450, 0, []
1629739948.3407, 1, 0, 4209.231, 4252.821, 4143.077, 4154.359, 4206.154, 450, 0, []
1629739948.3485, 2, 0, 4216.41, 4267.692, 4162.051, 4159.487, 4218.974, 16194, 0, []
1629739948.3564, 3, 0, 4188.205, 4243.077, 4115.897, 4136.923, 4198.974, 450, 0, []
1629739948.3642, 4, 0, 4184.615, 4235.897, 4128.205, 4140.513, 4189.744, 16118, 0, []
1629739948.372, 5, 0, 4210.256, 4240.513, 4130.256, 4163.077, 4208.718, 450, 0, []
1629739948.3798, 6, 0, 4214.359, 4234.872, 4139.487, 4164.615, 4224.615, 16097, 0, []
1629739948.3877, 7, 0, 4204.103, 4246.154, 4135.897, 4154.359, 4222.051, 450, 0, []
1629739948.3955, 8, 0, 4211.795, 4260, 4121.538, 4157.436, 4210.769, 450, 0, []
1629739948.4034, 9, 0, 4212.821, 4250.769, 4146.154, 4154.359, 4203.59, 16174, 0, []
1629739948.4111, 10, 0, 4193.846, 4255.385, 4116.41, 4142.051, 4204.103, 450, 0, []
1629739948.4191, 11, 0, 4174.872, 4246.154, 4102.564, 4134.359, 4191.282, 16202, 0, []
1629739948.427, 12, 0, 4170.769, 4214.359, 4114.872, 4127.179, 4172.821, 450, 0, []
1629739948.435, 13, 0, 4180, 4223.59, 4114.872, 4131.282, 4183.077, 450, 0, []
1629739948.4429, 14, 0, 4181.538, 4260.513, 4135.385, 4141.538, 4193.846, 450, 0, []
1629739948.4508, 15, 0, 4169.231, 4262.564, 4102.051, 4133.333, 4177.949, 16202, 0, []
1629739948.4587, 16, 0, 4157.949, 4226.154, 4094.359, 4118.462, 4164.615, 0, 0, []
1629739948.4667, 17, 0, 4167.692, 4225.641, 4107.692, 4120, 4174.872, 0, 0, []
1629739948.4746, 18, 0, 4178.974, 4262.051, 4083.077, 4123.59, 4180.513, 0, 0, []
1629739948.4826, 19, 0, 4173.846, 4246.667, 4108.205, 4118.462, 4176.41, 0, 0, []
1629739948.4904, 20, 0, 4174.359, 4209.744, 4105.641, 4120.513, 4190.256, 0, 0, []
1629739948.4984, 21, 0, 4173.333, 4231.282, 4094.872, 4123.077, 4187.179, 0, 0, []
1629739948.5063, 22, 0, 4158.462, 4245.641, 4097.949, 4110.769, 4152.821, 0, 0, []
1629739948.5142, 23, 0, 4166.667, 4218.974, 4080.513, 4108.205, 4155.897, 0, 0, []
1629739948.5222, 24, 0, 4190.256, 4230.769, 4121.538, 4136.41, 4197.949, 0, 0, []
1629739948.53, 25, 0, 4183.59, 4253.333, 4113.333, 4143.077, 4199.487, 0, 0, []
1629739948.5378, 26, 0, 4167.692, 4221.538, 4088.718, 4117.436, 4172.308, 0, 0, []
1629739948.5456, 27, 0, 4174.872, 4210.769, 4111.795, 4120.513, 4178.462, 0, 0, []
1629739948.5535, 28, 0, 4180, 4233.333, 4089.744, 4142.051, 4193.333, 0, 0, []
1629739948.5613, 29, 0, 4188.718, 4228.205, 4105.641, 4151.795, 4201.026, 0, 0, []
1629739948.5692, 30, 0, 4213.333, 4230.256, 4114.872, 4155.897, 4221.026, 0, 0, []
1629739948.5769, 31, 0, 4212.308, 4236.41, 4104.103, 4152.308, 4226.667, 0, 0, []
1629739948.5848, 32, 0, 4194.359, 4226.154, 4120, 4147.179, 4209.744, 0, 0, []
1629739948.5926, 33, 0, 4194.872, 4237.949, 4098.462, 4146.154, 4195.385, 0, 0, []
1629739948.6006, 34, 0, 4182.564, 4238.462, 4101.538, 4130.769, 4177.436, 0, 0, []
1629739948.6085, 35, 0, 4161.538, 4208.205, 4098.974, 4113.846, 4168.718, 0, 0, []
1629739948.6164, 36, 0, 4168.205, 4209.231, 4093.333, 4123.077, 4180, 0, 0, []
1629739948.6243, 37, 0, 4178.974, 4243.077, 4119.487, 4127.179, 4181.538, 0, 0, []
1629739948.6323, 38, 0, 4175.385, 4252.308, 4100.513, 4118.462, 4180.513, 0, 0, []
1629739948.6402, 39, 0, 4163.59, 4233.846, 4103.077, 4122.051, 4182.564, 0, 0, []
1629739948.6482, 40, 0, 4156.41, 4229.744, 4095.385, 4125.641, 4171.282, 0, 0, []
1629739948.656, 41, 0, 4164.615, 4250.769, 4087.692, 4118.462, 4165.641, 0, 0, []
1629739948.664, 42, 0, 4177.436, 4259.487, 4129.744, 4122.051, 4182.051, 0, 0, []
1629739948.6719, 43, 0, 4186.154, 4248.718, 4101.538, 4137.436, 4193.333, 0, 0, []
1629739948.6797, 44, 0, 4181.538, 4237.949, 4089.231, 4138.974, 4176.923, 0, 0, []
1629739948.6876, 45, 0, 4167.692, 4220.513, 4101.026, 4121.538, 4161.538, 0, 0, []
1629739948.6953, 46, 0, 4161.026, 4218.462, 4083.59, 4116.41, 4171.282, 0, 0, []
1629739948.7032, 47, 0, 4173.333, 4245.128, 4103.59, 4134.359, 4184.103, 0, 0, []
1629739948.711, 48, 0, 4184.103, 4243.077, 4089.744, 4140.513, 4174.359, 0, 0, []
1629739948.7189, 49, 0, 4171.795, 4211.795, 4103.077, 4130.769, 4166.667, 0, 0, []
1629739948.7267, 50, 0, 4177.949, 4212.308, 4130.769, 4133.333, 4188.205, 0, 0, []
1629739948.7345, 51, 0, 4220.513, 4248.718, 4105.641, 4142.564, 4211.282, 0, 0, []
1629739948.7423, 52, 0, 4255.897, 4261.026, 4117.949, 4141.538, 4226.154, 0, 0, []
1629739948.7503, 53, 0, 4277.436, 4233.846, 4111.282, 4139.487, 4255.385, 0, 0, []
1629739948.7582, 54, 0, 4297.949, 4209.231, 4106.667, 4133.846, 4283.077, 0, 0, []
1629739948.7662, 55, 0, 4305.641, 4225.641, 4121.538, 4124.103, 4293.333, 0, 0, []
1629739948.774, 56, 0, 4311.795, 4251.795, 4110.256, 4136.923, 4309.231, 0, 0, []
1629739948.782, 57, 0, 4337.436, 4243.077, 4137.949, 4154.872, 4325.128, 0, 0, []
1629739948.7899, 58, 0, 4357.436, 4243.077, 4125.641, 4141.538, 4328.205, 0, 0, []
1629739948.7979, 59, 0, 4348.205, 4255.897, 4112.821, 4130.769, 4332.308, 0, 0, []
1629739948.8058, 60, 0, 4340, 4230.256, 4137.949, 4145.128, 4334.872, 0, 0, []
1629739948.8136, 61, 0, 4334.359, 4211.282, 4110.256, 4135.385, 4321.026, 0, 0, []
1629739948.8215, 62, 0, 4315.385, 4230.769, 4115.385, 4113.846, 4298.462, 0, 0, []
1629739948.8293, 63, 0, 4309.231, 4229.744, 4122.051, 4131.795, 4290.256, 0, 0, []
1629739948.8372, 64, 0, 4312.308, 4199.487, 4121.538, 4153.333, 4282.051, 450, 0, []
1629739948.845, 65, 0, 4300.513, 4211.795, 4137.436, 4144.103, 4261.538, 450, 0, []
1629739948.8529, 66, 0, 4281.026, 4250.256, 4104.103, 4127.179, 4245.641, 16194, 0, []
1629739948.8606, 67, 0, 4264.615, 4242.051, 4112.821, 4117.949, 4237.436, 450, 0, []
1629739948.8685, 68, 0, 4252.308, 4198.462, 4118.974, 4117.949, 4236.923, 16118, 0, []
1629739948.8763, 69, 0, 4247.692, 4176.41, 4106.154, 4137.436, 4244.103, 450, 0, []
1629739948.8842, 70, 0, 4241.026, 4192.821, 4126.667, 4145.641, 4243.59, 16100, 0, []
1629739948.892, 71, 0, 4228.718, 4215.385, 4103.59, 4122.564, 4228.718, 450, 0, []
1629739948.8999, 72, 0, 4241.538, 4227.179, 4119.487, 4120, 4231.795, 450, 0, []
1629739948.9078, 73, 0, 4267.179, 4231.282, 4141.538, 4143.59, 4254.359, 16174, 0, []
1629739948.9158, 74, 0, 4265.128, 4216.41, 4120.513, 4139.487, 4254.872, 450, 0, []
1629739948.9237, 75, 0, 4252.821, 4203.077, 4132.821, 4125.641, 4240.513, 16201, 0, []
1629739948.9317, 76, 0, 4267.692, 4214.872, 4121.538, 4136.923, 4246.667, 450, 0, []
1629739948.9395, 77, 0, 4292.308, 4220.513, 4135.385, 4155.385, 4263.077, 450, 0, []
1629739948.9475, 78, 0, 4300, 4214.872, 4150.256, 4153.846, 4265.641, 450, 0, []
1629739948.9554, 79, 0, 4296.41, 4217.436, 4136.41, 4138.462, 4255.897, 16201, 0, []
1629739948.9633, 80, 0, 4284.103, 4228.205, 4153.846, 4127.179, 4246.154, 450, 0, []
1629739948.9712, 81, 0, 4274.872, 4234.359, 4130.256, 4134.359, 4248.205, 450, 0, []
1629739948.9789, 82, 0, 4262.051, 4203.59, 4118.974, 4131.795, 4236.41, 450, 0, []
1629739948.9868, 83, 0, 4236.923, 4178.462, 4110.256, 4104.103, 4202.051, 16201, 0, []
1629739948.9946, 84, 0, 4256.923, 4212.308, 4088.205, 4104.615, 4209.744, 450, 0, []
1629739949.0025, 85, 0, 4312.821, 4230.256, 4127.179, 4130.769, 4245.641, 450, 0, []
1629739949.0103, 86, 0, 4330.769, 4207.692, 4116.41, 4129.744, 4242.564, 450, 0, []
1629739949.0181, 87, 0, 4320.513, 4222.051, 4112.821, 4130.769, 4232.308, 16201, 0, []
1629739949.0259, 88, 0, 4334.359, 4244.615, 4143.077, 4153.333, 4256.923, 450, 0, []
1629739949.0338, 89, 0, 4339.487, 4209.744, 4118.974, 4152.308, 4258.462, 450, 0, []
1629739949.0416, 90, 0, 4310.256, 4191.282, 4128.205, 4132.308, 4224.103, 450, 0, []
1629739949.0495, 91, 0, 4298.462, 4216.41, 4121.026, 4128.718, 4219.487, 16201, 0, []
1629739949.0572, 92, 0, 4311.795, 4226.667, 4105.641, 4128.205, 4241.538, 450, 0, []
1629739949.0652, 93, 0, 4313.333, 4233.333, 4122.564, 4125.641, 4244.615, 450, 0, []
1629739949.0731, 94, 0, 4296.41, 4236.41, 4109.744, 4132.821, 4228.718, 450, 0, []
1629739949.0811, 95, 0, 4288.718, 4232.308, 4122.564, 4131.282, 4218.462, 16201, 0, []
1629739949.089, 96, 0, 4297.949, 4243.077, 4106.667, 4117.949, 4215.897, 450, 0, []
1629739949.0969, 97, 0, 4296.923, 4242.564, 4092.308, 4120.513, 4209.744, 450, 0, []
1629739949.1048, 98, 0, 4287.179, 4214.872, 4117.949, 4124.615, 4203.077, 450, 0, []
1629739949.1128, 99, 0, 4294.359, 4211.282, 4091.282, 4106.667, 4202.564, 16201, 0, []
1629739949.1207, 100, 0, 4317.436, 4233.333, 4100.513, 4103.077, 4207.692, 450, 0, []
1629739949.1285, 101, 0, 4327.692, 4234.872, 4110.769, 4117.436, 4213.333, 450, 0, []
1629739949.1363, 102, 0, 4307.692, 4222.051, 4093.333, 4113.846, 4203.59, 450, 0, []
1629739949.1441, 103, 0, 4289.744, 4228.718, 4108.718, 4107.179, 4191.795, 16201, 0, []
1629739949.152, 104, 0, 4309.744, 4237.436, 4097.436, 4120, 4207.692, 450, 0, []
1629739949.1598, 105, 0, 4324.615, 4231.795, 4116.923, 4125.128, 4225.128, 450, 0, []
1629739949.1677, 106, 0, 4290.256, 4233.846, 4116.923, 4114.359, 4214.359, 450, 0, []
1629739949.1754, 107, 0, 4249.744, 4235.385, 4092.308, 4114.872, 4203.077, 16201, 0, []
1629739949.1833, 108, 0, 4234.359, 4240, 4122.051, 4127.179, 4207.692, 450, 0, []
1629739949.1911, 109, 0, 4226.667, 4248.205, 4111.795, 4123.59, 4206.667, 450, 0, []
1629739949.199, 110, 0, 4217.436, 4232.821, 4110.769, 4109.231, 4204.615, 450, 0, []
1629739949.2068, 111, 0, 4212.821, 4197.436, 4110.256, 4109.744, 4213.846, 16201, 0, []
1629739949.2147, 112, 0, 4210.256, 4211.282, 4086.667, 4120.513, 4215.897, 450, 0, []
1629739949.2224, 113, 0, 4216.41, 4254.359, 4112.821, 4124.615, 4209.231, 450, 0, []
1629739949.2304, 114, 0, 4234.359, 4251.795, 4106.154, 4123.59, 4216.41, 450, 0, []
1629739949.2383, 115, 0, 4234.872, 4233.333, 4113.846, 4125.641, 4221.538, 16201, 0, []
1629739949.2463, 116, 0, 4220, 4247.179, 4136.41, 4126.154, 4217.949, 450, 0, []
1629739949.2542, 117, 0, 4203.59, 4246.154, 4096.41, 4115.385, 4204.615, 450, 0, []
1629739949.2621, 118, 0, 4183.077, 4206.154, 4082.051, 4098.462, 4173.846, 450, 0, []
1629739949.27, 119, 0, 4183.077, 4215.897, 4078.462, 4096.41, 4170.769, 16201, 0, []
1629739949.278, 120, 0, 4189.744, 4246.154, 4098.974, 4110.256, 4194.872, 450, 0, []
1629739949.2859, 121, 0, 4183.59, 4231.282, 4109.231, 4117.436, 4194.359, 450, 0, []
1629739949.2937, 122, 0, 4189.231, 4242.051, 4083.077, 4118.974, 4184.615, 450, 0, []
1629739949.3015, 123, 0, 4206.667, 4273.333, 4120, 4126.154, 4191.795, 16201, 0, []
1629739949.3093, 124, 0, 4208.718, 4255.897, 4119.487, 4128.718, 4196.41, 450, 0, []
1629739949.3172, 125, 0, 4200.513, 4221.538, 4101.538, 4124.103, 4191.795, 450, 0, []
1629739949.325, 126, 0, 4195.897, 4214.359, 4114.872, 4114.872, 4183.59, 450, 0, []
1629739949.3329, 127, 0, 4188.718, 4212.308, 4090.769, 4109.744, 4170.256, 16201, 0, []
1629739949.3406, 128, 0, 4195.385, 4234.359, 4114.872, 4123.59, 4184.103, 450, 0, []
1629739949.3485, 0, 0, 4206.154, 4262.051, 4119.487, 4138.462, 4210.769, 450, 0, []
1629739949.3563, 1, 0, 4195.897, 4228.205, 4100, 4126.154, 4196.41, 450, 0, []
1629739949.3642, 2, 0, 4188.718, 4199.487, 4123.077, 4106.667, 4175.385, 16190, 0, []
1629739949.372, 3, 0, 4200.513, 4241.026, 4109.744, 4105.128, 4185.128, 450, 0, []
1629739949.3799, 4, 0, 4203.077, 4270.769, 4114.872, 4111.795, 4190.769, 16118, 0, []
1629739949.3878, 5, 0, 4192.308, 4247.692, 4105.128, 4109.744, 4177.949, 450, 0, []
1629739949.3958, 6, 0, 4184.103, 4227.692, 4087.179, 4105.641, 4165.641, 16100, 0, []
1629739949.4037, 7, 0, 4183.077, 4222.564, 4120, 4111.282, 4170.769, 450, 0, []
1629739949.4117, 8, 0, 4188.718, 4228.718, 4109.744, 4121.538, 4195.385, 450, 0, []
1629739949.4195, 9, 0, 4184.103, 4234.359, 4105.641, 4123.077, 4200.513, 16174, 0, []
1629739949.4275, 10, 0, 4182.051, 4232.821, 4101.026, 4122.051, 4184.103, 450, 0, []
1629739949.4354, 11, 0, 4192.308, 4249.744, 4093.846, 4126.154, 4190.256, 16201, 0, []
1629739949.4434, 12, 0, 4186.667, 4254.872, 4121.026, 4121.538, 4201.026, 450, 0, []
1629739949.4513, 13, 0, 4180, 4226.154, 4097.949, 4111.282, 4194.359, 450, 0, []
1629739949.459, 14, 0, 4201.538, 4229.744, 4117.949, 4125.128, 4203.077, 450, 0, []
1629739949.4669, 15, 0, 4215.385, 4265.128, 4144.103, 4144.615, 4220, 16201, 0, []
1629739949.4747, 16, 0, 4191.282, 4248.205, 4111.282, 4134.872, 4209.744, 0, 0, []
1629739949.4826, 17, 0, 4175.385, 4217.949, 4124.103, 4127.692, 4197.436, 0, 0, []
1629739949.4904, 18, 0, 4196.41, 4234.359, 4115.385, 4138.462, 4208.205, 0, 0, []
1629739949.4982, 19, 0, 4203.077, 4247.179, 4110.256, 4127.692, 4207.692, 0, 0, []
1629739949.5061, 20, 0, 4185.641, 4247.692, 4117.949, 4108.205, 4196.41, 0, 0, []
1629739949.514, 21, 0, 4191.282, 4260, 4107.692, 4121.538, 4206.154, 0, 0, []
1629739949.5219, 22, 0, 4207.692, 4264.103, 4141.026, 4141.538, 4213.846, 0, 0, []
1629739949.5297, 23, 0, 4199.487, 4237.949, 4124.615, 4128.718, 4204.103, 0, 0, []
1629739949.5377, 24, 0, 4185.641, 4212.308, 4107.179, 4111.282, 4199.487, 0, 0, []
1629739949.5455, 25, 0, 4189.744, 4224.615, 4127.692, 4121.026, 4209.744, 0, 0, []
1629739949.5534, 26, 0, 4187.179, 4246.667, 4107.692, 4127.179, 4205.128, 0, 0, []
1629739949.5614, 27, 0, 4177.949, 4238.974, 4114.359, 4115.897, 4180.513, 0, 0, []
1629739949.5693, 28, 0, 4184.615, 4214.359, 4110.256, 4114.872, 4180, 0, 0, []
1629739949.5773, 29, 0, 4193.846, 4212.821, 4113.846, 4128.205, 4208.718, 0, 0, []
1629739949.5851, 30, 0, 4199.487, 4241.026, 4132.821, 4134.359, 4217.949, 0, 0, []
1629739949.5931, 31, 0, 4213.846, 4262.051, 4107.179, 4132.821, 4204.615, 0, 0, []
1629739949.601, 32, 0, 4213.846, 4254.872, 4128.205, 4132.821, 4203.077, 0, 0, []
1629739949.609, 33, 0, 4192.308, 4236.41, 4122.564, 4120, 4203.077, 0, 0, []
1629739949.6169, 34, 0, 4191.282, 4230.256, 4108.718, 4120.513, 4202.051, 0, 0, []
1629739949.6246, 35, 0, 4216.923, 4245.641, 4139.487, 4145.641, 4215.385, 0, 0, []
1629739949.6325, 36, 0, 4217.949, 4266.667, 4117.436, 4149.744, 4216.41, 0, 0, []
1629739949.6403, 37, 0, 4190.769, 4261.538, 4125.128, 4126.154, 4193.333, 0, 0, []
1629739949.6482, 38, 0, 4186.154, 4234.872, 4134.872, 4121.538, 4193.846, 0, 0, []
1629739949.656, 39, 0, 4211.795, 4237.949, 4127.179, 4150.256, 4220.513, 0, 0, []
1629739949.6639, 40, 0, 4224.615, 4276.923, 4150.769, 4165.641, 4223.59, 0, 0, []
1629739949.6718, 41, 0, 4203.077, 4276.923, 4123.077, 4139.487, 4204.615, 0, 0, []
1629739949.6797, 42, 0, 4178.462, 4230.256, 4109.231, 4111.795, 4189.744, 0, 0, []
1629739949.6875, 43, 0, 4177.436, 4230.256, 4100.513, 4118.974, 4186.154, 0, 0, []
1629739949.6955, 44, 0, 4189.231, 4254.359, 4084.103, 4135.897, 4191.795, 0, 0, []
1629739949.7033, 45, 0, 4192.308, 4229.744, 4113.333, 4135.385, 4192.821, 0, 0, []
1629739949.7113, 46, 0, 4177.949, 4230.769, 4095.897, 4123.077, 4183.077, 0, 0, []
1629739949.7192, 47, 0, 4185.641, 4269.231, 4102.564, 4126.667, 4193.333, 0, 0, []
1629739949.7272, 48, 0, 4230.769, 4254.359, 4122.564, 4136.923, 4231.282, 0, 0, []
1629739949.7351, 49, 0, 4259.487, 4217.436, 4102.051, 4130.256, 4247.692, 0, 0, []
1629739949.743, 50, 0, 4253.333, 4226.154, 4113.333, 4123.59, 4247.179, 0, 0, []
1629739949.7509, 51, 0, 4269.231, 4255.897, 4096.923, 4138.462, 4282.051, 0, 0, []
1629739949.7587, 52, 0, 4313.846, 4261.026, 4111.795, 4169.744, 4333.333, 0, 0, []
1629739949.7666, 53, 0, 4325.641, 4242.564, 4132.308, 4185.128, 4347.692, 0, 0, []
1629739949.7744, 54, 0, 4304.615, 4249.231, 4104.103, 4174.359, 4330.256, 0, 0, []
1629739949.7822, 55, 0, 4284.615, 4261.026, 4123.59, 4154.872, 4309.744, 0, 0, []
1629739949.79, 56, 0, 4255.385, 4226.667, 4108.718, 4141.538, 4278.462, 0, 0, []
1629739949.7979, 57, 0, 4206.154, 4191.282, 4089.744, 4138.974, 4230.256, 0, 0, []
1629739949.8057, 58, 0, 4170.256, 4218.974, 4101.026, 4142.051, 4189.231, 0, 0, []
1629739949.8136, 59, 0, 4147.692, 4245.641, 4077.436, 4137.949, 4154.359, 0, 0, []
1629739949.8213, 60, 0, 4106.154, 4217.949, 4078.462, 4115.385, 4116.923, 0, 0, []
1629739949.8292, 61, 0, 4090.256, 4204.103, 4070.256, 4109.744, 4108.205, 0, 0, []
1629739949.837, 62, 0, 4116.923, 4228.718, 4087.179, 4134.359, 4121.538, 0, 0, []
1629739949.845, 63, 0, 4117.436, 4235.385, 4112.821, 4142.564, 4115.385, 0, 0, []
1629739949.8529, 64, 0, 4100.513, 4217.436, 4080, 4132.821, 4103.59, 450, 0, []
1629739949.8608, 65, 0, 4108.205, 4233.333, 4107.692, 4141.538, 4101.538, 450, 0, []
1629739949.8687, 66, 0, 4117.949, 4262.051, 4127.179, 4153.846, 4104.103, 16190, 0, []
1629739949.8767, 67, 0, 4111.282, 4244.103, 4113.333, 4151.795, 4113.333, 450, 0, []
1629739949.8846, 68, 0, 4110.256, 4221.538, 4129.231, 4153.333, 4116.923, 16118, 0, []
1629739949.8926, 69, 0, 4120.513, 4230.256, 4117.436, 4155.385, 4108.205, 450, 0, []
1629739949.9005, 70, 0, 4115.385, 4251.795, 4136.923, 4147.179, 4106.667, 16100, 0, []
1629739949.9082, 71, 0, 4100, 4243.59, 4124.103, 4136.923, 4104.615, 450, 0, []
1629739949.9161, 72, 0, 4091.282, 4217.436, 4087.692, 4131.795, 4088.718, 450, 0, []
1629739949.924, 73, 0, 4097.949, 4214.872, 4116.41, 4141.026, 4090.256, 16175, 0, []
1629739949.9319, 74, 0, 4120, 4238.462, 4118.462, 4162.051, 4113.846, 450, 0, []
1629739949.9397, 75, 0, 4127.692, 4244.103, 4123.59, 4165.641, 4111.795, 16201, 0, []
1629739949.9475, 76, 0, 4117.949, 4218.974, 4109.231, 4150.256, 4092.821, 450, 0, []
1629739949.9553, 77, 0, 4112.821, 4225.128, 4091.282, 4147.692, 4095.385, 450, 0, []
1629739949.9632, 78, 0, 4121.026, 4251.795, 4130.256, 4155.897, 4103.077, 450, 0, []
1629739949.971, 79, 0, 4131.795, 4236.41, 4115.897, 4153.846, 4101.538, 16201, 0, []
1629739949.9789, 80, 0, 4138.974, 4205.641, 4108.205, 4153.846, 4111.282, 450, 0, []
1629739949.9866, 81, 0, 4135.897, 4229.231, 4108.718, 4154.872, 4113.846, 450, 0, []
1629739949.9946, 82, 0, 4121.026, 4254.872, 4085.641, 4140, 4091.795, 450, 0, []
1629739950.0025, 83, 0, 4112.308, 4218.462, 4109.744, 4128.718, 4087.179, 16201, 0, []
1629739950.0105, 84, 0, 4120.513, 4210.256, 4097.949, 4134.872, 4111.282, 450, 0, []
1629739950.0184, 85, 0, 4129.231, 4242.564, 4101.538, 4146.154, 4116.923, 450, 0, []
1629739950.0263, 86, 0, 4124.615, 4233.333, 4118.974, 4141.026, 4103.59, 450, 0, []
1629739950.0342, 87, 0, 4123.59, 4203.077, 4095.385, 4131.795, 4110.256, 16201, 0, []
1629739950.0422, 88, 0, 4138.974, 4211.795, 4126.154, 4148.718, 4125.641, 450, 0, []
1629739950.0501, 89, 0, 4138.462, 4235.385, 4112.821, 4155.897, 4118.462, 450, 0, []
1629739950.0581, 90, 0, 4114.872, 4239.487, 4083.59, 4133.333, 4102.564, 450, 0, []
1629739950.0659, 91, 0, 4112.821, 4241.026, 4102.051, 4132.308, 4103.59, 16201, 0, []
1629739950.0737, 92, 0, 4136.41, 4227.692, 4098.974, 4146.667, 4110.769, 450, 0, []
1629739950.0816, 93, 0, 4137.949, 4206.667, 4110.769, 4136.923, 4106.154, 450, 0, []
1629739950.0894, 94, 0, 4127.179, 4231.282, 4091.795, 4124.615, 4108.205, 450, 0, []
1629739950.0973, 95, 0, 4140.513, 4258.462, 4089.744, 4137.436, 4122.564, 16201, 0, []
1629739950.105, 96, 0, 4166.154, 4235.897, 4122.564, 4155.385, 4133.333, 450, 0, []
1629739950.1129, 97, 0, 4179.487, 4236.41, 4116.923, 4167.692, 4148.205, 450, 0, []
1629739950.1207, 98, 0, 4167.692, 4248.718, 4133.333, 4167.692, 4149.744, 450, 0, []
1629739950.1286, 99, 0, 4152.308, 4236.923, 4112.821, 4153.333, 4133.333, 16201, 0, []
1629739950.1364, 100, 0, 4162.564, 4251.795, 4101.538, 4152.821, 4137.436, 450, 0, []
1629739950.1442, 101, 0, 4173.846, 4249.744, 4132.821, 4157.949, 4152.821, 450, 0, []
1629739950.152, 102, 0, 4156.41, 4215.385, 4104.615, 4144.615, 4143.077, 450, 0, []
1629739950.16, 103, 0, 4147.179, 4225.128, 4114.359, 4131.795, 4128.205, 16201, 0, []
1629739950.1679, 104, 0, 4171.795, 4254.872, 4128.205, 4144.103, 4138.974, 450, 0, []
1629739950.1759, 105, 0, 4180.513, 4240, 4112.308, 4151.795, 4146.154, 450, 0, []
1629739950.1837, 106, 0, 4162.564, 4232.821, 4127.179, 4145.641, 4140, 450, 0, []
1629739950.1917, 107, 0, 4155.897, 4243.077, 4107.692, 4147.692, 4136.923, 16201, 0, []
1629739950.1996, 108, 0, 4145.641, 4223.59, 4106.154, 4135.385, 4121.026, 450, 0, []
1629739950.2076, 109, 0, 4128.205, 4203.077, 4102.564, 4104.615, 4106.667, 450, 0, []
1629739950.2155, 110, 0, 4138.974, 4205.128, 4098.462, 4108.718, 4126.667, 450, 0, []
1629739950.2234, 111, 0, 4166.154, 4215.897, 4147.179, 4147.179, 4157.436, 16201, 0, []
1629739950.2313, 112, 0, 4176.41, 4231.282, 4132.821, 4156.923, 4156.923, 450, 0, []
1629739950.2391, 113, 0, 4174.872, 4248.718, 4121.026, 4141.026, 4147.692, 450, 0, []
1629739950.247, 114, 0, 4174.359, 4250.256, 4128.205, 4141.538, 4154.872, 450, 0, []
1629739950.2548, 115, 0, 4170.256, 4228.205, 4107.692, 4146.154, 4151.282, 16201, 0, []
1629739950.2627, 116, 0, 4155.897, 4215.385, 4111.795, 4128.718, 4129.231, 450, 0, []
1629739950.2704, 117, 0, 4157.949, 4238.462, 4091.282, 4122.564, 4135.897, 450, 0, []
1629739950.2783, 118, 0, 4178.974, 4256.41, 4113.333, 4151.795, 4166.154, 450, 0, []
1629739950.2861, 119, 0, 4185.641, 4256.923, 4141.538, 4169.744, 4164.103, 16201, 0, []
1629739950.2941, 120, 0, 4180, 4269.744, 4115.385, 4159.487, 4147.692, 450, 0, []
1629739950.302, 121, 0, 4177.436, 4262.564, 4131.282, 4153.846, 4152.308, 450, 0, []
1629739950.3099, 122, 0, 4185.641, 4232.308, 4118.462, 4161.026, 4168.718, 450, 0, []
1629739950.3178, 123, 0, 4207.692, 4240.513, 4112.308, 4165.641, 4186.667, 16201, 0, []
1629739950.3258, 124, 0, 4227.692, 4267.692, 4123.59, 4151.282, 4194.359, 450, 0, []
1629739950.3337, 125, 0, 4237.949, 4245.128, 4089.231, 4125.128, 4202.051, 450, 0, []
1629739950.3417, 126, 0, 4267.692, 4225.128, 4107.692, 4129.744, 4244.615, 450, 0, []
1629739950.3495, 127, 0, 4305.641, 4251.282, 4109.744, 4149.231, 4291.282, 16201, 0, []
1629739950.3575, 128, 0, 4312.308, 4250.256, 4093.846, 4141.538, 4291.282, 450, 0, []
1629739950.3654, 0, 0, 4330.769, 4227.692, 4112.821, 4140, 4298.974, 450, 0, []
1629739950.3734, 1, 0, 4362.564, 4230.769, 4104.615, 4158.974, 4329.231, 450, 0, []
1629739950.3813, 2, 0, 4336.923, 4231.795, 4123.077, 4153.846, 4308.718, 16190, 0, []
1629739950.389, 3, 0, 4288.718, 4243.59, 4114.359, 4129.231, 4265.641, 450, 0, []
1629739950.3969, 4, 0, 4282.564, 4257.436, 4101.538, 4132.821, 4263.077, 16118, 0, []
1629739950.4047, 5, 0, 4290.256, 4235.385, 4130.256, 4149.744, 4264.615, 450, 0, []
1629739950.4126, 6, 0, 4277.949, 4228.718, 4107.692, 4138.974, 4238.974, 16103, 0, []
1629739950.4204, 7, 0, 4260.513, 4238.974, 4108.205, 4123.59, 4221.026, 450, 0, []
1629739950.4282, 8, 0, 4258.462, 4239.487, 4119.487, 4140, 4230.769, 450, 0, []
1629739950.436, 9, 0, 4256.923, 4257.436, 4117.949, 4156.41, 4234.872, 16175, 0, []
1629739950.444, 10, 0, 4234.359, 4272.308, 4124.103, 4141.026, 4214.872, 450, 0, []
1629739950.4519, 11, 0, 4217.949, 4246.154, 4087.692, 4132.821, 4201.026, 16201, 0, []
1629739950.4599, 12, 0, 4220.513, 4233.846, 4101.538, 4140.513, 4195.897, 450, 0, []
1629739950.4677, 13, 0, 4210.256, 4244.103, 4108.718, 4125.641, 4181.026, 450, 0, []
1629739950.4757, 14, 0, 4190.769, 4215.897, 4085.128, 4109.231, 4167.179, 450, 0, []
1629739950.4836, 15, 0, 4194.359, 4211.282, 4116.923, 4128.205, 4167.179, 16201, 0, []
1629739950.4916, 16, 0, 4196.41, 4248.718, 4102.051, 4136.41, 4156.41, 0, 0, []
1629739950.4995, 17, 0, 4185.641, 4250.769, 4103.59, 4125.641, 4142.564, 0, 0, []
1629739950.5073, 18, 0, 4199.487, 4250.769, 4127.692, 4142.051, 4164.103, 0, 0, []
1629739950.5152, 19, 0, 4213.333, 4267.179, 4105.641, 4152.821, 4176.923, 0, 0, []
1629739950.523, 20, 0, 4195.897, 4261.026, 4108.205, 4126.667, 4143.59, 0, 0, []
1629739950.531, 21, 0, 4188.205, 4248.718, 4102.051, 4119.487, 4132.821, 0, 0, []
1629739950.5389, 22, 0, 4192.821, 4235.897, 4117.436, 4145.641, 4154.872, 0, 0, []
1629739950.5467, 23, 0, 4187.179, 4234.359, 4118.462, 4152.821, 4152.308, 0, 0, []
1629739950.5545, 24, 0, 4194.872, 4262.564, 4090.769, 4151.795, 4148.205, 0, 0, []
1629739950.5624, 25, 0, 4206.154, 4258.462, 4124.615, 4154.872, 4161.026, 0, 0, []
1629739950.5702, 26, 0, 4190.769, 4216.41, 4109.744, 4142.051, 4150.769, 0, 0, []
1629739950.5781, 27, 0, 4178.462, 4228.205, 4096.923, 4136.923, 4132.821, 0, 0, []
1629739950.5859, 28, 0, 4184.103, 4254.359, 4123.077, 4141.538, 4132.308, 0, 0, []
1629739950.5937, 29, 0, 4173.846, 4233.846, 4098.974, 4125.641, 4131.282, 0, 0, []
1629739950.6015, 30, 0, 4167.179, 4231.282, 4111.282, 4113.333, 4128.205, 0, 0, []
1629739950.6094, 31, 0, 4203.59, 4270.769, 4123.59, 4138.974, 4149.231, 0, 0, []
1629739950.6172, 32, 0, 4226.154, 4285.641, 4125.641, 4159.487, 4162.051, 0, 0, []
1629739950.6252, 33, 0, 4195.897, 4241.538, 4130.256, 4140.513, 4140, 0, 0, []
1629739950.633, 34, 0, 4184.103, 4215.385, 4103.077, 4128.205, 4128.718, 0, 0, []
1629739950.641, 35, 0, 4206.154, 4254.872, 4124.615, 4143.077, 4137.949, 0, 0, []
1629739950.6489, 36, 0, 4202.564, 4277.436, 4118.974, 4141.026, 4127.692, 0, 0, []
1629739950.6569, 37, 0, 4175.385, 4241.538, 4103.59, 4121.026, 4106.667, 0, 0, []
1629739950.6648, 38, 0, 4159.487, 4210.256, 4117.949, 4113.333, 4101.538, 0, 0, []
1629739950.6727, 39, 0, 4168.205, 4228.718, 4089.231, 4123.59, 4109.744, 0, 0, []
1629739950.6806, 40, 0, 4186.154, 4267.692, 4117.436, 4143.077, 4122.051, 0, 0, []
1629739950.6884, 41, 0, 4190.769, 4277.949, 4138.462, 4146.667, 4129.744, 0, 0, []
1629739950.6963, 42, 0, 4178.462, 4253.846, 4121.026, 4135.385, 4133.333, 0, 0, []
1629739950.7041, 43, 0, 4168.718, 4245.641, 4137.949, 4134.359, 4129.744, 0, 0, []
1629739950.7119, 44, 0, 4176.923, 4272.308, 4113.846, 4132.308, 4117.949, 0, 0, []
1629739950.7197, 45, 0, 4180, 4262.051, 4117.949, 4121.538, 4110.769, 0, 0, []
1629739950.7276, 46, 0, 4175.897, 4226.667, 4127.692, 4120, 4116.41, 0, 0, []
1629739950.7354, 47, 0, 4178.462, 4233.846, 4106.667, 4126.154, 4120, 0, 0, []
1629739950.7433, 48, 0, 4177.949, 4240.513, 4123.59, 4128.205, 4110.769, 0, 0, []
1629739950.751, 49, 0, 4170.769, 4235.897, 4107.692, 4127.179, 4110.256, 0, 0, []
1629739950.7589, 50, 0, 4165.128, 4245.128, 4106.667, 4126.667, 4120.513, 0, 0, []
1629739950.7667, 51, 0, 4175.897, 4239.487, 4115.897, 4135.897, 4131.282, 0, 0, []
1629739950.7747, 52, 0, 4188.205, 4229.744, 4110.769, 4151.795, 4136.41, 0, 0, []
1629739950.7826, 53, 0, 4183.077, 4237.949, 4138.974, 4152.821, 4133.846, 0, 0, []
1629739950.7905, 54, 0, 4163.077, 4233.846, 4101.538, 4132.308, 4119.487, 0, 0, []
1629739950.7984, 55, 0, 4151.795, 4218.974, 4081.026, 4120.513, 4105.128, 0, 0, []
1629739950.8064, 56, 0, 4161.026, 4243.59, 4120.513, 4135.385, 4111.282, 0, 0, []
1629739950.8143, 57, 0, 4161.538, 4257.949, 4117.949, 4148.205, 4113.846, 0, 0, []
1629739950.8223, 58, 0, 4152.821, 4225.641, 4106.154, 4134.872, 4102.051, 0, 0, []
1629739950.8301, 59, 0, 4181.538, 4240, 4082.564, 4131.282, 4121.538, 0, 0, []
1629739950.8381, 60, 0, 4253.333, 4282.051, 4114.359, 4156.41, 4184.615, 0, 0, []
1629739950.846, 61, 0, 4302.051, 4268.718, 4145.641, 4160.513, 4234.359, 0, 0, []
1629739950.8538, 62, 0, 4295.897, 4237.436, 4099.487, 4135.897, 4237.436, 0, 0, []
1629739950.8617, 63, 0, 4292.308, 4246.154, 4121.538, 4143.077, 4235.385, 0, 0, []
1629739950.8694, 64, 0, 4322.051, 4273.333, 4138.974, 4170.769, 4255.897, 450, 0, []
1629739950.8773, 65, 0, 4340, 4259.487, 4131.282, 4164.103, 4269.744, 450, 0, []
1629739950.8851, 66, 0, 4329.231, 4238.974, 4145.128, 4145.641, 4264.615, 16190, 0, []
1629739950.893, 67, 0, 4321.538, 4255.897, 4118.974, 4146.667, 4261.538, 450, 0, []
1629739950.9008, 68, 0, 4322.051, 4278.974, 4133.333, 4156.923, 4268.205, 16118, 0, []
1629739950.9087, 69, 0, 4315.385, 4275.385, 4132.308, 4161.026, 4266.667, 450, 0, []
1629739950.9166, 70, 0, 4294.872, 4254.359, 4111.282, 4146.667, 4234.359, 16102, 0, []
1629739950.9246, 71, 0, 4283.077, 4243.59, 4133.333, 4137.949, 4207.692, 450, 0, []
1629739950.9325, 72, 0, 4287.692, 4243.59, 4134.872, 4150.769, 4220, 450, 0, []
1629739950.9405, 73, 0, 4280, 4257.436, 4157.949, 4155.897, 4223.077, 16175, 0, []
1629739950.9484, 74, 0, 4265.128, 4276.41, 4150.769, 4140.513, 4200, 450, 0, []
1629739950.9563, 75, 0, 4264.103, 4268.205, 4136.41, 4138.974, 4197.949, 16201, 0, []
1629739950.9642, 76, 0, 4261.538, 4237.436, 4170.256, 4154.872, 4210.769, 450, 0, []
1629739950.9722, 77, 0, 4253.846, 4238.462, 4148.205, 4151.795, 4207.179, 450, 0, []
1629739950.9801, 78, 0, 4251.282, 4264.103, 4146.667, 4146.154, 4198.974, 450, 0, []
1629739950.9881, 79, 0, 4249.744, 4248.205, 4142.051, 4150.769, 4195.385, 16201, 0, []
1629739950.9959, 80, 0, 4241.026, 4224.615, 4110.769, 4139.487, 4184.103, 450, 0, []
1629739951.0037, 81, 0, 4238.462, 4256.41, 4137.436, 4128.205, 4171.282, 450, 0, []
1629739951.0116, 82, 0, 4256.41, 4281.538, 4140, 4142.564, 4184.615, 450, 0, []
1629739951.0194, 83, 0, 4272.308, 4266.667, 4149.231, 4155.897, 4210.769, 16201, 0, []
1629739951.0273, 84, 0, 4270.769, 4270.256, 4158.974, 4157.436, 4215.385, 450, 0, []
1629739951.035, 85, 0, 4270.256, 4286.154, 4139.487, 4166.667, 4207.179, 450, 0, []
1629739951.0429, 86, 0, 4273.333, 4262.564, 4151.795, 4160.513, 4204.615, 450, 0, []
1629739951.0507, 87, 0, 4281.026, 4233.333, 4137.436, 4152.821, 4215.897, 16201, 0, []
1629739951.0586, 88, 0, 4292.308, 4238.462, 4152.821, 4169.231, 4234.359, 450, 0, []
1629739951.0664, 89, 0, 4296.923, 4260, 4170.256, 4176.923, 4242.564, 450, 0, []
1629739951.0743, 90, 0, 4286.154, 4263.59, 4135.897, 4166.667, 4227.179, 450, 0, []
1629739951.0822, 91, 0, 4267.692, 4251.282, 4150.256, 4163.077, 4200, 16201, 0, []
1629739951.0902, 92, 0, 4264.103, 4260, 4133.846, 4157.949, 4194.872, 450, 0, []
1629739951.0981, 93, 0, 4270.256, 4268.205, 4118.974, 4151.795, 4208.205, 450, 0, []
1629739951.1061, 94, 0, 4267.179, 4253.333, 4135.385, 4152.308, 4205.641, 450, 0, []
1629739951.1139, 95, 0, 4257.949, 4246.154, 4109.231, 4147.179, 4189.744, 16201, 0, []
1629739951.1219, 96, 0, 4244.103, 4257.949, 4118.462, 4140, 4176.923, 450, 0, []
1629739951.1298, 97, 0, 4236.41, 4260.513, 4112.821, 4137.436, 4172.308, 450, 0, []
1629739951.1378, 98, 0, 4243.59, 4237.949, 4113.333, 4136.41, 4177.949, 450, 0, []
1629739951.1457, 99, 0, 4247.692, 4237.949, 4139.487, 4139.487, 4191.282, 16201, 0, []
1629739951.1534, 100, 0, 4255.897, 4266.154, 4123.077, 4154.359, 4208.205, 450, 0, []
1629739951.1613, 101, 0, 4271.795, 4272.821, 4137.436, 4167.179, 4209.744, 450, 0, []
1629739951.1691, 102, 0, 4267.179, 4261.026, 4121.538, 4154.359, 4194.359, 450, 0, []
1629739951.177, 103, 0, 4257.436, 4256.923, 4116.923, 4150.769, 4198.462, 16201, 0, []
1629739951.1848, 104, 0, 4268.205, 4260, 4163.59, 4163.59, 4216.41, 450, 0, []
1629739951.1926, 105, 0, 4274.872, 4272.308, 4140, 4157.436, 4214.872, 450, 0, []
1629739951.2004, 106, 0, 4268.718, 4276.41, 4149.231, 4159.487, 4204.615, 450, 0, []
1629739951.2083, 107, 0, 4257.436, 4254.359, 4155.385, 4171.282, 4194.359, 16201, 0, []
1629739951.2161, 108, 0, 4230.769, 4244.615, 4117.949, 4151.795, 4173.846, 450, 0, []
1629739951.2241, 109, 0, 4222.564, 4258.462, 4127.692, 4134.359, 4173.846, 450, 0, []
1629739951.2319, 110, 0, 4236.41, 4251.795, 4115.897, 4140.513, 4184.615, 450, 0, []
1629739951.2399, 111, 0, 4224.615, 4243.077, 4112.308, 4128.718, 4162.051, 16201, 0, []
1629739951.2478, 112, 0, 4218.462, 4269.744, 4125.128, 4122.564, 4158.974, 450, 0, []
1629739951.2558, 113, 0, 4243.59, 4273.846, 4138.462, 4148.205, 4196.41, 450, 0, []
1629739951.2637, 114, 0, 4249.744, 4250.769, 4166.667, 4165.641, 4210.256, 450, 0, []
1629739951.2716, 115, 0, 4240, 4270.256, 4138.462, 4165.128, 4198.462, 16201, 0, []
1629739951.2795, 116, 0, 4251.795, 4297.949, 4145.641, 4174.359, 4198.462, 450, 0, []
1629739951.2875, 117, 0, 4258.462, 4278.462, 4153.846, 4177.949, 4203.077, 450, 0, []
1629739951.2954, 118, 0, 4232.308, 4252.308, 4107.692, 4150.256, 4187.692, 450, 0, []
1629739951.3033, 119, 0, 4215.385, 4267.179, 4116.41, 4133.333, 4176.41, 16201, 0, []
1629739951.3112, 120, 0, 4241.538, 4271.795, 4123.077, 4150.769, 4193.846, 450, 0, []
1629739951.3189, 121, 0, 4262.564, 4252.821, 4142.051, 4156.923, 4203.077, 450, 0, []
1629739951.3268, 122, 0, 4248.205, 4254.872, 4149.231, 4138.462, 4190.769, 450, 0, []
1629739951.3346, 123, 0, 4238.462, 4260, 4123.59, 4142.051, 4192.308, 16201, 0, []
1629739951.3425, 124, 0, 4245.641, 4242.564, 4154.872, 4166.667, 4206.667, 450, 0, []
1629739951.3503, 125, 0, 4244.615, 4231.282, 4133.333, 4165.128, 4202.051, 450, 0, []
1629739951.3581, 126, 0, 4235.385, 4248.718, 4107.179, 4146.154, 4187.179, 450, 0, []
1629739951.3659, 127, 0, 4234.359, 4266.667, 4128.718, 4143.59, 4185.641, 16201, 0, []
1629739951.3738, 128, 0, 4240.513, 4276.923, 4114.872, 4142.564, 4193.333, 450, 0, []
1629739951.3816, 0, 0, 4238.462, 4263.077, 4124.103, 4131.795, 4192.821, 450, 0, []
1629739951.3895, 1, 0, 4242.051, 4247.179, 4120, 4136.923, 4194.872, 450, 0, []
1629739951.3972, 2, 0, 4256.41, 4267.179, 4129.231, 4157.436, 4209.231, 16190, 0, []
1629739951.4052, 3, 0, 4263.077, 4267.692, 4157.436, 4163.077, 4214.872, 450, 0, []
1629739951.4131, 4, 0, 4262.564, 4250.769, 4124.103, 4154.872, 4216.41, 16118, 0, []
1629739951.4211, 5, 0, 4267.692, 4261.538, 4129.231, 4145.641, 4230.256, 450, 0, []
1629739951.429, 6, 0, 4279.487, 4270.769, 4128.205, 4135.385, 4249.231, 16100, 0, []
1629739951.4369, 7, 0, 4292.821, 4248.205, 4111.282, 4135.897, 4262.564, 450, 0, []
1629739951.4448, 8, 0, 4318.462, 4235.385, 4124.103, 4141.538, 4282.051, 450, 0, []
1629739951.4528, 9, 0, 4348.718, 4249.231, 4098.462, 4134.359, 4312.821, 16175, 0, []
1629739951.4607, 10, 0, 4361.538, 4236.41, 4109.744, 4125.128, 4335.385, 450, 0, []
1629739951.4687, 11, 0, 4390.256, 4229.744, 4129.231, 4138.462, 4369.231, 16198, 0, []
1629739951.4765, 12, 0, 4450.769, 4275.385, 4146.667, 4181.538, 4431.282, 450, 0, []
1629739951.4843, 13, 0, 4475.385, 4307.179, 4178.462, 4207.179, 4464.103, 450, 0, []
1629739951.4922, 14, 0, 4428.718, 4268.205, 4131.795, 4181.538, 4432.308, 450, 0, []
1629739951.5001, 15, 0, 4366.667, 4215.897, 4116.41, 4148.718, 4378.462, 16198, 0, []
1629739951.5081, 16, 0, 4326.154, 4235.897, 4122.564, 4145.128, 4340.513, 0, 0, []
1629739951.5158, 17, 0, 4283.077, 4263.59, 4106.154, 4155.385, 4302.051, 0, 0, []
1629739951.5237, 18, 0, 4236.923, 4237.436, 4127.179, 4160.513, 4256.41, 0, 0, []
1629739951.5315, 19, 0, 4194.872, 4230.256, 4106.667, 4148.718, 4210.256, 0, 0, []
1629739951.5394, 20, 0, 4152.308, 4245.128, 4099.487, 4129.744, 4168.718, 0, 0, []
1629739951.5472, 21, 0, 4149.231, 4233.846, 4111.282, 4136.41, 4160.513, 0, 0, []
1629739951.5551, 22, 0, 4173.846, 4242.564, 4109.231, 4160, 4171.795, 0, 0, []
1629739951.563, 23, 0, 4158.974, 4270.769, 4133.846, 4158.462, 4160.513, 0, 0, []
1629739951.571, 24, 0, 4125.128, 4242.564, 4101.538, 4143.077, 4137.949, 0, 0, []
1629739951.5789, 25, 0, 4120.513, 4216.41, 4096.41, 4142.051, 4122.051, 0, 0, []
1629739951.5869, 26, 0, 4122.051, 4248.205, 4125.641, 4140.513, 4113.846, 0, 0, []
1629739951.5947, 27, 0, 4114.872, 4252.308, 4113.333, 4139.487, 4125.128, 0, 0, []
1629739951.6027, 28, 0, 4121.026, 4237.436, 4142.564, 4155.385, 4135.385, 0, 0, []
1629739951.6106, 29, 0, 4120.513, 4244.615, 4138.462, 4157.436, 4117.949, 0, 0, []
1629739951.6184, 30, 0, 4089.231, 4228.205, 4114.872, 4128.718, 4089.231, 0, 0, []
1629739951.6263, 31, 0, 4063.59, 4212.821, 4105.128, 4110.769, 4072.308, 0, 0, []
1629739951.634, 32, 0, 4066.667, 4222.564, 4075.897, 4118.974, 4067.692, 0, 0, []
1629739951.6419, 33, 0, 4075.385, 4221.538, 4110.769, 4125.641, 4078.462, 0, 0, []
1629739951.6497, 34, 0, 4078.974, 4231.795, 4117.949, 4122.564, 4093.846, 0, 0, []
1629739951.6576, 35, 0, 4074.359, 4247.692, 4101.026, 4113.333, 4081.538, 0, 0, []
1629739951.6654, 36, 0, 4067.692, 4238.462, 4110.769, 4108.718, 4067.179, 0, 0, []
1629739951.6733, 37, 0, 4076.41, 4234.359, 4090.256, 4118.974, 4083.077, 0, 0, []
1629739951.681, 38, 0, 4082.564, 4227.692, 4103.077, 4137.949, 4091.282, 0, 0, []
1629739951.6889, 39, 0, 4073.846, 4218.462, 4095.897, 4136.923, 4086.154, 0, 0, []
1629739951.6967, 40, 0, 4078.974, 4245.641, 4093.333, 4122.564, 4103.59, 0, 0, []
1629739951.7047, 41, 0, 4101.026, 4265.641, 4129.231, 4125.641, 4124.103, 0, 0, []
1629739951.7126, 42, 0, 4104.103, 4229.744, 4106.667, 4134.359, 4112.821, 0, 0, []
1629739951.7205, 43, 0, 4082.051, 4200, 4114.359, 4125.128, 4090.256, 0, 0, []
1629739951.7284, 44, 0, 4074.872, 4223.59, 4120, 4120.513, 4086.154, 0, 0, []
1629739951.7364, 45, 0, 4091.282, 4248.718, 4099.487, 4139.487, 4090.256, 0, 0, []
1629739951.7443, 46, 0, 4091.282, 4234.359, 4107.179, 4141.538, 4083.077, 0, 0, []
1629739951.7523, 47, 0, 4081.538, 4223.077, 4086.667, 4123.59, 4080, 0, 0, []
1629739951.7601, 48, 0, 4090.769, 4222.051, 4106.667, 4125.641, 4090.769, 0, 0, []
1629739951.7681, 49, 0, 4099.487, 4208.205, 4120, 4126.667, 4100, 0, 0, []
1629739951.776, 50, 0, 4094.872, 4217.949, 4101.026, 4123.59, 4097.949, 0, 0, []
1629739951.7839, 51, 0, 4087.692, 4243.59, 4120, 4131.795, 4084.615, 0, 0, []
1629739951.7918, 52, 0, 4083.077, 4234.359, 4098.974, 4134.359, 4076.41, 0, 0, []
1629739951.7995, 53, 0, 4090.769, 4209.744, 4113.333, 4143.59, 4097.436, 0, 0, []
1629739951.8074, 54, 0, 4104.103, 4217.949, 4136.41, 4160, 4111.795, 0, 0, []
1629739951.8152, 55, 0, 4100, 4229.744, 4101.538, 4137.949, 4088.718, 0, 0, []
1629739951.8231, 56, 0, 4091.795, 4218.462, 4103.59, 4107.179, 4077.949, 0, 0, []
1629739951.8309, 57, 0, 4110.769, 4222.051, 4104.615, 4130.256, 4108.718, 0, 0, []
1629739951.8387, 58, 0, 4136.41, 4242.564, 4127.179, 4164.103, 4131.282, 0, 0, []
1629739951.8465, 59, 0, 4138.974, 4253.333, 4143.59, 4163.077, 4128.205, 0, 0, []
1629739951.8544, 60, 0, 4133.333, 4243.59, 4114.359, 4164.615, 4134.359, 0, 0, []
1629739951.8622, 61, 0, 4130.769, 4246.667, 4129.744, 4172.821, 4135.385, 0, 0, []
1629739951.8702, 62, 0, 4134.872, 4264.615, 4118.462, 4161.026, 4122.051, 0, 0, []
1629739951.878, 63, 0, 4142.051, 4248.205, 4116.41, 4151.795, 4122.564, 0, 0, []
1629739951.886, 64, 0, 4136.41, 4219.487, 4132.821, 4152.308, 4127.179, 450, 0, []
1629739951.8939, 65, 0, 4118.462, 4239.487, 4093.333, 4135.897, 4106.667, 450, 0, []
1629739951.9019, 66, 0, 4107.179, 4261.538, 4094.359, 4112.821, 4087.179, 16190, 0, []
1629739951.9098, 67, 0, 4120, 4221.538, 4095.897, 4127.692, 4107.179, 450, 0, []
1629739951.9177, 68, 0, 4149.231, 4213.333, 4107.692, 4166.154, 4137.949, 16118, 0, []
1629739951.9256, 69, 0, 4164.615, 4258.974, 4133.333, 4170.769, 4140, 450, 0, []
1629739951.9334, 70, 0, 4148.718, 4258.462, 4084.615, 4134.359, 4119.487, 16097, 0, []
1629739951.9413, 71, 0, 4127.692, 4228.205, 4083.077, 4118.462, 4116.923, 450, 0, []
1629739951.9491, 72, 0, 4142.051, 4240.513, 4106.154, 4144.615, 4140.513, 450, 0, []
1629739951.9569, 73, 0, 4158.974, 4253.846, 4106.667, 4157.949, 4144.615, 16175, 0, []
1629739951.9647, 74, 0, 4146.154, 4230.769, 4110.256, 4138.462, 4128.205, 450, 0, []
1629739951.9726, 75, 0, 4136.41, 4225.641, 4087.692, 4129.744, 4126.154, 16203, 0, []
1629739951.9804, 76, 0, 4146.667, 4238.974, 4121.026, 4149.231, 4134.359, 450, 0, []
1629739951.9883, 77, 0, 4153.333, 4246.667, 4132.308, 4158.974, 4138.462, 450, 0, []
1629739951.9961, 78, 0, 4145.128, 4238.974, 4107.692, 4144.615, 4140.513, 450, 0, []
1629739952.0039, 79, 0, 4141.026, 4227.179, 4123.077, 4137.949, 4132.308, 16203, 0, []
1629739952.0117, 80, 0, 4145.128, 4250.769, 4101.538, 4142.051, 4122.051, 450, 0, []
1629739952.0197, 81, 0, 4137.436, 4263.077, 4103.077, 4135.897, 4120.513, 450, 0, []
1629739952.0276, 82, 0, 4130.256, 4233.333, 4105.641, 4129.231, 4117.949, 450, 0, []
1629739952.0356, 83, 0, 4136.41, 4220.513, 4091.282, 4140.513, 4112.821, 16203, 0, []
1629739952.0434, 84, 0, 4133.333, 4227.692, 4116.923, 4144.615, 4110.769, 450, 0, []
1629739952.0514, 85, 0, 4127.179, 4233.333, 4096.41, 4133.333, 4110.769, 450, 0, []
1629739952.0593, 86, 0, 4141.026, 4250.256, 4106.154, 4137.949, 4111.282, 450, 0, []
1629739952.0673, 87, 0, 4166.667, 4257.436, 4134.872, 4155.897, 4127.179, 16203, 0, []
1629739952.0752, 88, 0, 4171.282, 4251.282, 4106.154, 4154.359, 4141.026, 450, 0, []
1629739952.0831, 89, 0, 4153.846, 4260, 4104.103, 4139.487, 4123.59, 450, 0, []
1629739952.091, 90, 0, 4141.538, 4257.436, 4089.744, 4128.718, 4104.615, 450, 0, []
1629739952.099, 91, 0, 4143.59, 4235.385, 4102.051, 4130.256, 4114.872, 16203, 0, []
1629739952.1069, 92, 0, 4156.923, 4246.154, 4124.615, 4144.103, 4130.769, 450, 0, []
1629739952.1147, 93, 0, 4162.051, 4262.564, 4104.615, 4149.744, 4124.615, 450, 0, []
1629739952.1225, 94, 0, 4147.179, 4234.872, 4124.615, 4140.513, 4118.974, 450, 0, []
1629739952.1303, 95, 0, 4137.436, 4209.231, 4108.205, 4137.949, 4126.667, 16203, 0, []
1629739952.1382, 96, 0, 4139.487, 4228.718, 4086.154, 4142.051, 4124.615, 450, 0, []
1629739952.146, 97, 0, 4141.026, 4268.205, 4100, 4134.872, 4111.795, 450, 0, []
1629739952.1539, 98, 0, 4136.41, 4260, 4084.103, 4129.231, 4107.692, 450, 0, []
1629739952.1616, 99, 0, 4134.872, 4244.103, 4093.846, 4133.333, 4104.103, 16203, 0, []
1629739952.1696, 100, 0, 4132.308, 4262.051, 4072.308, 4125.641, 4091.795, 450, 0, []
1629739952.1775, 101, 0, 4122.564, 4254.359, 4063.59, 4107.692, 4081.026, 450, 0, []
1629739952.1855, 102, 0, 4137.949, 4245.128, 4117.949, 4127.692, 4105.641, 450, 0, []
1629739952.1934, 103, 0, 4194.359, 4293.846, 4147.179, 4185.641, 4163.077, 16203, 0, []
1629739952.2013, 104, 0, 4225.641, 4326.667, 4187.179, 4210.256, 4190.256, 450, 0, []
1629739952.2092, 105, 0, 4198.462, 4290.769, 4166.667, 4178.974, 4167.179, 450, 0, []
1629739952.2172, 106, 0, 4173.846, 4281.538, 4125.641, 4155.385, 4145.128, 450, 0, []
1629739952.2251, 107, 0, 4174.359, 4292.308, 4134.872, 4163.59, 4138.462, 16203, 0, []
1629739952.2331, 108, 0, 4162.564, 4263.077, 4100.513, 4144.615, 4124.615, 450, 0, []
1629739952.2409, 109, 0, 4150.769, 4243.077, 4106.154, 4121.538, 4122.051, 450, 0, []
1629739952.2489, 110, 0, 4168.718, 4264.103, 4122.564, 4146.667, 4142.564, 450, 0, []
1629739952.2568, 111, 0, 4185.641, 4288.718, 4112.821, 4165.128, 4142.564, 16203, 0, []
1629739952.2646, 112, 0, 4178.462, 4272.821, 4128.205, 4146.154, 4131.282, 450, 0, []
1629739952.2725, 113, 0, 4175.385, 4257.436, 4108.718, 4143.59, 4148.718, 450, 0, []
1629739952.2802, 114, 0, 4177.949, 4276.41, 4118.974, 4162.564, 4161.538, 450, 0, []
1629739952.2881, 115, 0, 4176.41, 4294.359, 4122.051, 4156.41, 4148.718, 16203, 0, []
1629739952.2959, 116, 0, 4172.821, 4267.179, 4100, 4142.051, 4147.179, 450, 0, []
1629739952.3038, 117, 0, 4163.59, 4230.256, 4121.026, 4139.487, 4148.205, 450, 0, []
1629739952.3116, 118, 0, 4163.077, 4244.103, 4102.564, 4136.41, 4134.359, 450, 0, []
1629739952.3194, 119, 0, 4167.692, 4267.179, 4108.205, 4134.872, 4130.769, 16203, 0, []
1629739952.3272, 120, 0, 4162.051, 4274.359, 4123.59, 4136.923, 4140, 450, 0, []
1629739952.3352, 121, 0, 4149.231, 4254.359, 4086.154, 4126.667, 4127.692, 450, 0, []
1629739952.3431, 122, 0, 4139.487, 4220, 4086.667, 4107.179, 4098.462, 450, 0, []
1629739952.3511, 123, 0, 4137.436, 4242.051, 4076.41, 4101.538, 4096.41, 16203, 0, []
1629739952.359, 124, 0, 4150.256, 4283.59, 4095.385, 4122.051, 4125.128, 450, 0, []
1629739952.3669, 125, 0, 4172.821, 4264.615, 4124.103, 4144.615, 4145.641, 450, 0, []
1629739952.3748, 126, 0, 4182.564, 4228.718, 4101.538, 4144.103, 4142.051, 450, 0, []
1629739952.3828, 127, 0, 4176.41, 4242.051, 4118.974, 4143.077, 4140.513, 16203, 0, []
1629739952.3907, 128, 0, 4173.333, 4277.436, 4109.231, 4151.795, 4146.154, 450, 0, []
1629739952.3985, 0, 0, 4175.897, 4265.641, 4104.103, 4153.846, 4141.538, 450, 0, []
1629739952.4063, 1, 0, 4177.436, 4227.692, 4121.538, 4137.949, 4136.41, 450, 0, []
1629739952.4141, 2, 0, 4172.821, 4240.513, 4092.821, 4124.103, 4138.974, 16146, 0, []
1629739952.422, 3, 0, 4162.051, 4269.744, 4113.333, 4130.256, 4137.436, 450, 0, []
1629739952.4298, 4, 0, 4155.897, 4250.256, 4122.051, 4140, 4132.308, 16118, 0, []
1629739952.4377, 5, 0, 4165.641, 4233.333, 4113.846, 4138.974, 4138.462, 450, 0, []
1629739952.4454, 6, 0, 4181.026, 4251.795, 4127.179, 4137.436, 4152.308, 16102, 0, []
1629739952.4533, 7, 0, 4186.154, 4267.692, 4108.718, 4152.821, 4161.538, 450, 0, []
1629739952.4611, 8, 0, 4185.128, 4256.923, 4124.615, 4157.949, 4160, 450, 0, []
1629739952.4691, 9, 0, 4182.564, 4239.487, 4112.821, 4141.538, 4150.769, 16175, 0, []
1629739952.477, 10, 0, 4171.282, 4246.154, 4091.795, 4132.308, 4137.949, 450, 0, []
1629739952.4849, 11, 0, 4162.051, 4250.256, 4115.385, 4135.897, 4129.744, 16203, 0, []
1629739952.4928, 12, 0, 4170.256, 4242.564, 4104.103, 4134.359, 4146.667, 450, 0, []
1629739952.5007, 13, 0, 4167.179, 4257.949, 4116.41, 4130.769, 4160, 450, 0, []
1629739952.5086, 14, 0, 4144.615, 4262.051, 4105.641, 4128.718, 4137.436, 450, 0, []
1629739952.5165, 15, 0, 4140, 4235.897, 4093.846, 4128.718, 4123.077, 16203, 0, []
1629739952.5244, 16, 0, 4147.692, 4237.436, 4126.667, 4125.641, 4135.897, 0, 0, []
1629739952.5324, 17, 0, 4143.077, 4241.538, 4087.692, 4104.615, 4133.333, 0, 0, []
1629739952.5403, 18, 0, 4155.385, 4233.333, 4090.769, 4103.077, 4129.231, 0, 0, []
1629739952.5483, 19, 0, 4197.436, 4272.308, 4138.974, 4143.59, 4169.231, 0, 0, []
1629739952.5562, 20, 0, 4218.974, 4294.359, 4146.667, 4174.872, 4208.718, 0, 0, []
1629739952.5641, 21, 0, 4209.744, 4256.923, 4163.077, 4173.333, 4203.59, 0, 0, []
1629739952.572, 22, 0, 4204.615, 4271.282, 4144.103, 4175.385, 4189.744, 0, 0, []
1629739952.5798, 23, 0, 4192.308, 4305.641, 4144.615, 4171.795, 4173.333, 0, 0, []
1629739952.5877, 24, 0, 4158.462, 4264.103, 4133.333, 4128.205, 4141.026, 0, 0, []
1629739952.5955, 25, 0, 4138.974, 4218.462, 4085.641, 4093.846, 4124.615, 0, 0, []
1629739952.6033, 26, 0, 4155.897, 4243.077, 4109.744, 4114.359, 4138.462, 0, 0, []
1629739952.6111, 27, 0, 4182.564, 4282.564, 4124.103, 4150.256, 4157.436, 0, 0, []
1629739952.619, 28, 0, 4186.667, 4277.436, 4134.872, 4157.949, 4164.615, 0, 0, []
1629739952.6268, 29, 0, 4177.949, 4258.462, 4143.59, 4149.744, 4165.128, 0, 0, []
1629739952.6348, 30, 0, 4178.462, 4256.41, 4118.462, 4151.282, 4166.154, 0, 0, []
1629739952.6426, 31, 0, 4181.026, 4260.513, 4144.615, 4160.513, 4161.026, 0, 0, []
1629739952.6506, 32, 0, 4181.538, 4257.949, 4136.923, 4155.897, 4158.974, 0, 0, []
1629739952.6585, 33, 0, 4175.385, 4246.667, 4109.231, 4131.795, 4154.872, 0, 0, []
1629739952.6665, 34, 0, 4163.077, 4247.179, 4103.077, 4118.462, 4144.103, 0, 0, []
1629739952.6744, 35, 0, 4165.128, 4252.308, 4086.667, 4134.359, 4141.026, 0, 0, []
1629739952.6823, 36, 0, 4173.333, 4232.308, 4117.436, 4142.564, 4146.154, 0, 0, []
1629739952.6902, 37, 0, 4171.795, 4226.667, 4112.308, 4129.231, 4153.333, 0, 0, []
1629739952.6982, 38, 0, 4176.923, 4259.487, 4108.205, 4137.949, 4162.564, 0, 0, []
1629739952.7061, 39, 0, 4184.103, 4250.769, 4131.795, 4148.205, 4155.385, 0, 0, []
1629739952.7139, 40, 0, 4166.667, 4214.872, 4097.949, 4114.359, 4128.718, 0, 0, []
1629739952.7218, 41, 0, 4155.897, 4246.154, 4114.872, 4102.564, 4129.231, 0, 0, []
1629739952.7295, 42, 0, 4182.564, 4289.231, 4134.359, 4147.692, 4160.513, 0, 0, []
1629739952.7374, 43, 0, 4194.359, 4253.333, 4122.564, 4168.718, 4159.487, 0, 0, []
1629739952.7452, 44, 0, 4166.154, 4230.256, 4129.744, 4142.051, 4133.333, 0, 0, []
1629739952.7531, 45, 0, 4148.205, 4256.41, 4106.154, 4128.205, 4134.872, 0, 0, []
1629739952.7609, 46, 0, 4156.41, 4247.692, 4122.564, 4135.897, 4147.692, 0, 0, []
1629739952.7688, 47, 0, 4166.667, 4228.205, 4124.103, 4136.923, 4145.641, 0, 0, []
1629739952.7767, 48, 0, 4171.282, 4238.462, 4106.667, 4133.333, 4150.256, 0, 0, []
1629739952.7846, 49, 0, 4175.385, 4257.436, 4130.769, 4140, 4161.538, 0, 0, []
1629739952.7924, 50, 0, 4182.051, 4269.231, 4110.256, 4151.795, 4164.103, 0, 0, []
1629739952.8004, 51, 0, 4181.538, 4259.487, 4117.436, 4150.769, 4161.026, 0, 0, []
1629739952.8082, 52, 0, 4171.795, 4227.179, 4121.026, 4138.974, 4155.897, 0, 0, []
1629739952.8162, 53, 0, 4166.667, 4233.333, 4101.538, 4147.692, 4160, 0, 0, []
1629739952.8241, 54, 0, 4180.513, 4270.769, 4131.795, 4168.718, 4169.231, 0, 0, []
1629739952.8321, 55, 0, 4196.41, 4264.615, 4116.41, 4168.205, 4167.179, 0, 0, []
1629739952.84, 56, 0, 4184.615, 4243.077, 4114.359, 4155.385, 4156.923, 0, 0, []
1629739952.8479, 57, 0, 4165.128, 4254.872, 4126.154, 4152.308, 4152.308, 0, 0, []
1629739952.8558, 58, 0, 4170.256, 4262.564, 4101.026, 4155.897, 4151.282, 0, 0, []
1629739952.8638, 59, 0, 4185.128, 4233.846, 4116.923, 4155.385, 4150.256, 0, 0, []
1629739952.8717, 60, 0, 4184.103, 4226.154, 4113.846, 4149.231, 4157.436, 0, 0, []
1629739952.8795, 61, 0, 4164.615, 4233.846, 4111.282, 4136.923, 4148.205, 0, 0, []
1629739952.8873, 62, 0, 4159.487, 4232.821, 4116.41, 4131.795, 4136.923, 0, 0, []
1629739952.8951, 63, 0, 4185.641, 4264.615, 4106.667, 4149.231, 4154.872, 0, 0, []
1629739952.903, 64, 0, 4204.103, 4273.846, 4143.59, 4158.462, 4173.846, 450, 0, []
1629739952.9108, 65, 0, 4200, 4243.077, 4133.846, 4152.308, 4176.923, 450, 0, []
1629739952.9188, 66, 0, 4193.846, 4261.026, 4126.154, 4161.026, 4173.846, 16182, 0, []
1629739952.9266, 67, 0, 4200.513, 4294.359, 4152.308, 4175.385, 4170.769, 450, 0, []
1629739952.9345, 68, 0, 4208.205, 4266.667, 4130.769, 4174.872, 4171.795, 16118, 0, []
1629739952.9423, 69, 0, 4194.359, 4246.154, 4136.923, 4172.821, 4172.308, 450, 0, []
1629739952.9503, 70, 0, 4177.949, 4275.897, 4120, 4171.795, 4163.077, 16101, 0, []
1629739952.9582, 71, 0, 4186.154, 4285.641, 4105.641, 4166.154, 4153.846, 450, 0, []
1629739952.9661, 72, 0, 4205.128, 4263.077, 4137.436, 4171.795, 4164.615, 450, 0, []
1629739952.974, 73, 0, 4202.564, 4244.615, 4126.667, 4171.795, 4174.359, 16175, 0, []
1629739952.982, 74, 0, 4192.308, 4243.59, 4129.231, 4155.897, 4166.154, 450, 0, []
1629739952.9899, 75, 0, 4203.077, 4263.077, 4113.333, 4155.385, 4166.667, 16203, 0, []
1629739952.9979, 76, 0, 4216.923, 4267.179, 4117.436, 4174.872, 4181.538, 450, 0, []
1629739953.0057, 77, 0, 4213.333, 4261.026, 4158.974, 4178.974, 4182.051, 450, 0, []
1629739953.0135, 78, 0, 4212.308, 4277.949, 4130.256, 4162.051, 4178.974, 450, 0, []
1629739953.0214, 79, 0, 4222.051, 4279.487, 4137.436, 4154.872, 4183.59, 16203, 0, []
1629739953.0292, 80, 0, 4218.974, 4264.615, 4146.154, 4157.949, 4173.846, 450, 0, []
1629739953.0371, 81, 0, 4208.205, 4267.692, 4127.692, 4153.846, 4160.513, 450, 0, []
1629739953.0448, 82, 0, 4195.385, 4267.179, 4139.487, 4143.077, 4157.949, 450, 0, []
1629739953.0527, 83, 0, 4177.949, 4243.077, 4100, 4127.179, 4146.667, 16203, 0, []
1629739953.0605, 84, 0, 4187.179, 4226.667, 4111.795, 4138.462, 4152.821, 450, 0, []
1629739953.0684, 85, 0, 4222.051, 4242.564, 4156.41, 4174.359, 4190.769, 450, 0, []
1629739953.0762, 86, 0, 4235.897, 4267.179, 4154.359, 4188.205, 4212.821, 450, 0, []
1629739953.0842, 87, 0, 4222.564, 4282.051, 4156.923, 4177.949, 4201.538, 16203, 0, []
1629739953.092, 88, 0, 4221.538, 4274.359, 4132.308, 4176.923, 4192.821, 450, 0, []
1629739953.0999, 89, 0, 4228.205, 4251.795, 4148.718, 4180.513, 4192.821, 450, 0, []
1629739953.1077, 90, 0, 4223.077, 4251.282, 4167.179, 4170.769, 4193.846, 450, 0, []
1629739953.1157, 91, 0, 4213.333, 4262.564, 4136.41, 4166.667, 4191.795, 16203, 0, []
1629739953.1236, 92, 0, 4203.59, 4255.385, 4143.59, 4168.205, 4178.462, 450, 0, []
1629739953.1315, 93, 0, 4208.205, 4269.231, 4132.308, 4159.487, 4175.385, 450, 0, []
1629739953.1394, 94, 0, 4214.359, 4282.564, 4135.897, 4148.205, 4183.59, 450, 0, []
1629739953.1474, 95, 0, 4206.667, 4247.179, 4140.513, 4142.564, 4184.103, 16203, 0, []
1629739953.1553, 96, 0, 4206.154, 4236.923, 4109.744, 4152.821, 4188.205, 450, 0, []
1629739953.1633, 97, 0, 4220, 4276.923, 4137.949, 4170.769, 4193.333, 450, 0, []
1629739953.1711, 98, 0, 4225.128, 4282.051, 4140.513, 4170.769, 4193.846, 450, 0, []
1629739953.1789, 99, 0, 4213.333, 4250.769, 4131.795, 4155.385, 4190.769, 16203, 0, []
1629739953.1868, 100, 0, 4211.282, 4248.718, 4143.077, 4153.846, 4189.231, 450, 0, []
1629739953.1946, 101, 0, 4214.359, 4256.923, 4111.282, 4159.487, 4181.538, 450, 0, []
1629739953.2025, 102, 0, 4199.487, 4238.462, 4118.462, 4148.718, 4167.692, 450, 0, []
1629739953.2102, 103, 0, 4186.667, 4240, 4116.41, 4135.897, 4167.179, 16203, 0, []
1629739953.2181, 104, 0, 4190.769, 4264.615, 4116.41, 4136.923, 4172.308, 450, 0, []
1629739953.2259, 105, 0, 4200.513, 4262.051, 4139.487, 4147.179, 4167.692, 450, 0, []
1629739953.2338, 106, 0, 4204.615, 4248.205, 4111.795, 4152.821, 4168.718, 450, 0, []
1629739953.2416, 107, 0, 4196.923, 4259.487, 4123.077, 4147.179, 4176.41, 16203, 0, []
1629739953.2495, 108, 0, 4189.744, 4265.641, 4120.513, 4142.051, 4174.872, 450, 0, []
1629739953.2574, 109, 0, 4197.436, 4233.846, 4102.564, 4146.667, 4172.308, 450, 0, []
1629739953.2654, 110, 0, 4207.692, 4221.538, 4129.744, 4147.692, 4178.462, 450, 0, []
1629739953.2733, 111, 0, 4205.641, 4254.872, 4112.821, 4135.897, 4180, 16203, 0, []
1629739953.2813, 112, 0, 4205.641, 4276.923, 4119.487, 4141.026, 4183.077, 450, 0, []
1629739953.2891, 113, 0, 4221.026, 4268.205, 4129.744, 4164.615, 4199.487, 450, 0, []
1629739953.2971, 114, 0, 4229.744, 4264.103, 4124.615, 4170.256, 4205.641, 450, 0, []
1629739953.305, 115, 0, 4222.564, 4265.641, 4149.744, 4158.462, 4198.462, 16203, 0, []
1629739953.313, 116, 0, 4209.744, 4249.231, 4127.692, 4149.744, 4195.385, 450, 0, []
1629739953.3209, 117, 0, 4194.359, 4229.744, 4130.769, 4151.282, 4187.692, 450, 0, []
1629739953.3286, 118, 0, 4195.897, 4236.923, 4138.462, 4153.846, 4181.538, 450, 0, []
1629739953.3365, 119, 0, 4208.205, 4255.385, 4119.487, 4149.744, 4186.154, 16203, 0, []
1629739953.3443, 120, 0, 4201.538, 4251.282, 4144.615, 4146.154, 4184.615, 450, 0, []
1629739953.3522, 121, 0, 4195.897, 4242.051, 4135.385, 4148.205, 4180, 450, 0, []
1629739953.36, 122, 0, 4205.128, 4244.103, 4134.359, 4148.718, 4179.487, 450, 0, []
1629739953.3678, 123, 0, 4209.744, 4247.179, 4133.333, 4146.667, 4177.949, 16203, 0, []
1629739953.3756, 124, 0, 4203.077, 4264.615, 4114.872, 4146.154, 4180, 450, 0, []
1629739953.3835, 125, 0, 4192.821, 4276.41, 4146.154, 4147.179, 4177.436, 450, 0, []
1629739953.3913, 126, 0, 4188.205, 4243.59, 4128.718, 4145.128, 4169.231, 450, 0, []
1629739953.3992, 127, 0, 4194.359, 4211.282, 4116.41, 4143.077, 4168.718, 16203, 0, []
1629739953.407, 128, 0, 4198.462, 4251.282, 4128.205, 4138.974, 4176.923, 450, 0, []
1629739953.4149, 0, 0, 4192.821, 4288.205, 4109.744, 4135.897, 4181.538, 450, 0, []
1629739953.4228, 1, 0, 4187.179, 4244.103, 4128.718, 4138.974, 4174.872, 450, 0, []
1629739953.4308, 2, 0, 4191.795, 4216.41, 4113.846, 4144.103, 4171.795, 16186, 0, []
1629739953.4387, 3, 0, 4196.923, 4255.897, 4116.41, 4146.667, 4176.41, 450, 0, []
1629739953.4467, 4, 0, 4191.795, 4252.821, 4139.487, 4136.41, 4173.333, 16118, 0, []
1629739953.4545, 5, 0, 4186.667, 4212.821, 4106.154, 4133.846, 4168.205, 450, 0, []
1629739953.4625, 6, 0, 4204.103, 4239.487, 4138.462, 4163.077, 4187.179, 16097, 0, []
1629739953.4704, 7, 0, 4229.231, 4285.641, 4160.513, 4186.667, 4209.231, 450, 0, []
1629739953.4784, 8, 0, 4226.667, 4277.949, 4142.051, 4173.333, 4201.538, 450, 0, []
1629739953.4863, 9, 0, 4207.692, 4248.718, 4146.667, 4156.41, 4193.846, 16175, 0, []
1629739953.494, 10, 0, 4198.462, 4244.103, 4126.154, 4153.333, 4191.795, 450, 0, []
1629739953.5019, 11, 0, 4192.308, 4257.949, 4134.359, 4146.154, 4177.949, 16203, 0, []
1629739953.5098, 12, 0, 4188.205, 4262.564, 4128.205, 4137.949, 4175.385, 450, 0, []
1629739953.5177, 13, 0, 4194.359, 4259.487, 4119.487, 4141.538, 4186.154, 450, 0, []
1629739953.5255, 14, 0, 4197.436, 4256.41, 4135.385, 4144.615, 4183.59, 450, 0, []
1629739953.5334, 15, 0, 4192.821, 4247.692, 4110.769, 4140, 4180, 16203, 0, []
1629739953.5413, 16, 0, 4193.333, 4234.359, 4133.846, 4144.103, 4192.308, 0, 0, []
1629739953.5493, 17, 0, 4197.436, 4244.103, 4145.641, 4155.385, 4205.128, 0, 0, []
1629739953.5572, 18, 0, 4189.744, 4252.821, 4119.487, 4152.821, 4197.436, 0, 0, []
1629739953.5652, 19, 0, 4168.718, 4228.718, 4122.564, 4128.718, 4169.744, 0, 0, []
1629739953.573, 20, 0, 4161.026, 4219.487, 4093.846, 4112.308, 4156.923, 0, 0, []
1629739953.581, 21, 0, 4165.641, 4236.923, 4106.154, 4118.974, 4171.282, 0, 0, []
1629739953.5889, 22, 0, 4172.308, 4241.538, 4125.128, 4130.769, 4183.077, 0, 0, []
1629739953.5969, 23, 0, 4190.769, 4229.231, 4123.59, 4141.538, 4187.692, 0, 0, []
1629739953.6048, 24, 0, 4201.026, 4223.077, 4151.282, 4143.59, 4193.333, 0, 0, []
1629739953.6127, 25, 0, 4183.59, 4243.077, 4114.359, 4130.256, 4188.718, 0, 0, []
1629739953.6206, 26, 0, 4167.179, 4255.385, 4107.179, 4122.051, 4172.308, 0, 0, []
1629739953.6286, 27, 0, 4171.282, 4251.282, 4128.718, 4125.128, 4163.077, 0, 0, []
1629739953.6365, 28, 0, 4165.128, 4240.513, 4092.308, 4114.359, 4164.615, 0, 0, []
1629739953.6443, 29, 0, 4154.872, 4229.231, 4102.051, 4109.744, 4170.256, 0, 0, []
1629739953.6521, 30, 0, 4178.462, 4230.769, 4124.615, 4140, 4187.692, 0, 0, []
1629739953.6599, 31, 0, 4194.872, 4237.436, 4144.103, 4155.897, 4192.821, 0, 0, []
1629739953.6678, 32, 0, 4177.436, 4254.872, 4135.385, 4129.231, 4179.487, 0, 0, []
1629739953.6756, 33, 0, 4174.359, 4254.359, 4107.692, 4113.846, 4182.051, 0, 0, []
1629739953.6835, 34, 0, 4184.615, 4235.897, 4126.667, 4118.462, 4181.538, 0, 0, []
1629739953.6912, 35, 0, 4173.846, 4248.205, 4107.692, 4103.59, 4157.949, 0, 0, []
1629739953.6991, 36, 0, 4169.744, 4258.462, 4130.256, 4105.641, 4161.026, 0, 0, []
1629739953.7069, 37, 0, 4197.949, 4245.128, 4169.231, 4146.667, 4202.564, 0, 0, []
1629739953.7149, 38, 0, 4212.821, 4240, 4134.359, 4166.154, 4213.333, 0, 0, []
1629739953.7228, 39, 0, 4192.821, 4256.923, 4129.744, 4146.667, 4180.513, 0, 0, []
1629739953.7307, 40, 0, 4175.385, 4248.205, 4108.205, 4123.077, 4158.974, 0, 0, []
1629739953.7386, 41, 0, 4171.795, 4209.744, 4097.949, 4109.744, 4156.41, 0, 0, []
1629739953.7466, 42, 0, 4180.513, 4217.436, 4111.795, 4106.667, 4158.462, 0, 0, []
1629739953.7545, 43, 0, 4192.308, 4243.59, 4093.846, 4109.744, 4166.667, 0, 0, []
1629739953.7625, 44, 0, 4194.872, 4225.128, 4121.026, 4118.974, 4176.41, 0, 0, []
1629739953.7704, 45, 0, 4192.308, 4218.974, 4120, 4133.333, 4182.051, 0, 0, []
1629739953.7783, 46, 0, 4190.769, 4233.846, 4106.154, 4145.641, 4182.051, 0, 0, []
1629739953.7862, 47, 0, 4197.436, 4226.154, 4135.385, 4148.205, 4183.59, 0, 0, []
1629739953.794, 48, 0, 4207.692, 4244.615, 4120.513, 4138.974, 4190.769, 0, 0, []
1629739953.8019, 49, 0, 4203.077, 4275.897, 4113.333, 4127.692, 4189.231, 0, 0, []
1629739953.8097, 50, 0, 4191.795, 4242.051, 4107.692, 4127.692, 4180, 0, 0, []
1629739953.8175, 51, 0, 4188.205, 4197.436, 4099.487, 4134.359, 4171.282, 0, 0, []
1629739953.8253, 52, 0, 4193.846, 4212.308, 4108.718, 4138.974, 4175.897, 0, 0, []
1629739953.8332, 53, 0, 4202.051, 4238.462, 4101.026, 4143.59, 4196.923, 0, 0, []
1629739953.841, 54, 0, 4202.051, 4240, 4136.923, 4153.333, 4201.538, 0, 0, []
1629739953.8489, 55, 0, 4205.641, 4237.436, 4135.897, 4167.692, 4196.41, 0, 0, []
1629739953.8566, 56, 0, 4213.333, 4232.821, 4112.308, 4163.59, 4198.462, 0, 0, []
1629739953.8645, 57, 0, 4200.513, 4228.718, 4135.385, 4143.077, 4190.256, 0, 0, []
1629739953.8723, 58, 0, 4186.154, 4243.59, 4121.026, 4140.513, 4186.154, 0, 0, []
1629739953.8803, 59, 0, 4203.59, 4255.897, 4137.949, 4162.051, 4207.179, 0, 0, []
1629739953.8882, 60, 0, 4218.462, 4228.718, 4138.462, 4157.436, 4209.231, 0, 0, []
1629739953.8961, 61, 0, 4199.487, 4215.385, 4108.205, 4129.744, 4183.59, 0, 0, []
1629739953.904, 62, 0, 4196.41, 4254.872, 4131.282, 4138.974, 4192.821, 0, 0, []
1629739953.912, 63, 0, 4226.667, 4278.462, 4132.308, 4166.667, 4221.538, 0, 0, []
1629739953.9199, 64, 0, 4249.231, 4268.718, 4144.103, 4178.974, 4227.179, 450, 0, []
1629739953.9279, 65, 0, 4247.692, 4261.026, 4139.487, 4177.949, 4229.744, 450, 0, []
1629739953.9357, 66, 0, 4235.385, 4250.769, 4136.923, 4172.308, 4233.333, 16187, 0, []
1629739953.9435, 67, 0, 4233.846, 4246.667, 4151.795, 4173.333, 4227.179, 450, 0, []
1629739953.9514, 68, 0, 4246.667, 4250.769, 4115.385, 4182.564, 4226.154, 16118, 0, []
1629739953.9592, 69, 0, 4259.487, 4241.538, 4141.026, 4172.308, 4230.769, 450, 0, []
1629739953.9671, 70, 0, 4296.41, 4257.436, 4115.897, 4154.872, 4257.949, 16101, 0, []
1629739953.9748, 71, 0, 4358.974, 4289.231, 4104.615, 4172.821, 4318.462, 450, 0, []
1629739953.9827, 72, 0, 4388.205, 4267.179, 4189.231, 4180, 4350.769, 450, 0, []
1629739953.9905, 73, 0, 4401.538, 4243.59, 4120, 4151.282, 4350.769, 16175, 0, []
1629739953.9984, 74, 0, 4445.641, 4263.077, 4100.513, 4149.231, 4369.744, 450, 0, []
1629739954.0062, 75, 0, 4474.872, 4281.538, 4158.462, 4172.308, 4389.231, 16203, 0, []
1629739954.0141, 76, 0, 4447.179, 4275.897, 4118.974, 4167.179, 4366.667, 450, 0, []
1629739954.022, 77, 0, 4406.154, 4258.974, 4128.718, 4152.821, 4328.718, 450, 0, []
1629739954.03, 78, 0, 4390.256, 4255.897, 4128.718, 4155.897, 4309.744, 450, 0, []
1629739954.0379, 79, 0, 4364.615, 4261.026, 4108.205, 4145.641, 4281.026, 16203, 0, []
1629739954.0459, 80, 0, 4316.41, 4237.436, 4116.923, 4124.103, 4238.974, 450, 0, []
1629739954.0537, 81, 0, 4283.59, 4217.436, 4116.923, 4129.231, 4221.538, 450, 0, []
1629739954.0617, 82, 0, 4265.128, 4232.308, 4121.538, 4137.949, 4211.795, 450, 0, []
1629739954.0696, 83, 0, 4243.077, 4245.128, 4100.513, 4124.103, 4184.103, 16203, 0, []
1629739954.0776, 84, 0, 4236.41, 4237.436, 4094.359, 4135.385, 4177.949, 450, 0, []
1629739954.0855, 85, 0, 4247.179, 4230.256, 4136.41, 4170.256, 4200.513, 450, 0, []
1629739954.0934, 86, 0, 4239.487, 4246.154, 4157.436, 4169.231, 4204.615, 450, 0, []
1629739954.1013, 87, 0, 4224.615, 4267.692, 4154.359, 4155.385, 4198.462, 16203, 0, []
1629739954.1091, 88, 0, 4234.872, 4255.385, 4149.744, 4160.513, 4203.59, 450, 0, []
1629739954.117, 89, 0, 4236.41, 4236.923, 4146.667, 4150.256, 4189.231, 450, 0, []
1629739954.1248, 90, 0, 4215.897, 4258.462, 4138.974, 4131.795, 4164.103, 450, 0, []
1629739954.1328, 91, 0, 4201.538, 4261.026, 4122.564, 4140, 4161.538, 16203, 0, []
1629739954.1406, 92, 0, 4194.872, 4232.821, 4128.718, 4149.744, 4159.487, 450, 0, []
1629739954.1485, 93, 0, 4203.077, 4258.462, 4135.385, 4146.667, 4157.436, 450, 0, []
1629739954.1563, 94, 0, 4230.769, 4300.513, 4137.949, 4155.385, 4179.487, 450, 0, []
1629739954.1642, 95, 0, 4234.359, 4289.744, 4142.051, 4152.308, 4185.641, 16203, 0, []
1629739954.172, 96, 0, 4211.282, 4257.949, 4121.026, 4134.872, 4160, 450, 0, []
1629739954.1798, 97, 0, 4205.128, 4246.154, 4124.103, 4137.436, 4148.205, 450, 0, []
1629739954.1876, 98, 0, 4204.615, 4264.103, 4118.974, 4134.359, 4151.282, 450, 0, []
1629739954.1956, 99, 0, 4198.974, 4275.385, 4100, 4123.077, 4154.359, 16203, 0, []
1629739954.2035, 100, 0, 4214.872, 4275.897, 4124.615, 4145.128, 4169.744, 450, 0, []
1629739954.2115, 101, 0, 4224.615, 4284.615, 4107.692, 4152.821, 4176.923, 450, 0, []
1629739954.2193, 102, 0, 4209.231, 4290.769, 4085.641, 4120, 4160, 450, 0, []
1629739954.2273, 103, 0, 4215.897, 4289.231, 4111.282, 4120.513, 4171.795, 16203, 0, []
1629739954.2352, 104, 0, 4238.462, 4290.256, 4138.974, 4158.462, 4203.59, 450, 0, []
1629739954.2432, 105, 0, 4232.821, 4304.615, 4154.359, 4166.667, 4194.359, 450, 0, []
1629739954.2511, 106, 0, 4216.923, 4313.333, 4127.179, 4155.897, 4169.744, 450, 0, []
1629739954.2588, 107, 0, 4214.872, 4299.487, 4135.385, 4155.897, 4172.308, 16203, 0, []
1629739954.2667, 108, 0, 4215.897, 4291.795, 4138.974, 4138.974, 4175.897, 450, 0, []
1629739954.2745, 109, 0, 4223.077, 4296.923, 4101.026, 4112.308, 4169.744, 450, 0, []
1629739954.2824, 110, 0, 4234.359, 4285.641, 4117.949, 4116.923, 4171.282, 450, 0, []
1629739954.2902, 111, 0, 4225.641, 4266.154, 4113.333, 4123.077, 4164.103, 16203, 0, []
1629739954.298, 112, 0, 4208.718, 4263.59, 4104.615, 4111.795, 4157.436, 450, 0, []
1629739954.3058, 113, 0, 4222.564, 4256.41, 4132.308, 4133.846, 4180, 450, 0, []
1629739954.3137, 114, 0, 4250.769, 4258.462, 4141.026, 4167.179, 4201.026, 450, 0, []
1629739954.3215, 115, 0, 4241.026, 4251.282, 4133.846, 4138.462, 4181.026, 16203, 0, []
1629739954.3294, 116, 0, 4209.744, 4226.154, 4093.846, 4090.769, 4149.744, 450, 0, []
1629739954.3371, 117, 0, 4198.462, 4245.641, 4091.795, 4095.897, 4145.641, 450, 0, []
1629739954.3451, 118, 0, 4208.718, 4271.282, 4127.692, 4132.821, 4162.051, 450, 0, []
1629739954.353, 119, 0, 4230.256, 4260, 4141.538, 4165.641, 4186.154, 16203, 0, []
1629739954.361, 120, 0, 4237.436, 4256.41, 4159.487, 4173.333, 4194.872, 450, 0, []
1629739954.3689, 121, 0, 4214.872, 4260, 4146.667, 4150.256, 4178.974, 450, 0, []
1629739954.3768, 122, 0, 4197.949, 4250.256, 4129.744, 4130.256, 4169.744, 450, 0, []
1629739954.3847, 123, 0, 4200, 4243.59, 4124.103, 4123.077, 4165.128, 16203, 0, []
1629739954.3927, 124, 0, 4187.692, 4226.667, 4088.718, 4106.154, 4142.564, 450, 0, []
1629739954.4006, 125, 0, 4171.282, 4217.436, 4072.821, 4096.923, 4128.718, 450, 0, []
1629739954.4086, 126, 0, 4195.385, 4252.308, 4078.974, 4124.615, 4157.949, 450, 0, []
1629739954.4164, 127, 0, 4233.333, 4268.205, 4101.538, 4162.564, 4196.41, 16203, 0, []
1629739954.4242, 128, 0, 4247.692, 4249.744, 4128.205, 4173.333, 4204.103, 450, 0, []
1629739954.4321, 0, 0, 4261.538, 4266.667, 4124.615, 4168.205, 4215.385, 450, 0, []
1629739954.4399, 1, 0, 4265.641, 4279.487, 4126.154, 4159.487, 4230.256, 450, 0, []
1629739954.4478, 2, 0, 4233.333, 4244.103, 4116.923, 4137.436, 4201.026, 16187, 0, []
1629739954.4556, 3, 0, 4209.744, 4226.667, 4110.769, 4131.282, 4170.256, 450, 0, []
1629739954.4634, 4, 0, 4226.667, 4247.692, 4134.359, 4156.923, 4185.641, 16117, 0, []
1629739954.4712, 5, 0, 4234.359, 4278.462, 4129.231, 4168.718, 4196.41, 450, 0, []
1629739954.4791, 6, 0, 4196.41, 4312.821, 4112.308, 4145.128, 4158.974, 16096, 0, []
1629739954.4869, 7, 0, 4171.795, 4333.333, 4105.641, 4128.205, 4130.769, 450, 0, []
1629739954.4948, 8, 0, 4190.769, 4306.667, 4107.179, 4137.436, 4141.538, 450, 0, []
1629739954.5025, 9, 0, 4192.821, 4267.179, 4118.974, 4129.744, 4141.026, 16175, 0, []
1629739954.5104, 10, 0, 4193.333, 4264.615, 4117.949, 4127.692, 4151.282, 450, 0, []
1629739954.5183, 11, 0, 4223.077, 4284.103, 4137.949, 4163.59, 4181.026, 16202, 0, []
1629739954.5261, 12, 0, 4222.564, 4282.564, 4145.128, 4168.718, 4173.333, 450, 0, []
1629739954.5341, 13, 0, 4187.692, 4258.974, 4114.872, 4129.231, 4140, 450, 0, []
1629739954.5419, 14, 0, 4185.641, 4278.462, 4115.385, 4118.462, 4140, 450, 0, []
1629739954.5498, 15, 0, 4213.846, 4338.974, 4127.692, 4149.744, 4171.282, 16202, 0, []
1629739954.5578, 16, 0, 4227.692, 4364.103, 4137.436, 4161.538, 4184.103, 0, 0, []
1629739954.5657, 17, 0, 4232.308, 4340, 4142.564, 4153.846, 4180.513, 0, 0, []
1629739954.5736, 18, 0, 4221.538, 4285.641, 4116.923, 4144.615, 4167.179, 0, 0, []
1629739954.5814, 19, 0, 4193.846, 4238.462, 4103.59, 4129.231, 4145.641, 0, 0, []
1629739954.5892, 20, 0, 4184.615, 4225.128, 4098.462, 4128.718, 4142.564, 0, 0, []
1629739954.5971, 21, 0, 4189.744, 4223.077, 4102.564, 4142.051, 4149.744, 0, 0, []
1629739954.6049, 22, 0, 4195.385, 4248.205, 4125.641, 4147.692, 4154.872, 0, 0, []
1629739954.6128, 23, 0, 4199.487, 4302.051, 4124.615, 4142.564, 4161.538, 0, 0, []
1629739954.6205, 24, 0, 4200.513, 4297.949, 4120, 4138.974, 4163.077, 0, 0, []
1629739954.6284, 25, 0, 4194.872, 4261.026, 4106.667, 4135.385, 4151.795, 0, 0, []
1629739954.6362, 26, 0, 4196.923, 4289.744, 4100.513, 4134.872, 4154.359, 0, 0, []
1629739954.6442, 27, 0, 4192.308, 4310.769, 4111.795, 4130.769, 4163.077, 0, 0, []
1629739954.6521, 28, 0, 4141.538, 4248.205, 4065.641, 4092.308, 4109.744, 0, 0, []
1629739954.66, 29, 0, 4113.846, 4214.359, 4044.615, 4069.744, 4065.128, 0, 0, []
1629739954.6679, 30, 0, 4183.077, 4262.051, 4088.718, 4107.692, 4132.308, 0, 0, []
1629739954.6759, 31, 0, 4266.154, 4279.487, 4108.718, 4139.487, 4217.949, 0, 0, []
1629739954.6838, 32, 0, 4298.974, 4249.231, 4113.333, 4135.897, 4243.077, 0, 0, []
1629739954.6918, 33, 0, 4333.846, 4269.231, 4095.897, 4130.769, 4272.308, 0, 0, []
1629739954.6996, 34, 0, 4381.026, 4297.436, 4072.308, 4116.41, 4316.923, 0, 0, []
1629739954.7076, 35, 0, 4409.231, 4254.359, 4112.821, 4095.897, 4343.077, 0, 0, []
1629739954.7155, 36, 0, 4454.359, 4233.846, 4091.795, 4100.513, 4384.103, 0, 0, []
1629739954.7235, 37, 0, 4512.821, 4258.974, 4050.256, 4112.821, 4432.821, 0, 0, []
1629739954.7314, 38, 0, 4538.462, 4271.282, 4118.974, 4114.872, 4451.795, 0, 0, []
1629739954.7391, 39, 0, 4528.718, 4294.872, 4107.692, 4095.385, 4442.564, 0, 0, []
1629739954.747, 40, 0, 4539.487, 4307.179, 4050.769, 4088.205, 4448.205, 0, 0, []
1629739954.7548, 41, 0, 4592.821, 4282.051, 4118.974, 4133.846, 4493.846, 0, 0, []
1629739954.7627, 42, 0, 4602.564, 4273.333, 4183.59, 4165.128, 4503.59, 0, 0, []
1629739954.7705, 43, 0, 4544.615, 4273.846, 4127.179, 4144.103, 4451.795, 0, 0, []
1629739954.7783, 44, 0, 4507.692, 4226.154, 4102.051, 4127.179, 4416.923, 0, 0, []
1629739954.7861, 45, 0, 4502.564, 4202.564, 4138.462, 4129.231, 4414.872, 0, 0, []
1629739954.794, 46, 0, 4481.026, 4235.897, 4109.231, 4124.103, 4405.128, 0, 0, []
1629739954.8018, 47, 0, 4452.308, 4230.256, 4122.564, 4120.513, 4388.205, 0, 0, []
1629739954.8098, 48, 0, 4428.205, 4207.179, 4115.385, 4110.256, 4371.282, 0, 0, []
1629739954.8177, 49, 0, 4404.615, 4216.923, 4075.385, 4095.385, 4355.385, 0, 0, []
1629739954.8256, 50, 0, 4398.974, 4225.128, 4121.538, 4112.308, 4358.462, 0, 0, []
1629739954.8335, 51, 0, 4407.179, 4226.154, 4120.513, 4146.154, 4370.256, 0, 0, []
1629739954.8415, 52, 0, 4398.462, 4227.179, 4108.718, 4159.487, 4361.538, 0, 0, []
1629739954.8494, 53, 0, 4372.308, 4204.615, 4141.538, 4144.103, 4333.846, 0, 0, []
1629739954.8574, 54, 0, 4358.974, 4207.179, 4115.385, 4138.462, 4326.154, 0, 0, []
1629739954.8652, 55, 0, 4353.846, 4245.128, 4111.282, 4144.103, 4330.256, 0, 0, []
1629739954.8732, 56, 0, 4332.821, 4229.744, 4136.923, 4121.538, 4309.744, 0, 0, []
1629739954.8811, 57, 0, 4314.872, 4205.641, 4127.179, 4108.205, 4294.872, 0, 0, []
1629739954.8889, 58, 0, 4316.923, 4236.923, 4140, 4135.897, 4311.282, 0, 0, []
1629739954.8968, 59, 0, 4308.718, 4236.41, 4125.128, 4149.231, 4307.692, 0, 0, []
1629739954.9045, 60, 0, 4275.897, 4186.154, 4106.667, 4121.538, 4262.051, 0, 0, []
1629739954.9124, 61, 0, 4249.744, 4182.051, 4108.205, 4099.487, 4228.205, 0, 0, []
1629739954.9202, 62, 0, 4250.769, 4203.59, 4107.179, 4111.795, 4242.564, 0, 0, []
1629739954.9281, 63, 0, 4266.667, 4187.692, 4133.846, 4133.846, 4269.744, 0, 0, []
1629739954.9359, 64, 0, 4266.154, 4188.718, 4117.949, 4125.641, 4260, 450, 0, []
1629739954.9437, 65, 0, 4252.821, 4212.821, 4102.564, 4110.256, 4238.974, 450, 0, []
1629739954.9515, 66, 0, 4257.436, 4221.538, 4108.718, 4120, 4250.769, 16188, 0, []
1629739954.9594, 67, 0, 4251.795, 4214.872, 4111.282, 4112.821, 4253.333, 450, 0, []
1629739954.9672, 68, 0, 4235.385, 4209.744, 4108.718, 4095.897, 4236.923, 16134, 0, []
1629739954.9752, 69, 0, 4245.641, 4220, 4097.949, 4112.821, 4237.949, 450, 0, []
1629739954.983, 70, 0, 4241.026, 4198.462, 4114.359, 4115.385, 4228.718, 300, 0, []
1629739954.991, 71, 0, 4214.359, 4165.641, 4096.41, 4093.846, 4214.872, 450, 0, []
1629739954.9989, 72, 0, 4235.897, 4196.923, 4110.256, 4114.872, 4252.821, 450, 0, []
1629739955.0069, 73, 0, 4276.923, 4232.308, 4152.308, 4152.308, 4288.205, 16173, 0, []
1629739955.0148, 74, 0, 4268.205, 4219.487, 4128.205, 4143.077, 4267.179, 450, 0, []
1629739955.0227, 75, 0, 4234.359, 4205.641, 4111.282, 4105.128, 4230.769, 16184, 0, []
1629739955.0306, 76, 0, 4225.641, 4197.949, 4097.436, 4081.026, 4225.641, 450, 0, []
1629739955.0386, 77, 0, 4251.282, 4175.385, 4097.949, 4094.872, 4256.923, 450, 0, []
1629739955.0465, 78, 0, 4293.846, 4185.641, 4083.59, 4121.538, 4292.308, 450, 0, []
1629739955.0543, 79, 0, 4329.231, 4216.41, 4116.41, 4129.744, 4315.897, 16184, 0, []
1629739955.0621, 80, 0, 4358.462, 4209.744, 4159.487, 4125.641, 4348.718, 450, 0, []
1629739955.0699, 81, 0, 4374.359, 4183.077, 4034.872, 4105.128, 4372.308, 450, 0, []
1629739955.0778, 82, 0, 4370.256, 4167.179, 4086.154, 4094.359, 4371.795, 450, 0, []
1629739955.0856, 83, 0, 4376.923, 4190.256, 4180.513, 4120.513, 4383.077, 16184, 0, []
1629739955.0935, 84, 0, 4365.641, 4209.744, 4059.487, 4118.974, 4368.205, 450, 0, []
1629739955.1012, 85, 0, 4323.59, 4196.41, 4067.692, 4090.256, 4309.231, 450, 0, []
1629739955.1091, 86, 0, 4308.718, 4214.872, 4107.692, 4119.487, 4291.282, 450, 0, []
1629739955.1169, 87, 0, 4291.795, 4230.769, 4114.359, 4161.538, 4283.077, 16184, 0, []
1629739955.1249, 88, 0, 4228.205, 4201.538, 4116.41, 4138.462, 4221.026, 450, 0, []
1629739955.1328, 89, 0, 4166.667, 4183.077, 4070.769, 4110.769, 4168.205, 450, 0, []
1629739955.1407, 90, 0, 4148.718, 4204.615, 4101.026, 4127.179, 4157.949, 450, 0, []
1629739955.1486, 91, 0, 4150.256, 4226.667, 4108.205, 4146.154, 4152.308, 16184, 0, []
1629739955.1566, 92, 0, 4129.744, 4213.333, 4093.333, 4140.513, 4135.897, 450, 0, []
1629739955.1645, 93, 0, 4091.282, 4177.949, 4089.744, 4126.154, 4109.231, 450, 0, []
1629739955.1725, 94, 0, 4077.436, 4160, 4082.564, 4123.077, 4086.667, 450, 0, []
1629739955.1804, 95, 0, 4083.59, 4185.641, 4106.667, 4125.641, 4090.256, 16184, 0, []
1629739955.1883, 96, 0, 4078.974, 4211.795, 4093.333, 4124.103, 4102.051, 450, 0, []
1629739955.1962, 97, 0, 4072.308, 4181.026, 4097.436, 4121.026, 4096.41, 450, 0, []
1629739955.204, 98, 0, 4075.385, 4156.923, 4128.205, 4122.564, 4094.872, 450, 0, []
1629739955.2119, 99, 0, 4083.077, 4193.846, 4113.333, 4133.333, 4113.333, 16184, 0, []
1629739955.2197, 100, 0, 4078.462, 4215.897, 4101.538, 4131.795, 4104.615, 450, 0, []
1629739955.2275, 101, 0, 4058.974, 4181.538, 4085.641, 4110.769, 4073.846, 450, 0, []
1629739955.2353, 102, 0, 4050.769, 4144.615, 4065.641, 4101.026, 4071.282, 450, 0, []
1629739955.2432, 103, 0, 4057.436, 4147.692, 4065.641, 4105.128, 4074.359, 16184, 0, []
1629739955.251, 104, 0, 4057.949, 4182.564, 4064.103, 4107.179, 4064.615, 450, 0, []
1629739955.259, 105, 0, 4059.487, 4194.359, 4082.564, 4113.846, 4066.154, 450, 0, []
1629739955.2668, 106, 0, 4068.718, 4161.026, 4093.846, 4122.564, 4075.897, 450, 0, []
1629739955.2748, 107, 0, 4065.128, 4136.923, 4085.641, 4121.026, 4075.385, 16184, 0, []
1629739955.2827, 108, 0, 4067.179, 4140, 4094.359, 4127.179, 4077.949, 450, 0, []
1629739955.2907, 109, 0, 4078.462, 4115.385, 4100, 4126.154, 4075.897, 450, 0, []
1629739955.2986, 110, 0, 4076.41, 4097.436, 4107.692, 4113.846, 4069.744, 450, 0, []
1629739955.3065, 111, 0, 4090.769, 4139.487, 4122.564, 4138.462, 4091.795, 16184, 0, []
1629739955.3144, 112, 0, 4124.615, 4164.615, 4142.051, 4173.846, 4115.897, 450, 0, []
1629739955.3224, 113, 0, 4123.077, 4138.974, 4139.487, 4160, 4105.128, 450, 0, []
1629739955.3303, 114, 0, 4106.667, 4127.179, 4114.872, 4143.077, 4094.359, 450, 0, []
1629739955.3383, 115, 0, 4117.436, 4153.333, 4130.769, 4157.436, 4096.923, 16184, 0, []
1629739955.3461, 116, 0, 4120, 4163.59, 4137.949, 4149.744, 4091.282, 450, 0, []
1629739955.3539, 117, 0, 4109.744, 4136.923, 4119.487, 4129.744, 4093.846, 450, 0, []
1629739955.3618, 118, 0, 4115.897, 4140, 4132.308, 4143.59, 4104.615, 450, 0, []
1629739955.3696, 119, 0, 4136.41, 4163.077, 4135.897, 4169.231, 4111.282, 16184, 0, []
1629739955.3775, 120, 0, 4150.256, 4144.615, 4130.256, 4176.923, 4122.051, 450, 0, []
1629739955.3852, 121, 0, 4138.974, 4126.667, 4126.154, 4168.718, 4117.949, 450, 0, []
1629739955.3931, 122, 0, 4112.308, 4142.564, 4107.179, 4146.667, 4088.205, 450, 0, []
1629739955.4009, 123, 0, 4105.641, 4147.692, 4110.256, 4131.282, 4081.026, 16184, 0, []
1629739955.4088, 124, 0, 4114.359, 4137.949, 4116.923, 4137.436, 4098.974, 450, 0, []
1629739955.4166, 125, 0, 4095.385, 4126.154, 4104.103, 4127.692, 4080.513, 450, 0, []
1629739955.4245, 126, 0, 4074.872, 4126.667, 4093.846, 4114.359, 4057.949, 450, 0, []
1629739955.4324, 127, 0, 4113.333, 4163.077, 4112.308, 4151.282, 4098.462, 16184, 0, []
1629739955.4404, 128, 0, 4168.718, 4208.718, 4151.795, 4197.949, 4147.179, 450, 0, []
1629739955.4483, 0, 0, 4164.615, 4204.615, 4144.615, 4184.103, 4134.872, 450, 0, []
1629739955.4563, 1, 0, 4132.821, 4175.385, 4125.641, 4153.846, 4103.077, 450, 0, []
1629739955.4641, 2, 0, 4126.667, 4156.923, 4132.821, 4152.308, 4096.41, 16192, 0, []
1629739955.4721, 3, 0, 4112.308, 4147.179, 4117.436, 4140.513, 4082.051, 450, 0, []
1629739955.48, 4, 0, 4088.718, 4149.744, 4107.692, 4124.103, 4062.564, 16128, 0, []
1629739955.488, 5, 0, 4093.846, 4163.59, 4115.385, 4127.179, 4065.641, 450, 0, []
1629739955.4959, 6, 0, 4101.026, 4171.795, 4114.872, 4124.103, 4066.154, 16067, 0, []
1629739955.5037, 7, 0, 4087.179, 4164.615, 4107.692, 4110.769, 4046.154, 450, 0, []
1629739955.5116, 8, 0, 4054.872, 4153.333, 4083.59, 4084.103, 4016.923, 450, 0, []
1629739955.5195, 9, 0, 4033.333, 4140, 4071.795, 4065.641, 4005.641, 16173, 0, []
1629739955.5273, 10, 0, 4068.718, 4158.974, 4106.667, 4113.333, 4042.051, 450, 0, []
1629739955.5351, 11, 0, 4096.923, 4190.769, 4142.564, 4165.128, 4066.154, 16200, 0, []
1629739955.543, 12, 0, 4049.231, 4162.051, 4114.872, 4130.256, 4020, 450, 0, []
1629739955.5507, 13, 0, 4017.949, 4149.231, 4078.462, 4092.308, 3992.308, 450, 0, []
1629739955.5586, 14, 0, 4061.538, 4197.436, 4112.308, 4128.718, 4029.744, 450, 0, []
1629739955.5664, 15, 0, 4085.128, 4209.231, 4123.59, 4153.333, 4042.564, 16200, 0, []
1629739955.5744, 16, 0, 4059.487, 4170.769, 4092.821, 4123.59, 4018.462, 0, 0, []
1629739955.5823, 17, 0, 4044.615, 4170.769, 4097.436, 4110.769, 4011.282, 0, 0, []
1629739955.5902, 18, 0, 4048.205, 4194.359, 4105.641, 4126.154, 4011.282, 0, 0, []
1629739955.5981, 19, 0, 4049.744, 4203.077, 4102.051, 4129.744, 4013.333, 0, 0, []
1629739955.6061, 20, 0, 4046.667, 4203.59, 4102.051, 4126.154, 4023.077, 0, 0, []
1629739955.614, 21, 0, 4046.667, 4178.974, 4103.59, 4127.692, 4030.769, 0, 0, []
1629739955.622, 22, 0, 4054.872, 4168.718, 4113.333, 4131.795, 4038.462, 0, 0, []
1629739955.6298, 23, 0, 4074.359, 4212.308, 4121.026, 4149.744, 4056.923, 0, 0, []
1629739955.6378, 24, 0, 4082.051, 4236.41, 4126.667, 4159.487, 4064.103, 0, 0, []
1629739955.6457, 25, 0, 4069.231, 4204.615, 4117.949, 4138.462, 4048.718, 0, 0, []
1629739955.6537, 26, 0, 4070.256, 4193.333, 4104.615, 4131.282, 4041.026, 0, 0, []
1629739955.6616, 27, 0, 4087.179, 4224.615, 4119.487, 4155.385, 4054.872, 0, 0, []
1629739955.6693, 28, 0, 4098.974, 4229.744, 4129.231, 4168.718, 4073.846, 0, 0, []
1629739955.6772, 29, 0, 4103.077, 4208.205, 4125.641, 4167.179, 4075.897, 0, 0, []
1629739955.685, 30, 0, 4102.051, 4223.59, 4135.897, 4172.308, 4078.974, 0, 0, []
1629739955.6929, 31, 0, 4098.462, 4243.59, 4136.923, 4168.718, 4086.667, 0, 0, []
1629739955.7007, 32, 0, 4092.308, 4211.795, 4120.513, 4147.179, 4076.41, 0, 0, []
1629739955.7085, 33, 0, 4091.282, 4190.256, 4109.231, 4135.385, 4066.154, 0, 0, []
1629739955.7163, 34, 0, 4098.974, 4222.051, 4116.923, 4141.026, 4076.41, 0, 0, []
1629739955.7242, 35, 0, 4114.359, 4246.667, 4126.154, 4149.231, 4089.231, 0, 0, []
1629739955.732, 36, 0, 4116.923, 4227.692, 4108.205, 4153.846, 4089.744, 0, 0, []
1629739955.7399, 37, 0, 4102.564, 4203.077, 4087.692, 4149.744, 4077.949, 0, 0, []
1629739955.7476, 38, 0, 4087.692, 4188.205, 4075.897, 4125.128, 4057.436, 0, 0, []
1629739955.7556, 39, 0, 4085.128, 4191.795, 4088.718, 4110.769, 4055.897, 0, 0, []
1629739955.7635, 40, 0, 4097.949, 4213.333, 4117.436, 4133.846, 4076.41, 0, 0, []
1629739955.7715, 41, 0, 4096.923, 4203.59, 4104.615, 4133.846, 4075.385, 0, 0, []
1629739955.7794, 42, 0, 4092.821, 4187.179, 4092.308, 4110.769, 4072.308, 0, 0, []
1629739955.7873, 43, 0, 4116.923, 4206.667, 4108.718, 4128.205, 4100, 0, 0, []
1629739955.7952, 44, 0, 4141.026, 4231.282, 4118.462, 4160.513, 4120.513, 0, 0, []
1629739955.8032, 45, 0, 4142.564, 4224.103, 4126.667, 4166.154, 4126.667, 0, 0, []
1629739955.8111, 46, 0, 4136.41, 4210.256, 4121.538, 4151.795, 4124.615, 0, 0, []
1629739955.8191, 47, 0, 4132.308, 4224.615, 4113.846, 4140.513, 4109.231, 0, 0, []
1629739955.8269, 48, 0, 4138.974, 4230.256, 4116.923, 4146.154, 4119.487, 0, 0, []
1629739955.8347, 49, 0, 4153.333, 4207.179, 4118.974, 4145.128, 4149.231, 0, 0, []
1629739955.8426, 50, 0, 4159.487, 4202.564, 4118.974, 4133.333, 4147.179, 0, 0, []
1629739955.8504, 51, 0, 4147.179, 4217.436, 4098.462, 4129.231, 4116.41, 0, 0, []
1629739955.8583, 52, 0, 4128.718, 4200, 4080.513, 4117.949, 4103.59, 0, 0, []
1629739955.8661, 53, 0, 4140.513, 4191.282, 4093.333, 4125.641, 4126.667, 0, 0, []
1629739955.8739, 54, 0, 4169.744, 4227.692, 4120, 4167.692, 4154.872, 0, 0, []
1629739955.8817, 55, 0, 4161.538, 4238.974, 4125.128, 4172.821, 4148.718, 0, 0, []
1629739955.8896, 56, 0, 4151.282, 4242.564, 4118.462, 4158.462, 4148.205, 0, 0, []
1629739955.8974, 57, 0, 4174.872, 4270.769, 4144.103, 4177.949, 4170.769, 0, 0, []
1629739955.9054, 58, 0, 4167.179, 4261.026, 4147.179, 4161.026, 4151.795, 0, 0, []
1629739955.9132, 59, 0, 4145.128, 4223.077, 4128.718, 4132.308, 4134.359, 0, 0, []
1629739955.9212, 60, 0, 4171.795, 4222.051, 4148.718, 4174.872, 4171.795, 0, 0, []
1629739955.9291, 61, 0, 4197.949, 4231.282, 4151.795, 4210.769, 4189.744, 0, 0, []
1629739955.9371, 62, 0, 4183.59, 4221.538, 4142.564, 4197.436, 4176.41, 0, 0, []
1629739955.945, 63, 0, 4170.256, 4232.821, 4149.744, 4188.718, 4182.564, 0, 0, []
1629739955.9529, 64, 0, 4164.615, 4228.205, 4130.769, 4163.077, 4178.974, 450, 0, []
1629739955.9608, 65, 0, 4168.205, 4201.026, 4121.026, 4131.795, 4163.077, 450, 0, []
1629739955.9688, 66, 0, 4187.179, 4222.051, 4135.897, 4150.769, 4178.974, 16192, 0, []
1629739955.9767, 67, 0, 4172.821, 4246.667, 4133.333, 4164.615, 4180, 450, 0, []
1629739955.9845, 68, 0, 4139.487, 4224.615, 4121.538, 4151.282, 4156.41, 16123, 0, []
1629739955.9923, 69, 0, 4141.026, 4214.359, 4114.359, 4151.795, 4156.41, 450, 0, []
1629739956.0001, 70, 0, 4140, 4217.949, 4114.872, 4154.872, 4157.949, 16094, 0, []
1629739956.008, 71, 0, 4123.59, 4192.308, 4112.308, 4143.077, 4142.051, 450, 0, []
1629739956.0158, 72, 0, 4126.154, 4199.487, 4113.846, 4127.179, 4131.795, 450, 0, []
1629739956.0237, 73, 0, 4138.974, 4233.333, 4118.462, 4120.513, 4138.974, 16174, 0, []
1629739956.0314, 74, 0, 4147.179, 4198.974, 4116.41, 4133.333, 4160.513, 450, 0, []
1629739956.0393, 75, 0, 4153.846, 4167.692, 4125.641, 4154.872, 4169.744, 16203, 0, []
1629739956.0471, 76, 0, 4141.026, 4205.128, 4118.462, 4151.282, 4149.231, 450, 0, []
1629739956.0551, 77, 0, 4136.923, 4212.308, 4103.077, 4145.128, 4151.282, 450, 0, []
1629739956.063, 78, 0, 4157.436, 4185.641, 4107.179, 4153.846, 4173.333, 450, 0, []
1629739956.0709, 79, 0, 4152.821, 4203.077, 4103.59, 4141.538, 4160.513, 16203, 0, []
1629739956.0788, 80, 0, 4148.205, 4216.923, 4112.308, 4133.333, 4163.59, 450, 0, []
1629739956.0868, 81, 0, 4170.256, 4193.846, 4128.205, 4151.795, 4191.282, 450, 0, []
1629739956.0947, 82, 0, 4173.846, 4209.744, 4123.59, 4162.051, 4180.513, 450, 0, []
1629739956.1027, 83, 0, 4153.333, 4226.667, 4117.949, 4151.282, 4155.897, 16203, 0, []
1629739956.1105, 84, 0, 4136.41, 4185.641, 4106.667, 4132.821, 4152.821, 450, 0, []
1629739956.1185, 85, 0, 4136.923, 4196.923, 4104.103, 4133.846, 4156.41, 450, 0, []
1629739956.1264, 86, 0, 4135.897, 4233.846, 4104.615, 4137.436, 4143.077, 450, 0, []
1629739956.1342, 87, 0, 4118.974, 4180.513, 4083.59, 4107.179, 4115.897, 16203, 0, []
1629739956.1421, 88, 0, 4118.974, 4147.179, 4087.179, 4106.667, 4129.231, 450, 0, []
1629739956.1498, 89, 0, 4152.308, 4193.846, 4119.487, 4161.026, 4179.487, 450, 0, []
1629739956.1577, 90, 0, 4164.615, 4198.462, 4130.256, 4175.897, 4181.026, 450, 0, []
1629739956.1655, 91, 0, 4140, 4174.359, 4103.59, 4141.026, 4146.154, 16203, 0, []
1629739956.1734, 92, 0, 4119.487, 4198.974, 4071.282, 4119.487, 4130.256, 450, 0, []
1629739956.1812, 93, 0, 4101.538, 4197.949, 4062.564, 4107.179, 4106.154, 450, 0, []
1629739956.189, 94, 0, 4084.103, 4158.462, 4061.026, 4095.897, 4081.538, 450, 0, []
1629739956.1968, 95, 0, 4087.179, 4172.308, 4057.436, 4095.385, 4087.179, 16203, 0, []
1629739956.2047, 96, 0, 4089.231, 4184.103, 4057.949, 4090.769, 4089.231, 450, 0, []
1629739956.2125, 97, 0, 4083.077, 4141.026, 4065.641, 4095.385, 4090.769, 450, 0, []
1629739956.2205, 98, 0, 4101.026, 4134.872, 4084.103, 4115.897, 4116.923, 450, 0, []
1629739956.2284, 99, 0, 4126.667, 4170.769, 4086.154, 4112.308, 4128.205, 16203, 0, []
1629739956.2363, 100, 0, 4130.256, 4175.897, 4080, 4091.795, 4124.103, 450, 0, []
1629739956.2442, 101, 0, 4125.641, 4168.205, 4077.436, 4089.231, 4126.154, 450, 0, []
1629739956.2522, 102, 0, 4117.949, 4158.974, 4064.615, 4088.205, 4108.718, 450, 0, []
1629739956.2601, 103, 0, 4106.667, 4140, 4062.051, 4075.385, 4090.769, 16203, 0, []
1629739956.2681, 104, 0, 4110.769, 4167.179, 4067.692, 4071.282, 4109.231, 450, 0, []
1629739956.2759, 105, 0, 4127.179, 4205.641, 4081.538, 4089.744, 4130.256, 450, 0, []
1629739956.2839, 106, 0, 4131.282, 4177.436, 4104.103, 4108.718, 4127.692, 450, 0, []
1629739956.2918, 107, 0, 4123.077, 4154.872, 4101.026, 4103.59, 4122.051, 16203, 0, []
1629739956.2996, 108, 0, 4123.077, 4186.154, 4095.385, 4092.308, 4120.513, 450, 0, []
1629739956.3075, 109, 0, 4137.436, 4181.538, 4098.462, 4098.974, 4123.077, 450, 0, []
1629739956.3152, 110, 0, 4140, 4141.538, 4090.769, 4103.077, 4124.615, 450, 0, []
1629739956.3231, 111, 0, 4129.744, 4159.487, 4080.513, 4097.436, 4117.436, 16203, 0, []
1629739956.3309, 112, 0, 4133.846, 4190.256, 4072.308, 4098.974, 4111.795, 450, 0, []
1629739956.3388, 113, 0, 4144.615, 4180, 4085.128, 4100.513, 4115.897, 450, 0, []
1629739956.3466, 114, 0, 4142.564, 4189.231, 4095.385, 4100, 4122.051, 450, 0, []
1629739956.3544, 115, 0, 4131.282, 4189.744, 4073.846, 4097.436, 4109.231, 16203, 0, []
1629739956.3622, 116, 0, 4127.179, 4165.128, 4072.308, 4093.846, 4094.359, 450, 0, []
1629739956.3702, 117, 0, 4137.949, 4183.077, 4103.077, 4103.59, 4111.795, 450, 0, []
1629739956.3781, 118, 0, 4137.436, 4189.744, 4111.282, 4111.795, 4112.308, 450, 0, []
1629739956.3861, 119, 0, 4126.667, 4155.385, 4082.564, 4096.41, 4088.718, 16203, 0, []
1629739956.3939, 120, 0, 4137.949, 4177.436, 4081.026, 4093.333, 4104.615, 450, 0, []
1629739956.4019, 121, 0, 4151.282, 4209.744, 4107.179, 4113.333, 4126.667, 450, 0, []
1629739956.4098, 122, 0, 4146.667, 4181.538, 4090.256, 4109.231, 4110.769, 450, 0, []
1629739956.4178, 123, 0, 4160.513, 4170.256, 4076.41, 4092.821, 4117.436, 16203, 0, []
1629739956.4257, 124, 0, 4187.692, 4192.821, 4091.795, 4094.359, 4157.949, 450, 0, []
1629739956.4336, 125, 0, 4186.154, 4201.538, 4088.205, 4090.256, 4166.667, 450, 0, []
1629739956.4415, 126, 0, 4171.795, 4213.333, 4092.308, 4086.667, 4150.256, 450, 0, []
1629739956.4493, 127, 0, 4172.308, 4210.769, 4103.59, 4094.872, 4148.718, 16203, 0, []
1629739956.4572, 128, 0, 4171.795, 4175.897, 4096.41, 4096.41, 4152.308, 450, 0, []
1629739956.465, 0, 0, 4171.795, 4149.231, 4085.641, 4094.872, 4147.692, 450, 0, []
1629739956.4728, 1, 0, 4182.564, 4151.795, 4078.974, 4096.923, 4142.564, 450, 0, []
1629739956.4806, 2, 0, 4185.641, 4177.949, 4088.718, 4092.821, 4148.718, 16192, 0, []
1629739956.4885, 3, 0, 4181.026, 4200, 4102.564, 4093.333, 4162.564, 450, 0, []
1629739956.4963, 4, 0, 4192.821, 4194.359, 4107.692, 4109.231, 4173.333, 16124, 0, []
1629739956.5042, 5, 0, 4206.667, 4189.744, 4106.154, 4112.308, 4175.385, 450, 0, []
1629739956.512, 6, 0, 4192.821, 4187.692, 4102.051, 4091.795, 4166.667, 16094, 0, []
1629739956.5199, 7, 0, 4177.949, 4171.795, 4110.256, 4089.231, 4166.667, 450, 0, []
1629739956.5277, 8, 0, 4190.256, 4177.949, 4103.077, 4104.615, 4172.308, 450, 0, []
1629739956.5357, 9, 0, 4201.538, 4204.615, 4094.872, 4106.667, 4165.128, 16174, 0, []
1629739956.5436, 10, 0, 4184.103, 4195.897, 4100, 4096.41, 4154.359, 450, 0, []
1629739956.5515, 11, 0, 4164.103, 4172.821, 4080, 4086.667, 4148.205, 16203, 0, []
1629739956.5594, 12, 0, 4172.821, 4183.59, 4071.795, 4087.692, 4149.744, 450, 0, []
1629739956.5674, 13, 0, 4191.795, 4200, 4091.795, 4100.513, 4163.077, 450, 0, []
1629739956.5753, 14, 0, 4182.564, 4193.333, 4096.923, 4101.538, 4167.692, 450, 0, []
1629739956.5833, 15, 0, 4158.462, 4167.692, 4076.41, 4084.103, 4148.718, 16203, 0, []
1629739956.5912, 16, 0, 4172.308, 4168.205, 4068.718, 4092.821, 4149.231, 0, 0, []
1629739956.5989, 17, 0, 4210.256, 4217.949, 4104.103, 4129.231, 4182.564, 0, 0, []
1629739956.6068, 18, 0, 4208.205, 4219.487, 4114.359, 4134.359, 4191.282, 0, 0, []
1629739956.6146, 19, 0, 4183.077, 4168.718, 4091.795, 4113.846, 4171.795, 0, 0, []
1629739956.6225, 20, 0, 4189.231, 4191.282, 4093.846, 4113.846, 4165.128, 0, 0, []
1629739956.6303, 21, 0, 4204.103, 4229.231, 4098.974, 4118.974, 4168.205, 0, 0, []
1629739956.6381, 22, 0, 4202.051, 4194.359, 4105.128, 4117.949, 4174.872, 0, 0, []
1629739956.6459, 23, 0, 4200, 4185.641, 4109.231, 4128.718, 4186.667, 0, 0, []
1629739956.6538, 24, 0, 4204.615, 4202.564, 4105.128, 4133.846, 4186.667, 0, 0, []
1629739956.6616, 25, 0, 4214.872, 4184.615, 4108.205, 4125.128, 4181.026, 0, 0, []
1629739956.6696, 26, 0, 4222.051, 4185.641, 4102.051, 4122.564, 4188.718, 0, 0, []
1629739956.6774, 27, 0, 4212.821, 4191.795, 4097.436, 4123.59, 4192.308, 0, 0, []
1629739956.6854, 28, 0, 4195.897, 4166.667, 4085.641, 4110.256, 4175.897, 0, 0, []
1629739956.6933, 29, 0, 4194.359, 4172.821, 4068.718, 4097.436, 4163.59, 0, 0, []
1629739956.7013, 30, 0, 4211.795, 4191.795, 4079.487, 4109.744, 4181.538, 0, 0, []
1629739956.7092, 31, 0, 4210.769, 4176.41, 4075.897, 4109.744, 4192.308, 0, 0, []
1629739956.7171, 32, 0, 4198.462, 4182.051, 4058.974, 4095.897, 4181.026, 0, 0, []
1629739956.725, 33, 0, 4227.179, 4209.744, 4076.41, 4116.923, 4199.487, 0, 0, []
1629739956.733, 34, 0, 4269.231, 4213.846, 4100, 4143.077, 4234.359, 0, 0, []
1629739956.7409, 35, 0, 4271.795, 4206.154, 4106.154, 4136.923, 4247.179, 0, 0, []
1629739956.7487, 36, 0, 4273.846, 4208.718, 4104.615, 4133.333, 4264.615, 0, 0, []
1629739956.7565, 37, 0, 4311.282, 4207.179, 4100, 4143.077, 4297.436, 0, 0, []
1629739956.7643, 38, 0, 4344.103, 4186.154, 4089.231, 4142.564, 4312.821, 0, 0, []
1629739956.7722, 39, 0, 4353.333, 4182.564, 4090.256, 4142.051, 4316.41, 0, 0, []
1629739956.78, 40, 0, 4359.487, 4217.949, 4103.59, 4148.205, 4328.718, 0, 0, []
1629739956.7879, 41, 0, 4363.077, 4220, 4094.359, 4141.538, 4333.333, 0, 0, []
1629739956.7956, 42, 0, 4354.872, 4187.692, 4091.282, 4126.154, 4323.077, 0, 0, []
1629739956.8035, 43, 0, 4342.564, 4213.333, 4107.179, 4126.154, 4312.308, 0, 0, []
1629739956.8113, 44, 0, 4333.333, 4252.821, 4108.205, 4138.974, 4303.077, 0, 0, []
1629739956.8192, 45, 0, 4319.487, 4232.308, 4113.333, 4145.641, 4287.692, 0, 0, []
1629739956.827, 46, 0, 4306.154, 4195.897, 4117.436, 4137.949, 4270.256, 0, 0, []
1629739956.8349, 47, 0, 4292.821, 4185.128, 4109.231, 4129.231, 4256.923, 0, 0, []
1629739956.8428, 48, 0, 4283.077, 4195.385, 4114.872, 4136.41, 4252.821, 0, 0, []
1629739956.8508, 49, 0, 4282.564, 4206.667, 4118.462, 4150.256, 4249.744, 0, 0, []
1629739956.8587, 50, 0, 4273.333, 4212.821, 4115.385, 4151.795, 4233.333, 0, 0, []
1629739956.8667, 51, 0, 4252.821, 4222.564, 4114.872, 4142.051, 4215.385, 0, 0, []
1629739956.8745, 52, 0, 4243.077, 4227.179, 4113.333, 4135.897, 4213.333, 0, 0, []
1629739956.8825, 53, 0, 4239.487, 4218.462, 4110.256, 4135.897, 4207.692, 0, 0, []
1629739956.8904, 54, 0, 4240.513, 4217.436, 4110.769, 4143.59, 4200, 0, 0, []
1629739956.8984, 55, 0, 4244.615, 4224.103, 4122.564, 4153.333, 4203.59, 0, 0, []
1629739956.9063, 56, 0, 4238.462, 4210.256, 4124.103, 4144.103, 4203.59, 0, 0, []
1629739956.9141, 57, 0, 4224.615, 4216.41, 4120.513, 4132.308, 4201.026, 0, 0, []
1629739956.9219, 58, 0, 4225.128, 4241.538, 4128.718, 4142.564, 4201.538, 0, 0, []
1629739956.9297, 59, 0, 4222.564, 4224.103, 4115.897, 4144.103, 4190.769, 0, 0, []
1629739956.9376, 60, 0, 4199.487, 4196.41, 4097.949, 4122.564, 4176.923, 0, 0, []
1629739956.9454, 61, 0, 4192.821, 4212.821, 4106.667, 4120.513, 4182.564, 0, 0, []
1629739956.9533, 62, 0, 4206.667, 4227.179, 4114.872, 4137.949, 4189.744, 0, 0, []
1629739956.961, 63, 0, 4205.128, 4208.205, 4104.615, 4136.923, 4180.513, 0, 0, []
1629739956.9689, 64, 0, 4190.256, 4216.41, 4088.205, 4121.026, 4174.359, 450, 0, []
1629739956.9767, 65, 0, 4190.769, 4238.974, 4091.795, 4117.949, 4178.462, 450, 0, []
1629739956.9847, 66, 0, 4201.538, 4220.513, 4104.615, 4129.231, 4184.615, 16192, 0, []
1629739956.9926, 67, 0, 4203.59, 4207.179, 4109.231, 4135.385, 4191.282, 450, 0, []
1629739957.0005, 68, 0, 4201.538, 4236.41, 4125.128, 4138.462, 4204.615, 16124, 0, []
1629739957.0084, 69, 0, 4196.923, 4249.231, 4123.59, 4142.051, 4205.641, 450, 0, []
1629739957.0164, 70, 0, 4195.385, 4243.59, 4113.846, 4145.128, 4187.179, 16096, 0, []
1629739957.0243, 71, 0, 4201.538, 4253.333, 4128.205, 4153.333, 4187.692, 450, 0, []
1629739957.0323, 72, 0, 4200.513, 4234.872, 4131.282, 4151.282, 4198.462, 450, 0, []
1629739957.0401, 73, 0, 4195.897, 4216.41, 4118.462, 4142.564, 4191.282, 16174, 0, []
1629739957.0481, 74, 0, 4198.974, 4248.718, 4112.821, 4144.103, 4181.026, 450, 0, []
1629739957.056, 75, 0, 4195.897, 4256.923, 4116.41, 4143.59, 4180.513, 16203, 0, []
1629739957.0638, 76, 0, 4188.205, 4228.205, 4114.872, 4137.436, 4182.051, 450, 0, []
1629739957.0717, 77, 0, 4196.41, 4231.795, 4112.308, 4144.615, 4185.128, 450, 0, []
1629739957.0794, 78, 0, 4192.821, 4225.128, 4116.923, 4147.179, 4172.821, 450, 0, []
1629739957.0873, 79, 0, 4162.051, 4185.128, 4103.077, 4122.564, 4142.051, 16203, 0, []
1629739957.0951, 80, 0, 4156.41, 4193.846, 4100, 4118.462, 4145.128, 450, 0, []
1629739957.103, 81, 0, 4170.769, 4239.487, 4111.282, 4134.359, 4160, 450, 0, []
1629739957.1108, 82, 0, 4158.462, 4233.846, 4094.359, 4120, 4140.513, 450, 0, []
1629739957.1186, 83, 0, 4145.641, 4206.154, 4085.128, 4100.513, 4129.231, 16203, 0, []
1629739957.1264, 84, 0, 4155.897, 4226.667, 4096.923, 4116.41, 4148.205, 450, 0, []
1629739957.1343, 85, 0, 4176.923, 4260, 4112.821, 4151.282, 4166.667, 450, 0, []
1629739957.1421, 86, 0, 4204.103, 4253.846, 4138.462, 4176.41, 4184.103, 450, 0, []
1629739957.1501, 87, 0, 4210.256, 4224.615, 4143.077, 4174.872, 4195.897, 16203, 0, []
1629739957.1579, 88, 0, 4189.744, 4209.231, 4130.256, 4157.436, 4185.128, 450, 0, []
1629739957.1659, 89, 0, 4184.103, 4222.051, 4130.769, 4155.385, 4173.846, 450, 0, []
1629739957.1738, 90, 0, 4185.128, 4250.769, 4123.59, 4146.154, 4161.026, 450, 0, []
1629739957.1818, 91, 0, 4180.513, 4264.615, 4117.436, 4132.308, 4160, 16203, 0, []
1629739957.1897, 92, 0, 4172.821, 4244.103, 4108.205, 4127.692, 4169.744, 450, 0, []
1629739957.1976, 93, 0, 4155.897, 4226.667, 4093.333, 4121.026, 4153.846, 450, 0, []
1629739957.2055, 94, 0, 4165.641, 4245.641, 4104.103, 4131.795, 4148.718, 450, 0, []
1629739957.2134, 95, 0, 4195.897, 4240.513, 4130.256, 4151.282, 4174.359, 16203, 0, []
1629739957.2213, 96, 0, 4192.821, 4214.872, 4128.718, 4147.179, 4179.487, 450, 0, []
1629739957.2291, 97, 0, 4177.436, 4243.077, 4106.667, 4141.538, 4162.051, 450, 0, []
1629739957.2369, 98, 0, 4181.538, 4252.308, 4108.718, 4144.615, 4156.923, 450, 0, []
1629739957.2447, 99, 0, 4169.744, 4206.154, 4113.846, 4130.769, 4148.718, 16203, 0, []
1629739957.2526, 100, 0, 4154.872, 4213.846, 4111.795, 4129.744, 4147.179, 450, 0, []
1629739957.2604, 101, 0, 4172.308, 4250.256, 4126.154, 4157.949, 4168.718, 450, 0, []
1629739957.2683, 102, 0, 4184.615, 4229.231, 4126.154, 4157.949, 4180.513, 450, 0, []
1629739957.2761, 103, 0, 4176.923, 4212.821, 4114.359, 4135.385, 4178.462, 16203, 0, []
1629739957.284, 104, 0, 4186.154, 4249.744, 4120, 4144.103, 4188.718, 450, 0, []
1629739957.2919, 105, 0, 4206.667, 4267.692, 4123.077, 4160.513, 4203.077, 450, 0, []
1629739957.2999, 106, 0, 4191.282, 4244.615, 4110.256, 4141.538, 4189.744, 450, 0, []
1629739957.3078, 107, 0, 4163.59, 4231.795, 4099.487, 4124.103, 4167.692, 16203, 0, []
1629739957.3158, 108, 0, 4180.513, 4249.744, 4113.333, 4144.615, 4176.41, 450, 0, []
1629739957.3236, 109, 0, 4211.795, 4263.59, 4142.564, 4171.795, 4202.051, 450, 0, []
1629739957.3316, 110, 0, 4203.077, 4243.077, 4142.564, 4166.667, 4204.103, 450, 0, []
1629739957.3395, 111, 0, 4177.436, 4229.744, 4122.051, 4148.205, 4182.564, 16203, 0, []
1629739957.3475, 112, 0, 4166.154, 4231.795, 4106.154, 4136.923, 4161.538, 450, 0, []
1629739957.3554, 113, 0, 4154.872, 4215.385, 4100.513, 4122.051, 4150.256, 450, 0, []
1629739957.3633, 114, 0, 4139.487, 4195.385, 4090.769, 4097.949, 4134.872, 450, 0, []
1629739957.3712, 115, 0, 4136.41, 4197.949, 4070.256, 4082.564, 4117.436, 16203, 0, []
1629739957.379, 116, 0, 4152.308, 4218.462, 4087.179, 4101.026, 4136.41, 450, 0, []
1629739957.3869, 117, 0, 4163.59, 4230.769, 4108.205, 4126.154, 4166.154, 450, 0, []
1629739957.3947, 118, 0, 4155.897, 4230.769, 4091.282, 4115.897, 4154.872, 450, 0, []
1629739957.4025, 119, 0, 4148.205, 4221.538, 4080.513, 4095.897, 4135.385, 16203, 0, []
1629739957.4103, 120, 0, 4152.308, 4210.769, 4078.974, 4098.974, 4146.154, 450, 0, []
1629739957.4182, 121, 0, 4150.256, 4210.769, 4071.282, 4104.615, 4143.59, 450, 0, []
1629739957.426, 122, 0, 4138.462, 4212.821, 4060.513, 4094.359, 4118.462, 450, 0, []
1629739957.4339, 123, 0, 4138.462, 4206.154, 4065.128, 4097.949, 4122.564, 16203, 0, []
1629739957.4416, 124, 0, 4137.949, 4206.667, 4063.59, 4101.538, 4129.231, 450, 0, []
1629739957.4495, 125, 0, 4118.462, 4195.385, 4040.513, 4076.41, 4099.487, 450, 0, []
1629739957.4573, 126, 0, 4119.487, 4186.667, 4061.026, 4072.308, 4098.462, 450, 0, []
1629739957.4653, 127, 0, 4152.308, 4214.872, 4098.462, 4111.282, 4144.103, 16203, 0, []
1629739957.4732, 128, 0, 4161.538, 4240.513, 4087.692, 4123.59, 4147.179, 450, 0, []
1629739957.4811, 0, 0, 4149.231, 4232.308, 4082.564, 4105.641, 4125.641, 450, 0, []
1629739957.489, 1, 0, 4160.513, 4206.154, 4090.256, 4111.282, 4144.103, 450, 0, []
1629739957.497, 2, 0, 4171.282, 4198.462, 4079.487, 4120.513, 4153.333, 16192, 0, []
1629739957.5049, 3, 0, 4163.59, 4216.41, 4072.821, 4107.692, 4130.256, 450, 0, []
1629739957.5128, 4, 0, 4158.974, 4215.385, 4072.308, 4096.923, 4126.154, 16124, 0, []
1629739957.5206, 5, 0, 4160, 4191.282, 4071.282, 4110.256, 4140.513, 450, 0, []
1629739957.5284, 6, 0, 4164.615, 4192.821, 4074.359, 4129.231, 4147.179, 16097, 0, []
1629739957.5364, 7, 0, 4170.256, 4210.769, 4082.564, 4128.205, 4148.718, 450, 0, []
1629739957.5443, 8, 0, 4169.744, 4205.641, 4083.59, 4122.051, 4152.308, 450, 0, []
1629739957.5522, 9, 0, 4174.359, 4209.744, 4080, 4125.641, 4153.333, 16174, 0, []
1629739957.5599, 10, 0, 4184.615, 4223.077, 4084.615, 4130.256, 4150.769, 450, 0, []
1629739957.5678, 11, 0, 4171.795, 4222.051, 4074.872, 4117.949, 4143.59, 16228, 0, []
1629739957.5756, 12, 0, 4152.308, 4231.282, 4058.974, 4105.641, 4137.949, 450, 0, []
1629739957.5835, 13, 0, 4162.564, 4234.359, 4065.641, 4111.795, 4135.385, 450, 0, []
1629739957.5913, 14, 0, 4182.051, 4213.846, 4078.974, 4119.487, 4143.077, 450, 0, []
1629739957.5993, 15, 0, 4189.231, 4211.282, 4088.718, 4127.179, 4162.564, 16228, 0, []
1629739957.6071, 16, 0, 4184.615, 4240, 4083.077, 4135.897, 4165.128, 0, 0, []
1629739957.6151, 17, 0, 4171.282, 4247.692, 4074.872, 4131.795, 4143.077, 0, 0, []
1629739957.623, 18, 0, 4169.744, 4215.385, 4094.359, 4127.179, 4143.077, 0, 0, []
1629739957.631, 19, 0, 4171.282, 4196.41, 4098.462, 4119.487, 4155.897, 0, 0, []
1629739957.6389, 20, 0, 4156.923, 4205.128, 4070.256, 4100, 4138.974, 0, 0, []
1629739957.6468, 21, 0, 4154.872, 4203.59, 4065.128, 4095.385, 4125.128, 0, 0, []
1629739957.6547, 22, 0, 4171.282, 4201.538, 4087.179, 4116.923, 4148.205, 0, 0, []
1629739957.6627, 23, 0, 4175.385, 4217.436, 4100, 4130.769, 4165.128, 0, 0, []
1629739957.6706, 24, 0, 4176.41, 4218.974, 4092.821, 4130.256, 4154.359, 0, 0, []
1629739957.6786, 25, 0, 4183.59, 4213.333, 4095.897, 4124.615, 4145.641, 0, 0, []
1629739957.6864, 26, 0, 4166.154, 4226.154, 4097.949, 4106.667, 4140, 0, 0, []
1629739957.6942, 27, 0, 4135.385, 4227.179, 4082.051, 4084.615, 4120, 0, 0, []
1629739957.7021, 28, 0, 4143.077, 4204.615, 4084.103, 4091.282, 4115.385, 0, 0, []
1629739957.7099, 29, 0, 4177.436, 4194.872, 4104.615, 4113.333, 4143.59, 0, 0, []
1629739957.7178, 30, 0, 4198.974, 4212.821, 4126.667, 4129.231, 4173.846, 0, 0, []
1629739957.7255, 31, 0, 4198.974, 4238.462, 4129.231, 4141.026, 4177.436, 0, 0, []
1629739957.7334, 32, 0, 4190.256, 4232.821, 4117.436, 4140.513, 4166.154, 0, 0, []
1629739957.7412, 33, 0, 4185.128, 4208.718, 4118.974, 4129.744, 4164.103, 0, 0, []
1629739957.7492, 34, 0, 4182.564, 4199.487, 4109.231, 4126.154, 4169.231, 0, 0, []
1629739957.7571, 35, 0, 4184.103, 4215.897, 4107.179, 4136.41, 4167.692, 0, 0, []
1629739957.765, 36, 0, 4189.744, 4239.487, 4132.821, 4143.077, 4169.231, 0, 0, []
1629739957.7729, 37, 0, 4183.077, 4231.282, 4145.641, 4135.385, 4173.333, 0, 0, []
1629739957.7809, 38, 0, 4167.692, 4212.308, 4137.436, 4128.205, 4167.179, 0, 0, []
1629739957.7888, 39, 0, 4172.308, 4224.103, 4118.974, 4128.205, 4161.026, 0, 0, []
1629739957.7968, 40, 0, 4191.282, 4236.923, 4119.487, 4133.846, 4164.615, 0, 0, []
1629739957.8046, 41, 0, 4182.051, 4220, 4120.513, 4134.359, 4158.462, 0, 0, []
1629739957.8126, 42, 0, 4164.615, 4205.641, 4104.615, 4124.615, 4146.154, 0, 0, []
1629739957.8205, 43, 0, 4176.41, 4217.436, 4110.256, 4118.462, 4148.718, 0, 0, []
1629739957.8284, 44, 0, 4189.231, 4220, 4114.359, 4116.923, 4153.333, 0, 0, []
1629739957.8363, 45, 0, 4181.026, 4202.564, 4100, 4117.436, 4149.231, 0, 0, []
