Timestamp, COUNTER, INTERPOLATED, AF3, T7, Pz, T8, AF4, RAW_CQ, MARKER_HARDWARE, MARKERS
1627720028.0811, 81, 0, 4218.974, 4282.051, 4224.103, 4216.41, 4238.462, 450, 0, []
1627720028.089, 82, 0, 4216.41, 4273.846, 4219.487, 4217.436, 4240.513, 450, 0, []
1627720028.097, 83, 0, 4213.333, 4257.949, 4211.282, 4214.872, 4233.333, 16194, 0, []
1627720028.1048, 84, 0, 4211.282, 4255.897, 4201.538, 4216.923, 4229.231, 450, 0, []
1627720028.1128, 85, 0, 4210.769, 4266.667, 4192.821, 4216.923, 4231.795, 450, 0, []
1627720028.1207, 86, 0, 4212.308, 4261.026, 4197.949, 4214.872, 4236.41, 450, 0, []
1627720028.1287, 87, 0, 4218.974, 4249.744, 4201.538, 4215.897, 4238.974, 16194, 0, []
1627720028.1366, 88, 0, 4212.821, 4253.333, 4197.949, 4206.154, 4232.308, 450, 0, []
1627720028.1445, 89, 0, 4211.282, 4265.128, 4201.026, 4203.59, 4235.385, 450, 0, []
1627720028.1525, 90, 0, 4229.744, 4267.179, 4207.179, 4216.923, 4255.897, 450, 0, []
1627720028.1604, 91, 0, 4234.359, 4260.513, 4206.154, 4217.436, 4260.513, 16194, 0, []
1627720028.1684, 92, 0, 4218.974, 4257.436, 4201.538, 4206.154, 4248.718, 450, 0, []
1627720028.1763, 93, 0, 4212.821, 4248.205, 4198.462, 4206.667, 4246.154, 450, 0, []
1627720028.1842, 94, 0, 4225.128, 4247.179, 4197.949, 4215.385, 4259.487, 450, 0, []
1627720028.1921, 95, 0, 4231.795, 4267.692, 4207.179, 4221.538, 4268.718, 16194, 0, []
1627720028.2001, 96, 0, 4223.077, 4269.231, 4208.718, 4219.487, 4260.513, 450, 0, []
1627720028.208, 97, 0, 4212.821, 4246.667, 4192.308, 4211.282, 4242.564, 450, 0, []
1627720028.216, 98, 0, 4212.308, 4248.205, 4193.846, 4218.462, 4241.538, 450, 0, []
1627720028.2238, 99, 0, 4217.436, 4265.128, 4197.949, 4228.205, 4252.821, 16194, 0, []
1627720028.2318, 100, 0, 4214.872, 4254.359, 4182.564, 4218.974, 4254.359, 450, 0, []
1627720028.2397, 101, 0, 4212.821, 4237.949, 4186.154, 4210.769, 4252.821, 450, 0, []
1627720028.2477, 102, 0, 4216.41, 4247.692, 4201.026, 4213.333, 4259.487, 450, 0, []
1627720028.2556, 103, 0, 4223.59, 4256.923, 4202.564, 4218.462, 4264.615, 16194, 0, []
1627720028.2635, 104, 0, 4230.256, 4250.769, 4204.103, 4222.564, 4264.615, 450, 0, []
1627720028.2715, 105, 0, 4234.359, 4254.359, 4203.077, 4224.615, 4267.179, 450, 0, []
1627720028.2794, 106, 0, 4233.333, 4267.179, 4200, 4216.923, 4267.179, 450, 0, []
1627720028.2874, 107, 0, 4231.795, 4265.641, 4199.487, 4207.692, 4262.051, 16194, 0, []
1627720028.2953, 108, 0, 4233.846, 4251.282, 4196.923, 4209.231, 4263.59, 450, 0, []
1627720028.3032, 109, 0, 4235.897, 4253.333, 4194.359, 4214.872, 4268.205, 450, 0, []
1627720028.3111, 110, 0, 4232.821, 4263.59, 4192.821, 4220, 4263.59, 450, 0, []
1627720028.3191, 111, 0, 4220.513, 4254.872, 4191.282, 4214.359, 4250.256, 16194, 0, []
1627720028.327, 112, 0, 4216.923, 4241.538, 4186.667, 4203.59, 4243.59, 450, 0, []
1627720028.335, 113, 0, 4226.667, 4248.205, 4189.744, 4202.564, 4248.205, 450, 0, []
1627720028.3428, 114, 0, 4225.128, 4265.128, 4197.436, 4197.436, 4251.282, 450, 0, []
1627720028.3508, 115, 0, 4214.359, 4261.026, 4186.667, 4187.692, 4243.59, 16194, 0, []
1627720028.3587, 116, 0, 4215.897, 4245.128, 4175.385, 4190.769, 4233.333, 450, 0, []
1627720028.3667, 117, 0, 4214.872, 4251.795, 4179.487, 4200, 4229.744, 450, 0, []
1627720028.3746, 118, 0, 4202.051, 4265.128, 4187.692, 4197.949, 4231.795, 450, 0, []
1627720028.3825, 119, 0, 4202.564, 4251.795, 4192.308, 4195.897, 4238.462, 16194, 0, []
1627720028.3904, 120, 0, 4225.641, 4247.692, 4203.077, 4202.564, 4253.333, 450, 0, []
1627720028.3984, 121, 0, 4246.154, 4262.051, 4221.026, 4210.256, 4274.872, 450, 0, []
1627720028.4063, 122, 0, 4245.128, 4257.949, 4222.051, 4213.333, 4281.538, 450, 0, []
1627720028.4143, 123, 0, 4234.872, 4251.282, 4208.718, 4209.231, 4268.718, 16194, 0, []
1627720028.4221, 124, 0, 4231.282, 4259.487, 4201.538, 4202.051, 4259.487, 450, 0, []
1627720028.4301, 125, 0, 4232.308, 4257.436, 4195.897, 4202.051, 4263.077, 450, 0, []
1627720028.438, 126, 0, 4232.308, 4248.205, 4195.385, 4200.513, 4265.641, 450, 0, []
1627720028.446, 127, 0, 4231.282, 4248.205, 4192.821, 4191.282, 4259.487, 16194, 0, []
1627720028.4539, 128, 0, 4232.308, 4245.128, 4181.026, 4185.128, 4258.462, 450, 0, []
1627720028.4618, 0, 0, 4232.821, 4243.077, 4188.205, 4191.795, 4262.564, 450, 0, []
1627720028.4698, 1, 0, 4234.872, 4251.795, 4209.231, 4203.077, 4268.205, 450, 0, []
1627720028.4777, 2, 0, 4237.436, 4248.205, 4211.282, 4202.051, 4270.256, 16184, 0, []
1627720028.4857, 3, 0, 4236.923, 4234.359, 4194.359, 4201.538, 4267.692, 450, 0, []
1627720028.4936, 4, 0, 4232.821, 4231.282, 4185.128, 4202.051, 4265.128, 16175, 0, []
1627720028.5015, 5, 0, 4229.744, 4245.641, 4195.897, 4203.077, 4261.538, 450, 0, []
1627720028.5094, 6, 0, 4230.769, 4262.051, 4200.513, 4213.333, 4264.615, 16062, 0, []
1627720028.5174, 7, 0, 4231.282, 4255.385, 4190.256, 4214.872, 4274.359, 450, 0, []
1627720028.5253, 8, 0, 4233.333, 4243.077, 4189.231, 4203.077, 4280.513, 450, 0, []
1627720028.5333, 9, 0, 4235.385, 4248.718, 4198.974, 4203.077, 4275.897, 16159, 0, []
1627720028.5411, 10, 0, 4233.333, 4259.487, 4206.667, 4202.564, 4265.641, 450, 0, []
1627720028.5491, 11, 0, 4227.179, 4247.179, 4198.462, 4189.231, 4255.385, 16194, 0, []
1627720028.557, 12, 0, 4219.487, 4227.179, 4193.333, 4189.744, 4247.692, 450, 0, []
1627720028.565, 13, 0, 4218.462, 4236.41, 4208.205, 4203.59, 4249.744, 450, 0, []
1627720028.5729, 14, 0, 4217.949, 4253.846, 4211.795, 4202.564, 4250.256, 450, 0, []
1627720028.5808, 15, 0, 4213.333, 4249.744, 4197.436, 4195.897, 4236.923, 16194, 0, []
1627720028.5888, 16, 0, 4212.821, 4235.897, 4182.564, 4194.872, 4232.821, 0, 0, []
1627720028.5967, 17, 0, 4218.974, 4240.513, 4188.718, 4198.974, 4246.154, 0, 0, []
1627720028.6047, 18, 0, 4213.846, 4247.692, 4198.974, 4204.615, 4242.564, 0, 0, []
1627720028.6127, 19, 0, 4203.077, 4238.462, 4186.667, 4200, 4227.179, 0, 0, []
1627720028.6205, 20, 0, 4209.231, 4237.949, 4180.513, 4195.897, 4237.436, 0, 0, []
1627720028.6285, 21, 0, 4220.513, 4247.692, 4188.205, 4210.256, 4250.256, 0, 0, []
1627720028.6364, 22, 0, 4220, 4249.744, 4186.667, 4213.333, 4240, 0, 0, []
1627720028.6444, 23, 0, 4215.897, 4246.154, 4180.513, 4188.205, 4233.333, 0, 0, []
1627720028.6523, 24, 0, 4221.026, 4246.667, 4181.538, 4182.564, 4249.744, 0, 0, []
1627720028.6602, 25, 0, 4230.769, 4257.436, 4189.231, 4204.615, 4260.513, 0, 0, []
1627720028.6681, 26, 0, 4236.41, 4261.026, 4186.154, 4207.692, 4254.872, 0, 0, []
1627720028.6761, 27, 0, 4236.923, 4249.744, 4175.897, 4190.769, 4247.692, 0, 0, []
1627720028.684, 28, 0, 4233.333, 4247.179, 4172.308, 4182.051, 4240, 0, 0, []
1627720028.692, 29, 0, 4230.769, 4250.769, 4173.333, 4182.564, 4233.333, 0, 0, []
1627720028.6998, 30, 0, 4233.333, 4238.974, 4174.872, 4185.641, 4233.846, 0, 0, []
1627720028.7078, 31, 0, 4226.667, 4233.333, 4168.205, 4185.641, 4234.872, 0, 0, []
1627720028.7157, 32, 0, 4217.436, 4244.615, 4155.897, 4183.077, 4229.744, 0, 0, []
1627720028.7237, 33, 0, 4225.128, 4245.641, 4157.436, 4183.077, 4228.718, 0, 0, []
1627720028.7317, 34, 0, 4237.949, 4245.641, 4161.026, 4186.154, 4234.872, 0, 0, []
1627720028.7395, 35, 0, 4232.308, 4246.667, 4161.538, 4189.231, 4232.821, 0, 0, []
1627720028.7475, 36, 0, 4220.513, 4231.795, 4165.128, 4186.667, 4221.026, 0, 0, []
1627720028.7554, 37, 0, 4216.923, 4226.154, 4164.615, 4183.077, 4216.41, 0, 0, []
1627720028.7634, 38, 0, 4215.897, 4235.897, 4162.564, 4183.077, 4217.436, 0, 0, []
1627720028.7713, 39, 0, 4216.41, 4235.385, 4165.128, 4180, 4213.846, 0, 0, []
1627720028.7793, 40, 0, 4215.897, 4234.872, 4169.744, 4174.872, 4213.333, 0, 0, []
1627720028.7871, 41, 0, 4207.179, 4240.513, 4168.718, 4176.923, 4214.359, 0, 0, []
1627720028.7951, 42, 0, 4202.564, 4241.026, 4166.154, 4181.538, 4213.846, 0, 0, []
1627720028.803, 43, 0, 4211.282, 4244.615, 4180, 4186.154, 4224.615, 0, 0, []
1627720028.811, 44, 0, 4210.769, 4250.256, 4184.103, 4181.538, 4229.231, 0, 0, []
1627720028.8189, 45, 0, 4205.641, 4245.641, 4173.846, 4174.872, 4224.615, 0, 0, []
1627720028.8268, 46, 0, 4222.564, 4242.564, 4177.949, 4185.641, 4239.487, 0, 0, []
1627720028.8347, 47, 0, 4234.359, 4252.308, 4185.641, 4204.103, 4258.974, 0, 0, []
1627720028.8427, 48, 0, 4223.077, 4255.385, 4187.179, 4201.026, 4245.641, 0, 0, []
1627720028.8506, 49, 0, 4209.231, 4249.744, 4180, 4184.615, 4227.179, 0, 0, []
1627720028.8586, 50, 0, 4209.744, 4248.205, 4181.026, 4187.692, 4231.795, 0, 0, []
1627720028.8664, 51, 0, 4214.359, 4241.026, 4189.744, 4199.487, 4236.41, 0, 0, []
1627720028.8744, 52, 0, 4215.897, 4233.846, 4184.615, 4197.949, 4232.308, 0, 0, []
1627720028.8823, 53, 0, 4214.359, 4229.744, 4182.564, 4196.41, 4235.385, 0, 0, []
1627720028.8903, 54, 0, 4213.333, 4224.103, 4187.179, 4200.513, 4239.487, 0, 0, []
1627720028.8982, 55, 0, 4217.949, 4225.641, 4182.564, 4192.308, 4235.897, 0, 0, []
1627720028.9061, 56, 0, 4217.436, 4235.897, 4183.077, 4182.051, 4233.333, 0, 0, []
1627720028.914, 57, 0, 4210.256, 4231.282, 4197.949, 4191.282, 4230.769, 0, 0, []
1627720028.922, 58, 0, 4216.41, 4230.256, 4201.026, 4195.897, 4231.282, 0, 0, []
1627720028.9299, 59, 0, 4241.538, 4246.667, 4182.051, 4188.205, 4241.538, 0, 0, []
1627720028.9379, 60, 0, 4266.667, 4241.538, 4166.667, 4183.59, 4256.923, 0, 0, []
1627720028.9457, 61, 0, 4291.282, 4225.641, 4161.026, 4176.923, 4277.436, 0, 0, []
1627720028.9536, 62, 0, 4338.974, 4228.205, 4155.385, 4168.205, 4318.462, 0, 0, []
1627720028.9616, 63, 0, 4394.872, 4234.359, 4160.513, 4172.308, 4367.692, 0, 0, []
1627720028.9696, 64, 0, 4414.359, 4230.256, 4159.487, 4172.308, 4382.051, 450, 0, []
1627720028.9775, 65, 0, 4395.897, 4223.59, 4144.103, 4158.974, 4348.205, 450, 0, []
1627720028.9853, 66, 0, 4357.949, 4231.795, 4149.744, 4153.846, 4289.744, 16184, 0, []
1627720028.9933, 67, 0, 4289.231, 4231.282, 4147.692, 4151.282, 4215.897, 450, 0, []
1627720029.0012, 68, 0, 4194.359, 4209.744, 4130.256, 4138.974, 4128.205, 16175, 0, []
1627720029.0092, 69, 0, 4121.538, 4202.564, 4137.436, 4133.846, 4055.385, 450, 0, []
1627720029.0171, 70, 0, 4085.128, 4206.667, 4155.385, 4142.051, 4015.897, 16062, 0, []
1627720029.025, 71, 0, 4059.487, 4202.564, 4156.923, 4150.256, 3994.872, 450, 0, []
1627720029.0329, 72, 0, 4041.026, 4204.103, 4150.769, 4152.308, 3991.282, 450, 0, []
1627720029.0409, 73, 0, 4034.359, 4208.205, 4156.923, 4154.359, 3999.487, 16159, 0, []
1627720029.0488, 74, 0, 4038.462, 4206.154, 4168.205, 4159.487, 4009.744, 450, 0, []
1627720029.0568, 75, 0, 4057.436, 4211.282, 4175.897, 4168.205, 4028.718, 16196, 0, []
1627720029.0646, 76, 0, 4078.462, 4216.41, 4182.051, 4170.769, 4049.744, 450, 0, []
1627720029.0726, 77, 0, 4084.615, 4216.923, 4177.949, 4168.205, 4053.846, 450, 0, []
1627720029.0806, 78, 0, 4078.974, 4219.487, 4174.359, 4166.667, 4050.256, 450, 0, []
1627720029.0885, 79, 0, 4075.385, 4214.872, 4171.282, 4167.179, 4055.385, 16196, 0, []
1627720029.0965, 80, 0, 4080.513, 4214.359, 4165.128, 4166.667, 4065.641, 450, 0, []
1627720029.1043, 81, 0, 4082.564, 4221.026, 4169.231, 4161.538, 4069.231, 450, 0, []
1627720029.1123, 82, 0, 4073.333, 4214.872, 4162.051, 4149.744, 4065.641, 450, 0, []
1627720029.1202, 83, 0, 4072.821, 4212.821, 4145.641, 4142.564, 4066.154, 16196, 0, []
1627720029.1282, 84, 0, 4091.282, 4220, 4147.179, 4149.744, 4078.462, 450, 0, []
1627720029.1361, 85, 0, 4106.154, 4215.897, 4156.41, 4164.103, 4098.462, 450, 0, []
1627720029.144, 86, 0, 4106.667, 4212.821, 4161.026, 4169.231, 4113.846, 450, 0, []
1627720029.1519, 87, 0, 4116.41, 4224.615, 4166.154, 4173.846, 4129.231, 16196, 0, []
1627720029.1599, 88, 0, 4142.051, 4232.308, 4173.846, 4186.154, 4149.744, 450, 0, []
1627720029.1679, 89, 0, 4156.41, 4232.821, 4177.436, 4187.179, 4166.154, 450, 0, []
1627720029.1758, 90, 0, 4156.923, 4235.385, 4178.462, 4184.615, 4178.462, 450, 0, []
1627720029.1836, 91, 0, 4158.974, 4228.718, 4184.615, 4192.308, 4188.718, 16196, 0, []
1627720029.1916, 92, 0, 4161.538, 4223.59, 4179.487, 4192.308, 4190.769, 450, 0, []
1627720029.1995, 93, 0, 4166.667, 4228.205, 4164.615, 4186.154, 4187.692, 450, 0, []
1627720029.2075, 94, 0, 4170.256, 4231.795, 4162.051, 4186.154, 4188.718, 450, 0, []
1627720029.2154, 95, 0, 4162.051, 4229.744, 4164.103, 4186.667, 4188.718, 16196, 0, []
1627720029.2233, 96, 0, 4154.359, 4222.564, 4162.564, 4186.154, 4185.641, 450, 0, []
1627720029.2313, 97, 0, 4151.282, 4218.974, 4156.923, 4185.128, 4180.513, 450, 0, []
1627720029.2392, 98, 0, 4140, 4224.615, 4152.308, 4182.564, 4171.795, 450, 0, []
1627720029.2472, 99, 0, 4129.744, 4227.179, 4157.436, 4185.641, 4167.692, 16196, 0, []
1627720029.2551, 100, 0, 4128.205, 4213.846, 4147.179, 4180, 4167.692, 450, 0, []
1627720029.263, 101, 0, 4124.615, 4201.026, 4132.308, 4161.026, 4166.667, 450, 0, []
1627720029.2709, 102, 0, 4120, 4193.333, 4142.051, 4150.256, 4165.641, 450, 0, []
1627720029.2789, 103, 0, 4127.179, 4198.462, 4151.795, 4151.282, 4168.718, 16196, 0, []
1627720029.2868, 104, 0, 4138.462, 4213.846, 4147.692, 4162.564, 4173.846, 450, 0, []
1627720029.2948, 105, 0, 4132.308, 4206.154, 4134.359, 4164.615, 4172.821, 450, 0, []
1627720029.3026, 106, 0, 4117.436, 4189.231, 4133.846, 4150.769, 4172.308, 450, 0, []
1627720029.3106, 107, 0, 4130.769, 4201.538, 4150.769, 4156.923, 4188.205, 16196, 0, []
1627720029.3185, 108, 0, 4151.282, 4221.538, 4158.462, 4174.872, 4201.538, 450, 0, []
1627720029.3265, 109, 0, 4136.923, 4220.513, 4150.256, 4163.59, 4185.641, 450, 0, []
1627720029.3344, 110, 0, 4123.59, 4211.795, 4145.641, 4154.872, 4172.821, 450, 0, []
1627720029.3423, 111, 0, 4136.923, 4214.359, 4154.872, 4173.846, 4184.615, 16196, 0, []
1627720029.3502, 112, 0, 4140.513, 4228.205, 4158.974, 4175.385, 4189.231, 450, 0, []
1627720029.3582, 113, 0, 4139.487, 4232.821, 4155.385, 4158.462, 4188.205, 450, 0, []
1627720029.3661, 114, 0, 4150.769, 4209.744, 4155.897, 4152.821, 4191.795, 450, 0, []
1627720029.3741, 115, 0, 4152.821, 4194.872, 4154.872, 4155.897, 4188.205, 16196, 0, []
1627720029.3819, 116, 0, 4144.103, 4209.231, 4157.436, 4159.487, 4184.103, 450, 0, []
1627720029.3899, 117, 0, 4136.41, 4220, 4153.846, 4157.436, 4178.974, 450, 0, []
1627720029.3979, 118, 0, 4133.846, 4213.333, 4142.051, 4151.795, 4167.179, 450, 0, []
1627720029.4058, 119, 0, 4143.077, 4208.718, 4149.744, 4154.359, 4172.308, 16196, 0, []
1627720029.4138, 120, 0, 4147.179, 4204.615, 4158.462, 4161.026, 4183.59, 450, 0, []
1627720029.4216, 121, 0, 4128.205, 4193.333, 4142.051, 4155.897, 4169.231, 450, 0, []
1627720029.4296, 122, 0, 4128.205, 4188.205, 4134.872, 4152.308, 4161.538, 450, 0, []
1627720029.4375, 123, 0, 4155.385, 4189.231, 4144.615, 4166.667, 4185.641, 16196, 0, []
1627720029.4455, 124, 0, 4155.897, 4190.256, 4149.744, 4172.308, 4191.795, 450, 0, []
1627720029.4534, 125, 0, 4140.513, 4196.923, 4145.641, 4159.487, 4173.333, 450, 0, []
1627720029.4613, 126, 0, 4147.692, 4207.179, 4147.692, 4158.974, 4173.846, 450, 0, []
1627720029.4692, 127, 0, 4161.026, 4211.282, 4162.564, 4175.385, 4188.205, 16196, 0, []
1627720029.4772, 128, 0, 4157.949, 4204.615, 4166.667, 4178.462, 4185.128, 450, 0, []
1627720029.4851, 0, 0, 4147.179, 4197.949, 4160.513, 4163.59, 4164.615, 450, 0, []
1627720029.4931, 1, 0, 4137.949, 4199.487, 4144.615, 4152.821, 4149.744, 450, 0, []
1627720029.5009, 2, 0, 4147.179, 4201.538, 4135.385, 4161.538, 4156.923, 16184, 0, []
1627720029.5089, 3, 0, 4168.718, 4201.538, 4148.718, 4177.949, 4173.333, 450, 0, []
1627720029.5168, 4, 0, 4170.769, 4206.667, 4153.333, 4174.359, 4173.846, 16175, 0, []
1627720029.5248, 5, 0, 4165.128, 4210.256, 4149.231, 4160.513, 4161.538, 450, 0, []
1627720029.5327, 6, 0, 4166.667, 4205.641, 4143.077, 4158.974, 4162.564, 16059, 0, []
1627720029.5406, 7, 0, 4158.462, 4189.744, 4133.333, 4157.436, 4165.641, 450, 0, []
1627720029.5486, 8, 0, 4155.897, 4185.641, 4133.333, 4156.41, 4164.615, 450, 0, []
1627720029.5565, 9, 0, 4178.974, 4208.205, 4140, 4170.769, 4177.436, 16157, 0, []
1627720029.5645, 10, 0, 4188.718, 4212.821, 4137.949, 4178.462, 4187.179, 450, 0, []
1627720029.5724, 11, 0, 4170.769, 4191.282, 4122.051, 4163.077, 4173.333, 16196, 0, []
1627720029.5803, 12, 0, 4166.154, 4194.359, 4110.256, 4151.795, 4164.615, 450, 0, []
1627720029.5882, 13, 0, 4175.897, 4206.154, 4115.897, 4156.41, 4169.744, 450, 0, []
1627720029.5962, 14, 0, 4172.308, 4186.667, 4122.051, 4156.41, 4162.564, 450, 0, []
1627720029.6041, 15, 0, 4165.128, 4173.333, 4124.615, 4152.308, 4150.769, 16196, 0, []
1627720029.6121, 16, 0, 4165.641, 4189.231, 4126.667, 4151.795, 4148.205, 0, 0, []
1627720029.6199, 17, 0, 4168.718, 4193.333, 4126.667, 4148.205, 4152.308, 0, 0, []
1627720029.6279, 18, 0, 4168.718, 4177.949, 4126.154, 4140.513, 4153.333, 0, 0, []
1627720029.6358, 19, 0, 4165.128, 4172.821, 4123.077, 4134.872, 4146.154, 0, 0, []
1627720029.6438, 20, 0, 4171.795, 4182.051, 4122.564, 4136.923, 4156.923, 0, 0, []
1627720029.6517, 21, 0, 4193.333, 4186.154, 4123.077, 4145.641, 4190.769, 0, 0, []
1627720029.6596, 22, 0, 4223.59, 4179.487, 4127.179, 4156.923, 4222.051, 0, 0, []
1627720029.6675, 23, 0, 4236.923, 4186.154, 4138.974, 4162.051, 4228.718, 0, 0, []
1627720029.6755, 24, 0, 4216.41, 4191.282, 4133.333, 4149.744, 4208.718, 0, 0, []
1627720029.6834, 25, 0, 4194.359, 4180.513, 4122.051, 4139.487, 4188.718, 0, 0, []
1627720029.6914, 26, 0, 4207.692, 4187.179, 4136.923, 4155.385, 4204.615, 0, 0, []
1627720029.6993, 27, 0, 4228.718, 4204.615, 4151.795, 4177.949, 4233.333, 0, 0, []
1627720029.7072, 28, 0, 4216.923, 4196.41, 4141.026, 4176.923, 4224.103, 0, 0, []
1627720029.7152, 29, 0, 4200, 4184.103, 4124.103, 4166.667, 4203.59, 0, 0, []
1627720029.7231, 30, 0, 4198.974, 4186.667, 4124.103, 4162.051, 4198.974, 0, 0, []
1627720029.7311, 31, 0, 4199.487, 4180, 4132.821, 4156.41, 4193.846, 0, 0, []
1627720029.7389, 32, 0, 4200, 4178.462, 4134.359, 4155.897, 4192.308, 0, 0, []
1627720029.7469, 33, 0, 4198.462, 4185.128, 4135.897, 4155.385, 4190.769, 0, 0, []
1627720029.7548, 34, 0, 4190.769, 4172.308, 4130.769, 4144.103, 4175.897, 0, 0, []
1627720029.7628, 35, 0, 4185.128, 4161.026, 4121.538, 4137.436, 4166.154, 0, 0, []
1627720029.7707, 36, 0, 4183.59, 4167.692, 4121.538, 4134.872, 4171.795, 0, 0, []
1627720029.7787, 37, 0, 4183.077, 4171.282, 4125.641, 4134.359, 4172.308, 0, 0, []
1627720029.7865, 38, 0, 4183.59, 4165.128, 4128.205, 4138.974, 4170.769, 0, 0, []
1627720029.7945, 39, 0, 4172.821, 4152.821, 4117.436, 4131.795, 4164.615, 0, 0, []
1627720029.8024, 40, 0, 4162.051, 4153.333, 4103.077, 4117.949, 4152.821, 0, 0, []
1627720029.8104, 41, 0, 4176.923, 4183.077, 4116.923, 4128.205, 4161.026, 0, 0, []
1627720029.8183, 42, 0, 4194.359, 4196.41, 4133.846, 4143.077, 4175.385, 0, 0, []
1627720029.8262, 43, 0, 4190.256, 4173.846, 4130.256, 4138.462, 4171.795, 0, 0, []
1627720029.8341, 44, 0, 4175.897, 4165.641, 4125.128, 4133.846, 4163.59, 0, 0, []
1627720029.8421, 45, 0, 4170.256, 4169.744, 4126.667, 4134.359, 4160.513, 0, 0, []
1627720029.85, 46, 0, 4168.205, 4156.41, 4126.667, 4128.205, 4149.744, 0, 0, []
1627720029.858, 47, 0, 4156.41, 4146.667, 4118.974, 4118.974, 4131.282, 0, 0, []
1627720029.8659, 48, 0, 4155.385, 4154.872, 4119.487, 4123.077, 4127.692, 0, 0, []
1627720029.8738, 49, 0, 4170.769, 4157.436, 4125.128, 4131.795, 4143.077, 0, 0, []
1627720029.8818, 50, 0, 4178.462, 4160, 4127.692, 4136.923, 4154.872, 0, 0, []
1627720029.8897, 51, 0, 4181.026, 4173.333, 4136.923, 4146.154, 4156.923, 0, 0, []
1627720029.8977, 52, 0, 4186.154, 4166.667, 4132.308, 4155.385, 4160.513, 0, 0, []
1627720029.9055, 53, 0, 4180, 4160, 4115.385, 4148.718, 4166.154, 0, 0, []
1627720029.9135, 54, 0, 4171.282, 4168.205, 4109.231, 4137.949, 4168.205, 0, 0, []
1627720029.9214, 55, 0, 4175.897, 4160.513, 4108.205, 4140, 4172.821, 0, 0, []
1627720029.9294, 56, 0, 4175.385, 4150.256, 4108.718, 4139.487, 4166.154, 0, 0, []
1627720029.9373, 57, 0, 4170.769, 4168.718, 4107.692, 4134.872, 4152.308, 0, 0, []
1627720029.9452, 58, 0, 4178.974, 4177.949, 4110.256, 4139.487, 4160, 0, 0, []
1627720029.9531, 59, 0, 4183.077, 4155.897, 4112.821, 4137.949, 4168.718, 0, 0, []
1627720029.9611, 60, 0, 4171.795, 4149.231, 4106.667, 4126.154, 4158.462, 0, 0, []
1627720029.969, 61, 0, 4161.026, 4160.513, 4106.667, 4122.051, 4146.667, 0, 0, []
1627720029.977, 62, 0, 4164.103, 4165.128, 4121.026, 4128.718, 4154.872, 0, 0, []
1627720029.9848, 63, 0, 4169.744, 4166.667, 4129.231, 4128.205, 4165.641, 0, 0, []
1627720029.9927, 64, 0, 4173.333, 4169.744, 4125.641, 4127.179, 4167.179, 450, 0, []
1627720030.0006, 65, 0, 4185.128, 4174.359, 4134.359, 4142.051, 4175.385, 450, 0, []
1627720030.0084, 66, 0, 4201.026, 4178.974, 4151.282, 4156.41, 4192.821, 16184, 0, []
1627720030.0164, 67, 0, 4202.051, 4182.051, 4147.179, 4152.821, 4201.538, 450, 0, []
1627720030.0242, 68, 0, 4188.718, 4177.949, 4134.359, 4138.974, 4192.821, 16173, 0, []
1627720030.0322, 69, 0, 4183.59, 4167.179, 4130.256, 4128.205, 4183.077, 450, 0, []
1627720030.0401, 70, 0, 4178.974, 4148.718, 4113.846, 4124.103, 4173.846, 16103, 0, []
1627720030.0481, 71, 0, 4160.513, 4136.923, 4097.436, 4120, 4157.436, 450, 0, []
1627720030.056, 72, 0, 4155.897, 4145.641, 4102.051, 4118.462, 4157.949, 450, 0, []
1627720030.0639, 73, 0, 4170.256, 4153.333, 4110.769, 4123.59, 4168.718, 16159, 0, []
1627720030.0718, 74, 0, 4170.769, 4156.923, 4113.333, 4128.205, 4166.667, 450, 0, []
1627720030.0798, 75, 0, 4164.103, 4167.692, 4114.872, 4131.282, 4171.282, 16195, 0, []
1627720030.0877, 76, 0, 4171.282, 4168.205, 4121.026, 4128.205, 4180.513, 450, 0, []
1627720030.0957, 77, 0, 4178.974, 4165.128, 4122.564, 4123.077, 4172.308, 450, 0, []
1627720030.1035, 78, 0, 4182.051, 4176.41, 4126.667, 4129.231, 4171.795, 450, 0, []
1627720030.1115, 79, 0, 4184.615, 4186.667, 4134.359, 4139.487, 4188.205, 16195, 0, []
1627720030.1194, 80, 0, 4187.692, 4180.513, 4130.769, 4139.487, 4186.154, 450, 0, []
1627720030.1274, 81, 0, 4187.692, 4171.795, 4128.718, 4136.41, 4169.231, 450, 0, []
1627720030.1353, 82, 0, 4186.154, 4174.359, 4142.051, 4138.462, 4168.205, 450, 0, []
1627720030.1432, 83, 0, 4191.795, 4178.974, 4148.205, 4140, 4183.59, 16195, 0, []
1627720030.1511, 84, 0, 4203.59, 4179.487, 4139.487, 4138.462, 4200.513, 450, 0, []
1627720030.1589, 85, 0, 4205.641, 4178.462, 4136.41, 4141.026, 4205.128, 450, 0, []
1627720030.1668, 86, 0, 4192.821, 4163.077, 4134.872, 4135.385, 4184.615, 450, 0, []
1627720030.1746, 87, 0, 4178.462, 4147.179, 4116.41, 4121.538, 4163.077, 16195, 0, []
1627720030.1825, 88, 0, 4180, 4160, 4107.179, 4126.667, 4173.333, 450, 0, []
1627720030.1904, 89, 0, 4191.282, 4178.462, 4121.538, 4142.564, 4190.769, 450, 0, []
1627720030.1984, 90, 0, 4185.128, 4167.692, 4113.846, 4134.359, 4177.949, 450, 0, []
1627720030.2063, 91, 0, 4168.718, 4162.564, 4103.59, 4118.974, 4160.513, 16195, 0, []
1627720030.2143, 92, 0, 4173.846, 4175.385, 4124.103, 4127.692, 4166.154, 450, 0, []
1627720030.2221, 93, 0, 4187.179, 4173.333, 4129.744, 4138.462, 4174.359, 450, 0, []
1627720030.2301, 94, 0, 4191.282, 4167.692, 4118.974, 4136.41, 4172.308, 450, 0, []
1627720030.238, 95, 0, 4193.846, 4176.923, 4121.538, 4135.897, 4169.231, 16195, 0, []
1627720030.246, 96, 0, 4203.077, 4190.256, 4134.872, 4144.103, 4173.846, 450, 0, []
1627720030.2539, 97, 0, 4207.692, 4193.846, 4144.615, 4154.359, 4184.615, 450, 0, []
1627720030.2618, 98, 0, 4205.128, 4183.077, 4135.897, 4153.846, 4194.359, 450, 0, []
1627720030.2697, 99, 0, 4209.231, 4180.513, 4135.385, 4159.487, 4201.026, 16195, 0, []
1627720030.2777, 100, 0, 4212.821, 4186.154, 4145.128, 4170.256, 4198.462, 450, 0, []
1627720030.2856, 101, 0, 4205.128, 4176.41, 4139.487, 4157.436, 4185.641, 450, 0, []
1627720030.2935, 102, 0, 4197.436, 4170.256, 4134.872, 4144.103, 4181.538, 450, 0, []
1627720030.3014, 103, 0, 4200, 4180.513, 4138.974, 4151.282, 4183.077, 16195, 0, []
1627720030.3093, 104, 0, 4199.487, 4183.59, 4132.308, 4147.179, 4176.41, 450, 0, []
1627720030.3172, 105, 0, 4201.026, 4177.436, 4120, 4140.513, 4180, 450, 0, []
1627720030.325, 106, 0, 4209.231, 4181.026, 4125.128, 4151.795, 4191.282, 450, 0, []
1627720030.333, 107, 0, 4201.026, 4185.641, 4133.333, 4149.231, 4183.59, 16195, 0, []
1627720030.3408, 108, 0, 4182.564, 4182.564, 4126.154, 4132.308, 4166.154, 450, 0, []
1627720030.3488, 109, 0, 4180.513, 4184.615, 4132.821, 4141.538, 4166.667, 450, 0, []
1627720030.3567, 110, 0, 4191.282, 4191.282, 4145.641, 4154.872, 4172.308, 450, 0, []
1627720030.3647, 111, 0, 4189.744, 4189.231, 4140, 4144.615, 4161.538, 16195, 0, []
1627720030.3726, 112, 0, 4174.359, 4173.333, 4131.282, 4133.333, 4146.154, 450, 0, []
1627720030.3805, 113, 0, 4164.103, 4164.103, 4129.744, 4135.385, 4151.795, 450, 0, []
1627720030.3884, 114, 0, 4166.667, 4172.821, 4136.923, 4147.179, 4166.667, 450, 0, []
1627720030.3964, 115, 0, 4176.923, 4183.077, 4141.538, 4156.41, 4167.179, 16195, 0, []
1627720030.4043, 116, 0, 4181.026, 4186.154, 4131.282, 4155.385, 4160.513, 450, 0, []
1627720030.4123, 117, 0, 4172.308, 4182.564, 4122.564, 4150.256, 4155.897, 450, 0, []
1627720030.4201, 118, 0, 4168.205, 4186.667, 4127.692, 4153.846, 4154.872, 450, 0, []
1627720030.4281, 119, 0, 4180, 4194.359, 4138.974, 4159.487, 4155.897, 16195, 0, []
1627720030.436, 120, 0, 4179.487, 4184.615, 4134.872, 4154.359, 4153.846, 450, 0, []
1627720030.4438, 121, 0, 4174.359, 4175.385, 4126.154, 4152.821, 4155.897, 450, 0, []
1627720030.4517, 122, 0, 4191.795, 4191.282, 4137.949, 4158.974, 4171.795, 450, 0, []
1627720030.4594, 123, 0, 4198.462, 4206.667, 4140, 4155.897, 4172.308, 16195, 0, []
1627720030.4673, 124, 0, 4174.872, 4186.154, 4125.641, 4140, 4144.615, 450, 0, []
1627720030.4751, 125, 0, 4162.051, 4168.205, 4126.667, 4133.333, 4130.769, 450, 0, []
1627720030.4831, 126, 0, 4169.744, 4188.718, 4133.333, 4141.538, 4143.077, 450, 0, []
1627720030.491, 127, 0, 4172.821, 4203.59, 4131.282, 4144.615, 4145.641, 16195, 0, []
1627720030.4989, 128, 0, 4169.231, 4183.077, 4121.026, 4140, 4131.795, 450, 0, []
1627720030.5068, 0, 0, 4162.564, 4163.077, 4113.846, 4137.436, 4122.564, 450, 0, []
1627720030.5148, 1, 0, 4153.846, 4180, 4120, 4136.923, 4123.59, 450, 0, []
1627720030.5227, 2, 0, 4156.41, 4192.821, 4127.179, 4138.462, 4127.179, 16182, 0, []
1627720030.5307, 3, 0, 4160.513, 4178.462, 4125.641, 4142.051, 4122.564, 450, 0, []
1627720030.5385, 4, 0, 4154.872, 4174.359, 4118.974, 4142.564, 4110.769, 16170, 0, []
1627720030.5465, 5, 0, 4150.769, 4180.513, 4120.513, 4138.974, 4110.256, 450, 0, []
1627720030.5544, 6, 0, 4156.41, 4177.436, 4125.641, 4137.949, 4123.59, 16063, 0, []
1627720030.5624, 7, 0, 4156.41, 4178.974, 4124.103, 4133.846, 4121.538, 450, 0, []
1627720030.5703, 8, 0, 4148.718, 4191.795, 4130.256, 4130.769, 4101.538, 450, 0, []
1627720030.5781, 9, 0, 4155.385, 4189.231, 4134.872, 4142.051, 4111.282, 16159, 0, []
1627720030.586, 10, 0, 4176.923, 4173.333, 4128.718, 4156.41, 4155.897, 450, 0, []
1627720030.5938, 11, 0, 4189.744, 4172.821, 4127.179, 4160, 4180.513, 16190, 0, []
1627720030.6017, 12, 0, 4181.538, 4182.564, 4122.564, 4151.795, 4161.026, 450, 0, []
1627720030.6095, 13, 0, 4169.744, 4178.974, 4114.359, 4141.026, 4140, 450, 0, []
1627720030.6173, 14, 0, 4169.231, 4169.231, 4111.795, 4137.436, 4142.564, 450, 0, []
1627720030.6251, 15, 0, 4171.282, 4172.308, 4117.949, 4143.077, 4145.641, 16190, 0, []
1627720030.6331, 16, 0, 4161.026, 4172.308, 4126.667, 4141.026, 4130.256, 0, 0, []
1627720030.641, 17, 0, 4150.256, 4164.103, 4130.256, 4137.436, 4118.462, 0, 0, []
1627720030.649, 18, 0, 4162.564, 4173.333, 4147.692, 4153.333, 4134.872, 0, 0, []
1627720030.6569, 19, 0, 4178.462, 4192.308, 4164.103, 4166.154, 4150.256, 0, 0, []
1627720030.6648, 20, 0, 4173.846, 4188.718, 4157.436, 4156.923, 4135.897, 0, 0, []
1627720030.6727, 21, 0, 4163.59, 4173.333, 4150.769, 4149.744, 4118.462, 0, 0, []
1627720030.6807, 22, 0, 4167.179, 4182.564, 4150.256, 4157.436, 4121.026, 0, 0, []
1627720030.6886, 23, 0, 4170.769, 4201.538, 4147.692, 4160, 4120, 0, 0, []
1627720030.6966, 24, 0, 4161.538, 4191.282, 4145.128, 4148.205, 4105.128, 0, 0, []
1627720030.7044, 25, 0, 4148.718, 4163.59, 4139.487, 4143.59, 4095.897, 0, 0, []
1627720030.7124, 26, 0, 4148.718, 4170.256, 4138.462, 4152.821, 4097.949, 0, 0, []
1627720030.7203, 27, 0, 4163.077, 4198.462, 4140.513, 4160, 4104.615, 0, 0, []
1627720030.7281, 28, 0, 4169.744, 4196.41, 4140, 4156.923, 4112.308, 0, 0, []
1627720030.736, 29, 0, 4155.897, 4177.949, 4134.359, 4147.179, 4104.615, 0, 0, []
1627720030.7437, 30, 0, 4145.641, 4180, 4132.308, 4144.615, 4096.41, 0, 0, []
1627720030.7516, 31, 0, 4153.846, 4187.692, 4141.538, 4153.846, 4108.205, 0, 0, []
1627720030.7594, 32, 0, 4155.385, 4174.872, 4143.59, 4151.795, 4110.256, 0, 0, []
1627720030.7673, 33, 0, 4151.795, 4162.051, 4135.385, 4137.949, 4099.487, 0, 0, []
1627720030.7751, 34, 0, 4158.974, 4169.744, 4138.974, 4143.077, 4107.179, 0, 0, []
1627720030.7829, 35, 0, 4152.308, 4177.436, 4150.769, 4153.333, 4110.256, 0, 0, []
1627720030.7907, 36, 0, 4129.744, 4168.718, 4148.205, 4142.051, 4081.026, 0, 0, []
1627720030.7986, 37, 0, 4109.744, 4163.59, 4132.821, 4131.795, 4047.692, 0, 0, []
1627720030.8064, 38, 0, 4083.59, 4171.282, 4126.154, 4131.795, 4010.769, 0, 0, []
1627720030.8144, 39, 0, 4049.231, 4173.333, 4128.205, 4130.769, 3969.231, 0, 0, []
1627720030.8222, 40, 0, 4038.974, 4169.231, 4125.641, 4132.308, 3958.974, 0, 0, []
1627720030.8302, 41, 0, 4053.333, 4169.744, 4126.667, 4141.538, 3979.487, 0, 0, []
1627720030.8381, 42, 0, 4062.564, 4170.256, 4128.718, 4149.744, 3994.872, 0, 0, []
1627720030.8461, 43, 0, 4065.128, 4175.385, 4127.179, 4153.846, 3998.462, 0, 0, []
1627720030.854, 44, 0, 4068.718, 4184.103, 4132.308, 4152.821, 4000, 0, 0, []
1627720030.8619, 45, 0, 4078.462, 4183.077, 4143.59, 4154.872, 4008.205, 0, 0, []
1627720030.8698, 46, 0, 4096.923, 4183.077, 4165.128, 4166.154, 4025.128, 0, 0, []
1627720030.8778, 47, 0, 4108.205, 4191.795, 4168.718, 4167.692, 4028.718, 0, 0, []
1627720030.8857, 48, 0, 4102.564, 4190.769, 4150.256, 4158.462, 4018.974, 0, 0, []
1627720030.8937, 49, 0, 4090.769, 4183.077, 4138.974, 4153.333, 4009.744, 0, 0, []
1627720030.9015, 50, 0, 4088.205, 4182.564, 4130.256, 4149.231, 4005.641, 0, 0, []
1627720030.9093, 51, 0, 4097.436, 4184.615, 4128.718, 4144.103, 4006.154, 0, 0, []
1627720030.9172, 52, 0, 4103.59, 4187.179, 4136.41, 4146.667, 4009.231, 0, 0, []
1627720030.925, 53, 0, 4101.538, 4189.231, 4138.462, 4154.359, 4015.385, 0, 0, []
1627720030.9329, 54, 0, 4100.513, 4182.564, 4138.462, 4148.205, 4019.487, 0, 0, []
1627720030.9406, 55, 0, 4104.615, 4183.59, 4145.641, 4144.103, 4028.718, 0, 0, []
1627720030.9486, 56, 0, 4113.846, 4201.538, 4157.436, 4154.359, 4043.077, 0, 0, []
1627720030.9565, 57, 0, 4125.128, 4207.692, 4164.615, 4164.103, 4058.462, 0, 0, []
1627720030.9644, 58, 0, 4130.769, 4203.077, 4168.205, 4168.718, 4068.205, 0, 0, []
1627720030.9723, 59, 0, 4127.692, 4210.256, 4174.872, 4172.821, 4066.667, 0, 0, []
1627720030.9802, 60, 0, 4118.974, 4207.179, 4167.179, 4168.718, 4058.462, 0, 0, []
1627720030.9882, 61, 0, 4112.821, 4187.179, 4151.795, 4155.385, 4049.744, 0, 0, []
1627720030.9961, 62, 0, 4118.974, 4184.103, 4145.128, 4150.769, 4050.769, 0, 0, []
1627720031.004, 63, 0, 4124.103, 4181.538, 4138.462, 4154.359, 4050.256, 0, 0, []
1627720031.012, 64, 0, 4118.974, 4173.846, 4143.077, 4153.333, 4045.641, 450, 0, []
1627720031.0198, 65, 0, 4125.641, 4190.769, 4155.897, 4153.333, 4056.923, 450, 0, []
1627720031.0278, 66, 0, 4140.513, 4201.026, 4152.308, 4158.462, 4070.769, 16182, 0, []
1627720031.0357, 67, 0, 4141.026, 4186.667, 4143.077, 4158.974, 4072.308, 450, 0, []
1627720031.0435, 68, 0, 4133.333, 4184.103, 4144.103, 4151.282, 4071.282, 16170, 0, []
1627720031.0514, 69, 0, 4141.026, 4191.282, 4152.821, 4154.359, 4084.103, 450, 0, []
1627720031.0591, 70, 0, 4155.385, 4186.154, 4151.795, 4168.718, 4103.077, 16057, 0, []
1627720031.067, 71, 0, 4152.821, 4184.103, 4147.692, 4171.282, 4105.641, 450, 0, []
1627720031.0748, 72, 0, 4139.487, 4188.718, 4148.718, 4158.974, 4096.923, 450, 0, []
1627720031.0827, 73, 0, 4134.872, 4186.154, 4145.641, 4153.333, 4094.359, 16162, 0, []
1627720031.0905, 74, 0, 4135.385, 4180, 4146.154, 4156.923, 4096.923, 450, 0, []
1627720031.0983, 75, 0, 4141.026, 4183.077, 4154.872, 4167.179, 4102.051, 16190, 0, []
1627720031.1061, 76, 0, 4152.821, 4193.846, 4164.103, 4179.487, 4114.872, 450, 0, []
1627720031.1141, 77, 0, 4151.282, 4191.795, 4156.923, 4175.385, 4113.846, 450, 0, []
1627720031.122, 78, 0, 4147.692, 4183.077, 4145.128, 4171.282, 4111.282, 450, 0, []
1627720031.13, 79, 0, 4162.564, 4193.846, 4158.974, 4183.077, 4131.795, 16190, 0, []
1627720031.1378, 80, 0, 4171.795, 4204.103, 4174.872, 4187.692, 4140.513, 450, 0, []
1627720031.1458, 81, 0, 4172.308, 4198.974, 4172.308, 4184.615, 4133.846, 450, 0, []
1627720031.1537, 82, 0, 4170.769, 4202.051, 4161.538, 4188.205, 4133.846, 450, 0, []
1627720031.1617, 83, 0, 4163.077, 4208.718, 4142.051, 4185.641, 4127.179, 16190, 0, []
1627720031.1696, 84, 0, 4152.821, 4194.359, 4134.872, 4172.821, 4114.359, 450, 0, []
1627720031.1775, 85, 0, 4140.513, 4185.641, 4142.564, 4165.128, 4106.667, 450, 0, []
1627720031.1854, 86, 0, 4134.359, 4186.154, 4138.462, 4156.41, 4101.538, 450, 0, []
1627720031.1934, 87, 0, 4144.103, 4169.231, 4136.41, 4150.256, 4101.538, 16190, 0, []
1627720031.2013, 88, 0, 4142.051, 4155.385, 4142.564, 4156.41, 4101.538, 450, 0, []
1627720031.2091, 89, 0, 4122.051, 4162.051, 4143.077, 4160, 4088.205, 450, 0, []
1627720031.2169, 90, 0, 4117.436, 4172.308, 4137.436, 4154.359, 4076.41, 450, 0, []
1627720031.2247, 91, 0, 4124.103, 4180, 4134.359, 4145.641, 4080.513, 16190, 0, []
1627720031.2326, 92, 0, 4128.205, 4198.974, 4141.538, 4142.051, 4087.692, 450, 0, []
1627720031.2404, 93, 0, 4137.436, 4210.769, 4149.231, 4143.59, 4091.795, 450, 0, []
1627720031.2483, 94, 0, 4143.077, 4200.513, 4152.308, 4148.205, 4092.821, 450, 0, []
1627720031.256, 95, 0, 4139.487, 4186.154, 4156.41, 4149.231, 4091.282, 16190, 0, []
1627720031.264, 96, 0, 4144.103, 4178.462, 4165.641, 4156.41, 4094.872, 450, 0, []
1627720031.2719, 97, 0, 4155.385, 4184.615, 4177.949, 4172.821, 4105.641, 450, 0, []
1627720031.2799, 98, 0, 4155.385, 4187.692, 4176.923, 4172.308, 4110.256, 450, 0, []
1627720031.2878, 99, 0, 4143.59, 4171.795, 4167.179, 4147.179, 4095.385, 16190, 0, []
1627720031.2957, 100, 0, 4130.769, 4165.128, 4158.462, 4126.154, 4079.487, 450, 0, []
1627720031.3036, 101, 0, 4132.821, 4196.41, 4154.359, 4131.795, 4084.615, 450, 0, []
1627720031.3116, 102, 0, 4144.615, 4228.205, 4160, 4149.231, 4094.359, 450, 0, []
1627720031.3195, 103, 0, 4148.718, 4219.487, 4158.462, 4150.769, 4098.462, 16190, 0, []
1627720031.3275, 104, 0, 4149.744, 4205.128, 4156.41, 4149.231, 4110.256, 450, 0, []
1627720031.3353, 105, 0, 4157.436, 4208.205, 4170.256, 4163.077, 4125.128, 450, 0, []
1627720031.3431, 106, 0, 4158.974, 4203.59, 4175.897, 4169.231, 4125.641, 450, 0, []
1627720031.351, 107, 0, 4148.205, 4186.154, 4163.59, 4157.436, 4117.436, 16190, 0, []
1627720031.3588, 108, 0, 4150.769, 4177.949, 4155.897, 4161.538, 4120.513, 450, 0, []
1627720031.3667, 109, 0, 4161.026, 4184.615, 4154.872, 4174.359, 4128.718, 450, 0, []
1627720031.3744, 110, 0, 4156.923, 4188.205, 4149.744, 4162.051, 4118.974, 450, 0, []
1627720031.3823, 111, 0, 4151.795, 4197.436, 4151.795, 4148.205, 4107.179, 16190, 0, []
1627720031.3901, 112, 0, 4157.436, 4211.795, 4164.615, 4154.872, 4114.872, 450, 0, []
1627720031.398, 113, 0, 4160, 4209.744, 4158.462, 4156.41, 4120.513, 450, 0, []
1627720031.4058, 114, 0, 4154.872, 4198.974, 4145.128, 4148.205, 4114.872, 450, 0, []
1627720031.4138, 115, 0, 4155.897, 4195.897, 4156.923, 4156.41, 4120.513, 16190, 0, []
1627720031.4216, 116, 0, 4174.872, 4202.564, 4172.821, 4173.846, 4140, 450, 0, []
1627720031.4296, 117, 0, 4187.692, 4204.103, 4171.282, 4175.385, 4148.718, 450, 0, []
1627720031.4375, 118, 0, 4173.333, 4180, 4159.487, 4160.513, 4135.897, 450, 0, []
1627720031.4455, 119, 0, 4166.154, 4170.256, 4160.513, 4156.41, 4127.692, 16190, 0, []
1627720031.4534, 120, 0, 4181.538, 4200, 4172.821, 4164.103, 4132.821, 450, 0, []
1627720031.4613, 121, 0, 4178.974, 4215.385, 4163.077, 4161.026, 4130.769, 450, 0, []
1627720031.4692, 122, 0, 4163.59, 4198.974, 4148.718, 4152.308, 4122.564, 450, 0, []
1627720031.4772, 123, 0, 4169.231, 4197.949, 4155.385, 4149.744, 4124.103, 16190, 0, []
1627720031.4851, 124, 0, 4183.59, 4208.718, 4158.974, 4150.769, 4133.846, 450, 0, []
1627720031.493, 125, 0, 4185.128, 4198.462, 4156.41, 4154.359, 4139.487, 450, 0, []
1627720031.5008, 126, 0, 4184.103, 4191.795, 4163.077, 4166.154, 4144.615, 450, 0, []
1627720031.5086, 127, 0, 4185.128, 4202.564, 4173.846, 4174.872, 4147.692, 16190, 0, []
1627720031.5165, 128, 0, 4184.103, 4213.333, 4174.359, 4172.308, 4147.692, 450, 0, []
1627720031.5243, 0, 0, 4185.128, 4216.41, 4163.59, 4169.744, 4152.308, 450, 0, []
1627720031.5322, 1, 0, 4186.154, 4220, 4155.385, 4169.231, 4149.744, 450, 0, []
1627720031.5399, 2, 0, 4183.077, 4218.974, 4153.846, 4165.128, 4139.487, 16182, 0, []
1627720031.5478, 3, 0, 4174.359, 4197.436, 4152.821, 4158.462, 4135.385, 450, 0, []
1627720031.5556, 4, 0, 4170.769, 4188.205, 4143.077, 4154.872, 4135.897, 16170, 0, []
1627720031.5635, 5, 0, 4176.41, 4200, 4137.436, 4159.487, 4132.308, 450, 0, []
1627720031.5713, 6, 0, 4186.154, 4204.615, 4158.462, 4170.769, 4141.538, 322, 0, []
1627720031.5792, 7, 0, 4186.667, 4202.051, 4163.077, 4173.846, 4150.769, 450, 0, []
1627720031.5871, 8, 0, 4182.564, 4210.256, 4145.641, 4166.667, 4140.513, 450, 0, []
1627720031.5951, 9, 0, 4192.308, 4220.513, 4158.974, 4173.333, 4149.231, 16162, 0, []
1627720031.603, 10, 0, 4194.872, 4212.821, 4171.795, 4185.128, 4171.282, 450, 0, []
1627720031.611, 11, 0, 4185.641, 4206.667, 4158.462, 4183.59, 4171.282, 16190, 0, []
1627720031.6188, 12, 0, 4191.795, 4215.897, 4158.974, 4184.615, 4169.231, 450, 0, []
1627720031.6268, 13, 0, 4205.641, 4218.462, 4167.179, 4190.769, 4182.051, 450, 0, []
1627720031.6347, 14, 0, 4208.718, 4210.256, 4152.821, 4188.205, 4183.59, 450, 0, []
1627720031.6427, 15, 0, 4206.154, 4213.333, 4138.462, 4183.59, 4172.821, 16190, 0, []
1627720031.6506, 16, 0, 4205.641, 4221.026, 4144.615, 4184.103, 4170.769, 0, 0, []
1627720031.6584, 17, 0, 4202.564, 4217.436, 4147.179, 4178.974, 4167.692, 0, 0, []
1627720031.6663, 18, 0, 4204.615, 4215.897, 4150.256, 4178.462, 4167.179, 0, 0, []
1627720031.6741, 19, 0, 4212.308, 4220, 4160.513, 4186.667, 4176.41, 0, 0, []
1627720031.682, 20, 0, 4213.846, 4216.923, 4160, 4187.179, 4178.462, 0, 0, []
1627720031.6898, 21, 0, 4207.692, 4218.974, 4160, 4183.077, 4168.718, 0, 0, []
1627720031.6976, 22, 0, 4200, 4226.154, 4163.59, 4181.026, 4164.103, 0, 0, []
1627720031.7054, 23, 0, 4201.538, 4221.538, 4158.974, 4182.051, 4167.179, 0, 0, []
1627720031.7133, 24, 0, 4204.103, 4218.462, 4156.41, 4183.59, 4167.179, 0, 0, []
1627720031.7211, 25, 0, 4200.513, 4222.564, 4158.462, 4181.026, 4168.205, 0, 0, []
1627720031.7291, 26, 0, 4203.077, 4218.974, 4152.308, 4169.231, 4164.615, 0, 0, []
1627720031.7369, 27, 0, 4215.385, 4220.513, 4142.051, 4166.667, 4165.128, 0, 0, []
1627720031.7449, 28, 0, 4230.769, 4234.872, 4151.795, 4182.051, 4182.051, 0, 0, []
1627720031.7528, 29, 0, 4238.462, 4237.436, 4171.795, 4190.769, 4191.282, 0, 0, []
1627720031.7608, 30, 0, 4231.282, 4230.769, 4166.154, 4186.667, 4180.513, 0, 0, []
1627720031.7687, 31, 0, 4217.436, 4231.282, 4154.872, 4182.564, 4169.231, 0, 0, []
1627720031.7766, 32, 0, 4218.974, 4233.846, 4161.026, 4186.154, 4169.744, 0, 0, []
1627720031.7845, 33, 0, 4232.308, 4232.821, 4161.026, 4190.256, 4175.385, 0, 0, []
1627720031.7925, 34, 0, 4228.718, 4223.077, 4155.385, 4187.692, 4175.897, 0, 0, []
1627720031.8004, 35, 0, 4214.359, 4214.872, 4151.795, 4182.564, 4170.769, 0, 0, []
1627720031.8083, 36, 0, 4217.436, 4215.897, 4153.846, 4184.103, 4166.154, 0, 0, []
1627720031.8161, 37, 0, 4225.641, 4216.923, 4164.615, 4190.256, 4166.154, 0, 0, []
1627720031.8239, 38, 0, 4223.59, 4218.462, 4167.692, 4190.769, 4165.128, 0, 0, []
1627720031.8318, 39, 0, 4221.538, 4218.974, 4163.077, 4187.692, 4167.179, 0, 0, []
1627720031.8396, 40, 0, 4210.769, 4211.795, 4162.564, 4183.59, 4159.487, 0, 0, []
1627720031.8475, 41, 0, 4208.205, 4214.359, 4169.744, 4183.077, 4159.487, 0, 0, []
1627720031.8552, 42, 0, 4258.974, 4220, 4173.333, 4190.769, 4208.718, 0, 0, []
1627720031.8631, 43, 0, 4352.821, 4216.41, 4171.282, 4197.436, 4298.974, 0, 0, []
1627720031.8709, 44, 0, 4447.692, 4221.538, 4184.103, 4198.462, 4398.974, 0, 0, []
1627720031.8789, 45, 0, 4528.205, 4235.385, 4200.513, 4205.128, 4491.282, 0, 0, []
1627720031.8868, 46, 0, 4574.359, 4243.59, 4204.615, 4217.436, 4545.128, 0, 0, []
1627720031.8947, 47, 0, 4564.103, 4237.949, 4198.462, 4213.333, 4539.487, 0, 0, []
1627720031.9026, 48, 0, 4532.308, 4221.538, 4185.128, 4200, 4513.846, 0, 0, []
1627720031.9106, 49, 0, 4520.513, 4226.667, 4191.282, 4201.538, 4501.538, 0, 0, []
1627720031.9185, 50, 0, 4505.641, 4253.333, 4206.154, 4204.615, 4485.128, 0, 0, []
1627720031.9265, 51, 0, 4472.821, 4251.795, 4207.179, 4195.385, 4456.923, 0, 0, []
1627720031.9343, 52, 0, 4439.487, 4228.718, 4198.974, 4185.641, 4425.128, 0, 0, []
1627720031.9423, 53, 0, 4412.821, 4225.641, 4192.308, 4180, 4403.077, 0, 0, []
1627720031.9502, 54, 0, 4397.949, 4233.333, 4201.538, 4182.051, 4394.872, 0, 0, []
1627720031.9582, 55, 0, 4393.333, 4234.872, 4212.821, 4195.897, 4391.282, 0, 0, []
1627720031.9661, 56, 0, 4377.436, 4229.231, 4202.564, 4196.923, 4375.385, 0, 0, []
1627720031.9738, 57, 0, 4356.41, 4220.513, 4192.308, 4183.59, 4357.436, 0, 0, []
1627720031.9817, 58, 0, 4363.077, 4228.205, 4204.103, 4188.718, 4361.026, 0, 0, []
1627720031.9895, 59, 0, 4378.462, 4248.718, 4221.026, 4205.128, 4374.872, 0, 0, []
1627720031.9974, 60, 0, 4367.692, 4252.308, 4222.564, 4206.667, 4370.769, 0, 0, []
1627720032.0052, 61, 0, 4348.718, 4231.795, 4213.333, 4199.487, 4347.692, 0, 0, []
1627720032.013, 62, 0, 4337.949, 4212.821, 4202.564, 4191.795, 4326.667, 0, 0, []
1627720032.0208, 63, 0, 4327.179, 4215.385, 4190.769, 4184.103, 4323.077, 0, 0, []
1627720032.0287, 64, 0, 4324.103, 4226.667, 4191.795, 4184.103, 4329.231, 450, 0, []
1627720032.0365, 65, 0, 4326.154, 4221.538, 4191.282, 4184.615, 4328.205, 450, 0, []
1627720032.0445, 66, 0, 4318.974, 4221.026, 4175.385, 4182.051, 4321.026, 16182, 0, []
1627720032.0523, 67, 0, 4312.308, 4227.179, 4171.282, 4184.103, 4313.333, 450, 0, []
1627720032.0603, 68, 0, 4317.436, 4220, 4173.333, 4186.154, 4310.256, 16170, 0, []
1627720032.0682, 69, 0, 4316.41, 4210.256, 4171.282, 4185.128, 4310.769, 450, 0, []
1627720032.0762, 70, 0, 4307.692, 4217.436, 4178.974, 4184.615, 4308.718, 322, 0, []
1627720032.0841, 71, 0, 4303.077, 4222.051, 4183.59, 4186.154, 4304.103, 450, 0, []
1627720032.092, 72, 0, 4298.462, 4217.949, 4185.641, 4194.359, 4297.949, 450, 0, []
1627720032.0999, 73, 0, 4297.949, 4231.795, 4193.333, 4197.949, 4294.359, 16162, 0, []
1627720032.1078, 74, 0, 4303.59, 4249.231, 4194.359, 4192.821, 4303.59, 450, 0, []
1627720032.1157, 75, 0, 4297.949, 4242.564, 4188.718, 4191.795, 4309.744, 16189, 0, []
1627720032.1235, 76, 0, 4286.667, 4224.615, 4186.154, 4195.385, 4295.897, 450, 0, []
1627720032.1313, 77, 0, 4280, 4214.359, 4189.231, 4187.692, 4277.436, 450, 0, []
1627720032.1391, 78, 0, 4274.359, 4211.795, 4190.256, 4182.564, 4277.436, 450, 0, []
1627720032.147, 79, 0, 4283.59, 4218.974, 4207.179, 4204.103, 4292.821, 16189, 0, []
1627720032.1548, 80, 0, 4298.462, 4232.821, 4222.051, 4221.538, 4300.513, 450, 0, []
1627720032.1627, 81, 0, 4290.256, 4234.359, 4201.026, 4213.333, 4292.821, 450, 0, []
1627720032.1705, 82, 0, 4277.436, 4226.667, 4182.051, 4201.538, 4282.051, 450, 0, []
1627720032.1783, 83, 0, 4280, 4229.744, 4187.179, 4202.564, 4280, 16189, 0, []
1627720032.1861, 84, 0, 4285.128, 4236.923, 4188.205, 4210.769, 4281.538, 450, 0, []
1627720032.1941, 85, 0, 4283.077, 4238.462, 4183.077, 4210.769, 4282.564, 450, 0, []
1627720032.202, 86, 0, 4282.564, 4241.538, 4185.641, 4203.59, 4282.051, 450, 0, []
1627720032.21, 87, 0, 4282.564, 4242.051, 4188.205, 4200, 4283.077, 16189, 0, []
1627720032.2178, 88, 0, 4276.41, 4236.923, 4181.538, 4201.026, 4278.974, 450, 0, []
1627720032.2258, 89, 0, 4265.128, 4226.667, 4180.513, 4199.487, 4268.718, 450, 0, []
1627720032.2337, 90, 0, 4259.487, 4224.615, 4186.154, 4198.462, 4266.154, 450, 0, []
1627720032.2417, 91, 0, 4265.641, 4231.282, 4186.154, 4202.564, 4275.385, 16189, 0, []
1627720032.2496, 92, 0, 4269.231, 4230.769, 4192.821, 4203.59, 4282.564, 450, 0, []
1627720032.2575, 93, 0, 4264.615, 4226.667, 4193.333, 4201.538, 4279.487, 450, 0, []
1627720032.2654, 94, 0, 4260.513, 4228.718, 4177.949, 4198.974, 4275.385, 450, 0, []
1627720032.2733, 95, 0, 4264.103, 4230.769, 4175.897, 4199.487, 4272.821, 16189, 0, []
1627720032.2812, 96, 0, 4266.667, 4232.308, 4186.154, 4206.154, 4270.256, 450, 0, []
1627720032.2892, 97, 0, 4260.513, 4234.872, 4187.692, 4206.154, 4265.641, 450, 0, []
1627720032.297, 98, 0, 4249.231, 4224.615, 4174.359, 4191.795, 4254.872, 450, 0, []
1627720032.3048, 99, 0, 4246.154, 4212.821, 4164.615, 4180.513, 4247.692, 16189, 0, []
1627720032.3127, 100, 0, 4247.692, 4216.923, 4171.795, 4188.205, 4244.103, 450, 0, []
1627720032.3205, 101, 0, 4241.538, 4221.026, 4168.718, 4192.308, 4235.385, 450, 0, []
1627720032.3284, 102, 0, 4228.718, 4215.897, 4152.821, 4180.513, 4224.615, 450, 0, []
1627720032.3361, 103, 0, 4227.179, 4216.41, 4151.795, 4179.487, 4224.103, 16189, 0, []
1627720032.3441, 104, 0, 4241.026, 4223.077, 4163.077, 4193.333, 4231.795, 450, 0, []
1627720032.352, 105, 0, 4249.231, 4229.744, 4172.821, 4198.974, 4236.923, 450, 0, []
1627720032.36, 106, 0, 4249.744, 4242.564, 4181.026, 4198.462, 4240, 450, 0, []
1627720032.3679, 107, 0, 4242.564, 4241.538, 4185.641, 4201.026, 4236.923, 16189, 0, []
1627720032.3758, 108, 0, 4231.795, 4217.436, 4178.462, 4199.487, 4227.692, 450, 0, []
1627720032.3837, 109, 0, 4240, 4210.769, 4176.923, 4201.538, 4230.256, 450, 0, []
1627720032.3917, 110, 0, 4254.872, 4224.615, 4187.179, 4208.718, 4241.026, 450, 0, []
1627720032.3996, 111, 0, 4240, 4224.103, 4176.41, 4200.513, 4229.744, 16189, 0, []
1627720032.4076, 112, 0, 4223.59, 4215.897, 4160.513, 4181.538, 4210.769, 450, 0, []
1627720032.4154, 113, 0, 4240, 4220.513, 4172.308, 4181.538, 4220, 450, 0, []
1627720032.4234, 114, 0, 4251.795, 4222.051, 4179.487, 4190.769, 4235.385, 450, 0, []
1627720032.4313, 115, 0, 4242.564, 4213.333, 4171.282, 4191.282, 4225.128, 16189, 0, []
1627720032.4391, 116, 0, 4240, 4215.385, 4170.256, 4189.744, 4217.436, 450, 0, []
1627720032.447, 117, 0, 4243.077, 4228.205, 4172.821, 4188.718, 4225.641, 450, 0, []
1627720032.4547, 118, 0, 4242.051, 4233.846, 4180.513, 4191.795, 4228.718, 450, 0, []
1627720032.4626, 119, 0, 4253.333, 4229.231, 4189.744, 4206.154, 4242.564, 16189, 0, []
1627720032.4704, 120, 0, 4272.308, 4224.103, 4192.308, 4217.436, 4271.282, 450, 0, []
1627720032.4783, 121, 0, 4282.051, 4229.231, 4190.256, 4219.487, 4287.692, 450, 0, []
1627720032.4861, 122, 0, 4294.872, 4232.308, 4191.282, 4218.462, 4295.897, 450, 0, []
1627720032.4939, 123, 0, 4316.41, 4225.641, 4186.667, 4207.692, 4315.385, 16189, 0, []
1627720032.5017, 124, 0, 4348.205, 4224.103, 4173.333, 4193.333, 4348.205, 450, 0, []
1627720032.5097, 125, 0, 4402.051, 4229.231, 4178.974, 4201.538, 4403.077, 450, 0, []
1627720032.5176, 126, 0, 4452.308, 4221.538, 4181.026, 4204.103, 4456.923, 450, 0, []
1627720032.5256, 127, 0, 4475.897, 4207.179, 4159.487, 4184.615, 4473.333, 16189, 0, []
1627720032.5334, 128, 0, 4500, 4224.615, 4160, 4190.769, 4476.41, 450, 0, []
1627720032.5414, 0, 0, 4518.974, 4248.718, 4179.487, 4217.436, 4483.077, 450, 0, []
1627720032.5493, 1, 0, 4507.692, 4243.077, 4188.718, 4217.436, 4472.821, 450, 0, []
1627720032.5573, 2, 0, 4478.462, 4231.282, 4187.692, 4195.385, 4445.128, 16181, 0, []
1627720032.5652, 3, 0, 4447.179, 4231.795, 4182.564, 4186.667, 4418.974, 450, 0, []
1627720032.5731, 4, 0, 4415.385, 4235.385, 4184.615, 4194.359, 4393.846, 16170, 0, []
1627720032.581, 5, 0, 4391.282, 4235.897, 4191.282, 4201.538, 4367.179, 450, 0, []
1627720032.5888, 6, 0, 4365.128, 4227.692, 4193.333, 4200, 4344.103, 322, 0, []
1627720032.5968, 7, 0, 4339.487, 4221.026, 4192.308, 4195.385, 4325.641, 450, 0, []
1627720032.6047, 8, 0, 4331.282, 4241.026, 4194.872, 4203.077, 4312.821, 450, 0, []
1627720032.6125, 9, 0, 4325.128, 4255.897, 4202.051, 4205.128, 4295.897, 16158, 0, []
1627720032.6203, 10, 0, 4312.308, 4233.333, 4204.103, 4198.462, 4280.513, 450, 0, []
1627720032.6282, 11, 0, 4311.282, 4221.538, 4204.103, 4208.718, 4279.487, 16189, 0, []
1627720032.636, 12, 0, 4306.154, 4238.974, 4197.436, 4216.923, 4277.949, 450, 0, []
1627720032.6439, 13, 0, 4285.128, 4247.692, 4183.077, 4204.103, 4261.538, 450, 0, []
1627720032.6516, 14, 0, 4274.872, 4246.667, 4185.128, 4196.41, 4240.513, 450, 0, []
1627720032.6596, 15, 0, 4280.513, 4244.615, 4200, 4202.051, 4237.949, 16189, 0, []
1627720032.6675, 16, 0, 4282.564, 4231.282, 4205.128, 4202.051, 4246.667, 0, 0, []
1627720032.6755, 17, 0, 4272.821, 4212.821, 4196.41, 4194.359, 4241.538, 0, 0, []
1627720032.6834, 18, 0, 4264.103, 4209.744, 4188.718, 4198.462, 4230.769, 0, 0, []
1627720032.6913, 19, 0, 4271.795, 4226.667, 4200.513, 4214.872, 4234.359, 0, 0, []
1627720032.6992, 20, 0, 4274.872, 4236.923, 4209.231, 4220, 4235.385, 0, 0, []
1627720032.7072, 21, 0, 4257.436, 4226.154, 4203.077, 4209.744, 4215.897, 0, 0, []
1627720032.7151, 22, 0, 4246.667, 4225.641, 4201.538, 4206.154, 4202.051, 0, 0, []
1627720032.7231, 23, 0, 4247.692, 4241.538, 4197.436, 4208.718, 4206.154, 0, 0, []
1627720032.7309, 24, 0, 4236.923, 4239.487, 4187.692, 4197.949, 4201.538, 0, 0, []
1627720032.7387, 25, 0, 4221.026, 4230.256, 4179.487, 4183.59, 4182.564, 0, 0, []
1627720032.7466, 26, 0, 4213.846, 4232.308, 4174.359, 4178.462, 4169.744, 0, 0, []
1627720032.7544, 27, 0, 4207.179, 4224.103, 4176.923, 4180, 4167.179, 0, 0, []
1627720032.7623, 28, 0, 4209.231, 4211.282, 4182.564, 4192.308, 4174.359, 0, 0, []
1627720032.77, 29, 0, 4218.974, 4214.872, 4184.103, 4203.59, 4186.667, 0, 0, []
1627720032.7779, 30, 0, 4212.308, 4216.41, 4179.487, 4198.974, 4181.538, 0, 0, []
1627720032.7857, 31, 0, 4202.564, 4212.308, 4181.026, 4196.923, 4170.769, 0, 0, []
1627720032.7936, 32, 0, 4201.026, 4223.59, 4192.308, 4202.051, 4167.179, 0, 0, []
1627720032.8014, 33, 0, 4201.026, 4232.821, 4194.359, 4200.513, 4158.462, 0, 0, []
1627720032.8092, 34, 0, 4208.205, 4234.872, 4197.949, 4199.487, 4157.949, 0, 0, []
1627720032.817, 35, 0, 4218.974, 4235.385, 4202.051, 4206.667, 4169.231, 0, 0, []
1627720032.825, 36, 0, 4204.103, 4222.051, 4184.615, 4200.513, 4160.513, 0, 0, []
1627720032.8329, 37, 0, 4178.974, 4210.769, 4164.615, 4183.077, 4136.41, 0, 0, []
1627720032.8409, 38, 0, 4187.179, 4228.205, 4167.179, 4180, 4141.026, 0, 0, []
1627720032.8487, 39, 0, 4206.154, 4241.538, 4183.077, 4196.41, 4165.128, 0, 0, []
1627720032.8567, 40, 0, 4200.513, 4230.256, 4187.692, 4203.59, 4170.256, 0, 0, []
1627720032.8646, 41, 0, 4193.333, 4222.564, 4180, 4190.256, 4158.974, 0, 0, []
1627720032.8726, 42, 0, 4200, 4222.051, 4183.59, 4184.103, 4158.974, 0, 0, []
1627720032.8805, 43, 0, 4194.359, 4221.538, 4185.641, 4185.641, 4156.923, 0, 0, []
1627720032.8882, 44, 0, 4170.769, 4216.923, 4172.308, 4170.769, 4138.974, 0, 0, []
1627720032.8961, 45, 0, 4164.615, 4207.692, 4170.256, 4161.026, 4135.385, 0, 0, []
1627720032.9039, 46, 0, 4182.051, 4220.513, 4185.128, 4181.026, 4152.821, 0, 0, []
1627720032.9118, 47, 0, 4193.846, 4237.949, 4197.436, 4196.41, 4167.179, 0, 0, []
1627720032.9196, 48, 0, 4183.077, 4220, 4185.128, 4189.744, 4168.205, 0, 0, []
1627720032.9275, 49, 0, 4168.205, 4202.051, 4173.333, 4185.641, 4163.59, 0, 0, []
1627720032.9352, 50, 0, 4164.615, 4216.41, 4178.974, 4187.179, 4163.59, 0, 0, []
1627720032.9431, 51, 0, 4169.231, 4223.59, 4177.949, 4183.59, 4167.179, 0, 0, []
1627720032.9509, 52, 0, 4171.795, 4212.821, 4173.333, 4183.077, 4162.051, 0, 0, []
1627720032.9588, 53, 0, 4168.205, 4214.872, 4172.308, 4186.154, 4153.846, 0, 0, []
1627720032.9667, 54, 0, 4165.641, 4220, 4174.872, 4183.59, 4160, 0, 0, []
1627720032.9746, 55, 0, 4176.41, 4212.821, 4184.615, 4188.205, 4169.744, 0, 0, []
1627720032.9826, 56, 0, 4187.179, 4204.103, 4189.744, 4201.026, 4173.333, 0, 0, []
1627720032.9905, 57, 0, 4171.795, 4197.436, 4182.564, 4194.872, 4168.718, 0, 0, []
1627720032.9984, 58, 0, 4154.872, 4196.41, 4174.359, 4180.513, 4164.103, 0, 0, []
1627720033.0064, 59, 0, 4166.154, 4205.128, 4182.564, 4187.692, 4169.744, 0, 0, []
1627720033.0142, 60, 0, 4174.872, 4217.436, 4195.897, 4197.949, 4172.821, 0, 0, []
1627720033.0222, 61, 0, 4170.256, 4220, 4190.769, 4195.897, 4168.205, 0, 0, []
1627720033.0301, 62, 0, 4177.436, 4217.436, 4184.103, 4196.41, 4168.718, 0, 0, []
1627720033.0379, 63, 0, 4186.154, 4224.103, 4187.692, 4196.923, 4180.513, 0, 0, []
1627720033.0458, 64, 0, 4183.59, 4225.128, 4182.051, 4191.795, 4188.718, 450, 0, []
1627720033.0535, 65, 0, 4181.026, 4216.923, 4173.846, 4191.795, 4184.103, 450, 0, []
1627720033.0614, 66, 0, 4182.564, 4218.462, 4172.821, 4196.41, 4183.077, 16181, 0, []
1627720033.0692, 67, 0, 4183.077, 4217.949, 4177.949, 4201.026, 4193.333, 450, 0, []
1627720033.0771, 68, 0, 4185.128, 4215.897, 4182.564, 4198.974, 4203.59, 16170, 0, []
1627720033.0849, 69, 0, 4186.154, 4222.564, 4181.026, 4190.256, 4203.59, 450, 0, []
1627720033.0927, 70, 0, 4189.231, 4225.641, 4183.59, 4192.821, 4200, 16059, 0, []
1627720033.1005, 71, 0, 4195.385, 4219.487, 4184.615, 4197.949, 4199.487, 450, 0, []
1627720033.1085, 72, 0, 4191.795, 4223.59, 4185.641, 4193.846, 4198.462, 450, 0, []
1627720033.1164, 73, 0, 4185.128, 4234.872, 4183.077, 4193.846, 4201.538, 16155, 0, []
1627720033.1244, 74, 0, 4185.641, 4231.282, 4168.205, 4192.308, 4200, 450, 0, []
1627720033.1322, 75, 0, 4182.051, 4218.974, 4158.974, 4181.538, 4185.641, 16192, 0, []
1627720033.1401, 76, 0, 4180.513, 4224.615, 4171.282, 4187.692, 4188.718, 450, 0, []
1627720033.1479, 77, 0, 4190.769, 4241.538, 4184.615, 4207.179, 4207.692, 450, 0, []
1627720033.1559, 78, 0, 4190.256, 4240.513, 4176.923, 4203.59, 4202.564, 450, 0, []
1627720033.1638, 79, 0, 4174.872, 4226.667, 4161.026, 4188.205, 4185.641, 16192, 0, []
1627720033.1717, 80, 0, 4168.205, 4230.769, 4163.59, 4183.59, 4185.128, 450, 0, []
1627720033.1796, 81, 0, 4171.282, 4237.436, 4167.179, 4183.077, 4181.026, 450, 0, []
1627720033.1876, 82, 0, 4170.256, 4231.795, 4168.205, 4184.615, 4171.795, 450, 0, []
1627720033.1955, 83, 0, 4166.667, 4220.513, 4176.923, 4186.667, 4171.282, 16192, 0, []
1627720033.2033, 84, 0, 4168.205, 4214.359, 4174.359, 4182.051, 4168.718, 450, 0, []
1627720033.2111, 85, 0, 4171.282, 4223.59, 4170.256, 4177.949, 4170.769, 450, 0, []
1627720033.2189, 86, 0, 4171.282, 4227.179, 4176.923, 4182.051, 4184.103, 450, 0, []
1627720033.2268, 87, 0, 4170.256, 4222.051, 4186.667, 4185.641, 4184.615, 16192, 0, []
1627720033.2346, 88, 0, 4164.103, 4219.487, 4184.103, 4181.538, 4168.205, 450, 0, []
1627720033.2425, 89, 0, 4158.974, 4221.538, 4176.923, 4184.103, 4166.667, 450, 0, []
1627720033.2502, 90, 0, 4161.538, 4227.179, 4181.026, 4196.41, 4175.897, 450, 0, []
1627720033.2581, 91, 0, 4157.949, 4226.667, 4179.487, 4201.026, 4173.846, 16192, 0, []
1627720033.2659, 92, 0, 4152.308, 4218.462, 4177.949, 4198.462, 4176.923, 450, 0, []
1627720033.2738, 93, 0, 4154.359, 4222.564, 4185.128, 4195.897, 4182.564, 450, 0, []
1627720033.2816, 94, 0, 4153.846, 4232.308, 4178.462, 4192.308, 4173.333, 450, 0, []
1627720033.2894, 95, 0, 4158.974, 4221.026, 4169.231, 4191.795, 4174.359, 16192, 0, []
1627720033.2972, 96, 0, 4175.897, 4222.564, 4176.923, 4197.436, 4190.256, 450, 0, []
1627720033.3052, 97, 0, 4189.231, 4248.718, 4192.821, 4213.333, 4200, 450, 0, []
1627720033.3131, 98, 0, 4196.923, 4249.231, 4202.564, 4234.359, 4209.231, 450, 0, []
1627720033.3211, 99, 0, 4196.923, 4230.769, 4190.256, 4235.385, 4211.795, 16192, 0, []
1627720033.3289, 100, 0, 4182.564, 4225.641, 4169.231, 4213.846, 4194.359, 450, 0, []
1627720033.3369, 101, 0, 4171.282, 4234.359, 4170.256, 4204.615, 4186.154, 450, 0, []
1627720033.3448, 102, 0, 4171.282, 4238.462, 4180.513, 4209.231, 4188.205, 450, 0, []
1627720033.3528, 103, 0, 4173.846, 4233.846, 4181.538, 4203.59, 4181.026, 16192, 0, []
1627720033.3607, 104, 0, 4187.179, 4226.667, 4177.436, 4199.487, 4189.231, 450, 0, []
1627720033.3684, 105, 0, 4199.487, 4228.718, 4179.487, 4204.615, 4203.59, 450, 0, []
1627720033.3763, 106, 0, 4191.282, 4238.974, 4175.385, 4201.538, 4190.256, 450, 0, []
1627720033.3841, 107, 0, 4183.077, 4246.667, 4165.641, 4198.462, 4181.026, 16192, 0, []
1627720033.392, 108, 0, 4186.154, 4250.769, 4173.333, 4205.128, 4198.974, 450, 0, []
1627720033.3998, 109, 0, 4186.154, 4245.128, 4176.41, 4205.128, 4201.026, 450, 0, []
1627720033.4076, 110, 0, 4183.59, 4242.564, 4169.231, 4200, 4185.641, 450, 0, []
1627720033.4154, 111, 0, 4180, 4249.231, 4173.333, 4200, 4182.564, 16192, 0, []
1627720033.4233, 112, 0, 4167.692, 4239.487, 4181.026, 4193.333, 4178.462, 450, 0, []
1627720033.4311, 113, 0, 4165.128, 4227.179, 4183.59, 4182.051, 4172.308, 450, 0, []
1627720033.4391, 114, 0, 4177.949, 4241.026, 4185.128, 4184.103, 4181.026, 450, 0, []
1627720033.4469, 115, 0, 4186.667, 4255.897, 4195.385, 4196.41, 4189.231, 16192, 0, []
1627720033.4549, 116, 0, 4189.231, 4250.769, 4198.974, 4198.974, 4186.154, 450, 0, []
1627720033.4628, 117, 0, 4190.769, 4249.744, 4184.615, 4189.744, 4184.615, 450, 0, []
1627720033.4708, 118, 0, 4186.667, 4249.744, 4173.846, 4183.59, 4184.103, 450, 0, []
1627720033.4787, 119, 0, 4182.051, 4238.974, 4173.333, 4188.205, 4183.077, 16192, 0, []
1627720033.4866, 120, 0, 4180, 4230.256, 4173.846, 4191.795, 4183.59, 450, 0, []
1627720033.4945, 121, 0, 4180, 4231.282, 4178.974, 4187.692, 4182.051, 450, 0, []
1627720033.5025, 122, 0, 4185.641, 4240.513, 4184.615, 4194.359, 4187.692, 450, 0, []
1627720033.5104, 123, 0, 4190.256, 4240.513, 4187.692, 4204.103, 4190.769, 16192, 0, []
1627720033.5182, 124, 0, 4181.538, 4218.974, 4181.538, 4194.359, 4176.923, 450, 0, []
1627720033.526, 125, 0, 4181.026, 4212.308, 4176.923, 4184.103, 4167.692, 450, 0, []
1627720033.5338, 126, 0, 4198.974, 4230.769, 4187.692, 4191.795, 4174.872, 450, 0, []
1627720033.5417, 127, 0, 4201.538, 4231.795, 4185.128, 4188.205, 4169.744, 16192, 0, []
1627720033.5495, 128, 0, 4188.718, 4221.026, 4176.41, 4185.641, 4163.077, 450, 0, []
1627720033.5574, 0, 0, 4183.077, 4221.026, 4185.128, 4200.513, 4169.744, 450, 0, []
1627720033.5651, 1, 0, 4178.462, 4217.436, 4189.231, 4197.436, 4159.487, 450, 0, []
1627720033.573, 2, 0, 4166.154, 4218.974, 4178.462, 4180.513, 4142.051, 16181, 0, []
1627720033.5808, 3, 0, 4144.615, 4231.282, 4166.154, 4182.564, 4128.205, 450, 0, []
1627720033.5888, 4, 0, 4112.821, 4229.744, 4168.718, 4190.256, 4092.821, 16172, 0, []
1627720033.5967, 5, 0, 4085.641, 4216.41, 4174.872, 4188.205, 4052.308, 450, 0, []
1627720033.6046, 6, 0, 4066.667, 4216.923, 4163.077, 4178.974, 4034.872, 16059, 0, []
1627720033.6125, 7, 0, 4054.872, 4217.949, 4149.744, 4171.282, 4027.179, 450, 0, []
1627720033.6205, 8, 0, 4063.077, 4214.872, 4151.282, 4177.949, 4028.718, 450, 0, []
1627720033.6284, 9, 0, 4076.923, 4216.41, 4155.897, 4181.538, 4041.026, 16155, 0, []
1627720033.6364, 10, 0, 4077.949, 4214.872, 4154.872, 4169.231, 4046.667, 450, 0, []
1627720033.6442, 11, 0, 4084.103, 4209.744, 4162.564, 4167.179, 4054.872, 16195, 0, []
1627720033.6522, 12, 0, 4094.872, 4208.205, 4174.872, 4174.359, 4061.538, 450, 0, []
1627720033.6601, 13, 0, 4092.821, 4215.385, 4166.667, 4171.795, 4052.821, 450, 0, []
1627720033.6681, 14, 0, 4094.359, 4221.538, 4159.487, 4167.179, 4045.128, 450, 0, []
1627720033.676, 15, 0, 4103.59, 4210.256, 4167.179, 4169.231, 4044.103, 16195, 0, []
1627720033.6838, 16, 0, 4107.692, 4203.077, 4167.692, 4169.744, 4043.077, 0, 0, []
1627720033.6916, 17, 0, 4104.615, 4215.897, 4170.769, 4169.231, 4045.128, 0, 0, []
1627720033.6994, 18, 0, 4104.103, 4224.103, 4176.41, 4174.359, 4046.667, 0, 0, []
1627720033.7073, 19, 0, 4114.872, 4214.872, 4175.385, 4188.205, 4048.718, 0, 0, []
1627720033.7151, 20, 0, 4129.231, 4216.41, 4177.436, 4200.513, 4062.564, 0, 0, []
1627720033.723, 21, 0, 4145.128, 4232.308, 4184.103, 4204.103, 4077.949, 0, 0, []
1627720033.7307, 22, 0, 4156.923, 4235.385, 4184.615, 4203.077, 4080.513, 0, 0, []
1627720033.7386, 23, 0, 4148.718, 4229.744, 4170.769, 4198.462, 4074.359, 0, 0, []
1627720033.7464, 24, 0, 4143.077, 4225.128, 4172.821, 4201.026, 4076.923, 0, 0, []
1627720033.7544, 25, 0, 4161.538, 4230.769, 4191.282, 4211.795, 4090.256, 0, 0, []
1627720033.7623, 26, 0, 4170.256, 4237.949, 4189.744, 4210.769, 4095.385, 0, 0, []
1627720033.7702, 27, 0, 4158.974, 4235.897, 4176.41, 4199.487, 4085.641, 0, 0, []
1627720033.7781, 28, 0, 4151.282, 4238.462, 4170.256, 4191.795, 4077.436, 0, 0, []
1627720033.7861, 29, 0, 4144.615, 4243.077, 4170.769, 4185.641, 4076.923, 0, 0, []
1627720033.794, 30, 0, 4140.513, 4249.231, 4172.821, 4180.513, 4074.359, 0, 0, []
1627720033.802, 31, 0, 4148.718, 4259.487, 4171.282, 4185.128, 4073.333, 0, 0, []
1627720033.8098, 32, 0, 4156.923, 4258.462, 4175.385, 4191.282, 4081.538, 0, 0, []
1627720033.8176, 33, 0, 4161.538, 4247.692, 4177.949, 4187.692, 4090.256, 0, 0, []
1627720033.8255, 34, 0, 4169.231, 4253.846, 4170.256, 4189.231, 4091.282, 0, 0, []
1627720033.8333, 35, 0, 4169.744, 4270.256, 4171.795, 4200.513, 4091.282, 0, 0, []
1627720033.8412, 36, 0, 4162.564, 4268.205, 4172.821, 4204.615, 4092.821, 0, 0, []
1627720033.8489, 37, 0, 4155.897, 4259.487, 4166.154, 4191.795, 4084.615, 0, 0, []
1627720033.8568, 38, 0, 4149.231, 4254.872, 4159.487, 4183.59, 4076.41, 0, 0, []
1627720033.8646, 39, 0, 4152.821, 4250.256, 4161.026, 4195.385, 4085.128, 0, 0, []
1627720033.8725, 40, 0, 4164.103, 4246.667, 4170.256, 4202.564, 4093.333, 0, 0, []
1627720033.8803, 41, 0, 4165.641, 4249.231, 4173.333, 4191.795, 4090.256, 0, 0, []
1627720033.8881, 42, 0, 4163.59, 4247.179, 4173.846, 4186.667, 4091.795, 0, 0, []
1627720033.8959, 43, 0, 4165.128, 4243.59, 4178.974, 4189.744, 4095.385, 0, 0, []
1627720033.9039, 44, 0, 4169.744, 4257.949, 4186.154, 4186.667, 4095.385, 0, 0, []
1627720033.9118, 45, 0, 4170.769, 4268.718, 4186.154, 4182.051, 4098.462, 0, 0, []
1627720033.9198, 46, 0, 4168.718, 4252.308, 4176.41, 4181.538, 4103.59, 0, 0, []
1627720033.9276, 47, 0, 4172.308, 4240, 4173.333, 4181.026, 4109.231, 0, 0, []
1627720033.9356, 48, 0, 4178.974, 4249.231, 4179.487, 4185.128, 4117.436, 0, 0, []
1627720033.9435, 49, 0, 4184.615, 4260, 4184.103, 4191.282, 4127.692, 0, 0, []
1627720033.9515, 50, 0, 4185.641, 4263.59, 4191.795, 4200, 4136.923, 0, 0, []
1627720033.9594, 51, 0, 4189.231, 4265.128, 4190.769, 4210.769, 4143.59, 0, 0, []
1627720033.9672, 52, 0, 4189.231, 4261.026, 4181.026, 4209.744, 4141.538, 0, 0, []
1627720033.9752, 53, 0, 4171.282, 4244.103, 4180.513, 4195.385, 4122.564, 0, 0, []
1627720033.9832, 54, 0, 4152.821, 4229.744, 4181.026, 4183.59, 4103.59, 0, 0, []
1627720033.9911, 55, 0, 4161.026, 4238.462, 4181.538, 4182.051, 4113.333, 0, 0, []
1627720033.9989, 56, 0, 4171.282, 4251.795, 4183.59, 4185.128, 4133.333, 0, 0, []
1627720034.0067, 57, 0, 4158.462, 4250.769, 4182.051, 4184.103, 4126.667, 0, 0, []
1627720034.0145, 58, 0, 4150.256, 4254.872, 4188.718, 4183.59, 4114.359, 0, 0, []
1627720034.0224, 59, 0, 4160, 4264.615, 4198.974, 4189.231, 4126.667, 0, 0, []
1627720034.0302, 60, 0, 4180.513, 4263.59, 4202.051, 4201.026, 4145.641, 0, 0, []
1627720034.0381, 61, 0, 4199.487, 4255.897, 4198.462, 4206.667, 4156.41, 0, 0, []
1627720034.0458, 62, 0, 4191.795, 4251.795, 4192.821, 4201.538, 4154.359, 0, 0, []
1627720034.0538, 63, 0, 4175.897, 4246.154, 4180, 4195.385, 4146.667, 0, 0, []
1627720034.0617, 64, 0, 4187.179, 4250.256, 4171.795, 4196.41, 4157.436, 450, 0, []
1627720034.0697, 65, 0, 4204.615, 4266.154, 4183.077, 4197.949, 4172.821, 450, 0, []
1627720034.0776, 66, 0, 4202.051, 4265.128, 4183.077, 4192.308, 4171.282, 16181, 0, []
1627720034.0855, 67, 0, 4193.846, 4250.256, 4169.744, 4189.744, 4167.179, 450, 0, []
1627720034.0934, 68, 0, 4195.897, 4252.308, 4175.385, 4196.923, 4172.308, 16172, 0, []
1627720034.1014, 69, 0, 4200.513, 4256.41, 4181.538, 4202.051, 4176.923, 450, 0, []
1627720034.1093, 70, 0, 4193.846, 4238.974, 4175.385, 4197.949, 4172.308, 16059, 0, []
1627720034.1173, 71, 0, 4183.59, 4235.897, 4169.231, 4198.974, 4170.256, 450, 0, []
1627720034.1251, 72, 0, 4190.256, 4250.769, 4170.769, 4206.154, 4175.897, 450, 0, []
1627720034.1331, 73, 0, 4192.308, 4244.615, 4175.897, 4199.487, 4173.333, 16152, 0, []
1627720034.141, 74, 0, 4175.385, 4230.769, 4164.103, 4178.974, 4157.436, 450, 0, []
1627720034.1488, 75, 0, 4158.462, 4229.231, 4150.256, 4167.179, 4147.179, 16195, 0, []
1627720034.1567, 76, 0, 4150.769, 4231.282, 4151.282, 4165.128, 4145.128, 450, 0, []
1627720034.1644, 77, 0, 4155.897, 4233.333, 4154.359, 4163.077, 4147.692, 450, 0, []
1627720034.1723, 78, 0, 4168.205, 4230.256, 4165.641, 4166.154, 4159.487, 450, 0, []
1627720034.1801, 79, 0, 4170.769, 4218.462, 4182.051, 4172.308, 4169.231, 16195, 0, []
1627720034.188, 80, 0, 4174.359, 4220, 4187.692, 4173.333, 4168.718, 450, 0, []
1627720034.1958, 81, 0, 4184.103, 4234.872, 4185.128, 4177.436, 4169.744, 450, 0, []
1627720034.2036, 82, 0, 4186.154, 4238.462, 4180, 4186.667, 4174.872, 450, 0, []
1627720034.2114, 83, 0, 4183.077, 4233.846, 4176.923, 4183.59, 4173.846, 16195, 0, []
1627720034.2194, 84, 0, 4178.462, 4225.641, 4170.769, 4171.795, 4168.205, 450, 0, []
1627720034.2273, 85, 0, 4171.795, 4218.974, 4168.718, 4170.256, 4168.205, 450, 0, []
1627720034.2353, 86, 0, 4165.128, 4210.769, 4169.231, 4170.256, 4169.744, 450, 0, []
1627720034.2431, 87, 0, 4165.641, 4202.051, 4175.385, 4171.282, 4167.692, 16195, 0, []
1627720034.2511, 88, 0, 4175.897, 4211.795, 4195.897, 4182.564, 4171.795, 450, 0, []
1627720034.259, 89, 0, 4181.538, 4228.205, 4200.513, 4186.154, 4173.333, 450, 0, []
1627720034.267, 90, 0, 4169.744, 4220.513, 4178.462, 4172.821, 4161.538, 450, 0, []
1627720034.2749, 91, 0, 4161.538, 4210.256, 4162.051, 4157.949, 4149.231, 16195, 0, []
1627720034.2826, 92, 0, 4176.923, 4223.59, 4165.641, 4161.538, 4161.538, 450, 0, []
1627720034.2905, 93, 0, 4186.154, 4234.872, 4173.846, 4169.231, 4178.462, 450, 0, []
1627720034.2983, 94, 0, 4178.974, 4233.333, 4175.385, 4167.692, 4175.897, 450, 0, []
1627720034.3062, 95, 0, 4189.744, 4234.359, 4187.179, 4175.897, 4184.103, 16195, 0, []
1627720034.314, 96, 0, 4208.205, 4233.846, 4201.026, 4187.692, 4205.128, 450, 0, []
1627720034.3218, 97, 0, 4204.615, 4227.692, 4193.846, 4180, 4199.487, 450, 0, []
1627720034.3296, 98, 0, 4196.41, 4237.949, 4185.641, 4169.231, 4183.59, 450, 0, []
1627720034.3375, 99, 0, 4200.513, 4247.692, 4188.718, 4174.359, 4185.128, 16195, 0, []
1627720034.3453, 100, 0, 4200, 4236.41, 4187.692, 4175.897, 4182.051, 450, 0, []
1627720034.3532, 101, 0, 4193.846, 4237.949, 4184.103, 4174.872, 4174.359, 450, 0, []
1627720034.3609, 102, 0, 4192.821, 4248.205, 4181.538, 4182.564, 4180, 450, 0, []
1627720034.3689, 103, 0, 4190.256, 4240.513, 4183.59, 4186.154, 4184.103, 16195, 0, []
1627720034.3768, 104, 0, 4186.154, 4235.897, 4176.923, 4182.564, 4182.564, 450, 0, []
1627720034.3848, 105, 0, 4189.231, 4239.487, 4166.154, 4181.538, 4184.615, 450, 0, []
1627720034.3927, 106, 0, 4200, 4230.256, 4177.436, 4185.641, 4188.205, 450, 0, []
1627720034.4006, 107, 0, 4205.641, 4233.846, 4187.179, 4187.179, 4187.692, 16195, 0, []
1627720034.4085, 108, 0, 4208.205, 4248.205, 4185.128, 4185.641, 4189.231, 450, 0, []
1627720034.4165, 109, 0, 4223.077, 4248.205, 4191.795, 4192.821, 4203.077, 450, 0, []
1627720034.4244, 110, 0, 4235.897, 4255.897, 4196.41, 4201.538, 4216.41, 450, 0, []
1627720034.4324, 111, 0, 4231.282, 4265.641, 4194.872, 4202.564, 4209.744, 16195, 0, []
1627720034.4403, 112, 0, 4228.205, 4260, 4195.385, 4206.667, 4203.077, 450, 0, []
1627720034.448, 113, 0, 4233.846, 4258.462, 4197.949, 4212.308, 4214.872, 450, 0, []
1627720034.4559, 114, 0, 4229.231, 4262.051, 4192.821, 4202.564, 4220, 450, 0, []
1627720034.4637, 115, 0, 4216.41, 4252.821, 4182.051, 4188.205, 4206.667, 16195, 0, []
1627720034.4716, 116, 0, 4213.333, 4240.513, 4178.974, 4191.795, 4196.923, 450, 0, []
1627720034.4794, 117, 0, 4217.949, 4244.615, 4182.051, 4204.103, 4202.051, 450, 0, []
1627720034.4872, 118, 0, 4221.538, 4250.256, 4193.333, 4203.077, 4205.641, 450, 0, []
1627720034.495, 119, 0, 4214.872, 4244.103, 4196.41, 4188.718, 4195.897, 16195, 0, []
1627720034.5029, 120, 0, 4204.103, 4231.795, 4183.077, 4180.513, 4183.59, 450, 0, []
1627720034.5107, 121, 0, 4198.974, 4229.744, 4174.872, 4181.538, 4185.128, 450, 0, []
1627720034.5186, 122, 0, 4200, 4238.462, 4174.872, 4182.051, 4190.769, 450, 0, []
1627720034.5263, 123, 0, 4199.487, 4234.359, 4168.718, 4181.538, 4187.692, 16195, 0, []
1627720034.5343, 124, 0, 4198.462, 4227.179, 4164.615, 4177.436, 4184.103, 450, 0, []
1627720034.5422, 125, 0, 4200.513, 4235.897, 4170.256, 4173.333, 4187.179, 450, 0, []
1627720034.5502, 126, 0, 4202.564, 4239.487, 4183.077, 4180, 4188.205, 450, 0, []
1627720034.5581, 127, 0, 4204.103, 4225.128, 4186.154, 4187.179, 4186.667, 16195, 0, []
1627720034.566, 128, 0, 4203.077, 4217.949, 4173.333, 4178.974, 4185.128, 450, 0, []
1627720034.5739, 0, 0, 4197.949, 4220, 4161.026, 4168.205, 4175.385, 450, 0, []
1627720034.5819, 1, 0, 4195.897, 4215.897, 4157.949, 4166.667, 4168.205, 450, 0, []
1627720034.5898, 2, 0, 4200.513, 4213.333, 4167.692, 4172.308, 4177.949, 16181, 0, []
1627720034.5977, 3, 0, 4201.026, 4218.974, 4170.256, 4177.436, 4187.179, 450, 0, []
1627720034.6055, 4, 0, 4201.026, 4228.205, 4167.692, 4182.564, 4185.128, 16172, 0, []
1627720034.6133, 5, 0, 4211.282, 4229.744, 4176.923, 4188.205, 4189.744, 450, 0, []
1627720034.6212, 6, 0, 4217.436, 4229.744, 4176.41, 4190.256, 4199.487, 16059, 0, []
1627720034.629, 7, 0, 4207.692, 4234.872, 4168.205, 4186.154, 4195.897, 450, 0, []
1627720034.6369, 8, 0, 4200.513, 4231.795, 4170.256, 4184.103, 4188.718, 450, 0, []
1627720034.6446, 9, 0, 4205.641, 4215.897, 4174.872, 4182.051, 4188.205, 16152, 0, []
1627720034.6525, 10, 0, 4206.667, 4214.359, 4167.179, 4172.821, 4182.564, 450, 0, []
1627720034.6603, 11, 0, 4210.769, 4229.744, 4157.436, 4176.923, 4189.231, 16194, 0, []
1627720034.6682, 12, 0, 4227.692, 4233.333, 4164.615, 4200, 4211.795, 450, 0, []
1627720034.676, 13, 0, 4232.821, 4233.846, 4172.821, 4207.179, 4213.333, 450, 0, []
1627720034.6839, 14, 0, 4217.436, 4234.359, 4163.59, 4184.103, 4194.872, 450, 0, []
1627720034.6918, 15, 0, 4202.051, 4221.026, 4152.308, 4166.154, 4184.103, 16194, 0, []
1627720034.6998, 16, 0, 4196.923, 4214.872, 4151.282, 4172.308, 4184.103, 0, 0, []
1627720034.7077, 17, 0, 4205.641, 4232.821, 4167.179, 4187.179, 4191.795, 0, 0, []
1627720034.7157, 18, 0, 4217.436, 4240, 4180, 4194.359, 4197.436, 0, 0, []
1627720034.7235, 19, 0, 4211.282, 4217.949, 4173.333, 4192.821, 4191.282, 0, 0, []
1627720034.7315, 20, 0, 4198.974, 4209.744, 4173.333, 4190.769, 4190.256, 0, 0, []
1627720034.7394, 21, 0, 4200.513, 4226.154, 4173.846, 4179.487, 4195.897, 0, 0, []
1627720034.7474, 22, 0, 4204.615, 4237.436, 4168.718, 4166.667, 4197.949, 0, 0, []
1627720034.7553, 23, 0, 4200.513, 4232.308, 4170.769, 4171.795, 4194.872, 0, 0, []
1627720034.763, 24, 0, 4199.487, 4216.923, 4166.154, 4183.59, 4189.744, 0, 0, []
1627720034.7709, 25, 0, 4204.615, 4212.821, 4160.513, 4185.128, 4190.769, 0, 0, []
1627720034.7787, 26, 0, 4206.154, 4222.564, 4169.744, 4187.692, 4195.897, 0, 0, []
1627720034.7866, 27, 0, 4210.256, 4235.897, 4181.026, 4201.026, 4192.821, 0, 0, []
1627720034.7944, 28, 0, 4212.308, 4234.872, 4181.026, 4200.513, 4186.154, 0, 0, []
1627720034.8022, 29, 0, 4208.718, 4218.974, 4182.564, 4187.179, 4187.179, 0, 0, []
1627720034.81, 30, 0, 4209.744, 4214.872, 4189.744, 4182.564, 4193.846, 0, 0, []
1627720034.8179, 31, 0, 4208.205, 4235.897, 4187.692, 4183.077, 4195.897, 0, 0, []
1627720034.8257, 32, 0, 4200.513, 4240, 4185.128, 4178.462, 4188.205, 0, 0, []
1627720034.8337, 33, 0, 4194.872, 4214.872, 4181.026, 4171.282, 4178.462, 0, 0, []
1627720034.8415, 34, 0, 4198.462, 4214.872, 4170.769, 4174.872, 4180.513, 0, 0, []
1627720034.8495, 35, 0, 4209.231, 4233.846, 4183.59, 4187.692, 4188.205, 0, 0, []
1627720034.8574, 36, 0, 4214.872, 4220, 4198.462, 4185.128, 4186.154, 0, 0, []
1627720034.8654, 37, 0, 4212.308, 4203.077, 4184.615, 4173.333, 4182.051, 0, 0, []
1627720034.8733, 38, 0, 4205.128, 4224.103, 4174.872, 4170.769, 4186.667, 0, 0, []
1627720034.8812, 39, 0, 4210.769, 4244.103, 4186.667, 4175.385, 4195.897, 0, 0, []
1627720034.8891, 40, 0, 4220.513, 4232.308, 4196.41, 4178.974, 4192.821, 0, 0, []
1627720034.8971, 41, 0, 4225.641, 4220, 4190.769, 4183.077, 4192.308, 0, 0, []
1627720034.905, 42, 0, 4263.59, 4236.41, 4187.179, 4187.692, 4234.359, 0, 0, []
1627720034.913, 43, 0, 4349.744, 4252.821, 4191.282, 4192.308, 4314.872, 0, 0, []
1627720034.9208, 44, 0, 4443.59, 4239.487, 4185.641, 4198.462, 4401.538, 0, 0, []
1627720034.9286, 45, 0, 4506.667, 4224.103, 4179.487, 4201.026, 4465.641, 0, 0, []
1627720034.9365, 46, 0, 4540, 4238.974, 4184.103, 4200, 4497.436, 0, 0, []
1627720034.9443, 47, 0, 4553.846, 4249.231, 4193.333, 4197.436, 4515.385, 0, 0, []
1627720034.9522, 48, 0, 4546.154, 4232.308, 4198.974, 4189.231, 4516.923, 0, 0, []
1627720034.9599, 49, 0, 4526.154, 4231.795, 4194.872, 4180.513, 4488.205, 0, 0, []
1627720034.9678, 50, 0, 4509.231, 4246.667, 4195.385, 4180, 4459.487, 0, 0, []
1627720034.9756, 51, 0, 4495.897, 4240, 4208.205, 4195.385, 4453.333, 0, 0, []
1627720034.9835, 52, 0, 4468.718, 4229.744, 4212.821, 4204.615, 4441.538, 0, 0, []
1627720034.9913, 53, 0, 4438.462, 4236.923, 4210.769, 4190.769, 4412.308, 0, 0, []
1627720034.9991, 54, 0, 4425.641, 4233.846, 4211.795, 4185.641, 4395.897, 0, 0, []
1627720035.0069, 55, 0, 4415.897, 4219.487, 4216.923, 4202.564, 4393.846, 0, 0, []
1627720035.0149, 56, 0, 4389.231, 4216.41, 4210.769, 4207.179, 4377.949, 0, 0, []
1627720035.0228, 57, 0, 4355.897, 4213.333, 4198.974, 4196.923, 4348.205, 0, 0, []
1627720035.0308, 58, 0, 4344.615, 4220, 4209.231, 4198.974, 4338.462, 0, 0, []
1627720035.0386, 59, 0, 4348.205, 4234.872, 4222.051, 4205.128, 4347.692, 0, 0, []
1627720035.0466, 60, 0, 4345.128, 4229.231, 4218.462, 4203.077, 4347.179, 0, 0, []
1627720035.0545, 61, 0, 4338.462, 4207.692, 4216.41, 4201.026, 4340.513, 0, 0, []
1627720035.0625, 62, 0, 4330.769, 4203.59, 4213.846, 4192.821, 4329.744, 0, 0, []
1627720035.0704, 63, 0, 4318.462, 4214.359, 4206.154, 4181.026, 4313.846, 0, 0, []
1627720035.0783, 64, 0, 4318.974, 4214.872, 4201.538, 4187.179, 4315.897, 450, 0, []
1627720035.0862, 65, 0, 4330.256, 4220.513, 4205.641, 4206.154, 4329.744, 450, 0, []
1627720035.094, 66, 0, 4322.564, 4228.718, 4202.051, 4206.667, 4327.692, 16179, 0, []
1627720035.1019, 67, 0, 4307.179, 4222.564, 4186.667, 4188.718, 4314.872, 450, 0, []
1627720035.1097, 68, 0, 4300, 4214.872, 4187.179, 4179.487, 4304.103, 16172, 0, []
1627720035.1175, 69, 0, 4293.333, 4217.949, 4190.769, 4184.615, 4298.974, 450, 0, []
1627720035.1253, 70, 0, 4283.59, 4216.41, 4174.872, 4186.667, 4292.308, 253, 0, []
1627720035.1332, 71, 0, 4273.333, 4210.769, 4168.718, 4182.564, 4281.538, 450, 0, []
1627720035.141, 72, 0, 4269.231, 4210.769, 4182.564, 4188.205, 4282.564, 450, 0, []
1627720035.149, 73, 0, 4274.872, 4211.795, 4194.359, 4193.846, 4289.744, 16152, 0, []
1627720035.1569, 74, 0, 4282.564, 4220.513, 4191.282, 4181.538, 4287.692, 450, 0, []
1627720035.1648, 75, 0, 4271.282, 4222.051, 4185.641, 4170.256, 4275.897, 16194, 0, []
1627720035.1727, 76, 0, 4253.333, 4201.538, 4180, 4169.231, 4262.564, 450, 0, []
1627720035.1807, 77, 0, 4259.487, 4192.821, 4169.744, 4168.205, 4263.59, 450, 0, []
1627720035.1886, 78, 0, 4265.128, 4207.692, 4179.487, 4177.436, 4267.692, 450, 0, []
1627720035.1966, 79, 0, 4252.308, 4211.282, 4198.462, 4187.179, 4260.513, 16194, 0, []
1627720035.2044, 80, 0, 4262.051, 4206.154, 4190.769, 4174.872, 4267.692, 450, 0, []
1627720035.2124, 81, 0, 4303.077, 4213.846, 4182.051, 4164.615, 4300.513, 450, 0, []
1627720035.2203, 82, 0, 4316.923, 4216.41, 4185.128, 4164.103, 4312.821, 450, 0, []
1627720035.2283, 83, 0, 4286.667, 4214.359, 4184.615, 4160.513, 4292.308, 16194, 0, []
1627720035.2362, 84, 0, 4263.077, 4215.897, 4183.077, 4167.692, 4271.282, 450, 0, []
1627720035.2439, 85, 0, 4265.128, 4211.282, 4181.026, 4191.795, 4269.744, 450, 0, []
1627720035.2518, 86, 0, 4261.538, 4195.897, 4172.821, 4189.231, 4267.692, 450, 0, []
1627720035.2596, 87, 0, 4243.59, 4196.41, 4161.538, 4163.077, 4251.795, 16194, 0, []
1627720035.2675, 88, 0, 4243.59, 4215.385, 4169.231, 4160.513, 4252.821, 450, 0, []
1627720035.2753, 89, 0, 4256.923, 4216.41, 4190.256, 4171.282, 4265.128, 450, 0, []
1627720035.2831, 90, 0, 4253.846, 4205.128, 4197.436, 4174.359, 4259.487, 450, 0, []
1627720035.2909, 91, 0, 4246.154, 4207.692, 4187.179, 4169.744, 4247.692, 16194, 0, []
1627720035.2989, 92, 0, 4246.154, 4211.282, 4174.359, 4167.692, 4245.641, 450, 0, []
1627720035.3068, 93, 0, 4248.718, 4202.564, 4171.795, 4177.436, 4245.641, 450, 0, []
1627720035.3147, 94, 0, 4250.769, 4198.974, 4163.077, 4183.59, 4245.641, 450, 0, []
1627720035.3224, 95, 0, 4242.564, 4202.564, 4143.077, 4174.872, 4245.641, 16194, 0, []
1627720035.3304, 96, 0, 4239.487, 4198.462, 4145.641, 4176.41, 4246.154, 450, 0, []
1627720035.3383, 97, 0, 4247.692, 4195.385, 4157.949, 4186.154, 4254.359, 450, 0, []
1627720035.3463, 98, 0, 4245.128, 4204.615, 4154.359, 4174.359, 4252.308, 450, 0, []
1627720035.3542, 99, 0, 4236.923, 4212.821, 4153.846, 4172.308, 4244.615, 16194, 0, []
1627720035.3621, 100, 0, 4243.077, 4205.641, 4160.513, 4194.872, 4255.897, 450, 0, []
1627720035.37, 101, 0, 4248.205, 4195.897, 4161.538, 4195.385, 4263.59, 450, 0, []
1627720035.378, 102, 0, 4242.564, 4197.436, 4153.846, 4180.513, 4254.359, 450, 0, []
1627720035.3859, 103, 0, 4240.513, 4202.051, 4149.231, 4182.051, 4246.154, 16194, 0, []
1627720035.3937, 104, 0, 4240.513, 4206.667, 4156.41, 4185.641, 4245.641, 450, 0, []
1627720035.4015, 105, 0, 4243.077, 4210.256, 4163.59, 4185.641, 4252.308, 450, 0, []
1627720035.4093, 106, 0, 4246.154, 4216.923, 4168.205, 4189.744, 4256.923, 450, 0, []
1627720035.4172, 107, 0, 4237.949, 4225.128, 4161.538, 4187.179, 4251.282, 16194, 0, []
1627720035.425, 108, 0, 4234.359, 4222.564, 4154.359, 4183.077, 4243.59, 450, 0, []
1627720035.4329, 109, 0, 4233.333, 4213.846, 4158.974, 4184.615, 4238.462, 450, 0, []
1627720035.4406, 110, 0, 4222.051, 4213.846, 4155.385, 4180, 4227.179, 450, 0, []
1627720035.4485, 111, 0, 4226.667, 4217.949, 4162.564, 4178.974, 4229.744, 16194, 0, []
1627720035.4563, 112, 0, 4251.282, 4214.359, 4184.615, 4194.872, 4256.923, 450, 0, []
1627720035.4643, 113, 0, 4258.462, 4215.385, 4190.256, 4205.128, 4269.744, 450, 0, []
1627720035.4722, 114, 0, 4251.282, 4217.436, 4181.538, 4200.513, 4263.59, 450, 0, []
1627720035.4801, 115, 0, 4249.231, 4214.359, 4178.462, 4198.974, 4259.487, 16194, 0, []
1627720035.488, 116, 0, 4240.513, 4225.641, 4181.026, 4201.538, 4247.179, 450, 0, []
1627720035.496, 117, 0, 4228.718, 4233.846, 4167.692, 4200, 4232.308, 450, 0, []
1627720035.5039, 118, 0, 4220.513, 4219.487, 4149.744, 4202.564, 4234.872, 450, 0, []
1627720035.5119, 119, 0, 4198.974, 4217.436, 4156.923, 4211.282, 4230.769, 16194, 0, []
1627720035.5197, 120, 0, 4178.974, 4233.846, 4168.718, 4214.359, 4210.769, 450, 0, []
1627720035.5277, 121, 0, 4175.385, 4225.641, 4162.051, 4207.692, 4205.128, 450, 0, []
1627720035.5356, 122, 0, 4172.821, 4207.692, 4155.897, 4200.513, 4208.205, 450, 0, []
1627720035.5436, 123, 0, 4163.59, 4209.231, 4154.872, 4190.769, 4196.923, 16194, 0, []
1627720035.5515, 124, 0, 4155.385, 4207.692, 4153.846, 4183.59, 4184.103, 450, 0, []
1627720035.5592, 125, 0, 4152.821, 4202.051, 4157.436, 4191.282, 4185.128, 450, 0, []
1627720035.5671, 126, 0, 4155.385, 4190.769, 4159.487, 4195.897, 4187.179, 450, 0, []
1627720035.5749, 127, 0, 4151.795, 4180.513, 4156.41, 4182.564, 4176.923, 16194, 0, []
1627720035.5828, 128, 0, 4150.256, 4203.59, 4158.974, 4180, 4174.872, 450, 0, []
1627720035.5906, 0, 0, 4157.949, 4224.103, 4171.282, 4193.333, 4187.179, 450, 0, []
1627720035.5984, 1, 0, 4156.923, 4207.179, 4171.795, 4186.667, 4184.103, 450, 0, []
1627720035.6062, 2, 0, 4150.256, 4199.487, 4165.128, 4170.256, 4169.744, 16179, 0, []
1627720035.6142, 3, 0, 4148.718, 4214.872, 4167.692, 4173.846, 4168.718, 450, 0, []
1627720035.6221, 4, 0, 4144.103, 4209.744, 4166.154, 4185.128, 4172.821, 16172, 0, []
1627720035.6301, 5, 0, 4140, 4190.769, 4161.538, 4185.128, 4170.769, 450, 0, []
1627720035.6379, 6, 0, 4148.205, 4192.308, 4159.487, 4182.051, 4168.205, 315, 0, []
1627720035.6459, 7, 0, 4155.385, 4203.077, 4160, 4185.641, 4168.205, 450, 0, []
1627720035.6538, 8, 0, 4147.692, 4198.974, 4158.974, 4185.128, 4167.179, 450, 0, []
1627720035.6618, 9, 0, 4142.051, 4197.949, 4156.41, 4184.103, 4163.59, 16152, 0, []
1627720035.6697, 10, 0, 4147.179, 4207.692, 4163.59, 4185.641, 4159.487, 450, 0, []
1627720035.6776, 11, 0, 4160, 4205.641, 4169.744, 4188.205, 4163.077, 16194, 0, []
1627720035.6855, 12, 0, 4168.718, 4197.436, 4166.667, 4197.949, 4176.923, 450, 0, []
1627720035.6933, 13, 0, 4168.205, 4206.154, 4170.256, 4207.179, 4185.128, 450, 0, []
1627720035.7012, 14, 0, 4174.872, 4223.59, 4181.026, 4210.256, 4185.641, 450, 0, []
1627720035.709, 15, 0, 4186.154, 4232.308, 4188.205, 4212.308, 4186.667, 16194, 0, []
1627720035.7168, 16, 0, 4186.667, 4219.487, 4178.974, 4207.179, 4185.128, 0, 0, []
1627720035.7246, 17, 0, 4182.564, 4202.564, 4172.821, 4203.077, 4184.615, 0, 0, []
1627720035.7325, 18, 0, 4185.641, 4209.744, 4183.59, 4212.821, 4189.744, 0, 0, []
1627720035.7403, 19, 0, 4188.205, 4220, 4179.487, 4216.41, 4193.846, 0, 0, []
1627720035.7482, 20, 0, 4185.641, 4214.359, 4164.615, 4202.051, 4187.692, 0, 0, []
1627720035.7559, 21, 0, 4185.128, 4214.872, 4163.077, 4194.359, 4183.59, 0, 0, []
1627720035.7639, 22, 0, 4184.615, 4218.462, 4165.641, 4201.538, 4186.154, 0, 0, []
1627720035.7718, 23, 0, 4177.949, 4217.436, 4168.718, 4204.615, 4178.974, 0, 0, []
1627720035.7798, 24, 0, 4166.154, 4217.436, 4168.205, 4198.462, 4163.59, 0, 0, []
1627720035.7877, 25, 0, 4170.256, 4209.744, 4165.128, 4196.923, 4164.615, 0, 0, []
1627720035.7956, 26, 0, 4189.744, 4206.154, 4171.795, 4208.205, 4185.128, 0, 0, []
1627720035.8035, 27, 0, 4187.692, 4217.949, 4176.41, 4214.359, 4186.154, 0, 0, []
1627720035.8115, 28, 0, 4164.615, 4218.974, 4169.231, 4195.385, 4158.462, 0, 0, []
1627720035.8194, 29, 0, 4170.256, 4215.897, 4164.615, 4187.179, 4155.385, 0, 0, []
1627720035.8274, 30, 0, 4196.923, 4226.667, 4173.846, 4210.769, 4185.128, 0, 0, []
1627720035.8352, 31, 0, 4197.949, 4225.128, 4178.974, 4220.513, 4190.769, 0, 0, []
1627720035.843, 32, 0, 4181.026, 4216.41, 4167.692, 4203.077, 4170.256, 0, 0, []
1627720035.8509, 33, 0, 4174.359, 4220.513, 4167.179, 4188.718, 4161.538, 0, 0, []
1627720035.8587, 34, 0, 4170.769, 4211.282, 4169.744, 4187.179, 4157.949, 0, 0, []
1627720035.8666, 35, 0, 4169.231, 4198.462, 4167.179, 4192.821, 4157.949, 0, 0, []
1627720035.8743, 36, 0, 4170.769, 4207.179, 4167.692, 4200, 4167.179, 0, 0, []
1627720035.8822, 37, 0, 4168.205, 4207.692, 4165.128, 4199.487, 4168.718, 0, 0, []
1627720035.89, 38, 0, 4173.846, 4199.487, 4168.205, 4197.436, 4166.154, 0, 0, []
1627720035.8979, 39, 0, 4181.026, 4210.769, 4167.179, 4196.923, 4167.692, 0, 0, []
1627720035.9057, 40, 0, 4172.308, 4212.308, 4154.872, 4186.667, 4160.513, 0, 0, []
1627720035.9136, 41, 0, 4170.256, 4195.385, 4156.41, 4185.128, 4155.897, 0, 0, []
1627720035.9213, 42, 0, 4183.077, 4200, 4171.282, 4200.513, 4166.154, 0, 0, []
1627720035.9293, 43, 0, 4192.821, 4215.897, 4177.436, 4204.615, 4177.949, 0, 0, []
1627720035.9372, 44, 0, 4190.256, 4226.667, 4172.308, 4197.436, 4181.538, 0, 0, []
1627720035.9451, 45, 0, 4191.282, 4232.821, 4172.821, 4199.487, 4183.077, 0, 0, []
1627720035.953, 46, 0, 4194.872, 4215.385, 4176.923, 4204.103, 4184.103, 0, 0, []
1627720035.9608, 47, 0, 4191.795, 4200.513, 4176.41, 4201.538, 4185.128, 0, 0, []
1627720035.9687, 48, 0, 4192.308, 4223.59, 4186.154, 4206.667, 4187.179, 0, 0, []
1627720035.9765, 49, 0, 4196.923, 4241.026, 4187.692, 4218.462, 4186.154, 0, 0, []
1627720035.9845, 50, 0, 4195.385, 4223.077, 4171.795, 4216.41, 4184.615, 0, 0, []
1627720035.9924, 51, 0, 4188.205, 4210.256, 4167.692, 4202.564, 4182.051, 0, 0, []
1627720036.0002, 52, 0, 4183.59, 4216.41, 4171.795, 4195.385, 4181.026, 0, 0, []
1627720036.0082, 53, 0, 4188.718, 4223.59, 4174.359, 4202.564, 4183.59, 0, 0, []
1627720036.0161, 54, 0, 4197.949, 4227.179, 4172.821, 4212.308, 4185.128, 0, 0, []
1627720036.0239, 55, 0, 4200.513, 4219.487, 4170.769, 4214.872, 4184.103, 0, 0, []
1627720036.0318, 56, 0, 4197.949, 4210.256, 4182.564, 4220, 4188.205, 0, 0, []
1627720036.0395, 57, 0, 4198.462, 4216.923, 4187.692, 4227.179, 4192.308, 0, 0, []
1627720036.0474, 58, 0, 4193.846, 4224.103, 4174.872, 4213.846, 4182.051, 0, 0, []
1627720036.0552, 59, 0, 4185.641, 4216.923, 4165.641, 4186.667, 4168.718, 0, 0, []
1627720036.0631, 60, 0, 4185.641, 4213.846, 4170.769, 4178.462, 4168.718, 0, 0, []
1627720036.0709, 61, 0, 4184.103, 4221.538, 4175.897, 4186.667, 4176.923, 0, 0, []
1627720036.0787, 62, 0, 4183.077, 4217.436, 4166.154, 4189.231, 4182.051, 0, 0, []
1627720036.0865, 63, 0, 4185.128, 4202.564, 4156.41, 4193.333, 4183.077, 0, 0, []
1627720036.0945, 64, 0, 4181.538, 4203.59, 4164.103, 4198.462, 4184.103, 450, 0, []
1627720036.1024, 65, 0, 4181.538, 4206.154, 4170.256, 4190.769, 4185.128, 450, 0, []
1627720036.1104, 66, 0, 4192.308, 4191.795, 4167.692, 4172.308, 4184.103, 16179, 0, []
1627720036.1182, 67, 0, 4202.051, 4185.128, 4174.359, 4170.769, 4192.308, 450, 0, []
1627720036.1262, 68, 0, 4203.59, 4192.308, 4193.333, 4190.256, 4204.103, 16172, 0, []
1627720036.1341, 69, 0, 4201.538, 4195.897, 4198.974, 4202.051, 4202.051, 450, 0, []
1627720036.1421, 70, 0, 4197.436, 4198.462, 4186.667, 4198.974, 4193.333, 322, 0, []
1627720036.15, 71, 0, 4187.692, 4203.077, 4180, 4194.359, 4185.641, 450, 0, []
1627720036.1579, 72, 0, 4179.487, 4200, 4178.462, 4185.128, 4177.436, 450, 0, []
1627720036.1658, 73, 0, 4184.615, 4201.026, 4183.077, 4175.897, 4180.513, 16152, 0, []
1627720036.1736, 74, 0, 4185.128, 4208.205, 4193.846, 4169.231, 4181.538, 450, 0, []
1627720036.1815, 75, 0, 4173.846, 4206.154, 4189.231, 4163.59, 4168.205, 16194, 0, []
1627720036.1893, 76, 0, 4176.41, 4196.41, 4186.667, 4172.308, 4170.256, 450, 0, []
1627720036.1971, 77, 0, 4186.154, 4196.923, 4190.769, 4189.231, 4184.103, 450, 0, []
1627720036.2049, 78, 0, 4174.872, 4203.077, 4176.41, 4185.641, 4175.385, 450, 0, []
1627720036.2128, 79, 0, 4165.641, 4197.949, 4161.026, 4166.154, 4158.974, 16194, 0, []
1627720036.2206, 80, 0, 4179.487, 4202.051, 4170.769, 4164.103, 4170.769, 450, 0, []
1627720036.2285, 81, 0, 4196.41, 4220.513, 4192.821, 4178.974, 4198.462, 450, 0, []
1627720036.2362, 82, 0, 4200.513, 4220.513, 4192.308, 4184.103, 4201.538, 450, 0, []
1627720036.2441, 83, 0, 4200, 4210.256, 4176.41, 4183.59, 4188.205, 16194, 0, []
1627720036.2519, 84, 0, 4196.923, 4214.872, 4175.385, 4185.641, 4191.795, 450, 0, []
1627720036.2599, 85, 0, 4201.026, 4214.872, 4187.179, 4189.744, 4210.769, 450, 0, []
1627720036.2678, 86, 0, 4212.308, 4208.718, 4197.949, 4195.385, 4223.077, 450, 0, []
1627720036.2757, 87, 0, 4215.897, 4224.103, 4200, 4199.487, 4225.641, 16194, 0, []
1627720036.2836, 88, 0, 4202.564, 4232.821, 4185.128, 4192.308, 4222.564, 450, 0, []
1627720036.2916, 89, 0, 4186.667, 4218.974, 4169.744, 4178.462, 4212.308, 450, 0, []
1627720036.2995, 90, 0, 4191.795, 4212.821, 4174.359, 4184.103, 4211.795, 450, 0, []
1627720036.3075, 91, 0, 4210.256, 4216.41, 4198.974, 4201.538, 4229.231, 16194, 0, []
1627720036.3153, 92, 0, 4221.026, 4217.436, 4209.744, 4208.205, 4246.154, 450, 0, []
1627720036.3231, 93, 0, 4216.923, 4215.385, 4193.846, 4199.487, 4240, 450, 0, []
1627720036.331, 94, 0, 4188.718, 4199.487, 4178.974, 4177.436, 4205.128, 450, 0, []
1627720036.3388, 95, 0, 4163.077, 4185.128, 4174.872, 4163.077, 4178.462, 16194, 0, []
1627720036.3467, 96, 0, 4180, 4206.667, 4182.564, 4176.923, 4192.308, 450, 0, []
1627720036.3544, 97, 0, 4212.821, 4232.308, 4197.949, 4198.974, 4218.462, 450, 0, []
1627720036.3623, 98, 0, 4212.308, 4217.436, 4192.821, 4200, 4221.026, 450, 0, []
1627720036.3701, 99, 0, 4198.974, 4197.436, 4185.641, 4194.872, 4213.846, 16194, 0, []
1627720036.378, 100, 0, 4201.026, 4208.718, 4194.872, 4199.487, 4215.897, 450, 0, []
1627720036.3858, 101, 0, 4205.128, 4217.949, 4199.487, 4203.59, 4215.897, 450, 0, []
1627720036.3936, 102, 0, 4201.026, 4206.154, 4182.051, 4198.462, 4211.795, 450, 0, []
1627720036.4014, 103, 0, 4193.333, 4206.667, 4170.256, 4189.744, 4206.667, 16194, 0, []
1627720036.4094, 104, 0, 4188.205, 4222.564, 4184.615, 4192.308, 4202.564, 450, 0, []
1627720036.4173, 105, 0, 4183.59, 4213.846, 4186.154, 4197.436, 4203.077, 450, 0, []
1627720036.4253, 106, 0, 4185.641, 4196.41, 4174.872, 4197.949, 4208.718, 450, 0, []
1627720036.4331, 107, 0, 4196.923, 4207.179, 4182.051, 4199.487, 4217.949, 16194, 0, []
1627720036.4411, 108, 0, 4200.513, 4219.487, 4183.077, 4198.974, 4216.923, 450, 0, []
1627720036.449, 109, 0, 4194.359, 4217.436, 4172.308, 4194.359, 4202.564, 450, 0, []
1627720036.457, 110, 0, 4195.385, 4215.897, 4171.795, 4196.41, 4200.513, 450, 0, []
1627720036.4649, 111, 0, 4204.615, 4217.949, 4181.538, 4203.077, 4217.436, 16194, 0, []
1627720036.4728, 112, 0, 4206.667, 4213.333, 4188.205, 4200, 4221.026, 450, 0, []
1627720036.4807, 113, 0, 4202.564, 4216.41, 4189.231, 4195.897, 4205.641, 450, 0, []
1627720036.4885, 114, 0, 4201.026, 4229.231, 4187.179, 4196.923, 4195.385, 450, 0, []
1627720036.4964, 115, 0, 4202.051, 4229.231, 4182.051, 4200.513, 4196.923, 16194, 0, []
1627720036.5042, 116, 0, 4203.077, 4224.103, 4174.359, 4198.974, 4200.513, 450, 0, []
1627720036.512, 117, 0, 4196.41, 4215.897, 4168.718, 4185.641, 4195.385, 450, 0, []
1627720036.5198, 118, 0, 4192.308, 4197.949, 4165.641, 4177.436, 4189.231, 450, 0, []
1627720036.5277, 119, 0, 4206.154, 4193.846, 4172.821, 4188.205, 4202.051, 16194, 0, []
1627720036.5355, 120, 0, 4233.333, 4220, 4185.128, 4203.077, 4233.846, 450, 0, []
1627720036.5435, 121, 0, 4267.692, 4231.282, 4189.231, 4207.692, 4273.333, 450, 0, []
1627720036.5513, 122, 0, 4314.359, 4215.385, 4184.615, 4203.59, 4316.41, 450, 0, []
1627720036.5593, 123, 0, 4375.385, 4220.513, 4180, 4194.872, 4370.256, 16194, 0, []
1627720036.5672, 124, 0, 4440, 4233.846, 4187.179, 4194.359, 4433.846, 450, 0, []
1627720036.5752, 125, 0, 4471.795, 4224.103, 4185.641, 4187.692, 4460, 450, 0, []
1627720036.5831, 126, 0, 4463.077, 4212.308, 4167.692, 4171.282, 4443.59, 450, 0, []
1627720036.591, 127, 0, 4452.821, 4218.462, 4171.282, 4178.974, 4441.026, 16194, 0, []
1627720036.5989, 128, 0, 4447.692, 4230.256, 4185.641, 4207.179, 4445.128, 450, 0, []
1627720036.6069, 0, 0, 4414.359, 4233.333, 4184.103, 4207.179, 4399.487, 450, 0, []
1627720036.6148, 1, 0, 4359.487, 4222.564, 4180, 4185.128, 4330.769, 450, 0, []
1627720036.6228, 2, 0, 4311.795, 4207.179, 4181.026, 4184.103, 4296.923, 16182, 0, []
1627720036.6306, 3, 0, 4258.974, 4203.077, 4181.538, 4191.795, 4263.59, 450, 0, []
1627720036.6384, 4, 0, 4209.231, 4202.051, 4171.282, 4181.538, 4212.821, 16172, 0, []
1627720036.6463, 5, 0, 4189.744, 4204.615, 4163.59, 4172.308, 4185.641, 450, 0, []
1627720036.6541, 6, 0, 4182.051, 4211.795, 4170.769, 4174.872, 4183.59, 322, 0, []
1627720036.662, 7, 0, 4169.744, 4211.795, 4179.487, 4175.385, 4171.282, 450, 0, []
1627720036.6698, 8, 0, 4160.513, 4211.795, 4178.974, 4170.256, 4155.385, 450, 0, []
1627720036.6776, 9, 0, 4149.744, 4203.59, 4170.256, 4169.744, 4145.641, 16152, 0, []
1627720036.6854, 10, 0, 4138.462, 4182.564, 4178.462, 4168.718, 4136.923, 450, 0, []
1627720036.6933, 11, 0, 4146.667, 4190.256, 4205.641, 4173.333, 4145.128, 16194, 0, []
1627720036.7011, 12, 0, 4156.41, 4215.897, 4212.308, 4186.667, 4155.385, 450, 0, []
1627720036.709, 13, 0, 4144.615, 4212.308, 4201.538, 4186.154, 4143.59, 450, 0, []
1627720036.7167, 14, 0, 4135.385, 4198.974, 4188.718, 4171.795, 4132.821, 450, 0, []
1627720036.7247, 15, 0, 4138.462, 4200.513, 4173.333, 4173.333, 4137.436, 16194, 0, []
1627720036.7326, 16, 0, 4139.487, 4211.282, 4167.179, 4184.615, 4140, 0, 0, []
1627720036.7406, 17, 0, 4138.462, 4218.974, 4169.231, 4185.128, 4138.974, 0, 0, []
1627720036.7485, 18, 0, 4137.949, 4206.154, 4174.359, 4181.026, 4144.103, 0, 0, []
1627720036.7564, 19, 0, 4130.769, 4193.846, 4181.026, 4183.077, 4145.128, 0, 0, []
1627720036.7643, 20, 0, 4123.077, 4207.179, 4179.487, 4184.615, 4138.974, 0, 0, []
1627720036.7723, 21, 0, 4121.026, 4209.231, 4176.923, 4182.051, 4135.385, 0, 0, []
1627720036.7802, 22, 0, 4122.051, 4190.769, 4177.436, 4180.513, 4137.949, 0, 0, []
1627720036.7882, 23, 0, 4127.692, 4197.949, 4181.026, 4182.564, 4137.436, 0, 0, []
1627720036.796, 24, 0, 4136.923, 4220, 4190.769, 4193.333, 4142.051, 0, 0, []
1627720036.8038, 25, 0, 4140, 4217.436, 4193.846, 4200, 4150.769, 0, 0, []
1627720036.8117, 26, 0, 4127.179, 4204.615, 4182.564, 4189.231, 4133.846, 0, 0, []
1627720036.8195, 27, 0, 4116.923, 4218.462, 4174.359, 4177.436, 4115.897, 0, 0, []
1627720036.8274, 28, 0, 4127.692, 4236.41, 4187.179, 4188.205, 4132.308, 0, 0, []
1627720036.8351, 29, 0, 4142.051, 4225.641, 4196.41, 4198.462, 4147.692, 0, 0, []
1627720036.843, 30, 0, 4141.538, 4212.308, 4187.179, 4190.256, 4139.487, 0, 0, []
1627720036.8508, 31, 0, 4137.949, 4215.385, 4183.077, 4186.154, 4130.769, 0, 0, []
1627720036.8588, 32, 0, 4131.282, 4215.897, 4177.436, 4184.615, 4124.615, 0, 0, []
1627720036.8667, 33, 0, 4123.077, 4213.846, 4170.256, 4177.436, 4120, 0, 0, []
1627720036.8746, 34, 0, 4129.231, 4219.487, 4173.333, 4175.385, 4122.564, 0, 0, []
1627720036.8825, 35, 0, 4136.41, 4214.872, 4170.256, 4178.462, 4124.103, 0, 0, []
1627720036.8905, 36, 0, 4128.205, 4201.026, 4162.564, 4172.821, 4123.077, 0, 0, []
1627720036.8984, 37, 0, 4122.564, 4195.897, 4154.872, 4161.538, 4122.051, 0, 0, []
1627720036.9064, 38, 0, 4125.641, 4197.436, 4152.821, 4162.564, 4119.487, 0, 0, []
1627720036.9142, 39, 0, 4131.282, 4197.436, 4161.026, 4172.821, 4128.718, 0, 0, []
1627720036.9222, 40, 0, 4140, 4198.462, 4168.205, 4179.487, 4140.513, 0, 0, []
1627720036.9301, 41, 0, 4137.436, 4203.077, 4172.821, 4173.846, 4132.308, 0, 0, []
1627720036.9379, 42, 0, 4122.051, 4199.487, 4171.282, 4168.205, 4118.462, 0, 0, []
1627720036.9458, 43, 0, 4125.128, 4203.077, 4173.846, 4178.974, 4127.179, 0, 0, []
1627720036.9535, 44, 0, 4142.564, 4220, 4184.103, 4193.846, 4146.667, 0, 0, []
1627720036.9614, 45, 0, 4143.59, 4218.974, 4177.436, 4190.769, 4148.205, 0, 0, []
1627720036.9692, 46, 0, 4136.923, 4205.641, 4169.744, 4175.897, 4136.41, 0, 0, []
1627720036.9771, 47, 0, 4131.282, 4201.538, 4173.846, 4168.718, 4126.154, 0, 0, []
1627720036.9849, 48, 0, 4124.615, 4195.385, 4169.231, 4169.744, 4119.487, 0, 0, []
1627720036.9927, 49, 0, 4119.487, 4187.179, 4152.308, 4166.154, 4108.205, 0, 0, []
1627720037.0005, 50, 0, 4116.41, 4190.769, 4145.128, 4161.538, 4100.513, 0, 0, []
1627720037.0085, 51, 0, 4122.051, 4198.974, 4160.513, 4170.256, 4110.769, 0, 0, []
1627720037.0164, 52, 0, 4134.872, 4205.641, 4172.308, 4186.667, 4130.769, 0, 0, []
1627720037.0244, 53, 0, 4146.667, 4216.923, 4170.256, 4192.308, 4141.026, 0, 0, []
1627720037.0322, 54, 0, 4147.179, 4222.051, 4172.821, 4185.641, 4140.513, 0, 0, []
1627720037.0402, 55, 0, 4144.103, 4208.205, 4171.282, 4180.513, 4138.974, 0, 0, []
1627720037.0481, 56, 0, 4149.744, 4196.41, 4169.231, 4184.103, 4141.026, 0, 0, []
1627720037.0561, 57, 0, 4151.282, 4209.744, 4169.231, 4187.179, 4137.949, 0, 0, []
1627720037.064, 58, 0, 4150.256, 4226.667, 4165.128, 4187.692, 4135.385, 0, 0, []
1627720037.0719, 59, 0, 4158.974, 4221.026, 4165.641, 4187.179, 4146.667, 0, 0, []
1627720037.0798, 60, 0, 4164.615, 4214.359, 4168.718, 4183.59, 4153.846, 0, 0, []
1627720037.0878, 61, 0, 4156.923, 4216.41, 4172.821, 4175.897, 4144.615, 0, 0, []
1627720037.0957, 62, 0, 4144.615, 4213.333, 4165.128, 4164.615, 4129.231, 0, 0, []
1627720037.1035, 63, 0, 4137.436, 4212.821, 4146.154, 4156.923, 4123.59, 0, 0, []
1627720037.1113, 64, 0, 4142.564, 4211.282, 4148.718, 4159.487, 4127.692, 450, 0, []
1627720037.1191, 65, 0, 4162.564, 4200.513, 4163.59, 4172.821, 4137.436, 450, 0, []
1627720037.127, 66, 0, 4173.333, 4203.077, 4169.744, 4187.179, 4148.205, 16182, 0, []
1627720037.1348, 67, 0, 4169.231, 4217.949, 4171.282, 4191.795, 4149.231, 450, 0, []
1627720037.1427, 68, 0, 4162.051, 4215.385, 4164.615, 4182.564, 4140, 16174, 0, []
1627720037.1504, 69, 0, 4156.41, 4212.308, 4160, 4170.769, 4134.872, 450, 0, []
1627720037.1583, 70, 0, 4162.564, 4220, 4166.154, 4170.769, 4141.026, 325, 0, []
1627720037.1661, 71, 0, 4169.744, 4211.795, 4173.846, 4173.333, 4145.128, 450, 0, []
1627720037.174, 72, 0, 4167.692, 4208.205, 4173.846, 4172.821, 4146.667, 450, 0, []
1627720037.1818, 73, 0, 4166.667, 4216.923, 4172.821, 4172.308, 4154.872, 16152, 0, []
1627720037.1897, 74, 0, 4172.308, 4206.154, 4181.538, 4170.769, 4158.462, 450, 0, []
1627720037.1976, 75, 0, 4177.436, 4199.487, 4184.103, 4166.667, 4158.974, 16194, 0, []
1627720037.2056, 76, 0, 4176.923, 4212.308, 4173.333, 4161.538, 4158.974, 450, 0, []
1627720037.2135, 77, 0, 4172.821, 4220, 4174.359, 4160.513, 4163.077, 450, 0, []
1627720037.2215, 78, 0, 4174.359, 4211.282, 4183.077, 4168.718, 4171.795, 450, 0, []
1627720037.2293, 79, 0, 4170.256, 4200, 4173.333, 4170.769, 4163.077, 16194, 0, []
1627720037.2373, 80, 0, 4162.564, 4198.974, 4165.128, 4162.051, 4153.333, 450, 0, []
1627720037.2452, 81, 0, 4177.949, 4212.821, 4189.744, 4176.41, 4175.897, 450, 0, []
1627720037.2531, 82, 0, 4192.308, 4217.949, 4206.667, 4196.41, 4194.872, 450, 0, []
1627720037.261, 83, 0, 4178.974, 4213.333, 4185.128, 4186.154, 4184.103, 16194, 0, []
1627720037.2687, 84, 0, 4171.282, 4212.821, 4173.333, 4169.744, 4178.462, 450, 0, []
1627720037.2766, 85, 0, 4177.436, 4199.487, 4171.795, 4167.692, 4186.667, 450, 0, []
1627720037.2844, 86, 0, 4179.487, 4196.923, 4163.077, 4169.744, 4192.308, 450, 0, []
1627720037.2923, 87, 0, 4181.026, 4213.333, 4167.692, 4169.231, 4197.436, 16194, 0, []
1627720037.3001, 88, 0, 4182.564, 4211.282, 4175.897, 4167.179, 4195.385, 450, 0, []
1627720037.3079, 89, 0, 4186.154, 4203.077, 4182.564, 4167.692, 4195.385, 450, 0, []
1627720037.3157, 90, 0, 4203.077, 4211.282, 4189.231, 4181.026, 4212.821, 450, 0, []
1627720037.3237, 91, 0, 4205.128, 4216.923, 4178.974, 4191.282, 4217.949, 16194, 0, []
1627720037.3316, 92, 0, 4183.59, 4208.718, 4164.615, 4179.487, 4198.974, 450, 0, []
1627720037.3396, 93, 0, 4186.667, 4209.231, 4173.333, 4169.744, 4203.077, 450, 0, []
1627720037.3474, 94, 0, 4209.231, 4224.103, 4195.897, 4178.462, 4232.821, 450, 0, []
1627720037.3554, 95, 0, 4210.256, 4229.231, 4197.949, 4178.462, 4235.897, 16194, 0, []
1627720037.3633, 96, 0, 4198.462, 4216.41, 4183.59, 4168.205, 4216.41, 450, 0, []
1627720037.3713, 97, 0, 4198.974, 4207.692, 4181.026, 4172.308, 4214.359, 450, 0, []
1627720037.3792, 98, 0, 4202.051, 4203.59, 4185.128, 4180, 4216.923, 450, 0, []
1627720037.3871, 99, 0, 4202.051, 4198.462, 4187.692, 4175.897, 4210.769, 16194, 0, []
1627720037.395, 100, 0, 4199.487, 4209.744, 4185.128, 4171.282, 4212.821, 450, 0, []
1627720037.4028, 101, 0, 4188.718, 4220.513, 4170.256, 4170.256, 4217.436, 450, 0, []
1627720037.4107, 102, 0, 4183.59, 4208.718, 4162.564, 4167.179, 4211.795, 450, 0, []
1627720037.4185, 103, 0, 4185.128, 4198.974, 4164.615, 4166.154, 4200.513, 16194, 0, []
1627720037.4264, 104, 0, 4178.974, 4202.564, 4162.564, 4169.231, 4193.846, 450, 0, []
1627720037.4341, 105, 0, 4173.333, 4198.462, 4160, 4171.795, 4196.923, 450, 0, []
1627720037.442, 106, 0, 4171.282, 4187.179, 4162.051, 4168.205, 4199.487, 450, 0, []
1627720037.4498, 107, 0, 4166.154, 4191.282, 4168.205, 4154.359, 4186.154, 16194, 0, []
1627720037.4577, 108, 0, 4172.308, 4211.795, 4163.59, 4152.308, 4181.538, 450, 0, []
1627720037.4655, 109, 0, 4187.692, 4220.513, 4161.538, 4166.154, 4197.949, 450, 0, []
1627720037.4734, 110, 0, 4187.179, 4217.949, 4172.308, 4169.231, 4202.564, 450, 0, []
1627720037.4813, 111, 0, 4181.538, 4221.026, 4171.282, 4165.128, 4196.923, 16194, 0, []
1627720037.4893, 112, 0, 4191.795, 4216.41, 4166.154, 4172.308, 4205.128, 450, 0, []
1627720037.4972, 113, 0, 4200.513, 4208.205, 4171.795, 4172.308, 4211.795, 450, 0, []
1627720037.5052, 114, 0, 4203.077, 4216.41, 4180, 4165.641, 4208.718, 450, 0, []
1627720037.513, 115, 0, 4205.641, 4220, 4174.359, 4164.615, 4204.615, 16194, 0, []
1627720037.521, 116, 0, 4196.923, 4201.538, 4156.923, 4158.462, 4197.949, 450, 0, []
1627720037.5289, 117, 0, 4195.897, 4192.821, 4160.513, 4160, 4205.641, 450, 0, []
1627720037.5369, 118, 0, 4216.923, 4208.205, 4175.385, 4184.103, 4232.308, 450, 0, []
1627720037.5448, 119, 0, 4220, 4218.974, 4167.179, 4191.795, 4232.821, 16194, 0, []
1627720037.5527, 120, 0, 4192.821, 4215.897, 4153.333, 4170.256, 4204.103, 450, 0, []
1627720037.5606, 121, 0, 4195.385, 4214.359, 4153.333, 4169.231, 4211.795, 450, 0, []
1627720037.5684, 122, 0, 4232.308, 4217.436, 4163.077, 4188.718, 4255.897, 450, 0, []
1627720037.5763, 123, 0, 4250.256, 4217.436, 4167.692, 4184.615, 4278.462, 16194, 0, []
1627720037.5841, 124, 0, 4248.718, 4217.949, 4167.692, 4172.308, 4277.949, 450, 0, []
1627720037.5919, 125, 0, 4247.179, 4220.513, 4169.744, 4171.282, 4268.718, 450, 0, []
1627720037.5997, 126, 0, 4229.744, 4213.333, 4158.462, 4160, 4249.231, 450, 0, []
1627720037.6076, 127, 0, 4215.385, 4212.821, 4150.769, 4150.769, 4237.949, 16194, 0, []
1627720037.6154, 128, 0, 4228.205, 4220.513, 4164.615, 4167.692, 4254.872, 450, 0, []
1627720037.6233, 0, 0, 4233.333, 4214.872, 4173.333, 4184.103, 4263.077, 450, 0, []
1627720037.631, 1, 0, 4223.59, 4208.718, 4174.872, 4183.59, 4249.231, 450, 0, []
1627720037.639, 2, 0, 4228.205, 4217.949, 4174.872, 4186.154, 4250.769, 16184, 0, []
1627720037.6469, 3, 0, 4233.333, 4218.462, 4161.026, 4180.513, 4254.359, 450, 0, []
1627720037.6549, 4, 0, 4228.205, 4207.179, 4152.308, 4166.154, 4249.744, 16174, 0, []
1627720037.6628, 5, 0, 4234.872, 4212.308, 4170.256, 4173.846, 4256.41, 450, 0, []
1627720037.6707, 6, 0, 4240.513, 4224.615, 4180, 4178.462, 4258.974, 326, 0, []
1627720037.6786, 7, 0, 4231.795, 4217.436, 4165.641, 4165.641, 4245.641, 450, 0, []
1627720037.6866, 8, 0, 4230.769, 4213.846, 4168.205, 4172.308, 4245.641, 450, 0, []
1627720037.6945, 9, 0, 4235.897, 4229.231, 4181.026, 4190.769, 4253.846, 16156, 0, []
1627720037.7025, 10, 0, 4230.769, 4233.846, 4169.744, 4183.077, 4247.179, 450, 0, []
1627720037.7103, 11, 0, 4224.103, 4224.615, 4157.949, 4168.205, 4242.051, 16194, 0, []
1627720037.7182, 12, 0, 4225.641, 4224.103, 4157.436, 4169.744, 4243.077, 450, 0, []
1627720037.7261, 13, 0, 4232.821, 4224.103, 4155.897, 4172.821, 4246.154, 450, 0, []
1627720037.7339, 14, 0, 4232.821, 4217.436, 4153.333, 4168.205, 4248.718, 450, 0, []
1627720037.7418, 15, 0, 4218.974, 4214.872, 4147.692, 4164.103, 4237.949, 16194, 0, []
1627720037.7495, 16, 0, 4215.385, 4210.769, 4150.769, 4172.308, 4233.333, 0, 0, []
1627720037.7574, 17, 0, 4229.231, 4210.769, 4156.41, 4187.692, 4246.154, 0, 0, []
1627720037.7652, 18, 0, 4234.359, 4222.051, 4155.897, 4187.692, 4251.795, 0, 0, []
1627720037.7731, 19, 0, 4228.205, 4214.872, 4156.923, 4172.308, 4244.103, 0, 0, []
1627720037.7809, 20, 0, 4230.256, 4201.026, 4160, 4168.205, 4247.179, 0, 0, []
1627720037.7888, 21, 0, 4233.333, 4201.538, 4162.051, 4171.282, 4249.231, 0, 0, []
1627720037.7967, 22, 0, 4223.59, 4204.103, 4161.026, 4167.179, 4240, 0, 0, []
1627720037.8047, 23, 0, 4229.744, 4210.769, 4165.128, 4170.769, 4255.897, 0, 0, []
1627720037.8126, 24, 0, 4254.359, 4224.103, 4172.308, 4185.641, 4285.641, 0, 0, []
1627720037.8206, 25, 0, 4263.59, 4234.872, 4166.154, 4190.769, 4288.205, 0, 0, []
1627720037.8284, 26, 0, 4254.872, 4230.256, 4158.462, 4185.641, 4278.462, 0, 0, []
1627720037.8364, 27, 0, 4256.41, 4215.385, 4156.923, 4185.128, 4286.154, 0, 0, []
1627720037.8443, 28, 0, 4273.846, 4217.949, 4153.846, 4185.128, 4301.538, 0, 0, []
1627720037.8523, 29, 0, 4285.128, 4228.205, 4158.974, 4183.59, 4308.205, 0, 0, []
1627720037.8602, 30, 0, 4280, 4218.974, 4156.923, 4180, 4298.974, 0, 0, []
1627720037.8679, 31, 0, 4270.769, 4214.872, 4144.103, 4182.051, 4286.154, 0, 0, []
1627720037.8758, 32, 0, 4273.846, 4227.179, 4142.564, 4191.282, 4285.128, 0, 0, []
1627720037.8836, 33, 0, 4275.897, 4223.59, 4153.846, 4193.333, 4282.564, 0, 0, []
1627720037.8915, 34, 0, 4268.205, 4217.949, 4165.641, 4185.641, 4275.385, 0, 0, []
1627720037.8993, 35, 0, 4277.436, 4231.282, 4169.231, 4189.744, 4292.821, 0, 0, []
1627720037.9071, 36, 0, 4312.821, 4234.359, 4169.744, 4197.436, 4333.333, 0, 0, []
1627720037.9149, 37, 0, 4360, 4228.205, 4172.821, 4187.179, 4378.462, 0, 0, []
1627720037.9228, 38, 0, 4417.949, 4230.256, 4177.949, 4182.051, 4437.436, 0, 0, []
1627720037.9306, 39, 0, 4475.897, 4234.872, 4186.667, 4197.436, 4496.41, 0, 0, []
1627720037.9385, 40, 0, 4513.333, 4238.462, 4185.128, 4205.641, 4527.692, 0, 0, []
1627720037.9462, 41, 0, 4528.718, 4240.513, 4182.051, 4196.41, 4532.308, 0, 0, []
1627720037.9541, 42, 0, 4531.282, 4246.667, 4183.59, 4194.359, 4533.333, 0, 0, []
1627720037.962, 43, 0, 4524.615, 4246.667, 4181.538, 4201.538, 4531.282, 0, 0, []
1627720037.97, 44, 0, 4490.769, 4232.308, 4177.949, 4191.795, 4503.59, 0, 0, []
1627720037.9778, 45, 0, 4442.564, 4224.103, 4170.256, 4181.538, 4466.154, 0, 0, []
1627720037.9857, 46, 0, 4428.718, 4227.179, 4173.846, 4195.385, 4444.103, 0, 0, []
1627720037.9936, 47, 0, 4432.821, 4229.744, 4186.667, 4208.205, 4425.128, 0, 0, []
1627720038.0016, 48, 0, 4405.128, 4226.154, 4180, 4200, 4397.436, 0, 0, []
1627720038.0095, 49, 0, 4369.231, 4226.154, 4177.949, 4196.923, 4376.41, 0, 0, []
1627720038.0175, 50, 0, 4356.923, 4232.821, 4190.256, 4208.718, 4357.436, 0, 0, []
1627720038.0253, 51, 0, 4334.872, 4232.821, 4190.256, 4203.077, 4326.154, 0, 0, []
1627720038.0331, 52, 0, 4305.128, 4211.282, 4177.949, 4184.103, 4306.154, 0, 0, []
1627720038.041, 53, 0, 4303.077, 4203.077, 4169.231, 4182.564, 4307.692, 0, 0, []
1627720038.0488, 54, 0, 4306.154, 4221.026, 4173.333, 4191.282, 4305.641, 0, 0, []
1627720038.0567, 55, 0, 4285.641, 4221.026, 4172.821, 4186.154, 4289.231, 0, 0, []
1627720038.0644, 56, 0, 4271.795, 4214.872, 4166.154, 4180.513, 4275.897, 0, 0, []
1627720038.0723, 57, 0, 4284.615, 4234.359, 4175.897, 4194.359, 4277.949, 0, 0, []
1627720038.0801, 58, 0, 4288.718, 4236.923, 4185.128, 4201.538, 4279.487, 0, 0, []
1627720038.088, 59, 0, 4266.154, 4219.487, 4186.154, 4189.744, 4266.667, 0, 0, []
1627720038.0958, 60, 0, 4248.718, 4223.077, 4186.154, 4177.949, 4253.846, 0, 0, []
1627720038.1036, 61, 0, 4244.615, 4227.692, 4182.564, 4172.821, 4244.615, 0, 0, []
1627720038.1114, 62, 0, 4234.359, 4214.359, 4177.949, 4168.718, 4232.308, 0, 0, []
1627720038.1194, 63, 0, 4229.231, 4211.282, 4175.385, 4169.231, 4229.231, 0, 0, []
1627720038.1273, 64, 0, 4232.821, 4217.436, 4181.538, 4171.282, 4232.308, 450, 0, []
1627720038.1353, 65, 0, 4232.821, 4223.59, 4185.641, 4169.231, 4227.692, 450, 0, []
1627720038.1432, 66, 0, 4239.487, 4227.179, 4183.077, 4178.462, 4229.744, 16184, 0, []
1627720038.1511, 67, 0, 4250.769, 4220.513, 4177.949, 4188.205, 4237.436, 450, 0, []
1627720038.159, 68, 0, 4249.744, 4214.872, 4171.282, 4185.641, 4233.846, 16174, 0, []
1627720038.167, 69, 0, 4242.051, 4219.487, 4172.308, 4184.103, 4230.256, 450, 0, []
1627720038.1749, 70, 0, 4237.436, 4222.051, 4177.949, 4189.231, 4232.308, 326, 0, []
1627720038.1829, 71, 0, 4231.282, 4215.385, 4173.846, 4188.718, 4223.59, 450, 0, []
1627720038.1907, 72, 0, 4227.692, 4209.744, 4164.615, 4182.564, 4212.821, 450, 0, []
1627720038.1985, 73, 0, 4228.205, 4213.846, 4163.59, 4184.615, 4217.436, 16156, 0, []
1627720038.2064, 74, 0, 4222.564, 4209.744, 4165.641, 4183.59, 4220.513, 450, 0, []
1627720038.2142, 75, 0, 4208.718, 4198.974, 4159.487, 4173.846, 4200.513, 16194, 0, []
1627720038.2221, 76, 0, 4197.949, 4206.154, 4151.795, 4169.231, 4182.564, 450, 0, []
1627720038.2298, 77, 0, 4195.897, 4214.872, 4153.333, 4172.821, 4187.692, 450, 0, []
1627720038.2378, 78, 0, 4200.513, 4205.641, 4157.949, 4173.333, 4200.513, 450, 0, []
1627720038.2457, 79, 0, 4204.615, 4201.538, 4162.564, 4171.795, 4203.59, 16194, 0, []
1627720038.2537, 80, 0, 4195.897, 4199.487, 4165.641, 4166.154, 4195.897, 450, 0, []
1627720038.2616, 81, 0, 4189.744, 4194.359, 4166.154, 4162.564, 4195.385, 450, 0, []
1627720038.2695, 82, 0, 4201.026, 4207.179, 4178.462, 4177.436, 4213.333, 450, 0, []
1627720038.2774, 83, 0, 4204.615, 4217.436, 4180.513, 4183.59, 4218.974, 16194, 0, []
1627720038.2854, 84, 0, 4196.923, 4214.359, 4166.154, 4170.769, 4204.615, 450, 0, []
1627720038.2933, 85, 0, 4199.487, 4214.872, 4154.872, 4166.667, 4198.974, 450, 0, []
1627720038.3013, 86, 0, 4198.462, 4215.385, 4143.59, 4167.179, 4203.59, 450, 0, []
1627720038.3091, 87, 0, 4191.795, 4216.923, 4141.026, 4160.513, 4198.974, 16194, 0, []
1627720038.3171, 88, 0, 4197.436, 4217.949, 4149.744, 4161.538, 4197.949, 450, 0, []
1627720038.325, 89, 0, 4205.641, 4208.718, 4160, 4174.872, 4212.308, 450, 0, []
1627720038.333, 90, 0, 4206.154, 4198.974, 4172.308, 4182.564, 4222.051, 450, 0, []
1627720038.3409, 91, 0, 4200, 4198.462, 4170.256, 4176.923, 4217.436, 16194, 0, []
1627720038.3486, 92, 0, 4196.41, 4195.897, 4163.077, 4168.205, 4214.872, 450, 0, []
1627720038.3565, 93, 0, 4203.077, 4202.051, 4166.154, 4169.744, 4224.615, 450, 0, []
1627720038.3643, 94, 0, 4196.923, 4211.282, 4163.59, 4170.769, 4211.282, 450, 0, []
1627720038.3722, 95, 0, 4176.923, 4202.564, 4158.974, 4165.641, 4180.513, 16194, 0, []
1627720038.38, 96, 0, 4187.692, 4193.846, 4163.59, 4168.718, 4184.615, 450, 0, []
1627720038.3878, 97, 0, 4216.923, 4208.718, 4173.846, 4177.949, 4207.179, 450, 0, []
1627720038.3956, 98, 0, 4220.513, 4218.462, 4176.923, 4181.538, 4204.103, 450, 0, []
1627720038.4035, 99, 0, 4216.41, 4204.103, 4165.128, 4180.513, 4194.872, 16194, 0, []
1627720038.4113, 100, 0, 4221.026, 4201.026, 4156.923, 4186.154, 4208.205, 450, 0, []
1627720038.4193, 101, 0, 4224.103, 4221.538, 4161.026, 4195.385, 4223.077, 450, 0, []
1627720038.4271, 102, 0, 4216.923, 4217.949, 4168.205, 4193.333, 4217.436, 450, 0, []
1627720038.4351, 103, 0, 4203.077, 4186.154, 4168.718, 4177.949, 4198.974, 16194, 0, []
1627720038.443, 104, 0, 4197.436, 4185.128, 4168.205, 4172.821, 4189.231, 450, 0, []
1627720038.451, 105, 0, 4200, 4206.154, 4176.923, 4176.41, 4192.308, 450, 0, []
1627720038.4589, 106, 0, 4199.487, 4200.513, 4181.026, 4171.282, 4191.795, 450, 0, []
1627720038.4668, 107, 0, 4202.051, 4189.744, 4184.615, 4169.744, 4186.667, 16194, 0, []
1627720038.4747, 108, 0, 4200.513, 4196.923, 4188.205, 4174.359, 4184.615, 450, 0, []
1627720038.4827, 109, 0, 4187.179, 4206.667, 4180.513, 4173.846, 4185.128, 450, 0, []
1627720038.4907, 110, 0, 4186.667, 4214.872, 4178.462, 4175.897, 4185.641, 450, 0, []
1627720038.4986, 111, 0, 4194.872, 4225.128, 4183.077, 4181.538, 4184.103, 16194, 0, []
1627720038.5064, 112, 0, 4188.718, 4216.41, 4175.897, 4172.821, 4182.051, 450, 0, []
1627720038.5142, 113, 0, 4185.128, 4207.692, 4164.615, 4166.667, 4189.231, 450, 0, []
1627720038.5221, 114, 0, 4193.333, 4222.564, 4170.769, 4184.103, 4199.487, 450, 0, []
1627720038.5299, 115, 0, 4190.256, 4227.179, 4183.59, 4188.205, 4188.205, 16194, 0, []
1627720038.5378, 116, 0, 4181.026, 4211.795, 4180, 4169.231, 4169.744, 450, 0, []
1627720038.5455, 117, 0, 4190.256, 4217.436, 4183.077, 4172.821, 4177.949, 450, 0, []
1627720038.5534, 118, 0, 4214.872, 4243.077, 4200.513, 4198.974, 4203.59, 450, 0, []
1627720038.5612, 119, 0, 4221.026, 4241.538, 4196.41, 4204.615, 4206.154, 16194, 0, []
1627720038.5692, 120, 0, 4198.974, 4219.487, 4176.923, 4185.128, 4181.538, 450, 0, []
1627720038.5771, 121, 0, 4191.795, 4216.41, 4169.744, 4179.487, 4175.897, 450, 0, []
1627720038.585, 122, 0, 4202.564, 4225.128, 4179.487, 4189.744, 4187.179, 450, 0, []
1627720038.5929, 123, 0, 4195.385, 4223.59, 4182.564, 4185.641, 4175.385, 16194, 0, []
1627720038.6009, 124, 0, 4181.538, 4216.41, 4165.128, 4173.333, 4163.077, 450, 0, []
1627720038.6088, 125, 0, 4175.385, 4210.256, 4155.897, 4169.744, 4165.641, 450, 0, []
1627720038.6168, 126, 0, 4164.615, 4197.949, 4158.462, 4166.667, 4155.385, 450, 0, []
1627720038.6246, 127, 0, 4162.051, 4195.897, 4155.385, 4164.615, 4152.821, 16194, 0, []
1627720038.6326, 128, 0, 4177.949, 4215.385, 4158.462, 4174.359, 4173.333, 450, 0, []
1627720038.6405, 0, 0, 4180.513, 4224.615, 4164.615, 4177.949, 4174.359, 450, 0, []
1627720038.6483, 1, 0, 4176.923, 4211.282, 4168.718, 4172.821, 4165.128, 450, 0, []
1627720038.6562, 2, 0, 4183.077, 4211.795, 4168.718, 4173.333, 4167.692, 16184, 0, []
1627720038.6639, 3, 0, 4176.923, 4220.513, 4163.59, 4175.385, 4161.026, 450, 0, []
1627720038.6718, 4, 0, 4166.154, 4213.846, 4165.641, 4176.41, 4151.795, 16174, 0, []
1627720038.6796, 5, 0, 4167.179, 4209.231, 4159.487, 4174.872, 4148.205, 450, 0, []
1627720038.6875, 6, 0, 4171.282, 4217.949, 4152.821, 4170.769, 4151.795, 326, 0, []
1627720038.6953, 7, 0, 4170.256, 4215.385, 4164.103, 4168.718, 4161.538, 450, 0, []
1627720038.7031, 8, 0, 4166.154, 4210.769, 4170.769, 4170.769, 4162.051, 450, 0, []
1627720038.7109, 9, 0, 4161.538, 4221.538, 4166.154, 4175.385, 4158.974, 16156, 0, []
1627720038.7189, 10, 0, 4167.692, 4229.744, 4168.205, 4184.103, 4168.205, 450, 0, []
1627720038.7268, 11, 0, 4178.462, 4222.051, 4176.923, 4192.821, 4176.41, 16194, 0, []
1627720038.7348, 12, 0, 4170.769, 4204.615, 4169.231, 4188.205, 4165.128, 450, 0, []
1627720038.7426, 13, 0, 4165.641, 4198.462, 4160, 4180, 4155.385, 450, 0, []
1627720038.7506, 14, 0, 4173.846, 4207.692, 4167.692, 4176.41, 4156.923, 450, 0, []
1627720038.7585, 15, 0, 4174.872, 4211.282, 4165.128, 4172.821, 4156.41, 16194, 0, []
1627720038.7665, 16, 0, 4168.718, 4199.487, 4156.41, 4169.231, 4152.308, 0, 0, []
1627720038.7744, 17, 0, 4169.231, 4198.974, 4165.128, 4170.769, 4150.769, 0, 0, []
1627720038.7823, 18, 0, 4174.359, 4209.231, 4171.282, 4174.359, 4158.462, 0, 0, []
1627720038.7902, 19, 0, 4168.205, 4203.59, 4164.615, 4171.795, 4153.333, 0, 0, []
1627720038.798, 20, 0, 4158.974, 4200, 4163.077, 4164.615, 4134.359, 0, 0, []
1627720038.8059, 21, 0, 4161.026, 4210.769, 4169.744, 4168.205, 4136.923, 0, 0, []
1627720038.8137, 22, 0, 4172.308, 4212.821, 4169.744, 4178.462, 4157.949, 0, 0, []
1627720038.8215, 23, 0, 4172.821, 4201.026, 4152.821, 4175.897, 4155.385, 0, 0, []
1627720038.8293, 24, 0, 4165.641, 4206.667, 4149.744, 4169.744, 4142.051, 0, 0, []
1627720038.8372, 25, 0, 4174.359, 4221.538, 4166.154, 4178.462, 4157.436, 0, 0, []
1627720038.845, 26, 0, 4190.256, 4217.436, 4171.282, 4190.256, 4176.41, 0, 0, []
1627720038.8529, 27, 0, 4186.667, 4212.308, 4164.103, 4188.205, 4167.179, 0, 0, []
1627720038.8606, 28, 0, 4176.923, 4212.308, 4160.513, 4179.487, 4155.385, 0, 0, []
1627720038.8685, 29, 0, 4179.487, 4208.205, 4166.667, 4181.026, 4161.026, 0, 0, []
1627720038.8763, 30, 0, 4184.615, 4210.769, 4161.026, 4181.538, 4165.641, 0, 0, []
1627720038.8843, 31, 0, 4192.308, 4224.103, 4151.282, 4175.897, 4167.179, 0, 0, []
1627720038.8922, 32, 0, 4205.128, 4234.359, 4158.462, 4172.308, 4171.795, 0, 0, []
1627720038.9002, 33, 0, 4205.641, 4233.846, 4156.923, 4172.821, 4170.256, 0, 0, []
1627720038.908, 34, 0, 4200.513, 4234.872, 4151.795, 4176.923, 4166.154, 0, 0, []
1627720038.916, 35, 0, 4203.59, 4228.205, 4164.615, 4183.59, 4170.769, 0, 0, []
1627720038.9239, 36, 0, 4204.615, 4218.974, 4177.949, 4185.641, 4170.256, 0, 0, []
1627720038.9319, 37, 0, 4192.821, 4218.974, 4172.308, 4173.846, 4153.846, 0, 0, []
1627720038.9398, 38, 0, 4181.026, 4220.513, 4163.077, 4166.667, 4148.205, 0, 0, []
1627720038.9476, 39, 0, 4185.641, 4215.897, 4169.744, 4174.359, 4160, 0, 0, []
1627720038.9555, 40, 0, 4193.333, 4213.846, 4172.308, 4175.385, 4160.513, 0, 0, []
1627720038.9634, 41, 0, 4189.744, 4215.385, 4162.051, 4172.821, 4153.333, 0, 0, []
1627720038.9712, 42, 0, 4192.308, 4212.821, 4168.718, 4178.974, 4163.59, 0, 0, []
1627720038.979, 43, 0, 4200.513, 4215.385, 4184.103, 4188.718, 4177.949, 0, 0, []
1627720038.9868, 44, 0, 4193.333, 4215.385, 4183.077, 4187.692, 4172.308, 0, 0, []
1627720038.9946, 45, 0, 4181.026, 4212.308, 4173.846, 4182.564, 4156.923, 0, 0, []
1627720039.0025, 46, 0, 4184.615, 4209.744, 4167.692, 4181.538, 4152.308, 0, 0, []
1627720039.0103, 47, 0, 4197.436, 4203.077, 4172.821, 4182.051, 4162.051, 0, 0, []
1627720039.0182, 48, 0, 4197.949, 4209.231, 4180, 4186.154, 4171.795, 0, 0, []
1627720039.0259, 49, 0, 4187.692, 4218.974, 4179.487, 4184.615, 4167.179, 0, 0, []
1627720039.0339, 50, 0, 4178.974, 4207.692, 4168.205, 4174.872, 4157.436, 0, 0, []
1627720039.0418, 51, 0, 4171.282, 4193.333, 4155.385, 4166.154, 4148.718, 0, 0, []
1627720039.0498, 52, 0, 4166.667, 4204.103, 4162.564, 4169.231, 4144.103, 0, 0, []
1627720039.0577, 53, 0, 4176.41, 4211.795, 4164.103, 4184.615, 4151.282, 0, 0, []
1627720039.0656, 54, 0, 4186.154, 4198.462, 4149.744, 4187.179, 4156.41, 0, 0, []
1627720039.0735, 55, 0, 4184.615, 4204.615, 4148.718, 4175.897, 4152.308, 0, 0, []
1627720039.0815, 56, 0, 4182.051, 4218.974, 4158.462, 4174.872, 4148.205, 0, 0, []
1627720039.0894, 57, 0, 4167.692, 4200, 4156.923, 4174.872, 4138.974, 0, 0, []
1627720039.0974, 58, 0, 4153.333, 4177.949, 4148.718, 4156.923, 4121.026, 0, 0, []
1627720039.1052, 59, 0, 4165.128, 4190.769, 4161.538, 4155.385, 4123.59, 0, 0, []
1627720039.113, 60, 0, 4183.59, 4200.513, 4181.538, 4175.897, 4144.615, 0, 0, []
1627720039.1209, 61, 0, 4185.641, 4197.949, 4177.949, 4183.077, 4153.333, 0, 0, []
1627720039.1287, 62, 0, 4182.051, 4206.667, 4169.231, 4181.538, 4153.333, 0, 0, []
1627720039.1366, 63, 0, 4175.897, 4207.692, 4162.051, 4182.564, 4153.333, 0, 0, []
1627720039.1443, 64, 0, 4170.769, 4204.103, 4156.41, 4185.128, 4155.385, 450, 0, []
1627720039.1522, 65, 0, 4180, 4209.744, 4165.128, 4191.795, 4159.487, 450, 0, []
1627720039.16, 66, 0, 4182.564, 4208.718, 4169.231, 4194.359, 4161.538, 16184, 0, []
1627720039.1679, 67, 0, 4172.308, 4202.564, 4159.487, 4187.692, 4157.949, 450, 0, []
1627720039.1757, 68, 0, 4169.231, 4196.41, 4156.923, 4193.333, 4156.41, 16174, 0, []
1627720039.1836, 69, 0, 4166.154, 4189.231, 4158.462, 4199.487, 4155.897, 450, 0, []
1627720039.1915, 70, 0, 4158.462, 4196.923, 4156.41, 4185.641, 4150.256, 326, 0, []
1627720039.1995, 71, 0, 4162.051, 4213.333, 4158.974, 4184.615, 4151.795, 450, 0, []
1627720039.2074, 72, 0, 4173.846, 4215.385, 4165.128, 4201.026, 4165.128, 450, 0, []
1627720039.2154, 73, 0, 4174.872, 4216.41, 4160, 4199.487, 4166.667, 16156, 0, []
1627720039.2232, 74, 0, 4167.179, 4220.513, 4151.795, 4183.077, 4155.897, 450, 0, []
1627720039.2312, 75, 0, 4166.667, 4215.897, 4162.051, 4179.487, 4154.872, 16194, 0, []
1627720039.2391, 76, 0, 4179.487, 4217.436, 4170.256, 4194.872, 4172.821, 450, 0, []
1627720039.2471, 77, 0, 4191.282, 4225.128, 4164.103, 4203.077, 4183.077, 450, 0, []
1627720039.255, 78, 0, 4171.282, 4222.564, 4160, 4186.667, 4163.59, 450, 0, []
1627720039.2629, 79, 0, 4157.436, 4204.615, 4160, 4175.897, 4156.923, 16194, 0, []
1627720039.2708, 80, 0, 4198.462, 4196.41, 4164.615, 4186.154, 4205.641, 450, 0, []
1627720039.2786, 81, 0, 4252.308, 4208.718, 4164.103, 4187.692, 4264.615, 450, 0, []
1627720039.2865, 82, 0, 4277.436, 4208.718, 4163.59, 4183.077, 4294.359, 450, 0, []
1627720039.2943, 83, 0, 4283.59, 4200.513, 4171.282, 4191.282, 4307.692, 16194, 0, []
1627720039.3021, 84, 0, 4273.846, 4200.513, 4170.769, 4189.744, 4299.487, 450, 0, []
1627720039.3099, 85, 0, 4261.538, 4205.128, 4174.359, 4187.179, 4284.615, 450, 0, []
1627720039.3178, 86, 0, 4265.128, 4208.718, 4184.615, 4200, 4287.692, 450, 0, []
1627720039.3256, 87, 0, 4267.692, 4211.282, 4185.128, 4205.641, 4289.231, 16194, 0, []
1627720039.3335, 88, 0, 4261.026, 4213.846, 4184.615, 4195.385, 4276.41, 450, 0, []
1627720039.3412, 89, 0, 4266.154, 4216.41, 4195.385, 4191.282, 4278.462, 450, 0, []
1627720039.3492, 90, 0, 4270.256, 4217.949, 4206.667, 4195.897, 4289.231, 450, 0, []
