Timestamp, COUNTER, INTERPOLATED, AF3, T7, Pz, T8, AF4, RAW_CQ, MARKER_HARDWARE, MARKERS
1627630983.9251, 95, 0, 4185.128, 4189.231, 4165.641, 4214.872, 4124.103, 16192, 0, []
1627630983.933, 96, 0, 4169.744, 4189.744, 4156.923, 4197.949, 4115.385, 450, 0, []
1627630983.9408, 97, 0, 4180, 4215.897, 4169.231, 4210.256, 4124.615, 450, 0, []
1627630983.9486, 98, 0, 4185.128, 4215.897, 4171.282, 4218.974, 4127.179, 450, 0, []
1627630983.9564, 99, 0, 4164.103, 4194.872, 4147.692, 4194.359, 4110.769, 16192, 0, []
1627630983.9644, 100, 0, 4156.41, 4196.41, 4147.692, 4185.128, 4104.103, 450, 0, []
1627630983.9723, 101, 0, 4170.256, 4206.667, 4157.949, 4201.026, 4111.795, 450, 0, []
1627630983.9803, 102, 0, 4173.333, 4199.487, 4160.513, 4197.436, 4113.333, 450, 0, []
1627630983.9881, 103, 0, 4173.333, 4194.359, 4165.641, 4188.718, 4114.359, 16192, 0, []
1627630983.9961, 104, 0, 4186.154, 4204.615, 4168.718, 4206.667, 4130.256, 450, 0, []
1627630984.004, 105, 0, 4189.744, 4215.385, 4177.436, 4216.41, 4146.667, 450, 0, []
1627630984.012, 106, 0, 4180.513, 4220.513, 4180.513, 4206.154, 4152.821, 450, 0, []
1627630984.0199, 107, 0, 4189.231, 4217.949, 4173.333, 4205.641, 4162.051, 16192, 0, []
1627630984.0278, 108, 0, 4200.513, 4210.769, 4166.667, 4214.359, 4170.256, 450, 0, []
1627630984.0357, 109, 0, 4185.128, 4210.256, 4158.974, 4210.256, 4164.615, 450, 0, []
1627630984.0435, 110, 0, 4167.179, 4213.846, 4165.641, 4201.026, 4149.744, 450, 0, []
1627630984.0514, 111, 0, 4166.667, 4207.692, 4163.077, 4195.897, 4138.974, 16192, 0, []
1627630984.0592, 112, 0, 4168.718, 4192.821, 4149.231, 4188.205, 4132.821, 450, 0, []
1627630984.067, 113, 0, 4171.795, 4195.385, 4154.872, 4189.231, 4132.308, 450, 0, []
1627630984.0748, 114, 0, 4181.538, 4208.718, 4165.128, 4198.974, 4143.077, 450, 0, []
1627630984.0827, 115, 0, 4178.462, 4206.667, 4164.103, 4191.282, 4139.487, 16192, 0, []
1627630984.0905, 116, 0, 4162.051, 4192.821, 4146.154, 4170.256, 4121.026, 450, 0, []
1627630984.0984, 117, 0, 4173.333, 4189.231, 4138.974, 4173.846, 4130.256, 450, 0, []
1627630984.1061, 118, 0, 4202.564, 4204.615, 4165.641, 4201.026, 4157.949, 450, 0, []
1627630984.1141, 119, 0, 4204.615, 4223.077, 4179.487, 4209.231, 4158.974, 16192, 0, []
1627630984.122, 120, 0, 4183.59, 4220.513, 4165.641, 4191.282, 4144.103, 450, 0, []
1627630984.13, 121, 0, 4177.436, 4200, 4156.41, 4183.59, 4146.154, 450, 0, []
1627630984.1379, 122, 0, 4178.462, 4180, 4155.385, 4186.154, 4147.692, 450, 0, []
1627630984.1458, 123, 0, 4162.564, 4180.513, 4154.872, 4182.564, 4132.821, 16192, 0, []
1627630984.1537, 124, 0, 4166.154, 4196.923, 4156.41, 4183.59, 4135.385, 450, 0, []
1627630984.1617, 125, 0, 4206.667, 4194.359, 4160, 4181.026, 4169.231, 450, 0, []
1627630984.1696, 126, 0, 4249.231, 4177.436, 4150.256, 4170.256, 4211.282, 450, 0, []
1627630984.1776, 127, 0, 4288.205, 4182.564, 4146.667, 4183.59, 4252.308, 16192, 0, []
1627630984.1854, 128, 0, 4322.051, 4208.718, 4173.333, 4224.103, 4293.846, 450, 0, []
1627630984.1933, 0, 0, 4323.077, 4229.231, 4181.538, 4237.436, 4303.59, 450, 0, []
1627630984.2012, 1, 0, 4293.333, 4223.59, 4169.744, 4209.231, 4272.308, 450, 0, []
1627630984.209, 2, 0, 4270.256, 4205.641, 4173.846, 4191.795, 4246.667, 16174, 0, []
1627630984.2169, 3, 0, 4267.692, 4202.564, 4186.154, 4202.051, 4248.205, 450, 0, []
1627630984.2246, 4, 0, 4274.359, 4221.026, 4192.308, 4211.795, 4251.282, 16167, 0, []
1627630984.2325, 5, 0, 4267.692, 4223.077, 4179.487, 4201.538, 4240, 450, 0, []
1627630984.2403, 6, 0, 4251.282, 4209.744, 4174.872, 4193.333, 4229.744, 264, 0, []
1627630984.2482, 7, 0, 4254.872, 4220, 4182.051, 4209.744, 4233.846, 450, 0, []
1627630984.256, 8, 0, 4266.667, 4230.769, 4170.256, 4218.974, 4237.949, 450, 0, []
1627630984.2639, 9, 0, 4260.513, 4220, 4166.154, 4198.974, 4230.769, 16163, 0, []
1627630984.2718, 10, 0, 4251.282, 4215.897, 4172.821, 4185.128, 4221.538, 450, 0, []
1627630984.2798, 11, 0, 4240.513, 4216.923, 4167.179, 4186.154, 4208.718, 16189, 0, []
1627630984.2877, 12, 0, 4214.359, 4204.103, 4154.872, 4164.103, 4186.667, 450, 0, []
1627630984.2957, 13, 0, 4210.769, 4198.974, 4154.359, 4150.769, 4185.641, 450, 0, []
1627630984.3035, 14, 0, 4242.051, 4216.41, 4175.897, 4185.641, 4212.308, 450, 0, []
1627630984.3115, 15, 0, 4247.692, 4220.513, 4177.949, 4202.051, 4221.026, 16189, 0, []
1627630984.3194, 16, 0, 4237.436, 4211.282, 4173.333, 4188.718, 4212.821, 0, 0, []
1627630984.3274, 17, 0, 4257.436, 4217.436, 4190.256, 4202.051, 4224.615, 0, 0, []
1627630984.3353, 18, 0, 4280.513, 4235.385, 4188.718, 4225.128, 4243.077, 0, 0, []
1627630984.3431, 19, 0, 4273.333, 4241.538, 4181.538, 4221.538, 4237.949, 0, 0, []
1627630984.3511, 20, 0, 4256.923, 4235.897, 4185.641, 4209.744, 4221.538, 0, 0, []
1627630984.359, 21, 0, 4248.205, 4231.795, 4179.487, 4202.564, 4211.282, 0, 0, []
1627630984.367, 22, 0, 4245.128, 4222.564, 4164.103, 4187.179, 4201.538, 0, 0, []
1627630984.3749, 23, 0, 4245.641, 4211.282, 4162.051, 4182.564, 4197.949, 0, 0, []
1627630984.3828, 24, 0, 4236.41, 4214.359, 4182.051, 4193.846, 4204.615, 0, 0, []
1627630984.3905, 25, 0, 4228.718, 4216.41, 4187.179, 4204.103, 4211.282, 0, 0, []
1627630984.3985, 26, 0, 4237.949, 4213.333, 4170.769, 4202.564, 4204.615, 0, 0, []
1627630984.4064, 27, 0, 4232.308, 4212.308, 4160, 4184.615, 4182.564, 0, 0, []
1627630984.4144, 28, 0, 4218.462, 4215.385, 4157.949, 4174.872, 4181.538, 0, 0, []
1627630984.4223, 29, 0, 4227.179, 4226.154, 4168.205, 4185.641, 4206.154, 0, 0, []
1627630984.4302, 30, 0, 4249.231, 4236.923, 4189.231, 4208.718, 4224.103, 0, 0, []
1627630984.4381, 31, 0, 4251.282, 4236.41, 4197.436, 4218.974, 4224.615, 0, 0, []
1627630984.4461, 32, 0, 4235.385, 4228.205, 4187.179, 4210.256, 4214.872, 0, 0, []
1627630984.4541, 33, 0, 4225.641, 4218.974, 4171.282, 4196.41, 4203.59, 0, 0, []
1627630984.462, 34, 0, 4229.744, 4218.974, 4173.846, 4188.205, 4207.692, 0, 0, []
1627630984.4699, 35, 0, 4231.795, 4229.231, 4182.564, 4188.718, 4217.949, 0, 0, []
1627630984.4778, 36, 0, 4216.923, 4228.718, 4171.795, 4185.641, 4204.615, 0, 0, []
1627630984.4858, 37, 0, 4211.282, 4226.667, 4174.872, 4180.513, 4193.846, 0, 0, []
1627630984.4937, 38, 0, 4228.718, 4236.923, 4188.718, 4183.59, 4213.846, 0, 0, []
1627630984.5017, 39, 0, 4238.974, 4240, 4192.308, 4190.256, 4222.564, 0, 0, []
1627630984.5095, 40, 0, 4225.641, 4232.821, 4189.231, 4192.821, 4205.641, 0, 0, []
1627630984.5175, 41, 0, 4209.231, 4228.718, 4178.974, 4187.692, 4195.385, 0, 0, []
1627630984.5254, 42, 0, 4213.333, 4232.821, 4180, 4184.615, 4199.487, 0, 0, []
1627630984.5334, 43, 0, 4215.897, 4236.41, 4174.359, 4186.667, 4190.769, 0, 0, []
1627630984.5413, 44, 0, 4203.59, 4227.179, 4163.077, 4182.051, 4171.282, 0, 0, []
1627630984.5492, 45, 0, 4201.026, 4219.487, 4165.128, 4175.385, 4168.718, 0, 0, []
1627630984.5571, 46, 0, 4214.359, 4227.692, 4167.179, 4184.103, 4181.538, 0, 0, []
1627630984.5651, 47, 0, 4224.615, 4232.821, 4172.308, 4201.026, 4193.846, 0, 0, []
1627630984.573, 48, 0, 4230.256, 4227.179, 4170.769, 4205.128, 4199.487, 0, 0, []
1627630984.581, 49, 0, 4236.41, 4234.872, 4168.718, 4198.462, 4201.538, 0, 0, []
1627630984.5889, 50, 0, 4227.179, 4237.949, 4167.179, 4189.744, 4194.359, 0, 0, []
1627630984.5968, 51, 0, 4216.41, 4220, 4163.59, 4180.513, 4186.154, 0, 0, []
1627630984.6048, 52, 0, 4234.359, 4218.462, 4180.513, 4183.077, 4204.615, 0, 0, []
1627630984.6127, 53, 0, 4262.051, 4237.436, 4188.718, 4193.333, 4235.897, 0, 0, []
1627630984.6207, 54, 0, 4283.077, 4238.462, 4183.077, 4199.487, 4260, 0, 0, []
1627630984.6285, 55, 0, 4323.59, 4230.256, 4186.154, 4201.026, 4293.846, 0, 0, []
1627630984.6365, 56, 0, 4381.538, 4240.513, 4187.692, 4204.615, 4348.718, 0, 0, []
1627630984.6444, 57, 0, 4422.051, 4251.282, 4197.436, 4204.615, 4393.846, 0, 0, []
1627630984.6524, 58, 0, 4442.564, 4252.821, 4196.923, 4195.385, 4406.667, 0, 0, []
1627630984.6603, 59, 0, 4450.256, 4251.282, 4176.923, 4181.026, 4399.487, 0, 0, []
1627630984.6682, 60, 0, 4428.718, 4238.462, 4172.308, 4173.333, 4378.974, 0, 0, []
1627630984.6761, 61, 0, 4401.026, 4233.846, 4180, 4177.436, 4357.949, 0, 0, []
1627630984.6841, 62, 0, 4394.872, 4249.231, 4193.333, 4186.154, 4347.179, 0, 0, []
1627630984.692, 63, 0, 4375.385, 4252.308, 4195.897, 4183.59, 4330.256, 0, 0, []
1627630984.7, 64, 0, 4327.692, 4230.256, 4176.41, 4169.744, 4292.308, 450, 0, []
1627630984.7078, 65, 0, 4299.487, 4221.026, 4173.333, 4162.564, 4258.462, 450, 0, []
1627630984.7158, 66, 0, 4306.154, 4238.462, 4185.128, 4171.282, 4258.462, 16150, 0, []
1627630984.7237, 67, 0, 4307.692, 4248.718, 4183.59, 4176.41, 4262.564, 450, 0, []
1627630984.7317, 68, 0, 4279.487, 4231.282, 4165.641, 4161.026, 4241.026, 16167, 0, []
1627630984.7397, 69, 0, 4262.051, 4216.923, 4157.436, 4152.821, 4225.128, 450, 0, []
1627630984.7475, 70, 0, 4269.231, 4229.231, 4181.026, 4165.641, 4233.333, 265, 0, []
1627630984.7555, 71, 0, 4273.333, 4244.615, 4192.821, 4174.359, 4240.513, 450, 0, []
1627630984.7634, 72, 0, 4262.051, 4241.026, 4178.462, 4170.256, 4229.744, 450, 0, []
1627630984.7714, 73, 0, 4247.692, 4227.179, 4169.231, 4163.59, 4212.821, 16163, 0, []
1627630984.7793, 74, 0, 4246.667, 4224.615, 4177.949, 4164.615, 4217.436, 450, 0, []
1627630984.7872, 75, 0, 4249.231, 4230.769, 4187.692, 4164.615, 4227.179, 16189, 0, []
1627630984.7951, 76, 0, 4250.769, 4233.333, 4183.077, 4169.744, 4221.538, 450, 0, []
1627630984.8031, 77, 0, 4253.333, 4229.231, 4178.974, 4175.897, 4216.923, 450, 0, []
1627630984.811, 78, 0, 4247.179, 4229.744, 4170.769, 4166.667, 4212.821, 450, 0, []
1627630984.819, 79, 0, 4235.897, 4235.385, 4162.051, 4158.462, 4203.59, 16189, 0, []
1627630984.8268, 80, 0, 4230.769, 4228.205, 4174.872, 4165.641, 4203.59, 450, 0, []
1627630984.8348, 81, 0, 4233.846, 4223.077, 4177.949, 4172.308, 4212.308, 450, 0, []
1627630984.8427, 82, 0, 4233.846, 4230.769, 4170.769, 4171.282, 4216.923, 450, 0, []
1627630984.8507, 83, 0, 4232.308, 4236.41, 4170.256, 4169.744, 4211.795, 16189, 0, []
1627630984.8586, 84, 0, 4229.231, 4229.744, 4159.487, 4162.051, 4202.051, 450, 0, []
1627630984.8665, 85, 0, 4232.821, 4224.103, 4161.026, 4160, 4212.821, 450, 0, []
1627630984.8744, 86, 0, 4245.641, 4229.744, 4176.923, 4174.872, 4238.974, 450, 0, []
1627630984.8824, 87, 0, 4243.077, 4233.846, 4168.718, 4176.923, 4237.436, 16189, 0, []
1627630984.8903, 88, 0, 4228.718, 4232.308, 4153.846, 4165.128, 4216.41, 450, 0, []
1627630984.8983, 89, 0, 4228.718, 4233.846, 4154.872, 4166.667, 4214.872, 450, 0, []
1627630984.9062, 90, 0, 4239.487, 4231.282, 4165.128, 4175.385, 4222.564, 450, 0, []
1627630984.9141, 91, 0, 4245.641, 4221.026, 4162.564, 4173.333, 4226.154, 16189, 0, []
1627630984.9221, 92, 0, 4250.769, 4222.564, 4160, 4167.692, 4230.256, 450, 0, []
1627630984.93, 93, 0, 4249.231, 4235.897, 4166.667, 4171.282, 4229.744, 450, 0, []
1627630984.938, 94, 0, 4238.462, 4236.923, 4158.974, 4169.744, 4221.026, 450, 0, []
1627630984.9458, 95, 0, 4232.821, 4227.179, 4154.359, 4159.487, 4211.795, 16189, 0, []
1627630984.9538, 96, 0, 4233.333, 4220.513, 4154.359, 4156.923, 4206.154, 450, 0, []
1627630984.9617, 97, 0, 4236.923, 4220, 4147.692, 4161.538, 4208.718, 450, 0, []
1627630984.9697, 98, 0, 4232.821, 4222.051, 4149.744, 4154.872, 4202.564, 450, 0, []
1627630984.9776, 99, 0, 4217.949, 4215.385, 4146.154, 4141.538, 4185.128, 16189, 0, []
1627630984.9855, 100, 0, 4219.487, 4216.923, 4157.436, 4147.692, 4192.308, 450, 0, []
1627630984.9934, 101, 0, 4236.923, 4235.385, 4176.923, 4168.205, 4221.538, 450, 0, []
1627630985.0014, 102, 0, 4233.333, 4232.821, 4166.667, 4175.385, 4222.564, 450, 0, []
1627630985.0093, 103, 0, 4214.359, 4208.205, 4153.333, 4163.077, 4195.385, 16189, 0, []
1627630985.0173, 104, 0, 4210.256, 4210.256, 4156.41, 4155.897, 4192.821, 450, 0, []
1627630985.0251, 105, 0, 4209.231, 4231.282, 4158.462, 4158.462, 4199.487, 450, 0, []
1627630985.0329, 106, 0, 4200.513, 4234.872, 4149.744, 4148.718, 4190.769, 450, 0, []
1627630985.0409, 107, 0, 4205.128, 4224.103, 4141.538, 4140.513, 4191.282, 16189, 0, []
1627630985.0488, 108, 0, 4216.41, 4217.949, 4147.179, 4150.769, 4204.615, 450, 0, []
1627630985.0568, 109, 0, 4217.436, 4217.949, 4148.718, 4163.59, 4206.667, 450, 0, []
1627630985.0646, 110, 0, 4214.872, 4208.718, 4148.718, 4155.385, 4201.538, 450, 0, []
1627630985.0726, 111, 0, 4208.718, 4195.897, 4155.897, 4139.487, 4195.385, 16189, 0, []
1627630985.0805, 112, 0, 4199.487, 4206.154, 4154.359, 4136.923, 4186.667, 450, 0, []
1627630985.0885, 113, 0, 4197.436, 4220.513, 4156.41, 4137.436, 4180.513, 450, 0, []
1627630985.0964, 114, 0, 4199.487, 4216.923, 4154.359, 4134.872, 4174.359, 450, 0, []
1627630985.1043, 115, 0, 4202.051, 4224.103, 4151.795, 4141.026, 4178.462, 16189, 0, []
1627630985.1122, 116, 0, 4209.744, 4240, 4157.949, 4153.333, 4191.795, 450, 0, []
1627630985.1202, 117, 0, 4217.949, 4230.769, 4160, 4158.462, 4197.949, 450, 0, []
1627630985.1281, 118, 0, 4221.026, 4214.359, 4168.205, 4158.974, 4196.41, 450, 0, []
1627630985.1361, 119, 0, 4214.359, 4217.436, 4165.128, 4153.333, 4192.821, 16189, 0, []
1627630985.1439, 120, 0, 4205.128, 4222.564, 4147.179, 4140, 4187.179, 450, 0, []
1627630985.1519, 121, 0, 4197.949, 4215.385, 4137.949, 4134.359, 4178.974, 450, 0, []
1627630985.1598, 122, 0, 4196.41, 4216.41, 4142.564, 4145.128, 4178.462, 450, 0, []
1627630985.1678, 123, 0, 4206.154, 4230.256, 4167.692, 4167.692, 4189.231, 16189, 0, []
1627630985.1757, 124, 0, 4218.462, 4233.846, 4176.41, 4182.051, 4202.051, 450, 0, []
1627630985.1834, 125, 0, 4220, 4223.59, 4156.923, 4175.897, 4200, 450, 0, []
1627630985.1913, 126, 0, 4214.359, 4226.154, 4148.205, 4173.333, 4194.359, 450, 0, []
1627630985.1991, 127, 0, 4217.436, 4237.949, 4147.179, 4174.359, 4199.487, 16189, 0, []
1627630985.2071, 128, 0, 4229.231, 4233.333, 4153.333, 4150.769, 4202.564, 450, 0, []
1627630985.215, 0, 0, 4232.308, 4230.256, 4168.718, 4124.615, 4207.179, 450, 0, []
1627630985.2228, 1, 0, 4221.538, 4233.846, 4182.051, 4125.128, 4200, 450, 0, []
1627630985.2308, 2, 0, 4210.256, 4230.256, 4188.205, 4142.564, 4183.59, 16155, 0, []
1627630985.2388, 3, 0, 4215.897, 4237.949, 4180.513, 4172.821, 4185.641, 450, 0, []
1627630985.2467, 4, 0, 4223.077, 4251.282, 4175.385, 4202.051, 4194.359, 16167, 0, []
1627630985.2547, 5, 0, 4208.718, 4238.462, 4157.949, 4199.487, 4184.615, 450, 0, []
1627630985.2625, 6, 0, 4196.923, 4223.077, 4140.513, 4183.59, 4186.667, 309, 0, []
1627630985.2705, 7, 0, 4211.282, 4233.333, 4156.41, 4185.641, 4211.282, 450, 0, []
1627630985.2784, 8, 0, 4219.487, 4236.41, 4163.59, 4183.077, 4214.872, 450, 0, []
1627630985.2864, 9, 0, 4206.154, 4230.769, 4159.487, 4169.231, 4199.487, 16163, 0, []
1627630985.2943, 10, 0, 4195.385, 4232.308, 4171.282, 4160.513, 4194.872, 450, 0, []
1627630985.3022, 11, 0, 4190.769, 4227.179, 4171.795, 4158.974, 4191.795, 16190, 0, []
1627630985.3101, 12, 0, 4188.718, 4229.744, 4163.077, 4169.231, 4183.077, 450, 0, []
1627630985.3181, 13, 0, 4196.923, 4245.128, 4165.641, 4182.051, 4187.692, 450, 0, []
1627630985.326, 14, 0, 4205.641, 4242.051, 4176.923, 4180.513, 4201.538, 450, 0, []
1627630985.3338, 15, 0, 4202.051, 4231.282, 4175.897, 4167.179, 4204.103, 16190, 0, []
1627630985.3417, 16, 0, 4200, 4233.846, 4166.154, 4156.923, 4202.051, 0, 0, []
1627630985.3494, 17, 0, 4207.179, 4236.41, 4173.846, 4154.872, 4204.615, 0, 0, []
1627630985.3573, 18, 0, 4212.308, 4228.205, 4178.462, 4166.667, 4204.103, 0, 0, []
1627630985.3651, 19, 0, 4207.692, 4219.487, 4174.872, 4181.026, 4195.385, 0, 0, []
1627630985.3731, 20, 0, 4197.436, 4215.897, 4170.256, 4180.513, 4179.487, 0, 0, []
1627630985.381, 21, 0, 4187.692, 4212.821, 4154.359, 4172.308, 4169.744, 0, 0, []
1627630985.3889, 22, 0, 4182.051, 4216.41, 4153.333, 4163.59, 4173.333, 0, 0, []
1627630985.3968, 23, 0, 4192.308, 4226.154, 4163.077, 4166.667, 4187.692, 0, 0, []
1627630985.4048, 24, 0, 4204.615, 4227.179, 4164.615, 4178.974, 4197.436, 0, 0, []
1627630985.4127, 25, 0, 4191.795, 4215.897, 4161.026, 4176.923, 4191.282, 0, 0, []
1627630985.4207, 26, 0, 4178.974, 4210.256, 4151.282, 4165.641, 4180.513, 0, 0, []
1627630985.4285, 27, 0, 4193.846, 4215.385, 4155.385, 4168.205, 4183.59, 0, 0, []
1627630985.4365, 28, 0, 4204.103, 4220, 4166.154, 4178.462, 4189.744, 0, 0, []
1627630985.4444, 29, 0, 4190.769, 4220.513, 4168.718, 4175.897, 4183.077, 0, 0, []
1627630985.4524, 30, 0, 4180.513, 4216.41, 4164.103, 4167.692, 4176.923, 0, 0, []
1627630985.4603, 31, 0, 4183.59, 4216.41, 4153.333, 4167.179, 4179.487, 0, 0, []
1627630985.468, 32, 0, 4192.308, 4221.026, 4157.949, 4169.231, 4189.231, 0, 0, []
1627630985.4759, 33, 0, 4194.359, 4221.026, 4158.974, 4158.974, 4195.385, 0, 0, []
1627630985.4837, 34, 0, 4184.103, 4217.436, 4157.436, 4140, 4180, 0, 0, []
1627630985.4917, 35, 0, 4181.538, 4212.308, 4168.205, 4143.077, 4163.077, 0, 0, []
1627630985.4996, 36, 0, 4186.154, 4203.59, 4163.59, 4162.564, 4167.179, 0, 0, []
1627630985.5075, 37, 0, 4179.487, 4196.41, 4153.846, 4163.077, 4173.333, 0, 0, []
1627630985.5154, 38, 0, 4176.923, 4201.026, 4153.846, 4154.872, 4167.692, 0, 0, []
1627630985.5234, 39, 0, 4185.128, 4204.615, 4155.897, 4155.385, 4170.256, 0, 0, []
1627630985.5313, 40, 0, 4185.128, 4202.564, 4162.564, 4144.615, 4170.256, 0, 0, []
1627630985.5393, 41, 0, 4191.282, 4203.59, 4157.436, 4130.256, 4166.667, 0, 0, []
1627630985.5471, 42, 0, 4203.077, 4201.026, 4149.744, 4141.026, 4177.436, 0, 0, []
1627630985.5551, 43, 0, 4191.795, 4189.231, 4148.205, 4150.256, 4177.949, 0, 0, []
1627630985.563, 44, 0, 4176.923, 4177.949, 4145.641, 4141.026, 4166.154, 0, 0, []
1627630985.571, 45, 0, 4193.333, 4187.692, 4154.872, 4147.179, 4175.385, 0, 0, []
1627630985.5789, 46, 0, 4207.692, 4206.154, 4161.538, 4157.436, 4195.385, 0, 0, []
1627630985.5868, 47, 0, 4190.256, 4199.487, 4156.41, 4145.641, 4186.154, 0, 0, []
1627630985.5947, 48, 0, 4179.487, 4189.231, 4149.231, 4131.282, 4169.744, 0, 0, []
1627630985.6027, 49, 0, 4187.692, 4198.974, 4146.667, 4129.231, 4167.692, 0, 0, []
1627630985.6106, 50, 0, 4174.359, 4200.513, 4147.179, 4122.051, 4151.795, 0, 0, []
1627630985.6184, 51, 0, 4148.718, 4185.128, 4138.462, 4117.949, 4132.308, 0, 0, []
1627630985.6262, 52, 0, 4151.282, 4183.077, 4137.436, 4133.333, 4137.949, 0, 0, []
1627630985.634, 53, 0, 4158.974, 4193.333, 4142.564, 4142.051, 4143.077, 0, 0, []
1627630985.6419, 54, 0, 4151.795, 4196.923, 4138.974, 4135.897, 4130.256, 0, 0, []
1627630985.6497, 55, 0, 4151.282, 4192.308, 4146.154, 4136.41, 4128.718, 0, 0, []
1627630985.6576, 56, 0, 4156.923, 4183.59, 4149.231, 4135.897, 4134.359, 0, 0, []
1627630985.6653, 57, 0, 4154.359, 4185.641, 4147.179, 4121.538, 4124.103, 0, 0, []
1627630985.6733, 58, 0, 4148.205, 4192.821, 4157.949, 4108.205, 4115.897, 0, 0, []
1627630985.6812, 59, 0, 4151.282, 4187.692, 4156.923, 4109.744, 4129.744, 0, 0, []
1627630985.6892, 60, 0, 4162.564, 4178.974, 4154.359, 4115.897, 4142.564, 0, 0, []
1627630985.6971, 61, 0, 4164.103, 4181.538, 4157.436, 4130.256, 4139.487, 0, 0, []
1627630985.705, 62, 0, 4154.872, 4188.205, 4154.872, 4137.949, 4136.923, 0, 0, []
1627630985.7129, 63, 0, 4154.872, 4186.154, 4150.769, 4129.744, 4135.897, 0, 0, []
1627630985.7209, 64, 0, 4157.949, 4181.026, 4142.051, 4120, 4131.795, 450, 0, []
1627630985.7288, 65, 0, 4153.846, 4184.615, 4144.103, 4110.769, 4131.282, 450, 0, []
1627630985.7368, 66, 0, 4151.795, 4182.051, 4152.308, 4104.615, 4134.359, 16166, 0, []
1627630985.7446, 67, 0, 4160.513, 4172.308, 4155.897, 4112.308, 4137.949, 450, 0, []
1627630985.7526, 68, 0, 4170.769, 4180.513, 4167.692, 4131.795, 4150.256, 16167, 0, []
1627630985.7605, 69, 0, 4174.359, 4202.564, 4177.436, 4149.744, 4163.59, 450, 0, []
1627630985.7683, 70, 0, 4168.718, 4204.615, 4173.846, 4153.846, 4155.897, 284, 0, []
1627630985.7762, 71, 0, 4169.744, 4196.923, 4159.487, 4154.872, 4152.821, 450, 0, []
1627630985.7839, 72, 0, 4183.59, 4202.564, 4153.846, 4165.128, 4175.897, 450, 0, []
1627630985.7918, 73, 0, 4191.282, 4203.59, 4158.974, 4164.103, 4190.769, 16175, 0, []
1627630985.7996, 74, 0, 4185.128, 4198.974, 4153.333, 4142.564, 4178.462, 450, 0, []
1627630985.8075, 75, 0, 4169.744, 4199.487, 4153.846, 4123.077, 4155.385, 16190, 0, []
1627630985.8153, 76, 0, 4151.282, 4200, 4155.385, 4110.769, 4136.41, 450, 0, []
1627630985.8232, 77, 0, 4153.333, 4207.179, 4158.974, 4117.949, 4141.026, 450, 0, []
1627630985.8311, 78, 0, 4176.923, 4205.128, 4174.359, 4146.154, 4165.128, 450, 0, []
1627630985.8391, 79, 0, 4186.154, 4190.769, 4164.615, 4160.513, 4177.949, 16190, 0, []
1627630985.847, 80, 0, 4176.923, 4189.231, 4155.897, 4156.41, 4170.256, 450, 0, []
1627630985.855, 81, 0, 4161.538, 4192.821, 4166.667, 4151.795, 4156.923, 450, 0, []
1627630985.8628, 82, 0, 4151.282, 4186.154, 4158.974, 4142.051, 4147.692, 450, 0, []
1627630985.8708, 83, 0, 4167.179, 4200.513, 4150.769, 4133.333, 4158.462, 16190, 0, []
1627630985.8787, 84, 0, 4198.462, 4223.077, 4154.359, 4138.462, 4183.077, 450, 0, []
1627630985.8867, 85, 0, 4210.769, 4212.821, 4159.487, 4144.615, 4191.795, 450, 0, []
1627630985.8946, 86, 0, 4200, 4191.795, 4166.154, 4142.564, 4185.128, 450, 0, []
1627630985.9025, 87, 0, 4189.744, 4192.821, 4159.487, 4145.128, 4185.128, 16190, 0, []
1627630985.9104, 88, 0, 4186.667, 4195.385, 4150.256, 4152.308, 4186.154, 450, 0, []
1627630985.9184, 89, 0, 4187.692, 4185.128, 4148.718, 4151.282, 4174.359, 450, 0, []
1627630985.9263, 90, 0, 4190.769, 4180.513, 4157.436, 4147.692, 4168.205, 450, 0, []
1627630985.9341, 91, 0, 4182.051, 4183.59, 4156.923, 4136.923, 4168.718, 16190, 0, []
1627630985.9419, 92, 0, 4170.769, 4180, 4142.564, 4118.974, 4163.59, 450, 0, []
1627630985.9497, 93, 0, 4185.641, 4189.231, 4152.821, 4127.179, 4172.821, 450, 0, []
1627630985.9576, 94, 0, 4204.615, 4207.692, 4164.103, 4158.974, 4194.359, 450, 0, []
1627630985.9654, 95, 0, 4190.769, 4201.538, 4154.359, 4161.538, 4186.667, 16190, 0, []
1627630985.9733, 96, 0, 4164.615, 4186.154, 4142.564, 4140.513, 4156.923, 450, 0, []
1627630985.981, 97, 0, 4156.41, 4192.308, 4131.795, 4131.282, 4146.154, 450, 0, []
1627630985.9889, 98, 0, 4159.487, 4196.923, 4137.436, 4128.205, 4149.744, 450, 0, []
1627630985.9967, 99, 0, 4162.051, 4183.077, 4141.538, 4122.051, 4148.205, 16190, 0, []
1627630986.0047, 100, 0, 4164.615, 4170.769, 4135.897, 4120, 4147.692, 450, 0, []
1627630986.0126, 101, 0, 4172.308, 4177.949, 4141.538, 4129.231, 4158.462, 450, 0, []
1627630986.0205, 102, 0, 4179.487, 4194.359, 4142.051, 4142.051, 4169.744, 450, 0, []
1627630986.0284, 103, 0, 4178.974, 4197.949, 4139.487, 4137.949, 4170.256, 16190, 0, []
1627630986.0364, 104, 0, 4172.821, 4190.769, 4135.897, 4121.026, 4165.128, 450, 0, []
1627630986.0443, 105, 0, 4176.41, 4184.103, 4140.513, 4117.949, 4164.615, 450, 0, []
1627630986.0523, 106, 0, 4189.744, 4184.615, 4157.436, 4132.308, 4178.974, 450, 0, []
1627630986.0601, 107, 0, 4197.436, 4186.667, 4156.41, 4150.256, 4195.385, 16190, 0, []
1627630986.068, 108, 0, 4196.923, 4176.923, 4150.256, 4165.641, 4197.436, 450, 0, []
1627630986.0759, 109, 0, 4200.513, 4176.923, 4156.923, 4172.308, 4197.949, 450, 0, []
1627630986.0837, 110, 0, 4203.077, 4191.282, 4155.385, 4164.103, 4200.513, 450, 0, []
1627630986.0916, 111, 0, 4185.641, 4194.359, 4143.077, 4146.667, 4188.205, 16190, 0, []
1627630986.0993, 112, 0, 4173.846, 4200, 4135.897, 4133.846, 4180.513, 450, 0, []
1627630986.1072, 113, 0, 4189.744, 4214.359, 4144.103, 4138.462, 4187.692, 450, 0, []
1627630986.115, 114, 0, 4196.923, 4202.564, 4144.615, 4151.282, 4182.564, 450, 0, []
1627630986.1229, 115, 0, 4193.846, 4186.667, 4138.462, 4155.897, 4186.154, 16190, 0, []
1627630986.1307, 116, 0, 4214.872, 4194.359, 4148.718, 4143.59, 4216.923, 450, 0, []
1627630986.1387, 117, 0, 4265.641, 4202.564, 4157.949, 4133.333, 4256.923, 450, 0, []
1627630986.1465, 118, 0, 4318.462, 4213.333, 4162.564, 4137.949, 4305.128, 450, 0, []
1627630986.1545, 119, 0, 4350.256, 4221.538, 4161.538, 4141.538, 4343.59, 16190, 0, []
1627630986.1624, 120, 0, 4360.513, 4210.256, 4149.231, 4135.385, 4349.231, 450, 0, []
1627630986.1704, 121, 0, 4363.077, 4199.487, 4147.692, 4134.872, 4349.231, 450, 0, []
1627630986.1783, 122, 0, 4364.103, 4195.385, 4145.128, 4142.051, 4356.41, 450, 0, []
1627630986.1862, 123, 0, 4349.231, 4190.256, 4139.487, 4141.538, 4338.462, 16190, 0, []
1627630986.1941, 124, 0, 4325.641, 4198.974, 4145.128, 4134.872, 4306.154, 450, 0, []
1627630986.2021, 125, 0, 4309.744, 4206.667, 4146.154, 4136.41, 4293.846, 450, 0, []
1627630986.21, 126, 0, 4290.256, 4190.256, 4143.077, 4137.949, 4278.462, 450, 0, []
1627630986.218, 127, 0, 4263.59, 4183.077, 4143.59, 4136.923, 4251.795, 16190, 0, []
1627630986.2258, 128, 0, 4254.872, 4194.872, 4150.769, 4143.077, 4241.538, 450, 0, []
1627630986.2338, 0, 0, 4247.179, 4194.872, 4147.692, 4141.026, 4231.795, 450, 0, []
1627630986.2417, 1, 0, 4224.103, 4183.077, 4130.769, 4129.744, 4214.872, 450, 0, []
1627630986.2495, 2, 0, 4220, 4177.949, 4137.949, 4131.795, 4215.385, 16166, 0, []
1627630986.2574, 3, 0, 4234.872, 4192.308, 4151.282, 4148.718, 4226.154, 450, 0, []
1627630986.2651, 4, 0, 4227.692, 4201.538, 4143.59, 4151.795, 4218.462, 16167, 0, []
1627630986.273, 5, 0, 4204.615, 4191.795, 4134.359, 4136.923, 4197.436, 450, 0, []
1627630986.2808, 6, 0, 4194.872, 4183.59, 4125.641, 4124.103, 4183.59, 268, 0, []
1627630986.2887, 7, 0, 4189.231, 4178.974, 4128.718, 4121.538, 4169.744, 450, 0, []
1627630986.2965, 8, 0, 4175.385, 4174.359, 4135.897, 4122.051, 4155.385, 450, 0, []
1627630986.3044, 9, 0, 4168.205, 4169.744, 4131.282, 4121.538, 4151.282, 16173, 0, []
1627630986.3123, 10, 0, 4173.846, 4174.359, 4137.436, 4128.205, 4154.359, 450, 0, []
1627630986.3202, 11, 0, 4184.103, 4182.564, 4150.769, 4138.462, 4157.949, 16189, 0, []
1627630986.328, 12, 0, 4187.179, 4179.487, 4149.744, 4138.462, 4156.923, 450, 0, []
1627630986.336, 13, 0, 4177.436, 4171.795, 4129.744, 4133.846, 4154.359, 450, 0, []
1627630986.3438, 14, 0, 4169.231, 4180, 4125.128, 4135.897, 4153.846, 450, 0, []
1627630986.3518, 15, 0, 4168.718, 4193.333, 4142.564, 4140.513, 4151.795, 16189, 0, []
1627630986.3597, 16, 0, 4166.154, 4183.59, 4137.949, 4138.974, 4147.179, 0, 0, []
1627630986.3677, 17, 0, 4163.077, 4174.872, 4130.769, 4142.051, 4146.667, 0, 0, []
1627630986.3756, 18, 0, 4166.667, 4186.667, 4143.077, 4152.308, 4154.872, 0, 0, []
1627630986.3835, 19, 0, 4172.821, 4196.41, 4148.205, 4158.974, 4163.59, 0, 0, []
1627630986.3914, 20, 0, 4176.923, 4200, 4149.231, 4154.359, 4167.179, 0, 0, []
1627630986.3992, 21, 0, 4184.103, 4196.923, 4146.667, 4152.308, 4169.231, 0, 0, []
1627630986.4071, 22, 0, 4189.231, 4198.462, 4147.692, 4154.872, 4171.282, 0, 0, []
1627630986.4149, 23, 0, 4181.026, 4202.051, 4148.205, 4153.846, 4167.692, 0, 0, []
1627630986.4227, 24, 0, 4169.231, 4195.385, 4141.026, 4150.769, 4158.974, 0, 0, []
1627630986.4305, 25, 0, 4177.436, 4196.41, 4151.282, 4151.795, 4160.513, 0, 0, []
1627630986.4384, 26, 0, 4188.205, 4205.641, 4152.308, 4157.436, 4173.333, 0, 0, []
1627630986.4462, 27, 0, 4179.487, 4201.538, 4144.103, 4160.513, 4172.308, 0, 0, []
1627630986.4541, 28, 0, 4163.59, 4187.692, 4141.026, 4141.538, 4152.308, 0, 0, []
1627630986.4618, 29, 0, 4157.949, 4180, 4129.231, 4120, 4137.949, 0, 0, []
1627630986.4698, 30, 0, 4163.59, 4190.256, 4138.974, 4134.359, 4147.179, 0, 0, []
1627630986.4777, 31, 0, 4168.205, 4201.538, 4150.769, 4156.41, 4159.487, 0, 0, []
1627630986.4857, 32, 0, 4169.231, 4197.949, 4145.128, 4153.333, 4161.026, 0, 0, []
1627630986.4936, 33, 0, 4175.385, 4189.744, 4144.615, 4148.205, 4166.154, 0, 0, []
1627630986.5015, 34, 0, 4177.949, 4186.154, 4140.513, 4152.308, 4165.641, 0, 0, []
1627630986.5094, 35, 0, 4165.641, 4188.205, 4131.795, 4147.692, 4154.872, 0, 0, []
1627630986.5174, 36, 0, 4170.256, 4191.795, 4135.897, 4140, 4163.59, 0, 0, []
1627630986.5253, 37, 0, 4199.487, 4192.821, 4149.231, 4134.872, 4191.282, 0, 0, []
1627630986.5333, 38, 0, 4215.385, 4196.923, 4150.256, 4140, 4204.103, 0, 0, []
1627630986.5411, 39, 0, 4208.205, 4197.436, 4144.103, 4150.256, 4205.641, 0, 0, []
1627630986.5489, 40, 0, 4191.795, 4189.231, 4152.308, 4150.256, 4201.026, 0, 0, []
1627630986.5568, 41, 0, 4181.026, 4187.692, 4149.744, 4147.179, 4187.179, 0, 0, []
1627630986.5646, 42, 0, 4184.615, 4191.282, 4136.41, 4144.615, 4184.615, 0, 0, []
1627630986.5725, 43, 0, 4184.103, 4188.205, 4134.359, 4135.897, 4189.231, 0, 0, []
1627630986.5802, 44, 0, 4179.487, 4187.692, 4135.897, 4131.795, 4184.103, 0, 0, []
1627630986.5881, 45, 0, 4192.308, 4196.923, 4152.308, 4143.077, 4189.231, 0, 0, []
1627630986.5959, 46, 0, 4198.462, 4193.333, 4160, 4145.641, 4198.974, 0, 0, []
1627630986.6039, 47, 0, 4185.128, 4175.385, 4149.231, 4129.231, 4191.282, 0, 0, []
1627630986.6118, 48, 0, 4186.667, 4172.308, 4161.538, 4126.667, 4188.718, 0, 0, []
1627630986.6197, 49, 0, 4202.564, 4197.436, 4175.897, 4145.128, 4200.513, 0, 0, []
1627630986.6276, 50, 0, 4207.179, 4216.923, 4168.205, 4153.333, 4205.641, 0, 0, []
1627630986.6356, 51, 0, 4195.385, 4201.026, 4154.872, 4132.308, 4194.359, 0, 0, []
1627630986.6435, 52, 0, 4185.641, 4193.333, 4152.308, 4117.949, 4184.103, 0, 0, []
1627630986.6515, 53, 0, 4194.872, 4213.333, 4165.128, 4134.872, 4191.795, 0, 0, []
1627630986.6593, 54, 0, 4201.026, 4217.949, 4161.026, 4147.179, 4198.974, 0, 0, []
1627630986.6673, 55, 0, 4186.154, 4199.487, 4147.179, 4134.872, 4187.692, 0, 0, []
1627630986.6752, 56, 0, 4185.128, 4195.897, 4148.718, 4132.308, 4185.128, 0, 0, []
1627630986.6832, 57, 0, 4202.564, 4201.538, 4153.846, 4143.59, 4203.59, 0, 0, []
1627630986.6911, 58, 0, 4195.897, 4185.641, 4156.41, 4134.872, 4200, 0, 0, []
1627630986.6988, 59, 0, 4181.026, 4177.949, 4144.615, 4117.436, 4181.538, 0, 0, []
1627630986.7067, 60, 0, 4187.692, 4192.308, 4137.949, 4123.59, 4181.538, 0, 0, []
1627630986.7145, 61, 0, 4188.205, 4196.923, 4142.564, 4132.308, 4187.179, 0, 0, []
1627630986.7224, 62, 0, 4186.154, 4189.231, 4137.949, 4128.205, 4183.59, 0, 0, []
1627630986.7302, 63, 0, 4197.436, 4190.256, 4141.538, 4125.641, 4184.103, 0, 0, []
1627630986.738, 64, 0, 4207.692, 4201.538, 4145.128, 4123.59, 4195.897, 450, 0, []
1627630986.7458, 65, 0, 4200, 4196.923, 4133.846, 4120.513, 4196.41, 450, 0, []
1627630986.7537, 66, 0, 4193.333, 4182.564, 4124.615, 4127.179, 4189.231, 16169, 0, []
1627630986.7615, 67, 0, 4209.231, 4190.256, 4134.872, 4140, 4196.923, 450, 0, []
1627630986.7695, 68, 0, 4223.077, 4206.667, 4147.692, 4142.564, 4204.615, 16170, 0, []
1627630986.7773, 69, 0, 4211.282, 4205.128, 4141.026, 4140, 4198.462, 450, 0, []
1627630986.7853, 70, 0, 4201.026, 4195.897, 4138.462, 4139.487, 4198.974, 265, 0, []
1627630986.7932, 71, 0, 4204.615, 4200.513, 4147.692, 4133.846, 4203.59, 450, 0, []
1627630986.8012, 72, 0, 4206.154, 4213.333, 4148.205, 4142.051, 4201.026, 450, 0, []
1627630986.8091, 73, 0, 4207.692, 4218.974, 4149.744, 4150.769, 4202.051, 16170, 0, []
1627630986.817, 74, 0, 4204.615, 4206.667, 4143.59, 4135.897, 4198.462, 450, 0, []
1627630986.8249, 75, 0, 4200.513, 4195.385, 4144.103, 4126.667, 4192.821, 16189, 0, []
1627630986.8329, 76, 0, 4207.179, 4203.077, 4160, 4137.949, 4198.462, 450, 0, []
1627630986.8408, 77, 0, 4206.154, 4202.564, 4147.692, 4138.462, 4202.564, 450, 0, []
1627630986.8486, 78, 0, 4201.026, 4194.359, 4140, 4131.282, 4200, 450, 0, []
1627630986.8564, 79, 0, 4208.718, 4201.026, 4154.359, 4146.154, 4202.051, 16189, 0, []
1627630986.8642, 80, 0, 4208.205, 4204.103, 4147.179, 4153.333, 4199.487, 450, 0, []
1627630986.8721, 81, 0, 4195.385, 4203.59, 4138.974, 4138.974, 4192.821, 450, 0, []
1627630986.8799, 82, 0, 4198.974, 4211.282, 4144.103, 4133.846, 4194.359, 450, 0, []
1627630986.8878, 83, 0, 4202.564, 4201.026, 4140.513, 4130.769, 4191.795, 16189, 0, []
1627630986.8956, 84, 0, 4193.333, 4188.205, 4129.231, 4127.179, 4186.667, 450, 0, []
1627630986.9034, 85, 0, 4198.974, 4201.026, 4136.41, 4144.103, 4197.436, 450, 0, []
1627630986.9112, 86, 0, 4201.026, 4209.231, 4154.359, 4161.538, 4201.538, 450, 0, []
1627630986.9191, 87, 0, 4185.641, 4198.462, 4150.256, 4150.769, 4187.179, 16189, 0, []
1627630986.9269, 88, 0, 4181.538, 4193.846, 4142.051, 4128.718, 4181.538, 450, 0, []
1627630986.9349, 89, 0, 4187.179, 4193.846, 4137.949, 4120.513, 4185.128, 450, 0, []
1627630986.9427, 90, 0, 4186.667, 4196.41, 4129.744, 4128.718, 4190.256, 450, 0, []
1627630986.9507, 91, 0, 4193.846, 4211.795, 4138.462, 4133.846, 4197.949, 16189, 0, []
1627630986.9586, 92, 0, 4211.282, 4214.872, 4147.179, 4127.692, 4208.205, 450, 0, []
1627630986.9666, 93, 0, 4229.744, 4211.795, 4152.821, 4133.846, 4225.128, 450, 0, []
1627630986.9745, 94, 0, 4243.59, 4222.051, 4152.821, 4148.205, 4243.59, 450, 0, []
1627630986.9824, 95, 0, 4246.154, 4218.462, 4140, 4144.103, 4248.205, 16189, 0, []
1627630986.9903, 96, 0, 4248.718, 4198.974, 4144.615, 4132.821, 4250.256, 450, 0, []
1627630986.9983, 97, 0, 4269.744, 4195.897, 4151.795, 4145.128, 4275.897, 450, 0, []
1627630987.0062, 98, 0, 4289.744, 4205.641, 4144.103, 4155.897, 4301.538, 450, 0, []
1627630987.014, 99, 0, 4290.769, 4200, 4136.923, 4141.026, 4301.538, 16189, 0, []
1627630987.0218, 100, 0, 4302.564, 4200.513, 4137.436, 4132.821, 4308.718, 450, 0, []
1627630987.0296, 101, 0, 4333.333, 4217.949, 4153.846, 4150.769, 4339.487, 450, 0, []
1627630987.0375, 102, 0, 4348.205, 4214.359, 4161.026, 4163.077, 4358.462, 450, 0, []
1627630987.0453, 103, 0, 4353.846, 4205.128, 4155.385, 4153.333, 4360.513, 16189, 0, []
1627630987.0532, 104, 0, 4379.487, 4212.821, 4152.821, 4144.103, 4376.923, 450, 0, []
1627630987.0609, 105, 0, 4404.103, 4210.769, 4148.205, 4140, 4403.59, 450, 0, []
1627630987.0688, 106, 0, 4410.256, 4205.128, 4153.846, 4142.051, 4423.59, 450, 0, []
1627630987.0766, 107, 0, 4410.256, 4217.949, 4161.538, 4161.026, 4437.436, 16189, 0, []
1627630987.0846, 108, 0, 4396.41, 4222.564, 4164.615, 4170.256, 4428.205, 450, 0, []
1627630987.0925, 109, 0, 4363.077, 4212.308, 4166.667, 4154.359, 4395.385, 450, 0, []
1627630987.1004, 110, 0, 4342.051, 4214.872, 4153.846, 4156.923, 4372.308, 450, 0, []
1627630987.1083, 111, 0, 4324.615, 4214.359, 4146.154, 4172.308, 4348.718, 16189, 0, []
1627630987.1163, 112, 0, 4286.667, 4200.513, 4143.59, 4153.846, 4302.564, 450, 0, []
1627630987.1242, 113, 0, 4257.436, 4195.385, 4140.513, 4135.385, 4264.615, 450, 0, []
1627630987.1322, 114, 0, 4243.077, 4201.538, 4141.026, 4146.667, 4247.692, 450, 0, []
1627630987.14, 115, 0, 4226.154, 4209.231, 4134.359, 4153.333, 4231.282, 16189, 0, []
1627630987.148, 116, 0, 4214.359, 4209.744, 4145.128, 4153.333, 4215.385, 450, 0, []
1627630987.1559, 117, 0, 4193.846, 4202.051, 4152.821, 4152.821, 4192.308, 450, 0, []
1627630987.1637, 118, 0, 4163.077, 4198.462, 4135.897, 4137.949, 4167.692, 450, 0, []
1627630987.1716, 119, 0, 4149.231, 4196.923, 4138.462, 4132.308, 4157.949, 16189, 0, []
1627630987.1793, 120, 0, 4159.487, 4194.359, 4157.436, 4149.744, 4165.641, 450, 0, []
1627630987.1872, 121, 0, 4171.282, 4204.615, 4169.231, 4168.205, 4178.462, 450, 0, []
1627630987.195, 122, 0, 4169.744, 4222.051, 4167.179, 4169.231, 4176.41, 450, 0, []
1627630987.2029, 123, 0, 4175.897, 4221.538, 4160, 4169.744, 4175.897, 16189, 0, []
1627630987.2107, 124, 0, 4184.615, 4213.846, 4163.077, 4176.41, 4184.103, 450, 0, []
1627630987.2185, 125, 0, 4169.744, 4215.385, 4160, 4175.385, 4177.949, 450, 0, []
1627630987.2263, 126, 0, 4157.949, 4214.872, 4160, 4171.795, 4165.641, 450, 0, []
1627630987.2342, 127, 0, 4162.564, 4211.282, 4160.513, 4171.282, 4163.59, 16189, 0, []
1627630987.2421, 128, 0, 4151.282, 4212.821, 4138.462, 4158.974, 4156.41, 450, 0, []
1627630987.2499, 0, 0, 4138.974, 4215.897, 4132.821, 4151.795, 4147.179, 450, 0, []
1627630987.2578, 1, 0, 4150.769, 4217.949, 4145.641, 4171.282, 4158.462, 450, 0, []
1627630987.2657, 2, 0, 4140, 4208.718, 4133.333, 4170.256, 4151.282, 16170, 0, []
1627630987.2736, 3, 0, 4114.872, 4203.59, 4113.333, 4150.769, 4122.564, 450, 0, []
1627630987.2816, 4, 0, 4125.128, 4209.231, 4116.41, 4156.923, 4115.385, 16170, 0, []
1627630987.2895, 5, 0, 4145.128, 4209.744, 4136.41, 4167.692, 4126.154, 450, 0, []
1627630987.2974, 6, 0, 4134.359, 4203.077, 4136.41, 4157.436, 4121.026, 266, 0, []
1627630987.3053, 7, 0, 4114.872, 4199.487, 4129.744, 4147.692, 4103.59, 450, 0, []
1627630987.3133, 8, 0, 4117.436, 4203.077, 4143.077, 4156.923, 4103.59, 450, 0, []
1627630987.3212, 9, 0, 4126.667, 4199.487, 4153.846, 4164.615, 4109.744, 16163, 0, []
1627630987.329, 10, 0, 4118.462, 4185.128, 4149.231, 4149.231, 4102.051, 450, 0, []
1627630987.3368, 11, 0, 4105.641, 4184.615, 4130.769, 4132.821, 4088.718, 16190, 0, []
1627630987.3446, 12, 0, 4103.077, 4201.026, 4134.872, 4140.513, 4086.154, 450, 0, []
1627630987.3525, 13, 0, 4092.821, 4200, 4153.846, 4146.154, 4083.59, 450, 0, []
1627630987.3603, 14, 0, 4086.154, 4183.077, 4137.949, 4144.615, 4080.513, 450, 0, []
1627630987.3682, 15, 0, 4096.923, 4181.026, 4123.59, 4147.692, 4084.615, 16190, 0, []
1627630987.3759, 16, 0, 4102.051, 4184.615, 4132.308, 4145.641, 4088.205, 0, 0, []
1627630987.3838, 17, 0, 4103.077, 4193.846, 4146.154, 4150.256, 4092.821, 0, 0, []
1627630987.3916, 18, 0, 4106.667, 4213.846, 4147.692, 4158.462, 4092.821, 0, 0, []
1627630987.3996, 19, 0, 4097.436, 4220, 4129.231, 4149.744, 4077.949, 0, 0, []
1627630987.4075, 20, 0, 4087.692, 4206.154, 4121.538, 4143.59, 4068.718, 0, 0, []
1627630987.4154, 21, 0, 4090.769, 4198.974, 4127.179, 4148.718, 4072.821, 0, 0, []
1627630987.4233, 22, 0, 4092.821, 4203.59, 4126.667, 4142.564, 4078.462, 0, 0, []
1627630987.4313, 23, 0, 4080, 4197.436, 4126.154, 4130.256, 4068.718, 0, 0, []
1627630987.4392, 24, 0, 4074.872, 4180, 4130.256, 4140.513, 4060, 0, 0, []
1627630987.4472, 25, 0, 4083.59, 4182.564, 4142.051, 4163.077, 4069.231, 0, 0, []
1627630987.455, 26, 0, 4073.846, 4205.641, 4143.077, 4176.923, 4070.769, 0, 0, []
1627630987.463, 27, 0, 4045.641, 4207.179, 4133.333, 4171.795, 4042.051, 0, 0, []
1627630987.4709, 28, 0, 4018.974, 4189.744, 4129.744, 4143.077, 4003.077, 0, 0, []
1627630987.4787, 29, 0, 4009.744, 4190.256, 4122.564, 4123.59, 3993.333, 0, 0, []
1627630987.4866, 30, 0, 4034.359, 4206.154, 4133.846, 4138.462, 4023.077, 0, 0, []
1627630987.4943, 31, 0, 4063.59, 4209.231, 4153.846, 4154.872, 4049.231, 0, 0, []
1627630987.5022, 32, 0, 4050.769, 4194.359, 4142.051, 4152.308, 4037.436, 0, 0, []
1627630987.51, 33, 0, 4028.205, 4187.179, 4138.974, 4164.615, 4022.051, 0, 0, []
1627630987.5179, 34, 0, 4043.077, 4189.744, 4149.231, 4182.051, 4035.897, 0, 0, []
1627630987.5257, 35, 0, 4052.308, 4178.974, 4138.974, 4163.59, 4037.949, 0, 0, []
1627630987.5335, 36, 0, 4035.897, 4167.692, 4119.487, 4138.462, 4018.974, 0, 0, []
1627630987.5413, 37, 0, 4025.128, 4164.615, 4115.897, 4128.205, 4006.154, 0, 0, []
1627630987.5493, 38, 0, 4025.641, 4163.59, 4126.154, 4115.897, 4002.051, 0, 0, []
1627630987.5572, 39, 0, 4040.513, 4174.359, 4126.667, 4120, 4014.872, 0, 0, []
1627630987.5652, 40, 0, 4052.308, 4185.128, 4124.103, 4136.41, 4031.282, 0, 0, []
1627630987.573, 41, 0, 4044.103, 4183.59, 4130.256, 4138.462, 4029.231, 0, 0, []
1627630987.581, 42, 0, 4045.641, 4189.744, 4135.897, 4146.154, 4034.359, 0, 0, []
1627630987.5889, 43, 0, 4060.513, 4191.282, 4140.513, 4160.513, 4045.641, 0, 0, []
1627630987.5969, 44, 0, 4054.359, 4169.744, 4123.59, 4147.179, 4033.333, 0, 0, []
1627630987.6048, 45, 0, 4045.641, 4162.564, 4107.692, 4127.692, 4021.026, 0, 0, []
1627630987.6127, 46, 0, 4064.615, 4183.077, 4128.718, 4134.359, 4037.949, 0, 0, []
1627630987.6206, 47, 0, 4082.051, 4198.974, 4141.026, 4142.051, 4056.923, 0, 0, []
1627630987.6284, 48, 0, 4078.974, 4196.41, 4131.795, 4138.974, 4056.923, 0, 0, []
1627630987.6363, 49, 0, 4078.462, 4186.667, 4127.692, 4145.641, 4058.974, 0, 0, []
1627630987.6441, 50, 0, 4091.282, 4185.641, 4130.256, 4160.513, 4070.256, 0, 0, []
1627630987.652, 51, 0, 4088.205, 4186.154, 4126.154, 4156.41, 4064.615, 0, 0, []
1627630987.6597, 52, 0, 4070.769, 4188.205, 4118.462, 4138.974, 4046.667, 0, 0, []
1627630987.6676, 53, 0, 4070.769, 4194.872, 4124.103, 4133.846, 4044.103, 0, 0, []
1627630987.6754, 54, 0, 4084.615, 4193.333, 4125.128, 4144.103, 4058.462, 0, 0, []
1627630987.6834, 55, 0, 4090.256, 4185.641, 4119.487, 4146.667, 4069.231, 0, 0, []
1627630987.6913, 56, 0, 4092.821, 4183.077, 4124.615, 4136.41, 4069.231, 0, 0, []
1627630987.6992, 57, 0, 4105.641, 4181.538, 4132.308, 4145.128, 4079.487, 0, 0, []
1627630987.7071, 58, 0, 4118.462, 4187.692, 4148.718, 4173.333, 4098.462, 0, 0, []
1627630987.7151, 59, 0, 4104.615, 4196.923, 4141.538, 4171.795, 4088.205, 0, 0, []
1627630987.723, 60, 0, 4067.692, 4180, 4107.179, 4128.205, 4046.154, 0, 0, []
1627630987.731, 61, 0, 4066.667, 4172.821, 4123.59, 4123.077, 4040.513, 0, 0, []
1627630987.7388, 62, 0, 4096.41, 4189.231, 4151.282, 4157.949, 4070.769, 0, 0, []
1627630987.7468, 63, 0, 4091.282, 4175.897, 4133.846, 4145.641, 4069.231, 0, 0, []
1627630987.7547, 64, 0, 4083.59, 4167.692, 4122.564, 4126.154, 4064.615, 450, 0, []
1627630987.7627, 65, 0, 4116.923, 4195.897, 4137.436, 4160, 4097.436, 450, 0, []
1627630987.7706, 66, 0, 4133.846, 4198.974, 4139.487, 4184.615, 4116.923, 16113, 0, []
1627630987.7783, 67, 0, 4106.154, 4177.949, 4117.436, 4153.333, 4093.846, 450, 0, []
1627630987.7862, 68, 0, 4093.846, 4181.026, 4121.026, 4130.256, 4077.949, 16138, 0, []
1627630987.794, 69, 0, 4102.564, 4180.513, 4135.385, 4145.641, 4088.205, 450, 0, []
1627630987.802, 70, 0, 4093.846, 4164.103, 4122.051, 4154.359, 4086.667, 266, 0, []
1627630987.8099, 71, 0, 4081.026, 4169.744, 4120.513, 4142.051, 4069.744, 450, 0, []
1627630987.8177, 72, 0, 4088.205, 4181.026, 4122.564, 4131.795, 4064.615, 450, 0, []
1627630987.8255, 73, 0, 4101.026, 4176.41, 4109.231, 4122.051, 4068.205, 16169, 0, []
1627630987.8335, 74, 0, 4144.103, 4181.538, 4118.462, 4118.462, 4096.923, 450, 0, []
1627630987.8415, 75, 0, 4234.359, 4210.769, 4147.692, 4151.795, 4171.282, 16192, 0, []
1627630987.8494, 76, 0, 4292.308, 4238.974, 4156.923, 4176.923, 4225.641, 450, 0, []
1627630987.8573, 77, 0, 4286.154, 4225.128, 4135.385, 4152.308, 4216.923, 450, 0, []
1627630987.8652, 78, 0, 4283.077, 4191.795, 4122.564, 4124.103, 4203.077, 450, 0, []
1627630987.8732, 79, 0, 4289.744, 4186.667, 4122.564, 4114.359, 4203.59, 16192, 0, []
1627630987.8811, 80, 0, 4278.462, 4202.564, 4112.308, 4109.744, 4190.256, 450, 0, []
1627630987.8891, 81, 0, 4272.821, 4212.308, 4121.538, 4118.974, 4186.667, 450, 0, []
1627630987.8969, 82, 0, 4278.974, 4212.821, 4137.949, 4134.359, 4202.051, 450, 0, []
1627630987.9049, 83, 0, 4275.385, 4214.359, 4140.513, 4141.026, 4206.667, 16192, 0, []
1627630987.9128, 84, 0, 4257.949, 4220, 4132.821, 4133.333, 4191.795, 450, 0, []
1627630987.9208, 85, 0, 4245.641, 4213.846, 4124.615, 4116.923, 4179.487, 450, 0, []
1627630987.9287, 86, 0, 4252.308, 4203.077, 4140.513, 4117.436, 4187.179, 450, 0, []
1627630987.9366, 87, 0, 4251.282, 4207.692, 4147.692, 4124.103, 4186.154, 16192, 0, []
1627630987.9445, 88, 0, 4232.308, 4211.282, 4136.923, 4111.795, 4169.744, 450, 0, []
1627630987.9525, 89, 0, 4235.385, 4210.256, 4152.821, 4120, 4178.974, 450, 0, []
1627630987.9604, 90, 0, 4256.923, 4226.667, 4164.615, 4148.205, 4207.692, 450, 0, []
1627630987.9684, 91, 0, 4237.949, 4222.051, 4133.846, 4131.282, 4188.718, 16192, 0, []
1627630987.9762, 92, 0, 4204.615, 4197.436, 4113.333, 4104.103, 4150.256, 450, 0, []
1627630987.9842, 93, 0, 4226.154, 4213.846, 4140.513, 4136.41, 4175.897, 450, 0, []
1627630987.9922, 94, 0, 4261.538, 4245.641, 4165.641, 4174.872, 4218.974, 450, 0, []
1627630988.0001, 95, 0, 4250.769, 4230.256, 4139.487, 4157.949, 4209.744, 16192, 0, []
1627630988.0081, 96, 0, 4235.385, 4205.128, 4118.462, 4133.846, 4195.897, 450, 0, []
1627630988.0159, 97, 0, 4248.205, 4224.615, 4131.795, 4145.641, 4214.359, 450, 0, []
1627630988.0239, 98, 0, 4252.308, 4247.179, 4136.923, 4159.487, 4225.128, 450, 0, []
1627630988.0319, 99, 0, 4240.513, 4241.538, 4138.462, 4154.359, 4217.949, 16192, 0, []
1627630988.0398, 100, 0, 4234.359, 4231.795, 4134.872, 4147.179, 4214.872, 450, 0, []
1627630988.0478, 101, 0, 4233.333, 4225.641, 4140, 4154.872, 4215.385, 450, 0, []
1627630988.0556, 102, 0, 4233.846, 4215.897, 4153.846, 4171.795, 4216.41, 450, 0, []
1627630988.0636, 103, 0, 4233.333, 4217.949, 4154.359, 4172.308, 4213.333, 16192, 0, []
1627630988.0715, 104, 0, 4229.231, 4235.385, 4157.436, 4160.513, 4204.103, 450, 0, []
1627630988.0795, 105, 0, 4217.436, 4224.103, 4145.128, 4148.205, 4196.923, 450, 0, []
1627630988.0874, 106, 0, 4207.692, 4197.949, 4131.282, 4137.949, 4193.333, 450, 0, []
1627630988.0953, 107, 0, 4213.333, 4211.282, 4147.692, 4142.051, 4198.462, 16192, 0, []
1627630988.1032, 108, 0, 4221.026, 4234.872, 4157.949, 4149.744, 4203.077, 450, 0, []
1627630988.1112, 109, 0, 4220.513, 4230.256, 4152.308, 4147.179, 4201.538, 450, 0, []
1627630988.1191, 110, 0, 4228.718, 4235.897, 4152.308, 4151.795, 4212.821, 450, 0, []
1627630988.1271, 111, 0, 4236.923, 4251.795, 4158.462, 4157.949, 4221.538, 16192, 0, []
1627630988.1349, 112, 0, 4233.846, 4238.462, 4159.487, 4154.872, 4217.436, 450, 0, []
1627630988.1429, 113, 0, 4230.256, 4226.154, 4153.333, 4156.41, 4218.974, 450, 0, []
1627630988.1508, 114, 0, 4220, 4229.744, 4148.718, 4148.718, 4208.718, 450, 0, []
1627630988.1588, 115, 0, 4209.744, 4219.487, 4143.077, 4138.462, 4197.436, 16192, 0, []
1627630988.1668, 116, 0, 4226.667, 4223.077, 4157.436, 4162.564, 4221.538, 450, 0, []
1627630988.1746, 117, 0, 4245.128, 4244.615, 4160, 4178.462, 4238.974, 450, 0, []
1627630988.1826, 118, 0, 4243.59, 4244.103, 4137.949, 4157.436, 4226.154, 450, 0, []
1627630988.1905, 119, 0, 4247.692, 4229.744, 4147.179, 4148.718, 4237.436, 16192, 0, []
1627630988.1985, 120, 0, 4255.897, 4225.128, 4161.026, 4163.59, 4254.359, 450, 0, []
1627630988.2064, 121, 0, 4240.513, 4224.103, 4154.359, 4164.103, 4238.974, 450, 0, []
1627630988.2142, 122, 0, 4218.462, 4231.282, 4150.769, 4153.846, 4221.538, 450, 0, []
1627630988.2222, 123, 0, 4219.487, 4244.103, 4145.641, 4158.462, 4219.487, 16192, 0, []
1627630988.2302, 124, 0, 4231.795, 4242.051, 4155.897, 4171.282, 4217.436, 450, 0, []
1627630988.2382, 125, 0, 4231.282, 4230.256, 4169.744, 4175.385, 4214.872, 450, 0, []
1627630988.2461, 126, 0, 4227.179, 4229.744, 4163.59, 4166.154, 4220, 450, 0, []
1627630988.254, 127, 0, 4231.795, 4236.41, 4165.641, 4157.949, 4234.872, 16192, 0, []
1627630988.262, 128, 0, 4237.436, 4227.179, 4158.462, 4155.897, 4235.385, 450, 0, []
1627630988.2699, 0, 0, 4233.333, 4209.744, 4143.59, 4153.333, 4218.974, 450, 0, []
1627630988.2779, 1, 0, 4229.231, 4213.846, 4147.179, 4154.359, 4219.487, 450, 0, []
1627630988.2858, 2, 0, 4237.949, 4238.974, 4155.385, 4162.564, 4233.333, 16158, 0, []
1627630988.2937, 3, 0, 4250.256, 4249.744, 4166.667, 4176.41, 4242.564, 450, 0, []
1627630988.3016, 4, 0, 4250.769, 4234.359, 4175.385, 4187.179, 4246.154, 16162, 0, []
1627630988.3096, 5, 0, 4249.231, 4231.282, 4172.821, 4187.179, 4243.077, 450, 0, []
1627630988.3175, 6, 0, 4243.59, 4233.846, 4155.897, 4173.846, 4234.872, 271, 0, []
1627630988.3255, 7, 0, 4230.256, 4218.462, 4143.59, 4159.487, 4227.179, 450, 0, []
1627630988.3333, 8, 0, 4234.872, 4218.974, 4151.282, 4164.103, 4230.256, 450, 0, []
1627630988.3413, 9, 0, 4246.154, 4235.385, 4142.564, 4174.359, 4232.308, 16170, 0, []
1627630988.3492, 10, 0, 4232.821, 4223.59, 4128.205, 4166.154, 4223.077, 450, 0, []
1627630988.3572, 11, 0, 4227.179, 4209.231, 4138.974, 4158.462, 4222.051, 16192, 0, []
1627630988.3651, 12, 0, 4255.385, 4234.872, 4157.949, 4176.41, 4246.667, 450, 0, []
1627630988.373, 13, 0, 4283.077, 4253.333, 4173.846, 4203.59, 4277.949, 450, 0, []
1627630988.3809, 14, 0, 4282.051, 4238.974, 4169.231, 4208.205, 4282.564, 450, 0, []
1627630988.3889, 15, 0, 4263.077, 4232.308, 4152.308, 4185.128, 4263.077, 16192, 0, []
1627630988.3969, 16, 0, 4251.795, 4229.744, 4141.538, 4170.769, 4246.154, 0, 0, []
1627630988.4048, 17, 0, 4244.615, 4217.949, 4133.333, 4171.795, 4239.487, 0, 0, []
1627630988.4126, 18, 0, 4231.282, 4219.487, 4136.923, 4163.59, 4233.333, 0, 0, []
1627630988.4206, 19, 0, 4235.897, 4233.333, 4139.487, 4163.59, 4235.385, 0, 0, []
1627630988.4286, 20, 0, 4244.103, 4217.436, 4132.308, 4166.154, 4238.462, 0, 0, []
1627630988.4365, 21, 0, 4228.205, 4198.462, 4125.641, 4152.308, 4222.564, 0, 0, []
1627630988.4445, 22, 0, 4237.949, 4227.692, 4141.026, 4164.615, 4229.744, 0, 0, []
1627630988.4523, 23, 0, 4266.154, 4243.077, 4166.154, 4193.333, 4257.436, 0, 0, []
1627630988.4603, 24, 0, 4250.769, 4208.205, 4151.282, 4176.41, 4247.179, 0, 0, []
1627630988.4682, 25, 0, 4240, 4202.051, 4134.872, 4161.538, 4235.897, 0, 0, []
1627630988.4762, 26, 0, 4266.667, 4240.513, 4157.436, 4186.667, 4260.513, 0, 0, []
1627630988.4841, 27, 0, 4270.256, 4241.538, 4157.949, 4191.795, 4269.231, 0, 0, []
1627630988.492, 28, 0, 4247.179, 4208.205, 4137.436, 4169.231, 4246.667, 0, 0, []
1627630988.4999, 29, 0, 4231.282, 4206.154, 4130.256, 4151.795, 4229.231, 0, 0, []
1627630988.5079, 30, 0, 4233.333, 4216.923, 4143.59, 4153.333, 4231.282, 0, 0, []
1627630988.5158, 31, 0, 4248.718, 4215.385, 4163.077, 4170.769, 4243.077, 0, 0, []
1627630988.5238, 32, 0, 4258.974, 4213.333, 4152.308, 4181.538, 4249.744, 0, 0, []
1627630988.5316, 33, 0, 4246.154, 4208.205, 4133.846, 4169.231, 4240, 0, 0, []
1627630988.5396, 34, 0, 4228.205, 4196.923, 4134.359, 4153.333, 4222.051, 0, 0, []
1627630988.5475, 35, 0, 4235.385, 4203.59, 4144.615, 4165.128, 4225.128, 0, 0, []
1627630988.5555, 36, 0, 4251.282, 4224.615, 4155.897, 4189.744, 4243.59, 0, 0, []
1627630988.5634, 37, 0, 4260, 4234.872, 4160.513, 4201.026, 4252.821, 0, 0, []
1627630988.5713, 38, 0, 4265.128, 4236.41, 4173.333, 4206.667, 4251.795, 0, 0, []
1627630988.5793, 39, 0, 4251.795, 4222.564, 4170.256, 4207.692, 4236.41, 0, 0, []
1627630988.5872, 40, 0, 4231.282, 4210.769, 4152.821, 4201.538, 4225.641, 0, 0, []
1627630988.5952, 41, 0, 4239.487, 4225.641, 4160.513, 4207.179, 4235.385, 0, 0, []
1627630988.6031, 42, 0, 4252.308, 4237.436, 4161.538, 4215.897, 4244.615, 0, 0, []
1627630988.6111, 43, 0, 4233.846, 4227.692, 4143.077, 4197.436, 4226.154, 0, 0, []
1627630988.6189, 44, 0, 4226.667, 4225.641, 4147.179, 4182.564, 4214.359, 0, 0, []
1627630988.6269, 45, 0, 4236.923, 4228.718, 4151.795, 4189.744, 4221.538, 0, 0, []
1627630988.6348, 46, 0, 4220, 4212.821, 4137.949, 4185.128, 4204.615, 0, 0, []
1627630988.6428, 47, 0, 4209.744, 4199.487, 4137.949, 4180, 4192.308, 0, 0, []
1627630988.6507, 48, 0, 4243.077, 4213.846, 4165.641, 4204.615, 4226.667, 0, 0, []
1627630988.6586, 49, 0, 4266.154, 4234.359, 4181.026, 4222.564, 4254.359, 0, 0, []
1627630988.6665, 50, 0, 4250.256, 4223.59, 4162.564, 4201.538, 4243.077, 0, 0, []
1627630988.6745, 51, 0, 4244.103, 4208.718, 4159.487, 4186.667, 4238.462, 0, 0, []
1627630988.6824, 52, 0, 4261.026, 4233.333, 4174.359, 4204.103, 4254.872, 0, 0, []
1627630988.6904, 53, 0, 4261.026, 4247.179, 4171.282, 4211.795, 4255.385, 0, 0, []
1627630988.6982, 54, 0, 4245.128, 4220, 4156.923, 4197.436, 4242.564, 0, 0, []
1627630988.7062, 55, 0, 4243.077, 4206.154, 4153.333, 4195.385, 4244.615, 0, 0, []
1627630988.7142, 56, 0, 4249.744, 4212.308, 4162.564, 4201.026, 4247.179, 0, 0, []
1627630988.7221, 57, 0, 4239.487, 4208.718, 4142.564, 4189.231, 4232.821, 0, 0, []
1627630988.7301, 58, 0, 4228.718, 4200, 4119.487, 4174.872, 4225.641, 0, 0, []
1627630988.7379, 59, 0, 4235.897, 4190.256, 4126.667, 4168.718, 4231.795, 0, 0, []
1627630988.7459, 60, 0, 4240, 4188.205, 4130.256, 4164.103, 4227.179, 0, 0, []
1627630988.7538, 61, 0, 4260.513, 4221.026, 4155.897, 4190.256, 4243.59, 0, 0, []
1627630988.7618, 62, 0, 4298.462, 4251.282, 4196.41, 4238.974, 4285.641, 0, 0, []
1627630988.7697, 63, 0, 4294.359, 4237.949, 4189.744, 4236.923, 4286.667, 0, 0, []
1627630988.7776, 64, 0, 4260.513, 4216.923, 4162.051, 4196.923, 4253.846, 450, 0, []
1627630988.7855, 65, 0, 4260, 4215.385, 4158.462, 4184.103, 4246.154, 450, 0, []
1627630988.7935, 66, 0, 4267.692, 4216.41, 4171.282, 4188.205, 4252.821, 16164, 0, []
1627630988.8014, 67, 0, 4249.231, 4219.487, 4170.769, 4186.154, 4245.128, 450, 0, []
1627630988.8094, 68, 0, 4240.513, 4219.487, 4168.205, 4194.872, 4240, 16166, 0, []
1627630988.8172, 69, 0, 4243.59, 4213.333, 4170.256, 4201.538, 4242.564, 450, 0, []
1627630988.8252, 70, 0, 4247.692, 4220.513, 4164.103, 4201.026, 4253.846, 271, 0, []
1627630988.8331, 71, 0, 4264.615, 4233.333, 4168.205, 4205.641, 4268.718, 450, 0, []
1627630988.8411, 72, 0, 4263.59, 4219.487, 4167.692, 4190.769, 4257.949, 450, 0, []
1627630988.849, 73, 0, 4242.564, 4196.41, 4154.359, 4160, 4236.923, 16169, 0, []
1627630988.8569, 74, 0, 4227.692, 4199.487, 4153.333, 4154.872, 4224.615, 450, 0, []
1627630988.8648, 75, 0, 4214.872, 4201.026, 4144.615, 4170.256, 4213.333, 16192, 0, []
1627630988.8728, 76, 0, 4219.487, 4197.436, 4148.205, 4194.359, 4223.59, 450, 0, []
1627630988.8807, 77, 0, 4231.795, 4202.564, 4167.179, 4214.872, 4241.026, 450, 0, []
1627630988.8887, 78, 0, 4209.744, 4189.744, 4150.769, 4198.974, 4216.923, 450, 0, []
1627630988.8965, 79, 0, 4202.564, 4188.718, 4144.615, 4176.41, 4204.615, 16192, 0, []
1627630988.9045, 80, 0, 4240.513, 4223.077, 4168.718, 4188.205, 4243.59, 450, 0, []
1627630988.9125, 81, 0, 4249.744, 4229.744, 4177.436, 4186.667, 4250.256, 450, 0, []
1627630988.9204, 82, 0, 4226.667, 4205.641, 4168.205, 4170.769, 4225.128, 450, 0, []
1627630988.9284, 83, 0, 4224.615, 4210.769, 4158.462, 4181.026, 4225.128, 16192, 0, []
1627630988.9362, 84, 0, 4220, 4225.128, 4162.564, 4187.692, 4223.59, 450, 0, []
1627630988.9442, 85, 0, 4212.821, 4218.462, 4171.795, 4181.026, 4213.846, 450, 0, []
1627630988.9521, 86, 0, 4218.974, 4212.308, 4178.974, 4186.154, 4217.436, 450, 0, []
1627630988.9601, 87, 0, 4215.385, 4210.769, 4176.41, 4185.641, 4217.949, 16192, 0, []
1627630988.968, 88, 0, 4212.308, 4215.385, 4176.41, 4185.641, 4215.897, 450, 0, []
1627630988.9759, 89, 0, 4217.949, 4221.026, 4184.103, 4197.436, 4223.077, 450, 0, []
1627630988.9838, 90, 0, 4218.974, 4220, 4176.41, 4203.59, 4231.282, 450, 0, []
1627630988.9918, 91, 0, 4218.462, 4217.436, 4168.718, 4195.385, 4231.282, 16192, 0, []
1627630988.9998, 92, 0, 4208.205, 4208.205, 4164.103, 4184.615, 4217.436, 450, 0, []
1627630989.0077, 93, 0, 4198.462, 4205.128, 4157.949, 4183.59, 4212.308, 450, 0, []
1627630989.0155, 94, 0, 4210.256, 4217.949, 4169.231, 4188.718, 4229.744, 450, 0, []
1627630989.0235, 95, 0, 4218.462, 4214.872, 4166.667, 4184.615, 4233.333, 16192, 0, []
1627630989.0314, 96, 0, 4204.103, 4199.487, 4148.718, 4173.333, 4217.436, 450, 0, []
1627630989.0394, 97, 0, 4200, 4202.051, 4155.897, 4173.333, 4216.41, 450, 0, []
1627630989.0474, 98, 0, 4220.513, 4215.897, 4174.359, 4197.436, 4236.923, 450, 0, []
1627630989.0552, 99, 0, 4238.974, 4225.641, 4180.513, 4218.974, 4253.846, 16192, 0, []
1627630989.0631, 100, 0, 4232.821, 4226.667, 4161.538, 4203.59, 4245.641, 450, 0, []
1627630989.0711, 101, 0, 4211.795, 4213.333, 4136.923, 4176.923, 4222.564, 450, 0, []
1627630989.0791, 102, 0, 4206.154, 4202.564, 4145.128, 4180.513, 4212.821, 450, 0, []
1627630989.087, 103, 0, 4211.282, 4200.513, 4153.846, 4188.718, 4216.923, 16192, 0, []
1627630989.0949, 104, 0, 4212.308, 4200, 4152.821, 4184.615, 4224.103, 450, 0, []
1627630989.1028, 105, 0, 4217.436, 4204.103, 4156.923, 4189.231, 4229.744, 450, 0, []
1627630989.1108, 106, 0, 4214.872, 4203.077, 4150.769, 4180.513, 4218.974, 450, 0, []
1627630989.1188, 107, 0, 4206.667, 4191.795, 4148.718, 4168.205, 4207.692, 16192, 0, []
1627630989.1267, 108, 0, 4221.538, 4196.41, 4159.487, 4189.231, 4228.718, 450, 0, []
1627630989.1345, 109, 0, 4235.897, 4215.385, 4164.103, 4208.205, 4242.051, 450, 0, []
1627630989.1425, 110, 0, 4209.744, 4216.923, 4145.641, 4185.641, 4213.846, 450, 0, []
1627630989.1504, 111, 0, 4182.051, 4202.564, 4135.385, 4158.974, 4188.718, 16192, 0, []
1627630989.1584, 112, 0, 4192.821, 4208.205, 4150.769, 4163.077, 4195.385, 450, 0, []
1627630989.1663, 113, 0, 4205.641, 4221.026, 4145.128, 4171.795, 4205.641, 450, 0, []
1627630989.1742, 114, 0, 4200.513, 4210.769, 4138.462, 4168.205, 4200, 450, 0, []
1627630989.1822, 115, 0, 4198.974, 4197.949, 4151.282, 4167.179, 4198.462, 16192, 0, []
1627630989.1901, 116, 0, 4198.974, 4197.436, 4151.795, 4171.282, 4203.59, 450, 0, []
1627630989.1981, 117, 0, 4189.744, 4188.205, 4149.231, 4168.718, 4201.026, 450, 0, []
1627630989.206, 118, 0, 4195.385, 4188.205, 4154.872, 4167.179, 4206.154, 450, 0, []
1627630989.2139, 119, 0, 4213.846, 4205.641, 4159.487, 4175.897, 4220, 16192, 0, []
1627630989.2219, 120, 0, 4206.154, 4198.974, 4148.718, 4170.256, 4210.256, 450, 0, []
1627630989.2298, 121, 0, 4192.821, 4186.154, 4133.846, 4158.974, 4192.308, 450, 0, []
1627630989.2378, 122, 0, 4205.641, 4199.487, 4145.128, 4165.641, 4209.231, 450, 0, []
1627630989.2457, 123, 0, 4218.974, 4208.718, 4151.795, 4170.769, 4229.744, 16192, 0, []
1627630989.2536, 124, 0, 4221.026, 4204.103, 4149.231, 4174.872, 4228.718, 450, 0, []
1627630989.2615, 125, 0, 4217.436, 4202.051, 4153.846, 4185.128, 4223.59, 450, 0, []
1627630989.2695, 126, 0, 4205.128, 4199.487, 4143.077, 4176.41, 4212.821, 450, 0, []
1627630989.2774, 127, 0, 4197.949, 4197.436, 4139.487, 4165.128, 4205.641, 16192, 0, []
1627630989.2854, 128, 0, 4206.154, 4201.538, 4155.385, 4177.436, 4212.821, 450, 0, []
1627630989.2932, 0, 0, 4203.077, 4198.974, 4157.436, 4181.026, 4214.872, 450, 0, []
1627630989.3012, 1, 0, 4201.538, 4201.026, 4155.385, 4173.846, 4215.385, 450, 0, []
1627630989.3092, 2, 0, 4226.154, 4220.513, 4162.051, 4191.282, 4233.333, 16167, 0, []
1627630989.3171, 3, 0, 4233.846, 4216.923, 4161.026, 4204.103, 4240.513, 450, 0, []
1627630989.325, 4, 0, 4216.41, 4197.949, 4151.282, 4192.308, 4229.744, 16167, 0, []
1627630989.3329, 5, 0, 4217.949, 4209.231, 4157.436, 4186.154, 4229.744, 450, 0, []
1627630989.3408, 6, 0, 4224.615, 4220.513, 4164.103, 4186.154, 4224.615, 271, 0, []
1627630989.3488, 7, 0, 4216.923, 4209.231, 4154.872, 4182.564, 4212.821, 450, 0, []
1627630989.3568, 8, 0, 4217.436, 4214.359, 4164.615, 4186.154, 4224.103, 450, 0, []
1627630989.3647, 9, 0, 4221.026, 4224.615, 4166.667, 4184.615, 4232.308, 16166, 0, []
1627630989.3726, 10, 0, 4213.846, 4205.128, 4142.564, 4173.333, 4218.462, 450, 0, []
1627630989.3805, 11, 0, 4213.846, 4193.333, 4147.179, 4183.077, 4218.974, 16190, 0, []
1627630989.3885, 12, 0, 4217.436, 4202.564, 4164.103, 4201.026, 4229.744, 450, 0, []
1627630989.3964, 13, 0, 4213.846, 4204.615, 4160.513, 4200.513, 4222.051, 450, 0, []
1627630989.4044, 14, 0, 4211.795, 4209.744, 4156.923, 4194.872, 4211.795, 450, 0, []
1627630989.4122, 15, 0, 4218.462, 4218.462, 4161.538, 4193.846, 4218.974, 16190, 0, []
1627630989.4202, 16, 0, 4218.462, 4223.077, 4161.538, 4181.026, 4219.487, 0, 0, []
1627630989.4281, 17, 0, 4207.179, 4217.949, 4148.718, 4168.718, 4208.205, 0, 0, []
1627630989.4361, 18, 0, 4196.41, 4201.026, 4147.692, 4171.282, 4204.103, 0, 0, []
1627630989.444, 19, 0, 4197.949, 4201.538, 4156.923, 4175.385, 4209.231, 0, 0, []
1627630989.4519, 20, 0, 4214.872, 4223.077, 4160, 4184.103, 4223.59, 0, 0, []
1627630989.4598, 21, 0, 4207.692, 4214.359, 4153.846, 4176.41, 4212.308, 0, 0, []
1627630989.4678, 22, 0, 4182.051, 4191.795, 4139.487, 4153.333, 4184.103, 0, 0, []
1627630989.4757, 23, 0, 4201.538, 4215.897, 4156.41, 4165.641, 4197.436, 0, 0, []
1627630989.4837, 24, 0, 4241.026, 4247.179, 4181.026, 4205.641, 4236.41, 0, 0, []
1627630989.4916, 25, 0, 4233.333, 4235.385, 4164.615, 4213.846, 4238.462, 0, 0, []
1627630989.4995, 26, 0, 4200.513, 4212.308, 4149.744, 4185.128, 4209.231, 0, 0, []
1627630989.5075, 27, 0, 4198.974, 4209.744, 4155.385, 4171.282, 4201.538, 0, 0, []
1627630989.5154, 28, 0, 4223.077, 4222.564, 4162.051, 4184.103, 4216.923, 0, 0, []
1627630989.5234, 29, 0, 4233.846, 4231.282, 4161.026, 4189.231, 4223.077, 0, 0, []
1627630989.5312, 30, 0, 4211.282, 4218.462, 4144.615, 4168.718, 4201.026, 0, 0, []
1627630989.5391, 31, 0, 4187.179, 4195.385, 4138.974, 4151.795, 4178.462, 0, 0, []
1627630989.5471, 32, 0, 4207.692, 4203.077, 4164.615, 4173.333, 4199.487, 0, 0, []
1627630989.5551, 33, 0, 4238.974, 4224.615, 4183.59, 4195.897, 4233.846, 0, 0, []
1627630989.563, 34, 0, 4233.333, 4217.949, 4169.231, 4187.179, 4229.231, 0, 0, []
1627630989.5709, 35, 0, 4213.333, 4200, 4141.538, 4167.692, 4205.641, 0, 0, []
1627630989.5789, 36, 0, 4210.256, 4199.487, 4141.026, 4163.077, 4201.026, 0, 0, []
1627630989.5868, 37, 0, 4214.359, 4205.128, 4151.795, 4168.205, 4211.282, 0, 0, []
1627630989.5947, 38, 0, 4214.872, 4200.513, 4150.769, 4169.744, 4213.846, 0, 0, []
1627630989.6027, 39, 0, 4217.949, 4195.897, 4151.282, 4167.692, 4216.923, 0, 0, []
1627630989.6105, 40, 0, 4221.538, 4196.923, 4144.103, 4160, 4224.615, 0, 0, []
1627630989.6185, 41, 0, 4233.846, 4198.462, 4153.846, 4158.462, 4232.821, 0, 0, []
1627630989.6265, 42, 0, 4251.282, 4209.744, 4176.41, 4176.923, 4244.103, 0, 0, []
1627630989.6344, 43, 0, 4242.051, 4217.436, 4164.103, 4183.59, 4236.923, 0, 0, []
1627630989.6424, 44, 0, 4204.615, 4206.154, 4138.462, 4153.333, 4201.026, 0, 0, []
1627630989.6503, 45, 0, 4195.897, 4196.923, 4137.949, 4140.513, 4191.282, 0, 0, []
1627630989.6581, 46, 0, 4224.615, 4205.128, 4157.436, 4169.744, 4221.026, 0, 0, []
1627630989.6661, 47, 0, 4218.974, 4205.641, 4147.692, 4166.667, 4213.333, 0, 0, []
1627630989.6741, 48, 0, 4197.436, 4202.051, 4135.897, 4142.564, 4189.231, 0, 0, []
1627630989.682, 49, 0, 4223.077, 4216.923, 4165.128, 4171.282, 4217.949, 0, 0, []
1627630989.69, 50, 0, 4240.513, 4217.949, 4171.282, 4197.949, 4236.923, 0, 0, []
1627630989.6978, 51, 0, 4220, 4200.513, 4152.308, 4174.359, 4215.385, 0, 0, []
1627630989.7058, 52, 0, 4217.949, 4201.538, 4151.282, 4160, 4214.359, 0, 0, []
1627630989.7137, 53, 0, 4238.974, 4223.077, 4159.487, 4171.795, 4234.872, 0, 0, []
1627630989.7217, 54, 0, 4243.59, 4231.795, 4158.974, 4173.846, 4234.872, 0, 0, []
1627630989.7296, 55, 0, 4232.308, 4217.949, 4145.641, 4167.692, 4220, 0, 0, []
1627630989.7375, 56, 0, 4216.41, 4201.026, 4136.923, 4160, 4204.103, 0, 0, []
1627630989.7454, 57, 0, 4208.718, 4197.436, 4140.513, 4150.256, 4192.308, 0, 0, []
1627630989.7534, 58, 0, 4224.103, 4213.333, 4149.744, 4150.256, 4205.128, 0, 0, []
1627630989.7613, 59, 0, 4243.077, 4227.692, 4165.128, 4164.103, 4230.769, 0, 0, []
1627630989.7693, 60, 0, 4237.949, 4216.41, 4166.154, 4169.744, 4234.359, 0, 0, []
1627630989.7771, 61, 0, 4223.59, 4202.051, 4154.872, 4157.436, 4217.436, 0, 0, []
1627630989.7851, 62, 0, 4224.103, 4210.769, 4156.923, 4152.308, 4211.282, 0, 0, []
1627630989.793, 63, 0, 4232.308, 4222.564, 4160.513, 4167.179, 4222.051, 0, 0, []
1627630989.801, 64, 1, 4228.718, 4219.936, 4156.667, 4166.474, 4219.038, 450, 0, []
1627630989.8089, 65, 1, 4225.128, 4217.308, 4152.821, 4165.769, 4216.026, 450, 0, []
1627630989.8167, 66, 1, 4221.538, 4214.679, 4148.974, 4165.064, 4213.013, 16167, 0, []
1627630989.8246, 67, 1, 4217.949, 4212.051, 4145.128, 4164.359, 4210, 450, 0, []
1627630989.8325, 68, 1, 4214.359, 4209.423, 4141.282, 4163.654, 4206.987, 16167, 0, []
1627630989.8404, 69, 1, 4210.769, 4206.795, 4137.436, 4162.949, 4203.974, 450, 0, []
1627630989.8483, 70, 1, 4207.179, 4204.167, 4133.59, 4162.244, 4200.962, 271, 0, []
1627630989.8561, 71, 0, 4203.59, 4201.538, 4129.744, 4161.538, 4197.949, 450, 0, []
1627630989.8639, 72, 0, 4200.513, 4201.026, 4132.821, 4148.718, 4188.205, 450, 0, []
1627630989.8718, 73, 0, 4223.59, 4201.538, 4156.923, 4161.026, 4205.128, 16166, 0, []
1627630989.8797, 74, 0, 4241.538, 4218.974, 4174.872, 4180.513, 4225.128, 450, 0, []
1627630989.8875, 75, 0, 4225.641, 4222.051, 4160.513, 4171.282, 4212.308, 16190, 0, []
1627630989.8953, 76, 0, 4213.333, 4213.333, 4147.692, 4163.59, 4196.923, 450, 0, []
1627630989.9031, 77, 0, 4216.923, 4215.897, 4154.359, 4165.641, 4200, 450, 0, []
1627630989.9111, 78, 0, 4220, 4222.051, 4154.359, 4161.026, 4204.615, 450, 0, []
1627630989.919, 79, 0, 4216.41, 4214.359, 4148.205, 4152.308, 4201.538, 16190, 0, []
1627630989.9269, 80, 0, 4208.718, 4201.026, 4133.846, 4144.103, 4193.333, 450, 0, []
1627630989.9348, 81, 0, 4209.231, 4204.103, 4131.282, 4146.154, 4190.256, 450, 0, []
1627630989.9428, 82, 0, 4216.41, 4217.436, 4155.897, 4167.179, 4202.051, 450, 0, []
1627630989.9507, 83, 0, 4220.513, 4214.359, 4165.128, 4187.179, 4213.846, 16190, 0, []
1627630989.9586, 84, 0, 4216.923, 4200.513, 4158.974, 4181.538, 4211.282, 450, 0, []
1627630989.9666, 85, 0, 4202.051, 4201.538, 4149.744, 4161.538, 4194.359, 450, 0, []
1627630989.9744, 86, 0, 4188.718, 4206.667, 4136.41, 4153.333, 4184.615, 450, 0, []
1627630989.9824, 87, 0, 4193.846, 4195.897, 4136.41, 4150.256, 4188.718, 16190, 0, []
1627630989.9903, 88, 0, 4208.205, 4188.718, 4140, 4147.179, 4196.923, 450, 0, []
1627630989.9983, 89, 0, 4217.949, 4201.026, 4146.154, 4159.487, 4202.564, 450, 0, []
1627630990.0063, 90, 0, 4218.974, 4210.769, 4155.897, 4171.282, 4202.051, 450, 0, []
1627630990.0141, 91, 0, 4210.256, 4197.949, 4149.231, 4158.974, 4194.872, 16190, 0, []
1627630990.022, 92, 0, 4214.359, 4198.462, 4152.821, 4155.897, 4193.846, 450, 0, []
1627630990.0298, 93, 0, 4227.179, 4226.667, 4169.744, 4176.923, 4203.077, 450, 0, []
1627630990.0378, 94, 0, 4226.154, 4235.385, 4174.872, 4182.564, 4206.154, 450, 0, []
1627630990.0457, 95, 0, 4217.436, 4211.795, 4161.026, 4165.641, 4197.949, 16190, 0, []
1627630990.0536, 96, 0, 4216.923, 4199.487, 4148.718, 4158.462, 4191.795, 450, 0, []
1627630990.0615, 97, 0, 4217.949, 4215.897, 4155.385, 4160, 4190.256, 450, 0, []
1627630990.0695, 98, 0, 4206.667, 4212.821, 4146.154, 4156.41, 4182.051, 450, 0, []
1627630990.0774, 99, 0, 4206.154, 4200.513, 4140.513, 4161.026, 4181.538, 16190, 0, []
1627630990.0854, 100, 0, 4217.436, 4214.872, 4160, 4172.821, 4200.513, 450, 0, []
1627630990.0932, 101, 0, 4205.641, 4217.436, 4151.795, 4162.051, 4195.897, 450, 0, []
1627630990.1012, 102, 0, 4192.821, 4200, 4138.974, 4148.205, 4177.949, 450, 0, []
1627630990.1091, 103, 0, 4204.615, 4209.231, 4154.359, 4155.385, 4185.641, 16190, 0, []
1627630990.1171, 104, 0, 4211.282, 4221.538, 4161.538, 4158.462, 4193.333, 450, 0, []
1627630990.125, 105, 0, 4213.333, 4213.333, 4156.41, 4159.487, 4194.872, 450, 0, []
1627630990.1329, 106, 0, 4216.923, 4211.282, 4156.41, 4167.692, 4199.487, 450, 0, []
1627630990.1408, 107, 0, 4201.026, 4204.615, 4162.564, 4155.385, 4178.462, 16190, 0, []
1627630990.1486, 108, 0, 4195.385, 4201.026, 4166.154, 4148.205, 4166.667, 450, 0, []
1627630990.1565, 109, 0, 4220.513, 4218.462, 4166.667, 4170.256, 4200.513, 450, 0, []
1627630990.1643, 110, 0, 4223.59, 4212.308, 4159.487, 4170.769, 4208.205, 450, 0, []
1627630990.1722, 111, 0, 4208.205, 4191.282, 4149.744, 4155.385, 4193.333, 16190, 0, []
1627630990.1801, 112, 0, 4217.949, 4209.744, 4163.077, 4168.205, 4208.718, 450, 0, []
1627630990.1881, 113, 0, 4227.179, 4228.718, 4165.641, 4175.897, 4215.385, 450, 0, []
1627630990.196, 114, 0, 4218.974, 4211.282, 4146.667, 4159.487, 4197.436, 450, 0, []
1627630990.204, 115, 0, 4215.385, 4209.744, 4151.795, 4152.821, 4197.949, 16190, 0, []
1627630990.2118, 116, 0, 4221.538, 4226.154, 4162.564, 4161.026, 4211.282, 450, 0, []
1627630990.2198, 117, 0, 4212.308, 4206.667, 4153.333, 4153.846, 4197.949, 450, 0, []
1627630990.2277, 118, 0, 4201.538, 4181.026, 4145.641, 4145.641, 4183.59, 450, 0, []
1627630990.2357, 119, 0, 4211.282, 4205.128, 4153.333, 4162.051, 4200, 16190, 0, []
1627630990.2437, 120, 0, 4212.308, 4224.103, 4163.077, 4173.846, 4207.179, 450, 0, []
1627630990.2515, 121, 0, 4194.359, 4202.051, 4151.282, 4156.41, 4183.59, 450, 0, []
1627630990.2594, 122, 0, 4197.949, 4192.308, 4141.538, 4147.179, 4180, 450, 0, []
1627630990.2674, 123, 0, 4217.949, 4207.692, 4150.256, 4165.128, 4201.026, 16190, 0, []
1627630990.2753, 124, 0, 4220.513, 4208.205, 4159.487, 4172.821, 4203.59, 450, 0, []
1627630990.2831, 125, 0, 4216.923, 4202.564, 4163.077, 4163.077, 4197.436, 450, 0, []
1627630990.2909, 126, 0, 4213.846, 4203.077, 4149.744, 4158.462, 4200, 450, 0, []
1627630990.2987, 127, 0, 4207.692, 4192.821, 4149.744, 4157.949, 4201.026, 16190, 0, []
1627630990.3067, 128, 0, 4201.538, 4183.59, 4151.795, 4151.282, 4191.282, 450, 0, []
1627630990.3146, 0, 0, 4191.282, 4191.282, 4130.769, 4141.026, 4174.872, 450, 0, []
1627630990.3226, 1, 0, 4190.256, 4205.128, 4138.462, 4147.179, 4175.385, 450, 0, []
1627630990.3304, 2, 0, 4203.59, 4207.179, 4155.897, 4162.051, 4195.385, 16171, 0, []
1627630990.3384, 3, 0, 4217.949, 4201.026, 4151.795, 4166.154, 4205.641, 450, 0, []
1627630990.3463, 4, 0, 4216.41, 4197.436, 4152.821, 4161.026, 4204.615, 289, 0, []
1627630990.3543, 5, 0, 4205.641, 4198.974, 4152.308, 4156.41, 4201.538, 450, 0, []
1627630990.3622, 6, 0, 4194.359, 4200.513, 4145.128, 4146.667, 4184.615, 222, 0, []
1627630990.3701, 7, 0, 4200, 4199.487, 4148.718, 4148.718, 4177.436, 450, 0, []
1627630990.378, 8, 0, 4222.564, 4212.308, 4166.154, 4167.179, 4200, 450, 0, []
1627630990.386, 9, 0, 4220, 4218.974, 4164.615, 4164.103, 4208.718, 16166, 0, []
1627630990.3939, 10, 0, 4202.051, 4204.615, 4149.231, 4150.769, 4196.923, 450, 0, []
1627630990.4019, 11, 0, 4203.077, 4199.487, 4160, 4153.846, 4197.949, 16192, 0, []
1627630990.4097, 12, 0, 4209.744, 4204.615, 4164.103, 4154.872, 4199.487, 450, 0, []
1627630990.4177, 13, 0, 4197.949, 4199.487, 4148.205, 4149.744, 4189.231, 450, 0, []
1627630990.4256, 14, 0, 4183.077, 4194.359, 4143.59, 4147.179, 4174.872, 450, 0, []
1627630990.4334, 15, 0, 4187.692, 4205.128, 4145.128, 4153.333, 4175.385, 16192, 0, []
1627630990.4414, 16, 0, 4208.205, 4216.923, 4150.256, 4170.769, 4195.385, 0, 0, []
1627630990.4492, 17, 0, 4216.41, 4217.436, 4147.692, 4176.923, 4203.59, 0, 0, []
1627630990.4571, 18, 0, 4205.641, 4202.564, 4142.051, 4152.308, 4189.231, 0, 0, []
1627630990.4649, 19, 0, 4198.462, 4189.744, 4153.846, 4129.744, 4181.026, 0, 0, []
1627630990.4728, 20, 0, 4203.077, 4200.513, 4163.077, 4132.821, 4189.231, 0, 0, []
1627630990.4806, 21, 0, 4206.154, 4211.795, 4164.103, 4142.564, 4191.282, 0, 0, []
1627630990.4886, 22, 0, 4194.359, 4207.692, 4151.795, 4148.205, 4181.026, 0, 0, []
1627630990.4964, 23, 0, 4193.846, 4208.205, 4141.538, 4160.513, 4183.59, 0, 0, []
1627630990.5044, 24, 0, 4216.923, 4223.077, 4154.872, 4175.897, 4202.051, 0, 0, []
1627630990.5123, 25, 0, 4215.897, 4220, 4149.744, 4167.692, 4196.41, 0, 0, []
1627630990.5203, 26, 0, 4199.487, 4203.077, 4141.026, 4156.41, 4182.051, 0, 0, []
1627630990.5282, 27, 0, 4214.359, 4207.692, 4165.641, 4184.103, 4202.564, 0, 0, []
1627630990.5361, 28, 0, 4219.487, 4211.795, 4171.795, 4196.923, 4212.308, 0, 0, []
1627630990.544, 29, 0, 4185.641, 4204.103, 4152.821, 4156.923, 4183.077, 0, 0, []
1627630990.552, 30, 0, 4175.897, 4210.256, 4148.205, 4132.821, 4169.744, 0, 0, []
1627630990.5599, 31, 0, 4189.231, 4215.385, 4148.718, 4140, 4174.872, 0, 0, []
1627630990.5679, 32, 0, 4185.128, 4211.282, 4148.205, 4146.667, 4168.205, 0, 0, []
1627630990.5757, 33, 0, 4182.051, 4213.846, 4157.436, 4160.513, 4168.718, 0, 0, []
1627630990.5835, 34, 0, 4188.718, 4220, 4168.205, 4172.821, 4177.436, 0, 0, []
1627630990.5915, 35, 0, 4188.718, 4221.538, 4161.538, 4170.769, 4182.564, 0, 0, []
1627630990.5994, 36, 0, 4187.692, 4220.513, 4162.051, 4173.846, 4187.692, 0, 0, []
1627630990.6073, 37, 0, 4185.641, 4209.744, 4167.179, 4173.846, 4186.667, 0, 0, []
1627630990.615, 38, 0, 4175.897, 4200, 4150.769, 4158.462, 4176.41, 0, 0, []
1627630990.623, 39, 0, 4169.744, 4199.487, 4145.641, 4154.359, 4168.718, 0, 0, []
1627630990.6309, 40, 0, 4170.256, 4195.385, 4146.154, 4157.436, 4162.564, 0, 0, []
1627630990.6389, 41, 0, 4166.154, 4197.436, 4140, 4151.795, 4148.205, 0, 0, []
1627630990.6468, 42, 0, 4163.077, 4209.231, 4148.205, 4157.949, 4148.205, 0, 0, []
1627630990.6547, 43, 0, 4170.256, 4202.051, 4160.513, 4170.769, 4170.769, 0, 0, []
1627630990.6626, 44, 0, 4169.231, 4185.641, 4163.077, 4160.513, 4174.872, 0, 0, []
1627630990.6706, 45, 0, 4162.051, 4189.744, 4153.846, 4145.641, 4167.179, 0, 0, []
1627630990.6785, 46, 0, 4179.487, 4202.564, 4160, 4160.513, 4189.231, 0, 0, []
1627630990.6865, 47, 0, 4194.359, 4201.538, 4170.256, 4172.821, 4201.538, 0, 0, []
1627630990.6943, 48, 0, 4180, 4205.128, 4157.949, 4161.538, 4175.385, 0, 0, []
1627630990.7023, 49, 0, 4172.308, 4215.385, 4161.026, 4154.359, 4160, 0, 0, []
1627630990.7103, 50, 0, 4182.564, 4208.718, 4172.308, 4156.923, 4175.897, 0, 0, []
1627630990.7182, 51, 0, 4184.615, 4196.41, 4158.462, 4160, 4184.103, 0, 0, []
1627630990.7261, 52, 0, 4182.564, 4201.026, 4156.923, 4167.692, 4184.615, 0, 0, []
1627630990.7338, 53, 0, 4181.538, 4210.256, 4163.077, 4175.897, 4182.564, 0, 0, []
1627630990.7417, 54, 0, 4168.718, 4196.41, 4148.718, 4165.128, 4165.128, 0, 0, []
1627630990.7495, 55, 0, 4165.641, 4177.949, 4135.385, 4158.462, 4158.462, 0, 0, []
1627630990.7574, 56, 0, 4180, 4190.769, 4148.718, 4168.718, 4174.872, 0, 0, []
1627630990.7652, 57, 0, 4178.974, 4209.744, 4168.205, 4164.103, 4177.436, 0, 0, []
1627630990.7731, 58, 0, 4163.59, 4202.564, 4157.436, 4143.077, 4163.077, 0, 0, []
1627630990.781, 59, 0, 4171.795, 4202.051, 4147.692, 4138.462, 4172.308, 0, 0, []
1627630990.789, 60, 0, 4189.231, 4220.513, 4150.256, 4153.846, 4188.205, 0, 0, []
1627630990.7969, 61, 0, 4188.718, 4215.385, 4147.692, 4162.564, 4186.667, 0, 0, []
1627630990.8049, 62, 0, 4192.821, 4188.205, 4155.897, 4167.179, 4192.308, 0, 0, []
1627630990.8127, 63, 0, 4204.615, 4180, 4160.513, 4174.872, 4200, 0, 0, []
1627630990.8207, 64, 0, 4198.974, 4186.154, 4156.923, 4170.769, 4192.821, 450, 0, []
1627630990.8286, 65, 0, 4182.564, 4186.154, 4150.256, 4157.436, 4180, 450, 0, []
1627630990.8366, 66, 0, 4180, 4191.795, 4148.205, 4147.692, 4173.333, 16171, 0, []
1627630990.8446, 67, 0, 4187.179, 4201.538, 4160, 4145.641, 4173.846, 450, 0, []
1627630990.8524, 68, 0, 4179.487, 4194.359, 4148.718, 4140, 4171.282, 16147, 0, []
1627630990.8603, 69, 0, 4163.59, 4184.103, 4130.256, 4134.872, 4161.026, 450, 0, []
1627630990.8683, 70, 0, 4176.41, 4202.564, 4148.205, 4154.359, 4167.179, 257, 0, []
1627630990.8762, 71, 0, 4205.128, 4221.538, 4166.667, 4179.487, 4194.359, 450, 0, []
1627630990.8842, 72, 0, 4209.231, 4207.692, 4163.077, 4174.872, 4201.538, 450, 0, []
1627630990.892, 73, 0, 4197.949, 4196.41, 4156.923, 4157.436, 4191.282, 16166, 0, []
1627630990.9, 74, 0, 4190.256, 4204.615, 4154.359, 4149.744, 4178.974, 450, 0, []
1627630990.908, 75, 0, 4183.59, 4203.59, 4150.256, 4145.641, 4171.795, 16193, 0, []
1627630990.9159, 76, 0, 4190.256, 4198.462, 4151.795, 4152.308, 4180.513, 450, 0, []
1627630990.9238, 77, 0, 4206.154, 4211.282, 4164.615, 4169.231, 4193.333, 450, 0, []
1627630990.9317, 78, 0, 4206.154, 4214.872, 4158.974, 4175.385, 4190.769, 450, 0, []
1627630990.9397, 79, 0, 4197.949, 4193.333, 4144.615, 4166.154, 4180.513, 16193, 0, []
1627630990.9476, 80, 0, 4204.103, 4187.692, 4150.256, 4164.103, 4186.667, 450, 0, []
1627630990.9556, 81, 0, 4217.949, 4193.846, 4151.282, 4182.051, 4204.103, 450, 0, []
1627630990.9635, 82, 0, 4220, 4189.231, 4149.744, 4191.795, 4211.282, 450, 0, []
1627630990.9714, 83, 0, 4203.59, 4189.744, 4143.59, 4168.718, 4193.846, 16193, 0, []
1627630990.9793, 84, 0, 4190.769, 4201.026, 4143.59, 4155.897, 4182.051, 450, 0, []
1627630990.9873, 85, 0, 4197.949, 4208.718, 4157.436, 4173.846, 4193.333, 450, 0, []
1627630990.9952, 86, 0, 4204.103, 4210.256, 4147.692, 4169.231, 4189.744, 450, 0, []
1627630991.0032, 87, 0, 4201.026, 4213.846, 4134.359, 4149.231, 4173.333, 16193, 0, []
1627630991.011, 88, 0, 4203.59, 4227.692, 4131.795, 4152.308, 4176.923, 450, 0, []
1627630991.019, 89, 0, 4207.179, 4226.154, 4121.538, 4154.359, 4192.308, 450, 0, []
1627630991.0269, 90, 0, 4199.487, 4194.872, 4118.462, 4134.872, 4180, 450, 0, []
1627630991.0349, 91, 0, 4193.333, 4179.487, 4124.615, 4129.231, 4164.615, 16193, 0, []
1627630991.0428, 92, 0, 4205.128, 4200, 4137.949, 4147.692, 4181.538, 450, 0, []
1627630991.0507, 93, 0, 4202.051, 4206.154, 4140.513, 4149.231, 4184.615, 450, 0, []
1627630991.0586, 94, 0, 4185.641, 4197.436, 4138.462, 4136.923, 4169.231, 450, 0, []
1627630991.0666, 95, 0, 4200, 4212.308, 4156.41, 4136.923, 4180, 16193, 0, []
1627630991.0745, 96, 0, 4220.513, 4227.692, 4165.128, 4135.385, 4195.385, 450, 0, []
1627630991.0825, 97, 0, 4204.103, 4220, 4153.846, 4121.026, 4178.462, 450, 0, []
1627630991.0903, 98, 0, 4184.103, 4212.821, 4139.487, 4114.359, 4162.051, 450, 0, []
1627630991.0983, 99, 0, 4191.795, 4212.308, 4136.923, 4131.282, 4170.256, 16193, 0, []
1627630991.1063, 100, 0, 4198.974, 4207.179, 4145.128, 4150.256, 4178.462, 450, 0, []
1627630991.1142, 101, 0, 4199.487, 4203.077, 4137.436, 4158.974, 4182.051, 450, 0, []
1627630991.1222, 102, 0, 4208.205, 4205.128, 4130.769, 4159.487, 4185.128, 450, 0, []
1627630991.13, 103, 0, 4205.641, 4203.59, 4138.974, 4141.538, 4175.897, 16193, 0, []
1627630991.138, 104, 0, 4197.436, 4198.462, 4141.026, 4109.744, 4166.667, 450, 0, []
1627630991.1459, 105, 0, 4204.615, 4198.974, 4144.103, 4094.359, 4171.282, 450, 0, []
1627630991.1539, 106, 0, 4219.487, 4202.564, 4148.205, 4104.615, 4185.128, 450, 0, []
1627630991.1618, 107, 0, 4223.59, 4209.744, 4154.359, 4117.949, 4199.487, 16193, 0, []
1627630991.1697, 108, 0, 4217.436, 4214.872, 4158.974, 4127.179, 4196.41, 450, 0, []
1627630991.1776, 109, 0, 4213.333, 4206.667, 4150.256, 4142.564, 4184.103, 450, 0, []
1627630991.1856, 110, 0, 4215.385, 4195.897, 4150.769, 4166.667, 4184.103, 450, 0, []
1627630991.1935, 111, 0, 4209.744, 4189.231, 4144.103, 4173.846, 4186.154, 16193, 0, []
1627630991.2015, 112, 0, 4192.821, 4179.487, 4121.538, 4146.154, 4170.256, 450, 0, []
1627630991.2093, 113, 0, 4197.949, 4180, 4130.769, 4135.897, 4169.744, 450, 0, []
1627630991.2173, 114, 0, 4225.641, 4204.615, 4167.692, 4161.538, 4198.462, 450, 0, []
1627630991.2252, 115, 0, 4235.897, 4224.615, 4185.641, 4154.872, 4210.769, 16193, 0, []
1627630991.2332, 116, 0, 4225.128, 4216.923, 4163.077, 4111.795, 4200.513, 450, 0, []
1627630991.2412, 117, 0, 4220.513, 4209.744, 4149.744, 4111.795, 4194.872, 450, 0, []
1627630991.249, 118, 0, 4231.282, 4230.256, 4173.846, 4159.487, 4201.026, 450, 0, []
1627630991.257, 119, 0, 4236.41, 4248.718, 4184.103, 4186.667, 4206.154, 16193, 0, []
1627630991.2649, 120, 0, 4222.051, 4231.282, 4171.282, 4180.513, 4201.538, 450, 0, []
1627630991.2729, 121, 0, 4212.308, 4211.282, 4162.564, 4178.974, 4200.513, 450, 0, []
1627630991.2808, 122, 0, 4218.462, 4216.923, 4164.615, 4187.692, 4204.103, 450, 0, []
1627630991.2887, 123, 0, 4212.308, 4220.513, 4163.59, 4181.026, 4192.308, 16193, 0, []
1627630991.2967, 124, 0, 4188.718, 4213.333, 4146.154, 4162.051, 4166.667, 450, 0, []
1627630991.3046, 125, 0, 4191.282, 4212.308, 4145.128, 4157.436, 4164.615, 450, 0, []
1627630991.3125, 126, 0, 4208.205, 4210.769, 4160, 4161.026, 4176.923, 450, 0, []
1627630991.3205, 127, 0, 4205.128, 4213.333, 4156.41, 4149.231, 4172.821, 16193, 0, []
1627630991.3283, 128, 0, 4203.59, 4221.026, 4154.872, 4134.359, 4172.821, 450, 0, []
1627630991.3363, 0, 0, 4213.333, 4212.308, 4158.462, 4131.795, 4184.103, 450, 0, []
1627630991.3442, 1, 0, 4210.769, 4197.949, 4152.821, 4135.385, 4179.487, 450, 0, []
1627630991.3522, 2, 0, 4198.974, 4198.462, 4141.538, 4138.974, 4165.128, 16172, 0, []
1627630991.3601, 3, 0, 4194.359, 4197.949, 4139.487, 4143.59, 4165.641, 450, 0, []
1627630991.368, 4, 0, 4194.359, 4197.436, 4150.769, 4146.667, 4170.256, 16163, 0, []
1627630991.3759, 5, 0, 4195.385, 4202.051, 4149.231, 4141.538, 4166.154, 450, 0, []
1627630991.3839, 6, 0, 4201.538, 4202.051, 4147.692, 4140, 4167.692, 265, 0, []
1627630991.3918, 7, 0, 4203.59, 4197.436, 4156.41, 4144.103, 4172.308, 450, 0, []
1627630991.3998, 8, 0, 4197.949, 4198.462, 4150.769, 4137.949, 4171.282, 450, 0, []
1627630991.4077, 9, 0, 4186.154, 4205.128, 4146.154, 4121.538, 4160.513, 16166, 0, []
1627630991.4156, 10, 0, 4167.692, 4206.667, 4147.692, 4110.256, 4134.872, 450, 0, []
1627630991.4236, 11, 0, 4161.026, 4203.59, 4153.846, 4114.872, 4122.051, 16194, 0, []
1627630991.4316, 12, 0, 4162.051, 4203.077, 4158.462, 4130.769, 4133.333, 450, 0, []
1627630991.4395, 13, 0, 4131.282, 4195.385, 4144.615, 4143.077, 4126.667, 450, 0, []
1627630991.4474, 14, 0, 4066.667, 4171.795, 4131.795, 4142.051, 4081.538, 450, 0, []
1627630991.4553, 15, 0, 4007.179, 4165.128, 4130.256, 4139.487, 4037.436, 16194, 0, []
1627630991.4633, 16, 1, 4004.615, 4164.786, 4130.769, 4138.803, 4030.94, 14394.667, 0, []
1627630991.4712, 17, 1, 4002.051, 4164.444, 4131.282, 4138.12, 4024.444, 12595.333, 0, []
1627630991.4791, 18, 1, 3999.487, 4164.103, 4131.795, 4137.436, 4017.949, 10796, 0, []
1627630991.487, 19, 1, 3996.923, 4163.761, 4132.308, 4136.752, 4011.453, 8996.667, 0, []
1627630991.4948, 20, 1, 3994.359, 4163.419, 4132.821, 4136.068, 4004.957, 7197.333, 0, []
1627630991.5027, 21, 1, 3991.795, 4163.077, 4133.333, 4135.385, 3998.462, 5398, 0, []
1627630991.5106, 22, 1, 3989.231, 4162.735, 4133.846, 4134.701, 3991.966, 3598.667, 0, []
1627630991.5185, 23, 1, 3986.667, 4162.393, 4134.359, 4134.017, 3985.47, 1799.333, 0, []
1627630991.5264, 24, 0, 3984.103, 4162.051, 4134.872, 4133.333, 3978.974, 0, 0, []
1627630991.5343, 25, 0, 4009.231, 4183.077, 4145.128, 4145.641, 4004.103, 0, 0, []
1627630991.5422, 26, 0, 4018.462, 4181.538, 4140, 4142.051, 4013.333, 0, 0, []
1627630991.5501, 27, 0, 4015.897, 4170.769, 4143.59, 4143.077, 4019.487, 0, 0, []
1627630991.558, 28, 0, 4015.897, 4167.692, 4140.513, 4142.051, 4018.974, 0, 0, []
1627630991.566, 29, 0, 4010.769, 4163.077, 4129.231, 4133.333, 4008.205, 0, 0, []
1627630991.5738, 30, 0, 3993.846, 4154.359, 4115.385, 4122.051, 3992.308, 0, 0, []
1627630991.5818, 31, 0, 3987.692, 4154.359, 4106.154, 4115.897, 3982.564, 0, 0, []
1627630991.5897, 32, 0, 3998.974, 4155.897, 4112.308, 4121.026, 3988.205, 0, 0, []
1627630991.5977, 33, 0, 4000, 4152.821, 4113.846, 4125.128, 3995.385, 0, 0, []
1627630991.6056, 34, 0, 3991.795, 4147.692, 4116.923, 4123.59, 3990.256, 0, 0, []
1627630991.6135, 35, 0, 4003.59, 4150.769, 4129.744, 4131.282, 3995.897, 0, 0, []
1627630991.6214, 36, 0, 4032.821, 4175.385, 4144.615, 4150.769, 4021.538, 0, 0, []
1627630991.6294, 37, 0, 4047.179, 4191.282, 4155.897, 4158.974, 4037.436, 0, 0, []
1627630991.6373, 38, 0, 4046.667, 4175.385, 4154.359, 4150.769, 4037.436, 0, 0, []
1627630991.6453, 39, 0, 4046.667, 4165.641, 4154.872, 4144.103, 4042.564, 0, 0, []
1627630991.6531, 40, 0, 4046.154, 4181.026, 4155.385, 4142.051, 4043.59, 0, 0, []
1627630991.6611, 41, 0, 4043.077, 4177.949, 4132.821, 4134.359, 4032.821, 0, 0, []
1627630991.669, 42, 0, 4041.538, 4157.436, 4117.949, 4121.538, 4029.231, 0, 0, []
1627630991.677, 43, 0, 4046.154, 4154.872, 4127.179, 4118.974, 4035.385, 0, 0, []
1627630991.6849, 44, 0, 4058.974, 4167.179, 4145.641, 4131.282, 4045.641, 0, 0, []
1627630991.6928, 45, 0, 4084.615, 4177.436, 4164.103, 4155.385, 4073.333, 0, 0, []
1627630991.7008, 46, 0, 4081.026, 4162.564, 4151.795, 4152.308, 4076.923, 0, 0, []
1627630991.7087, 47, 0, 4033.846, 4132.821, 4113.846, 4101.538, 4023.59, 0, 0, []
1627630991.7167, 48, 0, 4034.872, 4146.154, 4107.692, 4093.846, 4012.308, 0, 0, []
1627630991.7246, 49, 0, 4101.538, 4198.462, 4157.436, 4163.59, 4084.103, 0, 0, []
1627630991.7325, 50, 0, 4126.667, 4213.846, 4181.026, 4197.436, 4116.41, 0, 0, []
1627630991.7404, 51, 0, 4094.359, 4190.769, 4144.615, 4164.615, 4082.564, 0, 0, []
1627630991.7484, 52, 0, 4086.667, 4180.513, 4134.359, 4153.333, 4071.282, 0, 0, []
1627630991.7563, 53, 0, 4096.923, 4168.205, 4140, 4162.564, 4082.051, 0, 0, []
1627630991.7643, 54, 0, 4086.667, 4154.359, 4127.179, 4147.179, 4071.795, 0, 0, []
1627630991.7721, 55, 0, 4076.923, 4161.538, 4136.41, 4128.718, 4062.051, 0, 0, []
1627630991.7801, 56, 0, 4089.231, 4171.282, 4150.769, 4133.333, 4076.41, 0, 0, []
1627630991.788, 57, 0, 4108.718, 4173.333, 4147.692, 4147.692, 4095.385, 0, 0, []
1627630991.796, 58, 0, 4109.231, 4170.256, 4135.385, 4152.308, 4091.795, 0, 0, []
1627630991.8039, 59, 0, 4098.974, 4154.359, 4131.282, 4152.308, 4083.59, 0, 0, []
1627630991.8118, 60, 0, 4098.974, 4133.846, 4136.923, 4153.846, 4085.641, 0, 0, []
1627630991.8197, 61, 0, 4105.128, 4142.564, 4135.897, 4152.308, 4090.256, 0, 0, []
1627630991.8277, 62, 0, 4108.718, 4160, 4144.103, 4147.179, 4096.923, 0, 0, []
1627630991.8356, 63, 0, 4107.179, 4155.385, 4143.077, 4137.436, 4102.564, 0, 0, []
1627630991.8436, 64, 0, 4104.615, 4160, 4130.256, 4132.821, 4096.41, 450, 0, []
1627630991.8514, 65, 0, 4107.692, 4174.359, 4136.923, 4134.872, 4089.231, 450, 0, []
1627630991.8594, 66, 0, 4104.615, 4163.077, 4127.179, 4128.718, 4086.154, 16177, 0, []
1627630991.8673, 67, 0, 4100, 4143.077, 4108.718, 4120.513, 4085.128, 450, 0, []
1627630991.8753, 68, 0, 4115.897, 4152.308, 4123.59, 4144.103, 4102.564, 16167, 0, []
1627630991.8833, 69, 0, 4125.641, 4156.41, 4141.026, 4161.026, 4111.795, 450, 0, []
1627630991.8911, 70, 0, 4104.103, 4133.846, 4120.513, 4128.205, 4085.128, 268, 0, []
1627630991.8991, 71, 0, 4100, 4132.821, 4100, 4111.282, 4075.385, 450, 0, []
1627630991.907, 72, 0, 4124.615, 4166.154, 4126.154, 4142.051, 4098.974, 450, 0, []
1627630991.915, 73, 0, 4133.846, 4188.205, 4142.564, 4158.974, 4107.692, 16166, 0, []
1627630991.9229, 74, 0, 4134.359, 4180, 4124.615, 4147.692, 4109.231, 450, 0, []
1627630991.9308, 75, 0, 4146.154, 4164.103, 4129.231, 4150.256, 4130.769, 16194, 0, []
1627630991.9387, 76, 0, 4144.615, 4152.821, 4131.282, 4155.897, 4137.436, 450, 0, []
1627630991.9467, 77, 0, 4137.949, 4158.462, 4121.538, 4145.641, 4125.641, 450, 0, []
1627630991.9546, 78, 0, 4149.231, 4170.256, 4132.308, 4146.667, 4128.718, 450, 0, []
1627630991.9626, 79, 0, 4155.385, 4160, 4137.436, 4154.359, 4136.923, 16194, 0, []
1627630991.9704, 80, 0, 4145.641, 4148.205, 4125.128, 4144.103, 4128.205, 450, 0, []
1627630991.9784, 81, 0, 4134.872, 4158.974, 4112.821, 4132.308, 4113.846, 450, 0, []
1627630991.9863, 82, 0, 4138.462, 4172.308, 4124.103, 4136.923, 4109.744, 450, 0, []
1627630991.9943, 83, 0, 4150.256, 4169.744, 4134.359, 4138.462, 4118.974, 16194, 0, []
1627630992.0022, 84, 0, 4152.308, 4151.795, 4116.41, 4126.667, 4125.641, 450, 0, []
1627630992.0101, 85, 0, 4143.59, 4140, 4109.744, 4115.897, 4118.462, 450, 0, []
1627630992.018, 86, 0, 4147.692, 4157.949, 4122.564, 4124.103, 4122.051, 450, 0, []
1627630992.026, 87, 0, 4170.769, 4174.872, 4135.897, 4150.769, 4145.641, 16194, 0, []
1627630992.0339, 88, 0, 4172.821, 4168.718, 4131.282, 4158.974, 4146.154, 450, 0, []
1627630992.0419, 89, 0, 4149.744, 4168.718, 4110.256, 4142.564, 4127.179, 450, 0, []
1627630992.0498, 90, 0, 4143.59, 4169.744, 4111.795, 4132.821, 4124.103, 450, 0, []
1627630992.0577, 91, 0, 4152.821, 4153.333, 4116.923, 4128.205, 4124.615, 16194, 0, []
1627630992.0657, 92, 0, 4153.846, 4147.692, 4111.795, 4118.974, 4118.462, 450, 0, []
1627630992.0736, 93, 0, 4148.718, 4160, 4121.538, 4123.59, 4122.051, 450, 0, []
1627630992.0816, 94, 0, 4151.795, 4169.231, 4128.205, 4135.897, 4130.256, 450, 0, []
1627630992.0894, 95, 0, 4154.872, 4170.769, 4125.128, 4135.385, 4129.231, 16194, 0, []
1627630992.0974, 96, 0, 4148.205, 4162.564, 4123.59, 4135.385, 4124.103, 450, 0, []
1627630992.1053, 97, 0, 4136.41, 4151.795, 4122.564, 4138.974, 4115.897, 450, 0, []
1627630992.1133, 98, 0, 4135.385, 4156.41, 4119.487, 4135.385, 4109.744, 450, 0, []
1627630992.1212, 99, 0, 4151.795, 4171.795, 4121.538, 4136.41, 4125.128, 16194, 0, []
1627630992.1291, 100, 0, 4161.538, 4181.026, 4136.41, 4142.564, 4140.513, 450, 0, []
1627630992.137, 101, 0, 4156.41, 4183.59, 4135.385, 4145.128, 4137.949, 450, 0, []
1627630992.145, 102, 0, 4160.513, 4182.564, 4123.077, 4145.641, 4138.462, 450, 0, []
1627630992.1529, 103, 0, 4161.538, 4171.795, 4133.333, 4138.974, 4136.41, 16194, 0, []
1627630992.1609, 104, 0, 4144.103, 4155.897, 4130.256, 4124.103, 4119.487, 450, 0, []
1627630992.1687, 105, 0, 4137.949, 4154.872, 4116.923, 4120, 4111.795, 450, 0, []
1627630992.1767, 106, 0, 4152.821, 4167.692, 4126.667, 4128.718, 4126.154, 450, 0, []
1627630992.1846, 107, 0, 4164.103, 4175.897, 4140.513, 4141.026, 4142.564, 16194, 0, []
1627630992.1926, 108, 0, 4155.385, 4168.205, 4133.846, 4141.538, 4135.385, 450, 0, []
1627630992.2006, 109, 0, 4135.897, 4154.872, 4112.308, 4123.077, 4108.205, 450, 0, []
1627630992.2084, 110, 0, 4141.026, 4160, 4124.615, 4123.077, 4107.179, 450, 0, []
1627630992.2164, 111, 0, 4162.564, 4179.487, 4149.744, 4148.205, 4131.795, 16194, 0, []
1627630992.2243, 112, 0, 4160, 4180, 4136.41, 4149.744, 4130.769, 450, 0, []
1627630992.2323, 113, 0, 4142.564, 4167.692, 4123.077, 4132.821, 4114.872, 450, 0, []
1627630992.2402, 114, 0, 4148.205, 4169.231, 4128.205, 4133.333, 4118.462, 450, 0, []
1627630992.2481, 115, 0, 4158.974, 4164.615, 4127.692, 4135.385, 4127.692, 16194, 0, []
1627630992.256, 116, 0, 4150.256, 4155.897, 4120.513, 4122.051, 4121.026, 450, 0, []
1627630992.264, 117, 0, 4132.821, 4157.949, 4108.205, 4102.564, 4102.564, 450, 0, []
1627630992.2719, 118, 0, 4135.897, 4158.462, 4106.667, 4101.026, 4098.974, 450, 0, []
1627630992.2799, 119, 0, 4158.462, 4168.718, 4117.949, 4125.641, 4125.641, 16194, 0, []
1627630992.2877, 120, 0, 4169.744, 4190.256, 4130.256, 4145.128, 4144.615, 450, 0, []
1627630992.2957, 121, 0, 4166.667, 4193.333, 4136.41, 4148.718, 4138.462, 450, 0, []
1627630992.3036, 122, 0, 4165.641, 4179.487, 4129.744, 4150.256, 4135.897, 450, 0, []
1627630992.3116, 123, 0, 4165.128, 4176.923, 4122.051, 4141.538, 4136.923, 16194, 0, []
1627630992.3195, 124, 0, 4169.744, 4188.718, 4124.103, 4133.846, 4137.436, 450, 0, []
1627630992.3274, 125, 0, 4173.846, 4188.718, 4136.41, 4141.538, 4143.59, 450, 0, []
1627630992.3354, 126, 0, 4159.487, 4172.821, 4135.385, 4132.308, 4136.41, 450, 0, []
1627630992.3433, 127, 0, 4143.077, 4168.718, 4108.205, 4103.59, 4115.897, 16194, 0, []
1627630992.3513, 128, 0, 4153.333, 4184.615, 4108.718, 4106.154, 4112.821, 450, 0, []
1627630992.3592, 0, 0, 4176.41, 4190.769, 4127.179, 4138.462, 4134.872, 450, 0, []
1627630992.3671, 1, 0, 4170.769, 4181.538, 4117.949, 4138.462, 4138.974, 450, 0, []
1627630992.375, 2, 0, 4144.103, 4178.462, 4108.205, 4106.667, 4117.436, 16174, 0, []
1627630992.383, 3, 0, 4160, 4190.769, 4119.487, 4113.333, 4127.692, 450, 0, []
1627630992.3909, 4, 0, 4203.59, 4203.077, 4140, 4149.231, 4166.667, 16167, 0, []
1627630992.3989, 5, 0, 4211.282, 4205.128, 4144.103, 4162.051, 4178.462, 450, 0, []
1627630992.4067, 6, 0, 4197.949, 4207.692, 4133.846, 4160.513, 4166.667, 266, 0, []
1627630992.4147, 7, 0, 4191.282, 4202.051, 4128.205, 4152.308, 4156.923, 450, 0, []
1627630992.4226, 8, 0, 4184.615, 4186.154, 4122.564, 4136.923, 4152.308, 450, 0, []
1627630992.4306, 9, 0, 4188.205, 4181.026, 4126.154, 4134.872, 4160.513, 16166, 0, []
1627630992.4385, 10, 0, 4191.795, 4186.667, 4130.256, 4135.897, 4168.205, 450, 0, []
1627630992.4465, 11, 0, 4187.692, 4195.385, 4134.359, 4138.974, 4165.128, 16192, 0, []
1627630992.4543, 12, 0, 4190.769, 4197.436, 4148.718, 4150.256, 4163.077, 450, 0, []
1627630992.4623, 13, 0, 4200.513, 4192.821, 4134.872, 4149.231, 4169.744, 450, 0, []
1627630992.4702, 14, 0, 4225.641, 4196.923, 4112.821, 4145.641, 4202.564, 450, 0, []
1627630992.4782, 15, 0, 4267.692, 4203.59, 4116.41, 4145.128, 4248.718, 16192, 0, []
1627630992.4862, 16, 0, 4303.59, 4197.949, 4121.538, 4137.436, 4283.59, 0, 0, []
1627630992.494, 17, 0, 4346.667, 4203.077, 4140.513, 4150.769, 4324.103, 0, 0, []
1627630992.502, 18, 0, 4395.385, 4222.564, 4158.974, 4177.436, 4362.564, 0, 0, []
1627630992.5099, 19, 0, 4402.564, 4218.974, 4153.333, 4165.128, 4357.949, 0, 0, []
1627630992.5179, 20, 0, 4379.487, 4212.308, 4141.026, 4145.641, 4339.487, 0, 0, []
1627630992.5258, 21, 0, 4370.769, 4217.949, 4137.949, 4157.436, 4340, 0, 0, []
1627630992.5337, 22, 0, 4363.59, 4210.256, 4142.051, 4158.974, 4336.41, 0, 0, []
1627630992.5416, 23, 0, 4348.205, 4195.897, 4135.897, 4142.051, 4323.59, 0, 0, []
1627630992.5496, 24, 0, 4342.051, 4200, 4138.974, 4140, 4320, 0, 0, []
1627630992.5575, 25, 0, 4336.41, 4204.615, 4146.154, 4146.667, 4311.795, 0, 0, []
1627630992.5655, 26, 0, 4317.436, 4196.41, 4134.359, 4134.872, 4293.846, 0, 0, []
1627630992.5733, 27, 0, 4303.077, 4197.436, 4137.436, 4126.154, 4286.667, 0, 0, []
1627630992.5813, 28, 0, 4298.974, 4197.436, 4144.103, 4135.385, 4280.513, 0, 0, []
1627630992.5892, 29, 0, 4293.333, 4187.179, 4136.923, 4138.974, 4268.205, 0, 0, []
1627630992.5972, 30, 0, 4284.615, 4187.179, 4135.897, 4132.308, 4260.513, 0, 0, []
1627630992.6051, 31, 0, 4286.154, 4194.872, 4148.205, 4133.333, 4263.077, 0, 0, []
1627630992.613, 32, 0, 4293.846, 4205.128, 4163.077, 4144.103, 4273.846, 0, 0, []
1627630992.6209, 33, 0, 4296.41, 4214.872, 4163.077, 4155.385, 4282.051, 0, 0, []
1627630992.6289, 34, 0, 4297.436, 4207.692, 4158.462, 4160, 4282.564, 0, 0, []
1627630992.6368, 35, 0, 4291.282, 4196.923, 4163.59, 4154.359, 4273.333, 0, 0, []
1627630992.6448, 36, 0, 4282.564, 4210.256, 4161.026, 4153.333, 4265.641, 0, 0, []
1627630992.6527, 37, 0, 4279.487, 4222.051, 4154.359, 4152.821, 4261.538, 0, 0, []
1627630992.6607, 38, 0, 4275.385, 4204.615, 4130.256, 4130.256, 4260, 0, 0, []
1627630992.6686, 39, 0, 4277.949, 4190.769, 4110.769, 4116.41, 4263.59, 0, 0, []
1627630992.6766, 40, 0, 4289.231, 4202.564, 4137.949, 4134.359, 4267.692, 0, 0, []
1627630992.6845, 41, 0, 4279.487, 4205.128, 4144.103, 4143.59, 4258.974, 0, 0, []
1627630992.6924, 42, 0, 4271.282, 4192.821, 4124.103, 4138.462, 4264.103, 0, 0, []
1627630992.7003, 43, 0, 4300.513, 4204.103, 4144.615, 4159.487, 4306.154, 0, 0, []
1627630992.7083, 44, 0, 4314.872, 4221.026, 4165.128, 4181.026, 4329.231, 0, 0, []
1627630992.7162, 45, 0, 4286.154, 4205.128, 4144.103, 4158.974, 4302.564, 0, 0, []
1627630992.7242, 46, 1, 4287.806, 4205.584, 4144.444, 4156.98, 4306.952, 0, 0, []
1627630992.732, 47, 1, 4289.459, 4206.04, 4144.786, 4154.986, 4311.339, 0, 0, []
1627630992.7399, 48, 1, 4291.111, 4206.496, 4145.128, 4152.991, 4315.726, 0, 0, []
1627630992.7478, 49, 1, 4292.764, 4206.952, 4145.47, 4150.997, 4320.114, 0, 0, []
1627630992.7557, 50, 1, 4294.416, 4207.407, 4145.812, 4149.003, 4324.501, 0, 0, []
1627630992.7636, 51, 1, 4296.068, 4207.863, 4146.154, 4147.009, 4328.889, 0, 0, []
1627630992.7714, 52, 1, 4297.721, 4208.319, 4146.496, 4145.014, 4333.276, 0, 0, []
1627630992.7793, 53, 1, 4299.373, 4208.775, 4146.838, 4143.02, 4337.664, 0, 0, []
1627630992.7872, 54, 0, 4301.026, 4209.231, 4147.179, 4141.026, 4342.051, 0, 0, []
1627630992.7952, 55, 0, 4304.103, 4216.41, 4158.462, 4139.487, 4343.077, 0, 0, []
1627630992.8031, 56, 0, 4289.744, 4206.154, 4154.872, 4128.718, 4318.462, 0, 0, []
1627630992.8109, 57, 0, 4267.179, 4199.487, 4153.846, 4121.026, 4295.897, 0, 0, []
1627630992.8188, 58, 0, 4248.718, 4198.462, 4141.538, 4118.462, 4274.359, 0, 0, []
1627630992.8268, 59, 0, 4245.641, 4185.641, 4113.333, 4117.949, 4249.231, 0, 0, []
1627630992.8347, 60, 0, 4247.692, 4180.513, 4116.41, 4120.513, 4245.641, 0, 0, []
1627630992.8427, 61, 0, 4246.154, 4191.282, 4138.462, 4129.231, 4263.59, 0, 0, []
1627630992.8505, 62, 0, 4249.744, 4186.667, 4149.744, 4139.487, 4273.846, 0, 0, []
1627630992.8585, 63, 0, 4260, 4183.077, 4153.846, 4140.513, 4274.359, 0, 0, []
1627630992.8664, 64, 0, 4262.564, 4189.231, 4138.462, 4125.128, 4273.333, 450, 0, []
1627630992.8744, 65, 0, 4249.231, 4176.923, 4120.513, 4093.846, 4259.487, 450, 0, []
1627630992.8823, 66, 0, 4240, 4169.231, 4126.667, 4073.846, 4250.256, 16174, 0, []
1627630992.8902, 67, 0, 4245.641, 4190.256, 4147.692, 4088.205, 4270.769, 450, 0, []
1627630992.8981, 68, 0, 4254.872, 4209.744, 4158.974, 4122.564, 4293.846, 16167, 0, []
1627630992.9061, 69, 0, 4247.179, 4208.718, 4145.641, 4138.462, 4288.205, 450, 0, []
1627630992.914, 70, 0, 4231.282, 4195.897, 4125.128, 4129.231, 4270.256, 266, 0, []
1627630992.922, 71, 0, 4234.359, 4186.667, 4112.821, 4120.513, 4275.897, 450, 0, []
1627630992.9298, 72, 0, 4252.308, 4190.769, 4116.41, 4115.897, 4300, 450, 0, []
1627630992.9378, 73, 0, 4248.718, 4193.333, 4128.718, 4091.282, 4308.718, 16166, 0, []
1627630992.9457, 74, 0, 4203.077, 4161.538, 4103.077, 4030.769, 4281.538, 450, 0, []
1627630992.9537, 75, 0, 4168.205, 4125.641, 4085.128, 3999.487, 4252.821, 16192, 0, []
1627630992.9616, 76, 0, 4193.846, 4146.667, 4125.128, 4063.59, 4280, 450, 0, []
1627630992.9695, 77, 0, 4231.795, 4191.795, 4154.872, 4146.154, 4329.744, 450, 0, []
1627630992.9775, 78, 0, 4225.128, 4185.641, 4136.923, 4149.744, 4331.282, 450, 0, []
1627630992.9854, 79, 0, 4202.051, 4140, 4116.41, 4118.462, 4309.744, 16192, 0, []
1627630992.9934, 80, 0, 4212.821, 4137.949, 4144.615, 4132.308, 4321.538, 450, 0, []
1627630993.0013, 81, 0, 4219.487, 4165.641, 4168.718, 4143.59, 4328.205, 450, 0, []
1627630993.0092, 82, 0, 4195.897, 4164.103, 4148.718, 4114.872, 4305.641, 450, 0, []
1627630993.0171, 83, 0, 4180.513, 4157.949, 4137.949, 4092.821, 4287.692, 16192, 0, []
1627630993.0251, 84, 0, 4185.128, 4170.769, 4135.897, 4091.282, 4280, 450, 0, []
1627630993.033, 85, 0, 4187.179, 4172.821, 4140, 4092.308, 4278.974, 450, 0, []
1627630993.041, 86, 0, 4187.179, 4166.667, 4151.282, 4095.897, 4292.821, 450, 0, []
1627630993.0488, 87, 0, 4204.615, 4169.744, 4151.795, 4106.667, 4310.256, 16192, 0, []
1627630993.0568, 88, 0, 4206.667, 4157.436, 4158.462, 4109.744, 4303.077, 450, 0, []
1627630993.0647, 89, 0, 4181.026, 4138.462, 4155.385, 4107.692, 4279.487, 450, 0, []
1627630993.0727, 90, 0, 4171.795, 4152.821, 4144.103, 4105.128, 4266.154, 450, 0, []
1627630993.0806, 91, 0, 4183.077, 4174.359, 4144.103, 4105.128, 4263.59, 16192, 0, []
1627630993.0885, 92, 0, 4186.667, 4175.385, 4144.103, 4109.744, 4259.487, 450, 0, []
1627630993.0964, 93, 0, 4175.897, 4167.692, 4137.949, 4105.128, 4241.026, 450, 0, []
1627630993.1044, 94, 0, 4176.923, 4166.667, 4140.513, 4107.692, 4228.718, 450, 0, []
1627630993.1123, 95, 0, 4194.872, 4171.282, 4159.487, 4132.308, 4240.513, 16192, 0, []
1627630993.1203, 96, 0, 4203.59, 4169.744, 4165.641, 4149.744, 4248.205, 450, 0, []
1627630993.1282, 97, 0, 4202.051, 4171.282, 4156.41, 4141.538, 4237.436, 450, 0, []
1627630993.1361, 98, 0, 4198.462, 4187.692, 4159.487, 4126.667, 4227.179, 450, 0, []
1627630993.1441, 99, 0, 4194.359, 4197.949, 4157.436, 4117.949, 4225.128, 16192, 0, []
1627630993.152, 100, 0, 4200.513, 4197.949, 4160, 4120, 4228.205, 450, 0, []
1627630993.16, 101, 0, 4212.821, 4202.564, 4172.308, 4131.795, 4230.256, 450, 0, []
1627630993.1678, 102, 0, 4212.821, 4200, 4162.051, 4127.179, 4228.205, 450, 0, []
1627630993.1758, 103, 0, 4224.103, 4180, 4149.231, 4112.308, 4237.949, 16192, 0, []
1627630993.1837, 104, 0, 4270.769, 4177.436, 4152.308, 4124.103, 4283.59, 450, 0, []
1627630993.1917, 105, 0, 4326.667, 4196.923, 4155.385, 4141.538, 4340.513, 450, 0, []
1627630993.1996, 106, 0, 4360.513, 4201.026, 4153.333, 4127.179, 4372.308, 450, 0, []
1627630993.2075, 107, 0, 4373.846, 4197.949, 4140, 4118.462, 4382.051, 16192, 0, []
1627630993.2154, 108, 0, 4378.974, 4207.692, 4146.667, 4136.41, 4382.564, 450, 0, []
1627630993.2233, 109, 0, 4375.897, 4210.769, 4161.026, 4147.179, 4374.872, 450, 0, []
1627630993.2313, 110, 0, 4356.41, 4197.436, 4146.667, 4145.641, 4355.385, 450, 0, []
1627630993.2393, 111, 0, 4327.179, 4191.282, 4140, 4142.051, 4324.615, 16192, 0, []
1627630993.2471, 112, 0, 4305.641, 4200, 4147.179, 4138.462, 4298.462, 450, 0, []
1627630993.2551, 113, 0, 4286.154, 4202.564, 4139.487, 4130.256, 4281.026, 450, 0, []
1627630993.263, 114, 0, 4265.128, 4191.282, 4117.436, 4117.436, 4260, 450, 0, []
1627630993.271, 115, 0, 4251.795, 4177.436, 4113.333, 4109.231, 4241.538, 16192, 0, []
1627630993.279, 116, 0, 4253.333, 4176.41, 4142.051, 4129.231, 4244.615, 450, 0, []
1627630993.2868, 117, 0, 4269.231, 4193.333, 4164.103, 4163.59, 4265.641, 450, 0, []
1627630993.2948, 118, 0, 4287.179, 4217.949, 4175.897, 4177.436, 4279.487, 450, 0, []
1627630993.3027, 119, 0, 4281.026, 4221.026, 4168.205, 4167.179, 4267.179, 16192, 0, []
1627630993.3107, 120, 0, 4263.59, 4202.564, 4142.564, 4151.282, 4246.667, 450, 0, []
1627630993.3186, 121, 0, 4273.846, 4204.615, 4151.282, 4151.282, 4254.872, 450, 0, []
1627630993.3265, 122, 0, 4291.282, 4216.41, 4166.667, 4157.949, 4271.795, 450, 0, []
1627630993.3344, 123, 0, 4278.974, 4203.077, 4163.59, 4150.256, 4255.385, 16192, 0, []
1627630993.3424, 124, 0, 4253.846, 4185.128, 4160, 4140, 4229.744, 450, 0, []
1627630993.3503, 125, 0, 4244.615, 4185.128, 4149.231, 4138.974, 4221.026, 450, 0, []
1627630993.3583, 126, 0, 4248.205, 4189.744, 4141.026, 4137.949, 4219.487, 450, 0, []
1627630993.3661, 127, 0, 4245.641, 4193.333, 4133.846, 4132.821, 4216.923, 16192, 0, []
1627630993.3741, 128, 0, 4249.744, 4206.154, 4142.564, 4137.949, 4218.462, 450, 0, []
1627630993.382, 0, 0, 4272.308, 4218.974, 4162.564, 4146.154, 4229.744, 450, 0, []
1627630993.39, 1, 0, 4292.821, 4211.795, 4155.385, 4140.513, 4245.128, 450, 0, []
1627630993.3979, 2, 0, 4290.769, 4182.051, 4138.462, 4141.538, 4251.282, 16174, 0, []
1627630993.4058, 3, 0, 4270.256, 4165.128, 4132.821, 4154.359, 4235.897, 450, 0, []
1627630993.4137, 4, 0, 4254.872, 4186.667, 4137.949, 4155.897, 4222.051, 16167, 0, []
1627630993.4217, 5, 0, 4255.385, 4204.103, 4142.051, 4143.077, 4222.051, 450, 0, []
1627630993.4297, 6, 0, 4262.564, 4198.462, 4138.974, 4136.41, 4221.538, 241, 0, []
1627630993.4376, 7, 0, 4271.282, 4201.538, 4151.282, 4141.538, 4219.487, 450, 0, []
1627630993.4456, 8, 0, 4275.897, 4213.333, 4160.513, 4155.897, 4225.641, 450, 0, []
1627630993.4534, 9, 0, 4273.846, 4202.564, 4156.923, 4170.256, 4233.333, 16166, 0, []
1627630993.4614, 10, 0, 4261.538, 4183.59, 4154.359, 4172.821, 4225.641, 450, 0, []
1627630993.4693, 11, 0, 4252.308, 4189.744, 4144.615, 4172.308, 4212.308, 16192, 0, []
1627630993.4773, 12, 0, 4250.256, 4202.051, 4143.077, 4167.692, 4204.103, 450, 0, []
1627630993.4852, 13, 0, 4246.667, 4206.154, 4147.692, 4155.385, 4196.41, 450, 0, []
1627630993.4931, 14, 0, 4252.308, 4214.872, 4150.769, 4150.256, 4198.974, 450, 0, []
1627630993.501, 15, 0, 4263.077, 4220, 4155.385, 4150.769, 4205.128, 16192, 0, []
1627630993.509, 16, 0, 4262.051, 4206.154, 4147.179, 4146.154, 4202.051, 0, 0, []
1627630993.5169, 17, 0, 4260.513, 4195.385, 4148.718, 4154.872, 4202.564, 0, 0, []
1627630993.5249, 18, 0, 4272.821, 4209.744, 4165.641, 4177.949, 4219.487, 0, 0, []
1627630993.5327, 19, 0, 4284.103, 4223.59, 4164.103, 4189.744, 4234.359, 0, 0, []
1627630993.5407, 20, 0, 4284.103, 4230.769, 4155.897, 4184.615, 4230.769, 0, 0, []
1627630993.5486, 21, 0, 4277.436, 4227.692, 4147.692, 4168.718, 4220.513, 0, 0, []
1627630993.5566, 22, 0, 4272.308, 4221.538, 4141.538, 4153.333, 4215.897, 0, 0, []
1627630993.5645, 23, 0, 4277.436, 4229.231, 4145.641, 4158.462, 4216.923, 0, 0, []
1627630993.5724, 24, 0, 4286.667, 4234.359, 4156.41, 4173.333, 4220.513, 0, 0, []
1627630993.5804, 25, 0, 4280, 4221.538, 4157.436, 4171.795, 4214.872, 0, 0, []
1627630993.5883, 26, 0, 4267.179, 4212.821, 4142.051, 4167.692, 4205.128, 0, 0, []
1627630993.5963, 27, 0, 4268.718, 4220, 4141.026, 4175.385, 4203.59, 0, 0, []
1627630993.6042, 28, 0, 4264.103, 4216.923, 4146.154, 4173.846, 4203.59, 0, 0, []
1627630993.6121, 29, 0, 4252.308, 4212.821, 4140, 4165.641, 4198.974, 0, 0, []
1627630993.62, 30, 0, 4254.872, 4227.692, 4145.128, 4166.667, 4197.436, 0, 0, []
1627630993.628, 31, 0, 4267.179, 4236.923, 4145.641, 4173.333, 4205.128, 0, 0, []
1627630993.6359, 32, 0, 4268.205, 4224.103, 4138.974, 4170.769, 4203.077, 0, 0, []
1627630993.6439, 33, 0, 4253.846, 4209.231, 4137.949, 4163.077, 4195.897, 0, 0, []
1627630993.6517, 34, 0, 4251.282, 4213.846, 4140.513, 4174.359, 4209.231, 0, 0, []
1627630993.6597, 35, 0, 4256.41, 4219.487, 4143.59, 4190.769, 4223.59, 0, 0, []
1627630993.6676, 36, 0, 4250.769, 4214.359, 4128.205, 4177.436, 4215.897, 0, 0, []
1627630993.6756, 37, 0, 4246.154, 4215.897, 4121.026, 4156.923, 4210.769, 0, 0, []
1627630993.6835, 38, 0, 4254.872, 4228.205, 4145.641, 4171.795, 4224.615, 0, 0, []
1627630993.6914, 39, 0, 4258.462, 4234.359, 4150.769, 4195.385, 4230.256, 0, 0, []
1627630993.6993, 40, 0, 4245.641, 4227.692, 4135.897, 4189.231, 4212.821, 0, 0, []
1627630993.7073, 41, 0, 4242.051, 4228.718, 4129.231, 4180.513, 4201.538, 0, 0, []
1627630993.7152, 42, 0, 4249.744, 4235.385, 4131.282, 4184.615, 4209.744, 0, 0, []
1627630993.7232, 43, 0, 4250.769, 4230.769, 4146.154, 4185.128, 4219.487, 0, 0, []
1627630993.731, 44, 0, 4246.667, 4230.256, 4154.359, 4183.077, 4215.385, 0, 0, []
1627630993.739, 45, 0, 4246.154, 4234.359, 4152.821, 4187.692, 4206.154, 0, 0, []
1627630993.747, 46, 0, 4241.538, 4223.077, 4146.154, 4182.051, 4196.923, 0, 0, []
1627630993.7549, 47, 0, 4233.333, 4207.692, 4145.128, 4166.667, 4186.667, 0, 0, []
1627630993.7629, 48, 0, 4232.821, 4212.308, 4152.308, 4165.128, 4182.564, 0, 0, []
1627630993.7707, 49, 0, 4233.333, 4227.179, 4138.462, 4169.231, 4185.128, 0, 0, []
1627630993.7787, 50, 0, 4227.692, 4235.897, 4130.769, 4164.615, 4184.103, 0, 0, []
1627630993.7866, 51, 0, 4227.179, 4232.308, 4142.564, 4165.128, 4182.564, 0, 0, []
1627630993.7946, 52, 0, 4234.359, 4218.974, 4150.256, 4172.821, 4187.179, 0, 0, []
1627630993.8025, 53, 0, 4231.795, 4214.359, 4147.692, 4167.692, 4190.256, 0, 0, []
1627630993.8104, 54, 0, 4218.462, 4215.897, 4141.538, 4156.41, 4187.692, 0, 0, []
1627630993.8183, 55, 0, 4222.564, 4208.718, 4155.897, 4160, 4191.795, 0, 0, []
1627630993.8263, 56, 0, 4237.436, 4213.846, 4159.487, 4170.769, 4201.026, 0, 0, []
1627630993.8342, 57, 0, 4240, 4230.256, 4140, 4172.821, 4203.59, 0, 0, []
1627630993.8422, 58, 0, 4238.974, 4225.641, 4136.923, 4165.128, 4201.026, 0, 0, []
1627630993.85, 59, 0, 4241.538, 4213.846, 4146.154, 4165.641, 4204.103, 0, 0, []
1627630993.858, 60, 0, 4240, 4216.923, 4152.308, 4172.821, 4206.667, 0, 0, []
1627630993.8659, 61, 0, 4235.385, 4216.923, 4151.795, 4175.385, 4203.077, 0, 0, []
1627630993.8739, 62, 0, 4233.846, 4210.256, 4139.487, 4170.769, 4200, 0, 0, []
1627630993.8818, 63, 0, 4234.359, 4210.769, 4127.692, 4168.205, 4198.974, 0, 0, []
1627630993.8897, 64, 0, 4237.436, 4222.564, 4126.667, 4177.949, 4201.538, 450, 0, []
1627630993.8976, 65, 0, 4236.923, 4230.256, 4142.564, 4185.641, 4202.564, 450, 0, []
1627630993.9056, 66, 0, 4232.308, 4222.051, 4155.897, 4184.615, 4201.538, 16174, 0, []
1627630993.9136, 67, 0, 4234.359, 4221.026, 4144.103, 4186.667, 4208.205, 450, 0, []
1627630993.9215, 68, 0, 4235.385, 4230.256, 4142.051, 4185.128, 4212.821, 16167, 0, []
1627630993.9294, 69, 0, 4240, 4234.359, 4155.385, 4181.026, 4210.256, 450, 0, []
1627630993.9373, 70, 0, 4254.872, 4245.128, 4168.205, 4196.41, 4220, 261, 0, []
1627630993.9453, 71, 0, 4253.846, 4250.769, 4168.718, 4208.718, 4224.615, 450, 0, []
1627630993.9532, 72, 0, 4235.897, 4236.41, 4144.615, 4186.154, 4203.077, 450, 0, []
1627630993.9612, 73, 0, 4225.641, 4229.744, 4133.846, 4166.154, 4179.487, 16166, 0, []
1627630993.969, 74, 0, 4209.744, 4230.256, 4140, 4171.282, 4166.154, 450, 0, []
1627630993.977, 75, 0, 4185.128, 4214.872, 4136.41, 4173.333, 4154.359, 16192, 0, []
1627630993.9849, 76, 0, 4182.564, 4212.821, 4134.359, 4174.359, 4148.718, 450, 0, []
1627630993.9929, 77, 0, 4197.949, 4220.513, 4138.462, 4186.154, 4155.897, 450, 0, []
1627630994.0008, 78, 0, 4202.051, 4217.436, 4146.667, 4186.667, 4166.154, 450, 0, []
1627630994.0087, 79, 0, 4196.923, 4224.103, 4145.128, 4174.359, 4169.744, 16192, 0, []
1627630994.0166, 80, 0, 4201.538, 4228.205, 4140.513, 4174.872, 4171.282, 450, 0, []
1627630994.0246, 81, 0, 4214.359, 4219.487, 4146.667, 4188.205, 4182.564, 450, 0, []
1627630994.0325, 82, 0, 4216.41, 4214.872, 4146.667, 4191.282, 4191.795, 450, 0, []
1627630994.0405, 83, 0, 4202.051, 4216.41, 4143.077, 4173.846, 4178.462, 16192, 0, []
1627630994.0483, 84, 0, 4192.308, 4214.359, 4142.051, 4157.949, 4165.128, 450, 0, []
1627630994.0563, 85, 0, 4207.692, 4220, 4148.718, 4177.436, 4183.077, 450, 0, []
1627630994.0643, 86, 0, 4206.667, 4218.974, 4151.795, 4186.154, 4184.103, 450, 0, []
1627630994.0722, 87, 0, 4177.436, 4201.538, 4135.897, 4155.385, 4150.769, 16192, 0, []
1627630994.0802, 88, 0, 4187.692, 4213.333, 4144.103, 4155.897, 4154.359, 450, 0, []
1627630994.088, 89, 0, 4225.128, 4252.308, 4162.051, 4191.282, 4190.256, 450, 0, []
1627630994.096, 90, 0, 4231.795, 4254.872, 4153.846, 4194.872, 4197.436, 450, 0, []
1627630994.1039, 91, 0, 4225.641, 4230.256, 4155.385, 4178.974, 4189.231, 16192, 0, []
1627630994.1119, 92, 0, 4227.692, 4227.179, 4154.872, 4183.077, 4193.333, 450, 0, []
1627630994.1198, 93, 0, 4212.308, 4230.256, 4145.641, 4185.641, 4189.744, 450, 0, []
1627630994.1277, 94, 0, 4196.41, 4217.949, 4141.026, 4175.897, 4178.974, 450, 0, []
1627630994.1356, 95, 0, 4200, 4211.282, 4136.923, 4168.205, 4172.821, 16192, 0, []
1627630994.1436, 96, 0, 4200, 4221.538, 4143.077, 4173.333, 4168.718, 450, 0, []
1627630994.1515, 97, 0, 4195.897, 4231.795, 4144.103, 4184.103, 4171.282, 450, 0, []
1627630994.1595, 98, 0, 4203.077, 4231.795, 4149.744, 4188.718, 4171.795, 450, 0, []
1627630994.1673, 99, 0, 4203.59, 4227.692, 4160.513, 4191.282, 4167.692, 16192, 0, []
1627630994.1753, 100, 0, 4205.641, 4231.282, 4149.231, 4192.821, 4170.256, 450, 0, []
1627630994.1832, 101, 0, 4220, 4237.436, 4146.667, 4186.154, 4174.359, 450, 0, []
1627630994.1912, 102, 0, 4220.513, 4232.821, 4151.795, 4175.897, 4169.744, 450, 0, []
1627630994.1991, 103, 0, 4206.154, 4231.795, 4143.077, 4171.795, 4163.077, 16192, 0, []
1627630994.207, 104, 0, 4196.41, 4231.795, 4131.282, 4171.795, 4156.923, 450, 0, []
1627630994.2149, 105, 0, 4190.256, 4225.128, 4128.718, 4165.128, 4144.103, 450, 0, []
1627630994.2229, 106, 0, 4182.051, 4221.538, 4131.795, 4151.282, 4132.308, 450, 0, []
1627630994.2309, 107, 0, 4182.564, 4226.154, 4130.256, 4152.821, 4134.359, 16192, 0, []
1627630994.2388, 108, 0, 4186.667, 4231.795, 4136.923, 4168.718, 4140, 450, 0, []
1627630994.2467, 109, 0, 4187.179, 4231.282, 4140.513, 4168.718, 4143.077, 450, 0, []
1627630994.2546, 110, 0, 4198.974, 4241.026, 4138.974, 4167.692, 4158.462, 450, 0, []
1627630994.2626, 111, 0, 4208.205, 4248.205, 4152.821, 4173.846, 4170.256, 16192, 0, []
1627630994.2705, 112, 0, 4202.051, 4234.359, 4156.923, 4169.231, 4158.462, 450, 0, []
1627630994.2785, 113, 0, 4196.41, 4220, 4146.667, 4160, 4151.282, 450, 0, []
1627630994.2863, 114, 0, 4200, 4212.821, 4149.744, 4166.667, 4162.051, 450, 0, []
1627630994.2943, 115, 0, 4201.538, 4201.026, 4148.718, 4172.821, 4164.615, 16192, 0, []
1627630994.3022, 116, 0, 4200, 4201.026, 4146.667, 4166.667, 4156.41, 450, 0, []
1627630994.3102, 117, 0, 4201.026, 4220.513, 4146.667, 4167.179, 4156.923, 450, 0, []
1627630994.3181, 118, 0, 4197.949, 4222.051, 4135.385, 4168.205, 4160.513, 450, 0, []
1627630994.326, 119, 0, 4202.564, 4212.821, 4140.513, 4164.615, 4162.051, 16192, 0, []
1627630994.3339, 120, 0, 4212.308, 4217.949, 4154.359, 4175.897, 4173.333, 450, 0, []
1627630994.3419, 121, 0, 4209.231, 4220, 4154.872, 4189.231, 4176.923, 450, 0, []
1627630994.3498, 122, 0, 4198.462, 4210.256, 4145.128, 4182.564, 4161.026, 450, 0, []
1627630994.3578, 123, 0, 4217.436, 4214.872, 4144.615, 4178.462, 4172.821, 16192, 0, []
1627630994.3657, 124, 0, 4262.564, 4226.154, 4157.949, 4188.718, 4218.974, 450, 0, []
1627630994.3736, 125, 0, 4289.744, 4223.077, 4162.051, 4187.692, 4253.333, 450, 0, []
1627630994.3816, 126, 0, 4281.538, 4218.462, 4158.974, 4172.308, 4252.308, 450, 0, []
1627630994.3895, 127, 0, 4258.462, 4219.487, 4155.897, 4169.744, 4234.359, 16192, 0, []
1627630994.3975, 128, 0, 4254.359, 4217.436, 4159.487, 4186.154, 4232.308, 450, 0, []
1627630994.4053, 0, 0, 4262.564, 4218.974, 4169.744, 4197.949, 4245.641, 450, 0, []
1627630994.4133, 1, 0, 4251.795, 4214.359, 4151.795, 4185.128, 4235.385, 450, 0, []
1627630994.4212, 2, 0, 4226.154, 4193.333, 4132.821, 4157.436, 4198.974, 16174, 0, []
1627630994.4292, 3, 0, 4224.103, 4187.692, 4146.154, 4155.897, 4193.846, 450, 0, []
1627630994.4371, 4, 0, 4242.564, 4212.308, 4160.513, 4179.487, 4218.974, 16169, 0, []
1627630994.4451, 5, 0, 4239.487, 4229.744, 4166.154, 4186.667, 4216.41, 450, 0, []
1627630994.4529, 6, 0, 4229.231, 4225.641, 4164.103, 4176.923, 4196.41, 266, 0, []
1627630994.4609, 7, 0, 4240, 4218.974, 4163.077, 4179.487, 4202.051, 450, 0, []
1627630994.4688, 8, 0, 4254.872, 4216.923, 4166.154, 4194.359, 4222.564, 450, 0, []
1627630994.4768, 9, 0, 4247.179, 4215.897, 4156.923, 4193.333, 4224.103, 16166, 0, []
1627630994.4847, 10, 0, 4231.795, 4212.308, 4153.846, 4174.359, 4210.769, 450, 0, []
1627630994.4926, 11, 0, 4224.103, 4211.795, 4147.692, 4168.718, 4196.923, 16192, 0, []
1627630994.5005, 12, 0, 4217.949, 4219.487, 4131.795, 4178.462, 4185.128, 450, 0, []
1627630994.5085, 13, 0, 4226.154, 4231.282, 4135.897, 4185.641, 4189.744, 450, 0, []
1627630994.5164, 14, 0, 4246.154, 4233.333, 4162.051, 4194.359, 4210.256, 450, 0, []
1627630994.5244, 15, 0, 4255.897, 4219.487, 4186.667, 4199.487, 4222.051, 16192, 0, []
1627630994.5323, 16, 0, 4249.231, 4210.769, 4172.308, 4186.667, 4215.897, 0, 0, []
1627630994.5402, 17, 0, 4232.821, 4212.821, 4149.231, 4176.41, 4199.487, 0, 0, []
1627630994.5482, 18, 0, 4216.41, 4212.308, 4147.692, 4183.59, 4186.667, 0, 0, []
1627630994.5561, 19, 0, 4212.308, 4220, 4145.641, 4187.179, 4182.051, 0, 0, []
1627630994.5641, 20, 0, 4217.436, 4228.718, 4155.897, 4184.103, 4184.615, 0, 0, []
1627630994.5719, 21, 0, 4221.538, 4222.051, 4170.769, 4186.667, 4194.359, 0, 0, []
1627630994.5799, 22, 0, 4240, 4221.026, 4180.513, 4193.333, 4212.308, 0, 0, []
1627630994.5878, 23, 0, 4255.385, 4228.205, 4182.564, 4188.205, 4223.59, 0, 0, []
1627630994.5958, 24, 0, 4243.59, 4219.487, 4157.436, 4172.821, 4210.769, 0, 0, []
1627630994.6037, 25, 0, 4220, 4212.308, 4138.462, 4168.205, 4184.103, 0, 0, []
1627630994.6116, 26, 0, 4198.462, 4216.923, 4135.897, 4168.205, 4165.128, 0, 0, []
1627630994.6195, 27, 0, 4197.436, 4215.385, 4137.436, 4175.385, 4171.795, 0, 0, []
1627630994.6275, 28, 0, 4224.103, 4229.231, 4156.41, 4200.513, 4197.436, 0, 0, []
1627630994.6354, 29, 0, 4234.872, 4237.949, 4164.615, 4209.231, 4209.744, 0, 0, []
1627630994.6434, 30, 0, 4218.974, 4203.077, 4152.821, 4182.564, 4202.564, 0, 0, []
1627630994.6512, 31, 0, 4220, 4184.103, 4148.718, 4169.744, 4202.564, 0, 0, []
1627630994.6592, 32, 0, 4238.974, 4207.179, 4156.923, 4181.538, 4217.949, 0, 0, []
1627630994.6671, 33, 0, 4236.923, 4211.795, 4162.564, 4176.41, 4218.462, 0, 0, []
1627630994.6751, 34, 0, 4209.744, 4201.538, 4151.282, 4162.051, 4190.769, 0, 0, []
1627630994.683, 35, 0, 4185.641, 4214.872, 4151.282, 4162.564, 4165.128, 0, 0, []
1627630994.6909, 36, 0, 4174.872, 4224.615, 4158.462, 4166.667, 4158.462, 0, 0, []
1627630994.6989, 37, 0, 4177.949, 4211.795, 4145.641, 4175.897, 4167.179, 0, 0, []
1627630994.7068, 38, 0, 4194.359, 4201.026, 4144.615, 4193.333, 4185.128, 0, 0, []
1627630994.7148, 39, 0, 4208.205, 4196.41, 4166.667, 4200.513, 4203.077, 0, 0, []
1627630994.7227, 40, 0, 4217.949, 4190.256, 4200.513, 4205.641, 4213.333, 0, 0, []
1627630994.7306, 41, 0, 4227.692, 4184.103, 4215.385, 4218.462, 4221.538, 0, 0, []
1627630994.7385, 42, 0, 4222.564, 4187.179, 4191.795, 4216.41, 4220, 0, 0, []
1627630994.7465, 43, 0, 4200.513, 4198.462, 4162.564, 4193.333, 4203.077, 0, 0, []
1627630994.7544, 44, 0, 4195.385, 4204.103, 4138.462, 4175.385, 4193.846, 0, 0, []
1627630994.7624, 45, 0, 4200.513, 4206.154, 4125.128, 4163.59, 4185.641, 0, 0, []
1627630994.7702, 46, 0, 4193.846, 4212.308, 4130.769, 4153.846, 4175.385, 0, 0, []
1627630994.7782, 47, 0, 4204.615, 4218.462, 4138.974, 4165.128, 4190.256, 0, 0, []
1627630994.7861, 48, 0, 4234.359, 4220, 4151.282, 4184.615, 4214.872, 0, 0, []
1627630994.7941, 49, 0, 4256.923, 4223.077, 4162.564, 4188.718, 4238.974, 0, 0, []
1627630994.802, 50, 0, 4280, 4232.308, 4162.051, 4185.128, 4270.769, 0, 0, []
1627630994.8099, 51, 0, 4311.282, 4234.872, 4155.385, 4188.718, 4304.103, 0, 0, []
1627630994.8178, 52, 0, 4348.718, 4221.026, 4147.692, 4185.641, 4335.385, 0, 0, []
1627630994.8258, 53, 0, 4380.513, 4208.718, 4154.872, 4179.487, 4360.513, 0, 0, []
1627630994.8337, 54, 0, 4388.718, 4214.872, 4157.949, 4195.385, 4363.077, 0, 0, []
1627630994.8417, 55, 0, 4373.333, 4222.051, 4146.154, 4206.667, 4348.205, 0, 0, []
1627630994.8496, 56, 0, 4353.846, 4213.846, 4140.513, 4188.205, 4331.282, 0, 0, []
1627630994.8575, 57, 0, 4336.923, 4206.154, 4135.897, 4170.769, 4307.692, 0, 0, []
1627630994.8655, 58, 0, 4314.872, 4211.282, 4142.564, 4172.308, 4280.513, 0, 0, []
1627630994.8734, 59, 0, 4296.41, 4220, 4152.308, 4174.872, 4263.077, 0, 0, []
1627630994.8814, 60, 0, 4291.282, 4218.462, 4160, 4180, 4257.949, 0, 0, []
1627630994.8892, 61, 0, 4278.462, 4214.872, 4167.692, 4189.744, 4249.744, 0, 0, []
1627630994.8972, 62, 0, 4250.256, 4223.59, 4156.923, 4184.615, 4229.231, 0, 0, []
1627630994.9051, 63, 0, 4228.718, 4225.641, 4150.769, 4172.821, 4209.231, 0, 0, []
1627630994.9131, 64, 0, 4216.41, 4216.923, 4157.436, 4168.718, 4197.436, 450, 0, []
1627630994.921, 65, 0, 4215.385, 4223.59, 4156.923, 4169.744, 4193.846, 450, 0, []
1627630994.9289, 66, 0, 4226.667, 4224.615, 4158.974, 4173.333, 4200.513, 16174, 0, []
1627630994.9368, 67, 0, 4222.564, 4202.051, 4158.974, 4172.308, 4202.051, 450, 0, []
1627630994.9448, 68, 0, 4201.026, 4197.436, 4156.923, 4167.179, 4190.769, 16169, 0, []
1627630994.9527, 69, 0, 4195.385, 4216.41, 4150.256, 4167.692, 4180, 450, 0, []
1627630994.9607, 70, 0, 4203.077, 4218.462, 4146.667, 4166.154, 4177.436, 270, 0, []
1627630994.9685, 71, 0, 4203.077, 4213.333, 4165.641, 4158.974, 4178.462, 450, 0, []
1627630994.9765, 72, 0, 4196.923, 4212.308, 4168.205, 4155.897, 4179.487, 450, 0, []
1627630994.9844, 73, 0, 4194.359, 4207.179, 4151.795, 4153.333, 4178.462, 16166, 0, []
1627630994.9924, 74, 0, 4204.103, 4212.308, 4156.923, 4150.769, 4184.103, 450, 0, []
1627630995.0004, 75, 0, 4218.462, 4217.949, 4167.692, 4161.538, 4193.333, 16192, 0, []
1627630995.0082, 76, 0, 4220, 4210.256, 4166.667, 4172.308, 4190.769, 450, 0, []
1627630995.0162, 77, 0, 4210.769, 4214.872, 4157.949, 4167.692, 4181.026, 450, 0, []
1627630995.0241, 78, 0, 4213.333, 4234.359, 4166.667, 4168.718, 4185.128, 450, 0, []
1627630995.0321, 79, 0, 4216.923, 4237.436, 4174.872, 4179.487, 4192.821, 16192, 0, []
1627630995.04, 80, 0, 4196.923, 4218.974, 4155.897, 4175.385, 4178.462, 450, 0, []
1627630995.0479, 81, 0, 4185.128, 4210.256, 4156.41, 4166.154, 4163.59, 450, 0, []
1627630995.0558, 82, 0, 4197.949, 4221.026, 4163.59, 4171.282, 4172.308, 450, 0, []
1627630995.0638, 83, 0, 4197.436, 4216.41, 4149.744, 4168.718, 4170.256, 16192, 0, []
1627630995.0717, 84, 0, 4178.974, 4197.436, 4145.128, 4162.564, 4152.821, 450, 0, []
1627630995.0797, 85, 0, 4182.564, 4203.077, 4157.436, 4176.923, 4157.949, 450, 0, []
1627630995.0875, 86, 0, 4191.795, 4219.487, 4167.692, 4187.179, 4170.769, 450, 0, []
1627630995.0955, 87, 0, 4183.59, 4223.077, 4155.385, 4172.821, 4158.974, 16192, 0, []
1627630995.1034, 88, 0, 4180.513, 4221.026, 4141.538, 4166.154, 4150.769, 450, 0, []
1627630995.1114, 89, 0, 4185.641, 4218.462, 4149.231, 4174.872, 4163.59, 450, 0, []
1627630995.1193, 90, 0, 4188.205, 4214.359, 4155.385, 4173.846, 4167.179, 450, 0, []
1627630995.1272, 91, 0, 4189.231, 4212.308, 4154.359, 4164.615, 4155.897, 16192, 0, []
1627630995.1352, 92, 0, 4186.154, 4215.897, 4148.205, 4162.564, 4151.282, 450, 0, []
1627630995.1431, 93, 0, 4187.179, 4224.103, 4151.795, 4174.359, 4158.462, 450, 0, []
1627630995.151, 94, 0, 4190.769, 4223.077, 4165.128, 4184.615, 4165.641, 450, 0, []
1627630995.1588, 95, 0, 4189.231, 4214.872, 4163.59, 4179.487, 4161.026, 16192, 0, []
1627630995.1667, 96, 0, 4183.59, 4218.462, 4157.436, 4167.179, 4151.795, 450, 0, []
1627630995.1746, 97, 0, 4180, 4225.128, 4151.795, 4166.154, 4151.795, 450, 0, []
1627630995.1826, 98, 0, 4179.487, 4219.487, 4148.205, 4171.282, 4153.846, 450, 0, []
1627630995.1905, 99, 0, 4180.513, 4211.282, 4156.923, 4171.795, 4152.308, 16192, 0, []
1627630995.1985, 100, 0, 4190.256, 4215.385, 4157.949, 4171.795, 4161.026, 450, 0, []
1627630995.2063, 101, 0, 4203.077, 4225.128, 4157.436, 4176.923, 4176.41, 450, 0, []
1627630995.2143, 102, 0, 4195.385, 4222.564, 4159.487, 4177.436, 4168.205, 450, 0, []
1627630995.2222, 103, 0, 4174.359, 4215.385, 4151.282, 4164.615, 4145.128, 16192, 0, []
1627630995.2302, 104, 0, 4166.667, 4221.026, 4151.282, 4149.744, 4133.333, 450, 0, []
1627630995.2381, 105, 0, 4171.795, 4217.949, 4155.385, 4150.769, 4137.949, 450, 0, []
