Timestamp, COUNTER, INTERPOLATED, AF3, T7, Pz, T8, AF4, RAW_CQ, MARKER_HARDWARE, MARKERS
1630405061.1402, 80, 0, 4240, 4377.436, 4145.128, 4260.513, 4245.641, 450, 0, []
1630405061.1481, 81, 0, 4247.692, 4378.462, 4069.231, 4257.436, 4229.744, 450, 0, []
1630405061.156, 82, 0, 4229.231, 4363.077, 4054.872, 4226.667, 4211.282, 450, 0, []
1630405061.1639, 83, 0, 4205.641, 4336.923, 4134.359, 4212.308, 4208.205, 16221, 0, []
1630405061.1719, 84, 0, 4202.051, 4338.462, 4039.487, 4220.513, 4195.385, 450, 0, []
1630405061.1798, 85, 0, 4197.436, 4342.564, 4092.308, 4207.692, 4165.128, 450, 0, []
1630405061.1876, 86, 0, 4200.513, 4337.949, 4074.359, 4202.051, 4182.051, 450, 0, []
1630405061.1954, 87, 0, 4202.051, 4338.462, 4079.487, 4217.949, 4200.513, 16221, 0, []
1630405061.2032, 88, 0, 4198.974, 4352.308, 4126.667, 4214.872, 4170.769, 450, 0, []
1630405061.2111, 89, 0, 4205.641, 4360.513, 4026.154, 4190.769, 4165.128, 450, 0, []
1630405061.2189, 90, 0, 4201.026, 4354.359, 4130.769, 4196.41, 4190.769, 450, 0, []
1630405061.2268, 91, 0, 4203.59, 4353.846, 4116.923, 4222.051, 4197.436, 16221, 0, []
1630405061.2346, 92, 0, 4217.949, 4340.513, 4050.769, 4208.718, 4180, 450, 0, []
1630405061.2425, 93, 0, 4222.564, 4334.872, 4126.154, 4180.513, 4186.154, 450, 0, []
1630405061.2504, 94, 0, 4214.359, 4353.333, 4051.282, 4178.462, 4196.923, 450, 0, []
1630405061.2584, 95, 0, 4193.846, 4340, 4093.846, 4176.41, 4157.436, 16221, 0, []
1630405061.2663, 96, 0, 4197.949, 4329.231, 4075.385, 4170.769, 4135.385, 450, 0, []
1630405061.2743, 97, 0, 4207.692, 4351.282, 4054.872, 4172.821, 4158.974, 450, 0, []
1630405061.2821, 98, 0, 4210.256, 4351.282, 4152.308, 4185.641, 4176.923, 450, 0, []
1630405061.2901, 99, 0, 4223.077, 4338.462, 4046.154, 4199.487, 4169.231, 16221, 0, []
1630405061.298, 100, 0, 4206.154, 4334.872, 4077.436, 4181.026, 4147.179, 450, 0, []
1630405061.306, 101, 0, 4190.256, 4333.846, 4088.205, 4166.154, 4157.436, 450, 0, []
1630405061.3139, 102, 0, 4198.974, 4328.205, 4030.256, 4178.974, 4164.615, 450, 0, []
1630405061.3218, 103, 0, 4185.128, 4320.513, 4114.359, 4157.949, 4136.923, 16221, 0, []
1630405061.3297, 104, 0, 4156.923, 4300, 4028.718, 4127.179, 4124.103, 450, 0, []
1630405061.3377, 105, 0, 4147.692, 4277.436, 4061.538, 4137.436, 4111.795, 450, 0, []
1630405061.3456, 106, 0, 4159.487, 4312.308, 4087.179, 4142.051, 4107.692, 450, 0, []
1630405061.3534, 107, 0, 4163.077, 4335.897, 4015.897, 4128.718, 4124.615, 16221, 0, []
1630405061.3612, 108, 0, 4160.513, 4298.974, 4108.205, 4136.923, 4116.923, 450, 0, []
1630405061.369, 109, 0, 4157.436, 4271.795, 4023.077, 4125.128, 4097.436, 450, 0, []
1630405061.3769, 110, 0, 4131.795, 4262.564, 4032.308, 4092.308, 4087.692, 450, 0, []
1630405061.3847, 111, 0, 4133.333, 4286.667, 4089.744, 4109.744, 4091.282, 16221, 0, []
1630405061.3926, 112, 0, 4161.538, 4309.231, 4023.59, 4134.872, 4103.59, 450, 0, []
1630405061.4003, 113, 0, 4151.282, 4283.59, 4114.872, 4126.667, 4111.795, 450, 0, []
1630405061.4082, 114, 0, 4151.282, 4290.769, 4054.359, 4141.538, 4119.487, 450, 0, []
1630405061.416, 115, 0, 4181.026, 4332.821, 4064.615, 4162.564, 4116.923, 16221, 0, []
1630405061.424, 116, 0, 4185.128, 4328.718, 4123.59, 4154.359, 4130.256, 450, 0, []
1630405061.4319, 117, 0, 4169.231, 4289.231, 4022.564, 4145.641, 4145.128, 450, 0, []
1630405061.4398, 118, 0, 4164.103, 4283.077, 4097.436, 4143.59, 4116.41, 450, 0, []
1630405061.4477, 119, 0, 4163.59, 4300, 4050.769, 4135.897, 4101.538, 16221, 0, []
1630405061.4557, 120, 0, 4149.744, 4276.923, 4033.846, 4125.128, 4110.256, 450, 0, []
1630405061.4636, 121, 0, 4154.359, 4264.103, 4105.128, 4122.564, 4099.487, 450, 0, []
1630405061.4716, 122, 0, 4162.564, 4287.179, 4017.436, 4114.872, 4089.744, 450, 0, []
1630405061.4794, 123, 0, 4141.538, 4272.308, 4080.513, 4101.538, 4088.718, 16221, 0, []
1630405061.4874, 124, 0, 4157.436, 4262.051, 4045.128, 4119.487, 4100, 450, 0, []
1630405061.4953, 125, 0, 4185.641, 4289.744, 4034.359, 4137.949, 4114.872, 450, 0, []
1630405061.5031, 126, 0, 4175.897, 4295.897, 4124.615, 4133.846, 4129.231, 450, 0, []
1630405061.511, 127, 0, 4177.949, 4290.256, 4026.154, 4145.128, 4133.333, 16221, 0, []
1630405061.5187, 128, 0, 4185.641, 4296.41, 4090.769, 4153.846, 4112.308, 450, 0, []
1630405061.5266, 0, 0, 4170.769, 4296.923, 4083.077, 4145.128, 4116.923, 450, 0, []
1630405061.5344, 1, 0, 4153.846, 4288.205, 4031.795, 4145.641, 4123.59, 450, 0, []
1630405061.5423, 2, 0, 4160, 4298.462, 4114.872, 4150.256, 4104.615, 16215, 0, []
1630405061.5501, 3, 0, 4167.179, 4315.897, 4040.513, 4143.59, 4108.205, 450, 0, []
1630405061.5581, 4, 0, 4157.436, 4300.513, 4092.308, 4139.487, 4122.564, 16158, 0, []
1630405061.5659, 5, 0, 4177.436, 4302.051, 4080.513, 4150.256, 4126.667, 450, 0, []
1630405061.5739, 6, 0, 4196.41, 4318.974, 4031.795, 4151.795, 4128.205, 227, 0, []
1630405061.5818, 7, 0, 4179.487, 4308.718, 4132.308, 4150.769, 4137.436, 450, 0, []
1630405061.5898, 8, 0, 4171.795, 4295.385, 4025.128, 4157.436, 4131.282, 450, 0, []
1630405061.5977, 9, 0, 4166.154, 4278.974, 4051.795, 4137.949, 4103.59, 16172, 0, []
1630405061.6056, 10, 0, 4164.103, 4266.667, 4092.308, 4120.513, 4122.051, 450, 0, []
1630405061.6135, 11, 0, 4169.744, 4270.256, 4029.231, 4137.436, 4138.974, 16221, 0, []
1630405061.6215, 12, 0, 4169.744, 4289.231, 4108.205, 4150.256, 4104.615, 450, 0, []
1630405061.6294, 13, 0, 4184.615, 4318.462, 4040, 4155.385, 4115.897, 450, 0, []
1630405061.6373, 14, 0, 4196.923, 4317.436, 4087.179, 4174.872, 4152.308, 450, 0, []
1630405061.6451, 15, 0, 4205.128, 4315.385, 4126.667, 4192.821, 4148.205, 16221, 0, []
1630405061.6529, 16, 0, 4215.897, 4326.154, 4039.487, 4189.744, 4141.538, 0, 0, []
1630405061.6608, 17, 0, 4212.821, 4327.179, 4138.462, 4188.718, 4161.026, 0, 0, []
1630405061.6686, 18, 0, 4226.667, 4343.077, 4086.154, 4213.846, 4192.821, 0, 0, []
1630405061.6765, 19, 0, 4252.821, 4348.205, 4094.872, 4239.487, 4195.897, 0, 0, []
1630405061.6842, 20, 0, 4262.564, 4336.41, 4148.718, 4234.872, 4192.821, 0, 0, []
1630405061.6921, 21, 0, 4260, 4353.333, 4069.744, 4231.795, 4219.487, 0, 0, []
1630405061.6999, 22, 0, 4267.179, 4382.564, 4168.718, 4257.949, 4240.513, 0, 0, []
1630405061.7079, 23, 0, 4296.41, 4381.538, 4115.897, 4277.949, 4240.513, 0, 0, []
1630405061.7158, 24, 0, 4306.667, 4373.333, 4086.154, 4264.103, 4230.256, 0, 0, []
1630405061.7237, 25, 0, 4297.949, 4395.385, 4155.385, 4249.231, 4244.615, 0, 0, []
1630405061.7316, 26, 0, 4292.308, 4393.846, 4078.462, 4259.487, 4270.769, 0, 0, []
1630405061.7396, 27, 0, 4288.205, 4358.974, 4149.744, 4275.897, 4260.513, 0, 0, []
1630405061.7475, 28, 0, 4317.436, 4369.231, 4115.385, 4289.231, 4258.974, 0, 0, []
1630405061.7555, 29, 0, 4342.564, 4401.538, 4101.026, 4292.308, 4267.692, 0, 0, []
1630405061.7633, 30, 0, 4343.59, 4416.41, 4176.923, 4292.821, 4270.256, 0, 0, []
1630405061.7713, 31, 0, 4351.795, 4425.128, 4076.41, 4289.744, 4288.718, 0, 0, []
1630405061.7792, 32, 0, 4337.949, 4405.641, 4143.59, 4271.282, 4287.692, 0, 0, []
1630405061.787, 33, 0, 4315.385, 4378.462, 4116.923, 4270.769, 4270.256, 0, 0, []
1630405061.7949, 34, 0, 4307.692, 4368.718, 4060.513, 4276.41, 4253.333, 0, 0, []
1630405061.8026, 35, 0, 4309.744, 4380, 4145.128, 4265.641, 4237.436, 0, 0, []
1630405061.8105, 36, 0, 4315.897, 4387.179, 4051.282, 4260, 4238.462, 0, 0, []
1630405061.8183, 37, 0, 4305.641, 4352.308, 4112.821, 4256.41, 4243.59, 0, 0, []
1630405061.8262, 38, 0, 4300, 4337.436, 4134.359, 4258.974, 4259.487, 0, 0, []
1630405061.834, 39, 0, 4309.231, 4373.846, 4074.872, 4278.462, 4268.205, 0, 0, []
1630405061.8418, 40, 0, 4320, 4401.538, 4153.846, 4291.282, 4255.385, 0, 0, []
1630405061.8496, 41, 0, 4322.564, 4391.282, 4066.154, 4277.949, 4244.615, 0, 0, []
1630405061.8575, 42, 0, 4304.103, 4370.256, 4104.103, 4252.821, 4237.949, 0, 0, []
1630405061.8653, 43, 0, 4303.59, 4399.487, 4135.385, 4253.333, 4255.385, 0, 0, []
1630405061.8732, 44, 0, 4313.333, 4415.385, 4078.974, 4275.897, 4274.359, 0, 0, []
1630405061.8809, 45, 0, 4311.282, 4370.256, 4160.513, 4289.744, 4267.692, 0, 0, []
1630405061.8889, 46, 0, 4326.154, 4366.154, 4066.667, 4285.128, 4262.564, 0, 0, []
1630405061.8968, 47, 0, 4331.795, 4398.974, 4090.769, 4266.154, 4256.923, 0, 0, []
1630405061.9048, 48, 0, 4317.949, 4397.949, 4137.949, 4254.872, 4264.615, 0, 0, []
1630405061.9127, 49, 0, 4300, 4365.641, 4056.923, 4257.949, 4268.205, 0, 0, []
1630405061.9207, 50, 0, 4291.795, 4358.974, 4141.538, 4264.103, 4247.179, 0, 0, []
1630405061.9285, 51, 0, 4317.949, 4398.462, 4088.718, 4274.872, 4256.41, 0, 0, []
1630405061.9365, 52, 0, 4331.795, 4397.436, 4102.051, 4276.923, 4270.256, 0, 0, []
1630405061.9444, 53, 0, 4318.462, 4360.513, 4148.205, 4268.205, 4270.256, 0, 0, []
1630405061.9524, 54, 0, 4303.59, 4359.487, 4070.256, 4258.462, 4275.897, 0, 0, []
1630405061.9603, 55, 0, 4285.641, 4373.333, 4155.897, 4247.692, 4254.359, 0, 0, []
1630405061.968, 56, 0, 4293.846, 4383.59, 4100, 4254.359, 4236.41, 0, 0, []
1630405061.9759, 57, 0, 4308.718, 4380, 4101.538, 4265.641, 4240, 0, 0, []
1630405061.9837, 58, 0, 4302.051, 4368.205, 4161.538, 4252.308, 4244.615, 0, 0, []
1630405061.9916, 59, 0, 4302.564, 4375.897, 4067.179, 4244.103, 4261.026, 0, 0, []
1630405061.9994, 60, 0, 4314.872, 4380.513, 4156.923, 4267.179, 4276.923, 0, 0, []
1630405062.0072, 61, 0, 4324.103, 4375.385, 4109.231, 4286.667, 4276.41, 0, 0, []
1630405062.015, 62, 0, 4315.897, 4364.103, 4065.641, 4274.872, 4252.821, 0, 0, []
1630405062.0229, 63, 0, 4306.667, 4364.615, 4151.282, 4257.436, 4242.564, 0, 0, []
1630405062.0307, 64, 0, 4305.128, 4379.487, 4077.949, 4245.641, 4259.487, 450, 0, []
1630405062.0387, 65, 0, 4304.103, 4372.821, 4146.667, 4249.744, 4266.154, 450, 0, []
1630405062.0465, 66, 0, 4333.846, 4387.692, 4131.795, 4288.205, 4285.128, 16215, 0, []
1630405062.0545, 67, 0, 4351.795, 4411.282, 4100.513, 4304.103, 4291.282, 450, 0, []
1630405062.0624, 68, 0, 4328.718, 4396.923, 4169.744, 4276.923, 4266.667, 16152, 0, []
1630405062.0704, 69, 0, 4323.59, 4392.308, 4067.692, 4258.974, 4266.667, 450, 0, []
1630405062.0783, 70, 0, 4316.923, 4406.154, 4137.436, 4246.667, 4276.41, 264, 0, []
1630405062.0862, 71, 0, 4307.179, 4396.41, 4144.103, 4245.641, 4278.974, 450, 0, []
1630405062.0941, 72, 0, 4318.462, 4368.718, 4082.564, 4259.487, 4274.872, 450, 0, []
1630405062.1021, 73, 0, 4336.41, 4386.667, 4165.128, 4258.462, 4267.692, 16177, 0, []
1630405062.11, 74, 0, 4347.692, 4428.718, 4085.641, 4262.051, 4276.923, 450, 0, []
1630405062.118, 75, 0, 4343.077, 4410.256, 4135.897, 4270.769, 4289.231, 16221, 0, []
1630405062.1258, 76, 0, 4342.051, 4384.615, 4148.205, 4267.692, 4299.487, 450, 0, []
1630405062.1336, 77, 0, 4334.359, 4386.154, 4070.256, 4264.615, 4290.769, 450, 0, []
1630405062.1415, 78, 0, 4314.359, 4378.974, 4155.385, 4262.051, 4262.051, 450, 0, []
1630405062.1493, 79, 0, 4314.359, 4368.718, 4082.564, 4251.282, 4248.205, 16221, 0, []
1630405062.1572, 80, 0, 4324.615, 4375.385, 4121.538, 4247.179, 4247.179, 450, 0, []
1630405062.1649, 81, 0, 4343.077, 4403.59, 4167.179, 4260, 4275.385, 450, 0, []
1630405062.1728, 82, 0, 4349.231, 4413.333, 4097.436, 4269.231, 4304.615, 450, 0, []
1630405062.1806, 83, 0, 4334.359, 4406.667, 4180, 4271.795, 4294.872, 16221, 0, []
1630405062.1885, 84, 0, 4343.077, 4417.949, 4095.385, 4281.026, 4291.282, 450, 0, []
1630405062.1963, 85, 0, 4351.282, 4415.385, 4108.205, 4275.897, 4284.103, 450, 0, []
1630405062.2042, 86, 0, 4343.077, 4403.59, 4169.744, 4259.487, 4268.205, 450, 0, []
1630405062.2121, 87, 0, 4344.103, 4402.564, 4075.897, 4251.795, 4273.333, 16221, 0, []
1630405062.2201, 88, 0, 4340.513, 4400.513, 4155.385, 4245.641, 4288.718, 450, 0, []
1630405062.228, 89, 0, 4330.769, 4397.436, 4110.256, 4249.231, 4302.564, 450, 0, []
1630405062.236, 90, 0, 4323.077, 4380.513, 4097.436, 4262.564, 4292.821, 450, 0, []
1630405062.2438, 91, 0, 4337.949, 4374.359, 4140.513, 4270.769, 4283.077, 16221, 0, []
1630405062.2518, 92, 0, 4350.769, 4390.769, 4080, 4269.744, 4280, 450, 0, []
1630405062.2597, 93, 0, 4334.872, 4407.179, 4161.538, 4266.667, 4266.667, 450, 0, []
1630405062.2676, 94, 0, 4332.821, 4428.205, 4087.692, 4263.59, 4278.974, 450, 0, []
1630405062.2755, 95, 0, 4322.051, 4403.59, 4102.564, 4242.051, 4286.154, 16221, 0, []
1630405062.2833, 96, 0, 4308.205, 4371.282, 4167.179, 4232.821, 4279.487, 450, 0, []
1630405062.2911, 97, 0, 4326.154, 4393.333, 4061.538, 4255.385, 4283.077, 450, 0, []
1630405062.2989, 98, 0, 4331.795, 4407.179, 4146.667, 4265.641, 4264.615, 450, 0, []
1630405062.3068, 99, 0, 4323.59, 4397.436, 4103.59, 4251.795, 4249.744, 16221, 0, []
1630405062.3146, 100, 0, 4313.846, 4391.795, 4081.026, 4233.333, 4254.359, 450, 0, []
1630405062.3225, 101, 0, 4302.564, 4387.692, 4152.821, 4226.154, 4258.974, 450, 0, []
1630405062.3302, 102, 0, 4297.949, 4371.795, 4080.513, 4234.872, 4253.333, 450, 0, []
1630405062.3382, 103, 0, 4293.846, 4358.974, 4117.949, 4233.333, 4228.718, 16221, 0, []
1630405062.3461, 104, 0, 4290.769, 4357.436, 4076.923, 4213.846, 4205.641, 450, 0, []
1630405062.3541, 105, 0, 4285.641, 4360, 4095.385, 4202.051, 4207.692, 450, 0, []
1630405062.362, 106, 0, 4298.974, 4393.846, 4126.154, 4221.026, 4245.128, 450, 0, []
1630405062.3699, 107, 0, 4308.205, 4399.487, 4049.231, 4235.385, 4260.513, 16221, 0, []
1630405062.3778, 108, 0, 4292.308, 4355.385, 4141.026, 4223.59, 4224.103, 450, 0, []
1630405062.3858, 109, 0, 4296.41, 4369.231, 4047.179, 4214.872, 4216.923, 450, 0, []
1630405062.3937, 110, 0, 4289.744, 4398.974, 4029.744, 4200, 4221.026, 450, 0, []
1630405062.4017, 111, 0, 4260, 4357.949, 4168.718, 4185.128, 4212.308, 16221, 0, []
1630405062.4095, 112, 0, 4251.795, 4314.872, 4058.462, 4197.436, 4211.282, 450, 0, []
1630405062.4175, 113, 0, 4258.462, 4329.231, 4099.487, 4213.846, 4195.897, 450, 0, []
1630405062.4254, 114, 0, 4279.487, 4372.308, 4130.769, 4217.949, 4203.077, 450, 0, []
1630405062.4332, 115, 0, 4285.641, 4371.795, 4079.487, 4212.821, 4231.795, 16221, 0, []
1630405062.4411, 116, 0, 4270.769, 4334.872, 4146.154, 4213.333, 4236.923, 450, 0, []
1630405062.4488, 117, 0, 4281.538, 4333.846, 4083.077, 4223.59, 4234.872, 450, 0, []
1630405062.4567, 118, 0, 4298.462, 4358.462, 4112.308, 4233.333, 4232.821, 450, 0, []
1630405062.4646, 119, 0, 4306.667, 4384.615, 4153.333, 4241.026, 4245.641, 16221, 0, []
1630405062.4725, 120, 0, 4309.744, 4398.462, 4111.282, 4241.538, 4266.667, 450, 0, []
1630405062.4803, 121, 0, 4303.59, 4381.026, 4137.436, 4236.923, 4273.846, 450, 0, []
1630405062.4882, 122, 0, 4305.128, 4355.897, 4104.615, 4250.256, 4272.821, 450, 0, []
1630405062.4961, 123, 0, 4307.179, 4346.667, 4167.692, 4254.359, 4249.744, 16221, 0, []
1630405062.5041, 124, 0, 4313.333, 4363.077, 4016.923, 4231.795, 4243.59, 450, 0, []
1630405062.512, 125, 0, 4281.026, 4345.641, 4126.154, 4208.718, 4238.462, 450, 0, []
1630405062.52, 126, 0, 4229.231, 4295.385, 4544.103, 4200, 4200.513, 450, 0, []
1630405062.5278, 127, 0, 4252.308, 4307.179, 4144.615, 4213.333, 4198.462, 16221, 0, []
1630405062.5358, 128, 0, 4269.231, 4333.846, 3970.256, 4212.308, 4202.051, 450, 0, []
1630405062.5437, 0, 0, 4252.308, 4333.846, 4196.41, 4189.744, 4205.128, 450, 0, []
1630405062.5517, 1, 0, 4276.923, 4334.872, 4032.308, 4187.179, 4246.154, 450, 0, []
1630405062.5596, 2, 0, 4333.333, 4337.949, 4066.667, 4201.538, 4290.769, 16216, 0, []
1630405062.5675, 3, 0, 4406.667, 4348.718, 4079.487, 4218.462, 4338.462, 450, 0, []
1630405062.5754, 4, 0, 4464.103, 4352.821, 4070.769, 4220.513, 4372.821, 16148, 0, []
1630405062.5834, 5, 0, 4504.615, 4370.256, 4124.103, 4212.308, 4401.026, 450, 0, []
1630405062.5913, 6, 0, 4541.538, 4389.231, 4049.744, 4213.846, 4432.821, 238, 0, []
1630405062.5991, 7, 0, 4559.487, 4372.821, 4097.436, 4211.282, 4440.513, 450, 0, []
1630405062.6069, 8, 0, 4580.513, 4364.103, 4075.385, 4203.59, 4445.128, 450, 0, []
1630405062.6147, 9, 0, 4604.103, 4366.154, 4063.077, 4206.154, 4454.872, 16180, 0, []
1630405062.6226, 10, 0, 4616.41, 4369.744, 4118.462, 4213.846, 4460, 450, 0, []
1630405062.6304, 11, 0, 4623.59, 4390.256, 4068.205, 4217.436, 4461.026, 16246, 0, []
1630405062.6384, 12, 0, 4618.974, 4382.564, 4110.256, 4207.179, 4443.59, 450, 0, []
1630405062.6463, 13, 0, 4607.692, 4365.641, 4091.282, 4200.513, 4426.667, 450, 0, []
1630405062.6541, 14, 0, 4597.436, 4387.692, 4077.949, 4211.282, 4428.718, 450, 0, []
1630405062.6619, 15, 0, 4576.41, 4409.231, 4133.333, 4215.385, 4420.513, 16246, 0, []
1630405062.6699, 16, 0, 4539.487, 4395.897, 4064.615, 4200.513, 4382.051, 0, 0, []
1630405062.6778, 17, 0, 4499.487, 4364.615, 4100.513, 4187.179, 4334.359, 0, 0, []
1630405062.6858, 18, 0, 4482.564, 4360.513, 4095.385, 4195.385, 4320, 0, 0, []
1630405062.6936, 19, 0, 4462.564, 4388.718, 4053.333, 4190.769, 4310.256, 0, 0, []
1630405062.7016, 20, 0, 4412.821, 4402.051, 4108.205, 4145.128, 4263.077, 0, 0, []
1630405062.7095, 21, 0, 4382.564, 4389.231, 4058.462, 4120, 4239.487, 0, 0, []
1630405062.7173, 22, 0, 4371.282, 4374.359, 4094.872, 4123.59, 4251.795, 0, 0, []
1630405062.7252, 23, 0, 4356.41, 4383.59, 4115.385, 4130.769, 4257.949, 0, 0, []
1630405062.7329, 24, 0, 4337.949, 4391.795, 4067.179, 4146.154, 4239.487, 0, 0, []
1630405062.7408, 25, 0, 4312.821, 4380.513, 4107.692, 4144.615, 4196.923, 0, 0, []
1630405062.7486, 26, 0, 4302.564, 4374.872, 4047.692, 4131.282, 4173.846, 0, 0, []
1630405062.7565, 27, 0, 4290.256, 4371.795, 4073.846, 4124.615, 4173.333, 0, 0, []
1630405062.7643, 28, 0, 4280.513, 4373.846, 4124.615, 4126.667, 4188.718, 0, 0, []
1630405062.7721, 29, 0, 4292.821, 4366.154, 4056.923, 4136.41, 4204.615, 0, 0, []
1630405062.7799, 30, 0, 4278.974, 4345.641, 4121.026, 4133.333, 4173.333, 0, 0, []
1630405062.7878, 31, 0, 4245.641, 4363.077, 4122.051, 4119.487, 4145.128, 0, 0, []
1630405062.7956, 32, 0, 4228.205, 4384.615, 4031.282, 4124.103, 4163.077, 0, 0, []
1630405062.8036, 33, 0, 4224.103, 4371.282, 4075.897, 4144.103, 4162.564, 0, 0, []
1630405062.8114, 34, 0, 4221.538, 4360.513, 4142.564, 4138.462, 4128.718, 0, 0, []
1630405062.8194, 35, 0, 4208.205, 4366.154, 4143.59, 4110.769, 4125.128, 0, 0, []
1630405062.8273, 36, 0, 4197.436, 4378.462, 4093.846, 4113.846, 4151.282, 0, 0, []
1630405062.8353, 37, 0, 4210.256, 4376.923, 4110.769, 4131.795, 4140.513, 0, 0, []
1630405062.8432, 38, 0, 4230.256, 4374.359, 4149.231, 4129.744, 4131.795, 0, 0, []
1630405062.8511, 39, 0, 4222.564, 4390.256, 4128.205, 4136.41, 4163.59, 0, 0, []
1630405062.859, 40, 0, 4208.718, 4390.769, 4148.205, 4152.308, 4174.359, 0, 0, []
1630405062.867, 41, 0, 4233.846, 4390.256, 4096.41, 4156.923, 4163.077, 0, 0, []
1630405062.8749, 42, 0, 4241.026, 4412.821, 4132.308, 4143.077, 4164.615, 0, 0, []
1630405062.8827, 43, 0, 4218.974, 4423.077, 4137.949, 4136.41, 4174.359, 0, 0, []
1630405062.8905, 44, 0, 4220, 4413.333, 4006.667, 4155.897, 4167.179, 0, 0, []
1630405062.8983, 45, 0, 4231.795, 4427.179, 4128.718, 4168.205, 4156.923, 0, 0, []
1630405062.9062, 46, 0, 4241.538, 4471.282, 4101.538, 4174.359, 4196.41, 0, 0, []
1630405062.914, 47, 0, 4233.333, 4452.308, 4023.077, 4174.872, 4208.718, 0, 0, []
1630405062.9219, 48, 0, 4222.564, 4416.923, 4092.308, 4168.205, 4165.128, 0, 0, []
1630405062.9296, 49, 0, 4219.487, 4441.538, 4028.718, 4151.795, 4156.41, 0, 0, []
1630405062.9375, 50, 0, 4202.051, 4442.564, 4094.872, 4133.846, 4171.282, 0, 0, []
1630405062.9453, 51, 0, 4206.667, 4428.205, 4083.077, 4151.795, 4176.923, 0, 0, []
1630405062.9532, 52, 0, 4212.821, 4438.974, 4083.59, 4170.256, 4157.436, 0, 0, []
1630405062.961, 53, 0, 4198.462, 4441.026, 4144.615, 4150.769, 4153.846, 0, 0, []
1630405062.9689, 54, 0, 4207.179, 4410.769, 4075.897, 4133.846, 4177.436, 0, 0, []
1630405062.9766, 55, 0, 4229.744, 4405.641, 4163.077, 4133.333, 4165.128, 0, 0, []
1630405062.9846, 56, 0, 4246.154, 4438.974, 4151.795, 4132.821, 4163.59, 0, 0, []
1630405062.9925, 57, 0, 4234.872, 4426.154, 4159.487, 4131.795, 4188.205, 0, 0, []
1630405063.0005, 58, 0, 4221.026, 4401.538, 4236.41, 4140, 4182.564, 0, 0, []
1630405063.0084, 59, 0, 4226.154, 4405.128, 4185.128, 4146.667, 4153.333, 0, 0, []
1630405063.0163, 60, 0, 4212.308, 4394.359, 4269.744, 4133.846, 4148.205, 0, 0, []
1630405063.0242, 61, 0, 4197.436, 4371.282, 4256.923, 4131.795, 4167.692, 0, 0, []
1630405063.0322, 62, 0, 4196.923, 4365.641, 4237.949, 4142.051, 4148.718, 0, 0, []
1630405063.0401, 63, 0, 4206.667, 4385.641, 4314.359, 4138.462, 4133.846, 0, 0, []
1630405063.0479, 64, 0, 4224.103, 4400.513, 4253.333, 4146.667, 4176.41, 450, 0, []
1630405063.0557, 65, 0, 4236.41, 4390.769, 4286.667, 4171.795, 4202.051, 450, 0, []
1630405063.0635, 66, 0, 4255.897, 4401.026, 4271.282, 4191.282, 4195.385, 16204, 0, []
1630405063.0714, 67, 0, 4265.641, 4421.026, 4228.718, 4182.051, 4206.667, 450, 0, []
1630405063.0792, 68, 0, 4266.667, 4400.513, 4273.846, 4181.026, 4235.897, 16135, 0, []
1630405063.0871, 69, 0, 4274.359, 4378.462, 4189.231, 4209.744, 4240, 450, 0, []
1630405063.0948, 70, 0, 4256.41, 4371.282, 4179.487, 4205.641, 4196.41, 225, 0, []
1630405063.1027, 71, 0, 4236.923, 4369.744, 4170.256, 4184.615, 4184.615, 450, 0, []
1630405063.1105, 72, 0, 4226.667, 4369.744, 4115.385, 4189.231, 4204.103, 450, 0, []
1630405063.1185, 73, 0, 4211.795, 4353.846, 4136.41, 4193.846, 4185.641, 16184, 0, []
1630405063.1264, 74, 0, 4222.564, 4353.846, 4075.897, 4194.359, 4176.41, 450, 0, []
1630405063.1343, 75, 0, 4225.641, 4380, 4090.769, 4187.692, 4193.846, 16231, 0, []
1630405063.1422, 76, 0, 4212.821, 4389.231, 4110.256, 4190.256, 4203.077, 450, 0, []
1630405063.1502, 77, 0, 4224.615, 4363.59, 4056.923, 4201.026, 4197.436, 450, 0, []
1630405063.1581, 78, 0, 4230.256, 4352.308, 4082.051, 4171.795, 4189.231, 450, 0, []
1630405063.1661, 79, 0, 4205.641, 4356.41, 4040, 4138.462, 4188.205, 16231, 0, []
1630405063.1739, 80, 0, 4186.667, 4340.513, 4036.41, 4147.692, 4168.718, 450, 0, []
1630405063.1819, 81, 0, 4194.872, 4347.692, 4069.231, 4152.821, 4152.308, 450, 0, []
1630405063.1898, 82, 0, 4192.308, 4362.051, 4035.897, 4141.026, 4162.564, 450, 0, []
1630405063.1976, 83, 0, 4180.513, 4344.615, 4076.41, 4151.282, 4160, 16231, 0, []
1630405063.2055, 84, 0, 4178.974, 4331.795, 4063.077, 4156.41, 4143.59, 450, 0, []
1630405063.2132, 85, 0, 4158.462, 4305.128, 4060, 4136.41, 4131.795, 450, 0, []
1630405063.2211, 86, 0, 4134.872, 4283.59, 4094.359, 4131.282, 4115.385, 450, 0, []
1630405063.2289, 87, 0, 4140.513, 4307.179, 4047.692, 4126.154, 4108.205, 16231, 0, []
1630405063.2368, 88, 0, 4149.744, 4306.154, 4085.128, 4118.974, 4123.077, 450, 0, []
1630405063.2446, 89, 0, 4168.205, 4292.308, 4094.872, 4145.641, 4147.179, 450, 0, []
1630405063.2524, 90, 0, 4195.385, 4309.231, 4076.41, 4161.026, 4163.077, 450, 0, []
1630405063.2602, 91, 0, 4195.897, 4307.692, 4123.077, 4148.718, 4179.487, 16231, 0, []
1630405063.2682, 92, 0, 4195.385, 4290.256, 4090.256, 4161.538, 4194.359, 450, 0, []
1630405063.2761, 93, 0, 4209.231, 4292.821, 4104.103, 4170.256, 4180, 450, 0, []
1630405063.2841, 94, 0, 4214.359, 4307.692, 4126.154, 4156.41, 4183.59, 450, 0, []
1630405063.2919, 95, 0, 4221.538, 4298.974, 4101.026, 4164.615, 4221.026, 16231, 0, []
1630405063.2999, 96, 0, 4250.256, 4282.051, 4140.513, 4189.744, 4236.923, 450, 0, []
1630405063.3078, 97, 0, 4276.923, 4289.744, 4111.282, 4191.282, 4245.128, 450, 0, []
1630405063.3158, 98, 0, 4276.923, 4298.974, 4094.872, 4171.795, 4273.333, 450, 0, []
1630405063.3237, 99, 0, 4292.821, 4290.256, 4188.205, 4175.897, 4310.769, 16231, 0, []
1630405063.3317, 100, 0, 4353.333, 4288.205, 4048.205, 4202.564, 4350.256, 450, 0, []
1630405063.3395, 101, 0, 4393.333, 4292.821, 3925.641, 4199.487, 4366.154, 450, 0, []
1630405063.3475, 102, 0, 4397.949, 4312.308, 3923.077, 4188.205, 4364.103, 450, 0, []
1630405063.3554, 103, 0, 4426.667, 4350.769, 3573.333, 4215.897, 4400, 16231, 0, []
1630405063.3632, 104, 0, 4414.872, 4316.41, 3685.641, 4225.641, 4412.821, 450, 0, []
1630405063.3711, 105, 0, 4360, 4263.077, 4126.667, 4202.564, 4381.538, 450, 0, []
1630405063.3788, 106, 0, 4342.051, 4264.615, 4067.179, 4194.872, 4367.179, 450, 0, []
1630405063.3867, 107, 0, 4340.513, 4267.179, 4070.256, 4198.462, 4350.256, 16231, 0, []
1630405063.3945, 108, 0, 4339.487, 4294.872, 4185.641, 4198.974, 4330.256, 450, 0, []
1630405063.4024, 109, 0, 4329.231, 4313.846, 4206.154, 4190.256, 4321.026, 450, 0, []
1630405063.4102, 110, 0, 4305.641, 4283.59, 4171.795, 4186.154, 4322.051, 450, 0, []
1630405063.418, 111, 0, 4294.359, 4277.949, 4199.487, 4205.641, 4327.179, 16231, 0, []
1630405063.4258, 112, 0, 4306.154, 4316.41, 4218.462, 4242.051, 4328.205, 450, 0, []
1630405063.4337, 113, 0, 4296.923, 4305.641, 4155.897, 4247.179, 4311.795, 450, 0, []
1630405063.4415, 114, 0, 4257.949, 4264.615, 4236.923, 4221.026, 4294.359, 450, 0, []
1630405063.4494, 115, 0, 4252.821, 4293.333, 4195.897, 4225.641, 4326.154, 16231, 0, []
1630405063.4571, 116, 0, 4267.692, 4309.744, 4190.256, 4246.154, 4358.462, 450, 0, []
1630405063.4651, 117, 0, 4286.154, 4289.744, 4252.821, 4266.154, 4374.359, 450, 0, []
1630405063.473, 118, 0, 4313.846, 4309.744, 4168.205, 4299.487, 4404.103, 450, 0, []
1630405063.481, 119, 0, 4311.282, 4322.564, 4212.821, 4311.282, 4416.923, 16231, 0, []
1630405063.4889, 120, 0, 4295.897, 4303.077, 4191.282, 4298.974, 4422.051, 450, 0, []
1630405063.4968, 121, 0, 4289.744, 4300.513, 4162.564, 4300, 4431.795, 450, 0, []
1630405063.5047, 122, 0, 4291.282, 4312.821, 4213.333, 4318.974, 4428.718, 450, 0, []
1630405063.5127, 123, 0, 4303.077, 4301.538, 4169.231, 4321.026, 4409.231, 16231, 0, []
1630405063.5206, 124, 0, 4291.795, 4286.667, 4210.769, 4307.179, 4379.487, 450, 0, []
1630405063.5284, 125, 0, 4256.923, 4300.513, 4188.718, 4305.641, 4362.564, 450, 0, []
1630405063.5362, 126, 0, 4226.154, 4293.846, 4183.077, 4307.179, 4339.487, 450, 0, []
1630405063.544, 127, 0, 4234.359, 4277.436, 4210.769, 4319.487, 4309.231, 16231, 0, []
1630405063.5519, 128, 0, 4243.077, 4286.154, 4154.872, 4325.641, 4285.128, 450, 0, []
1630405063.5597, 0, 0, 4209.231, 4285.641, 4200.513, 4291.282, 4268.205, 450, 0, []
1630405063.5676, 1, 0, 4197.436, 4263.077, 4149.231, 4272.308, 4272.821, 450, 0, []
1630405063.5753, 2, 0, 4205.641, 4228.718, 4145.128, 4272.821, 4245.641, 16221, 0, []
1630405063.5832, 3, 0, 4194.359, 4222.564, 4198.462, 4243.59, 4199.487, 450, 0, []
1630405063.591, 4, 0, 4180.513, 4251.282, 4123.59, 4235.385, 4203.077, 16151, 0, []
1630405063.599, 5, 0, 4176.41, 4263.077, 4183.077, 4277.436, 4206.667, 450, 0, []
1630405063.6069, 6, 0, 4187.179, 4257.436, 4156.41, 4304.615, 4190.256, 232, 0, []
1630405063.6148, 7, 0, 4177.436, 4243.59, 4110.256, 4288.205, 4186.667, 450, 0, []
1630405063.6227, 8, 0, 4168.718, 4231.795, 4167.179, 4285.641, 4195.897, 450, 0, []
1630405063.6307, 9, 0, 4197.436, 4246.667, 4110.769, 4297.949, 4200.513, 16177, 0, []
1630405063.6386, 10, 0, 4196.923, 4268.205, 4154.359, 4273.846, 4186.667, 450, 0, []
1630405063.6466, 11, 0, 4176.41, 4273.846, 4153.846, 4260, 4178.462, 16230, 0, []
1630405063.6544, 12, 0, 4190.769, 4261.538, 4118.974, 4280.513, 4174.359, 450, 0, []
1630405063.6622, 13, 0, 4207.179, 4264.103, 4145.128, 4287.179, 4177.949, 450, 0, []
1630405063.6701, 14, 0, 4198.462, 4280.513, 4098.974, 4275.897, 4190.769, 450, 0, []
1630405063.6779, 15, 0, 4203.59, 4272.821, 4153.333, 4281.538, 4184.103, 16230, 0, []
1630405063.6859, 16, 0, 4231.795, 4268.718, 4124.103, 4294.872, 4186.667, 0, 0, []
1630405063.6938, 17, 0, 4215.385, 4260.513, 4107.179, 4266.154, 4192.308, 0, 0, []
1630405063.7016, 18, 0, 4198.462, 4241.026, 4107.692, 4241.538, 4188.205, 0, 0, []
1630405063.7094, 19, 0, 4222.051, 4252.821, 4084.615, 4260, 4184.103, 0, 0, []
1630405063.7173, 20, 0, 4225.641, 4272.308, 4195.385, 4262.051, 4183.59, 0, 0, []
1630405063.7251, 21, 0, 4217.436, 4274.872, 4008.718, 4255.897, 4201.026, 0, 0, []
1630405063.733, 22, 0, 4194.359, 4244.103, 4176.923, 4250.769, 4167.179, 0, 0, []
1630405063.7407, 23, 0, 4200, 4252.821, 4361.026, 4248.718, 4153.846, 0, 0, []
1630405063.7487, 24, 0, 4228.718, 4295.897, 3936.923, 4265.641, 4206.667, 0, 0, []
1630405063.7566, 25, 0, 4193.333, 4260.513, 4091.282, 4255.897, 4175.897, 0, 0, []
1630405063.7646, 26, 0, 4183.077, 4251.282, 4223.59, 4241.026, 4137.949, 0, 0, []
1630405063.7725, 27, 0, 4205.128, 4275.897, 4060.513, 4248.205, 4175.385, 0, 0, []
1630405063.7804, 28, 0, 4201.538, 4264.103, 4175.385, 4269.231, 4203.077, 0, 0, []
1630405063.7883, 29, 0, 4226.154, 4280, 4118.974, 4294.872, 4213.846, 0, 0, []
1630405063.7963, 30, 0, 4257.949, 4306.667, 4149.744, 4286.667, 4231.282, 0, 0, []
1630405063.8042, 31, 0, 4247.179, 4301.538, 4167.179, 4270.769, 4260.513, 0, 0, []
1630405063.8122, 32, 0, 4216.923, 4256.923, 4112.821, 4265.641, 4260, 0, 0, []
1630405063.82, 33, 0, 4247.179, 4258.462, 4171.282, 4263.59, 4261.026, 0, 0, []
1630405063.8278, 34, 0, 4329.744, 4317.436, 4130.769, 4274.359, 4316.41, 0, 0, []
1630405063.8357, 35, 0, 4367.179, 4315.385, 4144.103, 4273.333, 4367.692, 0, 0, []
1630405063.8435, 36, 0, 4382.564, 4277.949, 4128.205, 4263.077, 4399.487, 0, 0, []
1630405063.8514, 37, 0, 4423.077, 4286.667, 4097.436, 4263.077, 4432.308, 0, 0, []
1630405063.8591, 38, 0, 4450.256, 4304.615, 4130.256, 4264.615, 4442.051, 0, 0, []
1630405063.867, 39, 0, 4455.385, 4291.795, 4079.487, 4267.179, 4428.718, 0, 0, []
1630405063.8748, 40, 0, 4464.615, 4278.974, 4117.436, 4269.744, 4410.256, 0, 0, []
1630405063.8828, 41, 0, 4462.051, 4282.051, 4127.692, 4254.872, 4384.103, 0, 0, []
1630405063.8907, 42, 0, 4430.769, 4272.821, 4071.795, 4218.974, 4340.513, 0, 0, []
1630405063.8986, 43, 0, 4404.615, 4267.692, 4105.641, 4201.026, 4302.564, 0, 0, []
1630405063.9065, 44, 0, 4405.128, 4288.718, 4081.026, 4212.821, 4292.308, 0, 0, []
1630405063.9145, 45, 0, 4378.462, 4296.41, 4094.359, 4211.282, 4270.256, 0, 0, []
1630405063.9224, 46, 0, 4337.436, 4276.923, 4106.667, 4196.41, 4240.513, 0, 0, []
1630405063.9304, 47, 0, 4327.692, 4254.872, 4077.949, 4209.231, 4224.615, 0, 0, []
1630405063.9382, 48, 0, 4324.615, 4261.538, 4120.513, 4231.282, 4197.949, 0, 0, []
1630405063.9462, 49, 0, 4320, 4297.436, 4106.667, 4233.333, 4181.026, 0, 0, []
1630405063.9541, 50, 0, 4306.667, 4301.538, 4131.795, 4215.897, 4184.615, 0, 0, []
1630405063.9621, 51, 0, 4282.564, 4281.538, 4147.692, 4208.205, 4193.846, 0, 0, []
1630405063.97, 52, 0, 4269.744, 4277.949, 4081.538, 4215.897, 4185.641, 0, 0, []
1630405063.9777, 53, 0, 4264.103, 4277.949, 4105.641, 4206.667, 4147.179, 0, 0, []
1630405063.9856, 54, 0, 4247.692, 4264.103, 4097.436, 4186.154, 4131.795, 0, 0, []
1630405063.9934, 55, 0, 4223.59, 4246.667, 4095.897, 4185.641, 4140, 0, 0, []
1630405064.0013, 56, 0, 4221.538, 4249.744, 4120, 4201.026, 4125.128, 0, 0, []
1630405064.0091, 57, 0, 4226.154, 4256.41, 4098.462, 4193.333, 4105.641, 0, 0, []
1630405064.017, 58, 0, 4208.718, 4242.564, 4139.487, 4170.769, 4113.846, 0, 0, []
1630405064.0247, 59, 0, 4214.359, 4234.872, 4126.154, 4182.051, 4132.308, 0, 0, []
1630405064.0326, 60, 0, 4232.821, 4234.359, 4108.205, 4191.282, 4120.513, 0, 0, []
1630405064.0404, 61, 0, 4214.359, 4240, 4125.128, 4165.641, 4106.667, 0, 0, []
1630405064.0484, 62, 0, 4203.077, 4256.923, 4096.41, 4171.795, 4120.513, 0, 0, []
1630405064.0563, 63, 0, 4231.282, 4256.923, 4138.462, 4208.205, 4125.641, 0, 0, []
1630405064.0642, 64, 0, 4247.179, 4254.359, 4136.41, 4207.179, 4123.077, 450, 0, []
1630405064.0721, 65, 0, 4216.923, 4251.795, 4120.513, 4187.179, 4126.667, 450, 0, []
1630405064.0801, 66, 0, 4207.179, 4250.256, 4161.538, 4197.436, 4132.821, 16210, 0, []
1630405064.088, 67, 0, 4233.846, 4279.487, 4135.385, 4211.282, 4134.872, 450, 0, []
1630405064.096, 68, 0, 4228.205, 4314.359, 4159.487, 4195.897, 4134.359, 16158, 0, []
1630405064.1038, 69, 0, 4222.051, 4315.897, 4181.538, 4205.641, 4148.205, 450, 0, []
1630405064.1118, 70, 0, 4247.179, 4307.692, 4164.615, 4233.333, 4153.846, 227, 0, []
1630405064.1197, 71, 0, 4251.795, 4321.026, 4186.154, 4213.333, 4146.154, 450, 0, []
1630405064.1276, 72, 0, 4228.205, 4332.821, 4153.333, 4192.821, 4154.359, 450, 0, []
1630405064.1355, 73, 0, 4212.308, 4306.154, 4159.487, 4199.487, 4139.487, 16178, 0, []
1630405064.1432, 74, 0, 4213.333, 4288.718, 4176.923, 4189.231, 4104.103, 450, 0, []
1630405064.1511, 75, 0, 4209.744, 4315.385, 4138.974, 4173.846, 4115.897, 16230, 0, []
1630405064.1589, 76, 0, 4209.231, 4314.872, 4184.103, 4185.641, 4145.128, 450, 0, []
1630405064.1668, 77, 0, 4233.333, 4301.026, 4189.744, 4214.359, 4140.513, 450, 0, []
1630405064.1746, 78, 0, 4234.872, 4329.231, 4151.795, 4215.385, 4123.59, 450, 0, []
1630405064.1824, 79, 0, 4203.077, 4340, 4164.615, 4187.692, 4130.769, 16230, 0, []
1630405064.1902, 80, 0, 4210.769, 4310.256, 4149.231, 4192.308, 4150.769, 450, 0, []
1630405064.1981, 81, 0, 4234.359, 4304.615, 4159.487, 4220, 4137.436, 450, 0, []
1630405064.2059, 82, 0, 4215.897, 4335.897, 4151.282, 4210.256, 4123.59, 450, 0, []
1630405064.2139, 83, 0, 4191.282, 4346.154, 4151.282, 4184.615, 4136.41, 16230, 0, []
1630405064.2217, 84, 0, 4206.154, 4334.872, 4164.103, 4199.487, 4136.923, 450, 0, []
1630405064.2297, 85, 0, 4231.795, 4338.462, 4134.359, 4224.615, 4130.256, 450, 0, []
1630405064.2376, 86, 0, 4233.846, 4359.487, 4158.462, 4223.077, 4155.385, 450, 0, []
1630405064.2456, 87, 0, 4232.308, 4374.872, 4142.564, 4231.795, 4186.667, 16230, 0, []
1630405064.2535, 88, 0, 4220, 4351.282, 4130.769, 4221.026, 4148.205, 450, 0, []
1630405064.2614, 89, 0, 4213.333, 4325.128, 4135.385, 4186.667, 4114.359, 450, 0, []
1630405064.2693, 90, 0, 4225.641, 4335.897, 4125.128, 4197.436, 4159.487, 450, 0, []
1630405064.2773, 91, 0, 4213.333, 4346.154, 4151.282, 4205.641, 4167.692, 16230, 0, []
1630405064.2852, 92, 0, 4201.538, 4347.692, 4086.154, 4186.154, 4124.615, 450, 0, []
1630405064.293, 93, 0, 4206.154, 4342.051, 4105.641, 4187.179, 4125.641, 450, 0, []
1630405064.3008, 94, 0, 4211.282, 4332.308, 4149.744, 4205.128, 4161.026, 450, 0, []
1630405064.3086, 95, 0, 4223.59, 4341.026, 4085.128, 4221.538, 4161.538, 16230, 0, []
1630405064.3165, 96, 0, 4240, 4358.974, 4134.872, 4226.667, 4144.103, 450, 0, []
1630405064.3243, 97, 0, 4254.872, 4383.59, 4145.641, 4234.872, 4173.333, 450, 0, []
1630405064.3322, 98, 0, 4260.513, 4397.949, 4139.487, 4253.846, 4210.256, 450, 0, []
1630405064.3399, 99, 0, 4271.282, 4403.077, 4170.256, 4270.256, 4216.923, 16230, 0, []
1630405064.3479, 100, 0, 4291.795, 4403.59, 4124.615, 4271.282, 4213.333, 450, 0, []
1630405064.3558, 101, 0, 4292.308, 4382.051, 4160.513, 4249.231, 4207.179, 450, 0, []
1630405064.3637, 102, 0, 4265.641, 4369.744, 4161.026, 4227.179, 4200.513, 450, 0, []
1630405064.3715, 103, 0, 4241.538, 4375.897, 4111.795, 4222.051, 4184.615, 16230, 0, []
1630405064.3795, 104, 0, 4243.077, 4379.487, 4137.436, 4226.667, 4160.513, 450, 0, []
1630405064.3873, 105, 0, 4253.846, 4377.436, 4130.256, 4223.59, 4163.077, 450, 0, []
1630405064.3953, 106, 0, 4239.487, 4378.462, 4137.949, 4215.897, 4184.615, 450, 0, []
1630405064.4032, 107, 0, 4233.846, 4375.385, 4129.744, 4233.846, 4193.846, 16230, 0, []
1630405064.4112, 108, 0, 4253.846, 4375.897, 4107.692, 4246.154, 4180, 450, 0, []
1630405064.4191, 109, 0, 4251.795, 4391.282, 4136.41, 4216.41, 4164.615, 450, 0, []
1630405064.427, 110, 0, 4235.385, 4389.231, 4118.462, 4202.051, 4176.923, 450, 0, []
1630405064.4349, 111, 0, 4242.564, 4368.718, 4133.846, 4223.59, 4188.205, 16230, 0, []
1630405064.4427, 112, 0, 4269.231, 4386.667, 4151.795, 4242.564, 4188.718, 450, 0, []
1630405064.4506, 113, 0, 4272.308, 4420, 4132.821, 4239.487, 4201.026, 450, 0, []
1630405064.4584, 114, 0, 4248.718, 4404.103, 4148.718, 4227.692, 4208.205, 450, 0, []
1630405064.4662, 115, 0, 4247.692, 4375.897, 4113.333, 4233.333, 4193.846, 16230, 0, []
1630405064.4741, 116, 0, 4253.333, 4365.641, 4113.333, 4229.744, 4165.641, 450, 0, []
1630405064.4819, 117, 0, 4244.103, 4385.128, 4137.949, 4218.974, 4167.692, 450, 0, []
1630405064.4897, 118, 0, 4242.051, 4400, 4113.333, 4235.385, 4191.795, 450, 0, []
1630405064.4976, 119, 0, 4252.821, 4370.769, 4135.897, 4250.769, 4188.205, 16230, 0, []
1630405064.5053, 120, 0, 4261.026, 4369.744, 4128.718, 4249.231, 4175.897, 450, 0, []
1630405064.5133, 121, 0, 4252.821, 4398.974, 4141.538, 4242.051, 4183.59, 450, 0, []
1630405064.5212, 122, 0, 4255.897, 4411.282, 4165.641, 4249.231, 4210.769, 450, 0, []
1630405064.5292, 123, 0, 4273.846, 4408.718, 4120.513, 4262.564, 4221.538, 16230, 0, []
1630405064.5371, 124, 0, 4276.923, 4395.897, 4132.821, 4253.846, 4198.462, 450, 0, []
1630405064.545, 125, 0, 4269.231, 4384.615, 4131.795, 4230.769, 4187.692, 450, 0, []
1630405064.5529, 126, 0, 4253.846, 4376.923, 4125.641, 4210.256, 4189.744, 450, 0, []
1630405064.5609, 127, 0, 4260.513, 4375.385, 4159.487, 4213.846, 4192.308, 16230, 0, []
1630405064.5688, 128, 0, 4295.897, 4377.949, 4148.205, 4227.179, 4202.051, 450, 0, []
1630405064.5768, 0, 0, 4301.026, 4368.718, 4154.872, 4213.846, 4207.179, 450, 0, []
1630405064.5846, 1, 0, 4276.923, 4356.41, 4126.667, 4212.821, 4212.821, 450, 0, []
1630405064.5924, 2, 0, 4262.564, 4358.462, 4107.692, 4244.103, 4207.179, 16211, 0, []
1630405064.6003, 3, 0, 4262.051, 4369.231, 4134.872, 4257.949, 4181.026, 450, 0, []
1630405064.6081, 4, 0, 4271.795, 4366.154, 4114.872, 4240, 4190.256, 16156, 0, []
1630405064.616, 5, 0, 4271.795, 4347.179, 4145.128, 4220.513, 4223.59, 450, 0, []
1630405064.6237, 6, 0, 4265.641, 4328.205, 4157.436, 4220.513, 4218.974, 227, 0, []
1630405064.6316, 7, 0, 4275.385, 4323.077, 4124.103, 4216.923, 4196.923, 450, 0, []
1630405064.6394, 8, 0, 4285.128, 4344.615, 4139.487, 4201.538, 4206.154, 450, 0, []
1630405064.6473, 9, 0, 4280.513, 4370.769, 4126.154, 4222.564, 4230.256, 16175, 0, []
1630405064.6551, 10, 0, 4269.744, 4365.128, 4130.256, 4260, 4218.462, 450, 0, []
1630405064.663, 11, 0, 4276.923, 4353.846, 4125.641, 4266.667, 4193.333, 16225, 0, []
1630405064.6709, 12, 0, 4276.41, 4360.513, 4108.205, 4253.846, 4190.769, 450, 0, []
1630405064.6789, 13, 0, 4253.846, 4357.436, 4142.564, 4247.179, 4202.564, 450, 0, []
1630405064.6868, 14, 0, 4260, 4349.744, 4133.846, 4261.026, 4222.564, 450, 0, []
1630405064.6948, 15, 0, 4278.462, 4349.744, 4136.923, 4261.026, 4211.282, 16225, 0, []
1630405064.7026, 16, 0, 4270.769, 4356.41, 4136.41, 4235.897, 4192.308, 0, 0, []
1630405064.7106, 17, 0, 4269.744, 4372.308, 4126.154, 4236.923, 4224.615, 0, 0, []
1630405064.7185, 18, 0, 4290.769, 4376.923, 4166.154, 4268.205, 4255.385, 0, 0, []
1630405064.7265, 19, 0, 4295.897, 4365.128, 4126.667, 4269.231, 4227.692, 0, 0, []
1630405064.7344, 20, 0, 4272.308, 4355.897, 4112.821, 4222.564, 4189.231, 0, 0, []
1630405064.7424, 21, 0, 4250.256, 4352.821, 4140.513, 4197.949, 4195.897, 0, 0, []
1630405064.7502, 22, 0, 4245.641, 4342.051, 4116.923, 4212.821, 4203.077, 0, 0, []
1630405064.758, 23, 0, 4245.641, 4329.744, 4126.667, 4207.179, 4166.154, 0, 0, []
1630405064.7659, 24, 0, 4237.949, 4340.513, 4106.667, 4180, 4150.769, 0, 0, []
1630405064.7737, 25, 0, 4228.205, 4344.103, 4108.718, 4181.538, 4175.897, 0, 0, []
1630405064.7816, 26, 0, 4241.538, 4336.41, 4130.256, 4209.231, 4189.744, 0, 0, []
1630405064.7893, 27, 0, 4252.821, 4343.077, 4100.513, 4213.846, 4173.333, 0, 0, []
1630405064.7972, 28, 0, 4231.282, 4349.231, 4123.59, 4193.846, 4169.744, 0, 0, []
1630405064.805, 29, 0, 4236.923, 4352.308, 4130.769, 4210.256, 4206.667, 0, 0, []
1630405064.8129, 30, 0, 4281.026, 4344.103, 4134.359, 4238.462, 4228.718, 0, 0, []
1630405064.8207, 31, 0, 4309.231, 4345.641, 4143.077, 4223.59, 4229.744, 0, 0, []
1630405064.8285, 32, 0, 4320.513, 4369.744, 4115.385, 4207.692, 4260.513, 0, 0, []
1630405064.8363, 33, 0, 4325.641, 4366.667, 4150.256, 4220, 4292.308, 0, 0, []
1630405064.8443, 34, 0, 4342.051, 4349.231, 4145.641, 4240, 4308.718, 0, 0, []
1630405064.8522, 35, 0, 4343.59, 4358.974, 4110.769, 4230.256, 4289.744, 0, 0, []
1630405064.8602, 36, 0, 4304.615, 4379.487, 4121.026, 4192.821, 4232.308, 0, 0, []
1630405064.868, 37, 0, 4294.359, 4393.846, 4121.538, 4200, 4232.308, 0, 0, []
1630405064.876, 38, 0, 4320, 4392.308, 4166.154, 4245.128, 4285.128, 0, 0, []
1630405064.8839, 39, 0, 4325.641, 4384.103, 4163.59, 4259.487, 4289.231, 0, 0, []
1630405064.8919, 40, 0, 4311.282, 4396.41, 4138.974, 4242.564, 4248.718, 0, 0, []
1630405064.8998, 41, 0, 4319.487, 4407.692, 4162.564, 4244.615, 4241.026, 0, 0, []
1630405064.9077, 42, 0, 4327.179, 4397.949, 4139.487, 4252.308, 4256.41, 0, 0, []
1630405064.9156, 43, 0, 4280, 4377.949, 4137.949, 4219.487, 4236.41, 0, 0, []
1630405064.9234, 44, 0, 4241.538, 4362.564, 4122.564, 4189.744, 4203.59, 0, 0, []
1630405064.9313, 45, 0, 4248.205, 4353.846, 4101.026, 4193.333, 4177.436, 0, 0, []
1630405064.9391, 46, 0, 4239.487, 4348.718, 4129.744, 4184.103, 4164.103, 0, 0, []
1630405064.9469, 47, 0, 4211.795, 4351.795, 4102.564, 4169.744, 4171.282, 0, 0, []
1630405064.9547, 48, 0, 4205.641, 4354.872, 4106.154, 4171.282, 4166.667, 0, 0, []
1630405064.9626, 49, 0, 4225.128, 4360, 4131.282, 4176.41, 4163.59, 0, 0, []
1630405064.9704, 50, 0, 4231.795, 4357.436, 4117.436, 4175.385, 4176.923, 0, 0, []
1630405064.9783, 51, 0, 4230.256, 4344.103, 4127.179, 4178.462, 4175.897, 0, 0, []
1630405064.986, 52, 0, 4226.667, 4332.821, 4091.282, 4179.487, 4143.077, 0, 0, []
1630405064.994, 53, 0, 4198.974, 4325.128, 4088.718, 4154.872, 4112.308, 0, 0, []
1630405065.0019, 54, 0, 4195.385, 4345.128, 4120.513, 4158.974, 4135.385, 0, 0, []
1630405065.0099, 55, 0, 4224.615, 4364.103, 4101.538, 4189.744, 4151.795, 0, 0, []
1630405065.0178, 56, 0, 4232.308, 4354.359, 4108.718, 4178.974, 4125.641, 0, 0, []
1630405065.0257, 57, 0, 4227.692, 4345.641, 4095.385, 4178.974, 4150.256, 0, 0, []
1630405065.0336, 58, 0, 4216.41, 4329.744, 4086.154, 4192.308, 4171.795, 0, 0, []
1630405065.0416, 59, 0, 4192.308, 4338.462, 4091.795, 4165.641, 4121.538, 0, 0, []
1630405065.0495, 60, 0, 4182.051, 4364.615, 4076.41, 4150.769, 4110.769, 0, 0, []
1630405065.0574, 61, 0, 4187.179, 4338.462, 4101.026, 4162.564, 4136.923, 0, 0, []
1630405065.0652, 62, 0, 4182.564, 4305.641, 4082.564, 4156.923, 4112.308, 0, 0, []
1630405065.073, 63, 0, 4173.333, 4316.923, 4089.231, 4142.564, 4096.41, 0, 0, []
1630405065.0809, 64, 0, 4168.718, 4320.513, 4126.667, 4143.59, 4117.436, 450, 0, []
1630405065.0887, 65, 0, 4173.846, 4317.949, 4092.821, 4154.359, 4113.333, 450, 0, []
1630405065.0966, 66, 0, 4195.385, 4353.333, 4122.051, 4172.308, 4121.026, 16204, 0, []
1630405065.1044, 67, 0, 4220.513, 4378.462, 4137.436, 4203.59, 4174.359, 450, 0, []
1630405065.1122, 68, 0, 4226.667, 4363.077, 4111.282, 4222.051, 4191.282, 16150, 0, []
1630405065.12, 69, 0, 4240.513, 4376.41, 4144.103, 4228.205, 4177.949, 450, 0, []
1630405065.128, 70, 0, 4254.359, 4400, 4143.077, 4226.154, 4187.179, 226, 0, []
1630405065.1359, 71, 0, 4234.872, 4381.026, 4143.59, 4215.897, 4193.333, 450, 0, []
1630405065.1438, 72, 0, 4248.718, 4379.487, 4141.538, 4238.974, 4208.718, 450, 0, []
1630405065.1515, 73, 0, 4269.744, 4395.897, 4135.385, 4246.154, 4201.538, 16166, 0, []
1630405065.1595, 74, 0, 4228.205, 4375.385, 4153.333, 4206.667, 4155.897, 450, 0, []
1630405065.1674, 75, 0, 4217.436, 4374.359, 4126.667, 4208.205, 4168.718, 16235, 0, []
1630405065.1754, 76, 0, 4259.487, 4405.641, 4141.538, 4240.513, 4202.564, 450, 0, []
1630405065.1833, 77, 0, 4269.231, 4417.436, 4163.077, 4244.103, 4184.615, 450, 0, []
1630405065.1912, 78, 0, 4258.974, 4404.103, 4155.897, 4236.41, 4183.59, 450, 0, []
1630405065.1991, 79, 0, 4262.051, 4396.923, 4174.359, 4235.385, 4214.359, 16235, 0, []
1630405065.2071, 80, 0, 4266.154, 4404.615, 4134.359, 4235.385, 4215.385, 450, 0, []
1630405065.215, 81, 0, 4266.667, 4400, 4129.231, 4232.821, 4189.744, 450, 0, []
1630405065.2228, 82, 0, 4272.821, 4394.872, 4145.641, 4228.718, 4192.308, 450, 0, []
1630405065.2306, 83, 0, 4261.026, 4392.821, 4118.462, 4223.077, 4209.231, 16235, 0, []
1630405065.2384, 84, 0, 4247.692, 4377.436, 4133.846, 4220.513, 4203.077, 450, 0, []
1630405065.2463, 85, 0, 4261.026, 4380.513, 4122.051, 4224.615, 4187.179, 450, 0, []
1630405065.2541, 86, 0, 4256.923, 4391.282, 4125.641, 4209.231, 4172.308, 450, 0, []
1630405065.262, 87, 0, 4241.026, 4374.359, 4140, 4203.077, 4185.128, 16235, 0, []
1630405065.2697, 88, 0, 4259.487, 4364.615, 4123.59, 4242.051, 4210.769, 450, 0, []
1630405065.2776, 89, 0, 4265.641, 4382.051, 4148.718, 4252.308, 4185.641, 450, 0, []
1630405065.2854, 90, 0, 4238.974, 4376.923, 4119.487, 4210.769, 4155.897, 450, 0, []
1630405065.2934, 91, 0, 4221.538, 4343.59, 4104.615, 4192.308, 4173.846, 16235, 0, []
1630405065.3013, 92, 0, 4238.974, 4356.41, 4136.923, 4216.41, 4197.949, 450, 0, []
1630405065.3092, 93, 0, 4256.923, 4385.641, 4114.359, 4223.077, 4183.077, 450, 0, []
1630405065.3171, 94, 0, 4256.41, 4366.154, 4128.205, 4199.487, 4166.667, 450, 0, []
1630405065.3251, 95, 0, 4266.667, 4363.59, 4135.385, 4211.795, 4197.949, 16235, 0, []
1630405065.333, 96, 0, 4277.436, 4386.154, 4137.436, 4243.59, 4221.538, 450, 0, []
1630405065.341, 97, 0, 4276.923, 4367.692, 4151.282, 4246.154, 4198.462, 450, 0, []
1630405065.3488, 98, 0, 4278.462, 4340.513, 4120.513, 4224.103, 4182.051, 450, 0, []
1630405065.3568, 99, 0, 4273.333, 4353.846, 4140.513, 4200, 4200, 16235, 0, []
1630405065.3647, 100, 0, 4271.795, 4372.821, 4136.41, 4204.103, 4218.462, 450, 0, []
1630405065.3727, 101, 0, 4274.872, 4353.333, 4121.538, 4216.923, 4201.026, 450, 0, []
1630405065.3806, 102, 0, 4267.179, 4329.744, 4153.846, 4203.077, 4181.538, 450, 0, []
1630405065.3883, 103, 0, 4253.846, 4333.846, 4128.205, 4193.333, 4200, 16235, 0, []
1630405065.3962, 104, 0, 4257.436, 4347.692, 4135.897, 4212.308, 4218.462, 450, 0, []
1630405065.404, 105, 0, 4296.923, 4368.205, 4142.051, 4243.077, 4231.795, 450, 0, []
1630405065.4119, 106, 0, 4323.077, 4379.487, 4120.513, 4240.513, 4242.564, 450, 0, []
1630405065.4197, 107, 0, 4306.154, 4375.897, 4141.026, 4200, 4234.359, 16235, 0, []
1630405065.4276, 108, 0, 4308.718, 4380, 4122.564, 4181.538, 4250.769, 450, 0, []
1630405065.4353, 109, 0, 4343.077, 4370.256, 4132.308, 4190.769, 4291.795, 450, 0, []
1630405065.4433, 110, 0, 4356.41, 4331.795, 4123.59, 4182.564, 4293.333, 450, 0, []
1630405065.4512, 111, 0, 4347.179, 4311.282, 4080.513, 4157.949, 4261.538, 16235, 0, []
1630405065.4592, 112, 0, 4353.846, 4315.385, 4102.564, 4152.308, 4264.615, 450, 0, []
1630405065.4671, 113, 0, 4355.897, 4294.872, 4091.282, 4156.41, 4289.744, 450, 0, []
1630405065.4749, 114, 0, 4305.128, 4252.821, 4089.744, 4129.744, 4263.59, 450, 0, []
1630405065.4828, 115, 0, 4276.923, 4260, 4088.718, 4118.462, 4231.795, 16235, 0, []
1630405065.4908, 116, 0, 4307.179, 4292.821, 4073.333, 4137.949, 4234.359, 450, 0, []
1630405065.4987, 117, 0, 4298.974, 4278.974, 4113.333, 4123.59, 4224.103, 450, 0, []
1630405065.5067, 118, 0, 4250.769, 4265.641, 4092.821, 4104.615, 4209.744, 450, 0, []
1630405065.5145, 119, 0, 4235.385, 4276.41, 4086.667, 4123.077, 4197.436, 16235, 0, []
1630405065.5223, 120, 0, 4248.205, 4275.897, 4108.205, 4143.59, 4178.462, 450, 0, []
1630405065.5302, 121, 0, 4245.641, 4271.282, 4088.205, 4135.385, 4172.308, 450, 0, []
1630405065.538, 122, 0, 4233.846, 4272.308, 4117.436, 4133.333, 4181.026, 450, 0, []
1630405065.5459, 123, 0, 4248.718, 4283.59, 4111.795, 4165.128, 4186.154, 16235, 0, []
1630405065.5536, 124, 0, 4253.846, 4286.667, 4105.128, 4167.692, 4176.923, 450, 0, []
1630405065.5615, 125, 0, 4231.795, 4274.359, 4117.949, 4138.974, 4176.923, 450, 0, []
1630405065.5693, 126, 0, 4213.333, 4258.974, 4076.923, 4126.154, 4168.718, 450, 0, []
1630405065.5772, 127, 0, 4204.103, 4241.538, 4093.333, 4109.231, 4141.026, 16235, 0, []
1630405065.585, 128, 0, 4197.436, 4227.179, 4103.59, 4101.538, 4142.564, 450, 0, []
1630405065.5929, 0, 0, 4194.359, 4229.744, 4107.692, 4123.077, 4151.795, 450, 0, []
1630405065.6008, 1, 0, 4190.256, 4256.41, 4122.564, 4126.667, 4132.821, 450, 0, []
1630405065.6088, 2, 0, 4170.769, 4252.821, 4084.103, 4107.179, 4112.821, 16212, 0, []
1630405065.6167, 3, 0, 4136.923, 4221.026, 4094.359, 4093.846, 4089.231, 450, 0, []
1630405065.6247, 4, 0, 4132.308, 4246.154, 4073.333, 4075.385, 4082.564, 16154, 0, []
1630405065.6325, 5, 0, 4149.231, 4262.564, 4053.846, 4050.256, 4096.923, 450, 0, []
1630405065.6405, 6, 0, 4150.256, 4216.923, 4101.026, 4054.872, 4091.795, 240, 0, []
1630405065.6484, 7, 0, 4148.718, 4215.385, 4088.205, 4088.205, 4095.385, 450, 0, []
1630405065.6564, 8, 0, 4165.641, 4260, 4104.615, 4110.769, 4128.205, 450, 0, []
1630405065.6643, 9, 0, 4198.462, 4267.692, 4115.385, 4129.744, 4151.795, 16167, 0, []
1630405065.6722, 10, 0, 4202.564, 4251.795, 4101.026, 4133.333, 4149.231, 450, 0, []
1630405065.6801, 11, 0, 4185.641, 4267.692, 4126.154, 4121.538, 4148.205, 16232, 0, []
1630405065.6879, 12, 0, 4206.154, 4294.359, 4101.026, 4131.795, 4158.462, 450, 0, []
1630405065.6958, 13, 0, 4225.641, 4283.59, 4110.769, 4130.769, 4168.205, 450, 0, []
1630405065.7036, 14, 0, 4221.026, 4266.154, 4121.026, 4131.282, 4188.205, 450, 0, []
1630405065.7114, 15, 0, 4223.077, 4257.436, 4101.026, 4163.59, 4188.718, 16232, 0, []
1630405065.7192, 16, 0, 4225.641, 4254.359, 4134.872, 4175.385, 4174.872, 0, 0, []
1630405065.7271, 17, 0, 4216.41, 4265.128, 4116.923, 4160, 4186.667, 0, 0, []
1630405065.7349, 18, 0, 4208.205, 4281.026, 4109.744, 4149.744, 4179.487, 0, 0, []
1630405065.7428, 19, 0, 4208.205, 4288.718, 4105.128, 4131.795, 4150.769, 0, 0, []
1630405065.7505, 20, 0, 4188.205, 4277.436, 4073.846, 4105.128, 4137.949, 0, 0, []
1630405065.7584, 21, 0, 4170.769, 4261.538, 4105.641, 4107.692, 4127.692, 0, 0, []
1630405065.7662, 22, 0, 4194.359, 4258.974, 4096.923, 4131.795, 4134.872, 0, 0, []
1630405065.7742, 23, 0, 4198.462, 4254.359, 4098.974, 4132.821, 4148.205, 0, 0, []
1630405065.7821, 24, 0, 4184.103, 4259.487, 4114.359, 4134.872, 4147.692, 0, 0, []
1630405065.7901, 25, 0, 4205.641, 4280.513, 4099.487, 4149.744, 4153.333, 0, 0, []
1630405065.7979, 26, 0, 4205.128, 4271.795, 4132.308, 4138.974, 4155.897, 0, 0, []
1630405065.8059, 27, 0, 4190.256, 4267.692, 4106.667, 4142.564, 4155.897, 0, 0, []
1630405065.8138, 28, 0, 4206.667, 4295.897, 4096.41, 4158.462, 4149.231, 0, 0, []
1630405065.8218, 29, 0, 4205.128, 4298.974, 4120, 4141.538, 4141.026, 0, 0, []
1630405065.8297, 30, 0, 4197.949, 4274.359, 4090.769, 4132.308, 4152.308, 0, 0, []
1630405065.8375, 31, 0, 4224.103, 4262.564, 4125.641, 4156.41, 4163.077, 0, 0, []
1630405065.8454, 32, 0, 4233.333, 4268.205, 4126.667, 4161.538, 4167.179, 0, 0, []
1630405065.8532, 33, 0, 4196.41, 4260, 4094.359, 4133.846, 4158.974, 0, 0, []
1630405065.8611, 34, 0, 4190.769, 4262.051, 4102.051, 4136.41, 4146.154, 0, 0, []
1630405065.8689, 35, 0, 4217.436, 4283.59, 4086.154, 4156.923, 4154.359, 0, 0, []
1630405065.8767, 36, 0, 4195.897, 4276.41, 4108.718, 4136.41, 4154.359, 0, 0, []
1630405065.8845, 37, 0, 4181.026, 4262.051, 4095.897, 4130.256, 4144.615, 0, 0, []
1630405065.8924, 38, 0, 4216.41, 4269.744, 4095.385, 4161.538, 4160.513, 0, 0, []
1630405065.9002, 39, 0, 4237.949, 4274.359, 4145.641, 4178.462, 4197.436, 0, 0, []
1630405065.9082, 40, 0, 4231.795, 4277.436, 4118.974, 4190.769, 4211.282, 0, 0, []
1630405065.916, 41, 0, 4235.897, 4297.949, 4126.154, 4207.179, 4188.205, 0, 0, []
1630405065.924, 42, 0, 4244.615, 4320, 4120.513, 4205.641, 4176.41, 0, 0, []
1630405065.9319, 43, 0, 4227.692, 4311.795, 4095.385, 4189.744, 4186.667, 0, 0, []
1630405065.9399, 44, 0, 4229.744, 4299.487, 4140.513, 4197.436, 4198.462, 0, 0, []
1630405065.9478, 45, 0, 4267.179, 4319.487, 4134.359, 4226.667, 4202.564, 0, 0, []
1630405065.9557, 46, 0, 4266.667, 4325.641, 4134.872, 4219.487, 4190.256, 0, 0, []
1630405065.9636, 47, 0, 4242.564, 4303.077, 4127.179, 4208.718, 4195.897, 0, 0, []
1630405065.9716, 48, 0, 4243.59, 4298.462, 4105.641, 4228.718, 4205.641, 0, 0, []
1630405065.9795, 49, 0, 4262.564, 4316.41, 4144.615, 4237.949, 4192.821, 0, 0, []
1630405065.9874, 50, 0, 4283.59, 4342.564, 4131.795, 4236.923, 4205.128, 0, 0, []
1630405065.9952, 51, 0, 4278.462, 4351.282, 4147.179, 4232.821, 4231.282, 0, 0, []
1630405066.003, 52, 0, 4272.821, 4345.641, 4157.949, 4237.436, 4238.974, 0, 0, []
1630405066.0109, 53, 0, 4286.154, 4338.974, 4117.436, 4254.359, 4226.154, 0, 0, []
1630405066.0187, 54, 0, 4284.103, 4346.667, 4136.41, 4253.333, 4201.026, 0, 0, []
1630405066.0266, 55, 0, 4277.949, 4356.923, 4128.205, 4238.974, 4208.205, 0, 0, []
1630405066.0343, 56, 0, 4282.051, 4335.385, 4142.051, 4228.718, 4237.436, 0, 0, []
1630405066.0422, 57, 0, 4283.077, 4310.769, 4150.769, 4219.487, 4235.897, 0, 0, []
1630405066.05, 58, 0, 4283.077, 4308.718, 4119.487, 4210.769, 4207.692, 0, 0, []
1630405066.058, 59, 0, 4288.718, 4308.205, 4156.41, 4211.795, 4206.154, 0, 0, []
1630405066.0659, 60, 0, 4284.615, 4310.769, 4140.513, 4226.667, 4234.359, 0, 0, []
1630405066.0738, 61, 0, 4268.205, 4318.974, 4132.821, 4239.487, 4235.385, 0, 0, []
1630405066.0817, 62, 0, 4273.333, 4324.615, 4151.282, 4248.718, 4220.513, 0, 0, []
1630405066.0897, 63, 0, 4287.179, 4319.487, 4123.59, 4239.487, 4218.462, 0, 0, []
1630405066.0976, 64, 0, 4286.154, 4322.051, 4154.359, 4207.692, 4227.692, 450, 0, []
1630405066.1056, 65, 0, 4289.231, 4346.154, 4136.923, 4205.641, 4246.154, 450, 0, []
1630405066.1134, 66, 0, 4284.103, 4331.282, 4115.385, 4213.333, 4232.308, 16212, 0, []
1630405066.1214, 67, 0, 4266.154, 4301.026, 4138.974, 4192.821, 4198.974, 450, 0, []
1630405066.1293, 68, 0, 4249.744, 4324.615, 4114.872, 4187.179, 4198.974, 16155, 0, []
1630405066.1373, 69, 0, 4234.359, 4330.769, 4137.436, 4205.641, 4202.564, 450, 0, []
1630405066.1452, 70, 0, 4248.718, 4305.641, 4127.179, 4231.795, 4195.385, 228, 0, []
1630405066.153, 71, 0, 4269.231, 4320, 4115.385, 4237.436, 4193.846, 450, 0, []
1630405066.1608, 72, 0, 4263.077, 4348.205, 4153.333, 4217.436, 4205.128, 450, 0, []
1630405066.1686, 73, 0, 4265.641, 4327.179, 4133.846, 4209.231, 4226.154, 16175, 0, []
1630405066.1765, 74, 0, 4286.154, 4306.154, 4152.821, 4218.462, 4223.59, 450, 0, []
1630405066.1843, 75, 0, 4300.513, 4343.077, 4149.231, 4225.641, 4216.41, 16228, 0, []
1630405066.1922, 76, 0, 4285.641, 4372.308, 4131.795, 4214.359, 4225.641, 450, 0, []
1630405066.1999, 77, 0, 4271.795, 4350.256, 4160.513, 4220.513, 4237.949, 450, 0, []
1630405066.2078, 78, 0, 4289.231, 4317.436, 4125.641, 4249.744, 4240.513, 450, 0, []
1630405066.2156, 79, 0, 4285.128, 4317.436, 4133.333, 4240.513, 4215.897, 16228, 0, []
1630405066.2236, 80, 0, 4263.077, 4346.154, 4143.59, 4211.282, 4207.692, 450, 0, []
1630405066.2315, 81, 0, 4262.564, 4341.538, 4132.308, 4214.359, 4227.692, 450, 0, []
1630405066.2394, 82, 0, 4266.667, 4307.692, 4153.846, 4219.487, 4216.41, 450, 0, []
1630405066.2473, 83, 0, 4262.051, 4322.051, 4115.385, 4202.564, 4187.179, 16228, 0, []
1630405066.2553, 84, 0, 4253.846, 4346.154, 4137.949, 4186.154, 4192.821, 450, 0, []
1630405066.2632, 85, 0, 4254.359, 4329.744, 4162.564, 4198.462, 4220, 450, 0, []
1630405066.2712, 86, 0, 4257.436, 4304.615, 4124.103, 4212.308, 4210.256, 450, 0, []
1630405066.279, 87, 0, 4243.59, 4291.282, 4136.923, 4185.128, 4171.282, 16228, 0, []
1630405066.287, 88, 0, 4227.692, 4300.513, 4115.385, 4156.923, 4169.231, 450, 0, []
1630405066.2949, 89, 0, 4222.564, 4302.564, 4126.667, 4163.59, 4184.103, 450, 0, []
1630405066.3027, 90, 0, 4242.564, 4301.026, 4150.256, 4191.795, 4184.103, 450, 0, []
1630405066.3106, 91, 0, 4255.897, 4304.103, 4127.692, 4195.385, 4174.359, 16228, 0, []
1630405066.3183, 92, 0, 4225.128, 4288.205, 4157.949, 4174.872, 4165.128, 450, 0, []
1630405066.3262, 93, 0, 4216.41, 4282.564, 4145.641, 4191.795, 4173.846, 450, 0, []
1630405066.334, 94, 0, 4235.385, 4303.077, 4143.077, 4208.718, 4163.077, 450, 0, []
1630405066.3419, 95, 0, 4224.615, 4317.949, 4154.359, 4178.974, 4149.744, 16228, 0, []
1630405066.3497, 96, 0, 4215.385, 4310.256, 4121.538, 4173.333, 4178.462, 450, 0, []
1630405066.3575, 97, 0, 4228.205, 4305.641, 4146.667, 4204.615, 4192.821, 450, 0, []
1630405066.3653, 98, 0, 4198.974, 4303.59, 4126.154, 4194.359, 4173.333, 450, 0, []
1630405066.3732, 99, 0, 4130.256, 4280.513, 4114.872, 4155.897, 4156.41, 16228, 0, []
1630405066.381, 100, 0, 4131.282, 4290.769, 4154.872, 4174.872, 4159.487, 450, 0, []
1630405066.389, 101, 0, 4181.538, 4335.897, 4135.385, 4211.282, 4180, 450, 0, []
1630405066.3968, 102, 0, 4171.795, 4340, 4143.077, 4197.436, 4191.282, 450, 0, []
1630405066.4048, 103, 0, 4146.667, 4321.026, 4122.051, 4194.872, 4183.077, 16228, 0, []
1630405066.4127, 104, 0, 4162.564, 4311.282, 4113.333, 4204.615, 4175.385, 450, 0, []
1630405066.4207, 105, 0, 4166.154, 4292.308, 4145.128, 4184.615, 4178.462, 450, 0, []
1630405066.4286, 106, 0, 4148.718, 4280, 4109.744, 4177.436, 4171.795, 450, 0, []
1630405066.4365, 107, 0, 4149.744, 4293.846, 4130.769, 4183.59, 4163.077, 16228, 0, []
1630405066.4444, 108, 0, 4164.103, 4314.359, 4138.974, 4182.564, 4189.744, 450, 0, []
1630405066.4523, 109, 0, 4173.333, 4311.795, 4114.359, 4186.667, 4212.308, 450, 0, []
1630405066.4602, 110, 0, 4203.59, 4315.385, 4144.615, 4190.769, 4217.436, 450, 0, []
1630405066.4681, 111, 0, 4248.205, 4331.795, 4131.795, 4182.051, 4254.359, 16228, 0, []
1630405066.476, 112, 0, 4268.205, 4311.282, 4150.769, 4175.897, 4304.615, 450, 0, []
1630405066.4838, 113, 0, 4301.026, 4290.769, 4153.333, 4203.077, 4345.128, 450, 0, []
1630405066.4917, 114, 0, 4337.949, 4305.641, 4121.026, 4227.179, 4353.846, 450, 0, []
1630405066.4995, 115, 0, 4330.256, 4311.795, 4142.564, 4206.667, 4331.282, 16228, 0, []
1630405066.5074, 116, 0, 4304.615, 4308.205, 4119.487, 4185.641, 4323.077, 450, 0, []
1630405066.5152, 117, 0, 4283.59, 4302.051, 4126.667, 4186.667, 4324.103, 450, 0, []
1630405066.523, 118, 0, 4295.385, 4307.692, 4143.077, 4206.667, 4331.282, 450, 0, []
1630405066.5308, 119, 0, 4320, 4323.077, 4124.615, 4220, 4323.59, 16228, 0, []
1630405066.5387, 120, 0, 4297.949, 4323.59, 4146.667, 4195.385, 4293.846, 450, 0, []
1630405066.5465, 121, 0, 4261.538, 4325.128, 4127.692, 4184.615, 4292.308, 450, 0, []
1630405066.5545, 122, 0, 4252.308, 4317.949, 4138.974, 4206.154, 4292.308, 450, 0, []
1630405066.5623, 123, 0, 4261.538, 4303.077, 4153.333, 4220.513, 4266.154, 16228, 0, []
1630405066.5703, 124, 0, 4252.821, 4307.179, 4129.231, 4211.282, 4253.333, 450, 0, []
1630405066.5782, 125, 0, 4220.513, 4316.923, 4152.821, 4196.923, 4251.795, 450, 0, []
1630405066.5862, 126, 0, 4211.795, 4297.436, 4120, 4203.077, 4237.949, 450, 0, []
1630405066.5941, 127, 0, 4227.692, 4280, 4122.564, 4207.179, 4220, 16228, 0, []
1630405066.602, 128, 0, 4235.385, 4316.923, 4160.513, 4204.103, 4235.897, 450, 0, []
1630405066.6099, 0, 0, 4232.821, 4338.974, 4134.872, 4214.359, 4258.462, 450, 0, []
1630405066.6177, 1, 0, 4226.154, 4300, 4153.846, 4221.026, 4230.256, 450, 0, []
1630405066.6256, 2, 0, 4221.026, 4278.974, 4134.359, 4208.205, 4207.179, 16217, 0, []
1630405066.6334, 3, 0, 4215.385, 4300, 4133.846, 4191.282, 4232.821, 450, 0, []
1630405066.6412, 4, 0, 4226.667, 4321.538, 4174.359, 4204.615, 4259.487, 16154, 0, []
1630405066.649, 5, 0, 4254.872, 4322.564, 4148.205, 4240.513, 4255.385, 450, 0, []
1630405066.6569, 6, 0, 4260.513, 4325.641, 4162.564, 4244.615, 4248.718, 233, 0, []
1630405066.6647, 7, 0, 4254.872, 4342.564, 4152.308, 4235.897, 4271.282, 450, 0, []
1630405066.6726, 8, 0, 4265.128, 4347.692, 4143.59, 4262.051, 4287.692, 450, 0, []
1630405066.6803, 9, 0, 4273.333, 4337.436, 4171.795, 4276.923, 4265.641, 16178, 0, []
1630405066.6882, 10, 0, 4260, 4331.795, 4132.821, 4249.231, 4243.59, 450, 0, []
1630405066.696, 11, 0, 4238.462, 4325.641, 4145.641, 4229.744, 4254.359, 16230, 0, []
1630405066.704, 12, 0, 4246.667, 4323.077, 4152.821, 4251.282, 4273.333, 450, 0, []
1630405066.7119, 13, 0, 4249.231, 4324.615, 4128.718, 4251.282, 4243.59, 450, 0, []
1630405066.7198, 14, 0, 4225.128, 4326.667, 4135.897, 4214.872, 4208.205, 450, 0, []
1630405066.7277, 15, 0, 4216.923, 4327.179, 4116.41, 4209.231, 4229.231, 16230, 0, []
1630405066.7357, 16, 0, 4229.744, 4312.821, 4154.359, 4233.333, 4244.615, 0, 0, []
1630405066.7436, 17, 0, 4253.846, 4329.231, 4160.513, 4263.077, 4233.333, 0, 0, []
1630405066.7516, 18, 0, 4260.513, 4364.615, 4138.462, 4267.179, 4233.846, 0, 0, []
1630405066.7594, 19, 0, 4247.692, 4363.077, 4180.513, 4255.897, 4250.256, 0, 0, []
1630405066.7674, 20, 0, 4260, 4357.436, 4153.333, 4276.41, 4269.231, 0, 0, []
1630405066.7753, 21, 0, 4278.974, 4355.385, 4146.667, 4288.718, 4257.436, 0, 0, []
1630405066.7831, 22, 0, 4271.795, 4346.667, 4150.769, 4263.59, 4244.615, 0, 0, []
1630405066.791, 23, 0, 4250.769, 4342.051, 4127.179, 4246.154, 4257.949, 0, 0, []
1630405066.7987, 24, 0, 4240.513, 4330.256, 4149.231, 4251.795, 4255.897, 0, 0, []
1630405066.8066, 25, 0, 4247.179, 4319.487, 4120.513, 4252.308, 4228.205, 0, 0, []
1630405066.8144, 26, 0, 4244.103, 4320, 4131.795, 4236.923, 4218.462, 0, 0, []
1630405066.8223, 27, 0, 4233.333, 4320.513, 4151.282, 4235.385, 4240.513, 0, 0, []
1630405066.8301, 28, 0, 4236.41, 4329.231, 4125.641, 4251.795, 4250.256, 0, 0, []
1630405066.838, 29, 0, 4250.769, 4355.385, 4156.923, 4253.333, 4229.744, 0, 0, []
1630405066.8457, 30, 0, 4268.718, 4361.538, 4140, 4245.641, 4232.308, 0, 0, []
1630405066.8537, 31, 0, 4258.462, 4335.897, 4142.564, 4243.077, 4252.308, 0, 0, []
1630405066.8616, 32, 0, 4238.974, 4335.385, 4159.487, 4250.256, 4249.744, 0, 0, []
1630405066.8696, 33, 0, 4253.846, 4353.846, 4127.692, 4261.026, 4229.744, 0, 0, []
1630405066.8775, 34, 0, 4269.231, 4356.41, 4155.897, 4254.872, 4222.564, 0, 0, []
1630405066.8854, 35, 0, 4257.949, 4361.538, 4143.077, 4247.692, 4248.718, 0, 0, []
1630405066.8933, 36, 0, 4238.974, 4346.154, 4130.769, 4247.692, 4249.231, 0, 0, []
1630405066.9013, 37, 0, 4230.256, 4325.128, 4133.846, 4243.077, 4204.615, 0, 0, []
1630405066.9093, 38, 0, 4233.846, 4342.564, 4101.538, 4230.256, 4196.923, 0, 0, []
1630405066.9172, 39, 0, 4229.231, 4345.128, 4143.077, 4216.41, 4222.564, 0, 0, []
1630405066.9251, 40, 0, 4224.103, 4304.615, 4136.923, 4223.59, 4223.59, 0, 0, []
1630405066.933, 41, 0, 4231.282, 4295.897, 4123.077, 4231.282, 4197.949, 0, 0, []
1630405066.941, 42, 0, 4236.923, 4338.462, 4154.359, 4223.59, 4203.077, 0, 0, []
1630405066.9489, 43, 0, 4230.769, 4341.026, 4113.333, 4220, 4224.103, 0, 0, []
1630405066.9569, 44, 0, 4220.513, 4303.077, 4113.846, 4211.795, 4198.974, 0, 0, []
1630405066.9647, 45, 0, 4232.308, 4312.308, 4123.59, 4206.667, 4188.205, 0, 0, []
1630405066.9727, 46, 0, 4229.744, 4334.359, 4129.231, 4217.949, 4219.487, 0, 0, []
1630405066.9806, 47, 0, 4217.949, 4310.256, 4149.744, 4229.744, 4230.769, 0, 0, []
1630405066.9886, 48, 0, 4230.769, 4306.154, 4117.949, 4228.205, 4209.231, 0, 0, []
1630405066.9966, 49, 0, 4228.718, 4325.641, 4144.615, 4212.308, 4200, 0, 0, []
1630405067.0044, 50, 0, 4232.308, 4322.564, 4150.256, 4225.641, 4237.436, 0, 0, []
1630405067.0124, 51, 0, 4265.641, 4325.641, 4129.744, 4261.026, 4264.615, 0, 0, []
1630405067.0203, 52, 0, 4275.897, 4333.333, 4156.41, 4253.846, 4243.59, 0, 0, []
1630405067.0283, 53, 0, 4242.564, 4310.256, 4114.359, 4215.897, 4223.59, 0, 0, []
1630405067.0362, 54, 0, 4217.949, 4288.205, 4114.872, 4206.667, 4225.128, 0, 0, []
1630405067.0441, 55, 0, 4228.205, 4308.718, 4129.744, 4231.282, 4211.795, 0, 0, []
1630405067.052, 56, 0, 4222.564, 4309.744, 4109.231, 4220, 4177.949, 0, 0, []
1630405067.06, 57, 0, 4205.128, 4293.333, 4138.462, 4193.333, 4183.077, 0, 0, []
1630405067.0679, 58, 0, 4231.282, 4322.564, 4127.692, 4227.692, 4227.692, 0, 0, []
1630405067.0759, 59, 0, 4254.872, 4331.282, 4133.333, 4251.282, 4224.103, 0, 0, []
1630405067.0837, 60, 0, 4230.769, 4294.872, 4128.718, 4211.282, 4197.436, 0, 0, []
1630405067.0917, 61, 0, 4207.179, 4278.974, 4101.026, 4191.795, 4204.103, 0, 0, []
1630405067.0996, 62, 0, 4222.051, 4297.949, 4136.923, 4217.949, 4202.564, 0, 0, []
1630405067.1076, 63, 0, 4245.128, 4322.564, 4122.564, 4226.667, 4198.462, 0, 0, []
1630405067.1155, 64, 0, 4231.282, 4327.692, 4135.897, 4204.615, 4212.308, 450, 0, []
1630405067.1234, 65, 0, 4223.59, 4329.744, 4160, 4210.256, 4226.667, 450, 0, []
1630405067.1313, 66, 0, 4248.205, 4333.846, 4116.923, 4237.949, 4220.513, 16216, 0, []
1630405067.1393, 67, 0, 4248.718, 4306.154, 4124.615, 4222.051, 4201.026, 450, 0, []
1630405067.1473, 68, 0, 4238.974, 4290.256, 4117.436, 4207.692, 4214.872, 16155, 0, []
1630405067.1552, 69, 0, 4248.205, 4308.205, 4131.282, 4237.949, 4232.821, 450, 0, []
1630405067.163, 70, 0, 4258.462, 4312.308, 4155.385, 4259.487, 4217.949, 186, 0, []
1630405067.171, 71, 0, 4264.615, 4313.333, 4128.205, 4251.795, 4222.564, 450, 0, []
1630405067.179, 72, 0, 4266.154, 4334.359, 4157.949, 4241.026, 4255.897, 450, 0, []
1630405067.1869, 73, 0, 4267.692, 4337.949, 4141.026, 4247.692, 4261.538, 16177, 0, []
1630405067.1949, 74, 0, 4265.128, 4308.718, 4110.256, 4242.051, 4222.564, 450, 0, []
1630405067.2027, 75, 0, 4250.256, 4301.026, 4123.59, 4210.256, 4204.103, 16226, 0, []
1630405067.2107, 76, 0, 4235.897, 4304.103, 4104.615, 4202.564, 4223.077, 450, 0, []
1630405067.2186, 77, 0, 4233.333, 4285.641, 4136.41, 4219.487, 4214.872, 450, 0, []
1630405067.2266, 78, 0, 4247.179, 4297.949, 4134.872, 4226.154, 4204.615, 450, 0, []
1630405067.2345, 79, 0, 4240, 4313.846, 4116.923, 4209.231, 4223.077, 16226, 0, []
1630405067.2425, 80, 0, 4225.641, 4295.385, 4147.692, 4208.205, 4234.359, 450, 0, []
1630405067.2503, 81, 0, 4235.897, 4298.462, 4124.103, 4225.128, 4212.821, 450, 0, []
1630405067.2583, 82, 0, 4223.59, 4303.59, 4130.256, 4203.077, 4187.179, 450, 0, []
1630405067.2662, 83, 0, 4202.051, 4270.256, 4127.692, 4188.718, 4195.385, 16226, 0, []
1630405067.2742, 84, 0, 4204.103, 4255.385, 4108.718, 4200.513, 4190.769, 450, 0, []
1630405067.2821, 85, 0, 4216.923, 4291.795, 4128.718, 4188.205, 4169.231, 450, 0, []
1630405067.29, 86, 0, 4225.128, 4311.795, 4110.256, 4181.026, 4188.718, 450, 0, []
1630405067.298, 87, 0, 4226.667, 4276.923, 4134.359, 4203.077, 4205.641, 16226, 0, []
1630405067.3059, 88, 0, 4233.846, 4277.949, 4145.128, 4225.128, 4196.923, 450, 0, []
1630405067.3139, 89, 0, 4236.923, 4321.026, 4132.821, 4222.051, 4209.744, 450, 0, []
1630405067.3218, 90, 0, 4227.692, 4312.821, 4161.026, 4213.846, 4225.128, 450, 0, []
1630405067.3297, 91, 0, 4227.692, 4269.231, 4117.436, 4218.974, 4208.205, 16226, 0, []
1630405067.3376, 92, 0, 4231.795, 4260, 4122.051, 4211.795, 4192.308, 450, 0, []
1630405067.3456, 93, 0, 4217.949, 4282.564, 4141.538, 4197.436, 4203.59, 450, 0, []
1630405067.3535, 94, 0, 4205.641, 4282.051, 4102.564, 4196.923, 4199.487, 450, 0, []
1630405067.3615, 95, 0, 4217.949, 4267.692, 4125.641, 4201.538, 4177.949, 16226, 0, []
1630405067.3693, 96, 0, 4236.41, 4285.641, 4122.564, 4203.077, 4196.923, 450, 0, []
1630405067.3773, 97, 0, 4225.128, 4283.59, 4113.333, 4194.359, 4208.718, 450, 0, []
1630405067.3852, 98, 0, 4214.359, 4252.821, 4114.359, 4192.821, 4183.077, 450, 0, []
1630405067.3932, 99, 0, 4233.846, 4263.077, 4110.769, 4204.615, 4189.744, 16226, 0, []
1630405067.4011, 100, 0, 4251.795, 4296.923, 4157.436, 4213.846, 4227.692, 450, 0, []
1630405067.409, 101, 0, 4266.667, 4296.923, 4132.821, 4226.667, 4243.077, 450, 0, []
1630405067.4169, 102, 0, 4284.103, 4286.667, 4115.897, 4227.179, 4237.436, 450, 0, []
1630405067.4249, 103, 0, 4299.487, 4303.59, 4137.949, 4205.128, 4259.487, 16226, 0, []
1630405067.4328, 104, 0, 4327.179, 4307.179, 4115.385, 4195.385, 4309.744, 450, 0, []
1630405067.4408, 105, 0, 4361.538, 4281.026, 4142.051, 4212.308, 4342.051, 450, 0, []
1630405067.4486, 106, 0, 4394.872, 4277.436, 4133.846, 4237.949, 4360.513, 450, 0, []
1630405067.4565, 107, 0, 4415.897, 4301.026, 4129.744, 4247.692, 4370.769, 16226, 0, []
1630405067.4644, 108, 0, 4425.128, 4319.487, 4161.026, 4251.282, 4372.308, 450, 0, []
1630405067.4723, 109, 0, 4413.333, 4317.436, 4132.821, 4252.821, 4364.103, 450, 0, []
1630405067.4803, 110, 0, 4365.641, 4292.308, 4142.051, 4225.128, 4333.333, 450, 0, []
1630405067.4882, 111, 0, 4327.179, 4283.59, 4133.846, 4209.231, 4314.359, 16226, 0, []
1630405067.4961, 112, 0, 4316.41, 4302.564, 4124.615, 4230.256, 4307.179, 450, 0, []
1630405067.504, 113, 0, 4314.359, 4311.795, 4150.769, 4244.615, 4287.179, 450, 0, []
1630405067.512, 114, 0, 4314.872, 4295.897, 4118.462, 4234.872, 4266.154, 450, 0, []
1630405067.5199, 115, 0, 4296.41, 4274.872, 4132.821, 4209.231, 4253.846, 16226, 0, []
1630405067.5278, 116, 0, 4280, 4282.051, 4144.103, 4208.718, 4266.154, 450, 0, []
1630405067.5357, 117, 0, 4276.923, 4287.692, 4128.205, 4228.205, 4272.821, 450, 0, []
1630405067.5437, 118, 0, 4275.897, 4276.41, 4142.564, 4227.179, 4248.205, 450, 0, []
1630405067.5516, 119, 0, 4292.308, 4290.769, 4117.436, 4226.667, 4251.282, 16226, 0, []
1630405067.5596, 120, 0, 4307.692, 4317.436, 4148.205, 4239.487, 4283.077, 450, 0, []
1630405067.5674, 121, 0, 4302.564, 4324.103, 4167.692, 4251.282, 4292.308, 450, 0, []
1630405067.5754, 122, 0, 4296.41, 4316.923, 4139.487, 4258.462, 4275.385, 450, 0, []
1630405067.5833, 123, 0, 4293.333, 4301.538, 4151.282, 4254.359, 4247.692, 16226, 0, []
1630405067.5913, 124, 0, 4274.359, 4285.641, 4113.846, 4224.615, 4227.692, 450, 0, []
1630405067.5992, 125, 0, 4247.692, 4291.282, 4126.667, 4198.462, 4228.205, 450, 0, []
1630405067.6071, 126, 0, 4251.795, 4307.692, 4153.333, 4215.897, 4240, 450, 0, []
1630405067.6151, 127, 0, 4267.692, 4297.436, 4114.359, 4230.256, 4223.077, 16226, 0, []
1630405067.623, 128, 0, 4263.59, 4291.795, 4135.385, 4208.718, 4205.128, 450, 0, []
1630405067.631, 0, 0, 4256.923, 4312.308, 4141.026, 4212.308, 4231.282, 450, 0, []
1630405067.6389, 1, 0, 4253.846, 4304.103, 4142.564, 4239.487, 4236.923, 450, 0, []
1630405067.6469, 2, 0, 4266.154, 4305.128, 4146.667, 4251.795, 4216.923, 16212, 0, []
1630405067.6547, 3, 0, 4282.564, 4330.256, 4128.718, 4242.051, 4229.744, 450, 0, []
1630405067.6627, 4, 0, 4265.641, 4301.026, 4151.282, 4224.615, 4241.538, 16155, 0, []
1630405067.6706, 5, 0, 4257.949, 4271.282, 4118.462, 4233.333, 4230.769, 450, 0, []
1630405067.6786, 6, 0, 4266.667, 4288.718, 4111.282, 4233.846, 4212.821, 218, 0, []
1630405067.6865, 7, 0, 4258.462, 4296.923, 4144.103, 4212.308, 4214.359, 450, 0, []
1630405067.6944, 8, 0, 4249.744, 4288.205, 4121.538, 4217.436, 4228.718, 450, 0, []
1630405067.7023, 9, 0, 4253.846, 4289.744, 4142.051, 4234.359, 4219.487, 16174, 0, []
1630405067.7103, 10, 0, 4271.282, 4306.154, 4142.051, 4241.538, 4215.385, 450, 0, []
1630405067.7182, 11, 0, 4260.513, 4301.538, 4138.974, 4225.128, 4220, 16227, 0, []
1630405067.7262, 12, 0, 4229.744, 4266.154, 4144.615, 4196.41, 4203.077, 450, 0, []
1630405067.734, 13, 0, 4223.077, 4253.333, 4100, 4188.718, 4172.308, 450, 0, []
1630405067.742, 14, 0, 4209.231, 4268.205, 4120.513, 4177.436, 4155.897, 450, 0, []
1630405067.7499, 15, 0, 4194.359, 4257.949, 4116.923, 4163.59, 4169.231, 16227, 0, []
1630405067.7577, 16, 0, 4201.538, 4238.974, 4098.974, 4172.821, 4162.564, 0, 0, []
1630405067.7657, 17, 0, 4203.59, 4264.615, 4133.333, 4184.103, 4144.615, 0, 0, []
1630405067.7735, 18, 0, 4197.949, 4287.179, 4119.487, 4183.077, 4162.051, 0, 0, []
1630405067.7814, 19, 0, 4202.564, 4265.128, 4132.308, 4174.872, 4162.051, 0, 0, []
1630405067.7894, 20, 0, 4205.128, 4264.615, 4124.615, 4168.718, 4146.154, 0, 0, []
1630405067.7973, 21, 0, 4202.051, 4281.538, 4109.744, 4173.333, 4159.487, 0, 0, []
1630405067.8053, 22, 0, 4204.615, 4269.231, 4141.538, 4178.974, 4156.923, 0, 0, []
1630405067.8131, 23, 0, 4193.846, 4256.41, 4109.231, 4165.128, 4138.462, 0, 0, []
1630405067.8211, 24, 0, 4181.538, 4259.487, 4117.949, 4158.462, 4149.744, 0, 0, []
1630405067.829, 25, 0, 4207.692, 4281.026, 4139.487, 4189.231, 4167.179, 0, 0, []
1630405067.837, 26, 0, 4217.436, 4292.308, 4124.103, 4191.795, 4161.538, 0, 0, []
1630405067.8449, 27, 0, 4196.41, 4262.051, 4137.436, 4171.795, 4158.462, 0, 0, []
1630405067.8528, 28, 0, 4206.667, 4245.641, 4106.667, 4193.846, 4157.949, 0, 0, []
1630405067.8607, 29, 0, 4212.821, 4268.205, 4126.667, 4197.949, 4153.333, 0, 0, []
1630405067.8687, 30, 0, 4204.103, 4286.154, 4146.667, 4180.513, 4167.692, 0, 0, []
1630405067.8766, 31, 0, 4208.205, 4266.154, 4108.205, 4187.692, 4156.923, 0, 0, []
1630405067.8846, 32, 0, 4203.59, 4243.077, 4131.282, 4181.026, 4129.231, 0, 0, []
1630405067.8924, 33, 0, 4200, 4254.359, 4127.179, 4170.769, 4147.692, 0, 0, []
1630405067.9004, 34, 0, 4202.564, 4258.974, 4121.538, 4178.462, 4150.256, 0, 0, []
1630405067.9083, 35, 0, 4195.385, 4250.769, 4114.872, 4164.615, 4129.744, 0, 0, []
1630405067.9163, 36, 0, 4186.667, 4243.59, 4094.359, 4153.333, 4143.59, 0, 0, []
1630405067.9243, 37, 0, 4192.308, 4240.513, 4144.615, 4176.923, 4150.256, 0, 0, []
1630405067.9321, 38, 0, 4204.103, 4271.282, 4140.513, 4186.154, 4144.103, 0, 0, []
1630405067.9401, 39, 0, 4194.359, 4290.256, 4138.974, 4169.744, 4157.949, 0, 0, []
1630405067.948, 40, 0, 4181.026, 4264.615, 4147.692, 4169.231, 4156.923, 0, 0, []
1630405067.956, 41, 0, 4192.308, 4256.41, 4101.026, 4171.282, 4143.59, 0, 0, []
1630405067.9639, 42, 0, 4195.385, 4262.564, 4127.692, 4168.718, 4154.359, 0, 0, []
1630405067.9718, 43, 0, 4182.051, 4251.282, 4129.231, 4186.154, 4162.564, 0, 0, []
1630405067.9797, 44, 0, 4180.513, 4249.744, 4125.128, 4185.641, 4147.179, 0, 0, []
1630405067.9877, 45, 0, 4183.59, 4256.41, 4146.667, 4170.769, 4144.615, 0, 0, []
1630405067.9956, 46, 0, 4175.385, 4247.179, 4096.923, 4174.872, 4144.103, 0, 0, []
1630405068.0036, 47, 0, 4167.179, 4242.051, 4102.051, 4158.462, 4122.564, 0, 0, []
1630405068.0115, 48, 0, 4173.846, 4248.205, 4114.359, 4149.231, 4131.282, 0, 0, []
1630405068.0194, 49, 0, 4168.718, 4231.282, 4100.513, 4165.128, 4135.385, 0, 0, []
1630405068.0273, 50, 0, 4146.667, 4216.923, 4108.718, 4141.538, 4110.769, 0, 0, []
1630405068.0353, 51, 0, 4135.897, 4216.41, 4092.308, 4113.846, 4114.872, 0, 0, []
1630405068.0432, 52, 0, 4133.846, 4205.128, 4113.846, 4125.641, 4108.718, 0, 0, []
1630405068.0512, 53, 0, 4147.692, 4220.513, 4106.667, 4140.513, 4101.026, 0, 0, []
1630405068.059, 54, 0, 4176.41, 4248.718, 4114.872, 4161.538, 4143.59, 0, 0, []
1630405068.067, 55, 0, 4196.923, 4254.872, 4156.923, 4191.282, 4167.692, 0, 0, []
1630405068.0749, 56, 0, 4195.897, 4260.513, 4107.179, 4177.436, 4149.744, 0, 0, []
1630405068.0829, 57, 0, 4170.769, 4243.59, 4113.333, 4135.385, 4138.462, 0, 0, []
1630405068.0909, 58, 0, 4158.974, 4217.436, 4131.282, 4134.872, 4131.795, 0, 0, []
1630405068.0987, 59, 0, 4157.436, 4223.59, 4100.513, 4141.538, 4113.333, 0, 0, []
1630405068.1067, 60, 0, 4150.769, 4228.718, 4118.462, 4133.846, 4108.718, 0, 0, []
1630405068.1146, 61, 0, 4167.692, 4217.436, 4108.205, 4151.795, 4122.564, 0, 0, []
1630405068.1226, 62, 0, 4177.949, 4221.538, 4125.128, 4163.077, 4131.795, 0, 0, []
1630405068.1305, 63, 0, 4173.846, 4243.077, 4126.154, 4150.769, 4138.974, 0, 0, []
1630405068.1384, 64, 0, 4169.231, 4228.205, 4085.641, 4129.744, 4129.231, 450, 0, []
1630405068.1463, 65, 0, 4155.897, 4200, 4117.436, 4125.641, 4109.231, 450, 0, []
1630405068.1543, 66, 0, 4154.359, 4222.051, 4103.59, 4152.821, 4106.667, 16213, 0, []
1630405068.1622, 67, 0, 4153.846, 4242.051, 4091.795, 4145.128, 4096.923, 450, 0, []
1630405068.1702, 68, 0, 4153.846, 4221.538, 4115.897, 4124.103, 4102.051, 16158, 0, []
1630405068.178, 69, 0, 4171.282, 4207.692, 4115.385, 4159.487, 4122.051, 450, 0, []
1630405068.186, 70, 0, 4182.051, 4230.769, 4138.974, 4172.821, 4119.487, 225, 0, []
1630405068.1939, 71, 0, 4179.487, 4242.051, 4113.333, 4153.846, 4126.667, 450, 0, []
1630405068.2019, 72, 0, 4175.897, 4213.846, 4110.256, 4165.128, 4125.641, 450, 0, []
1630405068.2098, 73, 0, 4169.231, 4203.59, 4122.564, 4166.154, 4110.256, 16180, 0, []
1630405068.2177, 74, 0, 4165.641, 4222.051, 4091.282, 4151.282, 4118.462, 450, 0, []
1630405068.2257, 75, 0, 4178.974, 4225.128, 4128.718, 4169.231, 4117.436, 16223, 0, []
1630405068.2336, 76, 0, 4198.974, 4232.308, 4128.205, 4188.718, 4120.513, 450, 0, []
1630405068.2416, 77, 0, 4191.282, 4237.436, 4111.282, 4171.282, 4140, 450, 0, []
1630405068.2495, 78, 0, 4176.923, 4220.513, 4121.538, 4159.487, 4134.359, 450, 0, []
1630405068.2574, 79, 0, 4187.692, 4223.59, 4102.564, 4168.718, 4126.667, 16223, 0, []
1630405068.2653, 80, 0, 4182.564, 4232.821, 4140.513, 4167.692, 4137.436, 450, 0, []
1630405068.2733, 81, 0, 4167.179, 4236.923, 4127.179, 4173.846, 4130.769, 450, 0, []
1630405068.2812, 82, 0, 4181.026, 4250.769, 4106.667, 4178.462, 4116.923, 450, 0, []
1630405068.2892, 83, 0, 4196.41, 4247.179, 4145.128, 4178.974, 4137.436, 16223, 0, []
1630405068.297, 84, 0, 4189.231, 4216.923, 4114.872, 4193.846, 4150.256, 450, 0, []
1630405068.305, 85, 0, 4177.949, 4202.564, 4119.487, 4183.077, 4123.077, 450, 0, []
1630405068.3129, 86, 0, 4185.128, 4225.128, 4129.231, 4172.821, 4127.692, 450, 0, []
1630405068.3209, 87, 0, 4192.821, 4225.641, 4113.333, 4199.487, 4146.667, 16223, 0, []
1630405068.3288, 88, 0, 4195.385, 4220, 4129.744, 4208.718, 4134.872, 450, 0, []
1630405068.3367, 89, 0, 4202.051, 4244.103, 4110.256, 4188.718, 4146.154, 450, 0, []
1630405068.3446, 90, 0, 4200, 4242.051, 4130.769, 4181.538, 4161.538, 450, 0, []
1630405068.3526, 91, 0, 4198.462, 4226.667, 4133.846, 4192.308, 4138.462, 16223, 0, []
1630405068.3605, 92, 0, 4178.974, 4229.231, 4106.667, 4183.077, 4118.462, 450, 0, []
1630405068.3685, 93, 0, 4169.744, 4232.821, 4135.897, 4172.308, 4133.333, 450, 0, []
1630405068.3763, 94, 0, 4200, 4233.846, 4123.077, 4187.692, 4146.154, 450, 0, []
1630405068.3843, 95, 0, 4196.923, 4225.641, 4131.795, 4183.59, 4134.872, 16223, 0, []
1630405068.3923, 96, 0, 4175.385, 4203.077, 4131.282, 4173.846, 4138.974, 450, 0, []
1630405068.4002, 97, 0, 4195.385, 4217.949, 4112.821, 4194.872, 4143.59, 450, 0, []
1630405068.4082, 98, 0, 4219.487, 4274.872, 4156.923, 4204.103, 4145.641, 450, 0, []
1630405068.4161, 99, 0, 4210.256, 4273.333, 4127.179, 4194.359, 4160, 16223, 0, []
1630405068.424, 100, 0, 4192.308, 4221.538, 4107.179, 4190.769, 4144.103, 450, 0, []
1630405068.4319, 101, 0, 4192.308, 4228.205, 4124.615, 4183.59, 4127.692, 450, 0, []
1630405068.4399, 102, 0, 4193.846, 4262.051, 4117.436, 4174.359, 4150.769, 450, 0, []
1630405068.4478, 103, 0, 4192.821, 4250.256, 4141.026, 4184.103, 4155.385, 16223, 0, []
1630405068.4557, 104, 0, 4202.051, 4225.128, 4105.641, 4196.41, 4145.128, 450, 0, []
1630405068.4635, 105, 0, 4191.282, 4213.333, 4101.538, 4180.513, 4149.744, 450, 0, []
1630405068.4714, 106, 0, 4177.949, 4216.923, 4125.641, 4170.256, 4149.744, 450, 0, []
1630405068.4794, 107, 0, 4194.359, 4240, 4105.641, 4178.974, 4140, 16223, 0, []
1630405068.4874, 108, 0, 4200, 4259.487, 4143.59, 4182.051, 4145.128, 450, 0, []
1630405068.4953, 109, 0, 4194.872, 4253.846, 4123.59, 4189.231, 4161.026, 450, 0, []
1630405068.5032, 110, 0, 4195.897, 4230.256, 4107.692, 4187.692, 4143.077, 450, 0, []
1630405068.5111, 111, 0, 4190.769, 4234.359, 4145.128, 4174.359, 4134.872, 16223, 0, []
1630405068.5191, 112, 0, 4206.154, 4252.308, 4124.103, 4189.231, 4185.641, 450, 0, []
1630405068.527, 113, 0, 4238.462, 4228.718, 4131.795, 4198.974, 4206.667, 450, 0, []
1630405068.535, 114, 0, 4244.615, 4210.769, 4118.974, 4178.974, 4190.256, 450, 0, []
1630405068.5429, 115, 0, 4223.59, 4232.308, 4111.795, 4172.821, 4198.974, 16223, 0, []
1630405068.5508, 116, 0, 4223.077, 4249.744, 4137.436, 4189.231, 4202.564, 450, 0, []
1630405068.5588, 117, 0, 4236.923, 4243.077, 4106.154, 4188.205, 4183.59, 450, 0, []
1630405068.5667, 118, 0, 4208.718, 4225.641, 4116.923, 4158.974, 4173.846, 450, 0, []
1630405068.5747, 119, 0, 4186.667, 4219.487, 4111.795, 4158.974, 4176.41, 16223, 0, []
1630405068.5825, 120, 0, 4196.923, 4221.538, 4108.205, 4170.256, 4161.538, 450, 0, []
1630405068.5905, 121, 0, 4184.615, 4216.41, 4144.615, 4153.846, 4146.667, 450, 0, []
1630405068.5984, 122, 0, 4172.821, 4215.897, 4102.051, 4151.282, 4155.385, 450, 0, []
1630405068.6064, 123, 0, 4200.513, 4225.641, 4108.205, 4156.923, 4162.051, 16223, 0, []
1630405068.6143, 124, 0, 4230.256, 4250.769, 4136.41, 4157.949, 4178.462, 450, 0, []
1630405068.6222, 125, 0, 4222.564, 4247.692, 4125.641, 4163.077, 4191.282, 450, 0, []
1630405068.6301, 126, 0, 4205.128, 4207.179, 4142.564, 4159.487, 4162.564, 450, 0, []
1630405068.6381, 127, 0, 4193.333, 4208.718, 4113.846, 4143.077, 4142.564, 16223, 0, []
1630405068.646, 128, 0, 4183.077, 4228.718, 4122.051, 4138.462, 4157.436, 450, 0, []
1630405068.654, 0, 0, 4190.769, 4229.231, 4127.179, 4154.872, 4157.949, 450, 0, []
1630405068.6618, 1, 0, 4192.821, 4222.051, 4099.487, 4150.769, 4144.103, 450, 0, []
1630405068.6698, 2, 0, 4185.128, 4195.385, 4128.718, 4129.744, 4154.872, 16213, 0, []
1630405068.6777, 3, 0, 4202.051, 4192.821, 4108.718, 4138.462, 4169.231, 450, 0, []
1630405068.6857, 4, 0, 4207.692, 4220.513, 4108.718, 4144.103, 4160, 16158, 0, []
1630405068.6936, 5, 0, 4190.256, 4213.333, 4117.436, 4133.333, 4166.154, 450, 0, []
1630405068.7015, 6, 0, 4191.282, 4196.923, 4091.282, 4138.462, 4173.846, 220, 0, []
1630405068.7095, 7, 0, 4213.846, 4226.667, 4132.821, 4153.846, 4174.872, 450, 0, []
1630405068.7174, 8, 0, 4222.051, 4257.436, 4124.615, 4170.256, 4200.513, 450, 0, []
1630405068.7254, 9, 0, 4203.59, 4241.538, 4108.205, 4172.308, 4201.026, 16184, 0, []
1630405068.7333, 10, 0, 4206.667, 4221.026, 4118.974, 4165.128, 4177.436, 450, 0, []
1630405068.7412, 11, 0, 4220.513, 4225.128, 4107.179, 4167.692, 4192.821, 16225, 0, []
1630405068.7491, 12, 0, 4212.308, 4230.769, 4137.436, 4165.128, 4206.154, 450, 0, []
1630405068.7571, 13, 0, 4226.154, 4227.179, 4115.897, 4168.205, 4198.974, 450, 0, []
1630405068.765, 14, 0, 4264.615, 4216.41, 4112.308, 4166.667, 4221.538, 450, 0, []
1630405068.773, 15, 0, 4289.744, 4215.385, 4134.359, 4148.718, 4271.795, 16225, 0, []
1630405068.7808, 16, 0, 4313.333, 4215.385, 4094.359, 4144.103, 4305.128, 0, 0, []
1630405068.7888, 17, 0, 4341.026, 4218.462, 4118.974, 4157.436, 4312.308, 0, 0, []
1630405068.7967, 18, 0, 4354.872, 4226.154, 4125.128, 4167.179, 4326.667, 0, 0, []
1630405068.8047, 19, 0, 4345.128, 4201.538, 4114.872, 4153.333, 4338.974, 0, 0, []
1630405068.8126, 20, 0, 4323.59, 4186.154, 4132.308, 4137.436, 4334.359, 0, 0, []
1630405068.8206, 21, 0, 4310.256, 4198.462, 4096.41, 4142.051, 4319.487, 0, 0, []
1630405068.8284, 22, 0, 4301.026, 4190.256, 4108.205, 4142.051, 4283.59, 0, 0, []
1630405068.8364, 23, 0, 4300, 4198.462, 4114.872, 4137.949, 4273.333, 0, 0, []
1630405068.8443, 24, 0, 4287.179, 4224.103, 4112.821, 4141.026, 4290.769, 0, 0, []
1630405068.8521, 25, 0, 4256.923, 4198.462, 4129.744, 4141.026, 4268.718, 0, 0, []
1630405068.8601, 26, 0, 4243.59, 4163.59, 4086.667, 4137.949, 4220, 0, 0, []
1630405068.8679, 27, 0, 4228.718, 4180.513, 4108.205, 4130.256, 4205.128, 0, 0, []
1630405068.8759, 28, 0, 4207.692, 4200.513, 4115.385, 4127.179, 4216.41, 0, 0, []
1630405068.8838, 29, 0, 4195.897, 4180.513, 4077.949, 4120.513, 4189.231, 0, 0, []
1630405068.8918, 30, 0, 4178.974, 4160.513, 4097.949, 4100, 4151.282, 0, 0, []
1630405068.8997, 31, 0, 4175.897, 4180.513, 4083.59, 4106.154, 4163.59, 0, 0, []
1630405068.9076, 32, 0, 4187.179, 4204.103, 4102.051, 4129.744, 4167.179, 0, 0, []
1630405068.9155, 33, 0, 4187.179, 4191.282, 4113.333, 4125.641, 4160.513, 0, 0, []
1630405068.9235, 34, 0, 4179.487, 4167.692, 4093.846, 4121.538, 4177.436, 0, 0, []
1630405068.9314, 35, 0, 4188.205, 4185.128, 4122.564, 4136.41, 4170.769, 0, 0, []
1630405068.9394, 36, 0, 4194.872, 4216.923, 4098.974, 4132.308, 4153.333, 0, 0, []
1630405068.9472, 37, 0, 4167.179, 4195.897, 4106.667, 4106.667, 4146.154, 0, 0, []
1630405068.9552, 38, 0, 4148.718, 4173.846, 4123.077, 4108.205, 4125.128, 0, 0, []
1630405068.9631, 39, 0, 4156.41, 4189.744, 4091.282, 4113.333, 4115.897, 0, 0, []
1630405068.9711, 40, 0, 4165.128, 4193.846, 4118.974, 4113.333, 4143.077, 0, 0, []
1630405068.979, 41, 0, 4188.718, 4197.949, 4108.718, 4147.179, 4167.179, 0, 0, []
1630405068.9869, 42, 0, 4194.359, 4198.462, 4103.077, 4145.128, 4158.462, 0, 0, []
1630405068.9948, 43, 0, 4183.59, 4188.205, 4119.487, 4113.333, 4163.59, 0, 0, []
1630405069.0026, 44, 0, 4190.256, 4193.846, 4093.333, 4133.846, 4169.744, 0, 0, []
1630405069.0105, 45, 0, 4185.128, 4196.923, 4112.308, 4144.615, 4152.821, 0, 0, []
1630405069.0183, 46, 0, 4174.359, 4191.282, 4101.026, 4135.385, 4164.103, 0, 0, []
1630405069.0261, 47, 0, 4187.179, 4195.897, 4100, 4156.41, 4180, 0, 0, []
1630405069.0339, 48, 0, 4202.051, 4210.256, 4118.462, 4159.487, 4181.538, 0, 0, []
1630405069.0419, 49, 0, 4201.538, 4214.872, 4091.282, 4140, 4193.333, 0, 0, []
1630405069.0498, 50, 0, 4190.769, 4210.256, 4113.846, 4143.077, 4179.487, 0, 0, []
1630405069.0578, 51, 0, 4184.103, 4222.051, 4098.974, 4149.231, 4164.103, 0, 0, []
1630405069.0656, 52, 0, 4182.564, 4225.128, 4089.231, 4149.231, 4182.051, 0, 0, []
1630405069.0736, 53, 0, 4189.231, 4221.026, 4122.051, 4167.179, 4182.564, 0, 0, []
1630405069.0815, 54, 0, 4201.026, 4234.359, 4104.615, 4178.462, 4164.615, 0, 0, []
1630405069.0895, 55, 0, 4192.308, 4232.308, 4132.308, 4170.769, 4169.744, 0, 0, []
1630405069.0974, 56, 0, 4191.795, 4211.282, 4124.615, 4187.179, 4185.128, 0, 0, []
1630405069.1053, 57, 0, 4216.41, 4216.923, 4112.821, 4204.103, 4181.026, 0, 0, []
1630405069.1132, 58, 0, 4220.513, 4252.308, 4156.41, 4194.872, 4183.59, 0, 0, []
1630405069.1212, 59, 0, 4204.615, 4251.282, 4125.128, 4198.974, 4201.026, 0, 0, []
1630405069.1291, 60, 0, 4206.667, 4215.385, 4120.513, 4203.59, 4183.077, 0, 0, []
1630405069.1371, 61, 0, 4231.282, 4229.744, 4129.231, 4196.41, 4178.462, 0, 0, []
1630405069.1449, 62, 0, 4226.154, 4274.872, 4121.026, 4201.538, 4211.282, 0, 0, []
1630405069.1527, 63, 0, 4205.641, 4266.154, 4131.795, 4212.821, 4201.026, 0, 0, []
1630405069.1607, 64, 0, 4208.205, 4223.077, 4088.718, 4209.231, 4160.513, 450, 0, []
1630405069.1686, 65, 0, 4205.641, 4208.205, 4113.333, 4193.333, 4166.667, 450, 0, []
1630405069.1766, 66, 0, 4216.923, 4228.205, 4141.026, 4210.256, 4204.615, 16208, 0, []
1630405069.1845, 67, 0, 4240.513, 4261.538, 4110.769, 4231.282, 4192.821, 450, 0, []
1630405069.1924, 68, 0, 4228.718, 4275.385, 4133.333, 4211.282, 4167.692, 16157, 0, []
1630405069.2003, 69, 0, 4210.769, 4250.256, 4116.41, 4204.615, 4187.692, 450, 0, []
1630405069.2083, 70, 0, 4215.385, 4215.897, 4114.872, 4216.923, 4191.795, 218, 0, []
1630405069.2162, 71, 0, 4220.513, 4238.974, 4130.256, 4217.436, 4170.769, 450, 0, []
1630405069.2242, 72, 0, 4207.179, 4262.564, 4115.385, 4211.795, 4173.846, 450, 0, []
1630405069.232, 73, 0, 4197.949, 4217.436, 4135.385, 4209.744, 4182.051, 16172, 0, []
1630405069.24, 74, 0, 4207.692, 4208.718, 4096.41, 4212.308, 4167.179, 450, 0, []
1630405069.2479, 75, 0, 4204.103, 4237.949, 4089.744, 4197.436, 4153.846, 16221, 0, []
1630405069.2559, 76, 0, 4197.949, 4227.692, 4122.051, 4188.718, 4173.333, 450, 0, []
1630405069.2638, 77, 0, 4213.846, 4223.077, 4105.641, 4205.641, 4183.077, 450, 0, []
1630405069.2717, 78, 0, 4221.026, 4247.692, 4136.41, 4205.641, 4170.769, 450, 0, []
1630405069.2796, 79, 0, 4217.949, 4247.692, 4124.103, 4208.718, 4193.846, 16221, 0, []
1630405069.2874, 80, 0, 4219.487, 4216.41, 4106.667, 4226.154, 4208.718, 450, 0, []
1630405069.2953, 81, 0, 4224.615, 4223.59, 4124.103, 4221.026, 4186.154, 450, 0, []
1630405069.3031, 82, 0, 4225.641, 4253.846, 4106.667, 4206.667, 4191.282, 450, 0, []
1630405069.3109, 83, 0, 4214.359, 4233.333, 4126.667, 4214.872, 4202.564, 16221, 0, []
1630405069.3187, 84, 0, 4218.462, 4217.949, 4110.256, 4235.897, 4188.205, 450, 0, []
1630405069.3267, 85, 0, 4229.744, 4245.128, 4116.41, 4228.718, 4185.128, 450, 0, []
1630405069.3346, 86, 0, 4211.795, 4251.282, 4150.769, 4216.923, 4192.821, 450, 0, []
1630405069.3426, 87, 0, 4197.436, 4230.256, 4106.667, 4227.692, 4181.026, 16221, 0, []
1630405069.3504, 88, 0, 4205.128, 4223.077, 4116.41, 4218.974, 4160, 450, 0, []
1630405069.3584, 89, 0, 4198.462, 4226.154, 4113.333, 4202.051, 4162.564, 450, 0, []
1630405069.3663, 90, 0, 4174.359, 4212.821, 4090.769, 4203.59, 4156.923, 450, 0, []
1630405069.3743, 91, 0, 4177.436, 4198.974, 4116.923, 4200.513, 4135.897, 16221, 0, []
1630405069.3822, 92, 0, 4185.641, 4205.128, 4098.462, 4186.667, 4138.974, 450, 0, []
1630405069.3901, 93, 0, 4161.026, 4208.718, 4108.718, 4172.821, 4132.308, 450, 0, []
1630405069.398, 94, 0, 4162.564, 4208.205, 4107.179, 4172.821, 4122.564, 450, 0, []
1630405069.406, 95, 0, 4178.974, 4209.744, 4106.667, 4176.41, 4137.436, 16221, 0, []
1630405069.4139, 96, 0, 4176.41, 4214.872, 4141.538, 4184.103, 4151.795, 450, 0, []
1630405069.4219, 97, 0, 4195.897, 4229.231, 4100.513, 4203.077, 4156.41, 450, 0, []
1630405069.4297, 98, 0, 4212.308, 4247.179, 4111.795, 4198.462, 4158.462, 450, 0, []
1630405069.4375, 99, 0, 4203.59, 4253.333, 4128.205, 4182.564, 4172.308, 16221, 0, []
1630405069.4454, 100, 0, 4210.256, 4227.179, 4096.923, 4191.282, 4177.436, 450, 0, []
1630405069.4532, 101, 0, 4223.077, 4216.41, 4125.128, 4200.513, 4170.769, 450, 0, []
1630405069.4611, 102, 0, 4213.333, 4251.795, 4112.821, 4196.923, 4186.667, 450, 0, []
1630405069.4689, 103, 0, 4204.103, 4250.769, 4111.795, 4202.564, 4195.385, 16221, 0, []
1630405069.4769, 104, 0, 4220.513, 4220.513, 4116.41, 4215.897, 4180.513, 450, 0, []
1630405069.4849, 105, 0, 4216.923, 4220.513, 4093.846, 4195.385, 4171.795, 450, 0, []
1630405069.4928, 106, 0, 4183.077, 4216.41, 4116.923, 4168.718, 4162.051, 450, 0, []
1630405069.5007, 107, 0, 4181.538, 4206.154, 4092.821, 4185.128, 4144.103, 16221, 0, []
1630405069.5086, 108, 0, 4190.256, 4216.923, 4097.436, 4184.103, 4132.821, 450, 0, []
1630405069.5165, 109, 0, 4177.949, 4227.179, 4114.872, 4158.462, 4136.41, 450, 0, []
1630405069.5245, 110, 0, 4174.359, 4214.359, 4072.821, 4167.179, 4131.795, 450, 0, []
1630405069.5324, 111, 0, 4168.205, 4195.897, 4089.231, 4166.667, 4116.923, 16221, 0, []
1630405069.5404, 112, 0, 4161.538, 4187.692, 4085.128, 4153.846, 4132.308, 450, 0, []
1630405069.5483, 113, 0, 4172.308, 4192.308, 4093.333, 4168.718, 4138.974, 450, 0, []
1630405069.5562, 114, 0, 4175.385, 4205.641, 4111.282, 4166.667, 4125.128, 450, 0, []
1630405069.5641, 115, 0, 4157.949, 4188.205, 4073.333, 4137.436, 4123.59, 16221, 0, []
1630405069.5721, 116, 0, 4158.462, 4173.333, 4103.077, 4143.59, 4121.538, 450, 0, []
1630405069.58, 117, 0, 4197.436, 4208.205, 4109.744, 4182.564, 4149.231, 450, 0, []
1630405069.5878, 118, 0, 4212.821, 4220, 4104.103, 4188.718, 4193.333, 450, 0, []
1630405069.5956, 119, 0, 4206.667, 4203.077, 4114.872, 4180, 4200.513, 16221, 0, []
1630405069.6034, 120, 0, 4237.949, 4217.949, 4073.333, 4186.154, 4211.282, 450, 0, []
1630405069.6113, 121, 0, 4285.128, 4221.538, 4104.103, 4176.923, 4258.462, 450, 0, []
1630405069.6191, 122, 0, 4312.821, 4199.487, 4114.872, 4171.282, 4298.974, 450, 0, []
1630405069.627, 123, 0, 4310.769, 4184.615, 4089.231, 4168.718, 4289.231, 16221, 0, []
1630405069.6347, 124, 0, 4312.308, 4190.256, 4112.308, 4158.974, 4271.282, 450, 0, []
1630405069.6427, 125, 0, 4341.538, 4224.103, 4107.692, 4171.795, 4294.872, 450, 0, []
1630405069.6506, 126, 0, 4340, 4232.308, 4127.692, 4186.154, 4315.385, 450, 0, []
1630405069.6586, 127, 0, 4305.128, 4215.385, 4108.205, 4182.564, 4296.41, 16221, 0, []
1630405069.6665, 128, 0, 4294.872, 4218.462, 4087.692, 4184.615, 4265.641, 450, 0, []
1630405069.6744, 0, 0, 4294.872, 4214.872, 4119.487, 4188.718, 4239.487, 450, 0, []
1630405069.6823, 1, 0, 4267.179, 4194.359, 4083.59, 4173.333, 4227.179, 450, 0, []
1630405069.6903, 2, 0, 4246.154, 4203.59, 4102.564, 4167.692, 4236.923, 16213, 0, []
1630405069.6982, 3, 0, 4255.897, 4234.359, 4124.615, 4191.282, 4236.41, 450, 0, []
1630405069.7062, 4, 0, 4236.923, 4217.436, 4091.795, 4178.974, 4181.538, 16159, 0, []
1630405069.714, 5, 0, 4186.154, 4174.359, 4108.718, 4132.821, 4142.564, 450, 0, []
1630405069.722, 6, 0, 4182.051, 4162.051, 4088.205, 4138.462, 4170.769, 230, 0, []
1630405069.7299, 7, 0, 4189.744, 4179.487, 4088.205, 4157.436, 4158.974, 450, 0, []
1630405069.7377, 8, 0, 4164.103, 4201.026, 4098.974, 4127.692, 4118.974, 450, 0, []
1630405069.7456, 9, 0, 4151.795, 4178.974, 4091.282, 4116.41, 4135.897, 16172, 0, []
1630405069.7533, 10, 0, 4172.821, 4157.949, 4124.103, 4155.385, 4155.897, 450, 0, []
1630405069.7612, 11, 0, 4190.769, 4204.103, 4101.026, 4173.333, 4155.385, 16220, 0, []
1630405069.769, 12, 0, 4171.795, 4226.154, 4108.205, 4147.179, 4156.923, 450, 0, []
1630405069.7769, 13, 0, 4164.103, 4185.641, 4112.821, 4141.026, 4149.231, 450, 0, []
1630405069.7847, 14, 0, 4175.897, 4175.897, 4062.051, 4148.718, 4136.41, 450, 0, []
1630405069.7926, 15, 0, 4156.923, 4198.974, 4100.513, 4135.385, 4136.41, 16220, 0, []
1630405069.8005, 16, 0, 4144.103, 4197.949, 4102.051, 4143.077, 4135.385, 0, 0, []
1630405069.8085, 17, 0, 4156.41, 4184.103, 4082.564, 4145.641, 4117.436, 0, 0, []
1630405069.8164, 18, 0, 4157.949, 4195.385, 4101.538, 4131.282, 4115.385, 0, 0, []
1630405069.8244, 19, 0, 4143.077, 4207.692, 4082.051, 4137.949, 4117.436, 0, 0, []
1630405069.8322, 20, 0, 4130.256, 4172.821, 4096.41, 4125.128, 4098.974, 0, 0, []
1630405069.8402, 21, 0, 4139.487, 4157.436, 4097.436, 4114.872, 4114.359, 0, 0, []
1630405069.8481, 22, 0, 4164.103, 4209.231, 4115.385, 4148.205, 4144.615, 0, 0, []
1630405069.8561, 23, 0, 4183.59, 4239.487, 4132.821, 4164.615, 4152.308, 0, 0, []
1630405069.864, 24, 0, 4177.949, 4204.615, 4082.564, 4154.872, 4155.897, 0, 0, []
1630405069.8719, 25, 0, 4158.974, 4182.564, 4096.923, 4156.923, 4140, 0, 0, []
1630405069.8798, 26, 0, 4158.462, 4209.744, 4095.897, 4153.333, 4127.179, 0, 0, []
1630405069.8878, 27, 0, 4154.359, 4218.974, 4087.179, 4138.974, 4141.538, 0, 0, []
1630405069.8957, 28, 0, 4150.769, 4217.949, 4120.513, 4151.282, 4150.256, 0, 0, []
1630405069.9035, 29, 0, 4173.846, 4222.564, 4096.41, 4164.615, 4152.821, 0, 0, []
1630405069.9114, 30, 0, 4179.487, 4200.513, 4113.333, 4148.718, 4157.436, 0, 0, []
1630405069.9191, 31, 0, 4160, 4189.231, 4100, 4145.128, 4148.718, 0, 0, []
1630405069.927, 32, 0, 4154.872, 4202.051, 4070.256, 4143.59, 4133.846, 0, 0, []
1630405069.9348, 33, 0, 4161.026, 4209.744, 4113.846, 4137.949, 4143.59, 0, 0, []
1630405069.9427, 34, 0, 4164.103, 4208.718, 4093.333, 4152.821, 4156.923, 0, 0, []
1630405069.9505, 35, 0, 4158.462, 4199.487, 4101.026, 4143.59, 4135.897, 0, 0, []
1630405069.9584, 36, 0, 4146.154, 4200.513, 4116.41, 4120.513, 4125.128, 0, 0, []
1630405069.9663, 37, 0, 4147.179, 4213.333, 4091.795, 4140.513, 4142.564, 0, 0, []
1630405069.9743, 38, 0, 4170.769, 4210.256, 4114.359, 4166.667, 4149.231, 0, 0, []
1630405069.9822, 39, 0, 4183.077, 4210.769, 4109.231, 4169.744, 4152.821, 0, 0, []
1630405069.9902, 40, 0, 4169.231, 4212.308, 4121.026, 4170.769, 4152.821, 0, 0, []
1630405069.998, 41, 0, 4180.513, 4206.667, 4116.923, 4181.026, 4151.282, 0, 0, []
1630405070.006, 42, 0, 4199.487, 4214.359, 4095.897, 4183.077, 4168.205, 0, 0, []
1630405070.0139, 43, 0, 4188.718, 4212.308, 4138.974, 4181.026, 4180, 0, 0, []
1630405070.0219, 44, 0, 4194.359, 4215.385, 4120.513, 4202.051, 4169.231, 0, 0, []
1630405070.0298, 45, 0, 4197.949, 4224.615, 4109.231, 4197.436, 4155.897, 0, 0, []
1630405070.0375, 46, 0, 4185.641, 4218.974, 4115.897, 4179.487, 4172.308, 0, 0, []
1630405070.0454, 47, 0, 4192.821, 4212.308, 4086.667, 4201.538, 4182.564, 0, 0, []
1630405070.0532, 48, 0, 4186.667, 4212.308, 4107.179, 4200.513, 4152.821, 0, 0, []
1630405070.0611, 49, 0, 4167.692, 4210.769, 4087.692, 4175.385, 4143.077, 0, 0, []
1630405070.0689, 50, 0, 4170.769, 4200, 4089.231, 4181.538, 4147.692, 0, 0, []
1630405070.0767, 51, 0, 4169.744, 4192.821, 4111.282, 4187.179, 4131.282, 0, 0, []
1630405070.0845, 52, 0, 4142.051, 4180.513, 4079.487, 4166.154, 4115.385, 0, 0, []
1630405070.0924, 53, 0, 4129.231, 4171.795, 4099.487, 4162.051, 4106.667, 0, 0, []
1630405070.1002, 54, 0, 4155.897, 4173.333, 4087.692, 4172.308, 4120.513, 0, 0, []
1630405070.1081, 55, 0, 4162.564, 4163.077, 4087.692, 4165.128, 4137.436, 0, 0, []
1630405070.1158, 56, 0, 4149.231, 4176.41, 4121.026, 4167.179, 4121.538, 0, 0, []
1630405070.1238, 57, 0, 4159.487, 4210.769, 4088.718, 4176.923, 4108.718, 0, 0, []
1630405070.1317, 58, 0, 4163.59, 4196.41, 4109.744, 4173.846, 4120, 0, 0, []
1630405070.1396, 59, 0, 4156.41, 4176.41, 4110.769, 4185.128, 4123.077, 0, 0, []
1630405070.1474, 60, 0, 4157.949, 4192.308, 4096.41, 4187.179, 4112.308, 0, 0, []
1630405070.1553, 61, 0, 4159.487, 4200.513, 4120.513, 4173.846, 4122.051, 0, 0, []
1630405070.1632, 62, 0, 4168.718, 4202.051, 4092.308, 4191.795, 4139.487, 0, 0, []
1630405070.1712, 63, 0, 4187.179, 4205.128, 4112.821, 4206.667, 4133.333, 0, 0, []
1630405070.1791, 64, 0, 4183.59, 4199.487, 4114.359, 4188.718, 4131.795, 450, 0, []
1630405070.1871, 65, 0, 4152.821, 4180.513, 4079.487, 4166.154, 4120, 450, 0, []
1630405070.1949, 66, 0, 4146.154, 4177.436, 4102.564, 4161.026, 4101.026, 16213, 0, []
1630405070.2027, 67, 0, 4169.744, 4191.795, 4092.308, 4177.949, 4126.154, 450, 0, []
1630405070.2106, 68, 0, 4180, 4181.538, 4109.231, 4190.769, 4146.154, 16158, 0, []
1630405070.2184, 69, 0, 4184.103, 4181.026, 4115.385, 4188.205, 4127.692, 450, 0, []
1630405070.2263, 70, 0, 4177.436, 4207.179, 4100, 4184.615, 4120, 235, 0, []
1630405070.2341, 71, 0, 4167.692, 4210.769, 4125.128, 4192.308, 4133.846, 450, 0, []
1630405070.2419, 72, 0, 4180.513, 4189.744, 4092.308, 4204.615, 4130.256, 450, 0, []
1630405070.2497, 73, 0, 4170.769, 4198.974, 4105.128, 4196.923, 4112.821, 16175, 0, []
1630405070.2577, 74, 0, 4164.103, 4228.718, 4124.615, 4203.59, 4132.821, 450, 0, []
1630405070.2656, 75, 0, 4202.564, 4225.641, 4097.949, 4232.308, 4156.41, 16226, 0, []
1630405070.2736, 76, 0, 4213.333, 4226.667, 4124.615, 4224.103, 4143.077, 450, 0, []
1630405070.2814, 77, 0, 4185.641, 4245.641, 4105.128, 4204.103, 4139.487, 450, 0, []
1630405070.2894, 78, 0, 4175.385, 4227.692, 4100, 4208.205, 4134.872, 450, 0, []
1630405070.2973, 79, 0, 4191.282, 4210.769, 4118.462, 4211.795, 4129.231, 16226, 0, []
1630405070.3053, 80, 0, 4202.051, 4227.179, 4105.641, 4212.821, 4155.385, 450, 0, []
1630405070.3132, 81, 0, 4205.128, 4229.744, 4135.385, 4227.179, 4170.256, 450, 0, []
1630405070.3211, 82, 0, 4220, 4247.692, 4118.974, 4244.103, 4159.487, 450, 0, []
1630405070.329, 83, 0, 4210.256, 4261.026, 4118.974, 4224.103, 4153.333, 16226, 0, []
1630405070.337, 84, 0, 4184.615, 4230.256, 4136.41, 4205.641, 4154.359, 450, 0, []
1630405070.3449, 85, 0, 4186.667, 4217.436, 4094.359, 4215.897, 4135.385, 450, 0, []
1630405070.3529, 86, 0, 4179.487, 4223.077, 4100, 4190.256, 4109.231, 450, 0, []
1630405070.3607, 87, 0, 4165.128, 4208.718, 4088.205, 4160.513, 4117.949, 16226, 0, []
1630405070.3685, 88, 0, 4185.128, 4199.487, 4101.538, 4178.974, 4130.769, 450, 0, []
1630405070.3764, 89, 0, 4202.051, 4208.718, 4133.846, 4191.282, 4127.179, 450, 0, []
1630405070.3842, 90, 0, 4184.615, 4215.385, 4093.333, 4184.615, 4132.821, 450, 0, []
1630405070.3921, 91, 0, 4178.462, 4224.103, 4107.179, 4198.974, 4133.333, 16226, 0, []
1630405070.3998, 92, 0, 4203.077, 4238.974, 4101.026, 4209.744, 4134.872, 450, 0, []
1630405070.4078, 93, 0, 4196.923, 4206.154, 4090.769, 4189.744, 4140.513, 450, 0, []
1630405070.4157, 94, 0, 4169.744, 4168.718, 4118.974, 4181.026, 4129.744, 450, 0, []
1630405070.4236, 95, 0, 4176.41, 4200, 4088.718, 4189.231, 4122.051, 16226, 0, []
1630405070.4314, 96, 0, 4172.821, 4220, 4106.154, 4177.949, 4125.128, 450, 0, []
1630405070.4393, 97, 0, 4161.026, 4194.872, 4104.103, 4181.538, 4133.846, 450, 0, []
1630405070.4472, 98, 0, 4169.744, 4197.436, 4085.128, 4203.077, 4132.821, 450, 0, []
1630405070.4551, 99, 0, 4168.205, 4217.436, 4122.051, 4206.667, 4124.103, 16226, 0, []
1630405070.463, 100, 0, 4168.718, 4204.615, 4104.103, 4213.333, 4130.769, 450, 0, []
1630405070.4709, 101, 0, 4185.128, 4192.308, 4115.897, 4214.359, 4125.128, 450, 0, []
1630405070.4788, 102, 0, 4185.128, 4215.897, 4117.949, 4188.718, 4117.436, 450, 0, []
1630405070.4868, 103, 0, 4170.256, 4207.179, 4086.154, 4170.256, 4123.59, 16226, 0, []
1630405070.4947, 104, 0, 4175.385, 4185.128, 4109.744, 4179.487, 4118.974, 450, 0, []
1630405070.5025, 105, 0, 4184.615, 4218.974, 4102.564, 4193.333, 4120, 450, 0, []
1630405070.5104, 106, 0, 4175.897, 4233.846, 4121.026, 4198.462, 4134.872, 450, 0, []
1630405070.5181, 107, 0, 4186.667, 4210.769, 4114.359, 4214.872, 4132.308, 16226, 0, []
1630405070.526, 108, 0, 4182.564, 4193.846, 4073.846, 4196.923, 4113.846, 450, 0, []
1630405070.5338, 109, 0, 4149.231, 4178.974, 4111.282, 4151.795, 4112.308, 450, 0, []
1630405070.5417, 110, 0, 4160.513, 4189.231, 4100.513, 4160.513, 4125.641, 450, 0, []
1630405070.5495, 111, 0, 4185.641, 4203.59, 4110.256, 4170.769, 4125.641, 16226, 0, []
1630405070.5573, 112, 0, 4176.923, 4187.692, 4127.179, 4154.359, 4133.333, 450, 0, []
1630405070.5651, 113, 0, 4170.769, 4185.641, 4079.487, 4167.179, 4131.282, 450, 0, []
1630405070.5731, 114, 0, 4181.538, 4218.974, 4098.974, 4177.436, 4111.795, 450, 0, []
1630405070.581, 115, 0, 4183.077, 4216.41, 4097.436, 4163.077, 4122.564, 16226, 0, []
1630405070.589, 116, 0, 4165.128, 4181.538, 4087.692, 4153.333, 4120.513, 450, 0, []
1630405070.5969, 117, 0, 4163.077, 4194.359, 4107.179, 4151.282, 4109.231, 450, 0, []
1630405070.6048, 118, 0, 4171.795, 4221.538, 4103.59, 4155.897, 4129.744, 450, 0, []
1630405070.6127, 119, 0, 4164.615, 4217.949, 4124.103, 4163.077, 4125.641, 16226, 0, []
1630405070.6207, 120, 0, 4165.641, 4218.974, 4091.795, 4161.026, 4110.256, 450, 0, []
1630405070.6286, 121, 0, 4163.077, 4210.769, 4089.744, 4154.359, 4118.462, 450, 0, []
1630405070.6366, 122, 0, 4148.718, 4196.41, 4113.846, 4163.59, 4114.872, 450, 0, []
1630405070.6444, 123, 0, 4154.359, 4193.333, 4077.949, 4162.564, 4105.128, 16226, 0, []
1630405070.6524, 124, 0, 4162.564, 4185.641, 4112.821, 4151.282, 4121.026, 450, 0, []
1630405070.6603, 125, 0, 4161.026, 4190.256, 4111.795, 4169.231, 4131.795, 450, 0, []
1630405070.6681, 126, 0, 4157.949, 4196.41, 4085.128, 4173.333, 4117.949, 450, 0, []
1630405070.676, 127, 0, 4158.974, 4186.667, 4120, 4157.436, 4122.564, 16226, 0, []
1630405070.6837, 128, 0, 4164.103, 4184.103, 4104.103, 4168.205, 4130.256, 450, 0, []
1630405070.6916, 0, 0, 4168.718, 4193.333, 4112.308, 4165.128, 4120, 450, 0, []
1630405070.6994, 1, 0, 4177.949, 4198.974, 4109.744, 4160.513, 4135.385, 450, 0, []
1630405070.7073, 2, 0, 4178.974, 4190.769, 4097.949, 4182.051, 4137.436, 16213, 0, []
1630405070.7151, 3, 0, 4163.59, 4180.513, 4118.462, 4171.282, 4113.333, 450, 0, []
1630405070.723, 4, 0, 4156.41, 4183.077, 4088.205, 4152.308, 4126.154, 16158, 0, []
1630405070.7309, 5, 0, 4167.179, 4200, 4112.821, 4171.795, 4134.872, 450, 0, []
1630405070.7389, 6, 0, 4187.692, 4206.667, 4121.538, 4180.513, 4131.795, 231, 0, []
1630405070.7468, 7, 0, 4196.41, 4192.308, 4106.667, 4168.718, 4160, 450, 0, []
1630405070.7548, 8, 0, 4193.333, 4197.436, 4142.051, 4175.385, 4165.128, 450, 0, []
1630405070.7626, 9, 0, 4196.923, 4223.077, 4111.282, 4181.538, 4147.179, 16169, 0, []
1630405070.7706, 10, 0, 4186.154, 4197.436, 4115.897, 4167.179, 4147.179, 450, 0, []
1630405070.7785, 11, 0, 4176.41, 4171.282, 4123.59, 4172.308, 4145.128, 16221, 0, []
1630405070.7865, 12, 0, 4181.538, 4204.103, 4095.897, 4176.41, 4132.821, 450, 0, []
1630405070.7944, 13, 0, 4169.744, 4202.564, 4127.179, 4156.41, 4124.615, 450, 0, []
1630405070.8023, 14, 0, 4173.333, 4190.769, 4108.205, 4162.051, 4124.103, 450, 0, []
1630405070.8102, 15, 0, 4198.974, 4218.974, 4113.846, 4158.974, 4131.282, 16221, 0, []
1630405070.818, 16, 0, 4194.872, 4215.897, 4126.154, 4134.359, 4141.538, 0, 0, []
1630405070.8259, 17, 0, 4171.795, 4186.667, 4084.103, 4141.538, 4125.641, 0, 0, []
1630405070.8337, 18, 0, 4170.769, 4193.333, 4106.667, 4149.744, 4109.231, 0, 0, []
1630405070.8415, 19, 0, 4187.692, 4204.103, 4109.231, 4149.231, 4135.897, 0, 0, []
1630405070.8493, 20, 0, 4195.385, 4202.051, 4114.359, 4167.179, 4143.077, 0, 0, []
1630405070.8572, 21, 0, 4195.897, 4226.667, 4119.487, 4170.256, 4125.128, 0, 0, []
1630405070.865, 22, 0, 4175.385, 4220, 4085.641, 4151.282, 4118.462, 0, 0, []
1630405070.8729, 23, 0, 4153.333, 4176.923, 4116.41, 4150.256, 4104.615, 0, 0, []
1630405070.8806, 24, 0, 4174.359, 4184.615, 4109.231, 4159.487, 4107.179, 0, 0, []
1630405070.8885, 25, 0, 4177.949, 4212.308, 4103.077, 4148.205, 4121.538, 0, 0, []
1630405070.8963, 26, 0, 4158.974, 4218.462, 4118.462, 4146.154, 4111.282, 0, 0, []
1630405070.9043, 27, 0, 4162.564, 4212.821, 4088.718, 4145.128, 4098.462, 0, 0, []
1630405070.9122, 28, 0, 4154.359, 4196.41, 4119.487, 4125.128, 4096.41, 0, 0, []
1630405070.9201, 29, 0, 4146.667, 4198.462, 4108.718, 4139.487, 4102.051, 0, 0, []
1630405070.928, 30, 0, 4161.538, 4205.641, 4090.256, 4158.462, 4107.179, 0, 0, []
1630405070.936, 31, 0, 4164.615, 4189.744, 4122.051, 4148.205, 4113.846, 0, 0, []
1630405070.9439, 32, 0, 4163.59, 4197.949, 4086.154, 4153.333, 4121.026, 0, 0, []
1630405070.9519, 33, 0, 4168.205, 4213.333, 4093.846, 4147.692, 4110.769, 0, 0, []
1630405070.9598, 34, 0, 4158.462, 4196.41, 4098.974, 4132.821, 4106.667, 0, 0, []
1630405070.9675, 35, 0, 4142.051, 4189.744, 4083.077, 4136.41, 4105.128, 0, 0, []
1630405070.9754, 36, 0, 4146.667, 4204.615, 4106.667, 4125.128, 4094.872, 0, 0, []
1630405070.9832, 37, 0, 4149.744, 4201.026, 4085.128, 4113.846, 4101.026, 0, 0, []
1630405070.9911, 38, 0, 4137.949, 4183.59, 4097.949, 4126.154, 4100.513, 0, 0, []
1630405070.9989, 39, 0, 4142.564, 4178.974, 4096.41, 4125.128, 4091.795, 0, 0, []
1630405071.0067, 40, 0, 4142.564, 4171.795, 4076.41, 4113.846, 4092.308, 0, 0, []
1630405071.0145, 41, 0, 4131.795, 4185.641, 4101.026, 4129.744, 4086.154, 0, 0, []
1630405071.0224, 42, 0, 4143.077, 4205.641, 4076.923, 4135.897, 4090.256, 0, 0, []
1630405071.0302, 43, 0, 4146.667, 4174.872, 4106.667, 4118.462, 4098.974, 0, 0, []
1630405071.0381, 44, 0, 4145.641, 4165.128, 4129.231, 4137.436, 4094.359, 0, 0, []
1630405071.0458, 45, 0, 4143.59, 4189.744, 4084.615, 4145.641, 4080.513, 0, 0, []
1630405071.0538, 46, 0, 4135.897, 4181.538, 4095.385, 4115.385, 4082.564, 0, 0, []
1630405071.0617, 47, 0, 4158.462, 4185.128, 4093.333, 4135.385, 4100, 0, 0, []
1630405071.0697, 48, 0, 4173.333, 4208.718, 4117.949, 4166.667, 4105.128, 0, 0, []
1630405071.0776, 49, 0, 4160, 4196.41, 4125.641, 4155.385, 4113.333, 0, 0, []
1630405071.0855, 50, 0, 4152.821, 4175.385, 4086.667, 4145.641, 4108.205, 0, 0, []
1630405071.0934, 51, 0, 4143.59, 4180, 4110.256, 4143.077, 4090.769, 0, 0, []
1630405071.1014, 52, 0, 4140.513, 4188.205, 4091.795, 4145.128, 4105.641, 0, 0, []
1630405071.1093, 53, 0, 4154.359, 4181.026, 4097.949, 4149.231, 4115.385, 0, 0, []
1630405071.1173, 54, 0, 4168.205, 4180.513, 4128.205, 4160.513, 4114.872, 0, 0, []
1630405071.1251, 55, 0, 4180.513, 4203.077, 4102.051, 4183.59, 4137.436, 0, 0, []
1630405071.1329, 56, 0, 4195.897, 4222.564, 4126.667, 4193.333, 4143.077, 0, 0, []
1630405071.1408, 57, 0, 4198.462, 4216.41, 4110.256, 4187.179, 4141.538, 0, 0, []
1630405071.1486, 58, 0, 4194.359, 4193.333, 4099.487, 4187.692, 4154.872, 0, 0, []
1630405071.1565, 59, 0, 4200, 4209.744, 4125.128, 4191.795, 4146.667, 0, 0, []
1630405071.1644, 60, 0, 4190.769, 4236.923, 4089.744, 4179.487, 4128.205, 0, 0, []
1630405071.1723, 61, 0, 4168.205, 4211.282, 4101.538, 4167.179, 4133.333, 0, 0, []
1630405071.1801, 62, 0, 4184.615, 4204.103, 4101.538, 4186.667, 4144.615, 0, 0, []
1630405071.1881, 63, 0, 4207.692, 4225.641, 4102.051, 4196.41, 4144.615, 0, 0, []
1630405071.196, 64, 0, 4195.385, 4216.41, 4128.718, 4177.436, 4151.282, 450, 0, []
1630405071.2039, 65, 0, 4187.179, 4208.205, 4097.949, 4173.846, 4151.795, 450, 0, []
1630405071.2118, 66, 0, 4190.769, 4223.077, 4123.077, 4174.872, 4132.821, 16217, 0, []
1630405071.2198, 67, 0, 4187.179, 4225.128, 4126.667, 4172.308, 4139.487, 450, 0, []
1630405071.2277, 68, 0, 4178.462, 4215.385, 4098.974, 4174.359, 4143.077, 16156, 0, []
1630405071.2357, 69, 0, 4180, 4220, 4115.897, 4163.59, 4120, 450, 0, []
1630405071.2435, 70, 0, 4191.282, 4215.897, 4095.385, 4159.487, 4132.308, 239, 0, []
1630405071.2515, 71, 0, 4187.692, 4188.718, 4115.897, 4174.359, 4151.282, 450, 0, []
1630405071.2594, 72, 0, 4188.205, 4196.923, 4118.974, 4183.077, 4134.872, 450, 0, []
1630405071.2674, 73, 0, 4189.744, 4216.923, 4096.41, 4162.564, 4124.615, 16170, 0, []
1630405071.2753, 74, 0, 4184.615, 4195.897, 4126.154, 4150.769, 4137.436, 450, 0, []
1630405071.283, 75, 0, 4197.436, 4187.179, 4108.205, 4176.923, 4139.487, 16231, 0, []
1630405071.2909, 76, 0, 4202.564, 4208.205, 4120.513, 4181.026, 4131.282, 450, 0, []
1630405071.2987, 77, 0, 4194.872, 4227.692, 4121.538, 4171.795, 4150.769, 450, 0, []
1630405071.3066, 78, 0, 4195.897, 4223.59, 4089.744, 4187.692, 4150.769, 450, 0, []
1630405071.3144, 79, 0, 4197.436, 4202.564, 4119.487, 4190.769, 4126.667, 16231, 0, []
1630405071.3223, 80, 0, 4194.872, 4200.513, 4099.487, 4184.103, 4142.564, 450, 0, []
1630405071.33, 81, 0, 4189.744, 4211.795, 4103.59, 4188.205, 4148.718, 450, 0, []
1630405071.3379, 82, 0, 4196.41, 4221.026, 4127.179, 4185.128, 4132.821, 450, 0, []
1630405071.3457, 83, 0, 4193.333, 4218.974, 4113.333, 4178.462, 4144.615, 16231, 0, []
1630405071.3536, 84, 0, 4179.487, 4213.846, 4141.026, 4189.231, 4146.667, 450, 0, []
1630405071.3614, 85, 0, 4196.923, 4212.308, 4117.436, 4194.872, 4136.41, 450, 0, []
1630405071.3693, 86, 0, 4207.179, 4207.179, 4114.872, 4179.487, 4150.256, 450, 0, []
1630405071.3772, 87, 0, 4198.462, 4217.949, 4126.667, 4183.59, 4169.231, 16231, 0, []
1630405071.3852, 88, 0, 4216.41, 4239.487, 4099.487, 4202.051, 4162.051, 450, 0, []
1630405071.3931, 89, 0, 4232.308, 4236.41, 4136.923, 4187.179, 4156.41, 450, 0, []
1630405071.4011, 90, 0, 4214.359, 4216.923, 4112.821, 4173.846, 4173.846, 450, 0, []
1630405071.4089, 91, 0, 4202.051, 4202.564, 4084.103, 4180, 4169.231, 16231, 0, []
1630405071.4169, 92, 0, 4213.333, 4205.641, 4113.333, 4172.821, 4151.795, 450, 0, []
1630405071.4248, 93, 0, 4201.026, 4213.333, 4092.821, 4159.487, 4160, 450, 0, []
1630405071.4328, 94, 0, 4171.795, 4197.949, 4099.487, 4154.359, 4158.462, 450, 0, []
1630405071.4407, 95, 0, 4182.051, 4194.872, 4089.231, 4157.949, 4141.026, 16231, 0, []
1630405071.4484, 96, 0, 4191.795, 4212.308, 4098.974, 4152.308, 4141.538, 450, 0, []
1630405071.4563, 97, 0, 4180.513, 4209.744, 4126.154, 4148.205, 4152.821, 450, 0, []
1630405071.4642, 98, 0, 4184.615, 4187.179, 4080.513, 4153.846, 4143.59, 450, 0, []
1630405071.4721, 99, 0, 4181.538, 4176.923, 4101.026, 4146.667, 4130.769, 16231, 0, []
1630405071.48, 100, 0, 4180, 4189.231, 4111.282, 4148.718, 4150.769, 450, 0, []
1630405071.4877, 101, 0, 4192.308, 4201.026, 4102.051, 4160.513, 4153.333, 450, 0, []
1630405071.4955, 102, 0, 4186.667, 4209.744, 4134.872, 4160, 4135.897, 450, 0, []
1630405071.5034, 103, 0, 4185.641, 4206.154, 4105.641, 4164.103, 4155.385, 16231, 0, []
1630405071.5112, 104, 0, 4195.897, 4184.615, 4114.872, 4165.128, 4152.308, 450, 0, []
1630405071.5192, 105, 0, 4188.718, 4187.179, 4120.513, 4153.333, 4127.692, 450, 0, []
1630405071.527, 106, 0, 4180, 4187.179, 4102.564, 4150.256, 4138.974, 450, 0, []
1630405071.535, 107, 0, 4189.231, 4167.179, 4123.59, 4158.462, 4145.641, 16231, 0, []
1630405071.5429, 108, 0, 4190.256, 4174.359, 4093.846, 4151.282, 4142.051, 450, 0, []
1630405071.5509, 109, 0, 4175.385, 4185.641, 4105.641, 4137.949, 4150.256, 450, 0, []
1630405071.5588, 110, 0, 4183.077, 4184.103, 4107.179, 4153.846, 4147.692, 450, 0, []
1630405071.5667, 111, 0, 4195.897, 4201.538, 4079.487, 4166.667, 4145.128, 16231, 0, []
1630405071.5746, 112, 0, 4188.718, 4210.256, 4118.462, 4162.564, 4162.564, 450, 0, []
1630405071.5826, 113, 0, 4183.077, 4192.308, 4100, 4167.692, 4155.897, 450, 0, []
1630405071.5905, 114, 0, 4175.897, 4185.641, 4091.795, 4149.744, 4128.205, 450, 0, []
1630405071.5983, 115, 0, 4182.051, 4198.974, 4098.974, 4138.974, 4149.231, 16231, 0, []
1630405071.6061, 116, 0, 4193.846, 4198.462, 4075.897, 4157.436, 4162.051, 450, 0, []
1630405071.6139, 117, 0, 4172.821, 4171.795, 4098.462, 4140, 4128.205, 450, 0, []
1630405071.6218, 118, 0, 4165.641, 4163.077, 4086.667, 4129.744, 4137.949, 450, 0, []
1630405071.6296, 119, 0, 4190.769, 4192.821, 4108.718, 4161.538, 4157.949, 16231, 0, []
1630405071.6375, 120, 0, 4198.462, 4217.436, 4124.103, 4161.026, 4145.641, 450, 0, []
1630405071.6453, 121, 0, 4186.154, 4201.026, 4081.538, 4140, 4148.718, 450, 0, []
1630405071.6531, 122, 0, 4175.385, 4183.077, 4103.077, 4137.949, 4134.359, 450, 0, []
1630405071.6609, 123, 0, 4171.282, 4192.308, 4081.026, 4127.692, 4112.821, 16231, 0, []
1630405071.6688, 124, 0, 4173.333, 4180, 4075.385, 4116.923, 4134.872, 450, 0, []
1630405071.6766, 125, 0, 4201.538, 4173.333, 4113.333, 4140, 4170.256, 450, 0, []
1630405071.6846, 126, 0, 4240.513, 4197.436, 4087.692, 4152.821, 4189.744, 450, 0, []
1630405071.6924, 127, 0, 4262.051, 4203.077, 4102.051, 4132.308, 4225.641, 16231, 0, []
1630405071.7004, 128, 0, 4291.282, 4198.974, 4093.846, 4134.359, 4273.846, 450, 0, []
1630405071.7083, 0, 0, 4318.462, 4203.077, 4084.615, 4149.744, 4279.487, 450, 0, []
1630405071.7163, 1, 0, 4322.051, 4208.205, 4109.744, 4149.231, 4264.615, 450, 0, []
1630405071.7242, 2, 0, 4311.282, 4194.872, 4082.051, 4147.692, 4271.795, 16204, 0, []
1630405071.7321, 3, 0, 4296.41, 4176.41, 4104.615, 4152.821, 4274.359, 450, 0, []
1630405071.74, 4, 0, 4300.513, 4190.769, 4110.256, 4172.821, 4260, 16157, 0, []
1630405071.7478, 5, 0, 4293.333, 4200.513, 4094.359, 4173.333, 4229.231, 450, 0, []
1630405071.7557, 6, 0, 4252.308, 4188.205, 4111.282, 4138.974, 4202.564, 230, 0, []
1630405071.7635, 7, 0, 4231.795, 4186.154, 4080, 4134.359, 4202.564, 450, 0, []
1630405071.7713, 8, 0, 4231.282, 4177.949, 4098.462, 4147.692, 4181.538, 450, 0, []
1630405071.7791, 9, 0, 4222.051, 4174.359, 4106.667, 4139.487, 4160, 16173, 0, []
1630405071.787, 10, 0, 4203.59, 4184.615, 4095.897, 4137.436, 4174.872, 450, 0, []
1630405071.7948, 11, 0, 4197.436, 4184.615, 4125.128, 4151.282, 4178.974, 16248, 0, []
1630405071.8027, 12, 0, 4220, 4193.333, 4090.769, 4163.077, 4169.231, 450, 0, []
1630405071.8104, 13, 0, 4226.154, 4204.615, 4097.949, 4150.256, 4170.256, 450, 0, []
1630405071.8184, 14, 0, 4216.923, 4203.077, 4112.821, 4150.256, 4181.538, 450, 0, []
1630405071.8263, 15, 0, 4235.385, 4207.692, 4094.359, 4175.385, 4180, 16248, 0, []
1630405071.8343, 16, 0, 4251.282, 4202.051, 4124.615, 4169.231, 4174.872, 0, 0, []
1630405071.8422, 17, 0, 4225.128, 4182.564, 4098.462, 4147.179, 4181.538, 0, 0, []
1630405071.8501, 18, 0, 4202.564, 4179.487, 4100.513, 4150.769, 4170.769, 0, 0, []
1630405071.858, 19, 0, 4220, 4201.538, 4116.41, 4166.667, 4153.333, 0, 0, []
1630405071.866, 20, 0, 4221.538, 4220.513, 4096.923, 4164.103, 4158.974, 0, 0, []
1630405071.8739, 21, 0, 4212.821, 4218.462, 4136.41, 4169.231, 4178.462, 0, 0, []
1630405071.8819, 22, 0, 4230.769, 4201.538, 4106.154, 4185.641, 4171.795, 0, 0, []
1630405071.8897, 23, 0, 4224.103, 4185.128, 4087.179, 4157.949, 4141.538, 0, 0, []
1630405071.8975, 24, 0, 4196.41, 4195.897, 4112.821, 4136.41, 4138.974, 0, 0, []
1630405071.9054, 25, 0, 4191.282, 4203.077, 4081.026, 4152.821, 4135.897, 0, 0, []
1630405071.9132, 26, 0, 4195.897, 4183.59, 4090.769, 4152.821, 4120, 0, 0, []
1630405071.9211, 27, 0, 4200.513, 4188.205, 4090.769, 4156.923, 4138.462, 0, 0, []
1630405071.9288, 28, 0, 4192.308, 4192.308, 4085.641, 4165.641, 4138.462, 0, 0, []
1630405071.9367, 29, 0, 4175.897, 4180.513, 4086.667, 4141.026, 4114.872, 0, 0, []
1630405071.9445, 30, 0, 4178.974, 4185.128, 4080, 4129.231, 4135.385, 0, 0, []
1630405071.9524, 31, 0, 4185.641, 4192.308, 4125.128, 4146.667, 4144.103, 0, 0, []
1630405071.9602, 32, 0, 4182.564, 4196.41, 4094.872, 4134.359, 4128.205, 0, 0, []
1630405071.968, 33, 0, 4171.282, 4182.051, 4075.897, 4110.769, 4131.795, 0, 0, []
1630405071.9758, 34, 0, 4171.795, 4175.385, 4114.872, 4134.359, 4135.385, 0, 0, []
1630405071.9838, 35, 0, 4196.41, 4207.692, 4097.436, 4163.077, 4148.205, 0, 0, []
1630405071.9917, 36, 0, 4198.974, 4220, 4125.128, 4155.897, 4163.077, 0, 0, []
1630405071.9997, 37, 0, 4187.692, 4201.026, 4107.179, 4158.462, 4152.308, 0, 0, []
1630405072.0076, 38, 0, 4190.769, 4205.641, 4074.359, 4158.974, 4134.359, 0, 0, []
1630405072.0155, 39, 0, 4188.205, 4226.154, 4114.872, 4149.231, 4143.077, 0, 0, []
1630405072.0234, 40, 0, 4185.128, 4204.103, 4095.897, 4163.077, 4151.795, 0, 0, []
1630405072.0314, 41, 0, 4187.692, 4170.769, 4099.487, 4157.436, 4133.333, 0, 0, []
1630405072.0393, 42, 0, 4182.564, 4188.718, 4101.026, 4140, 4133.846, 0, 0, []
1630405072.0471, 43, 0, 4181.026, 4217.436, 4086.667, 4157.949, 4146.667, 0, 0, []
1630405072.0549, 44, 0, 4185.641, 4198.974, 4106.667, 4161.538, 4130.256, 0, 0, []
1630405072.0627, 45, 0, 4177.949, 4173.846, 4075.385, 4143.077, 4120, 0, 0, []
1630405072.0706, 46, 0, 4162.051, 4187.179, 4092.821, 4149.231, 4123.59, 0, 0, []
1630405072.0784, 47, 0, 4174.872, 4196.923, 4109.744, 4166.154, 4126.667, 0, 0, []
1630405072.0863, 48, 0, 4190.256, 4189.231, 4089.744, 4167.692, 4137.949, 0, 0, []
1630405072.094, 49, 0, 4193.333, 4211.282, 4122.051, 4176.41, 4154.359, 0, 0, []
1630405072.1019, 50, 0, 4211.282, 4236.41, 4097.949, 4195.897, 4157.436, 0, 0, []
1630405072.1097, 51, 0, 4201.026, 4204.103, 4086.667, 4182.051, 4141.026, 0, 0, []
1630405072.1177, 52, 0, 4182.564, 4171.282, 4098.462, 4167.692, 4142.051, 0, 0, []
1630405072.1256, 53, 0, 4200, 4189.744, 4087.692, 4175.385, 4146.154, 0, 0, []
1630405072.1335, 54, 0, 4192.308, 4203.59, 4108.205, 4161.538, 4127.692, 0, 0, []
1630405072.1414, 55, 0, 4164.615, 4196.41, 4077.436, 4148.718, 4124.103, 0, 0, []
1630405072.1494, 56, 0, 4174.359, 4193.333, 4101.026, 4165.641, 4132.308, 0, 0, []
1630405072.1573, 57, 0, 4197.436, 4208.718, 4135.897, 4182.564, 4147.692, 0, 0, []
1630405072.1653, 58, 0, 4184.615, 4207.179, 4085.641, 4167.692, 4151.282, 0, 0, []
1630405072.1731, 59, 0, 4167.692, 4188.718, 4095.385, 4150.769, 4124.615, 0, 0, []
1630405072.1811, 60, 0, 4178.974, 4200.513, 4094.872, 4169.744, 4126.154, 0, 0, []
1630405072.189, 61, 0, 4192.308, 4207.179, 4104.103, 4197.436, 4156.41, 0, 0, []
1630405072.197, 62, 0, 4196.923, 4190.769, 4120.513, 4200.513, 4149.744, 0, 0, []
1630405072.2049, 63, 0, 4184.103, 4195.897, 4080, 4180, 4126.154, 0, 0, []
1630405072.2126, 64, 0, 4167.692, 4215.385, 4105.641, 4169.744, 4130.256, 450, 0, []
1630405072.2205, 65, 0, 4193.333, 4229.231, 4112.821, 4200.513, 4146.667, 450, 0, []
1630405072.2283, 66, 0, 4201.026, 4226.667, 4105.128, 4200, 4143.077, 16217, 0, []
1630405072.2362, 67, 0, 4174.872, 4215.897, 4112.308, 4162.051, 4137.436, 450, 0, []
1630405072.244, 68, 0, 4188.718, 4213.846, 4083.59, 4174.872, 4140.513, 16161, 0, []
1630405072.2518, 69, 0, 4204.615, 4215.897, 4116.923, 4188.718, 4141.026, 450, 0, []
1630405072.2596, 70, 0, 4190.769, 4216.923, 4110.256, 4172.308, 4160, 240, 0, []
1630405072.2675, 71, 0, 4203.59, 4214.359, 4086.667, 4186.154, 4172.821, 450, 0, []
1630405072.2753, 72, 0, 4231.282, 4216.41, 4119.487, 4200.513, 4165.128, 450, 0, []
1630405072.2833, 73, 0, 4206.667, 4214.359, 4095.385, 4183.59, 4160, 16178, 0, []
1630405072.2911, 74, 0, 4172.821, 4202.051, 4106.154, 4175.897, 4144.615, 450, 0, []
1630405072.2991, 75, 0, 4200.513, 4216.923, 4114.872, 4189.744, 4151.282, 16256, 0, []
1630405072.307, 76, 0, 4220.513, 4230.256, 4100.513, 4189.231, 4178.462, 450, 0, []
1630405072.315, 77, 0, 4205.128, 4216.923, 4117.949, 4183.59, 4174.359, 450, 0, []
1630405072.3229, 78, 0, 4206.154, 4214.872, 4090.256, 4180, 4151.282, 450, 0, []
1630405072.3308, 79, 0, 4189.231, 4207.179, 4111.282, 4167.179, 4135.385, 16256, 0, []
1630405072.3387, 80, 0, 4175.897, 4195.385, 4119.487, 4177.949, 4140, 450, 0, []
1630405072.3467, 81, 0, 4201.538, 4204.615, 4095.385, 4191.795, 4147.692, 450, 0, []
1630405072.3546, 82, 0, 4190.256, 4203.077, 4121.538, 4164.615, 4136.923, 450, 0, []
1630405072.3626, 83, 0, 4171.795, 4201.538, 4090.256, 4157.436, 4142.051, 16256, 0, []
1630405072.3705, 84, 0, 4206.154, 4227.692, 4105.641, 4186.154, 4159.487, 450, 0, []
1630405072.3782, 85, 0, 4222.051, 4230.769, 4131.282, 4185.128, 4169.744, 450, 0, []
1630405072.3861, 86, 0, 4198.462, 4201.026, 4096.923, 4169.744, 4174.359, 450, 0, []
1630405072.3939, 87, 0, 4213.333, 4208.718, 4113.846, 4178.974, 4169.231, 16256, 0, []
1630405072.4018, 88, 0, 4242.051, 4242.051, 4092.821, 4182.564, 4169.231, 450, 0, []
1630405072.4096, 89, 0, 4212.821, 4223.59, 4092.308, 4161.026, 4174.359, 450, 0, []
