Timestamp, COUNTER, INTERPOLATED, AF3, T7, Pz, T8, AF4, RAW_CQ, MARKER_HARDWARE, MARKERS
1631428878.6764, 21, 0, 4202.564, 4719.487, 4101.026, 4108.718, 4116.923, 0, 0, []
1631428878.6843, 22, 0, 4203.077, 4841.538, 4145.641, 4120, 4123.077, 0, 0, []
1631428878.6922, 23, 0, 4188.205, 4913.333, 4029.231, 4133.333, 4117.949, 0, 0, []
1631428878.7, 24, 0, 4194.359, 4821.538, 3990.769, 4136.41, 4122.051, 0, 0, []
1631428878.708, 25, 0, 4210.256, 4771.282, 4079.487, 4141.538, 4133.846, 0, 0, []
1631428878.7159, 26, 0, 4200.513, 4809.744, 4055.385, 4136.41, 4133.846, 0, 0, []
1631428878.7238, 27, 0, 4193.846, 4861.026, 4130.769, 4131.282, 4128.205, 0, 0, []
1631428878.7317, 28, 0, 4209.231, 4976.41, 4056.41, 4137.436, 4125.641, 0, 0, []
1631428878.7397, 29, 0, 4210.769, 5041.538, 4058.462, 4142.564, 4124.615, 0, 0, []
1631428878.7476, 30, 0, 4193.333, 4867.692, 4117.436, 4140.513, 4122.051, 0, 0, []
1631428878.7556, 31, 0, 4185.641, 4782.564, 3978.462, 4132.308, 4116.923, 0, 0, []
1631428878.7635, 32, 0, 4198.974, 5013.333, 4096.41, 4131.795, 4127.692, 0, 0, []
1631428878.7714, 33, 0, 4218.462, 5094.359, 4111.282, 4138.974, 4147.692, 0, 0, []
1631428878.7793, 34, 0, 4215.897, 4918.462, 4008.718, 4139.487, 4149.231, 0, 0, []
1631428878.7871, 35, 0, 4205.641, 4927.179, 4123.59, 4136.41, 4143.59, 0, 0, []
1631428878.795, 36, 0, 4209.744, 5070.769, 4022.051, 4138.462, 4138.462, 0, 0, []
1631428878.8028, 37, 0, 4209.231, 5067.692, 3962.051, 4144.103, 4133.846, 0, 0, []
1631428878.8107, 38, 0, 4203.077, 5012.821, 4086.667, 4143.59, 4132.821, 0, 0, []
1631428878.8184, 39, 0, 4199.487, 5024.103, 4161.538, 4138.462, 4128.718, 0, 0, []
1631428878.8263, 40, 0, 4208.718, 5055.897, 4064.615, 4144.103, 4135.897, 0, 0, []
1631428878.8341, 41, 0, 4222.564, 5038.974, 3906.154, 4158.462, 4149.231, 0, 0, []
1631428878.842, 42, 0, 4220.513, 4981.026, 4046.667, 4173.846, 4146.154, 0, 0, []
1631428878.8498, 43, 0, 4209.744, 4995.385, 4028.718, 4165.641, 4129.231, 0, 0, []
1631428878.8578, 44, 0, 4206.667, 5000.513, 4071.795, 4152.821, 4124.615, 0, 0, []
1631428878.8656, 45, 0, 4206.154, 4846.667, 4214.872, 4157.436, 4136.923, 0, 0, []
1631428878.8736, 46, 0, 4193.333, 4720, 3952.821, 4146.154, 4121.026, 0, 0, []
1631428878.8815, 47, 0, 4188.718, 4731.282, 4001.538, 4143.59, 4105.128, 0, 0, []
1631428878.8895, 48, 0, 4191.795, 4705.641, 4124.615, 4151.282, 4118.974, 0, 0, []
1631428878.8974, 49, 0, 4194.872, 4768.718, 4117.949, 4156.41, 4131.282, 0, 0, []
1631428878.9054, 50, 0, 4210.256, 5065.128, 4196.923, 4173.846, 4140, 0, 0, []
1631428878.9132, 51, 0, 4204.615, 5213.846, 3995.385, 4162.564, 4142.051, 0, 0, []
1631428878.9212, 52, 0, 4184.103, 4997.436, 4025.128, 4151.282, 4136.923, 0, 0, []
1631428878.9291, 53, 0, 4190.769, 4767.179, 4171.282, 4173.846, 4137.436, 0, 0, []
1631428878.9369, 54, 0, 4198.462, 4717.436, 4149.231, 4177.949, 4140, 0, 0, []
1631428878.9448, 55, 0, 4184.103, 4680.513, 4208.718, 4170.256, 4138.974, 0, 0, []
1631428878.9526, 56, 0, 4173.333, 4651.795, 4058.974, 4176.41, 4137.949, 0, 0, []
1631428878.9604, 57, 0, 4186.667, 4709.231, 4048.205, 4188.718, 4143.59, 0, 0, []
1631428878.9682, 58, 0, 4198.462, 4711.282, 4133.846, 4194.359, 4152.821, 0, 0, []
1631428878.9761, 59, 0, 4180, 4661.026, 4063.59, 4178.974, 4151.282, 0, 0, []
1631428878.9839, 60, 0, 4169.744, 4733.333, 4161.538, 4181.026, 4148.205, 0, 0, []
1631428878.9918, 61, 0, 4192.821, 4837.949, 4083.077, 4204.615, 4160, 0, 0, []
1631428878.9996, 62, 0, 4202.564, 4791.795, 4042.564, 4198.974, 4172.821, 0, 0, []
1631428879.0074, 63, 0, 4180.513, 4714.872, 4110.769, 4177.436, 4163.59, 0, 0, []
1631428879.0152, 64, 0, 4161.538, 4667.179, 4009.231, 4178.462, 4145.128, 450, 0, []
1631428879.0232, 65, 0, 4171.795, 4720.513, 4087.692, 4195.897, 4161.538, 450, 0, []
1631428879.0311, 66, 0, 4189.744, 5142.564, 4065.641, 4189.744, 4182.564, 16195, 0, []
1631428879.0391, 67, 0, 4185.128, 5755.385, 4074.359, 4171.282, 4167.692, 450, 0, []
1631428879.047, 68, 0, 4175.897, 6131.282, 4140, 4171.795, 4155.897, 16139, 0, []
1631428879.0549, 69, 0, 4183.59, 6428.718, 3985.128, 4180.513, 4158.462, 450, 0, []
1631428879.0628, 70, 0, 4188.205, 6777.436, 4074.872, 4189.231, 4156.923, 16180, 0, []
1631428879.0708, 71, 0, 4179.487, 6764.103, 4121.026, 4185.128, 4153.333, 450, 0, []
1631428879.0787, 72, 0, 4182.564, 6469.231, 4133.333, 4178.462, 4153.333, 450, 0, []
1631428879.0865, 73, 0, 4201.538, 6420, 4172.308, 4191.282, 4164.615, 16136, 0, []
1631428879.0944, 74, 0, 4215.385, 6708.718, 3968.205, 4201.026, 4175.897, 450, 0, []
1631428879.1022, 75, 0, 4219.487, 6994.359, 4042.564, 4210.769, 4184.615, 16194, 0, []
1631428879.11, 76, 0, 4209.744, 6974.359, 4150.769, 4207.179, 4183.59, 450, 0, []
1631428879.1178, 77, 0, 4191.795, 6801.026, 4173.846, 4186.154, 4165.641, 450, 0, []
1631428879.1257, 78, 0, 4200, 6806.154, 4167.692, 4186.667, 4170.769, 450, 0, []
1631428879.1335, 79, 0, 4212.308, 6981.026, 3984.615, 4195.897, 4184.615, 16194, 0, []
1631428879.1414, 80, 0, 4200.513, 7028.205, 4070.256, 4195.385, 4174.872, 450, 0, []
1631428879.1492, 81, 0, 4196.923, 6954.872, 4140, 4185.641, 4165.128, 450, 0, []
1631428879.157, 82, 0, 4214.359, 6932.821, 4159.487, 4191.282, 4183.077, 450, 0, []
1631428879.1648, 83, 0, 4234.359, 6875.385, 4202.564, 4222.051, 4208.718, 16194, 0, []
1631428879.1728, 84, 0, 4236.41, 6791.282, 4045.641, 4227.692, 4206.154, 450, 0, []
1631428879.1807, 85, 0, 4224.103, 6711.282, 4123.59, 4211.795, 4194.359, 450, 0, []
1631428879.1887, 86, 0, 4220.513, 6654.872, 4167.179, 4201.026, 4186.154, 450, 0, []
1631428879.1966, 87, 0, 4226.154, 6685.641, 4146.154, 4202.051, 4181.026, 16194, 0, []
1631428879.2045, 88, 0, 4228.718, 6818.462, 4241.538, 4210.769, 4186.667, 450, 0, []
1631428879.2124, 89, 0, 4216.41, 6902.051, 4071.282, 4202.051, 4187.692, 450, 0, []
1631428879.2204, 90, 0, 4208.718, 6850.769, 4085.128, 4195.385, 4183.077, 450, 0, []
1631428879.2283, 91, 0, 4219.487, 6873.333, 4191.282, 4199.487, 4181.026, 16194, 0, []
1631428879.2363, 92, 0, 4234.872, 6834.872, 4126.667, 4197.949, 4188.205, 450, 0, []
1631428879.2442, 93, 0, 4242.051, 6574.359, 4227.692, 4198.462, 4205.641, 450, 0, []
1631428879.2519, 94, 0, 4234.359, 6595.897, 4139.487, 4200.513, 4205.641, 450, 0, []
1631428879.2598, 95, 0, 4230.256, 6951.282, 4077.436, 4209.744, 4194.359, 16194, 0, []
1631428879.2676, 96, 0, 4233.846, 7141.538, 4154.359, 4213.333, 4197.949, 450, 0, []
1631428879.2755, 97, 0, 4227.179, 7017.436, 4102.051, 4203.077, 4197.436, 450, 0, []
1631428879.2833, 98, 0, 4216.923, 6823.59, 4143.59, 4207.692, 4194.872, 450, 0, []
1631428879.2912, 99, 0, 4216.923, 6688.205, 4078.974, 4208.718, 4196.923, 16194, 0, []
1631428879.2989, 100, 0, 4215.385, 6628.718, 4092.821, 4195.385, 4195.385, 450, 0, []
1631428879.3068, 101, 0, 4218.974, 6550.769, 4122.051, 4195.897, 4201.026, 450, 0, []
1631428879.3146, 102, 0, 4226.667, 6244.615, 4024.103, 4203.077, 4202.564, 450, 0, []
1631428879.3226, 103, 0, 4222.051, 6008.718, 4124.103, 4207.692, 4194.872, 16194, 0, []
1631428879.3305, 104, 0, 4219.487, 6227.179, 4090.256, 4213.333, 4194.359, 450, 0, []
1631428879.3385, 105, 0, 4227.179, 6490.256, 4104.103, 4220.513, 4203.077, 450, 0, []
1631428879.3463, 106, 0, 4228.205, 6516.41, 4155.897, 4216.41, 4204.103, 450, 0, []
1631428879.3543, 107, 0, 4222.051, 6860.513, 4057.949, 4204.615, 4194.359, 16194, 0, []
1631428879.3622, 108, 0, 4226.667, 7455.385, 4158.974, 4213.333, 4197.436, 450, 0, []
1631428879.3702, 109, 0, 4227.692, 7300, 4123.077, 4219.487, 4204.615, 450, 0, []
1631428879.3781, 110, 0, 4225.128, 6695.385, 4105.641, 4215.897, 4206.154, 450, 0, []
1631428879.3861, 111, 0, 4240.513, 6417.436, 4200, 4227.179, 4216.41, 16194, 0, []
1631428879.3939, 112, 0, 4255.897, 6290.256, 4083.077, 4240.513, 4229.744, 450, 0, []
1631428879.4017, 113, 0, 4263.077, 6251.282, 4132.821, 4248.205, 4242.051, 450, 0, []
1631428879.4096, 114, 0, 4274.359, 6257.949, 4139.487, 4242.051, 4242.051, 450, 0, []
1631428879.4174, 115, 0, 4271.282, 6227.692, 4082.564, 4223.077, 4226.154, 16194, 0, []
1631428879.4253, 116, 0, 4256.41, 6505.128, 4172.821, 4214.872, 4217.949, 450, 0, []
1631428879.4331, 117, 0, 4254.872, 6836.41, 4084.103, 4213.846, 4214.359, 450, 0, []
1631428879.4409, 118, 0, 4262.564, 6560, 4131.795, 4223.59, 4213.333, 450, 0, []
1631428879.4487, 119, 0, 4264.615, 6106.667, 4185.128, 4235.897, 4213.333, 16194, 0, []
1631428879.4566, 120, 0, 4265.641, 5980, 4106.667, 4229.231, 4203.59, 450, 0, []
1631428879.4646, 121, 0, 4272.308, 5832.308, 4206.154, 4219.487, 4201.538, 450, 0, []
1631428879.4726, 122, 0, 4273.333, 5673.846, 4088.718, 4206.154, 4212.308, 450, 0, []
1631428879.4805, 123, 0, 4265.128, 5666.667, 4027.179, 4192.821, 4215.385, 16194, 0, []
1631428879.4885, 124, 0, 4261.026, 5634.359, 4124.103, 4185.641, 4209.744, 450, 0, []
1631428879.4963, 125, 0, 4255.385, 5632.308, 4087.692, 4181.538, 4203.59, 450, 0, []
1631428879.5043, 126, 0, 4251.795, 5906.667, 4166.667, 4195.385, 4208.205, 450, 0, []
1631428879.5122, 127, 0, 4261.026, 6438.462, 4084.615, 4211.282, 4209.231, 16194, 0, []
1631428879.5202, 128, 0, 4274.359, 6793.846, 4033.846, 4222.051, 4207.179, 450, 0, []
1631428879.5281, 0, 0, 4282.051, 6875.897, 4114.872, 4226.154, 4217.436, 450, 0, []
1631428879.536, 1, 0, 4280.513, 6803.077, 4078.462, 4208.205, 4218.974, 450, 0, []
1631428879.5438, 2, 0, 4274.872, 6469.231, 4138.974, 4188.718, 4211.282, 16195, 0, []
1631428879.5516, 3, 0, 4268.718, 6203.59, 4058.462, 4170.769, 4201.026, 450, 0, []
1631428879.5595, 4, 0, 4267.692, 6175.385, 4065.128, 4162.051, 4190.256, 16123, 0, []
1631428879.5673, 5, 0, 4271.795, 5996.923, 4144.103, 4179.487, 4188.718, 450, 0, []
1631428879.5752, 6, 0, 4283.59, 5654.872, 4023.077, 4214.872, 4196.923, 16217, 0, []
1631428879.583, 7, 0, 4307.692, 5577.436, 4110.769, 4246.667, 4214.359, 450, 0, []
1631428879.5908, 8, 0, 4313.846, 5689.231, 4126.154, 4241.026, 4221.026, 450, 0, []
1631428879.5986, 9, 0, 4293.333, 5575.897, 4105.641, 4209.231, 4209.231, 16149, 0, []
1631428879.6065, 10, 0, 4283.59, 5496.41, 4139.487, 4191.282, 4201.026, 450, 0, []
1631428879.6143, 11, 0, 4284.103, 5635.897, 3993.333, 4185.128, 4202.051, 16175, 0, []
1631428879.6223, 12, 0, 4282.051, 5649.231, 4073.846, 4196.41, 4213.333, 450, 0, []
1631428879.6302, 13, 0, 4290.769, 5570.256, 4142.051, 4211.795, 4226.154, 450, 0, []
1631428879.6381, 14, 0, 4307.692, 5634.872, 4148.205, 4220.513, 4228.718, 450, 0, []
1631428879.646, 15, 0, 4301.538, 5574.872, 4181.026, 4237.436, 4221.538, 16175, 0, []
1631428879.654, 16, 0, 4276.41, 5221.538, 3991.282, 4227.692, 4198.462, 0, 0, []
1631428879.6619, 17, 0, 4263.59, 5189.744, 4035.897, 4186.154, 4177.436, 0, 0, []
1631428879.6699, 18, 0, 4263.077, 5660.513, 4126.667, 4162.051, 4176.41, 0, 0, []
1631428879.6778, 19, 0, 4258.462, 6043.59, 4129.744, 4167.692, 4182.051, 0, 0, []
1631428879.6857, 20, 0, 4258.462, 6205.128, 4177.436, 4175.385, 4187.179, 0, 0, []
1631428879.6936, 21, 0, 4266.667, 6177.949, 3988.718, 4168.205, 4185.641, 0, 0, []
1631428879.7014, 22, 0, 4280, 5793.846, 4020, 4183.077, 4191.282, 0, 0, []
1631428879.7093, 23, 0, 4297.949, 5463.59, 4144.103, 4209.744, 4206.667, 0, 0, []
1631428879.7171, 24, 0, 4288.205, 5693.333, 4135.897, 4202.051, 4193.846, 0, 0, []
1631428879.725, 25, 0, 4262.051, 6132.821, 4179.487, 4181.538, 4171.795, 0, 0, []
1631428879.7327, 26, 0, 4254.359, 6175.385, 3992.821, 4172.821, 4172.821, 0, 0, []
1631428879.7406, 27, 0, 4248.718, 5807.692, 3998.974, 4171.282, 4173.846, 0, 0, []
1631428879.7484, 28, 0, 4238.974, 5474.359, 4135.897, 4162.051, 4167.692, 0, 0, []
1631428879.7563, 29, 0, 4240, 5629.231, 4119.487, 4155.385, 4165.641, 0, 0, []
1631428879.7641, 30, 0, 4254.359, 6021.538, 4178.462, 4180, 4182.051, 0, 0, []
1631428879.7721, 31, 0, 4265.641, 6067.692, 4032.308, 4197.949, 4192.821, 0, 0, []
1631428879.7799, 32, 0, 4264.615, 5973.846, 4022.564, 4192.821, 4189.231, 0, 0, []
1631428879.7879, 33, 0, 4260, 6085.128, 4133.333, 4185.641, 4186.154, 0, 0, []
1631428879.7958, 34, 0, 4256.41, 5943.59, 4076.41, 4177.949, 4176.41, 0, 0, []
1631428879.8038, 35, 0, 4255.385, 5362.051, 4153.846, 4180.513, 4166.154, 0, 0, []
1631428879.8117, 36, 0, 4257.436, 5032.821, 4075.897, 4183.077, 4172.308, 0, 0, []
1631428879.8197, 37, 0, 4267.692, 5321.026, 4078.462, 4192.308, 4188.205, 0, 0, []
1631428879.8275, 38, 0, 4280, 5591.795, 4169.231, 4212.821, 4196.923, 0, 0, []
1631428879.8355, 39, 0, 4276.923, 5384.103, 4040.513, 4216.41, 4193.333, 0, 0, []
1631428879.8434, 40, 0, 4271.282, 5006.667, 4129.744, 4217.436, 4197.436, 0, 0, []
1631428879.8512, 41, 0, 4270.256, 4860.513, 4136.41, 4209.744, 4191.795, 0, 0, []
1631428879.8591, 42, 0, 4260, 4951.282, 4114.359, 4185.641, 4169.231, 0, 0, []
1631428879.8669, 43, 0, 4257.436, 4917.436, 4190.256, 4178.974, 4167.692, 0, 0, []
1631428879.8748, 44, 0, 4267.692, 4847.179, 4031.282, 4176.923, 4180, 0, 0, []
1631428879.8825, 45, 0, 4270.769, 5105.128, 4098.462, 4172.821, 4187.692, 0, 0, []
1631428879.8904, 46, 0, 4269.231, 5591.282, 4182.564, 4178.974, 4190.769, 0, 0, []
1631428879.8982, 47, 0, 4267.692, 6068.718, 4170.256, 4183.59, 4184.103, 0, 0, []
1631428879.9061, 48, 0, 4270.256, 6034.872, 4236.923, 4191.282, 4191.795, 0, 0, []
1631428879.9139, 49, 0, 4269.231, 5427.692, 3996.41, 4187.179, 4190.769, 0, 0, []
1631428879.9219, 50, 0, 4257.436, 5059.487, 4020.513, 4186.667, 4173.333, 0, 0, []
1631428879.9297, 51, 0, 4265.641, 5106.154, 4300, 4191.282, 4184.615, 0, 0, []
1631428879.9377, 52, 0, 4273.846, 4976.923, 4377.949, 4167.692, 4185.128, 0, 0, []
1631428879.9456, 53, 0, 4261.026, 4851.795, 4283.077, 4172.821, 4176.923, 0, 0, []
1631428879.9536, 54, 0, 4246.154, 4889.744, 3880, 4191.795, 4187.179, 0, 0, []
1631428879.9615, 55, 0, 4243.59, 4625.128, 3851.795, 4178.462, 4181.538, 0, 0, []
1631428879.9695, 56, 0, 4253.846, 4562.051, 4108.718, 4172.308, 4163.59, 0, 0, []
1631428879.9773, 57, 0, 4251.282, 5161.538, 4204.103, 4175.897, 4154.872, 0, 0, []
1631428879.9853, 58, 0, 4244.103, 5529.231, 4236.923, 4171.795, 4168.718, 0, 0, []
1631428879.9932, 59, 0, 4249.744, 5316.41, 3950.256, 4153.333, 4177.436, 0, 0, []
1631428880.001, 60, 0, 4261.026, 5326.667, 3993.846, 4170.769, 4184.615, 0, 0, []
1631428880.0089, 61, 0, 4288.205, 5689.744, 4348.718, 4221.026, 4223.59, 0, 0, []
1631428880.0167, 62, 0, 4309.231, 5763.59, 4325.128, 4220.513, 4242.051, 0, 0, []
1631428880.0245, 63, 0, 4325.128, 5700, 4188.205, 4208.205, 4252.821, 0, 0, []
1631428880.0323, 64, 0, 4361.538, 5874.359, 4052.821, 4207.179, 4290.769, 450, 0, []
1631428880.0402, 65, 0, 4408.718, 5913.846, 4196.923, 4195.385, 4337.949, 450, 0, []
1631428880.048, 66, 0, 4457.436, 5755.385, 4245.641, 4195.897, 4387.179, 16188, 0, []
1631428880.0559, 67, 0, 4491.795, 5725.128, 4046.154, 4195.385, 4418.462, 450, 0, []
1631428880.0637, 68, 0, 4500, 5786.154, 4152.821, 4194.359, 4435.897, 16126, 0, []
1631428880.0715, 69, 0, 4491.795, 5748.205, 4089.231, 4191.795, 4429.231, 450, 0, []
1631428880.0793, 70, 0, 4491.282, 5614.872, 4110.769, 4206.667, 4414.359, 16139, 0, []
1631428880.0872, 71, 0, 4491.795, 5583.59, 4281.538, 4233.846, 4428.205, 450, 0, []
1631428880.095, 72, 0, 4462.564, 5492.308, 4127.692, 4223.59, 4422.564, 450, 0, []
1631428880.103, 73, 0, 4436.41, 5247.692, 4143.077, 4217.436, 4391.282, 16126, 0, []
1631428880.1109, 74, 0, 4420.513, 5302.051, 4139.487, 4216.41, 4366.154, 450, 0, []
1631428880.1188, 75, 0, 4396.41, 5570.256, 4207.692, 4204.615, 4349.744, 16189, 0, []
1631428880.1267, 76, 0, 4379.487, 5551.282, 4225.128, 4209.744, 4333.846, 450, 0, []
1631428880.1347, 77, 0, 4368.718, 5523.59, 4005.128, 4218.462, 4306.667, 450, 0, []
1631428880.1426, 78, 0, 4361.026, 5740.513, 4101.538, 4221.538, 4285.641, 450, 0, []
1631428880.1506, 79, 0, 4348.205, 6070.256, 4125.128, 4207.179, 4273.846, 16189, 0, []
1631428880.1585, 80, 0, 4323.077, 6774.359, 4179.487, 4201.538, 4267.692, 450, 0, []
1631428880.1662, 81, 0, 4313.333, 7628.718, 4250.769, 4204.615, 4253.846, 450, 0, []
1631428880.1741, 82, 0, 4315.385, 7866.667, 3970.769, 4187.692, 4233.846, 450, 0, []
1631428880.1819, 83, 0, 4311.282, 7751.795, 4041.538, 4199.487, 4258.462, 16189, 0, []
1631428880.1898, 84, 0, 4306.667, 7824.103, 4184.615, 4212.821, 4273.333, 450, 0, []
1631428880.1976, 85, 0, 4298.462, 7844.615, 4241.026, 4193.333, 4237.436, 450, 0, []
1631428880.2055, 86, 0, 4288.205, 7774.359, 4277.949, 4187.692, 4233.846, 450, 0, []
1631428880.2132, 87, 0, 4290.256, 7775.385, 3983.59, 4189.231, 4246.154, 16189, 0, []
1631428880.2211, 88, 0, 4298.974, 7770.769, 4060, 4205.128, 4240.513, 450, 0, []
1631428880.2289, 89, 0, 4301.026, 7770.256, 4294.872, 4223.077, 4250.769, 450, 0, []
1631428880.2369, 90, 0, 4286.154, 7771.282, 4249.231, 4196.923, 4239.487, 450, 0, []
1631428880.2448, 91, 0, 4284.103, 7773.846, 4231.282, 4204.615, 4230.256, 16189, 0, []
1631428880.2528, 92, 0, 4290.769, 7774.872, 4063.077, 4222.564, 4234.359, 450, 0, []
1631428880.2606, 93, 0, 4275.385, 7773.333, 4119.487, 4201.538, 4217.436, 450, 0, []
1631428880.2686, 94, 0, 4278.462, 7774.359, 4211.282, 4216.923, 4227.179, 450, 0, []
1631428880.2765, 95, 0, 4291.282, 7774.359, 4107.179, 4223.077, 4229.231, 16189, 0, []
1631428880.2845, 96, 0, 4285.641, 7773.333, 4170.769, 4212.821, 4218.462, 450, 0, []
1631428880.2924, 97, 0, 4286.154, 7774.872, 4078.974, 4210.769, 4226.154, 450, 0, []
1631428880.3004, 98, 0, 4289.744, 7773.846, 4157.436, 4205.128, 4226.154, 450, 0, []
1631428880.3083, 99, 0, 4294.359, 7769.231, 4266.154, 4211.795, 4231.795, 16189, 0, []
1631428880.3162, 100, 0, 4293.333, 7767.692, 4128.718, 4206.154, 4224.103, 450, 0, []
1631428880.3241, 101, 0, 4292.821, 7770.769, 4217.949, 4215.897, 4217.436, 450, 0, []
1631428880.3319, 102, 0, 4301.026, 7771.282, 4174.359, 4220.513, 4221.026, 450, 0, []
1631428880.3398, 103, 0, 4300, 7770.256, 4191.282, 4210.769, 4212.308, 16189, 0, []
1631428880.3476, 104, 0, 4303.077, 7769.231, 4197.949, 4233.846, 4219.487, 450, 0, []
1631428880.3555, 105, 0, 4303.077, 7773.846, 4097.949, 4229.744, 4218.974, 450, 0, []
1631428880.3632, 106, 0, 4286.667, 7766.667, 4316.923, 4208.718, 4205.128, 450, 0, []
1631428880.3711, 107, 0, 4274.359, 7758.974, 4280.513, 4195.385, 4188.718, 16189, 0, []
1631428880.3789, 108, 0, 4286.154, 7752.308, 4165.641, 4197.949, 4189.744, 450, 0, []
1631428880.3869, 109, 0, 4309.744, 7732.821, 4192.308, 4225.641, 4226.154, 450, 0, []
1631428880.3948, 110, 0, 4301.026, 7738.974, 4100.513, 4210.769, 4223.077, 450, 0, []
1631428880.4028, 111, 0, 4289.231, 7743.077, 4257.436, 4204.103, 4203.077, 16189, 0, []
1631428880.4106, 112, 0, 4306.154, 7722.051, 4281.026, 4220.513, 4208.205, 450, 0, []
1631428880.4186, 113, 0, 4303.077, 7720, 4204.103, 4207.179, 4201.026, 450, 0, []
1631428880.4265, 114, 0, 4295.385, 7734.872, 4195.897, 4211.795, 4204.615, 450, 0, []
1631428880.4345, 115, 0, 4301.026, 7750.769, 4084.615, 4211.282, 4208.718, 16189, 0, []
1631428880.4424, 116, 0, 4302.564, 7709.744, 4267.692, 4209.231, 4212.308, 450, 0, []
1631428880.4503, 117, 0, 4298.974, 7622.051, 4308.718, 4218.974, 4215.385, 450, 0, []
1631428880.4581, 118, 0, 4286.667, 7564.615, 4228.718, 4213.846, 4197.949, 450, 0, []
1631428880.4661, 119, 0, 4276.41, 7528.718, 4249.231, 4210.769, 4199.487, 16189, 0, []
1631428880.474, 120, 0, 4265.128, 7484.103, 4066.667, 4191.795, 4192.821, 450, 0, []
1631428880.4818, 121, 0, 4266.154, 7407.692, 4230.769, 4197.949, 4185.641, 450, 0, []
1631428880.4897, 122, 0, 4283.077, 7363.59, 4353.333, 4210.256, 4207.692, 450, 0, []
1631428880.4975, 123, 0, 4277.436, 7359.487, 4238.974, 4183.59, 4210.256, 16189, 0, []
1631428880.5053, 124, 0, 4277.436, 7300.513, 4255.897, 4192.821, 4209.744, 450, 0, []
1631428880.5131, 125, 0, 4289.744, 7271.795, 4095.385, 4208.205, 4213.846, 450, 0, []
1631428880.521, 126, 0, 4288.718, 7274.872, 4165.641, 4212.308, 4217.436, 450, 0, []
1631428880.5288, 127, 0, 4289.744, 7224.615, 4231.282, 4216.41, 4216.41, 16189, 0, []
1631428880.5367, 128, 0, 4289.744, 7168.718, 4131.282, 4200.513, 4200, 450, 0, []
1631428880.5445, 0, 0, 4292.821, 7118.974, 4231.282, 4213.846, 4206.154, 450, 0, []
1631428880.5524, 1, 0, 4291.795, 7088.205, 4137.949, 4216.923, 4206.154, 450, 0, []
1631428880.5603, 2, 0, 4283.077, 7089.231, 4164.103, 4209.231, 4209.231, 16205, 0, []
1631428880.5683, 3, 0, 4296.923, 7090.256, 4168.718, 4221.538, 4230.256, 450, 0, []
1631428880.5762, 4, 0, 4306.667, 7048.718, 4024.103, 4214.359, 4214.359, 16216, 0, []
1631428880.5842, 5, 0, 4289.231, 6978.462, 4200.513, 4214.872, 4207.692, 450, 0, []
1631428880.5921, 6, 0, 4268.718, 6961.538, 4186.154, 4202.051, 4206.154, 234, 0, []
1631428880.6, 7, 0, 4272.821, 6964.103, 4153.846, 4201.026, 4192.308, 450, 0, []
1631428880.6079, 8, 0, 4291.282, 6925.641, 4173.846, 4220.513, 4202.564, 450, 0, []
1631428880.6157, 9, 0, 4276.41, 6891.795, 4105.128, 4192.821, 4196.923, 16144, 0, []
1631428880.6236, 10, 0, 4267.179, 6866.667, 4302.564, 4202.051, 4196.41, 450, 0, []
1631428880.6314, 11, 0, 4284.615, 6763.077, 4258.462, 4223.077, 4206.154, 16202, 0, []
1631428880.6393, 12, 0, 4279.487, 6598.974, 4172.821, 4205.128, 4201.026, 450, 0, []
1631428880.6471, 13, 0, 4277.949, 6545.128, 4167.179, 4212.821, 4213.333, 450, 0, []
1631428880.6549, 14, 0, 4291.282, 6607.692, 4081.538, 4228.718, 4215.897, 450, 0, []
1631428880.6627, 15, 0, 4297.949, 6612.308, 4340, 4251.795, 4222.051, 16202, 0, []
1631428880.6706, 16, 0, 4303.077, 6553.333, 4352.821, 4248.718, 4230.769, 0, 0, []
1631428880.6784, 17, 0, 4307.179, 6526.154, 4175.385, 4231.795, 4227.692, 0, 0, []
1631428880.6864, 18, 0, 4307.692, 6538.462, 4133.846, 4248.205, 4237.949, 0, 0, []
1631428880.6943, 19, 0, 4295.385, 6522.564, 4060.513, 4236.41, 4226.154, 0, 0, []
1631428880.7022, 20, 0, 4290.769, 6417.436, 4301.026, 4223.59, 4212.308, 0, 0, []
1631428880.7101, 21, 0, 4296.41, 6332.821, 4326.154, 4215.385, 4214.359, 0, 0, []
1631428880.7181, 22, 0, 4287.692, 6302.051, 4186.667, 4207.692, 4211.795, 0, 0, []
1631428880.726, 23, 0, 4281.538, 6254.359, 4213.333, 4224.103, 4214.359, 0, 0, []
1631428880.734, 24, 0, 4271.795, 6202.051, 4086.667, 4205.128, 4201.538, 0, 0, []
1631428880.7419, 25, 0, 4268.718, 6177.949, 4226.154, 4201.538, 4208.205, 0, 0, []
1631428880.7498, 26, 0, 4275.385, 6209.231, 4307.692, 4214.872, 4215.385, 0, 0, []
1631428880.7577, 27, 0, 4264.103, 6216.41, 4215.897, 4200.513, 4181.538, 0, 0, []
1631428880.7657, 28, 0, 4264.615, 6154.872, 4237.949, 4208.205, 4181.538, 0, 0, []
1631428880.7736, 29, 0, 4280, 6104.103, 4075.897, 4213.333, 4205.128, 0, 0, []
1631428880.7814, 30, 0, 4283.59, 6074.359, 4191.282, 4224.615, 4215.897, 0, 0, []
1631428880.7893, 31, 0, 4285.641, 6056.923, 4302.051, 4231.282, 4229.231, 0, 0, []
1631428880.797, 32, 0, 4288.205, 6033.333, 4193.333, 4213.333, 4228.718, 0, 0, []
1631428880.8049, 33, 0, 4285.641, 5974.359, 4241.538, 4222.564, 4227.179, 0, 0, []
1631428880.8127, 34, 0, 4267.179, 5906.667, 4105.641, 4216.923, 4206.154, 0, 0, []
1631428880.8206, 35, 0, 4262.051, 5881.538, 4169.744, 4218.462, 4197.436, 0, 0, []
1631428880.8284, 36, 0, 4277.436, 5855.385, 4242.051, 4231.795, 4214.872, 0, 0, []
1631428880.8363, 37, 0, 4263.59, 5712.308, 4091.795, 4213.846, 4197.949, 0, 0, []
1631428880.844, 38, 0, 4245.128, 5554.359, 4204.615, 4223.59, 4187.179, 0, 0, []
1631428880.852, 39, 0, 4249.231, 5530.256, 4167.179, 4227.692, 4185.128, 0, 0, []
1631428880.8599, 40, 0, 4251.795, 5537.949, 4177.949, 4225.641, 4186.154, 0, 0, []
1631428880.8679, 41, 0, 4263.59, 5525.641, 4201.538, 4239.487, 4215.897, 0, 0, []
1631428880.8758, 42, 0, 4269.231, 5514.359, 4069.744, 4224.103, 4224.103, 0, 0, []
1631428880.8838, 43, 0, 4265.641, 5445.641, 4229.744, 4229.744, 4221.538, 0, 0, []
1631428880.8916, 44, 0, 4271.282, 5365.128, 4216.923, 4234.872, 4217.949, 0, 0, []
1631428880.8996, 45, 0, 4275.385, 5334.872, 4159.487, 4223.59, 4213.333, 0, 0, []
1631428880.9075, 46, 0, 4285.641, 5302.564, 4156.41, 4233.333, 4223.59, 0, 0, []
1631428880.9155, 47, 0, 4285.641, 5248.205, 4083.077, 4233.333, 4209.231, 0, 0, []
1631428880.9234, 48, 0, 4281.538, 5228.205, 4322.051, 4238.974, 4208.205, 0, 0, []
1631428880.9312, 49, 0, 4273.846, 5236.41, 4289.744, 4227.179, 4212.308, 0, 0, []
1631428880.939, 50, 0, 4252.308, 5219.487, 4157.436, 4211.795, 4193.846, 0, 0, []
1631428880.9468, 51, 0, 4257.949, 5181.026, 4145.641, 4238.462, 4202.564, 0, 0, []
1631428880.9547, 52, 0, 4273.333, 5050.256, 4043.59, 4235.385, 4209.231, 0, 0, []
1631428880.9625, 53, 0, 4270.256, 4793.333, 4303.077, 4229.231, 4207.692, 0, 0, []
1631428880.9704, 54, 0, 4258.462, 4595.385, 4338.974, 4222.564, 4204.615, 0, 0, []
1631428880.9782, 55, 0, 4246.154, 4514.872, 4153.846, 4208.205, 4194.872, 0, 0, []
1631428880.9861, 56, 0, 4250.769, 4450.256, 4135.385, 4233.333, 4206.154, 0, 0, []
1631428880.994, 57, 0, 4249.231, 4372.821, 4045.641, 4225.128, 4203.077, 0, 0, []
1631428881.0019, 58, 0, 4239.487, 4302.051, 4253.333, 4212.308, 4197.949, 0, 0, []
1631428881.0097, 59, 0, 4243.077, 4272.821, 4301.026, 4216.41, 4195.897, 0, 0, []
1631428881.0177, 60, 0, 4248.718, 4263.59, 4193.333, 4210.769, 4195.385, 0, 0, []
1631428881.0256, 61, 0, 4262.564, 4218.462, 4256.923, 4231.795, 4231.282, 0, 0, []
1631428881.0336, 62, 0, 4266.667, 4152.821, 4089.231, 4228.205, 4242.051, 0, 0, []
1631428881.0414, 63, 0, 4264.615, 4132.308, 4171.282, 4227.179, 4230.769, 0, 0, []
1631428881.0494, 64, 0, 4276.41, 4161.538, 4285.128, 4228.718, 4233.333, 450, 0, []
1631428881.0573, 65, 0, 4270.769, 4126.667, 4230.769, 4213.333, 4219.487, 450, 0, []
1631428881.0653, 66, 0, 4261.026, 4062.564, 4305.641, 4231.282, 4218.974, 16207, 0, []
1631428881.0732, 67, 0, 4258.462, 4063.59, 4122.564, 4215.897, 4215.385, 450, 0, []
1631428881.081, 68, 0, 4256.923, 4048.205, 4105.641, 4201.538, 4212.821, 16067, 0, []
1631428881.0888, 69, 0, 4268.205, 4021.026, 4137.436, 4225.641, 4229.231, 450, 0, []
1631428881.0966, 70, 0, 4260.513, 4008.718, 4095.897, 4220, 4214.872, 136, 0, []
1631428881.1045, 71, 0, 4247.179, 3945.128, 4303.59, 4218.974, 4203.59, 450, 0, []
1631428881.1123, 72, 0, 4251.795, 3875.897, 4187.179, 4215.897, 4207.692, 450, 0, []
1631428881.1202, 73, 0, 4261.026, 3878.462, 4078.974, 4217.949, 4213.846, 16152, 0, []
1631428881.128, 74, 0, 4271.795, 3932.308, 4111.282, 4226.667, 4229.744, 450, 0, []
1631428881.1358, 75, 0, 4271.795, 3961.538, 4135.385, 4210.769, 4225.641, 16155, 0, []
1631428881.1436, 76, 0, 4273.846, 3936.41, 4372.821, 4216.41, 4228.718, 450, 0, []
1631428881.1515, 77, 0, 4277.436, 3911.795, 4250.256, 4216.41, 4228.718, 450, 0, []
1631428881.1593, 78, 0, 4274.359, 3908.718, 4098.974, 4221.026, 4217.436, 450, 0, []
1631428881.1673, 79, 0, 4277.436, 3902.051, 4135.897, 4234.359, 4227.692, 16155, 0, []
1631428881.1752, 80, 0, 4275.385, 3839.487, 4099.487, 4213.846, 4233.333, 450, 0, []
1631428881.1831, 81, 0, 4276.923, 3721.538, 4287.692, 4227.692, 4244.615, 450, 0, []
1631428881.191, 82, 0, 4277.436, 3628.205, 4236.41, 4233.333, 4235.385, 450, 0, []
1631428881.199, 83, 0, 4270.256, 3538.974, 4135.385, 4214.872, 4214.359, 16155, 0, []
1631428881.2069, 84, 0, 4277.949, 3452.308, 4152.821, 4224.615, 4228.205, 450, 0, []
1631428881.2149, 85, 0, 4271.282, 3430.256, 4061.026, 4208.718, 4222.051, 450, 0, []
1631428881.2228, 86, 0, 4253.333, 3377.436, 4260.513, 4196.923, 4217.436, 450, 0, []
1631428881.2307, 87, 0, 4254.359, 3280, 4254.872, 4197.436, 4224.103, 16155, 0, []
1631428881.2386, 88, 0, 4252.308, 3276.923, 4163.077, 4200, 4215.897, 450, 0, []
1631428881.2464, 89, 0, 4241.026, 3341.026, 4189.744, 4201.026, 4211.282, 450, 0, []
1631428881.2543, 90, 0, 4238.974, 3339.487, 4028.205, 4182.564, 4197.949, 450, 0, []
1631428881.2621, 91, 0, 4255.385, 3385.641, 4229.744, 4205.641, 4211.282, 16155, 0, []
1631428881.27, 92, 0, 4261.538, 3578.974, 4326.667, 4209.231, 4224.103, 450, 0, []
1631428881.2777, 93, 0, 4243.077, 3680.513, 4169.744, 4186.667, 4196.923, 450, 0, []
1631428881.2856, 94, 0, 4235.897, 3582.051, 4180.513, 4209.231, 4198.462, 450, 0, []
1631428881.2934, 95, 0, 4228.718, 3432.821, 4056.41, 4198.462, 4201.538, 16155, 0, []
1631428881.3013, 96, 0, 4227.692, 3320, 4145.128, 4192.308, 4196.41, 450, 0, []
1631428881.3091, 97, 0, 4241.026, 3317.436, 4223.59, 4210.769, 4201.026, 450, 0, []
1631428881.317, 98, 0, 4230.769, 3335.385, 4210.256, 4198.974, 4196.41, 450, 0, []
1631428881.3247, 99, 0, 4226.154, 3273.846, 4306.154, 4197.436, 4211.282, 16155, 0, []
1631428881.3327, 100, 0, 4233.333, 3264.103, 4092.821, 4186.154, 4201.538, 450, 0, []
1631428881.3406, 101, 0, 4221.538, 3325.128, 4073.333, 4183.077, 4182.051, 450, 0, []
1631428881.3486, 102, 0, 4214.359, 3334.872, 4171.282, 4191.795, 4191.282, 450, 0, []
1631428881.3565, 103, 0, 4223.077, 3289.744, 4166.667, 4180.513, 4184.615, 16155, 0, []
1631428881.3645, 104, 0, 4241.026, 3258.974, 4323.59, 4191.795, 4189.231, 450, 0, []
1631428881.3723, 105, 0, 4243.077, 3252.821, 4155.385, 4190.769, 4203.077, 450, 0, []
1631428881.3803, 106, 0, 4239.487, 3266.154, 4067.179, 4197.949, 4208.718, 450, 0, []
1631428881.3882, 107, 0, 4254.359, 3301.538, 4126.667, 4220, 4211.282, 16155, 0, []
1631428881.396, 108, 0, 4242.564, 3312.821, 4137.436, 4195.897, 4195.897, 450, 0, []
1631428881.4039, 109, 0, 4227.692, 3301.538, 4335.897, 4190.256, 4200, 450, 0, []
1631428881.4117, 110, 0, 4234.872, 3280.513, 4198.462, 4192.308, 4197.436, 450, 0, []
1631428881.4195, 111, 0, 4221.538, 3262.051, 4102.564, 4177.949, 4181.026, 16155, 0, []
1631428881.4273, 112, 0, 4214.872, 3296.41, 4133.846, 4183.59, 4195.897, 450, 0, []
1631428881.4352, 113, 0, 4230.256, 3308.718, 4078.462, 4186.667, 4194.359, 450, 0, []
1631428881.443, 114, 0, 4234.359, 3235.385, 4328.205, 4197.436, 4185.128, 450, 0, []
1631428881.4509, 115, 0, 4222.051, 3200.513, 4289.744, 4187.179, 4188.718, 16155, 0, []
1631428881.4588, 116, 0, 4223.077, 3258.462, 4117.949, 4175.385, 4186.154, 450, 0, []
1631428881.4666, 117, 0, 4241.538, 3324.615, 4102.051, 4193.846, 4196.923, 450, 0, []
1631428881.4743, 118, 0, 4234.359, 3332.308, 4064.103, 4177.949, 4200, 450, 0, []
1631428881.4823, 119, 0, 4225.641, 3350.769, 4298.974, 4175.385, 4202.564, 16155, 0, []
1631428881.4902, 120, 0, 4240, 3454.359, 4262.564, 4183.077, 4196.41, 450, 0, []
1631428881.4982, 121, 0, 4238.462, 3484.103, 4140.513, 4174.872, 4189.744, 450, 0, []
1631428881.5061, 122, 0, 4230.769, 3401.026, 4190.256, 4186.154, 4206.667, 450, 0, []
1631428881.5141, 123, 0, 4224.615, 3362.051, 4064.103, 4174.872, 4186.667, 16155, 0, []
1631428881.5219, 124, 0, 4216.41, 3341.026, 4206.154, 4168.718, 4167.179, 450, 0, []
1631428881.5299, 125, 0, 4209.231, 3324.103, 4250.256, 4165.128, 4174.359, 450, 0, []
1631428881.5378, 126, 0, 4206.154, 3365.128, 4182.564, 4156.41, 4163.59, 450, 0, []
1631428881.5458, 127, 0, 4228.718, 3368.718, 4226.154, 4182.564, 4174.872, 16155, 0, []
1631428881.5537, 128, 0, 4241.538, 3285.641, 4052.821, 4173.846, 4191.282, 450, 0, []
1631428881.5615, 0, 0, 4243.077, 3226.667, 4164.615, 4168.718, 4200.513, 450, 0, []
1631428881.5693, 1, 0, 4255.385, 3244.615, 4274.872, 4183.077, 4202.051, 450, 0, []
1631428881.5771, 2, 0, 4241.026, 3245.128, 4196.41, 4166.154, 4186.667, 16193, 0, []
1631428881.585, 3, 0, 4229.744, 3233.333, 4231.795, 4159.487, 4202.564, 450, 0, []
1631428881.5928, 4, 0, 4242.564, 3257.949, 4053.846, 4158.974, 4207.692, 16185, 0, []
1631428881.6007, 5, 0, 4240.513, 3251.282, 4097.436, 4171.795, 4191.282, 450, 0, []
1631428881.6085, 6, 0, 4225.641, 3234.872, 4214.872, 4172.308, 4188.205, 144, 0, []
1631428881.6163, 7, 0, 4225.128, 3253.333, 4192.308, 4167.692, 4185.641, 450, 0, []
1631428881.6241, 8, 0, 4237.949, 3277.949, 4286.667, 4198.462, 4197.949, 450, 0, []
1631428881.6321, 9, 0, 4229.744, 3271.282, 4105.128, 4185.128, 4194.359, 16105, 0, []
1631428881.64, 10, 0, 4223.077, 3218.974, 4080, 4169.231, 4186.667, 450, 0, []
1631428881.648, 11, 0, 4228.205, 3204.103, 4173.846, 4166.154, 4183.077, 16193, 0, []
1631428881.6559, 12, 0, 4200, 3240, 4145.128, 4125.641, 4156.41, 450, 0, []
1631428881.6638, 13, 0, 4187.692, 3298.462, 4289.744, 4118.974, 4154.872, 450, 0, []
1631428881.6717, 14, 0, 4205.641, 3311.282, 4137.949, 4128.718, 4156.41, 450, 0, []
1631428881.6797, 15, 0, 4210.769, 3234.359, 4081.538, 4152.821, 4160.513, 16193, 0, []
1631428881.6876, 16, 0, 4228.718, 3233.846, 4145.128, 4178.974, 4182.564, 0, 0, []
1631428881.6956, 17, 0, 4250.769, 3324.103, 4091.795, 4171.282, 4178.462, 0, 0, []
1631428881.7035, 18, 0, 4242.564, 3330.769, 4289.231, 4171.795, 4169.744, 0, 0, []
1631428881.7112, 19, 0, 4210.769, 3282.051, 4182.564, 4144.615, 4151.795, 0, 0, []
1631428881.7191, 20, 0, 4202.051, 3302.564, 4092.308, 4121.026, 4144.615, 0, 0, []
1631428881.7269, 21, 0, 4208.205, 3340, 4126.154, 4130.769, 4152.821, 0, 0, []
1631428881.7348, 22, 0, 4185.641, 3298.974, 4023.077, 4134.359, 4136.41, 0, 0, []
1631428881.7426, 23, 0, 4182.051, 3281.026, 4261.026, 4156.923, 4144.615, 0, 0, []
1631428881.7505, 24, 0, 4200, 3317.949, 4248.718, 4154.872, 4155.897, 0, 0, []
1631428881.7582, 25, 0, 4207.692, 3272.821, 4121.538, 4159.487, 4155.385, 0, 0, []
1631428881.7661, 26, 0, 4211.795, 3190.256, 4129.231, 4171.795, 4162.051, 0, 0, []
1631428881.7739, 27, 0, 4191.282, 3189.744, 3985.641, 4131.282, 4146.154, 0, 0, []
1631428881.7818, 28, 0, 4177.949, 3220, 4183.077, 4119.487, 4140.513, 0, 0, []
1631428881.7896, 29, 0, 4189.744, 3208.718, 4255.897, 4117.949, 4128.718, 0, 0, []
1631428881.7975, 30, 0, 4187.692, 3183.077, 4150.256, 4117.436, 4118.462, 0, 0, []
1631428881.8052, 31, 0, 4176.923, 3189.231, 4133.846, 4126.667, 4129.231, 0, 0, []
1631428881.8132, 32, 0, 4176.923, 3157.436, 3942.564, 4117.436, 4122.564, 0, 0, []
1631428881.8211, 33, 0, 4194.359, 3094.872, 4083.59, 4143.59, 4135.385, 0, 0, []
1631428881.8291, 34, 0, 4205.128, 3135.385, 4228.205, 4155.897, 4152.308, 0, 0, []
1631428881.837, 35, 0, 4201.538, 3187.692, 4180.513, 4146.154, 4156.923, 0, 0, []
1631428881.845, 36, 0, 4211.282, 3142.564, 4145.641, 4160.513, 4182.564, 0, 0, []
1631428881.8528, 37, 0, 4212.308, 3133.846, 3916.41, 4155.385, 4174.359, 0, 0, []
1631428881.8608, 38, 0, 4199.487, 3187.179, 4092.308, 4156.923, 4151.795, 0, 0, []
1631428881.8687, 39, 0, 4191.795, 3182.564, 4303.077, 4155.897, 4151.795, 0, 0, []
1631428881.8765, 40, 0, 4184.103, 3146.154, 4178.974, 4136.923, 4146.667, 0, 0, []
1631428881.8844, 41, 0, 4192.821, 3162.051, 4132.821, 4146.154, 4148.718, 0, 0, []
1631428881.8922, 42, 0, 4197.436, 3173.846, 3969.231, 4151.282, 4150.256, 0, 0, []
1631428881.9, 43, 0, 4180.513, 3164.103, 4073.846, 4145.641, 4151.282, 0, 0, []
1631428881.9078, 44, 0, 4171.282, 3194.359, 4185.641, 4129.744, 4146.154, 0, 0, []
1631428881.9157, 45, 0, 4183.077, 3123.077, 4106.667, 4134.872, 4149.231, 0, 0, []
1631428881.9235, 46, 0, 4193.846, 3121.538, 4156.41, 4161.538, 4164.615, 0, 0, []
1631428881.9314, 47, 0, 4173.846, 3203.59, 3976.41, 4144.103, 4146.154, 0, 0, []
1631428881.9392, 48, 0, 4162.564, 2552.308, 4014.872, 4139.487, 4142.564, 0, 0, []
1631428881.9471, 49, 0, 4170.256, 1273.333, 4113.333, 4139.487, 4150.769, 0, 0, []
1631428881.955, 50, 0, 4168.718, 615.897, 4016.923, 4130.256, 4136.41, 0, 0, []
1631428881.963, 51, 0, 4178.974, 764.103, 4103.077, 4148.718, 4145.641, 0, 0, []
1631428881.9709, 52, 0, 4194.359, 817.949, 3987.692, 4147.179, 4155.385, 0, 0, []
1631428881.9789, 53, 0, 4207.692, 703.077, 4051.282, 4160, 4164.103, 0, 0, []
1631428881.9868, 54, 0, 4208.718, 778.462, 4142.051, 4168.205, 4169.231, 0, 0, []
1631428881.9948, 55, 0, 4189.744, 824.103, 3967.179, 4144.103, 4154.359, 0, 0, []
1631428882.0026, 56, 0, 4188.718, 811.282, 4050.769, 4147.179, 4156.41, 0, 0, []
1631428882.0106, 57, 0, 4189.231, 820.513, 4032.308, 4144.615, 4155.897, 0, 0, []
1631428882.0185, 58, 0, 4173.846, 815.385, 4080, 4136.41, 4147.692, 0, 0, []
1631428882.0265, 59, 0, 4180, 818.462, 4133.333, 4153.333, 4162.564, 0, 0, []
1631428882.0344, 60, 0, 4184.103, 816.41, 3927.179, 4158.974, 4171.282, 0, 0, []
1631428882.0422, 61, 0, 4172.821, 816.923, 4007.179, 4162.051, 4169.744, 0, 0, []
1631428882.05, 62, 0, 4174.359, 818.462, 4064.615, 4169.231, 4180.513, 0, 0, []
1631428882.0578, 63, 0, 4172.308, 817.436, 4120.513, 4171.282, 4193.333, 0, 0, []
1631428882.0657, 64, 0, 4161.026, 816.923, 4151.282, 4167.179, 4190.256, 450, 0, []
1631428882.0735, 65, 0, 4159.487, 816.41, 3872.308, 4150.256, 4178.462, 450, 0, []
1631428882.0814, 66, 0, 4157.949, 816.923, 3947.179, 4148.718, 4182.564, 16180, 0, []
1631428882.0892, 67, 0, 4140, 816.923, 4140.513, 4143.59, 4175.897, 450, 0, []
1631428882.0971, 68, 0, 4136.923, 816.923, 4135.897, 4136.923, 4162.051, 112, 0, []
1631428882.105, 69, 0, 4164.615, 816.923, 4108.718, 4162.564, 4180.513, 450, 0, []
1631428882.1129, 70, 0, 4177.949, 816.923, 3886.667, 4184.103, 4196.41, 16102, 0, []
1631428882.1207, 71, 0, 4165.641, 816.923, 3888.205, 4177.436, 4193.846, 450, 0, []
1631428882.1287, 72, 0, 4163.59, 816.923, 4077.436, 4164.615, 4187.692, 450, 0, []
1631428882.1366, 73, 0, 4176.41, 816.923, 4169.744, 4168.205, 4188.718, 16128, 0, []
1631428882.1445, 74, 0, 4181.538, 816.923, 4140.513, 4180, 4196.923, 450, 0, []
1631428882.1524, 75, 0, 4172.821, 816.923, 3876.923, 4168.205, 4183.59, 16184, 0, []
1631428882.1604, 76, 0, 4162.051, 816.923, 3945.641, 4157.436, 4168.718, 450, 0, []
1631428882.1683, 77, 0, 4160.513, 816.923, 4108.205, 4162.051, 4176.41, 450, 0, []
1631428882.1763, 78, 0, 4163.59, 816.923, 4113.846, 4158.974, 4173.333, 450, 0, []
1631428882.1842, 79, 0, 4167.179, 816.923, 4155.897, 4161.026, 4166.667, 16184, 0, []
1631428882.1919, 80, 0, 4168.718, 816.923, 3907.179, 4161.538, 4168.205, 450, 0, []
1631428882.1998, 81, 0, 4168.205, 816.923, 3996.41, 4171.795, 4170.769, 450, 0, []
1631428882.2076, 82, 0, 4174.359, 816.923, 4156.41, 4186.667, 4175.897, 450, 0, []
1631428882.2155, 83, 0, 4170.256, 816.923, 4035.897, 4184.615, 4173.333, 16184, 0, []
1631428882.2233, 84, 0, 4165.641, 816.923, 4129.231, 4183.077, 4164.615, 450, 0, []
1631428882.2312, 85, 0, 4166.154, 816.923, 4009.231, 4172.821, 4155.385, 450, 0, []
1631428882.2389, 86, 0, 4162.051, 816.923, 4025.641, 4173.846, 4160.513, 450, 0, []
1631428882.2468, 87, 0, 4153.333, 816.923, 4118.462, 4177.436, 4166.154, 16184, 0, []
1631428882.2546, 88, 0, 4149.744, 816.923, 3994.359, 4167.179, 4161.026, 450, 0, []
1631428882.2626, 89, 0, 4171.282, 816.923, 4079.487, 4181.538, 4173.846, 450, 0, []
1631428882.2705, 90, 0, 4192.308, 816.923, 4028.718, 4182.051, 4192.821, 450, 0, []
1631428882.2785, 91, 0, 4215.897, 816.923, 4050.256, 4173.846, 4228.718, 16184, 0, []
1631428882.2863, 92, 0, 4275.385, 816.923, 4131.795, 4185.641, 4295.385, 450, 0, []
1631428882.2943, 93, 0, 4325.128, 816.923, 3968.205, 4178.974, 4346.154, 450, 0, []
1631428882.3022, 94, 0, 4342.051, 816.923, 4017.436, 4164.103, 4370.769, 450, 0, []
1631428882.3102, 95, 0, 4355.385, 816.923, 4080, 4162.051, 4389.231, 16184, 0, []
1631428882.3181, 96, 0, 4362.564, 816.923, 4083.077, 4165.128, 4396.41, 450, 0, []
1631428882.3261, 97, 0, 4343.59, 816.923, 4100.513, 4161.026, 4383.077, 450, 0, []
1631428882.3339, 98, 0, 4306.667, 816.923, 3926.154, 4148.718, 4353.333, 450, 0, []
1631428882.3417, 99, 0, 4268.205, 816.923, 3923.59, 4140, 4321.538, 16184, 0, []
1631428882.3496, 100, 0, 4242.051, 816.923, 4040.513, 4134.359, 4291.282, 450, 0, []
1631428882.3574, 101, 0, 4235.385, 816.923, 4151.795, 4142.564, 4273.333, 450, 0, []
1631428882.3653, 102, 0, 4230.769, 816.923, 4137.949, 4152.821, 4269.744, 450, 0, []
1631428882.3731, 103, 0, 4213.846, 816.923, 3880, 4144.615, 4251.795, 16184, 0, []
1631428882.3809, 104, 0, 4197.949, 816.923, 3957.949, 4142.051, 4228.205, 450, 0, []
1631428882.3887, 105, 0, 4185.128, 816.923, 4074.872, 4139.487, 4209.231, 450, 0, []
1631428882.3966, 106, 0, 4164.615, 816.923, 4142.051, 4127.179, 4190.256, 450, 0, []
1631428882.4044, 107, 0, 4144.615, 816.923, 4184.103, 4116.923, 4177.949, 16184, 0, []
1631428882.4124, 108, 0, 4134.872, 816.923, 3843.077, 4106.667, 4164.615, 450, 0, []
1631428882.4203, 109, 0, 4145.641, 816.923, 3924.615, 4124.103, 4168.205, 450, 0, []
1631428882.4282, 110, 0, 4155.897, 816.923, 4122.564, 4136.923, 4175.897, 450, 0, []
1631428882.4361, 111, 0, 4143.59, 816.923, 4066.154, 4115.385, 4161.538, 16184, 0, []
1631428882.4441, 112, 0, 4138.462, 816.923, 4170.769, 4110.769, 4160.513, 450, 0, []
1631428882.452, 113, 0, 4138.462, 816.923, 3972.821, 4101.538, 4157.436, 450, 0, []
1631428882.4599, 114, 0, 4119.487, 816.923, 3909.744, 4076.41, 4131.282, 450, 0, []
1631428882.4679, 115, 0, 4110.769, 816.923, 4145.128, 4078.462, 4121.026, 16184, 0, []
1631428882.4759, 116, 0, 4112.821, 816.923, 4064.103, 4085.128, 4121.538, 450, 0, []
1631428882.4837, 117, 0, 4105.641, 816.923, 4044.103, 4093.846, 4122.564, 450, 0, []
1631428882.4917, 118, 0, 4104.615, 816.923, 4038.462, 4093.333, 4121.538, 450, 0, []
1631428882.4996, 119, 0, 4097.949, 816.923, 4041.538, 4075.385, 4102.564, 16184, 0, []
1631428882.5074, 120, 0, 4094.359, 816.923, 4173.333, 4089.744, 4105.641, 450, 0, []
1631428882.5153, 121, 0, 4095.897, 816.923, 4063.077, 4081.026, 4106.154, 450, 0, []
1631428882.5231, 122, 0, 4081.026, 816.923, 4057.949, 4046.667, 4088.718, 450, 0, []
1631428882.5309, 123, 0, 4074.872, 816.923, 4054.872, 4040.513, 4092.821, 16184, 0, []
1631428882.5387, 124, 0, 4079.487, 816.923, 4104.103, 4042.564, 4086.667, 450, 0, []
1631428882.5466, 125, 0, 4073.333, 816.923, 4125.641, 4063.077, 4076.41, 450, 0, []
1631428882.5544, 126, 0, 4053.846, 816.923, 3919.487, 4072.821, 4067.692, 450, 0, []
1631428882.5623, 127, 0, 4051.795, 816.923, 4105.128, 4087.179, 4058.974, 16184, 0, []
1631428882.5701, 128, 0, 4075.897, 816.923, 4157.949, 4110.256, 4068.718, 450, 0, []
1631428882.578, 0, 0, 4078.974, 816.923, 4096.923, 4091.795, 4063.077, 450, 0, []
1631428882.5859, 1, 0, 4065.641, 816.923, 4136.41, 4069.231, 4050.769, 450, 0, []
1631428882.5939, 2, 0, 4074.359, 816.923, 3935.897, 4071.282, 4059.487, 16170, 0, []
1631428882.6018, 3, 0, 4093.333, 816.923, 4056.923, 4086.667, 4077.949, 450, 0, []
1631428882.6098, 4, 0, 4087.692, 816.923, 4154.359, 4077.949, 4068.718, 81, 0, []
1631428882.6177, 5, 0, 4068.205, 816.923, 4130.769, 4070.769, 4053.333, 450, 0, []
1631428882.6256, 6, 0, 4070.256, 816.923, 4148.718, 4082.564, 4058.974, 316, 0, []
1631428882.6335, 7, 0, 4085.641, 816.923, 3913.846, 4083.59, 4063.077, 450, 0, []
1631428882.6415, 8, 0, 4097.949, 816.923, 3968.718, 4104.615, 4080, 450, 0, []
1631428882.6494, 9, 0, 4090.256, 816.923, 4161.538, 4117.436, 4082.051, 16144, 0, []
1631428882.6572, 10, 0, 4074.359, 816.923, 4224.615, 4113.846, 4068.718, 450, 0, []
1631428882.6651, 11, 0, 4080.513, 816.923, 4188.718, 4117.949, 4082.564, 16201, 0, []
1631428882.6728, 12, 0, 4091.795, 816.923, 3917.436, 4111.795, 4098.462, 450, 0, []
1631428882.6807, 13, 0, 4087.692, 816.923, 3974.872, 4111.282, 4106.154, 450, 0, []
1631428882.6885, 14, 0, 4078.974, 816.923, 4134.872, 4096.41, 4100.513, 450, 0, []
1631428882.6964, 15, 0, 4087.692, 816.923, 4142.051, 4090.769, 4092.308, 16201, 0, []
1631428882.7042, 16, 0, 4102.564, 816.923, 4157.436, 4116.41, 4098.462, 0, 0, []
1631428882.7121, 17, 0, 4083.59, 816.923, 3936.41, 4109.744, 4090.256, 0, 0, []
1631428882.7198, 18, 0, 4068.718, 816.923, 4000.513, 4098.462, 4078.462, 0, 0, []
1631428882.7277, 19, 0, 4093.333, 816.923, 4150.256, 4108.205, 4086.667, 0, 0, []
1631428882.7355, 20, 0, 4102.051, 816.923, 4089.231, 4110.256, 4092.308, 0, 0, []
1631428882.7435, 21, 0, 4090.769, 816.923, 4149.744, 4118.462, 4092.821, 0, 0, []
1631428882.7514, 22, 0, 4100.513, 816.923, 3986.154, 4128.718, 4094.872, 0, 0, []
1631428882.7594, 23, 0, 4111.282, 816.923, 4031.795, 4129.744, 4095.385, 0, 0, []
1631428882.7672, 24, 0, 4104.615, 816.923, 4187.179, 4125.641, 4090.256, 0, 0, []
1631428882.7752, 25, 0, 4086.667, 816.923, 4034.872, 4110.256, 4066.667, 0, 0, []
1631428882.7831, 26, 0, 4080, 816.923, 4094.359, 4110.256, 4062.051, 0, 0, []
1631428882.7911, 27, 0, 4089.744, 816.923, 4046.667, 4117.949, 4079.487, 0, 0, []
1631428882.799, 28, 0, 4096.923, 816.923, 4088.718, 4126.154, 4089.231, 0, 0, []
1631428882.8068, 29, 0, 4109.231, 816.923, 4205.128, 4136.41, 4105.128, 0, 0, []
1631428882.8146, 30, 0, 4117.949, 816.923, 4005.641, 4123.077, 4108.205, 0, 0, []
1631428882.8224, 31, 0, 4108.205, 816.923, 4038.974, 4115.385, 4093.333, 0, 0, []
1631428882.8303, 32, 0, 4089.231, 816.41, 4050.256, 4110.769, 4071.282, 0, 0, []
1631428882.8381, 33, 0, 4076.41, 815.385, 4109.744, 4103.59, 4063.59, 0, 0, []
1631428882.846, 34, 0, 4080.513, 816.41, 4189.744, 4116.923, 4082.564, 0, 0, []
1631428882.8538, 35, 0, 4078.462, 818.462, 3944.615, 4106.154, 4074.359, 0, 0, []
1631428882.8616, 36, 0, 4067.692, 813.333, 4001.538, 4084.615, 4059.487, 0, 0, []
1631428882.8694, 37, 0, 4064.615, 821.026, 4121.538, 4086.667, 4081.026, 0, 0, []
1631428882.8773, 38, 0, 4064.615, 837.436, 4167.179, 4091.795, 4091.795, 0, 0, []
1631428882.8851, 39, 0, 4058.462, 834.872, 4176.923, 4082.051, 4071.795, 0, 0, []
1631428882.893, 40, 0, 4041.026, 837.436, 3901.538, 4064.103, 4053.333, 0, 0, []
1631428882.9008, 41, 0, 4042.051, 852.308, 3953.846, 4085.128, 4063.59, 0, 0, []
1631428882.9087, 42, 0, 4069.744, 862.564, 4124.615, 4115.385, 4078.974, 0, 0, []
1631428882.9166, 43, 0, 4085.128, 873.846, 4200, 4118.462, 4081.026, 0, 0, []
1631428882.9246, 44, 0, 4081.026, 873.333, 4214.872, 4123.59, 4085.641, 0, 0, []
1631428882.9325, 45, 0, 4067.692, 874.872, 3911.795, 4114.872, 4078.974, 0, 0, []
1631428882.9405, 46, 0, 4062.051, 901.538, 3969.744, 4103.59, 4070.256, 0, 0, []
1631428882.9484, 47, 0, 4069.744, 931.795, 4168.205, 4105.128, 4071.795, 0, 0, []
1631428882.9563, 48, 0, 4067.692, 942.051, 4169.744, 4106.154, 4066.154, 0, 0, []
1631428882.9642, 49, 0, 4065.641, 942.564, 4186.154, 4114.359, 4068.205, 0, 0, []
1631428882.972, 50, 0, 4076.923, 960.513, 3941.538, 4117.949, 4075.385, 0, 0, []
1631428882.9799, 51, 0, 4083.077, 990.256, 3990.769, 4126.667, 4078.462, 0, 0, []
1631428882.9877, 52, 0, 4088.718, 1004.103, 4167.179, 4131.795, 4084.103, 0, 0, []
1631428882.9956, 53, 0, 4097.436, 1007.179, 4116.923, 4120, 4087.179, 0, 0, []
1631428883.0033, 54, 0, 4105.641, 1022.564, 4163.59, 4128.718, 4104.103, 0, 0, []
1631428883.0112, 55, 0, 4112.821, 1063.077, 4001.026, 4140.513, 4117.949, 0, 0, []
1631428883.019, 56, 0, 4120, 1095.897, 4034.359, 4144.615, 4116.41, 0, 0, []
1631428883.0269, 57, 0, 4120.513, 1101.538, 4169.231, 4157.949, 4122.051, 0, 0, []
1631428883.0347, 58, 0, 4108.718, 1105.128, 4061.538, 4156.41, 4125.128, 0, 0, []
1631428883.0427, 59, 0, 4108.205, 1116.41, 4111.795, 4148.205, 4123.077, 0, 0, []
1631428883.0505, 60, 0, 4118.462, 1137.436, 4029.744, 4138.462, 4117.436, 0, 0, []
1631428883.0585, 61, 0, 4119.487, 1150.769, 4072.821, 4132.821, 4111.282, 0, 0, []
1631428883.0664, 62, 0, 4119.487, 1159.487, 4175.897, 4131.795, 4116.41, 0, 0, []
1631428883.0744, 63, 0, 4125.128, 1178.974, 4005.641, 4131.282, 4120.513, 0, 0, []
1631428883.0823, 64, 0, 4142.051, 1190.769, 4053.846, 4157.436, 4133.333, 450, 0, []
1631428883.0903, 65, 0, 4156.41, 1215.385, 4083.077, 4178.462, 4151.282, 450, 0, []
1631428883.0981, 66, 0, 4152.308, 1252.308, 4120.513, 4170.769, 4153.333, 16193, 0, []
1631428883.1061, 67, 0, 4133.846, 1273.846, 4161.538, 4149.744, 4137.949, 450, 0, []
1631428883.114, 68, 0, 4118.462, 1307.179, 3974.872, 4129.744, 4120, 299, 0, []
1631428883.1218, 69, 0, 4136.41, 1346.667, 3998.974, 4142.051, 4131.795, 450, 0, []
1631428883.1297, 70, 0, 4154.872, 1354.872, 4075.897, 4147.179, 4144.103, 280, 0, []
1631428883.1375, 71, 0, 4137.949, 1367.692, 4178.462, 4137.949, 4135.897, 450, 0, []
1631428883.1453, 72, 0, 4125.128, 1401.538, 4180.513, 4148.718, 4131.795, 450, 0, []
1631428883.1531, 73, 0, 4130.769, 1418.974, 3893.846, 4150.769, 4125.128, 16143, 0, []
1631428883.161, 74, 0, 4129.231, 1435.385, 3977.436, 4145.128, 4127.179, 450, 0, []
1631428883.1688, 75, 0, 4123.077, 1474.872, 4135.385, 4135.385, 4128.718, 16223, 0, []
1631428883.1768, 76, 0, 4117.436, 1502.051, 4188.718, 4117.949, 4116.923, 450, 0, []
1631428883.1847, 77, 0, 4113.333, 1517.949, 4221.538, 4107.692, 4113.846, 450, 0, []
1631428883.1927, 78, 0, 4118.462, 1566.154, 3928.205, 4108.718, 4115.385, 450, 0, []
1631428883.2005, 79, 0, 4122.564, 1608.718, 3947.179, 4124.615, 4114.872, 16223, 0, []
1631428883.2085, 80, 0, 4116.923, 1617.436, 4156.41, 4127.692, 4111.282, 450, 0, []
1631428883.2164, 81, 0, 4112.308, 1644.103, 4195.897, 4123.077, 4110.256, 450, 0, []
1631428883.2244, 82, 0, 4120, 1684.103, 4167.179, 4130.769, 4119.487, 450, 0, []
1631428883.2323, 83, 0, 4123.59, 1688.718, 3922.051, 4128.205, 4120.513, 16223, 0, []
1631428883.2403, 84, 0, 4121.026, 1677.436, 3981.026, 4133.333, 4122.564, 450, 0, []
1631428883.2481, 85, 0, 4123.59, 1698.974, 4120.513, 4139.487, 4132.821, 450, 0, []
1631428883.2559, 86, 0, 4120.513, 1726.154, 4096.41, 4123.077, 4129.231, 450, 0, []
1631428883.2638, 87, 0, 4120.513, 1748.718, 4163.077, 4113.846, 4124.615, 16223, 0, []
1631428883.2716, 88, 0, 4133.846, 1800.513, 3991.795, 4111.795, 4144.103, 450, 0, []
1631428883.2795, 89, 0, 4141.026, 1828.205, 4000, 4113.846, 4167.692, 450, 0, []
1631428883.2873, 90, 0, 4138.974, 1831.795, 4127.692, 4125.641, 4169.744, 450, 0, []
1631428883.2951, 91, 0, 4136.923, 1859.487, 4051.282, 4138.974, 4169.231, 16223, 0, []
1631428883.3029, 92, 0, 4141.026, 1893.333, 4095.385, 4148.718, 4178.462, 450, 0, []
1631428883.3108, 93, 0, 4140.513, 1907.179, 3986.667, 4127.179, 4164.103, 450, 0, []
1631428883.3186, 94, 0, 4156.923, 1916.923, 4058.974, 4108.205, 4159.487, 450, 0, []
1631428883.3265, 95, 0, 4206.667, 1960, 4167.179, 4123.077, 4214.872, 16223, 0, []
1631428883.3343, 96, 0, 4252.308, 2018.462, 3971.282, 4122.051, 4284.615, 450, 0, []
1631428883.3421, 97, 0, 4299.487, 2059.487, 4093.846, 4125.128, 4342.051, 450, 0, []
1631428883.3499, 98, 0, 4350.256, 2087.692, 4095.897, 4134.872, 4371.282, 450, 0, []
1631428883.3579, 99, 0, 4368.718, 2103.59, 4101.026, 4141.538, 4382.051, 16223, 0, []
1631428883.3658, 100, 0, 4366.154, 2127.692, 4219.487, 4170.256, 4407.692, 450, 0, []
1631428883.3738, 101, 0, 4351.282, 2173.846, 3998.974, 4172.308, 4391.795, 450, 0, []
1631428883.3817, 102, 0, 4322.051, 2204.103, 4051.795, 4149.231, 4336.41, 450, 0, []
1631428883.3896, 103, 0, 4288.718, 2221.026, 4128.205, 4130.769, 4308.718, 16223, 0, []
1631428883.3975, 104, 0, 4263.077, 2246.667, 4160, 4120, 4295.385, 450, 0, []
1631428883.4055, 105, 0, 4249.744, 2269.231, 4221.026, 4133.333, 4276.41, 450, 0, []
1631428883.4134, 106, 0, 4228.205, 2278.974, 3969.744, 4142.051, 4254.872, 450, 0, []
1631428883.4212, 107, 0, 4198.974, 2280, 4017.949, 4144.615, 4245.641, 16223, 0, []
1631428883.4291, 108, 0, 4190.256, 2299.487, 4155.897, 4148.205, 4243.077, 450, 0, []
1631428883.4368, 109, 0, 4184.615, 2330.769, 4220, 4142.564, 4221.538, 450, 0, []
1631428883.4447, 110, 0, 4172.308, 2346.667, 4247.179, 4146.154, 4205.128, 450, 0, []
1631428883.4526, 111, 0, 4168.718, 2351.282, 3937.949, 4143.077, 4197.949, 16223, 0, []
1631428883.4605, 112, 0, 4160.513, 2357.436, 3984.103, 4136.923, 4187.692, 450, 0, []
1631428883.4684, 113, 0, 4143.077, 2389.231, 4200.513, 4142.051, 4182.564, 450, 0, []
1631428883.4763, 114, 0, 4135.897, 2419.487, 4231.795, 4158.462, 4185.128, 450, 0, []
1631428883.4842, 115, 0, 4138.462, 2425.641, 4210.256, 4166.667, 4184.615, 16223, 0, []
1631428883.4921, 116, 0, 4135.897, 2442.051, 3935.385, 4145.128, 4171.282, 450, 0, []
1631428883.4999, 117, 0, 4144.103, 2472.821, 3990.769, 4150.256, 4176.41, 450, 0, []
1631428883.5079, 118, 0, 4155.385, 2496.41, 4183.59, 4167.692, 4187.179, 450, 0, []
1631428883.5158, 119, 0, 4142.564, 2507.179, 4158.974, 4149.231, 4177.436, 16223, 0, []
1631428883.5238, 120, 0, 4135.897, 2534.872, 4183.077, 4150.769, 4191.282, 450, 0, []
1631428883.5316, 121, 0, 4141.538, 2582.564, 3989.744, 4157.949, 4196.41, 450, 0, []
1631428883.5396, 122, 0, 4141.538, 2614.359, 4027.179, 4147.692, 4170.256, 450, 0, []
1631428883.5475, 123, 0, 4149.744, 2640.513, 4194.872, 4154.872, 4176.923, 16223, 0, []
1631428883.5555, 124, 0, 4151.282, 2676.923, 4118.974, 4162.564, 4199.487, 450, 0, []
1631428883.5634, 125, 0, 4139.487, 2697.436, 4151.795, 4164.103, 4197.436, 450, 0, []
1631428883.5714, 126, 0, 4144.615, 2709.231, 4045.641, 4162.564, 4190.769, 450, 0, []
1631428883.5792, 127, 0, 4160.513, 2734.872, 4088.718, 4171.795, 4192.821, 16223, 0, []
1631428883.587, 128, 0, 4163.077, 2764.103, 4203.077, 4184.103, 4196.923, 450, 0, []
1631428883.5949, 0, 0, 4145.128, 2773.846, 4048.718, 4175.897, 4190.256, 450, 0, []
1631428883.6027, 1, 0, 4131.795, 2778.462, 4088.205, 4174.872, 4186.154, 450, 0, []
1631428883.6106, 2, 0, 4142.051, 2803.077, 4071.282, 4185.128, 4186.154, 16187, 0, []
1631428883.6184, 3, 0, 4156.923, 2825.641, 4122.564, 4199.487, 4183.59, 450, 0, []
1631428883.6262, 4, 0, 4160.513, 2838.974, 4186.667, 4205.128, 4188.205, 316, 0, []
1631428883.634, 5, 0, 4159.487, 2864.615, 3974.872, 4192.821, 4195.385, 450, 0, []
1631428883.6419, 6, 0, 4160.513, 2888.718, 4040.513, 4201.538, 4205.128, 305, 0, []
1631428883.6497, 7, 0, 4160.513, 2907.692, 4104.615, 4210.256, 4202.051, 450, 0, []
1631428883.6577, 8, 0, 4155.385, 2916.923, 4161.026, 4200.513, 4183.59, 450, 0, []
1631428883.6656, 9, 0, 4150.769, 2926.154, 4227.692, 4197.949, 4178.462, 16127, 0, []
1631428883.6735, 10, 0, 4146.154, 2955.897, 3975.897, 4189.744, 4183.59, 450, 0, []
1631428883.6814, 11, 0, 4150.769, 2988.718, 4020, 4195.385, 4200, 16212, 0, []
1631428883.6894, 12, 0, 4156.923, 3007.179, 4161.538, 4210.769, 4206.154, 450, 0, []
1631428883.6973, 13, 0, 4156.923, 3022.564, 4223.59, 4214.359, 4185.641, 450, 0, []
1631428883.7053, 14, 0, 4167.179, 3049.744, 4234.359, 4214.872, 4184.103, 450, 0, []
1631428883.7132, 15, 0, 4165.128, 3075.385, 3941.538, 4204.103, 4197.949, 16212, 0, []
1631428883.7212, 16, 0, 4157.949, 3081.026, 4007.179, 4208.718, 4204.615, 0, 0, []
1631428883.729, 17, 0, 4181.026, 3097.949, 4207.692, 4226.154, 4214.872, 0, 0, []
1631428883.7368, 18, 0, 4196.923, 3122.051, 4237.436, 4232.308, 4220, 0, 0, []
1631428883.7447, 19, 0, 4188.205, 3124.103, 4233.846, 4234.359, 4218.462, 0, 0, []
1631428883.7525, 20, 0, 4181.026, 3125.641, 3963.077, 4215.897, 4210.769, 0, 0, []
1631428883.7604, 21, 0, 4188.718, 3146.154, 4009.231, 4206.154, 4210.769, 0, 0, []
1631428883.7682, 22, 0, 4198.974, 3176.41, 4211.282, 4212.308, 4212.308, 0, 0, []
1631428883.776, 23, 0, 4184.103, 3191.795, 4193.333, 4198.462, 4202.564, 0, 0, []
1631428883.7838, 24, 0, 4160.513, 3198.974, 4157.436, 4182.051, 4197.436, 0, 0, []
1631428883.7917, 25, 0, 4156.923, 3221.026, 3975.385, 4182.051, 4192.308, 0, 0, []
1631428883.7995, 26, 0, 4156.41, 3238.462, 4072.308, 4194.872, 4184.103, 0, 0, []
1631428883.8075, 27, 0, 4144.615, 3246.154, 4205.128, 4187.179, 4176.923, 0, 0, []
1631428883.8154, 28, 0, 4134.359, 3258.462, 4122.564, 4161.538, 4166.154, 0, 0, []
1631428883.8233, 29, 0, 4133.846, 3268.205, 4167.692, 4162.051, 4164.103, 0, 0, []
1631428883.8312, 30, 0, 4128.205, 3267.692, 4050.256, 4163.59, 4156.41, 0, 0, []
1631428883.8392, 31, 0, 4127.179, 3268.205, 4082.564, 4160, 4150.769, 0, 0, []
1631428883.8471, 32, 0, 4132.308, 3285.641, 4155.385, 4158.974, 4151.795, 0, 0, []
1631428883.8551, 33, 0, 4124.103, 3295.897, 4115.385, 4157.949, 4147.692, 0, 0, []
1631428883.863, 34, 0, 4110.769, 3304.103, 4163.077, 4154.872, 4144.103, 0, 0, []
1631428883.8709, 35, 0, 4099.487, 3316.923, 3975.897, 4129.231, 4125.641, 0, 0, []
1631428883.8788, 36, 0, 4104.103, 3313.333, 4129.744, 4133.846, 4124.615, 0, 0, []
1631428883.8866, 37, 0, 4123.59, 3340.513, 4205.641, 4158.974, 4145.641, 0, 0, []
1631428883.8945, 38, 0, 4128.205, 3380, 3961.026, 4159.487, 4149.744, 0, 0, []
1631428883.9023, 39, 0, 4129.744, 3375.897, 4143.077, 4160, 4153.333, 0, 0, []
1631428883.9102, 40, 0, 4139.487, 3372.821, 4120.513, 4149.744, 4149.231, 0, 0, []
1631428883.9179, 41, 0, 4143.59, 3398.974, 4117.436, 4153.846, 4150.769, 0, 0, []
1631428883.9258, 42, 0, 4142.051, 3424.615, 4201.026, 4168.718, 4166.667, 0, 0, []
1631428883.9336, 43, 0, 4136.923, 3429.231, 3969.744, 4153.333, 4160, 0, 0, []
1631428883.9415, 44, 0, 4138.974, 3435.897, 4058.974, 4155.385, 4146.667, 0, 0, []
1631428883.9493, 45, 0, 4140, 3457.436, 4158.974, 4167.179, 4144.103, 0, 0, []
1631428883.9572, 46, 0, 4132.308, 3477.436, 4133.846, 4154.872, 4145.128, 0, 0, []
1631428883.9649, 47, 0, 4127.179, 3495.385, 4164.103, 4147.692, 4149.744, 0, 0, []
1631428883.9728, 48, 0, 4123.59, 3500.513, 3954.872, 4139.487, 4141.026, 0, 0, []
1631428883.9806, 49, 0, 4121.538, 3497.949, 3978.974, 4137.436, 4128.718, 0, 0, []
1631428883.9886, 50, 0, 4121.026, 3510.769, 4154.359, 4151.282, 4134.872, 0, 0, []
1631428883.9965, 51, 0, 4110.769, 3518.462, 4185.128, 4147.179, 4132.821, 0, 0, []
1631428884.0045, 52, 0, 4099.487, 3513.846, 4178.974, 4133.846, 4114.359, 0, 0, []
1631428884.0123, 53, 0, 4101.026, 3522.051, 3938.974, 4125.641, 4100.513, 0, 0, []
1631428884.0203, 54, 0, 4099.487, 3537.949, 3945.641, 4125.128, 4100, 0, 0, []
1631428884.0282, 55, 0, 4086.667, 3546.667, 4140, 4123.077, 4105.641, 0, 0, []
1631428884.0361, 56, 0, 4079.487, 3553.333, 4201.026, 4117.949, 4104.615, 0, 0, []
1631428884.044, 57, 0, 4096.41, 3569.744, 4185.641, 4120.513, 4105.128, 0, 0, []
1631428884.0518, 58, 0, 4109.744, 3589.231, 3978.462, 4117.949, 4104.615, 0, 0, []
1631428884.0596, 59, 0, 4100.513, 3604.615, 4040, 4118.974, 4105.641, 0, 0, []
1631428884.0674, 60, 0, 4093.333, 3623.59, 4094.872, 4120, 4109.744, 0, 0, []
1631428884.0753, 61, 0, 4091.282, 3622.564, 4143.077, 4119.487, 4104.615, 0, 0, []
1631428884.0831, 62, 0, 4088.718, 3610.769, 4266.154, 4124.615, 4098.462, 0, 0, []
1631428884.091, 63, 0, 4084.103, 3615.897, 3991.282, 4112.308, 4086.154, 0, 0, []
1631428884.0988, 64, 0, 4080.513, 3623.59, 4025.128, 4112.821, 4080, 450, 0, []
1631428884.1066, 65, 0, 4080.513, 3632.821, 4141.026, 4119.487, 4083.077, 450, 0, []
1631428884.1144, 66, 0, 4073.846, 3648.718, 4013.846, 4104.615, 4074.872, 16180, 0, []
1631428884.1223, 67, 0, 4065.128, 3658.462, 4170.256, 4102.564, 4070.256, 450, 0, []
1631428884.1301, 68, 0, 4060, 3670.769, 4107.692, 4102.051, 4068.718, 16171, 0, []
1631428884.1381, 69, 0, 4066.667, 3688.718, 3985.128, 4103.59, 4068.205, 450, 0, []
1631428884.146, 70, 0, 4080.513, 3698.462, 4120.513, 4124.615, 4077.436, 16096, 0, []
1631428884.1539, 71, 0, 4067.692, 3697.436, 4035.897, 4110.769, 4071.282, 450, 0, []
1631428884.1618, 72, 0, 4047.179, 3688.718, 4029.231, 4084.615, 4063.077, 450, 0, []
1631428884.1698, 73, 0, 4061.026, 3697.436, 4104.103, 4101.538, 4075.385, 16125, 0, []
1631428884.1777, 74, 0, 4072.821, 3718.462, 4102.564, 4115.385, 4066.667, 450, 0, []
1631428884.1857, 75, 0, 4058.462, 3724.615, 4154.359, 4106.667, 4054.872, 16179, 0, []
1631428884.1936, 76, 0, 4051.795, 3740, 4011.282, 4100, 4069.744, 450, 0, []
1631428884.2015, 77, 0, 4058.462, 3751.795, 4025.128, 4105.641, 4083.59, 450, 0, []
1631428884.2094, 78, 0, 4060.513, 3746.667, 4117.949, 4109.744, 4083.077, 450, 0, []
1631428884.2172, 79, 0, 4056.41, 3752.821, 4179.487, 4102.564, 4067.179, 16179, 0, []
1631428884.2251, 80, 0, 4057.949, 3762.051, 4214.359, 4104.615, 4060.513, 450, 0, []
1631428884.2329, 81, 0, 4061.538, 3765.641, 3935.385, 4098.462, 4062.051, 450, 0, []
1631428884.2408, 82, 0, 4069.231, 3778.462, 4023.077, 4104.615, 4073.846, 450, 0, []
1631428884.2485, 83, 0, 4084.103, 3803.59, 4189.231, 4118.974, 4093.333, 16179, 0, []
1631428884.2564, 84, 0, 4084.103, 3820.513, 4187.179, 4108.205, 4090.256, 450, 0, []
1631428884.2642, 85, 0, 4077.949, 3829.231, 4235.897, 4104.103, 4080, 450, 0, []
1631428884.2721, 86, 0, 4084.615, 3841.026, 3944.103, 4105.641, 4074.872, 450, 0, []
1631428884.2799, 87, 0, 4093.333, 3845.128, 3963.59, 4111.795, 4084.615, 16179, 0, []
1631428884.2878, 88, 0, 4087.692, 3855.385, 4177.949, 4115.897, 4098.974, 450, 0, []
1631428884.2955, 89, 0, 4074.872, 3865.641, 4210.769, 4105.641, 4091.795, 450, 0, []
1631428884.3035, 90, 0, 4087.692, 3861.538, 4235.897, 4117.949, 4091.282, 450, 0, []
1631428884.3114, 91, 0, 4101.026, 3869.744, 3974.872, 4123.59, 4087.692, 16179, 0, []
1631428884.3194, 92, 0, 4087.692, 3879.487, 4009.744, 4111.795, 4079.487, 450, 0, []
1631428884.3273, 93, 0, 4085.641, 3888.205, 4199.487, 4110.256, 4093.333, 450, 0, []
1631428884.3353, 94, 0, 4095.385, 3893.333, 4170.256, 4110.256, 4096.41, 450, 0, []
1631428884.3431, 95, 0, 4098.974, 3884.615, 4196.41, 4113.846, 4082.051, 16179, 0, []
1631428884.3509, 96, 0, 4102.051, 3893.333, 4028.205, 4120, 4082.564, 450, 0, []
1631428884.3588, 97, 0, 4102.564, 3909.744, 4087.692, 4130.769, 4103.59, 450, 0, []
1631428884.3666, 98, 0, 4099.487, 3912.821, 4217.436, 4126.667, 4118.462, 450, 0, []
1631428884.3745, 99, 0, 4096.923, 3910.256, 4115.385, 4101.538, 4105.128, 16179, 0, []
1631428884.3823, 100, 0, 4108.205, 3921.026, 4176.41, 4114.872, 4098.462, 450, 0, []
1631428884.3901, 101, 0, 4116.41, 3943.077, 4067.179, 4135.897, 4106.154, 450, 0, []
1631428884.3979, 102, 0, 4104.103, 3954.872, 4113.846, 4125.128, 4107.692, 450, 0, []
1631428884.4058, 103, 0, 4100, 3968.205, 4233.333, 4124.103, 4110.769, 16179, 0, []
1631428884.4136, 104, 0, 4111.282, 3981.026, 4065.128, 4132.821, 4112.821, 450, 0, []
1631428884.4215, 105, 0, 4115.897, 3980.513, 4146.667, 4134.872, 4113.846, 450, 0, []
1631428884.4293, 106, 0, 4105.128, 3980.513, 4142.051, 4117.949, 4110.256, 450, 0, []
1631428884.4372, 107, 0, 4101.026, 3985.128, 4136.41, 4109.231, 4107.692, 16179, 0, []
1631428884.4451, 108, 0, 4122.051, 4001.026, 4234.359, 4127.179, 4113.846, 450, 0, []
1631428884.453, 109, 0, 4134.359, 4020.513, 4044.103, 4125.641, 4106.154, 450, 0, []
1631428884.4609, 110, 0, 4126.154, 4016.923, 4051.282, 4132.308, 4114.359, 450, 0, []
1631428884.4688, 111, 0, 4125.128, 4009.744, 4126.154, 4143.59, 4127.692, 16179, 0, []
1631428884.4767, 112, 0, 4131.795, 4010.769, 4202.051, 4133.333, 4104.615, 450, 0, []
1631428884.4844, 113, 0, 4147.179, 4009.231, 4214.872, 4142.051, 4110.256, 450, 0, []
1631428884.4924, 114, 0, 4157.949, 4025.128, 3956.923, 4138.462, 4143.077, 450, 0, []
1631428884.5003, 115, 0, 4149.744, 4036.41, 4054.359, 4119.487, 4137.949, 16179, 0, []
1631428884.5082, 116, 0, 4144.615, 4027.692, 4181.026, 4126.154, 4124.615, 450, 0, []
1631428884.5162, 117, 0, 4138.974, 4030.256, 4181.026, 4134.359, 4137.436, 450, 0, []
1631428884.5241, 118, 0, 4124.615, 4037.949, 4182.564, 4126.667, 4143.59, 450, 0, []
1631428884.5319, 119, 0, 4116.41, 4025.128, 3915.385, 4116.41, 4117.949, 16179, 0, []
1631428884.5397, 120, 0, 4131.795, 4028.205, 4025.128, 4136.923, 4117.949, 450, 0, []
1631428884.5475, 121, 0, 4141.538, 4063.59, 4222.564, 4145.128, 4137.949, 450, 0, []
1631428884.5555, 122, 0, 4127.179, 4065.641, 4247.692, 4119.487, 4129.231, 450, 0, []
1631428884.5634, 123, 0, 4128.205, 4045.128, 4255.385, 4109.231, 4117.436, 16179, 0, []
1631428884.5714, 124, 0, 4136.923, 4053.333, 3973.846, 4111.282, 4118.462, 450, 0, []
1631428884.5793, 125, 0, 4134.872, 4065.128, 4031.282, 4129.231, 4135.897, 450, 0, []
1631428884.5872, 126, 0, 4135.897, 4065.128, 4216.41, 4131.795, 4139.487, 450, 0, []
1631428884.5951, 127, 0, 4137.949, 4063.59, 4210.769, 4120, 4117.436, 16179, 0, []
1631428884.6031, 128, 0, 4135.385, 4069.231, 4236.923, 4126.667, 4114.359, 450, 0, []
1631428884.611, 0, 0, 4123.077, 4074.872, 4005.641, 4118.462, 4121.026, 450, 0, []
1631428884.619, 1, 0, 4120.513, 4072.821, 4053.846, 4117.949, 4120, 450, 0, []
1631428884.6269, 2, 0, 4129.744, 4089.231, 4208.718, 4132.821, 4121.026, 16151, 0, []
1631428884.6348, 3, 0, 4123.59, 4104.615, 4139.487, 4132.308, 4124.615, 450, 0, []
1631428884.6427, 4, 0, 4117.436, 4104.103, 4196.41, 4138.974, 4129.744, 16147, 0, []
1631428884.6507, 5, 0, 4131.282, 4120.513, 4057.949, 4142.564, 4125.641, 450, 0, []
1631428884.6586, 6, 0, 4141.538, 4132.821, 4100, 4147.179, 4122.051, 316, 0, []
1631428884.6664, 7, 0, 4137.436, 4128.718, 4245.641, 4159.487, 4129.744, 450, 0, []
1631428884.6743, 8, 0, 4132.821, 4130.769, 4104.615, 4149.744, 4124.103, 450, 0, []
1631428884.682, 9, 0, 4137.949, 4134.359, 4153.846, 4150.256, 4122.564, 16141, 0, []
1631428884.6899, 10, 0, 4143.59, 4140.513, 4135.385, 4157.949, 4133.333, 450, 0, []
1631428884.6977, 11, 0, 4140, 4151.795, 4161.026, 4149.744, 4137.949, 16195, 0, []
1631428884.7056, 12, 0, 4142.564, 4158.974, 4239.487, 4148.205, 4140.513, 450, 0, []
1631428884.7134, 13, 0, 4149.744, 4154.359, 4056.923, 4145.128, 4129.231, 450, 0, []
1631428884.7213, 14, 0, 4153.846, 4155.897, 4100.513, 4146.667, 4128.205, 450, 0, []
1631428884.729, 15, 0, 4157.436, 4182.051, 4150.256, 4146.667, 4142.564, 16195, 0, []
1631428884.737, 16, 0, 4163.59, 4190.769, 4204.103, 4143.59, 4134.872, 0, 0, []
1631428884.7449, 17, 0, 4171.795, 4171.282, 4247.692, 4138.462, 4129.744, 0, 0, []
1631428884.7528, 18, 0, 4162.051, 4171.282, 3994.359, 4118.462, 4138.462, 0, 0, []
1631428884.7608, 19, 0, 4142.051, 4180.513, 4029.744, 4113.333, 4132.821, 0, 0, []
1631428884.7687, 20, 0, 4137.949, 4187.179, 4149.744, 4120, 4113.333, 0, 0, []
1631428884.7767, 21, 0, 4138.974, 4194.872, 4233.846, 4125.641, 4118.462, 0, 0, []
1631428884.7845, 22, 0, 4132.308, 4199.487, 4253.333, 4128.718, 4132.821, 0, 0, []
1631428884.7925, 23, 0, 4125.128, 4210.256, 3945.128, 4113.333, 4109.744, 0, 0, []
1631428884.8004, 24, 0, 4125.641, 4227.692, 4002.051, 4121.026, 4097.436, 0, 0, []
1631428884.8084, 25, 0, 4127.179, 4242.564, 4176.41, 4134.872, 4116.923, 0, 0, []
1631428884.8163, 26, 0, 4131.282, 4244.615, 4235.385, 4128.205, 4121.538, 0, 0, []
1631428884.8243, 27, 0, 4145.128, 4261.026, 4249.744, 4137.949, 4119.487, 0, 0, []
1631428884.8321, 28, 0, 4145.128, 4279.487, 3942.051, 4147.179, 4129.231, 0, 0, []
1631428884.8401, 29, 0, 4134.359, 4275.897, 4001.538, 4147.692, 4143.077, 0, 0, []
1631428884.848, 30, 0, 4143.59, 4284.615, 4195.897, 4157.436, 4142.564, 0, 0, []
1631428884.856, 31, 0, 4154.872, 4294.872, 4196.923, 4173.333, 4139.487, 0, 0, []
1631428884.8639, 32, 0, 4155.385, 4293.846, 4218.974, 4174.359, 4155.385, 0, 0, []
1631428884.8719, 33, 0, 4152.308, 4296.923, 3988.718, 4153.333, 4151.795, 0, 0, []
1631428884.8797, 34, 0, 4149.744, 4295.897, 4043.077, 4156.923, 4141.026, 0, 0, []
1631428884.8877, 35, 0, 4147.179, 4296.41, 4192.308, 4157.949, 4144.103, 0, 0, []
1631428884.8957, 36, 0, 4141.538, 4307.179, 4130.769, 4131.795, 4131.282, 0, 0, []
1631428884.9036, 37, 0, 4152.308, 4322.051, 4176.923, 4137.949, 4134.359, 0, 0, []
1631428884.9116, 38, 0, 4168.205, 4330.256, 4021.538, 4151.282, 4158.974, 0, 0, []
1631428884.9195, 39, 0, 4166.667, 4325.128, 4077.436, 4154.872, 4161.538, 0, 0, []
1631428884.9274, 40, 0, 4157.436, 4326.154, 4221.026, 4161.538, 4146.154, 0, 0, []
1631428884.9353, 41, 0, 4150.256, 4337.436, 4096.41, 4153.333, 4143.077, 0, 0, []
1631428884.9433, 42, 0, 4157.436, 4342.564, 4145.128, 4153.846, 4157.949, 0, 0, []
1631428884.9512, 43, 0, 4167.179, 4342.051, 4084.615, 4157.436, 4151.795, 0, 0, []
1631428884.9592, 44, 0, 4155.897, 4327.692, 4125.128, 4150.769, 4135.897, 0, 0, []
1631428884.9671, 45, 0, 4140.513, 4324.103, 4209.231, 4147.179, 4140, 0, 0, []
1631428884.9751, 46, 0, 4147.179, 4347.179, 4036.923, 4152.821, 4143.077, 0, 0, []
1631428884.9829, 47, 0, 4168.718, 4350.769, 4115.897, 4174.359, 4149.744, 0, 0, []
1631428884.9909, 48, 0, 4165.641, 4334.359, 4134.872, 4164.103, 4154.872, 0, 0, []
1631428884.9988, 49, 0, 4150.256, 4334.359, 4170.256, 4140, 4140.513, 0, 0, []
1631428885.0068, 50, 0, 4167.179, 4354.872, 4224.615, 4156.923, 4144.103, 0, 0, []
1631428885.0147, 51, 0, 4173.333, 4367.692, 3989.231, 4157.436, 4157.436, 0, 0, []
1631428885.0227, 52, 0, 4159.487, 4366.667, 4057.436, 4148.718, 4156.923, 0, 0, []
1631428885.0305, 53, 0, 4176.41, 4368.205, 4167.692, 4159.487, 4162.051, 0, 0, []
1631428885.0385, 54, 0, 4196.41, 4367.692, 4222.564, 4163.59, 4176.923, 0, 0, []
1631428885.0465, 55, 0, 4197.949, 4381.538, 4250.769, 4165.128, 4193.846, 0, 0, []
1631428885.0544, 56, 0, 4205.641, 4403.077, 3960, 4169.231, 4208.205, 0, 0, []
1631428885.0624, 57, 0, 4214.872, 4403.077, 4004.103, 4180.513, 4219.487, 0, 0, []
1631428885.0703, 58, 0, 4205.641, 4395.897, 4184.615, 4173.333, 4202.051, 0, 0, []
1631428885.0782, 59, 0, 4189.744, 4384.615, 4243.077, 4148.718, 4176.41, 0, 0, []
1631428885.0861, 60, 0, 4197.949, 4372.308, 4244.103, 4153.846, 4189.231, 0, 0, []
1631428885.0941, 61, 0, 4220.513, 4383.59, 3953.846, 4163.59, 4212.821, 0, 0, []
1631428885.102, 62, 0, 4250.256, 4395.897, 4005.128, 4166.667, 4247.692, 0, 0, []
1631428885.11, 63, 0, 4302.564, 4392.821, 4203.077, 4169.744, 4315.385, 0, 0, []
1631428885.1179, 64, 0, 4368.205, 4406.154, 4218.462, 4175.385, 4384.103, 450, 0, []
1631428885.1259, 65, 0, 4420, 4436.41, 4226.154, 4191.282, 4434.872, 450, 0, []
1631428885.1337, 66, 0, 4441.026, 4442.051, 3995.897, 4198.974, 4450.769, 16179, 0, []
1631428885.1417, 67, 0, 4442.564, 4432.308, 4052.821, 4209.744, 4444.615, 450, 0, []
1631428885.1496, 68, 0, 4425.641, 4449.231, 4217.949, 4207.692, 4432.821, 16161, 0, []
1631428885.1576, 69, 0, 4386.667, 4466.667, 4168.205, 4181.538, 4399.487, 450, 0, []
1631428885.1655, 70, 0, 4361.538, 4457.949, 4198.462, 4182.564, 4371.282, 297, 0, []
1631428885.1735, 71, 0, 4344.615, 4448.718, 4036.41, 4182.564, 4348.205, 450, 0, []
1631428885.1813, 72, 0, 4318.974, 4444.615, 4077.436, 4173.333, 4320.513, 450, 0, []
1631428885.1893, 73, 0, 4307.692, 4453.333, 4230.256, 4184.615, 4308.205, 16132, 0, []
1631428885.1972, 74, 0, 4298.462, 4471.282, 4114.872, 4190.769, 4293.846, 450, 0, []
1631428885.2052, 75, 0, 4270.256, 4468.718, 4124.615, 4184.615, 4272.308, 16196, 0, []
1631428885.2131, 76, 0, 4248.205, 4456.41, 4114.872, 4180, 4255.385, 450, 0, []
1631428885.2211, 77, 0, 4250.256, 4463.59, 4135.897, 4198.462, 4251.795, 450, 0, []
1631428885.229, 78, 0, 4247.692, 4485.641, 4135.897, 4209.231, 4240.513, 450, 0, []
1631428885.2369, 79, 0, 4228.718, 4484.103, 4055.897, 4191.795, 4217.949, 16196, 0, []
1631428885.2449, 80, 0, 4225.128, 4473.846, 4148.205, 4192.308, 4224.103, 450, 0, []
1631428885.2528, 81, 0, 4226.154, 4489.231, 4109.231, 4198.974, 4232.308, 450, 0, []
1631428885.2608, 82, 0, 4223.077, 4505.128, 4157.949, 4201.538, 4215.897, 450, 0, []
1631428885.2687, 83, 0, 4228.205, 4507.692, 4194.359, 4201.026, 4203.59, 16196, 0, []
1631428885.2767, 84, 0, 4221.538, 4512.308, 3961.026, 4188.718, 4198.462, 450, 0, []
1631428885.2845, 85, 0, 4204.103, 4515.897, 4065.641, 4193.333, 4194.872, 450, 0, []
1631428885.2925, 86, 0, 4200, 4525.641, 4167.692, 4195.897, 4189.231, 450, 0, []
1631428885.3004, 87, 0, 4200.513, 4530.769, 4185.128, 4186.154, 4176.923, 16196, 0, []
1631428885.3084, 88, 0, 4197.949, 4513.333, 4225.641, 4185.128, 4168.205, 450, 0, []
1631428885.3163, 89, 0, 4190.769, 4508.205, 3965.641, 4180.513, 4164.103, 450, 0, []
1631428885.3243, 90, 0, 4189.744, 4531.795, 4004.615, 4186.154, 4165.641, 450, 0, []
1631428885.3321, 91, 0, 4201.538, 4552.821, 4167.692, 4194.359, 4170.256, 16196, 0, []
1631428885.3401, 92, 0, 4209.744, 4561.026, 4231.282, 4194.872, 4171.795, 450, 0, []
1631428885.348, 93, 0, 4203.59, 4575.897, 4254.872, 4196.923, 4171.795, 450, 0, []
1631428885.356, 94, 0, 4189.744, 4581.538, 3943.59, 4179.487, 4167.179, 450, 0, []
1631428885.364, 95, 0, 4189.231, 4570.256, 3984.103, 4168.718, 4174.872, 16196, 0, []
1631428885.3719, 96, 0, 4207.179, 4581.026, 4185.128, 4178.974, 4187.179, 450, 0, []
1631428885.3798, 97, 0, 4212.308, 4587.179, 4214.359, 4186.667, 4178.974, 450, 0, []
1631428885.3877, 98, 0, 4201.026, 4565.641, 4260, 4195.385, 4173.333, 450, 0, []
1631428885.3957, 99, 0, 4195.385, 4569.231, 3981.538, 4189.231, 4172.821, 16196, 0, []
1631428885.4036, 100, 0, 4199.487, 4590.256, 3998.462, 4183.59, 4168.718, 450, 0, []
1631428885.4116, 101, 0, 4204.103, 4600.513, 4232.821, 4191.282, 4170.256, 450, 0, []
1631428885.4195, 102, 0, 4197.436, 4605.641, 4182.564, 4179.487, 4165.641, 450, 0, []
1631428885.4275, 103, 0, 4195.385, 4603.59, 4149.744, 4175.897, 4161.538, 16196, 0, []
1631428885.4353, 104, 0, 4195.385, 4596.41, 4008.205, 4178.462, 4156.923, 450, 0, []
1631428885.4433, 105, 0, 4176.923, 4586.667, 4125.128, 4169.744, 4151.795, 450, 0, []
1631428885.4512, 106, 0, 4160, 4585.641, 4220.513, 4167.179, 4140.513, 450, 0, []
1631428885.4592, 107, 0, 4154.872, 4587.692, 4076.923, 4168.718, 4122.051, 16196, 0, []
1631428885.4671, 108, 0, 4158.462, 4591.282, 4198.462, 4178.462, 4132.308, 450, 0, []
1631428885.4751, 109, 0, 4165.641, 4606.154, 4097.949, 4176.923, 4141.026, 450, 0, []
1631428885.4829, 110, 0, 4172.308, 4605.641, 4106.667, 4171.795, 4133.333, 450, 0, []
1631428885.4908, 111, 0, 4178.462, 4605.641, 4237.949, 4176.923, 4151.795, 16196, 0, []
1631428885.4987, 112, 0, 4178.462, 4623.077, 4063.077, 4175.897, 4154.872, 450, 0, []
1631428885.5065, 113, 0, 4168.205, 4615.385, 4120.513, 4181.538, 4131.282, 450, 0, []
1631428885.5145, 114, 0, 4154.872, 4599.487, 4120, 4178.462, 4122.051, 450, 0, []
1631428885.5224, 115, 0, 4156.923, 4609.744, 4157.949, 4172.821, 4125.641, 16196, 0, []
1631428885.5303, 116, 0, 4179.487, 4626.667, 4223.59, 4184.615, 4134.359, 450, 0, []
1631428885.5382, 117, 0, 4190.256, 4640, 4014.872, 4189.231, 4137.436, 450, 0, []
1631428885.5462, 118, 0, 4177.949, 4653.333, 4093.846, 4193.846, 4135.897, 450, 0, []
1631428885.5541, 119, 0, 4165.641, 4656.923, 4154.359, 4185.641, 4133.846, 16196, 0, []
1631428885.5621, 120, 0, 4171.795, 4652.308, 4187.179, 4176.923, 4136.923, 450, 0, []
1631428885.57, 121, 0, 4189.231, 4660, 4226.667, 4190.256, 4149.744, 450, 0, []
1631428885.578, 122, 0, 4180, 4657.949, 3969.231, 4179.487, 4143.59, 450, 0, []
1631428885.5858, 123, 0, 4165.128, 4635.385, 4031.282, 4166.667, 4127.692, 16196, 0, []
1631428885.5938, 124, 0, 4179.487, 4638.462, 4178.462, 4171.795, 4127.179, 450, 0, []
1631428885.6017, 125, 0, 4187.179, 4650.256, 4240, 4165.641, 4130.769, 450, 0, []
1631428885.6097, 126, 0, 4176.41, 4641.026, 4253.846, 4169.231, 4126.154, 450, 0, []
1631428885.6176, 127, 0, 4170.769, 4628.718, 3954.872, 4180, 4118.974, 16196, 0, []
1631428885.6256, 128, 0, 4178.974, 4633.333, 4011.795, 4185.128, 4132.308, 450, 0, []
1631428885.6334, 0, 0, 4187.179, 4656.41, 4205.641, 4176.41, 4144.103, 450, 0, []
1631428885.6412, 1, 0, 4187.179, 4664.103, 4231.282, 4168.718, 4138.462, 450, 0, []
1631428885.6491, 2, 0, 4190.769, 4647.692, 4232.308, 4184.615, 4148.205, 16204, 0, []
1631428885.6569, 3, 0, 4193.333, 4638.974, 3964.103, 4187.179, 4153.846, 450, 0, []
1631428885.6648, 4, 0, 4199.487, 4650.256, 4010.769, 4188.205, 4153.846, 16159, 0, []
1631428885.6726, 5, 0, 4215.385, 4669.231, 4197.436, 4194.359, 4167.179, 450, 0, []
1631428885.6805, 6, 0, 4221.538, 4668.718, 4181.026, 4182.051, 4175.897, 303, 0, []
1631428885.6884, 7, 0, 4244.103, 4658.462, 4192.821, 4186.667, 4205.641, 450, 0, []
1631428885.6964, 8, 0, 4297.949, 4684.103, 3993.846, 4202.564, 4254.872, 450, 0, []
1631428885.7043, 9, 0, 4345.128, 4707.692, 4056.923, 4212.308, 4294.359, 16141, 0, []
1631428885.7123, 10, 0, 4382.564, 4694.359, 4213.333, 4214.359, 4334.872, 450, 0, []
1631428885.7202, 11, 0, 4415.385, 4678.462, 4130.769, 4204.103, 4374.872, 16179, 0, []
1631428885.7281, 12, 0, 4431.282, 4678.462, 4176.923, 4201.538, 4397.949, 450, 0, []
1631428885.736, 13, 0, 4432.821, 4685.641, 4061.538, 4194.872, 4391.282, 450, 0, []
1631428885.744, 14, 0, 4427.692, 4690.769, 4102.051, 4194.359, 4382.051, 450, 0, []
1631428885.7519, 15, 0, 4412.821, 4691.795, 4220.513, 4203.59, 4375.385, 16179, 0, []
1631428885.7599, 16, 0, 4378.462, 4686.154, 4086.154, 4196.41, 4333.333, 0, 0, []
1631428885.7678, 17, 0, 4344.103, 4677.436, 4138.462, 4193.333, 4296.41, 0, 0, []
1631428885.7758, 18, 0, 4317.949, 4681.026, 4096.923, 4185.641, 4285.128, 0, 0, []
1631428885.7836, 19, 0, 4297.949, 4678.974, 4133.846, 4178.462, 4272.821, 0, 0, []
1631428885.7916, 20, 0, 4289.231, 4670.256, 4209.231, 4188.718, 4258.462, 0, 0, []
1631428885.7995, 21, 0, 4276.41, 4671.282, 4024.103, 4192.308, 4237.949, 0, 0, []
1631428885.8073, 22, 0, 4261.026, 4678.974, 4092.308, 4196.41, 4221.538, 0, 0, []
1631428885.8152, 23, 0, 4247.692, 4685.641, 4133.846, 4188.718, 4209.744, 0, 0, []
1631428885.823, 24, 0, 4229.744, 4674.872, 4183.077, 4177.949, 4193.846, 0, 0, []
1631428885.8309, 25, 0, 4216.41, 4664.103, 4239.487, 4193.333, 4187.692, 0, 0, []
1631428885.8388, 26, 0, 4206.154, 4669.744, 3988.718, 4197.949, 4184.103, 0, 0, []
1631428885.8468, 27, 0, 4200, 4674.359, 4037.949, 4186.154, 4175.897, 0, 0, []
1631428885.8547, 28, 0, 4201.538, 4673.333, 4168.205, 4176.41, 4168.205, 0, 0, []
1631428885.8627, 29, 0, 4207.179, 4663.59, 4236.923, 4181.538, 4173.333, 0, 0, []
1631428885.8706, 30, 0, 4219.487, 4668.205, 4252.821, 4203.59, 4187.179, 0, 0, []
1631428885.8786, 31, 0, 4218.462, 4684.615, 3949.231, 4197.949, 4187.179, 0, 0, []
1631428885.8864, 32, 0, 4206.667, 4682.051, 4001.538, 4185.641, 4179.487, 0, 0, []
1631428885.8944, 33, 0, 4195.897, 4675.385, 4201.026, 4181.026, 4164.615, 0, 0, []
1631428885.9023, 34, 0, 4177.949, 4672.308, 4251.795, 4165.641, 4141.538, 0, 0, []
1631428885.9103, 35, 0, 4173.846, 4664.103, 4248.718, 4163.59, 4138.974, 0, 0, []
1631428885.9182, 36, 0, 4181.538, 4650.256, 3957.949, 4165.641, 4136.923, 0, 0, []
1631428885.9262, 37, 0, 4170.256, 4638.974, 4011.282, 4168.718, 4118.462, 0, 0, []
1631428885.934, 38, 0, 4154.359, 4653.333, 4206.667, 4173.333, 4108.205, 0, 0, []
1631428885.9418, 39, 0, 4156.923, 4671.795, 4198.462, 4170.256, 4113.333, 0, 0, []
1631428885.9497, 40, 0, 4163.59, 4671.282, 4211.795, 4171.282, 4127.179, 0, 0, []
1631428885.9575, 41, 0, 4161.538, 4678.462, 3998.974, 4166.154, 4123.59, 0, 0, []
1631428885.9654, 42, 0, 4163.59, 4672.821, 4053.333, 4173.846, 4117.436, 0, 0, []
1631428885.9732, 43, 0, 4170.256, 4649.744, 4216.41, 4178.462, 4128.205, 0, 0, []
1631428885.9811, 44, 0, 4177.436, 4651.282, 4153.333, 4165.128, 4128.205, 0, 0, []
1631428885.989, 45, 0, 4187.179, 4660.513, 4195.897, 4173.846, 4130.256, 0, 0, []
1631428885.997, 46, 0, 4184.615, 4661.026, 4052.821, 4170.769, 4128.718, 0, 0, []
1631428886.0049, 47, 0, 4177.949, 4663.077, 4088.718, 4160.513, 4121.538, 0, 0, []
1631428886.0129, 48, 0, 4186.667, 4660, 4212.308, 4170.256, 4130.769, 0, 0, []
1631428886.0208, 49, 0, 4185.128, 4648.205, 4090.256, 4162.564, 4126.154, 0, 0, []
1631428886.0288, 50, 0, 4172.308, 4643.59, 4151.282, 4154.872, 4114.359, 0, 0, []
1631428886.0366, 51, 0, 4166.154, 4638.974, 4100, 4152.308, 4115.385, 0, 0, []
1631428886.0446, 52, 0, 4165.641, 4625.128, 4147.692, 4152.821, 4115.385, 0, 0, []
1631428886.0525, 53, 0, 4162.564, 4632.821, 4234.359, 4159.487, 4108.205, 0, 0, []
1631428886.0605, 54, 0, 4150.256, 4646.667, 4041.026, 4152.821, 4105.128, 0, 0, []
1631428886.0684, 55, 0, 4152.308, 4636.41, 4103.59, 4154.872, 4119.487, 0, 0, []
1631428886.0762, 56, 0, 4173.333, 4635.385, 4136.41, 4162.564, 4129.231, 0, 0, []
1631428886.084, 57, 0, 4171.282, 4646.154, 4186.667, 4157.436, 4125.641, 0, 0, []
1631428886.0918, 58, 0, 4158.462, 4643.077, 4241.538, 4156.41, 4124.103, 0, 0, []
1631428886.0997, 59, 0, 4162.564, 4642.564, 4002.051, 4159.487, 4123.077, 0, 0, []
1631428886.1075, 60, 0, 4164.103, 4653.846, 4059.487, 4159.487, 4126.154, 0, 0, []
1631428886.1154, 61, 0, 4160.513, 4658.462, 4160.513, 4146.667, 4123.59, 0, 0, []
1631428886.1232, 62, 0, 4164.615, 4651.282, 4218.974, 4150.256, 4115.385, 0, 0, []
1631428886.131, 63, 0, 4165.128, 4662.564, 4251.795, 4167.179, 4115.385, 0, 0, []
1631428886.1388, 64, 0, 4152.308, 4687.692, 3961.538, 4150.769, 4104.615, 450, 0, []
1631428886.1468, 65, 0, 4152.308, 4689.231, 4010.769, 4148.718, 4103.59, 450, 0, []
1631428886.1547, 66, 0, 4159.487, 4682.564, 4192.308, 4158.462, 4116.923, 16198, 0, []
1631428886.1627, 67, 0, 4150.769, 4682.051, 4256.923, 4146.154, 4103.077, 450, 0, []
1631428886.1706, 68, 0, 4145.128, 4685.128, 4271.282, 4149.231, 4091.282, 16154, 0, []
1631428886.1785, 69, 0, 4137.949, 4681.026, 3966.154, 4145.641, 4092.821, 450, 0, []
1631428886.1864, 70, 0, 4131.795, 4667.179, 4008.718, 4134.872, 4088.718, 296, 0, []
1631428886.1944, 71, 0, 4144.103, 4669.744, 4214.359, 4138.462, 4087.692, 450, 0, []
1631428886.2023, 72, 0, 4145.128, 4672.308, 4224.615, 4141.538, 4089.231, 450, 0, []
1631428886.2103, 73, 0, 4144.103, 4658.462, 4226.154, 4147.692, 4093.333, 16134, 0, []
1631428886.2182, 74, 0, 4165.128, 4666.154, 3996.923, 4158.462, 4100, 450, 0, []
1631428886.2262, 75, 0, 4168.718, 4682.564, 4058.462, 4169.744, 4108.205, 16190, 0, []
1631428886.234, 76, 0, 4147.692, 4668.718, 4222.051, 4163.59, 4095.385, 450, 0, []
1631428886.2418, 77, 0, 4142.564, 4654.359, 4166.667, 4151.282, 4075.385, 450, 0, []
1631428886.2497, 78, 0, 4153.846, 4668.718, 4202.564, 4161.026, 4087.692, 450, 0, []
1631428886.2575, 79, 0, 4146.154, 4689.744, 4034.872, 4150.256, 4087.692, 16190, 0, []
1631428886.2654, 80, 0, 4125.641, 4697.949, 4069.744, 4129.744, 4063.59, 450, 0, []
1631428886.2732, 81, 0, 4125.128, 4713.333, 4201.538, 4136.923, 4068.205, 450, 0, []
1631428886.281, 82, 0, 4131.282, 4721.026, 4088.718, 4144.103, 4080, 450, 0, []
1631428886.2888, 83, 0, 4125.128, 4709.231, 4136.923, 4146.667, 4071.282, 16190, 0, []
1631428886.2967, 84, 0, 4112.308, 4703.077, 4068.205, 4142.051, 4068.205, 450, 0, []
1631428886.3045, 85, 0, 4119.487, 4695.385, 4129.744, 4144.615, 4085.128, 450, 0, []
1631428886.3125, 86, 0, 4146.667, 4692.308, 4218.974, 4155.897, 4105.641, 450, 0, []
1631428886.3204, 87, 0, 4146.667, 4689.744, 4046.154, 4145.641, 4105.128, 16190, 0, []
1631428886.3283, 88, 0, 4139.487, 4669.744, 4152.821, 4149.231, 4101.538, 450, 0, []
1631428886.3362, 89, 0, 4156.923, 4670.769, 4173.846, 4156.41, 4106.154, 450, 0, []
1631428886.3442, 90, 0, 4165.641, 4684.615, 4167.692, 4149.744, 4108.718, 450, 0, []
1631428886.3521, 91, 0, 4161.026, 4685.641, 4218.462, 4154.872, 4112.821, 16190, 0, []
1631428886.3601, 92, 0, 4158.462, 4686.667, 4024.615, 4158.974, 4103.59, 450, 0, []
1631428886.368, 93, 0, 4146.154, 4685.641, 4076.41, 4155.897, 4088.718, 450, 0, []
1631428886.376, 94, 0, 4130.256, 4684.103, 4146.667, 4143.077, 4082.051, 450, 0, []
1631428886.3838, 95, 0, 4138.462, 4678.974, 4212.821, 4146.154, 4089.231, 16190, 0, []
1631428886.3916, 96, 0, 4162.564, 4668.205, 4250.769, 4167.179, 4109.231, 450, 0, []
1631428886.3995, 97, 0, 4161.538, 4668.205, 3969.744, 4160, 4102.051, 450, 0, []
1631428886.4073, 98, 0, 4144.103, 4668.205, 4024.615, 4157.436, 4091.282, 450, 0, []
1631428886.4152, 99, 0, 4142.051, 4667.692, 4190.256, 4165.641, 4104.615, 16190, 0, []
1631428886.423, 100, 0, 4153.846, 4674.872, 4246.667, 4164.615, 4110.769, 450, 0, []
1631428886.4308, 101, 0, 4160.513, 4688.205, 4258.974, 4164.615, 4107.179, 450, 0, []
1631428886.4386, 102, 0, 4146.154, 4690.769, 3967.692, 4152.308, 4104.615, 450, 0, []
1631428886.4466, 103, 0, 4143.59, 4685.128, 4022.051, 4155.897, 4112.821, 16190, 0, []
1631428886.4545, 104, 0, 4160.513, 4701.026, 4208.718, 4166.667, 4115.385, 450, 0, []
1631428886.4624, 105, 0, 4155.385, 4708.205, 4216.923, 4156.41, 4110.769, 450, 0, []
1631428886.4703, 106, 0, 4161.026, 4694.359, 4233.846, 4164.615, 4132.821, 450, 0, []
1631428886.4782, 107, 0, 4185.641, 4695.897, 3995.385, 4174.872, 4148.205, 16190, 0, []
1631428886.4861, 108, 0, 4178.974, 4697.436, 4042.051, 4163.59, 4133.333, 450, 0, []
1631428886.4941, 109, 0, 4166.154, 4681.026, 4217.949, 4152.308, 4123.59, 450, 0, []
1631428886.502, 110, 0, 4180.513, 4672.821, 4190.769, 4161.538, 4131.282, 450, 0, []
1631428886.51, 111, 0, 4188.205, 4677.949, 4217.949, 4178.974, 4143.59, 16190, 0, []
1631428886.5179, 112, 0, 4178.974, 4682.564, 4033.846, 4172.821, 4140, 450, 0, []
1631428886.5259, 113, 0, 4184.103, 4675.897, 4088.205, 4173.333, 4141.538, 450, 0, []
1631428886.5337, 114, 0, 4195.897, 4671.282, 4232.308, 4181.026, 4154.872, 450, 0, []
1631428886.5415, 115, 0, 4188.718, 4674.359, 4129.231, 4163.077, 4142.051, 16190, 0, []
1631428886.5494, 116, 0, 4187.692, 4675.897, 4179.487, 4164.615, 4133.333, 450, 0, []
1631428886.5572, 117, 0, 4187.692, 4683.59, 4084.615, 4170.256, 4140.513, 450, 0, []
1631428886.5651, 118, 0, 4170.256, 4687.179, 4122.564, 4154.872, 4126.667, 450, 0, []
1631428886.5729, 119, 0, 4166.667, 4681.538, 4226.154, 4158.462, 4120, 16190, 0, []
1631428886.5807, 120, 0, 4175.385, 4670.769, 4077.949, 4168.718, 4133.846, 450, 0, []
1631428886.5885, 121, 0, 4172.821, 4659.487, 4148.718, 4170.769, 4139.487, 450, 0, []
1631428886.5964, 122, 0, 4166.667, 4665.128, 4130.256, 4161.026, 4132.308, 450, 0, []
1631428886.6042, 123, 0, 4166.667, 4681.538, 4161.026, 4156.923, 4135.385, 16190, 0, []
1631428886.6122, 124, 0, 4171.795, 4699.487, 4227.179, 4157.436, 4142.051, 450, 0, []
1631428886.6201, 125, 0, 4177.436, 4705.128, 4014.359, 4140.513, 4136.923, 450, 0, []
1631428886.628, 126, 0, 4193.333, 4694.872, 4076.923, 4151.282, 4147.692, 450, 0, []
1631428886.6359, 127, 0, 4200, 4686.154, 4146.154, 4159.487, 4154.359, 16190, 0, []
1631428886.6439, 128, 0, 4179.487, 4675.897, 4201.026, 4143.59, 4140, 450, 0, []
1631428886.6518, 0, 0, 4175.385, 4661.538, 4251.282, 4156.923, 4141.538, 450, 0, []
1631428886.6598, 1, 0, 4188.205, 4655.897, 3983.077, 4171.282, 4145.641, 450, 0, []
1631428886.6677, 2, 0, 4180, 4666.667, 4025.641, 4167.179, 4137.436, 16184, 0, []
1631428886.6757, 3, 0, 4162.051, 4687.179, 4175.897, 4162.051, 4120, 450, 0, []
1631428886.6835, 4, 0, 4156.923, 4683.59, 4246.667, 4163.59, 4104.615, 16194, 0, []
1631428886.6913, 5, 0, 4162.051, 4675.897, 4257.436, 4161.538, 4116.923, 450, 0, []
1631428886.6992, 6, 0, 4168.718, 4692.821, 3957.949, 4142.564, 4123.077, 303, 0, []
1631428886.707, 7, 0, 4172.821, 4693.333, 4016.923, 4138.462, 4124.615, 450, 0, []
1631428886.7149, 8, 0, 4169.744, 4680.513, 4202.564, 4144.615, 4136.923, 450, 0, []
1631428886.7227, 9, 0, 4172.308, 4687.179, 4227.692, 4160.513, 4135.385, 16128, 0, []
1631428886.7305, 10, 0, 4188.718, 4687.179, 4248.718, 4186.667, 4131.282, 450, 0, []
1631428886.7383, 11, 0, 4186.154, 4674.872, 3988.718, 4171.795, 4129.231, 16193, 0, []
1631428886.7462, 12, 0, 4177.949, 4682.564, 4033.846, 4168.205, 4127.692, 450, 0, []
1631428886.754, 13, 0, 4182.051, 4694.359, 4216.923, 4194.872, 4126.667, 450, 0, []
1631428886.762, 14, 0, 4176.41, 4672.821, 4192.821, 4187.692, 4118.974, 450, 0, []
1631428886.7699, 15, 0, 4178.462, 4654.872, 4214.872, 4174.872, 4125.641, 16193, 0, []
1631428886.7778, 16, 0, 4187.692, 4654.872, 4022.564, 4168.205, 4137.949, 0, 0, []
1631428886.7857, 17, 0, 4184.103, 4648.718, 4061.538, 4164.103, 4141.026, 0, 0, []
1631428886.7937, 18, 0, 4185.641, 4665.641, 4207.179, 4172.308, 4140, 0, 0, []
1631428886.8016, 19, 0, 4187.179, 4689.744, 4130.769, 4177.949, 4135.897, 0, 0, []
1631428886.8096, 20, 0, 4184.103, 4680, 4173.846, 4177.436, 4136.923, 0, 0, []
1631428886.8175, 21, 0, 4189.744, 4664.615, 4066.667, 4165.128, 4140.513, 0, 0, []
1631428886.8255, 22, 0, 4196.41, 4661.026, 4121.026, 4161.538, 4146.154, 0, 0, []
1631428886.8333, 23, 0, 4190.769, 4661.026, 4224.615, 4167.692, 4144.103, 0, 0, []
1631428886.8413, 24, 0, 4172.821, 4654.359, 4068.718, 4155.385, 4131.282, 0, 0, []
1631428886.8492, 25, 0, 4172.821, 4654.359, 4129.744, 4161.026, 4141.026, 0, 0, []
1631428886.857, 26, 0, 4192.308, 4669.231, 4106.154, 4181.026, 4150.769, 0, 0, []
1631428886.8649, 27, 0, 4192.308, 4657.949, 4148.718, 4184.615, 4133.846, 0, 0, []
1631428886.8727, 28, 0, 4179.487, 4643.59, 4222.051, 4176.923, 4131.795, 0, 0, []
1631428886.8805, 29, 0, 4183.59, 4663.077, 4023.59, 4167.179, 4135.385, 0, 0, []
1631428886.8883, 30, 0, 4196.41, 4672.821, 4095.385, 4172.821, 4134.872, 0, 0, []
1631428886.8962, 31, 0, 4200.513, 4678.974, 4152.821, 4179.487, 4140, 0, 0, []
1631428886.904, 32, 0, 4198.974, 4708.205, 4199.487, 4186.154, 4142.564, 0, 0, []
1631428886.9119, 33, 0, 4199.487, 4723.077, 4241.538, 4190.256, 4143.077, 0, 0, []
1631428886.9197, 34, 0, 4199.487, 4708.205, 3985.128, 4169.231, 4135.385, 0, 0, []
1631428886.9276, 35, 0, 4198.974, 4690.769, 4038.974, 4168.205, 4135.897, 0, 0, []
1631428886.9355, 36, 0, 4196.923, 4688.205, 4167.692, 4182.564, 4145.128, 0, 0, []
1631428886.9435, 37, 0, 4195.385, 4687.692, 4228.205, 4180.513, 4140.513, 0, 0, []
1631428886.9514, 38, 0, 4200.513, 4678.974, 4249.744, 4180, 4139.487, 0, 0, []
1631428886.9594, 39, 0, 4196.923, 4675.897, 3953.333, 4177.949, 4143.59, 0, 0, []
1631428886.9673, 40, 0, 4202.051, 4683.077, 4008.718, 4191.282, 4153.333, 0, 0, []
1631428886.9753, 41, 0, 4222.564, 4680.513, 4207.179, 4199.487, 4160.513, 0, 0, []
1631428886.9831, 42, 0, 4221.026, 4654.872, 4246.667, 4177.949, 4151.795, 0, 0, []
1631428886.9911, 43, 0, 4207.179, 4642.051, 4243.59, 4170.769, 4152.308, 0, 0, []
1631428886.999, 44, 0, 4204.615, 4653.333, 3963.077, 4170.256, 4165.128, 0, 0, []
1631428887.0068, 45, 0, 4214.359, 4647.692, 4017.436, 4174.359, 4178.462, 0, 0, []
1631428887.0147, 46, 0, 4236.923, 4638.462, 4207.692, 4184.103, 4189.744, 0, 0, []
1631428887.0225, 47, 0, 4249.744, 4643.59, 4199.487, 4185.641, 4194.359, 0, 0, []
1631428887.0303, 48, 0, 4256.923, 4658.974, 4223.077, 4191.282, 4218.974, 0, 0, []
1631428887.0381, 49, 0, 4278.974, 4677.949, 4004.615, 4183.077, 4252.821, 0, 0, []
1631428887.046, 50, 0, 4310.256, 4670.256, 4046.154, 4175.385, 4283.077, 0, 0, []
1631428887.0538, 51, 0, 4342.051, 4655.897, 4213.333, 4179.487, 4317.949, 0, 0, []
1631428887.0617, 52, 0, 4370.256, 4668.205, 4148.718, 4178.462, 4348.718, 0, 0, []
1631428887.0695, 53, 0, 4396.41, 4675.897, 4188.205, 4189.231, 4368.718, 0, 0, []
1631428887.0773, 54, 0, 4418.462, 4666.667, 4062.051, 4196.41, 4369.744, 0, 0, []
1631428887.0851, 55, 0, 4422.564, 4659.487, 4104.103, 4196.41, 4372.821, 0, 0, []
1631428887.0931, 56, 0, 4400, 4658.462, 4217.949, 4191.282, 4364.615, 0, 0, []
1631428887.101, 57, 0, 4371.282, 4651.795, 4090.769, 4176.41, 4324.103, 0, 0, []
1631428887.109, 58, 0, 4365.641, 4648.205, 4150.769, 4183.077, 4304.103, 0, 0, []
1631428887.1169, 59, 0, 4348.205, 4663.59, 4102.564, 4184.103, 4288.205, 0, 0, []
1631428887.1248, 60, 0, 4299.487, 4668.718, 4146.154, 4168.718, 4249.231, 0, 0, []
1631428887.1327, 61, 0, 4281.026, 4658.974, 4234.359, 4169.744, 4234.872, 0, 0, []
1631428887.1407, 62, 0, 4291.282, 4654.359, 4046.154, 4177.949, 4243.077, 0, 0, []
1631428887.1486, 63, 0, 4285.641, 4659.487, 4104.615, 4188.205, 4237.949, 0, 0, []
1631428887.1564, 64, 0, 4268.205, 4676.923, 4142.051, 4182.051, 4224.615, 450, 0, []
1631428887.1643, 65, 0, 4257.949, 4675.897, 4194.359, 4168.718, 4217.436, 450, 0, []
1631428887.1721, 66, 0, 4247.179, 4658.974, 4242.051, 4170.769, 4209.231, 16196, 0, []
1631428887.1799, 67, 0, 4220.513, 4660, 3992.308, 4157.436, 4182.051, 450, 0, []
1631428887.1877, 68, 0, 4206.154, 4669.231, 4051.795, 4147.692, 4161.026, 16173, 0, []
1631428887.1956, 69, 0, 4215.897, 4670.256, 4168.205, 4149.744, 4161.538, 450, 0, []
1631428887.2034, 70, 0, 4210.256, 4656.41, 4234.872, 4148.205, 4158.974, 196, 0, []
1631428887.2113, 71, 0, 4200.513, 4645.128, 4269.231, 4162.051, 4156.923, 450, 0, []
1631428887.2191, 72, 0, 4215.897, 4648.205, 3970.256, 4169.744, 4164.615, 450, 0, []
1631428887.227, 73, 0, 4240, 4663.59, 4017.436, 4175.897, 4180.513, 16128, 0, []
1631428887.2349, 74, 0, 4242.564, 4689.744, 4206.154, 4175.897, 4189.231, 450, 0, []
1631428887.2429, 75, 0, 4233.333, 4698.974, 4254.872, 4169.744, 4183.077, 16189, 0, []
1631428887.2508, 76, 0, 4237.949, 4692.308, 4250.256, 4179.487, 4181.538, 450, 0, []
1631428887.2588, 77, 0, 4241.026, 4693.846, 3956.41, 4179.487, 4177.436, 450, 0, []
1631428887.2668, 78, 0, 4235.897, 4689.744, 4012.308, 4176.923, 4177.949, 450, 0, []
1631428887.2746, 79, 0, 4230.256, 4685.128, 4203.59, 4169.231, 4175.897, 16189, 0, []
1631428887.2826, 80, 0, 4214.872, 4685.641, 4194.872, 4153.333, 4156.41, 450, 0, []
1631428887.2905, 81, 0, 4209.231, 4681.538, 4211.795, 4168.718, 4156.923, 450, 0, []
1631428887.2985, 82, 0, 4219.487, 4687.179, 4000, 4182.051, 4170.256, 450, 0, []
1631428887.3064, 83, 0, 4224.615, 4692.821, 4053.846, 4176.41, 4171.282, 16189, 0, []
1631428887.3144, 84, 0, 4223.077, 4693.846, 4214.359, 4170.256, 4171.795, 450, 0, []
1631428887.3223, 85, 0, 4224.615, 4699.487, 4160.513, 4172.821, 4169.744, 450, 0, []
1631428887.3302, 86, 0, 4233.333, 4705.641, 4203.077, 4195.385, 4170.256, 450, 0, []
1631428887.3381, 87, 0, 4230.256, 4701.026, 4049.231, 4198.974, 4169.231, 16189, 0, []
1631428887.3461, 88, 0, 4223.59, 4689.744, 4094.359, 4187.179, 4169.744, 450, 0, []
1631428887.354, 89, 0, 4227.179, 4688.718, 4226.154, 4183.077, 4174.359, 450, 0, []
1631428887.362, 90, 0, 4215.897, 4676.41, 4105.128, 4169.231, 4160, 450, 0, []
1631428887.3699, 91, 0, 4210.256, 4660.513, 4163.59, 4174.359, 4152.821, 16189, 0, []
1631428887.3779, 92, 0, 4225.641, 4678.462, 4093.846, 4185.641, 4160, 450, 0, []
1631428887.3857, 93, 0, 4227.179, 4702.564, 4133.846, 4179.487, 4155.897, 450, 0, []
1631428887.3937, 94, 0, 4212.308, 4700.513, 4237.436, 4171.795, 4143.077, 450, 0, []
1631428887.4017, 95, 0, 4201.026, 4677.949, 4057.949, 4171.795, 4132.821, 16189, 0, []
1631428887.4096, 96, 0, 4207.692, 4658.974, 4115.385, 4184.615, 4142.564, 450, 0, []
1631428887.4176, 97, 0, 4220, 4654.872, 4143.59, 4177.949, 4152.308, 450, 0, []
1631428887.4255, 98, 0, 4212.308, 4646.667, 4183.077, 4168.205, 4146.667, 450, 0, []
1631428887.4334, 99, 0, 4197.436, 4633.846, 4229.231, 4178.462, 4144.615, 16189, 0, []
1631428887.4413, 100, 0, 4197.436, 4638.462, 4007.692, 4169.231, 4141.026, 450, 0, []
1631428887.4492, 101, 0, 4208.718, 4654.359, 4072.308, 4167.179, 4141.538, 450, 0, []
1631428887.4571, 102, 0, 4210.256, 4666.154, 4167.179, 4172.821, 4143.077, 450, 0, []
1631428887.4651, 103, 0, 4206.667, 4657.949, 4238.462, 4166.154, 4144.103, 16189, 0, []
1631428887.4731, 104, 0, 4218.974, 4649.231, 4276.923, 4178.462, 4163.077, 450, 0, []
1631428887.481, 105, 0, 4231.282, 4663.077, 3978.462, 4190.256, 4173.333, 450, 0, []
1631428887.4888, 106, 0, 4232.821, 4670.256, 4023.59, 4190.256, 4169.744, 450, 0, []
1631428887.4968, 107, 0, 4230.769, 4671.282, 4199.487, 4182.564, 4169.744, 16189, 0, []
1631428887.5047, 108, 0, 4218.462, 4665.128, 4252.308, 4171.795, 4156.41, 450, 0, []
1631428887.5127, 109, 0, 4210.256, 4636.41, 4253.846, 4176.41, 4148.205, 450, 0, []
1631428887.5206, 110, 0, 4219.487, 4615.385, 3961.538, 4184.615, 4160.513, 450, 0, []
1631428887.5286, 111, 0, 4236.41, 4628.718, 4020, 4198.974, 4175.897, 16189, 0, []
1631428887.5365, 112, 0, 4234.359, 4653.846, 4213.333, 4195.385, 4171.795, 450, 0, []
1631428887.5444, 113, 0, 4213.333, 4655.385, 4226.667, 4179.487, 4157.949, 450, 0, []
1631428887.5524, 114, 0, 4215.385, 4645.641, 4238.462, 4187.692, 4166.154, 450, 0, []
1631428887.5603, 115, 0, 4234.359, 4656.923, 3991.282, 4187.692, 4172.821, 16189, 0, []
1631428887.5683, 116, 0, 4239.487, 4677.949, 4042.051, 4187.179, 4174.872, 450, 0, []
1631428887.5762, 117, 0, 4240.513, 4687.692, 4217.436, 4189.744, 4185.641, 450, 0, []
1631428887.5842, 118, 0, 4236.923, 4678.462, 4174.872, 4184.103, 4183.59, 450, 0, []
1631428887.592, 119, 0, 4231.795, 4658.462, 4209.231, 4203.077, 4181.026, 16189, 0, []
1631428887.6, 120, 0, 4232.308, 4638.974, 4038.462, 4212.821, 4181.538, 450, 0, []
1631428887.6079, 121, 0, 4241.026, 4630.769, 4082.564, 4207.692, 4187.179, 450, 0, []
1631428887.6159, 122, 0, 4251.795, 4648.205, 4227.179, 4205.641, 4205.128, 450, 0, []
1631428887.6238, 123, 0, 4248.205, 4652.821, 4119.487, 4190.769, 4203.59, 16189, 0, []
1631428887.6318, 124, 0, 4239.487, 4628.718, 4162.051, 4189.744, 4190.256, 450, 0, []
1631428887.6397, 125, 0, 4233.333, 4625.128, 4081.538, 4197.949, 4181.538, 450, 0, []
1631428887.6476, 126, 0, 4224.103, 4634.359, 4126.667, 4197.436, 4171.282, 450, 0, []
1631428887.6555, 127, 0, 4220, 4627.179, 4219.487, 4192.821, 4173.846, 16189, 0, []
1631428887.6635, 128, 0, 4220.513, 4617.949, 4055.385, 4185.641, 4182.051, 450, 0, []
1631428887.6714, 0, 0, 4218.462, 4615.385, 4127.179, 4193.846, 4182.051, 450, 0, []
1631428887.6794, 1, 0, 4217.436, 4610.256, 4126.154, 4192.308, 4169.231, 450, 0, []
1631428887.6873, 2, 0, 4225.128, 4605.641, 4169.231, 4184.615, 4167.179, 16224, 0, []
1631428887.6952, 3, 0, 4237.436, 4627.179, 4240.513, 4191.282, 4191.282, 450, 0, []
1631428887.7031, 4, 0, 4236.923, 4647.692, 4018.974, 4190.769, 4201.538, 16167, 0, []
1631428887.7111, 5, 0, 4231.282, 4631.282, 4077.436, 4194.359, 4189.231, 450, 0, []
1631428887.7191, 6, 0, 4227.692, 4618.974, 4157.949, 4193.333, 4174.359, 295, 0, []
1631428887.727, 7, 0, 4229.231, 4628.718, 4213.333, 4187.179, 4174.872, 450, 0, []
1631428887.735, 8, 0, 4237.949, 4639.487, 4257.436, 4191.795, 4189.744, 450, 0, []
1631428887.7429, 9, 0, 4232.821, 4634.872, 3985.641, 4180.513, 4187.692, 16141, 0, []
1631428887.7508, 10, 0, 4224.615, 4616.41, 4028.718, 4175.897, 4186.667, 450, 0, []
1631428887.7587, 11, 0, 4239.487, 4616.923, 4188.205, 4190.256, 4193.333, 16164, 0, []
1631428887.7667, 12, 0, 4252.821, 4632.821, 4264.103, 4196.923, 4180.513, 450, 0, []
1631428887.7746, 13, 0, 4247.179, 4636.923, 4275.897, 4195.385, 4181.538, 450, 0, []
1631428887.7826, 14, 0, 4244.103, 4641.026, 3971.795, 4191.795, 4202.051, 450, 0, []
1631428887.7905, 15, 0, 4255.385, 4641.538, 4027.179, 4200.513, 4213.333, 16164, 0, []
1631428887.7984, 16, 0, 4253.846, 4633.846, 4218.462, 4196.41, 4201.538, 0, 0, []
1631428887.8063, 17, 0, 4237.949, 4632.821, 4244.103, 4179.487, 4184.103, 0, 0, []
1631428887.8143, 18, 0, 4241.538, 4630.256, 4265.641, 4191.795, 4200.513, 0, 0, []
1631428887.8222, 19, 0, 4250.256, 4612.821, 4002.051, 4195.897, 4211.795, 0, 0, []
1631428887.8302, 20, 0, 4245.641, 4597.436, 4030.256, 4193.333, 4200.513, 0, 0, []
1631428887.8381, 21, 0, 4244.103, 4607.692, 4208.718, 4195.897, 4192.308, 0, 0, []
1631428887.8461, 22, 0, 4243.077, 4605.641, 4190.256, 4186.667, 4179.487, 0, 0, []
1631428887.854, 23, 0, 4245.641, 4583.077, 4212.821, 4191.282, 4185.641, 0, 0, []
1631428887.8619, 24, 0, 4250.256, 4581.026, 4024.103, 4197.949, 4203.077, 0, 0, []
1631428887.8699, 25, 0, 4244.103, 4578.974, 4072.821, 4199.487, 4202.051, 0, 0, []
1631428887.8778, 26, 0, 4244.103, 4572.821, 4213.333, 4200, 4191.282, 0, 0, []
1631428887.8858, 27, 0, 4248.205, 4577.436, 4124.103, 4194.359, 4178.462, 0, 0, []
1631428887.8937, 28, 0, 4244.615, 4572.308, 4178.974, 4198.462, 4183.077, 0, 0, []
1631428887.9017, 29, 0, 4241.538, 4567.692, 4076.923, 4195.385, 4196.923, 0, 0, []
1631428887.9095, 30, 0, 4240, 4577.436, 4119.487, 4191.282, 4204.103, 0, 0, []
1631428887.9175, 31, 0, 4242.564, 4590.256, 4231.795, 4194.872, 4205.128, 0, 0, []
1631428887.9254, 32, 0, 4251.282, 4590.769, 4082.051, 4188.205, 4201.538, 0, 0, []
1631428887.9334, 33, 0, 4254.872, 4591.795, 4135.897, 4187.692, 4202.564, 0, 0, []
1631428887.9413, 34, 0, 4243.077, 4594.872, 4114.359, 4184.103, 4190.769, 0, 0, []
1631428887.9493, 35, 0, 4229.231, 4577.949, 4162.564, 4177.436, 4179.487, 0, 0, []
1631428887.9571, 36, 0, 4228.205, 4564.103, 4242.564, 4171.282, 4184.103, 0, 0, []
1631428887.9651, 37, 0, 4228.205, 4568.205, 4033.333, 4162.051, 4181.026, 0, 0, []
1631428887.973, 38, 0, 4237.436, 4559.487, 4090.256, 4176.41, 4185.128, 0, 0, []
1631428887.981, 39, 0, 4247.179, 4546.154, 4159.487, 4181.538, 4190.256, 0, 0, []
1631428887.9889, 40, 0, 4234.872, 4553.333, 4218.462, 4164.103, 4180.513, 0, 0, []
1631428887.9967, 41, 0, 4226.667, 4568.718, 4254.359, 4172.821, 4180.513, 0, 0, []
1631428888.0047, 42, 0, 4233.846, 4567.692, 3984.103, 4185.128, 4188.718, 0, 0, []
1631428888.0125, 43, 0, 4235.385, 4553.846, 4048.718, 4184.615, 4193.333, 0, 0, []
1631428888.0205, 44, 0, 4229.744, 4552.821, 4201.026, 4175.897, 4187.692, 0, 0, []
1631428888.0284, 45, 0, 4225.128, 4552.821, 4248.205, 4169.744, 4181.026, 0, 0, []
1631428888.0364, 46, 0, 4232.821, 4544.103, 4248.718, 4183.59, 4186.154, 0, 0, []
1631428888.0443, 47, 0, 4238.462, 4531.282, 3957.436, 4185.641, 4181.538, 0, 0, []
1631428888.0523, 48, 0, 4233.333, 4516.41, 4012.821, 4187.692, 4180, 0, 0, []
1631428888.0601, 49, 0, 4238.974, 4516.41, 4194.359, 4200, 4193.846, 0, 0, []
1631428888.0681, 50, 0, 4247.692, 4524.615, 4227.692, 4194.872, 4198.974, 0, 0, []
1631428888.076, 51, 0, 4251.282, 4538.974, 4247.179, 4186.154, 4201.538, 0, 0, []
1631428888.084, 52, 0, 4249.744, 4552.308, 3984.615, 4178.462, 4200, 0, 0, []
1631428888.0919, 53, 0, 4241.538, 4539.487, 4030.769, 4180.513, 4193.846, 0, 0, []
1631428888.0999, 54, 0, 4237.436, 4533.333, 4208.718, 4179.487, 4190.769, 0, 0, []
1631428888.1078, 55, 0, 4243.077, 4541.026, 4197.949, 4176.923, 4190.769, 0, 0, []
1631428888.1157, 56, 0, 4251.282, 4545.128, 4240, 4192.308, 4198.462, 0, 0, []
1631428888.1236, 57, 0, 4247.692, 4557.949, 4042.051, 4188.718, 4194.359, 0, 0, []
1631428888.1314, 58, 0, 4245.128, 4553.846, 4085.128, 4184.103, 4194.359, 0, 0, []
1631428888.1394, 59, 0, 4256.923, 4527.692, 4232.821, 4194.359, 4213.333, 0, 0, []
1631428888.1473, 60, 0, 4255.385, 4508.205, 4148.718, 4186.667, 4208.205, 0, 0, []
1631428888.1553, 61, 0, 4250.769, 4518.462, 4201.026, 4183.077, 4194.359, 0, 0, []
1631428888.1632, 62, 0, 4257.436, 4544.615, 4085.128, 4183.077, 4195.385, 0, 0, []
1631428888.1711, 63, 0, 4261.026, 4547.692, 4118.974, 4188.205, 4204.103, 0, 0, []
1631428888.179, 64, 0, 4261.538, 4535.385, 4228.205, 4202.564, 4214.872, 450, 0, []
1631428888.187, 65, 0, 4253.846, 4530.769, 4092.308, 4201.026, 4207.179, 450, 0, []
1631428888.1949, 66, 0, 4243.59, 4524.103, 4149.744, 4197.949, 4194.359, 16162, 0, []
1631428888.2029, 67, 0, 4236.41, 4508.718, 4112.308, 4191.795, 4185.641, 450, 0, []
1631428888.2108, 68, 0, 4231.282, 4501.538, 4165.641, 4180, 4176.923, 16161, 0, []
1631428888.2187, 69, 0, 4227.692, 4511.282, 4252.308, 4171.795, 4175.897, 450, 0, []
1631428888.2266, 70, 0, 4228.205, 4513.846, 4050.769, 4168.205, 4176.41, 303, 0, []
1631428888.2346, 71, 0, 4240, 4490.256, 4109.744, 4186.667, 4187.692, 450, 0, []
1631428888.2425, 72, 0, 4249.231, 4470.256, 4153.846, 4190.256, 4195.897, 450, 0, []
1631428888.2505, 73, 0, 4238.974, 4478.462, 4197.949, 4180.513, 4188.205, 16121, 0, []
1631428888.2584, 74, 0, 4232.308, 4493.333, 4243.077, 4193.846, 4187.179, 450, 0, []
1631428888.2662, 75, 0, 4248.205, 4497.436, 4000.513, 4200, 4193.333, 16215, 0, []
1631428888.274, 76, 0, 4262.051, 4492.821, 4067.692, 4197.949, 4204.615, 450, 0, []
1631428888.2818, 77, 0, 4246.667, 4495.385, 4182.051, 4184.615, 4208.205, 450, 0, []
1631428888.2897, 78, 0, 4225.128, 4491.282, 4227.692, 4169.231, 4194.359, 450, 0, []
1631428888.2975, 79, 0, 4233.333, 4479.487, 4246.154, 4176.41, 4191.282, 16215, 0, []
1631428888.3054, 80, 0, 4236.923, 4477.436, 3947.179, 4172.821, 4188.205, 450, 0, []
1631428888.3132, 81, 0, 4227.692, 4480.513, 4001.538, 4171.282, 4187.692, 450, 0, []
1631428888.3211, 82, 0, 4236.923, 4482.564, 4207.692, 4183.077, 4198.974, 450, 0, []
1631428888.329, 83, 0, 4243.59, 4469.231, 4262.051, 4181.026, 4193.846, 16215, 0, []
1631428888.337, 84, 0, 4238.974, 4447.692, 4256.41, 4174.872, 4182.564, 450, 0, []
1631428888.3449, 85, 0, 4229.231, 4441.026, 3970.769, 4166.154, 4177.949, 450, 0, []
1631428888.3529, 86, 0, 4226.154, 4436.41, 4033.846, 4175.897, 4179.487, 450, 0, []
1631428888.3608, 87, 0, 4238.974, 4427.179, 4230.769, 4196.923, 4181.538, 16215, 0, []
1631428888.3688, 88, 0, 4240, 4422.051, 4225.641, 4189.744, 4170.256, 450, 0, []
1631428888.3766, 89, 0, 4227.179, 4425.128, 4236.923, 4171.795, 4158.974, 450, 0, []
1631428888.3846, 90, 0, 4218.974, 4427.179, 4002.564, 4158.974, 4158.462, 450, 0, []
1631428888.3925, 91, 0, 4218.974, 4423.077, 4048.718, 4161.026, 4165.128, 16215, 0, []
1631428888.4005, 92, 0, 4219.487, 4437.949, 4216.923, 4160, 4165.641, 450, 0, []
1631428888.4084, 93, 0, 4212.308, 4454.359, 4148.718, 4145.641, 4158.462, 450, 0, []
1631428888.4162, 94, 0, 4210.256, 4437.949, 4186.154, 4158.974, 4159.487, 450, 0, []
1631428888.4241, 95, 0, 4213.846, 4422.564, 4055.897, 4171.795, 4160.513, 16215, 0, []
1631428888.432, 96, 0, 4220.513, 4430.769, 4106.154, 4173.846, 4168.205, 450, 0, []
1631428888.4399, 97, 0, 4227.692, 4446.667, 4226.154, 4177.436, 4182.564, 450, 0, []
1631428888.4477, 98, 0, 4221.026, 4434.359, 4095.385, 4163.077, 4176.923, 450, 0, []
1631428888.4556, 99, 0, 4214.359, 4412.308, 4153.846, 4161.538, 4170.769, 16215, 0, []
1631428888.4634, 100, 0, 4218.462, 4421.026, 4103.077, 4163.59, 4167.692, 450, 0, []
1631428888.4714, 101, 0, 4214.872, 4423.59, 4143.59, 4151.795, 4158.462, 450, 0, []
1631428888.4792, 102, 0, 4213.333, 4416.923, 4232.308, 4155.897, 4162.051, 450, 0, []
1631428888.4872, 103, 0, 4218.974, 4427.692, 4053.846, 4177.949, 4167.692, 16215, 0, []
1631428888.4951, 104, 0, 4216.923, 4434.359, 4117.949, 4189.744, 4171.282, 450, 0, []
1631428888.5031, 105, 0, 4211.282, 4440, 4146.667, 4170.256, 4165.128, 450, 0, []
1631428888.511, 106, 0, 4205.128, 4441.026, 4199.487, 4156.41, 4151.282, 450, 0, []
1631428888.519, 107, 0, 4199.487, 4431.282, 4254.872, 4162.564, 4156.923, 16215, 0, []
1631428888.5269, 108, 0, 4204.103, 4419.487, 4013.846, 4164.615, 4160, 450, 0, []
1631428888.5348, 109, 0, 4216.41, 4406.154, 4073.333, 4177.949, 4158.462, 450, 0, []
1631428888.5427, 110, 0, 4216.41, 4402.051, 4175.897, 4177.949, 4160, 450, 0, []
1631428888.5507, 111, 0, 4213.846, 4405.641, 4232.821, 4164.103, 4158.974, 16215, 0, []
1631428888.5586, 112, 0, 4226.154, 4405.128, 4263.077, 4178.974, 4164.615, 450, 0, []
1631428888.5664, 113, 0, 4225.128, 4409.744, 3972.821, 4183.077, 4160.513, 450, 0, []
1631428888.5743, 114, 0, 4211.282, 4418.462, 4028.205, 4177.436, 4157.436, 450, 0, []
1631428888.582, 115, 0, 4204.103, 4412.821, 4213.846, 4178.462, 4157.436, 16215, 0, []
1631428888.5899, 116, 0, 4203.59, 4404.615, 4271.282, 4173.333, 4149.744, 450, 0, []
1631428888.5977, 117, 0, 4213.333, 4417.949, 4271.282, 4172.308, 4149.744, 450, 0, []
1631428888.6056, 118, 0, 4213.333, 4426.667, 3970.769, 4162.051, 4147.179, 450, 0, []
1631428888.6134, 119, 0, 4215.897, 4415.385, 4026.667, 4172.821, 4152.308, 16215, 0, []
1631428888.6213, 120, 0, 4235.385, 4420, 4219.487, 4194.872, 4169.231, 450, 0, []
1631428888.6291, 121, 0, 4234.872, 4422.051, 4218.974, 4183.59, 4172.821, 450, 0, []
1631428888.637, 122, 0, 4224.615, 4400, 4236.41, 4185.128, 4173.333, 450, 0, []
1631428888.6449, 123, 0, 4229.231, 4395.385, 4008.718, 4198.974, 4172.308, 16215, 0, []
1631428888.6529, 124, 0, 4225.128, 4407.179, 4058.974, 4191.795, 4165.641, 450, 0, []
1631428888.6608, 125, 0, 4212.308, 4411.795, 4227.692, 4177.949, 4158.462, 450, 0, []
1631428888.6688, 126, 0, 4205.128, 4410.256, 4182.051, 4171.795, 4151.282, 450, 0, []
1631428888.6767, 127, 0, 4201.538, 4413.333, 4213.333, 4174.359, 4153.333, 16215, 0, []
1631428888.6847, 128, 0, 4204.615, 4420.513, 4050.769, 4174.359, 4153.846, 450, 0, []
1631428888.6925, 0, 0, 4220, 4425.128, 4100.513, 4193.333, 4165.641, 450, 0, []
1631428888.7005, 1, 0, 4239.487, 4428.718, 4230.769, 4210.256, 4194.359, 450, 0, []
1631428888.7084, 2, 0, 4247.692, 4429.744, 4118.462, 4205.641, 4198.974, 16186, 0, []
1631428888.7164, 3, 0, 4243.59, 4429.231, 4175.897, 4214.872, 4188.205, 450, 0, []
1631428888.7243, 4, 0, 4233.846, 4430.256, 4092.821, 4207.179, 4178.462, 16152, 0, []
1631428888.7321, 5, 0, 4229.231, 4417.436, 4133.333, 4191.282, 4176.41, 450, 0, []
1631428888.7399, 6, 0, 4235.897, 4418.462, 4246.667, 4200, 4193.846, 294, 0, []
1631428888.7477, 7, 0, 4239.487, 4438.462, 4076.923, 4198.974, 4195.897, 450, 0, []
1631428888.7556, 8, 0, 4242.564, 4427.179, 4124.103, 4198.974, 4190.769, 450, 0, []
1631428888.7634, 9, 0, 4245.641, 4410.256, 4133.333, 4203.077, 4197.436, 16139, 0, []
1631428888.7713, 10, 0, 4239.487, 4415.897, 4188.205, 4206.667, 4198.974, 450, 0, []
1631428888.7791, 11, 0, 4238.462, 4418.974, 4250.769, 4206.154, 4194.359, 16196, 0, []
1631428888.7871, 12, 0, 4243.077, 4410.769, 4027.179, 4191.282, 4183.077, 450, 0, []
1631428888.7949, 13, 0, 4245.641, 4405.128, 4098.462, 4196.923, 4186.667, 450, 0, []
1631428888.8029, 14, 0, 4246.667, 4412.308, 4179.487, 4207.179, 4197.436, 450, 0, []
1631428888.8108, 15, 0, 4241.026, 4411.282, 4225.641, 4207.692, 4198.462, 16196, 0, []
1631428888.8188, 16, 0, 4238.462, 4406.667, 4265.128, 4215.385, 4200, 0, 0, []
1631428888.8267, 17, 0, 4243.59, 4420.513, 3988.205, 4206.667, 4195.897, 0, 0, []
1631428888.8347, 18, 0, 4253.333, 4440.513, 4042.051, 4205.128, 4204.615, 0, 0, []
1631428888.8425, 19, 0, 4254.359, 4445.128, 4208.718, 4212.308, 4216.41, 0, 0, []
1631428888.8505, 20, 0, 4234.872, 4434.359, 4259.487, 4195.897, 4202.051, 0, 0, []
1631428888.8584, 21, 0, 4226.154, 4436.41, 4261.026, 4181.026, 4185.641, 0, 0, []
1631428888.8662, 22, 0, 4232.308, 4454.872, 3970.256, 4186.667, 4187.179, 0, 0, []
1631428888.8741, 23, 0, 4223.59, 4456.41, 4022.051, 4193.846, 4190.256, 0, 0, []
1631428888.8819, 24, 0, 4206.667, 4446.154, 4206.154, 4176.923, 4185.641, 0, 0, []
1631428888.8898, 25, 0, 4207.179, 4436.923, 4231.282, 4164.103, 4178.974, 0, 0, []
1631428888.8975, 26, 0, 4215.897, 4424.103, 4251.282, 4178.462, 4181.026, 0, 0, []
1631428888.9054, 27, 0, 4204.103, 4421.538, 4000, 4168.718, 4177.436, 0, 0, []
1631428888.9132, 28, 0, 4198.462, 4432.821, 4048.718, 4163.077, 4177.436, 0, 0, []
1631428888.9211, 29, 0, 4217.949, 4448.718, 4226.154, 4191.795, 4190.769, 0, 0, []
1631428888.9289, 30, 0, 4222.051, 4453.333, 4193.333, 4197.949, 4191.282, 0, 0, []
1631428888.9368, 31, 0, 4212.821, 4450.256, 4219.487, 4187.179, 4190.256, 0, 0, []
1631428888.9445, 32, 0, 4202.051, 4442.564, 4029.231, 4173.846, 4187.179, 0, 0, []
1631428888.9525, 33, 0, 4189.231, 4422.564, 4070.769, 4165.128, 4172.308, 0, 0, []
1631428888.9604, 34, 0, 4188.718, 4415.385, 4223.077, 4164.103, 4164.103, 0, 0, []
1631428888.9684, 35, 0, 4187.179, 4413.846, 4135.897, 4157.949, 4164.103, 0, 0, []
1631428888.9763, 36, 0, 4191.795, 4405.128, 4183.59, 4167.692, 4172.821, 0, 0, []
1631428888.9843, 37, 0, 4206.667, 4406.154, 4086.667, 4173.846, 4178.974, 0, 0, []
1631428888.9922, 38, 0, 4206.667, 4410.256, 4133.333, 4175.385, 4182.051, 0, 0, []
1631428889.0001, 39, 0, 4198.462, 4416.923, 4234.359, 4181.026, 4180.513, 0, 0, []
1631428889.008, 40, 0, 4198.462, 4415.897, 4075.385, 4169.744, 4173.846, 0, 0, []
1631428889.016, 41, 0, 4214.872, 4402.564, 4141.026, 4167.179, 4192.821, 0, 0, []
1631428889.0239, 42, 0, 4238.974, 4398.462, 4126.154, 4171.282, 4221.026, 0, 0, []
1631428889.0317, 43, 0, 4264.615, 4397.436, 4169.744, 4172.308, 4243.59, 0, 0, []
1631428889.0396, 44, 0, 4299.487, 4400.513, 4237.436, 4171.795, 4287.179, 0, 0, []
1631428889.0474, 45, 0, 4337.949, 4417.949, 4018.974, 4158.462, 4327.179, 0, 0, []
1631428889.0552, 46, 0, 4378.974, 4426.154, 4088.718, 4161.026, 4364.103, 0, 0, []
1631428889.063, 47, 0, 4413.333, 4429.231, 4161.026, 4164.615, 4397.436, 0, 0, []
1631428889.0709, 48, 0, 4420.513, 4434.872, 4209.744, 4160.513, 4403.59, 0, 0, []
1631428889.0787, 49, 0, 4412.308, 4427.692, 4258.462, 4170.769, 4396.41, 0, 0, []
1631428889.0866, 50, 0, 4394.872, 4409.744, 3997.949, 4166.154, 4381.026, 0, 0, []
1631428889.0944, 51, 0, 4370.256, 4392.308, 4046.154, 4158.974, 4358.462, 0, 0, []
1631428889.1023, 52, 0, 4355.897, 4385.641, 4198.974, 4158.462, 4335.385, 0, 0, []
1631428889.1102, 53, 0, 4344.103, 4388.205, 4270.769, 4160.513, 4312.308, 0, 0, []
1631428889.1182, 54, 0, 4329.231, 4395.897, 4274.872, 4176.41, 4303.59, 0, 0, []
1631428889.1261, 55, 0, 4312.308, 4391.795, 3964.103, 4181.026, 4293.333, 0, 0, []
1631428889.1341, 56, 0, 4293.333, 4360.513, 4017.436, 4172.308, 4266.667, 0, 0, []
1631428889.142, 57, 0, 4274.359, 4345.128, 4208.718, 4165.641, 4231.795, 0, 0, []
1631428889.15, 58, 0, 4259.487, 4349.744, 4238.462, 4165.641, 4204.103, 0, 0, []
1631428889.1578, 59, 0, 4251.795, 4337.436, 4247.179, 4168.718, 4199.487, 0, 0, []
1631428889.1658, 60, 0, 4237.949, 4331.282, 3981.538, 4157.949, 4198.462, 0, 0, []
1631428889.1737, 61, 0, 4227.179, 4335.385, 4036.41, 4162.564, 4189.231, 0, 0, []
1631428889.1815, 62, 0, 4233.846, 4335.385, 4224.615, 4170.256, 4184.103, 0, 0, []
1631428889.1894, 63, 0, 4234.872, 4341.538, 4201.538, 4158.974, 4175.897, 0, 0, []
1631428889.1972, 64, 0, 4218.974, 4350.256, 4223.077, 4163.59, 4171.282, 450, 0, []
1631428889.205, 65, 0, 4203.59, 4351.795, 4026.667, 4163.59, 4165.128, 450, 0, []
1631428889.2128, 66, 0, 4209.744, 4351.795, 4071.282, 4159.487, 4164.103, 16198, 0, []
1631428889.2207, 67, 0, 4220, 4357.949, 4221.026, 4165.641, 4170.256, 450, 0, []
1631428889.2285, 68, 0, 4203.59, 4346.667, 4143.077, 4152.308, 4161.026, 16167, 0, []
1631428889.2364, 69, 0, 4187.179, 4331.282, 4187.179, 4149.231, 4148.205, 450, 0, []
1631428889.2442, 70, 0, 4182.564, 4335.385, 4068.718, 4161.538, 4135.385, 302, 0, []
1631428889.2522, 71, 0, 4176.923, 4328.205, 4119.487, 4163.59, 4127.692, 450, 0, []
1631428889.26, 72, 0, 4180, 4316.41, 4233.333, 4158.974, 4129.744, 450, 0, []
1631428889.268, 73, 0, 4178.974, 4314.872, 4081.026, 4157.436, 4126.154, 16134, 0, []
1631428889.2759, 74, 0, 4171.282, 4310.256, 4132.821, 4162.051, 4133.333, 450, 0, []
1631428889.2839, 75, 0, 4174.872, 4308.205, 4101.026, 4153.846, 4136.41, 16188, 0, []
1631428889.2918, 76, 0, 4185.128, 4300, 4149.744, 4152.821, 4128.205, 450, 0, []
1631428889.2998, 77, 0, 4181.538, 4284.103, 4232.308, 4155.897, 4133.846, 450, 0, []
1631428889.3076, 78, 0, 4179.487, 4282.564, 4038.462, 4148.205, 4135.385, 450, 0, []
1631428889.3156, 79, 0, 4205.128, 4289.231, 4105.641, 4173.846, 4149.231, 16188, 0, []
1631428889.3235, 80, 0, 4215.385, 4289.744, 4148.718, 4187.692, 4166.667, 450, 0, []
1631428889.3313, 81, 0, 4194.872, 4280.513, 4186.667, 4163.077, 4149.231, 450, 0, []
1631428889.3392, 82, 0, 4196.41, 4277.949, 4231.282, 4167.179, 4137.436, 450, 0, []
1631428889.347, 83, 0, 4205.641, 4281.538, 3987.179, 4175.385, 4140.513, 16188, 0, []
1631428889.3549, 84, 0, 4193.333, 4277.949, 4048.205, 4164.103, 4142.051, 450, 0, []
1631428889.3626, 85, 0, 4188.718, 4278.462, 4168.205, 4157.949, 4147.692, 450, 0, []
1631428889.3705, 86, 0, 4192.308, 4277.436, 4222.051, 4158.462, 4143.59, 450, 0, []
1631428889.3783, 87, 0, 4189.231, 4283.59, 4250.769, 4163.077, 4134.359, 16188, 0, []
1631428889.3862, 88, 0, 4180.513, 4280.513, 3960, 4153.333, 4135.897, 450, 0, []
1631428889.394, 89, 0, 4173.846, 4255.897, 4005.641, 4149.231, 4142.051, 450, 0, []
1631428889.402, 90, 0, 4165.641, 4248.205, 4200, 4142.564, 4124.615, 450, 0, []
1631428889.4099, 91, 0, 4149.744, 4244.615, 4255.897, 4125.641, 4104.615, 16188, 0, []
1631428889.4177, 92, 0, 4151.795, 4240.513, 4251.795, 4136.41, 4117.436, 450, 0, []
1631428889.4255, 93, 0, 4167.179, 4253.333, 3956.923, 4148.718, 4122.564, 450, 0, []
1631428889.4335, 94, 0, 4167.692, 4259.487, 4014.872, 4145.128, 4121.026, 450, 0, []
1631428889.4414, 95, 0, 4164.103, 4262.564, 4216.41, 4128.718, 4128.718, 16188, 0, []
1631428889.4493, 96, 0, 4175.897, 4276.923, 4211.795, 4130.256, 4130.769, 450, 0, []
1631428889.4572, 97, 0, 4191.795, 4292.821, 4232.308, 4173.846, 4143.077, 450, 0, []
1631428889.4651, 98, 0, 4186.154, 4302.051, 4012.308, 4183.59, 4142.051, 450, 0, []
1631428889.473, 99, 0, 4176.41, 4296.41, 4059.487, 4160.513, 4125.641, 16188, 0, []
1631428889.481, 100, 0, 4181.538, 4286.667, 4222.051, 4155.385, 4128.718, 450, 0, []
1631428889.4889, 101, 0, 4178.974, 4292.821, 4149.744, 4152.821, 4131.282, 450, 0, []
1631428889.4967, 102, 0, 4170.256, 4303.077, 4188.718, 4154.359, 4122.564, 450, 0, []
1631428889.5046, 103, 0, 4169.744, 4300, 4055.385, 4151.282, 4124.615, 16188, 0, []
1631428889.5124, 104, 0, 4169.231, 4280.513, 4100.513, 4143.077, 4136.41, 450, 0, []
1631428889.5202, 105, 0, 4160.513, 4252.821, 4221.026, 4137.436, 4131.282, 450, 0, []
1631428889.528, 106, 0, 4151.282, 4247.179, 4094.359, 4140.513, 4123.077, 450, 0, []
1631428889.5359, 107, 0, 4156.923, 4274.359, 4160.513, 4158.974, 4144.103, 16188, 0, []
1631428889.5437, 108, 0, 4164.615, 4290.769, 4106.667, 4150.769, 4143.077, 450, 0, []
1631428889.5516, 109, 0, 4166.667, 4274.359, 4140.513, 4140, 4122.564, 450, 0, []
1631428889.5594, 110, 0, 4173.333, 4276.923, 4232.821, 4155.897, 4138.462, 450, 0, []
1631428889.5673, 111, 0, 4170.256, 4303.59, 4058.462, 4153.846, 4141.026, 16188, 0, []
1631428889.5752, 112, 0, 4162.051, 4305.641, 4117.436, 4153.333, 4125.128, 450, 0, []
1631428889.5832, 113, 0, 4161.026, 4295.897, 4138.462, 4164.615, 4129.231, 450, 0, []
1631428889.5911, 114, 0, 4157.436, 4290.256, 4190.256, 4163.59, 4125.128, 450, 0, []
1631428889.5991, 115, 0, 4154.872, 4286.667, 4250.769, 4153.333, 4115.385, 16188, 0, []
1631428889.607, 116, 0, 4153.333, 4293.846, 4006.154, 4138.462, 4128.718, 450, 0, []
1631428889.615, 117, 0, 4155.897, 4303.077, 4056.923, 4146.154, 4148.205, 450, 0, []
1631428889.6228, 118, 0, 4163.077, 4317.436, 4168.718, 4154.359, 4137.436, 450, 0, []
1631428889.6308, 119, 0, 4152.308, 4324.615, 4233.846, 4142.564, 4124.103, 16188, 0, []
1631428889.6387, 120, 0, 4141.538, 4311.795, 4250.769, 4134.359, 4134.872, 450, 0, []
1631428889.6467, 121, 0, 4154.359, 4302.051, 3949.744, 4135.897, 4125.641, 450, 0, []
1631428889.6546, 122, 0, 4168.718, 4309.744, 4010.256, 4153.846, 4119.487, 450, 0, []
1631428889.6624, 123, 0, 4163.59, 4322.051, 4198.462, 4153.333, 4137.436, 16188, 0, []
1631428889.6703, 124, 0, 4155.385, 4314.359, 4250.769, 4137.436, 4128.718, 450, 0, []
1631428889.678, 125, 0, 4157.949, 4307.179, 4261.538, 4146.667, 4115.897, 450, 0, []
1631428889.6859, 126, 0, 4150.769, 4328.205, 3971.795, 4145.641, 4125.128, 450, 0, []
1631428889.6937, 127, 0, 4148.718, 4345.128, 4021.538, 4142.051, 4133.333, 16188, 0, []
1631428889.7016, 128, 0, 4162.051, 4345.128, 4215.897, 4147.179, 4130.769, 450, 0, []
1631428889.7094, 0, 0, 4160.513, 4346.154, 4218.462, 4149.231, 4134.872, 450, 0, []
1631428889.7174, 1, 0, 4164.615, 4345.128, 4229.744, 4166.667, 4150.769, 450, 0, []
1631428889.7252, 2, 0, 4174.359, 4340, 4002.051, 4170.769, 4142.564, 16187, 0, []
1631428889.7332, 3, 0, 4162.564, 4325.641, 4056.41, 4157.436, 4126.667, 450, 0, []
1631428889.7411, 4, 0, 4151.282, 4309.231, 4220, 4148.718, 4122.564, 16169, 0, []
1631428889.7491, 5, 0, 4154.359, 4299.487, 4171.795, 4145.128, 4114.872, 450, 0, []
1631428889.757, 6, 0, 4157.436, 4296.923, 4215.897, 4150.769, 4121.026, 308, 0, []
1631428889.765, 7, 0, 4156.923, 4303.077, 4051.795, 4144.615, 4127.692, 450, 0, []
1631428889.7729, 8, 0, 4164.615, 4308.718, 4089.744, 4149.231, 4126.154, 450, 0, []
1631428889.7808, 9, 0, 4174.359, 4315.897, 4227.179, 4169.231, 4134.359, 16127, 0, []
1631428889.7887, 10, 0, 4163.077, 4308.205, 4113.846, 4156.923, 4128.718, 450, 0, []
1631428889.7965, 11, 0, 4154.359, 4288.205, 4161.026, 4150.256, 4118.462, 16196, 0, []
1631428889.8044, 12, 0, 4163.59, 4283.077, 4089.744, 4163.077, 4127.692, 450, 0, []
1631428889.8122, 13, 0, 4165.128, 4285.641, 4134.872, 4163.077, 4138.462, 450, 0, []
1631428889.8201, 14, 0, 4156.41, 4290.256, 4227.179, 4151.795, 4130.256, 450, 0, []
1631428889.8278, 15, 0, 4157.436, 4275.385, 4058.462, 4151.795, 4118.462, 16196, 0, []
1631428889.8357, 16, 0, 4169.744, 4255.897, 4129.744, 4164.615, 4133.846, 0, 0, []
1631428889.8435, 17, 0, 4174.872, 4276.923, 4143.59, 4154.872, 4142.051, 0, 0, []
1631428889.8514, 18, 0, 4172.308, 4282.564, 4190.256, 4148.205, 4128.205, 0, 0, []
1631428889.8592, 19, 0, 4172.308, 4261.538, 4253.846, 4160, 4128.205, 0, 0, []
1631428889.8671, 20, 0, 4176.41, 4277.436, 4025.128, 4157.949, 4129.231, 0, 0, []
1631428889.8749, 21, 0, 4177.949, 4303.59, 4085.128, 4162.564, 4130.256, 0, 0, []
1631428889.8827, 22, 0, 4174.359, 4307.179, 4171.795, 4159.487, 4135.385, 0, 0, []
1631428889.8905, 23, 0, 4171.282, 4301.538, 4222.051, 4149.231, 4128.205, 0, 0, []
1631428889.8985, 24, 0, 4173.846, 4298.974, 4254.872, 4157.436, 4127.692, 0, 0, []
1631428889.9064, 25, 0, 4170.769, 4311.795, 3970.256, 4153.846, 4140, 0, 0, []
1631428889.9144, 26, 0, 4170.769, 4322.564, 4021.026, 4152.308, 4147.179, 0, 0, []
1631428889.9223, 27, 0, 4180.513, 4307.692, 4197.436, 4163.077, 4141.538, 0, 0, []
1631428889.9302, 28, 0, 4181.538, 4285.641, 4267.179, 4164.103, 4137.949, 0, 0, []
1631428889.9381, 29, 0, 4183.59, 4286.667, 4277.436, 4169.744, 4143.077, 0, 0, []
1631428889.9461, 30, 0, 4181.026, 4282.564, 3970.769, 4165.128, 4137.949, 0, 0, []
1631428889.954, 31, 0, 4173.333, 4265.641, 4010.769, 4156.41, 4136.923, 0, 0, []
