Timestamp, COUNTER, INTERPOLATED, AF3, T7, Pz, T8, AF4, RAW_CQ, MARKER_HARDWARE, MARKERS
1628616830.3475, 5, 0, 4128.205, 3834.359, 4058.462, 4141.026, 4108.205, 450, 0, []
1628616830.3554, 6, 0, 4140.513, 3854.359, 4074.359, 4153.846, 4122.564, 16087, 0, []
1628616830.3634, 7, 0, 4163.077, 3848.718, 4111.795, 4186.667, 4145.641, 450, 0, []
1628616830.3713, 8, 0, 4178.974, 3850.769, 4125.128, 4201.538, 4154.872, 450, 0, []
1628616830.3793, 9, 0, 4173.333, 3876.923, 4120, 4187.179, 4147.179, 16133, 0, []
1628616830.3871, 10, 0, 4168.718, 3878.974, 4111.795, 4176.923, 4143.59, 450, 0, []
1628616830.3951, 11, 0, 4171.795, 3852.308, 4079.487, 4177.949, 4145.641, 16201, 0, []
1628616830.403, 12, 0, 4159.487, 3825.641, 4070.769, 4167.179, 4141.026, 450, 0, []
1628616830.411, 13, 0, 4152.308, 3821.538, 4072.821, 4155.385, 4137.949, 450, 0, []
1628616830.4189, 14, 0, 4165.128, 3847.692, 4068.205, 4167.692, 4142.051, 450, 0, []
1628616830.4268, 15, 0, 4174.872, 3864.103, 4067.179, 4176.41, 4149.231, 16201, 0, []
1628616830.4347, 16, 0, 4170.769, 3854.359, 4048.718, 4163.59, 4149.744, 0, 0, []
1628616830.4427, 17, 0, 4165.128, 3854.359, 4046.154, 4156.923, 4143.077, 0, 0, []
1628616830.4506, 18, 0, 4166.667, 3868.718, 4051.282, 4164.615, 4147.179, 0, 0, []
1628616830.4586, 19, 0, 4178.462, 3872.308, 4067.692, 4178.462, 4163.077, 0, 0, []
1628616830.4665, 20, 0, 4190.769, 3874.872, 4098.974, 4191.282, 4168.205, 0, 0, []
1628616830.4744, 21, 0, 4193.333, 3886.154, 4091.795, 4193.333, 4164.103, 0, 0, []
1628616830.4824, 22, 0, 4183.077, 3876.923, 4076.41, 4183.077, 4160.513, 0, 0, []
1628616830.4903, 23, 0, 4166.667, 3863.59, 4070.256, 4176.41, 4159.487, 0, 0, []
1628616830.4983, 24, 0, 4172.821, 3878.974, 4065.128, 4180.513, 4171.795, 0, 0, []
1628616830.5062, 25, 0, 4202.051, 3894.872, 4074.872, 4183.077, 4185.641, 0, 0, []
1628616830.5141, 26, 0, 4215.385, 3881.026, 4074.872, 4180, 4185.128, 0, 0, []
1628616830.522, 27, 0, 4200, 3876.923, 4072.308, 4170.256, 4172.821, 0, 0, []
1628616830.53, 28, 0, 4183.077, 3889.744, 4066.154, 4158.974, 4157.949, 0, 0, []
1628616830.5379, 29, 0, 4183.077, 3878.462, 4061.538, 4165.128, 4155.385, 0, 0, []
1628616830.5459, 30, 0, 4190.256, 3876.41, 4070.256, 4168.205, 4156.41, 0, 0, []
1628616830.5537, 31, 0, 4192.308, 3902.564, 4057.949, 4161.538, 4157.436, 0, 0, []
1628616830.5617, 32, 0, 4191.282, 3893.333, 4050.256, 4165.641, 4160.513, 0, 0, []
1628616830.5697, 33, 0, 4194.872, 3858.462, 4057.436, 4169.231, 4167.179, 0, 0, []
1628616830.5776, 34, 0, 4205.641, 3874.359, 4065.128, 4169.231, 4176.923, 0, 0, []
1628616830.5855, 35, 0, 4218.462, 3907.692, 4081.026, 4172.308, 4180, 0, 0, []
1628616830.5934, 36, 0, 4216.41, 3888.718, 4073.333, 4182.564, 4177.436, 0, 0, []
1628616830.6013, 37, 0, 4200, 3865.641, 4068.205, 4188.205, 4174.872, 0, 0, []
1628616830.6093, 38, 0, 4202.564, 3884.615, 4082.051, 4175.385, 4177.436, 0, 0, []
1628616830.6172, 39, 0, 4218.462, 3886.667, 4072.821, 4160.513, 4177.436, 0, 0, []
1628616830.6252, 40, 0, 4210.769, 3858.462, 4058.974, 4160, 4170.769, 0, 0, []
1628616830.633, 41, 0, 4202.564, 3862.564, 4053.846, 4173.333, 4177.949, 0, 0, []
1628616830.6408, 42, 0, 4217.436, 3877.436, 4064.615, 4184.615, 4196.41, 0, 0, []
1628616830.6488, 43, 0, 4222.564, 3871.282, 4077.436, 4182.051, 4197.949, 0, 0, []
1628616830.6567, 44, 0, 4212.821, 3855.897, 4062.051, 4175.897, 4184.103, 0, 0, []
1628616830.6647, 45, 0, 4218.974, 3843.077, 4062.051, 4180.513, 4185.641, 0, 0, []
1628616830.6725, 46, 0, 4226.667, 3848.718, 4074.872, 4188.205, 4199.487, 0, 0, []
1628616830.6805, 47, 0, 4226.667, 3865.128, 4087.179, 4195.897, 4208.718, 0, 0, []
1628616830.6884, 48, 0, 4236.923, 3861.538, 4092.308, 4195.385, 4206.667, 0, 0, []
1628616830.6964, 49, 0, 4237.436, 3842.564, 4065.641, 4180, 4197.436, 0, 0, []
1628616830.7043, 50, 0, 4210.256, 3848.205, 4052.308, 4167.179, 4188.205, 0, 0, []
1628616830.7122, 51, 0, 4194.359, 3857.949, 4055.385, 4166.154, 4183.077, 0, 0, []
1628616830.7202, 52, 0, 4206.154, 3843.59, 4054.359, 4168.718, 4182.051, 0, 0, []
1628616830.7281, 53, 0, 4211.282, 3830.256, 4054.872, 4170.256, 4180, 0, 0, []
1628616830.736, 54, 0, 4213.333, 3835.897, 4050.769, 4183.59, 4191.795, 0, 0, []
1628616830.744, 55, 0, 4213.333, 3828.718, 4057.436, 4184.103, 4196.923, 0, 0, []
1628616830.7518, 56, 0, 4201.538, 3814.872, 4065.128, 4166.667, 4186.667, 0, 0, []
1628616830.7598, 57, 0, 4207.692, 3836.41, 4072.821, 4172.308, 4189.744, 0, 0, []
1628616830.7677, 58, 0, 4226.667, 3852.308, 4084.103, 4183.59, 4196.923, 0, 0, []
1628616830.7755, 59, 0, 4216.41, 3838.462, 4074.359, 4180, 4191.282, 0, 0, []
1628616830.7835, 60, 0, 4193.846, 3833.333, 4073.333, 4175.897, 4183.59, 0, 0, []
1628616830.7913, 61, 0, 4202.564, 3852.308, 4077.436, 4176.923, 4190.256, 0, 0, []
1628616830.7993, 62, 0, 4215.385, 3867.692, 4066.667, 4172.308, 4193.846, 0, 0, []
1628616830.8072, 63, 0, 4200, 3849.744, 4068.205, 4160.513, 4181.026, 0, 0, []
1628616830.8152, 64, 0, 4191.282, 3837.436, 4074.872, 4162.564, 4181.026, 450, 0, []
1628616830.8231, 65, 0, 4213.846, 3854.872, 4093.333, 4184.615, 4201.026, 450, 0, []
1628616830.831, 66, 0, 4233.333, 3861.538, 4098.462, 4197.949, 4212.308, 16185, 0, []
1628616830.8389, 67, 0, 4217.436, 3846.667, 4065.128, 4186.667, 4190.769, 450, 0, []
1628616830.8469, 68, 0, 4199.487, 3841.538, 4062.051, 4181.538, 4171.282, 16140, 0, []
1628616830.8548, 69, 0, 4212.821, 3846.154, 4083.077, 4191.282, 4190.769, 450, 0, []
1628616830.8628, 70, 0, 4232.308, 3861.538, 4083.59, 4186.667, 4210.256, 16077, 0, []
1628616830.8706, 71, 0, 4229.744, 3872.308, 4068.205, 4180.513, 4197.949, 450, 0, []
1628616830.8786, 72, 0, 4222.564, 3849.744, 4067.179, 4197.436, 4195.897, 450, 0, []
1628616830.8865, 73, 0, 4213.333, 3841.538, 4082.051, 4193.846, 4207.692, 16133, 0, []
1628616830.8945, 74, 0, 4203.077, 3864.615, 4072.308, 4166.154, 4198.974, 450, 0, []
1628616830.9024, 75, 0, 4212.308, 3866.667, 4064.615, 4166.154, 4185.641, 16192, 0, []
1628616830.9103, 76, 0, 4215.897, 3854.359, 4063.59, 4165.128, 4178.974, 450, 0, []
1628616830.9182, 77, 0, 4199.487, 3848.718, 4050.769, 4149.231, 4175.385, 450, 0, []
1628616830.926, 78, 0, 4200, 3841.538, 4069.231, 4157.949, 4183.077, 450, 0, []
1628616830.9339, 79, 0, 4224.615, 3844.103, 4083.59, 4176.41, 4192.821, 16192, 0, []
1628616830.9417, 80, 0, 4225.128, 3855.385, 4068.205, 4166.154, 4183.077, 450, 0, []
1628616830.9495, 81, 0, 4202.564, 3867.692, 4071.795, 4154.359, 4172.308, 450, 0, []
1628616830.9573, 82, 0, 4207.692, 3869.744, 4089.744, 4172.821, 4189.744, 450, 0, []
1628616830.9653, 83, 0, 4228.718, 3863.077, 4094.359, 4182.564, 4204.103, 16192, 0, []
1628616830.9732, 84, 0, 4225.128, 3874.359, 4078.462, 4169.744, 4192.308, 450, 0, []
1628616830.9812, 85, 0, 4205.128, 3877.949, 4080.513, 4170.256, 4183.59, 450, 0, []
1628616830.989, 86, 0, 4197.436, 3852.821, 4099.487, 4173.846, 4184.103, 450, 0, []
1628616830.997, 87, 0, 4201.026, 3840.513, 4082.051, 4165.128, 4176.41, 16192, 0, []
1628616831.0049, 88, 0, 4210.256, 3870.769, 4073.333, 4161.538, 4173.333, 450, 0, []
1628616831.0129, 89, 0, 4211.795, 3891.282, 4076.41, 4167.692, 4182.051, 450, 0, []
1628616831.0208, 90, 0, 4195.385, 3865.641, 4069.231, 4165.641, 4176.923, 450, 0, []
1628616831.0287, 91, 0, 4188.718, 3862.564, 4078.974, 4158.462, 4162.051, 16192, 0, []
1628616831.0366, 92, 0, 4195.385, 3878.974, 4073.846, 4159.487, 4157.436, 450, 0, []
1628616831.0446, 93, 0, 4187.179, 3850.769, 4061.026, 4157.949, 4157.436, 450, 0, []
1628616831.0526, 94, 0, 4180.513, 3834.359, 4066.667, 4156.41, 4165.128, 450, 0, []
1628616831.0606, 95, 1, 4181.14, 3839.259, 4068.205, 4156.98, 4168.034, 2199.111, 0, []
1628616831.0684, 96, 1, 4181.766, 3844.16, 4069.744, 4157.55, 4170.94, 3948.222, 0, []
1628616831.0763, 97, 1, 4182.393, 3849.06, 4071.282, 4158.12, 4173.846, 5697.333, 0, []
1628616831.0842, 98, 1, 4183.02, 3853.96, 4072.821, 4158.689, 4176.752, 7446.444, 0, []
1628616831.0921, 99, 1, 4183.647, 3858.86, 4074.359, 4159.259, 4179.658, 9195.556, 0, []
1628616831.1, 100, 1, 4184.274, 3863.761, 4075.897, 4159.829, 4182.564, 10944.667, 0, []
1628616831.1078, 101, 1, 4184.9, 3868.661, 4077.436, 4160.399, 4185.47, 12693.778, 0, []
1628616831.1157, 102, 1, 4185.527, 3873.561, 4078.974, 4160.969, 4188.376, 14442.889, 0, []
1628616831.1236, 103, 0, 4186.154, 3878.462, 4080.513, 4161.538, 4191.282, 16192, 0, []
1628616831.1315, 104, 0, 4195.385, 3878.974, 4095.385, 4165.641, 4191.795, 450, 0, []
1628616831.1393, 105, 0, 4207.692, 3876.41, 4086.667, 4179.487, 4187.179, 450, 0, []
1628616831.1471, 106, 0, 4195.385, 3876.41, 4073.333, 4181.538, 4178.974, 450, 0, []
1628616831.1549, 107, 0, 4192.308, 3877.436, 4072.308, 4191.795, 4185.128, 16192, 0, []
1628616831.1628, 108, 0, 4209.744, 3886.667, 4076.923, 4197.436, 4198.462, 450, 0, []
1628616831.1706, 109, 0, 4210.769, 3901.538, 4073.333, 4169.744, 4193.333, 450, 0, []
1628616831.1784, 110, 0, 4188.718, 3897.949, 4060.513, 4145.128, 4167.692, 450, 0, []
1628616831.1862, 111, 0, 4165.641, 3866.154, 4068.718, 4145.641, 4144.103, 16192, 0, []
1628616831.194, 112, 0, 4153.846, 3850.769, 4078.462, 4148.205, 4145.128, 450, 0, []
1628616831.2019, 113, 0, 4158.974, 3886.667, 4085.128, 4150.256, 4156.41, 450, 0, []
1628616831.2097, 114, 0, 4178.462, 3914.872, 4088.205, 4159.487, 4166.154, 450, 0, []
1628616831.2176, 115, 0, 4193.846, 3898.462, 4080, 4169.744, 4173.333, 16192, 0, []
1628616831.2253, 116, 0, 4187.179, 3885.128, 4096.923, 4157.949, 4169.744, 450, 0, []
1628616831.2332, 117, 0, 4182.051, 3900.513, 4111.795, 4142.051, 4166.667, 450, 0, []
1628616831.241, 118, 0, 4199.487, 3904.615, 4100.513, 4149.231, 4174.359, 450, 0, []
1628616831.2489, 119, 0, 4215.897, 3890.256, 4092.821, 4160.513, 4175.385, 16192, 0, []
1628616831.2567, 120, 0, 4215.897, 3897.949, 4090.769, 4170.256, 4177.949, 450, 0, []
1628616831.2645, 121, 0, 4218.974, 3916.41, 4110.256, 4184.615, 4195.897, 450, 0, []
1628616831.2723, 122, 0, 4215.385, 3911.282, 4109.744, 4178.974, 4191.282, 450, 0, []
1628616831.2802, 123, 0, 4204.103, 3913.333, 4085.641, 4160.513, 4170.769, 16192, 0, []
1628616831.288, 124, 0, 4212.821, 3933.333, 4101.538, 4170.769, 4180, 450, 0, []
1628616831.2959, 125, 0, 4215.385, 3927.179, 4118.462, 4183.077, 4188.205, 450, 0, []
1628616831.3037, 126, 0, 4193.846, 3908.718, 4114.359, 4160.513, 4167.179, 450, 0, []
1628616831.3114, 127, 0, 4195.897, 3914.872, 4105.128, 4138.974, 4155.385, 16192, 0, []
1628616831.3193, 128, 0, 4229.744, 3910.769, 4099.487, 4145.641, 4179.487, 450, 0, []
1628616831.3272, 0, 0, 4270.256, 3903.59, 4114.359, 4158.462, 4226.154, 450, 0, []
1628616831.335, 1, 0, 4316.41, 3934.872, 4108.718, 4167.179, 4272.308, 450, 0, []
1628616831.3428, 2, 0, 4363.077, 3957.436, 4103.59, 4178.462, 4315.385, 16184, 0, []
1628616831.3506, 3, 0, 4395.897, 3942.051, 4114.872, 4185.128, 4352.308, 450, 0, []
1628616831.3584, 4, 0, 4416.923, 3938.974, 4124.103, 4190.256, 4368.718, 16139, 0, []
1628616831.3663, 5, 0, 4405.128, 3954.359, 4124.103, 4181.538, 4349.744, 450, 0, []
1628616831.3741, 6, 0, 4362.051, 3951.282, 4096.923, 4158.974, 4314.359, 16075, 0, []
1628616831.382, 7, 0, 4338.462, 3950.256, 4092.308, 4155.385, 4289.231, 450, 0, []
1628616831.3897, 8, 0, 4340, 3978.974, 4117.949, 4158.974, 4281.538, 450, 0, []
1628616831.3976, 9, 0, 4329.231, 3993.333, 4125.641, 4154.872, 4277.949, 16133, 0, []
1628616831.4054, 10, 0, 4308.205, 3973.846, 4122.051, 4153.846, 4258.974, 450, 0, []
1628616831.4133, 11, 0, 4300, 3976.41, 4116.41, 4161.538, 4245.128, 16188, 0, []
1628616831.4211, 12, 0, 4303.077, 3995.897, 4133.846, 4171.282, 4256.41, 450, 0, []
1628616831.4289, 13, 0, 4287.692, 3971.282, 4137.949, 4163.59, 4241.026, 450, 0, []
1628616831.4367, 14, 0, 4261.026, 3942.051, 4102.564, 4155.897, 4205.128, 450, 0, []
1628616831.4446, 15, 0, 4258.974, 3966.667, 4104.615, 4161.538, 4207.692, 16188, 0, []
1628616831.4524, 16, 0, 4265.641, 3981.538, 4127.179, 4164.615, 4223.59, 0, 0, []
1628616831.4603, 17, 0, 4250.769, 3958.462, 4121.026, 4157.436, 4207.179, 0, 0, []
1628616831.468, 18, 0, 4243.59, 3972.308, 4119.487, 4156.41, 4192.308, 0, 0, []
1628616831.4758, 19, 0, 4250.256, 4000.513, 4123.077, 4164.615, 4205.641, 0, 0, []
1628616831.4837, 20, 0, 4235.385, 3977.949, 4123.077, 4164.103, 4204.615, 0, 0, []
1628616831.4915, 21, 0, 4218.462, 3972.821, 4120.513, 4164.103, 4184.103, 0, 0, []
1628616831.4994, 22, 0, 4221.538, 4013.333, 4123.077, 4175.897, 4171.795, 0, 0, []
1628616831.5071, 23, 0, 4214.359, 4006.667, 4120.513, 4178.974, 4166.154, 0, 0, []
1628616831.515, 24, 0, 4198.974, 3967.692, 4114.872, 4176.41, 4167.692, 0, 0, []
1628616831.5228, 25, 0, 4199.487, 3987.692, 4135.385, 4178.974, 4169.231, 0, 0, []
1628616831.5307, 26, 0, 4196.923, 4008.718, 4124.103, 4165.641, 4151.795, 0, 0, []
1628616831.5385, 27, 0, 4185.128, 3977.949, 4087.692, 4148.718, 4136.923, 0, 0, []
1628616831.5463, 28, 0, 4201.026, 3978.974, 4115.897, 4161.538, 4164.103, 0, 0, []
1628616831.5541, 29, 0, 4227.692, 4030.256, 4152.308, 4183.077, 4196.923, 0, 0, []
1628616831.562, 30, 0, 4217.436, 4051.795, 4145.641, 4180, 4181.538, 0, 0, []
1628616831.5698, 31, 0, 4198.462, 4028.205, 4120, 4169.744, 4155.385, 0, 0, []
1628616831.5777, 32, 0, 4199.487, 3996.41, 4102.564, 4166.667, 4158.974, 0, 0, []
1628616831.5854, 33, 0, 4194.359, 3989.231, 4104.103, 4152.308, 4156.41, 0, 0, []
1628616831.5932, 34, 0, 4182.564, 4013.846, 4101.538, 4143.59, 4137.949, 0, 0, []
1628616831.6011, 35, 0, 4185.128, 4033.846, 4107.692, 4151.795, 4134.359, 0, 0, []
1628616831.609, 36, 0, 4188.718, 4030.769, 4110.769, 4154.872, 4145.641, 0, 0, []
1628616831.6168, 37, 0, 4188.718, 4031.795, 4101.538, 4153.333, 4158.462, 0, 0, []
1628616831.6245, 38, 0, 4185.128, 4038.974, 4112.308, 4146.154, 4152.308, 0, 0, []
1628616831.6324, 39, 0, 4174.872, 4035.385, 4116.923, 4136.923, 4136.41, 0, 0, []
1628616831.6402, 40, 0, 4175.897, 4031.795, 4109.231, 4134.872, 4138.462, 0, 0, []
1628616831.6481, 41, 0, 4182.564, 4037.949, 4104.103, 4138.462, 4146.667, 0, 0, []
1628616831.6559, 42, 0, 4174.872, 4038.974, 4100, 4148.205, 4150.769, 0, 0, []
1628616831.6637, 43, 0, 4163.077, 4028.718, 4104.615, 4143.077, 4142.564, 0, 0, []
1628616831.6715, 44, 0, 4177.949, 4033.846, 4108.205, 4139.487, 4139.487, 0, 0, []
1628616831.6794, 45, 0, 4202.051, 4066.667, 4118.462, 4162.051, 4156.923, 0, 0, []
1628616831.6872, 46, 0, 4197.436, 4087.692, 4122.564, 4165.128, 4166.667, 0, 0, []
1628616831.6951, 47, 0, 4186.667, 4075.385, 4107.692, 4146.667, 4163.077, 0, 0, []
1628616831.7028, 48, 0, 4175.897, 4055.385, 4106.154, 4141.538, 4148.205, 0, 0, []
1628616831.7107, 49, 0, 4168.205, 4061.538, 4100.513, 4144.615, 4130.769, 0, 0, []
1628616831.7185, 50, 0, 4178.974, 4076.41, 4098.462, 4156.41, 4138.974, 0, 0, []
1628616831.7264, 51, 0, 4184.103, 4074.872, 4110.769, 4172.821, 4155.385, 0, 0, []
1628616831.7342, 52, 0, 4173.333, 4077.949, 4112.821, 4177.949, 4153.333, 0, 0, []
1628616831.7419, 53, 0, 4179.487, 4084.103, 4121.026, 4173.846, 4154.872, 0, 0, []
1628616831.7497, 54, 0, 4191.282, 4070.769, 4106.667, 4164.615, 4162.051, 0, 0, []
1628616831.7575, 55, 0, 4176.41, 4066.154, 4088.205, 4148.205, 4149.744, 0, 0, []
1628616831.7654, 56, 0, 4175.385, 4090.256, 4114.359, 4145.641, 4152.821, 0, 0, []
1628616831.7732, 57, 0, 4191.795, 4106.154, 4122.051, 4166.667, 4172.821, 0, 0, []
1628616831.781, 58, 0, 4179.487, 4086.667, 4109.744, 4171.795, 4156.923, 0, 0, []
1628616831.7889, 59, 0, 4165.641, 4075.385, 4106.667, 4158.462, 4136.923, 0, 0, []
1628616831.7967, 60, 0, 4174.872, 4097.436, 4105.641, 4160.513, 4152.308, 0, 0, []
1628616831.8045, 61, 0, 4186.667, 4116.923, 4113.333, 4168.718, 4165.641, 0, 0, []
1628616831.8124, 62, 0, 4195.897, 4111.795, 4109.231, 4163.077, 4161.538, 0, 0, []
1628616831.8201, 63, 0, 4198.974, 4094.359, 4102.051, 4151.795, 4157.949, 0, 0, []
1628616831.828, 64, 0, 4197.949, 4090.256, 4109.231, 4153.846, 4169.231, 450, 0, []
1628616831.8358, 65, 0, 4193.846, 4096.41, 4121.538, 4147.692, 4172.308, 450, 0, []
1628616831.8437, 66, 0, 4177.949, 4105.641, 4121.538, 4122.051, 4143.077, 16187, 0, []
1628616831.8515, 67, 0, 4173.846, 4112.821, 4114.872, 4137.949, 4137.949, 450, 0, []
1628616831.8592, 68, 0, 4195.897, 4117.436, 4137.436, 4187.179, 4172.821, 16138, 0, []
1628616831.8671, 69, 0, 4206.667, 4132.821, 4145.641, 4197.436, 4185.641, 450, 0, []
1628616831.875, 70, 0, 4194.359, 4130.256, 4116.923, 4180.513, 4168.205, 16079, 0, []
1628616831.8828, 71, 0, 4177.436, 4101.538, 4103.59, 4165.128, 4154.872, 450, 0, []
1628616831.8906, 72, 0, 4171.282, 4099.487, 4103.077, 4156.923, 4157.949, 450, 0, []
1628616831.8985, 73, 0, 4181.538, 4118.462, 4124.615, 4162.051, 4174.359, 16133, 0, []
1628616831.9062, 74, 0, 4191.282, 4117.949, 4140.513, 4162.564, 4185.641, 450, 0, []
1628616831.9141, 75, 0, 4187.692, 4112.821, 4118.462, 4156.923, 4175.385, 16195, 0, []
1628616831.9219, 76, 0, 4181.538, 4124.103, 4115.897, 4158.462, 4166.667, 450, 0, []
1628616831.9298, 77, 0, 4176.923, 4128.205, 4129.744, 4163.077, 4175.897, 450, 0, []
1628616831.9376, 78, 0, 4173.333, 4133.846, 4134.872, 4170.256, 4177.949, 450, 0, []
1628616831.9454, 79, 0, 4181.538, 4131.282, 4127.692, 4171.795, 4167.179, 16195, 0, []
1628616831.9532, 80, 0, 4191.282, 4108.718, 4113.846, 4164.103, 4164.615, 450, 0, []
1628616831.9611, 81, 0, 4185.128, 4111.282, 4125.128, 4158.462, 4171.282, 450, 0, []
1628616831.9689, 82, 0, 4165.641, 4121.026, 4122.051, 4142.051, 4160, 450, 0, []
1628616831.9768, 83, 0, 4164.103, 4111.282, 4109.231, 4126.154, 4140.513, 16195, 0, []
1628616831.9845, 84, 0, 4182.051, 4123.077, 4115.385, 4135.385, 4142.564, 450, 0, []
1628616831.9924, 85, 0, 4183.077, 4147.179, 4115.385, 4149.744, 4161.026, 450, 0, []
1628616832.0002, 86, 0, 4168.205, 4133.333, 4121.026, 4142.564, 4164.103, 450, 0, []
1628616832.0081, 87, 0, 4163.59, 4100.513, 4115.385, 4131.282, 4148.205, 16195, 0, []
1628616832.0159, 88, 0, 4176.41, 4112.308, 4108.205, 4143.077, 4142.051, 450, 0, []
1628616832.0237, 89, 0, 4184.103, 4150.769, 4124.615, 4164.103, 4150.769, 450, 0, []
1628616832.0315, 90, 0, 4168.718, 4146.667, 4120.513, 4164.615, 4152.821, 450, 0, []
1628616832.0394, 91, 0, 4151.795, 4117.436, 4109.231, 4150.256, 4148.205, 16195, 0, []
1628616832.0472, 92, 0, 4165.641, 4130.769, 4110.256, 4148.718, 4153.333, 450, 0, []
1628616832.0551, 93, 0, 4178.974, 4152.308, 4106.667, 4150.769, 4149.744, 450, 0, []
1628616832.0628, 94, 0, 4161.026, 4122.564, 4100.513, 4138.974, 4124.615, 450, 0, []
1628616832.0706, 95, 0, 4147.692, 4106.154, 4098.462, 4134.359, 4123.59, 16195, 0, []
1628616832.0785, 96, 0, 4158.974, 4149.231, 4113.333, 4138.974, 4147.179, 450, 0, []
1628616832.0863, 97, 0, 4170.256, 4175.897, 4106.667, 4134.359, 4149.231, 450, 0, []
1628616832.0942, 98, 0, 4172.308, 4147.179, 4089.744, 4129.744, 4142.564, 450, 0, []
1628616832.1019, 99, 0, 4176.923, 4132.308, 4103.59, 4134.872, 4153.846, 16195, 0, []
1628616832.1098, 100, 0, 4174.359, 4138.974, 4093.846, 4140, 4155.385, 450, 0, []
1628616832.1176, 101, 0, 4163.077, 4140, 4078.974, 4133.846, 4133.333, 450, 0, []
1628616832.1255, 102, 0, 4169.744, 4145.641, 4090.769, 4138.462, 4131.282, 450, 0, []
1628616832.1333, 103, 0, 4183.077, 4143.077, 4095.385, 4166.154, 4155.897, 16195, 0, []
1628616832.1411, 104, 0, 4170.769, 4136.923, 4099.487, 4168.718, 4163.077, 450, 0, []
1628616832.1489, 105, 0, 4164.615, 4153.846, 4105.128, 4147.179, 4158.462, 450, 0, []
1628616832.1568, 106, 0, 4178.974, 4166.667, 4112.308, 4141.026, 4152.821, 450, 0, []
1628616832.1646, 107, 0, 4180, 4155.385, 4106.667, 4138.974, 4140.513, 16195, 0, []
1628616832.1725, 108, 0, 4166.667, 4150.256, 4092.821, 4134.872, 4134.872, 450, 0, []
1628616832.1802, 109, 0, 4161.538, 4155.897, 4101.026, 4134.872, 4142.564, 450, 0, []
1628616832.1881, 110, 0, 4177.949, 4155.897, 4106.667, 4147.179, 4156.923, 450, 0, []
1628616832.1959, 111, 0, 4200.513, 4151.282, 4108.718, 4160.513, 4167.179, 16195, 0, []
1628616832.2038, 112, 0, 4201.026, 4158.462, 4107.179, 4147.692, 4164.615, 450, 0, []
1628616832.2116, 113, 0, 4189.744, 4180.513, 4098.974, 4143.077, 4163.59, 450, 0, []
1628616832.2193, 114, 0, 4181.538, 4171.282, 4108.205, 4156.923, 4156.41, 450, 0, []
1628616832.2272, 115, 0, 4177.436, 4156.923, 4105.641, 4154.872, 4137.949, 16195, 0, []
1628616832.235, 116, 0, 4177.436, 4169.231, 4098.462, 4153.333, 4136.41, 450, 0, []
1628616832.2429, 117, 0, 4183.59, 4156.41, 4106.667, 4174.359, 4156.41, 450, 0, []
1628616832.2507, 118, 0, 4185.641, 4127.179, 4103.077, 4181.538, 4165.641, 450, 0, []
1628616832.2585, 119, 0, 4177.949, 4137.436, 4107.692, 4152.308, 4151.795, 16195, 0, []
1628616832.2663, 120, 0, 4176.41, 4160.513, 4110.256, 4126.667, 4145.128, 450, 0, []
1628616832.2742, 121, 0, 4193.846, 4157.949, 4111.795, 4132.308, 4164.103, 450, 0, []
1628616832.282, 122, 0, 4212.308, 4154.359, 4127.179, 4146.154, 4184.615, 450, 0, []
1628616832.29, 123, 0, 4204.103, 4153.846, 4112.308, 4146.667, 4178.462, 16195, 0, []
1628616832.2978, 124, 0, 4196.41, 4156.923, 4094.872, 4152.821, 4167.179, 450, 0, []
1628616832.3056, 125, 0, 4213.333, 4170.769, 4101.538, 4174.359, 4182.564, 450, 0, []
1628616832.3135, 126, 0, 4231.282, 4182.051, 4104.615, 4175.385, 4205.641, 450, 0, []
1628616832.3213, 127, 0, 4249.231, 4183.077, 4104.103, 4151.795, 4214.359, 16195, 0, []
1628616832.3293, 128, 0, 4280, 4168.205, 4100.513, 4143.077, 4230.256, 450, 0, []
1628616832.3371, 0, 0, 4310.256, 4144.103, 4111.795, 4138.974, 4269.231, 450, 0, []
1628616832.345, 1, 0, 4339.487, 4135.897, 4114.872, 4131.282, 4307.692, 450, 0, []
1628616832.353, 2, 0, 4367.179, 4146.154, 4103.59, 4142.051, 4322.051, 16187, 0, []
1628616832.3609, 3, 0, 4367.179, 4156.41, 4106.154, 4150.769, 4313.846, 450, 0, []
1628616832.3689, 4, 0, 4355.385, 4173.333, 4103.59, 4148.718, 4308.205, 16138, 0, []
1628616832.3767, 5, 0, 4347.692, 4176.923, 4097.436, 4146.667, 4298.974, 450, 0, []
1628616832.3847, 6, 0, 4324.615, 4147.692, 4084.103, 4133.333, 4275.897, 16081, 0, []
1628616832.3926, 7, 0, 4307.692, 4143.59, 4079.487, 4126.154, 4263.59, 450, 0, []
1628616832.4006, 8, 0, 4308.718, 4173.846, 4100.513, 4145.128, 4263.59, 450, 0, []
1628616832.4085, 9, 0, 4296.41, 4170.769, 4103.59, 4166.154, 4254.872, 16134, 0, []
1628616832.4164, 10, 0, 4278.462, 4150.256, 4102.564, 4165.641, 4234.359, 450, 0, []
1628616832.4243, 11, 0, 4272.308, 4161.538, 4106.154, 4154.872, 4222.564, 16197, 0, []
1628616832.4323, 12, 0, 4261.538, 4178.462, 4100.513, 4162.051, 4230.769, 450, 0, []
1628616832.4402, 13, 0, 4252.821, 4171.282, 4104.615, 4171.282, 4230.769, 450, 0, []
1628616832.4482, 14, 0, 4249.744, 4159.487, 4095.385, 4148.205, 4205.128, 450, 0, []
1628616832.456, 15, 0, 4240, 4164.103, 4093.846, 4127.692, 4192.308, 16197, 0, []
1628616832.464, 16, 0, 4238.462, 4187.692, 4106.667, 4136.41, 4206.154, 0, 0, []
1628616832.4719, 17, 0, 4251.795, 4196.923, 4100, 4153.333, 4211.282, 0, 0, []
1628616832.4799, 18, 0, 4244.103, 4170.256, 4095.897, 4154.359, 4203.077, 0, 0, []
1628616832.4878, 19, 0, 4225.641, 4148.205, 4091.795, 4151.282, 4202.051, 0, 0, []
1628616832.4957, 20, 0, 4243.59, 4172.308, 4104.103, 4171.282, 4222.564, 0, 0, []
1628616832.5036, 21, 0, 4270.256, 4203.077, 4121.538, 4192.308, 4244.615, 0, 0, []
1628616832.5116, 22, 0, 4268.205, 4182.051, 4104.615, 4184.615, 4247.692, 0, 0, []
1628616832.5196, 23, 0, 4256.41, 4162.051, 4095.385, 4160, 4233.333, 0, 0, []
1628616832.5275, 24, 0, 4254.359, 4177.436, 4091.795, 4155.385, 4221.026, 0, 0, []
1628616832.5354, 25, 0, 4243.077, 4177.949, 4084.103, 4154.359, 4212.821, 0, 0, []
1628616832.5433, 26, 0, 4234.872, 4175.897, 4096.41, 4137.949, 4207.179, 0, 0, []
1628616832.5513, 27, 0, 4263.59, 4202.051, 4114.872, 4153.333, 4226.667, 0, 0, []
1628616832.5592, 28, 0, 4280.513, 4210.769, 4120, 4179.487, 4235.385, 0, 0, []
1628616832.5672, 29, 0, 4254.359, 4190.256, 4110.769, 4169.744, 4218.974, 0, 0, []
1628616832.5751, 30, 0, 4233.846, 4182.564, 4104.103, 4150.769, 4206.667, 0, 0, []
1628616832.583, 31, 0, 4242.051, 4182.564, 4111.282, 4151.795, 4204.615, 0, 0, []
1628616832.5909, 32, 0, 4248.718, 4185.128, 4116.923, 4173.333, 4217.436, 0, 0, []
1628616832.5989, 33, 0, 4229.744, 4170.769, 4118.974, 4174.359, 4217.436, 0, 0, []
1628616832.6068, 34, 0, 4212.308, 4143.077, 4106.667, 4146.154, 4197.436, 0, 0, []
1628616832.6148, 35, 0, 4230.256, 4178.974, 4110.256, 4154.359, 4205.128, 0, 0, []
1628616832.6226, 36, 0, 4247.179, 4224.103, 4132.821, 4188.718, 4225.641, 0, 0, []
1628616832.6306, 37, 0, 4216.923, 4193.846, 4101.538, 4170.769, 4196.41, 0, 0, []
1628616832.6385, 38, 0, 4193.846, 4167.179, 4078.462, 4137.436, 4162.051, 0, 0, []
1628616832.6465, 39, 0, 4214.872, 4197.436, 4104.103, 4155.385, 4179.487, 0, 0, []
1628616832.6545, 40, 0, 4210.256, 4208.718, 4104.103, 4169.231, 4190.256, 0, 0, []
1628616832.6623, 41, 0, 4181.538, 4191.282, 4097.436, 4148.205, 4169.744, 0, 0, []
1628616832.6702, 42, 0, 4181.538, 4182.564, 4100.513, 4145.128, 4154.872, 0, 0, []
1628616832.6782, 43, 0, 4185.641, 4175.897, 4102.051, 4160, 4149.231, 0, 0, []
1628616832.6861, 44, 0, 4177.436, 4187.692, 4096.41, 4162.051, 4157.949, 0, 0, []
1628616832.6941, 45, 0, 4184.615, 4210.256, 4096.41, 4165.128, 4178.974, 0, 0, []
1628616832.7019, 46, 0, 4193.846, 4207.179, 4108.718, 4169.231, 4175.385, 0, 0, []
1628616832.7099, 47, 0, 4178.974, 4180, 4088.718, 4145.641, 4146.667, 0, 0, []
1628616832.7178, 48, 0, 4175.897, 4177.949, 4085.128, 4127.179, 4148.205, 0, 0, []
1628616832.7258, 49, 0, 4193.846, 4213.333, 4112.821, 4145.128, 4171.282, 0, 0, []
1628616832.7337, 50, 0, 4191.282, 4226.154, 4102.051, 4165.641, 4165.128, 0, 0, []
1628616832.7415, 51, 0, 4175.385, 4212.821, 4090.769, 4158.462, 4147.692, 0, 0, []
1628616832.7494, 52, 0, 4186.667, 4205.128, 4104.615, 4151.282, 4160.513, 0, 0, []
1628616832.7573, 53, 0, 4198.974, 4200, 4106.667, 4151.795, 4171.795, 0, 0, []
1628616832.7653, 54, 0, 4190.769, 4203.077, 4087.179, 4135.897, 4157.436, 0, 0, []
1628616832.7733, 55, 0, 4205.641, 4209.231, 4076.41, 4132.821, 4164.615, 0, 0, []
1628616832.7811, 56, 0, 4238.462, 4199.487, 4093.333, 4138.974, 4199.487, 0, 0, []
1628616832.7891, 57, 0, 4267.692, 4205.128, 4092.821, 4135.385, 4233.333, 0, 0, []
1628616832.797, 58, 0, 4315.385, 4217.949, 4091.795, 4154.872, 4271.282, 0, 0, []
1628616832.805, 59, 0, 4345.128, 4204.615, 4107.179, 4172.308, 4293.846, 0, 0, []
1628616832.813, 60, 0, 4338.462, 4215.385, 4089.744, 4144.615, 4289.231, 0, 0, []
1628616832.8208, 61, 0, 4350.256, 4235.897, 4085.128, 4128.718, 4298.974, 0, 0, []
1628616832.8288, 62, 0, 4363.077, 4220, 4103.59, 4149.744, 4310.769, 0, 0, []
1628616832.8367, 63, 0, 4337.949, 4227.179, 4100, 4144.103, 4281.538, 0, 0, []
1628616832.8447, 64, 0, 4317.436, 4252.308, 4094.359, 4127.692, 4249.744, 450, 0, []
1628616832.8526, 65, 0, 4314.872, 4233.333, 4101.026, 4155.385, 4255.897, 450, 0, []
1628616832.8605, 66, 0, 4295.385, 4216.923, 4106.667, 4169.231, 4248.718, 16179, 0, []
1628616832.8684, 67, 0, 4279.487, 4235.897, 4094.359, 4143.077, 4221.026, 450, 0, []
1628616832.8764, 68, 0, 4272.308, 4237.436, 4088.718, 4134.872, 4213.846, 16138, 0, []
1628616832.8843, 69, 0, 4239.487, 4208.205, 4096.41, 4130.769, 4195.385, 450, 0, []
1628616832.8923, 70, 0, 4213.333, 4198.462, 4086.667, 4122.564, 4169.231, 16077, 0, []
1628616832.9001, 71, 0, 4212.821, 4223.59, 4090.256, 4135.897, 4172.308, 450, 0, []
1628616832.9081, 72, 0, 4210.256, 4236.41, 4102.051, 4144.615, 4181.026, 450, 0, []
1628616832.916, 73, 0, 4202.051, 4231.282, 4100, 4138.974, 4172.821, 16134, 0, []
1628616832.924, 74, 0, 4207.179, 4241.538, 4107.692, 4144.103, 4164.103, 450, 0, []
1628616832.9319, 75, 0, 4229.744, 4260, 4120.513, 4172.308, 4191.795, 16194, 0, []
1628616832.9398, 76, 0, 4246.667, 4253.333, 4141.026, 4193.846, 4229.744, 450, 0, []
1628616832.9477, 77, 0, 4235.897, 4240.513, 4138.974, 4172.821, 4218.462, 450, 0, []
1628616832.9557, 78, 0, 4218.462, 4248.205, 4111.282, 4146.154, 4182.051, 450, 0, []
1628616832.9636, 79, 0, 4220, 4260, 4120.513, 4150.256, 4176.923, 16194, 0, []
1628616832.9716, 80, 0, 4223.59, 4268.718, 4128.205, 4153.846, 4192.308, 450, 0, []
1628616832.9795, 81, 0, 4203.59, 4257.949, 4101.538, 4136.923, 4176.923, 450, 0, []
1628616832.9874, 82, 0, 4179.487, 4222.564, 4077.436, 4133.333, 4144.103, 450, 0, []
1628616832.9954, 83, 0, 4185.128, 4212.821, 4084.103, 4163.59, 4147.179, 16194, 0, []
1628616833.0033, 84, 0, 4196.923, 4242.564, 4113.846, 4185.128, 4170.769, 450, 0, []
1628616833.0113, 85, 0, 4180.513, 4251.795, 4098.462, 4167.692, 4159.487, 450, 0, []
1628616833.0191, 86, 0, 4163.077, 4232.821, 4065.641, 4136.41, 4129.744, 450, 0, []
1628616833.0271, 87, 0, 4164.615, 4228.718, 4068.205, 4122.564, 4126.154, 16194, 0, []
1628616833.035, 88, 0, 4146.154, 4206.154, 4066.154, 4114.872, 4116.41, 450, 0, []
1628616833.043, 89, 0, 4134.359, 4192.308, 4085.641, 4112.821, 4115.897, 450, 0, []
1628616833.0509, 90, 0, 4175.897, 4244.615, 4122.564, 4138.974, 4159.487, 450, 0, []
1628616833.0588, 91, 0, 4195.897, 4255.385, 4111.282, 4143.59, 4166.667, 16194, 0, []
1628616833.0667, 92, 0, 4172.308, 4207.692, 4091.795, 4125.641, 4142.051, 450, 0, []
1628616833.0747, 93, 0, 4186.667, 4237.949, 4105.641, 4140, 4176.41, 450, 0, []
1628616833.0827, 94, 0, 4215.897, 4268.205, 4104.103, 4129.744, 4197.949, 450, 0, []
1628616833.0906, 95, 0, 4240, 4220, 4069.231, 4087.179, 4175.385, 16194, 0, []
1628616833.0985, 96, 0, 4310.769, 4223.59, 4091.795, 4105.128, 4222.564, 450, 0, []
1628616833.1064, 97, 0, 4389.744, 4278.974, 4138.974, 4154.872, 4305.641, 450, 0, []
1628616833.1143, 98, 0, 4414.359, 4275.385, 4110.769, 4155.897, 4320, 450, 0, []
1628616833.1223, 99, 0, 4421.538, 4242.051, 4093.846, 4137.949, 4301.538, 16194, 0, []
1628616833.1302, 100, 0, 4443.59, 4240.513, 4112.308, 4134.872, 4306.154, 450, 0, []
1628616833.1381, 101, 0, 4445.641, 4241.026, 4111.282, 4129.231, 4310.256, 450, 0, []
1628616833.1461, 102, 0, 4425.128, 4231.282, 4105.128, 4110.256, 4287.692, 450, 0, []
1628616833.154, 103, 0, 4414.359, 4243.077, 4087.692, 4094.872, 4273.333, 16194, 0, []
1628616833.162, 104, 0, 4414.872, 4265.128, 4088.205, 4103.077, 4286.667, 450, 0, []
1628616833.1699, 105, 0, 4410.256, 4258.462, 4105.128, 4124.615, 4296.41, 450, 0, []
1628616833.1778, 106, 0, 4384.103, 4229.231, 4101.026, 4120.513, 4277.436, 450, 0, []
1628616833.1857, 107, 0, 4332.821, 4211.795, 4077.949, 4083.077, 4231.795, 16194, 0, []
1628616833.1937, 108, 0, 4291.282, 4216.923, 4064.103, 4072.821, 4203.077, 450, 0, []
1628616833.2017, 109, 0, 4289.231, 4242.564, 4090.769, 4108.205, 4212.821, 450, 0, []
1628616833.2096, 110, 0, 4291.795, 4253.846, 4109.744, 4127.179, 4222.564, 450, 0, []
1628616833.2174, 111, 0, 4255.897, 4238.974, 4085.641, 4107.179, 4184.103, 16194, 0, []
1628616833.2254, 112, 0, 4210.769, 4239.487, 4077.949, 4088.718, 4127.692, 450, 0, []
1628616833.2333, 113, 0, 4204.615, 4249.231, 4094.872, 4101.538, 4128.205, 450, 0, []
1628616833.2413, 114, 0, 4218.974, 4229.231, 4112.821, 4119.487, 4160.513, 450, 0, []
1628616833.2493, 115, 0, 4217.949, 4227.179, 4113.333, 4116.41, 4161.538, 16194, 0, []
1628616833.2571, 116, 0, 4203.077, 4262.564, 4098.462, 4112.821, 4140, 450, 0, []
1628616833.265, 117, 0, 4181.538, 4257.949, 4103.077, 4106.154, 4121.026, 450, 0, []
1628616833.273, 118, 0, 4163.59, 4229.744, 4103.077, 4089.231, 4108.205, 450, 0, []
1628616833.281, 119, 0, 4163.59, 4250.256, 4093.333, 4082.564, 4104.615, 16194, 0, []
1628616833.2889, 120, 0, 4169.231, 4295.385, 4085.128, 4085.641, 4106.154, 450, 0, []
1628616833.2968, 121, 0, 4156.923, 4298.462, 4060, 4083.077, 4094.872, 450, 0, []
1628616833.3047, 122, 0, 4135.385, 4279.487, 4063.077, 4088.718, 4078.462, 450, 0, []
1628616833.3127, 123, 0, 4124.615, 4286.667, 4086.154, 4104.103, 4076.41, 16194, 0, []
1628616833.3206, 124, 0, 4133.846, 4313.333, 4091.795, 4112.308, 4087.179, 450, 0, []
1628616833.3286, 125, 0, 4141.026, 4332.308, 4085.128, 4097.949, 4084.103, 450, 0, []
1628616833.3364, 126, 0, 4139.487, 4340.513, 4077.949, 4086.667, 4074.359, 450, 0, []
1628616833.3444, 127, 0, 4161.538, 4363.077, 4104.615, 4108.205, 4101.538, 16194, 0, []
1628616833.3523, 128, 0, 4170.769, 4368.205, 4115.385, 4125.641, 4124.103, 450, 0, []
1628616833.3603, 0, 0, 4123.59, 4346.154, 4074.872, 4097.436, 4081.538, 450, 0, []
1628616833.3682, 1, 0, 4082.051, 4363.59, 4049.744, 4064.615, 4033.846, 450, 0, []
1628616833.3761, 2, 0, 4087.692, 4395.897, 4051.282, 4069.744, 4039.487, 16181, 0, []
1628616833.384, 3, 0, 4099.487, 4376.923, 4069.231, 4087.692, 4056.41, 450, 0, []
1628616833.392, 4, 0, 4108.205, 4359.487, 4085.128, 4102.051, 4071.795, 16129, 0, []
1628616833.3999, 5, 0, 4133.333, 4391.795, 4094.872, 4121.026, 4102.564, 450, 0, []
1628616833.4079, 6, 0, 4144.615, 4427.179, 4109.231, 4127.692, 4113.846, 16074, 0, []
1628616833.4157, 7, 0, 4117.949, 4427.692, 4087.692, 4108.718, 4083.077, 450, 0, []
1628616833.4237, 8, 0, 4101.538, 4415.385, 4065.641, 4092.308, 4061.026, 450, 0, []
1628616833.4317, 9, 0, 4120, 4422.051, 4077.436, 4097.949, 4084.103, 16133, 0, []
1628616833.4396, 10, 0, 4133.333, 4452.308, 4088.718, 4107.692, 4106.154, 450, 0, []
1628616833.4476, 11, 0, 4129.744, 4465.641, 4089.744, 4106.154, 4095.385, 16161, 0, []
1628616833.4554, 12, 0, 4134.359, 4445.641, 4071.795, 4108.718, 4087.179, 450, 0, []
1628616833.4634, 13, 0, 4145.128, 4440.513, 4067.179, 4113.333, 4100.513, 450, 0, []
1628616833.4713, 14, 0, 4155.897, 4461.538, 4086.667, 4119.487, 4119.487, 450, 0, []
1628616833.4793, 15, 0, 4155.897, 4469.744, 4079.487, 4116.923, 4114.359, 16161, 0, []
1628616833.4872, 16, 0, 4135.897, 4453.846, 4059.487, 4092.308, 4083.077, 0, 0, []
1628616833.4951, 17, 0, 4132.308, 4451.795, 4066.667, 4091.795, 4088.718, 0, 0, []
1628616833.503, 18, 0, 4145.641, 4476.923, 4089.744, 4119.487, 4122.564, 0, 0, []
1628616833.511, 19, 0, 4133.333, 4486.154, 4070.769, 4112.821, 4110.769, 0, 0, []
1628616833.5189, 20, 0, 4122.564, 4486.154, 4041.026, 4108.205, 4088.205, 0, 0, []
1628616833.5269, 21, 0, 4141.026, 4521.538, 4080.513, 4143.077, 4110.769, 0, 0, []
1628616833.5347, 22, 0, 4154.359, 4561.026, 4109.231, 4153.333, 4132.308, 0, 0, []
1628616833.5427, 23, 0, 4134.872, 4548.205, 4090.256, 4129.231, 4111.282, 0, 0, []
1628616833.5506, 24, 0, 4105.641, 4526.667, 4083.077, 4121.026, 4080, 0, 0, []
1628616833.5586, 25, 0, 4101.026, 4540, 4092.821, 4125.641, 4073.846, 0, 0, []
1628616833.5665, 26, 0, 4120, 4567.179, 4110.769, 4123.077, 4086.667, 0, 0, []
1628616833.5745, 27, 0, 4116.923, 4570.256, 4095.385, 4110.769, 4083.077, 0, 0, []
1628616833.5824, 28, 0, 4078.462, 4556.41, 4067.179, 4084.103, 4052.308, 0, 0, []
1628616833.5903, 29, 0, 4077.436, 4596.923, 4084.103, 4085.641, 4049.231, 0, 0, []
1628616833.5983, 30, 0, 4127.692, 4662.051, 4111.282, 4127.179, 4086.667, 0, 0, []
1628616833.6062, 31, 0, 4138.974, 4664.615, 4112.821, 4136.923, 4097.436, 0, 0, []
1628616833.6142, 32, 0, 4098.462, 4657.949, 4086.667, 4105.641, 4067.179, 0, 0, []
1628616833.622, 33, 0, 4087.179, 4692.821, 4079.487, 4095.385, 4057.949, 0, 0, []
1628616833.63, 34, 0, 4114.359, 4693.846, 4105.128, 4110.256, 4078.462, 0, 0, []
1628616833.6379, 35, 0, 4118.974, 4655.385, 4097.436, 4113.846, 4081.026, 0, 0, []
1628616833.6459, 36, 0, 4101.026, 4648.205, 4075.897, 4102.051, 4068.205, 0, 0, []
1628616833.6538, 37, 0, 4098.462, 4649.231, 4072.308, 4099.487, 4073.333, 0, 0, []
1628616833.6617, 38, 0, 4109.231, 4638.462, 4082.564, 4105.128, 4085.128, 0, 0, []
1628616833.6696, 39, 0, 4121.026, 4658.462, 4096.41, 4102.051, 4083.59, 0, 0, []
1628616833.6776, 40, 0, 4146.154, 4686.667, 4080.513, 4104.103, 4095.897, 0, 0, []
1628616833.6855, 41, 0, 4165.128, 4660.513, 4074.872, 4112.821, 4118.974, 0, 0, []
1628616833.6935, 42, 0, 4169.744, 4626.154, 4083.077, 4105.128, 4133.333, 0, 0, []
1628616833.7013, 43, 0, 4205.641, 4651.282, 4079.487, 4105.641, 4165.128, 0, 0, []
1628616833.7093, 44, 0, 4266.154, 4665.128, 4084.103, 4130.256, 4217.436, 0, 0, []
1628616833.7172, 45, 0, 4302.051, 4644.615, 4082.564, 4138.974, 4258.462, 0, 0, []
1628616833.7252, 46, 0, 4329.744, 4655.897, 4084.103, 4130.769, 4282.564, 0, 0, []
1628616833.7331, 47, 0, 4361.026, 4662.051, 4086.667, 4128.718, 4306.154, 0, 0, []
1628616833.741, 48, 0, 4362.564, 4643.59, 4073.846, 4133.846, 4324.103, 0, 0, []
1628616833.7489, 49, 0, 4341.026, 4650.256, 4076.923, 4138.974, 4324.615, 0, 0, []
1628616833.7568, 50, 0, 4305.641, 4644.615, 4084.103, 4143.077, 4303.59, 0, 0, []
1628616833.7648, 51, 0, 4249.744, 4609.744, 4083.59, 4149.231, 4261.538, 0, 0, []
1628616833.7727, 52, 0, 4192.308, 4615.385, 4077.436, 4140.513, 4208.205, 0, 0, []
1628616833.7806, 53, 1, 4180.228, 4615.385, 4081.538, 4142.393, 4199.031, 0, 0, []
1628616833.7885, 54, 1, 4168.148, 4615.385, 4085.641, 4144.274, 4189.858, 0, 0, []
1628616833.7964, 55, 1, 4156.068, 4615.385, 4089.744, 4146.154, 4180.684, 0, 0, []
1628616833.8043, 56, 1, 4143.989, 4615.385, 4093.846, 4148.034, 4171.51, 0, 0, []
1628616833.8122, 57, 1, 4131.909, 4615.385, 4097.949, 4149.915, 4162.336, 0, 0, []
1628616833.82, 58, 1, 4119.829, 4615.385, 4102.051, 4151.795, 4153.162, 0, 0, []
1628616833.8279, 59, 1, 4107.749, 4615.385, 4106.154, 4153.675, 4143.989, 0, 0, []
1628616833.8358, 60, 1, 4095.67, 4615.385, 4110.256, 4155.556, 4134.815, 0, 0, []
1628616833.8437, 61, 0, 4083.59, 4615.385, 4114.359, 4157.436, 4125.641, 0, 0, []
1628616833.8515, 62, 0, 4082.051, 4595.385, 4096.41, 4154.872, 4110.769, 0, 0, []
1628616833.8593, 63, 0, 4080, 4561.026, 4081.026, 4149.744, 4103.59, 0, 0, []
1628616833.8671, 64, 0, 4078.462, 4572.821, 4090.256, 4146.667, 4112.308, 450, 0, []
1628616833.875, 65, 0, 4064.615, 4589.231, 4089.231, 4148.205, 4104.615, 450, 0, []
1628616833.8829, 66, 0, 4059.487, 4574.359, 4076.923, 4150.769, 4094.872, 16184, 0, []
1628616833.8907, 67, 0, 4080, 4552.308, 4086.154, 4149.744, 4103.59, 450, 0, []
1628616833.8985, 68, 0, 4096.923, 4536.923, 4086.667, 4153.846, 4114.872, 16127, 0, []
1628616833.9063, 69, 0, 4088.718, 4538.974, 4087.179, 4162.564, 4110.256, 450, 0, []
1628616833.9141, 70, 0, 4069.744, 4544.103, 4082.564, 4160, 4094.872, 16075, 0, []
1628616833.9221, 71, 0, 4067.179, 4530.769, 4072.308, 4150.769, 4092.308, 450, 0, []
1628616833.93, 72, 0, 4068.205, 4528.205, 4076.923, 4138.462, 4085.128, 450, 0, []
1628616833.9378, 73, 0, 4053.333, 4532.821, 4066.667, 4121.538, 4060, 16135, 0, []
1628616833.9458, 74, 0, 4049.231, 4509.744, 4074.359, 4121.538, 4055.897, 450, 0, []
1628616833.9538, 75, 1, 4053.048, 4502.108, 4072.707, 4121.425, 4060.57, 16161, 0, []
1628616833.9617, 76, 1, 4056.866, 4494.473, 4071.054, 4121.311, 4065.242, 450, 0, []
1628616833.9696, 77, 1, 4060.684, 4486.838, 4069.402, 4121.197, 4069.915, 450, 0, []
1628616833.9774, 78, 1, 4064.501, 4479.202, 4067.749, 4121.083, 4074.587, 450, 0, []
1628616833.9853, 79, 1, 4068.319, 4471.567, 4066.097, 4120.969, 4079.259, 16161, 0, []
1628616833.9932, 80, 1, 4072.137, 4463.932, 4064.444, 4120.855, 4083.932, 10941.333, 0, []
1628616834.0011, 81, 1, 4075.954, 4456.296, 4062.792, 4120.741, 4088.604, 12689.889, 0, []
1628616834.009, 82, 1, 4079.772, 4448.661, 4061.14, 4120.627, 4093.276, 14438.444, 0, []
1628616834.0168, 83, 0, 4083.59, 4441.026, 4059.487, 4120.513, 4097.949, 16187, 0, []
1628616834.0246, 84, 0, 4095.897, 4416.923, 4069.231, 4127.692, 4100, 450, 0, []
1628616834.0325, 85, 0, 4112.308, 4404.103, 4086.154, 4143.077, 4101.026, 450, 0, []
1628616834.0403, 86, 0, 4114.872, 4404.103, 4067.692, 4135.897, 4108.205, 450, 0, []
1628616834.0483, 87, 0, 4108.205, 4388.205, 4061.538, 4122.564, 4106.667, 16187, 0, []
1628616834.0561, 88, 0, 4097.436, 4364.615, 4064.615, 4115.385, 4097.949, 450, 0, []
1628616834.064, 89, 0, 4112.308, 4363.59, 4074.872, 4116.923, 4116.41, 450, 0, []
1628616834.072, 90, 1, 4116.467, 4355.328, 4076.068, 4121.481, 4119.373, 450, 0, []
1628616834.0799, 91, 1, 4120.627, 4347.066, 4077.265, 4126.04, 4122.336, 450, 0, []
1628616834.0878, 92, 1, 4124.786, 4338.803, 4078.462, 4130.598, 4125.299, 450, 0, []
1628616834.0956, 93, 1, 4128.946, 4330.541, 4079.658, 4135.157, 4128.262, 450, 0, []
1628616834.1035, 94, 1, 4133.105, 4322.279, 4080.855, 4139.715, 4131.225, 450, 0, []
1628616834.1114, 95, 1, 4137.265, 4314.017, 4082.051, 4144.274, 4134.188, 450, 0, []
1628616834.1193, 96, 1, 4141.425, 4305.755, 4083.248, 4148.832, 4137.151, 450, 0, []
1628616834.1272, 97, 1, 4145.584, 4297.493, 4084.444, 4153.39, 4140.114, 450, 0, []
1628616834.135, 98, 0, 4149.744, 4289.231, 4085.641, 4157.949, 4143.077, 450, 0, []
1628616847.4176, 83, 0, 4190.256, 4178.462, 4115.897, 4161.026, 4146.154, 16196, 0, []
1628616847.4255, 84, 0, 4171.282, 4127.179, 4124.615, 4140, 4112.821, 450, 0, []
1628616847.4334, 85, 0, 4192.308, 4148.205, 4114.872, 4154.872, 4141.538, 450, 0, []
1628616847.4412, 86, 0, 4205.641, 4187.692, 4120.513, 4167.692, 4166.667, 450, 0, []
1628616847.4491, 87, 0, 4183.077, 4165.128, 4101.538, 4145.128, 4151.795, 16196, 0, []
1628616847.4568, 88, 0, 4177.949, 4155.385, 4090.769, 4133.333, 4148.205, 450, 0, []
1628616847.4647, 89, 0, 4200.513, 4180.513, 4094.872, 4152.308, 4161.026, 450, 0, []
1628616847.4725, 90, 0, 4203.59, 4169.231, 4098.974, 4162.564, 4160.513, 450, 0, []
1628616847.4805, 91, 0, 4186.154, 4150.769, 4095.385, 4149.744, 4152.821, 16196, 0, []
1628616847.4885, 92, 0, 4187.692, 4167.692, 4104.615, 4145.641, 4150.769, 450, 0, []
1628616847.4963, 93, 0, 4211.282, 4177.436, 4104.615, 4161.026, 4159.487, 450, 0, []
1628616847.5042, 94, 0, 4203.59, 4163.59, 4094.872, 4163.59, 4158.974, 450, 0, []
1628616847.5121, 95, 0, 4169.231, 4150.769, 4087.179, 4146.667, 4143.59, 16196, 0, []
1628616847.5201, 96, 1, 4169.744, 4152.023, 4087.578, 4148.319, 4143.305, 14446.444, 0, []
1628616847.528, 97, 1, 4170.256, 4153.276, 4087.977, 4149.972, 4143.02, 12696.889, 0, []
1628616847.5358, 98, 1, 4170.769, 4154.53, 4088.376, 4151.624, 4142.735, 10947.333, 0, []
1628616847.5437, 99, 1, 4171.282, 4155.783, 4088.775, 4153.276, 4142.45, 9197.778, 0, []
1628616847.5516, 100, 1, 4171.795, 4157.037, 4089.174, 4154.929, 4142.165, 7448.222, 0, []
1628616847.5595, 101, 1, 4172.308, 4158.291, 4089.573, 4156.581, 4141.88, 5698.667, 0, []
1628616847.5674, 102, 1, 4172.821, 4159.544, 4089.972, 4158.234, 4141.595, 3949.111, 0, []
1628616847.5752, 103, 1, 4173.333, 4160.798, 4090.37, 4159.886, 4141.311, 2199.556, 0, []
1628616847.5831, 104, 0, 4173.846, 4162.051, 4090.769, 4161.538, 4141.026, 450, 0, []
1628616847.5909, 105, 0, 4184.615, 4167.692, 4094.872, 4167.692, 4151.795, 450, 0, []
1628616847.5988, 106, 0, 4171.282, 4160, 4064.103, 4152.821, 4139.487, 450, 0, []
1628616847.6067, 107, 0, 4166.667, 4168.205, 4070.256, 4146.667, 4132.308, 16196, 0, []
1628616847.6145, 108, 0, 4175.897, 4163.59, 4081.538, 4144.103, 4138.462, 450, 0, []
1628616847.6223, 109, 0, 4180.513, 4144.103, 4076.923, 4141.538, 4147.179, 450, 0, []
1628616847.6302, 110, 0, 4184.615, 4166.154, 4092.821, 4146.154, 4154.359, 450, 0, []
1628616847.638, 111, 0, 4186.154, 4178.462, 4089.744, 4145.128, 4156.41, 16196, 0, []
1628616847.6458, 112, 0, 4185.128, 4151.282, 4076.923, 4145.128, 4152.821, 450, 0, []
1628616847.6537, 113, 0, 4198.974, 4155.385, 4087.179, 4163.077, 4167.179, 450, 0, []
1628616847.6616, 114, 0, 4210.769, 4170.256, 4098.462, 4169.231, 4185.128, 450, 0, []
1628616847.6695, 115, 0, 4196.41, 4145.641, 4092.821, 4149.231, 4175.385, 16196, 0, []
1628616847.6775, 116, 0, 4180, 4122.564, 4069.231, 4132.821, 4155.385, 450, 0, []
1628616847.6854, 117, 0, 4183.59, 4129.231, 4066.667, 4136.41, 4148.205, 450, 0, []
1628616847.6933, 118, 0, 4188.718, 4127.179, 4072.821, 4144.103, 4150.256, 450, 0, []
1628616847.7012, 119, 0, 4185.128, 4107.179, 4075.385, 4144.103, 4156.41, 16196, 0, []
1628616847.7092, 120, 1, 4191.852, 4110.655, 4078.006, 4147.179, 4161.652, 14446.444, 0, []
1628616847.7171, 121, 1, 4198.575, 4114.131, 4080.627, 4150.256, 4166.895, 12696.889, 0, []
1628616847.725, 122, 1, 4205.299, 4117.607, 4083.248, 4153.333, 4172.137, 10947.333, 0, []
1628616847.7328, 123, 1, 4212.023, 4121.083, 4085.869, 4156.41, 4177.379, 9197.778, 0, []
1628616847.7407, 124, 1, 4218.746, 4124.558, 4088.49, 4159.487, 4182.621, 7448.222, 0, []
1628616847.7486, 125, 1, 4225.47, 4128.034, 4091.111, 4162.564, 4187.863, 5698.667, 0, []
1628616847.7565, 126, 1, 4232.194, 4131.51, 4093.732, 4165.641, 4193.105, 3949.111, 0, []
1628616847.7644, 127, 1, 4238.917, 4134.986, 4096.353, 4168.718, 4198.348, 2199.556, 0, []
1628616847.7722, 128, 0, 4245.641, 4138.462, 4098.974, 4171.795, 4203.59, 450, 0, []
1628616847.7801, 0, 0, 4307.179, 4140.513, 4121.538, 4185.641, 4254.359, 450, 0, []
1628616847.7879, 1, 0, 4336.41, 4142.564, 4116.923, 4174.359, 4268.205, 450, 0, []
1628616847.7957, 2, 0, 4339.487, 4136.41, 4093.333, 4157.949, 4270.769, 16182, 0, []
1628616847.8037, 3, 0, 4367.179, 4140.513, 4102.051, 4161.538, 4292.308, 450, 0, []
1628616847.8116, 4, 1, 4360.399, 4139.943, 4103.476, 4163.59, 4288.661, 16127, 0, []
1628616847.8195, 5, 1, 4353.618, 4139.373, 4104.9, 4165.641, 4285.014, 450, 0, []
1628616847.8274, 6, 1, 4346.838, 4138.803, 4106.325, 4167.692, 4281.368, 16075, 0, []
1628616847.8353, 7, 1, 4340.057, 4138.234, 4107.749, 4169.744, 4277.721, 450, 0, []
1628616847.8432, 8, 1, 4333.276, 4137.664, 4109.174, 4171.795, 4274.074, 450, 0, []
1628616847.8511, 9, 1, 4326.496, 4137.094, 4110.598, 4173.846, 4270.427, 16133, 0, []
1628616847.8589, 10, 1, 4319.715, 4136.524, 4112.023, 4175.897, 4266.781, 450, 0, []
1628616847.8668, 11, 1, 4312.934, 4135.954, 4113.447, 4177.949, 4263.134, 16196, 0, []
1628616847.8747, 12, 0, 4306.154, 4135.385, 4114.872, 4180, 4259.487, 450, 0, []
1628616847.8825, 13, 0, 4304.615, 4151.282, 4116.41, 4191.282, 4252.821, 450, 0, []
1628616847.8905, 14, 0, 4282.051, 4168.205, 4109.231, 4180.513, 4244.103, 450, 0, []
1628616847.8983, 15, 0, 4272.308, 4169.744, 4096.41, 4169.744, 4231.282, 16157, 0, []
1628616874.4479, 71, 0, 4188.205, 4164.103, 4102.564, 4161.026, 4170.256, 450, 0, []
1628616874.4557, 72, 1, 4189.67, 4165.458, 4101.044, 4162.656, 4171.392, 450, 0, []
1628616874.4636, 73, 1, 4191.136, 4166.813, 4099.524, 4164.286, 4172.527, 16133, 0, []
1628616874.4715, 74, 1, 4192.601, 4168.168, 4098.004, 4165.916, 4173.663, 450, 0, []
1628616874.4794, 75, 1, 4194.066, 4169.524, 4096.484, 4167.546, 4174.799, 16196, 0, []
1628616874.4873, 76, 1, 4195.531, 4170.879, 4094.963, 4169.176, 4175.934, 450, 0, []
1628616874.4951, 77, 1, 4196.996, 4172.234, 4093.443, 4170.806, 4177.07, 450, 0, []
1628616874.503, 78, 1, 4198.462, 4173.59, 4091.923, 4172.436, 4178.205, 450, 0, []
1628616874.5109, 79, 1, 4199.927, 4174.945, 4090.403, 4174.066, 4179.341, 16157, 0, []
1628616874.5188, 80, 1, 4201.392, 4176.3, 4088.883, 4175.696, 4180.476, 5510.25, 0, []
1628616874.5267, 81, 1, 4202.857, 4177.656, 4087.363, 4177.326, 4181.612, 6072.5, 0, []
1628616874.5345, 82, 1, 4204.322, 4179.011, 4085.842, 4178.956, 4182.747, 6634.75, 0, []
1628616874.5424, 83, 1, 4205.788, 4180.366, 4084.322, 4180.586, 4183.883, 7197, 0, []
1628616874.5503, 84, 1, 4207.253, 4181.722, 4082.802, 4182.216, 4185.018, 7759.25, 0, []
1628616874.5582, 85, 1, 4208.718, 4183.077, 4081.282, 4183.846, 4186.154, 8321.5, 0, []
1628616874.5661, 86, 1, 4210.183, 4184.432, 4079.762, 4185.476, 4187.289, 8883.75, 0, []
1628616874.5739, 87, 1, 4211.648, 4185.788, 4078.242, 4187.106, 4188.425, 9446, 0, []
1628616874.5818, 88, 1, 4213.114, 4187.143, 4076.722, 4188.736, 4189.56, 10008.25, 0, []
1628616874.5897, 89, 1, 4214.579, 4188.498, 4075.201, 4190.366, 4190.696, 10570.5, 0, []
1628616874.5976, 90, 1, 4216.044, 4189.853, 4073.681, 4191.996, 4191.832, 11132.75, 0, []
1628616874.6055, 91, 1, 4217.509, 4191.209, 4072.161, 4193.626, 4192.967, 11695, 0, []
1628616874.6133, 92, 1, 4218.974, 4192.564, 4070.641, 4195.256, 4194.103, 12257.25, 0, []
1628616874.6212, 93, 1, 4220.44, 4193.919, 4069.121, 4196.886, 4195.238, 12819.5, 0, []
1628616874.6291, 94, 1, 4221.905, 4195.275, 4067.601, 4198.516, 4196.374, 13381.75, 0, []
1628616874.637, 95, 1, 4223.37, 4196.63, 4066.081, 4200.147, 4197.509, 13944, 0, []
1628616874.6449, 96, 1, 4224.835, 4197.985, 4064.56, 4201.777, 4198.645, 14506.25, 0, []
1628616874.6527, 97, 1, 4226.3, 4199.341, 4063.04, 4203.407, 4199.78, 15068.5, 0, []
1628616874.6606, 98, 1, 4227.766, 4200.696, 4061.52, 4205.037, 4200.916, 15630.75, 0, []
1628616874.6685, 99, 0, 4229.231, 4202.051, 4060, 4206.667, 4202.051, 16193, 0, []
1628616874.6763, 100, 0, 4259.487, 4248.718, 4206.154, 4241.538, 4217.436, 450, 0, []
1628616874.6842, 101, 0, 4217.436, 4247.179, 4177.949, 4195.897, 4183.077, 450, 0, []
1628616874.692, 102, 0, 4187.179, 4228.205, 4068.718, 4169.744, 4169.744, 450, 0, []
1628616874.6999, 103, 0, 4205.128, 4226.667, 4114.872, 4183.077, 4173.846, 16193, 0, []
1628616874.7078, 104, 0, 4214.872, 4215.897, 4116.41, 4183.077, 4174.359, 450, 0, []
1628616874.7156, 105, 0, 4203.077, 4209.744, 4086.667, 4170.769, 4171.795, 450, 0, []
1628616874.7234, 106, 0, 4191.282, 4216.923, 4090.256, 4155.385, 4156.41, 450, 0, []
1628616874.7312, 107, 0, 4194.872, 4220.513, 4095.385, 4156.41, 4148.718, 16193, 0, []
1628616874.7391, 108, 0, 4215.897, 4231.282, 4111.795, 4178.974, 4179.487, 450, 0, []
1628616874.747, 109, 0, 4220, 4246.154, 4117.436, 4187.179, 4199.487, 450, 0, []
1628616874.7549, 110, 0, 4212.821, 4255.385, 4103.077, 4182.564, 4185.641, 450, 0, []
1628616874.7628, 111, 0, 4221.538, 4254.359, 4089.231, 4180, 4179.487, 16193, 0, []
1628616874.7705, 112, 1, 4221.254, 4250.655, 4089.288, 4179.031, 4181.481, 14443.778, 0, []
1628616874.7784, 113, 1, 4220.969, 4246.952, 4089.345, 4178.063, 4183.476, 12694.556, 0, []
1628616874.7863, 114, 1, 4220.684, 4243.248, 4089.402, 4177.094, 4185.47, 10945.333, 0, []
1628616874.7942, 115, 1, 4220.399, 4239.544, 4089.459, 4176.125, 4187.464, 9196.111, 0, []
1628616874.8021, 116, 1, 4220.114, 4235.84, 4089.516, 4175.157, 4189.459, 7446.889, 0, []
1628616874.8099, 117, 1, 4219.829, 4232.137, 4089.573, 4174.188, 4191.453, 5697.667, 0, []
1628616874.8178, 118, 1, 4219.544, 4228.433, 4089.63, 4173.219, 4193.447, 3948.444, 0, []
1628616874.8257, 119, 1, 4219.259, 4224.729, 4089.687, 4172.251, 4195.442, 2199.222, 0, []
1628616874.8336, 120, 0, 4218.974, 4221.026, 4089.744, 4171.282, 4197.436, 450, 0, []
1628616874.8414, 121, 0, 4207.179, 4212.821, 4080, 4155.897, 4188.205, 450, 0, []
1628616874.8491, 122, 1, 4221.937, 4212.137, 4081.026, 4156.581, 4198.12, 450, 0, []
1628616874.857, 123, 1, 4236.695, 4211.453, 4082.051, 4157.265, 4208.034, 450, 0, []
1628616874.8649, 124, 1, 4251.453, 4210.769, 4083.077, 4157.949, 4217.949, 450, 0, []
1628616874.8728, 125, 1, 4266.211, 4210.085, 4084.103, 4158.632, 4227.863, 450, 0, []
1628616874.8807, 126, 1, 4280.969, 4209.402, 4085.128, 4159.316, 4237.778, 450, 0, []
1628616874.8885, 127, 1, 4295.726, 4208.718, 4086.154, 4160, 4247.692, 450, 0, []
1628616874.8964, 128, 1, 4310.484, 4208.034, 4087.179, 4160.684, 4257.607, 450, 0, []
1628616874.9043, 0, 1, 4325.242, 4207.35, 4088.205, 4161.368, 4267.521, 450, 0, []
1628616874.9122, 1, 0, 4340, 4206.667, 4089.231, 4162.051, 4277.436, 450, 0, []
1628616874.9201, 2, 0, 4328.718, 4213.333, 4074.872, 4156.923, 4269.744, 16185, 0, []
1628616874.928, 3, 0, 4324.615, 4237.436, 4087.692, 4161.026, 4264.103, 450, 0, []
1628616874.9357, 4, 0, 4310.769, 4233.846, 4093.846, 4165.641, 4254.359, 16135, 0, []
1628616874.9435, 5, 0, 4290.769, 4212.821, 4097.949, 4164.615, 4245.641, 450, 0, []
1628616874.9514, 6, 0, 4286.154, 4210.256, 4105.128, 4173.846, 4243.59, 16079, 0, []
1628616874.9593, 7, 0, 4276.41, 4209.231, 4086.154, 4175.897, 4234.359, 450, 0, []
1628616874.9671, 8, 0, 4258.462, 4209.744, 4087.692, 4160.513, 4223.077, 450, 0, []
1628616874.9749, 9, 0, 4261.538, 4221.538, 4102.051, 4158.974, 4221.026, 16134, 0, []
1628616874.9827, 10, 0, 4266.154, 4217.436, 4098.974, 4176.41, 4216.923, 450, 0, []
1628616874.9906, 11, 0, 4263.077, 4207.692, 4103.59, 4183.59, 4222.051, 16189, 0, []
1628616874.9984, 12, 0, 4271.282, 4235.385, 4106.154, 4184.103, 4237.436, 450, 0, []
1628616875.0063, 13, 0, 4265.641, 4259.487, 4093.846, 4171.795, 4220.513, 450, 0, []
1628616875.014, 14, 0, 4233.846, 4223.077, 4076.41, 4144.615, 4190.769, 450, 0, []
1628616875.0218, 15, 0, 4227.179, 4194.872, 4088.718, 4147.179, 4203.077, 16189, 0, []
1628616875.0296, 16, 0, 4244.103, 4221.538, 4104.615, 4173.846, 4218.462, 0, 0, []
1628616875.0374, 17, 0, 4240.513, 4225.641, 4085.128, 4174.359, 4202.564, 0, 0, []
1628616875.0453, 18, 0, 4231.282, 4210.256, 4089.231, 4162.564, 4196.41, 0, 0, []
1628616875.053, 19, 0, 4222.564, 4217.949, 4091.282, 4153.333, 4188.205, 0, 0, []
1628616875.0609, 20, 0, 4206.667, 4206.154, 4068.718, 4136.41, 4159.487, 0, 0, []
1628616875.0687, 21, 0, 4207.692, 4187.692, 4077.436, 4138.974, 4162.051, 0, 0, []
1628616875.0766, 22, 0, 4224.103, 4216.923, 4091.795, 4162.564, 4191.282, 0, 0, []
1628616875.0844, 23, 0, 4215.385, 4227.692, 4090.256, 4159.487, 4180, 0, 0, []
1628616875.0922, 24, 0, 4194.872, 4194.872, 4074.359, 4145.128, 4149.744, 0, 0, []
1628616875.1, 25, 0, 4191.795, 4195.897, 4055.897, 4147.179, 4152.821, 0, 0, []
1628616875.1079, 26, 0, 4198.974, 4219.487, 4067.179, 4145.641, 4170.769, 0, 0, []
1628616875.1157, 27, 0, 4210.769, 4216.41, 4082.564, 4151.795, 4177.436, 0, 0, []
1628616875.1236, 28, 0, 4220, 4208.205, 4090.256, 4168.205, 4174.359, 0, 0, []
1628616875.1313, 29, 0, 4220.513, 4220.513, 4088.718, 4162.051, 4170.256, 0, 0, []
1628616875.1392, 30, 0, 4214.359, 4223.59, 4084.103, 4146.667, 4175.385, 0, 0, []
1628616875.147, 31, 0, 4206.154, 4215.897, 4092.821, 4146.667, 4173.333, 0, 0, []
1628616875.1549, 32, 0, 4198.974, 4212.308, 4088.205, 4154.872, 4158.974, 0, 0, []
1628616875.1627, 33, 0, 4198.462, 4202.564, 4078.974, 4156.41, 4162.051, 0, 0, []
1628616875.1704, 34, 0, 4202.051, 4188.205, 4076.41, 4145.641, 4171.795, 0, 0, []
1628616875.1783, 35, 0, 4193.333, 4181.538, 4061.538, 4131.282, 4152.308, 0, 0, []
1628616875.1861, 36, 0, 4186.667, 4194.359, 4056.41, 4127.692, 4132.308, 0, 0, []
1628616875.194, 37, 0, 4196.923, 4214.872, 4066.667, 4146.154, 4152.308, 0, 0, []
1628616875.2019, 38, 0, 4205.641, 4217.949, 4092.821, 4169.231, 4177.436, 0, 0, []
1628616875.2096, 39, 1, 4202.963, 4216.41, 4092.479, 4166.838, 4173.789, 0, 0, []
1628616875.2175, 40, 1, 4200.285, 4214.872, 4092.137, 4164.444, 4170.142, 0, 0, []
1628616875.2254, 41, 1, 4197.607, 4213.333, 4091.795, 4162.051, 4166.496, 0, 0, []
1628616875.2333, 42, 1, 4194.929, 4211.795, 4091.453, 4159.658, 4162.849, 0, 0, []
1628616875.2412, 43, 1, 4192.251, 4210.256, 4091.111, 4157.265, 4159.202, 0, 0, []
1628616875.249, 44, 1, 4189.573, 4208.718, 4090.769, 4154.872, 4155.556, 0, 0, []
1628616875.2569, 45, 1, 4186.895, 4207.179, 4090.427, 4152.479, 4151.909, 0, 0, []
1628616875.2648, 46, 1, 4184.217, 4205.641, 4090.085, 4150.085, 4148.262, 0, 0, []
1628616875.2727, 47, 0, 4181.538, 4204.103, 4089.744, 4147.692, 4144.615, 0, 0, []
1628616875.2805, 48, 0, 4186.667, 4214.359, 4087.179, 4145.128, 4135.897, 0, 0, []
1628616875.2883, 49, 0, 4180, 4182.564, 4082.564, 4137.949, 4126.154, 0, 0, []
1628616875.2961, 50, 0, 4183.59, 4192.308, 4077.436, 4144.615, 4143.59, 0, 0, []
1628616875.3039, 51, 0, 4188.718, 4206.667, 4088.205, 4146.667, 4158.462, 0, 0, []
1628616875.3117, 52, 0, 4173.333, 4185.128, 4078.974, 4126.154, 4136.41, 0, 0, []
1628616875.3196, 53, 0, 4169.231, 4182.051, 4068.718, 4129.231, 4125.128, 0, 0, []
1628616875.3274, 54, 0, 4189.231, 4193.333, 4091.795, 4151.282, 4148.718, 0, 0, []
1628616875.3352, 55, 0, 4207.179, 4204.615, 4103.59, 4161.538, 4172.308, 0, 0, []
1628616875.343, 56, 0, 4203.077, 4209.744, 4101.026, 4160.513, 4169.744, 0, 0, []
1628616875.3508, 57, 0, 4186.667, 4192.821, 4091.795, 4153.333, 4150.769, 0, 0, []
1628616875.3587, 58, 0, 4181.026, 4189.231, 4084.615, 4148.718, 4142.051, 0, 0, []
1628616875.3665, 59, 0, 4182.051, 4201.026, 4095.385, 4147.692, 4147.179, 0, 0, []
1628616875.3743, 60, 1, 4181.538, 4197.094, 4095.043, 4146.439, 4147.464, 1792.889, 0, []
1628616875.3822, 61, 1, 4181.026, 4193.162, 4094.701, 4145.185, 4147.749, 3585.778, 0, []
1628616875.3901, 62, 1, 4180.513, 4189.231, 4094.359, 4143.932, 4148.034, 5378.667, 0, []
1628616875.398, 63, 1, 4180, 4185.299, 4094.017, 4142.678, 4148.319, 7171.556, 0, []
1628616875.4058, 64, 1, 4179.487, 4181.368, 4093.675, 4141.425, 4148.604, 450, 0, []
1628616875.4137, 65, 1, 4178.974, 4177.436, 4093.333, 4140.171, 4148.889, 450, 0, []
1628616875.4216, 66, 1, 4178.462, 4173.504, 4092.991, 4138.917, 4149.174, 16185, 0, []
1628616875.4295, 67, 1, 4177.949, 4169.573, 4092.65, 4137.664, 4149.459, 450, 0, []
1628616875.4374, 68, 0, 4177.436, 4165.641, 4092.308, 4136.41, 4149.744, 16136, 0, []
1628616875.4451, 69, 0, 4191.282, 4196.41, 4100.513, 4152.308, 4153.333, 450, 0, []
1628616875.453, 70, 0, 4178.462, 4195.897, 4079.487, 4138.462, 4133.333, 16079, 0, []
1628616875.4609, 71, 0, 4164.103, 4170.769, 4075.385, 4123.59, 4120.513, 450, 0, []
1628616875.4688, 72, 0, 4188.205, 4189.231, 4103.59, 4148.205, 4146.154, 450, 0, []
1628616875.4766, 73, 0, 4207.179, 4213.333, 4093.846, 4165.641, 4165.128, 16131, 0, []
1628616875.4843, 74, 0, 4193.333, 4207.692, 4073.846, 4150.769, 4147.692, 450, 0, []
1628616875.4921, 75, 0, 4190.256, 4205.128, 4076.41, 4145.641, 4149.744, 16189, 0, []
1628616875.5, 76, 0, 4201.538, 4211.795, 4084.615, 4151.795, 4169.744, 450, 0, []
1628616875.5078, 77, 0, 4201.026, 4206.154, 4087.692, 4150.769, 4163.59, 450, 0, []
1628616875.5157, 78, 0, 4189.744, 4197.949, 4079.487, 4146.667, 4150.256, 450, 0, []
1628616875.5235, 79, 0, 4176.41, 4182.051, 4078.974, 4136.923, 4145.641, 16189, 0, []
1628616875.5312, 80, 0, 4177.949, 4169.231, 4082.564, 4137.949, 4151.282, 450, 0, []
1628616875.5391, 81, 0, 4183.59, 4177.436, 4081.026, 4138.462, 4148.718, 450, 0, []
1628616875.547, 82, 0, 4177.949, 4195.385, 4078.462, 4131.795, 4135.385, 450, 0, []
1628616875.5549, 83, 0, 4189.231, 4205.128, 4087.179, 4154.872, 4153.333, 16189, 0, []
1628616875.5627, 84, 0, 4198.974, 4201.026, 4107.692, 4167.179, 4172.821, 450, 0, []
1628616875.5704, 85, 0, 4180, 4203.077, 4097.949, 4135.385, 4151.282, 450, 0, []
1628616875.5783, 86, 0, 4165.128, 4201.538, 4081.026, 4130.256, 4134.872, 450, 0, []
1628616875.5861, 87, 0, 4168.205, 4177.436, 4087.692, 4155.897, 4147.179, 16189, 0, []
1628616875.5939, 88, 0, 4168.718, 4157.949, 4086.154, 4155.385, 4151.795, 450, 0, []
1628616875.6018, 89, 0, 4176.41, 4183.59, 4098.462, 4148.718, 4151.282, 450, 0, []
1628616875.6096, 90, 0, 4192.308, 4206.154, 4099.487, 4153.846, 4152.308, 450, 0, []
1628616875.6175, 91, 0, 4183.59, 4165.641, 4073.846, 4147.692, 4141.538, 16189, 0, []
1628616875.6253, 92, 0, 4177.949, 4134.872, 4086.154, 4142.051, 4149.231, 450, 0, []
1628616875.6332, 93, 0, 4198.974, 4168.718, 4104.615, 4146.667, 4168.205, 450, 0, []
1628616875.641, 94, 0, 4205.128, 4189.744, 4098.462, 4146.154, 4157.436, 450, 0, []
1628616875.6487, 95, 0, 4189.744, 4169.744, 4094.872, 4146.667, 4147.692, 16189, 0, []
1628616875.6566, 96, 0, 4184.615, 4163.59, 4097.436, 4148.718, 4161.026, 450, 0, []
1628616875.6644, 97, 0, 4176.923, 4168.205, 4096.41, 4138.462, 4152.308, 450, 0, []
1628616875.6723, 98, 0, 4163.59, 4164.615, 4082.564, 4138.462, 4127.692, 450, 0, []
1628616875.6802, 99, 0, 4180.513, 4176.41, 4089.744, 4164.103, 4140, 16189, 0, []
1628616875.6879, 100, 0, 4189.231, 4184.103, 4094.872, 4168.718, 4155.897, 450, 0, []
1628616875.6957, 101, 0, 4165.128, 4170.256, 4079.487, 4150.256, 4138.462, 450, 0, []
1628616875.7035, 102, 1, 4181.197, 4177.037, 4084.217, 4152.479, 4151.168, 450, 0, []
1628616875.7114, 103, 1, 4197.265, 4183.818, 4088.946, 4154.701, 4163.875, 450, 0, []
1628616875.7193, 104, 1, 4213.333, 4190.598, 4093.675, 4156.923, 4176.581, 450, 0, []
1628616875.7271, 105, 1, 4229.402, 4197.379, 4098.405, 4159.145, 4189.288, 450, 0, []
1628616875.735, 106, 1, 4245.47, 4204.16, 4103.134, 4161.368, 4201.994, 450, 0, []
1628616875.7429, 107, 1, 4261.538, 4210.94, 4107.863, 4163.59, 4214.701, 450, 0, []
1628616875.7508, 108, 1, 4277.607, 4217.721, 4112.593, 4165.812, 4227.407, 450, 0, []
1628616875.7587, 109, 1, 4293.675, 4224.501, 4117.322, 4168.034, 4240.114, 450, 0, []
1628616875.7665, 110, 0, 4309.744, 4231.282, 4122.051, 4170.256, 4252.821, 450, 0, []
1628616875.7743, 111, 0, 4338.974, 4248.718, 4115.897, 4183.59, 4280, 16189, 0, []
1628616875.7822, 112, 0, 4346.667, 4246.154, 4121.026, 4178.462, 4285.641, 450, 0, []
1628616875.7901, 113, 0, 4361.538, 4231.795, 4114.359, 4172.308, 4288.718, 450, 0, []
1628616875.7979, 114, 0, 4364.615, 4247.179, 4103.077, 4180, 4290.769, 450, 0, []
1628616875.8057, 115, 0, 4346.667, 4256.41, 4106.154, 4183.59, 4278.462, 16189, 0, []
1628616875.8135, 116, 0, 4317.949, 4227.692, 4092.308, 4169.744, 4254.872, 450, 0, []
1628616875.8213, 117, 0, 4283.59, 4210.769, 4084.615, 4147.692, 4224.615, 450, 0, []
1628616875.8292, 118, 0, 4272.821, 4221.538, 4090.256, 4149.744, 4205.641, 450, 0, []
1628616875.8371, 119, 0, 4286.154, 4243.59, 4102.051, 4175.897, 4213.333, 16189, 0, []
1628616875.8448, 120, 0, 4271.795, 4259.487, 4117.436, 4174.872, 4213.846, 450, 0, []
1628616875.8527, 121, 0, 4231.282, 4234.872, 4105.128, 4147.179, 4184.615, 450, 0, []
1628616875.8606, 122, 0, 4211.282, 4207.692, 4097.949, 4138.974, 4158.462, 450, 0, []
1628616875.8684, 123, 0, 4216.923, 4231.795, 4106.667, 4149.744, 4164.615, 16189, 0, []
1628616875.8762, 124, 0, 4224.615, 4266.154, 4114.872, 4162.564, 4184.615, 450, 0, []
1628616875.884, 125, 0, 4217.949, 4263.077, 4122.051, 4170.256, 4180, 450, 0, []
1628616875.8918, 126, 0, 4205.641, 4245.128, 4111.795, 4166.154, 4160, 450, 0, []
1628616875.8996, 127, 1, 4204.387, 4241.254, 4111.51, 4165.983, 4160.285, 2186.778, 0, []
1628616875.9075, 128, 1, 4203.134, 4237.379, 4111.225, 4165.812, 4160.57, 450, 0, []
1628616875.9154, 0, 1, 4201.88, 4233.504, 4110.94, 4165.641, 4160.855, 450, 0, []
1628616875.9232, 1, 1, 4200.627, 4229.63, 4110.655, 4165.47, 4161.14, 450, 0, []
1628616875.9311, 2, 1, 4199.373, 4225.755, 4110.37, 4165.299, 4161.425, 16185, 0, []
1628616875.939, 3, 1, 4198.12, 4221.88, 4110.085, 4165.128, 4161.709, 450, 0, []
1628616875.9469, 4, 1, 4196.866, 4218.006, 4109.801, 4164.957, 4161.994, 16136, 0, []
1628616875.9548, 5, 1, 4195.613, 4214.131, 4109.516, 4164.786, 4162.279, 450, 0, []
1628616875.9626, 6, 0, 4194.359, 4210.256, 4109.231, 4164.615, 4162.564, 16081, 0, []
1628616875.9704, 7, 0, 4167.179, 4230.256, 4092.821, 4150.256, 4148.205, 450, 0, []
1628616875.9783, 8, 0, 4146.154, 4227.692, 4053.846, 4137.949, 4118.974, 450, 0, []
1628616875.9862, 9, 0, 4154.359, 4214.872, 4058.974, 4141.026, 4112.821, 16131, 0, []
1628616875.9941, 10, 0, 4172.308, 4223.59, 4092.308, 4156.41, 4134.359, 450, 0, []
1628616876.0018, 11, 0, 4169.231, 4238.462, 4100, 4155.385, 4145.128, 16189, 0, []
1628616876.0096, 12, 0, 4163.077, 4243.59, 4076.41, 4136.923, 4132.821, 450, 0, []
1628616876.0175, 13, 0, 4173.846, 4248.718, 4077.436, 4136.41, 4125.128, 450, 0, []
1628616876.0254, 14, 0, 4189.744, 4240, 4097.949, 4155.385, 4146.667, 450, 0, []
1628616876.0333, 15, 0, 4193.846, 4215.385, 4096.41, 4166.667, 4171.795, 16189, 0, []
1628616876.041, 16, 1, 4188.889, 4214.53, 4095.897, 4164.729, 4167.407, 14390.222, 0, []
1628616876.0489, 17, 1, 4183.932, 4213.675, 4095.385, 4162.792, 4163.02, 12591.444, 0, []
1628616876.0568, 18, 1, 4178.974, 4212.821, 4094.872, 4160.855, 4158.632, 10792.667, 0, []
1628616876.0647, 19, 1, 4174.017, 4211.966, 4094.359, 4158.917, 4154.245, 8993.889, 0, []
1628616876.0726, 20, 1, 4169.06, 4211.111, 4093.846, 4156.98, 4149.858, 7195.111, 0, []
1628616876.0804, 21, 1, 4164.103, 4210.256, 4093.333, 4155.043, 4145.47, 5396.333, 0, []
1628616876.0883, 22, 1, 4159.145, 4209.402, 4092.821, 4153.105, 4141.083, 3597.556, 0, []
1628616876.0962, 23, 1, 4154.188, 4208.547, 4092.308, 4151.168, 4136.695, 1798.778, 0, []
1628616876.1041, 24, 0, 4149.231, 4207.692, 4091.795, 4149.231, 4132.308, 0, 0, []
1628616876.1119, 25, 0, 4164.103, 4213.846, 4082.051, 4135.897, 4130.769, 0, 0, []
1628616876.1197, 26, 0, 4167.179, 4244.615, 4072.308, 4130.769, 4126.667, 0, 0, []
1628616876.1276, 27, 0, 4151.795, 4232.821, 4065.128, 4130.256, 4117.436, 0, 0, []
1628616876.1354, 28, 0, 4158.462, 4198.974, 4073.333, 4140.513, 4133.333, 0, 0, []
1628616876.1433, 29, 0, 4175.897, 4208.718, 4098.462, 4148.205, 4151.282, 0, 0, []
1628616876.1511, 30, 0, 4175.897, 4243.59, 4087.692, 4145.128, 4147.179, 0, 0, []
1628616876.1589, 31, 0, 4166.154, 4247.179, 4074.359, 4144.103, 4134.359, 0, 0, []
1628616876.1666, 32, 0, 4167.179, 4220, 4087.692, 4155.385, 4136.41, 0, 0, []
1628616876.1745, 33, 0, 4175.385, 4222.564, 4094.872, 4167.692, 4155.385, 0, 0, []
1628616876.1824, 34, 0, 4171.795, 4239.487, 4087.692, 4153.333, 4146.667, 0, 0, []
1628616876.1902, 35, 0, 4163.59, 4222.051, 4065.128, 4131.795, 4118.974, 0, 0, []
1628616876.1981, 36, 0, 4176.41, 4215.385, 4073.333, 4143.59, 4135.385, 0, 0, []
1628616876.2058, 37, 0, 4191.795, 4242.051, 4100.513, 4165.641, 4167.692, 0, 0, []
1628616876.2136, 38, 0, 4171.282, 4246.154, 4089.744, 4154.872, 4147.179, 0, 0, []
1628616876.2215, 39, 0, 4154.359, 4228.205, 4077.436, 4142.051, 4119.487, 0, 0, []
1628616876.2294, 40, 0, 4172.308, 4216.923, 4074.359, 4152.821, 4137.436, 0, 0, []
1628616876.2372, 41, 0, 4173.846, 4214.872, 4070.256, 4147.179, 4148.718, 0, 0, []
1628616876.245, 42, 0, 4158.974, 4229.744, 4068.718, 4129.231, 4142.564, 0, 0, []
1628616876.2528, 43, 0, 4173.333, 4229.744, 4069.744, 4145.128, 4151.795, 0, 0, []
1628616876.2607, 44, 0, 4187.692, 4201.538, 4084.615, 4170.769, 4156.41, 0, 0, []
1628616876.2685, 45, 0, 4174.872, 4197.436, 4084.103, 4167.179, 4156.923, 0, 0, []
1628616876.2763, 46, 0, 4154.872, 4225.641, 4073.846, 4147.692, 4153.846, 0, 0, []
1628616876.2841, 47, 0, 4155.897, 4248.718, 4080.513, 4145.128, 4142.051, 0, 0, []
1628616876.292, 48, 0, 4170.769, 4238.462, 4085.641, 4159.487, 4138.974, 0, 0, []
1628616876.2999, 49, 0, 4172.821, 4210.769, 4088.718, 4157.436, 4145.128, 0, 0, []
1628616876.3077, 50, 0, 4168.718, 4224.615, 4092.821, 4142.564, 4153.333, 0, 0, []
1628616876.3155, 51, 1, 4168.034, 4223.134, 4093.903, 4143.932, 4152.877, 0, 0, []
1628616876.3233, 52, 1, 4167.35, 4221.652, 4094.986, 4145.299, 4152.422, 0, 0, []
1628616876.3312, 53, 1, 4166.667, 4220.171, 4096.068, 4146.667, 4151.966, 0, 0, []
1628616876.3391, 54, 1, 4165.983, 4218.689, 4097.151, 4148.034, 4151.51, 0, 0, []
1628616876.347, 55, 1, 4165.299, 4217.208, 4098.234, 4149.402, 4151.054, 0, 0, []
1628616876.3549, 56, 1, 4164.615, 4215.726, 4099.316, 4150.769, 4150.598, 0, 0, []
1628616876.3627, 57, 1, 4163.932, 4214.245, 4100.399, 4152.137, 4150.142, 0, 0, []
1628616876.3706, 58, 1, 4163.248, 4212.764, 4101.481, 4153.504, 4149.687, 0, 0, []
1628616876.3785, 59, 0, 4162.564, 4211.282, 4102.564, 4154.872, 4149.231, 0, 0, []
1628616876.3863, 60, 0, 4196.41, 4248.205, 4117.949, 4176.41, 4182.564, 0, 0, []
1628616876.3942, 61, 0, 4188.205, 4215.385, 4088.718, 4163.077, 4168.205, 0, 0, []
1628616876.4019, 62, 0, 4168.718, 4192.308, 4082.051, 4156.41, 4143.077, 0, 0, []
1628616876.4098, 63, 0, 4167.692, 4217.949, 4084.615, 4156.41, 4141.538, 0, 0, []
1628616876.4176, 64, 0, 4177.949, 4230.769, 4086.667, 4153.333, 4148.205, 450, 0, []
1628616876.4254, 65, 0, 4188.205, 4220, 4091.795, 4160.513, 4152.821, 450, 0, []
1628616876.4333, 66, 0, 4175.385, 4209.231, 4083.59, 4152.821, 4144.615, 16181, 0, []
1628616876.4411, 67, 0, 4145.128, 4186.667, 4074.359, 4117.949, 4123.59, 450, 0, []
1628616876.4489, 68, 0, 4151.282, 4178.462, 4072.821, 4115.385, 4124.615, 16146, 0, []
1628616876.4567, 69, 0, 4170.256, 4194.359, 4078.974, 4125.641, 4131.282, 450, 0, []
1628616876.4645, 70, 0, 4156.41, 4203.59, 4071.282, 4110.769, 4118.974, 16079, 0, []
1628616876.4724, 71, 0, 4148.718, 4209.231, 4064.615, 4122.564, 4126.667, 450, 0, []
1628616876.4801, 72, 1, 4148.661, 4204.444, 4063.077, 4121.823, 4127.464, 450, 0, []
1628616876.488, 73, 1, 4148.604, 4199.658, 4061.538, 4121.083, 4128.262, 16131, 0, []
1628616876.4959, 74, 1, 4148.547, 4194.872, 4060, 4120.342, 4129.06, 450, 0, []
1628616876.5038, 75, 1, 4148.49, 4190.085, 4058.462, 4119.601, 4129.858, 16189, 0, []
1628616876.5117, 76, 1, 4148.433, 4185.299, 4056.923, 4118.86, 4130.655, 450, 0, []
1628616876.5195, 77, 1, 4148.376, 4180.513, 4055.385, 4118.12, 4131.453, 450, 0, []
1628616876.5274, 78, 1, 4148.319, 4175.726, 4053.846, 4117.379, 4132.251, 450, 0, []
1628616876.5353, 79, 1, 4148.262, 4170.94, 4052.308, 4116.638, 4133.048, 16189, 0, []
1628616876.5432, 80, 0, 4148.205, 4166.154, 4050.769, 4115.897, 4133.846, 450, 0, []
1628616876.551, 81, 0, 4149.231, 4195.897, 4058.974, 4123.59, 4129.231, 450, 0, []
1628616876.5588, 82, 0, 4153.333, 4201.026, 4068.718, 4128.205, 4124.103, 450, 0, []
1628616876.5667, 83, 0, 4160, 4189.744, 4063.077, 4134.872, 4135.385, 16189, 0, []
1628616876.5745, 84, 0, 4168.718, 4204.103, 4065.128, 4153.333, 4154.872, 450, 0, []
1628616876.5824, 85, 0, 4176.41, 4223.077, 4077.949, 4151.795, 4167.692, 450, 0, []
1628616876.5903, 86, 0, 4176.41, 4204.615, 4065.641, 4133.333, 4163.59, 450, 0, []
1628616876.598, 87, 0, 4172.821, 4180, 4066.154, 4137.949, 4147.692, 16189, 0, []
1628616876.6059, 88, 0, 4183.077, 4195.897, 4078.462, 4156.41, 4150.769, 450, 0, []
1628616876.6137, 89, 0, 4196.41, 4207.692, 4074.359, 4153.846, 4164.103, 450, 0, []
1628616876.6215, 90, 0, 4185.128, 4184.103, 4058.462, 4129.744, 4146.667, 450, 0, []
1628616876.6294, 91, 0, 4180.513, 4190.769, 4051.282, 4127.692, 4130.769, 16189, 0, []
1628616876.6372, 92, 0, 4191.282, 4226.154, 4070.769, 4145.128, 4146.667, 450, 0, []
1628616876.645, 93, 0, 4175.897, 4208.205, 4073.846, 4133.846, 4148.718, 450, 0, []
1628616876.6528, 94, 0, 4154.872, 4172.821, 4065.128, 4118.462, 4128.205, 450, 0, []
1628616876.6607, 95, 0, 4167.692, 4180, 4078.974, 4134.359, 4130.256, 16189, 0, []
1628616876.6685, 96, 0, 4177.949, 4188.718, 4068.718, 4144.615, 4143.59, 450, 0, []
1628616876.6763, 97, 0, 4155.897, 4192.308, 4061.026, 4130.256, 4135.897, 450, 0, []
1628616876.6841, 98, 0, 4149.231, 4198.974, 4080.513, 4129.231, 4131.795, 450, 0, []
1628616876.6919, 99, 0, 4168.718, 4202.564, 4085.641, 4137.436, 4142.051, 16189, 0, []
1628616876.6998, 100, 0, 4174.872, 4206.667, 4081.538, 4131.282, 4141.538, 450, 0, []
1628616876.7076, 101, 0, 4168.205, 4194.872, 4075.897, 4131.795, 4140.513, 450, 0, []
1628616876.7153, 102, 0, 4174.359, 4193.333, 4085.641, 4144.103, 4154.359, 450, 0, []
1628616876.7232, 103, 0, 4171.282, 4210.769, 4083.59, 4137.949, 4151.282, 16189, 0, []
1628616876.7311, 104, 0, 4146.154, 4197.949, 4053.333, 4110.769, 4117.949, 450, 0, []
1628616876.739, 105, 0, 4146.154, 4179.487, 4056.923, 4109.231, 4112.821, 450, 0, []
1628616876.7468, 106, 1, 4147.179, 4179.487, 4057.265, 4110.883, 4114.245, 450, 0, []
1628616876.7546, 107, 1, 4148.205, 4179.487, 4057.607, 4112.536, 4115.67, 450, 0, []
1628616876.7625, 108, 1, 4149.231, 4179.487, 4057.949, 4114.188, 4117.094, 450, 0, []
1628616876.7704, 109, 1, 4150.256, 4179.487, 4058.291, 4115.84, 4118.519, 450, 0, []
1628616876.7783, 110, 1, 4151.282, 4179.487, 4058.632, 4117.493, 4119.943, 450, 0, []
1628616876.7862, 111, 1, 4152.308, 4179.487, 4058.974, 4119.145, 4121.368, 450, 0, []
1628616876.7941, 112, 1, 4153.333, 4179.487, 4059.316, 4120.798, 4122.792, 450, 0, []
1628616876.8019, 113, 1, 4154.359, 4179.487, 4059.658, 4122.45, 4124.217, 450, 0, []
1628616876.8098, 114, 0, 4155.385, 4179.487, 4060, 4124.103, 4125.641, 450, 0, []
1628616876.8176, 115, 0, 4143.59, 4171.282, 4070.769, 4113.333, 4124.615, 16189, 0, []
1628616876.8255, 116, 0, 4150.256, 4164.103, 4082.564, 4120, 4125.641, 450, 0, []
1628616876.8333, 117, 0, 4172.821, 4189.231, 4083.077, 4135.897, 4128.718, 450, 0, []
1628616876.8411, 118, 0, 4207.179, 4206.667, 4092.308, 4153.333, 4162.564, 450, 0, []
1628616876.8489, 119, 0, 4224.103, 4212.308, 4085.641, 4158.974, 4197.949, 16189, 0, []
1628616876.8568, 120, 0, 4216.923, 4230.256, 4084.615, 4149.744, 4189.744, 450, 0, []
1628616876.8646, 121, 0, 4211.282, 4231.282, 4089.231, 4147.692, 4173.333, 450, 0, []
1628616876.8725, 122, 0, 4210.769, 4208.205, 4094.872, 4150.256, 4181.538, 450, 0, []
1628616876.8802, 123, 0, 4206.154, 4204.103, 4101.026, 4143.59, 4181.538, 16189, 0, []
1628616876.888, 124, 0, 4212.308, 4222.051, 4097.949, 4149.231, 4176.41, 450, 0, []
1628616876.8959, 125, 0, 4228.718, 4244.615, 4113.846, 4175.897, 4197.436, 450, 0, []
1628616876.9038, 126, 0, 4234.872, 4253.846, 4119.487, 4185.128, 4212.821, 450, 0, []
1628616876.9116, 127, 0, 4236.41, 4246.667, 4106.667, 4175.385, 4203.59, 16189, 0, []
1628616876.9194, 128, 0, 4238.462, 4250.769, 4112.821, 4176.41, 4197.436, 450, 0, []
1628616876.9272, 0, 0, 4224.615, 4254.359, 4104.615, 4171.282, 4193.333, 450, 0, []
1628616876.935, 1, 0, 4210.256, 4241.538, 4092.308, 4157.436, 4180.513, 450, 0, []
1628616876.9429, 2, 0, 4213.333, 4245.128, 4092.308, 4160, 4180, 16181, 0, []
1628616876.9507, 3, 0, 4202.051, 4248.718, 4086.667, 4162.051, 4180, 450, 0, []
1628616876.9584, 4, 0, 4176.41, 4226.667, 4081.026, 4143.59, 4158.974, 16135, 0, []
1628616876.9663, 5, 0, 4185.641, 4225.641, 4075.385, 4141.026, 4157.436, 450, 0, []
1628616876.9742, 6, 0, 4220.513, 4247.179, 4090.769, 4169.744, 4182.564, 325, 0, []
1628616876.9821, 7, 0, 4240.513, 4261.026, 4111.795, 4192.308, 4207.692, 450, 0, []
1628616876.99, 8, 0, 4233.846, 4262.564, 4101.026, 4188.718, 4210.256, 450, 0, []
1628616876.9977, 9, 0, 4215.897, 4251.282, 4086.667, 4172.308, 4186.154, 16131, 0, []
1628616877.0056, 10, 0, 4212.308, 4245.128, 4083.59, 4161.026, 4178.974, 450, 0, []
1628616877.0134, 11, 0, 4228.718, 4272.308, 4095.897, 4166.667, 4202.051, 16192, 0, []
1628616877.0213, 12, 0, 4251.795, 4289.231, 4103.59, 4184.103, 4220, 450, 0, []
1628616877.0291, 13, 0, 4255.385, 4262.051, 4090.769, 4190.769, 4223.59, 450, 0, []
1628616877.0368, 14, 0, 4233.333, 4252.821, 4094.872, 4172.821, 4210.256, 450, 0, []
1628616877.0446, 15, 0, 4229.231, 4273.846, 4098.974, 4159.487, 4192.821, 16192, 0, []
1628616877.0524, 16, 1, 4229.687, 4273.162, 4098.689, 4160.627, 4193.789, 14392.889, 0, []
1628616877.0603, 17, 1, 4230.142, 4272.479, 4098.405, 4161.766, 4194.758, 12593.778, 0, []
1628616877.0682, 18, 1, 4230.598, 4271.795, 4098.12, 4162.906, 4195.726, 10794.667, 0, []
1628616877.076, 19, 1, 4231.054, 4271.111, 4097.835, 4164.046, 4196.695, 8995.556, 0, []
1628616877.0839, 20, 1, 4231.51, 4270.427, 4097.55, 4165.185, 4197.664, 7196.444, 0, []
1628616877.0918, 21, 1, 4231.966, 4269.744, 4097.265, 4166.325, 4198.632, 5397.333, 0, []
1628616877.0997, 22, 1, 4232.422, 4269.06, 4096.98, 4167.464, 4199.601, 3598.222, 0, []
1628616877.1076, 23, 1, 4232.877, 4268.376, 4096.695, 4168.604, 4200.57, 1799.111, 0, []
1628616877.1154, 24, 0, 4233.333, 4267.692, 4096.41, 4169.744, 4201.538, 0, 0, []
1628616877.1232, 25, 0, 4235.897, 4278.462, 4100, 4163.077, 4210.256, 0, 0, []
1628616877.1311, 26, 0, 4226.154, 4264.103, 4074.359, 4154.872, 4191.282, 0, 0, []
1628616877.1389, 27, 0, 4221.026, 4249.231, 4072.821, 4151.282, 4180.513, 0, 0, []
1628616877.1467, 28, 0, 4220.513, 4244.103, 4082.564, 4144.615, 4177.949, 0, 0, []
1628616877.1545, 29, 0, 4215.385, 4264.103, 4103.077, 4148.205, 4165.641, 0, 0, []
1628616877.1624, 30, 0, 4215.385, 4276.41, 4105.128, 4165.128, 4164.615, 0, 0, []
1628616877.1703, 31, 0, 4217.949, 4261.538, 4088.205, 4172.821, 4178.974, 0, 0, []
1628616877.1781, 32, 0, 4211.282, 4260, 4084.103, 4156.923, 4176.41, 0, 0, []
1628616877.186, 33, 0, 4217.949, 4274.872, 4082.564, 4154.359, 4172.821, 0, 0, []
1628616877.1937, 34, 0, 4229.744, 4263.59, 4094.359, 4168.718, 4187.179, 0, 0, []
1628616877.2016, 35, 0, 4221.538, 4260, 4110.256, 4168.205, 4190.256, 0, 0, []
1628616877.2094, 36, 0, 4221.026, 4289.744, 4108.718, 4166.154, 4182.051, 0, 0, []
1628616877.2172, 37, 0, 4228.205, 4289.231, 4096.41, 4171.282, 4178.974, 0, 0, []
1628616877.2251, 38, 0, 4220, 4261.026, 4084.103, 4167.692, 4180.513, 0, 0, []
1628616877.2329, 39, 0, 4213.846, 4269.231, 4095.897, 4159.487, 4180.513, 0, 0, []
1628616877.2407, 40, 0, 4231.282, 4288.205, 4107.692, 4163.077, 4182.051, 0, 0, []
1628616877.2485, 41, 0, 4238.462, 4268.718, 4104.615, 4170.256, 4192.308, 0, 0, []
1628616877.2564, 42, 0, 4227.692, 4263.077, 4109.744, 4165.128, 4197.436, 0, 0, []
1628616877.2642, 43, 0, 4231.795, 4287.179, 4095.897, 4155.385, 4194.359, 0, 0, []
1628616877.272, 44, 0, 4232.308, 4277.949, 4082.564, 4151.795, 4192.308, 0, 0, []
1628616877.2798, 45, 0, 4214.872, 4245.641, 4089.231, 4150.256, 4191.795, 0, 0, []
1628616877.2876, 46, 1, 4216.752, 4248.205, 4090.313, 4153.447, 4192.422, 0, 0, []
1628616877.2955, 47, 1, 4218.632, 4250.769, 4091.396, 4156.638, 4193.048, 0, 0, []
1628616877.3034, 48, 1, 4220.513, 4253.333, 4092.479, 4159.829, 4193.675, 0, 0, []
1628616877.3112, 49, 1, 4222.393, 4255.897, 4093.561, 4163.02, 4194.302, 0, 0, []
1628616877.3191, 50, 1, 4224.274, 4258.462, 4094.644, 4166.211, 4194.929, 0, 0, []
1628616877.327, 51, 1, 4226.154, 4261.026, 4095.726, 4169.402, 4195.556, 0, 0, []
1628616877.3349, 52, 1, 4228.034, 4263.59, 4096.809, 4172.593, 4196.182, 0, 0, []
1628616877.3428, 53, 1, 4229.915, 4266.154, 4097.892, 4175.783, 4196.809, 0, 0, []
1628616877.3506, 54, 0, 4231.795, 4268.718, 4098.974, 4178.974, 4197.436, 0, 0, []
1628616877.3584, 55, 0, 4212.821, 4277.436, 4091.795, 4161.538, 4182.051, 0, 0, []
1628616877.3663, 56, 0, 4212.308, 4281.026, 4092.308, 4153.333, 4192.308, 0, 0, []
1628616877.3742, 57, 0, 4233.333, 4291.795, 4107.692, 4162.051, 4204.615, 0, 0, []
1628616877.3821, 58, 0, 4225.641, 4280, 4101.026, 4161.538, 4191.795, 0, 0, []
1628616877.3898, 59, 0, 4206.154, 4243.59, 4086.154, 4156.41, 4182.564, 0, 0, []
1628616877.3976, 60, 0, 4202.051, 4237.436, 4082.051, 4153.846, 4183.077, 0, 0, []
1628616877.4055, 61, 0, 4194.872, 4253.846, 4072.308, 4155.385, 4168.718, 0, 0, []
1628616877.4133, 62, 0, 4181.538, 4267.692, 4085.641, 4158.974, 4158.462, 0, 0, []
1628616877.4212, 63, 0, 4173.333, 4275.897, 4089.231, 4155.385, 4157.949, 0, 0, []
1628616877.429, 64, 0, 4172.821, 4270.256, 4074.872, 4156.41, 4151.795, 450, 0, []
1628616877.4368, 65, 0, 4178.462, 4260, 4088.205, 4169.744, 4151.282, 450, 0, []
1628616877.4446, 66, 0, 4194.359, 4260.513, 4098.974, 4184.615, 4171.795, 16181, 0, []
1628616877.4524, 67, 1, 4191.738, 4262.108, 4099.772, 4181.595, 4169.687, 450, 0, []
1628616877.4603, 68, 1, 4189.117, 4263.704, 4100.57, 4178.575, 4167.578, 16135, 0, []
1628616877.4682, 69, 1, 4186.496, 4265.299, 4101.368, 4175.556, 4165.47, 450, 0, []
1628616877.476, 70, 1, 4183.875, 4266.895, 4102.165, 4172.536, 4163.362, 325, 0, []
1628616877.4839, 71, 1, 4181.254, 4268.49, 4102.963, 4169.516, 4161.254, 450, 0, []
1628616877.4918, 72, 1, 4178.632, 4270.085, 4103.761, 4166.496, 4159.145, 450, 0, []
1628616877.4997, 73, 1, 4176.011, 4271.681, 4104.558, 4163.476, 4157.037, 16131, 0, []
1628616877.5076, 74, 1, 4173.39, 4273.276, 4105.356, 4160.456, 4154.929, 450, 0, []
1628616877.5154, 75, 0, 4170.769, 4274.872, 4106.154, 4157.436, 4152.821, 16193, 0, []
1628616877.5232, 76, 0, 4171.795, 4255.385, 4078.974, 4137.949, 4127.692, 450, 0, []
1628616877.5311, 77, 0, 4164.615, 4240, 4070.769, 4141.026, 4118.974, 450, 0, []
1628616877.539, 78, 0, 4153.333, 4237.436, 4080, 4148.205, 4124.615, 450, 0, []
1628616877.5469, 79, 0, 4150.769, 4240.513, 4071.795, 4142.051, 4126.667, 16193, 0, []
1628616877.5546, 80, 0, 4152.308, 4247.692, 4076.923, 4140.513, 4121.026, 450, 0, []
1628616877.5624, 81, 0, 4150.256, 4243.59, 4080.513, 4145.641, 4120, 450, 0, []
1628616877.5703, 82, 0, 4155.897, 4254.359, 4085.641, 4146.667, 4138.462, 450, 0, []
1628616877.5781, 83, 0, 4158.974, 4268.205, 4094.872, 4137.436, 4150.769, 16193, 0, []
1628616877.5859, 84, 0, 4148.205, 4249.231, 4082.564, 4125.641, 4132.308, 450, 0, []
1628616877.5936, 85, 0, 4155.897, 4242.051, 4082.564, 4134.872, 4127.692, 450, 0, []
1628616877.6015, 86, 0, 4172.308, 4253.846, 4082.051, 4153.333, 4149.744, 450, 0, []
1628616877.6094, 87, 0, 4166.154, 4253.846, 4084.615, 4152.821, 4152.821, 16193, 0, []
1628616877.6173, 88, 0, 4171.282, 4264.615, 4101.026, 4148.718, 4149.231, 450, 0, []
1628616877.6251, 89, 0, 4189.744, 4264.615, 4087.179, 4153.333, 4154.359, 450, 0, []
1628616877.6329, 90, 0, 4172.821, 4228.205, 4069.744, 4143.077, 4144.615, 450, 0, []
1628616877.6407, 91, 0, 4152.821, 4216.923, 4077.436, 4131.282, 4140, 16193, 0, []
1628616877.6486, 92, 0, 4182.564, 4240, 4100.513, 4148.205, 4160.513, 450, 0, []
1628616877.6564, 93, 0, 4207.179, 4250.256, 4105.641, 4164.103, 4173.333, 450, 0, []
1628616877.6642, 94, 0, 4186.154, 4246.667, 4083.077, 4157.949, 4172.308, 450, 0, []
1628616877.672, 95, 0, 4173.333, 4232.821, 4086.154, 4152.308, 4175.897, 16193, 0, []
1628616877.6799, 96, 0, 4182.051, 4227.692, 4090.769, 4150.256, 4167.179, 450, 0, []
1628616877.6877, 97, 0, 4186.667, 4247.692, 4080, 4153.333, 4156.923, 450, 0, []
1628616877.6956, 98, 0, 4184.615, 4258.974, 4087.179, 4157.949, 4167.692, 450, 0, []
1628616877.7034, 99, 0, 4177.949, 4241.026, 4088.205, 4151.795, 4171.282, 16193, 0, []
1628616877.7111, 100, 0, 4174.359, 4231.795, 4082.564, 4144.103, 4152.821, 450, 0, []
1628616877.719, 101, 0, 4177.436, 4239.487, 4077.436, 4141.538, 4146.154, 450, 0, []
1628616877.7268, 102, 0, 4180, 4226.667, 4077.436, 4139.487, 4158.462, 450, 0, []
1628616877.7347, 103, 0, 4179.487, 4218.462, 4087.692, 4138.462, 4154.872, 16193, 0, []
1628616877.7425, 104, 0, 4184.615, 4241.538, 4083.077, 4153.846, 4144.615, 450, 0, []
1628616877.7503, 105, 0, 4191.282, 4243.59, 4087.692, 4167.179, 4153.333, 450, 0, []
1628616877.7581, 106, 0, 4191.795, 4220.513, 4090.256, 4153.333, 4164.615, 450, 0, []
1628616877.7659, 107, 0, 4203.077, 4226.667, 4076.41, 4144.103, 4172.821, 16193, 0, []
1628616877.7737, 108, 1, 4214.644, 4226.895, 4077.265, 4146.325, 4182.393, 14443.778, 0, []
1628616877.7816, 109, 1, 4226.211, 4227.123, 4078.12, 4148.547, 4191.966, 12694.556, 0, []
1628616877.7894, 110, 1, 4237.778, 4227.35, 4078.974, 4150.769, 4201.538, 10945.333, 0, []
1628616877.7973, 111, 1, 4249.345, 4227.578, 4079.829, 4152.991, 4211.111, 9196.111, 0, []
1628616877.8052, 112, 1, 4260.912, 4227.806, 4080.684, 4155.214, 4220.684, 7446.889, 0, []
1628616877.8131, 113, 1, 4272.479, 4228.034, 4081.538, 4157.436, 4230.256, 5697.667, 0, []
1628616877.821, 114, 1, 4284.046, 4228.262, 4082.393, 4159.658, 4239.829, 3948.444, 0, []
1628616877.8288, 115, 1, 4295.613, 4228.49, 4083.248, 4161.88, 4249.402, 2199.222, 0, []
1628616877.8367, 116, 0, 4307.179, 4228.718, 4084.103, 4164.103, 4258.974, 450, 0, []
1628616877.8446, 117, 0, 4303.077, 4196.41, 4079.487, 4158.462, 4246.154, 450, 0, []
1628616877.8524, 118, 0, 4270.256, 4196.41, 4080.513, 4148.718, 4230.769, 450, 0, []
1628616877.8602, 119, 0, 4244.103, 4210.769, 4072.821, 4142.051, 4211.795, 16193, 0, []
1628616877.868, 120, 0, 4246.154, 4206.154, 4068.205, 4149.231, 4198.462, 450, 0, []
1628616877.8758, 121, 0, 4236.41, 4204.615, 4077.949, 4148.205, 4194.872, 450, 0, []
1628616877.8837, 122, 0, 4214.359, 4203.59, 4072.821, 4134.359, 4191.795, 450, 0, []
1628616877.8915, 123, 0, 4209.231, 4198.462, 4076.41, 4132.821, 4180, 16193, 0, []
1628616877.8994, 124, 0, 4219.487, 4201.026, 4083.59, 4149.744, 4177.436, 450, 0, []
1628616877.9071, 125, 0, 4216.41, 4204.103, 4077.949, 4148.718, 4177.949, 450, 0, []
1628616877.9149, 126, 0, 4198.462, 4193.846, 4067.692, 4126.154, 4162.051, 450, 0, []
1628616877.9228, 127, 0, 4205.641, 4185.641, 4071.795, 4136.41, 4163.077, 16193, 0, []
1628616877.9307, 128, 0, 4221.026, 4193.846, 4108.205, 4162.564, 4185.128, 450, 0, []
1628616877.9385, 0, 0, 4195.385, 4206.154, 4101.026, 4145.641, 4174.359, 450, 0, []
1628616877.9462, 1, 0, 4172.308, 4203.077, 4062.564, 4121.026, 4146.154, 450, 0, []
1628616877.9541, 2, 0, 4190.256, 4193.846, 4074.872, 4142.564, 4155.897, 16185, 0, []
1628616877.9619, 3, 0, 4200, 4208.718, 4096.41, 4176.923, 4181.026, 450, 0, []
1628616877.9698, 4, 0, 4183.077, 4211.795, 4083.077, 4165.641, 4169.231, 16131, 0, []
1628616877.9777, 5, 0, 4178.974, 4191.795, 4057.949, 4138.974, 4150.769, 450, 0, []
1628616877.9855, 6, 0, 4185.641, 4198.462, 4057.436, 4144.103, 4161.026, 16075, 0, []
1628616877.9933, 7, 1, 4187.863, 4206.724, 4061.823, 4146.211, 4163.647, 450, 0, []
1628616878.0012, 8, 1, 4190.085, 4214.986, 4066.211, 4148.319, 4166.268, 450, 0, []
1628616878.0091, 9, 1, 4192.308, 4223.248, 4070.598, 4150.427, 4168.889, 16131, 0, []
1628616878.017, 10, 1, 4194.53, 4231.51, 4074.986, 4152.536, 4171.51, 450, 0, []
1628616878.0249, 11, 1, 4196.752, 4239.772, 4079.373, 4154.644, 4174.131, 16193, 0, []
1628616878.0327, 12, 1, 4198.974, 4248.034, 4083.761, 4156.752, 4176.752, 450, 0, []
1628616878.0406, 13, 1, 4201.197, 4256.296, 4088.148, 4158.86, 4179.373, 450, 0, []
1628616878.0485, 14, 1, 4203.419, 4264.558, 4092.536, 4160.969, 4181.994, 450, 0, []
1628616878.0564, 15, 0, 4205.641, 4272.821, 4096.923, 4163.077, 4184.615, 16194, 0, []
1628616878.0642, 16, 0, 4214.872, 4257.436, 4091.795, 4173.333, 4180.513, 0, 0, []
1628616878.072, 17, 0, 4204.615, 4243.59, 4091.282, 4168.205, 4170.256, 0, 0, []
1628616878.0799, 18, 0, 4193.846, 4271.795, 4090.256, 4155.385, 4170.769, 0, 0, []
1628616878.0877, 19, 0, 4194.359, 4281.538, 4077.949, 4145.128, 4159.487, 0, 0, []
1628616878.0955, 20, 0, 4196.41, 4262.564, 4077.436, 4142.564, 4153.846, 0, 0, []
1628616878.1033, 21, 0, 4194.872, 4262.564, 4086.154, 4147.692, 4170.256, 0, 0, []
1628616878.1111, 22, 0, 4194.872, 4269.744, 4095.897, 4151.795, 4171.282, 0, 0, []
1628616878.119, 23, 0, 4194.872, 4269.744, 4089.744, 4153.333, 4154.359, 0, 0, []
1628616878.1269, 24, 0, 4183.59, 4275.897, 4084.615, 4148.205, 4150.256, 0, 0, []
1628616878.1347, 25, 0, 4181.026, 4286.154, 4092.821, 4149.744, 4163.077, 0, 0, []
1628616878.1425, 26, 1, 4183.875, 4286.553, 4092.308, 4149.63, 4163.305, 0, 0, []
1628616878.1503, 27, 1, 4186.724, 4286.952, 4091.795, 4149.516, 4163.533, 0, 0, []
1628616878.1582, 28, 1, 4189.573, 4287.35, 4091.282, 4149.402, 4163.761, 0, 0, []
1628616878.1661, 29, 1, 4192.422, 4287.749, 4090.769, 4149.288, 4163.989, 0, 0, []
1628616878.174, 30, 1, 4195.271, 4288.148, 4090.256, 4149.174, 4164.217, 0, 0, []
1628616878.1819, 31, 1, 4198.12, 4288.547, 4089.744, 4149.06, 4164.444, 0, 0, []
1628616878.1897, 32, 1, 4200.969, 4288.946, 4089.231, 4148.946, 4164.672, 0, 0, []
1628616878.1976, 33, 1, 4203.818, 4289.345, 4088.718, 4148.832, 4164.9, 0, 0, []
1628616878.2055, 34, 0, 4206.667, 4289.744, 4088.205, 4148.718, 4165.128, 0, 0, []
1628616878.2133, 35, 0, 4189.231, 4288.718, 4083.59, 4140.513, 4163.077, 0, 0, []
1628616878.2211, 36, 0, 4169.744, 4289.231, 4062.564, 4126.667, 4156.41, 0, 0, []
1628616878.2288, 37, 0, 4173.846, 4267.692, 4063.077, 4128.718, 4143.077, 0, 0, []
1628616878.2367, 38, 0, 4183.077, 4251.282, 4078.974, 4145.128, 4148.205, 0, 0, []
1628616878.2446, 39, 0, 4185.641, 4269.744, 4088.205, 4157.949, 4164.103, 0, 0, []
1628616878.2524, 40, 0, 4199.487, 4290.256, 4110.256, 4167.692, 4173.846, 0, 0, []
1628616878.2603, 41, 0, 4206.667, 4281.026, 4105.641, 4164.615, 4170.769, 0, 0, []
1628616878.268, 42, 0, 4177.436, 4264.615, 4082.564, 4137.949, 4148.205, 0, 0, []
1628616878.2758, 43, 0, 4146.667, 4269.744, 4076.923, 4124.615, 4128.205, 0, 0, []
1628616878.2837, 44, 0, 4140.513, 4274.872, 4084.103, 4141.538, 4122.051, 0, 0, []
1628616878.2915, 45, 0, 4138.974, 4279.487, 4092.821, 4154.359, 4112.308, 0, 0, []
1628616878.2994, 46, 0, 4141.026, 4286.154, 4088.205, 4167.179, 4111.282, 0, 0, []
1628616878.3072, 47, 0, 4138.974, 4270.256, 4090.256, 4167.179, 4119.487, 0, 0, []
1628616878.315, 48, 0, 4119.487, 4254.359, 4084.103, 4133.846, 4105.641, 0, 0, []
1628616878.3228, 49, 0, 4111.282, 4267.179, 4067.179, 4116.41, 4084.615, 0, 0, []
1628616878.3307, 50, 0, 4116.923, 4266.154, 4075.897, 4121.026, 4082.051, 0, 0, []
1628616878.3386, 51, 0, 4111.282, 4235.385, 4070.769, 4112.308, 4086.667, 0, 0, []
1628616878.3463, 52, 0, 4106.667, 4224.103, 4060, 4112.308, 4093.333, 0, 0, []
1628616878.3541, 53, 0, 4117.949, 4232.308, 4072.308, 4132.308, 4106.667, 0, 0, []
1628616878.3619, 54, 0, 4116.41, 4234.872, 4072.821, 4134.359, 4104.103, 0, 0, []
1628616878.3698, 55, 0, 4101.538, 4226.667, 4067.179, 4117.436, 4084.103, 0, 0, []
1628616878.3776, 56, 1, 4105.983, 4228.262, 4067.123, 4119.772, 4087.521, 50, 0, []
1628616878.3854, 57, 1, 4110.427, 4229.858, 4067.066, 4122.108, 4090.94, 100, 0, []
1628616878.3933, 58, 1, 4114.872, 4231.453, 4067.009, 4124.444, 4094.359, 150, 0, []
1628616878.4012, 59, 1, 4119.316, 4233.048, 4066.952, 4126.781, 4097.778, 200, 0, []
1628616878.4091, 60, 1, 4123.761, 4234.644, 4066.895, 4129.117, 4101.197, 250, 0, []
1628616878.417, 61, 1, 4128.205, 4236.239, 4066.838, 4131.453, 4104.615, 300, 0, []
1628616878.4248, 62, 1, 4132.65, 4237.835, 4066.781, 4133.789, 4108.034, 350, 0, []
1628616878.4327, 63, 1, 4137.094, 4239.43, 4066.724, 4136.125, 4111.453, 400, 0, []
1628616878.4406, 64, 0, 4141.538, 4241.026, 4066.667, 4138.462, 4114.872, 450, 0, []
1628616878.4484, 65, 0, 4140.513, 4217.436, 4072.821, 4131.795, 4121.538, 450, 0, []
1628616878.4563, 66, 0, 4150.256, 4228.718, 4077.949, 4133.333, 4134.359, 16186, 0, []
1628616878.4641, 67, 0, 4160, 4241.538, 4082.051, 4145.641, 4135.385, 450, 0, []
1628616878.4719, 68, 0, 4157.436, 4217.949, 4091.795, 4146.667, 4126.667, 16131, 0, []
1628616878.4798, 69, 0, 4145.641, 4214.872, 4074.359, 4135.385, 4120.513, 450, 0, []
1628616878.4876, 70, 0, 4151.282, 4240, 4077.436, 4139.487, 4135.897, 16085, 0, []
1628616878.4955, 71, 0, 4169.231, 4226.154, 4094.359, 4151.795, 4149.744, 450, 0, []
1628616878.5032, 72, 0, 4170.769, 4217.436, 4088.205, 4152.308, 4140, 450, 0, []
1628616878.511, 73, 0, 4149.744, 4230.769, 4081.538, 4136.41, 4120, 16131, 0, []
1628616878.5189, 74, 0, 4143.59, 4204.615, 4078.462, 4126.154, 4124.615, 450, 0, []
1628616878.5268, 75, 0, 4162.051, 4184.615, 4087.692, 4137.436, 4146.154, 16194, 0, []
1628616878.5346, 76, 1, 4161.823, 4187.009, 4085.926, 4136.98, 4144.9, 450, 0, []
1628616878.5424, 77, 1, 4161.595, 4189.402, 4084.16, 4136.524, 4143.647, 450, 0, []
1628616878.5503, 78, 1, 4161.368, 4191.795, 4082.393, 4136.068, 4142.393, 450, 0, []
1628616878.5582, 79, 1, 4161.14, 4194.188, 4080.627, 4135.613, 4141.14, 16194, 0, []
1628616878.5661, 80, 1, 4160.912, 4196.581, 4078.86, 4135.157, 4139.886, 7447.333, 0, []
1628616878.574, 81, 1, 4160.684, 4198.974, 4077.094, 4134.701, 4138.632, 5698, 0, []
1628616878.5818, 82, 1, 4160.456, 4201.368, 4075.328, 4134.245, 4137.379, 3948.667, 0, []
1628616878.5897, 83, 1, 4160.228, 4203.761, 4073.561, 4133.789, 4136.125, 2199.333, 0, []
1628616878.5976, 84, 0, 4160, 4206.154, 4071.795, 4133.333, 4134.872, 450, 0, []
1628616878.6054, 85, 0, 4155.897, 4197.436, 4074.872, 4131.795, 4125.641, 450, 0, []
1628616878.6133, 86, 0, 4169.744, 4216.923, 4093.333, 4137.949, 4142.051, 450, 0, []
1628616878.6211, 87, 0, 4184.103, 4222.051, 4083.077, 4141.538, 4162.051, 16194, 0, []
1628616878.629, 88, 0, 4196.923, 4183.59, 4066.154, 4126.154, 4168.718, 450, 0, []
1628616878.6368, 89, 0, 4242.051, 4180, 4074.359, 4133.846, 4208.205, 450, 0, []
1628616878.6446, 90, 0, 4290.769, 4221.026, 4102.564, 4163.077, 4260, 450, 0, []
1628616878.6525, 91, 0, 4299.487, 4218.462, 4109.231, 4152.821, 4267.692, 16194, 0, []
1628616878.6603, 92, 0, 4294.872, 4184.103, 4082.564, 4134.872, 4254.359, 450, 0, []
1628616878.6681, 93, 0, 4289.231, 4176.41, 4076.923, 4140.513, 4251.795, 450, 0, []
1628616878.6759, 94, 1, 4285.584, 4177.664, 4081.026, 4140.684, 4247.863, 450, 0, []
1628616878.6838, 95, 1, 4281.937, 4178.917, 4085.128, 4140.855, 4243.932, 450, 0, []
1628616878.6917, 96, 1, 4278.291, 4180.171, 4089.231, 4141.026, 4240, 450, 0, []
1628616878.6996, 97, 1, 4274.644, 4181.425, 4093.333, 4141.197, 4236.068, 450, 0, []
1628616878.7074, 98, 1, 4270.997, 4182.678, 4097.436, 4141.368, 4232.137, 450, 0, []
1628616878.7153, 99, 1, 4267.35, 4183.932, 4101.538, 4141.538, 4228.205, 450, 0, []
1628616878.7232, 100, 1, 4263.704, 4185.185, 4105.641, 4141.709, 4224.274, 450, 0, []
1628616878.7311, 101, 1, 4260.057, 4186.439, 4109.744, 4141.88, 4220.342, 450, 0, []
1628616878.739, 102, 0, 4256.41, 4187.692, 4113.846, 4142.051, 4216.41, 450, 0, []
1628616878.7467, 103, 0, 4242.051, 4185.128, 4117.949, 4129.744, 4211.795, 16194, 0, []
1628616878.7546, 104, 0, 4242.051, 4205.128, 4100, 4121.026, 4198.462, 450, 0, []
1628616878.7625, 105, 0, 4241.538, 4193.333, 4085.641, 4129.744, 4198.462, 450, 0, []
1628616878.7703, 106, 0, 4246.154, 4174.359, 4092.821, 4138.974, 4217.436, 450, 0, []
1628616878.7781, 107, 0, 4272.308, 4186.667, 4078.974, 4150.769, 4237.436, 16194, 0, []
1628616878.7859, 108, 0, 4299.487, 4196.41, 4076.923, 4156.923, 4256.41, 450, 0, []
1628616878.7938, 109, 0, 4326.667, 4206.154, 4095.897, 4151.282, 4282.564, 450, 0, []
1628616878.8016, 110, 1, 4327.35, 4205.128, 4094.872, 4150.94, 4280.798, 450, 0, []
1628616878.8095, 111, 1, 4328.034, 4204.103, 4093.846, 4150.598, 4279.031, 450, 0, []
1628616878.8174, 112, 1, 4328.718, 4203.077, 4092.821, 4150.256, 4277.265, 450, 0, []
1628616878.8252, 113, 1, 4329.402, 4202.051, 4091.795, 4149.915, 4275.499, 450, 0, []
1628616878.8331, 114, 1, 4330.085, 4201.026, 4090.769, 4149.573, 4273.732, 450, 0, []
1628616878.841, 115, 1, 4330.769, 4200, 4089.744, 4149.231, 4271.966, 450, 0, []
1628616878.8489, 116, 1, 4331.453, 4198.974, 4088.718, 4148.889, 4270.199, 450, 0, []
1628616878.8568, 117, 1, 4332.137, 4197.949, 4087.692, 4148.547, 4268.433, 450, 0, []
1628616878.8646, 118, 0, 4332.821, 4196.923, 4086.667, 4148.205, 4266.667, 450, 0, []
1628616878.8724, 119, 0, 4316.923, 4187.179, 4095.385, 4149.744, 4254.872, 16194, 0, []
1628616878.8803, 120, 0, 4275.385, 4168.718, 4078.462, 4125.641, 4221.538, 450, 0, []
1628616878.8882, 121, 0, 4272.821, 4182.564, 4081.026, 4127.179, 4213.846, 450, 0, []
1628616878.896, 122, 0, 4283.077, 4186.154, 4095.385, 4147.692, 4221.026, 450, 0, []
1628616878.9037, 123, 0, 4265.128, 4176.923, 4101.026, 4141.538, 4209.744, 16194, 0, []
1628616878.9115, 124, 1, 4261.474, 4178.333, 4101.154, 4142.115, 4205.321, 16192.125, 0, []
1628616878.9194, 125, 1, 4257.821, 4179.744, 4101.282, 4142.692, 4200.897, 16190.25, 0, []
1628616878.9273, 126, 1, 4254.167, 4181.154, 4101.41, 4143.269, 4196.474, 16188.375, 0, []
1628616878.9352, 127, 1, 4250.513, 4182.564, 4101.538, 4143.846, 4192.051, 16186.5, 0, []
1628616878.943, 128, 1, 4246.859, 4183.974, 4101.667, 4144.423, 4187.628, 450, 0, []
1628616878.9509, 0, 1, 4243.205, 4185.385, 4101.795, 4145, 4183.205, 450, 0, []
1628616878.9588, 1, 1, 4239.551, 4186.795, 4101.923, 4145.577, 4178.782, 450, 0, []
1628616878.9667, 2, 0, 4235.897, 4188.205, 4102.051, 4146.154, 4174.359, 16179, 0, []
1628616878.9746, 3, 0, 4239.487, 4196.41, 4111.282, 4153.333, 4184.103, 450, 0, []
1628616878.9824, 4, 0, 4207.692, 4156.923, 4091.795, 4129.744, 4168.205, 16136, 0, []
1628616878.9902, 5, 0, 4188.205, 4146.667, 4083.59, 4115.897, 4138.462, 450, 0, []
1628616878.998, 6, 0, 4202.564, 4167.692, 4080, 4139.487, 4144.103, 16080, 0, []
1628616879.0059, 7, 0, 4214.359, 4167.692, 4085.128, 4148.718, 4168.718, 450, 0, []
1628616879.0138, 8, 0, 4213.846, 4172.308, 4086.667, 4129.231, 4174.359, 450, 0, []
1628616879.0215, 9, 0, 4222.564, 4181.026, 4091.795, 4134.872, 4173.333, 16133, 0, []
1628616879.0294, 10, 0, 4227.179, 4167.179, 4107.179, 4149.744, 4176.923, 450, 0, []
1628616879.0372, 11, 0, 4215.385, 4173.333, 4098.974, 4139.487, 4175.385, 16200, 0, []
1628616879.045, 12, 0, 4214.359, 4198.462, 4103.077, 4137.949, 4171.282, 450, 0, []
1628616879.0529, 13, 0, 4218.974, 4179.487, 4104.103, 4148.718, 4173.333, 450, 0, []
1628616879.0607, 14, 0, 4210.256, 4147.692, 4084.615, 4146.667, 4175.385, 450, 0, []
1628616879.0685, 15, 1, 4208.604, 4149.174, 4085.242, 4146.154, 4173.447, 16194, 0, []
1628616879.0764, 16, 1, 4206.952, 4150.655, 4085.869, 4145.641, 4171.51, 350, 0, []
1628616879.0843, 17, 1, 4205.299, 4152.137, 4086.496, 4145.128, 4169.573, 300, 0, []
1628616879.0922, 18, 1, 4203.647, 4153.618, 4087.123, 4144.615, 4167.635, 250, 0, []
1628616879.1, 19, 1, 4201.994, 4155.1, 4087.749, 4144.103, 4165.698, 200, 0, []
1628616879.1079, 20, 1, 4200.342, 4156.581, 4088.376, 4143.59, 4163.761, 150, 0, []
1628616879.1158, 21, 1, 4198.689, 4158.063, 4089.003, 4143.077, 4161.823, 100, 0, []
1628616879.1237, 22, 1, 4197.037, 4159.544, 4089.63, 4142.564, 4159.886, 50, 0, []
1628616879.1316, 23, 0, 4195.385, 4161.026, 4090.256, 4142.051, 4157.949, 0, 0, []
1628616879.1393, 24, 0, 4196.41, 4148.718, 4085.128, 4137.949, 4140, 0, 0, []
1628616879.1472, 25, 0, 4178.974, 4148.205, 4085.641, 4138.974, 4131.282, 0, 0, []
1628616879.1551, 26, 0, 4177.436, 4169.744, 4084.103, 4143.077, 4140.513, 0, 0, []
1628616879.1629, 27, 0, 4205.641, 4182.051, 4078.462, 4142.564, 4161.026, 0, 0, []
1628616879.1707, 28, 0, 4221.538, 4152.821, 4068.718, 4140, 4173.333, 0, 0, []
1628616879.1785, 29, 0, 4228.205, 4152.821, 4076.41, 4152.308, 4188.718, 0, 0, []
1628616879.1864, 30, 0, 4247.692, 4194.359, 4111.795, 4161.538, 4210.769, 0, 0, []
1628616879.1942, 31, 0, 4247.692, 4186.667, 4108.205, 4156.923, 4207.179, 0, 0, []
1628616879.202, 32, 0, 4226.667, 4172.821, 4096.923, 4155.385, 4187.692, 0, 0, []
1628616879.2098, 33, 0, 4210.769, 4197.436, 4108.205, 4150.769, 4181.026, 0, 0, []
1628616879.2176, 34, 0, 4204.103, 4198.974, 4084.615, 4142.564, 4174.359, 0, 0, []
1628616879.2254, 35, 0, 4206.154, 4185.128, 4075.385, 4146.667, 4166.154, 0, 0, []
1628616879.2332, 36, 0, 4216.923, 4196.41, 4097.949, 4153.846, 4182.051, 0, 0, []
1628616879.2411, 37, 0, 4224.615, 4204.103, 4109.744, 4154.872, 4197.436, 0, 0, []
1628616879.2489, 38, 0, 4211.282, 4182.051, 4105.641, 4142.051, 4173.846, 0, 0, []
1628616879.2566, 39, 1, 4209.63, 4181.595, 4104.046, 4142.393, 4170.94, 0, 0, []
1628616879.2645, 40, 1, 4207.977, 4181.14, 4102.45, 4142.735, 4168.034, 0, 0, []
1628616879.2724, 41, 1, 4206.325, 4180.684, 4100.855, 4143.077, 4165.128, 0, 0, []
1628616879.2803, 42, 1, 4204.672, 4180.228, 4099.259, 4143.419, 4162.222, 0, 0, []
1628616879.2882, 43, 1, 4203.02, 4179.772, 4097.664, 4143.761, 4159.316, 0, 0, []
1628616879.2961, 44, 1, 4201.368, 4179.316, 4096.068, 4144.103, 4156.41, 0, 0, []
1628616879.3039, 45, 1, 4199.715, 4178.86, 4094.473, 4144.444, 4153.504, 0, 0, []
1628616879.3118, 46, 1, 4198.063, 4178.405, 4092.877, 4144.786, 4150.598, 0, 0, []
1628616879.3197, 47, 0, 4196.41, 4177.949, 4091.282, 4145.128, 4147.692, 0, 0, []
1628616879.3275, 48, 0, 4200.513, 4226.154, 4087.179, 4145.641, 4161.026, 0, 0, []
1628616879.3354, 49, 0, 4193.846, 4228.205, 4076.41, 4145.128, 4158.974, 0, 0, []
1628616879.3431, 50, 0, 4207.179, 4228.205, 4094.359, 4161.026, 4170.769, 0, 0, []
1628616879.351, 51, 0, 4208.205, 4250.769, 4109.231, 4156.923, 4174.359, 0, 0, []
1628616879.3588, 52, 0, 4183.077, 4243.077, 4098.974, 4131.282, 4152.821, 0, 0, []
1628616879.3666, 53, 0, 4174.359, 4212.821, 4098.462, 4123.59, 4138.974, 0, 0, []
1628616879.3745, 54, 0, 4177.436, 4201.026, 4083.077, 4120, 4129.744, 0, 0, []
1628616879.3822, 55, 0, 4175.385, 4220.513, 4081.538, 4115.897, 4127.692, 0, 0, []
1628616879.39, 56, 0, 4194.872, 4240, 4111.795, 4142.051, 4159.487, 0, 0, []
1628616879.3978, 57, 0, 4220, 4241.026, 4113.846, 4170.256, 4188.205, 0, 0, []
1628616879.4057, 58, 0, 4208.205, 4237.949, 4095.897, 4156.41, 4170.769, 0, 0, []
1628616879.4135, 59, 0, 4182.564, 4240, 4080.513, 4145.128, 4155.385, 0, 0, []
1628616879.4213, 60, 0, 4185.641, 4238.462, 4087.692, 4153.846, 4165.641, 0, 0, []
1628616879.4291, 61, 1, 4188.49, 4240.456, 4088.205, 4152.536, 4166.496, 50, 0, []
1628616879.437, 62, 1, 4191.339, 4242.45, 4088.718, 4151.225, 4167.35, 100, 0, []
1628616879.4449, 63, 1, 4194.188, 4244.444, 4089.231, 4149.915, 4168.205, 150, 0, []
1628616879.4528, 64, 1, 4197.037, 4246.439, 4089.744, 4148.604, 4169.06, 450, 0, []
1628616879.4606, 65, 1, 4199.886, 4248.433, 4090.256, 4147.293, 4169.915, 450, 0, []
1628616879.4685, 66, 1, 4202.735, 4250.427, 4090.769, 4145.983, 4170.769, 16179, 0, []
1628616879.4764, 67, 1, 4205.584, 4252.422, 4091.282, 4144.672, 4171.624, 450, 0, []
1628616879.4843, 68, 1, 4208.433, 4254.416, 4091.795, 4143.362, 4172.479, 16136, 0, []
1628616879.4922, 69, 0, 4211.282, 4256.41, 4092.308, 4142.051, 4173.333, 450, 0, []
1628616879.4999, 70, 0, 4214.359, 4247.179, 4076.41, 4140, 4171.282, 16082, 0, []
1628616879.5077, 71, 0, 4216.923, 4244.103, 4086.667, 4151.282, 4187.692, 450, 0, []
1628616879.5156, 72, 0, 4235.385, 4253.846, 4098.462, 4167.692, 4210.256, 450, 0, []
1628616879.5235, 73, 0, 4235.385, 4231.795, 4088.205, 4156.41, 4202.051, 16133, 0, []
1628616879.5313, 74, 1, 4255.043, 4234.074, 4089.06, 4157.151, 4217.664, 450, 0, []
1628616879.5391, 75, 1, 4274.701, 4236.353, 4089.915, 4157.892, 4233.276, 16200, 0, []
1628616879.547, 76, 1, 4294.359, 4238.632, 4090.769, 4158.632, 4248.889, 450, 0, []
1628616879.5549, 77, 1, 4314.017, 4240.912, 4091.624, 4159.373, 4264.501, 450, 0, []
1628616879.5628, 78, 1, 4333.675, 4243.191, 4092.479, 4160.114, 4280.114, 450, 0, []
1628616879.5707, 79, 1, 4353.333, 4245.47, 4093.333, 4160.855, 4295.726, 16194, 0, []
1628616879.5785, 80, 1, 4372.991, 4247.749, 4094.188, 4161.595, 4311.339, 3935.111, 0, []
1628616879.5864, 81, 1, 4392.65, 4250.028, 4095.043, 4162.336, 4326.952, 2192.556, 0, []
1628616879.5943, 82, 0, 4412.308, 4252.308, 4095.897, 4163.077, 4342.564, 450, 0, []
1628616879.6021, 83, 0, 4393.846, 4235.385, 4077.436, 4138.974, 4316.41, 16197, 0, []
1628616879.61, 84, 0, 4377.949, 4200, 4074.359, 4125.128, 4295.385, 450, 0, []
1628616879.6178, 85, 0, 4366.154, 4220.513, 4084.615, 4140.513, 4292.308, 450, 0, []
1628616879.6257, 86, 0, 4349.744, 4248.205, 4105.641, 4160, 4283.59, 450, 0, []
1628616879.6336, 87, 0, 4331.282, 4213.333, 4094.872, 4164.615, 4268.205, 16197, 0, []
1628616879.6414, 88, 0, 4303.59, 4193.333, 4085.641, 4157.436, 4251.795, 450, 0, []
1628616879.6492, 89, 0, 4275.385, 4217.949, 4097.949, 4149.231, 4232.308, 450, 0, []
1628616879.6569, 90, 0, 4262.564, 4220, 4097.949, 4146.667, 4219.487, 450, 0, []
1628616879.6648, 91, 0, 4254.359, 4218.462, 4100.513, 4143.59, 4209.744, 16197, 0, []
1628616879.6726, 92, 0, 4249.231, 4243.077, 4092.308, 4147.692, 4200.513, 450, 0, []
1628616879.6805, 93, 0, 4247.179, 4236.923, 4083.59, 4159.487, 4202.564, 450, 0, []
1628616879.6884, 94, 0, 4230.769, 4183.59, 4083.077, 4149.231, 4194.872, 450, 0, []
1628616879.6962, 95, 0, 4218.462, 4183.077, 4080, 4134.872, 4179.487, 16197, 0, []
1628616879.704, 96, 0, 4230.769, 4227.692, 4096.923, 4150.769, 4182.564, 450, 0, []
1628616879.7118, 97, 0, 4235.385, 4226.154, 4109.231, 4172.821, 4196.923, 450, 0, []
1628616879.7197, 98, 0, 4215.385, 4211.282, 4106.154, 4167.179, 4190.256, 450, 0, []
1628616879.7275, 99, 0, 4210.769, 4226.154, 4101.538, 4151.282, 4175.385, 16197, 0, []
1628616879.7353, 100, 0, 4224.103, 4219.487, 4090.256, 4157.949, 4180, 450, 0, []
1628616879.7431, 101, 0, 4201.026, 4184.103, 4080, 4150.769, 4173.846, 450, 0, []
1628616879.7509, 102, 1, 4198.12, 4185.299, 4079.373, 4147.92, 4170.997, 450, 0, []
1628616879.7588, 103, 1, 4195.214, 4186.496, 4078.746, 4145.071, 4168.148, 450, 0, []
1628616879.7667, 104, 1, 4192.308, 4187.692, 4078.12, 4142.222, 4165.299, 450, 0, []
1628616879.7745, 105, 1, 4189.402, 4188.889, 4077.493, 4139.373, 4162.45, 450, 0, []
1628616879.7824, 106, 1, 4186.496, 4190.085, 4076.866, 4136.524, 4159.601, 450, 0, []
1628616879.7903, 107, 1, 4183.59, 4191.282, 4076.239, 4133.675, 4156.752, 450, 0, []
1628616879.7982, 108, 1, 4180.684, 4192.479, 4075.613, 4130.826, 4153.903, 450, 0, []
1628616879.8061, 109, 1, 4177.778, 4193.675, 4074.986, 4127.977, 4151.054, 450, 0, []
1628616879.8139, 110, 0, 4174.872, 4194.872, 4074.359, 4125.128, 4148.205, 450, 0, []
1628616879.8217, 111, 0, 4190.256, 4193.333, 4079.487, 4139.487, 4159.487, 16197, 0, []
1628616879.8296, 112, 0, 4185.128, 4181.026, 4071.795, 4137.949, 4137.436, 450, 0, []
1628616879.8375, 113, 0, 4156.41, 4166.667, 4061.026, 4125.641, 4123.077, 450, 0, []
1628616879.8454, 114, 0, 4149.744, 4164.615, 4078.462, 4133.846, 4133.846, 450, 0, []
1628616879.8531, 115, 0, 4175.897, 4189.231, 4089.744, 4154.872, 4145.128, 16197, 0, []
1628616879.8609, 116, 0, 4184.615, 4197.949, 4090.256, 4159.487, 4144.103, 450, 0, []
1628616879.8688, 117, 0, 4161.026, 4174.359, 4082.051, 4147.692, 4129.231, 450, 0, []
1628616879.8766, 118, 0, 4143.59, 4164.615, 4073.846, 4135.385, 4116.923, 450, 0, []
1628616879.8844, 119, 0, 4151.282, 4167.179, 4087.692, 4131.795, 4122.564, 16197, 0, []
1628616879.8921, 120, 0, 4173.333, 4164.615, 4090.769, 4146.154, 4138.974, 450, 0, []
1628616879.9, 121, 0, 4187.179, 4180.513, 4091.795, 4164.103, 4149.231, 450, 0, []
1628616879.9078, 122, 0, 4167.692, 4175.897, 4088.718, 4149.744, 4135.385, 450, 0, []
1628616879.9157, 123, 0, 4145.641, 4149.744, 4077.436, 4125.641, 4117.436, 16197, 0, []
1628616879.9235, 124, 0, 4163.077, 4176.923, 4090.256, 4136.41, 4125.128, 450, 0, []
1628616879.9314, 125, 0, 4182.051, 4201.538, 4095.385, 4156.41, 4135.385, 450, 0, []
1628616879.9391, 126, 0, 4173.333, 4165.128, 4097.436, 4152.308, 4132.308, 450, 0, []
1628616879.9469, 127, 0, 4174.359, 4154.359, 4110.256, 4147.692, 4141.538, 16197, 0, []
1628616879.9548, 128, 0, 4181.538, 4178.974, 4094.359, 4156.923, 4150.256, 450, 0, []
1628616879.9627, 0, 0, 4171.795, 4160.513, 4074.359, 4153.846, 4135.897, 450, 0, []
1628616879.9706, 1, 0, 4164.615, 4133.846, 4071.282, 4137.436, 4131.795, 450, 0, []
1628616879.9783, 2, 0, 4166.154, 4152.821, 4085.641, 4134.359, 4137.949, 16181, 0, []
1628616879.9861, 3, 0, 4165.128, 4176.41, 4095.385, 4139.487, 4135.385, 450, 0, []
1628616879.994, 4, 0, 4171.282, 4180, 4086.154, 4148.718, 4140.513, 16136, 0, []
1628616880.0019, 5, 0, 4174.872, 4173.846, 4092.308, 4152.308, 4142.564, 450, 0, []
1628616880.0098, 6, 0, 4169.744, 4148.718, 4096.41, 4145.128, 4135.385, 16085, 0, []
1628616880.0175, 7, 0, 4163.59, 4132.308, 4093.333, 4137.949, 4127.692, 450, 0, []
1628616880.0253, 8, 0, 4158.462, 4140.513, 4094.872, 4137.949, 4117.949, 450, 0, []
1628616880.0331, 9, 0, 4167.179, 4143.59, 4087.692, 4150.256, 4129.744, 16133, 0, []
1628616880.041, 10, 0, 4172.308, 4141.538, 4086.667, 4153.333, 4150.256, 450, 0, []
1628616880.0489, 11, 0, 4156.41, 4140, 4077.436, 4136.923, 4136.923, 16197, 0, []
1628616880.0566, 12, 0, 4149.231, 4138.974, 4070.769, 4129.231, 4113.846, 450, 0, []
1628616880.0645, 13, 0, 4163.59, 4138.974, 4086.154, 4135.897, 4121.026, 450, 0, []
1628616880.0723, 14, 0, 4172.308, 4126.154, 4085.128, 4143.077, 4139.487, 450, 0, []
1628616880.0802, 15, 0, 4168.205, 4117.949, 4084.103, 4150.256, 4141.026, 16197, 0, []
1628616880.088, 16, 0, 4159.487, 4132.308, 4086.667, 4149.744, 4127.692, 0, 0, []
1628616880.0958, 17, 0, 4144.615, 4136.923, 4075.385, 4130.769, 4107.692, 0, 0, []
1628616880.1036, 18, 1, 4147.407, 4136.182, 4076.581, 4131.738, 4111.738, 0, 0, []
1628616880.1115, 19, 1, 4150.199, 4135.442, 4077.778, 4132.707, 4115.783, 0, 0, []
1628616880.1194, 20, 1, 4152.991, 4134.701, 4078.974, 4133.675, 4119.829, 0, 0, []
1628616880.1273, 21, 1, 4155.783, 4133.96, 4080.171, 4134.644, 4123.875, 0, 0, []
1628616880.1351, 22, 1, 4158.575, 4133.219, 4081.368, 4135.613, 4127.92, 0, 0, []
1628616880.143, 23, 1, 4161.368, 4132.479, 4082.564, 4136.581, 4131.966, 0, 0, []
1628616880.1509, 24, 1, 4164.16, 4131.738, 4083.761, 4137.55, 4136.011, 0, 0, []
1628616880.1588, 25, 1, 4166.952, 4130.997, 4084.957, 4138.519, 4140.057, 0, 0, []
1628616880.1667, 26, 0, 4169.744, 4130.256, 4086.154, 4139.487, 4144.103, 0, 0, []
1628616880.1744, 27, 0, 4159.487, 4127.179, 4074.872, 4133.333, 4131.282, 0, 0, []
1628616880.1823, 28, 0, 4144.615, 4122.564, 4072.821, 4126.667, 4117.949, 0, 0, []
1628616880.1902, 29, 0, 4152.308, 4131.795, 4084.103, 4139.487, 4132.308, 0, 0, []
1628616880.198, 30, 0, 4156.41, 4137.949, 4079.487, 4143.077, 4143.077, 0, 0, []
1628616880.2058, 31, 0, 4145.641, 4113.846, 4061.026, 4124.615, 4126.667, 0, 0, []
1628616880.2136, 32, 0, 4136.41, 4104.615, 4054.359, 4120, 4111.282, 0, 0, []
1628616880.2215, 33, 0, 4138.462, 4137.436, 4081.026, 4143.59, 4119.487, 0, 0, []
1628616880.2294, 34, 0, 4143.59, 4142.564, 4081.538, 4151.795, 4130.256, 0, 0, []
1628616880.2372, 35, 0, 4133.846, 4109.231, 4061.538, 4126.667, 4116.41, 0, 0, []
1628616880.2451, 36, 0, 4131.795, 4113.846, 4065.128, 4116.41, 4107.179, 0, 0, []
1628616880.2528, 37, 0, 4154.359, 4150.769, 4078.974, 4144.103, 4126.154, 0, 0, []
1628616880.2607, 38, 0, 4158.974, 4155.897, 4091.795, 4160.513, 4130.256, 0, 0, []
1628616880.2685, 39, 0, 4128.718, 4114.872, 4081.026, 4135.897, 4105.641, 0, 0, []
1628616880.2764, 40, 0, 4123.077, 4108.718, 4077.949, 4123.077, 4100, 0, 0, []
1628616880.2842, 41, 0, 4156.41, 4158.974, 4097.436, 4146.154, 4123.59, 0, 0, []
1628616880.292, 42, 0, 4159.487, 4159.487, 4089.231, 4158.974, 4126.154, 0, 0, []
1628616880.2998, 43, 0, 4121.538, 4113.333, 4071.795, 4142.051, 4102.564, 0, 0, []
1628616880.3077, 44, 0, 4117.436, 4115.897, 4074.872, 4134.872, 4098.974, 0, 0, []
1628616880.3155, 45, 0, 4148.718, 4152.308, 4090.256, 4152.821, 4115.385, 0, 0, []
1628616880.3233, 46, 0, 4161.026, 4170.256, 4097.949, 4163.077, 4120.513, 0, 0, []
1628616880.3311, 47, 0, 4150.256, 4165.641, 4082.564, 4158.462, 4120.513, 0, 0, []
1628616880.3389, 48, 0, 4141.538, 4154.872, 4085.128, 4151.282, 4124.103, 0, 0, []
1628616880.3468, 49, 0, 4134.359, 4160, 4094.359, 4141.026, 4117.949, 0, 0, []
1628616880.3546, 50, 0, 4136.923, 4169.744, 4094.872, 4143.077, 4113.846, 0, 0, []
1628616880.3625, 51, 0, 4161.026, 4170.769, 4104.615, 4160.513, 4128.205, 0, 0, []
1628616880.3702, 52, 0, 4173.846, 4174.359, 4101.538, 4169.231, 4143.59, 0, 0, []
1628616880.378, 53, 1, 4170.769, 4173.732, 4098.917, 4165.413, 4141.766, 0, 0, []
1628616880.3859, 54, 1, 4167.692, 4173.105, 4096.296, 4161.595, 4139.943, 0, 0, []
1628616880.3938, 55, 1, 4164.615, 4172.479, 4093.675, 4157.778, 4138.12, 0, 0, []
1628616880.4017, 56, 1, 4161.538, 4171.852, 4091.054, 4153.96, 4136.296, 0, 0, []
1628616880.4095, 57, 1, 4158.462, 4171.225, 4088.433, 4150.142, 4134.473, 0, 0, []
1628616880.4174, 58, 1, 4155.385, 4170.598, 4085.812, 4146.325, 4132.65, 0, 0, []
1628616880.4253, 59, 1, 4152.308, 4169.972, 4083.191, 4142.507, 4130.826, 0, 0, []
1628616880.4332, 60, 1, 4149.231, 4169.345, 4080.57, 4138.689, 4129.003, 0, 0, []
1628616880.4411, 61, 0, 4146.154, 4168.718, 4077.949, 4134.872, 4127.179, 0, 0, []
1628616880.4488, 62, 0, 4162.051, 4186.154, 4101.538, 4149.231, 4144.615, 0, 0, []
1628616880.4567, 63, 0, 4158.974, 4177.949, 4098.462, 4151.282, 4130.256, 0, 0, []
1628616880.4645, 64, 0, 4158.462, 4178.974, 4100, 4154.872, 4124.103, 450, 0, []
1628616880.4724, 65, 0, 4173.333, 4201.538, 4111.795, 4164.103, 4150.769, 450, 0, []
1628616880.4802, 66, 0, 4170.256, 4206.154, 4115.385, 4158.974, 4151.795, 16181, 0, []
1628616880.488, 67, 0, 4145.641, 4176.923, 4085.641, 4138.462, 4115.385, 450, 0, []
1628616880.4958, 68, 0, 4140, 4177.949, 4071.282, 4141.026, 4107.179, 16136, 0, []
1628616880.5036, 69, 0, 4155.385, 4213.333, 4092.308, 4157.949, 4135.897, 450, 0, []
1628616880.5115, 70, 0, 4156.41, 4207.692, 4089.744, 4153.333, 4146.667, 16079, 0, []
1628616880.5194, 71, 0, 4151.795, 4186.154, 4081.026, 4141.538, 4133.846, 450, 0, []
1628616880.5272, 72, 0, 4166.154, 4199.487, 4082.564, 4150.769, 4133.333, 450, 0, []
1628616880.535, 73, 0, 4173.846, 4197.436, 4079.487, 4153.333, 4140, 16133, 0, []
1628616880.5429, 74, 0, 4160, 4180, 4077.949, 4134.872, 4138.974, 450, 0, []
1628616880.5507, 75, 0, 4172.821, 4200, 4093.846, 4149.231, 4155.897, 16196, 0, []
1628616880.5586, 76, 0, 4198.974, 4218.462, 4117.949, 4184.103, 4183.077, 450, 0, []
1628616880.5664, 77, 0, 4183.077, 4191.282, 4095.897, 4172.821, 4171.282, 450, 0, []
1628616880.5742, 78, 0, 4155.385, 4167.179, 4079.487, 4144.103, 4136.41, 450, 0, []
1628616880.582, 79, 0, 4170.256, 4178.974, 4109.744, 4152.821, 4132.821, 16196, 0, []
1628616880.5899, 80, 0, 4204.103, 4205.128, 4110.256, 4178.462, 4162.051, 450, 0, []
1628616880.5977, 81, 0, 4201.538, 4203.59, 4094.359, 4174.872, 4178.462, 450, 0, []
1628616880.6056, 82, 0, 4184.103, 4190.769, 4095.897, 4158.462, 4169.744, 450, 0, []
1628616880.6133, 83, 0, 4187.692, 4196.923, 4091.282, 4165.128, 4159.487, 16196, 0, []
1628616880.6212, 84, 0, 4185.128, 4193.333, 4076.923, 4163.59, 4152.821, 450, 0, []
1628616880.629, 85, 0, 4181.026, 4185.641, 4076.41, 4154.872, 4164.103, 450, 0, []
1628616880.6369, 86, 0, 4206.154, 4195.897, 4113.333, 4168.205, 4189.744, 450, 0, []
1628616880.6447, 87, 0, 4223.59, 4206.154, 4125.128, 4184.615, 4193.333, 16196, 0, []
1628616880.6524, 88, 0, 4199.487, 4204.103, 4102.564, 4178.974, 4174.359, 450, 0, []
1628616880.6603, 89, 0, 4174.872, 4195.385, 4103.59, 4164.615, 4158.974, 450, 0, []
1628616880.6681, 90, 0, 4175.385, 4185.128, 4090.769, 4153.846, 4152.821, 450, 0, []
1628616880.6759, 91, 0, 4173.333, 4183.077, 4073.846, 4147.179, 4145.128, 16196, 0, []
1628616880.6838, 92, 0, 4164.103, 4185.641, 4082.051, 4141.538, 4141.538, 450, 0, []
1628616880.6916, 93, 0, 4172.308, 4172.821, 4090.769, 4142.564, 4151.795, 450, 0, []
1628616880.6994, 94, 0, 4187.692, 4165.128, 4096.41, 4154.359, 4157.949, 450, 0, []
1628616880.7072, 95, 0, 4180, 4187.179, 4085.128, 4156.41, 4155.385, 16196, 0, []
1628616880.7151, 96, 0, 4173.333, 4205.128, 4082.564, 4148.718, 4160, 450, 0, []
1628616880.723, 97, 0, 4188.718, 4185.641, 4093.333, 4150.256, 4164.615, 450, 0, []
1628616880.7307, 98, 0, 4198.462, 4176.41, 4086.154, 4162.051, 4162.051, 450, 0, []
1628616880.7385, 99, 0, 4192.821, 4202.564, 4088.205, 4169.231, 4169.744, 16196, 0, []
1628616880.7464, 100, 0, 4199.487, 4196.41, 4094.359, 4170.256, 4187.692, 450, 0, []
1628616880.7543, 101, 0, 4211.282, 4165.128, 4086.667, 4159.487, 4180, 450, 0, []
1628616880.7621, 102, 0, 4213.846, 4185.641, 4076.41, 4143.077, 4168.205, 450, 0, []
1628616880.7698, 103, 0, 4237.949, 4205.641, 4091.795, 4156.41, 4204.103, 16196, 0, []
1628616880.7776, 104, 1, 4245.641, 4203.647, 4091.681, 4155.67, 4207.635, 14446.444, 0, []
1628616880.7855, 105, 1, 4253.333, 4201.652, 4091.567, 4154.929, 4211.168, 12696.889, 0, []
1628616880.7934, 106, 1, 4261.026, 4199.658, 4091.453, 4154.188, 4214.701, 10947.333, 0, []
1628616880.8013, 107, 1, 4268.718, 4197.664, 4091.339, 4153.447, 4218.234, 9197.778, 0, []
1628616880.8091, 108, 1, 4276.41, 4195.67, 4091.225, 4152.707, 4221.766, 7448.222, 0, []
1628616880.817, 109, 1, 4284.103, 4193.675, 4091.111, 4151.966, 4225.299, 5698.667, 0, []
1628616880.8249, 110, 1, 4291.795, 4191.681, 4090.997, 4151.225, 4228.832, 3949.111, 0, []
1628616880.8328, 111, 1, 4299.487, 4189.687, 4090.883, 4150.484, 4232.365, 2199.556, 0, []
1628616880.8407, 112, 0, 4307.179, 4187.692, 4090.769, 4149.744, 4235.897, 450, 0, []
1628616880.8484, 113, 0, 4310.256, 4187.179, 4090.769, 4152.308, 4240.513, 450, 0, []
1628616880.8563, 114, 0, 4291.795, 4171.795, 4085.128, 4149.744, 4232.821, 450, 0, []
1628616880.8642, 115, 0, 4251.282, 4160, 4065.641, 4123.077, 4193.846, 16196, 0, []
1628616880.8721, 116, 0, 4246.667, 4173.333, 4066.667, 4120.513, 4188.205, 450, 0, []
1628616880.8799, 117, 0, 4271.282, 4175.385, 4098.462, 4146.667, 4222.051, 450, 0, []
1628616880.8877, 118, 0, 4269.744, 4162.051, 4092.308, 4151.795, 4225.128, 450, 0, []
1628616880.8955, 119, 0, 4248.205, 4171.282, 4082.051, 4137.436, 4194.359, 16196, 0, []
1628616880.9034, 120, 0, 4243.59, 4191.795, 4091.795, 4141.026, 4187.179, 450, 0, []
1628616880.9112, 121, 0, 4242.051, 4184.615, 4089.231, 4154.359, 4200, 450, 0, []
1628616880.919, 122, 0, 4227.692, 4165.641, 4093.333, 4144.103, 4193.846, 450, 0, []
1628616880.9268, 123, 0, 4222.564, 4161.026, 4097.436, 4140.513, 4183.59, 16196, 0, []
1628616880.9347, 124, 0, 4214.872, 4149.231, 4094.359, 4146.667, 4183.59, 450, 0, []
1628616880.9426, 125, 0, 4198.974, 4138.974, 4084.103, 4135.897, 4181.026, 450, 0, []
1628616880.9504, 126, 0, 4207.692, 4161.538, 4078.462, 4139.487, 4178.974, 450, 0, []
1628616880.9583, 127, 0, 4225.641, 4187.179, 4096.41, 4161.538, 4183.077, 16196, 0, []
1628616880.966, 128, 0, 4217.436, 4183.077, 4096.41, 4160.513, 4181.026, 450, 0, []
1628616880.9739, 0, 0, 4197.949, 4168.205, 4074.872, 4136.923, 4159.487, 450, 0, []
1628616880.9818, 1, 0, 4187.692, 4173.333, 4054.872, 4125.641, 4138.974, 450, 0, []
1628616880.9897, 2, 0, 4191.795, 4175.385, 4054.872, 4133.846, 4150.769, 16182, 0, []
1628616880.9975, 3, 0, 4203.59, 4161.538, 4082.564, 4149.231, 4174.359, 450, 0, []
1628616881.0053, 4, 0, 4208.718, 4163.59, 4088.718, 4160.513, 4175.385, 16136, 0, []
1628616881.0131, 5, 0, 4204.103, 4172.821, 4080.513, 4158.974, 4164.103, 450, 0, []
1628616881.021, 6, 0, 4192.821, 4162.564, 4083.077, 4143.59, 4154.359, 16079, 0, []
1628616881.0288, 7, 0, 4179.487, 4149.744, 4074.359, 4131.282, 4146.667, 450, 0, []
1628616881.0367, 8, 0, 4186.667, 4169.231, 4074.359, 4130.769, 4150.256, 450, 0, []
1628616881.0444, 9, 0, 4211.282, 4181.026, 4085.641, 4136.41, 4169.231, 16133, 0, []
1628616881.0522, 10, 0, 4221.026, 4156.923, 4102.564, 4150.769, 4185.641, 450, 0, []
1628616881.0601, 11, 0, 4229.744, 4148.718, 4119.487, 4172.821, 4196.923, 16194, 0, []
1628616881.068, 12, 0, 4237.436, 4164.103, 4105.128, 4178.974, 4202.051, 450, 0, []
1628616881.0758, 13, 0, 4217.949, 4163.59, 4087.692, 4161.538, 4189.231, 450, 0, []
1628616881.0835, 14, 0, 4193.333, 4148.205, 4073.846, 4142.051, 4167.692, 450, 0, []
1628616881.0913, 15, 0, 4187.179, 4148.718, 4066.154, 4134.359, 4151.795, 16194, 0, []
1628616881.0991, 16, 1, 4188.262, 4152.764, 4068.148, 4133.219, 4152.365, 14394.667, 0, []
1628616881.107, 17, 1, 4189.345, 4156.809, 4070.142, 4132.08, 4152.934, 12595.333, 0, []
1628616881.1149, 18, 1, 4190.427, 4160.855, 4072.137, 4130.94, 4153.504, 10796, 0, []
1628616881.1227, 19, 1, 4191.51, 4164.9, 4074.131, 4129.801, 4154.074, 8996.667, 0, []
1628616881.1306, 20, 1, 4192.593, 4168.946, 4076.125, 4128.661, 4154.644, 7197.333, 0, []
1628616881.1385, 21, 1, 4193.675, 4172.991, 4078.12, 4127.521, 4155.214, 5398, 0, []
1628616881.1464, 22, 1, 4194.758, 4177.037, 4080.114, 4126.382, 4155.783, 3598.667, 0, []
1628616881.1543, 23, 1, 4195.84, 4181.083, 4082.108, 4125.242, 4156.353, 1799.333, 0, []
1628616881.1621, 24, 0, 4196.923, 4185.128, 4084.103, 4124.103, 4156.923, 0, 0, []
1628616881.17, 25, 0, 4188.205, 4161.026, 4094.872, 4139.487, 4161.538, 0, 0, []
1628616881.1778, 26, 0, 4202.564, 4160.513, 4116.923, 4158.462, 4163.59, 0, 0, []
1628616881.1857, 27, 0, 4204.615, 4173.846, 4105.641, 4154.359, 4158.974, 0, 0, []
1628616881.1935, 28, 0, 4186.667, 4166.154, 4093.846, 4135.897, 4149.231, 0, 0, []
1628616881.2014, 29, 0, 4185.128, 4163.077, 4106.154, 4129.744, 4142.051, 0, 0, []
1628616881.2091, 30, 0, 4197.436, 4182.051, 4107.179, 4138.974, 4145.641, 0, 0, []
1628616881.2169, 31, 0, 4197.436, 4180.513, 4101.538, 4142.564, 4157.949, 0, 0, []
1628616881.2247, 32, 0, 4208.718, 4182.564, 4092.821, 4144.103, 4175.897, 0, 0, []
1628616881.2325, 33, 0, 4220, 4192.821, 4087.179, 4146.667, 4169.744, 0, 0, []
1628616881.2404, 34, 0, 4204.103, 4175.385, 4084.103, 4141.538, 4145.641, 0, 0, []
1628616881.2481, 35, 0, 4186.667, 4167.179, 4088.205, 4143.077, 4144.615, 0, 0, []
1628616881.256, 36, 0, 4185.641, 4177.949, 4094.872, 4138.974, 4148.205, 0, 0, []
1628616881.2638, 37, 0, 4186.154, 4168.718, 4081.026, 4129.231, 4138.462, 0, 0, []
1628616881.2717, 38, 0, 4191.282, 4166.667, 4089.231, 4137.949, 4152.821, 0, 0, []
1628616881.2795, 39, 0, 4202.051, 4187.692, 4101.026, 4147.692, 4176.923, 0, 0, []
1628616881.2873, 40, 0, 4206.154, 4177.949, 4082.051, 4148.718, 4168.718, 0, 0, []
1628616881.2951, 41, 0, 4201.538, 4173.333, 4089.744, 4151.282, 4148.718, 0, 0, []
1628616881.303, 42, 0, 4184.103, 4183.077, 4091.282, 4145.641, 4136.923, 0, 0, []
1628616881.3108, 43, 0, 4171.795, 4162.051, 4070.256, 4132.308, 4129.231, 0, 0, []
1628616881.3186, 44, 1, 4172.707, 4163.362, 4073.276, 4134.188, 4129.63, 0, 0, []
1628616881.3264, 45, 1, 4173.618, 4164.672, 4076.296, 4136.068, 4130.028, 0, 0, []
