Timestamp, COUNTER, INTERPOLATED, AF3, T7, Pz, T8, AF4, RAW_CQ, MARKER_HARDWARE, MARKERS
1631431120.9438, 111, 0, 4126.154, 1767.692, 4087.692, 4124.615, 4128.205, 16201, 0, []
1631431120.9516, 112, 0, 4125.128, 1768.718, 4103.077, 4123.077, 4125.128, 450, 0, []
1631431120.9594, 113, 0, 4121.026, 1778.462, 4082.051, 4121.538, 4116.923, 450, 0, []
1631431120.9673, 114, 0, 4117.436, 1803.077, 4068.205, 4115.897, 4115.897, 450, 0, []
1631431120.9751, 115, 0, 4110.256, 1801.026, 4084.103, 4110.769, 4110.769, 16201, 0, []
1631431120.9831, 116, 0, 4104.615, 1806.667, 4060, 4112.821, 4100.513, 450, 0, []
1631431120.991, 117, 0, 4115.385, 1848.718, 4092.308, 4120, 4110.256, 450, 0, []
1631431120.9989, 118, 0, 4129.744, 1880.513, 4102.564, 4126.667, 4129.231, 450, 0, []
1631431121.0068, 119, 0, 4123.59, 1877.436, 4075.385, 4122.564, 4118.462, 16201, 0, []
1631431121.0148, 120, 0, 4108.205, 1882.051, 4082.051, 4108.205, 4093.333, 450, 0, []
1631431121.0227, 121, 0, 4109.744, 1908.205, 4073.333, 4110.256, 4099.487, 450, 0, []
1631431121.0307, 122, 0, 4127.179, 1934.359, 4103.59, 4123.59, 4126.667, 450, 0, []
1631431121.0385, 123, 0, 4140.513, 1953.846, 4108.205, 4129.231, 4142.564, 16201, 0, []
1631431121.0465, 124, 0, 4142.051, 1969.231, 4088.718, 4121.538, 4142.564, 450, 0, []
1631431121.0544, 125, 0, 4137.949, 1986.154, 4101.026, 4108.205, 4134.359, 450, 0, []
1631431121.0622, 126, 0, 4133.846, 2003.077, 4070.769, 4103.59, 4124.615, 450, 0, []
1631431121.0701, 127, 0, 4133.333, 2013.333, 4080, 4114.359, 4121.026, 16201, 0, []
1631431121.0778, 128, 0, 4137.949, 2036.41, 4089.231, 4124.615, 4130.256, 450, 0, []
1631431121.0857, 0, 0, 4144.103, 2071.282, 4071.795, 4120.513, 4136.41, 450, 0, []
1631431121.0935, 1, 0, 4147.692, 2087.692, 4100.513, 4115.897, 4133.846, 450, 0, []
1631431121.1014, 2, 0, 4140.513, 2101.538, 4083.59, 4111.795, 4128.205, 16210, 0, []
1631431121.1092, 3, 0, 4131.795, 2133.846, 4081.026, 4109.231, 4127.692, 450, 0, []
1631431121.117, 4, 0, 4136.923, 2151.282, 4094.359, 4115.385, 4136.41, 16070, 0, []
1631431121.1248, 5, 0, 4142.051, 2151.795, 4078.462, 4120, 4138.974, 450, 0, []
1631431121.1328, 6, 0, 4141.538, 2173.846, 4095.897, 4120.513, 4136.923, 235, 0, []
1631431121.1407, 7, 0, 4144.615, 2204.103, 4077.436, 4123.59, 4140, 450, 0, []
1631431121.1487, 8, 0, 4141.026, 2210.769, 4071.795, 4122.564, 4138.462, 450, 0, []
1631431121.1565, 9, 0, 4135.897, 2223.59, 4086.154, 4120.513, 4138.462, 16164, 0, []
1631431121.1645, 10, 0, 4138.462, 2244.615, 4078.462, 4125.128, 4145.641, 450, 0, []
1631431121.1724, 11, 0, 4133.846, 2250.256, 4104.615, 4133.846, 4143.077, 16204, 0, []
1631431121.1804, 12, 0, 4124.615, 2266.667, 4087.692, 4130.256, 4126.667, 450, 0, []
1631431121.1883, 13, 0, 4127.179, 2299.487, 4084.103, 4121.538, 4123.077, 450, 0, []
1631431121.1962, 14, 0, 4139.487, 2318.462, 4106.154, 4128.718, 4135.897, 450, 0, []
1631431121.2041, 15, 0, 4143.077, 2333.333, 4084.103, 4133.846, 4142.564, 16204, 0, []
1631431121.2119, 16, 0, 4135.897, 2357.949, 4096.41, 4122.564, 4137.949, 0, 0, []
1631431121.2198, 17, 0, 4135.385, 2375.385, 4088.205, 4125.641, 4144.615, 0, 0, []
1631431121.2276, 18, 0, 4141.538, 2376.923, 4079.487, 4137.949, 4148.205, 0, 0, []
1631431121.2354, 19, 0, 4137.949, 2385.128, 4090.256, 4128.718, 4133.333, 0, 0, []
1631431121.2432, 20, 0, 4137.436, 2413.846, 4077.949, 4124.103, 4134.872, 0, 0, []
1631431121.2511, 21, 0, 4152.821, 2453.333, 4117.436, 4144.615, 4161.538, 0, 0, []
1631431121.2589, 22, 0, 4160.513, 2469.744, 4114.359, 4147.179, 4166.667, 0, 0, []
1631431121.2668, 23, 0, 4154.872, 2476.41, 4094.872, 4130.256, 4152.821, 0, 0, []
1631431121.2745, 24, 0, 4151.282, 2499.487, 4115.385, 4126.154, 4153.846, 0, 0, []
1631431121.2824, 25, 0, 4148.205, 2512.821, 4083.59, 4128.718, 4154.359, 0, 0, []
1631431121.2902, 26, 0, 4154.872, 2525.641, 4096.923, 4141.538, 4152.308, 0, 0, []
1631431121.2982, 27, 0, 4172.821, 2560, 4110.769, 4162.051, 4163.077, 0, 0, []
1631431121.3061, 28, 0, 4166.667, 2580, 4088.718, 4157.949, 4164.615, 0, 0, []
1631431121.3141, 29, 0, 4145.128, 2571.282, 4099.487, 4140, 4147.179, 0, 0, []
1631431121.3219, 30, 0, 4142.564, 2576.41, 4089.744, 4134.359, 4134.872, 0, 0, []
1631431121.3299, 31, 0, 4144.615, 2606.154, 4102.564, 4131.282, 4136.923, 0, 0, []
1631431121.3378, 32, 0, 4137.436, 2627.179, 4094.359, 4127.179, 4140.513, 0, 0, []
1631431121.3458, 33, 0, 4139.487, 2645.128, 4080.513, 4130.769, 4137.436, 0, 0, []
1631431121.3537, 34, 0, 4152.821, 2667.179, 4113.846, 4140.513, 4143.077, 0, 0, []
1631431121.3616, 35, 0, 4162.051, 2673.333, 4091.795, 4150.769, 4162.564, 0, 0, []
1631431121.3695, 36, 0, 4153.333, 2667.179, 4092.821, 4149.231, 4161.538, 0, 0, []
1631431121.3773, 37, 0, 4148.718, 2680.513, 4106.667, 4143.59, 4152.821, 0, 0, []
1631431121.3852, 38, 0, 4169.744, 2704.615, 4090.769, 4151.282, 4168.205, 0, 0, []
1631431121.393, 39, 0, 4173.846, 2710.256, 4103.077, 4150.769, 4170.256, 0, 0, []
1631431121.4008, 40, 0, 4152.821, 2716.923, 4075.897, 4134.359, 4146.154, 0, 0, []
1631431121.4086, 41, 0, 4152.308, 2738.974, 4074.872, 4135.385, 4147.179, 0, 0, []
1631431121.4165, 42, 0, 4157.436, 2764.103, 4082.051, 4140.513, 4156.923, 0, 0, []
1631431121.4243, 43, 0, 4138.974, 2784.615, 4051.282, 4125.128, 4144.615, 0, 0, []
1631431121.4323, 44, 0, 4134.872, 2796.923, 4078.974, 4128.205, 4140.513, 0, 0, []
1631431121.4401, 45, 0, 4160, 2808.718, 4084.103, 4149.744, 4157.436, 0, 0, []
1631431121.4481, 46, 0, 4172.821, 2822.564, 4090.769, 4156.923, 4173.333, 0, 0, []
1631431121.456, 47, 0, 4163.077, 2838.462, 4108.205, 4154.359, 4169.744, 0, 0, []
1631431121.4639, 48, 0, 4150.769, 2851.282, 4082.051, 4148.718, 4153.333, 0, 0, []
1631431121.4718, 49, 0, 4146.667, 2866.667, 4092.308, 4141.538, 4146.667, 0, 0, []
1631431121.4797, 50, 0, 4155.897, 2886.667, 4084.615, 4140.513, 4165.641, 0, 0, []
1631431121.4877, 51, 0, 4168.205, 2901.026, 4079.487, 4144.615, 4180.513, 0, 0, []
1631431121.4956, 52, 0, 4164.615, 2911.282, 4091.282, 4139.487, 4172.821, 0, 0, []
1631431121.5035, 53, 0, 4160, 2920.513, 4073.846, 4142.564, 4169.231, 0, 0, []
1631431121.5115, 54, 0, 4162.564, 2933.846, 4103.59, 4154.359, 4167.692, 0, 0, []
1631431121.5193, 55, 0, 4157.949, 2953.333, 4101.026, 4156.41, 4159.487, 0, 0, []
1631431121.5271, 56, 0, 4143.077, 2970.256, 4082.051, 4147.179, 4150.769, 0, 0, []
1631431121.535, 57, 0, 4136.923, 2980, 4093.846, 4141.538, 4152.821, 0, 0, []
1631431121.5428, 58, 0, 4143.59, 2980, 4070.256, 4142.564, 4156.923, 0, 0, []
1631431121.5507, 59, 0, 4150.256, 2981.538, 4093.846, 4142.564, 4162.564, 0, 0, []
1631431121.5584, 60, 0, 4158.462, 3005.641, 4105.128, 4149.231, 4174.359, 0, 0, []
1631431121.5663, 61, 0, 4156.923, 3029.231, 4086.154, 4151.282, 4165.128, 0, 0, []
1631431121.5741, 62, 0, 4142.051, 3031.795, 4103.077, 4136.923, 4145.641, 0, 0, []
1631431121.582, 63, 0, 4146.154, 3055.385, 4096.41, 4141.026, 4157.436, 0, 0, []
1631431121.5898, 64, 0, 4166.667, 3080.513, 4115.897, 4161.538, 4181.026, 450, 0, []
1631431121.5977, 65, 0, 4173.846, 3081.026, 4104.615, 4157.949, 4176.41, 450, 0, []
1631431121.6054, 66, 0, 4167.179, 3100, 4076.923, 4145.641, 4168.718, 16184, 0, []
1631431121.6134, 67, 0, 4171.282, 3121.538, 4115.897, 4168.205, 4188.718, 450, 0, []
1631431121.6213, 68, 0, 4175.385, 3122.051, 4103.077, 4183.077, 4196.41, 16162, 0, []
1631431121.6293, 69, 0, 4160.513, 3137.436, 4080, 4158.462, 4175.897, 450, 0, []
1631431121.6372, 70, 0, 4150.256, 3157.436, 4070.769, 4134.872, 4162.051, 249, 0, []
1631431121.6451, 71, 0, 4152.821, 3153.846, 4072.308, 4134.872, 4167.692, 450, 0, []
1631431121.653, 72, 0, 4152.308, 3163.077, 4107.179, 4139.487, 4172.308, 450, 0, []
1631431121.661, 73, 0, 4143.077, 3193.846, 4075.385, 4135.385, 4161.538, 16165, 0, []
1631431121.6689, 74, 0, 4133.846, 3207.179, 4070.769, 4134.359, 4152.821, 450, 0, []
1631431121.6768, 75, 0, 4138.462, 3208.205, 4091.282, 4138.462, 4160, 16190, 0, []
1631431121.6846, 76, 0, 4150.769, 3221.026, 4073.846, 4137.436, 4172.308, 450, 0, []
1631431121.6924, 77, 0, 4154.872, 3238.974, 4097.436, 4141.026, 4172.821, 450, 0, []
1631431121.7003, 78, 0, 4143.077, 3245.128, 4080.513, 4142.051, 4160.513, 450, 0, []
1631431121.7081, 79, 0, 4126.667, 3248.718, 4062.564, 4133.846, 4150.769, 16190, 0, []
1631431121.716, 80, 0, 4126.667, 3268.718, 4076.923, 4135.385, 4150.256, 450, 0, []
1631431121.7237, 81, 0, 4129.231, 3269.744, 4064.615, 4137.949, 4152.821, 450, 0, []
1631431121.7316, 82, 0, 4122.564, 3252.821, 4076.923, 4133.333, 4145.128, 450, 0, []
1631431121.7394, 83, 0, 4123.59, 3279.487, 4066.154, 4129.744, 4146.154, 16190, 0, []
1631431121.7474, 84, 0, 4138.462, 3317.436, 4083.077, 4133.333, 4158.462, 450, 0, []
1631431121.7553, 85, 0, 4141.026, 3316.41, 4110.256, 4128.718, 4152.308, 450, 0, []
1631431121.7631, 86, 0, 4127.692, 3323.59, 4074.872, 4121.538, 4141.026, 450, 0, []
1631431121.7709, 87, 0, 4125.641, 3360, 4086.667, 4129.231, 4142.051, 16190, 0, []
1631431121.7789, 88, 0, 4126.154, 3375.385, 4079.487, 4136.923, 4141.538, 450, 0, []
1631431121.7868, 89, 0, 4125.128, 3353.846, 4063.59, 4134.359, 4135.385, 450, 0, []
1631431121.7948, 90, 0, 4137.949, 3353.333, 4099.487, 4133.846, 4149.231, 450, 0, []
1631431121.8026, 91, 0, 4157.949, 3390.256, 4093.846, 4147.692, 4173.846, 16190, 0, []
1631431121.8106, 92, 0, 4157.436, 3411.795, 4088.205, 4145.641, 4163.59, 450, 0, []
1631431121.8185, 93, 0, 4140.513, 3415.385, 4068.205, 4120, 4140, 450, 0, []
1631431121.8265, 94, 0, 4130.769, 3425.641, 4062.564, 4110.769, 4139.487, 450, 0, []
1631431121.8344, 95, 0, 4125.641, 3427.179, 4089.744, 4113.846, 4144.103, 16190, 0, []
1631431121.8421, 96, 0, 4125.641, 3423.077, 4068.718, 4111.282, 4134.872, 450, 0, []
1631431121.85, 97, 0, 4132.821, 3444.615, 4090.256, 4113.333, 4137.436, 450, 0, []
1631431121.8578, 98, 0, 4142.051, 3471.795, 4108.718, 4132.308, 4157.949, 450, 0, []
1631431121.8657, 99, 0, 4142.564, 3480, 4090.769, 4141.026, 4157.949, 16190, 0, []
1631431121.8735, 100, 0, 4137.949, 3496.923, 4099.487, 4136.923, 4149.231, 450, 0, []
1631431121.8813, 101, 0, 4140.513, 3523.59, 4072.821, 4137.949, 4152.821, 450, 0, []
1631431121.8891, 102, 0, 4140.513, 3528.205, 4079.487, 4135.385, 4151.282, 450, 0, []
1631431121.8971, 103, 0, 4139.487, 3513.333, 4085.641, 4129.744, 4143.077, 16190, 0, []
1631431121.905, 104, 0, 4144.103, 3514.359, 4068.205, 4129.744, 4154.359, 450, 0, []
1631431121.913, 105, 0, 4151.795, 3534.872, 4098.462, 4139.487, 4169.231, 450, 0, []
1631431121.9209, 106, 0, 4155.385, 3547.179, 4083.59, 4138.462, 4161.026, 450, 0, []
1631431121.9288, 107, 0, 4148.205, 3556.41, 4082.051, 4127.692, 4148.205, 16190, 0, []
1631431121.9367, 108, 0, 4141.026, 3572.308, 4087.692, 4125.641, 4145.641, 450, 0, []
1631431121.9447, 109, 0, 4152.308, 3581.026, 4066.667, 4132.821, 4153.846, 450, 0, []
1631431121.9526, 110, 0, 4171.795, 3594.359, 4101.026, 4151.795, 4172.308, 450, 0, []
1631431121.9606, 111, 0, 4161.538, 3610.256, 4092.308, 4155.385, 4170.256, 16190, 0, []
1631431121.9684, 112, 0, 4130.769, 3602.051, 4076.41, 4136.41, 4142.051, 450, 0, []
1631431121.9763, 113, 0, 4134.872, 3605.128, 4086.154, 4130.256, 4143.59, 450, 0, []
1631431121.9842, 114, 0, 4157.949, 3646.154, 4078.974, 4139.487, 4171.795, 450, 0, []
1631431121.992, 115, 0, 4157.949, 3653.333, 4102.051, 4133.333, 4166.154, 16190, 0, []
1631431121.9999, 116, 0, 4140, 3636.41, 4078.462, 4114.359, 4137.436, 450, 0, []
1631431122.0076, 117, 0, 4128.718, 3654.359, 4065.128, 4116.41, 4128.205, 450, 0, []
1631431122.0155, 118, 0, 4140.513, 3673.333, 4083.077, 4132.821, 4142.051, 450, 0, []
1631431122.0233, 119, 0, 4158.462, 3678.462, 4067.179, 4140.513, 4164.615, 16190, 0, []
1631431122.0312, 120, 0, 4159.487, 3688.718, 4094.872, 4139.487, 4170.256, 450, 0, []
1631431122.039, 121, 0, 4153.846, 3695.385, 4092.821, 4138.462, 4154.872, 450, 0, []
1631431122.0469, 122, 0, 4149.744, 3710.769, 4082.564, 4143.077, 4155.385, 450, 0, []
1631431122.0548, 123, 0, 4151.282, 3737.436, 4104.615, 4142.051, 4175.385, 16190, 0, []
1631431122.0628, 124, 0, 4166.667, 3741.026, 4087.179, 4133.333, 4178.462, 450, 0, []
1631431122.0707, 125, 0, 4166.667, 3731.282, 4106.154, 4126.154, 4165.641, 450, 0, []
1631431122.0787, 126, 0, 4144.615, 3750.256, 4106.154, 4132.308, 4163.077, 450, 0, []
1631431122.0865, 127, 0, 4153.333, 3767.179, 4096.41, 4149.231, 4177.436, 16190, 0, []
1631431122.0945, 128, 0, 4177.436, 3768.718, 4117.436, 4158.974, 4187.179, 450, 0, []
1631431122.1024, 0, 0, 4172.821, 3778.974, 4085.128, 4158.462, 4174.872, 450, 0, []
1631431122.1104, 1, 0, 4162.564, 3778.462, 4084.615, 4149.231, 4167.692, 450, 0, []
1631431122.1183, 2, 0, 4172.308, 3764.103, 4088.718, 4144.103, 4185.128, 16187, 0, []
1631431122.1262, 3, 0, 4180, 3773.846, 4079.487, 4150.769, 4186.667, 450, 0, []
1631431122.1341, 4, 0, 4173.333, 3807.179, 4102.564, 4148.718, 4168.205, 16156, 0, []
1631431122.1419, 5, 0, 4171.282, 3827.179, 4081.026, 4134.359, 4165.128, 450, 0, []
1631431122.1498, 6, 0, 4178.462, 3838.974, 4089.744, 4128.718, 4171.282, 262, 0, []
1631431122.1576, 7, 0, 4175.897, 3845.128, 4097.436, 4139.487, 4174.872, 450, 0, []
1631431122.1654, 8, 0, 4166.667, 3845.128, 4080, 4153.846, 4173.846, 450, 0, []
1631431122.1732, 9, 0, 4166.667, 3856.41, 4108.718, 4155.385, 4170.769, 16163, 0, []
1631431122.1811, 10, 0, 4167.692, 3857.949, 4093.846, 4145.128, 4171.282, 450, 0, []
1631431122.1889, 11, 0, 4167.179, 3855.897, 4093.846, 4144.103, 4169.231, 16194, 0, []
1631431122.1968, 12, 0, 4160, 3884.615, 4103.077, 4144.615, 4156.41, 450, 0, []
1631431122.2045, 13, 0, 4149.744, 3905.128, 4080, 4134.359, 4146.154, 450, 0, []
1631431122.2125, 14, 0, 4160, 3890.769, 4107.692, 4133.846, 4155.385, 450, 0, []
1631431122.2204, 15, 0, 4168.718, 3894.359, 4108.718, 4140.513, 4172.308, 16194, 0, []
1631431122.2284, 16, 0, 4154.359, 3919.487, 4100.513, 4140.513, 4165.641, 0, 0, []
1631431122.2363, 17, 0, 4146.667, 3924.103, 4097.949, 4139.487, 4151.795, 0, 0, []
1631431122.2443, 18, 0, 4156.41, 3917.949, 4084.103, 4141.026, 4160, 0, 0, []
1631431122.2521, 19, 0, 4157.949, 3923.59, 4109.744, 4142.051, 4164.103, 0, 0, []
1631431122.2601, 20, 0, 4155.897, 3946.154, 4087.692, 4131.795, 4154.359, 0, 0, []
1631431122.268, 21, 0, 4162.051, 3957.949, 4080.513, 4121.538, 4153.846, 0, 0, []
1631431122.276, 22, 0, 4161.026, 3945.641, 4102.051, 4118.462, 4152.308, 0, 0, []
1631431122.2839, 23, 0, 4148.205, 3936.41, 4080, 4118.974, 4145.128, 0, 0, []
1631431122.2916, 24, 0, 4142.564, 3946.667, 4102.051, 4128.718, 4141.538, 0, 0, []
1631431122.2995, 25, 0, 4148.718, 3959.487, 4096.923, 4138.974, 4146.154, 0, 0, []
1631431122.3073, 26, 0, 4151.282, 3964.615, 4083.077, 4133.846, 4156.41, 0, 0, []
1631431122.3152, 27, 0, 4152.821, 3973.333, 4104.103, 4131.282, 4160, 0, 0, []
1631431122.323, 28, 0, 4155.385, 3980, 4088.718, 4141.026, 4155.385, 0, 0, []
1631431122.3308, 29, 0, 4152.308, 3986.667, 4092.308, 4139.487, 4147.179, 0, 0, []
1631431122.3386, 30, 0, 4150.256, 3999.487, 4070.256, 4119.487, 4140.513, 0, 0, []
1631431122.3465, 31, 0, 4152.821, 4000, 4067.692, 4113.846, 4143.59, 0, 0, []
1631431122.3543, 32, 0, 4160.513, 3996.923, 4112.308, 4132.821, 4155.897, 0, 0, []
1631431122.3623, 33, 0, 4164.615, 4009.231, 4091.795, 4137.949, 4157.949, 0, 0, []
1631431122.3701, 34, 0, 4157.949, 4013.846, 4095.385, 4129.744, 4154.359, 0, 0, []
1631431122.3781, 35, 0, 4155.385, 4002.051, 4097.436, 4134.872, 4148.718, 0, 0, []
1631431122.386, 36, 0, 4158.462, 4021.538, 4074.872, 4127.179, 4139.487, 0, 0, []
1631431122.394, 37, 0, 4169.231, 4052.821, 4092.821, 4127.179, 4158.462, 0, 0, []
1631431122.4019, 38, 0, 4191.282, 4048.718, 4094.359, 4163.59, 4190.769, 0, 0, []
1631431122.4098, 39, 0, 4187.179, 4036.41, 4112.308, 4172.821, 4185.128, 0, 0, []
1631431122.4177, 40, 0, 4170.256, 4045.641, 4100, 4146.667, 4164.615, 0, 0, []
1631431122.4257, 41, 0, 4182.051, 4066.667, 4082.051, 4147.692, 4169.231, 0, 0, []
1631431122.4336, 42, 0, 4192.308, 4084.103, 4121.026, 4166.154, 4182.051, 0, 0, []
1631431122.4414, 43, 0, 4170.769, 4083.077, 4082.564, 4158.462, 4169.231, 0, 0, []
1631431122.4492, 44, 0, 4152.821, 4068.205, 4062.051, 4140.513, 4144.103, 0, 0, []
1631431122.457, 45, 0, 4160.513, 4070.256, 4088.205, 4149.744, 4150.769, 0, 0, []
1631431122.4649, 46, 0, 4170.256, 4081.026, 4084.103, 4167.692, 4166.154, 0, 0, []
1631431122.4728, 47, 0, 4168.718, 4087.692, 4098.462, 4155.897, 4160, 0, 0, []
1631431122.4807, 48, 0, 4169.744, 4103.59, 4083.077, 4138.462, 4162.051, 0, 0, []
1631431122.4884, 49, 0, 4178.974, 4111.282, 4090.256, 4145.641, 4167.692, 0, 0, []
1631431122.4963, 50, 0, 4171.282, 4103.077, 4095.897, 4143.077, 4153.333, 0, 0, []
1631431122.5041, 51, 0, 4150.769, 4106.667, 4065.641, 4127.692, 4136.923, 0, 0, []
1631431122.5121, 52, 0, 4150.769, 4121.538, 4095.897, 4131.282, 4137.949, 0, 0, []
1631431122.52, 53, 0, 4158.462, 4124.103, 4098.462, 4146.154, 4147.692, 0, 0, []
1631431122.528, 54, 0, 4154.359, 4119.487, 4092.821, 4153.333, 4151.795, 0, 0, []
1631431122.5358, 55, 0, 4152.308, 4139.487, 4098.974, 4145.128, 4151.282, 0, 0, []
1631431122.5438, 56, 0, 4163.59, 4163.077, 4074.872, 4134.872, 4154.872, 0, 0, []
1631431122.5517, 57, 0, 4168.205, 4151.795, 4092.821, 4135.897, 4150.256, 0, 0, []
1631431122.5597, 58, 0, 4165.641, 4143.077, 4086.154, 4143.59, 4143.59, 0, 0, []
1631431122.5676, 59, 0, 4172.821, 4168.205, 4084.103, 4155.385, 4157.949, 0, 0, []
1631431122.5755, 60, 0, 4177.949, 4168.718, 4103.59, 4152.308, 4167.179, 0, 0, []
1631431122.5834, 61, 0, 4171.795, 4136.41, 4077.949, 4143.077, 4156.41, 0, 0, []
1631431122.5912, 62, 0, 4162.564, 4144.615, 4091.795, 4149.744, 4151.282, 0, 0, []
1631431122.5991, 63, 0, 4164.615, 4179.487, 4089.231, 4149.231, 4157.949, 0, 0, []
1631431122.6069, 64, 0, 4162.564, 4169.231, 4076.41, 4133.333, 4154.872, 450, 0, []
1631431122.6147, 65, 0, 4156.923, 4150.256, 4095.385, 4132.821, 4142.051, 450, 0, []
1631431122.6225, 66, 0, 4156.923, 4172.821, 4072.308, 4137.436, 4138.462, 16192, 0, []
1631431122.6304, 67, 0, 4162.564, 4189.744, 4087.692, 4135.897, 4148.718, 450, 0, []
1631431122.6382, 68, 0, 4174.872, 4181.026, 4097.949, 4146.154, 4157.949, 16151, 0, []
1631431122.6461, 69, 0, 4170.769, 4185.128, 4088.205, 4158.974, 4156.923, 450, 0, []
1631431122.6538, 70, 0, 4153.846, 4196.41, 4100.513, 4154.359, 4150.769, 273, 0, []
1631431122.6617, 71, 0, 4158.462, 4208.718, 4070.769, 4136.41, 4144.615, 450, 0, []
1631431122.6695, 72, 0, 4182.564, 4231.282, 4092.308, 4143.59, 4161.538, 450, 0, []
1631431122.6775, 73, 0, 4193.846, 4241.026, 4108.718, 4170.769, 4184.103, 16162, 0, []
1631431122.6854, 74, 0, 4186.667, 4228.718, 4087.179, 4163.59, 4178.974, 450, 0, []
1631431122.6933, 75, 0, 4181.026, 4225.641, 4112.821, 4145.641, 4169.231, 16196, 0, []
1631431122.7012, 76, 0, 4173.333, 4237.949, 4094.359, 4154.359, 4161.538, 450, 0, []
1631431122.7092, 77, 0, 4165.641, 4247.692, 4088.205, 4153.846, 4149.744, 450, 0, []
1631431122.7171, 78, 0, 4169.231, 4247.179, 4100, 4146.154, 4154.872, 450, 0, []
1631431122.7251, 79, 0, 4175.897, 4246.667, 4089.231, 4160.513, 4162.564, 16196, 0, []
1631431122.7329, 80, 0, 4169.744, 4254.359, 4108.718, 4158.974, 4152.308, 450, 0, []
1631431122.7409, 81, 0, 4161.538, 4256.923, 4094.359, 4145.128, 4146.154, 450, 0, []
1631431122.7488, 82, 0, 4169.744, 4248.718, 4097.436, 4161.026, 4148.718, 450, 0, []
1631431122.7566, 83, 0, 4187.179, 4257.949, 4106.154, 4168.205, 4165.641, 16196, 0, []
1631431122.7645, 84, 0, 4201.538, 4277.949, 4089.231, 4156.41, 4197.949, 450, 0, []
1631431122.7722, 85, 0, 4202.564, 4289.231, 4115.385, 4160.513, 4196.41, 450, 0, []
1631431122.7801, 86, 0, 4185.641, 4293.846, 4088.205, 4153.333, 4169.744, 450, 0, []
1631431122.7879, 87, 0, 4180.513, 4288.205, 4071.795, 4133.846, 4171.282, 16196, 0, []
1631431122.7958, 88, 0, 4205.641, 4295.385, 4098.974, 4145.641, 4181.026, 450, 0, []
1631431122.8036, 89, 0, 4206.154, 4308.205, 4078.974, 4149.231, 4171.795, 450, 0, []
1631431122.8114, 90, 0, 4183.077, 4294.872, 4093.333, 4132.308, 4169.231, 450, 0, []
1631431122.8192, 91, 0, 4195.385, 4301.026, 4099.487, 4147.692, 4174.872, 16196, 0, []
1631431122.8272, 92, 0, 4202.564, 4320, 4097.436, 4158.462, 4175.385, 450, 0, []
1631431122.8351, 93, 0, 4183.59, 4302.564, 4104.615, 4141.026, 4178.974, 450, 0, []
1631431122.8431, 94, 0, 4180.513, 4290.769, 4085.128, 4141.026, 4167.179, 450, 0, []
1631431122.851, 95, 0, 4175.897, 4309.231, 4100, 4140, 4141.026, 16196, 0, []
1631431122.8589, 96, 0, 4155.897, 4299.487, 4076.923, 4126.667, 4141.538, 450, 0, []
1631431122.8668, 97, 0, 4155.897, 4280.513, 4062.051, 4134.872, 4146.667, 450, 0, []
1631431122.8748, 98, 0, 4163.077, 4294.359, 4091.795, 4140, 4140, 450, 0, []
1631431122.8827, 99, 0, 4166.154, 4298.462, 4076.41, 4128.205, 4152.308, 16196, 0, []
1631431122.8907, 100, 0, 4183.077, 4307.179, 4098.462, 4140.513, 4162.564, 450, 0, []
1631431122.8985, 101, 0, 4185.128, 4332.821, 4097.436, 4148.205, 4152.308, 450, 0, []
1631431122.9063, 102, 0, 4167.179, 4330.769, 4068.718, 4128.205, 4145.641, 450, 0, []
1631431122.9142, 103, 0, 4169.231, 4325.641, 4087.179, 4126.154, 4141.026, 16196, 0, []
1631431122.922, 104, 0, 4173.333, 4339.487, 4074.359, 4129.744, 4133.846, 450, 0, []
1631431122.9299, 105, 0, 4164.103, 4331.282, 4083.59, 4115.385, 4141.026, 450, 0, []
1631431122.9376, 106, 0, 4173.846, 4324.615, 4089.744, 4118.462, 4149.231, 450, 0, []
1631431122.9455, 107, 0, 4196.923, 4364.103, 4089.231, 4138.462, 4157.436, 16196, 0, []
1631431122.9533, 108, 0, 4202.051, 4380, 4123.59, 4143.59, 4175.897, 450, 0, []
1631431122.9612, 109, 0, 4202.051, 4366.154, 4107.179, 4142.564, 4171.282, 450, 0, []
1631431122.969, 110, 0, 4203.077, 4373.846, 4114.359, 4145.641, 4156.41, 450, 0, []
1631431122.9769, 111, 0, 4186.667, 4363.59, 4110.769, 4138.974, 4156.41, 16196, 0, []
1631431122.9848, 112, 0, 4176.41, 4342.051, 4075.897, 4134.359, 4154.872, 450, 0, []
1631431122.9928, 113, 0, 4181.538, 4356.41, 4097.949, 4138.462, 4151.282, 450, 0, []
1631431123.0007, 114, 0, 4178.462, 4378.462, 4083.59, 4134.359, 4150.769, 450, 0, []
1631431123.0087, 115, 0, 4175.897, 4376.41, 4083.59, 4131.282, 4144.615, 16196, 0, []
1631431123.0165, 116, 0, 4186.154, 4376.923, 4101.026, 4141.026, 4147.692, 450, 0, []
1631431123.0245, 117, 0, 4184.615, 4370.769, 4076.41, 4142.051, 4157.436, 450, 0, []
1631431123.0324, 118, 0, 4180, 4358.974, 4092.308, 4130.256, 4146.667, 450, 0, []
1631431123.0404, 119, 0, 4185.641, 4377.949, 4091.795, 4126.154, 4142.051, 16196, 0, []
1631431123.0483, 120, 0, 4181.538, 4405.641, 4092.821, 4135.897, 4152.308, 450, 0, []
1631431123.0562, 121, 0, 4187.692, 4410.769, 4106.667, 4148.205, 4156.41, 450, 0, []
1631431123.0641, 122, 0, 4202.051, 4398.974, 4089.231, 4149.744, 4163.077, 450, 0, []
1631431123.0719, 123, 0, 4198.462, 4391.795, 4100.513, 4144.615, 4169.231, 16196, 0, []
1631431123.0798, 124, 0, 4189.231, 4391.795, 4077.949, 4132.821, 4155.897, 450, 0, []
1631431123.0876, 125, 0, 4179.487, 4400.513, 4081.026, 4126.154, 4148.205, 450, 0, []
1631431123.0954, 126, 0, 4175.385, 4407.692, 4108.205, 4135.897, 4158.974, 450, 0, []
1631431123.1032, 127, 0, 4177.949, 4392.821, 4075.897, 4139.487, 4150.256, 16196, 0, []
1631431123.1111, 128, 0, 4171.795, 4389.744, 4091.282, 4135.897, 4139.487, 450, 0, []
1631431123.1189, 0, 0, 4168.205, 4415.385, 4084.615, 4144.103, 4151.282, 450, 0, []
1631431123.1268, 1, 0, 4182.051, 4411.795, 4072.308, 4143.59, 4155.897, 450, 0, []
1631431123.1346, 2, 0, 4186.154, 4392.308, 4098.462, 4132.821, 4153.333, 16192, 0, []
1631431123.1425, 3, 0, 4178.462, 4412.821, 4082.564, 4134.359, 4160, 450, 0, []
1631431123.1504, 4, 0, 4184.103, 4431.795, 4102.564, 4133.333, 4155.385, 16146, 0, []
1631431123.1584, 5, 0, 4183.59, 4421.026, 4106.667, 4123.59, 4148.718, 450, 0, []
1631431123.1663, 6, 0, 4181.538, 4423.077, 4098.462, 4133.846, 4162.564, 268, 0, []
1631431123.1743, 7, 0, 4195.385, 4431.795, 4111.795, 4145.641, 4163.59, 450, 0, []
1631431123.1821, 8, 0, 4200, 4431.795, 4086.667, 4133.846, 4157.949, 450, 0, []
1631431123.1901, 9, 0, 4198.974, 4429.744, 4111.795, 4131.282, 4173.846, 16166, 0, []
1631431123.198, 10, 0, 4215.385, 4429.744, 4108.718, 4140.513, 4185.641, 450, 0, []
1631431123.206, 11, 0, 4237.949, 4443.077, 4085.641, 4128.205, 4193.333, 16200, 0, []
1631431123.2139, 12, 0, 4268.718, 4455.897, 4115.385, 4125.128, 4235.385, 450, 0, []
1631431123.2216, 13, 0, 4325.128, 4444.615, 4095.897, 4144.103, 4285.128, 450, 0, []
1631431123.2295, 14, 0, 4378.974, 4424.615, 4105.641, 4145.641, 4308.205, 450, 0, []
1631431123.2373, 15, 0, 4415.897, 4434.359, 4120, 4134.872, 4343.077, 16200, 0, []
1631431123.2452, 16, 0, 4439.487, 4467.179, 4110.769, 4136.923, 4379.487, 0, 0, []
1631431123.253, 17, 0, 4444.103, 4476.923, 4127.179, 4133.846, 4381.538, 0, 0, []
1631431123.2608, 18, 0, 4444.103, 4467.179, 4100.513, 4127.179, 4375.897, 0, 0, []
1631431123.2686, 19, 0, 4433.333, 4467.692, 4119.487, 4137.436, 4364.615, 0, 0, []
1631431123.2765, 20, 0, 4404.103, 4472.821, 4134.359, 4144.615, 4327.692, 0, 0, []
1631431123.2843, 21, 0, 4372.308, 4463.59, 4108.205, 4131.282, 4283.59, 0, 0, []
1631431123.2923, 22, 0, 4341.538, 4458.974, 4126.667, 4111.795, 4257.949, 0, 0, []
1631431123.3001, 23, 0, 4307.692, 4465.641, 4104.103, 4106.667, 4250.769, 0, 0, []
1631431123.3081, 24, 0, 4286.667, 4456.41, 4112.821, 4121.026, 4245.641, 0, 0, []
1631431123.316, 25, 0, 4284.615, 4447.692, 4127.179, 4129.744, 4225.641, 0, 0, []
1631431123.324, 26, 0, 4278.462, 4454.359, 4104.615, 4120.513, 4208.718, 0, 0, []
1631431123.3319, 27, 0, 4265.128, 4464.103, 4137.436, 4122.051, 4217.949, 0, 0, []
1631431123.3398, 28, 0, 4259.487, 4460.513, 4129.231, 4138.462, 4218.974, 0, 0, []
1631431123.3477, 29, 0, 4257.949, 4456.41, 4124.103, 4140.513, 4195.385, 0, 0, []
1631431123.3557, 30, 0, 4249.231, 4472.821, 4124.103, 4121.538, 4182.564, 0, 0, []
1631431123.3636, 31, 0, 4241.538, 4481.026, 4103.59, 4118.974, 4187.692, 0, 0, []
1631431123.3714, 32, 0, 4245.641, 4470.769, 4137.949, 4141.538, 4188.205, 0, 0, []
1631431123.3792, 33, 0, 4242.564, 4475.385, 4117.436, 4140, 4181.026, 0, 0, []
1631431123.387, 34, 0, 4228.718, 4482.564, 4103.077, 4118.462, 4177.436, 0, 0, []
1631431123.3949, 35, 0, 4231.795, 4463.59, 4122.051, 4121.538, 4178.974, 0, 0, []
1631431123.4027, 36, 0, 4234.872, 4443.59, 4104.103, 4128.205, 4168.205, 0, 0, []
1631431123.4106, 37, 0, 4210.769, 4443.077, 4124.103, 4114.359, 4149.744, 0, 0, []
1631431123.4184, 38, 0, 4193.846, 4446.667, 4118.974, 4113.333, 4145.128, 0, 0, []
1631431123.4263, 39, 0, 4196.923, 4446.667, 4121.538, 4128.205, 4137.436, 0, 0, []
1631431123.4342, 40, 0, 4192.821, 4430.256, 4142.051, 4122.051, 4133.333, 0, 0, []
1631431123.4421, 41, 0, 4189.744, 4416.41, 4120.513, 4113.333, 4147.179, 0, 0, []
1631431123.4499, 42, 0, 4195.897, 4433.333, 4135.897, 4125.128, 4144.103, 0, 0, []
1631431123.4578, 43, 0, 4193.333, 4451.282, 4128.205, 4127.692, 4128.718, 0, 0, []
1631431123.4656, 44, 0, 4177.436, 4440.513, 4113.333, 4118.974, 4132.821, 0, 0, []
1631431123.4736, 45, 0, 4173.333, 4441.026, 4115.385, 4124.103, 4134.872, 0, 0, []
1631431123.4816, 46, 0, 4186.667, 4463.077, 4086.154, 4127.179, 4132.821, 0, 0, []
1631431123.4895, 47, 0, 4183.077, 4460, 4108.205, 4115.385, 4136.923, 0, 0, []
1631431123.4974, 48, 0, 4160, 4440.513, 4105.128, 4110.769, 4121.538, 0, 0, []
1631431123.5053, 49, 0, 4164.615, 4442.564, 4089.744, 4117.436, 4113.333, 0, 0, []
1631431123.5132, 50, 0, 4184.615, 4449.231, 4110.256, 4121.538, 4136.41, 0, 0, []
1631431123.5212, 51, 0, 4181.026, 4441.538, 4078.974, 4122.564, 4141.026, 0, 0, []
1631431123.5291, 52, 0, 4173.846, 4433.333, 4081.026, 4121.538, 4120, 0, 0, []
1631431123.5369, 53, 0, 4174.872, 4436.41, 4085.641, 4123.077, 4124.615, 0, 0, []
1631431123.5447, 54, 0, 4178.974, 4444.103, 4069.744, 4132.821, 4140, 0, 0, []
1631431123.5525, 55, 0, 4186.154, 4448.205, 4089.744, 4135.385, 4130.256, 0, 0, []
1631431123.5604, 56, 0, 4168.205, 4451.795, 4065.128, 4122.564, 4108.205, 0, 0, []
1631431123.5682, 57, 0, 4143.077, 4456.923, 4063.077, 4120.513, 4098.974, 0, 0, []
1631431123.5761, 58, 0, 4157.436, 4462.051, 4076.923, 4126.154, 4105.128, 0, 0, []
1631431123.5838, 59, 0, 4173.333, 4463.077, 4072.308, 4127.692, 4118.974, 0, 0, []
1631431123.5917, 60, 0, 4167.179, 4457.949, 4092.308, 4135.385, 4124.615, 0, 0, []
1631431123.5995, 61, 0, 4170.769, 4453.846, 4078.462, 4135.385, 4118.974, 0, 0, []
1631431123.6074, 62, 0, 4165.641, 4455.897, 4080.513, 4123.59, 4116.923, 0, 0, []
1631431123.6152, 63, 0, 4150.769, 4463.077, 4078.462, 4119.487, 4116.41, 0, 0, []
1631431123.6231, 64, 0, 4158.974, 4461.026, 4060.513, 4121.026, 4112.308, 450, 0, []
1631431123.631, 65, 0, 4166.154, 4440, 4090.769, 4126.154, 4117.949, 450, 0, []
1631431123.639, 66, 0, 4161.538, 4434.359, 4082.564, 4139.487, 4124.615, 16193, 0, []
1631431123.6469, 67, 0, 4170.769, 4456.41, 4081.538, 4146.667, 4129.744, 450, 0, []
1631431123.6549, 68, 0, 4173.846, 4462.564, 4096.923, 4143.59, 4138.462, 16144, 0, []
1631431123.6627, 69, 0, 4157.436, 4452.308, 4070.769, 4140.513, 4129.744, 450, 0, []
1631431123.6707, 70, 0, 4154.359, 4455.897, 4078.462, 4135.385, 4114.872, 268, 0, []
1631431123.6786, 71, 0, 4165.641, 4462.051, 4085.128, 4138.974, 4128.718, 450, 0, []
1631431123.6865, 72, 0, 4168.718, 4468.718, 4087.692, 4154.359, 4137.436, 450, 0, []
1631431123.6944, 73, 0, 4166.667, 4477.949, 4098.462, 4154.359, 4129.231, 16166, 0, []
1631431123.7021, 74, 0, 4167.179, 4466.154, 4090.256, 4147.179, 4137.949, 450, 0, []
1631431123.71, 75, 0, 4175.897, 4470.769, 4106.667, 4156.923, 4152.308, 16202, 0, []
1631431123.7178, 76, 0, 4190.256, 4505.641, 4097.949, 4161.538, 4153.333, 450, 0, []
1631431123.7257, 77, 0, 4190.769, 4499.487, 4096.41, 4151.282, 4156.923, 450, 0, []
1631431123.7335, 78, 0, 4185.641, 4472.821, 4118.462, 4157.436, 4157.436, 450, 0, []
1631431123.7414, 79, 0, 4187.692, 4485.641, 4091.795, 4167.179, 4148.205, 16202, 0, []
1631431123.7491, 80, 0, 4184.103, 4500, 4103.077, 4158.462, 4148.718, 450, 0, []
1631431123.757, 81, 0, 4185.128, 4486.154, 4121.026, 4156.41, 4156.923, 450, 0, []
1631431123.7648, 82, 0, 4196.41, 4470.256, 4107.692, 4157.949, 4156.923, 450, 0, []
1631431123.7728, 83, 0, 4188.718, 4475.385, 4113.846, 4142.564, 4150.769, 16202, 0, []
1631431123.7807, 84, 0, 4168.205, 4486.667, 4092.821, 4133.333, 4141.026, 450, 0, []
1631431123.7886, 85, 0, 4167.179, 4481.538, 4087.179, 4133.846, 4131.795, 450, 0, []
1631431123.7965, 86, 0, 4174.359, 4472.821, 4091.795, 4129.744, 4134.359, 450, 0, []
1631431123.8045, 87, 0, 4170.256, 4476.923, 4082.051, 4135.385, 4141.538, 16202, 0, []
1631431123.8124, 88, 0, 4166.154, 4477.436, 4095.385, 4140, 4134.872, 450, 0, []
1631431123.8204, 89, 0, 4164.615, 4473.333, 4077.949, 4132.821, 4127.179, 450, 0, []
1631431123.8282, 90, 0, 4168.718, 4481.538, 4082.564, 4144.103, 4135.897, 450, 0, []
1631431123.836, 91, 0, 4173.333, 4484.103, 4095.897, 4155.385, 4137.436, 16202, 0, []
1631431123.8439, 92, 0, 4158.462, 4470.256, 4069.744, 4138.462, 4122.051, 450, 0, []
1631431123.8517, 93, 0, 4148.718, 4475.385, 4078.462, 4132.308, 4116.923, 450, 0, []
1631431123.8596, 94, 0, 4166.667, 4503.59, 4080, 4146.667, 4125.641, 450, 0, []
1631431123.8673, 95, 0, 4167.179, 4509.231, 4083.077, 4145.641, 4128.205, 16202, 0, []
1631431123.8752, 96, 0, 4149.231, 4497.436, 4085.641, 4136.923, 4124.103, 450, 0, []
1631431123.883, 97, 0, 4152.308, 4504.103, 4070.769, 4137.949, 4121.538, 450, 0, []
1631431123.8909, 98, 0, 4156.923, 4515.385, 4097.436, 4140.513, 4117.949, 450, 0, []
1631431123.8987, 99, 0, 4150.256, 4525.641, 4085.641, 4135.385, 4112.821, 16202, 0, []
1631431123.9065, 100, 0, 4148.205, 4527.692, 4070.256, 4118.462, 4108.718, 450, 0, []
1631431123.9143, 101, 0, 4146.667, 4507.179, 4092.308, 4113.333, 4110.769, 450, 0, []
1631431123.9223, 102, 0, 4146.154, 4508.718, 4084.615, 4133.846, 4114.872, 450, 0, []
1631431123.9302, 103, 0, 4152.821, 4533.846, 4092.308, 4143.59, 4120, 16202, 0, []
1631431123.9382, 104, 0, 4160, 4521.538, 4089.231, 4136.41, 4129.231, 450, 0, []
1631431123.946, 105, 0, 4150.256, 4500.513, 4080.513, 4131.795, 4114.359, 450, 0, []
1631431123.954, 106, 1, 4146.61, 4501.026, 4079.43, 4130.769, 4111.453, 450, 0, []
1631431123.9619, 107, 1, 4142.963, 4501.538, 4078.348, 4129.744, 4108.547, 450, 0, []
1631431123.9698, 108, 1, 4139.316, 4502.051, 4077.265, 4128.718, 4105.641, 450, 0, []
1631431123.9777, 109, 1, 4135.67, 4502.564, 4076.182, 4127.692, 4102.735, 450, 0, []
1631431123.9855, 110, 1, 4132.023, 4503.077, 4075.1, 4126.667, 4099.829, 450, 0, []
1631431123.9934, 111, 1, 4128.376, 4503.59, 4074.017, 4125.641, 4096.923, 450, 0, []
1631431124.0013, 112, 1, 4124.729, 4504.103, 4072.934, 4124.615, 4094.017, 450, 0, []
1631431124.0092, 113, 1, 4121.083, 4504.615, 4071.852, 4123.59, 4091.111, 450, 0, []
1631431124.0171, 114, 0, 4117.436, 4505.128, 4070.769, 4122.564, 4088.205, 450, 0, []
1631431124.0249, 115, 0, 4129.231, 4516.41, 4068.205, 4127.179, 4107.692, 16202, 0, []
1631431124.0327, 116, 0, 4141.538, 4510.769, 4095.897, 4138.462, 4118.974, 450, 0, []
1631431124.0405, 117, 0, 4133.846, 4502.564, 4070.769, 4128.718, 4101.026, 450, 0, []
1631431124.0484, 118, 0, 4117.436, 4515.897, 4066.667, 4116.41, 4084.615, 450, 0, []
1631431124.0562, 119, 0, 4110.256, 4520.513, 4067.692, 4112.821, 4088.205, 16202, 0, []
1631431124.0641, 120, 0, 4114.872, 4506.667, 4049.744, 4102.051, 4091.795, 450, 0, []
1631431124.0718, 121, 0, 4123.59, 4508.718, 4068.718, 4098.462, 4083.59, 450, 0, []
1631431124.0797, 122, 0, 4119.487, 4517.949, 4060.513, 4111.795, 4078.462, 450, 0, []
1631431124.0875, 123, 0, 4100.513, 4501.538, 4060.513, 4112.308, 4077.436, 16202, 0, []
1631431124.0954, 124, 0, 4095.385, 4491.282, 4058.974, 4098.462, 4077.436, 450, 0, []
1631431124.1032, 125, 0, 4108.718, 4494.872, 4048.205, 4095.385, 4085.128, 450, 0, []
1631431124.111, 126, 0, 4108.205, 4488.718, 4074.359, 4098.974, 4082.051, 450, 0, []
1631431124.1188, 127, 0, 4100.513, 4492.821, 4059.487, 4102.564, 4068.718, 16202, 0, []
1631431124.1266, 128, 0, 4106.667, 4507.179, 4064.103, 4105.128, 4074.872, 450, 0, []
1631431124.1345, 0, 0, 4118.974, 4511.795, 4079.487, 4098.462, 4087.692, 450, 0, []
1631431124.1423, 1, 0, 4123.077, 4510.256, 4060.513, 4096.41, 4085.641, 450, 0, []
1631431124.1501, 2, 0, 4115.385, 4512.308, 4074.872, 4100, 4071.282, 16192, 0, []
1631431124.1579, 3, 0, 4104.615, 4514.359, 4060, 4092.821, 4057.949, 450, 0, []
1631431124.1658, 4, 0, 4109.231, 4524.615, 4065.641, 4090.769, 4068.205, 16142, 0, []
1631431124.1736, 5, 0, 4132.308, 4537.436, 4094.359, 4106.667, 4097.436, 450, 0, []
1631431124.1815, 6, 0, 4143.59, 4529.231, 4069.231, 4115.385, 4108.205, 234, 0, []
1631431124.1892, 7, 0, 4131.282, 4510.256, 4068.205, 4109.231, 4095.897, 450, 0, []
1631431124.1971, 8, 0, 4123.077, 4514.872, 4056.41, 4097.436, 4089.744, 450, 0, []
1631431124.2049, 9, 0, 4125.641, 4524.103, 4052.308, 4092.821, 4090.769, 16166, 0, []
1631431124.2128, 10, 0, 4123.077, 4501.538, 4067.692, 4098.462, 4088.205, 450, 0, []
1631431124.2206, 11, 0, 4120.513, 4493.846, 4053.333, 4101.538, 4085.128, 16202, 0, []
1631431124.2284, 12, 0, 4121.026, 4520.513, 4072.308, 4100.513, 4081.026, 450, 0, []
1631431124.2362, 13, 0, 4116.923, 4526.667, 4064.103, 4098.462, 4082.564, 450, 0, []
1631431124.2441, 14, 0, 4121.026, 4511.282, 4047.692, 4096.41, 4089.231, 450, 0, []
1631431124.2519, 15, 0, 4137.949, 4518.462, 4070.256, 4102.051, 4096.41, 16202, 0, []
1631431124.2598, 16, 0, 4143.59, 4527.179, 4063.59, 4109.744, 4098.462, 0, 0, []
1631431124.2675, 17, 0, 4129.231, 4514.872, 4069.744, 4107.179, 4092.821, 0, 0, []
1631431124.2754, 18, 0, 4126.154, 4521.538, 4055.897, 4103.077, 4093.333, 0, 0, []
1631431124.2832, 19, 0, 4136.923, 4532.308, 4048.205, 4104.615, 4100.513, 0, 0, []
1631431124.2911, 20, 0, 4140.513, 4524.103, 4075.897, 4109.744, 4098.974, 0, 0, []
1631431124.2989, 21, 0, 4136.41, 4519.487, 4062.051, 4112.308, 4094.359, 0, 0, []
1631431124.3066, 22, 0, 4135.385, 4512.308, 4072.308, 4104.615, 4100.513, 0, 0, []
1631431124.3145, 23, 0, 4141.026, 4511.282, 4074.359, 4104.615, 4102.051, 0, 0, []
1631431124.3223, 24, 0, 4142.051, 4535.897, 4062.051, 4119.487, 4097.436, 0, 0, []
1631431124.3302, 25, 0, 4150.769, 4550.256, 4084.615, 4129.744, 4115.385, 0, 0, []
1631431124.338, 26, 0, 4170.769, 4543.077, 4067.179, 4119.487, 4131.282, 0, 0, []
1631431124.3459, 27, 0, 4165.641, 4552.308, 4064.103, 4097.436, 4121.538, 0, 0, []
1631431124.3536, 28, 0, 4155.385, 4573.846, 4066.154, 4098.462, 4120, 0, 0, []
1631431124.3615, 29, 0, 4167.179, 4571.795, 4062.564, 4109.744, 4125.641, 0, 0, []
1631431124.3693, 30, 0, 4167.179, 4562.564, 4089.231, 4106.154, 4125.641, 0, 0, []
1631431124.3772, 31, 0, 4159.487, 4575.897, 4066.154, 4110.769, 4127.179, 0, 0, []
1631431124.385, 32, 0, 4167.179, 4589.744, 4066.667, 4117.949, 4125.128, 0, 0, []
1631431124.3928, 33, 0, 4163.59, 4588.205, 4086.154, 4113.333, 4118.462, 0, 0, []
1631431124.4006, 34, 0, 4157.949, 4593.846, 4065.641, 4119.487, 4123.077, 0, 0, []
1631431124.4085, 35, 0, 4171.282, 4591.795, 4071.795, 4121.538, 4132.821, 0, 0, []
1631431124.4163, 36, 0, 4166.667, 4572.821, 4056.41, 4104.615, 4127.179, 0, 0, []
1631431124.4242, 37, 0, 4147.179, 4583.077, 4062.564, 4104.103, 4109.231, 0, 0, []
1631431124.4319, 38, 0, 4152.821, 4611.282, 4082.051, 4113.846, 4105.641, 0, 0, []
1631431124.4397, 39, 0, 4164.103, 4601.538, 4067.179, 4112.821, 4122.051, 0, 0, []
1631431124.4476, 40, 0, 4157.949, 4591.795, 4080, 4114.872, 4118.462, 0, 0, []
1631431124.4554, 41, 0, 4150.256, 4608.718, 4064.615, 4110.769, 4105.128, 0, 0, []
1631431124.4633, 42, 0, 4154.359, 4596.923, 4056.923, 4100.513, 4114.359, 0, 0, []
1631431124.471, 43, 0, 4165.128, 4576.41, 4070.769, 4110.256, 4119.487, 0, 0, []
1631431124.4789, 44, 0, 4157.949, 4589.231, 4048.205, 4113.333, 4112.308, 0, 0, []
1631431124.4867, 45, 0, 4141.026, 4603.59, 4062.051, 4098.974, 4110.769, 0, 0, []
1631431124.4946, 46, 0, 4149.231, 4601.538, 4074.872, 4102.564, 4113.333, 0, 0, []
1631431124.5024, 47, 0, 4154.359, 4604.615, 4077.436, 4115.385, 4109.231, 0, 0, []
1631431124.5102, 48, 0, 4141.538, 4601.538, 4074.872, 4111.795, 4101.026, 0, 0, []
1631431124.5181, 49, 0, 4153.333, 4599.487, 4059.487, 4103.077, 4099.487, 0, 0, []
1631431124.526, 50, 0, 4169.744, 4624.103, 4099.487, 4108.205, 4112.821, 0, 0, []
1631431124.5338, 51, 0, 4160, 4628.718, 4093.846, 4117.436, 4127.692, 0, 0, []
1631431124.5416, 52, 0, 4160, 4597.949, 4065.128, 4113.846, 4126.154, 0, 0, []
1631431124.5494, 53, 0, 4163.59, 4593.846, 4089.744, 4108.718, 4116.923, 0, 0, []
1631431124.5573, 54, 0, 4147.692, 4613.846, 4074.359, 4109.231, 4103.59, 0, 0, []
1631431124.5651, 55, 0, 4140, 4607.692, 4079.487, 4108.718, 4095.385, 0, 0, []
1631431124.573, 56, 0, 4142.564, 4589.231, 4084.103, 4109.231, 4105.641, 0, 0, []
1631431124.5808, 57, 0, 4137.436, 4595.897, 4060, 4111.282, 4106.154, 0, 0, []
1631431124.5885, 58, 0, 4144.615, 4608.718, 4070.769, 4106.154, 4098.974, 0, 0, []
1631431124.5964, 59, 0, 4160.513, 4598.974, 4068.205, 4108.205, 4114.359, 0, 0, []
1631431124.6042, 60, 0, 4157.949, 4582.564, 4075.897, 4123.59, 4121.538, 0, 0, []
1631431124.6121, 61, 0, 4151.282, 4582.564, 4066.667, 4122.564, 4111.282, 0, 0, []
1631431124.6199, 62, 0, 4158.974, 4596.923, 4056.41, 4115.385, 4117.949, 0, 0, []
1631431124.6278, 63, 0, 4167.179, 4606.154, 4092.821, 4126.154, 4125.128, 0, 0, []
1631431124.6355, 64, 0, 4160.513, 4592.308, 4077.949, 4121.026, 4118.462, 450, 0, []
1631431124.6434, 65, 0, 4151.282, 4576.41, 4070.256, 4106.154, 4118.462, 450, 0, []
1631431124.6512, 66, 0, 4156.923, 4583.59, 4076.923, 4117.949, 4117.949, 16193, 0, []
1631431124.6591, 67, 0, 4157.436, 4590.769, 4059.487, 4128.718, 4113.846, 450, 0, []
1631431124.6669, 68, 0, 4150.256, 4567.692, 4069.231, 4118.974, 4115.385, 16142, 0, []
1631431124.6747, 69, 0, 4153.333, 4547.692, 4054.359, 4117.949, 4103.59, 450, 0, []
1631431124.6825, 70, 0, 4149.744, 4562.564, 4064.615, 4129.231, 4091.795, 262, 0, []
1631431124.6904, 71, 0, 4140.513, 4589.231, 4084.103, 4132.821, 4101.538, 450, 0, []
1631431124.6982, 72, 0, 4150.769, 4589.744, 4063.59, 4122.051, 4109.231, 450, 0, []
1631431124.7061, 73, 0, 4164.103, 4568.205, 4081.538, 4117.436, 4112.308, 16163, 0, []
1631431124.7138, 74, 0, 4168.718, 4579.487, 4077.436, 4136.41, 4122.564, 450, 0, []
1631431124.7217, 75, 0, 4168.205, 4596.923, 4072.821, 4145.128, 4124.615, 16203, 0, []
1631431124.7295, 76, 0, 4167.692, 4584.615, 4095.897, 4136.41, 4131.282, 450, 0, []
1631431124.7373, 77, 0, 4185.641, 4589.744, 4090.769, 4151.282, 4153.846, 450, 0, []
1631431124.7452, 78, 0, 4207.179, 4608.718, 4104.615, 4161.538, 4160, 450, 0, []
1631431124.753, 79, 0, 4195.897, 4611.282, 4087.692, 4138.462, 4150.256, 16203, 0, []
1631431124.7608, 80, 0, 4178.462, 4597.436, 4072.308, 4130.256, 4148.718, 450, 0, []
1631431124.7686, 81, 0, 4185.128, 4589.744, 4095.385, 4145.641, 4142.051, 450, 0, []
1631431124.7765, 82, 0, 4193.333, 4612.821, 4085.641, 4143.59, 4141.026, 450, 0, []
1631431124.7843, 83, 0, 4194.872, 4629.231, 4091.795, 4142.051, 4152.308, 16203, 0, []
1631431124.7921, 84, 0, 4202.564, 4615.385, 4077.949, 4154.359, 4151.282, 450, 0, []
1631431124.7999, 85, 0, 4208.718, 4631.282, 4069.744, 4155.385, 4147.179, 450, 0, []
1631431124.8078, 86, 0, 4209.231, 4688.205, 4098.974, 4150.769, 4167.179, 450, 0, []
1631431124.8156, 87, 0, 4213.846, 4706.667, 4087.692, 4156.41, 4177.436, 16203, 0, []
1631431124.8235, 88, 0, 4214.872, 4700, 4095.385, 4155.897, 4156.41, 450, 0, []
1631431124.8312, 89, 0, 4201.538, 4721.538, 4089.231, 4148.718, 4152.308, 450, 0, []
1631431124.8391, 90, 0, 4184.103, 4723.077, 4069.744, 4152.308, 4155.897, 450, 0, []
1631431124.8469, 91, 0, 4181.538, 4691.795, 4090.769, 4150.256, 4137.949, 16203, 0, []
1631431124.8548, 92, 0, 4191.795, 4688.205, 4082.051, 4141.026, 4140.513, 450, 0, []
1631431124.8626, 93, 0, 4199.487, 4696.923, 4092.308, 4142.051, 4158.462, 450, 0, []
1631431124.8704, 94, 0, 4204.103, 4683.59, 4097.436, 4143.59, 4152.821, 450, 0, []
1631431124.8782, 95, 0, 4203.59, 4677.949, 4082.051, 4138.974, 4151.282, 16203, 0, []
1631431124.8861, 96, 0, 4198.974, 4685.641, 4096.41, 4144.615, 4165.128, 450, 0, []
1631431124.8939, 97, 0, 4198.462, 4685.641, 4075.897, 4162.051, 4157.949, 450, 0, []
1631431124.9017, 98, 0, 4200, 4703.077, 4080.513, 4159.487, 4141.538, 450, 0, []
1631431124.9095, 99, 0, 4197.436, 4729.744, 4097.436, 4142.051, 4151.795, 16203, 0, []
1631431124.9173, 100, 0, 4200, 4735.385, 4091.282, 4137.436, 4164.615, 450, 0, []
1631431124.9252, 101, 0, 4206.154, 4756.41, 4113.846, 4124.615, 4151.282, 450, 0, []
1631431124.933, 102, 0, 4205.128, 4790.256, 4098.974, 4095.385, 4144.103, 450, 0, []
1631431124.9409, 103, 0, 4207.692, 4799.487, 4098.462, 4100, 4156.923, 16203, 0, []
1631431124.9487, 104, 0, 4217.436, 4807.179, 4102.564, 4142.051, 4151.795, 450, 0, []
1631431124.9565, 105, 0, 4219.487, 4814.359, 4079.487, 4169.231, 4141.026, 450, 0, []
1631431124.9643, 106, 0, 4215.897, 4811.282, 4109.231, 4172.308, 4162.051, 450, 0, []
1631431124.9722, 107, 0, 4216.41, 4821.026, 4108.205, 4174.359, 4177.436, 16203, 0, []
1631431124.98, 108, 0, 4214.872, 4835.897, 4090.256, 4174.872, 4150.769, 450, 0, []
1631431124.9879, 109, 0, 4211.795, 4821.538, 4093.333, 4160, 4141.026, 450, 0, []
1631431124.9956, 110, 0, 4212.821, 4801.026, 4085.128, 4141.538, 4166.154, 450, 0, []
1631431125.0035, 111, 0, 4212.821, 4817.949, 4105.641, 4135.897, 4159.487, 16203, 0, []
1631431125.0113, 112, 0, 4217.436, 4851.282, 4096.923, 4138.974, 4134.359, 450, 0, []
1631431125.0192, 113, 0, 4217.436, 4874.872, 4095.897, 4146.667, 4145.128, 450, 0, []
1631431125.027, 114, 0, 4211.282, 4902.564, 4109.744, 4169.744, 4165.128, 450, 0, []
1631431125.0348, 115, 0, 4216.923, 4926.154, 4082.564, 4190.256, 4160.513, 16203, 0, []
1631431125.0426, 116, 0, 4222.051, 4923.077, 4105.641, 4185.641, 4158.462, 450, 0, []
1631431125.0504, 117, 0, 4217.949, 4929.231, 4124.103, 4181.026, 4175.897, 450, 0, []
1631431125.0583, 118, 0, 4223.077, 4944.103, 4117.949, 4189.744, 4183.077, 450, 0, []
1631431125.0661, 119, 0, 4231.282, 4925.641, 4124.103, 4181.538, 4173.333, 16203, 0, []
1631431125.0739, 120, 0, 4225.128, 4922.051, 4100.513, 4155.385, 4170.256, 450, 0, []
1631431125.0817, 121, 0, 4224.103, 4958.974, 4119.487, 4157.436, 4176.923, 450, 0, []
1631431125.0896, 122, 0, 4236.41, 4973.333, 4124.103, 4184.615, 4173.846, 450, 0, []
1631431125.0974, 123, 0, 4235.897, 4975.897, 4100.513, 4187.692, 4159.487, 16203, 0, []
1631431125.1053, 124, 0, 4223.077, 4991.795, 4115.385, 4171.795, 4162.564, 450, 0, []
1631431125.113, 125, 0, 4215.385, 4985.641, 4102.564, 4172.308, 4173.333, 450, 0, []
1631431125.1209, 126, 0, 4212.308, 4980, 4105.128, 4170.769, 4155.897, 450, 0, []
1631431125.1287, 127, 0, 4215.385, 5001.538, 4106.667, 4156.41, 4142.051, 16203, 0, []
1631431125.1366, 128, 0, 4224.103, 5005.128, 4103.077, 4155.897, 4167.692, 450, 0, []
1631431125.1444, 0, 0, 4237.949, 5009.231, 4129.231, 4177.436, 4187.179, 450, 0, []
1631431125.1522, 1, 0, 4252.821, 5033.333, 4108.205, 4190.769, 4175.385, 450, 0, []
1631431125.16, 2, 0, 4248.205, 5028.205, 4109.744, 4179.487, 4169.231, 16192, 0, []
1631431125.1679, 3, 0, 4231.282, 5016.41, 4129.231, 4169.231, 4186.154, 450, 0, []
1631431125.1757, 4, 0, 4231.282, 5026.667, 4118.974, 4176.923, 4195.897, 16134, 0, []
1631431125.1836, 5, 0, 4234.872, 5023.59, 4116.923, 4178.974, 4176.41, 450, 0, []
1631431125.1913, 6, 0, 4224.103, 5029.231, 4082.564, 4156.923, 4159.487, 266, 0, []
1631431125.1992, 7, 0, 4208.718, 5066.667, 4083.077, 4147.692, 4164.103, 450, 0, []
1631431125.207, 8, 0, 4203.077, 5074.359, 4093.333, 4163.59, 4166.154, 450, 0, []
1631431125.2148, 9, 0, 4202.051, 5017.436, 4070.769, 4169.744, 4151.282, 16162, 0, []
1631431125.2227, 10, 0, 4196.923, 4940.513, 4089.744, 4162.564, 4146.154, 450, 0, []
1631431125.2304, 11, 0, 4204.103, 4889.231, 4085.641, 4166.154, 4163.077, 16203, 0, []
1631431125.2383, 12, 0, 4222.564, 4861.026, 4082.564, 4173.846, 4169.231, 450, 0, []
1631431125.2461, 13, 0, 4226.154, 4861.538, 4088.718, 4162.051, 4162.051, 450, 0, []
1631431125.254, 14, 0, 4225.641, 4893.846, 4073.846, 4148.718, 4175.385, 450, 0, []
1631431125.2618, 15, 0, 4236.923, 4908.205, 4102.564, 4162.051, 4193.333, 16203, 0, []
1631431125.2697, 16, 0, 4242.564, 4895.897, 4098.462, 4174.359, 4176.923, 0, 0, []
1631431125.2774, 17, 0, 4229.744, 4886.667, 4087.179, 4161.026, 4158.462, 0, 0, []
1631431125.2853, 18, 0, 4218.974, 4882.051, 4100, 4153.333, 4167.179, 0, 0, []
1631431125.2931, 19, 0, 4217.436, 4897.949, 4077.949, 4163.59, 4167.179, 0, 0, []
1631431125.301, 20, 0, 4216.41, 4949.744, 4094.872, 4159.487, 4151.282, 0, 0, []
1631431125.3088, 21, 0, 4203.077, 4977.436, 4094.872, 4147.179, 4147.692, 0, 0, []
1631431125.3166, 22, 0, 4184.615, 4959.487, 4085.128, 4154.872, 4146.154, 0, 0, []
1631431125.3244, 23, 0, 4186.154, 4967.179, 4106.154, 4172.821, 4129.744, 0, 0, []
1631431125.3323, 24, 0, 4191.282, 4988.718, 4085.641, 4165.128, 4125.128, 0, 0, []
1631431125.3401, 25, 0, 4189.744, 4978.974, 4085.641, 4149.231, 4142.564, 0, 0, []
1631431125.348, 26, 0, 4202.564, 4969.744, 4079.487, 4156.41, 4153.333, 0, 0, []
1631431125.3557, 27, 0, 4217.436, 4971.282, 4072.308, 4154.359, 4146.154, 0, 0, []
1631431125.3635, 28, 0, 4214.872, 4981.026, 4102.564, 4138.462, 4153.846, 0, 0, []
1631431125.3714, 29, 0, 4217.436, 4999.487, 4102.564, 4155.385, 4176.923, 0, 0, []
1631431125.3792, 30, 0, 4228.205, 5012.821, 4120, 4178.974, 4171.795, 0, 0, []
1631431125.3871, 31, 0, 4225.128, 5006.667, 4116.923, 4162.564, 4154.872, 0, 0, []
1631431125.3948, 32, 0, 4210.769, 5003.077, 4092.821, 4147.692, 4157.436, 0, 0, []
1631431125.4027, 33, 0, 4205.128, 5015.897, 4102.051, 4156.923, 4154.872, 0, 0, []
1631431125.4105, 34, 0, 4204.615, 5040.513, 4084.103, 4154.872, 4133.333, 0, 0, []
1631431125.4184, 35, 0, 4186.154, 5061.026, 4082.564, 4134.872, 4118.462, 0, 0, []
1631431125.4262, 36, 0, 4164.103, 5065.641, 4074.872, 4123.077, 4121.026, 0, 0, []
1631431125.434, 37, 0, 4170.256, 5080, 4060.513, 4136.41, 4122.051, 0, 0, []
1631431125.4418, 38, 0, 4196.41, 5155.897, 4101.026, 4159.487, 4127.692, 0, 0, []
1631431125.4497, 39, 0, 4203.59, 5396.41, 4101.026, 4164.103, 4149.744, 0, 0, []
1631431125.4575, 40, 0, 4187.692, 5814.359, 4088.205, 4150.769, 4152.821, 0, 0, []
1631431125.4654, 41, 0, 4183.077, 6448.205, 4079.487, 4142.564, 4130.769, 0, 0, []
1631431125.4731, 42, 0, 4189.744, 7188.718, 4067.692, 4135.897, 4120, 0, 0, []
1631431125.481, 43, 0, 4182.564, 7629.231, 4088.718, 4124.615, 4121.026, 0, 0, []
1631431125.4888, 44, 0, 4167.179, 7695.385, 4069.744, 4126.667, 4118.462, 0, 0, []
1631431125.4967, 45, 0, 4168.718, 7729.744, 4083.59, 4138.974, 4127.179, 0, 0, []
1631431125.5045, 46, 0, 4176.41, 7809.744, 4116.41, 4137.436, 4142.051, 0, 0, []
1631431125.5123, 47, 0, 4163.59, 7795.897, 4088.205, 4125.128, 4132.821, 0, 0, []
1631431125.5202, 48, 0, 4149.744, 7777.436, 4092.821, 4128.718, 4117.436, 0, 0, []
1631431125.528, 49, 0, 4153.846, 7777.436, 4096.923, 4140, 4121.538, 0, 0, []
1631431125.5358, 50, 0, 4155.385, 7775.385, 4086.667, 4143.077, 4123.077, 0, 0, []
1631431125.5437, 51, 0, 4150.256, 7783.59, 4072.308, 4137.949, 4115.385, 0, 0, []
1631431125.5515, 52, 0, 4161.026, 7686.154, 4052.308, 4137.436, 4120.513, 0, 0, []
1631431125.5593, 53, 0, 4181.538, 7600, 4087.692, 4153.333, 4133.846, 0, 0, []
1631431125.5672, 54, 0, 4189.231, 7672.308, 4094.872, 4169.231, 4137.436, 0, 0, []
1631431125.575, 55, 0, 4185.128, 7745.128, 4086.154, 4155.385, 4131.282, 0, 0, []
1631431125.5829, 56, 0, 4179.487, 7722.051, 4085.641, 4126.154, 4118.462, 0, 0, []
1631431125.5907, 57, 0, 4168.205, 7713.846, 4056.923, 4106.667, 4100, 0, 0, []
1631431125.5985, 58, 0, 4155.385, 7741.026, 4084.615, 4095.385, 4087.692, 0, 0, []
1631431125.6063, 59, 0, 4157.436, 7746.667, 4098.462, 4100.513, 4097.949, 0, 0, []
1631431125.6142, 60, 0, 4162.564, 7753.846, 4086.154, 4116.41, 4109.231, 0, 0, []
1631431125.622, 61, 0, 4156.41, 7760.513, 4099.487, 4119.487, 4108.205, 0, 0, []
1631431125.6299, 62, 0, 4156.41, 7752.821, 4080, 4119.487, 4114.872, 0, 0, []
1631431125.6376, 63, 0, 4160.513, 7755.897, 4082.564, 4131.795, 4118.974, 0, 0, []
1631431125.6455, 64, 0, 4159.487, 7764.615, 4082.051, 4139.487, 4116.41, 450, 0, []
1631431125.6533, 65, 0, 4156.41, 7743.077, 4078.462, 4133.333, 4117.949, 450, 0, []
1631431125.6611, 66, 0, 4148.205, 7723.59, 4093.846, 4121.026, 4107.692, 16180, 0, []
1631431125.669, 67, 0, 4141.026, 7743.077, 4069.231, 4112.308, 4089.231, 450, 0, []
1631431125.6768, 68, 0, 4154.359, 7755.897, 4077.949, 4117.949, 4094.872, 16302, 0, []
1631431125.6846, 69, 0, 4175.897, 7748.718, 4088.718, 4136.41, 4114.359, 450, 0, []
1631431125.6924, 70, 0, 4177.436, 7744.615, 4075.385, 4142.564, 4114.872, 261, 0, []
1631431125.7003, 71, 0, 4162.564, 7734.359, 4078.974, 4127.692, 4099.487, 450, 0, []
1631431125.7081, 72, 0, 4152.308, 7736.41, 4060, 4119.487, 4091.795, 450, 0, []
1631431125.7159, 73, 0, 4144.103, 7751.282, 4075.897, 4122.564, 4088.205, 16150, 0, []
1631431125.7237, 74, 0, 4135.385, 7734.359, 4077.949, 4110.769, 4075.897, 450, 0, []
1631431125.7316, 75, 0, 4135.385, 7755.897, 4057.436, 4101.026, 4080, 16202, 0, []
1631431125.7394, 76, 0, 4157.949, 7747.692, 4092.821, 4125.128, 4115.897, 450, 0, []
1631431125.7473, 77, 0, 4185.128, 7622.564, 4093.846, 4157.436, 4149.744, 450, 0, []
1631431125.755, 78, 0, 4183.077, 7536.923, 4088.718, 4161.538, 4150.769, 450, 0, []
1631431125.7629, 79, 0, 4163.59, 7494.872, 4087.179, 4147.692, 4131.795, 16202, 0, []
1631431125.7707, 80, 0, 4158.462, 7425.128, 4067.692, 4130.769, 4112.308, 450, 0, []
1631431125.7786, 81, 0, 4163.077, 7421.538, 4084.103, 4123.59, 4104.103, 450, 0, []
1631431125.7864, 82, 0, 4160, 7465.641, 4079.487, 4122.051, 4101.538, 450, 0, []
1631431125.7942, 83, 0, 4147.692, 7538.974, 4084.615, 4114.359, 4088.718, 16202, 0, []
1631431125.802, 84, 0, 4146.154, 7688.205, 4079.487, 4111.282, 4079.487, 450, 0, []
1631431125.8099, 85, 0, 4164.615, 7694.359, 4061.538, 4130.256, 4099.487, 450, 0, []
1631431125.8177, 86, 0, 4187.692, 7543.59, 4106.667, 4153.846, 4137.436, 450, 0, []
1631431125.8256, 87, 0, 4192.308, 7516.923, 4097.949, 4144.103, 4151.795, 16202, 0, []
1631431125.8333, 88, 0, 4180.513, 7317.436, 4070.256, 4122.051, 4138.462, 450, 0, []
1631431125.8411, 89, 0, 4182.051, 6883.59, 4085.128, 4132.821, 4133.846, 450, 0, []
1631431125.849, 90, 0, 4193.846, 6888.718, 4084.615, 4153.846, 4138.974, 450, 0, []
1631431125.8568, 91, 0, 4200, 7289.231, 4099.487, 4153.333, 4134.359, 16202, 0, []
1631431125.8647, 92, 0, 4206.154, 7268.718, 4089.744, 4152.308, 4136.41, 450, 0, []
1631431125.8725, 93, 0, 4203.59, 6988.718, 4085.641, 4150.256, 4140, 450, 0, []
1631431125.8803, 94, 0, 4185.128, 7129.231, 4092.308, 4128.718, 4131.282, 450, 0, []
1631431125.8881, 95, 0, 4173.846, 7428.718, 4064.615, 4112.308, 4128.205, 16202, 0, []
1631431125.896, 96, 0, 4188.718, 7446.154, 4090.769, 4125.128, 4148.718, 450, 0, []
1631431125.9038, 97, 0, 4207.692, 7395.897, 4109.744, 4146.154, 4171.282, 450, 0, []
1631431125.9117, 98, 0, 4200.513, 7403.077, 4094.359, 4153.846, 4166.154, 450, 0, []
1631431125.9194, 99, 0, 4192.308, 7215.897, 4101.026, 4152.821, 4155.897, 16202, 0, []
1631431125.9273, 100, 0, 4213.333, 6801.026, 4098.974, 4156.923, 4168.205, 450, 0, []
1631431125.9351, 101, 0, 4239.487, 6442.564, 4123.59, 4158.462, 4185.641, 450, 0, []
1631431125.943, 102, 0, 4234.359, 6276.41, 4120, 4143.077, 4184.103, 450, 0, []
1631431125.9508, 103, 0, 4212.308, 6121.538, 4097.949, 4131.282, 4175.897, 16202, 0, []
1631431125.9586, 104, 0, 4204.615, 5982.051, 4110.256, 4138.462, 4168.205, 450, 0, []
1631431125.9664, 105, 0, 4205.641, 5986.667, 4085.128, 4132.821, 4152.821, 450, 0, []
1631431125.9743, 106, 0, 4217.436, 5968.718, 4093.846, 4125.641, 4156.41, 450, 0, []
1631431125.9821, 107, 0, 4234.359, 5930.769, 4125.641, 4138.974, 4178.974, 16202, 0, []
1631431125.99, 108, 0, 4225.641, 5971.282, 4114.872, 4143.077, 4188.718, 450, 0, []
1631431125.9977, 109, 0, 4207.179, 5920.513, 4105.641, 4138.462, 4180.513, 450, 0, []
1631431126.0055, 110, 0, 4223.59, 5858.462, 4098.462, 4160, 4183.59, 450, 0, []
1631431126.0134, 111, 0, 4253.333, 6079.487, 4122.051, 4177.436, 4194.359, 16202, 0, []
1631431126.0212, 112, 0, 4243.077, 6408.718, 4117.436, 4148.205, 4181.538, 450, 0, []
1631431126.0291, 113, 0, 4215.897, 6650.769, 4091.282, 4118.462, 4168.205, 450, 0, []
1631431126.0368, 114, 0, 4211.282, 6698.974, 4116.41, 4127.179, 4178.974, 450, 0, []
1631431126.0447, 115, 0, 4224.103, 6447.692, 4112.308, 4143.077, 4188.718, 16202, 0, []
1631431126.0525, 116, 0, 4233.333, 6276.923, 4111.795, 4141.026, 4184.103, 450, 0, []
1631431126.0604, 117, 0, 4231.795, 6396.41, 4117.949, 4131.282, 4179.487, 450, 0, []
1631431126.0682, 118, 0, 4237.436, 6565.641, 4097.436, 4137.949, 4183.59, 450, 0, []
1631431126.076, 119, 0, 4246.667, 6695.897, 4115.897, 4155.897, 4193.333, 16202, 0, []
1631431126.0838, 120, 0, 4240.513, 6760, 4113.333, 4150.769, 4201.538, 450, 0, []
1631431126.0917, 121, 0, 4235.385, 6568.718, 4104.615, 4133.333, 4201.538, 450, 0, []
1631431126.0995, 122, 0, 4240, 6223.077, 4116.41, 4138.462, 4198.462, 450, 0, []
1631431126.1074, 123, 0, 4243.59, 6016.41, 4106.667, 4150.769, 4200.513, 16202, 0, []
1631431126.1151, 124, 0, 4251.282, 5949.231, 4120, 4145.641, 4197.949, 450, 0, []
1631431126.123, 125, 0, 4266.154, 5934.359, 4124.615, 4146.667, 4196.923, 450, 0, []
1631431126.1308, 126, 0, 4274.872, 6010.769, 4127.692, 4158.462, 4213.846, 450, 0, []
1631431126.1386, 127, 0, 4271.282, 6200, 4134.872, 4152.821, 4226.154, 16202, 0, []
1631431126.1465, 128, 0, 4266.154, 6204.103, 4112.308, 4146.667, 4224.615, 450, 0, []
1631431126.1542, 0, 0, 4268.718, 5778.462, 4125.641, 4153.333, 4220.513, 450, 0, []
1631431126.1621, 1, 0, 4282.564, 5490.769, 4132.821, 4154.872, 4223.077, 450, 0, []
1631431126.1699, 2, 0, 4286.667, 5921.026, 4126.154, 4152.308, 4221.538, 16184, 0, []
1631431126.1778, 3, 0, 4277.949, 6528.718, 4140.513, 4154.872, 4211.795, 450, 0, []
1631431126.1856, 4, 0, 4280, 6505.641, 4129.744, 4155.385, 4220.513, 149, 0, []
1631431126.1935, 5, 0, 4278.974, 6074.359, 4132.821, 4150.256, 4232.308, 450, 0, []
1631431126.2012, 6, 0, 4267.179, 5887.692, 4130.769, 4161.538, 4225.641, 260, 0, []
1631431126.2091, 7, 0, 4268.718, 5919.487, 4124.615, 4174.872, 4217.436, 450, 0, []
1631431126.2169, 8, 0, 4275.897, 5854.872, 4132.308, 4153.846, 4207.179, 450, 0, []
1631431126.2248, 9, 0, 4272.821, 5755.385, 4101.026, 4129.231, 4196.923, 16154, 0, []
1631431126.2326, 10, 0, 4273.846, 5742.564, 4105.641, 4136.923, 4203.59, 450, 0, []
1631431126.2404, 11, 0, 4278.462, 5826.154, 4129.744, 4143.59, 4220.513, 16201, 0, []
1631431126.2482, 12, 0, 4276.923, 6011.282, 4130.769, 4142.564, 4230.256, 450, 0, []
1631431126.2561, 13, 0, 4285.641, 6142.564, 4151.282, 4164.103, 4240.513, 450, 0, []
1631431126.2639, 14, 0, 4297.436, 6063.077, 4140.513, 4174.359, 4242.564, 450, 0, []
1631431126.2718, 15, 0, 4291.795, 5974.872, 4127.692, 4150.769, 4229.744, 16201, 0, []
1631431126.2795, 16, 0, 4294.359, 5955.897, 4123.59, 4141.538, 4228.205, 0, 0, []
1631431126.2873, 17, 0, 4303.077, 5802.051, 4120, 4152.308, 4233.846, 0, 0, []
1631431126.2952, 18, 0, 4295.385, 5697.949, 4143.077, 4155.897, 4237.436, 0, 0, []
1631431126.303, 19, 0, 4293.333, 5838.462, 4138.974, 4161.538, 4250.769, 0, 0, []
1631431126.3109, 20, 0, 4297.436, 5910.769, 4142.564, 4177.436, 4253.846, 0, 0, []
1631431126.3186, 21, 0, 4288.718, 5838.974, 4136.923, 4181.538, 4236.923, 0, 0, []
1631431126.3265, 22, 0, 4281.538, 5841.538, 4106.667, 4163.077, 4225.641, 0, 0, []
1631431126.3343, 23, 0, 4303.59, 5893.846, 4133.846, 4154.872, 4235.897, 0, 0, []
1631431126.3422, 24, 0, 4323.077, 5907.692, 4145.641, 4168.718, 4248.718, 0, 0, []
1631431126.35, 25, 0, 4308.718, 5897.436, 4136.923, 4172.821, 4244.615, 0, 0, []
1631431126.3578, 26, 0, 4294.872, 5862.051, 4141.026, 4167.179, 4243.59, 0, 0, []
1631431126.3656, 27, 0, 4300, 5827.179, 4129.231, 4175.897, 4252.821, 0, 0, []
1631431126.3735, 28, 0, 4297.436, 5786.667, 4135.897, 4182.564, 4247.692, 0, 0, []
1631431126.3813, 29, 0, 4290.769, 5689.744, 4126.154, 4185.641, 4241.026, 0, 0, []
1631431126.3892, 30, 0, 4310.256, 5700.513, 4133.333, 4199.487, 4254.359, 0, 0, []
1631431126.3969, 31, 0, 4322.051, 5705.641, 4149.231, 4195.385, 4254.872, 0, 0, []
1631431126.4048, 32, 0, 4301.026, 5393.333, 4117.436, 4171.282, 4231.795, 0, 0, []
1631431126.4126, 33, 0, 4292.308, 5063.077, 4122.564, 4164.103, 4223.59, 0, 0, []
1631431126.4205, 34, 0, 4293.333, 5048.718, 4126.667, 4168.205, 4232.821, 0, 0, []
1631431126.4283, 35, 0, 4284.103, 5202.051, 4115.897, 4169.744, 4236.923, 0, 0, []
1631431126.436, 36, 0, 4284.103, 5485.641, 4122.564, 4172.308, 4227.179, 0, 0, []
1631431126.4439, 37, 0, 4293.846, 5835.385, 4107.692, 4168.205, 4214.872, 0, 0, []
1631431126.4517, 38, 0, 4296.923, 5903.077, 4126.667, 4170.256, 4225.128, 0, 0, []
1631431126.4596, 39, 0, 4301.026, 5777.436, 4136.923, 4188.718, 4248.718, 0, 0, []
1631431126.4674, 40, 0, 4301.538, 5811.282, 4122.564, 4185.641, 4252.821, 0, 0, []
1631431126.4752, 41, 0, 4291.282, 5773.333, 4133.846, 4167.179, 4244.103, 0, 0, []
1631431126.483, 42, 0, 4294.872, 5491.795, 4134.359, 4182.051, 4250.256, 0, 0, []
1631431126.4909, 43, 0, 4308.718, 5198.974, 4144.103, 4206.667, 4260, 0, 0, []
1631431126.4988, 44, 0, 4312.821, 5028.205, 4135.897, 4201.538, 4251.282, 0, 0, []
1631431126.5067, 45, 0, 4309.744, 5063.077, 4118.462, 4189.231, 4234.359, 0, 0, []
1631431126.5145, 46, 0, 4296.41, 5226.154, 4121.538, 4177.949, 4224.615, 0, 0, []
1631431126.5223, 47, 0, 4286.667, 5332.821, 4102.051, 4165.641, 4232.308, 0, 0, []
1631431126.5301, 48, 0, 4301.026, 5477.949, 4119.487, 4183.077, 4251.795, 0, 0, []
1631431126.538, 49, 0, 4320.513, 5606.154, 4141.026, 4213.333, 4263.59, 0, 0, []
1631431126.5458, 50, 0, 4326.154, 5384.615, 4118.974, 4208.718, 4261.538, 0, 0, []
1631431126.5537, 51, 0, 4331.282, 5177.949, 4125.641, 4196.923, 4259.487, 0, 0, []
1631431126.5614, 52, 0, 4332.821, 5427.179, 4121.026, 4203.59, 4258.462, 0, 0, []
1631431126.5693, 53, 0, 4317.436, 5531.795, 4111.795, 4191.282, 4251.795, 0, 0, []
1631431126.5771, 54, 0, 4313.333, 5328.205, 4113.846, 4175.897, 4258.974, 0, 0, []
1631431126.585, 55, 0, 4326.667, 5480, 4105.641, 4188.718, 4267.692, 0, 0, []
1631431126.5928, 56, 0, 4326.154, 5818.974, 4115.897, 4202.051, 4256.41, 0, 0, []
1631431126.6005, 57, 0, 4331.795, 5826.667, 4106.154, 4197.436, 4261.026, 0, 0, []
1631431126.6084, 58, 0, 4371.282, 5783.59, 4110.769, 4196.41, 4301.026, 0, 0, []
1631431126.6162, 59, 0, 4430.256, 5923.077, 4125.641, 4212.821, 4355.897, 0, 0, []
1631431126.6241, 60, 0, 4493.846, 5940.513, 4115.385, 4220, 4418.462, 0, 0, []
1631431126.6319, 61, 0, 4546.667, 5832.308, 4133.333, 4204.615, 4469.231, 0, 0, []
1631431126.6397, 62, 0, 4569.231, 5795.385, 4127.179, 4196.923, 4490.256, 0, 0, []
1631431126.6475, 63, 0, 4566.154, 5729.231, 4116.41, 4200, 4489.744, 0, 0, []
1631431126.6554, 64, 0, 4559.487, 5612.821, 4121.026, 4187.179, 4483.59, 450, 0, []
1631431126.6632, 65, 0, 4562.051, 5614.872, 4104.103, 4177.949, 4483.59, 450, 0, []
1631431126.6711, 66, 0, 4558.974, 5533.333, 4122.051, 4191.795, 4476.923, 16181, 0, []
1631431126.6788, 67, 0, 4540.513, 5137.949, 4126.154, 4200.513, 4454.359, 450, 0, []
1631431126.6867, 68, 0, 4510.256, 4781.026, 4113.846, 4193.846, 4426.667, 16080, 0, []
1631431126.6945, 69, 0, 4472.821, 4771.282, 4127.692, 4182.564, 4398.974, 450, 0, []
1631431126.7024, 70, 0, 4442.051, 4914.359, 4110.769, 4172.308, 4374.359, 263, 0, []
1631431126.7102, 71, 0, 4423.59, 5083.077, 4102.564, 4171.795, 4360, 450, 0, []
1631431126.718, 72, 0, 4401.026, 5331.282, 4091.795, 4174.872, 4347.179, 450, 0, []
1631431126.7258, 73, 0, 4372.821, 5395.897, 4077.436, 4168.718, 4318.462, 16158, 0, []
1631431126.7337, 74, 0, 4373.846, 5220.513, 4096.923, 4174.359, 4307.692, 450, 0, []
1631431126.7415, 75, 0, 4396.41, 5202.051, 4103.59, 4195.897, 4329.744, 16194, 0, []
1631431126.7494, 76, 0, 4390.256, 5354.359, 4118.974, 4195.897, 4330.256, 450, 0, []
1631431126.7571, 77, 0, 4369.231, 5422.564, 4117.949, 4179.487, 4297.436, 450, 0, []
1631431126.7649, 78, 0, 4375.385, 5361.026, 4118.974, 4190.769, 4292.821, 450, 0, []
1631431126.7728, 79, 0, 4383.59, 5311.795, 4148.205, 4207.692, 4315.897, 16194, 0, []
1631431126.7806, 80, 0, 4358.462, 5363.59, 4119.487, 4184.103, 4306.667, 450, 0, []
1631431126.7885, 81, 0, 4332.821, 5360.513, 4105.128, 4161.538, 4283.59, 450, 0, []
1631431126.7962, 82, 0, 4332.821, 5221.538, 4109.231, 4174.359, 4282.564, 450, 0, []
1631431126.8041, 83, 0, 4336.41, 5089.231, 4098.974, 4189.744, 4282.051, 16194, 0, []
1631431126.8119, 84, 0, 4336.41, 4980.513, 4120, 4191.795, 4267.692, 450, 0, []
1631431126.8198, 85, 0, 4323.077, 4784.103, 4110.256, 4181.538, 4248.205, 450, 0, []
1631431126.8276, 86, 0, 4289.231, 4561.538, 4099.487, 4158.974, 4230.256, 450, 0, []
1631431126.8355, 87, 0, 4276.923, 4433.846, 4104.615, 4147.692, 4228.718, 16194, 0, []
1631431126.8432, 88, 0, 4294.872, 4572.821, 4094.359, 4154.872, 4236.41, 450, 0, []
1631431126.8511, 89, 0, 4301.026, 4969.744, 4102.051, 4154.872, 4234.359, 450, 0, []
1631431126.8589, 90, 0, 4288.718, 5193.846, 4094.872, 4147.179, 4232.308, 450, 0, []
1631431126.8668, 91, 0, 4276.923, 5157.436, 4102.564, 4152.821, 4234.872, 16194, 0, []
1631431126.8746, 92, 0, 4280, 5144.103, 4105.128, 4167.179, 4230.769, 450, 0, []
1631431126.8824, 93, 0, 4291.282, 5144.615, 4080.513, 4179.487, 4219.487, 450, 0, []
1631431126.8902, 94, 0, 4287.179, 5160, 4098.974, 4174.359, 4208.718, 450, 0, []
1631431126.898, 95, 0, 4273.333, 5230.256, 4098.462, 4155.385, 4214.872, 16194, 0, []
1631431126.9059, 96, 0, 4284.103, 5261.538, 4095.385, 4157.949, 4235.897, 450, 0, []
1631431126.9138, 97, 0, 4289.744, 5222.051, 4112.308, 4164.615, 4231.795, 450, 0, []
1631431126.9215, 98, 0, 4268.205, 5170.256, 4090.256, 4145.641, 4194.872, 450, 0, []
1631431126.9293, 99, 0, 4267.179, 5198.974, 4096.41, 4135.897, 4185.641, 16194, 0, []
1631431126.9372, 100, 0, 4285.641, 5253.846, 4100.513, 4153.333, 4214.872, 450, 0, []
1631431126.945, 101, 0, 4280, 5205.128, 4086.667, 4154.872, 4219.487, 450, 0, []
1631431126.9529, 102, 0, 4270.769, 5126.154, 4097.436, 4148.205, 4205.641, 450, 0, []
1631431126.9606, 103, 0, 4282.564, 5123.077, 4104.615, 4164.103, 4211.795, 16194, 0, []
1631431126.9685, 104, 0, 4282.564, 5098.974, 4123.077, 4168.205, 4218.462, 450, 0, []
1631431126.9763, 105, 0, 4265.641, 5047.179, 4113.846, 4158.974, 4217.436, 450, 0, []
1631431126.9842, 106, 0, 4262.051, 5018.974, 4098.974, 4169.231, 4221.026, 450, 0, []
1631431126.992, 107, 0, 4267.179, 4932.821, 4098.462, 4172.821, 4201.026, 16194, 0, []
1631431126.9998, 108, 0, 4265.641, 4878.462, 4081.538, 4156.41, 4176.923, 450, 0, []
1631431127.0076, 109, 0, 4264.103, 4944.103, 4109.231, 4156.923, 4195.385, 450, 0, []
1631431127.0155, 110, 0, 4265.128, 4956.923, 4119.487, 4166.667, 4211.795, 450, 0, []
1631431127.0233, 111, 0, 4259.487, 4866.154, 4100.513, 4156.41, 4191.795, 16194, 0, []
1631431127.0312, 112, 0, 4256.923, 4854.872, 4118.974, 4149.744, 4175.385, 450, 0, []
1631431127.0389, 113, 0, 4264.615, 4933.333, 4117.436, 4152.308, 4187.179, 450, 0, []
1631431127.0468, 114, 0, 4261.538, 4913.846, 4122.564, 4153.846, 4199.487, 450, 0, []
1631431127.0546, 115, 0, 4251.282, 4789.744, 4122.051, 4163.077, 4193.846, 16194, 0, []
1631431127.0624, 116, 0, 4256.41, 4769.231, 4105.128, 4167.692, 4181.026, 450, 0, []
1631431127.0703, 117, 0, 4262.051, 4892.821, 4120, 4154.872, 4178.462, 450, 0, []
1631431127.078, 118, 0, 4250.769, 4896.41, 4106.154, 4146.667, 4187.179, 450, 0, []
1631431127.0859, 119, 0, 4243.077, 4756.923, 4096.923, 4152.821, 4190.256, 16194, 0, []
1631431127.0937, 120, 0, 4256.41, 4787.179, 4103.59, 4158.974, 4178.974, 450, 0, []
1631431127.1016, 121, 0, 4265.641, 4930.769, 4098.462, 4157.436, 4177.436, 450, 0, []
1631431127.1094, 122, 0, 4251.282, 4827.179, 4115.385, 4153.846, 4191.795, 450, 0, []
1631431127.1173, 123, 0, 4243.59, 4663.077, 4105.641, 4156.923, 4196.923, 16194, 0, []
1631431127.125, 124, 0, 4260, 4758.974, 4097.949, 4160.513, 4184.103, 450, 0, []
1631431127.1329, 125, 0, 4268.718, 4863.59, 4098.462, 4151.282, 4177.436, 450, 0, []
1631431127.1407, 126, 0, 4256.923, 4832.821, 4087.692, 4158.462, 4190.769, 450, 0, []
1631431127.1486, 127, 0, 4242.564, 4866.667, 4103.59, 4172.821, 4190.769, 16194, 0, []
1631431127.1564, 128, 0, 4233.846, 4919.487, 4088.718, 4154.872, 4164.103, 450, 0, []
1631431127.1642, 0, 0, 4243.077, 4874.359, 4094.872, 4141.026, 4160.513, 450, 0, []
1631431127.172, 1, 0, 4247.179, 4837.949, 4116.923, 4150.256, 4183.077, 450, 0, []
1631431127.1799, 2, 0, 4238.462, 4868.205, 4090.769, 4154.872, 4191.795, 16181, 0, []
1631431127.1877, 3, 0, 4252.821, 4888.718, 4105.641, 4161.538, 4184.103, 450, 0, []
1631431127.1956, 4, 0, 4269.231, 4768.718, 4121.538, 4167.179, 4184.615, 16123, 0, []
1631431127.2033, 5, 0, 4256.41, 4566.154, 4106.154, 4153.333, 4193.846, 450, 0, []
1631431127.2111, 6, 0, 4263.59, 4573.846, 4101.026, 4148.718, 4208.205, 260, 0, []
1631431127.219, 7, 0, 4312.308, 4737.949, 4096.923, 4162.051, 4233.333, 450, 0, []
1631431127.2268, 8, 0, 4360, 4767.179, 4116.923, 4160, 4265.128, 450, 0, []
1631431127.2347, 9, 0, 4403.59, 4740.513, 4117.949, 4157.949, 4311.795, 16156, 0, []
1631431127.2424, 10, 0, 4444.103, 4774.359, 4110.256, 4164.103, 4356.41, 450, 0, []
1631431127.2503, 11, 0, 4460, 4786.154, 4114.872, 4154.359, 4374.359, 16197, 0, []
1631431127.2581, 12, 0, 4465.641, 4744.615, 4094.872, 4147.179, 4383.59, 450, 0, []
1631431127.266, 13, 0, 4473.846, 4652.821, 4109.744, 4163.077, 4395.897, 450, 0, []
1631431127.2738, 14, 0, 4471.795, 4568.205, 4113.846, 4174.872, 4391.795, 450, 0, []
1631431127.2816, 15, 0, 4456.923, 4515.385, 4092.821, 4169.231, 4367.179, 16197, 0, []
1631431127.2894, 16, 0, 4447.179, 4507.179, 4104.103, 4168.718, 4350.256, 0, 0, []
1631431127.2973, 17, 0, 4437.436, 4523.59, 4092.308, 4168.205, 4336.41, 0, 0, []
1631431127.3051, 18, 0, 4414.359, 4502.051, 4094.359, 4155.385, 4311.282, 0, 0, []
1631431127.313, 19, 0, 4389.744, 4515.897, 4105.641, 4150.769, 4305.128, 0, 0, []
1631431127.3207, 20, 0, 4375.385, 4589.744, 4103.077, 4165.128, 4315.897, 0, 0, []
1631431127.3286, 21, 0, 4362.564, 4522.564, 4117.949, 4175.897, 4300, 0, 0, []
1631431127.3364, 22, 0, 4347.179, 4386.667, 4104.103, 4175.897, 4269.231, 0, 0, []
1631431127.3443, 23, 0, 4331.795, 4442.564, 4104.103, 4173.333, 4253.333, 0, 0, []
1631431127.3521, 24, 0, 4322.051, 4410.769, 4113.333, 4163.59, 4252.308, 0, 0, []
1631431127.3598, 25, 0, 4311.282, 4175.385, 4105.128, 4161.026, 4253.333, 0, 0, []
1631431127.3677, 26, 0, 4287.179, 4105.128, 4111.282, 4165.641, 4231.282, 0, 0, []
1631431127.3755, 27, 0, 4271.795, 4219.487, 4095.897, 4162.051, 4203.59, 0, 0, []
1631431127.3834, 28, 0, 4280.513, 4095.385, 4107.692, 4160, 4213.846, 0, 0, []
1631431127.3912, 29, 0, 4282.564, 3866.667, 4123.077, 4172.308, 4229.744, 0, 0, []
1631431127.399, 30, 0, 4267.179, 4048.205, 4100, 4179.487, 4208.718, 0, 0, []
1631431127.4068, 31, 0, 4260.513, 4405.641, 4114.359, 4163.077, 4189.231, 0, 0, []
1631431127.4147, 32, 0, 4256.41, 4580.513, 4108.718, 4154.872, 4195.385, 0, 0, []
1631431127.4225, 33, 0, 4244.103, 4680.513, 4088.205, 4165.641, 4190.769, 0, 0, []
1631431127.4304, 34, 0, 4243.077, 4631.282, 4095.385, 4170.769, 4175.385, 0, 0, []
1631431127.4382, 35, 0, 4246.667, 4286.154, 4098.462, 4172.821, 4185.128, 0, 0, []
1631431127.446, 36, 0, 4245.641, 3955.897, 4108.205, 4181.026, 4202.564, 0, 0, []
1631431127.4538, 37, 0, 4252.308, 3838.974, 4091.795, 4183.59, 4195.897, 0, 0, []
1631431127.4617, 38, 0, 4247.179, 3662.051, 4089.744, 4172.308, 4183.59, 0, 0, []
1631431127.4695, 39, 0, 4231.282, 3387.179, 4100.513, 4166.667, 4185.641, 0, 0, []
1631431127.4774, 40, 0, 4242.051, 3216.41, 4087.179, 4169.744, 4189.231, 0, 0, []
1631431127.4852, 41, 0, 4243.077, 3356.41, 4109.744, 4170.769, 4182.564, 0, 0, []
1631431127.4931, 42, 0, 4226.667, 3628.205, 4112.308, 4175.385, 4177.949, 0, 0, []
1631431127.501, 43, 0, 4228.205, 3677.436, 4100, 4177.436, 4171.282, 0, 0, []
1631431127.5088, 44, 0, 4212.821, 3668.205, 4106.154, 4159.487, 4150.256, 0, 0, []
1631431127.5166, 45, 0, 4186.154, 3798.974, 4082.564, 4150.256, 4142.051, 0, 0, []
1631431127.5243, 46, 0, 4197.436, 3870.769, 4096.923, 4161.026, 4153.333, 0, 0, []
1631431127.5322, 47, 0, 4212.821, 3876.41, 4111.282, 4163.59, 4155.897, 0, 0, []
1631431127.54, 48, 0, 4198.462, 3958.462, 4089.744, 4164.615, 4140, 0, 0, []
1631431127.5479, 49, 0, 4193.846, 4011.795, 4087.179, 4166.154, 4132.821, 0, 0, []
1631431127.5557, 50, 0, 4197.949, 4000.513, 4077.949, 4155.385, 4142.051, 0, 0, []
1631431127.5635, 51, 0, 4192.821, 4029.231, 4089.744, 4155.385, 4137.949, 0, 0, []
1631431127.5713, 52, 0, 4198.974, 4029.231, 4098.462, 4169.231, 4135.385, 0, 0, []
1631431127.5792, 53, 0, 4213.846, 3964.103, 4089.744, 4173.333, 4153.333, 0, 0, []
1631431127.587, 54, 0, 4221.026, 3996.41, 4100, 4170.769, 4151.795, 0, 0, []
1631431127.5949, 55, 0, 4211.795, 4166.154, 4087.179, 4160, 4134.872, 0, 0, []
1631431127.6026, 56, 0, 4209.744, 4216.41, 4101.026, 4161.026, 4150.769, 0, 0, []
1631431127.6105, 57, 0, 4221.538, 4108.718, 4108.718, 4186.154, 4165.128, 0, 0, []
1631431127.6183, 58, 0, 4212.821, 4159.487, 4082.564, 4186.154, 4147.692, 0, 0, []
1631431127.6262, 59, 0, 4198.462, 4096.923, 4101.538, 4171.795, 4148.205, 0, 0, []
1631431127.634, 60, 0, 4203.077, 3462.051, 4106.667, 4180.513, 4158.462, 0, 0, []
1631431127.6418, 61, 0, 4201.026, 2781.026, 4102.564, 4186.667, 4143.077, 0, 0, []
1631431127.6496, 62, 0, 4182.564, 2581.026, 4090.769, 4168.205, 4126.667, 0, 0, []
1631431127.6575, 63, 0, 4176.41, 2480.513, 4065.128, 4151.795, 4125.641, 0, 0, []
1631431127.6653, 64, 0, 4192.821, 2265.128, 4086.154, 4158.462, 4132.308, 450, 0, []
1631431127.6732, 65, 0, 4203.077, 2159.487, 4086.667, 4165.641, 4143.077, 450, 0, []
1631431127.6809, 66, 0, 4193.333, 2088.718, 4082.564, 4156.41, 4140.513, 16187, 0, []
1631431127.6888, 67, 0, 4182.051, 1983.077, 4091.282, 4146.154, 4130.769, 450, 0, []
1631431127.6966, 68, 0, 4188.205, 1920.513, 4075.385, 4154.872, 4131.282, 16162, 0, []
1631431127.7044, 69, 0, 4182.564, 1846.667, 4083.077, 4156.41, 4125.128, 450, 0, []
1631431127.7123, 70, 0, 4165.128, 1778.462, 4087.692, 4150.769, 4117.436, 264, 0, []
1631431127.72, 71, 0, 4180, 1742.564, 4102.051, 4160.513, 4130.769, 450, 0, []
1631431127.7279, 72, 0, 4201.026, 1692.308, 4110.256, 4162.564, 4145.128, 450, 0, []
1631431127.7357, 73, 0, 4185.641, 1621.026, 4077.949, 4151.795, 4132.308, 16169, 0, []
1631431127.7436, 74, 0, 4163.59, 1584.103, 4089.231, 4147.692, 4114.872, 450, 0, []
1631431127.7514, 75, 0, 4168.205, 1567.692, 4095.385, 4153.333, 4123.59, 16194, 0, []
1631431127.7593, 76, 0, 4173.333, 1524.103, 4080.513, 4156.41, 4128.718, 450, 0, []
1631431127.767, 77, 0, 4163.077, 1486.667, 4082.051, 4151.795, 4111.282, 450, 0, []
1631431127.7749, 78, 0, 4158.974, 1462.564, 4071.282, 4143.077, 4106.667, 450, 0, []
1631431127.7827, 79, 0, 4164.103, 1425.128, 4086.154, 4141.538, 4121.026, 16194, 0, []
1631431127.7906, 80, 0, 4172.821, 1398.462, 4086.667, 4152.308, 4129.231, 450, 0, []
1631431127.7984, 81, 0, 4177.949, 1387.692, 4081.026, 4158.462, 4126.154, 450, 0, []
1631431127.8062, 82, 0, 4175.385, 1362.564, 4102.564, 4153.846, 4120.513, 450, 0, []
1631431127.814, 83, 0, 4180, 1349.744, 4091.795, 4152.821, 4122.051, 16194, 0, []
1631431127.8219, 84, 0, 4186.667, 1364.615, 4102.051, 4160.513, 4134.359, 450, 0, []
1631431127.8297, 85, 0, 4177.436, 1340.513, 4107.692, 4157.949, 4132.308, 450, 0, []
1631431127.8375, 86, 0, 4158.974, 1292.308, 4085.128, 4145.128, 4114.872, 450, 0, []
1631431127.8453, 87, 0, 4153.846, 1283.077, 4098.462, 4146.667, 4116.41, 16194, 0, []
1631431127.8531, 88, 0, 4156.923, 1281.538, 4097.436, 4157.436, 4127.179, 450, 0, []
1631431127.861, 89, 0, 4157.949, 1268.718, 4095.385, 4156.41, 4121.026, 450, 0, []
1631431127.8688, 90, 0, 4165.641, 1266.667, 4098.462, 4156.41, 4121.538, 450, 0, []
1631431127.8767, 91, 0, 4165.641, 1255.897, 4094.872, 4156.923, 4128.205, 16194, 0, []
1631431127.8844, 92, 0, 4144.615, 1236.41, 4098.974, 4141.538, 4109.744, 450, 0, []
1631431127.8923, 93, 0, 4133.333, 1247.179, 4079.487, 4132.308, 4091.795, 450, 0, []
1631431127.9001, 94, 0, 4145.128, 1255.897, 4095.385, 4144.615, 4102.564, 450, 0, []
1631431127.908, 95, 0, 4158.974, 1241.026, 4112.308, 4154.359, 4117.436, 16194, 0, []
1631431127.9158, 96, 0, 4161.538, 1236.41, 4088.205, 4156.41, 4117.949, 450, 0, []
1631431127.9236, 97, 0, 4148.205, 1246.154, 4094.872, 4151.282, 4101.026, 450, 0, []
1631431127.9314, 98, 0, 4141.538, 1244.103, 4090.256, 4145.128, 4092.821, 450, 0, []
1631431127.9393, 99, 0, 4162.564, 1238.974, 4086.154, 4148.718, 4121.538, 16194, 0, []
1631431127.9471, 100, 0, 4188.718, 1243.59, 4097.436, 4154.359, 4164.103, 450, 0, []
1631431127.955, 101, 0, 4202.564, 1236.923, 4095.385, 4156.41, 4186.667, 450, 0, []
1631431127.9627, 102, 0, 4203.59, 1222.564, 4103.59, 4156.41, 4189.744, 450, 0, []
1631431127.9706, 103, 0, 4192.308, 1218.974, 4080.513, 4150.769, 4180, 16194, 0, []
1631431127.9784, 104, 0, 4182.051, 1225.641, 4079.487, 4156.41, 4171.282, 450, 0, []
1631431127.9862, 105, 0, 4185.641, 1234.359, 4104.615, 4173.846, 4175.385, 450, 0, []
1631431127.9941, 106, 0, 4172.308, 1230.769, 4077.949, 4161.026, 4159.487, 450, 0, []
1631431128.0018, 107, 0, 4141.026, 1220, 4074.872, 4123.077, 4120.513, 16194, 0, []
1631431128.0097, 108, 0, 4146.154, 1229.744, 4086.667, 4118.974, 4120.513, 450, 0, []
1631431128.0175, 109, 0, 4178.462, 1252.821, 4090.256, 4149.744, 4152.821, 450, 0, []
1631431128.0254, 110, 0, 4185.641, 1258.462, 4093.333, 4161.538, 4158.974, 450, 0, []
1631431128.0332, 111, 0, 4171.795, 1264.103, 4074.359, 4146.667, 4145.128, 16194, 0, []
1631431128.041, 112, 0, 4153.333, 1269.744, 4087.692, 4132.821, 4132.308, 450, 0, []
1631431128.0488, 113, 0, 4141.026, 1259.487, 4092.821, 4133.333, 4123.59, 450, 0, []
1631431128.0567, 114, 0, 4148.205, 1260.513, 4085.641, 4143.59, 4125.641, 450, 0, []
1631431128.0645, 115, 0, 4145.128, 1274.872, 4090.769, 4137.436, 4117.949, 16194, 0, []
1631431128.0724, 116, 0, 4127.692, 1277.436, 4073.846, 4121.538, 4101.538, 450, 0, []
1631431128.0802, 117, 0, 4131.795, 1282.564, 4090.769, 4126.154, 4105.128, 450, 0, []
1631431128.088, 118, 0, 4150.256, 1309.231, 4099.487, 4142.051, 4120.513, 450, 0, []
1631431128.0958, 119, 0, 4148.205, 1327.692, 4090.769, 4142.564, 4123.59, 16194, 0, []
1631431128.1037, 120, 0, 4137.949, 1313.333, 4098.462, 4127.179, 4111.282, 450, 0, []
1631431128.1115, 121, 0, 4140, 1305.641, 4069.744, 4116.41, 4100.513, 450, 0, []
1631431128.1194, 122, 0, 4149.744, 1323.077, 4077.436, 4124.615, 4114.872, 450, 0, []
1631431128.1271, 123, 0, 4162.051, 1335.897, 4103.59, 4144.615, 4140, 16194, 0, []
1631431128.135, 124, 0, 4158.462, 1333.846, 4086.667, 4142.564, 4133.333, 450, 0, []
1631431128.1428, 125, 0, 4142.564, 1344.615, 4087.692, 4120, 4111.795, 450, 0, []
1631431128.1507, 126, 0, 4147.179, 1372.308, 4088.718, 4113.846, 4119.487, 450, 0, []
1631431128.1585, 127, 0, 4156.41, 1384.103, 4102.051, 4119.487, 4131.795, 16194, 0, []
1631431128.1662, 128, 0, 4145.128, 1382.051, 4097.949, 4122.051, 4125.128, 450, 0, []
1631431128.1741, 0, 0, 4128.205, 1392.308, 4063.59, 4119.487, 4110.256, 450, 0, []
1631431128.1819, 1, 0, 4131.282, 1422.051, 4075.385, 4117.436, 4104.103, 450, 0, []
1631431128.1898, 2, 0, 4139.487, 1445.128, 4082.564, 4126.154, 4114.872, 16189, 0, []
1631431128.1976, 3, 0, 4138.974, 1451.795, 4090.769, 4134.872, 4121.026, 450, 0, []
1631431128.2054, 4, 0, 4137.436, 1467.692, 4096.41, 4132.308, 4114.359, 16177, 0, []
1631431128.2132, 5, 0, 4126.154, 1483.59, 4069.744, 4119.487, 4103.077, 450, 0, []
1631431128.2211, 6, 0, 4115.897, 1486.154, 4084.615, 4121.026, 4097.436, 237, 0, []
1631431128.2289, 7, 0, 4130.769, 1492.308, 4098.974, 4144.103, 4105.641, 450, 0, []
1631431128.2368, 8, 0, 4138.974, 1512.308, 4097.949, 4158.462, 4113.333, 450, 0, []
1631431128.2445, 9, 0, 4119.487, 1523.59, 4089.744, 4144.615, 4102.051, 16205, 0, []
1631431128.2524, 10, 0, 4103.077, 1517.949, 4067.692, 4121.026, 4087.692, 450, 0, []
1631431128.2602, 11, 0, 4106.667, 1533.333, 4091.282, 4121.538, 4094.359, 16186, 0, []
1631431128.2681, 12, 0, 4112.308, 1571.282, 4097.436, 4134.359, 4102.564, 450, 0, []
1631431128.2759, 13, 0, 4113.333, 1592.821, 4088.718, 4138.462, 4100.513, 450, 0, []
1631431128.2837, 14, 0, 4112.821, 1591.282, 4088.718, 4134.872, 4094.359, 450, 0, []
1631431128.2915, 15, 0, 4106.154, 1600.513, 4068.718, 4131.795, 4096.41, 16186, 0, []
1631431128.2993, 16, 0, 4105.128, 1623.59, 4089.231, 4139.487, 4104.615, 0, 0, []
1631431128.3072, 17, 0, 4107.692, 1627.179, 4090.256, 4142.564, 4103.077, 0, 0, []
1631431128.315, 18, 0, 4098.462, 1622.564, 4070.769, 4128.718, 4088.205, 0, 0, []
1631431128.3228, 19, 0, 4093.846, 1653.333, 4086.154, 4122.564, 4082.564, 0, 0, []
1631431128.3306, 20, 0, 4110.256, 1694.359, 4085.641, 4134.872, 4100.513, 0, 0, []
1631431128.3385, 21, 0, 4122.564, 1707.692, 4094.872, 4146.667, 4111.282, 0, 0, []
1631431128.3463, 22, 0, 4121.538, 1712.821, 4095.897, 4151.795, 4109.744, 0, 0, []
1631431128.3542, 23, 0, 4120.513, 1720, 4086.154, 4156.41, 4108.718, 0, 0, []
1631431128.362, 24, 0, 4120, 1725.128, 4097.949, 4160.513, 4105.641, 0, 0, []
1631431128.3698, 25, 0, 4124.615, 1749.231, 4090.769, 4163.077, 4109.231, 0, 0, []
1631431128.3776, 26, 0, 4127.692, 1774.872, 4100.513, 4161.538, 4116.923, 0, 0, []
1631431128.3855, 27, 0, 4120.513, 1777.949, 4097.949, 4153.846, 4115.385, 0, 0, []
1631431128.3933, 28, 0, 4117.949, 1793.846, 4081.538, 4146.154, 4107.692, 0, 0, []
1631431128.4012, 29, 0, 4128.205, 1827.692, 4101.538, 4144.615, 4108.205, 0, 0, []
1631431128.4089, 30, 0, 4128.205, 1828.205, 4094.872, 4149.231, 4108.205, 0, 0, []
1631431128.4168, 31, 0, 4113.333, 1815.385, 4091.282, 4151.795, 4100.513, 0, 0, []
1631431128.4246, 32, 0, 4111.282, 1838.974, 4094.872, 4150.256, 4100.513, 0, 0, []
1631431128.4325, 33, 0, 4124.615, 1871.282, 4086.154, 4156.41, 4111.282, 0, 0, []
1631431128.4403, 34, 0, 4129.744, 1890.769, 4106.154, 4158.974, 4116.41, 0, 0, []
1631431128.448, 35, 0, 4116.923, 1908.205, 4087.692, 4135.897, 4098.462, 0, 0, []
1631431128.4559, 36, 0, 4103.59, 1914.359, 4074.872, 4122.564, 4086.154, 0, 0, []
1631431128.4637, 37, 0, 4113.333, 1928.205, 4086.667, 4145.128, 4107.692, 0, 0, []
1631431128.4716, 38, 0, 4137.949, 1958.462, 4085.128, 4165.128, 4131.795, 0, 0, []
1631431128.4795, 39, 0, 4135.897, 1969.231, 4101.026, 4154.872, 4123.59, 0, 0, []
1631431128.4873, 40, 0, 4116.923, 1964.615, 4089.744, 4150.256, 4108.205, 0, 0, []
1631431128.4952, 41, 0, 4117.436, 1985.128, 4083.077, 4162.564, 4108.718, 0, 0, []
1631431128.5031, 42, 0, 4112.308, 2009.231, 4088.205, 4154.872, 4104.615, 0, 0, []
1631431128.5109, 43, 0, 4098.462, 2018.462, 4070.256, 4136.41, 4095.897, 0, 0, []
1631431128.5187, 44, 0, 4104.615, 2033.333, 4086.154, 4136.41, 4097.949, 0, 0, []
1631431128.5265, 45, 0, 4106.154, 2043.59, 4086.154, 4138.974, 4094.359, 0, 0, []
1631431128.5344, 46, 0, 4093.333, 2049.744, 4078.974, 4138.462, 4089.744, 0, 0, []
1631431128.5422, 47, 0, 4107.179, 2068.718, 4089.231, 4149.231, 4100.513, 0, 0, []
1631431128.5501, 48, 0, 4125.128, 2087.179, 4073.333, 4158.462, 4111.795, 0, 0, []
1631431128.5579, 49, 0, 4114.872, 2095.385, 4082.564, 4153.846, 4107.179, 0, 0, []
1631431128.5657, 50, 0, 4113.846, 2116.41, 4091.282, 4152.821, 4109.231, 0, 0, []
1631431128.5735, 51, 0, 4126.667, 2148.205, 4087.179, 4152.308, 4113.333, 0, 0, []
1631431128.5814, 52, 0, 4115.897, 2167.179, 4083.59, 4138.974, 4098.974, 0, 0, []
1631431128.5892, 53, 0, 4106.667, 2173.333, 4063.077, 4138.462, 4094.359, 0, 0, []
1631431128.597, 54, 0, 4124.615, 2178.974, 4091.282, 4162.051, 4113.846, 0, 0, []
1631431128.6048, 55, 0, 4143.59, 2209.744, 4103.59, 4177.436, 4129.744, 0, 0, []
1631431128.6126, 56, 0, 4142.051, 2239.487, 4078.974, 4168.718, 4129.231, 0, 0, []
1631431128.6205, 57, 0, 4124.615, 2228.718, 4080.513, 4151.795, 4115.385, 0, 0, []
1631431128.6283, 58, 0, 4116.41, 2225.641, 4072.308, 4142.051, 4107.179, 0, 0, []
1631431128.6362, 59, 0, 4118.974, 2246.154, 4077.436, 4132.821, 4103.59, 0, 0, []
1631431128.6439, 60, 0, 4118.974, 2260.513, 4074.872, 4129.744, 4108.205, 0, 0, []
1631431128.6518, 61, 0, 4131.282, 2283.59, 4073.846, 4146.667, 4129.744, 0, 0, []
1631431128.6596, 62, 0, 4147.692, 2311.795, 4100.513, 4161.538, 4143.59, 0, 0, []
1631431128.6675, 63, 0, 4142.564, 2316.923, 4078.462, 4153.846, 4130.769, 0, 0, []
1631431128.6753, 64, 0, 4133.333, 2320.513, 4077.949, 4148.718, 4121.026, 450, 0, []
1631431128.6832, 65, 0, 4136.923, 2343.077, 4099.487, 4155.897, 4128.718, 450, 0, []
1631431128.6909, 66, 0, 4131.795, 2358.974, 4075.897, 4153.846, 4124.103, 16177, 0, []
1631431128.6988, 67, 0, 4125.641, 2366.154, 4070.256, 4151.282, 4118.462, 450, 0, []
1631431128.7066, 68, 0, 4125.641, 2370.769, 4064.103, 4146.667, 4123.59, 16187, 0, []
1631431128.7145, 69, 0, 4116.923, 2376.923, 4065.128, 4131.795, 4116.41, 450, 0, []
1631431128.7223, 70, 0, 4123.077, 2401.026, 4072.821, 4139.487, 4121.538, 232, 0, []
1631431128.7301, 71, 0, 4140, 2421.026, 4068.718, 4159.487, 4139.487, 450, 0, []
1631431128.7379, 72, 0, 4138.462, 2429.744, 4091.795, 4152.308, 4135.385, 450, 0, []
1631431128.7458, 73, 0, 4136.923, 2450.769, 4085.128, 4136.41, 4125.128, 16198, 0, []
1631431128.7536, 74, 0, 4141.026, 2468.205, 4080.513, 4136.923, 4125.128, 450, 0, []
1631431128.7614, 75, 0, 4137.436, 2468.205, 4092.821, 4144.615, 4122.051, 16166, 0, []
1631431128.7692, 76, 0, 4145.128, 2485.128, 4088.205, 4154.359, 4129.231, 450, 0, []
1631431128.777, 77, 0, 4154.359, 2515.897, 4097.949, 4157.949, 4145.641, 450, 0, []
1631431128.7849, 78, 0, 4141.538, 2518.974, 4068.205, 4143.59, 4137.949, 450, 0, []
1631431128.7927, 79, 0, 4127.179, 2509.744, 4052.308, 4130.256, 4121.538, 16166, 0, []
1631431128.8006, 80, 0, 4124.615, 2518.974, 4070.769, 4127.179, 4117.949, 450, 0, []
1631431128.8083, 81, 0, 4123.077, 2535.385, 4058.974, 4123.59, 4117.436, 450, 0, []
1631431128.8162, 82, 0, 4122.051, 2563.59, 4076.923, 4123.59, 4116.41, 450, 0, []
1631431128.824, 83, 0, 4118.974, 2592.308, 4081.026, 4126.154, 4110.769, 16166, 0, []
1631431128.8319, 84, 0, 4116.41, 2588.205, 4066.154, 4127.692, 4106.154, 450, 0, []
1631431128.8397, 85, 0, 4116.41, 2585.641, 4069.744, 4133.846, 4108.205, 450, 0, []
1631431128.8475, 86, 0, 4112.308, 2615.385, 4049.744, 4134.872, 4106.154, 450, 0, []
1631431128.8553, 87, 0, 4120, 2644.615, 4058.974, 4134.359, 4113.333, 16166, 0, []
1631431128.8632, 88, 0, 4142.051, 2657.949, 4073.846, 4138.974, 4135.385, 450, 0, []
1631431128.871, 89, 0, 4143.59, 2673.846, 4072.821, 4134.359, 4134.872, 450, 0, []
1631431128.8789, 90, 0, 4132.308, 2699.487, 4090.256, 4127.692, 4115.897, 450, 0, []
1631431128.8866, 91, 0, 4138.974, 2714.872, 4083.077, 4137.949, 4121.538, 16166, 0, []
1631431128.8945, 92, 0, 4138.974, 2711.282, 4076.41, 4140, 4125.641, 450, 0, []
1631431128.9023, 93, 0, 4121.026, 2722.564, 4066.154, 4121.538, 4108.205, 450, 0, []
1631431128.9101, 94, 0, 4121.026, 2749.744, 4063.59, 4114.872, 4110.256, 450, 0, []
1631431128.918, 95, 0, 4136.41, 2762.051, 4084.615, 4124.615, 4131.282, 16166, 0, []
1631431128.9257, 96, 0, 4144.103, 2766.667, 4076.923, 4130.256, 4142.564, 450, 0, []
1631431128.9336, 97, 0, 4147.179, 2776.41, 4089.231, 4128.205, 4141.026, 450, 0, []
1631431128.9414, 98, 0, 4146.154, 2781.026, 4088.718, 4124.615, 4129.744, 450, 0, []
1631431128.9493, 99, 0, 4128.205, 2792.821, 4057.436, 4120, 4114.872, 16166, 0, []
1631431128.9571, 100, 0, 4112.308, 2811.795, 4063.077, 4111.282, 4105.641, 450, 0, []
1631431128.9649, 101, 0, 4115.897, 2805.128, 4054.359, 4105.641, 4109.231, 450, 0, []
1631431128.9727, 102, 0, 4117.436, 2801.538, 4054.872, 4101.538, 4107.179, 450, 0, []
1631431128.9806, 103, 0, 4120, 2841.026, 4070.256, 4103.59, 4107.692, 16166, 0, []
1631431128.9884, 104, 0, 4141.538, 2874.359, 4074.359, 4117.949, 4128.205, 450, 0, []
1631431128.9963, 105, 0, 4148.718, 2868.718, 4094.872, 4128.205, 4139.487, 450, 0, []
1631431129.0041, 106, 0, 4132.308, 2867.692, 4076.923, 4122.564, 4126.154, 450, 0, []
1631431129.0119, 107, 0, 4129.744, 2881.538, 4067.179, 4120, 4118.462, 16166, 0, []
1631431129.0197, 108, 0, 4135.897, 2897.949, 4073.846, 4127.179, 4125.641, 450, 0, []
1631431129.0276, 109, 0, 4129.231, 2930.256, 4051.282, 4121.538, 4123.077, 450, 0, []
1631431129.0354, 110, 0, 4129.231, 2956.923, 4065.641, 4114.872, 4118.462, 450, 0, []
1631431129.0433, 111, 0, 4135.897, 2954.359, 4070.769, 4116.923, 4125.128, 16166, 0, []
1631431129.051, 112, 0, 4123.59, 2950.769, 4064.615, 4106.667, 4115.385, 450, 0, []
1631431129.0588, 113, 0, 4115.385, 2967.179, 4077.949, 4094.359, 4102.564, 450, 0, []
1631431129.0667, 114, 0, 4134.359, 2983.077, 4074.872, 4103.077, 4126.667, 450, 0, []
1631431129.0745, 115, 0, 4147.692, 2995.385, 4088.205, 4113.846, 4143.077, 16166, 0, []
1631431129.0824, 116, 0, 4136.923, 3013.846, 4081.026, 4107.692, 4113.846, 450, 0, []
1631431129.0901, 117, 0, 4130.256, 3021.026, 4070.769, 4112.821, 4104.103, 450, 0, []
1631431129.098, 118, 0, 4135.385, 3021.538, 4080, 4128.205, 4127.692, 450, 0, []
1631431129.1058, 119, 0, 4128.718, 3043.077, 4064.103, 4127.179, 4128.205, 16166, 0, []
1631431129.1137, 120, 0, 4120.513, 3072.308, 4069.744, 4122.051, 4117.436, 450, 0, []
1631431129.1215, 121, 0, 4123.59, 3065.128, 4056.923, 4113.333, 4125.128, 450, 0, []
1631431129.1293, 122, 0, 4121.538, 3050.256, 4042.051, 4095.897, 4123.077, 450, 0, []
1631431129.1371, 123, 0, 4111.795, 3077.949, 4065.641, 4091.282, 4108.205, 16166, 0, []
1631431129.145, 124, 0, 4117.949, 3109.744, 4066.667, 4108.205, 4113.333, 450, 0, []
1631431129.1528, 125, 0, 4136.41, 3109.231, 4090.769, 4125.128, 4132.308, 450, 0, []
1631431129.1607, 126, 0, 4138.974, 3112.308, 4096.923, 4127.692, 4134.359, 450, 0, []
1631431129.1684, 127, 0, 4128.718, 3133.333, 4075.385, 4124.103, 4122.051, 16166, 0, []
1631431129.1763, 128, 0, 4123.077, 3144.103, 4088.205, 4123.59, 4121.538, 450, 0, []
1631431129.1841, 0, 0, 4122.564, 3151.282, 4080, 4124.103, 4125.128, 450, 0, []
1631431129.192, 1, 0, 4118.462, 3165.128, 4081.026, 4118.462, 4123.077, 450, 0, []
1631431129.1998, 2, 0, 4122.564, 3183.077, 4093.333, 4128.205, 4130.256, 16175, 0, []
1631431129.2076, 3, 0, 4128.718, 3201.026, 4088.205, 4140, 4134.872, 450, 0, []
1631431129.2154, 4, 0, 4122.051, 3198.462, 4085.641, 4128.718, 4120, 16184, 0, []
1631431129.2232, 5, 0, 4128.205, 3194.872, 4072.308, 4130.256, 4123.59, 450, 0, []
1631431129.2311, 6, 0, 4149.744, 3228.205, 4094.359, 4157.436, 4150.769, 291, 0, []
1631431129.2389, 7, 0, 4151.282, 3260, 4102.051, 4160, 4148.205, 450, 0, []
1631431129.2467, 8, 0, 4128.718, 3250.769, 4072.308, 4140, 4128.205, 450, 0, []
1631431129.2545, 9, 0, 4116.923, 3246.154, 4083.077, 4136.41, 4123.077, 16165, 0, []
1631431129.2624, 10, 0, 4128.718, 3258.462, 4082.051, 4139.487, 4134.872, 450, 0, []
1631431129.2702, 11, 0, 4146.667, 3263.077, 4081.026, 4145.641, 4149.231, 16185, 0, []
1631431129.2781, 12, 0, 4151.282, 3275.897, 4091.282, 4149.744, 4153.333, 450, 0, []
1631431129.2858, 13, 0, 4145.128, 3294.359, 4077.949, 4137.436, 4144.103, 450, 0, []
1631431129.2937, 14, 0, 4135.897, 3299.487, 4085.128, 4126.154, 4129.744, 450, 0, []
1631431129.3015, 15, 0, 4127.692, 3296.41, 4074.872, 4135.897, 4123.59, 16185, 0, []
1631431129.3094, 16, 0, 4127.179, 3305.641, 4073.846, 4149.744, 4124.103, 0, 0, []
1631431129.3172, 17, 0, 4133.333, 3324.615, 4088.205, 4151.795, 4133.333, 0, 0, []
1631431129.3251, 18, 0, 4143.077, 3343.59, 4074.872, 4152.821, 4143.077, 0, 0, []
1631431129.3328, 19, 0, 4149.744, 3359.487, 4085.641, 4144.615, 4141.538, 0, 0, []
1631431129.3407, 20, 0, 4144.615, 3362.564, 4080, 4132.308, 4137.949, 0, 0, []
1631431129.3485, 21, 0, 4142.564, 3357.949, 4082.564, 4138.974, 4146.154, 0, 0, []
1631431129.3564, 22, 0, 4162.564, 3364.103, 4109.744, 4154.359, 4157.949, 0, 0, []
1631431129.3642, 23, 0, 4174.872, 3383.59, 4090.256, 4161.026, 4151.795, 0, 0, []
1631431129.372, 24, 0, 4157.949, 3405.128, 4086.667, 4168.718, 4141.538, 0, 0, []
1631431129.3798, 25, 0, 4145.641, 3423.59, 4080.513, 4170.769, 4144.103, 0, 0, []
1631431129.3876, 26, 0, 4137.949, 3424.103, 4068.205, 4146.667, 4138.974, 0, 0, []
1631431129.3955, 27, 0, 4134.359, 3415.897, 4089.231, 4139.487, 4133.333, 0, 0, []
1631431129.4033, 28, 0, 4147.179, 3424.103, 4084.103, 4152.821, 4150.256, 0, 0, []
1631431129.4111, 29, 0, 4152.308, 3432.821, 4078.974, 4145.128, 4152.308, 0, 0, []
1631431129.4189, 30, 0, 4137.949, 3436.923, 4074.872, 4136.41, 4128.205, 0, 0, []
1631431129.4268, 31, 0, 4132.821, 3450.769, 4073.333, 4153.846, 4125.641, 0, 0, []
1631431129.4346, 32, 0, 4147.179, 3461.538, 4082.051, 4163.59, 4140.513, 0, 0, []
1631431129.4425, 33, 0, 4154.872, 3471.282, 4063.59, 4149.744, 4143.077, 0, 0, []
1631431129.4502, 34, 0, 4150.256, 3487.692, 4074.359, 4141.538, 4133.846, 0, 0, []
1631431129.4581, 35, 0, 4150.769, 3492.308, 4083.59, 4141.538, 4138.974, 0, 0, []
1631431129.4659, 36, 0, 4160, 3497.436, 4079.487, 4145.128, 4156.923, 0, 0, []
1631431129.4738, 37, 0, 4157.949, 3508.205, 4094.872, 4144.615, 4148.718, 0, 0, []
1631431129.4817, 38, 0, 4137.436, 3504.103, 4071.795, 4134.872, 4122.564, 0, 0, []
1631431129.4894, 39, 0, 4131.282, 3516.923, 4069.231, 4137.949, 4126.154, 0, 0, []
1631431129.4972, 40, 0, 4139.487, 3548.205, 4073.333, 4137.949, 4142.051, 0, 0, []
1631431129.5051, 41, 0, 4138.462, 3538.462, 4048.718, 4127.179, 4130.256, 0, 0, []
1631431129.5129, 42, 0, 4135.897, 3513.333, 4065.128, 4124.615, 4117.949, 0, 0, []
1631431129.5208, 43, 0, 4144.615, 3535.897, 4073.846, 4136.41, 4128.718, 0, 0, []
1631431129.5285, 44, 0, 4154.359, 3575.897, 4084.615, 4149.231, 4137.436, 0, 0, []
1631431129.5364, 45, 0, 4155.897, 3592.821, 4096.41, 4150.769, 4142.564, 0, 0, []
1631431129.5442, 46, 0, 4156.923, 3592.308, 4080.513, 4146.154, 4149.231, 0, 0, []
1631431129.552, 47, 0, 4154.359, 3584.103, 4084.103, 4141.538, 4144.615, 0, 0, []
1631431129.5599, 48, 0, 4143.077, 3592.821, 4065.128, 4137.436, 4129.231, 0, 0, []
1631431129.5676, 49, 0, 4134.359, 3612.821, 4052.821, 4126.154, 4122.051, 0, 0, []
1631431129.5755, 50, 0, 4136.923, 3623.077, 4068.205, 4113.333, 4130.769, 0, 0, []
1631431129.5833, 51, 0, 4152.821, 3631.282, 4073.333, 4124.615, 4141.026, 0, 0, []
1631431129.5912, 52, 0, 4161.026, 3638.974, 4088.205, 4140.513, 4138.974, 0, 0, []
1631431129.599, 53, 0, 4146.154, 3637.949, 4066.667, 4137.949, 4127.179, 0, 0, []
1631431129.6068, 54, 0, 4131.282, 3635.897, 4054.359, 4126.667, 4118.462, 0, 0, []
1631431129.6146, 55, 0, 4136.41, 3641.026, 4073.333, 4118.974, 4121.538, 0, 0, []
1631431129.6225, 56, 0, 4142.564, 3643.077, 4051.795, 4113.846, 4125.128, 0, 0, []
1631431129.6303, 57, 0, 4137.436, 3654.872, 4060, 4111.795, 4128.718, 0, 0, []
1631431129.6382, 58, 0, 4145.128, 3683.59, 4084.615, 4123.077, 4136.923, 0, 0, []
1631431129.646, 59, 0, 4156.41, 3693.333, 4090.256, 4133.333, 4135.897, 0, 0, []
1631431129.6538, 60, 0, 4147.692, 3685.128, 4088.718, 4136.923, 4125.641, 0, 0, []
1631431129.6616, 61, 0, 4142.564, 3692.821, 4062.564, 4140.513, 4126.667, 0, 0, []
1631431129.6695, 62, 0, 4149.744, 3712.308, 4071.282, 4133.333, 4134.872, 0, 0, []
1631431129.6773, 63, 0, 4155.385, 3721.538, 4077.436, 4132.308, 4134.872, 0, 0, []
1631431129.6851, 64, 0, 4148.718, 3719.487, 4068.718, 4137.436, 4125.641, 450, 0, []
1631431129.6929, 65, 0, 4130.256, 3717.949, 4073.846, 4129.231, 4117.436, 450, 0, []
1631431129.7007, 66, 0, 4131.282, 3718.462, 4048.718, 4114.872, 4120, 16182, 0, []
1631431129.7086, 67, 0, 4155.385, 3726.667, 4057.949, 4115.385, 4132.821, 450, 0, []
1631431129.7164, 68, 0, 4165.641, 3743.077, 4076.923, 4123.59, 4137.949, 16170, 0, []
1631431129.7243, 69, 0, 4152.308, 3756.41, 4069.744, 4123.077, 4126.154, 450, 0, []
1631431129.732, 70, 0, 4140.513, 3760.513, 4073.846, 4119.487, 4117.949, 271, 0, []
1631431129.7399, 71, 0, 4146.667, 3760, 4058.974, 4120.513, 4130.769, 450, 0, []
1631431129.7477, 72, 0, 4155.385, 3761.026, 4070.256, 4125.641, 4141.538, 450, 0, []
1631431129.7556, 73, 0, 4150.769, 3769.744, 4080, 4126.667, 4129.231, 16165, 0, []
1631431129.7634, 74, 0, 4142.564, 3788.718, 4064.103, 4121.538, 4118.462, 450, 0, []
1631431129.7712, 75, 0, 4147.179, 3801.026, 4082.564, 4110.256, 4128.205, 16194, 0, []
1631431129.779, 76, 0, 4158.462, 3800, 4084.103, 4105.641, 4144.103, 450, 0, []
1631431129.7869, 77, 0, 4157.436, 3794.359, 4083.077, 4114.359, 4138.462, 450, 0, []
1631431129.7947, 78, 0, 4143.077, 3795.385, 4077.949, 4120, 4122.051, 450, 0, []
1631431129.8026, 79, 0, 4139.487, 3809.231, 4056.923, 4126.154, 4125.641, 16194, 0, []
1631431129.8103, 80, 0, 4154.872, 3828.718, 4076.41, 4134.872, 4142.564, 450, 0, []
1631431129.8182, 81, 0, 4162.051, 3834.359, 4077.949, 4131.795, 4143.077, 450, 0, []
1631431129.826, 82, 0, 4155.385, 3827.692, 4082.564, 4122.564, 4138.974, 450, 0, []
1631431129.8339, 83, 0, 4151.795, 3828.205, 4091.282, 4123.077, 4138.974, 16194, 0, []
1631431129.8417, 84, 0, 4144.615, 3835.385, 4063.077, 4115.385, 4125.128, 450, 0, []
1631431129.8495, 85, 0, 4142.564, 3852.821, 4071.795, 4102.051, 4122.051, 450, 0, []
1631431129.8573, 86, 0, 4157.436, 3863.077, 4079.487, 4106.667, 4137.949, 450, 0, []
1631431129.8651, 87, 0, 4153.846, 3850.256, 4073.846, 4107.179, 4127.692, 16194, 0, []
1631431129.873, 88, 0, 4134.359, 3848.205, 4077.436, 4097.436, 4109.744, 450, 0, []
1631431129.8808, 89, 0, 4138.462, 3877.436, 4067.179, 4097.436, 4124.615, 450, 0, []
1631431129.8886, 90, 0, 4152.308, 3903.077, 4084.103, 4105.641, 4142.564, 450, 0, []
1631431129.8964, 91, 0, 4155.897, 3900, 4077.949, 4117.436, 4140, 16194, 0, []
1631431129.9043, 92, 0, 4153.333, 3884.615, 4066.667, 4124.103, 4132.821, 450, 0, []
1631431129.9121, 93, 0, 4136.41, 3890.256, 4082.564, 4116.41, 4119.487, 450, 0, []
1631431129.92, 94, 0, 4135.897, 3921.026, 4073.333, 4113.333, 4118.462, 450, 0, []
1631431129.9278, 95, 0, 4170.769, 3927.692, 4086.667, 4120, 4145.641, 16194, 0, []
1631431129.9356, 96, 0, 4187.179, 3908.205, 4095.385, 4117.436, 4159.487, 450, 0, []
1631431129.9434, 97, 0, 4170.256, 3923.077, 4086.667, 4111.282, 4144.615, 450, 0, []
1631431129.9513, 98, 0, 4160.513, 3946.667, 4085.641, 4111.795, 4136.41, 450, 0, []
1631431129.9591, 99, 0, 4162.051, 3935.897, 4056.923, 4107.179, 4137.436, 16194, 0, []
1631431129.967, 100, 0, 4151.282, 3924.615, 4059.487, 4092.821, 4121.538, 450, 0, []
1631431129.9747, 101, 0, 4138.462, 3930.769, 4067.692, 4076.41, 4101.538, 450, 0, []
1631431129.9826, 102, 0, 4135.897, 3937.949, 4058.974, 4076.923, 4101.538, 450, 0, []
1631431129.9904, 103, 0, 4136.41, 3949.744, 4075.385, 4091.795, 4105.641, 16194, 0, []
1631431129.9983, 104, 0, 4140, 3958.974, 4068.205, 4091.795, 4103.59, 450, 0, []
1631431130.0061, 105, 0, 4141.026, 3948.205, 4073.846, 4085.128, 4109.231, 450, 0, []
1631431130.0138, 106, 0, 4134.872, 3936.923, 4080.513, 4103.077, 4118.462, 450, 0, []
1631431130.0217, 107, 0, 4124.615, 3947.692, 4067.179, 4113.846, 4112.308, 16194, 0, []
1631431130.0295, 108, 0, 4121.026, 3976.41, 4076.923, 4094.359, 4102.051, 450, 0, []
1631431130.0374, 109, 0, 4129.744, 3990.256, 4068.205, 4083.59, 4104.103, 450, 0, []
1631431130.0452, 110, 0, 4141.026, 3977.436, 4080.513, 4097.949, 4114.872, 450, 0, []
1631431130.053, 111, 0, 4152.821, 3976.923, 4095.385, 4118.462, 4130.769, 16194, 0, []
1631431130.0608, 112, 0, 4164.103, 4001.026, 4076.923, 4126.154, 4141.538, 450, 0, []
1631431130.0687, 113, 0, 4166.154, 4021.026, 4085.128, 4118.462, 4142.564, 450, 0, []
1631431130.0765, 114, 0, 4158.462, 4013.846, 4070.256, 4112.821, 4141.538, 450, 0, []
1631431130.0844, 115, 0, 4155.897, 4006.154, 4066.667, 4118.974, 4136.923, 16194, 0, []
1631431130.0921, 116, 0, 4163.077, 4027.179, 4093.333, 4123.59, 4141.026, 450, 0, []
1631431130.1, 117, 0, 4173.846, 4036.923, 4092.821, 4122.564, 4154.872, 450, 0, []
1631431130.1078, 118, 0, 4184.615, 4022.564, 4103.077, 4123.077, 4160, 450, 0, []
1631431130.1157, 119, 0, 4184.615, 4020.513, 4094.872, 4124.103, 4160, 16194, 0, []
1631431130.1235, 120, 0, 4168.718, 4033.846, 4089.231, 4122.051, 4150.256, 450, 0, []
1631431130.1313, 121, 0, 4160, 4040.513, 4097.436, 4115.385, 4130.769, 450, 0, []
1631431130.1391, 122, 0, 4162.051, 4046.667, 4085.641, 4111.795, 4131.795, 450, 0, []
1631431130.147, 123, 0, 4155.897, 4051.282, 4095.897, 4120.513, 4135.385, 16194, 0, []
1631431130.1548, 124, 0, 4144.615, 4049.744, 4082.564, 4122.051, 4119.487, 450, 0, []
1631431130.1626, 125, 0, 4154.359, 4052.308, 4073.846, 4121.026, 4126.154, 450, 0, []
1631431130.1704, 126, 0, 4167.179, 4053.846, 4086.154, 4122.564, 4145.641, 450, 0, []
1631431130.1782, 127, 0, 4156.41, 4056.923, 4067.179, 4112.821, 4138.974, 16194, 0, []
1631431130.1861, 128, 0, 4153.846, 4077.949, 4084.615, 4113.333, 4140, 450, 0, []
1631431130.1939, 0, 0, 4174.872, 4102.051, 4094.872, 4127.179, 4158.974, 450, 0, []
1631431130.2018, 1, 0, 4177.949, 4094.872, 4076.923, 4127.179, 4160.513, 450, 0, []
1631431130.2095, 2, 0, 4168.718, 4086.667, 4084.103, 4131.282, 4150.256, 16190, 0, []
1631431130.2174, 3, 0, 4174.872, 4101.026, 4080.513, 4142.051, 4155.897, 450, 0, []
1631431130.2252, 4, 0, 4174.872, 4093.846, 4086.154, 4130.769, 4160, 16159, 0, []
1631431130.2331, 5, 0, 4167.179, 4086.154, 4078.462, 4118.974, 4147.692, 450, 0, []
1631431130.2409, 6, 0, 4168.205, 4110.256, 4069.744, 4127.692, 4149.231, 271, 0, []
1631431130.2488, 7, 0, 4172.308, 4115.897, 4089.744, 4132.308, 4165.641, 450, 0, []
1631431130.2565, 8, 0, 4164.103, 4105.641, 4075.897, 4122.051, 4158.974, 450, 0, []
1631431130.2644, 9, 0, 4149.231, 4117.949, 4078.462, 4116.923, 4135.385, 16163, 0, []
1631431130.2722, 10, 0, 4157.436, 4130.769, 4078.974, 4130.256, 4135.897, 450, 0, []
1631431130.2801, 11, 0, 4174.872, 4124.615, 4062.051, 4134.359, 4151.795, 16202, 0, []
1631431130.2879, 12, 0, 4171.282, 4116.41, 4075.385, 4123.59, 4149.231, 450, 0, []
1631431130.2956, 13, 0, 4166.667, 4116.923, 4069.744, 4130.256, 4137.436, 450, 0, []
1631431130.3035, 14, 0, 4178.974, 4140.513, 4081.538, 4144.103, 4142.051, 450, 0, []
1631431130.3114, 15, 0, 4187.692, 4161.026, 4098.462, 4141.538, 4160, 16202, 0, []
1631431130.3192, 16, 0, 4186.154, 4149.744, 4084.615, 4140.513, 4157.949, 0, 0, []
1631431130.327, 17, 0, 4172.821, 4145.641, 4086.667, 4134.359, 4137.949, 0, 0, []
1631431130.3348, 18, 0, 4162.051, 4162.051, 4075.385, 4123.59, 4136.923, 0, 0, []
1631431130.3426, 19, 0, 4168.205, 4162.564, 4082.564, 4130.256, 4139.487, 0, 0, []
1631431130.3505, 20, 0, 4170.769, 4154.872, 4096.41, 4138.462, 4134.359, 0, 0, []
1631431130.3583, 21, 0, 4172.308, 4161.538, 4074.872, 4136.41, 4140, 0, 0, []
1631431130.3662, 22, 0, 4181.538, 4172.821, 4083.59, 4140.513, 4149.744, 0, 0, []
1631431130.3739, 23, 0, 4178.462, 4175.385, 4079.487, 4146.154, 4149.231, 0, 0, []
1631431130.3818, 24, 0, 4156.41, 4173.333, 4065.128, 4132.821, 4128.718, 0, 0, []
1631431130.3896, 25, 0, 4145.641, 4169.744, 4072.821, 4115.897, 4113.333, 0, 0, []
1631431130.3975, 26, 0, 4157.436, 4166.154, 4070.256, 4123.077, 4124.615, 0, 0, []
1631431130.4053, 27, 0, 4168.718, 4170.769, 4090.256, 4141.026, 4137.436, 0, 0, []
1631431130.4131, 28, 0, 4168.205, 4187.692, 4087.692, 4141.538, 4144.103, 0, 0, []
1631431130.4209, 29, 0, 4176.41, 4199.487, 4081.538, 4140, 4155.897, 0, 0, []
1631431130.4288, 30, 0, 4198.462, 4206.154, 4096.923, 4152.821, 4160.513, 0, 0, []
1631431130.4366, 31, 0, 4196.41, 4211.282, 4077.949, 4157.436, 4158.462, 0, 0, []
1631431130.4445, 32, 0, 4181.538, 4204.615, 4079.487, 4153.846, 4165.128, 0, 0, []
1631431130.4522, 33, 0, 4187.179, 4197.436, 4081.538, 4152.308, 4163.59, 0, 0, []
1631431130.46, 34, 0, 4180.513, 4202.051, 4072.308, 4143.59, 4151.282, 0, 0, []
1631431130.4679, 35, 0, 4162.051, 4198.974, 4073.333, 4136.923, 4146.667, 0, 0, []
1631431130.4758, 36, 0, 4175.385, 4197.436, 4068.718, 4142.051, 4151.282, 0, 0, []
1631431130.4837, 37, 0, 4196.41, 4219.487, 4101.538, 4152.308, 4165.128, 0, 0, []
1631431130.4914, 38, 0, 4183.59, 4235.897, 4093.846, 4156.41, 4162.051, 0, 0, []
1631431130.4992, 39, 0, 4171.282, 4233.846, 4067.179, 4151.282, 4147.179, 0, 0, []
1631431130.5071, 40, 0, 4184.615, 4228.205, 4096.41, 4151.795, 4155.385, 0, 0, []
1631431130.515, 41, 0, 4190.769, 4223.59, 4086.154, 4156.41, 4156.41, 0, 0, []
1631431130.5228, 42, 0, 4177.949, 4227.692, 4072.308, 4144.103, 4141.538, 0, 0, []
1631431130.5306, 43, 0, 4178.974, 4235.897, 4082.564, 4133.333, 4150.769, 0, 0, []
1631431130.5384, 44, 0, 4191.282, 4235.385, 4086.667, 4144.103, 4163.59, 0, 0, []
1631431130.5463, 45, 0, 4170.256, 4232.308, 4091.282, 4146.667, 4141.538, 0, 0, []
1631431130.5541, 46, 0, 4149.231, 4229.744, 4063.077, 4133.333, 4123.59, 0, 0, []
1631431130.562, 47, 0, 4172.821, 4233.846, 4073.333, 4135.897, 4145.641, 0, 0, []
1631431130.5698, 48, 0, 4184.103, 4244.615, 4093.846, 4141.026, 4158.462, 0, 0, []
1631431130.5776, 49, 0, 4150.769, 4244.103, 4068.718, 4125.641, 4129.231, 0, 0, []
1631431130.5854, 50, 0, 4138.974, 4241.026, 4069.744, 4113.846, 4117.949, 0, 0, []
1631431130.5933, 51, 0, 4165.641, 4257.436, 4077.436, 4124.615, 4143.59, 0, 0, []
1631431130.6011, 52, 0, 4172.308, 4270.769, 4091.282, 4140.513, 4142.564, 0, 0, []
1631431130.609, 53, 0, 4164.615, 4264.103, 4095.897, 4148.718, 4137.949, 0, 0, []
1631431130.6167, 54, 0, 4176.41, 4258.974, 4079.487, 4155.385, 4170.256, 0, 0, []
1631431130.6245, 55, 0, 4187.692, 4268.718, 4087.179, 4152.308, 4172.308, 0, 0, []
1631431130.6324, 56, 0, 4186.667, 4284.103, 4077.436, 4145.641, 4152.821, 0, 0, []
1631431130.6402, 57, 0, 4185.128, 4282.564, 4076.923, 4143.077, 4164.615, 0, 0, []
1631431130.6481, 58, 0, 4175.897, 4267.692, 4078.462, 4128.718, 4155.385, 0, 0, []
1631431130.6558, 59, 0, 4163.59, 4267.179, 4058.974, 4121.538, 4135.897, 0, 0, []
1631431130.6637, 60, 0, 4177.436, 4278.462, 4083.59, 4144.103, 4160, 0, 0, []
1631431130.6715, 61, 0, 4184.615, 4278.974, 4083.077, 4146.667, 4163.077, 0, 0, []
1631431130.6794, 62, 0, 4154.872, 4272.821, 4066.667, 4117.949, 4126.667, 0, 0, []
1631431130.6872, 63, 0, 4146.667, 4276.41, 4084.103, 4121.026, 4131.282, 0, 0, []
1631431130.695, 64, 0, 4175.385, 4283.077, 4082.564, 4141.026, 4163.59, 450, 0, []
1631431130.7028, 65, 0, 4171.282, 4277.436, 4088.205, 4129.744, 4151.795, 450, 0, []
1631431130.7107, 66, 0, 4145.128, 4276.923, 4075.897, 4120, 4123.59, 16192, 0, []
1631431130.7185, 67, 0, 4146.154, 4272.821, 4069.231, 4125.641, 4125.641, 450, 0, []
1631431130.7264, 68, 0, 4157.436, 4260.513, 4095.897, 4129.231, 4141.538, 16148, 0, []
1631431130.7341, 69, 0, 4162.051, 4278.462, 4082.564, 4134.872, 4141.026, 450, 0, []
1631431130.742, 70, 0, 4167.179, 4306.667, 4080, 4136.923, 4140.513, 268, 0, []
1631431130.7498, 71, 0, 4170.769, 4293.846, 4084.615, 4132.821, 4155.385, 450, 0, []
1631431130.7576, 72, 0, 4171.795, 4274.359, 4086.154, 4140, 4155.897, 450, 0, []
1631431130.7655, 73, 0, 4171.282, 4288.718, 4091.282, 4140.513, 4145.641, 16163, 0, []
1631431130.7733, 74, 0, 4177.436, 4308.205, 4068.205, 4133.846, 4157.949, 450, 0, []
1631431130.7811, 75, 0, 4182.051, 4309.231, 4085.641, 4141.026, 4158.462, 16202, 0, []
1631431130.7889, 76, 0, 4172.308, 4300, 4093.846, 4135.897, 4135.897, 450, 0, []
1631431130.7968, 77, 0, 4167.179, 4289.231, 4071.282, 4122.051, 4138.974, 450, 0, []
1631431130.8046, 78, 0, 4184.103, 4295.897, 4089.744, 4129.744, 4156.923, 450, 0, []
1631431130.8124, 79, 0, 4189.231, 4307.692, 4092.821, 4149.231, 4161.026, 16202, 0, []
1631431130.8202, 80, 0, 4183.59, 4305.641, 4097.949, 4154.359, 4166.154, 450, 0, []
1631431130.8281, 81, 0, 4191.282, 4309.231, 4101.538, 4144.615, 4163.59, 450, 0, []
1631431130.8359, 82, 0, 4186.154, 4307.179, 4084.615, 4134.872, 4154.872, 450, 0, []
1631431130.8438, 83, 0, 4180, 4297.949, 4092.308, 4136.923, 4164.103, 16202, 0, []
1631431130.8515, 84, 0, 4197.436, 4306.667, 4082.564, 4140, 4175.897, 450, 0, []
1631431130.8594, 85, 0, 4195.897, 4322.564, 4080.513, 4133.846, 4172.821, 450, 0, []
1631431130.8672, 86, 0, 4183.077, 4320.513, 4083.077, 4135.385, 4174.359, 450, 0, []
1631431130.8751, 87, 0, 4191.795, 4307.692, 4070.769, 4131.282, 4173.846, 16202, 0, []
1631431130.8829, 88, 0, 4186.667, 4306.154, 4087.692, 4118.462, 4164.103, 450, 0, []
1631431130.8908, 89, 0, 4172.821, 4317.436, 4074.359, 4124.103, 4163.59, 450, 0, []
1631431130.8985, 90, 0, 4188.205, 4327.179, 4074.359, 4137.436, 4168.205, 450, 0, []
1631431130.9064, 91, 0, 4193.846, 4332.308, 4095.897, 4136.41, 4164.103, 16202, 0, []
1631431130.9142, 92, 0, 4174.359, 4327.692, 4069.231, 4125.128, 4149.231, 450, 0, []
1631431130.922, 93, 0, 4177.949, 4322.564, 4065.128, 4123.077, 4138.462, 450, 0, []
1631431130.9299, 94, 0, 4196.923, 4337.436, 4078.974, 4131.795, 4156.923, 450, 0, []
1631431130.9376, 95, 0, 4201.538, 4351.795, 4095.385, 4139.487, 4181.026, 16202, 0, []
1631431130.9455, 96, 0, 4196.41, 4340.513, 4095.897, 4132.308, 4161.026, 450, 0, []
1631431130.9533, 97, 0, 4184.615, 4331.282, 4067.692, 4116.923, 4135.897, 450, 0, []
1631431130.9612, 98, 0, 4182.564, 4340.513, 4080, 4117.949, 4150.256, 450, 0, []
1631431130.969, 99, 0, 4187.692, 4344.615, 4076.41, 4122.051, 4152.308, 16202, 0, []
1631431130.9768, 100, 0, 4183.077, 4345.128, 4068.718, 4117.436, 4140.513, 450, 0, []
1631431130.9846, 101, 0, 4188.718, 4352.308, 4090.769, 4122.051, 4161.026, 450, 0, []
1631431130.9925, 102, 0, 4206.667, 4355.897, 4077.949, 4136.41, 4175.897, 450, 0, []
1631431131.0003, 103, 0, 4200, 4355.897, 4078.462, 4130.256, 4157.949, 16202, 0, []
1631431131.0082, 104, 0, 4180.513, 4343.077, 4077.949, 4117.436, 4152.308, 450, 0, []
1631431131.0159, 105, 0, 4182.564, 4342.051, 4069.744, 4123.59, 4155.385, 450, 0, []
1631431131.0238, 106, 0, 4183.59, 4365.128, 4085.641, 4122.564, 4149.744, 450, 0, []
1631431131.0316, 107, 0, 4178.974, 4367.179, 4082.051, 4120.513, 4156.923, 16202, 0, []
1631431131.0395, 108, 0, 4190.256, 4357.436, 4089.231, 4135.385, 4156.923, 450, 0, []
1631431131.0473, 109, 0, 4198.974, 4370.256, 4087.692, 4134.872, 4151.795, 450, 0, []
1631431131.0551, 110, 0, 4193.333, 4363.59, 4082.051, 4123.59, 4156.923, 450, 0, []
1631431131.0629, 111, 0, 4180, 4344.103, 4091.795, 4125.641, 4140.513, 16202, 0, []
1631431131.0708, 112, 0, 4166.667, 4362.051, 4066.667, 4117.949, 4123.59, 450, 0, []
1631431131.0786, 113, 0, 4169.231, 4370.769, 4076.923, 4110.256, 4143.59, 450, 0, []
1631431131.0864, 114, 0, 4187.692, 4355.385, 4094.359, 4129.231, 4158.974, 450, 0, []
1631431131.0942, 115, 0, 4191.282, 4373.846, 4075.385, 4130.769, 4147.179, 16202, 0, []
1631431131.102, 116, 0, 4178.462, 4400, 4091.282, 4112.821, 4146.667, 450, 0, []
1631431131.1099, 117, 0, 4192.308, 4389.231, 4091.282, 4129.231, 4164.615, 450, 0, []
1631431131.1177, 118, 0, 4217.949, 4376.41, 4086.154, 4141.538, 4172.821, 450, 0, []
1631431131.1256, 119, 0, 4207.179, 4386.667, 4082.564, 4121.026, 4165.128, 16202, 0, []
1631431131.1333, 120, 0, 4181.538, 4395.385, 4064.615, 4116.41, 4154.359, 450, 0, []
1631431131.1412, 121, 0, 4182.564, 4390.256, 4081.026, 4126.667, 4146.154, 450, 0, []
1631431131.149, 122, 0, 4185.641, 4382.564, 4075.385, 4121.026, 4144.103, 450, 0, []
1631431131.1569, 123, 0, 4174.872, 4377.436, 4062.564, 4119.487, 4145.641, 16202, 0, []
1631431131.1647, 124, 0, 4177.949, 4370.256, 4065.128, 4122.564, 4139.487, 450, 0, []
1631431131.1726, 125, 0, 4185.128, 4372.308, 4067.692, 4117.949, 4141.026, 450, 0, []
1631431131.1803, 126, 0, 4186.667, 4386.667, 4095.385, 4128.718, 4160.513, 450, 0, []
1631431131.1882, 127, 0, 4190.769, 4385.641, 4086.667, 4137.436, 4159.487, 16202, 0, []
1631431131.196, 128, 0, 4179.487, 4374.872, 4080.513, 4122.564, 4142.564, 450, 0, []
1631431131.2039, 0, 0, 4172.308, 4378.974, 4095.385, 4117.949, 4151.795, 450, 0, []
1631431131.2117, 1, 0, 4189.231, 4388.718, 4080, 4126.667, 4160.513, 450, 0, []
1631431131.2195, 2, 0, 4186.667, 4392.821, 4089.744, 4119.487, 4147.692, 16192, 0, []
1631431131.2273, 3, 0, 4174.872, 4389.231, 4091.795, 4114.872, 4149.744, 450, 0, []
1631431131.2352, 4, 0, 4184.615, 4380.513, 4080.513, 4124.103, 4150.256, 16146, 0, []
1631431131.243, 5, 0, 4180, 4378.974, 4080.513, 4123.077, 4138.462, 450, 0, []
1631431131.2508, 6, 0, 4171.795, 4387.692, 4068.205, 4128.205, 4146.154, 265, 0, []
1631431131.2586, 7, 0, 4189.231, 4403.59, 4095.897, 4137.436, 4157.949, 450, 0, []
1631431131.2664, 8, 0, 4187.179, 4413.333, 4095.897, 4128.718, 4153.333, 450, 0, []
1631431131.2743, 9, 0, 4169.231, 4397.436, 4067.179, 4122.051, 4149.744, 16165, 0, []
1631431131.2821, 10, 0, 4183.59, 4395.385, 4080, 4128.205, 4153.846, 450, 0, []
1631431131.29, 11, 0, 4195.897, 4423.077, 4080.513, 4133.846, 4156.923, 16202, 0, []
1631431131.2977, 12, 0, 4183.59, 4418.974, 4088.205, 4134.359, 4156.923, 450, 0, []
1631431131.3056, 13, 0, 4181.026, 4391.795, 4084.103, 4131.795, 4152.308, 450, 0, []
1631431131.3134, 14, 0, 4185.128, 4403.59, 4075.385, 4132.821, 4155.385, 450, 0, []
1631431131.3213, 15, 0, 4180.513, 4418.974, 4089.231, 4135.897, 4155.385, 16202, 0, []
1631431131.3291, 16, 0, 4183.077, 4403.077, 4075.897, 4131.795, 4143.077, 0, 0, []
1631431131.3369, 17, 0, 4185.128, 4398.974, 4085.128, 4126.667, 4143.077, 0, 0, []
1631431131.3447, 18, 0, 4182.564, 4416.923, 4091.282, 4135.385, 4156.41, 0, 0, []
1631431131.3526, 19, 0, 4194.872, 4430.769, 4078.974, 4149.744, 4157.949, 0, 0, []
1631431131.3604, 20, 0, 4203.59, 4428.718, 4090.256, 4152.821, 4151.795, 0, 0, []
1631431131.3683, 21, 0, 4190.769, 4412.821, 4071.282, 4148.718, 4160.513, 0, 0, []
1631431131.376, 22, 0, 4185.128, 4409.744, 4074.872, 4152.821, 4168.205, 0, 0, []
1631431131.3838, 23, 0, 4191.282, 4428.205, 4093.846, 4157.949, 4158.462, 0, 0, []
1631431131.3917, 24, 0, 4184.615, 4434.872, 4085.128, 4152.308, 4153.333, 0, 0, []
1631431131.3995, 25, 0, 4181.538, 4424.103, 4096.41, 4152.308, 4155.385, 0, 0, []
1631431131.4074, 26, 0, 4189.744, 4420, 4083.077, 4156.41, 4145.128, 0, 0, []
1631431131.4151, 27, 0, 4174.872, 4415.385, 4066.154, 4140.513, 4132.821, 0, 0, []
1631431131.423, 28, 0, 4164.615, 4409.744, 4067.692, 4130.769, 4141.538, 0, 0, []
1631431131.4308, 29, 0, 4192.308, 4416.923, 4074.359, 4148.205, 4154.359, 0, 0, []
1631431131.4387, 30, 0, 4209.744, 4430.256, 4106.154, 4155.897, 4161.026, 0, 0, []
1631431131.4465, 31, 0, 4195.897, 4431.795, 4085.641, 4146.667, 4168.718, 0, 0, []
1631431131.4543, 32, 0, 4184.615, 4418.974, 4056.923, 4147.179, 4155.385, 0, 0, []
1631431131.4621, 33, 0, 4188.205, 4412.308, 4079.487, 4154.872, 4146.667, 0, 0, []
1631431131.47, 34, 0, 4192.821, 4421.026, 4090.256, 4160.513, 4168.205, 0, 0, []
1631431131.4779, 35, 0, 4189.744, 4426.154, 4085.641, 4158.462, 4165.641, 0, 0, []
1631431131.4857, 36, 0, 4182.564, 4433.333, 4062.564, 4141.538, 4135.385, 0, 0, []
1631431131.4935, 37, 0, 4177.436, 4445.128, 4071.282, 4127.692, 4139.487, 0, 0, []
1631431131.5013, 38, 0, 4183.59, 4448.718, 4093.846, 4138.462, 4156.41, 0, 0, []
1631431131.5091, 39, 0, 4194.359, 4452.821, 4072.308, 4153.333, 4150.769, 0, 0, []
1631431131.517, 40, 0, 4190.256, 4456.41, 4084.615, 4150.256, 4145.128, 0, 0, []
1631431131.5248, 41, 0, 4184.103, 4448.718, 4090.256, 4150.256, 4154.359, 0, 0, []
1631431131.5326, 42, 0, 4200, 4442.051, 4085.641, 4167.692, 4166.154, 0, 0, []
1631431131.5404, 43, 0, 4204.103, 4446.154, 4102.051, 4166.154, 4168.205, 0, 0, []
1631431131.5482, 44, 0, 4183.077, 4440.513, 4081.026, 4144.103, 4156.41, 0, 0, []
1631431131.5561, 45, 0, 4186.667, 4445.641, 4092.308, 4153.846, 4152.821, 0, 0, []
1631431131.5639, 46, 0, 4209.231, 4474.359, 4109.231, 4176.923, 4171.282, 0, 0, []
1631431131.5718, 47, 0, 4208.718, 4477.436, 4096.41, 4174.359, 4183.077, 0, 0, []
1631431131.5795, 48, 0, 4201.026, 4466.667, 4097.949, 4168.205, 4165.641, 0, 0, []
1631431131.5874, 49, 0, 4201.026, 4481.026, 4075.897, 4156.41, 4150.256, 0, 0, []
1631431131.5952, 50, 0, 4200.513, 4495.385, 4084.615, 4143.59, 4164.615, 0, 0, []
1631431131.6031, 51, 0, 4202.564, 4491.795, 4095.897, 4158.974, 4175.897, 0, 0, []
1631431131.6109, 52, 0, 4196.41, 4500.513, 4068.718, 4158.462, 4158.462, 0, 0, []
1631431131.6187, 53, 0, 4180, 4510.256, 4063.59, 4130.769, 4146.667, 0, 0, []
1631431131.6265, 54, 0, 4183.077, 4495.897, 4064.103, 4138.462, 4156.41, 0, 0, []
1631431131.6344, 55, 0, 4205.128, 4493.333, 4094.359, 4160.513, 4164.103, 0, 0, []
1631431131.6422, 56, 0, 4202.051, 4511.282, 4104.615, 4144.615, 4161.538, 0, 0, []
1631431131.6501, 57, 0, 4187.692, 4517.436, 4074.872, 4133.333, 4156.923, 0, 0, []
1631431131.6578, 58, 0, 4196.41, 4520.513, 4089.231, 4149.231, 4154.359, 0, 0, []
1631431131.6657, 59, 0, 4199.487, 4540.513, 4091.795, 4149.744, 4157.949, 0, 0, []
1631431131.6735, 60, 0, 4182.051, 4533.333, 4078.974, 4135.385, 4154.359, 0, 0, []
1631431131.6814, 61, 0, 4183.077, 4510.769, 4069.231, 4135.385, 4140, 0, 0, []
1631431131.6892, 62, 0, 4188.718, 4518.974, 4060, 4129.231, 4136.41, 0, 0, []
1631431131.6969, 63, 0, 4170.769, 4514.872, 4073.846, 4110.769, 4135.385, 0, 0, []
1631431131.7048, 64, 0, 4169.744, 4500, 4053.846, 4115.897, 4126.667, 450, 0, []
1631431131.7126, 65, 0, 4187.179, 4512.308, 4054.872, 4133.846, 4133.846, 450, 0, []
1631431131.7205, 66, 0, 4186.154, 4526.154, 4083.59, 4142.051, 4156.923, 16192, 0, []
1631431131.7283, 67, 0, 4186.667, 4518.462, 4076.41, 4148.718, 4161.538, 450, 0, []
1631431131.7361, 68, 0, 4202.051, 4518.974, 4089.231, 4147.179, 4150.769, 16144, 0, []
1631431131.7439, 69, 0, 4205.641, 4533.333, 4090.769, 4136.41, 4160, 450, 0, []
1631431131.7518, 70, 0, 4196.41, 4538.974, 4085.641, 4136.923, 4168.205, 264, 0, []
1631431131.7596, 71, 0, 4200.513, 4539.487, 4097.436, 4143.59, 4156.41, 450, 0, []
1631431131.7675, 72, 0, 4207.692, 4543.59, 4077.436, 4140.513, 4160.513, 450, 0, []
1631431131.7752, 73, 0, 4204.615, 4556.923, 4076.41, 4137.436, 4173.846, 16165, 0, []
1631431131.7831, 74, 0, 4198.974, 4558.974, 4074.359, 4137.949, 4155.897, 450, 0, []
1631431131.7909, 75, 0, 4193.846, 4548.718, 4071.282, 4131.795, 4138.462, 16198, 0, []
1631431131.7988, 76, 0, 4193.333, 4551.795, 4084.103, 4133.333, 4155.385, 450, 0, []
1631431131.8066, 77, 0, 4201.026, 4555.897, 4070.256, 4145.128, 4161.538, 450, 0, []
1631431131.8145, 78, 0, 4207.179, 4555.897, 4077.949, 4140.513, 4153.333, 450, 0, []
1631431131.8222, 79, 0, 4219.487, 4563.59, 4084.103, 4136.923, 4177.949, 16198, 0, []
1631431131.8301, 80, 0, 4223.59, 4561.026, 4087.179, 4152.821, 4188.205, 450, 0, []
1631431131.8379, 81, 0, 4203.077, 4550.769, 4101.026, 4146.154, 4157.436, 450, 0, []
1631431131.8458, 82, 0, 4191.795, 4558.462, 4083.077, 4123.077, 4148.718, 450, 0, []
1631431131.8536, 83, 0, 4200, 4571.795, 4085.128, 4124.103, 4157.949, 16198, 0, []
1631431131.8615, 84, 0, 4191.795, 4572.821, 4078.462, 4119.487, 4146.667, 450, 0, []
1631431131.8694, 85, 0, 4178.462, 4572.308, 4065.641, 4106.154, 4142.564, 450, 0, []
1631431131.8772, 86, 0, 4190.256, 4580, 4091.282, 4124.615, 4153.846, 450, 0, []
1631431131.8851, 87, 0, 4205.128, 4583.59, 4084.103, 4140, 4154.872, 16198, 0, []
1631431131.8929, 88, 0, 4192.821, 4598.974, 4085.128, 4127.179, 4153.333, 450, 0, []
1631431131.9007, 89, 0, 4176.923, 4605.641, 4087.179, 4123.077, 4147.692, 450, 0, []
1631431131.9085, 90, 0, 4187.692, 4581.538, 4072.308, 4130.256, 4137.436, 450, 0, []
1631431131.9164, 91, 0, 4198.462, 4564.103, 4094.872, 4133.333, 4147.692, 16198, 0, []
1631431131.9242, 92, 0, 4188.205, 4554.359, 4084.103, 4129.744, 4156.41, 450, 0, []
1631431131.9321, 93, 0, 4190.256, 4542.051, 4076.41, 4122.564, 4144.103, 450, 0, []
1631431131.9398, 94, 0, 4197.949, 4545.641, 4094.872, 4122.564, 4148.718, 450, 0, []
1631431131.9477, 95, 0, 4193.333, 4555.897, 4084.103, 4124.615, 4160.513, 16198, 0, []
1631431131.9555, 96, 0, 4191.282, 4548.205, 4083.59, 4112.821, 4144.103, 450, 0, []
1631431131.9634, 97, 0, 4185.641, 4544.103, 4072.308, 4104.615, 4129.231, 450, 0, []
1631431131.9712, 98, 0, 4184.103, 4550.769, 4077.436, 4118.974, 4142.564, 450, 0, []
1631431131.979, 99, 0, 4201.026, 4552.308, 4091.282, 4127.692, 4154.872, 16198, 0, []
1631431131.9868, 100, 0, 4197.949, 4564.103, 4072.821, 4117.949, 4153.846, 450, 0, []
1631431131.9947, 101, 0, 4177.949, 4562.051, 4078.462, 4120, 4151.282, 450, 0, []
1631431132.0025, 102, 0, 4190.769, 4538.974, 4078.974, 4136.41, 4148.718, 450, 0, []
1631431132.0104, 103, 0, 4207.179, 4540.513, 4087.179, 4135.897, 4150.769, 16198, 0, []
1631431132.0181, 104, 0, 4200.513, 4568.205, 4094.359, 4125.641, 4156.923, 450, 0, []
1631431132.0261, 105, 0, 4200.513, 4575.897, 4067.692, 4126.154, 4147.692, 450, 0, []
1631431132.034, 106, 0, 4200.513, 4556.923, 4082.051, 4117.436, 4136.41, 450, 0, []
1631431132.0418, 107, 0, 4192.308, 4540, 4091.795, 4115.897, 4148.718, 16198, 0, []
1631431132.0497, 108, 0, 4197.436, 4537.436, 4087.179, 4138.462, 4157.436, 450, 0, []
1631431132.0574, 109, 0, 4207.692, 4550.769, 4097.436, 4139.487, 4151.282, 450, 0, []
1631431132.0653, 110, 0, 4203.077, 4561.538, 4084.615, 4121.538, 4156.41, 450, 0, []
1631431132.0731, 111, 0, 4199.487, 4565.641, 4089.231, 4128.718, 4161.026, 16198, 0, []
1631431132.081, 112, 0, 4207.692, 4576.923, 4088.718, 4132.308, 4156.923, 450, 0, []
1631431132.0888, 113, 0, 4199.487, 4576.923, 4080.513, 4120.513, 4158.974, 450, 0, []
1631431132.0966, 114, 0, 4180, 4572.821, 4086.667, 4115.897, 4147.179, 450, 0, []
1631431132.1044, 115, 0, 4188.205, 4578.974, 4075.897, 4109.744, 4132.821, 16198, 0, []
1631431132.1123, 116, 0, 4202.564, 4577.949, 4091.795, 4111.795, 4147.179, 450, 0, []
1631431132.1201, 117, 0, 4190.256, 4577.949, 4085.641, 4120.513, 4155.385, 450, 0, []
1631431132.128, 118, 0, 4188.205, 4591.795, 4069.744, 4112.308, 4143.59, 450, 0, []
1631431132.1358, 119, 0, 4197.949, 4610.769, 4098.974, 4104.103, 4146.667, 16198, 0, []
1631431132.1436, 120, 0, 4193.333, 4627.692, 4081.026, 4114.872, 4157.949, 450, 0, []
1631431132.1514, 121, 0, 4186.667, 4627.692, 4060.513, 4107.692, 4143.59, 450, 0, []
