Timestamp, COUNTER, INTERPOLATED, AF3, T7, Pz, T8, AF4, RAW_CQ, MARKER_HARDWARE, MARKERS
1631430343.4938, 14, 0, 4195.897, 5984.615, 4086.667, 4110.769, 4127.179, 450, 0, []
1631430343.5016, 15, 0, 4201.538, 6071.795, 4090.256, 4092.821, 4121.538, 16185, 0, []
1631430343.5094, 16, 0, 4201.026, 6047.179, 4061.538, 4068.205, 4117.949, 0, 0, []
1631430343.5174, 17, 0, 4183.077, 5962.564, 4079.487, 4063.077, 4098.462, 0, 0, []
1631430343.5253, 18, 0, 4165.128, 5854.359, 4064.615, 4064.103, 4081.026, 0, 0, []
1631430343.5333, 19, 0, 4174.359, 5771.282, 4054.359, 4072.821, 4100, 0, 0, []
1631430343.5411, 20, 0, 4198.462, 5877.436, 4091.282, 4091.282, 4125.641, 0, 0, []
1631430343.5491, 21, 0, 4210.256, 6122.051, 4065.128, 4096.923, 4130.769, 0, 0, []
1631430343.557, 22, 0, 4201.026, 6028.205, 4068.205, 4092.821, 4118.974, 0, 0, []
1631430343.565, 23, 0, 4187.179, 5768.718, 4061.538, 4086.154, 4108.718, 0, 0, []
1631430343.5729, 24, 0, 4187.179, 6014.359, 4045.128, 4071.282, 4112.821, 0, 0, []
1631430343.5808, 25, 0, 4198.462, 6405.128, 4071.282, 4069.744, 4111.795, 0, 0, []
1631430343.5887, 26, 0, 4203.077, 6549.744, 4041.026, 4076.41, 4108.205, 0, 0, []
1631430343.5965, 27, 0, 4195.897, 7010.769, 4045.641, 4074.359, 4122.051, 0, 0, []
1631430343.6044, 28, 0, 4195.897, 7709.744, 4060, 4082.564, 4130.256, 0, 0, []
1631430343.6122, 29, 0, 4206.667, 7854.872, 4043.59, 4094.872, 4119.487, 0, 0, []
1631430343.62, 30, 0, 4212.308, 7688.718, 4063.59, 4087.179, 4116.923, 0, 0, []
1631430343.6278, 31, 0, 4218.462, 7730.769, 4047.179, 4078.462, 4128.205, 0, 0, []
1631430343.6357, 32, 0, 4214.872, 7780.513, 4052.308, 4082.564, 4133.846, 0, 0, []
1631430343.6435, 33, 0, 4203.077, 7776.923, 4055.897, 4084.615, 4125.128, 0, 0, []
1631430343.6515, 34, 0, 4208.205, 7770.769, 4038.974, 4084.103, 4111.795, 0, 0, []
1631430343.6593, 35, 0, 4226.154, 7754.872, 4074.872, 4090.769, 4117.436, 0, 0, []
1631430343.6673, 36, 0, 4227.179, 7772.308, 4055.897, 4086.154, 4123.59, 0, 0, []
1631430343.6752, 37, 0, 4214.359, 7780, 4042.564, 4075.897, 4114.359, 0, 0, []
1631430343.6832, 38, 0, 4215.385, 7766.667, 4050.256, 4081.026, 4124.615, 0, 0, []
1631430343.6911, 39, 0, 4220, 7769.744, 4029.231, 4090.256, 4140.513, 0, 0, []
1631430343.699, 40, 0, 4215.385, 7772.821, 4062.051, 4094.359, 4128.205, 0, 0, []
1631430343.7069, 41, 0, 4217.949, 7770.256, 4054.359, 4088.718, 4117.436, 0, 0, []
1631430343.7149, 42, 0, 4232.821, 7770.256, 4042.051, 4084.103, 4128.205, 0, 0, []
1631430343.7228, 43, 0, 4235.385, 7769.231, 4060, 4086.154, 4123.077, 0, 0, []
1631430343.7308, 44, 0, 4227.692, 7769.231, 4042.564, 4089.744, 4118.974, 0, 0, []
1631430343.7386, 45, 0, 4232.821, 7769.744, 4066.667, 4098.462, 4148.205, 0, 0, []
1631430343.7464, 46, 0, 4243.59, 7769.231, 4054.872, 4098.462, 4160.513, 0, 0, []
1631430343.7543, 47, 0, 4240, 7769.231, 4038.974, 4089.231, 4136.923, 0, 0, []
1631430343.7621, 48, 0, 4233.333, 7769.231, 4067.692, 4094.872, 4124.615, 0, 0, []
1631430343.77, 49, 0, 4245.128, 7769.231, 4050.256, 4110.256, 4133.333, 0, 0, []
1631430343.7777, 50, 0, 4264.103, 7769.231, 4061.538, 4109.744, 4138.462, 0, 0, []
1631430343.7856, 51, 0, 4268.718, 7769.231, 4058.462, 4093.846, 4137.436, 0, 0, []
1631430343.7934, 52, 0, 4256.923, 7769.744, 4043.077, 4084.615, 4134.872, 0, 0, []
1631430343.8014, 53, 0, 4251.282, 7769.744, 4064.103, 4090.769, 4140, 0, 0, []
1631430343.8093, 54, 0, 4256.41, 7768.718, 4049.744, 4106.667, 4153.846, 0, 0, []
1631430343.8171, 55, 0, 4254.359, 7769.744, 4067.692, 4116.923, 4149.744, 0, 0, []
1631430343.8249, 56, 0, 4248.205, 7770.256, 4063.077, 4104.615, 4128.718, 0, 0, []
1631430343.8329, 57, 0, 4246.154, 7766.154, 4042.051, 4093.846, 4120.513, 0, 0, []
1631430343.8408, 58, 0, 4249.231, 7764.615, 4076.41, 4109.231, 4128.205, 0, 0, []
1631430343.8488, 59, 0, 4244.103, 7770.256, 4055.385, 4119.487, 4126.667, 0, 0, []
1631430343.8567, 60, 0, 4236.923, 7772.821, 4054.359, 4108.205, 4125.641, 0, 0, []
1631430343.8646, 61, 0, 4237.436, 7770.256, 4066.667, 4096.923, 4140, 0, 0, []
1631430343.8725, 62, 0, 4232.821, 7770.769, 4046.154, 4101.538, 4139.487, 0, 0, []
1631430343.8805, 63, 0, 4227.179, 7771.795, 4062.564, 4114.359, 4120, 0, 0, []
1631430343.8884, 64, 0, 4237.436, 7771.282, 4053.846, 4124.103, 4118.462, 450, 0, []
1631430343.8962, 65, 0, 4251.795, 7771.795, 4064.615, 4121.026, 4127.692, 450, 0, []
1631430343.904, 66, 0, 4248.205, 7772.821, 4067.692, 4104.615, 4120, 16182, 0, []
1631430343.9118, 67, 0, 4244.103, 7772.821, 4048.718, 4098.974, 4118.974, 450, 0, []
1631430343.9197, 68, 0, 4250.769, 7770.256, 4090.769, 4107.179, 4138.462, 296, 0, []
1631430343.9275, 69, 0, 4251.795, 7780.513, 4079.487, 4108.205, 4147.692, 450, 0, []
1631430343.9354, 70, 0, 4242.051, 7783.59, 4066.154, 4104.615, 4132.821, 225, 0, []
1631430343.9431, 71, 0, 4238.974, 7754.359, 4083.077, 4110.769, 4119.487, 450, 0, []
1631430343.951, 72, 0, 4249.231, 7764.615, 4063.59, 4112.308, 4124.103, 450, 0, []
1631430343.9588, 73, 0, 4256.923, 7752.308, 4082.564, 4103.59, 4129.744, 16159, 0, []
1631430343.9668, 74, 0, 4253.846, 7660, 4077.436, 4102.051, 4125.641, 450, 0, []
1631430343.9747, 75, 0, 4243.59, 7574.359, 4076.41, 4106.154, 4123.59, 16186, 0, []
1631430343.9826, 76, 0, 4234.872, 7453.333, 4093.333, 4112.821, 4128.205, 450, 0, []
1631430343.9905, 77, 0, 4241.026, 7321.026, 4063.077, 4113.333, 4133.846, 450, 0, []
1631430343.9985, 78, 0, 4257.436, 7473.846, 4083.59, 4110.769, 4134.359, 450, 0, []
1631430344.0064, 79, 0, 4264.615, 7685.641, 4086.667, 4117.436, 4127.179, 16186, 0, []
1631430344.0144, 80, 0, 4260.513, 7355.897, 4071.795, 4114.872, 4125.641, 450, 0, []
1631430344.0222, 81, 0, 4259.487, 6836.41, 4085.641, 4101.538, 4136.923, 450, 0, []
1631430344.0302, 82, 0, 4263.59, 6934.872, 4060.513, 4106.154, 4144.103, 450, 0, []
1631430344.0381, 83, 0, 4261.538, 7414.872, 4069.744, 4112.821, 4134.359, 16186, 0, []
1631430344.0461, 84, 0, 4255.897, 7553.846, 4067.692, 4106.154, 4127.179, 450, 0, []
1631430344.054, 85, 0, 4258.974, 7425.128, 4062.051, 4115.897, 4135.897, 450, 0, []
1631430344.0617, 86, 0, 4274.359, 7494.359, 4095.385, 4134.872, 4154.872, 450, 0, []
1631430344.0696, 87, 0, 4286.667, 7636.923, 4073.333, 4132.821, 4171.282, 16186, 0, []
1631430344.0774, 88, 0, 4278.974, 7591.795, 4072.308, 4116.923, 4164.103, 450, 0, []
1631430344.0853, 89, 0, 4265.641, 7512.821, 4068.718, 4112.308, 4145.641, 450, 0, []
1631430344.0931, 90, 0, 4266.667, 7566.154, 4053.846, 4125.128, 4144.103, 450, 0, []
1631430344.1009, 91, 0, 4271.282, 7628.718, 4081.026, 4137.436, 4147.692, 16186, 0, []
1631430344.1087, 92, 0, 4266.667, 7554.872, 4065.641, 4134.872, 4142.051, 450, 0, []
1631430344.1166, 93, 0, 4265.641, 7392.308, 4073.846, 4128.718, 4145.128, 450, 0, []
1631430344.1244, 94, 0, 4267.179, 7428.718, 4081.026, 4113.333, 4155.385, 450, 0, []
1631430344.1324, 95, 0, 4258.974, 7343.59, 4065.641, 4105.128, 4157.949, 16186, 0, []
1631430344.1402, 96, 0, 4258.462, 6826.667, 4093.333, 4129.744, 4155.385, 450, 0, []
1631430344.1482, 97, 0, 4272.821, 6628.205, 4064.615, 4140, 4144.615, 450, 0, []
1631430344.1561, 98, 0, 4277.949, 6963.077, 4057.949, 4112.821, 4134.872, 450, 0, []
1631430344.1641, 99, 0, 4269.744, 7147.692, 4083.077, 4095.897, 4146.154, 16186, 0, []
1631430344.172, 100, 0, 4262.051, 7164.103, 4064.615, 4100, 4153.846, 450, 0, []
1631430344.18, 101, 0, 4267.179, 7268.205, 4077.949, 4114.872, 4150.769, 450, 0, []
1631430344.1878, 102, 0, 4288.205, 7288.718, 4068.205, 4131.795, 4155.897, 450, 0, []
1631430344.1958, 103, 0, 4297.949, 7137.949, 4071.282, 4132.308, 4155.897, 16186, 0, []
1631430344.2037, 104, 0, 4285.128, 6910.769, 4085.641, 4116.923, 4152.308, 450, 0, []
1631430344.2115, 105, 0, 4276.41, 6794.872, 4057.949, 4112.821, 4165.641, 450, 0, []
1631430344.2194, 106, 0, 4274.359, 6928.205, 4074.359, 4120.513, 4166.667, 450, 0, []
1631430344.2271, 107, 0, 4267.179, 6947.179, 4055.897, 4114.359, 4139.487, 16186, 0, []
1631430344.235, 108, 0, 4263.59, 6808.718, 4046.667, 4100.513, 4127.692, 450, 0, []
1631430344.2428, 109, 0, 4262.051, 6745.128, 4080.513, 4104.103, 4143.59, 450, 0, []
1631430344.2507, 110, 0, 4251.282, 6635.385, 4060.513, 4106.667, 4145.128, 450, 0, []
1631430344.2585, 111, 0, 4254.872, 6561.538, 4070.769, 4102.051, 4135.385, 16186, 0, []
1631430344.2663, 112, 0, 4277.949, 6532.821, 4080, 4113.333, 4146.154, 450, 0, []
1631430344.2741, 113, 0, 4279.487, 6363.59, 4086.154, 4122.564, 4157.949, 450, 0, []
1631430344.282, 114, 0, 4271.282, 6227.692, 4093.333, 4120.513, 4156.923, 450, 0, []
1631430344.2898, 115, 0, 4289.744, 6270.769, 4061.538, 4130.769, 4161.538, 16186, 0, []
1631430344.2978, 116, 0, 4298.974, 6234.359, 4091.282, 4141.026, 4168.718, 450, 0, []
1631430344.3056, 117, 0, 4277.949, 5967.179, 4084.103, 4133.333, 4170.769, 450, 0, []
1631430344.3136, 118, 0, 4276.41, 5692.308, 4050.769, 4127.692, 4170.769, 450, 0, []
1631430344.3215, 119, 0, 4276.41, 5441.538, 4069.744, 4109.744, 4146.667, 16186, 0, []
1631430344.3295, 120, 0, 4243.077, 5274.872, 4043.59, 4077.949, 4116.41, 450, 0, []
1631430344.3374, 121, 0, 4248.205, 5118.462, 4058.974, 4096.41, 4137.436, 450, 0, []
1631430344.3453, 122, 0, 4304.615, 4873.333, 4092.821, 4149.744, 4186.154, 450, 0, []
1631430344.3532, 123, 0, 4313.333, 4832.821, 4085.641, 4166.154, 4196.923, 16186, 0, []
1631430344.3612, 124, 0, 4284.103, 5095.385, 4094.359, 4145.641, 4181.538, 450, 0, []
1631430344.3691, 125, 0, 4289.744, 5281.538, 4077.436, 4134.359, 4180.513, 450, 0, []
1631430344.3769, 126, 0, 4290.769, 5174.872, 4092.308, 4135.897, 4179.487, 450, 0, []
1631430344.3847, 127, 0, 4269.231, 5168.718, 4088.718, 4132.308, 4163.077, 16186, 0, []
1631430344.3925, 128, 0, 4265.641, 5444.615, 4060, 4128.205, 4153.333, 450, 0, []
1631430344.4004, 0, 0, 4268.205, 5691.282, 4089.231, 4126.667, 4161.026, 450, 0, []
1631430344.4082, 1, 0, 4268.205, 5700.513, 4073.846, 4129.744, 4165.128, 450, 0, []
1631430344.4161, 2, 0, 4276.41, 5624.103, 4074.872, 4137.949, 4153.333, 16187, 0, []
1631430344.4238, 3, 0, 4277.436, 5668.205, 4091.282, 4142.051, 4154.872, 450, 0, []
1631430344.4317, 4, 0, 4264.103, 5677.436, 4063.59, 4137.949, 4166.667, 115, 0, []
1631430344.4395, 5, 0, 4259.487, 5690.256, 4081.538, 4140.513, 4160.513, 450, 0, []
1631430344.4474, 6, 0, 4266.154, 5610.769, 4074.359, 4136.41, 4152.821, 226, 0, []
1631430344.4553, 7, 0, 4271.282, 5232.821, 4078.462, 4121.538, 4165.128, 450, 0, []
1631430344.4631, 8, 0, 4280, 5086.667, 4094.359, 4132.821, 4176.41, 450, 0, []
1631430344.471, 9, 0, 4286.667, 5389.231, 4066.154, 4151.282, 4174.359, 16158, 0, []
1631430344.479, 10, 0, 4269.744, 5556.923, 4085.128, 4135.897, 4165.128, 450, 0, []
1631430344.487, 11, 0, 4257.436, 5526.667, 4077.436, 4127.692, 4161.026, 16201, 0, []
1631430344.4949, 12, 0, 4269.744, 5563.59, 4065.641, 4145.128, 4165.641, 450, 0, []
1631430344.5027, 13, 0, 4257.436, 5485.128, 4078.462, 4132.821, 4156.923, 450, 0, []
1631430344.5107, 14, 0, 4249.231, 5342.051, 4068.205, 4131.795, 4162.051, 450, 0, []
1631430344.5186, 15, 0, 4300, 5417.436, 4108.205, 4186.154, 4202.564, 16201, 0, []
1631430344.5266, 16, 0, 4321.026, 5506.154, 4101.026, 4199.487, 4214.872, 0, 0, []
1631430344.5345, 17, 0, 4270.256, 5443.59, 4070.769, 4145.641, 4181.026, 0, 0, []
1631430344.5423, 18, 0, 4254.359, 5509.231, 4089.744, 4125.128, 4164.615, 0, 0, []
1631430344.5501, 19, 0, 4270.769, 5625.128, 4065.128, 4142.051, 4161.026, 0, 0, []
1631430344.5579, 20, 0, 4248.205, 5315.897, 4067.179, 4131.795, 4146.667, 0, 0, []
1631430344.5658, 21, 0, 4248.718, 4857.949, 4080, 4126.154, 4154.872, 0, 0, []
1631430344.5736, 22, 0, 4279.487, 4916.923, 4080.513, 4132.821, 4167.179, 0, 0, []
1631430344.5815, 23, 0, 4275.897, 5210.769, 4099.487, 4128.205, 4166.667, 0, 0, []
1631430344.5892, 24, 0, 4267.179, 5150.256, 4081.026, 4138.974, 4171.795, 0, 0, []
1631430344.5971, 25, 0, 4277.436, 5023.077, 4089.744, 4149.231, 4171.282, 0, 0, []
1631430344.6049, 26, 0, 4261.538, 5128.205, 4075.897, 4130.769, 4157.436, 0, 0, []
1631430344.6129, 27, 0, 4244.103, 4985.641, 4054.359, 4124.103, 4151.795, 0, 0, []
1631430344.6208, 28, 0, 4269.231, 4473.846, 4101.026, 4147.692, 4165.641, 0, 0, []
1631430344.6287, 29, 0, 4287.692, 4312.308, 4081.538, 4154.359, 4173.846, 0, 0, []
1631430344.6366, 30, 0, 4273.333, 4707.179, 4070.256, 4146.154, 4162.564, 0, 0, []
1631430344.6446, 31, 0, 4262.564, 4774.872, 4085.641, 4148.205, 4159.487, 0, 0, []
1631430344.6525, 32, 0, 4267.179, 4416.923, 4068.718, 4150.256, 4165.641, 0, 0, []
1631430344.6605, 33, 0, 4277.436, 4457.436, 4087.692, 4155.385, 4160.513, 0, 0, []
1631430344.6683, 34, 0, 4274.872, 4750.769, 4070.769, 4155.385, 4159.487, 0, 0, []
1631430344.6763, 35, 0, 4262.564, 4740, 4061.026, 4142.051, 4166.667, 0, 0, []
1631430344.6842, 36, 0, 4261.538, 4652.308, 4069.231, 4128.718, 4160.513, 0, 0, []
1631430344.692, 37, 0, 4264.615, 4706.667, 4052.308, 4128.205, 4152.821, 0, 0, []
1631430344.6999, 38, 0, 4264.615, 4647.179, 4083.077, 4145.128, 4163.077, 0, 0, []
1631430344.7076, 39, 0, 4266.154, 4527.179, 4076.923, 4152.308, 4172.308, 0, 0, []
1631430344.7155, 40, 0, 4265.128, 4545.641, 4071.795, 4140, 4173.333, 0, 0, []
1631430344.7233, 41, 0, 4269.231, 4548.205, 4094.872, 4143.59, 4172.821, 0, 0, []
1631430344.7312, 42, 0, 4274.359, 4503.077, 4070.769, 4161.026, 4170.256, 0, 0, []
1631430344.739, 43, 0, 4275.897, 4504.103, 4086.154, 4170.769, 4177.436, 0, 0, []
1631430344.7469, 44, 0, 4281.026, 4501.538, 4084.103, 4163.077, 4186.667, 0, 0, []
1631430344.7548, 45, 0, 4282.051, 4429.744, 4069.744, 4151.282, 4187.179, 0, 0, []
1631430344.7628, 46, 0, 4276.41, 4382.051, 4082.564, 4150.256, 4184.103, 0, 0, []
1631430344.7707, 47, 0, 4271.795, 4415.897, 4055.385, 4149.231, 4178.462, 0, 0, []
1631430344.7787, 48, 0, 4267.692, 4330.769, 4058.462, 4138.974, 4168.205, 0, 0, []
1631430344.7865, 49, 0, 4262.564, 4047.692, 4054.872, 4138.974, 4165.128, 0, 0, []
1631430344.7945, 50, 0, 4261.538, 3961.538, 4073.333, 4158.974, 4171.282, 0, 0, []
1631430344.8024, 51, 0, 4261.538, 4254.872, 4113.333, 4152.308, 4167.179, 0, 0, []
1631430344.8104, 52, 0, 4264.103, 4446.667, 4069.231, 4129.231, 4160.513, 0, 0, []
1631430344.8183, 53, 0, 4263.59, 4344.615, 4077.949, 4141.538, 4164.103, 0, 0, []
1631430344.8262, 54, 0, 4254.872, 4253.846, 4093.846, 4157.436, 4165.641, 0, 0, []
1631430344.8341, 55, 0, 4242.564, 4196.923, 4067.692, 4142.564, 4150.769, 0, 0, []
1631430344.8419, 56, 0, 4234.359, 4164.103, 4082.564, 4117.949, 4135.385, 0, 0, []
1631430344.8498, 57, 0, 4231.795, 4312.308, 4072.308, 4121.026, 4138.462, 0, 0, []
1631430344.8576, 58, 0, 4231.282, 4506.667, 4084.103, 4145.128, 4147.179, 0, 0, []
1631430344.8654, 59, 0, 4240, 4551.795, 4090.256, 4156.41, 4155.897, 0, 0, []
1631430344.8732, 60, 0, 4256.41, 4515.897, 4090.256, 4155.385, 4167.692, 0, 0, []
1631430344.8811, 61, 0, 4257.436, 4500.513, 4110.769, 4150.769, 4171.282, 0, 0, []
1631430344.8889, 62, 0, 4245.641, 4502.564, 4071.282, 4141.538, 4161.538, 0, 0, []
1631430344.8968, 63, 0, 4238.974, 4498.462, 4079.487, 4135.897, 4155.385, 0, 0, []
1631430344.9046, 64, 0, 4233.846, 4450.769, 4088.718, 4135.385, 4151.282, 450, 0, []
1631430344.9125, 65, 0, 4227.179, 4425.128, 4069.744, 4134.872, 4139.487, 450, 0, []
1631430344.9204, 66, 0, 4232.308, 4433.333, 4104.103, 4133.333, 4138.974, 16189, 0, []
1631430344.9284, 67, 0, 4245.128, 4371.282, 4087.692, 4145.641, 4161.538, 450, 0, []
1631430344.9363, 68, 0, 4256.923, 4344.615, 4096.923, 4166.154, 4177.949, 16094, 0, []
1631430344.9443, 69, 0, 4265.128, 4444.615, 4118.462, 4167.692, 4177.949, 450, 0, []
1631430344.9521, 70, 0, 4262.564, 4534.872, 4083.077, 4152.821, 4175.385, 231, 0, []
1631430344.9601, 71, 0, 4245.641, 4516.923, 4090.769, 4150.256, 4161.538, 450, 0, []
1631430344.968, 72, 0, 4240.513, 4471.795, 4082.564, 4156.41, 4156.41, 450, 0, []
1631430344.976, 73, 0, 4269.231, 4401.538, 4098.974, 4160.513, 4186.154, 16164, 0, []
1631430344.9839, 74, 0, 4294.872, 4177.436, 4124.103, 4168.205, 4208.718, 450, 0, []
1631430344.9916, 75, 0, 4280, 3937.436, 4083.077, 4170.256, 4186.667, 16200, 0, []
1631430344.9995, 76, 0, 4264.615, 3906.154, 4096.923, 4174.872, 4175.897, 450, 0, []
1631430345.0073, 77, 0, 4293.333, 3964.615, 4104.615, 4183.59, 4213.333, 450, 0, []
1631430345.0152, 78, 0, 4327.692, 3911.795, 4094.872, 4177.436, 4238.462, 450, 0, []
1631430345.023, 79, 0, 4334.872, 3856.41, 4108.205, 4165.128, 4229.744, 16200, 0, []
1631430345.0308, 80, 0, 4348.205, 3915.385, 4086.667, 4149.744, 4242.051, 450, 0, []
1631430345.0386, 81, 0, 4396.923, 3979.487, 4100, 4154.359, 4311.795, 450, 0, []
1631430345.0465, 82, 0, 4466.667, 3990.769, 4096.923, 4188.718, 4397.949, 450, 0, []
1631430345.0543, 83, 0, 4519.487, 4008.718, 4093.333, 4206.667, 4452.308, 16200, 0, []
1631430345.0622, 84, 0, 4544.103, 4046.667, 4129.231, 4203.077, 4495.385, 450, 0, []
1631430345.0699, 85, 0, 4556.923, 3955.385, 4114.359, 4207.692, 4546.154, 450, 0, []
1631430345.0779, 86, 0, 4557.436, 3730.256, 4126.154, 4215.897, 4583.59, 450, 0, []
1631430345.0858, 87, 0, 4539.487, 3662.051, 4122.564, 4228.205, 4592.821, 16200, 0, []
1631430345.0938, 88, 0, 4514.359, 3773.333, 4103.077, 4249.744, 4580, 450, 0, []
1631430345.1017, 89, 0, 4490.256, 3737.949, 4130.256, 4254.359, 4563.59, 450, 0, []
1631430345.1096, 90, 0, 4462.051, 3541.538, 4105.641, 4243.077, 4557.949, 450, 0, []
1631430345.1175, 91, 0, 4429.231, 3321.538, 4119.487, 4249.744, 4549.744, 16200, 0, []
1631430345.1255, 92, 0, 4395.897, 3194.359, 4138.974, 4265.128, 4523.59, 450, 0, []
1631430345.1334, 93, 0, 4360.513, 3352.308, 4108.205, 4261.538, 4493.846, 450, 0, []
1631430345.1414, 94, 0, 4334.872, 3632.308, 4127.179, 4258.462, 4472.308, 450, 0, []
1631430345.1492, 95, 0, 4312.308, 3645.641, 4117.436, 4264.103, 4443.59, 16200, 0, []
1631430345.157, 96, 0, 4276.923, 3437.436, 4111.795, 4262.051, 4402.051, 450, 0, []
1631430345.1649, 97, 0, 4245.128, 3265.641, 4111.795, 4251.795, 4362.564, 450, 0, []
1631430345.1727, 98, 0, 4224.615, 3236.923, 4092.821, 4233.333, 4324.615, 450, 0, []
1631430345.1806, 99, 0, 4213.846, 3255.385, 4123.077, 4213.333, 4303.077, 16200, 0, []
1631430345.1883, 100, 0, 4213.333, 3250.256, 4115.385, 4225.128, 4307.179, 450, 0, []
1631430345.1962, 101, 0, 4207.692, 3333.333, 4122.564, 4253.333, 4302.564, 450, 0, []
1631430345.204, 102, 0, 4192.821, 3225.641, 4135.385, 4243.077, 4281.026, 450, 0, []
1631430345.2119, 103, 0, 4185.641, 2890.769, 4107.179, 4219.487, 4264.103, 16200, 0, []
1631430345.2197, 104, 0, 4181.538, 3033.846, 4130.769, 4220, 4252.821, 450, 0, []
1631430345.2277, 105, 0, 4171.282, 3632.308, 4108.718, 4214.359, 4236.923, 450, 0, []
1631430345.2355, 106, 0, 4162.051, 3831.282, 4092.308, 4194.359, 4220, 450, 0, []
1631430345.2435, 107, 0, 4149.744, 3608.718, 4114.359, 4186.154, 4204.615, 16200, 0, []
1631430345.2514, 108, 0, 4134.872, 3149.231, 4091.282, 4178.974, 4189.744, 450, 0, []
1631430345.2594, 109, 0, 4128.718, 2562.564, 4116.41, 4178.462, 4178.974, 450, 0, []
1631430345.2673, 110, 0, 4132.308, 2653.333, 4117.949, 4202.564, 4174.872, 450, 0, []
1631430345.2752, 111, 0, 4137.949, 3311.795, 4104.615, 4214.872, 4172.821, 16200, 0, []
1631430345.2831, 112, 0, 4136.41, 3554.359, 4120, 4194.872, 4167.179, 450, 0, []
1631430345.2911, 113, 0, 4126.154, 3452.308, 4094.359, 4175.897, 4154.359, 450, 0, []
1631430345.299, 114, 0, 4122.051, 3504.615, 4117.949, 4175.385, 4149.231, 450, 0, []
1631430345.3068, 115, 0, 4128.205, 3638.462, 4121.026, 4161.538, 4154.872, 16200, 0, []
1631430345.3146, 116, 0, 4133.333, 3673.846, 4104.615, 4152.821, 4157.949, 450, 0, []
1631430345.3224, 117, 0, 4136.923, 3626.154, 4131.282, 4173.333, 4153.333, 450, 0, []
1631430345.3303, 118, 0, 4137.436, 3618.462, 4114.359, 4187.179, 4150.769, 450, 0, []
1631430345.3381, 119, 0, 4140, 3647.179, 4126.667, 4187.692, 4156.923, 16200, 0, []
1631430345.346, 120, 0, 4141.026, 3509.744, 4127.179, 4184.103, 4159.487, 450, 0, []
1631430345.3537, 121, 0, 4128.718, 3380.513, 4109.744, 4171.795, 4144.615, 450, 0, []
1631430345.3616, 122, 0, 4115.897, 3381.026, 4127.179, 4160.513, 4124.103, 450, 0, []
1631430345.3694, 123, 0, 4109.744, 3088.205, 4093.333, 4147.179, 4111.282, 16200, 0, []
1631430345.3774, 124, 0, 4098.974, 2605.128, 4104.615, 4137.436, 4107.692, 450, 0, []
1631430345.3853, 125, 0, 4098.462, 2604.615, 4125.128, 4151.282, 4109.231, 450, 0, []
1631430345.3932, 126, 0, 4103.59, 2972.308, 4101.026, 4164.103, 4106.667, 450, 0, []
1631430345.4011, 127, 0, 4090.769, 2853.846, 4110.769, 4148.205, 4090.256, 16200, 0, []
1631430345.4091, 128, 0, 4076.923, 2132.821, 4087.692, 4133.846, 4073.333, 450, 0, []
1631430345.417, 0, 0, 4075.897, 1667.179, 4091.795, 4137.436, 4073.846, 450, 0, []
1631430345.425, 1, 0, 4078.462, 1585.641, 4102.564, 4138.974, 4077.436, 450, 0, []
1631430345.4328, 2, 0, 4082.051, 1450.256, 4072.821, 4130.769, 4068.718, 16187, 0, []
1631430345.4408, 3, 0, 4088.205, 1749.231, 4102.051, 4132.821, 4073.846, 450, 0, []
1631430345.4487, 4, 0, 4096.923, 2652.308, 4105.641, 4150.769, 4093.846, 16173, 0, []
1631430345.4565, 5, 0, 4107.692, 3220, 4097.436, 4156.923, 4096.41, 450, 0, []
1631430345.4644, 6, 0, 4112.821, 3210.256, 4103.077, 4145.641, 4096.41, 222, 0, []
1631430345.4722, 7, 0, 4114.359, 3008.718, 4079.487, 4138.974, 4105.128, 450, 0, []
1631430345.4802, 8, 0, 4120, 2765.128, 4098.974, 4145.128, 4107.179, 450, 0, []
1631430345.488, 9, 0, 4120.513, 2817.436, 4090.769, 4149.231, 4098.462, 16167, 0, []
1631430345.4959, 10, 0, 4116.41, 3098.462, 4086.154, 4150.769, 4085.641, 450, 0, []
1631430345.5037, 11, 0, 4120.513, 3189.744, 4101.026, 4138.974, 4077.436, 16192, 0, []
1631430345.5115, 12, 0, 4136.923, 3305.641, 4072.308, 4127.179, 4087.692, 450, 0, []
1631430345.5193, 13, 0, 4153.333, 3455.897, 4096.923, 4138.462, 4108.205, 450, 0, []
1631430345.5272, 14, 0, 4152.821, 3360, 4093.846, 4142.564, 4109.744, 450, 0, []
1631430345.535, 15, 0, 4142.564, 3342.051, 4068.205, 4130.256, 4098.974, 16192, 0, []
1631430345.543, 16, 0, 4145.641, 3583.077, 4077.436, 4130.256, 4095.385, 0, 0, []
1631430345.5508, 17, 0, 4159.487, 3646.154, 4065.641, 4133.846, 4100.513, 0, 0, []
1631430345.5588, 18, 0, 4172.308, 3420.513, 4095.385, 4135.897, 4109.744, 0, 0, []
1631430345.5667, 19, 0, 4180, 3324.615, 4090.769, 4146.154, 4117.949, 0, 0, []
1631430345.5747, 20, 0, 4180, 3353.333, 4077.436, 4147.179, 4120, 0, 0, []
1631430345.5826, 21, 0, 4169.744, 3194.872, 4103.59, 4133.333, 4109.744, 0, 0, []
1631430345.5906, 22, 0, 4158.462, 3309.744, 4076.41, 4121.026, 4094.359, 0, 0, []
1631430345.5984, 23, 0, 4167.692, 3537.949, 4087.692, 4114.359, 4093.846, 0, 0, []
1631430345.6064, 24, 0, 4190.256, 2761.538, 4088.718, 4115.385, 4113.333, 0, 0, []
1631430345.6143, 25, 0, 4188.718, 1456.923, 4060, 4114.359, 4116.923, 0, 0, []
1631430345.6221, 26, 0, 4169.231, 994.359, 4073.846, 4115.897, 4097.949, 0, 0, []
1631430345.63, 27, 0, 4167.692, 1013.333, 4055.897, 4118.462, 4099.487, 0, 0, []
1631430345.6377, 28, 0, 4172.308, 812.821, 4073.333, 4100.513, 4111.795, 0, 0, []
1631430345.6456, 29, 0, 4168.718, 718.974, 4082.051, 4087.179, 4100.513, 0, 0, []
1631430345.6534, 30, 0, 4176.41, 786.667, 4061.026, 4112.821, 4101.538, 0, 0, []
1631430345.6613, 31, 0, 4182.051, 800.513, 4083.077, 4131.795, 4114.359, 0, 0, []
1631430345.6691, 32, 0, 4174.359, 812.308, 4065.641, 4116.41, 4103.077, 0, 0, []
1631430345.677, 33, 0, 4184.103, 814.359, 4088.205, 4124.103, 4108.718, 0, 0, []
1631430345.6849, 34, 0, 4201.538, 815.385, 4102.051, 4135.385, 4134.359, 0, 0, []
1631430345.6929, 35, 0, 4191.795, 820, 4067.692, 4120.513, 4122.051, 0, 0, []
1631430345.7008, 36, 0, 4185.128, 818.462, 4096.923, 4125.128, 4108.205, 0, 0, []
1631430345.7088, 37, 0, 4203.077, 818.462, 4085.128, 4135.897, 4130.769, 0, 0, []
1631430345.7166, 38, 0, 4217.436, 816.923, 4082.564, 4131.795, 4141.026, 0, 0, []
1631430345.7246, 39, 0, 4227.692, 818.462, 4101.026, 4137.949, 4143.077, 0, 0, []
1631430345.7325, 40, 0, 4238.462, 818.974, 4076.41, 4136.923, 4153.333, 0, 0, []
1631430345.7405, 41, 0, 4224.615, 817.949, 4092.821, 4125.641, 4141.538, 0, 0, []
1631430345.7484, 42, 0, 4201.538, 818.462, 4084.103, 4128.718, 4125.641, 0, 0, []
1631430345.7563, 43, 0, 4209.744, 818.462, 4089.744, 4131.795, 4133.846, 0, 0, []
1631430345.7642, 44, 0, 4226.154, 818.462, 4110.256, 4131.282, 4148.718, 0, 0, []
1631430345.772, 45, 0, 4218.974, 818.462, 4084.103, 4145.641, 4155.385, 0, 0, []
1631430345.7799, 46, 0, 4214.872, 818.462, 4109.744, 4162.051, 4152.821, 0, 0, []
1631430345.7877, 47, 0, 4222.564, 818.462, 4094.872, 4148.205, 4142.051, 0, 0, []
1631430345.7955, 48, 0, 4212.821, 818.462, 4074.872, 4124.103, 4135.385, 0, 0, []
1631430345.8033, 49, 0, 4207.692, 818.462, 4106.667, 4133.333, 4135.897, 0, 0, []
1631430345.8112, 50, 0, 4217.436, 818.462, 4092.308, 4150.769, 4139.487, 0, 0, []
1631430345.819, 51, 0, 4206.667, 818.462, 4105.128, 4142.564, 4136.923, 0, 0, []
1631430345.8269, 52, 0, 4188.718, 818.462, 4090.769, 4134.872, 4120.513, 0, 0, []
1631430345.8346, 53, 0, 4194.872, 818.462, 4080, 4151.795, 4120, 0, 0, []
1631430345.8426, 54, 0, 4202.564, 818.462, 4120, 4149.744, 4139.487, 0, 0, []
1631430345.8505, 55, 0, 4192.821, 818.462, 4084.615, 4116.923, 4136.41, 0, 0, []
1631430345.8584, 56, 0, 4184.103, 818.462, 4070.256, 4110.769, 4119.487, 0, 0, []
1631430345.8662, 57, 0, 4183.59, 818.462, 4079.487, 4130.256, 4125.128, 0, 0, []
1631430345.8741, 58, 0, 4185.641, 818.462, 4085.641, 4137.949, 4130.769, 0, 0, []
1631430345.882, 59, 0, 4185.128, 818.462, 4112.308, 4133.846, 4121.026, 0, 0, []
1631430345.89, 60, 0, 4180, 818.462, 4088.718, 4135.897, 4126.667, 0, 0, []
1631430345.8979, 61, 0, 4184.103, 818.462, 4102.051, 4144.103, 4141.026, 0, 0, []
1631430345.9059, 62, 0, 4188.205, 818.462, 4101.026, 4138.974, 4136.41, 0, 0, []
1631430345.9137, 63, 0, 4172.821, 818.462, 4066.154, 4121.538, 4124.103, 0, 0, []
1631430345.9215, 64, 0, 4168.205, 818.462, 4091.795, 4124.103, 4126.154, 450, 0, []
1631430345.9294, 65, 0, 4185.128, 818.462, 4085.641, 4156.41, 4136.923, 450, 0, []
1631430345.9372, 66, 0, 4189.231, 818.462, 4102.564, 4172.821, 4144.103, 16188, 0, []
1631430345.9451, 67, 0, 4191.795, 818.462, 4118.462, 4161.026, 4152.821, 450, 0, []
1631430345.9529, 68, 0, 4201.538, 818.462, 4086.154, 4157.436, 4153.333, 16132, 0, []
1631430345.9607, 69, 0, 4197.436, 818.462, 4106.667, 4162.564, 4145.641, 450, 0, []
1631430345.9685, 70, 0, 4196.41, 818.462, 4099.487, 4155.385, 4147.692, 227, 0, []
1631430345.9764, 71, 0, 4200.513, 818.462, 4089.744, 4143.59, 4152.308, 450, 0, []
1631430345.9842, 72, 0, 4187.179, 818.462, 4096.41, 4145.641, 4144.103, 450, 0, []
1631430345.9921, 73, 0, 4178.462, 818.462, 4083.077, 4157.436, 4137.949, 16166, 0, []
1631430345.9998, 74, 0, 4183.077, 818.462, 4113.846, 4169.744, 4147.692, 450, 0, []
1631430346.0078, 75, 0, 4180, 818.462, 4096.41, 4167.179, 4155.385, 16193, 0, []
1631430346.0157, 76, 0, 4181.538, 818.462, 4082.564, 4153.333, 4149.231, 450, 0, []
1631430346.0237, 77, 0, 4199.487, 818.462, 4108.205, 4154.872, 4154.872, 450, 0, []
1631430346.0316, 78, 0, 4206.154, 818.462, 4089.231, 4166.667, 4169.231, 450, 0, []
1631430346.0395, 79, 0, 4198.462, 818.462, 4106.154, 4157.436, 4166.667, 16193, 0, []
1631430346.0474, 80, 0, 4189.231, 818.462, 4090.256, 4135.897, 4153.846, 450, 0, []
1631430346.0554, 81, 0, 4177.949, 818.462, 4073.846, 4140, 4146.154, 450, 0, []
1631430346.0633, 82, 0, 4172.308, 818.462, 4109.744, 4160, 4144.103, 450, 0, []
1631430346.0712, 83, 0, 4166.154, 818.462, 4078.974, 4151.282, 4136.923, 16193, 0, []
1631430346.079, 84, 0, 4153.846, 818.462, 4072.308, 4128.718, 4125.641, 450, 0, []
1631430346.0868, 85, 0, 4155.385, 818.462, 4083.59, 4127.179, 4122.051, 450, 0, []
1631430346.0947, 86, 0, 4166.154, 818.462, 4082.051, 4132.308, 4133.333, 450, 0, []
1631430346.1025, 87, 0, 4160.513, 818.462, 4095.385, 4137.436, 4141.538, 16193, 0, []
1631430346.1104, 88, 0, 4149.744, 818.462, 4071.282, 4142.564, 4129.231, 450, 0, []
1631430346.1181, 89, 0, 4152.821, 818.462, 4092.821, 4145.641, 4121.026, 450, 0, []
1631430346.126, 90, 0, 4154.359, 818.462, 4098.462, 4147.179, 4132.821, 450, 0, []
1631430346.1338, 91, 0, 4149.231, 818.462, 4078.462, 4147.692, 4136.923, 16193, 0, []
1631430346.1417, 92, 0, 4143.59, 818.462, 4101.026, 4146.667, 4118.462, 450, 0, []
1631430346.1495, 93, 0, 4135.385, 818.462, 4076.923, 4134.359, 4109.744, 450, 0, []
1631430346.1574, 94, 0, 4129.744, 818.462, 4087.179, 4124.103, 4116.923, 450, 0, []
1631430346.1653, 95, 0, 4135.897, 818.462, 4104.615, 4136.923, 4123.59, 16193, 0, []
1631430346.1733, 96, 0, 4149.231, 818.462, 4083.59, 4155.897, 4134.872, 450, 0, []
1631430346.1812, 97, 0, 4147.692, 818.462, 4106.667, 4149.744, 4139.487, 450, 0, []
1631430346.1892, 98, 0, 4137.436, 818.462, 4090.256, 4134.872, 4131.282, 450, 0, []
1631430346.197, 99, 0, 4136.41, 818.462, 4094.359, 4145.128, 4131.795, 16193, 0, []
1631430346.205, 100, 0, 4136.923, 818.462, 4107.179, 4153.846, 4137.949, 450, 0, []
1631430346.2129, 101, 0, 4142.051, 818.462, 4077.436, 4146.667, 4133.333, 450, 0, []
1631430346.2209, 102, 0, 4147.692, 818.462, 4098.974, 4147.179, 4136.41, 450, 0, []
1631430346.2288, 103, 0, 4145.641, 818.462, 4091.795, 4153.846, 4140, 16193, 0, []
1631430346.2367, 104, 0, 4150.769, 818.462, 4092.821, 4158.974, 4136.923, 450, 0, []
1631430346.2446, 105, 0, 4155.897, 818.462, 4109.231, 4151.282, 4146.154, 450, 0, []
1631430346.2524, 106, 0, 4144.615, 818.462, 4084.103, 4133.333, 4153.846, 450, 0, []
1631430346.2603, 107, 0, 4144.615, 818.462, 4106.154, 4138.462, 4143.077, 16193, 0, []
1631430346.2681, 108, 0, 4157.436, 818.462, 4098.974, 4160.513, 4137.949, 450, 0, []
1631430346.2759, 109, 0, 4150.256, 818.462, 4088.205, 4163.077, 4147.692, 450, 0, []
1631430346.2837, 110, 0, 4141.026, 818.462, 4109.744, 4151.795, 4147.179, 450, 0, []
1631430346.2916, 111, 0, 4142.051, 818.462, 4089.744, 4147.179, 4133.846, 16193, 0, []
1631430346.2994, 112, 0, 4137.949, 818.462, 4109.231, 4148.718, 4134.359, 450, 0, []
1631430346.3073, 113, 0, 4143.077, 818.462, 4107.179, 4160.513, 4150.256, 450, 0, []
1631430346.3151, 114, 0, 4156.41, 818.462, 4095.897, 4170.256, 4155.385, 450, 0, []
1631430346.323, 115, 0, 4156.41, 818.462, 4116.41, 4158.974, 4152.308, 16193, 0, []
1631430346.3309, 116, 0, 4150.256, 818.462, 4095.897, 4163.59, 4159.487, 450, 0, []
1631430346.3389, 117, 0, 4156.41, 817.949, 4116.41, 4182.051, 4158.462, 450, 0, []
1631430346.3468, 118, 0, 4151.795, 816.923, 4105.128, 4163.077, 4137.949, 450, 0, []
1631430346.3548, 119, 0, 4137.436, 817.949, 4080.513, 4143.077, 4136.923, 16193, 0, []
1631430346.3626, 120, 0, 4142.564, 818.974, 4116.923, 4154.872, 4156.923, 450, 0, []
1631430346.3706, 121, 0, 4144.615, 819.487, 4094.359, 4157.436, 4152.308, 450, 0, []
1631430346.3785, 122, 0, 4135.385, 825.128, 4095.385, 4151.795, 4146.667, 450, 0, []
1631430346.3865, 123, 0, 4138.974, 840.513, 4102.051, 4153.846, 4158.462, 16193, 0, []
1631430346.3944, 124, 0, 4142.564, 853.846, 4078.462, 4147.179, 4148.205, 450, 0, []
1631430346.4021, 125, 0, 4132.821, 856.41, 4095.385, 4148.205, 4137.436, 450, 0, []
1631430346.41, 126, 0, 4140, 869.231, 4084.103, 4161.538, 4156.41, 450, 0, []
1631430346.4178, 127, 0, 4158.462, 888.718, 4103.077, 4163.59, 4163.077, 16193, 0, []
1631430346.4257, 128, 0, 4155.897, 890.769, 4103.59, 4156.923, 4155.385, 450, 0, []
1631430346.4335, 0, 0, 4134.872, 895.385, 4061.026, 4146.667, 4153.333, 450, 0, []
1631430346.4413, 1, 0, 4120, 916.41, 4085.128, 4140, 4138.462, 450, 0, []
1631430346.4491, 2, 0, 4124.615, 929.231, 4085.641, 4138.462, 4126.667, 16189, 0, []
1631430346.457, 3, 0, 4127.692, 928.718, 4088.718, 4129.231, 4136.923, 450, 0, []
1631430346.4649, 4, 0, 4123.59, 943.59, 4092.821, 4127.692, 4143.077, 75, 0, []
1631430346.4728, 5, 0, 4129.744, 962.564, 4071.282, 4148.205, 4141.538, 450, 0, []
1631430346.4807, 6, 0, 4122.564, 965.641, 4091.282, 4156.41, 4138.462, 219, 0, []
1631430346.4887, 7, 0, 4101.538, 972.308, 4069.231, 4133.846, 4127.179, 450, 0, []
1631430346.4966, 8, 0, 4115.385, 997.436, 4073.846, 4128.718, 4134.359, 450, 0, []
1631430346.5046, 9, 0, 4153.846, 1016.923, 4109.231, 4161.026, 4172.308, 16124, 0, []
1631430346.5125, 10, 0, 4165.641, 1022.051, 4087.692, 4166.154, 4191.282, 450, 0, []
1631430346.5204, 11, 0, 4172.821, 1041.538, 4103.59, 4144.103, 4187.692, 16147, 0, []
1631430346.5283, 12, 0, 4178.974, 1064.615, 4095.385, 4146.154, 4188.205, 450, 0, []
1631430346.5362, 13, 0, 4138.974, 1061.026, 4079.487, 4136.923, 4167.179, 450, 0, []
1631430346.5441, 14, 0, 4113.846, 1075.897, 4098.974, 4116.923, 4145.128, 450, 0, []
1631430346.5519, 15, 0, 4149.231, 1114.359, 4088.205, 4137.436, 4167.692, 16147, 0, []
1631430346.5597, 16, 0, 4164.615, 1123.077, 4110.256, 4155.385, 4189.744, 0, 0, []
1631430346.5675, 17, 0, 4134.359, 1126.154, 4097.949, 4131.795, 4164.615, 0, 0, []
1631430346.5754, 18, 0, 4120.513, 1144.103, 4081.538, 4123.077, 4132.821, 0, 0, []
1631430346.5832, 19, 0, 4121.026, 1144.103, 4107.692, 4128.205, 4129.231, 0, 0, []
1631430346.5911, 20, 0, 4107.179, 1153.333, 4092.308, 4109.744, 4132.821, 0, 0, []
1631430346.5988, 21, 0, 4110.256, 1188.718, 4116.41, 4126.667, 4141.538, 0, 0, []
1631430346.6067, 22, 0, 4124.103, 1200, 4107.179, 4156.41, 4155.897, 0, 0, []
1631430346.6145, 23, 0, 4123.59, 1200, 4080.513, 4140.513, 4167.179, 0, 0, []
1631430346.6225, 24, 0, 4127.179, 1230.256, 4111.282, 4133.333, 4172.308, 0, 0, []
1631430346.6304, 25, 0, 4139.487, 1261.538, 4089.231, 4155.385, 4168.718, 0, 0, []
1631430346.6384, 26, 0, 4136.923, 1268.718, 4098.462, 4155.385, 4165.128, 0, 0, []
1631430346.6462, 27, 0, 4122.051, 1285.128, 4101.026, 4132.308, 4157.949, 0, 0, []
1631430346.6542, 28, 0, 4117.949, 1317.949, 4073.846, 4133.333, 4147.692, 0, 0, []
1631430346.6621, 29, 0, 4120.513, 1338.462, 4101.538, 4143.077, 4150.256, 0, 0, []
1631430346.6701, 30, 0, 4123.59, 1347.692, 4088.718, 4133.846, 4160.513, 0, 0, []
1631430346.678, 31, 0, 4126.667, 1364.615, 4096.41, 4144.615, 4164.103, 0, 0, []
1631430346.6859, 32, 0, 4127.179, 1394.359, 4102.051, 4172.821, 4164.103, 0, 0, []
1631430346.6938, 33, 0, 4120, 1427.692, 4078.974, 4158.974, 4153.846, 0, 0, []
1631430346.7016, 34, 0, 4120.513, 1450.769, 4106.667, 4129.231, 4143.59, 0, 0, []
1631430346.7095, 35, 0, 4136.923, 1477.436, 4088.205, 4144.615, 4157.436, 0, 0, []
1631430346.7173, 36, 0, 4142.051, 1514.872, 4087.179, 4150.256, 4166.154, 0, 0, []
1631430346.7251, 37, 0, 4139.487, 1540, 4105.641, 4132.308, 4154.872, 0, 0, []
1631430346.7329, 38, 0, 4143.59, 1554.359, 4084.615, 4151.282, 4164.615, 0, 0, []
1631430346.7408, 39, 0, 4135.897, 1574.872, 4098.974, 4169.744, 4172.308, 0, 0, []
1631430346.7486, 40, 0, 4130.256, 1598.462, 4081.538, 4146.667, 4151.795, 0, 0, []
1631430346.7565, 41, 0, 4144.103, 1622.564, 4089.744, 4136.41, 4157.949, 0, 0, []
1631430346.7642, 42, 0, 4133.846, 1643.59, 4111.282, 4145.128, 4166.667, 0, 0, []
1631430346.7721, 43, 0, 4116.923, 1670.769, 4086.154, 4149.744, 4145.128, 0, 0, []
1631430346.7799, 44, 0, 4144.615, 1704.615, 4113.846, 4158.462, 4160.513, 0, 0, []
1631430346.7879, 45, 0, 4164.615, 1722.564, 4099.487, 4157.949, 4190.769, 0, 0, []
1631430346.7958, 46, 0, 4148.718, 1737.949, 4085.641, 4161.026, 4180, 0, 0, []
1631430346.8037, 47, 0, 4137.436, 1768.718, 4110.256, 4173.333, 4164.103, 0, 0, []
1631430346.8116, 48, 0, 4128.205, 1784.103, 4078.974, 4150.256, 4156.923, 0, 0, []
1631430346.8196, 49, 0, 4128.718, 1794.872, 4094.872, 4129.231, 4153.333, 0, 0, []
1631430346.8275, 50, 0, 4146.667, 1825.641, 4098.974, 4147.692, 4168.718, 0, 0, []
1631430346.8355, 51, 0, 4133.846, 1840.513, 4080.513, 4157.949, 4163.59, 0, 0, []
1631430346.8433, 52, 0, 4112.821, 1849.231, 4101.538, 4137.949, 4132.821, 0, 0, []
1631430346.8513, 53, 0, 4129.231, 1891.795, 4088.718, 4129.231, 4141.026, 0, 0, []
1631430346.8592, 54, 0, 4131.282, 1932.821, 4107.692, 4147.179, 4158.974, 0, 0, []
1631430346.867, 55, 0, 4118.974, 1937.949, 4111.282, 4160.513, 4148.205, 0, 0, []
1631430346.8749, 56, 0, 4131.282, 1945.128, 4096.923, 4154.359, 4152.308, 0, 0, []
1631430346.8826, 57, 0, 4124.615, 1981.538, 4109.744, 4143.59, 4154.359, 0, 0, []
1631430346.8905, 58, 0, 4110.769, 2000.513, 4083.59, 4151.795, 4143.59, 0, 0, []
1631430346.8983, 59, 0, 4126.667, 1992.821, 4099.487, 4160, 4157.949, 0, 0, []
1631430346.9062, 60, 0, 4129.744, 2021.538, 4102.564, 4143.59, 4167.179, 0, 0, []
1631430346.914, 61, 0, 4121.026, 2076.923, 4084.103, 4146.667, 4150.256, 0, 0, []
1631430346.9218, 62, 0, 4140, 2096.923, 4122.051, 4173.846, 4156.41, 0, 0, []
1631430346.9296, 63, 0, 4147.179, 2097.436, 4103.077, 4167.692, 4168.205, 0, 0, []
1631430346.9376, 64, 0, 4122.051, 2127.179, 4093.846, 4143.59, 4149.231, 450, 0, []
1631430346.9455, 65, 0, 4123.077, 2168.718, 4102.564, 4149.231, 4149.231, 450, 0, []
1631430346.9534, 66, 0, 4143.077, 2187.179, 4082.051, 4162.564, 4167.179, 16196, 0, []
1631430346.9611, 67, 0, 4127.692, 2181.026, 4092.821, 4150.256, 4155.385, 450, 0, []
1631430346.9691, 68, 0, 4103.59, 2177.436, 4077.436, 4126.154, 4134.872, 193, 0, []
1631430346.977, 69, 0, 4121.026, 2204.103, 4104.103, 4135.897, 4145.641, 450, 0, []
1631430346.985, 70, 0, 4142.051, 2252.308, 4127.179, 4175.897, 4165.641, 230, 0, []
1631430346.9929, 71, 0, 4126.154, 2276.41, 4084.615, 4177.436, 4163.59, 450, 0, []
1631430347.0009, 72, 0, 4126.154, 2278.462, 4102.564, 4156.41, 4159.487, 450, 0, []
1631430347.0087, 73, 0, 4150.769, 2302.051, 4093.333, 4164.103, 4171.795, 16152, 0, []
1631430347.0165, 74, 0, 4141.538, 2336.41, 4077.436, 4163.077, 4172.308, 450, 0, []
1631430347.0244, 75, 0, 4120, 2346.154, 4092.308, 4143.59, 4153.846, 16182, 0, []
1631430347.0322, 76, 0, 4127.692, 2354.872, 4077.436, 4141.538, 4153.846, 450, 0, []
1631430347.0401, 77, 0, 4135.897, 2377.436, 4097.949, 4150.256, 4164.103, 450, 0, []
1631430347.0478, 78, 0, 4132.821, 2396.923, 4092.308, 4156.923, 4163.077, 450, 0, []
1631430347.0557, 79, 0, 4130.256, 2415.385, 4089.744, 4159.487, 4163.59, 16182, 0, []
1631430347.0635, 80, 0, 4126.667, 2428.205, 4100, 4150.769, 4163.077, 450, 0, []
1631430347.0715, 81, 0, 4115.385, 2440, 4063.077, 4140.513, 4151.282, 450, 0, []
1631430347.0794, 82, 0, 4110.769, 2466.667, 4093.333, 4146.667, 4148.718, 450, 0, []
1631430347.0873, 83, 0, 4129.744, 2485.641, 4103.077, 4157.949, 4162.564, 16182, 0, []
1631430347.0952, 84, 0, 4146.154, 2491.795, 4085.128, 4160.513, 4173.333, 450, 0, []
1631430347.1032, 85, 0, 4142.051, 2519.487, 4106.154, 4161.538, 4173.333, 450, 0, []
1631430347.1111, 86, 0, 4142.564, 2555.385, 4079.487, 4164.615, 4167.692, 450, 0, []
1631430347.1191, 87, 0, 4154.359, 2569.744, 4088.718, 4165.128, 4172.821, 16182, 0, []
1631430347.1269, 88, 0, 4156.923, 2584.103, 4102.564, 4161.026, 4187.692, 450, 0, []
1631430347.1349, 89, 0, 4154.359, 2601.026, 4090.256, 4159.487, 4189.744, 450, 0, []
1631430347.1428, 90, 0, 4156.41, 2607.692, 4103.077, 4165.128, 4186.667, 450, 0, []
1631430347.1508, 91, 0, 4153.846, 2609.231, 4076.41, 4164.615, 4180.513, 16182, 0, []
1631430347.1587, 92, 0, 4146.667, 2626.154, 4091.795, 4157.436, 4168.718, 450, 0, []
1631430347.1666, 93, 0, 4144.615, 2663.59, 4104.615, 4158.462, 4170.769, 450, 0, []
1631430347.1745, 94, 0, 4152.308, 2678.462, 4084.615, 4175.385, 4184.615, 450, 0, []
1631430347.1823, 95, 0, 4158.974, 2667.179, 4105.128, 4172.308, 4188.205, 16182, 0, []
1631430347.1902, 96, 0, 4151.795, 2683.077, 4080.513, 4146.154, 4187.179, 450, 0, []
1631430347.198, 97, 0, 4143.077, 2720, 4086.154, 4155.897, 4182.051, 450, 0, []
1631430347.2058, 98, 0, 4140.513, 2738.462, 4107.692, 4178.462, 4172.821, 450, 0, []
1631430347.2136, 99, 0, 4138.462, 2749.744, 4084.103, 4161.026, 4168.718, 16182, 0, []
1631430347.2215, 100, 0, 4138.462, 2769.231, 4095.385, 4136.41, 4172.308, 450, 0, []
1631430347.2293, 101, 0, 4139.487, 2789.231, 4078.462, 4140.513, 4178.462, 450, 0, []
1631430347.2373, 102, 0, 4135.385, 2795.897, 4084.615, 4149.744, 4173.333, 450, 0, []
1631430347.2451, 103, 0, 4125.641, 2785.128, 4096.41, 4143.077, 4157.949, 16182, 0, []
1631430347.2531, 104, 0, 4122.564, 2799.487, 4067.692, 4129.231, 4150.769, 450, 0, []
1631430347.261, 105, 0, 4124.103, 2838.462, 4094.872, 4130.256, 4157.436, 450, 0, []
1631430347.269, 106, 0, 4131.795, 2858.974, 4085.641, 4147.692, 4163.59, 450, 0, []
1631430347.2769, 107, 0, 4138.462, 2862.051, 4073.333, 4155.897, 4160, 16182, 0, []
1631430347.2848, 108, 0, 4137.949, 2868.205, 4087.179, 4143.077, 4158.974, 450, 0, []
1631430347.2927, 109, 0, 4141.538, 2890.769, 4067.692, 4133.333, 4171.282, 450, 0, []
1631430347.3007, 110, 0, 4150.769, 2921.538, 4094.359, 4148.205, 4182.051, 450, 0, []
1631430347.3086, 111, 0, 4155.385, 2943.59, 4087.692, 4158.974, 4177.436, 16182, 0, []
1631430347.3164, 112, 0, 4156.41, 2963.077, 4079.487, 4151.282, 4180.513, 450, 0, []
1631430347.3242, 113, 0, 4154.359, 2978.462, 4100, 4147.692, 4188.205, 450, 0, []
1631430347.332, 114, 0, 4147.692, 2974.872, 4066.154, 4149.744, 4182.051, 450, 0, []
1631430347.3399, 115, 0, 4146.667, 2984.103, 4089.744, 4149.231, 4182.051, 16182, 0, []
1631430347.3477, 116, 0, 4154.359, 3017.436, 4098.462, 4158.462, 4190.256, 450, 0, []
1631430347.3556, 117, 0, 4154.359, 3031.795, 4081.026, 4169.744, 4186.667, 450, 0, []
1631430347.3634, 118, 0, 4144.103, 3040, 4106.154, 4160.513, 4172.308, 450, 0, []
1631430347.3712, 119, 0, 4141.538, 3056.41, 4089.744, 4148.718, 4172.308, 16182, 0, []
1631430347.379, 120, 0, 4149.231, 3062.051, 4098.974, 4161.026, 4189.744, 450, 0, []
1631430347.3869, 121, 0, 4162.564, 3073.846, 4096.41, 4173.846, 4202.564, 450, 0, []
1631430347.3947, 122, 0, 4170.256, 3092.821, 4084.103, 4171.282, 4205.641, 450, 0, []
1631430347.4027, 123, 0, 4171.795, 3103.59, 4111.282, 4170.256, 4216.923, 16182, 0, []
1631430347.4105, 124, 0, 4169.231, 3115.385, 4075.897, 4168.205, 4226.154, 450, 0, []
1631430347.4185, 125, 0, 4168.718, 3126.667, 4077.949, 4157.436, 4217.436, 450, 0, []
1631430347.4264, 126, 0, 4173.333, 3142.051, 4103.59, 4154.359, 4219.487, 450, 0, []
1631430347.4344, 127, 0, 4164.615, 3167.179, 4088.718, 4164.615, 4226.667, 16182, 0, []
1631430347.4423, 128, 0, 4161.538, 3185.128, 4103.59, 4172.821, 4215.385, 450, 0, []
1631430347.4501, 0, 0, 4191.795, 3188.205, 4088.718, 4164.615, 4216.923, 450, 0, []
1631430347.458, 1, 0, 4237.436, 3209.231, 4109.744, 4160.513, 4254.359, 450, 0, []
1631430347.4659, 2, 0, 4284.103, 3237.436, 4126.667, 4170.256, 4299.487, 16197, 0, []
1631430347.4737, 3, 0, 4350.256, 3243.077, 4095.385, 4170.769, 4350.256, 450, 0, []
1631430347.4815, 4, 0, 4430.769, 3253.333, 4127.692, 4162.051, 4422.051, 16135, 0, []
1631430347.4893, 5, 0, 4493.333, 3277.436, 4115.385, 4151.795, 4484.103, 450, 0, []
1631430347.4971, 6, 0, 4535.385, 3286.154, 4090.256, 4139.487, 4511.795, 224, 0, []
1631430347.505, 7, 0, 4564.615, 3298.974, 4091.795, 4130.769, 4526.154, 450, 0, []
1631430347.5128, 8, 0, 4576.923, 3340.513, 4083.59, 4140, 4543.59, 450, 0, []
1631430347.5207, 9, 0, 4576.923, 3360.513, 4121.538, 4159.487, 4550.256, 16166, 0, []
1631430347.5284, 10, 0, 4579.487, 3357.436, 4101.026, 4173.846, 4538.974, 450, 0, []
1631430347.5363, 11, 0, 4570.769, 3372.308, 4081.026, 4165.128, 4506.667, 16181, 0, []
1631430347.5441, 12, 0, 4542.564, 3387.179, 4103.59, 4132.308, 4472.308, 450, 0, []
1631430347.5521, 13, 0, 4509.744, 3383.59, 4084.103, 4125.641, 4451.795, 450, 0, []
1631430347.56, 14, 0, 4489.744, 3390.769, 4100.513, 4136.923, 4417.949, 450, 0, []
1631430347.5679, 15, 0, 4481.538, 3426.154, 4093.846, 4130.769, 4375.897, 16181, 0, []
1631430347.5758, 16, 0, 4460, 3468.205, 4088.205, 4123.077, 4356.41, 0, 0, []
1631430347.5838, 17, 0, 4433.846, 3485.641, 4107.692, 4126.154, 4344.103, 0, 0, []
1631430347.5917, 18, 0, 4421.026, 3491.795, 4076.923, 4129.744, 4314.872, 0, 0, []
1631430347.5997, 19, 0, 4402.051, 3517.436, 4102.051, 4144.103, 4295.385, 0, 0, []
1631430347.6075, 20, 0, 4371.282, 3546.154, 4104.615, 4149.231, 4291.795, 0, 0, []
1631430347.6155, 21, 0, 4341.538, 3559.487, 4080.513, 4125.128, 4277.949, 0, 0, []
1631430347.6234, 22, 0, 4322.564, 3573.333, 4109.231, 4128.205, 4261.026, 0, 0, []
1631430347.6314, 23, 0, 4309.231, 3590.256, 4088.718, 4148.205, 4248.205, 0, 0, []
1631430347.6393, 24, 0, 4287.692, 3586.667, 4091.795, 4132.308, 4227.179, 0, 0, []
1631430347.647, 25, 0, 4263.59, 3586.154, 4087.179, 4116.923, 4203.59, 0, 0, []
1631430347.6549, 26, 0, 4255.897, 3617.949, 4070.256, 4132.821, 4201.026, 0, 0, []
1631430347.6627, 27, 0, 4251.795, 3651.282, 4100, 4137.949, 4199.487, 0, 0, []
1631430347.6706, 28, 0, 4236.923, 3663.59, 4083.59, 4128.718, 4186.154, 0, 0, []
1631430347.6784, 29, 0, 4228.718, 3666.154, 4103.59, 4141.538, 4187.179, 0, 0, []
1631430347.6864, 30, 0, 4224.615, 3675.385, 4112.308, 4147.692, 4188.205, 0, 0, []
1631430347.6942, 31, 0, 4213.846, 3683.59, 4082.564, 4136.41, 4173.333, 0, 0, []
1631430347.7022, 32, 0, 4204.103, 3687.179, 4109.231, 4139.487, 4163.077, 0, 0, []
1631430347.7101, 33, 0, 4192.821, 3695.897, 4092.308, 4145.128, 4161.026, 0, 0, []
1631430347.7181, 34, 0, 4186.154, 3710.769, 4089.231, 4141.538, 4156.41, 0, 0, []
1631430347.726, 35, 0, 4185.641, 3731.795, 4091.795, 4144.615, 4153.333, 0, 0, []
1631430347.7339, 36, 0, 4182.564, 3742.051, 4067.179, 4154.872, 4151.282, 0, 0, []
1631430347.7418, 37, 0, 4178.974, 3737.949, 4102.051, 4153.846, 4149.231, 0, 0, []
1631430347.7498, 38, 0, 4176.41, 3747.692, 4089.744, 4152.308, 4155.897, 0, 0, []
1631430347.7577, 39, 0, 4170.256, 3767.179, 4086.667, 4157.436, 4151.795, 0, 0, []
1631430347.7657, 40, 0, 4168.718, 3769.231, 4113.333, 4156.923, 4139.487, 0, 0, []
1631430347.7735, 41, 0, 4171.282, 3770.256, 4093.333, 4148.205, 4144.615, 0, 0, []
1631430347.7814, 42, 0, 4174.872, 3789.231, 4109.744, 4153.333, 4151.282, 0, 0, []
1631430347.7893, 43, 0, 4169.744, 3805.128, 4098.974, 4163.077, 4144.103, 0, 0, []
1631430347.7971, 44, 0, 4152.308, 3816.41, 4101.026, 4155.385, 4136.41, 0, 0, []
1631430347.805, 45, 0, 4141.538, 3827.179, 4118.462, 4141.538, 4132.308, 0, 0, []
1631430347.8127, 46, 0, 4146.154, 3826.667, 4082.564, 4146.154, 4127.692, 0, 0, []
1631430347.8206, 47, 0, 4150.769, 3826.667, 4105.128, 4163.59, 4131.282, 0, 0, []
1631430347.8284, 48, 0, 4150.769, 3845.128, 4105.641, 4171.282, 4138.974, 0, 0, []
1631430347.8363, 49, 0, 4155.385, 3861.538, 4093.846, 4166.667, 4141.538, 0, 0, []
1631430347.8441, 50, 0, 4154.872, 3860.513, 4106.154, 4159.487, 4140.513, 0, 0, []
1631430347.8519, 51, 0, 4154.872, 3867.179, 4074.872, 4162.051, 4141.538, 0, 0, []
1631430347.8597, 52, 0, 4171.282, 3886.154, 4101.538, 4180, 4160, 0, 0, []
1631430347.8677, 53, 0, 4187.179, 3900.513, 4106.667, 4186.667, 4180.513, 0, 0, []
1631430347.8756, 54, 0, 4176.923, 3893.846, 4081.538, 4169.744, 4172.821, 0, 0, []
1631430347.8836, 55, 0, 4173.846, 3881.538, 4102.564, 4149.744, 4166.667, 0, 0, []
1631430347.8914, 56, 0, 4217.436, 3895.897, 4087.692, 4149.744, 4210.256, 0, 0, []
1631430347.8994, 57, 0, 4258.974, 3921.538, 4108.718, 4163.59, 4258.974, 0, 0, []
1631430347.9073, 58, 0, 4291.282, 3943.59, 4114.872, 4175.897, 4286.154, 0, 0, []
1631430347.9153, 59, 0, 4360, 3957.949, 4095.385, 4176.923, 4339.487, 0, 0, []
1631430347.9232, 60, 0, 4437.949, 3961.026, 4126.154, 4176.41, 4415.897, 0, 0, []
1631430347.931, 61, 0, 4477.949, 3964.103, 4109.231, 4193.333, 4456.923, 0, 0, []
1631430347.9389, 62, 0, 4487.179, 3984.615, 4112.308, 4200, 4450.256, 0, 0, []
1631430347.9467, 63, 0, 4478.974, 4002.564, 4108.205, 4164.615, 4433.846, 0, 0, []
1631430347.9546, 64, 0, 4447.179, 3983.077, 4085.641, 4141.538, 4415.897, 450, 0, []
1631430347.9624, 65, 0, 4412.308, 3963.077, 4122.564, 4168.205, 4387.179, 450, 0, []
1631430347.9702, 66, 0, 4389.231, 3973.846, 4101.538, 4178.462, 4358.462, 16193, 0, []
1631430347.978, 67, 0, 4375.385, 3990.769, 4106.154, 4166.154, 4344.103, 450, 0, []
1631430347.9859, 68, 0, 4355.897, 3995.897, 4116.923, 4168.205, 4326.154, 16149, 0, []
1631430347.9937, 69, 0, 4322.051, 3995.385, 4071.282, 4163.077, 4290.769, 450, 0, []
1631430348.0016, 70, 0, 4307.179, 4009.744, 4093.333, 4153.846, 4275.385, 225, 0, []
1631430348.0093, 71, 0, 4303.077, 4024.615, 4100.513, 4164.615, 4276.41, 450, 0, []
1631430348.0173, 72, 0, 4269.744, 4012.821, 4101.026, 4175.385, 4250.256, 450, 0, []
1631430348.0252, 73, 0, 4233.846, 4002.051, 4101.538, 4171.282, 4220, 16162, 0, []
1631430348.0332, 74, 0, 4222.051, 4022.051, 4077.436, 4164.615, 4212.308, 450, 0, []
1631430348.0411, 75, 0, 4205.128, 4048.205, 4109.744, 4157.436, 4198.974, 16189, 0, []
1631430348.0491, 76, 0, 4188.718, 4052.821, 4101.026, 4161.538, 4185.128, 450, 0, []
1631430348.0569, 77, 0, 4195.385, 4052.821, 4100.513, 4173.846, 4186.154, 450, 0, []
1631430348.0649, 78, 0, 4187.692, 4058.974, 4120.513, 4160.513, 4181.026, 450, 0, []
1631430348.0728, 79, 0, 4164.615, 4064.103, 4086.667, 4143.59, 4167.179, 16189, 0, []
1631430348.0808, 80, 0, 4162.564, 4065.128, 4108.205, 4155.385, 4161.538, 450, 0, []
1631430348.0887, 81, 0, 4171.795, 4075.897, 4108.205, 4172.821, 4163.077, 450, 0, []
1631430348.0964, 82, 0, 4167.179, 4095.897, 4097.949, 4168.718, 4156.923, 450, 0, []
1631430348.1043, 83, 0, 4153.333, 4098.974, 4117.436, 4161.026, 4141.026, 16189, 0, []
1631430348.1121, 84, 0, 4146.154, 4091.282, 4078.974, 4154.872, 4130.256, 450, 0, []
1631430348.12, 85, 0, 4146.667, 4099.487, 4084.615, 4147.179, 4130.256, 450, 0, []
1631430348.1278, 86, 0, 4147.692, 4113.846, 4087.179, 4152.308, 4132.308, 450, 0, []
1631430348.1356, 87, 0, 4132.308, 4103.59, 4070.256, 4151.795, 4117.949, 16189, 0, []
1631430348.1434, 88, 0, 4120, 4095.897, 4094.872, 4144.615, 4106.154, 450, 0, []
1631430348.1513, 89, 0, 4131.795, 4112.821, 4083.077, 4150.256, 4113.333, 450, 0, []
1631430348.1591, 90, 0, 4134.359, 4113.333, 4096.923, 4156.41, 4114.359, 450, 0, []
1631430348.167, 91, 0, 4121.026, 4113.333, 4094.359, 4151.282, 4111.795, 16189, 0, []
1631430348.1747, 92, 0, 4127.179, 4130.256, 4086.154, 4148.718, 4117.949, 450, 0, []
1631430348.1827, 93, 0, 4142.564, 4141.538, 4121.026, 4150.256, 4122.564, 450, 0, []
1631430348.1906, 94, 0, 4135.385, 4150.769, 4084.103, 4143.077, 4111.795, 450, 0, []
1631430348.1986, 95, 0, 4115.385, 4161.538, 4079.487, 4135.897, 4096.41, 16189, 0, []
1631430348.2065, 96, 0, 4107.692, 4163.077, 4086.154, 4140.513, 4091.795, 450, 0, []
1631430348.2144, 97, 0, 4112.821, 4161.026, 4071.282, 4151.282, 4095.897, 450, 0, []
1631430348.2223, 98, 0, 4120, 4172.308, 4114.359, 4153.846, 4100, 450, 0, []
1631430348.2303, 99, 0, 4115.897, 4180, 4096.41, 4137.436, 4092.821, 16189, 0, []
1631430348.2382, 100, 0, 4106.154, 4178.974, 4090.769, 4133.333, 4089.744, 450, 0, []
1631430348.2462, 101, 0, 4116.923, 4181.538, 4108.718, 4150.769, 4099.487, 450, 0, []
1631430348.254, 102, 0, 4121.026, 4190.256, 4085.641, 4152.821, 4101.026, 450, 0, []
1631430348.2618, 103, 0, 4107.692, 4203.077, 4102.051, 4140.513, 4091.282, 16189, 0, []
1631430348.2697, 104, 0, 4105.641, 4206.667, 4082.564, 4140.513, 4087.179, 450, 0, []
1631430348.2775, 105, 0, 4107.692, 4197.949, 4082.051, 4145.128, 4084.615, 450, 0, []
1631430348.2854, 106, 0, 4093.333, 4195.385, 4096.41, 4135.897, 4072.821, 450, 0, []
1631430348.2931, 107, 0, 4089.744, 4206.667, 4063.077, 4126.154, 4071.282, 16189, 0, []
1631430348.301, 108, 0, 4105.641, 4215.385, 4083.077, 4131.795, 4083.077, 450, 0, []
1631430348.3088, 109, 0, 4106.154, 4216.41, 4076.41, 4135.897, 4085.128, 450, 0, []
1631430348.3167, 110, 0, 4096.41, 4226.154, 4072.308, 4138.462, 4082.564, 450, 0, []
1631430348.3245, 111, 0, 4104.103, 4225.128, 4089.231, 4144.103, 4098.974, 16189, 0, []
1631430348.3324, 112, 0, 4119.487, 4231.282, 4065.641, 4153.333, 4113.846, 450, 0, []
1631430348.3403, 113, 0, 4114.872, 4255.897, 4096.41, 4161.538, 4103.077, 450, 0, []
1631430348.3483, 114, 0, 4101.026, 4258.462, 4091.795, 4153.333, 4085.128, 450, 0, []
1631430348.3562, 115, 0, 4102.564, 4248.205, 4077.436, 4145.128, 4080, 16189, 0, []
1631430348.3642, 116, 0, 4113.333, 4259.487, 4104.103, 4150.256, 4093.846, 450, 0, []
1631430348.372, 117, 0, 4123.59, 4262.051, 4082.564, 4154.359, 4110.256, 450, 0, []
1631430348.38, 118, 0, 4127.692, 4251.282, 4101.026, 4151.795, 4110.256, 450, 0, []
1631430348.3879, 119, 0, 4116.41, 4270.256, 4095.897, 4150.769, 4097.436, 16189, 0, []
1631430348.3959, 120, 0, 4091.795, 4284.615, 4073.333, 4147.692, 4079.487, 450, 0, []
1631430348.4038, 121, 0, 4085.641, 4271.282, 4100.513, 4141.538, 4068.205, 450, 0, []
1631430348.4118, 122, 0, 4100, 4273.846, 4074.872, 4137.949, 4075.897, 450, 0, []
1631430348.4196, 123, 0, 4109.231, 4289.744, 4086.667, 4137.949, 4092.308, 16189, 0, []
1631430348.4274, 124, 0, 4110.256, 4284.615, 4095.897, 4147.179, 4096.41, 450, 0, []
1631430348.4353, 125, 0, 4105.641, 4276.41, 4074.872, 4151.282, 4091.795, 450, 0, []
1631430348.4431, 126, 0, 4105.128, 4288.205, 4097.436, 4145.641, 4090.256, 450, 0, []
1631430348.451, 127, 0, 4104.615, 4298.462, 4077.949, 4142.564, 4088.718, 16189, 0, []
1631430348.4588, 128, 0, 4096.923, 4303.59, 4088.205, 4142.051, 4084.103, 450, 0, []
1631430348.4667, 0, 0, 4092.308, 4311.795, 4096.923, 4133.846, 4082.051, 450, 0, []
1631430348.4746, 1, 0, 4097.436, 4309.744, 4078.462, 4133.846, 4082.564, 450, 0, []
1631430348.4826, 2, 0, 4105.128, 4308.205, 4108.718, 4151.282, 4086.154, 16188, 0, []
1631430348.4906, 3, 0, 4111.282, 4318.462, 4087.692, 4160, 4094.359, 450, 0, []
1631430348.4984, 4, 0, 4109.744, 4313.846, 4084.615, 4151.282, 4091.282, 16149, 0, []
1631430348.5063, 5, 0, 4095.385, 4307.692, 4092.821, 4137.949, 4076.41, 450, 0, []
1631430348.5143, 6, 0, 4094.359, 4325.128, 4070.769, 4134.872, 4074.872, 223, 0, []
1631430348.5222, 7, 0, 4106.667, 4343.59, 4103.59, 4138.462, 4090.256, 450, 0, []
1631430348.5302, 8, 0, 4110.256, 4343.077, 4088.718, 4140, 4096.923, 450, 0, []
1631430348.538, 9, 0, 4110.769, 4343.59, 4083.077, 4137.436, 4093.846, 16161, 0, []
1631430348.546, 10, 0, 4109.744, 4364.103, 4101.538, 4135.897, 4085.641, 450, 0, []
1631430348.5539, 11, 0, 4091.795, 4375.385, 4069.744, 4135.385, 4063.077, 16192, 0, []
1631430348.5619, 12, 0, 4080.513, 4366.667, 4093.846, 4143.59, 4055.385, 450, 0, []
1631430348.5698, 13, 0, 4096.923, 4363.59, 4099.487, 4164.615, 4077.436, 450, 0, []
1631430348.5775, 14, 0, 4112.821, 4371.795, 4097.436, 4167.179, 4092.821, 450, 0, []
1631430348.5854, 15, 0, 4117.436, 4374.872, 4110.769, 4153.846, 4092.821, 16192, 0, []
1631430348.5932, 16, 0, 4113.846, 4369.231, 4077.436, 4137.949, 4093.333, 0, 0, []
1631430348.6011, 17, 0, 4098.974, 4372.308, 4093.846, 4124.615, 4088.718, 0, 0, []
1631430348.6089, 18, 0, 4092.821, 4384.615, 4085.641, 4131.795, 4084.103, 0, 0, []
1631430348.6167, 19, 0, 4096.923, 4382.564, 4075.385, 4148.205, 4084.103, 0, 0, []
1631430348.6245, 20, 0, 4100.513, 4380, 4105.641, 4147.692, 4082.564, 0, 0, []
1631430348.6324, 21, 0, 4101.538, 4397.949, 4081.538, 4141.026, 4084.615, 0, 0, []
1631430348.6402, 22, 0, 4101.538, 4400.513, 4097.436, 4142.564, 4085.641, 0, 0, []
1631430348.6482, 23, 0, 4109.744, 4387.179, 4100, 4151.282, 4088.205, 0, 0, []
1631430348.656, 24, 0, 4124.615, 4390.256, 4089.231, 4155.385, 4099.487, 0, 0, []
1631430348.664, 25, 0, 4121.026, 4399.487, 4110.256, 4144.103, 4104.103, 0, 0, []
1631430348.6719, 26, 0, 4112.308, 4410.256, 4077.436, 4135.897, 4098.462, 0, 0, []
1631430348.6799, 27, 0, 4121.538, 4417.436, 4095.897, 4152.821, 4103.59, 0, 0, []
1631430348.6878, 28, 0, 4131.282, 4413.846, 4105.641, 4157.949, 4113.333, 0, 0, []
1631430348.6957, 29, 0, 4128.205, 4410.256, 4078.462, 4149.231, 4117.436, 0, 0, []
1631430348.7036, 30, 0, 4124.103, 4413.333, 4104.103, 4160.513, 4116.923, 0, 0, []
1631430348.7114, 31, 0, 4124.615, 4417.949, 4087.179, 4160.513, 4119.487, 0, 0, []
1631430348.7193, 32, 0, 4122.051, 4418.462, 4091.282, 4141.026, 4120, 0, 0, []
1631430348.7271, 33, 0, 4113.333, 4412.308, 4094.872, 4140, 4107.179, 0, 0, []
1631430348.735, 34, 0, 4107.692, 4409.744, 4074.359, 4153.846, 4096.41, 0, 0, []
1631430348.7427, 35, 0, 4120.513, 4415.897, 4109.744, 4158.462, 4108.205, 0, 0, []
1631430348.7506, 36, 0, 4135.897, 4420, 4091.282, 4153.333, 4117.949, 0, 0, []
1631430348.7584, 37, 0, 4132.821, 4421.026, 4087.179, 4149.744, 4107.692, 0, 0, []
1631430348.7663, 38, 0, 4124.615, 4424.103, 4106.154, 4144.615, 4100, 0, 0, []
1631430348.7741, 39, 0, 4123.077, 4426.154, 4082.564, 4136.41, 4100, 0, 0, []
1631430348.7819, 40, 0, 4126.667, 4426.154, 4098.974, 4135.897, 4107.692, 0, 0, []
1631430348.7897, 41, 0, 4142.564, 4428.205, 4091.795, 4148.205, 4123.077, 0, 0, []
1631430348.7977, 42, 0, 4153.333, 4433.333, 4103.077, 4158.974, 4130.769, 0, 0, []
1631430348.8056, 43, 0, 4147.179, 4434.872, 4109.231, 4156.41, 4128.205, 0, 0, []
1631430348.8136, 44, 0, 4143.59, 4436.923, 4068.718, 4156.41, 4123.59, 0, 0, []
1631430348.8214, 45, 0, 4144.103, 4443.59, 4098.462, 4158.974, 4117.436, 0, 0, []
1631430348.8294, 46, 0, 4142.564, 4445.641, 4097.436, 4150.256, 4115.897, 0, 0, []
1631430348.8373, 47, 0, 4147.179, 4438.974, 4088.205, 4156.923, 4122.564, 0, 0, []
1631430348.8453, 48, 0, 4150.769, 4444.103, 4102.051, 4170.256, 4125.641, 0, 0, []
1631430348.8532, 49, 0, 4144.103, 4453.846, 4069.744, 4160.513, 4124.615, 0, 0, []
1631430348.8611, 50, 0, 4145.128, 4460, 4094.872, 4153.333, 4125.128, 0, 0, []
1631430348.869, 51, 0, 4154.359, 4474.872, 4096.41, 4157.949, 4126.154, 0, 0, []
1631430348.8768, 52, 0, 4145.128, 4478.462, 4083.59, 4152.308, 4125.128, 0, 0, []
1631430348.8847, 53, 0, 4133.333, 4470.769, 4108.205, 4150.769, 4125.128, 0, 0, []
1631430348.8925, 54, 0, 4135.897, 4471.795, 4084.615, 4155.385, 4123.077, 0, 0, []
1631430348.9003, 55, 0, 4140.513, 4470.769, 4098.462, 4144.615, 4119.487, 0, 0, []
1631430348.9081, 56, 0, 4141.538, 4468.205, 4093.333, 4136.41, 4120.513, 0, 0, []
1631430348.916, 57, 0, 4143.59, 4472.308, 4076.923, 4138.462, 4121.026, 0, 0, []
1631430348.9238, 58, 0, 4153.333, 4470.769, 4112.308, 4138.462, 4124.615, 0, 0, []
1631430348.9317, 59, 0, 4158.974, 4458.462, 4085.128, 4145.641, 4129.231, 0, 0, []
1631430348.9394, 60, 0, 4148.718, 4461.538, 4081.026, 4151.282, 4122.564, 0, 0, []
1631430348.9473, 61, 0, 4142.051, 4476.41, 4092.308, 4151.282, 4119.487, 0, 0, []
1631430348.9551, 62, 0, 4141.538, 4480, 4086.667, 4150.256, 4123.077, 0, 0, []
1631430348.9631, 63, 0, 4134.872, 4473.846, 4102.564, 4142.564, 4116.41, 0, 0, []
1631430348.971, 64, 0, 4141.538, 4472.308, 4073.846, 4134.872, 4115.897, 450, 0, []
1631430348.9789, 65, 0, 4155.385, 4481.026, 4095.897, 4137.949, 4128.205, 450, 0, []
1631430348.9868, 66, 0, 4147.179, 4484.615, 4103.59, 4142.051, 4127.179, 16212, 0, []
1631430348.9948, 67, 0, 4137.436, 4473.333, 4061.026, 4140, 4115.897, 450, 0, []
1631430349.0027, 68, 0, 4149.231, 4480, 4089.231, 4141.538, 4118.974, 16129, 0, []
1631430349.0107, 69, 0, 4163.077, 4505.641, 4083.59, 4144.615, 4132.308, 450, 0, []
1631430349.0185, 70, 0, 4170.256, 4510.256, 4091.282, 4146.667, 4144.103, 196, 0, []
1631430349.0265, 71, 0, 4177.949, 4503.077, 4107.692, 4156.41, 4150.256, 450, 0, []
1631430349.0344, 72, 0, 4164.103, 4498.974, 4072.821, 4153.333, 4134.359, 450, 0, []
1631430349.0422, 73, 0, 4147.179, 4493.846, 4091.282, 4145.641, 4113.846, 16132, 0, []
1631430349.0501, 74, 0, 4162.051, 4506.154, 4092.308, 4161.026, 4127.692, 450, 0, []
1631430349.0578, 75, 0, 4175.385, 4517.949, 4101.538, 4172.308, 4143.077, 16234, 0, []
1631430349.0657, 76, 0, 4158.974, 4515.385, 4116.923, 4158.974, 4128.718, 450, 0, []
1631430349.0735, 77, 0, 4148.205, 4518.974, 4084.615, 4151.282, 4122.051, 450, 0, []
1631430349.0814, 78, 0, 4155.897, 4521.538, 4102.051, 4154.872, 4133.333, 450, 0, []
1631430349.0892, 79, 0, 4147.692, 4510.769, 4076.923, 4147.692, 4128.205, 16234, 0, []
1631430349.0972, 80, 0, 4133.846, 4504.615, 4060.513, 4146.667, 4114.359, 450, 0, []
1631430349.105, 81, 0, 4149.744, 4507.692, 4100, 4162.564, 4126.154, 450, 0, []
1631430349.113, 82, 0, 4169.744, 4507.692, 4081.026, 4164.103, 4141.026, 450, 0, []
1631430349.1209, 83, 0, 4164.103, 4515.897, 4090.769, 4151.795, 4132.821, 16234, 0, []
1631430349.1289, 84, 0, 4163.077, 4534.872, 4090.769, 4153.333, 4130.256, 450, 0, []
1631430349.1368, 85, 0, 4167.179, 4536.923, 4085.128, 4156.923, 4137.949, 450, 0, []
1631430349.1447, 86, 0, 4151.795, 4528.205, 4101.538, 4137.949, 4126.667, 450, 0, []
1631430349.1526, 87, 0, 4138.974, 4520, 4073.333, 4126.667, 4108.718, 16234, 0, []
1631430349.1606, 88, 0, 4149.744, 4509.231, 4095.897, 4150.256, 4118.974, 450, 0, []
1631430349.1685, 89, 0, 4164.103, 4511.795, 4098.974, 4163.59, 4142.564, 450, 0, []
1631430349.1765, 90, 0, 4166.667, 4524.103, 4085.128, 4146.667, 4146.667, 450, 0, []
1631430349.1843, 91, 0, 4171.282, 4521.538, 4105.641, 4141.538, 4144.103, 16234, 0, []
1631430349.1921, 92, 0, 4173.333, 4517.949, 4071.282, 4153.846, 4147.692, 450, 0, []
1631430349.2, 93, 0, 4170.769, 4539.487, 4093.333, 4156.923, 4147.692, 450, 0, []
1631430349.2078, 94, 0, 4170.769, 4544.615, 4112.308, 4154.872, 4141.026, 450, 0, []
1631430349.2157, 95, 0, 4167.179, 4527.692, 4083.077, 4154.359, 4130.256, 16234, 0, []
1631430349.2234, 96, 0, 4164.103, 4529.744, 4100.513, 4148.718, 4124.615, 450, 0, []
1631430349.2313, 97, 0, 4162.564, 4540.513, 4083.077, 4137.436, 4123.59, 450, 0, []
1631430349.2391, 98, 0, 4163.077, 4542.051, 4089.231, 4135.897, 4125.641, 450, 0, []
1631430349.247, 99, 0, 4169.744, 4548.718, 4097.436, 4148.205, 4133.846, 16234, 0, []
1631430349.2548, 100, 0, 4175.385, 4562.051, 4076.923, 4155.897, 4138.974, 450, 0, []
1631430349.2627, 101, 0, 4166.667, 4558.974, 4104.103, 4151.282, 4131.795, 450, 0, []
1631430349.2706, 102, 0, 4161.538, 4550.256, 4078.974, 4144.615, 4126.667, 450, 0, []
1631430349.2786, 103, 0, 4166.154, 4550.256, 4072.821, 4138.462, 4134.359, 16234, 0, []
1631430349.2865, 104, 0, 4171.282, 4552.821, 4085.641, 4143.59, 4144.103, 450, 0, []
1631430349.2945, 105, 0, 4178.462, 4560, 4065.641, 4157.436, 4153.846, 450, 0, []
1631430349.3023, 106, 0, 4183.077, 4562.051, 4093.333, 4154.872, 4157.949, 450, 0, []
1631430349.3103, 107, 0, 4176.41, 4553.846, 4076.923, 4140, 4152.308, 16234, 0, []
1631430349.3182, 108, 0, 4177.949, 4554.872, 4080, 4149.744, 4152.821, 450, 0, []
1631430349.3262, 109, 0, 4188.205, 4565.128, 4108.718, 4166.154, 4154.359, 450, 0, []
1631430349.3341, 110, 0, 4178.974, 4565.128, 4077.949, 4150.769, 4142.051, 450, 0, []
1631430349.3418, 111, 0, 4171.282, 4557.436, 4096.923, 4138.974, 4140, 16234, 0, []
1631430349.3497, 112, 0, 4187.179, 4555.897, 4095.385, 4152.821, 4155.897, 450, 0, []
1631430349.3575, 113, 0, 4196.923, 4562.564, 4084.103, 4164.615, 4158.974, 450, 0, []
1631430349.3654, 114, 0, 4203.077, 4580.513, 4098.974, 4160.513, 4152.308, 450, 0, []
1631430349.3732, 115, 0, 4225.128, 4591.282, 4073.333, 4140.513, 4166.154, 16234, 0, []
1631430349.381, 116, 0, 4248.205, 4575.897, 4093.846, 4120.513, 4184.615, 450, 0, []
1631430349.3888, 117, 0, 4255.897, 4564.103, 4090.769, 4121.026, 4188.718, 450, 0, []
1631430349.3968, 118, 0, 4249.744, 4563.59, 4082.051, 4135.385, 4186.667, 450, 0, []
1631430349.4047, 119, 0, 4238.974, 4568.205, 4108.205, 4145.128, 4178.974, 16234, 0, []
1631430349.4127, 120, 0, 4228.718, 4587.692, 4077.436, 4134.359, 4169.744, 450, 0, []
1631430349.4205, 121, 0, 4220, 4602.564, 4093.846, 4127.179, 4165.641, 450, 0, []
1631430349.4285, 122, 0, 4215.385, 4598.462, 4107.692, 4146.667, 4173.333, 450, 0, []
1631430349.4364, 123, 0, 4216.923, 4584.103, 4094.872, 4153.846, 4171.282, 16234, 0, []
1631430349.4444, 124, 0, 4214.359, 4573.846, 4111.795, 4133.846, 4159.487, 450, 0, []
1631430349.4523, 125, 0, 4205.641, 4578.462, 4084.615, 4128.205, 4158.974, 450, 0, []
1631430349.4602, 126, 0, 4202.051, 4587.692, 4102.564, 4140.513, 4159.487, 450, 0, []
1631430349.468, 127, 0, 4202.051, 4582.564, 4112.821, 4140.513, 4154.872, 16234, 0, []
1631430349.4758, 128, 0, 4202.564, 4583.59, 4094.872, 4140.513, 4150.256, 450, 0, []
1631430349.4838, 0, 0, 4197.949, 4588.205, 4118.974, 4142.051, 4143.077, 450, 0, []
1631430349.4917, 1, 0, 4189.744, 4564.103, 4080, 4128.205, 4134.359, 450, 0, []
1631430349.4996, 2, 0, 4193.333, 4553.333, 4079.487, 4133.846, 4140.513, 16198, 0, []
1631430349.5073, 3, 0, 4205.641, 4582.564, 4100.513, 4167.179, 4157.436, 450, 0, []
1631430349.5152, 4, 0, 4206.667, 4588.718, 4074.359, 4168.718, 4156.923, 16135, 0, []
1631430349.523, 5, 0, 4195.385, 4576.41, 4095.897, 4144.103, 4146.154, 450, 0, []
1631430349.5309, 6, 0, 4193.846, 4597.949, 4086.154, 4149.744, 4145.641, 209, 0, []
1631430349.5387, 7, 0, 4198.462, 4608.718, 4092.821, 4157.436, 4153.333, 450, 0, []
1631430349.5465, 8, 0, 4203.077, 4587.179, 4108.718, 4146.154, 4157.949, 450, 0, []
1631430349.5543, 9, 0, 4208.718, 4587.692, 4082.564, 4145.641, 4160, 16155, 0, []
1631430349.5623, 10, 0, 4201.026, 4596.41, 4103.077, 4141.538, 4155.385, 450, 0, []
1631430349.5702, 11, 0, 4186.154, 4583.077, 4089.744, 4121.026, 4139.487, 16209, 0, []
1631430349.5782, 12, 0, 4178.462, 4577.436, 4089.231, 4118.462, 4131.795, 450, 0, []
1631430349.586, 13, 0, 4175.897, 4586.667, 4102.051, 4128.718, 4134.872, 450, 0, []
1631430349.594, 14, 0, 4172.821, 4580.513, 4065.128, 4124.103, 4132.308, 450, 0, []
1631430349.6019, 15, 0, 4174.872, 4572.821, 4089.231, 4118.462, 4130.256, 16209, 0, []
1631430349.6099, 16, 0, 4190.256, 4586.667, 4094.359, 4125.128, 4144.615, 0, 0, []
1631430349.6178, 17, 0, 4200, 4597.436, 4097.436, 4140, 4156.923, 0, 0, []
1631430349.6257, 18, 0, 4191.282, 4593.333, 4124.103, 4142.564, 4153.846, 0, 0, []
1631430349.6336, 19, 0, 4185.641, 4586.667, 4093.846, 4130.769, 4149.231, 0, 0, []
1631430349.6414, 20, 0, 4191.795, 4584.615, 4109.744, 4133.333, 4148.718, 0, 0, []
1631430349.6493, 21, 0, 4188.205, 4585.641, 4109.744, 4146.154, 4150.256, 0, 0, []
1631430349.6571, 22, 0, 4182.051, 4593.333, 4099.487, 4154.359, 4152.308, 0, 0, []
1631430349.6649, 23, 0, 4186.667, 4603.59, 4123.077, 4172.308, 4155.385, 0, 0, []
1631430349.6727, 24, 0, 4181.026, 4607.692, 4085.641, 4169.744, 4147.692, 0, 0, []
1631430349.6806, 25, 0, 4178.462, 4598.974, 4093.333, 4138.974, 4146.154, 0, 0, []
1631430349.6884, 26, 0, 4197.436, 4582.051, 4100.513, 4130.769, 4156.41, 0, 0, []
1631430349.6963, 27, 0, 4202.051, 4576.923, 4089.744, 4128.718, 4156.923, 0, 0, []
1631430349.704, 28, 0, 4198.462, 4581.026, 4123.077, 4114.359, 4161.538, 0, 0, []
1631430349.712, 29, 0, 4211.282, 4588.205, 4103.077, 4121.538, 4172.308, 0, 0, []
1631430349.7199, 30, 0, 4207.179, 4589.744, 4111.795, 4145.128, 4164.103, 0, 0, []
1631430349.7279, 31, 0, 4176.923, 4580, 4106.667, 4147.179, 4136.923, 0, 0, []
1631430349.7358, 32, 0, 4158.462, 4565.128, 4072.821, 4144.103, 4125.128, 0, 0, []
1631430349.7437, 33, 0, 4167.179, 4570.769, 4100, 4157.949, 4136.923, 0, 0, []
1631430349.7516, 34, 0, 4190.256, 4602.564, 4089.744, 4174.872, 4157.436, 0, 0, []
1631430349.7596, 35, 0, 4209.744, 4612.821, 4103.59, 4185.641, 4171.795, 0, 0, []
1631430349.7675, 36, 0, 4208.718, 4584.615, 4114.872, 4169.744, 4173.333, 0, 0, []
1631430349.7755, 37, 0, 4200, 4563.077, 4089.744, 4146.667, 4165.641, 0, 0, []
1631430349.7833, 38, 0, 4198.974, 4576.923, 4113.846, 4144.103, 4150.769, 0, 0, []
1631430349.7913, 39, 0, 4196.41, 4589.231, 4090.256, 4153.846, 4146.154, 0, 0, []
1631430349.7992, 40, 0, 4195.385, 4589.744, 4091.282, 4161.026, 4151.282, 0, 0, []
1631430349.807, 41, 0, 4197.949, 4600.513, 4112.308, 4157.436, 4155.385, 0, 0, []
1631430349.8149, 42, 0, 4194.359, 4600, 4079.487, 4155.897, 4153.846, 0, 0, []
1631430349.8227, 43, 0, 4193.333, 4593.333, 4095.897, 4167.692, 4157.949, 0, 0, []
1631430349.8305, 44, 0, 4211.282, 4604.103, 4089.744, 4173.846, 4169.231, 0, 0, []
1631430349.8383, 45, 0, 4217.436, 4602.051, 4092.308, 4163.59, 4172.308, 0, 0, []
1631430349.8462, 46, 0, 4208.205, 4595.897, 4109.744, 4160, 4170.769, 0, 0, []
1631430349.854, 47, 0, 4211.795, 4612.821, 4085.641, 4167.179, 4168.205, 0, 0, []
1631430349.862, 48, 0, 4213.846, 4607.179, 4111.282, 4170.256, 4161.026, 0, 0, []
1631430349.8698, 49, 0, 4204.615, 4589.744, 4100, 4172.308, 4155.897, 0, 0, []
1631430349.8777, 50, 0, 4194.359, 4605.641, 4094.872, 4165.128, 4153.846, 0, 0, []
1631430349.8855, 51, 0, 4197.949, 4616.41, 4129.231, 4160, 4154.872, 0, 0, []
1631430349.8935, 52, 0, 4210.256, 4603.077, 4104.615, 4165.641, 4173.333, 0, 0, []
1631430349.9014, 53, 0, 4211.795, 4596.923, 4116.41, 4173.846, 4189.231, 0, 0, []
1631430349.9093, 54, 0, 4203.077, 4597.436, 4112.308, 4169.231, 4180.513, 0, 0, []
1631430349.9172, 55, 0, 4193.333, 4590.769, 4095.385, 4169.231, 4167.692, 0, 0, []
1631430349.9252, 56, 0, 4182.051, 4589.744, 4108.205, 4174.359, 4159.487, 0, 0, []
1631430349.9331, 57, 0, 4175.385, 4594.872, 4080.513, 4169.231, 4157.436, 0, 0, []
1631430349.9411, 58, 0, 4185.128, 4588.718, 4096.923, 4168.718, 4166.154, 0, 0, []
1631430349.9489, 59, 0, 4186.667, 4585.641, 4097.949, 4168.718, 4173.333, 0, 0, []
1631430349.9568, 60, 0, 4177.949, 4593.333, 4092.308, 4160.513, 4171.795, 0, 0, []
1631430349.9647, 61, 0, 4183.59, 4590.769, 4129.744, 4155.897, 4172.821, 0, 0, []
1631430349.9725, 62, 0, 4197.436, 4581.538, 4102.051, 4171.795, 4181.538, 0, 0, []
1631430349.9804, 63, 0, 4197.436, 4583.077, 4113.846, 4185.128, 4188.718, 0, 0, []
1631430349.9881, 64, 0, 4191.282, 4579.487, 4121.026, 4180.513, 4186.154, 450, 0, []
1631430349.996, 65, 0, 4192.821, 4572.308, 4086.154, 4174.872, 4172.308, 450, 0, []
1631430350.0038, 66, 0, 4189.231, 4590.256, 4114.872, 4175.897, 4168.205, 16189, 0, []
1631430350.0117, 67, 0, 4177.436, 4597.436, 4095.897, 4173.846, 4172.821, 450, 0, []
1631430350.0195, 68, 0, 4175.897, 4575.385, 4091.282, 4155.897, 4167.692, 16135, 0, []
1631430350.0273, 69, 0, 4187.692, 4580, 4107.692, 4153.333, 4167.179, 450, 0, []
1631430350.0351, 70, 0, 4190.256, 4593.333, 4088.205, 4169.231, 4174.359, 223, 0, []
1631430350.0431, 71, 0, 4186.154, 4575.385, 4106.154, 4168.205, 4167.692, 450, 0, []
1631430350.051, 72, 0, 4180.513, 4562.051, 4087.179, 4148.718, 4151.795, 450, 0, []
1631430350.059, 73, 0, 4171.282, 4567.692, 4094.359, 4148.205, 4148.205, 16159, 0, []
1631430350.0668, 74, 0, 4170.769, 4570.256, 4115.385, 4168.205, 4150.769, 450, 0, []
1631430350.0748, 75, 0, 4170.256, 4574.359, 4090.256, 4168.718, 4148.718, 16201, 0, []
1631430350.0827, 76, 0, 4168.205, 4577.436, 4107.692, 4155.385, 4151.282, 450, 0, []
1631430350.0907, 77, 0, 4170.256, 4570.769, 4083.077, 4149.744, 4156.923, 450, 0, []
1631430350.0986, 78, 0, 4170.769, 4572.308, 4078.462, 4156.41, 4153.333, 450, 0, []
1631430350.1065, 79, 0, 4165.641, 4586.667, 4103.59, 4156.41, 4150.769, 16201, 0, []
1631430350.1144, 80, 0, 4173.846, 4598.462, 4078.974, 4147.179, 4158.974, 450, 0, []
1631430350.1222, 81, 0, 4192.308, 4610.769, 4112.308, 4158.974, 4170.256, 450, 0, []
1631430350.1301, 82, 0, 4195.385, 4618.462, 4113.846, 4168.205, 4173.333, 450, 0, []
1631430350.1379, 83, 0, 4189.231, 4610.256, 4097.949, 4158.462, 4164.103, 16201, 0, []
1631430350.1458, 84, 0, 4189.231, 4597.436, 4111.795, 4167.179, 4158.462, 450, 0, []
1631430350.1535, 85, 0, 4187.179, 4598.974, 4081.026, 4183.077, 4158.462, 450, 0, []
1631430350.1614, 86, 0, 4178.974, 4604.615, 4098.462, 4174.872, 4156.923, 450, 0, []
1631430350.1692, 87, 0, 4183.59, 4600.513, 4101.538, 4167.692, 4157.949, 16201, 0, []
1631430350.1771, 88, 0, 4181.538, 4588.205, 4081.026, 4161.538, 4155.385, 450, 0, []
1631430350.1849, 89, 0, 4166.667, 4594.359, 4088.718, 4137.436, 4144.615, 450, 0, []
1631430350.1928, 90, 0, 4175.385, 4606.667, 4072.308, 4137.436, 4153.846, 450, 0, []
1631430350.2007, 91, 0, 4193.846, 4589.744, 4101.026, 4158.974, 4166.667, 16201, 0, []
1631430350.2087, 92, 0, 4192.308, 4579.487, 4102.564, 4156.923, 4162.564, 450, 0, []
1631430350.2166, 93, 0, 4186.667, 4601.538, 4091.795, 4150.256, 4162.051, 450, 0, []
1631430350.2246, 94, 0, 4190.256, 4603.077, 4123.077, 4154.872, 4161.538, 450, 0, []
1631430350.2324, 95, 0, 4186.667, 4592.308, 4086.667, 4155.385, 4149.231, 16201, 0, []
1631430350.2404, 96, 0, 4183.077, 4609.744, 4092.821, 4148.205, 4140, 450, 0, []
1631430350.2483, 97, 0, 4185.128, 4629.231, 4112.308, 4153.333, 4151.282, 450, 0, []
1631430350.2563, 98, 0, 4183.59, 4629.744, 4092.308, 4167.692, 4159.487, 450, 0, []
1631430350.2642, 99, 0, 4178.462, 4626.154, 4109.231, 4160.513, 4150.769, 16201, 0, []
1631430350.2719, 100, 0, 4173.333, 4623.077, 4085.128, 4140, 4141.026, 450, 0, []
1631430350.2798, 101, 0, 4168.205, 4631.795, 4085.641, 4132.821, 4138.462, 450, 0, []
1631430350.2876, 102, 0, 4168.718, 4640.513, 4091.282, 4141.026, 4136.41, 450, 0, []
1631430350.2955, 103, 0, 4175.897, 4624.103, 4077.949, 4146.154, 4138.974, 16201, 0, []
1631430350.3033, 104, 0, 4181.538, 4621.538, 4120, 4144.103, 4150.256, 450, 0, []
1631430350.3111, 105, 0, 4182.051, 4651.795, 4093.333, 4143.077, 4147.179, 450, 0, []
1631430350.3189, 106, 0, 4182.564, 4670.769, 4084.615, 4152.821, 4142.051, 450, 0, []
1631430350.3268, 107, 0, 4188.718, 4679.487, 4108.205, 4163.077, 4154.359, 16201, 0, []
1631430350.3346, 108, 0, 4188.205, 4682.564, 4076.923, 4148.205, 4166.154, 450, 0, []
1631430350.3425, 109, 0, 4186.667, 4688.205, 4095.897, 4144.615, 4167.179, 450, 0, []
1631430350.3502, 110, 0, 4188.205, 4710.256, 4095.897, 4150.256, 4161.026, 450, 0, []
1631430350.3582, 111, 0, 4183.59, 4714.872, 4094.872, 4141.026, 4151.282, 16201, 0, []
1631430350.3661, 112, 0, 4183.59, 4711.282, 4106.667, 4145.128, 4145.128, 450, 0, []
1631430350.3741, 113, 0, 4182.051, 4721.026, 4078.462, 4154.359, 4144.103, 450, 0, []
1631430350.382, 114, 0, 4174.359, 4716.41, 4104.103, 4148.205, 4141.026, 450, 0, []
1631430350.3899, 115, 0, 4165.641, 4707.692, 4087.692, 4134.359, 4138.462, 16201, 0, []
1631430350.3978, 116, 0, 4164.615, 4757.949, 4063.59, 4128.718, 4141.026, 450, 0, []
1631430350.4058, 117, 0, 4180.513, 4849.231, 4096.41, 4133.333, 4156.923, 450, 0, []
1631430350.4137, 118, 0, 4200.513, 4883.077, 4087.692, 4147.692, 4172.821, 450, 0, []
1631430350.4215, 119, 0, 4207.179, 4850.256, 4109.744, 4167.179, 4174.872, 16201, 0, []
1631430350.4293, 120, 0, 4198.974, 4855.385, 4102.051, 4172.821, 4169.231, 450, 0, []
1631430350.4371, 121, 0, 4189.231, 4922.564, 4079.487, 4162.051, 4157.949, 450, 0, []
1631430350.445, 122, 0, 4181.538, 4987.179, 4101.026, 4144.615, 4152.308, 450, 0, []
1631430350.4529, 123, 0, 4184.103, 5092.821, 4081.026, 4136.923, 4153.333, 16201, 0, []
1631430350.4608, 124, 0, 4191.282, 5280.513, 4101.538, 4143.077, 4151.795, 450, 0, []
1631430350.4686, 125, 0, 4191.282, 5428.205, 4100.513, 4152.308, 4152.821, 450, 0, []
1631430350.4764, 126, 0, 4185.641, 5478.974, 4076.923, 4144.615, 4149.744, 450, 0, []
1631430350.4842, 127, 0, 4180.513, 5574.872, 4106.667, 4131.282, 4148.205, 16201, 0, []
1631430350.4922, 128, 0, 4191.282, 5685.128, 4091.282, 4142.564, 4156.41, 450, 0, []
1631430350.5001, 0, 0, 4201.538, 5610.256, 4102.051, 4151.795, 4151.795, 450, 0, []
1631430350.508, 1, 0, 4190.769, 5535.897, 4100, 4136.41, 4144.103, 450, 0, []
1631430350.5157, 2, 0, 4182.564, 5640, 4078.462, 4133.333, 4153.846, 16185, 0, []
1631430350.5237, 3, 0, 4185.128, 5690.769, 4113.333, 4142.051, 4153.846, 450, 0, []
1631430350.5316, 4, 0, 4182.564, 5607.692, 4094.359, 4135.385, 4144.103, 16120, 0, []
1631430350.5396, 5, 0, 4186.154, 5631.795, 4101.026, 4135.385, 4148.718, 450, 0, []
1631430350.5475, 6, 0, 4206.154, 5768.718, 4112.821, 4144.103, 4158.462, 224, 0, []
1631430350.5554, 7, 0, 4207.179, 5857.949, 4081.538, 4141.026, 4158.462, 450, 0, []
1631430350.5633, 8, 0, 4190.256, 5965.128, 4106.667, 4140.513, 4145.128, 450, 0, []
1631430350.5713, 9, 0, 4181.026, 6121.026, 4085.128, 4136.41, 4133.333, 16157, 0, []
1631430350.5792, 10, 0, 4183.59, 6257.436, 4080, 4135.897, 4148.205, 450, 0, []
1631430350.587, 11, 0, 4198.974, 6584.615, 4107.692, 4161.538, 4166.154, 16198, 0, []
1631430350.5948, 12, 0, 4204.103, 7102.051, 4087.692, 4173.333, 4152.821, 450, 0, []
1631430350.6026, 13, 0, 4188.718, 7365.128, 4102.051, 4143.077, 4145.128, 450, 0, []
1631430350.6105, 14, 0, 4180.513, 7395.385, 4084.103, 4130.769, 4156.923, 450, 0, []
1631430350.6183, 15, 0, 4182.564, 7613.333, 4080.513, 4156.41, 4152.821, 16198, 0, []
1631430350.6262, 16, 0, 4189.231, 7848.718, 4102.564, 4164.615, 4141.026, 0, 0, []
1631430350.6339, 17, 0, 4201.026, 7816.41, 4075.897, 4146.667, 4136.923, 0, 0, []
1631430350.6419, 18, 0, 4203.077, 7760, 4097.949, 4139.487, 4135.897, 0, 0, []
1631430350.6498, 19, 0, 4203.077, 7794.359, 4093.846, 4140, 4145.128, 0, 0, []
1631430350.6577, 20, 0, 4204.615, 7782.564, 4087.692, 4134.359, 4157.949, 0, 0, []
1631430350.6655, 21, 0, 4193.846, 7770.256, 4110.769, 4132.821, 4152.308, 0, 0, []
1631430350.6734, 22, 0, 4188.718, 7771.795, 4081.538, 4137.436, 4140.513, 0, 0, []
1631430350.6813, 23, 0, 4199.487, 7769.744, 4094.359, 4141.026, 4134.872, 0, 0, []
1631430350.6893, 24, 0, 4203.59, 7769.231, 4087.692, 4141.538, 4129.231, 0, 0, []
1631430350.6972, 25, 0, 4208.205, 7769.231, 4078.974, 4132.821, 4128.718, 0, 0, []
1631430350.7052, 26, 0, 4218.462, 7769.744, 4106.667, 4129.744, 4127.692, 0, 0, []
1631430350.713, 27, 0, 4218.974, 7769.231, 4076.41, 4131.282, 4126.154, 0, 0, []
1631430350.721, 28, 0, 4215.385, 7769.231, 4090.769, 4125.641, 4128.205, 0, 0, []
1631430350.7289, 29, 0, 4215.385, 7769.231, 4091.282, 4114.872, 4128.718, 0, 0, []
1631430350.7367, 30, 0, 4211.795, 7769.231, 4064.103, 4112.308, 4129.744, 0, 0, []
1631430350.7446, 31, 0, 4215.385, 7769.231, 4095.897, 4114.872, 4137.949, 0, 0, []
1631430350.7523, 32, 0, 4224.103, 7769.231, 4081.538, 4114.872, 4143.077, 0, 0, []
1631430350.7602, 33, 0, 4226.154, 7769.231, 4086.667, 4120, 4140, 0, 0, []
1631430350.768, 34, 0, 4242.051, 7769.231, 4090.769, 4130.256, 4145.128, 0, 0, []
1631430350.7759, 35, 0, 4272.821, 7769.231, 4068.205, 4129.744, 4155.385, 0, 0, []
1631430350.7837, 36, 0, 4297.949, 7769.231, 4092.821, 4119.487, 4176.41, 0, 0, []
1631430350.7915, 37, 0, 4342.051, 7769.231, 4086.154, 4125.641, 4236.923, 0, 0, []
1631430350.7993, 38, 0, 4419.487, 7769.231, 4101.538, 4148.205, 4332.308, 0, 0, []
1631430350.8073, 39, 0, 4499.487, 7769.231, 4103.077, 4155.897, 4422.051, 0, 0, []
1631430350.8152, 40, 0, 4562.051, 7769.231, 4075.897, 4157.949, 4479.487, 0, 0, []
1631430350.8232, 41, 0, 4592.821, 7769.231, 4114.872, 4174.872, 4517.436, 0, 0, []
1631430350.831, 42, 0, 4574.359, 7769.231, 4096.41, 4184.103, 4543.59, 0, 0, []
1631430350.839, 43, 0, 4532.821, 7769.231, 4091.795, 4183.59, 4543.59, 0, 0, []
1631430350.8469, 44, 0, 4509.744, 7769.231, 4124.615, 4191.282, 4517.436, 0, 0, []
1631430350.8549, 45, 0, 4487.179, 7769.231, 4108.205, 4203.077, 4484.615, 0, 0, []
1631430350.8628, 46, 0, 4433.846, 7769.231, 4120, 4216.41, 4454.359, 0, 0, []
1631430350.8708, 47, 0, 4372.821, 7769.231, 4098.974, 4222.564, 4415.385, 0, 0, []
1631430350.8786, 48, 0, 4330.256, 7769.231, 4097.949, 4218.462, 4374.359, 0, 0, []
1631430350.8866, 49, 0, 4298.974, 7769.231, 4122.051, 4222.051, 4344.615, 0, 0, []
1631430350.8945, 50, 0, 4264.103, 7769.231, 4089.744, 4225.641, 4313.846, 0, 0, []
1631430350.9023, 51, 0, 4238.974, 7769.231, 4114.359, 4225.641, 4277.949, 0, 0, []
1631430350.9102, 52, 0, 4230.256, 7769.231, 4124.103, 4228.205, 4250.256, 0, 0, []
1631430350.9179, 53, 0, 4226.667, 7769.231, 4114.872, 4226.154, 4228.718, 0, 0, []
1631430350.9258, 54, 0, 4228.718, 7769.231, 4122.051, 4222.564, 4209.744, 0, 0, []
1631430350.9336, 55, 0, 4235.897, 7769.231, 4099.487, 4226.667, 4203.077, 0, 0, []
1631430350.9415, 56, 0, 4233.333, 7769.231, 4129.744, 4227.179, 4197.436, 0, 0, []
1631430350.9493, 57, 0, 4215.897, 7769.231, 4112.821, 4212.308, 4174.872, 0, 0, []
1631430350.9571, 58, 0, 4192.821, 7769.231, 4075.385, 4185.641, 4148.205, 0, 0, []
1631430350.9649, 59, 0, 4182.051, 7769.231, 4093.333, 4167.692, 4140, 0, 0, []
1631430350.9729, 60, 0, 4186.667, 7769.231, 4069.231, 4170.769, 4148.718, 0, 0, []
1631430350.9808, 61, 0, 4199.487, 7769.231, 4091.282, 4187.179, 4163.59, 0, 0, []
1631430350.9888, 62, 0, 4215.897, 7769.231, 4108.718, 4209.231, 4171.795, 0, 0, []
1631430350.9966, 63, 0, 4216.923, 7769.231, 4092.821, 4216.923, 4151.282, 0, 0, []
1631430351.0046, 64, 0, 4197.949, 7769.231, 4104.615, 4190.769, 4114.872, 450, 0, []
1631430351.0125, 65, 0, 4182.051, 7769.231, 4072.821, 4163.077, 4090.256, 450, 0, []
1631430351.0205, 66, 0, 4182.564, 7769.231, 4084.103, 4164.615, 4089.231, 16166, 0, []
1631430351.0284, 67, 0, 4197.949, 7769.231, 4094.872, 4177.949, 4112.308, 450, 0, []
1631430351.0362, 68, 0, 4212.821, 7769.231, 4081.538, 4182.564, 4143.59, 127, 0, []
1631430351.0441, 69, 0, 4216.41, 7769.231, 4119.487, 4174.359, 4155.897, 450, 0, []
1631430351.0519, 70, 0, 4222.051, 7769.231, 4100, 4161.026, 4148.718, 228, 0, []
1631430351.0598, 71, 0, 4223.077, 7769.231, 4095.385, 4165.128, 4132.308, 450, 0, []
1631430351.0676, 72, 0, 4205.641, 7769.231, 4102.051, 4180.513, 4111.282, 450, 0, []
1631430351.0754, 73, 0, 4201.026, 7769.231, 4080.513, 4178.974, 4103.077, 16157, 0, []
1631430351.0832, 74, 0, 4214.359, 7769.231, 4108.718, 4177.436, 4105.641, 450, 0, []
1631430351.0911, 75, 0, 4207.179, 7769.231, 4087.692, 4181.538, 4094.872, 16204, 0, []
1631430351.0989, 76, 0, 4193.333, 7769.231, 4084.615, 4171.795, 4085.641, 450, 0, []
1631430351.1068, 77, 0, 4203.59, 7769.231, 4097.949, 4145.641, 4102.564, 450, 0, []
1631430351.1145, 78, 0, 4215.385, 7769.231, 4069.744, 4129.744, 4114.872, 450, 0, []
1631430351.1225, 79, 0, 4216.41, 7769.231, 4093.846, 4141.538, 4104.103, 16204, 0, []
1631430351.1304, 80, 0, 4217.436, 7769.231, 4084.615, 4147.692, 4093.846, 450, 0, []
1631430351.1384, 81, 0, 4215.385, 7769.231, 4081.538, 4136.923, 4088.718, 450, 0, []
1631430351.1463, 82, 0, 4218.974, 7769.231, 4097.949, 4143.077, 4083.59, 450, 0, []
1631430351.1542, 83, 0, 4225.641, 7769.231, 4070.769, 4160.513, 4088.205, 16204, 0, []
1631430351.1621, 84, 0, 4222.564, 7769.231, 4101.026, 4172.308, 4106.667, 450, 0, []
1631430351.1701, 85, 0, 4215.897, 7769.231, 4094.872, 4162.051, 4112.821, 450, 0, []
1631430351.178, 86, 0, 4210.256, 7769.231, 4072.821, 4132.821, 4092.821, 450, 0, []
1631430351.186, 87, 0, 4213.846, 7769.231, 4092.821, 4125.641, 4079.487, 16204, 0, []
1631430351.1939, 88, 0, 4226.154, 7769.231, 4081.538, 4137.436, 4080, 450, 0, []
1631430351.2016, 89, 0, 4231.795, 7769.231, 4107.692, 4130.256, 4074.359, 450, 0, []
1631430351.2095, 90, 0, 4233.846, 7769.231, 4098.974, 4127.179, 4073.333, 450, 0, []
1631430351.2173, 91, 0, 4240, 7769.231, 4079.487, 4156.923, 4087.179, 16204, 0, []
1631430351.2252, 92, 0, 4238.974, 7769.231, 4103.077, 4168.205, 4101.026, 450, 0, []
1631430351.233, 93, 0, 4232.821, 7769.231, 4074.872, 4140.513, 4105.641, 450, 0, []
1631430351.2408, 94, 0, 4242.051, 7769.231, 4085.641, 4137.949, 4109.231, 450, 0, []
1631430351.2486, 95, 0, 4252.821, 7769.231, 4087.179, 4161.538, 4110.769, 16204, 0, []
1631430351.2565, 96, 0, 4247.692, 7769.231, 4067.179, 4156.41, 4102.564, 450, 0, []
1631430351.2643, 97, 0, 4248.718, 7769.231, 4093.333, 4135.897, 4095.385, 450, 0, []
1631430351.2723, 98, 0, 4260, 7769.231, 4074.359, 4131.795, 4098.462, 450, 0, []
1631430351.2801, 99, 0, 4258.974, 7769.231, 4082.051, 4131.795, 4093.846, 16204, 0, []
1631430351.2881, 100, 0, 4248.205, 7769.231, 4083.077, 4124.615, 4078.462, 450, 0, []
1631430351.296, 101, 0, 4247.692, 7769.231, 4068.718, 4123.59, 4087.179, 450, 0, []
1631430351.304, 102, 0, 4250.256, 7769.231, 4102.051, 4126.667, 4108.205, 450, 0, []
1631430351.3119, 103, 0, 4239.487, 7769.231, 4074.359, 4131.282, 4105.641, 16204, 0, []
1631430351.3198, 104, 0, 4229.744, 7769.231, 4070.256, 4142.051, 4090.256, 450, 0, []
1631430351.3277, 105, 0, 4233.846, 7769.231, 4082.051, 4137.949, 4083.59, 450, 0, []
1631430351.3357, 106, 0, 4244.103, 7769.231, 4062.564, 4127.179, 4080.513, 450, 0, []
1631430351.3436, 107, 0, 4250.256, 7769.231, 4092.821, 4133.333, 4077.436, 16204, 0, []
1631430351.3514, 108, 0, 4248.205, 7769.231, 4078.974, 4130.769, 4075.385, 450, 0, []
1631430351.3592, 109, 0, 4247.692, 7769.231, 4076.923, 4110.769, 4083.59, 450, 0, []
1631430351.367, 110, 0, 4247.692, 7769.744, 4091.282, 4115.897, 4096.923, 450, 0, []
1631430351.3749, 111, 0, 4240.513, 7770.769, 4058.462, 4134.359, 4094.359, 16204, 0, []
1631430351.3827, 112, 0, 4242.051, 7770.256, 4081.026, 4134.359, 4090.256, 450, 0, []
1631430351.3906, 113, 0, 4256.41, 7772.821, 4080, 4136.923, 4102.051, 450, 0, []
1631430351.3983, 114, 0, 4264.103, 7773.333, 4068.718, 4142.564, 4101.026, 450, 0, []
1631430351.4062, 115, 0, 4267.692, 7775.385, 4086.667, 4142.051, 4093.333, 16204, 0, []
1631430351.414, 116, 0, 4269.744, 7841.538, 4068.205, 4150.769, 4095.385, 450, 0, []
1631430351.4219, 117, 0, 4263.59, 7895.385, 4085.128, 4144.103, 4090.769, 450, 0, []
1631430351.4297, 118, 0, 4264.615, 7749.231, 4088.205, 4116.923, 4088.718, 450, 0, []
1631430351.4376, 119, 0, 4263.077, 7811.282, 4093.333, 4124.103, 4102.051, 16204, 0, []
1631430351.4455, 120, 0, 4251.795, 7820, 4107.692, 4157.436, 4107.179, 450, 0, []
1631430351.4535, 121, 0, 4255.897, 6506.667, 4066.154, 4154.359, 4095.385, 450, 0, []
1631430351.4614, 122, 0, 4261.538, 4438.974, 4080.513, 4128.205, 4088.205, 450, 0, []
1631430351.4693, 123, 0, 4252.821, 3381.026, 4082.564, 4127.692, 4097.949, 16204, 0, []
1631430351.4771, 124, 0, 4252.821, 3092.308, 4065.641, 4138.462, 4107.179, 450, 0, []
1631430351.4851, 125, 0, 4256.923, 2554.359, 4090.769, 4126.154, 4095.897, 450, 0, []
1631430351.4931, 126, 0, 4247.179, 2080, 4074.872, 4108.205, 4082.564, 450, 0, []
1631430351.501, 127, 0, 4242.564, 1894.359, 4098.462, 4116.923, 4087.692, 16204, 0, []
1631430351.5089, 128, 0, 4256.41, 1666.667, 4114.359, 4140, 4098.974, 450, 0, []
1631430351.5168, 0, 0, 4272.308, 1426.154, 4097.436, 4150.256, 4111.795, 450, 0, []
1631430351.5247, 1, 0, 4277.949, 1223.59, 4111.282, 4148.718, 4123.077, 450, 0, []
1631430351.5325, 2, 0, 4270.256, 1089.231, 4076.923, 4134.872, 4117.436, 16223, 0, []
1631430351.5404, 3, 0, 4260, 1009.231, 4091.282, 4114.359, 4106.154, 450, 0, []
1631430351.5482, 4, 0, 4264.103, 930.256, 4109.231, 4108.718, 4105.641, 246, 0, []
1631430351.5561, 5, 0, 4263.59, 867.692, 4073.333, 4118.462, 4111.795, 450, 0, []
1631430351.5638, 6, 0, 4250.769, 827.692, 4088.205, 4125.641, 4108.205, 228, 0, []
1631430351.5717, 7, 0, 4241.026, 805.641, 4080, 4120, 4094.872, 450, 0, []
1631430351.5795, 8, 0, 4246.667, 806.667, 4091.282, 4127.692, 4098.462, 450, 0, []
1631430351.5874, 9, 0, 4252.821, 814.872, 4097.949, 4135.385, 4112.308, 16164, 0, []
1631430351.5952, 10, 0, 4248.718, 813.846, 4066.667, 4116.41, 4108.205, 450, 0, []
1631430351.6031, 11, 0, 4243.077, 814.872, 4092.821, 4115.897, 4103.59, 16196, 0, []
1631430351.611, 12, 0, 4236.923, 816.923, 4076.923, 4123.59, 4101.026, 450, 0, []
1631430351.619, 13, 0, 4227.692, 817.436, 4075.385, 4105.641, 4083.077, 450, 0, []
1631430351.6269, 14, 0, 4224.103, 817.949, 4102.564, 4102.051, 4083.59, 450, 0, []
1631430351.6349, 15, 0, 4235.897, 817.436, 4085.128, 4131.282, 4104.103, 16196, 0, []
1631430351.6427, 16, 0, 4248.205, 817.436, 4107.179, 4140.513, 4112.821, 0, 0, []
1631430351.6507, 17, 0, 4234.359, 817.436, 4093.846, 4117.436, 4109.231, 0, 0, []
1631430351.6586, 18, 0, 4212.821, 817.436, 4080, 4100, 4096.923, 0, 0, []
1631430351.6666, 19, 0, 4221.026, 817.436, 4106.154, 4104.103, 4096.923, 0, 0, []
1631430351.6745, 20, 0, 4239.487, 817.436, 4090.769, 4113.333, 4114.359, 0, 0, []
1631430351.6822, 21, 0, 4230.769, 817.436, 4101.026, 4120, 4110.769, 0, 0, []
1631430351.6901, 22, 0, 4219.487, 817.436, 4087.692, 4120, 4097.436, 0, 0, []
1631430351.6979, 23, 0, 4231.795, 817.436, 4084.615, 4126.154, 4110.769, 0, 0, []
1631430351.7058, 24, 0, 4239.487, 817.436, 4110.256, 4136.923, 4120.513, 0, 0, []
1631430351.7136, 25, 0, 4231.282, 817.436, 4081.538, 4124.103, 4111.282, 0, 0, []
1631430351.7214, 26, 0, 4233.846, 817.436, 4102.564, 4116.41, 4117.436, 0, 0, []
1631430351.7292, 27, 0, 4233.333, 817.436, 4101.538, 4132.308, 4126.154, 0, 0, []
1631430351.7371, 28, 0, 4215.897, 817.436, 4071.795, 4133.333, 4110.769, 0, 0, []
1631430351.7449, 29, 0, 4212.308, 817.436, 4095.897, 4120, 4100, 0, 0, []
1631430351.7529, 30, 0, 4218.974, 817.436, 4085.641, 4112.308, 4113.333, 0, 0, []
1631430351.7607, 31, 0, 4215.897, 817.436, 4097.949, 4112.308, 4120.513, 0, 0, []
1631430351.7687, 32, 0, 4215.897, 817.436, 4093.846, 4111.795, 4115.385, 0, 0, []
1631430351.7766, 33, 0, 4216.923, 817.436, 4077.436, 4106.667, 4117.949, 0, 0, []
1631430351.7846, 34, 0, 4206.667, 817.436, 4096.41, 4098.974, 4114.872, 0, 0, []
1631430351.7925, 35, 0, 4203.59, 817.436, 4058.462, 4101.538, 4100, 0, 0, []
1631430351.8004, 36, 0, 4214.872, 817.436, 4073.333, 4115.385, 4108.205, 0, 0, []
1631430351.8083, 37, 0, 4223.59, 817.436, 4102.051, 4123.59, 4129.231, 0, 0, []
1631430351.8161, 38, 0, 4217.949, 817.436, 4081.538, 4129.231, 4128.205, 0, 0, []
1631430351.824, 39, 0, 4213.333, 817.436, 4107.179, 4129.744, 4129.231, 0, 0, []
1631430351.8318, 40, 0, 4230.769, 817.436, 4093.846, 4124.103, 4142.051, 0, 0, []
1631430351.8396, 41, 0, 4236.41, 817.436, 4092.821, 4126.667, 4139.487, 0, 0, []
1631430351.8474, 42, 0, 4208.718, 817.436, 4104.103, 4128.718, 4124.103, 0, 0, []
1631430351.8553, 43, 0, 4198.462, 817.436, 4082.564, 4130.256, 4120, 0, 0, []
1631430351.8631, 44, 0, 4217.436, 817.436, 4106.154, 4138.462, 4132.308, 0, 0, []
1631430351.871, 45, 0, 4218.462, 817.436, 4095.385, 4131.795, 4141.026, 0, 0, []
1631430351.8788, 46, 0, 4210.769, 817.436, 4096.923, 4122.564, 4132.821, 0, 0, []
1631430351.8867, 47, 0, 4219.487, 817.436, 4108.718, 4132.821, 4129.744, 0, 0, []
1631430351.8946, 48, 0, 4215.385, 817.436, 4081.026, 4132.308, 4134.872, 0, 0, []
1631430351.9026, 49, 0, 4204.615, 817.436, 4107.179, 4113.333, 4128.718, 0, 0, []
1631430351.9105, 50, 0, 4207.179, 817.436, 4088.718, 4112.821, 4127.692, 0, 0, []
1631430351.9185, 51, 0, 4201.538, 817.436, 4073.846, 4128.205, 4135.897, 0, 0, []
1631430351.9263, 52, 0, 4204.615, 817.436, 4100.513, 4133.846, 4136.923, 0, 0, []
1631430351.9343, 53, 0, 4213.846, 817.436, 4074.359, 4126.154, 4134.359, 0, 0, []
1631430351.9422, 54, 0, 4204.615, 817.436, 4095.897, 4122.564, 4138.462, 0, 0, []
1631430351.9502, 55, 0, 4203.59, 817.436, 4107.179, 4134.872, 4142.564, 0, 0, []
1631430351.9581, 56, 0, 4222.051, 817.436, 4097.436, 4147.692, 4152.308, 0, 0, []
1631430351.966, 57, 0, 4220.513, 817.436, 4105.128, 4144.103, 4156.923, 0, 0, []
1631430351.9739, 58, 0, 4206.667, 817.436, 4075.385, 4136.41, 4144.103, 0, 0, []
1631430351.9817, 59, 0, 4210.769, 817.436, 4095.385, 4142.051, 4142.564, 0, 0, []
1631430351.9896, 60, 0, 4215.897, 817.436, 4092.821, 4153.846, 4156.41, 0, 0, []
1631430351.9974, 61, 0, 4213.846, 817.436, 4071.795, 4153.333, 4151.282, 0, 0, []
1631430352.0052, 62, 0, 4211.282, 817.436, 4094.359, 4132.308, 4137.949, 0, 0, []
1631430352.013, 63, 0, 4208.205, 817.436, 4070.256, 4121.538, 4141.026, 0, 0, []
1631430352.0209, 64, 0, 4206.154, 817.436, 4091.282, 4146.154, 4148.718, 450, 0, []
1631430352.0287, 65, 0, 4203.59, 817.436, 4104.103, 4160.513, 4153.333, 450, 0, []
1631430352.0366, 66, 0, 4200.513, 817.436, 4072.821, 4147.179, 4155.897, 16205, 0, []
1631430352.0443, 67, 0, 4203.59, 817.436, 4092.308, 4143.59, 4149.231, 450, 0, []
1631430352.0522, 68, 0, 4197.949, 817.436, 4081.538, 4137.949, 4143.077, 44, 0, []
1631430352.06, 69, 0, 4174.872, 817.436, 4086.154, 4118.974, 4134.359, 450, 0, []
1631430352.068, 70, 0, 4169.231, 817.436, 4084.615, 4123.59, 4125.641, 224, 0, []
1631430352.0759, 71, 0, 4186.667, 817.436, 4066.667, 4144.615, 4137.436, 450, 0, []
1631430352.0838, 72, 0, 4186.154, 817.436, 4100, 4135.385, 4147.179, 450, 0, []
1631430352.0917, 73, 0, 4171.282, 817.436, 4085.128, 4113.846, 4133.846, 16161, 0, []
1631430352.0997, 74, 0, 4170.256, 817.436, 4091.282, 4122.564, 4131.795, 450, 0, []
1631430352.1076, 75, 0, 4172.821, 817.436, 4103.077, 4136.41, 4142.051, 16192, 0, []
1631430352.1156, 76, 0, 4180.513, 817.436, 4071.282, 4131.282, 4134.872, 450, 0, []
1631430352.1234, 77, 0, 4187.179, 817.436, 4096.41, 4126.154, 4135.385, 450, 0, []
1631430352.1313, 78, 0, 4171.282, 817.436, 4078.462, 4122.564, 4143.077, 450, 0, []
1631430352.1392, 79, 0, 4165.641, 817.436, 4071.282, 4121.026, 4136.41, 16192, 0, []
1631430352.147, 80, 0, 4189.231, 817.436, 4096.41, 4127.179, 4146.154, 450, 0, []
1631430352.1549, 81, 0, 4197.436, 817.436, 4077.949, 4134.359, 4164.615, 450, 0, []
1631430352.1626, 82, 0, 4189.231, 817.436, 4100.513, 4144.103, 4159.487, 450, 0, []
1631430352.1705, 83, 0, 4192.308, 817.436, 4092.308, 4147.692, 4151.282, 16192, 0, []
1631430352.1783, 84, 0, 4185.641, 817.436, 4077.949, 4134.872, 4153.333, 450, 0, []
1631430352.1862, 85, 0, 4180.513, 817.436, 4088.718, 4127.179, 4154.872, 450, 0, []
1631430352.194, 86, 0, 4196.41, 817.436, 4070.769, 4136.923, 4160, 450, 0, []
1631430352.2018, 87, 0, 4201.538, 817.436, 4106.667, 4138.462, 4170.256, 16192, 0, []
1631430352.2096, 88, 0, 4198.462, 817.436, 4102.051, 4127.179, 4177.949, 450, 0, []
1631430352.2176, 89, 0, 4203.077, 817.436, 4079.487, 4129.231, 4183.59, 450, 0, []
1631430352.2255, 90, 0, 4204.103, 817.436, 4099.487, 4147.179, 4176.41, 450, 0, []
1631430352.2335, 91, 0, 4200.513, 817.436, 4081.538, 4152.308, 4167.179, 16192, 0, []
1631430352.2414, 92, 0, 4194.359, 817.436, 4096.923, 4138.462, 4168.205, 450, 0, []
1631430352.2493, 93, 0, 4184.615, 817.436, 4092.821, 4130.256, 4163.077, 450, 0, []
1631430352.2572, 94, 0, 4181.538, 817.436, 4077.436, 4134.872, 4154.872, 450, 0, []
1631430352.2652, 95, 0, 4178.462, 817.436, 4097.949, 4131.795, 4153.846, 16192, 0, []
1631430352.2731, 96, 0, 4166.154, 817.436, 4071.282, 4113.846, 4150.256, 450, 0, []
1631430352.2811, 97, 0, 4165.128, 817.436, 4088.718, 4122.051, 4148.205, 450, 0, []
1631430352.2889, 98, 0, 4172.821, 817.436, 4085.641, 4146.154, 4152.308, 450, 0, []
1631430352.2967, 99, 0, 4173.846, 817.436, 4054.872, 4141.026, 4159.487, 16192, 0, []
1631430352.3046, 100, 0, 4183.077, 817.436, 4093.846, 4127.692, 4168.205, 450, 0, []
1631430352.3124, 101, 0, 4190.256, 817.436, 4078.974, 4127.692, 4170.256, 450, 0, []
1631430352.3203, 102, 0, 4183.59, 817.436, 4082.051, 4125.641, 4168.718, 450, 0, []
1631430352.328, 103, 0, 4188.718, 817.436, 4097.949, 4113.333, 4171.282, 16192, 0, []
1631430352.3359, 104, 0, 4200.513, 817.436, 4077.949, 4116.923, 4174.872, 450, 0, []
1631430352.3437, 105, 0, 4192.821, 817.436, 4104.615, 4134.359, 4181.026, 450, 0, []
1631430352.3516, 106, 0, 4181.538, 817.436, 4091.795, 4132.308, 4184.615, 450, 0, []
1631430352.3594, 107, 0, 4184.103, 816.41, 4090.256, 4124.615, 4175.897, 16192, 0, []
1631430352.3673, 108, 0, 4183.077, 816.923, 4100, 4132.308, 4167.692, 450, 0, []
1631430352.3752, 109, 0, 4172.821, 817.949, 4072.821, 4139.487, 4163.59, 450, 0, []
1631430352.3832, 110, 0, 4163.077, 817.949, 4090.769, 4130.256, 4146.667, 450, 0, []
1631430352.3911, 111, 0, 4155.385, 823.59, 4079.487, 4120, 4138.974, 16192, 0, []
1631430352.3991, 112, 0, 4157.949, 831.795, 4084.615, 4127.179, 4156.923, 450, 0, []
1631430352.4069, 113, 0, 4176.41, 838.974, 4102.051, 4143.59, 4169.231, 450, 0, []
1631430352.4149, 114, 0, 4190.769, 848.718, 4081.538, 4138.462, 4173.333, 450, 0, []
1631430352.4228, 115, 0, 4192.821, 857.949, 4116.41, 4120, 4183.59, 16192, 0, []
1631430352.4308, 116, 0, 4194.359, 868.718, 4109.744, 4131.282, 4186.154, 450, 0, []
1631430352.4387, 117, 0, 4201.026, 884.103, 4098.974, 4156.923, 4188.718, 450, 0, []
1631430352.4464, 118, 0, 4211.795, 895.385, 4120.513, 4151.282, 4204.103, 450, 0, []
1631430352.4543, 119, 0, 4208.205, 897.949, 4087.179, 4125.128, 4204.615, 16192, 0, []
1631430352.4622, 120, 0, 4190.256, 904.103, 4100, 4118.462, 4185.641, 450, 0, []
1631430352.4701, 121, 0, 4180, 916.923, 4098.462, 4123.59, 4172.308, 450, 0, []
1631430352.4781, 122, 0, 4175.385, 929.231, 4082.051, 4122.051, 4162.564, 450, 0, []
1631430352.4859, 123, 0, 4166.154, 934.872, 4102.564, 4123.077, 4154.872, 16192, 0, []
1631430352.4937, 124, 0, 4158.974, 947.692, 4085.128, 4117.949, 4152.821, 450, 0, []
1631430352.5016, 125, 0, 4153.846, 964.615, 4097.436, 4109.744, 4142.051, 450, 0, []
1631430352.5094, 126, 0, 4151.795, 967.179, 4089.231, 4122.051, 4140, 450, 0, []
1631430352.5173, 127, 0, 4164.615, 973.333, 4071.282, 4135.385, 4155.385, 16192, 0, []
1631430352.525, 128, 0, 4177.436, 991.282, 4094.359, 4128.205, 4163.077, 450, 0, []
1631430352.533, 0, 0, 4168.718, 1002.051, 4074.872, 4122.051, 4157.949, 450, 0, []
1631430352.5409, 1, 0, 4162.564, 1009.744, 4094.872, 4131.282, 4164.615, 450, 0, []
1631430352.5489, 2, 0, 4177.949, 1027.179, 4105.641, 4143.077, 4183.59, 16186, 0, []
1631430352.5568, 3, 0, 4186.667, 1041.026, 4093.333, 4140, 4189.231, 450, 0, []
1631430352.5647, 4, 0, 4177.436, 1047.179, 4118.974, 4126.667, 4178.462, 132, 0, []
1631430352.5726, 5, 0, 4166.667, 1058.974, 4082.051, 4118.974, 4166.667, 450, 0, []
1631430352.5806, 6, 0, 4159.487, 1075.385, 4080.513, 4127.179, 4166.154, 224, 0, []
1631430352.5885, 7, 0, 4161.538, 1091.795, 4094.872, 4133.333, 4169.231, 450, 0, []
1631430352.5965, 8, 0, 4169.744, 1103.077, 4065.641, 4131.282, 4170.769, 450, 0, []
1631430352.6044, 9, 0, 4171.282, 1114.359, 4088.205, 4138.462, 4173.846, 16166, 0, []
1631430352.6121, 10, 0, 4167.692, 1130.256, 4077.949, 4136.923, 4168.718, 450, 0, []
1631430352.62, 11, 0, 4167.692, 1140, 4081.026, 4124.103, 4167.179, 16201, 0, []
1631430352.6278, 12, 0, 4167.692, 1150.769, 4097.436, 4120, 4170.769, 450, 0, []
1631430352.6357, 13, 0, 4169.744, 1173.333, 4077.949, 4120, 4169.744, 450, 0, []
1631430352.6435, 14, 0, 4171.282, 1194.872, 4094.872, 4118.974, 4168.718, 450, 0, []
1631430352.6513, 15, 0, 4168.718, 1208.205, 4077.949, 4116.923, 4164.103, 16201, 0, []
1631430352.6591, 16, 0, 4164.615, 1227.692, 4084.103, 4115.897, 4153.333, 0, 0, []
1631430352.667, 17, 0, 4154.359, 1250.769, 4103.59, 4116.41, 4149.744, 0, 0, []
1631430352.6748, 18, 0, 4143.59, 1256.41, 4077.949, 4117.949, 4155.897, 0, 0, []
1631430352.6828, 19, 0, 4150.256, 1260.513, 4106.667, 4114.359, 4156.41, 0, 0, []
1631430352.6906, 20, 0, 4158.462, 1285.128, 4092.821, 4111.282, 4152.308, 0, 0, []
1631430352.6986, 21, 0, 4148.205, 1308.718, 4077.949, 4112.821, 4150.769, 0, 0, []
1631430352.7065, 22, 0, 4143.077, 1320, 4105.128, 4114.359, 4153.333, 0, 0, []
1631430352.7145, 23, 0, 4151.795, 1337.949, 4081.026, 4123.59, 4158.974, 0, 0, []
1631430352.7224, 24, 0, 4155.385, 1366.667, 4094.872, 4136.41, 4168.718, 0, 0, []
1631430352.7303, 25, 0, 4156.41, 1397.436, 4094.359, 4125.128, 4174.359, 0, 0, []
1631430352.7382, 26, 0, 4162.564, 1421.026, 4087.179, 4117.949, 4172.821, 0, 0, []
1631430352.7462, 27, 0, 4169.231, 1443.077, 4110.256, 4141.026, 4177.949, 0, 0, []
1631430352.7541, 28, 0, 4177.436, 1474.359, 4088.205, 4145.128, 4186.667, 0, 0, []
1631430352.7619, 29, 0, 4181.026, 1502.564, 4110.769, 4134.359, 4188.205, 0, 0, []
1631430352.7697, 30, 0, 4178.462, 1522.051, 4110.256, 4138.974, 4187.179, 0, 0, []
1631430352.7775, 31, 0, 4183.59, 1538.974, 4088.205, 4145.128, 4187.692, 0, 0, []
1631430352.7854, 32, 0, 4179.487, 1549.231, 4111.282, 4136.923, 4187.692, 0, 0, []
1631430352.7932, 33, 0, 4164.103, 1569.744, 4083.077, 4131.795, 4185.641, 0, 0, []
1631430352.8011, 34, 0, 4167.692, 1594.359, 4088.205, 4133.333, 4177.949, 0, 0, []
1631430352.8088, 35, 0, 4168.205, 1599.487, 4093.846, 4119.487, 4166.154, 0, 0, []
1631430352.8167, 36, 0, 4148.205, 1615.897, 4070.769, 4112.308, 4156.923, 0, 0, []
1631430352.8245, 37, 0, 4155.897, 1656.41, 4098.462, 4136.923, 4160.513, 0, 0, []
1631430352.8325, 38, 0, 4175.385, 1671.795, 4084.615, 4147.179, 4173.846, 0, 0, []
1631430352.8404, 39, 0, 4162.564, 1675.385, 4085.641, 4124.103, 4175.897, 0, 0, []
1631430352.8483, 40, 0, 4156.41, 1702.564, 4093.333, 4122.564, 4170.769, 0, 0, []
1631430352.8562, 41, 0, 4169.744, 1729.744, 4080.513, 4136.41, 4179.487, 0, 0, []
1631430352.8642, 42, 0, 4172.308, 1753.846, 4108.718, 4126.667, 4188.718, 0, 0, []
1631430352.8721, 43, 0, 4169.744, 1779.487, 4086.154, 4123.077, 4185.128, 0, 0, []
1631430352.8801, 44, 0, 4170.256, 1791.282, 4092.821, 4137.949, 4182.051, 0, 0, []
1631430352.8879, 45, 0, 4162.564, 1803.077, 4111.282, 4129.231, 4176.41, 0, 0, []
1631430352.8959, 46, 0, 4153.846, 1837.949, 4077.949, 4114.872, 4166.154, 0, 0, []
1631430352.9038, 47, 0, 4153.333, 1871.795, 4107.692, 4133.333, 4166.667, 0, 0, []
1631430352.9116, 48, 0, 4154.359, 1874.359, 4107.692, 4146.154, 4170.769, 0, 0, []
1631430352.9195, 49, 0, 4154.872, 1880.513, 4093.846, 4128.718, 4167.692, 0, 0, []
1631430352.9272, 50, 0, 4156.923, 1910.769, 4102.564, 4123.59, 4168.205, 0, 0, []
1631430352.9351, 51, 0, 4164.103, 1935.897, 4085.641, 4144.615, 4175.897, 0, 0, []
1631430352.9429, 52, 0, 4174.359, 1956.41, 4107.179, 4150.769, 4186.667, 0, 0, []
1631430352.9508, 53, 0, 4175.897, 1988.205, 4087.692, 4130.256, 4191.282, 0, 0, []
1631430352.9586, 54, 0, 4167.692, 2008.205, 4077.949, 4132.308, 4183.59, 0, 0, []
1631430352.9665, 55, 0, 4172.821, 2015.897, 4108.205, 4156.41, 4184.103, 0, 0, []
1631430352.9742, 56, 0, 4191.795, 2029.231, 4088.718, 4157.436, 4197.436, 0, 0, []
1631430352.9821, 57, 0, 4188.205, 2044.103, 4100.513, 4134.872, 4197.436, 0, 0, []
1631430352.9899, 58, 0, 4164.103, 2069.744, 4087.179, 4126.667, 4181.538, 0, 0, []
1631430352.9979, 59, 0, 4161.538, 2093.846, 4076.923, 4145.128, 4175.897, 0, 0, []
1631430353.0058, 60, 0, 4182.051, 2106.667, 4107.179, 4163.59, 4191.282, 0, 0, []
1631430353.0137, 61, 0, 4188.205, 2127.179, 4087.692, 4157.436, 4201.538, 0, 0, []
1631430353.0216, 62, 0, 4176.41, 2156.41, 4102.051, 4143.077, 4192.821, 0, 0, []
1631430353.0296, 63, 0, 4166.667, 2175.385, 4100.513, 4140.513, 4182.051, 0, 0, []
1631430353.0375, 64, 0, 4169.744, 2184.615, 4088.205, 4151.282, 4184.103, 450, 0, []
1631430353.0455, 65, 0, 4174.872, 2202.051, 4114.359, 4154.359, 4188.718, 450, 0, []
1631430353.0533, 66, 0, 4166.667, 2227.179, 4080, 4134.872, 4181.026, 16193, 0, []
1631430353.0613, 67, 0, 4162.051, 2237.949, 4091.282, 4134.872, 4169.231, 450, 0, []
1631430353.0692, 68, 0, 4172.821, 2245.128, 4109.231, 4155.385, 4168.205, 258, 0, []
1631430353.077, 69, 0, 4170.256, 2270.769, 4077.436, 4144.615, 4170.769, 450, 0, []
1631430353.0849, 70, 0, 4153.846, 2287.179, 4087.692, 4129.231, 4167.179, 228, 0, []
1631430353.0926, 71, 0, 4153.846, 2294.359, 4078.974, 4138.974, 4168.205, 450, 0, []
1631430353.1005, 72, 0, 4165.128, 2316.923, 4100.513, 4143.077, 4173.846, 450, 0, []
1631430353.1083, 73, 0, 4168.205, 2335.385, 4110.256, 4131.282, 4170.256, 16167, 0, []
1631430353.1162, 74, 0, 4165.641, 2356.41, 4078.974, 4131.795, 4171.795, 450, 0, []
1631430353.124, 75, 0, 4167.179, 2385.641, 4103.59, 4152.308, 4182.051, 16200, 0, []
1631430353.1318, 76, 0, 4171.795, 2395.385, 4091.282, 4163.59, 4186.154, 450, 0, []
1631430353.1396, 77, 0, 4174.359, 2410.256, 4090.769, 4152.821, 4184.615, 450, 0, []
1631430353.1476, 78, 0, 4171.795, 2452.308, 4103.59, 4149.744, 4186.154, 450, 0, []
1631430353.1555, 79, 0, 4169.231, 2470.256, 4084.103, 4160.513, 4187.692, 16200, 0, []
1631430353.1635, 80, 0, 4172.308, 2464.103, 4112.308, 4160, 4185.641, 450, 0, []
1631430353.1713, 81, 0, 4172.308, 2474.872, 4090.256, 4141.538, 4186.667, 450, 0, []
1631430353.1793, 82, 0, 4167.692, 2487.692, 4077.949, 4137.436, 4186.154, 450, 0, []
1631430353.1872, 83, 0, 4163.59, 2500, 4102.564, 4156.923, 4180, 16200, 0, []
1631430353.1952, 84, 0, 4155.897, 2521.026, 4083.077, 4153.846, 4170.256, 450, 0, []
1631430353.2031, 85, 0, 4151.282, 2537.436, 4105.128, 4133.846, 4168.205, 450, 0, []
1631430353.211, 86, 0, 4161.538, 2553.846, 4096.41, 4136.923, 4176.923, 450, 0, []
1631430353.2189, 87, 0, 4168.205, 2581.026, 4085.128, 4152.308, 4178.974, 16200, 0, []
1631430353.2267, 88, 0, 4160, 2605.128, 4105.641, 4153.846, 4171.282, 450, 0, []
1631430353.2346, 89, 0, 4158.974, 2614.359, 4081.026, 4147.179, 4172.308, 450, 0, []
1631430353.2424, 90, 0, 4169.744, 2622.051, 4098.462, 4145.641, 4184.615, 450, 0, []
1631430353.2502, 91, 0, 4175.385, 2648.718, 4101.026, 4152.821, 4191.282, 16200, 0, []
1631430353.258, 92, 0, 4171.282, 2691.282, 4095.385, 4161.026, 4184.615, 450, 0, []
1631430353.2659, 93, 0, 4166.667, 2707.692, 4119.487, 4155.385, 4177.949, 450, 0, []
1631430353.2737, 94, 0, 4167.179, 2698.974, 4095.897, 4153.333, 4181.026, 450, 0, []
1631430353.2816, 95, 0, 4173.333, 2717.949, 4110.256, 4160.513, 4185.128, 16200, 0, []
1631430353.2894, 96, 0, 4167.179, 2749.231, 4103.077, 4150.256, 4180.513, 450, 0, []
1631430353.2972, 97, 0, 4152.821, 2753.846, 4078.974, 4137.949, 4166.667, 450, 0, []
1631430353.305, 98, 0, 4150.769, 2759.487, 4109.231, 4146.667, 4152.308, 450, 0, []
1631430353.313, 99, 0, 4155.897, 2775.385, 4089.231, 4149.744, 4157.436, 16200, 0, []
1631430353.3209, 100, 0, 4155.385, 2787.179, 4094.359, 4142.564, 4171.795, 450, 0, []
1631430353.3289, 101, 0, 4151.282, 2803.59, 4095.385, 4136.923, 4163.077, 450, 0, []
1631430353.3367, 102, 0, 4147.692, 2820, 4070.256, 4138.462, 4147.692, 450, 0, []
1631430353.3447, 103, 0, 4154.872, 2825.128, 4101.538, 4148.205, 4161.026, 16200, 0, []
1631430353.3526, 104, 0, 4164.615, 2838.974, 4092.308, 4151.282, 4176.923, 450, 0, []
1631430353.3606, 105, 0, 4152.821, 2865.641, 4095.385, 4134.359, 4165.128, 450, 0, []
1631430353.3685, 106, 0, 4140.513, 2884.103, 4096.923, 4122.564, 4149.744, 450, 0, []
1631430353.3764, 107, 0, 4149.744, 2885.641, 4071.282, 4143.59, 4160.513, 16200, 0, []
1631430353.3843, 108, 0, 4160.513, 2886.154, 4102.564, 4159.487, 4180, 450, 0, []
1631430353.3921, 109, 0, 4153.846, 2903.59, 4092.821, 4133.846, 4170.256, 450, 0, []
1631430353.4, 110, 0, 4138.974, 2935.385, 4090.256, 4115.897, 4150.256, 450, 0, []
1631430353.4078, 111, 0, 4136.923, 2957.949, 4099.487, 4134.872, 4153.846, 16200, 0, []
1631430353.4156, 112, 0, 4141.026, 2958.974, 4071.795, 4132.821, 4159.487, 450, 0, []
1631430353.4234, 113, 0, 4139.487, 2961.538, 4092.821, 4109.231, 4154.359, 450, 0, []
1631430353.4313, 114, 0, 4143.59, 2976.923, 4082.051, 4116.923, 4161.538, 450, 0, []
1631430353.4391, 115, 0, 4150.256, 2987.692, 4086.667, 4136.41, 4167.179, 16200, 0, []
1631430353.447, 116, 0, 4143.077, 2996.923, 4106.667, 4132.308, 4156.923, 450, 0, []
1631430353.4548, 117, 0, 4139.487, 3017.436, 4076.41, 4126.667, 4151.795, 450, 0, []
1631430353.4627, 118, 0, 4154.359, 3033.846, 4105.641, 4143.59, 4161.538, 450, 0, []
1631430353.4707, 119, 0, 4157.949, 3057.436, 4106.667, 4146.667, 4167.692, 16200, 0, []
1631430353.4787, 120, 0, 4150.256, 3094.359, 4092.308, 4129.231, 4165.128, 450, 0, []
1631430353.4866, 121, 0, 4153.846, 3097.436, 4102.051, 4124.103, 4168.718, 450, 0, []
1631430353.4945, 122, 0, 4154.359, 3087.692, 4074.359, 4132.308, 4167.692, 450, 0, []
1631430353.5024, 123, 0, 4143.59, 3101.026, 4098.974, 4142.051, 4156.923, 16200, 0, []
1631430353.5104, 124, 0, 4142.564, 3122.051, 4104.103, 4147.179, 4155.897, 450, 0, []
1631430353.5183, 125, 0, 4154.359, 3137.949, 4094.872, 4150.256, 4166.154, 450, 0, []
1631430353.5263, 126, 0, 4159.487, 3153.333, 4112.308, 4147.179, 4172.821, 450, 0, []
1631430353.5341, 127, 0, 4155.385, 3171.795, 4077.436, 4136.923, 4168.205, 16200, 0, []
1631430353.5419, 128, 0, 4147.692, 3183.077, 4090.256, 4127.179, 4156.923, 450, 0, []
1631430353.5498, 0, 0, 4144.615, 3196.41, 4100.513, 4132.821, 4151.795, 450, 0, []
1631430353.5576, 1, 0, 4150.256, 3204.615, 4088.718, 4149.231, 4157.949, 450, 0, []
1631430353.5655, 2, 0, 4154.359, 3205.128, 4113.333, 4141.026, 4165.128, 16188, 0, []
1631430353.5732, 3, 0, 4148.205, 3210.769, 4077.949, 4117.949, 4158.974, 450, 0, []
1631430353.5811, 4, 0, 4134.359, 3223.077, 4069.744, 4111.795, 4145.128, 16147, 0, []
1631430353.5889, 5, 0, 4129.231, 3247.179, 4084.103, 4124.615, 4140.513, 450, 0, []
1631430353.5968, 6, 0, 4142.051, 3268.718, 4082.564, 4145.128, 4149.744, 232, 0, []
1631430353.6046, 7, 0, 4155.385, 3268.718, 4108.205, 4149.744, 4156.923, 450, 0, []
1631430353.6125, 8, 0, 4158.462, 3265.128, 4078.974, 4133.333, 4161.026, 450, 0, []
1631430353.6204, 9, 0, 4157.949, 3287.179, 4088.718, 4137.949, 4166.667, 16156, 0, []
1631430353.6284, 10, 0, 4159.487, 3312.821, 4104.103, 4156.41, 4164.103, 450, 0, []
1631430353.6363, 11, 0, 4157.436, 3310.256, 4071.282, 4146.667, 4153.846, 16204, 0, []
1631430353.6443, 12, 0, 4158.462, 3321.026, 4096.923, 4137.949, 4152.821, 450, 0, []
1631430353.6522, 13, 0, 4167.692, 3346.154, 4090.256, 4145.128, 4162.051, 450, 0, []
1631430353.6601, 14, 0, 4168.718, 3344.615, 4089.744, 4140, 4167.179, 450, 0, []
1631430353.668, 15, 0, 4160.513, 3346.667, 4099.487, 4121.026, 4160, 16204, 0, []
1631430353.676, 16, 0, 4146.154, 3368.718, 4074.872, 4106.154, 4150.256, 0, 0, []
1631430353.6839, 17, 0, 4139.487, 3380, 4102.051, 4127.179, 4150.769, 0, 0, []
1631430353.6917, 18, 0, 4147.692, 3394.872, 4089.744, 4159.487, 4156.923, 0, 0, []
1631430353.6995, 19, 0, 4147.692, 3420.513, 4084.615, 4154.872, 4153.846, 0, 0, []
1631430353.7073, 20, 0, 4141.026, 3421.538, 4105.128, 4142.564, 4147.179, 0, 0, []
1631430353.7152, 21, 0, 4141.026, 3414.872, 4080, 4149.744, 4146.667, 0, 0, []
1631430353.723, 22, 0, 4143.59, 3427.179, 4100, 4144.615, 4147.692, 0, 0, []
1631430353.7309, 23, 0, 4137.949, 3440.513, 4093.846, 4124.615, 4148.205, 0, 0, []
1631430353.7386, 24, 0, 4136.923, 3456.923, 4082.051, 4122.564, 4147.179, 0, 0, []
1631430353.7465, 25, 0, 4140, 3468.718, 4102.051, 4133.846, 4142.051, 0, 0, []
1631430353.7543, 26, 0, 4142.564, 3465.128, 4084.615, 4140, 4141.026, 0, 0, []
1631430353.7622, 27, 0, 4164.615, 3476.41, 4110.769, 4149.231, 4157.949, 0, 0, []
1631430353.77, 28, 0, 4182.564, 3505.128, 4106.154, 4149.744, 4174.359, 0, 0, []
1631430353.7779, 29, 0, 4175.897, 3521.538, 4091.795, 4144.103, 4171.795, 0, 0, []
1631430353.7858, 30, 0, 4166.667, 3530.256, 4118.974, 4146.154, 4174.359, 0, 0, []
1631430353.7938, 31, 0, 4160, 3529.231, 4086.154, 4146.154, 4174.872, 0, 0, []
1631430353.8017, 32, 0, 4152.821, 3523.59, 4092.308, 4139.487, 4156.41, 0, 0, []
1631430353.8097, 33, 0, 4151.795, 3543.077, 4098.462, 4133.846, 4141.026, 0, 0, []
1631430353.8175, 34, 0, 4149.231, 3566.154, 4087.692, 4140.513, 4138.462, 0, 0, []
1631430353.8255, 35, 0, 4139.487, 3565.641, 4118.462, 4145.128, 4136.41, 0, 0, []
1631430353.8334, 36, 0, 4137.949, 3556.923, 4094.872, 4135.385, 4130.769, 0, 0, []
1631430353.8412, 37, 0, 4141.538, 3566.667, 4096.41, 4126.667, 4135.897, 0, 0, []
1631430353.8491, 38, 0, 4142.564, 3592.821, 4096.923, 4132.821, 4145.128, 0, 0, []
1631430353.8568, 39, 0, 4141.026, 3605.641, 4068.718, 4140.513, 4141.538, 0, 0, []
1631430353.8647, 40, 0, 4136.41, 3613.846, 4092.308, 4126.154, 4128.718, 0, 0, []
1631430353.8725, 41, 0, 4132.821, 3628.205, 4080, 4102.564, 4126.154, 0, 0, []
1631430353.8804, 42, 0, 4133.846, 3632.821, 4092.821, 4108.718, 4137.949, 0, 0, []
1631430353.8882, 43, 0, 4138.462, 3623.077, 4100, 4131.795, 4142.051, 0, 0, []
1631430353.896, 44, 0, 4136.923, 3625.128, 4068.205, 4132.308, 4137.436, 0, 0, []
1631430353.9038, 45, 0, 4142.564, 3650.256, 4104.103, 4133.333, 4144.615, 0, 0, []
1631430353.9118, 46, 0, 4157.436, 3666.667, 4102.051, 4138.974, 4155.897, 0, 0, []
1631430353.9197, 47, 0, 4154.359, 3668.205, 4093.846, 4130.256, 4155.385, 0, 0, []
1631430353.9277, 48, 0, 4143.59, 3689.231, 4101.538, 4129.231, 4153.333, 0, 0, []
1631430353.9355, 49, 0, 4145.641, 3717.436, 4078.462, 4134.359, 4153.333, 0, 0, []
1631430353.9435, 50, 0, 4144.103, 3717.949, 4095.897, 4131.282, 4148.205, 0, 0, []
1631430353.9514, 51, 0, 4143.077, 3724.615, 4080, 4141.538, 4149.231, 0, 0, []
1631430353.9594, 52, 0, 4157.436, 3750.256, 4082.564, 4161.538, 4156.41, 0, 0, []
1631430353.9673, 53, 0, 4159.487, 3757.436, 4106.667, 4162.564, 4156.41, 0, 0, []
1631430353.9752, 54, 0, 4153.333, 3749.231, 4084.103, 4148.205, 4157.949, 0, 0, []
1631430353.9831, 55, 0, 4164.615, 3749.744, 4106.667, 4141.538, 4163.59, 0, 0, []
1631430353.9911, 56, 0, 4168.718, 3764.103, 4096.41, 4146.154, 4158.974, 0, 0, []
1631430353.999, 57, 0, 4156.41, 3781.026, 4083.59, 4148.718, 4150.769, 0, 0, []
1631430354.0068, 58, 0, 4155.897, 3778.974, 4104.615, 4147.179, 4152.308, 0, 0, []
1631430354.0147, 59, 0, 4158.462, 3769.231, 4076.923, 4149.744, 4154.359, 0, 0, []
1631430354.0224, 60, 0, 4154.359, 3777.436, 4094.359, 4156.41, 4149.744, 0, 0, []
1631430354.0303, 61, 0, 4151.795, 3784.103, 4091.795, 4142.051, 4144.615, 0, 0, []
1631430354.0381, 62, 0, 4149.231, 3781.026, 4076.41, 4114.872, 4140, 0, 0, []
1631430354.046, 63, 0, 4148.718, 3788.205, 4102.051, 4112.821, 4144.103, 0, 0, []
1631430354.0538, 64, 0, 4157.949, 3813.333, 4078.974, 4143.59, 4155.385, 450, 0, []
1631430354.0616, 65, 0, 4157.436, 3829.744, 4089.744, 4160.513, 4153.846, 450, 0, []
1631430354.0694, 66, 0, 4143.077, 3825.128, 4093.846, 4137.949, 4145.128, 16186, 0, []
1631430354.0773, 67, 0, 4144.615, 3830.256, 4081.026, 4131.795, 4148.718, 450, 0, []
1631430354.0851, 68, 0, 4156.41, 3849.744, 4106.154, 4148.718, 4152.821, 16152, 0, []
1631430354.0931, 69, 0, 4148.205, 3852.821, 4078.462, 4140, 4140.513, 450, 0, []
1631430354.1009, 70, 0, 4133.846, 3837.436, 4090.769, 4131.282, 4130.769, 226, 0, []
1631430354.1089, 71, 0, 4141.026, 3845.641, 4107.692, 4144.103, 4140, 450, 0, []
1631430354.1168, 72, 0, 4156.41, 3865.641, 4083.077, 4154.359, 4152.308, 450, 0, []
1631430354.1248, 73, 0, 4166.667, 3867.179, 4101.026, 4158.462, 4156.923, 16200, 0, []
1631430354.1327, 74, 0, 4170.769, 3875.385, 4086.154, 4153.333, 4156.41, 450, 0, []
1631430354.1406, 75, 0, 4170.256, 3898.974, 4089.231, 4144.615, 4157.436, 16202, 0, []
1631430354.1485, 76, 0, 4174.872, 3913.333, 4091.282, 4151.282, 4167.179, 450, 0, []
1631430354.1563, 77, 0, 4176.41, 3908.205, 4065.128, 4156.923, 4170.769, 450, 0, []
1631430354.1642, 78, 0, 4168.205, 3909.744, 4093.333, 4152.821, 4163.59, 450, 0, []
1631430354.172, 79, 0, 4164.103, 3922.051, 4076.41, 4143.077, 4162.051, 16202, 0, []
1631430354.1798, 80, 0, 4166.154, 3920.513, 4072.821, 4140.513, 4163.077, 450, 0, []
1631430354.1876, 81, 0, 4158.462, 3927.692, 4091.282, 4144.615, 4157.436, 450, 0, []
1631430354.1955, 82, 0, 4151.282, 3947.179, 4065.641, 4137.436, 4149.744, 450, 0, []
1631430354.2033, 83, 0, 4154.359, 3951.795, 4083.077, 4135.385, 4144.615, 16202, 0, []
1631430354.2112, 84, 0, 4151.282, 3949.744, 4071.282, 4144.103, 4135.897, 450, 0, []
1631430354.2189, 85, 0, 4148.718, 3957.949, 4072.308, 4146.667, 4133.846, 450, 0, []
1631430354.2268, 86, 0, 4153.333, 3970.769, 4092.821, 4141.026, 4146.154, 450, 0, []
1631430354.2346, 87, 0, 4154.359, 3978.974, 4069.231, 4142.051, 4154.872, 16202, 0, []
1631430354.2426, 88, 0, 4159.487, 3981.538, 4106.154, 4147.179, 4156.41, 450, 0, []
1631430354.2505, 89, 0, 4172.308, 3981.026, 4107.692, 4141.538, 4157.436, 450, 0, []
1631430354.2584, 90, 0, 4170.769, 3989.231, 4086.667, 4137.436, 4153.846, 450, 0, []
1631430354.2663, 91, 0, 4165.641, 4007.692, 4104.103, 4145.128, 4156.41, 16202, 0, []
1631430354.2743, 92, 0, 4179.487, 4011.282, 4082.564, 4155.897, 4167.692, 450, 0, []
1631430354.2822, 93, 0, 4182.051, 4008.718, 4093.846, 4153.846, 4170.769, 450, 0, []
1631430354.2902, 94, 0, 4161.538, 4017.949, 4086.667, 4148.718, 4162.564, 450, 0, []
1631430354.298, 95, 0, 4156.923, 4025.641, 4076.41, 4147.692, 4163.59, 16202, 0, []
1631430354.306, 96, 0, 4170.256, 4033.333, 4106.154, 4137.949, 4166.154, 450, 0, []
1631430354.3139, 97, 0, 4173.333, 4050.256, 4090.256, 4129.744, 4159.487, 450, 0, []
1631430354.3217, 98, 0, 4166.154, 4053.333, 4104.103, 4137.949, 4155.385, 450, 0, []
1631430354.3296, 99, 0, 4166.667, 4043.59, 4096.41, 4144.103, 4159.487, 16202, 0, []
1631430354.3374, 100, 0, 4172.821, 4044.103, 4076.41, 4140.513, 4168.205, 450, 0, []
1631430354.3452, 101, 0, 4173.846, 4051.795, 4106.667, 4142.051, 4172.821, 450, 0, []
1631430354.353, 102, 0, 4170.256, 4062.564, 4081.538, 4139.487, 4164.103, 450, 0, []
1631430354.3609, 103, 0, 4171.282, 4075.385, 4088.205, 4120.513, 4164.103, 16202, 0, []
1631430354.3687, 104, 0, 4173.333, 4077.949, 4099.487, 4115.897, 4172.308, 450, 0, []
1631430354.3767, 105, 0, 4168.205, 4081.538, 4077.436, 4127.179, 4162.051, 450, 0, []
1631430354.3845, 106, 0, 4167.692, 4094.872, 4100.513, 4129.744, 4153.333, 450, 0, []
1631430354.3925, 107, 0, 4170.256, 4100.513, 4079.487, 4125.641, 4166.667, 16202, 0, []
1631430354.4004, 108, 0, 4166.667, 4101.538, 4083.077, 4127.179, 4167.179, 450, 0, []
1631430354.4084, 109, 0, 4167.179, 4109.231, 4095.897, 4132.821, 4156.923, 450, 0, []
1631430354.4163, 110, 0, 4167.179, 4109.231, 4065.641, 4127.179, 4160.513, 450, 0, []
1631430354.4242, 111, 0, 4155.385, 4103.077, 4085.641, 4121.026, 4156.41, 16202, 0, []
1631430354.4321, 112, 0, 4155.897, 4116.923, 4073.846, 4126.667, 4147.179, 450, 0, []
1631430354.4401, 113, 0, 4161.538, 4129.231, 4073.846, 4131.795, 4151.795, 450, 0, []
1631430354.448, 114, 0, 4156.923, 4122.564, 4090.256, 4127.692, 4154.359, 450, 0, []
1631430354.4559, 115, 0, 4160, 4128.718, 4072.308, 4126.667, 4151.282, 16202, 0, []
1631430354.4637, 116, 0, 4167.692, 4138.974, 4099.487, 4131.795, 4149.744, 450, 0, []
1631430354.4716, 117, 0, 4163.077, 4135.897, 4085.128, 4129.744, 4146.154, 450, 0, []
1631430354.4796, 118, 0, 4162.564, 4150.769, 4082.051, 4133.846, 4151.282, 450, 0, []
1631430354.4874, 119, 0, 4174.872, 4176.41, 4113.333, 4146.154, 4163.077, 16202, 0, []
1631430354.4953, 120, 0, 4175.385, 4176.41, 4090.256, 4148.718, 4158.462, 450, 0, []
1631430354.503, 121, 0, 4163.59, 4162.051, 4100.513, 4143.077, 4145.128, 450, 0, []
1631430354.5109, 122, 0, 4160, 4159.487, 4088.718, 4136.41, 4145.641, 450, 0, []
1631430354.5187, 123, 0, 4165.128, 4165.128, 4083.077, 4137.949, 4153.333, 16202, 0, []
1631430354.5267, 124, 0, 4169.744, 4183.59, 4107.692, 4143.077, 4154.872, 450, 0, []
1631430354.5346, 125, 0, 4168.718, 4199.487, 4078.974, 4135.897, 4151.795, 450, 0, []
1631430354.5424, 126, 0, 4170.256, 4202.564, 4101.026, 4129.231, 4152.821, 450, 0, []
1631430354.5502, 127, 0, 4172.308, 4202.564, 4108.718, 4130.769, 4151.795, 16202, 0, []
1631430354.5582, 128, 0, 4169.744, 4194.359, 4083.077, 4136.41, 4154.359, 450, 0, []
1631430354.5661, 0, 0, 4172.308, 4189.231, 4094.359, 4144.103, 4164.615, 450, 0, []
1631430354.5741, 1, 0, 4180, 4199.487, 4073.846, 4140.513, 4163.59, 450, 0, []
1631430354.5819, 2, 0, 4182.051, 4215.385, 4092.821, 4141.538, 4155.385, 16203, 0, []
1631430354.5899, 3, 0, 4181.026, 4223.077, 4095.897, 4143.59, 4157.949, 450, 0, []
1631430354.5978, 4, 0, 4177.436, 4209.231, 4075.897, 4130.769, 4158.974, 16141, 0, []
1631430354.6058, 5, 0, 4173.846, 4203.077, 4103.077, 4125.641, 4154.872, 450, 0, []
1631430354.6137, 6, 0, 4177.949, 4223.077, 4081.026, 4138.462, 4156.923, 241, 0, []
1631430354.6214, 7, 0, 4182.051, 4236.41, 4088.205, 4142.564, 4158.462, 450, 0, []
1631430354.6293, 8, 0, 4181.026, 4232.821, 4098.462, 4130.256, 4153.846, 450, 0, []
1631430354.6371, 9, 0, 4184.103, 4238.462, 4084.615, 4130.256, 4156.923, 16162, 0, []
1631430354.645, 10, 0, 4188.205, 4249.744, 4109.744, 4147.692, 4161.538, 450, 0, []
1631430354.6528, 11, 0, 4183.077, 4248.205, 4082.051, 4150.256, 4156.923, 16212, 0, []
1631430354.6606, 12, 0, 4177.949, 4244.615, 4080, 4125.641, 4151.282, 450, 0, []
1631430354.6684, 13, 0, 4184.103, 4245.128, 4095.897, 4117.949, 4156.41, 450, 0, []
1631430354.6763, 14, 0, 4188.718, 4251.795, 4080, 4146.667, 4166.667, 450, 0, []
1631430354.6841, 15, 0, 4186.667, 4262.051, 4104.615, 4161.026, 4172.821, 16212, 0, []
1631430354.692, 16, 0, 4179.487, 4266.667, 4077.436, 4138.974, 4164.615, 0, 0, []
1631430354.6998, 17, 0, 4170.256, 4266.667, 4072.821, 4128.205, 4153.333, 0, 0, []
1631430354.7077, 18, 0, 4169.231, 4263.077, 4102.564, 4146.667, 4154.359, 0, 0, []
1631430354.7156, 19, 0, 4176.41, 4264.615, 4078.462, 4144.103, 4156.41, 0, 0, []
1631430354.7236, 20, 0, 4182.051, 4274.872, 4097.436, 4123.077, 4153.846, 0, 0, []
1631430354.7315, 21, 0, 4182.564, 4280, 4100.513, 4132.821, 4162.564, 0, 0, []
1631430354.7395, 22, 0, 4184.615, 4285.128, 4100.513, 4154.872, 4173.333, 0, 0, []
1631430354.7473, 23, 0, 4188.205, 4293.846, 4111.282, 4154.359, 4170.769, 0, 0, []
1631430354.7553, 24, 0, 4187.179, 4296.41, 4078.974, 4146.667, 4166.667, 0, 0, []
1631430354.7632, 25, 0, 4184.103, 4292.308, 4098.974, 4146.667, 4170.256, 0, 0, []
1631430354.7712, 26, 0, 4188.205, 4295.897, 4098.462, 4145.128, 4170.256, 0, 0, []
