Timestamp, COUNTER, INTERPOLATED, AF3, T7, Pz, T8, AF4, RAW_CQ, MARKER_HARDWARE, MARKERS
1630404402.1324, 46, 0, 4200.513, 3579.487, 4077.949, 4151.282, 4162.564, 0, 0, []
1630404402.1402, 47, 0, 4201.538, 3547.692, 4113.846, 4153.333, 4158.974, 0, 0, []
1630404402.148, 48, 0, 4206.667, 3552.821, 4070.256, 4150.769, 4168.205, 0, 0, []
1630404402.1559, 49, 0, 4199.487, 3659.487, 4107.692, 4140.513, 4161.538, 0, 0, []
1630404402.1637, 50, 0, 4206.667, 3712.821, 4076.41, 4151.795, 4167.692, 0, 0, []
1630404402.1717, 51, 0, 4210.256, 3767.179, 4099.487, 4161.026, 4177.436, 0, 0, []
1630404402.1795, 52, 0, 4199.487, 3993.333, 4121.026, 4157.436, 4171.282, 0, 0, []
1630404402.1875, 53, 0, 4192.821, 4148.205, 4061.026, 4164.103, 4166.667, 0, 0, []
1630404402.1954, 54, 0, 4174.359, 4071.282, 4102.564, 4152.821, 4151.282, 0, 0, []
1630404402.2034, 55, 0, 4163.59, 4018.974, 4069.231, 4135.897, 4134.872, 0, 0, []
1630404402.2113, 56, 0, 4164.615, 4049.231, 4072.308, 4133.333, 4125.641, 0, 0, []
1630404402.2192, 57, 0, 4168.205, 4001.026, 4103.59, 4136.923, 4131.795, 0, 0, []
1630404402.2271, 58, 0, 4178.974, 3921.026, 4047.692, 4140.513, 4143.59, 0, 0, []
1630404402.2351, 59, 0, 4179.487, 3977.436, 4096.923, 4134.872, 4140, 0, 0, []
1630404402.243, 60, 0, 4185.641, 4118.462, 4078.462, 4138.462, 4151.795, 0, 0, []
1630404402.251, 61, 0, 4197.949, 4109.744, 4079.487, 4145.128, 4166.667, 0, 0, []
1630404402.2588, 62, 0, 4211.795, 4018.462, 4125.641, 4144.103, 4169.231, 0, 0, []
1630404402.2668, 63, 0, 4220.513, 4033.846, 4065.641, 4144.103, 4172.821, 0, 0, []
1630404402.2747, 64, 0, 4203.077, 4004.103, 4097.436, 4140, 4160.513, 450, 0, []
1630404402.2825, 65, 0, 4207.692, 3994.359, 4076.923, 4154.872, 4164.103, 450, 0, []
1630404402.2904, 66, 0, 4221.026, 4165.641, 4062.564, 4166.154, 4182.564, 16188, 0, []
1630404402.2981, 67, 0, 4201.538, 4262.564, 4111.795, 4149.231, 4168.205, 450, 0, []
1630404402.3061, 68, 0, 4194.872, 4189.231, 4051.282, 4136.41, 4154.872, 16172, 0, []
1630404402.314, 69, 0, 4206.154, 4100, 4090.769, 4138.974, 4162.051, 450, 0, []
1630404402.3219, 70, 0, 4224.103, 4144.103, 4104.103, 4157.436, 4182.051, 210, 0, []
1630404402.3297, 71, 0, 4226.667, 4289.231, 4076.41, 4173.333, 4186.154, 450, 0, []
1630404402.3376, 72, 0, 4208.718, 4340.513, 4113.333, 4160, 4159.487, 450, 0, []
1630404402.3455, 73, 0, 4196.41, 4353.333, 4049.744, 4145.128, 4141.026, 16184, 0, []
1630404402.3535, 74, 0, 4180, 4420.513, 4074.359, 4138.462, 4125.641, 450, 0, []
1630404402.3614, 75, 0, 4180, 4381.538, 4091.282, 4137.949, 4133.333, 16240, 0, []
1630404402.3694, 76, 0, 4197.949, 4198.462, 4056.923, 4140.513, 4149.231, 450, 0, []
1630404402.3773, 77, 0, 4201.538, 4159.487, 4112.821, 4137.436, 4148.205, 450, 0, []
1630404402.3852, 78, 0, 4209.231, 4245.128, 4075.385, 4144.103, 4158.974, 450, 0, []
1630404402.3931, 79, 0, 4209.744, 4312.308, 4096.41, 4143.077, 4155.385, 16240, 0, []
1630404402.4011, 80, 0, 4206.154, 4486.154, 4115.385, 4149.744, 4146.154, 450, 0, []
1630404402.409, 81, 0, 4213.846, 4548.718, 4077.949, 4166.667, 4150.256, 450, 0, []
1630404402.417, 82, 0, 4210.769, 4364.615, 4133.846, 4162.051, 4152.308, 450, 0, []
1630404402.4248, 83, 0, 4217.436, 4280, 4081.026, 4171.282, 4165.128, 16240, 0, []
1630404402.4326, 84, 0, 4227.179, 4346.667, 4080, 4171.795, 4173.846, 450, 0, []
1630404402.4405, 85, 0, 4233.333, 4408.718, 4108.205, 4154.872, 4175.897, 450, 0, []
1630404402.4483, 86, 0, 4234.872, 4500, 4060, 4156.923, 4175.897, 450, 0, []
1630404402.4562, 87, 0, 4218.974, 4617.436, 4104.615, 4161.538, 4166.667, 16240, 0, []
1630404402.4641, 88, 0, 4220, 4671.795, 4071.795, 4160, 4172.308, 450, 0, []
1630404402.4721, 89, 0, 4217.436, 4683.077, 4075.385, 4145.128, 4171.795, 450, 0, []
1630404402.48, 90, 0, 4201.026, 4705.641, 4103.077, 4133.846, 4149.231, 450, 0, []
1630404402.488, 91, 0, 4201.026, 4685.128, 4046.667, 4140.513, 4142.051, 16240, 0, []
1630404402.4959, 92, 0, 4195.385, 4529.231, 4101.538, 4141.538, 4136.41, 450, 0, []
1630404402.5038, 93, 0, 4184.103, 4313.846, 4076.41, 4126.154, 4122.051, 450, 0, []
1630404402.5117, 94, 0, 4168.205, 4204.103, 4054.872, 4108.718, 4111.282, 450, 0, []
1630404402.5197, 95, 0, 4167.179, 4202.051, 4099.487, 4113.333, 4116.41, 16240, 0, []
1630404402.5276, 96, 0, 4182.564, 4182.051, 4053.333, 4129.231, 4129.744, 450, 0, []
1630404402.5356, 97, 0, 4181.538, 4187.692, 4088.205, 4127.692, 4120, 450, 0, []
1630404402.5434, 98, 0, 4189.231, 4238.974, 4070.769, 4130.256, 4128.718, 450, 0, []
1630404402.5514, 99, 0, 4199.487, 4188.718, 4064.103, 4141.538, 4143.59, 16240, 0, []
1630404402.5593, 100, 0, 4186.667, 4143.077, 4116.923, 4138.974, 4127.179, 450, 0, []
1630404402.5673, 101, 0, 4180.513, 4174.359, 4051.795, 4140, 4122.051, 450, 0, []
1630404402.5752, 102, 0, 4181.026, 4077.436, 4088.718, 4143.59, 4122.051, 450, 0, []
1630404402.5829, 103, 0, 4186.154, 3887.179, 4102.051, 4153.333, 4119.487, 16240, 0, []
1630404402.5908, 104, 0, 4182.564, 3816.41, 4079.487, 4160, 4113.846, 450, 0, []
1630404402.5986, 105, 0, 4167.179, 3881.538, 4124.615, 4147.179, 4105.128, 450, 0, []
1630404402.6065, 106, 0, 4164.615, 3896.41, 4071.795, 4143.077, 4112.821, 450, 0, []
1630404402.6143, 107, 0, 4156.41, 3791.282, 4089.231, 4136.41, 4108.718, 16240, 0, []
1630404402.6221, 108, 0, 4153.333, 3745.128, 4080.513, 4126.154, 4101.026, 450, 0, []
1630404402.6299, 109, 0, 4162.051, 3772.821, 4052.821, 4132.308, 4107.692, 450, 0, []
1630404402.6379, 110, 0, 4163.077, 3707.692, 4121.026, 4139.487, 4112.821, 450, 0, []
1630404402.6458, 111, 0, 4171.795, 3621.026, 4074.872, 4146.154, 4119.487, 16240, 0, []
1630404402.6538, 112, 0, 4178.462, 3628.718, 4093.846, 4148.205, 4120.513, 450, 0, []
1630404402.6616, 113, 0, 4191.795, 3655.385, 4110.256, 4162.564, 4133.333, 450, 0, []
1630404402.6696, 114, 0, 4201.538, 3685.641, 4071.795, 4170.769, 4143.077, 450, 0, []
1630404402.6775, 115, 0, 4188.718, 3795.897, 4127.692, 4154.359, 4120.513, 16240, 0, []
1630404402.6855, 116, 0, 4187.179, 3947.179, 4078.974, 4155.385, 4119.487, 450, 0, []
1630404402.6934, 117, 0, 4188.205, 3980.513, 4079.487, 4161.538, 4127.692, 450, 0, []
1630404402.7013, 118, 0, 4182.564, 3948.205, 4091.282, 4150.256, 4115.897, 450, 0, []
1630404402.7092, 119, 0, 4178.462, 3989.231, 4035.897, 4145.128, 4104.615, 16240, 0, []
1630404402.7172, 120, 0, 4173.333, 4087.692, 4092.308, 4147.692, 4100, 450, 0, []
1630404402.7251, 121, 0, 4184.103, 4288.205, 4064.103, 4163.59, 4115.385, 450, 0, []
1630404402.7329, 122, 0, 4195.897, 4512.308, 4075.385, 4173.333, 4125.641, 450, 0, []
1630404402.7408, 123, 0, 4204.103, 4584.103, 4102.564, 4172.308, 4136.923, 16240, 0, []
1630404402.7485, 124, 0, 4211.795, 4596.41, 4049.231, 4176.923, 4151.795, 450, 0, []
1630404402.7565, 125, 0, 4195.385, 4675.897, 4107.179, 4168.205, 4130.769, 450, 0, []
1630404402.7644, 126, 0, 4182.051, 4722.051, 4066.154, 4166.667, 4117.949, 450, 0, []
1630404402.7724, 127, 0, 4181.538, 4709.744, 4051.282, 4170.769, 4122.051, 16240, 0, []
1630404402.7804, 128, 0, 4185.641, 4755.385, 4084.615, 4166.667, 4131.282, 450, 0, []
1630404402.7882, 0, 0, 4203.077, 4803.59, 4036.41, 4174.359, 4146.154, 450, 0, []
1630404402.7962, 1, 0, 4207.179, 4772.308, 4104.103, 4182.051, 4143.077, 450, 0, []
1630404402.8041, 2, 0, 4208.205, 4777.436, 4081.026, 4193.333, 4147.692, 16228, 0, []
1630404402.8121, 3, 0, 4205.641, 4824.615, 4072.308, 4192.821, 4151.795, 450, 0, []
1630404402.82, 4, 0, 4197.436, 4786.667, 4117.949, 4176.41, 4145.128, 16142, 0, []
1630404402.8279, 5, 0, 4190.256, 4737.949, 4057.949, 4160.513, 4135.897, 450, 0, []
1630404402.8358, 6, 0, 4167.692, 4744.615, 4103.077, 4144.615, 4116.41, 255, 0, []
1630404402.8438, 7, 0, 4174.359, 4755.385, 4075.897, 4157.436, 4117.436, 450, 0, []
1630404402.8517, 8, 0, 4183.077, 4771.282, 4055.385, 4165.641, 4116.41, 450, 0, []
1630404402.8597, 9, 0, 4164.615, 4756.923, 4089.231, 4154.872, 4100.513, 16181, 0, []
1630404402.8675, 10, 0, 4163.59, 4620, 4030.256, 4156.41, 4108.718, 450, 0, []
1630404402.8755, 11, 0, 4162.564, 4445.128, 4089.744, 4153.846, 4122.051, 16262, 0, []
1630404402.8834, 12, 0, 4171.795, 4408.205, 4068.718, 4162.051, 4134.359, 450, 0, []
1630404402.8914, 13, 0, 4175.385, 4424.615, 4044.103, 4167.692, 4131.282, 450, 0, []
1630404402.8993, 14, 0, 4151.795, 4400, 4086.667, 4141.538, 4106.154, 450, 0, []
1630404402.9072, 15, 0, 4141.026, 4405.641, 4023.077, 4129.231, 4104.103, 16262, 0, []
1630404402.9151, 16, 0, 4134.872, 4415.385, 4083.59, 4131.282, 4100, 0, 0, []
1630404402.9231, 17, 0, 4138.462, 4399.487, 4076.923, 4128.205, 4095.897, 0, 0, []
1630404402.931, 18, 0, 4145.641, 4348.718, 4089.744, 4124.615, 4102.051, 0, 0, []
1630404402.939, 19, 0, 4131.795, 4306.667, 4175.897, 4121.026, 4091.795, 0, 0, []
1630404402.9469, 20, 0, 4124.103, 4300.513, 4105.128, 4123.59, 4083.077, 0, 0, []
1630404402.9548, 21, 0, 4131.282, 4258.462, 4170.256, 4128.718, 4089.231, 0, 0, []
1630404402.9628, 22, 0, 4154.359, 4259.487, 4160.513, 4146.667, 4120.513, 0, 0, []
1630404402.9707, 23, 0, 4151.795, 4283.59, 4096.923, 4149.744, 4123.077, 0, 0, []
1630404402.9787, 24, 0, 4129.231, 4205.128, 4153.333, 4132.308, 4089.231, 0, 0, []
1630404402.9865, 25, 0, 4127.179, 4070.256, 4078.462, 4130.769, 4083.59, 0, 0, []
1630404402.9945, 26, 0, 4114.359, 3987.179, 4102.051, 4119.487, 4075.897, 0, 0, []
1630404403.0024, 27, 0, 4126.154, 4006.667, 4120, 4122.564, 4084.103, 0, 0, []
1630404403.0104, 28, 0, 4151.282, 4016.41, 4088.718, 4139.487, 4098.462, 0, 0, []
1630404403.0183, 29, 0, 4134.872, 3961.538, 4136.41, 4124.615, 4076.923, 0, 0, []
1630404403.0263, 30, 0, 4135.897, 3944.103, 4088.718, 4124.103, 4080.513, 0, 0, []
1630404403.0341, 31, 0, 4154.359, 3975.897, 4120.513, 4143.077, 4102.564, 0, 0, []
1630404403.0421, 32, 0, 4156.923, 4005.641, 4118.974, 4147.692, 4109.231, 0, 0, []
1630404403.05, 33, 0, 4149.231, 4003.077, 4065.641, 4139.487, 4103.077, 0, 0, []
1630404403.058, 34, 0, 4140.513, 3968.718, 4114.359, 4125.641, 4096.923, 0, 0, []
1630404403.0659, 35, 0, 4149.744, 3920.513, 4070.256, 4120.513, 4111.795, 0, 0, []
1630404403.0738, 36, 0, 4156.41, 3917.949, 4073.846, 4113.846, 4119.487, 0, 0, []
1630404403.0817, 37, 0, 4161.026, 4011.282, 4095.385, 4111.795, 4121.538, 0, 0, []
1630404403.0897, 38, 0, 4174.359, 4107.179, 4066.667, 4125.128, 4137.949, 0, 0, []
1630404403.0976, 39, 0, 4185.128, 4137.949, 4114.359, 4143.077, 4148.718, 0, 0, []
1630404403.1056, 40, 0, 4201.026, 4171.282, 4089.231, 4162.051, 4161.026, 0, 0, []
1630404403.1135, 41, 0, 4202.564, 4151.795, 4089.744, 4167.692, 4167.692, 0, 0, []
1630404403.1214, 42, 0, 4195.897, 4031.795, 4118.462, 4162.051, 4162.051, 0, 0, []
1630404403.1294, 43, 0, 4196.923, 4005.641, 4089.744, 4170.769, 4159.487, 0, 0, []
1630404403.1373, 44, 0, 4196.923, 4135.897, 4124.103, 4177.949, 4160, 0, 0, []
1630404403.1453, 45, 0, 4197.949, 4165.128, 4105.641, 4176.923, 4165.128, 0, 0, []
1630404403.1531, 46, 0, 4190.769, 4064.615, 4092.821, 4165.128, 4155.897, 0, 0, []
1630404403.1611, 47, 0, 4183.59, 4118.462, 4096.923, 4151.795, 4145.128, 0, 0, []
1630404403.169, 48, 0, 4189.231, 4186.667, 4049.231, 4156.41, 4153.333, 0, 0, []
1630404403.177, 49, 0, 4194.359, 4052.821, 4088.718, 4158.974, 4159.487, 0, 0, []
1630404403.1849, 50, 0, 4207.179, 4075.385, 4086.154, 4163.077, 4168.718, 0, 0, []
1630404403.1928, 51, 0, 4211.795, 4255.897, 4068.718, 4166.154, 4170.769, 0, 0, []
1630404403.2007, 52, 0, 4205.128, 4166.667, 4095.385, 4162.564, 4164.103, 0, 0, []
1630404403.2087, 53, 0, 4212.821, 3974.872, 4065.128, 4168.205, 4165.128, 0, 0, []
1630404403.2166, 54, 0, 4213.846, 3993.333, 4094.872, 4172.308, 4165.128, 0, 0, []
1630404403.2246, 55, 0, 4206.154, 4036.41, 4092.821, 4171.282, 4164.615, 0, 0, []
1630404403.2324, 56, 0, 4196.923, 3970.256, 4060, 4166.154, 4160, 0, 0, []
1630404403.2404, 57, 0, 4185.641, 3931.795, 4072.308, 4155.897, 4145.128, 0, 0, []
1630404403.2483, 58, 0, 4190.769, 3902.051, 4043.59, 4148.205, 4145.641, 0, 0, []
1630404403.2563, 59, 0, 4208.718, 3869.231, 4071.795, 4149.744, 4161.026, 0, 0, []
1630404403.2643, 60, 0, 4222.051, 3874.872, 4077.436, 4154.872, 4170.769, 0, 0, []
1630404403.2721, 61, 0, 4217.949, 3883.59, 4057.436, 4147.692, 4162.564, 0, 0, []
1630404403.2801, 62, 0, 4204.103, 3942.564, 4085.641, 4135.385, 4153.333, 0, 0, []
1630404403.288, 63, 0, 4198.974, 4006.154, 4060, 4144.615, 4164.103, 0, 0, []
1630404403.296, 64, 0, 4194.359, 3994.359, 4084.103, 4148.718, 4158.974, 450, 0, []
1630404403.3039, 65, 0, 4194.359, 3972.308, 4095.897, 4144.615, 4149.744, 450, 0, []
1630404403.3119, 66, 0, 4198.974, 4008.718, 4062.564, 4151.795, 4154.872, 16236, 0, []
1630404403.3197, 67, 0, 4189.231, 4074.872, 4081.026, 4143.59, 4145.641, 450, 0, []
1630404403.3277, 68, 0, 4180.513, 4176.923, 4054.872, 4139.487, 4138.974, 16146, 0, []
1630404403.3356, 69, 0, 4176.41, 4283.59, 4069.744, 4146.154, 4144.103, 450, 0, []
1630404403.3436, 70, 0, 4172.308, 4352.821, 4090.256, 4135.897, 4143.077, 214, 0, []
1630404403.3515, 71, 0, 4168.205, 4406.667, 4065.128, 4121.026, 4136.923, 450, 0, []
1630404403.3594, 72, 0, 4159.487, 4322.564, 4088.205, 4110.769, 4129.744, 450, 0, []
1630404403.3673, 73, 0, 4168.718, 4170.256, 4072.308, 4116.41, 4138.974, 16194, 0, []
1630404403.3753, 74, 0, 4189.231, 4148.718, 4087.179, 4142.051, 4158.974, 450, 0, []
1630404403.3832, 75, 0, 4194.872, 4135.385, 4110.769, 4159.487, 4166.667, 16240, 0, []
1630404403.3912, 76, 0, 4186.154, 4048.205, 4077.949, 4152.821, 4162.051, 450, 0, []
1630404403.399, 77, 0, 4171.282, 4021.538, 4098.974, 4143.59, 4148.205, 450, 0, []
1630404403.407, 78, 0, 4165.641, 4038.974, 4088.718, 4151.795, 4147.692, 450, 0, []
1630404403.415, 79, 0, 4159.487, 3994.872, 4086.154, 4151.795, 4145.128, 16240, 0, []
1630404403.4229, 80, 0, 4155.897, 3984.615, 4108.718, 4145.128, 4128.718, 450, 0, []
1630404403.4309, 81, 0, 4173.333, 3981.538, 4080, 4153.846, 4137.436, 450, 0, []
1630404403.4387, 82, 0, 4192.308, 3884.615, 4107.692, 4162.051, 4168.718, 450, 0, []
1630404403.4467, 83, 0, 4205.128, 3815.897, 4107.179, 4171.795, 4188.718, 16240, 0, []
1630404403.4546, 84, 0, 4195.897, 3775.897, 4081.538, 4167.179, 4176.41, 450, 0, []
1630404403.4625, 85, 0, 4175.897, 3717.949, 4093.333, 4138.462, 4156.41, 450, 0, []
1630404403.4705, 86, 0, 4174.872, 3701.538, 4070.256, 4128.205, 4153.846, 450, 0, []
1630404403.4784, 87, 0, 4170.256, 3659.487, 4080, 4128.718, 4146.667, 16240, 0, []
1630404403.4863, 88, 0, 4164.103, 3648.205, 4067.179, 4125.641, 4139.487, 450, 0, []
1630404403.4943, 89, 0, 4163.077, 3819.487, 4057.949, 4121.538, 4133.846, 450, 0, []
1630404403.5022, 90, 0, 4164.615, 4006.154, 4103.077, 4117.949, 4129.744, 450, 0, []
1630404403.5102, 91, 0, 4170.769, 4016.41, 4083.59, 4123.077, 4141.538, 16240, 0, []
1630404403.518, 92, 0, 4176.41, 3979.487, 4087.179, 4131.795, 4152.308, 450, 0, []
1630404403.526, 93, 0, 4194.359, 4021.026, 4094.872, 4143.59, 4159.487, 450, 0, []
1630404403.5339, 94, 0, 4212.821, 4070.769, 4087.179, 4153.846, 4169.744, 450, 0, []
1630404403.5419, 95, 0, 4207.179, 4101.026, 4111.795, 4155.385, 4164.615, 16240, 0, []
1630404403.5499, 96, 0, 4194.359, 4091.282, 4086.667, 4157.949, 4155.385, 450, 0, []
1630404403.5578, 97, 0, 4190.769, 4014.872, 4103.077, 4162.051, 4153.333, 450, 0, []
1630404403.5657, 98, 0, 4197.949, 4007.692, 4122.564, 4168.718, 4159.487, 450, 0, []
1630404403.5736, 99, 0, 4201.026, 4114.359, 4097.949, 4175.385, 4165.641, 16240, 0, []
1630404403.5816, 100, 0, 4192.821, 4188.205, 4113.846, 4169.744, 4161.026, 450, 0, []
1630404403.5895, 101, 0, 4193.846, 4172.821, 4095.385, 4162.564, 4167.692, 450, 0, []
1630404403.5975, 102, 0, 4200, 4144.615, 4105.128, 4160, 4170.256, 450, 0, []
1630404403.6053, 103, 0, 4202.051, 4183.077, 4133.846, 4152.308, 4165.641, 16240, 0, []
1630404403.6133, 104, 0, 4200, 4214.359, 4109.744, 4149.744, 4162.051, 450, 0, []
1630404403.6212, 105, 0, 4192.308, 4199.487, 4120, 4148.718, 4149.744, 450, 0, []
1630404403.6292, 106, 0, 4197.436, 4185.128, 4110.256, 4156.41, 4166.667, 450, 0, []
1630404403.6371, 107, 0, 4229.231, 4174.872, 4110.769, 4172.308, 4211.795, 16240, 0, []
1630404403.645, 108, 0, 4277.436, 4261.026, 4127.179, 4176.923, 4266.154, 450, 0, []
1630404403.6529, 109, 0, 4314.359, 4397.436, 4115.385, 4178.974, 4327.692, 450, 0, []
1630404403.6609, 110, 0, 4340.513, 4350.256, 4151.795, 4200, 4376.923, 450, 0, []
1630404403.6688, 111, 0, 4373.333, 4192.308, 4140.513, 4235.385, 4408.718, 16240, 0, []
1630404403.6768, 112, 0, 4376.41, 4188.718, 4115.897, 4236.923, 4430.256, 450, 0, []
1630404403.6846, 113, 0, 4346.667, 4255.385, 4134.872, 4231.795, 4445.128, 450, 0, []
1630404403.6924, 114, 0, 4333.333, 4223.59, 4111.282, 4260.513, 4437.949, 450, 0, []
1630404403.7003, 115, 0, 4322.051, 4186.667, 4116.923, 4261.026, 4419.487, 16240, 0, []
1630404403.7081, 116, 0, 4300, 4203.077, 4109.231, 4254.359, 4422.564, 450, 0, []
1630404403.7161, 117, 0, 4281.026, 4212.308, 4101.026, 4275.897, 4410.769, 450, 0, []
1630404403.7239, 118, 0, 4265.128, 4183.59, 4122.564, 4282.564, 4381.026, 450, 0, []
1630404403.7319, 119, 0, 4254.872, 4124.103, 4097.436, 4276.41, 4380.513, 16240, 0, []
1630404403.7398, 120, 0, 4235.897, 4086.667, 4115.385, 4268.718, 4370.769, 450, 0, []
1630404403.7478, 121, 0, 4220, 4120.513, 4117.949, 4260.513, 4335.385, 450, 0, []
1630404403.7557, 122, 0, 4221.538, 4161.026, 4094.359, 4256.923, 4317.949, 450, 0, []
1630404403.7636, 123, 0, 4215.897, 4183.077, 4120, 4255.897, 4316.923, 16240, 0, []
1630404403.7715, 124, 0, 4193.846, 4230.256, 4101.026, 4243.59, 4301.538, 450, 0, []
1630404403.7795, 125, 0, 4174.359, 4225.128, 4097.949, 4221.026, 4276.923, 450, 0, []
1630404403.7874, 126, 0, 4182.564, 4160.513, 4099.487, 4226.154, 4277.949, 450, 0, []
1630404403.7954, 127, 0, 4194.872, 4159.487, 4092.821, 4238.974, 4291.795, 16240, 0, []
1630404403.8032, 128, 0, 4196.41, 4176.923, 4132.821, 4234.872, 4284.103, 450, 0, []
1630404403.8112, 0, 0, 4203.077, 4133.846, 4121.026, 4230.769, 4275.897, 450, 0, []
1630404403.8191, 1, 0, 4192.821, 4120.513, 4121.026, 4229.744, 4270.256, 450, 0, []
1630404403.8269, 2, 0, 4164.615, 4158.974, 4124.103, 4224.103, 4250.769, 16226, 0, []
1630404403.8348, 3, 0, 4145.641, 4148.205, 4100, 4211.795, 4228.718, 450, 0, []
1630404403.8426, 4, 0, 4146.154, 4132.308, 4126.667, 4203.59, 4222.051, 16166, 0, []
1630404403.8504, 5, 0, 4162.564, 4220.513, 4113.846, 4218.462, 4242.051, 450, 0, []
1630404403.8582, 6, 0, 4167.692, 4295.385, 4112.821, 4228.205, 4252.308, 209, 0, []
1630404403.8662, 7, 0, 4149.231, 4276.41, 4113.846, 4207.692, 4227.692, 450, 0, []
1630404403.8741, 8, 0, 4133.846, 4265.641, 4082.564, 4193.846, 4208.718, 450, 0, []
1630404403.8821, 9, 0, 4140, 4245.641, 4107.692, 4196.923, 4213.333, 16187, 0, []
1630404403.8899, 10, 0, 4155.385, 4184.615, 4096.41, 4196.41, 4222.564, 450, 0, []
1630404403.8979, 11, 0, 4158.974, 4170.769, 4097.436, 4193.333, 4225.128, 16227, 0, []
1630404403.9058, 12, 0, 4172.308, 4206.667, 4122.564, 4205.641, 4238.462, 450, 0, []
1630404403.9138, 13, 0, 4193.846, 4216.923, 4102.564, 4219.487, 4252.821, 450, 0, []
1630404403.9217, 14, 0, 4181.026, 4244.103, 4118.974, 4202.051, 4231.795, 450, 0, []
1630404403.9296, 15, 0, 4161.026, 4316.923, 4102.051, 4185.128, 4210.256, 16227, 0, []
1630404403.9375, 16, 0, 4163.077, 4295.897, 4094.359, 4193.333, 4209.744, 0, 0, []
1630404403.9455, 17, 0, 4161.026, 4183.59, 4117.949, 4198.462, 4208.718, 0, 0, []
1630404403.9534, 18, 0, 4149.744, 4135.897, 4083.59, 4187.692, 4197.949, 0, 0, []
1630404403.9614, 19, 0, 4145.641, 4168.205, 4090.769, 4177.949, 4185.641, 0, 0, []
1630404403.9692, 20, 0, 4153.846, 4207.692, 4090.769, 4185.128, 4192.308, 0, 0, []
1630404403.977, 21, 0, 4146.667, 4212.821, 4076.41, 4177.436, 4191.795, 0, 0, []
1630404403.9849, 22, 0, 4131.795, 4193.333, 4087.692, 4154.872, 4173.333, 0, 0, []
1630404403.9927, 23, 0, 4129.744, 4126.154, 4065.641, 4152.308, 4170.256, 0, 0, []
1630404404.0006, 24, 0, 4136.41, 4036.41, 4092.821, 4158.974, 4173.333, 0, 0, []
1630404404.0083, 25, 0, 4146.154, 4010.256, 4098.974, 4161.026, 4174.872, 0, 0, []
1630404404.0163, 26, 0, 4149.231, 4017.949, 4084.615, 4164.615, 4173.333, 0, 0, []
1630404404.0242, 27, 0, 4146.154, 4024.615, 4111.795, 4167.692, 4174.359, 0, 0, []
1630404404.0322, 28, 0, 4160.513, 4062.051, 4088.718, 4173.333, 4188.718, 0, 0, []
1630404404.0401, 29, 0, 4171.795, 4113.333, 4101.538, 4174.359, 4193.846, 0, 0, []
1630404404.048, 30, 0, 4156.41, 4126.667, 4109.231, 4175.385, 4178.974, 0, 0, []
1630404404.0559, 31, 0, 4147.179, 4095.897, 4088.718, 4179.487, 4166.667, 0, 0, []
1630404404.0639, 32, 0, 4169.231, 4067.692, 4117.949, 4182.564, 4175.385, 0, 0, []
1630404404.0718, 33, 0, 4187.692, 4079.487, 4092.821, 4187.692, 4190.256, 0, 0, []
1630404404.0798, 34, 0, 4169.744, 4111.795, 4082.051, 4181.538, 4176.41, 0, 0, []
1630404404.0877, 35, 0, 4156.41, 4129.744, 4095.897, 4171.795, 4161.026, 0, 0, []
1630404404.0956, 36, 0, 4174.872, 4133.333, 4090.256, 4185.641, 4178.974, 0, 0, []
1630404404.1035, 37, 0, 4189.744, 4137.436, 4108.205, 4198.974, 4190.769, 0, 0, []
1630404404.1115, 38, 0, 4191.795, 4114.872, 4077.949, 4195.897, 4185.641, 0, 0, []
1630404404.1194, 39, 0, 4181.026, 4115.385, 4075.897, 4178.462, 4174.872, 0, 0, []
1630404404.1273, 40, 0, 4175.385, 4155.385, 4092.308, 4170.256, 4171.795, 0, 0, []
1630404404.1351, 41, 0, 4184.615, 4116.41, 4074.872, 4182.564, 4176.41, 0, 0, []
1630404404.1429, 42, 0, 4179.487, 4111.795, 4094.359, 4176.923, 4168.718, 0, 0, []
1630404404.1508, 43, 0, 4166.154, 4222.051, 4068.205, 4159.487, 4156.41, 0, 0, []
1630404404.1586, 44, 0, 4164.103, 4240, 4070.769, 4158.974, 4150.769, 0, 0, []
1630404404.1665, 45, 0, 4181.026, 4162.051, 4108.205, 4169.231, 4163.59, 0, 0, []
1630404404.1742, 46, 0, 4191.795, 4154.359, 4086.667, 4166.154, 4178.974, 0, 0, []
1630404404.1821, 47, 0, 4170.769, 4140, 4100.513, 4149.744, 4161.538, 0, 0, []
1630404404.1899, 48, 0, 4141.538, 4061.538, 4087.692, 4148.718, 4136.923, 0, 0, []
1630404404.1979, 49, 0, 4130.256, 4058.974, 4075.897, 4153.333, 4129.231, 0, 0, []
1630404404.2058, 50, 0, 4139.487, 4104.615, 4101.026, 4153.846, 4135.897, 0, 0, []
1630404404.2137, 51, 0, 4156.923, 4066.154, 4083.59, 4156.923, 4149.231, 0, 0, []
1630404404.2216, 52, 0, 4161.026, 4049.744, 4095.897, 4155.385, 4153.333, 0, 0, []
1630404404.2296, 53, 0, 4156.41, 4213.333, 4083.59, 4149.744, 4146.667, 0, 0, []
1630404404.2375, 54, 0, 4142.564, 4418.974, 4073.333, 4134.359, 4127.179, 0, 0, []
1630404404.2455, 55, 0, 4127.179, 4450.256, 4097.436, 4121.026, 4112.308, 0, 0, []
1630404404.2533, 56, 0, 4136.923, 4343.077, 4075.385, 4132.821, 4127.692, 0, 0, []
1630404404.2613, 57, 0, 4158.462, 4237.436, 4094.359, 4146.667, 4148.718, 0, 0, []
1630404404.2692, 58, 0, 4157.436, 4204.615, 4094.872, 4149.744, 4155.385, 0, 0, []
1630404404.2772, 59, 0, 4162.564, 4165.128, 4077.949, 4156.923, 4164.615, 0, 0, []
1630404404.2851, 60, 0, 4215.897, 4040, 4108.205, 4159.487, 4199.487, 0, 0, []
1630404404.2928, 61, 0, 4276.923, 3997.949, 4089.744, 4165.128, 4248.718, 0, 0, []
1630404404.3007, 62, 0, 4290.769, 4102.564, 4083.077, 4158.974, 4256.923, 0, 0, []
1630404404.3085, 63, 0, 4308.205, 4146.154, 4065.128, 4126.154, 4255.897, 0, 0, []
1630404404.3164, 64, 0, 4356.923, 4156.41, 4053.333, 4116.923, 4300, 450, 0, []
1630404404.3242, 65, 0, 4380, 4245.641, 4092.821, 4133.846, 4323.077, 450, 0, []
1630404404.3321, 66, 0, 4374.872, 4245.128, 4064.615, 4114.359, 4298.462, 16224, 0, []
1630404404.3398, 67, 0, 4360.513, 4170.769, 4062.051, 4076.923, 4278.974, 450, 0, []
1630404404.3478, 68, 0, 4348.718, 4217.949, 4070.769, 4080.513, 4266.667, 16186, 0, []
1630404404.3557, 69, 0, 4342.051, 4249.231, 4041.538, 4084.103, 4234.359, 450, 0, []
1630404404.3637, 70, 0, 4320, 4190.256, 4065.641, 4067.179, 4205.128, 237, 0, []
1630404404.3716, 71, 0, 4297.949, 4221.538, 4060, 4083.077, 4194.359, 450, 0, []
1630404404.3795, 72, 0, 4286.667, 4254.872, 4058.462, 4092.308, 4180, 450, 0, []
1630404404.3874, 73, 0, 4283.59, 4181.026, 4074.359, 4076.923, 4168.205, 16165, 0, []
1630404404.3954, 74, 0, 4276.923, 4153.333, 4072.821, 4086.667, 4160.513, 450, 0, []
1630404404.4033, 75, 0, 4259.487, 4146.154, 4101.538, 4100.513, 4140, 16242, 0, []
1630404404.4113, 76, 0, 4244.615, 4067.692, 4071.282, 4093.333, 4123.077, 450, 0, []
1630404404.4191, 77, 0, 4229.231, 4108.205, 4057.436, 4078.974, 4111.795, 450, 0, []
1630404404.4271, 78, 0, 4225.128, 4272.821, 4081.026, 4076.41, 4109.231, 450, 0, []
1630404404.435, 79, 0, 4230.769, 4268.205, 4054.872, 4081.026, 4114.872, 16242, 0, []
1630404404.4428, 80, 0, 4223.077, 4154.872, 4069.231, 4072.821, 4098.974, 450, 0, []
1630404404.4507, 81, 0, 4207.179, 4125.641, 4067.179, 4065.128, 4083.077, 450, 0, []
1630404404.4586, 82, 0, 4192.821, 4122.564, 4063.59, 4070.769, 4077.949, 450, 0, []
1630404404.4665, 83, 0, 4196.41, 4138.974, 4090.769, 4082.564, 4086.667, 16242, 0, []
1630404404.4743, 84, 0, 4216.41, 4176.923, 4074.872, 4104.103, 4106.667, 450, 0, []
1630404404.4822, 85, 0, 4207.692, 4160, 4080.513, 4109.231, 4088.718, 450, 0, []
1630404404.49, 86, 0, 4188.205, 4136.923, 4063.077, 4104.103, 4065.641, 450, 0, []
1630404404.4979, 87, 0, 4204.615, 4142.564, 4067.179, 4118.974, 4081.026, 16242, 0, []
1630404404.5058, 88, 0, 4217.949, 4127.179, 4110.256, 4132.308, 4099.487, 450, 0, []
1630404404.5138, 89, 0, 4205.641, 4170.256, 4077.949, 4126.667, 4094.872, 450, 0, []
1630404404.5217, 90, 0, 4198.462, 4243.077, 4076.41, 4118.462, 4086.667, 450, 0, []
1630404404.5297, 91, 0, 4205.128, 4225.641, 4080, 4116.923, 4088.205, 16242, 0, []
1630404404.5375, 92, 0, 4200.513, 4201.538, 4073.333, 4111.795, 4087.692, 450, 0, []
1630404404.5455, 93, 0, 4184.103, 4213.333, 4092.308, 4101.538, 4077.436, 450, 0, []
1630404404.5534, 94, 0, 4186.667, 4191.795, 4067.692, 4102.564, 4075.385, 450, 0, []
1630404404.5614, 95, 0, 4204.615, 4134.872, 4092.821, 4113.846, 4087.179, 16242, 0, []
1630404404.5693, 96, 0, 4209.744, 4121.026, 4100.513, 4124.103, 4095.897, 450, 0, []
1630404404.5773, 97, 0, 4198.462, 4147.692, 4071.795, 4129.231, 4087.692, 450, 0, []
1630404404.5851, 98, 0, 4192.821, 4172.308, 4101.538, 4128.205, 4072.821, 450, 0, []
1630404404.5929, 99, 0, 4196.41, 4195.385, 4089.231, 4130.769, 4072.821, 16242, 0, []
1630404404.6009, 100, 0, 4187.692, 4184.103, 4084.615, 4131.795, 4067.179, 450, 0, []
1630404404.6088, 101, 0, 4177.949, 4124.615, 4085.641, 4125.128, 4052.308, 450, 0, []
1630404404.6167, 102, 0, 4171.282, 4076.41, 4061.026, 4119.487, 4045.128, 450, 0, []
1630404404.6244, 103, 0, 4168.205, 4098.974, 4085.128, 4113.846, 4045.128, 16242, 0, []
1630404404.6323, 104, 0, 4171.795, 4157.949, 4072.821, 4114.872, 4053.333, 450, 0, []
1630404404.6401, 105, 0, 4166.667, 4123.077, 4072.308, 4114.872, 4049.231, 450, 0, []
1630404404.648, 106, 0, 4165.128, 4060, 4094.359, 4116.41, 4047.692, 450, 0, []
1630404404.6558, 107, 0, 4183.077, 4152.821, 4083.077, 4137.436, 4070.769, 16242, 0, []
1630404404.6637, 108, 0, 4192.308, 4262.051, 4105.641, 4148.718, 4082.051, 450, 0, []
1630404404.6716, 109, 0, 4194.359, 4217.436, 4089.744, 4148.205, 4083.59, 450, 0, []
1630404404.6796, 110, 0, 4201.538, 4203.077, 4076.923, 4149.744, 4091.795, 450, 0, []
1630404404.6875, 111, 0, 4201.026, 4294.359, 4089.744, 4145.128, 4090.769, 16242, 0, []
1630404404.6955, 112, 0, 4198.462, 4310.256, 4063.59, 4143.59, 4082.051, 450, 0, []
1630404404.7033, 113, 0, 4196.41, 4200, 4081.026, 4143.077, 4083.59, 450, 0, []
1630404404.7113, 114, 0, 4196.923, 4151.795, 4077.436, 4140.513, 4082.564, 450, 0, []
1630404404.7192, 115, 0, 4201.026, 4285.641, 4075.897, 4142.051, 4074.359, 16242, 0, []
1630404404.7272, 116, 0, 4212.821, 4394.872, 4113.846, 4153.333, 4092.821, 450, 0, []
1630404404.7351, 117, 0, 4232.821, 4331.282, 4081.026, 4164.615, 4126.154, 450, 0, []
1630404404.7428, 118, 0, 4234.359, 4269.231, 4074.872, 4162.051, 4132.821, 450, 0, []
1630404404.7507, 119, 0, 4227.179, 4300.513, 4076.923, 4164.103, 4135.385, 16242, 0, []
1630404404.7585, 120, 0, 4221.538, 4291.282, 4050.769, 4159.487, 4138.462, 450, 0, []
1630404404.7664, 121, 0, 4205.128, 4224.103, 4069.744, 4135.897, 4113.846, 450, 0, []
1630404404.7742, 122, 0, 4197.949, 4200, 4054.359, 4125.128, 4095.897, 450, 0, []
1630404404.782, 123, 0, 4198.462, 4212.821, 4058.462, 4129.231, 4095.897, 16242, 0, []
1630404404.7898, 124, 0, 4197.436, 4221.026, 4084.103, 4135.385, 4094.359, 450, 0, []
1630404404.7977, 125, 0, 4202.051, 4183.59, 4079.487, 4138.462, 4096.41, 450, 0, []
1630404404.8055, 126, 0, 4201.538, 4158.974, 4102.051, 4129.744, 4092.308, 450, 0, []
1630404404.8135, 127, 0, 4192.308, 4196.41, 4076.41, 4130.769, 4087.179, 16242, 0, []
1630404404.8214, 128, 0, 4185.641, 4201.026, 4072.308, 4141.538, 4080.513, 450, 0, []
1630404404.8292, 0, 0, 4185.641, 4177.949, 4097.436, 4140, 4080, 450, 0, []
1630404404.8372, 1, 0, 4190.256, 4188.718, 4060.513, 4136.41, 4089.744, 450, 0, []
1630404404.8451, 2, 0, 4190.769, 4187.692, 4087.692, 4140.513, 4091.795, 16238, 0, []
1630404404.8531, 3, 0, 4194.359, 4167.179, 4097.949, 4151.795, 4094.359, 450, 0, []
1630404404.861, 4, 0, 4194.872, 4171.282, 4069.744, 4151.282, 4095.385, 16178, 0, []
1630404404.8689, 5, 0, 4189.231, 4183.59, 4076.41, 4139.487, 4088.718, 450, 0, []
1630404404.8768, 6, 0, 4197.436, 4175.897, 4056.41, 4143.077, 4093.846, 225, 0, []
1630404404.8848, 7, 0, 4208.718, 4167.179, 4079.487, 4154.359, 4106.154, 450, 0, []
1630404404.8927, 8, 0, 4211.282, 4178.462, 4074.359, 4159.487, 4113.846, 450, 0, []
1630404404.9007, 9, 0, 4203.077, 4178.974, 4061.026, 4153.333, 4107.179, 16177, 0, []
1630404404.9085, 10, 0, 4200, 4142.051, 4095.385, 4148.718, 4103.59, 450, 0, []
1630404404.9165, 11, 0, 4214.359, 4104.103, 4076.41, 4158.974, 4125.128, 16253, 0, []
1630404404.9244, 12, 0, 4217.949, 4099.487, 4095.385, 4164.103, 4132.308, 450, 0, []
1630404404.9324, 13, 0, 4208.718, 4138.974, 4095.897, 4159.487, 4120, 450, 0, []
1630404404.9403, 14, 0, 4197.949, 4164.615, 4069.744, 4154.359, 4115.385, 450, 0, []
1630404404.9482, 15, 0, 4194.359, 4133.333, 4093.846, 4156.41, 4114.872, 16253, 0, []
1630404404.9561, 16, 0, 4203.077, 4127.179, 4073.333, 4169.744, 4113.846, 0, 0, []
1630404404.9641, 17, 0, 4197.949, 4189.231, 4096.41, 4170.256, 4110.256, 0, 0, []
1630404404.9721, 18, 0, 4193.846, 4237.949, 4101.026, 4167.692, 4118.462, 0, 0, []
1630404404.98, 19, 0, 4201.538, 4220, 4070.256, 4165.641, 4127.692, 0, 0, []
1630404404.9879, 20, 0, 4204.103, 4249.744, 4094.872, 4152.308, 4121.026, 0, 0, []
1630404404.9958, 21, 0, 4208.718, 4344.615, 4069.744, 4153.333, 4125.128, 0, 0, []
1630404405.0038, 22, 0, 4210.769, 4342.564, 4091.282, 4165.641, 4129.744, 0, 0, []
1630404405.0117, 23, 0, 4206.667, 4292.821, 4109.231, 4168.205, 4121.538, 0, 0, []
1630404405.0197, 24, 0, 4202.051, 4296.41, 4080, 4165.641, 4121.538, 0, 0, []
1630404405.0275, 25, 0, 4194.359, 4263.077, 4098.462, 4159.487, 4117.949, 0, 0, []
1630404405.0355, 26, 0, 4185.641, 4210.256, 4068.718, 4154.872, 4105.128, 0, 0, []
1630404405.0434, 27, 0, 4176.923, 4180, 4082.564, 4149.744, 4093.846, 0, 0, []
1630404405.0514, 28, 0, 4172.821, 4088.205, 4088.205, 4140.513, 4097.949, 0, 0, []
1630404405.0593, 29, 0, 4170.256, 4020, 4042.051, 4134.872, 4098.462, 0, 0, []
1630404405.0673, 30, 0, 4165.128, 4015.897, 4080, 4128.718, 4087.692, 0, 0, []
1630404405.0751, 31, 0, 4169.744, 3994.359, 4071.795, 4129.744, 4094.872, 0, 0, []
1630404405.0831, 32, 0, 4172.821, 4064.103, 4075.385, 4130.769, 4103.077, 0, 0, []
1630404405.091, 33, 0, 4175.385, 4263.077, 4097.949, 4135.897, 4105.641, 0, 0, []
1630404405.099, 34, 0, 4182.051, 4364.615, 4069.744, 4143.59, 4113.846, 0, 0, []
1630404405.1069, 35, 0, 4180, 4333.333, 4088.205, 4126.667, 4103.59, 0, 0, []
1630404405.1148, 36, 0, 4194.872, 4351.795, 4061.026, 4108.718, 4104.615, 0, 0, []
1630404405.1228, 37, 0, 4222.051, 4398.462, 4071.795, 4121.026, 4130.769, 0, 0, []
1630404405.1307, 38, 0, 4235.897, 4433.846, 4104.103, 4146.154, 4145.128, 0, 0, []
1630404405.1387, 39, 0, 4234.359, 4471.795, 4066.154, 4153.846, 4144.615, 0, 0, []
1630404405.1466, 40, 0, 4216.41, 4456.923, 4091.795, 4135.385, 4130.256, 0, 0, []
1630404405.1545, 41, 0, 4209.231, 4422.564, 4071.282, 4125.128, 4123.59, 0, 0, []
1630404405.1624, 42, 0, 4206.667, 4425.128, 4063.59, 4126.154, 4116.41, 0, 0, []
1630404405.1704, 43, 0, 4189.744, 4455.897, 4099.487, 4117.436, 4095.897, 0, 0, []
1630404405.1783, 44, 0, 4183.077, 4466.154, 4062.564, 4117.949, 4088.718, 0, 0, []
1630404405.1863, 45, 0, 4186.154, 4449.231, 4085.128, 4122.564, 4084.615, 0, 0, []
1630404405.1941, 46, 0, 4192.821, 4460.513, 4084.103, 4127.179, 4093.846, 0, 0, []
1630404405.2021, 47, 0, 4207.179, 4489.231, 4077.949, 4133.333, 4102.564, 0, 0, []
1630404405.21, 48, 0, 4214.872, 4462.564, 4108.718, 4127.179, 4104.615, 0, 0, []
1630404405.218, 49, 0, 4220, 4399.487, 4078.462, 4133.846, 4116.41, 0, 0, []
1630404405.2259, 50, 0, 4230.769, 4388.718, 4113.846, 4151.795, 4124.615, 0, 0, []
1630404405.2338, 51, 0, 4245.641, 4414.872, 4110.256, 4168.718, 4141.026, 0, 0, []
1630404405.2417, 52, 0, 4244.103, 4387.179, 4075.897, 4168.718, 4149.231, 0, 0, []
1630404405.2497, 53, 0, 4230.769, 4362.564, 4110.256, 4153.846, 4140.513, 0, 0, []
1630404405.2576, 54, 0, 4236.923, 4392.821, 4081.538, 4156.41, 4140.513, 0, 0, []
1630404405.2656, 55, 0, 4237.949, 4380.513, 4096.923, 4154.872, 4140.513, 0, 0, []
1630404405.2735, 56, 0, 4228.205, 4355.385, 4102.051, 4158.462, 4144.615, 0, 0, []
1630404405.2814, 57, 0, 4228.205, 4386.667, 4075.897, 4179.487, 4148.718, 0, 0, []
1630404405.2894, 58, 0, 4235.385, 4412.821, 4107.179, 4184.103, 4155.897, 0, 0, []
1630404405.2973, 59, 0, 4254.359, 4400.513, 4076.41, 4173.846, 4178.462, 0, 0, []
1630404405.3053, 60, 0, 4260.513, 4386.154, 4103.59, 4161.026, 4188.205, 0, 0, []
1630404405.3132, 61, 0, 4256.41, 4381.026, 4126.154, 4162.564, 4177.949, 0, 0, []
1630404405.3211, 62, 0, 4254.872, 4385.641, 4089.231, 4176.41, 4167.179, 0, 0, []
1630404405.329, 63, 0, 4245.128, 4378.462, 4125.128, 4179.487, 4162.564, 0, 0, []
1630404405.337, 64, 0, 4246.667, 4326.667, 4100, 4182.564, 4170.256, 450, 0, []
1630404405.3449, 65, 0, 4260, 4284.615, 4100, 4181.026, 4175.897, 450, 0, []
1630404405.3529, 66, 0, 4265.128, 4289.744, 4108.718, 4173.333, 4181.026, 16220, 0, []
1630404405.3607, 67, 0, 4258.462, 4276.41, 4061.538, 4159.487, 4191.282, 450, 0, []
1630404405.3687, 68, 0, 4268.718, 4236.923, 4101.026, 4135.385, 4207.179, 16171, 0, []
1630404405.3766, 69, 0, 4318.462, 4246.667, 4101.026, 4137.949, 4256.41, 450, 0, []
1630404405.3846, 70, 0, 4343.59, 4254.359, 4098.462, 4155.897, 4287.692, 212, 0, []
1630404405.3925, 71, 0, 4340, 4214.359, 4100, 4153.846, 4274.872, 450, 0, []
1630404405.4004, 72, 0, 4356.923, 4196.923, 4063.59, 4152.821, 4295.897, 450, 0, []
1630404405.4083, 73, 0, 4374.872, 4198.974, 4112.821, 4172.308, 4339.487, 16185, 0, []
1630404405.4163, 74, 0, 4402.564, 4212.821, 4090.769, 4195.385, 4354.872, 450, 0, []
1630404405.4243, 75, 0, 4432.308, 4228.205, 4074.872, 4187.179, 4360.513, 16195, 0, []
1630404405.4322, 76, 0, 4424.103, 4227.179, 4115.385, 4164.615, 4372.308, 450, 0, []
1630404405.4401, 77, 0, 4417.436, 4212.308, 4077.949, 4162.051, 4381.538, 450, 0, []
1630404405.448, 78, 0, 4441.538, 4185.641, 4104.615, 4165.641, 4383.59, 450, 0, []
1630404405.4559, 79, 0, 4460, 4208.205, 4104.615, 4173.846, 4391.795, 16195, 0, []
1630404405.4639, 80, 0, 4443.077, 4233.846, 4099.487, 4172.308, 4393.846, 450, 0, []
1630404405.4719, 81, 0, 4433.333, 4201.026, 4144.103, 4166.667, 4401.538, 450, 0, []
1630404405.4797, 82, 0, 4465.128, 4211.282, 4110.256, 4189.744, 4431.795, 450, 0, []
1630404405.4877, 83, 0, 4482.051, 4273.333, 4128.205, 4212.821, 4437.436, 16195, 0, []
1630404405.4956, 84, 0, 4480, 4269.231, 4123.077, 4210.769, 4430.256, 450, 0, []
1630404405.5036, 85, 0, 4479.487, 4230.769, 4100.513, 4191.795, 4433.846, 450, 0, []
1630404405.5115, 86, 0, 4462.051, 4245.128, 4132.308, 4171.795, 4428.718, 450, 0, []
1630404405.5194, 87, 0, 4450.256, 4260, 4088.718, 4176.923, 4431.282, 16195, 0, []
1630404405.5273, 88, 0, 4464.615, 4273.333, 4124.615, 4196.923, 4438.462, 450, 0, []
1630404405.5353, 89, 0, 4483.077, 4360.513, 4149.744, 4206.154, 4432.821, 450, 0, []
1630404405.5432, 90, 0, 4466.667, 4395.385, 4104.103, 4194.872, 4407.692, 450, 0, []
1630404405.5512, 91, 0, 4448.205, 4327.692, 4127.692, 4183.077, 4398.974, 16195, 0, []
1630404405.5591, 92, 0, 4460.513, 4311.795, 4107.179, 4193.333, 4427.179, 450, 0, []
1630404405.567, 93, 0, 4457.436, 4318.462, 4122.564, 4202.051, 4437.436, 450, 0, []
1630404405.575, 94, 0, 4452.821, 4295.385, 4127.179, 4202.564, 4425.641, 450, 0, []
1630404405.5829, 95, 0, 4469.231, 4292.308, 4096.923, 4202.564, 4417.949, 16195, 0, []
1630404405.5909, 96, 0, 4463.077, 4284.615, 4132.821, 4193.333, 4408.205, 450, 0, []
1630404405.5988, 97, 0, 4433.846, 4251.282, 4104.615, 4192.821, 4416.41, 450, 0, []
1630404405.6067, 98, 0, 4424.615, 4221.026, 4126.154, 4202.564, 4431.795, 450, 0, []
1630404405.6146, 99, 0, 4443.077, 4219.487, 4137.949, 4210.769, 4432.821, 16195, 0, []
1630404405.6226, 100, 0, 4449.231, 4225.641, 4084.615, 4205.128, 4422.051, 450, 0, []
1630404405.6305, 101, 0, 4435.897, 4220, 4130.256, 4189.744, 4416.923, 450, 0, []
1630404405.6385, 102, 0, 4439.487, 4236.923, 4118.974, 4205.641, 4437.436, 450, 0, []
1630404405.6463, 103, 0, 4440.513, 4260, 4118.462, 4230.256, 4442.051, 16195, 0, []
1630404405.6543, 104, 0, 4433.333, 4238.462, 4135.385, 4229.744, 4422.051, 450, 0, []
1630404405.6622, 105, 0, 4434.359, 4205.641, 4085.128, 4219.487, 4413.333, 450, 0, []
1630404405.6702, 106, 0, 4430.769, 4208.718, 4123.077, 4205.128, 4418.974, 450, 0, []
1630404405.6781, 107, 0, 4431.282, 4217.949, 4116.41, 4209.231, 4435.897, 16195, 0, []
1630404405.686, 108, 0, 4425.128, 4204.103, 4104.103, 4228.718, 4429.231, 450, 0, []
1630404405.6939, 109, 0, 4414.872, 4210.256, 4127.179, 4234.872, 4396.923, 450, 0, []
1630404405.7019, 110, 0, 4411.795, 4233.333, 4094.359, 4223.077, 4387.692, 450, 0, []
1630404405.7098, 111, 0, 4381.538, 4212.308, 4129.231, 4209.231, 4385.128, 16195, 0, []
1630404405.7176, 112, 0, 4363.59, 4184.615, 4112.308, 4224.103, 4381.026, 450, 0, []
1630404405.7254, 113, 0, 4376.923, 4193.846, 4099.487, 4246.667, 4369.744, 450, 0, []
1630404405.7332, 114, 0, 4375.897, 4205.641, 4138.462, 4243.59, 4361.538, 450, 0, []
1630404405.7411, 115, 0, 4356.923, 4192.821, 4104.103, 4244.103, 4371.282, 16195, 0, []
1630404405.7489, 116, 0, 4337.949, 4186.154, 4129.231, 4254.359, 4353.846, 450, 0, []
1630404405.7569, 117, 0, 4324.615, 4184.615, 4109.231, 4241.026, 4321.026, 450, 0, []
1630404405.7647, 118, 0, 4291.795, 4158.462, 4080.513, 4207.179, 4294.359, 450, 0, []
1630404405.7727, 119, 0, 4256.923, 4144.615, 4111.795, 4198.462, 4261.538, 16195, 0, []
1630404405.7806, 120, 0, 4255.385, 4142.051, 4081.026, 4213.333, 4251.795, 450, 0, []
1630404405.7886, 121, 0, 4253.333, 4126.154, 4123.077, 4212.308, 4258.462, 450, 0, []
1630404405.7965, 122, 0, 4238.462, 4154.872, 4122.564, 4209.231, 4247.179, 450, 0, []
1630404405.8045, 123, 0, 4222.564, 4195.385, 4088.718, 4207.692, 4219.487, 16195, 0, []
1630404405.8123, 124, 0, 4216.41, 4162.051, 4116.923, 4198.462, 4207.179, 450, 0, []
1630404405.8203, 125, 0, 4218.462, 4144.103, 4082.564, 4199.487, 4211.795, 450, 0, []
1630404405.8282, 126, 0, 4210.256, 4191.282, 4115.385, 4204.615, 4201.538, 450, 0, []
1630404405.8362, 127, 0, 4201.026, 4211.282, 4123.077, 4209.744, 4191.282, 16195, 0, []
1630404405.8441, 128, 0, 4192.308, 4174.872, 4097.949, 4216.923, 4184.103, 450, 0, []
1630404405.852, 0, 0, 4166.154, 4147.692, 4132.308, 4207.179, 4163.59, 450, 0, []
1630404405.8599, 1, 0, 4131.282, 4153.846, 4078.974, 4187.692, 4134.359, 450, 0, []
1630404405.8677, 2, 0, 4105.128, 4154.872, 4088.718, 4167.692, 4101.538, 16225, 0, []
1630404405.8756, 3, 0, 4110.769, 4172.821, 4110.256, 4173.846, 4107.692, 450, 0, []
1630404405.8834, 4, 0, 4130.769, 4187.692, 4092.308, 4200, 4135.897, 16163, 0, []
1630404405.8912, 5, 0, 4120.513, 4177.436, 4133.846, 4188.205, 4122.051, 450, 0, []
1630404405.899, 6, 0, 4100.513, 4199.487, 4091.282, 4160.513, 4095.897, 220, 0, []
1630404405.907, 7, 0, 4086.154, 4217.949, 4087.179, 4143.59, 4074.872, 450, 0, []
1630404405.9149, 8, 0, 4085.128, 4196.41, 4105.128, 4141.026, 4072.308, 450, 0, []
1630404405.9229, 9, 0, 4102.564, 4195.897, 4089.231, 4161.538, 4090.256, 16179, 0, []
1630404405.9307, 10, 0, 4095.385, 4241.026, 4134.872, 4169.231, 4081.538, 450, 0, []
1630404405.9387, 11, 0, 4075.385, 4276.41, 4090.769, 4160, 4055.385, 16238, 0, []
1630404405.9466, 12, 0, 4059.487, 4278.974, 4074.359, 4150.769, 4035.385, 450, 0, []
1630404405.9546, 13, 0, 4044.103, 4274.359, 4094.359, 4142.051, 4025.128, 450, 0, []
1630404405.9625, 14, 0, 4032.821, 4274.872, 4052.821, 4138.462, 4018.462, 450, 0, []
1630404405.9704, 15, 0, 4024.615, 4288.718, 4092.308, 4132.308, 4008.205, 16238, 0, []
1630404405.9783, 16, 0, 4031.282, 4303.077, 4091.282, 4130.256, 4011.795, 0, 0, []
1630404405.9863, 17, 0, 4032.308, 4297.436, 4087.692, 4124.615, 4020, 0, 0, []
1630404405.9942, 18, 0, 4032.308, 4293.846, 4111.795, 4118.974, 4020, 0, 0, []
1630404406.0022, 19, 0, 4033.333, 4304.103, 4075.385, 4127.692, 4020.513, 0, 0, []
1630404406.01, 20, 0, 4014.872, 4316.923, 4102.051, 4122.564, 4009.231, 0, 0, []
1630404406.018, 21, 0, 4014.872, 4315.385, 4097.949, 4118.974, 4004.103, 0, 0, []
1630404406.0259, 22, 0, 4023.077, 4254.359, 4094.872, 4121.026, 4009.231, 0, 0, []
1630404406.0337, 23, 0, 4010.769, 4190.769, 4123.59, 4112.308, 4003.59, 0, 0, []
1630404406.0416, 24, 0, 3998.462, 4214.872, 4080.513, 4114.872, 3993.333, 0, 0, []
1630404406.0494, 25, 0, 3981.026, 4219.487, 4098.462, 4104.615, 3969.744, 0, 0, []
1630404406.0573, 26, 0, 3980, 4178.462, 4097.436, 4087.692, 3967.179, 0, 0, []
1630404406.0652, 27, 0, 4015.897, 4193.846, 4093.846, 4111.282, 4008.718, 0, 0, []
1630404406.0732, 28, 0, 4040, 4228.718, 4141.026, 4150.256, 4043.59, 0, 0, []
1630404406.0811, 29, 0, 4025.641, 4211.282, 4089.744, 4150.769, 4041.538, 0, 0, []
1630404406.0891, 30, 0, 4016.923, 4183.077, 4093.846, 4124.615, 4027.179, 0, 0, []
1630404406.0969, 31, 0, 4043.077, 4202.051, 4114.872, 4128.718, 4041.538, 0, 0, []
1630404406.1049, 32, 0, 4050.769, 4220.513, 4090.256, 4140.513, 4050.256, 0, 0, []
1630404406.1128, 33, 0, 4034.872, 4215.385, 4116.923, 4125.641, 4034.872, 0, 0, []
1630404406.1208, 34, 0, 4038.462, 4226.667, 4103.59, 4132.308, 4039.487, 0, 0, []
1630404406.1287, 35, 0, 4036.41, 4217.949, 4112.821, 4146.667, 4035.385, 0, 0, []
1630404406.1366, 36, 0, 4017.436, 4180, 4096.923, 4132.308, 4011.795, 0, 0, []
1630404406.1445, 37, 0, 4010.256, 4169.744, 4077.436, 4112.821, 4008.205, 0, 0, []
1630404406.1525, 38, 0, 4019.487, 4209.231, 4131.795, 4116.41, 4022.051, 0, 0, []
1630404406.1604, 39, 0, 4020.513, 4220, 4092.821, 4129.231, 4030.769, 0, 0, []
1630404406.1682, 40, 0, 3995.897, 4165.128, 4086.667, 4114.359, 4010.769, 0, 0, []
1630404406.176, 41, 0, 3988.718, 4148.718, 4112.821, 4102.564, 4004.615, 0, 0, []
1630404406.1838, 42, 0, 4005.641, 4175.385, 4098.974, 4108.718, 4029.744, 0, 0, []
1630404406.1917, 43, 0, 3995.385, 4169.744, 4128.205, 4097.949, 4031.795, 0, 0, []
1630404406.1995, 44, 0, 3981.026, 4189.231, 4093.846, 4085.128, 4017.436, 0, 0, []
1630404406.2074, 45, 0, 4002.051, 4231.282, 4100, 4094.359, 4024.103, 0, 0, []
1630404406.2151, 46, 0, 4042.051, 4217.949, 4125.641, 4118.462, 4064.615, 0, 0, []
1630404406.2231, 47, 0, 4068.205, 4181.026, 4106.154, 4133.846, 4093.846, 0, 0, []
1630404406.231, 48, 0, 4074.359, 4175.385, 4141.538, 4126.667, 4086.154, 0, 0, []
1630404406.239, 49, 0, 4073.846, 4187.692, 4109.231, 4113.333, 4080.513, 0, 0, []
1630404406.2469, 50, 0, 4066.154, 4179.487, 4108.718, 4108.205, 4078.462, 0, 0, []
1630404406.2548, 51, 0, 4063.59, 4160.513, 4142.051, 4112.821, 4080, 0, 0, []
1630404406.2627, 52, 0, 4072.821, 4164.103, 4108.205, 4125.128, 4089.744, 0, 0, []
1630404406.2707, 53, 0, 4072.821, 4182.051, 4141.538, 4137.949, 4096.41, 0, 0, []
1630404406.2786, 54, 0, 4090.769, 4204.103, 4137.436, 4155.385, 4121.538, 0, 0, []
1630404406.2866, 55, 0, 4118.974, 4225.641, 4133.846, 4170.256, 4153.333, 0, 0, []
1630404406.2945, 56, 0, 4120.513, 4242.564, 4155.897, 4181.538, 4158.974, 0, 0, []
1630404406.3022, 57, 0, 4104.103, 4251.795, 4117.436, 4192.821, 4152.821, 0, 0, []
1630404406.3101, 58, 0, 4095.385, 4261.538, 4143.59, 4184.103, 4152.821, 0, 0, []
1630404406.3179, 59, 0, 4110.256, 4267.179, 4140, 4183.077, 4164.103, 0, 0, []
1630404406.3258, 60, 0, 4115.385, 4246.667, 4126.154, 4196.41, 4168.718, 0, 0, []
1630404406.3336, 61, 0, 4104.103, 4226.667, 4155.385, 4190.256, 4162.051, 0, 0, []
1630404406.3414, 62, 0, 4102.564, 4221.026, 4109.744, 4177.949, 4154.872, 0, 0, []
1630404406.3492, 63, 0, 4094.359, 4213.333, 4115.897, 4176.41, 4142.051, 0, 0, []
1630404406.3571, 64, 0, 4084.615, 4222.564, 4125.128, 4179.487, 4138.974, 450, 0, []
1630404406.3649, 65, 0, 4085.128, 4238.462, 4104.615, 4176.41, 4143.59, 450, 0, []
1630404406.3729, 66, 0, 4087.179, 4227.692, 4125.128, 4175.897, 4133.846, 16221, 0, []
1630404406.3807, 67, 0, 4084.103, 4214.359, 4099.487, 4190.256, 4131.282, 450, 0, []
1630404406.3887, 68, 0, 4080, 4220.513, 4114.872, 4188.205, 4134.359, 16178, 0, []
1630404406.3966, 69, 0, 4086.154, 4231.282, 4125.641, 4176.41, 4135.897, 450, 0, []
1630404406.4046, 70, 0, 4092.821, 4226.667, 4103.59, 4181.026, 4137.436, 217, 0, []
1630404406.4125, 71, 0, 4092.308, 4221.538, 4140, 4188.205, 4137.949, 450, 0, []
1630404406.4204, 72, 0, 4104.103, 4206.667, 4120.513, 4193.846, 4148.205, 450, 0, []
1630404406.4283, 73, 0, 4107.692, 4179.487, 4121.538, 4195.897, 4148.718, 16178, 0, []
1630404406.4363, 74, 0, 4101.026, 4198.974, 4146.667, 4192.821, 4142.051, 450, 0, []
1630404406.4442, 75, 0, 4103.077, 4213.333, 4116.923, 4188.718, 4141.538, 16234, 0, []
1630404406.4522, 76, 0, 4101.538, 4180, 4134.359, 4173.846, 4134.359, 450, 0, []
1630404406.46, 77, 0, 4108.205, 4189.744, 4132.308, 4170.769, 4139.487, 450, 0, []
1630404406.4679, 78, 0, 4123.077, 4230.256, 4130.769, 4180, 4149.744, 450, 0, []
1630404406.4758, 79, 0, 4126.667, 4242.564, 4130.769, 4186.667, 4150.769, 16234, 0, []
1630404406.4836, 80, 0, 4128.718, 4258.462, 4100, 4190.256, 4153.846, 450, 0, []
1630404406.4916, 81, 0, 4130.256, 4270.256, 4129.231, 4185.128, 4157.949, 450, 0, []
1630404406.4994, 82, 0, 4127.692, 4255.897, 4112.821, 4175.385, 4157.436, 450, 0, []
1630404406.5073, 83, 0, 4131.282, 4246.667, 4104.615, 4174.359, 4169.231, 16234, 0, []
1630404406.5151, 84, 0, 4155.385, 4272.308, 4136.923, 4185.641, 4199.487, 450, 0, []
1630404406.5231, 85, 0, 4183.077, 4303.077, 4110.769, 4194.359, 4236.41, 450, 0, []
1630404406.531, 86, 0, 4210.256, 4282.564, 4125.641, 4187.179, 4262.564, 450, 0, []
1630404406.539, 87, 0, 4248.205, 4257.436, 4116.41, 4176.41, 4285.128, 16234, 0, []
1630404406.5468, 88, 0, 4262.564, 4274.359, 4098.974, 4172.821, 4297.949, 450, 0, []
1630404406.5548, 89, 0, 4256.41, 4270.769, 4112.308, 4168.718, 4289.231, 450, 0, []
1630404406.5627, 90, 0, 4267.692, 4253.846, 4090.769, 4163.077, 4296.923, 450, 0, []
1630404406.5707, 91, 0, 4277.949, 4266.154, 4121.538, 4164.615, 4315.897, 16234, 0, []
1630404406.5786, 92, 0, 4277.436, 4282.051, 4118.462, 4179.487, 4311.282, 450, 0, []
1630404406.5865, 93, 0, 4275.385, 4283.077, 4107.692, 4190.256, 4302.051, 450, 0, []
1630404406.5944, 94, 0, 4277.436, 4285.128, 4143.077, 4192.308, 4312.821, 450, 0, []
1630404406.6023, 95, 0, 4284.615, 4303.077, 4117.436, 4209.744, 4312.821, 16234, 0, []
1630404406.6102, 96, 0, 4264.615, 4318.462, 4125.641, 4209.744, 4278.974, 450, 0, []
1630404406.618, 97, 0, 4229.231, 4304.103, 4112.821, 4189.744, 4257.949, 450, 0, []
1630404406.6258, 98, 0, 4215.385, 4272.308, 4088.718, 4182.051, 4247.692, 450, 0, []
1630404406.6336, 99, 0, 4211.795, 4262.564, 4126.154, 4180.513, 4228.718, 16234, 0, []
1630404406.6415, 100, 0, 4209.231, 4293.846, 4116.923, 4189.231, 4231.282, 450, 0, []
1630404406.6493, 101, 0, 4197.949, 4323.077, 4128.205, 4193.333, 4230.256, 450, 0, []
1630404406.6573, 102, 0, 4184.103, 4326.154, 4108.205, 4189.231, 4214.872, 450, 0, []
1630404406.6651, 103, 0, 4179.487, 4321.538, 4079.487, 4181.538, 4208.718, 16234, 0, []
1630404406.6731, 104, 0, 4182.564, 4331.795, 4125.641, 4168.718, 4204.103, 450, 0, []
1630404406.681, 105, 0, 4192.821, 4331.282, 4103.59, 4175.385, 4215.897, 450, 0, []
1630404406.689, 106, 0, 4194.359, 4286.154, 4103.077, 4184.103, 4218.462, 450, 0, []
1630404406.6969, 107, 0, 4182.051, 4254.359, 4119.487, 4164.103, 4197.436, 16234, 0, []
1630404406.7048, 108, 0, 4172.821, 4270.256, 4091.795, 4153.333, 4183.077, 450, 0, []
1630404406.7127, 109, 0, 4165.128, 4273.333, 4113.333, 4161.026, 4176.923, 450, 0, []
1630404406.7207, 110, 0, 4152.821, 4240, 4097.436, 4163.59, 4169.744, 450, 0, []
1630404406.7286, 111, 0, 4144.103, 4227.692, 4090.769, 4161.538, 4157.949, 16234, 0, []
1630404406.7366, 112, 0, 4143.077, 4250.769, 4105.128, 4168.718, 4156.923, 450, 0, []
1630404406.7445, 113, 0, 4129.231, 4257.949, 4078.974, 4166.667, 4153.846, 450, 0, []
1630404406.7524, 114, 0, 4113.846, 4246.154, 4098.974, 4142.564, 4142.051, 450, 0, []
1630404406.7603, 115, 0, 4132.308, 4245.641, 4095.897, 4144.615, 4156.41, 16234, 0, []
1630404406.7681, 116, 0, 4140.513, 4240.513, 4093.333, 4162.051, 4160.513, 450, 0, []
1630404406.776, 117, 0, 4127.692, 4238.462, 4112.308, 4160, 4148.205, 450, 0, []
1630404406.7838, 118, 0, 4144.615, 4241.538, 4098.974, 4163.59, 4163.59, 450, 0, []
1630404406.7916, 119, 0, 4156.923, 4224.103, 4120.513, 4166.154, 4173.333, 16234, 0, []
1630404406.7994, 120, 0, 4145.128, 4226.667, 4101.026, 4160, 4156.923, 450, 0, []
1630404406.8073, 121, 0, 4143.077, 4226.667, 4091.795, 4156.41, 4145.641, 450, 0, []
1630404406.8151, 122, 0, 4147.692, 4207.179, 4125.641, 4160.513, 4151.282, 450, 0, []
1630404406.823, 123, 0, 4129.231, 4214.872, 4094.359, 4157.949, 4141.538, 16234, 0, []
1630404406.8307, 124, 0, 4106.154, 4211.795, 4099.487, 4142.564, 4109.744, 450, 0, []
1630404406.8387, 125, 0, 4118.974, 4194.359, 4104.615, 4141.538, 4114.872, 450, 0, []
1630404406.8466, 126, 0, 4139.487, 4197.949, 4099.487, 4152.308, 4146.154, 450, 0, []
1630404406.8546, 127, 0, 4135.897, 4203.59, 4122.051, 4145.641, 4145.128, 16234, 0, []
1630404406.8625, 128, 0, 4131.282, 4202.564, 4090.256, 4137.949, 4127.692, 450, 0, []
1630404406.8704, 0, 0, 4128.718, 4203.59, 4101.026, 4140, 4126.154, 450, 0, []
1630404406.8783, 1, 0, 4131.282, 4193.333, 4115.385, 4152.821, 4134.872, 450, 0, []
1630404406.8863, 2, 0, 4137.436, 4191.282, 4103.077, 4159.487, 4136.41, 16255, 0, []
1630404406.8942, 3, 0, 4132.821, 4222.051, 4116.41, 4150.769, 4130.769, 450, 0, []
1630404406.9022, 4, 0, 4119.487, 4226.154, 4082.051, 4141.026, 4125.128, 16121, 0, []
1630404406.91, 5, 0, 4108.718, 4180, 4092.308, 4127.692, 4113.846, 450, 0, []
1630404406.9178, 6, 0, 4119.487, 4186.154, 4114.359, 4126.154, 4117.949, 201, 0, []
1630404406.9257, 7, 0, 4137.436, 4237.436, 4100, 4147.692, 4136.923, 450, 0, []
1630404406.9335, 8, 0, 4127.179, 4214.359, 4113.846, 4151.795, 4130.769, 450, 0, []
1630404406.9414, 9, 0, 4114.872, 4158.462, 4083.59, 4141.026, 4116.41, 16197, 0, []
1630404406.9491, 10, 0, 4130.769, 4179.487, 4099.487, 4150.769, 4130.256, 450, 0, []
1630404406.957, 11, 0, 4157.949, 4227.692, 4124.615, 4170.769, 4155.385, 16261, 0, []
1630404406.9648, 12, 0, 4157.949, 4226.154, 4087.692, 4163.077, 4156.923, 450, 0, []
1630404406.9727, 13, 0, 4147.692, 4222.051, 4115.385, 4156.41, 4153.846, 450, 0, []
1630404406.9805, 14, 0, 4163.077, 4248.205, 4119.487, 4179.487, 4169.744, 450, 0, []
1630404406.9884, 15, 0, 4170.769, 4240, 4100.513, 4185.641, 4174.359, 16261, 0, []
1630404406.9961, 16, 0, 4162.051, 4214.872, 4087.179, 4168.205, 4168.718, 0, 0, []
1630404407.0041, 17, 0, 4167.179, 4232.308, 4068.718, 4167.692, 4181.538, 0, 0, []
1630404407.012, 18, 0, 4177.436, 4255.897, 4107.179, 4173.333, 4191.282, 0, 0, []
1630404407.02, 19, 0, 4185.641, 4244.615, 4097.949, 4177.436, 4197.949, 0, 0, []
1630404407.0279, 20, 0, 4192.308, 4210.769, 4091.282, 4181.538, 4196.923, 0, 0, []
1630404407.0358, 21, 0, 4191.795, 4206.667, 4113.333, 4171.795, 4189.231, 0, 0, []
1630404407.0437, 22, 0, 4199.487, 4237.949, 4094.359, 4174.359, 4208.205, 0, 0, []
1630404407.0517, 23, 0, 4220, 4253.846, 4120, 4189.744, 4226.154, 0, 0, []
1630404407.0596, 24, 0, 4232.821, 4236.41, 4107.179, 4184.103, 4227.179, 0, 0, []
1630404407.0676, 25, 0, 4244.615, 4218.974, 4089.231, 4170.769, 4243.077, 0, 0, []
1630404407.0754, 26, 0, 4279.487, 4228.718, 4122.051, 4173.846, 4280, 0, 0, []
1630404407.0832, 27, 0, 4307.692, 4222.051, 4103.59, 4180.513, 4312.821, 0, 0, []
1630404407.0911, 28, 0, 4310.256, 4196.923, 4109.231, 4178.974, 4321.538, 0, 0, []
1630404407.0989, 29, 0, 4317.949, 4206.667, 4103.59, 4177.436, 4323.077, 0, 0, []
1630404407.1068, 30, 0, 4317.436, 4222.564, 4093.846, 4176.41, 4326.154, 0, 0, []
1630404407.1145, 31, 0, 4298.462, 4222.564, 4113.333, 4174.359, 4317.436, 0, 0, []
1630404407.1224, 32, 0, 4300, 4238.974, 4090.769, 4176.41, 4300.513, 0, 0, []
1630404407.1302, 33, 0, 4304.615, 4240, 4120, 4182.051, 4303.59, 0, 0, []
1630404407.1381, 34, 0, 4294.872, 4219.487, 4129.744, 4200, 4314.359, 0, 0, []
1630404407.1459, 35, 0, 4285.128, 4223.077, 4104.103, 4208.205, 4296.41, 0, 0, []
1630404407.1538, 36, 0, 4271.282, 4230.769, 4131.282, 4201.026, 4270.256, 0, 0, []
1630404407.1617, 37, 0, 4262.051, 4232.308, 4111.282, 4211.282, 4259.487, 0, 0, []
1630404407.1697, 38, 0, 4256.923, 4249.231, 4110.256, 4214.359, 4252.308, 0, 0, []
1630404407.1776, 39, 0, 4261.538, 4270.769, 4125.641, 4207.692, 4261.026, 0, 0, []
1630404407.1856, 40, 0, 4263.59, 4250.769, 4120, 4211.795, 4270.256, 0, 0, []
1630404407.1934, 41, 0, 4237.949, 4219.487, 4144.615, 4206.667, 4237.949, 0, 0, []
1630404407.2014, 42, 0, 4210.256, 4234.359, 4116.41, 4202.564, 4202.051, 0, 0, []
1630404407.2093, 43, 0, 4201.026, 4234.359, 4114.872, 4202.564, 4193.846, 0, 0, []
1630404407.2172, 44, 0, 4209.744, 4214.872, 4135.897, 4205.641, 4205.641, 0, 0, []
1630404407.2251, 45, 0, 4211.282, 4222.051, 4108.718, 4201.538, 4209.231, 0, 0, []
1630404407.2329, 46, 0, 4185.128, 4209.231, 4105.128, 4167.692, 4175.385, 0, 0, []
1630404407.2407, 47, 0, 4174.872, 4181.538, 4087.179, 4160.513, 4166.154, 0, 0, []
1630404407.2485, 48, 0, 4187.692, 4178.974, 4103.077, 4187.692, 4178.462, 0, 0, []
1630404407.2564, 49, 0, 4176.923, 4170.769, 4112.821, 4179.487, 4153.846, 0, 0, []
1630404407.2642, 50, 0, 4163.077, 4162.051, 4081.538, 4166.154, 4134.359, 0, 0, []
1630404407.2721, 51, 0, 4169.744, 4178.974, 4119.487, 4186.154, 4142.051, 0, 0, []
1630404407.2798, 52, 0, 4169.744, 4199.487, 4113.846, 4203.077, 4145.641, 0, 0, []
1630404407.2877, 53, 0, 4167.179, 4201.026, 4095.897, 4198.462, 4137.949, 0, 0, []
1630404407.2955, 54, 0, 4177.949, 4196.41, 4114.872, 4192.308, 4145.641, 0, 0, []
1630404407.3035, 55, 0, 4181.538, 4212.821, 4092.821, 4192.821, 4156.923, 0, 0, []
1630404407.3114, 56, 0, 4171.795, 4228.205, 4109.231, 4198.462, 4146.667, 0, 0, []
1630404407.3193, 57, 0, 4171.282, 4198.462, 4104.615, 4204.103, 4140, 0, 0, []
1630404407.3272, 58, 0, 4174.872, 4167.692, 4096.923, 4191.795, 4142.564, 0, 0, []
1630404407.3352, 59, 0, 4174.359, 4181.538, 4116.923, 4175.897, 4140, 0, 0, []
1630404407.3431, 60, 0, 4173.846, 4160, 4085.641, 4176.923, 4136.923, 0, 0, []
1630404407.3511, 61, 0, 4172.821, 4103.59, 4104.615, 4184.103, 4138.974, 0, 0, []
1630404407.3589, 62, 0, 4183.59, 4127.179, 4117.949, 4196.41, 4146.667, 0, 0, []
1630404407.3669, 63, 0, 4179.487, 4162.051, 4100, 4199.487, 4141.026, 0, 0, []
1630404407.3748, 64, 0, 4155.385, 4134.359, 4111.795, 4189.744, 4124.615, 450, 0, []
1630404407.3828, 65, 0, 4153.333, 4126.667, 4089.231, 4191.795, 4127.692, 450, 0, []
1630404407.3907, 66, 0, 4159.487, 4154.359, 4100.513, 4188.718, 4127.692, 16243, 0, []
1630404407.3984, 67, 0, 4164.103, 4185.128, 4103.077, 4188.205, 4126.667, 450, 0, []
1630404407.4063, 68, 0, 4169.744, 4196.923, 4087.692, 4202.564, 4136.923, 16144, 0, []
1630404407.4141, 69, 0, 4156.41, 4177.949, 4106.154, 4191.282, 4132.821, 450, 0, []
1630404407.422, 70, 0, 4148.205, 4175.385, 4080, 4170.769, 4120.513, 203, 0, []
1630404407.4298, 71, 0, 4160, 4173.846, 4098.974, 4169.231, 4122.564, 450, 0, []
1630404407.4378, 72, 0, 4173.333, 4154.872, 4117.436, 4177.436, 4137.949, 450, 0, []
1630404407.4456, 73, 0, 4168.718, 4160, 4100, 4180.513, 4136.923, 16197, 0, []
1630404407.4535, 74, 0, 4160, 4188.718, 4126.667, 4171.795, 4118.462, 450, 0, []
1630404407.4613, 75, 0, 4176.41, 4184.615, 4107.692, 4173.846, 4130.769, 16243, 0, []
1630404407.4693, 76, 0, 4189.231, 4170.769, 4103.077, 4181.026, 4145.641, 450, 0, []
1630404407.4772, 77, 0, 4173.333, 4205.641, 4103.077, 4176.923, 4129.744, 450, 0, []
1630404407.4851, 78, 0, 4166.667, 4220.513, 4079.487, 4182.564, 4126.667, 450, 0, []
1630404407.493, 79, 0, 4178.974, 4194.359, 4114.359, 4197.436, 4137.949, 16243, 0, []
1630404407.501, 80, 0, 4180, 4180, 4106.154, 4198.462, 4128.718, 450, 0, []
1630404407.5089, 81, 0, 4169.231, 4187.179, 4105.128, 4183.077, 4115.385, 450, 0, []
1630404407.5169, 82, 0, 4173.846, 4212.821, 4125.641, 4185.128, 4130.256, 450, 0, []
1630404407.5247, 83, 0, 4183.077, 4239.487, 4096.923, 4195.385, 4137.949, 16243, 0, []
1630404407.5327, 84, 0, 4175.897, 4244.615, 4107.692, 4181.026, 4117.949, 450, 0, []
1630404407.5406, 85, 0, 4177.436, 4225.128, 4102.564, 4177.436, 4124.103, 450, 0, []
1630404407.5484, 86, 0, 4183.59, 4205.641, 4097.949, 4184.103, 4144.103, 450, 0, []
1630404407.5563, 87, 0, 4187.179, 4217.436, 4113.333, 4177.949, 4143.59, 16243, 0, []
1630404407.564, 88, 0, 4194.872, 4244.615, 4089.744, 4175.897, 4148.205, 450, 0, []
1630404407.5719, 89, 0, 4195.897, 4225.128, 4110.256, 4178.974, 4156.41, 450, 0, []
1630404407.5797, 90, 0, 4202.564, 4213.846, 4106.667, 4186.667, 4160.513, 450, 0, []
1630404407.5876, 91, 0, 4206.667, 4241.538, 4104.103, 4193.333, 4157.436, 16243, 0, []
1630404407.5954, 92, 0, 4197.949, 4232.308, 4125.128, 4189.744, 4148.718, 450, 0, []
1630404407.6033, 93, 0, 4187.179, 4197.949, 4083.077, 4179.487, 4142.051, 450, 0, []
1630404407.6112, 94, 0, 4177.949, 4194.872, 4095.897, 4171.795, 4129.231, 450, 0, []
1630404407.6192, 95, 0, 4177.436, 4206.667, 4106.667, 4177.436, 4128.205, 16243, 0, []
1630404407.6271, 96, 0, 4175.897, 4207.692, 4082.564, 4176.41, 4133.846, 450, 0, []
1630404407.6351, 97, 0, 4167.179, 4203.077, 4093.846, 4163.59, 4128.718, 450, 0, []
1630404407.6429, 98, 0, 4166.154, 4203.077, 4073.333, 4161.538, 4122.564, 450, 0, []
1630404407.6509, 99, 0, 4161.026, 4222.564, 4088.718, 4163.077, 4112.308, 16243, 0, []
1630404407.6588, 100, 0, 4158.462, 4228.718, 4098.974, 4168.205, 4114.872, 450, 0, []
1630404407.6668, 101, 0, 4166.667, 4193.846, 4089.744, 4184.103, 4127.692, 450, 0, []
1630404407.6747, 102, 0, 4159.487, 4163.077, 4114.359, 4181.026, 4121.026, 450, 0, []
1630404407.6825, 103, 0, 4147.692, 4152.308, 4092.821, 4165.128, 4108.718, 16243, 0, []
1630404407.6903, 104, 0, 4149.231, 4144.103, 4100, 4158.462, 4104.103, 450, 0, []
1630404407.6981, 105, 0, 4151.795, 4186.154, 4104.103, 4160, 4102.564, 450, 0, []
1630404407.706, 106, 0, 4158.462, 4249.231, 4084.103, 4170.256, 4111.282, 450, 0, []
1630404407.7138, 107, 0, 4174.872, 4222.564, 4117.436, 4179.487, 4129.744, 16243, 0, []
1630404407.7217, 108, 0, 4189.744, 4172.821, 4103.077, 4183.077, 4145.128, 450, 0, []
1630404407.7294, 109, 0, 4182.051, 4172.308, 4101.026, 4177.949, 4142.564, 450, 0, []
1630404407.7373, 110, 0, 4175.897, 4167.179, 4110.256, 4172.308, 4134.872, 450, 0, []
1630404407.7451, 111, 0, 4183.59, 4138.974, 4083.59, 4170.769, 4135.385, 16243, 0, []
1630404407.753, 112, 0, 4182.051, 4120.513, 4103.077, 4161.538, 4128.718, 450, 0, []
1630404407.7608, 113, 0, 4183.077, 4146.154, 4098.462, 4163.59, 4133.846, 450, 0, []
1630404407.7686, 114, 0, 4189.231, 4183.077, 4106.154, 4179.487, 4144.615, 450, 0, []
1630404407.7764, 115, 0, 4181.026, 4182.564, 4115.897, 4176.923, 4137.436, 16243, 0, []
1630404407.7844, 116, 0, 4169.231, 4158.462, 4082.051, 4159.487, 4121.026, 450, 0, []
1630404407.7923, 117, 0, 4161.026, 4142.564, 4103.077, 4150.256, 4107.692, 450, 0, []
1630404407.8003, 118, 0, 4161.538, 4140.513, 4091.795, 4157.436, 4107.692, 450, 0, []
1630404407.8081, 119, 0, 4161.026, 4138.974, 4087.692, 4158.974, 4112.308, 16243, 0, []
1630404407.8161, 120, 0, 4168.205, 4142.051, 4117.436, 4160.513, 4115.385, 450, 0, []
1630404407.824, 121, 0, 4180, 4151.282, 4095.897, 4172.821, 4120.513, 450, 0, []
1630404407.832, 122, 0, 4169.744, 4155.385, 4101.026, 4163.077, 4111.282, 450, 0, []
1630404407.8399, 123, 0, 4150.769, 4163.077, 4085.641, 4141.026, 4098.974, 16243, 0, []
1630404407.8476, 124, 0, 4140, 4176.923, 4084.103, 4140, 4092.308, 450, 0, []
1630404407.8555, 125, 0, 4153.333, 4200, 4125.128, 4153.846, 4099.487, 450, 0, []
1630404407.8633, 126, 0, 4178.462, 4208.718, 4107.692, 4169.744, 4121.538, 450, 0, []
1630404407.8712, 127, 0, 4171.795, 4178.462, 4111.795, 4167.179, 4121.026, 16243, 0, []
1630404407.879, 128, 0, 4154.872, 4162.051, 4101.538, 4162.564, 4108.205, 450, 0, []
1630404407.8869, 0, 0, 4167.692, 4177.949, 4085.641, 4167.179, 4113.333, 450, 0, []
1630404407.8946, 1, 0, 4185.128, 4188.718, 4110.256, 4164.103, 4126.154, 450, 0, []
1630404407.9025, 2, 0, 4183.077, 4191.795, 4089.231, 4156.923, 4130.256, 16227, 0, []
1630404407.9103, 3, 0, 4170.769, 4195.897, 4105.641, 4157.949, 4124.103, 450, 0, []
1630404407.9182, 4, 0, 4172.821, 4203.077, 4114.872, 4166.154, 4129.744, 16170, 0, []
1630404407.926, 5, 0, 4185.128, 4188.718, 4092.821, 4162.051, 4146.154, 450, 0, []
1630404407.9338, 6, 0, 4189.231, 4180, 4110.769, 4150.769, 4151.795, 211, 0, []
1630404407.9416, 7, 0, 4189.231, 4194.872, 4088.205, 4155.385, 4153.333, 450, 0, []
1630404407.9496, 8, 0, 4179.487, 4177.949, 4089.744, 4152.308, 4143.077, 450, 0, []
1630404407.9575, 9, 0, 4178.462, 4145.128, 4094.359, 4138.974, 4140.513, 16185, 0, []
1630404407.9655, 10, 0, 4203.077, 4151.795, 4076.923, 4142.564, 4164.103, 450, 0, []
1630404407.9733, 11, 0, 4220, 4155.385, 4101.026, 4142.051, 4182.564, 16163, 0, []
1630404407.9813, 12, 0, 4222.051, 4126.154, 4078.974, 4136.41, 4195.897, 450, 0, []
1630404407.9892, 13, 0, 4237.949, 4124.615, 4076.923, 4130.769, 4206.154, 450, 0, []
1630404407.9972, 14, 0, 4270.256, 4159.487, 4089.231, 4115.385, 4226.667, 450, 0, []
1630404408.0051, 15, 0, 4295.385, 4159.487, 4070.769, 4114.872, 4262.564, 16163, 0, []
1630404408.0128, 16, 0, 4301.026, 4126.667, 4098.974, 4129.231, 4271.282, 0, 0, []
1630404408.0207, 17, 0, 4294.359, 4123.59, 4093.846, 4146.154, 4265.128, 0, 0, []
1630404408.0285, 18, 0, 4282.564, 4146.154, 4097.436, 4148.718, 4260, 0, 0, []
1630404408.0364, 19, 0, 4277.949, 4164.103, 4114.872, 4142.051, 4254.359, 0, 0, []
1630404408.0442, 20, 0, 4274.872, 4166.667, 4087.179, 4143.077, 4245.641, 0, 0, []
1630404408.052, 21, 0, 4249.231, 4161.026, 4100.513, 4133.846, 4223.077, 0, 0, []
1630404408.0598, 22, 0, 4226.154, 4162.051, 4084.103, 4132.821, 4198.974, 0, 0, []
1630404408.0677, 23, 0, 4212.308, 4162.564, 4075.385, 4134.872, 4178.974, 0, 0, []
1630404408.0755, 24, 0, 4192.821, 4166.667, 4099.487, 4125.641, 4164.103, 0, 0, []
1630404408.0835, 25, 0, 4186.154, 4164.615, 4084.615, 4130.769, 4157.436, 0, 0, []
1630404408.0913, 26, 0, 4188.718, 4172.821, 4112.821, 4138.974, 4155.897, 0, 0, []
1630404408.0993, 27, 0, 4192.308, 4223.077, 4108.205, 4132.821, 4152.821, 0, 0, []
1630404408.1072, 28, 0, 4188.718, 4233.333, 4094.359, 4124.103, 4145.128, 0, 0, []
1630404408.1152, 29, 0, 4176.41, 4183.077, 4109.744, 4124.615, 4136.923, 0, 0, []
1630404408.1231, 30, 0, 4168.205, 4163.077, 4075.385, 4126.667, 4134.359, 0, 0, []
1630404408.1311, 31, 0, 4168.718, 4141.538, 4101.026, 4128.205, 4137.436, 0, 0, []
1630404408.1389, 32, 0, 4178.974, 4104.615, 4121.538, 4135.385, 4142.564, 0, 0, []
1630404408.1469, 33, 0, 4174.359, 4104.615, 4098.462, 4129.231, 4129.231, 0, 0, []
1630404408.1548, 34, 0, 4149.744, 4116.41, 4094.872, 4115.385, 4103.59, 0, 0, []
1630404408.1628, 35, 0, 4131.282, 4120.513, 4064.615, 4112.821, 4090.256, 0, 0, []
1630404408.1707, 36, 0, 4117.436, 4118.974, 4085.128, 4104.615, 4080.513, 0, 0, []
1630404408.1784, 37, 0, 4114.872, 4100.513, 4093.846, 4100.513, 4076.41, 0, 0, []
1630404408.1863, 38, 0, 4112.821, 4080.513, 4073.333, 4102.564, 4075.897, 0, 0, []
1630404408.1941, 39, 0, 4096.923, 4086.667, 4096.41, 4095.385, 4062.564, 0, 0, []
1630404408.202, 40, 0, 4098.974, 4098.974, 4075.385, 4098.462, 4062.051, 0, 0, []
1630404408.2098, 41, 0, 4110.256, 4096.41, 4079.487, 4108.718, 4065.641, 0, 0, []
1630404408.2177, 42, 0, 4120, 4118.462, 4097.436, 4127.692, 4077.436, 0, 0, []
1630404408.2256, 43, 0, 4129.744, 4159.487, 4084.615, 4144.103, 4092.308, 0, 0, []
1630404408.2336, 44, 0, 4126.667, 4158.974, 4103.59, 4129.231, 4086.154, 0, 0, []
1630404408.2415, 45, 0, 4129.744, 4130.769, 4085.641, 4123.59, 4088.205, 0, 0, []
1630404408.2495, 46, 0, 4134.872, 4112.821, 4088.205, 4136.41, 4095.385, 0, 0, []
1630404408.2573, 47, 0, 4127.692, 4100, 4096.923, 4128.205, 4088.205, 0, 0, []
1630404408.2653, 48, 0, 4118.974, 4098.462, 4075.897, 4113.846, 4074.872, 0, 0, []
1630404408.2732, 49, 0, 4116.923, 4129.231, 4104.615, 4117.436, 4065.641, 0, 0, []
1630404408.2812, 50, 0, 4117.436, 4158.462, 4082.564, 4119.487, 4069.231, 0, 0, []
1630404408.2891, 51, 0, 4108.205, 4145.128, 4072.821, 4108.718, 4070.769, 0, 0, []
1630404408.297, 52, 0, 4107.692, 4152.308, 4100, 4114.872, 4072.821, 0, 0, []
1630404408.3049, 53, 0, 4118.462, 4171.795, 4081.538, 4129.744, 4081.538, 0, 0, []
1630404408.3127, 54, 0, 4115.897, 4144.103, 4087.692, 4117.949, 4076.41, 0, 0, []
1630404408.3206, 55, 0, 4110.769, 4133.333, 4066.667, 4109.744, 4076.41, 0, 0, []
1630404408.3284, 56, 0, 4118.462, 4161.538, 4072.308, 4122.564, 4087.179, 0, 0, []
1630404408.3362, 57, 0, 4129.231, 4165.128, 4105.641, 4131.282, 4091.282, 0, 0, []
1630404408.344, 58, 0, 4136.41, 4152.821, 4081.026, 4138.462, 4097.949, 0, 0, []
1630404408.3519, 59, 0, 4133.333, 4149.744, 4096.41, 4136.41, 4102.051, 0, 0, []
1630404408.3597, 60, 0, 4131.795, 4144.615, 4089.744, 4128.718, 4096.923, 0, 0, []
1630404408.3676, 61, 0, 4136.923, 4141.026, 4077.436, 4132.308, 4094.872, 0, 0, []
1630404408.3754, 62, 0, 4136.923, 4127.692, 4098.462, 4138.974, 4095.897, 0, 0, []
1630404408.3832, 63, 0, 4127.179, 4120, 4064.615, 4129.744, 4087.179, 0, 0, []
1630404408.391, 64, 0, 4116.41, 4145.128, 4069.744, 4113.333, 4073.333, 450, 0, []
1630404408.399, 65, 0, 4118.462, 4164.103, 4074.359, 4117.436, 4075.385, 450, 0, []
1630404408.4069, 66, 0, 4115.897, 4144.615, 4066.154, 4128.205, 4070.769, 16234, 0, []
1630404408.4149, 67, 0, 4111.282, 4134.359, 4088.718, 4134.359, 4067.179, 450, 0, []
1630404408.4227, 68, 0, 4127.179, 4159.487, 4068.205, 4147.692, 4086.154, 16172, 0, []
1630404408.4307, 69, 0, 4134.872, 4158.462, 4084.103, 4143.59, 4088.205, 450, 0, []
1630404408.4386, 70, 0, 4122.564, 4127.692, 4090.256, 4128.205, 4071.282, 225, 0, []
1630404408.4466, 71, 0, 4118.462, 4126.667, 4078.462, 4132.308, 4069.744, 450, 0, []
1630404408.4545, 72, 0, 4132.821, 4160.513, 4109.231, 4141.538, 4082.564, 450, 0, []
1630404408.4623, 73, 0, 4151.282, 4169.744, 4081.026, 4146.667, 4097.436, 16179, 0, []
1630404408.4701, 74, 0, 4153.333, 4147.692, 4083.59, 4147.179, 4097.436, 450, 0, []
1630404408.4779, 75, 0, 4140, 4156.41, 4097.949, 4138.462, 4087.692, 16235, 0, []
1630404408.4858, 76, 0, 4126.154, 4151.795, 4071.795, 4127.179, 4078.462, 450, 0, []
1630404408.4936, 77, 0, 4117.436, 4107.179, 4085.641, 4122.564, 4065.641, 450, 0, []
1630404408.5014, 78, 0, 4122.564, 4109.231, 4069.744, 4126.667, 4070.256, 450, 0, []
1630404408.5092, 79, 0, 4130.256, 4152.308, 4082.564, 4128.205, 4089.744, 16235, 0, []
1630404408.5171, 80, 0, 4133.333, 4145.641, 4102.051, 4132.308, 4093.846, 450, 0, []
1630404408.5249, 81, 0, 4138.974, 4113.846, 4074.872, 4142.564, 4085.128, 450, 0, []
1630404408.5328, 82, 0, 4144.615, 4141.538, 4092.821, 4142.564, 4082.051, 450, 0, []
1630404408.5405, 83, 0, 4150.769, 4167.692, 4076.923, 4141.538, 4094.359, 16235, 0, []
1630404408.5485, 84, 0, 4143.077, 4119.487, 4070.769, 4133.846, 4095.897, 450, 0, []
1630404408.5564, 85, 0, 4140, 4093.846, 4088.718, 4125.128, 4092.308, 450, 0, []
1630404408.5644, 86, 0, 4153.333, 4122.564, 4072.308, 4127.179, 4100, 450, 0, []
1630404408.5723, 87, 0, 4148.205, 4125.128, 4095.897, 4118.974, 4096.923, 16235, 0, []
1630404408.5803, 88, 0, 4152.308, 4123.077, 4088.205, 4120, 4104.615, 450, 0, []
1630404408.5881, 89, 0, 4170.769, 4135.897, 4085.641, 4136.923, 4120.513, 450, 0, []
1630404408.5961, 90, 0, 4172.308, 4136.923, 4101.538, 4133.333, 4125.128, 450, 0, []
1630404408.604, 91, 0, 4170.769, 4143.077, 4068.718, 4130.256, 4129.231, 16235, 0, []
1630404408.612, 92, 0, 4163.077, 4130.256, 4084.103, 4128.718, 4117.949, 450, 0, []
1630404408.6199, 93, 0, 4151.795, 4109.231, 4078.974, 4118.462, 4098.462, 450, 0, []
1630404408.6276, 94, 0, 4159.487, 4122.051, 4066.667, 4112.308, 4106.667, 450, 0, []
1630404408.6355, 95, 0, 4176.41, 4113.846, 4090.256, 4114.359, 4133.333, 16235, 0, []
1630404408.6433, 96, 0, 4182.564, 4080.513, 4069.231, 4114.872, 4144.103, 450, 0, []
1630404408.6512, 97, 0, 4191.282, 4096.923, 4082.051, 4107.692, 4154.872, 450, 0, []
1630404408.659, 98, 0, 4229.744, 4131.795, 4077.436, 4112.308, 4199.487, 450, 0, []
1630404408.6668, 99, 0, 4277.436, 4115.385, 4075.385, 4119.487, 4250.256, 16235, 0, []
1630404408.6746, 100, 0, 4309.744, 4101.026, 4111.795, 4126.667, 4285.128, 450, 0, []
1630404408.6825, 101, 0, 4335.385, 4134.872, 4076.41, 4149.744, 4309.231, 450, 0, []
1630404408.6903, 102, 0, 4336.923, 4141.538, 4073.333, 4135.385, 4298.974, 450, 0, []
1630404408.6983, 103, 0, 4323.59, 4114.359, 4083.59, 4105.128, 4287.179, 16235, 0, []
1630404408.7061, 104, 0, 4327.179, 4120, 4069.744, 4120.513, 4296.41, 450, 0, []
1630404408.7141, 105, 0, 4324.615, 4120, 4087.179, 4130.256, 4284.615, 450, 0, []
1630404408.722, 106, 0, 4296.41, 4082.564, 4071.795, 4114.872, 4256.923, 450, 0, []
1630404408.73, 107, 0, 4268.205, 4081.538, 4087.179, 4114.872, 4233.846, 16235, 0, []
1630404408.7379, 108, 0, 4264.103, 4130.769, 4084.615, 4124.103, 4228.205, 450, 0, []
1630404408.7458, 109, 0, 4253.333, 4143.077, 4048.205, 4112.308, 4219.487, 450, 0, []
1630404408.7537, 110, 0, 4218.974, 4103.077, 4064.615, 4087.692, 4183.077, 450, 0, []
1630404408.7617, 111, 0, 4197.949, 4083.077, 4042.564, 4086.154, 4161.538, 16235, 0, []
1630404408.7696, 112, 0, 4190.769, 4118.462, 4051.282, 4091.795, 4161.538, 450, 0, []
1630404408.7776, 113, 0, 4182.051, 4150.256, 4078.462, 4084.615, 4148.205, 450, 0, []
1630404408.7854, 114, 0, 4161.538, 4117.436, 4061.026, 4072.821, 4126.667, 450, 0, []
1630404408.7932, 115, 0, 4147.179, 4086.154, 4079.487, 4073.333, 4115.897, 16235, 0, []
1630404408.8011, 116, 0, 4155.385, 4098.974, 4067.179, 4091.282, 4116.923, 450, 0, []
1630404408.8089, 117, 0, 4153.333, 4094.872, 4078.974, 4104.103, 4116.41, 450, 0, []
1630404408.8168, 118, 0, 4143.59, 4099.487, 4104.615, 4109.231, 4120, 450, 0, []
1630404408.8246, 119, 0, 4146.154, 4124.615, 4068.718, 4110.256, 4122.051, 16235, 0, []
1630404408.8324, 120, 0, 4132.821, 4105.128, 4081.026, 4097.436, 4104.103, 450, 0, []
1630404408.8402, 121, 0, 4116.923, 4087.692, 4079.487, 4089.744, 4088.718, 450, 0, []
1630404408.8481, 122, 0, 4125.128, 4113.333, 4073.333, 4094.359, 4090.769, 450, 0, []
1630404408.8559, 123, 0, 4132.821, 4132.308, 4086.667, 4102.051, 4092.821, 16235, 0, []
1630404408.8639, 124, 0, 4122.051, 4116.41, 4066.667, 4110.256, 4088.718, 450, 0, []
1630404408.8717, 125, 0, 4110.769, 4080, 4076.923, 4102.051, 4077.949, 450, 0, []
1630404408.8797, 126, 0, 4121.538, 4085.128, 4053.846, 4093.333, 4076.41, 450, 0, []
1630404408.8876, 127, 0, 4130.256, 4106.154, 4045.128, 4095.385, 4072.821, 16235, 0, []
1630404408.8956, 128, 0, 4114.359, 4084.615, 4075.385, 4091.795, 4052.308, 450, 0, []
1630404408.9035, 0, 0, 4099.487, 4072.308, 4051.282, 4089.231, 4037.436, 450, 0, []
1630404408.9114, 1, 0, 4095.385, 4082.564, 4075.385, 4097.949, 4040.513, 450, 0, []
1630404408.9193, 2, 0, 4105.641, 4096.923, 4089.744, 4110.769, 4060, 16236, 0, []
1630404408.9273, 3, 0, 4108.718, 4100.513, 4069.231, 4110.256, 4063.077, 450, 0, []
1630404408.9352, 4, 0, 4091.282, 4069.231, 4086.667, 4097.949, 4050.769, 16171, 0, []
1630404408.943, 5, 0, 4076.923, 4043.077, 4066.154, 4083.59, 4045.128, 450, 0, []
1630404408.9508, 6, 0, 4061.026, 4052.308, 4061.026, 4064.103, 4024.103, 225, 0, []
1630404408.9586, 7, 0, 4051.282, 4057.436, 4051.282, 4067.179, 4006.667, 450, 0, []
1630404408.9665, 8, 0, 4057.436, 4041.538, 4051.282, 4093.846, 4014.872, 450, 0, []
1630404408.9743, 9, 0, 4065.128, 4060, 4100.513, 4102.564, 4026.667, 16178, 0, []
1630404408.9822, 10, 0, 4082.051, 4088.205, 4081.538, 4102.051, 4037.436, 450, 0, []
1630404408.9899, 11, 0, 4086.154, 4056.923, 4082.051, 4095.385, 4037.949, 16250, 0, []
1630404408.9978, 12, 0, 4075.385, 4025.641, 4085.128, 4080.513, 4028.718, 450, 0, []
1630404409.0056, 13, 0, 4070.769, 4054.359, 4054.872, 4085.128, 4026.154, 450, 0, []
1630404409.0136, 14, 0, 4066.154, 4084.103, 4083.077, 4104.103, 4020.513, 450, 0, []
1630404409.0215, 15, 0, 4063.077, 4057.949, 4078.974, 4120.513, 4014.359, 16250, 0, []
1630404409.0295, 16, 0, 4066.667, 4028.718, 4084.615, 4116.923, 4019.487, 0, 0, []
1630404409.0373, 17, 0, 4087.179, 4047.692, 4093.846, 4113.333, 4040, 0, 0, []
1630404409.0453, 18, 0, 4100, 4075.897, 4066.667, 4118.462, 4055.385, 0, 0, []
1630404409.0532, 19, 0, 4081.538, 4064.103, 4072.821, 4096.41, 4030.256, 0, 0, []
1630404409.0612, 20, 0, 4065.128, 4035.385, 4047.692, 4075.897, 4010.769, 0, 0, []
1630404409.0691, 21, 0, 4069.231, 4029.231, 4050.769, 4082.564, 4019.487, 0, 0, []
1630404409.077, 22, 0, 4084.103, 4049.744, 4067.692, 4095.897, 4030.256, 0, 0, []
1630404409.0849, 23, 0, 4094.359, 4059.487, 4054.359, 4106.667, 4041.026, 0, 0, []
1630404409.0927, 24, 0, 4094.872, 4037.436, 4096.923, 4116.41, 4045.128, 0, 0, []
1630404409.1006, 25, 0, 4100.513, 4038.974, 4085.128, 4126.667, 4048.205, 0, 0, []
1630404409.1084, 26, 0, 4104.103, 4065.641, 4067.692, 4134.359, 4052.308, 0, 0, []
1630404409.1162, 27, 0, 4104.103, 4077.949, 4096.923, 4140, 4062.564, 0, 0, []
1630404409.124, 28, 0, 4114.872, 4072.821, 4078.974, 4140, 4074.359, 0, 0, []
1630404409.1319, 29, 0, 4122.564, 4056.41, 4089.231, 4127.692, 4073.846, 0, 0, []
1630404409.1397, 30, 0, 4122.051, 4053.333, 4080.513, 4127.179, 4076.41, 0, 0, []
1630404409.1477, 31, 0, 4120.513, 4065.641, 4076.923, 4131.795, 4077.949, 0, 0, []
1630404409.1555, 32, 0, 4125.641, 4086.154, 4103.077, 4131.282, 4081.026, 0, 0, []
1630404409.1635, 33, 0, 4134.359, 4101.026, 4074.359, 4143.077, 4093.846, 0, 0, []
1630404409.1714, 34, 0, 4132.308, 4091.795, 4084.615, 4149.231, 4098.974, 0, 0, []
1630404409.1794, 35, 0, 4130.256, 4098.974, 4075.385, 4137.436, 4102.564, 0, 0, []
1630404409.1873, 36, 0, 4121.026, 4114.872, 4050.769, 4118.462, 4090.769, 0, 0, []
1630404409.1952, 37, 0, 4098.974, 4101.538, 4075.385, 4110.769, 4060.513, 0, 0, []
1630404409.2031, 38, 0, 4096.923, 4072.821, 4058.974, 4125.641, 4054.359, 0, 0, []
1630404409.2111, 39, 0, 4100.513, 3978.462, 4072.308, 4133.333, 4063.59, 0, 0, []
1630404409.219, 40, 0, 4093.846, 3815.897, 4080, 4128.718, 4060.513, 0, 0, []
1630404409.227, 41, 0, 4097.949, 3709.231, 4067.692, 4129.231, 4054.359, 0, 0, []
1630404409.2348, 42, 0, 4116.923, 3698.974, 4096.41, 4132.821, 4058.974, 0, 0, []
1630404409.2426, 43, 0, 4135.897, 3695.897, 4080.513, 4140, 4077.436, 0, 0, []
1630404409.2505, 44, 0, 4131.795, 3653.333, 4082.051, 4132.821, 4086.667, 0, 0, []
1630404409.2583, 45, 0, 4128.205, 3615.897, 4086.667, 4128.205, 4089.744, 0, 0, []
1630404409.2662, 46, 0, 4145.641, 3604.103, 4081.538, 4144.103, 4104.615, 0, 0, []
1630404409.274, 47, 0, 4157.436, 3604.615, 4110.769, 4149.744, 4111.282, 0, 0, []
1630404409.2818, 48, 0, 4142.051, 3591.795, 4076.923, 4140, 4101.026, 0, 0, []
1630404409.2896, 49, 0, 4118.974, 3581.538, 4073.333, 4136.923, 4086.667, 0, 0, []
1630404409.2975, 50, 0, 4122.051, 3589.744, 4087.692, 4138.974, 4085.128, 0, 0, []
1630404409.3053, 51, 0, 4125.641, 3581.026, 4057.436, 4132.308, 4082.564, 0, 0, []
1630404409.3132, 52, 0, 4104.615, 3554.359, 4074.872, 4120.513, 4063.077, 0, 0, []
1630404409.3209, 53, 0, 4102.564, 3540, 4070.769, 4126.667, 4065.128, 0, 0, []
1630404409.3289, 54, 0, 4113.846, 3523.077, 4076.923, 4136.41, 4077.949, 0, 0, []
1630404409.3368, 55, 0, 4109.744, 3495.897, 4089.231, 4131.795, 4068.205, 0, 0, []
1630404409.3448, 56, 0, 4111.282, 3493.846, 4070.256, 4127.692, 4062.051, 0, 0, []
1630404409.3527, 57, 0, 4126.154, 3516.41, 4100.513, 4128.205, 4077.949, 0, 0, []
1630404409.3606, 58, 0, 4137.949, 3487.179, 4085.128, 4123.59, 4096.41, 0, 0, []
1630404409.3685, 59, 0, 4132.821, 3483.59, 4077.949, 4111.282, 4097.949, 0, 0, []
1630404409.3765, 60, 0, 4130.769, 3681.026, 4108.718, 4112.821, 4101.538, 0, 0, []
1630404409.3844, 61, 0, 4148.205, 3917.949, 4088.718, 4141.026, 4117.436, 0, 0, []
1630404409.3922, 62, 0, 4155.897, 3951.282, 4100.513, 4155.897, 4120, 0, 0, []
1630404409.4, 63, 0, 4153.333, 3941.026, 4086.154, 4151.282, 4119.487, 0, 0, []
1630404409.4078, 64, 0, 4148.205, 4005.641, 4075.897, 4145.641, 4117.436, 450, 0, []
1630404409.4157, 65, 0, 4140, 4019.487, 4105.128, 4135.897, 4105.641, 450, 0, []
1630404409.4235, 66, 0, 4140.513, 4004.103, 4079.487, 4134.359, 4106.154, 16219, 0, []
1630404409.4314, 67, 0, 4141.538, 4028.718, 4084.103, 4130.769, 4112.821, 450, 0, []
1630404409.4391, 68, 0, 4136.41, 4066.154, 4085.641, 4125.641, 4117.436, 16194, 0, []
1630404409.447, 69, 0, 4131.795, 4088.205, 4085.641, 4137.436, 4118.462, 450, 0, []
1630404409.4548, 70, 0, 4133.846, 4085.128, 4112.308, 4151.795, 4115.385, 232, 0, []
1630404409.4627, 71, 0, 4138.974, 4090.256, 4078.974, 4151.795, 4118.974, 450, 0, []
1630404409.4706, 72, 0, 4142.051, 4111.795, 4085.128, 4143.077, 4123.077, 450, 0, []
1630404409.4785, 73, 0, 4148.205, 4126.154, 4096.41, 4139.487, 4125.641, 16165, 0, []
1630404409.4865, 74, 0, 4143.077, 4132.821, 4077.949, 4132.821, 4116.923, 450, 0, []
1630404409.4944, 75, 0, 4125.128, 4132.308, 4093.333, 4121.026, 4097.949, 16236, 0, []
1630404409.5023, 76, 0, 4125.128, 4122.051, 4070.769, 4128.205, 4091.282, 450, 0, []
1630404409.5103, 77, 0, 4127.179, 4127.179, 4077.436, 4130.256, 4093.333, 450, 0, []
1630404409.5182, 78, 0, 4126.154, 4152.821, 4081.538, 4121.538, 4096.41, 450, 0, []
1630404409.5261, 79, 0, 4131.282, 4143.077, 4055.897, 4122.051, 4103.077, 16236, 0, []
1630404409.534, 80, 0, 4134.872, 4133.333, 4082.564, 4130.769, 4107.179, 450, 0, []
1630404409.542, 81, 0, 4140, 4156.41, 4078.462, 4148.205, 4117.949, 450, 0, []
1630404409.5499, 82, 0, 4140, 4152.308, 4086.667, 4147.692, 4116.923, 450, 0, []
1630404409.5577, 83, 0, 4141.538, 4141.026, 4091.795, 4132.821, 4112.308, 16236, 0, []
1630404409.5655, 84, 0, 4154.359, 4157.436, 4069.744, 4134.872, 4122.564, 450, 0, []
1630404409.5733, 85, 0, 4160, 4168.718, 4100, 4135.385, 4126.154, 450, 0, []
1630404409.5812, 86, 0, 4155.897, 4182.564, 4084.103, 4134.359, 4122.051, 450, 0, []
1630404409.589, 87, 0, 4149.744, 4209.231, 4074.872, 4137.949, 4120.513, 16236, 0, []
1630404409.5969, 88, 0, 4149.231, 4198.974, 4084.103, 4136.41, 4121.538, 450, 0, []
1630404409.6046, 89, 0, 4145.128, 4157.949, 4051.282, 4126.667, 4115.897, 450, 0, []
1630404409.6125, 90, 0, 4132.308, 4153.333, 4066.667, 4111.282, 4096.923, 450, 0, []
1630404409.6203, 91, 0, 4132.308, 4186.667, 4063.59, 4111.282, 4096.923, 16236, 0, []
1630404409.6282, 92, 0, 4138.974, 4194.359, 4061.026, 4124.103, 4108.718, 450, 0, []
1630404409.636, 93, 0, 4143.077, 4179.487, 4079.487, 4129.744, 4113.333, 450, 0, []
1630404409.6438, 94, 0, 4155.897, 4181.026, 4058.462, 4130.769, 4123.59, 450, 0, []
1630404409.6516, 95, 0, 4153.846, 4190.769, 4078.974, 4131.282, 4127.692, 16236, 0, []
1630404409.6596, 96, 0, 4147.179, 4211.795, 4076.41, 4138.462, 4124.615, 450, 0, []
1630404409.6675, 97, 0, 4148.205, 4226.667, 4066.154, 4135.385, 4122.564, 450, 0, []
1630404409.6755, 98, 0, 4146.667, 4218.462, 4084.103, 4123.077, 4121.538, 450, 0, []
1630404409.6833, 99, 0, 4149.744, 4220, 4064.103, 4123.59, 4128.718, 16236, 0, []
1630404409.6913, 100, 0, 4154.872, 4227.179, 4089.231, 4125.641, 4125.128, 450, 0, []
1630404409.6992, 101, 0, 4158.462, 4215.385, 4089.231, 4129.231, 4126.154, 450, 0, []
1630404409.7072, 102, 0, 4157.949, 4212.308, 4073.333, 4130.256, 4129.231, 450, 0, []
1630404409.7151, 103, 0, 4149.231, 4207.692, 4090.256, 4109.231, 4109.744, 16236, 0, []
1630404409.723, 104, 0, 4132.821, 4188.205, 4051.795, 4086.667, 4087.692, 450, 0, []
1630404409.7308, 105, 0, 4123.59, 4183.59, 4069.744, 4095.385, 4088.205, 450, 0, []
1630404409.7386, 106, 0, 4146.667, 4204.615, 4101.026, 4133.333, 4115.385, 450, 0, []
1630404409.7465, 107, 0, 4164.103, 4216.923, 4086.154, 4148.718, 4131.282, 16236, 0, []
1630404409.7543, 108, 0, 4157.949, 4207.179, 4094.359, 4127.692, 4124.103, 450, 0, []
1630404409.7622, 109, 0, 4167.179, 4213.846, 4075.385, 4125.641, 4131.795, 450, 0, []
1630404409.7699, 110, 0, 4168.718, 4210.769, 4084.615, 4132.308, 4134.359, 450, 0, []
1630404409.7778, 111, 0, 4140, 4166.154, 4080.513, 4115.897, 4108.718, 16236, 0, []
1630404409.7856, 112, 0, 4130.256, 4172.308, 4062.051, 4115.385, 4096.41, 450, 0, []
1630404409.7936, 113, 0, 4145.641, 4248.718, 4096.923, 4130.256, 4116.923, 450, 0, []
1630404409.8015, 114, 0, 4154.872, 4273.333, 4073.846, 4126.667, 4135.897, 450, 0, []
1630404409.8094, 115, 0, 4154.359, 4255.385, 4071.282, 4111.795, 4135.385, 16236, 0, []
1630404409.8173, 116, 0, 4166.154, 4302.051, 4085.128, 4114.872, 4134.359, 450, 0, []
1630404409.8253, 117, 0, 4177.949, 4332.821, 4066.154, 4127.179, 4136.41, 450, 0, []
1630404409.8332, 118, 0, 4173.333, 4285.641, 4090.769, 4128.718, 4129.744, 450, 0, []
1630404409.8412, 119, 0, 4161.538, 4243.077, 4070.256, 4125.641, 4121.026, 16236, 0, []
1630404409.849, 120, 0, 4149.231, 4220, 4061.538, 4115.385, 4111.795, 450, 0, []
1630404409.857, 121, 0, 4152.308, 4225.128, 4084.103, 4113.846, 4112.821, 450, 0, []
1630404409.8649, 122, 0, 4162.051, 4242.051, 4064.615, 4124.103, 4122.051, 450, 0, []
1630404409.8727, 123, 0, 4152.308, 4208.205, 4080.513, 4116.923, 4112.308, 16236, 0, []
1630404409.8806, 124, 0, 4149.231, 4189.744, 4070.769, 4118.462, 4106.667, 450, 0, []
1630404409.8883, 125, 0, 4149.231, 4208.205, 4062.564, 4123.077, 4102.051, 450, 0, []
1630404409.8962, 126, 0, 4138.462, 4198.974, 4080, 4111.282, 4087.692, 450, 0, []
1630404409.904, 127, 0, 4142.051, 4190.256, 4066.154, 4119.487, 4097.436, 16236, 0, []
1630404409.9119, 128, 0, 4156.923, 4200, 4089.744, 4138.974, 4116.41, 450, 0, []
1630404409.9197, 0, 0, 4163.077, 4193.333, 4075.897, 4137.436, 4121.026, 450, 0, []
1630404409.9275, 1, 0, 4160, 4197.949, 4063.59, 4130.769, 4117.436, 450, 0, []
1630404409.9353, 2, 0, 4158.974, 4218.974, 4093.333, 4131.795, 4114.359, 16194, 0, []
1630404409.9433, 3, 0, 4164.615, 4228.205, 4071.795, 4138.462, 4117.436, 450, 0, []
1630404409.9512, 4, 0, 4167.692, 4233.333, 4089.744, 4142.051, 4122.564, 16209, 0, []
1630404409.9592, 5, 0, 4165.128, 4228.718, 4096.41, 4149.744, 4123.077, 450, 0, []
1630404409.9671, 6, 0, 4161.026, 4212.308, 4087.692, 4153.333, 4118.974, 255, 0, []
1630404409.975, 7, 0, 4173.333, 4220.513, 4109.231, 4153.333, 4129.231, 450, 0, []
1630404409.9829, 8, 0, 4203.077, 4230.769, 4081.026, 4163.59, 4156.923, 450, 0, []
1630404409.9909, 9, 0, 4208.718, 4194.872, 4086.667, 4161.538, 4161.026, 16132, 0, []
1630404409.9988, 10, 0, 4197.949, 4195.385, 4083.59, 4152.821, 4145.128, 450, 0, []
1630404410.0068, 11, 0, 4193.333, 4246.667, 4065.128, 4162.564, 4143.077, 16248, 0, []
1630404410.0146, 12, 0, 4186.667, 4236.923, 4094.359, 4167.179, 4146.154, 450, 0, []
1630404410.0226, 13, 0, 4174.872, 4188.718, 4069.231, 4154.359, 4137.436, 450, 0, []
1630404410.0305, 14, 0, 4165.641, 4190.256, 4061.538, 4133.846, 4115.385, 450, 0, []
1630404410.0383, 15, 0, 4164.615, 4218.462, 4064.615, 4122.051, 4107.179, 16248, 0, []
1630404410.0462, 16, 0, 4163.077, 4192.308, 4049.231, 4126.154, 4113.846, 0, 0, []
1630404410.0539, 17, 0, 4156.41, 4146.667, 4077.436, 4127.179, 4114.359, 0, 0, []
1630404410.0618, 18, 0, 4156.923, 4160, 4060, 4128.205, 4117.436, 0, 0, []
1630404410.0696, 19, 0, 4156.41, 4191.795, 4064.615, 4125.641, 4114.872, 0, 0, []
1630404410.0775, 20, 0, 4159.487, 4189.231, 4091.795, 4127.179, 4114.359, 0, 0, []
1630404410.0853, 21, 0, 4167.692, 4169.744, 4080, 4136.41, 4124.615, 0, 0, []
1630404410.0931, 22, 0, 4166.154, 4178.462, 4093.333, 4135.385, 4128.205, 0, 0, []
1630404410.1009, 23, 0, 4176.41, 4211.795, 4074.359, 4141.538, 4140, 0, 0, []
1630404410.1089, 24, 0, 4192.821, 4198.974, 4078.462, 4148.718, 4151.282, 0, 0, []
1630404410.1168, 25, 0, 4188.718, 4185.128, 4088.718, 4146.667, 4148.205, 0, 0, []
1630404410.1248, 26, 0, 4178.462, 4208.205, 4059.487, 4142.051, 4140, 0, 0, []
1630404410.1326, 27, 0, 4174.359, 4198.974, 4089.744, 4134.359, 4131.795, 0, 0, []
1630404410.1406, 28, 0, 4178.462, 4189.231, 4086.154, 4135.385, 4136.41, 0, 0, []
1630404410.1485, 29, 0, 4173.333, 4209.231, 4080.513, 4137.436, 4135.385, 0, 0, []
1630404410.1565, 30, 0, 4160.513, 4198.462, 4096.41, 4129.744, 4117.436, 0, 0, []
1630404410.1644, 31, 0, 4152.821, 4158.974, 4063.077, 4120.513, 4111.795, 0, 0, []
1630404410.1721, 32, 0, 4144.615, 4157.949, 4081.538, 4113.846, 4109.231, 0, 0, []
1630404410.18, 33, 0, 4138.974, 4170.769, 4084.103, 4113.333, 4107.179, 0, 0, []
1630404410.1878, 34, 0, 4139.487, 4150.769, 4067.179, 4114.872, 4105.641, 0, 0, []
1630404410.1957, 35, 0, 4148.718, 4150.769, 4085.128, 4117.436, 4108.205, 0, 0, []
1630404410.2035, 36, 0, 4170.769, 4181.026, 4077.949, 4139.487, 4124.103, 0, 0, []
1630404410.2114, 37, 0, 4179.487, 4182.564, 4097.436, 4149.744, 4128.205, 0, 0, []
1630404410.2191, 38, 0, 4174.359, 4166.154, 4085.128, 4138.462, 4119.487, 0, 0, []
1630404410.227, 39, 0, 4167.179, 4173.846, 4070.769, 4130.256, 4114.359, 0, 0, []
1630404410.2348, 40, 0, 4162.564, 4183.077, 4091.282, 4130.769, 4115.897, 0, 0, []
1630404410.2427, 41, 0, 4170.769, 4178.462, 4064.615, 4139.487, 4129.744, 0, 0, []
1630404410.2505, 42, 0, 4176.923, 4189.231, 4084.615, 4145.641, 4136.923, 0, 0, []
1630404410.2584, 43, 0, 4174.872, 4209.231, 4090.256, 4147.179, 4131.795, 0, 0, []
1630404410.2663, 44, 0, 4169.231, 4196.923, 4065.641, 4146.667, 4121.538, 0, 0, []
1630404410.2743, 45, 0, 4163.077, 4164.615, 4092.308, 4137.436, 4110.256, 0, 0, []
1630404410.2822, 46, 0, 4161.026, 4168.205, 4075.385, 4133.846, 4108.718, 0, 0, []
1630404410.2902, 47, 0, 4154.872, 4183.59, 4076.41, 4129.231, 4106.154, 0, 0, []
1630404410.298, 48, 0, 4158.974, 4173.846, 4083.59, 4130.769, 4114.359, 0, 0, []
1630404410.306, 49, 0, 4173.333, 4173.846, 4065.641, 4139.487, 4135.385, 0, 0, []
1630404410.3139, 50, 0, 4178.974, 4193.333, 4082.051, 4130.769, 4140.513, 0, 0, []
1630404410.3219, 51, 0, 4182.564, 4198.974, 4062.051, 4126.154, 4138.974, 0, 0, []
1630404410.3298, 52, 0, 4177.436, 4184.615, 4073.333, 4129.231, 4136.923, 0, 0, []
1630404410.3375, 53, 0, 4168.718, 4199.487, 4089.231, 4122.564, 4133.846, 0, 0, []
1630404410.3454, 54, 0, 4177.436, 4230.769, 4071.282, 4122.564, 4136.41, 0, 0, []
1630404410.3532, 55, 0, 4184.615, 4233.333, 4098.974, 4132.821, 4135.385, 0, 0, []
1630404410.3611, 56, 0, 4182.564, 4246.154, 4080, 4144.103, 4138.974, 0, 0, []
1630404410.3689, 57, 0, 4186.667, 4244.615, 4075.385, 4151.795, 4144.615, 0, 0, []
1630404410.3767, 58, 0, 4195.385, 4210.256, 4096.923, 4157.949, 4146.667, 0, 0, []
1630404410.3845, 59, 0, 4191.282, 4198.462, 4075.897, 4157.436, 4141.026, 0, 0, []
1630404410.3925, 60, 0, 4180.513, 4213.846, 4092.308, 4142.564, 4127.179, 0, 0, []
1630404410.4004, 61, 0, 4186.667, 4209.231, 4077.436, 4140, 4131.282, 0, 0, []
1630404410.4084, 62, 0, 4192.821, 4206.154, 4077.949, 4153.333, 4143.077, 0, 0, []
1630404410.4163, 63, 0, 4199.487, 4240.513, 4111.795, 4167.179, 4153.846, 0, 0, []
1630404410.4242, 64, 0, 4222.051, 4237.949, 4085.641, 4178.462, 4172.308, 450, 0, []
1630404410.4321, 65, 0, 4230.256, 4231.282, 4088.205, 4165.128, 4172.821, 450, 0, []
1630404410.4401, 66, 0, 4222.564, 4296.41, 4079.487, 4153.333, 4161.538, 16231, 0, []
1630404410.448, 67, 0, 4218.974, 4313.333, 4080.513, 4163.59, 4155.897, 450, 0, []
1630404410.4559, 68, 0, 4217.436, 4241.538, 4107.692, 4174.359, 4158.462, 16175, 0, []
1630404410.4636, 69, 0, 4220.513, 4215.385, 4076.923, 4178.462, 4164.103, 450, 0, []
1630404410.4716, 70, 0, 4221.026, 4234.359, 4081.538, 4171.795, 4169.231, 224, 0, []
1630404410.4795, 71, 0, 4218.462, 4223.077, 4076.923, 4167.692, 4171.795, 450, 0, []
1630404410.4873, 72, 0, 4215.897, 4214.359, 4068.205, 4161.026, 4167.692, 450, 0, []
1630404410.4952, 73, 0, 4219.487, 4213.333, 4101.538, 4151.795, 4159.487, 16166, 0, []
1630404410.503, 74, 0, 4224.103, 4186.154, 4078.974, 4149.231, 4160, 450, 0, []
1630404410.5109, 75, 0, 4213.333, 4162.051, 4088.718, 4150.769, 4161.026, 16250, 0, []
1630404410.5187, 76, 0, 4218.974, 4175.385, 4098.462, 4162.051, 4170.256, 450, 0, []
1630404410.5266, 77, 0, 4236.41, 4190.256, 4078.462, 4165.128, 4186.154, 450, 0, []
1630404410.5344, 78, 0, 4235.897, 4204.615, 4088.718, 4148.718, 4183.59, 450, 0, []
1630404410.5422, 79, 0, 4247.179, 4234.872, 4070.256, 4141.538, 4200, 16250, 0, []
1630404410.55, 80, 0, 4280, 4221.026, 4093.846, 4156.923, 4240, 450, 0, []
1630404410.558, 81, 0, 4308.718, 4194.872, 4105.641, 4170.256, 4263.59, 450, 0, []
1630404410.5659, 82, 0, 4325.641, 4214.872, 4075.897, 4159.487, 4285.128, 450, 0, []
1630404410.5739, 83, 0, 4348.718, 4212.821, 4094.872, 4146.667, 4318.974, 16250, 0, []
1630404410.5817, 84, 0, 4378.974, 4185.641, 4079.487, 4162.051, 4339.487, 450, 0, []
1630404410.5897, 85, 0, 4384.103, 4211.795, 4084.615, 4159.487, 4336.41, 450, 0, []
1630404410.5976, 86, 0, 4372.308, 4236.923, 4094.872, 4136.923, 4345.128, 450, 0, []
1630404410.6056, 87, 0, 4370.769, 4202.051, 4069.744, 4151.795, 4343.59, 16250, 0, []
1630404410.6135, 88, 0, 4361.538, 4195.385, 4096.41, 4164.615, 4322.051, 450, 0, []
1630404410.6214, 89, 0, 4343.077, 4231.282, 4088.205, 4156.923, 4318.462, 450, 0, []
1630404410.6293, 90, 0, 4312.308, 4211.282, 4073.333, 4155.385, 4291.795, 450, 0, []
1630404410.6373, 91, 0, 4281.026, 4172.821, 4073.846, 4151.282, 4258.462, 16250, 0, []
1630404410.6452, 92, 0, 4280.513, 4187.179, 4056.41, 4150.769, 4266.154, 450, 0, []
1630404410.653, 93, 0, 4276.41, 4198.974, 4090.769, 4146.667, 4257.436, 450, 0, []
1630404410.6609, 94, 0, 4252.821, 4187.179, 4083.59, 4137.436, 4225.128, 450, 0, []
1630404410.6686, 95, 0, 4240, 4197.436, 4081.538, 4141.538, 4209.744, 16250, 0, []
1630404410.6765, 96, 0, 4241.538, 4199.487, 4106.667, 4157.436, 4212.308, 450, 0, []
1630404410.6843, 97, 0, 4247.179, 4187.692, 4076.923, 4167.692, 4223.59, 450, 0, []
1630404410.6922, 98, 0, 4247.179, 4227.179, 4085.128, 4158.462, 4231.282, 450, 0, []
1630404410.7, 99, 0, 4250.256, 4295.385, 4083.59, 4155.385, 4232.821, 16250, 0, []
1630404410.7078, 100, 0, 4239.487, 4301.026, 4089.744, 4150.769, 4222.051, 450, 0, []
1630404410.7156, 101, 0, 4217.436, 4262.564, 4111.282, 4144.103, 4204.103, 450, 0, []
1630404410.7236, 102, 0, 4217.949, 4259.487, 4077.949, 4152.308, 4195.897, 450, 0, []
1630404410.7315, 103, 0, 4226.667, 4268.718, 4094.872, 4158.462, 4197.949, 16250, 0, []
1630404410.7395, 104, 0, 4227.179, 4256.923, 4087.179, 4154.872, 4200.513, 450, 0, []
1630404410.7473, 105, 0, 4218.974, 4246.667, 4067.179, 4146.154, 4198.974, 450, 0, []
1630404410.7553, 106, 0, 4216.923, 4240.513, 4101.026, 4147.179, 4192.821, 450, 0, []
1630404410.7632, 107, 0, 4225.641, 4234.872, 4087.692, 4161.538, 4198.462, 16250, 0, []
1630404410.7712, 108, 0, 4224.615, 4227.692, 4096.41, 4163.077, 4201.538, 450, 0, []
1630404410.7791, 109, 0, 4220.513, 4236.41, 4104.615, 4157.436, 4193.333, 450, 0, []
1630404410.787, 110, 0, 4215.385, 4240, 4090.256, 4163.077, 4186.154, 450, 0, []
1630404410.7949, 111, 0, 4203.077, 4231.795, 4095.897, 4158.462, 4165.641, 16250, 0, []
1630404410.8027, 112, 0, 4187.179, 4228.205, 4058.462, 4146.667, 4144.103, 450, 0, []
1630404410.8106, 113, 0, 4173.846, 4210.769, 4068.718, 4137.949, 4133.846, 450, 0, []
1630404410.8184, 114, 0, 4174.872, 4210.769, 4083.077, 4135.385, 4141.026, 450, 0, []
1630404410.8262, 115, 0, 4176.923, 4220.513, 4063.077, 4141.026, 4145.128, 16250, 0, []
1630404410.834, 116, 0, 4157.436, 4196.923, 4084.615, 4134.359, 4128.718, 450, 0, []
1630404410.8419, 117, 0, 4142.051, 4187.179, 4062.051, 4120, 4114.359, 450, 0, []
1630404410.8497, 118, 0, 4141.026, 4188.205, 4066.154, 4109.231, 4099.487, 450, 0, []
1630404410.8576, 119, 0, 4142.564, 4166.667, 4088.205, 4105.128, 4091.795, 16250, 0, []
1630404410.8654, 120, 0, 4144.615, 4179.487, 4069.231, 4110.769, 4096.41, 450, 0, []
1630404410.8733, 121, 0, 4144.103, 4232.821, 4093.846, 4120, 4097.436, 450, 0, []
1630404410.8812, 122, 0, 4143.077, 4222.051, 4081.026, 4131.795, 4104.103, 450, 0, []
1630404410.8892, 123, 0, 4143.59, 4175.897, 4079.487, 4131.282, 4110.769, 16250, 0, []
1630404410.8971, 124, 0, 4155.385, 4189.231, 4100, 4132.821, 4117.436, 450, 0, []
1630404410.9051, 125, 0, 4164.615, 4197.436, 4076.41, 4144.103, 4127.692, 450, 0, []
1630404410.9129, 126, 0, 4153.846, 4157.949, 4087.692, 4144.615, 4126.154, 450, 0, []
1630404410.9209, 127, 0, 4154.359, 4153.333, 4074.359, 4144.103, 4120, 16250, 0, []
1630404410.9288, 128, 0, 4151.282, 4172.308, 4072.821, 4141.026, 4108.718, 450, 0, []
1630404410.9368, 0, 0, 4132.308, 4159.487, 4086.667, 4126.154, 4096.923, 450, 0, []
1630404410.9447, 1, 0, 4131.795, 4145.641, 4058.462, 4124.103, 4100, 450, 0, []
1630404410.9524, 2, 0, 4145.128, 4146.154, 4084.615, 4131.795, 4102.564, 16225, 0, []
1630404410.9603, 3, 0, 4159.487, 4145.641, 4078.974, 4137.949, 4104.615, 450, 0, []
1630404410.9681, 4, 0, 4171.282, 4170.256, 4068.718, 4140, 4111.282, 16157, 0, []
1630404410.976, 5, 0, 4182.564, 4190.256, 4102.051, 4149.744, 4120, 450, 0, []
1630404410.9838, 6, 0, 4189.231, 4174.359, 4083.59, 4158.974, 4127.179, 145, 0, []
1630404410.9916, 7, 0, 4176.923, 4186.667, 4092.821, 4145.128, 4114.359, 450, 0, []
1630404410.9994, 8, 0, 4168.205, 4240, 4084.103, 4132.821, 4104.103, 450, 0, []
1630404411.0073, 9, 0, 4166.667, 4240.513, 4066.667, 4132.308, 4105.128, 16200, 0, []
1630404411.0151, 10, 0, 4156.923, 4201.538, 4094.359, 4127.692, 4100.513, 450, 0, []
1630404411.023, 11, 0, 4156.41, 4189.744, 4076.41, 4134.872, 4102.564, 16232, 0, []
1630404411.0307, 12, 0, 4163.59, 4173.333, 4084.615, 4144.615, 4103.077, 450, 0, []
1630404411.0387, 13, 0, 4165.128, 4176.923, 4081.026, 4146.154, 4100.513, 450, 0, []
1630404411.0466, 14, 0, 4167.692, 4196.41, 4067.692, 4148.718, 4105.641, 450, 0, []
1630404411.0546, 15, 0, 4173.333, 4172.308, 4099.487, 4150.256, 4110.256, 16232, 0, []
1630404411.0625, 16, 0, 4175.897, 4162.051, 4084.103, 4150.256, 4114.359, 0, 0, []
1630404411.0704, 17, 0, 4162.051, 4189.744, 4084.615, 4144.103, 4109.231, 0, 0, []
1630404411.0783, 18, 0, 4144.103, 4194.359, 4075.897, 4132.308, 4097.949, 0, 0, []
1630404411.0863, 19, 0, 4142.564, 4182.564, 4059.487, 4134.359, 4096.41, 0, 0, []
1630404411.0942, 20, 0, 4155.385, 4186.154, 4099.487, 4143.59, 4102.051, 0, 0, []
1630404411.1022, 21, 0, 4163.077, 4162.564, 4080.513, 4148.205, 4107.692, 0, 0, []
1630404411.1101, 22, 0, 4147.179, 4146.667, 4079.487, 4140, 4095.897, 0, 0, []
1630404411.1178, 23, 0, 4135.385, 4185.128, 4094.359, 4133.846, 4083.077, 0, 0, []
1630404411.1257, 24, 0, 4143.59, 4166.667, 4069.744, 4135.897, 4089.231, 0, 0, []
1630404411.1337, 25, 0, 4152.821, 4098.974, 4089.231, 4137.949, 4101.538, 0, 0, []
1630404411.1416, 26, 0, 4162.051, 4156.41, 4081.538, 4148.718, 4114.872, 0, 0, []
1630404411.1494, 27, 0, 4163.59, 4246.667, 4081.538, 4151.795, 4111.795, 0, 0, []
1630404411.1572, 28, 0, 4160.513, 4208.205, 4089.744, 4143.59, 4108.718, 0, 0, []
1630404411.165, 29, 0, 4158.462, 4153.333, 4064.103, 4143.59, 4118.974, 0, 0, []
1630404411.1729, 30, 0, 4151.282, 4155.897, 4083.59, 4133.846, 4118.462, 0, 0, []
1630404411.1807, 31, 0, 4150.769, 4162.051, 4071.282, 4127.692, 4112.308, 0, 0, []
1630404411.1887, 32, 0, 4148.205, 4170.769, 4071.795, 4127.179, 4105.641, 0, 0, []
1630404411.1965, 33, 0, 4146.154, 4191.795, 4098.462, 4126.154, 4112.308, 0, 0, []
1630404411.2045, 34, 0, 4149.744, 4181.026, 4071.282, 4138.462, 4131.795, 0, 0, []
1630404411.2124, 35, 0, 4137.949, 4149.744, 4077.949, 4141.538, 4120.513, 0, 0, []
1630404411.2204, 36, 0, 4128.205, 4170.769, 4070.256, 4132.308, 4103.077, 0, 0, []
1630404411.2283, 37, 0, 4133.846, 4201.538, 4067.179, 4133.333, 4107.179, 0, 0, []
1630404411.2362, 38, 0, 4132.821, 4192.821, 4086.667, 4138.462, 4105.128, 0, 0, []
1630404411.2441, 39, 0, 4128.718, 4181.538, 4057.949, 4138.462, 4091.282, 0, 0, []
1630404411.2521, 40, 0, 4131.282, 4180, 4080, 4140, 4092.821, 0, 0, []
1630404411.26, 41, 0, 4140, 4186.667, 4084.615, 4148.718, 4109.744, 0, 0, []
1630404411.2678, 42, 0, 4143.077, 4205.128, 4072.821, 4150.769, 4116.41, 0, 0, []
1630404411.2756, 43, 0, 4142.564, 4218.974, 4098.974, 4150.256, 4114.359, 0, 0, []
1630404411.2834, 44, 0, 4147.179, 4194.872, 4075.897, 4162.051, 4123.59, 0, 0, []
1630404411.2913, 45, 0, 4151.795, 4190.256, 4084.615, 4156.41, 4128.205, 0, 0, []
1630404411.2991, 46, 0, 4157.949, 4223.077, 4079.487, 4142.564, 4126.667, 0, 0, []
1630404411.307, 47, 0, 4154.872, 4200, 4054.872, 4142.564, 4120, 0, 0, []
1630404411.3147, 48, 0, 4141.026, 4158.974, 4078.462, 4136.41, 4108.205, 0, 0, []
1630404411.3227, 49, 0, 4144.103, 4186.154, 4064.615, 4131.282, 4113.333, 0, 0, []
1630404411.3306, 50, 0, 4145.128, 4212.821, 4075.385, 4127.692, 4113.846, 0, 0, []
1630404411.3386, 51, 0, 4142.051, 4201.538, 4084.103, 4128.718, 4105.641, 0, 0, []
1630404411.3465, 52, 0, 4157.436, 4214.872, 4077.949, 4148.205, 4122.051, 0, 0, []
1630404411.3545, 53, 0, 4166.667, 4231.282, 4108.205, 4152.821, 4135.385, 0, 0, []
1630404411.3623, 54, 0, 4161.026, 4211.795, 4074.872, 4136.923, 4129.744, 0, 0, []
1630404411.3703, 55, 0, 4166.154, 4205.641, 4075.897, 4136.41, 4127.692, 0, 0, []
1630404411.3782, 56, 0, 4186.667, 4255.897, 4102.051, 4157.436, 4146.154, 0, 0, []
1630404411.3862, 57, 0, 4191.795, 4302.051, 4073.333, 4158.974, 4154.872, 0, 0, []
1630404411.3941, 58, 0, 4176.923, 4255.897, 4078.974, 4134.872, 4142.564, 0, 0, []
1630404411.402, 59, 0, 4176.923, 4205.128, 4064.615, 4133.333, 4145.128, 0, 0, []
1630404411.4099, 60, 0, 4179.487, 4222.051, 4070.256, 4137.436, 4149.744, 0, 0, []
1630404411.4177, 61, 0, 4177.436, 4222.051, 4082.564, 4125.128, 4148.205, 0, 0, []
1630404411.4256, 62, 0, 4184.615, 4189.744, 4055.385, 4118.974, 4161.538, 0, 0, []
1630404411.4334, 63, 0, 4198.974, 4188.205, 4084.103, 4125.128, 4177.949, 0, 0, []
1630404411.4412, 64, 0, 4226.154, 4198.974, 4077.436, 4134.359, 4198.462, 450, 0, []
1630404411.449, 65, 0, 4248.718, 4178.462, 4066.154, 4136.923, 4225.641, 450, 0, []
1630404411.4569, 66, 0, 4274.872, 4173.846, 4080, 4141.026, 4252.821, 16239, 0, []
1630404411.4648, 67, 0, 4323.59, 4213.846, 4065.128, 4141.026, 4291.795, 450, 0, []
1630404411.4727, 68, 0, 4347.179, 4221.538, 4091.795, 4130.256, 4321.538, 16143, 0, []
1630404411.4805, 69, 0, 4343.077, 4184.103, 4080.513, 4134.359, 4321.026, 450, 0, []
1630404411.4883, 70, 0, 4344.103, 4181.026, 4069.744, 4137.949, 4312.308, 186, 0, []
1630404411.4963, 71, 0, 4337.949, 4206.667, 4086.154, 4122.051, 4311.282, 450, 0, []
1630404411.5042, 72, 0, 4317.949, 4182.564, 4055.385, 4124.615, 4295.385, 450, 0, []
1630404411.5121, 73, 0, 4291.282, 4154.359, 4072.308, 4131.282, 4261.538, 16207, 0, []
1630404411.52, 74, 0, 4270.256, 4182.564, 4069.744, 4120, 4248.718, 450, 0, []
1630404411.5279, 75, 0, 4258.974, 4185.641, 4057.949, 4118.462, 4251.795, 16234, 0, []
1630404411.5359, 76, 0, 4256.41, 4160.513, 4091.282, 4125.641, 4244.103, 450, 0, []
1630404411.5438, 77, 0, 4255.385, 4182.051, 4072.308, 4125.128, 4237.436, 450, 0, []
1630404411.5518, 78, 0, 4241.538, 4201.538, 4078.462, 4124.103, 4228.718, 450, 0, []
1630404411.5597, 79, 0, 4227.179, 4186.154, 4081.026, 4133.846, 4215.897, 16234, 0, []
1630404411.5674, 80, 0, 4217.436, 4178.974, 4064.103, 4139.487, 4205.641, 450, 0, []
1630404411.5753, 81, 0, 4212.821, 4192.821, 4086.667, 4137.436, 4199.487, 450, 0, []
1630404411.5831, 82, 0, 4210.256, 4186.154, 4063.077, 4141.026, 4196.923, 450, 0, []
1630404411.591, 83, 0, 4195.385, 4154.872, 4065.641, 4131.795, 4177.436, 16234, 0, []
1630404411.5988, 84, 0, 4191.282, 4156.923, 4080, 4122.051, 4174.872, 450, 0, []
1630404411.6066, 85, 0, 4196.41, 4174.359, 4067.179, 4127.179, 4185.128, 450, 0, []
1630404411.6144, 86, 0, 4178.974, 4145.641, 4082.564, 4115.897, 4161.026, 450, 0, []
1630404411.6223, 87, 0, 4158.974, 4122.564, 4063.59, 4107.692, 4135.897, 16234, 0, []
1630404411.6301, 88, 0, 4151.282, 4138.974, 4069.231, 4113.846, 4125.641, 450, 0, []
1630404411.638, 89, 0, 4149.231, 4161.026, 4070.769, 4116.41, 4123.077, 450, 0, []
1630404411.6457, 90, 0, 4152.821, 4167.179, 4044.615, 4120.513, 4130.256, 450, 0, []
1630404411.6537, 91, 0, 4151.282, 4143.077, 4078.974, 4114.359, 4125.641, 16234, 0, []
1630404411.6616, 92, 0, 4149.744, 4141.538, 4066.154, 4114.872, 4117.949, 450, 0, []
1630404411.6696, 93, 0, 4154.872, 4161.538, 4061.538, 4127.692, 4122.051, 450, 0, []
1630404411.6775, 94, 0, 4164.615, 4149.231, 4080.513, 4140, 4135.385, 450, 0, []
1630404411.6854, 95, 0, 4172.308, 4141.538, 4054.872, 4144.615, 4139.487, 16234, 0, []
1630404411.6933, 96, 0, 4169.231, 4166.154, 4072.308, 4141.026, 4134.359, 450, 0, []
1630404411.7013, 97, 0, 4172.821, 4177.949, 4070.769, 4142.051, 4141.026, 450, 0, []
1630404411.7092, 98, 0, 4167.692, 4146.667, 4072.821, 4134.872, 4141.026, 450, 0, []
1630404411.7172, 99, 0, 4154.872, 4156.41, 4090.256, 4127.692, 4130.256, 16234, 0, []
1630404411.725, 100, 0, 4154.359, 4231.795, 4066.154, 4136.923, 4134.359, 450, 0, []
1630404411.7328, 101, 0, 4145.128, 4248.205, 4081.538, 4131.282, 4128.718, 450, 0, []
1630404411.7407, 102, 0, 4126.667, 4223.59, 4065.641, 4114.872, 4108.718, 450, 0, []
1630404411.7485, 103, 0, 4125.128, 4236.923, 4056.41, 4112.821, 4098.462, 16234, 0, []
1630404411.7564, 104, 0, 4135.897, 4116.41, 4082.051, 4116.923, 4104.615, 450, 0, []
1630404411.7641, 105, 0, 4132.308, 3811.282, 4055.897, 4118.462, 4110.769, 450, 0, []
1630404411.772, 106, 0, 4115.897, 3590.256, 4067.179, 4113.333, 4094.359, 450, 0, []
1630404411.7798, 107, 0, 4115.897, 3524.103, 4058.462, 4104.103, 4088.718, 16234, 0, []
1630404411.7877, 108, 0, 4123.077, 3468.718, 4035.897, 4088.718, 4100.513, 450, 0, []
1630404411.7955, 109, 0, 4113.333, 3414.872, 4063.077, 4079.487, 4091.282, 450, 0, []
1630404411.8034, 110, 0, 4098.974, 3370.769, 4054.872, 4088.205, 4077.949, 450, 0, []
1630404411.8111, 111, 0, 4099.487, 3322.051, 4072.308, 4095.897, 4077.436, 16234, 0, []
1630404411.8191, 112, 0, 4108.205, 3303.077, 4068.718, 4097.436, 4083.59, 450, 0, []
1630404411.827, 113, 0, 4105.641, 3282.564, 4052.821, 4100, 4080, 450, 0, []
1630404411.835, 114, 0, 4101.026, 3251.795, 4088.718, 4108.205, 4075.897, 450, 0, []
1630404411.8429, 115, 0, 4106.667, 3229.231, 4072.308, 4113.333, 4082.051, 16234, 0, []
1630404411.8508, 116, 0, 4111.795, 3187.179, 4080, 4106.154, 4082.051, 450, 0, []
1630404411.8587, 117, 0, 4121.026, 3177.949, 4088.718, 4107.179, 4089.231, 450, 0, []
1630404411.8667, 118, 0, 4119.487, 3195.897, 4065.128, 4115.385, 4091.282, 450, 0, []
1630404411.8746, 119, 0, 4110.769, 3152.308, 4085.641, 4111.282, 4076.41, 16234, 0, []
1630404411.8824, 120, 0, 4131.282, 3115.897, 4071.795, 4112.821, 4091.282, 450, 0, []
1630404411.8902, 121, 0, 4144.615, 3132.821, 4078.462, 4112.821, 4112.308, 450, 0, []
1630404411.898, 122, 0, 4122.051, 3139.487, 4088.205, 4107.179, 4097.949, 450, 0, []
1630404411.9059, 123, 0, 4111.282, 3122.564, 4068.205, 4120.513, 4083.59, 16234, 0, []
1630404411.9137, 124, 0, 4117.436, 3097.436, 4089.744, 4126.667, 4085.641, 450, 0, []
1630404411.9216, 125, 0, 4113.846, 3084.615, 4064.615, 4122.051, 4090.769, 450, 0, []
1630404411.9293, 126, 0, 4103.59, 3093.333, 4062.564, 4127.179, 4084.103, 450, 0, []
1630404411.9372, 127, 0, 4107.692, 3091.795, 4084.103, 4133.846, 4080, 16234, 0, []
1630404411.945, 128, 0, 4119.487, 3065.641, 4061.538, 4123.077, 4089.744, 450, 0, []
1630404411.9529, 0, 0, 4112.821, 3047.692, 4080.513, 4101.026, 4083.59, 450, 0, []
1630404411.9607, 1, 0, 4103.59, 3049.744, 4062.051, 4100.513, 4069.744, 450, 0, []
1630404411.9686, 2, 0, 4098.462, 3041.026, 4046.154, 4108.718, 4061.026, 16225, 0, []
1630404411.9765, 3, 0, 4099.487, 3033.846, 4066.667, 4111.795, 4057.949, 450, 0, []
1630404411.9845, 4, 0, 4118.974, 3024.103, 4055.385, 4117.436, 4074.872, 16184, 0, []
1630404411.9924, 5, 0, 4138.974, 3020, 4086.667, 4117.436, 4097.949, 450, 0, []
1630404412.0004, 6, 0, 4138.462, 3048.718, 4078.974, 4121.026, 4102.051, 192, 0, []
1630404412.0083, 7, 0, 4120, 3054.359, 4062.051, 4125.641, 4083.59, 450, 0, []
1630404412.0162, 8, 0, 4116.923, 3026.154, 4090.256, 4123.59, 4073.333, 450, 0, []
1630404412.0241, 9, 0, 4121.538, 3034.872, 4072.308, 4120.513, 4084.103, 16208, 0, []
1630404412.0321, 10, 0, 4107.692, 3067.692, 4077.949, 4120.513, 4086.667, 450, 0, []
1630404412.04, 11, 0, 4105.641, 3064.615, 4069.744, 4131.795, 4083.077, 16216, 0, []
1630404412.0478, 12, 0, 4115.385, 3034.872, 4070.256, 4135.897, 4082.564, 450, 0, []
1630404412.0556, 13, 0, 4122.051, 3024.103, 4098.974, 4121.026, 4089.231, 450, 0, []
1630404412.0634, 14, 0, 4142.051, 3040.513, 4068.718, 4124.615, 4111.282, 450, 0, []
1630404412.0713, 15, 0, 4153.846, 3065.128, 4085.128, 4139.487, 4118.974, 16216, 0, []
1630404412.0791, 16, 0, 4148.205, 3087.179, 4091.282, 4148.718, 4111.795, 0, 0, []
1630404412.087, 17, 0, 4149.231, 3070.256, 4072.308, 4158.462, 4109.744, 0, 0, []
1630404412.0947, 18, 0, 4160.513, 3037.949, 4100.513, 4159.487, 4120, 0, 0, []
1630404412.1026, 19, 0, 4172.821, 3062.051, 4078.462, 4158.462, 4140.513, 0, 0, []
1630404412.1104, 20, 0, 4165.128, 3100, 4073.333, 4157.436, 4133.333, 0, 0, []
1630404412.1184, 21, 0, 4141.538, 3095.385, 4071.795, 4157.949, 4111.282, 0, 0, []
1630404412.1263, 22, 0, 4129.744, 3078.462, 4053.846, 4163.077, 4098.974, 0, 0, []
1630404412.1342, 23, 0, 4134.359, 3074.872, 4076.923, 4164.615, 4094.359, 0, 0, []
1630404412.1421, 24, 0, 4159.487, 3089.231, 4065.641, 4166.667, 4117.436, 0, 0, []
1630404412.1501, 25, 0, 4180, 3108.718, 4085.128, 4163.077, 4142.564, 0, 0, []
1630404412.158, 26, 0, 4180, 3130.256, 4100.513, 4157.436, 4147.179, 0, 0, []
1630404412.166, 27, 0, 4184.615, 3138.974, 4072.308, 4163.59, 4148.718, 0, 0, []
1630404412.1738, 28, 0, 4189.231, 3113.333, 4090.256, 4165.641, 4149.744, 0, 0, []
1630404412.1818, 29, 0, 4187.179, 3105.641, 4075.385, 4165.641, 4149.744, 0, 0, []
1630404412.1897, 30, 0, 4181.538, 3134.359, 4078.462, 4166.154, 4144.615, 0, 0, []
1630404412.1976, 31, 0, 4174.872, 3126.667, 4093.846, 4156.41, 4134.872, 0, 0, []
1630404412.2055, 32, 0, 4177.949, 3103.077, 4070.256, 4157.949, 4138.974, 0, 0, []
1630404412.2132, 33, 0, 4184.615, 3124.103, 4093.846, 4165.641, 4155.385, 0, 0, []
1630404412.2211, 34, 0, 4185.641, 3148.205, 4074.872, 4163.59, 4157.949, 0, 0, []
1630404412.2289, 35, 0, 4170.769, 3138.974, 4058.462, 4154.872, 4138.462, 0, 0, []
1630404412.2368, 36, 0, 4160, 3137.949, 4080, 4155.385, 4130.256, 0, 0, []
1630404412.2446, 37, 0, 4162.564, 3153.333, 4064.615, 4167.692, 4142.051, 0, 0, []
1630404412.2526, 38, 0, 4155.897, 3170.256, 4078.974, 4167.692, 4133.333, 0, 0, []
1630404412.2604, 39, 0, 4158.974, 3175.897, 4065.641, 4171.795, 4125.641, 0, 0, []
1630404412.2683, 40, 0, 4170.256, 3158.974, 4066.667, 4177.436, 4135.385, 0, 0, []
1630404412.2761, 41, 0, 4170.769, 3158.974, 4092.821, 4162.051, 4135.385, 0, 0, []
1630404412.2841, 42, 0, 4177.949, 3181.026, 4061.026, 4150.769, 4138.462, 0, 0, []
1630404412.292, 43, 0, 4194.359, 3180.513, 4080, 4157.949, 4150.769, 0, 0, []
1630404412.2999, 44, 0, 4189.231, 3181.026, 4076.923, 4166.154, 4153.846, 0, 0, []
1630404412.3078, 45, 0, 4166.667, 3199.487, 4052.821, 4158.974, 4136.923, 0, 0, []
1630404412.3158, 46, 0, 4168.718, 3204.615, 4078.974, 4156.41, 4133.333, 0, 0, []
1630404412.3237, 47, 0, 4188.718, 3199.487, 4069.231, 4169.744, 4151.795, 0, 0, []
1630404412.3317, 48, 0, 4190.769, 3187.692, 4089.744, 4172.308, 4152.821, 0, 0, []
1630404412.3395, 49, 0, 4195.897, 3204.615, 4096.41, 4177.949, 4154.872, 0, 0, []
1630404412.3474, 50, 0, 4203.59, 3245.641, 4081.026, 4195.385, 4164.615, 0, 0, []
1630404412.3553, 51, 0, 4199.487, 3249.231, 4101.026, 4198.462, 4163.59, 0, 0, []
1630404412.3631, 52, 0, 4206.667, 3236.923, 4075.897, 4190.256, 4164.103, 0, 0, []
1630404412.371, 53, 0, 4201.538, 3250.256, 4082.051, 4173.846, 4155.385, 0, 0, []
1630404412.3787, 54, 0, 4183.59, 3267.692, 4084.103, 4163.59, 4144.615, 0, 0, []
1630404412.3866, 55, 0, 4187.692, 3241.538, 4063.59, 4167.179, 4148.718, 0, 0, []
1630404412.3944, 56, 0, 4201.026, 3215.897, 4096.923, 4169.744, 4160.513, 0, 0, []
1630404412.4023, 57, 0, 4198.974, 3256.923, 4078.974, 4168.718, 4171.282, 0, 0, []
1630404412.4101, 58, 0, 4190.769, 3295.385, 4075.385, 4164.103, 4165.128, 0, 0, []
1630404412.4179, 59, 0, 4197.949, 3286.154, 4088.718, 4164.103, 4155.897, 0, 0, []
1630404412.4257, 60, 0, 4197.949, 3274.872, 4067.692, 4161.538, 4155.897, 0, 0, []
1630404412.4337, 61, 0, 4182.051, 3288.205, 4083.59, 4150.769, 4154.872, 0, 0, []
1630404412.4416, 62, 0, 4191.795, 3308.718, 4065.641, 4155.385, 4162.051, 0, 0, []
1630404412.4495, 63, 0, 4205.641, 3306.667, 4065.128, 4157.949, 4169.744, 0, 0, []
1630404412.4573, 64, 0, 4195.897, 3297.436, 4072.821, 4144.103, 4162.564, 450, 0, []
1630404412.4652, 65, 0, 4186.154, 3313.333, 4046.154, 4137.436, 4151.795, 450, 0, []
1630404412.4731, 66, 0, 4177.949, 3325.641, 4070.769, 4132.821, 4140.513, 16231, 0, []
1630404412.4809, 67, 0, 4165.641, 3309.744, 4061.026, 4130.256, 4131.795, 450, 0, []
1630404412.4889, 68, 0, 4156.923, 3301.026, 4064.615, 4134.359, 4121.538, 16186, 0, []
1630404412.4968, 69, 0, 4162.051, 3328.205, 4097.436, 4138.974, 4123.077, 450, 0, []
1630404412.5046, 70, 0, 4184.103, 3342.564, 4081.026, 4152.308, 4148.718, 215, 0, []
1630404412.5124, 71, 0, 4198.462, 3326.154, 4101.538, 4161.538, 4166.154, 450, 0, []
1630404412.5203, 72, 0, 4200, 3336.41, 4086.667, 4162.564, 4169.744, 450, 0, []
1630404412.5281, 73, 0, 4204.103, 3353.846, 4075.385, 4165.128, 4173.333, 16185, 0, []
1630404412.536, 74, 0, 4203.077, 3346.154, 4103.077, 4163.59, 4174.359, 450, 0, []
1630404412.5437, 75, 0, 4194.359, 3352.308, 4076.41, 4158.462, 4170.769, 16235, 0, []
1630404412.5516, 76, 0, 4180, 3373.333, 4076.923, 4141.538, 4154.359, 450, 0, []
1630404412.5594, 77, 0, 4175.897, 3382.564, 4071.795, 4138.974, 4150.256, 450, 0, []
1630404412.5673, 78, 0, 4181.026, 3376.923, 4076.41, 4155.385, 4161.538, 450, 0, []
1630404412.5751, 79, 0, 4171.282, 3380.513, 4096.923, 4150.256, 4149.231, 16235, 0, []
1630404412.583, 80, 0, 4156.41, 3404.615, 4058.462, 4133.846, 4126.667, 450, 0, []
1630404412.5909, 81, 0, 4154.359, 3412.821, 4080.513, 4132.821, 4123.077, 450, 0, []
1630404412.5989, 82, 0, 4166.154, 3398.974, 4089.744, 4143.59, 4134.359, 450, 0, []
1630404412.6068, 83, 0, 4167.179, 3391.795, 4064.103, 4144.103, 4133.846, 16235, 0, []
1630404412.6148, 84, 0, 4164.615, 3409.744, 4093.846, 4135.897, 4124.103, 450, 0, []
1630404412.6226, 85, 0, 4180, 3432.821, 4083.59, 4142.564, 4138.974, 450, 0, []
1630404412.6306, 86, 0, 4184.103, 3433.846, 4084.615, 4144.103, 4149.744, 450, 0, []
1630404412.6385, 87, 0, 4177.436, 3438.974, 4085.128, 4144.615, 4147.179, 16235, 0, []
1630404412.6465, 88, 0, 4174.359, 3445.641, 4065.128, 4150.769, 4145.128, 450, 0, []
1630404412.6544, 89, 0, 4166.667, 3447.179, 4085.641, 4140.513, 4140, 450, 0, []
1630404412.6623, 90, 0, 4168.718, 3472.308, 4073.333, 4135.897, 4140, 450, 0, []
1630404412.6702, 91, 0, 4171.282, 3501.026, 4092.308, 4150.769, 4140, 16235, 0, []
1630404412.678, 92, 0, 4178.462, 3504.103, 4106.667, 4167.179, 4150.256, 450, 0, []
1630404412.6859, 93, 0, 4191.795, 3489.744, 4076.41, 4169.744, 4164.615, 450, 0, []
1630404412.6937, 94, 0, 4178.462, 3474.872, 4095.385, 4160, 4151.795, 450, 0, []
1630404412.7016, 95, 0, 4158.462, 3471.282, 4076.41, 4153.846, 4132.308, 16235, 0, []
1630404412.7093, 96, 0, 4156.41, 3480.513, 4074.359, 4147.692, 4127.179, 450, 0, []
1630404412.7172, 97, 0, 4164.103, 3479.487, 4091.282, 4145.128, 4132.308, 450, 0, []
1630404412.725, 98, 0, 4168.718, 3471.282, 4069.231, 4150.769, 4143.077, 450, 0, []
1630404412.733, 99, 0, 4163.077, 3485.128, 4088.718, 4146.154, 4142.564, 16235, 0, []
1630404412.7409, 100, 0, 4153.333, 3507.692, 4065.128, 4135.897, 4134.872, 450, 0, []
1630404412.7488, 101, 0, 4144.615, 3502.051, 4053.333, 4125.128, 4125.128, 450, 0, []
1630404412.7567, 102, 0, 4151.282, 3499.487, 4084.615, 4128.205, 4128.205, 450, 0, []
1630404412.7647, 103, 0, 4154.359, 3520.513, 4075.385, 4144.615, 4140, 16235, 0, []
1630404412.7726, 104, 0, 4133.846, 3511.795, 4089.744, 4143.59, 4125.128, 450, 0, []
1630404412.7806, 105, 0, 4134.359, 3507.179, 4076.923, 4140, 4117.949, 450, 0, []
1630404412.7884, 106, 0, 4160, 3538.462, 4076.41, 4146.667, 4133.846, 450, 0, []
1630404412.7964, 107, 0, 4168.718, 3553.333, 4103.59, 4148.205, 4144.103, 16235, 0, []
1630404412.8043, 108, 0, 4167.692, 3541.026, 4086.667, 4158.462, 4148.718, 450, 0, []
1630404412.8123, 109, 0, 4166.667, 3548.205, 4103.59, 4168.205, 4146.154, 450, 0, []
1630404412.8202, 110, 0, 4169.744, 3579.487, 4092.308, 4163.077, 4143.077, 450, 0, []
1630404412.8279, 111, 0, 4174.872, 3571.282, 4083.59, 4153.333, 4147.692, 16235, 0, []
1630404412.8358, 112, 0, 4175.385, 3547.692, 4111.795, 4150.769, 4153.846, 450, 0, []
1630404412.8436, 113, 0, 4177.949, 3572.308, 4086.667, 4157.949, 4159.487, 450, 0, []
1630404412.8515, 114, 0, 4175.385, 3593.846, 4104.615, 4156.923, 4154.872, 450, 0, []
1630404412.8593, 115, 0, 4166.667, 3585.128, 4102.051, 4151.282, 4149.744, 16235, 0, []
1630404412.8671, 116, 0, 4156.923, 3589.744, 4067.692, 4144.615, 4146.667, 450, 0, []
1630404412.8749, 117, 0, 4145.128, 3600.513, 4086.667, 4131.282, 4137.436, 450, 0, []
1630404412.8828, 118, 0, 4146.667, 3603.077, 4072.821, 4136.41, 4139.487, 450, 0, []
1630404412.8906, 119, 0, 4163.077, 3613.333, 4092.308, 4153.333, 4160, 16235, 0, []
1630404412.8986, 120, 0, 4187.179, 3611.795, 4102.051, 4158.462, 4181.538, 450, 0, []
1630404412.9064, 121, 0, 4206.667, 3602.051, 4080, 4154.872, 4193.846, 450, 0, []
1630404412.9144, 122, 0, 4232.821, 3627.179, 4100.513, 4153.333, 4217.949, 450, 0, []
1630404412.9223, 123, 0, 4272.821, 3648.718, 4078.462, 4152.308, 4267.692, 16235, 0, []
1630404412.9303, 124, 0, 4301.538, 3637.436, 4092.821, 4156.41, 4306.154, 450, 0, []
1630404412.9382, 125, 0, 4326.154, 3654.872, 4113.333, 4171.282, 4320.513, 450, 0, []
1630404412.9462, 126, 0, 4337.436, 3677.436, 4085.128, 4168.718, 4331.795, 450, 0, []
1630404412.954, 127, 0, 4335.897, 3654.872, 4105.641, 4157.949, 4341.538, 16235, 0, []
1630404412.962, 128, 0, 4350.256, 3646.667, 4096.41, 4174.872, 4347.692, 450, 0, []
1630404412.9699, 0, 0, 4348.718, 3670.769, 4092.821, 4177.949, 4335.897, 450, 0, []
1630404412.9777, 1, 0, 4331.795, 3683.59, 4102.564, 4162.564, 4323.59, 450, 0, []
1630404412.9856, 2, 0, 4327.179, 3684.615, 4080.513, 4162.564, 4323.59, 16225, 0, []
1630404412.9933, 3, 0, 4316.41, 3688.205, 4099.487, 4161.026, 4308.205, 450, 0, []
1630404413.0012, 4, 0, 4305.128, 3702.564, 4090.769, 4170.769, 4300.513, 16187, 0, []
1630404413.009, 5, 0, 4296.41, 3714.359, 4097.436, 4186.667, 4294.872, 450, 0, []
1630404413.0169, 6, 0, 4273.846, 3716.41, 4112.308, 4177.436, 4274.872, 225, 0, []
1630404413.0247, 7, 0, 4256.923, 3716.923, 4084.615, 4170.769, 4270.256, 450, 0, []
1630404413.0325, 8, 0, 4253.846, 3712.821, 4112.308, 4171.795, 4271.282, 450, 0, []
1630404413.0403, 9, 0, 4262.051, 3728.205, 4111.282, 4179.487, 4274.872, 16171, 0, []
1630404413.0483, 10, 0, 4270.769, 3727.692, 4107.692, 4194.872, 4281.026, 450, 0, []
1630404413.0562, 11, 0, 4264.103, 3713.846, 4117.949, 4189.231, 4272.821, 16264, 0, []
1630404413.0642, 12, 0, 4264.615, 3736.923, 4073.333, 4169.744, 4275.897, 450, 0, []
1630404413.072, 13, 0, 4295.897, 3748.205, 4087.692, 4156.923, 4297.949, 450, 0, []
1630404413.08, 14, 0, 4336.923, 3727.179, 4092.308, 4153.846, 4318.974, 450, 0, []
1630404413.0879, 15, 0, 4348.718, 3726.667, 4085.128, 4160.513, 4334.359, 16264, 0, []
1630404413.0959, 16, 0, 4359.487, 3752.821, 4115.385, 4180, 4360.513, 0, 0, []
1630404413.1038, 17, 0, 4394.872, 3764.103, 4090.769, 4193.333, 4381.538, 0, 0, []
1630404413.1117, 18, 0, 4395.385, 3764.615, 4094.872, 4174.359, 4370.256, 0, 0, []
1630404413.1196, 19, 0, 4380.513, 3780, 4104.615, 4176.41, 4372.821, 0, 0, []
1630404413.1276, 20, 0, 4392.821, 3785.641, 4097.436, 4205.128, 4374.872, 0, 0, []
1630404413.1355, 21, 0, 4381.538, 3773.846, 4108.205, 4189.231, 4344.615, 0, 0, []
1630404413.1433, 22, 0, 4351.795, 3774.872, 4078.462, 4162.051, 4329.231, 0, 0, []
1630404413.1511, 23, 0, 4340, 3778.974, 4096.923, 4167.179, 4320, 0, 0, []
1630404413.1589, 24, 0, 4322.051, 3782.051, 4103.59, 4180, 4297.949, 0, 0, []
1630404413.1668, 25, 0, 4300.513, 3810.769, 4085.128, 4186.154, 4287.179, 0, 0, []
1630404413.1746, 26, 0, 4298.462, 3826.667, 4118.974, 4177.436, 4291.795, 0, 0, []
1630404413.1825, 27, 0, 4295.385, 3794.872, 4096.41, 4170.256, 4291.282, 0, 0, []
1630404413.1903, 28, 0, 4278.462, 3780.513, 4090.256, 4176.41, 4274.872, 0, 0, []
1630404413.1982, 29, 0, 4256.923, 3815.897, 4100.513, 4182.051, 4254.359, 0, 0, []
1630404413.2061, 30, 0, 4224.103, 3826.154, 4075.897, 4167.692, 4225.641, 0, 0, []
1630404413.2141, 31, 0, 4203.077, 3806.667, 4090.256, 4155.897, 4203.59, 0, 0, []
1630404413.222, 32, 0, 4215.897, 3821.538, 4079.487, 4171.282, 4212.821, 0, 0, []
1630404413.23, 33, 0, 4208.718, 3839.487, 4096.923, 4174.359, 4215.385, 0, 0, []
1630404413.2378, 34, 0, 4185.641, 3828.718, 4109.744, 4161.026, 4192.308, 0, 0, []
1630404413.2458, 35, 0, 4183.59, 3815.385, 4070.256, 4158.462, 4181.026, 0, 0, []
1630404413.2537, 36, 0, 4184.615, 3823.077, 4089.744, 4161.026, 4180, 0, 0, []
1630404413.2617, 37, 0, 4184.103, 3847.179, 4084.103, 4163.59, 4183.59, 0, 0, []
1630404413.2696, 38, 0, 4181.538, 3842.564, 4075.385, 4161.538, 4185.128, 0, 0, []
1630404413.2775, 39, 0, 4180.513, 3814.359, 4086.667, 4157.436, 4180, 0, 0, []
1630404413.2854, 40, 0, 4182.564, 3830.769, 4069.744, 4161.538, 4173.846, 0, 0, []
1630404413.2932, 41, 0, 4176.923, 3872.821, 4101.026, 4161.026, 4164.615, 0, 0, []
1630404413.3011, 42, 0, 4169.744, 3873.846, 4097.436, 4158.462, 4159.487, 0, 0, []
1630404413.3089, 43, 0, 4157.949, 3857.949, 4086.154, 4156.41, 4149.744, 0, 0, []
1630404413.3167, 44, 0, 4141.026, 3875.897, 4090.256, 4148.205, 4130.769, 0, 0, []
1630404413.3245, 45, 0, 4133.333, 3891.795, 4053.333, 4150.256, 4124.615, 0, 0, []
1630404413.3324, 46, 0, 4132.308, 3876.923, 4081.026, 4153.846, 4120.513, 0, 0, []
1630404413.3402, 47, 0, 4135.897, 3880, 4086.154, 4156.41, 4124.103, 0, 0, []
1630404413.3481, 48, 0, 4144.615, 3907.179, 4075.385, 4158.462, 4135.385, 0, 0, []
1630404413.3558, 49, 0, 4148.718, 3909.744, 4110.769, 4164.615, 4140.513, 0, 0, []
1630404413.3638, 50, 0, 4142.051, 3897.949, 4094.872, 4177.436, 4136.41, 0, 0, []
1630404413.3717, 51, 0, 4128.205, 3892.821, 4098.462, 4172.821, 4120, 0, 0, []
1630404413.3797, 52, 0, 4135.897, 3898.974, 4090.769, 4170.256, 4121.026, 0, 0, []
1630404413.3876, 53, 0, 4141.026, 3894.359, 4074.359, 4174.359, 4130.256, 0, 0, []
1630404413.3956, 54, 0, 4117.436, 3877.949, 4101.538, 4161.026, 4117.949, 0, 0, []
1630404413.4034, 55, 0, 4110.769, 3890.256, 4085.641, 4153.846, 4111.282, 0, 0, []
1630404413.4114, 56, 0, 4119.487, 3897.436, 4097.436, 4154.359, 4109.744, 0, 0, []
1630404413.4193, 57, 0, 4119.487, 3883.077, 4096.923, 4148.718, 4109.231, 0, 0, []
