Timestamp, COUNTER, INTERPOLATED, AF3, T7, Pz, T8, AF4, RAW_CQ, MARKER_HARDWARE, MARKERS
1630238132.9311, 33, 0, 4187.179, 4419.487, 4073.846, 4169.231, 4110.769, 0, 0, []
1630238132.939, 34, 0, 4173.333, 4421.026, 4090.256, 4168.718, 4126.154, 0, 0, []
1630238132.9468, 35, 0, 4166.154, 4445.128, 4076.923, 4171.282, 4129.744, 0, 0, []
1630238132.9547, 36, 0, 4177.436, 4435.385, 4071.282, 4170.769, 4117.436, 0, 0, []
1630238132.9624, 37, 0, 4169.744, 4439.487, 4077.436, 4167.692, 4121.538, 0, 0, []
1630238132.9703, 38, 0, 4160, 4455.385, 4059.487, 4157.949, 4127.692, 0, 0, []
1630238132.9781, 39, 0, 4164.615, 4430.769, 4077.949, 4165.128, 4111.282, 0, 0, []
1630238132.986, 40, 0, 4154.872, 4390.256, 4075.385, 4162.564, 4104.103, 0, 0, []
1630238132.9938, 41, 0, 4147.692, 4381.538, 4064.103, 4159.487, 4116.41, 0, 0, []
1630238133.0016, 42, 0, 4168.718, 4383.59, 4066.667, 4158.974, 4121.026, 0, 0, []
1630238133.0094, 43, 0, 4174.359, 4357.949, 4053.846, 4147.179, 4115.897, 0, 0, []
1630238133.0173, 44, 0, 4161.538, 4345.641, 4069.231, 4158.974, 4117.949, 0, 0, []
1630238133.0251, 45, 0, 4172.308, 4361.026, 4062.564, 4160.513, 4124.103, 0, 0, []
1630238133.0331, 46, 0, 4176.923, 4368.205, 4062.051, 4161.538, 4131.282, 0, 0, []
1630238133.0409, 47, 0, 4172.821, 4362.564, 4083.59, 4187.179, 4151.795, 0, 0, []
1630238133.0489, 48, 0, 4186.154, 4358.974, 4070.256, 4186.667, 4156.923, 0, 0, []
1630238133.0568, 49, 0, 4183.59, 4363.077, 4083.077, 4177.949, 4143.59, 0, 0, []
1630238133.0648, 50, 0, 4168.718, 4366.154, 4081.538, 4176.41, 4148.205, 0, 0, []
1630238133.0727, 51, 0, 4177.949, 4358.462, 4077.436, 4180.513, 4153.333, 0, 0, []
1630238133.0806, 52, 0, 4191.282, 4359.487, 4101.026, 4183.077, 4152.308, 0, 0, []
1630238133.0885, 53, 0, 4196.41, 4374.359, 4091.795, 4170.769, 4171.282, 0, 0, []
1630238133.0965, 54, 0, 4202.564, 4353.333, 4091.795, 4178.974, 4175.385, 0, 0, []
1630238133.1044, 55, 0, 4192.308, 4313.846, 4071.282, 4163.077, 4146.154, 0, 0, []
1630238133.1122, 56, 0, 4175.385, 4318.974, 4060.513, 4143.59, 4142.051, 0, 0, []
1630238133.12, 57, 0, 4183.077, 4339.487, 4091.795, 4172.308, 4162.564, 0, 0, []
1630238133.1278, 58, 0, 4191.795, 4336.41, 4073.333, 4167.692, 4155.385, 0, 0, []
1630238133.1357, 59, 0, 4186.154, 4337.949, 4069.231, 4154.872, 4152.821, 0, 0, []
1630238133.1435, 60, 0, 4194.359, 4349.231, 4083.077, 4178.974, 4175.385, 0, 0, []
1630238133.1514, 61, 0, 4206.154, 4347.179, 4081.026, 4191.282, 4173.846, 0, 0, []
1630238133.1592, 62, 0, 4192.308, 4344.615, 4083.59, 4176.923, 4162.564, 0, 0, []
1630238133.167, 63, 0, 4177.949, 4339.487, 4061.026, 4169.744, 4170.769, 0, 0, []
1630238133.1748, 64, 0, 4184.615, 4324.103, 4061.538, 4188.205, 4161.538, 450, 0, []
1630238133.1828, 65, 0, 4187.179, 4318.974, 4067.179, 4176.923, 4146.154, 450, 0, []
1630238133.1907, 66, 0, 4171.795, 4304.103, 4059.487, 4155.385, 4150.769, 16189, 0, []
1630238133.1987, 67, 0, 4162.051, 4283.59, 4056.923, 4167.179, 4141.026, 450, 0, []
1630238133.2065, 68, 0, 4168.718, 4273.333, 4044.103, 4169.744, 4123.59, 16088, 0, []
1630238133.2145, 69, 0, 4170.769, 4264.103, 4066.154, 4169.231, 4135.385, 450, 0, []
1630238133.2224, 70, 0, 4170.769, 4261.538, 4071.282, 4170.769, 4145.128, 16066, 0, []
1630238133.2304, 71, 0, 4177.949, 4267.179, 4050.769, 4164.103, 4137.436, 450, 0, []
1630238133.2383, 72, 0, 4179.487, 4244.615, 4070.769, 4169.231, 4149.744, 450, 0, []
1630238133.2462, 73, 0, 4180.513, 4197.436, 4068.205, 4171.795, 4165.128, 16063, 0, []
1630238133.2541, 74, 0, 4177.436, 4190.256, 4066.667, 4164.615, 4140, 450, 0, []
1630238133.2619, 75, 0, 4157.949, 4222.051, 4064.103, 4148.205, 4110.769, 16195, 0, []
1630238133.2698, 76, 0, 4155.385, 4221.538, 4042.564, 4144.103, 4124.103, 450, 0, []
1630238133.2776, 77, 0, 4174.872, 4176.41, 4058.462, 4166.154, 4140, 450, 0, []
1630238133.2854, 78, 0, 4163.077, 4161.026, 4050.256, 4155.385, 4124.103, 450, 0, []
1630238133.2932, 79, 0, 4146.154, 4191.282, 4044.103, 4143.077, 4115.385, 16195, 0, []
1630238133.3011, 80, 0, 4173.333, 4229.231, 4068.205, 4170.256, 4124.615, 450, 0, []
1630238133.3089, 81, 0, 4178.974, 4273.333, 4057.949, 4168.205, 4125.128, 450, 0, []
1630238133.3168, 82, 0, 4151.282, 4294.872, 4065.128, 4152.821, 4126.667, 450, 0, []
1630238133.3245, 83, 0, 4158.974, 4318.974, 4063.077, 4158.462, 4126.667, 16195, 0, []
1630238133.3325, 84, 0, 4173.846, 4376.923, 4062.051, 4169.231, 4122.564, 450, 0, []
1630238133.3404, 85, 0, 4157.949, 4382.564, 4082.051, 4174.872, 4126.667, 450, 0, []
1630238133.3484, 86, 0, 4156.41, 4353.333, 4065.128, 4173.333, 4122.564, 450, 0, []
1630238133.3563, 87, 0, 4171.282, 4387.179, 4068.718, 4177.949, 4119.487, 16195, 0, []
1630238133.3642, 88, 0, 4158.462, 4412.308, 4058.462, 4164.103, 4128.718, 450, 0, []
1630238133.3721, 89, 0, 4140.513, 4377.436, 4031.795, 4152.308, 4111.282, 450, 0, []
1630238133.3801, 90, 0, 4150.256, 4374.359, 4043.59, 4152.821, 4085.128, 450, 0, []
1630238133.388, 91, 0, 4155.385, 4407.179, 4051.795, 4135.897, 4094.359, 16195, 0, []
1630238133.396, 92, 0, 4148.718, 4430.769, 4065.128, 4153.333, 4100, 450, 0, []
1630238133.4038, 93, 0, 4151.795, 4436.41, 4056.41, 4174.359, 4092.308, 450, 0, []
1630238133.4116, 94, 0, 4152.308, 4379.487, 4060, 4175.385, 4107.179, 450, 0, []
1630238133.4195, 95, 0, 4151.795, 4296.41, 4070.256, 4186.667, 4117.436, 16195, 0, []
1630238133.4273, 96, 0, 4153.846, 4283.59, 4046.667, 4175.897, 4102.564, 450, 0, []
1630238133.4352, 97, 0, 4144.615, 4287.179, 4077.949, 4176.923, 4102.051, 450, 0, []
1630238133.4429, 98, 0, 4141.026, 4250.769, 4050.256, 4169.744, 4115.897, 450, 0, []
1630238133.4508, 99, 0, 4157.949, 4228.718, 4038.462, 4164.615, 4120, 16195, 0, []
1630238133.4587, 100, 0, 4175.897, 4253.333, 4114.359, 4191.795, 4135.385, 450, 0, []
1630238133.4666, 101, 0, 4188.718, 4296.41, 4061.026, 4172.308, 4156.923, 450, 0, []
1630238133.4745, 102, 0, 4196.41, 4310.256, 4046.667, 4166.667, 4151.282, 450, 0, []
1630238133.4824, 103, 0, 4190.256, 4286.154, 4087.692, 4174.359, 4146.667, 16195, 0, []
1630238133.4901, 104, 0, 4178.462, 4273.846, 4056.41, 4156.41, 4150.769, 450, 0, []
1630238133.4981, 105, 0, 4179.487, 4303.59, 4056.923, 4167.179, 4137.436, 450, 0, []
1630238133.506, 106, 0, 4182.051, 4308.205, 4047.692, 4154.872, 4126.667, 450, 0, []
1630238133.5139, 107, 0, 4163.59, 4270.769, 4053.333, 4140.513, 4129.744, 16195, 0, []
1630238133.5217, 108, 0, 4158.462, 4270.769, 4058.974, 4155.385, 4129.744, 450, 0, []
1630238133.5296, 109, 0, 4192.821, 4291.282, 4060, 4175.385, 4135.897, 450, 0, []
1630238133.5375, 110, 0, 4217.949, 4265.128, 4106.667, 4189.744, 4159.487, 450, 0, []
1630238133.5455, 111, 0, 4205.128, 4241.026, 4097.436, 4171.795, 4167.179, 16195, 0, []
1630238133.5534, 112, 0, 4187.179, 4255.897, 4064.615, 4160, 4140, 450, 0, []
1630238133.5614, 113, 0, 4178.462, 4261.538, 4050.769, 4152.821, 4115.385, 450, 0, []
1630238133.5692, 114, 0, 4184.103, 4253.846, 4052.821, 4153.846, 4136.41, 450, 0, []
1630238133.577, 115, 0, 4215.897, 4262.051, 4092.821, 4194.359, 4192.821, 16195, 0, []
1630238133.5849, 116, 0, 4240.513, 4262.564, 4095.385, 4204.103, 4206.154, 450, 0, []
1630238133.5927, 117, 0, 4249.744, 4235.897, 4083.59, 4172.308, 4192.308, 450, 0, []
1630238133.6006, 118, 0, 4280.513, 4210.256, 4090.769, 4156.923, 4224.103, 450, 0, []
1630238133.6083, 119, 0, 4316.41, 4208.205, 4080.513, 4160.513, 4268.205, 16195, 0, []
1630238133.6162, 120, 0, 4352.821, 4218.974, 4081.026, 4166.154, 4289.744, 450, 0, []
1630238133.624, 121, 0, 4411.795, 4201.026, 4075.897, 4153.846, 4316.923, 450, 0, []
1630238133.632, 122, 0, 4468.718, 4167.179, 4084.615, 4149.744, 4361.026, 450, 0, []
1630238133.6399, 123, 0, 4510.256, 4185.128, 4100.513, 4167.179, 4397.949, 16195, 0, []
1630238133.6478, 124, 0, 4552.308, 4209.231, 4083.59, 4170.769, 4417.436, 450, 0, []
1630238133.6557, 125, 0, 4589.231, 4197.949, 4084.615, 4168.205, 4436.923, 450, 0, []
1630238133.6637, 126, 0, 4616.923, 4221.538, 4081.026, 4162.051, 4468.718, 450, 0, []
1630238133.6716, 127, 0, 4629.231, 4260, 4078.462, 4156.923, 4486.154, 16195, 0, []
1630238133.6796, 128, 0, 4621.026, 4234.872, 4087.179, 4158.974, 4476.923, 450, 0, []
1630238133.6874, 0, 0, 4612.308, 4216.41, 4071.282, 4154.359, 4479.487, 450, 0, []
1630238133.6954, 1, 0, 4615.385, 4258.462, 4079.487, 4154.359, 4493.846, 450, 0, []
1630238133.7033, 2, 0, 4620.513, 4285.128, 4087.179, 4153.333, 4492.308, 16193, 0, []
1630238133.7113, 3, 0, 4623.077, 4274.359, 4086.154, 4158.974, 4476.923, 450, 0, []
1630238133.7192, 4, 0, 4629.744, 4260, 4096.923, 4169.231, 4463.59, 16088, 0, []
1630238133.7269, 5, 0, 4640, 4253.846, 4081.538, 4163.59, 4464.103, 450, 0, []
1630238133.7348, 6, 0, 4651.282, 4265.128, 4082.051, 4168.205, 4477.436, 16083, 0, []
1630238133.7426, 7, 0, 4646.667, 4285.641, 4085.128, 4172.821, 4478.462, 450, 0, []
1630238133.7505, 8, 0, 4632.308, 4296.41, 4088.205, 4174.872, 4473.333, 450, 0, []
1630238133.7583, 9, 0, 4635.897, 4303.59, 4118.974, 4190.769, 4484.103, 16063, 0, []
1630238133.7661, 10, 0, 4633.333, 4269.744, 4108.205, 4180.513, 4484.103, 450, 0, []
1630238133.7739, 11, 0, 4595.897, 4197.436, 4085.128, 4151.282, 4450.769, 16201, 0, []
1630238133.7818, 12, 0, 4575.385, 4169.231, 4090.769, 4152.308, 4426.667, 450, 0, []
1630238133.7896, 13, 0, 4581.538, 4147.179, 4068.205, 4158.974, 4410.769, 450, 0, []
1630238133.7976, 14, 0, 4544.615, 4068.205, 4053.846, 4143.59, 4355.897, 450, 0, []
1630238133.8054, 15, 0, 4509.744, 4008.718, 4081.538, 4146.154, 4321.026, 16201, 0, []
1630238133.8134, 16, 0, 4531.282, 4023.59, 4084.103, 4163.59, 4338.974, 0, 0, []
1630238133.8213, 17, 0, 4522.564, 4033.846, 4087.179, 4171.282, 4328.205, 0, 0, []
1630238133.8293, 18, 0, 4468.718, 4024.103, 4090.769, 4157.436, 4287.179, 0, 0, []
1630238133.8372, 19, 0, 4440.513, 4049.231, 4069.231, 4135.385, 4270.769, 0, 0, []
1630238133.8452, 20, 0, 4431.282, 4081.026, 4080.513, 4155.385, 4272.308, 0, 0, []
1630238133.853, 21, 0, 4409.744, 4094.872, 4088.718, 4176.41, 4260.513, 0, 0, []
1630238133.8609, 22, 0, 4389.231, 4089.744, 4075.385, 4161.538, 4231.282, 0, 0, []
1630238133.8688, 23, 0, 4369.744, 4088.205, 4059.487, 4145.641, 4200, 0, 0, []
1630238133.8768, 24, 0, 4344.103, 4134.872, 4049.744, 4138.462, 4182.564, 0, 0, []
1630238133.8847, 25, 0, 4315.385, 4198.974, 4063.59, 4136.41, 4176.41, 0, 0, []
1630238133.8924, 26, 0, 4285.128, 4230.256, 4074.359, 4136.923, 4170.256, 0, 0, []
1630238133.9003, 27, 0, 4269.744, 4241.538, 4081.538, 4147.692, 4164.103, 0, 0, []
1630238133.9081, 28, 0, 4267.692, 4254.872, 4071.282, 4149.231, 4144.615, 0, 0, []
1630238133.916, 29, 0, 4261.538, 4247.692, 4068.718, 4134.872, 4130.256, 0, 0, []
1630238133.9238, 30, 0, 4241.538, 4233.333, 4070.256, 4131.282, 4137.436, 0, 0, []
1630238133.9316, 31, 0, 4230.769, 4250.256, 4056.41, 4150.769, 4142.051, 0, 0, []
1630238133.9394, 32, 0, 4236.923, 4264.103, 4070.769, 4170.769, 4130.769, 0, 0, []
1630238133.9473, 33, 0, 4220.513, 4272.308, 4073.846, 4157.436, 4121.026, 0, 0, []
1630238133.9551, 34, 0, 4192.821, 4271.795, 4076.41, 4151.795, 4121.026, 0, 0, []
1630238133.9631, 35, 0, 4198.974, 4261.026, 4082.051, 4168.205, 4112.821, 0, 0, []
1630238133.9709, 36, 0, 4208.205, 4289.231, 4072.821, 4160.513, 4101.538, 0, 0, []
1630238133.9789, 37, 0, 4186.154, 4310.256, 4093.333, 4158.462, 4107.179, 0, 0, []
1630238133.9868, 38, 0, 4171.282, 4250.769, 4079.487, 4165.128, 4112.308, 0, 0, []
1630238133.9948, 39, 0, 4175.897, 4167.179, 4065.128, 4157.436, 4105.641, 0, 0, []
1630238134.0027, 40, 0, 4170.769, 4164.615, 4091.795, 4158.974, 4109.744, 0, 0, []
1630238134.0106, 41, 0, 4158.974, 4197.949, 4086.154, 4167.692, 4110.256, 0, 0, []
1630238134.0185, 42, 0, 4136.41, 4183.59, 4065.128, 4149.231, 4080, 0, 0, []
1630238134.0264, 43, 0, 4106.154, 4166.154, 4043.077, 4117.436, 4054.872, 0, 0, []
1630238134.0343, 44, 0, 4113.333, 4204.103, 4066.667, 4147.692, 4067.179, 0, 0, []
1630238134.0421, 45, 0, 4168.205, 4265.128, 4125.128, 4206.667, 4113.333, 0, 0, []
1630238134.0499, 46, 0, 4188.205, 4282.564, 4137.436, 4214.359, 4146.154, 0, 0, []
1630238134.0577, 47, 0, 4163.077, 4276.923, 4132.821, 4205.128, 4131.282, 0, 0, []
1630238134.0656, 48, 0, 4156.41, 4277.949, 4106.154, 4187.692, 4109.231, 0, 0, []
1630238134.0734, 49, 0, 4144.103, 4248.718, 4089.231, 4170.769, 4103.077, 0, 0, []
1630238134.0813, 50, 0, 4114.359, 4236.41, 4079.487, 4171.282, 4088.205, 0, 0, []
1630238134.089, 51, 0, 4111.795, 4267.692, 4048.205, 4155.897, 4076.41, 0, 0, []
1630238134.097, 52, 0, 4112.308, 4245.128, 4069.231, 4150.769, 4084.615, 0, 0, []
1630238134.1049, 53, 0, 4096.923, 4198.974, 4064.103, 4154.359, 4080, 0, 0, []
1630238134.1129, 54, 0, 4104.615, 4214.359, 4039.487, 4149.744, 4070.769, 0, 0, []
1630238134.1208, 55, 0, 4126.154, 4233.846, 4084.103, 4173.333, 4096.41, 0, 0, []
1630238134.1287, 56, 0, 4123.077, 4224.103, 4093.333, 4192.821, 4109.744, 0, 0, []
1630238134.1366, 57, 0, 4120.513, 4218.462, 4080, 4175.897, 4092.308, 0, 0, []
1630238134.1446, 58, 0, 4125.641, 4161.026, 4078.974, 4155.385, 4091.282, 0, 0, []
1630238134.1525, 59, 0, 4123.077, 4056.41, 4081.026, 4165.128, 4094.872, 0, 0, []
1630238134.1605, 60, 0, 4118.462, 4019.487, 4092.308, 4175.897, 4089.744, 0, 0, []
1630238134.1683, 61, 0, 4113.333, 4017.949, 4077.436, 4165.641, 4098.974, 0, 0, []
1630238134.1763, 62, 0, 4104.615, 3950.256, 4079.487, 4175.385, 4101.026, 0, 0, []
1630238134.1842, 63, 0, 4098.462, 3845.641, 4072.308, 4173.846, 4086.667, 0, 0, []
1630238134.192, 64, 0, 4097.436, 3782.051, 4063.077, 4157.436, 4087.692, 450, 0, []
1630238134.1999, 65, 0, 4091.795, 3759.487, 4081.026, 4169.744, 4078.974, 450, 0, []
1630238134.2077, 66, 0, 4076.923, 3740, 4049.744, 4162.051, 4057.949, 16201, 0, []
1630238134.2155, 67, 0, 4065.641, 3710.769, 4049.231, 4138.974, 4059.487, 450, 0, []
1630238134.2233, 68, 0, 4077.436, 3706.154, 4086.667, 4146.154, 4071.795, 16094, 0, []
1630238134.2312, 69, 0, 4089.744, 3729.231, 4088.718, 4165.641, 4074.872, 450, 0, []
1630238134.239, 70, 0, 4080, 3740.513, 4082.564, 4177.949, 4070.769, 16073, 0, []
1630238134.2469, 71, 0, 4083.077, 3735.897, 4056.923, 4168.718, 4083.077, 450, 0, []
1630238134.2546, 72, 0, 4107.692, 3717.949, 4067.692, 4173.333, 4108.205, 450, 0, []
1630238134.2626, 73, 0, 4096.923, 3692.308, 4072.821, 4177.436, 4087.179, 16058, 0, []
1630238134.2705, 74, 0, 4066.154, 3709.231, 4038.462, 4154.359, 4051.795, 450, 0, []
1630238134.2785, 75, 0, 4102.051, 3776.923, 4084.103, 4181.538, 4101.538, 16190, 0, []
1630238134.2864, 76, 0, 4145.641, 3780.513, 4108.205, 4211.795, 4144.615, 450, 0, []
1630238134.2943, 77, 0, 4108.718, 3713.846, 4075.385, 4187.692, 4100.513, 450, 0, []
1630238134.3022, 78, 0, 4101.026, 3724.615, 4085.128, 4188.205, 4100.513, 450, 0, []
1630238134.3102, 79, 0, 4154.872, 3792.308, 4113.333, 4210.256, 4147.179, 16190, 0, []
1630238134.3181, 80, 0, 4148.718, 3801.026, 4129.744, 4207.692, 4137.949, 450, 0, []
1630238134.3259, 81, 0, 4110.769, 3762.051, 4091.795, 4192.821, 4114.872, 450, 0, []
1630238134.3337, 82, 0, 4118.462, 3761.538, 4072.308, 4181.538, 4123.077, 450, 0, []
1630238134.3415, 83, 0, 4121.538, 3781.538, 4093.846, 4174.359, 4115.385, 16190, 0, []
1630238134.3494, 84, 0, 4104.615, 3781.538, 4071.282, 4174.359, 4086.154, 450, 0, []
1630238134.3572, 85, 0, 4102.051, 3799.487, 4070.769, 4186.154, 4084.103, 450, 0, []
1630238134.3651, 86, 0, 4113.846, 3817.949, 4083.59, 4184.615, 4110.769, 450, 0, []
1630238134.3728, 87, 0, 4128.205, 3775.385, 4095.385, 4182.564, 4123.077, 16190, 0, []
1630238134.3807, 88, 0, 4126.154, 3728.718, 4117.949, 4198.462, 4113.846, 450, 0, []
1630238134.3885, 89, 0, 4124.103, 3777.949, 4096.923, 4204.103, 4117.436, 450, 0, []
1630238134.3964, 90, 0, 4138.462, 3827.692, 4104.615, 4209.231, 4129.231, 450, 0, []
1630238134.4042, 91, 0, 4135.897, 3788.205, 4111.795, 4202.051, 4122.564, 16190, 0, []
1630238134.412, 92, 0, 4119.487, 3775.897, 4089.744, 4190.256, 4110.769, 450, 0, []
1630238134.4198, 93, 0, 4120, 3837.949, 4105.128, 4201.538, 4115.897, 450, 0, []
1630238134.4278, 94, 0, 4135.897, 3875.385, 4109.231, 4202.051, 4136.923, 450, 0, []
1630238134.4357, 95, 0, 4142.564, 3856.923, 4110.769, 4199.487, 4131.795, 16190, 0, []
1630238134.4437, 96, 0, 4130.256, 3858.974, 4095.897, 4192.821, 4107.179, 450, 0, []
1630238134.4515, 97, 0, 4125.128, 3884.103, 4088.205, 4187.692, 4113.846, 450, 0, []
1630238134.4594, 98, 0, 4131.795, 3902.051, 4118.462, 4203.077, 4121.026, 450, 0, []
1630238134.4673, 99, 0, 4127.179, 3927.179, 4102.051, 4190.769, 4109.231, 16190, 0, []
1630238134.4753, 100, 0, 4139.487, 3917.949, 4103.077, 4182.051, 4134.359, 450, 0, []
1630238134.4832, 101, 0, 4197.949, 3901.026, 4109.231, 4201.026, 4197.949, 450, 0, []
1630238134.4911, 102, 0, 4253.333, 3929.231, 4078.974, 4193.333, 4246.667, 450, 0, []
1630238134.499, 103, 0, 4286.154, 3950.769, 4096.41, 4178.974, 4290.256, 16190, 0, []
1630238134.5068, 104, 0, 4328.718, 3950.769, 4098.974, 4177.949, 4342.051, 450, 0, []
1630238134.5147, 105, 0, 4376.41, 3957.949, 4085.641, 4186.154, 4383.077, 450, 0, []
1630238134.5225, 106, 0, 4424.103, 3950.256, 4086.667, 4193.333, 4419.487, 450, 0, []
1630238134.5304, 107, 0, 4465.641, 3918.974, 4070.769, 4178.462, 4443.59, 16190, 0, []
1630238134.5381, 108, 0, 4484.103, 3929.744, 4082.051, 4172.821, 4449.744, 450, 0, []
1630238134.546, 109, 0, 4490.256, 3996.923, 4086.667, 4181.538, 4458.462, 450, 0, []
1630238134.5538, 110, 0, 4482.051, 4017.436, 4093.846, 4187.179, 4450.256, 450, 0, []
1630238134.5617, 111, 0, 4450.256, 3987.179, 4095.385, 4183.077, 4411.795, 16190, 0, []
1630238134.5695, 112, 0, 4416.923, 4010.256, 4074.872, 4168.718, 4388.205, 450, 0, []
1630238134.5774, 113, 0, 4396.923, 4047.179, 4107.179, 4175.385, 4394.359, 450, 0, []
1630238134.5853, 114, 0, 4371.795, 4026.667, 4114.359, 4174.872, 4385.641, 450, 0, []
1630238134.5933, 115, 0, 4344.615, 4030.256, 4100, 4174.359, 4355.385, 16190, 0, []
1630238134.6012, 116, 0, 4342.051, 4084.103, 4116.923, 4202.051, 4338.974, 450, 0, []
1630238134.6092, 117, 0, 4341.538, 4099.487, 4106.154, 4201.538, 4318.974, 450, 0, []
1630238134.617, 118, 0, 4309.744, 4089.744, 4110.256, 4176.41, 4280.513, 450, 0, []
1630238134.625, 119, 0, 4277.436, 4108.205, 4110.769, 4164.615, 4262.564, 16190, 0, []
1630238134.6329, 120, 0, 4272.821, 4129.231, 4112.308, 4176.41, 4266.154, 450, 0, []
1630238134.6409, 121, 0, 4278.462, 4140.513, 4125.641, 4199.487, 4257.949, 450, 0, []
1630238134.6488, 122, 0, 4273.333, 4139.487, 4100, 4201.026, 4243.077, 450, 0, []
1630238134.6566, 123, 0, 4254.872, 4134.359, 4107.179, 4197.949, 4240, 16190, 0, []
1630238134.6645, 124, 0, 4226.154, 4145.641, 4108.205, 4189.231, 4234.359, 450, 0, []
1630238134.6723, 125, 0, 4208.205, 4160.513, 4085.128, 4181.026, 4213.333, 450, 0, []
1630238134.6802, 126, 0, 4216.41, 4171.282, 4105.641, 4191.795, 4200, 450, 0, []
1630238134.688, 127, 0, 4222.051, 4177.949, 4120.513, 4186.154, 4206.154, 16190, 0, []
1630238134.6958, 128, 0, 4208.718, 4180.513, 4135.385, 4189.231, 4207.179, 450, 0, []
1630238134.7036, 0, 0, 4200.513, 4178.462, 4115.385, 4205.128, 4190.769, 450, 0, []
1630238134.7115, 1, 0, 4202.051, 4172.308, 4092.821, 4202.564, 4178.974, 450, 0, []
1630238134.7193, 2, 0, 4191.795, 4180, 4127.179, 4208.718, 4184.103, 16200, 0, []
1630238134.7273, 3, 0, 4182.051, 4197.949, 4122.051, 4215.385, 4181.538, 450, 0, []
1630238134.7351, 4, 0, 4176.923, 4201.538, 4109.744, 4203.59, 4146.667, 16093, 0, []
1630238134.7431, 5, 0, 4153.846, 4184.103, 4101.026, 4174.872, 4122.051, 450, 0, []
1630238134.751, 6, 0, 4136.923, 4168.718, 4088.205, 4166.154, 4140.513, 16074, 0, []
1630238134.759, 7, 0, 4152.308, 4164.615, 4108.718, 4193.333, 4152.821, 450, 0, []
1630238134.7669, 8, 0, 4183.077, 4171.795, 4109.231, 4205.641, 4158.974, 450, 0, []
1630238134.7748, 9, 0, 4199.487, 4201.538, 4131.282, 4216.41, 4198.974, 16058, 0, []
1630238134.7827, 10, 0, 4194.359, 4217.436, 4145.641, 4225.641, 4211.795, 450, 0, []
1630238134.7907, 11, 0, 4168.718, 4203.077, 4111.282, 4201.538, 4151.795, 16204, 0, []
1630238134.7986, 12, 0, 4131.282, 4204.615, 4114.872, 4184.615, 4109.744, 450, 0, []
1630238134.8066, 13, 0, 4115.385, 4214.359, 4106.154, 4186.667, 4124.615, 450, 0, []
1630238134.8144, 14, 0, 4127.179, 4201.026, 4091.795, 4190.769, 4124.103, 450, 0, []
1630238134.8222, 15, 0, 4147.179, 4196.41, 4107.692, 4193.846, 4123.077, 16204, 0, []
1630238134.8301, 16, 0, 4160, 4222.051, 4111.795, 4198.462, 4154.359, 0, 0, []
1630238134.8379, 17, 0, 4163.59, 4246.154, 4128.205, 4216.41, 4163.077, 0, 0, []
1630238134.8458, 18, 0, 4161.026, 4246.154, 4116.923, 4210.769, 4143.077, 0, 0, []
1630238134.8535, 19, 0, 4146.667, 4217.436, 4102.564, 4192.821, 4134.359, 0, 0, []
1630238134.8614, 20, 0, 4136.923, 4198.974, 4097.436, 4198.462, 4121.538, 0, 0, []
1630238134.8692, 21, 0, 4128.205, 4206.154, 4061.538, 4185.641, 4096.923, 0, 0, []
1630238134.8772, 22, 0, 4129.231, 4210.256, 4085.128, 4188.205, 4112.308, 0, 0, []
1630238134.8851, 23, 0, 4143.59, 4217.436, 4094.872, 4205.128, 4136.41, 0, 0, []
1630238134.8931, 24, 0, 4132.821, 4208.205, 4075.385, 4187.692, 4117.949, 0, 0, []
1630238134.9009, 25, 0, 4115.385, 4203.077, 4107.692, 4189.231, 4111.282, 0, 0, []
1630238134.9089, 26, 0, 4133.333, 4241.538, 4108.718, 4215.385, 4122.051, 0, 0, []
1630238134.9168, 27, 0, 4151.282, 4264.103, 4095.385, 4217.949, 4120.513, 0, 0, []
1630238134.9248, 28, 0, 4146.667, 4238.462, 4084.615, 4207.179, 4134.359, 0, 0, []
1630238134.9327, 29, 0, 4141.538, 4222.051, 4069.744, 4210.769, 4136.923, 0, 0, []
1630238134.9406, 30, 0, 4133.333, 4221.538, 4080.513, 4200.513, 4114.872, 0, 0, []
1630238134.9485, 31, 0, 4129.744, 4205.128, 4102.564, 4180, 4129.231, 0, 0, []
1630238134.9565, 32, 0, 4157.949, 4211.282, 4144.615, 4209.231, 4163.077, 0, 0, []
1630238134.9644, 33, 0, 4182.564, 4233.333, 4135.385, 4223.59, 4157.949, 0, 0, []
1630238134.9722, 34, 0, 4170.256, 4243.59, 4111.282, 4202.564, 4156.41, 0, 0, []
1630238134.98, 35, 0, 4167.179, 4257.436, 4132.821, 4220.513, 4175.897, 0, 0, []
1630238134.9878, 36, 0, 4186.667, 4255.385, 4102.051, 4228.205, 4168.718, 0, 0, []
1630238134.9957, 37, 0, 4171.282, 4229.744, 4081.538, 4203.59, 4143.59, 0, 0, []
1630238135.0035, 38, 0, 4144.103, 4204.615, 4092.821, 4190.769, 4135.385, 0, 0, []
1630238135.0114, 39, 0, 4151.795, 4198.974, 4086.154, 4191.795, 4134.359, 0, 0, []
1630238135.0191, 40, 0, 4151.795, 4202.564, 4091.282, 4185.641, 4126.667, 0, 0, []
1630238135.0271, 41, 0, 4143.59, 4196.41, 4073.333, 4169.231, 4142.564, 0, 0, []
1630238135.035, 42, 0, 4195.385, 4191.282, 4092.821, 4195.385, 4198.974, 0, 0, []
1630238135.043, 43, 0, 4248.718, 4193.333, 4114.359, 4217.436, 4239.487, 0, 0, []
1630238135.0509, 44, 0, 4249.231, 4178.974, 4083.59, 4179.487, 4252.308, 0, 0, []
1630238135.0588, 45, 0, 4291.795, 4162.051, 4108.718, 4183.59, 4306.667, 0, 0, []
1630238135.0667, 46, 0, 4386.667, 4186.154, 4126.154, 4221.026, 4384.615, 0, 0, []
1630238135.0747, 47, 0, 4435.385, 4217.949, 4114.359, 4214.872, 4409.231, 0, 0, []
1630238135.0826, 48, 0, 4437.949, 4217.949, 4106.667, 4194.359, 4397.949, 0, 0, []
1630238135.0906, 49, 0, 4441.026, 4207.179, 4087.692, 4182.051, 4387.692, 0, 0, []
1630238135.0984, 50, 0, 4436.41, 4189.231, 4109.231, 4187.692, 4370.769, 0, 0, []
1630238135.1062, 51, 0, 4427.692, 4170.256, 4109.231, 4198.974, 4356.41, 0, 0, []
1630238135.1141, 52, 0, 4414.359, 4178.974, 4094.359, 4194.872, 4354.359, 0, 0, []
1630238135.1219, 53, 0, 4382.564, 4182.564, 4103.077, 4182.564, 4349.231, 0, 0, []
1630238135.1298, 54, 0, 4352.308, 4160.513, 4102.051, 4184.103, 4340.513, 0, 0, []
1630238135.1375, 55, 0, 4340, 4161.538, 4122.564, 4207.179, 4325.128, 0, 0, []
1630238135.1454, 56, 0, 4334.872, 4200.513, 4109.231, 4207.179, 4301.026, 0, 0, []
1630238135.1532, 57, 0, 4314.359, 4195.385, 4090.769, 4191.795, 4273.846, 0, 0, []
1630238135.1611, 58, 0, 4278.462, 4150.769, 4113.333, 4193.846, 4258.974, 0, 0, []
1630238135.1689, 59, 0, 4248.205, 4165.128, 4101.026, 4185.128, 4247.692, 0, 0, []
1630238135.1768, 60, 0, 4241.026, 4182.051, 4097.949, 4186.154, 4223.59, 0, 0, []
1630238135.1847, 61, 0, 4244.103, 4157.436, 4095.385, 4197.436, 4202.051, 0, 0, []
1630238135.1927, 62, 0, 4221.026, 4155.385, 4090.769, 4186.154, 4189.744, 0, 0, []
1630238135.2006, 63, 0, 4195.897, 4171.795, 4109.231, 4182.051, 4180.513, 0, 0, []
1630238135.2086, 64, 0, 4200, 4181.026, 4093.333, 4192.821, 4175.385, 450, 0, []
1630238135.2164, 65, 0, 4200.513, 4178.462, 4107.179, 4200, 4177.436, 450, 0, []
1630238135.2244, 66, 0, 4172.821, 4173.333, 4123.59, 4191.795, 4174.872, 16189, 0, []
1630238135.2323, 67, 0, 4150.256, 4182.564, 4098.974, 4183.59, 4152.308, 450, 0, []
1630238135.2403, 68, 0, 4147.179, 4196.41, 4093.846, 4187.692, 4128.718, 16096, 0, []
1630238135.2482, 69, 0, 4138.462, 4180.513, 4073.846, 4170.769, 4130.769, 450, 0, []
1630238135.2561, 70, 0, 4129.231, 4179.487, 4076.41, 4161.538, 4136.41, 16074, 0, []
1630238135.2639, 71, 0, 4132.821, 4220.513, 4089.231, 4169.744, 4117.436, 450, 0, []
1630238135.2719, 72, 0, 4121.026, 4225.128, 4082.564, 4169.231, 4102.564, 450, 0, []
1630238135.2798, 73, 0, 4100.513, 4207.179, 4096.41, 4182.051, 4106.154, 16058, 0, []
1630238135.2876, 74, 0, 4108.718, 4216.41, 4085.641, 4182.051, 4103.077, 450, 0, []
1630238135.2955, 75, 0, 4116.923, 4228.718, 4096.41, 4180, 4100, 16200, 0, []
1630238135.3032, 76, 0, 4116.41, 4229.231, 4104.103, 4195.897, 4115.385, 450, 0, []
1630238135.3111, 77, 0, 4125.641, 4220.513, 4082.051, 4187.692, 4117.436, 450, 0, []
1630238135.3189, 78, 0, 4105.641, 4226.154, 4107.179, 4179.487, 4091.795, 450, 0, []
1630238135.3268, 79, 0, 4080.513, 4242.051, 4099.487, 4177.436, 4080.513, 16200, 0, []
1630238135.3346, 80, 0, 4110.256, 4230.256, 4088.205, 4172.308, 4092.308, 450, 0, []
1630238135.3424, 81, 0, 4140, 4218.462, 4109.744, 4173.846, 4098.974, 450, 0, []
1630238135.3502, 82, 0, 4124.103, 4261.026, 4096.41, 4174.872, 4089.744, 450, 0, []
1630238135.3582, 83, 0, 4115.897, 4275.385, 4105.641, 4181.026, 4085.641, 16200, 0, []
1630238135.3661, 84, 0, 4125.641, 4220.513, 4109.231, 4176.923, 4100.513, 450, 0, []
1630238135.3741, 85, 0, 4130.769, 4220.513, 4100, 4177.436, 4104.615, 450, 0, []
1630238135.3819, 86, 0, 4127.692, 4272.308, 4102.564, 4180, 4084.615, 450, 0, []
1630238135.3899, 87, 0, 4106.154, 4261.538, 4086.154, 4162.564, 4071.795, 16200, 0, []
1630238135.3978, 88, 0, 4093.846, 4238.974, 4099.487, 4176.41, 4069.744, 450, 0, []
1630238135.4058, 89, 0, 4105.641, 4279.487, 4100, 4187.692, 4062.051, 450, 0, []
1630238135.4137, 90, 0, 4113.846, 4290.256, 4105.128, 4181.026, 4069.744, 450, 0, []
1630238135.4214, 91, 0, 4120, 4246.154, 4128.205, 4200.513, 4088.718, 16200, 0, []
1630238135.4293, 92, 0, 4113.846, 4237.436, 4099.487, 4190.256, 4072.308, 450, 0, []
1630238135.4371, 93, 0, 4083.077, 4247.692, 4099.487, 4165.128, 4049.744, 450, 0, []
1630238135.445, 94, 0, 4089.231, 4253.333, 4117.949, 4184.103, 4072.308, 450, 0, []
1630238135.4528, 95, 0, 4137.949, 4273.846, 4133.333, 4213.846, 4108.205, 16200, 0, []
1630238135.4606, 96, 0, 4138.462, 4284.103, 4148.205, 4213.846, 4112.308, 450, 0, []
1630238135.4685, 97, 0, 4100.513, 4272.308, 4101.026, 4186.154, 4087.179, 450, 0, []
1630238135.4764, 98, 0, 4093.846, 4243.077, 4087.692, 4173.846, 4067.179, 450, 0, []
1630238135.4842, 99, 0, 4107.179, 4221.026, 4107.692, 4183.59, 4081.026, 16200, 0, []
1630238135.4922, 100, 0, 4112.821, 4237.436, 4109.744, 4192.821, 4099.487, 450, 0, []
1630238135.5, 101, 0, 4120.513, 4263.077, 4131.282, 4194.872, 4102.051, 450, 0, []
1630238135.508, 102, 0, 4119.487, 4255.897, 4125.641, 4188.718, 4105.641, 450, 0, []
1630238135.5159, 103, 0, 4108.205, 4241.538, 4115.385, 4193.333, 4096.41, 16200, 0, []
1630238135.5239, 104, 0, 4108.718, 4235.385, 4104.103, 4178.974, 4080, 450, 0, []
1630238135.5318, 105, 0, 4114.872, 4223.59, 4100, 4161.538, 4088.718, 450, 0, []
1630238135.5397, 106, 0, 4116.41, 4238.974, 4123.59, 4191.282, 4097.436, 450, 0, []
1630238135.5476, 107, 0, 4112.308, 4253.333, 4099.487, 4187.692, 4084.103, 16200, 0, []
1630238135.5556, 108, 0, 4105.128, 4224.103, 4102.051, 4160.513, 4077.436, 450, 0, []
1630238135.5635, 109, 0, 4109.744, 4215.897, 4125.641, 4176.923, 4082.564, 450, 0, []
1630238135.5714, 110, 0, 4110.256, 4242.051, 4107.692, 4182.051, 4080.513, 450, 0, []
1630238135.5792, 111, 0, 4095.897, 4209.744, 4118.974, 4172.821, 4076.41, 16200, 0, []
1630238135.587, 112, 0, 4096.41, 4149.744, 4112.821, 4176.41, 4069.744, 450, 0, []
1630238135.5949, 113, 0, 4098.974, 4171.282, 4099.487, 4178.462, 4065.128, 450, 0, []
1630238135.6027, 114, 0, 4098.974, 4205.641, 4104.103, 4174.359, 4077.949, 450, 0, []
1630238135.6106, 115, 0, 4105.641, 4165.641, 4090.256, 4169.231, 4074.359, 16200, 0, []
1630238135.6184, 116, 0, 4094.872, 4141.538, 4103.077, 4173.846, 4053.846, 450, 0, []
1630238135.6262, 117, 0, 4094.359, 4171.795, 4109.231, 4177.436, 4069.744, 450, 0, []
1630238135.634, 118, 0, 4119.487, 4163.59, 4119.487, 4188.718, 4087.692, 450, 0, []
1630238135.6419, 119, 0, 4114.359, 4149.744, 4132.308, 4194.872, 4067.692, 16200, 0, []
1630238135.6497, 120, 0, 4089.744, 4190.769, 4101.538, 4174.359, 4046.667, 450, 0, []
1630238135.6576, 121, 0, 4096.41, 4217.436, 4107.179, 4170.256, 4056.41, 450, 0, []
1630238135.6653, 122, 0, 4108.718, 4224.103, 4112.308, 4181.538, 4072.821, 450, 0, []
1630238135.6733, 123, 0, 4094.872, 4229.231, 4096.41, 4185.641, 4061.026, 16200, 0, []
1630238135.6812, 124, 0, 4080, 4206.154, 4095.385, 4177.436, 4047.179, 450, 0, []
1630238135.6892, 125, 0, 4084.615, 4192.308, 4085.641, 4162.051, 4061.026, 450, 0, []
1630238135.6971, 126, 0, 4107.692, 4203.59, 4115.897, 4184.103, 4076.41, 450, 0, []
1630238135.705, 127, 0, 4119.487, 4205.128, 4121.538, 4195.385, 4079.487, 16200, 0, []
1630238135.7129, 128, 0, 4114.359, 4216.41, 4099.487, 4174.872, 4084.103, 450, 0, []
1630238135.7209, 0, 0, 4120.513, 4229.231, 4113.333, 4182.051, 4081.538, 450, 0, []
1630238135.7288, 1, 0, 4111.282, 4204.103, 4090.769, 4175.897, 4062.051, 450, 0, []
1630238135.7368, 2, 0, 4090.256, 4198.974, 4078.462, 4158.974, 4050.256, 16190, 0, []
1630238135.7446, 3, 0, 4103.077, 4225.128, 4087.692, 4164.103, 4062.051, 450, 0, []
1630238135.7524, 4, 0, 4110.256, 4203.59, 4097.436, 4171.795, 4072.821, 16102, 0, []
1630238135.7603, 5, 0, 4091.282, 4169.744, 4115.385, 4177.949, 4061.538, 450, 0, []
1630238135.7681, 6, 0, 4093.333, 4174.359, 4087.692, 4171.282, 4055.897, 16085, 0, []
1630238135.776, 7, 0, 4109.744, 4180.513, 4094.359, 4177.949, 4076.41, 450, 0, []
1630238135.7837, 8, 0, 4111.282, 4192.821, 4100.513, 4189.231, 4080, 450, 0, []
1630238135.7916, 9, 0, 4105.128, 4201.538, 4067.179, 4173.333, 4063.59, 16057, 0, []
1630238135.7994, 10, 0, 4106.667, 4189.231, 4082.051, 4170.256, 4067.692, 450, 0, []
1630238135.8074, 11, 0, 4117.949, 4191.795, 4089.231, 4178.462, 4075.897, 16197, 0, []
1630238135.8153, 12, 0, 4118.974, 4196.41, 4096.41, 4188.718, 4076.923, 450, 0, []
1630238135.8232, 13, 0, 4105.128, 4186.667, 4092.821, 4183.077, 4079.487, 450, 0, []
1630238135.8311, 14, 0, 4100, 4189.231, 4069.744, 4155.385, 4076.923, 450, 0, []
1630238135.8391, 15, 0, 4108.205, 4191.795, 4102.564, 4167.692, 4086.154, 16197, 0, []
1630238135.847, 16, 0, 4121.538, 4191.795, 4106.667, 4199.487, 4107.692, 0, 0, []
1630238135.855, 17, 0, 4126.154, 4215.897, 4088.205, 4187.179, 4104.103, 0, 0, []
1630238135.8628, 18, 0, 4116.923, 4222.051, 4090.256, 4156.41, 4093.333, 0, 0, []
1630238135.8708, 19, 0, 4122.051, 4204.615, 4083.077, 4164.615, 4104.615, 0, 0, []
1630238135.8787, 20, 0, 4132.308, 4212.308, 4093.846, 4190.769, 4109.231, 0, 0, []
1630238135.8867, 21, 0, 4132.308, 4205.641, 4088.718, 4178.974, 4107.692, 0, 0, []
1630238135.8946, 22, 0, 4133.846, 4161.026, 4094.872, 4168.205, 4112.821, 0, 0, []
1630238135.9023, 23, 0, 4124.615, 4157.436, 4110.769, 4180, 4109.231, 0, 0, []
1630238135.9102, 24, 0, 4123.077, 4210.769, 4090.769, 4184.103, 4111.795, 0, 0, []
1630238135.918, 25, 0, 4149.744, 4241.538, 4112.821, 4202.051, 4130.769, 0, 0, []
1630238135.9259, 26, 0, 4156.41, 4230.256, 4122.564, 4211.795, 4141.026, 0, 0, []
1630238135.9337, 27, 0, 4135.897, 4214.872, 4103.59, 4200.513, 4129.231, 0, 0, []
1630238135.9415, 28, 0, 4142.564, 4218.974, 4108.205, 4196.923, 4116.41, 0, 0, []
1630238135.9493, 29, 0, 4145.128, 4225.641, 4093.333, 4183.077, 4112.821, 0, 0, []
1630238135.9573, 30, 0, 4129.744, 4221.026, 4098.974, 4183.59, 4113.846, 0, 0, []
1630238135.9652, 31, 0, 4141.538, 4218.462, 4098.974, 4190.769, 4111.282, 0, 0, []
1630238135.9732, 32, 0, 4139.487, 4206.154, 4081.026, 4178.462, 4105.128, 0, 0, []
1630238135.9811, 33, 0, 4115.385, 4202.051, 4083.59, 4180.513, 4106.154, 0, 0, []
1630238135.989, 34, 0, 4122.564, 4203.59, 4079.487, 4181.538, 4107.179, 0, 0, []
1630238135.9969, 35, 0, 4134.359, 4185.641, 4107.692, 4183.077, 4106.154, 0, 0, []
1630238136.0049, 36, 0, 4124.103, 4193.846, 4100.513, 4183.077, 4107.692, 0, 0, []
1630238136.0128, 37, 0, 4123.59, 4228.718, 4065.128, 4170.256, 4108.205, 0, 0, []
1630238136.0208, 38, 0, 4127.692, 4225.128, 4080.513, 4171.795, 4104.615, 0, 0, []
1630238136.0286, 39, 0, 4118.974, 4195.897, 4074.872, 4174.359, 4089.744, 0, 0, []
1630238136.0366, 40, 0, 4122.051, 4208.205, 4085.128, 4174.872, 4089.231, 0, 0, []
1630238136.0445, 41, 0, 4141.538, 4227.692, 4097.949, 4179.487, 4117.436, 0, 0, []
1630238136.0523, 42, 0, 4152.308, 4215.385, 4081.026, 4184.615, 4127.692, 0, 0, []
1630238136.0602, 43, 0, 4149.744, 4209.231, 4101.538, 4200.513, 4118.974, 0, 0, []
1630238136.0679, 44, 0, 4154.359, 4221.026, 4103.077, 4197.436, 4127.179, 0, 0, []
1630238136.0758, 45, 0, 4151.795, 4210.769, 4094.359, 4180, 4120.513, 0, 0, []
1630238136.0836, 46, 0, 4127.179, 4184.103, 4090.769, 4168.718, 4095.897, 0, 0, []
1630238136.0915, 47, 0, 4114.872, 4193.333, 4073.333, 4160, 4097.949, 0, 0, []
1630238136.0993, 48, 0, 4130.769, 4210.769, 4095.897, 4164.103, 4109.744, 0, 0, []
1630238136.1071, 49, 0, 4129.231, 4197.436, 4094.359, 4165.128, 4098.974, 0, 0, []
1630238136.1149, 50, 0, 4111.795, 4225.128, 4080, 4171.282, 4083.077, 0, 0, []
1630238136.1228, 51, 0, 4123.59, 4264.615, 4091.795, 4174.359, 4091.795, 0, 0, []
1630238136.1306, 52, 0, 4141.026, 4234.872, 4082.564, 4162.564, 4112.821, 0, 0, []
1630238136.1386, 53, 0, 4144.615, 4206.154, 4086.154, 4180.513, 4118.462, 0, 0, []
1630238136.1464, 54, 0, 4154.359, 4237.949, 4080.513, 4187.179, 4121.538, 0, 0, []
1630238136.1544, 55, 0, 4171.282, 4255.897, 4084.103, 4179.487, 4148.718, 0, 0, []
1630238136.1623, 56, 0, 4213.333, 4231.795, 4099.487, 4198.462, 4195.385, 0, 0, []
1630238136.1703, 57, 0, 4285.641, 4233.846, 4092.821, 4211.282, 4248.205, 0, 0, []
1630238136.1782, 58, 0, 4350.256, 4257.436, 4120.513, 4213.333, 4304.103, 0, 0, []
1630238136.1861, 59, 0, 4391.795, 4256.41, 4114.872, 4196.923, 4353.846, 0, 0, []
1630238136.194, 60, 0, 4424.103, 4253.333, 4095.897, 4176.41, 4388.718, 0, 0, []
1630238136.2018, 61, 0, 4450.256, 4269.231, 4114.872, 4183.077, 4410.769, 0, 0, []
1630238136.2097, 62, 0, 4464.615, 4263.077, 4105.641, 4182.051, 4421.538, 0, 0, []
1630238136.2175, 63, 0, 4461.026, 4233.846, 4112.308, 4182.051, 4417.436, 0, 0, []
1630238136.2253, 64, 0, 4438.462, 4247.692, 4102.564, 4194.872, 4401.538, 450, 0, []
1630238136.2331, 65, 0, 4400, 4250.769, 4074.872, 4187.692, 4369.744, 450, 0, []
1630238136.241, 66, 0, 4364.615, 4202.564, 4080, 4173.333, 4325.128, 16189, 0, []
1630238136.2488, 67, 0, 4352.821, 4198.462, 4072.821, 4175.897, 4293.846, 450, 0, []
1630238136.2567, 68, 0, 4344.103, 4244.615, 4089.744, 4192.821, 4287.179, 16098, 0, []
1630238136.2644, 69, 0, 4314.872, 4265.641, 4094.359, 4189.231, 4289.231, 450, 0, []
1630238136.2723, 70, 0, 4284.615, 4248.718, 4080.513, 4178.462, 4276.923, 16085, 0, []
1630238136.2801, 71, 0, 4273.846, 4221.538, 4103.077, 4200.513, 4248.718, 450, 0, []
1630238136.2881, 72, 0, 4262.051, 4209.231, 4095.897, 4206.154, 4220.513, 450, 0, []
1630238136.296, 73, 0, 4232.821, 4215.897, 4098.462, 4189.744, 4203.59, 16057, 0, []
1630238136.304, 74, 0, 4214.359, 4220.513, 4107.692, 4187.692, 4201.538, 450, 0, []
1630238136.3118, 75, 0, 4230.256, 4235.897, 4094.872, 4200.513, 4203.077, 16201, 0, []
1630238136.3198, 76, 0, 4241.026, 4255.897, 4111.795, 4209.231, 4196.41, 450, 0, []
1630238136.3277, 77, 0, 4216.923, 4259.487, 4112.308, 4191.282, 4191.282, 450, 0, []
1630238136.3357, 78, 0, 4196.41, 4263.59, 4118.462, 4193.846, 4187.179, 450, 0, []
1630238136.3436, 79, 0, 4188.205, 4256.41, 4111.282, 4197.436, 4157.949, 16201, 0, []
1630238136.3514, 80, 0, 4156.923, 4215.385, 4074.872, 4162.564, 4123.59, 450, 0, []
1630238136.3593, 81, 0, 4143.077, 4217.436, 4093.846, 4166.667, 4130.256, 450, 0, []
1630238136.3671, 82, 0, 4170.769, 4285.128, 4097.949, 4194.872, 4147.692, 450, 0, []
1630238136.375, 83, 0, 4173.333, 4293.846, 4091.795, 4188.205, 4143.077, 16201, 0, []
1630238136.3828, 84, 0, 4152.821, 4244.103, 4097.436, 4181.026, 4137.949, 450, 0, []
1630238136.3906, 85, 0, 4150.769, 4241.538, 4077.436, 4186.667, 4121.538, 450, 0, []
1630238136.3984, 86, 0, 4145.128, 4276.923, 4094.359, 4196.41, 4099.487, 450, 0, []
1630238136.4063, 87, 0, 4144.615, 4283.077, 4104.615, 4198.974, 4112.821, 16201, 0, []
1630238136.4141, 88, 0, 4157.949, 4260, 4103.077, 4203.077, 4121.026, 450, 0, []
1630238136.422, 89, 0, 4152.821, 4250.256, 4112.308, 4203.59, 4108.205, 450, 0, []
1630238136.4297, 90, 0, 4143.59, 4245.641, 4102.051, 4190.769, 4115.385, 450, 0, []
1630238136.4377, 91, 0, 4154.359, 4251.795, 4123.077, 4203.59, 4120, 16201, 0, []
1630238136.4456, 92, 0, 4164.103, 4277.436, 4125.641, 4206.154, 4120, 450, 0, []
1630238136.4536, 93, 0, 4157.436, 4277.949, 4109.744, 4186.667, 4131.795, 450, 0, []
1630238136.4615, 94, 0, 4158.462, 4257.949, 4114.359, 4197.436, 4125.641, 450, 0, []
1630238136.4693, 95, 0, 4169.231, 4277.949, 4110.769, 4207.692, 4115.897, 16201, 0, []
1630238136.4772, 96, 0, 4165.641, 4298.462, 4136.41, 4207.179, 4136.41, 450, 0, []
1630238136.4852, 97, 0, 4160, 4274.872, 4123.59, 4200.513, 4145.128, 450, 0, []
1630238136.4931, 98, 0, 4161.026, 4255.897, 4099.487, 4193.846, 4125.641, 450, 0, []
1630238136.5011, 99, 0, 4150.256, 4257.949, 4123.59, 4208.205, 4125.128, 16201, 0, []
1630238136.5089, 100, 0, 4138.974, 4252.821, 4105.128, 4207.179, 4132.821, 450, 0, []
1630238136.5167, 101, 0, 4145.641, 4251.282, 4100, 4192.308, 4118.974, 450, 0, []
1630238136.5246, 102, 0, 4135.385, 4265.128, 4100.513, 4181.538, 4107.692, 450, 0, []
1630238136.5324, 103, 0, 4109.744, 4269.744, 4074.359, 4174.872, 4100.513, 16201, 0, []
1630238136.5403, 104, 0, 4114.872, 4245.128, 4087.692, 4176.41, 4086.154, 450, 0, []
1630238136.548, 105, 0, 4123.59, 4229.231, 4090.769, 4177.436, 4085.641, 450, 0, []
1630238136.5559, 106, 0, 4116.923, 4256.923, 4093.846, 4191.795, 4103.59, 450, 0, []
1630238136.5637, 107, 0, 4130.256, 4261.538, 4094.872, 4197.949, 4111.282, 16201, 0, []
1630238136.5716, 108, 0, 4142.051, 4226.667, 4093.846, 4190.769, 4110.256, 450, 0, []
1630238136.5794, 109, 0, 4136.923, 4218.462, 4116.41, 4203.077, 4121.026, 450, 0, []
1630238136.5872, 110, 0, 4132.308, 4203.077, 4086.667, 4186.667, 4119.487, 450, 0, []
1630238136.595, 111, 0, 4113.333, 4163.59, 4074.359, 4160.513, 4091.795, 16201, 0, []
1630238136.603, 112, 0, 4101.538, 4179.487, 4090.769, 4174.872, 4078.462, 450, 0, []
1630238136.6109, 113, 0, 4127.179, 4227.179, 4076.923, 4176.923, 4100.513, 450, 0, []
1630238136.6189, 114, 0, 4155.897, 4228.205, 4097.949, 4174.872, 4141.538, 450, 0, []
1630238136.6267, 115, 0, 4170.769, 4227.179, 4096.41, 4187.692, 4171.795, 16201, 0, []
1630238136.6347, 116, 0, 4165.128, 4221.026, 4079.487, 4186.154, 4157.436, 450, 0, []
1630238136.6426, 117, 0, 4135.385, 4163.59, 4082.051, 4169.744, 4125.641, 450, 0, []
1630238136.6506, 118, 0, 4129.744, 4146.667, 4076.923, 4174.872, 4122.051, 450, 0, []
1630238136.6585, 119, 0, 4156.41, 4207.692, 4091.282, 4194.359, 4123.59, 16201, 0, []
1630238136.6663, 120, 0, 4149.744, 4231.282, 4075.385, 4170.256, 4110.256, 450, 0, []
1630238136.6741, 121, 0, 4127.179, 4191.795, 4066.154, 4160.513, 4104.615, 450, 0, []
1630238136.6819, 122, 0, 4144.103, 4189.744, 4084.615, 4193.846, 4109.744, 450, 0, []
1630238136.6898, 123, 0, 4149.744, 4209.231, 4070.256, 4190.769, 4112.821, 16201, 0, []
1630238136.6976, 124, 0, 4132.308, 4198.974, 4079.487, 4177.436, 4113.846, 450, 0, []
1630238136.7055, 125, 0, 4146.667, 4213.846, 4079.487, 4181.026, 4109.231, 450, 0, []
1630238136.7132, 126, 0, 4153.333, 4226.154, 4067.692, 4172.308, 4103.59, 450, 0, []
1630238136.7211, 127, 0, 4126.154, 4195.897, 4070.769, 4162.051, 4101.538, 16201, 0, []
1630238136.7289, 128, 0, 4124.615, 4200, 4052.821, 4168.205, 4089.231, 450, 0, []
1630238136.7368, 0, 0, 4140.513, 4236.923, 4065.641, 4181.538, 4083.077, 450, 0, []
1630238136.7446, 1, 0, 4130.769, 4229.231, 4067.179, 4177.436, 4090.769, 450, 0, []
1630238136.7525, 2, 0, 4134.872, 4197.949, 4062.051, 4181.538, 4093.846, 16190, 0, []
1630238136.7604, 3, 0, 4159.487, 4214.359, 4090.769, 4194.872, 4111.282, 450, 0, []
1630238136.7684, 4, 0, 4157.949, 4233.333, 4083.59, 4177.949, 4132.821, 16104, 0, []
1630238136.7763, 5, 0, 4153.333, 4215.385, 4093.333, 4185.128, 4125.128, 450, 0, []
1630238136.7843, 6, 0, 4173.846, 4215.897, 4108.205, 4206.667, 4122.051, 16079, 0, []
1630238136.7921, 7, 0, 4174.872, 4238.974, 4098.462, 4199.487, 4140.513, 450, 0, []
1630238136.8001, 8, 0, 4155.385, 4225.641, 4096.41, 4200.513, 4135.897, 450, 0, []
1630238136.808, 9, 0, 4150.769, 4188.205, 4071.795, 4190.769, 4108.205, 16060, 0, []
1630238136.816, 10, 0, 4141.538, 4190.769, 4082.564, 4180, 4093.333, 450, 0, []
1630238136.8239, 11, 0, 4135.897, 4218.974, 4098.462, 4191.282, 4098.974, 16201, 0, []
1630238136.8316, 12, 0, 4152.308, 4236.41, 4088.205, 4192.821, 4105.641, 450, 0, []
1630238136.8395, 13, 0, 4147.692, 4232.308, 4110.256, 4187.179, 4104.615, 450, 0, []
1630238136.8473, 14, 0, 4127.179, 4209.744, 4090.256, 4178.462, 4098.974, 450, 0, []
1630238136.8552, 15, 0, 4131.282, 4199.487, 4066.667, 4177.436, 4087.179, 16201, 0, []
1630238136.863, 16, 0, 4132.821, 4207.692, 4067.179, 4181.538, 4087.179, 0, 0, []
1630238136.8708, 17, 0, 4122.051, 4202.051, 4053.846, 4177.436, 4097.949, 0, 0, []
1630238136.8786, 18, 0, 4139.487, 4177.436, 4085.641, 4190.769, 4104.615, 0, 0, []
1630238136.8865, 19, 0, 4164.103, 4165.641, 4105.641, 4201.026, 4124.615, 0, 0, []
1630238136.8943, 20, 0, 4163.077, 4173.333, 4101.026, 4193.846, 4141.026, 0, 0, []
1630238136.9023, 21, 0, 4155.385, 4192.821, 4093.333, 4187.692, 4112.308, 0, 0, []
1630238136.9101, 22, 0, 4136.41, 4209.744, 4069.231, 4179.487, 4077.436, 0, 0, []
1630238136.9181, 23, 0, 4117.949, 4218.974, 4072.821, 4186.154, 4085.128, 0, 0, []
1630238136.926, 24, 0, 4124.615, 4218.974, 4057.436, 4191.282, 4090.256, 0, 0, []
1630238136.934, 25, 0, 4123.59, 4212.308, 4055.897, 4190.769, 4080, 0, 0, []
1630238136.9419, 26, 0, 4123.59, 4225.128, 4078.462, 4198.974, 4095.897, 0, 0, []
1630238136.9498, 27, 0, 4156.923, 4237.436, 4073.333, 4198.974, 4121.026, 0, 0, []
1630238136.9577, 28, 0, 4169.231, 4221.538, 4094.359, 4207.692, 4130.769, 0, 0, []
1630238136.9657, 29, 0, 4144.615, 4218.462, 4085.641, 4207.179, 4124.615, 0, 0, []
1630238136.9736, 30, 0, 4125.128, 4224.615, 4057.436, 4184.615, 4094.872, 0, 0, []
1630238136.9816, 31, 0, 4103.077, 4202.564, 4053.333, 4171.795, 4065.641, 0, 0, []
1630238136.9894, 32, 0, 4094.872, 4206.154, 4034.872, 4167.179, 4071.795, 0, 0, []
1630238136.9972, 33, 0, 4126.154, 4242.564, 4065.128, 4177.436, 4088.205, 0, 0, []
1630238137.0051, 34, 0, 4141.026, 4244.103, 4084.615, 4181.538, 4100.513, 0, 0, []
1630238137.0129, 35, 0, 4144.103, 4216.923, 4085.128, 4192.821, 4132.308, 0, 0, []
1630238137.0208, 36, 0, 4178.462, 4200, 4116.923, 4227.179, 4154.872, 0, 0, []
1630238137.0286, 37, 0, 4177.436, 4171.282, 4085.641, 4205.641, 4135.385, 0, 0, []
1630238137.0364, 38, 0, 4134.872, 4126.154, 4058.462, 4166.667, 4110.256, 0, 0, []
1630238137.0442, 39, 0, 4138.462, 4126.667, 4065.128, 4178.462, 4102.564, 0, 0, []
1630238137.0521, 40, 0, 4151.282, 4154.359, 4066.667, 4188.718, 4103.59, 0, 0, []
1630238137.0599, 41, 0, 4129.231, 4124.103, 4073.333, 4178.974, 4108.718, 0, 0, []
1630238137.0679, 42, 0, 4130.769, 4085.641, 4054.872, 4173.333, 4107.692, 0, 0, []
1630238137.0757, 43, 0, 4146.154, 4125.128, 4072.308, 4186.667, 4108.718, 0, 0, []
1630238137.0837, 44, 0, 4136.41, 4171.282, 4081.026, 4179.487, 4116.923, 0, 0, []
1630238137.0916, 45, 0, 4124.615, 4154.872, 4061.026, 4155.897, 4108.718, 0, 0, []
1630238137.0996, 46, 0, 4125.128, 4151.795, 4093.846, 4170.769, 4103.077, 0, 0, []
1630238137.1075, 47, 0, 4134.359, 4187.692, 4095.897, 4184.615, 4113.333, 0, 0, []
1630238137.1154, 48, 0, 4136.923, 4182.051, 4074.359, 4168.718, 4103.59, 0, 0, []
1630238137.1233, 49, 0, 4121.026, 4170.769, 4061.026, 4163.077, 4094.359, 0, 0, []
1630238137.1313, 50, 0, 4118.462, 4231.795, 4039.487, 4171.795, 4105.641, 0, 0, []
1630238137.1392, 51, 0, 4136.41, 4269.231, 4046.154, 4162.051, 4098.974, 0, 0, []
1630238137.147, 52, 0, 4132.308, 4225.641, 4040.513, 4133.333, 4083.59, 0, 0, []
1630238137.1548, 53, 0, 4122.051, 4191.795, 4054.872, 4148.205, 4089.744, 0, 0, []
1630238137.1626, 54, 0, 4141.026, 4202.564, 4085.128, 4176.41, 4109.231, 0, 0, []
1630238137.1705, 55, 0, 4157.949, 4211.282, 4084.615, 4176.41, 4127.692, 0, 0, []
1630238137.1783, 56, 0, 4153.846, 4213.846, 4093.333, 4198.462, 4122.564, 0, 0, []
1630238137.1862, 57, 0, 4138.974, 4226.667, 4063.59, 4192.308, 4099.487, 0, 0, []
1630238137.1939, 58, 0, 4130.769, 4217.949, 4052.308, 4158.974, 4101.538, 0, 0, []
1630238137.2018, 59, 0, 4148.718, 4187.692, 4078.974, 4171.282, 4122.564, 0, 0, []
1630238137.2096, 60, 0, 4170.256, 4161.538, 4061.026, 4167.692, 4129.744, 0, 0, []
1630238137.2176, 61, 0, 4167.692, 4136.41, 4066.154, 4148.205, 4131.282, 0, 0, []
1630238137.2255, 62, 0, 4165.128, 4127.692, 4064.615, 4156.923, 4125.128, 0, 0, []
1630238137.2334, 63, 0, 4161.026, 4158.462, 4056.923, 4171.282, 4111.795, 0, 0, []
1630238137.2413, 64, 0, 4156.923, 4208.718, 4093.846, 4189.231, 4127.692, 450, 0, []
1630238137.2493, 65, 0, 4176.923, 4232.308, 4103.59, 4211.795, 4149.231, 450, 0, []
1630238137.2572, 66, 0, 4183.077, 4236.41, 4098.974, 4216.41, 4130.769, 16193, 0, []
1630238137.2652, 67, 0, 4158.974, 4239.487, 4083.59, 4182.051, 4120, 450, 0, []
1630238137.273, 68, 0, 4156.923, 4237.436, 4085.641, 4165.641, 4138.974, 16102, 0, []
1630238137.281, 69, 0, 4177.436, 4237.436, 4098.974, 4181.026, 4136.923, 450, 0, []
1630238137.2889, 70, 0, 4162.051, 4235.385, 4056.923, 4160, 4117.436, 16074, 0, []
1630238137.2968, 71, 0, 4140.513, 4238.462, 4063.077, 4154.872, 4117.949, 450, 0, []
1630238137.3047, 72, 0, 4162.564, 4234.359, 4084.615, 4183.077, 4118.974, 450, 0, []
1630238137.3124, 73, 0, 4167.692, 4184.103, 4063.077, 4168.205, 4103.59, 16057, 0, []
1630238137.3203, 74, 0, 4151.282, 4153.846, 4070.256, 4151.282, 4106.667, 450, 0, []
1630238137.3281, 75, 0, 4160, 4183.077, 4062.564, 4163.59, 4111.795, 16198, 0, []
1630238137.336, 76, 0, 4162.564, 4154.359, 4060, 4162.564, 4095.897, 450, 0, []
1630238137.3438, 77, 0, 4155.385, 4088.718, 4070.256, 4149.744, 4102.564, 450, 0, []
1630238137.3518, 78, 0, 4173.846, 4114.359, 4075.385, 4174.359, 4129.744, 450, 0, []
1630238137.3596, 79, 0, 4191.282, 4152.821, 4102.051, 4204.103, 4148.205, 16198, 0, []
1630238137.3676, 80, 0, 4190.256, 4090.769, 4098.462, 4188.205, 4157.949, 450, 0, []
1630238137.3755, 81, 0, 4195.385, 4045.128, 4102.051, 4195.897, 4152.308, 450, 0, []
1630238137.3835, 82, 0, 4183.59, 4076.923, 4100, 4204.103, 4133.333, 450, 0, []
1630238137.3914, 83, 0, 4148.205, 4079.487, 4066.667, 4166.667, 4125.641, 16198, 0, []
1630238137.3993, 84, 0, 4154.359, 4092.308, 4075.385, 4166.154, 4136.41, 450, 0, []
1630238137.4072, 85, 0, 4188.718, 4171.282, 4076.923, 4178.974, 4152.308, 450, 0, []
1630238137.4152, 86, 0, 4188.205, 4209.231, 4089.744, 4170.769, 4165.128, 450, 0, []
1630238137.4231, 87, 0, 4177.436, 4194.872, 4101.026, 4181.538, 4165.641, 16198, 0, []
1630238137.431, 88, 0, 4192.821, 4218.974, 4070.769, 4194.359, 4151.795, 450, 0, []
1630238137.4388, 89, 0, 4199.487, 4241.538, 4087.179, 4192.308, 4144.615, 450, 0, []
1630238137.4468, 90, 0, 4190.256, 4219.487, 4092.821, 4193.333, 4158.974, 450, 0, []
1630238137.4547, 91, 0, 4196.41, 4230.769, 4073.846, 4211.795, 4166.667, 16198, 0, []
1630238137.4626, 92, 0, 4197.949, 4267.692, 4073.846, 4209.231, 4152.308, 450, 0, []
1630238137.4706, 93, 0, 4180.513, 4270.256, 4069.231, 4169.744, 4145.641, 450, 0, []
1630238137.4783, 94, 0, 4186.667, 4251.795, 4092.821, 4177.436, 4156.923, 450, 0, []
1630238137.4862, 95, 0, 4210.769, 4249.744, 4082.564, 4208.718, 4162.564, 16198, 0, []
1630238137.494, 96, 0, 4204.103, 4252.821, 4067.179, 4188.718, 4160, 450, 0, []
1630238137.5019, 97, 0, 4188.718, 4231.282, 4091.795, 4170.769, 4168.205, 450, 0, []
1630238137.5097, 98, 0, 4203.59, 4227.692, 4087.179, 4186.154, 4176.41, 450, 0, []
1630238137.5175, 99, 0, 4219.487, 4250.256, 4106.154, 4206.667, 4176.923, 16198, 0, []
1630238137.5253, 100, 0, 4203.077, 4255.385, 4116.41, 4202.564, 4172.308, 450, 0, []
1630238137.5333, 101, 0, 4188.205, 4263.59, 4100.513, 4190.769, 4165.128, 450, 0, []
1630238137.5412, 102, 0, 4198.974, 4284.103, 4098.974, 4191.795, 4161.538, 450, 0, []
1630238137.5492, 103, 0, 4200.513, 4261.538, 4072.308, 4171.795, 4160, 16198, 0, []
1630238137.557, 104, 0, 4197.436, 4216.923, 4075.385, 4165.128, 4172.308, 450, 0, []
1630238137.565, 105, 0, 4237.949, 4234.872, 4072.821, 4177.436, 4211.282, 450, 0, []
1630238137.5729, 106, 0, 4295.385, 4262.564, 4057.436, 4174.359, 4258.974, 450, 0, []
1630238137.5809, 107, 0, 4325.128, 4246.667, 4083.077, 4175.385, 4312.821, 16198, 0, []
1630238137.5888, 108, 0, 4358.974, 4250.256, 4075.897, 4178.974, 4382.051, 450, 0, []
1630238137.5967, 109, 0, 4393.333, 4264.615, 4073.846, 4195.897, 4424.103, 450, 0, []
1630238137.6046, 110, 0, 4387.692, 4257.949, 4077.949, 4207.692, 4415.897, 450, 0, []
1630238137.6124, 111, 0, 4355.897, 4249.231, 4060.513, 4200, 4396.41, 16198, 0, []
1630238137.6203, 112, 0, 4322.051, 4263.077, 4071.282, 4212.308, 4373.846, 450, 0, []
1630238137.6281, 113, 0, 4282.564, 4270.769, 4068.718, 4216.41, 4347.179, 450, 0, []
1630238137.6359, 114, 0, 4233.333, 4251.795, 4087.692, 4215.897, 4331.795, 450, 0, []
1630238137.6437, 115, 0, 4196.41, 4245.128, 4108.205, 4229.744, 4315.385, 16198, 0, []
1630238137.6516, 116, 0, 4172.308, 4253.333, 4086.667, 4230.769, 4268.718, 450, 0, []
1630238137.6594, 117, 0, 4134.872, 4266.667, 4084.615, 4224.615, 4224.615, 450, 0, []
1630238137.6673, 118, 0, 4106.154, 4265.641, 4073.846, 4222.564, 4216.923, 450, 0, []
1630238137.675, 119, 0, 4107.179, 4240, 4083.077, 4233.333, 4204.615, 16198, 0, []
1630238137.683, 120, 0, 4105.128, 4228.205, 4103.077, 4237.436, 4192.308, 450, 0, []
1630238137.6909, 121, 0, 4095.897, 4241.026, 4093.333, 4221.026, 4198.462, 450, 0, []
1630238137.6989, 122, 0, 4101.026, 4243.077, 4104.103, 4228.718, 4181.026, 450, 0, []
1630238137.7068, 123, 0, 4093.333, 4209.231, 4081.026, 4228.205, 4149.744, 16198, 0, []
1630238137.7148, 124, 0, 4075.385, 4195.385, 4064.615, 4212.821, 4147.692, 450, 0, []
1630238137.7226, 125, 0, 4084.103, 4237.949, 4080, 4218.462, 4145.128, 450, 0, []
1630238137.7306, 126, 0, 4100, 4270.769, 4066.154, 4220.513, 4141.538, 450, 0, []
1630238137.7385, 127, 0, 4101.538, 4244.103, 4083.59, 4224.103, 4168.205, 16198, 0, []
1630238137.7465, 128, 0, 4102.051, 4226.154, 4081.026, 4223.59, 4166.667, 450, 0, []
1630238137.7544, 0, 0, 4102.051, 4252.308, 4069.744, 4223.077, 4144.103, 450, 0, []
1630238137.7621, 1, 0, 4106.667, 4246.154, 4094.872, 4240.513, 4162.051, 450, 0, []
1630238137.77, 2, 0, 4111.795, 4227.692, 4083.077, 4242.564, 4171.282, 16189, 0, []
1630238137.7778, 3, 0, 4100.513, 4267.179, 4084.103, 4234.872, 4146.154, 450, 0, []
1630238137.7857, 4, 0, 4095.897, 4293.846, 4078.974, 4220, 4141.538, 16097, 0, []
1630238137.7935, 5, 0, 4103.59, 4261.026, 4065.128, 4201.026, 4137.949, 450, 0, []
1630238137.8013, 6, 0, 4094.872, 4256.923, 4083.59, 4205.641, 4124.103, 16094, 0, []
1630238137.8091, 7, 0, 4083.077, 4295.897, 4074.872, 4209.744, 4126.667, 450, 0, []
1630238137.817, 8, 0, 4090.256, 4291.795, 4079.487, 4213.846, 4120.513, 450, 0, []
1630238137.8248, 9, 0, 4092.821, 4252.308, 4083.077, 4212.821, 4108.205, 16059, 0, []
1630238137.8328, 10, 0, 4084.103, 4237.436, 4079.487, 4210.769, 4117.436, 450, 0, []
1630238137.8406, 11, 0, 4102.051, 4255.897, 4102.051, 4230.256, 4131.282, 16200, 0, []
1630238137.8486, 12, 0, 4130.769, 4263.59, 4092.308, 4223.077, 4149.231, 450, 0, []
1630238137.8565, 13, 0, 4132.308, 4242.051, 4093.846, 4208.205, 4180, 450, 0, []
1630238137.8645, 14, 0, 4130.256, 4239.487, 4089.744, 4209.231, 4180, 450, 0, []
1630238137.8724, 15, 0, 4134.359, 4232.821, 4072.821, 4190.769, 4149.744, 16200, 0, []
1630238137.8803, 16, 0, 4128.205, 4210.256, 4091.795, 4186.154, 4152.308, 0, 0, []
1630238137.8882, 17, 0, 4123.59, 4234.872, 4077.436, 4193.333, 4158.462, 0, 0, []
1630238137.8962, 18, 0, 4129.231, 4266.667, 4071.282, 4194.359, 4136.923, 0, 0, []
1630238137.9041, 19, 0, 4129.744, 4254.359, 4082.051, 4191.795, 4140.513, 0, 0, []
1630238137.9119, 20, 0, 4130.256, 4238.974, 4071.795, 4193.333, 4160, 0, 0, []
1630238137.9197, 21, 0, 4129.231, 4236.923, 4082.051, 4201.026, 4140.513, 0, 0, []
1630238137.9277, 22, 0, 4116.923, 4230.769, 4075.897, 4185.128, 4121.026, 0, 0, []
1630238137.9356, 23, 0, 4118.974, 4248.718, 4084.615, 4185.128, 4136.41, 0, 0, []
1630238137.9434, 24, 0, 4142.564, 4257.436, 4093.846, 4209.744, 4143.077, 0, 0, []
1630238137.9513, 25, 0, 4146.154, 4228.718, 4075.897, 4202.564, 4134.359, 0, 0, []
1630238137.959, 26, 0, 4130.769, 4224.103, 4083.077, 4194.359, 4130.769, 0, 0, []
1630238137.9669, 27, 0, 4131.282, 4238.462, 4066.667, 4192.821, 4115.385, 0, 0, []
1630238137.9747, 28, 0, 4133.333, 4252.821, 4062.051, 4184.103, 4103.59, 0, 0, []
1630238137.9826, 29, 0, 4133.333, 4265.641, 4081.026, 4186.667, 4121.538, 0, 0, []
1630238137.9904, 30, 0, 4141.538, 4253.846, 4068.718, 4194.872, 4130.769, 0, 0, []
1630238137.9983, 31, 0, 4140, 4226.154, 4073.846, 4190.256, 4116.41, 0, 0, []
1630238138.0062, 32, 0, 4135.897, 4226.154, 4067.179, 4184.615, 4124.103, 0, 0, []
1630238138.0142, 33, 0, 4149.231, 4264.103, 4067.179, 4210.769, 4140.513, 0, 0, []
1630238138.0221, 34, 0, 4159.487, 4276.41, 4080, 4213.846, 4131.795, 0, 0, []
1630238138.0301, 35, 0, 4145.641, 4238.462, 4069.744, 4175.897, 4124.615, 0, 0, []
1630238138.0379, 36, 0, 4138.462, 4211.795, 4078.974, 4185.641, 4128.205, 0, 0, []
1630238138.0459, 37, 0, 4145.128, 4223.077, 4050.256, 4181.026, 4118.974, 0, 0, []
1630238138.0538, 38, 0, 4140.513, 4232.821, 4061.538, 4158.974, 4106.667, 0, 0, []
1630238138.0616, 39, 0, 4142.564, 4242.051, 4088.205, 4175.897, 4110.256, 0, 0, []
1630238138.0695, 40, 0, 4157.949, 4269.231, 4044.103, 4171.282, 4108.718, 0, 0, []
1630238138.0773, 41, 0, 4153.846, 4238.462, 4067.692, 4167.692, 4100, 0, 0, []
1630238138.0851, 42, 0, 4146.667, 4111.795, 4062.564, 4162.564, 4099.487, 0, 0, []
1630238138.0929, 43, 0, 4165.128, 4023.077, 4046.667, 4158.974, 4100.513, 0, 0, []
1630238138.1008, 44, 0, 4176.923, 4031.282, 4076.41, 4177.436, 4115.385, 0, 0, []
1630238138.1086, 45, 0, 4158.974, 4014.359, 4040, 4162.051, 4126.154, 0, 0, []
1630238138.1165, 46, 0, 4149.744, 3951.282, 4055.897, 4158.974, 4107.179, 0, 0, []
1630238138.1242, 47, 0, 4157.436, 3954.359, 4069.231, 4164.103, 4098.462, 0, 0, []
1630238138.1322, 48, 0, 4168.205, 4015.897, 4063.077, 4167.692, 4122.051, 0, 0, []
1630238138.1401, 49, 0, 4183.59, 4030.769, 4088.205, 4185.641, 4128.718, 0, 0, []
1630238138.1481, 50, 0, 4178.462, 3994.359, 4060.513, 4162.051, 4106.667, 0, 0, []
1630238138.156, 51, 0, 4162.564, 3998.974, 4068.205, 4155.897, 4112.308, 0, 0, []
1630238138.1639, 52, 0, 4176.923, 4041.538, 4071.795, 4168.718, 4125.641, 0, 0, []
1630238138.1718, 53, 0, 4186.667, 4030.256, 4051.282, 4150.256, 4121.026, 0, 0, []
1630238138.1798, 54, 0, 4170.769, 4014.359, 4065.641, 4151.282, 4130.256, 0, 0, []
1630238138.1877, 55, 0, 4175.385, 4064.103, 4045.641, 4167.692, 4138.974, 0, 0, []
1630238138.1957, 56, 0, 4188.718, 4071.282, 4052.308, 4168.205, 4123.077, 0, 0, []
1630238138.2035, 57, 0, 4171.282, 4025.128, 4064.615, 4150.256, 4116.923, 0, 0, []
1630238138.2113, 58, 0, 4163.59, 4036.41, 4047.179, 4147.179, 4120.513, 0, 0, []
1630238138.2192, 59, 0, 4182.564, 4062.051, 4054.872, 4160, 4108.205, 0, 0, []
1630238138.227, 60, 0, 4188.718, 4065.128, 4053.333, 4151.795, 4115.897, 0, 0, []
1630238138.2349, 61, 0, 4188.205, 4081.538, 4063.077, 4157.949, 4142.051, 0, 0, []
1630238138.2426, 62, 0, 4202.051, 4091.795, 4054.872, 4169.744, 4142.564, 0, 0, []
1630238138.2505, 63, 0, 4209.744, 4077.436, 4036.41, 4157.949, 4142.564, 0, 0, []
1630238138.2583, 64, 0, 4198.462, 4063.59, 4054.359, 4158.974, 4155.385, 450, 0, []
1630238138.2662, 65, 0, 4201.026, 4070.256, 4044.615, 4161.026, 4150.256, 450, 0, []
1630238138.274, 66, 0, 4216.41, 4072.821, 4050.769, 4160.513, 4140, 16189, 0, []
1630238138.2818, 67, 0, 4214.359, 4034.359, 4068.205, 4157.949, 4150.256, 450, 0, []
1630238138.2896, 68, 0, 4206.154, 4001.538, 4056.41, 4146.154, 4150.256, 16103, 0, []
1630238138.2975, 69, 0, 4211.282, 4032.821, 4054.872, 4145.641, 4127.692, 450, 0, []
1630238138.3053, 70, 0, 4214.872, 4064.615, 4050.256, 4140.513, 4118.974, 16085, 0, []
1630238138.3133, 71, 0, 4198.462, 4050.769, 4060, 4138.974, 4126.667, 450, 0, []
1630238138.3211, 72, 0, 4201.026, 4045.641, 4067.692, 4157.436, 4136.923, 450, 0, []
1630238138.3291, 73, 0, 4229.744, 4050.256, 4061.538, 4167.692, 4145.128, 16062, 0, []
1630238138.337, 74, 0, 4230.769, 4052.821, 4077.436, 4161.538, 4145.128, 450, 0, []
1630238138.345, 75, 0, 4209.231, 4046.667, 4068.718, 4147.179, 4143.59, 16202, 0, []
1630238138.3529, 76, 0, 4210.256, 4034.872, 4056.923, 4149.744, 4137.436, 450, 0, []
1630238138.3608, 77, 0, 4225.128, 4060, 4065.128, 4159.487, 4127.179, 450, 0, []
1630238138.3687, 78, 0, 4211.795, 4081.538, 4057.949, 4145.641, 4128.718, 450, 0, []
1630238138.3765, 79, 0, 4201.538, 4044.103, 4073.846, 4147.692, 4140, 16202, 0, []
1630238138.3844, 80, 0, 4223.077, 4016.923, 4068.205, 4156.923, 4134.359, 450, 0, []
1630238138.3922, 81, 0, 4235.897, 4036.41, 4053.333, 4144.615, 4124.103, 450, 0, []
1630238138.4001, 82, 0, 4221.538, 4051.282, 4070.769, 4145.641, 4137.949, 450, 0, []
1630238138.4078, 83, 0, 4212.821, 4049.231, 4064.103, 4152.308, 4145.128, 16202, 0, []
1630238138.4157, 84, 0, 4219.487, 4037.436, 4063.077, 4154.872, 4131.795, 450, 0, []
1630238138.4235, 85, 0, 4218.462, 4043.59, 4068.718, 4151.795, 4135.385, 450, 0, []
1630238138.4314, 86, 0, 4218.462, 4072.821, 4071.795, 4158.974, 4156.41, 450, 0, []
1630238138.4392, 87, 0, 4232.821, 4085.641, 4073.333, 4174.872, 4159.487, 16202, 0, []
1630238138.447, 88, 0, 4238.974, 4081.538, 4061.538, 4158.462, 4146.667, 450, 0, []
1630238138.4548, 89, 0, 4223.077, 4082.564, 4079.487, 4148.205, 4151.282, 450, 0, []
1630238138.4627, 90, 0, 4217.949, 4084.103, 4083.077, 4160, 4161.026, 450, 0, []
1630238138.4706, 91, 0, 4228.718, 4073.846, 4066.154, 4156.923, 4142.564, 16202, 0, []
1630238138.4786, 92, 0, 4229.231, 4064.103, 4079.487, 4149.744, 4125.641, 450, 0, []
1630238138.4865, 93, 0, 4225.128, 4077.436, 4084.103, 4157.949, 4146.154, 450, 0, []
1630238138.4944, 94, 0, 4235.897, 4104.615, 4078.974, 4176.41, 4162.051, 450, 0, []
1630238138.5023, 95, 0, 4249.231, 4112.821, 4066.667, 4164.615, 4140.513, 16202, 0, []
1630238138.5103, 96, 0, 4242.051, 4106.667, 4069.231, 4137.436, 4128.718, 450, 0, []
1630238138.5182, 97, 0, 4230.769, 4110.256, 4090.256, 4146.667, 4149.744, 450, 0, []
1630238138.5261, 98, 0, 4238.462, 4116.923, 4072.821, 4162.051, 4158.462, 450, 0, []
1630238138.534, 99, 0, 4258.974, 4122.564, 4075.385, 4170.769, 4154.359, 16202, 0, []
1630238138.5418, 100, 0, 4269.744, 4132.308, 4097.436, 4171.795, 4173.333, 450, 0, []
1630238138.5497, 101, 0, 4257.436, 4143.59, 4087.179, 4156.41, 4189.744, 450, 0, []
1630238138.5575, 102, 0, 4244.615, 4159.487, 4077.949, 4154.872, 4170.769, 450, 0, []
1630238138.5653, 103, 0, 4257.436, 4164.103, 4059.487, 4150.256, 4146.154, 16202, 0, []
1630238138.5731, 104, 0, 4266.154, 4154.359, 4063.59, 4133.333, 4144.103, 450, 0, []
1630238138.581, 105, 0, 4249.231, 4154.872, 4081.538, 4138.974, 4163.59, 450, 0, []
1630238138.5888, 106, 0, 4248.205, 4147.692, 4075.897, 4166.154, 4183.59, 450, 0, []
1630238138.5968, 107, 0, 4281.538, 4133.333, 4074.872, 4183.59, 4184.615, 16202, 0, []
1630238138.6046, 108, 0, 4300.513, 4148.205, 4064.103, 4157.436, 4192.308, 450, 0, []
1630238138.6126, 109, 0, 4293.333, 4181.026, 4067.179, 4138.974, 4224.615, 450, 0, []
1630238138.6205, 110, 0, 4293.333, 4189.231, 4075.897, 4148.718, 4243.077, 450, 0, []
1630238138.6285, 111, 0, 4310.769, 4197.436, 4058.462, 4141.026, 4243.59, 16202, 0, []
1630238138.6364, 112, 0, 4353.846, 4224.103, 4071.282, 4142.051, 4276.923, 450, 0, []
1630238138.6443, 113, 0, 4414.872, 4233.846, 4081.538, 4150.769, 4326.667, 450, 0, []
1630238138.6522, 114, 0, 4456.923, 4245.641, 4072.821, 4145.128, 4355.385, 450, 0, []
1630238138.6602, 115, 0, 4481.538, 4260.513, 4070.256, 4139.487, 4380, 16202, 0, []
1630238138.6681, 116, 0, 4514.359, 4273.333, 4064.103, 4131.795, 4415.897, 450, 0, []
1630238138.6761, 117, 0, 4536.41, 4296.923, 4075.897, 4137.436, 4436.923, 450, 0, []
1630238138.6839, 118, 0, 4524.615, 4304.615, 4073.333, 4140.513, 4424.615, 450, 0, []
1630238138.6917, 119, 0, 4495.897, 4290.256, 4066.667, 4138.462, 4395.897, 16202, 0, []
1630238138.6996, 120, 0, 4469.744, 4288.718, 4082.564, 4140, 4378.462, 450, 0, []
1630238138.7074, 121, 0, 4443.59, 4307.179, 4077.949, 4132.308, 4367.692, 450, 0, []
1630238138.7153, 122, 0, 4417.436, 4341.026, 4083.077, 4140, 4351.282, 450, 0, []
1630238138.723, 123, 0, 4395.385, 4369.231, 4089.744, 4161.026, 4340, 16202, 0, []
1630238138.7309, 124, 0, 4373.846, 4358.974, 4082.564, 4166.154, 4323.077, 450, 0, []
1630238138.7387, 125, 0, 4351.282, 4368.718, 4083.077, 4158.462, 4287.179, 450, 0, []
1630238138.7466, 126, 0, 4332.308, 4429.231, 4072.821, 4147.692, 4254.872, 450, 0, []
1630238138.7544, 127, 0, 4318.462, 4464.615, 4088.718, 4157.949, 4248.718, 16202, 0, []
1630238138.7623, 128, 0, 4301.538, 4483.59, 4099.487, 4161.538, 4249.744, 450, 0, []
1630238138.77, 0, 0, 4278.974, 4506.154, 4075.897, 4147.692, 4238.974, 450, 0, []
1630238138.778, 1, 0, 4270.256, 4506.154, 4064.103, 4157.949, 4226.154, 450, 0, []
1630238138.7859, 2, 0, 4276.923, 4520, 4057.436, 4172.821, 4214.359, 16192, 0, []
1630238138.7939, 3, 0, 4271.282, 4573.333, 4072.308, 4165.641, 4197.949, 450, 0, []
1630238138.8018, 4, 0, 4243.59, 4612.821, 4077.949, 4144.615, 4182.564, 16105, 0, []
1630238138.8097, 5, 0, 4226.154, 4613.846, 4058.974, 4143.59, 4183.59, 450, 0, []
1630238138.8176, 6, 0, 4232.821, 4629.231, 4066.154, 4168.718, 4187.179, 16073, 0, []
1630238138.8256, 7, 0, 4231.282, 4648.718, 4057.949, 4160.513, 4163.59, 450, 0, []
1630238138.8335, 8, 0, 4217.436, 4630.769, 4056.923, 4144.103, 4140.513, 450, 0, []
1630238138.8414, 9, 0, 4211.795, 4622.051, 4074.359, 4160.513, 4159.487, 16060, 0, []
1630238138.8492, 10, 0, 4206.667, 4633.846, 4062.564, 4169.231, 4174.872, 450, 0, []
1630238138.8572, 11, 0, 4197.949, 4633.333, 4046.154, 4163.59, 4141.026, 16180, 0, []
1630238138.8651, 12, 0, 4197.436, 4630.769, 4039.487, 4150.769, 4115.897, 450, 0, []
1630238138.8729, 13, 0, 4203.077, 4612.821, 4062.051, 4148.718, 4139.487, 450, 0, []
1630238138.8808, 14, 0, 4196.923, 4570.769, 4072.821, 4162.051, 4149.231, 450, 0, []
1630238138.8885, 15, 0, 4194.872, 4580.513, 4051.795, 4166.154, 4130.256, 16180, 0, []
1630238138.8964, 16, 0, 4210.769, 4614.872, 4071.282, 4170.256, 4138.462, 0, 0, []
1630238138.9042, 17, 0, 4202.051, 4568.205, 4081.026, 4161.026, 4154.359, 0, 0, []
1630238138.9121, 18, 0, 4176.923, 4517.436, 4070.769, 4158.462, 4137.949, 0, 0, []
1630238138.9199, 19, 0, 4186.667, 4524.103, 4076.923, 4170.256, 4118.462, 0, 0, []
1630238138.9278, 20, 0, 4199.487, 4504.103, 4072.821, 4152.821, 4125.128, 0, 0, []
1630238138.9357, 21, 0, 4172.308, 4461.538, 4067.692, 4144.103, 4132.308, 0, 0, []
1630238138.9437, 22, 0, 4158.462, 4477.949, 4048.718, 4154.359, 4117.436, 0, 0, []
1630238138.9516, 23, 0, 4175.385, 4521.538, 4038.462, 4152.821, 4105.128, 0, 0, []
1630238138.9596, 24, 0, 4170.256, 4525.641, 4051.282, 4147.179, 4114.872, 0, 0, []
1630238138.9674, 25, 0, 4157.436, 4527.179, 4042.564, 4149.231, 4128.718, 0, 0, []
1630238138.9754, 26, 0, 4165.128, 4538.974, 4043.077, 4159.487, 4117.436, 0, 0, []
1630238138.9833, 27, 0, 4170.256, 4536.923, 4058.462, 4154.359, 4105.128, 0, 0, []
1630238138.9911, 28, 0, 4161.026, 4525.641, 4071.282, 4151.795, 4117.436, 0, 0, []
1630238138.999, 29, 0, 4170.769, 4530.769, 4084.615, 4175.897, 4132.821, 0, 0, []
1630238139.0067, 30, 0, 4193.846, 4544.103, 4079.487, 4178.974, 4126.154, 0, 0, []
1630238139.0146, 31, 0, 4177.949, 4530.769, 4082.051, 4157.949, 4112.821, 0, 0, []
1630238139.0224, 32, 0, 4149.231, 4492.821, 4068.205, 4147.179, 4108.205, 0, 0, []
1630238139.0303, 33, 0, 4156.41, 4467.692, 4042.051, 4155.385, 4101.538, 0, 0, []
1630238139.0381, 34, 0, 4170.256, 4469.231, 4055.897, 4167.692, 4099.487, 0, 0, []
1630238139.0459, 35, 0, 4151.282, 4477.949, 4063.077, 4152.821, 4108.205, 0, 0, []
1630238139.0537, 36, 0, 4142.051, 4480, 4064.103, 4151.795, 4110.769, 0, 0, []
1630238139.0617, 37, 0, 4166.667, 4483.59, 4059.487, 4175.897, 4106.667, 0, 0, []
1630238139.0696, 38, 0, 4175.897, 4488.205, 4045.128, 4172.821, 4111.795, 0, 0, []
1630238139.0776, 39, 0, 4146.667, 4489.744, 4052.308, 4156.41, 4103.59, 0, 0, []
1630238139.0854, 40, 0, 4127.692, 4500.513, 4043.077, 4152.821, 4080, 0, 0, []
1630238139.0934, 41, 0, 4144.615, 4508.718, 4041.026, 4157.949, 4081.538, 0, 0, []
1630238139.1013, 42, 0, 4153.846, 4489.744, 4058.462, 4152.308, 4104.615, 0, 0, []
1630238139.1093, 43, 0, 4154.359, 4489.744, 4067.692, 4150.256, 4121.538, 0, 0, []
1630238139.1172, 44, 0, 4169.744, 4518.462, 4075.385, 4179.487, 4117.949, 0, 0, []
1630238139.1252, 45, 0, 4179.487, 4505.641, 4063.077, 4181.538, 4112.821, 0, 0, []
1630238139.133, 46, 0, 4168.205, 4485.128, 4066.154, 4162.051, 4122.564, 0, 0, []
1630238139.141, 47, 0, 4162.051, 4509.231, 4076.923, 4168.205, 4127.692, 0, 0, []
1630238139.1489, 48, 0, 4167.692, 4510.256, 4061.026, 4170.256, 4108.205, 0, 0, []
1630238139.1567, 49, 0, 4165.128, 4497.436, 4071.795, 4166.154, 4101.026, 0, 0, []
1630238139.1646, 50, 0, 4162.564, 4515.385, 4087.692, 4164.103, 4122.051, 0, 0, []
1630238139.1723, 51, 0, 4172.308, 4503.077, 4076.41, 4164.103, 4121.026, 0, 0, []
1630238139.1802, 52, 0, 4175.385, 4480.513, 4067.692, 4162.051, 4110.769, 0, 0, []
1630238139.188, 53, 0, 4155.385, 4493.333, 4062.564, 4154.359, 4115.897, 0, 0, []
1630238139.1959, 54, 0, 4149.231, 4470.769, 4067.692, 4170.256, 4116.923, 0, 0, []
1630238139.2037, 55, 0, 4160.513, 4422.051, 4049.744, 4175.385, 4104.615, 0, 0, []
1630238139.2115, 56, 0, 4147.179, 4437.436, 4041.026, 4151.795, 4101.538, 0, 0, []
1630238139.2193, 57, 0, 4129.744, 4473.846, 4061.026, 4149.231, 4107.179, 0, 0, []
1630238139.2272, 58, 0, 4137.949, 4451.795, 4042.564, 4154.359, 4098.974, 0, 0, []
1630238139.235, 59, 0, 4146.667, 4433.333, 4040, 4150.256, 4092.821, 0, 0, []
1630238139.243, 60, 0, 4124.103, 4466.667, 4049.231, 4137.436, 4092.821, 0, 0, []
1630238139.2508, 61, 0, 4112.821, 4484.103, 4041.538, 4139.487, 4087.692, 0, 0, []
1630238139.2588, 62, 0, 4140, 4447.692, 4048.718, 4160.513, 4081.026, 0, 0, []
1630238139.2667, 63, 0, 4157.949, 4415.385, 4050.256, 4152.308, 4085.641, 0, 0, []
1630238139.2747, 64, 0, 4151.795, 4436.41, 4061.026, 4151.795, 4102.564, 450, 0, []
1630238139.2826, 65, 0, 4152.308, 4468.205, 4056.41, 4166.154, 4096.923, 450, 0, []
1630238139.2905, 66, 0, 4152.821, 4457.949, 4041.026, 4148.718, 4078.974, 16194, 0, []
1630238139.2984, 67, 0, 4142.564, 4441.538, 4046.667, 4138.462, 4087.692, 450, 0, []
1630238139.3062, 68, 0, 4143.077, 4467.179, 4037.436, 4145.641, 4096.923, 16095, 0, []
1630238139.3141, 69, 0, 4144.103, 4476.923, 4036.41, 4141.538, 4073.846, 450, 0, []
1630238139.3219, 70, 0, 4134.872, 4439.487, 4042.051, 4134.872, 4061.026, 16086, 0, []
1630238139.3297, 71, 0, 4136.923, 4421.538, 4033.333, 4149.744, 4078.462, 450, 0, []
1630238139.3375, 72, 0, 4142.051, 4430.256, 4034.872, 4161.026, 4076.923, 450, 0, []
1630238139.3454, 73, 0, 4143.59, 4416.41, 4038.974, 4142.051, 4075.385, 16063, 0, []
1630238139.3532, 74, 0, 4152.308, 4409.744, 4062.051, 4151.795, 4098.462, 450, 0, []
1630238139.3611, 75, 0, 4154.872, 4441.026, 4067.692, 4168.718, 4095.897, 16201, 0, []
1630238139.3688, 76, 0, 4141.538, 4449.744, 4042.051, 4146.667, 4076.41, 450, 0, []
1630238139.3767, 77, 0, 4131.795, 4412.821, 4051.282, 4138.462, 4086.154, 450, 0, []
1630238139.3845, 78, 0, 4145.128, 4400, 4057.436, 4148.718, 4098.974, 450, 0, []
1630238139.3925, 79, 0, 4156.41, 4427.692, 4055.897, 4158.462, 4088.205, 16201, 0, []
1630238139.4004, 80, 0, 4140.513, 4431.282, 4063.59, 4154.359, 4089.231, 450, 0, []
1630238139.4083, 81, 0, 4133.333, 4392.821, 4057.436, 4145.128, 4102.564, 450, 0, []
1630238139.4162, 82, 0, 4151.282, 4392.308, 4061.026, 4157.436, 4093.846, 450, 0, []
1630238139.4242, 83, 0, 4146.667, 4420.513, 4053.846, 4148.205, 4090.769, 16201, 0, []
1630238139.4321, 84, 0, 4130.256, 4403.59, 4048.718, 4132.821, 4109.744, 450, 0, []
1630238139.4401, 85, 0, 4145.641, 4372.821, 4053.333, 4152.821, 4105.128, 450, 0, []
1630238139.448, 86, 0, 4152.308, 4363.59, 4039.487, 4152.308, 4080.513, 450, 0, []
1630238139.4559, 87, 0, 4122.564, 4367.179, 4041.026, 4132.308, 4079.487, 16201, 0, []
1630238139.4638, 88, 0, 4114.359, 4382.564, 4033.333, 4130.769, 4082.051, 450, 0, []
1630238139.4716, 89, 0, 4136.923, 4390.256, 4023.59, 4136.41, 4077.436, 450, 0, []
1630238139.4795, 90, 0, 4133.333, 4377.436, 4044.615, 4141.538, 4092.821, 450, 0, []
1630238139.4873, 91, 0, 4118.462, 4368.718, 4044.615, 4141.538, 4102.564, 16201, 0, []
1630238139.4951, 92, 0, 4126.154, 4337.949, 4040.513, 4146.667, 4090.256, 450, 0, []
1630238139.5029, 93, 0, 4127.179, 4300.513, 4044.103, 4144.103, 4092.308, 450, 0, []
1630238139.5108, 94, 0, 4124.103, 4332.308, 4049.744, 4138.462, 4111.282, 450, 0, []
1630238139.5186, 95, 0, 4148.205, 4379.487, 4062.051, 4148.718, 4121.026, 16201, 0, []
1630238139.5265, 96, 0, 4156.923, 4374.359, 4053.846, 4145.128, 4119.487, 450, 0, []
1630238139.5342, 97, 0, 4137.949, 4362.564, 4050.256, 4142.051, 4112.308, 450, 0, []
1630238139.5421, 98, 0, 4142.051, 4367.179, 4044.103, 4146.667, 4098.462, 450, 0, []
1630238139.5499, 99, 0, 4146.667, 4355.385, 4038.974, 4133.846, 4093.333, 16201, 0, []
1630238139.5579, 100, 0, 4133.333, 4351.795, 4053.846, 4129.231, 4104.103, 450, 0, []
1630238139.5658, 101, 0, 4134.872, 4369.744, 4045.641, 4135.385, 4101.538, 450, 0, []
1630238139.5737, 102, 0, 4139.487, 4382.564, 4046.667, 4137.436, 4094.359, 450, 0, []
1630238139.5816, 103, 0, 4140, 4378.462, 4065.128, 4142.051, 4127.179, 16201, 0, []
1630238139.5896, 104, 0, 4161.026, 4347.179, 4067.179, 4165.128, 4160.513, 450, 0, []
1630238139.5975, 105, 0, 4181.538, 4324.615, 4072.308, 4190.256, 4146.667, 450, 0, []
1630238139.6055, 106, 0, 4166.154, 4339.487, 4070.256, 4171.795, 4139.487, 450, 0, []
1630238139.6133, 107, 0, 4148.718, 4345.641, 4081.538, 4158.462, 4153.846, 16201, 0, []
1630238139.6213, 108, 0, 4162.564, 4342.051, 4087.179, 4169.231, 4145.128, 450, 0, []
1630238139.6292, 109, 0, 4173.333, 4353.333, 4070.769, 4163.59, 4132.821, 450, 0, []
1630238139.637, 110, 0, 4156.923, 4343.59, 4078.974, 4164.615, 4142.564, 450, 0, []
1630238139.6449, 111, 0, 4154.872, 4318.462, 4073.333, 4168.205, 4148.205, 16201, 0, []
1630238139.6526, 112, 0, 4169.744, 4293.846, 4067.179, 4167.692, 4140, 450, 0, []
1630238139.6605, 113, 0, 4159.487, 4258.462, 4081.026, 4167.179, 4138.974, 450, 0, []
1630238139.6683, 114, 0, 4143.59, 4241.538, 4074.359, 4156.41, 4138.462, 450, 0, []
1630238139.6762, 115, 0, 4148.205, 4261.538, 4070.256, 4148.718, 4124.615, 16201, 0, []
1630238139.684, 116, 0, 4147.179, 4272.821, 4070.769, 4138.462, 4117.436, 450, 0, []
1630238139.6918, 117, 0, 4135.385, 4253.846, 4074.872, 4147.179, 4123.077, 450, 0, []
1630238139.6996, 118, 0, 4136.923, 4237.949, 4071.795, 4162.564, 4115.897, 450, 0, []
1630238139.7076, 119, 0, 4142.564, 4213.333, 4066.667, 4144.103, 4109.744, 16201, 0, []
1630238139.7155, 120, 0, 4143.077, 4172.821, 4089.744, 4139.487, 4129.231, 450, 0, []
1630238139.7235, 121, 0, 4156.41, 4160.513, 4085.128, 4157.949, 4147.692, 450, 0, []
1630238139.7313, 122, 0, 4170.769, 4188.205, 4082.051, 4164.103, 4149.744, 450, 0, []
1630238139.7393, 123, 0, 4158.974, 4191.795, 4103.077, 4160, 4153.846, 16201, 0, []
1630238139.7472, 124, 0, 4145.641, 4177.436, 4084.103, 4158.462, 4155.385, 450, 0, []
1630238139.7552, 125, 0, 4156.41, 4206.154, 4082.051, 4171.282, 4150.256, 450, 0, []
1630238139.7631, 126, 0, 4152.821, 4209.744, 4089.744, 4168.205, 4151.282, 450, 0, []
1630238139.771, 127, 0, 4138.462, 4179.487, 4072.821, 4152.821, 4153.846, 16201, 0, []
1630238139.7789, 128, 0, 4149.744, 4183.59, 4074.359, 4156.923, 4145.128, 450, 0, []
1630238139.7868, 0, 0, 4160, 4201.538, 4079.487, 4157.436, 4135.385, 450, 0, []
1630238139.7947, 1, 0, 4149.744, 4211.282, 4078.974, 4157.436, 4142.564, 450, 0, []
1630238139.8025, 2, 0, 4150.256, 4212.308, 4066.154, 4153.333, 4143.59, 16189, 0, []
1630238139.8104, 3, 0, 4153.333, 4198.462, 4056.41, 4141.026, 4131.282, 450, 0, []
1630238139.8181, 4, 0, 4150.256, 4206.154, 4076.41, 4158.462, 4143.077, 16103, 0, []
1630238139.826, 5, 0, 4168.205, 4238.462, 4079.487, 4178.974, 4162.564, 450, 0, []
1630238139.8338, 6, 0, 4176.41, 4234.359, 4071.795, 4170.769, 4151.282, 16087, 0, []
1630238139.8417, 7, 0, 4155.897, 4213.333, 4071.282, 4158.974, 4144.103, 450, 0, []
1630238139.8495, 8, 0, 4154.359, 4217.949, 4083.59, 4174.359, 4155.385, 450, 0, []
1630238139.8574, 9, 0, 4176.41, 4232.821, 4104.103, 4195.385, 4153.333, 16057, 0, []
1630238139.8653, 10, 0, 4177.949, 4232.308, 4096.41, 4174.359, 4150.769, 450, 0, []
1630238139.8733, 11, 0, 4157.949, 4227.692, 4096.41, 4162.051, 4159.487, 16201, 0, []
1630238139.8812, 12, 0, 4158.462, 4242.051, 4097.949, 4176.923, 4156.923, 450, 0, []
1630238139.8892, 13, 0, 4174.359, 4238.462, 4081.538, 4170.256, 4146.154, 450, 0, []
1630238139.897, 14, 0, 4170.256, 4229.744, 4095.897, 4165.128, 4153.333, 450, 0, []
1630238139.905, 15, 0, 4162.051, 4261.026, 4101.026, 4175.385, 4168.718, 16201, 0, []
1630238139.9129, 16, 0, 4181.026, 4288.718, 4092.821, 4193.333, 4167.179, 0, 0, []
1630238139.9209, 17, 0, 4191.795, 4261.026, 4093.333, 4189.744, 4161.538, 0, 0, []
1630238139.9288, 18, 0, 4164.615, 4212.308, 4081.538, 4165.641, 4156.41, 0, 0, []
1630238139.9367, 19, 0, 4146.667, 4188.205, 4075.897, 4173.333, 4142.051, 0, 0, []
1630238139.9446, 20, 0, 4153.846, 4190.769, 4070.256, 4180, 4136.41, 0, 0, []
1630238139.9525, 21, 0, 4152.308, 4202.051, 4075.385, 4173.333, 4150.769, 0, 0, []
1630238139.9604, 22, 0, 4152.821, 4202.051, 4083.077, 4179.487, 4158.974, 0, 0, []
1630238139.9682, 23, 0, 4156.41, 4178.462, 4067.692, 4169.744, 4141.538, 0, 0, []
1630238139.976, 24, 0, 4139.487, 4150.256, 4072.821, 4161.026, 4129.231, 0, 0, []
1630238139.9838, 25, 0, 4137.436, 4167.179, 4072.308, 4173.333, 4145.128, 0, 0, []
1630238139.9917, 26, 0, 4157.949, 4189.231, 4068.205, 4175.897, 4151.282, 0, 0, []
1630238139.9995, 27, 0, 4152.821, 4146.667, 4087.692, 4163.59, 4137.436, 0, 0, []
1630238140.0074, 28, 0, 4142.051, 4112.308, 4085.128, 4167.692, 4142.564, 0, 0, []
1630238140.0151, 29, 0, 4157.436, 4138.462, 4082.051, 4182.564, 4152.308, 0, 0, []
1630238140.0231, 30, 0, 4159.487, 4147.692, 4083.077, 4163.077, 4142.564, 0, 0, []
1630238140.031, 31, 0, 4154.359, 4118.974, 4084.615, 4153.333, 4147.692, 0, 0, []
1630238140.039, 32, 0, 4172.821, 4113.333, 4090.256, 4183.077, 4157.949, 0, 0, []
1630238140.0469, 33, 0, 4173.846, 4111.282, 4073.333, 4178.462, 4138.462, 0, 0, []
1630238140.0548, 34, 0, 4146.154, 4088.718, 4075.897, 4163.59, 4132.308, 0, 0, []
1630238140.0627, 35, 0, 4140.513, 4094.872, 4080, 4174.359, 4147.179, 0, 0, []
1630238140.0707, 36, 0, 4153.333, 4114.872, 4071.795, 4171.282, 4138.462, 0, 0, []
1630238140.0786, 37, 0, 4152.821, 4071.795, 4085.641, 4160, 4135.897, 0, 0, []
1630238140.0864, 38, 0, 4155.385, 4027.692, 4089.744, 4168.205, 4162.564, 0, 0, []
1630238140.0942, 39, 0, 4170.769, 4065.641, 4101.538, 4192.308, 4176.41, 0, 0, []
1630238140.102, 40, 0, 4176.923, 4088.205, 4110.769, 4190.256, 4172.821, 0, 0, []
1630238140.1099, 41, 0, 4163.077, 4046.667, 4090.769, 4167.692, 4173.333, 0, 0, []
1630238140.1177, 42, 0, 4158.974, 4040.513, 4076.41, 4172.308, 4164.615, 0, 0, []
1630238140.1256, 43, 0, 4167.692, 4069.744, 4068.718, 4169.744, 4148.718, 0, 0, []
1630238140.1333, 44, 0, 4158.462, 4073.333, 4080, 4158.974, 4151.282, 0, 0, []
1630238140.1412, 45, 0, 4146.667, 4064.615, 4082.051, 4172.821, 4159.487, 0, 0, []
1630238140.149, 46, 0, 4160.513, 4068.205, 4066.667, 4183.59, 4154.359, 0, 0, []
1630238140.1569, 47, 0, 4170.769, 4088.205, 4086.154, 4179.487, 4154.359, 0, 0, []
1630238140.1647, 48, 0, 4159.487, 4101.538, 4088.718, 4175.897, 4166.154, 0, 0, []
1630238140.1727, 49, 0, 4163.077, 4080.513, 4074.359, 4193.846, 4169.231, 0, 0, []
1630238140.1805, 50, 0, 4176.41, 4064.103, 4077.436, 4196.923, 4161.026, 0, 0, []
1630238140.1885, 51, 0, 4166.667, 4084.615, 4071.282, 4171.795, 4162.564, 0, 0, []
1630238140.1964, 52, 0, 4165.128, 4095.897, 4070.769, 4181.538, 4174.359, 0, 0, []
1630238140.2044, 53, 0, 4174.359, 4089.231, 4065.641, 4191.282, 4167.179, 0, 0, []
1630238140.2123, 54, 0, 4160, 4105.641, 4068.718, 4170.769, 4152.821, 0, 0, []
1630238140.2202, 55, 0, 4146.667, 4115.385, 4084.615, 4174.872, 4163.59, 0, 0, []
1630238140.2281, 56, 0, 4166.667, 4106.154, 4080, 4199.487, 4176.923, 0, 0, []
1630238140.2361, 57, 0, 4181.538, 4130.769, 4084.615, 4203.077, 4174.359, 0, 0, []
1630238140.244, 58, 0, 4154.872, 4176.41, 4081.026, 4177.949, 4171.282, 0, 0, []
1630238140.2518, 59, 0, 4135.897, 4198.462, 4080, 4171.795, 4175.385, 0, 0, []
1630238140.2596, 60, 0, 4158.974, 4211.282, 4093.333, 4191.795, 4172.308, 0, 0, []
1630238140.2674, 61, 0, 4176.41, 4196.923, 4076.923, 4180.513, 4171.282, 0, 0, []
1630238140.2753, 62, 0, 4167.692, 4169.231, 4077.436, 4177.436, 4177.949, 0, 0, []
1630238140.2831, 63, 0, 4167.692, 4164.103, 4082.051, 4190.256, 4166.154, 0, 0, []
1630238140.291, 64, 0, 4172.308, 4141.026, 4066.667, 4166.154, 4148.718, 450, 0, []
1630238140.2987, 65, 0, 4156.923, 4129.744, 4073.333, 4147.179, 4160.513, 450, 0, []
1630238140.3066, 66, 0, 4155.385, 4158.462, 4083.59, 4167.179, 4173.846, 16195, 0, []
1630238140.3144, 67, 0, 4182.051, 4158.974, 4089.744, 4193.333, 4160, 450, 0, []
1630238140.3224, 68, 0, 4189.744, 4126.154, 4077.436, 4178.462, 4157.436, 16100, 0, []
1630238140.3303, 69, 0, 4169.231, 4132.308, 4069.744, 4158.974, 4174.872, 450, 0, []
1630238140.3382, 70, 0, 4161.026, 4165.641, 4086.154, 4178.462, 4175.385, 16083, 0, []
1630238140.3461, 71, 0, 4174.359, 4172.821, 4077.436, 4181.538, 4162.564, 450, 0, []
1630238140.3541, 72, 0, 4166.667, 4163.59, 4076.41, 4166.154, 4163.59, 450, 0, []
1630238140.362, 73, 0, 4157.949, 4163.59, 4083.59, 4168.205, 4173.846, 325, 0, []
1630238140.37, 74, 0, 4176.41, 4167.692, 4075.385, 4182.564, 4171.795, 450, 0, []
1630238140.3778, 75, 0, 4185.128, 4154.359, 4085.641, 4190.256, 4169.231, 16202, 0, []
1630238140.3858, 76, 0, 4164.103, 4132.308, 4087.692, 4177.949, 4180, 450, 0, []
1630238140.3937, 77, 0, 4161.538, 4134.872, 4090.256, 4186.667, 4191.795, 450, 0, []
1630238140.4017, 78, 0, 4188.718, 4161.026, 4094.359, 4203.59, 4190.769, 450, 0, []
1630238140.4096, 79, 0, 4186.667, 4151.795, 4082.051, 4176.923, 4185.128, 16202, 0, []
1630238140.4173, 80, 0, 4172.821, 4112.308, 4089.744, 4161.538, 4188.718, 450, 0, []
1630238140.4252, 81, 0, 4188.718, 4121.538, 4088.718, 4183.077, 4191.282, 450, 0, []
1630238140.433, 82, 0, 4195.897, 4167.179, 4088.718, 4198.974, 4180.513, 450, 0, []
1630238140.4409, 83, 0, 4174.359, 4174.359, 4099.487, 4192.308, 4177.436, 16202, 0, []
1630238140.4487, 84, 0, 4165.641, 4160.513, 4094.872, 4187.692, 4188.718, 450, 0, []
1630238140.4565, 85, 0, 4174.872, 4169.231, 4094.359, 4189.231, 4173.846, 450, 0, []
1630238140.4644, 86, 0, 4171.795, 4146.667, 4085.641, 4159.487, 4152.821, 450, 0, []
1630238140.4724, 87, 0, 4166.667, 4100, 4089.744, 4145.128, 4165.128, 16202, 0, []
1630238140.4802, 88, 0, 4164.615, 4082.564, 4094.359, 4160, 4169.231, 450, 0, []
1630238140.4882, 89, 0, 4160.513, 4099.487, 4072.821, 4155.385, 4142.564, 450, 0, []
1630238140.496, 90, 0, 4143.59, 4130.256, 4076.923, 4158.974, 4133.333, 450, 0, []
1630238140.504, 91, 0, 4135.897, 4145.128, 4084.103, 4176.41, 4149.231, 16202, 0, []
1630238140.5119, 92, 0, 4160, 4149.744, 4080.513, 4187.692, 4152.821, 450, 0, []
1630238140.5199, 93, 0, 4170.256, 4151.795, 4082.564, 4175.897, 4148.205, 450, 0, []
1630238140.5278, 94, 0, 4155.897, 4143.077, 4070.256, 4152.308, 4155.385, 450, 0, []
1630238140.5358, 95, 0, 4160, 4118.974, 4074.359, 4162.564, 4150.769, 16202, 0, []
1630238140.5436, 96, 0, 4174.359, 4104.615, 4083.077, 4170.256, 4136.923, 450, 0, []
1630238140.5514, 97, 0, 4165.641, 4101.538, 4084.615, 4162.051, 4148.718, 450, 0, []
1630238140.5593, 98, 0, 4165.128, 4105.128, 4092.308, 4177.949, 4172.308, 450, 0, []
1630238140.5671, 99, 0, 4182.051, 4132.821, 4085.128, 4186.154, 4175.897, 16202, 0, []
1630238140.575, 100, 0, 4181.538, 4155.385, 4096.41, 4172.308, 4180.513, 450, 0, []
1630238140.5827, 101, 0, 4178.462, 4167.179, 4107.179, 4171.282, 4194.359, 450, 0, []
1630238140.5906, 102, 0, 4188.718, 4176.923, 4096.923, 4181.538, 4188.718, 450, 0, []
1630238140.5984, 103, 0, 4188.718, 4167.692, 4107.179, 4177.436, 4175.897, 16202, 0, []
1630238140.6063, 104, 0, 4172.308, 4168.205, 4100.513, 4162.564, 4181.026, 450, 0, []
1630238140.6141, 105, 0, 4177.436, 4194.359, 4094.872, 4184.615, 4195.385, 450, 0, []
1630238140.6219, 106, 0, 4202.564, 4208.718, 4100.513, 4212.308, 4198.974, 450, 0, []
1630238140.6297, 107, 0, 4204.103, 4202.051, 4095.897, 4191.795, 4198.974, 16202, 0, []
1630238140.6377, 108, 0, 4192.308, 4198.462, 4100, 4181.538, 4213.333, 450, 0, []
1630238140.6456, 109, 0, 4198.462, 4209.744, 4091.282, 4194.872, 4223.59, 450, 0, []
1630238140.6536, 110, 0, 4220.513, 4233.846, 4094.872, 4196.41, 4223.077, 450, 0, []
1630238140.6614, 111, 0, 4244.615, 4222.564, 4106.154, 4180.513, 4242.051, 16202, 0, []
1630238140.6694, 112, 0, 4264.103, 4181.026, 4098.462, 4171.282, 4282.051, 450, 0, []
1630238140.6773, 113, 0, 4300, 4191.795, 4102.564, 4197.949, 4322.564, 450, 0, []
1630238140.6853, 114, 0, 4363.59, 4234.359, 4094.359, 4205.641, 4368.205, 450, 0, []
1630238140.6932, 115, 0, 4424.103, 4242.051, 4091.282, 4183.077, 4411.795, 16202, 0, []
1630238140.7011, 116, 0, 4460.513, 4226.154, 4102.564, 4174.359, 4442.051, 450, 0, []
1630238140.709, 117, 0, 4492.821, 4223.077, 4102.564, 4189.744, 4473.846, 450, 0, []
1630238140.7168, 118, 0, 4509.744, 4233.333, 4118.462, 4216.923, 4487.692, 450, 0, []
1630238140.7247, 119, 0, 4481.538, 4228.205, 4114.872, 4206.667, 4455.897, 16202, 0, []
1630238140.7325, 120, 0, 4444.615, 4205.641, 4104.103, 4185.641, 4424.103, 450, 0, []
1630238140.7403, 121, 0, 4434.872, 4223.077, 4121.026, 4201.026, 4427.179, 450, 0, []
1630238140.7481, 122, 0, 4422.564, 4253.846, 4125.641, 4206.154, 4424.103, 450, 0, []
1630238140.756, 123, 0, 4385.641, 4222.564, 4129.744, 4195.897, 4396.923, 16202, 0, []
1630238140.7638, 124, 0, 4348.205, 4188.718, 4120, 4193.846, 4366.667, 450, 0, []
1630238140.7717, 125, 0, 4325.128, 4197.949, 4103.59, 4195.385, 4334.359, 450, 0, []
1630238140.7794, 126, 0, 4305.641, 4205.128, 4096.41, 4190.769, 4299.487, 450, 0, []
1630238140.7874, 127, 0, 4283.077, 4197.949, 4088.205, 4172.821, 4273.846, 16202, 0, []
1630238140.7953, 128, 0, 4260.513, 4213.846, 4105.641, 4163.59, 4263.59, 450, 0, []
1630238140.8033, 0, 0, 4244.103, 4238.974, 4110.769, 4165.641, 4261.538, 450, 0, []
1630238140.8112, 1, 0, 4237.436, 4220.513, 4108.205, 4171.795, 4253.846, 450, 0, []
1630238140.8191, 2, 0, 4243.077, 4204.615, 4127.692, 4177.436, 4242.051, 16203, 0, []
1630238140.827, 3, 0, 4249.231, 4244.103, 4118.974, 4172.308, 4242.564, 450, 0, []
1630238140.835, 4, 0, 4235.897, 4265.128, 4113.846, 4183.077, 4247.692, 16104, 0, []
1630238140.8429, 5, 0, 4216.41, 4218.974, 4119.487, 4194.872, 4241.026, 450, 0, []
1630238140.8509, 6, 0, 4213.846, 4190.256, 4108.205, 4190.256, 4224.615, 16078, 0, []
1630238140.8588, 7, 0, 4213.846, 4195.385, 4102.564, 4184.615, 4209.231, 450, 0, []
1630238140.8665, 8, 0, 4198.974, 4167.179, 4092.821, 4173.333, 4206.154, 450, 0, []
1630238140.8744, 9, 0, 4188.718, 4141.026, 4097.949, 4184.615, 4207.179, 16057, 0, []
1630238140.8822, 10, 0, 4198.974, 4169.231, 4097.436, 4198.462, 4197.949, 450, 0, []
1630238140.8901, 11, 0, 4209.744, 4203.077, 4089.744, 4184.615, 4196.923, 16192, 0, []
1630238140.8979, 12, 0, 4201.538, 4192.308, 4115.897, 4182.564, 4215.385, 450, 0, []
1630238140.9057, 13, 0, 4186.154, 4149.744, 4115.385, 4186.154, 4209.744, 450, 0, []
1630238140.9135, 14, 0, 4193.333, 4135.897, 4103.077, 4186.667, 4180.513, 450, 0, []
1630238140.9215, 15, 0, 4214.872, 4186.667, 4120, 4187.179, 4192.308, 16192, 0, []
1630238140.9294, 16, 0, 4218.462, 4224.615, 4138.462, 4189.744, 4235.385, 0, 0, []
1630238140.9373, 17, 0, 4213.333, 4188.205, 4150.256, 4205.128, 4242.564, 0, 0, []
1630238140.945, 18, 0, 4213.846, 4158.974, 4128.718, 4205.641, 4209.744, 0, 0, []
1630238140.953, 19, 0, 4206.154, 4194.872, 4108.718, 4191.282, 4187.692, 0, 0, []
1630238140.9609, 20, 0, 4186.154, 4206.667, 4114.359, 4182.051, 4190.769, 0, 0, []
1630238140.9689, 21, 0, 4171.282, 4160, 4099.487, 4173.333, 4186.667, 0, 0, []
1630238140.9768, 22, 0, 4172.821, 4160, 4095.385, 4181.026, 4164.103, 0, 0, []
1630238140.9847, 23, 0, 4182.564, 4203.59, 4107.692, 4194.359, 4164.103, 0, 0, []
1630238140.9926, 24, 0, 4185.128, 4196.923, 4116.41, 4203.59, 4186.154, 0, 0, []
1630238141.0006, 25, 0, 4182.051, 4170.256, 4110.256, 4207.179, 4180, 0, 0, []
1630238141.0085, 26, 0, 4173.846, 4175.385, 4094.872, 4189.744, 4152.308, 0, 0, []
1630238141.0165, 27, 0, 4150.769, 4186.667, 4105.128, 4184.615, 4149.231, 0, 0, []
1630238141.0243, 28, 0, 4143.59, 4197.436, 4094.872, 4200, 4165.641, 0, 0, []
1630238141.0321, 29, 0, 4164.103, 4194.872, 4092.308, 4209.744, 4167.179, 0, 0, []
1630238141.04, 30, 0, 4167.179, 4167.179, 4126.154, 4210.256, 4167.179, 0, 0, []
1630238141.0478, 31, 0, 4157.436, 4158.462, 4121.026, 4204.103, 4176.41, 0, 0, []
1630238141.0557, 32, 0, 4156.41, 4190.769, 4107.692, 4201.026, 4160.513, 0, 0, []
1630238141.0634, 33, 0, 4146.667, 4208.718, 4105.128, 4181.538, 4131.282, 0, 0, []
1630238141.0713, 34, 0, 4136.41, 4202.051, 4104.103, 4180, 4134.872, 0, 0, []
1630238141.0791, 35, 0, 4144.615, 4207.179, 4111.795, 4209.744, 4142.564, 0, 0, []
1630238141.087, 36, 0, 4146.154, 4208.718, 4095.385, 4198.974, 4129.744, 0, 0, []
1630238141.0948, 37, 0, 4134.872, 4184.103, 4094.359, 4189.744, 4134.872, 0, 0, []
1630238141.1027, 38, 0, 4139.487, 4163.077, 4101.538, 4209.744, 4147.179, 0, 0, []
1630238141.1106, 39, 0, 4141.026, 4174.359, 4095.897, 4198.462, 4135.897, 0, 0, []
1630238141.1186, 40, 0, 4121.026, 4174.359, 4103.59, 4179.487, 4125.641, 0, 0, []
1630238141.1265, 41, 0, 4112.821, 4162.051, 4087.692, 4187.179, 4120, 0, 0, []
1630238141.1345, 42, 0, 4132.308, 4179.487, 4088.205, 4202.564, 4123.59, 0, 0, []
1630238141.1423, 43, 0, 4141.538, 4194.359, 4105.128, 4198.462, 4138.462, 0, 0, []
1630238141.1503, 44, 0, 4132.821, 4180, 4085.641, 4182.564, 4132.308, 0, 0, []
1630238141.1582, 45, 0, 4140, 4162.051, 4083.59, 4185.128, 4117.949, 0, 0, []
1630238141.166, 46, 0, 4140, 4143.077, 4096.41, 4190.256, 4127.692, 0, 0, []
1630238141.1739, 47, 0, 4119.487, 4129.744, 4104.615, 4192.821, 4130.256, 0, 0, []
1630238141.1816, 48, 0, 4118.462, 4155.897, 4106.667, 4196.41, 4111.282, 0, 0, []
1630238141.1895, 49, 0, 4129.744, 4188.718, 4101.026, 4192.821, 4116.41, 0, 0, []
1630238141.1973, 50, 0, 4125.128, 4172.821, 4103.59, 4197.436, 4134.872, 0, 0, []
1630238141.2052, 51, 0, 4124.615, 4147.692, 4082.051, 4192.821, 4119.487, 0, 0, []
1630238141.213, 52, 0, 4135.897, 4157.436, 4080, 4189.231, 4112.821, 0, 0, []
1630238141.2209, 53, 0, 4142.051, 4170.769, 4107.179, 4204.615, 4138.462, 0, 0, []
1630238141.2286, 54, 0, 4139.487, 4172.821, 4094.359, 4209.231, 4132.821, 0, 0, []
1630238141.2366, 55, 0, 4125.641, 4190.256, 4088.718, 4188.718, 4106.154, 0, 0, []
1630238141.2445, 56, 0, 4118.462, 4205.641, 4101.026, 4174.872, 4123.077, 0, 0, []
1630238141.2525, 57, 0, 4135.385, 4199.487, 4107.179, 4206.667, 4142.051, 0, 0, []
1630238141.2604, 58, 0, 4150.256, 4196.923, 4110.256, 4225.641, 4126.154, 0, 0, []
1630238141.2683, 59, 0, 4138.462, 4193.846, 4097.949, 4196.923, 4118.974, 0, 0, []
1630238141.2762, 60, 0, 4137.436, 4194.872, 4102.564, 4200.513, 4128.718, 0, 0, []
1630238141.2842, 61, 0, 4165.128, 4209.744, 4114.872, 4230.769, 4137.436, 0, 0, []
1630238141.2921, 62, 0, 4175.385, 4193.333, 4120.513, 4236.41, 4145.641, 0, 0, []
1630238141.3001, 63, 0, 4156.41, 4163.077, 4108.718, 4218.462, 4138.974, 0, 0, []
1630238141.3079, 64, 0, 4147.179, 4182.564, 4080.513, 4195.897, 4125.641, 450, 0, []
1630238141.3159, 65, 0, 4153.333, 4194.872, 4101.538, 4209.744, 4143.077, 450, 0, []
1630238141.3238, 66, 0, 4155.385, 4164.103, 4117.949, 4225.128, 4159.487, 16196, 0, []
1630238141.3316, 67, 0, 4148.205, 4181.026, 4102.564, 4212.308, 4133.846, 450, 0, []
1630238141.3395, 68, 0, 4140.513, 4230.256, 4114.359, 4209.744, 4120.513, 16102, 0, []
1630238141.3472, 69, 0, 4151.282, 4218.462, 4111.795, 4214.359, 4151.795, 450, 0, []
1630238141.3551, 70, 0, 4170.769, 4187.692, 4102.051, 4217.949, 4162.051, 16080, 0, []
1630238141.3629, 71, 0, 4168.205, 4181.538, 4105.641, 4210.256, 4143.59, 450, 0, []
1630238141.3708, 72, 0, 4149.744, 4186.667, 4103.59, 4194.359, 4152.821, 450, 0, []
1630238141.3786, 73, 0, 4155.897, 4192.308, 4110.769, 4206.667, 4170.256, 326, 0, []
1630238141.3865, 74, 0, 4178.462, 4180.513, 4100, 4219.487, 4165.128, 450, 0, []
1630238141.3944, 75, 0, 4174.359, 4182.051, 4088.205, 4208.205, 4168.718, 16195, 0, []
1630238141.4023, 76, 0, 4158.462, 4202.051, 4109.231, 4212.821, 4188.205, 450, 0, []
1630238141.4101, 77, 0, 4174.872, 4201.538, 4104.103, 4221.538, 4192.821, 450, 0, []
1630238141.4181, 78, 0, 4211.282, 4187.692, 4086.154, 4205.641, 4203.59, 450, 0, []
1630238141.4259, 79, 0, 4241.538, 4198.974, 4100, 4196.923, 4254.872, 16195, 0, []
1630238141.4339, 80, 0, 4285.641, 4222.051, 4101.538, 4205.128, 4314.872, 450, 0, []
1630238141.4418, 81, 0, 4345.641, 4232.821, 4094.359, 4212.308, 4353.846, 450, 0, []
1630238141.4498, 82, 0, 4400.513, 4244.103, 4091.282, 4211.795, 4391.795, 450, 0, []
1630238141.4577, 83, 0, 4440, 4246.154, 4089.744, 4209.231, 4426.154, 16195, 0, []
1630238141.4655, 84, 0, 4441.538, 4246.667, 4096.41, 4213.333, 4428.205, 450, 0, []
1630238141.4734, 85, 0, 4420, 4234.359, 4094.872, 4210.256, 4421.026, 450, 0, []
1630238141.4812, 86, 0, 4401.538, 4215.385, 4111.795, 4207.179, 4417.949, 450, 0, []
1630238141.4892, 87, 0, 4375.897, 4203.077, 4126.154, 4205.128, 4403.59, 16195, 0, []
1630238141.4971, 88, 0, 4345.641, 4184.103, 4117.436, 4207.179, 4383.59, 450, 0, []
1630238141.5049, 89, 0, 4326.667, 4185.128, 4116.923, 4226.154, 4362.564, 450, 0, []
1630238141.5127, 90, 0, 4311.282, 4212.821, 4108.718, 4225.641, 4329.744, 450, 0, []
1630238141.5206, 91, 0, 4290.256, 4230.256, 4097.436, 4211.795, 4293.333, 16195, 0, []
1630238141.5284, 92, 0, 4270.256, 4215.385, 4092.821, 4202.564, 4280, 450, 0, []
1630238141.5363, 93, 0, 4248.205, 4208.718, 4108.205, 4202.051, 4282.564, 450, 0, []
1630238141.544, 94, 0, 4232.821, 4226.154, 4116.41, 4213.333, 4270.256, 450, 0, []
1630238141.5519, 95, 0, 4229.231, 4233.333, 4091.795, 4212.821, 4239.487, 16195, 0, []
1630238141.5597, 96, 0, 4222.051, 4206.154, 4093.846, 4202.564, 4230.769, 450, 0, []
1630238141.5677, 97, 0, 4205.641, 4164.615, 4095.897, 4193.846, 4247.692, 450, 0, []
1630238141.5756, 98, 0, 4196.923, 4172.308, 4085.128, 4197.436, 4240, 450, 0, []
1630238141.5836, 99, 0, 4205.641, 4209.231, 4098.974, 4206.154, 4220, 16195, 0, []
1630238141.5914, 100, 0, 4203.077, 4207.692, 4110.256, 4204.615, 4221.026, 450, 0, []
1630238141.5994, 101, 0, 4184.103, 4188.718, 4107.692, 4205.128, 4209.231, 450, 0, []
1630238141.6073, 102, 0, 4182.564, 4216.923, 4080.513, 4201.026, 4181.538, 450, 0, []
1630238141.6153, 103, 0, 4186.667, 4246.667, 4082.564, 4200, 4177.949, 16195, 0, []
1630238141.6232, 104, 0, 4171.282, 4221.026, 4097.949, 4206.154, 4181.026, 450, 0, []
1630238141.6311, 105, 0, 4164.103, 4201.026, 4065.128, 4202.564, 4164.615, 450, 0, []
1630238141.639, 106, 0, 4168.718, 4201.026, 4073.846, 4201.026, 4158.462, 450, 0, []
1630238141.6468, 107, 0, 4163.077, 4192.821, 4100.513, 4203.59, 4171.795, 16195, 0, []
1630238141.6547, 108, 0, 4162.051, 4197.949, 4090.256, 4208.718, 4172.308, 450, 0, []
1630238141.6625, 109, 0, 4166.667, 4223.59, 4082.051, 4202.564, 4154.872, 450, 0, []
1630238141.6703, 110, 0, 4156.923, 4218.462, 4091.795, 4183.077, 4148.205, 450, 0, []
1630238141.6781, 111, 0, 4150.256, 4184.615, 4127.179, 4199.487, 4156.923, 16195, 0, []
1630238141.686, 112, 0, 4157.949, 4193.333, 4111.282, 4210.769, 4156.41, 450, 0, []
1630238141.6938, 113, 0, 4155.897, 4228.718, 4079.487, 4189.744, 4150.256, 450, 0, []
1630238141.7017, 114, 0, 4147.692, 4214.359, 4095.385, 4196.923, 4155.897, 450, 0, []
1630238141.7094, 115, 0, 4154.359, 4187.179, 4090.769, 4213.846, 4155.385, 16195, 0, []
1630238141.7174, 116, 0, 4162.051, 4207.692, 4101.538, 4210.256, 4147.179, 450, 0, []
1630238141.7253, 117, 0, 4149.744, 4215.385, 4104.615, 4196.41, 4152.821, 450, 0, []
1630238141.7333, 118, 0, 4135.385, 4205.128, 4089.231, 4198.462, 4156.41, 450, 0, []
1630238141.7412, 119, 0, 4137.436, 4217.436, 4111.282, 4212.821, 4138.974, 16195, 0, []
1630238141.7491, 120, 0, 4142.051, 4200, 4113.846, 4200.513, 4140, 450, 0, []
1630238141.757, 121, 0, 4146.667, 4162.051, 4113.333, 4202.051, 4163.077, 450, 0, []
1630238141.765, 122, 0, 4160, 4161.538, 4104.615, 4215.897, 4157.949, 450, 0, []
1630238141.7729, 123, 0, 4156.41, 4140.513, 4088.205, 4202.564, 4142.051, 16195, 0, []
1630238141.7809, 124, 0, 4136.923, 4103.077, 4105.641, 4203.59, 4147.179, 450, 0, []
1630238141.7887, 125, 0, 4141.026, 4122.051, 4099.487, 4206.667, 4141.538, 450, 0, []
1630238141.7965, 126, 0, 4157.436, 4136.41, 4098.974, 4197.949, 4130.256, 450, 0, []
1630238141.8044, 127, 0, 4151.795, 4113.846, 4100, 4191.795, 4140.513, 16195, 0, []
1630238141.8122, 128, 0, 4137.436, 4097.949, 4076.41, 4186.667, 4132.308, 450, 0, []
1630238141.8201, 0, 0, 4131.795, 4096.41, 4096.923, 4193.333, 4113.333, 450, 0, []
1630238141.8278, 1, 0, 4131.795, 4106.154, 4110.256, 4185.641, 4127.692, 450, 0, []
1630238141.8357, 2, 0, 4128.205, 4116.41, 4104.103, 4181.538, 4128.205, 16193, 0, []
1630238141.8435, 3, 0, 4125.128, 4111.282, 4094.359, 4189.744, 4113.333, 450, 0, []
1630238141.8514, 4, 0, 4129.744, 4107.692, 4077.436, 4187.692, 4125.128, 16098, 0, []
1630238141.8592, 5, 0, 4129.744, 4133.846, 4090.769, 4192.821, 4122.051, 450, 0, []
1630238141.867, 6, 0, 4130.256, 4150.769, 4090.256, 4185.641, 4116.41, 16074, 0, []
1630238141.8748, 7, 0, 4144.103, 4130.256, 4104.615, 4187.692, 4145.128, 450, 0, []
1630238141.8828, 8, 0, 4146.667, 4103.077, 4117.949, 4199.487, 4137.436, 450, 0, []
1630238141.8907, 9, 0, 4124.103, 4087.179, 4082.051, 4173.333, 4100, 326, 0, []
1630238141.8987, 10, 0, 4121.026, 4080.513, 4101.538, 4168.718, 4120, 450, 0, []
1630238141.9066, 11, 0, 4152.821, 4095.385, 4118.974, 4194.359, 4150.256, 16192, 0, []
1630238141.9145, 12, 0, 4161.538, 4116.41, 4101.538, 4194.359, 4140.513, 450, 0, []
1630238141.9224, 13, 0, 4141.538, 4110.769, 4110.769, 4184.615, 4140, 450, 0, []
1630238141.9304, 14, 0, 4137.949, 4111.282, 4099.487, 4183.077, 4138.974, 450, 0, []
1630238141.9383, 15, 0, 4155.385, 4136.41, 4106.667, 4194.359, 4129.231, 16192, 0, []
1630238141.9463, 16, 0, 4162.051, 4153.333, 4118.462, 4202.051, 4155.897, 0, 0, []
1630238141.9541, 17, 0, 4154.359, 4156.923, 4100.513, 4203.59, 4170.256, 0, 0, []
1630238141.9619, 18, 0, 4156.923, 4150.769, 4098.974, 4206.667, 4142.564, 0, 0, []
1630238141.9698, 19, 0, 4154.359, 4138.462, 4096.41, 4192.821, 4136.923, 0, 0, []
1630238141.9776, 20, 0, 4153.333, 4146.667, 4110.769, 4197.949, 4158.462, 0, 0, []
1630238141.9855, 21, 0, 4176.41, 4158.974, 4110.256, 4212.308, 4156.41, 0, 0, []
1630238141.9932, 22, 0, 4178.462, 4140, 4097.436, 4204.615, 4145.128, 0, 0, []
1630238142.0011, 23, 0, 4157.436, 4124.615, 4107.692, 4202.051, 4150.769, 0, 0, []
1630238142.0089, 24, 0, 4156.923, 4142.564, 4085.128, 4194.359, 4145.128, 0, 0, []
1630238142.0168, 25, 0, 4152.308, 4146.667, 4095.385, 4201.026, 4131.795, 0, 0, []
1630238142.0246, 26, 0, 4137.949, 4100.513, 4109.744, 4210.769, 4136.41, 0, 0, []
1630238142.0325, 27, 0, 4147.179, 4088.718, 4088.205, 4200.513, 4136.41, 0, 0, []
1630238142.0404, 28, 0, 4161.538, 4131.282, 4102.051, 4198.974, 4135.385, 0, 0, []
1630238142.0484, 29, 0, 4161.538, 4138.974, 4108.205, 4199.487, 4152.308, 0, 0, []
1630238142.0563, 30, 0, 4162.564, 4128.718, 4117.436, 4208.718, 4150.256, 0, 0, []
1630238142.0643, 31, 0, 4157.949, 4138.974, 4121.538, 4207.179, 4128.718, 0, 0, []
1630238142.0721, 32, 0, 4147.179, 4139.487, 4105.128, 4193.846, 4130.256, 0, 0, []
1630238142.0801, 33, 0, 4152.821, 4138.462, 4115.897, 4211.795, 4140, 0, 0, []
1630238142.088, 34, 0, 4168.718, 4156.41, 4102.564, 4210.256, 4139.487, 0, 0, []
1630238142.096, 35, 0, 4169.744, 4151.795, 4106.667, 4197.436, 4144.103, 0, 0, []
1630238142.1039, 36, 0, 4157.949, 4124.103, 4116.923, 4208.718, 4144.103, 0, 0, []
1630238142.1118, 37, 0, 4152.821, 4097.436, 4093.846, 4204.615, 4128.205, 0, 0, []
1630238142.1197, 38, 0, 4157.436, 4078.462, 4118.974, 4198.974, 4128.205, 0, 0, []
1630238142.1275, 39, 0, 4155.897, 4114.872, 4125.641, 4206.667, 4145.128, 0, 0, []
1630238142.1354, 40, 0, 4155.385, 4165.641, 4101.538, 4213.333, 4141.538, 0, 0, []
1630238142.1432, 41, 0, 4157.436, 4167.692, 4095.897, 4203.077, 4125.641, 0, 0, []
1630238142.151, 42, 0, 4149.744, 4160, 4083.077, 4186.154, 4125.641, 0, 0, []
1630238142.1588, 43, 0, 4149.231, 4173.846, 4093.846, 4202.564, 4132.308, 0, 0, []
1630238142.1667, 44, 0, 4157.949, 4181.538, 4090.256, 4205.128, 4126.667, 0, 0, []
1630238142.1745, 45, 0, 4147.179, 4160.513, 4096.41, 4193.846, 4122.051, 0, 0, []
1630238142.1824, 46, 0, 4137.949, 4146.667, 4119.487, 4204.615, 4126.154, 0, 0, []
1630238142.1901, 47, 0, 4155.897, 4154.359, 4100.513, 4204.103, 4124.103, 0, 0, []
1630238142.1981, 48, 0, 4157.436, 4156.923, 4104.103, 4200, 4124.615, 0, 0, []
1630238142.206, 49, 0, 4132.308, 4159.487, 4094.872, 4194.872, 4123.59, 0, 0, []
1630238142.214, 50, 0, 4126.667, 4156.923, 4080, 4189.744, 4104.103, 0, 0, []
1630238142.2219, 51, 0, 4138.462, 4141.026, 4106.667, 4194.872, 4101.538, 0, 0, []
1630238142.2298, 52, 0, 4145.641, 4138.974, 4097.436, 4191.282, 4126.667, 0, 0, []
1630238142.2377, 53, 0, 4152.821, 4148.718, 4089.231, 4200, 4126.154, 0, 0, []
1630238142.2457, 54, 0, 4150.256, 4130.256, 4086.667, 4200, 4111.282, 0, 0, []
1630238142.2536, 55, 0, 4136.41, 4086.154, 4082.564, 4188.718, 4122.051, 0, 0, []
1630238142.2616, 56, 0, 4142.051, 4082.564, 4102.051, 4208.205, 4128.205, 0, 0, []
1630238142.2695, 57, 0, 4159.487, 4126.154, 4096.923, 4206.154, 4122.051, 0, 0, []
1630238142.2772, 58, 0, 4153.846, 4162.051, 4106.154, 4192.821, 4135.897, 0, 0, []
1630238142.2851, 59, 0, 4149.231, 4175.897, 4102.564, 4198.462, 4151.795, 0, 0, []
1630238142.2929, 60, 0, 4165.128, 4183.077, 4091.282, 4202.051, 4149.744, 0, 0, []
1630238142.3008, 61, 0, 4165.641, 4189.231, 4123.59, 4201.538, 4153.846, 0, 0, []
1630238142.3086, 62, 0, 4154.872, 4177.949, 4107.179, 4189.744, 4159.487, 0, 0, []
1630238142.3164, 63, 0, 4158.462, 4172.308, 4084.615, 4198.974, 4144.615, 0, 0, []
1630238142.3242, 64, 0, 4155.385, 4169.744, 4084.103, 4202.564, 4134.359, 450, 0, []
1630238142.3321, 65, 0, 4143.077, 4142.564, 4073.846, 4187.179, 4141.026, 450, 0, []
1630238142.3399, 66, 0, 4152.821, 4145.641, 4096.923, 4208.718, 4143.59, 16195, 0, []
1630238142.3479, 67, 0, 4163.59, 4196.923, 4098.462, 4211.795, 4140.513, 450, 0, []
1630238142.3557, 68, 0, 4150.256, 4210.769, 4104.615, 4192.308, 4143.59, 16092, 0, []
1630238142.3637, 69, 0, 4150.256, 4175.385, 4111.282, 4195.385, 4139.487, 450, 0, []
1630238142.3716, 70, 0, 4164.103, 4169.744, 4090.256, 4189.231, 4134.872, 16078, 0, []
1630238142.3796, 71, 0, 4153.333, 4184.103, 4112.308, 4184.615, 4145.128, 450, 0, []
1630238142.3875, 72, 0, 4140.513, 4199.487, 4097.436, 4189.231, 4141.538, 450, 0, []
1630238142.3954, 73, 0, 4153.333, 4192.308, 4073.846, 4192.821, 4134.872, 16063, 0, []
1630238142.4033, 74, 0, 4168.718, 4130.769, 4100.513, 4203.59, 4156.41, 450, 0, []
1630238142.4113, 75, 0, 4177.949, 4095.897, 4096.41, 4207.179, 4173.333, 16203, 0, []
1630238142.4192, 76, 0, 4185.641, 4105.128, 4094.872, 4203.077, 4163.59, 450, 0, []
1630238142.4272, 77, 0, 4167.179, 4091.795, 4092.821, 4191.282, 4157.436, 450, 0, []
1630238142.435, 78, 0, 4149.231, 4074.359, 4091.795, 4191.795, 4162.051, 450, 0, []
1630238142.4428, 79, 0, 4168.205, 4084.615, 4100.513, 4198.462, 4163.59, 16203, 0, []
1630238142.4507, 80, 0, 4178.462, 4101.026, 4085.641, 4188.718, 4171.282, 450, 0, []
1630238142.4586, 81, 0, 4171.795, 4094.872, 4096.923, 4197.436, 4185.641, 450, 0, []
1630238142.4665, 82, 0, 4201.538, 4047.179, 4102.051, 4197.949, 4208.205, 450, 0, []
1630238142.4743, 83, 0, 4250.769, 3982.564, 4107.179, 4181.538, 4254.872, 16203, 0, []
1630238142.4823, 84, 0, 4292.821, 3974.872, 4129.744, 4190.769, 4325.128, 450, 0, []
1630238142.4901, 85, 0, 4341.026, 3998.462, 4109.231, 4197.436, 4386.154, 450, 0, []
1630238142.4981, 86, 0, 4390.256, 4008.205, 4109.231, 4203.59, 4419.487, 450, 0, []
1630238142.506, 87, 0, 4427.692, 4041.538, 4111.282, 4204.615, 4443.59, 16203, 0, []
1630238142.5139, 88, 0, 4439.487, 4073.846, 4096.41, 4198.462, 4451.282, 450, 0, []
1630238142.5218, 89, 0, 4413.333, 4077.949, 4096.923, 4205.641, 4425.641, 450, 0, []
1630238142.5298, 90, 0, 4371.282, 4104.103, 4079.487, 4190.769, 4388.205, 450, 0, []
1630238142.5377, 91, 0, 4343.59, 4137.949, 4101.026, 4183.077, 4365.128, 16203, 0, []
1630238142.5457, 92, 0, 4326.667, 4128.718, 4110.256, 4193.333, 4357.436, 450, 0, []
1630238142.5535, 93, 0, 4309.231, 4140, 4081.026, 4198.974, 4345.128, 450, 0, []
1630238142.5614, 94, 0, 4300, 4185.641, 4092.308, 4205.641, 4313.333, 450, 0, []
1630238142.5693, 95, 0, 4283.077, 4178.974, 4089.744, 4187.179, 4275.385, 16203, 0, []
1630238142.5771, 96, 0, 4245.128, 4153.333, 4089.231, 4175.897, 4254.359, 450, 0, []
1630238142.585, 97, 0, 4222.564, 4161.538, 4089.231, 4185.641, 4245.641, 450, 0, []
1630238142.5927, 98, 0, 4226.667, 4182.564, 4068.718, 4179.487, 4222.564, 450, 0, []
1630238142.6006, 99, 0, 4219.487, 4209.744, 4090.769, 4172.821, 4198.462, 16203, 0, []
1630238142.6084, 100, 0, 4196.41, 4229.744, 4096.41, 4169.231, 4199.487, 450, 0, []
1630238142.6163, 101, 0, 4185.128, 4222.564, 4085.641, 4178.974, 4196.923, 450, 0, []
1630238142.6241, 102, 0, 4182.051, 4210.256, 4083.59, 4182.564, 4176.41, 450, 0, []
1630238142.632, 103, 0, 4167.179, 4228.718, 4083.59, 4166.667, 4172.821, 16203, 0, []
1630238142.6397, 104, 0, 4164.615, 4260.513, 4114.359, 4181.538, 4190.769, 450, 0, []
1630238142.6477, 105, 0, 4183.077, 4281.026, 4101.538, 4189.231, 4189.231, 450, 0, []
1630238142.6556, 106, 0, 4184.103, 4280.513, 4085.641, 4171.282, 4178.462, 450, 0, []
1630238142.6636, 107, 0, 4169.744, 4271.795, 4098.974, 4170.256, 4182.564, 16203, 0, []
1630238142.6715, 108, 0, 4165.641, 4269.744, 4081.026, 4174.359, 4165.641, 450, 0, []
1630238142.6794, 109, 0, 4160, 4270.256, 4090.769, 4181.026, 4139.487, 450, 0, []
1630238142.6873, 110, 0, 4145.641, 4277.436, 4090.769, 4174.359, 4137.436, 450, 0, []
1630238142.6953, 111, 0, 4146.154, 4291.282, 4079.487, 4173.333, 4138.462, 16203, 0, []
1630238142.7032, 112, 0, 4157.436, 4297.949, 4089.231, 4187.179, 4134.359, 450, 0, []
1630238142.7111, 113, 0, 4159.487, 4276.923, 4084.615, 4177.949, 4147.692, 450, 0, []
1630238142.7189, 114, 0, 4165.641, 4259.487, 4112.821, 4188.205, 4160.513, 450, 0, []
1630238142.7267, 115, 0, 4174.359, 4277.436, 4120.513, 4198.974, 4147.179, 16203, 0, []
1630238142.7346, 116, 0, 4150.769, 4293.846, 4105.641, 4185.128, 4133.333, 450, 0, []
1630238142.7424, 117, 0, 4115.897, 4302.564, 4104.615, 4177.436, 4124.103, 450, 0, []
1630238142.7503, 118, 0, 4118.462, 4311.282, 4076.41, 4162.564, 4103.077, 450, 0, []
1630238142.758, 119, 0, 4133.846, 4298.974, 4091.282, 4169.744, 4099.487, 16203, 0, []
1630238142.7659, 120, 0, 4134.359, 4294.872, 4108.718, 4195.385, 4127.692, 450, 0, []
1630238142.7737, 121, 0, 4139.487, 4296.923, 4091.795, 4197.949, 4134.359, 450, 0, []
1630238142.7816, 122, 0, 4141.026, 4278.462, 4096.41, 4186.154, 4118.462, 450, 0, []
1630238142.7894, 123, 0, 4139.487, 4284.615, 4088.718, 4175.897, 4128.718, 16203, 0, []
1630238142.7973, 124, 0, 4153.333, 4305.128, 4101.026, 4191.795, 4134.872, 450, 0, []
1630238142.8052, 125, 0, 4160, 4285.641, 4101.026, 4192.821, 4124.615, 450, 0, []
1630238142.8132, 126, 0, 4148.718, 4267.692, 4081.026, 4173.846, 4132.308, 450, 0, []
1630238142.8211, 127, 0, 4151.282, 4280, 4098.462, 4191.282, 4134.872, 16203, 0, []
1630238142.8291, 128, 0, 4158.462, 4277.436, 4096.923, 4194.872, 4127.179, 450, 0, []
1630238142.8369, 0, 0, 4148.205, 4280, 4110.256, 4180, 4129.744, 450, 0, []
1630238142.8449, 1, 0, 4137.949, 4313.333, 4111.282, 4182.564, 4116.923, 450, 0, []
1630238142.8528, 2, 0, 4139.487, 4323.077, 4089.231, 4186.154, 4104.615, 16188, 0, []
1630238142.8608, 3, 0, 4138.974, 4306.667, 4116.923, 4189.231, 4125.128, 450, 0, []
1630238142.8687, 4, 0, 4136.41, 4317.949, 4103.59, 4178.974, 4129.231, 16093, 0, []
1630238142.8766, 5, 0, 4146.667, 4320.513, 4085.128, 4180, 4112.821, 450, 0, []
1630238142.8845, 6, 0, 4141.538, 4275.385, 4102.564, 4192.821, 4120, 16078, 0, []
1630238142.8923, 7, 0, 4120, 4253.846, 4090.256, 4184.615, 4121.538, 450, 0, []
1630238142.9002, 8, 0, 4122.564, 4286.667, 4089.744, 4182.051, 4100.513, 450, 0, []
1630238142.908, 9, 0, 4141.026, 4298.974, 4089.231, 4183.59, 4107.179, 16062, 0, []
1630238142.9158, 10, 0, 4147.179, 4268.718, 4104.615, 4197.949, 4137.949, 450, 0, []
1630238142.9236, 11, 0, 4153.846, 4270.769, 4118.462, 4206.667, 4130.769, 16197, 0, []
1630238142.9315, 12, 0, 4145.128, 4287.179, 4089.231, 4170.256, 4094.359, 450, 0, []
1630238142.9393, 13, 0, 4115.897, 4262.564, 4093.333, 4160, 4093.846, 450, 0, []
1630238142.9473, 14, 0, 4126.667, 4249.231, 4095.897, 4178.974, 4123.077, 450, 0, []
1630238142.9551, 15, 0, 4161.026, 4271.282, 4096.41, 4183.077, 4128.718, 16197, 0, []
1630238142.9631, 16, 0, 4155.897, 4273.846, 4116.41, 4181.026, 4122.051, 0, 0, []
1630238142.971, 17, 0, 4144.615, 4257.436, 4108.718, 4177.949, 4124.103, 0, 0, []
1630238142.979, 18, 0, 4163.077, 4267.179, 4124.103, 4192.821, 4123.077, 0, 0, []
1630238142.9869, 19, 0, 4171.282, 4301.026, 4125.641, 4190.256, 4130.256, 0, 0, []
1630238142.9949, 20, 0, 4150.256, 4319.487, 4106.667, 4175.385, 4139.487, 0, 0, []
1630238143.0027, 21, 0, 4148.718, 4306.667, 4116.923, 4186.154, 4132.821, 0, 0, []
1630238143.0107, 22, 0, 4168.205, 4301.538, 4113.846, 4185.128, 4131.282, 0, 0, []
1630238143.0186, 23, 0, 4166.154, 4310.769, 4117.949, 4190.256, 4147.692, 0, 0, []
1630238143.0264, 24, 0, 4161.538, 4297.949, 4101.538, 4198.974, 4154.359, 0, 0, []
1630238143.0343, 25, 0, 4170.769, 4273.333, 4090.256, 4186.154, 4131.795, 0, 0, []
1630238143.042, 26, 0, 4165.128, 4251.795, 4120, 4180.513, 4121.026, 0, 0, []
1630238143.0499, 27, 0, 4159.487, 4251.282, 4104.615, 4189.231, 4137.949, 0, 0, []
1630238143.0577, 28, 0, 4170.769, 4293.846, 4104.103, 4210.256, 4140, 0, 0, []
1630238143.0656, 29, 0, 4170.256, 4325.128, 4124.103, 4208.718, 4130.256, 0, 0, []
1630238143.0734, 30, 0, 4147.692, 4295.385, 4109.744, 4186.667, 4133.846, 0, 0, []
1630238143.0812, 31, 0, 4147.692, 4268.205, 4100.513, 4190.256, 4134.359, 0, 0, []
1630238143.089, 32, 0, 4171.282, 4262.051, 4082.564, 4191.282, 4121.026, 0, 0, []
1630238143.0969, 33, 0, 4169.231, 4257.949, 4100, 4193.846, 4121.026, 0, 0, []
1630238143.1047, 34, 0, 4148.718, 4290.256, 4114.359, 4207.179, 4127.179, 0, 0, []
1630238143.1126, 35, 0, 4156.923, 4304.615, 4095.385, 4209.231, 4117.949, 0, 0, []
1630238143.1203, 36, 0, 4184.615, 4258.974, 4120, 4206.154, 4127.692, 0, 0, []
1630238143.1283, 37, 0, 4179.487, 4238.974, 4115.897, 4179.487, 4143.59, 0, 0, []
1630238143.1362, 38, 0, 4164.615, 4257.436, 4097.949, 4172.821, 4138.462, 0, 0, []
1630238143.1442, 39, 0, 4175.385, 4232.308, 4102.051, 4195.385, 4130.769, 0, 0, []
1630238143.1521, 40, 0, 4172.821, 4189.231, 4089.231, 4193.333, 4134.359, 0, 0, []
1630238143.16, 41, 0, 4161.538, 4204.615, 4101.026, 4198.974, 4137.949, 0, 0, []
1630238143.1679, 42, 0, 4176.923, 4218.974, 4095.385, 4204.615, 4135.385, 0, 0, []
1630238143.1759, 43, 0, 4186.667, 4172.821, 4097.436, 4191.282, 4140, 0, 0, []
1630238143.1838, 44, 0, 4175.897, 4174.359, 4116.41, 4190.256, 4154.872, 0, 0, []
1630238143.1916, 45, 0, 4187.179, 4284.615, 4103.59, 4204.103, 4169.744, 0, 0, []
1630238143.1994, 46, 0, 4206.154, 4360.513, 4113.846, 4214.359, 4165.128, 0, 0, []
1630238143.2072, 47, 0, 4188.718, 4330.769, 4107.692, 4189.744, 4148.205, 0, 0, []
1630238143.2151, 48, 0, 4161.538, 4287.179, 4093.333, 4184.103, 4135.897, 0, 0, []
1630238143.2229, 49, 0, 4158.974, 4250.769, 4094.359, 4211.795, 4124.615, 0, 0, []
1630238143.2308, 50, 0, 4167.179, 4224.103, 4079.487, 4196.41, 4123.59, 0, 0, []
1630238143.2385, 51, 0, 4170.769, 4264.103, 4104.615, 4179.487, 4142.564, 0, 0, []
1630238143.2464, 52, 0, 4178.974, 4327.179, 4105.641, 4188.205, 4166.154, 0, 0, []
1630238143.2542, 53, 0, 4186.154, 4338.462, 4088.205, 4198.974, 4157.949, 0, 0, []
1630238143.2622, 54, 0, 4197.949, 4329.231, 4114.359, 4201.538, 4147.692, 0, 0, []
1630238143.2701, 55, 0, 4225.128, 4347.692, 4115.385, 4190.769, 4182.051, 0, 0, []
1630238143.278, 56, 0, 4265.641, 4366.667, 4117.949, 4203.59, 4231.795, 0, 0, []
1630238143.2859, 57, 0, 4322.051, 4354.872, 4109.231, 4207.692, 4265.128, 0, 0, []
1630238143.2939, 58, 0, 4386.667, 4345.641, 4094.872, 4186.667, 4298.462, 0, 0, []
1630238143.3018, 59, 0, 4435.897, 4370.769, 4116.41, 4181.538, 4332.308, 0, 0, []
1630238143.3098, 60, 0, 4471.795, 4392.821, 4106.154, 4169.231, 4352.821, 0, 0, []
1630238143.3177, 61, 0, 4510.256, 4388.205, 4109.744, 4162.564, 4380, 0, 0, []
1630238143.3256, 62, 0, 4541.538, 4405.641, 4114.359, 4168.718, 4408.205, 0, 0, []
1630238143.3335, 63, 0, 4571.282, 4426.667, 4102.051, 4178.974, 4424.615, 0, 0, []
1630238143.3415, 64, 0, 4602.051, 4390.769, 4126.154, 4201.538, 4439.487, 450, 0, []
1630238143.3494, 65, 0, 4602.051, 4354.872, 4110.256, 4189.744, 4438.974, 450, 0, []
1630238143.3572, 66, 0, 4586.667, 4372.308, 4100, 4174.872, 4429.231, 16194, 0, []
1630238143.365, 67, 0, 4590.769, 4404.615, 4117.436, 4183.59, 4432.308, 450, 0, []
1630238143.3728, 68, 0, 4598.462, 4412.308, 4107.692, 4174.872, 4435.897, 16089, 0, []
1630238143.3807, 69, 0, 4601.026, 4414.872, 4124.615, 4169.744, 4434.872, 450, 0, []
1630238143.3885, 70, 0, 4612.821, 4418.462, 4131.795, 4168.205, 4430.256, 16086, 0, []
1630238143.3964, 71, 0, 4602.051, 4390.769, 4125.641, 4154.359, 4394.359, 450, 0, []
1630238143.4041, 72, 0, 4574.872, 4369.744, 4107.692, 4145.128, 4356.923, 450, 0, []
1630238143.412, 73, 0, 4577.949, 4393.846, 4086.667, 4156.41, 4358.462, 16060, 0, []
1630238143.4198, 74, 0, 4582.564, 4403.59, 4111.282, 4177.436, 4356.923, 450, 0, []
1630238143.4277, 75, 0, 4553.333, 4386.667, 4107.179, 4172.821, 4328.718, 16208, 0, []
1630238143.4355, 76, 0, 4513.333, 4377.436, 4098.974, 4165.641, 4303.59, 450, 0, []
1630238143.4434, 77, 0, 4497.949, 4373.846, 4104.103, 4167.692, 4293.846, 450, 0, []
1630238143.4513, 78, 0, 4505.128, 4388.718, 4088.205, 4165.641, 4298.462, 450, 0, []
1630238143.4592, 79, 0, 4498.462, 4398.974, 4111.282, 4178.974, 4296.41, 16208, 0, []
1630238143.4671, 80, 0, 4467.692, 4369.744, 4108.205, 4173.846, 4272.821, 450, 0, []
1630238143.4749, 81, 0, 4434.359, 4362.051, 4087.179, 4162.051, 4247.179, 450, 0, []
1630238143.4828, 82, 0, 4415.385, 4369.231, 4098.974, 4169.231, 4242.051, 450, 0, []
1630238143.4907, 83, 0, 4391.795, 4335.385, 4081.538, 4148.205, 4235.897, 16208, 0, []
1630238143.4986, 84, 0, 4361.026, 4326.154, 4083.59, 4140.513, 4212.308, 450, 0, []
1630238143.5064, 85, 0, 4347.692, 4347.692, 4092.308, 4170.769, 4197.436, 450, 0, []
1630238143.5143, 86, 0, 4351.795, 4356.923, 4093.846, 4193.333, 4206.154, 450, 0, []
1630238143.522, 87, 0, 4351.795, 4367.692, 4100.513, 4190.256, 4205.128, 16208, 0, []
1630238143.5299, 88, 0, 4324.615, 4347.179, 4063.077, 4164.103, 4171.282, 450, 0, []
1630238143.5377, 89, 0, 4297.436, 4322.051, 4069.231, 4157.949, 4153.333, 450, 0, []
1630238143.5456, 90, 0, 4294.872, 4350.769, 4099.487, 4172.821, 4180, 450, 0, []
1630238143.5534, 91, 0, 4292.308, 4362.051, 4094.872, 4184.615, 4191.795, 16208, 0, []
1630238143.5612, 92, 0, 4277.436, 4348.205, 4097.436, 4192.308, 4170.769, 450, 0, []
1630238143.569, 93, 0, 4267.179, 4371.282, 4085.128, 4180, 4157.949, 450, 0, []
1630238143.5769, 94, 0, 4257.949, 4367.692, 4103.077, 4179.487, 4158.462, 450, 0, []
1630238143.5847, 95, 0, 4241.026, 4344.615, 4115.897, 4182.564, 4159.487, 16208, 0, []
1630238143.5927, 96, 0, 4229.744, 4352.308, 4091.795, 4170.769, 4149.744, 450, 0, []
1630238143.6005, 97, 0, 4220.513, 4329.744, 4084.615, 4164.615, 4123.59, 450, 0, []
1630238143.6085, 98, 0, 4213.333, 4294.872, 4071.795, 4148.718, 4115.385, 450, 0, []
1630238143.6164, 99, 0, 4216.41, 4289.744, 4103.59, 4161.538, 4141.538, 16208, 0, []
1630238143.6244, 100, 0, 4228.205, 4306.154, 4137.436, 4196.923, 4154.872, 450, 0, []
1630238143.6323, 101, 0, 4232.821, 4329.744, 4116.41, 4196.923, 4132.308, 450, 0, []
1630238143.6402, 102, 0, 4218.462, 4340, 4119.487, 4187.179, 4121.026, 450, 0, []
1630238143.6481, 103, 0, 4191.795, 4345.128, 4105.128, 4175.897, 4128.205, 16208, 0, []
1630238143.6561, 104, 0, 4176.41, 4351.795, 4090.769, 4171.795, 4114.872, 450, 0, []
1630238143.664, 105, 0, 4182.564, 4347.692, 4101.538, 4181.026, 4093.333, 450, 0, []
1630238143.6719, 106, 0, 4191.795, 4355.385, 4102.564, 4186.667, 4113.333, 450, 0, []
1630238143.6798, 107, 0, 4185.128, 4379.487, 4125.128, 4193.846, 4126.154, 16208, 0, []
1630238143.6875, 108, 0, 4163.59, 4384.103, 4111.795, 4181.538, 4088.205, 450, 0, []
1630238143.6954, 109, 0, 4149.231, 4382.051, 4098.462, 4173.333, 4084.103, 450, 0, []
1630238143.7032, 110, 0, 4154.359, 4371.795, 4113.846, 4184.103, 4127.692, 450, 0, []
1630238143.7111, 111, 0, 4145.128, 4317.436, 4101.538, 4190.769, 4128.718, 16208, 0, []
1630238143.7189, 112, 0, 4107.692, 4309.231, 4108.718, 4215.385, 4106.154, 450, 0, []
1630238143.7267, 113, 0, 4070.769, 4377.949, 4090.769, 4221.538, 4107.692, 450, 0, []
1630238143.7345, 114, 0, 4046.667, 4385.128, 4084.103, 4210.256, 4107.692, 450, 0, []
1630238143.7425, 115, 0, 4037.949, 4358.462, 4126.154, 4229.744, 4106.667, 16208, 0, []
1630238143.7504, 116, 0, 4025.641, 4379.487, 4126.154, 4240, 4101.026, 450, 0, []
1630238143.7584, 117, 0, 3996.923, 4371.795, 4124.615, 4234.359, 4076.41, 450, 0, []
1630238143.7662, 118, 0, 3983.077, 4344.615, 4111.795, 4226.667, 4066.667, 450, 0, []
1630238143.7742, 119, 0, 3990.769, 4348.205, 4100, 4222.564, 4074.359, 16208, 0, []
1630238143.7821, 120, 0, 4008.205, 4341.538, 4121.538, 4238.974, 4083.077, 450, 0, []
1630238143.7901, 121, 0, 4023.59, 4321.538, 4112.821, 4245.128, 4095.385, 450, 0, []
1630238143.798, 122, 0, 4017.436, 4318.462, 4117.949, 4233.333, 4087.179, 450, 0, []
1630238143.8059, 123, 0, 4002.051, 4301.026, 4114.359, 4213.846, 4064.615, 16208, 0, []
1630238143.8138, 124, 0, 4000, 4287.692, 4101.026, 4213.846, 4061.026, 450, 0, []
1630238143.8216, 125, 0, 3998.462, 4332.308, 4119.487, 4226.154, 4056.41, 450, 0, []
1630238143.8295, 126, 0, 3991.795, 4352.308, 4104.103, 4211.282, 4048.205, 450, 0, []
1630238143.8373, 127, 0, 4001.538, 4299.487, 4110.256, 4218.462, 4061.026, 16208, 0, []
1630238143.8451, 128, 0, 4020.513, 4231.282, 4121.026, 4238.974, 4083.077, 450, 0, []
1630238143.8529, 0, 0, 4027.179, 4176.923, 4100, 4230.256, 4080, 450, 0, []
1630238143.8608, 1, 0, 4018.462, 4137.949, 4100.513, 4218.462, 4051.795, 450, 0, []
1630238143.8686, 2, 0, 4010.769, 4123.077, 4095.385, 4212.821, 4044.615, 16200, 0, []
1630238143.8765, 3, 0, 4032.308, 4132.821, 4123.077, 4233.846, 4068.718, 450, 0, []
1630238143.8842, 4, 0, 4056.923, 4129.231, 4142.051, 4250.256, 4085.641, 16102, 0, []
1630238143.8921, 5, 0, 4056.923, 4083.59, 4110.769, 4237.949, 4086.154, 450, 0, []
1630238143.8999, 6, 0, 4060, 4052.308, 4120, 4247.179, 4086.667, 16082, 0, []
1630238143.9079, 7, 0, 4061.538, 4084.615, 4118.974, 4252.821, 4083.59, 450, 0, []
1630238143.9158, 8, 0, 4061.026, 4144.103, 4116.41, 4244.615, 4087.692, 450, 0, []
1630238143.9237, 9, 0, 4076.923, 4163.59, 4135.385, 4242.051, 4118.462, 16062, 0, []
1630238143.9316, 10, 0, 4087.179, 4135.385, 4125.641, 4231.795, 4134.872, 450, 0, []
1630238143.9396, 11, 0, 4077.949, 4114.359, 4117.949, 4234.872, 4115.897, 16196, 0, []
1630238143.9475, 12, 0, 4077.436, 4133.846, 4090.769, 4232.308, 4107.692, 450, 0, []
1630238143.9555, 13, 0, 4086.667, 4144.103, 4091.282, 4222.051, 4122.051, 450, 0, []
1630238143.9633, 14, 0, 4093.333, 4100, 4110.256, 4232.821, 4118.974, 450, 0, []
1630238143.9712, 15, 0, 4094.872, 4065.641, 4088.718, 4233.333, 4104.615, 16196, 0, []
1630238143.9791, 16, 0, 4092.821, 4081.538, 4110.769, 4229.231, 4116.923, 0, 0, []
1630238143.9869, 17, 0, 4095.897, 4099.487, 4124.615, 4229.231, 4126.667, 0, 0, []
1630238143.9948, 18, 0, 4089.231, 4073.333, 4112.821, 4222.564, 4107.692, 0, 0, []
1630238144.0026, 19, 0, 4076.923, 4046.667, 4108.718, 4211.282, 4096.923, 0, 0, []
1630238144.0104, 20, 0, 4080, 4071.282, 4084.103, 4193.333, 4098.974, 0, 0, []
1630238144.0182, 21, 0, 4075.385, 4086.667, 4090.769, 4196.41, 4092.308, 0, 0, []
1630238144.0261, 22, 0, 4064.103, 4045.128, 4085.128, 4202.051, 4084.615, 0, 0, []
1630238144.0339, 23, 0, 4077.949, 4012.821, 4086.154, 4201.026, 4094.359, 0, 0, []
1630238144.0418, 24, 0, 4096.41, 4043.077, 4126.667, 4210.769, 4114.872, 0, 0, []
1630238144.0495, 25, 0, 4085.641, 4063.077, 4111.795, 4205.641, 4104.103, 0, 0, []
1630238144.0575, 26, 0, 4066.154, 4018.974, 4097.436, 4200.513, 4079.487, 0, 0, []
1630238144.0654, 27, 0, 4078.974, 3988.718, 4101.026, 4200.513, 4095.385, 0, 0, []
1630238144.0734, 28, 0, 4112.821, 4015.897, 4100.513, 4206.154, 4117.949, 0, 0, []
1630238144.0813, 29, 0, 4114.872, 4021.538, 4111.282, 4218.462, 4105.128, 0, 0, []
1630238144.0892, 30, 0, 4095.385, 3995.385, 4085.128, 4206.154, 4092.821, 0, 0, []
1630238144.0971, 31, 0, 4100.513, 4017.436, 4086.667, 4195.385, 4100.513, 0, 0, []
1630238144.1051, 32, 0, 4105.641, 4038.974, 4096.923, 4203.077, 4104.615, 0, 0, []
1630238144.113, 33, 0, 4082.051, 4014.359, 4073.333, 4207.692, 4089.744, 0, 0, []
1630238144.121, 34, 0, 4068.718, 4016.41, 4079.487, 4204.103, 4078.462, 0, 0, []
1630238144.1288, 35, 0, 4086.154, 4036.41, 4086.154, 4192.308, 4093.846, 0, 0, []
1630238144.1366, 36, 0, 4104.615, 4012.308, 4105.128, 4208.205, 4102.051, 0, 0, []
1630238144.1445, 37, 0, 4107.179, 3995.897, 4103.077, 4218.974, 4097.436, 0, 0, []
1630238144.1523, 38, 0, 4102.051, 4025.128, 4075.385, 4192.308, 4101.538, 0, 0, []
1630238144.1602, 39, 0, 4105.641, 4038.462, 4096.41, 4194.872, 4100.513, 0, 0, []
1630238144.1679, 40, 0, 4110.256, 4024.615, 4088.205, 4204.103, 4100.513, 0, 0, []
1630238144.1758, 41, 0, 4110.769, 4032.308, 4076.41, 4197.436, 4115.897, 0, 0, []
1630238144.1836, 42, 0, 4120, 4068.205, 4090.769, 4204.615, 4117.436, 0, 0, []
