Timestamp, COUNTER, INTERPOLATED, AF3, T7, Pz, T8, AF4, RAW_CQ, MARKER_HARDWARE, MARKERS
1629649066.102, 122, 0, 4157.949, 4131.282, 4023.59, 4051.795, 4094.872, 450, 0, []
1629649066.1098, 123, 0, 4165.641, 4148.718, 4034.872, 4050.769, 4104.615, 16200, 0, []
1629649066.1176, 124, 0, 4166.667, 4143.077, 4033.333, 4060, 4110.769, 450, 0, []
1629649066.1256, 125, 0, 4168.205, 4132.308, 4030.256, 4070.769, 4108.718, 450, 0, []
1629649066.1335, 126, 0, 4178.462, 4147.692, 4051.795, 4074.872, 4118.974, 450, 0, []
1629649066.1415, 127, 0, 4174.872, 4151.282, 4030.256, 4065.128, 4120.513, 16200, 0, []
1629649066.1494, 128, 0, 4156.41, 4133.846, 4036.41, 4060, 4103.077, 450, 0, []
1629649066.1573, 0, 0, 4153.333, 4130.256, 4041.026, 4062.051, 4100, 450, 0, []
1629649066.1652, 1, 0, 4155.385, 4131.795, 4023.59, 4062.564, 4102.051, 450, 0, []
1629649066.1732, 2, 0, 4137.436, 4136.923, 4038.462, 4071.795, 4088.205, 16189, 0, []
1629649066.1811, 3, 0, 4112.308, 4143.59, 4029.231, 4085.641, 4075.385, 450, 0, []
1629649066.1891, 4, 0, 4083.077, 4126.154, 4025.128, 4082.051, 4054.359, 16166, 0, []
1629649066.1969, 5, 0, 4050.769, 4109.231, 4012.308, 4070.256, 4020, 450, 0, []
1629649066.2049, 6, 0, 4033.333, 4116.41, 3993.846, 4078.974, 4003.59, 16103, 0, []
1629649066.2128, 7, 0, 4025.641, 4132.308, 4020.513, 4093.333, 4005.641, 450, 0, []
1629649066.2206, 8, 0, 4013.846, 4144.103, 4010.769, 4086.667, 3998.462, 450, 0, []
1629649066.2285, 9, 0, 4021.538, 4149.744, 4016.923, 4085.641, 3995.385, 16158, 0, []
1629649066.2362, 10, 0, 4044.103, 4152.308, 4038.974, 4098.462, 4006.154, 450, 0, []
1629649066.2441, 11, 0, 4037.436, 4156.41, 4028.718, 4096.41, 4004.615, 16200, 0, []
1629649066.2519, 12, 0, 4017.436, 4164.103, 4045.128, 4090.256, 3995.385, 450, 0, []
1629649066.2598, 13, 0, 4029.231, 4173.846, 4032.821, 4096.923, 4003.59, 450, 0, []
1629649066.2676, 14, 0, 4041.026, 4163.59, 4026.667, 4101.026, 4009.744, 450, 0, []
1629649066.2755, 15, 0, 4028.205, 4141.538, 4041.026, 4095.897, 4004.103, 16200, 0, []
1629649066.2834, 16, 0, 4032.821, 4160, 4035.385, 4098.462, 4012.308, 0, 0, []
1629649066.2914, 17, 0, 4056.923, 4196.923, 4064.103, 4110.769, 4031.795, 0, 0, []
1629649066.2993, 18, 0, 4067.692, 4201.026, 4054.872, 4116.923, 4041.026, 0, 0, []
1629649066.3073, 19, 0, 4064.103, 4191.282, 4045.128, 4114.872, 4041.026, 0, 0, []
1629649066.3151, 20, 0, 4062.564, 4188.718, 4063.077, 4106.154, 4041.026, 0, 0, []
1629649066.3231, 21, 0, 4061.538, 4187.179, 4040.513, 4100.513, 4041.026, 0, 0, []
1629649066.331, 22, 0, 4056.41, 4189.231, 4054.872, 4107.692, 4041.538, 0, 0, []
1629649066.339, 23, 0, 4055.897, 4194.359, 4052.821, 4105.128, 4043.077, 0, 0, []
1629649066.3469, 24, 0, 4050.769, 4177.436, 4028.718, 4092.821, 4034.359, 0, 0, []
1629649066.3548, 25, 0, 4042.564, 4148.205, 4042.564, 4088.718, 4024.615, 0, 0, []
1629649066.3627, 26, 0, 4042.051, 4136.41, 4024.615, 4086.154, 4025.128, 0, 0, []
1629649066.3705, 27, 0, 4043.077, 4128.718, 4030.769, 4082.564, 4022.564, 0, 0, []
1629649066.3784, 28, 0, 4049.231, 4127.692, 4033.846, 4083.077, 4027.179, 0, 0, []
1629649066.3862, 29, 0, 4061.538, 4136.923, 4022.051, 4088.718, 4043.59, 0, 0, []
1629649066.3941, 30, 0, 4071.795, 4146.154, 4047.692, 4095.897, 4051.795, 0, 0, []
1629649066.4018, 31, 0, 4078.462, 4152.308, 4031.795, 4103.077, 4052.308, 0, 0, []
1629649066.4097, 32, 0, 4081.538, 4154.872, 4037.436, 4105.128, 4054.359, 0, 0, []
1629649066.4175, 33, 0, 4083.59, 4154.359, 4042.051, 4093.846, 4056.41, 0, 0, []
1629649066.4254, 34, 0, 4083.59, 4147.179, 4014.359, 4080, 4055.897, 0, 0, []
1629649066.4332, 35, 0, 4078.462, 4138.974, 4041.026, 4080.513, 4054.359, 0, 0, []
1629649066.441, 36, 0, 4076.41, 4132.821, 4035.897, 4083.077, 4053.333, 0, 0, []
1629649066.4488, 37, 0, 4086.154, 4135.897, 4042.051, 4086.667, 4059.487, 0, 0, []
1629649066.4568, 38, 0, 4113.333, 4162.564, 4065.641, 4100.513, 4083.077, 0, 0, []
1629649066.4647, 39, 0, 4119.487, 4173.846, 4038.974, 4104.615, 4089.231, 0, 0, []
1629649066.4727, 40, 0, 4083.077, 4137.949, 4028.718, 4076.41, 4054.359, 0, 0, []
1629649066.4805, 41, 0, 4055.385, 4106.667, 3995.897, 4045.128, 4025.641, 0, 0, []
1629649066.4885, 42, 0, 4061.026, 4109.744, 4001.026, 4050.769, 4032.308, 0, 0, []
1629649066.4964, 43, 0, 4065.641, 4117.436, 4025.128, 4063.59, 4044.103, 0, 0, []
1629649066.5044, 44, 0, 4066.154, 4117.436, 4003.077, 4055.385, 4048.718, 0, 0, []
1629649066.5123, 45, 0, 4086.154, 4120.513, 4028.205, 4060, 4066.154, 0, 0, []
1629649066.5202, 46, 0, 4105.641, 4131.282, 4028.718, 4081.026, 4087.179, 0, 0, []
1629649066.5281, 47, 0, 4101.538, 4131.282, 4027.179, 4083.59, 4087.692, 0, 0, []
1629649066.5359, 48, 0, 4101.026, 4120, 4034.872, 4070.256, 4081.026, 0, 0, []
1629649066.5438, 49, 0, 4109.744, 4113.846, 4006.154, 4068.718, 4084.103, 0, 0, []
1629649066.5516, 50, 0, 4109.231, 4108.205, 4027.179, 4067.692, 4082.051, 0, 0, []
1629649066.5594, 51, 0, 4114.359, 4109.744, 4018.974, 4057.949, 4084.103, 0, 0, []
1629649066.5672, 52, 0, 4126.154, 4126.154, 4013.846, 4066.154, 4099.487, 0, 0, []
1629649066.5751, 53, 0, 4122.564, 4133.846, 4035.897, 4078.462, 4097.949, 0, 0, []
1629649066.5829, 54, 0, 4115.897, 4126.154, 4008.718, 4070.256, 4087.692, 0, 0, []
1629649066.5908, 55, 0, 4110.769, 4111.282, 4014.359, 4054.872, 4085.128, 0, 0, []
1629649066.5986, 56, 0, 4067.692, 4083.59, 3964.103, 4017.949, 4049.231, 0, 0, []
1629649066.6065, 57, 0, 4018.974, 4040, 3903.59, 3961.538, 3989.744, 0, 0, []
1629649066.6144, 58, 0, 4030.769, 4000.513, 3904.103, 3921.538, 3974.872, 0, 0, []
1629649066.6224, 59, 0, 4049.744, 3969.744, 3849.231, 3883.077, 3977.949, 0, 0, []
1629649066.6303, 60, 0, 4032.308, 3935.385, 3820.513, 3840.513, 3953.333, 0, 0, []
1629649066.6383, 61, 0, 4037.949, 3926.154, 3806.154, 3816.923, 3943.59, 0, 0, []
1629649066.6461, 62, 0, 4065.128, 3932.821, 3795.385, 3810.769, 3959.487, 0, 0, []
1629649066.6541, 63, 0, 4073.846, 3926.154, 3814.872, 3809.744, 3967.179, 0, 0, []
1629649066.662, 64, 0, 4073.846, 3926.667, 3801.026, 3811.795, 3964.615, 450, 0, []
1629649066.67, 65, 0, 4067.692, 3933.333, 3827.692, 3817.436, 3958.974, 450, 0, []
1629649066.6779, 66, 0, 4052.821, 3937.949, 3829.231, 3813.846, 3950.769, 16189, 0, []
1629649066.6856, 67, 0, 4036.923, 3935.897, 3809.231, 3811.795, 3933.333, 450, 0, []
1629649066.6935, 68, 0, 4026.667, 3933.846, 3843.59, 3825.641, 3916.41, 16171, 0, []
1629649066.7013, 69, 0, 4021.026, 3949.231, 3833.846, 3836.923, 3911.282, 450, 0, []
1629649066.7092, 70, 0, 4008.718, 3967.179, 3850.256, 3843.077, 3903.077, 16108, 0, []
1629649066.717, 71, 0, 4002.564, 3968.205, 3871.282, 3846.154, 3893.846, 450, 0, []
1629649066.7248, 72, 0, 4022.564, 3977.436, 3873.846, 3862.564, 3912.821, 450, 0, []
1629649066.7326, 73, 0, 4060.513, 4024.615, 3928.205, 3902.564, 3955.897, 16158, 0, []
1629649066.7406, 74, 0, 4069.231, 4049.744, 3918.974, 3915.897, 3970.256, 450, 0, []
1629649066.7485, 75, 0, 4037.949, 4014.872, 3894.872, 3889.744, 3940.513, 16201, 0, []
1629649066.7565, 76, 0, 4013.846, 3987.692, 3877.949, 3869.231, 3911.795, 450, 0, []
1629649066.7643, 77, 0, 4001.026, 3985.641, 3843.077, 3856.923, 3895.385, 450, 0, []
1629649066.7723, 78, 0, 3984.103, 3984.103, 3853.846, 3833.333, 3875.897, 450, 0, []
1629649066.7802, 79, 0, 3987.179, 3982.564, 3836.923, 3826.667, 3875.897, 16201, 0, []
1629649066.7882, 80, 0, 3997.949, 3973.846, 3851.282, 3848.205, 3889.744, 450, 0, []
1629649066.7961, 81, 0, 3992.821, 3981.538, 3874.359, 3864.615, 3891.282, 450, 0, []
1629649066.804, 82, 0, 3999.487, 4003.59, 3866.667, 3881.026, 3903.59, 450, 0, []
1629649066.8119, 83, 0, 4040, 4000.513, 3923.077, 3916.41, 3944.103, 16201, 0, []
1629649066.8199, 84, 0, 4081.538, 4011.282, 3943.077, 3944.103, 3984.615, 450, 0, []
1629649066.8278, 85, 0, 4103.59, 4047.692, 3960.513, 3968.718, 4006.154, 450, 0, []
1629649066.8356, 86, 0, 4131.795, 4079.487, 4003.077, 4004.615, 4035.385, 450, 0, []
1629649066.8435, 87, 0, 4164.615, 4106.154, 4005.641, 4027.692, 4071.282, 16201, 0, []
1629649066.8512, 88, 0, 4176.923, 4112.308, 4027.179, 4032.308, 4080.513, 450, 0, []
1629649066.8591, 89, 0, 4180.513, 4102.564, 4012.308, 4036.41, 4082.564, 450, 0, []
1629649066.8669, 90, 0, 4185.641, 4108.205, 4014.872, 4046.667, 4095.385, 450, 0, []
1629649066.8748, 91, 0, 4178.462, 4102.564, 4031.795, 4045.128, 4089.231, 16201, 0, []
1629649066.8826, 92, 0, 4139.487, 4043.59, 3969.231, 4009.744, 4045.128, 450, 0, []
1629649066.8904, 93, 0, 4099.487, 4002.564, 3954.359, 3972.821, 4007.692, 450, 0, []
1629649066.8982, 94, 0, 4090.256, 4015.897, 3950.256, 3962.051, 4002.051, 450, 0, []
1629649066.9061, 95, 0, 4045.641, 3962.564, 3894.872, 3920.513, 3958.462, 16201, 0, []
1629649066.9139, 96, 0, 3958.462, 3876.923, 3842.051, 3844.615, 3878.974, 450, 0, []
1629649066.9219, 97, 0, 3916.41, 3884.615, 3811.282, 3815.897, 3838.462, 450, 0, []
1629649066.9297, 98, 0, 3896.41, 3887.179, 3825.641, 3810.769, 3809.744, 450, 0, []
1629649066.9377, 99, 0, 3834.872, 3812.308, 3762.564, 3753.333, 3753.846, 16201, 0, []
1629649066.9456, 100, 0, 3778.974, 3760.513, 3693.333, 3695.385, 3704.615, 450, 0, []
1629649066.9536, 101, 0, 3756.923, 3742.564, 3701.026, 3677.949, 3671.282, 450, 0, []
1629649066.9615, 102, 0, 3737.436, 3703.59, 3668.718, 3663.59, 3646.154, 450, 0, []
1629649066.9694, 103, 0, 3723.59, 3670.769, 3677.436, 3654.872, 3638.974, 16201, 0, []
1629649066.9773, 104, 0, 3712.308, 3644.103, 3673.846, 3642.564, 3628.718, 450, 0, []
1629649066.9853, 105, 0, 3686.667, 3606.667, 3629.231, 3611.795, 3599.487, 450, 0, []
1629649066.9932, 106, 0, 3659.487, 3577.436, 3629.744, 3587.179, 3572.308, 450, 0, []
1629649067.001, 107, 0, 3628.205, 3529.744, 3576.41, 3541.538, 3537.436, 16201, 0, []
1629649067.0088, 108, 0, 3589.231, 3446.667, 3534.359, 3476.41, 3487.179, 450, 0, []
1629649067.0166, 109, 0, 3552.821, 3368.205, 3505.128, 3433.846, 3443.59, 450, 0, []
1629649067.0245, 110, 0, 3506.154, 3320.513, 3459.487, 3407.692, 3403.59, 450, 0, []
1629649067.0323, 111, 0, 3470.256, 3293.333, 3465.128, 3386.154, 3373.846, 16201, 0, []
1629649067.0402, 112, 0, 3472.308, 3256.41, 3444.615, 3373.333, 3364.615, 450, 0, []
1629649067.0479, 113, 0, 3456.923, 3209.231, 3444.103, 3369.744, 3351.282, 450, 0, []
1629649067.0558, 114, 0, 3415.897, 3190.256, 3438.974, 3356.923, 3326.154, 450, 0, []
1629649067.0636, 115, 0, 3409.231, 3185.128, 3406.667, 3350.769, 3315.385, 16201, 0, []
1629649067.0716, 116, 0, 3433.333, 3158.462, 3445.641, 3364.615, 3328.718, 450, 0, []
1629649067.0795, 117, 0, 3424.615, 3112.308, 3429.744, 3350.769, 3325.641, 450, 0, []
1629649067.0875, 118, 0, 3401.538, 3054.872, 3400.513, 3326.154, 3304.103, 450, 0, []
1629649067.0953, 119, 0, 3427.692, 3025.128, 3422.051, 3342.564, 3317.949, 16201, 0, []
1629649067.1033, 120, 0, 3447.179, 2991.282, 3405.641, 3352.821, 3329.231, 450, 0, []
1629649067.1112, 121, 0, 3405.641, 2890.256, 3384.103, 3320, 3289.744, 450, 0, []
1629649067.1192, 122, 0, 3372.821, 2797.436, 3342.564, 3289.231, 3266.667, 450, 0, []
1629649067.1271, 123, 0, 3391.282, 2792.821, 3337.949, 3281.538, 3269.231, 16201, 0, []
1629649067.135, 124, 0, 3412.308, 2806.154, 3353.333, 3270.256, 3257.436, 450, 0, []
1629649067.1429, 125, 0, 3406.667, 2761.026, 3336.923, 3267.692, 3257.436, 450, 0, []
1629649067.1507, 126, 0, 3402.564, 2714.359, 3368.205, 3278.974, 3266.154, 450, 0, []
1629649067.1586, 127, 0, 3416.923, 2697.949, 3350.256, 3274.359, 3264.615, 16201, 0, []
1629649067.1664, 128, 0, 3396.41, 2672.821, 3322.564, 3273.846, 3264.103, 450, 0, []
1629649067.1742, 0, 0, 3345.641, 2655.897, 3333.846, 3284.615, 3254.359, 450, 0, []
1629649067.182, 1, 0, 3342.564, 2663.077, 3302.051, 3277.949, 3236.923, 450, 0, []
1629649067.1899, 2, 0, 3424.103, 2673.846, 3333.846, 3278.462, 3260.513, 16203, 0, []
1629649067.1977, 3, 0, 3470.769, 2685.641, 3344.103, 3284.103, 3283.59, 450, 0, []
1629649067.2056, 4, 0, 3397.436, 2705.128, 3301.026, 3270.256, 3252.308, 16187, 0, []
1629649067.2133, 5, 0, 3394.359, 2712.821, 3316.923, 3269.231, 3255.897, 450, 0, []
1629649067.2212, 6, 0, 3447.692, 2691.282, 3322.051, 3281.538, 3285.128, 16117, 0, []
1629649067.229, 7, 0, 3376.41, 2681.026, 3321.026, 3270.256, 3253.333, 450, 0, []
1629649067.237, 8, 0, 3333.333, 2720.513, 3305.641, 3252.821, 3238.974, 450, 0, []
1629649067.2449, 9, 0, 3409.744, 2757.949, 3304.103, 3275.385, 3277.949, 16170, 0, []
1629649067.2528, 10, 0, 3418.462, 2751.795, 3326.154, 3301.538, 3289.231, 450, 0, []
1629649067.2607, 11, 0, 3389.231, 2764.615, 3304.103, 3292.308, 3285.128, 16224, 0, []
1629649067.2687, 12, 0, 3445.128, 2790.769, 3333.846, 3285.128, 3292.308, 450, 0, []
1629649067.2766, 13, 0, 3444.615, 2786.667, 3350.769, 3295.385, 3277.949, 450, 0, []
1629649067.2846, 14, 0, 3368.205, 2809.744, 3325.128, 3308.205, 3282.051, 450, 0, []
1629649067.2925, 15, 0, 3364.615, 2844.615, 3360, 3326.667, 3322.564, 16224, 0, []
1629649067.3003, 16, 0, 3454.872, 2840, 3370.769, 3352.821, 3340, 0, 0, []
1629649067.3082, 17, 0, 3542.564, 2852.308, 3393.846, 3374.359, 3371.795, 0, 0, []
1629649067.3161, 18, 0, 3528.205, 2884.103, 3405.641, 3372.308, 3412.821, 0, 0, []
1629649067.324, 19, 0, 3472.308, 2883.59, 3367.179, 3358.462, 3386.667, 0, 0, []
1629649067.3318, 20, 0, 3468.718, 2870.769, 3400, 3370.256, 3362.051, 0, 0, []
1629649067.3396, 21, 0, 3522.051, 2874.872, 3428.205, 3406.667, 3420.513, 0, 0, []
1629649067.3474, 22, 0, 3551.282, 2834.359, 3429.744, 3419.487, 3450.769, 0, 0, []
1629649067.3553, 23, 0, 3494.359, 2749.231, 3408.718, 3381.026, 3392.308, 0, 0, []
1629649067.3631, 24, 0, 3461.538, 2716.41, 3371.795, 3345.641, 3360.513, 0, 0, []
1629649067.371, 25, 0, 3519.487, 2752.308, 3418.462, 3382.564, 3399.487, 0, 0, []
1629649067.3787, 26, 0, 3564.103, 2811.282, 3453.846, 3449.744, 3449.744, 0, 0, []
1629649067.3867, 27, 0, 3557.436, 2840.513, 3468.205, 3476.923, 3475.385, 0, 0, []
1629649067.3946, 28, 0, 3580, 2867.179, 3489.231, 3484.103, 3489.744, 0, 0, []
1629649067.4026, 29, 0, 3619.487, 2913.846, 3484.615, 3510.256, 3509.231, 0, 0, []
1629649067.4105, 30, 0, 3628.205, 2950.256, 3529.231, 3544.615, 3530.256, 0, 0, []
1629649067.4184, 31, 0, 3657.436, 2980.513, 3549.231, 3562.051, 3561.538, 0, 0, []
1629649067.4263, 32, 0, 3703.077, 3012.821, 3567.692, 3587.692, 3602.564, 0, 0, []
1629649067.4343, 33, 0, 3742.051, 3046.154, 3617.436, 3634.872, 3640, 0, 0, []
1629649067.4422, 34, 0, 3758.462, 3067.692, 3613.333, 3658.974, 3661.538, 0, 0, []
1629649067.45, 35, 0, 3757.436, 3073.846, 3635.385, 3656.41, 3667.692, 0, 0, []
1629649067.4578, 36, 0, 3763.077, 3081.026, 3642.051, 3656.41, 3672.821, 0, 0, []
1629649067.4656, 37, 0, 3782.051, 3091.795, 3638.974, 3664.615, 3689.744, 0, 0, []
1629649067.4735, 38, 0, 3823.59, 3100, 3663.59, 3665.128, 3726.154, 0, 0, []
1629649067.4813, 39, 0, 3873.333, 3117.949, 3642.564, 3667.179, 3773.333, 0, 0, []
1629649067.4892, 40, 0, 3918.462, 3143.077, 3662.564, 3686.667, 3823.59, 0, 0, []
1629649067.4969, 41, 0, 3974.872, 3154.359, 3676.41, 3686.667, 3878.974, 0, 0, []
1629649067.5048, 42, 0, 4032.308, 3152.821, 3662.051, 3680, 3930.769, 0, 0, []
1629649067.5126, 43, 0, 4076.923, 3161.538, 3685.641, 3705.128, 3975.385, 0, 0, []
1629649067.5205, 44, 0, 4113.333, 3187.692, 3673.846, 3711.282, 4010.256, 0, 0, []
1629649067.5283, 45, 0, 4139.487, 3200, 3682.564, 3696.41, 4030.769, 0, 0, []
1629649067.5363, 46, 0, 4150.769, 3196.41, 3692.308, 3704.103, 4039.487, 0, 0, []
1629649067.5441, 47, 0, 4156.923, 3201.026, 3680, 3705.128, 4041.026, 0, 0, []
1629649067.5521, 48, 0, 4151.795, 3219.487, 3702.051, 3678.462, 4030.256, 0, 0, []
1629649067.56, 49, 0, 4135.897, 3235.897, 3692.821, 3676.41, 4018.462, 0, 0, []
1629649067.568, 50, 0, 4133.846, 3237.949, 3705.641, 3706.667, 4020.513, 0, 0, []
1629649067.5759, 51, 0, 4121.026, 3240, 3715.385, 3707.692, 4003.59, 0, 0, []
1629649067.5838, 52, 0, 4077.949, 3245.641, 3681.026, 3676.923, 3955.385, 0, 0, []
1629649067.5917, 53, 0, 4058.462, 3256.923, 3686.667, 3676.41, 3937.436, 0, 0, []
1629649067.5997, 54, 0, 4071.795, 3274.359, 3684.615, 3702.051, 3956.923, 0, 0, []
1629649067.6076, 55, 0, 4056.923, 3284.103, 3703.59, 3709.744, 3947.179, 0, 0, []
1629649067.6156, 56, 0, 4030.769, 3291.282, 3717.949, 3699.487, 3927.179, 0, 0, []
1629649067.6234, 57, 0, 4026.154, 3297.436, 3701.538, 3693.333, 3924.103, 0, 0, []
1629649067.6312, 58, 0, 4017.436, 3303.077, 3730.769, 3697.436, 3910.769, 0, 0, []
1629649067.6391, 59, 0, 4023.59, 3313.333, 3744.103, 3713.333, 3915.897, 0, 0, []
1629649067.6469, 60, 0, 4037.436, 3322.051, 3760.513, 3735.385, 3937.436, 0, 0, []
1629649067.6548, 61, 0, 4023.59, 3331.795, 3759.487, 3739.487, 3925.641, 0, 0, []
1629649067.6625, 62, 0, 4011.795, 3345.641, 3734.872, 3735.897, 3909.231, 0, 0, []
1629649067.6704, 63, 0, 4022.051, 3360, 3759.487, 3747.692, 3922.564, 0, 0, []
1629649067.6782, 64, 0, 4008.205, 3363.59, 3733.846, 3740.513, 3910.256, 450, 0, []
1629649067.6861, 65, 0, 3974.872, 3360.513, 3709.744, 3719.487, 3871.795, 450, 0, []
1629649067.6939, 66, 0, 3975.385, 3376.41, 3731.282, 3722.564, 3867.692, 16202, 0, []
1629649067.7018, 67, 0, 3994.359, 3401.026, 3735.385, 3746.667, 3891.795, 450, 0, []
1629649067.7097, 68, 0, 4011.795, 3410.256, 3776.41, 3779.487, 3920.513, 16181, 0, []
1629649067.7177, 69, 0, 4023.59, 3421.538, 3784.615, 3790.769, 3932.308, 450, 0, []
1629649067.7256, 70, 0, 4017.436, 3437.436, 3770.256, 3778.974, 3920.513, 16110, 0, []
1629649067.7336, 71, 0, 4015.897, 3445.641, 3792.308, 3780.513, 3919.487, 450, 0, []
1629649067.7415, 72, 0, 4023.077, 3453.846, 3790.769, 3798.462, 3930.769, 450, 0, []
1629649067.7494, 73, 0, 4017.436, 3458.974, 3793.333, 3806.154, 3926.667, 16166, 0, []
1629649067.7573, 74, 0, 4013.846, 3460, 3796.41, 3799.487, 3925.128, 450, 0, []
1629649067.7652, 75, 0, 4019.487, 3463.59, 3802.564, 3801.538, 3930.256, 16210, 0, []
1629649067.7731, 76, 0, 4011.282, 3475.385, 3754.872, 3793.846, 3917.436, 450, 0, []
1629649067.7809, 77, 0, 4007.692, 3484.615, 3787.179, 3796.41, 3914.359, 450, 0, []
1629649067.7887, 78, 0, 4034.872, 3502.564, 3902.051, 3831.795, 3942.564, 450, 0, []
1629649067.7965, 79, 0, 4049.231, 3530.256, 3779.487, 3836.923, 3954.359, 16210, 0, []
1629649067.8044, 80, 0, 4029.744, 3528.718, 3806.667, 3828.718, 3938.462, 450, 0, []
1629649067.8122, 81, 0, 4029.744, 3525.128, 3940.513, 3843.077, 3940, 450, 0, []
1629649067.8201, 82, 0, 4039.487, 3536.923, 3813.846, 3844.103, 3946.154, 450, 0, []
1629649067.8278, 83, 0, 4028.205, 3526.667, 3831.795, 3841.538, 3938.462, 16210, 0, []
1629649067.8357, 84, 0, 4034.359, 3535.897, 3888.205, 3850.256, 3949.231, 450, 0, []
1629649067.8435, 85, 0, 4049.744, 3582.564, 3844.103, 3854.872, 3960, 450, 0, []
1629649067.8515, 86, 0, 4047.179, 3613.846, 3867.692, 3858.974, 3957.949, 450, 0, []
1629649067.8594, 87, 0, 4047.179, 3627.179, 3861.538, 3871.282, 3967.692, 16210, 0, []
1629649067.8673, 88, 0, 4053.846, 3648.718, 3866.154, 3883.077, 3978.462, 450, 0, []
1629649067.8752, 89, 0, 4062.564, 3669.231, 3880, 3882.051, 3980, 450, 0, []
1629649067.8832, 90, 0, 4079.487, 3675.385, 3888.205, 3890.769, 3995.897, 450, 0, []
1629649067.8911, 91, 0, 4104.103, 3690.769, 3915.897, 3906.667, 4024.103, 16210, 0, []
1629649067.8991, 92, 0, 4126.667, 3731.282, 3928.718, 3909.231, 4044.103, 450, 0, []
1629649067.9069, 93, 0, 4144.615, 3760.513, 3936.41, 3916.41, 4064.103, 450, 0, []
1629649067.9149, 94, 0, 4175.897, 3805.641, 3934.872, 3931.282, 4103.077, 450, 0, []
1629649067.9228, 95, 0, 4226.667, 3928.205, 3938.974, 3946.154, 4158.462, 16210, 0, []
1629649067.9306, 96, 0, 4266.667, 4077.949, 3963.59, 3954.359, 4204.103, 450, 0, []
1629649067.9385, 97, 0, 4269.744, 4176.923, 3957.436, 3950.769, 4226.667, 450, 0, []
1629649067.9462, 98, 0, 4261.538, 4230.256, 3944.615, 3951.282, 4240.513, 450, 0, []
1629649067.9541, 99, 0, 4272.821, 4285.128, 3961.026, 3974.872, 4261.026, 16210, 0, []
1629649067.9619, 100, 0, 4276.41, 4335.897, 3973.846, 4005.128, 4271.282, 450, 0, []
1629649067.9698, 101, 0, 4242.564, 4369.744, 3968.205, 4009.231, 4253.333, 450, 0, []
1629649067.9776, 102, 0, 4213.846, 4392.821, 3958.462, 4002.564, 4236.923, 450, 0, []
1629649067.9855, 103, 0, 4213.846, 4406.667, 3977.436, 4005.128, 4233.333, 16210, 0, []
1629649067.9932, 104, 0, 4204.615, 4424.103, 3986.154, 4003.59, 4212.308, 450, 0, []
1629649068.0012, 105, 0, 4183.077, 4458.462, 3965.128, 4004.103, 4185.128, 450, 0, []
1629649068.0091, 106, 0, 4178.974, 4506.667, 3975.385, 4021.026, 4186.154, 450, 0, []
1629649068.0171, 107, 0, 4173.333, 4528.205, 3976.41, 4028.205, 4181.538, 16210, 0, []
1629649068.025, 108, 0, 4162.051, 4553.333, 3974.872, 4028.718, 4163.59, 450, 0, []
1629649068.0329, 109, 0, 4168.718, 4621.538, 3990.256, 4036.41, 4167.692, 450, 0, []
1629649068.0408, 110, 0, 4157.949, 4656.923, 3976.41, 4017.436, 4152.821, 450, 0, []
1629649068.0488, 111, 0, 4141.026, 4646.667, 3977.949, 4006.667, 4128.205, 16210, 0, []
1629649068.0567, 112, 0, 4167.692, 4649.744, 4011.282, 4045.641, 4158.974, 450, 0, []
1629649068.0647, 113, 0, 4198.462, 4673.846, 4045.128, 4080, 4198.462, 450, 0, []
1629649068.0725, 114, 0, 4200, 4704.615, 4066.154, 4090.256, 4201.026, 450, 0, []
1629649068.0803, 115, 0, 4221.026, 4738.974, 4086.154, 4125.128, 4220.513, 16210, 0, []
1629649068.0882, 116, 0, 4256.41, 4753.846, 4118.462, 4166.667, 4255.385, 450, 0, []
1629649068.096, 117, 0, 4262.564, 4749.744, 4122.564, 4176.923, 4257.436, 450, 0, []
1629649068.1039, 118, 0, 4267.692, 4766.667, 4133.333, 4191.795, 4262.051, 450, 0, []
1629649068.1116, 119, 0, 4289.744, 4809.231, 4162.564, 4217.949, 4289.744, 16210, 0, []
1629649068.1195, 120, 0, 4307.179, 4845.128, 4162.564, 4232.821, 4305.128, 450, 0, []
1629649068.1273, 121, 0, 4339.487, 4871.795, 4188.205, 4267.179, 4332.308, 450, 0, []
1629649068.1352, 122, 0, 4411.282, 4930.256, 4258.974, 4343.59, 4407.692, 450, 0, []
1629649068.143, 123, 0, 4476.923, 5004.615, 4326.667, 4416.41, 4482.564, 16210, 0, []
1629649068.1508, 124, 0, 4511.282, 5043.077, 4363.59, 4451.282, 4520, 450, 0, []
1629649068.1586, 125, 0, 4563.077, 5074.872, 4384.103, 4486.154, 4566.154, 450, 0, []
1629649068.1666, 126, 0, 4640, 5133.846, 4440.513, 4553.846, 4640.513, 450, 0, []
1629649068.1745, 127, 0, 4694.872, 5173.333, 4487.692, 4617.949, 4696.923, 16210, 0, []
1629649068.1825, 128, 0, 4718.974, 5181.538, 4499.487, 4650.769, 4723.59, 450, 0, []
1629649068.1903, 0, 0, 4734.872, 5188.718, 4517.436, 4671.282, 4743.59, 450, 0, []
1629649068.1983, 1, 0, 4731.795, 5175.385, 4508.718, 4671.282, 4743.59, 450, 0, []
1629649068.2062, 2, 0, 4724.103, 5157.436, 4495.897, 4656.923, 4732.821, 16177, 0, []
1629649068.2142, 3, 0, 4737.949, 5172.821, 4494.872, 4663.59, 4745.641, 450, 0, []
1629649068.2221, 4, 0, 4732.821, 5171.282, 4477.949, 4671.282, 4747.692, 16141, 0, []
1629649068.2301, 5, 0, 4769.744, 5207.692, 4530.256, 4717.436, 4790.769, 450, 0, []
1629649068.2379, 6, 0, 4943.59, 5377.436, 4687.179, 4880.513, 4966.667, 16093, 0, []
1629649068.2457, 7, 0, 5117.436, 5550.769, 4827.692, 5049.231, 5144.615, 450, 0, []
1629649068.2536, 8, 0, 5151.795, 5573.333, 4851.795, 5086.154, 5186.154, 450, 0, []
1629649068.2614, 9, 0, 5142.051, 5536.923, 4831.795, 5073.333, 5177.949, 16135, 0, []
1629649068.2693, 10, 0, 5155.385, 5548.205, 4841.538, 5085.641, 5185.641, 450, 0, []
1629649068.277, 11, 0, 5170.256, 5574.359, 4850.769, 5101.026, 5197.949, 16181, 0, []
1629649068.2849, 12, 0, 5212.821, 5608.205, 4891.795, 5139.487, 5243.59, 450, 0, []
1629649068.2927, 13, 0, 5262.051, 5638.974, 4940, 5184.103, 5293.846, 450, 0, []
1629649068.3006, 14, 0, 5276.923, 5644.615, 4947.692, 5198.974, 5306.154, 450, 0, []
1629649068.3084, 15, 0, 5280.513, 5644.103, 4962.564, 5210.256, 5316.923, 16181, 0, []
1629649068.3163, 16, 0, 5283.59, 5633.333, 4962.051, 5222.051, 5326.667, 0, 0, []
1629649068.3242, 17, 0, 5282.051, 5619.487, 4954.359, 5223.077, 5320.513, 0, 0, []
1629649068.3322, 18, 0, 5272.308, 5608.718, 4953.333, 5206.667, 5302.564, 0, 0, []
1629649068.3401, 19, 0, 5237.436, 5574.359, 4922.564, 5171.282, 5268.718, 0, 0, []
1629649068.3481, 20, 0, 5174.359, 5508.718, 4884.103, 5116.923, 5205.128, 0, 0, []
1629649068.3559, 21, 0, 5108.718, 5448.718, 4834.359, 5048.205, 5131.282, 0, 0, []
1629649068.3639, 22, 0, 5074.872, 5414.359, 4802.564, 5005.128, 5097.949, 0, 0, []
1629649068.3718, 23, 0, 5077.436, 5407.179, 4821.538, 5017.949, 5110.256, 0, 0, []
1629649068.3798, 24, 0, 5090.769, 5423.077, 4842.051, 5043.077, 5125.128, 0, 0, []
1629649068.3877, 25, 0, 5107.179, 5444.103, 4865.128, 5055.385, 5134.872, 0, 0, []
1629649068.3956, 26, 0, 5118.462, 5441.026, 4875.897, 5066.667, 5149.231, 0, 0, []
1629649068.4035, 27, 0, 5104.103, 5415.385, 4869.744, 5062.051, 5143.59, 0, 0, []
1629649068.4113, 28, 0, 5093.846, 5403.077, 4878.462, 5054.359, 5133.846, 0, 0, []
1629649068.4192, 29, 0, 5101.026, 5402.051, 4877.436, 5058.974, 5141.538, 0, 0, []
1629649068.427, 30, 0, 5082.564, 5386.667, 4867.692, 5046.154, 5128.205, 0, 0, []
1629649068.4349, 31, 0, 5054.359, 5368.718, 4857.436, 5023.077, 5102.564, 0, 0, []
1629649068.4426, 32, 0, 5049.744, 5354.359, 4853.333, 5011.282, 5092.821, 0, 0, []
1629649068.4505, 33, 0, 5029.231, 5336.923, 4840.513, 4990.256, 5072.308, 0, 0, []
1629649068.4583, 34, 0, 4983.59, 5332.308, 4800, 4952.308, 5029.744, 0, 0, []
1629649068.4663, 35, 0, 4977.436, 5355.897, 4805.128, 4941.026, 5016.41, 0, 0, []
1629649068.4742, 36, 0, 5007.692, 5373.846, 4834.359, 4961.538, 5040, 0, 0, []
1629649068.482, 37, 0, 5017.436, 5363.59, 4834.359, 4981.026, 5053.333, 0, 0, []
1629649068.4898, 38, 0, 5025.128, 5363.077, 4842.051, 4998.462, 5056.41, 0, 0, []
1629649068.4978, 39, 0, 5044.103, 5384.103, 4848.205, 5007.179, 5064.103, 0, 0, []
1629649068.5057, 40, 0, 5042.051, 5377.949, 4852.821, 5004.103, 5065.641, 0, 0, []
1629649068.5137, 41, 0, 5016.41, 5345.641, 4845.641, 4991.282, 5047.179, 0, 0, []
1629649068.5215, 42, 0, 4997.436, 5337.949, 4833.333, 4972.821, 5019.487, 0, 0, []
1629649068.5295, 43, 0, 4974.359, 5323.59, 4827.692, 4950.256, 4991.282, 0, 0, []
1629649068.5374, 44, 0, 4927.179, 5263.59, 4783.59, 4906.154, 4948.718, 0, 0, []
1629649068.5453, 45, 0, 4867.692, 5209.744, 4731.282, 4840, 4884.615, 0, 0, []
1629649068.5532, 46, 0, 4844.103, 5203.077, 4714.359, 4805.128, 4850.256, 0, 0, []
1629649068.5609, 47, 0, 4860.513, 5211.282, 4735.897, 4823.077, 4866.667, 0, 0, []
1629649068.5688, 48, 0, 4848.205, 5186.667, 4746.667, 4821.026, 4852.821, 0, 0, []
1629649068.5766, 49, 0, 4812.308, 5158.462, 4692.821, 4785.641, 4806.154, 0, 0, []
1629649068.5845, 50, 0, 4814.359, 5166.667, 4680.513, 4780.513, 4806.667, 0, 0, []
1629649068.5923, 51, 0, 4861.538, 5201.538, 4746.667, 4823.077, 4859.487, 0, 0, []
1629649068.6001, 52, 0, 4901.538, 5232.821, 4789.744, 4870.769, 4901.538, 0, 0, []
1629649068.6079, 53, 0, 4895.385, 5250.256, 4796.41, 4877.436, 4894.359, 0, 0, []
1629649068.6158, 54, 0, 4880.513, 5246.154, 4778.974, 4850.256, 4872.308, 0, 0, []
1629649068.6236, 55, 0, 4879.487, 5216.923, 4755.385, 4821.538, 4862.564, 0, 0, []
1629649068.6316, 56, 0, 4861.026, 5197.949, 4733.333, 4790.256, 4841.538, 0, 0, []
1629649068.6394, 57, 0, 4834.872, 5194.872, 4701.538, 4752.308, 4809.744, 0, 0, []
1629649068.6474, 58, 0, 4863.59, 5202.564, 4718.462, 4763.59, 4829.744, 0, 0, []
1629649068.6553, 59, 0, 4894.359, 5225.128, 4752.308, 4807.179, 4867.692, 0, 0, []
1629649068.6633, 60, 0, 4840.513, 5221.538, 4719.487, 4782.051, 4823.077, 0, 0, []
1629649068.6712, 61, 0, 4746.667, 5166.154, 4634.872, 4699.487, 4726.667, 0, 0, []
1629649068.6791, 62, 0, 4685.641, 5106.667, 4573.333, 4642.051, 4663.077, 0, 0, []
1629649068.687, 63, 0, 4672.821, 5091.795, 4587.692, 4633.846, 4651.795, 0, 0, []
1629649068.695, 64, 0, 4680.513, 5102.564, 4597.436, 4639.487, 4656.923, 450, 0, []
1629649068.7029, 65, 0, 4694.359, 5122.051, 4600, 4652.308, 4663.59, 450, 0, []
1629649068.7107, 66, 0, 4698.974, 5133.846, 4621.538, 4669.231, 4668.205, 16207, 0, []
1629649068.7186, 67, 0, 4691.282, 5124.103, 4607.179, 4670.256, 4667.179, 450, 0, []
1629649068.7263, 68, 0, 4711.282, 5140, 4622.564, 4687.692, 4689.744, 16138, 0, []
1629649068.7342, 69, 0, 4760, 5198.974, 4682.564, 4732.821, 4733.846, 450, 0, []
1629649068.742, 70, 0, 4796.41, 5247.692, 4707.179, 4767.179, 4764.103, 16079, 0, []
1629649068.7499, 71, 0, 4809.744, 5252.821, 4697.436, 4779.487, 4776.41, 450, 0, []
1629649068.7577, 72, 0, 4813.333, 5242.051, 4676.923, 4778.974, 4776.41, 450, 0, []
1629649068.7656, 73, 0, 4801.026, 5241.538, 4667.179, 4765.128, 4753.846, 16135, 0, []
1629649068.7735, 74, 0, 4784.103, 5234.359, 4657.949, 4748.718, 4734.359, 450, 0, []
1629649068.7815, 75, 0, 4782.564, 5215.385, 4643.077, 4740.513, 4738.974, 16181, 0, []
1629649068.7894, 76, 0, 4767.179, 5196.41, 4626.154, 4718.462, 4725.128, 450, 0, []
1629649068.7974, 77, 0, 4731.795, 5175.385, 4602.564, 4694.359, 4691.282, 450, 0, []
1629649068.8052, 78, 0, 4722.051, 5162.051, 4609.744, 4698.462, 4685.128, 450, 0, []
1629649068.8132, 79, 0, 4750.769, 5175.385, 4628.718, 4712.821, 4715.385, 16181, 0, []
1629649068.8211, 80, 0, 4753.846, 5167.179, 4612.308, 4704.615, 4723.077, 450, 0, []
1629649068.8291, 81, 0, 4720, 5126.667, 4597.949, 4680, 4693.333, 450, 0, []
1629649068.837, 82, 0, 4707.179, 5120.513, 4589.231, 4670.769, 4674.872, 450, 0, []
1629649068.8449, 83, 0, 4680, 5102.051, 4559.487, 4650.769, 4646.667, 16181, 0, []
1629649068.8528, 84, 0, 4594.359, 5007.692, 4490.256, 4580, 4568.718, 450, 0, []
1629649068.8606, 85, 0, 4514.872, 4924.103, 4416.41, 4496.923, 4485.128, 450, 0, []
1629649068.8685, 86, 0, 4485.128, 4908.718, 4404.103, 4460.513, 4442.564, 450, 0, []
1629649068.8763, 87, 0, 4470.769, 4898.462, 4403.077, 4451.795, 4429.231, 16181, 0, []
1629649068.8841, 88, 0, 4440, 4863.59, 4377.436, 4420, 4403.59, 450, 0, []
1629649068.8919, 89, 0, 4421.538, 4844.103, 4368.205, 4398.462, 4381.026, 450, 0, []
1629649068.8998, 90, 0, 4443.077, 4854.359, 4388.205, 4431.282, 4401.538, 450, 0, []
1629649068.9076, 91, 0, 4467.179, 4866.667, 4412.821, 4462.564, 4428.205, 16181, 0, []
1629649068.9155, 92, 0, 4447.692, 4849.231, 4374.359, 4427.692, 4403.077, 450, 0, []
1629649068.9233, 93, 0, 4413.333, 4823.59, 4329.231, 4384.103, 4367.692, 450, 0, []
1629649068.9312, 94, 0, 4385.128, 4804.103, 4323.077, 4363.59, 4346.667, 450, 0, []
1629649068.9391, 95, 0, 4342.564, 4765.128, 4288.718, 4327.179, 4303.077, 16181, 0, []
1629649068.9471, 96, 0, 4332.821, 4749.744, 4284.103, 4322.564, 4288.205, 450, 0, []
1629649068.955, 97, 0, 4369.744, 4774.872, 4316.923, 4364.103, 4330.769, 450, 0, []
1629649068.963, 98, 0, 4371.795, 4765.641, 4310.256, 4361.538, 4333.846, 450, 0, []
1629649068.9708, 99, 0, 4338.974, 4737.949, 4286.154, 4323.077, 4290.256, 16181, 0, []
1629649068.9788, 100, 0, 4346.667, 4751.282, 4286.154, 4324.103, 4290.769, 450, 0, []
1629649068.9867, 101, 0, 4367.179, 4751.795, 4307.179, 4340.513, 4316.923, 450, 0, []
1629649068.9947, 102, 0, 4340.513, 4714.359, 4289.744, 4319.487, 4296.41, 450, 0, []
1629649069.0026, 103, 0, 4359.487, 4740, 4298.974, 4334.872, 4311.282, 16181, 0, []
1629649069.0105, 104, 0, 4468.205, 4841.538, 4394.359, 4430.769, 4420.513, 450, 0, []
1629649069.0184, 105, 0, 4542.564, 4904.615, 4448.718, 4492.821, 4502.051, 450, 0, []
1629649069.0262, 106, 0, 4547.179, 4913.333, 4453.846, 4491.795, 4510.256, 450, 0, []
1629649069.0341, 107, 0, 4560.513, 4924.615, 4473.333, 4511.795, 4520, 16181, 0, []
1629649069.0419, 108, 0, 4580.513, 4933.846, 4485.641, 4542.564, 4537.436, 450, 0, []
1629649069.0497, 109, 0, 4577.949, 4923.59, 4484.103, 4543.59, 4536.41, 450, 0, []
1629649069.0575, 110, 0, 4556.923, 4901.026, 4453.846, 4524.103, 4514.359, 450, 0, []
1629649069.0654, 111, 0, 4515.385, 4863.077, 4414.872, 4482.051, 4470.769, 16181, 0, []
1629649069.0732, 112, 0, 4476.923, 4829.231, 4387.692, 4437.436, 4430.256, 450, 0, []
1629649069.0811, 113, 0, 4448.205, 4810.769, 4351.795, 4404.103, 4396.923, 450, 0, []
1629649069.0888, 114, 0, 4390.769, 4754.872, 4305.128, 4352.821, 4336.41, 450, 0, []
1629649069.0968, 115, 0, 4326.667, 4676.923, 4246.154, 4296.923, 4269.231, 16181, 0, []
1629649069.1047, 116, 0, 4298.974, 4647.692, 4215.385, 4272.821, 4236.41, 450, 0, []
1629649069.1127, 117, 0, 4317.949, 4673.846, 4233.333, 4282.564, 4252.308, 450, 0, []
1629649069.1206, 118, 0, 4363.59, 4712.821, 4267.692, 4315.385, 4297.436, 450, 0, []
1629649069.1286, 119, 0, 4376.41, 4719.487, 4291.795, 4336.41, 4309.231, 16181, 0, []
1629649069.1364, 120, 0, 4342.564, 4688.205, 4265.641, 4320, 4277.436, 450, 0, []
1629649069.1444, 121, 0, 4295.385, 4632.821, 4209.744, 4274.872, 4232.308, 450, 0, []
1629649069.1523, 122, 0, 4227.179, 4552.308, 4137.949, 4201.026, 4162.051, 450, 0, []
1629649069.1603, 123, 0, 4123.59, 4453.333, 4040, 4094.872, 4055.897, 16181, 0, []
1629649069.1682, 124, 0, 4021.026, 4358.974, 3967.692, 3988.718, 3950.769, 450, 0, []
1629649069.1761, 125, 0, 3955.897, 4285.128, 3909.744, 3912.821, 3877.436, 450, 0, []
1629649069.184, 126, 0, 3931.795, 4251.795, 3874.872, 3889.744, 3848.205, 450, 0, []
1629649069.1918, 127, 0, 3924.103, 4247.179, 3875.897, 3895.385, 3843.59, 16181, 0, []
1629649069.1997, 128, 0, 3905.128, 4216.923, 3859.487, 3875.385, 3821.538, 450, 0, []
1629649069.2075, 0, 0, 3896.41, 4194.872, 3858.974, 3863.077, 3810.256, 450, 0, []
1629649069.2153, 1, 0, 3903.077, 4214.872, 3870.256, 3877.949, 3823.077, 450, 0, []
1629649069.2231, 2, 0, 3867.692, 4192.821, 3836.41, 3842.564, 3792.308, 16207, 0, []
1629649069.231, 3, 0, 3798.462, 4114.872, 3774.872, 3759.487, 3717.436, 450, 0, []
1629649069.2388, 4, 0, 3771.282, 4085.128, 3738.462, 3722.564, 3687.179, 16166, 0, []
1629649069.2468, 5, 0, 3762.051, 4090.769, 3736.41, 3724.615, 3684.615, 450, 0, []
1629649069.2546, 6, 0, 3684.103, 4011.795, 3671.282, 3656.41, 3606.154, 326, 0, []
1629649069.2626, 7, 0, 3580, 3901.026, 3579.487, 3552.308, 3492.821, 450, 0, []
1629649069.2705, 8, 0, 3531.282, 3861.538, 3552.308, 3512.821, 3443.077, 450, 0, []
1629649069.2785, 9, 0, 3508.718, 3845.128, 3528.205, 3499.487, 3423.077, 16158, 0, []
1629649069.2864, 10, 0, 3484.615, 3812.308, 3505.641, 3462.564, 3390.769, 450, 0, []
1629649069.2943, 11, 0, 3482.564, 3804.615, 3510.256, 3444.615, 3386.667, 16208, 0, []
1629649069.3022, 12, 0, 3496.923, 3811.795, 3513.846, 3458.974, 3404.103, 450, 0, []
1629649069.3102, 13, 0, 3494.359, 3800, 3513.333, 3465.128, 3397.436, 450, 0, []
1629649069.3181, 14, 0, 3484.615, 3783.077, 3506.667, 3455.897, 3387.179, 450, 0, []
1629649069.3259, 15, 0, 3488.718, 3775.897, 3517.949, 3458.462, 3398.974, 16208, 0, []
1629649069.3337, 16, 0, 3495.897, 3771.795, 3526.154, 3466.154, 3409.744, 0, 0, []
1629649069.3415, 17, 0, 3484.103, 3767.692, 3510.256, 3453.333, 3400, 0, 0, []
1629649069.3494, 18, 0, 3469.231, 3770.256, 3510.769, 3441.538, 3389.744, 0, 0, []
1629649069.3572, 19, 0, 3480.513, 3778.462, 3510.256, 3455.385, 3402.051, 0, 0, []
1629649069.3651, 20, 0, 3495.385, 3768.205, 3511.282, 3468.718, 3417.949, 0, 0, []
1629649069.3729, 21, 0, 3491.795, 3751.282, 3515.385, 3466.667, 3414.359, 0, 0, []
1629649069.3807, 22, 0, 3492.308, 3759.487, 3515.385, 3472.821, 3408.718, 0, 0, []
1629649069.3885, 23, 0, 3495.385, 3777.949, 3526.154, 3487.692, 3416.41, 0, 0, []
1629649069.3964, 24, 0, 3489.231, 3772.308, 3516.923, 3481.538, 3420.513, 0, 0, []
1629649069.4042, 25, 0, 3487.179, 3757.436, 3516.41, 3468.205, 3417.949, 0, 0, []
1629649069.4122, 26, 0, 3497.949, 3758.974, 3536.41, 3477.436, 3425.641, 0, 0, []
1629649069.42, 27, 0, 3502.051, 3768.718, 3530.256, 3486.667, 3434.359, 0, 0, []
1629649069.428, 28, 0, 3498.462, 3767.692, 3523.077, 3477.949, 3430.769, 0, 0, []
1629649069.4359, 29, 0, 3507.179, 3762.051, 3524.103, 3476.41, 3431.282, 0, 0, []
1629649069.4439, 30, 0, 3525.641, 3765.128, 3539.487, 3488.718, 3440.513, 0, 0, []
1629649069.4518, 31, 0, 3538.974, 3770.256, 3556.41, 3495.385, 3453.333, 0, 0, []
1629649069.4597, 32, 0, 3541.538, 3770.256, 3547.179, 3492.308, 3461.026, 0, 0, []
1629649069.4676, 33, 0, 3538.462, 3768.718, 3549.744, 3496.923, 3461.026, 0, 0, []
1629649069.4756, 34, 0, 3540.513, 3771.795, 3558.462, 3507.179, 3466.154, 0, 0, []
1629649069.4835, 35, 0, 3546.154, 3778.974, 3561.026, 3512.821, 3476.923, 0, 0, []
1629649069.4913, 36, 0, 3555.897, 3784.103, 3570.769, 3515.385, 3488.718, 0, 0, []
1629649069.4991, 37, 0, 3567.179, 3785.641, 3574.872, 3527.179, 3502.051, 0, 0, []
1629649069.5069, 38, 0, 3574.359, 3785.641, 3596.41, 3549.231, 3518.462, 0, 0, []
1629649069.5148, 39, 0, 3581.538, 3785.128, 3606.667, 3561.026, 3533.333, 0, 0, []
1629649069.5226, 40, 0, 3597.949, 3786.667, 3597.949, 3566.667, 3548.718, 0, 0, []
1629649069.5305, 41, 0, 3619.487, 3802.564, 3608.205, 3581.026, 3568.205, 0, 0, []
1629649069.5382, 42, 0, 3622.564, 3814.359, 3611.795, 3585.641, 3573.333, 0, 0, []
1629649069.5461, 43, 0, 3617.436, 3806.154, 3620, 3588.205, 3571.795, 0, 0, []
1629649069.5539, 44, 0, 3628.718, 3806.667, 3629.231, 3600.513, 3583.59, 0, 0, []
1629649069.5619, 45, 0, 3634.872, 3811.282, 3625.641, 3600, 3585.641, 0, 0, []
1629649069.5698, 46, 0, 3633.333, 3800.513, 3637.949, 3595.897, 3581.538, 0, 0, []
1629649069.5778, 47, 0, 3637.436, 3786.667, 3638.974, 3606.154, 3591.795, 0, 0, []
1629649069.5856, 48, 0, 3638.462, 3781.026, 3635.897, 3612.308, 3597.949, 0, 0, []
1629649069.5936, 49, 0, 3638.974, 3789.744, 3645.128, 3610.769, 3597.436, 0, 0, []
1629649069.6015, 50, 0, 3650.256, 3810.769, 3651.795, 3611.795, 3608.205, 0, 0, []
1629649069.6095, 51, 0, 3656.41, 3822.564, 3660.513, 3608.718, 3616.41, 0, 0, []
1629649069.6174, 52, 0, 3654.872, 3814.872, 3649.744, 3603.59, 3610.256, 0, 0, []
1629649069.6253, 53, 0, 3666.667, 3813.846, 3651.282, 3616.41, 3617.949, 0, 0, []
1629649069.6332, 54, 0, 3682.564, 3820.513, 3668.205, 3636.41, 3639.487, 0, 0, []
1629649069.641, 55, 0, 3685.641, 3818.462, 3651.282, 3641.538, 3652.821, 0, 0, []
1629649069.6489, 56, 0, 3684.615, 3813.333, 3643.59, 3646.667, 3654.872, 0, 0, []
1629649069.6567, 57, 0, 3686.154, 3812.821, 3655.385, 3652.308, 3650.256, 0, 0, []
1629649069.6645, 58, 0, 3701.026, 3832.308, 3669.231, 3661.538, 3662.051, 0, 0, []
1629649069.6723, 59, 0, 3724.103, 3862.051, 3687.179, 3678.462, 3685.641, 0, 0, []
1629649069.6802, 60, 0, 3736.923, 3863.59, 3681.538, 3688.205, 3692.821, 0, 0, []
1629649069.688, 61, 0, 3742.564, 3849.231, 3686.667, 3692.308, 3694.359, 0, 0, []
1629649069.696, 62, 0, 3749.231, 3854.872, 3700, 3689.744, 3698.974, 0, 0, []
1629649069.7038, 63, 0, 3754.872, 3862.051, 3692.821, 3688.205, 3703.59, 0, 0, []
1629649069.7118, 64, 0, 3763.077, 3856.41, 3707.179, 3701.026, 3718.462, 450, 0, []
1629649069.7197, 65, 0, 3772.821, 3855.385, 3721.026, 3711.282, 3730.256, 450, 0, []
1629649069.7277, 66, 0, 3773.333, 3863.077, 3715.897, 3710.256, 3722.051, 16204, 0, []
1629649069.7356, 67, 0, 3766.667, 3855.385, 3706.154, 3706.667, 3715.385, 450, 0, []
1629649069.7435, 68, 0, 3763.59, 3842.564, 3692.308, 3697.436, 3719.487, 16169, 0, []
1629649069.7514, 69, 0, 3773.846, 3853.333, 3700, 3696.41, 3727.179, 450, 0, []
1629649069.7594, 70, 0, 3794.359, 3874.359, 3720, 3716.923, 3744.615, 16096, 0, []
1629649069.7673, 71, 0, 3803.59, 3878.462, 3737.436, 3737.949, 3758.462, 450, 0, []
1629649069.7753, 72, 0, 3802.564, 3873.846, 3729.231, 3735.385, 3753.846, 450, 0, []
1629649069.7831, 73, 0, 3810.769, 3888.205, 3725.128, 3730.769, 3758.974, 16158, 0, []
1629649069.7909, 74, 0, 3820.513, 3899.487, 3753.333, 3741.538, 3776.923, 450, 0, []
1629649069.7988, 75, 0, 3816.41, 3893.846, 3745.128, 3746.154, 3773.846, 16208, 0, []
1629649069.8066, 76, 0, 3816.41, 3898.974, 3738.462, 3749.231, 3766.154, 450, 0, []
1629649069.8145, 77, 0, 3833.333, 3910.769, 3754.872, 3758.974, 3780.513, 450, 0, []
1629649069.8223, 78, 0, 3843.59, 3914.359, 3753.846, 3764.103, 3797.436, 450, 0, []
1629649069.8301, 79, 0, 3848.718, 3911.282, 3765.128, 3778.974, 3807.179, 16208, 0, []
1629649069.8379, 80, 0, 3867.692, 3914.359, 3784.103, 3804.103, 3820.513, 450, 0, []
1629649069.8458, 81, 0, 3881.026, 3923.077, 3796.923, 3812.308, 3826.667, 450, 0, []
1629649069.8536, 82, 0, 3871.795, 3928.718, 3783.077, 3798.462, 3816.41, 450, 0, []
1629649069.8615, 83, 0, 3864.615, 3934.359, 3766.667, 3794.359, 3811.282, 16208, 0, []
1629649069.8692, 84, 0, 3882.051, 3945.128, 3791.795, 3811.282, 3831.282, 450, 0, []
1629649069.8772, 85, 0, 3904.615, 3956.923, 3800, 3823.077, 3861.026, 450, 0, []
1629649069.8851, 86, 0, 3909.231, 3955.897, 3801.538, 3823.077, 3869.231, 450, 0, []
1629649069.8931, 87, 0, 3901.026, 3941.026, 3808.718, 3819.487, 3848.718, 16208, 0, []
1629649069.901, 88, 0, 3903.59, 3940, 3795.385, 3817.436, 3844.615, 450, 0, []
1629649069.9089, 89, 0, 3919.487, 3964.615, 3812.821, 3830.769, 3869.744, 450, 0, []
1629649069.9168, 90, 0, 3926.667, 3978.462, 3831.282, 3845.128, 3881.538, 450, 0, []
1629649069.9248, 91, 0, 3934.359, 3964.615, 3834.872, 3852.821, 3885.641, 16208, 0, []
1629649069.9327, 92, 0, 3945.641, 3955.897, 3847.179, 3856.41, 3895.897, 450, 0, []
1629649069.9407, 93, 0, 3944.615, 3962.051, 3839.487, 3855.385, 3894.872, 450, 0, []
1629649069.9485, 94, 0, 3948.205, 3970.256, 3833.846, 3861.538, 3897.949, 450, 0, []
1629649069.9563, 95, 0, 3965.128, 3973.846, 3838.974, 3867.692, 3915.385, 16208, 0, []
1629649069.9642, 96, 0, 3970.256, 3969.744, 3847.692, 3866.154, 3918.974, 450, 0, []
1629649069.972, 97, 0, 3958.462, 3971.282, 3857.949, 3871.795, 3908.718, 450, 0, []
1629649069.9799, 98, 0, 3957.436, 3987.692, 3852.821, 3883.077, 3912.308, 450, 0, []
1629649069.9876, 99, 0, 3968.205, 3992.821, 3855.897, 3887.179, 3922.564, 16208, 0, []
1629649069.9955, 100, 0, 3978.462, 3987.692, 3853.846, 3888.205, 3930.769, 450, 0, []
1629649070.0033, 101, 0, 3984.103, 3997.436, 3848.718, 3896.41, 3940, 450, 0, []
1629649070.0112, 102, 0, 3987.692, 4010.256, 3861.538, 3901.538, 3946.154, 450, 0, []
1629649070.019, 103, 0, 3989.744, 4008.718, 3858.974, 3898.974, 3944.615, 16208, 0, []
1629649070.0269, 104, 0, 3989.744, 4006.154, 3866.667, 3900.513, 3943.077, 450, 0, []
1629649070.0348, 105, 0, 3996.923, 4011.282, 3888.205, 3915.385, 3953.846, 450, 0, []
1629649070.0428, 106, 0, 4010.256, 3999.487, 3889.231, 3933.846, 3969.744, 450, 0, []
1629649070.0507, 107, 0, 4018.462, 3976.41, 3895.897, 3940.513, 3980, 16208, 0, []
1629649070.0587, 108, 0, 4025.641, 3966.667, 3903.077, 3934.359, 3990.769, 450, 0, []
1629649070.0666, 109, 0, 4031.282, 3966.667, 3908.205, 3930.256, 3994.359, 450, 0, []
1629649070.0745, 110, 0, 4018.974, 3969.744, 3895.897, 3909.231, 3976.923, 450, 0, []
1629649070.0824, 111, 0, 4004.615, 3979.487, 3875.385, 3884.615, 3963.077, 16208, 0, []
1629649070.0904, 112, 0, 4026.154, 3996.41, 3898.974, 3916.41, 3988.718, 450, 0, []
1629649070.0983, 113, 0, 4064.103, 4009.231, 3911.795, 3977.436, 4031.282, 450, 0, []
1629649070.1061, 114, 0, 4088.205, 3998.462, 3910.769, 4004.103, 4063.59, 450, 0, []
1629649070.1139, 115, 0, 4110.256, 3962.564, 3925.128, 4012.308, 4097.436, 16208, 0, []
1629649070.1217, 116, 0, 4144.103, 3948.205, 3932.821, 4025.641, 4134.872, 450, 0, []
1629649070.1296, 117, 0, 4179.487, 3980.513, 3942.051, 4023.077, 4162.564, 450, 0, []
1629649070.1374, 118, 0, 4201.026, 4005.128, 3920.513, 3995.897, 4173.333, 450, 0, []
1629649070.1453, 119, 0, 4203.077, 4006.667, 3911.282, 3980.513, 4170.769, 16208, 0, []
1629649070.153, 120, 0, 4208.205, 4018.462, 3933.333, 3988.718, 4177.949, 450, 0, []
1629649070.1609, 121, 0, 4220.513, 4031.282, 3932.308, 3999.487, 4187.179, 450, 0, []
1629649070.1687, 122, 0, 4210.256, 4028.718, 3942.564, 4011.282, 4181.538, 450, 0, []
1629649070.1767, 123, 0, 4187.692, 4014.872, 3944.103, 4024.103, 4176.923, 16208, 0, []
1629649070.1846, 124, 0, 4181.538, 4007.179, 3934.359, 4027.179, 4178.462, 450, 0, []
1629649070.1925, 125, 0, 4176.41, 4011.282, 3941.026, 4019.487, 4164.103, 450, 0, []
1629649070.2004, 126, 0, 4158.462, 4009.744, 3938.974, 4018.462, 4141.538, 450, 0, []
1629649070.2084, 127, 0, 4145.641, 3998.974, 3954.359, 4028.718, 4136.923, 16208, 0, []
1629649070.2163, 128, 0, 4141.538, 4003.59, 3958.974, 4025.641, 4134.872, 450, 0, []
1629649070.2243, 0, 0, 4138.974, 4029.744, 3956.923, 4020.513, 4127.692, 450, 0, []
1629649070.2321, 1, 0, 4136.923, 4042.051, 3968.205, 4028.718, 4129.744, 450, 0, []
1629649070.2401, 2, 0, 4135.385, 4032.821, 3952.308, 4034.359, 4130.256, 16194, 0, []
1629649070.248, 3, 0, 4142.051, 4034.359, 3964.103, 4040, 4129.231, 450, 0, []
1629649070.2558, 4, 0, 4152.308, 4050.256, 3986.154, 4046.154, 4136.923, 16169, 0, []
1629649070.2637, 5, 0, 4156.923, 4049.744, 3975.897, 4047.179, 4141.538, 450, 0, []
1629649070.2715, 6, 0, 4150.256, 4041.538, 3974.872, 4046.154, 4131.282, 16100, 0, []
1629649070.2793, 7, 0, 4135.385, 4054.872, 3967.692, 4036.923, 4119.487, 450, 0, []
1629649070.2871, 8, 0, 4128.718, 4056.41, 3963.59, 4024.615, 4117.436, 450, 0, []
1629649070.295, 9, 0, 4127.179, 4037.436, 3954.359, 4021.538, 4116.923, 16158, 0, []
1629649070.3028, 10, 0, 4126.667, 4040, 3944.103, 4035.897, 4119.487, 450, 0, []
1629649070.3107, 11, 0, 4139.487, 4047.692, 3965.641, 4062.564, 4126.667, 16201, 0, []
1629649070.3184, 12, 0, 4156.923, 4043.59, 3970.769, 4068.718, 4134.359, 450, 0, []
1629649070.3263, 13, 0, 4156.923, 4049.231, 3965.641, 4053.846, 4135.897, 450, 0, []
1629649070.3341, 14, 0, 4157.949, 4054.359, 3970.256, 4060.513, 4138.462, 450, 0, []
1629649070.3421, 15, 0, 4168.718, 4053.333, 3972.821, 4080, 4149.744, 16201, 0, []
1629649070.35, 16, 0, 4166.667, 4064.615, 3985.641, 4070.256, 4156.923, 0, 0, []
1629649070.3579, 17, 0, 4155.897, 4069.744, 3983.59, 4048.718, 4148.718, 0, 0, []
1629649070.3658, 18, 0, 4149.744, 4065.128, 3981.026, 4053.846, 4137.436, 0, 0, []
1629649070.3738, 19, 0, 4154.872, 4080.513, 3986.154, 4073.333, 4141.026, 0, 0, []
1629649070.3817, 20, 0, 4166.667, 4093.333, 3986.667, 4078.974, 4149.231, 0, 0, []
1629649070.3897, 21, 0, 4172.821, 4086.667, 4010.769, 4084.615, 4157.949, 0, 0, []
1629649070.3975, 22, 0, 4169.231, 4086.667, 4015.385, 4092.308, 4166.154, 0, 0, []
1629649070.4053, 23, 0, 4167.692, 4091.795, 4009.744, 4096.41, 4160.513, 0, 0, []
1629649070.4132, 24, 0, 4170.769, 4091.282, 4017.949, 4097.949, 4151.795, 0, 0, []
1629649070.421, 25, 0, 4169.744, 4094.359, 4004.103, 4093.333, 4150.769, 0, 0, []
1629649070.4289, 26, 0, 4170.769, 4104.103, 4002.564, 4086.154, 4148.718, 0, 0, []
1629649070.4366, 27, 0, 4173.846, 4111.795, 4007.692, 4077.949, 4144.615, 0, 0, []
1629649070.4445, 28, 0, 4166.667, 4110.256, 4017.949, 4074.359, 4143.59, 0, 0, []
1629649070.4523, 29, 0, 4161.538, 4107.692, 4018.974, 4073.846, 4145.641, 0, 0, []
1629649070.4602, 30, 0, 4167.692, 4104.103, 3990.256, 4071.795, 4145.128, 0, 0, []
1629649070.468, 31, 0, 4170.256, 4098.974, 4001.026, 4075.385, 4144.615, 0, 0, []
1629649070.4758, 32, 0, 4166.154, 4107.692, 4015.385, 4085.128, 4148.718, 0, 0, []
1629649070.4836, 33, 0, 4168.205, 4113.846, 4011.795, 4103.077, 4155.897, 0, 0, []
1629649070.4916, 34, 0, 4171.795, 4107.179, 4025.641, 4113.846, 4154.359, 0, 0, []
1629649070.4995, 35, 0, 4173.846, 4116.41, 4023.077, 4109.231, 4155.385, 0, 0, []
1629649070.5075, 36, 0, 4184.103, 4133.333, 4024.615, 4113.333, 4169.231, 0, 0, []
1629649070.5154, 37, 0, 4185.128, 4117.949, 4015.385, 4111.282, 4165.128, 0, 0, []
1629649070.5233, 38, 0, 4173.846, 4101.538, 4011.282, 4100, 4151.282, 0, 0, []
1629649070.5312, 39, 0, 4175.897, 4123.077, 4037.436, 4110.769, 4158.462, 0, 0, []
1629649070.5392, 40, 0, 4187.692, 4144.615, 4033.846, 4122.051, 4171.795, 0, 0, []
1629649070.5471, 41, 0, 4192.308, 4143.077, 4043.59, 4119.487, 4172.821, 0, 0, []
1629649070.5551, 42, 0, 4184.103, 4133.846, 4051.282, 4113.846, 4168.205, 0, 0, []
1629649070.5629, 43, 0, 4182.051, 4133.846, 4030.769, 4113.333, 4165.128, 0, 0, []
1629649070.5708, 44, 0, 4196.923, 4139.487, 4049.744, 4124.615, 4173.846, 0, 0, []
1629649070.5787, 45, 0, 4207.692, 4140.513, 4060.513, 4129.231, 4182.051, 0, 0, []
1629649070.5865, 46, 0, 4202.564, 4137.949, 4051.282, 4117.949, 4175.385, 0, 0, []
1629649070.5944, 47, 0, 4197.436, 4136.41, 4040.513, 4111.282, 4166.154, 0, 0, []
1629649070.6021, 48, 0, 4200, 4141.538, 4032.308, 4123.077, 4168.718, 0, 0, []
1629649070.61, 49, 0, 4199.487, 4144.103, 4051.282, 4129.744, 4171.282, 0, 0, []
1629649070.6178, 50, 0, 4198.462, 4135.897, 4047.179, 4118.462, 4168.718, 0, 0, []
1629649070.6257, 51, 0, 4198.462, 4136.41, 4034.872, 4115.897, 4169.231, 0, 0, []
1629649070.6335, 52, 0, 4197.436, 4140, 4036.923, 4120.513, 4171.795, 0, 0, []
1629649070.6414, 53, 0, 4206.667, 4138.974, 4031.795, 4129.744, 4184.615, 0, 0, []
1629649070.6493, 54, 0, 4222.564, 4148.205, 4045.641, 4137.949, 4203.59, 0, 0, []
1629649070.6573, 55, 0, 4217.949, 4156.923, 4044.103, 4124.103, 4198.974, 0, 0, []
1629649070.6652, 56, 0, 4200, 4152.308, 4033.846, 4110.256, 4182.564, 0, 0, []
1629649070.6732, 57, 0, 4207.179, 4153.333, 4048.718, 4123.59, 4190.769, 0, 0, []
1629649070.681, 58, 0, 4224.103, 4160, 4058.974, 4137.949, 4204.615, 0, 0, []
1629649070.6889, 59, 0, 4216.923, 4150.769, 4069.231, 4128.205, 4195.385, 0, 0, []
1629649070.6969, 60, 0, 4221.026, 4149.744, 4076.923, 4127.179, 4198.974, 0, 0, []
1629649070.7049, 61, 0, 4239.487, 4168.205, 4100.513, 4154.359, 4224.103, 0, 0, []
1629649070.7128, 62, 0, 4222.051, 4169.744, 4111.795, 4158.974, 4216.41, 0, 0, []
1629649070.7207, 63, 0, 4199.487, 4163.59, 4076.41, 4137.436, 4192.308, 0, 0, []
1629649070.7286, 64, 0, 4221.026, 4169.744, 4084.615, 4155.385, 4210.769, 450, 0, []
1629649070.7364, 65, 0, 4244.615, 4172.821, 4109.744, 4194.872, 4240, 450, 0, []
1629649070.7443, 66, 0, 4230.769, 4170.769, 4106.154, 4193.846, 4225.641, 16194, 0, []
1629649070.7521, 67, 0, 4211.795, 4170.256, 4109.744, 4171.795, 4201.538, 450, 0, []
1629649070.76, 68, 0, 4200, 4164.103, 4094.359, 4161.538, 4193.846, 16169, 0, []
1629649070.7677, 69, 0, 4185.128, 4156.41, 4084.615, 4158.974, 4184.615, 450, 0, []
1629649070.7756, 70, 0, 4182.564, 4165.641, 4078.974, 4153.846, 4180, 16097, 0, []
1629649070.7834, 71, 0, 4204.615, 4180.513, 4076.41, 4161.026, 4195.385, 450, 0, []
1629649070.7913, 72, 0, 4247.179, 4180.513, 4112.308, 4197.949, 4233.333, 450, 0, []
1629649070.7991, 73, 0, 4272.308, 4175.385, 4132.308, 4225.128, 4260, 16158, 0, []
1629649070.807, 74, 0, 4245.128, 4171.795, 4126.154, 4208.205, 4237.949, 450, 0, []
1629649070.8149, 75, 0, 4200, 4170.256, 4102.051, 4174.872, 4194.359, 16201, 0, []
1629649070.8229, 76, 0, 4185.128, 4177.436, 4072.821, 4156.41, 4173.846, 450, 0, []
1629649070.8308, 77, 0, 4190.256, 4180.513, 4070.769, 4142.051, 4169.231, 450, 0, []
1629649070.8388, 78, 0, 4195.897, 4170.769, 4062.051, 4129.231, 4172.308, 450, 0, []
1629649070.8466, 79, 0, 4206.667, 4158.974, 4076.923, 4138.462, 4191.282, 16201, 0, []
1629649070.8546, 80, 0, 4224.615, 4172.308, 4116.41, 4168.205, 4216.41, 450, 0, []
1629649070.8625, 81, 0, 4244.615, 4188.205, 4141.026, 4209.744, 4234.872, 450, 0, []
1629649070.8705, 82, 0, 4247.179, 4184.103, 4158.462, 4240, 4242.564, 450, 0, []
1629649070.8784, 83, 0, 4235.385, 4188.718, 4128.205, 4228.718, 4234.872, 16201, 0, []
1629649070.8861, 84, 0, 4229.744, 4204.615, 4099.487, 4201.026, 4223.077, 450, 0, []
1629649070.894, 85, 0, 4221.026, 4202.564, 4090.769, 4177.436, 4209.744, 450, 0, []
1629649070.9018, 86, 0, 4201.026, 4181.026, 4071.282, 4141.538, 4189.231, 450, 0, []
1629649070.9097, 87, 0, 4195.897, 4171.282, 4095.897, 4118.462, 4178.974, 16201, 0, []
1629649070.9175, 88, 0, 4206.667, 4173.846, 4119.487, 4129.231, 4186.667, 450, 0, []
1629649070.9253, 89, 0, 4209.231, 4178.462, 4123.077, 4151.282, 4193.846, 450, 0, []
1629649070.9331, 90, 0, 4212.821, 4195.897, 4134.872, 4179.487, 4198.974, 450, 0, []
1629649070.9411, 91, 0, 4227.179, 4205.128, 4132.821, 4205.641, 4215.897, 16201, 0, []
1629649070.949, 92, 0, 4243.59, 4200, 4145.641, 4221.026, 4236.923, 450, 0, []
1629649070.9569, 93, 0, 4257.436, 4216.923, 4147.179, 4219.487, 4247.179, 450, 0, []
1629649070.9647, 94, 0, 4265.641, 4234.359, 4137.949, 4206.154, 4249.744, 450, 0, []
1629649070.9726, 95, 0, 4267.692, 4216.41, 4146.154, 4200, 4251.795, 16201, 0, []
1629649070.9805, 96, 0, 4265.641, 4204.615, 4140, 4204.103, 4246.154, 450, 0, []
1629649070.9885, 97, 0, 4259.487, 4216.41, 4145.641, 4206.667, 4235.385, 450, 0, []
1629649070.9964, 98, 0, 4254.872, 4212.821, 4140.513, 4197.436, 4232.308, 450, 0, []
1629649071.0044, 99, 0, 4261.538, 4210.256, 4135.385, 4203.59, 4245.641, 16201, 0, []
1629649071.0122, 100, 0, 4268.205, 4225.128, 4151.795, 4224.615, 4258.462, 450, 0, []
1629649071.0202, 101, 0, 4264.615, 4227.179, 4143.59, 4217.949, 4248.718, 450, 0, []
1629649071.0281, 102, 0, 4262.051, 4216.41, 4147.179, 4201.538, 4235.897, 450, 0, []
1629649071.0359, 103, 0, 4252.308, 4203.077, 4144.615, 4204.103, 4231.795, 16201, 0, []
1629649071.0438, 104, 0, 4244.615, 4192.821, 4134.872, 4222.564, 4233.846, 450, 0, []
1629649071.0515, 105, 0, 4261.538, 4204.103, 4149.744, 4225.128, 4241.538, 450, 0, []
1629649071.0594, 106, 0, 4275.897, 4220, 4141.538, 4208.205, 4248.718, 450, 0, []
1629649071.0672, 107, 0, 4266.667, 4210.769, 4148.205, 4203.59, 4250.769, 16201, 0, []
1629649071.0751, 108, 0, 4259.487, 4200, 4161.538, 4204.103, 4245.641, 450, 0, []
1629649071.0829, 109, 0, 4261.538, 4208.718, 4149.231, 4201.026, 4233.846, 450, 0, []
1629649071.0907, 110, 0, 4247.692, 4217.949, 4153.333, 4204.615, 4225.128, 450, 0, []
1629649071.0985, 111, 0, 4235.385, 4222.051, 4150.769, 4209.231, 4225.641, 16201, 0, []
1629649071.1064, 112, 0, 4240.513, 4216.41, 4148.718, 4205.641, 4221.538, 450, 0, []
1629649071.1142, 113, 0, 4246.667, 4198.462, 4143.59, 4200.513, 4217.436, 450, 0, []
1629649071.1222, 114, 0, 4247.179, 4194.359, 4133.333, 4207.692, 4228.718, 450, 0, []
1629649071.13, 115, 0, 4247.179, 4213.846, 4155.385, 4217.436, 4233.333, 16201, 0, []
1629649071.138, 116, 0, 4261.026, 4232.308, 4159.487, 4220, 4234.359, 450, 0, []
1629649071.1459, 117, 0, 4280, 4231.282, 4155.897, 4224.615, 4246.667, 450, 0, []
1629649071.1539, 118, 0, 4278.974, 4221.538, 4156.923, 4231.795, 4253.846, 450, 0, []
1629649071.1618, 119, 0, 4268.205, 4218.974, 4142.564, 4228.205, 4249.744, 16201, 0, []
1629649071.1697, 120, 0, 4261.026, 4216.923, 4147.692, 4217.949, 4245.128, 450, 0, []
1629649071.1776, 121, 0, 4253.846, 4207.179, 4133.333, 4207.179, 4244.103, 450, 0, []
1629649071.1854, 122, 0, 4255.385, 4212.821, 4128.718, 4207.692, 4247.179, 450, 0, []
1629649071.1933, 123, 0, 4264.103, 4235.897, 4156.41, 4220, 4254.359, 16201, 0, []
1629649071.2011, 124, 0, 4266.667, 4233.846, 4160, 4231.282, 4261.026, 450, 0, []
1629649071.209, 125, 0, 4265.641, 4216.41, 4165.128, 4237.949, 4259.487, 450, 0, []
1629649071.2167, 126, 0, 4263.077, 4213.846, 4153.333, 4228.718, 4249.231, 450, 0, []
1629649071.2246, 127, 0, 4261.026, 4212.821, 4148.718, 4222.051, 4250.769, 16201, 0, []
1629649071.2324, 128, 0, 4268.718, 4220.513, 4172.308, 4236.41, 4265.128, 450, 0, []
1629649071.2403, 0, 0, 4277.949, 4236.41, 4168.205, 4245.128, 4267.179, 450, 0, []
1629649071.2481, 1, 0, 4278.462, 4234.872, 4176.923, 4244.103, 4263.077, 450, 0, []
1629649071.256, 2, 0, 4278.974, 4235.385, 4183.077, 4245.128, 4266.667, 16189, 0, []
1629649071.2639, 3, 0, 4276.923, 4248.205, 4185.128, 4246.154, 4271.282, 450, 0, []
1629649071.2719, 4, 0, 4279.487, 4237.949, 4202.564, 4243.077, 4278.462, 16167, 0, []
1629649071.2798, 5, 0, 4286.667, 4224.103, 4183.077, 4241.026, 4285.128, 450, 0, []
1629649071.2878, 6, 0, 4282.564, 4243.59, 4168.205, 4240.513, 4275.385, 16093, 0, []
1629649071.2956, 7, 0, 4274.359, 4257.436, 4163.077, 4233.333, 4268.205, 450, 0, []
1629649071.3036, 8, 0, 4276.41, 4243.077, 4158.462, 4231.282, 4272.308, 450, 0, []
1629649071.3115, 9, 0, 4288.205, 4245.128, 4178.974, 4242.051, 4281.026, 16158, 0, []
1629649071.3195, 10, 0, 4297.949, 4262.564, 4188.718, 4251.795, 4289.744, 450, 0, []
1629649071.3274, 11, 0, 4294.872, 4260.513, 4200.513, 4254.359, 4289.231, 16201, 0, []
1629649071.3352, 12, 0, 4284.103, 4242.564, 4187.179, 4245.128, 4282.051, 450, 0, []
1629649071.3431, 13, 0, 4271.795, 4232.308, 4161.538, 4229.231, 4274.359, 450, 0, []
1629649071.3509, 14, 0, 4269.231, 4237.949, 4180.513, 4233.333, 4270.769, 450, 0, []
1629649071.3588, 15, 0, 4266.667, 4241.538, 4167.179, 4235.897, 4263.077, 16201, 0, []
1629649071.3666, 16, 0, 4260.513, 4229.744, 4151.795, 4224.103, 4256.41, 0, 0, []
1629649071.3744, 17, 0, 4277.949, 4223.077, 4177.436, 4243.077, 4277.949, 0, 0, []
1629649071.3822, 18, 0, 4305.641, 4242.051, 4188.205, 4268.205, 4310.256, 0, 0, []
1629649071.3901, 19, 0, 4302.564, 4260, 4189.231, 4256.41, 4311.282, 0, 0, []
1629649071.3979, 20, 0, 4277.436, 4250.256, 4176.41, 4242.564, 4285.128, 0, 0, []
1629649071.4059, 21, 0, 4261.538, 4233.333, 4172.308, 4243.59, 4264.615, 0, 0, []
1629649071.4138, 22, 0, 4264.103, 4229.231, 4166.154, 4228.205, 4261.538, 0, 0, []
1629649071.4217, 23, 0, 4273.333, 4240.513, 4146.154, 4223.077, 4266.154, 0, 0, []
1629649071.4296, 24, 0, 4273.846, 4241.538, 4161.026, 4244.615, 4270.769, 0, 0, []
1629649071.4376, 25, 0, 4264.103, 4237.949, 4161.538, 4241.538, 4269.744, 0, 0, []
1629649071.4455, 26, 0, 4260, 4235.385, 4156.923, 4216.41, 4268.718, 0, 0, []
1629649071.4535, 27, 0, 4263.59, 4222.051, 4172.308, 4203.077, 4264.615, 0, 0, []
1629649071.4613, 28, 0, 4271.795, 4223.59, 4180.513, 4208.205, 4260.513, 0, 0, []
1629649071.4693, 29, 0, 4284.103, 4248.718, 4198.462, 4228.205, 4269.744, 0, 0, []
1629649071.4772, 30, 0, 4281.538, 4253.846, 4186.154, 4240, 4273.846, 0, 0, []
1629649071.4851, 31, 0, 4265.641, 4232.308, 4177.436, 4236.923, 4265.641, 0, 0, []
1629649071.493, 32, 0, 4253.333, 4227.179, 4186.154, 4224.615, 4254.359, 0, 0, []
1629649071.5007, 33, 0, 4250.769, 4234.872, 4167.179, 4213.333, 4246.667, 0, 0, []
1629649071.5086, 34, 0, 4262.051, 4231.282, 4187.179, 4217.949, 4252.308, 0, 0, []
1629649071.5164, 35, 0, 4280, 4221.538, 4203.077, 4213.846, 4267.179, 0, 0, []
1629649071.5243, 36, 0, 4302.051, 4218.462, 4188.205, 4211.282, 4286.667, 0, 0, []
1629649071.5321, 37, 0, 4317.949, 4231.795, 4191.795, 4242.051, 4302.564, 0, 0, []
1629649071.5399, 38, 0, 4305.128, 4250.769, 4182.051, 4267.692, 4295.897, 0, 0, []
1629649071.5477, 39, 0, 4276.923, 4260, 4181.026, 4261.538, 4268.718, 0, 0, []
1629649071.5557, 40, 0, 4270.769, 4262.051, 4180, 4254.872, 4261.538, 0, 0, []
1629649071.5636, 41, 0, 4281.026, 4252.308, 4176.923, 4254.359, 4274.359, 0, 0, []
1629649071.5716, 42, 0, 4287.692, 4232.821, 4190.769, 4249.231, 4278.974, 0, 0, []
1629649071.5794, 43, 0, 4296.923, 4235.385, 4187.179, 4245.128, 4284.615, 0, 0, []
1629649071.5874, 44, 0, 4295.385, 4243.59, 4192.308, 4235.385, 4282.051, 0, 0, []
1629649071.5953, 45, 0, 4278.974, 4240, 4183.59, 4216.923, 4265.128, 0, 0, []
1629649071.6033, 46, 0, 4280, 4246.154, 4167.179, 4221.538, 4266.667, 0, 0, []
1629649071.6112, 47, 0, 4290.769, 4266.154, 4183.077, 4236.41, 4278.462, 0, 0, []
1629649071.6191, 48, 0, 4285.128, 4275.897, 4167.179, 4230.256, 4269.231, 0, 0, []
1629649071.627, 49, 0, 4281.538, 4260, 4153.846, 4222.051, 4256.41, 0, 0, []
1629649071.635, 50, 0, 4295.385, 4243.59, 4161.538, 4226.154, 4264.615, 0, 0, []
1629649071.6429, 51, 0, 4301.026, 4251.795, 4162.051, 4230.769, 4274.872, 0, 0, []
1629649071.6508, 52, 0, 4283.59, 4262.051, 4178.974, 4226.154, 4269.744, 0, 0, []
1629649071.6587, 53, 0, 4264.615, 4239.487, 4171.795, 4208.718, 4254.359, 0, 0, []
1629649071.6664, 54, 0, 4263.077, 4230.256, 4176.41, 4207.179, 4249.744, 0, 0, []
1629649071.6743, 55, 0, 4280, 4251.795, 4198.974, 4228.205, 4266.667, 0, 0, []
1629649071.6822, 56, 0, 4299.487, 4251.795, 4198.462, 4239.487, 4284.103, 0, 0, []
1629649071.6901, 57, 0, 4307.692, 4243.59, 4202.051, 4247.692, 4294.359, 0, 0, []
1629649071.6981, 58, 0, 4303.59, 4242.564, 4180.513, 4255.385, 4295.897, 0, 0, []
1629649071.7059, 59, 0, 4294.359, 4235.385, 4169.231, 4245.128, 4282.564, 0, 0, []
1629649071.7137, 60, 0, 4289.744, 4241.026, 4180, 4225.128, 4265.641, 0, 0, []
1629649071.7217, 61, 0, 4288.205, 4256.923, 4166.667, 4213.846, 4261.026, 0, 0, []
1629649071.7296, 62, 0, 4292.821, 4261.538, 4176.41, 4214.359, 4266.154, 0, 0, []
1629649071.7376, 63, 0, 4298.462, 4266.667, 4180, 4209.231, 4268.718, 0, 0, []
1629649071.7454, 64, 0, 4286.154, 4262.051, 4171.795, 4191.282, 4256.41, 450, 0, []
1629649071.7534, 65, 0, 4269.231, 4243.077, 4176.41, 4178.974, 4239.487, 450, 0, []
1629649071.7613, 66, 0, 4279.487, 4247.692, 4172.308, 4198.462, 4251.282, 16187, 0, []
1629649071.7693, 67, 0, 4302.051, 4262.051, 4189.231, 4231.282, 4278.462, 450, 0, []
1629649071.7772, 68, 0, 4301.026, 4260.513, 4186.667, 4232.308, 4275.385, 16167, 0, []
1629649071.785, 69, 0, 4289.231, 4254.872, 4171.795, 4221.026, 4252.308, 450, 0, []
1629649071.7929, 70, 0, 4293.846, 4253.333, 4184.103, 4222.051, 4248.205, 16088, 0, []
1629649071.8007, 71, 0, 4304.103, 4260.513, 4180, 4224.103, 4263.077, 450, 0, []
1629649071.8086, 72, 0, 4306.154, 4263.59, 4183.077, 4224.615, 4274.872, 450, 0, []
1629649071.8164, 73, 0, 4307.179, 4256.923, 4190.256, 4223.077, 4277.436, 16158, 0, []
1629649071.8242, 74, 0, 4305.641, 4248.205, 4190.769, 4224.103, 4274.872, 450, 0, []
1629649071.832, 75, 0, 4293.846, 4237.949, 4194.872, 4234.872, 4268.205, 16200, 0, []
1629649071.8399, 76, 0, 4285.641, 4230.256, 4182.051, 4245.641, 4261.538, 450, 0, []
1629649071.8477, 77, 0, 4288.205, 4240.513, 4191.795, 4251.795, 4264.103, 450, 0, []
1629649071.8556, 78, 0, 4292.821, 4258.462, 4189.231, 4246.154, 4267.692, 450, 0, []
1629649071.8633, 79, 0, 4294.359, 4263.59, 4175.385, 4228.718, 4264.103, 16200, 0, []
1629649071.8713, 80, 0, 4295.897, 4262.051, 4196.923, 4220, 4264.103, 450, 0, []
1629649071.8792, 81, 0, 4301.026, 4262.051, 4183.59, 4219.487, 4271.795, 450, 0, []
1629649071.8872, 82, 0, 4305.128, 4266.667, 4179.487, 4226.154, 4277.949, 450, 0, []
1629649071.8951, 83, 0, 4302.564, 4263.59, 4201.026, 4231.795, 4274.872, 16200, 0, []
1629649071.9031, 84, 0, 4300, 4254.872, 4194.359, 4228.205, 4266.667, 450, 0, []
1629649071.9109, 85, 0, 4300.513, 4263.59, 4193.846, 4227.692, 4263.59, 450, 0, []
1629649071.9189, 86, 0, 4303.59, 4284.103, 4185.128, 4230.769, 4270.256, 450, 0, []
1629649071.9268, 87, 0, 4306.667, 4285.128, 4183.59, 4230.256, 4279.487, 16200, 0, []
1629649071.9348, 88, 0, 4308.205, 4280.513, 4187.179, 4225.128, 4282.564, 450, 0, []
1629649071.9427, 89, 0, 4309.231, 4281.538, 4190.769, 4223.59, 4282.564, 450, 0, []
1629649071.9504, 90, 0, 4311.795, 4265.641, 4220.513, 4226.667, 4278.462, 450, 0, []
1629649071.9583, 91, 0, 4305.128, 4246.154, 4213.846, 4220, 4266.154, 16200, 0, []
1629649071.9661, 92, 0, 4291.282, 4251.795, 4204.103, 4217.949, 4257.949, 450, 0, []
1629649071.974, 93, 0, 4294.359, 4266.667, 4213.333, 4233.846, 4264.615, 450, 0, []
1629649071.9818, 94, 0, 4297.949, 4260.513, 4190.256, 4240.513, 4264.615, 450, 0, []
1629649071.9896, 95, 0, 4282.564, 4257.949, 4172.308, 4228.205, 4251.282, 16200, 0, []
1629649071.9974, 96, 0, 4273.333, 4274.359, 4162.051, 4220, 4245.641, 450, 0, []
1629649072.0053, 97, 0, 4285.128, 4277.949, 4168.205, 4221.026, 4248.205, 450, 0, []
1629649072.0131, 98, 0, 4297.436, 4263.077, 4180, 4213.333, 4250.256, 450, 0, []
1629649072.0211, 99, 0, 4292.821, 4254.872, 4168.205, 4193.333, 4247.692, 16200, 0, []
1629649072.0289, 100, 0, 4284.103, 4260.513, 4183.59, 4190.256, 4245.128, 450, 0, []
1629649072.0369, 101, 0, 4291.795, 4264.615, 4188.718, 4209.231, 4253.846, 450, 0, []
1629649072.0448, 102, 0, 4308.205, 4265.128, 4180.513, 4229.744, 4265.128, 450, 0, []
1629649072.0528, 103, 0, 4310.256, 4266.667, 4185.128, 4236.41, 4267.692, 16200, 0, []
1629649072.0607, 104, 0, 4298.974, 4263.59, 4162.051, 4225.128, 4260, 450, 0, []
1629649072.0686, 105, 0, 4293.333, 4267.692, 4169.744, 4208.718, 4252.308, 450, 0, []
1629649072.0765, 106, 0, 4301.026, 4283.077, 4189.744, 4196.923, 4254.872, 450, 0, []
1629649072.0845, 107, 0, 4314.359, 4285.128, 4192.821, 4194.872, 4265.641, 16200, 0, []
1629649072.0924, 108, 0, 4323.077, 4270.256, 4204.615, 4202.564, 4271.282, 450, 0, []
1629649072.1003, 109, 0, 4316.41, 4268.718, 4189.231, 4203.077, 4263.077, 450, 0, []
1629649072.1082, 110, 0, 4298.974, 4282.564, 4180, 4201.538, 4251.795, 450, 0, []
1629649072.116, 111, 0, 4286.154, 4280.513, 4167.179, 4198.974, 4244.103, 16200, 0, []
1629649072.1239, 112, 0, 4292.308, 4273.333, 4152.821, 4192.308, 4244.103, 450, 0, []
1629649072.1317, 113, 0, 4313.333, 4278.974, 4168.718, 4195.385, 4254.872, 450, 0, []
1629649072.1396, 114, 0, 4320.513, 4280.513, 4167.692, 4203.077, 4258.462, 450, 0, []
1629649072.1474, 115, 0, 4312.821, 4268.718, 4183.077, 4209.231, 4253.846, 16200, 0, []
1629649072.1552, 116, 0, 4307.692, 4253.846, 4195.385, 4209.744, 4247.692, 450, 0, []
1629649072.163, 117, 0, 4300.513, 4249.231, 4177.436, 4211.795, 4237.949, 450, 0, []
1629649072.1709, 118, 0, 4284.103, 4248.718, 4174.872, 4221.538, 4231.795, 450, 0, []
1629649072.1787, 119, 0, 4276.923, 4246.154, 4158.974, 4221.026, 4237.949, 16200, 0, []
1629649072.1866, 120, 0, 4284.615, 4252.821, 4160, 4212.821, 4245.128, 450, 0, []
1629649072.1943, 121, 0, 4296.41, 4278.462, 4175.897, 4210.256, 4248.718, 450, 0, []
1629649072.2023, 122, 0, 4305.128, 4283.59, 4170.256, 4220.513, 4258.462, 450, 0, []
1629649072.2102, 123, 0, 4301.538, 4258.462, 4176.41, 4228.718, 4261.026, 16200, 0, []
1629649072.2182, 124, 0, 4300, 4252.821, 4173.333, 4230.256, 4260, 450, 0, []
1629649072.2261, 125, 0, 4313.333, 4263.077, 4186.154, 4245.128, 4274.872, 450, 0, []
1629649072.234, 126, 0, 4315.385, 4261.538, 4201.538, 4255.385, 4283.077, 450, 0, []
1629649072.2419, 127, 0, 4300, 4262.051, 4190.769, 4246.667, 4276.923, 16200, 0, []
1629649072.2499, 128, 0, 4293.846, 4266.667, 4195.385, 4245.641, 4276.923, 450, 0, []
1629649072.2578, 0, 0, 4298.974, 4266.667, 4178.974, 4244.103, 4272.308, 450, 0, []
1629649072.2658, 1, 0, 4291.282, 4268.205, 4169.231, 4223.077, 4253.333, 450, 0, []
1629649072.2736, 2, 0, 4276.923, 4263.59, 4168.205, 4206.154, 4241.026, 16186, 0, []
1629649072.2814, 3, 0, 4268.718, 4251.282, 4151.795, 4212.308, 4238.974, 450, 0, []
1629649072.2893, 4, 0, 4266.667, 4253.333, 4161.026, 4224.615, 4235.385, 16167, 0, []
1629649072.2971, 5, 0, 4270.256, 4249.744, 4158.974, 4236.923, 4237.436, 450, 0, []
1629649072.305, 6, 0, 4283.077, 4241.538, 4181.026, 4250.769, 4248.718, 16092, 0, []
1629649072.3127, 7, 0, 4293.333, 4258.974, 4173.333, 4244.615, 4254.872, 450, 0, []
1629649072.3206, 8, 0, 4287.179, 4267.692, 4131.795, 4215.385, 4243.077, 450, 0, []
1629649072.3284, 9, 0, 4280.513, 4257.949, 4164.103, 4200, 4239.487, 16157, 0, []
1629649072.3363, 10, 0, 4279.487, 4266.154, 4156.41, 4191.795, 4245.128, 450, 0, []
1629649072.3441, 11, 0, 4278.974, 4271.795, 4156.923, 4187.692, 4236.41, 16200, 0, []
1629649072.3521, 12, 0, 4294.359, 4261.026, 4186.154, 4204.615, 4237.949, 450, 0, []
1629649072.3599, 13, 0, 4310.256, 4262.564, 4160, 4226.154, 4248.205, 450, 0, []
1629649072.3679, 14, 0, 4311.795, 4266.667, 4165.128, 4231.282, 4242.564, 450, 0, []
1629649072.3758, 15, 0, 4315.385, 4257.949, 4158.974, 4214.872, 4229.744, 16200, 0, []
1629649072.3838, 16, 0, 4317.436, 4264.103, 4152.821, 4204.615, 4220, 0, 0, []
1629649072.3917, 17, 0, 4299.487, 4283.077, 4170.256, 4209.231, 4207.179, 0, 0, []
1629649072.3996, 18, 0, 4277.949, 4275.897, 4160.513, 4198.974, 4195.385, 0, 0, []
1629649072.4075, 19, 0, 4273.846, 4263.077, 4166.154, 4188.718, 4195.897, 0, 0, []
1629649072.4155, 20, 0, 4285.128, 4273.846, 4165.641, 4201.538, 4205.641, 0, 0, []
1629649072.4234, 21, 0, 4297.949, 4281.538, 4165.128, 4218.974, 4217.436, 0, 0, []
1629649072.4312, 22, 0, 4303.59, 4278.462, 4182.564, 4223.59, 4221.538, 0, 0, []
1629649072.439, 23, 0, 4304.103, 4283.077, 4181.538, 4225.641, 4220, 0, 0, []
1629649072.4468, 24, 0, 4298.974, 4280.513, 4189.744, 4229.744, 4220.513, 0, 0, []
1629649072.4547, 25, 0, 4300, 4276.41, 4201.538, 4225.128, 4227.692, 0, 0, []
1629649072.4625, 26, 0, 4302.564, 4281.538, 4192.308, 4208.205, 4230.256, 0, 0, []
1629649072.4704, 27, 0, 4291.282, 4281.026, 4172.308, 4190.256, 4221.026, 0, 0, []
1629649072.4781, 28, 0, 4283.077, 4272.821, 4152.821, 4187.692, 4215.385, 0, 0, []
1629649072.486, 29, 0, 4290.769, 4274.872, 4171.282, 4203.59, 4227.179, 0, 0, []
1629649072.4938, 30, 0, 4284.615, 4277.436, 4176.923, 4215.897, 4229.231, 0, 0, []
1629649072.5017, 31, 0, 4274.872, 4265.641, 4155.385, 4218.462, 4216.41, 0, 0, []
1629649072.5095, 32, 0, 4287.692, 4266.154, 4168.718, 4224.103, 4223.59, 0, 0, []
1629649072.5174, 33, 0, 4290.769, 4279.487, 4178.462, 4223.077, 4229.744, 0, 0, []
1629649072.5253, 34, 0, 4279.487, 4284.103, 4173.333, 4219.487, 4222.564, 0, 0, []
1629649072.5333, 35, 0, 4280.513, 4280, 4173.333, 4215.897, 4222.564, 0, 0, []
1629649072.5412, 36, 0, 4276.41, 4275.897, 4174.872, 4206.154, 4218.974, 0, 0, []
1629649072.5492, 37, 0, 4267.179, 4276.923, 4181.538, 4208.718, 4210.769, 0, 0, []
1629649072.557, 38, 0, 4275.897, 4276.923, 4176.41, 4222.051, 4221.538, 0, 0, []
1629649072.565, 39, 0, 4289.744, 4278.462, 4185.128, 4221.026, 4236.923, 0, 0, []
1629649072.5729, 40, 0, 4292.308, 4281.026, 4191.795, 4205.641, 4234.359, 0, 0, []
1629649072.5807, 41, 0, 4287.179, 4280, 4177.949, 4205.128, 4236.41, 0, 0, []
1629649072.5886, 42, 0, 4277.436, 4273.846, 4183.077, 4222.564, 4234.359, 0, 0, []
1629649072.5964, 43, 0, 4272.308, 4266.154, 4178.974, 4226.154, 4217.949, 0, 0, []
1629649072.6042, 44, 0, 4284.615, 4267.692, 4173.333, 4214.872, 4211.795, 0, 0, []
1629649072.612, 45, 0, 4301.026, 4287.692, 4182.564, 4211.795, 4219.487, 0, 0, []
1629649072.6199, 46, 0, 4310.256, 4292.308, 4175.385, 4210.256, 4223.59, 0, 0, []
1629649072.6277, 47, 0, 4310.769, 4258.462, 4166.154, 4203.077, 4222.051, 0, 0, []
1629649072.6356, 48, 0, 4297.949, 4243.59, 4154.872, 4193.333, 4216.41, 0, 0, []
1629649072.6433, 49, 0, 4283.59, 4264.615, 4154.872, 4186.154, 4205.128, 0, 0, []
1629649072.6512, 50, 0, 4277.436, 4266.667, 4161.026, 4181.026, 4198.974, 0, 0, []
1629649072.659, 51, 0, 4283.077, 4262.564, 4162.051, 4183.077, 4206.667, 0, 0, []
1629649072.667, 52, 0, 4295.385, 4275.385, 4181.538, 4195.897, 4220, 0, 0, []
1629649072.6749, 53, 0, 4296.41, 4272.821, 4180, 4206.154, 4225.128, 0, 0, []
1629649072.6827, 54, 0, 4285.641, 4260.513, 4165.641, 4206.667, 4223.077, 0, 0, []
1629649072.6905, 55, 0, 4275.897, 4254.359, 4163.59, 4190.256, 4216.923, 0, 0, []
1629649072.6985, 56, 0, 4271.795, 4247.692, 4151.795, 4176.41, 4204.615, 0, 0, []
1629649072.7064, 57, 0, 4274.359, 4245.641, 4157.436, 4185.641, 4205.128, 0, 0, []
1629649072.7144, 58, 0, 4276.923, 4250.769, 4156.41, 4191.795, 4210.769, 0, 0, []
1629649072.7222, 59, 0, 4282.051, 4251.795, 4151.282, 4192.308, 4213.846, 0, 0, []
1629649072.7301, 60, 0, 4293.333, 4254.872, 4167.179, 4206.154, 4225.641, 0, 0, []
1629649072.738, 61, 0, 4297.436, 4259.487, 4165.128, 4212.308, 4233.846, 0, 0, []
1629649072.7458, 62, 0, 4289.231, 4260.513, 4169.744, 4206.154, 4224.103, 0, 0, []
1629649072.7537, 63, 0, 4290.256, 4272.821, 4178.462, 4208.718, 4222.051, 0, 0, []
1629649072.7614, 64, 0, 4306.154, 4282.564, 4167.692, 4215.897, 4243.59, 450, 0, []
1629649072.7693, 65, 0, 4310.769, 4267.692, 4161.538, 4208.205, 4254.359, 450, 0, []
1629649072.7771, 66, 0, 4304.103, 4248.205, 4157.436, 4194.872, 4241.538, 16186, 0, []
1629649072.785, 67, 0, 4303.077, 4254.359, 4162.051, 4200.513, 4232.308, 450, 0, []
1629649072.7928, 68, 0, 4304.615, 4277.436, 4161.026, 4211.795, 4234.872, 16167, 0, []
1629649072.8007, 69, 0, 4296.41, 4280, 4152.308, 4203.59, 4235.385, 450, 0, []
1629649072.8084, 70, 0, 4274.872, 4267.179, 4153.846, 4189.744, 4215.385, 16096, 0, []
1629649072.8163, 71, 0, 4266.154, 4267.692, 4142.051, 4181.026, 4196.923, 450, 0, []
1629649072.8241, 72, 0, 4298.974, 4277.436, 4144.103, 4187.179, 4221.538, 450, 0, []
1629649072.832, 73, 0, 4347.179, 4273.846, 4156.41, 4200, 4265.128, 16157, 0, []
1629649072.8398, 74, 0, 4369.231, 4270.256, 4154.872, 4198.974, 4283.59, 450, 0, []
1629649072.8477, 75, 0, 4366.154, 4279.487, 4163.077, 4192.821, 4280.513, 16200, 0, []
1629649072.8556, 76, 0, 4357.436, 4283.077, 4162.051, 4195.897, 4274.359, 450, 0, []
1629649072.8636, 77, 0, 4353.846, 4280, 4161.026, 4204.615, 4273.333, 450, 0, []
1629649072.8715, 78, 0, 4351.282, 4277.436, 4167.692, 4207.692, 4277.436, 450, 0, []
1629649072.8795, 79, 0, 4342.051, 4276.41, 4166.667, 4203.59, 4277.436, 16200, 0, []
1629649072.8873, 80, 0, 4338.462, 4297.949, 4174.872, 4204.615, 4274.872, 450, 0, []
1629649072.8953, 81, 0, 4355.385, 4316.41, 4174.872, 4213.846, 4282.564, 450, 0, []
1629649072.9032, 82, 0, 4364.615, 4305.128, 4177.436, 4216.923, 4286.154, 450, 0, []
1629649072.911, 83, 0, 4353.333, 4295.385, 4186.154, 4208.718, 4278.462, 16200, 0, []
1629649072.9189, 84, 0, 4349.744, 4307.179, 4182.564, 4212.821, 4280, 450, 0, []
1629649072.9266, 85, 0, 4347.692, 4310.769, 4186.154, 4220, 4281.538, 450, 0, []
1629649072.9345, 86, 0, 4332.821, 4282.051, 4172.308, 4204.615, 4267.692, 450, 0, []
1629649072.9423, 87, 0, 4333.333, 4252.821, 4163.077, 4196.923, 4271.282, 16200, 0, []
1629649072.9502, 88, 0, 4351.795, 4247.692, 4176.923, 4210.256, 4293.846, 450, 0, []
1629649072.958, 89, 0, 4350.769, 4249.744, 4171.282, 4214.359, 4295.385, 450, 0, []
1629649072.9658, 90, 0, 4338.462, 4246.667, 4177.436, 4217.949, 4285.641, 450, 0, []
1629649072.9736, 91, 0, 4342.051, 4263.077, 4188.205, 4228.718, 4288.718, 16200, 0, []
1629649072.9815, 92, 0, 4345.128, 4281.538, 4183.59, 4225.641, 4287.179, 450, 0, []
1629649072.9893, 93, 0, 4337.949, 4271.282, 4186.154, 4213.333, 4280.513, 450, 0, []
1629649072.9973, 94, 0, 4349.231, 4262.051, 4191.282, 4218.974, 4296.923, 450, 0, []
1629649073.0052, 95, 0, 4365.128, 4263.077, 4201.538, 4236.41, 4318.974, 16200, 0, []
1629649073.0131, 96, 0, 4353.333, 4263.59, 4200, 4231.282, 4313.333, 450, 0, []
1629649073.021, 97, 0, 4335.385, 4261.538, 4191.795, 4213.846, 4290.256, 450, 0, []
1629649073.029, 98, 0, 4329.744, 4247.692, 4193.333, 4210.769, 4273.846, 450, 0, []
1629649073.0369, 99, 0, 4328.718, 4235.385, 4189.744, 4214.359, 4270.256, 16200, 0, []
1629649073.0449, 100, 0, 4336.923, 4240, 4201.538, 4217.949, 4283.077, 450, 0, []
1629649073.0527, 101, 0, 4349.744, 4247.692, 4207.692, 4223.077, 4299.487, 450, 0, []
1629649073.0606, 102, 0, 4358.974, 4257.949, 4205.641, 4227.692, 4306.667, 450, 0, []
1629649073.0685, 103, 0, 4364.103, 4262.564, 4228.718, 4234.872, 4309.231, 16200, 0, []
1629649073.0763, 104, 0, 4358.462, 4250.769, 4229.231, 4240.513, 4306.154, 450, 0, []
1629649073.0842, 105, 0, 4348.205, 4257.436, 4218.974, 4240.513, 4295.897, 450, 0, []
1629649073.0919, 106, 0, 4349.231, 4295.385, 4226.154, 4242.051, 4291.795, 450, 0, []
1629649073.0998, 107, 0, 4345.128, 4311.795, 4220.513, 4238.462, 4287.692, 16200, 0, []
1629649073.1076, 108, 0, 4350.256, 4308.718, 4216.923, 4234.359, 4301.026, 450, 0, []
1629649073.1155, 109, 0, 4385.128, 4306.154, 4220.513, 4245.641, 4356.41, 450, 0, []
1629649073.1233, 110, 0, 4414.872, 4293.846, 4228.718, 4255.385, 4409.231, 450, 0, []
1629649073.1312, 111, 0, 4442.051, 4290.256, 4234.359, 4261.026, 4444.615, 16200, 0, []
1629649073.1391, 112, 0, 4470.256, 4290.256, 4224.103, 4273.333, 4485.128, 450, 0, []
1629649073.1471, 113, 0, 4453.846, 4278.462, 4215.897, 4274.359, 4493.846, 450, 0, []
1629649073.155, 114, 0, 4443.077, 4282.051, 4219.487, 4278.462, 4492.308, 450, 0, []
1629649073.163, 115, 0, 4500, 4312.821, 4259.487, 4317.436, 4543.59, 16200, 0, []
1629649073.1708, 116, 0, 4544.103, 4341.026, 4292.308, 4349.231, 4586.154, 450, 0, []
1629649073.1788, 117, 0, 4523.077, 4346.154, 4279.487, 4344.103, 4566.667, 450, 0, []
1629649073.1867, 118, 0, 4507.692, 4357.436, 4289.744, 4345.641, 4547.179, 450, 0, []
1629649073.1947, 119, 0, 4514.872, 4380, 4305.641, 4358.462, 4549.231, 16200, 0, []
1629649073.2026, 120, 0, 4511.282, 4388.205, 4307.692, 4367.692, 4543.59, 450, 0, []
1629649073.2105, 121, 0, 4503.077, 4381.538, 4317.949, 4376.41, 4534.872, 450, 0, []
1629649073.2184, 122, 0, 4501.026, 4387.179, 4324.103, 4382.564, 4530.769, 450, 0, []
1629649073.2262, 123, 0, 4493.333, 4405.128, 4326.154, 4381.538, 4515.897, 16200, 0, []
1629649073.2341, 124, 0, 4473.333, 4397.436, 4306.154, 4368.718, 4491.282, 450, 0, []
1629649073.2419, 125, 0, 4457.436, 4375.385, 4294.872, 4362.051, 4473.333, 450, 0, []
1629649073.2498, 126, 0, 4457.436, 4378.974, 4307.692, 4373.333, 4470.769, 450, 0, []
1629649073.2575, 127, 0, 4462.564, 4401.538, 4305.641, 4384.103, 4475.897, 16200, 0, []
1629649073.2654, 128, 0, 4461.026, 4397.949, 4313.846, 4384.615, 4476.923, 450, 0, []
1629649073.2732, 0, 0, 4446.667, 4378.974, 4315.897, 4372.821, 4460, 450, 0, []
1629649073.2811, 1, 0, 4422.564, 4382.051, 4292.308, 4351.795, 4427.179, 450, 0, []
1629649073.2889, 2, 0, 4403.59, 4385.128, 4281.026, 4338.462, 4406.154, 16184, 0, []
1629649073.2968, 3, 0, 4393.333, 4369.744, 4271.795, 4335.897, 4397.949, 450, 0, []
1629649073.3047, 4, 0, 4375.897, 4352.821, 4263.59, 4325.641, 4378.462, 16165, 0, []
1629649073.3127, 5, 0, 4354.872, 4344.615, 4252.308, 4309.231, 4354.359, 450, 0, []
1629649073.3206, 6, 0, 4336.923, 4333.333, 4237.436, 4295.385, 4337.949, 16096, 0, []
1629649073.3286, 7, 0, 4316.41, 4315.897, 4235.897, 4286.154, 4322.564, 450, 0, []
1629649073.3364, 8, 0, 4310.256, 4308.718, 4230.256, 4283.59, 4318.974, 450, 0, []
1629649073.3444, 9, 0, 4316.41, 4316.41, 4240, 4291.795, 4325.641, 16156, 0, []
1629649073.3523, 10, 0, 4309.231, 4326.154, 4259.487, 4300, 4321.538, 450, 0, []
1629649073.3602, 11, 0, 4302.051, 4326.154, 4263.077, 4301.538, 4312.308, 16194, 0, []
1629649073.3681, 12, 0, 4307.692, 4318.462, 4266.667, 4298.974, 4318.462, 450, 0, []
1629649073.3758, 13, 0, 4317.436, 4317.436, 4255.897, 4292.308, 4328.718, 450, 0, []
1629649073.3837, 14, 0, 4315.385, 4316.923, 4239.487, 4286.154, 4320, 450, 0, []
1629649073.3915, 15, 0, 4292.308, 4307.692, 4228.205, 4277.949, 4295.897, 16194, 0, []
1629649073.3994, 16, 0, 4268.718, 4291.795, 4212.308, 4266.154, 4273.846, 0, 0, []
1629649073.4072, 17, 0, 4256.41, 4273.846, 4204.615, 4251.795, 4261.026, 0, 0, []
1629649073.415, 18, 0, 4252.308, 4270.769, 4194.359, 4242.051, 4260, 0, 0, []
1629649073.4228, 19, 0, 4256.41, 4284.615, 4200.513, 4249.231, 4267.179, 0, 0, []
1629649073.4308, 20, 0, 4255.897, 4280.513, 4210.769, 4250.256, 4262.051, 0, 0, []
1629649073.4387, 21, 0, 4240.513, 4257.949, 4189.231, 4229.231, 4241.026, 0, 0, []
1629649073.4467, 22, 0, 4226.667, 4263.077, 4181.026, 4213.333, 4226.154, 0, 0, []
1629649073.4545, 23, 0, 4224.103, 4273.846, 4182.051, 4216.41, 4221.026, 0, 0, []
1629649073.4625, 24, 0, 4214.359, 4258.462, 4176.41, 4214.872, 4216.41, 0, 0, []
1629649073.4704, 25, 0, 4206.154, 4255.385, 4173.333, 4205.128, 4210.256, 0, 0, []
1629649073.4784, 26, 0, 4203.077, 4263.59, 4162.051, 4197.949, 4203.077, 0, 0, []
1629649073.4863, 27, 0, 4192.821, 4247.692, 4164.103, 4195.385, 4197.949, 0, 0, []
1629649073.4943, 28, 0, 4187.179, 4229.231, 4162.051, 4195.897, 4198.462, 0, 0, []
1629649073.5021, 29, 0, 4184.103, 4228.718, 4151.795, 4195.385, 4197.949, 0, 0, []
1629649073.5101, 30, 0, 4184.103, 4233.846, 4160, 4197.436, 4197.949, 0, 0, []
1629649073.518, 31, 0, 4195.897, 4243.077, 4167.692, 4196.923, 4202.051, 0, 0, []
1629649073.5258, 32, 0, 4200, 4253.333, 4176.41, 4192.308, 4202.051, 0, 0, []
1629649073.5337, 33, 0, 4188.718, 4244.615, 4172.308, 4185.128, 4196.923, 0, 0, []
1629649073.5414, 34, 0, 4180, 4229.744, 4162.564, 4175.385, 4193.846, 0, 0, []
1629649073.5493, 35, 0, 4186.667, 4235.897, 4170.769, 4170.256, 4194.872, 0, 0, []
1629649073.5571, 36, 0, 4187.692, 4233.333, 4160.513, 4163.59, 4188.205, 0, 0, []
1629649073.565, 37, 0, 4170.256, 4219.487, 4151.795, 4153.333, 4168.205, 0, 0, []
1629649073.5728, 38, 0, 4168.205, 4227.692, 4159.487, 4151.795, 4163.59, 0, 0, []
1629649073.5806, 39, 0, 4190.256, 4244.103, 4166.667, 4166.667, 4182.051, 0, 0, []
1629649073.5884, 40, 0, 4205.128, 4247.179, 4191.795, 4182.051, 4198.974, 0, 0, []
1629649073.5964, 41, 0, 4208.205, 4253.333, 4224.103, 4187.692, 4208.205, 0, 0, []
1629649073.6043, 42, 0, 4218.462, 4264.103, 4256.923, 4195.897, 4210.769, 0, 0, []
1629649073.6123, 43, 0, 4219.487, 4257.949, 4265.128, 4202.564, 4206.154, 0, 0, []
1629649073.6201, 44, 0, 4205.641, 4238.462, 4252.821, 4194.359, 4199.487, 0, 0, []
1629649073.6281, 45, 0, 4206.154, 4232.821, 4264.103, 4184.103, 4201.026, 0, 0, []
1629649073.636, 46, 0, 4223.59, 4252.308, 4271.282, 4188.718, 4208.205, 0, 0, []
1629649073.644, 47, 0, 4238.462, 4267.179, 4281.026, 4202.564, 4220.513, 0, 0, []
1629649073.6519, 48, 0, 4247.692, 4263.077, 4286.667, 4210.769, 4231.282, 0, 0, []
1629649073.6598, 49, 0, 4254.872, 4266.667, 4272.308, 4211.282, 4232.821, 0, 0, []
1629649073.6677, 50, 0, 4258.974, 4275.385, 4279.487, 4217.436, 4237.949, 0, 0, []
1629649073.6756, 51, 0, 4254.872, 4270.256, 4282.564, 4223.077, 4238.462, 0, 0, []
1629649073.6834, 52, 0, 4242.564, 4264.615, 4275.385, 4214.359, 4222.564, 0, 0, []
1629649073.6912, 53, 0, 4237.436, 4265.128, 4283.077, 4205.641, 4215.385, 0, 0, []
1629649073.6991, 54, 0, 4246.154, 4264.615, 4291.795, 4210.256, 4224.103, 0, 0, []
1629649073.7068, 55, 0, 4245.128, 4258.974, 4300, 4216.923, 4222.564, 0, 0, []
1629649073.7147, 56, 0, 4232.821, 4249.744, 4285.128, 4212.308, 4213.846, 0, 0, []
1629649073.7225, 57, 0, 4228.205, 4247.179, 4269.744, 4200.513, 4210.256, 0, 0, []
1629649073.7304, 58, 0, 4232.821, 4247.179, 4266.154, 4193.846, 4206.154, 0, 0, []
1629649073.7382, 59, 0, 4237.436, 4236.41, 4250.769, 4194.359, 4208.205, 0, 0, []
1629649073.746, 60, 0, 4240.513, 4231.282, 4260.513, 4200.513, 4214.359, 0, 0, []
1629649073.7538, 61, 0, 4245.128, 4232.821, 4275.385, 4211.795, 4217.949, 0, 0, []
1629649073.7618, 62, 0, 4252.821, 4219.487, 4272.308, 4215.897, 4229.744, 0, 0, []
1629649073.7697, 63, 0, 4250.256, 4200.513, 4254.359, 4197.436, 4230.769, 0, 0, []
1629649073.7777, 64, 0, 4240, 4185.641, 4223.077, 4172.308, 4211.282, 450, 0, []
1629649073.7855, 65, 0, 4250.769, 4166.154, 4233.333, 4168.205, 4220, 450, 0, []
1629649073.7935, 66, 0, 4282.564, 4154.359, 4250.256, 4175.897, 4259.487, 16184, 0, []
1629649073.8014, 67, 0, 4328.718, 4169.744, 4246.667, 4190.769, 4302.564, 450, 0, []
1629649073.8094, 68, 0, 4387.179, 4182.051, 4254.872, 4212.308, 4350.769, 16111, 0, []
1629649073.8173, 69, 0, 4418.462, 4173.333, 4248.718, 4209.744, 4377.949, 450, 0, []
1629649073.8252, 70, 0, 4402.051, 4164.615, 4236.923, 4186.154, 4367.692, 16096, 0, []
1629649073.8331, 71, 0, 4387.692, 4157.949, 4217.436, 4169.744, 4357.436, 450, 0, []
1629649073.8409, 72, 0, 4386.154, 4135.385, 4197.949, 4156.41, 4356.41, 450, 0, []
1629649073.8488, 73, 0, 4372.821, 4120, 4208.718, 4147.179, 4352.308, 16156, 0, []
1629649073.8566, 74, 0, 4356.923, 4124.103, 4207.692, 4151.795, 4354.872, 450, 0, []
1629649073.8644, 75, 0, 4349.231, 4123.077, 4204.103, 4165.128, 4362.051, 16194, 0, []
1629649073.8722, 76, 0, 4335.385, 4127.692, 4212.308, 4174.872, 4350.256, 450, 0, []
1629649073.8801, 77, 0, 4309.744, 4145.641, 4211.282, 4173.333, 4322.564, 450, 0, []
1629649073.8879, 78, 0, 4281.538, 4133.333, 4206.154, 4161.026, 4293.333, 450, 0, []
1629649073.8958, 79, 0, 4263.59, 4096.41, 4187.179, 4150.256, 4270.256, 16194, 0, []
1629649073.9035, 80, 0, 4251.282, 4088.718, 4176.923, 4141.538, 4248.718, 450, 0, []
1629649073.9115, 81, 0, 4232.308, 4102.051, 4177.949, 4121.538, 4221.538, 450, 0, []
1629649073.9194, 82, 0, 4226.154, 4110.256, 4173.846, 4108.718, 4211.795, 450, 0, []
1629649073.9274, 83, 0, 4242.564, 4113.846, 4182.564, 4124.615, 4227.179, 16194, 0, []
1629649073.9353, 84, 0, 4253.846, 4113.846, 4176.923, 4143.59, 4238.974, 450, 0, []
1629649073.9433, 85, 0, 4251.795, 4125.128, 4177.436, 4149.231, 4236.923, 450, 0, []
1629649073.9511, 86, 0, 4249.744, 4145.641, 4193.846, 4151.282, 4233.333, 450, 0, []
1629649073.9591, 87, 0, 4246.154, 4141.538, 4187.692, 4151.282, 4227.179, 16194, 0, []
1629649073.967, 88, 0, 4231.282, 4125.641, 4184.103, 4146.667, 4211.282, 450, 0, []
1629649073.975, 89, 0, 4215.385, 4134.872, 4174.872, 4133.846, 4194.872, 450, 0, []
1629649073.9829, 90, 0, 4213.333, 4142.051, 4162.564, 4120.513, 4185.128, 450, 0, []
1629649073.9907, 91, 0, 4213.846, 4125.641, 4160.513, 4124.103, 4180, 16194, 0, []
1629649073.9986, 92, 0, 4206.154, 4118.462, 4154.359, 4129.744, 4175.897, 450, 0, []
1629649074.0064, 93, 0, 4200, 4136.923, 4167.179, 4123.077, 4170.256, 450, 0, []
1629649074.0143, 94, 0, 4203.077, 4156.923, 4168.205, 4120, 4170.256, 450, 0, []
1629649074.0221, 95, 0, 4205.641, 4156.923, 4161.538, 4131.282, 4174.359, 16194, 0, []
1629649074.0299, 96, 0, 4200, 4157.436, 4170.256, 4133.846, 4171.282, 450, 0, []
1629649074.0377, 97, 0, 4195.385, 4168.718, 4160, 4120, 4160.513, 450, 0, []
1629649074.0456, 98, 0, 4195.385, 4166.667, 4155.897, 4117.436, 4153.333, 450, 0, []
1629649074.0534, 99, 0, 4193.846, 4161.026, 4153.846, 4121.538, 4152.821, 16194, 0, []
1629649074.0614, 100, 0, 4185.128, 4162.051, 4143.59, 4110.256, 4146.667, 450, 0, []
1629649074.0692, 101, 0, 4171.282, 4152.821, 4141.538, 4094.359, 4127.692, 450, 0, []
1629649074.0772, 102, 0, 4167.179, 4141.026, 4138.462, 4095.897, 4122.564, 450, 0, []
1629649074.0851, 103, 0, 4177.436, 4156.41, 4153.333, 4111.282, 4145.128, 16194, 0, []
1629649074.0931, 104, 0, 4189.231, 4191.282, 4158.462, 4115.897, 4161.538, 450, 0, []
1629649074.101, 105, 0, 4195.385, 4206.667, 4149.231, 4109.231, 4155.897, 450, 0, []
1629649074.1089, 106, 0, 4196.923, 4206.667, 4159.487, 4110.769, 4153.846, 450, 0, []
1629649074.1168, 107, 0, 4191.795, 4209.744, 4160.513, 4118.462, 4155.385, 16194, 0, []
1629649074.1248, 108, 0, 4178.974, 4216.41, 4160.513, 4115.897, 4144.103, 450, 0, []
1629649074.1327, 109, 0, 4171.282, 4218.974, 4157.436, 4108.205, 4132.821, 450, 0, []
1629649074.1407, 110, 0, 4165.128, 4214.359, 4145.641, 4101.538, 4126.154, 450, 0, []
1629649074.1485, 111, 0, 4162.051, 4209.231, 4153.333, 4100, 4119.487, 16194, 0, []
1629649074.1563, 112, 0, 4169.744, 4212.308, 4160.513, 4110.769, 4128.718, 450, 0, []
1629649074.1642, 113, 0, 4171.282, 4227.692, 4165.128, 4120.513, 4135.385, 450, 0, []
1629649074.172, 114, 0, 4166.667, 4235.897, 4157.436, 4112.821, 4126.667, 450, 0, []
1629649074.1799, 115, 0, 4176.41, 4231.795, 4142.051, 4108.205, 4130.769, 16194, 0, []
1629649074.1877, 116, 0, 4186.154, 4224.615, 4152.308, 4118.462, 4142.051, 450, 0, []
1629649074.1956, 117, 0, 4176.41, 4222.051, 4146.667, 4119.487, 4131.282, 450, 0, []
1629649074.2035, 118, 0, 4170.256, 4233.846, 4144.103, 4118.974, 4128.205, 450, 0, []
1629649074.2114, 119, 0, 4173.333, 4236.923, 4156.41, 4129.231, 4141.026, 16194, 0, []
1629649074.2192, 120, 0, 4162.564, 4217.949, 4152.821, 4131.795, 4132.308, 450, 0, []
1629649074.2272, 121, 0, 4150.256, 4201.026, 4150.256, 4125.128, 4115.385, 450, 0, []
1629649074.235, 122, 0, 4154.359, 4202.051, 4140.513, 4118.974, 4116.923, 450, 0, []
1629649074.243, 123, 0, 4156.41, 4207.179, 4137.949, 4117.949, 4116.923, 16194, 0, []
1629649074.2509, 124, 0, 4145.641, 4200.513, 4138.462, 4113.846, 4105.128, 450, 0, []
1629649074.2589, 125, 0, 4144.103, 4183.59, 4130.769, 4115.897, 4110.769, 450, 0, []
1629649074.2668, 126, 0, 4161.026, 4187.692, 4147.179, 4135.385, 4132.308, 450, 0, []
1629649074.2747, 127, 0, 4183.59, 4210.256, 4153.333, 4145.641, 4145.128, 16194, 0, []
1629649074.2826, 128, 0, 4187.179, 4214.359, 4147.179, 4138.974, 4146.154, 450, 0, []
1629649074.2906, 0, 0, 4174.872, 4200, 4148.718, 4133.846, 4142.051, 450, 0, []
1629649074.2985, 1, 0, 4167.179, 4183.59, 4130.256, 4121.026, 4131.795, 450, 0, []
1629649074.3063, 2, 0, 4165.641, 4177.949, 4117.949, 4107.179, 4120, 16186, 0, []
1629649074.3141, 3, 0, 4167.692, 4194.359, 4115.385, 4113.333, 4126.667, 450, 0, []
1629649074.3219, 4, 0, 4168.718, 4206.667, 4109.744, 4120.513, 4137.949, 16151, 0, []
1629649074.3298, 5, 0, 4163.077, 4197.949, 4108.205, 4113.333, 4129.744, 450, 0, []
1629649074.3376, 6, 0, 4157.436, 4195.897, 4100, 4113.333, 4118.462, 16096, 0, []
1629649074.3455, 7, 0, 4161.538, 4199.487, 4113.333, 4119.487, 4127.179, 450, 0, []
1629649074.3532, 8, 0, 4169.744, 4198.974, 4118.974, 4115.897, 4137.949, 450, 0, []
1629649074.3611, 9, 0, 4177.436, 4206.667, 4108.718, 4117.949, 4142.051, 16186, 0, []
1629649074.3689, 10, 0, 4183.077, 4216.41, 4118.974, 4133.333, 4151.282, 450, 0, []
1629649074.3769, 11, 0, 4184.615, 4220, 4120.513, 4140, 4157.436, 16195, 0, []
1629649074.3848, 12, 0, 4187.179, 4210.256, 4127.179, 4136.41, 4154.872, 450, 0, []
1629649074.3928, 13, 0, 4183.59, 4196.923, 4133.333, 4130.769, 4152.821, 450, 0, []
1629649074.4006, 14, 0, 4175.897, 4210.769, 4131.795, 4132.821, 4154.359, 450, 0, []
1629649074.4086, 15, 0, 4181.026, 4226.154, 4137.436, 4148.205, 4156.923, 16195, 0, []
1629649074.4165, 16, 0, 4188.205, 4205.128, 4124.103, 4150.769, 4160.513, 0, 0, []
1629649074.4245, 17, 0, 4182.051, 4194.359, 4125.128, 4142.051, 4162.564, 0, 0, []
1629649074.4324, 18, 0, 4188.205, 4215.897, 4142.564, 4150.256, 4172.821, 0, 0, []
1629649074.4403, 19, 0, 4205.128, 4220.513, 4136.41, 4163.59, 4185.641, 0, 0, []
1629649074.4482, 20, 0, 4198.462, 4201.026, 4132.308, 4161.026, 4180.513, 0, 0, []
1629649074.456, 21, 0, 4179.487, 4189.744, 4127.692, 4154.872, 4167.179, 0, 0, []
1629649074.4639, 22, 0, 4181.026, 4204.615, 4131.795, 4158.974, 4166.154, 0, 0, []
1629649074.4717, 23, 0, 4197.949, 4230.769, 4135.897, 4166.667, 4177.949, 0, 0, []
1629649074.4795, 24, 0, 4202.051, 4219.487, 4118.974, 4164.615, 4182.051, 0, 0, []
1629649074.4873, 25, 0, 4198.462, 4192.308, 4121.026, 4161.538, 4182.051, 0, 0, []
1629649074.4952, 26, 0, 4198.462, 4204.615, 4130.256, 4161.026, 4182.564, 0, 0, []
1629649074.503, 27, 0, 4191.282, 4207.179, 4131.282, 4156.41, 4176.41, 0, 0, []
1629649074.5109, 28, 0, 4182.051, 4180, 4129.744, 4155.897, 4166.154, 0, 0, []
1629649074.5186, 29, 0, 4184.103, 4192.821, 4128.205, 4161.026, 4166.667, 0, 0, []
1629649074.5266, 30, 0, 4187.692, 4220, 4143.59, 4164.103, 4175.897, 0, 0, []
1629649074.5345, 31, 0, 4192.308, 4204.103, 4143.59, 4162.051, 4177.436, 0, 0, []
1629649074.5425, 32, 0, 4195.385, 4191.282, 4141.026, 4157.436, 4172.821, 0, 0, []
1629649074.5504, 33, 0, 4189.231, 4205.641, 4143.077, 4148.205, 4170.769, 0, 0, []
1629649074.5583, 34, 0, 4189.231, 4202.051, 4125.128, 4144.615, 4172.821, 0, 0, []
1629649074.5662, 35, 0, 4200.513, 4187.179, 4132.308, 4156.923, 4173.846, 0, 0, []
1629649074.5742, 36, 0, 4200.513, 4194.872, 4147.692, 4161.538, 4170.769, 0, 0, []
1629649074.5821, 37, 0, 4185.128, 4196.923, 4141.026, 4152.308, 4166.154, 0, 0, []
1629649074.5901, 38, 0, 4180, 4183.59, 4135.897, 4146.154, 4165.128, 0, 0, []
1629649074.5979, 39, 0, 4195.385, 4195.897, 4130.769, 4151.282, 4174.872, 0, 0, []
1629649074.6058, 40, 0, 4208.718, 4223.59, 4138.974, 4160, 4186.154, 0, 0, []
1629649074.6137, 41, 0, 4203.59, 4220, 4135.385, 4154.359, 4185.128, 0, 0, []
1629649074.6215, 42, 0, 4197.436, 4193.333, 4125.128, 4142.564, 4178.462, 0, 0, []
1629649074.6294, 43, 0, 4210.256, 4194.359, 4136.923, 4151.795, 4191.282, 0, 0, []
1629649074.6372, 44, 0, 4223.077, 4209.744, 4127.179, 4165.128, 4212.821, 0, 0, []
1629649074.645, 45, 0, 4213.846, 4200.513, 4115.385, 4156.41, 4216.923, 0, 0, []
1629649074.6528, 46, 0, 4206.667, 4191.282, 4120.513, 4145.128, 4217.436, 0, 0, []
1629649074.6607, 47, 0, 4217.949, 4211.282, 4123.59, 4148.205, 4221.026, 0, 0, []
1629649074.6685, 48, 0, 4215.897, 4223.59, 4123.077, 4147.692, 4210.769, 0, 0, []
1629649074.6764, 49, 0, 4197.436, 4214.359, 4111.795, 4144.103, 4201.538, 0, 0, []
1629649074.6841, 50, 0, 4202.051, 4213.333, 4126.667, 4154.359, 4212.821, 0, 0, []
1629649074.692, 51, 0, 4215.897, 4213.846, 4141.026, 4166.154, 4217.949, 0, 0, []
1629649074.6999, 52, 0, 4202.051, 4199.487, 4121.026, 4158.462, 4197.949, 0, 0, []
1629649074.7078, 53, 0, 4190.256, 4195.385, 4113.333, 4147.692, 4190.256, 0, 0, []
1629649074.7156, 54, 0, 4200.513, 4205.641, 4113.333, 4147.179, 4198.974, 0, 0, []
1629649074.7235, 55, 0, 4202.051, 4202.564, 4120.513, 4146.154, 4194.872, 0, 0, []
1629649074.7314, 56, 0, 4193.333, 4199.487, 4127.692, 4145.128, 4191.795, 0, 0, []
1629649074.7394, 57, 0, 4197.949, 4212.821, 4125.641, 4150.769, 4196.923, 0, 0, []
1629649074.7473, 58, 0, 4204.103, 4217.949, 4138.974, 4158.974, 4191.282, 0, 0, []
1629649074.7553, 59, 0, 4201.026, 4207.179, 4140, 4158.974, 4188.718, 0, 0, []
1629649074.7631, 60, 0, 4208.205, 4212.308, 4136.923, 4157.949, 4203.59, 0, 0, []
1629649074.771, 61, 0, 4222.051, 4230.256, 4136.41, 4153.846, 4209.231, 0, 0, []
1629649074.7789, 62, 0, 4215.897, 4225.641, 4122.051, 4145.128, 4200.513, 0, 0, []
1629649074.7867, 63, 0, 4201.538, 4216.41, 4124.103, 4144.615, 4198.974, 0, 0, []
1629649074.7946, 64, 0, 4202.051, 4209.744, 4119.487, 4148.718, 4198.462, 450, 0, []
1629649074.8023, 65, 0, 4213.333, 4203.077, 4115.897, 4153.846, 4197.949, 450, 0, []
1629649074.8102, 66, 0, 4216.923, 4218.974, 4123.59, 4158.974, 4200, 16186, 0, []
1629649074.818, 67, 0, 4208.718, 4232.821, 4111.795, 4151.795, 4196.41, 450, 0, []
1629649074.8259, 68, 0, 4207.692, 4218.462, 4111.795, 4146.154, 4194.872, 16158, 0, []
1629649074.8337, 69, 0, 4225.641, 4218.974, 4119.487, 4154.359, 4203.077, 450, 0, []
1629649074.8417, 70, 0, 4238.462, 4245.128, 4125.641, 4160, 4206.667, 16096, 0, []
1629649074.8495, 71, 0, 4231.795, 4241.538, 4125.128, 4164.615, 4201.538, 450, 0, []
1629649074.8574, 72, 0, 4228.205, 4224.103, 4114.359, 4175.897, 4207.179, 450, 0, []
1629649074.8652, 73, 0, 4234.359, 4232.821, 4126.667, 4181.026, 4218.974, 16164, 0, []
1629649074.8732, 74, 0, 4234.872, 4240.513, 4123.59, 4165.641, 4217.436, 450, 0, []
1629649074.8811, 75, 0, 4235.897, 4233.333, 4103.077, 4143.077, 4207.692, 16195, 0, []
1629649074.889, 76, 0, 4243.59, 4230.256, 4097.949, 4136.41, 4208.718, 450, 0, []
1629649074.8969, 77, 0, 4256.41, 4231.795, 4083.59, 4150.769, 4220, 450, 0, []
1629649074.9049, 78, 0, 4262.564, 4240.513, 4083.59, 4177.949, 4228.205, 450, 0, []
1629649074.9128, 79, 0, 4262.564, 4252.308, 4091.795, 4196.41, 4237.436, 16195, 0, []
1629649074.9208, 80, 0, 4269.231, 4249.744, 4081.026, 4197.949, 4250.769, 450, 0, []
1629649074.9286, 81, 0, 4286.154, 4241.538, 4080.513, 4193.846, 4261.026, 450, 0, []
1629649074.9364, 82, 0, 4307.179, 4241.026, 4085.641, 4193.846, 4277.949, 450, 0, []
1629649074.9443, 83, 0, 4328.205, 4244.615, 4096.41, 4198.974, 4304.103, 16195, 0, []
1629649074.9521, 84, 0, 4363.59, 4255.897, 4108.205, 4204.103, 4332.308, 450, 0, []
1629649074.96, 85, 0, 4416.41, 4268.205, 4118.462, 4216.41, 4371.795, 450, 0, []
1629649074.9677, 86, 0, 4450.256, 4269.744, 4129.744, 4230.769, 4412.821, 450, 0, []
1629649074.9756, 87, 0, 4452.821, 4273.333, 4113.333, 4227.179, 4422.564, 16195, 0, []
1629649074.9834, 88, 0, 4452.821, 4275.897, 4112.821, 4218.974, 4415.385, 450, 0, []
1629649074.9913, 89, 0, 4455.385, 4282.051, 4134.359, 4220, 4413.333, 450, 0, []
1629649074.9991, 90, 0, 4455.897, 4293.333, 4138.974, 4222.051, 4412.308, 450, 0, []
1629649075.007, 91, 0, 4460.513, 4292.821, 4151.282, 4231.282, 4414.359, 16195, 0, []
1629649075.0149, 92, 0, 4461.026, 4283.59, 4157.436, 4247.692, 4416.923, 450, 0, []
1629649075.0229, 93, 0, 4448.718, 4290.769, 4162.564, 4258.974, 4409.744, 450, 0, []
1629649075.0308, 94, 0, 4425.641, 4306.154, 4165.641, 4252.821, 4387.692, 450, 0, []
1629649075.0388, 95, 0, 4392.308, 4292.821, 4142.564, 4237.949, 4356.923, 16195, 0, []
1629649075.0466, 96, 0, 4372.821, 4277.949, 4143.077, 4233.333, 4337.949, 450, 0, []
1629649075.0546, 97, 0, 4371.282, 4285.128, 4155.897, 4234.359, 4333.333, 450, 0, []
1629649075.0625, 98, 0, 4367.179, 4285.641, 4159.487, 4233.333, 4326.667, 450, 0, []
1629649075.0704, 99, 0, 4356.41, 4279.487, 4166.667, 4235.385, 4319.487, 16195, 0, []
1629649075.0783, 100, 0, 4344.615, 4277.436, 4164.103, 4234.359, 4313.846, 450, 0, []
1629649075.0861, 101, 0, 4335.385, 4276.41, 4169.231, 4233.846, 4305.641, 450, 0, []
1629649075.0939, 102, 0, 4330.769, 4277.949, 4165.128, 4238.462, 4296.923, 450, 0, []
1629649075.1017, 103, 0, 4320.513, 4281.538, 4155.897, 4237.436, 4284.103, 16195, 0, []
1629649075.1096, 104, 0, 4302.564, 4264.103, 4155.897, 4225.128, 4269.744, 450, 0, []
1629649075.1174, 105, 0, 4294.359, 4249.744, 4145.128, 4217.436, 4262.564, 450, 0, []
1629649075.1253, 106, 0, 4297.436, 4264.103, 4152.821, 4222.051, 4264.615, 450, 0, []
1629649075.133, 107, 0, 4295.385, 4272.308, 4153.846, 4229.231, 4268.718, 16195, 0, []
1629649075.1409, 108, 0, 4287.692, 4261.538, 4139.487, 4226.667, 4262.564, 450, 0, []
1629649075.1487, 109, 0, 4282.051, 4252.821, 4144.615, 4220.513, 4249.744, 450, 0, []
1629649075.1567, 110, 0, 4281.026, 4251.795, 4136.923, 4221.026, 4246.667, 450, 0, []
1629649075.1646, 111, 0, 4281.026, 4248.718, 4135.385, 4225.128, 4252.308, 16195, 0, []
1629649075.1725, 112, 0, 4279.487, 4249.231, 4142.564, 4227.692, 4251.795, 450, 0, []
1629649075.1804, 113, 0, 4278.462, 4252.308, 4142.564, 4230.769, 4246.667, 450, 0, []
1629649075.1884, 114, 0, 4283.077, 4249.744, 4151.795, 4237.436, 4253.846, 450, 0, []
1629649075.1963, 115, 0, 4287.692, 4246.667, 4152.821, 4237.436, 4264.615, 16195, 0, []
1629649075.2043, 116, 0, 4284.103, 4244.103, 4153.333, 4235.385, 4257.436, 450, 0, []
1629649075.2121, 117, 0, 4278.974, 4241.538, 4142.051, 4238.974, 4245.128, 450, 0, []
1629649075.2201, 118, 0, 4280.513, 4240.513, 4127.692, 4245.128, 4250.769, 450, 0, []
1629649075.228, 119, 0, 4284.103, 4247.692, 4134.359, 4251.282, 4261.538, 16195, 0, []
1629649075.2358, 120, 0, 4286.667, 4255.385, 4129.744, 4252.821, 4263.59, 450, 0, []
1629649075.2437, 121, 0, 4291.282, 4260.513, 4133.333, 4253.333, 4260.513, 450, 0, []
1629649075.2514, 122, 0, 4293.333, 4267.692, 4146.667, 4250.256, 4256.41, 450, 0, []
1629649075.2593, 123, 0, 4285.641, 4267.179, 4143.59, 4240, 4248.718, 16195, 0, []
1629649075.2671, 124, 0, 4276.41, 4262.564, 4149.744, 4231.795, 4237.436, 450, 0, []
1629649075.275, 125, 0, 4280.513, 4264.615, 4156.923, 4233.846, 4236.923, 450, 0, []
1629649075.2828, 126, 0, 4282.051, 4263.077, 4164.103, 4237.436, 4241.026, 450, 0, []
1629649075.2907, 127, 0, 4268.205, 4258.974, 4163.59, 4231.282, 4234.359, 16195, 0, []
1629649075.2986, 128, 0, 4261.538, 4261.538, 4156.923, 4226.667, 4228.718, 450, 0, []
1629649075.3066, 0, 0, 4265.128, 4260, 4172.821, 4231.795, 4230.256, 450, 0, []
1629649075.3145, 1, 0, 4263.077, 4245.128, 4172.308, 4233.333, 4228.718, 450, 0, []
1629649075.3225, 2, 0, 4260.513, 4244.103, 4167.179, 4231.282, 4228.205, 16186, 0, []
1629649075.3304, 3, 0, 4263.59, 4257.436, 4176.923, 4234.872, 4235.385, 450, 0, []
1629649075.3383, 4, 0, 4264.615, 4255.385, 4172.308, 4236.923, 4235.385, 16158, 0, []
1629649075.3462, 5, 0, 4261.538, 4245.128, 4175.385, 4234.872, 4230.256, 450, 0, []
1629649075.3542, 6, 0, 4264.615, 4248.205, 4176.41, 4233.846, 4230.769, 16096, 0, []
1629649075.3621, 7, 0, 4276.41, 4255.897, 4181.026, 4240.513, 4241.026, 450, 0, []
1629649075.3701, 8, 0, 4285.641, 4262.051, 4193.333, 4245.641, 4251.795, 450, 0, []
1629649075.3779, 9, 0, 4280.513, 4267.179, 4177.436, 4234.872, 4248.718, 16157, 0, []
1629649075.3857, 10, 0, 4276.41, 4269.231, 4175.385, 4232.308, 4244.615, 450, 0, []
1629649075.3936, 11, 0, 4288.205, 4272.308, 4188.205, 4247.692, 4254.359, 16195, 0, []
1629649075.4014, 12, 0, 4293.846, 4274.872, 4192.821, 4254.872, 4263.077, 450, 0, []
1629649075.4093, 13, 0, 4285.641, 4265.641, 4201.538, 4255.385, 4265.128, 450, 0, []
1629649075.417, 14, 0, 4278.462, 4260, 4201.538, 4257.949, 4261.538, 450, 0, []
1629649075.4249, 15, 0, 4275.385, 4264.615, 4203.077, 4252.308, 4252.821, 16195, 0, []
1629649075.4327, 16, 0, 4272.821, 4267.692, 4189.231, 4240.513, 4245.128, 0, 0, []
1629649075.4407, 17, 0, 4273.846, 4266.667, 4170.256, 4235.897, 4241.026, 0, 0, []
1629649075.4486, 18, 0, 4290.769, 4278.974, 4185.128, 4245.128, 4247.179, 0, 0, []
1629649075.4565, 19, 0, 4312.821, 4302.564, 4202.564, 4263.59, 4267.692, 0, 0, []
1629649075.4644, 20, 0, 4317.949, 4313.333, 4218.974, 4273.846, 4280.513, 0, 0, []
1629649075.4724, 21, 0, 4313.846, 4306.154, 4224.615, 4270.256, 4277.949, 0, 0, []
1629649075.4803, 22, 0, 4322.564, 4309.231, 4223.077, 4268.718, 4281.538, 0, 0, []
1629649075.4883, 23, 0, 4332.821, 4323.59, 4234.359, 4273.333, 4289.231, 0, 0, []
1629649075.4961, 24, 0, 4318.974, 4316.923, 4217.949, 4271.282, 4280.513, 0, 0, []
1629649075.5041, 25, 0, 4296.923, 4301.026, 4204.615, 4261.538, 4260.513, 0, 0, []
1629649075.512, 26, 0, 4301.026, 4318.462, 4216.41, 4256.923, 4256.41, 0, 0, []
1629649075.52, 27, 0, 4322.564, 4336.41, 4222.051, 4268.205, 4271.795, 0, 0, []
1629649075.5279, 28, 0, 4324.615, 4323.59, 4233.846, 4282.051, 4282.564, 0, 0, []
1629649075.5357, 29, 0, 4311.795, 4315.897, 4235.385, 4276.923, 4284.615, 0, 0, []
1629649075.5435, 30, 0, 4317.949, 4327.692, 4242.564, 4278.974, 4292.308, 0, 0, []
1629649075.5513, 31, 0, 4329.744, 4337.436, 4244.615, 4293.333, 4297.436, 0, 0, []
1629649075.5592, 32, 0, 4318.974, 4331.795, 4220.513, 4290.769, 4291.282, 0, 0, []
1629649075.567, 33, 0, 4313.846, 4328.205, 4225.128, 4289.744, 4293.846, 0, 0, []
1629649075.5749, 34, 0, 4318.974, 4332.308, 4228.718, 4289.744, 4296.923, 0, 0, []
1629649075.5826, 35, 0, 4313.846, 4335.897, 4218.462, 4281.538, 4288.718, 0, 0, []
1629649075.5905, 36, 0, 4322.051, 4341.026, 4231.282, 4290.256, 4298.462, 0, 0, []
1629649075.5983, 37, 0, 4348.718, 4347.692, 4243.59, 4302.564, 4318.974, 0, 0, []
1629649075.6063, 38, 0, 4349.231, 4356.923, 4234.872, 4289.744, 4316.923, 0, 0, []
1629649075.6142, 39, 0, 4338.462, 4353.846, 4214.359, 4282.051, 4304.103, 0, 0, []
1629649075.6221, 40, 0, 4343.077, 4353.846, 4222.564, 4295.385, 4304.103, 0, 0, []
1629649075.63, 41, 0, 4336.41, 4361.026, 4235.385, 4291.282, 4301.538, 0, 0, []
1629649075.638, 42, 0, 4323.077, 4352.308, 4219.487, 4272.821, 4291.282, 0, 0, []
1629649075.6459, 43, 0, 4323.59, 4345.128, 4218.974, 4272.308, 4286.154, 0, 0, []
1629649075.6539, 44, 0, 4317.949, 4351.282, 4209.744, 4275.385, 4282.051, 0, 0, []
1629649075.6617, 45, 0, 4303.59, 4345.128, 4192.821, 4267.692, 4275.897, 0, 0, []
1629649075.6697, 46, 0, 4300, 4333.333, 4206.154, 4262.051, 4277.436, 0, 0, []
1629649075.6776, 47, 0, 4302.564, 4338.974, 4207.179, 4261.026, 4279.487, 0, 0, []
1629649075.6856, 48, 0, 4295.897, 4333.846, 4199.487, 4250.256, 4265.641, 0, 0, []
1629649075.6935, 49, 0, 4283.077, 4322.051, 4187.692, 4236.41, 4249.231, 0, 0, []
1629649075.7012, 50, 0, 4276.923, 4321.538, 4177.949, 4242.564, 4252.308, 0, 0, []
1629649075.7091, 51, 0, 4280.513, 4315.897, 4190.769, 4253.333, 4262.564, 0, 0, []
1629649075.7169, 52, 0, 4283.077, 4318.462, 4186.154, 4248.205, 4258.974, 0, 0, []
1629649075.7248, 53, 0, 4281.538, 4327.179, 4182.051, 4248.205, 4250.769, 0, 0, []
1629649075.7326, 54, 0, 4274.872, 4318.974, 4182.051, 4248.205, 4249.231, 0, 0, []
1629649075.7404, 55, 0, 4264.615, 4306.667, 4166.154, 4231.795, 4246.154, 0, 0, []
1629649075.7482, 56, 0, 4263.077, 4302.051, 4161.538, 4225.128, 4238.462, 0, 0, []
1629649075.7562, 57, 0, 4264.103, 4290.256, 4158.462, 4230.256, 4230.769, 0, 0, []
1629649075.7641, 58, 0, 4261.538, 4288.205, 4161.026, 4227.179, 4230.769, 0, 0, []
1629649075.7721, 59, 0, 4264.615, 4295.385, 4159.487, 4223.59, 4235.897, 0, 0, []
1629649075.78, 60, 0, 4266.667, 4291.282, 4152.308, 4224.615, 4231.795, 0, 0, []
1629649075.7879, 61, 0, 4266.154, 4294.872, 4164.103, 4225.641, 4231.795, 0, 0, []
1629649075.7958, 62, 0, 4270.256, 4300, 4163.077, 4218.462, 4237.949, 0, 0, []
1629649075.8038, 63, 0, 4266.667, 4292.308, 4158.462, 4209.744, 4235.897, 0, 0, []
1629649075.8117, 64, 0, 4261.538, 4291.282, 4162.564, 4211.282, 4235.385, 450, 0, []
1629649075.8197, 65, 0, 4269.744, 4296.41, 4157.436, 4212.821, 4239.487, 450, 0, []
1629649075.8275, 66, 0, 4275.385, 4288.718, 4154.872, 4207.692, 4235.385, 16186, 0, []
1629649075.8355, 67, 0, 4274.872, 4277.436, 4138.462, 4205.641, 4233.846, 450, 0, []
1629649075.8434, 68, 0, 4292.308, 4274.872, 4131.282, 4204.615, 4252.308, 16158, 0, []
1629649075.8512, 69, 0, 4326.154, 4282.051, 4138.974, 4196.923, 4280, 450, 0, []
1629649075.8591, 70, 0, 4363.59, 4288.718, 4123.077, 4194.872, 4316.923, 16100, 0, []
1629649075.8668, 71, 0, 4407.692, 4282.564, 4121.026, 4208.718, 4365.641, 450, 0, []
1629649075.8747, 72, 0, 4435.385, 4277.436, 4118.462, 4204.615, 4389.231, 450, 0, []
1629649075.8825, 73, 0, 4441.026, 4274.359, 4109.744, 4185.641, 4389.744, 16157, 0, []
1629649075.8904, 74, 0, 4451.795, 4267.179, 4116.923, 4187.692, 4400.513, 450, 0, []
1629649075.8982, 75, 0, 4466.154, 4274.872, 4125.641, 4206.154, 4418.462, 16195, 0, []
1629649075.906, 76, 0, 4466.154, 4290.769, 4144.615, 4224.615, 4424.615, 450, 0, []
1629649075.9138, 77, 0, 4451.795, 4286.154, 4142.564, 4227.692, 4416.41, 450, 0, []
1629649075.9217, 78, 0, 4423.59, 4272.308, 4126.154, 4207.692, 4390.256, 450, 0, []
1629649075.9295, 79, 0, 4391.282, 4267.692, 4123.077, 4186.667, 4357.436, 16195, 0, []
1629649075.9375, 80, 0, 4380, 4263.077, 4112.821, 4193.333, 4348.718, 450, 0, []
1629649075.9453, 81, 0, 4376.923, 4261.538, 4122.051, 4208.718, 4349.231, 450, 0, []
1629649075.9533, 82, 0, 4358.462, 4269.744, 4130.769, 4199.487, 4329.231, 450, 0, []
1629649075.9612, 83, 0, 4340, 4278.462, 4130.769, 4190.256, 4305.128, 16195, 0, []
1629649075.9692, 84, 0, 4329.744, 4279.487, 4144.615, 4198.974, 4294.359, 450, 0, []
1629649075.9771, 85, 0, 4321.026, 4272.308, 4139.487, 4200.513, 4290.256, 450, 0, []
1629649075.985, 86, 0, 4321.026, 4273.846, 4140, 4206.667, 4296.923, 450, 0, []
1629649075.9929, 87, 0, 4328.205, 4288.205, 4163.077, 4221.538, 4310.256, 16195, 0, []
1629649076.0009, 88, 0, 4322.051, 4287.692, 4172.821, 4213.846, 4297.949, 450, 0, []
1629649076.0088, 89, 0, 4309.231, 4281.026, 4164.615, 4196.923, 4278.462, 450, 0, []
1629649076.0166, 90, 0, 4315.897, 4300.513, 4163.59, 4205.641, 4288.205, 450, 0, []
1629649076.0245, 91, 0, 4320, 4311.282, 4182.051, 4214.359, 4290.256, 16195, 0, []
1629649076.0322, 92, 0, 4303.59, 4289.231, 4172.821, 4198.974, 4267.692, 450, 0, []
1629649076.0401, 93, 0, 4292.821, 4280.513, 4151.795, 4192.821, 4257.436, 450, 0, []
1629649076.0479, 94, 0, 4289.744, 4290.769, 4167.692, 4203.077, 4257.949, 450, 0, []
1629649076.0558, 95, 0, 4279.487, 4282.051, 4162.564, 4200.513, 4249.231, 16195, 0, []
1629649076.0636, 96, 0, 4272.821, 4279.487, 4152.308, 4193.846, 4241.026, 450, 0, []
1629649076.0714, 97, 0, 4283.59, 4309.231, 4171.282, 4207.692, 4250.256, 450, 0, []
1629649076.0792, 98, 0, 4315.897, 4339.487, 4192.308, 4242.051, 4284.103, 450, 0, []
1629649076.0872, 99, 0, 4352.308, 4360, 4225.128, 4281.026, 4324.103, 16195, 0, []
1629649076.0951, 100, 0, 4361.538, 4371.282, 4235.385, 4295.385, 4328.718, 450, 0, []
1629649076.1031, 101, 0, 4350.256, 4358.974, 4221.538, 4281.026, 4310.256, 450, 0, []
1629649076.1109, 102, 0, 4352.308, 4342.051, 4210.769, 4266.154, 4308.205, 450, 0, []
1629649076.1189, 103, 0, 4352.308, 4333.846, 4201.026, 4261.026, 4309.744, 16195, 0, []
1629649076.1268, 104, 0, 4334.359, 4331.795, 4211.282, 4261.538, 4298.974, 450, 0, []
1629649076.1348, 105, 0, 4326.667, 4330.256, 4213.846, 4263.077, 4289.744, 450, 0, []
1629649076.1427, 106, 0, 4328.205, 4330.769, 4210.769, 4262.051, 4287.692, 450, 0, []
1629649076.1504, 107, 0, 4317.436, 4329.231, 4209.231, 4261.026, 4283.077, 16195, 0, []
1629649076.1583, 108, 0, 4303.077, 4319.487, 4191.795, 4253.333, 4268.205, 450, 0, []
1629649076.1661, 109, 0, 4296.41, 4315.385, 4191.795, 4244.615, 4250.769, 450, 0, []
1629649076.174, 110, 0, 4286.154, 4311.795, 4189.231, 4235.897, 4243.077, 450, 0, []
1629649076.1818, 111, 0, 4276.923, 4301.026, 4171.282, 4232.821, 4241.538, 16195, 0, []
1629649076.1896, 112, 0, 4276.923, 4292.308, 4162.051, 4235.897, 4239.487, 450, 0, []
1629649076.1974, 113, 0, 4275.385, 4294.359, 4153.846, 4231.282, 4237.436, 450, 0, []
1629649076.2053, 114, 0, 4265.641, 4300.513, 4167.692, 4221.538, 4234.359, 450, 0, []
1629649076.2131, 115, 0, 4249.744, 4284.615, 4174.359, 4216.41, 4222.564, 16195, 0, []
1629649076.221, 116, 0, 4230.769, 4256.923, 4158.974, 4207.692, 4204.103, 450, 0, []
1629649076.2288, 117, 0, 4227.179, 4258.974, 4163.59, 4200.513, 4201.026, 450, 0, []
1629649076.2367, 118, 0, 4243.59, 4279.487, 4169.231, 4208.718, 4217.949, 450, 0, []
1629649076.2446, 119, 0, 4248.205, 4269.231, 4172.308, 4213.333, 4221.538, 16195, 0, []
1629649076.2526, 120, 0, 4227.692, 4251.282, 4162.564, 4195.385, 4202.564, 450, 0, []
1629649076.2605, 121, 0, 4214.359, 4268.718, 4154.872, 4183.59, 4191.795, 450, 0, []
1629649076.2685, 122, 0, 4221.538, 4286.154, 4169.744, 4191.795, 4195.385, 450, 0, []
1629649076.2763, 123, 0, 4212.821, 4257.949, 4157.436, 4181.538, 4178.462, 16195, 0, []
1629649076.2843, 124, 0, 4174.872, 4211.282, 4133.333, 4142.564, 4138.462, 450, 0, []
1629649076.2922, 125, 0, 4141.026, 4196.923, 4114.359, 4111.795, 4104.615, 450, 0, []
1629649076.3002, 126, 0, 4135.897, 4197.436, 4100, 4110.256, 4100, 450, 0, []
1629649076.3081, 127, 0, 4145.128, 4187.692, 4105.641, 4122.051, 4110.769, 16195, 0, []
1629649076.3158, 128, 0, 4138.974, 4187.692, 4098.974, 4120, 4110.256, 450, 0, []
1629649076.3237, 0, 0, 4122.564, 4195.897, 4096.41, 4110.256, 4101.538, 450, 0, []
1629649076.3315, 1, 0, 4123.077, 4188.718, 4100.513, 4114.872, 4103.077, 450, 0, []
1629649076.3394, 2, 0, 4134.359, 4179.487, 4093.333, 4123.59, 4110.256, 16186, 0, []
1629649076.3472, 3, 0, 4130.256, 4181.538, 4100.513, 4115.385, 4109.744, 450, 0, []
1629649076.355, 4, 0, 4123.077, 4185.641, 4095.897, 4102.051, 4105.641, 16164, 0, []
1629649076.3628, 5, 0, 4132.821, 4189.231, 4093.333, 4107.692, 4112.821, 450, 0, []
1629649076.3708, 6, 0, 4146.154, 4189.231, 4104.103, 4118.974, 4125.128, 16098, 0, []
1629649076.3787, 7, 0, 4144.615, 4191.282, 4093.846, 4112.821, 4127.179, 450, 0, []
1629649076.3867, 8, 0, 4136.41, 4195.385, 4088.205, 4107.692, 4122.051, 450, 0, []
1629649076.3945, 9, 0, 4137.949, 4190.256, 4086.154, 4114.359, 4121.026, 16157, 0, []
1629649076.4025, 10, 0, 4140.513, 4179.487, 4088.205, 4118.974, 4123.077, 450, 0, []
1629649076.4104, 11, 0, 4130.256, 4184.615, 4095.897, 4110.256, 4122.564, 16202, 0, []
1629649076.4184, 12, 0, 4122.051, 4196.923, 4093.333, 4102.051, 4121.026, 450, 0, []
1629649076.4263, 13, 0, 4130.256, 4196.923, 4103.077, 4114.872, 4125.128, 450, 0, []
1629649076.4342, 14, 0, 4139.487, 4194.872, 4103.59, 4124.103, 4132.821, 450, 0, []
1629649076.4421, 15, 0, 4133.846, 4188.718, 4097.949, 4113.333, 4128.718, 16202, 0, []
1629649076.4501, 16, 0, 4134.359, 4177.436, 4106.667, 4112.308, 4128.205, 0, 0, []
1629649076.458, 17, 0, 4146.154, 4177.949, 4105.641, 4122.051, 4138.974, 0, 0, []
1629649076.466, 18, 0, 4150.256, 4196.923, 4108.205, 4116.41, 4137.949, 0, 0, []
1629649076.4739, 19, 0, 4146.667, 4204.615, 4101.538, 4107.692, 4130.256, 0, 0, []
1629649076.4816, 20, 0, 4145.128, 4189.744, 4100, 4116.923, 4133.333, 0, 0, []
1629649076.4895, 21, 0, 4151.282, 4187.692, 4117.949, 4129.744, 4140, 0, 0, []
1629649076.4973, 22, 0, 4150.769, 4190.256, 4104.615, 4122.051, 4136.923, 0, 0, []
1629649076.5052, 23, 0, 4138.974, 4183.077, 4090.769, 4108.205, 4129.744, 0, 0, []
1629649076.513, 24, 0, 4137.949, 4178.974, 4096.923, 4109.744, 4129.231, 0, 0, []
1629649076.5208, 25, 0, 4150.769, 4177.436, 4103.59, 4120, 4136.923, 0, 0, []
1629649076.5286, 26, 0, 4156.41, 4183.59, 4112.308, 4123.077, 4139.487, 0, 0, []
1629649076.5365, 27, 0, 4147.692, 4193.333, 4098.462, 4113.846, 4132.308, 0, 0, []
1629649076.5443, 28, 0, 4145.641, 4189.744, 4095.897, 4112.821, 4133.846, 0, 0, []
1629649076.5523, 29, 0, 4156.41, 4179.487, 4097.949, 4121.026, 4142.051, 0, 0, []
1629649076.5601, 30, 0, 4171.282, 4183.59, 4077.436, 4115.385, 4145.641, 0, 0, []
1629649076.5681, 31, 0, 4178.974, 4188.205, 4071.795, 4102.564, 4153.846, 0, 0, []
1629649076.576, 32, 0, 4202.564, 4183.59, 4075.897, 4100.513, 4185.641, 0, 0, []
1629649076.584, 33, 0, 4264.615, 4180.513, 4088.718, 4109.231, 4241.026, 0, 0, []
1629649076.5919, 34, 0, 4316.923, 4181.538, 4092.308, 4113.333, 4281.026, 0, 0, []
1629649076.5998, 35, 0, 4337.949, 4183.59, 4078.462, 4108.205, 4293.846, 0, 0, []
1629649076.6077, 36, 0, 4361.026, 4181.538, 4078.462, 4103.077, 4310.256, 0, 0, []
1629649076.6155, 37, 0, 4382.564, 4179.487, 4070.769, 4098.462, 4326.667, 0, 0, []
1629649076.6234, 38, 0, 4381.538, 4183.59, 4077.949, 4106.154, 4330.256, 0, 0, []
1629649076.6312, 39, 0, 4366.667, 4183.59, 4095.897, 4116.923, 4323.077, 0, 0, []
1629649076.639, 40, 0, 4340.513, 4176.923, 4080.513, 4102.564, 4298.974, 0, 0, []
1629649076.6468, 41, 0, 4305.641, 4176.41, 4072.308, 4084.103, 4262.564, 0, 0, []
1629649076.6547, 42, 0, 4284.615, 4171.282, 4075.385, 4093.846, 4248.718, 0, 0, []
1629649076.6625, 43, 0, 4272.308, 4155.897, 4072.821, 4107.692, 4242.564, 0, 0, []
1629649076.6704, 44, 0, 4250.256, 4156.923, 4067.179, 4097.436, 4221.538, 0, 0, []
1629649076.6782, 45, 0, 4228.718, 4166.667, 4057.949, 4088.718, 4202.051, 0, 0, []
1629649076.686, 46, 0, 4213.333, 4167.692, 4067.179, 4090.256, 4185.128, 0, 0, []
1629649076.6938, 47, 0, 4195.897, 4167.179, 4072.308, 4090.256, 4170.769, 0, 0, []
1629649076.7018, 48, 0, 4181.538, 4171.795, 4072.821, 4092.308, 4165.128, 0, 0, []
1629649076.7097, 49, 0, 4179.487, 4171.795, 4075.897, 4093.846, 4161.026, 0, 0, []
1629649076.7177, 50, 0, 4184.103, 4167.692, 4067.692, 4094.872, 4154.872, 0, 0, []
1629649076.7255, 51, 0, 4180.513, 4173.846, 4080, 4103.59, 4151.795, 0, 0, []
1629649076.7335, 52, 0, 4164.615, 4176.41, 4085.641, 4104.103, 4144.103, 0, 0, []
1629649076.7414, 53, 0, 4149.744, 4174.872, 4073.333, 4093.333, 4131.282, 0, 0, []
1629649076.7494, 54, 0, 4149.744, 4173.846, 4075.385, 4093.846, 4126.667, 0, 0, []
1629649076.7573, 55, 0, 4146.667, 4163.59, 4068.205, 4094.359, 4120, 0, 0, []
1629649076.7652, 56, 0, 4125.641, 4158.462, 4063.59, 4080, 4101.538, 0, 0, []
1629649076.7731, 57, 0, 4109.231, 4163.59, 4057.436, 4065.641, 4087.179, 0, 0, []
1629649076.7809, 58, 0, 4111.282, 4158.974, 4047.179, 4057.436, 4088.718, 0, 0, []
1629649076.7888, 59, 0, 4112.821, 4148.718, 4052.821, 4056.41, 4089.744, 0, 0, []
1629649076.7966, 60, 0, 4107.179, 4149.744, 4046.667, 4064.103, 4078.462, 0, 0, []
1629649076.8044, 61, 0, 4103.077, 4153.333, 4051.795, 4077.949, 4074.872, 0, 0, []
1629649076.8122, 62, 0, 4107.179, 4159.487, 4054.359, 4090.769, 4091.282, 0, 0, []
1629649076.8201, 63, 0, 4123.59, 4165.641, 4046.154, 4102.051, 4108.718, 0, 0, []
1629649076.8279, 64, 0, 4133.333, 4164.615, 4058.974, 4105.641, 4109.744, 450, 0, []
1629649076.8358, 65, 0, 4125.128, 4156.923, 4053.846, 4098.974, 4100, 450, 0, []
1629649076.8435, 66, 0, 4120, 4150.256, 4041.026, 4096.923, 4096.41, 16186, 0, []
1629649076.8514, 67, 0, 4123.077, 4163.077, 4034.872, 4095.385, 4096.923, 450, 0, []
1629649076.8592, 68, 0, 4115.385, 4173.333, 4023.077, 4081.026, 4088.718, 16165, 0, []
1629649076.8672, 69, 0, 4103.59, 4147.692, 4029.231, 4072.308, 4078.974, 450, 0, []
1629649076.8751, 70, 0, 4103.077, 4141.026, 4033.333, 4078.974, 4080, 16104, 0, []
1629649076.883, 71, 0, 4107.179, 4165.128, 4032.308, 4083.077, 4080.513, 450, 0, []
1629649076.8909, 72, 0, 4105.641, 4151.282, 4027.692, 4075.897, 4077.436, 450, 0, []
1629649076.8989, 73, 0, 4103.077, 4130.769, 4012.821, 4067.692, 4074.872, 16157, 0, []
1629649076.9068, 74, 0, 4106.154, 4147.179, 4021.026, 4071.795, 4078.462, 450, 0, []
1629649076.9148, 75, 0, 4108.718, 4148.718, 4025.128, 4078.462, 4082.051, 16202, 0, []
1629649076.9227, 76, 0, 4105.128, 4134.359, 4024.103, 4077.436, 4077.949, 450, 0, []
1629649076.9305, 77, 0, 4107.179, 4146.667, 4029.744, 4072.821, 4075.897, 450, 0, []
1629649076.9384, 78, 0, 4114.872, 4151.282, 4027.692, 4072.821, 4082.051, 450, 0, []
1629649076.9462, 79, 0, 4128.718, 4143.59, 4041.026, 4086.667, 4094.872, 16202, 0, []
1629649076.9541, 80, 0, 4146.667, 4163.59, 4040, 4094.359, 4105.128, 450, 0, []
1629649076.9619, 81, 0, 4153.333, 4171.282, 4026.667, 4091.795, 4108.205, 450, 0, []
1629649076.9697, 82, 0, 4146.667, 4155.897, 4029.744, 4088.718, 4106.667, 450, 0, []
1629649076.9775, 83, 0, 4150.769, 4158.974, 4026.667, 4085.128, 4109.231, 16202, 0, []
1629649076.9854, 84, 0, 4172.821, 4164.615, 4033.333, 4085.128, 4126.154, 450, 0, []
1629649076.9932, 85, 0, 4193.333, 4151.795, 4034.872, 4088.205, 4151.282, 450, 0, []
1629649077.0011, 86, 0, 4215.385, 4157.436, 4034.872, 4092.308, 4174.359, 450, 0, []
1629649077.0088, 87, 0, 4252.821, 4173.846, 4046.154, 4091.282, 4197.436, 16202, 0, []
1629649077.0168, 88, 0, 4298.462, 4168.205, 4031.795, 4087.179, 4231.795, 450, 0, []
1629649077.0247, 89, 0, 4329.744, 4163.59, 4024.103, 4087.692, 4264.103, 450, 0, []
1629649077.0327, 90, 0, 4345.128, 4170.769, 4028.205, 4089.231, 4276.923, 450, 0, []
1629649077.0406, 91, 0, 4348.205, 4172.308, 4021.538, 4084.615, 4269.231, 16202, 0, []
1629649077.0485, 92, 0, 4340.513, 4172.308, 4018.974, 4080, 4252.821, 450, 0, []
1629649077.0564, 93, 0, 4334.359, 4173.333, 4016.923, 4082.564, 4244.615, 450, 0, []
1629649077.0644, 94, 0, 4322.564, 4174.359, 4028.205, 4084.103, 4238.462, 450, 0, []
1629649077.0723, 95, 0, 4301.538, 4182.564, 4023.59, 4076.41, 4217.436, 16202, 0, []
1629649077.0803, 96, 0, 4287.692, 4182.051, 4006.667, 4071.282, 4196.41, 450, 0, []
1629649077.0881, 97, 0, 4279.487, 4169.231, 4013.846, 4080.513, 4186.667, 450, 0, []
1629649077.0959, 98, 0, 4255.897, 4168.205, 4002.564, 4080.513, 4167.692, 450, 0, []
1629649077.1038, 99, 0, 4218.974, 4164.103, 3984.103, 4055.897, 4131.795, 16202, 0, []
1629649077.1116, 100, 0, 4196.923, 4157.949, 3991.282, 4044.615, 4110.256, 450, 0, []
1629649077.1195, 101, 0, 4195.385, 4163.077, 4013.846, 4067.179, 4113.333, 450, 0, []
1629649077.1272, 102, 0, 4201.538, 4165.641, 4032.821, 4086.154, 4124.103, 450, 0, []
1629649077.1351, 103, 0, 4198.462, 4159.487, 4012.308, 4077.436, 4122.051, 16202, 0, []
1629649077.1429, 104, 0, 4184.103, 4152.821, 4001.538, 4065.641, 4108.205, 450, 0, []
1629649077.1509, 105, 0, 4169.231, 4148.205, 4018.462, 4066.667, 4096.923, 450, 0, []
1629649077.1588, 106, 0, 4156.41, 4146.154, 4011.795, 4065.641, 4083.59, 450, 0, []
1629649077.1668, 107, 0, 4152.821, 4154.359, 4018.974, 4069.744, 4079.487, 16202, 0, []
1629649077.1746, 108, 0, 4153.333, 4163.077, 4041.538, 4080.513, 4086.667, 450, 0, []
1629649077.1826, 109, 0, 4150.256, 4167.179, 4064.103, 4088.205, 4086.667, 450, 0, []
1629649077.1905, 110, 0, 4148.718, 4174.359, 4075.897, 4098.974, 4082.051, 450, 0, []
1629649077.1985, 111, 0, 4147.179, 4169.231, 4065.641, 4105.128, 4079.487, 16202, 0, []
1629649077.2064, 112, 0, 4145.641, 4156.41, 4072.308, 4101.026, 4081.026, 450, 0, []
1629649077.2143, 113, 0, 4147.692, 4153.846, 4075.385, 4091.795, 4085.128, 450, 0, []
1629649077.2222, 114, 0, 4153.333, 4167.692, 4078.974, 4093.333, 4090.256, 450, 0, []
1629649077.2302, 115, 0, 4153.333, 4172.821, 4091.282, 4102.051, 4091.795, 16202, 0, []
1629649077.2381, 116, 0, 4151.795, 4163.59, 4087.179, 4103.077, 4091.282, 450, 0, []
1629649077.2461, 117, 0, 4154.359, 4169.231, 4093.333, 4105.128, 4092.308, 450, 0, []
1629649077.2539, 118, 0, 4154.872, 4177.949, 4089.231, 4108.205, 4091.795, 450, 0, []
1629649077.2617, 119, 0, 4155.897, 4170.769, 4078.974, 4105.641, 4094.872, 16202, 0, []
1629649077.2696, 120, 0, 4151.795, 4166.667, 4087.179, 4103.077, 4090.769, 450, 0, []
1629649077.2774, 121, 0, 4142.564, 4166.667, 4084.103, 4101.538, 4081.538, 450, 0, []
1629649077.2853, 122, 0, 4144.103, 4156.923, 4084.103, 4098.462, 4084.615, 450, 0, []
1629649077.293, 123, 0, 4154.359, 4154.359, 4086.667, 4096.41, 4093.846, 16202, 0, []
1629649077.3009, 124, 0, 4155.897, 4170.256, 4087.692, 4097.949, 4095.385, 450, 0, []
1629649077.3087, 125, 0, 4144.103, 4177.949, 4090.256, 4091.795, 4085.641, 450, 0, []
1629649077.3166, 126, 0, 4133.846, 4160.513, 4073.846, 4080, 4072.308, 450, 0, []
1629649077.3244, 127, 0, 4134.872, 4149.231, 4079.487, 4092.821, 4073.846, 16202, 0, []
1629649077.3323, 128, 0, 4142.051, 4160, 4094.872, 4111.282, 4090.769, 450, 0, []
1629649077.3402, 0, 0, 4142.564, 4158.462, 4086.667, 4098.974, 4098.462, 450, 0, []
1629649077.3482, 1, 0, 4134.359, 4151.282, 4088.718, 4083.59, 4089.231, 450, 0, []
1629649077.3561, 2, 0, 4126.667, 4163.077, 4086.154, 4081.538, 4077.949, 16186, 0, []
