Timestamp, COUNTER, INTERPOLATED, AF3, T7, Pz, T8, AF4, RAW_CQ, MARKER_HARDWARE, MARKERS
1632408579.9641, 56, 0, 4144.615, 4116.923, 4021.538, 4164.103, 4122.051, 0, 0, []
1632408579.9721, 57, 0, 4132.308, 4056.923, 4016.923, 4155.385, 4113.333, 0, 0, []
1632408579.98, 58, 0, 4139.487, 3664.615, 4008.718, 4143.59, 4110.256, 0, 0, []
1632408579.988, 59, 0, 4161.538, 3717.436, 4018.974, 4140, 4112.821, 0, 0, []
1632408579.9959, 60, 0, 4172.308, 3981.538, 4006.667, 4153.333, 4108.718, 0, 0, []
1632408580.0038, 61, 0, 4156.41, 4212.821, 3986.667, 4164.615, 4099.487, 0, 0, []
1632408580.0117, 62, 0, 4137.436, 4221.538, 3992.821, 4161.026, 4105.128, 0, 0, []
1632408580.0197, 63, 0, 4139.487, 3737.436, 4015.385, 4165.641, 4122.564, 0, 0, []
1632408580.0276, 64, 0, 4148.205, 3278.974, 4036.41, 4180.513, 4134.359, 450, 0, []
1632408580.0354, 65, 0, 4134.359, 3104.615, 4028.205, 4166.154, 4125.641, 450, 0, []
1632408580.0432, 66, 0, 4108.205, 2921.026, 4015.897, 4137.436, 4105.128, 16172, 0, []
1632408580.051, 67, 0, 4107.692, 3032.821, 4007.692, 4134.872, 4102.051, 450, 0, []
1632408580.0589, 68, 0, 4128.205, 3567.179, 3994.359, 4142.564, 4107.692, 16171, 0, []
1632408580.0667, 69, 0, 4132.308, 3823.077, 3995.385, 4133.333, 4091.282, 450, 0, []
1632408580.0746, 70, 0, 4127.692, 3509.744, 3991.795, 4126.667, 4071.795, 16120, 0, []
1632408580.0823, 71, 0, 4134.872, 3165.128, 3988.205, 4143.077, 4080.513, 450, 0, []
1632408580.0902, 72, 0, 4142.564, 3124.615, 3990.769, 4160.513, 4095.385, 450, 0, []
1632408580.098, 73, 0, 4139.487, 3170.769, 3983.59, 4152.308, 4098.462, 16147, 0, []
1632408580.1059, 74, 0, 4132.308, 3225.641, 3986.154, 4143.077, 4105.641, 450, 0, []
1632408580.1137, 75, 0, 4129.744, 3365.128, 3994.872, 4147.692, 4109.744, 16200, 0, []
1632408580.1216, 76, 0, 4132.821, 3392.308, 4006.667, 4145.128, 4108.718, 450, 0, []
1632408580.1295, 77, 0, 4137.436, 3327.179, 4013.333, 4147.692, 4120.513, 450, 0, []
1632408580.1375, 78, 0, 4144.615, 3487.692, 4009.231, 4168.205, 4136.41, 450, 0, []
1632408580.1454, 79, 0, 4153.846, 3785.641, 4015.385, 4170.769, 4145.128, 16200, 0, []
1632408580.1534, 80, 0, 4156.41, 3896.923, 4012.821, 4146.154, 4136.923, 450, 0, []
1632408580.1612, 81, 0, 4150.769, 3891.282, 4006.154, 4136.923, 4111.795, 450, 0, []
1632408580.1692, 82, 0, 4137.949, 3878.462, 3996.923, 4150.256, 4089.744, 450, 0, []
1632408580.1771, 83, 0, 4122.564, 3725.641, 3970.256, 4154.872, 4083.077, 16200, 0, []
1632408580.1851, 84, 0, 4122.564, 3492.821, 3971.795, 4153.333, 4093.846, 450, 0, []
1632408580.193, 85, 0, 4136.41, 3414.359, 3989.744, 4149.744, 4110.769, 450, 0, []
1632408580.201, 86, 0, 4143.077, 3498.974, 4002.051, 4150.256, 4121.026, 450, 0, []
1632408580.2088, 87, 0, 4138.462, 3558.462, 4014.872, 4153.333, 4129.231, 16200, 0, []
1632408580.2166, 88, 0, 4128.205, 3596.923, 4016.923, 4151.795, 4136.923, 450, 0, []
1632408580.2245, 89, 0, 4123.077, 3677.949, 4024.103, 4153.333, 4128.205, 450, 0, []
1632408580.2323, 90, 0, 4125.128, 3672.308, 4017.949, 4150.769, 4107.179, 450, 0, []
1632408580.2402, 91, 0, 4128.205, 3572.308, 3997.436, 4141.026, 4094.872, 16200, 0, []
1632408580.2479, 92, 0, 4130.769, 3569.231, 3988.205, 4137.436, 4085.128, 450, 0, []
1632408580.2558, 93, 0, 4127.692, 3637.949, 3973.846, 4145.128, 4075.385, 450, 0, []
1632408580.2636, 94, 0, 4127.692, 3696.923, 3976.41, 4161.538, 4085.128, 450, 0, []
1632408580.2715, 95, 0, 4138.974, 3811.795, 3991.282, 4176.923, 4108.718, 16200, 0, []
1632408580.2793, 96, 0, 4143.59, 3944.615, 3993.846, 4175.385, 4120, 450, 0, []
1632408580.2872, 97, 0, 4129.231, 3997.436, 4003.59, 4169.744, 4122.564, 450, 0, []
1632408580.2951, 98, 0, 4115.897, 3950.256, 4007.179, 4175.385, 4121.026, 450, 0, []
1632408580.3031, 99, 0, 4120.513, 3856.923, 4007.692, 4175.897, 4114.872, 16200, 0, []
1632408580.311, 100, 0, 4136.923, 3818.974, 4008.718, 4166.154, 4114.872, 450, 0, []
1632408580.319, 101, 0, 4146.667, 3890.769, 3999.487, 4167.179, 4114.872, 450, 0, []
1632408580.3268, 102, 0, 4142.564, 3882.564, 3995.385, 4171.795, 4095.385, 450, 0, []
1632408580.3348, 103, 0, 4139.487, 3719.487, 3994.359, 4168.205, 4085.641, 16200, 0, []
1632408580.3427, 104, 0, 4143.59, 3720, 4002.051, 4169.744, 4107.179, 450, 0, []
1632408580.3507, 105, 0, 4142.051, 3890.769, 4003.59, 4174.872, 4120, 450, 0, []
1632408580.3586, 106, 0, 4127.179, 3862.564, 3994.872, 4168.718, 4103.59, 450, 0, []
1632408580.3663, 107, 0, 4111.282, 3667.179, 4002.051, 4157.436, 4093.846, 16200, 0, []
1632408580.3742, 108, 0, 4112.308, 3681.538, 4004.615, 4157.436, 4100.513, 450, 0, []
1632408580.382, 109, 0, 4133.333, 3767.179, 4010.256, 4164.103, 4110.769, 450, 0, []
1632408580.3899, 110, 0, 4154.359, 3656.41, 4013.846, 4171.282, 4113.333, 450, 0, []
1632408580.3977, 111, 0, 4163.077, 3630.769, 3999.487, 4180.513, 4105.641, 16200, 0, []
1632408580.4055, 112, 0, 4170.769, 3808.718, 4004.615, 4189.744, 4108.718, 450, 0, []
1632408580.4133, 113, 0, 4176.41, 3949.744, 4020, 4195.385, 4132.821, 450, 0, []
1632408580.4212, 114, 0, 4160.513, 3979.487, 4026.154, 4191.282, 4140, 450, 0, []
1632408580.429, 115, 0, 4138.974, 3963.59, 4026.154, 4184.615, 4120.513, 16200, 0, []
1632408580.4369, 116, 0, 4140.513, 3946.667, 4025.641, 4186.667, 4113.333, 450, 0, []
1632408580.4446, 117, 0, 4153.846, 3978.462, 4034.872, 4192.821, 4126.667, 450, 0, []
1632408580.4526, 118, 0, 4161.026, 4005.128, 4026.154, 4195.897, 4126.667, 450, 0, []
1632408580.4605, 119, 0, 4170.769, 3959.487, 4013.846, 4204.615, 4111.282, 16200, 0, []
1632408580.4685, 120, 0, 4176.923, 4005.128, 4016.923, 4208.718, 4112.308, 450, 0, []
1632408580.4764, 121, 0, 4156.923, 4180.513, 4007.179, 4193.333, 4118.462, 450, 0, []
1632408580.4843, 122, 0, 4130.256, 4213.333, 4019.487, 4185.641, 4111.282, 450, 0, []
1632408580.4922, 123, 0, 4130.256, 4099.487, 4040.513, 4189.744, 4110.256, 16200, 0, []
1632408580.5002, 124, 0, 4149.231, 4154.359, 4031.795, 4175.385, 4121.538, 450, 0, []
1632408580.5081, 125, 0, 4165.128, 4145.641, 4022.564, 4155.385, 4126.154, 450, 0, []
1632408580.5161, 126, 0, 4171.282, 3845.128, 4016.41, 4165.128, 4116.41, 450, 0, []
1632408580.5239, 127, 0, 4169.744, 3663.077, 4016.923, 4189.744, 4105.128, 16200, 0, []
1632408580.5317, 128, 0, 4166.154, 3728.718, 4016.923, 4190.256, 4106.667, 450, 0, []
1632408580.5396, 0, 0, 4168.205, 3809.231, 4009.231, 4183.077, 4127.179, 450, 0, []
1632408580.5474, 1, 0, 4172.308, 3845.641, 4010.256, 4196.41, 4150.256, 450, 0, []
1632408580.5553, 2, 0, 4176.41, 3828.718, 4019.487, 4198.974, 4168.205, 16189, 0, []
1632408580.563, 3, 0, 4206.667, 3889.231, 4036.41, 4184.615, 4188.718, 450, 0, []
1632408580.5709, 4, 0, 4268.205, 4073.333, 4023.59, 4188.205, 4215.897, 16186, 0, []
1632408580.5787, 5, 0, 4313.333, 4051.795, 4000.513, 4202.051, 4258.462, 450, 0, []
1632408580.5866, 6, 0, 4328.718, 3923.59, 4025.128, 4194.359, 4306.667, 16115, 0, []
1632408580.5944, 7, 0, 4357.949, 4123.59, 4026.667, 4173.846, 4326.667, 450, 0, []
1632408580.6022, 8, 0, 4380.513, 4223.59, 4001.026, 4170.256, 4321.538, 450, 0, []
1632408580.61, 9, 0, 4357.949, 4015.385, 4015.385, 4173.333, 4323.077, 16155, 0, []
1632408580.618, 10, 0, 4333.846, 4023.077, 4029.744, 4164.103, 4313.846, 450, 0, []
1632408580.6259, 11, 0, 4336.41, 4086.667, 4016.41, 4163.077, 4283.59, 16181, 0, []
1632408580.6339, 12, 0, 4322.564, 3921.026, 4011.282, 4169.231, 4269.744, 450, 0, []
1632408580.6417, 13, 0, 4289.231, 3895.897, 4033.333, 4160, 4266.667, 450, 0, []
1632408580.6497, 14, 0, 4280, 4068.205, 4029.231, 4151.282, 4236.923, 450, 0, []
1632408580.6576, 15, 0, 4284.103, 4069.231, 4006.154, 4167.179, 4205.641, 16181, 0, []
1632408580.6656, 16, 0, 4261.538, 4073.846, 4022.564, 4182.051, 4208.205, 0, 0, []
1632408580.6735, 17, 0, 4220, 4227.692, 4027.179, 4166.667, 4201.538, 0, 0, []
1632408580.6812, 18, 0, 4205.641, 4207.692, 4018.974, 4148.718, 4170.256, 0, 0, []
1632408580.6891, 19, 0, 4215.897, 4152.308, 4024.615, 4157.949, 4150.769, 0, 0, []
1632408580.6969, 20, 0, 4221.026, 4214.359, 4021.538, 4181.026, 4155.897, 0, 0, []
1632408580.7048, 21, 0, 4212.821, 4156.923, 4030.769, 4183.077, 4173.333, 0, 0, []
1632408580.7126, 22, 0, 4199.487, 4021.538, 4044.103, 4168.718, 4176.923, 0, 0, []
1632408580.7204, 23, 0, 4206.154, 4125.128, 4047.692, 4168.718, 4159.487, 0, 0, []
1632408580.7282, 24, 0, 4218.974, 4392.308, 4034.359, 4174.872, 4136.923, 0, 0, []
1632408580.7361, 25, 0, 4207.179, 4412.308, 4011.795, 4170.769, 4135.385, 0, 0, []
1632408580.7439, 26, 0, 4183.59, 4190.769, 4022.051, 4168.718, 4143.077, 0, 0, []
1632408580.7519, 27, 0, 4175.897, 4149.231, 4038.974, 4167.179, 4135.897, 0, 0, []
1632408580.7597, 28, 0, 4180.513, 4233.333, 4030.769, 4153.846, 4122.051, 0, 0, []
1632408580.7677, 29, 0, 4188.205, 4109.744, 4026.154, 4149.744, 4113.846, 0, 0, []
1632408580.7756, 30, 0, 4186.667, 4001.538, 4018.974, 4163.59, 4101.026, 0, 0, []
1632408580.7836, 31, 0, 4172.821, 4054.359, 4012.308, 4161.538, 4098.974, 0, 0, []
1632408580.7915, 32, 0, 4165.641, 4012.308, 4014.872, 4157.436, 4120, 0, 0, []
1632408580.7994, 33, 0, 4158.974, 3804.615, 4020, 4166.154, 4124.615, 0, 0, []
1632408580.8073, 34, 0, 4149.231, 3588.718, 4025.641, 4160, 4115.897, 0, 0, []
1632408580.8153, 35, 0, 4149.744, 3439.487, 4021.026, 4147.179, 4116.923, 0, 0, []
1632408580.8232, 36, 0, 4158.974, 3344.103, 4022.564, 4148.718, 4107.179, 0, 0, []
1632408580.831, 37, 0, 4166.667, 3309.744, 4026.154, 4156.923, 4094.359, 0, 0, []
1632408580.8388, 38, 0, 4167.692, 3308.718, 4020.513, 4161.026, 4094.872, 0, 0, []
1632408580.8466, 39, 0, 4170.256, 3337.436, 4027.179, 4169.744, 4103.077, 0, 0, []
1632408580.8545, 40, 0, 4170.769, 3350.256, 4025.641, 4172.821, 4109.231, 0, 0, []
1632408580.8623, 41, 0, 4149.231, 3408.205, 4020, 4164.103, 4106.667, 0, 0, []
1632408580.8702, 42, 0, 4122.564, 3569.231, 4016.41, 4156.923, 4100.513, 0, 0, []
1632408580.8779, 43, 0, 4115.897, 3711.282, 4010.769, 4154.359, 4102.051, 0, 0, []
1632408580.8858, 44, 0, 4118.974, 3657.436, 4027.179, 4146.154, 4104.103, 0, 0, []
1632408580.8936, 45, 0, 4132.308, 3406.154, 4035.897, 4136.41, 4103.59, 0, 0, []
1632408580.9016, 46, 0, 4150.256, 3273.846, 4023.59, 4143.077, 4111.795, 0, 0, []
1632408580.9095, 47, 0, 4159.487, 3293.333, 4010.769, 4161.026, 4108.205, 0, 0, []
1632408580.9175, 48, 0, 4165.641, 3197.436, 4009.231, 4173.846, 4090.256, 0, 0, []
1632408580.9253, 49, 0, 4170.769, 3042.564, 4018.974, 4179.487, 4089.744, 0, 0, []
1632408580.9333, 50, 0, 4162.051, 3110.769, 4007.692, 4162.051, 4098.974, 0, 0, []
1632408580.9412, 51, 0, 4153.333, 3255.385, 3995.385, 4128.718, 4097.949, 0, 0, []
1632408580.9492, 52, 0, 4155.897, 3196.923, 3999.487, 4123.077, 4101.538, 0, 0, []
1632408580.9571, 53, 0, 4152.308, 3116.41, 3994.359, 4144.615, 4107.179, 0, 0, []
1632408580.965, 54, 0, 4148.205, 3096.923, 4009.744, 4167.179, 4108.718, 0, 0, []
1632408580.9729, 55, 0, 4150.256, 3042.564, 4028.718, 4180.513, 4116.41, 0, 0, []
1632408580.9809, 56, 0, 4138.974, 3030.256, 4026.154, 4180.513, 4125.128, 0, 0, []
1632408580.9888, 57, 0, 4111.795, 3024.615, 4018.462, 4161.538, 4110.769, 0, 0, []
1632408580.9966, 58, 0, 4104.615, 2920, 4008.718, 4127.179, 4086.154, 0, 0, []
1632408581.0044, 59, 0, 4130.769, 2894.872, 4014.359, 4101.538, 4090.256, 0, 0, []
1632408581.0122, 60, 0, 4154.359, 2994.359, 4021.538, 4091.795, 4109.744, 0, 0, []
1632408581.0201, 61, 0, 4160, 2978.462, 4025.641, 4103.59, 4108.718, 0, 0, []
1632408581.0279, 62, 0, 4154.359, 3028.205, 4031.795, 4129.744, 4087.692, 0, 0, []
1632408581.0358, 63, 0, 4144.615, 3376.923, 4022.564, 4156.923, 4068.205, 0, 0, []
1632408581.0435, 64, 0, 4136.923, 3549.744, 4017.436, 4174.359, 4064.615, 450, 0, []
1632408581.0515, 65, 0, 4129.744, 3332.308, 4010.256, 4173.846, 4062.564, 450, 0, []
1632408581.0594, 66, 0, 4122.051, 3258.462, 4005.128, 4164.103, 4053.333, 16195, 0, []
1632408581.0674, 67, 0, 4128.205, 3520, 4027.179, 4159.487, 4061.026, 450, 0, []
1632408581.0753, 68, 0, 4142.564, 3575.385, 4037.949, 4162.051, 4086.154, 16204, 0, []
1632408581.0832, 69, 0, 4138.974, 3412.821, 4040.513, 4160.513, 4098.462, 450, 0, []
1632408581.0911, 70, 0, 4123.077, 3557.436, 4054.872, 4155.897, 4095.897, 16116, 0, []
1632408581.0991, 71, 0, 4117.949, 3668.205, 4062.051, 4154.872, 4092.308, 450, 0, []
1632408581.107, 72, 0, 4121.026, 3360, 4056.41, 4146.667, 4089.744, 450, 0, []
1632408581.115, 73, 0, 4117.949, 3114.872, 4037.436, 4131.282, 4088.718, 16139, 0, []
1632408581.1228, 74, 0, 4126.154, 3175.897, 4036.41, 4131.795, 4100.513, 450, 0, []
1632408581.1308, 75, 0, 4145.641, 3278.462, 4042.564, 4154.872, 4115.897, 16190, 0, []
1632408581.1387, 76, 0, 4146.154, 3351.282, 4026.154, 4171.795, 4099.487, 450, 0, []
1632408581.1465, 77, 0, 4129.744, 3461.026, 4014.359, 4169.744, 4066.154, 450, 0, []
1632408581.1544, 78, 0, 4121.026, 3473.846, 4005.641, 4167.692, 4056.923, 450, 0, []
1632408581.1621, 79, 0, 4130.256, 3475.385, 4015.385, 4173.846, 4077.949, 16190, 0, []
1632408581.17, 80, 0, 4142.051, 3478.974, 4035.385, 4173.846, 4102.051, 450, 0, []
1632408581.1778, 81, 0, 4142.051, 3349.231, 4045.128, 4171.282, 4115.897, 450, 0, []
1632408581.1857, 82, 0, 4136.923, 3239.487, 4062.051, 4183.59, 4123.077, 450, 0, []
1632408581.1935, 83, 0, 4134.872, 3311.282, 4056.41, 4192.308, 4125.128, 16190, 0, []
1632408581.2013, 84, 0, 4121.026, 3293.333, 4032.821, 4173.333, 4120, 450, 0, []
1632408581.2091, 85, 0, 4104.615, 3027.692, 4029.744, 4149.744, 4110.256, 450, 0, []
1632408581.2171, 86, 0, 4113.333, 2983.077, 4033.333, 4149.744, 4108.718, 450, 0, []
1632408581.225, 87, 0, 4127.179, 3100, 4030.769, 4152.308, 4111.282, 16190, 0, []
1632408581.233, 88, 0, 4126.667, 2933.333, 4023.59, 4146.667, 4106.667, 450, 0, []
1632408581.2408, 89, 0, 4123.59, 2838.974, 4027.179, 4152.308, 4096.923, 450, 0, []
1632408581.2488, 90, 0, 4130.769, 2943.077, 4035.897, 4174.872, 4090.769, 450, 0, []
1632408581.2567, 91, 0, 4138.974, 2901.026, 4029.744, 4185.641, 4086.667, 16190, 0, []
1632408581.2647, 92, 0, 4138.974, 2865.128, 4035.897, 4176.41, 4082.564, 450, 0, []
1632408581.2726, 93, 0, 4136.923, 2958.462, 4032.821, 4172.308, 4087.179, 450, 0, []
1632408581.2805, 94, 0, 4139.487, 3041.026, 4023.59, 4181.026, 4105.128, 450, 0, []
1632408581.2884, 95, 0, 4144.103, 3199.487, 4041.538, 4188.205, 4123.59, 16190, 0, []
1632408581.2962, 96, 0, 4145.641, 3203.077, 4048.718, 4183.077, 4127.692, 450, 0, []
1632408581.3041, 97, 0, 4138.974, 3029.744, 4044.615, 4181.538, 4125.128, 450, 0, []
1632408581.3119, 98, 0, 4123.077, 3135.897, 4052.308, 4191.795, 4125.641, 450, 0, []
1632408581.3197, 99, 0, 4111.795, 3385.128, 4069.744, 4202.051, 4124.615, 16190, 0, []
1632408581.3275, 100, 0, 4116.41, 3451.282, 4066.154, 4200.513, 4125.128, 450, 0, []
1632408581.3354, 101, 0, 4126.667, 3464.615, 4048.718, 4188.205, 4122.051, 450, 0, []
1632408581.3432, 102, 0, 4131.795, 3357.949, 4091.795, 4180.513, 4117.436, 450, 0, []
1632408581.3511, 103, 0, 4144.103, 3138.974, 4100.513, 4196.41, 4118.974, 16190, 0, []
1632408581.3588, 104, 0, 4160, 3120, 4058.974, 4223.59, 4118.974, 450, 0, []
1632408581.3667, 105, 0, 4160.513, 3121.538, 4058.462, 4225.128, 4108.205, 450, 0, []
1632408581.3745, 106, 0, 4153.333, 3003.077, 4046.154, 4211.795, 4100.513, 450, 0, []
1632408581.3825, 107, 0, 4150.256, 3004.103, 4050.769, 4217.949, 4111.282, 16190, 0, []
1632408581.3904, 108, 0, 4142.051, 3111.282, 4064.103, 4219.487, 4120.513, 450, 0, []
1632408581.3982, 109, 0, 4133.333, 3124.615, 4056.923, 4207.179, 4121.538, 450, 0, []
1632408581.406, 110, 0, 4138.462, 3107.179, 4075.385, 4216.41, 4133.846, 450, 0, []
1632408581.414, 111, 0, 4136.41, 3325.128, 4073.333, 4221.538, 4140.513, 16190, 0, []
1632408581.4219, 112, 0, 4134.872, 3652.821, 4063.077, 4207.179, 4131.795, 450, 0, []
1632408581.4299, 113, 0, 4160.513, 3787.692, 4072.821, 4214.872, 4131.795, 450, 0, []
1632408581.4377, 114, 0, 4173.333, 3711.282, 4071.795, 4236.923, 4126.154, 450, 0, []
1632408581.4457, 115, 0, 4158.462, 3609.231, 4059.487, 4237.436, 4111.795, 16190, 0, []
1632408581.4536, 116, 0, 4151.282, 3571.795, 4050.769, 4225.641, 4119.487, 450, 0, []
1632408581.4614, 117, 0, 4157.436, 3486.667, 4074.872, 4231.795, 4141.026, 450, 0, []
1632408581.4693, 118, 0, 4161.538, 3335.897, 4098.974, 4247.179, 4149.744, 450, 0, []
1632408581.477, 119, 0, 4166.667, 3311.282, 4093.846, 4236.923, 4154.872, 16190, 0, []
1632408581.4849, 120, 0, 4174.359, 3478.462, 4084.103, 4217.436, 4155.385, 450, 0, []
1632408581.4927, 121, 0, 4180.513, 3558.462, 4068.718, 4225.641, 4138.974, 450, 0, []
1632408581.5006, 122, 0, 4184.103, 3391.795, 4069.744, 4245.128, 4133.333, 450, 0, []
1632408581.5084, 123, 0, 4176.923, 3253.846, 4082.051, 4246.154, 4145.128, 16190, 0, []
1632408581.5163, 124, 0, 4168.718, 3324.615, 4084.103, 4237.436, 4151.795, 450, 0, []
1632408581.5242, 125, 0, 4170.769, 3364.103, 4096.923, 4248.718, 4157.949, 450, 0, []
1632408581.5322, 126, 0, 4171.282, 3172.308, 4100.513, 4262.564, 4164.615, 450, 0, []
1632408581.5401, 127, 0, 4168.718, 3141.026, 4084.103, 4245.128, 4154.872, 16190, 0, []
1632408581.5481, 128, 0, 4168.205, 3409.744, 4066.667, 4219.487, 4131.282, 450, 0, []
1632408581.5559, 0, 0, 4169.231, 3469.231, 4057.436, 4225.128, 4113.846, 450, 0, []
1632408581.5639, 1, 0, 4168.718, 3266.154, 4066.154, 4240, 4110.769, 450, 0, []
1632408581.5718, 2, 0, 4168.205, 3274.872, 4076.41, 4231.282, 4121.026, 16244, 0, []
1632408581.5798, 3, 0, 4167.179, 3443.077, 4086.154, 4225.128, 4135.385, 450, 0, []
1632408581.5877, 4, 0, 4160, 3333.846, 4088.718, 4231.795, 4146.667, 16204, 0, []
1632408581.5956, 5, 0, 4153.846, 3126.667, 4086.667, 4230.769, 4150.256, 450, 0, []
1632408581.6035, 6, 0, 4152.821, 3129.744, 4091.282, 4218.462, 4138.974, 16105, 0, []
1632408581.6113, 7, 0, 4153.333, 3130.256, 4070.256, 4198.462, 4121.538, 450, 0, []
1632408581.6192, 8, 0, 4159.487, 3078.462, 4051.795, 4193.846, 4113.846, 450, 0, []
1632408581.627, 9, 0, 4172.308, 3125.128, 4064.103, 4215.897, 4107.692, 16164, 0, []
1632408581.6348, 10, 0, 4170.256, 3148.718, 4060.513, 4232.821, 4093.333, 450, 0, []
1632408581.6426, 11, 0, 4155.897, 3025.128, 4052.821, 4231.795, 4090.769, 16172, 0, []
1632408581.6505, 12, 0, 4158.462, 2908.205, 4070.769, 4238.974, 4108.718, 450, 0, []
1632408581.6584, 13, 0, 4173.333, 2982.051, 4089.744, 4247.692, 4132.308, 450, 0, []
1632408581.6662, 14, 0, 4174.359, 3314.359, 4090.769, 4240, 4146.667, 450, 0, []
1632408581.674, 15, 0, 4160, 3544.103, 4082.051, 4230.769, 4143.59, 16172, 0, []
1632408581.6819, 16, 0, 4148.205, 3336.923, 4081.538, 4224.615, 4134.872, 0, 0, []
1632408581.6898, 17, 0, 4148.205, 3149.231, 4074.359, 4218.462, 4140.513, 0, 0, []
1632408581.6978, 18, 0, 4153.333, 3197.436, 4069.744, 4216.41, 4149.231, 0, 0, []
1632408581.7057, 19, 0, 4169.231, 3225.128, 4080, 4212.821, 4143.59, 0, 0, []
1632408581.7137, 20, 0, 4209.744, 3296.923, 4064.615, 4215.385, 4152.821, 0, 0, []
1632408581.7215, 21, 0, 4258.462, 3435.897, 4056.923, 4234.359, 4209.231, 0, 0, []
1632408581.7295, 22, 0, 4301.026, 3563.077, 4080, 4233.846, 4274.359, 0, 0, []
1632408581.7374, 23, 0, 4356.41, 3625.128, 4083.59, 4205.641, 4298.462, 0, 0, []
1632408581.7454, 24, 0, 4402.051, 3486.154, 4067.179, 4201.026, 4308.718, 0, 0, []
1632408581.7533, 25, 0, 4425.128, 3278.974, 4069.744, 4214.359, 4339.487, 0, 0, []
1632408581.761, 26, 0, 4453.846, 3267.692, 4082.564, 4203.077, 4357.949, 0, 0, []
1632408581.7689, 27, 0, 4466.154, 3318.462, 4065.128, 4189.231, 4345.128, 0, 0, []
1632408581.7769, 28, 0, 4453.333, 3269.231, 4053.846, 4195.385, 4333.333, 0, 0, []
1632408581.7848, 29, 0, 4465.128, 3262.051, 4087.179, 4197.436, 4335.385, 0, 0, []
1632408581.7926, 30, 0, 4466.154, 3258.974, 4100.513, 4196.41, 4336.41, 0, 0, []
1632408581.8004, 31, 0, 4422.564, 3224.103, 4094.872, 4202.051, 4326.667, 0, 0, []
1632408581.8082, 32, 0, 4404.615, 3342.051, 4094.872, 4198.462, 4306.667, 0, 0, []
1632408581.8161, 33, 0, 4402.051, 3546.154, 4082.051, 4194.872, 4286.667, 0, 0, []
1632408581.8239, 34, 0, 4367.692, 3691.795, 4094.872, 4202.564, 4280.513, 0, 0, []
1632408581.8319, 35, 0, 4343.077, 3716.923, 4102.564, 4196.923, 4257.436, 0, 0, []
1632408581.8397, 36, 0, 4331.282, 3734.872, 4071.282, 4177.436, 4213.333, 0, 0, []
1632408581.8477, 37, 0, 4292.308, 3722.564, 4062.051, 4174.872, 4195.897, 0, 0, []
1632408581.8556, 38, 0, 4251.795, 3566.667, 4076.41, 4171.282, 4196.41, 0, 0, []
1632408581.8636, 39, 0, 4244.103, 3565.128, 4078.462, 4153.846, 4177.949, 0, 0, []
1632408581.8715, 40, 0, 4249.744, 3695.385, 4065.128, 4164.103, 4153.333, 0, 0, []
1632408581.8794, 41, 0, 4243.59, 3513.333, 4060, 4190.256, 4149.744, 0, 0, []
1632408581.8873, 42, 0, 4225.128, 3251.282, 4064.103, 4181.538, 4154.359, 0, 0, []
1632408581.8953, 43, 0, 4207.692, 3401.026, 4073.333, 4165.128, 4150.256, 0, 0, []
1632408581.9032, 44, 0, 4191.795, 3548.205, 4084.615, 4169.231, 4141.538, 0, 0, []
1632408581.911, 45, 0, 4176.41, 3329.231, 4062.051, 4156.923, 4123.077, 0, 0, []
1632408581.9188, 46, 0, 4184.615, 3218.462, 4045.128, 4141.026, 4108.205, 0, 0, []
1632408581.9266, 47, 0, 4200.513, 3337.949, 4067.179, 4163.077, 4106.154, 0, 0, []
1632408581.9345, 48, 0, 4186.667, 3395.897, 4056.923, 4181.538, 4103.077, 0, 0, []
1632408581.9423, 49, 0, 4159.487, 3380.513, 4021.026, 4177.949, 4095.385, 0, 0, []
1632408581.9502, 50, 0, 4152.308, 3409.231, 4013.333, 4170.256, 4093.333, 0, 0, []
1632408581.9579, 51, 0, 4149.744, 3461.538, 4025.641, 4155.897, 4095.385, 0, 0, []
1632408581.9658, 52, 0, 4131.282, 3513.846, 4035.897, 4148.718, 4086.667, 0, 0, []
1632408581.9736, 53, 0, 4118.462, 3598.462, 4031.282, 4153.333, 4076.41, 0, 0, []
1632408581.9816, 54, 0, 4121.538, 3660.513, 4032.821, 4153.846, 4080.513, 0, 0, []
1632408581.9895, 55, 0, 4118.462, 3607.179, 4042.564, 4142.051, 4076.923, 0, 0, []
1632408581.9973, 56, 0, 4114.359, 3518.462, 4041.538, 4128.718, 4058.974, 0, 0, []
1632408582.0051, 57, 0, 4120.513, 3521.538, 4040, 4129.231, 4054.872, 0, 0, []
1632408582.0131, 58, 0, 4122.564, 3517.436, 4032.308, 4138.974, 4061.026, 0, 0, []
1632408582.021, 59, 0, 4117.949, 3470.256, 4028.718, 4143.077, 4048.205, 0, 0, []
1632408582.029, 60, 0, 4120, 3487.692, 4021.026, 4144.615, 4031.795, 0, 0, []
1632408582.0368, 61, 0, 4122.564, 3674.359, 4003.59, 4149.744, 4032.821, 0, 0, []
1632408582.0448, 62, 0, 4118.462, 3868.718, 4005.128, 4160, 4037.949, 0, 0, []
1632408582.0527, 63, 0, 4120.513, 3760.513, 4007.692, 4167.692, 4042.051, 0, 0, []
1632408582.0607, 64, 0, 4129.231, 3764.615, 4010.256, 4165.641, 4059.487, 450, 0, []
1632408582.0686, 65, 0, 4140, 4534.872, 4026.154, 4165.128, 4085.128, 450, 0, []
1632408582.0763, 66, 0, 4143.59, 5434.359, 4032.821, 4166.667, 4099.487, 16219, 0, []
1632408582.0842, 67, 0, 4156.41, 5034.872, 4032.821, 4158.462, 4111.282, 450, 0, []
1632408582.092, 68, 0, 4211.795, 3746.154, 4026.667, 4155.897, 4146.154, 16170, 0, []
1632408582.0999, 69, 0, 4281.538, 3065.128, 4021.538, 4165.128, 4200, 450, 0, []
1632408582.1077, 70, 0, 4313.846, 2962.564, 4025.641, 4163.077, 4251.282, 16095, 0, []
1632408582.1155, 71, 0, 4333.333, 2770.256, 4031.795, 4147.179, 4291.795, 450, 0, []
1632408582.1233, 72, 0, 4374.359, 2562.564, 4035.897, 4136.923, 4311.282, 450, 0, []
1632408582.1312, 73, 0, 4410.256, 2532.821, 4028.718, 4148.205, 4321.026, 16144, 0, []
1632408582.139, 74, 0, 4422.564, 2493.846, 4046.154, 4166.154, 4361.026, 450, 0, []
1632408582.147, 75, 0, 4430.256, 2432.821, 4080.513, 4170.769, 4399.487, 16185, 0, []
1632408582.1548, 76, 0, 4454.359, 2407.179, 4072.821, 4181.026, 4398.462, 450, 0, []
1632408582.1628, 77, 0, 4466.154, 2357.949, 4063.59, 4207.692, 4409.231, 450, 0, []
1632408582.1707, 78, 0, 4449.231, 2318.462, 4078.974, 4207.692, 4433.333, 450, 0, []
1632408582.1787, 79, 0, 4445.128, 2286.667, 4070.769, 4184.103, 4417.436, 16185, 0, []
1632408582.1866, 80, 0, 4453.846, 2248.718, 4053.846, 4191.795, 4393.846, 450, 0, []
1632408582.1945, 81, 0, 4455.897, 2194.872, 4075.385, 4210.769, 4426.154, 450, 0, []
1632408582.2024, 82, 0, 4457.949, 2184.103, 4096.923, 4206.154, 4443.077, 450, 0, []
1632408582.2104, 83, 0, 4455.385, 2233.333, 4071.282, 4201.026, 4406.667, 16185, 0, []
1632408582.2183, 84, 0, 4442.051, 2227.692, 4062.564, 4198.462, 4409.231, 450, 0, []
1632408582.2261, 85, 0, 4439.487, 2438.462, 4078.974, 4189.744, 4435.897, 450, 0, []
1632408582.2339, 86, 0, 4435.385, 3088.718, 4046.667, 4184.615, 4406.154, 450, 0, []
1632408582.2417, 87, 0, 4408.205, 3651.795, 4030.256, 4169.744, 4365.128, 16185, 0, []
1632408582.2496, 88, 0, 4391.282, 3869.231, 4049.231, 4149.231, 4361.538, 450, 0, []
1632408582.2574, 89, 0, 4399.487, 3963.077, 4041.026, 4171.282, 4364.615, 450, 0, []
1632408582.2653, 90, 0, 4420.513, 3959.487, 4049.744, 4206.667, 4377.949, 450, 0, []
1632408582.273, 91, 0, 4434.359, 3947.179, 4057.949, 4197.949, 4397.949, 16185, 0, []
1632408582.2809, 92, 0, 4426.154, 4123.077, 4037.436, 4178.462, 4393.333, 450, 0, []
1632408582.2887, 93, 0, 4417.436, 4271.795, 4028.718, 4178.462, 4385.641, 450, 0, []
1632408582.2967, 94, 0, 4412.308, 4266.154, 4042.051, 4180, 4386.667, 450, 0, []
1632408582.3046, 95, 0, 4405.641, 4313.333, 4053.333, 4185.641, 4376.923, 16185, 0, []
1632408582.3125, 96, 0, 4407.179, 4353.846, 4047.692, 4198.974, 4372.308, 450, 0, []
1632408582.3204, 97, 0, 4415.385, 4368.205, 4052.821, 4198.974, 4383.59, 450, 0, []
1632408582.3284, 98, 0, 4423.59, 4356.41, 4053.333, 4188.205, 4389.744, 450, 0, []
1632408582.3363, 99, 0, 4418.974, 4338.462, 4038.462, 4180, 4384.615, 16185, 0, []
1632408582.3443, 100, 0, 4412.308, 4338.462, 4040.513, 4173.333, 4377.436, 450, 0, []
1632408582.3521, 101, 0, 4409.744, 4320, 4041.538, 4176.923, 4378.974, 450, 0, []
1632408582.3601, 102, 0, 4408.718, 4522.051, 4038.462, 4189.744, 4384.615, 450, 0, []
1632408582.368, 103, 0, 4422.051, 4873.333, 4043.077, 4202.051, 4388.718, 16185, 0, []
1632408582.3758, 104, 0, 4431.795, 4810.769, 4045.128, 4195.385, 4389.744, 450, 0, []
1632408582.3837, 105, 0, 4415.385, 4406.154, 4043.59, 4186.667, 4381.538, 450, 0, []
1632408582.3914, 106, 0, 4385.641, 4320.513, 4033.846, 4193.846, 4369.744, 450, 0, []
1632408582.3993, 107, 0, 4381.538, 4576.923, 4040, 4198.462, 4362.051, 16185, 0, []
1632408582.4071, 108, 0, 4402.564, 4703.077, 4067.692, 4191.795, 4367.692, 450, 0, []
1632408582.415, 109, 0, 4418.974, 4655.385, 4068.205, 4172.821, 4381.026, 450, 0, []
1632408582.4228, 110, 0, 4427.692, 4693.846, 4053.846, 4167.179, 4381.026, 450, 0, []
1632408582.4307, 111, 0, 4408.718, 4870.256, 4047.692, 4177.949, 4362.051, 16185, 0, []
1632408582.4384, 112, 0, 4379.487, 4900, 4034.359, 4183.59, 4337.949, 450, 0, []
1632408582.4464, 113, 0, 4368.718, 4775.385, 4034.359, 4196.923, 4333.846, 450, 0, []
1632408582.4543, 114, 0, 4381.026, 4802.564, 4066.667, 4214.359, 4352.308, 450, 0, []
1632408582.4623, 115, 0, 4401.026, 4786.154, 4097.949, 4214.872, 4367.179, 16185, 0, []
1632408582.4702, 116, 0, 4394.872, 4553.846, 4080.513, 4198.462, 4362.051, 450, 0, []
1632408582.4781, 117, 0, 4385.128, 4522.564, 4043.59, 4186.667, 4354.872, 450, 0, []
1632408582.486, 118, 0, 4392.821, 4647.179, 4042.564, 4166.154, 4361.026, 450, 0, []
1632408582.494, 119, 0, 4396.923, 4620, 4043.077, 4140, 4349.231, 16185, 0, []
1632408582.5019, 120, 0, 4388.205, 4546.667, 4042.564, 4155.897, 4325.128, 450, 0, []
1632408582.5099, 121, 0, 4383.59, 4547.179, 4056.41, 4197.436, 4336.923, 450, 0, []
1632408582.5177, 122, 0, 4388.205, 4592.821, 4060, 4225.128, 4361.026, 450, 0, []
1632408582.5256, 123, 0, 4376.923, 4649.231, 4064.103, 4235.385, 4363.077, 16185, 0, []
1632408582.5335, 124, 0, 4367.179, 4610.256, 4054.872, 4233.846, 4354.872, 450, 0, []
1632408582.5413, 125, 0, 4380, 4586.154, 4044.615, 4227.179, 4345.641, 450, 0, []
1632408582.5492, 126, 0, 4391.795, 4593.333, 4056.41, 4208.718, 4351.795, 450, 0, []
1632408582.5569, 127, 0, 4391.795, 4413.846, 4063.077, 4177.436, 4360.513, 16185, 0, []
1632408582.5648, 128, 0, 4389.231, 4308.205, 4061.538, 4163.59, 4351.795, 450, 0, []
1632408582.5726, 0, 0, 4388.205, 4537.949, 4052.308, 4184.615, 4337.436, 450, 0, []
1632408582.5805, 1, 0, 4382.051, 4796.923, 4056.923, 4206.154, 4335.897, 450, 0, []
1632408582.5883, 2, 0, 4385.128, 4881.026, 4069.231, 4206.154, 4338.462, 16184, 0, []
1632408582.5961, 3, 0, 4393.846, 4796.923, 4062.564, 4201.026, 4342.051, 450, 0, []
1632408582.6039, 4, 0, 4379.487, 4684.615, 4056.41, 4196.41, 4347.692, 16133, 0, []
1632408582.6119, 5, 0, 4367.179, 4773.333, 4040.513, 4195.385, 4333.846, 450, 0, []
1632408582.6198, 6, 0, 4377.436, 4848.205, 4043.077, 4210.769, 4328.718, 16117, 0, []
1632408582.6278, 7, 0, 4391.282, 4576.923, 4075.897, 4216.41, 4346.667, 450, 0, []
1632408582.6356, 8, 0, 4394.359, 4290.256, 4071.282, 4190.256, 4353.846, 450, 0, []
1632408582.6436, 9, 0, 4376.41, 4235.385, 4038.974, 4185.128, 4344.103, 16146, 0, []
1632408582.6515, 10, 0, 4353.846, 4022.564, 4035.897, 4211.282, 4333.846, 450, 0, []
1632408582.6595, 11, 0, 4364.103, 3635.897, 4055.897, 4202.051, 4329.744, 16188, 0, []
1632408582.6674, 12, 0, 4385.641, 3602.564, 4053.333, 4183.077, 4327.179, 450, 0, []
1632408582.6753, 13, 0, 4368.205, 3811.282, 4053.846, 4203.077, 4326.154, 450, 0, []
1632408582.6832, 14, 0, 4351.795, 3893.333, 4083.59, 4213.333, 4321.026, 450, 0, []
1632408582.691, 15, 0, 4351.795, 4124.615, 4072.308, 4197.436, 4313.333, 16188, 0, []
1632408582.6989, 16, 0, 4337.436, 4533.846, 4044.615, 4194.359, 4309.744, 0, 0, []
1632408582.7067, 17, 0, 4340, 4634.359, 4058.462, 4207.179, 4307.692, 0, 0, []
1632408582.7145, 18, 0, 4356.923, 4544.103, 4072.821, 4206.154, 4318.462, 0, 0, []
1632408582.7223, 19, 0, 4352.821, 4780.513, 4068.718, 4187.179, 4321.538, 0, 0, []
1632408582.7302, 20, 0, 4328.205, 5093.846, 4052.821, 4181.538, 4291.795, 0, 0, []
1632408582.738, 21, 0, 4310.256, 5097.949, 4057.949, 4207.692, 4269.231, 0, 0, []
1632408582.7459, 22, 0, 4321.026, 4945.128, 4077.436, 4223.077, 4280.513, 0, 0, []
1632408582.7536, 23, 0, 4319.487, 4757.436, 4060, 4214.872, 4282.051, 0, 0, []
1632408582.7616, 24, 0, 4295.897, 4527.179, 4052.821, 4222.564, 4272.308, 0, 0, []
1632408582.7695, 25, 0, 4313.846, 4511.795, 4072.821, 4243.077, 4286.154, 0, 0, []
1632408582.7775, 26, 0, 4351.795, 4737.436, 4073.846, 4233.846, 4311.282, 0, 0, []
1632408582.7854, 27, 0, 4345.128, 4813.333, 4064.615, 4214.872, 4312.821, 0, 0, []
1632408582.7933, 28, 0, 4333.846, 4782.051, 4060.513, 4236.923, 4294.872, 0, 0, []
1632408582.8012, 29, 0, 4346.154, 4841.538, 4083.077, 4268.205, 4295.897, 0, 0, []
1632408582.8092, 30, 0, 4352.308, 4845.128, 4108.205, 4268.718, 4312.821, 0, 0, []
1632408582.8171, 31, 0, 4335.897, 4778.974, 4086.154, 4259.487, 4303.59, 0, 0, []
1632408582.8251, 32, 0, 4300.513, 4761.538, 4062.051, 4255.897, 4269.231, 0, 0, []
1632408582.8329, 33, 0, 4296.41, 4798.974, 4061.538, 4238.462, 4254.359, 0, 0, []
1632408582.8408, 34, 0, 4305.128, 4824.615, 4066.154, 4212.821, 4261.538, 0, 0, []
1632408582.8487, 35, 0, 4280.513, 4819.487, 4064.103, 4210.256, 4251.795, 0, 0, []
1632408582.8565, 36, 0, 4286.154, 4792.308, 4066.154, 4232.821, 4237.949, 0, 0, []
1632408582.8644, 37, 0, 4310.769, 4814.359, 4082.564, 4245.128, 4258.974, 0, 0, []
1632408582.8721, 38, 0, 4285.128, 4830.769, 4068.718, 4232.308, 4267.179, 0, 0, []
1632408582.88, 39, 0, 4274.872, 4783.59, 4046.667, 4235.897, 4233.846, 0, 0, []
1632408582.8878, 40, 0, 4297.436, 4702.564, 4063.077, 4248.205, 4239.487, 0, 0, []
1632408582.8957, 41, 0, 4285.641, 4645.128, 4077.949, 4232.821, 4269.744, 0, 0, []
1632408582.9035, 42, 0, 4281.026, 4638.974, 4076.41, 4224.103, 4246.154, 0, 0, []
1632408582.9113, 43, 0, 4293.333, 4640, 4075.385, 4233.846, 4227.179, 0, 0, []
1632408582.9191, 44, 0, 4269.744, 4601.538, 4080, 4227.179, 4239.487, 0, 0, []
1632408582.9271, 45, 0, 4263.59, 4518.974, 4070.256, 4218.462, 4223.077, 0, 0, []
1632408582.935, 46, 0, 4280.513, 4538.974, 4047.179, 4227.692, 4215.385, 0, 0, []
1632408582.943, 47, 0, 4268.205, 4739.487, 4061.538, 4237.436, 4238.974, 0, 0, []
1632408582.9508, 48, 0, 4268.718, 4866.667, 4079.487, 4233.846, 4231.282, 0, 0, []
1632408582.9588, 49, 0, 4282.051, 4812.308, 4067.692, 4230.256, 4216.923, 0, 0, []
1632408582.9667, 50, 0, 4264.615, 4855.385, 4069.744, 4231.795, 4234.359, 0, 0, []
1632408582.9747, 51, 0, 4263.077, 4713.333, 4072.308, 4228.718, 4232.308, 0, 0, []
1632408582.9826, 52, 0, 4287.179, 3972.308, 4066.154, 4228.205, 4217.436, 0, 0, []
1632408582.9905, 53, 0, 4274.359, 3267.692, 4063.59, 4235.897, 4227.179, 0, 0, []
1632408582.9984, 54, 0, 4241.538, 3085.641, 4065.128, 4227.692, 4230.256, 0, 0, []
1632408583.0062, 55, 0, 4243.077, 3002.564, 4072.308, 4204.615, 4221.026, 0, 0, []
1632408583.0141, 56, 0, 4261.538, 2808.205, 4058.974, 4202.564, 4208.718, 0, 0, []
1632408583.0219, 57, 0, 4263.59, 2711.282, 4038.974, 4215.897, 4200, 0, 0, []
1632408583.0297, 58, 0, 4251.282, 2671.282, 4036.41, 4218.462, 4211.795, 0, 0, []
1632408583.0375, 59, 0, 4247.692, 2588.718, 4054.359, 4214.872, 4235.897, 0, 0, []
1632408583.0454, 60, 0, 4249.744, 2519.487, 4075.897, 4211.795, 4237.949, 0, 0, []
1632408583.0532, 61, 0, 4236.923, 2475.897, 4072.821, 4199.487, 4222.051, 0, 0, []
1632408583.0611, 62, 0, 4222.564, 2443.077, 4065.641, 4184.103, 4208.718, 0, 0, []
1632408583.0688, 63, 0, 4234.359, 2394.872, 4065.641, 4176.923, 4191.282, 0, 0, []
1632408583.0768, 64, 0, 4252.821, 2365.641, 4067.692, 4187.692, 4183.077, 450, 0, []
1632408583.0847, 65, 0, 4234.359, 2349.744, 4065.641, 4205.641, 4185.641, 450, 0, []
1632408583.0927, 66, 0, 4207.179, 2301.538, 4041.026, 4201.538, 4181.538, 16186, 0, []
1632408583.1006, 67, 0, 4209.744, 2254.359, 4028.718, 4185.641, 4176.41, 450, 0, []
1632408583.1085, 68, 0, 4207.692, 2230.769, 4038.462, 4183.077, 4174.872, 16152, 0, []
1632408583.1164, 69, 0, 4186.667, 2206.667, 4042.564, 4186.154, 4173.333, 450, 0, []
1632408583.1244, 70, 0, 4175.897, 2183.59, 4057.436, 4184.615, 4172.821, 16117, 0, []
1632408583.1323, 71, 0, 4181.538, 2183.077, 4072.821, 4183.077, 4176.41, 450, 0, []
1632408583.1403, 72, 0, 4192.308, 2186.154, 4079.487, 4181.026, 4184.615, 450, 0, []
1632408583.1481, 73, 0, 4200.513, 2169.231, 4076.923, 4185.128, 4189.744, 16158, 0, []
1632408583.1559, 74, 0, 4203.077, 2148.718, 4056.923, 4187.179, 4180.513, 450, 0, []
1632408583.1638, 75, 0, 4211.282, 2143.077, 4048.718, 4183.077, 4168.205, 16173, 0, []
1632408583.1716, 76, 0, 4220.513, 2149.231, 4037.436, 4197.949, 4164.103, 450, 0, []
1632408583.1795, 77, 0, 4209.231, 2140, 4019.487, 4211.282, 4159.487, 450, 0, []
1632408583.1873, 78, 0, 4183.59, 2113.846, 4023.077, 4194.359, 4149.744, 450, 0, []
1632408583.1951, 79, 0, 4173.846, 2106.154, 4031.795, 4181.538, 4154.872, 16173, 0, []
1632408583.2029, 80, 0, 4184.103, 2113.846, 4041.026, 4191.795, 4172.308, 450, 0, []
1632408583.2108, 81, 0, 4188.205, 2104.103, 4048.718, 4192.308, 4171.282, 450, 0, []
1632408583.2186, 82, 0, 4165.641, 2082.051, 4056.923, 4180.513, 4151.282, 450, 0, []
1632408583.2266, 83, 0, 4142.051, 2080, 4060.513, 4183.59, 4139.487, 16173, 0, []
1632408583.2344, 84, 0, 4141.026, 2100, 4045.128, 4182.051, 4138.974, 450, 0, []
1632408583.2424, 85, 0, 4136.41, 2106.154, 4042.564, 4158.462, 4130.256, 450, 0, []
1632408583.2503, 86, 0, 4126.667, 2086.154, 4043.59, 4136.923, 4127.692, 450, 0, []
1632408583.2583, 87, 0, 4129.744, 2076.923, 4033.333, 4134.359, 4129.231, 16173, 0, []
1632408583.2662, 88, 0, 4137.436, 2096.923, 4032.308, 4139.487, 4120.513, 450, 0, []
1632408583.2741, 89, 0, 4138.462, 2116.923, 4030.256, 4143.077, 4117.949, 450, 0, []
1632408583.282, 90, 0, 4140.513, 2123.59, 4030.256, 4147.692, 4126.667, 450, 0, []
1632408583.29, 91, 0, 4135.897, 2123.59, 4024.615, 4146.667, 4123.59, 16173, 0, []
1632408583.2979, 92, 0, 4124.615, 2111.795, 4016.41, 4138.462, 4116.923, 450, 0, []
1632408583.3059, 93, 0, 4133.333, 2111.795, 4029.744, 4131.795, 4123.077, 450, 0, []
1632408583.3137, 94, 0, 4140, 2134.872, 4029.744, 4125.641, 4118.462, 450, 0, []
1632408583.3216, 95, 0, 4118.974, 2138.462, 4018.462, 4115.897, 4098.462, 16173, 0, []
1632408583.3295, 96, 0, 4102.564, 2124.615, 4021.026, 4115.897, 4088.718, 450, 0, []
1632408583.3373, 97, 0, 4120.513, 2130.769, 4024.615, 4117.949, 4097.436, 450, 0, []
1632408583.3452, 98, 0, 4142.051, 2151.795, 4026.667, 4120.513, 4109.231, 450, 0, []
1632408583.3529, 99, 0, 4143.59, 2164.103, 4015.897, 4138.974, 4107.179, 16173, 0, []
1632408583.3608, 100, 0, 4142.051, 2167.692, 4006.667, 4161.538, 4101.538, 450, 0, []
1632408583.3686, 101, 0, 4142.564, 2182.051, 4008.718, 4167.179, 4097.949, 450, 0, []
1632408583.3765, 102, 0, 4137.949, 2202.564, 4007.692, 4163.59, 4093.333, 450, 0, []
1632408583.3843, 103, 0, 4137.436, 2205.641, 4014.359, 4160, 4091.795, 16173, 0, []
1632408583.3921, 104, 0, 4137.949, 2201.538, 4018.462, 4149.231, 4087.692, 450, 0, []
1632408583.3999, 105, 0, 4135.385, 2220, 4021.538, 4149.744, 4084.615, 450, 0, []
1632408583.4079, 106, 0, 4140, 2242.564, 4022.051, 4155.897, 4088.205, 450, 0, []
1632408583.4158, 107, 0, 4141.026, 2243.077, 4011.282, 4150.769, 4090.769, 16173, 0, []
1632408583.4238, 108, 0, 4129.744, 2242.051, 4014.359, 4156.923, 4092.308, 450, 0, []
1632408583.4316, 109, 0, 4122.051, 2256.923, 4016.41, 4167.692, 4087.179, 450, 0, []
1632408583.4396, 110, 0, 4121.026, 2277.436, 4010.769, 4166.154, 4080, 450, 0, []
1632408583.4475, 111, 0, 4126.154, 2290.769, 4017.949, 4166.667, 4091.795, 16173, 0, []
1632408583.4555, 112, 0, 4137.949, 2298.974, 4023.59, 4173.846, 4111.282, 450, 0, []
1632408583.4634, 113, 0, 4138.974, 2309.744, 4033.333, 4166.154, 4108.718, 450, 0, []
1632408583.4713, 114, 0, 4131.282, 2317.436, 4037.949, 4155.897, 4103.59, 450, 0, []
1632408583.4792, 115, 0, 4121.538, 2317.436, 4033.333, 4149.744, 4104.615, 16173, 0, []
1632408583.487, 116, 0, 4103.59, 2315.897, 4033.333, 4137.436, 4087.179, 450, 0, []
1632408583.4949, 117, 0, 4100.513, 2332.308, 4026.667, 4138.974, 4076.923, 450, 0, []
1632408583.5027, 118, 0, 4105.128, 2356.41, 4009.231, 4150.256, 4080, 450, 0, []
1632408583.5105, 119, 0, 4088.205, 2353.846, 3982.051, 4150.256, 4060, 16173, 0, []
1632408583.5183, 120, 0, 4076.923, 2345.128, 3978.974, 4144.103, 4041.538, 450, 0, []
1632408583.5262, 121, 0, 4096.923, 2380, 4010.256, 4150.769, 4055.897, 450, 0, []
1632408583.534, 122, 0, 4109.231, 2414.359, 4011.282, 4160.513, 4063.59, 450, 0, []
1632408583.542, 123, 0, 4100, 2411.282, 3991.282, 4158.974, 4053.333, 16173, 0, []
1632408583.5498, 124, 0, 4108.718, 2421.538, 3994.359, 4164.103, 4065.641, 450, 0, []
1632408583.5578, 125, 0, 4123.077, 2444.103, 4010.769, 4169.744, 4083.077, 450, 0, []
1632408583.5657, 126, 0, 4115.897, 2451.282, 4018.462, 4163.077, 4075.897, 450, 0, []
1632408583.5737, 127, 0, 4106.667, 2458.974, 4003.59, 4149.744, 4058.462, 16173, 0, []
1632408583.5816, 128, 0, 4106.667, 2467.179, 4002.564, 4151.795, 4049.744, 450, 0, []
1632408583.5895, 0, 0, 4105.641, 2474.359, 4010.769, 4165.128, 4053.846, 450, 0, []
1632408583.5974, 1, 0, 4110.256, 2486.667, 4008.205, 4165.128, 4060.513, 450, 0, []
1632408583.6054, 2, 0, 4118.974, 2489.744, 4013.333, 4160.513, 4059.487, 16310, 0, []
1632408583.6133, 3, 0, 4113.333, 2484.103, 4004.615, 4155.897, 4056.923, 450, 0, []
1632408583.6211, 4, 0, 4104.615, 2497.436, 3991.795, 4149.231, 4059.487, 16351, 0, []
1632408583.6289, 5, 0, 4106.667, 2528.718, 3985.128, 4145.641, 4057.949, 450, 0, []
1632408583.6367, 6, 0, 4111.282, 2550.256, 3974.872, 4147.179, 4060, 239, 0, []
1632408583.6446, 7, 0, 4122.051, 2557.436, 3990.256, 4157.949, 4076.41, 450, 0, []
1632408583.6524, 8, 0, 4131.795, 2572.821, 4011.282, 4169.231, 4085.641, 450, 0, []
1632408583.6603, 9, 0, 4126.154, 2598.462, 4016.923, 4168.205, 4074.872, 325, 0, []
1632408583.668, 10, 0, 4121.026, 2612.821, 4016.923, 4163.59, 4070.769, 450, 0, []
1632408583.6759, 11, 0, 4122.051, 2611.795, 4002.051, 4161.026, 4072.821, 260, 0, []
1632408583.6837, 12, 0, 4117.949, 2617.949, 3997.436, 4157.436, 4064.103, 450, 0, []
1632408583.6917, 13, 0, 4109.744, 2640, 4002.564, 4159.487, 4060, 450, 0, []
1632408583.6996, 14, 0, 4103.59, 2656.41, 3992.308, 4160.513, 4064.103, 450, 0, []
1632408583.7075, 15, 0, 4101.026, 2665.128, 3976.41, 4149.744, 4057.949, 260, 0, []
1632408583.7154, 16, 0, 4111.795, 2676.41, 3974.359, 4154.359, 4058.462, 0, 0, []
1632408583.7234, 17, 0, 4123.59, 2694.359, 3996.41, 4171.282, 4073.333, 0, 0, []
1632408583.7313, 18, 0, 4116.923, 2723.59, 4009.231, 4171.795, 4071.282, 0, 0, []
1632408583.7393, 19, 0, 4113.333, 2753.333, 4017.949, 4174.359, 4065.128, 0, 0, []
1632408583.7471, 20, 0, 4121.026, 2768.718, 4033.333, 4179.487, 4077.436, 0, 0, []
1632408583.7551, 21, 0, 4115.897, 2783.077, 4023.077, 4170.769, 4080, 0, 0, []
1632408583.763, 22, 0, 4100.513, 2805.128, 4011.795, 4167.692, 4068.205, 0, 0, []
1632408583.7709, 23, 0, 4092.308, 2808.718, 4007.692, 4170.256, 4063.077, 0, 0, []
1632408583.7788, 24, 0, 4091.282, 2806.154, 4005.128, 4164.103, 4070.769, 0, 0, []
1632408583.7866, 25, 0, 4097.436, 2826.154, 4018.462, 4171.795, 4084.615, 0, 0, []
1632408583.7945, 26, 0, 4103.59, 2845.641, 4026.154, 4183.077, 4084.103, 0, 0, []
1632408583.8023, 27, 0, 4093.846, 2845.128, 4021.026, 4170.256, 4069.744, 0, 0, []
1632408583.8102, 28, 0, 4086.667, 2853.333, 4015.385, 4166.154, 4071.282, 0, 0, []
1632408583.818, 29, 0, 4104.615, 2879.487, 4021.538, 4186.667, 4082.051, 0, 0, []
1632408583.8258, 30, 0, 4119.487, 2891.282, 4033.333, 4191.282, 4083.077, 0, 0, []
1632408583.8336, 31, 0, 4104.615, 2879.487, 4024.615, 4170.769, 4077.436, 0, 0, []
1632408583.8415, 32, 0, 4089.744, 2885.128, 4026.154, 4156.41, 4078.462, 0, 0, []
1632408583.8493, 33, 0, 4097.436, 2919.487, 4039.487, 4160, 4086.667, 0, 0, []
1632408583.8572, 34, 0, 4095.897, 2944.103, 4031.795, 4167.692, 4092.821, 0, 0, []
1632408583.8649, 35, 0, 4074.359, 2947.179, 4032.821, 4174.872, 4085.641, 0, 0, []
1632408583.8729, 36, 0, 4067.179, 2940.513, 4038.462, 4175.897, 4077.949, 0, 0, []
1632408583.8808, 37, 0, 4073.846, 2953.846, 4034.872, 4172.308, 4083.077, 0, 0, []
1632408583.8888, 38, 0, 4082.051, 2994.872, 4030.769, 4172.821, 4094.872, 0, 0, []
1632408583.8967, 39, 0, 4085.641, 3009.744, 4027.692, 4176.923, 4102.051, 0, 0, []
1632408583.9046, 40, 0, 4081.538, 3000.513, 4048.205, 4187.179, 4099.487, 0, 0, []
1632408583.9125, 41, 0, 4074.359, 3026.154, 4063.59, 4192.308, 4088.205, 0, 0, []
1632408583.9205, 42, 0, 4069.231, 3053.846, 4053.846, 4178.974, 4081.538, 0, 0, []
1632408583.9284, 43, 0, 4074.872, 3043.077, 4047.692, 4159.487, 4083.077, 0, 0, []
1632408583.9362, 44, 0, 4073.846, 3043.077, 4046.154, 4146.667, 4079.487, 0, 0, []
1632408583.9441, 45, 0, 4061.538, 3083.59, 4048.718, 4148.205, 4077.436, 0, 0, []
1632408583.9518, 46, 0, 4063.59, 3113.333, 4048.718, 4164.615, 4087.692, 0, 0, []
1632408583.9597, 47, 0, 4073.846, 3106.154, 4045.128, 4169.231, 4088.718, 0, 0, []
1632408583.9675, 48, 0, 4075.897, 3105.641, 4043.077, 4154.872, 4082.051, 0, 0, []
1632408583.9754, 49, 0, 4090.256, 3130.769, 4044.103, 4153.333, 4090.769, 0, 0, []
1632408583.9832, 50, 0, 4110.769, 3146.154, 4049.231, 4171.795, 4096.41, 0, 0, []
1632408583.991, 51, 0, 4095.385, 3144.615, 4026.667, 4175.897, 4068.718, 0, 0, []
1632408583.9988, 52, 0, 4078.974, 3153.846, 4005.641, 4168.205, 4053.333, 0, 0, []
1632408584.0068, 53, 0, 4098.462, 3164.103, 4024.103, 4175.897, 4073.846, 0, 0, []
1632408584.0147, 54, 0, 4107.179, 3169.744, 4037.436, 4185.641, 4077.436, 0, 0, []
1632408584.0227, 55, 0, 4090.256, 3192.308, 4042.051, 4188.205, 4060, 0, 0, []
1632408584.0305, 56, 0, 4085.641, 3203.077, 4035.385, 4188.718, 4056.41, 0, 0, []
1632408584.0385, 57, 0, 4093.846, 3198.462, 4016.41, 4175.385, 4055.897, 0, 0, []
1632408584.0464, 58, 0, 4083.077, 3212.821, 4012.821, 4157.949, 4046.154, 0, 0, []
1632408584.0544, 59, 0, 4056.923, 3232.308, 4007.179, 4154.359, 4036.923, 0, 0, []
1632408584.0623, 60, 0, 4053.846, 3238.974, 4005.641, 4161.026, 4032.308, 0, 0, []
1632408584.0702, 61, 0, 4075.385, 3243.59, 4016.41, 4172.308, 4045.128, 0, 0, []
1632408584.0781, 62, 0, 4084.615, 3256.923, 4027.692, 4186.154, 4066.154, 0, 0, []
1632408584.0859, 63, 0, 4076.41, 3271.795, 4031.795, 4187.179, 4071.795, 0, 0, []
1632408584.0938, 64, 0, 4074.872, 3286.154, 4021.026, 4182.051, 4074.872, 450, 0, []
1632408584.1016, 65, 0, 4075.385, 3298.974, 4016.923, 4191.282, 4078.974, 450, 0, []
1632408584.1094, 66, 0, 4062.051, 3296.41, 4013.846, 4189.744, 4059.487, 16378, 0, []
1632408584.1172, 67, 0, 4041.026, 3294.359, 4010.769, 4172.308, 4033.333, 450, 0, []
1632408584.1251, 68, 0, 4026.154, 3321.026, 4027.179, 4166.154, 4028.718, 16295, 0, []
1632408584.1329, 69, 0, 4023.59, 3356.923, 4025.128, 4165.641, 4034.359, 450, 0, []
1632408584.1408, 70, 0, 4032.308, 3361.538, 4014.359, 4171.282, 4037.436, 279, 0, []
1632408584.1485, 71, 0, 4031.282, 3357.949, 4010.256, 4178.462, 4028.718, 450, 0, []
1632408584.1565, 72, 0, 4016.923, 3373.333, 3986.154, 4172.821, 4011.795, 450, 0, []
1632408584.1644, 73, 0, 4019.487, 3381.538, 3982.564, 4173.846, 4015.385, 16162, 0, []
1632408584.1724, 74, 0, 4040, 3390.769, 4005.641, 4189.231, 4032.821, 450, 0, []
1632408584.1803, 75, 0, 4048.718, 3410.256, 4013.846, 4187.692, 4033.846, 289, 0, []
1632408584.1882, 76, 0, 4042.564, 3417.949, 4008.718, 4172.308, 4027.692, 450, 0, []
1632408584.1961, 77, 0, 4034.359, 3428.205, 4011.282, 4165.641, 4024.615, 450, 0, []
1632408584.2041, 78, 0, 4031.282, 3445.128, 4029.744, 4156.923, 4013.846, 450, 0, []
1632408584.212, 79, 0, 4035.385, 3450.256, 4029.231, 4155.897, 4010.256, 289, 0, []
1632408584.22, 80, 0, 4034.872, 3459.487, 4018.974, 4163.59, 4022.564, 450, 0, []
1632408584.2278, 81, 0, 4031.282, 3477.949, 4026.154, 4166.154, 4028.205, 450, 0, []
1632408584.2358, 82, 0, 4041.026, 3487.692, 4031.282, 4166.667, 4028.718, 450, 0, []
1632408584.2437, 83, 0, 4054.359, 3495.897, 4034.872, 4176.41, 4044.615, 289, 0, []
1632408584.2515, 84, 0, 4058.462, 3514.872, 4030.769, 4193.333, 4060.513, 450, 0, []
1632408584.2594, 85, 0, 4065.128, 3527.179, 4026.667, 4194.872, 4060.513, 450, 0, []
1632408584.2671, 86, 0, 4061.026, 3528.718, 4036.923, 4185.128, 4053.333, 450, 0, []
1632408584.275, 87, 0, 4045.641, 3542.564, 4035.385, 4184.615, 4042.051, 289, 0, []
1632408584.2828, 88, 0, 4044.103, 3568.205, 4033.333, 4185.641, 4036.923, 450, 0, []
1632408584.2907, 89, 0, 4053.333, 3583.077, 4028.205, 4175.897, 4040.513, 450, 0, []
1632408584.2985, 90, 0, 4053.333, 3609.744, 4010.769, 4177.949, 4045.128, 450, 0, []
1632408584.3063, 91, 0, 4047.179, 3662.051, 4001.538, 4187.179, 4041.026, 289, 0, []
1632408584.3141, 92, 0, 4052.308, 3696.923, 3998.974, 4183.077, 4043.077, 450, 0, []
1632408584.3221, 93, 0, 4064.103, 3712.821, 4012.821, 4187.179, 4055.897, 450, 0, []
1632408584.33, 94, 0, 4068.718, 3745.128, 4023.59, 4189.231, 4054.359, 450, 0, []
1632408584.338, 95, 0, 4069.231, 3789.231, 4016.923, 4181.538, 4049.231, 289, 0, []
1632408584.3458, 96, 0, 4081.026, 3827.179, 4021.026, 4190.769, 4068.205, 450, 0, []
1632408584.3538, 97, 0, 4094.359, 3849.231, 4029.744, 4206.667, 4098.462, 450, 0, []
1632408584.3617, 98, 0, 4093.846, 3850.256, 4034.872, 4202.564, 4107.179, 450, 0, []
1632408584.3697, 99, 0, 4085.641, 3862.564, 4035.385, 4193.846, 4100.513, 289, 0, []
1632408584.3776, 100, 0, 4068.718, 3886.154, 4037.436, 4188.205, 4091.795, 450, 0, []
1632408584.3855, 101, 0, 4049.231, 3889.231, 4048.205, 4176.41, 4078.974, 450, 0, []
1632408584.3934, 102, 0, 4041.538, 3894.872, 4043.077, 4174.359, 4075.897, 450, 0, []
1632408584.4012, 103, 0, 4042.051, 3918.974, 4041.538, 4183.59, 4084.615, 289, 0, []
1632408584.4091, 104, 0, 4042.564, 3955.385, 4051.795, 4183.59, 4079.487, 450, 0, []
1632408584.4169, 105, 0, 4043.59, 3968.718, 4038.974, 4166.667, 4064.103, 450, 0, []
1632408584.4247, 106, 0, 4040.513, 3963.59, 4018.462, 4149.231, 4066.154, 450, 0, []
1632408584.4325, 107, 0, 4046.667, 3981.026, 4017.949, 4158.462, 4076.923, 289, 0, []
1632408584.4404, 108, 0, 4073.846, 3988.205, 4035.897, 4183.077, 4078.462, 450, 0, []
1632408584.4482, 109, 0, 4096.923, 3949.231, 4045.128, 4195.385, 4077.949, 450, 0, []
1632408584.4561, 110, 0, 4096.41, 3910.256, 4028.205, 4196.923, 4080.513, 450, 0, []
1632408584.4638, 111, 0, 4086.667, 3971.795, 4027.692, 4205.641, 4081.026, 289, 0, []
1632408584.4718, 112, 0, 4079.487, 4091.795, 4029.744, 4206.154, 4074.359, 450, 0, []
1632408584.4797, 113, 0, 4070.769, 4153.333, 4019.487, 4187.692, 4066.154, 450, 0, []
1632408584.4877, 114, 0, 4061.538, 4180.513, 4024.615, 4182.051, 4075.897, 450, 0, []
1632408584.4956, 115, 0, 4052.308, 4180.513, 4027.692, 4194.872, 4087.179, 289, 0, []
1632408584.5035, 116, 0, 4043.077, 4103.077, 4033.333, 4191.795, 4075.385, 450, 0, []
1632408584.5114, 117, 0, 4040.513, 4029.231, 4043.59, 4179.487, 4067.179, 450, 0, []
1632408584.5194, 118, 0, 4042.051, 4042.051, 4048.205, 4187.179, 4076.923, 450, 0, []
1632408584.5273, 119, 0, 4051.795, 4067.692, 4053.333, 4195.385, 4087.179, 289, 0, []
1632408584.5353, 120, 0, 4068.205, 4117.949, 4049.231, 4183.077, 4095.897, 450, 0, []
1632408584.5431, 121, 0, 4082.051, 4208.205, 4049.231, 4176.41, 4092.308, 450, 0, []
1632408584.5511, 122, 0, 4093.846, 4205.641, 4052.821, 4191.795, 4074.872, 450, 0, []
1632408584.559, 123, 0, 4103.59, 4147.692, 4056.41, 4216.923, 4082.564, 289, 0, []
1632408584.5668, 124, 0, 4094.872, 4158.974, 4049.744, 4227.692, 4097.949, 450, 0, []
1632408584.5747, 125, 0, 4075.897, 4214.359, 4026.154, 4206.154, 4085.128, 450, 0, []
1632408584.5824, 126, 0, 4070.256, 4246.154, 4034.359, 4185.128, 4080.513, 450, 0, []
1632408584.5903, 127, 0, 4068.718, 4266.154, 4057.436, 4198.974, 4097.436, 289, 0, []
1632408584.5981, 128, 0, 4055.385, 4324.615, 4055.897, 4221.026, 4094.872, 450, 0, []
1632408584.606, 0, 0, 4040.513, 4414.359, 4053.846, 4212.821, 4070.769, 450, 0, []
1632408584.6138, 1, 0, 4049.744, 4559.487, 4048.205, 4188.205, 4062.564, 450, 0, []
1632408584.6217, 2, 0, 4083.59, 4747.179, 4045.128, 4192.821, 4071.795, 16251, 0, []
1632408584.6296, 3, 0, 4103.077, 4815.385, 4038.974, 4215.385, 4080.513, 450, 0, []
1632408584.6376, 4, 0, 4095.897, 4712.308, 4022.051, 4220.513, 4092.308, 16253, 0, []
1632408584.6455, 5, 0, 4085.128, 4703.59, 4030.769, 4216.41, 4106.667, 450, 0, []
1632408584.6534, 6, 0, 4074.872, 4946.667, 4047.179, 4209.744, 4096.923, 16064, 0, []
1632408584.6612, 7, 0, 4065.641, 5176.41, 4055.897, 4198.462, 4076.923, 450, 0, []
1632408584.6691, 8, 0, 4071.795, 5180, 4054.359, 4198.462, 4073.846, 450, 0, []
1632408584.677, 9, 0, 4080.513, 5106.154, 4040, 4215.385, 4066.667, 16132, 0, []
1632408584.6848, 10, 0, 4068.718, 5035.897, 4046.154, 4225.641, 4048.718, 450, 0, []
1632408584.6928, 11, 0, 4052.821, 4850.769, 4054.872, 4214.359, 4046.667, 16106, 0, []
1632408584.7007, 12, 0, 4041.026, 4654.359, 4052.308, 4200.513, 4053.846, 450, 0, []
1632408584.7085, 13, 0, 4023.077, 4642.051, 4047.692, 4201.538, 4044.615, 450, 0, []
1632408584.7163, 14, 0, 4018.462, 4657.949, 4043.59, 4199.487, 4036.923, 450, 0, []
1632408584.7242, 15, 0, 4037.949, 4553.333, 4047.179, 4190.256, 4045.128, 16106, 0, []
1632408584.732, 16, 0, 4055.385, 4455.385, 4033.333, 4189.231, 4045.641, 0, 0, []
1632408584.7399, 17, 0, 4068.205, 4410.769, 4020.513, 4199.487, 4042.564, 0, 0, []
1632408584.7476, 18, 0, 4076.923, 4365.128, 4027.179, 4211.795, 4046.154, 0, 0, []
1632408584.7555, 19, 0, 4070.256, 4336.923, 4019.487, 4217.436, 4041.538, 0, 0, []
1632408584.7633, 20, 0, 4063.59, 4330.769, 4024.103, 4217.436, 4044.615, 0, 0, []
1632408584.7712, 21, 0, 4062.051, 4303.59, 4049.231, 4220.513, 4057.949, 0, 0, []
1632408584.779, 22, 0, 4051.282, 4261.026, 4070.769, 4229.231, 4055.897, 0, 0, []
1632408584.7869, 23, 0, 4044.615, 4304.615, 4087.179, 4240.513, 4055.385, 0, 0, []
1632408584.7948, 24, 0, 4038.462, 4406.667, 4074.872, 4229.231, 4054.359, 0, 0, []
1632408584.8028, 25, 0, 4025.128, 4473.333, 4045.128, 4187.692, 4028.718, 0, 0, []
1632408584.8107, 26, 0, 4035.897, 4528.718, 4030.256, 4167.692, 4016.41, 0, 0, []
1632408584.8187, 27, 0, 4059.487, 4576.923, 4028.205, 4189.231, 4024.615, 0, 0, []
1632408584.8265, 28, 0, 4060.513, 4554.359, 4026.667, 4203.59, 4018.462, 0, 0, []
1632408584.8345, 29, 0, 4060, 4477.436, 4023.077, 4206.667, 4022.564, 0, 0, []
1632408584.8424, 30, 0, 4072.308, 4403.59, 4036.41, 4211.795, 4049.744, 0, 0, []
1632408584.8504, 31, 0, 4067.692, 4335.897, 4049.744, 4202.564, 4060.513, 0, 0, []
1632408584.8583, 32, 0, 4042.051, 4304.103, 4055.385, 4192.821, 4047.692, 0, 0, []
1632408584.866, 33, 0, 4024.615, 4349.744, 4071.795, 4198.974, 4032.821, 0, 0, []
1632408584.8739, 34, 0, 4031.795, 4435.897, 4077.436, 4202.051, 4033.333, 0, 0, []
1632408584.8817, 35, 0, 4045.641, 4479.487, 4071.795, 4193.846, 4041.538, 0, 0, []
1632408584.8896, 36, 0, 4047.179, 4488.718, 4059.487, 4194.359, 4029.231, 0, 0, []
1632408584.8974, 37, 0, 4047.179, 4500, 4048.205, 4210.769, 4006.154, 0, 0, []
1632408584.9052, 38, 0, 4054.872, 4526.154, 4048.205, 4224.615, 4002.051, 0, 0, []
1632408584.913, 39, 0, 4053.846, 4671.795, 4037.436, 4217.949, 4006.154, 0, 0, []
1632408584.9209, 40, 0, 4043.077, 4878.974, 4040.513, 4214.359, 4017.436, 0, 0, []
1632408584.9287, 41, 0, 4035.385, 4925.128, 4055.897, 4222.564, 4030.256, 0, 0, []
1632408584.9367, 42, 0, 4025.128, 4988.718, 4051.795, 4215.385, 4023.077, 0, 0, []
1632408584.9445, 43, 0, 4011.282, 5241.538, 4057.436, 4200, 4008.205, 0, 0, []
1632408584.9525, 44, 0, 4021.026, 5343.077, 4068.205, 4197.436, 4018.974, 0, 0, []
1632408584.9604, 45, 0, 4053.846, 5283.59, 4070.256, 4207.179, 4034.872, 0, 0, []
1632408584.9684, 46, 0, 4065.641, 5420.513, 4069.744, 4217.949, 4026.154, 0, 0, []
1632408584.9763, 47, 0, 4055.385, 5628.718, 4067.692, 4215.897, 4027.179, 0, 0, []
1632408584.9842, 48, 0, 4051.795, 5594.359, 4082.564, 4217.949, 4046.667, 0, 0, []
1632408584.9921, 49, 0, 4046.154, 5480, 4088.718, 4219.487, 4048.718, 0, 0, []
1632408585.0001, 50, 0, 4040.513, 5555.385, 4073.333, 4207.692, 4038.974, 0, 0, []
1632408585.008, 51, 0, 4041.538, 5592.308, 4059.487, 4204.103, 4028.205, 0, 0, []
1632408585.016, 52, 0, 4030.769, 5369.744, 4038.974, 4209.231, 4008.718, 0, 0, []
1632408585.0238, 53, 0, 4018.974, 5158.462, 4039.487, 4201.538, 4010.256, 0, 0, []
1632408585.0316, 54, 0, 4014.359, 5232.308, 4055.385, 4194.872, 4030.769, 0, 0, []
1632408585.0395, 55, 0, 4010.256, 5320.513, 4063.59, 4200, 4034.359, 0, 0, []
1632408585.0473, 56, 0, 4024.615, 5102.051, 4072.308, 4194.872, 4045.128, 0, 0, []
1632408585.0552, 57, 0, 4050.769, 4811.282, 4070.256, 4183.59, 4063.59, 0, 0, []
1632408585.0629, 58, 0, 4049.744, 4723.59, 4062.051, 4181.026, 4043.59, 0, 0, []
1632408585.0708, 59, 0, 4038.974, 4706.154, 4049.231, 4188.718, 4021.026, 0, 0, []
1632408585.0786, 60, 0, 4048.718, 4657.436, 4047.692, 4201.538, 4038.974, 0, 0, []
1632408585.0865, 61, 0, 4052.308, 4681.538, 4063.59, 4202.564, 4058.974, 0, 0, []
1632408585.0943, 62, 0, 4037.436, 4707.179, 4069.231, 4196.923, 4063.59, 0, 0, []
1632408585.1022, 63, 0, 4024.615, 4648.718, 4073.846, 4200.513, 4066.154, 0, 0, []
1632408585.1101, 64, 0, 4012.308, 4622.564, 4076.41, 4198.974, 4055.897, 450, 0, []
1632408585.1181, 65, 0, 3992.308, 4690.769, 4068.718, 4183.59, 4035.897, 450, 0, []
1632408585.126, 66, 0, 3982.051, 4846.667, 4063.59, 4167.692, 4026.667, 16187, 0, []
1632408585.134, 67, 0, 3996.923, 4975.385, 4047.692, 4164.103, 4025.641, 450, 0, []
1632408585.1418, 68, 0, 4014.359, 4963.59, 4034.872, 4169.744, 4020, 16109, 0, []
1632408585.1498, 69, 0, 4025.641, 4931.282, 4043.077, 4189.231, 4017.949, 450, 0, []
1632408585.1577, 70, 0, 4040, 4981.026, 4055.385, 4210.769, 4031.282, 16118, 0, []
1632408585.1655, 71, 0, 4049.231, 5054.359, 4060, 4212.308, 4054.359, 450, 0, []
1632408585.1734, 72, 0, 4038.974, 5112.308, 4048.718, 4203.59, 4064.103, 450, 0, []
1632408585.1811, 73, 0, 4020.513, 5147.179, 4052.308, 4197.436, 4057.949, 16133, 0, []
1632408585.189, 74, 0, 4015.385, 5212.821, 4067.179, 4188.205, 4055.897, 450, 0, []
1632408585.1968, 75, 0, 4024.103, 5363.077, 4055.385, 4173.333, 4056.923, 16196, 0, []
1632408585.2047, 76, 0, 4039.487, 5643.59, 4045.641, 4176.41, 4054.872, 450, 0, []
1632408585.2125, 77, 0, 4047.692, 5910.769, 4041.026, 4198.974, 4054.359, 450, 0, []
1632408585.2203, 78, 0, 4035.385, 6016.923, 4038.974, 4203.59, 4060.513, 450, 0, []
1632408585.2281, 79, 0, 4021.026, 6106.667, 4051.282, 4194.359, 4071.795, 16196, 0, []
1632408585.236, 80, 0, 4022.564, 6227.179, 4049.744, 4197.949, 4071.795, 450, 0, []
1632408585.2438, 81, 0, 4022.051, 6304.615, 4029.744, 4205.641, 4045.641, 450, 0, []
1632408585.2518, 82, 0, 4022.051, 6134.359, 4010.256, 4202.564, 4033.333, 450, 0, []
1632408585.2596, 83, 0, 4038.974, 5592.821, 4023.077, 4202.051, 4075.385, 16196, 0, []
1632408585.2676, 84, 0, 4032.308, 5017.949, 4042.051, 4195.385, 4102.564, 450, 0, []
1632408585.2755, 85, 0, 4000, 4795.897, 4023.077, 4176.923, 4072.308, 450, 0, []
1632408585.2835, 86, 0, 4001.538, 4748.718, 4019.487, 4170.769, 4062.564, 450, 0, []
1632408585.2914, 87, 0, 4035.897, 4629.231, 4034.872, 4170.769, 4097.436, 16196, 0, []
1632408585.2993, 88, 0, 4054.359, 4567.692, 4037.949, 4172.308, 4115.385, 450, 0, []
1632408585.3072, 89, 0, 4061.538, 4551.795, 4042.564, 4197.436, 4108.205, 450, 0, []
1632408585.3152, 90, 0, 4064.103, 4583.59, 4036.41, 4214.872, 4100, 450, 0, []
1632408585.3231, 91, 0, 4045.128, 4647.179, 4025.641, 4190.769, 4088.205, 16196, 0, []
1632408585.3309, 92, 0, 4034.872, 4586.154, 4031.282, 4181.026, 4096.923, 450, 0, []
1632408585.3387, 93, 0, 4042.564, 4477.436, 4046.667, 4206.154, 4124.103, 450, 0, []
1632408585.3465, 94, 0, 4028.718, 4410.256, 4058.462, 4208.205, 4128.718, 450, 0, []
1632408585.3544, 95, 0, 4004.103, 4378.462, 4052.308, 4195.385, 4118.974, 16196, 0, []
1632408585.3622, 96, 0, 3998.974, 4363.59, 4045.641, 4207.692, 4120, 450, 0, []
1632408585.3701, 97, 0, 4003.59, 4345.128, 4042.051, 4216.41, 4124.615, 450, 0, []
1632408585.3778, 98, 0, 4000, 4309.744, 4043.59, 4200.513, 4127.179, 450, 0, []
1632408585.3857, 99, 0, 4000, 4273.333, 4058.462, 4188.718, 4139.487, 16196, 0, []
1632408585.3935, 100, 0, 4007.692, 4238.974, 4053.333, 4186.667, 4150.769, 450, 0, []
1632408585.4014, 101, 0, 4013.846, 4189.231, 4036.923, 4181.026, 4148.205, 450, 0, []
1632408585.4092, 102, 0, 4014.359, 4154.872, 4026.667, 4182.051, 4146.667, 450, 0, []
1632408585.4172, 103, 0, 4017.949, 4156.41, 4029.231, 4197.436, 4157.436, 16196, 0, []
1632408585.425, 104, 0, 4025.128, 4171.282, 4051.282, 4202.564, 4166.154, 450, 0, []
1632408585.433, 105, 0, 4014.359, 4197.949, 4044.103, 4186.154, 4153.846, 450, 0, []
1632408585.4409, 106, 0, 4000, 4235.385, 4029.231, 4189.231, 4150.769, 450, 0, []
1632408585.4489, 107, 0, 4003.59, 4246.154, 4039.487, 4214.872, 4169.744, 16196, 0, []
1632408585.4568, 108, 0, 4004.103, 4251.282, 4040, 4213.333, 4171.282, 450, 0, []
1632408585.4647, 109, 0, 3992.308, 4281.026, 4031.795, 4203.077, 4159.487, 450, 0, []
1632408585.4726, 110, 0, 3985.641, 4313.846, 4029.231, 4213.846, 4168.718, 450, 0, []
1632408585.4806, 111, 0, 3988.718, 4316.923, 4031.795, 4215.385, 4186.667, 16196, 0, []
1632408585.4885, 112, 0, 3982.051, 4289.231, 4024.615, 4200, 4185.128, 450, 0, []
1632408585.4965, 113, 0, 3970.256, 4298.462, 4005.128, 4194.872, 4175.897, 450, 0, []
1632408585.5043, 114, 0, 3972.821, 4367.179, 4008.718, 4206.154, 4178.974, 450, 0, []
1632408585.5121, 115, 0, 3989.744, 4451.282, 4025.128, 4214.359, 4200.513, 16196, 0, []
1632408585.52, 116, 0, 3994.359, 4482.564, 4040, 4213.846, 4223.077, 450, 0, []
1632408585.5278, 117, 0, 3980.513, 4446.667, 4052.308, 4198.974, 4220.513, 450, 0, []
1632408585.5357, 118, 0, 3970.769, 4424.615, 4048.718, 4182.564, 4211.795, 450, 0, []
1632408585.5434, 119, 0, 3973.846, 4467.692, 4050.769, 4188.718, 4218.462, 16196, 0, []
1632408585.5513, 120, 0, 3976.41, 4515.897, 4055.385, 4202.051, 4222.051, 450, 0, []
1632408585.5591, 121, 0, 3976.41, 4492.821, 4053.846, 4206.154, 4220, 450, 0, []
1632408585.5671, 122, 0, 3971.795, 4448.205, 4054.359, 4201.538, 4218.462, 450, 0, []
1632408585.575, 123, 0, 3965.641, 4407.692, 4047.692, 4196.923, 4215.897, 16196, 0, []
1632408585.5829, 124, 0, 3971.795, 4358.974, 4060, 4206.667, 4223.077, 450, 0, []
1632408585.5908, 125, 0, 3989.231, 4347.179, 4073.333, 4215.897, 4236.41, 450, 0, []
1632408585.5988, 126, 0, 3985.128, 4344.103, 4061.026, 4205.128, 4231.282, 450, 0, []
1632408585.6067, 127, 0, 3970.769, 4316.923, 4062.051, 4192.821, 4220.513, 16196, 0, []
1632408585.6147, 128, 0, 3980.513, 4348.205, 4058.974, 4197.949, 4222.564, 450, 0, []
1632408585.6225, 0, 0, 3998.974, 4445.128, 4046.667, 4202.051, 4231.795, 450, 0, []
1632408585.6305, 1, 0, 4015.897, 4478.462, 4053.333, 4208.205, 4245.641, 450, 0, []
1632408585.6384, 2, 0, 4036.923, 4461.026, 4068.718, 4225.128, 4251.795, 16198, 0, []
1632408585.6462, 3, 0, 4045.128, 4542.564, 4068.718, 4233.846, 4238.974, 450, 0, []
1632408585.6541, 4, 0, 4032.821, 4647.692, 4053.846, 4236.41, 4227.179, 16139, 0, []
1632408585.6619, 5, 0, 4025.128, 4697.949, 4057.436, 4235.897, 4236.41, 450, 0, []
1632408585.6697, 6, 0, 4024.103, 4833.333, 4060.513, 4229.231, 4249.231, 16128, 0, []
1632408585.6775, 7, 0, 4017.949, 4962.564, 4054.872, 4235.897, 4251.795, 450, 0, []
1632408585.6854, 8, 0, 4014.359, 4907.179, 4067.692, 4243.59, 4248.718, 450, 0, []
1632408585.6932, 9, 0, 4015.897, 4800.513, 4067.692, 4223.59, 4245.641, 16154, 0, []
1632408585.701, 10, 0, 4024.103, 4789.231, 4062.564, 4207.179, 4247.179, 450, 0, []
1632408585.7088, 11, 0, 4035.897, 4771.282, 4061.026, 4223.59, 4236.41, 16196, 0, []
1632408585.7168, 12, 0, 4036.923, 4718.974, 4040, 4236.41, 4215.897, 450, 0, []
1632408585.7247, 13, 0, 4026.667, 4753.846, 4029.231, 4231.282, 4215.897, 450, 0, []
1632408585.7327, 14, 0, 4026.667, 4874.872, 4037.949, 4231.795, 4229.231, 450, 0, []
1632408585.7405, 15, 0, 4037.436, 5006.154, 4055.897, 4238.462, 4241.538, 16196, 0, []
1632408585.7485, 16, 0, 4027.179, 5096.41, 4071.795, 4243.077, 4249.744, 0, 0, []
1632408585.7564, 17, 0, 4027.179, 5112.821, 4079.487, 4245.641, 4257.949, 0, 0, []
1632408585.7644, 18, 0, 4058.462, 4957.949, 4093.333, 4237.949, 4256.41, 0, 0, []
1632408585.7723, 19, 0, 4063.077, 4658.462, 4083.077, 4227.692, 4239.487, 0, 0, []
1632408585.7802, 20, 0, 4050.256, 4557.949, 4061.538, 4243.077, 4235.385, 0, 0, []
1632408585.7881, 21, 0, 4040, 4849.744, 4054.872, 4251.795, 4231.282, 0, 0, []
1632408585.7961, 22, 0, 4012.308, 5342.051, 4053.333, 4236.41, 4206.154, 0, 0, []
1632408585.804, 23, 0, 3999.487, 5735.385, 4068.718, 4227.179, 4204.615, 0, 0, []
1632408585.8118, 24, 0, 4012.308, 5949.231, 4069.744, 4217.436, 4218.974, 0, 0, []
1632408585.8196, 25, 0, 4009.744, 6038.462, 4042.051, 4207.692, 4191.282, 0, 0, []
1632408585.8274, 26, 0, 4007.179, 6032.308, 4027.692, 4213.846, 4163.077, 0, 0, []
1632408585.8353, 27, 0, 4015.897, 6012.308, 4034.359, 4218.462, 4183.077, 0, 0, []
1632408585.8431, 28, 0, 3998.462, 5917.949, 4056.923, 4215.897, 4193.846, 0, 0, []
1632408585.851, 29, 0, 3988.205, 5617.436, 4066.667, 4212.308, 4187.179, 0, 0, []
1632408585.8587, 30, 0, 4012.308, 5355.385, 4051.282, 4198.462, 4194.359, 0, 0, []
1632408585.8667, 31, 0, 4031.795, 5402.564, 4047.692, 4201.538, 4194.872, 0, 0, []
1632408585.8746, 32, 0, 4033.333, 5431.282, 4051.282, 4218.974, 4184.615, 0, 0, []
1632408585.8826, 33, 0, 4021.538, 5264.103, 4045.128, 4207.179, 4187.179, 0, 0, []
1632408585.8905, 34, 0, 4011.282, 5125.128, 4044.615, 4188.205, 4200, 0, 0, []
1632408585.8984, 35, 0, 4001.538, 5092.308, 4062.051, 4187.179, 4198.974, 0, 0, []
1632408585.9063, 36, 0, 4003.077, 5233.846, 4077.949, 4193.846, 4197.949, 0, 0, []
1632408585.9143, 37, 0, 4021.026, 5433.333, 4066.154, 4197.436, 4208.718, 0, 0, []
1632408585.9222, 38, 0, 4026.667, 5502.051, 4050.256, 4192.821, 4195.385, 0, 0, []
1632408585.9302, 39, 0, 4011.795, 5642.564, 4036.923, 4185.641, 4163.077, 0, 0, []
1632408585.938, 40, 0, 4014.872, 5834.872, 4033.846, 4192.821, 4169.231, 0, 0, []
1632408585.9459, 41, 0, 4012.821, 5891.282, 4045.128, 4193.333, 4188.205, 0, 0, []
1632408585.9538, 42, 0, 3969.231, 6023.077, 4024.103, 4158.974, 4157.436, 0, 0, []
1632408585.9616, 43, 0, 3967.692, 6066.154, 4009.744, 4144.103, 4140, 0, 0, []
1632408585.9695, 44, 0, 4015.385, 5863.077, 4031.282, 4188.205, 4161.026, 0, 0, []
1632408585.9772, 45, 0, 4006.154, 5879.487, 4024.615, 4212.308, 4143.59, 0, 0, []
1632408585.9851, 46, 0, 3975.385, 5794.359, 4017.436, 4187.179, 4117.436, 0, 0, []
1632408585.9929, 47, 0, 3996.923, 5396.41, 4052.821, 4193.333, 4140, 0, 0, []
1632408586.0008, 48, 0, 4001.026, 5387.692, 4086.667, 4218.974, 4148.205, 0, 0, []
1632408586.0086, 49, 0, 3980, 5624.103, 4085.641, 4207.179, 4128.718, 0, 0, []
1632408586.0164, 50, 0, 4001.538, 5613.846, 4077.949, 4197.436, 4138.974, 0, 0, []
1632408586.0242, 51, 0, 4023.077, 5599.487, 4077.436, 4206.154, 4140, 0, 0, []
1632408586.0322, 52, 0, 4019.487, 5616.41, 4064.103, 4207.692, 4123.077, 0, 0, []
1632408586.0401, 53, 0, 4024.615, 5534.359, 4072.821, 4218.974, 4141.538, 0, 0, []
1632408586.0481, 54, 0, 4030.769, 5557.436, 4106.154, 4237.949, 4178.974, 0, 0, []
1632408586.0559, 55, 0, 4038.462, 5509.231, 4109.231, 4231.795, 4202.564, 0, 0, []
1632408586.0639, 56, 0, 4065.641, 5345.128, 4113.333, 4229.744, 4217.436, 0, 0, []
1632408586.0718, 57, 0, 4084.615, 5378.974, 4116.923, 4253.846, 4218.462, 0, 0, []
1632408586.0798, 58, 0, 4092.821, 5405.641, 4109.744, 4275.897, 4229.744, 0, 0, []
1632408586.0877, 59, 0, 4095.385, 5235.385, 4127.179, 4278.974, 4269.231, 0, 0, []
1632408586.0955, 60, 0, 4090.256, 5098.974, 4146.154, 4278.974, 4286.154, 0, 0, []
1632408586.1034, 61, 0, 4107.179, 5273.333, 4134.872, 4280, 4272.821, 0, 0, []
1632408586.1112, 62, 0, 4123.59, 5614.872, 4117.436, 4277.949, 4271.795, 0, 0, []
1632408586.1191, 63, 0, 4112.821, 5766.667, 4133.846, 4280, 4293.846, 0, 0, []
1632408586.1269, 64, 0, 4099.487, 5741.538, 4141.026, 4273.846, 4289.231, 450, 0, []
1632408586.1347, 65, 0, 4117.436, 5602.051, 4124.103, 4280.513, 4273.846, 450, 0, []
1632408586.1425, 66, 0, 4130.256, 5413.846, 4146.667, 4304.615, 4297.949, 16184, 0, []
1632408586.1504, 67, 0, 4120.513, 5364.103, 4177.949, 4312.308, 4318.974, 450, 0, []
1632408586.1582, 68, 0, 4148.718, 5388.718, 4174.872, 4326.667, 4324.615, 16103, 0, []
1632408586.1661, 69, 0, 4190.256, 5286.154, 4194.359, 4357.436, 4366.667, 450, 0, []
1632408586.1739, 70, 0, 4196.923, 5236.923, 4220, 4377.436, 4404.103, 16117, 0, []
1632408586.1818, 71, 0, 4200.513, 5302.051, 4221.026, 4391.282, 4390.769, 450, 0, []
1632408586.1897, 72, 0, 4216.923, 5255.897, 4232.821, 4399.487, 4398.974, 450, 0, []
1632408586.1977, 73, 0, 4215.897, 5256.41, 4237.436, 4377.949, 4424.103, 16149, 0, []
1632408586.2056, 74, 0, 4208.205, 5331.795, 4228.205, 4375.385, 4410.256, 450, 0, []
1632408586.2136, 75, 0, 4218.462, 5253.333, 4241.026, 4402.051, 4420.513, 16195, 0, []
1632408586.2214, 76, 0, 4230.769, 5083.59, 4254.872, 4399.487, 4450.769, 450, 0, []
1632408586.2294, 77, 0, 4228.205, 5029.231, 4227.179, 4387.179, 4433.846, 450, 0, []
1632408586.2373, 78, 0, 4215.897, 5130.769, 4201.026, 4392.308, 4419.487, 450, 0, []
1632408586.2453, 79, 0, 4227.179, 5281.538, 4226.667, 4398.462, 4443.077, 16195, 0, []
1632408586.2532, 80, 0, 4234.359, 5326.667, 4228.718, 4385.641, 4444.615, 450, 0, []
1632408586.2609, 81, 0, 4198.462, 5306.667, 4199.487, 4359.487, 4413.333, 450, 0, []
1632408586.2688, 82, 0, 4190.769, 5403.077, 4207.692, 4368.205, 4406.154, 450, 0, []
1632408586.2766, 83, 0, 4221.538, 5466.154, 4224.615, 4385.641, 4428.718, 16195, 0, []
1632408586.2845, 84, 0, 4220.513, 5376.923, 4211.282, 4364.615, 4435.897, 450, 0, []
1632408586.2923, 85, 0, 4217.949, 5249.744, 4195.897, 4374.872, 4434.359, 450, 0, []
1632408586.3001, 86, 0, 4221.026, 5073.846, 4213.333, 4402.564, 4447.179, 450, 0, []
1632408586.3079, 87, 0, 4204.103, 4930.256, 4222.051, 4366.667, 4438.974, 16195, 0, []
1632408586.3158, 88, 0, 4208.205, 4834.872, 4194.872, 4345.128, 4410.769, 450, 0, []
1632408586.3236, 89, 0, 4205.641, 4631.795, 4201.026, 4369.744, 4410.256, 450, 0, []
1632408586.3316, 90, 0, 4175.385, 4403.59, 4218.974, 4351.795, 4415.385, 450, 0, []
1632408586.3394, 91, 0, 4184.615, 4397.949, 4190.769, 4323.59, 4396.41, 16195, 0, []
1632408586.3474, 92, 0, 4207.692, 4561.026, 4174.359, 4343.59, 4390.256, 450, 0, []
1632408586.3553, 93, 0, 4188.718, 4747.179, 4198.462, 4355.897, 4407.692, 450, 0, []
1632408586.3633, 94, 0, 4187.692, 4853.333, 4214.359, 4338.974, 4406.667, 450, 0, []
1632408586.3712, 95, 0, 4210.256, 4703.077, 4186.154, 4325.641, 4387.692, 16195, 0, []
1632408586.3791, 96, 0, 4188.718, 4484.615, 4164.103, 4329.231, 4394.872, 450, 0, []
1632408586.387, 97, 0, 4165.128, 4550.769, 4189.231, 4338.974, 4408.718, 450, 0, []
1632408586.395, 98, 0, 4188.205, 4760, 4197.436, 4330.769, 4391.795, 450, 0, []
1632408586.4029, 99, 0, 4204.103, 4767.692, 4189.231, 4329.231, 4390.769, 16195, 0, []
1632408586.4109, 100, 0, 4186.667, 4708.718, 4198.462, 4328.205, 4417.436, 450, 0, []
1632408586.4187, 101, 0, 4176.41, 4775.385, 4190.256, 4307.179, 4397.949, 450, 0, []
1632408586.4265, 102, 0, 4195.385, 4747.179, 4185.128, 4322.564, 4376.41, 450, 0, []
1632408586.4344, 103, 0, 4210.256, 4605.128, 4205.128, 4350.769, 4418.462, 16195, 0, []
1632408586.4422, 104, 0, 4197.436, 4617.436, 4210.256, 4333.333, 4432.308, 450, 0, []
1632408586.4501, 105, 0, 4187.692, 4685.128, 4174.872, 4318.974, 4390.256, 450, 0, []
1632408586.4578, 106, 0, 4176.41, 4586.667, 4150.256, 4335.897, 4380.513, 450, 0, []
1632408586.4657, 107, 0, 4169.231, 4528.718, 4187.692, 4340.513, 4406.667, 16195, 0, []
1632408586.4735, 108, 0, 4187.179, 4769.231, 4195.385, 4332.308, 4405.128, 450, 0, []
1632408586.4814, 109, 0, 4195.385, 5086.667, 4158.462, 4334.872, 4378.974, 450, 0, []
1632408586.4892, 110, 0, 4165.128, 5180, 4150.769, 4317.436, 4374.359, 450, 0, []
1632408586.4971, 111, 0, 4141.026, 5181.538, 4149.231, 4285.641, 4368.718, 16195, 0, []
1632408586.505, 112, 0, 4158.462, 5166.154, 4128.205, 4285.128, 4346.667, 450, 0, []
1632408586.513, 113, 0, 4160, 5024.615, 4107.692, 4299.487, 4342.564, 450, 0, []
1632408586.5209, 114, 0, 4155.385, 4970.256, 4130.256, 4297.436, 4365.128, 450, 0, []
1632408586.5289, 115, 0, 4195.897, 5076.41, 4153.333, 4296.923, 4378.462, 16195, 0, []
1632408586.5367, 116, 0, 4213.333, 5153.846, 4122.051, 4297.949, 4360, 450, 0, []
1632408586.5447, 117, 0, 4176.41, 5293.333, 4104.103, 4275.385, 4334.872, 450, 0, []
1632408586.5526, 118, 0, 4177.436, 5395.385, 4119.487, 4260.513, 4329.744, 450, 0, []
1632408586.5606, 119, 0, 4205.128, 5321.538, 4130.256, 4276.41, 4337.436, 16195, 0, []
1632408586.5685, 120, 0, 4187.179, 5367.692, 4127.692, 4291.795, 4329.744, 450, 0, []
1632408586.5762, 121, 0, 4183.59, 5468.205, 4113.333, 4293.846, 4313.846, 450, 0, []
1632408586.5841, 122, 0, 4201.026, 5342.051, 4102.051, 4288.205, 4319.487, 450, 0, []
1632408586.5919, 123, 0, 4184.615, 5140, 4100.513, 4269.231, 4333.333, 16195, 0, []
1632408586.5998, 124, 0, 4183.59, 4816.41, 4090.256, 4247.179, 4321.026, 450, 0, []
1632408586.6076, 125, 0, 4202.564, 4520.513, 4059.487, 4243.59, 4293.333, 450, 0, []
1632408586.6154, 126, 0, 4196.923, 4841.026, 4043.077, 4236.923, 4304.615, 450, 0, []
1632408586.6232, 127, 0, 4196.923, 5493.333, 4052.308, 4217.949, 4328.718, 16195, 0, []
1632408586.6311, 128, 0, 4202.051, 5647.179, 4038.462, 4218.974, 4315.385, 450, 0, []
1632408586.6389, 0, 0, 4196.41, 5523.59, 4040, 4231.282, 4311.795, 450, 0, []
1632408586.6469, 1, 0, 4210.256, 5724.103, 4065.128, 4214.872, 4328.205, 450, 0, []
1632408586.6547, 2, 0, 4215.385, 5866.154, 4041.026, 4185.641, 4318.462, 16184, 0, []
1632408586.6627, 3, 0, 4198.974, 5590.256, 4029.231, 4185.641, 4305.641, 450, 0, []
1632408586.6706, 4, 0, 4212.821, 5493.846, 4048.205, 4199.487, 4310.769, 16104, 0, []
1632408586.6786, 5, 0, 4218.462, 5842.051, 4029.231, 4197.436, 4300.513, 450, 0, []
1632408586.6865, 6, 0, 4185.128, 6035.897, 4017.949, 4190.256, 4278.462, 16115, 0, []
1632408586.6944, 7, 0, 4186.154, 5813.333, 4031.282, 4203.59, 4272.821, 450, 0, []
1632408586.7023, 8, 0, 4203.59, 5604.103, 4031.282, 4213.333, 4277.949, 450, 0, []
1632408586.7102, 9, 0, 4178.974, 5581.026, 4019.487, 4189.744, 4275.897, 16161, 0, []
1632408586.7181, 10, 0, 4169.231, 5593.333, 4009.231, 4174.359, 4254.872, 450, 0, []
1632408586.7259, 11, 0, 4184.615, 5540, 4013.846, 4194.359, 4242.564, 16202, 0, []
1632408586.7337, 12, 0, 4173.333, 5501.026, 4024.615, 4193.846, 4255.385, 450, 0, []
1632408586.7415, 13, 0, 4162.051, 5622.051, 4018.974, 4165.641, 4247.179, 450, 0, []
1632408586.7494, 14, 0, 4179.487, 5706.154, 4001.026, 4175.897, 4228.205, 450, 0, []
1632408586.7572, 15, 0, 4196.923, 5618.974, 4008.205, 4200.513, 4261.026, 16202, 0, []
1632408586.7651, 16, 0, 4202.564, 5630.769, 4032.308, 4189.744, 4291.795, 0, 0, []
1632408586.7728, 17, 0, 4201.026, 5803.59, 4020, 4186.667, 4258.974, 0, 0, []
1632408586.7807, 18, 0, 4185.641, 5826.154, 4012.308, 4195.897, 4239.487, 0, 0, []
1632408586.7885, 19, 0, 4173.846, 5557.436, 4033.846, 4183.077, 4260, 0, 0, []
1632408586.7964, 20, 0, 4189.231, 5363.077, 4030.256, 4175.897, 4253.333, 0, 0, []
1632408586.8042, 21, 0, 4192.821, 5390.256, 4018.462, 4185.641, 4236.923, 0, 0, []
1632408586.8121, 22, 0, 4161.538, 5364.615, 4010.256, 4173.846, 4246.154, 0, 0, []
1632408586.82, 23, 0, 4150.256, 5188.718, 3993.846, 4155.385, 4232.308, 0, 0, []
1632408586.828, 24, 0, 4175.897, 4965.641, 3996.923, 4174.359, 4214.359, 0, 0, []
1632408586.8359, 25, 0, 4178.974, 4827.179, 4001.538, 4199.487, 4237.949, 0, 0, []
1632408586.8439, 26, 0, 4164.103, 4753.333, 4002.564, 4182.564, 4255.897, 0, 0, []
1632408586.8517, 27, 0, 4169.231, 4581.026, 4001.026, 4149.744, 4242.051, 0, 0, []
1632408586.8597, 28, 0, 4172.821, 4342.051, 3991.282, 4148.718, 4225.128, 0, 0, []
1632408586.8676, 29, 0, 4167.692, 4247.179, 3989.231, 4159.487, 4230.769, 0, 0, []
1632408586.8756, 30, 0, 4161.538, 4195.897, 3995.897, 4151.282, 4246.154, 0, 0, []
1632408586.8835, 31, 0, 4133.333, 4070.256, 4004.103, 4138.974, 4235.897, 0, 0, []
1632408586.8912, 32, 0, 4107.179, 4226.667, 3981.538, 4121.538, 4206.154, 0, 0, []
1632408586.8991, 33, 0, 4114.872, 4574.872, 3965.128, 4112.821, 4190.256, 0, 0, []
1632408586.9069, 34, 0, 4122.564, 4630.256, 3978.974, 4136.923, 4187.692, 0, 0, []
1632408586.9148, 35, 0, 4100, 4545.128, 3959.487, 4145.128, 4176.41, 0, 0, []
1632408586.9226, 36, 0, 4085.641, 4636.923, 3951.282, 4125.641, 4180, 0, 0, []
1632408586.9305, 37, 0, 4081.026, 4729.231, 3974.872, 4127.179, 4192.821, 0, 0, []
1632408586.9382, 38, 0, 4057.436, 4665.128, 3970.256, 4131.795, 4173.333, 0, 0, []
1632408586.9461, 39, 0, 4040.513, 4629.744, 3952.308, 4108.718, 4148.205, 0, 0, []
1632408586.9539, 40, 0, 4042.051, 4692.308, 3947.179, 4092.821, 4151.795, 0, 0, []
1632408586.9619, 41, 0, 4049.744, 4705.641, 3953.846, 4105.128, 4164.615, 0, 0, []
1632408586.9698, 42, 0, 4065.128, 4566.667, 3954.359, 4114.872, 4159.487, 0, 0, []
1632408586.9777, 43, 0, 4081.026, 4403.077, 3951.795, 4117.436, 4148.718, 0, 0, []
1632408586.9856, 44, 0, 4080.513, 4429.231, 3968.718, 4127.179, 4156.41, 0, 0, []
1632408586.9936, 45, 0, 4064.103, 4523.59, 3976.41, 4127.179, 4173.846, 0, 0, []
1632408587.0015, 46, 0, 4048.205, 4501.538, 3979.487, 4121.026, 4179.487, 0, 0, []
1632408587.0095, 47, 0, 4033.333, 4509.231, 3993.333, 4125.641, 4166.154, 0, 0, []
1632408587.0173, 48, 0, 4020, 4587.179, 3993.333, 4125.128, 4146.154, 0, 0, []
1632408587.0253, 49, 0, 4003.59, 4577.949, 3981.538, 4109.231, 4129.231, 0, 0, []
1632408587.0332, 50, 0, 3985.641, 4445.641, 3965.128, 4094.359, 4113.846, 0, 0, []
1632408587.041, 51, 0, 3986.667, 4338.974, 3965.128, 4090.256, 4114.359, 0, 0, []
1632408587.0489, 52, 0, 4001.538, 4350.769, 3974.359, 4093.333, 4126.667, 0, 0, []
1632408587.0566, 53, 0, 4003.59, 4348.718, 3953.333, 4092.821, 4118.974, 0, 0, []
1632408587.0645, 54, 0, 3996.923, 4340.513, 3929.744, 4087.692, 4101.538, 0, 0, []
1632408587.0723, 55, 0, 4002.564, 4557.949, 3933.333, 4097.949, 4104.103, 0, 0, []
1632408587.0802, 56, 0, 4009.231, 4837.436, 3950.256, 4107.179, 4103.59, 0, 0, []
1632408587.088, 57, 0, 4007.692, 4831.795, 3951.282, 4098.462, 4092.821, 0, 0, []
1632408587.0958, 58, 0, 4012.308, 4809.744, 3935.897, 4105.128, 4100.513, 0, 0, []
1632408587.1036, 59, 0, 4017.949, 4953.333, 3948.205, 4124.103, 4112.308, 0, 0, []
1632408587.1115, 60, 0, 4009.231, 4960, 3969.231, 4112.821, 4107.179, 0, 0, []
1632408587.1193, 61, 0, 3990.256, 4933.846, 3976.41, 4094.872, 4106.667, 0, 0, []
1632408587.1273, 62, 0, 3977.436, 4983.59, 3989.744, 4107.692, 4108.205, 0, 0, []
1632408587.1351, 63, 0, 3968.205, 4962.564, 3992.308, 4121.538, 4091.282, 0, 0, []
1632408587.1431, 64, 0, 3955.897, 4924.615, 3983.077, 4124.615, 4078.462, 450, 0, []
1632408587.151, 65, 0, 3948.718, 5038.974, 3969.744, 4128.718, 4082.051, 450, 0, []
1632408587.159, 66, 0, 3945.641, 5207.179, 3968.718, 4120, 4080, 16156, 0, []
1632408587.1669, 67, 0, 3942.564, 5130.769, 3984.103, 4112.308, 4070.769, 450, 0, []
1632408587.1748, 68, 0, 3940, 4976.923, 3974.359, 4110.769, 4064.615, 16138, 0, []
1632408587.1827, 69, 0, 3933.846, 5044.615, 3956.41, 4097.949, 4048.205, 450, 0, []
1632408587.1907, 70, 0, 3922.051, 5033.846, 3946.667, 4081.538, 4029.744, 16219, 0, []
1632408587.1986, 71, 0, 3924.615, 5050.769, 3950.769, 4086.154, 4041.026, 450, 0, []
1632408587.2064, 72, 0, 3953.846, 5377.436, 3973.846, 4099.487, 4066.667, 450, 0, []
1632408587.2142, 73, 0, 3965.641, 5173.333, 3967.179, 4080.513, 4063.077, 16126, 0, []
1632408587.222, 74, 0, 3938.974, 4199.487, 3943.59, 4046.667, 4039.487, 450, 0, []
1632408587.2299, 75, 0, 3916.41, 3652.821, 3949.231, 4052.821, 4033.846, 16282, 0, []
1632408587.2377, 76, 0, 3924.103, 3680, 3969.744, 4090.256, 4043.077, 450, 0, []
1632408587.2456, 77, 0, 3932.821, 3469.231, 3970.256, 4098.974, 4042.051, 450, 0, []
1632408587.2533, 78, 0, 3924.615, 3270.256, 3941.026, 4078.974, 4025.128, 450, 0, []
1632408587.2612, 79, 0, 3922.564, 3446.154, 3928.718, 4087.179, 4006.667, 16282, 0, []
1632408587.269, 80, 0, 3933.846, 3564.103, 3938.462, 4110.769, 4004.103, 450, 0, []
1632408587.2769, 81, 0, 3948.718, 3443.59, 3937.949, 4102.051, 4018.462, 450, 0, []
1632408587.2847, 82, 0, 3955.385, 3336.923, 3940, 4084.103, 4036.923, 450, 0, []
1632408587.2926, 83, 0, 3945.641, 3441.538, 3942.051, 4080, 4042.564, 16282, 0, []
1632408587.3005, 84, 0, 3927.179, 3598.462, 3949.231, 4076.923, 4036.923, 450, 0, []
1632408587.3085, 85, 0, 3921.026, 3493.333, 3964.615, 4080.513, 4034.359, 450, 0, []
1632408587.3164, 86, 0, 3936.923, 3476.923, 3963.077, 4092.308, 4043.59, 450, 0, []
1632408587.3244, 87, 0, 3946.667, 4174.359, 3955.897, 4087.692, 4044.103, 16282, 0, []
1632408587.3322, 88, 0, 3933.333, 4671.795, 3940, 4071.795, 4023.59, 450, 0, []
1632408587.3402, 89, 0, 3918.974, 3985.641, 3930.256, 4068.205, 4010.769, 450, 0, []
1632408587.3481, 90, 0, 3913.333, 3165.641, 3938.462, 4066.667, 3998.974, 450, 0, []
1632408587.3559, 91, 0, 3917.436, 3123.077, 3938.974, 4061.026, 3982.564, 16282, 0, []
1632408587.3638, 92, 0, 3928.205, 3171.282, 3941.538, 4058.974, 3993.846, 450, 0, []
1632408587.3715, 93, 0, 3920, 2885.641, 3943.59, 4061.538, 4011.795, 450, 0, []
1632408587.3794, 94, 0, 3902.051, 2891.795, 3938.462, 4071.795, 4014.359, 450, 0, []
1632408587.3872, 95, 0, 3912.821, 3287.692, 3943.077, 4083.59, 4020.513, 16282, 0, []
1632408587.3951, 96, 0, 3932.821, 3467.692, 3938.974, 4087.692, 4024.615, 450, 0, []
1632408587.4029, 97, 0, 3929.744, 3244.103, 3928.205, 4096.41, 4009.744, 450, 0, []
1632408587.4107, 98, 0, 3925.128, 3148.718, 3926.154, 4097.436, 3997.436, 450, 0, []
1632408587.4185, 99, 0, 3931.795, 3222.564, 3938.462, 4073.333, 4004.103, 16282, 0, []
1632408587.4264, 100, 0, 3926.667, 3118.974, 3951.282, 4057.436, 4015.897, 450, 0, []
1632408587.4342, 101, 0, 3913.846, 3507.692, 3948.718, 4072.308, 4022.564, 450, 0, []
1632408587.4422, 102, 0, 3908.718, 4604.615, 3956.923, 4084.103, 4020.513, 450, 0, []
1632408587.45, 103, 0, 3909.744, 5485.641, 3963.59, 4085.641, 4017.436, 16282, 0, []
1632408587.458, 104, 0, 3913.846, 5830.256, 3958.462, 4099.487, 4013.333, 450, 0, []
1632408587.4659, 105, 0, 3923.077, 6144.103, 3965.128, 4109.744, 4011.282, 450, 0, []
1632408587.4739, 106, 0, 3937.436, 6423.59, 3955.385, 4096.923, 4009.231, 450, 0, []
1632408587.4818, 107, 0, 3956.41, 6233.333, 3942.564, 4080.513, 3994.872, 16282, 0, []
1632408587.4897, 108, 0, 3979.487, 5813.846, 3944.615, 4088.718, 3989.231, 450, 0, []
1632408587.4976, 109, 0, 3990.769, 5297.949, 3934.872, 4103.077, 4001.538, 450, 0, []
1632408587.5056, 110, 0, 3981.538, 4592.821, 3930.769, 4095.385, 3997.436, 450, 0, []
1632408587.5135, 111, 0, 3972.308, 4024.103, 3937.949, 4090.769, 3980, 16282, 0, []
1632408587.5213, 112, 0, 3976.41, 3839.487, 3948.205, 4102.051, 3989.231, 450, 0, []
1632408587.5291, 113, 0, 3987.692, 4069.744, 3963.59, 4107.179, 4015.897, 450, 0, []
1632408587.5369, 114, 0, 3994.872, 4776.41, 3964.615, 4110.256, 4025.128, 450, 0, []
1632408587.5448, 115, 0, 3997.436, 5561.538, 3954.359, 4121.538, 4017.949, 16282, 0, []
1632408587.5526, 116, 0, 3999.487, 5865.641, 3946.667, 4128.205, 4012.821, 450, 0, []
1632408587.5605, 117, 0, 3993.846, 5935.385, 3956.923, 4126.667, 4017.949, 450, 0, []
1632408587.5682, 118, 0, 3973.846, 6091.282, 3971.282, 4123.59, 4022.051, 450, 0, []
1632408587.5761, 119, 0, 3957.436, 6307.179, 3973.846, 4130.256, 4015.897, 16282, 0, []
1632408587.5839, 120, 0, 3949.744, 6465.128, 3982.564, 4141.538, 4013.846, 450, 0, []
1632408587.5919, 121, 0, 3948.718, 6343.077, 3975.897, 4127.692, 4018.462, 450, 0, []
1632408587.5998, 122, 0, 3959.487, 6084.103, 3961.538, 4111.795, 4015.385, 450, 0, []
1632408587.6077, 123, 0, 3974.359, 6089.231, 3962.051, 4127.692, 4004.103, 16282, 0, []
1632408587.6156, 124, 0, 3975.385, 6309.744, 3948.718, 4146.667, 3992.821, 450, 0, []
1632408587.6236, 125, 0, 3966.154, 6504.103, 3937.949, 4142.051, 3986.667, 450, 0, []
1632408587.6315, 126, 0, 3960.513, 6603.077, 3941.026, 4128.205, 3988.718, 450, 0, []
1632408587.6395, 127, 0, 3944.615, 6537.436, 3952.821, 4127.179, 3993.333, 16282, 0, []
1632408587.6473, 128, 0, 3927.692, 6394.359, 3975.385, 4141.026, 3991.795, 450, 0, []
1632408587.6552, 0, 0, 3932.821, 6447.179, 3984.615, 4136.41, 3988.718, 450, 0, []
1632408587.6631, 1, 0, 3938.974, 6653.333, 3980.513, 4107.179, 3981.026, 450, 0, []
1632408587.671, 2, 0, 3929.744, 6681.026, 3963.077, 4101.538, 3959.487, 16118, 0, []
1632408587.679, 3, 0, 3926.154, 6745.128, 3950.256, 4122.051, 3936.41, 450, 0, []
1632408587.6868, 4, 0, 3924.103, 6775.385, 3951.282, 4123.59, 3924.103, 16156, 0, []
1632408587.6946, 5, 0, 3910.769, 5915.897, 3944.103, 4106.154, 3930.769, 450, 0, []
1632408587.7024, 6, 0, 3906.667, 4567.179, 3951.795, 4104.615, 3942.051, 16140, 0, []
1632408587.7103, 7, 0, 3913.333, 3953.846, 3963.59, 4120, 3941.026, 450, 0, []
1632408587.7181, 8, 0, 3913.333, 3853.333, 3961.538, 4112.308, 3940, 450, 0, []
1632408587.726, 9, 0, 3906.667, 3561.538, 3962.564, 4082.564, 3948.205, 16090, 0, []
1632408587.7337, 10, 0, 3894.359, 3318.974, 3952.821, 4077.436, 3949.744, 450, 0, []
1632408587.7417, 11, 0, 3892.821, 3256.923, 3957.436, 4093.333, 3957.949, 16212, 0, []
1632408587.7496, 12, 0, 3906.667, 3156.923, 3973.333, 4094.359, 3971.282, 450, 0, []
1632408587.7576, 13, 0, 3910.256, 3054.359, 3960, 4084.103, 3957.436, 450, 0, []
1632408587.7655, 14, 0, 3912.308, 2961.538, 3953.846, 4084.103, 3942.564, 450, 0, []
1632408587.7734, 15, 0, 3908.718, 2901.026, 3968.205, 4078.974, 3954.872, 16212, 0, []
1632408587.7813, 16, 0, 3885.128, 2847.179, 3976.923, 4073.333, 3969.231, 0, 0, []
1632408587.7893, 17, 0, 3870.769, 2756.923, 3970.256, 4088.205, 3966.154, 0, 0, []
1632408587.7972, 18, 0, 3879.487, 2693.333, 3954.359, 4109.744, 3947.179, 0, 0, []
1632408587.8052, 19, 0, 3885.128, 2666.154, 3958.974, 4113.333, 3929.744, 0, 0, []
1632408587.813, 20, 0, 3869.744, 2627.179, 3975.897, 4099.487, 3934.872, 0, 0, []
1632408587.8208, 21, 0, 3856.41, 2576.41, 3995.897, 4103.077, 3953.846, 0, 0, []
1632408587.8287, 22, 0, 3867.179, 2536.41, 3994.872, 4127.179, 3956.41, 0, 0, []
1632408587.8365, 23, 0, 3885.128, 2505.641, 3967.692, 4115.897, 3937.436, 0, 0, []
1632408587.8444, 24, 0, 3875.897, 2476.923, 3968.718, 4077.949, 3925.641, 0, 0, []
1632408587.8521, 25, 0, 3855.897, 2443.077, 3991.282, 4080.513, 3946.667, 0, 0, []
1632408587.86, 26, 0, 3857.949, 2408.718, 3983.59, 4113.846, 3969.231, 0, 0, []
1632408587.8678, 27, 0, 3871.795, 2393.846, 3956.923, 4117.436, 3954.872, 0, 0, []
1632408587.8757, 28, 0, 3880, 2395.385, 3955.385, 4094.359, 3946.154, 0, 0, []
1632408587.8835, 29, 0, 3878.462, 2376.41, 3995.897, 4089.231, 3975.385, 0, 0, []
1632408587.8914, 30, 0, 3876.41, 2342.564, 4021.538, 4113.846, 3989.231, 0, 0, []
1632408587.8993, 31, 0, 3887.179, 2338.462, 4005.641, 4130.256, 3967.179, 0, 0, []
1632408587.9073, 32, 0, 3894.359, 2353.333, 3996.41, 4117.436, 3960, 0, 0, []
1632408587.9152, 33, 0, 3886.154, 2341.026, 4008.718, 4111.795, 3981.538, 0, 0, []
1632408587.9232, 34, 0, 3872.821, 2306.154, 4019.487, 4123.59, 3997.949, 0, 0, []
1632408587.931, 35, 0, 3865.641, 2298.974, 4000, 4128.205, 3987.692, 0, 0, []
1632408587.939, 36, 0, 3872.821, 2309.231, 3975.897, 4123.59, 3968.205, 0, 0, []
1632408587.9469, 37, 0, 3880, 2294.359, 3982.051, 4120, 3972.821, 0, 0, []
1632408587.9549, 38, 0, 3871.795, 2273.333, 3988.718, 4125.128, 3997.436, 0, 0, []
1632408587.9628, 39, 0, 3866.667, 2270.256, 3992.308, 4128.718, 4010.769, 0, 0, []
1632408587.9707, 40, 0, 3881.026, 2272.308, 3992.308, 4134.872, 4009.231, 0, 0, []
1632408587.9786, 41, 0, 3888.205, 2270.769, 3989.231, 4132.308, 4002.564, 0, 0, []
1632408587.9864, 42, 0, 3880, 2272.308, 4009.231, 4127.179, 4002.051, 0, 0, []
1632408587.9943, 43, 0, 3871.795, 2277.949, 4027.179, 4138.462, 4022.564, 0, 0, []
1632408588.0021, 44, 0, 3864.103, 2268.718, 4019.487, 4142.564, 4028.718, 0, 0, []
1632408588.0099, 45, 0, 3866.154, 2256.41, 4000.513, 4131.795, 3999.487, 0, 0, []
1632408588.0177, 46, 0, 3865.641, 2269.231, 4002.564, 4125.641, 3985.641, 0, 0, []
1632408588.0256, 47, 0, 3849.744, 2282.564, 4025.128, 4130.769, 4007.179, 0, 0, []
1632408588.0334, 48, 0, 3838.974, 2267.179, 4010.256, 4137.436, 4011.282, 0, 0, []
1632408588.0414, 49, 0, 3843.59, 2258.974, 3985.641, 4136.923, 3978.462, 0, 0, []
1632408588.0492, 50, 0, 3846.667, 2278.462, 3998.974, 4127.179, 3968.205, 0, 0, []
1632408588.0572, 51, 0, 3841.538, 2286.667, 4020.513, 4122.564, 4002.564, 0, 0, []
1632408588.0651, 52, 0, 3842.564, 2283.077, 4028.205, 4142.051, 4030.769, 0, 0, []
1632408588.0731, 53, 0, 3862.051, 2290.769, 4005.128, 4157.949, 4024.103, 0, 0, []
1632408588.081, 54, 0, 3884.615, 2305.641, 3995.897, 4153.333, 4016.41, 0, 0, []
1632408588.0889, 55, 0, 3877.949, 2320, 4029.744, 4141.026, 4031.795, 0, 0, []
1632408588.0968, 56, 0, 3850.769, 2310.256, 4041.538, 4137.949, 4048.718, 0, 0, []
1632408588.1048, 57, 0, 3849.744, 2292.308, 4021.538, 4156.41, 4044.615, 0, 0, []
1632408588.1127, 58, 0, 3872.821, 2305.641, 4001.538, 4162.564, 4026.667, 0, 0, []
1632408588.1207, 59, 0, 3876.41, 2335.897, 4004.103, 4136.923, 4026.667, 0, 0, []
1632408588.1285, 60, 0, 3849.744, 2347.179, 4027.692, 4125.641, 4040.513, 0, 0, []
1632408588.1363, 61, 0, 3827.692, 2349.231, 4021.538, 4139.487, 4035.897, 0, 0, []
1632408588.1442, 62, 0, 3828.205, 2358.974, 3995.897, 4142.051, 4008.205, 0, 0, []
1632408588.152, 63, 0, 3831.795, 2361.538, 3985.128, 4128.718, 3992.308, 0, 0, []
1632408588.1599, 64, 0, 3830.769, 2368.718, 3997.949, 4122.564, 4013.333, 450, 0, []
1632408588.1676, 65, 0, 3842.564, 2392.308, 4012.821, 4135.385, 4042.051, 450, 0, []
1632408588.1755, 66, 0, 3858.974, 2408.718, 4002.564, 4159.487, 4037.949, 16185, 0, []
1632408588.1833, 67, 0, 3867.692, 2429.744, 4000.513, 4168.718, 4023.077, 450, 0, []
1632408588.1912, 68, 0, 3863.59, 2454.872, 4012.308, 4152.821, 4026.154, 16178, 0, []
1632408588.199, 69, 0, 3850.256, 2495.385, 4027.179, 4153.846, 4039.487, 450, 0, []
1632408588.2069, 70, 0, 3851.282, 2612.821, 4042.051, 4181.026, 4052.821, 16117, 0, []
1632408588.2148, 71, 0, 3863.59, 2794.359, 4033.846, 4189.744, 4042.051, 450, 0, []
1632408588.2228, 72, 0, 3867.692, 2959.487, 4034.359, 4176.41, 4017.949, 450, 0, []
1632408588.2307, 73, 0, 3861.026, 2981.538, 4051.795, 4164.615, 4025.128, 16128, 0, []
1632408588.2387, 74, 0, 3843.59, 2931.282, 4057.436, 4154.359, 4044.615, 450, 0, []
1632408588.2465, 75, 0, 3825.641, 2967.179, 4055.385, 4160.513, 4035.385, 16198, 0, []
1632408588.2545, 76, 0, 3827.179, 3132.821, 4038.462, 4178.462, 4015.897, 450, 0, []
1632408588.2624, 77, 0, 3835.897, 3391.282, 4025.128, 4178.974, 4013.846, 450, 0, []
1632408588.2704, 78, 0, 3833.333, 3433.333, 4037.949, 4175.385, 4024.103, 450, 0, []
1632408588.2783, 79, 0, 3831.282, 3115.897, 4054.872, 4183.077, 4035.897, 16198, 0, []
1632408588.286, 80, 0, 3831.282, 2840.513, 4058.974, 4186.154, 4041.026, 450, 0, []
1632408588.2939, 81, 0, 3829.744, 2841.026, 4034.872, 4183.59, 4035.897, 450, 0, []
1632408588.3017, 82, 0, 3834.359, 2823.077, 4015.385, 4181.026, 4030.769, 450, 0, []
1632408588.3096, 83, 0, 3834.359, 2761.026, 4028.205, 4175.385, 4031.282, 16198, 0, []
1632408588.3174, 84, 0, 3823.59, 2805.641, 4042.564, 4167.692, 4040.513, 450, 0, []
1632408588.3252, 85, 0, 3810.256, 2786.154, 4048.718, 4169.744, 4053.846, 450, 0, []
1632408588.333, 86, 0, 3810.256, 2837.949, 4035.897, 4176.923, 4049.231, 450, 0, []
1632408588.3409, 87, 0, 3827.692, 2988.718, 4020, 4177.949, 4034.872, 16198, 0, []
1632408588.3487, 88, 0, 3832.308, 3042.051, 4032.308, 4170.256, 4035.897, 450, 0, []
1632408588.3567, 89, 0, 3798.462, 3232.308, 4050.256, 4165.128, 4045.641, 450, 0, []
1632408588.3645, 90, 0, 3742.564, 3423.077, 4037.949, 4167.179, 4044.103, 450, 0, []
1632408588.3725, 91, 0, 3669.231, 3330.769, 4010.769, 4174.359, 4042.051, 16198, 0, []
1632408588.3804, 92, 0, 3569.744, 3502.564, 4034.872, 4180, 4059.487, 450, 0, []
1632408588.3884, 93, 0, 3489.744, 3878.462, 4064.615, 4194.359, 4073.333, 450, 0, []
1632408588.3963, 94, 0, 3452.821, 3615.385, 4037.949, 4208.205, 4078.462, 450, 0, []
1632408588.4042, 95, 0, 3403.59, 3106.154, 4029.744, 4204.615, 4078.462, 16198, 0, []
1632408588.4121, 96, 0, 3325.128, 3088.718, 4038.462, 4195.897, 4062.564, 450, 0, []
1632408588.4201, 97, 0, 3257.436, 3124.103, 4031.282, 4195.897, 4054.872, 450, 0, []
1632408588.428, 98, 0, 3182.051, 2970.256, 4038.462, 4188.718, 4063.077, 450, 0, []
1632408588.436, 99, 0, 3055.385, 2922.051, 4035.897, 4178.974, 4051.795, 16198, 0, []
1632408588.4439, 100, 0, 2913.333, 2941.026, 4026.667, 4189.744, 4032.308, 450, 0, []
1632408588.4516, 101, 0, 2796.923, 2954.872, 4035.897, 4199.487, 4044.103, 450, 0, []
1632408588.4595, 102, 0, 2706.154, 3030.256, 4046.154, 4205.128, 4066.154, 450, 0, []
1632408588.4673, 103, 0, 2643.077, 3227.179, 4049.744, 4219.487, 4070.256, 16198, 0, []
1632408588.4752, 104, 0, 2592.308, 3459.487, 4042.051, 4219.487, 4073.846, 450, 0, []
1632408588.483, 105, 0, 2542.564, 3496.41, 4047.179, 4212.821, 4080, 450, 0, []
1632408588.4908, 106, 0, 2512.821, 3412.308, 4060, 4221.538, 4077.949, 450, 0, []
1632408588.4986, 107, 0, 2484.103, 3663.59, 4064.615, 4222.564, 4076.41, 16198, 0, []
1632408588.5066, 108, 0, 2425.128, 4071.795, 4077.436, 4206.667, 4089.744, 450, 0, []
1632408588.5145, 109, 0, 2366.667, 3911.795, 4077.949, 4203.59, 4093.846, 450, 0, []
1632408588.5225, 110, 0, 2326.154, 3386.154, 4056.923, 4216.41, 4065.641, 450, 0, []
1632408588.5303, 111, 0, 2273.846, 3187.692, 4054.359, 4219.487, 4042.564, 16198, 0, []
1632408588.5383, 112, 0, 2213.846, 3215.385, 4078.462, 4206.154, 4046.667, 450, 0, []
1632408588.5462, 113, 0, 2153.846, 3124.615, 4084.615, 4199.487, 4043.59, 450, 0, []
1632408588.5542, 114, 0, 2097.436, 3048.718, 4056.41, 4206.667, 4040.513, 450, 0, []
1632408588.5621, 115, 0, 2073.846, 3055.385, 4057.436, 4217.949, 4060, 16198, 0, []
1632408588.57, 116, 0, 2062.051, 3033.846, 4073.333, 4221.538, 4061.026, 450, 0, []
1632408588.5779, 117, 0, 2028.205, 3018.462, 4050.769, 4211.795, 4042.051, 450, 0, []
1632408588.5859, 118, 0, 1995.385, 3003.59, 4043.077, 4215.385, 4051.795, 450, 0, []
1632408588.5938, 119, 0, 1973.333, 3004.103, 4056.923, 4230.769, 4074.872, 16198, 0, []
1632408588.6016, 120, 0, 1949.231, 3019.487, 4068.205, 4235.385, 4078.974, 450, 0, []
1632408588.6094, 121, 0, 1922.051, 3010.769, 4076.41, 4238.974, 4085.128, 450, 0, []
1632408588.6172, 122, 0, 1882.051, 3013.333, 4076.41, 4242.051, 4096.41, 450, 0, []
1632408588.6251, 123, 0, 1827.179, 3030.769, 4074.359, 4222.051, 4082.051, 16198, 0, []
1632408588.6329, 124, 0, 1792.308, 3017.949, 4064.103, 4198.462, 4045.128, 450, 0, []
1632408588.6408, 125, 0, 1792.308, 2983.59, 4073.333, 4202.051, 4006.154, 450, 0, []
1632408588.6485, 126, 0, 1798.974, 2985.128, 4080.513, 4211.282, 3985.128, 450, 0, []
1632408588.6564, 127, 0, 1795.385, 3011.795, 4049.744, 4213.333, 3970.769, 16198, 0, []
1632408588.6642, 128, 0, 1787.692, 3027.179, 4046.667, 4217.436, 3946.667, 450, 0, []
1632408588.6722, 0, 0, 1790.256, 3052.308, 4066.154, 4217.949, 3929.231, 450, 0, []
1632408588.6801, 1, 0, 1809.744, 3085.641, 4057.949, 4213.846, 3937.949, 450, 0, []
1632408588.688, 2, 0, 1834.359, 3122.564, 4050.769, 4203.59, 3948.718, 16276, 0, []
1632408588.6959, 3, 0, 1850.769, 3182.051, 4054.872, 4197.949, 3949.231, 450, 0, []
1632408588.7039, 4, 0, 1860, 3266.154, 4063.59, 4204.103, 3954.359, 16125, 0, []
1632408588.7118, 5, 0, 1871.795, 3323.59, 4065.641, 4199.487, 3946.667, 450, 0, []
1632408588.7198, 6, 0, 1902.051, 3346.154, 4064.103, 4198.974, 3933.846, 16093, 0, []
1632408588.7276, 7, 0, 1923.59, 3391.282, 4077.949, 4217.436, 3943.077, 450, 0, []
1632408588.7356, 8, 0, 1920, 3434.872, 4077.436, 4222.564, 3949.744, 450, 0, []
1632408588.7435, 9, 0, 1927.692, 3438.462, 4061.538, 4204.615, 3935.385, 16179, 0, []
1632408588.7513, 10, 0, 1940.513, 3441.538, 4054.872, 4189.744, 3926.667, 450, 0, []
1632408588.7592, 11, 0, 1940, 3435.385, 4047.179, 4182.051, 3924.615, 16223, 0, []
1632408588.7669, 12, 0, 1965.128, 3467.179, 4047.179, 4178.974, 3929.231, 450, 0, []
1632408588.7748, 13, 0, 2015.897, 3714.872, 4047.692, 4194.359, 3943.59, 450, 0, []
1632408588.7826, 14, 0, 2041.026, 4039.487, 4048.205, 4201.538, 3937.436, 450, 0, []
1632408588.7905, 15, 0, 2064.103, 4320, 4051.795, 4189.231, 3925.641, 16223, 0, []
1632408588.7983, 16, 0, 2122.051, 4818.462, 4053.333, 4192.308, 3944.615, 0, 0, []
1632408588.8061, 17, 0, 2178.974, 5256.41, 4070.769, 4216.923, 3956.923, 0, 0, []
1632408588.8139, 18, 0, 2214.359, 5320.513, 4087.179, 4223.077, 3945.641, 0, 0, []
1632408588.8219, 19, 0, 2226.154, 5602.564, 4080, 4195.897, 3943.59, 0, 0, []
1632408588.8298, 20, 0, 2236.923, 6162.051, 4061.026, 4188.718, 3937.436, 0, 0, []
1632408588.8378, 21, 0, 2279.487, 6171.282, 4059.487, 4216.41, 3921.538, 0, 0, []
1632408588.8456, 22, 0, 2337.436, 5911.795, 4079.487, 4235.897, 3931.795, 0, 0, []
1632408588.8536, 23, 0, 2382.564, 6421.538, 4074.872, 4241.026, 3949.231, 0, 0, []
1632408588.8615, 24, 0, 2420, 6937.949, 4067.179, 4247.179, 3940, 0, 0, []
1632408588.8695, 25, 0, 2450.769, 6109.744, 4075.385, 4238.974, 3930.769, 0, 0, []
1632408588.8774, 26, 0, 2470.769, 4776.923, 4064.103, 4218.462, 3936.41, 0, 0, []
1632408588.8853, 27, 0, 2494.872, 4303.59, 4055.897, 4214.359, 3935.385, 0, 0, []
1632408588.8932, 28, 0, 2516.41, 4282.051, 4058.974, 4214.872, 3924.103, 0, 0, []
1632408588.901, 29, 0, 2536.41, 4027.179, 4066.154, 4208.205, 3921.026, 0, 0, []
1632408588.9089, 30, 0, 2583.59, 3854.359, 4082.564, 4217.436, 3932.308, 0, 0, []
1632408588.9167, 31, 0, 2632.821, 3845.641, 4086.154, 4227.692, 3941.026, 0, 0, []
1632408588.9245, 32, 0, 2649.231, 3762.564, 4087.179, 4222.564, 3944.103, 0, 0, []
1632408588.9323, 33, 0, 2660.513, 3693.846, 4080, 4214.872, 3940.513, 0, 0, []
1632408588.9402, 34, 0, 2691.282, 3650.769, 4069.231, 4206.154, 3927.692, 0, 0, []
1632408588.948, 35, 0, 2718.974, 3606.667, 4071.282, 4197.949, 3914.872, 0, 0, []
1632408588.9559, 36, 0, 2736.41, 3573.846, 4059.487, 4196.923, 3907.692, 0, 0, []
1632408588.9636, 37, 0, 2764.103, 3535.897, 4045.641, 4197.436, 3910.256, 0, 0, []
1632408588.9715, 38, 0, 2809.231, 3505.128, 4043.59, 4202.564, 3926.154, 0, 0, []
1632408588.9793, 39, 0, 2867.179, 3490.769, 4053.333, 4219.487, 3957.436, 0, 0, []
1632408588.9873, 40, 0, 2919.487, 3480.513, 4072.821, 4235.897, 3985.128, 0, 0, []
1632408588.9952, 41, 0, 2935.385, 3448.718, 4074.872, 4233.846, 3987.692, 0, 0, []
1632408589.0031, 42, 0, 2929.744, 3417.436, 4071.282, 4214.359, 3980, 0, 0, []
1632408589.011, 43, 0, 2947.692, 3403.077, 4068.205, 4195.385, 3972.308, 0, 0, []
1632408589.019, 44, 0, 2982.051, 3393.333, 4067.179, 4196.41, 3960.513, 0, 0, []
1632408589.0269, 45, 0, 3002.564, 3383.59, 4077.949, 4203.59, 3953.846, 0, 0, []
1632408589.0349, 46, 0, 3014.359, 3361.538, 4072.308, 4200, 3948.205, 0, 0, []
1632408589.0427, 47, 0, 3027.179, 3339.487, 4064.615, 4194.872, 3949.231, 0, 0, []
1632408589.0505, 48, 0, 3048.205, 3350.256, 4079.487, 4204.103, 3974.872, 0, 0, []
1632408589.0584, 49, 0, 3088.718, 3365.641, 4090.256, 4222.051, 3985.641, 0, 0, []
1632408589.0662, 50, 0, 3123.59, 3354.359, 4090.769, 4234.872, 3960.513, 0, 0, []
1632408589.0741, 51, 0, 3134.872, 3336.923, 4092.821, 4233.846, 3964.615, 0, 0, []
1632408589.0818, 52, 0, 3147.179, 3344.615, 4095.897, 4226.154, 3992.821, 0, 0, []
1632408589.0897, 53, 0, 3180.513, 3357.949, 4081.538, 4232.821, 3982.564, 0, 0, []
1632408589.0975, 54, 0, 3217.436, 3346.667, 4071.282, 4235.897, 3978.462, 0, 0, []
1632408589.1054, 55, 0, 3238.462, 3329.231, 4080, 4210.256, 3993.333, 0, 0, []
1632408589.1132, 56, 0, 3246.154, 3331.795, 4066.667, 4187.179, 3982.564, 0, 0, []
1632408589.121, 57, 0, 3258.974, 3339.487, 4071.282, 4192.821, 3970.769, 0, 0, []
1632408589.1288, 58, 0, 3285.641, 3331.282, 4113.846, 4210.769, 3974.872, 0, 0, []
1632408589.1368, 59, 0, 3308.718, 3319.487, 4118.974, 4212.308, 3973.846, 0, 0, []
1632408589.1447, 60, 0, 3334.359, 3309.231, 4098.974, 4204.615, 3974.872, 0, 0, []
1632408589.1527, 61, 0, 3375.897, 3312.821, 4094.359, 4208.205, 3996.923, 0, 0, []
1632408589.1606, 62, 0, 3416.41, 3322.051, 4093.846, 4218.974, 4010.769, 0, 0, []
1632408589.1685, 63, 0, 3437.949, 3320, 4094.872, 4204.615, 4002.564, 0, 0, []
1632408589.1764, 64, 0, 3450.769, 3316.41, 4081.026, 4178.974, 3990.769, 450, 0, []
1632408589.1844, 65, 0, 3474.359, 3318.974, 4075.385, 4188.205, 3996.923, 450, 0, []
1632408589.1923, 66, 0, 3500.513, 3322.051, 4086.667, 4205.128, 4011.795, 16241, 0, []
1632408589.2003, 67, 0, 3512.821, 3324.615, 4081.538, 4204.615, 3996.41, 450, 0, []
1632408589.2081, 68, 0, 3511.282, 3334.359, 4071.795, 4197.436, 3978.974, 16140, 0, []
1632408589.2159, 69, 0, 3521.026, 3350.769, 4065.128, 4191.282, 3993.333, 450, 0, []
1632408589.2238, 70, 0, 3554.359, 3345.128, 4078.462, 4197.436, 4000, 16131, 0, []
1632408589.2316, 71, 0, 3572.821, 3333.846, 4103.59, 4207.692, 3989.744, 450, 0, []
1632408589.2395, 72, 0, 3568.718, 3346.667, 4097.949, 4203.59, 3987.692, 450, 0, []
1632408589.2472, 73, 0, 3581.026, 3346.667, 4073.333, 4197.949, 3976.923, 16155, 0, []
1632408589.2551, 74, 0, 3593.333, 3330.769, 4067.179, 4202.564, 3954.359, 450, 0, []
1632408589.2629, 75, 0, 3584.615, 3342.051, 4085.128, 4204.615, 3953.846, 16239, 0, []
1632408589.2708, 76, 0, 3601.026, 3350.769, 4074.872, 4204.615, 3956.41, 450, 0, []
1632408589.2786, 77, 0, 3638.462, 3351.795, 4070.256, 4196.41, 3948.205, 450, 0, []
1632408589.2865, 78, 0, 3652.821, 3370.769, 4105.641, 4196.923, 3965.641, 450, 0, []
1632408589.2944, 79, 0, 3671.282, 3376.41, 4099.487, 4216.923, 3974.872, 16239, 0, []
1632408589.3024, 80, 0, 3709.744, 3373.846, 4082.051, 4223.077, 3960.513, 450, 0, []
1632408589.3103, 81, 0, 3720, 3405.641, 4108.205, 4212.821, 3969.744, 450, 0, []
1632408589.3183, 82, 0, 3716.923, 3407.692, 4117.436, 4207.179, 3989.744, 450, 0, []
1632408589.3261, 83, 0, 3745.128, 3371.795, 4091.795, 4204.103, 3971.795, 16239, 0, []
1632408589.3341, 84, 0, 3777.436, 3412.308, 4062.051, 4194.872, 3951.282, 450, 0, []
1632408589.342, 85, 0, 3780.513, 3500.513, 4065.128, 4192.308, 3967.179, 450, 0, []
1632408589.35, 86, 0, 3782.564, 3572.821, 4088.718, 4205.128, 3988.205, 450, 0, []
1632408589.3579, 87, 0, 3814.872, 3657.436, 4093.333, 4214.872, 3992.308, 16239, 0, []
1632408589.3658, 88, 0, 3843.077, 3868.718, 4083.59, 4213.846, 3981.026, 450, 0, []
1632408589.3737, 89, 0, 3853.333, 4213.846, 4060.513, 4220, 3966.667, 450, 0, []
1632408589.3815, 90, 0, 3869.744, 4546.667, 4047.692, 4233.846, 3964.615, 450, 0, []
1632408589.3894, 91, 0, 3881.538, 4777.436, 4054.872, 4228.205, 3962.051, 16239, 0, []
1632408589.3972, 92, 0, 3883.077, 4769.744, 4057.436, 4213.333, 3952.821, 450, 0, []
1632408589.405, 93, 0, 3890.769, 4538.974, 4065.128, 4216.41, 3960, 450, 0, []
1632408589.4128, 94, 0, 3903.59, 4421.026, 4074.872, 4215.897, 3977.949, 450, 0, []
1632408589.4207, 95, 0, 3907.692, 4489.744, 4081.538, 4210.769, 3978.974, 16239, 0, []
1632408589.4285, 96, 0, 3914.359, 4463.077, 4083.59, 4217.436, 3975.385, 450, 0, []
1632408589.4364, 97, 0, 3926.667, 4534.359, 4075.897, 4211.795, 3972.821, 450, 0, []
1632408589.4441, 98, 0, 3930.769, 4895.385, 4071.795, 4196.923, 3960.513, 450, 0, []
1632408589.4521, 99, 0, 3943.077, 5181.026, 4071.282, 4208.205, 3954.359, 16239, 0, []
1632408589.46, 100, 0, 3974.359, 5270.256, 4076.923, 4228.205, 3963.59, 450, 0, []
1632408589.468, 101, 0, 3990.256, 5347.179, 4077.436, 4217.949, 3954.872, 450, 0, []
1632408589.4759, 102, 0, 3983.59, 5507.692, 4055.385, 4207.179, 3925.128, 450, 0, []
1632408589.4838, 103, 0, 4000.513, 5735.897, 4054.359, 4224.615, 3915.897, 16239, 0, []
1632408589.4917, 104, 0, 4030.769, 5893.846, 4073.846, 4236.923, 3940.513, 450, 0, []
1632408589.4997, 105, 0, 4033.846, 5989.231, 4087.179, 4234.872, 3960.513, 450, 0, []
1632408589.5076, 106, 0, 4038.462, 6134.872, 4110.769, 4235.897, 3958.462, 450, 0, []
1632408589.5156, 107, 0, 4067.179, 6193.846, 4098.974, 4234.872, 3948.205, 16239, 0, []
1632408589.5234, 108, 0, 4086.154, 6121.538, 4057.949, 4233.846, 3940.513, 450, 0, []
1632408589.5312, 109, 0, 4077.436, 6139.487, 4061.538, 4238.462, 3946.154, 450, 0, []
1632408589.5391, 110, 0, 4067.179, 6211.282, 4096.923, 4228.718, 3959.487, 450, 0, []
1632408589.5469, 111, 0, 4082.051, 6262.564, 4095.897, 4211.282, 3944.615, 16239, 0, []
1632408589.5548, 112, 0, 4114.872, 6273.333, 4064.103, 4222.564, 3924.103, 450, 0, []
1632408589.5625, 113, 0, 4126.154, 6260, 4074.359, 4240, 3952.308, 450, 0, []
1632408589.5704, 114, 0, 4118.462, 6274.359, 4090.256, 4232.821, 3972.308, 450, 0, []
1632408589.5782, 115, 0, 4142.564, 6303.077, 4072.308, 4224.103, 3948.205, 16239, 0, []
1632408589.5861, 116, 0, 4176.923, 6398.462, 4074.872, 4224.615, 3954.872, 450, 0, []
1632408589.5939, 117, 0, 4172.308, 6547.179, 4071.795, 4223.077, 3974.872, 450, 0, []
1632408589.6018, 118, 0, 4170.769, 6566.154, 4065.128, 4227.179, 3954.359, 450, 0, []
1632408589.6097, 119, 0, 4207.179, 6490.769, 4097.949, 4236.923, 3953.333, 16239, 0, []
1632408589.6177, 120, 0, 4228.718, 6491.795, 4104.615, 4230.256, 3981.026, 450, 0, []
1632408589.6256, 121, 0, 4212.308, 6477.949, 4071.795, 4218.974, 3970.256, 450, 0, []
1632408589.6336, 122, 0, 4223.077, 6427.692, 4072.821, 4235.897, 3960.513, 450, 0, []
1632408589.6414, 123, 0, 4268.205, 6465.128, 4111.282, 4262.564, 3992.308, 16239, 0, []
1632408589.6494, 124, 0, 4286.667, 6502.564, 4119.487, 4256.41, 4003.077, 450, 0, []
1632408589.6573, 125, 0, 4276.923, 6473.333, 4090.769, 4227.179, 3977.949, 450, 0, []
1632408589.6652, 126, 0, 4283.59, 6429.231, 4088.718, 4224.615, 3974.872, 450, 0, []
1632408589.6731, 127, 0, 4298.974, 6404.615, 4089.231, 4238.974, 3988.718, 16239, 0, []
1632408589.6809, 128, 0, 4299.487, 6391.795, 4082.564, 4231.282, 3991.795, 450, 0, []
1632408589.6887, 0, 0, 4310.769, 6402.051, 4088.718, 4225.128, 3988.718, 450, 0, []
1632408589.6965, 1, 0, 4325.128, 6454.359, 4090.256, 4237.949, 3982.051, 450, 0, []
1632408589.7044, 2, 0, 4324.615, 6495.897, 4100, 4247.179, 3975.385, 16169, 0, []
1632408589.7122, 3, 0, 4331.282, 6439.487, 4105.128, 4243.59, 3972.821, 450, 0, []
1632408589.72, 4, 0, 4342.051, 6382.564, 4089.744, 4233.333, 3965.641, 16103, 0, []
1632408589.7278, 5, 0, 4336.41, 6403.59, 4084.615, 4231.795, 3963.077, 450, 0, []
1632408589.7357, 6, 0, 4345.128, 6430.256, 4087.692, 4245.128, 3975.897, 16082, 0, []
1632408589.7435, 7, 0, 4373.333, 6470.256, 4095.385, 4248.718, 3966.154, 450, 0, []
1632408589.7515, 8, 0, 4386.667, 6491.282, 4099.487, 4243.59, 3908.205, 450, 0, []
1632408589.7593, 9, 0, 4395.385, 6450.256, 4098.462, 4241.538, 3847.692, 16135, 0, []
1632408589.7673, 10, 0, 4415.385, 6413.333, 4100.513, 4236.923, 3810.256, 450, 0, []
1632408589.7752, 11, 0, 4428.718, 6427.692, 4098.462, 4235.385, 3781.538, 16181, 0, []
1632408589.7832, 12, 0, 4441.026, 6458.462, 4106.667, 4249.231, 3762.564, 450, 0, []
1632408589.7911, 13, 0, 4447.692, 6409.231, 4120, 4260, 3750.256, 450, 0, []
1632408589.799, 14, 0, 4448.205, 6323.59, 4120.513, 4265.128, 3741.026, 450, 0, []
1632408589.8069, 15, 0, 4455.897, 6396.923, 4108.205, 4266.154, 3730.256, 16181, 0, []
1632408589.8149, 16, 0, 4450.769, 6542.051, 4075.385, 4245.641, 3707.692, 0, 0, []
1632408589.8228, 17, 0, 4440.513, 6468.205, 4060.513, 4229.744, 3688.718, 0, 0, []
1632408589.8308, 18, 0, 4461.026, 6405.641, 4079.487, 4243.077, 3698.462, 0, 0, []
1632408589.8386, 19, 0, 4490.256, 6457.949, 4090.769, 4253.333, 3712.821, 0, 0, []
1632408589.8464, 20, 0, 4496.923, 6349.231, 4088.205, 4242.564, 3707.692, 0, 0, []
1632408589.8543, 21, 0, 4493.846, 6263.59, 4082.051, 4242.051, 3703.59, 0, 0, []
1632408589.8621, 22, 0, 4495.385, 6326.154, 4097.436, 4255.385, 3697.436, 0, 0, []
1632408589.87, 23, 0, 4500, 6296.923, 4111.795, 4261.538, 3676.41, 0, 0, []
1632408589.8777, 24, 0, 4508.205, 6229.231, 4092.308, 4257.949, 3645.128, 0, 0, []
1632408589.8856, 25, 0, 4506.154, 6342.051, 4092.821, 4249.231, 3623.59, 0, 0, []
1632408589.8934, 26, 0, 4508.718, 6365.641, 4100, 4242.564, 3608.205, 0, 0, []
1632408589.9013, 27, 0, 4518.974, 6058.462, 4090.769, 4228.205, 3572.308, 0, 0, []
1632408589.9091, 28, 0, 4523.077, 5902.051, 4083.077, 4215.897, 3513.846, 0, 0, []
1632408589.9171, 29, 0, 4531.282, 6166.154, 4080, 4213.333, 3474.872, 0, 0, []
1632408589.9249, 30, 0, 4536.41, 6384.103, 4087.179, 4225.641, 3466.667, 0, 0, []
1632408589.9329, 31, 0, 4529.744, 6264.615, 4082.564, 4234.872, 3432.821, 0, 0, []
1632408589.9408, 32, 0, 4526.154, 6142.051, 4074.872, 4233.333, 3377.436, 0, 0, []
1632408589.9488, 33, 0, 4548.205, 6128.718, 4078.462, 4239.487, 3349.231, 0, 0, []
1632408589.9567, 34, 0, 4567.179, 6077.949, 4081.538, 4237.949, 3348.718, 0, 0, []
1632408589.9646, 35, 0, 4566.154, 6088.205, 4088.205, 4233.333, 3334.872, 0, 0, []
1632408589.9725, 36, 0, 4578.974, 6018.462, 4092.308, 4230.256, 3316.41, 0, 0, []
1632408589.9805, 37, 0, 4603.077, 5744.103, 4096.923, 4228.718, 3320.513, 0, 0, []
1632408589.9884, 38, 0, 4611.795, 5554.872, 4107.179, 4239.487, 3320.513, 0, 0, []
1632408589.9962, 39, 0, 4597.436, 5630.256, 4101.026, 4248.205, 3315.385, 0, 0, []
1632408590.004, 40, 0, 4603.077, 5784.615, 4084.615, 4241.026, 3308.205, 0, 0, []
1632408590.0118, 41, 0, 4626.667, 5790.769, 4084.615, 4231.282, 3309.231, 0, 0, []
1632408590.0197, 42, 0, 4629.231, 5756.41, 4098.462, 4250.769, 3349.744, 0, 0, []
1632408590.0275, 43, 0, 4616.923, 5829.744, 4100.513, 4268.205, 3370.256, 0, 0, []
1632408590.0354, 44, 0, 4609.744, 5854.359, 4085.641, 4241.538, 3314.872, 0, 0, []
1632408590.0431, 45, 0, 4621.026, 5828.205, 4095.897, 4217.949, 3282.564, 0, 0, []
1632408590.051, 46, 0, 4637.949, 5854.872, 4113.846, 4234.359, 3333.333, 0, 0, []
1632408590.0588, 47, 0, 4633.333, 5730.769, 4104.615, 4248.205, 3347.179, 0, 0, []
1632408590.0668, 48, 0, 4634.359, 5524.615, 4097.949, 4251.282, 3294.872, 0, 0, []
1632408590.0747, 49, 0, 4673.333, 5587.692, 4102.564, 4268.205, 3311.795, 0, 0, []
1632408590.0826, 50, 0, 4689.744, 5734.359, 4118.462, 4274.872, 3391.795, 0, 0, []
1632408590.0905, 51, 0, 4682.051, 5696.923, 4124.103, 4272.821, 3387.179, 0, 0, []
1632408590.0985, 52, 0, 4713.846, 5680.513, 4110.769, 4268.205, 3320, 0, 0, []
1632408590.1064, 53, 0, 4707.692, 5777.436, 4108.718, 4235.897, 3332.821, 0, 0, []
1632408590.1144, 54, 0, 4662.051, 5853.846, 4091.795, 4218.974, 3378.462, 0, 0, []
1632408590.1222, 55, 0, 4680.513, 5846.154, 4087.692, 4227.692, 3330.769, 0, 0, []
1632408590.1302, 56, 0, 4690.256, 5798.974, 4114.359, 4223.077, 3275.897, 0, 0, []
1632408590.1381, 57, 0, 4656.923, 5791.282, 4101.538, 4225.128, 3310.256, 0, 0, []
1632408590.1459, 58, 0, 4673.846, 5755.385, 4088.205, 4229.744, 3363.077, 0, 0, []
1632408590.1538, 59, 0, 4693.333, 5576.923, 4105.128, 4215.385, 3341.538, 0, 0, []
1632408590.1615, 60, 0, 4671.795, 5400, 4090.769, 4226.667, 3268.718, 0, 0, []
1632408590.1694, 61, 0, 4676.41, 5362.051, 4067.179, 4247.179, 3279.487, 0, 0, []
1632408590.1772, 62, 0, 4693.846, 5330.256, 4080, 4245.641, 3382.051, 0, 0, []
1632408590.1851, 63, 0, 4698.462, 5217.949, 4104.615, 4255.897, 3406.667, 0, 0, []
1632408590.1929, 64, 0, 4702.051, 5209.744, 4100.513, 4260, 3333.333, 450, 0, []
1632408590.2007, 65, 0, 4695.385, 5372.308, 4101.026, 4243.59, 3298.462, 450, 0, []
1632408590.2085, 66, 0, 4701.538, 5420.513, 4114.359, 4250.769, 3315.897, 16171, 0, []
1632408590.2165, 67, 0, 4702.051, 5283.59, 4102.564, 4252.821, 3345.641, 450, 0, []
1632408590.2244, 68, 0, 4667.692, 5211.282, 4086.154, 4219.487, 3376.923, 16101, 0, []
1632408590.2324, 69, 0, 4653.846, 5273.846, 4084.615, 4200, 3344.103, 450, 0, []
1632408590.2402, 70, 0, 4671.282, 5312.308, 4098.974, 4228.205, 3258.462, 16111, 0, []
1632408590.2482, 71, 0, 4667.179, 5295.897, 4096.923, 4254.872, 3227.692, 450, 0, []
1632408590.2561, 72, 0, 4649.231, 5321.538, 4064.615, 4234.872, 3280, 450, 0, []
1632408590.2641, 73, 0, 4655.385, 5344.103, 4065.128, 4219.487, 3350.256, 16152, 0, []
1632408590.272, 74, 0, 4681.538, 5288.205, 4085.641, 4241.538, 3375.897, 450, 0, []
1632408590.2799, 75, 0, 4678.974, 5217.436, 4075.385, 4250.769, 3332.821, 16217, 0, []
1632408590.2878, 76, 0, 4650.769, 5197.436, 4054.359, 4231.282, 3258.974, 450, 0, []
1632408590.2958, 77, 0, 4656.923, 5185.641, 4048.718, 4215.385, 3255.385, 450, 0, []
1632408590.3037, 78, 0, 4680.513, 5160.513, 4071.795, 4216.41, 3335.897, 450, 0, []
1632408590.3115, 79, 0, 4672.821, 5079.487, 4082.051, 4223.59, 3391.795, 16217, 0, []
1632408590.3193, 80, 0, 4655.897, 4916.923, 4065.128, 4221.026, 3385.128, 450, 0, []
1632408590.3271, 81, 0, 4661.026, 4841.026, 4070.769, 4213.333, 3347.179, 450, 0, []
1632408590.335, 82, 0, 4669.231, 4894.359, 4082.564, 4210.769, 3301.538, 450, 0, []
1632408590.3428, 83, 0, 4674.872, 4927.692, 4083.077, 4216.41, 3307.692, 16217, 0, []
1632408590.3507, 84, 0, 4683.59, 4924.103, 4084.615, 4237.436, 3383.077, 450, 0, []
1632408590.3584, 85, 0, 4675.385, 4990.256, 4075.897, 4242.564, 3440, 450, 0, []
1632408590.3663, 86, 0, 4669.231, 5070.769, 4070.769, 4213.846, 3450.256, 450, 0, []
1632408590.3741, 87, 0, 4692.821, 5065.641, 4075.385, 4197.436, 3469.231, 16217, 0, []
1632408590.3821, 88, 0, 4701.538, 5042.051, 4083.59, 4217.949, 3494.872, 450, 0, []
1632408590.39, 89, 0, 4670.256, 5055.897, 4068.205, 4234.872, 3485.128, 450, 0, []
1632408590.3979, 90, 0, 4651.795, 5107.179, 4041.538, 4221.026, 3456.41, 450, 0, []
1632408590.4058, 91, 0, 4666.154, 5122.051, 4057.436, 4205.641, 3460.513, 16217, 0, []
1632408590.4138, 92, 0, 4677.436, 5036.41, 4074.872, 4211.282, 3481.538, 450, 0, []
1632408590.4217, 93, 0, 4660, 5036.41, 4064.615, 4221.026, 3479.487, 450, 0, []
1632408590.4297, 94, 0, 4635.385, 5177.436, 4051.795, 4219.487, 3473.846, 450, 0, []
1632408590.4375, 95, 0, 4636.41, 5257.949, 4045.641, 4208.205, 3501.026, 16217, 0, []
1632408590.4455, 96, 0, 4656.41, 5187.692, 4066.667, 4206.154, 3537.949, 450, 0, []
1632408590.4534, 97, 0, 4654.359, 5069.231, 4078.974, 4211.282, 3540.513, 450, 0, []
1632408590.4614, 98, 0, 4632.821, 5036.41, 4062.564, 4211.282, 3527.692, 450, 0, []
1632408590.4693, 99, 0, 4628.205, 5054.359, 4055.897, 4206.154, 3539.487, 16217, 0, []
1632408590.477, 100, 0, 4630.769, 4948.205, 4057.949, 4203.077, 3553.333, 450, 0, []
1632408590.4849, 101, 0, 4624.103, 4798.974, 4052.821, 4200, 3537.949, 450, 0, []
1632408590.4927, 102, 0, 4623.59, 4882.051, 4055.897, 4200.513, 3540.513, 450, 0, []
1632408590.5006, 103, 0, 4634.872, 5004.615, 4073.333, 4218.974, 3565.641, 16217, 0, []
1632408590.5084, 104, 0, 4623.59, 4976.923, 4078.462, 4228.718, 3553.333, 450, 0, []
1632408590.5162, 105, 0, 4586.154, 5010.769, 4054.872, 4215.385, 3529.744, 450, 0, []
1632408590.524, 106, 0, 4582.051, 5085.128, 4043.077, 4203.077, 3537.949, 450, 0, []
1632408590.532, 107, 0, 4592.308, 5046.667, 4048.718, 4204.103, 3567.179, 16217, 0, []
1632408590.5399, 108, 0, 4598.974, 5012.308, 4050.256, 4211.795, 3590.769, 450, 0, []
1632408590.5479, 109, 0, 4608.718, 5037.949, 4064.103, 4203.59, 3609.231, 450, 0, []
1632408590.5557, 110, 0, 4615.385, 5014.872, 4067.692, 4200, 3630.256, 450, 0, []
1632408590.5637, 111, 0, 4621.026, 5005.641, 4071.282, 4216.41, 3644.615, 16217, 0, []
1632408590.5716, 112, 0, 4618.974, 5043.59, 4085.641, 4228.718, 3655.897, 450, 0, []
1632408590.5796, 113, 0, 4612.308, 5036.923, 4075.385, 4233.333, 3663.077, 450, 0, []
1632408590.5875, 114, 0, 4604.615, 4990.256, 4061.026, 4233.846, 3674.872, 450, 0, []
1632408590.5954, 115, 0, 4604.103, 4952.308, 4052.308, 4230.256, 3693.846, 16217, 0, []
1632408590.6033, 116, 0, 4601.538, 4906.667, 4057.949, 4213.333, 3711.282, 450, 0, []
1632408590.6111, 117, 0, 4606.154, 4835.385, 4065.641, 4206.667, 3724.103, 450, 0, []
1632408590.619, 118, 0, 4620.513, 4810.769, 4068.718, 4215.385, 3729.231, 450, 0, []
1632408590.6268, 119, 0, 4621.026, 4841.026, 4080, 4227.692, 3733.333, 16217, 0, []
1632408590.6346, 120, 0, 4615.385, 4847.179, 4073.333, 4232.821, 3733.333, 450, 0, []
1632408590.6424, 121, 0, 4605.128, 4804.103, 4067.692, 4224.615, 3741.538, 450, 0, []
1632408590.6503, 122, 0, 4599.487, 4817.949, 4064.103, 4222.051, 3760, 450, 0, []
1632408590.6582, 123, 0, 4600, 4940.513, 4048.718, 4218.462, 3772.821, 16217, 0, []
1632408590.6661, 124, 0, 4608.205, 4950.256, 4060.513, 4221.026, 3787.692, 450, 0, []
1632408590.674, 125, 0, 4615.385, 4765.128, 4083.59, 4233.333, 3798.974, 450, 0, []
1632408590.6817, 126, 0, 4605.128, 4637.436, 4081.538, 4240.513, 3792.821, 450, 0, []
1632408590.6897, 127, 0, 4592.308, 4722.051, 4071.795, 4237.436, 3779.487, 16217, 0, []
1632408590.6976, 128, 0, 4578.462, 4763.077, 4068.718, 4241.538, 3782.564, 450, 0, []
1632408590.7055, 0, 0, 4569.744, 4585.128, 4077.949, 4250.256, 3793.846, 450, 0, []
1632408590.7135, 1, 0, 4562.051, 4373.333, 4084.615, 4234.872, 3806.667, 450, 0, []
1632408590.7213, 2, 0, 4557.949, 4286.154, 4084.615, 4225.128, 3815.897, 16174, 0, []
1632408590.7293, 3, 0, 4561.538, 4282.051, 4089.231, 4238.462, 3825.128, 450, 0, []
1632408590.7372, 4, 0, 4558.462, 4214.872, 4083.59, 4245.641, 3834.872, 16126, 0, []
1632408590.7452, 5, 0, 4551.795, 4118.462, 4078.462, 4241.026, 3841.538, 450, 0, []
1632408590.7531, 6, 0, 4549.744, 4236.923, 4066.667, 4232.308, 3843.077, 16090, 0, []
1632408590.7608, 7, 0, 4543.59, 4467.179, 4044.103, 4220, 3842.564, 450, 0, []
1632408590.7687, 8, 0, 4522.564, 4449.231, 4034.872, 4206.667, 3840.513, 450, 0, []
1632408590.7765, 9, 0, 4516.923, 4277.949, 4047.179, 4212.821, 3850.256, 16192, 0, []
1632408590.7844, 10, 0, 4530.256, 4241.026, 4077.436, 4233.333, 3869.231, 450, 0, []
1632408590.7922, 11, 0, 4518.974, 4315.385, 4074.872, 4236.41, 3869.231, 16175, 0, []
1632408590.8, 12, 0, 4510.769, 4413.846, 4060, 4217.436, 3867.692, 450, 0, []
1632408590.8078, 13, 0, 4529.231, 4474.872, 4082.564, 4214.359, 3889.744, 450, 0, []
1632408590.8157, 14, 0, 4540, 4492.308, 4093.333, 4229.231, 3909.744, 450, 0, []
1632408590.8235, 15, 0, 4532.821, 4571.282, 4088.718, 4235.897, 3916.923, 16175, 0, []
1632408590.8314, 16, 0, 4536.923, 4665.128, 4088.205, 4229.231, 3927.179, 0, 0, []
1632408590.8391, 17, 0, 4550.769, 4643.077, 4074.872, 4231.795, 3951.282, 0, 0, []
1632408590.8471, 18, 0, 4556.923, 4573.333, 4061.538, 4244.103, 3980, 0, 0, []
1632408590.855, 19, 0, 4553.846, 4535.385, 4067.179, 4248.718, 3994.359, 0, 0, []
1632408590.863, 20, 0, 4544.615, 4518.974, 4086.154, 4240.513, 3983.59, 0, 0, []
1632408590.8709, 21, 0, 4530.256, 4527.179, 4095.385, 4227.179, 3973.846, 0, 0, []
1632408590.8788, 22, 0, 4515.897, 4588.718, 4084.615, 4208.205, 3968.205, 0, 0, []
1632408590.8867, 23, 0, 4500.513, 4681.538, 4083.077, 4196.923, 3958.974, 0, 0, []
1632408590.8947, 24, 0, 4492.821, 4669.744, 4080.513, 4203.077, 3954.359, 0, 0, []
1632408590.9026, 25, 0, 4483.59, 4610.769, 4072.821, 4212.308, 3954.359, 0, 0, []
1632408590.9106, 26, 0, 4473.846, 4681.538, 4070.769, 4220.513, 3956.923, 0, 0, []
1632408590.9184, 27, 0, 4482.564, 4784.615, 4070.256, 4235.385, 3978.974, 0, 0, []
1632408590.9262, 28, 0, 4497.949, 4773.333, 4073.333, 4242.051, 4006.154, 0, 0, []
1632408590.9341, 29, 0, 4496.41, 4662.564, 4055.897, 4229.231, 4005.641, 0, 0, []
1632408590.9419, 30, 0, 4491.795, 4551.282, 4041.026, 4214.359, 3989.231, 0, 0, []
1632408590.9498, 31, 0, 4488.718, 4486.154, 4063.077, 4213.846, 3988.205, 0, 0, []
1632408590.9575, 32, 0, 4483.077, 4505.128, 4088.205, 4226.667, 3997.949, 0, 0, []
1632408590.9654, 33, 0, 4476.923, 4597.949, 4102.051, 4235.385, 3994.359, 0, 0, []
1632408590.9732, 34, 0, 4466.667, 4525.128, 4096.41, 4228.718, 3973.846, 0, 0, []
1632408590.9811, 35, 0, 4448.205, 4292.821, 4094.872, 4228.718, 3961.538, 0, 0, []
1632408590.9889, 36, 0, 4445.641, 4339.487, 4119.487, 4245.128, 3970.769, 0, 0, []
1632408590.9968, 37, 0, 4462.051, 4578.462, 4118.974, 4253.333, 3988.205, 0, 0, []
1632408591.0047, 38, 0, 4471.282, 4570.256, 4093.333, 4235.385, 4002.051, 0, 0, []
1632408591.0127, 39, 0, 4468.718, 4532.821, 4069.231, 4213.333, 4008.205, 0, 0, []
1632408591.0206, 40, 0, 4471.795, 4641.538, 4062.564, 4208.718, 4015.897, 0, 0, []
1632408591.0286, 41, 0, 4489.744, 4522.051, 4080, 4221.538, 4040, 0, 0, []
1632408591.0364, 42, 0, 4494.872, 4325.128, 4084.615, 4238.462, 4054.359, 0, 0, []
1632408591.0444, 43, 0, 4484.103, 4382.564, 4078.974, 4243.59, 4041.538, 0, 0, []
1632408591.0523, 44, 0, 4484.615, 4485.641, 4084.103, 4248.718, 4034.872, 0, 0, []
1632408591.0603, 45, 0, 4494.872, 4297.949, 4099.487, 4263.077, 4048.205, 0, 0, []
1632408591.0682, 46, 0, 4491.282, 4089.231, 4110.256, 4261.026, 4043.077, 0, 0, []
1632408591.0761, 47, 0, 4470.769, 4321.026, 4101.538, 4231.282, 4014.359, 0, 0, []
1632408591.084, 48, 0, 4465.128, 4614.872, 4102.564, 4220.513, 4002.564, 0, 0, []
1632408591.0918, 49, 0, 4472.308, 4534.359, 4107.692, 4228.205, 4014.872, 0, 0, []
1632408591.0997, 50, 0, 4466.154, 4420.513, 4092.308, 4219.487, 4014.872, 0, 0, []
1632408591.1075, 51, 0, 4441.026, 4506.154, 4077.949, 4214.359, 4002.051, 0, 0, []
1632408591.1153, 52, 0, 4428.205, 4547.179, 4068.718, 4228.205, 3996.923, 0, 0, []
1632408591.1231, 53, 0, 4437.436, 4463.59, 4076.923, 4244.615, 4000, 0, 0, []
1632408591.131, 54, 0, 4443.59, 4382.564, 4095.385, 4254.872, 4011.282, 0, 0, []
1632408591.1388, 55, 0, 4454.872, 4423.077, 4094.872, 4267.179, 4034.872, 0, 0, []
1632408591.1467, 56, 0, 4464.103, 4515.897, 4094.359, 4264.103, 4058.974, 0, 0, []
1632408591.1544, 57, 0, 4455.385, 4454.872, 4089.231, 4242.051, 4054.872, 0, 0, []
1632408591.1624, 58, 0, 4437.949, 4541.026, 4090.769, 4231.282, 4042.564, 0, 0, []
1632408591.1703, 59, 0, 4431.282, 4710.256, 4091.795, 4233.846, 4040, 0, 0, []
1632408591.1783, 60, 0, 4429.744, 4504.615, 4080, 4236.41, 4041.026, 0, 0, []
1632408591.1862, 61, 0, 4425.641, 4448.205, 4088.205, 4243.077, 4043.59, 0, 0, []
1632408591.1941, 62, 0, 4430.769, 4632.308, 4093.333, 4252.821, 4053.333, 0, 0, []
1632408591.202, 63, 0, 4428.718, 4138.974, 4084.615, 4236.923, 4065.128, 0, 0, []
1632408591.21, 64, 0, 4414.872, 3674.359, 4079.487, 4218.462, 4057.949, 450, 0, []
1632408591.2179, 65, 0, 4408.205, 4416.41, 4078.974, 4233.333, 4049.744, 450, 0, []
