Timestamp, COUNTER, INTERPOLATED, AF3, T7, Pz, T8, AF4, RAW_CQ, MARKER_HARDWARE, MARKERS
1630343653.6755, 25, 0, 4191.282, 5224.615, 4080.513, 3953.333, 4185.128, 0, 0, []
1630343653.6833, 26, 0, 4181.026, 5188.718, 4063.59, 3958.974, 4167.179, 0, 0, []
1630343653.6911, 27, 0, 4179.487, 5229.744, 4088.205, 3957.949, 4154.359, 0, 0, []
1630343653.699, 28, 0, 4197.436, 5208.718, 4088.718, 3946.667, 4168.205, 0, 0, []
1630343653.7068, 29, 0, 4215.385, 5109.231, 4118.974, 3958.462, 4186.154, 0, 0, []
1630343653.7147, 30, 0, 4218.462, 5103.59, 4100, 3972.821, 4183.59, 0, 0, []
1630343653.7224, 31, 0, 4215.385, 5127.179, 4084.615, 3967.179, 4181.538, 0, 0, []
1630343653.7303, 32, 0, 4224.615, 5074.872, 4103.077, 3974.359, 4206.667, 0, 0, []
1630343653.7381, 33, 0, 4239.487, 5021.026, 4081.026, 3981.538, 4228.718, 0, 0, []
1630343653.746, 34, 0, 4232.821, 5000, 4103.59, 3972.308, 4218.462, 0, 0, []
1630343653.7538, 35, 0, 4226.154, 4990.256, 4102.051, 3977.436, 4209.231, 0, 0, []
1630343653.7616, 36, 0, 4242.051, 4964.103, 4090.256, 4001.026, 4219.487, 0, 0, []
1630343653.7694, 37, 0, 4248.205, 4904.103, 4107.179, 3996.923, 4217.949, 0, 0, []
1630343653.7773, 38, 0, 4246.154, 4853.333, 4090.769, 3983.59, 4214.359, 0, 0, []
1630343653.7851, 39, 0, 4258.462, 4849.231, 4121.026, 4000, 4224.103, 0, 0, []
1630343653.793, 40, 0, 4266.154, 4857.949, 4113.846, 4009.744, 4227.179, 0, 0, []
1630343653.8007, 41, 0, 4266.667, 4836.41, 4092.308, 4006.154, 4230.256, 0, 0, []
1630343653.8085, 42, 0, 4279.487, 4817.436, 4123.59, 4015.897, 4246.154, 0, 0, []
1630343653.8164, 43, 0, 4285.641, 4831.282, 4086.154, 4008.718, 4253.846, 0, 0, []
1630343653.8242, 44, 0, 4273.333, 4887.179, 4084.103, 3983.077, 4243.59, 0, 0, []
1630343653.8321, 45, 0, 4279.487, 4952.821, 4102.051, 3982.051, 4252.821, 0, 0, []
1630343653.8398, 46, 0, 4311.282, 4961.538, 4097.436, 4016.41, 4288.718, 0, 0, []
1630343653.8477, 47, 0, 4323.077, 4975.385, 4120.513, 4046.667, 4303.59, 0, 0, []
1630343653.8555, 48, 0, 4300, 5027.179, 4084.103, 4029.744, 4283.59, 0, 0, []
1630343653.8634, 49, 0, 4273.333, 5016.41, 4086.667, 4003.59, 4255.385, 0, 0, []
1630343653.8712, 50, 0, 4270.256, 4962.051, 4108.718, 4005.641, 4252.308, 0, 0, []
1630343653.879, 51, 0, 4296.41, 4961.026, 4099.487, 4023.077, 4277.949, 0, 0, []
1630343653.8868, 52, 0, 4331.795, 4961.026, 4125.641, 4044.615, 4302.564, 0, 0, []
1630343653.8947, 53, 0, 4338.974, 4912.821, 4109.231, 4053.846, 4304.103, 0, 0, []
1630343653.9025, 54, 0, 4329.744, 4914.359, 4117.436, 4050.256, 4304.103, 0, 0, []
1630343653.9104, 55, 0, 4334.872, 4936.41, 4126.154, 4038.974, 4312.308, 0, 0, []
1630343653.9182, 56, 0, 4347.179, 4896.41, 4097.436, 4037.436, 4315.897, 0, 0, []
1630343653.926, 57, 0, 4360, 4880, 4128.205, 4053.846, 4321.538, 0, 0, []
1630343653.9338, 58, 0, 4368.718, 4917.436, 4107.179, 4049.744, 4326.667, 0, 0, []
1630343653.9417, 59, 0, 4363.077, 4902.564, 4095.897, 4043.077, 4324.103, 0, 0, []
1630343653.9495, 60, 0, 4350.256, 4861.026, 4125.641, 4064.615, 4325.641, 0, 0, []
1630343653.9574, 61, 0, 4353.333, 4910.256, 4106.667, 4075.897, 4332.821, 0, 0, []
1630343653.9651, 62, 0, 4371.795, 4992.821, 4119.487, 4070.256, 4347.692, 0, 0, []
1630343653.9729, 63, 0, 4379.487, 5044.615, 4105.641, 4062.564, 4354.872, 0, 0, []
1630343653.9808, 64, 0, 4376.41, 5074.872, 4096.923, 4049.744, 4349.231, 450, 0, []
1630343653.9886, 65, 0, 4378.974, 5056.41, 4110.256, 4043.077, 4346.667, 450, 0, []
1630343653.9965, 66, 0, 4386.154, 5031.795, 4075.897, 4052.821, 4356.923, 16164, 0, []
1630343654.0042, 67, 0, 4402.051, 5046.154, 4108.205, 4081.538, 4376.41, 450, 0, []
1630343654.0121, 68, 0, 4415.385, 5006.154, 4123.59, 4103.59, 4381.538, 16125, 0, []
1630343654.0199, 69, 0, 4400, 4913.333, 4109.231, 4090.256, 4361.538, 450, 0, []
1630343654.0278, 70, 0, 4377.436, 4922.051, 4132.308, 4072.821, 4343.077, 16347, 0, []
1630343654.0356, 71, 0, 4386.154, 4977.949, 4121.538, 4082.051, 4348.718, 450, 0, []
1630343654.0434, 72, 0, 4391.282, 4920, 4133.846, 4082.564, 4347.692, 450, 0, []
1630343654.0513, 73, 0, 4374.359, 4825.128, 4122.051, 4061.026, 4330.256, 16106, 0, []
1630343654.0592, 74, 0, 4371.282, 4811.795, 4117.436, 4065.128, 4323.59, 450, 0, []
1630343654.0671, 75, 0, 4378.974, 4834.359, 4160.513, 4087.692, 4331.282, 16193, 0, []
1630343654.0749, 76, 0, 4370.769, 4796.41, 4131.282, 4086.667, 4331.282, 450, 0, []
1630343654.0826, 77, 0, 4352.821, 4729.744, 4125.128, 4076.923, 4317.949, 450, 0, []
1630343654.0905, 78, 0, 4342.564, 4723.59, 4120.513, 4065.128, 4307.692, 450, 0, []
1630343654.0983, 79, 0, 4335.385, 4741.538, 4098.974, 4045.128, 4303.077, 16193, 0, []
1630343654.1062, 80, 0, 4326.667, 4738.462, 4122.051, 4034.359, 4293.333, 450, 0, []
1630343654.114, 81, 0, 4322.564, 4773.333, 4097.949, 4031.282, 4291.282, 450, 0, []
1630343654.1218, 82, 0, 4324.615, 4812.821, 4109.231, 4035.385, 4297.949, 450, 0, []
1630343654.1296, 83, 0, 4329.231, 4784.615, 4122.564, 4047.692, 4304.615, 16193, 0, []
1630343654.1374, 84, 0, 4334.872, 4761.538, 4101.026, 4060.513, 4311.795, 450, 0, []
1630343654.1453, 85, 0, 4325.128, 4766.154, 4122.564, 4066.154, 4301.538, 450, 0, []
1630343654.1531, 86, 0, 4312.308, 4776.923, 4102.051, 4065.641, 4280, 450, 0, []
1630343654.1609, 87, 0, 4324.103, 4818.974, 4115.385, 4078.462, 4285.641, 16193, 0, []
1630343654.1687, 88, 0, 4338.462, 4797.436, 4130.769, 4084.103, 4303.077, 450, 0, []
1630343654.1766, 89, 0, 4334.359, 4724.103, 4124.103, 4078.974, 4298.462, 450, 0, []
1630343654.1844, 90, 0, 4334.359, 4708.718, 4177.436, 4090.769, 4292.308, 450, 0, []
1630343654.1923, 91, 0, 4338.974, 4660.513, 4146.154, 4079.487, 4295.385, 16193, 0, []
1630343654.2, 92, 0, 4344.103, 4602.051, 4106.154, 4056.923, 4296.923, 450, 0, []
1630343654.2079, 93, 0, 4343.077, 4690.256, 4103.59, 4062.564, 4294.872, 450, 0, []
1630343654.2157, 94, 0, 4334.872, 4800, 4080, 4074.872, 4296.41, 450, 0, []
1630343654.2236, 95, 0, 4335.385, 4778.462, 4113.846, 4081.538, 4303.077, 16193, 0, []
1630343654.2314, 96, 0, 4347.692, 4737.436, 4097.436, 4085.128, 4310.256, 450, 0, []
1630343654.2393, 97, 0, 4359.487, 4704.103, 4074.359, 4086.667, 4315.385, 450, 0, []
1630343654.247, 98, 0, 4365.128, 4631.282, 4106.154, 4087.179, 4322.051, 450, 0, []
1630343654.2549, 99, 0, 4367.179, 4598.974, 4107.179, 4071.282, 4327.179, 16193, 0, []
1630343654.2627, 100, 0, 4358.974, 4616.923, 4133.333, 4043.077, 4314.872, 450, 0, []
1630343654.2705, 101, 0, 4338.974, 4608.718, 4127.179, 4033.333, 4285.128, 450, 0, []
1630343654.2784, 102, 0, 4316.41, 4606.667, 4113.333, 4047.692, 4261.026, 450, 0, []
1630343654.2861, 103, 0, 4303.59, 4629.744, 4126.154, 4056.41, 4252.821, 16193, 0, []
1630343654.294, 104, 0, 4313.846, 4616.923, 4089.744, 4055.385, 4265.641, 450, 0, []
1630343654.3018, 105, 0, 4321.538, 4622.051, 4103.59, 4056.923, 4285.128, 450, 0, []
1630343654.3097, 106, 0, 4314.872, 4683.59, 4107.179, 4042.051, 4286.667, 450, 0, []
1630343654.3175, 107, 0, 4315.897, 4727.692, 4096.923, 4024.103, 4284.103, 16193, 0, []
1630343654.3253, 108, 0, 4334.872, 4729.744, 4135.385, 4032.308, 4296.923, 450, 0, []
1630343654.3331, 109, 0, 4346.667, 4728.205, 4118.462, 4034.359, 4304.103, 450, 0, []
1630343654.341, 110, 0, 4337.949, 4730.256, 4121.538, 4026.667, 4290.256, 450, 0, []
1630343654.3488, 111, 0, 4336.41, 4722.051, 4120.513, 4042.564, 4288.718, 16193, 0, []
1630343654.3567, 112, 0, 4345.641, 4691.282, 4096.41, 4066.154, 4301.026, 450, 0, []
1630343654.3644, 113, 0, 4342.564, 4650.256, 4116.923, 4080, 4292.821, 450, 0, []
1630343654.3723, 114, 0, 4332.821, 4668.718, 4105.128, 4091.795, 4281.026, 450, 0, []
1630343654.3801, 115, 0, 4326.154, 4744.103, 4118.462, 4096.923, 4277.436, 16193, 0, []
1630343654.388, 116, 0, 4318.462, 4774.359, 4115.897, 4082.564, 4268.205, 450, 0, []
1630343654.3958, 117, 0, 4317.436, 4754.359, 4084.103, 4074.359, 4259.487, 450, 0, []
1630343654.4036, 118, 0, 4326.154, 4738.462, 4116.923, 4086.667, 4264.103, 450, 0, []
1630343654.4114, 119, 0, 4324.615, 4715.897, 4114.359, 4076.41, 4267.692, 16193, 0, []
1630343654.4193, 120, 0, 4314.359, 4661.026, 4125.128, 4054.872, 4260, 450, 0, []
1630343654.4271, 121, 0, 4316.41, 4617.436, 4125.641, 4047.692, 4256.41, 450, 0, []
1630343654.4349, 122, 0, 4330.769, 4607.692, 4093.846, 4047.692, 4263.077, 450, 0, []
1630343654.4427, 123, 0, 4333.333, 4602.051, 4130.256, 4053.333, 4264.103, 16193, 0, []
1630343654.4505, 124, 0, 4325.641, 4601.026, 4114.872, 4054.872, 4258.462, 450, 0, []
1630343654.4584, 125, 0, 4329.744, 4595.385, 4103.077, 4060.513, 4254.872, 450, 0, []
1630343654.4662, 126, 0, 4332.821, 4571.795, 4118.974, 4061.026, 4251.282, 450, 0, []
1630343654.4741, 127, 0, 4325.641, 4564.615, 4098.974, 4053.333, 4247.692, 16193, 0, []
1630343654.4818, 128, 0, 4316.923, 4576.41, 4131.282, 4054.872, 4248.718, 450, 0, []
1630343654.4897, 0, 0, 4309.744, 4565.641, 4115.897, 4045.641, 4245.128, 450, 0, []
1630343654.4975, 1, 0, 4313.333, 4548.718, 4095.385, 4036.923, 4249.231, 450, 0, []
1630343654.5054, 2, 0, 4325.128, 4554.872, 4113.333, 4051.795, 4267.692, 16174, 0, []
1630343654.5132, 3, 0, 4323.59, 4532.821, 4091.795, 4063.077, 4273.333, 450, 0, []
1630343654.521, 4, 0, 4307.179, 4484.103, 4110.256, 4055.897, 4264.615, 16120, 0, []
1630343654.5288, 5, 0, 4310.256, 4493.333, 4104.615, 4039.487, 4265.128, 450, 0, []
1630343654.5367, 6, 0, 4324.615, 4540, 4101.538, 4026.154, 4268.718, 16336, 0, []
1630343654.5445, 7, 0, 4324.103, 4513.846, 4127.692, 4029.744, 4268.205, 450, 0, []
1630343654.5524, 8, 0, 4314.359, 4461.538, 4090.256, 4037.949, 4263.59, 450, 0, []
1630343654.5602, 9, 0, 4305.128, 4543.077, 4097.949, 4030.769, 4249.231, 16111, 0, []
1630343654.5679, 10, 0, 4304.615, 4682.051, 4105.128, 4028.718, 4236.41, 450, 0, []
1630343654.5758, 11, 0, 4303.59, 4671.282, 4092.308, 4030.256, 4227.179, 16202, 0, []
1630343654.5836, 12, 0, 4302.564, 4605.128, 4114.359, 4013.846, 4220.513, 450, 0, []
1630343654.5915, 13, 0, 4313.333, 4641.538, 4101.538, 4005.641, 4233.333, 450, 0, []
1630343654.5993, 14, 0, 4321.538, 4674.872, 4121.538, 4021.026, 4243.59, 450, 0, []
1630343654.6071, 15, 0, 4320.513, 4649.231, 4120.513, 4031.795, 4233.846, 16202, 0, []
1630343654.6149, 16, 0, 4327.179, 4606.154, 4100.513, 4038.974, 4236.923, 0, 0, []
1630343654.6228, 17, 0, 4337.949, 4541.026, 4127.692, 4041.538, 4251.795, 0, 0, []
1630343654.6306, 18, 0, 4337.436, 4529.231, 4102.564, 4025.641, 4250.256, 0, 0, []
1630343654.6385, 19, 0, 4340, 4594.872, 4113.333, 4025.641, 4246.667, 0, 0, []
1630343654.6462, 20, 0, 4344.615, 4596.41, 4122.051, 4036.923, 4248.718, 0, 0, []
1630343654.6541, 21, 0, 4334.872, 4507.692, 4092.821, 4030.256, 4244.103, 0, 0, []
1630343654.6619, 22, 0, 4330.769, 4427.179, 4123.077, 4027.692, 4244.103, 0, 0, []
1630343654.6698, 23, 0, 4335.385, 4390.256, 4107.692, 4026.667, 4246.154, 0, 0, []
1630343654.6776, 24, 0, 4332.308, 4421.026, 4105.641, 4021.026, 4250.256, 0, 0, []
1630343654.6854, 25, 0, 4331.795, 4481.026, 4120, 4030.769, 4261.538, 0, 0, []
1630343654.6932, 26, 0, 4342.051, 4484.103, 4101.538, 4048.205, 4270.769, 0, 0, []
1630343654.7011, 27, 0, 4343.59, 4470.769, 4121.538, 4060, 4270.256, 0, 0, []
1630343654.7089, 28, 0, 4332.308, 4481.538, 4094.872, 4053.333, 4264.103, 0, 0, []
1630343654.7168, 29, 0, 4333.846, 4470.256, 4097.436, 4042.564, 4264.615, 0, 0, []
1630343654.7245, 30, 0, 4344.615, 4434.872, 4119.487, 4029.744, 4269.744, 0, 0, []
1630343654.7324, 31, 0, 4343.59, 4404.103, 4082.564, 4012.308, 4269.744, 0, 0, []
1630343654.7402, 32, 0, 4342.051, 4388.718, 4116.41, 4024.103, 4270.256, 0, 0, []
1630343654.748, 33, 0, 4355.385, 4414.872, 4135.385, 4053.333, 4277.436, 0, 0, []
1630343654.7559, 34, 0, 4354.872, 4433.846, 4121.026, 4059.487, 4271.282, 0, 0, []
1630343654.7636, 35, 0, 4327.179, 4355.897, 4111.795, 4048.205, 4253.846, 0, 0, []
1630343654.7715, 36, 0, 4324.615, 4305.641, 4087.179, 4047.179, 4257.949, 0, 0, []
1630343654.7793, 37, 0, 4349.231, 4372.308, 4121.026, 4052.308, 4270.256, 0, 0, []
1630343654.7872, 38, 0, 4350.256, 4403.077, 4109.744, 4036.41, 4260.513, 0, 0, []
1630343654.795, 39, 0, 4337.436, 4397.436, 4100, 4020, 4249.231, 0, 0, []
1630343654.8028, 40, 0, 4344.103, 4442.564, 4125.641, 4025.128, 4251.795, 0, 0, []
1630343654.8106, 41, 0, 4344.615, 4445.641, 4085.128, 4035.897, 4239.487, 0, 0, []
1630343654.8185, 42, 0, 4338.462, 4447.692, 4106.154, 4057.949, 4226.667, 0, 0, []
1630343654.8263, 43, 0, 4350.256, 4506.154, 4132.308, 4080.513, 4242.564, 0, 0, []
1630343654.8342, 44, 0, 4349.231, 4476.923, 4118.462, 4071.795, 4251.282, 0, 0, []
1630343654.842, 45, 0, 4327.179, 4387.692, 4113.846, 4044.103, 4239.487, 0, 0, []
1630343654.8498, 46, 0, 4325.128, 4392.821, 4086.667, 4025.128, 4240.513, 0, 0, []
1630343654.8576, 47, 0, 4337.436, 4424.615, 4112.308, 4021.538, 4253.333, 0, 0, []
1630343654.8655, 48, 0, 4337.436, 4405.641, 4102.051, 4024.615, 4263.077, 0, 0, []
1630343654.8733, 49, 0, 4335.385, 4379.487, 4081.026, 4034.359, 4271.282, 0, 0, []
1630343654.8812, 50, 0, 4328.718, 4362.564, 4118.462, 4040, 4260.513, 0, 0, []
1630343654.8889, 51, 0, 4306.154, 4438.974, 4092.308, 4030.769, 4227.692, 0, 0, []
1630343654.8967, 52, 0, 4303.59, 4568.718, 4098.974, 4045.641, 4217.436, 0, 0, []
1630343654.9046, 53, 0, 4325.128, 4543.59, 4112.821, 4072.821, 4231.282, 0, 0, []
1630343654.9124, 54, 0, 4329.744, 4463.077, 4090.256, 4061.538, 4227.692, 0, 0, []
1630343654.9203, 55, 0, 4318.462, 4497.949, 4117.949, 4031.795, 4211.282, 0, 0, []
1630343654.928, 56, 0, 4316.923, 4497.436, 4103.59, 4025.641, 4211.795, 0, 0, []
1630343654.9359, 57, 0, 4317.949, 4382.051, 4099.487, 4031.795, 4222.051, 0, 0, []
1630343654.9437, 58, 0, 4312.821, 4320.513, 4107.179, 4020.513, 4226.667, 0, 0, []
1630343654.9516, 59, 0, 4309.231, 4350.769, 4090.256, 4014.872, 4231.795, 0, 0, []
1630343654.9594, 60, 0, 4304.615, 4375.385, 4121.026, 4049.744, 4233.846, 0, 0, []
1630343654.9672, 61, 0, 4301.538, 4375.897, 4101.538, 4089.231, 4232.308, 0, 0, []
1630343654.975, 62, 0, 4308.718, 4431.795, 4094.872, 4097.436, 4234.359, 0, 0, []
1630343654.9829, 63, 0, 4315.897, 4530.769, 4115.385, 4085.128, 4236.923, 0, 0, []
1630343654.9907, 64, 0, 4312.308, 4536.923, 4095.385, 4071.795, 4236.41, 450, 0, []
1630343654.9986, 65, 0, 4307.692, 4483.077, 4116.923, 4063.59, 4229.231, 450, 0, []
1630343655.0063, 66, 0, 4312.821, 4469.231, 4104.103, 4057.949, 4227.179, 16179, 0, []
1630343655.0142, 67, 0, 4312.308, 4415.385, 4100.513, 4058.974, 4232.821, 450, 0, []
1630343655.022, 68, 0, 4300.513, 4358.462, 4123.59, 4061.538, 4230.769, 16067, 0, []
1630343655.0298, 69, 0, 4290.256, 4437.949, 4095.897, 4053.846, 4218.462, 450, 0, []
1630343655.0377, 70, 0, 4291.795, 4524.615, 4105.641, 4051.795, 4217.949, 16335, 0, []
1630343655.0455, 71, 0, 4294.359, 4465.641, 4090.769, 4053.846, 4228.718, 450, 0, []
1630343655.0534, 72, 0, 4284.103, 4358.462, 4092.308, 4057.949, 4226.154, 450, 0, []
1630343655.0613, 73, 0, 4265.641, 4297.436, 4120.513, 4066.667, 4204.103, 16117, 0, []
1630343655.0691, 74, 0, 4256.923, 4285.128, 4085.641, 4061.026, 4182.564, 450, 0, []
1630343655.0769, 75, 0, 4273.846, 4286.667, 4118.462, 4056.923, 4182.564, 16208, 0, []
1630343655.0847, 76, 0, 4289.744, 4254.872, 4137.436, 4067.692, 4186.667, 450, 0, []
1630343655.0925, 77, 0, 4272.308, 4214.359, 4103.59, 4073.846, 4167.179, 450, 0, []
1630343655.1004, 78, 0, 4244.103, 4212.821, 4107.692, 4060.513, 4145.128, 450, 0, []
1630343655.1082, 79, 0, 4234.359, 4231.282, 4094.872, 4039.487, 4149.744, 16208, 0, []
1630343655.1161, 80, 0, 4225.641, 4200, 4111.795, 4043.59, 4156.923, 450, 0, []
1630343655.1238, 81, 0, 4216.41, 4149.231, 4105.128, 4065.641, 4146.154, 450, 0, []
1630343655.1317, 82, 0, 4240, 4207.179, 4094.872, 4082.051, 4155.385, 450, 0, []
1630343655.1395, 83, 0, 4263.077, 4297.436, 4134.872, 4087.179, 4176.923, 16208, 0, []
1630343655.1474, 84, 0, 4257.949, 4255.897, 4111.282, 4084.615, 4175.385, 450, 0, []
1630343655.1552, 85, 0, 4253.333, 4180, 4113.333, 4088.718, 4174.359, 450, 0, []
1630343655.1631, 86, 0, 4250.769, 4203.077, 4120, 4085.128, 4188.205, 450, 0, []
1630343655.1708, 87, 0, 4234.872, 4227.692, 4089.231, 4072.821, 4188.718, 16208, 0, []
1630343655.1787, 88, 0, 4218.974, 4198.462, 4102.564, 4075.897, 4164.615, 450, 0, []
1630343655.1865, 89, 0, 4217.436, 4193.333, 4091.282, 4079.487, 4148.205, 450, 0, []
1630343655.1944, 90, 0, 4227.692, 4188.205, 4109.744, 4083.077, 4156.923, 450, 0, []
1630343655.2022, 91, 0, 4238.974, 4144.615, 4113.333, 4088.205, 4169.231, 16208, 0, []
1630343655.2099, 92, 0, 4248.205, 4112.308, 4077.949, 4088.718, 4175.897, 450, 0, []
1630343655.2178, 93, 0, 4260, 4123.59, 4124.103, 4104.103, 4191.282, 450, 0, []
1630343655.2256, 94, 0, 4270.256, 4145.641, 4127.179, 4119.487, 4203.59, 450, 0, []
1630343655.2335, 95, 0, 4263.077, 4169.231, 4113.333, 4112.308, 4191.795, 16208, 0, []
1630343655.2413, 96, 0, 4254.359, 4214.359, 4124.615, 4111.795, 4174.359, 450, 0, []
1630343655.2491, 97, 0, 4242.564, 4216.41, 4103.077, 4123.59, 4164.615, 450, 0, []
1630343655.2569, 98, 0, 4232.308, 4138.462, 4114.872, 4120.513, 4168.205, 450, 0, []
1630343655.2648, 99, 0, 4241.538, 4080, 4095.897, 4110.769, 4192.308, 16208, 0, []
1630343655.2726, 100, 0, 4242.051, 4084.103, 4095.385, 4115.897, 4198.462, 450, 0, []
1630343655.2805, 101, 0, 4230.256, 4077.949, 4120.513, 4116.923, 4175.897, 450, 0, []
1630343655.2882, 102, 0, 4242.564, 4062.051, 4097.436, 4105.641, 4168.718, 450, 0, []
1630343655.2961, 103, 0, 4248.205, 4085.128, 4119.487, 4104.615, 4164.615, 16208, 0, []
1630343655.3039, 104, 0, 4217.436, 4106.154, 4106.667, 4093.846, 4139.487, 450, 0, []
1630343655.3118, 105, 0, 4200.513, 4099.487, 4093.846, 4069.744, 4133.333, 450, 0, []
1630343655.3196, 106, 0, 4212.821, 4098.462, 4117.949, 4071.795, 4154.872, 450, 0, []
1630343655.3274, 107, 0, 4226.154, 4107.179, 4094.359, 4102.564, 4169.231, 16208, 0, []
1630343655.3352, 108, 0, 4240.513, 4118.462, 4124.615, 4125.128, 4170.769, 450, 0, []
1630343655.3431, 109, 0, 4241.026, 4129.744, 4128.718, 4103.59, 4155.897, 450, 0, []
1630343655.3509, 110, 0, 4231.795, 4141.026, 4104.615, 4072.821, 4140.513, 450, 0, []
1630343655.3587, 111, 0, 4237.949, 4137.949, 4124.103, 4065.128, 4152.821, 16208, 0, []
1630343655.3665, 112, 0, 4248.718, 4112.821, 4100.513, 4057.949, 4172.821, 450, 0, []
1630343655.3743, 113, 0, 4245.641, 4081.026, 4110.769, 4067.692, 4177.436, 450, 0, []
1630343655.3822, 114, 0, 4245.641, 4068.718, 4112.821, 4098.462, 4179.487, 450, 0, []
1630343655.39, 115, 0, 4258.974, 4104.103, 4095.897, 4123.077, 4189.744, 16208, 0, []
1630343655.3979, 116, 0, 4266.667, 4145.128, 4118.974, 4127.179, 4190.769, 450, 0, []
1630343655.4056, 117, 0, 4253.846, 4141.538, 4093.333, 4110.769, 4175.385, 450, 0, []
1630343655.4135, 118, 0, 4244.103, 4149.231, 4102.051, 4090.769, 4168.718, 450, 0, []
1630343655.4213, 119, 0, 4255.897, 4202.051, 4115.897, 4076.923, 4183.59, 16208, 0, []
1630343655.4292, 120, 0, 4266.154, 4205.641, 4105.641, 4074.872, 4197.436, 450, 0, []
1630343655.437, 121, 0, 4265.128, 4153.846, 4137.436, 4100.513, 4198.462, 450, 0, []
1630343655.4448, 122, 0, 4268.718, 4123.077, 4103.59, 4136.41, 4199.487, 450, 0, []
1630343655.4526, 123, 0, 4258.462, 4072.308, 4091.282, 4150.769, 4186.667, 16208, 0, []
1630343655.4605, 124, 0, 4234.359, 4016.41, 4107.179, 4141.026, 4156.923, 450, 0, []
1630343655.4683, 125, 0, 4231.282, 4019.487, 4086.667, 4136.41, 4147.692, 450, 0, []
1630343655.4762, 126, 0, 4237.436, 4029.744, 4108.205, 4135.897, 4160, 450, 0, []
1630343655.484, 127, 0, 4228.205, 4019.487, 4092.308, 4114.359, 4164.103, 16208, 0, []
1630343655.4918, 128, 0, 4230.769, 4048.205, 4103.59, 4111.795, 4169.231, 450, 0, []
1630343655.4996, 0, 0, 4250.256, 4110.256, 4135.897, 4136.923, 4183.59, 450, 0, []
1630343655.5075, 1, 0, 4251.795, 4164.103, 4108.718, 4135.897, 4175.897, 450, 0, []
1630343655.5153, 2, 0, 4243.077, 4184.615, 4122.051, 4124.103, 4158.974, 16188, 0, []
1630343655.5231, 3, 0, 4244.615, 4147.179, 4095.897, 4127.692, 4165.128, 450, 0, []
1630343655.5309, 4, 0, 4238.462, 4083.077, 4069.231, 4130.256, 4172.308, 16105, 0, []
1630343655.5387, 5, 0, 4226.154, 4056.923, 4091.282, 4132.821, 4163.077, 450, 0, []
1630343655.5466, 6, 0, 4238.974, 4100.513, 4087.692, 4138.974, 4166.154, 16379, 0, []
1630343655.5544, 7, 0, 4271.795, 4161.538, 4124.103, 4148.718, 4184.615, 450, 0, []
1630343655.5623, 8, 0, 4282.564, 4154.872, 4118.974, 4156.923, 4193.846, 450, 0, []
1630343655.57, 9, 0, 4269.744, 4110.256, 4103.077, 4145.128, 4191.795, 16129, 0, []
1630343655.5779, 10, 0, 4253.846, 4108.718, 4128.718, 4129.231, 4188.718, 450, 0, []
1630343655.5857, 11, 0, 4237.436, 4138.462, 4105.128, 4132.308, 4182.564, 16209, 0, []
1630343655.5936, 12, 0, 4222.564, 4132.821, 4114.872, 4128.205, 4159.487, 450, 0, []
1630343655.6014, 13, 0, 4221.026, 4091.795, 4113.846, 4106.154, 4137.436, 450, 0, []
1630343655.6092, 14, 0, 4242.051, 4066.667, 4112.308, 4117.436, 4151.795, 450, 0, []
1630343655.617, 15, 0, 4249.231, 4065.128, 4128.205, 4123.59, 4180.513, 16209, 0, []
1630343655.6249, 16, 0, 4233.333, 4068.718, 4085.641, 4090.256, 4182.564, 0, 0, []
1630343655.6327, 17, 0, 4237.436, 4092.308, 4111.282, 4108.205, 4179.487, 0, 0, []
1630343655.6406, 18, 0, 4245.641, 4104.615, 4124.615, 4146.154, 4176.41, 0, 0, []
1630343655.6483, 19, 0, 4237.949, 4072.308, 4095.385, 4125.641, 4161.026, 0, 0, []
1630343655.6562, 20, 0, 4235.897, 4060.513, 4123.077, 4113.333, 4156.923, 0, 0, []
1630343655.664, 21, 0, 4231.282, 4083.59, 4101.538, 4126.154, 4163.077, 0, 0, []
1630343655.6718, 22, 0, 4207.179, 4070.256, 4094.872, 4109.744, 4148.718, 0, 0, []
1630343655.6797, 23, 0, 4211.795, 4044.615, 4107.692, 4096.41, 4136.41, 0, 0, []
1630343655.6874, 24, 0, 4244.615, 4064.615, 4106.667, 4122.051, 4157.949, 0, 0, []
1630343655.6953, 25, 0, 4247.179, 4106.154, 4131.282, 4133.333, 4175.385, 0, 0, []
1630343655.7031, 26, 0, 4226.667, 4135.897, 4098.974, 4095.385, 4166.667, 0, 0, []
1630343655.711, 27, 0, 4215.385, 4144.615, 4097.949, 4069.231, 4155.385, 0, 0, []
1630343655.7188, 28, 0, 4214.872, 4136.41, 4126.667, 4083.59, 4150.769, 0, 0, []
1630343655.7266, 29, 0, 4220, 4116.923, 4132.821, 4094.359, 4146.154, 0, 0, []
1630343655.7344, 30, 0, 4213.333, 4078.974, 4139.487, 4084.615, 4131.282, 0, 0, []
1630343655.7423, 31, 0, 4191.282, 4044.103, 4078.462, 4068.205, 4103.59, 0, 0, []
1630343655.7501, 32, 0, 4175.897, 4054.872, 4074.872, 4065.128, 4090.769, 0, 0, []
1630343655.758, 33, 0, 4178.462, 4077.949, 4100.513, 4071.795, 4109.744, 0, 0, []
1630343655.7657, 34, 0, 4186.154, 4072.308, 4075.897, 4074.359, 4127.179, 0, 0, []
1630343655.7736, 35, 0, 4189.231, 4073.846, 4100.513, 4073.333, 4113.846, 0, 0, []
1630343655.7814, 36, 0, 4187.692, 4088.718, 4062.564, 4071.282, 4103.59, 0, 0, []
1630343655.7893, 37, 0, 4185.641, 4092.308, 4040, 4071.795, 4117.949, 0, 0, []
1630343655.7971, 38, 0, 4181.026, 4109.744, 4092.821, 4076.923, 4125.128, 0, 0, []
1630343655.805, 39, 0, 4187.692, 4122.564, 4087.179, 4089.231, 4123.077, 0, 0, []
1630343655.8127, 40, 0, 4204.103, 4110.769, 4110.256, 4100.513, 4128.718, 0, 0, []
1630343655.8206, 41, 0, 4197.436, 4105.641, 4117.949, 4084.615, 4118.974, 0, 0, []
1630343655.8284, 42, 0, 4171.282, 4098.974, 4100.513, 4060.513, 4097.949, 0, 0, []
1630343655.8362, 43, 0, 4166.154, 4065.128, 4104.615, 4062.564, 4105.641, 0, 0, []
1630343655.8441, 44, 0, 4188.718, 4037.436, 4085.641, 4085.641, 4130.769, 0, 0, []
1630343655.8518, 45, 0, 4200, 4053.846, 4117.949, 4106.667, 4126.154, 0, 0, []
1630343655.8597, 46, 0, 4186.667, 4060.513, 4108.718, 4097.436, 4106.154, 0, 0, []
1630343655.8675, 47, 0, 4175.385, 4031.795, 4082.051, 4083.077, 4106.667, 0, 0, []
1630343655.8754, 48, 0, 4188.718, 4010.256, 4112.308, 4099.487, 4126.667, 0, 0, []
1630343655.8832, 49, 0, 4202.051, 4015.897, 4091.795, 4112.821, 4138.974, 0, 0, []
1630343655.891, 50, 0, 4186.667, 4038.974, 4093.846, 4103.077, 4119.487, 0, 0, []
1630343655.8988, 51, 0, 4182.564, 4038.462, 4090.256, 4092.821, 4098.974, 0, 0, []
1630343655.9067, 52, 0, 4205.128, 4030.256, 4075.385, 4090.256, 4115.897, 0, 0, []
1630343655.9145, 53, 0, 4204.103, 4063.077, 4104.103, 4099.487, 4132.821, 0, 0, []
1630343655.9224, 54, 0, 4178.974, 4091.795, 4084.103, 4105.641, 4116.41, 0, 0, []
1630343655.9301, 55, 0, 4170.256, 4066.667, 4099.487, 4097.436, 4092.308, 0, 0, []
1630343655.938, 56, 0, 4153.333, 4041.538, 4096.923, 4067.692, 4070.256, 0, 0, []
1630343655.9458, 57, 0, 4117.436, 4049.744, 4060, 4049.231, 4050.769, 0, 0, []
1630343655.9537, 58, 0, 4118.974, 4043.59, 4096.41, 4068.205, 4064.615, 0, 0, []
1630343655.9615, 59, 0, 4158.974, 4038.974, 4090.256, 4082.564, 4086.667, 0, 0, []
1630343655.9693, 60, 0, 4175.385, 4055.897, 4091.282, 4082.051, 4083.59, 0, 0, []
1630343655.9771, 61, 0, 4166.154, 4021.026, 4093.333, 4080.513, 4086.667, 0, 0, []
1630343655.9849, 62, 0, 4171.795, 3962.051, 4067.179, 4077.436, 4106.667, 0, 0, []
1630343655.9928, 63, 0, 4194.359, 3980, 4104.103, 4089.231, 4120.513, 0, 0, []
1630343656.0006, 64, 0, 4199.487, 4043.077, 4092.821, 4104.103, 4112.821, 450, 0, []
1630343656.0084, 65, 0, 4170.769, 4075.897, 4078.974, 4087.179, 4091.795, 450, 0, []
1630343656.0162, 66, 0, 4148.718, 4129.744, 4087.179, 4060.513, 4090.769, 16190, 0, []
1630343656.0241, 67, 0, 4168.718, 4222.051, 4074.872, 4076.41, 4116.41, 450, 0, []
1630343656.0319, 68, 0, 4198.974, 4193.333, 4113.846, 4112.308, 4129.231, 16132, 0, []
1630343656.0398, 69, 0, 4201.538, 4045.128, 4103.077, 4120, 4118.462, 450, 0, []
1630343656.0475, 70, 0, 4185.641, 3977.949, 4085.128, 4105.128, 4110.256, 16351, 0, []
1630343656.0554, 71, 0, 4168.718, 4012.308, 4094.872, 4090.256, 4105.128, 450, 0, []
1630343656.0632, 72, 0, 4165.128, 4034.872, 4076.923, 4088.205, 4104.615, 450, 0, []
1630343656.0711, 73, 0, 4175.385, 4011.282, 4106.667, 4097.436, 4105.641, 16129, 0, []
1630343656.0789, 74, 0, 4175.897, 4000.513, 4093.846, 4091.282, 4090.769, 450, 0, []
1630343656.0868, 75, 0, 4158.974, 4044.615, 4077.949, 4079.487, 4078.974, 16204, 0, []
1630343656.0945, 76, 0, 4138.974, 4076.41, 4102.051, 4082.564, 4082.564, 450, 0, []
1630343656.1024, 77, 0, 4142.051, 4021.026, 4082.051, 4088.718, 4083.59, 450, 0, []
1630343656.1102, 78, 0, 4168.718, 3958.462, 4111.795, 4101.538, 4081.026, 450, 0, []
1630343656.118, 79, 0, 4173.333, 3969.231, 4109.231, 4102.564, 4079.487, 16204, 0, []
1630343656.1259, 80, 0, 4134.359, 3970.256, 4070.256, 4084.103, 4071.282, 450, 0, []
1630343656.1336, 81, 0, 4108.205, 3938.974, 4084.103, 4081.538, 4055.897, 450, 0, []
1630343656.1415, 82, 0, 4129.744, 3910.256, 4083.077, 4089.231, 4051.282, 450, 0, []
1630343656.1493, 83, 0, 4141.026, 3890.769, 4102.564, 4078.462, 4049.744, 16204, 0, []
1630343656.1572, 84, 0, 4121.026, 3926.667, 4088.718, 4065.641, 4049.231, 450, 0, []
1630343656.165, 85, 0, 4116.923, 4017.949, 4076.923, 4080.513, 4054.359, 450, 0, []
1630343656.1728, 86, 0, 4129.744, 4045.641, 4116.41, 4095.385, 4048.205, 450, 0, []
1630343656.1806, 87, 0, 4125.128, 3961.538, 4085.641, 4073.333, 4032.308, 16204, 0, []
1630343656.1885, 88, 0, 4116.41, 3907.692, 4088.718, 4060, 4036.923, 450, 0, []
1630343656.1963, 89, 0, 4124.615, 3934.359, 4103.077, 4082.051, 4049.744, 450, 0, []
1630343656.2042, 90, 0, 4123.077, 3927.692, 4085.641, 4087.692, 4032.308, 450, 0, []
1630343656.2119, 91, 0, 4108.718, 3872.821, 4111.282, 4068.718, 4015.385, 16204, 0, []
1630343656.2198, 92, 0, 4101.538, 3847.179, 4084.103, 4065.128, 4026.154, 450, 0, []
1630343656.2276, 93, 0, 4100.513, 3856.41, 4087.179, 4085.128, 4029.744, 450, 0, []
1630343656.2355, 94, 0, 4097.436, 3866.667, 4110.769, 4089.231, 4018.974, 450, 0, []
1630343656.2433, 95, 0, 4091.282, 3870.256, 4087.179, 4065.128, 4018.462, 16204, 0, []
1630343656.2511, 96, 0, 4092.821, 3853.333, 4102.564, 4062.051, 4026.154, 450, 0, []
1630343656.2589, 97, 0, 4109.744, 3850.256, 4090.256, 4083.077, 4037.949, 450, 0, []
1630343656.2668, 98, 0, 4115.385, 3882.051, 4092.821, 4089.231, 4036.41, 450, 0, []
1630343656.2746, 99, 0, 4084.103, 3926.667, 4085.641, 4063.59, 4009.744, 16204, 0, []
1630343656.2824, 100, 0, 4062.051, 3946.667, 4053.333, 4051.282, 3998.462, 450, 0, []
1630343656.2902, 101, 0, 4081.026, 3916.923, 4106.667, 4075.897, 4009.231, 450, 0, []
1630343656.298, 102, 0, 4095.385, 3918.974, 4094.872, 4075.897, 4018.462, 450, 0, []
1630343656.3059, 103, 0, 4090.256, 3967.179, 4065.128, 4052.308, 4023.077, 16204, 0, []
1630343656.3137, 104, 0, 4100, 3942.051, 4090.769, 4063.59, 4027.692, 450, 0, []
1630343656.3216, 105, 0, 4126.154, 3909.231, 4084.103, 4091.795, 4034.872, 450, 0, []
1630343656.3293, 106, 0, 4125.128, 3972.821, 4101.538, 4087.179, 4041.026, 450, 0, []
1630343656.3372, 107, 0, 4094.872, 3976.41, 4080, 4060, 4030.769, 16204, 0, []
1630343656.345, 108, 0, 4096.41, 3940, 4076.41, 4059.487, 4025.641, 450, 0, []
1630343656.3529, 109, 0, 4137.436, 4005.128, 4113.846, 4077.949, 4051.282, 450, 0, []
1630343656.3607, 110, 0, 4145.641, 4018.974, 4081.026, 4076.923, 4068.205, 450, 0, []
1630343656.3685, 111, 0, 4118.462, 3984.103, 4087.179, 4077.949, 4056.41, 16204, 0, []
1630343656.3763, 112, 0, 4121.538, 4076.923, 4093.333, 4089.231, 4047.692, 450, 0, []
1630343656.3842, 113, 0, 4134.872, 4134.359, 4082.051, 4092.308, 4051.282, 450, 0, []
1630343656.392, 114, 0, 4111.795, 4018.974, 4092.308, 4084.615, 4049.744, 450, 0, []
1630343656.3999, 115, 0, 4103.077, 3943.077, 4068.718, 4078.462, 4043.59, 16204, 0, []
1630343656.4077, 116, 0, 4124.103, 3959.487, 4096.41, 4076.923, 4035.385, 450, 0, []
1630343656.4155, 117, 0, 4106.667, 3945.128, 4092.821, 4055.897, 4015.897, 450, 0, []
1630343656.4233, 118, 0, 4078.462, 3919.487, 4068.205, 4041.026, 4012.308, 450, 0, []
1630343656.4312, 119, 0, 4109.231, 3926.154, 4106.154, 4068.718, 4037.436, 16204, 0, []
1630343656.439, 120, 0, 4149.231, 3927.692, 4091.795, 4095.385, 4055.897, 450, 0, []
1630343656.4468, 121, 0, 4140, 3947.179, 4103.59, 4093.333, 4061.538, 450, 0, []
1630343656.4546, 122, 0, 4129.231, 4034.359, 4115.897, 4093.333, 4072.308, 450, 0, []
1630343656.4624, 123, 0, 4142.564, 4135.385, 4090.769, 4089.231, 4067.692, 16204, 0, []
1630343656.4703, 124, 0, 4147.692, 4144.103, 4112.308, 4067.692, 4052.821, 450, 0, []
1630343656.4781, 125, 0, 4140.513, 4078.462, 4090.769, 4053.846, 4060.513, 450, 0, []
1630343656.486, 126, 0, 4133.333, 4055.897, 4087.179, 4065.128, 4074.872, 450, 0, []
1630343656.4937, 127, 0, 4144.615, 4063.59, 4096.923, 4076.923, 4074.872, 16204, 0, []
1630343656.5016, 128, 0, 4155.897, 4053.333, 4074.872, 4075.897, 4066.154, 450, 0, []
1630343656.5094, 0, 0, 4140, 4046.667, 4088.205, 4066.667, 4051.795, 450, 0, []
1630343656.5173, 1, 0, 4122.564, 3991.795, 4064.103, 4052.308, 4048.205, 450, 0, []
1630343656.5251, 2, 0, 4123.59, 3882.051, 4077.949, 4049.744, 4047.179, 16193, 0, []
1630343656.5329, 3, 0, 4131.282, 3852.308, 4107.692, 4055.897, 4039.487, 450, 0, []
1630343656.5407, 4, 0, 4148.205, 3913.333, 4079.487, 4061.026, 4059.487, 16141, 0, []
1630343656.5486, 5, 0, 4167.179, 3918.462, 4100, 4074.872, 4095.897, 450, 0, []
1630343656.5564, 6, 0, 4160.513, 3893.846, 4083.077, 4069.231, 4084.615, 16346, 0, []
1630343656.5643, 7, 0, 4139.487, 3940.513, 4075.897, 4042.564, 4049.231, 450, 0, []
1630343656.572, 8, 0, 4125.128, 3998.974, 4096.923, 4025.128, 4048.205, 450, 0, []
1630343656.5799, 9, 0, 4122.051, 3982.564, 4066.154, 4020.513, 4055.385, 16129, 0, []
1630343656.5877, 10, 0, 4134.872, 3958.462, 4090.256, 4027.692, 4047.692, 450, 0, []
1630343656.5955, 11, 0, 4147.179, 3985.641, 4091.795, 4041.026, 4049.231, 16204, 0, []
1630343656.6034, 12, 0, 4151.282, 4016.923, 4087.179, 4061.026, 4078.462, 450, 0, []
1630343656.6111, 13, 0, 4161.026, 4018.974, 4112.821, 4086.154, 4111.282, 450, 0, []
1630343656.619, 14, 0, 4171.282, 4006.154, 4083.59, 4099.487, 4117.949, 450, 0, []
1630343656.6268, 15, 0, 4181.538, 4022.051, 4088.205, 4102.564, 4107.692, 16204, 0, []
1630343656.6347, 16, 0, 4188.205, 4048.718, 4085.128, 4089.231, 4105.641, 0, 0, []
1630343656.6425, 17, 0, 4177.436, 4029.744, 4083.077, 4067.179, 4107.692, 0, 0, []
1630343656.6503, 18, 0, 4171.795, 3956.923, 4100, 4069.744, 4111.282, 0, 0, []
1630343656.6581, 19, 0, 4195.385, 3917.436, 4074.872, 4093.846, 4132.308, 0, 0, []
1630343656.666, 20, 0, 4213.846, 3940, 4111.795, 4107.692, 4140.513, 0, 0, []
1630343656.6738, 21, 0, 4199.487, 3944.615, 4107.179, 4101.538, 4120.513, 0, 0, []
1630343656.6817, 22, 0, 4179.487, 3945.641, 4063.59, 4099.487, 4114.359, 0, 0, []
1630343656.6894, 23, 0, 4170.769, 3954.359, 4097.436, 4097.436, 4116.41, 0, 0, []
1630343656.6973, 24, 0, 4171.282, 3942.564, 4093.333, 4073.333, 4098.462, 0, 0, []
1630343656.7051, 25, 0, 4170.769, 3907.692, 4102.564, 4062.564, 4087.692, 0, 0, []
1630343656.713, 26, 0, 4163.077, 3891.795, 4097.949, 4071.282, 4102.051, 0, 0, []
1630343656.7208, 27, 0, 4169.231, 3931.282, 4068.718, 4082.564, 4116.923, 0, 0, []
1630343656.7287, 28, 0, 4192.821, 3964.615, 4100.513, 4108.205, 4122.051, 0, 0, []
1630343656.7364, 29, 0, 4208.718, 3957.949, 4088.205, 4121.538, 4124.615, 0, 0, []
1630343656.7443, 30, 0, 4205.128, 3955.897, 4088.718, 4100.513, 4131.282, 0, 0, []
1630343656.7521, 31, 0, 4188.718, 3976.41, 4091.282, 4077.949, 4127.179, 0, 0, []
1630343656.7599, 32, 0, 4181.538, 3982.564, 4076.923, 4087.179, 4117.436, 0, 0, []
1630343656.7678, 33, 0, 4191.795, 3973.333, 4116.923, 4113.846, 4120, 0, 0, []
1630343656.7755, 34, 0, 4197.949, 3965.128, 4092.821, 4116.41, 4123.077, 0, 0, []
1630343656.7834, 35, 0, 4191.282, 3950.769, 4084.615, 4105.128, 4123.59, 0, 0, []
1630343656.7912, 36, 0, 4173.846, 3953.333, 4103.59, 4096.41, 4123.077, 0, 0, []
1630343656.7991, 37, 0, 4158.462, 3964.103, 4068.205, 4086.154, 4108.205, 0, 0, []
1630343656.8069, 38, 0, 4170.256, 3971.795, 4084.615, 4084.615, 4097.949, 0, 0, []
1630343656.8147, 39, 0, 4197.436, 3985.641, 4087.179, 4096.41, 4114.872, 0, 0, []
1630343656.8225, 40, 0, 4193.846, 3989.744, 4085.641, 4105.128, 4127.692, 0, 0, []
1630343656.8304, 41, 0, 4169.231, 3998.462, 4095.385, 4104.103, 4120.513, 0, 0, []
1630343656.8382, 42, 0, 4170.256, 4015.385, 4074.359, 4099.487, 4121.026, 0, 0, []
1630343656.8461, 43, 0, 4195.385, 4029.744, 4107.179, 4114.872, 4139.487, 0, 0, []
1630343656.8538, 44, 0, 4223.59, 4072.308, 4096.41, 4136.923, 4160.513, 0, 0, []
1630343656.8617, 45, 0, 4218.974, 4104.103, 4074.359, 4125.128, 4156.923, 0, 0, []
1630343656.8695, 46, 0, 4190.769, 4044.103, 4093.846, 4091.795, 4135.385, 0, 0, []
1630343656.8774, 47, 0, 4190.769, 3992.308, 4077.436, 4086.154, 4134.359, 0, 0, []
1630343656.8852, 48, 0, 4200.513, 4049.231, 4102.051, 4103.077, 4141.026, 0, 0, []
1630343656.893, 49, 0, 4190.256, 4094.872, 4095.897, 4101.026, 4132.308, 0, 0, []
1630343656.9008, 50, 0, 4189.744, 4064.103, 4083.59, 4088.205, 4134.359, 0, 0, []
1630343656.9086, 51, 0, 4209.231, 4057.436, 4120, 4095.385, 4154.359, 0, 0, []
1630343656.9165, 52, 0, 4213.846, 4084.615, 4093.333, 4104.615, 4162.051, 0, 0, []
1630343656.9243, 53, 0, 4209.231, 4090.769, 4100, 4105.128, 4151.282, 0, 0, []
1630343656.9321, 54, 0, 4221.026, 4093.333, 4111.795, 4117.436, 4149.231, 0, 0, []
1630343656.9399, 55, 0, 4239.487, 4090.769, 4104.615, 4143.077, 4163.077, 0, 0, []
1630343656.9478, 56, 0, 4245.128, 4050.769, 4121.026, 4144.103, 4177.436, 0, 0, []
1630343656.9556, 57, 0, 4237.436, 4014.359, 4086.667, 4118.974, 4183.59, 0, 0, []
1630343656.9635, 58, 0, 4237.949, 4069.744, 4103.59, 4130.769, 4189.231, 0, 0, []
1630343656.9712, 59, 0, 4246.154, 4132.308, 4113.846, 4153.333, 4185.641, 0, 0, []
1630343656.9791, 60, 0, 4247.179, 4072.308, 4090.256, 4138.974, 4173.846, 0, 0, []
1630343656.9869, 61, 0, 4247.179, 4011.795, 4124.103, 4136.41, 4172.308, 0, 0, []
1630343656.9948, 62, 0, 4252.308, 4072.308, 4108.718, 4158.974, 4180.513, 0, 0, []
1630343657.0026, 63, 0, 4269.744, 4142.051, 4117.436, 4175.897, 4200, 0, 0, []
1630343657.0104, 64, 0, 4299.487, 4113.846, 4130.769, 4178.462, 4238.462, 450, 0, []
1630343657.0182, 65, 0, 4311.282, 4072.308, 4096.41, 4183.59, 4267.692, 450, 0, []
1630343657.0261, 66, 0, 4312.308, 4084.615, 4124.103, 4202.564, 4275.385, 16184, 0, []
1630343657.034, 67, 0, 4336.923, 4089.744, 4120.513, 4211.795, 4287.692, 450, 0, []
1630343657.0419, 68, 0, 4364.615, 4046.154, 4120.513, 4203.077, 4305.641, 16134, 0, []
1630343657.0498, 69, 0, 4380, 3996.923, 4128.718, 4197.949, 4312.821, 450, 0, []
1630343657.0575, 70, 0, 4394.872, 4002.564, 4102.564, 4208.718, 4326.667, 16336, 0, []
1630343657.0655, 71, 0, 4404.103, 4042.051, 4126.667, 4218.974, 4349.744, 450, 0, []
1630343657.0734, 72, 0, 4415.897, 4067.179, 4107.692, 4211.282, 4358.974, 450, 0, []
1630343657.0813, 73, 0, 4429.744, 4085.128, 4100.513, 4194.872, 4348.718, 16124, 0, []
1630343657.0891, 74, 0, 4430.256, 4120.513, 4120, 4184.103, 4353.333, 450, 0, []
1630343657.0969, 75, 0, 4440.513, 4160.513, 4096.923, 4192.308, 4387.692, 16205, 0, []
1630343657.1047, 76, 0, 4463.077, 4144.615, 4121.538, 4207.692, 4406.667, 450, 0, []
1630343657.1126, 77, 0, 4463.077, 4084.103, 4101.538, 4192.821, 4396.923, 450, 0, []
1630343657.1204, 78, 0, 4466.154, 4066.154, 4083.59, 4178.974, 4406.667, 450, 0, []
1630343657.1283, 79, 0, 4480, 4082.564, 4115.897, 4191.795, 4430.769, 16205, 0, []
1630343657.136, 80, 0, 4477.436, 4066.667, 4089.744, 4182.564, 4428.718, 450, 0, []
1630343657.1439, 81, 0, 4471.282, 4063.59, 4100, 4162.051, 4415.897, 450, 0, []
1630343657.1517, 82, 0, 4466.154, 4081.026, 4105.641, 4157.436, 4412.308, 450, 0, []
1630343657.1596, 83, 0, 4446.667, 4051.795, 4092.308, 4154.872, 4403.077, 16205, 0, []
1630343657.1674, 84, 0, 4421.026, 4002.564, 4095.897, 4139.487, 4374.872, 450, 0, []
1630343657.1752, 85, 0, 4407.692, 3998.974, 4062.051, 4116.923, 4351.795, 450, 0, []
1630343657.183, 86, 0, 4394.872, 4023.59, 4092.821, 4114.872, 4337.949, 450, 0, []
1630343657.1909, 87, 0, 4377.949, 4018.462, 4104.615, 4117.436, 4313.333, 16205, 0, []
1630343657.1987, 88, 0, 4374.872, 3997.949, 4087.179, 4102.564, 4296.41, 450, 0, []
1630343657.2066, 89, 0, 4366.154, 3962.564, 4123.077, 4076.923, 4288.205, 450, 0, []
1630343657.2143, 90, 0, 4354.359, 3961.538, 4095.385, 4068.205, 4283.077, 450, 0, []
1630343657.2221, 91, 0, 4380.513, 4043.59, 4108.205, 4096.923, 4300.513, 16205, 0, []
1630343657.23, 92, 0, 4413.333, 4055.897, 4131.282, 4123.59, 4324.615, 450, 0, []
1630343657.2378, 93, 0, 4394.872, 3937.436, 4095.897, 4107.179, 4306.667, 450, 0, []
1630343657.2457, 94, 0, 4353.846, 3873.846, 4098.974, 4069.744, 4264.615, 450, 0, []
1630343657.2534, 95, 0, 4327.179, 3919.487, 4075.385, 4037.949, 4241.026, 16205, 0, []
1630343657.2613, 96, 0, 4300.513, 3904.615, 4084.103, 4027.179, 4231.282, 450, 0, []
1630343657.2691, 97, 0, 4262.564, 3823.59, 4091.282, 4022.051, 4210.256, 450, 0, []
1630343657.277, 98, 0, 4238.974, 3783.59, 4067.692, 4005.641, 4180, 450, 0, []
1630343657.2848, 99, 0, 4243.077, 3758.462, 4114.359, 4007.179, 4172.308, 16205, 0, []
1630343657.2926, 100, 0, 4245.641, 3763.59, 4100.513, 4024.103, 4171.795, 450, 0, []
1630343657.3004, 101, 0, 4208.718, 3803.077, 4063.077, 4004.103, 4132.821, 450, 0, []
1630343657.3083, 102, 0, 4149.231, 3830.256, 4049.231, 3955.385, 4078.974, 450, 0, []
1630343657.3161, 103, 0, 4110.256, 3880, 4032.821, 3933.333, 4049.231, 16205, 0, []
1630343657.324, 104, 0, 4088.205, 3951.795, 4065.128, 3932.308, 4029.744, 450, 0, []
1630343657.3317, 105, 0, 4050.256, 3957.436, 4043.59, 3903.59, 3996.923, 450, 0, []
1630343657.3396, 106, 0, 4007.179, 3927.692, 4043.077, 3867.179, 3955.897, 450, 0, []
1630343657.3474, 107, 0, 3996.41, 3948.718, 4063.59, 3867.692, 3938.462, 16205, 0, []
1630343657.3553, 108, 0, 4001.026, 3966.154, 4025.641, 3885.128, 3938.974, 450, 0, []
1630343657.3631, 109, 0, 3989.231, 3975.385, 4050.256, 3878.974, 3913.846, 450, 0, []
1630343657.3709, 110, 0, 3970.256, 3994.872, 4041.026, 3864.615, 3892.308, 450, 0, []
1630343657.3787, 111, 0, 3941.538, 3946.154, 4017.949, 3858.974, 3885.641, 16205, 0, []
1630343657.3865, 112, 0, 3925.128, 3819.487, 4040, 3848.718, 3865.128, 450, 0, []
1630343657.3944, 113, 0, 3926.154, 3720, 4011.795, 3820, 3834.872, 450, 0, []
1630343657.4022, 114, 0, 3901.026, 3695.897, 4023.077, 3785.641, 3808.718, 450, 0, []
1630343657.4101, 115, 0, 3888.205, 3708.718, 4037.436, 3785.128, 3806.154, 16205, 0, []
1630343657.4178, 116, 0, 3926.667, 3731.282, 4048.205, 3825.641, 3835.897, 450, 0, []
1630343657.4257, 117, 0, 3953.846, 3782.051, 4065.641, 3857.949, 3858.974, 450, 0, []
1630343657.4335, 118, 0, 3937.436, 3848.718, 4025.641, 3860.513, 3845.128, 450, 0, []
1630343657.4414, 119, 0, 3927.179, 3860, 4060, 3880, 3835.897, 16205, 0, []
1630343657.4492, 120, 0, 3943.077, 3878.974, 4081.026, 3913.846, 3849.231, 450, 0, []
1630343657.457, 121, 0, 3957.436, 3943.59, 4056.923, 3930.769, 3872.308, 450, 0, []
1630343657.4648, 122, 0, 3974.359, 3935.385, 4078.462, 3955.897, 3893.846, 450, 0, []
1630343657.4727, 123, 0, 3989.231, 3867.692, 4057.949, 3977.949, 3886.667, 16205, 0, []
1630343657.4805, 124, 0, 3984.103, 3858.462, 4072.821, 3981.538, 3863.077, 450, 0, []
1630343657.4884, 125, 0, 3971.282, 3947.179, 4072.821, 3979.487, 3844.103, 450, 0, []
1630343657.4961, 126, 0, 3969.231, 4025.641, 4043.59, 3986.667, 3839.487, 450, 0, []
1630343657.5041, 127, 0, 3971.282, 3974.872, 4075.897, 3995.897, 3838.462, 16205, 0, []
1630343657.512, 128, 0, 3953.846, 3871.795, 4058.462, 3972.821, 3816.41, 450, 0, []
1630343657.5199, 0, 0, 3931.795, 3877.436, 4066.154, 3945.128, 3784.615, 450, 0, []
1630343657.5277, 1, 0, 3927.179, 3947.179, 4075.897, 3945.128, 3779.487, 450, 0, []
1630343657.5356, 2, 0, 3938.462, 3964.615, 4053.333, 3965.128, 3806.667, 16179, 0, []
1630343657.5435, 3, 0, 3947.692, 3971.795, 4084.615, 3983.077, 3821.026, 450, 0, []
1630343657.5513, 4, 0, 3936.923, 3986.154, 4050.769, 3971.795, 3806.154, 16128, 0, []
1630343657.5592, 5, 0, 3909.231, 3987.179, 4041.026, 3956.41, 3775.897, 450, 0, []
1630343657.567, 6, 0, 3883.59, 3950.256, 4069.744, 3959.487, 3750.769, 16335, 0, []
1630343657.5748, 7, 0, 3875.897, 3894.872, 4052.821, 3971.282, 3747.692, 450, 0, []
1630343657.5826, 8, 0, 3876.41, 3908.205, 4069.231, 3982.564, 3748.718, 450, 0, []
1630343657.5905, 9, 0, 3875.385, 3946.667, 4052.821, 3987.692, 3748.205, 16120, 0, []
1630343657.5983, 10, 0, 3878.974, 3940.513, 4057.949, 3983.077, 3749.231, 450, 0, []
1630343657.6062, 11, 0, 3872.821, 3951.282, 4070.769, 3963.077, 3745.641, 16217, 0, []
1630343657.6139, 12, 0, 3869.744, 3987.179, 4036.41, 3962.564, 3748.205, 450, 0, []
1630343657.6218, 13, 0, 3881.026, 3982.051, 4068.718, 3989.744, 3763.077, 450, 0, []
1630343657.6296, 14, 0, 3887.692, 3971.795, 4064.103, 3997.436, 3772.308, 450, 0, []
1630343657.6375, 15, 0, 3878.974, 3981.026, 4052.308, 3984.103, 3763.59, 16217, 0, []
1630343657.6453, 16, 0, 3862.564, 3965.128, 4069.231, 3979.487, 3750.256, 0, 0, []
1630343657.6531, 17, 0, 3846.154, 3967.179, 4028.718, 3966.667, 3735.385, 0, 0, []
1630343657.6609, 18, 0, 3827.692, 4004.615, 4037.436, 3948.205, 3715.897, 0, 0, []
1630343657.6688, 19, 0, 3799.487, 3989.744, 4026.154, 3933.846, 3694.359, 0, 0, []
1630343657.6766, 20, 0, 3768.718, 3920, 4010.256, 3914.359, 3664.615, 0, 0, []
1630343657.6846, 21, 0, 3747.179, 3879.487, 4045.641, 3903.077, 3636.41, 0, 0, []
1630343657.6925, 22, 0, 3736.923, 3919.487, 4022.564, 3898.974, 3627.179, 0, 0, []
1630343657.7004, 23, 0, 3737.949, 3967.179, 4031.282, 3890.769, 3633.846, 0, 0, []
1630343657.7083, 24, 0, 3734.872, 3924.615, 4033.846, 3875.897, 3637.436, 0, 0, []
1630343657.7161, 25, 0, 3723.59, 3889.231, 4025.128, 3872.821, 3636.923, 0, 0, []
1630343657.724, 26, 0, 3726.154, 3920.513, 4050.256, 3876.923, 3633.846, 0, 0, []
1630343657.7318, 27, 0, 3746.154, 3906.154, 4012.821, 3871.795, 3633.846, 0, 0, []
1630343657.7396, 28, 0, 3768.718, 3870.769, 4027.179, 3875.897, 3650.256, 0, 0, []
1630343657.7474, 29, 0, 3784.615, 3911.795, 4030.256, 3874.872, 3660.513, 0, 0, []
1630343657.7553, 30, 0, 3798.462, 3978.974, 3993.333, 3859.487, 3652.308, 0, 0, []
1630343657.7631, 31, 0, 3818.462, 3997.949, 4028.718, 3851.282, 3658.974, 0, 0, []
1630343657.771, 32, 0, 3841.538, 3967.179, 4016.923, 3850.256, 3678.462, 0, 0, []
1630343657.7787, 33, 0, 3863.077, 3923.59, 4011.282, 3851.795, 3690.769, 0, 0, []
1630343657.7866, 34, 0, 3890.769, 3918.974, 4025.641, 3856.923, 3707.179, 0, 0, []
1630343657.7944, 35, 0, 3920, 3923.077, 4016.923, 3859.487, 3725.641, 0, 0, []
1630343657.8023, 36, 0, 3938.462, 3902.051, 4047.179, 3854.359, 3731.795, 0, 0, []
1630343657.8101, 37, 0, 3963.077, 3915.897, 4025.128, 3843.077, 3742.564, 0, 0, []
1630343657.818, 38, 0, 3986.154, 3966.667, 4028.205, 3842.051, 3763.077, 0, 0, []
1630343657.8259, 39, 0, 3974.359, 3985.641, 4043.59, 3838.974, 3757.436, 0, 0, []
1630343657.8339, 40, 0, 3944.615, 3969.744, 4000.513, 3817.949, 3728.718, 0, 0, []
1630343657.8418, 41, 0, 3941.026, 3924.103, 4030.256, 3815.897, 3720.513, 0, 0, []
1630343657.8498, 42, 0, 3944.615, 3858.974, 4034.872, 3835.897, 3723.59, 0, 0, []
1630343657.8576, 43, 0, 3924.103, 3840.513, 4025.641, 3848.205, 3711.795, 0, 0, []
1630343657.8654, 44, 0, 3902.051, 3885.128, 4032.821, 3849.231, 3691.282, 0, 0, []
1630343657.8733, 45, 0, 3890.256, 3926.154, 3992.821, 3847.179, 3677.949, 0, 0, []
1630343657.8811, 46, 0, 3873.333, 3942.564, 4013.333, 3843.077, 3663.59, 0, 0, []
1630343657.889, 47, 0, 3863.59, 3944.103, 4004.103, 3830.769, 3654.872, 0, 0, []
1630343657.8967, 48, 0, 3864.103, 3954.359, 3991.282, 3829.231, 3652.821, 0, 0, []
1630343657.9046, 49, 0, 3850.256, 3985.128, 4020, 3827.692, 3644.103, 0, 0, []
1630343657.9124, 50, 0, 3844.103, 3987.692, 3997.436, 3826.154, 3656.41, 0, 0, []
1630343657.9203, 51, 0, 3871.795, 3950.256, 4026.154, 3851.282, 3695.385, 0, 0, []
1630343657.9281, 52, 0, 3886.667, 3936.41, 4026.667, 3865.641, 3712.821, 0, 0, []
1630343657.9359, 53, 0, 3862.564, 3963.59, 4004.615, 3848.718, 3692.308, 0, 0, []
1630343657.9437, 54, 0, 3833.846, 3997.436, 4012.308, 3820, 3668.718, 0, 0, []
1630343657.9516, 55, 0, 3825.128, 4056.41, 3966.154, 3803.59, 3663.077, 0, 0, []
1630343657.9594, 56, 0, 3831.795, 4101.538, 3974.359, 3824.615, 3669.744, 0, 0, []
1630343657.9674, 57, 0, 3842.051, 4058.974, 3964.103, 3858.462, 3691.795, 0, 0, []
1630343657.9752, 58, 0, 3843.077, 3961.538, 3931.795, 3867.179, 3711.282, 0, 0, []
1630343657.9832, 59, 0, 3847.179, 3892.821, 3953.333, 3870.256, 3716.923, 0, 0, []
1630343657.9911, 60, 0, 3863.59, 3905.128, 3922.564, 3884.615, 3729.744, 0, 0, []
1630343657.9991, 61, 0, 3873.846, 3900, 3929.744, 3882.564, 3746.667, 0, 0, []
1630343658.007, 62, 0, 3886.154, 3873.333, 3950.256, 3870.769, 3762.051, 0, 0, []
1630343658.015, 63, 0, 3911.282, 3926.154, 3956.41, 3885.128, 3787.692, 0, 0, []
1630343658.0228, 64, 0, 3921.026, 3949.231, 3988.205, 3903.077, 3805.641, 450, 0, []
1630343658.0307, 65, 0, 3910.256, 3858.462, 3951.795, 3898.462, 3803.59, 450, 0, []
1630343658.0386, 66, 0, 3909.744, 3866.154, 3977.436, 3906.667, 3803.59, 16197, 0, []
1630343658.0464, 67, 0, 3919.487, 4024.615, 4011.795, 3917.436, 3815.385, 450, 0, []
1630343658.0544, 68, 0, 3920.513, 4046.667, 3974.872, 3909.231, 3821.026, 16124, 0, []
1630343658.0622, 69, 0, 3910.256, 3917.436, 3996.41, 3929.231, 3814.359, 450, 0, []
1630343658.0702, 70, 0, 3909.744, 3883.59, 3993.846, 3975.385, 3810.256, 16335, 0, []
1630343658.0781, 71, 0, 3929.231, 3956.923, 4014.872, 3999.487, 3829.744, 450, 0, []
1630343658.086, 72, 0, 3958.974, 3947.692, 4045.641, 4016.41, 3856.41, 450, 0, []
1630343658.0938, 73, 0, 3989.231, 3853.846, 4036.923, 4049.744, 3873.846, 16146, 0, []
1630343658.1016, 74, 0, 4001.026, 3837.949, 4089.744, 4070.769, 3888.718, 450, 0, []
1630343658.1094, 75, 0, 3994.359, 3882.564, 4096.923, 4064.615, 3890.256, 16196, 0, []
1630343658.1173, 76, 0, 3991.795, 3869.231, 4112.308, 4059.487, 3884.615, 450, 0, []
1630343658.1251, 77, 0, 3997.949, 3825.128, 4149.231, 4069.231, 3895.385, 450, 0, []
1630343658.133, 78, 0, 4000, 3830.256, 4129.744, 4083.59, 3902.051, 450, 0, []
1630343658.1407, 79, 0, 3997.436, 3826.667, 4158.462, 4083.59, 3895.897, 16196, 0, []
1630343658.1487, 80, 0, 4000.513, 3792.821, 4146.154, 4071.795, 3898.974, 450, 0, []
1630343658.1566, 81, 0, 4004.103, 3790.769, 4128.718, 4067.692, 3902.051, 450, 0, []
1630343658.1646, 82, 0, 3993.333, 3813.333, 4134.359, 4070.256, 3889.231, 450, 0, []
1630343658.1725, 83, 0, 3976.923, 3837.949, 4096.41, 4066.154, 3881.026, 16196, 0, []
1630343658.1804, 84, 0, 3975.385, 3836.41, 4120, 4056.41, 3886.667, 450, 0, []
1630343658.1883, 85, 0, 3987.692, 3795.897, 4106.154, 4051.282, 3893.333, 450, 0, []
1630343658.1961, 86, 0, 3996.923, 3767.179, 4094.872, 4066.667, 3893.846, 450, 0, []
1630343658.204, 87, 0, 3990.769, 3771.282, 4133.333, 4073.333, 3889.231, 16196, 0, []
1630343658.2118, 88, 0, 3970.256, 3750.256, 4074.872, 4047.179, 3878.462, 450, 0, []
1630343658.2196, 89, 0, 3961.026, 3713.846, 4053.333, 4043.59, 3875.897, 450, 0, []
1630343658.2274, 90, 0, 3978.462, 3724.103, 4067.692, 4068.205, 3889.231, 450, 0, []
1630343658.2353, 91, 0, 3998.462, 3757.436, 4081.538, 4080, 3901.026, 16196, 0, []
1630343658.2431, 92, 0, 4000, 3788.718, 4110.256, 4088.205, 3902.564, 450, 0, []
1630343658.251, 93, 0, 4008.718, 3819.487, 4072.308, 4101.538, 3915.385, 450, 0, []
1630343658.2587, 94, 0, 4032.308, 3842.051, 4086.154, 4111.795, 3933.333, 450, 0, []
1630343658.2666, 95, 0, 4039.487, 3858.974, 4092.308, 4110.256, 3935.897, 16196, 0, []
1630343658.2744, 96, 0, 4034.359, 3867.179, 4072.308, 4104.615, 3931.282, 450, 0, []
1630343658.2823, 97, 0, 4040, 3854.872, 4118.974, 4103.077, 3921.026, 450, 0, []
1630343658.2901, 98, 0, 4044.615, 3845.128, 4112.821, 4107.179, 3925.128, 450, 0, []
1630343658.298, 99, 0, 4057.436, 3860, 4123.077, 4127.179, 3954.359, 16196, 0, []
1630343658.3059, 100, 0, 4077.949, 3867.179, 4126.154, 4142.564, 3968.205, 450, 0, []
1630343658.3139, 101, 0, 4070.256, 3861.538, 4092.308, 4138.974, 3955.897, 450, 0, []
1630343658.3218, 102, 0, 4054.872, 3893.333, 4122.051, 4135.897, 3950.256, 450, 0, []
1630343658.3298, 103, 0, 4077.949, 3955.897, 4109.744, 4141.538, 3966.154, 16196, 0, []
1630343658.3377, 104, 0, 4107.179, 3972.821, 4119.487, 4148.718, 3983.59, 450, 0, []
1630343658.3456, 105, 0, 4095.385, 3947.179, 4127.692, 4142.564, 3984.103, 450, 0, []
1630343658.3535, 106, 0, 4069.744, 3925.641, 4079.487, 4137.436, 3971.282, 450, 0, []
1630343658.3613, 107, 0, 4073.333, 3901.026, 4105.641, 4146.667, 3962.051, 16196, 0, []
1630343658.3692, 108, 0, 4090.769, 3891.282, 4096.41, 4143.59, 3975.385, 450, 0, []
1630343658.377, 109, 0, 4085.641, 3915.897, 4084.103, 4144.103, 3987.692, 450, 0, []
1630343658.3848, 110, 0, 4077.436, 3938.462, 4100, 4162.051, 3979.487, 450, 0, []
1630343658.3926, 111, 0, 4084.103, 3947.692, 4073.333, 4152.821, 3972.308, 16196, 0, []
1630343658.4005, 112, 0, 4071.282, 3976.923, 4090.256, 4121.026, 3967.179, 450, 0, []
1630343658.4083, 113, 0, 4052.821, 3994.359, 4077.436, 4115.385, 3958.974, 450, 0, []
1630343658.4162, 114, 0, 4051.795, 3935.897, 4083.077, 4125.641, 3952.308, 450, 0, []
1630343658.4239, 115, 0, 4037.436, 3889.744, 4101.026, 4120.513, 3947.692, 16196, 0, []
1630343658.4319, 116, 0, 4027.179, 3944.615, 4056.41, 4118.974, 3945.641, 450, 0, []
1630343658.4398, 117, 0, 4049.744, 3994.872, 4086.154, 4128.205, 3954.872, 450, 0, []
1630343658.4477, 118, 0, 4078.462, 4003.59, 4086.154, 4138.974, 3988.718, 450, 0, []
1630343658.4555, 119, 0, 4098.462, 4016.41, 4070.769, 4158.974, 4023.077, 16196, 0, []
1630343658.4634, 120, 0, 4087.692, 3976.923, 4091.282, 4153.846, 4008.718, 450, 0, []
1630343658.4713, 121, 0, 4026.154, 3913.846, 4049.231, 4105.128, 3948.205, 450, 0, []
1630343658.4793, 122, 0, 3970.256, 3919.487, 4060.513, 4056.923, 3901.026, 450, 0, []
1630343658.4872, 123, 0, 3948.205, 3907.179, 4052.308, 4024.103, 3871.795, 16196, 0, []
1630343658.4952, 124, 0, 3914.872, 3819.487, 4033.846, 3991.282, 3829.231, 450, 0, []
1630343658.503, 125, 0, 3870.769, 3809.231, 4063.59, 3962.051, 3789.231, 450, 0, []
1630343658.5108, 126, 0, 3849.231, 3856.41, 4033.333, 3938.462, 3771.795, 450, 0, []
1630343658.5187, 127, 0, 3838.974, 3808.205, 4048.205, 3921.538, 3767.692, 16196, 0, []
1630343658.5265, 128, 0, 3840, 3715.385, 4055.385, 3920.513, 3778.974, 450, 0, []
1630343658.5344, 0, 0, 3853.333, 3681.026, 4041.026, 3925.128, 3794.359, 450, 0, []
1630343658.5421, 1, 0, 3860, 3707.179, 4070.256, 3921.538, 3800, 450, 0, []
1630343658.55, 2, 0, 3860.513, 3737.436, 4041.026, 3917.436, 3801.538, 16196, 0, []
1630343658.5578, 3, 0, 3860, 3725.128, 4051.795, 3921.026, 3798.462, 450, 0, []
1630343658.5657, 4, 0, 3856.41, 3673.333, 4055.385, 3925.641, 3796.41, 16136, 0, []
1630343658.5735, 5, 0, 3856.41, 3677.949, 4026.667, 3934.359, 3801.026, 450, 0, []
1630343658.5813, 6, 0, 3870.256, 3752.821, 4061.538, 3950.256, 3808.718, 16373, 0, []
1630343658.5891, 7, 0, 3897.949, 3784.615, 4046.154, 3965.128, 3826.154, 450, 0, []
1630343658.597, 8, 0, 3916.923, 3794.359, 4060.513, 3983.59, 3846.667, 450, 0, []
1630343658.6048, 9, 0, 3927.692, 3826.667, 4087.179, 4005.128, 3869.231, 16119, 0, []
1630343658.6128, 10, 0, 3940.513, 3857.436, 4080, 4014.872, 3888.205, 450, 0, []
1630343658.6206, 11, 0, 3949.231, 3910.256, 4120, 4017.436, 3898.462, 16215, 0, []
1630343658.6286, 12, 0, 3945.641, 3949.744, 4109.744, 4023.077, 3900, 450, 0, []
1630343658.6365, 13, 0, 3937.436, 3898.462, 4119.487, 4030.769, 3891.282, 450, 0, []
1630343658.6445, 14, 0, 3944.615, 3852.308, 4129.231, 4033.333, 3898.462, 450, 0, []
1630343658.6524, 15, 0, 3985.128, 3905.641, 4098.974, 4043.59, 3946.154, 16215, 0, []
1630343658.6603, 16, 0, 4033.846, 3960.513, 4136.923, 4070.256, 3995.897, 0, 0, []
1630343658.6682, 17, 0, 4045.641, 3970.256, 4111.795, 4067.692, 4003.077, 0, 0, []
1630343658.676, 18, 0, 4025.641, 4006.154, 4094.359, 4036.923, 3992.821, 0, 0, []
1630343658.6839, 19, 0, 4029.231, 4060, 4124.103, 4044.103, 3995.897, 0, 0, []
1630343658.6917, 20, 0, 4066.154, 4121.026, 4109.231, 4090.256, 4024.103, 0, 0, []
1630343658.6996, 21, 0, 4096.923, 4153.333, 4143.077, 4128.718, 4073.846, 0, 0, []
1630343658.7073, 22, 0, 4107.692, 4096.923, 4129.744, 4140, 4099.487, 0, 0, []
1630343658.7152, 23, 0, 4121.538, 4070.256, 4114.872, 4152.821, 4097.436, 0, 0, []
1630343658.723, 24, 0, 4146.154, 4148.718, 4155.385, 4171.282, 4109.231, 0, 0, []
1630343658.7309, 25, 0, 4161.538, 4184.103, 4118.974, 4164.103, 4131.795, 0, 0, []
1630343658.7387, 26, 0, 4166.154, 4156.923, 4106.667, 4150.256, 4138.974, 0, 0, []
1630343658.7465, 27, 0, 4181.026, 4185.641, 4104.615, 4161.538, 4142.051, 0, 0, []
1630343658.7543, 28, 0, 4209.231, 4233.333, 4103.59, 4188.205, 4156.923, 0, 0, []
1630343658.7623, 29, 0, 4226.667, 4229.231, 4130.256, 4194.359, 4167.179, 0, 0, []
1630343658.7702, 30, 0, 4226.667, 4227.179, 4096.41, 4180.513, 4170.769, 0, 0, []
1630343658.7782, 31, 0, 4234.359, 4243.077, 4114.359, 4185.641, 4193.333, 0, 0, []
1630343658.786, 32, 0, 4256.923, 4243.59, 4129.231, 4207.179, 4220, 0, 0, []
1630343658.794, 33, 0, 4276.41, 4220.513, 4089.744, 4215.897, 4226.667, 0, 0, []
1630343658.8019, 34, 0, 4278.462, 4187.692, 4109.744, 4213.846, 4217.949, 0, 0, []
1630343658.8099, 35, 0, 4281.026, 4174.872, 4114.872, 4216.41, 4218.462, 0, 0, []
1630343658.8178, 36, 0, 4316.41, 4218.974, 4129.744, 4236.923, 4251.795, 0, 0, []
1630343658.8257, 37, 0, 4358.462, 4293.846, 4146.154, 4264.103, 4288.205, 0, 0, []
1630343658.8336, 38, 0, 4367.692, 4312.308, 4140, 4281.538, 4293.333, 0, 0, []
1630343658.8414, 39, 0, 4365.641, 4277.949, 4169.744, 4298.974, 4296.923, 0, 0, []
1630343658.8493, 40, 0, 4383.59, 4270.256, 4149.231, 4315.897, 4327.179, 0, 0, []
1630343658.8571, 41, 0, 4413.333, 4309.744, 4146.154, 4320, 4356.923, 0, 0, []
1630343658.8649, 42, 0, 4436.41, 4323.077, 4152.308, 4314.359, 4370.769, 0, 0, []
1630343658.8727, 43, 0, 4453.846, 4270.256, 4115.897, 4321.026, 4396.923, 0, 0, []
1630343658.8806, 44, 0, 4484.615, 4237.949, 4132.308, 4346.154, 4447.179, 0, 0, []
1630343658.8884, 45, 0, 4527.692, 4268.718, 4102.051, 4373.846, 4505.641, 0, 0, []
1630343658.8964, 46, 0, 4567.179, 4286.154, 4086.154, 4405.128, 4555.897, 0, 0, []
1630343658.9042, 47, 0, 4593.846, 4269.744, 4113.846, 4426.154, 4594.872, 0, 0, []
1630343658.9122, 48, 0, 4617.949, 4296.41, 4100, 4433.333, 4643.59, 0, 0, []
1630343658.9201, 49, 0, 4654.359, 4347.179, 4133.846, 4441.538, 4701.026, 0, 0, []
1630343658.9281, 50, 0, 4689.231, 4336.923, 4121.538, 4451.795, 4727.179, 0, 0, []
1630343658.936, 51, 0, 4711.795, 4329.231, 4114.872, 4464.615, 4749.231, 0, 0, []
1630343658.9439, 52, 0, 4742.564, 4400, 4163.59, 4486.667, 4808.718, 0, 0, []
1630343658.9518, 53, 0, 4767.692, 4451.795, 4156.41, 4509.231, 4847.179, 0, 0, []
1630343658.9598, 54, 0, 4756.41, 4446.667, 4178.974, 4508.205, 4833.333, 0, 0, []
1630343658.9677, 55, 0, 4751.795, 4457.436, 4175.385, 4493.333, 4839.487, 0, 0, []
1630343658.9757, 56, 0, 4768.205, 4456.923, 4164.103, 4494.872, 4869.231, 0, 0, []
1630343658.9835, 57, 0, 4758.974, 4427.179, 4169.744, 4501.026, 4867.692, 0, 0, []
1630343658.9913, 58, 0, 4747.179, 4448.205, 4121.026, 4501.026, 4857.436, 0, 0, []
1630343658.9992, 59, 0, 4755.385, 4445.641, 4139.487, 4512.308, 4870.256, 0, 0, []
1630343659.007, 60, 0, 4748.718, 4356.41, 4141.538, 4523.077, 4886.667, 0, 0, []
1630343659.0149, 61, 0, 4730.256, 4333.846, 4121.538, 4508.718, 4872.821, 0, 0, []
1630343659.0226, 62, 0, 4721.026, 4356.41, 4149.231, 4502.051, 4849.744, 0, 0, []
1630343659.0305, 63, 0, 4697.436, 4292.308, 4116.41, 4501.538, 4846.667, 0, 0, []
1630343659.0384, 64, 0, 4670.769, 4273.846, 4124.615, 4472.308, 4831.282, 450, 0, []
1630343659.0464, 65, 0, 4668.205, 4360.513, 4131.282, 4455.385, 4801.538, 450, 0, []
1630343659.0542, 66, 0, 4645.641, 4335.385, 4104.615, 4468.205, 4785.128, 16186, 0, []
1630343659.0622, 67, 0, 4595.385, 4278.974, 4129.744, 4462.051, 4762.564, 450, 0, []
1630343659.07, 68, 0, 4585.641, 4409.744, 4109.744, 4437.436, 4743.077, 16132, 0, []
1630343659.078, 69, 0, 4603.59, 4489.231, 4110.769, 4437.436, 4738.974, 450, 0, []
1630343659.0859, 70, 0, 4575.385, 4368.205, 4097.949, 4426.667, 4713.333, 16334, 0, []
1630343659.0939, 71, 0, 4534.359, 4287.692, 4063.077, 4389.231, 4675.897, 450, 0, []
1630343659.1018, 72, 0, 4533.846, 4261.538, 4101.026, 4380.513, 4670.769, 450, 0, []
1630343659.1097, 73, 0, 4537.436, 4143.077, 4076.923, 4377.436, 4677.436, 16123, 0, []
1630343659.1176, 74, 0, 4515.897, 4077.949, 4072.821, 4355.897, 4662.051, 450, 0, []
1630343659.1256, 75, 0, 4493.846, 4156.923, 4095.897, 4352.308, 4629.744, 16178, 0, []
1630343659.1335, 76, 0, 4474.872, 4195.385, 4075.897, 4356.41, 4588.718, 450, 0, []
1630343659.1413, 77, 0, 4450.256, 4141.026, 4110.256, 4350.769, 4552.308, 450, 0, []
1630343659.1491, 78, 0, 4432.308, 4156.41, 4089.744, 4337.436, 4530.769, 450, 0, []
1630343659.1569, 79, 0, 4411.795, 4236.41, 4064.103, 4322.051, 4505.641, 16178, 0, []
1630343659.1648, 80, 0, 4385.641, 4202.564, 4081.026, 4313.333, 4480, 450, 0, []
1630343659.1726, 81, 0, 4359.487, 4082.051, 4079.487, 4304.103, 4459.487, 450, 0, []
1630343659.1805, 82, 0, 4345.641, 4057.436, 4113.846, 4300.513, 4447.692, 450, 0, []
1630343659.1882, 83, 0, 4342.564, 4108.718, 4085.641, 4297.949, 4450.256, 16178, 0, []
1630343659.1961, 84, 0, 4321.026, 4077.949, 4067.179, 4276.923, 4433.846, 450, 0, []
1630343659.2039, 85, 0, 4289.744, 4058.974, 4091.282, 4261.026, 4399.487, 450, 0, []
1630343659.2118, 86, 0, 4276.923, 4194.872, 4064.615, 4275.897, 4381.538, 450, 0, []
1630343659.2196, 87, 0, 4269.231, 4311.282, 4089.744, 4280, 4362.051, 16178, 0, []
1630343659.2275, 88, 0, 4256.41, 4248.205, 4082.051, 4245.641, 4320.513, 450, 0, []
1630343659.2354, 89, 0, 4246.154, 4174.359, 4067.692, 4223.077, 4286.667, 450, 0, []
1630343659.2434, 90, 0, 4221.026, 4238.462, 4095.897, 4216.923, 4264.103, 450, 0, []
1630343659.2513, 91, 0, 4183.077, 4307.179, 4065.641, 4188.718, 4235.897, 16178, 0, []
1630343659.2593, 92, 0, 4173.333, 4307.179, 4077.949, 4177.949, 4225.641, 450, 0, []
1630343659.2671, 93, 0, 4190.769, 4255.897, 4080.513, 4205.128, 4235.897, 450, 0, []
1630343659.2751, 94, 0, 4199.487, 4177.949, 4076.923, 4213.333, 4224.103, 450, 0, []
1630343659.283, 95, 0, 4178.462, 4136.923, 4099.487, 4196.923, 4189.231, 16178, 0, []
1630343659.291, 96, 0, 4138.462, 4107.179, 4062.564, 4181.026, 4164.615, 450, 0, []
1630343659.2989, 97, 0, 4112.821, 4061.026, 4086.154, 4158.974, 4148.718, 450, 0, []
1630343659.3066, 98, 0, 4116.923, 4088.205, 4094.359, 4150.769, 4133.333, 450, 0, []
1630343659.3146, 99, 0, 4124.103, 4166.154, 4076.41, 4178.974, 4132.308, 16178, 0, []
1630343659.3225, 100, 0, 4109.231, 4175.385, 4095.385, 4191.282, 4134.872, 450, 0, []
1630343659.3304, 101, 0, 4097.436, 4200, 4062.051, 4168.718, 4130.256, 450, 0, []
1630343659.3382, 102, 0, 4115.385, 4251.282, 4091.282, 4176.41, 4131.282, 450, 0, []
1630343659.346, 103, 0, 4125.641, 4207.179, 4106.154, 4189.231, 4127.692, 16178, 0, []
1630343659.3538, 104, 0, 4100, 4185.641, 4074.359, 4167.692, 4111.282, 450, 0, []
1630343659.3617, 105, 0, 4084.615, 4216.41, 4105.641, 4162.564, 4105.641, 450, 0, []
1630343659.3695, 106, 0, 4104.615, 4175.385, 4097.436, 4173.846, 4112.308, 450, 0, []
1630343659.3774, 107, 0, 4122.564, 4140, 4110.769, 4170.769, 4120, 16178, 0, []
1630343659.3852, 108, 0, 4108.205, 4152.308, 4106.667, 4160.513, 4121.026, 450, 0, []
1630343659.3931, 109, 0, 4099.487, 4166.667, 4083.077, 4162.051, 4122.051, 450, 0, []
1630343659.401, 110, 0, 4127.692, 4258.974, 4131.282, 4188.205, 4133.333, 450, 0, []
1630343659.409, 111, 0, 4142.564, 4339.487, 4101.026, 4200.513, 4141.538, 16178, 0, []
1630343659.4169, 112, 0, 4121.538, 4320, 4081.538, 4192.821, 4143.59, 450, 0, []
1630343659.4249, 113, 0, 4125.128, 4369.231, 4109.231, 4214.872, 4157.949, 450, 0, []
1630343659.4327, 114, 0, 4160.513, 4449.231, 4102.051, 4247.179, 4175.897, 450, 0, []
1630343659.4407, 115, 0, 4182.051, 4394.359, 4127.179, 4248.718, 4188.718, 16178, 0, []
1630343659.4486, 116, 0, 4194.872, 4354.359, 4108.205, 4238.462, 4208.205, 450, 0, []
1630343659.4566, 117, 0, 4206.667, 4423.59, 4104.615, 4238.462, 4221.026, 450, 0, []
1630343659.4645, 118, 0, 4203.077, 4416.923, 4117.436, 4236.41, 4219.487, 450, 0, []
1630343659.4722, 119, 0, 4205.128, 4323.59, 4095.897, 4247.179, 4227.692, 16178, 0, []
1630343659.4801, 120, 0, 4224.615, 4291.795, 4134.872, 4275.385, 4232.821, 450, 0, []
1630343659.4879, 121, 0, 4247.692, 4305.641, 4123.59, 4279.487, 4232.821, 450, 0, []
1630343659.4958, 122, 0, 4273.333, 4297.436, 4110.769, 4274.872, 4253.333, 450, 0, []
1630343659.5036, 123, 0, 4287.179, 4295.385, 4132.821, 4280.513, 4274.359, 16178, 0, []
1630343659.5114, 124, 0, 4294.872, 4311.795, 4108.205, 4277.436, 4287.179, 450, 0, []
1630343659.5192, 125, 0, 4321.538, 4304.103, 4142.564, 4291.282, 4320, 450, 0, []
1630343659.5271, 126, 0, 4324.615, 4268.205, 4123.077, 4283.59, 4332.308, 450, 0, []
1630343659.5349, 127, 0, 4281.538, 4237.949, 4071.795, 4224.615, 4287.179, 16178, 0, []
1630343659.5429, 128, 0, 4265.128, 4241.538, 4102.051, 4203.59, 4257.436, 450, 0, []
1630343659.5507, 0, 0, 4285.128, 4226.667, 4094.872, 4231.795, 4267.692, 450, 0, []
1630343659.5587, 1, 0, 4270.769, 4148.205, 4098.974, 4230.256, 4249.744, 450, 0, []
1630343659.5666, 2, 0, 4241.026, 4132.308, 4098.462, 4203.59, 4210.769, 16189, 0, []
1630343659.5746, 3, 0, 4238.462, 4221.538, 4095.897, 4197.949, 4208.718, 450, 0, []
1630343659.5825, 4, 0, 4243.077, 4263.077, 4120, 4202.051, 4235.385, 16146, 0, []
1630343659.5904, 5, 0, 4255.897, 4243.59, 4103.59, 4202.564, 4258.462, 450, 0, []
1630343659.5983, 6, 0, 4291.795, 4268.205, 4126.154, 4223.077, 4280.513, 16331, 0, []
1630343659.6061, 7, 0, 4331.795, 4277.949, 4127.179, 4254.359, 4312.821, 450, 0, []
1630343659.614, 8, 0, 4366.154, 4209.744, 4117.436, 4270.769, 4344.615, 450, 0, []
1630343659.6218, 9, 0, 4400.513, 4184.103, 4155.385, 4284.615, 4371.795, 16126, 0, []
1630343659.6296, 10, 0, 4419.487, 4211.795, 4133.333, 4305.128, 4395.897, 450, 0, []
1630343659.6374, 11, 0, 4423.077, 4192.821, 4148.205, 4308.205, 4400.513, 16190, 0, []
1630343659.6453, 12, 0, 4431.795, 4152.821, 4166.154, 4291.282, 4398.462, 450, 0, []
1630343659.6531, 13, 0, 4433.846, 4121.538, 4138.462, 4277.949, 4402.051, 450, 0, []
1630343659.661, 14, 0, 4409.744, 4073.846, 4153.333, 4263.59, 4383.59, 450, 0, []
1630343659.6687, 15, 0, 4393.846, 4033.846, 4135.385, 4254.359, 4360.513, 16190, 0, []
1630343659.6766, 16, 0, 4406.667, 4050.769, 4146.154, 4263.077, 4370.769, 0, 0, []
1630343659.6844, 17, 0, 4405.128, 4093.333, 4152.308, 4247.179, 4370.769, 0, 0, []
1630343659.6923, 18, 0, 4395.897, 4088.718, 4124.615, 4229.744, 4352.821, 0, 0, []
1630343659.7001, 19, 0, 4400, 4049.744, 4168.718, 4246.667, 4349.231, 0, 0, []
1630343659.708, 20, 0, 4397.436, 4021.026, 4158.462, 4237.436, 4346.154, 0, 0, []
1630343659.7159, 21, 0, 4386.154, 3995.897, 4142.564, 4215.897, 4336.41, 0, 0, []
1630343659.7239, 22, 0, 4392.821, 3973.333, 4160.513, 4230.769, 4341.026, 0, 0, []
1630343659.7318, 23, 0, 4431.282, 3983.59, 4149.744, 4253.846, 4375.385, 0, 0, []
1630343659.7398, 24, 0, 4477.949, 4000, 4182.564, 4280, 4426.154, 0, 0, []
1630343659.7477, 25, 0, 4496.923, 3967.179, 4156.41, 4282.564, 4452.821, 0, 0, []
1630343659.7556, 26, 0, 4506.154, 3922.564, 4127.692, 4253.333, 4454.359, 0, 0, []
1630343659.7635, 27, 0, 4547.179, 3915.385, 4159.487, 4272.308, 4487.179, 0, 0, []
1630343659.7713, 28, 0, 4584.615, 3927.179, 4137.436, 4320, 4531.282, 0, 0, []
1630343659.7792, 29, 0, 4596.41, 3940.513, 4142.051, 4327.179, 4556.923, 0, 0, []
1630343659.787, 30, 0, 4634.359, 3968.718, 4153.333, 4336.923, 4606.154, 0, 0, []
1630343659.7948, 31, 0, 4693.333, 4009.231, 4154.359, 4376.923, 4658.974, 0, 0, []
1630343659.8026, 32, 0, 4708.718, 4026.154, 4153.333, 4394.359, 4667.179, 0, 0, []
1630343659.8105, 33, 0, 4682.564, 4029.231, 4110.256, 4381.538, 4659.487, 0, 0, []
1630343659.8183, 34, 0, 4679.487, 4062.051, 4140.513, 4383.59, 4668.718, 0, 0, []
1630343659.8262, 35, 0, 4701.026, 4095.897, 4158.462, 4388.205, 4673.333, 0, 0, []
1630343659.8339, 36, 0, 4700, 4107.179, 4127.179, 4392.308, 4672.821, 0, 0, []
1630343659.8418, 37, 0, 4664.103, 4130.256, 4136.41, 4387.179, 4661.026, 0, 0, []
1630343659.8496, 38, 0, 4639.487, 4148.205, 4113.846, 4355.385, 4638.462, 0, 0, []
1630343659.8576, 39, 0, 4636.41, 4109.231, 4122.564, 4340, 4626.154, 0, 0, []
1630343659.8655, 40, 0, 4610.256, 4036.923, 4138.974, 4352.821, 4610.769, 0, 0, []
1630343659.8734, 41, 0, 4570.256, 4009.231, 4121.026, 4348.718, 4582.051, 0, 0, []
1630343659.8813, 42, 0, 4549.231, 4015.385, 4137.949, 4327.692, 4554.872, 0, 0, []
1630343659.8893, 43, 0, 4545.641, 4031.282, 4126.667, 4318.462, 4560.513, 0, 0, []
1630343659.8972, 44, 0, 4537.949, 4063.077, 4138.974, 4306.667, 4567.179, 0, 0, []
1630343659.9052, 45, 0, 4544.103, 4084.615, 4160, 4292.308, 4558.462, 0, 0, []
1630343659.913, 46, 0, 4564.103, 4076.41, 4135.897, 4308.205, 4567.179, 0, 0, []
1630343659.9208, 47, 0, 4542.051, 4011.795, 4140, 4317.949, 4563.077, 0, 0, []
1630343659.9287, 48, 0, 4493.333, 3937.436, 4116.923, 4284.103, 4521.026, 0, 0, []
1630343659.9365, 49, 0, 4480.513, 3957.436, 4117.949, 4266.667, 4497.436, 0, 0, []
1630343659.9444, 50, 0, 4481.538, 3990.769, 4128.718, 4266.154, 4500, 0, 0, []
1630343659.9521, 51, 0, 4461.026, 3961.538, 4087.692, 4235.897, 4481.538, 0, 0, []
1630343659.96, 52, 0, 4460.513, 3986.667, 4115.897, 4224.103, 4481.026, 0, 0, []
1630343659.9678, 53, 0, 4481.538, 4032.308, 4127.692, 4248.718, 4516.41, 0, 0, []
1630343659.9757, 54, 0, 4483.59, 3972.821, 4115.897, 4274.872, 4532.308, 0, 0, []
1630343659.9835, 55, 0, 4475.897, 3914.359, 4130.256, 4283.59, 4523.077, 0, 0, []
1630343659.9913, 56, 0, 4468.205, 3911.282, 4093.846, 4267.692, 4507.179, 0, 0, []
1630343659.9991, 57, 0, 4456.41, 3898.462, 4101.538, 4259.487, 4495.385, 0, 0, []
1630343660.0071, 58, 0, 4445.641, 3948.718, 4101.538, 4263.077, 4492.821, 0, 0, []
1630343660.015, 59, 0, 4426.154, 4042.564, 4072.821, 4246.154, 4483.59, 0, 0, []
1630343660.0229, 60, 0, 4406.667, 4054.872, 4092.821, 4230.256, 4474.872, 0, 0, []
1630343660.0307, 61, 0, 4403.59, 4084.103, 4082.051, 4233.333, 4472.821, 0, 0, []
1630343660.0386, 62, 0, 4402.564, 4187.179, 4087.692, 4230.256, 4461.026, 0, 0, []
1630343660.0466, 63, 0, 4388.718, 4218.974, 4075.897, 4206.154, 4438.974, 0, 0, []
1630343660.0546, 64, 0, 4376.923, 4186.667, 4059.487, 4190.256, 4429.744, 450, 0, []
1630343660.0625, 65, 0, 4374.359, 4156.923, 4090.769, 4196.41, 4432.821, 450, 0, []
1630343660.0704, 66, 0, 4357.949, 4087.179, 4064.103, 4186.154, 4412.821, 16170, 0, []
1630343660.0783, 67, 0, 4348.718, 4027.692, 4069.231, 4178.974, 4391.795, 450, 0, []
1630343660.0861, 68, 0, 4376.923, 4032.821, 4075.897, 4197.436, 4410.769, 16116, 0, []
1630343660.094, 69, 0, 4388.205, 4050.769, 4064.615, 4202.051, 4420, 450, 0, []
1630343660.1018, 70, 0, 4355.897, 4082.564, 4109.744, 4175.897, 4381.026, 16311, 0, []
1630343660.1097, 71, 0, 4345.128, 4111.282, 4094.872, 4156.41, 4357.436, 450, 0, []
1630343660.1174, 72, 0, 4371.795, 4114.359, 4094.872, 4183.077, 4384.103, 450, 0, []
1630343660.1253, 73, 0, 4380, 4152.308, 4108.718, 4223.59, 4400.513, 16115, 0, []
1630343660.1331, 74, 0, 4362.564, 4179.487, 4090.769, 4238.974, 4383.077, 450, 0, []
1630343660.141, 75, 0, 4346.154, 4104.615, 4107.692, 4241.026, 4365.641, 16213, 0, []
1630343660.1488, 76, 0, 4333.333, 4031.795, 4072.308, 4228.205, 4357.436, 450, 0, []
1630343660.1566, 77, 0, 4308.718, 4052.308, 4070.769, 4193.846, 4337.949, 450, 0, []
1630343660.1644, 78, 0, 4287.692, 4083.59, 4105.641, 4171.795, 4317.436, 450, 0, []
1630343660.1724, 79, 0, 4294.872, 4076.923, 4088.718, 4174.359, 4320.513, 16213, 0, []
1630343660.1803, 80, 0, 4313.846, 4086.154, 4103.59, 4175.897, 4333.333, 450, 0, []
1630343660.1883, 81, 0, 4324.615, 4128.205, 4095.897, 4188.718, 4346.667, 450, 0, []
1630343660.1961, 82, 0, 4329.744, 4173.333, 4113.333, 4225.641, 4349.744, 450, 0, []
1630343660.2041, 83, 0, 4329.744, 4240.513, 4139.487, 4241.538, 4336.923, 16213, 0, []
1630343660.212, 84, 0, 4316.41, 4310.256, 4103.077, 4220.513, 4323.077, 450, 0, []
1630343660.22, 85, 0, 4296.41, 4313.333, 4112.308, 4201.026, 4314.872, 450, 0, []
1630343660.2279, 86, 0, 4289.231, 4318.974, 4096.41, 4192.308, 4311.282, 450, 0, []
1630343660.2358, 87, 0, 4293.333, 4392.308, 4090.256, 4182.564, 4310.769, 16213, 0, []
1630343660.2437, 88, 0, 4280.513, 4443.59, 4108.205, 4172.308, 4303.077, 450, 0, []
1630343660.2515, 89, 0, 4247.692, 4415.897, 4091.795, 4181.026, 4282.051, 450, 0, []
1630343660.2594, 90, 0, 4233.846, 4374.872, 4130.769, 4207.179, 4269.744, 450, 0, []
1630343660.2672, 91, 0, 4251.795, 4392.821, 4111.795, 4210.256, 4273.333, 16213, 0, []
1630343660.275, 92, 0, 4262.564, 4447.179, 4092.308, 4197.436, 4278.974, 450, 0, []
1630343660.2828, 93, 0, 4247.692, 4505.128, 4111.282, 4192.308, 4274.359, 450, 0, []
1630343660.2907, 94, 0, 4248.205, 4542.564, 4078.974, 4188.718, 4275.897, 450, 0, []
1630343660.2985, 95, 0, 4279.487, 4551.282, 4111.282, 4201.538, 4310.769, 16213, 0, []
1630343660.3064, 96, 0, 4287.692, 4573.846, 4097.436, 4213.333, 4337.949, 450, 0, []
1630343660.3141, 97, 0, 4265.128, 4613.846, 4071.282, 4206.154, 4324.615, 450, 0, []
1630343660.3221, 98, 0, 4261.538, 4663.077, 4109.231, 4206.667, 4315.385, 450, 0, []
1630343660.33, 99, 0, 4271.282, 4705.641, 4091.795, 4222.564, 4331.795, 16213, 0, []
1630343660.338, 100, 0, 4264.103, 4724.615, 4120.513, 4240, 4331.282, 450, 0, []
1630343660.3459, 101, 0, 4256.923, 4711.282, 4125.128, 4241.538, 4312.308, 450, 0, []
1630343660.3538, 102, 0, 4262.564, 4671.282, 4102.051, 4217.949, 4305.641, 450, 0, []
1630343660.3617, 103, 0, 4266.667, 4598.462, 4129.744, 4196.923, 4302.564, 16213, 0, []
1630343660.3697, 104, 0, 4264.103, 4532.308, 4092.308, 4195.897, 4289.744, 450, 0, []
1630343660.3776, 105, 0, 4255.897, 4553.333, 4086.667, 4209.744, 4275.897, 450, 0, []
1630343660.3856, 106, 0, 4263.59, 4597.949, 4107.692, 4224.103, 4279.487, 450, 0, []
1630343660.3934, 107, 0, 4302.051, 4589.231, 4106.667, 4241.026, 4312.308, 16213, 0, []
1630343660.4012, 108, 0, 4326.667, 4558.974, 4134.359, 4250.769, 4336.41, 450, 0, []
1630343660.4091, 109, 0, 4317.436, 4558.462, 4115.897, 4240.513, 4330.256, 450, 0, []
1630343660.4169, 110, 0, 4307.179, 4564.103, 4129.744, 4240, 4326.154, 450, 0, []
1630343660.4248, 111, 0, 4309.231, 4565.641, 4132.308, 4255.385, 4337.436, 16213, 0, []
1630343660.4326, 112, 0, 4312.821, 4615.385, 4092.821, 4259.487, 4337.436, 450, 0, []
1630343660.4404, 113, 0, 4314.872, 4672.308, 4118.462, 4260, 4327.692, 450, 0, []
1630343660.4482, 114, 0, 4309.231, 4680, 4109.744, 4268.205, 4323.59, 450, 0, []
1630343660.4561, 115, 0, 4301.026, 4696.923, 4112.821, 4267.692, 4312.821, 16213, 0, []
1630343660.4639, 116, 0, 4309.231, 4740, 4132.821, 4256.923, 4308.718, 450, 0, []
1630343660.4719, 117, 0, 4320.513, 4760.513, 4116.923, 4255.897, 4317.436, 450, 0, []
1630343660.4797, 118, 0, 4327.179, 4781.026, 4134.872, 4265.128, 4321.538, 450, 0, []
1630343660.4877, 119, 0, 4341.026, 4810.769, 4111.282, 4268.718, 4322.564, 16213, 0, []
1630343660.4956, 120, 0, 4346.667, 4810.256, 4109.744, 4276.923, 4326.667, 450, 0, []
1630343660.5036, 121, 0, 4335.897, 4774.359, 4128.718, 4284.615, 4322.051, 450, 0, []
1630343660.5115, 122, 0, 4335.897, 4754.872, 4095.385, 4272.308, 4316.923, 450, 0, []
1630343660.5194, 123, 0, 4354.359, 4769.744, 4120.513, 4267.692, 4331.282, 16213, 0, []
1630343660.5273, 124, 0, 4369.744, 4780, 4122.564, 4280.513, 4344.103, 450, 0, []
1630343660.5353, 125, 0, 4377.949, 4776.923, 4124.615, 4291.795, 4346.154, 450, 0, []
1630343660.5432, 126, 0, 4385.641, 4783.59, 4148.718, 4298.974, 4352.821, 450, 0, []
1630343660.551, 127, 0, 4385.128, 4781.026, 4103.59, 4298.462, 4355.897, 16213, 0, []
1630343660.5588, 128, 0, 4374.872, 4757.949, 4115.385, 4294.359, 4345.641, 450, 0, []
1630343660.5666, 0, 0, 4366.154, 4790.256, 4125.641, 4287.692, 4335.385, 450, 0, []
1630343660.5745, 1, 0, 4369.231, 4871.795, 4114.359, 4291.795, 4337.949, 450, 0, []
1630343660.5823, 2, 0, 4379.487, 4878.462, 4142.564, 4302.564, 4346.667, 16186, 0, []
1630343660.5902, 3, 0, 4383.59, 4838.974, 4116.41, 4297.436, 4347.692, 450, 0, []
1630343660.5979, 4, 0, 4389.231, 4848.205, 4124.103, 4298.462, 4348.718, 16134, 0, []
1630343660.6058, 5, 0, 4401.026, 4810.256, 4133.846, 4316.41, 4360, 450, 0, []
1630343660.6136, 6, 0, 4414.359, 4740, 4123.59, 4327.692, 4377.949, 16326, 0, []
1630343660.6215, 7, 0, 4437.949, 4822.564, 4155.897, 4335.897, 4398.974, 450, 0, []
1630343660.6293, 8, 0, 4460.513, 4978.462, 4138.974, 4341.026, 4414.872, 450, 0, []
1630343660.6372, 9, 0, 4462.564, 5035.897, 4148.205, 4343.077, 4416.41, 16119, 0, []
1630343660.6451, 10, 0, 4442.564, 5040.513, 4156.41, 4346.667, 4401.538, 450, 0, []
1630343660.6531, 11, 0, 4417.436, 5024.615, 4129.744, 4352.308, 4377.949, 16185, 0, []
1630343660.661, 12, 0, 4403.59, 4982.051, 4146.667, 4347.692, 4358.462, 450, 0, []
1630343660.669, 13, 0, 4398.462, 4993.333, 4125.128, 4330.769, 4353.333, 450, 0, []
1630343660.6768, 14, 0, 4392.821, 5011.282, 4131.795, 4329.744, 4358.974, 450, 0, []
1630343660.6848, 15, 0, 4384.103, 4948.718, 4143.077, 4327.692, 4349.231, 16185, 0, []
1630343660.6927, 16, 0, 4372.821, 4900.513, 4121.538, 4294.872, 4328.718, 0, 0, []
1630343660.7007, 17, 0, 4359.487, 4913.333, 4142.564, 4264.103, 4317.949, 0, 0, []
1630343660.7086, 18, 0, 4361.538, 4916.923, 4121.026, 4269.744, 4324.103, 0, 0, []
1630343660.7163, 19, 0, 4380, 4912.821, 4131.282, 4295.897, 4334.359, 0, 0, []
1630343660.7242, 20, 0, 4389.744, 4909.231, 4143.59, 4302.564, 4337.436, 0, 0, []
1630343660.732, 21, 0, 4396.923, 4865.128, 4114.359, 4307.179, 4348.718, 0, 0, []
1630343660.7399, 22, 0, 4402.051, 4830.256, 4151.282, 4320, 4357.436, 0, 0, []
1630343660.7477, 23, 0, 4384.615, 4826.154, 4126.667, 4310.256, 4343.59, 0, 0, []
1630343660.7555, 24, 0, 4356.41, 4809.231, 4100.513, 4291.795, 4322.564, 0, 0, []
1630343660.7633, 25, 0, 4339.487, 4820, 4122.051, 4278.974, 4311.795, 0, 0, []
1630343660.7713, 26, 0, 4329.231, 4869.744, 4111.282, 4255.897, 4298.974, 0, 0, []
1630343660.7792, 27, 0, 4317.436, 4869.744, 4130.769, 4229.231, 4273.846, 0, 0, []
1630343660.7872, 28, 0, 4304.103, 4812.821, 4104.103, 4209.231, 4255.897, 0, 0, []
1630343660.7951, 29, 0, 4297.949, 4778.462, 4102.564, 4213.846, 4255.897, 0, 0, []
1630343660.803, 30, 0, 4304.103, 4792.308, 4137.949, 4247.179, 4262.564, 0, 0, []
1630343660.8109, 31, 0, 4308.718, 4788.205, 4097.436, 4262.051, 4258.974, 0, 0, []
1630343660.8189, 32, 0, 4305.128, 4740.513, 4111.282, 4248.205, 4253.846, 0, 0, []
1630343660.8268, 33, 0, 4305.641, 4780.513, 4120.513, 4246.667, 4261.026, 0, 0, []
1630343660.8348, 34, 0, 4300, 4892.308, 4104.103, 4246.154, 4249.231, 0, 0, []
1630343660.8426, 35, 0, 4277.949, 4840.513, 4121.538, 4226.667, 4211.282, 0, 0, []
1630343660.8505, 36, 0, 4260, 4670.769, 4104.103, 4216.41, 4193.333, 0, 0, []
1630343660.8584, 37, 0, 4249.231, 4634.872, 4127.692, 4233.333, 4198.462, 0, 0, []
1630343660.8662, 38, 0, 4242.051, 4688.205, 4129.744, 4242.051, 4202.051, 0, 0, []
1630343660.8741, 39, 0, 4241.026, 4666.667, 4109.744, 4227.179, 4207.179, 0, 0, []
1630343660.8818, 40, 0, 4236.923, 4628.718, 4133.846, 4217.949, 4209.231, 0, 0, []
1630343660.8897, 41, 0, 4228.718, 4676.923, 4115.897, 4203.59, 4197.949, 0, 0, []
1630343660.8975, 42, 0, 4233.333, 4721.538, 4131.795, 4181.538, 4185.128, 0, 0, []
1630343660.9054, 43, 0, 4253.846, 4672.821, 4143.59, 4175.385, 4186.154, 0, 0, []
1630343660.9132, 44, 0, 4264.615, 4609.744, 4124.103, 4181.538, 4192.308, 0, 0, []
1630343660.921, 45, 0, 4249.744, 4604.103, 4137.949, 4182.051, 4189.231, 0, 0, []
1630343660.9288, 46, 0, 4226.154, 4597.949, 4114.872, 4170.769, 4177.436, 0, 0, []
1630343660.9368, 47, 0, 4210.256, 4604.103, 4132.308, 4164.615, 4166.667, 0, 0, []
1630343660.9447, 48, 0, 4199.487, 4656.41, 4144.615, 4173.846, 4164.103, 0, 0, []
1630343660.9527, 49, 0, 4204.615, 4625.641, 4113.846, 4189.744, 4171.282, 0, 0, []
1630343660.9605, 50, 0, 4217.949, 4492.308, 4145.128, 4196.41, 4169.744, 0, 0, []
1630343660.9685, 51, 0, 4214.359, 4460.513, 4135.897, 4176.41, 4143.077, 0, 0, []
1630343660.9764, 52, 0, 4204.615, 4533.333, 4131.795, 4156.923, 4129.744, 0, 0, []
1630343660.9844, 53, 0, 4204.615, 4501.538, 4137.436, 4163.077, 4147.179, 0, 0, []
1630343660.9923, 54, 0, 4199.487, 4373.846, 4104.615, 4172.308, 4150.256, 0, 0, []
1630343661.0002, 55, 0, 4195.897, 4320.513, 4131.282, 4173.846, 4135.385, 0, 0, []
1630343661.0081, 56, 0, 4205.128, 4320, 4122.564, 4177.949, 4137.436, 0, 0, []
1630343661.0159, 57, 0, 4202.564, 4281.026, 4112.821, 4182.051, 4140, 0, 0, []
1630343661.0238, 58, 0, 4181.538, 4213.846, 4124.615, 4163.59, 4132.821, 0, 0, []
1630343661.0317, 59, 0, 4170.769, 4182.564, 4101.538, 4144.615, 4133.846, 0, 0, []
1630343661.0395, 60, 0, 4177.436, 4189.231, 4137.949, 4161.538, 4133.333, 0, 0, []
1630343661.0474, 61, 0, 4182.564, 4170.769, 4130.256, 4171.282, 4115.897, 0, 0, []
1630343661.0554, 62, 0, 4183.59, 4126.667, 4107.692, 4155.385, 4114.359, 0, 0, []
1630343661.0632, 63, 0, 4186.154, 4102.051, 4129.231, 4152.308, 4140.513, 0, 0, []
1630343661.0712, 64, 0, 4187.692, 4107.692, 4110.769, 4162.051, 4158.462, 450, 0, []
1630343661.079, 65, 0, 4187.692, 4096.923, 4128.718, 4172.821, 4156.41, 450, 0, []
1630343661.0869, 66, 0, 4189.231, 4060.513, 4119.487, 4171.282, 4149.231, 16187, 0, []
1630343661.0947, 67, 0, 4191.282, 4070.256, 4101.026, 4155.385, 4147.179, 450, 0, []
1630343661.1027, 68, 0, 4184.103, 4134.359, 4119.487, 4145.128, 4154.359, 16126, 0, []
1630343661.1106, 69, 0, 4173.333, 4208.718, 4101.026, 4162.564, 4164.103, 450, 0, []
1630343661.1185, 70, 0, 4168.718, 4242.564, 4129.231, 4188.718, 4149.231, 16327, 0, []
1630343661.1264, 71, 0, 4152.308, 4211.282, 4126.154, 4176.41, 4110.769, 450, 0, []
1630343661.1344, 72, 0, 4118.462, 4143.59, 4095.385, 4149.744, 4087.179, 450, 0, []
1630343661.1423, 73, 0, 4096.41, 4111.795, 4121.026, 4162.051, 4081.026, 16111, 0, []
1630343661.1503, 74, 0, 4090.769, 4130.256, 4110.256, 4175.385, 4056.923, 450, 0, []
1630343661.1582, 75, 0, 4079.487, 4128.205, 4125.128, 4161.538, 4024.103, 16207, 0, []
1630343661.1659, 76, 0, 4060, 4083.077, 4121.026, 4160, 4016.923, 450, 0, []
1630343661.1738, 77, 0, 4050.256, 4029.231, 4100, 4178.462, 4013.333, 450, 0, []
1630343661.1816, 78, 0, 4050.769, 4028.718, 4142.051, 4188.718, 3987.692, 450, 0, []
1630343661.1895, 79, 0, 4049.231, 4081.026, 4126.667, 4171.795, 3977.949, 16207, 0, []
1630343661.1973, 80, 0, 4052.308, 4069.231, 4128.718, 4165.641, 3996.41, 450, 0, []
1630343661.2051, 81, 0, 4061.026, 3993.846, 4146.154, 4180.513, 3992.308, 450, 0, []
1630343661.2129, 82, 0, 4052.821, 3950.256, 4122.051, 4171.282, 3971.795, 450, 0, []
1630343661.2208, 83, 0, 4032.308, 3960, 4131.795, 4160.513, 3969.744, 16207, 0, []
1630343661.2286, 84, 0, 4031.795, 4008.205, 4114.359, 4182.051, 3966.154, 450, 0, []
1630343661.2366, 85, 0, 4048.205, 4076.41, 4132.821, 4196.923, 3962.051, 450, 0, []
1630343661.2444, 86, 0, 4049.231, 4156.41, 4153.333, 4188.205, 3971.795, 450, 0, []
1630343661.2524, 87, 0, 4041.026, 4216.41, 4128.718, 4187.692, 3967.179, 16207, 0, []
1630343661.2603, 88, 0, 4043.077, 4224.103, 4156.923, 4189.231, 3951.282, 450, 0, []
1630343661.2683, 89, 0, 4040, 4211.282, 4140, 4178.974, 3957.436, 450, 0, []
1630343661.2762, 90, 0, 4030.256, 4230.769, 4134.872, 4185.128, 3966.154, 450, 0, []
1630343661.2841, 91, 0, 4030.256, 4253.333, 4150.256, 4195.385, 3954.872, 16207, 0, []
1630343661.292, 92, 0, 4029.231, 4206.154, 4116.923, 4190.256, 3951.795, 450, 0, []
1630343661.3, 93, 0, 4036.923, 4160, 4152.308, 4198.974, 3967.692, 450, 0, []
1630343661.3079, 94, 0, 4060.513, 4179.487, 4159.487, 4209.231, 3972.308, 450, 0, []
1630343661.3159, 95, 0, 4055.897, 4192.821, 4136.923, 4197.436, 3957.949, 16207, 0, []
1630343661.3237, 96, 0, 4031.282, 4193.846, 4146.667, 4192.308, 3949.744, 450, 0, []
1630343661.3315, 97, 0, 4035.385, 4202.564, 4130.769, 4203.077, 3948.205, 450, 0, []
1630343661.3394, 98, 0, 4041.026, 4208.205, 4140.513, 4201.538, 3942.051, 450, 0, []
1630343661.3472, 99, 0, 4030.256, 4237.949, 4122.051, 4182.564, 3946.154, 16207, 0, []
1630343661.3551, 100, 0, 4039.487, 4296.41, 4129.231, 4182.051, 3955.385, 450, 0, []
1630343661.3628, 101, 0, 4052.308, 4317.949, 4168.718, 4189.231, 3954.359, 450, 0, []
1630343661.3707, 102, 0, 4049.744, 4343.59, 4126.154, 4184.615, 3966.154, 450, 0, []
1630343661.3785, 103, 0, 4054.872, 4392.308, 4131.795, 4199.487, 3978.974, 16207, 0, []
1630343661.3864, 104, 0, 4062.564, 4360.513, 4153.333, 4208.205, 3960.513, 450, 0, []
1630343661.3942, 105, 0, 4068.205, 4304.103, 4145.128, 4192.821, 3963.59, 450, 0, []
1630343661.4021, 106, 0, 4081.538, 4302.564, 4158.974, 4205.641, 3996.41, 450, 0, []
1630343661.41, 107, 0, 4093.333, 4305.641, 4136.923, 4231.795, 3995.897, 16207, 0, []
1630343661.418, 108, 0, 4100, 4314.872, 4163.077, 4234.872, 3987.179, 450, 0, []
1630343661.4259, 109, 0, 4095.385, 4327.692, 4168.205, 4227.692, 4008.205, 450, 0, []
1630343661.4339, 110, 0, 4089.231, 4299.487, 4135.897, 4230.769, 4018.462, 450, 0, []
1630343661.4417, 111, 0, 4101.026, 4324.103, 4169.231, 4240.513, 4006.667, 16207, 0, []
1630343661.4497, 112, 0, 4116.923, 4424.103, 4160, 4240.513, 4013.846, 450, 0, []
1630343661.4576, 113, 0, 4109.231, 4441.538, 4151.795, 4241.026, 4027.179, 450, 0, []
1630343661.4656, 114, 0, 4101.538, 4355.385, 4142.051, 4249.231, 4028.718, 450, 0, []
1630343661.4735, 115, 0, 4123.59, 4311.795, 4120, 4260, 4031.282, 16207, 0, []
1630343661.4813, 116, 0, 4139.487, 4341.026, 4157.436, 4263.077, 4030.256, 450, 0, []
1630343661.4891, 117, 0, 4139.487, 4335.897, 4145.641, 4252.821, 4037.436, 450, 0, []
1630343661.4969, 118, 0, 4146.154, 4306.154, 4147.179, 4253.846, 4062.051, 450, 0, []
1630343661.5048, 119, 0, 4152.308, 4353.846, 4161.538, 4266.667, 4072.821, 16207, 0, []
1630343661.5126, 120, 0, 4153.846, 4426.154, 4135.385, 4266.154, 4065.641, 450, 0, []
1630343661.5205, 121, 0, 4169.231, 4409.231, 4160.513, 4263.59, 4072.821, 450, 0, []
1630343661.5282, 122, 0, 4194.359, 4378.974, 4154.872, 4270.256, 4097.949, 450, 0, []
1630343661.5361, 123, 0, 4207.179, 4476.41, 4155.897, 4273.333, 4118.462, 16207, 0, []
1630343661.5439, 124, 0, 4215.897, 4573.333, 4172.308, 4278.974, 4138.974, 450, 0, []
1630343661.5518, 125, 0, 4233.333, 4531.795, 4143.077, 4299.487, 4164.615, 450, 0, []
1630343661.5596, 126, 0, 4250.769, 4487.179, 4167.179, 4301.538, 4176.923, 450, 0, []
1630343661.5675, 127, 0, 4272.308, 4507.179, 4160, 4280.513, 4186.667, 16207, 0, []
1630343661.5754, 128, 0, 4308.205, 4490.769, 4151.795, 4291.795, 4216.41, 450, 0, []
1630343661.5834, 0, 0, 4343.077, 4445.641, 4178.974, 4323.077, 4255.385, 450, 0, []
1630343661.5913, 1, 0, 4356.923, 4433.333, 4152.821, 4313.846, 4278.462, 450, 0, []
1630343661.5993, 2, 0, 4360.513, 4420, 4167.692, 4291.282, 4289.744, 16182, 0, []
1630343661.6071, 3, 0, 4372.308, 4396.923, 4172.821, 4294.872, 4300.513, 450, 0, []
1630343661.6151, 4, 0, 4385.641, 4395.897, 4168.718, 4310.256, 4304.615, 16134, 0, []
1630343661.623, 5, 0, 4380.513, 4390.769, 4180, 4313.846, 4298.462, 450, 0, []
1630343661.6308, 6, 0, 4363.077, 4364.615, 4136.41, 4305.641, 4286.154, 16320, 0, []
1630343661.6387, 7, 0, 4354.872, 4348.205, 4152.821, 4306.154, 4278.462, 450, 0, []
1630343661.6464, 8, 0, 4356.41, 4392.308, 4165.128, 4314.872, 4285.128, 450, 0, []
1630343661.6543, 9, 0, 4353.333, 4456.923, 4148.205, 4315.897, 4296.41, 16124, 0, []
1630343661.6621, 10, 0, 4349.231, 4460, 4170.256, 4312.821, 4299.487, 450, 0, []
1630343661.67, 11, 0, 4342.051, 4437.436, 4147.179, 4311.795, 4287.179, 16188, 0, []
1630343661.6778, 12, 0, 4326.667, 4416.41, 4153.333, 4313.846, 4266.154, 450, 0, []
1630343661.6856, 13, 0, 4305.128, 4379.487, 4150.256, 4296.923, 4246.667, 450, 0, []
1630343661.6934, 14, 0, 4291.282, 4363.077, 4136.41, 4283.59, 4239.487, 450, 0, []
1630343661.7013, 15, 0, 4303.59, 4371.795, 4174.872, 4311.282, 4247.692, 16188, 0, []
1630343661.7091, 16, 0, 4318.974, 4390.256, 4150.769, 4324.615, 4249.744, 0, 0, []
1630343661.7171, 17, 0, 4306.667, 4450.769, 4149.744, 4304.615, 4233.846, 0, 0, []
1630343661.7249, 18, 0, 4293.846, 4505.641, 4166.667, 4298.462, 4223.077, 0, 0, []
1630343661.7329, 19, 0, 4292.821, 4457.436, 4149.231, 4300.513, 4213.846, 0, 0, []
1630343661.7408, 20, 0, 4280.513, 4396.41, 4166.667, 4291.795, 4192.821, 0, 0, []
1630343661.7488, 21, 0, 4261.026, 4362.564, 4145.641, 4288.205, 4182.564, 0, 0, []
1630343661.7567, 22, 0, 4243.59, 4290.769, 4151.795, 4289.231, 4182.564, 0, 0, []
1630343661.7646, 23, 0, 4230.769, 4290.256, 4174.872, 4285.641, 4174.872, 0, 0, []
1630343661.7725, 24, 0, 4237.436, 4379.487, 4160, 4292.308, 4171.282, 0, 0, []
1630343661.7805, 25, 0, 4246.154, 4401.538, 4184.103, 4302.051, 4165.641, 0, 0, []
1630343661.7884, 26, 0, 4242.564, 4389.231, 4168.205, 4290.769, 4149.744, 0, 0, []
1630343661.7962, 27, 0, 4240, 4452.821, 4166.667, 4283.077, 4140, 0, 0, []
1630343661.804, 28, 0, 4238.974, 4457.949, 4188.205, 4291.282, 4140.513, 0, 0, []
1630343661.8118, 29, 0, 4231.282, 4369.744, 4160.513, 4288.205, 4140, 0, 0, []
1630343661.8197, 30, 0, 4229.231, 4352.821, 4173.333, 4293.333, 4137.949, 0, 0, []
1630343661.8275, 31, 0, 4235.385, 4362.564, 4157.436, 4310.769, 4137.949, 0, 0, []
1630343661.8354, 32, 0, 4245.128, 4309.231, 4151.282, 4312.821, 4144.103, 0, 0, []
1630343661.8432, 33, 0, 4255.385, 4265.128, 4176.41, 4303.077, 4149.744, 0, 0, []
1630343661.851, 34, 0, 4251.795, 4280, 4148.718, 4296.923, 4140.513, 0, 0, []
1630343661.8588, 35, 0, 4229.231, 4308.718, 4163.59, 4290.256, 4125.128, 0, 0, []
1630343661.8668, 36, 0, 4213.333, 4295.385, 4158.974, 4278.462, 4124.615, 0, 0, []
1630343661.8747, 37, 0, 4223.077, 4227.179, 4152.308, 4282.051, 4138.462, 0, 0, []
1630343661.8827, 38, 0, 4236.923, 4174.359, 4184.615, 4299.487, 4141.026, 0, 0, []
1630343661.8905, 39, 0, 4231.795, 4190.256, 4162.051, 4299.487, 4125.128, 0, 0, []
1630343661.8985, 40, 0, 4231.795, 4197.949, 4169.231, 4300.513, 4118.462, 0, 0, []
1630343661.9064, 41, 0, 4234.872, 4178.462, 4158.462, 4301.538, 4126.154, 0, 0, []
1630343661.9144, 42, 0, 4221.538, 4170.256, 4134.872, 4280.513, 4123.077, 0, 0, []
1630343661.9223, 43, 0, 4217.436, 4174.872, 4167.692, 4273.333, 4124.103, 0, 0, []
1630343661.9302, 44, 0, 4234.359, 4234.359, 4150.256, 4293.846, 4133.333, 0, 0, []
1630343661.9381, 45, 0, 4238.462, 4305.128, 4149.231, 4301.538, 4129.744, 0, 0, []
1630343661.9459, 46, 0, 4226.154, 4291.795, 4144.103, 4287.179, 4115.897, 0, 0, []
1630343661.9538, 47, 0, 4217.949, 4303.077, 4123.077, 4274.359, 4112.821, 0, 0, []
1630343661.9618, 48, 0, 4215.385, 4359.487, 4143.077, 4267.179, 4116.923, 0, 0, []
1630343661.9696, 49, 0, 4214.359, 4323.59, 4117.949, 4265.128, 4123.59, 0, 0, []
1630343661.9774, 50, 0, 4220, 4254.872, 4137.436, 4280, 4137.436, 0, 0, []
1630343661.9853, 51, 0, 4231.282, 4243.077, 4165.641, 4278.974, 4140, 0, 0, []
1630343661.9931, 52, 0, 4232.821, 4245.641, 4144.103, 4252.308, 4123.59, 0, 0, []
1630343662.0011, 53, 0, 4221.026, 4271.282, 4164.103, 4244.103, 4118.974, 0, 0, []
1630343662.0089, 54, 0, 4213.846, 4311.795, 4132.821, 4242.564, 4137.949, 0, 0, []
1630343662.0168, 55, 0, 4222.051, 4321.026, 4119.487, 4232.308, 4147.179, 0, 0, []
1630343662.0246, 56, 0, 4233.333, 4338.974, 4144.103, 4232.821, 4138.462, 0, 0, []
1630343662.0325, 57, 0, 4245.641, 4357.436, 4140.513, 4243.077, 4146.667, 0, 0, []
1630343662.0404, 58, 0, 4262.051, 4356.41, 4168.205, 4255.385, 4165.641, 0, 0, []
1630343662.0483, 59, 0, 4266.667, 4374.359, 4144.615, 4262.564, 4168.205, 0, 0, []
1630343662.0562, 60, 0, 4261.538, 4354.359, 4136.923, 4265.128, 4170.256, 0, 0, []
1630343662.0642, 61, 0, 4261.026, 4282.051, 4155.385, 4261.538, 4185.641, 0, 0, []
1630343662.0721, 62, 0, 4261.538, 4258.462, 4125.641, 4252.308, 4191.795, 0, 0, []
1630343662.0801, 63, 0, 4256.923, 4271.795, 4145.641, 4246.667, 4183.59, 0, 0, []
1630343662.0879, 64, 0, 4265.128, 4248.718, 4146.667, 4240, 4186.667, 450, 0, []
1630343662.0957, 65, 0, 4303.59, 4222.564, 4152.308, 4231.795, 4213.333, 450, 0, []
1630343662.1036, 66, 0, 4351.282, 4247.179, 4175.385, 4230.256, 4249.231, 16188, 0, []
1630343662.1114, 67, 0, 4384.615, 4283.59, 4146.667, 4238.974, 4275.385, 450, 0, []
1630343662.1193, 68, 0, 4404.615, 4300, 4168.205, 4261.026, 4286.667, 16127, 0, []
1630343662.127, 69, 0, 4417.949, 4316.923, 4166.667, 4272.308, 4291.282, 450, 0, []
1630343662.1349, 70, 0, 4415.385, 4353.333, 4143.077, 4262.051, 4291.795, 16326, 0, []
1630343662.1427, 71, 0, 4400.513, 4380.513, 4155.385, 4253.333, 4283.077, 450, 0, []
1630343662.1506, 72, 0, 4393.846, 4340, 4142.051, 4252.821, 4273.333, 450, 0, []
1630343662.1584, 73, 0, 4391.795, 4277.949, 4172.821, 4242.051, 4267.692, 16124, 0, []
1630343662.1662, 74, 0, 4382.564, 4294.359, 4171.282, 4215.897, 4263.59, 450, 0, []
1630343662.174, 75, 0, 4374.872, 4373.846, 4143.077, 4204.615, 4260.513, 16192, 0, []
1630343662.182, 76, 0, 4366.154, 4425.128, 4164.615, 4209.744, 4245.128, 450, 0, []
1630343662.1899, 77, 0, 4347.692, 4428.205, 4142.564, 4205.641, 4214.872, 450, 0, []
1630343662.1979, 78, 0, 4324.615, 4430.256, 4149.744, 4215.897, 4191.282, 450, 0, []
1630343662.2058, 79, 0, 4308.718, 4418.462, 4145.128, 4239.487, 4180.513, 16192, 0, []
1630343662.2137, 80, 0, 4305.128, 4369.744, 4120.513, 4245.128, 4170.769, 450, 0, []
1630343662.2216, 81, 0, 4305.128, 4322.564, 4158.974, 4239.487, 4163.077, 450, 0, []
1630343662.2296, 82, 0, 4303.077, 4329.744, 4149.744, 4231.795, 4164.615, 450, 0, []
1630343662.2375, 83, 0, 4302.564, 4342.564, 4155.897, 4229.231, 4166.154, 16192, 0, []
1630343662.2455, 84, 0, 4301.538, 4304.615, 4169.744, 4237.949, 4165.641, 450, 0, []
1630343662.2533, 85, 0, 4287.179, 4267.692, 4151.795, 4240, 4167.692, 450, 0, []
1630343662.2611, 86, 0, 4274.872, 4275.897, 4170.256, 4238.974, 4169.231, 450, 0, []
1630343662.269, 87, 0, 4276.923, 4282.564, 4150.256, 4244.103, 4168.718, 16192, 0, []
1630343662.2768, 88, 0, 4283.077, 4281.026, 4153.846, 4253.333, 4170.769, 450, 0, []
1630343662.2847, 89, 0, 4283.59, 4298.462, 4167.179, 4255.385, 4169.744, 450, 0, []
1630343662.2924, 90, 0, 4270.769, 4344.615, 4146.667, 4243.59, 4149.744, 450, 0, []
1630343662.3003, 91, 0, 4260, 4372.308, 4170.256, 4228.718, 4131.795, 16192, 0, []
1630343662.3081, 92, 0, 4270.769, 4379.487, 4151.795, 4204.103, 4143.077, 450, 0, []
1630343662.316, 93, 0, 4287.692, 4438.974, 4155.385, 4173.846, 4170.256, 450, 0, []
1630343662.3238, 94, 0, 4276.41, 4470.256, 4173.333, 4142.051, 4169.744, 450, 0, []
1630343662.3317, 95, 0, 4254.359, 4414.359, 4137.436, 4129.231, 4147.692, 16192, 0, []
1630343662.3396, 96, 0, 4264.615, 4393.846, 4169.231, 4167.179, 4146.154, 450, 0, []
1630343662.3476, 97, 0, 4282.051, 4429.744, 4172.308, 4210.769, 4160.513, 450, 0, []
1630343662.3555, 98, 0, 4268.205, 4427.179, 4148.718, 4219.487, 4156.41, 450, 0, []
1630343662.3635, 99, 0, 4253.333, 4384.103, 4162.051, 4219.487, 4147.692, 16192, 0, []
1630343662.3713, 100, 0, 4259.487, 4336.41, 4140.513, 4222.564, 4162.564, 450, 0, []
1630343662.3793, 101, 0, 4253.846, 4295.385, 4157.949, 4213.846, 4173.846, 450, 0, []
1630343662.3872, 102, 0, 4244.103, 4277.949, 4164.615, 4207.692, 4161.538, 450, 0, []
1630343662.3952, 103, 0, 4256.923, 4244.615, 4167.692, 4215.385, 4152.308, 16192, 0, []
1630343662.4031, 104, 0, 4267.179, 4223.59, 4187.179, 4217.436, 4155.897, 450, 0, []
1630343662.4108, 105, 0, 4261.026, 4276.923, 4158.974, 4211.795, 4156.41, 450, 0, []
1630343662.4187, 106, 0, 4252.308, 4346.667, 4177.436, 4211.282, 4150.256, 450, 0, []
1630343662.4265, 107, 0, 4245.641, 4372.308, 4169.744, 4210.256, 4157.949, 16192, 0, []
1630343662.4344, 108, 0, 4247.179, 4361.026, 4149.744, 4224.615, 4176.923, 450, 0, []
1630343662.4422, 109, 0, 4256.41, 4348.718, 4185.641, 4250.256, 4180, 450, 0, []
1630343662.45, 110, 0, 4247.692, 4320, 4166.154, 4238.462, 4156.41, 450, 0, []
1630343662.4578, 111, 0, 4235.385, 4256.41, 4172.308, 4207.179, 4145.641, 16192, 0, []
1630343662.4657, 112, 0, 4254.359, 4223.59, 4172.821, 4197.949, 4175.897, 450, 0, []
1630343662.4735, 113, 0, 4287.692, 4276.923, 4150.256, 4201.538, 4221.026, 450, 0, []
1630343662.4815, 114, 0, 4287.179, 4353.333, 4166.667, 4206.667, 4242.564, 450, 0, []
1630343662.4893, 115, 0, 4256.923, 4371.282, 4134.359, 4209.744, 4224.103, 16192, 0, []
1630343662.4973, 116, 0, 4238.974, 4342.051, 4148.718, 4218.462, 4188.205, 450, 0, []
1630343662.5052, 117, 0, 4250.256, 4306.154, 4180, 4234.872, 4177.436, 450, 0, []
1630343662.5132, 118, 0, 4269.744, 4284.615, 4164.615, 4241.538, 4193.333, 450, 0, []
1630343662.5211, 119, 0, 4271.282, 4262.564, 4180.513, 4234.359, 4198.462, 16192, 0, []
1630343662.5291, 120, 0, 4265.128, 4237.949, 4152.308, 4226.154, 4202.564, 450, 0, []
1630343662.5369, 121, 0, 4262.564, 4252.308, 4150.769, 4228.718, 4220, 450, 0, []
1630343662.5449, 122, 0, 4253.333, 4302.564, 4166.154, 4233.846, 4217.436, 450, 0, []
1630343662.5528, 123, 0, 4245.128, 4323.077, 4138.974, 4229.231, 4200.513, 16192, 0, []
1630343662.5606, 124, 0, 4250.256, 4282.564, 4164.103, 4223.077, 4196.923, 450, 0, []
1630343662.5685, 125, 0, 4254.872, 4261.026, 4162.051, 4212.308, 4190.256, 450, 0, []
1630343662.5762, 126, 0, 4246.154, 4276.923, 4160, 4205.641, 4182.051, 450, 0, []
1630343662.5841, 127, 0, 4235.385, 4266.154, 4173.846, 4212.821, 4194.872, 16192, 0, []
1630343662.5919, 128, 0, 4229.744, 4251.795, 4153.333, 4229.231, 4202.564, 450, 0, []
1630343662.5998, 0, 0, 4226.667, 4249.744, 4173.846, 4250.256, 4187.692, 450, 0, []
1630343662.6076, 1, 0, 4228.205, 4232.821, 4155.385, 4261.538, 4179.487, 450, 0, []
1630343662.6154, 2, 0, 4244.615, 4245.128, 4154.872, 4266.154, 4190.769, 16188, 0, []
1630343662.6232, 3, 0, 4253.846, 4289.744, 4190.769, 4266.154, 4191.282, 450, 0, []
1630343662.6311, 4, 0, 4237.436, 4273.846, 4162.564, 4247.179, 4172.308, 16146, 0, []
1630343662.6389, 5, 0, 4217.436, 4205.128, 4171.282, 4229.231, 4163.077, 450, 0, []
1630343662.6469, 6, 0, 4209.231, 4166.667, 4165.641, 4231.795, 4168.205, 16327, 0, []
1630343662.6547, 7, 0, 4210.769, 4153.846, 4149.744, 4244.615, 4165.641, 450, 0, []
1630343662.6627, 8, 0, 4215.897, 4136.923, 4169.744, 4251.795, 4153.333, 450, 0, []
1630343662.6706, 9, 0, 4206.667, 4120, 4154.872, 4247.692, 4138.462, 16124, 0, []
1630343662.6786, 10, 0, 4193.333, 4139.487, 4171.795, 4241.538, 4133.333, 450, 0, []
1630343662.6865, 11, 0, 4204.103, 4177.949, 4161.026, 4242.564, 4153.846, 16196, 0, []
1630343662.6944, 12, 0, 4217.949, 4161.538, 4149.744, 4247.692, 4168.205, 450, 0, []
1630343662.7023, 13, 0, 4208.718, 4155.897, 4187.179, 4247.179, 4154.872, 450, 0, []
1630343662.7103, 14, 0, 4208.205, 4206.154, 4161.538, 4236.923, 4145.128, 450, 0, []
1630343662.7182, 15, 0, 4231.282, 4213.846, 4171.795, 4243.077, 4162.564, 16196, 0, []
1630343662.726, 16, 0, 4239.487, 4169.231, 4178.462, 4250.769, 4185.128, 0, 0, []
1630343662.7338, 17, 0, 4223.077, 4170.769, 4141.538, 4237.949, 4185.128, 0, 0, []
1630343662.7416, 18, 0, 4213.333, 4217.436, 4153.846, 4236.41, 4170.256, 0, 0, []
1630343662.7495, 19, 0, 4215.897, 4245.128, 4143.59, 4245.641, 4162.051, 0, 0, []
1630343662.7573, 20, 0, 4220, 4261.538, 4165.128, 4246.154, 4160.513, 0, 0, []
1630343662.7652, 21, 0, 4216.41, 4245.641, 4179.487, 4239.487, 4154.872, 0, 0, []
1630343662.7729, 22, 0, 4201.538, 4169.231, 4145.128, 4224.615, 4147.179, 0, 0, []
1630343662.7809, 23, 0, 4193.846, 4098.974, 4162.051, 4223.59, 4151.795, 0, 0, []
1630343662.7888, 24, 0, 4207.692, 4113.333, 4155.897, 4236.41, 4157.436, 0, 0, []
1630343662.7968, 25, 0, 4215.385, 4149.744, 4157.436, 4239.487, 4146.154, 0, 0, []
1630343662.8047, 26, 0, 4210.256, 4123.077, 4158.974, 4233.846, 4134.872, 0, 0, []
1630343662.8126, 27, 0, 4223.077, 4117.949, 4140.513, 4237.949, 4156.923, 0, 0, []
1630343662.8205, 28, 0, 4236.923, 4161.026, 4169.231, 4243.077, 4187.179, 0, 0, []
1630343662.8285, 29, 0, 4222.564, 4151.282, 4142.051, 4235.385, 4184.615, 0, 0, []
1630343662.8364, 30, 0, 4214.359, 4144.615, 4140, 4241.026, 4174.359, 0, 0, []
1630343662.8444, 31, 0, 4227.179, 4215.385, 4176.41, 4249.744, 4172.821, 0, 0, []
1630343662.8522, 32, 0, 4222.051, 4236.923, 4152.308, 4231.282, 4159.487, 0, 0, []
1630343662.8602, 33, 0, 4204.615, 4211.282, 4161.538, 4212.821, 4153.333, 0, 0, []
1630343662.8681, 34, 0, 4201.026, 4266.667, 4145.128, 4210.769, 4166.667, 0, 0, []
1630343662.8759, 35, 0, 4198.462, 4319.487, 4136.923, 4211.282, 4171.282, 0, 0, []
1630343662.8838, 36, 0, 4202.051, 4275.897, 4163.59, 4216.923, 4163.59, 0, 0, []
1630343662.8916, 37, 0, 4214.872, 4220.513, 4142.564, 4222.051, 4166.154, 0, 0, []
1630343662.8994, 38, 0, 4219.487, 4218.462, 4164.103, 4218.462, 4168.718, 0, 0, []
1630343662.9072, 39, 0, 4215.385, 4214.359, 4162.051, 4206.154, 4170.769, 0, 0, []
1630343662.9151, 40, 0, 4212.308, 4172.308, 4147.692, 4205.641, 4182.051, 0, 0, []
1630343662.9229, 41, 0, 4216.923, 4133.846, 4172.821, 4215.385, 4188.718, 0, 0, []
1630343662.9308, 42, 0, 4228.718, 4145.128, 4158.462, 4215.897, 4187.179, 0, 0, []
1630343662.9385, 43, 0, 4228.205, 4153.333, 4174.872, 4217.436, 4181.026, 0, 0, []
1630343662.9465, 44, 0, 4218.974, 4094.359, 4162.564, 4220, 4182.564, 0, 0, []
1630343662.9544, 45, 0, 4217.436, 4045.641, 4145.641, 4220.513, 4192.821, 0, 0, []
1630343662.9624, 46, 0, 4218.462, 4096.41, 4177.949, 4224.615, 4192.308, 0, 0, []
1630343662.9703, 47, 0, 4224.615, 4194.872, 4151.795, 4220.513, 4185.128, 0, 0, []
1630343662.9782, 48, 0, 4230.769, 4238.974, 4157.949, 4213.333, 4181.538, 0, 0, []
1630343662.9861, 49, 0, 4224.103, 4223.077, 4164.615, 4215.385, 4178.974, 0, 0, []
1630343662.9941, 50, 0, 4210.769, 4214.359, 4142.564, 4215.897, 4178.462, 0, 0, []
1630343663.002, 51, 0, 4202.051, 4211.795, 4166.667, 4207.179, 4175.897, 0, 0, []
1630343663.01, 52, 0, 4202.051, 4187.179, 4156.41, 4203.59, 4169.231, 0, 0, []
1630343663.0178, 53, 0, 4216.923, 4195.385, 4169.744, 4213.846, 4170.769, 0, 0, []
1630343663.0256, 54, 0, 4220.513, 4216.923, 4167.692, 4203.077, 4171.282, 0, 0, []
1630343663.0335, 55, 0, 4203.59, 4192.821, 4141.026, 4177.436, 4167.692, 0, 0, []
1630343663.0413, 56, 0, 4198.462, 4166.154, 4178.462, 4188.718, 4184.103, 0, 0, []
1630343663.0492, 57, 0, 4203.59, 4149.744, 4161.026, 4206.154, 4197.949, 0, 0, []
1630343663.0569, 58, 0, 4207.692, 4136.41, 4150.769, 4202.564, 4190.769, 0, 0, []
1630343663.0648, 59, 0, 4216.41, 4151.282, 4166.667, 4202.564, 4177.949, 0, 0, []
1630343663.0726, 60, 0, 4217.436, 4201.026, 4153.333, 4203.59, 4168.205, 0, 0, []
1630343663.0805, 61, 0, 4211.282, 4263.59, 4173.333, 4194.872, 4174.359, 0, 0, []
1630343663.0883, 62, 0, 4221.026, 4322.051, 4145.128, 4193.333, 4197.949, 0, 0, []
1630343663.0962, 63, 0, 4234.359, 4336.923, 4140.513, 4207.179, 4211.282, 0, 0, []
1630343663.1041, 64, 0, 4223.077, 4296.923, 4167.179, 4204.103, 4196.41, 450, 0, []
1630343663.1121, 65, 0, 4204.103, 4267.179, 4143.59, 4183.077, 4170.769, 450, 0, []
1630343663.12, 66, 0, 4195.385, 4224.615, 4162.051, 4176.41, 4158.974, 16186, 0, []
1630343663.128, 67, 0, 4201.538, 4160, 4153.333, 4178.462, 4181.026, 450, 0, []
1630343663.1358, 68, 0, 4213.846, 4153.846, 4138.974, 4184.103, 4206.667, 16152, 0, []
1630343663.1438, 69, 0, 4217.949, 4195.385, 4149.744, 4195.385, 4203.077, 450, 0, []
1630343663.1517, 70, 0, 4221.026, 4245.641, 4132.308, 4195.385, 4204.615, 16312, 0, []
1630343663.1597, 71, 0, 4234.872, 4284.615, 4154.872, 4194.359, 4218.462, 450, 0, []
1630343663.1676, 72, 0, 4234.872, 4260.513, 4140.513, 4202.051, 4207.179, 450, 0, []
1630343663.1755, 73, 0, 4218.462, 4203.59, 4128.205, 4203.077, 4195.385, 16121, 0, []
1630343663.1834, 74, 0, 4215.385, 4210.256, 4155.897, 4197.436, 4217.436, 450, 0, []
1630343663.1912, 75, 0, 4226.154, 4211.795, 4127.179, 4195.897, 4235.385, 16203, 0, []
1630343663.1991, 76, 0, 4241.026, 4140, 4148.718, 4201.538, 4232.821, 450, 0, []
1630343663.2069, 77, 0, 4246.154, 4091.282, 4167.692, 4202.051, 4230.256, 450, 0, []
1630343663.2147, 78, 0, 4242.564, 4123.59, 4154.359, 4200, 4232.821, 450, 0, []
1630343663.2225, 79, 0, 4266.667, 4209.744, 4169.744, 4203.077, 4250.256, 16203, 0, []
1630343663.2304, 80, 0, 4313.333, 4245.641, 4142.051, 4192.821, 4288.718, 450, 0, []
1630343663.2382, 81, 0, 4344.103, 4193.333, 4150.256, 4179.487, 4327.179, 450, 0, []
1630343663.2461, 82, 0, 4369.231, 4193.333, 4148.718, 4180, 4351.282, 450, 0, []
1630343663.2539, 83, 0, 4398.974, 4257.949, 4126.154, 4184.103, 4358.974, 16203, 0, []
1630343663.2617, 84, 0, 4406.667, 4249.744, 4155.897, 4177.436, 4355.897, 450, 0, []
1630343663.2695, 85, 0, 4393.333, 4248.205, 4134.872, 4158.974, 4346.154, 450, 0, []
1630343663.2775, 86, 0, 4378.974, 4346.667, 4134.872, 4148.205, 4328.205, 450, 0, []
1630343663.2854, 87, 0, 4362.051, 4367.692, 4148.205, 4149.231, 4303.077, 16203, 0, []
1630343663.2934, 88, 0, 4337.436, 4306.667, 4131.282, 4144.103, 4273.333, 450, 0, []
1630343663.3012, 89, 0, 4313.333, 4329.744, 4150.769, 4136.923, 4247.179, 450, 0, []
1630343663.3092, 90, 0, 4309.744, 4360.513, 4137.949, 4144.615, 4244.103, 450, 0, []
1630343663.3171, 91, 0, 4317.949, 4348.718, 4150.769, 4160, 4247.692, 16203, 0, []
1630343663.3251, 92, 0, 4314.872, 4407.692, 4161.026, 4155.385, 4234.359, 450, 0, []
1630343663.333, 93, 0, 4306.154, 4471.795, 4133.846, 4149.744, 4227.179, 450, 0, []
1630343663.3408, 94, 0, 4299.487, 4417.436, 4166.154, 4166.154, 4231.282, 450, 0, []
1630343663.3487, 95, 0, 4282.051, 4357.949, 4156.923, 4170.769, 4219.487, 16203, 0, []
1630343663.3565, 96, 0, 4264.615, 4361.026, 4145.128, 4161.538, 4212.308, 450, 0, []
1630343663.3644, 97, 0, 4260.513, 4329.744, 4148.718, 4157.436, 4223.59, 450, 0, []
1630343663.3722, 98, 0, 4261.026, 4310.256, 4122.051, 4159.487, 4225.128, 450, 0, []
1630343663.38, 99, 0, 4261.538, 4342.051, 4165.128, 4170.769, 4214.872, 16203, 0, []
1630343663.3878, 100, 0, 4264.103, 4346.667, 4173.846, 4178.462, 4216.41, 450, 0, []
1630343663.3957, 101, 0, 4267.692, 4327.692, 4159.487, 4181.026, 4224.103, 450, 0, []
1630343663.4035, 102, 0, 4267.692, 4320, 4171.282, 4184.103, 4214.359, 450, 0, []
1630343663.4114, 103, 0, 4260, 4320, 4145.128, 4174.359, 4203.077, 16203, 0, []
1630343663.4191, 104, 0, 4248.205, 4327.179, 4154.872, 4168.205, 4213.333, 450, 0, []
1630343663.4271, 105, 0, 4244.615, 4342.564, 4137.949, 4178.462, 4223.59, 450, 0, []
1630343663.435, 106, 0, 4247.179, 4336.41, 4132.308, 4183.077, 4211.282, 450, 0, []
1630343663.443, 107, 0, 4240, 4302.051, 4164.103, 4173.846, 4194.872, 16203, 0, []
1630343663.4509, 108, 0, 4232.308, 4280, 4136.923, 4163.59, 4192.308, 450, 0, []
1630343663.4588, 109, 0, 4231.795, 4276.41, 4156.923, 4162.051, 4189.231, 450, 0, []
1630343663.4667, 110, 0, 4225.641, 4268.718, 4163.59, 4158.974, 4185.128, 450, 0, []
1630343663.4747, 111, 0, 4212.308, 4212.308, 4137.949, 4148.718, 4186.667, 16203, 0, []
1630343663.4826, 112, 0, 4208.718, 4130.769, 4158.462, 4154.359, 4186.667, 450, 0, []
1630343663.4905, 113, 0, 4213.846, 4112.308, 4146.154, 4169.744, 4173.846, 450, 0, []
1630343663.4983, 114, 0, 4208.205, 4159.487, 4163.077, 4170.256, 4156.923, 450, 0, []
1630343663.5061, 115, 0, 4197.949, 4183.59, 4164.103, 4152.821, 4146.667, 16203, 0, []
1630343663.514, 116, 0, 4195.385, 4196.923, 4137.436, 4145.641, 4152.821, 450, 0, []
1630343663.5218, 117, 0, 4197.436, 4270.769, 4161.538, 4159.487, 4165.641, 450, 0, []
1630343663.5297, 118, 0, 4201.538, 4291.795, 4147.179, 4158.974, 4160, 450, 0, []
1630343663.5374, 119, 0, 4203.59, 4242.051, 4165.641, 4152.821, 4145.641, 16203, 0, []
1630343663.5453, 120, 0, 4194.872, 4234.872, 4184.103, 4155.897, 4134.359, 450, 0, []
1630343663.5531, 121, 0, 4181.538, 4235.385, 4154.872, 4151.282, 4128.205, 450, 0, []
1630343663.561, 122, 0, 4182.564, 4201.538, 4167.179, 4150.256, 4141.538, 450, 0, []
1630343663.5688, 123, 0, 4195.897, 4170.769, 4147.692, 4153.333, 4161.026, 16203, 0, []
1630343663.5768, 124, 0, 4200.513, 4147.692, 4148.718, 4155.897, 4153.333, 450, 0, []
1630343663.5846, 125, 0, 4189.231, 4128.205, 4161.026, 4157.949, 4130.769, 450, 0, []
1630343663.5926, 126, 0, 4181.538, 4138.462, 4136.41, 4153.846, 4128.718, 450, 0, []
1630343663.6005, 127, 0, 4182.564, 4142.051, 4153.333, 4145.641, 4138.974, 16203, 0, []
1630343663.6085, 128, 0, 4183.59, 4116.923, 4138.462, 4146.667, 4142.051, 450, 0, []
1630343663.6164, 0, 0, 4186.154, 4083.077, 4152.308, 4159.487, 4134.872, 450, 0, []
1630343663.6243, 1, 0, 4182.564, 4069.744, 4173.846, 4158.462, 4117.949, 450, 0, []
1630343663.6322, 2, 0, 4167.692, 4094.872, 4137.949, 4147.692, 4116.923, 16187, 0, []
1630343663.6402, 3, 0, 4165.128, 4103.077, 4162.564, 4157.949, 4141.026, 450, 0, []
1630343663.6481, 4, 0, 4173.333, 4086.154, 4156.923, 4162.564, 4151.282, 16138, 0, []
1630343663.6559, 5, 0, 4170.256, 4094.872, 4138.974, 4145.128, 4131.282, 450, 0, []
1630343663.6637, 6, 0, 4172.308, 4121.026, 4157.436, 4135.385, 4126.667, 16314, 0, []
1630343663.6715, 7, 0, 4184.103, 4134.872, 4134.359, 4136.41, 4148.718, 450, 0, []
1630343663.6794, 8, 0, 4187.179, 4153.846, 4142.051, 4143.077, 4160.513, 450, 0, []
1630343663.6872, 9, 0, 4183.59, 4169.231, 4132.308, 4147.692, 4150.769, 16121, 0, []
1630343663.6951, 10, 0, 4180, 4146.154, 4128.718, 4135.385, 4128.205, 450, 0, []
1630343663.7028, 11, 0, 4180, 4113.846, 4153.333, 4120.513, 4123.59, 16201, 0, []
1630343663.7107, 12, 0, 4184.103, 4120.513, 4124.615, 4130.256, 4148.205, 450, 0, []
1630343663.7185, 13, 0, 4188.205, 4142.051, 4145.641, 4156.41, 4163.59, 450, 0, []
1630343663.7264, 14, 0, 4199.487, 4133.333, 4156.923, 4169.744, 4162.051, 450, 0, []
1630343663.7342, 15, 0, 4209.231, 4130.256, 4139.487, 4168.205, 4160.513, 16201, 0, []
1630343663.7421, 16, 0, 4195.385, 4147.692, 4156.923, 4154.872, 4153.333, 0, 0, []
1630343663.75, 17, 0, 4178.974, 4145.641, 4133.846, 4135.385, 4149.231, 0, 0, []
1630343663.758, 18, 0, 4188.718, 4137.949, 4148.205, 4141.538, 4164.103, 0, 0, []
1630343663.7659, 19, 0, 4195.897, 4148.205, 4148.205, 4147.692, 4169.231, 0, 0, []
1630343663.7739, 20, 0, 4183.077, 4144.103, 4124.103, 4130.256, 4148.205, 0, 0, []
1630343663.7817, 21, 0, 4181.026, 4118.974, 4154.872, 4115.385, 4132.308, 0, 0, []
1630343663.7897, 22, 0, 4195.897, 4162.564, 4134.872, 4108.718, 4144.615, 0, 0, []
1630343663.7976, 23, 0, 4208.205, 4250.769, 4137.436, 4117.949, 4171.795, 0, 0, []
1630343663.8056, 24, 0, 4197.949, 4239.487, 4148.205, 4136.923, 4175.385, 0, 0, []
1630343663.8135, 25, 0, 4183.59, 4160, 4129.744, 4138.462, 4159.487, 0, 0, []
1630343663.8212, 26, 0, 4196.41, 4154.359, 4151.795, 4130.256, 4148.718, 0, 0, []
1630343663.8291, 27, 0, 4202.051, 4201.026, 4130.769, 4123.59, 4142.051, 0, 0, []
1630343663.8369, 28, 0, 4184.103, 4202.051, 4137.436, 4124.615, 4144.103, 0, 0, []
1630343663.8448, 29, 0, 4182.051, 4205.128, 4154.359, 4134.359, 4162.564, 0, 0, []
1630343663.8526, 30, 0, 4201.026, 4261.538, 4127.692, 4147.179, 4177.949, 0, 0, []
1630343663.8604, 31, 0, 4212.308, 4284.103, 4152.308, 4154.359, 4175.897, 0, 0, []
1630343663.8682, 32, 0, 4215.897, 4255.897, 4144.103, 4154.872, 4173.333, 0, 0, []
1630343663.8761, 33, 0, 4214.872, 4260, 4146.667, 4146.667, 4173.333, 0, 0, []
1630343663.8839, 34, 0, 4213.333, 4274.872, 4158.974, 4125.128, 4180.513, 0, 0, []
1630343663.8919, 35, 0, 4232.308, 4235.897, 4118.462, 4117.949, 4213.333, 0, 0, []
1630343663.8997, 36, 0, 4256.923, 4222.051, 4141.538, 4142.564, 4248.205, 0, 0, []
1630343663.9077, 37, 0, 4275.897, 4276.41, 4155.385, 4160.513, 4259.487, 0, 0, []
1630343663.9156, 38, 0, 4308.205, 4304.103, 4154.872, 4156.41, 4273.333, 0, 0, []
1630343663.9235, 39, 0, 4355.385, 4287.179, 4162.564, 4154.872, 4310.256, 0, 0, []
1630343663.9313, 40, 0, 4396.41, 4277.436, 4135.385, 4159.487, 4351.795, 0, 0, []
1630343663.9393, 41, 0, 4417.436, 4269.231, 4164.615, 4166.667, 4371.795, 0, 0, []
1630343663.9471, 42, 0, 4420.513, 4250.769, 4163.077, 4159.487, 4371.795, 0, 0, []
1630343663.9551, 43, 0, 4410.769, 4236.41, 4141.538, 4137.949, 4358.462, 0, 0, []
1630343663.963, 44, 0, 4396.41, 4241.026, 4158.974, 4135.897, 4344.615, 0, 0, []
1630343663.9709, 45, 0, 4380, 4261.026, 4136.41, 4147.179, 4336.41, 0, 0, []
1630343663.9788, 46, 0, 4364.615, 4278.462, 4143.59, 4147.692, 4327.692, 0, 0, []
1630343663.9867, 47, 0, 4349.231, 4283.077, 4130.769, 4140.513, 4316.41, 0, 0, []
1630343663.9946, 48, 0, 4336.41, 4282.564, 4119.487, 4135.897, 4311.282, 0, 0, []
1630343664.0024, 49, 0, 4323.59, 4266.667, 4151.795, 4127.179, 4310.256, 0, 0, []
1630343664.0103, 50, 0, 4295.385, 4247.179, 4120, 4103.077, 4284.615, 0, 0, []
1630343664.0181, 51, 0, 4262.051, 4271.282, 4123.077, 4086.154, 4238.974, 0, 0, []
1630343664.0259, 52, 0, 4263.59, 4292.821, 4140, 4100.513, 4231.282, 0, 0, []
1630343664.0338, 53, 0, 4282.564, 4271.795, 4134.872, 4131.282, 4252.821, 0, 0, []
1630343664.0417, 54, 0, 4269.231, 4265.128, 4155.897, 4150.769, 4236.923, 0, 0, []
1630343664.0496, 55, 0, 4246.667, 4296.923, 4128.718, 4154.872, 4211.282, 0, 0, []
1630343664.0575, 56, 0, 4243.59, 4331.795, 4137.436, 4151.282, 4224.103, 0, 0, []
1630343664.0652, 57, 0, 4237.949, 4316.41, 4139.487, 4133.333, 4233.846, 0, 0, []
1630343664.0732, 58, 0, 4226.667, 4272.308, 4112.821, 4121.538, 4219.487, 0, 0, []
1630343664.0811, 59, 0, 4220.513, 4297.949, 4158.974, 4125.128, 4207.179, 0, 0, []
1630343664.0891, 60, 0, 4214.359, 4335.897, 4153.333, 4111.795, 4193.333, 0, 0, []
1630343664.097, 61, 0, 4210.256, 4280.513, 4138.974, 4104.103, 4180.513, 0, 0, []
1630343664.1049, 62, 0, 4210.256, 4218.974, 4146.154, 4120, 4189.744, 0, 0, []
1630343664.1128, 63, 0, 4215.385, 4241.538, 4133.333, 4131.795, 4210.256, 0, 0, []
1630343664.1208, 64, 0, 4223.077, 4258.974, 4165.641, 4141.538, 4222.564, 450, 0, []
1630343664.1287, 65, 0, 4221.026, 4230.256, 4154.359, 4143.59, 4219.487, 450, 0, []
1630343664.1365, 66, 0, 4207.179, 4218.462, 4147.692, 4125.641, 4200.513, 16190, 0, []
1630343664.1443, 67, 0, 4187.692, 4198.974, 4151.282, 4095.385, 4170.256, 450, 0, []
1630343664.1521, 68, 0, 4176.923, 4158.462, 4127.179, 4076.923, 4156.923, 16139, 0, []
1630343664.16, 69, 0, 4181.538, 4146.154, 4159.487, 4094.359, 4175.897, 450, 0, []
1630343664.1678, 70, 0, 4188.205, 4145.128, 4138.974, 4114.359, 4186.154, 16329, 0, []
1630343664.1757, 71, 0, 4186.154, 4116.923, 4123.59, 4107.692, 4166.667, 450, 0, []
1630343664.1834, 72, 0, 4175.897, 4088.718, 4157.436, 4096.41, 4148.205, 450, 0, []
1630343664.1913, 73, 0, 4166.667, 4099.487, 4129.744, 4088.205, 4149.231, 16124, 0, []
1630343664.1991, 74, 0, 4167.179, 4114.872, 4133.846, 4090.769, 4164.103, 450, 0, []
1630343664.2071, 75, 0, 4169.744, 4149.744, 4134.872, 4101.026, 4174.872, 16193, 0, []
1630343664.215, 76, 0, 4171.282, 4256.41, 4134.872, 4102.564, 4165.128, 450, 0, []
1630343664.2229, 77, 0, 4182.564, 4331.282, 4160, 4107.179, 4158.974, 450, 0, []
1630343664.2308, 78, 0, 4178.974, 4278.462, 4123.59, 4108.718, 4170.256, 450, 0, []
1630343664.2388, 79, 0, 4151.795, 4203.077, 4126.667, 4098.974, 4170.256, 16193, 0, []
1630343664.2467, 80, 0, 4150.769, 4176.923, 4139.487, 4100.513, 4166.667, 450, 0, []
1630343664.2547, 81, 0, 4170.256, 4167.692, 4138.462, 4117.436, 4172.308, 450, 0, []
1630343664.2625, 82, 0, 4170.769, 4193.846, 4162.051, 4120, 4168.205, 450, 0, []
1630343664.2705, 83, 0, 4172.308, 4226.667, 4143.59, 4106.154, 4173.333, 16193, 0, []
1630343664.2784, 84, 0, 4174.872, 4177.436, 4154.359, 4102.564, 4186.154, 450, 0, []
1630343664.2862, 85, 0, 4159.487, 4112.308, 4143.59, 4105.641, 4178.462, 450, 0, []
1630343664.2941, 86, 0, 4159.487, 4112.308, 4125.641, 4112.821, 4168.205, 450, 0, []
1630343664.3019, 87, 0, 4170.256, 4096.41, 4161.538, 4111.282, 4167.692, 16193, 0, []
1630343664.3097, 88, 0, 4157.949, 4105.128, 4131.795, 4095.897, 4161.538, 450, 0, []
1630343664.3175, 89, 0, 4147.179, 4207.179, 4131.282, 4104.615, 4157.436, 450, 0, []
1630343664.3254, 90, 0, 4155.897, 4244.103, 4145.128, 4124.103, 4156.41, 450, 0, []
1630343664.3332, 91, 0, 4159.487, 4147.692, 4128.718, 4116.41, 4147.692, 16193, 0, []
1630343664.3411, 92, 0, 4156.923, 4091.282, 4154.359, 4105.641, 4154.872, 450, 0, []
1630343664.3488, 93, 0, 4152.821, 4104.103, 4125.641, 4110.769, 4168.718, 450, 0, []
1630343664.3568, 94, 0, 4146.667, 4071.282, 4124.615, 4115.385, 4154.872, 450, 0, []
1630343664.3647, 95, 0, 4151.282, 4067.179, 4154.872, 4118.462, 4136.41, 16193, 0, []
1630343664.3727, 96, 0, 4152.308, 4105.128, 4137.949, 4126.667, 4140.513, 450, 0, []
1630343664.3806, 97, 0, 4136.41, 4070.769, 4149.744, 4132.308, 4146.154, 450, 0, []
1630343664.3885, 98, 0, 4134.872, 4034.872, 4133.333, 4123.59, 4142.051, 450, 0, []
1630343664.3964, 99, 0, 4141.538, 4062.051, 4138.462, 4117.949, 4134.872, 16193, 0, []
1630343664.4044, 100, 0, 4117.436, 4078.462, 4145.128, 4113.333, 4117.436, 450, 0, []
1630343664.4123, 101, 0, 4100.513, 4047.692, 4110.769, 4109.231, 4108.205, 450, 0, []
1630343664.4203, 102, 0, 4128.205, 4040, 4147.692, 4120, 4117.436, 450, 0, []
1630343664.4281, 103, 0, 4146.154, 4088.718, 4144.103, 4120.513, 4121.538, 16193, 0, []
1630343664.4359, 104, 0, 4130.256, 4092.308, 4125.641, 4106.154, 4118.974, 450, 0, []
1630343664.4438, 105, 0, 4117.949, 4053.333, 4148.205, 4105.128, 4120.513, 450, 0, []
1630343664.4516, 106, 0, 4118.974, 4072.308, 4125.128, 4104.103, 4108.718, 450, 0, []
1630343664.4595, 107, 0, 4129.231, 4082.051, 4139.487, 4098.974, 4098.974, 16193, 0, []
1630343664.4672, 108, 0, 4137.436, 4038.974, 4133.333, 4095.897, 4114.872, 450, 0, []
1630343664.4751, 109, 0, 4126.154, 4036.41, 4115.385, 4086.667, 4122.564, 450, 0, []
1630343664.4829, 110, 0, 4117.436, 4063.59, 4140.513, 4083.59, 4109.231, 450, 0, []
1630343664.4908, 111, 0, 4122.051, 4097.436, 4125.128, 4094.359, 4101.026, 16193, 0, []
1630343664.4986, 112, 0, 4122.564, 4146.154, 4138.974, 4097.949, 4106.667, 450, 0, []
1630343664.5064, 113, 0, 4120, 4114.872, 4136.41, 4090.769, 4120, 450, 0, []
1630343664.5142, 114, 0, 4122.564, 4036.923, 4120, 4094.872, 4126.154, 450, 0, []
1630343664.5222, 115, 0, 4123.077, 4035.385, 4137.436, 4103.077, 4110.256, 16193, 0, []
1630343664.5301, 116, 0, 4127.179, 4041.026, 4112.821, 4093.846, 4100.513, 450, 0, []
1630343664.5381, 117, 0, 4128.718, 4016.41, 4134.872, 4093.846, 4118.974, 450, 0, []
1630343664.5459, 118, 0, 4117.949, 4015.385, 4142.564, 4102.564, 4129.744, 450, 0, []
1630343664.5539, 119, 0, 4118.974, 4003.077, 4120, 4100.513, 4122.564, 16193, 0, []
1630343664.5618, 120, 0, 4134.872, 3985.128, 4152.308, 4097.949, 4118.462, 450, 0, []
1630343664.5698, 121, 0, 4142.564, 4014.359, 4139.487, 4097.436, 4121.026, 450, 0, []
1630343664.5777, 122, 0, 4136.923, 4063.59, 4136.41, 4100, 4128.718, 450, 0, []
1630343664.5856, 123, 0, 4124.615, 4074.872, 4134.872, 4103.59, 4125.128, 16193, 0, []
1630343664.5935, 124, 0, 4124.615, 4061.026, 4125.128, 4108.205, 4111.282, 450, 0, []
1630343664.6013, 125, 0, 4144.103, 4064.103, 4158.462, 4120, 4114.359, 450, 0, []
1630343664.6092, 126, 0, 4154.872, 4096.923, 4126.667, 4123.077, 4133.846, 450, 0, []
1630343664.617, 127, 0, 4139.487, 4148.205, 4117.436, 4114.872, 4140.513, 16193, 0, []
1630343664.6249, 128, 0, 4133.333, 4155.897, 4135.897, 4115.385, 4132.308, 450, 0, []
1630343664.6326, 0, 0, 4146.667, 4132.308, 4120.513, 4119.487, 4125.128, 450, 0, []
1630343664.6405, 1, 0, 4148.205, 4110.256, 4141.538, 4115.897, 4126.154, 450, 0, []
1630343664.6483, 2, 0, 4140.513, 4080, 4124.615, 4103.59, 4136.923, 16190, 0, []
1630343664.6562, 3, 0, 4138.974, 4068.718, 4127.692, 4099.487, 4152.821, 450, 0, []
1630343664.664, 4, 0, 4142.051, 4085.128, 4143.59, 4105.641, 4153.846, 16140, 0, []
1630343664.6719, 5, 0, 4146.667, 4097.436, 4116.923, 4109.744, 4138.974, 450, 0, []
1630343664.6798, 6, 0, 4155.385, 4076.923, 4153.846, 4114.872, 4140, 16331, 0, []
1630343664.6878, 7, 0, 4153.333, 4039.487, 4149.744, 4105.128, 4156.41, 450, 0, []
1630343664.6957, 8, 0, 4144.615, 4047.692, 4130.256, 4101.538, 4156.923, 450, 0, []
1630343664.7037, 9, 0, 4140.513, 4076.923, 4144.615, 4114.359, 4135.385, 16124, 0, []
1630343664.7115, 10, 0, 4130.256, 4025.128, 4116.41, 4107.179, 4116.923, 450, 0, []
1630343664.7195, 11, 0, 4126.667, 3967.179, 4130.769, 4092.308, 4124.103, 16200, 0, []
1630343664.7274, 12, 0, 4144.615, 4031.282, 4125.641, 4092.821, 4149.744, 450, 0, []
1630343664.7354, 13, 0, 4158.462, 4079.487, 4111.795, 4096.41, 4159.487, 450, 0, []
1630343664.7433, 14, 0, 4149.231, 4038.462, 4134.359, 4090.769, 4139.487, 450, 0, []
1630343664.751, 15, 0, 4142.564, 4071.795, 4117.436, 4084.615, 4132.308, 16200, 0, []
1630343664.7589, 16, 0, 4144.615, 4149.744, 4130.256, 4087.692, 4150.769, 0, 0, []
1630343664.7667, 17, 0, 4142.564, 4144.615, 4118.974, 4097.949, 4160, 0, 0, []
1630343664.7746, 18, 0, 4144.615, 4095.897, 4108.205, 4107.179, 4146.667, 0, 0, []
1630343664.7824, 19, 0, 4152.308, 4106.667, 4141.538, 4109.744, 4136.41, 0, 0, []
1630343664.7902, 20, 0, 4158.462, 4228.718, 4106.667, 4103.077, 4143.077, 0, 0, []
1630343664.798, 21, 0, 4152.821, 4330.256, 4116.41, 4098.974, 4147.179, 0, 0, []
1630343664.806, 22, 0, 4137.949, 4243.59, 4135.385, 4094.359, 4130.769, 0, 0, []
1630343664.8139, 23, 0, 4136.923, 4091.795, 4119.487, 4090.769, 4116.41, 0, 0, []
1630343664.8219, 24, 0, 4150.769, 4062.564, 4136.41, 4096.41, 4123.59, 0, 0, []
1630343664.8297, 25, 0, 4152.821, 4077.949, 4103.077, 4094.359, 4136.923, 0, 0, []
1630343664.8377, 26, 0, 4145.128, 4045.641, 4105.641, 4092.308, 4147.692, 0, 0, []
1630343664.8456, 27, 0, 4151.282, 4023.59, 4129.231, 4107.179, 4154.872, 0, 0, []
1630343664.8536, 28, 0, 4156.923, 4054.359, 4117.949, 4111.795, 4145.641, 0, 0, []
1630343664.8615, 29, 0, 4146.154, 4110.256, 4129.231, 4092.308, 4131.795, 0, 0, []
1630343664.8694, 30, 0, 4133.846, 4104.103, 4103.59, 4082.051, 4136.923, 0, 0, []
1630343664.8773, 31, 0, 4140, 4063.59, 4117.949, 4097.949, 4144.103, 0, 0, []
1630343664.8853, 32, 0, 4150.256, 4126.154, 4134.359, 4104.615, 4133.333, 0, 0, []
1630343664.8932, 33, 0, 4154.872, 4244.615, 4104.615, 4105.641, 4131.282, 0, 0, []
1630343664.901, 34, 0, 4158.462, 4268.205, 4126.154, 4111.282, 4148.205, 0, 0, []
1630343664.9088, 35, 0, 4154.872, 4221.538, 4110.769, 4100, 4158.974, 0, 0, []
