Timestamp, COUNTER, INTERPOLATED, AF3, T7, Pz, T8, AF4, RAW_CQ, MARKER_HARDWARE, MARKERS
1627801172.5649, 48, 0, 4200, 3968.205, 4171.795, 4185.641, 4201.026, 0, 0, []
1627801172.5728, 49, 0, 4193.846, 3979.487, 4166.154, 4187.179, 4198.462, 0, 0, []
1627801172.5805, 50, 0, 4184.615, 4016.41, 4187.179, 4188.718, 4189.744, 0, 0, []
1627801172.5884, 51, 0, 4176.41, 4040.513, 4157.949, 4180.513, 4183.59, 0, 0, []
1627801172.5962, 52, 0, 4169.231, 4014.872, 4171.282, 4177.949, 4182.051, 0, 0, []
1627801172.6041, 53, 0, 4169.744, 3991.282, 4171.795, 4190.256, 4181.026, 0, 0, []
1627801172.6119, 54, 0, 4171.795, 4016.41, 4167.692, 4194.872, 4176.923, 0, 0, []
1627801172.6198, 55, 0, 4168.718, 4039.487, 4195.897, 4182.564, 4174.359, 0, 0, []
1627801172.6277, 56, 0, 4174.359, 4029.744, 4172.308, 4174.872, 4178.462, 0, 0, []
1627801172.6357, 57, 0, 4185.641, 4036.41, 4177.436, 4188.205, 4185.641, 0, 0, []
1627801172.6436, 58, 0, 4180.513, 4057.436, 4167.692, 4200.513, 4185.128, 0, 0, []
1627801172.6516, 59, 0, 4169.231, 4052.308, 4146.667, 4190.769, 4181.026, 0, 0, []
1627801172.6594, 60, 0, 4180, 4045.641, 4180, 4188.205, 4188.205, 0, 0, []
1627801172.6674, 61, 0, 4190.256, 4070.769, 4164.103, 4197.949, 4188.205, 0, 0, []
1627801172.6753, 62, 0, 4181.026, 4091.282, 4169.744, 4196.923, 4175.385, 0, 0, []
1627801172.6833, 63, 0, 4175.897, 4067.179, 4192.821, 4190.769, 4175.897, 0, 0, []
1627801172.6912, 64, 0, 4177.436, 4038.974, 4178.974, 4191.795, 4185.128, 450, 0, []
1627801172.6989, 65, 0, 4170.769, 4063.59, 4189.231, 4193.333, 4178.974, 450, 0, []
1627801172.7068, 66, 0, 4162.051, 4083.59, 4156.923, 4187.179, 4167.692, 16186, 0, []
1627801172.7146, 67, 0, 4156.41, 4048.718, 4149.744, 4189.744, 4171.795, 450, 0, []
1627801172.7225, 68, 0, 4154.872, 4038.974, 4180.513, 4202.051, 4173.846, 16162, 0, []
1627801172.7303, 69, 0, 4169.231, 4073.333, 4163.59, 4198.974, 4169.231, 450, 0, []
1627801172.7381, 70, 0, 4188.718, 4076.41, 4177.949, 4186.667, 4177.949, 154, 0, []
1627801172.7459, 71, 0, 4186.154, 4055.385, 4179.487, 4182.051, 4185.641, 450, 0, []
1627801172.7538, 72, 0, 4169.231, 4063.59, 4169.744, 4180, 4172.308, 450, 0, []
1627801172.7616, 73, 0, 4157.436, 4084.103, 4170.769, 4178.974, 4155.385, 16187, 0, []
1627801172.7696, 74, 0, 4155.385, 4084.103, 4160.513, 4186.154, 4150.769, 450, 0, []
1627801172.7774, 75, 0, 4154.872, 4057.436, 4184.615, 4197.436, 4144.103, 16197, 0, []
1627801172.7854, 76, 0, 4150.769, 4038.974, 4161.026, 4187.692, 4134.872, 450, 0, []
1627801172.7933, 77, 0, 4154.359, 4065.641, 4157.436, 4177.949, 4140.513, 450, 0, []
1627801172.8013, 78, 0, 4162.051, 4095.385, 4173.333, 4182.564, 4146.667, 450, 0, []
1627801172.8092, 79, 0, 4151.795, 4092.821, 4147.692, 4175.897, 4134.359, 16197, 0, []
1627801172.8171, 80, 0, 4136.41, 4080.513, 4180, 4162.051, 4123.077, 450, 0, []
1627801172.825, 81, 0, 4134.359, 4097.949, 4168.718, 4161.026, 4127.692, 450, 0, []
1627801172.833, 82, 0, 4136.923, 4143.59, 4150.256, 4169.744, 4131.795, 450, 0, []
1627801172.8409, 83, 0, 4128.718, 4143.59, 4165.128, 4166.154, 4121.538, 16197, 0, []
1627801172.8487, 84, 0, 4123.59, 4113.846, 4140.513, 4161.026, 4113.846, 450, 0, []
1627801172.8566, 85, 0, 4131.795, 4133.333, 4163.077, 4173.846, 4122.051, 450, 0, []
1627801172.8643, 86, 0, 4130.256, 4153.846, 4160.513, 4177.436, 4121.538, 450, 0, []
1627801172.8722, 87, 0, 4120, 4132.308, 4156.923, 4161.538, 4111.795, 16197, 0, []
1627801172.88, 88, 0, 4124.615, 4148.718, 4170.769, 4150.256, 4108.718, 450, 0, []
1627801172.8879, 89, 0, 4136.923, 4193.333, 4130.769, 4158.974, 4116.923, 450, 0, []
1627801172.8957, 90, 0, 4141.538, 4203.59, 4148.205, 4172.821, 4130.256, 450, 0, []
1627801172.9035, 91, 0, 4148.205, 4207.692, 4154.359, 4175.385, 4138.974, 16197, 0, []
1627801172.9113, 92, 0, 4151.282, 4210.769, 4148.205, 4176.923, 4142.564, 450, 0, []
1627801172.9193, 93, 0, 4139.487, 4212.821, 4171.282, 4175.385, 4135.897, 450, 0, []
1627801172.9272, 94, 0, 4132.308, 4225.128, 4146.667, 4166.667, 4124.103, 450, 0, []
1627801172.9352, 95, 0, 4144.103, 4202.051, 4172.821, 4172.821, 4126.667, 16197, 0, []
1627801172.943, 96, 0, 4152.821, 4171.795, 4172.821, 4184.103, 4139.487, 450, 0, []
1627801172.951, 97, 0, 4146.667, 4200, 4141.026, 4177.949, 4134.359, 450, 0, []
1627801172.9589, 98, 0, 4135.385, 4210.769, 4171.282, 4177.436, 4117.436, 450, 0, []
1627801172.9669, 99, 0, 4135.385, 4177.436, 4162.564, 4180, 4121.538, 16197, 0, []
1627801172.9748, 100, 0, 4147.179, 4197.949, 4173.333, 4174.359, 4137.949, 450, 0, []
1627801172.9827, 101, 0, 4155.897, 4225.128, 4175.385, 4178.462, 4143.077, 450, 0, []
1627801172.9906, 102, 0, 4154.872, 4201.538, 4157.949, 4178.462, 4139.487, 450, 0, []
1627801172.9984, 103, 0, 4153.333, 4204.615, 4175.897, 4168.205, 4144.615, 16197, 0, []
1627801173.0063, 104, 0, 4153.846, 4238.462, 4149.231, 4175.385, 4151.795, 450, 0, []
1627801173.0141, 105, 0, 4152.821, 4237.436, 4165.128, 4191.282, 4148.205, 450, 0, []
1627801173.0219, 106, 0, 4159.487, 4220, 4180.513, 4189.744, 4140.513, 450, 0, []
1627801173.0297, 107, 0, 4167.179, 4224.103, 4172.821, 4187.179, 4140, 16197, 0, []
1627801173.0376, 108, 0, 4168.718, 4220.513, 4203.59, 4194.872, 4144.615, 450, 0, []
1627801173.0454, 109, 0, 4177.436, 4207.692, 4160, 4195.897, 4153.846, 450, 0, []
1627801173.0533, 110, 0, 4184.615, 4215.385, 4162.051, 4196.41, 4167.179, 450, 0, []
1627801173.061, 111, 0, 4177.436, 4240, 4201.026, 4201.538, 4168.718, 16197, 0, []
1627801173.0689, 112, 0, 4163.59, 4234.359, 4147.692, 4190.256, 4153.333, 450, 0, []
1627801173.0767, 113, 0, 4166.154, 4204.615, 4157.949, 4183.077, 4148.205, 450, 0, []
1627801173.0847, 114, 0, 4178.462, 4215.385, 4177.436, 4191.795, 4163.59, 450, 0, []
1627801173.0926, 115, 0, 4176.923, 4221.026, 4174.359, 4193.846, 4163.59, 16197, 0, []
1627801173.1005, 116, 0, 4166.154, 4201.538, 4206.154, 4183.077, 4147.692, 450, 0, []
1627801173.1084, 117, 0, 4166.154, 4229.744, 4168.718, 4173.846, 4148.718, 450, 0, []
1627801173.1164, 118, 0, 4173.846, 4265.641, 4163.077, 4180, 4150.256, 450, 0, []
1627801173.1243, 119, 0, 4166.667, 4238.974, 4172.821, 4188.205, 4140, 16197, 0, []
1627801173.1323, 120, 0, 4154.359, 4225.128, 4152.821, 4182.564, 4134.359, 450, 0, []
1627801173.1401, 121, 0, 4160.513, 4270.256, 4185.641, 4181.538, 4141.026, 450, 0, []
1627801173.1481, 122, 0, 4172.308, 4283.077, 4177.436, 4187.179, 4147.179, 450, 0, []
1627801173.156, 123, 0, 4171.795, 4245.641, 4175.897, 4188.205, 4145.128, 16197, 0, []
1627801173.1638, 124, 0, 4165.641, 4246.667, 4182.564, 4188.718, 4139.487, 450, 0, []
1627801173.1717, 125, 0, 4167.692, 4274.872, 4178.974, 4190.769, 4137.949, 450, 0, []
1627801173.1794, 126, 0, 4169.744, 4278.974, 4196.923, 4190.769, 4138.462, 450, 0, []
1627801173.1873, 127, 0, 4167.179, 4295.385, 4170.256, 4186.667, 4135.385, 16197, 0, []
1627801173.1951, 128, 0, 4166.154, 4311.282, 4191.795, 4180.513, 4135.897, 450, 0, []
1627801173.203, 0, 0, 4167.692, 4291.282, 4189.231, 4176.923, 4147.692, 450, 0, []
1627801173.2108, 1, 0, 4169.744, 4281.026, 4156.41, 4178.974, 4152.308, 450, 0, []
1627801173.2186, 2, 0, 4168.205, 4293.333, 4194.359, 4174.872, 4143.59, 16186, 0, []
1627801173.2264, 3, 0, 4166.154, 4300, 4172.308, 4177.436, 4140.513, 450, 0, []
1627801173.2344, 4, 0, 4169.744, 4311.282, 4169.744, 4204.615, 4152.308, 16152, 0, []
1627801173.2423, 5, 0, 4178.974, 4319.487, 4187.692, 4212.308, 4163.077, 450, 0, []
1627801173.2503, 6, 0, 4187.179, 4303.59, 4161.026, 4186.154, 4164.615, 158, 0, []
1627801173.2581, 7, 0, 4188.205, 4305.641, 4184.615, 4174.872, 4162.564, 450, 0, []
1627801173.2661, 8, 0, 4182.564, 4325.641, 4168.205, 4182.564, 4162.051, 450, 0, []
1627801173.274, 9, 0, 4183.077, 4301.538, 4164.615, 4187.179, 4168.205, 16163, 0, []
1627801173.282, 10, 0, 4188.205, 4263.077, 4189.744, 4191.282, 4171.795, 450, 0, []
1627801173.2899, 11, 0, 4182.051, 4259.487, 4164.103, 4195.897, 4164.615, 16197, 0, []
1627801173.2978, 12, 0, 4170.256, 4270.256, 4180, 4192.308, 4151.795, 450, 0, []
1627801173.3057, 13, 0, 4167.692, 4258.974, 4165.128, 4176.923, 4141.026, 450, 0, []
1627801173.3135, 14, 0, 4164.615, 4252.821, 4152.821, 4160.513, 4135.897, 450, 0, []
1627801173.3214, 15, 0, 4154.359, 4275.385, 4181.538, 4158.462, 4131.282, 16197, 0, []
1627801173.3292, 16, 0, 4149.231, 4263.077, 4157.949, 4155.385, 4127.179, 0, 0, []
1627801173.337, 17, 0, 4158.974, 4243.59, 4189.231, 4162.051, 4140, 0, 0, []
1627801173.3448, 18, 0, 4182.051, 4265.641, 4201.026, 4193.846, 4163.59, 0, 0, []
1627801173.3527, 19, 0, 4199.487, 4274.872, 4175.897, 4224.103, 4174.359, 0, 0, []
1627801173.3605, 20, 0, 4195.385, 4264.103, 4185.641, 4228.718, 4172.821, 0, 0, []
1627801173.3684, 21, 0, 4178.462, 4283.59, 4154.359, 4203.59, 4166.667, 0, 0, []
1627801173.3761, 22, 0, 4169.231, 4303.077, 4173.846, 4171.282, 4156.923, 0, 0, []
1627801173.3841, 23, 0, 4166.667, 4278.462, 4175.385, 4161.026, 4148.718, 0, 0, []
1627801173.392, 24, 0, 4164.103, 4272.821, 4154.359, 4177.949, 4147.179, 0, 0, []
1627801173.4, 25, 0, 4175.897, 4290.256, 4191.795, 4203.59, 4158.462, 0, 0, []
1627801173.4079, 26, 0, 4184.615, 4268.718, 4173.333, 4215.385, 4170.769, 0, 0, []
1627801173.4158, 27, 0, 4177.949, 4250.769, 4180.513, 4213.333, 4165.641, 0, 0, []
1627801173.4237, 28, 0, 4167.179, 4277.436, 4174.359, 4190.769, 4148.205, 0, 0, []
1627801173.4317, 29, 0, 4157.436, 4280, 4147.179, 4154.872, 4135.897, 0, 0, []
1627801173.4396, 30, 0, 4149.231, 4254.359, 4182.051, 4139.487, 4135.897, 0, 0, []
1627801173.4476, 31, 0, 4160.513, 4284.615, 4171.795, 4157.949, 4147.692, 0, 0, []
1627801173.4554, 32, 0, 4180.513, 4320.513, 4193.333, 4188.718, 4164.615, 0, 0, []
1627801173.4634, 33, 0, 4176.41, 4291.795, 4187.692, 4195.897, 4166.154, 0, 0, []
1627801173.4713, 34, 0, 4158.462, 4270.769, 4149.744, 4183.077, 4148.718, 0, 0, []
1627801173.4791, 35, 0, 4161.026, 4302.051, 4188.718, 4182.051, 4145.128, 0, 0, []
1627801173.487, 36, 0, 4171.795, 4315.385, 4163.59, 4178.462, 4150.256, 0, 0, []
1627801173.4947, 37, 0, 4171.795, 4281.026, 4172.821, 4169.744, 4145.641, 0, 0, []
1627801173.5026, 38, 0, 4169.231, 4253.846, 4202.051, 4172.821, 4144.615, 0, 0, []
1627801173.5104, 39, 0, 4171.282, 4254.359, 4178.974, 4179.487, 4151.282, 0, 0, []
1627801173.5183, 40, 0, 4176.41, 4250.769, 4207.179, 4192.308, 4155.897, 0, 0, []
1627801173.5261, 41, 0, 4183.59, 4230.256, 4178.974, 4199.487, 4161.538, 0, 0, []
1627801173.5339, 42, 0, 4182.564, 4235.385, 4170.256, 4183.077, 4170.769, 0, 0, []
1627801173.5417, 43, 0, 4172.821, 4287.179, 4186.667, 4161.026, 4168.205, 0, 0, []
1627801173.5497, 44, 0, 4175.385, 4304.103, 4161.538, 4168.205, 4166.667, 0, 0, []
1627801173.5576, 45, 0, 4190.256, 4263.077, 4193.846, 4191.282, 4176.923, 0, 0, []
1627801173.5656, 46, 0, 4183.59, 4254.872, 4161.026, 4185.128, 4171.282, 0, 0, []
1627801173.5734, 47, 0, 4164.615, 4284.103, 4142.051, 4168.718, 4154.872, 0, 0, []
1627801173.5814, 48, 0, 4174.872, 4296.41, 4187.692, 4180.513, 4164.615, 0, 0, []
1627801173.5893, 49, 0, 4196.923, 4286.154, 4174.872, 4195.897, 4183.59, 0, 0, []
1627801173.5973, 50, 0, 4195.385, 4276.923, 4191.795, 4189.231, 4179.487, 0, 0, []
1627801173.6052, 51, 0, 4182.564, 4272.308, 4172.821, 4174.872, 4164.615, 0, 0, []
1627801173.6132, 52, 0, 4180.513, 4265.641, 4168.205, 4177.949, 4163.077, 0, 0, []
1627801173.621, 53, 0, 4177.949, 4258.974, 4201.026, 4188.205, 4164.103, 0, 0, []
1627801173.6288, 54, 0, 4177.949, 4253.846, 4162.051, 4178.974, 4166.154, 0, 0, []
1627801173.6367, 55, 0, 4193.333, 4248.718, 4189.231, 4182.564, 4180.513, 0, 0, []
1627801173.6445, 56, 0, 4203.59, 4250.256, 4193.333, 4205.641, 4190.769, 0, 0, []
1627801173.6524, 57, 0, 4202.564, 4280, 4170.769, 4209.231, 4188.205, 0, 0, []
1627801173.6601, 58, 0, 4202.051, 4293.333, 4200, 4197.949, 4186.154, 0, 0, []
1627801173.668, 59, 0, 4195.385, 4263.59, 4162.051, 4189.744, 4183.077, 0, 0, []
1627801173.6758, 60, 0, 4177.949, 4253.333, 4167.179, 4179.487, 4173.333, 0, 0, []
1627801173.6837, 61, 0, 4169.744, 4258.462, 4172.821, 4170.256, 4164.103, 0, 0, []
1627801173.6915, 62, 0, 4178.462, 4242.051, 4158.974, 4180.513, 4165.641, 0, 0, []
1627801173.6994, 63, 0, 4187.692, 4244.615, 4194.359, 4201.026, 4178.974, 0, 0, []
1627801173.7073, 64, 0, 4188.205, 4268.205, 4161.026, 4203.077, 4186.667, 450, 0, []
1627801173.7153, 65, 0, 4181.538, 4246.154, 4166.667, 4191.795, 4176.923, 450, 0, []
1627801173.7232, 66, 0, 4185.641, 4227.692, 4172.821, 4188.205, 4175.897, 16186, 0, []
1627801173.7312, 67, 0, 4194.359, 4258.974, 4149.744, 4189.744, 4188.718, 450, 0, []
1627801173.739, 68, 0, 4190.256, 4264.615, 4183.077, 4183.077, 4189.231, 16150, 0, []
1627801173.747, 69, 0, 4188.205, 4249.231, 4150.256, 4178.974, 4181.538, 450, 0, []
1627801173.7549, 70, 0, 4194.359, 4269.231, 4161.026, 4191.282, 4183.59, 155, 0, []
1627801173.7629, 71, 0, 4197.949, 4275.385, 4185.641, 4199.487, 4189.744, 450, 0, []
1627801173.7708, 72, 0, 4195.897, 4252.821, 4157.949, 4192.821, 4189.231, 450, 0, []
1627801173.7785, 73, 0, 4201.026, 4267.179, 4190.256, 4196.923, 4192.821, 16156, 0, []
1627801173.7864, 74, 0, 4212.821, 4296.923, 4168.718, 4208.205, 4206.667, 450, 0, []
1627801173.7942, 75, 0, 4220, 4298.462, 4177.436, 4213.333, 4213.333, 16197, 0, []
1627801173.8021, 76, 0, 4223.59, 4281.538, 4205.128, 4212.308, 4211.282, 450, 0, []
1627801173.8099, 77, 0, 4224.103, 4263.077, 4169.744, 4204.103, 4208.718, 450, 0, []
1627801173.8177, 78, 0, 4218.974, 4267.179, 4190.256, 4197.949, 4207.179, 450, 0, []
1627801173.8255, 79, 0, 4204.615, 4281.538, 4162.564, 4195.385, 4200, 16197, 0, []
1627801173.8334, 80, 0, 4196.41, 4275.385, 4160, 4192.821, 4189.744, 450, 0, []
1627801173.8412, 81, 0, 4201.026, 4257.436, 4194.359, 4189.231, 4189.231, 450, 0, []
1627801173.8492, 82, 0, 4203.59, 4260, 4152.821, 4188.205, 4193.846, 450, 0, []
1627801173.857, 83, 0, 4201.026, 4291.795, 4176.41, 4195.385, 4191.795, 16197, 0, []
1627801173.865, 84, 0, 4196.41, 4305.641, 4174.359, 4201.538, 4182.051, 450, 0, []
1627801173.8729, 85, 0, 4195.897, 4283.59, 4164.103, 4204.103, 4185.128, 450, 0, []
1627801173.8809, 86, 0, 4195.385, 4277.436, 4188.718, 4200, 4190.769, 450, 0, []
1627801173.8888, 87, 0, 4186.667, 4283.077, 4145.641, 4186.154, 4182.564, 16197, 0, []
1627801173.8967, 88, 0, 4180, 4277.949, 4165.128, 4183.59, 4180, 450, 0, []
1627801173.9046, 89, 0, 4188.718, 4303.077, 4169.231, 4194.359, 4188.718, 450, 0, []
1627801173.9126, 90, 0, 4201.026, 4330.769, 4158.974, 4197.949, 4198.462, 450, 0, []
1627801173.9205, 91, 0, 4205.128, 4309.231, 4192.308, 4194.872, 4203.077, 16197, 0, []
1627801173.9285, 92, 0, 4201.026, 4289.231, 4158.462, 4189.744, 4194.359, 450, 0, []
1627801173.9363, 93, 0, 4192.821, 4296.41, 4177.949, 4192.821, 4180.513, 450, 0, []
1627801173.9441, 94, 0, 4186.154, 4286.154, 4175.385, 4193.333, 4174.359, 450, 0, []
1627801173.952, 95, 0, 4185.128, 4284.615, 4150.256, 4179.487, 4173.846, 16197, 0, []
1627801173.9598, 96, 0, 4187.692, 4316.41, 4185.641, 4182.564, 4177.949, 450, 0, []
1627801173.9677, 97, 0, 4189.744, 4317.949, 4154.359, 4200.513, 4189.744, 450, 0, []
1627801173.9754, 98, 0, 4202.564, 4291.282, 4177.436, 4202.564, 4201.538, 450, 0, []
1627801173.9834, 99, 0, 4211.795, 4305.641, 4184.103, 4192.308, 4204.615, 16197, 0, []
1627801173.9913, 100, 0, 4205.128, 4334.359, 4140, 4186.667, 4198.462, 450, 0, []
1627801173.9992, 101, 0, 4197.949, 4340, 4173.333, 4186.154, 4187.179, 450, 0, []
1627801174.007, 102, 0, 4199.487, 4346.667, 4153.333, 4190.769, 4185.128, 450, 0, []
1627801174.0149, 103, 0, 4207.179, 4353.333, 4168.718, 4203.59, 4201.026, 16197, 0, []
1627801174.0228, 104, 0, 4217.949, 4353.846, 4193.333, 4211.282, 4216.923, 450, 0, []
1627801174.0308, 105, 0, 4223.59, 4357.436, 4164.615, 4202.051, 4217.436, 450, 0, []
1627801174.0387, 106, 0, 4211.282, 4356.923, 4190.256, 4179.487, 4201.538, 450, 0, []
1627801174.0467, 107, 0, 4195.897, 4333.333, 4159.487, 4164.615, 4183.077, 16197, 0, []
1627801174.0545, 108, 0, 4195.385, 4329.231, 4155.385, 4177.436, 4181.026, 450, 0, []
1627801174.0625, 109, 0, 4201.538, 4330.256, 4181.538, 4200.513, 4192.821, 450, 0, []
1627801174.0704, 110, 0, 4200, 4300, 4156.923, 4206.154, 4194.872, 450, 0, []
1627801174.0784, 111, 0, 4193.846, 4303.59, 4186.667, 4199.487, 4187.692, 16197, 0, []
1627801174.0863, 112, 0, 4191.795, 4333.846, 4164.615, 4185.641, 4188.718, 450, 0, []
1627801174.094, 113, 0, 4198.462, 4319.487, 4158.974, 4178.974, 4197.436, 450, 0, []
1627801174.1019, 114, 0, 4210.256, 4304.103, 4189.744, 4188.718, 4204.103, 450, 0, []
1627801174.1097, 115, 0, 4212.308, 4340.513, 4156.923, 4189.231, 4206.154, 16197, 0, []
1627801174.1176, 116, 0, 4206.154, 4344.615, 4181.026, 4182.564, 4202.564, 450, 0, []
1627801174.1254, 117, 0, 4200, 4301.026, 4164.103, 4180, 4190.256, 450, 0, []
1627801174.1332, 118, 0, 4194.359, 4304.103, 4149.744, 4184.103, 4180.513, 450, 0, []
1627801174.141, 119, 0, 4195.897, 4335.897, 4191.795, 4200, 4189.231, 16197, 0, []
1627801174.1489, 120, 0, 4198.462, 4314.872, 4163.077, 4197.949, 4197.949, 450, 0, []
1627801174.1567, 121, 0, 4200, 4282.564, 4187.179, 4182.564, 4192.308, 450, 0, []
1627801174.1647, 122, 0, 4205.641, 4306.154, 4192.308, 4187.692, 4190.256, 450, 0, []
1627801174.1725, 123, 0, 4216.41, 4331.795, 4178.462, 4202.051, 4198.974, 16197, 0, []
1627801174.1805, 124, 0, 4228.205, 4335.897, 4213.846, 4200.513, 4208.205, 450, 0, []
1627801174.1884, 125, 0, 4235.385, 4351.795, 4186.667, 4197.949, 4213.846, 450, 0, []
1627801174.1964, 126, 0, 4238.462, 4366.667, 4203.077, 4211.282, 4220.513, 450, 0, []
1627801174.2043, 127, 0, 4232.308, 4365.641, 4195.897, 4215.897, 4223.59, 16197, 0, []
1627801174.2122, 128, 0, 4220.513, 4361.538, 4169.744, 4204.103, 4213.333, 450, 0, []
1627801174.2201, 0, 0, 4212.821, 4358.462, 4211.282, 4198.974, 4203.077, 450, 0, []
1627801174.2281, 1, 0, 4212.821, 4386.667, 4185.128, 4200, 4205.641, 450, 0, []
1627801174.236, 2, 0, 4217.436, 4424.103, 4200.513, 4205.641, 4212.308, 16186, 0, []
1627801174.2438, 3, 0, 4220.513, 4405.128, 4200.513, 4209.231, 4211.795, 450, 0, []
1627801174.2516, 4, 0, 4220.513, 4383.077, 4164.615, 4206.667, 4213.333, 16143, 0, []
1627801174.2594, 5, 0, 4219.487, 4401.026, 4207.179, 4212.308, 4215.897, 450, 0, []
1627801174.2673, 6, 0, 4215.897, 4405.641, 4176.41, 4210.256, 4207.179, 156, 0, []
1627801174.2751, 7, 0, 4204.615, 4390.256, 4165.128, 4189.744, 4194.359, 450, 0, []
1627801174.283, 8, 0, 4196.41, 4388.205, 4172.308, 4181.026, 4193.846, 450, 0, []
1627801174.2907, 9, 0, 4196.923, 4405.128, 4153.333, 4192.821, 4194.359, 16156, 0, []
1627801174.2986, 10, 0, 4197.949, 4401.026, 4204.615, 4195.897, 4192.821, 450, 0, []
1627801174.3064, 11, 0, 4205.641, 4366.154, 4187.179, 4195.385, 4203.59, 16197, 0, []
1627801174.3143, 12, 0, 4217.949, 4358.462, 4191.282, 4213.846, 4215.897, 450, 0, []
1627801174.3221, 13, 0, 4218.462, 4387.692, 4212.821, 4216.41, 4209.231, 450, 0, []
1627801174.3301, 14, 0, 4208.718, 4368.205, 4178.974, 4197.949, 4195.385, 450, 0, []
1627801174.3379, 15, 0, 4209.744, 4324.103, 4213.846, 4203.077, 4203.077, 16197, 0, []
1627801174.3459, 16, 0, 4225.128, 4344.103, 4194.872, 4217.949, 4223.59, 0, 0, []
1627801174.3538, 17, 0, 4240, 4355.897, 4190.769, 4217.949, 4235.385, 0, 0, []
1627801174.3618, 18, 0, 4233.333, 4315.897, 4218.974, 4211.795, 4231.282, 0, 0, []
1627801174.3697, 19, 0, 4215.385, 4302.564, 4176.923, 4202.051, 4218.462, 0, 0, []
1627801174.3776, 20, 0, 4215.385, 4317.949, 4203.077, 4202.564, 4215.897, 0, 0, []
1627801174.3855, 21, 0, 4220, 4320.513, 4190.769, 4209.744, 4216.923, 0, 0, []
1627801174.3933, 22, 0, 4211.795, 4322.564, 4162.564, 4206.154, 4211.282, 0, 0, []
1627801174.4012, 23, 0, 4207.179, 4326.154, 4187.692, 4204.103, 4211.795, 0, 0, []
1627801174.409, 24, 0, 4213.846, 4323.59, 4164.103, 4208.205, 4221.026, 0, 0, []
1627801174.4168, 25, 0, 4216.41, 4338.974, 4191.282, 4213.846, 4222.564, 0, 0, []
1627801174.4248, 26, 0, 4213.333, 4363.077, 4183.077, 4211.282, 4212.821, 0, 0, []
1627801174.4327, 27, 0, 4215.385, 4367.179, 4165.641, 4209.744, 4209.744, 0, 0, []
1627801174.4405, 28, 0, 4221.538, 4368.205, 4210.256, 4215.385, 4215.385, 0, 0, []
1627801174.4484, 29, 0, 4213.846, 4378.974, 4185.128, 4205.128, 4210.769, 0, 0, []
1627801174.4561, 30, 0, 4200, 4377.949, 4197.436, 4192.308, 4200.513, 0, 0, []
1627801174.464, 31, 0, 4208.718, 4360.513, 4201.026, 4202.051, 4207.692, 0, 0, []
1627801174.4718, 32, 0, 4222.564, 4355.385, 4185.641, 4216.41, 4221.538, 0, 0, []
1627801174.4797, 33, 0, 4211.282, 4355.385, 4213.333, 4209.231, 4219.487, 0, 0, []
1627801174.4876, 34, 0, 4200.513, 4341.538, 4174.872, 4193.846, 4207.179, 0, 0, []
1627801174.4954, 35, 0, 4211.282, 4327.179, 4198.462, 4199.487, 4204.103, 0, 0, []
1627801174.5033, 36, 0, 4218.462, 4331.282, 4207.179, 4212.308, 4211.795, 0, 0, []
1627801174.5113, 37, 0, 4214.872, 4330.769, 4167.179, 4207.179, 4212.308, 0, 0, []
1627801174.5193, 38, 0, 4215.897, 4315.897, 4204.615, 4192.821, 4205.641, 0, 0, []
1627801174.5272, 39, 0, 4216.923, 4312.308, 4180.513, 4188.205, 4201.538, 0, 0, []
1627801174.535, 40, 0, 4215.897, 4322.051, 4185.641, 4189.231, 4206.154, 0, 0, []
1627801174.543, 41, 0, 4217.436, 4312.821, 4194.359, 4183.59, 4212.308, 0, 0, []
1627801174.5509, 42, 0, 4212.308, 4285.128, 4158.974, 4182.564, 4210.769, 0, 0, []
1627801174.5587, 43, 0, 4204.615, 4285.641, 4198.974, 4193.846, 4205.641, 0, 0, []
1627801174.5666, 44, 0, 4201.026, 4316.923, 4175.385, 4187.692, 4200.513, 0, 0, []
1627801174.5743, 45, 0, 4199.487, 4321.538, 4179.487, 4175.385, 4196.41, 0, 0, []
1627801174.5822, 46, 0, 4204.615, 4296.923, 4203.59, 4185.128, 4195.897, 0, 0, []
1627801174.59, 47, 0, 4212.308, 4285.128, 4164.615, 4191.795, 4197.949, 0, 0, []
1627801174.5979, 48, 0, 4218.974, 4292.308, 4201.538, 4190.256, 4203.59, 0, 0, []
1627801174.6057, 49, 0, 4222.051, 4307.179, 4187.179, 4192.821, 4208.205, 0, 0, []
1627801174.6135, 50, 0, 4224.103, 4311.795, 4172.821, 4193.333, 4212.821, 0, 0, []
1627801174.6213, 51, 0, 4230.769, 4290.256, 4200, 4190.256, 4218.462, 0, 0, []
1627801174.6293, 52, 0, 4228.718, 4266.667, 4168.205, 4187.692, 4214.359, 0, 0, []
1627801174.6372, 53, 0, 4210.769, 4282.051, 4191.282, 4189.744, 4196.923, 0, 0, []
1627801174.6452, 54, 0, 4194.872, 4323.077, 4178.974, 4187.179, 4188.205, 0, 0, []
1627801174.653, 55, 0, 4200.513, 4350.256, 4159.487, 4182.564, 4197.949, 0, 0, []
1627801174.661, 56, 0, 4212.308, 4342.564, 4183.59, 4187.179, 4205.641, 0, 0, []
1627801174.6689, 57, 0, 4214.872, 4322.564, 4162.051, 4194.359, 4208.205, 0, 0, []
1627801174.6769, 58, 0, 4215.385, 4335.897, 4193.846, 4200, 4213.846, 0, 0, []
1627801174.6848, 59, 0, 4216.923, 4344.103, 4181.538, 4199.487, 4210.256, 0, 0, []
1627801174.6927, 60, 0, 4214.359, 4327.692, 4157.436, 4192.821, 4203.59, 0, 0, []
1627801174.7006, 61, 0, 4205.128, 4324.103, 4186.154, 4187.179, 4202.051, 0, 0, []
1627801174.7086, 62, 0, 4201.026, 4313.333, 4150.256, 4183.077, 4200, 0, 0, []
1627801174.7165, 63, 0, 4205.641, 4291.795, 4174.872, 4185.128, 4201.538, 0, 0, []
1627801174.7243, 64, 0, 4204.615, 4300, 4183.59, 4181.538, 4196.41, 450, 0, []
1627801174.7321, 65, 0, 4199.487, 4308.205, 4162.051, 4173.846, 4188.205, 450, 0, []
1627801174.7399, 66, 0, 4201.026, 4310.256, 4197.949, 4177.949, 4188.205, 16186, 0, []
1627801174.7478, 67, 0, 4204.103, 4325.128, 4160.513, 4178.462, 4187.692, 450, 0, []
1627801174.7556, 68, 0, 4202.051, 4301.026, 4171.795, 4173.333, 4182.564, 16143, 0, []
1627801174.7635, 69, 0, 4201.538, 4270.769, 4185.641, 4171.795, 4182.564, 450, 0, []
1627801174.7712, 70, 0, 4196.41, 4288.205, 4152.308, 4166.154, 4185.128, 154, 0, []
1627801174.7791, 71, 0, 4188.205, 4283.59, 4180, 4165.128, 4183.077, 450, 0, []
1627801174.7869, 72, 0, 4196.923, 4253.846, 4158.462, 4180.513, 4188.718, 450, 0, []
1627801174.7949, 73, 0, 4216.923, 4277.949, 4175.385, 4199.487, 4200.513, 16152, 0, []
1627801174.8028, 74, 0, 4220.513, 4307.179, 4183.077, 4192.821, 4202.564, 450, 0, []
1627801174.8107, 75, 0, 4205.641, 4274.359, 4148.718, 4176.923, 4199.487, 16197, 0, []
1627801174.8186, 76, 0, 4203.077, 4261.538, 4197.436, 4186.154, 4201.538, 450, 0, []
1627801174.8266, 77, 0, 4210.769, 4276.923, 4171.282, 4188.718, 4200.513, 450, 0, []
1627801174.8345, 78, 0, 4207.179, 4266.667, 4163.077, 4168.718, 4196.923, 450, 0, []
1627801174.8425, 79, 0, 4208.718, 4277.436, 4185.641, 4172.308, 4208.205, 16197, 0, []
1627801174.8503, 80, 0, 4215.897, 4308.718, 4152.821, 4193.846, 4216.41, 450, 0, []
1627801174.8583, 81, 0, 4205.641, 4288.205, 4182.051, 4191.282, 4205.641, 450, 0, []
1627801174.8662, 82, 0, 4201.026, 4240.513, 4158.462, 4172.308, 4196.41, 450, 0, []
1627801174.874, 83, 0, 4216.41, 4243.077, 4161.026, 4176.41, 4202.051, 16197, 0, []
1627801174.8819, 84, 0, 4213.333, 4263.077, 4198.974, 4183.59, 4205.128, 450, 0, []
1627801174.8896, 85, 0, 4194.359, 4261.026, 4153.333, 4169.744, 4192.308, 450, 0, []
1627801174.8975, 86, 0, 4195.385, 4267.692, 4170.769, 4166.154, 4186.154, 450, 0, []
1627801174.9053, 87, 0, 4207.179, 4277.949, 4166.667, 4177.436, 4197.436, 16197, 0, []
1627801174.9132, 88, 0, 4212.308, 4283.077, 4167.179, 4184.103, 4208.205, 450, 0, []
1627801174.921, 89, 0, 4216.923, 4298.462, 4201.026, 4186.154, 4211.795, 450, 0, []
1627801174.9288, 90, 0, 4218.974, 4301.538, 4160, 4184.103, 4212.308, 450, 0, []
1627801174.9366, 91, 0, 4215.385, 4267.692, 4181.538, 4184.103, 4206.667, 16197, 0, []
1627801174.9446, 92, 0, 4207.692, 4252.821, 4182.051, 4182.564, 4198.974, 450, 0, []
1627801174.9525, 93, 0, 4202.564, 4286.154, 4164.103, 4179.487, 4200.513, 450, 0, []
1627801174.9605, 94, 0, 4202.051, 4295.897, 4191.795, 4180.513, 4204.103, 450, 0, []
1627801174.9683, 95, 0, 4197.436, 4271.795, 4158.462, 4180.513, 4200.513, 16197, 0, []
1627801174.9763, 96, 0, 4189.231, 4271.795, 4173.846, 4177.949, 4192.308, 450, 0, []
1627801174.9842, 97, 0, 4184.615, 4284.615, 4163.59, 4164.615, 4184.103, 450, 0, []
1627801174.9922, 98, 0, 4185.128, 4270.769, 4134.872, 4152.821, 4182.051, 450, 0, []
1627801175.0001, 99, 0, 4189.231, 4250.769, 4174.359, 4164.103, 4189.231, 16197, 0, []
1627801175.008, 100, 0, 4187.179, 4265.128, 4145.641, 4171.795, 4187.179, 450, 0, []
1627801175.0159, 101, 0, 4181.538, 4276.41, 4159.487, 4166.667, 4174.872, 450, 0, []
1627801175.0239, 102, 0, 4184.103, 4258.974, 4180, 4171.282, 4174.359, 450, 0, []
1627801175.0318, 103, 0, 4186.667, 4252.821, 4160.513, 4180, 4183.077, 16197, 0, []
1627801175.0396, 104, 0, 4187.692, 4255.385, 4192.821, 4176.41, 4186.667, 450, 0, []
1627801175.0474, 105, 0, 4193.333, 4255.385, 4161.026, 4162.051, 4188.205, 450, 0, []
1627801175.0552, 106, 0, 4193.846, 4259.487, 4158.462, 4157.436, 4190.256, 450, 0, []
1627801175.0631, 107, 0, 4186.667, 4250.256, 4163.077, 4165.641, 4186.667, 16197, 0, []
1627801175.0709, 108, 0, 4188.718, 4231.795, 4134.872, 4174.359, 4184.615, 450, 0, []
1627801175.0788, 109, 0, 4198.462, 4242.051, 4178.974, 4180, 4191.282, 450, 0, []
1627801175.0866, 110, 0, 4199.487, 4247.692, 4151.795, 4173.333, 4192.821, 450, 0, []
1627801175.0945, 111, 0, 4198.974, 4230.256, 4149.744, 4161.538, 4189.231, 16197, 0, []
1627801175.1024, 112, 0, 4199.487, 4225.641, 4172.308, 4156.923, 4189.744, 450, 0, []
1627801175.1104, 113, 0, 4198.974, 4205.641, 4147.692, 4157.949, 4196.41, 450, 0, []
1627801175.1183, 114, 0, 4212.308, 4191.282, 4194.872, 4162.564, 4207.179, 450, 0, []
1627801175.1263, 115, 0, 4222.051, 4228.718, 4165.128, 4167.179, 4209.231, 16197, 0, []
1627801175.1341, 116, 0, 4212.308, 4275.385, 4144.103, 4165.128, 4197.436, 450, 0, []
1627801175.1421, 117, 0, 4201.026, 4308.205, 4167.692, 4156.923, 4184.615, 450, 0, []
1627801175.15, 118, 0, 4197.436, 4320.513, 4122.051, 4152.821, 4184.615, 450, 0, []
1627801175.158, 119, 0, 4188.718, 4313.333, 4145.641, 4156.923, 4188.718, 16197, 0, []
1627801175.1659, 120, 0, 4184.615, 4329.231, 4141.026, 4152.821, 4184.103, 450, 0, []
1627801175.1738, 121, 0, 4193.846, 4341.026, 4139.487, 4151.282, 4183.59, 450, 0, []
1627801175.1817, 122, 0, 4203.077, 4316.923, 4173.333, 4168.718, 4196.41, 450, 0, []
1627801175.1895, 123, 0, 4201.026, 4313.333, 4132.821, 4176.923, 4201.026, 16197, 0, []
1627801175.1974, 124, 0, 4198.462, 4341.538, 4160, 4181.026, 4198.462, 450, 0, []
1627801175.2052, 125, 0, 4207.692, 4356.41, 4165.641, 4191.795, 4207.179, 450, 0, []
1627801175.213, 126, 0, 4212.821, 4373.333, 4152.821, 4181.538, 4211.795, 450, 0, []
1627801175.2208, 127, 0, 4213.846, 4390.769, 4190.769, 4168.718, 4207.179, 16197, 0, []
1627801175.2287, 128, 0, 4223.077, 4382.051, 4162.051, 4176.41, 4211.795, 450, 0, []
1627801175.2365, 0, 0, 4236.41, 4393.846, 4187.692, 4188.718, 4224.103, 450, 0, []
1627801175.2444, 1, 0, 4236.923, 4432.308, 4199.487, 4184.615, 4218.974, 450, 0, []
1627801175.2521, 2, 0, 4222.564, 4449.231, 4170.256, 4172.308, 4200.513, 16186, 0, []
1627801175.2601, 3, 0, 4217.949, 4451.282, 4198.462, 4171.795, 4196.923, 450, 0, []
1627801175.268, 4, 0, 4224.103, 4457.949, 4176.923, 4173.846, 4202.564, 16144, 0, []
1627801175.276, 5, 0, 4219.487, 4465.641, 4184.615, 4172.821, 4199.487, 450, 0, []
1627801175.2839, 6, 0, 4206.667, 4472.308, 4180, 4167.692, 4191.795, 168, 0, []
1627801175.2918, 7, 0, 4204.615, 4493.333, 4151.795, 4162.051, 4189.744, 450, 0, []
1627801175.2997, 8, 0, 4211.282, 4507.692, 4184.615, 4171.282, 4194.872, 450, 0, []
1627801175.3077, 9, 0, 4211.795, 4483.077, 4152.308, 4182.564, 4200, 16152, 0, []
1627801175.3156, 10, 0, 4214.872, 4449.744, 4165.128, 4188.205, 4201.026, 450, 0, []
1627801175.3236, 11, 0, 4216.923, 4469.231, 4188.718, 4187.179, 4202.564, 16195, 0, []
1627801175.3314, 12, 0, 4216.41, 4499.487, 4156.923, 4184.615, 4208.718, 450, 0, []
1627801175.3392, 13, 0, 4219.487, 4473.846, 4188.205, 4180.513, 4209.231, 450, 0, []
1627801175.3471, 14, 0, 4214.359, 4448.718, 4161.538, 4169.231, 4199.487, 450, 0, []
1627801175.3549, 15, 0, 4206.154, 4451.282, 4162.564, 4171.795, 4197.436, 16195, 0, []
1627801175.3628, 16, 0, 4207.179, 4456.41, 4189.231, 4177.949, 4202.564, 0, 0, []
1627801175.3705, 17, 0, 4208.205, 4451.282, 4151.282, 4170.256, 4202.051, 0, 0, []
1627801175.3784, 18, 0, 4208.718, 4432.821, 4174.872, 4168.205, 4202.051, 0, 0, []
1627801175.3862, 19, 0, 4214.359, 4424.615, 4161.026, 4172.821, 4206.667, 0, 0, []
1627801175.3941, 20, 0, 4209.744, 4436.41, 4164.615, 4171.282, 4207.179, 0, 0, []
1627801175.4019, 21, 0, 4196.923, 4449.744, 4182.051, 4166.667, 4198.974, 0, 0, []
1627801175.4098, 22, 0, 4203.077, 4468.205, 4141.026, 4168.205, 4193.846, 0, 0, []
1627801175.4177, 23, 0, 4215.897, 4484.103, 4184.615, 4173.846, 4201.538, 0, 0, []
1627801175.4257, 24, 0, 4212.821, 4454.359, 4171.795, 4171.282, 4200, 0, 0, []
1627801175.4336, 25, 0, 4209.744, 4420.513, 4159.487, 4168.205, 4187.179, 0, 0, []
1627801175.4416, 26, 0, 4214.872, 4448.718, 4200.513, 4171.795, 4195.897, 0, 0, []
1627801175.4494, 27, 0, 4216.923, 4480, 4166.154, 4166.667, 4216.41, 0, 0, []
1627801175.4574, 28, 0, 4217.436, 4455.385, 4194.359, 4168.718, 4219.487, 0, 0, []
1627801175.4653, 29, 0, 4220, 4425.128, 4187.692, 4187.692, 4220, 0, 0, []
1627801175.4733, 30, 0, 4217.436, 4430.769, 4161.538, 4194.872, 4222.564, 0, 0, []
1627801175.4812, 31, 0, 4217.949, 4421.026, 4193.333, 4184.615, 4221.538, 0, 0, []
1627801175.489, 32, 0, 4224.615, 4400.513, 4153.333, 4182.051, 4225.128, 0, 0, []
1627801175.4969, 33, 0, 4224.615, 4414.872, 4162.564, 4191.795, 4228.205, 0, 0, []
1627801175.5047, 34, 0, 4214.359, 4410.256, 4166.154, 4187.692, 4216.41, 0, 0, []
1627801175.5126, 35, 0, 4208.718, 4373.846, 4148.205, 4177.436, 4214.359, 0, 0, []
1627801175.5204, 36, 0, 4216.41, 4377.436, 4186.154, 4181.026, 4229.231, 0, 0, []
1627801175.5282, 37, 0, 4213.846, 4393.846, 4152.308, 4183.59, 4223.077, 0, 0, []
1627801175.536, 38, 0, 4203.077, 4383.077, 4159.487, 4185.128, 4205.128, 0, 0, []
1627801175.5439, 39, 0, 4210.256, 4398.974, 4178.974, 4194.872, 4209.231, 0, 0, []
1627801175.5517, 40, 0, 4220, 4426.667, 4161.538, 4197.949, 4219.487, 0, 0, []
1627801175.5597, 41, 0, 4210.256, 4404.615, 4192.308, 4188.205, 4208.718, 0, 0, []
1627801175.5675, 42, 0, 4204.615, 4377.436, 4165.128, 4182.564, 4196.41, 0, 0, []
1627801175.5755, 43, 0, 4217.436, 4390.256, 4178.974, 4195.385, 4203.59, 0, 0, []
1627801175.5834, 44, 0, 4220.513, 4408.718, 4194.872, 4201.026, 4208.718, 0, 0, []
1627801175.5914, 45, 0, 4210.256, 4398.974, 4153.333, 4183.077, 4196.923, 0, 0, []
1627801175.5993, 46, 0, 4203.077, 4376.41, 4177.436, 4172.821, 4187.179, 0, 0, []
1627801175.6072, 47, 0, 4198.974, 4369.231, 4156.923, 4169.744, 4187.692, 0, 0, []
1627801175.6151, 48, 0, 4196.41, 4369.231, 4158.462, 4162.051, 4188.205, 0, 0, []
1627801175.6231, 49, 0, 4200.513, 4365.128, 4177.949, 4170.256, 4189.744, 0, 0, []
1627801175.631, 50, 0, 4205.641, 4353.846, 4148.205, 4187.692, 4197.949, 0, 0, []
1627801175.6388, 51, 0, 4206.667, 4345.128, 4181.026, 4192.821, 4205.641, 0, 0, []
1627801175.6466, 52, 0, 4210.256, 4324.615, 4159.487, 4191.795, 4207.692, 0, 0, []
1627801175.6544, 53, 0, 4215.385, 4301.026, 4156.41, 4194.872, 4203.59, 0, 0, []
1627801175.6623, 54, 0, 4220, 4296.923, 4190.256, 4196.923, 4202.564, 0, 0, []
1627801175.6701, 55, 0, 4222.564, 4280, 4155.897, 4197.949, 4203.59, 0, 0, []
1627801175.678, 56, 0, 4219.487, 4262.051, 4183.077, 4198.974, 4196.923, 0, 0, []
1627801175.6857, 57, 0, 4214.872, 4263.077, 4172.821, 4190.769, 4190.769, 0, 0, []
1627801175.6936, 58, 0, 4216.41, 4260, 4169.744, 4185.128, 4195.385, 0, 0, []
1627801175.7014, 59, 0, 4220.513, 4234.359, 4206.154, 4187.179, 4205.128, 0, 0, []
1627801175.7093, 60, 0, 4222.564, 4222.564, 4165.641, 4190.256, 4211.795, 0, 0, []
1627801175.7171, 61, 0, 4222.051, 4239.487, 4183.59, 4191.795, 4208.205, 0, 0, []
1627801175.725, 62, 0, 4214.359, 4241.026, 4172.821, 4180.513, 4198.462, 0, 0, []
1627801175.7329, 63, 0, 4212.308, 4237.436, 4162.564, 4176.923, 4205.128, 0, 0, []
1627801175.7409, 64, 0, 4223.077, 4257.436, 4196.923, 4196.41, 4219.487, 450, 0, []
1627801175.7488, 65, 0, 4229.744, 4268.205, 4153.333, 4204.615, 4217.949, 450, 0, []
1627801175.7568, 66, 0, 4228.718, 4238.462, 4175.897, 4196.41, 4214.872, 16185, 0, []
1627801175.7646, 67, 0, 4228.718, 4241.538, 4178.974, 4192.821, 4222.051, 450, 0, []
1627801175.7726, 68, 0, 4232.821, 4275.385, 4156.923, 4198.462, 4232.308, 16144, 0, []
1627801175.7805, 69, 0, 4237.949, 4247.179, 4193.333, 4205.128, 4237.436, 450, 0, []
1627801175.7885, 70, 0, 4235.385, 4216.41, 4153.846, 4196.41, 4228.718, 188, 0, []
1627801175.7964, 71, 0, 4228.205, 4243.077, 4163.077, 4182.564, 4218.462, 450, 0, []
1627801175.8041, 72, 0, 4226.667, 4265.641, 4176.923, 4182.564, 4222.051, 450, 0, []
1627801175.812, 73, 0, 4227.179, 4255.897, 4148.718, 4182.051, 4221.538, 16152, 0, []
1627801175.8198, 74, 0, 4223.077, 4260, 4177.949, 4175.385, 4213.333, 450, 0, []
1627801175.8278, 75, 0, 4226.154, 4297.436, 4154.359, 4180.513, 4220, 16195, 0, []
1627801175.8357, 76, 0, 4236.41, 4329.231, 4174.359, 4195.897, 4236.923, 450, 0, []
1627801175.8436, 77, 0, 4238.462, 4298.974, 4196.923, 4200.513, 4237.436, 450, 0, []
1627801175.8515, 78, 0, 4228.718, 4251.282, 4158.462, 4189.744, 4222.564, 450, 0, []
1627801175.8595, 79, 0, 4231.795, 4261.538, 4186.667, 4183.077, 4217.949, 16195, 0, []
1627801175.8675, 80, 0, 4232.821, 4274.872, 4168.718, 4183.59, 4220, 450, 0, []
1627801175.8754, 81, 0, 4221.026, 4266.667, 4171.282, 4195.385, 4216.923, 450, 0, []
1627801175.8834, 82, 0, 4223.077, 4277.436, 4190.769, 4207.179, 4215.385, 450, 0, []
1627801175.8912, 83, 0, 4227.179, 4265.641, 4157.436, 4198.462, 4211.795, 16195, 0, []
1627801175.8992, 84, 0, 4213.846, 4249.744, 4177.949, 4190.256, 4204.615, 450, 0, []
1627801175.9071, 85, 0, 4205.128, 4283.077, 4156.923, 4189.231, 4200, 450, 0, []
1627801175.9151, 86, 0, 4215.897, 4296.923, 4169.231, 4188.718, 4202.051, 450, 0, []
1627801175.923, 87, 0, 4225.641, 4263.077, 4192.308, 4189.744, 4206.667, 16195, 0, []
1627801175.9309, 88, 0, 4222.564, 4266.154, 4152.821, 4188.718, 4208.205, 450, 0, []
1627801175.9388, 89, 0, 4221.026, 4310.769, 4193.333, 4193.846, 4209.744, 450, 0, []
1627801175.9468, 90, 0, 4224.103, 4325.128, 4177.949, 4197.436, 4216.41, 450, 0, []
1627801175.9547, 91, 0, 4234.359, 4325.641, 4166.154, 4196.923, 4224.615, 16195, 0, []
1627801175.9627, 92, 0, 4253.846, 4341.026, 4197.949, 4193.333, 4238.974, 450, 0, []
1627801175.9705, 93, 0, 4283.077, 4341.538, 4156.923, 4182.564, 4268.718, 450, 0, []
1627801175.9785, 94, 0, 4319.487, 4330.256, 4173.333, 4177.436, 4301.538, 450, 0, []
1627801175.9864, 95, 0, 4366.667, 4318.974, 4164.615, 4181.538, 4335.897, 16195, 0, []
1627801175.9944, 96, 0, 4440, 4303.077, 4157.949, 4192.821, 4404.103, 450, 0, []
1627801176.0023, 97, 0, 4503.59, 4292.821, 4190.256, 4200, 4467.692, 450, 0, []
1627801176.0102, 98, 0, 4520, 4294.872, 4152.308, 4188.205, 4475.385, 450, 0, []
1627801176.0181, 99, 0, 4515.897, 4286.667, 4167.179, 4175.385, 4466.667, 16195, 0, []
1627801176.0261, 100, 0, 4514.359, 4291.282, 4154.359, 4181.538, 4476.41, 450, 0, []
1627801176.0341, 101, 0, 4498.462, 4295.897, 4140.513, 4188.718, 4469.744, 450, 0, []
1627801176.042, 102, 0, 4464.103, 4266.667, 4180, 4178.462, 4432.308, 450, 0, []
1627801176.0499, 103, 0, 4437.436, 4266.667, 4149.231, 4174.872, 4405.641, 16195, 0, []
1627801176.0578, 104, 0, 4426.667, 4295.897, 4182.564, 4194.359, 4400, 450, 0, []
1627801176.0658, 105, 0, 4412.308, 4297.949, 4192.308, 4202.051, 4386.154, 450, 0, []
1627801176.0737, 106, 0, 4380, 4301.538, 4162.564, 4187.692, 4353.333, 450, 0, []
1627801176.0817, 107, 0, 4340, 4313.846, 4186.154, 4172.308, 4318.462, 16195, 0, []
1627801176.0895, 108, 0, 4310.769, 4298.462, 4149.744, 4157.949, 4294.359, 450, 0, []
1627801176.0975, 109, 0, 4296.41, 4285.641, 4169.231, 4160, 4282.051, 450, 0, []
1627801176.1054, 110, 0, 4288.205, 4301.026, 4176.923, 4174.359, 4278.462, 450, 0, []
1627801176.1134, 111, 0, 4277.436, 4323.077, 4152.308, 4170.256, 4272.308, 16195, 0, []
1627801176.1213, 112, 0, 4268.718, 4331.795, 4182.051, 4167.179, 4266.154, 450, 0, []
1627801176.1292, 113, 0, 4262.564, 4301.538, 4166.667, 4178.462, 4261.026, 450, 0, []
1627801176.1371, 114, 0, 4254.359, 4289.231, 4180.513, 4184.103, 4254.872, 450, 0, []
1627801176.1451, 115, 0, 4247.179, 4316.41, 4150.769, 4172.308, 4248.205, 16195, 0, []
1627801176.153, 116, 0, 4242.564, 4306.154, 4205.641, 4166.154, 4240.513, 450, 0, []
1627801176.161, 117, 0, 4236.41, 4284.103, 4202.051, 4172.308, 4229.744, 450, 0, []
1627801176.1688, 118, 0, 4225.641, 4306.154, 4032.821, 4170.256, 4216.923, 450, 0, []
1627801176.1768, 119, 0, 4219.487, 4321.538, 4192.821, 4169.744, 4213.846, 16195, 0, []
1627801176.1848, 120, 0, 4215.897, 4300, 4234.872, 4173.846, 4215.385, 450, 0, []
1627801176.1927, 121, 0, 4214.359, 4303.59, 4101.026, 4181.026, 4214.872, 450, 0, []
1627801176.2007, 122, 0, 4214.872, 4336.41, 4202.051, 4192.821, 4214.359, 450, 0, []
1627801176.2085, 123, 0, 4213.846, 4330.769, 4186.154, 4191.282, 4213.333, 16195, 0, []
1627801176.2165, 124, 0, 4214.359, 4304.103, 4164.103, 4182.564, 4214.359, 450, 0, []
1627801176.2244, 125, 0, 4214.359, 4331.795, 4187.692, 4179.487, 4214.359, 450, 0, []
1627801176.2324, 126, 0, 4213.846, 4370.769, 4163.59, 4188.205, 4216.41, 450, 0, []
1627801176.2403, 127, 0, 4215.385, 4344.615, 4184.103, 4194.359, 4217.436, 16195, 0, []
1627801176.2482, 128, 0, 4209.744, 4324.615, 4162.564, 4184.103, 4212.308, 450, 0, []
1627801176.2561, 0, 0, 4205.128, 4343.59, 4165.128, 4182.564, 4209.231, 450, 0, []
1627801176.2641, 1, 0, 4210.769, 4333.846, 4176.923, 4191.282, 4217.436, 450, 0, []
1627801176.272, 2, 0, 4212.821, 4314.872, 4151.795, 4186.154, 4222.051, 16190, 0, []
1627801176.28, 3, 0, 4210.769, 4313.333, 4167.179, 4180, 4218.462, 450, 0, []
1627801176.2878, 4, 0, 4238.974, 4301.026, 4167.179, 4194.872, 4241.538, 16155, 0, []
1627801176.2958, 5, 0, 4287.692, 4299.487, 4169.744, 4200, 4280.513, 450, 0, []
1627801176.3037, 6, 0, 4317.436, 4304.103, 4184.103, 4183.077, 4301.538, 172, 0, []
1627801176.3117, 7, 0, 4349.231, 4294.872, 4174.359, 4178.974, 4328.205, 450, 0, []
1627801176.3196, 8, 0, 4406.667, 4319.487, 4193.846, 4195.385, 4374.359, 450, 0, []
1627801176.3275, 9, 0, 4454.872, 4365.641, 4188.718, 4208.718, 4413.333, 16152, 0, []
1627801176.3355, 10, 0, 4477.436, 4356.923, 4186.667, 4216.41, 4437.436, 450, 0, []
1627801176.3434, 11, 0, 4484.615, 4337.436, 4201.538, 4220, 4456.923, 16192, 0, []
1627801176.3514, 12, 0, 4473.333, 4348.718, 4181.538, 4212.308, 4457.436, 450, 0, []
1627801176.3593, 13, 0, 4461.538, 4340.513, 4200.513, 4215.385, 4457.436, 450, 0, []
1627801176.3672, 14, 0, 4461.026, 4327.179, 4198.974, 4224.615, 4461.538, 450, 0, []
1627801176.3751, 15, 0, 4451.282, 4328.718, 4185.128, 4214.872, 4458.462, 16192, 0, []
1627801176.3831, 16, 0, 4430.769, 4333.333, 4211.282, 4216.41, 4450.256, 0, 0, []
1627801176.391, 17, 0, 4410.256, 4323.077, 4202.564, 4227.692, 4423.59, 0, 0, []
1627801176.399, 18, 0, 4385.641, 4284.103, 4198.974, 4215.897, 4390.769, 0, 0, []
1627801176.4068, 19, 0, 4363.077, 4264.103, 4189.744, 4203.59, 4371.795, 0, 0, []
1627801176.4148, 20, 0, 4343.077, 4278.462, 4180, 4214.872, 4353.846, 0, 0, []
1627801176.4227, 21, 0, 4309.231, 4274.872, 4188.205, 4217.949, 4322.051, 0, 0, []
1627801176.4307, 22, 0, 4276.41, 4260, 4168.718, 4195.385, 4298.462, 0, 0, []
1627801176.4386, 23, 0, 4265.128, 4262.051, 4184.103, 4185.641, 4291.282, 0, 0, []
1627801176.4465, 24, 0, 4260, 4249.231, 4192.821, 4202.051, 4282.051, 0, 0, []
1627801176.4544, 25, 0, 4244.615, 4233.846, 4182.051, 4213.846, 4267.692, 0, 0, []
1627801176.4624, 26, 0, 4229.231, 4242.051, 4197.436, 4212.821, 4256.923, 0, 0, []
1627801176.4703, 27, 0, 4215.897, 4252.821, 4178.974, 4200, 4242.051, 0, 0, []
1627801176.4782, 28, 0, 4200, 4258.974, 4185.128, 4189.744, 4221.538, 0, 0, []
1627801176.486, 29, 0, 4187.692, 4265.641, 4200, 4194.359, 4213.846, 0, 0, []
1627801176.4939, 30, 0, 4186.154, 4273.846, 4192.821, 4203.077, 4212.821, 0, 0, []
1627801176.5019, 31, 0, 4184.103, 4296.923, 4211.282, 4207.692, 4203.59, 0, 0, []
1627801176.5099, 32, 0, 4170.256, 4334.872, 4194.872, 4204.615, 4192.308, 0, 0, []
1627801176.5178, 33, 0, 4160, 4351.282, 4183.077, 4199.487, 4182.564, 0, 0, []
1627801176.5256, 34, 0, 4156.923, 4334.872, 4183.59, 4192.308, 4169.744, 0, 0, []
1627801176.5336, 35, 0, 4145.641, 4318.462, 4174.872, 4181.538, 4162.051, 0, 0, []
1627801176.5415, 36, 0, 4141.538, 4347.179, 4194.359, 4186.154, 4170.256, 0, 0, []
1627801176.5495, 37, 0, 4158.974, 4387.179, 4181.538, 4207.692, 4182.564, 0, 0, []
1627801176.5574, 38, 0, 4167.692, 4381.538, 4181.026, 4220.513, 4188.205, 0, 0, []
1627801176.5653, 39, 0, 4150.256, 4381.026, 4190.256, 4205.641, 4174.872, 0, 0, []
1627801176.5732, 40, 0, 4135.385, 4421.538, 4174.359, 4191.795, 4153.846, 0, 0, []
1627801176.5812, 41, 0, 4139.487, 4441.026, 4192.821, 4202.564, 4150.256, 0, 0, []
1627801176.5891, 42, 0, 4142.051, 4412.308, 4192.821, 4202.051, 4153.846, 0, 0, []
1627801176.5971, 43, 0, 4135.897, 4417.436, 4192.308, 4182.051, 4145.641, 0, 0, []
1627801176.6049, 44, 0, 4134.872, 4478.462, 4201.026, 4180, 4141.026, 0, 0, []
1627801176.6129, 45, 0, 4139.487, 4497.949, 4185.128, 4192.821, 4146.154, 0, 0, []
1627801176.6208, 46, 0, 4128.205, 4494.872, 4192.821, 4189.744, 4133.333, 0, 0, []
1627801176.6288, 47, 0, 4112.821, 4561.026, 4182.051, 4184.103, 4118.974, 0, 0, []
1627801176.6367, 48, 0, 4124.615, 4641.026, 4182.051, 4191.795, 4134.872, 0, 0, []
1627801176.6444, 49, 0, 4137.949, 4675.897, 4202.564, 4189.744, 4146.667, 0, 0, []
1627801176.6524, 50, 0, 4133.846, 4722.051, 4184.615, 4182.564, 4134.359, 0, 0, []
1627801176.6603, 51, 0, 4137.949, 4782.051, 4193.333, 4198.462, 4137.436, 0, 0, []
1627801176.6683, 52, 0, 4145.641, 4793.333, 4194.359, 4216.923, 4149.231, 0, 0, []
1627801176.6762, 53, 0, 4138.974, 4778.974, 4182.564, 4209.231, 4139.487, 0, 0, []
1627801176.6841, 54, 0, 4139.487, 4813.333, 4197.436, 4201.538, 4135.385, 0, 0, []
1627801176.692, 55, 0, 4157.436, 4875.385, 4185.641, 4209.744, 4153.846, 0, 0, []
1627801176.7, 56, 0, 4161.026, 4889.744, 4185.128, 4207.692, 4158.462, 0, 0, []
1627801176.7079, 57, 0, 4152.308, 4869.744, 4185.128, 4192.821, 4147.179, 0, 0, []
1627801176.7159, 58, 0, 4157.949, 4874.872, 4184.615, 4194.359, 4158.462, 0, 0, []
1627801176.7237, 59, 0, 4165.641, 4876.923, 4202.564, 4205.641, 4176.923, 0, 0, []
1627801176.7317, 60, 0, 4173.333, 4853.333, 4186.154, 4196.41, 4186.667, 0, 0, []
1627801176.7396, 61, 0, 4199.487, 4873.333, 4185.128, 4185.128, 4207.179, 0, 0, []
1627801176.7476, 62, 0, 4236.41, 4920.513, 4191.795, 4185.128, 4236.923, 0, 0, []
1627801176.7555, 63, 0, 4275.385, 4923.077, 4177.949, 4183.59, 4269.231, 0, 0, []
1627801176.7634, 64, 0, 4322.051, 4911.282, 4184.615, 4186.667, 4309.231, 450, 0, []
1627801176.7713, 65, 0, 4366.154, 4929.231, 4175.385, 4194.872, 4347.692, 450, 0, []
1627801176.7791, 66, 0, 4386.154, 4961.026, 4178.462, 4193.846, 4360.513, 16188, 0, []
1627801176.787, 67, 0, 4385.128, 4976.923, 4188.718, 4182.051, 4352.821, 450, 0, []
1627801176.7948, 68, 0, 4376.41, 4977.436, 4185.128, 4186.154, 4349.744, 16154, 0, []
1627801176.8027, 69, 0, 4359.487, 4981.026, 4208.205, 4205.128, 4343.59, 450, 0, []
1627801176.8106, 70, 0, 4330.256, 4976.923, 4192.821, 4202.051, 4310.769, 135, 0, []
1627801176.8186, 71, 0, 4290.256, 4951.795, 4174.872, 4175.385, 4265.641, 450, 0, []
1627801176.8265, 72, 0, 4256.923, 4950.769, 4184.615, 4169.231, 4241.026, 450, 0, []
1627801176.8345, 73, 0, 4249.231, 5000, 4174.872, 4180, 4234.872, 16155, 0, []
1627801176.8424, 74, 0, 4245.641, 5021.026, 4181.538, 4182.051, 4230.256, 450, 0, []
1627801176.8503, 75, 0, 4221.538, 4996.923, 4174.359, 4178.974, 4215.897, 16193, 0, []
1627801176.8582, 76, 0, 4195.897, 4976.923, 4168.718, 4177.949, 4190.769, 450, 0, []
1627801176.8662, 77, 0, 4196.41, 4963.077, 4179.487, 4180.513, 4179.487, 450, 0, []
1627801176.8741, 78, 0, 4204.615, 4955.897, 4171.795, 4185.128, 4185.641, 450, 0, []
1627801176.8821, 79, 0, 4191.282, 4962.051, 4183.077, 4178.974, 4171.795, 16193, 0, []
1627801176.8899, 80, 0, 4172.821, 4952.821, 4181.026, 4167.179, 4149.744, 450, 0, []
1627801176.8979, 81, 0, 4169.744, 4919.487, 4181.538, 4166.667, 4150.769, 450, 0, []
1627801176.9058, 82, 0, 4156.41, 4888.205, 4191.282, 4162.051, 4142.564, 450, 0, []
1627801176.9138, 83, 0, 4134.359, 4883.59, 4170.769, 4149.744, 4120, 16193, 0, []
1627801176.9217, 84, 0, 4142.051, 4895.385, 4190.256, 4166.667, 4126.154, 450, 0, []
1627801176.9294, 85, 0, 4152.308, 4870.769, 4200.513, 4184.615, 4142.051, 450, 0, []
1627801176.9373, 86, 0, 4140.513, 4847.692, 4176.923, 4171.282, 4134.359, 450, 0, []
1627801176.9451, 87, 0, 4143.077, 4878.462, 4176.41, 4171.282, 4131.282, 16193, 0, []
1627801176.953, 88, 0, 4149.744, 4890.256, 4160, 4183.077, 4130.769, 450, 0, []
1627801176.9608, 89, 0, 4135.385, 4870.256, 4154.359, 4174.359, 4115.385, 450, 0, []
1627801176.9687, 90, 0, 4125.128, 4876.41, 4153.846, 4171.795, 4107.692, 450, 0, []
1627801176.9766, 91, 0, 4125.641, 4874.872, 4149.231, 4184.103, 4110.256, 16193, 0, []
1627801176.9846, 92, 0, 4126.154, 4837.949, 4170.769, 4183.59, 4107.692, 450, 0, []
1627801176.9925, 93, 0, 4134.872, 4811.795, 4171.795, 4177.949, 4114.359, 450, 0, []
1627801177.0005, 94, 0, 4142.564, 4791.282, 4181.538, 4183.077, 4123.59, 450, 0, []
1627801177.0083, 95, 0, 4135.897, 4767.692, 4181.538, 4187.179, 4113.333, 16193, 0, []
1627801177.0163, 96, 0, 4122.564, 4754.359, 4158.974, 4180.513, 4093.846, 450, 0, []
1627801177.0242, 97, 0, 4102.051, 4720, 4172.821, 4163.077, 4077.949, 450, 0, []
1627801177.0322, 98, 0, 4098.462, 4687.179, 4173.333, 4152.821, 4081.026, 450, 0, []
1627801177.0401, 99, 0, 4106.667, 4684.615, 4174.359, 4165.641, 4094.359, 16193, 0, []
1627801177.048, 100, 0, 4094.872, 4654.359, 4177.436, 4172.308, 4085.641, 450, 0, []
1627801177.0559, 101, 0, 4096.923, 4601.538, 4167.692, 4157.436, 4074.359, 450, 0, []
1627801177.0639, 102, 0, 4132.821, 4580.513, 4183.077, 4159.487, 4093.333, 450, 0, []
1627801177.0718, 103, 0, 4144.103, 4570.256, 4167.179, 4168.205, 4106.667, 16193, 0, []
1627801177.0796, 104, 0, 4117.949, 4544.103, 4151.795, 4152.308, 4089.231, 450, 0, []
1627801177.0874, 105, 0, 4110.256, 4530.769, 4166.154, 4146.667, 4085.128, 450, 0, []
1627801177.0952, 106, 0, 4124.103, 4538.974, 4166.154, 4166.667, 4103.077, 450, 0, []
1627801177.1031, 107, 0, 4133.333, 4553.333, 4181.026, 4177.436, 4110.256, 16193, 0, []
1627801177.1109, 108, 0, 4137.949, 4556.923, 4183.077, 4176.923, 4108.205, 450, 0, []
1627801177.1189, 109, 0, 4138.974, 4547.692, 4188.718, 4183.077, 4115.897, 450, 0, []
1627801177.1267, 110, 0, 4140.513, 4555.385, 4200, 4181.026, 4124.103, 450, 0, []
1627801177.1347, 111, 0, 4136.923, 4570.769, 4178.974, 4166.154, 4115.385, 16193, 0, []
1627801177.1426, 112, 0, 4121.538, 4548.718, 4183.077, 4157.949, 4097.949, 450, 0, []
1627801177.1506, 113, 0, 4103.077, 4505.128, 4179.487, 4153.846, 4082.564, 450, 0, []
1627801177.1585, 114, 0, 4095.897, 4501.538, 4170.256, 4153.846, 4073.846, 450, 0, []
1627801177.1664, 115, 0, 4095.897, 4523.077, 4178.974, 4162.051, 4076.41, 16193, 0, []
1627801177.1743, 116, 0, 4105.641, 4510.769, 4174.359, 4175.897, 4091.282, 450, 0, []
1627801177.1823, 117, 0, 4121.026, 4501.538, 4197.436, 4184.615, 4109.744, 450, 0, []
1627801177.1902, 118, 0, 4127.179, 4529.231, 4199.487, 4181.026, 4121.026, 450, 0, []
1627801177.1982, 119, 0, 4129.231, 4542.051, 4181.538, 4175.897, 4122.051, 16193, 0, []
1627801177.206, 120, 0, 4134.872, 4551.795, 4194.359, 4184.615, 4124.615, 450, 0, []
1627801177.214, 121, 0, 4137.949, 4576.41, 4180.513, 4186.154, 4127.179, 450, 0, []
1627801177.2219, 122, 0, 4136.41, 4556.923, 4174.359, 4174.359, 4122.564, 450, 0, []
1627801177.2297, 123, 0, 4137.436, 4529.231, 4174.872, 4175.385, 4123.59, 16193, 0, []
1627801177.2376, 124, 0, 4132.308, 4537.436, 4174.359, 4182.051, 4117.436, 450, 0, []
1627801177.2453, 125, 0, 4122.564, 4531.795, 4192.308, 4173.846, 4104.615, 450, 0, []
1627801177.2532, 126, 0, 4114.872, 4505.128, 4173.333, 4162.051, 4106.154, 450, 0, []
1627801177.261, 127, 0, 4102.051, 4512.308, 4170.256, 4168.205, 4105.641, 16193, 0, []
1627801177.269, 128, 0, 4080, 4545.641, 4181.026, 4181.026, 4087.692, 450, 0, []
1627801177.2769, 0, 0, 4058.462, 4554.872, 4174.872, 4179.487, 4068.205, 450, 0, []
1627801177.2848, 1, 0, 4046.667, 4551.282, 4186.154, 4172.308, 4058.974, 450, 0, []
1627801177.2927, 2, 0, 4046.667, 4553.846, 4171.795, 4174.872, 4057.949, 16188, 0, []
1627801177.3007, 3, 0, 4053.333, 4556.41, 4164.103, 4185.128, 4063.077, 450, 0, []
1627801177.3086, 4, 0, 4059.487, 4553.846, 4173.846, 4188.205, 4065.641, 16154, 0, []
1627801177.3166, 5, 0, 4064.615, 4549.744, 4180, 4180, 4066.154, 450, 0, []
1627801177.3244, 6, 0, 4072.821, 4537.949, 4200.513, 4182.051, 4076.923, 159, 0, []
1627801177.3324, 7, 0, 4082.051, 4533.846, 4181.538, 4197.436, 4093.846, 450, 0, []
1627801177.3403, 8, 0, 4081.538, 4542.564, 4166.667, 4198.462, 4091.795, 450, 0, []
1627801177.3483, 9, 0, 4070.769, 4516.923, 4167.179, 4187.179, 4073.333, 16156, 0, []
1627801177.3562, 10, 0, 4079.487, 4482.051, 4160.513, 4193.333, 4077.949, 450, 0, []
1627801177.3639, 11, 0, 4096.923, 4490.769, 4188.718, 4207.179, 4095.385, 16193, 0, []
1627801177.3718, 12, 0, 4098.462, 4501.026, 4192.821, 4208.718, 4095.897, 450, 0, []
1627801177.3796, 13, 0, 4101.026, 4480.513, 4190.769, 4212.821, 4099.487, 450, 0, []
1627801177.3875, 14, 0, 4104.103, 4469.744, 4199.487, 4219.487, 4110.256, 450, 0, []
1627801177.3953, 15, 0, 4097.949, 4482.564, 4184.615, 4217.949, 4107.179, 16193, 0, []
1627801177.4031, 16, 0, 4100.513, 4495.897, 4192.821, 4219.487, 4097.949, 0, 0, []
1627801177.4109, 17, 0, 4107.179, 4486.667, 4181.538, 4216.41, 4093.846, 0, 0, []
1627801177.4188, 18, 0, 4101.026, 4458.462, 4168.718, 4201.538, 4090.256, 0, 0, []
1627801177.4266, 19, 0, 4098.974, 4460.513, 4177.949, 4198.974, 4091.795, 0, 0, []
1627801177.4346, 20, 0, 4110.256, 4487.692, 4160.513, 4202.564, 4096.923, 0, 0, []
1627801177.4424, 21, 0, 4110.769, 4473.846, 4169.744, 4194.872, 4090.256, 0, 0, []
1627801177.4504, 22, 0, 4107.692, 4436.923, 4178.462, 4186.667, 4083.59, 0, 0, []
1627801177.4583, 23, 0, 4119.487, 4460.513, 4172.308, 4189.231, 4095.897, 0, 0, []
1627801177.4663, 24, 0, 4127.692, 4499.487, 4178.462, 4190.769, 4108.205, 0, 0, []
1627801177.4742, 25, 0, 4121.026, 4458.462, 4155.385, 4181.026, 4108.205, 0, 0, []
1627801177.4821, 26, 0, 4124.615, 4414.359, 4156.41, 4182.564, 4116.41, 0, 0, []
1627801177.49, 27, 0, 4139.487, 4444.103, 4168.205, 4195.385, 4128.205, 0, 0, []
1627801177.4979, 28, 0, 4139.487, 4462.051, 4160.513, 4194.872, 4124.103, 0, 0, []
1627801177.5059, 29, 0, 4137.949, 4424.103, 4171.282, 4185.641, 4126.667, 0, 0, []
1627801177.5137, 30, 0, 4145.641, 4416.923, 4171.282, 4183.077, 4137.949, 0, 0, []
1627801177.5215, 31, 0, 4156.923, 4458.974, 4182.051, 4191.795, 4139.487, 0, 0, []
1627801177.5293, 32, 0, 4169.231, 4454.359, 4184.103, 4201.538, 4144.103, 0, 0, []
1627801177.5372, 33, 0, 4159.487, 4412.821, 4177.949, 4201.026, 4137.949, 0, 0, []
1627801177.545, 34, 0, 4141.538, 4405.128, 4189.231, 4192.821, 4120, 0, 0, []
1627801177.5529, 35, 0, 4157.436, 4401.538, 4168.718, 4183.59, 4124.615, 0, 0, []
1627801177.5606, 36, 0, 4184.615, 4382.051, 4162.051, 4175.897, 4142.564, 0, 0, []
1627801177.5686, 37, 0, 4186.154, 4372.821, 4169.744, 4176.923, 4142.564, 0, 0, []
1627801177.5765, 38, 0, 4183.59, 4367.692, 4156.923, 4184.103, 4143.077, 0, 0, []
1627801177.5845, 39, 0, 4183.59, 4361.026, 4166.667, 4180.513, 4145.128, 0, 0, []
1627801177.5924, 40, 0, 4183.077, 4374.359, 4169.231, 4176.923, 4137.436, 0, 0, []
1627801177.6003, 41, 0, 4194.872, 4363.077, 4174.359, 4185.641, 4140, 0, 0, []
1627801177.6082, 42, 0, 4192.821, 4313.333, 4167.179, 4185.641, 4137.436, 0, 0, []
1627801177.6162, 43, 0, 4178.974, 4297.949, 4151.282, 4173.846, 4120, 0, 0, []
1627801177.6241, 44, 0, 4186.667, 4315.385, 4180, 4179.487, 4126.667, 0, 0, []
1627801177.6321, 45, 0, 4196.41, 4308.205, 4177.436, 4186.154, 4145.641, 0, 0, []
1627801177.64, 46, 0, 4189.231, 4302.564, 4170.256, 4173.846, 4144.103, 0, 0, []
1627801177.6479, 47, 0, 4192.821, 4323.077, 4194.359, 4177.949, 4148.205, 0, 0, []
1627801177.6558, 48, 0, 4215.385, 4335.385, 4188.718, 4207.179, 4171.795, 0, 0, []
1627801177.6636, 49, 0, 4223.077, 4338.462, 4193.333, 4217.949, 4180.513, 0, 0, []
1627801177.6715, 50, 0, 4210.256, 4339.487, 4185.128, 4202.051, 4171.795, 0, 0, []
1627801177.6793, 51, 0, 4198.462, 4344.615, 4168.718, 4191.795, 4165.128, 0, 0, []
1627801177.6871, 52, 0, 4197.949, 4347.179, 4177.949, 4189.231, 4156.41, 0, 0, []
1627801177.6949, 53, 0, 4199.487, 4329.744, 4176.41, 4183.077, 4150.769, 0, 0, []
1627801177.7028, 54, 0, 4198.974, 4321.538, 4187.692, 4186.667, 4160, 0, 0, []
1627801177.7106, 55, 0, 4201.026, 4334.872, 4184.615, 4196.41, 4172.308, 0, 0, []
1627801177.7186, 56, 0, 4202.564, 4345.128, 4170.256, 4193.333, 4171.795, 0, 0, []
1627801177.7264, 57, 0, 4205.641, 4351.795, 4182.564, 4182.051, 4164.615, 0, 0, []
1627801177.7344, 58, 0, 4208.205, 4354.359, 4182.051, 4175.385, 4165.128, 0, 0, []
1627801177.7423, 59, 0, 4202.051, 4341.026, 4189.231, 4173.333, 4165.128, 0, 0, []
1627801177.7503, 60, 0, 4198.462, 4361.538, 4187.692, 4171.795, 4165.128, 0, 0, []
1627801177.7582, 61, 0, 4217.949, 4395.897, 4173.846, 4177.949, 4187.692, 0, 0, []
1627801177.7661, 62, 0, 4267.179, 4378.462, 4181.538, 4191.795, 4242.051, 0, 0, []
1627801177.774, 63, 0, 4330.769, 4375.385, 4175.897, 4199.487, 4306.154, 0, 0, []
1627801177.782, 64, 0, 4385.128, 4408.205, 4178.974, 4199.487, 4351.282, 450, 0, []
1627801177.7899, 65, 0, 4427.179, 4392.821, 4172.821, 4191.282, 4382.051, 450, 0, []
1627801177.7979, 66, 0, 4469.744, 4351.282, 4162.564, 4185.128, 4418.462, 16188, 0, []
1627801177.8057, 67, 0, 4505.128, 4357.436, 4184.103, 4186.667, 4448.718, 450, 0, []
1627801177.8135, 68, 0, 4513.846, 4380, 4173.333, 4180.513, 4447.692, 16150, 0, []
1627801177.8214, 69, 0, 4507.179, 4380.513, 4169.231, 4168.205, 4434.872, 450, 0, []
1627801177.8292, 70, 0, 4505.128, 4363.077, 4183.59, 4169.231, 4434.359, 165, 0, []
1627801177.8371, 71, 0, 4500.513, 4350.256, 4177.436, 4183.077, 4430.256, 450, 0, []
1627801177.8448, 72, 0, 4476.41, 4342.564, 4186.667, 4186.667, 4411.282, 450, 0, []
1627801177.8527, 73, 0, 4452.821, 4319.487, 4186.154, 4187.179, 4400.513, 16156, 0, []
1627801177.8605, 74, 0, 4450.256, 4294.359, 4188.205, 4200.513, 4400.513, 450, 0, []
1627801177.8684, 75, 0, 4436.923, 4277.949, 4186.154, 4207.179, 4386.667, 16193, 0, []
1627801177.8762, 76, 0, 4403.077, 4280.513, 4165.128, 4192.308, 4359.487, 450, 0, []
1627801177.8841, 77, 0, 4368.205, 4290.256, 4175.897, 4169.231, 4331.795, 450, 0, []
1627801177.892, 78, 0, 4343.077, 4259.487, 4170.769, 4158.974, 4306.154, 450, 0, []
1627801177.9, 79, 0, 4326.667, 4225.128, 4165.128, 4170.256, 4289.231, 16193, 0, []
1627801177.9079, 80, 0, 4311.795, 4248.205, 4181.026, 4187.692, 4280.513, 450, 0, []
1627801177.9159, 81, 0, 4297.436, 4262.564, 4167.692, 4190.769, 4265.641, 450, 0, []
1627801177.9237, 82, 0, 4289.744, 4233.333, 4168.205, 4189.231, 4249.744, 450, 0, []
1627801177.9317, 83, 0, 4281.538, 4217.436, 4171.795, 4184.103, 4240, 16193, 0, []
1627801177.9396, 84, 0, 4269.231, 4206.667, 4180, 4174.359, 4230.769, 450, 0, []
1627801177.9476, 85, 0, 4260.513, 4207.692, 4187.179, 4170.769, 4222.051, 450, 0, []
1627801177.9555, 86, 0, 4248.205, 4233.333, 4162.564, 4159.487, 4210.769, 450, 0, []
1627801177.9634, 87, 0, 4231.282, 4241.538, 4171.282, 4150.256, 4199.487, 16193, 0, []
1627801177.9713, 88, 0, 4228.718, 4241.538, 4186.154, 4171.282, 4196.41, 450, 0, []
1627801177.9791, 89, 0, 4235.385, 4251.282, 4180.513, 4196.41, 4201.538, 450, 0, []
1627801177.987, 90, 0, 4235.897, 4247.692, 4177.949, 4191.795, 4200.513, 450, 0, []
1627801177.9948, 91, 0, 4232.308, 4240.513, 4157.949, 4181.026, 4193.333, 16193, 0, []
1627801178.0026, 92, 0, 4224.103, 4234.359, 4164.103, 4187.179, 4186.667, 450, 0, []
1627801178.0104, 93, 0, 4210.256, 4200, 4173.333, 4196.41, 4184.615, 450, 0, []
1627801178.0183, 94, 0, 4202.051, 4161.026, 4167.179, 4193.846, 4182.051, 450, 0, []
1627801178.0261, 95, 0, 4195.385, 4159.487, 4171.282, 4181.026, 4171.282, 16193, 0, []
1627801178.034, 96, 0, 4188.718, 4172.308, 4153.846, 4165.641, 4166.667, 450, 0, []
1627801178.0417, 97, 0, 4194.359, 4184.615, 4159.487, 4159.487, 4175.385, 450, 0, []
1627801178.0497, 98, 0, 4203.59, 4226.154, 4173.333, 4161.538, 4175.897, 450, 0, []
1627801178.0576, 99, 0, 4204.103, 4266.154, 4163.59, 4165.128, 4168.205, 16193, 0, []
1627801178.0656, 100, 0, 4199.487, 4237.436, 4170.256, 4172.821, 4167.179, 450, 0, []
1627801178.0735, 101, 0, 4193.846, 4208.205, 4164.615, 4179.487, 4166.667, 450, 0, []
1627801178.0814, 102, 0, 4198.462, 4229.744, 4175.385, 4185.128, 4168.205, 450, 0, []
1627801178.0893, 103, 0, 4199.487, 4218.974, 4186.154, 4196.41, 4172.308, 16193, 0, []
1627801178.0973, 104, 0, 4187.179, 4188.718, 4164.615, 4200, 4166.154, 450, 0, []
1627801178.1052, 105, 0, 4196.41, 4209.231, 4168.718, 4187.179, 4169.744, 450, 0, []
1627801178.1132, 106, 0, 4225.128, 4236.923, 4167.692, 4177.949, 4197.436, 450, 0, []
1627801178.121, 107, 0, 4227.692, 4228.205, 4172.821, 4185.128, 4212.821, 16193, 0, []
1627801178.1288, 108, 0, 4209.744, 4228.205, 4183.59, 4188.718, 4197.949, 450, 0, []
1627801178.1367, 109, 0, 4197.436, 4236.923, 4170.256, 4179.487, 4180.513, 450, 0, []
1627801178.1445, 110, 0, 4182.051, 4204.615, 4175.897, 4173.846, 4165.641, 450, 0, []
1627801178.1524, 111, 0, 4167.179, 4174.872, 4169.231, 4163.59, 4143.077, 16193, 0, []
1627801178.1601, 112, 0, 4165.641, 4199.487, 4164.103, 4153.333, 4132.821, 450, 0, []
1627801178.168, 113, 0, 4173.333, 4225.641, 4175.385, 4164.615, 4145.128, 450, 0, []
1627801178.1758, 114, 0, 4185.641, 4210.769, 4169.744, 4184.615, 4155.897, 450, 0, []
1627801178.1837, 115, 0, 4191.282, 4183.077, 4175.897, 4187.692, 4155.897, 16193, 0, []
1627801178.1915, 116, 0, 4187.179, 4163.59, 4163.59, 4184.103, 4157.949, 450, 0, []
1627801178.1993, 117, 0, 4184.615, 4166.154, 4157.949, 4186.667, 4166.154, 450, 0, []
1627801178.2071, 118, 0, 4184.103, 4190.256, 4177.949, 4189.231, 4169.231, 450, 0, []
1627801178.2151, 119, 0, 4185.128, 4185.641, 4168.718, 4194.872, 4167.692, 16193, 0, []
1627801178.223, 120, 0, 4196.923, 4170.256, 4176.41, 4203.59, 4175.385, 450, 0, []
1627801178.231, 121, 0, 4206.154, 4184.103, 4180, 4203.59, 4178.974, 450, 0, []
1627801178.2388, 122, 0, 4205.128, 4201.538, 4170.769, 4198.462, 4170.769, 450, 0, []
1627801178.2468, 123, 0, 4211.795, 4213.333, 4189.744, 4201.026, 4175.385, 16193, 0, []
1627801178.2547, 124, 0, 4222.051, 4202.564, 4188.718, 4209.744, 4188.718, 450, 0, []
1627801178.2627, 125, 0, 4220, 4172.308, 4188.205, 4210.256, 4190.256, 450, 0, []
1627801178.2706, 126, 0, 4231.282, 4193.846, 4179.487, 4204.103, 4202.564, 450, 0, []
1627801178.2785, 127, 0, 4258.974, 4233.333, 4167.179, 4201.538, 4234.359, 16193, 0, []
1627801178.2864, 128, 0, 4261.538, 4221.026, 4174.872, 4196.41, 4241.538, 450, 0, []
1627801178.2942, 0, 0, 4241.026, 4204.103, 4160.513, 4185.641, 4220, 450, 0, []
1627801178.3021, 1, 0, 4230.256, 4218.974, 4170.769, 4186.154, 4204.103, 450, 0, []
1627801178.3099, 2, 0, 4230.256, 4229.231, 4189.231, 4194.872, 4206.667, 16190, 0, []
1627801178.3177, 3, 0, 4229.744, 4222.564, 4175.897, 4194.872, 4215.897, 450, 0, []
1627801178.3255, 4, 0, 4229.744, 4189.231, 4181.538, 4197.436, 4213.846, 16150, 0, []
1627801178.3334, 5, 0, 4233.333, 4162.564, 4187.179, 4199.487, 4207.692, 450, 0, []
1627801178.3412, 6, 0, 4233.846, 4187.692, 4197.436, 4193.846, 4206.667, 163, 0, []
1627801178.3491, 7, 0, 4233.333, 4217.436, 4195.385, 4189.231, 4205.128, 450, 0, []
1627801178.3568, 8, 0, 4230.256, 4226.154, 4174.872, 4189.231, 4203.59, 450, 0, []
1627801178.3648, 9, 0, 4221.026, 4226.154, 4185.641, 4186.667, 4201.026, 16157, 0, []
1627801178.3727, 10, 0, 4213.333, 4215.897, 4187.692, 4180.513, 4197.436, 450, 0, []
1627801178.3807, 11, 0, 4214.872, 4224.615, 4191.795, 4184.615, 4197.436, 16192, 0, []
1627801178.3886, 12, 0, 4215.897, 4252.308, 4197.436, 4195.897, 4201.538, 450, 0, []
1627801178.3966, 13, 0, 4218.974, 4261.026, 4180, 4205.641, 4205.128, 450, 0, []
1627801178.4044, 14, 0, 4215.385, 4251.282, 4185.641, 4203.59, 4198.974, 450, 0, []
1627801178.4124, 15, 0, 4202.051, 4250.256, 4175.897, 4196.923, 4190.769, 16192, 0, []
1627801178.4203, 16, 0, 4205.128, 4257.436, 4168.718, 4208.718, 4196.923, 0, 0, []
1627801178.4283, 17, 0, 4213.846, 4269.231, 4184.615, 4221.026, 4206.667, 0, 0, []
1627801178.4362, 18, 0, 4207.179, 4265.641, 4174.872, 4212.308, 4201.026, 0, 0, []
1627801178.4439, 19, 0, 4205.128, 4248.205, 4179.487, 4200, 4195.897, 0, 0, []
1627801178.4518, 20, 0, 4215.385, 4261.538, 4181.026, 4197.949, 4207.692, 0, 0, []
1627801178.4596, 21, 0, 4221.538, 4280.513, 4183.077, 4202.564, 4218.462, 0, 0, []
1627801178.4675, 22, 0, 4228.718, 4271.282, 4198.974, 4212.821, 4217.436, 0, 0, []
1627801178.4753, 23, 0, 4239.487, 4254.872, 4188.205, 4215.385, 4215.385, 0, 0, []
1627801178.4831, 24, 0, 4242.564, 4255.897, 4196.923, 4204.103, 4221.538, 0, 0, []
1627801178.4909, 25, 0, 4250.769, 4250.769, 4196.923, 4196.923, 4233.333, 0, 0, []
1627801178.4989, 26, 0, 4266.667, 4231.795, 4183.077, 4200.513, 4248.718, 0, 0, []
1627801178.5068, 27, 0, 4279.487, 4228.205, 4193.333, 4204.615, 4264.615, 0, 0, []
1627801178.5148, 28, 0, 4298.462, 4225.641, 4183.077, 4197.949, 4281.538, 0, 0, []
1627801178.5226, 29, 0, 4329.744, 4215.897, 4184.103, 4186.667, 4309.744, 0, 0, []
1627801178.5306, 30, 0, 4368.205, 4209.744, 4187.692, 4188.718, 4345.128, 0, 0, []
1627801178.5385, 31, 0, 4411.795, 4214.359, 4175.385, 4202.564, 4383.59, 0, 0, []
1627801178.5465, 32, 0, 4463.077, 4231.282, 4183.077, 4209.744, 4424.615, 0, 0, []
1627801178.5544, 33, 0, 4498.974, 4237.949, 4187.179, 4207.179, 4454.359, 0, 0, []
1627801178.5623, 34, 0, 4512.821, 4235.897, 4205.128, 4214.359, 4473.846, 0, 0, []
1627801178.5702, 35, 0, 4512.821, 4217.436, 4206.667, 4221.026, 4480.513, 0, 0, []
1627801178.578, 36, 0, 4500.513, 4196.41, 4185.128, 4210.769, 4466.154, 0, 0, []
1627801178.5859, 37, 0, 4476.41, 4207.179, 4189.744, 4210.769, 4444.103, 0, 0, []
1627801178.5937, 38, 0, 4451.795, 4221.538, 4181.538, 4223.59, 4431.282, 0, 0, []
1627801178.6015, 39, 0, 4432.308, 4209.744, 4190.256, 4218.462, 4413.846, 0, 0, []
1627801178.6093, 40, 0, 4409.231, 4188.718, 4206.154, 4204.615, 4383.59, 0, 0, []
1627801178.6172, 41, 0, 4387.179, 4189.744, 4193.333, 4213.333, 4361.538, 0, 0, []
1627801178.625, 42, 0, 4368.205, 4204.103, 4205.128, 4221.026, 4348.205, 0, 0, []
1627801178.6329, 43, 0, 4355.897, 4202.564, 4205.128, 4211.282, 4337.949, 0, 0, []
1627801178.6406, 44, 0, 4349.231, 4185.641, 4208.205, 4216.41, 4331.282, 0, 0, []
1627801178.6486, 45, 0, 4340.513, 4174.872, 4215.385, 4230.769, 4325.128, 0, 0, []
1627801178.6565, 46, 0, 4336.41, 4178.462, 4200.513, 4224.103, 4328.205, 0, 0, []
1627801178.6645, 47, 0, 4355.385, 4188.718, 4211.795, 4218.462, 4344.615, 0, 0, []
1627801178.6724, 48, 0, 4394.872, 4198.462, 4203.077, 4226.154, 4369.231, 0, 0, []
1627801178.6803, 49, 0, 4434.872, 4190.769, 4188.718, 4221.538, 4401.026, 0, 0, []
1627801178.6882, 50, 0, 4461.538, 4184.615, 4204.103, 4213.333, 4427.692, 0, 0, []
1627801178.6962, 51, 0, 4472.308, 4206.667, 4204.615, 4222.051, 4439.487, 0, 0, []
1627801178.7041, 52, 0, 4469.744, 4237.949, 4214.359, 4229.231, 4438.974, 0, 0, []
1627801178.7121, 53, 0, 4463.59, 4253.333, 4201.538, 4218.462, 4435.897, 0, 0, []
1627801178.7199, 54, 0, 4456.923, 4253.846, 4183.59, 4211.282, 4428.718, 0, 0, []
1627801178.7279, 55, 0, 4442.564, 4242.564, 4194.359, 4220.513, 4414.872, 0, 0, []
1627801178.7358, 56, 0, 4418.974, 4243.077, 4189.231, 4231.795, 4398.974, 0, 0, []
1627801178.7436, 57, 0, 4386.667, 4240, 4189.231, 4230.256, 4379.487, 0, 0, []
1627801178.7515, 58, 0, 4362.564, 4210.256, 4180.513, 4228.205, 4361.026, 0, 0, []
1627801178.7592, 59, 0, 4354.872, 4189.744, 4175.897, 4233.333, 4348.718, 0, 0, []
1627801178.7671, 60, 0, 4339.487, 4197.949, 4184.103, 4227.179, 4330.256, 0, 0, []
1627801178.7749, 61, 0, 4313.333, 4208.718, 4165.641, 4214.359, 4304.615, 0, 0, []
1627801178.7828, 62, 0, 4288.718, 4196.41, 4182.051, 4213.333, 4278.462, 0, 0, []
1627801178.7906, 63, 0, 4263.59, 4177.436, 4194.359, 4215.385, 4251.282, 0, 0, []
1627801178.7984, 64, 0, 4238.974, 4170.769, 4172.821, 4206.154, 4224.615, 450, 0, []
1627801178.8062, 65, 0, 4224.615, 4163.077, 4180.513, 4204.103, 4211.282, 450, 0, []
1627801178.8141, 66, 0, 4215.385, 4167.179, 4181.026, 4210.769, 4205.641, 16188, 0, []
1627801178.8219, 67, 0, 4196.41, 4180, 4185.128, 4204.615, 4188.205, 450, 0, []
1627801178.8299, 68, 0, 4182.564, 4173.333, 4183.077, 4200.513, 4177.949, 16154, 0, []
1627801178.8377, 69, 0, 4183.077, 4167.692, 4174.359, 4213.846, 4184.615, 450, 0, []
1627801178.8457, 70, 0, 4183.59, 4185.641, 4194.359, 4222.051, 4186.154, 166, 0, []
1627801178.8536, 71, 0, 4176.923, 4186.667, 4183.077, 4215.385, 4175.385, 450, 0, []
1627801178.8616, 72, 0, 4164.103, 4162.564, 4178.974, 4209.744, 4159.487, 450, 0, []
1627801178.8695, 73, 0, 4151.282, 4161.026, 4193.846, 4202.564, 4141.538, 16157, 0, []
1627801178.8774, 74, 0, 4148.205, 4180, 4189.231, 4192.308, 4133.333, 450, 0, []
1627801178.8853, 75, 0, 4152.821, 4176.41, 4195.897, 4200.513, 4142.564, 16194, 0, []
1627801178.8933, 76, 0, 4153.333, 4152.821, 4173.333, 4209.744, 4147.179, 450, 0, []
1627801178.9012, 77, 0, 4149.231, 4151.795, 4157.436, 4203.59, 4137.949, 450, 0, []
1627801178.909, 78, 0, 4151.795, 4171.795, 4171.282, 4206.154, 4141.026, 450, 0, []
1627801178.9168, 79, 0, 4152.308, 4163.077, 4169.231, 4213.846, 4147.179, 16194, 0, []
1627801178.9246, 80, 0, 4151.282, 4138.462, 4187.179, 4206.667, 4141.538, 450, 0, []
1627801178.9325, 81, 0, 4153.846, 4131.795, 4194.872, 4194.359, 4143.077, 450, 0, []
1627801178.9403, 82, 0, 4147.692, 4137.436, 4189.231, 4193.846, 4147.179, 450, 0, []
1627801178.9482, 83, 0, 4138.462, 4147.179, 4185.128, 4205.641, 4140.513, 16194, 0, []
1627801178.9559, 84, 0, 4139.487, 4143.59, 4167.692, 4211.282, 4138.974, 450, 0, []
1627801178.9638, 85, 0, 4144.615, 4132.308, 4177.949, 4206.154, 4143.077, 450, 0, []
1627801178.9716, 86, 0, 4141.538, 4137.436, 4174.872, 4205.641, 4138.462, 450, 0, []
1627801178.9796, 87, 0, 4129.231, 4143.077, 4167.692, 4204.615, 4127.179, 16194, 0, []
1627801178.9875, 88, 0, 4110.256, 4146.667, 4178.462, 4188.205, 4109.231, 450, 0, []
1627801178.9954, 89, 0, 4103.077, 4152.821, 4169.744, 4181.538, 4100, 450, 0, []
1627801179.0033, 90, 0, 4115.897, 4141.538, 4177.949, 4200, 4113.333, 450, 0, []
1627801179.0113, 91, 0, 4107.179, 4130.256, 4167.179, 4201.538, 4110.769, 16194, 0, []
1627801179.0192, 92, 0, 4074.872, 4135.897, 4149.231, 4184.615, 4081.538, 450, 0, []
1627801179.0272, 93, 0, 4067.692, 4131.282, 4164.103, 4178.462, 4069.744, 450, 0, []
1627801179.035, 94, 0, 4088.205, 4111.282, 4163.077, 4182.564, 4084.103, 450, 0, []
1627801179.043, 95, 0, 4095.385, 4102.564, 4175.385, 4188.205, 4093.333, 16194, 0, []
1627801179.0509, 96, 0, 4086.667, 4095.385, 4175.385, 4184.615, 4092.821, 450, 0, []
1627801179.0589, 97, 0, 4091.282, 4105.641, 4166.667, 4183.59, 4105.128, 450, 0, []
1627801179.0668, 98, 0, 4103.077, 4135.385, 4190.256, 4201.538, 4119.487, 450, 0, []
1627801179.0745, 99, 0, 4107.179, 4144.103, 4185.128, 4206.154, 4110.769, 16194, 0, []
1627801179.0824, 100, 0, 4108.205, 4141.538, 4183.59, 4191.795, 4096.923, 450, 0, []
1627801179.0902, 101, 0, 4102.564, 4137.949, 4183.077, 4191.795, 4096.41, 450, 0, []
1627801179.0981, 102, 0, 4090.769, 4128.205, 4163.59, 4189.231, 4096.923, 450, 0, []
1627801179.1059, 103, 0, 4087.179, 4132.308, 4172.821, 4173.846, 4089.231, 16194, 0, []
1627801179.1137, 104, 0, 4092.308, 4140, 4170.256, 4174.872, 4082.564, 450, 0, []
1627801179.1215, 105, 0, 4093.333, 4133.846, 4173.846, 4187.692, 4084.103, 450, 0, []
1627801179.1294, 106, 0, 4088.718, 4151.795, 4182.564, 4187.179, 4087.179, 450, 0, []
1627801179.1372, 107, 0, 4081.538, 4195.897, 4165.641, 4176.41, 4084.615, 16194, 0, []
1627801179.1452, 108, 0, 4067.692, 4194.872, 4163.59, 4163.59, 4070.769, 450, 0, []
1627801179.1531, 109, 0, 4058.462, 4167.692, 4159.487, 4154.359, 4060.513, 450, 0, []
1627801179.161, 110, 0, 4057.436, 4181.538, 4166.667, 4155.385, 4063.077, 450, 0, []
1627801179.1689, 111, 0, 4057.436, 4203.077, 4170.769, 4156.41, 4067.692, 16194, 0, []
1627801179.1769, 112, 0, 4070.256, 4213.846, 4158.462, 4163.077, 4077.949, 450, 0, []
1627801179.1848, 113, 0, 4095.897, 4262.051, 4186.667, 4187.692, 4100.513, 450, 0, []
1627801179.1928, 114, 0, 4110.256, 4300.513, 4191.795, 4203.077, 4114.872, 450, 0, []
1627801179.2006, 115, 0, 4100, 4281.026, 4172.308, 4190.256, 4105.641, 16194, 0, []
1627801179.2084, 116, 0, 4083.077, 4291.282, 4163.077, 4171.795, 4090.769, 450, 0, []
1627801179.2163, 117, 0, 4078.974, 4332.308, 4147.692, 4161.026, 4081.538, 450, 0, []
1627801179.2241, 118, 0, 4086.154, 4309.231, 4169.744, 4158.462, 4081.538, 450, 0, []
1627801179.232, 119, 0, 4091.282, 4279.487, 4176.923, 4162.564, 4084.103, 16194, 0, []
1627801179.2397, 120, 0, 4090.769, 4294.359, 4169.231, 4159.487, 4084.103, 450, 0, []
1627801179.2476, 121, 0, 4094.359, 4284.103, 4188.718, 4160.513, 4093.846, 450, 0, []
1627801179.2554, 122, 0, 4097.436, 4275.897, 4181.538, 4176.41, 4110.256, 450, 0, []
1627801179.2633, 123, 0, 4097.949, 4311.282, 4171.795, 4190.256, 4110.769, 16194, 0, []
1627801179.2711, 124, 0, 4102.051, 4312.308, 4168.718, 4191.282, 4106.154, 450, 0, []
1627801179.279, 125, 0, 4109.231, 4275.897, 4167.692, 4192.821, 4116.41, 450, 0, []
1627801179.2869, 126, 0, 4114.872, 4283.077, 4169.231, 4191.795, 4124.103, 450, 0, []
1627801179.2949, 127, 0, 4115.897, 4299.487, 4148.718, 4176.41, 4115.897, 16194, 0, []
1627801179.3028, 128, 0, 4107.179, 4280, 4158.974, 4161.538, 4103.59, 450, 0, []
1627801179.3108, 0, 0, 4101.538, 4270.256, 4164.615, 4160, 4100.513, 450, 0, []
1627801179.3186, 1, 0, 4114.359, 4299.487, 4157.949, 4171.795, 4109.231, 450, 0, []
1627801179.3266, 2, 0, 4114.359, 4326.154, 4182.051, 4181.538, 4106.667, 16188, 0, []
1627801179.3345, 3, 0, 4098.974, 4313.333, 4177.949, 4182.564, 4089.744, 450, 0, []
1627801179.3425, 4, 0, 4115.385, 4295.897, 4177.949, 4187.692, 4095.897, 16152, 0, []
1627801179.3504, 5, 0, 4143.077, 4297.436, 4180.513, 4186.154, 4121.538, 450, 0, []
1627801179.3581, 6, 0, 4143.59, 4286.667, 4168.205, 4174.872, 4126.154, 169, 0, []
1627801179.366, 7, 0, 4140, 4261.538, 4181.538, 4168.718, 4119.487, 450, 0, []
1627801179.3738, 8, 0, 4146.154, 4273.846, 4175.897, 4169.231, 4124.103, 450, 0, []
1627801179.3817, 9, 0, 4142.564, 4293.333, 4181.026, 4170.769, 4124.615, 16157, 0, []
1627801179.3895, 10, 0, 4137.949, 4290.769, 4193.333, 4170.769, 4120.513, 450, 0, []
1627801179.3973, 11, 0, 4143.59, 4315.385, 4182.051, 4169.744, 4124.103, 16195, 0, []
1627801179.4051, 12, 0, 4133.333, 4337.436, 4188.205, 4174.359, 4113.333, 450, 0, []
1627801179.413, 13, 0, 4115.897, 4334.872, 4178.462, 4182.564, 4096.41, 450, 0, []
1627801179.4208, 14, 0, 4121.026, 4344.615, 4178.462, 4187.692, 4102.051, 450, 0, []
1627801179.4288, 15, 0, 4135.897, 4339.487, 4189.744, 4190.256, 4114.359, 16195, 0, []
1627801179.4366, 16, 0, 4131.795, 4311.795, 4176.923, 4183.077, 4110.256, 0, 0, []
1627801179.4446, 17, 0, 4121.026, 4308.718, 4188.718, 4169.744, 4100, 0, 0, []
1627801179.4525, 18, 0, 4129.744, 4302.051, 4193.333, 4173.333, 4104.615, 0, 0, []
1627801179.4605, 19, 0, 4135.897, 4285.128, 4183.077, 4182.564, 4115.897, 0, 0, []
1627801179.4684, 20, 0, 4132.308, 4294.872, 4183.077, 4184.103, 4122.051, 0, 0, []
1627801179.4763, 21, 0, 4136.41, 4298.462, 4178.974, 4189.231, 4124.615, 0, 0, []
1627801179.4842, 22, 0, 4137.436, 4295.897, 4192.821, 4193.846, 4123.077, 0, 0, []
1627801179.4922, 23, 0, 4132.821, 4307.692, 4184.103, 4187.692, 4121.538, 0, 0, []
1627801179.5001, 24, 0, 4135.385, 4293.333, 4176.923, 4177.949, 4122.051, 0, 0, []
1627801179.5081, 25, 0, 4137.949, 4262.051, 4191.282, 4170.769, 4115.385, 0, 0, []
1627801179.5159, 26, 0, 4136.41, 4260, 4177.949, 4164.615, 4110.769, 0, 0, []
1627801179.5237, 27, 0, 4145.128, 4252.821, 4188.205, 4169.744, 4125.128, 0, 0, []
1627801179.5316, 28, 0, 4160.513, 4229.231, 4189.231, 4181.026, 4140.513, 0, 0, []
1627801179.5394, 29, 0, 4172.308, 4234.872, 4174.872, 4192.308, 4144.103, 0, 0, []
1627801179.5473, 30, 0, 4168.718, 4258.462, 4187.692, 4192.821, 4141.026, 0, 0, []
1627801179.555, 31, 0, 4154.359, 4269.231, 4174.359, 4176.923, 4127.179, 0, 0, []
1627801179.5629, 32, 0, 4150.769, 4272.821, 4170.256, 4169.231, 4115.385, 0, 0, []
1627801179.5707, 33, 0, 4157.436, 4267.179, 4176.41, 4172.821, 4121.026, 0, 0, []
1627801179.5787, 34, 0, 4146.667, 4245.641, 4170.769, 4168.718, 4115.897, 0, 0, []
1627801179.5866, 35, 0, 4129.231, 4241.026, 4173.846, 4164.103, 4098.462, 0, 0, []
1627801179.5945, 36, 0, 4134.359, 4244.103, 4163.077, 4167.692, 4107.692, 0, 0, []
1627801179.6024, 37, 0, 4142.051, 4222.051, 4173.846, 4166.667, 4124.615, 0, 0, []
1627801179.6104, 38, 0, 4136.923, 4215.385, 4178.462, 4173.333, 4120, 0, 0, []
1627801179.6183, 39, 0, 4140.513, 4227.179, 4165.128, 4186.667, 4120.513, 0, 0, []
1627801179.6263, 40, 0, 4153.333, 4204.615, 4185.128, 4190.769, 4138.462, 0, 0, []
1627801179.6341, 41, 0, 4148.718, 4182.564, 4180, 4191.282, 4138.974, 0, 0, []
1627801179.6421, 42, 0, 4134.872, 4209.231, 4171.282, 4190.769, 4122.051, 0, 0, []
1627801179.65, 43, 0, 4142.051, 4225.128, 4181.026, 4186.154, 4124.103, 0, 0, []
1627801179.658, 44, 0, 4156.41, 4210.769, 4174.359, 4182.564, 4140, 0, 0, []
1627801179.6659, 45, 0, 4155.897, 4230.256, 4171.795, 4182.564, 4139.487, 0, 0, []
1627801179.6736, 46, 0, 4156.923, 4249.744, 4162.564, 4184.615, 4133.333, 0, 0, []
1627801179.6815, 47, 0, 4170.769, 4221.538, 4182.051, 4197.949, 4145.128, 0, 0, []
1627801179.6893, 48, 0, 4176.41, 4204.103, 4198.462, 4207.179, 4158.974, 0, 0, []
1627801179.6972, 49, 0, 4171.282, 4226.667, 4172.308, 4198.462, 4156.923, 0, 0, []
1627801179.705, 50, 0, 4165.641, 4240, 4173.846, 4197.436, 4148.205, 0, 0, []
1627801179.7128, 51, 0, 4160, 4240.513, 4176.923, 4201.538, 4143.59, 0, 0, []
1627801179.7206, 52, 0, 4159.487, 4263.077, 4175.897, 4189.744, 4145.128, 0, 0, []
1627801179.7285, 53, 0, 4155.897, 4273.846, 4172.821, 4175.897, 4141.026, 0, 0, []
1627801179.7363, 54, 0, 4151.795, 4245.641, 4149.744, 4176.923, 4135.897, 0, 0, []
1627801179.7443, 55, 0, 4160, 4244.615, 4169.744, 4187.179, 4142.051, 0, 0, []
1627801179.7521, 56, 0, 4166.667, 4293.333, 4184.103, 4196.41, 4153.333, 0, 0, []
1627801179.7601, 57, 0, 4165.128, 4304.615, 4182.564, 4200, 4155.897, 0, 0, []
1627801179.768, 58, 0, 4165.641, 4273.846, 4185.128, 4196.41, 4148.205, 0, 0, []
1627801179.776, 59, 0, 4160, 4275.385, 4158.462, 4190.769, 4141.538, 0, 0, []
1627801179.7839, 60, 0, 4150.769, 4269.231, 4166.667, 4182.564, 4137.436, 0, 0, []
1627801179.7918, 61, 0, 4159.487, 4247.692, 4180, 4174.359, 4135.385, 0, 0, []
1627801179.7997, 62, 0, 4172.308, 4276.41, 4163.59, 4177.949, 4140, 0, 0, []
1627801179.8077, 63, 0, 4165.641, 4286.667, 4169.744, 4186.667, 4147.179, 0, 0, []
1627801179.8156, 64, 0, 4157.949, 4241.538, 4173.333, 4180, 4149.744, 450, 0, []
1627801179.8236, 65, 0, 4153.333, 4251.795, 4171.282, 4168.205, 4142.564, 450, 0, []
1627801179.8314, 66, 0, 4148.718, 4294.872, 4157.436, 4168.718, 4141.026, 16188, 0, []
1627801179.8392, 67, 0, 4157.436, 4266.667, 4159.487, 4181.026, 4155.897, 450, 0, []
1627801179.8471, 68, 0, 4172.821, 4239.487, 4190.256, 4189.231, 4171.282, 16149, 0, []
1627801179.8549, 69, 0, 4172.308, 4281.538, 4182.564, 4184.615, 4171.282, 450, 0, []
1627801179.8628, 70, 0, 4165.128, 4293.846, 4183.59, 4183.077, 4165.128, 166, 0, []
1627801179.8705, 71, 0, 4169.231, 4244.103, 4193.846, 4189.231, 4166.667, 450, 0, []
1627801179.8784, 72, 0, 4170.769, 4226.667, 4183.59, 4186.667, 4169.744, 450, 0, []
1627801179.8862, 73, 0, 4166.154, 4235.385, 4187.179, 4181.026, 4174.359, 16157, 0, []
1627801179.8942, 74, 0, 4174.359, 4217.436, 4173.333, 4189.744, 4186.154, 450, 0, []
1627801179.9021, 75, 0, 4187.692, 4213.333, 4177.436, 4202.051, 4199.487, 16195, 0, []
1627801179.9101, 76, 0, 4187.179, 4232.308, 4185.641, 4196.923, 4198.974, 450, 0, []
1627801179.9179, 77, 0, 4182.564, 4226.154, 4158.974, 4185.641, 4185.641, 450, 0, []
1627801179.9259, 78, 0, 4185.641, 4209.231, 4165.128, 4188.205, 4181.538, 450, 0, []
1627801179.9338, 79, 0, 4184.615, 4206.154, 4167.692, 4192.308, 4183.077, 16195, 0, []
1627801179.9418, 80, 0, 4177.949, 4213.846, 4167.692, 4183.077, 4173.846, 450, 0, []
1627801179.9497, 81, 0, 4166.667, 4237.436, 4172.821, 4172.821, 4158.974, 450, 0, []
1627801179.9576, 82, 0, 4155.897, 4240, 4155.897, 4165.128, 4153.846, 450, 0, []
1627801179.9655, 83, 0, 4158.974, 4208.718, 4163.59, 4169.231, 4159.487, 16195, 0, []
1627801179.9733, 84, 0, 4172.308, 4198.462, 4160.513, 4180.513, 4169.231, 450, 0, []
1627801179.9812, 85, 0, 4181.026, 4205.641, 4155.897, 4177.436, 4176.923, 450, 0, []
1627801179.989, 86, 0, 4184.103, 4221.026, 4163.59, 4172.308, 4181.538, 450, 0, []
1627801179.9968, 87, 0, 4184.615, 4254.872, 4154.872, 4182.564, 4182.564, 16195, 0, []
1627801180.0046, 88, 0, 4173.846, 4266.667, 4168.205, 4188.718, 4174.359, 450, 0, []
1627801180.0125, 89, 0, 4164.615, 4244.615, 4174.872, 4182.564, 4166.667, 450, 0, []
1627801180.0203, 90, 0, 4171.282, 4242.564, 4179.487, 4186.667, 4167.179, 450, 0, []
1627801180.0282, 91, 0, 4181.026, 4258.974, 4188.205, 4191.282, 4174.359, 16195, 0, []
1627801180.0359, 92, 0, 4195.897, 4251.795, 4172.308, 4178.974, 4186.154, 450, 0, []
1627801180.0438, 93, 0, 4202.051, 4240, 4179.487, 4169.231, 4189.231, 450, 0, []
1627801180.0516, 94, 0, 4191.795, 4258.462, 4176.41, 4170.769, 4181.538, 450, 0, []
1627801180.0596, 95, 0, 4183.59, 4263.077, 4164.615, 4168.718, 4176.41, 16195, 0, []
1627801180.0675, 96, 0, 4187.179, 4230.769, 4176.923, 4166.154, 4173.333, 450, 0, []
1627801180.0754, 97, 0, 4185.128, 4203.59, 4160.513, 4164.615, 4169.231, 450, 0, []
1627801180.0833, 98, 0, 4181.538, 4212.821, 4155.897, 4158.974, 4171.282, 450, 0, []
1627801180.0913, 99, 0, 4185.641, 4235.897, 4162.564, 4163.59, 4179.487, 16195, 0, []
1627801180.0992, 100, 0, 4182.051, 4236.41, 4157.436, 4171.795, 4177.949, 450, 0, []
1627801180.1072, 101, 0, 4169.231, 4223.59, 4166.667, 4162.564, 4161.538, 450, 0, []
1627801180.115, 102, 0, 4168.718, 4232.308, 4162.051, 4156.41, 4153.846, 450, 0, []
1627801180.123, 103, 0, 4181.026, 4272.308, 4170.256, 4170.256, 4162.051, 16195, 0, []
1627801180.1309, 104, 0, 4183.077, 4275.385, 4170.769, 4178.462, 4168.205, 450, 0, []
1627801180.1387, 105, 0, 4168.718, 4223.077, 4147.692, 4165.641, 4162.564, 450, 0, []
1627801180.1466, 106, 0, 4155.385, 4205.128, 4151.795, 4152.821, 4152.821, 450, 0, []
1627801180.1543, 107, 0, 4149.231, 4217.949, 4141.538, 4152.308, 4149.231, 16195, 0, []
1627801180.1622, 108, 0, 4154.872, 4200, 4144.103, 4167.179, 4159.487, 450, 0, []
1627801180.17, 109, 0, 4172.821, 4196.923, 4160.513, 4182.051, 4174.359, 450, 0, []
1627801180.1779, 110, 0, 4187.179, 4229.231, 4153.846, 4180, 4182.051, 450, 0, []
1627801180.1857, 111, 0, 4185.641, 4233.333, 4158.974, 4183.077, 4183.077, 16195, 0, []
1627801180.1935, 112, 0, 4183.077, 4219.487, 4152.821, 4183.59, 4184.103, 450, 0, []
1627801180.2013, 113, 0, 4185.641, 4216.41, 4163.59, 4173.333, 4185.128, 450, 0, []
1627801180.2093, 114, 0, 4180, 4206.154, 4182.564, 4175.385, 4181.026, 450, 0, []
1627801180.2172, 115, 0, 4168.718, 4196.923, 4166.667, 4181.026, 4172.308, 16195, 0, []
1627801180.2252, 116, 0, 4163.59, 4189.231, 4169.231, 4168.718, 4162.564, 450, 0, []
1627801180.233, 117, 0, 4167.179, 4181.026, 4169.231, 4160, 4165.128, 450, 0, []
1627801180.241, 118, 0, 4176.41, 4185.128, 4172.308, 4169.231, 4182.051, 450, 0, []
1627801180.2489, 119, 0, 4175.385, 4175.385, 4174.872, 4169.744, 4182.051, 16195, 0, []
1627801180.2569, 120, 0, 4168.205, 4162.051, 4156.41, 4170.256, 4171.282, 450, 0, []
1627801180.2648, 121, 0, 4177.949, 4195.385, 4171.795, 4185.128, 4179.487, 450, 0, []
1627801180.2727, 122, 0, 4184.615, 4220, 4166.154, 4180.513, 4184.615, 450, 0, []
1627801180.2806, 123, 0, 4168.205, 4188.718, 4143.59, 4158.462, 4167.179, 16195, 0, []
1627801180.2884, 124, 0, 4161.538, 4165.641, 4160, 4157.949, 4160, 450, 0, []
1627801180.2963, 125, 0, 4169.231, 4182.051, 4160.513, 4166.667, 4169.744, 450, 0, []
1627801180.3041, 126, 0, 4168.718, 4192.821, 4167.692, 4162.564, 4174.872, 450, 0, []
1627801180.3119, 127, 0, 4171.795, 4170.769, 4172.308, 4160, 4182.564, 16195, 0, []
1627801180.3197, 128, 0, 4182.564, 4139.487, 4167.692, 4169.744, 4186.667, 450, 0, []
1627801180.3276, 0, 0, 4183.59, 4145.128, 4181.538, 4180.513, 4182.051, 450, 0, []
1627801180.3354, 1, 0, 4183.59, 4167.179, 4176.923, 4186.667, 4183.59, 450, 0, []
1627801180.3433, 2, 0, 4186.154, 4153.333, 4178.462, 4188.205, 4188.205, 16188, 0, []
1627801180.351, 3, 0, 4183.59, 4131.795, 4175.897, 4184.615, 4184.103, 450, 0, []
1627801180.3589, 4, 0, 4182.051, 4136.41, 4173.333, 4181.026, 4175.385, 16149, 0, []
1627801180.3667, 5, 0, 4179.487, 4138.974, 4191.282, 4173.846, 4167.692, 450, 0, []
1627801180.3747, 6, 0, 4178.462, 4139.487, 4183.59, 4169.231, 4166.154, 166, 0, []
1627801180.3826, 7, 0, 4184.103, 4165.641, 4191.282, 4175.385, 4172.308, 450, 0, []
1627801180.3905, 8, 0, 4184.103, 4188.205, 4198.974, 4185.128, 4179.487, 450, 0, []
1627801180.3984, 9, 0, 4188.718, 4178.462, 4184.615, 4187.692, 4191.282, 16157, 0, []
1627801180.4064, 10, 0, 4197.949, 4175.385, 4194.359, 4178.462, 4200.513, 450, 0, []
1627801180.4143, 11, 0, 4194.359, 4184.615, 4182.564, 4174.359, 4201.538, 16195, 0, []
1627801180.4223, 12, 0, 4194.872, 4180, 4180.513, 4185.641, 4203.077, 450, 0, []
1627801180.4301, 13, 0, 4198.462, 4169.744, 4193.333, 4192.308, 4200, 450, 0, []
1627801180.4381, 14, 0, 4188.718, 4163.077, 4183.077, 4186.667, 4190.769, 450, 0, []
1627801180.446, 15, 0, 4185.641, 4161.538, 4193.333, 4187.692, 4184.615, 16195, 0, []
1627801180.4538, 16, 0, 4197.949, 4171.282, 4185.641, 4190.769, 4187.179, 0, 0, []
1627801180.4617, 17, 0, 4204.103, 4193.846, 4175.897, 4181.026, 4193.846, 0, 0, []
1627801180.4694, 18, 0, 4202.564, 4211.795, 4181.538, 4175.385, 4195.385, 0, 0, []
1627801180.4773, 19, 0, 4202.051, 4202.051, 4176.41, 4180, 4186.667, 0, 0, []
1627801180.4851, 20, 0, 4203.077, 4187.179, 4194.359, 4181.538, 4181.538, 0, 0, []
1627801180.493, 21, 0, 4199.487, 4192.308, 4192.308, 4169.744, 4185.641, 0, 0, []
1627801180.5008, 22, 0, 4188.718, 4200.513, 4183.59, 4162.051, 4186.154, 0, 0, []
1627801180.5086, 23, 0, 4188.718, 4182.051, 4187.692, 4167.692, 4182.564, 0, 0, []
1627801180.5164, 24, 0, 4200, 4160, 4170.256, 4167.692, 4183.077, 0, 0, []
1627801180.5244, 25, 0, 4200.513, 4170.769, 4172.821, 4170.769, 4189.744, 0, 0, []
1627801180.5323, 26, 0, 4194.359, 4188.718, 4171.282, 4184.103, 4196.41, 0, 0, []
1627801180.5403, 27, 0, 4189.231, 4192.308, 4169.744, 4182.564, 4190.769, 0, 0, []
1627801180.5481, 28, 0, 4181.026, 4184.615, 4181.538, 4167.179, 4178.974, 0, 0, []
1627801180.5561, 29, 0, 4182.564, 4165.128, 4171.282, 4171.282, 4182.564, 0, 0, []
1627801180.564, 30, 0, 4196.41, 4175.897, 4181.538, 4186.154, 4192.821, 0, 0, []
1627801180.572, 31, 0, 4203.077, 4214.359, 4178.974, 4183.077, 4191.795, 0, 0, []
1627801180.5799, 32, 0, 4205.128, 4202.564, 4163.59, 4172.821, 4187.692, 0, 0, []
1627801180.5878, 33, 0, 4199.487, 4161.026, 4174.359, 4168.205, 4184.103, 0, 0, []
1627801180.5957, 34, 0, 4190.256, 4191.795, 4172.308, 4168.718, 4181.538, 0, 0, []
1627801180.6035, 35, 0, 4193.333, 4245.128, 4186.667, 4169.744, 4183.077, 0, 0, []
1627801180.6114, 36, 0, 4201.026, 4236.923, 4191.282, 4167.692, 4182.564, 0, 0, []
1627801180.6192, 37, 0, 4205.641, 4218.462, 4173.846, 4161.538, 4181.538, 0, 0, []
1627801180.627, 38, 0, 4214.872, 4237.436, 4180.513, 4165.641, 4194.872, 0, 0, []
1627801180.6348, 39, 0, 4220.513, 4248.205, 4179.487, 4184.103, 4208.205, 0, 0, []
1627801180.6427, 40, 0, 4206.667, 4229.744, 4185.128, 4196.923, 4194.359, 0, 0, []
1627801180.6505, 41, 0, 4189.744, 4217.949, 4179.487, 4196.923, 4177.436, 0, 0, []
1627801180.6584, 42, 0, 4191.795, 4217.949, 4170.769, 4194.872, 4184.103, 0, 0, []
1627801180.6662, 43, 0, 4197.949, 4210.769, 4190.256, 4189.744, 4186.667, 0, 0, []
1627801180.6741, 44, 0, 4198.462, 4210.256, 4170.769, 4173.333, 4175.385, 0, 0, []
1627801180.682, 45, 0, 4195.897, 4225.641, 4159.487, 4156.41, 4175.385, 0, 0, []
1627801180.69, 46, 0, 4199.487, 4228.718, 4180, 4161.538, 4184.615, 0, 0, []
1627801180.6979, 47, 0, 4210.256, 4231.795, 4184.615, 4176.41, 4189.744, 0, 0, []
1627801180.7059, 48, 0, 4214.359, 4243.077, 4196.923, 4183.59, 4190.769, 0, 0, []
1627801180.7137, 49, 0, 4205.641, 4220, 4187.692, 4189.231, 4190.256, 0, 0, []
1627801180.7217, 50, 0, 4199.487, 4187.692, 4174.359, 4194.872, 4190.256, 0, 0, []
1627801180.7296, 51, 0, 4203.077, 4202.564, 4170.256, 4191.795, 4192.308, 0, 0, []
1627801180.7376, 52, 0, 4212.821, 4221.026, 4158.974, 4180.513, 4197.436, 0, 0, []
1627801180.7455, 53, 0, 4222.051, 4186.667, 4176.41, 4167.692, 4206.154, 0, 0, []
1627801180.7532, 54, 0, 4228.718, 4153.333, 4170.769, 4155.897, 4210.769, 0, 0, []
1627801180.7611, 55, 0, 4236.923, 4165.641, 4158.462, 4150.769, 4211.282, 0, 0, []
1627801180.7689, 56, 0, 4270.769, 4176.41, 4168.205, 4150.769, 4237.949, 0, 0, []
1627801180.7768, 57, 0, 4337.436, 4155.897, 4164.615, 4164.615, 4298.974, 0, 0, []
1627801180.7846, 58, 0, 4403.077, 4149.231, 4185.128, 4196.923, 4360, 0, 0, []
1627801180.7924, 59, 0, 4444.615, 4164.615, 4184.103, 4207.179, 4397.436, 0, 0, []
1627801180.8002, 60, 0, 4465.128, 4168.205, 4167.692, 4191.795, 4410.769, 0, 0, []
1627801180.8081, 61, 0, 4470.256, 4176.41, 4177.436, 4182.564, 4412.308, 0, 0, []
1627801180.8159, 62, 0, 4456.923, 4195.897, 4169.231, 4170.769, 4404.615, 0, 0, []
1627801180.8239, 63, 0, 4429.744, 4188.205, 4173.333, 4160, 4384.615, 0, 0, []
1627801180.8317, 64, 0, 4407.692, 4154.872, 4176.923, 4168.718, 4366.154, 450, 0, []
1627801180.8397, 65, 0, 4401.026, 4172.308, 4176.41, 4187.692, 4363.077, 450, 0, []
1627801180.8476, 66, 0, 4396.923, 4227.179, 4189.744, 4197.436, 4360, 16180, 0, []
1627801180.8556, 67, 0, 4377.949, 4230.256, 4175.897, 4195.897, 4343.59, 450, 0, []
1627801180.8635, 68, 0, 4355.385, 4205.128, 4173.846, 4196.41, 4325.128, 16149, 0, []
1627801180.8714, 69, 0, 4340.513, 4225.641, 4179.487, 4197.949, 4312.821, 450, 0, []
1627801180.8793, 70, 0, 4325.128, 4249.231, 4184.103, 4188.718, 4300, 143, 0, []
1627801180.8873, 71, 0, 4306.154, 4214.359, 4196.41, 4174.872, 4280, 450, 0, []
1627801180.8952, 72, 0, 4289.231, 4195.385, 4178.974, 4176.923, 4265.128, 450, 0, []
1627801180.9032, 73, 0, 4281.538, 4245.128, 4187.692, 4184.615, 4265.641, 16154, 0, []
1627801180.911, 74, 0, 4276.923, 4261.538, 4193.333, 4183.077, 4262.564, 450, 0, []
1627801180.9188, 75, 0, 4270.769, 4223.077, 4167.692, 4183.59, 4255.897, 16196, 0, []
1627801180.9267, 76, 0, 4263.59, 4221.026, 4180.513, 4190.256, 4257.949, 450, 0, []
1627801180.9345, 77, 0, 4257.949, 4237.436, 4182.564, 4189.744, 4255.385, 450, 0, []
1627801180.9424, 78, 0, 4245.641, 4222.564, 4175.897, 4175.385, 4233.333, 450, 0, []
1627801180.9501, 79, 0, 4230.769, 4209.744, 4184.615, 4163.077, 4213.333, 16196, 0, []
1627801180.958, 80, 0, 4229.744, 4212.308, 4186.154, 4169.744, 4222.051, 450, 0, []
1627801180.9658, 81, 0, 4234.872, 4218.974, 4188.718, 4186.154, 4233.333, 450, 0, []
1627801180.9737, 82, 0, 4229.744, 4231.795, 4166.667, 4194.872, 4221.538, 450, 0, []
1627801180.9815, 83, 0, 4222.051, 4221.538, 4174.359, 4197.949, 4215.385, 16196, 0, []
1627801180.9894, 84, 0, 4218.462, 4207.179, 4197.436, 4202.564, 4226.667, 450, 0, []
1627801180.9973, 85, 0, 4209.744, 4230.256, 4174.359, 4197.436, 4221.026, 450, 0, []
1627801181.0053, 86, 0, 4198.462, 4223.59, 4168.718, 4185.128, 4200, 450, 0, []
1627801181.0132, 87, 0, 4196.41, 4194.359, 4165.128, 4181.026, 4192.308, 16196, 0, []
1627801181.0212, 88, 0, 4199.487, 4209.744, 4168.718, 4182.564, 4193.333, 450, 0, []
1627801181.029, 89, 0, 4200.513, 4221.026, 4193.846, 4183.077, 4197.436, 450, 0, []
1627801181.037, 90, 0, 4200.513, 4210.256, 4191.282, 4187.692, 4204.103, 450, 0, []
1627801181.0449, 91, 0, 4202.051, 4212.821, 4191.795, 4192.821, 4203.077, 16196, 0, []
1627801181.0529, 92, 0, 4197.436, 4178.462, 4189.744, 4184.615, 4198.462, 450, 0, []
1627801181.0608, 93, 0, 4188.205, 4125.128, 4194.872, 4183.59, 4202.051, 450, 0, []
1627801181.0685, 94, 0, 4186.154, 4144.103, 4202.051, 4200, 4200.513, 450, 0, []
1627801181.0764, 95, 0, 4188.205, 4158.462, 4169.231, 4200.513, 4188.718, 16196, 0, []
1627801181.0842, 96, 0, 4186.154, 4125.128, 4162.051, 4184.615, 4183.077, 450, 0, []
1627801181.0921, 97, 0, 4186.154, 4140.513, 4165.128, 4182.564, 4190.769, 450, 0, []
1627801181.0999, 98, 0, 4188.205, 4174.872, 4166.154, 4189.231, 4193.333, 450, 0, []
1627801181.1077, 99, 0, 4185.641, 4165.641, 4188.205, 4187.692, 4187.179, 16196, 0, []
1627801181.1155, 100, 0, 4184.615, 4154.872, 4181.538, 4184.615, 4186.154, 450, 0, []
1627801181.1234, 101, 0, 4186.667, 4162.051, 4186.667, 4185.128, 4186.667, 450, 0, []
1627801181.1312, 102, 0, 4178.974, 4157.949, 4188.718, 4177.949, 4178.974, 450, 0, []
1627801181.1392, 103, 0, 4169.744, 4170.769, 4172.308, 4161.538, 4170.769, 16196, 0, []
1627801181.147, 104, 0, 4168.718, 4209.744, 4181.538, 4158.974, 4172.308, 450, 0, []
1627801181.155, 105, 0, 4172.308, 4209.744, 4173.846, 4171.282, 4173.846, 450, 0, []
1627801181.1629, 106, 0, 4172.308, 4178.462, 4169.744, 4174.359, 4169.744, 450, 0, []
1627801181.1709, 107, 0, 4170.256, 4178.462, 4165.641, 4176.41, 4169.744, 16196, 0, []
1627801181.1788, 108, 0, 4169.744, 4204.615, 4153.846, 4181.538, 4167.179, 450, 0, []
1627801181.1867, 109, 0, 4168.205, 4207.692, 4167.692, 4175.897, 4154.872, 450, 0, []
1627801181.1946, 110, 0, 4169.231, 4216.41, 4163.077, 4172.821, 4156.41, 450, 0, []
1627801181.2026, 111, 0, 4180.513, 4255.385, 4173.333, 4185.641, 4174.359, 16196, 0, []
1627801181.2105, 112, 0, 4193.846, 4267.692, 4191.795, 4194.359, 4187.692, 450, 0, []
1627801181.2183, 113, 0, 4194.359, 4237.436, 4178.974, 4188.205, 4188.718, 450, 0, []
1627801181.2261, 114, 0, 4182.051, 4209.744, 4182.564, 4176.923, 4178.462, 450, 0, []
1627801181.2339, 115, 0, 4173.333, 4216.923, 4176.923, 4168.205, 4173.846, 16196, 0, []
1627801181.2418, 116, 0, 4171.795, 4240.513, 4172.308, 4172.308, 4182.564, 450, 0, []
1627801181.2496, 117, 0, 4174.872, 4250.769, 4171.795, 4175.385, 4188.205, 450, 0, []
1627801181.2575, 118, 0, 4180.513, 4247.692, 4160, 4167.692, 4187.179, 450, 0, []
1627801181.2652, 119, 0, 4185.128, 4246.667, 4182.051, 4173.333, 4186.154, 16196, 0, []
1627801181.2731, 120, 0, 4184.103, 4262.051, 4180.513, 4187.179, 4188.718, 450, 0, []
1627801181.2809, 121, 0, 4175.897, 4264.615, 4168.718, 4181.538, 4185.128, 450, 0, []
1627801181.2889, 122, 0, 4170.769, 4237.436, 4181.538, 4172.308, 4176.923, 450, 0, []
1627801181.2968, 123, 0, 4172.308, 4220.513, 4172.308, 4174.359, 4168.718, 16196, 0, []
1627801181.3047, 124, 0, 4168.718, 4243.077, 4172.308, 4175.897, 4167.179, 450, 0, []
1627801181.3126, 125, 0, 4155.897, 4256.41, 4163.59, 4170.769, 4165.128, 450, 0, []
1627801181.3206, 126, 0, 4148.718, 4231.795, 4162.051, 4168.205, 4154.872, 450, 0, []
1627801181.3285, 127, 0, 4154.872, 4210.769, 4180.513, 4173.333, 4156.41, 16196, 0, []
1627801181.3365, 128, 0, 4167.692, 4215.385, 4167.692, 4184.615, 4169.744, 450, 0, []
1627801181.3443, 0, 0, 4180.513, 4226.667, 4173.846, 4189.231, 4175.385, 450, 0, []
1627801181.3523, 1, 0, 4175.385, 4215.897, 4181.026, 4175.385, 4169.744, 450, 0, []
1627801181.3602, 2, 0, 4167.692, 4189.744, 4176.41, 4163.59, 4169.231, 16177, 0, []
1627801181.3682, 3, 0, 4177.436, 4186.154, 4192.821, 4174.872, 4173.846, 450, 0, []
1627801181.3761, 4, 0, 4183.59, 4185.128, 4187.179, 4191.282, 4173.333, 16142, 0, []
1627801181.3838, 5, 0, 4171.795, 4158.462, 4179.487, 4192.308, 4170.256, 450, 0, []
1627801181.3917, 6, 0, 4165.128, 4146.667, 4171.282, 4183.077, 4170.769, 168, 0, []
1627801181.3995, 7, 0, 4171.795, 4163.077, 4167.179, 4180, 4174.872, 450, 0, []
1627801181.4074, 8, 0, 4171.795, 4173.333, 4180.513, 4183.077, 4173.333, 450, 0, []
1627801181.4152, 9, 0, 4168.205, 4184.103, 4170.256, 4181.538, 4167.692, 16152, 0, []
1627801181.4231, 10, 0, 4168.718, 4178.974, 4175.385, 4173.846, 4165.641, 450, 0, []
1627801181.4308, 11, 0, 4168.718, 4138.974, 4178.974, 4171.795, 4166.667, 16197, 0, []
1627801181.4387, 12, 0, 4169.744, 4126.667, 4173.333, 4181.026, 4166.667, 450, 0, []
1627801181.4465, 13, 0, 4171.795, 4158.974, 4201.026, 4189.744, 4166.667, 450, 0, []
1627801181.4545, 14, 0, 4171.795, 4174.359, 4189.231, 4188.718, 4169.744, 450, 0, []
1627801181.4624, 15, 0, 4170.769, 4174.359, 4172.821, 4187.692, 4175.897, 16197, 0, []
1627801181.4703, 16, 0, 4177.436, 4175.385, 4186.667, 4187.179, 4183.077, 0, 0, []
1627801181.4782, 17, 0, 4183.077, 4168.718, 4180, 4183.077, 4187.179, 0, 0, []
1627801181.4862, 18, 0, 4182.051, 4166.154, 4179.487, 4185.641, 4186.667, 0, 0, []
1627801181.4941, 19, 0, 4184.103, 4168.718, 4170.769, 4188.718, 4181.026, 0, 0, []
1627801181.5021, 20, 0, 4187.692, 4164.103, 4176.41, 4183.59, 4174.359, 0, 0, []
1627801181.5099, 21, 0, 4186.154, 4175.897, 4186.667, 4178.462, 4169.744, 0, 0, []
1627801181.5179, 22, 0, 4182.564, 4190.256, 4175.897, 4182.051, 4170.769, 0, 0, []
1627801181.5258, 23, 0, 4175.897, 4164.103, 4191.795, 4186.667, 4172.308, 0, 0, []
1627801181.5336, 24, 0, 4170.256, 4149.744, 4183.077, 4185.128, 4171.795, 0, 0, []
1627801181.5415, 25, 0, 4173.333, 4182.564, 4166.154, 4178.974, 4171.282, 0, 0, []
1627801181.5492, 26, 0, 4174.872, 4187.692, 4174.872, 4174.359, 4176.923, 0, 0, []
1627801181.5571, 27, 0, 4175.897, 4152.308, 4167.692, 4177.949, 4186.154, 0, 0, []
1627801181.5649, 28, 0, 4178.974, 4164.103, 4175.897, 4174.872, 4182.051, 0, 0, []
1627801181.5728, 29, 0, 4174.872, 4193.846, 4177.436, 4163.59, 4168.718, 0, 0, []
1627801181.5806, 30, 0, 4173.846, 4183.077, 4180, 4174.359, 4170.256, 0, 0, []
1627801181.5884, 31, 0, 4175.385, 4178.974, 4196.923, 4191.795, 4176.41, 0, 0, []
1627801181.5962, 32, 0, 4172.821, 4200, 4182.051, 4186.667, 4171.282, 0, 0, []
1627801181.6042, 33, 0, 4174.359, 4210.769, 4182.051, 4177.949, 4171.282, 0, 0, []
1627801181.6121, 34, 0, 4185.641, 4214.359, 4186.667, 4186.667, 4184.103, 0, 0, []
1627801181.6201, 35, 0, 4198.462, 4217.949, 4180.513, 4198.462, 4195.385, 0, 0, []
1627801181.6279, 36, 0, 4196.41, 4203.077, 4182.564, 4195.897, 4189.744, 0, 0, []
1627801181.6359, 37, 0, 4186.667, 4201.026, 4165.128, 4185.128, 4174.359, 0, 0, []
1627801181.6438, 38, 0, 4183.59, 4214.359, 4173.846, 4181.026, 4168.205, 0, 0, []
1627801181.6518, 39, 0, 4183.077, 4215.385, 4181.026, 4183.077, 4166.667, 0, 0, []
1627801181.6597, 40, 0, 4180.513, 4216.923, 4167.692, 4181.538, 4166.154, 0, 0, []
1627801181.6676, 41, 0, 4181.538, 4233.333, 4179.487, 4173.333, 4173.333, 0, 0, []
1627801181.6755, 42, 0, 4187.179, 4251.795, 4179.487, 4171.795, 4186.154, 0, 0, []
1627801181.6833, 43, 0, 4193.333, 4246.667, 4192.308, 4190.256, 4192.821, 0, 0, []
1627801181.6912, 44, 0, 4204.615, 4221.026, 4203.077, 4209.744, 4193.333, 0, 0, []
1627801181.699, 45, 0, 4203.077, 4206.154, 4187.179, 4203.59, 4189.744, 0, 0, []
1627801181.7068, 46, 0, 4188.205, 4229.231, 4185.128, 4189.744, 4181.538, 0, 0, []
1627801181.7146, 47, 0, 4182.564, 4240, 4168.718, 4186.667, 4172.821, 0, 0, []
1627801181.7225, 48, 0, 4184.103, 4222.564, 4170.256, 4187.179, 4168.205, 0, 0, []
1627801181.7303, 49, 0, 4186.667, 4213.333, 4180, 4185.641, 4169.744, 0, 0, []
1627801181.7382, 50, 0, 4184.103, 4194.359, 4168.205, 4182.051, 4175.385, 0, 0, []
1627801181.7459, 51, 0, 4181.026, 4164.615, 4185.641, 4190.769, 4183.077, 0, 0, []
1627801181.7538, 52, 0, 4194.359, 4170.769, 4187.692, 4198.974, 4190.769, 0, 0, []
1627801181.7616, 53, 0, 4205.641, 4204.615, 4176.923, 4190.769, 4188.718, 0, 0, []
1627801181.7696, 54, 0, 4194.359, 4189.744, 4173.333, 4190.256, 4181.538, 0, 0, []
1627801181.7775, 55, 0, 4188.205, 4150.769, 4166.667, 4198.974, 4184.615, 0, 0, []
1627801181.7854, 56, 0, 4201.026, 4165.641, 4182.564, 4192.308, 4191.282, 0, 0, []
1627801181.7933, 57, 0, 4201.026, 4177.436, 4169.744, 4171.795, 4186.154, 0, 0, []
1627801181.8013, 58, 0, 4190.769, 4137.949, 4163.077, 4164.103, 4176.41, 0, 0, []
1627801181.8092, 59, 0, 4196.923, 4128.205, 4183.59, 4174.359, 4178.974, 0, 0, []
1627801181.8172, 60, 0, 4204.615, 4151.795, 4169.744, 4184.103, 4186.154, 0, 0, []
1627801181.825, 61, 0, 4198.974, 4138.974, 4171.282, 4175.897, 4183.077, 0, 0, []
1627801181.833, 62, 0, 4197.436, 4144.615, 4179.487, 4166.667, 4180, 0, 0, []
1627801181.8409, 63, 0, 4206.154, 4175.385, 4182.051, 4181.026, 4186.154, 0, 0, []
1627801181.8487, 64, 0, 4203.077, 4168.205, 4182.051, 4193.333, 4185.128, 450, 0, []
1627801181.8566, 65, 0, 4187.692, 4163.077, 4153.333, 4177.436, 4173.846, 450, 0, []
1627801181.8643, 66, 0, 4180.513, 4190.256, 4153.846, 4162.564, 4165.641, 16181, 0, []
1627801181.8722, 67, 0, 4183.077, 4205.128, 4157.949, 4168.205, 4169.231, 450, 0, []
1627801181.88, 68, 0, 4189.231, 4194.872, 4160.513, 4178.462, 4178.974, 16148, 0, []
1627801181.8879, 69, 0, 4196.41, 4201.538, 4185.128, 4177.436, 4184.103, 450, 0, []
1627801181.8957, 70, 0, 4203.077, 4228.718, 4172.308, 4168.205, 4182.051, 172, 0, []
1627801181.9035, 71, 0, 4207.692, 4229.231, 4171.795, 4175.897, 4182.564, 450, 0, []
1627801181.9113, 72, 0, 4207.179, 4213.333, 4184.103, 4195.385, 4187.692, 450, 0, []
1627801181.9193, 73, 0, 4201.538, 4215.897, 4176.41, 4198.462, 4189.231, 16152, 0, []
1627801181.9272, 74, 0, 4196.923, 4208.718, 4178.974, 4188.718, 4184.103, 450, 0, []
1627801181.9352, 75, 0, 4199.487, 4182.051, 4172.821, 4178.974, 4180, 16197, 0, []
1627801181.943, 76, 0, 4199.487, 4169.744, 4183.59, 4173.333, 4187.179, 450, 0, []
1627801181.951, 77, 0, 4200, 4177.436, 4184.103, 4178.974, 4195.897, 450, 0, []
1627801181.9589, 78, 0, 4203.077, 4187.692, 4166.667, 4186.667, 4192.308, 450, 0, []
1627801181.9669, 79, 0, 4199.487, 4187.692, 4179.487, 4177.436, 4183.59, 16197, 0, []
1627801181.9748, 80, 0, 4190.256, 4180, 4173.846, 4168.718, 4177.436, 450, 0, []
1627801181.9827, 81, 0, 4183.59, 4174.359, 4169.231, 4173.846, 4169.744, 450, 0, []
1627801181.9906, 82, 0, 4181.538, 4164.615, 4174.872, 4172.308, 4164.103, 450, 0, []
1627801181.9984, 83, 0, 4186.667, 4172.308, 4167.692, 4167.179, 4169.231, 16197, 0, []
1627801182.0063, 84, 0, 4191.795, 4202.051, 4172.308, 4169.231, 4176.41, 450, 0, []
1627801182.0141, 85, 0, 4182.564, 4189.231, 4155.897, 4167.692, 4167.692, 450, 0, []
1627801182.0219, 86, 0, 4169.231, 4170.256, 4153.846, 4157.436, 4151.795, 450, 0, []
1627801182.0297, 87, 0, 4166.154, 4188.718, 4168.205, 4158.462, 4148.205, 16197, 0, []
1627801182.0376, 88, 0, 4169.231, 4177.436, 4155.385, 4172.821, 4153.333, 450, 0, []
1627801182.0454, 89, 0, 4174.359, 4158.974, 4167.179, 4180.513, 4157.436, 450, 0, []
1627801182.0533, 90, 0, 4183.59, 4171.795, 4170.256, 4176.41, 4168.205, 450, 0, []
1627801182.061, 91, 0, 4189.231, 4182.051, 4167.179, 4172.308, 4182.564, 16197, 0, []
1627801182.069, 92, 0, 4185.641, 4174.359, 4185.128, 4172.308, 4181.538, 450, 0, []
1627801182.0769, 93, 0, 4185.641, 4183.59, 4178.462, 4169.744, 4173.846, 450, 0, []
1627801182.0849, 94, 0, 4184.615, 4205.128, 4172.821, 4169.744, 4170.256, 450, 0, []
1627801182.0928, 95, 0, 4177.949, 4194.872, 4164.103, 4174.359, 4169.231, 16197, 0, []
1627801182.1007, 96, 0, 4181.026, 4166.667, 4161.026, 4175.897, 4171.282, 450, 0, []
1627801182.1086, 97, 0, 4180.513, 4162.564, 4164.615, 4169.231, 4165.128, 450, 0, []
1627801182.1166, 98, 0, 4171.795, 4184.615, 4146.154, 4155.385, 4154.359, 450, 0, []
1627801182.1245, 99, 0, 4175.897, 4193.333, 4162.564, 4150.769, 4155.897, 16197, 0, []
1627801182.1325, 100, 0, 4184.103, 4186.154, 4170.256, 4160, 4165.128, 450, 0, []
1627801182.1403, 101, 0, 4171.795, 4191.282, 4155.897, 4164.615, 4157.949, 450, 0, []
1627801182.1481, 102, 0, 4160, 4183.077, 4171.795, 4164.615, 4146.667, 450, 0, []
1627801182.156, 103, 0, 4172.821, 4147.179, 4174.872, 4171.795, 4160.513, 16197, 0, []
1627801182.1638, 104, 0, 4184.103, 4135.385, 4185.641, 4186.667, 4178.974, 450, 0, []
1627801182.1717, 105, 0, 4185.128, 4159.487, 4186.154, 4196.41, 4184.615, 450, 0, []
1627801182.1795, 106, 0, 4186.667, 4152.821, 4169.231, 4192.308, 4188.205, 450, 0, []
1627801182.1873, 107, 0, 4179.487, 4134.359, 4170.256, 4185.128, 4185.641, 16197, 0, []
1627801182.1951, 108, 0, 4165.128, 4140.513, 4149.744, 4178.974, 4169.744, 450, 0, []
1627801182.203, 109, 0, 4168.205, 4135.897, 4157.436, 4185.641, 4170.769, 450, 0, []
1627801182.2108, 110, 0, 4186.667, 4151.795, 4181.538, 4195.897, 4195.897, 450, 0, []
1627801182.2188, 111, 0, 4191.282, 4187.179, 4172.308, 4186.667, 4200, 16197, 0, []
1627801182.2266, 112, 0, 4182.564, 4163.077, 4173.333, 4174.359, 4183.59, 450, 0, []
1627801182.2346, 113, 0, 4182.564, 4136.41, 4168.718, 4181.538, 4182.051, 450, 0, []
1627801182.2425, 114, 0, 4186.667, 4158.974, 4176.923, 4192.821, 4188.205, 450, 0, []
1627801182.2505, 115, 0, 4185.128, 4153.333, 4180.513, 4189.231, 4185.128, 16197, 0, []
1627801182.2584, 116, 0, 4184.103, 4138.974, 4165.128, 4186.154, 4184.103, 450, 0, []
1627801182.2663, 117, 0, 4185.128, 4155.897, 4182.564, 4186.667, 4185.641, 450, 0, []
1627801182.2742, 118, 0, 4184.615, 4140.513, 4181.026, 4181.538, 4186.154, 450, 0, []
1627801182.2822, 119, 0, 4185.641, 4114.359, 4170.256, 4182.564, 4190.769, 16197, 0, []
1627801182.2901, 120, 0, 4190.256, 4149.231, 4172.821, 4181.538, 4198.974, 450, 0, []
1627801182.2981, 121, 0, 4195.385, 4184.615, 4167.692, 4177.436, 4201.538, 450, 0, []
1627801182.3059, 122, 0, 4205.641, 4180.513, 4186.154, 4187.179, 4200.513, 450, 0, []
1627801182.3137, 123, 0, 4217.436, 4197.436, 4180, 4202.564, 4206.667, 16197, 0, []
1627801182.3216, 124, 0, 4218.974, 4216.923, 4170.769, 4203.59, 4213.846, 450, 0, []
1627801182.3294, 125, 0, 4215.385, 4197.436, 4191.282, 4198.462, 4216.923, 450, 0, []
1627801182.3373, 126, 0, 4214.872, 4174.872, 4181.538, 4199.487, 4212.821, 450, 0, []
1627801182.345, 127, 0, 4214.359, 4165.128, 4177.949, 4203.077, 4207.179, 16197, 0, []
1627801182.3529, 128, 0, 4212.821, 4141.026, 4183.077, 4195.385, 4210.769, 450, 0, []
1627801182.3607, 0, 0, 4214.359, 4130.769, 4192.308, 4187.692, 4216.41, 450, 0, []
1627801182.3686, 1, 0, 4217.949, 4157.949, 4205.128, 4204.103, 4216.923, 450, 0, []
1627801182.3764, 2, 0, 4213.333, 4175.897, 4187.179, 4216.923, 4216.41, 16181, 0, []
1627801182.3843, 3, 0, 4203.077, 4193.333, 4190.256, 4203.59, 4216.41, 450, 0, []
1627801182.3922, 4, 0, 4206.667, 4207.692, 4188.718, 4200.513, 4212.821, 16148, 0, []
1627801182.4002, 5, 0, 4222.051, 4195.897, 4176.41, 4211.282, 4217.436, 450, 0, []
1627801182.4081, 6, 0, 4216.923, 4191.282, 4181.538, 4206.667, 4217.436, 171, 0, []
1627801182.4161, 7, 0, 4197.949, 4193.333, 4172.821, 4196.923, 4203.59, 450, 0, []
1627801182.4239, 8, 0, 4194.872, 4186.667, 4188.205, 4200, 4194.872, 450, 0, []
1627801182.4319, 9, 0, 4200.513, 4208.718, 4194.359, 4202.564, 4195.385, 16152, 0, []
1627801182.4398, 10, 0, 4200, 4228.205, 4182.564, 4195.897, 4197.949, 450, 0, []
1627801182.4478, 11, 0, 4197.436, 4189.231, 4195.897, 4190.256, 4196.923, 16197, 0, []
1627801182.4557, 12, 0, 4203.59, 4157.949, 4183.077, 4196.923, 4196.41, 450, 0, []
1627801182.4634, 13, 0, 4215.385, 4184.103, 4182.564, 4207.179, 4203.59, 450, 0, []
1627801182.4713, 14, 0, 4216.923, 4217.949, 4189.744, 4204.615, 4209.744, 450, 0, []
1627801182.4791, 15, 0, 4213.333, 4216.41, 4174.359, 4197.949, 4206.154, 16197, 0, []
1627801182.487, 16, 0, 4213.846, 4197.949, 4176.41, 4202.051, 4204.103, 0, 0, []
1627801182.4948, 17, 0, 4216.41, 4192.308, 4165.641, 4201.538, 4208.718, 0, 0, []
1627801182.5026, 18, 0, 4214.872, 4197.949, 4171.795, 4188.718, 4208.718, 0, 0, []
1627801182.5104, 19, 0, 4213.333, 4217.436, 4191.282, 4189.744, 4205.128, 0, 0, []
1627801182.5183, 20, 0, 4211.795, 4230.769, 4181.026, 4204.615, 4203.59, 0, 0, []
1627801182.5261, 21, 0, 4211.282, 4218.974, 4184.615, 4206.667, 4200.513, 0, 0, []
1627801182.5341, 22, 0, 4217.436, 4222.564, 4182.564, 4197.949, 4202.564, 0, 0, []
1627801182.5419, 23, 0, 4217.949, 4237.949, 4187.692, 4193.333, 4205.128, 0, 0, []
1627801182.5498, 24, 0, 4205.128, 4221.538, 4192.821, 4185.128, 4202.564, 0, 0, []
1627801182.5576, 25, 0, 4196.923, 4191.282, 4172.308, 4177.949, 4197.436, 0, 0, []
1627801182.5656, 26, 0, 4206.667, 4179.487, 4179.487, 4185.641, 4196.41, 0, 0, []
1627801182.5735, 27, 0, 4218.462, 4183.077, 4177.949, 4187.179, 4200.513, 0, 0, []
1627801182.5814, 28, 0, 4216.923, 4181.538, 4172.308, 4177.436, 4203.077, 0, 0, []
1627801182.5893, 29, 0, 4211.795, 4164.103, 4184.615, 4179.487, 4198.974, 0, 0, []
1627801182.5973, 30, 0, 4214.359, 4178.974, 4181.026, 4188.205, 4198.974, 0, 0, []
1627801182.6052, 31, 0, 4220.513, 4227.179, 4192.308, 4187.179, 4209.231, 0, 0, []
1627801182.6132, 32, 0, 4221.538, 4229.231, 4186.667, 4183.59, 4213.846, 0, 0, []
1627801182.621, 33, 0, 4226.667, 4205.641, 4182.564, 4195.897, 4216.923, 0, 0, []
1627801182.6288, 34, 0, 4230.256, 4216.41, 4193.846, 4206.667, 4222.051, 0, 0, []
1627801182.6367, 35, 0, 4218.462, 4211.795, 4169.744, 4195.385, 4214.359, 0, 0, []
1627801182.6445, 36, 0, 4213.846, 4193.846, 4171.795, 4190.256, 4205.641, 0, 0, []
1627801182.6524, 37, 0, 4227.179, 4201.538, 4183.59, 4198.462, 4212.821, 0, 0, []
1627801182.6601, 38, 0, 4237.949, 4220.513, 4174.359, 4201.026, 4221.538, 0, 0, []
1627801182.668, 39, 0, 4231.795, 4226.667, 4177.949, 4199.487, 4213.846, 0, 0, []
1627801182.6758, 40, 0, 4223.59, 4212.821, 4172.821, 4197.949, 4204.615, 0, 0, []
1627801182.6837, 41, 0, 4216.41, 4207.692, 4181.538, 4189.744, 4201.538, 0, 0, []
1627801182.6915, 42, 0, 4209.744, 4219.487, 4176.923, 4180.513, 4194.872, 0, 0, []
1627801182.6994, 43, 0, 4209.744, 4214.359, 4161.538, 4181.538, 4192.308, 0, 0, []
1627801182.7073, 44, 0, 4213.333, 4216.923, 4182.564, 4195.385, 4204.615, 0, 0, []
1627801182.7153, 45, 0, 4222.051, 4251.795, 4184.615, 4202.564, 4216.923, 0, 0, []
1627801182.7232, 46, 0, 4226.667, 4257.949, 4189.744, 4190.256, 4208.205, 0, 0, []
1627801182.7312, 47, 0, 4223.59, 4222.564, 4190.256, 4185.128, 4197.949, 0, 0, []
1627801182.739, 48, 0, 4217.949, 4204.103, 4169.744, 4201.026, 4201.538, 0, 0, []
1627801182.747, 49, 0, 4215.385, 4220, 4174.872, 4204.103, 4203.59, 0, 0, []
1627801182.7549, 50, 0, 4216.41, 4227.692, 4171.795, 4188.718, 4198.974, 0, 0, []
1627801182.7629, 51, 0, 4212.308, 4203.077, 4173.333, 4181.538, 4191.282, 0, 0, []
1627801182.7708, 52, 0, 4209.231, 4189.744, 4176.923, 4183.077, 4186.154, 0, 0, []
1627801182.7785, 53, 0, 4213.846, 4193.846, 4169.231, 4187.179, 4189.744, 0, 0, []
1627801182.7864, 54, 0, 4218.462, 4193.333, 4186.154, 4185.641, 4189.744, 0, 0, []
1627801182.7942, 55, 0, 4213.333, 4184.103, 4173.846, 4169.744, 4183.59, 0, 0, []
1627801182.8021, 56, 0, 4203.077, 4170.256, 4161.538, 4165.641, 4183.077, 0, 0, []
1627801182.8099, 57, 0, 4197.949, 4165.641, 4173.333, 4180.513, 4175.897, 0, 0, []
1627801182.8177, 58, 0, 4198.974, 4170.769, 4168.718, 4187.692, 4167.692, 0, 0, []
1627801182.8255, 59, 0, 4212.308, 4160, 4183.59, 4188.718, 4183.59, 0, 0, []
1627801182.8334, 60, 0, 4226.667, 4133.333, 4181.026, 4197.949, 4204.615, 0, 0, []
1627801182.8412, 61, 0, 4223.59, 4144.103, 4175.385, 4203.59, 4204.103, 0, 0, []
1627801182.8492, 62, 0, 4215.897, 4173.333, 4189.231, 4199.487, 4201.026, 0, 0, []
1627801182.857, 63, 0, 4217.436, 4158.974, 4174.872, 4178.462, 4199.487, 0, 0, []
1627801182.865, 64, 0, 4213.333, 4136.41, 4168.205, 4163.077, 4186.667, 450, 0, []
1627801182.8729, 65, 0, 4204.615, 4160.513, 4162.564, 4182.564, 4185.641, 450, 0, []
1627801182.8809, 66, 0, 4211.282, 4189.231, 4165.641, 4200.513, 4201.026, 16181, 0, []
1627801182.8888, 67, 0, 4217.949, 4156.923, 4177.436, 4187.692, 4200.513, 450, 0, []
1627801182.8968, 68, 0, 4208.718, 4113.333, 4155.897, 4175.897, 4188.205, 16150, 0, []
1627801182.9046, 69, 0, 4202.564, 4130.256, 4162.051, 4173.846, 4181.538, 450, 0, []
1627801182.9126, 70, 0, 4207.692, 4163.59, 4172.308, 4166.154, 4176.41, 161, 0, []
1627801182.9205, 71, 0, 4210.769, 4161.538, 4170.769, 4165.128, 4176.923, 450, 0, []
1627801182.9283, 72, 0, 4202.564, 4134.359, 4183.077, 4170.256, 4176.923, 450, 0, []
1627801182.9362, 73, 0, 4191.795, 4126.154, 4165.128, 4167.179, 4166.154, 16152, 0, []
1627801182.9439, 74, 0, 4184.615, 4139.487, 4167.692, 4169.231, 4158.974, 450, 0, []
1627801182.9518, 75, 0, 4184.615, 4141.538, 4184.103, 4180.513, 4167.692, 16197, 0, []
1627801182.9596, 76, 0, 4194.359, 4137.949, 4173.846, 4182.051, 4180, 450, 0, []
1627801182.9675, 77, 0, 4195.385, 4137.949, 4167.692, 4170.769, 4183.077, 450, 0, []
1627801182.9753, 78, 0, 4186.667, 4144.615, 4154.359, 4169.744, 4184.103, 450, 0, []
1627801182.9831, 79, 0, 4184.615, 4149.744, 4160.513, 4176.41, 4184.103, 16197, 0, []
1627801182.9909, 80, 0, 4185.641, 4134.872, 4167.692, 4171.282, 4178.974, 450, 0, []
1627801182.9988, 81, 0, 4183.59, 4125.128, 4166.667, 4161.538, 4176.41, 450, 0, []
1627801183.0066, 82, 0, 4188.718, 4142.564, 4186.667, 4165.128, 4180.513, 450, 0, []
1627801183.0145, 83, 0, 4199.487, 4135.897, 4172.308, 4176.923, 4189.231, 16197, 0, []
1627801183.0222, 84, 0, 4206.154, 4118.462, 4168.205, 4188.205, 4197.949, 450, 0, []
1627801183.0302, 85, 0, 4208.718, 4156.41, 4184.103, 4190.256, 4198.974, 450, 0, []
1627801183.0381, 86, 0, 4205.128, 4172.308, 4171.795, 4180, 4189.231, 450, 0, []
1627801183.0461, 87, 0, 4200.513, 4147.179, 4175.897, 4170.769, 4182.564, 16197, 0, []
1627801183.054, 88, 0, 4197.949, 4162.564, 4170.256, 4169.744, 4185.641, 450, 0, []
1627801183.0619, 89, 0, 4198.462, 4181.538, 4168.205, 4171.795, 4186.667, 450, 0, []
1627801183.0698, 90, 0, 4197.436, 4173.846, 4173.333, 4175.385, 4185.641, 450, 0, []
1627801183.0778, 91, 0, 4195.897, 4175.897, 4154.359, 4172.308, 4186.154, 16197, 0, []
1627801183.0857, 92, 0, 4192.821, 4177.949, 4166.667, 4165.128, 4186.154, 450, 0, []
1627801183.0935, 93, 0, 4187.692, 4165.128, 4171.795, 4165.128, 4182.051, 450, 0, []
1627801183.1013, 94, 0, 4186.667, 4157.949, 4173.846, 4174.872, 4175.385, 450, 0, []
1627801183.1091, 95, 0, 4181.026, 4165.641, 4188.205, 4177.949, 4169.744, 16197, 0, []
1627801183.117, 96, 0, 4173.333, 4182.564, 4177.436, 4170.256, 4169.744, 450, 0, []
1627801183.1248, 97, 0, 4175.385, 4190.769, 4175.897, 4168.718, 4173.333, 450, 0, []
1627801183.1327, 98, 0, 4180, 4185.641, 4155.897, 4171.282, 4173.846, 450, 0, []
1627801183.1404, 99, 0, 4181.026, 4193.333, 4144.103, 4167.692, 4171.282, 16197, 0, []
1627801183.1483, 100, 0, 4177.949, 4186.667, 4166.667, 4151.795, 4168.205, 450, 0, []
1627801183.1561, 101, 0, 4173.333, 4174.872, 4167.179, 4144.615, 4169.231, 450, 0, []
1627801183.164, 102, 0, 4173.333, 4214.359, 4175.897, 4162.051, 4169.744, 450, 0, []
1627801183.1718, 103, 0, 4184.615, 4234.359, 4174.872, 4176.923, 4168.718, 16197, 0, []
1627801183.1797, 104, 0, 4189.231, 4207.179, 4168.205, 4173.333, 4174.872, 450, 0, []
1627801183.1876, 105, 0, 4185.641, 4224.615, 4187.179, 4173.333, 4184.103, 450, 0, []
1627801183.1956, 106, 0, 4190.256, 4252.308, 4173.333, 4172.821, 4181.538, 450, 0, []
1627801183.2035, 107, 0, 4183.59, 4219.487, 4162.051, 4159.487, 4169.744, 16197, 0, []
1627801183.2115, 108, 0, 4169.744, 4195.385, 4164.615, 4152.821, 4166.154, 450, 0, []
1627801183.2193, 109, 0, 4174.359, 4209.744, 4157.949, 4154.359, 4169.231, 450, 0, []
1627801183.2273, 110, 0, 4184.615, 4213.846, 4162.564, 4161.026, 4174.359, 450, 0, []
1627801183.2352, 111, 0, 4186.667, 4220, 4154.359, 4174.359, 4182.564, 16197, 0, []
1627801183.2432, 112, 0, 4193.333, 4235.897, 4163.077, 4177.436, 4184.103, 450, 0, []
1627801183.2511, 113, 0, 4198.974, 4242.051, 4168.718, 4168.205, 4181.538, 450, 0, []
1627801183.2588, 114, 0, 4191.795, 4244.103, 4162.051, 4164.615, 4183.59, 450, 0, []
1627801183.2667, 115, 0, 4186.154, 4241.026, 4175.897, 4172.308, 4186.667, 16197, 0, []
1627801183.2745, 116, 0, 4187.179, 4223.077, 4158.974, 4177.436, 4184.615, 450, 0, []
1627801183.2824, 117, 0, 4187.179, 4202.564, 4156.41, 4174.359, 4185.128, 450, 0, []
1627801183.2902, 118, 0, 4185.128, 4201.538, 4171.282, 4176.923, 4190.769, 450, 0, []
1627801183.298, 119, 0, 4178.974, 4227.179, 4157.436, 4182.051, 4192.308, 16197, 0, []
1627801183.3058, 120, 0, 4169.231, 4233.846, 4161.026, 4172.308, 4182.564, 450, 0, []
1627801183.3137, 121, 0, 4166.667, 4212.308, 4158.974, 4164.615, 4174.359, 450, 0, []
1627801183.3215, 122, 0, 4178.462, 4224.103, 4163.59, 4181.538, 4182.564, 450, 0, []
1627801183.3295, 123, 0, 4196.41, 4252.308, 4175.897, 4193.846, 4197.436, 16197, 0, []
1627801183.3373, 124, 0, 4203.077, 4254.872, 4166.154, 4187.179, 4199.487, 450, 0, []
1627801183.3453, 125, 0, 4192.821, 4239.487, 4177.949, 4185.128, 4187.179, 450, 0, []
1627801183.3532, 126, 0, 4186.154, 4234.359, 4180, 4182.051, 4180.513, 450, 0, []
1627801183.3612, 127, 0, 4197.949, 4267.179, 4181.538, 4182.051, 4191.282, 16197, 0, []
1627801183.3691, 128, 0, 4208.718, 4299.487, 4197.949, 4193.846, 4202.051, 450, 0, []
1627801183.377, 0, 0, 4206.667, 4284.103, 4186.154, 4194.359, 4200, 450, 0, []
1627801183.3849, 1, 0, 4207.179, 4276.41, 4190.256, 4182.051, 4199.487, 450, 0, []
1627801183.3929, 2, 0, 4216.41, 4314.359, 4187.179, 4186.667, 4207.692, 16184, 0, []
1627801183.4008, 3, 0, 4220, 4342.564, 4183.077, 4203.077, 4218.462, 450, 0, []
1627801183.4086, 4, 0, 4216.923, 4332.308, 4202.564, 4205.641, 4215.385, 16143, 0, []
1627801183.4164, 5, 0, 4214.872, 4309.744, 4188.205, 4195.385, 4205.128, 450, 0, []
1627801183.4242, 6, 0, 4212.308, 4318.462, 4181.026, 4186.667, 4204.615, 171, 0, []
1627801183.4321, 7, 0, 4218.462, 4362.051, 4176.923, 4184.615, 4212.821, 450, 0, []
1627801183.4399, 8, 0, 4232.821, 4365.641, 4168.718, 4184.103, 4217.436, 450, 0, []
1627801183.4478, 9, 0, 4233.333, 4325.641, 4181.026, 4175.897, 4216.923, 16152, 0, []
1627801183.4555, 10, 0, 4240.513, 4326.154, 4168.205, 4166.667, 4229.744, 450, 0, []
1627801183.4634, 11, 0, 4290.769, 4345.641, 4166.667, 4173.333, 4275.897, 16196, 0, []
1627801183.4712, 12, 0, 4372.308, 4328.205, 4173.846, 4188.205, 4350.769, 450, 0, []
1627801183.4791, 13, 0, 4453.846, 4322.564, 4174.872, 4198.462, 4426.667, 450, 0, []
1627801183.4869, 14, 0, 4510.256, 4351.795, 4190.769, 4206.154, 4472.821, 450, 0, []
1627801183.4948, 15, 0, 4531.795, 4354.872, 4179.487, 4198.974, 4484.615, 16196, 0, []
1627801183.5027, 16, 0, 4542.051, 4318.462, 4181.026, 4183.59, 4489.231, 0, 0, []
1627801183.5107, 17, 0, 4545.128, 4302.051, 4188.718, 4190.769, 4499.487, 0, 0, []
1627801183.5186, 18, 0, 4527.179, 4329.231, 4180.513, 4202.051, 4494.359, 0, 0, []
1627801183.5266, 19, 0, 4507.179, 4359.487, 4192.821, 4194.872, 4476.41, 0, 0, []
1627801183.5344, 20, 0, 4495.385, 4348.718, 4184.615, 4190.769, 4462.051, 0, 0, []
1627801183.5424, 21, 0, 4474.359, 4322.051, 4184.615, 4201.538, 4451.282, 0, 0, []
1627801183.5503, 22, 0, 4453.333, 4336.41, 4197.949, 4210.256, 4438.462, 0, 0, []
1627801183.5583, 23, 0, 4445.128, 4351.795, 4191.795, 4211.795, 4423.59, 0, 0, []
1627801183.5662, 24, 0, 4428.205, 4335.385, 4204.103, 4212.821, 4405.641, 0, 0, []
1627801183.5739, 25, 0, 4398.974, 4325.641, 4195.385, 4208.205, 4383.077, 0, 0, []
1627801183.5818, 26, 0, 4372.821, 4337.436, 4185.128, 4204.103, 4360, 0, 0, []
1627801183.5896, 27, 0, 4354.359, 4329.744, 4185.128, 4202.564, 4340.513, 0, 0, []
1627801183.5975, 28, 0, 4342.051, 4295.897, 4167.692, 4193.846, 4327.692, 0, 0, []
1627801183.6053, 29, 0, 4336.923, 4282.051, 4184.103, 4192.308, 4319.487, 0, 0, []
1627801183.6131, 30, 0, 4331.795, 4301.538, 4190.769, 4201.026, 4310.769, 0, 0, []
1627801183.6209, 31, 0, 4316.41, 4334.872, 4183.077, 4202.564, 4295.897, 0, 0, []
1627801183.6288, 32, 0, 4303.077, 4338.974, 4192.308, 4200, 4287.179, 0, 0, []
1627801183.6366, 33, 0, 4300, 4305.128, 4190.769, 4201.026, 4290.256, 0, 0, []
1627801183.6446, 34, 0, 4288.205, 4289.231, 4192.821, 4195.385, 4281.538, 0, 0, []
1627801183.6525, 35, 0, 4267.692, 4316.41, 4169.744, 4184.103, 4258.974, 0, 0, []
1627801183.6604, 36, 0, 4261.026, 4326.667, 4157.436, 4176.923, 4246.154, 0, 0, []
1627801183.6683, 37, 0, 4260, 4296.923, 4182.051, 4178.974, 4247.692, 0, 0, []
1627801183.6763, 38, 0, 4252.308, 4295.385, 4181.026, 4188.718, 4249.231, 0, 0, []
1627801183.6842, 39, 0, 4248.205, 4311.795, 4188.718, 4195.897, 4246.667, 0, 0, []
1627801183.6922, 40, 0, 4246.154, 4287.179, 4189.744, 4192.821, 4247.179, 0, 0, []
1627801183.7, 41, 0, 4236.923, 4253.846, 4182.051, 4188.205, 4248.205, 0, 0, []
1627801183.708, 42, 0, 4229.744, 4262.051, 4191.795, 4183.077, 4246.667, 0, 0, []
1627801183.7159, 43, 0, 4230.769, 4271.795, 4178.974, 4173.333, 4248.205, 0, 0, []
1627801183.7237, 44, 0, 4236.41, 4263.59, 4189.231, 4170.769, 4249.744, 0, 0, []
1627801183.7316, 45, 0, 4232.821, 4266.667, 4196.923, 4171.282, 4240, 0, 0, []
1627801183.7393, 46, 0, 4222.051, 4270.769, 4178.462, 4180, 4228.718, 0, 0, []
1627801183.7472, 47, 0, 4220.513, 4272.308, 4180.513, 4202.564, 4228.718, 0, 0, []
1627801183.755, 48, 0, 4218.462, 4273.846, 4171.795, 4200.513, 4222.564, 0, 0, []
1627801183.7629, 49, 0, 4202.564, 4270.256, 4177.436, 4175.897, 4204.615, 0, 0, []
1627801183.7707, 50, 0, 4193.333, 4261.026, 4180.513, 4166.154, 4197.436, 0, 0, []
1627801183.7785, 51, 0, 4200.513, 4249.744, 4165.128, 4172.821, 4198.462, 0, 0, []
1627801183.7863, 52, 0, 4202.051, 4233.333, 4179.487, 4173.333, 4191.282, 0, 0, []
1627801183.7943, 53, 0, 4193.846, 4222.564, 4173.846, 4162.051, 4178.974, 0, 0, []
1627801183.8022, 54, 0, 4185.641, 4239.487, 4167.692, 4155.385, 4171.282, 0, 0, []
1627801183.8102, 55, 0, 4178.974, 4249.744, 4180.513, 4168.205, 4169.744, 0, 0, []
1627801183.818, 56, 0, 4177.436, 4249.231, 4177.949, 4183.59, 4174.359, 0, 0, []
1627801183.826, 57, 0, 4181.026, 4259.487, 4180.513, 4175.897, 4177.949, 0, 0, []
