Timestamp, COUNTER, INTERPOLATED, AF3, T7, Pz, T8, AF4, RAW_CQ, MARKER_HARDWARE, MARKERS
1631386150.1727, 41, 0, 4225.128, 4193.846, 4297.436, 4146.667, 4200.513, 0, 0, []
1631386150.1806, 42, 0, 4216.41, 4201.538, 4236.923, 4134.872, 4189.744, 0, 0, []
1631386150.1884, 43, 0, 4227.692, 4205.641, 4252.821, 4142.051, 4194.359, 0, 0, []
1631386150.1963, 44, 0, 4242.051, 4195.385, 4343.077, 4156.923, 4204.103, 0, 0, []
1631386150.2042, 45, 0, 4238.462, 4189.744, 4257.949, 4154.872, 4205.641, 0, 0, []
1631386150.2122, 46, 0, 4225.128, 4182.051, 4337.949, 4144.615, 4195.385, 0, 0, []
1631386150.2201, 47, 0, 4207.179, 4170.769, 4274.872, 4135.385, 4182.564, 0, 0, []
1631386150.2281, 48, 0, 4200.513, 4174.359, 4249.231, 4132.308, 4180, 0, 0, []
1631386150.2359, 49, 0, 4215.897, 4185.641, 4313.333, 4134.872, 4186.667, 0, 0, []
1631386150.2439, 50, 0, 4222.051, 4186.154, 4193.846, 4129.744, 4183.077, 0, 0, []
1631386150.2518, 51, 0, 4210.769, 4182.564, 4283.077, 4122.051, 4171.282, 0, 0, []
1631386150.2596, 52, 0, 4210.256, 4180.513, 4277.436, 4126.667, 4175.385, 0, 0, []
1631386150.2675, 53, 0, 4225.128, 4177.949, 4245.641, 4137.949, 4190.769, 0, 0, []
1631386150.2753, 54, 0, 4221.538, 4181.026, 4320.513, 4134.872, 4185.128, 0, 0, []
1631386150.2831, 55, 0, 4202.564, 4181.538, 4207.179, 4122.564, 4165.641, 0, 0, []
1631386150.2909, 56, 0, 4208.205, 4185.128, 4289.744, 4132.821, 4169.744, 0, 0, []
1631386150.2988, 57, 0, 4224.615, 4194.872, 4313.846, 4147.179, 4187.179, 0, 0, []
1631386150.3066, 58, 0, 4226.154, 4192.821, 4281.538, 4136.41, 4187.692, 0, 0, []
1631386150.3145, 59, 0, 4226.667, 4190.256, 4351.795, 4125.641, 4182.051, 0, 0, []
1631386150.3222, 60, 0, 4225.128, 4201.026, 4206.154, 4131.282, 4185.641, 0, 0, []
1631386150.3301, 61, 0, 4210.769, 4200, 4261.538, 4132.308, 4185.641, 0, 0, []
1631386150.3379, 62, 0, 4202.051, 4184.103, 4301.538, 4121.026, 4181.538, 0, 0, []
1631386150.3459, 63, 0, 4215.385, 4190.256, 4249.231, 4130.256, 4185.128, 0, 0, []
1631386150.3538, 64, 0, 4226.667, 4210.769, 4338.974, 4154.872, 4190.256, 450, 0, []
1631386150.3617, 65, 0, 4222.051, 4212.821, 4215.897, 4155.897, 4191.795, 450, 0, []
1631386150.3696, 66, 0, 4214.359, 4194.359, 4258.462, 4141.538, 4187.179, 16185, 0, []
1631386150.3776, 67, 0, 4211.282, 4185.641, 4325.641, 4133.846, 4182.564, 450, 0, []
1631386150.3855, 68, 0, 4203.077, 4194.359, 4251.795, 4127.692, 4172.821, 16173, 0, []
1631386150.3935, 69, 0, 4187.692, 4191.795, 4311.282, 4116.41, 4156.923, 450, 0, []
1631386150.4013, 70, 0, 4188.205, 4178.462, 4188.205, 4116.41, 4160.513, 307, 0, []
1631386150.4093, 71, 0, 4201.538, 4178.974, 4229.744, 4126.667, 4174.872, 450, 0, []
1631386150.4172, 72, 0, 4197.436, 4188.718, 4332.308, 4125.128, 4167.692, 450, 0, []
1631386150.425, 73, 0, 4184.103, 4182.051, 4255.897, 4109.744, 4147.692, 16161, 0, []
1631386150.4329, 74, 0, 4184.103, 4176.923, 4338.462, 4105.641, 4147.179, 450, 0, []
1631386150.4406, 75, 0, 4190.769, 4194.872, 4275.385, 4113.333, 4164.103, 16205, 0, []
1631386150.4485, 76, 0, 4201.026, 4202.051, 4274.872, 4116.923, 4170.769, 450, 0, []
1631386150.4563, 77, 0, 4210.769, 4198.974, 4303.077, 4118.974, 4167.179, 450, 0, []
1631386150.4642, 78, 0, 4207.179, 4207.692, 4205.641, 4124.615, 4167.692, 450, 0, []
1631386150.472, 79, 0, 4204.103, 4197.436, 4317.949, 4128.205, 4168.718, 16205, 0, []
1631386150.4798, 80, 0, 4199.487, 4173.846, 4253.846, 4119.487, 4160, 450, 0, []
1631386150.4876, 81, 0, 4189.231, 4178.974, 4253.846, 4108.205, 4151.282, 450, 0, []
1631386150.4955, 82, 0, 4192.821, 4201.026, 4357.949, 4109.744, 4155.897, 450, 0, []
1631386150.5033, 83, 0, 4207.179, 4212.821, 4236.923, 4118.462, 4165.128, 16205, 0, []
1631386150.5113, 84, 0, 4206.667, 4208.205, 4304.615, 4120.513, 4160.513, 450, 0, []
1631386150.5191, 85, 0, 4195.897, 4190.256, 4282.051, 4115.385, 4157.949, 450, 0, []
1631386150.5271, 86, 0, 4195.385, 4184.615, 4247.179, 4117.949, 4168.205, 450, 0, []
1631386150.535, 87, 0, 4197.949, 4195.897, 4293.333, 4117.436, 4164.103, 16205, 0, []
1631386150.543, 88, 0, 4193.333, 4196.41, 4169.231, 4108.205, 4151.282, 450, 0, []
1631386150.5509, 89, 0, 4187.692, 4187.692, 4285.128, 4113.846, 4152.821, 450, 0, []
1631386150.5588, 90, 0, 4180.513, 4186.154, 4315.385, 4116.923, 4154.872, 450, 0, []
1631386150.5667, 91, 0, 4181.026, 4186.667, 4280.513, 4109.231, 4150.256, 16205, 0, []
1631386150.5747, 92, 0, 4193.333, 4185.128, 4353.846, 4117.436, 4159.487, 450, 0, []
1631386150.5826, 93, 0, 4194.359, 4195.385, 4210.256, 4131.282, 4172.308, 450, 0, []
1631386150.5904, 94, 0, 4189.231, 4209.744, 4264.103, 4129.744, 4170.256, 450, 0, []
1631386150.5982, 95, 0, 4190.769, 4206.154, 4293.333, 4124.615, 4168.718, 16205, 0, []
1631386150.606, 96, 0, 4191.282, 4189.231, 4243.077, 4124.615, 4172.821, 450, 0, []
1631386150.6139, 97, 0, 4191.795, 4184.615, 4327.179, 4119.487, 4171.795, 450, 0, []
1631386150.6217, 98, 0, 4196.41, 4198.462, 4207.179, 4112.821, 4169.744, 450, 0, []
1631386150.6296, 99, 0, 4201.538, 4203.59, 4259.487, 4122.564, 4171.282, 16205, 0, []
1631386150.6374, 100, 0, 4209.744, 4192.821, 4315.897, 4142.051, 4178.974, 450, 0, []
1631386150.6452, 101, 0, 4216.41, 4191.282, 4256.41, 4152.308, 4195.385, 450, 0, []
1631386150.653, 102, 0, 4211.795, 4201.538, 4329.231, 4145.641, 4201.026, 450, 0, []
1631386150.661, 103, 0, 4195.897, 4203.59, 4190.256, 4135.897, 4186.667, 16205, 0, []
1631386150.6689, 104, 0, 4187.692, 4197.949, 4224.615, 4132.308, 4171.282, 450, 0, []
1631386150.6769, 105, 0, 4192.821, 4198.974, 4326.154, 4123.077, 4165.641, 450, 0, []
1631386150.6847, 106, 0, 4196.41, 4201.026, 4267.179, 4117.949, 4172.821, 450, 0, []
1631386150.6927, 107, 0, 4192.821, 4201.026, 4344.103, 4129.231, 4182.564, 16205, 0, []
1631386150.7006, 108, 0, 4188.205, 4213.333, 4245.128, 4135.385, 4175.385, 450, 0, []
1631386150.7086, 109, 0, 4190.256, 4216.41, 4253.333, 4132.821, 4164.103, 450, 0, []
1631386150.7165, 110, 0, 4200, 4204.103, 4312.821, 4136.41, 4171.795, 450, 0, []
1631386150.7244, 111, 0, 4212.308, 4203.077, 4233.333, 4140.513, 4190.256, 16205, 0, []
1631386150.7323, 112, 0, 4217.949, 4196.41, 4335.385, 4138.462, 4189.231, 450, 0, []
1631386150.7401, 113, 0, 4208.205, 4174.872, 4239.487, 4129.744, 4176.41, 450, 0, []
1631386150.748, 114, 0, 4207.179, 4176.923, 4239.487, 4129.231, 4176.41, 450, 0, []
1631386150.7558, 115, 0, 4212.308, 4190.256, 4355.385, 4135.897, 4179.487, 16205, 0, []
1631386150.7636, 116, 0, 4196.41, 4174.359, 4230.256, 4129.231, 4168.718, 450, 0, []
1631386150.7714, 117, 0, 4183.077, 4163.077, 4294.359, 4124.103, 4165.128, 450, 0, []
1631386150.7793, 118, 0, 4190.769, 4184.615, 4285.128, 4132.821, 4177.436, 450, 0, []
1631386150.7871, 119, 0, 4192.821, 4186.667, 4259.487, 4135.385, 4175.897, 16205, 0, []
1631386150.795, 120, 0, 4186.667, 4163.59, 4305.641, 4125.128, 4165.641, 450, 0, []
1631386150.8027, 121, 0, 4188.718, 4163.59, 4195.897, 4120, 4169.231, 450, 0, []
1631386150.8107, 122, 0, 4200, 4181.026, 4305.128, 4129.744, 4175.385, 450, 0, []
1631386150.8186, 123, 0, 4207.179, 4183.077, 4321.538, 4134.872, 4174.872, 16205, 0, []
1631386150.8266, 124, 0, 4203.59, 4176.923, 4301.538, 4130.256, 4172.821, 450, 0, []
1631386150.8345, 125, 0, 4195.385, 4182.051, 4346.667, 4126.667, 4172.308, 450, 0, []
1631386150.8424, 126, 0, 4191.282, 4197.949, 4164.615, 4125.641, 4173.846, 450, 0, []
1631386150.8503, 127, 0, 4192.821, 4209.231, 4240.513, 4131.795, 4179.487, 16205, 0, []
1631386150.8583, 128, 0, 4195.897, 4206.667, 4301.538, 4142.051, 4184.103, 450, 0, []
1631386150.8662, 0, 0, 4196.41, 4201.026, 4265.128, 4141.026, 4185.128, 450, 0, []
1631386150.8742, 1, 0, 4190.256, 4197.436, 4348.718, 4133.846, 4180, 450, 0, []
1631386150.882, 2, 0, 4178.974, 4193.846, 4211.795, 4130.769, 4174.359, 16184, 0, []
1631386150.89, 3, 0, 4174.359, 4179.487, 4248.718, 4130.256, 4162.564, 450, 0, []
1631386150.8979, 4, 0, 4183.59, 4171.282, 4296.923, 4128.205, 4151.795, 16175, 0, []
1631386150.9057, 5, 0, 4201.538, 4184.103, 4253.846, 4128.718, 4165.128, 450, 0, []
1631386150.9136, 6, 0, 4208.205, 4195.385, 4326.667, 4134.872, 4185.128, 284, 0, []
1631386150.9213, 7, 0, 4206.154, 4195.385, 4177.949, 4143.077, 4188.718, 450, 0, []
1631386150.9292, 8, 0, 4203.077, 4196.923, 4225.128, 4145.641, 4184.103, 450, 0, []
1631386150.937, 9, 0, 4193.333, 4196.41, 4317.436, 4140, 4188.205, 16166, 0, []
1631386150.9449, 10, 0, 4180.513, 4185.128, 4239.487, 4131.795, 4187.692, 450, 0, []
1631386150.9527, 11, 0, 4176.41, 4178.974, 4318.974, 4128.205, 4171.282, 16207, 0, []
1631386150.9606, 12, 0, 4186.154, 4190.256, 4223.59, 4131.795, 4166.667, 450, 0, []
1631386150.9683, 13, 0, 4207.692, 4199.487, 4241.538, 4149.744, 4182.564, 450, 0, []
1631386150.9763, 14, 0, 4213.846, 4204.103, 4322.564, 4158.462, 4184.615, 450, 0, []
1631386150.9842, 15, 0, 4198.462, 4196.923, 4246.667, 4145.128, 4170.256, 16207, 0, []
1631386150.9922, 16, 0, 4184.615, 4175.897, 4338.462, 4135.385, 4166.667, 0, 0, []
1631386151.0001, 17, 0, 4170.256, 4170.769, 4261.026, 4129.231, 4164.615, 0, 0, []
1631386151.008, 18, 0, 4159.487, 4184.103, 4235.897, 4124.103, 4162.051, 0, 0, []
1631386151.0159, 19, 0, 4158.462, 4182.564, 4278.974, 4120.513, 4163.077, 0, 0, []
1631386151.0239, 20, 0, 4163.077, 4176.923, 4188.205, 4117.949, 4166.154, 0, 0, []
1631386151.0318, 21, 0, 4178.462, 4185.128, 4307.692, 4122.564, 4176.41, 0, 0, []
1631386151.0398, 22, 0, 4186.154, 4180.513, 4264.103, 4121.026, 4180.513, 0, 0, []
1631386151.0476, 23, 0, 4184.103, 4173.333, 4261.538, 4116.923, 4169.744, 0, 0, []
1631386151.0554, 24, 0, 4193.333, 4180, 4341.026, 4121.538, 4166.667, 0, 0, []
1631386151.0633, 25, 0, 4194.359, 4180, 4188.718, 4130.256, 4178.974, 0, 0, []
1631386151.0711, 26, 0, 4185.641, 4189.744, 4266.154, 4136.41, 4187.179, 0, 0, []
1631386151.079, 27, 0, 4203.077, 4215.385, 4283.077, 4135.897, 4198.974, 0, 0, []
1631386151.0867, 28, 0, 4235.897, 4212.308, 4255.385, 4128.205, 4220.513, 0, 0, []
1631386151.0946, 29, 0, 4261.538, 4191.282, 4304.615, 4126.154, 4246.667, 0, 0, []
1631386151.1024, 30, 0, 4292.821, 4200.513, 4183.59, 4130.256, 4269.231, 0, 0, []
1631386151.1103, 31, 0, 4326.154, 4208.718, 4278.974, 4115.897, 4280, 0, 0, []
1631386151.1181, 32, 0, 4349.231, 4196.41, 4299.487, 4105.128, 4304.103, 0, 0, []
1631386151.126, 33, 0, 4374.359, 4205.641, 4266.154, 4127.179, 4336.923, 0, 0, []
1631386151.1339, 34, 0, 4403.59, 4227.179, 4323.59, 4132.821, 4353.846, 0, 0, []
1631386151.1419, 35, 0, 4424.103, 4226.154, 4162.051, 4112.821, 4374.872, 0, 0, []
1631386151.1498, 36, 0, 4434.872, 4217.949, 4247.692, 4111.282, 4391.282, 0, 0, []
1631386151.1578, 37, 0, 4438.462, 4222.564, 4309.231, 4110.256, 4380, 0, 0, []
1631386151.1656, 38, 0, 4440.513, 4225.641, 4220, 4095.385, 4371.795, 0, 0, []
1631386151.1736, 39, 0, 4451.795, 4226.154, 4303.59, 4104.615, 4381.026, 0, 0, []
1631386151.1815, 40, 0, 4474.359, 4235.385, 4227.179, 4124.103, 4387.692, 0, 0, []
1631386151.1895, 41, 0, 4495.385, 4230.769, 4257.436, 4113.333, 4398.462, 0, 0, []
1631386151.1974, 42, 0, 4501.026, 4214.872, 4285.128, 4089.744, 4407.179, 0, 0, []
1631386151.2051, 43, 0, 4504.615, 4221.538, 4247.692, 4093.333, 4408.718, 0, 0, []
1631386151.213, 44, 0, 4517.436, 4237.436, 4348.205, 4105.128, 4409.744, 0, 0, []
1631386151.2208, 45, 0, 4516.923, 4240.513, 4212.308, 4089.744, 4398.974, 0, 0, []
1631386151.2287, 46, 0, 4497.949, 4232.821, 4225.128, 4074.359, 4379.487, 0, 0, []
1631386151.2365, 47, 0, 4477.949, 4217.436, 4295.897, 4079.487, 4375.897, 0, 0, []
1631386151.2443, 48, 0, 4480.513, 4203.59, 4216.41, 4083.077, 4388.205, 0, 0, []
1631386151.2521, 49, 0, 4512.308, 4211.282, 4316.41, 4085.128, 4392.821, 0, 0, []
1631386151.26, 50, 0, 4522.051, 4223.077, 4239.487, 4081.538, 4384.615, 0, 0, []
1631386151.2678, 51, 0, 4500.513, 4224.615, 4235.897, 4068.718, 4377.949, 0, 0, []
1631386151.2757, 52, 0, 4492.308, 4229.744, 4294.359, 4061.026, 4382.564, 0, 0, []
1631386151.2835, 53, 0, 4503.59, 4232.308, 4188.718, 4070.256, 4390.769, 0, 0, []
1631386151.2914, 54, 0, 4510.769, 4227.692, 4298.462, 4088.205, 4381.026, 0, 0, []
1631386151.2993, 55, 0, 4503.077, 4231.795, 4277.436, 4087.692, 4364.615, 0, 0, []
1631386151.3073, 56, 0, 4488.718, 4238.462, 4256.923, 4081.538, 4360, 0, 0, []
1631386151.3153, 57, 0, 4483.59, 4244.615, 4313.846, 4091.282, 4360, 0, 0, []
1631386151.3232, 58, 0, 4494.872, 4265.128, 4210.256, 4101.538, 4356.923, 0, 0, []
1631386151.331, 59, 0, 4499.487, 4271.282, 4304.103, 4095.385, 4345.641, 0, 0, []
1631386151.339, 60, 0, 4483.59, 4251.795, 4266.154, 4078.974, 4335.385, 0, 0, []
1631386151.3469, 61, 0, 4474.872, 4239.487, 4214.872, 4062.564, 4325.128, 0, 0, []
1631386151.3548, 62, 0, 4489.744, 4245.641, 4329.744, 4062.051, 4322.564, 0, 0, []
1631386151.3627, 63, 0, 4509.231, 4266.154, 4260, 4090.256, 4335.385, 0, 0, []
1631386151.3704, 64, 0, 4511.795, 4280.513, 4298.462, 4103.077, 4342.051, 450, 0, []
1631386151.3783, 65, 0, 4487.179, 4267.179, 4250.769, 4067.179, 4323.077, 450, 0, []
1631386151.3861, 66, 0, 4461.026, 4241.538, 4223.59, 4041.538, 4295.385, 16187, 0, []
1631386151.394, 67, 0, 4464.615, 4242.051, 4325.128, 4058.974, 4286.667, 450, 0, []
1631386151.4018, 68, 0, 4474.359, 4255.385, 4169.231, 4075.385, 4297.949, 16170, 0, []
1631386151.4096, 69, 0, 4459.487, 4245.641, 4222.051, 4071.795, 4306.667, 450, 0, []
1631386151.4174, 70, 0, 4443.077, 4234.872, 4310.256, 4068.718, 4290.256, 200, 0, []
1631386151.4254, 71, 0, 4441.026, 4243.077, 4264.615, 4062.564, 4264.103, 450, 0, []
1631386151.4333, 72, 0, 4435.385, 4247.179, 4312.308, 4058.462, 4262.564, 450, 0, []
1631386151.4413, 73, 0, 4427.179, 4238.974, 4213.846, 4065.128, 4270.769, 16162, 0, []
1631386151.4491, 74, 0, 4423.077, 4233.846, 4268.718, 4069.231, 4258.462, 450, 0, []
1631386151.4571, 75, 0, 4408.205, 4235.897, 4284.615, 4066.667, 4248.718, 16213, 0, []
1631386151.465, 76, 0, 4396.923, 4244.103, 4219.487, 4069.744, 4252.821, 450, 0, []
1631386151.473, 77, 0, 4398.974, 4250.256, 4329.231, 4073.333, 4246.667, 450, 0, []
1631386151.4809, 78, 0, 4376.41, 4242.051, 4207.692, 4066.667, 4231.795, 450, 0, []
1631386151.4888, 79, 0, 4335.385, 4236.41, 4221.026, 4067.692, 4218.462, 16213, 0, []
1631386151.4967, 80, 0, 4319.487, 4249.744, 4305.128, 4077.436, 4214.359, 450, 0, []
1631386151.5047, 81, 0, 4312.821, 4253.846, 4229.744, 4079.487, 4210.256, 450, 0, []
1631386151.5126, 82, 0, 4282.051, 4241.026, 4323.077, 4074.872, 4188.718, 450, 0, []
1631386151.5204, 83, 0, 4246.154, 4228.718, 4247.179, 4074.359, 4165.128, 16213, 0, []
1631386151.5282, 84, 0, 4229.231, 4224.103, 4231.282, 4077.436, 4160.513, 450, 0, []
1631386151.536, 85, 0, 4228.718, 4229.231, 4282.051, 4087.692, 4164.615, 450, 0, []
1631386151.5439, 86, 0, 4226.154, 4225.641, 4185.128, 4098.974, 4163.077, 450, 0, []
1631386151.5517, 87, 0, 4213.846, 4212.308, 4286.154, 4097.436, 4154.359, 16213, 0, []
1631386151.5597, 88, 0, 4205.128, 4221.026, 4245.641, 4087.692, 4145.641, 450, 0, []
1631386151.5675, 89, 0, 4200, 4234.359, 4236.41, 4081.026, 4133.333, 450, 0, []
1631386151.5754, 90, 0, 4191.282, 4231.795, 4318.462, 4085.128, 4122.051, 450, 0, []
1631386151.5832, 91, 0, 4184.103, 4234.359, 4215.897, 4097.949, 4126.154, 16213, 0, []
1631386151.5912, 92, 0, 4171.795, 4231.282, 4292.308, 4098.974, 4124.103, 450, 0, []
1631386151.5991, 93, 0, 4148.205, 4226.154, 4253.846, 4087.179, 4104.103, 450, 0, []
1631386151.607, 94, 0, 4131.795, 4241.538, 4221.026, 4086.154, 4092.308, 450, 0, []
1631386151.6149, 95, 0, 4127.692, 4243.59, 4312.308, 4089.231, 4092.821, 16213, 0, []
1631386151.6229, 96, 0, 4116.923, 4217.436, 4200.513, 4084.103, 4088.718, 450, 0, []
1631386151.6308, 97, 0, 4112.308, 4215.385, 4272.821, 4097.436, 4083.59, 450, 0, []
1631386151.6388, 98, 0, 4107.179, 4235.385, 4271.795, 4107.692, 4088.205, 450, 0, []
1631386151.6466, 99, 0, 4085.641, 4234.872, 4218.462, 4088.718, 4083.59, 16213, 0, []
1631386151.6546, 100, 0, 4067.179, 4210.769, 4303.59, 4081.538, 4067.692, 450, 0, []
1631386151.6625, 101, 0, 4055.897, 4196.41, 4201.026, 4088.205, 4054.359, 450, 0, []
1631386151.6703, 102, 0, 4039.487, 4204.615, 4251.795, 4080, 4041.538, 450, 0, []
1631386151.6782, 103, 0, 4029.231, 4209.231, 4263.077, 4072.308, 4034.359, 16213, 0, []
1631386151.686, 104, 0, 4037.436, 4201.538, 4230.256, 4085.641, 4046.667, 450, 0, []
1631386151.6938, 105, 0, 4045.641, 4194.359, 4333.333, 4101.026, 4058.974, 450, 0, []
1631386151.7016, 106, 0, 4030.256, 4190.256, 4201.538, 4094.872, 4047.179, 450, 0, []
1631386151.7095, 107, 0, 4008.718, 4190.769, 4230.256, 4085.641, 4035.385, 16213, 0, []
1631386151.7173, 108, 0, 4007.692, 4194.872, 4284.103, 4089.744, 4040.513, 450, 0, []
1631386151.7252, 109, 0, 4015.385, 4197.436, 4213.846, 4095.897, 4042.564, 450, 0, []
1631386151.7329, 110, 0, 4006.667, 4194.872, 4277.949, 4090.769, 4028.718, 450, 0, []
1631386151.7409, 111, 0, 3998.462, 4191.795, 4190.256, 4088.718, 4019.487, 16213, 0, []
1631386151.7488, 112, 0, 4004.103, 4182.564, 4241.026, 4098.462, 4028.205, 450, 0, []
1631386151.7568, 113, 0, 4004.615, 4180.513, 4290.256, 4097.436, 4034.872, 450, 0, []
1631386151.7647, 114, 0, 4002.051, 4191.795, 4213.333, 4088.718, 4026.154, 450, 0, []
1631386151.7726, 115, 0, 3996.923, 4188.718, 4326.667, 4080, 4017.436, 16213, 0, []
1631386151.7805, 116, 0, 3984.615, 4181.026, 4248.718, 4072.308, 4023.077, 450, 0, []
1631386151.7885, 117, 0, 3984.615, 4180.513, 4250.256, 4079.487, 4027.692, 450, 0, []
1631386151.7964, 118, 0, 3991.282, 4175.897, 4310.769, 4080, 4025.641, 450, 0, []
1631386151.8044, 119, 0, 3983.59, 4169.744, 4197.436, 4060.513, 4022.051, 16213, 0, []
1631386151.8122, 120, 0, 3990.256, 4178.974, 4280, 4069.744, 4018.974, 450, 0, []
1631386151.8202, 121, 0, 4012.821, 4194.872, 4238.462, 4098.462, 4028.718, 450, 0, []
1631386151.8281, 122, 0, 4004.615, 4183.077, 4233.846, 4083.59, 4026.154, 450, 0, []
1631386151.8359, 123, 0, 3976.923, 4162.564, 4291.795, 4055.897, 4002.564, 16213, 0, []
1631386151.8438, 124, 0, 3975.897, 4172.821, 4173.333, 4063.59, 4004.103, 450, 0, []
1631386151.8515, 125, 0, 3997.436, 4183.077, 4288.205, 4083.59, 4028.205, 450, 0, []
1631386151.8594, 126, 0, 3996.41, 4164.615, 4286.667, 4085.641, 4027.692, 450, 0, []
1631386151.8672, 127, 0, 3982.564, 4148.205, 4219.487, 4078.462, 4016.41, 16213, 0, []
1631386151.8751, 128, 0, 3994.872, 4155.897, 4283.59, 4071.282, 4025.128, 450, 0, []
1631386151.8829, 0, 0, 4005.641, 4156.923, 4225.641, 4071.795, 4026.154, 450, 0, []
1631386151.8907, 1, 0, 3995.385, 4146.667, 4290.256, 4081.026, 4022.051, 450, 0, []
1631386151.8985, 2, 0, 3992.308, 4149.744, 4245.128, 4080, 4028.205, 16184, 0, []
1631386151.9065, 3, 0, 3992.308, 4153.333, 4236.923, 4071.282, 4023.59, 450, 0, []
1631386151.9144, 4, 0, 3981.538, 4146.667, 4322.564, 4070.256, 4012.821, 16173, 0, []
1631386151.9224, 5, 0, 3982.051, 4151.282, 4160, 4074.359, 4014.872, 450, 0, []
1631386151.9302, 6, 0, 3993.333, 4165.641, 4247.692, 4078.974, 4018.974, 246, 0, []
1631386151.9382, 7, 0, 3996.923, 4170.256, 4306.667, 4080.513, 4017.436, 450, 0, []
1631386151.9461, 8, 0, 4008.205, 4176.41, 4223.59, 4084.103, 4025.128, 450, 0, []
1631386151.9541, 9, 0, 4016.923, 4189.744, 4300, 4088.205, 4039.487, 16154, 0, []
1631386151.962, 10, 0, 3999.487, 4184.103, 4207.179, 4081.026, 4041.026, 450, 0, []
1631386151.9699, 11, 0, 3995.897, 4159.487, 4242.051, 4079.487, 4031.795, 16219, 0, []
1631386151.9778, 12, 0, 4014.872, 4146.154, 4279.487, 4088.718, 4034.359, 450, 0, []
1631386151.9856, 13, 0, 4014.359, 4151.795, 4227.179, 4085.641, 4042.564, 450, 0, []
1631386151.9935, 14, 0, 4006.667, 4158.974, 4304.103, 4076.923, 4037.436, 450, 0, []
1631386152.0013, 15, 0, 4021.026, 4162.051, 4184.103, 4085.641, 4042.051, 16219, 0, []
1631386152.0091, 16, 0, 4038.974, 4167.692, 4223.077, 4097.949, 4061.026, 0, 0, []
1631386152.0169, 17, 0, 4040, 4170.769, 4292.821, 4096.41, 4067.179, 0, 0, []
1631386152.0248, 18, 0, 4031.795, 4155.385, 4195.385, 4089.744, 4057.949, 0, 0, []
1631386152.0326, 19, 0, 4034.359, 4133.333, 4270.256, 4081.026, 4057.949, 0, 0, []
1631386152.0405, 20, 0, 4048.205, 4141.026, 4198.974, 4070.769, 4071.282, 0, 0, []
1631386152.0483, 21, 0, 4068.718, 4157.949, 4213.333, 4071.795, 4090.769, 0, 0, []
1631386152.0562, 22, 0, 4109.744, 4148.718, 4272.821, 4080.513, 4121.026, 0, 0, []
1631386152.0641, 23, 0, 4163.077, 4135.897, 4178.974, 4086.154, 4153.846, 0, 0, []
1631386152.0721, 24, 0, 4202.051, 4149.744, 4272.821, 4087.179, 4178.974, 0, 0, []
1631386152.08, 25, 0, 4224.103, 4176.41, 4218.462, 4084.103, 4195.897, 0, 0, []
1631386152.088, 26, 0, 4229.744, 4171.795, 4216.923, 4076.923, 4191.282, 0, 0, []
1631386152.0958, 27, 0, 4214.872, 4150.256, 4303.077, 4068.718, 4170.769, 0, 0, []
1631386152.1038, 28, 0, 4206.154, 4157.949, 4202.051, 4071.795, 4171.282, 0, 0, []
1631386152.1117, 29, 0, 4210.769, 4171.795, 4270.256, 4086.154, 4181.538, 0, 0, []
1631386152.1197, 30, 0, 4196.41, 4158.462, 4228.718, 4092.821, 4172.821, 0, 0, []
1631386152.1276, 31, 0, 4180, 4156.41, 4210.769, 4094.872, 4163.59, 0, 0, []
1631386152.1353, 32, 0, 4176.41, 4169.744, 4292.821, 4099.487, 4160, 0, 0, []
1631386152.1433, 33, 0, 4157.436, 4168.718, 4176.41, 4090.256, 4144.103, 0, 0, []
1631386152.1512, 34, 0, 4131.795, 4168.205, 4252.308, 4082.564, 4126.154, 0, 0, []
1631386152.1592, 35, 0, 4126.154, 4182.051, 4243.59, 4090.769, 4124.615, 0, 0, []
1631386152.1672, 36, 0, 4122.564, 4181.538, 4195.385, 4095.385, 4118.462, 0, 0, []
1631386152.175, 37, 0, 4101.026, 4168.205, 4276.41, 4092.821, 4105.128, 0, 0, []
1631386152.1829, 38, 0, 4092.821, 4167.179, 4171.795, 4094.359, 4104.103, 0, 0, []
1631386152.1909, 39, 0, 4107.692, 4169.231, 4245.128, 4096.923, 4105.641, 0, 0, []
1631386152.1989, 40, 0, 4112.821, 4166.154, 4255.385, 4094.872, 4104.615, 0, 0, []
1631386152.2068, 41, 0, 4107.179, 4169.231, 4197.949, 4095.897, 4103.077, 0, 0, []
1631386152.2147, 42, 0, 4093.333, 4166.667, 4288.718, 4091.795, 4096.41, 0, 0, []
1631386152.2226, 43, 0, 4072.308, 4158.462, 4184.615, 4083.077, 4087.179, 0, 0, []
1631386152.2306, 44, 0, 4071.795, 4170.256, 4239.487, 4096.41, 4088.205, 0, 0, []
1631386152.2385, 45, 0, 4079.487, 4184.615, 4270.769, 4104.615, 4089.744, 0, 0, []
1631386152.2465, 46, 0, 4070.256, 4168.718, 4207.179, 4086.667, 4076.41, 0, 0, []
1631386152.2543, 47, 0, 4063.59, 4160.513, 4307.179, 4080, 4066.154, 0, 0, []
1631386152.2623, 48, 0, 4068.718, 4176.41, 4205.128, 4093.846, 4072.821, 0, 0, []
1631386152.2702, 49, 0, 4073.333, 4171.795, 4227.179, 4094.359, 4078.974, 0, 0, []
1631386152.2781, 50, 0, 4075.385, 4148.205, 4279.487, 4084.615, 4077.436, 0, 0, []
1631386152.286, 51, 0, 4073.333, 4155.385, 4206.667, 4090.769, 4078.462, 0, 0, []
1631386152.2938, 52, 0, 4068.718, 4176.41, 4298.974, 4094.359, 4079.487, 0, 0, []
1631386152.3017, 53, 0, 4071.795, 4180.513, 4212.821, 4088.718, 4078.974, 0, 0, []
1631386152.3097, 54, 0, 4074.359, 4178.974, 4215.385, 4093.333, 4079.487, 0, 0, []
1631386152.3176, 55, 0, 4061.538, 4171.282, 4276.923, 4091.795, 4070.769, 0, 0, []
1631386152.3256, 56, 0, 4054.359, 4155.897, 4196.923, 4082.051, 4065.128, 0, 0, []
1631386152.3335, 57, 0, 4068.718, 4168.718, 4293.333, 4096.41, 4083.077, 0, 0, []
1631386152.3414, 58, 0, 4072.308, 4192.821, 4229.744, 4108.205, 4088.205, 0, 0, []
1631386152.3494, 59, 0, 4053.846, 4175.897, 4220, 4087.692, 4061.026, 0, 0, []
1631386152.3573, 60, 0, 4048.718, 4154.872, 4280, 4072.308, 4053.333, 0, 0, []
1631386152.3653, 61, 0, 4068.205, 4175.897, 4172.308, 4089.231, 4076.923, 0, 0, []
1631386152.3731, 62, 0, 4080, 4197.949, 4266.154, 4108.718, 4080, 0, 0, []
1631386152.3811, 63, 0, 4071.282, 4203.077, 4252.821, 4105.641, 4067.179, 0, 0, []
1631386152.389, 64, 0, 4075.385, 4206.154, 4250.769, 4097.949, 4073.333, 450, 0, []
1631386152.397, 65, 0, 4085.641, 4194.359, 4298.974, 4090.769, 4073.333, 450, 0, []
1631386152.4049, 66, 0, 4075.897, 4185.128, 4161.026, 4084.103, 4063.59, 16181, 0, []
1631386152.4129, 67, 0, 4075.897, 4203.077, 4253.846, 4096.41, 4073.333, 450, 0, []
1631386152.4207, 68, 0, 4094.359, 4211.282, 4271.282, 4111.795, 4086.154, 16186, 0, []
1631386152.4287, 69, 0, 4093.846, 4197.949, 4244.615, 4103.59, 4083.077, 450, 0, []
1631386152.4366, 70, 0, 4085.128, 4205.641, 4298.974, 4090.256, 4080, 16065, 0, []
1631386152.4446, 71, 0, 4086.667, 4217.436, 4161.538, 4089.744, 4082.051, 450, 0, []
1631386152.4525, 72, 0, 4082.051, 4191.795, 4233.846, 4086.667, 4082.564, 450, 0, []
1631386152.4604, 73, 0, 4079.487, 4185.128, 4271.282, 4085.641, 4088.718, 16149, 0, []
1631386152.4683, 74, 0, 4086.154, 4204.103, 4228.205, 4091.795, 4094.359, 450, 0, []
1631386152.4763, 75, 0, 4089.231, 4199.487, 4290.769, 4097.436, 4092.308, 16205, 0, []
1631386152.4842, 76, 0, 4088.205, 4192.821, 4155.385, 4103.077, 4092.821, 450, 0, []
1631386152.4922, 77, 0, 4084.615, 4190.769, 4209.231, 4100, 4091.795, 450, 0, []
1631386152.5, 78, 0, 4087.179, 4174.872, 4270.256, 4090.769, 4091.795, 450, 0, []
1631386152.508, 79, 0, 4086.667, 4162.564, 4208.718, 4091.795, 4093.333, 16205, 0, []
1631386152.516, 80, 0, 4075.897, 4169.231, 4280, 4097.949, 4088.718, 450, 0, []
1631386152.5239, 81, 0, 4071.795, 4174.359, 4172.308, 4099.487, 4085.641, 450, 0, []
1631386152.5319, 82, 0, 4080, 4173.846, 4220, 4098.974, 4088.718, 450, 0, []
1631386152.5397, 83, 0, 4070.769, 4170.769, 4283.59, 4093.333, 4082.051, 16205, 0, []
1631386152.5477, 84, 0, 4052.821, 4160.513, 4188.718, 4086.154, 4070.769, 450, 0, []
1631386152.5556, 85, 0, 4065.641, 4156.41, 4261.538, 4089.231, 4075.385, 450, 0, []
1631386152.5636, 86, 0, 4079.487, 4155.385, 4174.359, 4093.846, 4084.103, 450, 0, []
1631386152.5715, 87, 0, 4073.846, 4155.385, 4199.487, 4102.051, 4083.59, 16205, 0, []
1631386152.5794, 88, 0, 4074.359, 4164.103, 4270.256, 4108.205, 4086.154, 450, 0, []
1631386152.5873, 89, 0, 4081.026, 4173.846, 4171.795, 4097.436, 4092.308, 450, 0, []
1631386152.5953, 90, 0, 4087.692, 4170.256, 4254.872, 4091.795, 4091.282, 450, 0, []
1631386152.6032, 91, 0, 4092.308, 4164.615, 4206.154, 4102.564, 4091.795, 16205, 0, []
1631386152.6112, 92, 0, 4086.154, 4177.436, 4224.103, 4104.103, 4090.256, 450, 0, []
1631386152.619, 93, 0, 4076.41, 4183.59, 4269.231, 4094.872, 4085.641, 450, 0, []
1631386152.627, 94, 0, 4083.59, 4167.692, 4141.026, 4100.513, 4094.872, 450, 0, []
1631386152.6349, 95, 0, 4098.462, 4155.897, 4250.769, 4114.872, 4102.564, 16205, 0, []
1631386152.6429, 96, 0, 4103.59, 4164.615, 4243.59, 4114.872, 4095.897, 450, 0, []
1631386152.6508, 97, 0, 4106.154, 4168.718, 4230.769, 4111.795, 4094.359, 450, 0, []
1631386152.6587, 98, 0, 4105.641, 4165.641, 4285.128, 4116.923, 4101.538, 450, 0, []
1631386152.6667, 99, 0, 4109.744, 4170.769, 4154.359, 4120.513, 4107.179, 16205, 0, []
1631386152.6746, 100, 0, 4114.872, 4164.615, 4234.359, 4122.564, 4110.769, 450, 0, []
1631386152.6826, 101, 0, 4100, 4157.949, 4253.333, 4118.974, 4108.205, 450, 0, []
1631386152.6905, 102, 0, 4089.231, 4163.59, 4255.385, 4116.923, 4102.564, 450, 0, []
1631386152.6984, 103, 0, 4103.59, 4162.564, 4314.359, 4122.564, 4104.103, 16205, 0, []
1631386152.7063, 104, 0, 4103.59, 4162.564, 4155.897, 4118.462, 4104.103, 450, 0, []
1631386152.7143, 105, 0, 4080.513, 4163.59, 4216.41, 4103.59, 4094.359, 450, 0, []
1631386152.7222, 106, 0, 4075.897, 4153.846, 4253.333, 4096.923, 4090.256, 450, 0, []
1631386152.7302, 107, 0, 4090.256, 4151.795, 4218.974, 4104.615, 4098.462, 16205, 0, []
1631386152.738, 108, 0, 4101.538, 4155.897, 4287.179, 4107.179, 4100, 450, 0, []
1631386152.746, 109, 0, 4089.231, 4145.641, 4152.821, 4097.436, 4083.59, 450, 0, []
1631386152.7539, 110, 0, 4063.077, 4140, 4192.308, 4088.205, 4062.564, 450, 0, []
1631386152.7619, 111, 0, 4052.308, 4143.59, 4218.462, 4087.179, 4058.462, 16205, 0, []
1631386152.7698, 112, 0, 4067.179, 4146.154, 4164.615, 4097.949, 4075.385, 450, 0, []
1631386152.7777, 113, 0, 4092.821, 4162.564, 4262.564, 4115.385, 4096.41, 450, 0, []
1631386152.7856, 114, 0, 4103.59, 4169.744, 4144.103, 4121.538, 4109.744, 450, 0, []
1631386152.7936, 115, 0, 4095.385, 4156.41, 4174.872, 4117.949, 4103.077, 16205, 0, []
1631386152.8015, 116, 0, 4092.821, 4152.308, 4246.154, 4116.923, 4091.282, 450, 0, []
1631386152.8095, 117, 0, 4105.641, 4160, 4180.513, 4123.59, 4101.538, 450, 0, []
1631386152.8174, 118, 0, 4108.205, 4154.359, 4263.59, 4128.718, 4111.282, 450, 0, []
1631386152.8251, 119, 0, 4088.205, 4144.103, 4155.385, 4113.333, 4095.385, 16205, 0, []
1631386152.8331, 120, 0, 4086.154, 4144.103, 4169.744, 4101.026, 4083.077, 450, 0, []
1631386152.841, 121, 0, 4093.333, 4155.385, 4251.282, 4105.641, 4088.718, 450, 0, []
1631386152.849, 122, 0, 4067.692, 4155.385, 4169.231, 4091.795, 4073.846, 450, 0, []
1631386152.8569, 123, 0, 4052.308, 4146.154, 4244.615, 4082.051, 4053.846, 16205, 0, []
1631386152.8648, 124, 0, 4085.641, 4170.256, 4177.949, 4113.333, 4078.462, 450, 0, []
1631386152.8727, 125, 0, 4112.821, 4185.641, 4197.949, 4131.282, 4099.487, 450, 0, []
1631386152.8807, 126, 0, 4103.077, 4162.564, 4264.615, 4109.231, 4085.641, 450, 0, []
1631386152.8886, 127, 0, 4093.333, 4163.59, 4151.795, 4098.974, 4080.513, 16205, 0, []
1631386152.8966, 128, 0, 4091.795, 4189.231, 4234.359, 4106.154, 4089.231, 450, 0, []
1631386152.9044, 0, 0, 4089.231, 4193.846, 4205.128, 4109.231, 4092.308, 450, 0, []
1631386152.9124, 1, 0, 4091.795, 4182.564, 4212.308, 4113.846, 4092.308, 450, 0, []
1631386152.9203, 2, 0, 4092.821, 4171.282, 4280, 4111.282, 4086.154, 16188, 0, []
1631386152.9283, 3, 0, 4088.718, 4170.769, 4154.359, 4101.538, 4075.385, 450, 0, []
1631386152.9362, 4, 0, 4088.205, 4180.513, 4230.769, 4102.564, 4078.462, 16185, 0, []
1631386152.9441, 5, 0, 4084.615, 4179.487, 4223.077, 4100, 4080, 450, 0, []
1631386152.952, 6, 0, 4082.051, 4169.744, 4210.256, 4092.308, 4074.872, 320, 0, []
1631386152.9598, 7, 0, 4090.256, 4170.769, 4282.564, 4098.462, 4078.974, 450, 0, []
1631386152.9677, 8, 0, 4089.231, 4175.385, 4146.667, 4100.513, 4078.462, 450, 0, []
1631386152.9755, 9, 0, 4086.667, 4181.026, 4213.333, 4100.513, 4080.513, 16162, 0, []
1631386152.9834, 10, 0, 4099.487, 4184.615, 4236.41, 4112.308, 4096.923, 450, 0, []
1631386152.9913, 11, 0, 4106.154, 4177.436, 4204.103, 4122.051, 4105.128, 16201, 0, []
1631386152.9993, 12, 0, 4101.026, 4182.051, 4276.923, 4120, 4095.385, 450, 0, []
1631386153.0072, 13, 0, 4104.615, 4194.359, 4140.513, 4115.385, 4093.333, 450, 0, []
1631386153.0152, 14, 0, 4114.359, 4192.821, 4192.308, 4115.385, 4104.615, 450, 0, []
1631386153.023, 15, 0, 4108.718, 4185.128, 4237.436, 4111.795, 4108.205, 16201, 0, []
1631386153.031, 16, 0, 4096.41, 4182.564, 4182.564, 4110.256, 4101.026, 0, 0, []
1631386153.0389, 17, 0, 4095.385, 4186.154, 4256.923, 4115.385, 4090.769, 0, 0, []
1631386153.0469, 18, 0, 4092.308, 4184.615, 4142.564, 4114.359, 4088.718, 0, 0, []
1631386153.0548, 19, 0, 4081.538, 4183.077, 4189.744, 4117.436, 4098.974, 0, 0, []
1631386153.0627, 20, 0, 4078.462, 4185.128, 4246.667, 4123.077, 4106.667, 0, 0, []
1631386153.0706, 21, 0, 4086.667, 4187.692, 4172.821, 4120, 4105.128, 0, 0, []
1631386153.0786, 22, 0, 4087.179, 4185.641, 4251.282, 4113.333, 4097.949, 0, 0, []
1631386153.0865, 23, 0, 4085.641, 4179.487, 4147.179, 4112.821, 4096.923, 0, 0, []
1631386153.0945, 24, 0, 4092.821, 4172.308, 4182.564, 4118.462, 4094.872, 0, 0, []
1631386153.1023, 25, 0, 4075.897, 4165.641, 4252.308, 4116.41, 4084.103, 0, 0, []
1631386153.1101, 26, 0, 4048.205, 4164.615, 4155.385, 4103.59, 4074.359, 0, 0, []
1631386153.118, 27, 0, 4069.231, 4167.179, 4238.462, 4095.897, 4073.846, 0, 0, []
1631386153.1258, 28, 0, 4103.59, 4172.821, 4158.974, 4097.436, 4081.026, 0, 0, []
1631386153.1338, 29, 0, 4105.128, 4173.333, 4170.256, 4099.487, 4086.667, 0, 0, []
1631386153.1416, 30, 0, 4094.359, 4162.051, 4249.231, 4094.872, 4085.128, 0, 0, []
1631386153.1496, 31, 0, 4088.205, 4165.641, 4143.59, 4089.744, 4081.538, 0, 0, []
1631386153.1575, 32, 0, 4090.769, 4186.667, 4231.282, 4094.872, 4083.59, 0, 0, []
1631386153.1655, 33, 0, 4103.59, 4192.821, 4209.744, 4106.667, 4093.333, 0, 0, []
1631386153.1734, 34, 0, 4104.615, 4171.282, 4217.436, 4110.769, 4092.821, 0, 0, []
1631386153.1813, 35, 0, 4093.846, 4157.949, 4274.872, 4107.692, 4080.513, 0, 0, []
1631386153.1892, 36, 0, 4101.026, 4174.872, 4154.359, 4111.282, 4080.513, 0, 0, []
1631386153.1972, 37, 0, 4110.256, 4184.103, 4239.487, 4117.949, 4089.231, 0, 0, []
1631386153.2051, 38, 0, 4106.154, 4174.359, 4223.59, 4117.949, 4095.897, 0, 0, []
1631386153.2131, 39, 0, 4107.179, 4173.846, 4209.744, 4110.256, 4097.949, 0, 0, []
1631386153.221, 40, 0, 4110.256, 4183.077, 4297.949, 4098.974, 4092.308, 0, 0, []
1631386153.2289, 41, 0, 4102.564, 4186.154, 4173.846, 4097.436, 4087.179, 0, 0, []
1631386153.2368, 42, 0, 4097.949, 4181.026, 4226.667, 4115.385, 4094.359, 0, 0, []
1631386153.2446, 43, 0, 4103.077, 4174.872, 4226.667, 4132.821, 4109.744, 0, 0, []
1631386153.2525, 44, 0, 4110.256, 4174.872, 4188.205, 4128.205, 4115.385, 0, 0, []
1631386153.2603, 45, 0, 4111.282, 4169.744, 4276.923, 4111.282, 4106.154, 0, 0, []
1631386153.2681, 46, 0, 4105.641, 4161.026, 4160.513, 4102.564, 4098.462, 0, 0, []
1631386153.2759, 47, 0, 4111.282, 4168.718, 4206.667, 4108.718, 4101.538, 0, 0, []
1631386153.2838, 48, 0, 4121.026, 4188.718, 4226.154, 4110.256, 4108.718, 0, 0, []
1631386153.2917, 49, 0, 4115.897, 4181.026, 4174.359, 4106.154, 4107.692, 0, 0, []
1631386153.2997, 50, 0, 4108.205, 4155.385, 4270.769, 4111.282, 4097.949, 0, 0, []
1631386153.3076, 51, 0, 4114.872, 4166.667, 4168.205, 4122.051, 4097.436, 0, 0, []
1631386153.3155, 52, 0, 4124.103, 4188.205, 4208.718, 4125.641, 4103.59, 0, 0, []
1631386153.3234, 53, 0, 4128.718, 4180, 4242.564, 4121.026, 4108.205, 0, 0, []
1631386153.3314, 54, 0, 4131.282, 4174.359, 4182.051, 4116.923, 4107.692, 0, 0, []
1631386153.3393, 55, 0, 4130.769, 4178.462, 4287.179, 4107.692, 4102.564, 0, 0, []
1631386153.3472, 56, 0, 4117.949, 4170.769, 4183.077, 4095.897, 4094.359, 0, 0, []
1631386153.3551, 57, 0, 4111.795, 4175.385, 4197.949, 4106.154, 4087.179, 0, 0, []
1631386153.3631, 58, 0, 4124.615, 4197.436, 4260, 4127.692, 4091.795, 0, 0, []
1631386153.371, 59, 0, 4128.718, 4200, 4190.769, 4128.718, 4101.026, 0, 0, []
1631386153.379, 60, 0, 4114.359, 4192.821, 4284.103, 4121.538, 4097.436, 0, 0, []
1631386153.3868, 61, 0, 4102.051, 4202.051, 4197.436, 4120.513, 4089.744, 0, 0, []
1631386153.3948, 62, 0, 4102.051, 4216.41, 4184.615, 4116.41, 4096.923, 0, 0, []
1631386153.4027, 63, 0, 4100, 4212.821, 4235.897, 4104.615, 4096.41, 0, 0, []
1631386153.4105, 64, 0, 4087.692, 4193.846, 4153.846, 4095.897, 4080, 450, 0, []
1631386153.4185, 65, 0, 4081.026, 4190.256, 4267.692, 4099.487, 4077.436, 450, 0, []
1631386153.4263, 66, 0, 4083.59, 4207.179, 4216.923, 4105.128, 4091.282, 16189, 0, []
1631386153.4343, 67, 0, 4088.718, 4205.641, 4185.128, 4105.128, 4098.462, 450, 0, []
1631386153.4423, 68, 0, 4091.282, 4193.333, 4234.872, 4107.179, 4094.359, 16180, 0, []
1631386153.4502, 69, 0, 4099.487, 4205.641, 4135.897, 4118.974, 4095.897, 450, 0, []
1631386153.4582, 70, 0, 4112.308, 4209.744, 4252.308, 4127.692, 4101.538, 296, 0, []
1631386153.466, 71, 0, 4108.718, 4200, 4234.359, 4126.154, 4101.538, 450, 0, []
1631386153.474, 72, 0, 4100, 4206.154, 4203.077, 4128.205, 4098.974, 450, 0, []
1631386153.4819, 73, 0, 4110.256, 4209.231, 4266.154, 4131.795, 4109.231, 16165, 0, []
1631386153.4899, 74, 0, 4112.308, 4189.231, 4130.256, 4122.051, 4110.769, 450, 0, []
1631386153.4978, 75, 0, 4090.769, 4177.436, 4213.846, 4115.385, 4090.256, 16211, 0, []
1631386153.5057, 76, 0, 4087.179, 4190.256, 4246.667, 4128.718, 4087.179, 450, 0, []
1631386153.5136, 77, 0, 4104.615, 4189.744, 4221.538, 4138.462, 4099.487, 450, 0, []
1631386153.5216, 78, 0, 4100.513, 4179.487, 4277.949, 4133.333, 4094.872, 450, 0, []
1631386153.5295, 79, 0, 4085.641, 4183.077, 4138.462, 4129.231, 4086.154, 16211, 0, []
1631386153.5375, 80, 0, 4094.872, 4179.487, 4211.282, 4136.41, 4091.282, 450, 0, []
1631386153.5453, 81, 0, 4107.692, 4170.256, 4258.974, 4137.436, 4095.385, 450, 0, []
1631386153.5533, 82, 0, 4103.59, 4173.846, 4213.846, 4129.744, 4096.41, 450, 0, []
1631386153.5612, 83, 0, 4102.051, 4185.128, 4282.051, 4129.744, 4098.974, 16211, 0, []
1631386153.5692, 84, 0, 4106.154, 4182.564, 4145.641, 4132.821, 4101.538, 450, 0, []
1631386153.5771, 85, 0, 4107.692, 4165.641, 4187.179, 4128.718, 4104.615, 450, 0, []
1631386153.5851, 86, 0, 4113.846, 4168.205, 4252.308, 4129.744, 4109.231, 450, 0, []
1631386153.593, 87, 0, 4122.051, 4187.179, 4197.436, 4140, 4110.769, 16211, 0, []
1631386153.6009, 88, 0, 4117.436, 4178.974, 4276.923, 4137.949, 4105.128, 450, 0, []
1631386153.6089, 89, 0, 4107.179, 4158.974, 4161.538, 4131.795, 4102.051, 450, 0, []
1631386153.6168, 90, 0, 4103.59, 4172.308, 4188.205, 4142.564, 4099.487, 450, 0, []
1631386153.6248, 91, 0, 4092.821, 4184.103, 4245.641, 4139.487, 4086.667, 16211, 0, []
1631386153.6326, 92, 0, 4082.051, 4163.59, 4163.59, 4124.615, 4078.462, 450, 0, []
1631386153.6406, 93, 0, 4091.282, 4158.462, 4273.846, 4130.256, 4093.333, 450, 0, []
1631386153.6485, 94, 0, 4098.462, 4173.333, 4203.077, 4137.436, 4109.744, 450, 0, []
1631386153.6565, 95, 0, 4101.538, 4168.718, 4187.179, 4137.436, 4110.769, 16211, 0, []
1631386153.6644, 96, 0, 4110.256, 4165.128, 4248.205, 4143.077, 4105.128, 450, 0, []
1631386153.6723, 97, 0, 4109.231, 4175.897, 4192.308, 4143.077, 4096.923, 450, 0, []
1631386153.6802, 98, 0, 4103.077, 4167.692, 4289.744, 4134.872, 4095.385, 450, 0, []
1631386153.6882, 99, 0, 4109.231, 4156.923, 4206.667, 4134.872, 4114.359, 16211, 0, []
1631386153.6961, 100, 0, 4113.846, 4174.872, 4191.795, 4142.051, 4123.077, 450, 0, []
1631386153.7041, 101, 0, 4112.821, 4190.769, 4272.308, 4148.718, 4108.718, 450, 0, []
1631386153.7119, 102, 0, 4112.308, 4176.41, 4176.41, 4151.795, 4110.256, 450, 0, []
1631386153.7199, 103, 0, 4109.744, 4168.718, 4260.513, 4144.615, 4115.385, 16211, 0, []
1631386153.7278, 104, 0, 4111.282, 4187.692, 4222.051, 4136.923, 4108.205, 450, 0, []
1631386153.7358, 105, 0, 4124.103, 4190.769, 4192.821, 4136.41, 4110.256, 450, 0, []
1631386153.7437, 106, 0, 4127.179, 4167.179, 4252.308, 4135.897, 4114.359, 450, 0, []
1631386153.7516, 107, 0, 4119.487, 4165.128, 4132.308, 4136.923, 4112.821, 16211, 0, []
1631386153.7596, 108, 0, 4132.308, 4176.41, 4234.359, 4145.128, 4118.462, 450, 0, []
1631386153.7675, 109, 0, 4137.949, 4169.744, 4236.923, 4143.077, 4114.359, 450, 0, []
1631386153.7755, 110, 0, 4122.051, 4178.974, 4188.205, 4130.256, 4098.462, 450, 0, []
1631386153.7834, 111, 0, 4126.154, 4203.59, 4266.154, 4129.744, 4110.256, 16211, 0, []
1631386153.7913, 112, 0, 4146.154, 4197.949, 4147.179, 4139.487, 4131.795, 450, 0, []
1631386153.7992, 113, 0, 4139.487, 4183.59, 4210.769, 4141.538, 4121.538, 450, 0, []
1631386153.8072, 114, 0, 4121.026, 4188.718, 4242.564, 4133.333, 4104.103, 450, 0, []
1631386153.8151, 115, 0, 4118.974, 4186.154, 4200, 4133.333, 4101.538, 16211, 0, []
1631386153.8231, 116, 0, 4125.641, 4176.41, 4267.179, 4138.462, 4097.436, 450, 0, []
1631386153.8309, 117, 0, 4137.436, 4183.59, 4141.538, 4138.462, 4103.077, 450, 0, []
1631386153.8389, 118, 0, 4144.103, 4188.718, 4191.795, 4134.872, 4120, 450, 0, []
1631386153.8468, 119, 0, 4137.949, 4183.59, 4231.282, 4129.231, 4123.59, 16211, 0, []
1631386153.8548, 120, 0, 4148.718, 4186.667, 4176.41, 4134.872, 4130.256, 450, 0, []
1631386153.8627, 121, 0, 4185.641, 4202.564, 4282.051, 4153.846, 4157.949, 450, 0, []
1631386153.8706, 122, 0, 4211.795, 4208.205, 4173.846, 4155.385, 4180, 450, 0, []
1631386153.8785, 123, 0, 4228.205, 4194.359, 4188.205, 4139.487, 4183.59, 16211, 0, []
1631386153.8865, 124, 0, 4265.641, 4182.051, 4251.282, 4133.333, 4200, 450, 0, []
1631386153.8944, 125, 0, 4304.615, 4186.154, 4183.59, 4130.256, 4232.308, 450, 0, []
1631386153.9024, 126, 0, 4320, 4190.256, 4262.564, 4133.333, 4247.179, 450, 0, []
1631386153.9103, 127, 0, 4316.41, 4189.744, 4171.282, 4134.872, 4237.436, 16211, 0, []
1631386153.9182, 128, 0, 4306.667, 4191.282, 4195.385, 4128.718, 4225.641, 450, 0, []
1631386153.9262, 0, 0, 4297.436, 4189.231, 4257.436, 4128.205, 4220.513, 450, 0, []
1631386153.9341, 1, 0, 4292.308, 4189.231, 4157.436, 4131.282, 4222.564, 450, 0, []
1631386153.9421, 2, 0, 4289.744, 4196.923, 4255.385, 4132.308, 4227.179, 16187, 0, []
1631386153.9499, 3, 0, 4280.513, 4202.051, 4197.949, 4133.333, 4217.436, 450, 0, []
1631386153.9579, 4, 0, 4263.077, 4209.231, 4190.769, 4136.41, 4197.436, 16179, 0, []
1631386153.9658, 5, 0, 4242.051, 4210.256, 4264.615, 4131.282, 4187.692, 450, 0, []
1631386153.9738, 6, 0, 4222.051, 4193.846, 4175.897, 4122.051, 4183.077, 297, 0, []
1631386153.9817, 7, 0, 4208.718, 4179.487, 4269.231, 4117.949, 4167.692, 450, 0, []
1631386153.9897, 8, 0, 4201.026, 4187.692, 4225.128, 4113.846, 4154.872, 450, 0, []
1631386153.9975, 9, 0, 4195.385, 4194.872, 4201.538, 4112.821, 4144.103, 16169, 0, []
1631386154.0055, 10, 0, 4184.615, 4196.923, 4261.538, 4117.949, 4131.282, 450, 0, []
1631386154.0134, 11, 0, 4178.974, 4209.231, 4132.308, 4133.846, 4137.949, 16205, 0, []
1631386154.0214, 12, 0, 4186.154, 4203.59, 4223.59, 4144.615, 4150.769, 450, 0, []
1631386154.0293, 13, 0, 4187.179, 4185.128, 4232.308, 4142.051, 4148.205, 450, 0, []
1631386154.0372, 14, 0, 4178.462, 4189.231, 4208.718, 4141.026, 4136.923, 450, 0, []
1631386154.0451, 15, 0, 4168.205, 4202.051, 4296.41, 4136.41, 4133.333, 16205, 0, []
1631386154.0531, 16, 0, 4165.128, 4203.077, 4169.744, 4134.359, 4139.487, 0, 0, []
1631386154.061, 17, 0, 4176.41, 4199.487, 4224.615, 4143.59, 4146.154, 0, 0, []
1631386154.069, 18, 0, 4171.795, 4192.821, 4233.333, 4134.359, 4141.026, 0, 0, []
1631386154.0769, 19, 0, 4146.667, 4180.513, 4181.538, 4112.308, 4124.615, 0, 0, []
1631386154.0848, 20, 0, 4143.077, 4178.462, 4281.026, 4115.897, 4118.462, 0, 0, []
1631386154.0928, 21, 0, 4151.795, 4186.154, 4176.41, 4121.026, 4123.077, 0, 0, []
1631386154.1007, 22, 0, 4145.641, 4183.077, 4212.821, 4109.744, 4117.949, 0, 0, []
1631386154.1087, 23, 0, 4137.436, 4175.385, 4235.385, 4106.667, 4108.205, 0, 0, []
1631386154.1165, 24, 0, 4137.949, 4174.359, 4183.59, 4111.282, 4106.667, 0, 0, []
1631386154.1245, 25, 0, 4148.205, 4180, 4273.333, 4117.436, 4110.769, 0, 0, []
1631386154.1324, 26, 0, 4152.821, 4187.692, 4155.897, 4117.949, 4107.692, 0, 0, []
1631386154.1404, 27, 0, 4139.487, 4183.077, 4194.872, 4112.308, 4095.385, 0, 0, []
1631386154.1483, 28, 0, 4138.974, 4179.487, 4258.974, 4121.538, 4106.667, 0, 0, []
1631386154.1562, 29, 0, 4161.026, 4200, 4185.128, 4141.026, 4136.923, 0, 0, []
1631386154.1641, 30, 0, 4167.179, 4210.256, 4257.949, 4137.949, 4137.949, 0, 0, []
1631386154.1721, 31, 0, 4150.769, 4195.897, 4153.333, 4116.923, 4117.436, 0, 0, []
1631386154.18, 32, 0, 4143.59, 4188.718, 4180, 4110.256, 4111.282, 0, 0, []
1631386154.188, 33, 0, 4143.077, 4189.231, 4252.308, 4105.128, 4108.718, 0, 0, []
1631386154.1958, 34, 0, 4134.359, 4179.487, 4164.615, 4092.308, 4097.436, 0, 0, []
1631386154.2038, 35, 0, 4130.256, 4175.385, 4264.103, 4094.872, 4090.256, 0, 0, []
1631386154.2117, 36, 0, 4138.462, 4183.077, 4200, 4114.872, 4097.949, 0, 0, []
1631386154.2197, 37, 0, 4148.205, 4192.308, 4188.205, 4129.744, 4110.256, 0, 0, []
1631386154.2277, 38, 0, 4142.564, 4203.077, 4268.718, 4128.205, 4108.205, 0, 0, []
1631386154.2355, 39, 0, 4123.077, 4195.385, 4193.846, 4116.41, 4089.744, 0, 0, []
1631386154.2435, 40, 0, 4122.051, 4178.462, 4270.256, 4107.692, 4083.077, 0, 0, []
1631386154.2514, 41, 0, 4141.538, 4195.385, 4197.949, 4113.846, 4105.128, 0, 0, []
1631386154.2594, 42, 0, 4138.462, 4206.154, 4182.564, 4111.282, 4112.821, 0, 0, []
1631386154.2673, 43, 0, 4116.923, 4185.641, 4277.436, 4093.333, 4094.359, 0, 0, []
1631386154.2752, 44, 0, 4125.128, 4186.667, 4167.179, 4095.897, 4093.846, 0, 0, []
1631386154.2831, 45, 0, 4149.231, 4205.641, 4243.077, 4115.385, 4104.615, 0, 0, []
1631386154.291, 46, 0, 4145.641, 4195.385, 4230.256, 4112.821, 4097.436, 0, 0, []
1631386154.2989, 47, 0, 4131.795, 4184.615, 4192.308, 4101.538, 4092.821, 0, 0, []
1631386154.3069, 48, 0, 4135.385, 4197.436, 4252.308, 4104.615, 4105.641, 0, 0, []
1631386154.3147, 49, 0, 4145.641, 4203.59, 4134.872, 4104.615, 4108.205, 0, 0, []
1631386154.3227, 50, 0, 4145.641, 4195.897, 4224.103, 4098.462, 4089.231, 0, 0, []
1631386154.3306, 51, 0, 4135.897, 4194.872, 4245.641, 4096.923, 4075.897, 0, 0, []
1631386154.3386, 52, 0, 4134.872, 4195.385, 4206.667, 4102.051, 4082.564, 0, 0, []
1631386154.3465, 53, 0, 4141.026, 4181.538, 4271.282, 4101.538, 4091.282, 0, 0, []
1631386154.3544, 54, 0, 4134.359, 4169.231, 4131.282, 4088.718, 4084.615, 0, 0, []
1631386154.3623, 55, 0, 4133.846, 4173.846, 4195.385, 4086.154, 4083.59, 0, 0, []
1631386154.3701, 56, 0, 4158.462, 4186.154, 4245.128, 4102.564, 4104.103, 0, 0, []
1631386154.3781, 57, 0, 4168.718, 4190.256, 4188.205, 4111.795, 4114.359, 0, 0, []
1631386154.386, 58, 0, 4147.692, 4181.538, 4265.641, 4105.128, 4101.026, 0, 0, []
1631386154.394, 59, 0, 4140.513, 4169.231, 4146.667, 4101.538, 4098.462, 0, 0, []
1631386154.4018, 60, 0, 4155.385, 4167.692, 4183.59, 4109.231, 4110.769, 0, 0, []
1631386154.4098, 61, 0, 4150.769, 4174.872, 4245.641, 4118.974, 4112.821, 0, 0, []
1631386154.4177, 62, 0, 4128.718, 4173.846, 4178.974, 4116.41, 4099.487, 0, 0, []
1631386154.4257, 63, 0, 4127.179, 4161.026, 4260.513, 4105.641, 4089.231, 0, 0, []
1631386154.4336, 64, 0, 4144.103, 4153.333, 4154.359, 4102.564, 4097.436, 450, 0, []
1631386154.4415, 65, 0, 4156.41, 4159.487, 4178.462, 4113.846, 4105.641, 450, 0, []
1631386154.4494, 66, 0, 4152.308, 4168.205, 4260.513, 4120.513, 4100, 16188, 0, []
1631386154.4574, 67, 0, 4150.256, 4170.769, 4188.718, 4121.026, 4104.103, 450, 0, []
1631386154.4653, 68, 0, 4156.41, 4169.744, 4280.513, 4121.026, 4117.949, 16178, 0, []
1631386154.4733, 69, 0, 4151.795, 4168.718, 4197.949, 4110.256, 4116.923, 450, 0, []
1631386154.4811, 70, 0, 4147.692, 4169.231, 4187.692, 4104.103, 4103.077, 292, 0, []
1631386154.4891, 71, 0, 4155.385, 4182.564, 4268.205, 4115.385, 4103.59, 450, 0, []
1631386154.497, 72, 0, 4155.897, 4196.923, 4191.795, 4123.077, 4117.949, 450, 0, []
1631386154.505, 73, 0, 4150.769, 4186.667, 4275.385, 4114.359, 4120, 16166, 0, []
1631386154.5129, 74, 0, 4148.718, 4166.667, 4209.744, 4108.205, 4110.256, 450, 0, []
1631386154.5206, 75, 0, 4147.692, 4168.718, 4189.744, 4116.923, 4108.718, 16200, 0, []
1631386154.5285, 76, 0, 4156.923, 4184.103, 4263.077, 4130.256, 4120.513, 450, 0, []
1631386154.5363, 77, 0, 4169.744, 4190.256, 4153.333, 4134.872, 4132.821, 450, 0, []
1631386154.5443, 78, 0, 4173.846, 4188.718, 4235.385, 4131.795, 4138.462, 450, 0, []
1631386154.5522, 79, 0, 4173.333, 4185.128, 4224.615, 4130.256, 4133.333, 16200, 0, []
1631386154.5601, 80, 0, 4173.846, 4178.974, 4211.795, 4136.923, 4127.179, 450, 0, []
1631386154.568, 81, 0, 4176.41, 4177.949, 4273.333, 4140, 4132.821, 450, 0, []
1631386154.576, 82, 0, 4181.026, 4192.308, 4131.795, 4136.41, 4148.205, 450, 0, []
1631386154.5839, 83, 0, 4191.282, 4202.564, 4218.974, 4140.513, 4158.462, 16200, 0, []
1631386154.5919, 84, 0, 4195.385, 4196.41, 4243.077, 4138.462, 4151.795, 450, 0, []
1631386154.5997, 85, 0, 4193.333, 4198.462, 4195.897, 4127.692, 4144.615, 450, 0, []
1631386154.6077, 86, 0, 4208.205, 4208.718, 4292.308, 4137.436, 4161.026, 450, 0, []
1631386154.6156, 87, 0, 4223.59, 4206.667, 4191.282, 4151.795, 4178.462, 16200, 0, []
1631386154.6236, 88, 0, 4213.846, 4194.359, 4231.282, 4136.923, 4160.513, 450, 0, []
1631386154.6315, 89, 0, 4200, 4187.692, 4235.897, 4115.897, 4138.974, 450, 0, []
1631386154.6394, 90, 0, 4205.128, 4187.692, 4183.59, 4123.077, 4146.154, 450, 0, []
1631386154.6473, 91, 0, 4224.615, 4199.487, 4274.359, 4140, 4161.026, 16200, 0, []
1631386154.6553, 92, 0, 4243.59, 4212.308, 4154.359, 4140, 4174.359, 450, 0, []
1631386154.6632, 93, 0, 4256.41, 4198.462, 4190.256, 4130.256, 4185.128, 450, 0, []
1631386154.671, 94, 0, 4278.462, 4185.641, 4237.436, 4124.103, 4201.538, 450, 0, []
1631386154.6788, 95, 0, 4326.154, 4201.026, 4182.051, 4134.359, 4236.923, 16200, 0, []
1631386154.6866, 96, 0, 4372.308, 4209.744, 4282.051, 4142.564, 4265.641, 450, 0, []
1631386154.6946, 97, 0, 4386.154, 4196.923, 4173.333, 4129.744, 4271.795, 450, 0, []
1631386154.7025, 98, 0, 4399.487, 4204.103, 4192.308, 4129.744, 4282.051, 450, 0, []
1631386154.7105, 99, 0, 4418.974, 4222.564, 4258.974, 4143.077, 4302.564, 16200, 0, []
1631386154.7183, 100, 0, 4406.154, 4206.667, 4185.128, 4134.359, 4296.923, 450, 0, []
1631386154.7263, 101, 0, 4373.333, 4188.718, 4280, 4124.103, 4265.641, 450, 0, []
1631386154.7342, 102, 0, 4356.923, 4205.128, 4187.692, 4129.231, 4253.333, 450, 0, []
1631386154.7422, 103, 0, 4349.744, 4199.487, 4176.41, 4132.821, 4253.333, 16200, 0, []
1631386154.7501, 104, 0, 4340, 4183.59, 4266.154, 4140.513, 4248.718, 450, 0, []
1631386154.7581, 105, 0, 4328.718, 4207.692, 4195.385, 4153.333, 4245.128, 450, 0, []
1631386154.7659, 106, 0, 4315.385, 4216.41, 4278.462, 4154.872, 4233.846, 450, 0, []
1631386154.7739, 107, 0, 4304.615, 4197.949, 4213.846, 4148.718, 4218.462, 16200, 0, []
1631386154.7818, 108, 0, 4305.128, 4206.154, 4203.59, 4148.718, 4220, 450, 0, []
1631386154.7896, 109, 0, 4302.564, 4210.769, 4285.128, 4145.641, 4220.513, 450, 0, []
1631386154.7975, 110, 0, 4290.769, 4198.974, 4172.821, 4138.462, 4201.538, 450, 0, []
1631386154.8052, 111, 0, 4292.821, 4215.897, 4243.59, 4145.128, 4192.821, 16200, 0, []
1631386154.8131, 112, 0, 4297.949, 4230.769, 4225.128, 4152.821, 4205.641, 450, 0, []
1631386154.8209, 113, 0, 4285.641, 4206.667, 4210.769, 4141.538, 4203.59, 450, 0, []
1631386154.8288, 114, 0, 4259.487, 4194.359, 4259.487, 4123.077, 4180, 450, 0, []
1631386154.8366, 115, 0, 4242.564, 4204.615, 4117.949, 4113.846, 4161.538, 16200, 0, []
1631386154.8445, 116, 0, 4244.103, 4197.436, 4217.949, 4114.359, 4162.051, 450, 0, []
1631386154.8524, 117, 0, 4251.282, 4191.282, 4243.59, 4120.513, 4172.308, 450, 0, []
1631386154.8604, 118, 0, 4253.333, 4209.231, 4195.897, 4126.667, 4172.821, 450, 0, []
1631386154.8683, 119, 0, 4251.282, 4215.897, 4284.615, 4132.821, 4166.154, 16200, 0, []
1631386154.8763, 120, 0, 4244.615, 4211.282, 4173.846, 4140.513, 4167.692, 450, 0, []
1631386154.8841, 121, 0, 4236.923, 4210.769, 4215.385, 4134.872, 4167.692, 450, 0, []
1631386154.8921, 122, 0, 4233.846, 4206.154, 4233.333, 4117.436, 4158.974, 450, 0, []
1631386154.9, 123, 0, 4237.949, 4204.615, 4188.718, 4117.949, 4154.359, 16200, 0, []
1631386154.908, 124, 0, 4235.385, 4212.308, 4258.974, 4122.051, 4150.769, 450, 0, []
1631386154.9159, 125, 0, 4216.923, 4202.564, 4134.359, 4104.103, 4135.385, 450, 0, []
1631386154.9238, 126, 0, 4209.231, 4193.333, 4196.923, 4106.667, 4134.872, 450, 0, []
1631386154.9317, 127, 0, 4223.077, 4212.308, 4250.256, 4129.744, 4153.333, 16200, 0, []
1631386154.9397, 128, 0, 4233.333, 4222.051, 4176.923, 4127.692, 4156.923, 450, 0, []
1631386154.9476, 0, 0, 4234.872, 4216.923, 4272.308, 4119.487, 4152.308, 450, 0, []
1631386154.9554, 1, 0, 4234.872, 4229.744, 4184.103, 4121.538, 4152.308, 450, 0, []
1631386154.9632, 2, 0, 4228.205, 4246.154, 4209.231, 4118.462, 4137.436, 16185, 0, []
1631386154.971, 3, 0, 4226.667, 4250.769, 4258.974, 4117.949, 4137.436, 450, 0, []
1631386154.9789, 4, 0, 4229.744, 4241.538, 4192.308, 4125.128, 4154.872, 16171, 0, []
1631386154.9867, 5, 0, 4216.41, 4214.359, 4289.744, 4122.051, 4144.615, 450, 0, []
1631386154.9946, 6, 0, 4198.462, 4199.487, 4183.59, 4110.769, 4127.179, 294, 0, []
1631386155.0023, 7, 0, 4199.487, 4214.872, 4181.026, 4110.256, 4133.846, 450, 0, []
1631386155.0103, 8, 0, 4202.564, 4215.385, 4253.846, 4108.205, 4139.487, 450, 0, []
1631386155.0182, 9, 0, 4196.41, 4200, 4146.154, 4105.641, 4136.41, 16164, 0, []
1631386155.0262, 10, 0, 4198.462, 4206.154, 4236.923, 4115.385, 4135.897, 450, 0, []
1631386155.0341, 11, 0, 4193.846, 4216.41, 4204.103, 4113.333, 4124.615, 16207, 0, []
1631386155.042, 12, 0, 4174.872, 4201.026, 4201.026, 4096.41, 4104.615, 450, 0, []
1631386155.0499, 13, 0, 4167.692, 4188.718, 4270.256, 4091.282, 4100, 450, 0, []
1631386155.0579, 14, 0, 4178.974, 4196.923, 4166.154, 4107.179, 4112.308, 450, 0, []
1631386155.0658, 15, 0, 4193.846, 4201.538, 4240, 4120, 4129.231, 16207, 0, []
1631386155.0738, 16, 0, 4198.462, 4202.051, 4203.077, 4115.897, 4137.436, 0, 0, []
1631386155.0816, 17, 0, 4197.436, 4199.487, 4183.077, 4108.718, 4137.949, 0, 0, []
1631386155.0896, 18, 0, 4203.077, 4197.436, 4256.923, 4115.897, 4144.615, 0, 0, []
1631386155.0975, 19, 0, 4215.897, 4211.282, 4145.641, 4131.282, 4156.923, 0, 0, []
1631386155.1053, 20, 0, 4223.077, 4219.487, 4230.769, 4128.205, 4161.026, 0, 0, []
1631386155.1132, 21, 0, 4215.385, 4201.538, 4232.308, 4112.308, 4150.256, 0, 0, []
1631386155.121, 22, 0, 4216.41, 4195.385, 4205.128, 4118.462, 4148.205, 0, 0, []
1631386155.1288, 23, 0, 4222.564, 4208.718, 4277.436, 4134.359, 4153.846, 0, 0, []
1631386155.1366, 24, 0, 4214.359, 4208.718, 4131.795, 4135.897, 4153.846, 0, 0, []
1631386155.1445, 25, 0, 4216.923, 4207.179, 4193.846, 4140.513, 4158.974, 0, 0, []
1631386155.1523, 26, 0, 4228.205, 4213.333, 4233.333, 4142.051, 4167.179, 0, 0, []
1631386155.1603, 27, 0, 4218.462, 4201.538, 4188.718, 4130.769, 4161.026, 0, 0, []
1631386155.1681, 28, 0, 4208.205, 4190.769, 4282.051, 4130.256, 4153.333, 0, 0, []
1631386155.1761, 29, 0, 4214.872, 4202.564, 4173.846, 4130.256, 4155.385, 0, 0, []
1631386155.184, 30, 0, 4207.692, 4204.615, 4207.692, 4111.282, 4143.59, 0, 0, []
1631386155.192, 31, 0, 4189.231, 4190.256, 4234.359, 4101.026, 4128.718, 0, 0, []
1631386155.1999, 32, 0, 4193.333, 4188.718, 4174.359, 4112.821, 4138.462, 0, 0, []
1631386155.2078, 33, 0, 4211.282, 4199.487, 4270.769, 4118.462, 4160.513, 0, 0, []
1631386155.2157, 34, 0, 4216.41, 4205.641, 4168.205, 4115.897, 4172.308, 0, 0, []
1631386155.2237, 35, 0, 4214.359, 4198.462, 4192.308, 4122.051, 4168.205, 0, 0, []
1631386155.2316, 36, 0, 4218.974, 4197.949, 4239.487, 4129.231, 4164.103, 0, 0, []
1631386155.2396, 37, 0, 4227.692, 4203.59, 4153.846, 4124.615, 4172.308, 0, 0, []
1631386155.2474, 38, 0, 4235.897, 4193.333, 4246.154, 4116.923, 4174.872, 0, 0, []
1631386155.2552, 39, 0, 4238.462, 4195.385, 4158.462, 4114.359, 4168.718, 0, 0, []
1631386155.2631, 40, 0, 4242.564, 4211.795, 4166.154, 4120.513, 4176.41, 0, 0, []
1631386155.2709, 41, 0, 4264.615, 4209.744, 4255.385, 4126.667, 4198.974, 0, 0, []
1631386155.2788, 42, 0, 4284.615, 4204.615, 4194.872, 4116.923, 4220.513, 0, 0, []
1631386155.2865, 43, 0, 4306.154, 4213.333, 4276.923, 4105.128, 4235.897, 0, 0, []
1631386155.2944, 44, 0, 4358.462, 4222.051, 4192.821, 4121.026, 4261.538, 0, 0, []
1631386155.3024, 45, 0, 4406.667, 4227.692, 4192.821, 4143.59, 4298.462, 0, 0, []
1631386155.3103, 46, 0, 4416.41, 4229.231, 4258.974, 4139.487, 4323.59, 0, 0, []
1631386155.3181, 47, 0, 4425.641, 4229.744, 4132.821, 4133.333, 4332.821, 0, 0, []
1631386155.326, 48, 0, 4441.026, 4232.821, 4228.205, 4134.359, 4331.795, 0, 0, []
1631386155.3339, 49, 0, 4419.487, 4225.641, 4208.718, 4122.051, 4325.641, 0, 0, []
1631386155.3419, 50, 0, 4388.205, 4215.385, 4181.538, 4115.385, 4313.333, 0, 0, []
1631386155.3498, 51, 0, 4386.154, 4219.487, 4244.103, 4120, 4308.718, 0, 0, []
1631386155.3578, 52, 0, 4388.718, 4218.974, 4128.718, 4129.231, 4313.846, 0, 0, []
1631386155.3656, 53, 0, 4378.974, 4216.41, 4229.744, 4149.744, 4307.692, 0, 0, []
1631386155.3736, 54, 0, 4369.231, 4228.205, 4238.974, 4155.385, 4297.949, 0, 0, []
1631386155.3815, 55, 0, 4357.436, 4219.487, 4203.077, 4133.333, 4290.769, 0, 0, []
1631386155.3895, 56, 0, 4330.769, 4192.821, 4282.564, 4113.846, 4261.538, 0, 0, []
1631386155.3974, 57, 0, 4309.231, 4198.974, 4151.795, 4114.359, 4240, 0, 0, []
1631386155.4051, 58, 0, 4302.564, 4220, 4219.487, 4127.692, 4243.59, 0, 0, []
1631386155.413, 59, 0, 4282.051, 4210.769, 4255.385, 4135.385, 4230.769, 0, 0, []
1631386155.4208, 60, 0, 4258.974, 4197.436, 4204.103, 4136.41, 4207.692, 0, 0, []
1631386155.4287, 61, 0, 4261.538, 4203.59, 4267.179, 4141.538, 4211.795, 0, 0, []
1631386155.4365, 62, 0, 4262.564, 4209.744, 4152.821, 4140, 4216.41, 0, 0, []
1631386155.4443, 63, 0, 4247.179, 4210.256, 4214.359, 4133.846, 4202.051, 0, 0, []
1631386155.4521, 64, 0, 4228.718, 4198.462, 4242.564, 4116.923, 4183.077, 450, 0, []
1631386155.46, 65, 0, 4213.333, 4180.513, 4186.154, 4091.282, 4167.179, 450, 0, []
1631386155.4678, 66, 0, 4207.179, 4176.923, 4292.308, 4094.872, 4166.667, 16189, 0, []
1631386155.4758, 67, 0, 4221.538, 4190.769, 4189.744, 4127.179, 4187.692, 450, 0, []
1631386155.4837, 68, 0, 4238.974, 4200.513, 4208.205, 4143.59, 4203.59, 16170, 0, []
1631386155.4916, 69, 0, 4233.846, 4192.308, 4245.641, 4139.487, 4197.436, 450, 0, []
1631386155.4995, 70, 0, 4226.154, 4193.846, 4162.051, 4143.59, 4192.821, 300, 0, []
1631386155.5075, 71, 0, 4234.872, 4206.154, 4246.667, 4152.821, 4200.513, 450, 0, []
1631386155.5154, 72, 0, 4224.615, 4200, 4158.974, 4144.103, 4195.385, 450, 0, []
1631386155.5234, 73, 0, 4201.538, 4181.026, 4181.026, 4131.795, 4180.513, 16161, 0, []
1631386155.5312, 74, 0, 4210.256, 4185.128, 4264.615, 4134.359, 4182.564, 450, 0, []
1631386155.5392, 75, 0, 4221.026, 4190.769, 4202.051, 4135.385, 4185.641, 16212, 0, []
1631386155.5471, 76, 0, 4209.231, 4177.436, 4292.821, 4127.179, 4173.333, 450, 0, []
1631386155.5549, 77, 0, 4213.333, 4183.077, 4204.103, 4138.974, 4182.051, 450, 0, []
1631386155.5628, 78, 0, 4227.179, 4200.513, 4193.333, 4162.051, 4193.333, 450, 0, []
1631386155.5705, 79, 0, 4217.436, 4198.974, 4251.795, 4159.487, 4174.872, 16212, 0, []
1631386155.5784, 80, 0, 4198.462, 4187.179, 4139.487, 4146.667, 4161.026, 450, 0, []
1631386155.5862, 81, 0, 4190.769, 4182.564, 4244.103, 4146.667, 4170.256, 450, 0, []
1631386155.5941, 82, 0, 4190.256, 4189.231, 4218.974, 4138.974, 4172.308, 450, 0, []
1631386155.6019, 83, 0, 4192.308, 4197.949, 4193.333, 4120.513, 4155.897, 16212, 0, []
1631386155.6097, 84, 0, 4192.308, 4196.41, 4269.744, 4120.513, 4152.821, 450, 0, []
1631386155.6175, 85, 0, 4194.359, 4194.359, 4170.256, 4135.897, 4168.205, 450, 0, []
1631386155.6255, 86, 0, 4203.077, 4198.974, 4253.846, 4143.59, 4168.718, 450, 0, []
1631386155.6334, 87, 0, 4202.564, 4199.487, 4241.026, 4142.051, 4157.436, 16212, 0, []
1631386155.6414, 88, 0, 4193.846, 4194.359, 4207.692, 4141.026, 4157.949, 450, 0, []
1631386155.6492, 89, 0, 4191.282, 4188.205, 4267.692, 4136.923, 4157.949, 450, 0, []
1631386155.6572, 90, 0, 4193.846, 4188.718, 4129.744, 4132.308, 4152.821, 450, 0, []
1631386155.6651, 91, 0, 4205.128, 4197.436, 4206.154, 4143.59, 4163.59, 16212, 0, []
1631386155.6731, 92, 0, 4205.641, 4204.615, 4235.385, 4154.872, 4171.282, 450, 0, []
1631386155.681, 93, 0, 4190.256, 4198.974, 4190.769, 4145.128, 4158.974, 450, 0, []
1631386155.6889, 94, 0, 4188.718, 4187.179, 4285.641, 4133.846, 4148.205, 450, 0, []
1631386155.6968, 95, 0, 4191.795, 4190.256, 4180, 4131.795, 4146.154, 16212, 0, []
1631386155.7048, 96, 0, 4192.308, 4199.487, 4222.564, 4133.846, 4143.59, 450, 0, []
1631386155.7127, 97, 0, 4203.59, 4198.974, 4250.769, 4141.026, 4153.846, 450, 0, []
1631386155.7205, 98, 0, 4208.718, 4193.333, 4200, 4150.769, 4158.974, 450, 0, []
1631386155.7283, 99, 0, 4195.897, 4195.385, 4274.872, 4148.205, 4149.231, 16212, 0, []
1631386155.7361, 100, 0, 4192.821, 4201.538, 4143.59, 4135.385, 4151.795, 450, 0, []
1631386155.744, 101, 0, 4198.462, 4197.949, 4184.615, 4130.769, 4157.949, 450, 0, []
1631386155.7518, 102, 0, 4195.897, 4195.385, 4249.231, 4131.282, 4155.897, 450, 0, []
1631386155.7597, 103, 0, 4195.897, 4200.513, 4174.359, 4130.256, 4156.923, 16212, 0, []
1631386155.7674, 104, 0, 4197.949, 4206.154, 4272.308, 4133.333, 4160, 450, 0, []
1631386155.7753, 105, 0, 4191.795, 4207.692, 4199.487, 4135.897, 4156.923, 450, 0, []
1631386155.7831, 106, 0, 4184.103, 4201.538, 4209.231, 4128.205, 4147.692, 450, 0, []
1631386155.7911, 107, 0, 4185.641, 4200.513, 4253.846, 4115.897, 4147.179, 16212, 0, []
1631386155.799, 108, 0, 4194.359, 4204.615, 4188.205, 4123.077, 4157.436, 450, 0, []
1631386155.8069, 109, 0, 4192.308, 4195.385, 4284.615, 4130.256, 4151.795, 450, 0, []
1631386155.8148, 110, 0, 4186.154, 4190.256, 4181.026, 4120, 4140.513, 450, 0, []
1631386155.8228, 111, 0, 4200.513, 4207.179, 4188.718, 4125.128, 4154.872, 16212, 0, []
1631386155.8307, 112, 0, 4215.385, 4221.026, 4284.615, 4140, 4171.795, 450, 0, []
1631386155.8387, 113, 0, 4212.308, 4214.872, 4169.744, 4135.385, 4168.718, 450, 0, []
1631386155.8466, 114, 0, 4211.795, 4209.231, 4250.256, 4132.308, 4164.615, 450, 0, []
1631386155.8545, 115, 0, 4208.718, 4213.333, 4215.897, 4140.513, 4160.513, 16212, 0, []
1631386155.8624, 116, 0, 4200.513, 4215.897, 4183.077, 4143.59, 4157.949, 450, 0, []
1631386155.8702, 117, 0, 4204.615, 4213.333, 4243.59, 4148.718, 4164.615, 450, 0, []
1631386155.8781, 118, 0, 4207.179, 4215.385, 4146.667, 4149.231, 4163.077, 450, 0, []
1631386155.8859, 119, 0, 4200.513, 4219.487, 4243.077, 4134.872, 4146.667, 16212, 0, []
1631386155.8937, 120, 0, 4207.179, 4219.487, 4242.051, 4129.744, 4151.282, 450, 0, []
1631386155.9015, 121, 0, 4223.077, 4223.077, 4229.744, 4143.59, 4167.179, 450, 0, []
1631386155.9094, 122, 0, 4220, 4224.103, 4303.59, 4143.077, 4156.923, 450, 0, []
1631386155.9172, 123, 0, 4210.769, 4220.513, 4167.179, 4130.769, 4147.692, 16212, 0, []
1631386155.9251, 124, 0, 4207.692, 4221.538, 4229.744, 4126.154, 4152.308, 450, 0, []
1631386155.9328, 125, 0, 4199.487, 4221.538, 4231.282, 4121.538, 4147.179, 450, 0, []
1631386155.9408, 126, 0, 4195.385, 4215.385, 4180.513, 4123.077, 4139.487, 450, 0, []
1631386155.9487, 127, 0, 4201.538, 4217.436, 4250.256, 4126.667, 4139.487, 16212, 0, []
1631386155.9567, 128, 0, 4195.385, 4217.949, 4127.179, 4121.538, 4134.872, 450, 0, []
1631386155.9646, 0, 0, 4188.205, 4204.103, 4201.026, 4123.077, 4131.282, 450, 0, []
1631386155.9725, 1, 0, 4195.897, 4201.538, 4241.026, 4125.128, 4140.513, 450, 0, []
1631386155.9804, 2, 0, 4194.872, 4207.692, 4179.487, 4110.256, 4140.513, 16188, 0, []
1631386155.9884, 3, 0, 4190.769, 4200.513, 4266.154, 4104.615, 4132.308, 450, 0, []
1631386155.9963, 4, 0, 4199.487, 4196.923, 4152.308, 4114.872, 4136.923, 16174, 0, []
1631386156.0043, 5, 0, 4213.846, 4206.667, 4181.538, 4124.615, 4146.667, 450, 0, []
1631386156.0121, 6, 0, 4218.974, 4214.872, 4248.718, 4131.795, 4143.59, 294, 0, []
1631386156.0199, 7, 0, 4208.718, 4215.385, 4202.564, 4122.051, 4132.821, 450, 0, []
1631386156.0278, 8, 0, 4203.077, 4215.385, 4272.821, 4111.282, 4141.538, 450, 0, []
1631386156.0356, 9, 0, 4204.615, 4216.41, 4158.974, 4126.667, 4156.41, 16164, 0, []
1631386156.0435, 10, 0, 4204.103, 4220, 4187.692, 4144.615, 4154.872, 450, 0, []
1631386156.0512, 11, 0, 4210.256, 4221.026, 4245.128, 4141.538, 4152.821, 16211, 0, []
1631386156.0591, 12, 0, 4215.385, 4220.513, 4144.615, 4132.821, 4154.359, 450, 0, []
1631386156.0669, 13, 0, 4194.359, 4209.744, 4241.538, 4124.103, 4140.513, 450, 0, []
1631386156.0748, 14, 0, 4181.026, 4202.564, 4184.103, 4115.897, 4132.821, 450, 0, []
1631386156.0826, 15, 0, 4201.026, 4212.821, 4192.821, 4125.128, 4146.154, 16211, 0, []
1631386156.0905, 16, 0, 4205.641, 4208.205, 4266.667, 4130.769, 4153.333, 0, 0, []
1631386156.0984, 17, 0, 4193.333, 4200, 4184.615, 4126.667, 4153.333, 0, 0, []
1631386156.1064, 18, 0, 4198.974, 4217.436, 4283.077, 4127.179, 4157.436, 0, 0, []
1631386156.1143, 19, 0, 4202.051, 4230.256, 4217.949, 4123.077, 4154.359, 0, 0, []
1631386156.1223, 20, 0, 4194.872, 4215.897, 4187.179, 4113.333, 4143.59, 0, 0, []
1631386156.1301, 21, 0, 4204.103, 4212.821, 4247.179, 4118.974, 4148.205, 0, 0, []
1631386156.1381, 22, 0, 4219.487, 4227.179, 4129.231, 4129.744, 4160, 0, 0, []
1631386156.146, 23, 0, 4217.436, 4221.538, 4223.077, 4123.077, 4154.359, 0, 0, []
1631386156.154, 24, 0, 4210.769, 4213.846, 4219.487, 4113.846, 4145.641, 0, 0, []
1631386156.1619, 25, 0, 4215.897, 4222.564, 4195.897, 4123.59, 4157.436, 0, 0, []
1631386156.1698, 26, 0, 4222.564, 4221.026, 4282.051, 4136.923, 4164.103, 0, 0, []
1631386156.1777, 27, 0, 4222.051, 4205.641, 4175.385, 4134.872, 4158.462, 0, 0, []
1631386156.1855, 28, 0, 4224.615, 4201.026, 4238.462, 4127.692, 4158.462, 0, 0, []
1631386156.1934, 29, 0, 4220.513, 4205.128, 4235.385, 4121.026, 4160, 0, 0, []
1631386156.2012, 30, 0, 4218.462, 4203.077, 4207.179, 4121.538, 4159.487, 0, 0, []
1631386156.2091, 31, 0, 4237.949, 4209.231, 4286.154, 4130.256, 4165.641, 0, 0, []
1631386156.2168, 32, 0, 4248.205, 4225.641, 4143.077, 4129.744, 4176.41, 0, 0, []
1631386156.2248, 33, 0, 4238.974, 4231.795, 4197.949, 4123.59, 4178.974, 0, 0, []
1631386156.2327, 34, 0, 4239.487, 4231.282, 4238.462, 4130.769, 4178.462, 0, 0, []
1631386156.2406, 35, 0, 4236.923, 4234.359, 4191.282, 4136.923, 4172.821, 0, 0, []
1631386156.2484, 36, 0, 4218.974, 4232.308, 4285.128, 4130.769, 4159.487, 0, 0, []
1631386156.2563, 37, 0, 4215.897, 4228.718, 4176.41, 4125.641, 4155.897, 0, 0, []
1631386156.2642, 38, 0, 4226.667, 4227.692, 4218.974, 4127.179, 4153.333, 0, 0, []
1631386156.2721, 39, 0, 4222.051, 4224.615, 4260.513, 4127.179, 4150.769, 0, 0, []
1631386156.28, 40, 0, 4216.41, 4226.667, 4177.436, 4126.667, 4152.821, 0, 0, []
1631386156.2879, 41, 0, 4218.974, 4231.795, 4251.795, 4123.59, 4148.718, 0, 0, []
1631386156.2957, 42, 0, 4216.923, 4228.718, 4146.154, 4113.846, 4145.128, 0, 0, []
1631386156.3035, 43, 0, 4216.41, 4219.487, 4172.821, 4108.718, 4148.205, 0, 0, []
1631386156.3115, 44, 0, 4223.077, 4215.385, 4244.615, 4108.205, 4152.821, 0, 0, []
1631386156.3194, 45, 0, 4228.205, 4218.462, 4176.41, 4111.795, 4156.923, 0, 0, []
1631386156.3273, 46, 0, 4222.564, 4207.692, 4268.718, 4111.795, 4155.897, 0, 0, []
1631386156.335, 47, 0, 4207.179, 4191.795, 4194.872, 4102.051, 4144.615, 0, 0, []
1631386156.3429, 48, 0, 4212.821, 4197.949, 4203.59, 4112.821, 4154.872, 0, 0, []
1631386156.3507, 49, 0, 4239.487, 4223.59, 4256.41, 4142.564, 4185.128, 0, 0, []
1631386156.3586, 50, 0, 4237.949, 4224.103, 4157.949, 4142.051, 4177.436, 0, 0, []
1631386156.3664, 51, 0, 4212.308, 4195.897, 4255.385, 4117.949, 4143.077, 0, 0, []
1631386156.3742, 52, 0, 4216.41, 4202.051, 4203.59, 4121.026, 4151.795, 0, 0, []
1631386156.382, 53, 0, 4236.41, 4220.513, 4201.538, 4142.051, 4176.923, 0, 0, []
1631386156.3899, 54, 0, 4227.179, 4206.154, 4295.385, 4140, 4161.538, 0, 0, []
1631386156.3977, 55, 0, 4206.667, 4202.564, 4198.462, 4134.359, 4144.615, 0, 0, []
1631386156.4057, 56, 0, 4205.641, 4217.949, 4264.615, 4133.333, 4149.231, 0, 0, []
1631386156.4135, 57, 0, 4210.256, 4206.667, 4210.769, 4120, 4144.615, 0, 0, []
1631386156.4215, 58, 0, 4215.385, 4194.872, 4178.974, 4116.923, 4144.615, 0, 0, []
1631386156.4294, 59, 0, 4220.513, 4204.103, 4255.385, 4135.385, 4156.923, 0, 0, []
1631386156.4374, 60, 0, 4210.769, 4193.846, 4134.872, 4132.821, 4149.744, 0, 0, []
1631386156.4453, 61, 0, 4206.154, 4184.103, 4227.692, 4127.692, 4138.462, 0, 0, []
1631386156.4532, 62, 0, 4223.077, 4197.949, 4254.872, 4141.026, 4151.282, 0, 0, []
1631386156.4611, 63, 0, 4232.821, 4193.333, 4224.103, 4137.436, 4157.949, 0, 0, []
1631386156.4691, 64, 0, 4230.256, 4180.513, 4297.949, 4126.667, 4150.256, 450, 0, []
1631386156.477, 65, 0, 4229.231, 4186.154, 4163.077, 4138.974, 4157.436, 450, 0, []
1631386156.485, 66, 0, 4231.282, 4190.769, 4214.359, 4150.769, 4165.128, 16180, 0, []
1631386156.4928, 67, 0, 4246.667, 4203.59, 4243.077, 4150.256, 4170.769, 450, 0, []
1631386156.5006, 68, 0, 4262.051, 4221.538, 4192.821, 4156.923, 4184.615, 16182, 0, []
1631386156.5085, 69, 0, 4247.692, 4211.282, 4261.026, 4153.333, 4178.974, 450, 0, []
1631386156.5163, 70, 0, 4223.077, 4194.872, 4138.974, 4134.359, 4158.974, 302, 0, []
1631386156.5242, 71, 0, 4220.513, 4201.538, 4194.872, 4126.667, 4159.487, 450, 0, []
1631386156.532, 72, 0, 4225.128, 4212.821, 4247.692, 4130.256, 4170.256, 450, 0, []
1631386156.5398, 73, 0, 4227.692, 4212.821, 4186.154, 4136.41, 4169.744, 16170, 0, []
1631386156.5476, 74, 0, 4236.923, 4213.846, 4278.974, 4144.103, 4168.718, 450, 0, []
1631386156.5556, 75, 0, 4231.795, 4214.359, 4182.564, 4135.897, 4162.051, 16204, 0, []
1631386156.5635, 76, 0, 4217.436, 4196.41, 4207.692, 4119.487, 4141.026, 450, 0, []
1631386156.5715, 77, 0, 4217.436, 4184.103, 4250.256, 4115.385, 4135.897, 450, 0, []
1631386156.5793, 78, 0, 4221.538, 4192.821, 4169.231, 4114.359, 4148.718, 450, 0, []
1631386156.5873, 79, 0, 4219.487, 4192.308, 4265.641, 4109.231, 4150.769, 16204, 0, []
1631386156.5952, 80, 0, 4222.051, 4186.667, 4163.59, 4112.308, 4154.872, 450, 0, []
1631386156.6032, 81, 0, 4236.923, 4194.872, 4162.564, 4125.128, 4168.718, 450, 0, []
1631386156.6111, 82, 0, 4241.538, 4194.359, 4257.949, 4127.179, 4166.154, 450, 0, []
1631386156.619, 83, 0, 4232.821, 4187.692, 4184.103, 4116.923, 4151.282, 16204, 0, []
1631386156.6269, 84, 0, 4234.359, 4195.897, 4266.667, 4115.897, 4156.923, 450, 0, []
1631386156.6349, 85, 0, 4243.59, 4206.154, 4205.128, 4125.641, 4170.256, 450, 0, []
1631386156.6428, 86, 0, 4249.231, 4207.692, 4190.769, 4140, 4171.795, 450, 0, []
1631386156.6506, 87, 0, 4246.667, 4207.179, 4245.128, 4154.872, 4173.333, 16204, 0, []
1631386156.6584, 88, 0, 4232.821, 4199.487, 4137.949, 4149.744, 4168.718, 450, 0, []
1631386156.6662, 89, 0, 4221.026, 4195.385, 4242.564, 4128.718, 4151.795, 450, 0, []
1631386156.6741, 90, 0, 4224.615, 4202.564, 4229.231, 4124.615, 4149.231, 450, 0, []
1631386156.6819, 91, 0, 4236.923, 4205.641, 4214.872, 4138.462, 4164.615, 16204, 0, []
1631386156.6898, 92, 0, 4240.513, 4197.436, 4301.538, 4135.385, 4164.615, 450, 0, []
1631386156.6975, 93, 0, 4229.231, 4191.282, 4179.487, 4118.974, 4152.821, 450, 0, []
1631386156.7054, 94, 0, 4217.949, 4189.231, 4234.359, 4115.897, 4151.282, 450, 0, []
1631386156.7132, 95, 0, 4226.667, 4188.718, 4223.077, 4120.513, 4155.897, 16204, 0, []
1631386156.7212, 96, 0, 4235.385, 4194.872, 4187.179, 4126.154, 4155.385, 450, 0, []
1631386156.7291, 97, 0, 4219.487, 4203.077, 4251.282, 4123.077, 4150.769, 450, 0, []
1631386156.737, 98, 0, 4211.795, 4202.564, 4126.667, 4115.897, 4151.282, 450, 0, []
1631386156.7449, 99, 0, 4235.897, 4196.923, 4211.282, 4129.231, 4166.667, 16204, 0, []
1631386156.7529, 100, 0, 4244.103, 4193.846, 4244.615, 4144.615, 4177.949, 450, 0, []
1631386156.7608, 101, 0, 4219.487, 4193.333, 4194.359, 4136.923, 4163.077, 450, 0, []
1631386156.7688, 102, 0, 4208.718, 4193.333, 4288.718, 4132.308, 4148.205, 450, 0, []
1631386156.7766, 103, 0, 4223.59, 4196.923, 4180.513, 4134.872, 4157.436, 16204, 0, []
1631386156.7846, 104, 0, 4234.359, 4204.103, 4220, 4132.308, 4167.179, 450, 0, []
1631386156.7925, 105, 0, 4234.359, 4216.41, 4252.308, 4133.846, 4168.718, 450, 0, []
1631386156.8003, 106, 0, 4229.231, 4211.795, 4191.282, 4136.923, 4170.769, 450, 0, []
1631386156.8082, 107, 0, 4222.051, 4190.769, 4268.205, 4133.333, 4167.692, 16204, 0, []
1631386156.8159, 108, 0, 4223.59, 4195.385, 4140.513, 4135.897, 4170.256, 450, 0, []
1631386156.8238, 109, 0, 4229.744, 4211.795, 4176.41, 4141.538, 4174.872, 450, 0, []
1631386156.8316, 110, 0, 4214.359, 4204.103, 4260.513, 4132.308, 4160.513, 450, 0, []
1631386156.8395, 111, 0, 4194.359, 4195.897, 4196.41, 4122.051, 4146.154, 16204, 0, []
1631386156.8473, 112, 0, 4203.59, 4207.179, 4286.154, 4125.641, 4151.282, 450, 0, []
1631386156.8551, 113, 0, 4218.462, 4209.231, 4195.897, 4124.615, 4159.487, 450, 0, []
1631386156.8629, 114, 0, 4214.872, 4195.385, 4189.744, 4120.513, 4164.103, 450, 0, []
1631386156.8709, 115, 0, 4207.692, 4190.769, 4229.231, 4124.615, 4170.256, 16204, 0, []
1631386156.8788, 116, 0, 4199.487, 4195.385, 4141.538, 4126.154, 4162.564, 450, 0, []
1631386156.8868, 117, 0, 4197.949, 4191.795, 4248.205, 4118.462, 4149.231, 450, 0, []
1631386156.8947, 118, 0, 4204.103, 4186.154, 4185.128, 4112.821, 4153.333, 450, 0, []
1631386156.9026, 119, 0, 4208.205, 4186.667, 4187.179, 4113.333, 4157.949, 16204, 0, []
1631386156.9105, 120, 0, 4207.692, 4200, 4283.077, 4109.744, 4152.308, 450, 0, []
1631386156.9185, 121, 0, 4215.385, 4219.487, 4185.128, 4105.641, 4154.872, 450, 0, []
1631386156.9264, 122, 0, 4221.026, 4220, 4251.795, 4110.769, 4160, 450, 0, []
1631386156.9344, 123, 0, 4214.359, 4205.641, 4208.718, 4113.846, 4157.949, 16204, 0, []
1631386156.9422, 124, 0, 4213.333, 4205.128, 4190.256, 4118.974, 4160, 450, 0, []
1631386156.95, 125, 0, 4220, 4212.308, 4242.051, 4129.744, 4169.744, 450, 0, []
1631386156.9579, 126, 0, 4217.949, 4212.821, 4111.795, 4132.821, 4172.821, 450, 0, []
1631386156.9657, 127, 0, 4213.846, 4208.718, 4215.385, 4126.667, 4167.179, 16204, 0, []
1631386156.9736, 128, 0, 4223.077, 4207.179, 4236.41, 4122.051, 4167.179, 450, 0, []
1631386156.9813, 0, 0, 4227.692, 4200, 4208.718, 4122.051, 4169.231, 450, 0, []
1631386156.9892, 1, 0, 4219.487, 4194.872, 4288.205, 4125.641, 4168.718, 450, 0, []
1631386156.997, 2, 0, 4214.872, 4203.59, 4161.026, 4131.282, 4173.846, 16185, 0, []
1631386157.0049, 3, 0, 4208.718, 4199.487, 4215.897, 4121.026, 4165.641, 450, 0, []
1631386157.0127, 4, 0, 4203.59, 4189.744, 4231.795, 4102.051, 4151.282, 16175, 0, []
1631386157.0206, 5, 0, 4211.795, 4203.077, 4188.205, 4103.59, 4158.462, 450, 0, []
1631386157.0285, 6, 0, 4222.564, 4217.949, 4260.513, 4113.333, 4170.256, 296, 0, []
1631386157.0365, 7, 0, 4212.308, 4208.205, 4135.897, 4105.641, 4158.462, 450, 0, []
1631386157.0444, 8, 0, 4202.564, 4189.231, 4192.308, 4097.436, 4146.667, 450, 0, []
1631386157.0524, 9, 0, 4209.231, 4184.103, 4232.308, 4101.026, 4151.795, 16161, 0, []
1631386157.0602, 10, 0, 4210.769, 4192.308, 4166.667, 4101.538, 4153.846, 450, 0, []
1631386157.0682, 11, 0, 4213.333, 4202.051, 4255.385, 4103.077, 4152.821, 16208, 0, []
1631386157.0761, 12, 0, 4222.564, 4202.564, 4149.744, 4104.103, 4160, 450, 0, []
1631386157.0841, 13, 0, 4234.872, 4201.538, 4177.949, 4106.667, 4164.615, 450, 0, []
1631386157.092, 14, 0, 4247.179, 4218.974, 4241.538, 4123.077, 4170.769, 450, 0, []
1631386157.0997, 15, 0, 4249.744, 4230.256, 4198.462, 4137.436, 4178.462, 16208, 0, []
1631386157.1076, 16, 0, 4240, 4217.436, 4287.179, 4129.231, 4175.385, 0, 0, []
1631386157.1154, 17, 0, 4223.59, 4205.641, 4159.487, 4111.282, 4168.718, 0, 0, []
1631386157.1233, 18, 0, 4216.41, 4212.821, 4170.256, 4104.103, 4165.128, 0, 0, []
1631386157.1311, 19, 0, 4222.051, 4223.59, 4256.41, 4100.513, 4166.667, 0, 0, []
1631386157.1389, 20, 0, 4230.769, 4229.231, 4162.051, 4106.667, 4177.436, 0, 0, []
1631386157.1467, 21, 0, 4232.308, 4232.821, 4248.718, 4122.051, 4182.564, 0, 0, []
1631386157.1546, 22, 0, 4223.59, 4233.846, 4194.359, 4124.103, 4172.821, 0, 0, []
1631386157.1624, 23, 0, 4214.872, 4230.256, 4188.718, 4118.462, 4162.564, 0, 0, []
1631386157.1703, 24, 0, 4209.231, 4216.923, 4254.872, 4114.359, 4157.949, 0, 0, []
1631386157.178, 25, 0, 4204.103, 4205.641, 4171.795, 4106.154, 4153.846, 0, 0, []
1631386157.186, 26, 0, 4202.564, 4212.308, 4262.051, 4101.538, 4151.282, 0, 0, []
1631386157.1939, 27, 0, 4213.333, 4232.308, 4209.744, 4110.256, 4155.897, 0, 0, []
1631386157.2019, 28, 0, 4236.923, 4242.564, 4201.026, 4121.026, 4173.846, 0, 0, []
1631386157.2098, 29, 0, 4240.513, 4239.487, 4280.513, 4115.385, 4184.103, 0, 0, []
1631386157.2177, 30, 0, 4227.179, 4243.59, 4156.41, 4104.615, 4173.333, 0, 0, []
1631386157.2256, 31, 0, 4232.821, 4252.308, 4233.846, 4111.282, 4170.256, 0, 0, []
1631386157.2336, 32, 0, 4234.872, 4237.436, 4215.385, 4115.385, 4175.385, 0, 0, []
1631386157.2415, 33, 0, 4216.41, 4217.949, 4169.231, 4108.718, 4169.744, 0, 0, []
1631386157.2495, 34, 0, 4216.923, 4225.641, 4243.077, 4108.205, 4168.718, 0, 0, []
1631386157.2574, 35, 0, 4232.308, 4235.385, 4137.436, 4107.179, 4175.897, 0, 0, []
1631386157.2651, 36, 0, 4231.282, 4239.487, 4226.667, 4108.718, 4177.436, 0, 0, []
1631386157.273, 37, 0, 4221.026, 4245.641, 4253.333, 4118.462, 4174.872, 0, 0, []
1631386157.2809, 38, 0, 4217.436, 4236.923, 4206.667, 4122.564, 4173.846, 0, 0, []
1631386157.2888, 39, 0, 4223.59, 4232.821, 4282.051, 4127.179, 4175.385, 0, 0, []
1631386157.2967, 40, 0, 4234.872, 4251.795, 4150.256, 4131.795, 4189.744, 0, 0, []
1631386157.3044, 41, 0, 4239.487, 4248.205, 4189.231, 4123.077, 4196.41, 0, 0, []
1631386157.3122, 42, 0, 4234.872, 4224.615, 4228.205, 4110.256, 4180, 0, 0, []
1631386157.3201, 43, 0, 4233.846, 4224.615, 4180.513, 4110.256, 4171.282, 0, 0, []
1631386157.3279, 44, 0, 4245.128, 4231.282, 4255.897, 4115.897, 4182.051, 0, 0, []
1631386157.3359, 45, 0, 4250.256, 4223.077, 4133.846, 4116.41, 4190.769, 0, 0, []
1631386157.3437, 46, 0, 4235.385, 4216.923, 4179.487, 4112.821, 4180, 0, 0, []
1631386157.3517, 47, 0, 4223.59, 4226.154, 4242.051, 4106.154, 4176.923, 0, 0, []
1631386157.3596, 48, 0, 4236.41, 4237.949, 4183.077, 4108.205, 4190.769, 0, 0, []
1631386157.3676, 49, 0, 4247.692, 4234.872, 4291.282, 4125.128, 4199.487, 0, 0, []
1631386157.3755, 50, 0, 4241.026, 4226.667, 4196.41, 4133.846, 4201.538, 0, 0, []
1631386157.3834, 51, 0, 4235.897, 4216.41, 4186.154, 4122.564, 4197.436, 0, 0, []
1631386157.3913, 52, 0, 4238.462, 4205.641, 4230.769, 4121.026, 4197.949, 0, 0, []
1631386157.3993, 53, 0, 4243.59, 4208.205, 4155.385, 4132.308, 4206.154, 0, 0, []
1631386157.4072, 54, 0, 4253.846, 4212.821, 4255.897, 4135.385, 4216.41, 0, 0, []
1631386157.415, 55, 0, 4273.333, 4206.667, 4186.667, 4130.769, 4222.564, 0, 0, []
1631386157.4228, 56, 0, 4299.487, 4199.487, 4185.128, 4126.154, 4233.846, 0, 0, []
1631386157.4306, 57, 0, 4335.897, 4198.974, 4263.077, 4128.205, 4263.077, 0, 0, []
1631386157.4385, 58, 0, 4380.513, 4197.436, 4175.897, 4135.897, 4294.359, 0, 0, []
1631386157.4463, 59, 0, 4410.769, 4201.538, 4259.487, 4131.795, 4312.821, 0, 0, []
1631386157.4542, 60, 0, 4417.949, 4203.59, 4202.564, 4115.385, 4322.564, 0, 0, []
1631386157.4619, 61, 0, 4433.846, 4186.154, 4192.308, 4117.949, 4336.41, 0, 0, []
1631386157.4698, 62, 0, 4458.974, 4183.59, 4252.821, 4131.795, 4352.308, 0, 0, []
1631386157.4776, 63, 0, 4445.641, 4204.615, 4113.846, 4127.179, 4352.308, 0, 0, []
1631386157.4856, 64, 0, 4405.128, 4204.615, 4218.462, 4114.872, 4320.513, 450, 0, []
1631386157.4935, 65, 0, 4384.103, 4188.205, 4226.154, 4101.538, 4291.282, 450, 0, []
1631386157.5013, 66, 0, 4383.077, 4194.872, 4187.692, 4102.564, 4300.513, 16179, 0, []
1631386157.5091, 67, 0, 4382.051, 4217.949, 4289.744, 4132.821, 4311.282, 450, 0, []
1631386157.5171, 68, 0, 4368.205, 4224.615, 4188.205, 4154.872, 4302.051, 16179, 0, []
1631386157.525, 69, 0, 4346.154, 4204.615, 4225.128, 4146.154, 4292.821, 450, 0, []
1631386157.533, 70, 0, 4331.795, 4196.41, 4232.308, 4142.051, 4288.205, 294, 0, []
1631386157.5408, 71, 0, 4327.692, 4218.974, 4221.538, 4152.308, 4282.564, 450, 0, []
1631386157.5488, 72, 0, 4310.769, 4220, 4302.051, 4145.128, 4268.718, 450, 0, []
1631386157.5567, 73, 0, 4288.718, 4203.59, 4160.513, 4130.256, 4253.846, 16161, 0, []
1631386157.5647, 74, 0, 4285.128, 4204.103, 4208.205, 4134.359, 4249.231, 450, 0, []
1631386157.5726, 75, 0, 4279.487, 4204.103, 4245.128, 4133.846, 4240, 16208, 0, []
1631386157.5804, 76, 0, 4265.128, 4201.538, 4195.385, 4133.846, 4225.641, 450, 0, []
1631386157.5882, 77, 0, 4255.897, 4212.821, 4269.744, 4142.051, 4219.487, 450, 0, []
1631386157.596, 78, 0, 4244.103, 4222.051, 4147.179, 4131.795, 4218.462, 450, 0, []
1631386157.6039, 79, 0, 4228.718, 4219.487, 4192.821, 4116.41, 4207.179, 16208, 0, []
1631386157.6117, 80, 0, 4220, 4205.641, 4242.051, 4116.41, 4200.513, 450, 0, []
1631386157.6196, 81, 0, 4222.564, 4191.795, 4176.923, 4122.051, 4204.103, 450, 0, []
1631386157.6273, 82, 0, 4231.282, 4200.513, 4281.538, 4124.615, 4207.692, 450, 0, []
1631386157.6352, 83, 0, 4229.744, 4205.641, 4190.769, 4120.513, 4205.641, 16208, 0, []
1631386157.643, 84, 0, 4221.538, 4186.154, 4192.821, 4116.41, 4195.385, 450, 0, []
1631386157.651, 85, 0, 4221.538, 4188.718, 4242.051, 4126.667, 4191.795, 450, 0, []
1631386157.6589, 86, 0, 4214.872, 4210.769, 4180.513, 4128.718, 4188.205, 450, 0, []
1631386157.6668, 87, 0, 4209.231, 4210.769, 4278.462, 4115.385, 4180.513, 16208, 0, []
1631386157.6747, 88, 0, 4225.128, 4205.641, 4182.051, 4120, 4192.821, 450, 0, []
1631386157.6827, 89, 0, 4232.821, 4202.564, 4184.615, 4131.795, 4204.615, 450, 0, []
1631386157.6906, 90, 0, 4217.949, 4200, 4262.564, 4130.769, 4193.333, 450, 0, []
1631386157.6986, 91, 0, 4211.795, 4210.769, 4148.205, 4130.769, 4183.59, 16208, 0, []
1631386157.7064, 92, 0, 4209.231, 4215.385, 4241.538, 4125.641, 4180, 450, 0, []
1631386157.7144, 93, 0, 4198.462, 4205.641, 4218.462, 4112.308, 4173.333, 450, 0, []
1631386157.7223, 94, 0, 4202.051, 4201.538, 4190.769, 4118.974, 4175.897, 450, 0, []
1631386157.7303, 95, 0, 4205.128, 4198.462, 4256.41, 4132.308, 4175.385, 16208, 0, []
1631386157.7382, 96, 0, 4192.308, 4197.436, 4176.923, 4127.692, 4170.256, 450, 0, []
1631386157.7459, 97, 0, 4198.974, 4204.103, 4257.949, 4132.308, 4182.564, 450, 0, []
1631386157.7538, 98, 0, 4211.282, 4208.718, 4218.462, 4146.667, 4194.872, 450, 0, []
1631386157.7616, 99, 0, 4203.077, 4210.256, 4204.103, 4146.667, 4185.128, 16208, 0, []
1631386157.7695, 100, 0, 4202.564, 4215.385, 4268.205, 4136.41, 4178.974, 450, 0, []
1631386157.7773, 101, 0, 4214.872, 4218.974, 4112.821, 4130.769, 4183.59, 450, 0, []
1631386157.7851, 102, 0, 4211.795, 4215.897, 4199.487, 4131.795, 4183.59, 450, 0, []
1631386157.7929, 103, 0, 4200.513, 4209.231, 4245.128, 4132.821, 4185.641, 16208, 0, []
1631386157.8009, 104, 0, 4194.872, 4207.179, 4207.692, 4126.154, 4183.59, 450, 0, []
1631386157.8088, 105, 0, 4195.897, 4220, 4286.667, 4122.051, 4175.385, 450, 0, []
1631386157.8168, 106, 0, 4184.103, 4218.974, 4176.923, 4117.949, 4168.205, 450, 0, []
1631386157.8246, 107, 0, 4169.744, 4195.385, 4223.59, 4111.795, 4165.128, 16208, 0, []
1631386157.8326, 108, 0, 4184.103, 4193.333, 4225.641, 4115.385, 4176.923, 450, 0, []
1631386157.8405, 109, 0, 4204.103, 4208.205, 4168.718, 4129.231, 4190.769, 450, 0, []
1631386157.8485, 110, 0, 4192.308, 4203.59, 4269.744, 4128.718, 4182.564, 450, 0, []
1631386157.8564, 111, 0, 4181.538, 4197.436, 4155.385, 4115.385, 4173.333, 16208, 0, []
1631386157.8643, 112, 0, 4198.974, 4212.308, 4190.769, 4122.051, 4186.154, 450, 0, []
1631386157.8722, 113, 0, 4203.077, 4215.897, 4250.769, 4134.872, 4194.872, 450, 0, []
1631386157.8802, 114, 0, 4187.692, 4207.692, 4179.487, 4124.615, 4186.667, 450, 0, []
1631386157.8881, 115, 0, 4186.154, 4211.282, 4245.641, 4113.846, 4181.538, 16208, 0, []
1631386157.8959, 116, 0, 4183.59, 4212.308, 4143.59, 4114.359, 4177.949, 450, 0, []
1631386157.9037, 117, 0, 4173.333, 4202.564, 4178.462, 4111.282, 4169.744, 450, 0, []
1631386157.9115, 118, 0, 4170.256, 4198.974, 4235.385, 4102.051, 4162.564, 450, 0, []
1631386157.9194, 119, 0, 4174.359, 4206.667, 4156.923, 4104.615, 4158.974, 16208, 0, []
1631386157.9272, 120, 0, 4176.923, 4206.154, 4271.282, 4115.897, 4154.872, 450, 0, []
1631386157.9351, 121, 0, 4177.949, 4198.974, 4206.154, 4116.41, 4153.846, 450, 0, []
1631386157.9429, 122, 0, 4187.179, 4209.231, 4195.385, 4116.41, 4162.051, 450, 0, []
1631386157.9508, 123, 0, 4190.769, 4226.667, 4256.923, 4115.385, 4165.641, 16208, 0, []
1631386157.9587, 124, 0, 4184.615, 4217.949, 4183.077, 4107.179, 4163.59, 450, 0, []
1631386157.9667, 125, 0, 4186.667, 4199.487, 4278.462, 4104.103, 4163.077, 450, 0, []
1631386157.9746, 126, 0, 4188.205, 4211.282, 4211.795, 4102.564, 4160.513, 450, 0, []
1631386157.9826, 127, 0, 4188.718, 4229.231, 4184.103, 4105.641, 4160.513, 16208, 0, []
1631386157.9904, 128, 0, 4195.385, 4223.077, 4230.256, 4117.949, 4171.282, 450, 0, []
1631386157.9984, 0, 0, 4197.436, 4211.795, 4119.487, 4124.103, 4174.872, 450, 0, []
1631386158.0063, 1, 0, 4186.667, 4208.718, 4228.718, 4119.487, 4165.128, 450, 0, []
1631386158.0143, 2, 0, 4180.513, 4212.821, 4224.103, 4118.462, 4167.179, 16178, 0, []
1631386158.0222, 3, 0, 4186.154, 4219.487, 4213.333, 4120.513, 4174.359, 450, 0, []
1631386158.03, 4, 0, 4184.615, 4215.385, 4289.744, 4110.769, 4166.667, 16185, 0, []
1631386158.0379, 5, 0, 4189.231, 4216.41, 4146.154, 4104.615, 4165.128, 450, 0, []
1631386158.0457, 6, 0, 4212.308, 4235.385, 4211.282, 4121.538, 4181.026, 282, 0, []
1631386158.0536, 7, 0, 4216.41, 4240, 4227.179, 4129.744, 4191.282, 450, 0, []
1631386158.0614, 8, 0, 4201.538, 4229.231, 4182.564, 4114.872, 4184.615, 450, 0, []
1631386158.0692, 9, 0, 4204.103, 4227.179, 4258.974, 4108.718, 4177.949, 16161, 0, []
1631386158.077, 10, 0, 4204.103, 4222.051, 4150.256, 4100.513, 4171.795, 450, 0, []
1631386158.0849, 11, 0, 4195.897, 4213.846, 4211.282, 4095.385, 4165.641, 16204, 0, []
1631386158.0927, 12, 0, 4214.872, 4232.308, 4241.026, 4117.949, 4171.795, 450, 0, []
1631386158.1006, 13, 0, 4229.744, 4237.436, 4191.282, 4129.231, 4170.769, 450, 0, []
1631386158.1083, 14, 0, 4228.205, 4212.308, 4254.872, 4111.795, 4157.949, 450, 0, []
1631386158.1163, 15, 0, 4245.641, 4214.872, 4127.692, 4114.359, 4173.333, 16204, 0, []
1631386158.1242, 16, 0, 4264.615, 4237.949, 4185.641, 4124.103, 4187.692, 0, 0, []
1631386158.1322, 17, 0, 4258.974, 4236.923, 4239.487, 4104.615, 4164.615, 0, 0, []
1631386158.1401, 18, 0, 4258.462, 4219.487, 4173.333, 4091.282, 4150.769, 0, 0, []
1631386158.148, 19, 0, 4273.333, 4209.744, 4265.641, 4100.513, 4166.154, 0, 0, []
1631386158.1559, 20, 0, 4276.923, 4218.974, 4163.077, 4112.308, 4172.308, 0, 0, []
1631386158.1639, 21, 0, 4272.821, 4234.872, 4180, 4121.026, 4169.231, 0, 0, []
1631386158.1718, 22, 0, 4275.897, 4230.769, 4238.462, 4115.897, 4172.821, 0, 0, []
1631386158.1798, 23, 0, 4274.359, 4210.769, 4155.385, 4100.513, 4168.718, 0, 0, []
1631386158.1876, 24, 0, 4271.795, 4206.667, 4245.641, 4103.59, 4166.667, 0, 0, []
1631386158.1954, 25, 0, 4270.256, 4220, 4187.179, 4114.872, 4173.333, 0, 0, []
1631386158.2033, 26, 0, 4260.513, 4213.333, 4192.308, 4111.282, 4169.744, 0, 0, []
1631386158.2111, 27, 0, 4261.538, 4196.923, 4235.385, 4114.359, 4166.667, 0, 0, []
1631386158.219, 28, 0, 4277.436, 4208.205, 4153.333, 4126.667, 4172.821, 0, 0, []
1631386158.2267, 29, 0, 4278.462, 4216.41, 4257.949, 4120.513, 4167.179, 0, 0, []
1631386158.2346, 30, 0, 4262.564, 4202.051, 4182.564, 4098.462, 4149.231, 0, 0, []
1631386158.2424, 31, 0, 4268.205, 4204.615, 4168.205, 4100.513, 4148.205, 0, 0, []
1631386158.2503, 32, 0, 4284.615, 4229.744, 4275.897, 4117.949, 4162.051, 0, 0, []
1631386158.2581, 33, 0, 4280, 4232.308, 4186.154, 4112.308, 4171.282, 0, 0, []
1631386158.266, 34, 0, 4270.769, 4209.231, 4246.667, 4090.256, 4159.487, 0, 0, []
1631386158.2739, 35, 0, 4264.103, 4201.538, 4207.692, 4076.41, 4135.897, 0, 0, []
1631386158.2819, 36, 0, 4268.205, 4214.872, 4205.641, 4088.205, 4138.462, 0, 0, []
1631386158.2898, 37, 0, 4275.385, 4220, 4269.744, 4098.974, 4163.077, 0, 0, []
1631386158.2977, 38, 0, 4277.949, 4211.795, 4120, 4095.897, 4173.333, 0, 0, []
1631386158.3055, 39, 0, 4281.026, 4209.744, 4205.128, 4098.462, 4167.179, 0, 0, []
1631386158.3134, 40, 0, 4281.538, 4217.436, 4223.077, 4103.59, 4170.769, 0, 0, []
1631386158.3213, 41, 0, 4279.487, 4220.513, 4170.256, 4108.718, 4177.949, 0, 0, []
1631386158.3293, 42, 0, 4270.256, 4212.821, 4237.949, 4111.282, 4167.179, 0, 0, []
1631386158.3372, 43, 0, 4263.59, 4211.282, 4140, 4107.179, 4156.41, 0, 0, []
1631386158.345, 44, 0, 4265.641, 4221.538, 4217.436, 4109.744, 4162.051, 0, 0, []
1631386158.3528, 45, 0, 4272.821, 4220.513, 4241.026, 4116.41, 4167.179, 0, 0, []
1631386158.3606, 46, 0, 4272.308, 4208.718, 4193.333, 4107.179, 4163.077, 0, 0, []
1631386158.3685, 47, 0, 4268.205, 4212.821, 4277.949, 4097.436, 4167.179, 0, 0, []
1631386158.3763, 48, 0, 4270.769, 4222.564, 4148.205, 4102.051, 4174.872, 0, 0, []
1631386158.3842, 49, 0, 4270.256, 4202.051, 4179.487, 4098.462, 4163.077, 0, 0, []
1631386158.3919, 50, 0, 4266.667, 4179.487, 4225.128, 4090.256, 4148.205, 0, 0, []
1631386158.3998, 51, 0, 4264.615, 4191.795, 4181.026, 4110.256, 4157.436, 0, 0, []
1631386158.4076, 52, 0, 4267.692, 4209.231, 4273.846, 4137.949, 4173.846, 0, 0, []
1631386158.4156, 53, 0, 4270.769, 4201.538, 4141.026, 4124.615, 4170.769, 0, 0, []
1631386158.4235, 54, 0, 4272.821, 4198.462, 4162.051, 4105.641, 4162.051, 0, 0, []
1631386158.4314, 55, 0, 4256.923, 4215.897, 4247.692, 4118.974, 4172.821, 0, 0, []
1631386158.4393, 56, 0, 4215.385, 4212.821, 4179.487, 4126.154, 4179.487, 0, 0, []
1631386158.4473, 57, 0, 4186.667, 4181.538, 4265.128, 4112.821, 4168.718, 0, 0, []
1631386158.4552, 58, 0, 4181.026, 4171.282, 4194.872, 4110.769, 4167.692, 0, 0, []
1631386158.4632, 59, 0, 4175.897, 4180.513, 4205.641, 4121.538, 4175.897, 0, 0, []
1631386158.471, 60, 0, 4171.795, 4172.308, 4257.436, 4120.513, 4175.897, 0, 0, []
1631386158.479, 61, 0, 4177.949, 4167.692, 4176.923, 4109.231, 4172.308, 0, 0, []
1631386158.4869, 62, 0, 4177.949, 4180, 4272.821, 4098.462, 4170.256, 0, 0, []
1631386158.4949, 63, 0, 4166.667, 4187.179, 4189.231, 4093.846, 4168.718, 0, 0, []
1631386158.5028, 64, 0, 4168.718, 4190.769, 4165.641, 4107.692, 4177.949, 450, 0, []
1631386158.5105, 65, 0, 4172.821, 4192.821, 4239.487, 4122.051, 4188.205, 450, 0, []
1631386158.5184, 66, 0, 4164.103, 4193.846, 4131.795, 4116.41, 4188.718, 16173, 0, []
1631386158.5262, 67, 0, 4169.744, 4195.385, 4227.179, 4116.923, 4190.769, 450, 0, []
1631386158.5341, 68, 0, 4182.564, 4196.923, 4230.769, 4125.641, 4193.333, 16180, 0, []
1631386158.5419, 69, 0, 4175.897, 4192.308, 4220, 4122.051, 4186.154, 450, 0, []
1631386158.5497, 70, 0, 4174.872, 4195.385, 4275.385, 4122.051, 4182.051, 297, 0, []
1631386158.5575, 71, 0, 4185.641, 4206.667, 4149.744, 4139.487, 4191.282, 450, 0, []
1631386158.5654, 72, 0, 4175.897, 4190.256, 4224.103, 4136.41, 4188.718, 450, 0, []
1631386158.5732, 73, 0, 4161.026, 4167.179, 4215.897, 4115.385, 4175.385, 16169, 0, []
1631386158.5812, 74, 0, 4163.077, 4180, 4190.256, 4117.949, 4177.949, 450, 0, []
1631386158.589, 75, 0, 4162.564, 4198.462, 4290.769, 4127.179, 4184.615, 16204, 0, []
1631386158.597, 76, 0, 4153.846, 4190.256, 4169.231, 4119.487, 4183.077, 450, 0, []
1631386158.6049, 77, 0, 4156.41, 4182.051, 4208.205, 4114.872, 4181.026, 450, 0, []
1631386158.6129, 78, 0, 4163.077, 4192.308, 4214.359, 4120.513, 4186.667, 450, 0, []
1631386158.6208, 79, 0, 4161.538, 4196.923, 4169.744, 4126.154, 4191.795, 16204, 0, []
1631386158.6287, 80, 0, 4161.026, 4194.359, 4265.128, 4131.282, 4197.436, 450, 0, []
1631386158.6366, 81, 0, 4156.41, 4196.923, 4160.513, 4133.333, 4204.103, 450, 0, []
1631386158.6446, 82, 0, 4152.821, 4200.513, 4211.282, 4128.205, 4194.872, 450, 0, []
1631386158.6525, 83, 0, 4165.641, 4202.051, 4238.974, 4120, 4186.667, 16204, 0, []
1631386158.6603, 84, 0, 4178.974, 4201.538, 4175.897, 4115.897, 4195.897, 450, 0, []
1631386158.6682, 85, 0, 4173.333, 4195.897, 4265.128, 4118.462, 4198.462, 450, 0, []
1631386158.6759, 86, 0, 4170.769, 4194.359, 4145.641, 4120, 4190.256, 450, 0, []
1631386158.6838, 87, 0, 4189.744, 4198.462, 4175.897, 4123.077, 4196.41, 16204, 0, []
1631386158.6916, 88, 0, 4192.308, 4196.923, 4246.667, 4130.256, 4203.59, 450, 0, []
1631386158.6995, 89, 0, 4168.205, 4190.769, 4172.821, 4128.718, 4189.231, 450, 0, []
1631386158.7073, 90, 0, 4160, 4190.256, 4256.923, 4125.128, 4180, 450, 0, []
1631386158.7151, 91, 0, 4162.051, 4191.795, 4161.026, 4130.256, 4184.103, 16204, 0, []
1631386158.7229, 92, 0, 4156.923, 4188.205, 4166.667, 4132.308, 4184.103, 450, 0, []
1631386158.7309, 93, 0, 4156.41, 4185.128, 4246.667, 4129.744, 4184.103, 450, 0, []
1631386158.7388, 94, 0, 4163.077, 4192.821, 4175.897, 4128.718, 4185.641, 450, 0, []
1631386158.7468, 95, 0, 4165.128, 4196.41, 4265.641, 4125.641, 4184.103, 16204, 0, []
1631386158.7546, 96, 0, 4163.59, 4190.256, 4198.974, 4118.462, 4181.538, 450, 0, []
1631386158.7626, 97, 0, 4167.692, 4190.769, 4191.795, 4123.59, 4182.564, 450, 0, []
1631386158.7705, 98, 0, 4162.051, 4198.974, 4266.154, 4127.179, 4180, 450, 0, []
1631386158.7785, 99, 0, 4152.308, 4193.333, 4171.795, 4115.897, 4174.872, 16204, 0, []
1631386158.7864, 100, 0, 4153.846, 4178.462, 4250.769, 4107.179, 4167.692, 450, 0, []
1631386158.7943, 101, 0, 4150.256, 4176.41, 4197.949, 4103.077, 4158.462, 450, 0, []
1631386158.8022, 102, 0, 4155.385, 4193.333, 4171.795, 4109.744, 4170.769, 450, 0, []
1631386158.81, 103, 0, 4180.513, 4212.821, 4253.333, 4128.718, 4196.923, 16204, 0, []
1631386158.8179, 104, 0, 4185.128, 4207.179, 4152.821, 4134.872, 4197.436, 450, 0, []
1631386158.8257, 105, 0, 4168.718, 4187.692, 4234.872, 4124.103, 4178.462, 450, 0, []
1631386158.8335, 106, 0, 4170.256, 4186.667, 4223.077, 4115.385, 4180, 450, 0, []
1631386158.8413, 107, 0, 4177.436, 4197.436, 4188.205, 4112.821, 4188.718, 16204, 0, []
1631386158.8492, 108, 0, 4175.897, 4205.128, 4248.718, 4115.897, 4185.128, 450, 0, []
1631386158.857, 109, 0, 4184.615, 4218.974, 4123.59, 4121.538, 4188.205, 450, 0, []
1631386158.8649, 110, 0, 4187.179, 4222.564, 4216.923, 4115.385, 4186.667, 450, 0, []
1631386158.8726, 111, 0, 4181.538, 4205.641, 4248.205, 4109.231, 4175.897, 16204, 0, []
1631386158.8806, 112, 0, 4193.333, 4198.462, 4197.436, 4116.923, 4178.974, 450, 0, []
1631386158.8885, 113, 0, 4205.128, 4207.692, 4275.385, 4115.385, 4186.154, 450, 0, []
1631386158.8965, 114, 0, 4202.564, 4210.256, 4145.641, 4106.154, 4183.077, 450, 0, []
1631386158.9044, 115, 0, 4202.564, 4198.462, 4188.205, 4109.231, 4169.744, 16204, 0, []
1631386158.9123, 116, 0, 4208.205, 4191.282, 4229.231, 4108.718, 4157.949, 450, 0, []
1631386158.9202, 117, 0, 4213.333, 4198.462, 4174.872, 4109.231, 4160.513, 450, 0, []
1631386158.9282, 118, 0, 4219.487, 4201.026, 4276.41, 4121.026, 4170.256, 450, 0, []
1631386158.9361, 119, 0, 4223.077, 4193.846, 4178.462, 4124.103, 4174.872, 16204, 0, []
1631386158.9441, 120, 0, 4222.051, 4191.282, 4199.487, 4116.923, 4169.744, 450, 0, []
1631386158.9519, 121, 0, 4218.974, 4194.359, 4240, 4112.308, 4165.641, 450, 0, []
1631386158.9599, 122, 0, 4212.308, 4196.923, 4155.897, 4108.205, 4166.667, 450, 0, []
1631386158.9678, 123, 0, 4217.949, 4193.333, 4245.128, 4110.769, 4165.128, 16204, 0, []
1631386158.9756, 124, 0, 4224.615, 4195.897, 4165.128, 4117.436, 4165.128, 450, 0, []
1631386158.9835, 125, 0, 4222.051, 4202.051, 4179.487, 4113.846, 4166.667, 450, 0, []
1631386158.9913, 126, 0, 4226.154, 4207.179, 4251.282, 4108.718, 4174.359, 450, 0, []
1631386158.9991, 127, 0, 4217.949, 4204.103, 4186.667, 4103.59, 4170.256, 16204, 0, []
1631386159.0069, 128, 0, 4193.333, 4194.359, 4275.897, 4096.41, 4153.333, 450, 0, []
1631386159.0148, 0, 0, 4187.692, 4206.667, 4200, 4106.154, 4153.846, 450, 0, []
1631386159.0226, 1, 0, 4200, 4218.462, 4193.333, 4128.205, 4169.231, 450, 0, []
1631386159.0305, 2, 0, 4198.974, 4212.821, 4244.103, 4139.487, 4174.872, 16180, 0, []
1631386159.0382, 3, 0, 4194.872, 4211.795, 4131.282, 4135.385, 4171.795, 450, 0, []
1631386159.0462, 4, 0, 4202.564, 4216.41, 4238.462, 4130.769, 4169.744, 16180, 0, []
1631386159.0541, 5, 0, 4198.974, 4209.744, 4221.026, 4127.179, 4161.538, 450, 0, []
1631386159.0621, 6, 0, 4195.385, 4204.103, 4204.103, 4128.205, 4154.359, 287, 0, []
1631386159.07, 7, 0, 4200.513, 4215.385, 4280.513, 4126.154, 4153.333, 450, 0, []
1631386159.0779, 8, 0, 4188.718, 4212.308, 4165.128, 4107.692, 4145.641, 450, 0, []
1631386159.0858, 9, 0, 4175.897, 4195.385, 4228.718, 4101.538, 4145.641, 16164, 0, []
1631386159.0938, 10, 0, 4171.795, 4200, 4205.128, 4105.641, 4150.769, 450, 0, []
1631386159.1017, 11, 0, 4168.205, 4215.385, 4178.462, 4102.051, 4150.256, 16223, 0, []
1631386159.1097, 12, 0, 4171.282, 4212.821, 4278.462, 4111.795, 4150.769, 450, 0, []
1631386159.1175, 13, 0, 4176.41, 4206.667, 4167.692, 4129.744, 4157.436, 450, 0, []
1631386159.1253, 14, 0, 4175.897, 4210.769, 4227.692, 4135.385, 4158.462, 450, 0, []
1631386159.1332, 15, 0, 4178.974, 4217.949, 4236.41, 4133.846, 4155.897, 16223, 0, []
1631386159.141, 16, 0, 4191.795, 4230.769, 4192.308, 4141.026, 4161.026, 0, 0, []
1631386159.1489, 17, 0, 4190.256, 4231.795, 4257.436, 4142.051, 4162.051, 0, 0, []
1631386159.1566, 18, 0, 4171.282, 4222.564, 4128.718, 4130.256, 4157.436, 0, 0, []
1631386159.1645, 19, 0, 4162.051, 4231.282, 4203.077, 4130.256, 4156.923, 0, 0, []
1631386159.1723, 20, 0, 4156.923, 4236.41, 4251.282, 4135.385, 4153.846, 0, 0, []
1631386159.1802, 21, 0, 4140, 4220.513, 4183.59, 4127.692, 4142.051, 0, 0, []
1631386159.188, 22, 0, 4132.821, 4218.974, 4260.513, 4112.821, 4133.846, 0, 0, []
1631386159.1959, 23, 0, 4143.077, 4228.205, 4141.538, 4109.744, 4141.538, 0, 0, []
1631386159.2038, 24, 0, 4144.615, 4222.564, 4176.923, 4116.923, 4145.641, 0, 0, []
1631386159.2118, 25, 0, 4140, 4215.897, 4247.179, 4122.051, 4142.564, 0, 0, []
1631386159.2197, 26, 0, 4128.205, 4208.205, 4182.051, 4115.385, 4131.282, 0, 0, []
1631386159.2277, 27, 0, 4104.615, 4194.872, 4255.385, 4102.564, 4109.231, 0, 0, []
1631386159.2355, 28, 0, 4107.692, 4201.538, 4156.41, 4106.667, 4108.718, 0, 0, []
1631386159.2435, 29, 0, 4143.59, 4218.974, 4184.103, 4126.667, 4135.385, 0, 0, []
1631386159.2514, 30, 0, 4154.359, 4220.513, 4257.436, 4129.744, 4146.154, 0, 0, []
1631386159.2594, 31, 0, 4129.744, 4217.436, 4174.359, 4114.359, 4125.641, 0, 0, []
1631386159.2673, 32, 0, 4119.487, 4216.41, 4266.154, 4112.821, 4117.436, 0, 0, []
1631386159.275, 33, 0, 4127.692, 4217.436, 4194.872, 4124.615, 4141.538, 0, 0, []
1631386159.2829, 34, 0, 4121.538, 4214.359, 4183.077, 4119.487, 4142.051, 0, 0, []
1631386159.2908, 35, 0, 4111.282, 4209.744, 4249.231, 4105.128, 4118.462, 0, 0, []
1631386159.2987, 36, 0, 4128.205, 4219.487, 4174.359, 4123.59, 4132.821, 0, 0, []
1631386159.3067, 37, 0, 4151.282, 4231.282, 4280, 4153.846, 4161.538, 0, 0, []
1631386159.3145, 38, 0, 4134.359, 4214.359, 4218.974, 4138.974, 4142.564, 0, 0, []
1631386159.3223, 39, 0, 4110.769, 4201.026, 4177.436, 4120, 4120, 0, 0, []
1631386159.3302, 40, 0, 4121.538, 4223.59, 4246.667, 4141.538, 4138.974, 0, 0, []
1631386159.338, 41, 0, 4124.103, 4232.821, 4143.077, 4148.205, 4148.205, 0, 0, []
1631386159.3459, 42, 0, 4108.205, 4211.282, 4228.718, 4126.154, 4126.667, 0, 0, []
1631386159.3537, 43, 0, 4104.103, 4207.179, 4223.077, 4120, 4116.41, 0, 0, []
1631386159.3616, 44, 0, 4111.795, 4220.513, 4204.103, 4128.718, 4125.128, 0, 0, []
1631386159.3695, 45, 0, 4114.359, 4216.923, 4266.154, 4129.744, 4129.231, 0, 0, []
1631386159.3775, 46, 0, 4112.821, 4221.026, 4134.872, 4127.179, 4130.769, 0, 0, []
1631386159.3854, 47, 0, 4113.846, 4235.385, 4220.513, 4134.359, 4141.538, 0, 0, []
1631386159.3934, 48, 0, 4110.769, 4225.128, 4246.154, 4139.487, 4147.692, 0, 0, []
1631386159.4012, 49, 0, 4108.718, 4204.103, 4200, 4142.564, 4142.051, 0, 0, []
1631386159.4092, 50, 0, 4108.205, 4199.487, 4269.744, 4139.487, 4130.769, 0, 0, []
1631386159.4171, 51, 0, 4105.641, 4206.667, 4143.59, 4133.333, 4124.615, 0, 0, []
1631386159.4249, 52, 0, 4100, 4202.564, 4197.436, 4134.872, 4124.615, 0, 0, []
1631386159.4328, 53, 0, 4089.744, 4192.308, 4236.41, 4135.385, 4118.462, 0, 0, []
1631386159.4405, 54, 0, 4086.154, 4193.333, 4184.103, 4137.436, 4111.795, 0, 0, []
1631386159.4484, 55, 0, 4093.846, 4197.949, 4264.103, 4141.538, 4116.923, 0, 0, []
1631386159.4562, 56, 0, 4092.308, 4195.897, 4142.564, 4136.41, 4124.615, 0, 0, []
1631386159.4641, 57, 0, 4078.462, 4196.923, 4184.103, 4121.538, 4114.359, 0, 0, []
1631386159.4719, 58, 0, 4066.154, 4203.59, 4251.795, 4103.59, 4094.359, 0, 0, []
1631386159.4797, 59, 0, 4064.615, 4201.538, 4179.487, 4101.538, 4092.308, 0, 0, []
1631386159.4875, 60, 0, 4080.513, 4197.436, 4261.026, 4130.256, 4111.282, 0, 0, []
1631386159.4954, 61, 0, 4095.385, 4203.077, 4167.179, 4157.436, 4129.744, 0, 0, []
1631386159.5032, 62, 0, 4081.538, 4194.359, 4186.667, 4143.077, 4114.872, 0, 0, []
1631386159.5112, 63, 0, 4055.897, 4176.923, 4246.667, 4106.154, 4088.718, 0, 0, []
1631386159.519, 64, 0, 4049.231, 4187.692, 4164.103, 4096.41, 4090.769, 450, 0, []
1631386159.527, 65, 0, 4058.974, 4206.154, 4253.333, 4121.538, 4106.154, 450, 0, []
1631386159.5349, 66, 0, 4060.513, 4196.41, 4177.436, 4143.077, 4109.744, 16181, 0, []
1631386159.5429, 67, 0, 4055.385, 4181.026, 4194.872, 4144.103, 4103.59, 450, 0, []
1631386159.5508, 68, 0, 4055.385, 4192.308, 4270.769, 4141.538, 4107.692, 16173, 0, []
1631386159.5587, 69, 0, 4059.487, 4201.538, 4153.846, 4143.59, 4123.59, 450, 0, []
1631386159.5666, 70, 0, 4057.949, 4188.205, 4230.769, 4143.077, 4121.026, 280, 0, []
1631386159.5746, 71, 0, 4050.256, 4183.077, 4207.692, 4136.41, 4095.385, 450, 0, []
1631386159.5825, 72, 0, 4040, 4185.128, 4212.821, 4134.872, 4074.872, 450, 0, []
1631386159.5903, 73, 0, 4030.256, 4175.897, 4256.923, 4133.846, 4075.385, 16157, 0, []
1631386159.5981, 74, 0, 4032.821, 4173.846, 4121.026, 4128.718, 4085.641, 450, 0, []
1631386159.6059, 75, 0, 4049.231, 4183.59, 4230.256, 4134.359, 4091.282, 16217, 0, []
1631386159.6138, 76, 0, 4046.154, 4188.205, 4245.128, 4139.487, 4082.051, 450, 0, []
1631386159.6216, 77, 0, 4022.564, 4182.564, 4207.692, 4122.564, 4060, 450, 0, []
1631386159.6295, 78, 0, 4013.846, 4181.026, 4250.256, 4104.615, 4054.359, 450, 0, []
1631386159.6372, 79, 0, 4025.128, 4185.128, 4123.077, 4112.821, 4066.667, 16217, 0, []
1631386159.6451, 80, 0, 4031.282, 4183.077, 4225.641, 4132.308, 4070.769, 450, 0, []
1631386159.6529, 81, 0, 4033.846, 4183.077, 4250.769, 4142.051, 4077.436, 450, 0, []
1631386159.6609, 82, 0, 4042.564, 4184.615, 4180, 4140.513, 4089.744, 450, 0, []
1631386159.6688, 83, 0, 4041.538, 4182.051, 4251.795, 4131.795, 4082.564, 16217, 0, []
1631386159.6767, 84, 0, 4024.615, 4180, 4158.462, 4118.462, 4061.026, 450, 0, []
1631386159.6846, 85, 0, 4017.436, 4178.974, 4214.872, 4110.256, 4052.821, 450, 0, []
1631386159.6926, 86, 0, 4024.103, 4178.462, 4231.795, 4113.333, 4065.641, 450, 0, []
1631386159.7005, 87, 0, 4026.667, 4182.051, 4183.59, 4123.077, 4082.564, 16217, 0, []
1631386159.7085, 88, 0, 4028.718, 4185.128, 4280.513, 4131.795, 4087.179, 450, 0, []
1631386159.7164, 89, 0, 4033.846, 4190.256, 4171.282, 4136.923, 4089.744, 450, 0, []
1631386159.7243, 90, 0, 4029.744, 4202.564, 4208.205, 4133.846, 4087.692, 450, 0, []
1631386159.7322, 91, 0, 4020, 4203.077, 4248.718, 4124.103, 4077.949, 16217, 0, []
1631386159.74, 92, 0, 4032.308, 4191.795, 4174.872, 4128.718, 4086.667, 450, 0, []
1631386159.7479, 93, 0, 4065.128, 4195.897, 4261.026, 4145.128, 4109.744, 450, 0, []
1631386159.7557, 94, 0, 4086.154, 4204.615, 4160, 4144.615, 4113.846, 450, 0, []
1631386159.7635, 95, 0, 4107.692, 4197.436, 4182.051, 4137.436, 4128.205, 16217, 0, []
1631386159.7713, 96, 0, 4154.872, 4193.846, 4253.333, 4145.641, 4177.436, 450, 0, []
1631386159.7792, 97, 0, 4202.051, 4207.179, 4190.256, 4156.923, 4218.974, 450, 0, []
1631386159.787, 98, 0, 4229.744, 4216.923, 4285.641, 4158.974, 4242.051, 450, 0, []
1631386159.7949, 99, 0, 4246.667, 4215.385, 4201.538, 4159.487, 4265.641, 16217, 0, []
1631386159.8026, 100, 0, 4243.59, 4214.872, 4196.41, 4161.538, 4271.282, 450, 0, []
1631386159.8105, 101, 0, 4210.769, 4217.436, 4249.744, 4156.41, 4251.795, 450, 0, []
1631386159.8183, 102, 0, 4181.538, 4222.051, 4144.103, 4144.103, 4229.744, 450, 0, []
1631386159.8263, 103, 0, 4172.308, 4224.103, 4235.385, 4143.077, 4219.487, 16217, 0, []
1631386159.8342, 104, 0, 4158.462, 4220, 4200, 4154.359, 4209.744, 450, 0, []
1631386159.8421, 105, 0, 4136.41, 4212.821, 4201.538, 4158.974, 4189.744, 450, 0, []
1631386159.85, 106, 0, 4124.103, 4206.667, 4277.436, 4156.41, 4171.795, 450, 0, []
1631386159.858, 107, 0, 4114.872, 4204.103, 4171.282, 4163.077, 4167.179, 16217, 0, []
1631386159.8659, 108, 0, 4098.462, 4206.667, 4245.641, 4167.179, 4160.513, 450, 0, []
1631386159.8739, 109, 0, 4079.487, 4200, 4218.462, 4142.051, 4138.974, 450, 0, []
1631386159.8817, 110, 0, 4064.103, 4188.205, 4204.615, 4114.359, 4125.128, 450, 0, []
1631386159.8897, 111, 0, 4066.667, 4205.128, 4286.667, 4122.051, 4128.205, 16217, 0, []
1631386159.8976, 112, 0, 4073.333, 4226.154, 4159.487, 4139.487, 4133.333, 450, 0, []
1631386159.9056, 113, 0, 4061.026, 4217.436, 4214.872, 4134.872, 4126.154, 450, 0, []
1631386159.9135, 114, 0, 4046.667, 4213.846, 4217.949, 4118.974, 4114.359, 450, 0, []
1631386159.9212, 115, 0, 4039.487, 4215.897, 4195.385, 4105.641, 4100.513, 16217, 0, []
1631386159.9291, 116, 0, 4026.667, 4201.538, 4265.641, 4100.513, 4087.692, 450, 0, []
1631386159.9369, 117, 0, 4021.026, 4197.949, 4122.051, 4109.744, 4088.718, 450, 0, []
1631386159.9448, 118, 0, 4027.179, 4208.205, 4193.333, 4123.59, 4095.385, 450, 0, []
1631386159.9526, 119, 0, 4025.641, 4212.821, 4237.436, 4129.231, 4091.795, 16217, 0, []
1631386159.9604, 120, 0, 4016.923, 4214.359, 4172.821, 4127.179, 4076.41, 450, 0, []
1631386159.9682, 121, 0, 4012.308, 4207.692, 4252.821, 4123.077, 4071.282, 450, 0, []
1631386159.9762, 122, 0, 4011.795, 4203.59, 4136.923, 4114.359, 4080, 450, 0, []
1631386159.9841, 123, 0, 4019.487, 4215.897, 4184.103, 4113.846, 4080.513, 16217, 0, []
1631386159.9921, 124, 0, 4028.205, 4225.128, 4251.282, 4127.179, 4078.462, 450, 0, []
1631386159.9999, 125, 0, 4024.615, 4217.949, 4191.795, 4133.846, 4078.974, 450, 0, []
1631386160.0079, 126, 0, 4014.872, 4209.231, 4280.513, 4128.205, 4070.769, 450, 0, []
1631386160.0158, 127, 0, 4019.487, 4221.026, 4178.462, 4131.282, 4074.359, 16217, 0, []
1631386160.0238, 128, 0, 4036.923, 4234.872, 4193.333, 4146.154, 4090.256, 450, 0, []
1631386160.0317, 0, 0, 4028.205, 4226.667, 4239.487, 4131.282, 4079.487, 450, 0, []
1631386160.0396, 1, 0, 4011.282, 4217.436, 4149.744, 4115.385, 4071.795, 450, 0, []
1631386160.0475, 2, 0, 4033.846, 4223.59, 4241.538, 4145.641, 4095.897, 16193, 0, []
1631386160.0553, 3, 0, 4045.641, 4222.051, 4166.154, 4157.436, 4104.103, 450, 0, []
1631386160.0632, 4, 0, 4017.949, 4214.359, 4170.769, 4125.641, 4080.513, 16179, 0, []
1631386160.071, 5, 0, 4001.026, 4212.308, 4237.949, 4111.282, 4067.179, 450, 0, []
1631386160.0789, 6, 0, 4005.128, 4202.051, 4142.564, 4116.923, 4070.769, 16081, 0, []
1631386160.0866, 7, 0, 4012.308, 4195.897, 4236.923, 4114.359, 4070.256, 450, 0, []
1631386160.0945, 8, 0, 4021.538, 4204.615, 4202.051, 4114.872, 4072.308, 450, 0, []
1631386160.1023, 9, 0, 4027.692, 4202.564, 4184.103, 4123.077, 4077.949, 16150, 0, []
1631386160.1102, 10, 0, 4035.897, 4197.436, 4234.359, 4136.41, 4082.051, 450, 0, []
1631386160.118, 11, 0, 4044.615, 4208.205, 4152.308, 4148.205, 4087.692, 16215, 0, []
1631386160.1258, 12, 0, 4033.333, 4207.692, 4271.282, 4136.923, 4081.026, 450, 0, []
1631386160.1336, 13, 0, 4014.359, 4194.359, 4227.692, 4116.41, 4066.154, 450, 0, []
1631386160.1416, 14, 0, 4015.385, 4196.923, 4166.667, 4122.564, 4065.641, 450, 0, []
1631386160.1495, 15, 0, 4022.051, 4201.538, 4257.436, 4135.897, 4073.333, 16215, 0, []
1631386160.1575, 16, 0, 4012.821, 4189.231, 4173.333, 4128.718, 4068.718, 0, 0, []
1631386160.1653, 17, 0, 3998.974, 4179.487, 4218.974, 4116.41, 4057.949, 0, 0, []
1631386160.1733, 18, 0, 4003.59, 4186.154, 4199.487, 4108.205, 4061.026, 0, 0, []
1631386160.1812, 19, 0, 4025.641, 4196.41, 4211.282, 4117.949, 4079.487, 0, 0, []
1631386160.1892, 20, 0, 4035.385, 4197.949, 4291.795, 4131.795, 4087.179, 0, 0, []
1631386160.1971, 21, 0, 4023.59, 4194.872, 4118.974, 4121.538, 4073.846, 0, 0, []
1631386160.205, 22, 0, 4021.538, 4186.667, 4193.846, 4110.256, 4067.179, 0, 0, []
1631386160.2129, 23, 0, 4035.385, 4185.641, 4251.795, 4123.077, 4083.077, 0, 0, []
1631386160.2207, 24, 0, 4044.615, 4197.436, 4184.103, 4137.436, 4091.795, 0, 0, []
1631386160.2287, 25, 0, 4041.538, 4200, 4248.205, 4129.744, 4081.026, 0, 0, []
1631386160.2366, 26, 0, 4038.462, 4196.41, 4134.359, 4118.462, 4078.462, 0, 0, []
1631386160.2444, 27, 0, 4046.154, 4194.872, 4190.769, 4123.59, 4087.179, 0, 0, []
1631386160.2523, 28, 0, 4056.41, 4191.282, 4246.154, 4131.282, 4089.231, 0, 0, []
1631386160.2603, 29, 0, 4062.564, 4189.231, 4180, 4124.103, 4086.154, 0, 0, []
1631386160.2682, 30, 0, 4060, 4198.974, 4270.769, 4112.821, 4087.692, 0, 0, []
1631386160.2762, 31, 0, 4050.769, 4208.718, 4175.897, 4113.846, 4085.128, 0, 0, []
1631386160.284, 32, 0, 4048.718, 4201.538, 4196.41, 4125.128, 4073.333, 0, 0, []
1631386160.2919, 33, 0, 4054.872, 4193.846, 4245.641, 4130.256, 4075.897, 0, 0, []
1631386160.2999, 34, 0, 4060, 4196.923, 4171.795, 4123.077, 4085.641, 0, 0, []
1631386160.3079, 35, 0, 4061.538, 4194.872, 4269.744, 4113.846, 4077.436, 0, 0, []
1631386160.3158, 36, 0, 4049.744, 4184.615, 4176.923, 4106.154, 4063.077, 0, 0, []
1631386160.3236, 37, 0, 4035.897, 4182.051, 4175.385, 4101.026, 4057.436, 0, 0, []
1631386160.3316, 38, 0, 4042.051, 4191.795, 4245.641, 4098.462, 4060, 0, 0, []
1631386160.3395, 39, 0, 4057.949, 4198.974, 4152.308, 4105.641, 4075.385, 0, 0, []
1631386160.3475, 40, 0, 4068.205, 4192.821, 4232.308, 4120.513, 4088.718, 0, 0, []
1631386160.3554, 41, 0, 4065.128, 4182.564, 4175.897, 4120, 4084.615, 0, 0, []
1631386160.3633, 42, 0, 4054.359, 4177.949, 4183.077, 4108.205, 4072.821, 0, 0, []
1631386160.3712, 43, 0, 4049.231, 4182.051, 4249.744, 4111.795, 4072.821, 0, 0, []
1631386160.3792, 44, 0, 4054.872, 4193.846, 4127.179, 4121.026, 4085.641, 0, 0, []
1631386160.3871, 45, 0, 4068.718, 4199.487, 4216.41, 4118.974, 4092.308, 0, 0, []
1631386160.3951, 46, 0, 4084.103, 4200, 4210.256, 4112.821, 4093.333, 0, 0, []
1631386160.403, 47, 0, 4097.949, 4210.769, 4200.513, 4112.821, 4098.462, 0, 0, []
1631386160.4109, 48, 0, 4099.487, 4214.872, 4249.231, 4114.359, 4101.538, 0, 0, []
1631386160.4189, 49, 0, 4090.769, 4204.615, 4109.231, 4117.436, 4095.385, 0, 0, []
1631386160.4268, 50, 0, 4090.256, 4203.59, 4205.128, 4128.205, 4093.333, 0, 0, []
1631386160.4348, 51, 0, 4098.462, 4205.128, 4233.846, 4136.923, 4095.897, 0, 0, []
1631386160.4427, 52, 0, 4105.641, 4191.282, 4195.897, 4131.795, 4092.308, 0, 0, []
1631386160.4506, 53, 0, 4108.718, 4177.436, 4247.692, 4110.256, 4091.282, 0, 0, []
1631386160.4585, 54, 0, 4101.538, 4176.41, 4124.103, 4087.179, 4092.308, 0, 0, []
1631386160.4665, 55, 0, 4094.359, 4178.974, 4207.179, 4092.308, 4087.179, 0, 0, []
1631386160.4744, 56, 0, 4106.154, 4187.179, 4237.949, 4114.359, 4084.615, 0, 0, []
1631386160.4824, 57, 0, 4120.513, 4196.923, 4177.949, 4125.128, 4091.795, 0, 0, []
1631386160.4902, 58, 0, 4126.154, 4196.923, 4252.308, 4131.282, 4107.179, 0, 0, []
1631386160.4982, 59, 0, 4131.282, 4193.333, 4149.744, 4138.974, 4115.897, 0, 0, []
1631386160.5061, 60, 0, 4126.667, 4181.538, 4206.667, 4134.359, 4106.667, 0, 0, []
1631386160.5141, 61, 0, 4112.821, 4175.385, 4244.103, 4119.487, 4092.821, 0, 0, []
1631386160.522, 62, 0, 4107.692, 4179.487, 4182.564, 4113.333, 4088.205, 0, 0, []
1631386160.5299, 63, 0, 4108.718, 4177.436, 4265.128, 4112.821, 4083.077, 0, 0, []
1631386160.5378, 64, 0, 4110.769, 4169.231, 4150.769, 4107.692, 4073.846, 450, 0, []
1631386160.5458, 65, 0, 4122.051, 4164.615, 4181.026, 4108.205, 4077.436, 450, 0, []
1631386160.5538, 66, 0, 4126.667, 4158.462, 4247.179, 4119.487, 4087.179, 16182, 0, []
1631386160.5617, 67, 0, 4112.821, 4149.744, 4176.41, 4121.538, 4091.795, 450, 0, []
1631386160.5696, 68, 0, 4112.821, 4153.846, 4266.154, 4112.308, 4093.846, 16184, 0, []
1631386160.5775, 69, 0, 4128.718, 4164.103, 4173.846, 4106.667, 4096.923, 450, 0, []
1631386160.5855, 70, 0, 4133.846, 4162.564, 4167.692, 4102.564, 4097.949, 16078, 0, []
1631386160.5935, 71, 0, 4133.333, 4155.385, 4227.692, 4102.051, 4100.513, 450, 0, []
1631386160.6014, 72, 0, 4148.718, 4161.026, 4150.769, 4123.077, 4118.462, 450, 0, []
1631386160.6093, 73, 0, 4167.692, 4181.538, 4252.308, 4147.692, 4136.923, 16150, 0, []
1631386160.6172, 74, 0, 4158.974, 4187.692, 4185.641, 4140.513, 4134.359, 450, 0, []
1631386160.6252, 75, 0, 4147.179, 4174.359, 4188.205, 4123.077, 4119.487, 16205, 0, []
1631386160.6331, 76, 0, 4151.795, 4158.974, 4264.615, 4124.103, 4118.974, 450, 0, []
1631386160.6411, 77, 0, 4149.744, 4158.974, 4132.308, 4129.231, 4125.641, 450, 0, []
1631386160.6489, 78, 0, 4137.436, 4156.923, 4212.308, 4127.692, 4117.436, 450, 0, []
1631386160.6569, 79, 0, 4137.949, 4151.282, 4215.385, 4124.103, 4115.385, 16205, 0, []
1631386160.6648, 80, 0, 4155.385, 4161.026, 4211.795, 4131.795, 4128.205, 450, 0, []
1631386160.6728, 81, 0, 4169.231, 4181.538, 4272.821, 4138.974, 4136.41, 450, 0, []
1631386160.6807, 82, 0, 4174.872, 4189.744, 4153.333, 4134.359, 4135.385, 450, 0, []
1631386160.6887, 83, 0, 4178.974, 4178.462, 4227.692, 4126.667, 4135.385, 16205, 0, []
1631386160.6965, 84, 0, 4177.949, 4172.308, 4209.744, 4121.026, 4136.41, 450, 0, []
1631386160.7045, 85, 0, 4174.359, 4171.282, 4173.333, 4117.949, 4144.103, 450, 0, []
1631386160.7124, 86, 0, 4171.282, 4163.59, 4269.231, 4117.949, 4147.692, 450, 0, []
1631386160.7204, 87, 0, 4165.641, 4162.051, 4158.974, 4110.769, 4135.897, 16205, 0, []
1631386160.7283, 88, 0, 4171.282, 4172.308, 4213.846, 4114.359, 4128.205, 450, 0, []
1631386160.7362, 89, 0, 4187.179, 4183.077, 4230.256, 4128.205, 4132.308, 450, 0, []
1631386160.7442, 90, 0, 4185.128, 4176.41, 4184.103, 4129.231, 4131.282, 450, 0, []
1631386160.7521, 91, 0, 4167.692, 4160, 4247.692, 4122.051, 4126.667, 16205, 0, []
1631386160.7601, 92, 0, 4160, 4150.256, 4123.077, 4111.795, 4126.154, 450, 0, []
1631386160.768, 93, 0, 4168.718, 4154.359, 4193.846, 4100, 4126.667, 450, 0, []
1631386160.7759, 94, 0, 4186.667, 4171.282, 4251.795, 4111.795, 4136.41, 450, 0, []
1631386160.7838, 95, 0, 4196.41, 4182.051, 4186.667, 4136.923, 4150.256, 16205, 0, []
1631386160.7918, 96, 0, 4198.974, 4177.436, 4253.333, 4138.462, 4151.282, 450, 0, []
1631386160.7997, 97, 0, 4215.385, 4187.692, 4137.436, 4134.359, 4156.923, 450, 0, []
1631386160.8077, 98, 0, 4237.949, 4196.41, 4182.564, 4146.154, 4167.692, 450, 0, []
1631386160.8155, 99, 0, 4233.333, 4184.615, 4250.769, 4141.026, 4164.615, 16205, 0, []
1631386160.8235, 100, 0, 4210.769, 4183.59, 4185.641, 4110.256, 4153.333, 450, 0, []
1631386160.8314, 101, 0, 4204.103, 4194.872, 4273.333, 4083.59, 4147.179, 450, 0, []
1631386160.8394, 102, 0, 4213.333, 4202.051, 4167.692, 4087.179, 4154.359, 450, 0, []
1631386160.8473, 103, 0, 4221.026, 4197.436, 4175.385, 4116.41, 4161.538, 16205, 0, []
1631386160.8552, 104, 0, 4226.154, 4181.026, 4242.564, 4142.564, 4165.128, 450, 0, []
1631386160.8631, 105, 0, 4237.949, 4177.436, 4147.179, 4155.897, 4177.949, 450, 0, []
1631386160.8711, 106, 0, 4252.821, 4184.615, 4245.641, 4160.513, 4194.359, 450, 0, []
1631386160.879, 107, 0, 4255.385, 4178.974, 4200, 4143.077, 4195.385, 16205, 0, []
1631386160.887, 108, 0, 4242.564, 4170.769, 4189.231, 4111.795, 4176.923, 450, 0, []
1631386160.8949, 109, 0, 4225.128, 4183.077, 4246.667, 4093.333, 4161.026, 450, 0, []
1631386160.9028, 110, 0, 4216.41, 4198.974, 4163.077, 4084.615, 4163.077, 450, 0, []
1631386160.9108, 111, 0, 4215.897, 4198.462, 4267.179, 4066.667, 4163.59, 16205, 0, []
1631386160.9187, 112, 0, 4212.821, 4189.744, 4218.462, 4042.564, 4154.359, 450, 0, []
1631386160.9267, 113, 0, 4212.308, 4189.231, 4191.795, 4035.897, 4146.154, 450, 0, []
1631386160.9345, 114, 0, 4220.513, 4194.872, 4258.974, 4050.256, 4138.462, 450, 0, []
1631386160.9425, 115, 0, 4232.308, 4192.308, 4137.436, 4072.821, 4137.949, 16205, 0, []
1631386160.9504, 116, 0, 4244.615, 4182.051, 4218.462, 4097.949, 4154.872, 450, 0, []
1631386160.9584, 117, 0, 4253.846, 4185.128, 4210.256, 4115.897, 4181.026, 450, 0, []
1631386160.9663, 118, 0, 4260, 4199.487, 4178.974, 4118.462, 4195.897, 450, 0, []
1631386160.9743, 119, 0, 4272.308, 4211.795, 4258.462, 4112.821, 4208.718, 16205, 0, []
1631386160.9821, 120, 0, 4277.436, 4217.949, 4141.026, 4105.641, 4210.256, 450, 0, []
1631386160.9901, 121, 0, 4267.692, 4209.231, 4218.462, 4103.077, 4184.103, 450, 0, []
1631386160.998, 122, 0, 4261.538, 4202.051, 4246.154, 4107.692, 4164.615, 450, 0, []
1631386161.006, 123, 0, 4265.641, 4213.333, 4193.846, 4115.897, 4177.436, 16205, 0, []
1631386161.0139, 124, 0, 4279.487, 4221.538, 4281.026, 4136.41, 4200.513, 450, 0, []
1631386161.0218, 125, 0, 4288.718, 4208.205, 4167.692, 4151.795, 4208.205, 450, 0, []
1631386161.0297, 126, 0, 4279.487, 4194.872, 4198.974, 4145.128, 4195.897, 450, 0, []
1631386161.0377, 127, 0, 4272.308, 4203.077, 4229.744, 4128.205, 4184.103, 16205, 0, []
1631386161.0456, 128, 0, 4280.513, 4209.744, 4176.41, 4125.128, 4192.308, 450, 0, []
1631386161.0536, 0, 0, 4290.256, 4205.641, 4253.846, 4129.744, 4201.538, 450, 0, []
1631386161.0614, 1, 0, 4289.744, 4207.692, 4130.769, 4118.974, 4200.513, 450, 0, []
1631386161.0694, 2, 0, 4296.923, 4219.487, 4168.718, 4125.128, 4211.282, 16185, 0, []
1631386161.0774, 3, 0, 4298.974, 4209.744, 4232.821, 4148.718, 4211.795, 450, 0, []
1631386161.0853, 4, 0, 4285.641, 4184.103, 4177.436, 4154.872, 4189.744, 16182, 0, []
1631386161.0933, 5, 0, 4279.487, 4186.154, 4266.154, 4147.692, 4178.462, 450, 0, []
1631386161.1011, 6, 0, 4275.897, 4197.949, 4144.615, 4138.462, 4188.718, 292, 0, []
1631386161.1091, 7, 0, 4279.487, 4188.205, 4160, 4126.667, 4188.205, 450, 0, []
1631386161.117, 8, 0, 4276.923, 4182.564, 4250.256, 4103.59, 4168.205, 450, 0, []
1631386161.125, 9, 0, 4264.103, 4188.718, 4186.154, 4089.744, 4155.897, 16158, 0, []
1631386161.1329, 10, 0, 4274.359, 4194.359, 4279.487, 4107.692, 4169.744, 450, 0, []
1631386161.1408, 11, 0, 4302.051, 4202.051, 4191.282, 4124.103, 4194.872, 16216, 0, []
1631386161.1487, 12, 0, 4303.077, 4201.538, 4173.846, 4113.333, 4194.359, 450, 0, []
1631386161.1567, 13, 0, 4287.692, 4196.41, 4250.769, 4096.923, 4180, 450, 0, []
1631386161.1646, 14, 0, 4299.487, 4201.026, 4162.051, 4097.949, 4186.154, 450, 0, []
1631386161.1726, 15, 0, 4316.923, 4198.974, 4248.718, 4105.641, 4197.949, 16216, 0, []
1631386161.1804, 16, 0, 4309.744, 4192.308, 4205.128, 4103.59, 4197.949, 0, 0, []
1631386161.1884, 17, 0, 4297.949, 4186.154, 4185.128, 4089.744, 4192.308, 0, 0, []
1631386161.1963, 18, 0, 4302.564, 4176.923, 4244.615, 4085.128, 4195.385, 0, 0, []
1631386161.2043, 19, 0, 4312.821, 4189.744, 4130.769, 4111.282, 4204.103, 0, 0, []
1631386161.2123, 20, 0, 4313.333, 4212.308, 4224.615, 4131.795, 4205.641, 0, 0, []
1631386161.2202, 21, 0, 4307.692, 4206.667, 4210.769, 4123.077, 4204.615, 0, 0, []
1631386161.2281, 22, 0, 4296.923, 4188.718, 4174.359, 4115.897, 4196.923, 0, 0, []
1631386161.236, 23, 0, 4295.897, 4200, 4235.385, 4125.128, 4195.385, 0, 0, []
1631386161.244, 24, 0, 4313.333, 4218.974, 4108.205, 4131.795, 4213.333, 0, 0, []
1631386161.2519, 25, 0, 4334.359, 4210.769, 4196.923, 4135.385, 4229.744, 0, 0, []
1631386161.2599, 26, 0, 4346.667, 4203.59, 4214.359, 4138.974, 4240.513, 0, 0, []
1631386161.2677, 27, 0, 4343.077, 4210.769, 4161.538, 4133.333, 4237.436, 0, 0, []
1631386161.2756, 28, 0, 4335.897, 4216.41, 4242.051, 4127.179, 4224.615, 0, 0, []
1631386161.2835, 29, 0, 4339.487, 4222.051, 4130.256, 4136.41, 4229.744, 0, 0, []
1631386161.2915, 30, 0, 4342.051, 4219.487, 4190.769, 4141.538, 4233.846, 0, 0, []
1631386161.2994, 31, 0, 4324.615, 4199.487, 4226.667, 4130.256, 4213.846, 0, 0, []
1631386161.3073, 32, 0, 4307.179, 4184.103, 4170.256, 4127.179, 4203.077, 0, 0, []
1631386161.3152, 33, 0, 4304.103, 4185.641, 4249.231, 4127.179, 4203.59, 0, 0, []
1631386161.3232, 34, 0, 4303.077, 4186.667, 4124.615, 4117.949, 4197.436, 0, 0, []
1631386161.3311, 35, 0, 4309.231, 4181.538, 4158.974, 4125.128, 4204.103, 0, 0, []
1631386161.3391, 36, 0, 4320, 4187.692, 4235.385, 4138.974, 4217.949, 0, 0, []
1631386161.3469, 37, 0, 4325.641, 4202.564, 4192.821, 4138.974, 4223.59, 0, 0, []
1631386161.3549, 38, 0, 4328.205, 4206.154, 4276.41, 4133.846, 4226.667, 0, 0, []
1631386161.3629, 39, 0, 4328.718, 4211.282, 4152.821, 4125.128, 4232.821, 0, 0, []
1631386161.3708, 40, 0, 4328.718, 4212.821, 4153.846, 4116.923, 4234.359, 0, 0, []
1631386161.3788, 41, 0, 4333.846, 4203.59, 4244.103, 4118.974, 4229.231, 0, 0, []
1631386161.3866, 42, 0, 4350.769, 4216.41, 4193.846, 4125.641, 4240.513, 0, 0, []
1631386161.3946, 43, 0, 4367.179, 4232.308, 4270.256, 4126.667, 4267.692, 0, 0, []
1631386161.4025, 44, 0, 4375.897, 4213.333, 4173.846, 4116.923, 4269.744, 0, 0, []
1631386161.4105, 45, 0, 4398.462, 4195.385, 4173.846, 4103.077, 4267.692, 0, 0, []
1631386161.4184, 46, 0, 4436.41, 4204.103, 4232.308, 4103.59, 4306.667, 0, 0, []
1631386161.4263, 47, 0, 4464.615, 4205.128, 4117.436, 4113.846, 4339.487, 0, 0, []
1631386161.4342, 48, 0, 4487.692, 4203.59, 4217.436, 4122.051, 4337.436, 0, 0, []
1631386161.4422, 49, 0, 4505.128, 4215.385, 4207.179, 4122.051, 4340, 0, 0, []
1631386161.4501, 50, 0, 4488.205, 4220, 4205.641, 4111.282, 4337.949, 0, 0, []
