Timestamp, COUNTER, INTERPOLATED, AF3, T7, Pz, T8, AF4, RAW_CQ, MARKER_HARDWARE, MARKERS
1629045095.3767, 114, 0, 4185.128, 4356.41, 4156.41, 4167.179, 4181.026, 450, 0, []
1629045095.3846, 115, 0, 4177.436, 4355.385, 4155.385, 4158.974, 4175.385, 16205, 0, []
1629045095.3925, 116, 0, 4191.282, 4361.026, 4151.795, 4177.949, 4185.641, 450, 0, []
1629045095.4004, 117, 0, 4212.821, 4387.179, 4185.641, 4204.615, 4208.205, 450, 0, []
1629045095.4084, 118, 0, 4216.41, 4398.974, 4159.487, 4215.897, 4214.359, 450, 0, []
1629045095.4163, 119, 0, 4215.385, 4390.769, 4173.846, 4217.436, 4205.641, 16205, 0, []
1629045095.4243, 120, 0, 4217.949, 4390.769, 4167.692, 4200.513, 4203.077, 450, 0, []
1629045095.4321, 121, 0, 4206.667, 4395.385, 4147.692, 4181.538, 4198.974, 450, 0, []
1629045095.4401, 122, 0, 4195.897, 4367.179, 4177.436, 4175.385, 4184.615, 450, 0, []
1629045095.448, 123, 0, 4197.949, 4307.692, 4155.385, 4169.744, 4181.538, 16205, 0, []
1629045095.4558, 124, 0, 4206.154, 4272.821, 4169.744, 4181.538, 4200.513, 450, 0, []
1629045095.4637, 125, 0, 4214.872, 4283.59, 4163.077, 4196.41, 4210.256, 450, 0, []
1629045095.4714, 126, 0, 4213.333, 4284.103, 4136.41, 4196.923, 4203.59, 450, 0, []
1629045095.4793, 127, 0, 4208.205, 4275.385, 4171.282, 4200.513, 4201.538, 16205, 0, []
1629045095.4871, 128, 0, 4195.897, 4283.59, 4153.846, 4191.795, 4193.846, 450, 0, []
1629045095.495, 0, 0, 4173.333, 4273.333, 4164.615, 4166.154, 4175.897, 450, 0, []
1629045095.5028, 1, 0, 4177.436, 4261.538, 4170.256, 4155.385, 4181.538, 450, 0, []
1629045095.5106, 2, 0, 4212.821, 4292.308, 4150.256, 4185.128, 4206.667, 16188, 0, []
1629045095.5184, 3, 0, 4223.59, 4314.359, 4182.564, 4213.333, 4210.769, 450, 0, []
1629045095.5264, 4, 0, 4206.154, 4292.308, 4155.897, 4200.513, 4194.872, 16170, 0, []
1629045095.5343, 5, 0, 4200.513, 4271.795, 4157.949, 4188.718, 4182.051, 450, 0, []
1629045095.5423, 6, 0, 4198.974, 4282.051, 4174.359, 4185.641, 4175.385, 314, 0, []
1629045095.5501, 7, 0, 4197.436, 4303.59, 4149.231, 4173.846, 4178.462, 450, 0, []
1629045095.558, 8, 0, 4204.615, 4305.641, 4181.026, 4170.769, 4187.692, 450, 0, []
1629045095.5659, 9, 0, 4204.103, 4289.744, 4167.179, 4170.256, 4193.333, 16144, 0, []
1629045095.5737, 10, 0, 4196.923, 4278.462, 4164.103, 4174.872, 4191.795, 450, 0, []
1629045095.5817, 11, 0, 4199.487, 4277.949, 4184.615, 4188.205, 4192.308, 16205, 0, []
1629045095.5895, 12, 0, 4196.923, 4294.359, 4162.051, 4195.385, 4194.359, 450, 0, []
1629045095.5974, 13, 0, 4187.179, 4307.179, 4187.179, 4195.385, 4189.231, 450, 0, []
1629045095.6054, 14, 0, 4190.256, 4293.846, 4168.718, 4190.256, 4187.692, 450, 0, []
1629045095.6133, 15, 0, 4204.615, 4287.692, 4166.154, 4198.462, 4200, 16205, 0, []
1629045095.6213, 16, 0, 4208.205, 4292.308, 4191.282, 4201.026, 4206.667, 0, 0, []
1629045095.6292, 17, 0, 4196.41, 4278.974, 4151.282, 4180.513, 4193.846, 0, 0, []
1629045095.6369, 18, 0, 4192.821, 4276.41, 4177.949, 4174.872, 4188.718, 0, 0, []
1629045095.6448, 19, 0, 4198.462, 4288.718, 4180.513, 4175.385, 4192.821, 0, 0, []
1629045095.6526, 20, 0, 4196.923, 4275.385, 4163.59, 4172.308, 4189.744, 0, 0, []
1629045095.6605, 21, 0, 4192.821, 4265.128, 4181.538, 4174.359, 4189.744, 0, 0, []
1629045095.6683, 22, 0, 4195.897, 4279.487, 4150.769, 4175.897, 4196.41, 0, 0, []
1629045095.6761, 23, 0, 4203.077, 4295.385, 4171.282, 4184.103, 4200.513, 0, 0, []
1629045095.6839, 24, 0, 4204.615, 4311.282, 4168.205, 4186.154, 4199.487, 0, 0, []
1629045095.6919, 25, 0, 4198.974, 4299.487, 4155.385, 4183.59, 4201.026, 0, 0, []
1629045095.6998, 26, 0, 4201.026, 4276.41, 4191.795, 4187.179, 4203.59, 0, 0, []
1629045095.7078, 27, 0, 4208.718, 4286.667, 4163.59, 4187.179, 4197.436, 0, 0, []
1629045095.7156, 28, 0, 4210.769, 4297.436, 4177.436, 4191.795, 4198.462, 0, 0, []
1629045095.7236, 29, 0, 4211.282, 4293.846, 4185.128, 4194.359, 4211.795, 0, 0, []
1629045095.7315, 30, 0, 4211.282, 4293.333, 4164.615, 4193.846, 4214.359, 0, 0, []
1629045095.7395, 31, 0, 4204.103, 4281.538, 4191.795, 4191.795, 4203.077, 0, 0, []
1629045095.7474, 32, 0, 4198.462, 4274.359, 4170.769, 4182.564, 4201.538, 0, 0, []
1629045095.7553, 33, 0, 4200, 4290.256, 4180, 4178.462, 4200, 0, 0, []
1629045095.7632, 34, 0, 4198.462, 4308.718, 4175.897, 4175.897, 4193.846, 0, 0, []
1629045095.771, 35, 0, 4192.821, 4310.769, 4146.154, 4176.923, 4196.923, 0, 0, []
1629045095.7789, 36, 0, 4190.769, 4296.41, 4179.487, 4184.103, 4202.051, 0, 0, []
1629045095.7867, 37, 0, 4195.385, 4290.769, 4160, 4182.564, 4197.949, 0, 0, []
1629045095.7945, 38, 0, 4204.615, 4304.103, 4157.949, 4181.026, 4195.385, 0, 0, []
1629045095.8023, 39, 0, 4197.949, 4299.487, 4158.462, 4175.897, 4191.282, 0, 0, []
1629045095.8102, 40, 0, 4177.949, 4274.359, 4130.256, 4169.231, 4175.385, 0, 0, []
1629045095.818, 41, 0, 4175.897, 4284.615, 4173.333, 4177.949, 4168.205, 0, 0, []
1629045095.8259, 42, 0, 4182.051, 4317.949, 4160.513, 4178.974, 4172.308, 0, 0, []
1629045095.8336, 43, 0, 4173.846, 4319.487, 4147.179, 4164.103, 4170.256, 0, 0, []
1629045095.8416, 44, 0, 4172.821, 4309.231, 4153.846, 4148.205, 4166.154, 0, 0, []
1629045095.8495, 45, 0, 4178.974, 4304.103, 4124.103, 4140.513, 4170.256, 0, 0, []
1629045095.8575, 46, 0, 4169.231, 4302.564, 4150.769, 4145.641, 4170.256, 0, 0, []
1629045095.8654, 47, 0, 4157.949, 4311.282, 4137.436, 4150.256, 4165.128, 0, 0, []
1629045095.8733, 48, 0, 4167.692, 4314.359, 4142.564, 4154.359, 4171.282, 0, 0, []
1629045095.8812, 49, 0, 4173.846, 4314.359, 4176.923, 4157.436, 4174.872, 0, 0, []
1629045095.8892, 50, 0, 4163.59, 4321.538, 4151.282, 4156.923, 4163.077, 0, 0, []
1629045095.8971, 51, 0, 4163.077, 4316.41, 4180, 4163.59, 4163.59, 0, 0, []
1629045095.9051, 52, 0, 4176.923, 4304.615, 4175.897, 4165.641, 4180, 0, 0, []
1629045095.9129, 53, 0, 4184.103, 4306.154, 4164.615, 4171.282, 4187.179, 0, 0, []
1629045095.9207, 54, 0, 4181.538, 4305.641, 4186.154, 4173.333, 4184.615, 0, 0, []
1629045095.9286, 55, 0, 4179.487, 4294.872, 4154.359, 4160.513, 4183.59, 0, 0, []
1629045095.9364, 56, 0, 4186.667, 4301.026, 4177.949, 4166.667, 4183.59, 0, 0, []
1629045095.9443, 57, 0, 4197.949, 4324.103, 4174.359, 4180, 4193.846, 0, 0, []
1629045095.9521, 58, 0, 4200.513, 4324.103, 4153.846, 4181.026, 4205.641, 0, 0, []
1629045095.9599, 59, 0, 4189.744, 4314.872, 4177.436, 4174.359, 4194.872, 0, 0, []
1629045095.9677, 60, 0, 4180.513, 4321.026, 4146.667, 4163.077, 4180, 0, 0, []
1629045095.9756, 61, 0, 4183.59, 4318.462, 4164.103, 4161.026, 4183.077, 0, 0, []
1629045095.9834, 62, 0, 4188.205, 4302.564, 4162.564, 4160, 4185.641, 0, 0, []
1629045095.9914, 63, 0, 4195.897, 4309.231, 4143.077, 4170.256, 4185.128, 0, 0, []
1629045095.9992, 64, 0, 4205.128, 4328.205, 4187.179, 4190.256, 4190.256, 450, 0, []
1629045096.0072, 65, 0, 4193.846, 4323.59, 4164.615, 4183.59, 4180, 450, 0, []
1629045096.0151, 66, 0, 4176.41, 4313.333, 4157.949, 4172.308, 4164.103, 16188, 0, []
1629045096.0231, 67, 0, 4176.41, 4320.513, 4153.846, 4173.333, 4170.256, 450, 0, []
1629045096.031, 68, 0, 4181.026, 4342.564, 4134.872, 4169.231, 4180, 16170, 0, []
1629045096.0389, 69, 0, 4178.974, 4349.231, 4169.231, 4164.103, 4177.949, 450, 0, []
1629045096.0468, 70, 0, 4175.385, 4325.641, 4147.692, 4162.564, 4176.923, 310, 0, []
1629045096.0548, 71, 0, 4183.59, 4316.923, 4158.974, 4175.385, 4189.231, 450, 0, []
1629045096.0627, 72, 0, 4194.872, 4335.897, 4178.974, 4182.564, 4203.077, 450, 0, []
1629045096.0707, 73, 0, 4194.872, 4340, 4156.923, 4177.949, 4209.744, 16144, 0, []
1629045096.0785, 74, 0, 4203.077, 4328.205, 4193.333, 4189.744, 4221.026, 450, 0, []
1629045096.0865, 75, 0, 4222.564, 4327.692, 4177.949, 4201.026, 4231.795, 16205, 0, []
1629045096.0944, 76, 0, 4222.564, 4322.051, 4161.538, 4195.385, 4219.487, 450, 0, []
1629045096.1022, 77, 0, 4208.205, 4313.333, 4164.103, 4185.128, 4200.513, 450, 0, []
1629045096.1101, 78, 0, 4213.846, 4329.231, 4151.795, 4191.282, 4205.128, 450, 0, []
1629045096.1178, 79, 0, 4223.59, 4343.077, 4202.051, 4210.769, 4218.974, 16205, 0, []
1629045096.1257, 80, 0, 4215.385, 4332.308, 4176.923, 4212.821, 4213.846, 450, 0, []
1629045096.1335, 81, 0, 4208.718, 4324.103, 4152.821, 4207.692, 4201.538, 450, 0, []
1629045096.1414, 82, 0, 4216.41, 4329.744, 4183.59, 4208.718, 4198.974, 450, 0, []
1629045096.1492, 83, 0, 4225.128, 4329.744, 4167.179, 4205.641, 4203.077, 16205, 0, []
1629045096.1571, 84, 0, 4223.077, 4324.615, 4185.128, 4201.026, 4205.641, 450, 0, []
1629045096.165, 85, 0, 4214.359, 4322.051, 4162.051, 4189.231, 4195.897, 450, 0, []
1629045096.173, 86, 0, 4208.205, 4303.59, 4147.692, 4183.59, 4184.615, 450, 0, []
1629045096.1809, 87, 0, 4209.231, 4296.923, 4175.897, 4190.256, 4191.282, 16205, 0, []
1629045096.1889, 88, 0, 4213.846, 4318.462, 4149.231, 4194.872, 4202.051, 450, 0, []
1629045096.1967, 89, 0, 4220, 4309.744, 4170.769, 4197.436, 4206.154, 450, 0, []
1629045096.2047, 90, 0, 4228.718, 4299.487, 4169.744, 4196.41, 4211.282, 450, 0, []
1629045096.2126, 91, 0, 4235.897, 4323.077, 4163.077, 4204.103, 4221.538, 16205, 0, []
1629045096.2204, 92, 0, 4238.974, 4331.282, 4193.333, 4221.538, 4222.051, 450, 0, []
1629045096.2283, 93, 0, 4227.692, 4313.333, 4151.795, 4215.897, 4210.256, 450, 0, []
1629045096.236, 94, 0, 4212.821, 4299.487, 4150.256, 4203.077, 4199.487, 450, 0, []
1629045096.2439, 95, 0, 4215.385, 4290.769, 4155.385, 4202.564, 4199.487, 16205, 0, []
1629045096.2517, 96, 0, 4229.231, 4294.359, 4157.949, 4211.282, 4204.615, 450, 0, []
1629045096.2596, 97, 0, 4238.462, 4301.538, 4197.949, 4216.923, 4209.744, 450, 0, []
1629045096.2674, 98, 0, 4243.59, 4288.205, 4164.615, 4210.769, 4219.487, 450, 0, []
1629045096.2752, 99, 0, 4249.231, 4276.41, 4171.795, 4217.949, 4228.718, 16205, 0, []
1629045096.283, 100, 0, 4247.692, 4284.615, 4183.077, 4222.051, 4232.308, 450, 0, []
1629045096.2909, 101, 0, 4241.538, 4286.667, 4160, 4211.282, 4228.718, 450, 0, []
1629045096.2987, 102, 0, 4242.564, 4284.103, 4175.897, 4204.103, 4225.128, 450, 0, []
1629045096.3067, 103, 0, 4245.641, 4283.59, 4138.462, 4197.436, 4226.154, 16205, 0, []
1629045096.3146, 104, 0, 4240, 4279.487, 4147.179, 4197.949, 4222.564, 450, 0, []
1629045096.3225, 105, 0, 4231.282, 4285.128, 4163.077, 4198.462, 4215.385, 450, 0, []
1629045096.3304, 106, 0, 4231.795, 4285.128, 4138.974, 4197.949, 4218.974, 450, 0, []
1629045096.3384, 107, 0, 4244.615, 4277.436, 4177.949, 4205.641, 4233.846, 16205, 0, []
1629045096.3463, 108, 0, 4251.795, 4292.821, 4159.487, 4205.128, 4244.103, 450, 0, []
1629045096.3543, 109, 0, 4251.282, 4298.462, 4153.333, 4208.718, 4247.179, 450, 0, []
1629045096.3621, 110, 0, 4270.256, 4280, 4173.333, 4212.821, 4251.795, 450, 0, []
1629045096.3701, 111, 0, 4318.462, 4276.923, 4145.128, 4204.103, 4273.846, 16205, 0, []
1629045096.378, 112, 0, 4367.692, 4283.077, 4164.103, 4204.103, 4309.744, 450, 0, []
1629045096.3858, 113, 0, 4387.692, 4271.282, 4151.282, 4199.487, 4324.103, 450, 0, []
1629045096.3937, 114, 0, 4397.949, 4255.897, 4149.231, 4183.077, 4319.487, 450, 0, []
1629045096.4014, 115, 0, 4428.718, 4247.692, 4158.462, 4176.923, 4335.897, 16205, 0, []
1629045096.4093, 116, 0, 4456.41, 4240, 4134.872, 4190.769, 4363.077, 450, 0, []
1629045096.4171, 117, 0, 4460, 4239.487, 4173.846, 4201.538, 4365.641, 450, 0, []
1629045096.425, 118, 0, 4461.026, 4240.513, 4156.923, 4182.564, 4354.872, 450, 0, []
1629045096.4328, 119, 0, 4472.308, 4221.026, 4141.538, 4167.179, 4355.897, 16205, 0, []
1629045096.4406, 120, 0, 4475.897, 4205.128, 4170.769, 4172.308, 4358.974, 450, 0, []
1629045096.4484, 121, 0, 4466.154, 4208.718, 4141.538, 4167.692, 4346.667, 450, 0, []
1629045096.4564, 122, 0, 4462.051, 4201.538, 4154.872, 4158.974, 4328.205, 450, 0, []
1629045096.4643, 123, 0, 4467.179, 4195.897, 4151.795, 4154.872, 4331.795, 16205, 0, []
1629045096.4723, 124, 0, 4476.923, 4213.846, 4153.333, 4168.718, 4352.821, 450, 0, []
1629045096.4801, 125, 0, 4482.564, 4224.103, 4178.462, 4179.487, 4356.41, 450, 0, []
1629045096.4881, 126, 0, 4483.59, 4222.564, 4140, 4166.154, 4345.128, 450, 0, []
1629045096.496, 127, 0, 4497.436, 4234.359, 4158.974, 4159.487, 4347.692, 16205, 0, []
1629045096.504, 128, 0, 4511.795, 4246.154, 4170.769, 4167.179, 4358.462, 450, 0, []
1629045096.5119, 0, 0, 4520.513, 4252.308, 4156.41, 4174.359, 4366.667, 450, 0, []
1629045096.5198, 1, 0, 4533.846, 4275.897, 4180, 4178.974, 4375.897, 450, 0, []
1629045096.5277, 2, 0, 4535.897, 4292.308, 4162.051, 4183.077, 4377.436, 16188, 0, []
1629045096.5357, 3, 0, 4517.436, 4289.231, 4158.462, 4180, 4366.667, 450, 0, []
1629045096.5436, 4, 0, 4489.231, 4295.385, 4130.769, 4150.256, 4347.692, 16170, 0, []
1629045096.5514, 5, 0, 4467.692, 4305.641, 4128.205, 4130.769, 4321.026, 450, 0, []
1629045096.5592, 6, 0, 4464.103, 4309.231, 4185.128, 4145.128, 4305.128, 311, 0, []
1629045096.5672, 7, 0, 4457.436, 4312.308, 4161.538, 4147.692, 4293.333, 450, 0, []
1629045096.5751, 8, 0, 4420.513, 4308.205, 4151.282, 4136.41, 4262.564, 450, 0, []
1629045096.5829, 9, 0, 4387.179, 4296.923, 4142.564, 4128.718, 4230.769, 16144, 0, []
1629045096.5908, 10, 0, 4385.128, 4298.462, 4129.744, 4129.231, 4221.538, 450, 0, []
1629045096.5985, 11, 0, 4371.795, 4312.308, 4157.436, 4140, 4217.436, 16204, 0, []
1629045096.6064, 12, 0, 4338.974, 4307.179, 4140, 4147.179, 4202.564, 450, 0, []
1629045096.6142, 13, 0, 4317.949, 4287.179, 4156.41, 4140.513, 4188.205, 450, 0, []
1629045096.6222, 14, 0, 4303.077, 4283.59, 4129.231, 4115.897, 4171.282, 450, 0, []
1629045096.6301, 15, 0, 4281.026, 4280, 4115.897, 4108.205, 4154.872, 16204, 0, []
1629045096.638, 16, 0, 4255.897, 4267.179, 4150.256, 4118.974, 4143.59, 0, 0, []
1629045096.6459, 17, 0, 4234.872, 4258.974, 4109.744, 4123.077, 4129.231, 0, 0, []
1629045096.6539, 18, 0, 4222.564, 4258.462, 4161.026, 4136.41, 4115.897, 0, 0, []
1629045096.6619, 19, 0, 4216.41, 4268.718, 4131.282, 4139.487, 4120, 0, 0, []
1629045096.6699, 20, 1, 4210.256, 4268.718, 4133.269, 4136.282, 4116.859, 0, 0, []
1629045096.6778, 21, 1, 4204.103, 4268.718, 4135.256, 4133.077, 4113.718, 0, 0, []
1629045096.6856, 22, 1, 4197.949, 4268.718, 4137.244, 4129.872, 4110.577, 0, 0, []
1629045096.6935, 23, 1, 4191.795, 4268.718, 4139.231, 4126.667, 4107.436, 0, 0, []
1629045096.7014, 24, 1, 4185.641, 4268.718, 4141.218, 4123.462, 4104.295, 0, 0, []
1629045096.7093, 25, 1, 4179.487, 4268.718, 4143.205, 4120.256, 4101.154, 0, 0, []
1629045096.7172, 26, 1, 4173.333, 4268.718, 4145.192, 4117.051, 4098.013, 0, 0, []
1629045096.725, 27, 0, 4167.179, 4268.718, 4147.179, 4113.846, 4094.872, 0, 0, []
1629045096.7328, 28, 0, 4172.308, 4297.949, 4134.872, 4120.513, 4097.436, 0, 0, []
1629045096.7407, 29, 0, 4173.333, 4297.436, 4152.308, 4124.615, 4101.538, 0, 0, []
1629045096.7486, 30, 0, 4164.615, 4284.103, 4117.949, 4118.462, 4101.026, 0, 0, []
1629045096.7564, 31, 0, 4170.256, 4298.462, 4139.487, 4127.692, 4100.513, 0, 0, []
1629045096.7641, 32, 0, 4172.308, 4306.667, 4145.128, 4135.897, 4100, 0, 0, []
1629045096.7721, 33, 0, 4140.513, 4272.308, 4134.872, 4121.538, 4082.564, 0, 0, []
1629045096.78, 34, 0, 4120.513, 4259.487, 4137.436, 4108.718, 4069.744, 0, 0, []
1629045096.7879, 35, 0, 4153.333, 4304.103, 4138.974, 4130.769, 4100.513, 0, 0, []
1629045096.7957, 36, 0, 4186.154, 4346.667, 4170.769, 4161.538, 4142.051, 0, 0, []
1629045096.8036, 37, 0, 4177.949, 4335.385, 4152.821, 4158.462, 4142.564, 0, 0, []
1629045096.8115, 38, 0, 4159.487, 4299.487, 4136.41, 4145.641, 4126.154, 0, 0, []
1629045096.8195, 39, 0, 4142.051, 4296.923, 4160.513, 4140, 4109.231, 0, 0, []
1629045096.8274, 40, 0, 4120.513, 4311.282, 4118.974, 4126.154, 4086.667, 0, 0, []
1629045096.8354, 41, 0, 4114.359, 4306.154, 4124.103, 4125.641, 4084.615, 0, 0, []
1629045096.8432, 42, 0, 4115.385, 4320.513, 4189.231, 4139.487, 4093.333, 0, 0, []
1629045096.8512, 43, 0, 4098.462, 4355.385, 4081.026, 4133.846, 4083.59, 0, 0, []
1629045096.8591, 44, 0, 4086.154, 4344.103, 4082.564, 4131.282, 4073.333, 0, 0, []
1629045096.8669, 45, 0, 4094.872, 4318.462, 4212.821, 4137.436, 4072.821, 0, 0, []
1629045096.8748, 46, 0, 4103.59, 4338.974, 4106.154, 4127.692, 4078.462, 0, 0, []
1629045096.8825, 47, 0, 4106.667, 4364.103, 4096.41, 4134.872, 4091.282, 0, 0, []
1629045096.8904, 48, 0, 4102.051, 4360.513, 4173.846, 4145.641, 4094.359, 0, 0, []
1629045096.8982, 49, 0, 4091.282, 4339.487, 4120, 4138.974, 4079.487, 0, 0, []
1629045096.9061, 50, 0, 4094.872, 4327.692, 4125.128, 4138.974, 4080.513, 0, 0, []
1629045096.9139, 51, 0, 4107.179, 4337.949, 4152.308, 4142.564, 4095.385, 0, 0, []
1629045096.9217, 52, 0, 4111.282, 4346.154, 4144.615, 4144.103, 4097.949, 0, 0, []
1629045096.9295, 53, 0, 4107.179, 4346.667, 4124.103, 4137.436, 4090.769, 0, 0, []
1629045096.9375, 54, 0, 4112.308, 4348.718, 4145.641, 4138.462, 4095.897, 0, 0, []
1629045096.9454, 55, 0, 4122.564, 4352.821, 4142.051, 4153.846, 4108.718, 0, 0, []
1629045096.9534, 56, 0, 4119.487, 4365.641, 4131.795, 4155.897, 4104.615, 0, 0, []
1629045096.9612, 57, 0, 4111.282, 4386.154, 4146.667, 4145.641, 4094.359, 0, 0, []
1629045096.9692, 58, 0, 4117.949, 4400, 4141.026, 4152.308, 4104.615, 0, 0, []
1629045096.9771, 59, 0, 4134.359, 4409.744, 4166.154, 4169.231, 4126.154, 0, 0, []
1629045096.9851, 60, 0, 4143.59, 4413.846, 4157.436, 4172.821, 4139.487, 0, 0, []
1629045096.993, 61, 0, 4155.385, 4433.333, 4196.923, 4184.103, 4151.282, 0, 0, []
1629045097.0009, 62, 0, 4168.718, 4486.667, 4185.128, 4191.282, 4167.179, 0, 0, []
1629045097.0087, 63, 0, 4173.846, 4525.641, 4155.385, 4192.308, 4177.949, 0, 0, []
1629045097.0165, 64, 0, 4176.41, 4525.128, 4247.179, 4209.744, 4181.026, 450, 0, []
1629045097.0244, 65, 0, 4171.282, 4509.231, 4155.385, 4201.026, 4178.462, 450, 0, []
1629045097.0322, 66, 0, 4158.974, 4495.385, 4137.436, 4185.641, 4168.205, 16188, 0, []
1629045097.0401, 67, 0, 4152.821, 4493.846, 4214.359, 4189.744, 4156.923, 450, 0, []
1629045097.0478, 68, 0, 4151.795, 4493.846, 4133.846, 4188.205, 4154.872, 16169, 0, []
1629045097.0557, 69, 0, 4153.846, 4472.821, 4178.974, 4191.282, 4158.462, 450, 0, []
1629045097.0635, 70, 0, 4160, 4444.615, 4184.615, 4194.359, 4157.949, 309, 0, []
1629045097.0714, 71, 0, 4165.128, 4442.564, 4146.667, 4201.538, 4157.436, 450, 0, []
1629045097.0792, 72, 0, 4151.795, 4448.718, 4179.487, 4188.718, 4148.205, 450, 0, []
1629045097.0871, 73, 0, 4133.846, 4428.718, 4140.513, 4160.513, 4131.795, 16144, 0, []
1629045097.095, 74, 0, 4137.949, 4405.128, 4158.974, 4172.821, 4132.821, 450, 0, []
1629045097.103, 75, 0, 4153.333, 4429.231, 4184.615, 4198.462, 4151.282, 16203, 0, []
1629045097.1109, 76, 0, 4160.513, 4461.026, 4166.667, 4198.974, 4164.103, 450, 0, []
1629045097.1189, 77, 0, 4146.154, 4426.154, 4157.949, 4177.949, 4152.308, 450, 0, []
1629045097.1267, 78, 0, 4137.949, 4402.051, 4136.923, 4165.641, 4142.564, 450, 0, []
1629045097.1347, 79, 0, 4165.128, 4432.308, 4163.59, 4190.769, 4163.59, 16203, 0, []
1629045097.1426, 80, 0, 4180, 4434.359, 4176.41, 4204.103, 4172.308, 450, 0, []
1629045097.1505, 81, 0, 4160.513, 4412.308, 4151.795, 4182.051, 4155.385, 450, 0, []
1629045097.1584, 82, 0, 4157.949, 4420, 4165.641, 4178.462, 4156.41, 450, 0, []
1629045097.1661, 83, 0, 4173.333, 4423.077, 4165.641, 4195.385, 4167.692, 16203, 0, []
1629045097.174, 84, 0, 4168.205, 4410.769, 4154.872, 4190.256, 4162.564, 450, 0, []
1629045097.1818, 85, 0, 4167.692, 4422.564, 4157.436, 4181.538, 4164.103, 450, 0, []
1629045097.1897, 86, 0, 4171.795, 4437.949, 4155.385, 4184.103, 4168.718, 450, 0, []
1629045097.1975, 87, 0, 4160.513, 4423.077, 4155.897, 4177.436, 4154.359, 16203, 0, []
1629045097.2053, 88, 0, 4154.872, 4399.487, 4134.359, 4166.667, 4150.256, 450, 0, []
1629045097.2131, 89, 0, 4156.923, 4394.872, 4132.821, 4170.256, 4156.923, 450, 0, []
1629045097.221, 90, 0, 4159.487, 4410.769, 4148.205, 4176.41, 4158.974, 450, 0, []
1629045097.2288, 91, 0, 4165.128, 4416.41, 4132.308, 4175.897, 4165.128, 16203, 0, []
1629045097.2368, 92, 0, 4165.641, 4396.41, 4145.128, 4180, 4163.077, 450, 0, []
1629045097.2446, 93, 0, 4165.128, 4383.59, 4148.205, 4191.282, 4160.513, 450, 0, []
1629045097.2526, 94, 0, 4160.513, 4397.436, 4133.333, 4196.923, 4163.59, 450, 0, []
1629045097.2605, 95, 0, 4144.103, 4418.462, 4145.128, 4190.256, 4160.513, 16203, 0, []
1629045097.2685, 96, 0, 4141.538, 4422.564, 4149.231, 4182.564, 4160, 450, 0, []
1629045097.2764, 97, 0, 4153.846, 4412.308, 4172.308, 4188.205, 4166.667, 450, 0, []
1629045097.2843, 98, 0, 4148.205, 4414.359, 4167.692, 4187.179, 4160.513, 450, 0, []
1629045097.2922, 99, 0, 4130.769, 4417.436, 4141.026, 4166.154, 4147.692, 16203, 0, []
1629045097.3002, 100, 0, 4134.359, 4411.795, 4151.282, 4158.462, 4148.205, 450, 0, []
1629045097.3081, 101, 0, 4146.154, 4401.026, 4143.59, 4171.795, 4153.333, 450, 0, []
1629045097.316, 102, 0, 4144.103, 4390.769, 4152.308, 4179.487, 4160, 450, 0, []
1629045097.3238, 103, 0, 4144.103, 4398.462, 4156.41, 4169.744, 4163.077, 16203, 0, []
1629045097.3318, 104, 0, 4150.256, 4406.154, 4143.59, 4162.051, 4156.41, 450, 0, []
1629045097.3397, 105, 0, 4154.359, 4406.154, 4149.231, 4166.154, 4159.487, 450, 0, []
1629045097.3475, 106, 0, 4161.538, 4416.41, 4130.769, 4173.333, 4171.795, 450, 0, []
1629045097.3554, 107, 0, 4164.615, 4419.487, 4138.462, 4178.974, 4168.718, 16203, 0, []
1629045097.3632, 108, 0, 4147.179, 4398.974, 4126.154, 4167.179, 4151.795, 450, 0, []
1629045097.371, 109, 0, 4136.41, 4399.487, 4111.795, 4158.974, 4152.821, 450, 0, []
1629045097.3788, 110, 0, 4153.846, 4424.103, 4150.769, 4173.333, 4169.744, 450, 0, []
1629045097.3868, 111, 0, 4163.077, 4431.282, 4140, 4182.051, 4177.949, 16203, 0, []
1629045097.3947, 112, 0, 4151.795, 4425.641, 4145.128, 4182.051, 4172.308, 450, 0, []
1629045097.4027, 113, 0, 4150.769, 4426.154, 4153.846, 4185.128, 4167.179, 450, 0, []
1629045097.4105, 114, 0, 4160, 4441.026, 4129.744, 4187.179, 4169.744, 450, 0, []
1629045097.4185, 115, 0, 4160.513, 4451.795, 4165.128, 4187.692, 4173.333, 16203, 0, []
1629045097.4264, 116, 0, 4156.923, 4447.179, 4153.333, 4180.513, 4168.718, 450, 0, []
1629045097.4344, 117, 0, 4153.333, 4447.179, 4129.744, 4171.282, 4162.051, 450, 0, []
1629045097.4423, 118, 0, 4154.872, 4468.205, 4167.692, 4172.308, 4168.718, 450, 0, []
1629045097.4502, 119, 0, 4162.051, 4501.538, 4128.718, 4171.795, 4176.41, 16203, 0, []
1629045097.4581, 120, 0, 4163.59, 4517.949, 4105.128, 4163.59, 4168.718, 450, 0, []
1629045097.466, 121, 0, 4156.41, 4502.051, 4122.051, 4153.846, 4154.872, 450, 0, []
1629045097.4739, 122, 0, 4142.564, 4480, 4108.205, 4146.154, 4146.667, 450, 0, []
1629045097.4817, 123, 0, 4141.026, 4506.667, 4121.026, 4149.744, 4150.256, 16203, 0, []
1629045097.4895, 124, 0, 4144.103, 4557.436, 4112.308, 4152.821, 4154.359, 450, 0, []
1629045097.4973, 125, 0, 4140.513, 4561.026, 4123.077, 4150.769, 4149.744, 450, 0, []
1629045097.5052, 126, 0, 4140, 4556.41, 4128.718, 4147.692, 4152.308, 450, 0, []
1629045097.513, 127, 0, 4136.41, 4580, 4119.487, 4154.359, 4151.795, 16203, 0, []
1629045097.5209, 128, 0, 4134.872, 4578.974, 4131.795, 4160.513, 4141.538, 450, 0, []
1629045097.5286, 0, 0, 4158.462, 4566.667, 4097.949, 4144.103, 4151.282, 450, 0, []
1629045097.5365, 1, 0, 4201.538, 4577.436, 4122.051, 4141.026, 4185.128, 450, 0, []
1629045097.5443, 2, 0, 4225.128, 4573.846, 4144.103, 4154.872, 4208.718, 16189, 0, []
1629045097.5523, 3, 0, 4218.462, 4553.846, 4121.026, 4153.846, 4210.256, 450, 0, []
1629045097.5602, 4, 0, 4202.564, 4560, 4135.385, 4152.308, 4208.718, 16166, 0, []
1629045097.568, 5, 0, 4186.667, 4565.128, 4117.436, 4152.308, 4199.487, 450, 0, []
1629045097.5759, 6, 0, 4176.923, 4543.077, 4135.385, 4144.103, 4185.641, 315, 0, []
1629045097.5837, 7, 0, 4170.769, 4544.615, 4139.487, 4132.821, 4178.974, 450, 0, []
1629045097.5917, 8, 0, 4161.538, 4564.615, 4119.487, 4129.744, 4165.641, 450, 0, []
1629045097.5996, 9, 0, 4162.564, 4555.897, 4152.821, 4132.821, 4157.949, 16144, 0, []
1629045097.6074, 10, 0, 4173.846, 4544.103, 4134.872, 4141.538, 4171.282, 450, 0, []
1629045097.6154, 11, 0, 4168.718, 4543.59, 4129.231, 4143.59, 4163.077, 16203, 0, []
1629045097.6233, 12, 0, 4150.769, 4535.385, 4127.179, 4125.128, 4133.846, 450, 0, []
1629045097.6311, 13, 0, 4151.795, 4540, 4119.487, 4124.615, 4139.487, 450, 0, []
1629045097.639, 14, 0, 4158.462, 4570.256, 4155.897, 4139.487, 4155.897, 450, 0, []
1629045097.6467, 15, 0, 4155.385, 4588.718, 4126.154, 4135.897, 4147.179, 16203, 0, []
1629045097.6546, 16, 0, 4164.615, 4600, 4131.282, 4148.718, 4154.359, 0, 0, []
1629045097.6624, 17, 0, 4184.615, 4621.026, 4152.308, 4170.256, 4182.564, 0, 0, []
1629045097.6703, 18, 0, 4192.308, 4614.872, 4124.103, 4165.641, 4198.974, 0, 0, []
1629045097.6781, 19, 0, 4189.744, 4580.513, 4141.026, 4156.923, 4205.128, 0, 0, []
1629045097.686, 20, 0, 4193.333, 4583.077, 4121.026, 4156.923, 4208.205, 0, 0, []
1629045097.6937, 21, 0, 4195.385, 4597.949, 4123.077, 4161.538, 4203.59, 0, 0, []
1629045097.7017, 22, 0, 4187.179, 4578.462, 4134.359, 4158.462, 4191.795, 0, 0, []
1629045097.7096, 23, 0, 4177.436, 4571.795, 4102.564, 4144.615, 4184.615, 0, 0, []
1629045097.7176, 24, 0, 4172.308, 4602.051, 4142.564, 4147.179, 4181.026, 0, 0, []
1629045097.7255, 25, 0, 4172.308, 4609.231, 4136.41, 4156.41, 4176.41, 0, 0, []
1629045097.7334, 26, 0, 4164.103, 4576.41, 4113.333, 4139.487, 4162.051, 0, 0, []
1629045097.7413, 27, 0, 4148.718, 4576.923, 4130.769, 4125.641, 4153.846, 0, 0, []
1629045097.7493, 28, 0, 4151.282, 4610.256, 4125.128, 4146.154, 4169.744, 0, 0, []
1629045097.7572, 29, 0, 4181.026, 4623.077, 4163.077, 4174.872, 4191.795, 0, 0, []
1629045097.7652, 30, 0, 4192.308, 4623.077, 4146.667, 4174.359, 4196.41, 0, 0, []
1629045097.773, 31, 0, 4166.154, 4618.462, 4122.564, 4162.051, 4182.564, 0, 0, []
1629045097.781, 32, 0, 4149.231, 4598.462, 4143.077, 4152.308, 4171.282, 0, 0, []
1629045097.7889, 33, 0, 4148.205, 4594.359, 4116.41, 4138.462, 4162.564, 0, 0, []
1629045097.7967, 34, 0, 4148.718, 4625.128, 4145.641, 4146.667, 4164.615, 0, 0, []
1629045097.8046, 35, 0, 4156.923, 4634.872, 4154.872, 4160.513, 4176.923, 0, 0, []
1629045097.8123, 36, 0, 4158.462, 4617.436, 4138.974, 4157.436, 4175.385, 0, 0, []
1629045097.8202, 37, 0, 4154.359, 4624.615, 4154.359, 4154.872, 4173.333, 0, 0, []
1629045097.828, 38, 0, 4160, 4629.744, 4123.077, 4156.41, 4182.564, 0, 0, []
1629045097.8359, 39, 0, 4171.795, 4611.795, 4148.205, 4167.692, 4188.718, 0, 0, []
1629045097.8437, 40, 0, 4178.462, 4619.487, 4150.769, 4178.974, 4191.795, 0, 0, []
1629045097.8515, 41, 0, 4165.128, 4627.692, 4107.692, 4168.205, 4184.103, 0, 0, []
1629045097.8593, 42, 0, 4148.205, 4607.692, 4129.231, 4156.923, 4170.256, 0, 0, []
1629045097.8672, 43, 0, 4155.385, 4614.359, 4133.333, 4170.769, 4180, 0, 0, []
1629045097.875, 44, 0, 4159.487, 4630.256, 4156.923, 4182.051, 4190.769, 0, 0, []
1629045097.883, 45, 0, 4141.026, 4620.513, 4148.205, 4166.154, 4174.359, 0, 0, []
1629045097.8908, 46, 0, 4129.231, 4616.923, 4126.154, 4158.974, 4159.487, 0, 0, []
1629045097.8988, 47, 0, 4134.359, 4617.949, 4161.538, 4163.59, 4154.872, 0, 0, []
1629045097.9067, 48, 0, 4140, 4607.692, 4132.821, 4157.949, 4156.923, 0, 0, []
1629045097.9147, 49, 0, 4150.769, 4604.615, 4144.103, 4170.256, 4173.846, 0, 0, []
1629045097.9226, 50, 0, 4166.667, 4618.462, 4169.231, 4187.692, 4190.256, 0, 0, []
1629045097.9305, 51, 0, 4171.795, 4636.923, 4149.231, 4193.846, 4198.462, 0, 0, []
1629045097.9384, 52, 0, 4174.359, 4647.692, 4179.487, 4204.103, 4204.103, 0, 0, []
1629045097.9462, 53, 0, 4178.974, 4631.282, 4158.462, 4204.615, 4196.923, 0, 0, []
1629045097.9541, 54, 0, 4176.41, 4610.256, 4152.308, 4198.462, 4182.564, 0, 0, []
1629045097.9619, 55, 0, 4173.846, 4621.026, 4169.231, 4200.513, 4181.538, 0, 0, []
1629045097.9697, 56, 0, 4167.692, 4617.949, 4140.513, 4189.231, 4175.385, 0, 0, []
1629045097.9775, 57, 0, 4150.769, 4593.846, 4162.051, 4169.231, 4154.872, 0, 0, []
1629045097.9854, 58, 0, 4156.923, 4607.179, 4159.487, 4182.051, 4163.077, 0, 0, []
1629045097.9932, 59, 0, 4192.308, 4628.718, 4177.436, 4224.615, 4200.513, 0, 0, []
1629045098.0011, 60, 0, 4200, 4611.795, 4200, 4229.744, 4209.231, 0, 0, []
1629045098.0089, 61, 0, 4178.462, 4603.077, 4163.59, 4213.333, 4185.128, 0, 0, []
1629045098.0168, 62, 0, 4181.538, 4607.692, 4185.641, 4219.487, 4182.564, 0, 0, []
1629045098.0247, 63, 0, 4189.231, 4579.487, 4163.077, 4209.744, 4190.256, 0, 0, []
1629045098.0327, 64, 0, 4180, 4567.692, 4154.359, 4196.923, 4180, 450, 0, []
1629045098.0406, 65, 0, 4191.795, 4600, 4200, 4221.026, 4186.667, 450, 0, []
1629045098.0486, 66, 0, 4202.051, 4602.051, 4167.179, 4231.282, 4196.923, 16189, 0, []
1629045098.0564, 67, 0, 4187.692, 4570.256, 4173.333, 4214.872, 4187.179, 450, 0, []
1629045098.0644, 68, 0, 4193.333, 4581.538, 4179.487, 4211.282, 4192.821, 16162, 0, []
1629045098.0723, 69, 0, 4198.462, 4611.282, 4161.026, 4212.821, 4195.385, 450, 0, []
1629045098.0803, 70, 0, 4173.846, 4595.385, 4163.077, 4195.897, 4169.744, 314, 0, []
1629045098.0882, 71, 0, 4168.718, 4567.692, 4139.487, 4180.513, 4165.641, 450, 0, []
1629045098.0959, 72, 0, 4190.256, 4574.872, 4171.795, 4191.795, 4183.077, 450, 0, []
1629045098.1038, 73, 0, 4191.282, 4586.667, 4162.564, 4198.462, 4179.487, 16144, 0, []
1629045098.1116, 74, 0, 4181.026, 4562.051, 4135.897, 4198.974, 4177.949, 450, 0, []
1629045098.1195, 75, 0, 4189.231, 4540, 4177.436, 4213.846, 4192.308, 16203, 0, []
1629045098.1273, 76, 0, 4195.897, 4552.308, 4154.359, 4216.41, 4191.282, 450, 0, []
1629045098.1351, 77, 0, 4191.282, 4553.333, 4150.769, 4202.051, 4184.615, 450, 0, []
1629045098.1429, 78, 0, 4193.846, 4543.59, 4150.769, 4192.821, 4192.821, 450, 0, []
1629045098.1508, 79, 0, 4206.667, 4544.103, 4138.462, 4200.513, 4201.026, 16203, 0, []
1629045098.1586, 80, 0, 4210.769, 4548.205, 4170.256, 4209.744, 4198.462, 450, 0, []
1629045098.1666, 81, 0, 4200.513, 4555.897, 4137.436, 4201.538, 4195.385, 450, 0, []
1629045098.1744, 82, 0, 4197.436, 4547.179, 4145.641, 4198.462, 4191.282, 450, 0, []
1629045098.1824, 83, 0, 4205.641, 4530.256, 4171.795, 4207.692, 4192.308, 16203, 0, []
1629045098.1903, 84, 0, 4200, 4531.795, 4149.744, 4205.641, 4194.872, 450, 0, []
1629045098.1983, 85, 0, 4185.641, 4525.641, 4169.231, 4193.333, 4180.513, 450, 0, []
1629045098.2062, 86, 0, 4194.872, 4513.846, 4155.897, 4187.692, 4171.282, 450, 0, []
1629045098.2141, 87, 0, 4209.744, 4525.641, 4168.205, 4195.897, 4184.615, 16203, 0, []
1629045098.222, 88, 0, 4197.949, 4531.282, 4165.641, 4193.333, 4180.513, 450, 0, []
1629045098.23, 89, 0, 4189.231, 4500.513, 4124.615, 4189.231, 4171.795, 450, 0, []
1629045098.2379, 90, 0, 4204.103, 4485.641, 4177.949, 4211.282, 4194.872, 450, 0, []
1629045098.2457, 91, 0, 4210.769, 4498.462, 4179.487, 4217.436, 4207.692, 16203, 0, []
1629045098.2535, 92, 0, 4198.974, 4492.308, 4162.564, 4196.923, 4186.154, 450, 0, []
1629045098.2613, 93, 0, 4189.231, 4477.436, 4179.487, 4179.487, 4175.897, 450, 0, []
1629045098.2692, 94, 0, 4168.718, 4482.051, 4147.179, 4167.179, 4170.256, 450, 0, []
1629045098.277, 95, 0, 4150.256, 4494.359, 4157.436, 4172.821, 4152.308, 16203, 0, []
1629045098.2849, 96, 0, 4163.077, 4487.179, 4152.821, 4195.385, 4160.513, 450, 0, []
1629045098.2926, 97, 0, 4194.872, 4477.436, 4168.205, 4218.974, 4190.769, 450, 0, []
1629045098.3005, 98, 0, 4206.154, 4484.103, 4191.795, 4219.487, 4196.923, 450, 0, []
1629045098.3083, 99, 0, 4184.615, 4472.308, 4132.821, 4187.692, 4173.846, 16203, 0, []
1629045098.3162, 100, 0, 4167.179, 4449.231, 4136.923, 4164.615, 4159.487, 450, 0, []
1629045098.324, 101, 0, 4169.231, 4459.487, 4137.436, 4165.641, 4163.59, 450, 0, []
1629045098.3318, 102, 0, 4173.333, 4478.974, 4130.256, 4172.308, 4167.692, 450, 0, []
1629045098.3396, 103, 0, 4173.333, 4467.179, 4155.897, 4174.359, 4168.718, 16203, 0, []
1629045098.3476, 104, 0, 4167.179, 4448.205, 4123.077, 4167.692, 4155.897, 450, 0, []
1629045098.3555, 105, 0, 4165.641, 4451.282, 4142.564, 4169.744, 4150.769, 450, 0, []
1629045098.3635, 106, 0, 4184.103, 4464.615, 4157.949, 4184.103, 4174.359, 450, 0, []
1629045098.3714, 107, 0, 4196.41, 4468.718, 4148.205, 4192.821, 4191.795, 16203, 0, []
1629045098.3793, 108, 0, 4193.846, 4462.564, 4169.744, 4187.179, 4185.641, 450, 0, []
1629045098.3872, 109, 0, 4200, 4460.513, 4145.128, 4178.462, 4186.154, 450, 0, []
1629045098.3952, 110, 0, 4203.59, 4468.718, 4165.128, 4183.59, 4193.846, 450, 0, []
1629045098.4031, 111, 0, 4188.718, 4477.436, 4164.615, 4184.615, 4186.154, 16203, 0, []
1629045098.4109, 112, 0, 4176.923, 4480.513, 4131.282, 4176.923, 4171.282, 450, 0, []
1629045098.4187, 113, 0, 4180.513, 4483.077, 4157.949, 4172.308, 4170.256, 450, 0, []
1629045098.4265, 114, 0, 4189.744, 4485.641, 4141.026, 4168.718, 4180.513, 450, 0, []
1629045098.4344, 115, 0, 4198.974, 4473.846, 4154.872, 4176.923, 4190.769, 16203, 0, []
1629045098.4422, 116, 0, 4194.359, 4457.949, 4154.872, 4174.872, 4182.051, 450, 0, []
1629045098.4501, 117, 0, 4182.564, 4463.077, 4123.077, 4160.513, 4165.641, 450, 0, []
1629045098.4578, 118, 0, 4189.744, 4476.41, 4173.333, 4172.308, 4169.744, 450, 0, []
1629045098.4657, 119, 0, 4186.154, 4458.974, 4154.359, 4172.308, 4169.744, 16203, 0, []
1629045098.4735, 120, 0, 4169.231, 4432.308, 4138.974, 4148.718, 4154.872, 450, 0, []
1629045098.4815, 121, 0, 4184.103, 4443.077, 4173.846, 4160.513, 4171.282, 450, 0, []
1629045098.4894, 122, 0, 4203.59, 4466.667, 4175.385, 4195.897, 4204.103, 450, 0, []
1629045098.4973, 123, 0, 4191.795, 4469.744, 4193.846, 4200.513, 4194.359, 16203, 0, []
1629045098.5052, 124, 0, 4178.462, 4460.513, 4148.205, 4176.41, 4167.179, 450, 0, []
1629045098.5132, 125, 0, 4180.513, 4437.436, 4133.333, 4165.641, 4162.564, 450, 0, []
1629045098.5211, 126, 0, 4189.231, 4429.231, 4168.205, 4171.795, 4172.308, 450, 0, []
1629045098.5291, 127, 0, 4200.513, 4451.795, 4155.897, 4178.974, 4181.538, 16203, 0, []
1629045098.5369, 128, 0, 4201.026, 4452.821, 4168.718, 4178.974, 4176.923, 450, 0, []
1629045098.5449, 0, 0, 4191.282, 4440.513, 4140, 4164.615, 4169.231, 450, 0, []
1629045098.5528, 1, 0, 4181.538, 4441.538, 4133.333, 4156.41, 4166.154, 450, 0, []
1629045098.5607, 2, 0, 4174.359, 4435.897, 4159.487, 4157.436, 4158.462, 16189, 0, []
1629045098.5686, 3, 0, 4177.949, 4440.513, 4132.308, 4156.923, 4155.897, 450, 0, []
1629045098.5765, 4, 0, 4191.282, 4453.333, 4158.462, 4161.538, 4168.205, 16162, 0, []
1629045098.5844, 5, 0, 4188.718, 4441.026, 4144.615, 4153.333, 4174.359, 450, 0, []
1629045098.5922, 6, 0, 4180, 4429.231, 4132.308, 4144.103, 4164.103, 310, 0, []
1629045098.6001, 7, 0, 4193.333, 4437.949, 4177.436, 4154.872, 4166.154, 450, 0, []
1629045098.6079, 8, 0, 4208.718, 4435.385, 4156.41, 4165.641, 4182.051, 450, 0, []
1629045098.6157, 9, 0, 4208.205, 4426.667, 4164.615, 4162.051, 4178.462, 16144, 0, []
1629045098.6235, 10, 0, 4201.538, 4418.462, 4149.231, 4143.077, 4163.077, 450, 0, []
1629045098.6315, 11, 0, 4201.538, 4414.872, 4135.385, 4137.949, 4165.128, 16203, 0, []
1629045098.6394, 12, 0, 4207.179, 4436.41, 4180, 4149.744, 4172.308, 450, 0, []
1629045098.6474, 13, 0, 4213.846, 4444.103, 4152.308, 4149.231, 4169.231, 450, 0, []
1629045098.6552, 14, 0, 4219.487, 4415.385, 4158.462, 4154.872, 4177.436, 450, 0, []
1629045098.6632, 15, 0, 4206.667, 4401.026, 4156.923, 4161.538, 4180.513, 16203, 0, []
1629045098.6711, 16, 0, 4184.615, 4410.769, 4130.256, 4154.359, 4163.59, 0, 0, []
1629045098.6791, 17, 0, 4188.205, 4413.846, 4172.308, 4158.974, 4166.154, 0, 0, []
1629045098.687, 18, 0, 4207.179, 4418.462, 4166.154, 4173.333, 4192.308, 0, 0, []
1629045098.6949, 19, 0, 4200, 4412.308, 4158.974, 4166.154, 4190.769, 0, 0, []
1629045098.7028, 20, 0, 4170.256, 4384.103, 4143.077, 4132.308, 4155.385, 0, 0, []
1629045098.7107, 21, 0, 4162.564, 4377.949, 4124.103, 4124.615, 4146.667, 0, 0, []
1629045098.7186, 22, 0, 4174.872, 4385.641, 4163.59, 4139.487, 4165.128, 0, 0, []
1629045098.7264, 23, 0, 4185.128, 4370.256, 4139.487, 4135.897, 4170.256, 0, 0, []
1629045098.7343, 24, 0, 4203.59, 4370.256, 4155.897, 4148.205, 4181.026, 0, 0, []
1629045098.742, 25, 0, 4218.462, 4398.462, 4183.077, 4174.359, 4200, 0, 0, []
1629045098.7499, 26, 0, 4203.077, 4393.846, 4141.538, 4166.667, 4192.308, 0, 0, []
1629045098.7577, 27, 0, 4194.359, 4375.897, 4160.513, 4153.846, 4173.846, 0, 0, []
1629045098.7656, 28, 0, 4206.667, 4387.179, 4146.154, 4155.897, 4176.41, 0, 0, []
1629045098.7734, 29, 0, 4189.231, 4367.692, 4130.769, 4145.641, 4164.103, 0, 0, []
1629045098.7812, 30, 0, 4163.077, 4331.795, 4142.051, 4128.718, 4147.179, 0, 0, []
1629045098.789, 31, 0, 4180.513, 4352.821, 4129.744, 4136.923, 4168.205, 0, 0, []
1629045098.797, 32, 0, 4207.179, 4380, 4169.231, 4160.513, 4194.359, 0, 0, []
1629045098.8049, 33, 0, 4206.154, 4378.974, 4156.41, 4165.128, 4194.359, 0, 0, []
1629045098.8129, 34, 0, 4194.872, 4377.949, 4146.667, 4156.923, 4184.615, 0, 0, []
1629045098.8207, 35, 0, 4195.385, 4370.256, 4170.256, 4150.769, 4186.154, 0, 0, []
1629045098.8287, 36, 0, 4209.744, 4362.564, 4149.744, 4151.795, 4189.744, 0, 0, []
1629045098.8366, 37, 0, 4213.333, 4368.718, 4173.846, 4161.538, 4186.667, 0, 0, []
1629045098.8446, 38, 0, 4189.744, 4363.077, 4144.615, 4152.308, 4170.769, 0, 0, []
1629045098.8525, 39, 0, 4172.821, 4333.333, 4118.974, 4140, 4157.949, 0, 0, []
1629045098.8604, 40, 0, 4190.256, 4324.103, 4166.667, 4153.846, 4173.846, 0, 0, []
1629045098.8683, 41, 0, 4209.744, 4339.487, 4153.846, 4161.538, 4196.923, 0, 0, []
1629045098.8761, 42, 0, 4208.718, 4330.769, 4167.179, 4150.256, 4195.897, 0, 0, []
1629045098.884, 43, 0, 4217.436, 4323.077, 4167.692, 4146.154, 4197.436, 0, 0, []
1629045098.8918, 44, 0, 4252.308, 4354.872, 4153.846, 4165.641, 4230.256, 0, 0, []
1629045098.8996, 45, 0, 4295.897, 4385.641, 4178.462, 4189.744, 4268.205, 0, 0, []
1629045098.9074, 46, 0, 4333.846, 4387.692, 4160, 4199.487, 4293.846, 0, 0, []
1629045098.9153, 47, 0, 4365.641, 4388.205, 4186.667, 4201.026, 4314.359, 0, 0, []
1629045098.9231, 48, 0, 4392.821, 4390.769, 4183.077, 4189.231, 4325.641, 0, 0, []
1629045098.931, 49, 0, 4415.385, 4373.846, 4148.718, 4181.538, 4330.769, 0, 0, []
1629045098.9387, 50, 0, 4422.564, 4370.769, 4176.41, 4187.179, 4340.513, 0, 0, []
1629045098.9467, 51, 0, 4409.744, 4393.333, 4153.333, 4183.077, 4338.462, 0, 0, []
1629045098.9546, 52, 0, 4394.872, 4388.718, 4166.154, 4182.564, 4318.974, 0, 0, []
1629045098.9626, 53, 0, 4390.256, 4374.872, 4186.667, 4194.872, 4316.41, 0, 0, []
1629045098.9705, 54, 0, 4371.282, 4381.026, 4166.154, 4199.487, 4316.41, 0, 0, []
1629045098.9784, 55, 0, 4348.205, 4377.436, 4188.718, 4199.487, 4295.385, 0, 0, []
1629045098.9863, 56, 0, 4334.359, 4363.59, 4158.974, 4193.846, 4276.923, 0, 0, []
1629045098.9943, 57, 0, 4312.308, 4359.487, 4154.359, 4184.615, 4261.026, 0, 0, []
1629045099.0022, 58, 0, 4296.41, 4362.051, 4166.154, 4184.103, 4249.231, 0, 0, []
1629045099.0102, 59, 0, 4307.179, 4365.128, 4148.205, 4196.41, 4258.974, 0, 0, []
1629045099.018, 60, 0, 4318.974, 4379.487, 4190.769, 4209.744, 4270.769, 0, 0, []
1629045099.0258, 61, 0, 4302.051, 4386.667, 4172.821, 4199.487, 4255.385, 0, 0, []
1629045099.0337, 62, 0, 4276.923, 4372.821, 4162.051, 4190.256, 4235.897, 0, 0, []
1629045099.0415, 63, 0, 4277.436, 4370.256, 4184.615, 4196.923, 4242.564, 0, 0, []
1629045099.0494, 64, 0, 4296.923, 4384.103, 4165.128, 4206.154, 4258.462, 450, 0, []
1629045099.0571, 65, 0, 4311.282, 4389.744, 4203.077, 4222.564, 4265.128, 450, 0, []
1629045099.065, 66, 0, 4305.128, 4389.744, 4197.949, 4224.103, 4260, 16187, 0, []
1629045099.0728, 67, 0, 4284.615, 4387.179, 4178.974, 4208.205, 4246.154, 450, 0, []
1629045099.0807, 68, 0, 4265.641, 4372.821, 4178.462, 4191.282, 4228.205, 16162, 0, []
1629045099.0885, 69, 0, 4269.231, 4370.769, 4150.256, 4189.231, 4221.026, 450, 0, []
1629045099.0965, 70, 0, 4282.051, 4386.154, 4185.641, 4205.641, 4229.744, 306, 0, []
1629045099.1043, 71, 0, 4267.692, 4374.359, 4158.462, 4205.641, 4224.103, 450, 0, []
1629045099.1123, 72, 0, 4247.692, 4348.205, 4133.333, 4193.333, 4208.718, 450, 0, []
1629045099.1202, 73, 0, 4258.974, 4357.949, 4184.615, 4207.179, 4221.538, 16143, 0, []
1629045099.1282, 74, 0, 4274.872, 4378.462, 4173.333, 4223.59, 4238.974, 450, 0, []
1629045099.1361, 75, 0, 4256.41, 4373.333, 4176.923, 4208.718, 4222.051, 16202, 0, []
1629045099.144, 76, 0, 4232.308, 4362.051, 4160, 4186.154, 4200.513, 450, 0, []
1629045099.1519, 77, 0, 4236.923, 4355.897, 4148.718, 4191.282, 4210.256, 450, 0, []
1629045099.1599, 78, 0, 4252.821, 4364.615, 4188.718, 4206.667, 4228.718, 450, 0, []
1629045099.1678, 79, 0, 4250.769, 4376.923, 4163.077, 4201.538, 4228.718, 16202, 0, []
1629045099.1757, 80, 0, 4236.41, 4364.103, 4169.231, 4196.41, 4216.41, 450, 0, []
1629045099.1835, 81, 0, 4221.026, 4347.692, 4162.564, 4193.333, 4205.641, 450, 0, []
1629045099.1913, 82, 0, 4209.744, 4340, 4135.897, 4190.769, 4200.513, 450, 0, []
1629045099.1992, 83, 0, 4223.59, 4347.179, 4172.821, 4202.564, 4213.333, 16202, 0, []
1629045099.207, 84, 0, 4243.077, 4366.667, 4160, 4208.718, 4232.308, 450, 0, []
1629045099.2149, 85, 0, 4236.41, 4357.436, 4166.154, 4205.128, 4221.538, 450, 0, []
1629045099.2226, 86, 0, 4226.154, 4337.949, 4172.821, 4207.692, 4204.615, 450, 0, []
1629045099.2305, 87, 0, 4231.795, 4364.615, 4158.974, 4212.821, 4211.795, 16202, 0, []
1629045099.2383, 88, 0, 4234.872, 4385.128, 4189.744, 4207.692, 4212.308, 450, 0, []
1629045099.2462, 89, 0, 4228.205, 4367.692, 4166.154, 4206.154, 4210.769, 450, 0, []
1629045099.254, 90, 0, 4224.103, 4361.026, 4175.897, 4221.538, 4215.897, 450, 0, []
1629045099.2619, 91, 0, 4215.897, 4355.897, 4180, 4208.718, 4203.077, 16202, 0, []
1629045099.2698, 92, 0, 4209.744, 4346.667, 4138.974, 4187.692, 4188.718, 450, 0, []
1629045099.2778, 93, 0, 4217.436, 4360, 4169.744, 4196.923, 4202.564, 450, 0, []
1629045099.2857, 94, 0, 4225.128, 4361.538, 4156.923, 4198.462, 4210.256, 450, 0, []
1629045099.2937, 95, 0, 4221.538, 4326.154, 4153.846, 4188.718, 4195.385, 16202, 0, []
1629045099.3015, 96, 0, 4215.897, 4316.41, 4168.718, 4188.718, 4191.282, 450, 0, []
1629045099.3095, 97, 0, 4218.974, 4342.564, 4139.487, 4188.718, 4201.026, 450, 0, []
1629045099.3174, 98, 0, 4229.744, 4340, 4174.872, 4192.821, 4208.718, 450, 0, []
1629045099.3254, 99, 0, 4231.282, 4325.128, 4170.256, 4192.821, 4208.205, 16202, 0, []
1629045099.3333, 100, 0, 4223.077, 4341.538, 4168.205, 4188.205, 4206.154, 450, 0, []
1629045099.341, 101, 0, 4217.436, 4357.436, 4190.256, 4187.692, 4198.974, 450, 0, []
1629045099.3489, 102, 0, 4213.846, 4338.462, 4151.282, 4186.154, 4185.128, 450, 0, []
1629045099.3567, 103, 0, 4218.462, 4325.641, 4172.821, 4196.923, 4185.641, 16202, 0, []
1629045099.3646, 104, 0, 4223.077, 4328.718, 4171.795, 4209.744, 4191.795, 450, 0, []
1629045099.3724, 105, 0, 4206.154, 4308.718, 4152.821, 4203.59, 4177.949, 450, 0, []
1629045099.3802, 106, 0, 4187.692, 4298.462, 4164.103, 4184.103, 4161.538, 450, 0, []
1629045099.388, 107, 0, 4198.462, 4326.667, 4140, 4172.821, 4174.872, 16202, 0, []
1629045099.3959, 108, 0, 4223.59, 4337.436, 4174.872, 4177.436, 4206.154, 450, 0, []
1629045099.4037, 109, 0, 4226.154, 4305.128, 4170.769, 4178.462, 4221.026, 450, 0, []
1629045099.4117, 110, 0, 4209.231, 4289.744, 4146.667, 4181.026, 4208.205, 450, 0, []
1629045099.4196, 111, 0, 4200, 4300, 4175.385, 4188.205, 4197.949, 16202, 0, []
1629045099.4275, 112, 0, 4203.077, 4295.897, 4151.795, 4189.744, 4204.615, 450, 0, []
1629045099.4354, 113, 0, 4200.513, 4292.308, 4166.667, 4183.077, 4196.923, 450, 0, []
1629045099.4434, 114, 0, 4191.795, 4302.051, 4160, 4156.923, 4180.513, 450, 0, []
1629045099.4513, 115, 0, 4195.897, 4299.487, 4136.923, 4142.564, 4188.205, 16202, 0, []
1629045099.4593, 116, 0, 4203.59, 4292.821, 4172.308, 4155.897, 4194.872, 450, 0, []
1629045099.4671, 117, 0, 4197.436, 4298.974, 4148.718, 4161.026, 4181.026, 450, 0, []
1629045099.4751, 118, 0, 4197.949, 4291.795, 4167.179, 4171.795, 4187.179, 450, 0, []
1629045099.483, 119, 0, 4210.256, 4283.077, 4185.128, 4192.821, 4207.692, 16202, 0, []
1629045099.4908, 120, 0, 4203.59, 4289.744, 4147.692, 4191.282, 4198.462, 450, 0, []
1629045099.4987, 121, 0, 4186.154, 4286.667, 4162.051, 4171.795, 4174.872, 450, 0, []
1629045099.5064, 122, 0, 4187.692, 4283.59, 4148.718, 4159.487, 4176.923, 450, 0, []
1629045099.5143, 123, 0, 4194.872, 4283.59, 4153.846, 4161.026, 4189.744, 16202, 0, []
1629045099.5221, 124, 0, 4185.641, 4264.103, 4150.769, 4156.41, 4183.59, 450, 0, []
1629045099.53, 125, 0, 4175.385, 4237.436, 4126.154, 4151.795, 4175.385, 450, 0, []
1629045099.5378, 126, 0, 4185.641, 4246.667, 4177.949, 4168.205, 4189.744, 450, 0, []
1629045099.5456, 127, 0, 4202.564, 4278.974, 4173.846, 4184.103, 4211.282, 16202, 0, []
1629045099.5534, 128, 0, 4200, 4267.179, 4167.179, 4175.385, 4201.026, 450, 0, []
1629045099.5613, 0, 0, 4185.128, 4224.103, 4172.308, 4154.359, 4175.897, 450, 0, []
1629045099.5692, 1, 0, 4177.949, 4201.538, 4136.923, 4146.667, 4170.769, 450, 0, []
1629045099.5772, 2, 0, 4189.231, 4190.769, 4173.333, 4162.564, 4184.103, 16187, 0, []
1629045099.5851, 3, 0, 4209.231, 4190.769, 4174.359, 4180.513, 4202.051, 450, 0, []
1629045099.593, 4, 0, 4199.487, 4184.103, 4158.462, 4170.769, 4191.282, 16162, 0, []
1629045099.6009, 5, 0, 4169.231, 4158.974, 4156.41, 4143.59, 4164.615, 450, 0, []
1629045099.6089, 6, 0, 4173.846, 4165.128, 4129.744, 4142.564, 4173.846, 307, 0, []
1629045099.6168, 7, 0, 4190.256, 4189.231, 4160.513, 4156.923, 4187.692, 450, 0, []
1629045099.6247, 8, 0, 4171.282, 4165.641, 4131.282, 4134.872, 4157.436, 450, 0, []
1629045099.6326, 9, 0, 4166.667, 4140, 4117.436, 4124.615, 4142.564, 16144, 0, []
1629045099.6406, 10, 0, 4200.513, 4166.154, 4169.231, 4157.949, 4181.538, 450, 0, []
1629045099.6485, 11, 0, 4204.615, 4172.308, 4147.179, 4167.179, 4192.821, 16202, 0, []
1629045099.6563, 12, 0, 4178.462, 4140.513, 4157.949, 4153.333, 4170.256, 450, 0, []
1629045099.6641, 13, 0, 4173.333, 4141.026, 4152.308, 4147.179, 4168.718, 450, 0, []
1629045099.6719, 14, 0, 4176.923, 4161.538, 4137.949, 4143.077, 4164.615, 450, 0, []
1629045099.6798, 15, 0, 4169.231, 4152.308, 4164.103, 4136.923, 4141.026, 16202, 0, []
1629045099.6876, 16, 0, 4165.641, 4145.641, 4136.923, 4136.923, 4138.462, 0, 0, []
1629045099.6955, 17, 0, 4172.308, 4170.256, 4159.487, 4149.744, 4156.41, 0, 0, []
1629045099.7032, 18, 0, 4170.256, 4165.128, 4157.949, 4146.154, 4152.308, 0, 0, []
1629045099.7111, 19, 0, 4161.538, 4151.795, 4131.282, 4128.718, 4140, 0, 0, []
1629045099.7189, 20, 0, 4165.641, 4222.051, 4164.615, 4130.769, 4144.103, 0, 0, []
1629045099.7269, 21, 0, 4182.051, 4322.051, 4151.795, 4150.769, 4164.615, 0, 0, []
1629045099.7348, 22, 0, 4192.308, 4349.744, 4166.667, 4165.128, 4178.974, 0, 0, []
1629045099.7427, 23, 0, 4187.692, 4335.897, 4162.051, 4154.872, 4176.923, 0, 0, []
1629045099.7506, 24, 0, 4178.974, 4335.897, 4132.821, 4146.667, 4170.256, 0, 0, []
1629045099.7586, 25, 0, 4176.923, 4348.205, 4172.308, 4160, 4171.795, 0, 0, []
1629045099.7665, 26, 0, 4173.333, 4361.538, 4145.128, 4158.974, 4165.128, 0, 0, []
1629045099.7745, 27, 0, 4152.308, 4339.487, 4127.692, 4141.538, 4136.923, 0, 0, []
1629045099.7824, 28, 0, 4146.154, 4312.308, 4141.538, 4137.949, 4128.718, 0, 0, []
1629045099.7903, 29, 0, 4163.59, 4324.615, 4137.436, 4145.128, 4152.308, 0, 0, []
1629045099.7982, 30, 0, 4159.487, 4324.615, 4162.564, 4140.513, 4152.308, 0, 0, []
1629045099.806, 31, 0, 4138.974, 4303.59, 4129.744, 4128.718, 4134.872, 0, 0, []
1629045099.8139, 32, 0, 4143.59, 4299.487, 4137.949, 4139.487, 4147.179, 0, 0, []
1629045099.8217, 33, 0, 4171.282, 4305.128, 4169.744, 4154.872, 4171.795, 0, 0, []
1629045099.8295, 34, 0, 4191.282, 4310.769, 4144.615, 4161.538, 4179.487, 0, 0, []
1629045099.8373, 35, 0, 4192.821, 4321.026, 4176.41, 4173.846, 4181.026, 0, 0, []
1629045099.8452, 36, 0, 4190.256, 4333.846, 4172.308, 4182.564, 4187.692, 0, 0, []
1629045099.853, 37, 0, 4200, 4332.821, 4175.897, 4199.487, 4197.949, 0, 0, []
1629045099.8609, 38, 0, 4208.718, 4318.974, 4188.718, 4214.359, 4205.641, 0, 0, []
1629045099.8686, 39, 0, 4204.103, 4318.462, 4150.769, 4205.641, 4206.154, 0, 0, []
1629045099.8765, 40, 0, 4208.718, 4326.154, 4193.333, 4208.205, 4205.128, 0, 0, []
1629045099.8843, 41, 0, 4225.641, 4316.923, 4202.051, 4225.641, 4209.744, 0, 0, []
1629045099.8923, 42, 0, 4218.462, 4300.513, 4174.872, 4216.41, 4202.564, 0, 0, []
1629045099.9002, 43, 0, 4191.795, 4295.385, 4175.385, 4187.692, 4184.615, 0, 0, []
1629045099.9081, 44, 0, 4189.744, 4289.744, 4155.385, 4191.282, 4183.59, 0, 0, []
1629045099.916, 45, 0, 4217.436, 4295.897, 4199.487, 4226.154, 4206.154, 0, 0, []
1629045099.924, 46, 0, 4224.615, 4303.59, 4189.231, 4227.179, 4217.949, 0, 0, []
1629045099.9319, 47, 0, 4196.41, 4278.974, 4152.821, 4192.821, 4192.308, 0, 0, []
1629045099.9399, 48, 0, 4189.231, 4273.846, 4186.667, 4192.308, 4180.513, 0, 0, []
1629045099.9477, 49, 0, 4204.615, 4287.692, 4170.769, 4215.385, 4199.487, 0, 0, []
1629045099.9557, 50, 0, 4196.923, 4278.462, 4180, 4215.385, 4195.897, 0, 0, []
1629045099.9636, 51, 0, 4184.103, 4277.949, 4173.846, 4198.974, 4176.41, 0, 0, []
1629045099.9714, 52, 0, 4197.436, 4270.769, 4162.051, 4200.513, 4187.692, 0, 0, []
1629045099.9793, 53, 0, 4214.872, 4235.897, 4197.949, 4214.872, 4207.692, 0, 0, []
1629045099.987, 54, 0, 4201.026, 4214.872, 4154.872, 4201.538, 4186.154, 0, 0, []
1629045099.9949, 55, 0, 4189.231, 4204.615, 4154.872, 4191.282, 4169.231, 0, 0, []
1629045100.0027, 56, 0, 4215.385, 4199.487, 4179.487, 4207.692, 4202.564, 0, 0, []
1629045100.0106, 57, 0, 4234.872, 4216.923, 4165.641, 4222.564, 4225.128, 0, 0, []
1629045100.0184, 58, 0, 4208.718, 4212.821, 4168.205, 4209.231, 4199.487, 0, 0, []
1629045100.0262, 59, 0, 4181.538, 4198.974, 4131.282, 4187.692, 4179.487, 0, 0, []
1629045100.034, 60, 0, 4203.077, 4231.282, 4171.795, 4213.333, 4204.103, 0, 0, []
1629045100.042, 61, 0, 4226.667, 4248.205, 4211.282, 4242.051, 4222.051, 0, 0, []
1629045100.0499, 62, 0, 4208.718, 4214.359, 4173.333, 4224.615, 4202.051, 0, 0, []
1629045100.0579, 63, 0, 4195.897, 4209.744, 4188.205, 4209.744, 4193.333, 0, 0, []
1629045100.0657, 64, 0, 4207.692, 4230.769, 4166.667, 4214.359, 4209.231, 450, 0, []
1629045100.0737, 65, 0, 4198.974, 4212.308, 4149.744, 4201.538, 4196.923, 450, 0, []
1629045100.0816, 66, 0, 4176.41, 4203.59, 4157.436, 4185.641, 4171.795, 16185, 0, []
1629045100.0896, 67, 0, 4189.231, 4247.692, 4161.538, 4205.641, 4183.59, 450, 0, []
1629045100.0975, 68, 0, 4211.795, 4268.718, 4202.564, 4220, 4197.949, 16165, 0, []
1629045100.1054, 69, 0, 4202.564, 4238.974, 4162.564, 4193.333, 4175.897, 450, 0, []
1629045100.1133, 70, 0, 4189.744, 4212.821, 4156.41, 4183.59, 4162.564, 304, 0, []
1629045100.1211, 71, 0, 4204.103, 4232.821, 4200, 4206.667, 4181.538, 450, 0, []
1629045100.129, 72, 0, 4210.769, 4251.282, 4171.282, 4208.718, 4183.077, 450, 0, []
1629045100.1368, 73, 0, 4181.538, 4224.615, 4173.846, 4189.231, 4152.821, 16149, 0, []
1629045100.1447, 74, 0, 4167.179, 4213.846, 4154.872, 4182.564, 4148.205, 450, 0, []
1629045100.1524, 75, 0, 4192.308, 4231.282, 4156.923, 4197.949, 4179.487, 16198, 0, []
1629045100.1603, 76, 0, 4199.487, 4217.949, 4178.462, 4196.41, 4185.128, 450, 0, []
1629045100.1681, 77, 0, 4176.41, 4192.821, 4137.949, 4175.385, 4160.513, 450, 0, []
1629045100.176, 78, 0, 4175.385, 4204.615, 4165.128, 4183.077, 4159.487, 450, 0, []
1629045100.1838, 79, 0, 4192.308, 4218.974, 4170.769, 4195.385, 4178.974, 16198, 0, []
1629045100.1917, 80, 0, 4194.359, 4211.282, 4160.513, 4192.821, 4186.154, 450, 0, []
1629045100.1996, 81, 0, 4189.231, 4224.103, 4190.256, 4199.487, 4183.077, 450, 0, []
1629045100.2076, 82, 0, 4191.795, 4243.59, 4167.692, 4206.667, 4182.051, 450, 0, []
1629045100.2155, 83, 0, 4195.897, 4225.128, 4180, 4201.538, 4184.103, 16198, 0, []
1629045100.2235, 84, 0, 4198.974, 4202.051, 4180.513, 4191.795, 4188.205, 450, 0, []
1629045100.2313, 85, 0, 4198.462, 4211.282, 4168.205, 4189.231, 4188.205, 450, 0, []
1629045100.2393, 86, 0, 4189.744, 4216.923, 4162.564, 4188.718, 4183.077, 450, 0, []
1629045100.2472, 87, 0, 4182.051, 4198.462, 4161.026, 4187.179, 4184.103, 16198, 0, []
1629045100.2552, 88, 0, 4183.077, 4184.615, 4218.974, 4193.846, 4187.692, 450, 0, []
1629045100.2631, 89, 0, 4187.692, 4187.692, 4161.538, 4186.667, 4182.564, 450, 0, []
1629045100.2708, 90, 0, 4180.513, 4182.051, 4126.154, 4169.744, 4165.128, 450, 0, []
1629045100.2787, 91, 0, 4173.846, 4164.103, 4156.41, 4163.59, 4154.872, 16198, 0, []
1629045100.2865, 92, 0, 4184.103, 4157.949, 4133.846, 4176.923, 4169.744, 450, 0, []
1629045100.2944, 93, 0, 4189.744, 4159.487, 4202.564, 4189.744, 4180.513, 450, 0, []
1629045100.3022, 94, 0, 4178.974, 4157.436, 4167.179, 4172.308, 4168.205, 450, 0, []
1629045100.31, 95, 0, 4180.513, 4149.744, 4136.923, 4169.231, 4162.051, 16198, 0, []
1629045100.3178, 96, 0, 4192.308, 4135.897, 4203.077, 4188.718, 4166.667, 450, 0, []
1629045100.3257, 97, 0, 4180.513, 4120.513, 4132.308, 4177.949, 4152.821, 450, 0, []
1629045100.3335, 98, 0, 4158.974, 4115.385, 4146.154, 4153.333, 4127.692, 450, 0, []
1629045100.3415, 99, 0, 4162.564, 4116.923, 4163.59, 4144.103, 4130.256, 16198, 0, []
1629045100.3493, 100, 0, 4182.564, 4104.615, 4137.949, 4157.436, 4148.718, 450, 0, []
1629045100.3573, 101, 0, 4186.154, 4101.538, 4184.103, 4166.154, 4152.821, 450, 0, []
1629045100.3652, 102, 0, 4170.256, 4109.231, 4127.179, 4142.051, 4142.564, 450, 0, []
1629045100.3732, 103, 0, 4162.051, 4096.41, 4137.436, 4138.974, 4135.897, 16198, 0, []
1629045100.3811, 104, 0, 4170.256, 4087.179, 4173.333, 4159.487, 4139.487, 450, 0, []
1629045100.389, 105, 0, 4169.744, 4098.462, 4141.538, 4153.846, 4136.41, 450, 0, []
1629045100.3969, 106, 0, 4156.923, 4093.333, 4171.795, 4131.282, 4124.615, 450, 0, []
1629045100.4049, 107, 0, 4143.077, 4069.231, 4134.872, 4108.718, 4114.872, 16198, 0, []
1629045100.4128, 108, 0, 4131.282, 4063.59, 4131.282, 4109.744, 4107.692, 450, 0, []
1629045100.4206, 109, 0, 4142.051, 4091.282, 4161.538, 4137.436, 4118.462, 450, 0, []
1629045100.4284, 110, 0, 4163.59, 4107.692, 4141.026, 4163.077, 4140, 450, 0, []
1629045100.4362, 111, 0, 4168.718, 4094.359, 4168.718, 4163.59, 4144.103, 16198, 0, []
1629045100.4441, 112, 0, 4167.179, 4091.282, 4154.359, 4143.59, 4138.462, 450, 0, []
1629045100.4519, 113, 0, 4168.718, 4094.359, 4147.692, 4133.846, 4143.077, 450, 0, []
1629045100.4598, 114, 0, 4163.59, 4088.718, 4162.051, 4128.718, 4144.615, 450, 0, []
1629045100.4676, 115, 0, 4156.41, 4091.282, 4148.205, 4123.077, 4136.41, 16198, 0, []
1629045100.4754, 116, 0, 4156.41, 4093.846, 4177.436, 4132.308, 4129.744, 450, 0, []
1629045100.4832, 117, 0, 4153.333, 4090.769, 4162.564, 4144.103, 4123.077, 450, 0, []
1629045100.4911, 118, 0, 4153.333, 4094.872, 4125.641, 4147.692, 4127.692, 450, 0, []
1629045100.4989, 119, 0, 4151.795, 4081.538, 4180.513, 4140.513, 4129.744, 16198, 0, []
1629045100.5069, 120, 0, 4135.897, 4048.205, 4176.41, 4111.795, 4109.231, 450, 0, []
1629045100.5147, 121, 0, 4134.872, 4052.821, 4101.538, 4102.564, 4102.051, 450, 0, []
1629045100.5227, 122, 0, 4156.41, 4077.949, 4156.923, 4129.744, 4128.205, 450, 0, []
1629045100.5306, 123, 0, 4161.538, 4085.641, 4155.897, 4128.718, 4141.538, 16198, 0, []
1629045100.5386, 124, 0, 4153.333, 4088.205, 4108.205, 4116.41, 4132.308, 450, 0, []
1629045100.5465, 125, 0, 4151.282, 4080, 4168.718, 4126.154, 4124.103, 450, 0, []
1629045100.5543, 126, 0, 4147.179, 4069.744, 4164.103, 4121.026, 4114.359, 450, 0, []
1629045100.5622, 127, 0, 4144.103, 4076.923, 4137.949, 4110.256, 4107.179, 16198, 0, []
1629045100.5701, 128, 0, 4130.256, 4067.179, 4127.179, 4097.436, 4094.872, 450, 0, []
1629045100.5779, 0, 0, 4107.692, 4044.615, 4123.077, 4082.564, 4077.949, 450, 0, []
1629045100.5858, 1, 0, 4109.231, 4056.923, 4132.821, 4096.41, 4087.179, 450, 0, []
1629045100.5936, 2, 0, 4131.795, 4078.462, 4145.128, 4122.564, 4117.436, 16189, 0, []
1629045100.6014, 3, 0, 4157.949, 4075.897, 4170.769, 4131.282, 4139.487, 450, 0, []
1629045100.6093, 4, 0, 4172.821, 4062.051, 4147.179, 4125.128, 4148.205, 16165, 0, []
1629045100.6171, 5, 0, 4162.564, 4045.128, 4155.897, 4115.897, 4139.487, 450, 0, []
1629045100.625, 6, 0, 4144.615, 4034.872, 4143.59, 4099.487, 4118.974, 314, 0, []
1629045100.6327, 7, 0, 4143.59, 4042.564, 4130.256, 4104.103, 4111.282, 450, 0, []
1629045100.6406, 8, 0, 4131.795, 4051.282, 4161.538, 4123.59, 4100.513, 450, 0, []
1629045100.6484, 9, 0, 4093.333, 4034.359, 4116.923, 4105.641, 4067.179, 16149, 0, []
1629045100.6564, 10, 0, 4085.641, 4008.718, 4107.692, 4081.026, 4058.974, 450, 0, []
1629045100.6643, 11, 0, 4133.333, 4027.179, 4130.256, 4095.897, 4108.205, 16209, 0, []
1629045100.6722, 12, 0, 4182.051, 4070.769, 4155.385, 4131.795, 4154.872, 450, 0, []
1629045100.6801, 13, 0, 4203.59, 4087.179, 4183.59, 4150.256, 4165.128, 450, 0, []
1629045100.6881, 14, 0, 4210.769, 4087.692, 4149.744, 4144.615, 4168.718, 450, 0, []
1629045100.696, 15, 0, 4204.615, 4073.333, 4171.282, 4145.641, 4170.769, 16209, 0, []
1629045100.704, 16, 0, 4188.205, 4047.179, 4171.795, 4148.205, 4161.026, 0, 0, []
1629045100.7118, 17, 0, 4166.667, 4051.282, 4136.923, 4137.436, 4140, 0, 0, []
1629045100.7198, 18, 0, 4146.667, 4063.59, 4145.641, 4119.487, 4114.872, 0, 0, []
1629045100.7277, 19, 0, 4140.513, 4038.974, 4114.872, 4105.641, 4105.641, 0, 0, []
1629045100.7355, 20, 0, 4154.872, 4006.154, 4141.026, 4116.923, 4121.538, 0, 0, []
1629045100.7434, 21, 0, 4165.128, 3984.103, 4155.385, 4126.154, 4128.718, 0, 0, []
1629045100.7511, 22, 0, 4158.974, 3972.308, 4132.821, 4118.974, 4115.897, 0, 0, []
1629045100.759, 23, 0, 4164.615, 3975.897, 4170.769, 4134.359, 4128.718, 0, 0, []
1629045100.7668, 24, 0, 4171.795, 3966.667, 4157.436, 4153.846, 4154.359, 0, 0, []
1629045100.7747, 25, 0, 4164.103, 3944.103, 4153.333, 4146.154, 4146.154, 0, 0, []
1629045100.7825, 26, 0, 4150.256, 3927.692, 4145.641, 4124.615, 4122.564, 0, 0, []
1629045100.7903, 27, 0, 4148.718, 3912.821, 4131.795, 4122.564, 4116.41, 0, 0, []
1629045100.7981, 28, 0, 4157.949, 3912.308, 4172.308, 4139.487, 4126.667, 0, 0, []
1629045100.8061, 29, 0, 4168.205, 3918.974, 4148.205, 4146.667, 4138.974, 0, 0, []
1629045100.814, 30, 0, 4182.051, 3903.077, 4155.897, 4152.821, 4145.641, 0, 0, []
1629045100.822, 31, 0, 4184.103, 3896.41, 4170.769, 4152.308, 4140.513, 0, 0, []
1629045100.8299, 32, 0, 4183.077, 3917.436, 4148.205, 4149.744, 4140.513, 0, 0, []
1629045100.8378, 33, 0, 4195.897, 3925.641, 4189.231, 4166.154, 4154.872, 0, 0, []
1629045100.8457, 34, 0, 4205.128, 3930.256, 4181.538, 4174.872, 4167.692, 0, 0, []
1629045100.8537, 35, 0, 4196.923, 3939.487, 4183.59, 4175.385, 4170.769, 0, 0, []
1629045100.8616, 36, 0, 4188.205, 3931.282, 4189.744, 4171.795, 4167.179, 0, 0, []
1629045100.8696, 37, 0, 4196.923, 3920.513, 4160.513, 4163.59, 4168.205, 0, 0, []
1629045100.8774, 38, 0, 4204.615, 3907.692, 4197.436, 4164.615, 4168.718, 0, 0, []
1629045100.8854, 39, 0, 4190.769, 3904.103, 4176.41, 4156.41, 4149.744, 0, 0, []
1629045100.8933, 40, 0, 4176.41, 3935.385, 4163.59, 4155.385, 4130.256, 0, 0, []
1629045100.9011, 41, 0, 4194.359, 3975.897, 4195.385, 4180, 4147.692, 0, 0, []
1629045100.909, 42, 0, 4212.821, 3981.538, 4164.615, 4191.795, 4167.692, 0, 0, []
1629045100.9167, 43, 0, 4185.128, 3960.513, 4161.538, 4162.564, 4136.923, 0, 0, []
1629045100.9246, 44, 0, 4170.769, 3969.231, 4146.667, 4141.026, 4112.308, 0, 0, []
1629045100.9324, 45, 0, 4207.179, 3997.949, 4162.564, 4174.359, 4150.769, 0, 0, []
1629045100.9403, 46, 0, 4220.513, 3992.821, 4195.385, 4194.872, 4180.513, 0, 0, []
1629045100.9481, 47, 0, 4194.872, 3967.179, 4156.923, 4170.769, 4153.846, 0, 0, []
1629045100.9559, 48, 0, 4193.333, 3975.897, 4186.154, 4173.333, 4134.359, 0, 0, []
1629045100.9637, 49, 0, 4205.641, 3993.333, 4188.205, 4189.744, 4148.205, 0, 0, []
1629045100.9717, 50, 0, 4201.538, 3994.872, 4162.564, 4184.615, 4162.051, 0, 0, []
1629045100.9796, 51, 0, 4206.154, 4011.795, 4181.538, 4181.538, 4165.128, 0, 0, []
1629045100.9876, 52, 0, 4204.103, 4004.103, 4153.846, 4171.282, 4154.359, 0, 0, []
1629045100.9954, 53, 0, 4198.974, 3972.821, 4178.974, 4160.513, 4147.179, 0, 0, []
1629045101.0034, 54, 0, 4224.615, 3998.462, 4192.821, 4176.923, 4173.333, 0, 0, []
1629045101.0113, 55, 0, 4252.308, 4033.333, 4171.795, 4200.513, 4202.564, 0, 0, []
1629045101.0193, 56, 0, 4267.179, 4015.385, 4186.154, 4199.487, 4216.923, 0, 0, []
1629045101.0272, 57, 0, 4300, 4007.692, 4160.513, 4192.308, 4242.564, 0, 0, []
1629045101.0351, 58, 0, 4351.282, 4029.744, 4184.103, 4204.615, 4281.026, 0, 0, []
1629045101.043, 59, 0, 4391.795, 4035.897, 4189.231, 4208.718, 4314.872, 0, 0, []
1629045101.051, 60, 0, 4418.974, 4038.462, 4160, 4196.923, 4335.385, 0, 0, []
1629045101.0589, 61, 0, 4439.487, 4058.462, 4189.231, 4191.795, 4342.564, 0, 0, []
1629045101.0667, 62, 0, 4451.795, 4060, 4167.692, 4192.308, 4352.821, 0, 0, []
1629045101.0745, 63, 0, 4451.282, 4044.615, 4173.333, 4203.59, 4360.513, 0, 0, []
1629045101.0823, 64, 0, 4436.923, 4053.333, 4184.615, 4209.231, 4348.205, 450, 0, []
1629045101.0902, 65, 0, 4423.077, 4075.897, 4169.231, 4202.051, 4333.333, 450, 0, []
1629045101.098, 66, 0, 4410.256, 4078.462, 4203.59, 4200.513, 4327.179, 16188, 0, []
1629045101.1059, 67, 0, 4389.744, 4068.718, 4174.872, 4192.308, 4310.256, 450, 0, []
1629045101.1136, 68, 0, 4381.026, 4055.897, 4173.333, 4188.205, 4304.615, 16169, 0, []
1629045101.1216, 69, 0, 4391.282, 4059.487, 4194.872, 4200, 4322.051, 450, 0, []
1629045101.1295, 70, 0, 4406.154, 4095.385, 4177.949, 4213.846, 4332.308, 16081, 0, []
1629045101.1375, 71, 0, 4418.462, 4115.385, 4212.308, 4215.385, 4332.821, 450, 0, []
1629045101.1454, 72, 0, 4428.205, 4099.487, 4188.718, 4198.462, 4338.974, 450, 0, []
1629045101.1533, 73, 0, 4446.154, 4090.769, 4174.359, 4194.872, 4349.744, 16149, 0, []
1629045101.1612, 74, 0, 4477.436, 4113.846, 4195.385, 4201.538, 4370.256, 450, 0, []
1629045101.1692, 75, 0, 4502.051, 4132.308, 4170.769, 4201.026, 4401.026, 16200, 0, []
1629045101.1771, 76, 0, 4505.641, 4122.051, 4195.385, 4206.154, 4420.513, 450, 0, []
1629045101.1851, 77, 0, 4506.154, 4120.513, 4187.179, 4210.256, 4431.795, 450, 0, []
1629045101.193, 78, 0, 4510.256, 4142.051, 4188.718, 4221.538, 4448.205, 450, 0, []
1629045101.2009, 79, 0, 4505.641, 4157.949, 4215.385, 4235.385, 4453.333, 16200, 0, []
1629045101.2088, 80, 0, 4482.051, 4154.359, 4181.026, 4235.385, 4438.462, 450, 0, []
1629045101.2166, 81, 0, 4451.282, 4147.692, 4196.923, 4229.231, 4420.513, 450, 0, []
1629045101.2245, 82, 0, 4434.872, 4150.769, 4182.051, 4223.59, 4410.769, 450, 0, []
1629045101.2323, 83, 0, 4422.564, 4156.923, 4165.641, 4224.103, 4395.897, 16200, 0, []
1629045101.2401, 84, 0, 4398.462, 4156.41, 4190.769, 4221.538, 4368.205, 450, 0, []
1629045101.2479, 85, 0, 4378.462, 4140.513, 4157.949, 4207.179, 4345.641, 450, 0, []
1629045101.2558, 86, 0, 4378.462, 4129.231, 4187.692, 4206.667, 4341.026, 450, 0, []
1629045101.2636, 87, 0, 4377.949, 4142.564, 4204.615, 4215.385, 4341.538, 16200, 0, []
1629045101.2715, 88, 0, 4363.077, 4158.974, 4184.103, 4217.949, 4331.282, 450, 0, []
1629045101.2792, 89, 0, 4345.641, 4144.103, 4197.436, 4208.205, 4306.667, 450, 0, []
1629045101.2872, 90, 0, 4335.897, 4116.923, 4166.667, 4195.385, 4290.769, 450, 0, []
1629045101.2951, 91, 0, 4335.385, 4120, 4191.282, 4206.154, 4295.385, 16200, 0, []
1629045101.3031, 92, 0, 4327.179, 4130.256, 4196.923, 4210.256, 4287.179, 450, 0, []
1629045101.311, 93, 0, 4317.436, 4128.205, 4166.154, 4198.462, 4271.795, 450, 0, []
1629045101.3189, 94, 0, 4324.615, 4138.974, 4200.513, 4205.128, 4285.128, 450, 0, []
1629045101.3268, 95, 0, 4314.872, 4138.462, 4171.282, 4201.538, 4282.564, 16200, 0, []
1629045101.3348, 96, 0, 4285.128, 4107.179, 4160.513, 4183.077, 4248.718, 450, 0, []
1629045101.3427, 97, 0, 4280, 4104.615, 4175.385, 4184.615, 4239.487, 450, 0, []
1629045101.3507, 98, 0, 4275.385, 4122.564, 4160.513, 4187.692, 4238.462, 450, 0, []
1629045101.3585, 99, 0, 4248.718, 4104.615, 4176.923, 4172.821, 4218.462, 16200, 0, []
1629045101.3663, 100, 0, 4249.231, 4087.179, 4157.436, 4174.872, 4227.692, 450, 0, []
1629045101.3742, 101, 0, 4267.692, 4096.923, 4181.538, 4198.974, 4252.821, 450, 0, []
1629045101.382, 102, 0, 4253.333, 4096.923, 4189.231, 4187.692, 4234.872, 450, 0, []
1629045101.3899, 103, 0, 4238.974, 4098.974, 4145.128, 4166.667, 4216.923, 16200, 0, []
1629045101.3976, 104, 0, 4252.308, 4104.615, 4189.231, 4183.59, 4238.974, 450, 0, []
1629045101.4055, 105, 0, 4246.154, 4080, 4181.026, 4187.179, 4241.026, 450, 0, []
1629045101.4133, 106, 0, 4221.026, 4065.641, 4161.026, 4166.154, 4204.615, 450, 0, []
1629045101.4212, 107, 0, 4211.282, 4089.744, 4177.949, 4163.59, 4190.769, 16200, 0, []
1629045101.429, 108, 0, 4214.359, 4104.103, 4161.026, 4175.897, 4209.744, 450, 0, []
1629045101.4369, 109, 0, 4218.974, 4102.051, 4185.641, 4180, 4214.359, 450, 0, []
1629045101.4448, 110, 0, 4219.487, 4108.205, 4167.692, 4170.256, 4202.051, 450, 0, []
1629045101.4528, 111, 0, 4212.308, 4111.795, 4167.179, 4166.154, 4198.462, 16200, 0, []
1629045101.4607, 112, 0, 4208.718, 4108.205, 4196.923, 4174.359, 4203.077, 450, 0, []
1629045101.4687, 113, 0, 4213.846, 4106.154, 4165.128, 4184.615, 4211.282, 450, 0, []
1629045101.4765, 114, 0, 4217.949, 4112.821, 4189.744, 4191.795, 4221.026, 450, 0, []
1629045101.4845, 115, 0, 4218.462, 4126.667, 4185.128, 4183.59, 4221.538, 16200, 0, []
1629045101.4924, 116, 0, 4209.744, 4116.923, 4167.692, 4171.795, 4204.615, 450, 0, []
1629045101.5004, 117, 0, 4199.487, 4100, 4191.282, 4173.846, 4195.897, 450, 0, []
1629045101.5083, 118, 0, 4207.179, 4100, 4161.026, 4178.974, 4210.769, 450, 0, []
1629045101.5161, 119, 0, 4213.846, 4102.564, 4176.41, 4181.026, 4215.897, 16200, 0, []
1629045101.5239, 120, 0, 4203.59, 4115.897, 4172.821, 4173.333, 4203.59, 450, 0, []
1629045101.5317, 121, 0, 4196.923, 4129.744, 4160, 4169.744, 4198.974, 450, 0, []
1629045101.5396, 122, 0, 4201.538, 4105.128, 4192.821, 4180.513, 4203.59, 450, 0, []
1629045101.5474, 123, 0, 4201.026, 4084.103, 4157.436, 4177.949, 4201.538, 16200, 0, []
1629045101.5553, 124, 0, 4196.923, 4100, 4161.026, 4169.744, 4197.949, 450, 0, []
1629045101.5631, 125, 0, 4190.256, 4109.231, 4160, 4162.564, 4188.718, 450, 0, []
1629045101.571, 126, 0, 4165.128, 4081.026, 4136.923, 4149.231, 4163.077, 450, 0, []
1629045101.5789, 127, 0, 4152.308, 4055.897, 4171.282, 4145.641, 4152.821, 16200, 0, []
1629045101.5869, 128, 0, 4167.692, 4072.821, 4152.821, 4154.359, 4173.333, 450, 0, []
1629045101.5949, 0, 0, 4180.513, 4089.744, 4164.615, 4167.179, 4184.103, 450, 0, []
1629045101.6027, 1, 0, 4178.462, 4072.308, 4173.846, 4165.128, 4174.359, 450, 0, []
1629045101.6106, 2, 0, 4183.59, 4068.718, 4153.333, 4167.179, 4177.949, 16187, 0, []
1629045101.6186, 3, 0, 4197.436, 4095.897, 4188.718, 4181.538, 4191.795, 450, 0, []
1629045101.6265, 4, 0, 4195.897, 4103.077, 4163.077, 4177.436, 4187.179, 16169, 0, []
1629045101.6345, 5, 0, 4190.256, 4088.205, 4164.103, 4171.795, 4183.077, 450, 0, []
1629045101.6423, 6, 0, 4188.205, 4078.462, 4177.949, 4168.205, 4187.692, 326, 0, []
1629045101.6503, 7, 0, 4172.821, 4060.513, 4140, 4152.308, 4176.41, 450, 0, []
1629045101.6582, 8, 0, 4166.154, 4049.231, 4168.205, 4156.41, 4171.795, 450, 0, []
1629045101.666, 9, 0, 4186.154, 4065.641, 4168.718, 4174.872, 4189.744, 16147, 0, []
1629045101.6739, 10, 0, 4198.974, 4074.359, 4171.282, 4183.077, 4203.077, 450, 0, []
1629045101.6816, 11, 0, 4198.974, 4074.359, 4175.897, 4177.949, 4209.231, 16200, 0, []
1629045101.6895, 12, 0, 4211.282, 4074.359, 4143.59, 4173.846, 4219.487, 450, 0, []
1629045101.6973, 13, 0, 4209.744, 4062.564, 4173.333, 4181.026, 4217.949, 450, 0, []
1629045101.7052, 14, 0, 4186.667, 4052.821, 4155.897, 4178.462, 4211.795, 450, 0, []
1629045101.713, 15, 0, 4190.256, 4040.513, 4148.718, 4169.231, 4217.436, 16200, 0, []
1629045101.7208, 16, 0, 4210.769, 4022.564, 4175.385, 4163.077, 4220.513, 0, 0, []
1629045101.7286, 17, 0, 4218.462, 4017.949, 4145.128, 4165.641, 4228.205, 0, 0, []
1629045101.7365, 18, 0, 4261.026, 4016.41, 4186.154, 4185.641, 4260, 0, 0, []
1629045101.7443, 19, 0, 4296.41, 3996.923, 4201.026, 4195.897, 4273.846, 0, 0, []
1629045101.7523, 20, 0, 4251.795, 3980.513, 4171.795, 4182.564, 4236.41, 0, 0, []
1629045101.7601, 21, 0, 4236.41, 3990.256, 4170.769, 4173.846, 4220.513, 0, 0, []
1629045101.7681, 22, 0, 4304.615, 3998.462, 4146.667, 4184.103, 4263.077, 0, 0, []
1629045101.776, 23, 0, 4334.872, 3983.077, 4187.692, 4201.538, 4298.462, 0, 0, []
1629045101.784, 24, 0, 4322.051, 3963.59, 4190.256, 4205.641, 4306.667, 0, 0, []
1629045101.7919, 25, 0, 4368.205, 3968.205, 4163.077, 4208.718, 4329.231, 0, 0, []
1629045101.7998, 26, 0, 4425.641, 3970.769, 4196.41, 4228.718, 4368.205, 0, 0, []
1629045101.8077, 27, 0, 4412.308, 3905.641, 4182.564, 4235.385, 4383.59, 0, 0, []
1629045101.8157, 28, 0, 4405.641, 3812.821, 4205.128, 4232.821, 4372.821, 0, 0, []
1629045101.8236, 29, 0, 4409.231, 3785.128, 4199.487, 4231.282, 4358.462, 0, 0, []
1629045101.8314, 30, 0, 4400, 3825.641, 4165.641, 4227.692, 4362.051, 0, 0, []
1629045101.8392, 31, 0, 4389.744, 3839.487, 4195.897, 4225.128, 4356.923, 0, 0, []
1629045101.847, 32, 0, 4363.077, 3785.641, 4175.385, 4222.051, 4329.231, 0, 0, []
1629045101.8549, 33, 0, 4325.128, 3746.154, 4184.103, 4222.564, 4309.231, 0, 0, []
1629045101.8627, 34, 0, 4294.872, 3761.026, 4184.103, 4203.59, 4289.744, 0, 0, []
1629045101.8706, 35, 0, 4278.974, 3769.744, 4156.41, 4186.154, 4270.256, 0, 0, []
1629045101.8784, 36, 0, 4275.385, 3745.128, 4195.897, 4201.026, 4269.231, 0, 0, []
1629045101.8862, 37, 0, 4285.641, 3743.59, 4182.564, 4214.872, 4276.923, 0, 0, []
1629045101.894, 38, 0, 4290.256, 3756.923, 4185.641, 4222.564, 4274.359, 0, 0, []
1629045101.9019, 39, 0, 4295.897, 3732.821, 4193.846, 4222.051, 4271.795, 0, 0, []
1629045101.9097, 40, 0, 4298.462, 3708.205, 4173.333, 4213.846, 4267.179, 0, 0, []
1629045101.9177, 41, 0, 4258.974, 3702.051, 4205.128, 4207.179, 4244.103, 0, 0, []
1629045101.9255, 42, 0, 4237.949, 3700, 4180, 4199.487, 4234.872, 0, 0, []
1629045101.9335, 43, 0, 4258.974, 3707.692, 4174.872, 4201.026, 4248.205, 0, 0, []
1629045101.9414, 44, 0, 4269.744, 3729.231, 4190.256, 4211.282, 4248.718, 0, 0, []
1629045101.9494, 45, 0, 4238.462, 3739.487, 4155.385, 4206.667, 4231.282, 0, 0, []
1629045101.9573, 46, 0, 4237.949, 3747.179, 4195.385, 4202.564, 4226.154, 0, 0, []
1629045101.9652, 47, 0, 4278.462, 3753.846, 4200.513, 4207.179, 4234.872, 0, 0, []
1629045101.9731, 48, 0, 4254.359, 3746.154, 4185.128, 4208.205, 4233.846, 0, 0, []
1629045101.9809, 49, 0, 4194.872, 3756.923, 4193.846, 4201.026, 4226.667, 0, 0, []
1629045101.9888, 50, 0, 4242.051, 3775.385, 4166.667, 4201.026, 4233.846, 0, 0, []
1629045101.9966, 51, 0, 4300, 3753.846, 4192.308, 4208.205, 4245.641, 0, 0, []
1629045102.0044, 52, 0, 4230.256, 3729.231, 4186.154, 4196.41, 4236.923, 0, 0, []
1629045102.0122, 53, 0, 4195.385, 3747.692, 4192.308, 4197.436, 4229.231, 0, 0, []
1629045102.0201, 54, 0, 4260, 3768.718, 4229.231, 4219.487, 4250.769, 0, 0, []
1629045102.0279, 55, 0, 4256.41, 3767.692, 4187.179, 4215.385, 4265.128, 0, 0, []
1629045102.0359, 56, 0, 4222.564, 3753.333, 4200.513, 4209.744, 4252.821, 0, 0, []
1629045102.0437, 57, 0, 4245.128, 3741.026, 4193.846, 4213.333, 4237.949, 0, 0, []
1629045102.0517, 58, 0, 4233.333, 3745.641, 4165.641, 4209.744, 4227.692, 0, 0, []
1629045102.0596, 59, 0, 4200.513, 3744.615, 4200, 4201.538, 4229.744, 0, 0, []
1629045102.0676, 60, 0, 4220, 3735.385, 4183.59, 4195.897, 4240.513, 0, 0, []
1629045102.0755, 61, 0, 4230.769, 3733.333, 4188.205, 4202.564, 4229.231, 0, 0, []
1629045102.0834, 62, 0, 4212.308, 3752.308, 4190.256, 4205.641, 4217.436, 0, 0, []
1629045102.0913, 63, 0, 4224.615, 3776.923, 4187.179, 4204.103, 4242.051, 0, 0, []
1629045102.0993, 64, 0, 4257.949, 3768.718, 4218.974, 4210.769, 4259.487, 450, 0, []
1629045102.1072, 65, 0, 4221.026, 3729.744, 4163.077, 4190.256, 4216.41, 450, 0, []
1629045102.1152, 66, 0, 4150.769, 3724.615, 4141.026, 4151.282, 4168.205, 16182, 0, []
1629045102.123, 67, 0, 4166.667, 3773.846, 4162.051, 4164.103, 4191.282, 450, 0, []
1629045102.1308, 68, 0, 4215.385, 3792.821, 4168.718, 4209.744, 4226.154, 16192, 0, []
1629045102.1387, 69, 0, 4194.359, 3775.897, 4195.385, 4214.359, 4206.667, 450, 0, []
1629045102.1465, 70, 0, 4159.487, 3787.692, 4150.769, 4186.154, 4178.974, 312, 0, []
1629045102.1544, 71, 0, 4154.872, 3801.538, 4153.846, 4174.359, 4167.179, 450, 0, []
1629045102.1621, 72, 0, 4145.641, 3791.282, 4181.026, 4174.359, 4155.897, 450, 0, []
1629045102.17, 73, 0, 4143.59, 3794.872, 4151.795, 4174.359, 4149.231, 16142, 0, []
1629045102.1778, 74, 0, 4150.256, 3820, 4166.154, 4176.923, 4152.308, 450, 0, []
1629045102.1857, 75, 0, 4148.205, 3835.385, 4150.256, 4171.795, 4156.41, 16201, 0, []
1629045102.1935, 76, 0, 4150.769, 3852.308, 4169.744, 4176.923, 4163.077, 450, 0, []
1629045102.2014, 77, 0, 4158.462, 3879.487, 4200, 4178.462, 4174.872, 450, 0, []
1629045102.2091, 78, 0, 4155.897, 3909.744, 4167.692, 4171.282, 4177.949, 450, 0, []
1629045102.2171, 79, 0, 4146.667, 3933.846, 4184.615, 4177.436, 4173.333, 16201, 0, []
1629045102.225, 80, 0, 4135.897, 3944.615, 4163.077, 4168.718, 4164.615, 450, 0, []
1629045102.233, 81, 0, 4133.333, 3957.436, 4160, 4161.026, 4157.436, 450, 0, []
1629045102.2409, 82, 0, 4136.41, 3987.179, 4181.026, 4170.769, 4162.564, 450, 0, []
1629045102.2488, 83, 0, 4137.436, 4003.077, 4143.077, 4173.333, 4169.231, 16201, 0, []
1629045102.2567, 84, 0, 4138.462, 3987.179, 4171.282, 4171.795, 4168.205, 450, 0, []
1629045102.2647, 85, 0, 4131.795, 3976.923, 4169.231, 4166.667, 4158.974, 450, 0, []
1629045102.2726, 86, 0, 4116.41, 3985.128, 4156.923, 4161.026, 4144.615, 450, 0, []
1629045102.2804, 87, 0, 4106.154, 3990.256, 4177.949, 4153.333, 4125.128, 16201, 0, []
1629045102.2882, 88, 0, 4098.974, 3980, 4139.487, 4141.538, 4109.744, 450, 0, []
1629045102.296, 89, 0, 4105.641, 3972.821, 4160.513, 4151.282, 4118.974, 450, 0, []
1629045102.3039, 90, 0, 4124.103, 3994.359, 4163.077, 4161.538, 4137.949, 450, 0, []
1629045102.3117, 91, 0, 4131.282, 4010.769, 4140.513, 4154.359, 4141.026, 16201, 0, []
1629045102.3196, 92, 0, 4131.282, 4001.538, 4164.103, 4154.872, 4135.385, 450, 0, []
1629045102.3273, 93, 0, 4119.487, 3999.487, 4142.564, 4159.487, 4126.154, 450, 0, []
1629045102.3352, 94, 0, 4094.872, 3993.846, 4162.564, 4154.359, 4107.179, 450, 0, []
1629045102.343, 95, 0, 4087.692, 3991.795, 4161.026, 4143.59, 4093.333, 16201, 0, []
1629045102.3509, 96, 0, 4100.513, 4010.769, 4129.231, 4143.59, 4100, 450, 0, []
1629045102.3587, 97, 0, 4102.051, 4020, 4154.359, 4156.41, 4117.436, 450, 0, []
1629045102.3665, 98, 0, 4091.282, 4009.231, 4136.923, 4156.41, 4117.949, 450, 0, []
1629045102.3743, 99, 0, 4085.641, 4010.769, 4148.718, 4150.256, 4103.077, 16201, 0, []
1629045102.3823, 100, 0, 4090.256, 4032.308, 4155.385, 4146.154, 4098.462, 450, 0, []
1629045102.3902, 101, 0, 4115.897, 4056.923, 4145.128, 4150.256, 4113.333, 450, 0, []
1629045102.3982, 102, 0, 4135.385, 4057.436, 4186.667, 4159.487, 4122.051, 450, 0, []
1629045102.406, 103, 0, 4118.462, 4020, 4150.256, 4144.615, 4103.59, 16201, 0, []
1629045102.414, 104, 0, 4110.769, 4002.051, 4137.436, 4131.795, 4091.795, 450, 0, []
1629045102.4219, 105, 0, 4128.205, 4035.385, 4153.333, 4143.077, 4102.051, 450, 0, []
1629045102.4299, 106, 0, 4126.667, 4044.615, 4135.385, 4157.949, 4109.231, 450, 0, []
1629045102.4378, 107, 0, 4105.128, 4019.487, 4172.308, 4166.154, 4102.564, 16201, 0, []
1629045102.4455, 108, 0, 4105.128, 4030.769, 4165.641, 4167.692, 4103.59, 450, 0, []
1629045102.4534, 109, 0, 4126.667, 4050.256, 4174.359, 4171.795, 4117.949, 450, 0, []
1629045102.4612, 110, 0, 4138.974, 4051.795, 4196.41, 4175.897, 4131.795, 450, 0, []
1629045102.4691, 111, 0, 4140, 4066.154, 4171.282, 4175.897, 4139.487, 16201, 0, []
1629045102.4769, 112, 0, 4140, 4059.487, 4193.333, 4177.949, 4138.462, 450, 0, []
1629045102.4847, 113, 0, 4137.436, 4032.821, 4168.718, 4176.923, 4135.385, 450, 0, []
1629045102.4925, 114, 0, 4138.974, 4036.923, 4166.667, 4184.615, 4139.487, 450, 0, []
1629045102.5004, 115, 0, 4140.513, 4049.744, 4198.974, 4190.256, 4141.026, 16201, 0, []
1629045102.5082, 116, 0, 4129.231, 4041.538, 4162.564, 4175.385, 4128.205, 450, 0, []
1629045102.5162, 117, 0, 4115.897, 4030.769, 4172.821, 4158.462, 4110.256, 450, 0, []
1629045102.524, 118, 0, 4116.923, 4029.744, 4163.077, 4148.205, 4112.308, 450, 0, []
1629045102.532, 119, 0, 4124.103, 4044.615, 4158.974, 4158.462, 4126.154, 16201, 0, []
1629045102.5399, 120, 0, 4131.282, 4079.487, 4186.667, 4175.897, 4132.308, 450, 0, []
1629045102.5479, 121, 0, 4133.333, 4086.667, 4154.872, 4170.769, 4128.718, 450, 0, []
1629045102.5558, 122, 0, 4117.436, 4065.128, 4168.205, 4161.538, 4114.359, 450, 0, []
1629045102.5637, 123, 0, 4108.205, 4076.923, 4166.154, 4162.051, 4111.282, 16201, 0, []
1629045102.5715, 124, 0, 4117.436, 4103.59, 4165.128, 4165.128, 4121.538, 450, 0, []
1629045102.5793, 125, 0, 4127.692, 4110.769, 4205.641, 4158.462, 4121.026, 450, 0, []
1629045102.5873, 126, 0, 4138.462, 4117.949, 4179.487, 4154.872, 4122.051, 450, 0, []
1629045102.5952, 127, 0, 4155.385, 4123.59, 4193.846, 4175.897, 4138.974, 16201, 0, []
1629045102.6031, 128, 0, 4165.641, 4119.487, 4194.872, 4185.641, 4148.718, 450, 0, []
1629045102.6108, 0, 0, 4163.077, 4132.308, 4164.103, 4176.41, 4150.256, 450, 0, []
1629045102.6187, 1, 0, 4163.077, 4154.359, 4182.051, 4172.821, 4159.487, 450, 0, []
1629045102.6265, 2, 0, 4170.769, 4151.795, 4164.615, 4168.718, 4160, 16184, 0, []
1629045102.6344, 3, 0, 4184.103, 4146.154, 4191.282, 4176.41, 4159.487, 450, 0, []
1629045102.6422, 4, 0, 4189.744, 4155.385, 4193.333, 4190.769, 4170.769, 16182, 0, []
1629045102.65, 5, 0, 4178.462, 4159.487, 4157.436, 4187.179, 4169.231, 450, 0, []
1629045102.6578, 6, 0, 4173.846, 4156.923, 4198.462, 4183.077, 4163.077, 314, 0, []
1629045102.6657, 7, 0, 4185.641, 4167.692, 4184.103, 4188.718, 4173.846, 450, 0, []
1629045102.6735, 8, 0, 4198.974, 4188.205, 4177.949, 4199.487, 4185.128, 450, 0, []
1629045102.6815, 9, 0, 4195.385, 4198.974, 4184.103, 4198.462, 4176.923, 16144, 0, []
1629045102.6893, 10, 0, 4182.051, 4189.744, 4155.385, 4184.615, 4163.59, 450, 0, []
1629045102.6973, 11, 0, 4181.538, 4191.282, 4184.615, 4185.641, 4166.667, 16203, 0, []
1629045102.7052, 12, 0, 4193.846, 4224.615, 4174.872, 4197.949, 4174.872, 450, 0, []
1629045102.7132, 13, 0, 4200.513, 4245.641, 4183.59, 4202.051, 4170.256, 450, 0, []
1629045102.7211, 14, 0, 4203.077, 4243.077, 4207.179, 4198.974, 4175.897, 450, 0, []
1629045102.729, 15, 0, 4215.385, 4247.179, 4186.667, 4209.231, 4197.436, 16203, 0, []
1629045102.7369, 16, 0, 4221.538, 4253.333, 4214.872, 4227.692, 4200, 0, 0, []
1629045102.7449, 17, 0, 4207.179, 4248.718, 4185.128, 4224.615, 4184.103, 0, 0, []
1629045102.7528, 18, 0, 4197.436, 4240.513, 4170.256, 4218.974, 4182.564, 0, 0, []
1629045102.7606, 19, 0, 4202.564, 4236.923, 4201.026, 4220.513, 4185.128, 0, 0, []
1629045102.7684, 20, 0, 4197.949, 4233.333, 4180.513, 4217.949, 4180, 0, 0, []
1629045102.7762, 21, 0, 4197.436, 4229.744, 4211.282, 4230.256, 4192.821, 0, 0, []
1629045102.7841, 22, 0, 4215.385, 4240, 4202.564, 4241.026, 4212.308, 0, 0, []
1629045102.7919, 23, 0, 4216.41, 4245.641, 4175.385, 4230.769, 4204.615, 0, 0, []
1629045102.7998, 24, 0, 4195.385, 4224.615, 4190.256, 4214.872, 4183.59, 0, 0, []
1629045102.8075, 25, 0, 4188.718, 4194.359, 4165.641, 4207.692, 4178.974, 0, 0, []
1629045102.8154, 26, 0, 4202.051, 4191.795, 4186.154, 4213.333, 4186.154, 0, 0, []
1629045102.8232, 27, 0, 4204.615, 4208.205, 4175.897, 4213.333, 4187.692, 0, 0, []
1629045102.8312, 28, 0, 4188.718, 4202.564, 4158.974, 4207.179, 4178.462, 0, 0, []
1629045102.8391, 29, 0, 4184.615, 4191.282, 4192.308, 4205.641, 4176.923, 0, 0, []
1629045102.847, 30, 0, 4198.974, 4201.538, 4168.718, 4208.718, 4189.744, 0, 0, []
1629045102.8549, 31, 0, 4202.564, 4199.487, 4181.026, 4220.513, 4190.256, 0, 0, []
1629045102.8629, 32, 0, 4195.897, 4191.282, 4177.949, 4218.974, 4180, 0, 0, []
1629045102.8708, 33, 0, 4196.41, 4210.769, 4163.59, 4212.821, 4183.077, 0, 0, []
1629045102.8788, 34, 0, 4193.333, 4208.205, 4205.128, 4218.974, 4190.256, 0, 0, []
1629045102.8867, 35, 0, 4187.179, 4175.385, 4180.513, 4215.385, 4184.103, 0, 0, []
1629045102.8946, 36, 0, 4194.872, 4179.487, 4183.59, 4213.846, 4181.538, 0, 0, []
1629045102.9025, 37, 0, 4202.051, 4196.41, 4183.59, 4212.308, 4187.692, 0, 0, []
1629045102.9105, 38, 0, 4196.923, 4193.333, 4156.923, 4201.026, 4183.59, 0, 0, []
1629045102.9184, 39, 0, 4190.769, 4193.333, 4187.692, 4200.513, 4174.872, 0, 0, []
1629045102.9262, 40, 0, 4184.103, 4194.872, 4153.846, 4198.974, 4168.718, 0, 0, []
1629045102.934, 41, 0, 4181.538, 4183.59, 4153.846, 4195.385, 4165.128, 0, 0, []
1629045102.9418, 42, 0, 4189.744, 4189.231, 4175.385, 4192.308, 4171.282, 0, 0, []
1629045102.9497, 43, 0, 4181.026, 4198.462, 4140.513, 4178.462, 4169.231, 0, 0, []
1629045102.9575, 44, 0, 4161.538, 4178.462, 4156.923, 4167.692, 4155.385, 0, 0, []
1629045102.9654, 45, 0, 4168.718, 4172.821, 4155.385, 4181.026, 4166.667, 0, 0, []
1629045102.9731, 46, 0, 4191.795, 4204.103, 4177.436, 4206.667, 4197.949, 0, 0, []
1629045102.9811, 47, 0, 4193.846, 4235.897, 4190.256, 4204.103, 4201.538, 0, 0, []
1629045102.989, 48, 0, 4176.923, 4228.205, 4142.564, 4183.59, 4178.462, 0, 0, []
1629045102.997, 49, 0, 4169.231, 4201.538, 4160.513, 4180, 4163.077, 0, 0, []
1629045103.0049, 50, 0, 4168.718, 4206.154, 4148.718, 4178.974, 4156.923, 0, 0, []
1629045103.0128, 51, 0, 4164.103, 4221.538, 4145.641, 4173.846, 4152.308, 0, 0, []
1629045103.0207, 52, 0, 4162.564, 4221.538, 4166.667, 4169.744, 4150.769, 0, 0, []
1629045103.0287, 53, 0, 4174.359, 4214.359, 4140, 4170.256, 4157.436, 0, 0, []
1629045103.0366, 54, 0, 4191.282, 4206.667, 4164.615, 4180, 4170.769, 0, 0, []
1629045103.0446, 55, 0, 4187.179, 4201.026, 4148.718, 4182.051, 4176.41, 0, 0, []
1629045103.0524, 56, 0, 4171.795, 4192.821, 4134.872, 4176.41, 4164.615, 0, 0, []
1629045103.0604, 57, 0, 4170.256, 4188.718, 4164.103, 4170.256, 4157.436, 0, 0, []
1629045103.0683, 58, 0, 4177.436, 4204.615, 4136.923, 4164.615, 4165.641, 0, 0, []
1629045103.0761, 59, 0, 4176.41, 4215.897, 4151.795, 4172.308, 4169.744, 0, 0, []
1629045103.084, 60, 0, 4166.154, 4196.923, 4138.974, 4167.179, 4162.051, 0, 0, []
1629045103.0917, 61, 0, 4154.872, 4191.282, 4122.564, 4152.308, 4150.256, 0, 0, []
1629045103.0996, 62, 0, 4151.795, 4209.744, 4163.077, 4156.41, 4145.128, 0, 0, []
1629045103.1074, 63, 0, 4160.513, 4204.615, 4147.179, 4167.179, 4148.205, 0, 0, []
1629045103.1153, 64, 0, 4171.795, 4203.077, 4163.59, 4169.231, 4155.385, 450, 0, []
1629045103.1231, 65, 0, 4176.41, 4231.282, 4152.821, 4158.974, 4155.385, 450, 0, []
1629045103.1309, 66, 0, 4167.692, 4223.077, 4120.513, 4149.744, 4149.231, 16187, 0, []
1629045103.1387, 67, 0, 4153.846, 4201.026, 4154.359, 4156.41, 4149.744, 450, 0, []
1629045103.1467, 68, 0, 4155.385, 4227.692, 4136.41, 4166.154, 4156.41, 16169, 0, []
1629045103.1546, 69, 0, 4169.231, 4246.667, 4153.846, 4169.231, 4160.513, 450, 0, []
1629045103.1626, 70, 0, 4171.795, 4238.974, 4168.718, 4160, 4155.897, 311, 0, []
1629045103.1704, 71, 0, 4166.154, 4250.769, 4148.205, 4157.436, 4155.897, 450, 0, []
1629045103.1784, 72, 0, 4168.205, 4255.897, 4168.718, 4158.974, 4166.667, 450, 0, []
1629045103.1863, 73, 0, 4170.256, 4237.949, 4133.333, 4150.769, 4170.769, 16146, 0, []
1629045103.1943, 74, 0, 4172.821, 4242.564, 4144.615, 4166.154, 4170.769, 450, 0, []
1629045103.2022, 75, 0, 4182.564, 4261.538, 4172.308, 4185.641, 4175.385, 16204, 0, []
1629045103.2101, 76, 0, 4178.974, 4256.923, 4140, 4169.744, 4168.718, 450, 0, []
1629045103.218, 77, 0, 4165.641, 4249.231, 4148.718, 4146.154, 4152.821, 450, 0, []
1629045103.2258, 78, 0, 4163.077, 4251.282, 4129.231, 4143.077, 4157.436, 450, 0, []
1629045103.2337, 79, 0, 4169.231, 4250.256, 4140.513, 4154.872, 4168.718, 16204, 0, []
1629045103.2415, 80, 0, 4175.897, 4254.872, 4160, 4161.538, 4174.359, 450, 0, []
1629045103.2494, 81, 0, 4179.487, 4270.769, 4130.256, 4159.487, 4186.154, 450, 0, []
1629045103.2571, 82, 0, 4175.385, 4280.513, 4157.949, 4155.385, 4186.667, 450, 0, []
1629045103.265, 83, 0, 4163.077, 4287.692, 4147.692, 4147.179, 4168.718, 16204, 0, []
1629045103.2728, 84, 0, 4163.077, 4303.077, 4156.41, 4156.923, 4166.154, 450, 0, []
1629045103.2807, 85, 0, 4180, 4316.923, 4191.282, 4180, 4184.615, 450, 0, []
1629045103.2885, 86, 0, 4189.231, 4314.872, 4154.359, 4183.59, 4193.846, 450, 0, []
1629045103.2964, 87, 0, 4192.821, 4299.487, 4166.667, 4184.615, 4195.897, 16204, 0, []
1629045103.3043, 88, 0, 4201.538, 4309.231, 4158.974, 4184.103, 4202.051, 450, 0, []
1629045103.3123, 89, 0, 4200.513, 4338.462, 4148.205, 4170.256, 4191.282, 450, 0, []
1629045103.3202, 90, 0, 4189.231, 4343.59, 4167.692, 4159.487, 4172.821, 450, 0, []
1629045103.3282, 91, 0, 4181.538, 4335.897, 4137.436, 4156.923, 4175.385, 16204, 0, []
1629045103.336, 92, 0, 4176.41, 4338.974, 4163.59, 4157.949, 4186.154, 450, 0, []
1629045103.344, 93, 0, 4175.897, 4340.513, 4164.615, 4162.051, 4186.667, 450, 0, []
1629045103.3519, 94, 0, 4179.487, 4317.949, 4144.103, 4170.769, 4183.59, 450, 0, []
1629045103.3599, 95, 0, 4180.513, 4311.282, 4163.077, 4163.59, 4184.103, 16204, 0, []
1629045103.3678, 96, 0, 4184.103, 4335.897, 4137.949, 4145.641, 4189.744, 450, 0, []
1629045103.3755, 97, 0, 4197.436, 4344.103, 4171.282, 4161.538, 4202.564, 450, 0, []
1629045103.3834, 98, 0, 4197.949, 4344.103, 4176.923, 4177.436, 4203.077, 450, 0, []
1629045103.3912, 99, 0, 4184.615, 4343.077, 4141.538, 4165.641, 4185.641, 16204, 0, []
1629045103.3991, 100, 0, 4180.513, 4326.154, 4167.692, 4163.59, 4180, 450, 0, []
1629045103.4069, 101, 0, 4183.077, 4317.436, 4156.41, 4170.769, 4191.282, 450, 0, []
1629045103.4147, 102, 0, 4188.718, 4340.513, 4171.282, 4170.769, 4200, 450, 0, []
1629045103.4225, 103, 0, 4203.59, 4355.897, 4173.333, 4164.103, 4212.308, 16204, 0, []
1629045103.4304, 104, 0, 4217.436, 4341.026, 4161.538, 4173.846, 4227.179, 450, 0, []
1629045103.4382, 105, 0, 4215.385, 4343.59, 4204.615, 4197.436, 4228.205, 450, 0, []
1629045103.4461, 106, 0, 4208.718, 4368.205, 4178.974, 4197.949, 4216.41, 450, 0, []
1629045103.4538, 107, 0, 4213.846, 4362.564, 4180.513, 4195.385, 4214.872, 16204, 0, []
1629045103.4618, 108, 0, 4218.462, 4343.077, 4186.154, 4195.897, 4219.487, 450, 0, []
1629045103.4697, 109, 0, 4211.282, 4358.462, 4148.205, 4186.667, 4212.821, 450, 0, []
1629045103.4777, 110, 0, 4204.615, 4371.795, 4180, 4190.256, 4202.564, 450, 0, []
1629045103.4856, 111, 0, 4203.077, 4354.872, 4172.821, 4197.436, 4200, 16204, 0, []
1629045103.4935, 112, 0, 4202.564, 4358.462, 4176.923, 4190.769, 4201.538, 450, 0, []
1629045103.5014, 113, 0, 4201.026, 4386.154, 4196.923, 4185.128, 4202.564, 450, 0, []
1629045103.5094, 114, 0, 4201.538, 4389.744, 4175.385, 4197.949, 4200.513, 450, 0, []
1629045103.5173, 115, 0, 4205.641, 4385.128, 4204.103, 4215.897, 4199.487, 16204, 0, []
1629045103.5253, 116, 0, 4202.564, 4397.436, 4177.949, 4210.256, 4196.923, 450, 0, []
1629045103.5331, 117, 0, 4195.897, 4388.205, 4162.564, 4205.128, 4196.41, 450, 0, []
1629045103.5409, 118, 0, 4205.641, 4377.949, 4185.641, 4209.231, 4206.154, 450, 0, []
1629045103.5488, 119, 0, 4215.385, 4390.256, 4156.923, 4207.692, 4216.41, 16204, 0, []
1629045103.5566, 120, 0, 4209.231, 4387.179, 4175.897, 4203.59, 4211.795, 450, 0, []
1629045103.5645, 121, 0, 4197.949, 4376.41, 4162.051, 4196.41, 4196.923, 450, 0, []
1629045103.5723, 122, 0, 4188.205, 4370.256, 4153.846, 4195.897, 4185.641, 450, 0, []
1629045103.5803, 123, 0, 4189.744, 4359.487, 4183.59, 4203.077, 4183.59, 16204, 0, []
1629045103.5881, 124, 0, 4202.051, 4359.487, 4160, 4206.154, 4185.641, 450, 0, []
1629045103.596, 125, 0, 4206.667, 4366.667, 4186.667, 4209.231, 4181.026, 450, 0, []
1629045103.6038, 126, 0, 4195.897, 4341.538, 4182.564, 4205.641, 4174.359, 450, 0, []
1629045103.6118, 127, 0, 4195.385, 4327.692, 4161.026, 4203.59, 4181.538, 16204, 0, []
1629045103.6196, 128, 0, 4215.897, 4373.846, 4184.103, 4211.795, 4198.462, 450, 0, []
1629045103.6276, 0, 0, 4225.641, 4400, 4152.821, 4203.59, 4203.59, 450, 0, []
1629045103.6355, 1, 0, 4223.59, 4380, 4171.282, 4193.846, 4195.385, 450, 0, []
1629045103.6435, 2, 0, 4225.641, 4385.641, 4179.487, 4200, 4189.231, 16189, 0, []
1629045103.6514, 3, 0, 4224.615, 4400.513, 4161.538, 4211.282, 4188.718, 450, 0, []
1629045103.6593, 4, 0, 4217.436, 4375.385, 4187.692, 4209.744, 4186.667, 16169, 0, []
1629045103.6672, 5, 0, 4208.718, 4356.923, 4155.385, 4190.256, 4175.385, 450, 0, []
1629045103.6752, 6, 0, 4203.59, 4369.744, 4159.487, 4174.872, 4165.641, 314, 0, []
1629045103.6831, 7, 0, 4203.59, 4372.308, 4166.154, 4174.359, 4173.333, 450, 0, []
1629045103.6909, 8, 0, 4204.103, 4361.538, 4150.769, 4186.667, 4180, 450, 0, []
1629045103.6987, 9, 0, 4202.051, 4354.872, 4180.513, 4196.41, 4176.923, 16146, 0, []
1629045103.7065, 10, 0, 4209.231, 4346.154, 4149.744, 4185.128, 4182.051, 450, 0, []
1629045103.7144, 11, 0, 4221.026, 4341.538, 4156.923, 4178.462, 4184.103, 16208, 0, []
1629045103.7222, 12, 0, 4218.462, 4350.256, 4177.436, 4187.179, 4175.897, 450, 0, []
1629045103.7301, 13, 0, 4213.846, 4348.718, 4155.897, 4194.359, 4178.974, 450, 0, []
1629045103.7378, 14, 0, 4218.974, 4347.179, 4181.026, 4189.231, 4186.667, 450, 0, []
1629045103.7457, 15, 0, 4221.026, 4358.974, 4155.385, 4176.41, 4185.128, 16208, 0, []
1629045103.7535, 16, 0, 4220, 4345.641, 4155.385, 4180, 4186.667, 0, 0, []
1629045103.7615, 17, 0, 4221.538, 4325.641, 4174.872, 4183.077, 4185.128, 0, 0, []
1629045103.7694, 18, 0, 4208.718, 4338.462, 4150.769, 4172.821, 4169.231, 0, 0, []
1629045103.7773, 19, 0, 4195.897, 4348.718, 4185.128, 4175.897, 4162.051, 0, 0, []
1629045103.7852, 20, 0, 4209.231, 4336.41, 4171.795, 4176.41, 4179.487, 0, 0, []
1629045103.7932, 21, 0, 4229.744, 4341.026, 4161.538, 4172.308, 4196.41, 0, 0, []
1629045103.8011, 22, 0, 4232.821, 4364.103, 4183.077, 4176.41, 4190.256, 0, 0, []
1629045103.8091, 23, 0, 4227.692, 4366.667, 4157.436, 4187.179, 4183.077, 0, 0, []
1629045103.8169, 24, 0, 4219.487, 4346.154, 4179.487, 4194.359, 4186.667, 0, 0, []
1629045103.8249, 25, 0, 4205.128, 4330.769, 4163.59, 4183.59, 4183.077, 0, 0, []
1629045103.8328, 26, 0, 4212.308, 4333.846, 4157.949, 4177.436, 4185.641, 0, 0, []
1629045103.8408, 27, 0, 4241.538, 4353.333, 4196.923, 4191.795, 4209.744, 0, 0, []
1629045103.8487, 28, 0, 4256.923, 4367.179, 4170.769, 4204.615, 4226.154, 0, 0, []
1629045103.8564, 29, 0, 4244.103, 4351.282, 4180.513, 4202.564, 4215.897, 0, 0, []
1629045103.8643, 30, 0, 4227.179, 4336.923, 4168.718, 4190.769, 4210.769, 0, 0, []
1629045103.8721, 31, 0, 4232.821, 4348.205, 4155.897, 4195.897, 4228.205, 0, 0, []
1629045103.88, 32, 0, 4244.103, 4346.154, 4187.179, 4207.692, 4237.436, 0, 0, []
1629045103.8878, 33, 0, 4231.795, 4332.308, 4153.333, 4192.308, 4215.897, 0, 0, []
1629045103.8956, 34, 0, 4211.795, 4336.923, 4162.564, 4176.923, 4195.897, 0, 0, []
1629045103.9034, 35, 0, 4215.385, 4341.538, 4168.205, 4180.513, 4203.59, 0, 0, []
1629045103.9113, 36, 0, 4226.667, 4340.513, 4152.308, 4184.615, 4217.436, 0, 0, []
1629045103.9191, 37, 0, 4233.333, 4349.231, 4181.026, 4190.256, 4225.128, 0, 0, []
1629045103.9271, 38, 0, 4230.769, 4344.103, 4155.385, 4190.769, 4223.077, 0, 0, []
1629045103.935, 39, 0, 4214.359, 4317.949, 4164.615, 4181.538, 4207.692, 0, 0, []
1629045103.9429, 40, 0, 4198.974, 4306.154, 4166.154, 4165.128, 4196.41, 0, 0, []
1629045103.9508, 41, 0, 4198.462, 4316.923, 4145.128, 4160.513, 4198.974, 0, 0, []
1629045103.9588, 42, 0, 4205.128, 4330.769, 4175.897, 4169.744, 4203.59, 0, 0, []
1629045103.9667, 43, 0, 4199.487, 4326.667, 4141.026, 4166.667, 4202.051, 0, 0, []
1629045103.9747, 44, 0, 4187.179, 4307.692, 4144.103, 4164.103, 4199.487, 0, 0, []
1629045103.9825, 45, 0, 4185.641, 4321.026, 4165.128, 4166.667, 4199.487, 0, 0, []
1629045103.9905, 46, 0, 4193.333, 4343.59, 4145.128, 4166.154, 4198.974, 0, 0, []
1629045103.9984, 47, 0, 4199.487, 4323.59, 4178.462, 4165.641, 4199.487, 0, 0, []
1629045104.0062, 48, 0, 4204.615, 4312.308, 4158.974, 4161.538, 4211.282, 0, 0, []
1629045104.0141, 49, 0, 4209.744, 4328.718, 4151.795, 4168.205, 4226.667, 0, 0, []
1629045104.0218, 50, 0, 4213.333, 4332.308, 4168.205, 4171.795, 4226.154, 0, 0, []
1629045104.0297, 51, 0, 4212.308, 4326.154, 4153.333, 4162.051, 4217.949, 0, 0, []
1629045104.0375, 52, 0, 4207.692, 4325.641, 4187.179, 4162.051, 4215.897, 0, 0, []
1629045104.0454, 53, 0, 4206.667, 4333.333, 4164.103, 4167.692, 4219.487, 0, 0, []
1629045104.0532, 54, 0, 4208.205, 4333.333, 4150.769, 4168.205, 4220, 0, 0, []
1629045104.061, 55, 0, 4201.026, 4322.051, 4166.154, 4162.051, 4213.333, 0, 0, []
1629045104.0688, 56, 0, 4183.59, 4316.923, 4131.282, 4154.359, 4203.59, 0, 0, []
1629045104.0768, 57, 0, 4169.231, 4316.923, 4150.256, 4147.179, 4193.846, 0, 0, []
1629045104.0847, 58, 0, 4169.231, 4321.026, 4137.436, 4137.949, 4192.821, 0, 0, []
1629045104.0927, 59, 0, 4187.179, 4327.179, 4136.923, 4152.308, 4207.179, 0, 0, []
1629045104.1005, 60, 0, 4204.103, 4333.846, 4179.487, 4179.487, 4222.051, 0, 0, []
1629045104.1085, 61, 0, 4198.462, 4331.795, 4152.308, 4180.513, 4220.513, 0, 0, []
1629045104.1164, 62, 0, 4188.205, 4321.026, 4154.359, 4170.256, 4213.846, 0, 0, []
1629045104.1244, 63, 0, 4188.205, 4320.513, 4136.41, 4161.538, 4214.359, 0, 0, []
1629045104.1323, 64, 0, 4194.359, 4328.718, 4134.359, 4163.077, 4213.846, 450, 0, []
1629045104.1402, 65, 0, 4193.333, 4326.667, 4177.436, 4172.821, 4206.667, 450, 0, []
1629045104.1481, 66, 0, 4176.923, 4312.821, 4140, 4166.667, 4196.41, 16189, 0, []
1629045104.1559, 67, 0, 4164.103, 4312.821, 4146.154, 4156.923, 4192.821, 450, 0, []
1629045104.1638, 68, 0, 4175.897, 4329.744, 4153.333, 4156.923, 4208.718, 16169, 0, []
1629045104.1716, 69, 0, 4193.846, 4334.359, 4137.949, 4165.641, 4226.154, 450, 0, []
1629045104.1794, 70, 0, 4193.333, 4327.692, 4166.667, 4171.282, 4220.513, 309, 0, []
1629045104.1872, 71, 0, 4182.564, 4322.051, 4138.462, 4156.41, 4197.436, 450, 0, []
1629045104.1951, 72, 0, 4181.026, 4314.872, 4145.128, 4142.051, 4187.179, 450, 0, []
1629045104.2029, 73, 0, 4189.231, 4317.949, 4154.872, 4143.077, 4195.897, 16146, 0, []
1629045104.2108, 74, 0, 4197.436, 4320.513, 4138.462, 4148.718, 4203.077, 450, 0, []
1629045104.2185, 75, 0, 4202.051, 4307.692, 4169.744, 4156.41, 4209.744, 16207, 0, []
1629045104.2265, 76, 0, 4200.513, 4305.641, 4145.641, 4164.103, 4218.462, 450, 0, []
1629045104.2344, 77, 0, 4195.385, 4316.41, 4150.769, 4170.256, 4215.385, 450, 0, []
1629045104.2424, 78, 0, 4191.795, 4308.718, 4158.462, 4164.103, 4203.59, 450, 0, []
1629045104.2503, 79, 0, 4190.256, 4294.872, 4134.872, 4162.051, 4196.923, 16207, 0, []
1629045104.2582, 80, 0, 4196.923, 4306.154, 4176.923, 4176.923, 4202.564, 450, 0, []
1629045104.2661, 81, 0, 4204.103, 4325.128, 4160.513, 4178.462, 4209.744, 450, 0, []
1629045104.2741, 82, 0, 4194.872, 4317.949, 4151.282, 4169.744, 4203.077, 450, 0, []
1629045104.282, 83, 0, 4178.974, 4314.872, 4163.077, 4162.051, 4192.308, 16207, 0, []
1629045104.29, 84, 0, 4179.487, 4354.872, 4146.667, 4156.41, 4194.872, 450, 0, []
1629045104.2979, 85, 0, 4189.744, 4407.692, 4182.051, 4163.59, 4199.487, 450, 0, []
1629045104.3056, 86, 0, 4189.231, 4415.385, 4158.462, 4164.103, 4196.41, 450, 0, []
1629045104.3135, 87, 0, 4180.513, 4402.051, 4148.205, 4152.821, 4189.744, 16207, 0, []
1629045104.3213, 88, 0, 4178.462, 4417.949, 4176.923, 4154.872, 4188.205, 450, 0, []
1629045104.3292, 89, 0, 4180, 4421.026, 4150.769, 4168.718, 4187.692, 450, 0, []
1629045104.337, 90, 0, 4185.128, 4396.41, 4172.308, 4179.487, 4185.641, 450, 0, []
1629045104.3448, 91, 0, 4193.846, 4403.59, 4166.154, 4175.897, 4190.256, 16207, 0, []
1629045104.3526, 92, 0, 4201.026, 4416.923, 4159.487, 4175.897, 4195.897, 450, 0, []
1629045104.3605, 93, 0, 4202.564, 4400, 4178.974, 4182.564, 4192.308, 450, 0, []
1629045104.3683, 94, 0, 4194.359, 4395.385, 4141.026, 4176.923, 4185.641, 450, 0, []
1629045104.3762, 95, 0, 4185.128, 4406.667, 4162.051, 4172.821, 4185.128, 16207, 0, []
1629045104.3839, 96, 0, 4183.59, 4401.538, 4163.59, 4171.795, 4183.077, 450, 0, []
1629045104.3919, 97, 0, 4192.308, 4400, 4151.282, 4175.385, 4186.667, 450, 0, []
1629045104.3998, 98, 0, 4203.077, 4416.923, 4177.436, 4182.564, 4202.564, 450, 0, []
1629045104.4078, 99, 0, 4202.051, 4406.667, 4146.667, 4177.949, 4200, 16207, 0, []
1629045104.4157, 100, 0, 4196.41, 4384.103, 4161.026, 4176.923, 4188.205, 450, 0, []
1629045104.4236, 101, 0, 4202.051, 4396.41, 4154.359, 4180, 4191.795, 450, 0, []
1629045104.4315, 102, 0, 4214.359, 4413.846, 4142.051, 4189.231, 4203.59, 450, 0, []
1629045104.4395, 103, 0, 4212.308, 4403.59, 4189.231, 4199.487, 4205.128, 16207, 0, []
1629045104.4474, 104, 0, 4203.077, 4398.974, 4152.821, 4184.103, 4196.41, 450, 0, []
1629045104.4554, 105, 0, 4210.256, 4420, 4149.231, 4181.538, 4196.41, 450, 0, []
1629045104.4632, 106, 0, 4220, 4427.692, 4156.923, 4194.872, 4205.641, 450, 0, []
1629045104.471, 107, 0, 4208.718, 4408.718, 4124.103, 4188.205, 4201.538, 16207, 0, []
1629045104.4789, 108, 0, 4198.462, 4406.154, 4147.692, 4180.513, 4185.641, 450, 0, []
1629045104.4867, 109, 0, 4206.154, 4417.436, 4145.641, 4191.282, 4191.795, 450, 0, []
1629045104.4946, 110, 0, 4220.513, 4411.795, 4172.308, 4204.103, 4210.256, 450, 0, []
1629045104.5023, 111, 0, 4231.282, 4401.026, 4181.026, 4193.333, 4208.718, 16207, 0, []
1629045104.5102, 112, 0, 4226.667, 4395.897, 4144.615, 4181.026, 4200.513, 450, 0, []
1629045104.518, 113, 0, 4215.385, 4386.667, 4170.256, 4182.051, 4200, 450, 0, []
1629045104.5259, 114, 0, 4223.077, 4388.718, 4157.949, 4182.051, 4207.179, 450, 0, []
1629045104.5337, 115, 0, 4234.872, 4400, 4167.179, 4188.718, 4212.821, 16207, 0, []
1629045104.5416, 116, 0, 4223.077, 4398.462, 4179.487, 4186.667, 4205.128, 450, 0, []
1629045104.5495, 117, 0, 4212.308, 4397.436, 4152.308, 4173.333, 4192.821, 450, 0, []
1629045104.5575, 118, 0, 4219.487, 4404.615, 4181.026, 4174.359, 4196.41, 450, 0, []
1629045104.5654, 119, 0, 4218.974, 4398.974, 4150.256, 4172.821, 4197.436, 16207, 0, []
1629045104.5733, 120, 0, 4211.795, 4386.667, 4129.744, 4162.051, 4185.128, 450, 0, []
1629045104.5811, 121, 0, 4205.128, 4393.333, 4143.077, 4154.872, 4180.513, 450, 0, []
1629045104.589, 122, 0, 4198.974, 4410.769, 4115.897, 4155.897, 4181.026, 450, 0, []
1629045104.5969, 123, 0, 4207.692, 4411.795, 4155.897, 4168.205, 4185.641, 16207, 0, []
1629045104.6047, 124, 0, 4223.59, 4396.41, 4158.974, 4176.41, 4199.487, 450, 0, []
1629045104.6127, 125, 0, 4223.077, 4383.077, 4147.692, 4181.538, 4203.59, 450, 0, []
1629045104.6205, 126, 0, 4214.359, 4398.462, 4171.282, 4188.718, 4192.821, 450, 0, []
1629045104.6284, 127, 0, 4216.41, 4423.077, 4151.282, 4188.205, 4193.333, 16207, 0, []
1629045104.6362, 128, 0, 4217.436, 4403.077, 4168.205, 4180.513, 4201.538, 450, 0, []
1629045104.6441, 0, 0, 4215.897, 4371.282, 4150.256, 4167.692, 4199.487, 450, 0, []
1629045104.6519, 1, 0, 4223.59, 4383.59, 4135.897, 4174.872, 4204.615, 450, 0, []
1629045104.6598, 2, 0, 4229.744, 4399.487, 4167.179, 4190.256, 4218.974, 16189, 0, []
1629045104.6675, 3, 0, 4218.974, 4381.026, 4138.974, 4177.949, 4216.41, 450, 0, []
1629045104.6754, 4, 0, 4206.667, 4374.359, 4160, 4167.692, 4201.538, 16169, 0, []
1629045104.6832, 5, 0, 4208.205, 4390.256, 4158.974, 4164.615, 4196.41, 450, 0, []
1629045104.6912, 6, 0, 4213.333, 4380, 4130.769, 4157.949, 4197.436, 308, 0, []
1629045104.6991, 7, 0, 4215.897, 4364.615, 4167.179, 4169.231, 4204.103, 450, 0, []
1629045104.707, 8, 0, 4214.872, 4384.615, 4152.308, 4185.641, 4216.41, 450, 0, []
1629045104.7149, 9, 0, 4206.667, 4391.282, 4156.923, 4182.564, 4214.359, 16146, 0, []
1629045104.7229, 10, 0, 4198.462, 4370.769, 4154.872, 4165.128, 4202.051, 450, 0, []
1629045104.7308, 11, 0, 4199.487, 4359.487, 4133.846, 4156.41, 4200, 16204, 0, []
1629045104.7388, 12, 0, 4202.564, 4359.487, 4165.128, 4160, 4203.077, 450, 0, []
1629045104.7466, 13, 0, 4197.436, 4364.615, 4140.513, 4164.615, 4201.026, 450, 0, []
1629045104.7546, 14, 0, 4197.436, 4371.795, 4153.846, 4172.821, 4197.949, 450, 0, []
1629045104.7625, 15, 0, 4202.564, 4374.872, 4171.282, 4173.333, 4193.333, 16204, 0, []
1629045104.7705, 16, 0, 4197.949, 4372.308, 4141.026, 4163.077, 4186.667, 0, 0, []
1629045104.7784, 17, 0, 4185.641, 4372.821, 4166.667, 4155.385, 4182.564, 0, 0, []
1629045104.7861, 18, 0, 4178.974, 4378.974, 4146.667, 4147.692, 4187.179, 0, 0, []
1629045104.794, 19, 0, 4183.59, 4375.385, 4143.59, 4152.308, 4198.974, 0, 0, []
1629045104.8018, 20, 0, 4189.744, 4356.923, 4154.359, 4158.462, 4207.179, 0, 0, []
1629045104.8097, 21, 0, 4184.615, 4346.667, 4131.282, 4157.436, 4204.615, 0, 0, []
1629045104.8175, 22, 0, 4174.359, 4365.128, 4167.179, 4158.462, 4197.949, 0, 0, []
1629045104.8253, 23, 0, 4172.308, 4368.205, 4146.154, 4150.256, 4196.923, 0, 0, []
1629045104.8331, 24, 0, 4184.103, 4348.205, 4142.051, 4150.769, 4207.179, 0, 0, []
1629045104.841, 25, 0, 4201.538, 4351.795, 4178.974, 4164.103, 4223.077, 0, 0, []
1629045104.8488, 26, 0, 4196.41, 4355.385, 4149.231, 4160.513, 4216.41, 0, 0, []
1629045104.8568, 27, 0, 4174.359, 4338.974, 4157.949, 4150.256, 4191.795, 0, 0, []
1629045104.8646, 28, 0, 4174.359, 4346.667, 4149.744, 4147.692, 4188.718, 0, 0, []
1629045104.8726, 29, 0, 4189.231, 4363.077, 4150.769, 4149.744, 4200, 0, 0, []
1629045104.8805, 30, 0, 4186.667, 4358.462, 4168.205, 4146.667, 4195.385, 0, 0, []
1629045104.8885, 31, 0, 4177.436, 4353.333, 4132.821, 4142.564, 4182.051, 0, 0, []
1629045104.8964, 32, 0, 4180.513, 4345.641, 4161.538, 4154.872, 4182.564, 0, 0, []
1629045104.9043, 33, 0, 4181.538, 4339.487, 4156.41, 4162.051, 4194.359, 0, 0, []
1629045104.9122, 34, 0, 4183.59, 4348.205, 4137.949, 4159.487, 4201.538, 0, 0, []
1629045104.9202, 35, 0, 4196.923, 4348.718, 4168.718, 4155.897, 4205.641, 0, 0, []
1629045104.9281, 36, 0, 4200, 4341.538, 4141.026, 4145.128, 4203.077, 0, 0, []
1629045104.9359, 37, 0, 4193.333, 4332.308, 4153.333, 4141.538, 4193.333, 0, 0, []
1629045104.9437, 38, 0, 4183.077, 4321.026, 4149.744, 4141.026, 4178.462, 0, 0, []
1629045104.9515, 39, 0, 4161.538, 4318.462, 4122.051, 4130.256, 4157.436, 0, 0, []
1629045104.9594, 40, 0, 4157.949, 4328.718, 4151.282, 4130.256, 4151.795, 0, 0, []
1629045104.9672, 41, 0, 4186.667, 4321.538, 4137.949, 4146.154, 4175.897, 0, 0, []
1629045104.9751, 42, 0, 4196.923, 4296.923, 4152.308, 4158.462, 4188.205, 0, 0, []
1629045104.9829, 43, 0, 4177.436, 4301.026, 4145.641, 4143.077, 4170.769, 0, 0, []
1629045104.9907, 44, 0, 4173.846, 4318.974, 4122.564, 4131.282, 4167.692, 0, 0, []
1629045104.9985, 45, 0, 4193.333, 4318.974, 4164.615, 4145.128, 4187.179, 0, 0, []
1629045105.0065, 46, 0, 4198.974, 4312.821, 4143.59, 4147.692, 4193.846, 0, 0, []
1629045105.0144, 47, 0, 4190.256, 4313.333, 4141.538, 4137.949, 4188.718, 0, 0, []
1629045105.0224, 48, 0, 4190.769, 4321.538, 4148.205, 4133.846, 4185.128, 0, 0, []
1629045105.0302, 49, 0, 4198.462, 4313.333, 4129.744, 4139.487, 4183.59, 0, 0, []
1629045105.0382, 50, 0, 4201.538, 4293.333, 4169.231, 4149.744, 4188.205, 0, 0, []
1629045105.0461, 51, 0, 4199.487, 4304.103, 4144.615, 4146.667, 4192.308, 0, 0, []
1629045105.0541, 52, 0, 4195.385, 4316.41, 4129.231, 4135.897, 4185.641, 0, 0, []
1629045105.062, 53, 0, 4191.282, 4305.128, 4137.949, 4124.615, 4178.974, 0, 0, []
1629045105.0699, 54, 0, 4196.41, 4313.846, 4121.026, 4122.051, 4186.667, 0, 0, []
1629045105.0778, 55, 0, 4206.667, 4328.205, 4163.077, 4135.385, 4200, 0, 0, []
1629045105.0858, 56, 0, 4203.59, 4311.282, 4157.436, 4143.59, 4198.974, 0, 0, []
1629045105.0937, 57, 0, 4197.436, 4310.256, 4163.077, 4155.897, 4194.359, 0, 0, []
1629045105.1015, 58, 0, 4208.718, 4337.949, 4184.103, 4178.462, 4206.154, 0, 0, []
1629045105.1093, 59, 0, 4225.641, 4330.256, 4146.154, 4186.154, 4219.487, 0, 0, []
1629045105.1171, 60, 0, 4232.308, 4302.564, 4171.282, 4182.051, 4220.513, 0, 0, []
1629045105.125, 61, 0, 4232.308, 4307.692, 4174.872, 4182.051, 4221.026, 0, 0, []
1629045105.1328, 62, 0, 4225.641, 4321.026, 4186.154, 4180, 4215.897, 0, 0, []
1629045105.1407, 63, 0, 4217.436, 4330.769, 4218.974, 4165.128, 4203.077, 0, 0, []
1629045105.1484, 64, 0, 4218.974, 4358.462, 4166.667, 4155.897, 4194.359, 450, 0, []
1629045105.1564, 65, 0, 4231.795, 4374.359, 4166.154, 4175.385, 4197.436, 450, 0, []
1629045105.1643, 66, 0, 4247.692, 4363.077, 4172.308, 4192.821, 4216.41, 16189, 0, []
1629045105.1722, 67, 0, 4254.359, 4355.897, 4173.846, 4196.923, 4233.333, 450, 0, []
1629045105.18, 68, 0, 4244.103, 4348.205, 4200, 4196.41, 4226.667, 16169, 0, []
1629045105.1879, 69, 0, 4226.154, 4335.385, 4176.41, 4198.974, 4212.308, 450, 0, []
1629045105.1958, 70, 0, 4222.051, 4338.462, 4203.59, 4212.308, 4208.205, 309, 0, []
1629045105.2038, 71, 0, 4234.359, 4340, 4200, 4209.231, 4210.769, 450, 0, []
1629045105.2117, 72, 0, 4250.256, 4320, 4177.436, 4203.59, 4214.872, 450, 0, []
1629045105.2197, 73, 0, 4255.897, 4321.026, 4205.128, 4216.923, 4218.462, 16146, 0, []
1629045105.2275, 74, 0, 4242.564, 4337.436, 4161.026, 4210.769, 4209.744, 450, 0, []
1629045105.2355, 75, 0, 4228.718, 4327.692, 4160, 4193.846, 4201.538, 16204, 0, []
1629045105.2434, 76, 0, 4229.231, 4332.821, 4179.487, 4198.974, 4206.667, 450, 0, []
1629045105.2512, 77, 0, 4234.872, 4351.282, 4170.769, 4207.692, 4212.821, 450, 0, []
1629045105.2591, 78, 0, 4246.154, 4346.667, 4197.436, 4209.231, 4220.513, 450, 0, []
1629045105.2668, 79, 0, 4254.872, 4335.897, 4164.615, 4207.692, 4223.077, 16204, 0, []
1629045105.2747, 80, 0, 4244.615, 4342.564, 4169.231, 4210.256, 4212.308, 450, 0, []
1629045105.2825, 81, 0, 4238.974, 4346.154, 4185.641, 4212.821, 4204.615, 450, 0, []
1629045105.2904, 82, 0, 4243.077, 4328.205, 4158.462, 4216.41, 4208.205, 450, 0, []
1629045105.2982, 83, 0, 4238.462, 4321.538, 4183.077, 4223.077, 4212.821, 16204, 0, []
1629045105.306, 84, 0, 4236.41, 4335.385, 4174.872, 4218.462, 4215.385, 450, 0, []
1629045105.3138, 85, 0, 4235.897, 4332.308, 4184.103, 4212.308, 4212.821, 450, 0, []
1629045105.3218, 86, 0, 4226.154, 4303.077, 4187.179, 4206.154, 4200, 450, 0, []
1629045105.3297, 87, 0, 4221.538, 4287.692, 4149.744, 4204.615, 4195.385, 16204, 0, []
1629045105.3377, 88, 0, 4237.436, 4305.128, 4177.436, 4212.308, 4211.282, 450, 0, []
1629045105.3456, 89, 0, 4242.051, 4318.974, 4156.923, 4197.436, 4215.385, 450, 0, []
1629045105.3535, 90, 0, 4231.282, 4320, 4155.897, 4186.154, 4201.538, 450, 0, []
1629045105.3614, 91, 0, 4230.256, 4319.487, 4187.692, 4203.077, 4197.949, 16204, 0, []
1629045105.3694, 92, 0, 4222.564, 4313.333, 4151.282, 4203.077, 4197.436, 450, 0, []
1629045105.3773, 93, 0, 4214.872, 4291.795, 4169.231, 4187.179, 4191.795, 450, 0, []
1629045105.3853, 94, 0, 4229.744, 4271.282, 4174.359, 4184.615, 4203.59, 450, 0, []
1629045105.3931, 95, 0, 4253.846, 4275.897, 4174.359, 4198.974, 4227.692, 16204, 0, []
1629045105.4009, 96, 0, 4268.718, 4300.513, 4193.846, 4204.103, 4238.974, 450, 0, []
1629045105.4088, 97, 0, 4284.615, 4312.821, 4167.179, 4192.308, 4250.256, 450, 0, []
1629045105.4166, 98, 0, 4314.872, 4301.026, 4195.897, 4191.795, 4271.282, 450, 0, []
1629045105.4245, 99, 0, 4347.179, 4303.077, 4192.308, 4201.026, 4292.308, 16204, 0, []
1629045105.4322, 100, 0, 4381.026, 4308.205, 4180.513, 4214.872, 4317.436, 450, 0, []
1629045105.4401, 101, 0, 4414.359, 4283.077, 4198.974, 4223.59, 4344.103, 450, 0, []
1629045105.4479, 102, 0, 4445.641, 4273.333, 4152.821, 4222.051, 4362.564, 450, 0, []
1629045105.4558, 103, 0, 4471.282, 4298.462, 4171.282, 4223.077, 4377.949, 16204, 0, []
1629045105.4636, 104, 0, 4467.179, 4297.949, 4178.974, 4213.846, 4389.231, 450, 0, []
1629045105.4715, 105, 0, 4446.667, 4273.333, 4155.897, 4205.128, 4385.641, 450, 0, []
1629045105.4794, 106, 0, 4435.897, 4274.872, 4183.077, 4208.718, 4368.205, 450, 0, []
1629045105.4874, 107, 0, 4428.205, 4275.385, 4168.205, 4208.205, 4354.872, 16204, 0, []
1629045105.4953, 108, 0, 4410.769, 4262.051, 4187.179, 4214.872, 4350.256, 450, 0, []
1629045105.5033, 109, 0, 4383.59, 4255.897, 4177.436, 4214.872, 4329.231, 450, 0, []
1629045105.5111, 110, 0, 4352.308, 4250.256, 4138.974, 4197.949, 4297.436, 450, 0, []
1629045105.5191, 111, 0, 4327.692, 4254.359, 4173.846, 4191.795, 4286.667, 16204, 0, []
1629045105.527, 112, 0, 4310.769, 4257.949, 4156.923, 4192.821, 4286.667, 450, 0, []
1629045105.535, 113, 0, 4301.538, 4243.59, 4164.615, 4194.359, 4275.385, 450, 0, []
1629045105.5429, 114, 0, 4294.872, 4236.923, 4178.462, 4194.359, 4265.641, 450, 0, []
1629045105.5507, 115, 0, 4282.564, 4246.154, 4149.231, 4193.846, 4260.513, 16204, 0, []
1629045105.5586, 116, 0, 4274.872, 4246.154, 4169.231, 4194.872, 4252.821, 450, 0, []
1629045105.5665, 117, 0, 4276.41, 4238.974, 4146.667, 4189.744, 4242.564, 450, 0, []
1629045105.5745, 118, 0, 4268.205, 4227.692, 4150.769, 4188.205, 4235.385, 450, 0, []
1629045105.5823, 119, 0, 4250.769, 4223.077, 4171.795, 4187.692, 4232.821, 16204, 0, []
1629045105.5901, 120, 0, 4233.333, 4242.564, 4140, 4182.051, 4225.128, 450, 0, []
1629045105.5979, 121, 0, 4220, 4243.077, 4157.949, 4180, 4208.718, 450, 0, []
1629045105.6058, 122, 0, 4214.359, 4220, 4141.538, 4179.487, 4196.41, 450, 0, []
1629045105.6136, 123, 0, 4214.872, 4215.897, 4141.026, 4186.667, 4195.385, 16204, 0, []
1629045105.6215, 124, 0, 4215.897, 4220, 4156.923, 4191.282, 4199.487, 450, 0, []
1629045105.6292, 125, 0, 4212.821, 4213.846, 4122.051, 4177.436, 4201.026, 450, 0, []
1629045105.6372, 126, 0, 4217.436, 4211.795, 4154.359, 4170.769, 4201.026, 450, 0, []
1629045105.6451, 127, 0, 4232.308, 4218.462, 4155.897, 4176.923, 4202.564, 16204, 0, []
1629045105.6531, 128, 0, 4242.564, 4220.513, 4154.872, 4182.564, 4205.128, 450, 0, []
1629045105.661, 0, 0, 4237.949, 4211.795, 4179.487, 4173.333, 4203.59, 450, 0, []
1629045105.6689, 1, 0, 4227.179, 4197.949, 4146.154, 4160, 4198.462, 450, 0, []
1629045105.6768, 2, 0, 4218.974, 4206.154, 4168.205, 4162.564, 4189.744, 16187, 0, []
1629045105.6848, 3, 0, 4212.821, 4227.179, 4162.051, 4164.103, 4186.154, 450, 0, []
1629045105.6927, 4, 0, 4214.359, 4218.974, 4146.667, 4165.641, 4191.795, 16169, 0, []
1629045105.7007, 5, 0, 4212.308, 4208.205, 4169.744, 4168.205, 4192.308, 450, 0, []
1629045105.7086, 6, 0, 4200, 4219.487, 4135.897, 4164.615, 4185.641, 309, 0, []
1629045105.7163, 7, 0, 4197.949, 4226.667, 4155.897, 4170.256, 4183.59, 450, 0, []
1629045105.7242, 8, 0, 4200.513, 4218.974, 4157.436, 4171.282, 4182.051, 450, 0, []
1629045105.732, 9, 0, 4189.231, 4214.872, 4132.308, 4160, 4171.795, 16146, 0, []
1629045105.7399, 10, 0, 4184.103, 4224.103, 4162.564, 4156.923, 4166.154, 450, 0, []
1629045105.7477, 11, 0, 4195.897, 4229.744, 4145.641, 4161.026, 4172.308, 16203, 0, []
1629045105.7555, 12, 0, 4196.41, 4213.333, 4155.897, 4164.615, 4172.821, 450, 0, []
1629045105.7633, 13, 0, 4186.154, 4200, 4158.462, 4160.513, 4175.385, 450, 0, []
1629045105.7712, 14, 0, 4185.128, 4208.718, 4142.051, 4155.897, 4181.026, 450, 0, []
1629045105.779, 15, 0, 4186.154, 4218.462, 4172.821, 4154.359, 4176.923, 16203, 0, []
1629045105.787, 16, 0, 4183.077, 4221.026, 4145.128, 4150.256, 4177.436, 0, 0, []
1629045105.7948, 17, 0, 4187.692, 4214.359, 4154.872, 4159.487, 4184.615, 0, 0, []
1629045105.8028, 18, 0, 4195.385, 4206.154, 4168.718, 4166.154, 4178.462, 0, 0, []
1629045105.8107, 19, 0, 4195.385, 4216.923, 4133.333, 4154.359, 4166.154, 0, 0, []
1629045105.8187, 20, 0, 4199.487, 4236.923, 4159.487, 4157.436, 4175.385, 0, 0, []
1629045105.8266, 21, 0, 4201.026, 4244.103, 4144.103, 4163.077, 4188.205, 0, 0, []
1629045105.8345, 22, 0, 4188.718, 4239.487, 4137.436, 4153.333, 4177.436, 0, 0, []
1629045105.8424, 23, 0, 4177.949, 4238.462, 4143.59, 4151.282, 4166.667, 0, 0, []
1629045105.8504, 24, 0, 4182.051, 4227.692, 4120, 4166.154, 4175.897, 0, 0, []
1629045105.8583, 25, 0, 4186.667, 4215.897, 4159.487, 4175.897, 4187.179, 0, 0, []
1629045105.8661, 26, 0, 4185.128, 4225.641, 4146.667, 4170.769, 4185.128, 0, 0, []
1629045105.8739, 27, 0, 4186.154, 4230.769, 4137.949, 4175.897, 4185.641, 0, 0, []
1629045105.8817, 28, 0, 4187.692, 4219.487, 4156.41, 4181.026, 4190.256, 0, 0, []
1629045105.8896, 29, 0, 4183.077, 4214.359, 4127.179, 4168.718, 4188.718, 0, 0, []
1629045105.8974, 30, 0, 4180, 4213.333, 4153.333, 4162.564, 4185.128, 0, 0, []
1629045105.9053, 31, 0, 4179.487, 4212.308, 4146.667, 4163.077, 4186.667, 0, 0, []
1629045105.913, 32, 0, 4173.333, 4223.077, 4142.051, 4168.205, 4182.564, 0, 0, []
1629045105.9209, 33, 0, 4168.718, 4238.974, 4167.692, 4172.308, 4172.821, 0, 0, []
1629045105.9287, 34, 0, 4168.718, 4236.41, 4142.051, 4167.692, 4170.769, 0, 0, []
1629045105.9367, 35, 0, 4161.538, 4234.359, 4162.564, 4167.179, 4167.692, 0, 0, []
1629045105.9446, 36, 0, 4153.333, 4240.513, 4147.692, 4167.692, 4160.513, 0, 0, []
1629045105.9525, 37, 0, 4158.974, 4233.333, 4133.846, 4170.769, 4161.538, 0, 0, []
1629045105.9604, 38, 0, 4173.333, 4229.231, 4164.615, 4174.359, 4168.205, 0, 0, []
1629045105.9684, 39, 0, 4183.077, 4235.385, 4127.692, 4162.564, 4168.718, 0, 0, []
1629045105.9763, 40, 0, 4187.692, 4231.795, 4135.897, 4148.718, 4161.026, 0, 0, []
1629045105.9843, 41, 0, 4185.128, 4224.615, 4134.872, 4142.564, 4152.821, 0, 0, []
1629045105.9921, 42, 0, 4180, 4229.744, 4126.667, 4144.103, 4148.205, 0, 0, []
1629045106.0001, 43, 0, 4181.026, 4232.821, 4171.795, 4149.231, 4150.256, 0, 0, []
1629045106.008, 44, 0, 4191.795, 4229.744, 4154.359, 4154.872, 4160, 0, 0, []
1629045106.0158, 45, 0, 4203.077, 4242.564, 4178.974, 4177.436, 4177.949, 0, 0, []
1629045106.0237, 46, 0, 4205.128, 4255.897, 4193.333, 4190.769, 4189.231, 0, 0, []
1629045106.0315, 47, 0, 4205.128, 4252.308, 4164.103, 4182.564, 4183.077, 0, 0, []
1629045106.0393, 48, 0, 4215.385, 4249.744, 4190.769, 4178.462, 4175.385, 0, 0, []
1629045106.0471, 49, 0, 4225.128, 4252.821, 4174.359, 4182.051, 4175.897, 0, 0, []
1629045106.055, 50, 0, 4221.538, 4246.667, 4182.051, 4191.795, 4172.821, 0, 0, []
1629045106.0628, 51, 0, 4205.641, 4247.179, 4187.692, 4190.769, 4156.923, 0, 0, []
1629045106.0707, 52, 0, 4194.872, 4258.462, 4164.103, 4182.564, 4145.128, 0, 0, []
1629045106.0784, 53, 0, 4201.538, 4249.231, 4195.385, 4186.667, 4150.769, 0, 0, []
1629045106.0863, 54, 0, 4207.692, 4244.103, 4169.744, 4189.231, 4158.462, 0, 0, []
1629045106.0941, 55, 0, 4203.077, 4249.231, 4167.179, 4200.513, 4160.513, 0, 0, []
1629045106.1021, 56, 0, 4201.538, 4239.487, 4182.051, 4214.872, 4162.564, 0, 0, []
1629045106.11, 57, 0, 4200.513, 4241.026, 4153.846, 4207.179, 4157.949, 0, 0, []
1629045106.1179, 58, 0, 4198.974, 4251.795, 4184.615, 4200, 4156.923, 0, 0, []
1629045106.1258, 59, 0, 4205.128, 4247.179, 4173.333, 4207.179, 4170.769, 0, 0, []
1629045106.1338, 60, 0, 4206.667, 4239.487, 4169.231, 4215.385, 4174.359, 0, 0, []
1629045106.1417, 61, 0, 4198.974, 4237.436, 4182.051, 4208.718, 4158.974, 0, 0, []
1629045106.1497, 62, 0, 4202.564, 4239.487, 4152.308, 4200.513, 4157.949, 0, 0, []
1629045106.1575, 63, 0, 4215.897, 4239.487, 4187.179, 4214.872, 4175.385, 0, 0, []
1629045106.1655, 64, 0, 4210.256, 4237.949, 4174.359, 4218.462, 4177.436, 450, 0, []
1629045106.1734, 65, 0, 4193.333, 4238.974, 4151.795, 4205.641, 4161.026, 450, 0, []
1629045106.1812, 66, 0, 4193.333, 4232.308, 4178.462, 4204.615, 4157.949, 16187, 0, []
1629045106.1891, 67, 0, 4196.923, 4226.154, 4154.359, 4204.103, 4167.692, 450, 0, []
1629045106.1968, 68, 0, 4189.744, 4233.333, 4168.205, 4192.821, 4164.615, 16170, 0, []
1629045106.2047, 69, 0, 4182.051, 4238.462, 4159.487, 4182.564, 4147.179, 450, 0, []
1629045106.2125, 70, 0, 4179.487, 4218.462, 4147.692, 4192.308, 4142.051, 315, 0, []
1629045106.2204, 71, 0, 4186.154, 4197.949, 4172.308, 4194.359, 4150.769, 450, 0, []
1629045106.2282, 72, 0, 4193.333, 4194.872, 4146.667, 4180.513, 4160, 450, 0, []
1629045106.236, 73, 0, 4193.846, 4192.821, 4170.769, 4185.128, 4165.641, 16142, 0, []
1629045106.2438, 74, 0, 4186.154, 4200.513, 4163.59, 4185.128, 4161.538, 450, 0, []
1629045106.2518, 75, 0, 4177.436, 4215.385, 4137.949, 4171.795, 4147.692, 16127, 0, []
1629045106.2597, 76, 0, 4180, 4227.692, 4170.769, 4168.718, 4142.051, 450, 0, []
1629045106.2677, 77, 0, 4179.487, 4232.821, 4133.333, 4157.949, 4140.513, 450, 0, []
1629045106.2755, 78, 0, 4170.769, 4209.231, 4134.359, 4149.231, 4131.795, 450, 0, []
1629045106.2835, 79, 0, 4180.513, 4182.564, 4157.436, 4168.205, 4138.462, 16127, 0, []
1629045106.2914, 80, 0, 4198.974, 4182.564, 4152.821, 4192.308, 4158.974, 450, 0, []
1629045106.2994, 81, 0, 4196.41, 4190.769, 4175.897, 4194.359, 4160, 450, 0, []
1629045106.3073, 82, 0, 4181.538, 4200, 4137.949, 4178.974, 4141.538, 450, 0, []
1629045106.3152, 83, 0, 4172.308, 4214.872, 4141.538, 4168.718, 4125.641, 16127, 0, []
1629045106.3231, 84, 0, 4163.59, 4216.923, 4156.923, 4158.974, 4126.154, 450, 0, []
1629045106.3311, 85, 0, 4172.308, 4208.205, 4133.333, 4150.256, 4134.872, 450, 0, []
1629045106.339, 86, 0, 4190.256, 4212.308, 4156.923, 4155.897, 4146.154, 450, 0, []
1629045106.3468, 87, 0, 4187.179, 4215.385, 4130.256, 4162.564, 4149.744, 16127, 0, []
1629045106.3546, 88, 0, 4181.538, 4201.026, 4137.949, 4172.308, 4148.718, 450, 0, []
1629045106.3624, 89, 0, 4189.744, 4205.641, 4166.667, 4181.026, 4161.538, 450, 0, []
1629045106.3703, 90, 0, 4187.692, 4224.103, 4143.59, 4173.333, 4169.231, 450, 0, []
1629045106.3781, 91, 0, 4172.308, 4222.564, 4164.615, 4160, 4150.769, 16127, 0, []
1629045106.386, 92, 0, 4178.974, 4215.385, 4147.179, 4150.256, 4140.513, 450, 0, []
1629045106.3938, 93, 0, 4202.051, 4226.667, 4153.333, 4160, 4153.846, 450, 0, []
1629045106.4017, 94, 0, 4207.692, 4250.256, 4182.051, 4177.949, 4158.974, 450, 0, []
1629045106.4096, 95, 0, 4201.538, 4255.897, 4149.744, 4186.154, 4155.897, 16127, 0, []
1629045106.4176, 96, 0, 4197.436, 4237.949, 4160.513, 4182.564, 4153.846, 450, 0, []
1629045106.4255, 97, 0, 4189.231, 4231.795, 4140.513, 4167.179, 4145.128, 450, 0, []
1629045106.4334, 98, 0, 4179.487, 4240, 4138.462, 4158.462, 4142.051, 450, 0, []
1629045106.4411, 99, 0, 4181.538, 4237.436, 4171.282, 4160.513, 4149.744, 16127, 0, []
1629045106.4491, 100, 0, 4194.359, 4241.538, 4152.308, 4170.769, 4162.564, 450, 0, []
1629045106.457, 101, 0, 4205.128, 4261.538, 4184.615, 4185.641, 4174.359, 450, 0, []
1629045106.465, 102, 0, 4201.026, 4258.462, 4169.231, 4175.385, 4168.205, 450, 0, []
1629045106.4729, 103, 0, 4192.821, 4241.538, 4140, 4164.103, 4155.897, 16127, 0, []
1629045106.4806, 104, 0, 4193.333, 4247.179, 4169.231, 4170.256, 4156.41, 450, 0, []
1629045106.4885, 105, 0, 4188.205, 4251.282, 4138.462, 4161.538, 4156.923, 450, 0, []
1629045106.4963, 106, 0, 4182.051, 4243.59, 4143.59, 4153.846, 4151.795, 450, 0, []
1629045106.5042, 107, 0, 4193.333, 4238.974, 4148.205, 4155.385, 4152.308, 16127, 0, []
1629045106.512, 108, 0, 4202.564, 4232.308, 4141.538, 4158.974, 4158.974, 450, 0, []
1629045106.5198, 109, 0, 4204.615, 4244.615, 4174.872, 4167.179, 4168.718, 450, 0, []
1629045106.5276, 110, 0, 4211.795, 4265.641, 4152.308, 4169.231, 4174.872, 450, 0, []
1629045106.5355, 111, 0, 4207.692, 4251.795, 4161.538, 4158.462, 4165.128, 16127, 0, []
1629045106.5433, 112, 0, 4193.333, 4238.974, 4158.462, 4144.615, 4151.282, 450, 0, []
1629045106.5512, 113, 0, 4192.821, 4249.744, 4132.308, 4150.769, 4152.821, 450, 0, []
1629045106.5589, 114, 0, 4201.538, 4243.077, 4158.462, 4162.564, 4156.923, 450, 0, []
1629045106.5668, 115, 0, 4202.051, 4236.923, 4134.872, 4152.308, 4154.359, 16127, 0, []
1629045106.5747, 116, 0, 4204.103, 4251.795, 4149.744, 4149.744, 4158.974, 450, 0, []
1629045106.5826, 117, 0, 4206.154, 4257.436, 4165.128, 4160.513, 4164.615, 450, 0, []
1629045106.5906, 118, 0, 4198.974, 4245.641, 4135.897, 4157.949, 4154.359, 450, 0, []
1629045106.5985, 119, 0, 4201.538, 4246.154, 4164.103, 4151.795, 4153.846, 16127, 0, []
1629045106.6064, 120, 0, 4213.333, 4251.282, 4145.128, 4149.231, 4171.795, 450, 0, []
1629045106.6144, 121, 0, 4212.308, 4237.436, 4142.051, 4151.282, 4187.179, 450, 0, []
1629045106.6223, 122, 0, 4202.051, 4236.41, 4155.385, 4153.846, 4194.872, 450, 0, []
1629045106.6303, 123, 0, 4203.59, 4257.436, 4133.333, 4155.385, 4198.974, 16127, 0, []
