Timestamp, COUNTER, INTERPOLATED, AF3, T7, Pz, T8, AF4, RAW_CQ, MARKER_HARDWARE, MARKERS
1627719641.6847, 54, 0, 4227.692, 4223.077, 4139.487, 4177.436, 4181.026, 0, 0, []
1627719641.6926, 55, 0, 4211.795, 4221.538, 4127.179, 4155.897, 4167.692, 0, 0, []
1627719641.7006, 56, 0, 4227.692, 4207.179, 4132.308, 4167.692, 4191.795, 0, 0, []
1627719641.7084, 57, 0, 4270.769, 4223.59, 4180.513, 4207.692, 4236.923, 0, 0, []
1627719641.7164, 58, 0, 4291.282, 4249.231, 4186.154, 4224.103, 4262.564, 0, 0, []
1627719641.7243, 59, 0, 4271.282, 4235.897, 4185.128, 4209.231, 4251.795, 0, 0, []
1627719641.7323, 60, 0, 4259.487, 4220, 4165.641, 4201.538, 4241.538, 0, 0, []
1627719641.7402, 61, 0, 4273.846, 4234.359, 4167.179, 4215.385, 4257.436, 0, 0, []
1627719641.7479, 62, 0, 4268.205, 4234.359, 4190.256, 4217.436, 4257.949, 0, 0, []
1627719641.7558, 63, 0, 4251.282, 4214.359, 4151.282, 4194.872, 4234.872, 0, 0, []
1627719641.7636, 64, 0, 4249.231, 4203.077, 4135.897, 4163.59, 4211.795, 450, 0, []
1627719641.7715, 65, 0, 4274.872, 4209.231, 4150.256, 4155.897, 4217.436, 450, 0, []
1627719641.7793, 66, 0, 4349.744, 4235.385, 4172.821, 4187.179, 4273.846, 16181, 0, []
1627719641.7871, 67, 0, 4442.051, 4269.231, 4200, 4217.436, 4349.231, 450, 0, []
1627719641.7949, 68, 0, 4504.103, 4277.436, 4178.974, 4208.205, 4401.538, 16175, 0, []
1627719641.8028, 69, 0, 4565.128, 4275.897, 4191.795, 4194.359, 4444.103, 450, 0, []
1627719641.8106, 70, 0, 4628.718, 4282.564, 4194.359, 4192.821, 4477.436, 323, 0, []
1627719641.8186, 71, 0, 4638.974, 4277.949, 4152.821, 4165.128, 4469.231, 450, 0, []
1627719641.8264, 72, 0, 4634.872, 4272.821, 4165.128, 4141.538, 4448.718, 450, 0, []
1627719641.8344, 73, 0, 4653.846, 4278.462, 4177.436, 4154.872, 4440, 16155, 0, []
1627719641.8423, 74, 0, 4648.205, 4286.154, 4180.513, 4161.538, 4416.41, 450, 0, []
1627719641.8503, 75, 0, 4603.59, 4281.538, 4162.564, 4132.821, 4369.744, 16189, 0, []
1627719641.8582, 76, 0, 4552.308, 4264.615, 4135.897, 4107.692, 4314.872, 450, 0, []
1627719641.8661, 77, 0, 4516.923, 4263.077, 4167.692, 4123.59, 4282.051, 450, 0, []
1627719641.874, 78, 0, 4466.154, 4254.359, 4152.821, 4122.051, 4239.487, 450, 0, []
1627719641.882, 79, 0, 4398.462, 4224.103, 4120, 4080, 4168.718, 16189, 0, []
1627719641.8899, 80, 0, 4376.923, 4225.128, 4135.897, 4076.923, 4140.513, 450, 0, []
1627719641.8978, 81, 0, 4399.487, 4268.718, 4163.59, 4131.282, 4170.256, 450, 0, []
1627719641.9056, 82, 0, 4385.128, 4285.641, 4176.923, 4150.769, 4166.667, 450, 0, []
1627719641.9134, 83, 0, 4325.641, 4263.59, 4135.385, 4113.333, 4110.256, 16189, 0, []
1627719641.9213, 84, 0, 4295.897, 4249.231, 4131.282, 4098.974, 4085.128, 450, 0, []
1627719641.9291, 85, 0, 4303.077, 4252.308, 4158.974, 4116.923, 4100, 450, 0, []
1627719641.9371, 86, 0, 4289.231, 4251.282, 4137.436, 4107.179, 4084.615, 450, 0, []
1627719641.9449, 87, 0, 4264.615, 4241.538, 4146.154, 4087.179, 4051.795, 16189, 0, []
1627719641.9528, 88, 0, 4267.179, 4252.308, 4166.667, 4107.179, 4062.051, 450, 0, []
1627719641.9606, 89, 0, 4277.949, 4273.846, 4181.026, 4140.513, 4084.615, 450, 0, []
1627719641.9686, 90, 0, 4274.359, 4275.385, 4185.128, 4152.821, 4092.308, 450, 0, []
1627719641.9765, 91, 0, 4252.308, 4264.103, 4149.744, 4145.641, 4084.103, 16189, 0, []
1627719641.9844, 92, 1, 4250.598, 4265.128, 4155.84, 4150.313, 4091.225, 14440.222, 0, []
1627719641.9923, 93, 1, 4248.889, 4266.154, 4161.937, 4154.986, 4098.348, 12691.444, 0, []
1627719642.0002, 94, 1, 4247.179, 4267.179, 4168.034, 4159.658, 4105.47, 10942.667, 0, []
1627719642.0081, 95, 1, 4245.47, 4268.205, 4174.131, 4164.33, 4112.593, 9193.889, 0, []
1627719642.016, 96, 1, 4243.761, 4269.231, 4180.228, 4169.003, 4119.715, 7445.111, 0, []
1627719642.0238, 97, 1, 4242.051, 4270.256, 4186.325, 4173.675, 4126.838, 5696.333, 0, []
1627719642.0317, 98, 1, 4240.342, 4271.282, 4192.422, 4178.348, 4133.96, 3947.556, 0, []
1627719642.0396, 99, 1, 4238.632, 4272.308, 4198.519, 4183.02, 4141.083, 2198.778, 0, []
1627719642.0475, 100, 0, 4236.923, 4273.333, 4204.615, 4187.692, 4148.205, 450, 0, []
1627719642.0553, 101, 0, 4228.205, 4264.103, 4174.359, 4174.872, 4141.026, 450, 0, []
1627719642.0631, 102, 0, 4198.462, 4248.205, 4153.333, 4150.769, 4111.282, 450, 0, []
1627719642.071, 103, 0, 4202.564, 4248.718, 4172.308, 4164.103, 4125.128, 16189, 0, []
1627719642.0788, 104, 0, 4196.41, 4233.846, 4163.077, 4161.538, 4125.641, 450, 0, []
1627719642.0867, 105, 0, 4167.692, 4209.231, 4153.333, 4135.897, 4095.385, 450, 0, []
1627719642.0945, 106, 0, 4164.615, 4217.436, 4142.051, 4144.615, 4095.897, 450, 0, []
1627719642.1022, 107, 0, 4173.333, 4240.513, 4162.564, 4172.308, 4113.846, 16189, 0, []
1627719642.1102, 108, 1, 4170.598, 4238.689, 4161.197, 4169.516, 4111.51, 14440.222, 0, []
1627719642.1181, 109, 1, 4167.863, 4236.866, 4159.829, 4166.724, 4109.174, 12691.444, 0, []
1627719642.126, 110, 1, 4165.128, 4235.043, 4158.462, 4163.932, 4106.838, 10942.667, 0, []
1627719642.1339, 111, 1, 4162.393, 4233.219, 4157.094, 4161.14, 4104.501, 9193.889, 0, []
1627719642.1417, 112, 1, 4159.658, 4231.396, 4155.726, 4158.348, 4102.165, 7445.111, 0, []
1627719642.1496, 113, 1, 4156.923, 4229.573, 4154.359, 4155.556, 4099.829, 5696.333, 0, []
1627719642.1575, 114, 1, 4154.188, 4227.749, 4152.991, 4152.764, 4097.493, 3947.556, 0, []
1627719642.1654, 115, 1, 4151.453, 4225.926, 4151.624, 4149.972, 4095.157, 2198.778, 0, []
1627719642.1733, 116, 0, 4148.718, 4224.103, 4150.256, 4147.179, 4092.821, 450, 0, []
1627719642.1812, 117, 0, 4159.487, 4228.205, 4158.462, 4156.923, 4107.179, 450, 0, []
1627719642.1889, 118, 0, 4162.564, 4236.923, 4167.179, 4157.436, 4106.154, 450, 0, []
1627719642.1968, 119, 0, 4157.436, 4236.41, 4133.333, 4145.641, 4102.051, 16189, 0, []
1627719642.2047, 120, 0, 4157.436, 4218.974, 4140.513, 4139.487, 4105.128, 450, 0, []
1627719642.2125, 121, 1, 4159.005, 4220.121, 4141.9, 4142.715, 4108.205, 450, 0, []
1627719642.2204, 122, 1, 4160.573, 4221.267, 4143.288, 4145.943, 4111.282, 450, 0, []
1627719642.2282, 123, 1, 4162.142, 4222.413, 4144.676, 4149.17, 4114.359, 450, 0, []
1627719642.2361, 124, 1, 4163.71, 4223.56, 4146.063, 4152.398, 4117.436, 450, 0, []
1627719642.244, 125, 1, 4165.279, 4224.706, 4147.451, 4155.626, 4120.513, 450, 0, []
1627719642.2519, 126, 1, 4166.848, 4225.852, 4148.839, 4158.854, 4123.59, 450, 0, []
1627719642.2598, 127, 1, 4168.416, 4226.998, 4150.226, 4162.081, 4126.667, 450, 0, []
1627719642.2676, 128, 1, 4169.985, 4228.145, 4151.614, 4165.309, 4129.744, 450, 0, []
1627719642.2755, 0, 1, 4171.554, 4229.291, 4153.002, 4168.537, 4132.821, 450, 0, []
1627719642.2834, 1, 1, 4173.122, 4230.437, 4154.389, 4171.765, 4135.897, 450, 0, []
1627719642.2913, 2, 1, 4174.691, 4231.584, 4155.777, 4174.992, 4138.974, 16181, 0, []
1627719642.2992, 3, 1, 4176.259, 4232.73, 4157.164, 4178.22, 4142.051, 450, 0, []
1627719642.307, 4, 1, 4177.828, 4233.876, 4158.552, 4181.448, 4145.128, 16175, 0, []
1627719642.3149, 5, 1, 4179.397, 4235.023, 4159.94, 4184.676, 4148.205, 450, 0, []
1627719642.3228, 6, 1, 4180.965, 4236.169, 4161.327, 4187.903, 4151.282, 323, 0, []
1627719642.3307, 7, 1, 4182.534, 4237.315, 4162.715, 4191.131, 4154.359, 450, 0, []
1627719642.3386, 8, 0, 4184.103, 4238.462, 4164.103, 4194.359, 4157.436, 450, 0, []
1627719642.3463, 9, 1, 4186.667, 4237.892, 4164.729, 4193.618, 4158.86, 16155, 0, []
1627719642.3542, 10, 1, 4189.231, 4237.322, 4165.356, 4192.877, 4160.285, 450, 0, []
1627719642.3621, 11, 1, 4191.795, 4236.752, 4165.983, 4192.137, 4161.709, 16189, 0, []
1627719642.37, 12, 1, 4194.359, 4236.182, 4166.61, 4191.396, 4163.134, 450, 0, []
1627719642.3779, 13, 1, 4196.923, 4235.613, 4167.236, 4190.655, 4164.558, 450, 0, []
1627719642.3857, 14, 1, 4199.487, 4235.043, 4167.863, 4189.915, 4165.983, 450, 0, []
1627719642.3936, 15, 1, 4202.051, 4234.473, 4168.49, 4189.174, 4167.407, 16189, 0, []
1627719642.4015, 16, 1, 4204.615, 4233.903, 4169.117, 4188.433, 4168.832, 50, 0, []
1627719642.4094, 17, 0, 4207.179, 4233.333, 4169.744, 4187.692, 4170.256, 0, 0, []
1627719642.4174, 18, 0, 4207.179, 4231.795, 4158.974, 4188.718, 4171.282, 0, 0, []
1627719642.4252, 19, 0, 4224.615, 4236.923, 4178.974, 4196.923, 4188.205, 0, 0, []
1627719642.4331, 20, 0, 4217.949, 4224.615, 4151.795, 4183.59, 4175.385, 0, 0, []
1627719642.441, 21, 0, 4207.179, 4210.256, 4135.897, 4167.692, 4166.154, 0, 0, []
1627719642.4489, 22, 0, 4226.154, 4216.923, 4165.128, 4174.872, 4190.769, 0, 0, []
1627719642.4568, 23, 0, 4237.949, 4226.667, 4162.564, 4183.077, 4201.538, 0, 0, []
1627719642.4647, 24, 0, 4237.436, 4232.308, 4177.436, 4190.256, 4200, 0, 0, []
1627719642.4726, 25, 0, 4232.821, 4236.41, 4172.308, 4186.154, 4192.821, 0, 0, []
1627719642.4805, 26, 0, 4212.821, 4222.564, 4155.385, 4167.179, 4173.333, 0, 0, []
1627719642.4884, 27, 0, 4220.513, 4213.846, 4162.051, 4171.282, 4195.897, 0, 0, []
1627719642.4962, 28, 0, 4278.974, 4226.154, 4161.538, 4195.897, 4275.385, 0, 0, []
1627719642.504, 29, 0, 4336.41, 4228.205, 4184.615, 4203.59, 4349.744, 0, 0, []
1627719642.5118, 30, 0, 4385.641, 4223.077, 4186.667, 4207.179, 4419.487, 0, 0, []
1627719642.5197, 31, 0, 4465.128, 4230.769, 4187.179, 4227.692, 4512.308, 0, 0, []
1627719642.5275, 32, 0, 4537.436, 4235.385, 4201.026, 4242.051, 4591.795, 0, 0, []
1627719642.5354, 33, 0, 4572.821, 4228.205, 4210.256, 4244.615, 4641.026, 0, 0, []
1627719642.5431, 34, 0, 4595.897, 4229.744, 4185.128, 4248.205, 4679.487, 0, 0, []
1627719642.551, 35, 0, 4608.205, 4234.872, 4164.103, 4258.974, 4709.231, 0, 0, []
1627719642.5588, 36, 0, 4610.769, 4230.769, 4351.282, 4275.385, 4727.692, 0, 0, []
1627719642.5667, 37, 0, 4594.359, 4230.769, 4328.205, 4274.359, 4727.179, 0, 0, []
1627719642.5745, 38, 0, 4557.436, 4230.256, 4089.744, 4264.103, 4712.821, 0, 0, []
1627719642.5823, 39, 0, 4526.154, 4229.744, 4175.385, 4275.385, 4703.077, 0, 0, []
1627719642.5901, 40, 0, 4494.359, 4230.256, 4216.923, 4285.641, 4688.718, 0, 0, []
1627719642.598, 41, 0, 4449.744, 4221.538, 4149.231, 4281.026, 4654.359, 0, 0, []
1627719642.6058, 42, 0, 4398.974, 4216.923, 4187.692, 4281.538, 4611.282, 0, 0, []
1627719642.6136, 43, 0, 4347.692, 4215.897, 4180, 4281.026, 4569.231, 0, 0, []
1627719642.6214, 44, 0, 4299.487, 4207.179, 4174.872, 4279.487, 4525.641, 0, 0, []
1627719642.6292, 45, 0, 4245.128, 4198.462, 4167.179, 4277.436, 4477.949, 0, 0, []
1627719642.6371, 46, 0, 4202.564, 4197.436, 4166.667, 4277.436, 4443.59, 0, 0, []
1627719642.6449, 47, 0, 4184.103, 4202.051, 4180.513, 4293.333, 4422.564, 0, 0, []
1627719642.6528, 48, 0, 4168.718, 4206.154, 4174.872, 4301.026, 4398.462, 0, 0, []
1627719642.6605, 49, 0, 4147.692, 4195.897, 4175.385, 4287.692, 4366.667, 0, 0, []
1627719642.6684, 50, 0, 4130.256, 4184.615, 4158.974, 4273.333, 4332.308, 0, 0, []
1627719642.6762, 51, 0, 4120.513, 4192.821, 4159.487, 4266.154, 4307.179, 0, 0, []
1627719642.6841, 52, 0, 4120, 4193.333, 4185.641, 4260.513, 4299.487, 0, 0, []
1627719642.6919, 53, 0, 4124.103, 4180, 4185.128, 4258.462, 4293.846, 0, 0, []
1627719642.6997, 54, 0, 4115.897, 4190.769, 4177.436, 4261.026, 4276.923, 0, 0, []
1627719642.7075, 55, 0, 4105.128, 4208.205, 4172.308, 4260.513, 4262.051, 0, 0, []
1627719642.7154, 56, 0, 4105.128, 4200, 4173.333, 4249.231, 4253.846, 0, 0, []
1627719642.7232, 57, 0, 4103.59, 4198.974, 4176.923, 4233.846, 4239.487, 0, 0, []
1627719642.7311, 58, 0, 4094.359, 4207.179, 4162.564, 4229.744, 4221.538, 0, 0, []
1627719642.7388, 59, 0, 4086.667, 4191.795, 4161.026, 4229.231, 4211.282, 0, 0, []
1627719642.7467, 60, 0, 4094.359, 4191.795, 4171.795, 4230.769, 4214.872, 0, 0, []
1627719642.7545, 61, 0, 4108.205, 4216.41, 4187.179, 4242.564, 4220, 0, 0, []
1627719642.7623, 62, 0, 4104.103, 4202.051, 4182.564, 4241.026, 4207.179, 0, 0, []
1627719642.7702, 63, 0, 4089.231, 4169.231, 4149.744, 4220.513, 4187.179, 0, 0, []
1627719642.7779, 64, 0, 4095.385, 4189.231, 4158.462, 4214.359, 4184.103, 450, 0, []
1627719642.7858, 65, 0, 4100.513, 4216.41, 4170.769, 4218.974, 4183.077, 450, 0, []
1627719642.7936, 66, 0, 4083.59, 4191.795, 4147.692, 4200, 4161.538, 16180, 0, []
1627719642.8015, 67, 0, 4078.974, 4164.615, 4151.282, 4175.385, 4146.667, 450, 0, []
1627719642.8093, 68, 0, 4094.872, 4177.949, 4166.667, 4173.333, 4156.923, 16175, 0, []
1627719642.8171, 69, 0, 4105.128, 4199.487, 4174.359, 4184.103, 4162.564, 450, 0, []
1627719642.8249, 70, 0, 4106.667, 4201.026, 4171.282, 4195.385, 4158.462, 322, 0, []
1627719642.8328, 71, 0, 4112.821, 4207.179, 4169.231, 4201.026, 4160, 450, 0, []
1627719642.8406, 72, 0, 4112.308, 4219.487, 4173.333, 4197.436, 4154.359, 450, 0, []
1627719642.8485, 73, 0, 4097.949, 4198.974, 4149.744, 4181.026, 4140, 16171, 0, []
1627719642.8563, 74, 0, 4085.128, 4171.795, 4134.359, 4159.487, 4131.282, 450, 0, []
1627719642.8641, 75, 0, 4090.769, 4192.308, 4149.231, 4158.974, 4128.718, 16189, 0, []
1627719642.8719, 76, 0, 4100.513, 4214.872, 4160, 4173.333, 4125.128, 450, 0, []
1627719642.8798, 77, 0, 4089.744, 4195.385, 4159.487, 4170.256, 4116.923, 450, 0, []
1627719642.8876, 78, 0, 4075.897, 4184.103, 4142.564, 4155.897, 4107.692, 450, 0, []
1627719642.8955, 79, 0, 4088.205, 4199.487, 4150.256, 4165.128, 4114.872, 16189, 0, []
1627719642.9032, 80, 0, 4113.846, 4205.641, 4172.821, 4183.59, 4135.385, 450, 0, []
1627719642.9111, 81, 0, 4124.103, 4198.462, 4160.513, 4173.846, 4141.538, 450, 0, []
1627719642.9189, 82, 0, 4122.051, 4194.872, 4147.692, 4154.872, 4134.359, 450, 0, []
1627719642.9267, 83, 0, 4121.026, 4200, 4141.538, 4157.436, 4130.256, 16189, 0, []
1627719642.9346, 84, 0, 4123.077, 4212.821, 4137.949, 4168.205, 4125.128, 450, 0, []
1627719642.9423, 85, 0, 4123.077, 4218.974, 4142.564, 4171.282, 4121.538, 450, 0, []
1627719642.9502, 86, 0, 4125.128, 4214.359, 4143.077, 4174.872, 4129.231, 450, 0, []
1627719642.958, 87, 0, 4129.744, 4215.385, 4156.41, 4181.538, 4137.436, 16189, 0, []
1627719642.9659, 88, 0, 4126.154, 4217.949, 4156.923, 4171.795, 4133.333, 450, 0, []
1627719642.9737, 89, 0, 4130.769, 4213.333, 4156.41, 4162.564, 4138.462, 450, 0, []
1627719642.9815, 90, 0, 4150.769, 4217.436, 4172.308, 4175.897, 4163.077, 450, 0, []
1627719642.9893, 91, 0, 4163.59, 4228.718, 4176.41, 4188.718, 4173.846, 16189, 0, []
1627719642.9972, 92, 0, 4155.385, 4224.615, 4184.103, 4184.103, 4158.974, 450, 0, []
1627719643.005, 93, 0, 4142.051, 4222.051, 4183.59, 4180.513, 4147.692, 450, 0, []
1627719643.0129, 94, 0, 4144.615, 4234.359, 4173.846, 4183.59, 4148.718, 450, 0, []
1627719643.0206, 95, 0, 4149.744, 4226.154, 4167.692, 4183.077, 4151.282, 16189, 0, []
1627719643.0285, 96, 0, 4145.128, 4200, 4151.795, 4176.41, 4154.872, 450, 0, []
1627719643.0363, 97, 0, 4137.949, 4203.077, 4146.154, 4164.103, 4153.846, 450, 0, []
1627719643.0442, 98, 0, 4135.385, 4211.282, 4145.128, 4149.231, 4148.718, 450, 0, []
1627719643.052, 99, 0, 4141.026, 4202.051, 4154.872, 4149.231, 4159.487, 16189, 0, []
1627719643.0598, 100, 0, 4148.718, 4213.333, 4183.077, 4162.564, 4173.846, 450, 0, []
1627719643.0676, 101, 0, 4142.051, 4226.667, 4187.692, 4172.821, 4167.179, 450, 0, []
1627719643.0754, 102, 0, 4129.231, 4226.667, 4189.231, 4180.513, 4152.308, 450, 0, []
1627719643.0833, 103, 0, 4140.513, 4231.282, 4195.385, 4197.436, 4153.333, 16189, 0, []
1627719643.0911, 104, 0, 4154.359, 4228.205, 4178.974, 4211.795, 4161.026, 450, 0, []
1627719643.0989, 105, 0, 4151.795, 4213.846, 4165.128, 4219.487, 4169.744, 450, 0, []
1627719643.1067, 106, 0, 4152.821, 4216.923, 4163.077, 4218.462, 4178.974, 450, 0, []
1627719643.1146, 107, 0, 4157.436, 4210.769, 4182.051, 4208.205, 4178.462, 16189, 0, []
1627719643.1224, 108, 0, 4153.333, 4193.846, 4195.385, 4188.205, 4167.692, 450, 0, []
1627719643.1303, 109, 0, 4141.538, 4202.564, 4177.436, 4153.846, 4151.282, 450, 0, []
1627719643.138, 110, 0, 4125.641, 4226.667, 4168.205, 4125.641, 4129.744, 450, 0, []
1627719643.1459, 111, 0, 4111.282, 4231.795, 4163.59, 4129.231, 4118.462, 16189, 0, []
1627719643.1537, 112, 0, 4111.282, 4215.897, 4157.436, 4157.436, 4126.667, 450, 0, []
1627719643.1616, 113, 0, 4125.128, 4209.231, 4151.282, 4181.538, 4136.41, 450, 0, []
1627719643.1694, 114, 0, 4136.41, 4213.333, 4145.128, 4187.179, 4138.462, 450, 0, []
1627719643.1772, 115, 0, 4138.974, 4213.333, 4157.436, 4178.462, 4147.179, 16189, 0, []
1627719643.185, 116, 0, 4137.949, 4213.333, 4156.923, 4168.718, 4153.333, 450, 0, []
1627719643.1929, 117, 0, 4142.051, 4214.872, 4160.513, 4171.282, 4147.692, 450, 0, []
1627719643.2007, 118, 0, 4143.077, 4215.897, 4176.41, 4174.359, 4148.718, 450, 0, []
1627719643.2086, 119, 0, 4138.462, 4221.026, 4173.333, 4174.872, 4157.436, 16189, 0, []
1627719643.2163, 120, 0, 4142.564, 4226.667, 4182.051, 4182.051, 4156.923, 450, 0, []
1627719643.2241, 121, 0, 4147.179, 4220, 4183.077, 4186.154, 4155.897, 450, 0, []
1627719643.232, 122, 0, 4147.179, 4213.333, 4178.462, 4184.103, 4166.154, 450, 0, []
1627719643.2398, 123, 0, 4152.821, 4211.282, 4190.256, 4186.154, 4177.436, 16189, 0, []
1627719643.2477, 124, 0, 4150.769, 4203.59, 4186.154, 4188.718, 4171.795, 450, 0, []
1627719643.2554, 125, 0, 4138.974, 4199.487, 4177.436, 4185.128, 4161.538, 450, 0, []
1627719643.2633, 126, 0, 4145.128, 4207.179, 4168.718, 4181.538, 4170.256, 450, 0, []
1627719643.2711, 127, 0, 4165.128, 4216.923, 4171.282, 4187.179, 4185.128, 16189, 0, []
1627719643.279, 128, 0, 4167.692, 4216.41, 4180, 4184.103, 4184.103, 450, 0, []
1627719643.2868, 0, 0, 4163.077, 4212.308, 4166.154, 4167.692, 4184.615, 450, 0, []
1627719643.2946, 1, 0, 4172.308, 4216.41, 4165.641, 4162.051, 4199.487, 450, 0, []
1627719643.3024, 2, 0, 4184.615, 4214.359, 4174.359, 4171.795, 4207.692, 16180, 0, []
1627719643.3103, 3, 0, 4203.077, 4213.333, 4180, 4182.564, 4225.641, 450, 0, []
1627719643.3181, 4, 0, 4247.692, 4218.462, 4188.205, 4196.41, 4275.385, 16173, 0, []
1627719643.326, 5, 0, 4313.846, 4217.436, 4176.41, 4207.692, 4337.949, 450, 0, []
1627719643.3337, 6, 0, 4378.974, 4214.872, 4172.308, 4204.615, 4396.923, 324, 0, []
1627719643.3416, 7, 0, 4443.59, 4220, 4177.436, 4195.897, 4451.795, 450, 0, []
1627719643.3494, 8, 0, 4501.538, 4230.769, 4171.795, 4195.385, 4497.949, 450, 0, []
1627719643.3573, 9, 0, 4524.103, 4244.615, 4181.538, 4201.538, 4523.077, 16163, 0, []
1627719643.3651, 10, 0, 4517.436, 4247.179, 4183.077, 4204.615, 4527.179, 450, 0, []
1627719643.3729, 11, 0, 4493.333, 4233.846, 4168.718, 4195.385, 4505.128, 16190, 0, []
1627719643.3807, 12, 0, 4460.513, 4227.179, 4163.077, 4188.205, 4472.821, 450, 0, []
1627719643.3885, 13, 0, 4433.846, 4230.256, 4167.692, 4196.923, 4451.282, 450, 0, []
1627719643.3964, 14, 0, 4411.282, 4228.205, 4172.821, 4201.538, 4428.205, 450, 0, []
1627719643.4042, 15, 0, 4393.846, 4228.205, 4168.718, 4202.051, 4406.667, 16190, 0, []
1627719643.4121, 16, 0, 4378.974, 4234.872, 4183.59, 4206.667, 4391.795, 0, 0, []
1627719643.4198, 17, 0, 4349.231, 4236.41, 4194.872, 4197.436, 4365.641, 0, 0, []
1627719643.4277, 18, 0, 4317.436, 4232.821, 4182.564, 4182.564, 4334.872, 0, 0, []
1627719643.4355, 19, 0, 4308.205, 4232.308, 4191.795, 4191.282, 4322.564, 0, 0, []
1627719643.4434, 20, 0, 4299.487, 4236.41, 4194.359, 4203.59, 4314.359, 0, 0, []
1627719643.4512, 21, 0, 4280, 4236.923, 4185.641, 4195.385, 4291.795, 0, 0, []
1627719643.459, 22, 0, 4270.769, 4229.231, 4180.513, 4192.821, 4271.795, 0, 0, []
1627719643.4668, 23, 0, 4268.205, 4222.051, 4164.103, 4196.41, 4263.077, 0, 0, []
1627719643.4747, 24, 0, 4264.103, 4225.641, 4174.359, 4192.821, 4257.949, 0, 0, []
1627719643.4825, 25, 0, 4263.59, 4234.359, 4189.744, 4186.154, 4251.795, 0, 0, []
1627719643.4904, 26, 0, 4263.077, 4235.385, 4194.359, 4188.718, 4247.179, 0, 0, []
1627719643.4981, 27, 0, 4265.641, 4232.821, 4203.59, 4200, 4249.744, 0, 0, []
1627719643.506, 28, 0, 4262.564, 4229.231, 4195.897, 4201.538, 4250.769, 0, 0, []
1627719643.5138, 29, 0, 4252.308, 4230.256, 4192.308, 4196.923, 4244.615, 0, 0, []
1627719643.5217, 30, 0, 4246.667, 4241.538, 4193.333, 4202.051, 4241.026, 0, 0, []
1627719643.5295, 31, 0, 4241.026, 4243.59, 4183.59, 4202.564, 4235.897, 0, 0, []
1627719643.5372, 32, 0, 4218.974, 4230.769, 4164.615, 4185.128, 4213.333, 0, 0, []
1627719643.5451, 33, 0, 4206.667, 4223.077, 4154.872, 4177.949, 4194.359, 0, 0, []
1627719643.5529, 34, 0, 4229.744, 4228.205, 4187.179, 4206.154, 4211.795, 0, 0, []
1627719643.5608, 35, 0, 4250.769, 4231.282, 4198.462, 4233.846, 4233.846, 0, 0, []
1627719643.5686, 36, 0, 4242.051, 4233.846, 4180, 4225.641, 4225.641, 0, 0, []
1627719643.5764, 37, 0, 4223.077, 4230.769, 4187.692, 4200.513, 4205.128, 0, 0, []
1627719643.5842, 38, 0, 4213.846, 4226.667, 4192.821, 4194.872, 4195.897, 0, 0, []
1627719643.5921, 39, 0, 4214.872, 4243.077, 4192.821, 4208.718, 4200, 0, 0, []
1627719643.5999, 40, 0, 4218.974, 4250.256, 4193.846, 4211.795, 4202.564, 0, 0, []
1627719643.6078, 41, 0, 4217.436, 4230.256, 4193.333, 4202.051, 4198.462, 0, 0, []
1627719643.6155, 42, 0, 4210.769, 4220, 4194.359, 4196.923, 4201.026, 0, 0, []
1627719643.6234, 43, 0, 4214.872, 4228.205, 4180, 4203.59, 4214.359, 0, 0, []
1627719643.6312, 44, 0, 4219.487, 4231.795, 4179.487, 4216.41, 4214.872, 0, 0, []
1627719643.6391, 45, 0, 4203.077, 4219.487, 4163.59, 4198.462, 4184.103, 0, 0, []
1627719643.6469, 46, 0, 4186.154, 4195.897, 4113.333, 4144.103, 4148.718, 0, 0, []
1627719643.6547, 47, 0, 4230.256, 4205.128, 4127.692, 4145.128, 4180, 0, 0, []
1627719643.6625, 48, 0, 4320, 4254.872, 4187.179, 4214.359, 4260, 0, 0, []
1627719643.6704, 49, 0, 4354.872, 4270.256, 4191.795, 4225.128, 4272.308, 0, 0, []
1627719643.6782, 50, 0, 4334.359, 4253.846, 4161.538, 4171.795, 4231.282, 0, 0, []
1627719643.686, 51, 0, 4342.051, 4261.538, 4161.538, 4152.821, 4229.231, 0, 0, []
1627719643.6938, 52, 0, 4377.949, 4266.667, 4172.308, 4152.308, 4243.077, 0, 0, []
1627719643.7016, 53, 0, 4408.718, 4258.974, 4149.231, 4129.231, 4246.154, 0, 0, []
1627719643.7095, 54, 0, 4447.179, 4264.103, 4140, 4112.308, 4264.103, 0, 0, []
1627719643.7173, 55, 0, 4471.282, 4258.974, 4143.077, 4101.538, 4261.538, 0, 0, []
1627719643.7252, 56, 0, 4458.974, 4244.615, 4127.692, 4085.128, 4225.128, 0, 0, []
1627719643.7329, 57, 0, 4440, 4251.795, 4135.385, 4081.026, 4198.974, 0, 0, []
1627719643.7408, 58, 0, 4424.615, 4262.051, 4144.615, 4092.308, 4177.949, 0, 0, []
1627719643.7486, 59, 0, 4401.538, 4261.538, 4144.615, 4104.615, 4149.231, 0, 0, []
1627719643.7565, 60, 0, 4368.718, 4270.769, 4155.385, 4106.154, 4114.359, 0, 0, []
1627719643.7643, 61, 0, 4340, 4285.128, 4159.487, 4107.179, 4080, 0, 0, []
1627719643.7721, 62, 0, 4315.897, 4276.923, 4163.59, 4111.282, 4057.949, 0, 0, []
1627719643.7799, 63, 0, 4279.487, 4255.385, 4162.051, 4104.615, 4035.385, 0, 0, []
1627719643.7878, 64, 0, 4231.795, 4247.692, 4151.282, 4094.359, 4001.538, 450, 0, []
1627719643.7956, 65, 0, 4191.795, 4241.538, 4142.051, 4087.692, 3973.333, 450, 0, []
1627719643.8035, 66, 0, 4165.128, 4219.487, 4118.974, 4066.667, 3954.872, 16180, 0, []
1627719643.8112, 67, 0, 4148.205, 4209.744, 4115.385, 4053.333, 3942.051, 450, 0, []
1627719643.8191, 68, 0, 4146.667, 4225.641, 4130.769, 4075.897, 3956.923, 16171, 0, []
1627719643.8269, 69, 0, 4155.897, 4236.41, 4141.538, 4097.949, 3986.154, 450, 0, []
1627719643.8348, 70, 0, 4149.744, 4224.615, 4142.564, 4087.179, 3985.128, 326, 0, []
1627719643.8426, 71, 0, 4143.077, 4225.641, 4138.974, 4090.256, 3983.59, 450, 0, []
1627719643.8503, 72, 0, 4167.179, 4247.179, 4170.256, 4131.282, 4024.103, 450, 0, []
1627719643.8582, 73, 0, 4182.564, 4252.308, 4189.744, 4151.795, 4057.436, 16163, 0, []
1627719643.866, 74, 0, 4162.564, 4242.051, 4167.179, 4133.333, 4043.59, 450, 0, []
1627719643.874, 75, 0, 4147.692, 4236.923, 4157.949, 4118.462, 4027.179, 16195, 0, []
1627719643.882, 76, 0, 4151.795, 4232.821, 4158.462, 4123.077, 4035.385, 450, 0, []
1627719643.8898, 77, 0, 4148.718, 4231.795, 4156.41, 4126.667, 4040.513, 450, 0, []
1627719643.8977, 78, 0, 4134.359, 4231.795, 4140, 4115.897, 4029.744, 450, 0, []
1627719643.9057, 79, 0, 4120, 4219.487, 4117.436, 4102.051, 4020.513, 16195, 0, []
1627719643.9136, 80, 0, 4122.051, 4210.256, 4136.923, 4115.897, 4034.359, 450, 0, []
1627719643.9216, 81, 0, 4149.744, 4224.103, 4168.718, 4152.308, 4069.744, 450, 0, []
1627719643.9294, 82, 0, 4158.974, 4241.026, 4169.744, 4159.487, 4078.974, 450, 0, []
1627719643.9374, 83, 0, 4149.231, 4247.179, 4162.564, 4149.744, 4068.205, 16195, 0, []
1627719643.9453, 84, 0, 4154.872, 4244.615, 4168.718, 4153.846, 4076.923, 450, 0, []
1627719643.9531, 85, 0, 4149.231, 4227.179, 4174.359, 4143.59, 4074.872, 450, 0, []
1627719643.961, 86, 0, 4130.256, 4213.333, 4156.923, 4122.564, 4058.974, 450, 0, []
1627719643.9687, 87, 0, 4143.077, 4225.128, 4162.051, 4134.359, 4078.974, 16195, 0, []
1627719643.9766, 88, 0, 4163.077, 4230.256, 4173.846, 4147.179, 4101.538, 450, 0, []
1627719643.9844, 89, 0, 4138.462, 4207.179, 4147.692, 4125.128, 4072.308, 450, 0, []
1627719643.9924, 90, 0, 4113.846, 4198.462, 4145.641, 4120, 4052.308, 450, 0, []
1627719644.0003, 91, 0, 4128.718, 4217.436, 4152.821, 4138.462, 4072.308, 16195, 0, []
1627719644.0082, 92, 0, 4141.026, 4222.564, 4145.128, 4140, 4080, 450, 0, []
1627719644.0161, 93, 0, 4134.872, 4214.872, 4148.205, 4133.846, 4071.282, 450, 0, []
1627719644.0241, 94, 0, 4136.923, 4218.974, 4151.282, 4139.487, 4083.59, 450, 0, []
1627719644.032, 95, 0, 4142.564, 4215.385, 4151.795, 4140.513, 4097.949, 16195, 0, []
1627719644.04, 96, 0, 4136.41, 4212.821, 4138.974, 4133.846, 4091.282, 450, 0, []
1627719644.0478, 97, 0, 4127.692, 4226.154, 4131.795, 4138.462, 4078.974, 450, 0, []
1627719644.0558, 98, 0, 4116.923, 4222.564, 4135.897, 4137.436, 4068.718, 450, 0, []
1627719644.0637, 99, 0, 4108.205, 4207.179, 4129.744, 4125.128, 4066.154, 16195, 0, []
1627719644.0717, 100, 0, 4117.949, 4211.282, 4143.077, 4130.769, 4076.923, 450, 0, []
1627719644.0796, 101, 0, 4133.333, 4217.949, 4156.41, 4148.718, 4087.692, 450, 0, []
1627719644.0876, 102, 0, 4140.513, 4207.692, 4154.872, 4158.462, 4100, 450, 0, []
1627719644.0954, 103, 0, 4143.077, 4200.513, 4164.615, 4158.974, 4113.846, 16195, 0, []
1627719644.1032, 104, 0, 4138.462, 4203.077, 4164.103, 4153.333, 4111.282, 450, 0, []
1627719644.1112, 105, 0, 4138.974, 4217.949, 4163.59, 4156.41, 4106.667, 450, 0, []
1627719644.1191, 106, 0, 4151.282, 4244.615, 4175.385, 4173.846, 4123.077, 450, 0, []
1627719644.1271, 107, 0, 4148.205, 4243.077, 4171.795, 4167.179, 4123.59, 16195, 0, []
1627719644.1349, 108, 0, 4128.205, 4213.846, 4150.256, 4141.538, 4092.308, 450, 0, []
1627719644.1429, 109, 0, 4130.256, 4210.256, 4140, 4152.821, 4089.744, 450, 0, []
1627719644.1509, 110, 0, 4152.308, 4227.179, 4171.795, 4185.128, 4123.077, 450, 0, []
1627719644.1588, 111, 0, 4153.333, 4225.641, 4192.308, 4187.179, 4127.692, 16195, 0, []
1627719644.1668, 112, 0, 4140.513, 4214.872, 4170.256, 4170.256, 4101.538, 450, 0, []
1627719644.1746, 113, 0, 4135.385, 4217.436, 4166.154, 4156.41, 4094.359, 450, 0, []
1627719644.1826, 114, 0, 4123.59, 4220, 4163.077, 4139.487, 4090.256, 450, 0, []
1627719644.1906, 115, 0, 4107.692, 4214.872, 4147.692, 4125.641, 4066.154, 16195, 0, []
1627719644.1986, 116, 1, 4107.009, 4215.157, 4147.806, 4128.034, 4067.464, 14445.556, 0, []
1627719644.2065, 117, 1, 4106.325, 4215.442, 4147.92, 4130.427, 4068.775, 12696.111, 0, []
1627719644.2143, 118, 1, 4105.641, 4215.726, 4148.034, 4132.821, 4070.085, 10946.667, 0, []
1627719644.2222, 119, 1, 4104.957, 4216.011, 4148.148, 4135.214, 4071.396, 9197.222, 0, []
1627719644.2301, 120, 1, 4104.274, 4216.296, 4148.262, 4137.607, 4072.707, 7447.778, 0, []
1627719644.238, 121, 1, 4103.59, 4216.581, 4148.376, 4140, 4074.017, 5698.333, 0, []
1627719644.2459, 122, 1, 4102.906, 4216.866, 4148.49, 4142.393, 4075.328, 3948.889, 0, []
1627719644.2537, 123, 1, 4102.222, 4217.151, 4148.604, 4144.786, 4076.638, 2199.444, 0, []
1627719644.2616, 124, 0, 4101.538, 4217.436, 4148.718, 4147.179, 4077.949, 450, 0, []
1627719644.2695, 125, 0, 4118.974, 4224.103, 4156.923, 4157.436, 4092.308, 450, 0, []
1627719644.2773, 126, 0, 4140, 4222.564, 4173.846, 4169.744, 4105.641, 450, 0, []
1627719644.2852, 127, 0, 4138.974, 4215.385, 4169.744, 4170.256, 4101.538, 16195, 0, []
1627719644.2929, 128, 0, 4143.077, 4214.359, 4180, 4171.282, 4105.641, 450, 0, []
1627719644.3008, 0, 0, 4151.282, 4221.026, 4176.923, 4174.872, 4113.846, 450, 0, []
1627719644.3086, 1, 0, 4148.205, 4221.538, 4153.333, 4169.744, 4107.179, 450, 0, []
1627719644.3165, 2, 0, 4135.385, 4211.795, 4148.205, 4156.923, 4089.231, 16180, 0, []
1627719644.3243, 3, 0, 4111.282, 4200, 4133.333, 4138.974, 4060, 450, 0, []
1627719644.3321, 4, 0, 4103.077, 4201.026, 4130.769, 4133.846, 4051.282, 16171, 0, []
1627719644.3399, 5, 0, 4135.385, 4225.128, 4159.487, 4156.923, 4088.205, 450, 0, []
1627719644.3478, 6, 0, 4166.154, 4244.103, 4177.436, 4180, 4117.949, 324, 0, []
1627719644.3556, 7, 0, 4152.308, 4234.872, 4167.179, 4168.718, 4100, 450, 0, []
1627719644.3634, 8, 0, 4132.821, 4211.795, 4143.077, 4148.205, 4083.077, 450, 0, []
1627719644.3712, 9, 0, 4140, 4199.487, 4147.179, 4156.41, 4102.051, 16162, 0, []
1627719644.379, 10, 0, 4155.897, 4207.179, 4162.051, 4174.872, 4125.641, 450, 0, []
1627719644.3869, 11, 0, 4160, 4221.026, 4157.949, 4175.385, 4124.615, 16195, 0, []
1627719644.3947, 12, 0, 4151.282, 4218.462, 4157.436, 4166.154, 4110.256, 450, 0, []
1627719644.4026, 13, 0, 4152.308, 4203.59, 4154.359, 4167.179, 4116.41, 450, 0, []
1627719644.4103, 14, 0, 4166.667, 4208.718, 4162.564, 4180.513, 4135.385, 450, 0, []
1627719644.4182, 15, 0, 4173.333, 4230.256, 4175.897, 4195.897, 4141.026, 16195, 0, []
1627719644.426, 16, 0, 4169.231, 4229.231, 4172.821, 4202.051, 4139.487, 0, 0, []
1627719644.4339, 17, 0, 4172.821, 4224.103, 4175.385, 4200, 4140, 0, 0, []
1627719644.4417, 18, 0, 4169.744, 4228.718, 4168.205, 4190.769, 4132.308, 0, 0, []
1627719644.4495, 19, 0, 4153.333, 4223.077, 4155.897, 4173.846, 4116.923, 0, 0, []
1627719644.4573, 20, 0, 4152.821, 4215.897, 4153.846, 4173.846, 4118.462, 0, 0, []
1627719644.4652, 21, 0, 4158.462, 4217.436, 4148.718, 4183.077, 4125.641, 0, 0, []
1627719644.473, 22, 0, 4154.359, 4211.795, 4156.923, 4175.897, 4123.077, 0, 0, []
1627719644.4809, 23, 0, 4156.41, 4206.154, 4158.974, 4168.205, 4122.051, 0, 0, []
1627719644.4886, 24, 0, 4158.462, 4204.615, 4155.385, 4172.308, 4122.051, 0, 0, []
1627719644.4965, 25, 0, 4153.333, 4193.846, 4154.359, 4173.333, 4117.436, 0, 0, []
1627719644.5043, 26, 0, 4164.103, 4195.385, 4154.872, 4175.385, 4127.692, 0, 0, []
1627719644.5122, 27, 0, 4192.821, 4224.103, 4176.923, 4190.256, 4155.897, 0, 0, []
1627719644.52, 28, 0, 4203.077, 4238.974, 4182.051, 4197.436, 4173.333, 0, 0, []
1627719644.5277, 29, 0, 4202.564, 4232.308, 4178.974, 4196.41, 4175.897, 0, 0, []
1627719644.5356, 30, 0, 4214.872, 4244.615, 4192.821, 4201.538, 4185.128, 0, 0, []
1627719644.5434, 31, 0, 4221.538, 4256.41, 4186.667, 4202.051, 4192.821, 0, 0, []
1627719644.5513, 32, 0, 4203.077, 4231.282, 4167.692, 4183.077, 4177.436, 0, 0, []
1627719644.5591, 33, 0, 4186.154, 4207.692, 4153.846, 4163.59, 4155.897, 0, 0, []
1627719644.5669, 34, 0, 4196.923, 4217.949, 4160.513, 4173.846, 4167.179, 0, 0, []
1627719644.5747, 35, 0, 4209.231, 4221.026, 4170.769, 4189.231, 4188.205, 0, 0, []
1627719644.5826, 36, 0, 4219.487, 4213.333, 4158.974, 4180.513, 4196.923, 0, 0, []
1627719644.5904, 37, 0, 4247.179, 4229.744, 4164.103, 4170.256, 4219.487, 0, 0, []
1627719644.5983, 38, 0, 4274.359, 4232.308, 4166.154, 4162.051, 4247.692, 0, 0, []
1627719644.606, 39, 0, 4311.795, 4214.872, 4158.462, 4151.795, 4283.59, 0, 0, []
1627719644.6139, 40, 0, 4382.564, 4225.641, 4177.949, 4155.385, 4348.718, 0, 0, []
1627719644.6217, 41, 0, 4444.103, 4233.333, 4181.538, 4163.59, 4400, 0, 0, []
1627719644.6296, 42, 0, 4479.487, 4220, 4183.077, 4170.256, 4413.846, 0, 0, []
1627719644.6374, 43, 0, 4509.231, 4235.385, 4204.103, 4192.308, 4434.359, 0, 0, []
1627719644.6451, 44, 0, 4511.795, 4257.949, 4212.308, 4210.256, 4446.667, 0, 0, []
1627719644.653, 45, 0, 4472.821, 4237.949, 4210.256, 4197.949, 4412.821, 0, 0, []
1627719644.6608, 46, 0, 4428.718, 4214.872, 4201.538, 4176.923, 4366.154, 0, 0, []
1627719644.6687, 47, 0, 4390.256, 4215.897, 4202.051, 4169.744, 4333.846, 0, 0, []
1627719644.6765, 48, 0, 4357.949, 4217.949, 4205.128, 4171.795, 4315.385, 0, 0, []
1627719644.6843, 49, 0, 4345.128, 4213.846, 4193.846, 4175.385, 4309.744, 0, 0, []
1627719644.6921, 50, 0, 4330.256, 4208.205, 4188.718, 4175.897, 4294.872, 0, 0, []
1627719644.7, 51, 0, 4305.128, 4212.308, 4193.846, 4180, 4276.923, 0, 0, []
1627719644.7078, 52, 0, 4296.923, 4227.179, 4214.872, 4191.795, 4278.974, 0, 0, []
1627719644.7157, 53, 0, 4293.333, 4224.103, 4214.359, 4192.308, 4280.513, 0, 0, []
1627719644.7235, 54, 0, 4283.077, 4209.231, 4195.897, 4185.641, 4269.231, 0, 0, []
1627719644.7313, 55, 0, 4279.487, 4218.974, 4209.231, 4192.308, 4267.692, 0, 0, []
1627719644.7391, 56, 0, 4266.154, 4228.205, 4204.615, 4196.923, 4264.103, 0, 0, []
1627719644.747, 57, 0, 4234.359, 4207.692, 4182.051, 4178.974, 4231.795, 0, 0, []
1627719644.7548, 58, 0, 4222.564, 4198.462, 4191.795, 4170.769, 4214.872, 0, 0, []
1627719644.7627, 59, 0, 4235.897, 4216.41, 4201.538, 4184.103, 4234.359, 0, 0, []
1627719644.7704, 60, 0, 4236.923, 4218.974, 4197.949, 4186.667, 4238.462, 0, 0, []
1627719644.7783, 61, 0, 4230.256, 4208.718, 4196.41, 4186.667, 4221.026, 0, 0, []
1627719644.7861, 62, 0, 4228.718, 4216.41, 4209.744, 4200.513, 4217.949, 0, 0, []
1627719644.7939, 63, 0, 4222.564, 4226.154, 4211.795, 4203.59, 4218.974, 0, 0, []
1627719644.8018, 64, 0, 4213.333, 4223.59, 4180, 4187.692, 4207.179, 450, 0, []
1627719644.8095, 65, 0, 4195.385, 4212.821, 4161.026, 4170.256, 4189.231, 450, 0, []
1627719644.8174, 66, 0, 4178.974, 4200, 4165.641, 4164.103, 4178.974, 16158, 0, []
1627719644.8252, 67, 0, 4185.641, 4198.462, 4183.59, 4177.436, 4183.077, 450, 0, []
1627719644.8331, 68, 0, 4191.795, 4205.128, 4196.41, 4185.641, 4186.667, 16171, 0, []
1627719644.8409, 69, 0, 4188.205, 4221.538, 4188.718, 4181.538, 4188.205, 450, 0, []
1627719644.8487, 70, 0, 4189.744, 4238.462, 4200.513, 4184.615, 4185.641, 16063, 0, []
1627719644.8565, 71, 0, 4192.821, 4229.231, 4212.821, 4192.308, 4176.923, 450, 0, []
1627719644.8644, 72, 0, 4186.667, 4212.308, 4196.41, 4188.718, 4173.846, 450, 0, []
1627719644.8722, 73, 0, 4176.923, 4213.333, 4184.615, 4180, 4175.897, 16157, 0, []
1627719644.8801, 74, 0, 4178.462, 4214.872, 4183.59, 4181.026, 4177.949, 450, 0, []
1627719644.8878, 75, 0, 4184.615, 4212.308, 4191.795, 4183.077, 4174.359, 16192, 0, []
1627719644.8957, 76, 0, 4183.59, 4216.41, 4194.359, 4182.051, 4171.282, 450, 0, []
1627719644.9035, 77, 0, 4179.487, 4207.692, 4187.692, 4182.564, 4174.872, 450, 0, []
1627719644.9114, 78, 0, 4189.744, 4198.974, 4195.385, 4184.615, 4187.692, 450, 0, []
1627719644.9192, 79, 0, 4195.897, 4201.538, 4191.282, 4184.615, 4192.821, 16192, 0, []
1627719644.927, 80, 0, 4170.256, 4191.282, 4175.385, 4173.333, 4167.692, 450, 0, []
1627719644.9348, 81, 0, 4151.282, 4182.051, 4165.641, 4164.103, 4147.179, 450, 0, []
1627719644.9426, 82, 0, 4164.615, 4199.487, 4163.59, 4171.282, 4154.872, 450, 0, []
1627719644.9505, 83, 0, 4184.615, 4215.897, 4182.051, 4184.615, 4170.256, 16192, 0, []
1627719644.9583, 84, 0, 4185.641, 4214.359, 4184.615, 4186.154, 4174.872, 450, 0, []
1627719644.9661, 85, 0, 4174.359, 4214.359, 4178.974, 4181.026, 4169.231, 450, 0, []
1627719644.9739, 86, 0, 4150.769, 4204.103, 4174.872, 4170.256, 4149.744, 450, 0, []
1627719644.9818, 87, 0, 4129.744, 4184.103, 4158.462, 4155.897, 4134.359, 16192, 0, []
1627719644.9896, 88, 0, 4148.718, 4190.769, 4173.846, 4171.282, 4154.359, 450, 0, []
1627719644.9975, 89, 0, 4176.41, 4206.154, 4187.692, 4197.436, 4175.897, 450, 0, []
1627719645.0052, 90, 0, 4169.744, 4194.359, 4177.436, 4189.231, 4167.692, 450, 0, []
1627719645.0131, 91, 0, 4162.051, 4191.795, 4179.487, 4181.538, 4172.308, 16192, 0, []
1627719645.0209, 92, 0, 4184.103, 4217.949, 4194.872, 4202.564, 4202.564, 450, 0, []
1627719645.0288, 93, 0, 4193.333, 4224.615, 4204.103, 4205.641, 4205.128, 450, 0, []
1627719645.0366, 94, 0, 4175.385, 4215.897, 4193.846, 4182.564, 4176.41, 450, 0, []
1627719645.0443, 95, 0, 4168.205, 4214.359, 4200, 4180, 4173.846, 16192, 0, []
1627719645.0522, 96, 0, 4177.949, 4208.205, 4210.256, 4194.872, 4192.308, 450, 0, []
1627719645.06, 97, 0, 4177.436, 4213.846, 4186.154, 4190.769, 4183.077, 450, 0, []
1627719645.0679, 98, 0, 4157.949, 4221.538, 4174.872, 4172.821, 4156.923, 450, 0, []
1627719645.0757, 99, 0, 4148.718, 4210.256, 4181.026, 4167.692, 4155.385, 16192, 0, []
1627719645.0835, 100, 0, 4161.026, 4205.641, 4178.462, 4173.846, 4165.128, 450, 0, []
1627719645.0914, 101, 0, 4157.436, 4208.205, 4166.154, 4169.744, 4154.872, 450, 0, []
1627719645.0992, 102, 0, 4141.026, 4198.462, 4155.385, 4165.128, 4148.718, 450, 0, []
1627719645.107, 103, 0, 4145.641, 4197.949, 4172.821, 4173.846, 4156.41, 16192, 0, []
1627719645.1149, 104, 0, 4140, 4202.051, 4164.103, 4161.026, 4136.41, 450, 0, []
1627719645.1226, 105, 0, 4122.564, 4192.308, 4146.667, 4146.667, 4118.462, 450, 0, []
1627719645.1305, 106, 0, 4138.462, 4201.538, 4187.692, 4178.462, 4149.744, 450, 0, []
1627719645.1383, 107, 0, 4171.282, 4226.154, 4210.769, 4210.256, 4181.538, 16192, 0, []
1627719645.1462, 108, 0, 4175.897, 4221.538, 4188.718, 4191.282, 4174.359, 450, 0, []
1627719645.154, 109, 0, 4167.179, 4209.744, 4176.923, 4166.154, 4166.667, 450, 0, []
1627719645.1618, 110, 0, 4171.795, 4223.59, 4181.026, 4175.385, 4172.308, 450, 0, []
1627719645.1696, 111, 0, 4174.359, 4229.231, 4186.154, 4185.128, 4165.641, 16192, 0, []
1627719645.1774, 112, 0, 4169.231, 4207.179, 4180, 4182.051, 4157.436, 450, 0, []
1627719645.1852, 113, 0, 4168.205, 4192.308, 4180, 4181.026, 4156.41, 450, 0, []
1627719645.1931, 114, 0, 4170.256, 4198.462, 4183.59, 4181.538, 4157.436, 450, 0, []
1627719645.2008, 115, 0, 4169.744, 4207.179, 4183.59, 4179.487, 4161.538, 16192, 0, []
1627719645.2087, 116, 0, 4172.821, 4222.051, 4192.821, 4171.282, 4163.59, 450, 0, []
1627719645.2165, 117, 0, 4177.436, 4230.769, 4188.718, 4168.718, 4168.205, 450, 0, []
1627719645.2245, 118, 0, 4170.769, 4215.897, 4180, 4172.821, 4170.256, 450, 0, []
1627719645.2324, 119, 0, 4152.821, 4202.051, 4172.821, 4169.744, 4149.744, 16192, 0, []
1627719645.2403, 120, 0, 4133.846, 4200, 4161.026, 4156.923, 4121.026, 450, 0, []
1627719645.2483, 121, 0, 4138.462, 4205.128, 4175.385, 4158.462, 4132.308, 450, 0, []
1627719645.2562, 122, 0, 4164.615, 4213.846, 4190.769, 4178.974, 4164.615, 450, 0, []
1627719645.2641, 123, 0, 4177.949, 4221.026, 4193.333, 4188.205, 4172.308, 16192, 0, []
1627719645.2721, 124, 0, 4170.256, 4221.538, 4194.359, 4174.872, 4165.641, 450, 0, []
1627719645.2799, 125, 0, 4155.897, 4210.256, 4181.026, 4156.923, 4155.385, 450, 0, []
1627719645.2879, 126, 0, 4156.923, 4207.179, 4185.128, 4165.128, 4154.872, 450, 0, []
1627719645.2958, 127, 0, 4178.462, 4220.513, 4196.41, 4199.487, 4185.128, 16192, 0, []
1627719645.3038, 128, 0, 4183.59, 4212.821, 4187.692, 4207.692, 4201.538, 450, 0, []
1627719645.3117, 0, 0, 4156.41, 4188.205, 4169.744, 4175.385, 4175.897, 450, 0, []
1627719645.3196, 1, 0, 4143.59, 4198.462, 4159.487, 4157.436, 4159.487, 450, 0, []
1627719645.3275, 2, 0, 4161.026, 4214.872, 4182.564, 4169.231, 4172.308, 16173, 0, []
1627719645.3355, 3, 0, 4167.179, 4202.564, 4183.59, 4172.308, 4174.359, 450, 0, []
1627719645.3434, 4, 0, 4159.487, 4198.974, 4163.59, 4167.179, 4167.179, 16171, 0, []
1627719645.3514, 5, 0, 4165.128, 4206.154, 4175.385, 4178.974, 4177.436, 450, 0, []
1627719645.3593, 6, 0, 4170.769, 4202.564, 4184.615, 4188.718, 4184.103, 16070, 0, []
1627719645.3672, 7, 0, 4163.077, 4201.538, 4182.564, 4185.641, 4173.846, 450, 0, []
1627719645.3752, 8, 0, 4152.308, 4198.462, 4173.333, 4182.564, 4163.077, 450, 0, []
1627719645.3831, 9, 0, 4146.667, 4185.641, 4158.974, 4174.872, 4161.538, 16154, 0, []
1627719645.3911, 10, 0, 4132.821, 4174.872, 4152.821, 4154.872, 4151.282, 450, 0, []
1627719645.399, 11, 0, 4126.154, 4175.385, 4143.077, 4144.615, 4137.949, 16192, 0, []
1627719645.4069, 12, 0, 4139.487, 4190.256, 4154.872, 4161.026, 4151.282, 450, 0, []
1627719645.4148, 13, 0, 4154.359, 4205.641, 4173.846, 4184.615, 4175.385, 450, 0, []
1627719645.4228, 14, 0, 4165.128, 4210.256, 4174.359, 4194.872, 4188.205, 450, 0, []
1627719645.4307, 15, 0, 4165.128, 4213.333, 4173.333, 4186.667, 4185.641, 16192, 0, []
1627719645.4387, 16, 0, 4159.487, 4206.667, 4170.256, 4174.359, 4180.513, 0, 0, []
1627719645.4465, 17, 0, 4165.128, 4193.333, 4180, 4174.359, 4188.205, 0, 0, []
1627719645.4545, 18, 0, 4168.205, 4194.872, 4184.615, 4172.308, 4186.154, 0, 0, []
1627719645.4624, 19, 0, 4162.564, 4196.41, 4170.769, 4167.179, 4170.256, 0, 0, []
1627719645.4704, 20, 0, 4168.205, 4192.308, 4170.256, 4173.846, 4171.282, 0, 0, []
1627719645.4783, 21, 0, 4180.513, 4201.538, 4170.256, 4186.667, 4187.692, 0, 0, []
1627719645.4862, 22, 0, 4167.179, 4207.179, 4159.487, 4178.462, 4174.872, 0, 0, []
1627719645.4941, 23, 0, 4142.564, 4195.385, 4139.487, 4154.359, 4145.641, 0, 0, []
1627719645.5021, 24, 0, 4154.359, 4196.923, 4140.513, 4151.795, 4156.41, 0, 0, []
1627719645.5101, 25, 0, 4190.256, 4207.179, 4182.051, 4177.949, 4196.41, 0, 0, []
1627719645.518, 26, 0, 4207.179, 4198.974, 4198.462, 4200.513, 4223.077, 0, 0, []
1627719645.5258, 27, 0, 4210.769, 4194.359, 4195.897, 4195.897, 4230.256, 0, 0, []
1627719645.5338, 28, 0, 4220, 4211.282, 4201.026, 4187.179, 4233.333, 0, 0, []
1627719645.5418, 29, 0, 4219.487, 4224.103, 4185.641, 4187.179, 4233.333, 0, 0, []
1627719645.5497, 30, 0, 4215.897, 4211.282, 4175.897, 4174.359, 4226.667, 0, 0, []
1627719645.5577, 31, 0, 4234.359, 4201.538, 4171.795, 4152.821, 4236.923, 0, 0, []
1627719645.5655, 32, 0, 4267.692, 4212.308, 4159.487, 4143.077, 4268.718, 0, 0, []
1627719645.5735, 33, 0, 4312.821, 4218.974, 4164.103, 4150.769, 4311.795, 0, 0, []
1627719645.5814, 34, 0, 4378.462, 4217.436, 4173.333, 4167.179, 4365.128, 0, 0, []
1627719645.5894, 35, 0, 4429.231, 4214.872, 4172.821, 4174.872, 4402.051, 0, 0, []
1627719645.5973, 36, 0, 4444.103, 4215.385, 4158.974, 4168.718, 4404.103, 0, 0, []
1627719645.6052, 37, 0, 4445.641, 4223.59, 4161.538, 4171.282, 4397.949, 0, 0, []
1627719645.6131, 38, 0, 4442.051, 4225.128, 4183.077, 4183.077, 4394.359, 0, 0, []
1627719645.6211, 39, 0, 4431.795, 4212.308, 4189.231, 4193.333, 4386.667, 0, 0, []
1627719645.629, 40, 0, 4423.59, 4215.385, 4198.974, 4205.128, 4383.59, 0, 0, []
1627719645.637, 41, 0, 4404.103, 4222.051, 4195.385, 4201.538, 4369.744, 0, 0, []
1627719645.6448, 42, 0, 4368.718, 4206.667, 4174.872, 4184.103, 4338.974, 0, 0, []
1627719645.6528, 43, 0, 4340, 4197.436, 4180, 4181.538, 4320, 0, 0, []
1627719645.6607, 44, 0, 4321.026, 4207.179, 4176.923, 4187.692, 4312.821, 0, 0, []
1627719645.6687, 45, 0, 4295.385, 4203.59, 4168.205, 4176.41, 4293.333, 0, 0, []
1627719645.6767, 46, 0, 4264.615, 4185.128, 4172.821, 4158.462, 4263.59, 0, 0, []
1627719645.6845, 47, 0, 4248.718, 4181.026, 4177.436, 4157.436, 4246.154, 0, 0, []
1627719645.6925, 48, 0, 4245.128, 4197.949, 4182.564, 4168.205, 4244.615, 0, 0, []
1627719645.7004, 49, 0, 4235.385, 4206.154, 4173.333, 4168.205, 4241.538, 0, 0, []
1627719645.7084, 50, 0, 4227.179, 4195.385, 4162.051, 4166.667, 4229.744, 0, 0, []
1627719645.7163, 51, 0, 4227.179, 4200, 4165.128, 4187.179, 4227.692, 0, 0, []
1627719645.7242, 52, 0, 4229.231, 4215.385, 4177.949, 4207.179, 4239.487, 0, 0, []
1627719645.7321, 53, 0, 4224.615, 4207.179, 4191.795, 4200, 4244.615, 0, 0, []
1627719645.7401, 54, 0, 4217.436, 4194.359, 4182.051, 4190.769, 4237.949, 0, 0, []
1627719645.748, 55, 0, 4207.179, 4202.564, 4171.795, 4189.744, 4222.564, 0, 0, []
1627719645.756, 56, 0, 4188.205, 4205.641, 4164.615, 4177.436, 4206.154, 0, 0, []
1627719645.7638, 57, 0, 4165.641, 4197.949, 4147.179, 4168.205, 4196.41, 0, 0, []
1627719645.7718, 58, 0, 4150.256, 4196.41, 4151.282, 4173.846, 4189.231, 0, 0, []
1627719645.7797, 59, 0, 4149.744, 4187.692, 4151.795, 4175.897, 4182.564, 0, 0, []
1627719645.7877, 60, 0, 4156.41, 4178.462, 4144.103, 4167.179, 4182.564, 0, 0, []
1627719645.7956, 61, 0, 4163.077, 4184.615, 4149.231, 4165.641, 4185.641, 0, 0, []
1627719645.8035, 62, 0, 4167.179, 4189.231, 4149.231, 4176.41, 4190.769, 0, 0, []
1627719645.8115, 63, 0, 4166.154, 4187.692, 4160, 4183.077, 4197.436, 0, 0, []
1627719645.8194, 64, 0, 4171.795, 4199.487, 4172.821, 4185.641, 4202.051, 450, 0, []
1627719645.8273, 65, 0, 4178.462, 4205.641, 4166.154, 4183.59, 4201.026, 450, 0, []
1627719645.8353, 66, 0, 4164.615, 4187.692, 4145.128, 4169.744, 4188.718, 16173, 0, []
1627719645.8432, 67, 0, 4158.462, 4186.667, 4136.923, 4165.128, 4181.538, 450, 0, []
1627719645.8511, 68, 0, 4175.897, 4211.282, 4163.59, 4178.974, 4190.256, 16171, 0, []
1627719645.8591, 69, 0, 4186.667, 4217.436, 4172.308, 4186.667, 4199.487, 450, 0, []
1627719645.867, 70, 0, 4188.205, 4214.872, 4167.692, 4183.077, 4204.103, 324, 0, []
1627719645.875, 71, 0, 4193.333, 4232.308, 4184.103, 4186.667, 4212.821, 450, 0, []
1627719645.8828, 72, 0, 4194.872, 4239.487, 4180, 4185.128, 4219.487, 450, 0, []
1627719645.8908, 73, 0, 4190.256, 4214.359, 4165.128, 4170.769, 4213.333, 16154, 0, []
1627719645.8987, 74, 0, 4181.538, 4197.949, 4154.872, 4171.282, 4195.385, 450, 0, []
1627719645.9067, 75, 0, 4174.359, 4209.231, 4151.282, 4184.615, 4186.154, 16192, 0, []
1627719645.9146, 76, 0, 4175.385, 4220, 4155.385, 4191.282, 4192.821, 450, 0, []
1627719645.9225, 77, 0, 4173.333, 4205.641, 4131.282, 4179.487, 4189.231, 450, 0, []
1627719645.9304, 78, 0, 4172.821, 4191.282, 4121.538, 4170.769, 4179.487, 450, 0, []
1627719645.9384, 79, 0, 4183.077, 4208.718, 4147.692, 4177.436, 4185.641, 16192, 0, []
1627719645.9463, 80, 0, 4177.949, 4216.923, 4152.821, 4171.795, 4181.026, 450, 0, []
1627719645.9543, 81, 0, 4162.564, 4189.231, 4142.564, 4160.513, 4170.256, 450, 0, []
1627719645.9621, 82, 0, 4168.205, 4181.538, 4141.538, 4171.795, 4180.513, 450, 0, []
1627719645.9701, 83, 0, 4174.872, 4204.103, 4152.821, 4187.179, 4190.256, 16192, 0, []
1627719645.9781, 84, 0, 4172.308, 4207.179, 4160, 4190.256, 4184.103, 450, 0, []
1627719645.986, 85, 0, 4179.487, 4195.897, 4164.103, 4201.026, 4185.641, 450, 0, []
1627719645.994, 86, 0, 4181.026, 4200, 4176.41, 4198.974, 4188.205, 450, 0, []
1627719646.0018, 87, 0, 4170.256, 4204.615, 4162.051, 4173.846, 4183.59, 16192, 0, []
1627719646.0098, 88, 0, 4168.205, 4201.026, 4155.897, 4170.256, 4185.128, 450, 0, []
1627719646.0177, 89, 0, 4173.333, 4200.513, 4172.821, 4186.154, 4184.103, 450, 0, []
1627719646.0257, 90, 0, 4168.718, 4205.641, 4166.667, 4188.205, 4175.897, 450, 0, []
1627719646.0336, 91, 0, 4155.385, 4205.641, 4149.231, 4180.513, 4168.718, 16192, 0, []
1627719646.0415, 92, 0, 4150.256, 4200, 4134.359, 4175.897, 4169.231, 450, 0, []
1627719646.0494, 93, 0, 4153.846, 4198.974, 4141.026, 4171.795, 4169.744, 450, 0, []
1627719646.0574, 94, 0, 4148.718, 4202.564, 4152.821, 4168.718, 4165.128, 450, 0, []
1627719646.0653, 95, 0, 4138.974, 4198.462, 4135.385, 4171.282, 4164.103, 16192, 0, []
1627719646.0733, 96, 0, 4135.385, 4182.564, 4126.667, 4166.154, 4156.41, 450, 0, []
1627719646.0811, 97, 0, 4140, 4176.923, 4133.333, 4159.487, 4148.205, 450, 0, []
1627719646.0891, 98, 0, 4156.923, 4198.974, 4157.949, 4182.051, 4165.128, 450, 0, []
1627719646.097, 99, 0, 4170.769, 4221.538, 4188.718, 4212.821, 4188.205, 16192, 0, []
1627719646.105, 100, 0, 4173.333, 4222.051, 4178.974, 4211.795, 4194.359, 450, 0, []
1627719646.1129, 101, 0, 4173.846, 4213.333, 4158.974, 4199.487, 4191.795, 450, 0, []
1627719646.1208, 102, 0, 4165.641, 4205.128, 4153.333, 4195.897, 4178.974, 450, 0, []
1627719646.1287, 103, 0, 4153.846, 4196.923, 4152.308, 4188.205, 4162.564, 16192, 0, []
1627719646.1367, 104, 0, 4154.872, 4197.436, 4155.385, 4183.59, 4164.103, 450, 0, []
1627719646.1446, 105, 0, 4158.462, 4201.538, 4145.128, 4185.641, 4170.769, 450, 0, []
1627719646.1526, 106, 0, 4162.051, 4203.077, 4148.205, 4187.692, 4169.744, 450, 0, []
1627719646.1605, 107, 0, 4168.205, 4204.615, 4161.026, 4191.795, 4174.359, 16192, 0, []
1627719646.1684, 108, 0, 4162.051, 4195.385, 4163.59, 4190.769, 4171.282, 450, 0, []
1627719646.1764, 109, 0, 4149.744, 4198.462, 4164.103, 4184.103, 4154.872, 450, 0, []
1627719646.1843, 110, 0, 4152.308, 4212.821, 4154.872, 4186.667, 4149.744, 450, 0, []
1627719646.1923, 111, 0, 4153.846, 4204.615, 4149.231, 4185.128, 4153.846, 16192, 0, []
1627719646.2001, 112, 0, 4137.436, 4185.128, 4143.59, 4170.769, 4144.103, 450, 0, []
1627719646.2081, 113, 0, 4127.692, 4187.179, 4141.026, 4163.59, 4132.821, 450, 0, []
1627719646.216, 114, 0, 4133.333, 4197.949, 4156.41, 4169.231, 4141.026, 450, 0, []
1627719646.224, 115, 0, 4141.538, 4199.487, 4152.308, 4176.923, 4153.846, 16192, 0, []
1627719646.2319, 116, 0, 4165.641, 4212.308, 4151.282, 4190.769, 4166.667, 450, 0, []
1627719646.2398, 117, 0, 4198.974, 4236.41, 4169.744, 4209.744, 4186.667, 450, 0, []
1627719646.2477, 118, 0, 4196.41, 4237.949, 4175.385, 4213.333, 4192.308, 450, 0, []
1627719646.2557, 119, 0, 4170.769, 4217.949, 4176.41, 4201.538, 4173.333, 16192, 0, []
1627719646.2636, 120, 0, 4170.769, 4215.897, 4177.436, 4201.026, 4164.103, 450, 0, []
1627719646.2716, 121, 0, 4181.026, 4228.205, 4184.615, 4207.692, 4170.769, 450, 0, []
1627719646.2795, 122, 0, 4170.769, 4220, 4182.564, 4203.077, 4169.744, 450, 0, []
1627719646.2874, 123, 0, 4164.615, 4211.282, 4164.615, 4193.846, 4163.59, 16192, 0, []
1627719646.2953, 124, 0, 4174.359, 4218.462, 4174.872, 4194.872, 4165.641, 450, 0, []
1627719646.3033, 125, 0, 4185.641, 4217.436, 4188.205, 4207.692, 4177.949, 450, 0, []
1627719646.3112, 126, 0, 4186.667, 4203.077, 4185.641, 4213.846, 4177.949, 450, 0, []
1627719646.3191, 127, 0, 4180.513, 4203.077, 4177.949, 4200, 4167.179, 16192, 0, []
1627719646.3271, 128, 0, 4182.564, 4218.462, 4166.154, 4193.333, 4180, 450, 0, []
1627719646.335, 0, 0, 4187.692, 4223.077, 4167.692, 4204.615, 4192.821, 450, 0, []
1627719646.343, 1, 0, 4185.641, 4214.872, 4162.564, 4202.564, 4177.436, 450, 0, []
1627719646.3509, 2, 0, 4184.615, 4214.872, 4159.487, 4191.795, 4169.231, 16175, 0, []
1627719646.3588, 3, 0, 4183.077, 4217.436, 4170.769, 4190.769, 4169.744, 450, 0, []
1627719646.3667, 4, 0, 4170.769, 4207.179, 4162.564, 4187.692, 4154.872, 16171, 0, []
1627719646.3747, 5, 0, 4151.282, 4202.051, 4153.846, 4173.333, 4136.41, 450, 0, []
1627719646.3826, 6, 0, 4138.462, 4208.205, 4155.385, 4161.538, 4125.641, 322, 0, []
1627719646.3906, 7, 0, 4145.128, 4215.897, 4163.077, 4171.795, 4131.282, 450, 0, []
1627719646.3986, 8, 0, 4163.077, 4211.795, 4172.308, 4188.205, 4151.282, 450, 0, []
1627719646.4064, 9, 0, 4170.256, 4196.41, 4157.436, 4189.231, 4162.564, 16154, 0, []
1627719646.4143, 10, 0, 4175.385, 4190.769, 4154.872, 4192.308, 4164.103, 450, 0, []
1627719646.4223, 11, 0, 4182.051, 4200.513, 4162.564, 4201.538, 4170.769, 16192, 0, []
1627719646.4302, 12, 0, 4180.513, 4212.821, 4154.359, 4198.462, 4173.333, 450, 0, []
1627719646.4382, 13, 0, 4170.769, 4217.436, 4148.205, 4186.154, 4165.641, 450, 0, []
1627719646.446, 14, 0, 4153.846, 4211.282, 4138.462, 4175.897, 4152.308, 450, 0, []
1627719646.454, 15, 0, 4142.564, 4197.949, 4135.897, 4169.231, 4142.051, 16192, 0, []
1627719646.4619, 16, 0, 4143.59, 4197.436, 4134.359, 4169.231, 4138.974, 0, 0, []
1627719646.4699, 17, 0, 4146.154, 4200.513, 4132.308, 4172.308, 4136.41, 0, 0, []
1627719646.4779, 18, 0, 4149.231, 4195.897, 4153.333, 4178.462, 4140.513, 0, 0, []
1627719646.4857, 19, 0, 4153.333, 4207.179, 4159.487, 4184.615, 4148.718, 0, 0, []
1627719646.4937, 20, 0, 4152.821, 4221.538, 4153.333, 4184.615, 4149.231, 0, 0, []
1627719646.5016, 21, 0, 4163.59, 4223.077, 4155.385, 4184.103, 4152.308, 0, 0, []
1627719646.5096, 22, 0, 4170.256, 4214.872, 4145.128, 4184.615, 4152.308, 0, 0, []
1627719646.5175, 23, 0, 4161.026, 4207.179, 4152.308, 4181.538, 4148.205, 0, 0, []
1627719646.5254, 24, 0, 4174.359, 4221.538, 4180, 4188.718, 4166.667, 0, 0, []
1627719646.5333, 25, 0, 4194.872, 4234.872, 4194.359, 4192.821, 4180, 0, 0, []
1627719646.5413, 26, 0, 4186.154, 4222.051, 4184.103, 4181.026, 4166.667, 0, 0, []
1627719646.5492, 27, 0, 4184.103, 4222.564, 4175.897, 4178.974, 4174.872, 0, 0, []
1627719646.5572, 28, 0, 4188.205, 4242.564, 4178.974, 4189.231, 4187.179, 0, 0, []
1627719646.565, 29, 0, 4171.282, 4238.974, 4155.385, 4183.59, 4162.051, 0, 0, []
1627719646.573, 30, 0, 4166.667, 4223.59, 4147.692, 4178.462, 4151.795, 0, 0, []
1627719646.5809, 31, 0, 4189.744, 4223.59, 4180, 4201.026, 4180.513, 0, 0, []
1627719646.5889, 32, 0, 4203.59, 4221.026, 4190.769, 4225.641, 4203.59, 0, 0, []
1627719646.5968, 33, 0, 4200, 4214.872, 4184.615, 4221.538, 4205.128, 0, 0, []
1627719646.6047, 34, 0, 4197.949, 4216.923, 4178.974, 4205.128, 4196.923, 0, 0, []
1627719646.6126, 35, 0, 4195.897, 4221.538, 4178.462, 4198.974, 4187.692, 0, 0, []
1627719646.6206, 36, 0, 4183.077, 4217.436, 4177.949, 4188.205, 4178.462, 0, 0, []
1627719646.6286, 37, 0, 4173.333, 4207.692, 4164.103, 4177.949, 4171.282, 0, 0, []
1627719646.6365, 38, 0, 4183.59, 4216.41, 4167.179, 4190.769, 4176.41, 0, 0, []
1627719646.6444, 39, 0, 4184.615, 4224.615, 4170.769, 4201.026, 4182.564, 0, 0, []
1627719646.6523, 40, 0, 4170.769, 4213.333, 4169.744, 4190.769, 4172.308, 0, 0, []
1627719646.6603, 41, 0, 4173.846, 4216.41, 4181.538, 4183.59, 4167.692, 0, 0, []
1627719646.6682, 42, 0, 4185.128, 4228.205, 4180, 4181.538, 4175.897, 0, 0, []
1627719646.6762, 43, 0, 4184.615, 4224.103, 4182.051, 4178.974, 4176.41, 0, 0, []
1627719646.684, 44, 0, 4182.051, 4216.923, 4178.462, 4177.949, 4168.718, 0, 0, []
1627719646.692, 45, 0, 4184.103, 4218.462, 4162.564, 4176.923, 4170.256, 0, 0, []
1627719646.6999, 46, 0, 4181.026, 4219.487, 4162.051, 4176.923, 4171.282, 0, 0, []
1627719646.7079, 47, 0, 4183.077, 4217.436, 4161.538, 4187.692, 4172.821, 0, 0, []
1627719646.7158, 48, 0, 4186.154, 4213.333, 4166.667, 4195.385, 4183.59, 0, 0, []
1627719646.7237, 49, 0, 4181.538, 4216.923, 4175.897, 4189.744, 4186.154, 0, 0, []
1627719646.7316, 50, 0, 4192.308, 4239.487, 4181.538, 4193.846, 4184.103, 0, 0, []
1627719646.7396, 51, 0, 4209.744, 4248.718, 4192.308, 4204.615, 4195.897, 0, 0, []
1627719646.7475, 52, 0, 4210.256, 4238.462, 4184.103, 4204.103, 4204.615, 0, 0, []
1627719646.7555, 53, 0, 4201.026, 4231.282, 4170.256, 4200, 4192.308, 0, 0, []
1627719646.7634, 54, 0, 4195.385, 4225.641, 4158.974, 4202.051, 4178.974, 0, 0, []
1627719646.7713, 55, 0, 4186.667, 4219.487, 4150.769, 4201.026, 4177.436, 0, 0, []
1627719646.7792, 56, 0, 4170.256, 4204.103, 4158.462, 4183.077, 4170.256, 0, 0, []
1627719646.7872, 57, 0, 4165.641, 4193.846, 4156.923, 4170.256, 4163.59, 0, 0, []
1627719646.7952, 58, 0, 4181.538, 4210.769, 4162.564, 4181.026, 4176.41, 0, 0, []
1627719646.803, 59, 0, 4189.744, 4221.538, 4173.333, 4188.718, 4188.205, 0, 0, []
1627719646.811, 60, 0, 4174.359, 4202.564, 4157.436, 4172.308, 4174.872, 0, 0, []
1627719646.8189, 61, 0, 4166.667, 4191.795, 4153.846, 4168.205, 4163.077, 0, 0, []
1627719646.8269, 62, 0, 4181.026, 4199.487, 4155.897, 4185.128, 4174.872, 0, 0, []
1627719646.8348, 63, 0, 4189.231, 4205.641, 4150.769, 4193.333, 4182.564, 0, 0, []
1627719646.8427, 64, 0, 4182.564, 4213.846, 4159.487, 4187.692, 4172.308, 450, 0, []
1627719646.8506, 65, 0, 4170.769, 4206.667, 4157.436, 4175.385, 4156.41, 450, 0, []
1627719646.8586, 66, 0, 4161.026, 4188.205, 4154.359, 4165.641, 4147.692, 16175, 0, []
1627719646.8665, 67, 0, 4165.128, 4200.513, 4157.436, 4171.282, 4160, 450, 0, []
1627719646.8745, 68, 0, 4174.359, 4221.538, 4159.487, 4175.385, 4174.359, 16171, 0, []
1627719646.8824, 69, 0, 4170.256, 4207.692, 4158.462, 4168.718, 4168.205, 450, 0, []
1627719646.8903, 70, 0, 4167.692, 4192.308, 4152.821, 4176.923, 4167.179, 323, 0, []
1627719646.8982, 71, 0, 4178.462, 4205.641, 4160, 4183.59, 4174.359, 450, 0, []
1627719646.9062, 72, 0, 4180, 4215.897, 4154.872, 4172.821, 4163.59, 450, 0, []
1627719646.9141, 73, 0, 4172.821, 4205.128, 4144.615, 4165.641, 4153.333, 16154, 0, []
1627719646.922, 74, 0, 4168.718, 4193.846, 4151.282, 4161.026, 4154.872, 450, 0, []
1627719646.9299, 75, 0, 4173.333, 4198.462, 4149.744, 4152.821, 4159.487, 16192, 0, []
1627719646.9377, 76, 0, 4176.923, 4202.564, 4153.846, 4152.821, 4163.077, 450, 0, []
1627719646.9456, 77, 0, 4170.256, 4198.462, 4154.359, 4150.769, 4158.974, 450, 0, []
1627719646.9536, 78, 0, 4173.333, 4192.821, 4146.667, 4148.205, 4161.026, 450, 0, []
1627719646.9615, 79, 0, 4181.538, 4188.205, 4151.795, 4155.897, 4172.821, 16192, 0, []
1627719646.9694, 80, 0, 4173.333, 4189.744, 4143.077, 4155.385, 4169.744, 450, 0, []
1627719646.9774, 81, 0, 4163.077, 4198.974, 4144.615, 4148.718, 4154.359, 450, 0, []
1627719646.9853, 82, 0, 4171.795, 4205.128, 4160.513, 4155.385, 4155.897, 450, 0, []
1627719646.9933, 83, 0, 4172.821, 4196.923, 4148.205, 4151.795, 4155.385, 16192, 0, []
1627719647.0011, 84, 0, 4167.179, 4188.718, 4141.026, 4141.026, 4147.179, 450, 0, []
1627719647.0091, 85, 0, 4182.564, 4196.923, 4150.769, 4149.231, 4160.513, 450, 0, []
1627719647.017, 86, 0, 4195.897, 4205.641, 4156.923, 4163.59, 4170.256, 450, 0, []
1627719647.025, 87, 0, 4192.821, 4197.436, 4149.744, 4170.769, 4164.615, 16192, 0, []
1627719647.0329, 88, 0, 4196.923, 4185.641, 4140, 4164.103, 4163.077, 450, 0, []
1627719647.0408, 89, 0, 4205.641, 4195.385, 4151.282, 4153.333, 4162.051, 450, 0, []
1627719647.0487, 90, 0, 4213.846, 4204.615, 4146.667, 4157.436, 4173.333, 450, 0, []
1627719647.0567, 91, 0, 4242.051, 4195.897, 4131.795, 4160.513, 4223.077, 16192, 0, []
1627719647.0646, 92, 0, 4293.846, 4193.846, 4139.487, 4152.821, 4296.41, 450, 0, []
1627719647.0726, 93, 0, 4351.795, 4204.103, 4144.103, 4158.974, 4366.667, 450, 0, []
1627719647.0804, 94, 0, 4414.872, 4202.564, 4145.641, 4174.359, 4443.077, 450, 0, []
1627719647.0882, 95, 0, 4480, 4197.949, 4147.692, 4185.128, 4517.436, 16192, 0, []
1627719647.0962, 96, 0, 4525.641, 4210.256, 4162.051, 4202.564, 4574.359, 450, 0, []
1627719647.1041, 97, 0, 4548.205, 4223.59, 4172.308, 4219.487, 4621.538, 450, 0, []
1627719647.1121, 98, 0, 4552.821, 4222.051, 4161.538, 4221.026, 4652.821, 450, 0, []
1627719647.1199, 99, 0, 4538.462, 4210.769, 4171.795, 4226.154, 4658.462, 16192, 0, []
1627719647.1279, 100, 0, 4515.385, 4209.231, 4181.026, 4243.077, 4654.872, 450, 0, []
1627719647.1358, 101, 0, 4494.359, 4219.487, 4181.538, 4253.846, 4651.282, 450, 0, []
1627719647.1438, 102, 0, 4465.128, 4214.359, 4187.179, 4250.769, 4634.872, 450, 0, []
1627719647.1517, 103, 0, 4422.051, 4198.462, 4182.564, 4250.769, 4609.744, 16192, 0, []
1627719647.1596, 104, 0, 4377.436, 4197.436, 4191.795, 4260, 4588.205, 450, 0, []
1627719647.1675, 105, 0, 4335.897, 4191.795, 4190.256, 4259.487, 4557.949, 450, 0, []
1627719647.1755, 106, 0, 4297.436, 4177.949, 4175.897, 4256.923, 4526.154, 450, 0, []
1627719647.1834, 107, 0, 4261.538, 4184.103, 4186.667, 4270.769, 4500.513, 16192, 0, []
1627719647.1914, 108, 0, 4221.538, 4191.795, 4185.128, 4280.513, 4470.256, 450, 0, []
1627719647.1992, 109, 0, 4187.692, 4180.513, 4169.231, 4278.462, 4436.41, 450, 0, []
1627719647.2072, 110, 0, 4172.821, 4176.41, 4165.641, 4279.487, 4412.821, 450, 0, []
1627719647.2151, 111, 0, 4165.641, 4190.256, 4173.333, 4273.846, 4393.846, 16192, 0, []
1627719647.2229, 112, 0, 4156.41, 4185.641, 4180.513, 4263.59, 4373.333, 450, 0, []
1627719647.2308, 113, 0, 4154.872, 4168.205, 4180, 4272.308, 4365.128, 450, 0, []
1627719647.2385, 114, 0, 4159.487, 4166.667, 4190.256, 4283.59, 4357.949, 450, 0, []
1627719647.2464, 115, 0, 4152.308, 4170.769, 4185.641, 4270.769, 4337.949, 16192, 0, []
1627719647.2542, 116, 0, 4141.538, 4174.872, 4157.949, 4256.923, 4319.487, 450, 0, []
1627719647.2622, 117, 0, 4145.128, 4186.667, 4160, 4258.462, 4312.821, 450, 0, []
1627719647.2701, 118, 0, 4151.282, 4186.667, 4171.795, 4256.41, 4311.795, 450, 0, []
1627719647.278, 119, 0, 4142.051, 4171.282, 4174.359, 4249.744, 4297.436, 16192, 0, []
1627719647.2859, 120, 0, 4121.538, 4173.333, 4169.744, 4243.59, 4268.205, 450, 0, []
1627719647.2939, 121, 0, 4114.359, 4188.718, 4157.949, 4235.897, 4250.256, 450, 0, []
1627719647.3018, 122, 0, 4126.154, 4183.077, 4157.436, 4238.462, 4258.974, 450, 0, []
1627719647.3098, 123, 0, 4138.974, 4169.744, 4158.462, 4250.256, 4268.205, 16192, 0, []
1627719647.3176, 124, 0, 4140.513, 4175.385, 4175.385, 4251.795, 4256.41, 450, 0, []
1627719647.3256, 125, 0, 4136.923, 4188.718, 4182.051, 4240.513, 4247.179, 450, 0, []
1627719647.3335, 126, 0, 4139.487, 4189.744, 4152.308, 4228.718, 4246.154, 450, 0, []
1627719647.3415, 127, 0, 4139.487, 4177.949, 4156.41, 4220.513, 4233.333, 16192, 0, []
1627719647.3494, 128, 0, 4129.231, 4172.308, 4176.41, 4212.308, 4212.308, 450, 0, []
1627719647.3574, 0, 0, 4114.872, 4173.333, 4169.744, 4203.59, 4200.513, 450, 0, []
1627719647.3652, 1, 0, 4104.615, 4166.154, 4161.538, 4198.974, 4185.128, 450, 0, []
1627719647.3731, 2, 0, 4105.128, 4169.744, 4156.923, 4201.538, 4167.692, 16175, 0, []
1627719647.381, 3, 0, 4105.641, 4185.128, 4155.385, 4203.59, 4168.205, 450, 0, []
1627719647.3888, 4, 0, 4105.641, 4179.487, 4149.231, 4198.974, 4170.256, 16171, 0, []
1627719647.3967, 5, 0, 4108.205, 4160.513, 4145.641, 4184.103, 4157.949, 450, 0, []
1627719647.4044, 6, 0, 4098.974, 4166.667, 4147.179, 4172.308, 4143.59, 324, 0, []
1627719647.4124, 7, 0, 4086.154, 4172.821, 4136.923, 4176.41, 4137.949, 450, 0, []
1627719647.4203, 8, 0, 4088.205, 4157.436, 4137.436, 4180, 4137.436, 450, 0, []
1627719647.4283, 9, 0, 4093.846, 4158.974, 4135.897, 4176.41, 4133.333, 16154, 0, []
1627719647.4362, 10, 0, 4090.256, 4181.538, 4134.359, 4182.564, 4129.744, 450, 0, []
1627719647.4441, 11, 0, 4087.179, 4188.205, 4148.718, 4196.923, 4131.282, 16192, 0, []
1627719647.452, 12, 0, 4090.769, 4170.769, 4139.487, 4196.41, 4134.872, 450, 0, []
1627719647.46, 13, 0, 4093.333, 4166.154, 4131.795, 4187.692, 4136.41, 450, 0, []
1627719647.4679, 14, 0, 4094.872, 4182.564, 4135.385, 4187.692, 4136.923, 450, 0, []
1627719647.4759, 15, 0, 4096.923, 4183.59, 4135.897, 4186.667, 4138.462, 16192, 0, []
1627719647.4837, 16, 0, 4095.385, 4175.897, 4142.564, 4175.385, 4136.923, 0, 0, []
1627719647.4917, 17, 0, 4087.692, 4177.436, 4135.897, 4161.538, 4127.692, 0, 0, []
1627719647.4996, 18, 0, 4078.462, 4178.462, 4129.231, 4155.897, 4110.769, 0, 0, []
1627719647.5076, 19, 0, 4073.333, 4161.538, 4121.026, 4151.282, 4101.026, 0, 0, []
1627719647.5155, 20, 0, 4080.513, 4150.256, 4115.897, 4150.256, 4109.231, 0, 0, []
1627719647.5232, 21, 0, 4093.333, 4166.154, 4130.769, 4155.897, 4124.615, 0, 0, []
1627719647.5311, 22, 0, 4101.026, 4189.231, 4134.872, 4163.077, 4131.795, 0, 0, []
1627719647.5389, 23, 0, 4103.59, 4187.692, 4135.897, 4156.923, 4127.179, 0, 0, []
1627719647.5468, 24, 0, 4104.615, 4167.179, 4139.487, 4140, 4120, 0, 0, []
1627719647.5546, 25, 0, 4108.718, 4165.128, 4135.897, 4138.974, 4118.974, 0, 0, []
1627719647.5625, 26, 0, 4105.641, 4172.308, 4136.41, 4143.59, 4110.256, 0, 0, []
1627719647.5704, 27, 0, 4086.667, 4170.256, 4124.615, 4134.872, 4088.205, 0, 0, []
1627719647.5783, 28, 0, 4076.923, 4166.154, 4124.615, 4131.282, 4078.462, 0, 0, []
1627719647.5861, 29, 0, 4087.692, 4168.205, 4141.538, 4140.513, 4088.718, 0, 0, []
1627719647.5941, 30, 0, 4091.282, 4168.205, 4134.872, 4133.846, 4091.795, 0, 0, []
1627719647.6019, 31, 0, 4090.256, 4158.974, 4133.846, 4119.487, 4084.103, 0, 0, []
1627719647.6099, 32, 0, 4102.051, 4162.051, 4142.051, 4119.487, 4094.872, 0, 0, []
1627719647.6178, 33, 0, 4111.282, 4177.949, 4144.615, 4124.103, 4114.359, 0, 0, []
1627719647.6258, 34, 0, 4107.179, 4189.744, 4147.692, 4129.231, 4112.821, 0, 0, []
1627719647.6337, 35, 0, 4103.59, 4191.282, 4146.667, 4142.051, 4103.59, 0, 0, []
1627719647.6416, 36, 0, 4114.359, 4189.231, 4151.282, 4157.436, 4116.41, 0, 0, []
1627719647.6495, 37, 0, 4118.974, 4188.205, 4144.103, 4153.846, 4123.077, 0, 0, []
1627719647.6575, 38, 0, 4103.59, 4185.128, 4134.359, 4135.897, 4103.077, 0, 0, []
1627719647.6655, 39, 0, 4091.282, 4187.179, 4137.436, 4138.462, 4101.538, 0, 0, []
1627719647.6734, 40, 0, 4092.821, 4188.205, 4129.231, 4162.051, 4127.179, 0, 0, []
1627719647.6812, 41, 0, 4087.179, 4178.462, 4136.923, 4184.615, 4141.538, 0, 0, []
1627719647.689, 42, 0, 4073.846, 4167.179, 4151.282, 4204.103, 4139.487, 0, 0, []
1627719647.6969, 43, 0, 4066.667, 4165.128, 4142.051, 4220, 4141.026, 0, 0, []
1627719647.7047, 44, 0, 4057.949, 4170.769, 4134.872, 4221.538, 4142.564, 0, 0, []
1627719647.7126, 45, 0, 4049.744, 4173.333, 4133.333, 4218.462, 4141.538, 0, 0, []
1627719647.7203, 46, 0, 4047.692, 4174.359, 4143.077, 4219.487, 4140, 0, 0, []
1627719647.7283, 47, 0, 4049.231, 4177.949, 4145.641, 4217.949, 4137.436, 0, 0, []
1627719647.7362, 48, 0, 4051.795, 4185.641, 4143.077, 4214.872, 4137.436, 0, 0, []
1627719647.7442, 49, 0, 4049.744, 4185.641, 4156.923, 4218.462, 4136.41, 0, 0, []
1627719647.7521, 50, 0, 4050.769, 4181.026, 4156.923, 4223.077, 4135.385, 0, 0, []
1627719647.76, 51, 0, 4061.026, 4183.59, 4155.385, 4220, 4136.923, 0, 0, []
1627719647.7679, 52, 0, 4073.846, 4186.154, 4163.077, 4222.051, 4142.564, 0, 0, []
1627719647.7759, 53, 0, 4075.385, 4188.205, 4169.231, 4231.282, 4147.179, 0, 0, []
1627719647.7838, 54, 0, 4063.59, 4189.231, 4177.949, 4225.641, 4138.974, 0, 0, []
1627719647.7918, 55, 0, 4063.59, 4184.615, 4174.872, 4214.359, 4128.718, 0, 0, []
1627719647.7996, 56, 0, 4073.846, 4183.077, 4170.769, 4213.846, 4127.179, 0, 0, []
1627719647.8076, 57, 0, 4070.256, 4187.179, 4159.487, 4211.795, 4124.103, 0, 0, []
1627719647.8155, 58, 0, 4058.974, 4187.692, 4140.513, 4203.077, 4112.821, 0, 0, []
1627719647.8233, 59, 0, 4056.41, 4184.103, 4142.051, 4200, 4104.103, 0, 0, []
1627719647.8312, 60, 0, 4056.923, 4183.077, 4138.462, 4194.872, 4103.59, 0, 0, []
1627719647.8389, 61, 0, 4065.641, 4178.462, 4137.949, 4192.308, 4110.769, 0, 0, []
1627719647.8468, 62, 0, 4081.026, 4179.487, 4147.179, 4202.564, 4121.538, 0, 0, []
1627719647.8546, 63, 0, 4087.692, 4191.282, 4143.077, 4214.872, 4134.359, 0, 0, []
1627719647.8625, 64, 0, 4085.641, 4193.846, 4153.333, 4212.308, 4136.41, 450, 0, []
1627719647.8703, 65, 0, 4081.026, 4183.59, 4159.487, 4201.538, 4125.128, 450, 0, []
1627719647.8782, 66, 0, 4079.487, 4185.641, 4150.769, 4198.462, 4122.051, 16175, 0, []
1627719647.8861, 67, 0, 4090.256, 4200.513, 4157.949, 4200.513, 4136.41, 450, 0, []
1627719647.8941, 68, 0, 4100, 4199.487, 4170.256, 4201.538, 4143.59, 16171, 0, []
1627719647.902, 69, 0, 4096.923, 4185.128, 4170.256, 4200.513, 4133.846, 450, 0, []
1627719647.91, 70, 0, 4098.462, 4182.051, 4150.256, 4198.462, 4133.333, 325, 0, []
1627719647.9178, 71, 0, 4104.103, 4186.154, 4144.615, 4201.026, 4143.077, 450, 0, []
1627719647.9258, 72, 0, 4094.872, 4175.897, 4160, 4202.051, 4138.462, 450, 0, []
1627719647.9337, 73, 0, 4086.154, 4165.641, 4155.385, 4191.282, 4125.128, 16154, 0, []
1627719647.9417, 74, 0, 4100, 4176.41, 4156.41, 4192.308, 4129.744, 450, 0, []
1627719647.9496, 75, 0, 4110.256, 4186.667, 4162.564, 4208.718, 4142.051, 16192, 0, []
1627719647.9575, 76, 0, 4097.949, 4186.154, 4162.051, 4212.821, 4138.462, 450, 0, []
1627719647.9654, 77, 0, 4091.795, 4188.718, 4170.769, 4209.744, 4132.308, 450, 0, []
1627719647.9732, 78, 0, 4102.051, 4181.026, 4162.564, 4214.872, 4137.436, 450, 0, []
1627719647.9811, 79, 0, 4109.231, 4169.231, 4156.41, 4217.436, 4141.026, 16192, 0, []
1627719647.9889, 80, 0, 4114.872, 4174.872, 4161.026, 4213.333, 4140.513, 450, 0, []
1627719647.9967, 81, 0, 4126.667, 4186.154, 4162.051, 4210.256, 4145.641, 450, 0, []
1627719648.0045, 82, 0, 4124.103, 4193.333, 4168.718, 4204.103, 4150.256, 450, 0, []
1627719648.0124, 83, 0, 4117.436, 4196.41, 4171.282, 4204.103, 4150.769, 16192, 0, []
1627719648.0202, 84, 0, 4130.256, 4192.821, 4175.385, 4210.256, 4153.333, 450, 0, []
1627719648.0281, 85, 0, 4136.41, 4185.128, 4163.59, 4205.128, 4154.359, 450, 0, []
1627719648.0358, 86, 0, 4122.564, 4178.974, 4149.231, 4196.923, 4149.744, 450, 0, []
1627719648.0438, 87, 0, 4121.538, 4190.256, 4172.821, 4202.051, 4151.282, 16192, 0, []
1627719648.0517, 88, 0, 4135.385, 4205.641, 4178.974, 4209.744, 4152.308, 450, 0, []
1627719648.0597, 89, 0, 4135.897, 4186.667, 4168.718, 4212.308, 4145.128, 450, 0, []
1627719648.0676, 90, 0, 4131.282, 4165.641, 4170.769, 4216.41, 4147.692, 450, 0, []
1627719648.0755, 91, 0, 4138.974, 4181.538, 4161.538, 4214.359, 4153.333, 16192, 0, []
1627719648.0834, 92, 0, 4137.436, 4184.615, 4152.821, 4203.59, 4146.154, 450, 0, []
1627719648.0914, 93, 0, 4123.077, 4168.718, 4147.179, 4197.949, 4134.359, 450, 0, []
1627719648.0993, 94, 0, 4125.128, 4182.564, 4152.821, 4200.513, 4136.41, 450, 0, []
1627719648.1073, 95, 0, 4141.538, 4191.795, 4159.487, 4200, 4144.615, 16192, 0, []
1627719648.1151, 96, 0, 4153.846, 4181.538, 4153.333, 4206.154, 4154.359, 450, 0, []
1627719648.123, 97, 0, 4158.462, 4193.333, 4164.103, 4218.974, 4166.667, 450, 0, []
1627719648.1309, 98, 0, 4158.462, 4208.718, 4170.769, 4215.385, 4166.667, 450, 0, []
1627719648.1387, 99, 0, 4156.41, 4196.923, 4169.231, 4211.795, 4162.051, 16192, 0, []
1627719648.1466, 100, 0, 4154.359, 4181.538, 4171.282, 4213.846, 4165.641, 450, 0, []
1627719648.1544, 101, 0, 4154.872, 4180.513, 4161.026, 4205.641, 4165.641, 450, 0, []
1627719648.1622, 102, 0, 4167.179, 4192.821, 4164.103, 4202.051, 4168.205, 450, 0, []
1627719648.17, 103, 0, 4172.821, 4202.564, 4171.795, 4216.41, 4175.385, 16192, 0, []
1627719648.1779, 104, 0, 4164.103, 4195.385, 4164.615, 4217.949, 4173.333, 450, 0, []
1627719648.1857, 105, 0, 4183.59, 4189.231, 4153.846, 4207.179, 4181.538, 450, 0, []
1627719648.1937, 106, 0, 4254.359, 4197.436, 4147.179, 4204.103, 4227.179, 450, 0, []
1627719648.2015, 107, 0, 4336.41, 4200.513, 4156.923, 4195.897, 4290.769, 16192, 0, []
1627719648.2095, 108, 0, 4416.923, 4199.487, 4157.436, 4186.667, 4358.974, 450, 0, []
1627719648.2174, 109, 0, 4509.744, 4210.256, 4152.821, 4183.077, 4434.359, 450, 0, []
1627719648.2254, 110, 0, 4593.846, 4228.205, 4165.128, 4173.846, 4496.923, 450, 0, []
1627719648.2333, 111, 0, 4653.333, 4242.051, 4165.641, 4162.051, 4538.974, 16192, 0, []
1627719648.2412, 112, 0, 4685.641, 4246.667, 4163.077, 4159.487, 4556.923, 450, 0, []
1627719648.2491, 113, 0, 4684.615, 4241.538, 4162.051, 4160.513, 4543.077, 450, 0, []
1627719648.2571, 114, 0, 4655.385, 4227.179, 4152.821, 4155.897, 4513.846, 450, 0, []
1627719648.265, 115, 0, 4616.41, 4217.436, 4148.205, 4150.769, 4484.615, 16192, 0, []
1627719648.273, 116, 0, 4584.615, 4215.897, 4147.692, 4149.231, 4463.59, 450, 0, []
1627719648.2808, 117, 0, 4560.513, 4216.923, 4159.487, 4157.436, 4451.282, 450, 0, []
1627719648.2886, 118, 0, 4535.385, 4215.897, 4161.538, 4162.564, 4432.308, 450, 0, []
1627719648.2965, 119, 0, 4503.59, 4215.897, 4155.897, 4157.949, 4396.923, 16192, 0, []
1627719648.3043, 120, 0, 4472.821, 4217.949, 4164.615, 4153.333, 4361.538, 450, 0, []
1627719648.3122, 121, 0, 4448.718, 4211.795, 4155.897, 4152.821, 4341.538, 450, 0, []
1627719648.3199, 122, 0, 4428.718, 4206.154, 4155.385, 4155.385, 4329.231, 450, 0, []
1627719648.3278, 123, 0, 4409.231, 4210.769, 4168.205, 4155.897, 4312.308, 16192, 0, []
1627719648.3356, 124, 0, 4389.744, 4220, 4162.051, 4152.821, 4291.282, 450, 0, []
1627719648.3436, 125, 0, 4373.846, 4220.513, 4166.154, 4152.821, 4274.872, 450, 0, []
1627719648.3515, 126, 0, 4359.487, 4213.846, 4169.231, 4156.41, 4260, 450, 0, []
1627719648.3593, 127, 0, 4350.769, 4215.385, 4163.077, 4155.897, 4252.308, 16192, 0, []
1627719648.3671, 128, 0, 4343.59, 4217.436, 4163.077, 4150.769, 4246.154, 450, 0, []
1627719648.3751, 0, 0, 4326.154, 4217.949, 4150.256, 4140.513, 4227.692, 450, 0, []
1627719648.383, 1, 0, 4309.231, 4214.359, 4144.615, 4128.718, 4208.718, 450, 0, []
1627719648.391, 2, 0, 4309.744, 4207.692, 4151.795, 4128.718, 4207.692, 16174, 0, []
1627719648.3988, 3, 0, 4317.436, 4209.231, 4164.615, 4144.615, 4216.923, 450, 0, []
1627719648.4068, 4, 0, 4312.821, 4213.333, 4168.205, 4155.385, 4213.333, 16171, 0, []
1627719648.4147, 5, 0, 4303.077, 4210.769, 4147.179, 4147.179, 4196.923, 450, 0, []
1627719648.4227, 6, 0, 4293.846, 4203.59, 4137.436, 4137.436, 4184.103, 326, 0, []
1627719648.4306, 7, 0, 4283.59, 4202.051, 4136.923, 4130.769, 4184.103, 450, 0, []
1627719648.4383, 8, 0, 4277.949, 4200, 4140.513, 4120, 4181.538, 450, 0, []
1627719648.4462, 9, 0, 4279.487, 4203.59, 4149.231, 4125.128, 4172.308, 16154, 0, []
1627719648.454, 10, 0, 4278.974, 4204.103, 4138.462, 4135.385, 4168.718, 450, 0, []
1627719648.4619, 11, 0, 4264.615, 4189.231, 4131.795, 4123.077, 4156.923, 16193, 0, []
1627719648.4697, 12, 0, 4249.231, 4181.538, 4132.308, 4114.359, 4144.615, 450, 0, []
1627719648.4775, 13, 0, 4252.308, 4184.615, 4137.436, 4125.641, 4149.744, 450, 0, []
1627719648.4853, 14, 0, 4257.436, 4191.282, 4152.308, 4124.103, 4153.846, 450, 0, []
1627719648.4933, 15, 0, 4253.846, 4208.205, 4151.282, 4117.436, 4151.282, 16193, 0, []
1627719648.5012, 16, 0, 4252.308, 4224.103, 4158.462, 4122.051, 4154.872, 0, 0, []
1627719648.5092, 17, 0, 4249.231, 4216.41, 4163.59, 4118.462, 4152.308, 0, 0, []
1627719648.517, 18, 0, 4237.436, 4200.513, 4153.333, 4114.359, 4142.051, 0, 0, []
1627719648.525, 19, 0, 4230.256, 4193.333, 4151.282, 4122.564, 4135.897, 0, 0, []
1627719648.5329, 20, 0, 4226.154, 4180.513, 4139.487, 4121.538, 4124.103, 0, 0, []
1627719648.5409, 21, 0, 4219.487, 4181.026, 4132.821, 4119.487, 4113.333, 0, 0, []
1627719648.5488, 22, 0, 4217.949, 4201.538, 4134.872, 4126.667, 4120.513, 0, 0, []
1627719648.5567, 23, 0, 4222.051, 4200.513, 4125.641, 4120, 4123.077, 0, 0, []
1627719648.5646, 24, 0, 4217.436, 4181.538, 4117.436, 4103.59, 4107.692, 0, 0, []
1627719648.5726, 25, 0, 4211.282, 4187.692, 4111.795, 4108.205, 4104.103, 0, 0, []
1627719648.5805, 26, 0, 4218.462, 4195.385, 4127.179, 4125.128, 4120.513, 0, 0, []
1627719648.5883, 27, 0, 4220, 4183.59, 4136.41, 4129.231, 4127.692, 0, 0, []
1627719648.5961, 28, 0, 4208.718, 4189.744, 4116.41, 4121.026, 4121.026, 0, 0, []
1627719648.6039, 29, 0, 4208.205, 4202.564, 4120, 4119.487, 4124.615, 0, 0, []
1627719648.6118, 30, 0, 4216.923, 4188.205, 4129.231, 4122.051, 4134.872, 0, 0, []
1627719648.6196, 31, 0, 4217.436, 4180.513, 4124.615, 4121.538, 4136.41, 0, 0, []
1627719648.6275, 32, 0, 4210.256, 4190.256, 4126.154, 4127.179, 4128.718, 0, 0, []
1627719648.6352, 33, 0, 4207.692, 4190.256, 4121.538, 4136.923, 4125.641, 0, 0, []
1627719648.6431, 34, 0, 4204.103, 4184.103, 4118.462, 4140, 4125.128, 0, 0, []
1627719648.6509, 35, 0, 4195.897, 4187.692, 4112.308, 4137.949, 4120, 0, 0, []
1627719648.6589, 36, 0, 4201.026, 4198.974, 4118.974, 4141.538, 4124.615, 0, 0, []
1627719648.6668, 37, 0, 4207.692, 4204.615, 4132.308, 4135.385, 4130.769, 0, 0, []
1627719648.6747, 38, 0, 4200, 4195.385, 4131.282, 4123.59, 4125.128, 0, 0, []
1627719648.6826, 39, 0, 4193.846, 4190.769, 4138.974, 4128.205, 4122.051, 0, 0, []
1627719648.6906, 40, 0, 4195.385, 4197.436, 4133.846, 4138.462, 4136.41, 0, 0, []
1627719648.6985, 41, 0, 4190.769, 4198.462, 4122.564, 4144.615, 4155.385, 0, 0, []
1627719648.7065, 42, 0, 4184.103, 4197.949, 4136.41, 4150.769, 4158.974, 0, 0, []
1627719648.7143, 43, 0, 4186.667, 4201.538, 4142.564, 4155.897, 4158.974, 0, 0, []
1627719648.7223, 44, 0, 4192.821, 4203.077, 4138.462, 4154.872, 4161.026, 0, 0, []
1627719648.7302, 45, 0, 4192.308, 4203.59, 4130.769, 4149.231, 4156.41, 0, 0, []
1627719648.7382, 46, 0, 4190.256, 4197.436, 4129.744, 4142.564, 4153.333, 0, 0, []
1627719648.7461, 47, 0, 4188.205, 4184.615, 4142.051, 4140.513, 4153.846, 0, 0, []
1627719648.7538, 48, 0, 4185.128, 4189.744, 4140.513, 4141.538, 4150.256, 0, 0, []
1627719648.7617, 49, 0, 4180, 4205.641, 4138.974, 4144.103, 4145.128, 0, 0, []
1627719648.7695, 50, 0, 4175.385, 4195.385, 4144.103, 4149.231, 4143.077, 0, 0, []
1627719648.7774, 51, 0, 4181.026, 4183.077, 4143.59, 4149.744, 4148.205, 0, 0, []
1627719648.7852, 52, 0, 4180, 4193.333, 4139.487, 4140, 4151.282, 0, 0, []
1627719648.793, 53, 0, 4169.231, 4194.359, 4130.256, 4135.385, 4143.59, 0, 0, []
1627719648.8008, 54, 0, 4173.846, 4191.795, 4142.051, 4145.128, 4141.026, 0, 0, []
1627719648.8088, 55, 0, 4186.667, 4211.795, 4147.179, 4158.462, 4154.359, 0, 0, []
1627719648.8167, 56, 0, 4181.026, 4217.436, 4130.769, 4155.385, 4155.897, 0, 0, []
1627719648.8247, 57, 0, 4171.795, 4194.872, 4134.359, 4143.59, 4142.564, 0, 0, []
1627719648.8325, 58, 0, 4185.128, 4190.769, 4135.385, 4152.308, 4150.769, 0, 0, []
1627719648.8405, 59, 0, 4191.795, 4206.154, 4130.256, 4167.179, 4163.077, 0, 0, []
1627719648.8484, 60, 0, 4177.949, 4200, 4129.231, 4163.59, 4156.41, 0, 0, []
1627719648.8564, 61, 0, 4171.795, 4185.641, 4124.615, 4153.846, 4148.205, 0, 0, []
1627719648.8643, 62, 0, 4179.487, 4192.821, 4141.026, 4157.436, 4153.333, 0, 0, []
1627719648.8722, 63, 0, 4185.128, 4204.615, 4140.513, 4158.462, 4153.333, 0, 0, []
1627719648.8801, 64, 0, 4183.077, 4203.59, 4123.077, 4146.154, 4141.026, 450, 0, []
1627719648.8881, 65, 0, 4188.205, 4201.026, 4133.846, 4149.744, 4143.59, 450, 0, []
1627719648.896, 66, 0, 4194.359, 4195.385, 4143.077, 4168.718, 4156.923, 16175, 0, []
1627719648.9038, 67, 0, 4193.333, 4194.872, 4137.949, 4176.41, 4154.359, 450, 0, []
1627719648.9116, 68, 0, 4196.41, 4192.821, 4123.077, 4172.308, 4148.718, 16171, 0, []
1627719648.9194, 69, 0, 4200, 4192.308, 4121.026, 4166.667, 4153.333, 450, 0, []
1627719648.9273, 70, 0, 4193.333, 4207.692, 4130.256, 4163.077, 4156.41, 326, 0, []
1627719648.9351, 71, 0, 4185.641, 4215.897, 4123.077, 4157.949, 4150.769, 450, 0, []
1627719648.943, 72, 0, 4180.513, 4202.564, 4123.077, 4149.744, 4144.615, 450, 0, []
1627719648.951, 73, 0, 4188.205, 4196.41, 4131.282, 4155.385, 4153.846, 16154, 0, []
1627719648.9588, 74, 0, 4201.026, 4192.308, 4140.513, 4174.359, 4173.333, 450, 0, []
1627719648.9666, 75, 0, 4193.333, 4181.026, 4139.487, 4172.821, 4170.256, 16193, 0, []
1627719648.9745, 76, 0, 4180, 4188.718, 4117.436, 4156.41, 4154.359, 450, 0, []
1627719648.9823, 77, 0, 4184.103, 4196.41, 4120.513, 4154.359, 4158.462, 450, 0, []
1627719648.9903, 78, 0, 4185.641, 4184.615, 4131.795, 4154.359, 4160, 450, 0, []
1627719648.9981, 79, 0, 4180, 4180, 4129.744, 4150.769, 4146.154, 16193, 0, []
1627719649.0061, 80, 0, 4182.051, 4186.154, 4134.872, 4154.359, 4146.667, 450, 0, []
1627719649.014, 81, 0, 4184.103, 4188.205, 4128.718, 4152.308, 4154.359, 450, 0, []
1627719649.022, 82, 0, 4191.795, 4185.128, 4130.769, 4150.256, 4152.308, 450, 0, []
1627719649.0299, 83, 0, 4200.513, 4184.615, 4141.026, 4161.026, 4152.821, 16193, 0, []
1627719649.0378, 84, 0, 4194.359, 4196.41, 4134.359, 4163.077, 4155.385, 450, 0, []
1627719649.0457, 85, 0, 4182.564, 4207.692, 4134.359, 4157.949, 4148.718, 450, 0, []
1627719649.0535, 86, 0, 4184.615, 4200.513, 4136.923, 4164.615, 4149.231, 450, 0, []
1627719649.0614, 87, 0, 4195.897, 4194.359, 4140.513, 4171.282, 4164.103, 16193, 0, []
1627719649.0692, 88, 0, 4200, 4198.462, 4139.487, 4174.359, 4169.231, 450, 0, []
1627719649.077, 89, 0, 4206.154, 4200.513, 4137.436, 4180.513, 4173.846, 450, 0, []
1627719649.0848, 90, 0, 4207.692, 4199.487, 4145.641, 4178.462, 4178.974, 450, 0, []
1627719649.0927, 91, 0, 4198.974, 4201.026, 4138.462, 4166.154, 4172.308, 16193, 0, []
1627719649.1005, 92, 0, 4202.564, 4201.026, 4141.026, 4166.667, 4176.923, 450, 0, []
1627719649.1084, 93, 0, 4220.513, 4198.974, 4160, 4178.974, 4199.487, 450, 0, []
1627719649.1161, 94, 0, 4237.436, 4199.487, 4161.026, 4182.564, 4217.949, 450, 0, []
1627719649.1241, 95, 0, 4251.282, 4203.59, 4160, 4176.923, 4232.308, 16193, 0, []
1627719649.132, 96, 0, 4281.538, 4208.205, 4154.872, 4171.795, 4264.615, 450, 0, []
1627719649.14, 97, 0, 4335.897, 4205.128, 4150.769, 4168.718, 4321.026, 450, 0, []
1627719649.1479, 98, 0, 4395.385, 4199.487, 4150.256, 4168.718, 4385.128, 450, 0, []
1627719649.1558, 99, 0, 4437.436, 4196.41, 4141.538, 4167.692, 4431.795, 16193, 0, []
1627719649.1637, 100, 0, 4468.718, 4202.051, 4150.769, 4169.744, 4461.026, 450, 0, []
1627719649.1717, 101, 0, 4487.179, 4214.872, 4160, 4180, 4484.615, 450, 0, []
1627719649.1796, 102, 0, 4472.308, 4220.513, 4162.051, 4184.103, 4482.051, 450, 0, []
1627719649.1876, 103, 0, 4448.205, 4215.897, 4165.641, 4179.487, 4455.385, 16193, 0, []
1627719649.1954, 104, 0, 4430.769, 4209.231, 4158.974, 4181.026, 4427.692, 450, 0, []
1627719649.2032, 105, 0, 4402.564, 4204.103, 4164.615, 4177.436, 4394.359, 450, 0, []
1627719649.2111, 106, 0, 4373.333, 4201.026, 4166.154, 4166.667, 4361.538, 450, 0, []
1627719649.2189, 107, 0, 4352.308, 4202.564, 4162.564, 4168.718, 4341.026, 16193, 0, []
1627719649.2268, 108, 0, 4327.692, 4198.974, 4165.641, 4174.872, 4325.128, 450, 0, []
1627719649.2345, 109, 0, 4310.769, 4195.385, 4155.897, 4168.718, 4304.615, 450, 0, []
1627719649.2424, 110, 0, 4308.205, 4210.769, 4165.641, 4173.846, 4293.846, 450, 0, []
1627719649.2502, 111, 0, 4298.462, 4221.026, 4176.41, 4186.667, 4288.718, 16193, 0, []
1627719649.2581, 112, 0, 4282.051, 4205.128, 4165.128, 4182.564, 4275.897, 450, 0, []
1627719649.2659, 113, 0, 4272.821, 4193.846, 4167.179, 4178.462, 4258.462, 450, 0, []
1627719649.2738, 114, 0, 4268.205, 4211.795, 4169.231, 4184.615, 4250.769, 450, 0, []
1627719649.2817, 115, 0, 4260.513, 4225.641, 4169.231, 4187.179, 4246.667, 16193, 0, []
1627719649.2897, 116, 0, 4245.641, 4209.231, 4163.077, 4182.564, 4230.256, 450, 0, []
1627719649.2976, 117, 0, 4237.436, 4196.41, 4151.795, 4182.051, 4217.436, 450, 0, []
1627719649.3056, 118, 0, 4233.846, 4205.641, 4158.974, 4189.231, 4215.897, 450, 0, []
1627719649.3134, 119, 0, 4218.974, 4203.59, 4159.487, 4184.103, 4203.59, 16193, 0, []
1627719649.3214, 120, 0, 4196.41, 4185.128, 4149.231, 4160, 4176.923, 450, 0, []
1627719649.3293, 121, 0, 4182.051, 4189.231, 4138.462, 4146.667, 4161.538, 450, 0, []
1627719649.3373, 122, 0, 4182.564, 4200.513, 4139.487, 4161.538, 4165.641, 450, 0, []
1627719649.3452, 123, 0, 4196.41, 4194.359, 4160.513, 4178.462, 4172.821, 16193, 0, []
1627719649.3531, 124, 0, 4200.513, 4188.205, 4151.795, 4176.923, 4168.205, 450, 0, []
1627719649.361, 125, 0, 4180.513, 4183.59, 4133.846, 4169.744, 4152.308, 450, 0, []
1627719649.3688, 126, 0, 4164.103, 4176.923, 4144.103, 4165.641, 4149.231, 450, 0, []
1627719649.3767, 127, 0, 4176.923, 4185.641, 4156.41, 4168.205, 4160, 16193, 0, []
1627719649.3845, 128, 0, 4195.385, 4204.103, 4162.564, 4177.949, 4169.231, 450, 0, []
1627719649.3923, 0, 0, 4202.051, 4208.205, 4158.974, 4184.103, 4176.923, 450, 0, []
1627719649.4001, 1, 0, 4204.103, 4208.205, 4162.564, 4186.667, 4183.077, 450, 0, []
1627719649.408, 2, 0, 4198.462, 4201.026, 4166.154, 4186.154, 4172.308, 16178, 0, []
1627719649.4158, 3, 0, 4186.154, 4189.231, 4145.641, 4176.923, 4156.41, 450, 0, []
1627719649.4237, 4, 0, 4184.103, 4192.308, 4136.923, 4169.231, 4158.974, 16171, 0, []
1627719649.4314, 5, 0, 4185.128, 4195.385, 4135.897, 4168.205, 4165.641, 450, 0, []
1627719649.4393, 6, 0, 4177.436, 4188.718, 4141.538, 4168.205, 4158.462, 16057, 0, []
1627719649.4471, 7, 0, 4172.821, 4182.564, 4152.308, 4166.667, 4150.769, 450, 0, []
1627719649.4551, 8, 0, 4176.923, 4183.077, 4145.641, 4169.744, 4154.872, 450, 0, []
1627719649.463, 9, 0, 4173.846, 4183.077, 4146.667, 4170.256, 4156.41, 16154, 0, []
1627719649.4709, 10, 0, 4167.179, 4182.051, 4151.282, 4165.641, 4152.821, 450, 0, []
1627719649.4788, 11, 0, 4172.308, 4192.308, 4158.462, 4166.667, 4153.333, 16193, 0, []
1627719649.4868, 12, 0, 4175.897, 4201.538, 4168.718, 4174.359, 4156.41, 450, 0, []
1627719649.4947, 13, 0, 4172.821, 4192.308, 4153.333, 4171.282, 4158.462, 450, 0, []
1627719649.5027, 14, 0, 4163.59, 4179.487, 4142.051, 4157.949, 4146.667, 450, 0, []
1627719649.5105, 15, 0, 4147.179, 4187.179, 4146.154, 4152.821, 4129.231, 16193, 0, []
1627719649.5183, 16, 0, 4143.077, 4188.205, 4150.769, 4155.385, 4127.692, 0, 0, []
1627719649.5262, 17, 0, 4150.769, 4171.282, 4156.41, 4154.359, 4128.205, 0, 0, []
1627719649.534, 18, 0, 4152.308, 4173.846, 4148.205, 4148.718, 4120, 0, 0, []
1627719649.5419, 19, 0, 4154.872, 4191.795, 4149.744, 4149.231, 4125.641, 0, 0, []
1627719649.5496, 20, 0, 4169.231, 4190.256, 4162.051, 4163.077, 4147.179, 0, 0, []
1627719649.5575, 21, 0, 4178.462, 4178.462, 4165.128, 4173.846, 4154.872, 0, 0, []
1627719649.5653, 22, 0, 4175.385, 4184.615, 4173.333, 4173.846, 4150.256, 0, 0, []
1627719649.5732, 23, 0, 4171.282, 4192.308, 4166.154, 4167.692, 4145.641, 0, 0, []
1627719649.581, 24, 0, 4165.128, 4186.154, 4161.026, 4164.615, 4137.949, 0, 0, []
1627719649.5889, 25, 0, 4167.179, 4184.103, 4168.205, 4169.744, 4136.923, 0, 0, []
1627719649.5968, 26, 0, 4172.308, 4178.974, 4164.103, 4165.641, 4142.051, 0, 0, []
1627719649.6048, 27, 0, 4163.59, 4171.795, 4165.641, 4151.795, 4137.436, 0, 0, []
1627719649.6127, 28, 0, 4154.359, 4180, 4164.615, 4155.897, 4132.821, 0, 0, []
1627719649.6207, 29, 0, 4162.051, 4193.333, 4170.769, 4170.256, 4142.564, 0, 0, []
1627719649.6285, 30, 0, 4171.282, 4189.744, 4178.462, 4170.769, 4151.795, 0, 0, []
1627719649.6365, 31, 0, 4171.282, 4179.487, 4172.821, 4166.154, 4153.846, 0, 0, []
1627719649.6444, 32, 0, 4168.205, 4182.051, 4173.333, 4169.231, 4151.282, 0, 0, []
1627719649.6524, 33, 0, 4160.513, 4189.231, 4158.974, 4170.256, 4141.026, 0, 0, []
1627719649.6603, 34, 0, 4155.897, 4187.692, 4143.59, 4164.615, 4140, 0, 0, []
1627719649.6681, 35, 0, 4164.615, 4191.795, 4147.692, 4163.59, 4151.282, 0, 0, []
1627719649.6759, 36, 0, 4177.436, 4200.513, 4155.897, 4170.769, 4156.41, 0, 0, []
1627719649.6837, 37, 0, 4175.385, 4188.718, 4164.615, 4170.256, 4152.821, 0, 0, []
1627719649.6916, 38, 0, 4165.641, 4172.821, 4162.051, 4162.564, 4149.744, 0, 0, []
1627719649.6994, 39, 0, 4165.641, 4186.667, 4161.538, 4164.103, 4148.205, 0, 0, []
1627719649.7073, 40, 0, 4168.718, 4192.821, 4166.154, 4169.231, 4156.41, 0, 0, []
1627719649.715, 41, 0, 4169.744, 4181.026, 4160, 4177.949, 4172.821, 0, 0, []
1627719649.723, 42, 0, 4173.333, 4192.308, 4166.667, 4187.179, 4171.282, 0, 0, []
1627719649.7309, 43, 0, 4175.897, 4210.769, 4163.077, 4181.026, 4156.923, 0, 0, []
1627719649.7388, 44, 0, 4169.744, 4204.103, 4146.154, 4168.205, 4149.744, 0, 0, []
1627719649.7466, 45, 0, 4171.282, 4194.872, 4147.692, 4167.179, 4152.821, 0, 0, []
1627719649.7545, 46, 0, 4185.641, 4197.949, 4152.308, 4173.333, 4157.436, 0, 0, []
1627719649.7624, 47, 0, 4188.718, 4202.564, 4164.615, 4173.846, 4155.385, 0, 0, []
1627719649.7704, 48, 0, 4182.051, 4201.538, 4172.308, 4170.256, 4153.846, 0, 0, []
1627719649.7783, 49, 0, 4183.59, 4198.462, 4168.205, 4173.846, 4162.051, 0, 0, []
1627719649.7863, 50, 0, 4187.179, 4203.077, 4171.282, 4186.154, 4170.256, 0, 0, []
1627719649.7941, 51, 0, 4186.154, 4201.538, 4161.026, 4190.256, 4169.231, 0, 0, []
1627719649.8021, 52, 0, 4185.128, 4186.154, 4153.333, 4180, 4165.641, 0, 0, []
1627719649.81, 53, 0, 4184.615, 4183.59, 4153.333, 4173.846, 4168.205, 0, 0, []
1627719649.8178, 54, 0, 4178.974, 4196.41, 4145.641, 4173.333, 4169.744, 0, 0, []
1627719649.8257, 55, 0, 4167.692, 4199.487, 4147.179, 4170.769, 4165.641, 0, 0, []
1627719649.8334, 56, 0, 4165.128, 4199.487, 4152.308, 4175.897, 4166.667, 0, 0, []
1627719649.8413, 57, 0, 4177.949, 4200.513, 4162.051, 4185.128, 4168.205, 0, 0, []
1627719649.8491, 58, 0, 4180, 4190.769, 4156.923, 4181.026, 4156.923, 0, 0, []
1627719649.857, 59, 0, 4169.231, 4182.564, 4140.513, 4169.744, 4149.744, 0, 0, []
1627719649.8648, 60, 0, 4174.872, 4191.282, 4154.359, 4167.179, 4157.949, 0, 0, []
1627719649.8726, 61, 0, 4186.667, 4202.051, 4154.872, 4172.308, 4161.538, 0, 0, []
1627719649.8804, 62, 0, 4188.205, 4202.564, 4145.641, 4178.974, 4160, 0, 0, []
1627719649.8883, 63, 0, 4193.846, 4199.487, 4158.974, 4184.615, 4166.667, 0, 0, []
1627719649.8961, 64, 0, 4203.077, 4204.615, 4170.256, 4186.154, 4177.436, 450, 0, []
1627719649.9041, 65, 0, 4202.564, 4215.897, 4178.462, 4185.128, 4183.077, 450, 0, []
1627719649.9119, 66, 0, 4197.949, 4218.462, 4178.462, 4175.385, 4177.436, 16178, 0, []
1627719649.9199, 67, 0, 4199.487, 4213.333, 4177.436, 4171.282, 4168.718, 450, 0, []
1627719649.9278, 68, 0, 4201.538, 4214.359, 4175.385, 4182.051, 4171.795, 16171, 0, []
1627719649.9358, 69, 0, 4203.077, 4217.436, 4165.128, 4189.231, 4176.923, 450, 0, []
1627719649.9437, 70, 0, 4206.154, 4218.974, 4172.821, 4189.744, 4173.333, 324, 0, []
1627719649.9516, 71, 0, 4201.538, 4214.359, 4171.795, 4190.769, 4165.641, 450, 0, []
1627719649.9595, 72, 0, 4190.256, 4201.538, 4162.564, 4185.128, 4157.949, 450, 0, []
1627719649.9674, 73, 0, 4181.538, 4189.744, 4160.513, 4171.795, 4151.282, 16104, 0, []
1627719649.9753, 74, 0, 4183.077, 4188.205, 4153.333, 4168.718, 4154.359, 450, 0, []
1627719649.9831, 75, 0, 4195.897, 4198.974, 4166.667, 4183.59, 4171.795, 16193, 0, []
1627719649.9909, 76, 0, 4202.051, 4216.41, 4171.795, 4191.795, 4180.513, 450, 0, []
1627719649.9987, 77, 0, 4188.205, 4217.436, 4157.949, 4179.487, 4162.564, 450, 0, []
1627719650.0066, 78, 0, 4181.538, 4203.077, 4162.564, 4176.923, 4147.179, 450, 0, []
1627719650.0144, 79, 0, 4195.385, 4200.513, 4168.205, 4188.205, 4157.949, 16193, 0, []
1627719650.0223, 80, 0, 4203.59, 4206.154, 4174.872, 4192.821, 4172.821, 450, 0, []
1627719650.03, 81, 0, 4203.077, 4202.051, 4172.821, 4191.795, 4172.308, 450, 0, []
1627719650.0379, 82, 0, 4201.538, 4197.949, 4155.385, 4187.692, 4160, 450, 0, []
1627719650.0457, 83, 0, 4189.744, 4204.103, 4151.282, 4181.538, 4150.256, 16193, 0, []
1627719650.0537, 84, 0, 4181.026, 4200, 4152.821, 4182.564, 4151.282, 450, 0, []
1627719650.0616, 85, 0, 4185.128, 4187.692, 4155.385, 4184.103, 4154.359, 450, 0, []
1627719650.0695, 86, 0, 4184.103, 4183.59, 4149.744, 4174.872, 4154.872, 450, 0, []
1627719650.0774, 87, 0, 4187.179, 4185.128, 4143.59, 4168.718, 4154.359, 16193, 0, []
1627719650.0854, 88, 0, 4195.385, 4188.205, 4154.872, 4166.667, 4151.795, 450, 0, []
1627719650.0933, 89, 0, 4191.282, 4190.769, 4154.872, 4164.615, 4149.744, 450, 0, []
1627719650.1013, 90, 0, 4191.795, 4198.974, 4158.462, 4168.205, 4155.385, 450, 0, []
1627719650.1091, 91, 0, 4199.487, 4204.103, 4163.59, 4173.333, 4154.872, 16193, 0, []
1627719650.1171, 92, 0, 4192.821, 4196.923, 4153.846, 4171.282, 4141.026, 450, 0, []
1627719650.125, 93, 0, 4181.026, 4191.282, 4155.385, 4167.179, 4132.821, 450, 0, []
1627719650.1328, 94, 0, 4182.051, 4191.795, 4158.974, 4168.205, 4137.949, 450, 0, []
1627719650.1407, 95, 0, 4183.59, 4196.41, 4164.103, 4172.308, 4143.077, 16193, 0, []
1627719650.1484, 96, 0, 4177.436, 4201.538, 4168.205, 4172.308, 4141.538, 450, 0, []
1627719650.1563, 97, 0, 4171.282, 4198.462, 4150.256, 4169.231, 4138.462, 450, 0, []
1627719650.1641, 98, 0, 4166.154, 4190.256, 4138.462, 4167.692, 4135.897, 450, 0, []
1627719650.172, 99, 0, 4168.205, 4196.41, 4136.41, 4168.205, 4141.026, 16193, 0, []
1627719650.1798, 100, 0, 4168.718, 4201.538, 4136.923, 4165.128, 4142.051, 450, 0, []
1627719650.1876, 101, 0, 4165.128, 4186.154, 4142.564, 4167.179, 4136.41, 450, 0, []
1627719650.1954, 102, 0, 4170.769, 4179.487, 4146.154, 4175.385, 4143.59, 450, 0, []
1627719650.2033, 103, 0, 4171.795, 4186.154, 4157.949, 4173.846, 4153.846, 16193, 0, []
1627719650.2111, 104, 0, 4166.667, 4186.154, 4157.949, 4172.308, 4153.333, 450, 0, []
1627719650.2191, 105, 0, 4171.795, 4187.179, 4155.897, 4180.513, 4152.821, 450, 0, []
1627719650.2269, 106, 0, 4183.077, 4198.974, 4165.641, 4183.077, 4156.923, 450, 0, []
1627719650.2349, 107, 0, 4194.872, 4213.846, 4164.615, 4182.564, 4166.154, 16193, 0, []
1627719650.2428, 108, 0, 4202.564, 4216.41, 4173.846, 4194.359, 4180, 450, 0, []
1627719650.2508, 109, 0, 4200.513, 4216.41, 4172.308, 4201.026, 4180, 450, 0, []
1627719650.2587, 110, 0, 4195.897, 4220.513, 4157.436, 4189.231, 4169.231, 450, 0, []
1627719650.2666, 111, 0, 4191.795, 4205.128, 4154.872, 4181.538, 4164.615, 16193, 0, []
1627719650.2745, 112, 0, 4183.077, 4188.205, 4147.179, 4180, 4164.103, 450, 0, []
1627719650.2825, 113, 0, 4184.103, 4204.103, 4155.897, 4176.41, 4168.205, 450, 0, []
1627719650.2904, 114, 0, 4188.718, 4212.821, 4158.462, 4169.744, 4168.718, 450, 0, []
1627719650.2982, 115, 0, 4175.897, 4189.231, 4143.59, 4164.615, 4155.385, 16193, 0, []
1627719650.306, 116, 0, 4165.128, 4191.795, 4150.256, 4167.179, 4149.231, 450, 0, []
1627719650.3138, 117, 0, 4173.333, 4216.41, 4153.333, 4175.897, 4153.333, 450, 0, []
1627719650.3217, 118, 0, 4183.59, 4210.769, 4154.359, 4184.103, 4153.333, 450, 0, []
1627719650.3295, 119, 0, 4183.59, 4196.41, 4163.077, 4187.179, 4158.462, 16193, 0, []
1627719650.3374, 120, 0, 4185.641, 4196.923, 4170.256, 4187.179, 4169.744, 450, 0, []
1627719650.3451, 121, 0, 4192.821, 4199.487, 4173.333, 4188.205, 4172.308, 450, 0, []
1627719650.353, 122, 0, 4196.41, 4208.718, 4162.564, 4185.128, 4169.231, 450, 0, []
1627719650.3608, 123, 0, 4190.769, 4213.846, 4163.077, 4176.41, 4166.154, 16193, 0, []
1627719650.3688, 124, 0, 4184.103, 4202.051, 4165.128, 4174.359, 4165.128, 450, 0, []
1627719650.3767, 125, 0, 4190.256, 4205.128, 4157.436, 4180.513, 4166.667, 450, 0, []
1627719650.3846, 126, 0, 4197.436, 4220.513, 4162.564, 4178.974, 4164.615, 450, 0, []
1627719650.3925, 127, 0, 4194.872, 4211.282, 4157.949, 4168.718, 4163.59, 16193, 0, []
1627719650.4005, 128, 0, 4193.333, 4196.923, 4157.436, 4168.205, 4168.718, 450, 0, []
1627719650.4084, 0, 0, 4198.462, 4200.513, 4172.308, 4177.436, 4171.795, 450, 0, []
1627719650.4164, 1, 0, 4202.564, 4201.026, 4175.897, 4183.077, 4175.385, 450, 0, []
1627719650.4243, 2, 0, 4204.103, 4202.051, 4181.026, 4185.641, 4186.667, 16178, 0, []
1627719650.4322, 3, 0, 4197.949, 4206.667, 4173.333, 4184.103, 4185.641, 450, 0, []
1627719650.4401, 4, 0, 4186.667, 4204.103, 4162.051, 4176.923, 4174.872, 16171, 0, []
1627719650.4479, 5, 0, 4194.359, 4203.59, 4165.128, 4168.718, 4175.897, 450, 0, []
1627719650.4558, 6, 0, 4200.513, 4193.846, 4156.41, 4164.103, 4176.923, 324, 0, []
1627719650.4636, 7, 0, 4186.667, 4182.564, 4149.231, 4166.667, 4169.744, 450, 0, []
1627719650.4714, 8, 0, 4180, 4189.744, 4141.026, 4164.615, 4162.564, 450, 0, []
1627719650.4792, 9, 0, 4185.641, 4190.769, 4142.564, 4154.872, 4154.359, 16134, 0, []
1627719650.4871, 10, 0, 4180, 4188.205, 4165.128, 4154.359, 4150.256, 450, 0, []
1627719650.4949, 11, 0, 4181.026, 4207.179, 4172.308, 4169.231, 4165.128, 16193, 0, []
1627719650.5028, 12, 0, 4190.256, 4211.795, 4177.436, 4178.974, 4177.949, 450, 0, []
1627719650.5105, 13, 0, 4182.564, 4195.385, 4177.949, 4173.846, 4167.692, 450, 0, []
1627719650.5185, 14, 0, 4192.308, 4204.103, 4173.846, 4166.667, 4174.359, 450, 0, []
1627719650.5264, 15, 0, 4235.897, 4220.513, 4180.513, 4166.667, 4208.205, 16193, 0, []
1627719650.5344, 16, 0, 4273.333, 4221.538, 4175.897, 4173.333, 4236.923, 0, 0, []
1627719650.5423, 17, 0, 4273.333, 4217.949, 4169.744, 4171.282, 4238.974, 0, 0, []
1627719650.5502, 18, 0, 4255.897, 4210.769, 4160.513, 4153.846, 4224.615, 0, 0, []
1627719650.5581, 19, 0, 4250.256, 4221.026, 4155.897, 4145.128, 4217.436, 0, 0, []
1627719650.5661, 20, 0, 4246.667, 4237.436, 4162.564, 4153.846, 4216.923, 0, 0, []
1627719650.574, 21, 0, 4237.949, 4218.974, 4152.821, 4161.538, 4220.513, 0, 0, []
1627719650.582, 22, 0, 4231.795, 4192.308, 4147.179, 4159.487, 4213.333, 0, 0, []
1627719650.5898, 23, 0, 4228.718, 4203.59, 4149.744, 4157.949, 4203.077, 0, 0, []
1627719650.5976, 24, 0, 4231.282, 4232.821, 4158.974, 4167.179, 4209.231, 0, 0, []
1627719650.6055, 25, 0, 4245.128, 4242.051, 4179.487, 4185.128, 4222.564, 0, 0, []
1627719650.6133, 26, 0, 4248.205, 4224.103, 4172.308, 4187.692, 4221.538, 0, 0, []
1627719650.6212, 27, 0, 4233.846, 4210.769, 4158.462, 4171.282, 4211.795, 0, 0, []
1627719650.6289, 28, 0, 4228.205, 4220, 4160.513, 4164.615, 4211.795, 0, 0, []
1627719650.6368, 29, 0, 4227.692, 4215.385, 4157.436, 4170.769, 4215.385, 0, 0, []
1627719650.6446, 30, 0, 4218.974, 4198.462, 4157.949, 4170.256, 4211.282, 0, 0, []
1627719650.6525, 31, 0, 4212.821, 4203.59, 4151.795, 4165.641, 4199.487, 0, 0, []
1627719650.6603, 32, 0, 4217.436, 4218.974, 4149.744, 4167.692, 4199.487, 0, 0, []
1627719650.6682, 33, 0, 4222.564, 4213.333, 4160.513, 4172.308, 4209.231, 0, 0, []
1627719650.6761, 34, 0, 4223.077, 4200.513, 4154.872, 4173.333, 4204.103, 0, 0, []
1627719650.6841, 35, 0, 4224.615, 4205.128, 4153.333, 4176.923, 4201.026, 0, 0, []
1627719650.692, 36, 0, 4230.769, 4223.077, 4156.923, 4183.077, 4215.897, 0, 0, []
1627719650.7, 37, 0, 4233.846, 4217.436, 4158.462, 4187.179, 4223.077, 0, 0, []
1627719650.7078, 38, 0, 4230.256, 4195.897, 4153.333, 4185.128, 4213.846, 0, 0, []
1627719650.7158, 39, 0, 4231.795, 4207.179, 4145.641, 4180.513, 4214.872, 0, 0, []
1627719650.7237, 40, 0, 4228.205, 4221.026, 4161.538, 4175.385, 4220.513, 0, 0, []
1627719650.7317, 41, 0, 4216.41, 4202.564, 4158.462, 4168.205, 4213.333, 0, 0, []
1627719650.7396, 42, 0, 4221.538, 4202.564, 4149.744, 4166.154, 4208.718, 0, 0, []
1627719650.7475, 43, 0, 4235.385, 4222.051, 4168.718, 4176.923, 4216.923, 0, 0, []
1627719650.7554, 44, 0, 4235.897, 4209.744, 4165.128, 4182.051, 4221.538, 0, 0, []
1627719650.7632, 45, 0, 4230.256, 4197.436, 4147.179, 4167.692, 4214.872, 0, 0, []
1627719650.7711, 46, 0, 4232.821, 4221.026, 4148.205, 4160.513, 4211.795, 0, 0, []
1627719650.7789, 47, 0, 4241.026, 4232.821, 4160, 4173.333, 4223.59, 0, 0, []
1627719650.7867, 48, 0, 4240, 4216.41, 4162.051, 4179.487, 4225.641, 0, 0, []
1627719650.7945, 49, 0, 4218.974, 4202.564, 4152.821, 4168.205, 4201.538, 0, 0, []
1627719650.8024, 50, 0, 4206.154, 4203.59, 4162.564, 4165.128, 4192.308, 0, 0, []
1627719650.8102, 51, 0, 4210.769, 4219.487, 4166.154, 4180.513, 4210.769, 0, 0, []
1627719650.8181, 52, 0, 4189.231, 4228.718, 4160.513, 4196.923, 4206.154, 0, 0, []
1627719650.8258, 53, 0, 4147.692, 4213.333, 4167.692, 4203.077, 4181.026, 0, 0, []
1627719650.8338, 54, 0, 4120, 4195.897, 4154.359, 4205.641, 4170.769, 0, 0, []
1627719650.8417, 55, 0, 4086.154, 4197.436, 4145.128, 4203.077, 4148.718, 0, 0, []
1627719650.8497, 56, 0, 4059.487, 4201.538, 4153.333, 4200.513, 4123.59, 0, 0, []
1627719650.8576, 57, 0, 4070.769, 4202.051, 4154.359, 4208.205, 4129.744, 0, 0, []
1627719650.8655, 58, 0, 4072.308, 4198.462, 4154.359, 4209.231, 4130.769, 0, 0, []
1627719650.8734, 59, 0, 4053.846, 4189.744, 4151.282, 4201.538, 4115.897, 0, 0, []
1627719650.8814, 60, 0, 4058.462, 4182.051, 4163.077, 4201.026, 4114.872, 0, 0, []
1627719650.8893, 61, 0, 4072.821, 4189.744, 4171.795, 4205.128, 4122.564, 0, 0, []
1627719650.8973, 62, 0, 4075.897, 4203.59, 4154.872, 4203.59, 4125.128, 0, 0, []
1627719650.9051, 63, 0, 4074.872, 4197.949, 4156.923, 4198.974, 4124.103, 0, 0, []
1627719650.9131, 64, 0, 4078.462, 4184.615, 4177.949, 4202.051, 4127.179, 450, 0, []
1627719650.921, 65, 0, 4082.051, 4186.667, 4191.282, 4211.282, 4135.385, 450, 0, []
1627719650.9288, 66, 0, 4082.564, 4191.282, 4180, 4208.718, 4138.974, 16178, 0, []
1627719650.9367, 67, 0, 4085.128, 4184.103, 4161.026, 4194.359, 4135.385, 450, 0, []
1627719650.9444, 68, 0, 4090.769, 4183.59, 4172.821, 4193.333, 4133.846, 16171, 0, []
1627719650.9523, 69, 0, 4098.974, 4194.872, 4177.436, 4201.026, 4141.538, 450, 0, []
1627719650.9601, 70, 0, 4108.718, 4201.026, 4168.718, 4203.59, 4154.359, 323, 0, []
1627719650.968, 71, 0, 4112.308, 4200.513, 4168.718, 4202.564, 4153.846, 450, 0, []
1627719650.9758, 72, 0, 4106.667, 4194.872, 4160, 4195.897, 4141.538, 450, 0, []
1627719650.9837, 73, 0, 4110.256, 4187.692, 4166.154, 4197.436, 4145.128, 16147, 0, []
1627719650.9916, 74, 0, 4120.513, 4190.256, 4173.333, 4208.205, 4158.974, 450, 0, []
1627719650.9996, 75, 0, 4123.077, 4198.974, 4174.359, 4214.872, 4164.615, 16193, 0, []
1627719651.0075, 76, 0, 4124.103, 4206.154, 4182.564, 4216.923, 4170.769, 450, 0, []
1627719651.0155, 77, 0, 4121.026, 4204.615, 4176.41, 4215.385, 4167.179, 450, 0, []
1627719651.0233, 78, 0, 4115.897, 4200.513, 4171.795, 4210.769, 4153.333, 450, 0, []
1627719651.0313, 79, 0, 4120.513, 4207.692, 4169.744, 4215.385, 4157.436, 16193, 0, []
1627719651.0392, 80, 0, 4120.513, 4212.308, 4170.256, 4221.026, 4161.026, 450, 0, []
1627719651.0472, 81, 0, 4112.308, 4202.564, 4167.692, 4205.128, 4140.513, 450, 0, []
1627719651.0551, 82, 0, 4138.462, 4203.077, 4151.282, 4187.179, 4139.487, 450, 0, []
1627719651.0629, 83, 0, 4190.769, 4228.718, 4158.462, 4183.077, 4163.59, 16193, 0, []
1627719651.0708, 84, 0, 4220, 4244.103, 4162.051, 4169.231, 4165.128, 450, 0, []
1627719651.0786, 85, 0, 4233.333, 4235.897, 4147.179, 4146.667, 4147.179, 450, 0, []
1627719651.0865, 86, 0, 4253.846, 4236.41, 4147.179, 4137.436, 4137.436, 450, 0, []
1627719651.0943, 87, 0, 4264.615, 4243.077, 4142.051, 4129.231, 4125.641, 16193, 0, []
1627719651.1021, 88, 0, 4268.718, 4251.795, 4145.128, 4122.564, 4115.897, 450, 0, []
1627719651.1099, 89, 0, 4271.282, 4259.487, 4158.974, 4130.769, 4111.282, 450, 0, []
1627719651.1178, 90, 0, 4253.846, 4252.308, 4156.41, 4127.692, 4090.256, 450, 0, []
1627719651.1256, 91, 0, 4231.795, 4235.385, 4149.744, 4116.923, 4067.692, 16193, 0, []
1627719651.1335, 92, 0, 4226.667, 4227.692, 4134.359, 4117.949, 4064.615, 450, 0, []
1627719651.1412, 93, 0, 4220, 4232.308, 4133.333, 4113.846, 4061.026, 450, 0, []
1627719651.1492, 94, 0, 4212.821, 4232.821, 4151.795, 4105.128, 4053.333, 450, 0, []
1627719651.1571, 95, 0, 4216.923, 4228.718, 4155.897, 4108.718, 4064.103, 16193, 0, []
1627719651.1651, 96, 0, 4218.974, 4225.128, 4158.462, 4112.308, 4072.821, 450, 0, []
1627719651.173, 97, 0, 4216.41, 4228.718, 4157.949, 4109.231, 4064.615, 450, 0, []
1627719651.181, 98, 0, 4218.462, 4234.359, 4159.487, 4111.282, 4059.487, 450, 0, []
1627719651.1888, 99, 0, 4220, 4229.744, 4161.026, 4111.795, 4058.974, 16193, 0, []
1627719651.1968, 100, 0, 4216.41, 4223.077, 4153.846, 4109.744, 4053.846, 450, 0, []
1627719651.2047, 101, 0, 4206.154, 4211.795, 4149.231, 4108.718, 4045.641, 450, 0, []
1627719651.2127, 102, 0, 4197.436, 4199.487, 4126.667, 4107.692, 4040.513, 450, 0, []
1627719651.2206, 103, 0, 4202.051, 4210.769, 4118.974, 4115.897, 4046.154, 16193, 0, []
1627719651.2283, 104, 0, 4203.59, 4223.59, 4134.872, 4118.462, 4054.359, 450, 0, []
1627719651.2362, 105, 0, 4198.974, 4216.41, 4127.692, 4108.205, 4051.282, 450, 0, []
1627719651.244, 106, 0, 4197.949, 4213.333, 4126.154, 4106.667, 4043.59, 450, 0, []
1627719651.2519, 107, 0, 4193.333, 4212.308, 4131.795, 4117.436, 4047.692, 16193, 0, []
1627719651.2597, 108, 0, 4191.282, 4204.615, 4139.487, 4124.615, 4061.026, 450, 0, []
1627719651.2675, 109, 0, 4193.333, 4217.949, 4150.769, 4124.103, 4058.462, 450, 0, []
1627719651.2753, 110, 0, 4186.667, 4231.795, 4140.513, 4122.051, 4049.744, 450, 0, []
1627719651.2832, 111, 0, 4186.154, 4217.949, 4140, 4130.769, 4064.103, 16193, 0, []
1627719651.291, 112, 0, 4192.821, 4213.333, 4150.769, 4136.923, 4081.026, 450, 0, []
1627719651.299, 113, 0, 4188.718, 4217.949, 4149.231, 4123.077, 4072.308, 450, 0, []
1627719651.3068, 114, 0, 4181.026, 4200.513, 4144.615, 4112.308, 4067.179, 450, 0, []
1627719651.3148, 115, 0, 4185.641, 4192.821, 4142.051, 4121.538, 4081.538, 16193, 0, []
1627719651.3227, 116, 0, 4192.308, 4215.385, 4153.846, 4132.308, 4094.872, 450, 0, []
1627719651.3307, 117, 0, 4198.974, 4231.795, 4158.462, 4140, 4104.615, 450, 0, []
1627719651.3386, 118, 0, 4203.077, 4230.769, 4149.744, 4152.821, 4109.744, 450, 0, []
1627719651.3465, 119, 0, 4200.513, 4230.256, 4149.231, 4157.949, 4106.154, 16193, 0, []
1627719651.3544, 120, 0, 4197.949, 4222.564, 4140, 4149.231, 4103.59, 450, 0, []
1627719651.3624, 121, 0, 4198.462, 4214.359, 4141.538, 4140, 4106.154, 450, 0, []
1627719651.3703, 122, 0, 4199.487, 4225.641, 4149.231, 4137.436, 4105.128, 450, 0, []
1627719651.3781, 123, 0, 4198.462, 4231.282, 4150.256, 4137.949, 4105.128, 16193, 0, []
1627719651.3859, 124, 0, 4202.564, 4222.564, 4168.718, 4142.051, 4111.282, 450, 0, []
1627719651.3937, 125, 0, 4212.308, 4238.974, 4178.974, 4147.179, 4123.077, 450, 0, []
1627719651.4016, 126, 0, 4214.872, 4256.41, 4169.231, 4146.667, 4129.231, 450, 0, []
1627719651.4094, 127, 0, 4209.744, 4233.846, 4153.333, 4144.103, 4125.128, 16193, 0, []
1627719651.4173, 128, 0, 4210.256, 4217.436, 4138.974, 4139.487, 4123.077, 450, 0, []
1627719651.425, 0, 0, 4219.487, 4230.769, 4142.564, 4131.282, 4131.795, 450, 0, []
1627719651.4329, 1, 0, 4242.564, 4234.872, 4143.077, 4126.667, 4153.846, 450, 0, []
1627719651.4407, 2, 0, 4286.667, 4229.231, 4149.744, 4126.154, 4195.385, 16178, 0, []
1627719651.4487, 3, 0, 4345.641, 4239.487, 4163.59, 4130.256, 4247.179, 450, 0, []
1627719651.4566, 4, 0, 4407.692, 4250.769, 4162.051, 4136.923, 4289.231, 16171, 0, []
1627719651.4644, 5, 0, 4446.154, 4249.231, 4166.667, 4143.077, 4313.846, 450, 0, []
1627719651.4722, 6, 0, 4455.897, 4254.359, 4163.077, 4148.205, 4332.821, 324, 0, []
1627719651.4802, 7, 0, 4453.333, 4258.974, 4150.256, 4144.103, 4340, 450, 0, []
1627719651.4881, 8, 0, 4431.795, 4247.179, 4147.179, 4127.179, 4322.051, 450, 0, []
1627719651.4961, 9, 0, 4402.051, 4243.077, 4139.487, 4120.513, 4298.462, 16152, 0, []
1627719651.5039, 10, 0, 4395.385, 4247.179, 4142.564, 4130.769, 4289.744, 450, 0, []
1627719651.5119, 11, 0, 4385.641, 4232.821, 4141.026, 4132.308, 4275.385, 16193, 0, []
1627719651.5198, 12, 0, 4350.769, 4225.128, 4136.923, 4126.667, 4248.205, 450, 0, []
1627719651.5278, 13, 0, 4331.795, 4245.128, 4149.744, 4131.795, 4238.974, 450, 0, []
1627719651.5357, 14, 0, 4336.923, 4255.897, 4154.872, 4139.487, 4248.718, 450, 0, []
1627719651.5436, 15, 0, 4326.154, 4245.641, 4158.462, 4138.462, 4246.667, 16193, 0, []
1627719651.5515, 16, 0, 4303.077, 4246.667, 4157.949, 4134.359, 4230.256, 0, 0, []
1627719651.5593, 17, 0, 4288.718, 4249.231, 4158.974, 4135.385, 4218.974, 0, 0, []
1627719651.5672, 18, 0, 4282.564, 4235.385, 4168.718, 4140.513, 4215.897, 0, 0, []
1627719651.575, 19, 0, 4274.359, 4234.872, 4159.487, 4141.026, 4209.231, 0, 0, []
1627719651.5828, 20, 0, 4269.744, 4248.718, 4155.897, 4141.026, 4200, 0, 0, []
1627719651.5906, 21, 0, 4260, 4243.077, 4154.359, 4138.462, 4191.795, 0, 0, []
1627719651.5985, 22, 0, 4238.462, 4226.154, 4139.487, 4126.154, 4175.385, 0, 0, []
1627719651.6063, 23, 0, 4233.846, 4229.231, 4142.564, 4126.154, 4168.205, 0, 0, []
1627719651.6143, 24, 0, 4247.179, 4239.487, 4149.231, 4144.103, 4181.538, 0, 0, []
1627719651.6221, 25, 0, 4242.564, 4229.231, 4147.179, 4147.179, 4177.949, 0, 0, []
1627719651.6301, 26, 0, 4222.051, 4214.872, 4138.462, 4136.923, 4162.564, 0, 0, []
1627719651.638, 27, 0, 4216.923, 4218.974, 4134.872, 4136.923, 4164.103, 0, 0, []
1627719651.646, 28, 0, 4220.513, 4233.846, 4143.077, 4141.538, 4169.231, 0, 0, []
1627719651.6539, 29, 0, 4225.128, 4234.872, 4139.487, 4146.667, 4174.359, 0, 0, []
1627719651.6618, 30, 0, 4231.282, 4220.513, 4145.128, 4154.359, 4187.179, 0, 0, []
1627719651.6697, 31, 0, 4227.179, 4218.462, 4150.256, 4154.359, 4183.59, 0, 0, []
1627719651.6777, 32, 0, 4219.487, 4224.103, 4138.462, 4148.718, 4170.256, 0, 0, []
1627719651.6856, 33, 0, 4216.41, 4221.538, 4142.564, 4143.59, 4170.769, 0, 0, []
1627719651.6934, 34, 0, 4214.872, 4223.077, 4145.128, 4138.462, 4174.872, 0, 0, []
1627719651.7012, 35, 0, 4220.513, 4233.333, 4149.231, 4143.077, 4175.385, 0, 0, []
1627719651.709, 36, 0, 4229.744, 4234.359, 4156.923, 4152.821, 4173.846, 0, 0, []
1627719651.7169, 37, 0, 4233.846, 4230.256, 4146.154, 4153.333, 4172.308, 0, 0, []
1627719651.7247, 38, 0, 4231.282, 4234.359, 4151.282, 4153.846, 4172.821, 0, 0, []
1627719651.7326, 39, 0, 4224.615, 4234.359, 4160.513, 4152.821, 4171.795, 0, 0, []
1627719651.7403, 40, 0, 4217.436, 4236.923, 4159.487, 4148.205, 4174.872, 0, 0, []
1627719651.7482, 41, 0, 4222.051, 4245.128, 4158.462, 4154.872, 4186.154, 0, 0, []
1627719651.756, 42, 0, 4221.026, 4242.051, 4143.59, 4160.513, 4185.128, 0, 0, []
1627719651.764, 43, 0, 4203.077, 4224.615, 4138.462, 4148.718, 4167.179, 0, 0, []
1627719651.7719, 44, 0, 4202.051, 4213.846, 4144.103, 4143.59, 4163.59, 0, 0, []
1627719651.7798, 45, 0, 4222.564, 4222.564, 4156.41, 4153.333, 4174.872, 0, 0, []
1627719651.7877, 46, 0, 4229.744, 4232.308, 4171.795, 4160.513, 4183.59, 0, 0, []
1627719651.7957, 47, 0, 4228.718, 4232.308, 4166.154, 4165.128, 4192.821, 0, 0, []
1627719651.8036, 48, 0, 4230.769, 4230.769, 4159.487, 4165.641, 4198.462, 0, 0, []
1627719651.8116, 49, 0, 4227.692, 4234.359, 4148.205, 4153.846, 4195.897, 0, 0, []
1627719651.8194, 50, 0, 4235.385, 4232.308, 4142.051, 4148.718, 4207.692, 0, 0, []
1627719651.8274, 51, 0, 4260, 4230.769, 4152.308, 4153.846, 4232.821, 0, 0, []
1627719651.8353, 52, 0, 4281.026, 4233.846, 4148.205, 4148.205, 4253.333, 0, 0, []
1627719651.8433, 53, 0, 4315.897, 4229.744, 4158.974, 4149.744, 4292.821, 0, 0, []
1627719651.8512, 54, 0, 4382.564, 4232.308, 4173.333, 4169.744, 4364.615, 0, 0, []
1627719651.8589, 55, 0, 4447.179, 4243.59, 4172.308, 4186.667, 4430.256, 0, 0, []
1627719651.8668, 56, 0, 4472.821, 4229.744, 4171.282, 4189.744, 4456.41, 0, 0, []
1627719651.8746, 57, 0, 4479.487, 4208.718, 4157.436, 4185.128, 4453.846, 0, 0, []
1627719651.8825, 58, 0, 4485.641, 4223.59, 4160, 4185.128, 4452.821, 0, 0, []
1627719651.8903, 59, 0, 4475.385, 4237.949, 4168.205, 4186.154, 4452.821, 0, 0, []
1627719651.8981, 60, 0, 4446.154, 4224.103, 4158.974, 4173.333, 4431.282, 0, 0, []
1627719651.9059, 61, 0, 4424.615, 4225.641, 4168.718, 4168.205, 4392.821, 0, 0, []
1627719651.9139, 62, 0, 4412.308, 4233.333, 4174.872, 4181.538, 4365.128, 0, 0, []
1627719651.9218, 63, 0, 4391.282, 4231.282, 4170.769, 4184.615, 4342.564, 0, 0, []
1627719651.9298, 64, 0, 4369.231, 4244.615, 4170.256, 4177.436, 4326.667, 450, 0, []
1627719651.9377, 65, 0, 4354.359, 4250.769, 4167.179, 4180.513, 4321.538, 450, 0, []
1627719651.9455, 66, 0, 4335.385, 4236.923, 4174.872, 4188.718, 4313.333, 16178, 0, []
1627719651.9534, 67, 0, 4316.41, 4227.692, 4175.385, 4187.692, 4298.462, 450, 0, []
1627719651.9613, 68, 0, 4299.487, 4217.949, 4173.333, 4175.385, 4282.051, 16171, 0, []
1627719651.9692, 69, 0, 4289.744, 4223.077, 4172.821, 4168.718, 4273.333, 450, 0, []
1627719651.977, 70, 0, 4289.231, 4242.564, 4166.667, 4180.513, 4278.462, 324, 0, []
1627719651.9849, 71, 0, 4280.513, 4232.308, 4176.923, 4190.769, 4274.359, 450, 0, []
1627719651.9928, 72, 0, 4264.615, 4218.974, 4180, 4186.667, 4253.846, 450, 0, []
1627719652.0007, 73, 0, 4256.923, 4237.436, 4183.59, 4187.692, 4245.641, 16152, 0, []
1627719652.0085, 74, 0, 4251.282, 4245.128, 4194.359, 4190.256, 4244.615, 450, 0, []
1627719652.0164, 75, 0, 4242.564, 4234.872, 4188.718, 4185.641, 4234.359, 16193, 0, []
1627719652.0241, 76, 0, 4244.103, 4247.692, 4189.231, 4188.205, 4230.769, 450, 0, []
1627719652.032, 77, 0, 4245.128, 4255.897, 4186.154, 4195.897, 4233.846, 450, 0, []
1627719652.0398, 78, 0, 4239.487, 4238.462, 4181.026, 4198.974, 4232.308, 450, 0, []
1627719652.0477, 79, 0, 4234.359, 4236.41, 4179.487, 4196.923, 4232.308, 16193, 0, []
1627719652.0555, 80, 0, 4228.205, 4242.564, 4160.513, 4188.205, 4232.308, 450, 0, []
1627719652.0633, 81, 0, 4226.667, 4230.769, 4159.487, 4189.231, 4231.282, 450, 0, []
1627719652.0711, 82, 0, 4227.692, 4224.103, 4166.154, 4202.564, 4229.744, 450, 0, []
1627719652.0791, 83, 0, 4223.077, 4242.564, 4161.538, 4197.949, 4223.59, 16193, 0, []
1627719652.087, 84, 0, 4223.59, 4253.333, 4167.179, 4184.103, 4220.513, 450, 0, []
1627719652.095, 85, 0, 4229.231, 4245.128, 4173.333, 4191.282, 4229.744, 450, 0, []
1627719652.1028, 86, 0, 4227.179, 4241.538, 4182.051, 4205.641, 4237.436, 450, 0, []
1627719652.1108, 87, 0, 4214.872, 4240, 4179.487, 4201.026, 4228.205, 16193, 0, []
1627719652.1187, 88, 0, 4204.615, 4231.282, 4174.359, 4195.385, 4215.897, 450, 0, []
1627719652.1267, 89, 0, 4198.974, 4220, 4183.59, 4202.564, 4213.846, 450, 0, []
1627719652.1346, 90, 0, 4199.487, 4217.436, 4181.026, 4201.538, 4212.821, 450, 0, []
1627719652.1425, 91, 0, 4196.41, 4217.436, 4176.923, 4190.769, 4204.103, 16193, 0, []
1627719652.1504, 92, 0, 4188.205, 4215.897, 4173.846, 4193.846, 4198.974, 450, 0, []
1627719652.1582, 93, 0, 4187.692, 4217.436, 4166.667, 4203.077, 4204.615, 450, 0, []
1627719652.1661, 94, 0, 4186.154, 4221.538, 4169.744, 4197.436, 4198.974, 450, 0, []
1627719652.1739, 95, 0, 4176.923, 4221.538, 4166.154, 4191.795, 4186.667, 16193, 0, []
1627719652.1817, 96, 0, 4175.897, 4216.41, 4170.769, 4200.513, 4185.128, 450, 0, []
1627719652.1895, 97, 0, 4177.436, 4218.462, 4177.949, 4204.103, 4186.154, 450, 0, []
1627719652.1974, 98, 0, 4179.487, 4231.795, 4172.821, 4199.487, 4190.769, 450, 0, []
1627719652.2052, 99, 0, 4183.077, 4233.846, 4177.949, 4199.487, 4197.436, 16193, 0, []
1627719652.2131, 100, 0, 4178.462, 4215.385, 4169.231, 4198.462, 4194.872, 450, 0, []
1627719652.2208, 101, 0, 4167.692, 4209.744, 4159.487, 4197.436, 4185.128, 450, 0, []
1627719652.2287, 102, 0, 4167.179, 4222.051, 4167.179, 4199.487, 4185.641, 450, 0, []
1627719652.2365, 103, 0, 4170.256, 4221.026, 4159.487, 4199.487, 4187.179, 16193, 0, []
1627719652.2445, 104, 0, 4161.538, 4211.282, 4154.872, 4196.923, 4180.513, 450, 0, []
1627719652.2524, 105, 0, 4166.154, 4208.205, 4155.385, 4199.487, 4180.513, 450, 0, []
1627719652.2603, 106, 0, 4182.564, 4203.59, 4154.872, 4200.513, 4195.385, 450, 0, []
1627719652.2682, 107, 0, 4183.59, 4200.513, 4158.462, 4193.846, 4199.487, 16193, 0, []
1627719652.2762, 108, 0, 4178.974, 4200.513, 4149.744, 4181.026, 4191.795, 450, 0, []
1627719652.2841, 109, 0, 4199.487, 4204.615, 4149.231, 4172.821, 4209.744, 450, 0, []
1627719652.2921, 110, 0, 4241.538, 4223.077, 4158.974, 4177.949, 4254.359, 450, 0, []
1627719652.2999, 111, 0, 4284.615, 4234.359, 4173.333, 4193.333, 4294.359, 16193, 0, []
1627719652.3079, 112, 0, 4335.897, 4212.308, 4188.205, 4210.769, 4343.59, 450, 0, []
1627719652.3158, 113, 0, 4391.282, 4195.385, 4187.692, 4219.487, 4400.513, 450, 0, []
1627719652.3236, 114, 0, 4423.59, 4210.256, 4192.308, 4216.923, 4432.308, 450, 0, []
1627719652.3315, 115, 0, 4429.744, 4218.974, 4188.205, 4217.436, 4452.308, 16193, 0, []
1627719652.3392, 116, 0, 4418.974, 4211.282, 4181.026, 4222.564, 4469.744, 450, 0, []
1627719652.3471, 117, 0, 4397.436, 4209.231, 4194.872, 4226.154, 4466.667, 450, 0, []
1627719652.3549, 118, 0, 4376.923, 4216.41, 4197.436, 4229.231, 4461.538, 450, 0, []
1627719652.3628, 119, 0, 4366.154, 4227.692, 4202.564, 4241.538, 4465.641, 16193, 0, []
1627719652.3706, 120, 0, 4349.231, 4235.385, 4205.641, 4245.128, 4449.231, 450, 0, []
1627719652.3785, 121, 0, 4324.615, 4231.795, 4200, 4235.385, 4419.487, 450, 0, []
1627719652.3864, 122, 0, 4297.436, 4213.846, 4199.487, 4225.641, 4393.846, 450, 0, []
1627719652.3944, 123, 0, 4264.103, 4203.59, 4182.051, 4214.872, 4361.538, 16193, 0, []
1627719652.4023, 124, 0, 4245.128, 4218.462, 4178.974, 4215.385, 4338.462, 450, 0, []
1627719652.4103, 125, 0, 4242.564, 4236.923, 4191.282, 4230.769, 4337.949, 450, 0, []
1627719652.4181, 126, 0, 4236.923, 4231.795, 4192.308, 4237.436, 4330.769, 450, 0, []
1627719652.4261, 127, 0, 4227.692, 4224.103, 4203.077, 4231.282, 4311.282, 16193, 0, []
1627719652.434, 128, 0, 4229.744, 4228.718, 4213.333, 4234.872, 4306.667, 450, 0, []
1627719652.442, 0, 0, 4236.923, 4227.179, 4217.436, 4246.154, 4316.41, 450, 0, []
1627719652.4499, 1, 0, 4232.821, 4226.154, 4206.667, 4247.179, 4314.872, 450, 0, []
1627719652.4578, 2, 0, 4224.103, 4230.769, 4194.359, 4242.564, 4299.487, 16181, 0, []
1627719652.4657, 3, 0, 4214.359, 4232.308, 4203.59, 4238.462, 4279.487, 450, 0, []
1627719652.4735, 4, 0, 4197.949, 4231.282, 4194.872, 4227.179, 4260, 16171, 0, []
1627719652.4814, 5, 0, 4187.179, 4223.59, 4188.718, 4217.436, 4257.949, 450, 0, []
1627719652.4892, 6, 0, 4189.744, 4223.59, 4207.179, 4221.538, 4262.564, 325, 0, []
1627719652.497, 7, 0, 4187.179, 4231.282, 4203.59, 4221.538, 4253.846, 450, 0, []
1627719652.5048, 8, 0, 4177.949, 4228.718, 4193.333, 4217.436, 4246.667, 450, 0, []
1627719652.5127, 9, 0, 4171.282, 4221.026, 4185.128, 4214.872, 4240.513, 16152, 0, []
1627719652.5205, 10, 0, 4160.513, 4221.538, 4180, 4207.179, 4223.077, 450, 0, []
1627719652.5284, 11, 0, 4156.41, 4223.59, 4184.615, 4203.59, 4213.333, 16193, 0, []
1627719652.5361, 12, 0, 4166.667, 4216.41, 4186.667, 4212.821, 4220, 450, 0, []
1627719652.5441, 13, 0, 4169.231, 4216.41, 4190.256, 4217.949, 4219.487, 450, 0, []
1627719652.552, 14, 0, 4165.641, 4227.179, 4186.154, 4213.846, 4215.897, 450, 0, []
1627719652.56, 15, 0, 4170.256, 4234.359, 4191.795, 4214.359, 4216.41, 16193, 0, []
1627719652.5679, 16, 0, 4164.615, 4235.385, 4200.513, 4213.846, 4206.667, 0, 0, []
1627719652.5758, 17, 0, 4151.795, 4228.205, 4185.128, 4207.179, 4197.436, 0, 0, []
1627719652.5837, 18, 0, 4151.795, 4229.231, 4185.641, 4206.667, 4200, 0, 0, []
1627719652.5917, 19, 0, 4157.436, 4236.41, 4193.333, 4211.795, 4203.077, 0, 0, []
1627719652.5996, 20, 0, 4153.846, 4228.205, 4184.103, 4208.205, 4200, 0, 0, []
1627719652.6076, 21, 0, 4148.205, 4216.41, 4183.59, 4198.462, 4192.308, 0, 0, []
1627719652.6154, 22, 0, 4151.795, 4222.051, 4182.564, 4201.026, 4190.256, 0, 0, []
1627719652.6232, 23, 0, 4155.385, 4221.538, 4180.513, 4203.59, 4190.256, 0, 0, []
1627719652.6311, 24, 0, 4148.205, 4209.231, 4182.051, 4201.538, 4182.051, 0, 0, []
1627719652.6389, 25, 0, 4150.256, 4214.872, 4189.231, 4216.923, 4187.179, 0, 0, []
1627719652.6468, 26, 0, 4172.821, 4223.077, 4202.564, 4235.385, 4217.949, 0, 0, []
1627719652.6546, 27, 0, 4185.128, 4212.821, 4194.359, 4229.231, 4244.615, 0, 0, []
1627719652.6624, 28, 0, 4177.436, 4214.359, 4193.333, 4221.026, 4249.744, 0, 0, []
1627719652.6702, 29, 0, 4170.769, 4226.667, 4203.59, 4225.128, 4247.179, 0, 0, []
1627719652.6781, 30, 0, 4163.59, 4222.564, 4192.821, 4221.026, 4236.41, 0, 0, []
1627719652.6859, 31, 0, 4148.718, 4218.462, 4178.462, 4214.359, 4216.41, 0, 0, []
1627719652.6939, 32, 0, 4142.051, 4228.205, 4168.205, 4225.128, 4212.308, 0, 0, []
1627719652.7017, 33, 0, 4147.179, 4229.744, 4176.923, 4235.897, 4225.128, 0, 0, []
1627719652.7097, 34, 0, 4149.744, 4215.385, 4194.872, 4230.769, 4229.744, 0, 0, []
1627719652.7176, 35, 0, 4161.538, 4213.846, 4205.641, 4233.333, 4232.821, 0, 0, []
1627719652.7256, 36, 0, 4174.359, 4230.256, 4216.923, 4235.385, 4240, 0, 0, []
1627719652.7335, 37, 0, 4156.923, 4234.359, 4196.923, 4214.359, 4224.103, 0, 0, []
1627719652.7414, 38, 0, 4140.513, 4226.154, 4183.077, 4206.667, 4201.026, 0, 0, []
1627719652.7493, 39, 0, 4149.231, 4229.231, 4195.385, 4227.692, 4202.564, 0, 0, []
1627719652.7573, 40, 0, 4147.692, 4232.821, 4190.256, 4236.923, 4200.513, 0, 0, []
1627719652.7652, 41, 0, 4134.872, 4225.128, 4185.641, 4230.769, 4189.231, 0, 0, []
1627719652.773, 42, 0, 4147.179, 4228.205, 4187.179, 4229.744, 4202.051, 0, 0, []
1627719652.7808, 43, 0, 4166.667, 4240, 4190.769, 4224.103, 4223.077, 0, 0, []
1627719652.7886, 44, 0, 4166.154, 4231.282, 4195.897, 4217.436, 4226.667, 0, 0, []
1627719652.7965, 45, 0, 4167.179, 4232.308, 4197.949, 4227.179, 4229.231, 0, 0, []
1627719652.8043, 46, 0, 4168.718, 4250.769, 4213.846, 4237.949, 4230.769, 0, 0, []
1627719652.8122, 47, 0, 4154.872, 4242.051, 4209.231, 4233.846, 4215.897, 0, 0, []
1627719652.8199, 48, 0, 4135.897, 4217.949, 4187.179, 4228.205, 4198.974, 0, 0, []
1627719652.8278, 49, 0, 4137.949, 4223.59, 4188.205, 4230.256, 4197.949, 0, 0, []
1627719652.8356, 50, 0, 4151.282, 4244.103, 4188.718, 4234.359, 4207.692, 0, 0, []
1627719652.8435, 51, 0, 4153.333, 4242.051, 4191.282, 4234.359, 4215.897, 0, 0, []
1627719652.8513, 52, 0, 4152.821, 4230.256, 4191.282, 4225.128, 4217.949, 0, 0, []
1627719652.8592, 53, 0, 4155.897, 4233.333, 4187.179, 4215.897, 4211.282, 0, 0, []
1627719652.8671, 54, 0, 4153.333, 4235.897, 4192.821, 4214.872, 4201.026, 0, 0, []
1627719652.8751, 55, 0, 4149.744, 4233.333, 4191.795, 4217.436, 4203.59, 0, 0, []
1627719652.883, 56, 0, 4153.333, 4232.821, 4189.744, 4218.974, 4217.949, 0, 0, []
1627719652.891, 57, 0, 4158.974, 4227.179, 4180.513, 4218.462, 4221.538, 0, 0, []
1627719652.8988, 58, 0, 4150.769, 4214.359, 4169.744, 4206.154, 4204.615, 0, 0, []
1627719652.9068, 59, 0, 4141.026, 4216.41, 4181.538, 4193.846, 4191.282, 0, 0, []
1627719652.9147, 60, 0, 4158.462, 4238.462, 4193.846, 4208.718, 4208.718, 0, 0, []
1627719652.9225, 61, 0, 4182.564, 4247.692, 4200, 4233.333, 4228.205, 0, 0, []
1627719652.9304, 62, 0, 4174.359, 4234.872, 4197.949, 4235.897, 4219.487, 0, 0, []
