Timestamp, COUNTER, INTERPOLATED, AF3, T7, Pz, T8, AF4, RAW_CQ, MARKER_HARDWARE, MARKERS
1627749021.4911, 38, 0, 4232.308, 4202.051, 4162.051, 4182.051, 4209.744, 0, 0, []
1627749021.499, 39, 0, 4240, 4195.897, 4169.744, 4183.59, 4216.923, 0, 0, []
1627749021.5068, 40, 0, 4249.231, 4208.718, 4180.513, 4188.718, 4230.256, 0, 0, []
1627749021.5146, 41, 0, 4248.718, 4216.41, 4186.154, 4191.282, 4230.256, 0, 0, []
1627749021.5224, 42, 0, 4237.436, 4202.564, 4183.077, 4188.205, 4216.923, 0, 0, []
1627749021.5303, 43, 0, 4230.769, 4195.897, 4174.872, 4186.667, 4212.821, 0, 0, []
1627749021.5381, 44, 0, 4230.256, 4196.923, 4171.282, 4183.077, 4212.821, 0, 0, []
1627749021.546, 45, 0, 4235.897, 4199.487, 4170.256, 4181.538, 4212.821, 0, 0, []
1627749021.5538, 46, 0, 4248.205, 4206.667, 4175.897, 4194.359, 4224.103, 0, 0, []
1627749021.5617, 47, 0, 4253.333, 4206.154, 4173.846, 4206.154, 4234.359, 0, 0, []
1627749021.5696, 48, 0, 4248.205, 4203.59, 4169.231, 4206.154, 4229.744, 0, 0, []
1627749021.5776, 49, 0, 4246.154, 4212.821, 4179.487, 4204.103, 4227.692, 0, 0, []
1627749021.5855, 50, 0, 4252.308, 4223.077, 4182.564, 4206.667, 4229.231, 0, 0, []
1627749021.5935, 51, 0, 4260.513, 4214.872, 4180, 4207.692, 4227.179, 0, 0, []
1627749021.6013, 52, 0, 4272.821, 4201.538, 4180.513, 4204.615, 4241.026, 0, 0, []
1627749021.6093, 53, 0, 4294.872, 4205.641, 4181.538, 4201.026, 4276.923, 0, 0, []
1627749021.6172, 54, 0, 4320, 4221.538, 4190.769, 4200.513, 4313.846, 0, 0, []
1627749021.6252, 55, 0, 4347.179, 4226.667, 4199.487, 4202.564, 4345.641, 0, 0, []
1627749021.6331, 56, 0, 4380.513, 4214.359, 4199.487, 4197.436, 4378.974, 0, 0, []
1627749021.6409, 57, 0, 4402.051, 4210.256, 4192.821, 4187.692, 4399.487, 0, 0, []
1627749021.6487, 58, 0, 4409.231, 4217.949, 4180.513, 4185.128, 4407.179, 0, 0, []
1627749021.6565, 59, 0, 4410.769, 4219.487, 4181.538, 4188.205, 4413.846, 0, 0, []
1627749021.6644, 60, 0, 4406.154, 4216.923, 4185.128, 4190.769, 4406.667, 0, 0, []
1627749021.6722, 61, 0, 4391.795, 4216.41, 4178.974, 4193.333, 4383.077, 0, 0, []
1627749021.6801, 62, 0, 4373.333, 4216.923, 4174.872, 4198.462, 4362.051, 0, 0, []
1627749021.6879, 63, 0, 4347.692, 4218.462, 4182.051, 4204.103, 4349.231, 0, 0, []
1627749021.6957, 64, 0, 4324.103, 4217.436, 4192.821, 4201.026, 4332.308, 450, 0, []
1627749021.7035, 65, 0, 4322.564, 4209.744, 4197.949, 4201.026, 4325.641, 450, 0, []
1627749021.7115, 66, 0, 4331.282, 4211.795, 4214.359, 4218.974, 4335.897, 16186, 0, []
1627749021.7194, 67, 0, 4330.769, 4226.154, 4233.333, 4233.333, 4337.949, 450, 0, []
1627749021.7274, 68, 0, 4312.821, 4225.641, 4217.436, 4225.641, 4316.41, 16185, 0, []
1627749021.7352, 69, 0, 4291.795, 4213.333, 4196.923, 4209.744, 4294.872, 450, 0, []
1627749021.7432, 70, 0, 4287.692, 4216.41, 4207.179, 4209.744, 4295.385, 16118, 0, []
1627749021.7511, 71, 0, 4287.179, 4221.538, 4221.026, 4214.872, 4292.821, 450, 0, []
1627749021.7591, 72, 0, 4277.949, 4213.333, 4218.974, 4209.744, 4275.385, 450, 0, []
1627749021.767, 73, 0, 4268.205, 4216.923, 4211.282, 4203.59, 4265.128, 16178, 0, []
1627749021.775, 74, 0, 4264.615, 4224.103, 4204.615, 4203.077, 4261.538, 450, 0, []
1627749021.7828, 75, 0, 4263.077, 4216.923, 4188.205, 4196.41, 4253.333, 16195, 0, []
1627749021.7908, 76, 0, 4262.564, 4215.897, 4178.462, 4190.769, 4247.179, 450, 0, []
1627749021.7987, 77, 0, 4254.872, 4215.897, 4189.744, 4200, 4245.128, 450, 0, []
1627749021.8065, 78, 0, 4247.179, 4210.769, 4192.308, 4204.103, 4242.051, 450, 0, []
1627749021.8144, 79, 0, 4255.897, 4212.821, 4191.282, 4194.872, 4244.103, 16195, 0, []
1627749021.8221, 80, 0, 4260.513, 4215.385, 4199.487, 4196.41, 4250.769, 450, 0, []
1627749021.83, 81, 0, 4249.231, 4209.231, 4203.59, 4204.615, 4249.744, 450, 0, []
1627749021.8378, 82, 0, 4244.615, 4211.795, 4206.154, 4202.564, 4241.538, 450, 0, []
1627749021.8457, 83, 0, 4252.308, 4217.949, 4202.564, 4199.487, 4235.897, 16195, 0, []
1627749021.8535, 84, 0, 4249.231, 4210.256, 4199.487, 4200.513, 4232.308, 450, 0, []
1627749021.8615, 85, 0, 4238.462, 4201.026, 4202.051, 4200.513, 4232.308, 450, 0, []
1627749021.8693, 86, 0, 4233.333, 4198.462, 4196.41, 4203.077, 4232.308, 450, 0, []
1627749021.8773, 87, 0, 4234.359, 4203.59, 4191.282, 4207.692, 4227.692, 16195, 0, []
1627749021.8852, 88, 0, 4236.923, 4214.359, 4189.744, 4206.667, 4221.538, 450, 0, []
1627749021.8932, 89, 0, 4229.744, 4215.385, 4191.282, 4197.949, 4215.385, 450, 0, []
1627749021.9011, 90, 0, 4224.103, 4215.897, 4197.436, 4198.462, 4211.795, 450, 0, []
1627749021.909, 91, 0, 4234.359, 4230.769, 4204.615, 4213.333, 4221.538, 16195, 0, []
1627749021.9169, 92, 0, 4242.051, 4232.821, 4203.59, 4217.436, 4230.256, 450, 0, []
1627749021.9249, 93, 0, 4236.41, 4219.487, 4195.897, 4207.692, 4223.077, 450, 0, []
1627749021.9328, 94, 0, 4224.615, 4217.949, 4196.41, 4203.077, 4209.231, 450, 0, []
1627749021.9406, 95, 0, 4217.436, 4222.051, 4193.846, 4204.103, 4200, 16195, 0, []
1627749021.9485, 96, 0, 4222.564, 4220.513, 4186.154, 4212.308, 4198.462, 450, 0, []
1627749021.9562, 97, 0, 4225.641, 4218.974, 4195.385, 4222.051, 4200, 450, 0, []
1627749021.9641, 98, 0, 4217.949, 4218.974, 4204.615, 4220, 4202.051, 450, 0, []
1627749021.9719, 99, 0, 4211.282, 4214.359, 4202.564, 4209.744, 4195.385, 16195, 0, []
1627749021.9798, 100, 0, 4207.179, 4204.615, 4200.513, 4204.103, 4186.154, 450, 0, []
1627749021.9876, 101, 0, 4204.615, 4199.487, 4195.897, 4202.051, 4187.692, 450, 0, []
1627749021.9954, 102, 0, 4210.769, 4207.692, 4197.436, 4205.641, 4197.949, 450, 0, []
1627749022.0032, 103, 0, 4218.974, 4218.974, 4197.436, 4213.846, 4200.513, 16195, 0, []
1627749022.0111, 104, 0, 4215.385, 4218.462, 4191.282, 4214.872, 4196.923, 450, 0, []
1627749022.0189, 105, 0, 4210.256, 4216.41, 4196.923, 4211.795, 4199.487, 450, 0, []
1627749022.0269, 106, 0, 4210.256, 4214.872, 4202.564, 4212.308, 4202.051, 450, 0, []
1627749022.0348, 107, 0, 4214.872, 4215.897, 4201.538, 4213.333, 4202.564, 16195, 0, []
1627749022.0427, 108, 0, 4216.41, 4216.41, 4197.436, 4215.897, 4203.59, 450, 0, []
1627749022.0506, 109, 0, 4210.256, 4206.667, 4188.205, 4215.385, 4199.487, 450, 0, []
1627749022.0586, 110, 0, 4209.744, 4204.103, 4191.282, 4210.256, 4198.462, 450, 0, []
1627749022.0665, 111, 0, 4218.462, 4214.359, 4198.462, 4208.718, 4206.667, 16195, 0, []
1627749022.0745, 112, 0, 4216.41, 4215.385, 4190.256, 4195.385, 4200.513, 450, 0, []
1627749022.0824, 113, 0, 4209.744, 4210.769, 4180, 4184.615, 4187.692, 450, 0, []
1627749022.0903, 114, 0, 4212.308, 4220.513, 4186.154, 4195.897, 4193.846, 450, 0, []
1627749022.0982, 115, 0, 4213.846, 4220.513, 4187.179, 4199.487, 4197.949, 16195, 0, []
1627749022.106, 116, 0, 4216.923, 4207.179, 4170.256, 4192.821, 4194.359, 450, 0, []
1627749022.1139, 117, 0, 4217.949, 4202.051, 4170.256, 4197.436, 4191.795, 450, 0, []
1627749022.1217, 118, 0, 4208.205, 4203.59, 4185.641, 4196.923, 4188.718, 450, 0, []
1627749022.1295, 119, 0, 4200, 4207.179, 4183.59, 4185.128, 4181.026, 16195, 0, []
1627749022.1373, 120, 0, 4195.897, 4206.667, 4172.821, 4183.59, 4174.359, 450, 0, []
1627749022.1452, 121, 0, 4189.744, 4202.051, 4165.128, 4184.615, 4169.231, 450, 0, []
1627749022.153, 122, 0, 4177.949, 4197.949, 4166.154, 4175.897, 4157.436, 450, 0, []
1627749022.1609, 123, 0, 4172.308, 4196.41, 4168.718, 4169.744, 4152.308, 16195, 0, []
1627749022.1687, 124, 0, 4177.436, 4196.41, 4161.538, 4167.179, 4158.974, 450, 0, []
1627749022.1766, 125, 0, 4186.667, 4195.385, 4166.154, 4175.897, 4170.256, 450, 0, []
1627749022.1845, 126, 0, 4191.282, 4196.41, 4181.026, 4187.692, 4171.795, 450, 0, []
1627749022.1925, 127, 0, 4188.205, 4204.103, 4189.231, 4186.667, 4167.692, 16195, 0, []
1627749022.2004, 128, 0, 4187.692, 4211.795, 4186.667, 4186.667, 4170.769, 450, 0, []
1627749022.2084, 0, 0, 4192.821, 4207.692, 4170.769, 4191.282, 4171.795, 450, 0, []
1627749022.2162, 1, 0, 4201.026, 4203.59, 4163.59, 4186.667, 4170.256, 450, 0, []
1627749022.2242, 2, 0, 4205.128, 4207.692, 4166.667, 4184.615, 4172.308, 16189, 0, []
1627749022.2321, 3, 0, 4201.026, 4204.615, 4170.769, 4190.769, 4171.795, 450, 0, []
1627749022.2401, 4, 0, 4192.821, 4196.41, 4174.872, 4188.205, 4164.103, 16184, 0, []
1627749022.248, 5, 0, 4188.205, 4200.513, 4167.179, 4184.615, 4162.051, 450, 0, []
1627749022.256, 6, 0, 4187.692, 4200.513, 4153.333, 4185.641, 4164.615, 16150, 0, []
1627749022.2638, 7, 0, 4183.59, 4189.744, 4144.615, 4176.923, 4158.974, 450, 0, []
1627749022.2716, 8, 0, 4179.487, 4188.205, 4144.103, 4169.231, 4150.769, 450, 0, []
1627749022.2795, 9, 0, 4181.026, 4194.359, 4147.179, 4177.949, 4150.769, 16179, 0, []
1627749022.2873, 10, 0, 4187.692, 4197.436, 4151.795, 4188.205, 4163.077, 450, 0, []
1627749022.2952, 11, 0, 4191.282, 4198.974, 4166.667, 4184.615, 4171.795, 16196, 0, []
1627749022.3029, 12, 0, 4180, 4195.385, 4163.077, 4172.821, 4161.538, 450, 0, []
1627749022.3108, 13, 0, 4168.205, 4183.59, 4142.564, 4164.615, 4147.179, 450, 0, []
1627749022.3186, 14, 0, 4178.462, 4180.513, 4139.487, 4167.179, 4156.923, 450, 0, []
1627749022.3266, 15, 0, 4193.333, 4186.667, 4140.513, 4181.026, 4172.308, 16196, 0, []
1627749022.3345, 16, 0, 4189.744, 4185.641, 4139.487, 4188.205, 4172.308, 0, 0, []
1627749022.3425, 17, 0, 4178.462, 4184.103, 4146.154, 4181.538, 4169.744, 0, 0, []
1627749022.3503, 18, 0, 4168.718, 4186.667, 4153.333, 4176.923, 4167.179, 0, 0, []
1627749022.3583, 19, 0, 4165.128, 4183.59, 4150.769, 4174.359, 4163.077, 0, 0, []
1627749022.3662, 20, 0, 4181.538, 4186.667, 4145.128, 4174.359, 4169.231, 0, 0, []
1627749022.3742, 21, 0, 4189.744, 4195.385, 4150.256, 4182.051, 4174.872, 0, 0, []
1627749022.3821, 22, 0, 4171.282, 4193.333, 4153.846, 4185.641, 4164.103, 0, 0, []
1627749022.39, 23, 0, 4164.615, 4184.103, 4147.692, 4184.615, 4160, 0, 0, []
1627749022.3979, 24, 0, 4186.154, 4186.154, 4147.179, 4187.179, 4174.359, 0, 0, []
1627749022.4057, 25, 0, 4189.744, 4187.692, 4138.974, 4181.026, 4175.385, 0, 0, []
1627749022.4136, 26, 0, 4164.615, 4183.077, 4134.359, 4166.154, 4155.385, 0, 0, []
1627749022.4214, 27, 0, 4158.974, 4184.615, 4150.769, 4166.667, 4148.718, 0, 0, []
1627749022.4293, 28, 0, 4176.41, 4188.205, 4156.41, 4173.846, 4157.949, 0, 0, []
1627749022.437, 29, 0, 4180, 4183.59, 4143.077, 4170.256, 4157.949, 0, 0, []
1627749022.4449, 30, 0, 4170.769, 4180.513, 4132.308, 4162.051, 4151.795, 0, 0, []
1627749022.4527, 31, 0, 4163.077, 4178.462, 4129.231, 4154.872, 4149.744, 0, 0, []
1627749022.4606, 32, 0, 4166.154, 4181.026, 4133.846, 4159.487, 4154.359, 0, 0, []
1627749022.4684, 33, 0, 4177.949, 4194.359, 4141.538, 4169.744, 4158.974, 0, 0, []
1627749022.4763, 34, 0, 4181.026, 4199.487, 4146.154, 4169.231, 4157.949, 0, 0, []
1627749022.484, 35, 0, 4182.051, 4192.308, 4141.538, 4169.231, 4156.41, 0, 0, []
1627749022.492, 36, 0, 4184.103, 4190.769, 4137.949, 4169.744, 4154.872, 0, 0, []
1627749022.4999, 37, 0, 4175.897, 4188.718, 4140.513, 4163.59, 4149.231, 0, 0, []
1627749022.5079, 38, 0, 4175.385, 4184.615, 4141.026, 4168.205, 4152.308, 0, 0, []
1627749022.5158, 39, 0, 4185.641, 4186.154, 4139.487, 4176.41, 4158.462, 0, 0, []
1627749022.5237, 40, 0, 4175.897, 4185.128, 4132.308, 4162.051, 4145.641, 0, 0, []
1627749022.5316, 41, 0, 4152.821, 4174.872, 4126.667, 4140, 4124.103, 0, 0, []
1627749022.5396, 42, 0, 4149.231, 4165.641, 4124.103, 4136.41, 4117.436, 0, 0, []
1627749022.5475, 43, 0, 4162.051, 4170.256, 4122.564, 4147.179, 4129.744, 0, 0, []
1627749022.5555, 44, 0, 4179.487, 4177.949, 4132.821, 4158.974, 4148.718, 0, 0, []
1627749022.5634, 45, 0, 4185.128, 4176.923, 4137.436, 4163.077, 4155.897, 0, 0, []
1627749022.5711, 46, 0, 4170.769, 4171.795, 4125.128, 4157.949, 4144.615, 0, 0, []
1627749022.579, 47, 0, 4164.615, 4168.718, 4119.487, 4149.744, 4134.872, 0, 0, []
1627749022.5868, 48, 0, 4170.256, 4168.205, 4119.487, 4146.154, 4138.974, 0, 0, []
1627749022.5947, 49, 0, 4166.667, 4174.359, 4125.641, 4149.231, 4138.974, 0, 0, []
1627749022.6025, 50, 0, 4168.205, 4187.692, 4140, 4160, 4137.949, 0, 0, []
1627749022.6103, 51, 0, 4173.846, 4188.205, 4144.615, 4167.179, 4144.615, 0, 0, []
1627749022.6181, 52, 0, 4172.308, 4177.436, 4142.564, 4169.231, 4149.744, 0, 0, []
1627749022.626, 53, 0, 4178.974, 4180.513, 4142.051, 4173.846, 4153.846, 0, 0, []
1627749022.6338, 54, 0, 4183.59, 4184.615, 4145.128, 4171.795, 4153.846, 0, 0, []
1627749022.6418, 55, 0, 4182.051, 4181.026, 4151.795, 4168.205, 4152.821, 0, 0, []
1627749022.6497, 56, 0, 4188.718, 4189.231, 4150.769, 4176.923, 4162.564, 0, 0, []
1627749022.6576, 57, 0, 4192.308, 4203.077, 4144.103, 4176.41, 4167.692, 0, 0, []
1627749022.6655, 58, 0, 4184.103, 4200, 4134.359, 4161.538, 4156.923, 0, 0, []
1627749022.6735, 59, 0, 4180.513, 4194.359, 4138.462, 4162.051, 4150.769, 0, 0, []
1627749022.6814, 60, 0, 4185.128, 4195.897, 4148.205, 4172.821, 4162.051, 0, 0, []
1627749022.6894, 61, 0, 4192.821, 4197.949, 4145.128, 4176.41, 4174.359, 0, 0, []
1627749022.6972, 62, 0, 4204.615, 4205.641, 4153.333, 4183.077, 4182.051, 0, 0, []
1627749022.7052, 63, 0, 4205.128, 4210.256, 4167.179, 4189.231, 4185.128, 0, 0, []
1627749022.7131, 64, 0, 4197.949, 4203.077, 4170.256, 4183.59, 4182.564, 450, 0, []
1627749022.7211, 65, 0, 4216.41, 4204.103, 4177.436, 4187.179, 4204.103, 450, 0, []
1627749022.729, 66, 0, 4247.179, 4217.436, 4184.103, 4201.538, 4241.538, 16186, 0, []
1627749022.7368, 67, 0, 4265.128, 4217.949, 4180.513, 4206.667, 4262.564, 450, 0, []
1627749022.7446, 68, 0, 4293.333, 4211.282, 4169.744, 4197.949, 4287.179, 16187, 0, []
1627749022.7524, 69, 0, 4335.385, 4220, 4169.744, 4191.795, 4333.846, 450, 0, []
1627749022.7603, 70, 0, 4361.026, 4228.205, 4176.923, 4189.744, 4372.308, 16161, 0, []
1627749022.7681, 71, 0, 4379.487, 4225.128, 4176.923, 4186.667, 4393.846, 450, 0, []
1627749022.776, 72, 0, 4410.769, 4220.513, 4178.974, 4191.282, 4424.615, 450, 0, []
1627749022.7837, 73, 0, 4427.179, 4216.41, 4182.564, 4201.026, 4448.718, 16167, 0, []
1627749022.7916, 74, 0, 4410.256, 4211.282, 4187.692, 4203.59, 4434.359, 450, 0, []
1627749022.7994, 75, 0, 4390.256, 4206.154, 4192.821, 4196.923, 4407.179, 16196, 0, []
1627749022.8074, 76, 0, 4388.718, 4209.744, 4186.154, 4198.974, 4403.077, 450, 0, []
1627749022.8153, 77, 0, 4386.667, 4216.41, 4182.564, 4206.667, 4405.128, 450, 0, []
1627749022.8233, 78, 0, 4357.949, 4211.282, 4177.436, 4199.487, 4381.538, 450, 0, []
1627749022.8311, 79, 0, 4328.205, 4208.718, 4174.359, 4190.256, 4349.744, 16196, 0, []
1627749022.8391, 80, 0, 4328.205, 4212.821, 4183.59, 4194.872, 4337.436, 450, 0, []
1627749022.847, 81, 0, 4335.385, 4210.256, 4184.103, 4202.051, 4336.41, 450, 0, []
1627749022.855, 82, 0, 4327.179, 4204.103, 4174.872, 4200, 4338.974, 450, 0, []
1627749022.8629, 83, 0, 4320.513, 4213.333, 4170.256, 4194.872, 4345.641, 16196, 0, []
1627749022.8706, 84, 0, 4334.359, 4227.692, 4173.846, 4194.872, 4361.538, 450, 0, []
1627749022.8785, 85, 0, 4369.231, 4226.667, 4182.051, 4202.051, 4395.897, 450, 0, []
1627749022.8863, 86, 0, 4410.769, 4225.128, 4186.154, 4216.41, 4442.051, 450, 0, []
1627749022.8942, 87, 0, 4431.795, 4227.692, 4200.513, 4222.564, 4473.333, 16196, 0, []
1627749022.902, 88, 0, 4433.333, 4232.308, 4217.436, 4214.872, 4479.487, 450, 0, []
1627749022.9099, 89, 0, 4443.59, 4238.462, 4214.872, 4211.282, 4484.615, 450, 0, []
1627749022.9176, 90, 0, 4457.436, 4237.436, 4208.205, 4216.41, 4497.949, 450, 0, []
1627749022.9255, 91, 0, 4448.205, 4227.692, 4198.462, 4218.462, 4491.795, 16196, 0, []
1627749022.9333, 92, 0, 4424.103, 4217.949, 4184.103, 4213.846, 4472.308, 450, 0, []
1627749022.9412, 93, 0, 4403.077, 4213.333, 4182.564, 4208.718, 4460.513, 450, 0, []
1627749022.949, 94, 0, 4377.949, 4204.103, 4178.974, 4203.077, 4436.41, 450, 0, []
1627749022.957, 95, 0, 4363.59, 4199.487, 4174.872, 4197.949, 4407.179, 16196, 0, []
1627749022.9648, 96, 0, 4369.231, 4208.205, 4180.513, 4198.974, 4398.974, 450, 0, []
1627749022.9728, 97, 0, 4357.949, 4208.718, 4181.538, 4191.795, 4378.974, 450, 0, []
1627749022.9807, 98, 0, 4323.077, 4196.41, 4164.615, 4177.949, 4338.974, 450, 0, []
1627749022.9887, 99, 0, 4298.974, 4190.769, 4167.692, 4174.872, 4322.564, 16196, 0, []
1627749022.9966, 100, 0, 4289.231, 4196.41, 4177.949, 4182.564, 4321.538, 450, 0, []
1627749023.0045, 101, 0, 4269.744, 4205.641, 4156.41, 4188.205, 4302.564, 450, 0, []
1627749023.0124, 102, 0, 4250.256, 4203.077, 4173.333, 4181.538, 4283.077, 450, 0, []
1627749023.0204, 103, 0, 4244.103, 4198.462, 4197.436, 4172.308, 4274.359, 16196, 0, []
1627749023.0283, 104, 0, 4235.897, 4202.051, 4176.923, 4165.641, 4258.974, 450, 0, []
1627749023.0363, 105, 0, 4225.128, 4203.59, 4176.923, 4161.538, 4245.641, 450, 0, []
1627749023.0442, 106, 0, 4220.513, 4203.077, 4186.154, 4164.615, 4237.949, 450, 0, []
1627749023.0519, 107, 0, 4206.154, 4200, 4174.359, 4159.487, 4217.949, 16196, 0, []
1627749023.0598, 108, 0, 4187.179, 4201.026, 4161.026, 4150.769, 4193.846, 450, 0, []
1627749023.0676, 109, 0, 4179.487, 4198.974, 4158.462, 4152.821, 4185.128, 450, 0, []
1627749023.0755, 110, 0, 4176.41, 4189.231, 4164.615, 4157.949, 4181.026, 450, 0, []
1627749023.0833, 111, 0, 4173.846, 4186.667, 4167.692, 4156.923, 4173.846, 16196, 0, []
1627749023.0911, 112, 0, 4166.154, 4188.718, 4158.974, 4155.897, 4163.59, 450, 0, []
1627749023.0989, 113, 0, 4155.897, 4187.179, 4138.974, 4156.41, 4150.769, 450, 0, []
1627749023.1069, 114, 0, 4149.744, 4184.103, 4129.744, 4154.872, 4141.026, 450, 0, []
1627749023.1148, 115, 0, 4144.615, 4183.59, 4134.359, 4152.821, 4135.385, 16196, 0, []
1627749023.1228, 116, 0, 4140, 4183.077, 4132.308, 4156.41, 4132.308, 450, 0, []
1627749023.1307, 117, 0, 4142.051, 4183.59, 4135.385, 4160, 4131.795, 450, 0, []
1627749023.1386, 118, 0, 4144.103, 4185.641, 4140, 4155.385, 4128.718, 450, 0, []
1627749023.1465, 119, 0, 4136.41, 4185.641, 4135.897, 4150.256, 4117.949, 16196, 0, []
1627749023.1545, 120, 0, 4127.179, 4186.154, 4138.462, 4152.308, 4109.231, 450, 0, []
1627749023.1624, 121, 0, 4123.077, 4186.667, 4144.615, 4153.333, 4114.872, 450, 0, []
1627749023.1704, 122, 0, 4126.667, 4186.154, 4145.128, 4152.821, 4132.308, 450, 0, []
1627749023.1782, 123, 0, 4135.385, 4184.615, 4141.026, 4154.359, 4142.051, 16196, 0, []
1627749023.186, 124, 0, 4142.564, 4191.282, 4139.487, 4156.41, 4135.897, 450, 0, []
1627749023.1939, 125, 0, 4139.487, 4197.436, 4141.538, 4158.974, 4124.103, 450, 0, []
1627749023.2017, 126, 0, 4128.205, 4191.795, 4140, 4157.949, 4115.897, 450, 0, []
1627749023.2096, 127, 0, 4129.744, 4188.718, 4141.538, 4156.41, 4119.487, 16196, 0, []
1627749023.2174, 128, 0, 4138.462, 4187.692, 4151.795, 4157.949, 4121.026, 450, 0, []
1627749023.2252, 0, 0, 4130.769, 4174.872, 4147.692, 4151.795, 4109.744, 450, 0, []
1627749023.233, 1, 0, 4121.538, 4166.154, 4132.308, 4140.513, 4103.59, 450, 0, []
1627749023.2409, 2, 0, 4125.641, 4176.923, 4130.769, 4140, 4107.179, 16174, 0, []
1627749023.2487, 3, 0, 4119.487, 4185.128, 4138.462, 4141.538, 4100.513, 450, 0, []
1627749023.2566, 4, 0, 4105.128, 4183.077, 4144.103, 4137.949, 4085.641, 16172, 0, []
1627749023.2643, 5, 0, 4106.154, 4181.026, 4147.179, 4138.462, 4083.077, 450, 0, []
1627749023.2723, 6, 0, 4105.128, 4175.897, 4141.026, 4137.949, 4082.564, 16169, 0, []
1627749023.2802, 7, 0, 4100.513, 4175.385, 4131.282, 4135.385, 4082.564, 450, 0, []
1627749023.2882, 8, 0, 4113.846, 4183.59, 4138.974, 4145.641, 4095.897, 450, 0, []
1627749023.2961, 9, 0, 4131.282, 4187.692, 4150.256, 4159.487, 4107.179, 16164, 0, []
1627749023.3041, 10, 0, 4126.667, 4182.051, 4141.538, 4152.821, 4098.974, 450, 0, []
1627749023.3119, 11, 0, 4115.897, 4176.923, 4134.872, 4139.487, 4086.667, 16212, 0, []
1627749023.3199, 12, 0, 4124.103, 4187.179, 4143.077, 4143.59, 4092.308, 450, 0, []
1627749023.3278, 13, 0, 4138.974, 4207.179, 4141.538, 4157.436, 4107.179, 450, 0, []
1627749023.3358, 14, 0, 4141.026, 4215.897, 4134.872, 4164.103, 4113.333, 450, 0, []
1627749023.3437, 15, 0, 4136.41, 4208.718, 4139.487, 4167.692, 4109.231, 16212, 0, []
1627749023.3515, 16, 0, 4134.872, 4203.59, 4146.667, 4169.744, 4107.179, 0, 0, []
1627749023.3593, 17, 0, 4136.41, 4205.641, 4143.59, 4164.103, 4108.205, 0, 0, []
1627749023.3671, 18, 0, 4136.41, 4200, 4136.41, 4148.205, 4102.564, 0, 0, []
1627749023.375, 19, 0, 4134.359, 4198.462, 4133.846, 4135.897, 4097.436, 0, 0, []
1627749023.3828, 20, 0, 4132.308, 4210.769, 4131.282, 4142.051, 4100, 0, 0, []
1627749023.3907, 21, 0, 4141.538, 4218.974, 4132.821, 4156.41, 4110.769, 0, 0, []
1627749023.3984, 22, 0, 4154.359, 4216.923, 4138.462, 4157.949, 4120.513, 0, 0, []
1627749023.4063, 23, 0, 4151.282, 4213.846, 4134.872, 4149.744, 4117.436, 0, 0, []
1627749023.4141, 24, 0, 4149.231, 4215.385, 4142.564, 4150.256, 4117.436, 0, 0, []
1627749023.4221, 25, 0, 4156.923, 4224.615, 4164.615, 4161.538, 4131.282, 0, 0, []
1627749023.43, 26, 0, 4168.718, 4230.769, 4165.641, 4168.718, 4148.718, 0, 0, []
1627749023.4379, 27, 0, 4192.821, 4224.103, 4148.718, 4171.795, 4174.872, 0, 0, []
1627749023.4457, 28, 0, 4222.564, 4218.462, 4142.051, 4174.359, 4210.256, 0, 0, []
1627749023.4536, 29, 0, 4248.205, 4214.872, 4144.103, 4166.667, 4242.564, 0, 0, []
1627749023.4616, 30, 0, 4294.872, 4212.821, 4155.385, 4161.026, 4289.744, 0, 0, []
1627749023.4696, 31, 0, 4347.692, 4227.179, 4169.231, 4172.308, 4346.667, 0, 0, []
1627749023.4775, 32, 0, 4367.179, 4237.436, 4157.949, 4173.846, 4371.795, 0, 0, []
1627749023.4853, 33, 0, 4364.615, 4220.513, 4129.744, 4154.359, 4363.59, 0, 0, []
1627749023.4932, 34, 0, 4362.564, 4209.231, 4128.205, 4144.615, 4355.897, 0, 0, []
1627749023.501, 35, 0, 4360, 4216.923, 4144.103, 4157.436, 4363.077, 0, 0, []
1627749023.5089, 36, 0, 4354.359, 4218.974, 4149.231, 4170.769, 4369.231, 0, 0, []
1627749023.5167, 37, 0, 4345.641, 4225.641, 4157.949, 4181.026, 4363.077, 0, 0, []
1627749023.5246, 38, 0, 4325.128, 4234.359, 4162.564, 4190.256, 4344.103, 0, 0, []
1627749023.5323, 39, 0, 4303.077, 4222.051, 4153.846, 4185.128, 4318.974, 0, 0, []
1627749023.5402, 40, 0, 4288.205, 4213.333, 4148.718, 4175.897, 4290.256, 0, 0, []
1627749023.548, 41, 0, 4274.872, 4214.359, 4150.256, 4176.41, 4264.615, 0, 0, []
1627749023.5559, 42, 0, 4259.487, 4205.128, 4149.744, 4177.949, 4249.231, 0, 0, []
1627749023.5637, 43, 0, 4241.026, 4202.564, 4155.897, 4175.385, 4239.487, 0, 0, []
1627749023.5716, 44, 0, 4224.615, 4216.923, 4165.641, 4168.205, 4229.744, 0, 0, []
1627749023.5795, 45, 0, 4208.205, 4221.538, 4154.872, 4154.872, 4212.308, 0, 0, []
1627749023.5875, 46, 0, 4196.923, 4213.333, 4146.667, 4147.692, 4195.385, 0, 0, []
1627749023.5954, 47, 0, 4187.179, 4204.615, 4152.821, 4150.769, 4182.051, 0, 0, []
1627749023.6034, 48, 0, 4174.872, 4201.538, 4156.923, 4152.821, 4170.769, 0, 0, []
1627749023.6113, 49, 0, 4168.718, 4207.179, 4168.205, 4151.282, 4166.154, 0, 0, []
1627749023.6192, 50, 0, 4167.179, 4210.769, 4175.385, 4151.282, 4159.487, 0, 0, []
1627749023.6271, 51, 0, 4164.103, 4200, 4158.462, 4150.769, 4150.256, 0, 0, []
1627749023.6351, 52, 0, 4165.641, 4195.385, 4155.385, 4152.308, 4151.795, 0, 0, []
1627749023.643, 53, 0, 4169.744, 4205.641, 4174.359, 4154.872, 4151.795, 0, 0, []
1627749023.6508, 54, 0, 4163.077, 4214.872, 4175.897, 4150.769, 4141.538, 0, 0, []
1627749023.6586, 55, 0, 4153.846, 4220, 4163.59, 4152.308, 4138.462, 0, 0, []
1627749023.6664, 56, 0, 4152.821, 4216.41, 4156.41, 4163.59, 4142.564, 0, 0, []
1627749023.6743, 57, 0, 4150.256, 4206.154, 4157.436, 4166.154, 4138.974, 0, 0, []
1627749023.6821, 58, 0, 4150.256, 4204.615, 4161.538, 4163.077, 4134.872, 0, 0, []
1627749023.69, 59, 0, 4150.769, 4215.385, 4164.103, 4165.641, 4132.308, 0, 0, []
1627749023.6978, 60, 0, 4141.538, 4218.462, 4157.436, 4163.59, 4122.564, 0, 0, []
1627749023.7056, 61, 0, 4133.333, 4203.59, 4147.179, 4153.333, 4111.282, 0, 0, []
1627749023.7134, 62, 0, 4133.846, 4195.897, 4147.692, 4151.795, 4105.128, 0, 0, []
1627749023.7213, 63, 0, 4135.897, 4209.231, 4151.795, 4158.462, 4108.718, 0, 0, []
1627749023.7291, 64, 0, 4137.436, 4220.513, 4149.744, 4157.949, 4114.359, 450, 0, []
1627749023.7371, 65, 0, 4137.436, 4214.359, 4143.077, 4154.872, 4109.744, 450, 0, []
1627749023.7449, 66, 0, 4134.872, 4210.256, 4144.103, 4155.385, 4104.615, 16180, 0, []
1627749023.7529, 67, 0, 4134.359, 4217.949, 4151.282, 4154.872, 4106.667, 450, 0, []
1627749023.7608, 68, 0, 4134.359, 4217.436, 4146.667, 4158.462, 4107.179, 16161, 0, []
1627749023.7688, 69, 0, 4134.359, 4213.333, 4147.692, 4168.718, 4107.692, 450, 0, []
1627749023.7767, 70, 0, 4139.487, 4216.923, 4160, 4174.359, 4112.308, 16167, 0, []
1627749023.7847, 71, 0, 4140, 4216.923, 4155.897, 4167.692, 4109.231, 450, 0, []
1627749023.7925, 72, 0, 4134.359, 4214.359, 4149.744, 4165.641, 4097.949, 450, 0, []
1627749023.8004, 73, 0, 4135.385, 4215.897, 4162.051, 4171.282, 4095.897, 16185, 0, []
1627749023.8083, 74, 0, 4135.897, 4209.231, 4166.667, 4170.256, 4102.051, 450, 0, []
1627749023.8161, 75, 0, 4135.385, 4206.154, 4157.436, 4169.744, 4109.231, 16221, 0, []
1627749023.824, 76, 0, 4142.564, 4220.513, 4155.897, 4173.846, 4109.231, 450, 0, []
1627749023.8318, 77, 0, 4145.128, 4229.744, 4158.462, 4170.769, 4104.103, 450, 0, []
1627749023.8396, 78, 0, 4138.462, 4228.205, 4161.538, 4167.179, 4110.769, 450, 0, []
1627749023.8474, 79, 0, 4138.974, 4229.231, 4176.41, 4176.923, 4121.538, 16221, 0, []
1627749023.8553, 80, 0, 4143.077, 4223.59, 4181.538, 4185.128, 4118.462, 450, 0, []
1627749023.8631, 81, 0, 4136.41, 4212.821, 4156.41, 4175.897, 4104.615, 450, 0, []
1627749023.871, 82, 0, 4126.154, 4212.308, 4131.282, 4160, 4094.359, 450, 0, []
1627749023.8787, 83, 0, 4126.667, 4216.41, 4123.59, 4154.359, 4093.333, 16221, 0, []
1627749023.8867, 84, 0, 4139.487, 4222.564, 4133.846, 4161.538, 4103.077, 450, 0, []
1627749023.8946, 85, 0, 4151.282, 4225.128, 4149.744, 4169.744, 4110.256, 450, 0, []
1627749023.9026, 86, 0, 4151.282, 4212.308, 4153.846, 4174.359, 4111.282, 450, 0, []
1627749023.9105, 87, 0, 4150.256, 4204.103, 4159.487, 4183.59, 4120, 16221, 0, []
1627749023.9185, 88, 0, 4156.41, 4212.308, 4165.641, 4186.667, 4124.615, 450, 0, []
1627749023.9263, 89, 0, 4163.077, 4217.436, 4152.308, 4172.821, 4119.487, 450, 0, []
1627749023.9343, 90, 0, 4165.641, 4214.872, 4140.513, 4164.103, 4125.128, 450, 0, []
1627749023.9422, 91, 0, 4167.179, 4218.974, 4149.744, 4169.231, 4136.41, 16221, 0, []
1627749023.9502, 92, 0, 4165.641, 4218.974, 4155.897, 4171.282, 4133.846, 450, 0, []
1627749023.9581, 93, 0, 4170.769, 4214.872, 4159.487, 4173.846, 4134.872, 450, 0, []
1627749023.966, 94, 0, 4197.949, 4225.128, 4178.462, 4183.59, 4167.692, 450, 0, []
1627749023.9739, 95, 0, 4233.333, 4235.897, 4194.872, 4186.667, 4210.769, 16221, 0, []
1627749023.9817, 96, 0, 4255.385, 4234.359, 4193.333, 4175.897, 4234.872, 450, 0, []
1627749023.9896, 97, 0, 4276.923, 4237.949, 4187.692, 4167.692, 4260, 450, 0, []
1627749023.9974, 98, 0, 4312.821, 4245.641, 4180.513, 4178.974, 4298.974, 450, 0, []
1627749024.0053, 99, 0, 4341.026, 4238.974, 4163.59, 4189.231, 4331.795, 16221, 0, []
1627749024.013, 100, 0, 4361.538, 4224.615, 4156.923, 4185.641, 4357.436, 450, 0, []
1627749024.0209, 101, 0, 4396.923, 4222.051, 4171.795, 4183.59, 4395.385, 450, 0, []
1627749024.0287, 102, 0, 4421.026, 4228.718, 4187.179, 4187.692, 4428.205, 450, 0, []
1627749024.0366, 103, 0, 4408.718, 4237.436, 4190.256, 4190.769, 4423.59, 16221, 0, []
1627749024.0444, 104, 0, 4382.051, 4235.897, 4180, 4181.538, 4388.205, 450, 0, []
1627749024.0523, 105, 0, 4358.974, 4228.718, 4172.308, 4165.641, 4355.897, 450, 0, []
1627749024.0602, 106, 0, 4345.128, 4229.744, 4175.897, 4169.231, 4347.179, 450, 0, []
1627749024.0682, 107, 0, 4340.513, 4224.615, 4184.103, 4187.179, 4351.795, 16221, 0, []
1627749024.0761, 108, 0, 4335.897, 4205.641, 4194.359, 4190.256, 4350.769, 450, 0, []
1627749024.0841, 109, 0, 4319.487, 4200.513, 4197.436, 4178.462, 4331.282, 450, 0, []
1627749024.092, 110, 0, 4290.769, 4215.897, 4186.667, 4163.077, 4296.923, 450, 0, []
1627749024.0999, 111, 0, 4267.179, 4223.59, 4168.718, 4152.308, 4265.128, 16221, 0, []
1627749024.1078, 112, 0, 4254.359, 4215.897, 4152.821, 4152.308, 4237.436, 450, 0, []
1627749024.1158, 113, 0, 4240, 4207.179, 4148.718, 4154.359, 4215.385, 450, 0, []
1627749024.1237, 114, 0, 4227.692, 4195.897, 4166.667, 4157.949, 4217.436, 450, 0, []
1627749024.1315, 115, 0, 4233.846, 4186.667, 4196.41, 4176.41, 4231.282, 16221, 0, []
1627749024.1393, 116, 0, 4235.897, 4193.846, 4207.692, 4191.795, 4227.179, 450, 0, []
1627749024.1471, 117, 0, 4211.795, 4208.205, 4196.923, 4178.974, 4202.051, 450, 0, []
1627749024.155, 118, 0, 4185.641, 4212.308, 4176.41, 4151.795, 4177.949, 450, 0, []
1627749024.1628, 119, 0, 4178.462, 4208.205, 4156.923, 4141.538, 4166.154, 16221, 0, []
1627749024.1707, 120, 0, 4183.59, 4199.487, 4152.821, 4149.744, 4161.538, 450, 0, []
1627749024.1785, 121, 0, 4182.051, 4184.615, 4157.436, 4155.897, 4153.846, 450, 0, []
1627749024.1863, 122, 0, 4166.667, 4180, 4160.513, 4156.923, 4139.487, 450, 0, []
1627749024.1941, 123, 0, 4147.692, 4186.154, 4168.718, 4159.487, 4123.077, 16221, 0, []
1627749024.2021, 124, 0, 4133.846, 4175.897, 4166.667, 4151.282, 4110.769, 450, 0, []
1627749024.21, 125, 0, 4129.231, 4162.564, 4149.744, 4134.359, 4108.718, 450, 0, []
1627749024.218, 126, 0, 4144.615, 4176.923, 4147.692, 4134.872, 4118.462, 450, 0, []
1627749024.2259, 127, 0, 4165.641, 4192.821, 4154.359, 4140.513, 4125.128, 16221, 0, []
1627749024.2338, 128, 0, 4167.692, 4176.41, 4143.077, 4135.897, 4122.051, 450, 0, []
1627749024.2417, 0, 0, 4162.564, 4161.538, 4140.513, 4142.051, 4124.615, 450, 0, []
1627749024.2497, 1, 0, 4163.59, 4175.385, 4158.974, 4154.872, 4136.41, 450, 0, []
1627749024.2576, 2, 0, 4171.282, 4186.154, 4159.487, 4157.949, 4149.231, 16195, 0, []
1627749024.2656, 3, 0, 4192.821, 4175.897, 4148.205, 4160, 4174.872, 450, 0, []
1627749024.2734, 4, 0, 4228.205, 4165.641, 4158.974, 4162.564, 4217.949, 16186, 0, []
1627749024.2812, 5, 0, 4261.026, 4173.333, 4170.769, 4158.974, 4251.282, 450, 0, []
1627749024.2891, 6, 0, 4294.359, 4183.59, 4166.154, 4162.564, 4279.487, 16155, 0, []
1627749024.2969, 7, 0, 4331.795, 4190.256, 4163.077, 4172.308, 4318.462, 450, 0, []
1627749024.3048, 8, 0, 4349.744, 4194.359, 4162.564, 4166.667, 4338.462, 450, 0, []
1627749024.3126, 9, 0, 4343.59, 4190.256, 4156.41, 4153.846, 4328.205, 16205, 0, []
1627749024.3204, 10, 0, 4345.128, 4183.077, 4149.744, 4151.795, 4329.231, 450, 0, []
1627749024.3282, 11, 0, 4357.436, 4180, 4155.385, 4151.282, 4344.103, 16187, 0, []
1627749024.3361, 12, 0, 4354.359, 4185.641, 4176.41, 4150.769, 4340.513, 450, 0, []
1627749024.3439, 13, 0, 4332.821, 4191.282, 4184.615, 4158.974, 4321.538, 450, 0, []
1627749024.3519, 14, 0, 4308.718, 4193.333, 4166.154, 4171.282, 4301.538, 450, 0, []
1627749024.3597, 15, 0, 4285.641, 4199.487, 4147.179, 4170.769, 4283.077, 16187, 0, []
1627749024.3677, 16, 0, 4264.103, 4200, 4143.077, 4158.974, 4265.128, 0, 0, []
1627749024.3756, 17, 0, 4246.667, 4188.205, 4141.538, 4153.333, 4243.077, 0, 0, []
1627749024.3836, 18, 0, 4231.282, 4180.513, 4143.59, 4153.333, 4221.026, 0, 0, []
1627749024.3915, 19, 0, 4216.923, 4184.615, 4151.282, 4153.846, 4207.179, 0, 0, []
1627749024.3995, 20, 0, 4211.795, 4184.615, 4155.385, 4162.564, 4204.103, 0, 0, []
1627749024.4073, 21, 0, 4217.436, 4182.051, 4154.872, 4174.872, 4204.615, 0, 0, []
1627749024.4153, 22, 0, 4215.385, 4184.615, 4150.769, 4175.385, 4199.487, 0, 0, []
1627749024.4232, 23, 0, 4198.462, 4184.615, 4141.026, 4168.718, 4189.744, 0, 0, []
1627749024.431, 24, 0, 4184.615, 4184.103, 4138.974, 4171.282, 4182.051, 0, 0, []
1627749024.4389, 25, 0, 4181.026, 4184.103, 4145.128, 4177.436, 4174.359, 0, 0, []
1627749024.4466, 26, 0, 4171.282, 4176.923, 4137.949, 4169.744, 4155.897, 0, 0, []
1627749024.4545, 27, 0, 4153.333, 4166.154, 4124.615, 4150.769, 4138.462, 0, 0, []
1627749024.4623, 28, 0, 4148.205, 4165.128, 4121.538, 4144.615, 4133.846, 0, 0, []
1627749024.4702, 29, 0, 4154.872, 4175.897, 4125.128, 4151.282, 4135.897, 0, 0, []
1627749024.478, 30, 0, 4150.769, 4185.128, 4127.692, 4153.846, 4132.821, 0, 0, []
1627749024.486, 31, 0, 4145.641, 4186.667, 4134.359, 4162.564, 4132.308, 0, 0, []
1627749024.4938, 32, 0, 4151.795, 4185.128, 4142.564, 4172.308, 4135.385, 0, 0, []
1627749024.5018, 33, 0, 4143.59, 4182.051, 4134.359, 4161.026, 4123.077, 0, 0, []
1627749024.5097, 34, 0, 4124.103, 4186.154, 4129.231, 4147.692, 4107.179, 0, 0, []
1627749024.5177, 35, 0, 4122.051, 4192.821, 4138.974, 4151.282, 4104.103, 0, 0, []
1627749024.5256, 36, 0, 4125.641, 4190.256, 4136.41, 4153.333, 4102.564, 0, 0, []
1627749024.5335, 37, 0, 4129.744, 4192.821, 4131.795, 4158.974, 4108.718, 0, 0, []
1627749024.5414, 38, 0, 4140, 4200.513, 4141.538, 4172.821, 4118.462, 0, 0, []
1627749024.5494, 39, 0, 4139.487, 4193.333, 4142.564, 4167.692, 4110.769, 0, 0, []
1627749024.5573, 40, 0, 4132.308, 4180, 4131.282, 4151.795, 4102.051, 0, 0, []
1627749024.5652, 41, 0, 4137.436, 4180.513, 4134.872, 4150.769, 4110.769, 0, 0, []
1627749024.5731, 42, 0, 4141.538, 4189.231, 4151.282, 4156.41, 4112.821, 0, 0, []
1627749024.5808, 43, 0, 4136.923, 4198.974, 4156.41, 4156.41, 4105.641, 0, 0, []
1627749024.5887, 44, 0, 4139.487, 4205.128, 4148.205, 4155.897, 4106.154, 0, 0, []
1627749024.5965, 45, 0, 4137.949, 4202.564, 4143.59, 4162.051, 4103.077, 0, 0, []
1627749024.6044, 46, 0, 4123.59, 4197.949, 4147.179, 4164.615, 4091.795, 0, 0, []
1627749024.6122, 47, 0, 4123.59, 4196.923, 4155.897, 4163.59, 4088.205, 0, 0, []
1627749024.6201, 48, 0, 4135.385, 4198.974, 4158.462, 4169.744, 4091.282, 0, 0, []
1627749024.6278, 49, 0, 4130.256, 4198.974, 4152.308, 4171.795, 4087.692, 0, 0, []
1627749024.6357, 50, 0, 4113.846, 4195.385, 4145.128, 4159.487, 4078.462, 0, 0, []
1627749024.6435, 51, 0, 4109.744, 4197.949, 4148.205, 4157.949, 4073.846, 0, 0, []
1627749024.6514, 52, 0, 4120.513, 4203.59, 4163.59, 4168.205, 4081.026, 0, 0, []
1627749024.6592, 53, 0, 4124.103, 4204.103, 4168.718, 4172.821, 4084.103, 0, 0, []
1627749024.6671, 54, 0, 4100, 4197.436, 4155.385, 4173.333, 4057.436, 0, 0, []
1627749024.675, 55, 0, 4072.308, 4188.718, 4137.436, 4170.769, 4021.026, 0, 0, []
1627749024.683, 56, 0, 4066.667, 4187.179, 4129.744, 4168.205, 4006.154, 0, 0, []
1627749024.6909, 57, 0, 4057.436, 4193.846, 4134.872, 4167.692, 3996.41, 0, 0, []
1627749024.6989, 58, 0, 4044.103, 4197.436, 4143.59, 4169.231, 3988.205, 0, 0, []
1627749024.7068, 59, 0, 4058.974, 4200.513, 4153.333, 4177.949, 4004.103, 0, 0, []
1627749024.7147, 60, 0, 4076.923, 4204.615, 4160, 4180.513, 4016.41, 0, 0, []
1627749024.7226, 61, 0, 4068.205, 4201.026, 4152.821, 4170.256, 4003.59, 0, 0, []
1627749024.7306, 62, 0, 4058.462, 4196.41, 4145.641, 4166.667, 3996.923, 0, 0, []
1627749024.7385, 63, 0, 4063.59, 4201.538, 4151.282, 4173.333, 4003.077, 0, 0, []
1627749024.7463, 64, 0, 4064.615, 4204.103, 4145.128, 4170.769, 4006.667, 450, 0, []
1627749024.7541, 65, 0, 4058.462, 4201.538, 4134.359, 4168.205, 4004.615, 450, 0, []
1627749024.7619, 66, 0, 4054.872, 4195.385, 4143.59, 4169.231, 4003.077, 16203, 0, []
1627749024.7698, 67, 0, 4061.026, 4185.641, 4152.821, 4167.179, 4010.769, 450, 0, []
1627749024.7776, 68, 0, 4075.897, 4186.154, 4150.256, 4178.462, 4026.667, 16184, 0, []
1627749024.7855, 69, 0, 4080.513, 4201.026, 4155.897, 4182.564, 4034.359, 450, 0, []
1627749024.7933, 70, 0, 4078.462, 4211.282, 4161.538, 4169.744, 4029.231, 16156, 0, []
1627749024.8011, 71, 0, 4093.333, 4213.333, 4149.231, 4173.846, 4037.436, 450, 0, []
1627749024.8089, 72, 0, 4110.769, 4216.41, 4146.667, 4190.769, 4058.462, 450, 0, []
1627749024.8169, 73, 0, 4112.308, 4219.487, 4160.513, 4190.256, 4067.692, 16194, 0, []
1627749024.8248, 74, 0, 4114.872, 4219.487, 4166.154, 4190.769, 4069.744, 450, 0, []
1627749024.8328, 75, 0, 4124.615, 4217.949, 4167.179, 4200.513, 4079.487, 16194, 0, []
1627749024.8406, 76, 0, 4128.205, 4217.949, 4170.769, 4194.359, 4082.564, 450, 0, []
1627749024.8486, 77, 0, 4123.077, 4222.051, 4169.744, 4188.205, 4072.821, 450, 0, []
1627749024.8565, 78, 0, 4121.538, 4228.718, 4167.179, 4197.436, 4072.821, 450, 0, []
1627749024.8645, 79, 0, 4125.641, 4229.744, 4169.231, 4201.538, 4083.59, 16194, 0, []
1627749024.8724, 80, 0, 4131.795, 4221.026, 4173.333, 4200, 4086.154, 450, 0, []
1627749024.8804, 81, 0, 4131.282, 4220.513, 4170.256, 4201.538, 4077.436, 450, 0, []
1627749024.8882, 82, 0, 4131.795, 4231.795, 4163.077, 4202.051, 4086.667, 450, 0, []
1627749024.8962, 83, 0, 4148.205, 4234.872, 4154.872, 4205.641, 4118.462, 16194, 0, []
1627749024.9041, 84, 0, 4152.821, 4231.795, 4149.231, 4208.718, 4125.128, 450, 0, []
1627749024.9119, 85, 0, 4140, 4228.205, 4151.795, 4206.667, 4108.718, 450, 0, []
1627749024.9198, 86, 0, 4142.564, 4220, 4155.897, 4209.231, 4113.846, 450, 0, []
1627749024.9275, 87, 0, 4153.333, 4213.333, 4154.359, 4207.179, 4126.154, 16194, 0, []
1627749024.9354, 88, 0, 4147.692, 4213.333, 4153.846, 4196.41, 4120.513, 450, 0, []
1627749024.9432, 89, 0, 4148.718, 4217.949, 4158.974, 4201.538, 4122.051, 450, 0, []
1627749024.9511, 90, 0, 4160.513, 4223.077, 4162.051, 4212.308, 4130.256, 450, 0, []
1627749024.9589, 91, 0, 4156.923, 4220.513, 4151.795, 4200.513, 4120.513, 16194, 0, []
1627749024.9668, 92, 0, 4147.692, 4213.846, 4141.538, 4184.615, 4104.615, 450, 0, []
1627749024.9745, 93, 0, 4148.718, 4215.897, 4151.282, 4185.641, 4101.538, 450, 0, []
1627749024.9825, 94, 0, 4157.436, 4217.436, 4160, 4192.308, 4110.256, 450, 0, []
1627749024.9904, 95, 0, 4166.154, 4215.897, 4154.872, 4197.436, 4123.59, 16194, 0, []
1627749024.9984, 96, 0, 4174.872, 4225.128, 4158.462, 4202.051, 4136.41, 450, 0, []
1627749025.0063, 97, 0, 4182.051, 4227.179, 4161.538, 4204.615, 4142.564, 450, 0, []
1627749025.0142, 98, 0, 4181.026, 4214.872, 4159.487, 4202.051, 4144.615, 450, 0, []
1627749025.0221, 99, 0, 4182.564, 4220.513, 4168.718, 4202.564, 4151.795, 16194, 0, []
1627749025.0301, 100, 0, 4188.718, 4236.923, 4189.231, 4212.308, 4158.462, 450, 0, []
1627749025.038, 101, 0, 4188.718, 4233.333, 4197.436, 4218.974, 4154.359, 450, 0, []
1627749025.0458, 102, 0, 4194.359, 4224.615, 4184.103, 4205.641, 4150.256, 450, 0, []
1627749025.0537, 103, 0, 4218.462, 4228.718, 4176.923, 4196.41, 4166.667, 16194, 0, []
1627749025.0614, 104, 0, 4234.872, 4232.821, 4183.077, 4207.179, 4188.205, 450, 0, []
1627749025.0693, 105, 0, 4229.744, 4234.359, 4185.641, 4218.974, 4190.256, 450, 0, []
1627749025.0771, 106, 0, 4218.974, 4234.359, 4180, 4214.872, 4176.41, 450, 0, []
1627749025.085, 107, 0, 4213.846, 4231.282, 4175.385, 4201.538, 4164.615, 16194, 0, []
1627749025.0928, 108, 0, 4221.026, 4238.974, 4177.949, 4200, 4171.795, 450, 0, []
1627749025.1006, 109, 0, 4234.359, 4250.769, 4190.769, 4221.538, 4194.872, 450, 0, []
1627749025.1084, 110, 0, 4236.923, 4248.205, 4207.179, 4235.897, 4201.538, 450, 0, []
1627749025.1164, 111, 0, 4229.231, 4237.949, 4206.154, 4221.026, 4183.59, 16194, 0, []
1627749025.1243, 112, 0, 4225.641, 4233.333, 4197.436, 4209.231, 4176.923, 450, 0, []
1627749025.1323, 113, 0, 4232.308, 4231.795, 4200.513, 4218.462, 4193.333, 450, 0, []
1627749025.1402, 114, 0, 4242.051, 4240, 4200.513, 4225.128, 4207.179, 450, 0, []
1627749025.1481, 115, 0, 4242.564, 4246.667, 4186.667, 4221.538, 4200, 16194, 0, []
1627749025.156, 116, 0, 4231.795, 4233.333, 4176.41, 4215.385, 4188.205, 450, 0, []
1627749025.164, 117, 0, 4227.692, 4222.564, 4178.974, 4212.308, 4185.641, 450, 0, []
1627749025.1719, 118, 0, 4231.795, 4228.718, 4186.154, 4210.256, 4187.179, 450, 0, []
1627749025.1799, 119, 0, 4230.256, 4235.897, 4193.333, 4216.41, 4189.744, 16194, 0, []
1627749025.1878, 120, 0, 4230.256, 4229.231, 4203.59, 4225.641, 4198.462, 450, 0, []
1627749025.1955, 121, 0, 4235.897, 4217.949, 4206.667, 4224.615, 4198.462, 450, 0, []
1627749025.2034, 122, 0, 4230.256, 4211.282, 4194.359, 4215.385, 4184.615, 450, 0, []
1627749025.2112, 123, 0, 4225.641, 4214.872, 4185.641, 4212.308, 4182.564, 16194, 0, []
1627749025.2191, 124, 0, 4240, 4228.205, 4185.128, 4217.949, 4202.051, 450, 0, []
1627749025.2269, 125, 0, 4253.333, 4234.359, 4182.564, 4219.487, 4213.333, 450, 0, []
1627749025.2347, 126, 0, 4250.769, 4232.821, 4186.154, 4216.923, 4204.615, 450, 0, []
1627749025.2425, 127, 0, 4247.692, 4237.436, 4194.872, 4215.897, 4196.41, 16194, 0, []
1627749025.2504, 128, 0, 4253.846, 4247.692, 4192.308, 4219.487, 4203.59, 450, 0, []
1627749025.2582, 0, 0, 4254.359, 4245.128, 4185.128, 4221.026, 4207.179, 450, 0, []
1627749025.2661, 1, 0, 4250.256, 4233.846, 4193.846, 4217.436, 4207.179, 450, 0, []
1627749025.2739, 2, 0, 4256.923, 4233.333, 4205.641, 4216.41, 4212.308, 16200, 0, []
1627749025.2818, 3, 0, 4265.128, 4236.41, 4195.897, 4221.026, 4213.333, 450, 0, []
1627749025.2897, 4, 0, 4258.462, 4238.462, 4183.077, 4222.051, 4204.103, 16196, 0, []
1627749025.2977, 5, 0, 4244.103, 4233.846, 4182.051, 4207.692, 4187.692, 450, 0, []
1627749025.3056, 6, 0, 4241.026, 4226.154, 4189.231, 4200.513, 4180.513, 16156, 0, []
1627749025.3136, 7, 0, 4247.692, 4229.231, 4200, 4215.385, 4191.282, 450, 0, []
1627749025.3214, 8, 0, 4256.923, 4234.872, 4201.538, 4231.282, 4205.128, 450, 0, []
1627749025.3294, 9, 0, 4265.128, 4233.846, 4198.462, 4230.769, 4204.615, 16180, 0, []
1627749025.3373, 10, 0, 4264.615, 4233.333, 4200.513, 4227.179, 4198.974, 450, 0, []
1627749025.3453, 11, 0, 4264.615, 4233.333, 4205.128, 4237.949, 4207.692, 16189, 0, []
1627749025.3532, 12, 0, 4272.308, 4230.769, 4209.231, 4247.179, 4218.974, 450, 0, []
1627749025.3611, 13, 0, 4276.41, 4230.769, 4209.744, 4241.538, 4218.974, 450, 0, []
1627749025.3689, 14, 0, 4270.769, 4230.256, 4211.795, 4238.974, 4217.436, 450, 0, []
1627749025.3769, 15, 0, 4266.667, 4231.282, 4224.615, 4243.077, 4218.462, 16189, 0, []
1627749025.3848, 16, 0, 4266.154, 4232.821, 4227.179, 4241.538, 4217.949, 0, 0, []
1627749025.3926, 17, 0, 4264.103, 4231.282, 4217.436, 4243.077, 4211.795, 0, 0, []
1627749025.4005, 18, 0, 4268.718, 4232.308, 4222.564, 4251.795, 4213.846, 0, 0, []
1627749025.4082, 19, 0, 4280.513, 4242.051, 4235.897, 4249.231, 4226.667, 0, 0, []
1627749025.4161, 20, 0, 4284.103, 4246.667, 4228.205, 4246.667, 4232.821, 0, 0, []
1627749025.4239, 21, 0, 4280.513, 4238.462, 4209.744, 4250.256, 4228.205, 0, 0, []
1627749025.4318, 22, 0, 4284.103, 4229.744, 4213.846, 4249.744, 4229.744, 0, 0, []
1627749025.4396, 23, 0, 4293.333, 4227.692, 4230.256, 4248.718, 4236.41, 0, 0, []
1627749025.4475, 24, 0, 4289.744, 4225.641, 4225.641, 4241.026, 4228.718, 0, 0, []
1627749025.4553, 25, 0, 4288.718, 4223.59, 4215.385, 4234.872, 4229.231, 0, 0, []
1627749025.4631, 26, 0, 4300, 4232.821, 4222.051, 4243.077, 4249.744, 0, 0, []
1627749025.4711, 27, 0, 4302.564, 4243.077, 4225.641, 4245.641, 4256.923, 0, 0, []
1627749025.479, 28, 0, 4309.231, 4240, 4216.41, 4240, 4264.615, 0, 0, []
1627749025.4869, 29, 0, 4345.128, 4228.718, 4214.359, 4242.051, 4297.436, 0, 0, []
1627749025.4948, 30, 0, 4396.41, 4228.205, 4220, 4246.667, 4339.487, 0, 0, []
1627749025.5027, 31, 0, 4444.615, 4242.051, 4223.59, 4252.308, 4382.051, 0, 0, []
1627749025.5106, 32, 0, 4485.128, 4248.205, 4229.231, 4263.59, 4431.795, 0, 0, []
1627749025.5185, 33, 0, 4529.231, 4244.615, 4231.282, 4263.077, 4475.897, 0, 0, []
1627749025.5263, 34, 0, 4582.564, 4251.282, 4224.615, 4255.897, 4515.897, 0, 0, []
1627749025.5342, 35, 0, 4623.59, 4264.615, 4223.077, 4260.513, 4563.59, 0, 0, []
1627749025.5419, 36, 0, 4638.974, 4264.615, 4226.154, 4264.103, 4592.821, 0, 0, []
1627749025.5498, 37, 0, 4645.128, 4262.564, 4229.744, 4258.974, 4595.385, 0, 0, []
1627749025.5576, 38, 0, 4651.795, 4266.154, 4236.41, 4262.051, 4602.564, 0, 0, []
1627749025.5655, 39, 0, 4662.564, 4266.154, 4243.59, 4266.667, 4619.487, 0, 0, []
1627749025.5733, 40, 0, 4676.41, 4268.718, 4251.282, 4263.077, 4633.846, 0, 0, []
1627749025.5811, 41, 0, 4672.821, 4271.282, 4257.949, 4262.564, 4639.487, 0, 0, []
1627749025.5889, 42, 0, 4657.949, 4264.103, 4257.949, 4260.513, 4635.385, 0, 0, []
1627749025.5969, 43, 0, 4656.923, 4260.513, 4250.256, 4248.718, 4630.256, 0, 0, []
1627749025.6048, 44, 0, 4659.487, 4260.513, 4247.692, 4254.872, 4639.487, 0, 0, []
1627749025.6128, 45, 0, 4650.769, 4253.846, 4252.821, 4264.615, 4640.513, 0, 0, []
1627749025.6207, 46, 0, 4642.564, 4248.718, 4249.231, 4253.333, 4626.667, 0, 0, []
1627749025.6286, 47, 0, 4641.026, 4248.205, 4247.692, 4254.359, 4630.769, 0, 0, []
1627749025.6365, 48, 0, 4630.769, 4236.923, 4248.718, 4265.641, 4636.41, 0, 0, []
1627749025.6445, 49, 0, 4617.949, 4229.231, 4243.077, 4254.872, 4622.051, 0, 0, []
1627749025.6524, 50, 0, 4619.487, 4238.974, 4243.59, 4241.538, 4612.308, 0, 0, []
1627749025.6604, 51, 0, 4615.897, 4246.154, 4253.333, 4247.179, 4612.821, 0, 0, []
1627749025.6683, 52, 0, 4600.513, 4233.333, 4244.615, 4248.205, 4608.205, 0, 0, []
1627749025.676, 53, 0, 4597.436, 4224.615, 4227.692, 4244.615, 4600.513, 0, 0, []
1627749025.6839, 54, 0, 4601.026, 4228.718, 4237.436, 4246.667, 4591.795, 0, 0, []
1627749025.6917, 55, 0, 4595.385, 4223.59, 4252.308, 4253.333, 4581.026, 0, 0, []
1627749025.6996, 56, 0, 4595.385, 4223.59, 4251.795, 4265.128, 4586.667, 0, 0, []
1627749025.7074, 57, 0, 4603.59, 4238.974, 4249.231, 4265.128, 4590.769, 0, 0, []
1627749025.7152, 58, 0, 4600.513, 4239.487, 4253.846, 4252.308, 4577.436, 0, 0, []
1627749025.723, 59, 0, 4580, 4222.051, 4251.282, 4248.205, 4568.205, 0, 0, []
1627749025.7309, 60, 0, 4568.205, 4215.385, 4236.41, 4252.308, 4569.231, 0, 0, []
1627749025.7387, 61, 0, 4568.205, 4212.821, 4215.897, 4244.615, 4558.974, 0, 0, []
1627749025.7467, 62, 0, 4553.333, 4200, 4207.179, 4227.179, 4537.436, 0, 0, []
1627749025.7546, 63, 0, 4536.41, 4198.462, 4222.051, 4226.154, 4532.821, 0, 0, []
1627749025.7625, 64, 0, 4544.103, 4210.769, 4232.821, 4239.487, 4544.615, 450, 0, []
1627749025.7704, 65, 0, 4560.513, 4206.667, 4225.128, 4238.974, 4547.692, 450, 0, []
1627749025.7784, 66, 0, 4567.179, 4198.974, 4217.436, 4225.641, 4540, 16186, 0, []
1627749025.7863, 67, 0, 4570.256, 4213.846, 4214.872, 4218.462, 4526.154, 450, 0, []
1627749025.7943, 68, 0, 4576.41, 4219.487, 4212.821, 4215.385, 4517.436, 16186, 0, []
1627749025.8021, 69, 0, 4583.077, 4202.051, 4211.282, 4216.41, 4521.538, 450, 0, []
1627749025.8101, 70, 0, 4587.179, 4194.872, 4213.333, 4220.513, 4523.59, 16154, 0, []
1627749025.818, 71, 0, 4584.615, 4196.923, 4211.795, 4216.923, 4508.205, 450, 0, []
1627749025.826, 72, 0, 4578.974, 4183.59, 4212.308, 4211.282, 4492.308, 450, 0, []
1627749025.8339, 73, 0, 4586.154, 4184.103, 4230.256, 4218.974, 4492.308, 16178, 0, []
1627749025.8417, 74, 0, 4599.487, 4202.051, 4243.077, 4220.513, 4495.385, 450, 0, []
1627749025.8495, 75, 0, 4596.923, 4201.026, 4227.692, 4211.282, 4490.256, 16189, 0, []
1627749025.8573, 76, 0, 4591.282, 4192.821, 4209.231, 4215.897, 4482.564, 450, 0, []
1627749025.8652, 77, 0, 4601.538, 4184.615, 4198.462, 4220, 4477.436, 450, 0, []
1627749025.873, 78, 0, 4602.051, 4171.282, 4190.769, 4198.462, 4466.154, 450, 0, []
1627749025.8809, 79, 0, 4587.179, 4165.641, 4188.205, 4185.128, 4451.795, 16189, 0, []
1627749025.8886, 80, 0, 4581.026, 4172.308, 4189.231, 4193.846, 4447.179, 450, 0, []
1627749025.8965, 81, 0, 4581.538, 4173.846, 4180.513, 4187.692, 4440.513, 450, 0, []
1627749025.9043, 82, 0, 4578.462, 4165.641, 4173.333, 4171.795, 4433.846, 450, 0, []
1627749025.9123, 83, 0, 4576.41, 4169.231, 4194.872, 4182.051, 4437.949, 16189, 0, []
1627749025.9202, 84, 0, 4571.795, 4173.846, 4208.205, 4188.718, 4436.41, 450, 0, []
1627749025.9282, 85, 0, 4562.564, 4171.282, 4200.513, 4170.769, 4427.692, 450, 0, []
1627749025.936, 86, 0, 4547.179, 4176.923, 4209.744, 4172.821, 4429.744, 450, 0, []
1627749025.944, 87, 0, 4518.462, 4177.949, 4215.385, 4186.667, 4429.231, 16189, 0, []
1627749025.9519, 88, 0, 4491.795, 4165.641, 4202.564, 4183.59, 4417.949, 450, 0, []
1627749025.9599, 89, 0, 4490.769, 4164.103, 4205.641, 4189.231, 4416.923, 450, 0, []
1627749025.9678, 90, 0, 4486.154, 4173.846, 4209.231, 4194.359, 4417.436, 450, 0, []
1627749025.9755, 91, 0, 4444.103, 4168.718, 4187.179, 4173.846, 4403.077, 16189, 0, []
1627749025.9834, 92, 0, 4413.333, 4163.59, 4178.462, 4166.667, 4401.538, 450, 0, []
1627749025.9912, 93, 0, 4432.821, 4176.923, 4189.231, 4183.077, 4420.513, 450, 0, []
1627749025.9991, 94, 0, 4448.718, 4189.231, 4191.282, 4189.744, 4432.308, 450, 0, []
1627749026.0069, 95, 0, 4433.846, 4184.103, 4190.256, 4189.231, 4430.256, 16189, 0, []
1627749026.0148, 96, 0, 4416.923, 4164.615, 4189.231, 4184.103, 4427.179, 450, 0, []
1627749026.0225, 97, 0, 4413.333, 4153.846, 4186.667, 4172.821, 4430.256, 450, 0, []
1627749026.0304, 98, 0, 4413.333, 4160.513, 4190.256, 4170.256, 4438.974, 450, 0, []
1627749026.0382, 99, 0, 4412.821, 4161.538, 4194.872, 4173.846, 4458.974, 16189, 0, []
1627749026.0461, 100, 0, 4414.872, 4153.333, 4200.513, 4176.923, 4486.154, 450, 0, []
1627749026.0539, 101, 0, 4410.769, 4161.026, 4209.744, 4182.051, 4501.026, 450, 0, []
1627749026.0618, 102, 0, 4401.538, 4170.769, 4208.205, 4187.692, 4492.308, 450, 0, []
1627749026.0697, 103, 0, 4394.359, 4154.872, 4197.949, 4194.872, 4472.308, 16189, 0, []
1627749026.0777, 104, 0, 4382.051, 4140, 4192.821, 4191.795, 4447.179, 450, 0, []
1627749026.0856, 105, 0, 4357.949, 4142.051, 4181.538, 4173.846, 4416.923, 450, 0, []
1627749026.0936, 106, 0, 4340, 4133.333, 4166.667, 4167.179, 4392.821, 450, 0, []
1627749026.1015, 107, 0, 4334.872, 4128.205, 4161.026, 4172.821, 4384.615, 16189, 0, []
1627749026.1094, 108, 0, 4327.692, 4140.513, 4168.205, 4168.205, 4388.718, 450, 0, []
1627749026.1173, 109, 0, 4322.051, 4141.026, 4182.051, 4165.128, 4400, 450, 0, []
1627749026.1253, 110, 0, 4329.744, 4136.41, 4201.026, 4176.923, 4420.513, 450, 0, []
1627749026.1332, 111, 0, 4337.436, 4145.641, 4205.641, 4187.179, 4431.795, 16189, 0, []
1627749026.141, 112, 0, 4333.333, 4142.051, 4187.179, 4192.308, 4421.026, 450, 0, []
1627749026.1488, 113, 0, 4321.026, 4124.615, 4168.718, 4186.154, 4402.051, 450, 0, []
1627749026.1566, 114, 0, 4310.256, 4112.308, 4155.385, 4168.718, 4387.692, 450, 0, []
1627749026.1645, 115, 0, 4313.846, 4109.744, 4163.077, 4163.077, 4382.564, 16189, 0, []
1627749026.1723, 116, 0, 4324.615, 4132.821, 4194.359, 4175.897, 4383.077, 450, 0, []
1627749026.1802, 117, 0, 4329.231, 4158.462, 4200, 4185.128, 4380, 450, 0, []
1627749026.188, 118, 0, 4326.154, 4146.154, 4182.051, 4182.051, 4364.615, 450, 0, []
1627749026.1958, 119, 0, 4314.872, 4131.795, 4178.974, 4183.59, 4346.667, 16189, 0, []
1627749026.2036, 120, 0, 4317.949, 4149.231, 4187.179, 4195.385, 4352.308, 450, 0, []
1627749026.2116, 121, 0, 4347.692, 4160, 4191.282, 4198.974, 4373.846, 450, 0, []
1627749026.2195, 122, 0, 4342.051, 4145.641, 4187.692, 4185.641, 4365.641, 450, 0, []
1627749026.2275, 123, 0, 4301.026, 4140, 4197.949, 4182.051, 4341.538, 16189, 0, []
1627749026.2354, 124, 0, 4313.333, 4148.205, 4229.744, 4193.846, 4353.333, 450, 0, []
1627749026.2433, 125, 0, 4342.564, 4150.256, 4217.949, 4183.077, 4363.59, 450, 0, []
1627749026.2512, 126, 0, 4308.718, 4140, 4157.949, 4166.667, 4332.308, 450, 0, []
1627749026.2592, 127, 0, 4277.949, 4139.487, 4144.615, 4189.744, 4318.974, 16189, 0, []
1627749026.2671, 128, 0, 4316.41, 4148.205, 4174.359, 4210.256, 4344.615, 450, 0, []
1627749026.2751, 0, 0, 4341.026, 4144.103, 4177.436, 4192.308, 4346.154, 450, 0, []
1627749026.2829, 1, 0, 4307.179, 4134.359, 4169.231, 4177.949, 4311.795, 450, 0, []
1627749026.2907, 2, 0, 4301.538, 4133.333, 4176.923, 4185.641, 4303.077, 16186, 0, []
1627749026.2986, 3, 0, 4325.641, 4151.795, 4174.872, 4193.846, 4325.128, 450, 0, []
1627749026.3064, 4, 0, 4297.949, 4170.256, 4162.051, 4196.41, 4323.077, 16190, 0, []
1627749026.3143, 5, 0, 4266.154, 4160.513, 4164.615, 4200, 4309.744, 450, 0, []
1627749026.3221, 6, 0, 4292.821, 4155.897, 4179.487, 4210.769, 4322.051, 16154, 0, []
1627749026.3299, 7, 0, 4307.692, 4170.256, 4185.641, 4217.949, 4323.077, 450, 0, []
1627749026.3377, 8, 0, 4288.205, 4168.205, 4182.051, 4212.821, 4296.923, 450, 0, []
1627749026.3456, 9, 0, 4302.051, 4160, 4182.564, 4210.769, 4293.846, 16173, 0, []
1627749026.3534, 10, 0, 4327.179, 4173.333, 4184.103, 4220.513, 4306.154, 450, 0, []
1627749026.3613, 11, 0, 4322.564, 4172.821, 4165.128, 4224.615, 4287.692, 16193, 0, []
1627749026.369, 12, 0, 4314.872, 4155.897, 4146.154, 4210.769, 4262.564, 450, 0, []
1627749026.377, 13, 0, 4315.385, 4154.359, 4161.538, 4198.462, 4260.513, 450, 0, []
1627749026.3849, 14, 0, 4319.487, 4151.795, 4167.692, 4201.026, 4259.487, 450, 0, []
1627749026.3929, 15, 0, 4368.718, 4151.282, 4141.538, 4208.205, 4249.744, 16193, 0, []
1627749026.4008, 16, 0, 4454.872, 4154.872, 4134.872, 4199.487, 4241.026, 0, 0, []
1627749026.4088, 17, 0, 4528.205, 4147.692, 4154.359, 4197.949, 4248.718, 0, 0, []
1627749026.4166, 18, 0, 4590.256, 4144.103, 4157.949, 4210.256, 4266.667, 0, 0, []
1627749026.4246, 19, 0, 4642.051, 4153.846, 4156.923, 4208.205, 4258.462, 0, 0, []
1627749026.4325, 20, 0, 4670.769, 4158.974, 4161.026, 4197.949, 4224.103, 0, 0, []
1627749026.4403, 21, 0, 4702.051, 4150.256, 4147.179, 4190.256, 4217.949, 0, 0, []
1627749026.4482, 22, 0, 4744.615, 4149.744, 4150.769, 4190.769, 4241.538, 0, 0, []
1627749026.4559, 23, 0, 4773.846, 4166.667, 4182.564, 4208.205, 4251.795, 0, 0, []
1627749026.4638, 24, 0, 4784.615, 4175.897, 4181.026, 4225.128, 4248.205, 0, 0, []
1627749026.4716, 25, 0, 4773.333, 4162.564, 4145.641, 4216.923, 4240, 0, 0, []
1627749026.4795, 26, 0, 4758.462, 4157.949, 4138.974, 4208.718, 4230.769, 0, 0, []
1627749026.4873, 27, 0, 4759.487, 4168.205, 4159.487, 4220, 4225.641, 0, 0, []
1627749026.4952, 28, 0, 4742.051, 4162.564, 4162.051, 4208.718, 4220, 0, 0, []
1627749026.5029, 29, 0, 4696.923, 4149.744, 4151.795, 4180, 4212.821, 0, 0, []
1627749026.5108, 30, 0, 4666.154, 4151.282, 4155.897, 4177.949, 4213.846, 0, 0, []
1627749026.5186, 31, 0, 4651.282, 4156.41, 4165.641, 4187.179, 4218.462, 0, 0, []
1627749026.5266, 32, 0, 4632.821, 4156.41, 4164.103, 4185.128, 4230.769, 0, 0, []
1627749026.5345, 33, 0, 4614.359, 4166.154, 4162.051, 4187.179, 4245.641, 0, 0, []
1627749026.5424, 34, 0, 4592.308, 4183.59, 4166.667, 4192.821, 4239.487, 0, 0, []
1627749026.5503, 35, 0, 4569.231, 4178.462, 4172.308, 4184.615, 4232.821, 0, 0, []
1627749026.5583, 36, 0, 4545.641, 4154.359, 4166.667, 4181.026, 4231.795, 0, 0, []
1627749026.5662, 37, 0, 4511.282, 4143.077, 4148.718, 4193.333, 4217.949, 0, 0, []
1627749026.5742, 38, 0, 4492.308, 4149.744, 4143.59, 4190.769, 4213.846, 0, 0, []
1627749026.5821, 39, 0, 4492.821, 4156.41, 4157.949, 4178.974, 4226.154, 0, 0, []
1627749026.59, 40, 0, 4473.333, 4161.538, 4172.308, 4178.974, 4222.564, 0, 0, []
1627749026.5979, 41, 0, 4440, 4170.769, 4171.282, 4184.615, 4212.821, 0, 0, []
1627749026.6058, 42, 0, 4424.615, 4173.333, 4164.615, 4189.744, 4242.564, 0, 0, []
1627749026.6137, 43, 0, 4416.923, 4173.846, 4170.769, 4176.41, 4320.513, 0, 0, []
1627749026.6215, 44, 0, 4397.949, 4172.308, 4183.077, 4167.692, 4439.487, 0, 0, []
1627749026.6293, 45, 0, 4375.897, 4161.538, 4175.897, 4194.359, 4593.846, 0, 0, []
1627749026.6371, 46, 0, 4369.231, 4149.231, 4164.103, 4218.974, 4776.923, 0, 0, []
1627749026.645, 47, 0, 4368.718, 4149.231, 4169.231, 4203.59, 4954.872, 0, 0, []
1627749026.6528, 48, 0, 4345.128, 4156.41, 4182.564, 4187.179, 5089.231, 0, 0, []
1627749026.6607, 49, 0, 4319.487, 4154.359, 4191.795, 4196.41, 5189.744, 0, 0, []
1627749026.6685, 50, 0, 4315.897, 4150.769, 4190.256, 4184.103, 5262.051, 0, 0, []
1627749026.6763, 51, 0, 4289.231, 4156.41, 4174.359, 4156.41, 5271.282, 0, 0, []
1627749026.6841, 52, 0, 4246.667, 4154.359, 4160.513, 4154.872, 5224.103, 0, 0, []
1627749026.6921, 53, 0, 4237.436, 4142.051, 4160, 4176.41, 5150.769, 0, 0, []
1627749026.7, 54, 0, 4240.513, 4142.051, 4157.436, 4190.256, 5055.897, 0, 0, []
1627749026.708, 55, 0, 4225.641, 4149.744, 4149.231, 4177.436, 4963.59, 0, 0, []
1627749026.7158, 56, 0, 4209.744, 4140, 4136.41, 4170.769, 4887.692, 0, 0, []
1627749026.7238, 57, 0, 4196.41, 4131.282, 4134.872, 4171.282, 4816.41, 0, 0, []
1627749026.7317, 58, 0, 4184.103, 4147.692, 4153.846, 4171.795, 4778.974, 0, 0, []
1627749026.7397, 59, 0, 4183.59, 4156.41, 4158.974, 4174.359, 4784.615, 0, 0, []
1627749026.7476, 60, 0, 4187.692, 4144.103, 4148.718, 4163.59, 4787.179, 0, 0, []
1627749026.7556, 61, 0, 4182.051, 4131.795, 4150.256, 4143.077, 4763.59, 0, 0, []
1627749026.7634, 62, 0, 4183.077, 4130.769, 4154.872, 4147.692, 4729.231, 0, 0, []
1627749026.7712, 63, 0, 4193.333, 4148.205, 4150.769, 4173.333, 4688.718, 0, 0, []
1627749026.7791, 64, 0, 4172.821, 4154.872, 4140, 4160.513, 4643.59, 450, 0, []
1627749026.7869, 65, 0, 4143.59, 4138.462, 4134.359, 4135.385, 4626.667, 450, 0, []
1627749026.7948, 66, 0, 4149.231, 4130.256, 4145.641, 4154.359, 4651.282, 16194, 0, []
1627749026.8026, 67, 0, 4159.487, 4143.59, 4159.487, 4186.154, 4674.872, 450, 0, []
1627749026.8104, 68, 0, 4154.359, 4153.333, 4169.231, 4185.128, 4655.385, 16182, 0, []
1627749026.8182, 69, 0, 4148.718, 4147.692, 4178.974, 4161.026, 4618.462, 450, 0, []
1627749026.8261, 70, 0, 4138.974, 4139.487, 4184.615, 4154.872, 4612.821, 16186, 0, []
1627749026.8339, 71, 0, 4130.769, 4130.256, 4175.897, 4170.256, 4625.128, 450, 0, []
1627749026.8419, 72, 0, 4153.333, 4127.179, 4160, 4176.923, 4616.923, 450, 0, []
1627749026.8497, 73, 0, 4180, 4126.667, 4160.513, 4164.615, 4564.615, 16179, 0, []
1627749026.8577, 74, 0, 4184.615, 4156.41, 4177.949, 4176.41, 4494.872, 450, 0, []
1627749026.8656, 75, 0, 4166.667, 4184.103, 4178.974, 4205.641, 4437.436, 16195, 0, []
1627749026.8736, 76, 0, 4153.846, 4147.692, 4169.744, 4201.026, 4396.41, 450, 0, []
1627749026.8815, 77, 0, 4172.308, 4105.128, 4168.205, 4169.744, 4356.923, 450, 0, []
1627749026.8895, 78, 0, 4153.846, 4122.051, 4153.846, 4155.385, 4298.974, 450, 0, []
1627749026.8973, 79, 0, 4134.359, 4163.59, 4164.103, 4178.462, 4282.564, 16195, 0, []
1627749026.9053, 80, 0, 4207.692, 4179.487, 4227.179, 4222.564, 4331.282, 450, 0, []
1627749026.9132, 81, 0, 4237.949, 4175.897, 4256.923, 4247.179, 4333.333, 450, 0, []
1627749026.921, 82, 0, 4173.333, 4169.744, 4220.513, 4237.436, 4268.205, 450, 0, []
1627749026.9289, 83, 0, 4167.692, 4174.872, 4196.923, 4216.41, 4228.205, 16195, 0, []
1627749026.9366, 84, 0, 4188.205, 4191.282, 4207.692, 4197.436, 4206.667, 450, 0, []
1627749026.9445, 85, 0, 4149.744, 4190.769, 4212.821, 4202.564, 4158.974, 450, 0, []
1627749026.9523, 86, 0, 4160, 4192.821, 4215.385, 4225.128, 4128.718, 450, 0, []
1627749026.9602, 87, 0, 4203.077, 4190.256, 4207.179, 4231.795, 4110.769, 16195, 0, []
1627749026.968, 88, 0, 4151.282, 4165.641, 4175.897, 4217.949, 4055.385, 450, 0, []
1627749026.9759, 89, 0, 4112.821, 4183.077, 4178.462, 4206.154, 4016.41, 450, 0, []
1627749026.9836, 90, 0, 4113.846, 4218.974, 4209.744, 4214.359, 4002.564, 450, 0, []
1627749026.9916, 91, 0, 4119.487, 4203.59, 4208.718, 4220, 3954.359, 16195, 0, []
1627749026.9995, 92, 0, 4124.615, 4180, 4188.205, 4203.077, 3911.282, 450, 0, []
1627749027.0075, 93, 0, 4060, 4196.41, 4183.077, 4163.59, 3889.744, 450, 0, []
1627749027.0154, 94, 0, 4055.897, 4200, 4179.487, 4132.308, 3857.949, 450, 0, []
1627749027.0233, 95, 0, 4099.487, 4144.103, 4138.462, 4115.385, 3807.179, 16195, 0, []
1627749027.0312, 96, 0, 4089.744, 4155.385, 4135.897, 4082.051, 3796.923, 450, 0, []
1627749027.0392, 97, 0, 4093.333, 4241.026, 4197.949, 4087.692, 3838.462, 450, 0, []
1627749027.0471, 98, 0, 4092.821, 4238.974, 4216.41, 4125.128, 3841.026, 450, 0, []
1627749027.0551, 99, 0, 4052.821, 4149.231, 4161.538, 4084.615, 3783.59, 16195, 0, []
1627749027.063, 100, 0, 4110.256, 4172.821, 4155.385, 4043.077, 3772.821, 450, 0, []
1627749027.0707, 101, 0, 4195.897, 4265.128, 4211.282, 4102.564, 3810.256, 450, 0, []
1627749027.0786, 102, 0, 4029.744, 4203.59, 4168.718, 4129.744, 3724.615, 450, 0, []
1627749027.0864, 103, 0, 3879.487, 4105.641, 4097.436, 4100, 3616.41, 16195, 0, []
1627749027.0943, 104, 0, 3904.615, 4130.769, 4124.103, 4130.256, 3629.744, 450, 0, []
1627749027.1021, 105, 0, 3971.282, 4200.513, 4168.718, 4042.051, 3662.564, 450, 0, []
1627749027.1099, 106, 0, 4093.333, 4228.718, 4188.205, 3896.923, 3701.538, 450, 0, []
1627749027.1177, 107, 0, 4053.846, 4225.128, 4177.436, 3929.744, 3711.795, 16195, 0, []
1627749027.1256, 108, 0, 3848.205, 4177.949, 4128.205, 4013.333, 3633.333, 450, 0, []
1627749027.1334, 109, 0, 3831.795, 4152.308, 4112.308, 4114.359, 3595.897, 450, 0, []
1627749027.1413, 110, 0, 3936.41, 4202.564, 4163.077, 4191.282, 3643.59, 450, 0, []
1627749027.1491, 111, 0, 3914.359, 4189.231, 4173.333, 3998.462, 3639.487, 16195, 0, []
1627749027.157, 112, 0, 3907.179, 4137.436, 4148.718, 3824.615, 3627.692, 450, 0, []
1627749027.1649, 113, 0, 3933.846, 4172.821, 4156.923, 4015.385, 3669.744, 450, 0, []
1627749027.1729, 114, 0, 3824.103, 4188.718, 4112.821, 4133.333, 3621.026, 450, 0, []
1627749027.1808, 115, 0, 3765.128, 4121.026, 4045.128, 3983.59, 3544.615, 16195, 0, []
1627749027.1888, 116, 0, 3822.051, 4112.308, 4055.897, 3954.359, 3565.641, 450, 0, []
1627749027.1966, 117, 0, 3821.538, 4148.205, 4093.846, 4023.077, 3591.795, 450, 0, []
1627749027.2046, 118, 0, 3811.282, 4150.256, 4114.872, 4036.41, 3597.436, 450, 0, []
1627749027.2125, 119, 0, 3829.744, 4147.179, 4122.564, 4038.974, 3605.128, 16195, 0, []
1627749027.2204, 120, 0, 3800.513, 4130.769, 4101.538, 4018.974, 3578.974, 450, 0, []
1627749027.2283, 121, 0, 3775.385, 4114.359, 4092.308, 3997.436, 3555.385, 450, 0, []
1627749027.2361, 122, 0, 3801.026, 4117.436, 4120.513, 4017.949, 3580.513, 450, 0, []
1627749027.2439, 123, 0, 3803.077, 4110.769, 4124.615, 4026.667, 3589.744, 16195, 0, []
1627749027.2517, 124, 0, 3780, 4090.256, 4112.308, 4030.256, 3570.769, 450, 0, []
1627749027.2596, 125, 0, 3803.077, 4091.282, 4125.128, 4053.846, 3585.128, 450, 0, []
1627749027.2674, 126, 0, 3826.154, 4090.256, 4124.103, 4065.128, 3600.513, 450, 0, []
1627749027.2753, 127, 0, 3811.795, 4065.641, 4107.179, 4066.667, 3582.051, 16195, 0, []
1627749027.283, 128, 0, 3785.128, 4044.615, 4095.385, 4074.872, 3553.846, 450, 0, []
1627749027.2909, 0, 0, 3773.333, 4050.256, 4098.462, 4094.872, 3544.615, 450, 0, []
1627749027.2987, 1, 0, 3780.513, 4059.487, 4104.615, 4120.513, 3553.846, 450, 0, []
1627749027.3067, 2, 0, 3787.692, 4052.821, 4098.974, 4142.051, 3567.692, 16179, 0, []
1627749027.3146, 3, 0, 3798.462, 4058.462, 4108.205, 4177.436, 3587.692, 450, 0, []
1627749027.3226, 4, 0, 3816.923, 4084.103, 4132.308, 4221.026, 3608.718, 16169, 0, []
1627749027.3304, 5, 0, 3816.41, 4096.923, 4129.744, 4235.897, 3609.231, 450, 0, []
1627749027.3384, 6, 0, 3798.462, 4092.821, 4110.769, 4232.821, 3596.923, 16157, 0, []
1627749027.3463, 7, 0, 3795.897, 4094.872, 4108.718, 4235.385, 3593.333, 450, 0, []
1627749027.3543, 8, 0, 3810.256, 4100, 4111.795, 4235.385, 3605.641, 450, 0, []
1627749027.3622, 9, 0, 3840, 4112.308, 4118.462, 4254.359, 3645.128, 16185, 0, []
1627749027.3701, 10, 0, 3856.923, 4123.59, 4127.692, 4272.821, 3671.795, 450, 0, []
1627749027.378, 11, 0, 3834.872, 4118.974, 4117.949, 4254.359, 3653.333, 16195, 0, []
1627749027.3858, 12, 0, 3830.769, 4122.051, 4118.974, 4242.564, 3648.205, 450, 0, []
1627749027.3937, 13, 0, 3871.795, 4150.256, 4150.769, 4266.667, 3687.179, 450, 0, []
1627749027.4015, 14, 0, 3878.974, 4165.128, 4163.59, 4276.923, 3698.462, 450, 0, []
1627749027.4094, 15, 0, 3845.128, 4156.923, 4145.641, 4252.308, 3667.692, 16195, 0, []
1627749027.4171, 16, 0, 3850.256, 4163.077, 4141.026, 4235.897, 3672.821, 0, 0, []
1627749027.425, 17, 0, 3869.231, 4175.897, 4144.615, 4242.564, 3705.128, 0, 0, []
1627749027.4328, 18, 0, 3866.154, 4180, 4147.692, 4248.205, 3713.846, 0, 0, []
1627749027.4407, 19, 0, 3876.923, 4184.103, 4159.487, 4245.641, 3717.436, 0, 0, []
1627749027.4485, 20, 0, 3898.462, 4183.59, 4169.231, 4255.897, 3740.513, 0, 0, []
1627749027.4565, 21, 0, 3904.615, 4184.615, 4175.897, 4270.769, 3756.41, 0, 0, []
1627749027.4643, 22, 0, 3911.282, 4192.821, 4180.513, 4259.487, 3758.462, 0, 0, []
1627749027.4723, 23, 0, 3915.897, 4193.333, 4173.333, 4246.154, 3762.051, 0, 0, []
1627749027.4802, 24, 0, 3886.667, 4183.59, 4162.564, 4244.103, 3745.128, 0, 0, []
1627749027.4882, 25, 0, 3874.872, 4192.308, 4168.718, 4238.974, 3738.974, 0, 0, []
1627749027.4961, 26, 0, 3907.692, 4207.692, 4175.385, 4229.231, 3764.103, 0, 0, []
1627749027.504, 27, 0, 3918.462, 4202.564, 4168.205, 4228.205, 3775.897, 0, 0, []
1627749027.5119, 28, 0, 3912.821, 4204.103, 4171.282, 4244.615, 3782.051, 0, 0, []
1627749027.5199, 29, 0, 3930.769, 4218.974, 4186.667, 4266.667, 3806.667, 0, 0, []
1627749027.5278, 30, 0, 3940.513, 4218.462, 4192.821, 4261.538, 3815.897, 0, 0, []
1627749027.5358, 31, 0, 3925.128, 4212.308, 4181.538, 4234.359, 3806.667, 0, 0, []
1627749027.5437, 32, 0, 3923.59, 4220, 4168.718, 4224.103, 3809.231, 0, 0, []
1627749027.5514, 33, 0, 3922.051, 4224.103, 4161.026, 4226.667, 3805.641, 0, 0, []
1627749027.5593, 34, 0, 3893.333, 4211.282, 4145.128, 4211.795, 3781.026, 0, 0, []
1627749027.5671, 35, 0, 3873.333, 4200.513, 4133.333, 4195.897, 3766.667, 0, 0, []
1627749027.575, 36, 0, 3895.385, 4207.179, 4158.462, 4211.282, 3790.769, 0, 0, []
1627749027.5828, 37, 0, 3931.282, 4219.487, 4186.154, 4242.051, 3833.333, 0, 0, []
1627749027.5907, 38, 0, 3920.513, 4215.897, 4167.692, 4226.667, 3827.179, 0, 0, []
1627749027.5986, 39, 0, 3903.077, 4216.41, 4155.897, 4209.231, 3808.205, 0, 0, []
1627749027.6066, 40, 0, 3928.718, 4231.282, 4186.154, 4241.538, 3840, 0, 0, []
1627749027.6145, 41, 0, 3940, 4228.205, 4198.462, 4256.41, 3862.051, 0, 0, []
1627749027.6225, 42, 0, 3917.436, 4209.231, 4175.385, 4237.436, 3840, 0, 0, []
1627749027.6304, 43, 0, 3922.051, 4213.846, 4175.385, 4243.077, 3842.051, 0, 0, []
1627749027.6383, 44, 0, 3947.692, 4236.923, 4195.385, 4261.026, 3870.256, 0, 0, []
1627749027.6462, 45, 0, 3943.077, 4239.487, 4185.641, 4244.615, 3866.667, 0, 0, []
1627749027.6542, 46, 0, 3932.308, 4225.128, 4172.308, 4232.821, 3849.231, 0, 0, []
1627749027.6621, 47, 0, 3956.41, 4231.795, 4188.718, 4256.41, 3873.333, 0, 0, []
1627749027.6701, 48, 0, 3991.795, 4252.308, 4217.436, 4280.513, 3917.436, 0, 0, []
1627749027.6779, 49, 0, 3978.462, 4239.487, 4209.744, 4268.205, 3906.667, 0, 0, []
1627749027.6858, 50, 0, 3942.051, 4214.872, 4173.846, 4237.949, 3870.769, 0, 0, []
1627749027.6937, 51, 0, 3961.538, 4235.385, 4180.513, 4250.769, 3899.487, 0, 0, []
1627749027.7015, 52, 0, 4005.641, 4269.231, 4220.513, 4282.564, 3946.667, 0, 0, []
1627749027.7094, 53, 0, 4002.564, 4261.026, 4222.564, 4278.462, 3935.897, 0, 0, []
1627749027.7172, 54, 0, 3988.205, 4239.487, 4203.59, 4266.154, 3922.564, 0, 0, []
1627749027.725, 55, 0, 4004.103, 4236.923, 4202.564, 4270.256, 3947.179, 0, 0, []
1627749027.7328, 56, 0, 4014.359, 4229.231, 4184.103, 4250.769, 3960.513, 0, 0, []
1627749027.7407, 57, 0, 4043.59, 4233.846, 4171.282, 4235.385, 3998.974, 0, 0, []
1627749027.7485, 58, 0, 4129.231, 4264.615, 4214.359, 4273.846, 4103.59, 0, 0, []
1627749027.7564, 59, 0, 4187.179, 4268.205, 4231.795, 4289.231, 4174.872, 0, 0, []
1627749027.7641, 60, 0, 4191.795, 4241.538, 4189.231, 4251.282, 4180, 0, 0, []
1627749027.7721, 61, 0, 4212.821, 4246.667, 4176.41, 4243.077, 4193.846, 0, 0, []
1627749027.78, 62, 0, 4238.462, 4268.718, 4200.513, 4268.718, 4217.436, 0, 0, []
1627749027.788, 63, 0, 4223.59, 4256.41, 4198.974, 4265.128, 4207.692, 0, 0, []
1627749027.7959, 64, 0, 4196.923, 4241.538, 4189.744, 4246.154, 4189.744, 450, 0, []
1627749027.8039, 65, 0, 4177.949, 4243.077, 4186.154, 4242.564, 4176.41, 450, 0, []
1627749027.8117, 66, 0, 4165.641, 4245.641, 4188.205, 4247.179, 4165.128, 16192, 0, []
1627749027.8197, 67, 0, 4168.205, 4258.974, 4208.205, 4260, 4172.821, 450, 0, []
1627749027.8276, 68, 0, 4171.282, 4268.205, 4222.051, 4272.308, 4184.103, 16182, 0, []
1627749027.8356, 69, 0, 4158.974, 4255.385, 4209.744, 4267.692, 4177.436, 450, 0, []
1627749027.8435, 70, 0, 4131.795, 4233.333, 4188.205, 4247.179, 4150.769, 16161, 0, []
1627749027.8512, 71, 0, 4114.872, 4230.769, 4185.641, 4239.487, 4133.846, 450, 0, []
1627749027.8591, 72, 0, 4124.615, 4246.667, 4198.462, 4252.308, 4143.59, 450, 0, []
1627749027.8669, 73, 0, 4122.564, 4242.051, 4197.436, 4244.615, 4141.026, 16185, 0, []
1627749027.8748, 74, 0, 4103.077, 4225.128, 4195.385, 4226.667, 4126.154, 450, 0, []
1627749027.8826, 75, 0, 4110.256, 4237.949, 4215.897, 4242.051, 4138.974, 16208, 0, []
1627749027.8905, 76, 0, 4118.462, 4255.897, 4230.769, 4252.821, 4151.282, 450, 0, []
1627749027.8982, 77, 0, 4092.821, 4247.179, 4216.41, 4233.333, 4131.795, 450, 0, []
1627749027.9062, 78, 0, 4076.41, 4241.538, 4214.872, 4231.282, 4120, 450, 0, []
1627749027.9141, 79, 0, 4078.462, 4242.564, 4225.641, 4239.487, 4122.564, 16208, 0, []
1627749027.9221, 80, 0, 4079.487, 4238.462, 4218.974, 4234.872, 4121.538, 450, 0, []
1627749027.93, 81, 0, 4087.179, 4242.051, 4210.256, 4232.308, 4123.59, 450, 0, []
1627749027.938, 82, 0, 4094.359, 4246.154, 4212.308, 4238.974, 4129.231, 450, 0, []
1627749027.9458, 83, 0, 4096.41, 4248.205, 4216.41, 4250.256, 4134.872, 16208, 0, []
1627749027.9538, 84, 0, 4087.179, 4244.103, 4211.282, 4247.179, 4123.59, 450, 0, []
1627749027.9617, 85, 0, 4071.282, 4231.795, 4202.051, 4229.744, 4102.051, 450, 0, []
1627749027.9697, 86, 0, 4077.949, 4228.718, 4198.974, 4236.41, 4106.154, 450, 0, []
1627749027.9776, 87, 0, 4090.769, 4234.359, 4203.077, 4257.436, 4115.897, 16208, 0, []
1627749027.9855, 88, 0, 4067.692, 4231.282, 4199.487, 4240, 4093.846, 450, 0, []
1627749027.9934, 89, 0, 4035.385, 4224.615, 4191.795, 4210.769, 4067.179, 450, 0, []
1627749028.0012, 90, 0, 4041.538, 4233.846, 4200, 4220.513, 4073.333, 450, 0, []
1627749028.0091, 91, 0, 4061.026, 4246.667, 4216.41, 4240, 4093.333, 16208, 0, []
1627749028.0169, 92, 0, 4067.692, 4250.256, 4218.974, 4239.487, 4102.051, 450, 0, []
1627749028.0248, 93, 0, 4073.333, 4253.846, 4214.872, 4238.974, 4104.103, 450, 0, []
1627749028.0325, 94, 0, 4084.103, 4261.538, 4226.154, 4252.308, 4111.282, 450, 0, []
1627749028.0404, 95, 0, 4079.487, 4258.974, 4224.615, 4252.821, 4107.692, 16208, 0, []
1627749028.0482, 96, 0, 4053.846, 4242.564, 4191.282, 4227.179, 4083.59, 450, 0, []
1627749028.0561, 97, 0, 4050.256, 4238.462, 4181.026, 4217.436, 4074.359, 450, 0, []
1627749028.0639, 98, 0, 4073.846, 4248.205, 4207.692, 4237.436, 4090.256, 450, 0, []
1627749028.0717, 99, 0, 4081.538, 4248.718, 4219.487, 4251.795, 4096.923, 16208, 0, []
1627749028.0795, 100, 0, 4053.333, 4232.821, 4183.59, 4228.718, 4071.282, 450, 0, []
1627749028.0875, 101, 0, 4030.769, 4224.615, 4155.385, 4204.103, 4049.231, 450, 0, []
1627749028.0954, 102, 0, 4053.846, 4243.077, 4183.59, 4224.615, 4069.744, 450, 0, []
1627749028.1034, 103, 0, 4091.795, 4269.744, 4224.615, 4258.462, 4103.59, 16208, 0, []
1627749028.1113, 104, 0, 4090.769, 4265.641, 4221.538, 4249.744, 4095.897, 450, 0, []
1627749028.1192, 105, 0, 4056.923, 4235.897, 4189.231, 4211.282, 4056.923, 450, 0, []
1627749028.1271, 106, 0, 4054.359, 4234.872, 4190.256, 4209.744, 4055.897, 450, 0, []
1627749028.1351, 107, 0, 4074.872, 4254.872, 4208.718, 4233.333, 4079.487, 16208, 0, []
1627749028.143, 108, 0, 4070.769, 4248.205, 4202.051, 4225.128, 4074.872, 450, 0, []
1627749028.1508, 109, 0, 4067.179, 4236.923, 4194.872, 4209.231, 4069.744, 450, 0, []
1627749028.1586, 110, 0, 4086.667, 4245.641, 4201.538, 4221.026, 4086.667, 450, 0, []
1627749028.1664, 111, 0, 4097.949, 4251.795, 4205.641, 4231.282, 4098.462, 16208, 0, []
1627749028.1743, 112, 0, 4089.231, 4243.59, 4201.538, 4218.462, 4091.795, 450, 0, []
1627749028.1821, 113, 0, 4080.513, 4236.41, 4188.205, 4208.205, 4079.487, 450, 0, []
1627749028.19, 114, 0, 4082.564, 4237.436, 4182.564, 4214.872, 4076.41, 450, 0, []
1627749028.1978, 115, 0, 4104.103, 4249.744, 4204.103, 4232.308, 4100, 16208, 0, []
1627749028.2056, 116, 0, 4126.154, 4258.974, 4220.513, 4248.718, 4129.744, 450, 0, []
1627749028.2134, 117, 0, 4122.051, 4256.923, 4207.179, 4244.615, 4128.205, 450, 0, []
1627749028.2213, 118, 0, 4107.179, 4259.487, 4189.744, 4232.821, 4110.256, 450, 0, []
1627749028.2291, 119, 0, 4109.744, 4264.103, 4184.615, 4233.333, 4110.769, 16208, 0, []
1627749028.2371, 120, 0, 4117.436, 4255.385, 4189.231, 4231.282, 4117.436, 450, 0, []
1627749028.2449, 121, 0, 4117.949, 4245.641, 4192.821, 4225.128, 4123.59, 450, 0, []
1627749028.2529, 122, 0, 4125.128, 4250.256, 4190.769, 4227.692, 4135.897, 450, 0, []
1627749028.2608, 123, 0, 4143.59, 4250.769, 4193.333, 4233.846, 4158.462, 16208, 0, []
1627749028.2688, 124, 0, 4168.205, 4243.59, 4198.974, 4231.282, 4188.205, 450, 0, []
1627749028.2767, 125, 0, 4187.692, 4249.744, 4193.846, 4220, 4209.231, 450, 0, []
1627749028.2847, 126, 0, 4202.564, 4249.744, 4176.923, 4210.256, 4223.077, 450, 0, []
1627749028.2925, 127, 0, 4213.333, 4229.744, 4160.513, 4195.897, 4236.923, 16208, 0, []
1627749028.3005, 128, 0, 4228.205, 4223.59, 4153.846, 4178.462, 4254.359, 450, 0, []
1627749028.3084, 0, 0, 4251.795, 4237.949, 4152.821, 4165.128, 4269.231, 450, 0, []
1627749028.3162, 1, 0, 4282.564, 4246.667, 4158.974, 4165.641, 4288.205, 450, 0, []
1627749028.3241, 2, 0, 4312.821, 4247.179, 4170.256, 4179.487, 4312.308, 16186, 0, []
1627749028.3318, 3, 0, 4316.923, 4237.436, 4167.179, 4182.051, 4311.795, 450, 0, []
1627749028.3397, 4, 0, 4303.59, 4230.769, 4156.923, 4177.949, 4299.487, 16181, 0, []
1627749028.3475, 5, 0, 4298.974, 4241.026, 4167.179, 4187.179, 4300, 450, 0, []
1627749028.3554, 6, 0, 4293.333, 4241.026, 4178.462, 4188.718, 4290.256, 16163, 0, []
1627749028.3632, 7, 0, 4263.59, 4221.026, 4163.59, 4164.103, 4253.846, 450, 0, []
1627749028.3711, 8, 0, 4232.821, 4217.949, 4155.385, 4152.821, 4228.718, 450, 0, []
1627749028.3788, 9, 0, 4229.744, 4229.231, 4167.692, 4165.641, 4224.103, 16182, 0, []
1627749028.3868, 10, 0, 4226.667, 4228.718, 4173.333, 4165.641, 4210.256, 450, 0, []
1627749028.3947, 11, 0, 4197.949, 4219.487, 4163.077, 4152.821, 4184.103, 16207, 0, []
1627749028.4027, 12, 0, 4160.513, 4212.308, 4149.231, 4145.641, 4158.974, 450, 0, []
1627749028.4106, 13, 0, 4154.359, 4220.513, 4158.462, 4158.462, 4157.436, 450, 0, []
1627749028.4186, 14, 0, 4152.821, 4223.077, 4164.615, 4165.128, 4162.051, 450, 0, []
1627749028.4264, 15, 0, 4129.231, 4202.051, 4141.538, 4142.564, 4141.538, 16207, 0, []
1627749028.4343, 16, 0, 4125.641, 4193.846, 4141.026, 4138.462, 4124.103, 0, 0, []
1627749028.4421, 17, 0, 4132.821, 4203.59, 4160.513, 4160.513, 4124.615, 0, 0, []
1627749028.4501, 18, 0, 4106.667, 4192.308, 4138.462, 4150.256, 4105.641, 0, 0, []
1627749028.458, 19, 0, 4083.59, 4184.103, 4115.897, 4126.154, 4083.59, 0, 0, []
1627749028.4657, 20, 0, 4100.513, 4203.077, 4141.538, 4138.974, 4092.821, 0, 0, []
1627749028.4736, 21, 0, 4106.154, 4206.154, 4157.436, 4145.641, 4098.462, 0, 0, []
1627749028.4814, 22, 0, 4089.744, 4193.846, 4141.538, 4126.667, 4088.205, 0, 0, []
1627749028.4893, 23, 0, 4089.744, 4192.821, 4133.333, 4125.128, 4088.205, 0, 0, []
1627749028.4971, 24, 0, 4092.821, 4191.795, 4131.795, 4135.385, 4090.769, 0, 0, []
1627749028.505, 25, 0, 4082.051, 4185.128, 4121.026, 4131.795, 4077.436, 0, 0, []
1627749028.5127, 26, 0, 4071.282, 4182.564, 4112.821, 4127.179, 4064.103, 0, 0, []
1627749028.5206, 27, 0, 4081.026, 4184.615, 4122.564, 4135.385, 4077.436, 0, 0, []
1627749028.5284, 28, 0, 4096.923, 4186.667, 4143.077, 4145.128, 4098.462, 0, 0, []
1627749028.5363, 29, 0, 4100.513, 4187.692, 4147.692, 4143.59, 4095.897, 0, 0, []
1627749028.5441, 30, 0, 4090.769, 4187.179, 4136.923, 4130.256, 4079.487, 0, 0, []
1627749028.552, 31, 0, 4074.359, 4190.256, 4138.462, 4113.333, 4066.154, 0, 0, []
1627749028.5599, 32, 0, 4067.179, 4187.692, 4143.59, 4108.718, 4053.333, 0, 0, []
1627749028.5679, 33, 0, 4067.179, 4180, 4135.385, 4108.205, 4045.641, 0, 0, []
1627749028.5758, 34, 0, 4065.641, 4183.59, 4125.641, 4106.667, 4053.846, 0, 0, []
1627749028.5838, 35, 0, 4067.179, 4186.154, 4117.436, 4111.282, 4063.59, 0, 0, []
1627749028.5917, 36, 0, 4066.154, 4173.333, 4106.154, 4111.282, 4054.872, 0, 0, []
1627749028.5996, 37, 0, 4060, 4166.154, 4106.667, 4104.103, 4042.564, 0, 0, []
1627749028.6075, 38, 0, 4064.103, 4172.821, 4118.974, 4105.641, 4052.308, 0, 0, []
1627749028.6153, 39, 0, 4067.179, 4167.692, 4115.385, 4110.256, 4058.974, 0, 0, []
1627749028.6232, 40, 0, 4049.231, 4152.308, 4102.564, 4105.128, 4041.026, 0, 0, []
1627749028.631, 41, 0, 4036.923, 4149.231, 4103.077, 4102.564, 4027.179, 0, 0, []
1627749028.6388, 42, 0, 4045.641, 4155.385, 4103.59, 4109.231, 4028.718, 0, 0, []
1627749028.6466, 43, 0, 4046.154, 4154.359, 4092.308, 4107.179, 4024.103, 0, 0, []
1627749028.6545, 44, 0, 4033.333, 4155.897, 4085.641, 4091.282, 4011.282, 0, 0, []
1627749028.6623, 45, 0, 4034.359, 4164.103, 4092.308, 4089.231, 4015.385, 0, 0, []
1627749028.6702, 46, 0, 4045.641, 4160, 4096.41, 4100, 4030.769, 0, 0, []
1627749028.678, 47, 0, 4042.564, 4149.744, 4089.231, 4096.923, 4031.795, 0, 0, []
1627749028.6858, 48, 0, 4039.487, 4150.769, 4084.103, 4087.179, 4030.256, 0, 0, []
1627749028.6936, 49, 0, 4044.103, 4152.821, 4092.308, 4093.333, 4041.538, 0, 0, []
1627749028.7016, 50, 0, 4046.154, 4154.359, 4096.923, 4104.103, 4047.692, 0, 0, []
1627749028.7095, 51, 0, 4046.667, 4157.436, 4087.179, 4096.41, 4041.026, 0, 0, []
1627749028.7175, 52, 0, 4048.718, 4153.846, 4072.821, 4076.923, 4029.744, 0, 0, []
1627749028.7253, 53, 0, 4047.179, 4157.436, 4066.667, 4071.282, 4022.564, 0, 0, []
1627749028.7333, 54, 0, 4046.154, 4167.692, 4078.462, 4082.564, 4026.154, 0, 0, []
1627749028.7412, 55, 0, 4048.205, 4160.513, 4087.179, 4088.718, 4037.436, 0, 0, []
1627749028.7492, 56, 0, 4050.769, 4152.821, 4078.462, 4082.564, 4040.513, 0, 0, []
1627749028.7571, 57, 0, 4045.641, 4156.41, 4064.615, 4074.359, 4030.256, 0, 0, []
1627749028.7651, 58, 0, 4032.308, 4153.846, 4061.026, 4075.897, 4018.974, 0, 0, []
1627749028.7729, 59, 0, 4033.333, 4149.231, 4082.051, 4089.231, 4022.564, 0, 0, []
1627749028.7807, 60, 0, 4050.256, 4157.949, 4098.462, 4098.974, 4036.41, 0, 0, []
1627749028.7886, 61, 0, 4055.385, 4161.026, 4077.949, 4090.769, 4036.923, 0, 0, []
1627749028.7964, 62, 0, 4044.103, 4147.179, 4045.641, 4065.128, 4019.487, 0, 0, []
1627749028.8043, 63, 0, 4038.462, 4137.436, 4044.615, 4056.41, 4014.872, 0, 0, []
1627749028.812, 64, 0, 4047.692, 4147.179, 4072.308, 4077.436, 4033.846, 450, 0, []
1627749028.8199, 65, 0, 4052.821, 4153.846, 4080, 4086.154, 4037.949, 450, 0, []
1627749028.8277, 66, 0, 4042.564, 4144.103, 4059.487, 4072.821, 4019.487, 16182, 0, []
1627749028.8356, 67, 0, 4046.154, 4151.795, 4062.051, 4080.513, 4026.667, 450, 0, []
1627749028.8434, 68, 0, 4067.179, 4174.872, 4086.667, 4102.051, 4055.897, 16180, 0, []
1627749028.8514, 69, 0, 4065.641, 4169.744, 4083.077, 4102.564, 4055.897, 450, 0, []
1627749028.8592, 70, 0, 4054.872, 4157.436, 4068.205, 4101.026, 4046.154, 16163, 0, []
1627749028.8672, 71, 0, 4071.282, 4171.282, 4084.103, 4115.897, 4063.59, 450, 0, []
1627749028.8751, 72, 0, 4093.333, 4183.59, 4110.769, 4122.564, 4082.051, 450, 0, []
1627749028.8831, 73, 0, 4090.769, 4177.436, 4106.154, 4112.308, 4073.846, 16175, 0, []
1627749028.891, 74, 0, 4077.436, 4163.077, 4079.487, 4103.077, 4058.462, 450, 0, []
1627749028.8989, 75, 0, 4074.872, 4153.846, 4065.641, 4098.462, 4058.974, 16207, 0, []
1627749028.9068, 76, 0, 4076.923, 4157.949, 4068.205, 4092.308, 4067.692, 450, 0, []
1627749028.9148, 77, 0, 4069.744, 4163.077, 4068.718, 4089.744, 4067.692, 450, 0, []
1627749028.9227, 78, 0, 4061.538, 4158.462, 4061.538, 4090.769, 4057.949, 450, 0, []
1627749028.9307, 79, 0, 4063.077, 4155.385, 4064.615, 4092.308, 4058.462, 16207, 0, []
1627749028.9386, 80, 0, 4081.538, 4167.692, 4090.256, 4111.282, 4081.026, 450, 0, []
1627749028.9463, 81, 0, 4100.513, 4181.538, 4109.231, 4132.821, 4101.026, 450, 0, []
1627749028.9542, 82, 0, 4101.538, 4183.077, 4101.538, 4125.128, 4094.359, 450, 0, []
1627749028.962, 83, 0, 4088.718, 4173.846, 4084.615, 4105.128, 4076.923, 16207, 0, []
1627749028.9699, 84, 0, 4078.462, 4165.128, 4077.949, 4089.231, 4067.692, 450, 0, []
1627749028.9777, 85, 0, 4087.179, 4174.359, 4081.026, 4091.282, 4076.923, 450, 0, []
1627749028.9856, 86, 0, 4110.769, 4190.256, 4090.769, 4114.872, 4103.077, 450, 0, []
1627749028.9935, 87, 0, 4116.923, 4186.667, 4098.974, 4127.179, 4108.205, 16207, 0, []
1627749029.0015, 88, 0, 4090.769, 4172.308, 4093.846, 4108.718, 4084.615, 450, 0, []
1627749029.0094, 89, 0, 4083.077, 4178.974, 4089.231, 4096.923, 4082.051, 450, 0, []
1627749029.0174, 90, 0, 4115.897, 4199.487, 4101.538, 4117.436, 4109.231, 450, 0, []
1627749029.0253, 91, 0, 4128.205, 4196.41, 4106.154, 4128.718, 4115.385, 16207, 0, []
1627749029.0332, 92, 0, 4105.641, 4179.487, 4093.333, 4112.308, 4093.333, 450, 0, []
1627749029.0411, 93, 0, 4101.538, 4183.077, 4099.487, 4113.846, 4091.795, 450, 0, []
1627749029.0491, 94, 0, 4123.59, 4200.513, 4126.154, 4139.487, 4114.872, 450, 0, []
1627749029.057, 95, 0, 4133.333, 4207.692, 4130.769, 4141.026, 4128.205, 16207, 0, []
1627749029.065, 96, 0, 4124.103, 4202.051, 4113.333, 4119.487, 4121.026, 450, 0, []
1627749029.0729, 97, 0, 4123.59, 4192.308, 4111.282, 4122.564, 4115.385, 450, 0, []
1627749029.0806, 98, 0, 4137.436, 4186.667, 4122.051, 4143.077, 4131.282, 450, 0, []
1627749029.0885, 99, 0, 4140, 4188.205, 4121.026, 4143.59, 4141.026, 16207, 0, []
1627749029.0963, 100, 0, 4122.051, 4187.692, 4111.282, 4128.205, 4123.59, 450, 0, []
1627749029.1042, 101, 0, 4109.744, 4184.103, 4104.103, 4117.436, 4104.615, 450, 0, []
1627749029.112, 102, 0, 4116.923, 4188.205, 4111.282, 4120, 4113.333, 450, 0, []
1627749029.1198, 103, 0, 4122.564, 4191.282, 4117.436, 4123.59, 4127.179, 16207, 0, []
1627749029.1276, 104, 0, 4126.667, 4185.641, 4116.41, 4128.205, 4131.282, 450, 0, []
1627749029.1355, 105, 0, 4136.923, 4182.564, 4118.974, 4135.385, 4133.846, 450, 0, []
1627749029.1433, 106, 0, 4141.026, 4181.538, 4121.026, 4138.462, 4128.718, 450, 0, []
1627749029.1512, 107, 0, 4138.462, 4183.077, 4122.051, 4144.615, 4127.692, 16207, 0, []
1627749029.159, 108, 0, 4135.897, 4191.795, 4110.256, 4142.564, 4130.769, 450, 0, []
1627749029.1669, 109, 0, 4141.538, 4196.923, 4085.128, 4123.59, 4125.128, 450, 0, []
1627749029.1749, 110, 0, 4155.897, 4204.103, 4076.41, 4116.923, 4127.692, 450, 0, []
1627749029.1828, 111, 0, 4160, 4214.359, 4085.128, 4125.128, 4143.077, 16207, 0, []
1627749029.1908, 112, 0, 4156.923, 4210.256, 4092.821, 4118.974, 4151.795, 450, 0, []
1627749029.1987, 113, 0, 4158.974, 4193.846, 4092.821, 4107.179, 4153.333, 450, 0, []
1627749029.2066, 114, 0, 4163.59, 4190.256, 4090.256, 4104.615, 4163.59, 450, 0, []
1627749029.2145, 115, 0, 4188.205, 4201.026, 4096.923, 4110.256, 4200, 16207, 0, []
1627749029.2225, 116, 0, 4242.051, 4204.615, 4115.385, 4125.128, 4258.974, 450, 0, []
1627749029.2304, 117, 0, 4304.103, 4200.513, 4127.179, 4137.436, 4315.897, 450, 0, []
1627749029.2384, 118, 0, 4366.154, 4205.128, 4127.179, 4137.949, 4365.128, 450, 0, []
1627749029.2463, 119, 0, 4427.179, 4218.974, 4134.359, 4133.846, 4408.718, 16207, 0, []
1627749029.2542, 120, 0, 4448.718, 4222.051, 4135.897, 4127.179, 4422.051, 450, 0, []
1627749029.2621, 121, 0, 4431.795, 4211.282, 4123.077, 4125.641, 4412.821, 450, 0, []
1627749029.2701, 122, 0, 4429.744, 4208.718, 4126.667, 4135.385, 4417.949, 450, 0, []
1627749029.278, 123, 0, 4432.821, 4210.256, 4137.436, 4141.538, 4416.41, 16207, 0, []
1627749029.286, 124, 0, 4409.231, 4205.641, 4135.897, 4137.949, 4388.718, 450, 0, []
1627749029.294, 125, 0, 4378.462, 4199.487, 4146.154, 4135.385, 4363.59, 450, 0, []
1627749029.3018, 126, 0, 4367.179, 4201.026, 4164.103, 4139.487, 4353.333, 450, 0, []
1627749029.3098, 127, 0, 4354.359, 4207.179, 4161.026, 4144.615, 4338.462, 16207, 0, []
1627749029.3177, 128, 0, 4320, 4204.103, 4143.59, 4140.513, 4308.718, 450, 0, []
1627749029.3257, 0, 0, 4294.359, 4200, 4138.974, 4140.513, 4291.282, 450, 0, []
1627749029.3336, 1, 0, 4283.077, 4198.974, 4146.154, 4142.564, 4282.564, 450, 0, []
1627749029.3415, 2, 0, 4262.051, 4196.923, 4147.692, 4132.821, 4257.949, 16184, 0, []
1627749029.3494, 3, 0, 4248.718, 4201.026, 4152.308, 4135.385, 4241.538, 450, 0, []
1627749029.3574, 4, 0, 4252.821, 4210.769, 4166.154, 4155.897, 4245.641, 16181, 0, []
1627749029.3653, 5, 0, 4227.179, 4198.974, 4150.256, 4143.59, 4218.462, 450, 0, []
1627749029.3733, 6, 0, 4176.41, 4174.872, 4109.744, 4101.538, 4162.051, 16213, 0, []
1627749029.3812, 7, 0, 4181.538, 4184.103, 4118.462, 4106.667, 4163.59, 450, 0, []
1627749029.3891, 8, 0, 4218.974, 4215.897, 4161.538, 4150.769, 4211.795, 450, 0, []
1627749029.397, 9, 0, 4209.744, 4220.513, 4165.128, 4158.462, 4216.41, 16181, 0, []
1627749029.405, 10, 0, 4172.308, 4197.436, 4144.103, 4131.795, 4185.128, 450, 0, []
1627749029.4129, 11, 0, 4154.872, 4180.513, 4141.026, 4117.436, 4166.154, 16205, 0, []
1627749029.4209, 12, 0, 4156.923, 4183.59, 4142.564, 4120.513, 4166.667, 450, 0, []
1627749029.4287, 13, 0, 4172.821, 4189.744, 4140, 4132.821, 4178.974, 450, 0, []
1627749029.4367, 14, 0, 4183.59, 4187.179, 4137.436, 4141.026, 4189.744, 450, 0, []
1627749029.4446, 15, 0, 4173.846, 4181.538, 4136.41, 4138.974, 4186.154, 16205, 0, []
1627749029.4525, 16, 0, 4170.256, 4187.692, 4140, 4143.077, 4181.538, 0, 0, []
1627749029.4605, 17, 0, 4181.026, 4195.897, 4140, 4155.897, 4182.564, 0, 0, []
1627749029.4685, 18, 0, 4180, 4192.821, 4136.41, 4159.487, 4180, 0, 0, []
1627749029.4764, 19, 0, 4162.564, 4185.641, 4138.974, 4148.718, 4167.692, 0, 0, []
1627749029.4843, 20, 0, 4148.718, 4183.077, 4145.128, 4137.436, 4152.821, 0, 0, []
1627749029.4923, 21, 0, 4156.41, 4186.154, 4152.821, 4142.051, 4156.41, 0, 0, []
1627749029.5002, 22, 0, 4168.205, 4196.41, 4161.538, 4155.897, 4167.179, 0, 0, []
1627749029.5082, 23, 0, 4153.846, 4195.897, 4153.846, 4152.821, 4155.897, 0, 0, []
1627749029.5161, 24, 0, 4128.205, 4182.051, 4137.949, 4132.308, 4133.333, 0, 0, []
1627749029.524, 25, 0, 4135.385, 4183.59, 4140.513, 4132.821, 4135.897, 0, 0, []
1627749029.5319, 26, 0, 4153.333, 4189.231, 4144.103, 4147.179, 4147.179, 0, 0, []
1627749029.5399, 27, 0, 4148.718, 4176.923, 4137.436, 4146.154, 4140.513, 0, 0, []
1627749029.5478, 28, 0, 4139.487, 4173.846, 4137.949, 4137.949, 4136.41, 0, 0, []
1627749029.5558, 29, 0, 4136.923, 4184.615, 4135.897, 4129.231, 4131.282, 0, 0, []
1627749029.5636, 30, 0, 4136.923, 4188.205, 4126.667, 4128.718, 4126.667, 0, 0, []
1627749029.5716, 31, 0, 4146.154, 4188.205, 4134.872, 4147.692, 4138.974, 0, 0, []
1627749029.5795, 32, 0, 4154.872, 4188.718, 4140, 4155.385, 4147.179, 0, 0, []
1627749029.5875, 33, 0, 4152.821, 4184.615, 4123.077, 4139.487, 4137.436, 0, 0, []
1627749029.5954, 34, 0, 4150.256, 4181.538, 4116.41, 4134.359, 4135.897, 0, 0, []
1627749029.6034, 35, 0, 4146.667, 4184.103, 4121.538, 4136.923, 4139.487, 0, 0, []
1627749029.6112, 36, 0, 4137.436, 4186.667, 4118.974, 4124.103, 4128.718, 0, 0, []
1627749029.6192, 37, 0, 4133.333, 4183.077, 4118.462, 4115.897, 4125.641, 0, 0, []
1627749029.6272, 38, 0, 4135.897, 4175.897, 4117.949, 4121.026, 4135.897, 0, 0, []
1627749029.6351, 39, 0, 4151.795, 4181.538, 4122.051, 4134.872, 4145.641, 0, 0, []
1627749029.6431, 40, 0, 4173.846, 4198.462, 4134.359, 4153.846, 4157.436, 0, 0, []
1627749029.651, 41, 0, 4171.282, 4205.128, 4132.821, 4158.974, 4159.487, 0, 0, []
1627749029.6589, 42, 0, 4156.923, 4197.949, 4126.667, 4149.744, 4151.282, 0, 0, []
1627749029.6668, 43, 0, 4157.949, 4187.179, 4125.128, 4143.59, 4149.231, 0, 0, []
1627749029.6748, 44, 0, 4163.077, 4183.077, 4122.051, 4144.103, 4153.333, 0, 0, []
1627749029.6827, 45, 0, 4152.308, 4179.487, 4122.051, 4139.487, 4143.077, 0, 0, []
1627749029.6907, 46, 0, 4133.333, 4169.231, 4124.103, 4124.615, 4122.051, 0, 0, []
1627749029.6985, 47, 0, 4133.333, 4169.231, 4125.128, 4118.974, 4119.487, 0, 0, []
1627749029.7065, 48, 0, 4157.949, 4184.103, 4135.897, 4135.385, 4144.615, 0, 0, []
1627749029.7144, 49, 0, 4176.41, 4195.385, 4156.923, 4154.872, 4169.744, 0, 0, []
1627749029.7224, 50, 0, 4174.359, 4193.846, 4156.923, 4161.026, 4175.897, 0, 0, []
1627749029.7303, 51, 0, 4165.128, 4181.538, 4142.564, 4151.282, 4168.718, 0, 0, []
1627749029.7383, 52, 0, 4164.615, 4174.359, 4137.949, 4138.462, 4165.641, 0, 0, []
1627749029.7461, 53, 0, 4172.308, 4180.513, 4138.974, 4135.385, 4170.769, 0, 0, []
1627749029.7541, 54, 0, 4173.333, 4184.103, 4138.462, 4137.949, 4172.821, 0, 0, []
1627749029.762, 55, 0, 4166.154, 4183.077, 4135.897, 4136.923, 4168.205, 0, 0, []
1627749029.77, 56, 0, 4165.641, 4185.641, 4125.641, 4137.949, 4169.231, 0, 0, []
1627749029.7779, 57, 0, 4169.744, 4187.179, 4108.718, 4134.359, 4170.769, 0, 0, []
1627749029.7856, 58, 0, 4168.205, 4188.205, 4101.026, 4127.179, 4166.154, 0, 0, []
1627749029.7936, 59, 0, 4162.564, 4184.615, 4108.205, 4130.769, 4162.051, 0, 0, []
1627749029.8015, 60, 0, 4149.744, 4175.897, 4116.923, 4138.974, 4152.821, 0, 0, []
1627749029.8095, 61, 0, 4146.667, 4176.923, 4128.205, 4150.769, 4151.282, 0, 0, []
1627749029.8174, 62, 0, 4166.667, 4186.667, 4151.282, 4171.282, 4174.359, 0, 0, []
1627749029.8254, 63, 0, 4173.846, 4197.436, 4162.051, 4176.41, 4186.667, 0, 0, []
1627749029.8332, 64, 0, 4150.769, 4196.41, 4142.564, 4158.974, 4166.667, 450, 0, []
1627749029.8412, 65, 0, 4140, 4186.154, 4127.179, 4148.205, 4152.821, 450, 0, []
1627749029.8491, 66, 0, 4154.359, 4189.744, 4129.744, 4149.231, 4160.513, 16218, 0, []
1627749029.8571, 67, 0, 4152.821, 4191.282, 4123.077, 4143.077, 4153.846, 450, 0, []
1627749029.865, 68, 0, 4147.179, 4186.667, 4127.692, 4148.718, 4148.205, 16193, 0, []
1627749029.873, 69, 0, 4172.308, 4203.59, 4163.077, 4178.974, 4175.385, 450, 0, []
1627749029.8808, 70, 0, 4192.308, 4223.077, 4183.59, 4196.41, 4195.897, 16162, 0, []
1627749029.8888, 71, 0, 4183.077, 4215.897, 4166.667, 4181.026, 4181.026, 450, 0, []
1627749029.8967, 72, 0, 4181.538, 4210.256, 4158.974, 4169.744, 4172.821, 450, 0, []
1627749029.9047, 73, 0, 4185.641, 4209.231, 4164.103, 4174.359, 4183.077, 16215, 0, []
1627749029.9126, 74, 0, 4163.077, 4188.718, 4149.231, 4166.154, 4168.205, 450, 0, []
1627749029.9203, 75, 0, 4149.231, 4177.436, 4137.436, 4151.282, 4150.256, 16187, 0, []
1627749029.9283, 76, 0, 4166.667, 4189.744, 4146.667, 4151.282, 4162.564, 450, 0, []
1627749029.9362, 77, 0, 4170.256, 4195.897, 4156.923, 4152.821, 4172.308, 450, 0, []
1627749029.9442, 78, 0, 4157.949, 4192.308, 4154.872, 4149.231, 4170.256, 450, 0, []
1627749029.9521, 79, 0, 4172.821, 4197.436, 4152.308, 4150.769, 4190.256, 16187, 0, []
1627749029.9601, 80, 0, 4198.974, 4206.154, 4158.974, 4155.385, 4213.333, 450, 0, []
1627749029.9679, 81, 0, 4206.154, 4198.462, 4164.103, 4158.974, 4215.897, 450, 0, []
1627749029.9759, 82, 0, 4217.436, 4186.154, 4166.667, 4161.026, 4222.564, 450, 0, []
1627749029.9838, 83, 0, 4238.974, 4183.077, 4163.077, 4153.846, 4238.462, 16187, 0, []
1627749029.9918, 84, 0, 4262.051, 4186.667, 4150.769, 4149.744, 4258.974, 450, 0, []
1627749029.9997, 85, 0, 4298.462, 4193.333, 4142.051, 4151.795, 4292.821, 450, 0, []
1627749030.0077, 86, 0, 4340, 4198.974, 4140.513, 4141.026, 4327.692, 450, 0, []
1627749030.0155, 87, 0, 4379.487, 4202.564, 4152.821, 4137.949, 4366.154, 16187, 0, []
1627749030.0235, 88, 0, 4414.359, 4205.641, 4165.641, 4154.872, 4404.615, 450, 0, []
1627749030.0314, 89, 0, 4422.564, 4201.026, 4153.333, 4154.872, 4410.769, 450, 0, []
1627749030.0394, 90, 0, 4403.077, 4194.359, 4138.974, 4144.103, 4389.231, 450, 0, []
1627749030.0473, 91, 0, 4379.487, 4198.462, 4149.744, 4155.385, 4372.821, 16187, 0, []
1627749030.055, 92, 0, 4353.846, 4188.718, 4155.897, 4153.333, 4353.846, 450, 0, []
1627749030.0629, 93, 0, 4332.821, 4171.795, 4147.692, 4138.462, 4334.872, 450, 0, []
1627749030.0707, 94, 0, 4332.821, 4189.744, 4164.615, 4157.949, 4334.872, 450, 0, []
1627749030.0787, 95, 0, 4326.154, 4208.205, 4178.974, 4174.359, 4325.641, 16187, 0, []
1627749030.0866, 96, 0, 4297.436, 4189.744, 4149.744, 4153.333, 4291.282, 450, 0, []
1627749030.0946, 97, 0, 4267.692, 4176.923, 4131.795, 4135.897, 4260.513, 450, 0, []
1627749030.1024, 98, 0, 4251.282, 4186.154, 4151.795, 4143.59, 4247.692, 450, 0, []
1627749030.1104, 99, 0, 4243.59, 4188.205, 4166.667, 4151.282, 4244.615, 16187, 0, []
1627749030.1183, 100, 0, 4234.872, 4194.872, 4178.462, 4157.949, 4240, 450, 0, []
1627749030.1263, 101, 0, 4214.359, 4192.821, 4186.667, 4160, 4222.051, 450, 0, []
1627749030.1342, 102, 0, 4193.333, 4158.462, 4166.154, 4145.128, 4195.897, 450, 0, []
1627749030.1422, 103, 0, 4201.026, 4149.231, 4161.538, 4149.231, 4195.897, 16187, 0, []
1627749030.15, 104, 0, 4218.462, 4182.051, 4190.256, 4170.769, 4215.897, 450, 0, []
1627749030.158, 105, 0, 4203.59, 4189.231, 4186.667, 4158.462, 4206.667, 450, 0, []
1627749030.1659, 106, 0, 4180.513, 4169.231, 4161.538, 4132.308, 4180, 450, 0, []
1627749030.1739, 107, 0, 4183.59, 4170.256, 4168.718, 4140, 4183.59, 16187, 0, []
1627749030.1818, 108, 0, 4182.564, 4172.308, 4169.744, 4147.179, 4187.692, 450, 0, []
1627749030.1897, 109, 0, 4170.256, 4171.282, 4151.282, 4140.513, 4173.846, 450, 0, []
1627749030.1976, 110, 0, 4163.077, 4178.974, 4146.154, 4141.538, 4164.103, 450, 0, []
1627749030.2054, 111, 0, 4148.718, 4172.308, 4135.385, 4129.231, 4148.205, 16187, 0, []
1627749030.2133, 112, 0, 4136.923, 4158.462, 4114.359, 4107.179, 4129.744, 450, 0, []
1627749030.2211, 113, 0, 4154.359, 4161.026, 4121.538, 4116.923, 4137.949, 450, 0, []
1627749030.229, 114, 0, 4176.923, 4162.051, 4145.128, 4149.231, 4165.641, 450, 0, []
1627749030.2367, 115, 0, 4172.308, 4150.769, 4149.231, 4158.974, 4173.333, 16187, 0, []
1627749030.2446, 116, 0, 4151.795, 4147.692, 4138.974, 4138.462, 4151.282, 450, 0, []
1627749030.2524, 117, 0, 4138.974, 4156.923, 4131.795, 4118.462, 4133.846, 450, 0, []
1627749030.2604, 118, 0, 4146.667, 4167.692, 4136.41, 4125.641, 4145.128, 450, 0, []
1627749030.2683, 119, 0, 4163.59, 4181.026, 4149.231, 4138.974, 4162.564, 16187, 0, []
1627749030.2763, 120, 0, 4169.744, 4185.128, 4156.923, 4135.897, 4165.641, 450, 0, []
1627749030.2841, 121, 0, 4165.128, 4170.256, 4153.333, 4130.769, 4165.641, 450, 0, []
1627749030.2921, 122, 0, 4161.538, 4151.795, 4150.769, 4136.923, 4172.821, 450, 0, []
1627749030.3, 123, 0, 4158.974, 4152.308, 4156.41, 4140, 4170.769, 16187, 0, []
1627749030.308, 124, 0, 4148.205, 4162.564, 4155.385, 4131.795, 4156.41, 450, 0, []
1627749030.3159, 125, 0, 4154.359, 4172.308, 4153.333, 4132.821, 4160, 450, 0, []
1627749030.3238, 126, 0, 4175.385, 4177.949, 4154.872, 4143.077, 4175.897, 450, 0, []
1627749030.3317, 127, 0, 4182.051, 4173.333, 4151.282, 4143.59, 4173.846, 16187, 0, []
1627749030.3397, 128, 0, 4182.051, 4166.667, 4148.718, 4141.538, 4166.667, 450, 0, []
1627749030.3476, 0, 0, 4175.897, 4159.487, 4139.487, 4140.513, 4164.103, 450, 0, []
1627749030.3556, 1, 0, 4160, 4150.256, 4120.513, 4129.231, 4151.282, 450, 0, []
1627749030.3635, 2, 0, 4167.179, 4157.436, 4124.103, 4128.718, 4153.333, 16171, 0, []
1627749030.3712, 3, 0, 4192.821, 4171.282, 4146.667, 4150.256, 4181.026, 450, 0, []
1627749030.3791, 4, 0, 4186.154, 4159.487, 4141.538, 4155.897, 4185.128, 16146, 0, []
1627749030.3869, 5, 0, 4170.256, 4147.179, 4126.667, 4151.795, 4173.333, 450, 0, []
1627749030.3948, 6, 0, 4186.154, 4163.077, 4144.103, 4167.692, 4186.154, 16167, 0, []
1627749030.4026, 7, 0, 4190.256, 4169.231, 4160, 4174.872, 4192.308, 450, 0, []
1627749030.4105, 8, 0, 4166.154, 4156.923, 4143.59, 4154.359, 4168.718, 450, 0, []
1627749030.4184, 9, 0, 4145.641, 4149.231, 4121.026, 4133.333, 4145.128, 16177, 0, []
1627749030.4264, 10, 0, 4145.128, 4150.769, 4120, 4129.231, 4145.128, 450, 0, []
1627749030.4343, 11, 0, 4163.59, 4163.077, 4146.154, 4144.615, 4166.154, 16233, 0, []
1627749030.4423, 12, 0, 4176.41, 4169.231, 4166.667, 4156.923, 4175.385, 450, 0, []
1627749030.4502, 13, 0, 4163.077, 4158.974, 4153.333, 4145.128, 4154.359, 450, 0, []
1627749030.4581, 14, 0, 4153.846, 4156.41, 4137.436, 4138.462, 4141.538, 450, 0, []
1627749030.466, 15, 0, 4167.179, 4171.795, 4144.615, 4161.026, 4161.026, 16233, 0, []
1627749030.474, 16, 0, 4179.487, 4184.615, 4153.333, 4177.436, 4181.026, 0, 0, []
1627749030.4819, 17, 0, 4168.718, 4186.667, 4155.385, 4163.077, 4169.231, 0, 0, []
1627749030.4899, 18, 0, 4144.615, 4177.436, 4152.821, 4142.564, 4141.026, 0, 0, []
1627749030.4978, 19, 0, 4136.41, 4165.128, 4148.205, 4143.077, 4138.462, 0, 0, []
1627749030.5057, 20, 0, 4151.795, 4169.231, 4143.59, 4149.231, 4156.923, 0, 0, []
1627749030.5136, 21, 0, 4161.538, 4169.231, 4132.821, 4142.051, 4153.333, 0, 0, []
1627749030.5214, 22, 0, 4146.154, 4154.359, 4120.513, 4130.256, 4128.718, 0, 0, []
1627749030.5293, 23, 0, 4131.282, 4155.385, 4120, 4132.821, 4123.077, 0, 0, []
1627749030.5371, 24, 0, 4137.949, 4171.282, 4132.821, 4144.615, 4143.077, 0, 0, []
1627749030.5449, 25, 0, 4152.821, 4172.308, 4137.436, 4144.103, 4153.333, 0, 0, []
1627749030.5527, 26, 0, 4152.308, 4162.051, 4131.282, 4134.872, 4141.026, 0, 0, []
1627749030.5606, 27, 0, 4149.744, 4172.821, 4144.103, 4140, 4140, 0, 0, []
1627749030.5684, 28, 0, 4167.692, 4191.282, 4166.154, 4160, 4164.103, 0, 0, []
1627749030.5764, 29, 0, 4172.821, 4179.487, 4162.564, 4163.077, 4169.744, 0, 0, []
1627749030.5843, 30, 0, 4153.333, 4162.564, 4146.154, 4151.282, 4152.821, 0, 0, []
1627749030.5922, 31, 0, 4147.692, 4167.692, 4149.231, 4154.872, 4151.795, 0, 0, []
1627749030.6001, 32, 0, 4155.385, 4171.795, 4157.949, 4154.872, 4153.846, 0, 0, []
1627749030.6081, 33, 0, 4155.897, 4164.615, 4155.897, 4144.103, 4146.154, 0, 0, []
1627749030.616, 34, 0, 4147.179, 4164.615, 4147.179, 4136.923, 4136.923, 0, 0, []
1627749030.624, 35, 0, 4138.974, 4168.205, 4141.538, 4136.41, 4131.795, 0, 0, []
1627749030.6319, 36, 0, 4144.103, 4168.718, 4145.641, 4144.615, 4138.462, 0, 0, []
1627749030.6398, 37, 0, 4160, 4171.795, 4148.205, 4151.282, 4148.718, 0, 0, []
1627749030.6477, 38, 0, 4175.385, 4183.077, 4151.282, 4163.59, 4161.026, 0, 0, []
1627749030.6557, 39, 0, 4187.179, 4190.256, 4160.513, 4185.128, 4173.846, 0, 0, []
1627749030.6636, 40, 0, 4186.154, 4181.538, 4162.051, 4186.667, 4167.692, 0, 0, []
1627749030.6714, 41, 0, 4173.333, 4168.718, 4149.744, 4163.077, 4152.308, 0, 0, []
1627749030.6792, 42, 0, 4169.231, 4167.692, 4144.103, 4152.821, 4152.308, 0, 0, []
1627749030.687, 43, 0, 4175.385, 4170.769, 4144.615, 4160.513, 4157.949, 0, 0, []
1627749030.6949, 44, 0, 4174.872, 4162.564, 4136.41, 4157.436, 4157.949, 0, 0, []
1627749030.7027, 45, 0, 4180, 4157.949, 4138.462, 4153.333, 4169.744, 0, 0, []
1627749030.7107, 46, 0, 4195.385, 4168.718, 4147.692, 4158.974, 4188.718, 0, 0, []
1627749030.7186, 47, 0, 4207.692, 4166.667, 4139.487, 4152.821, 4196.41, 0, 0, []
1627749030.7265, 48, 0, 4222.564, 4152.308, 4124.103, 4141.026, 4213.333, 0, 0, []
1627749030.7344, 49, 0, 4258.974, 4157.436, 4131.795, 4145.128, 4259.487, 0, 0, []
1627749030.7424, 50, 0, 4311.795, 4173.846, 4149.744, 4152.308, 4314.359, 0, 0, []
1627749030.7503, 51, 0, 4362.564, 4178.462, 4150.256, 4154.359, 4355.897, 0, 0, []
1627749030.7583, 52, 0, 4410.256, 4187.692, 4155.385, 4171.795, 4396.41, 0, 0, []
1627749030.7662, 53, 0, 4448.718, 4204.103, 4170.769, 4192.821, 4434.872, 0, 0, []
1627749030.7741, 54, 0, 4452.308, 4207.692, 4167.692, 4193.846, 4443.59, 0, 0, []
1627749030.782, 55, 0, 4430.769, 4203.077, 4157.949, 4186.154, 4427.692, 0, 0, []
1627749030.79, 56, 0, 4421.538, 4202.564, 4166.154, 4188.718, 4414.872, 0, 0, []
1627749030.7979, 57, 0, 4417.436, 4202.051, 4177.949, 4192.308, 4404.103, 0, 0, []
1627749030.8057, 58, 0, 4390.256, 4196.41, 4169.744, 4181.538, 4380, 0, 0, []
1627749030.8135, 59, 0, 4367.179, 4197.436, 4163.077, 4169.231, 4359.487, 0, 0, []
1627749030.8213, 60, 0, 4368.718, 4207.692, 4173.846, 4175.385, 4356.923, 0, 0, []
1627749030.8292, 61, 0, 4352.308, 4206.667, 4172.308, 4180.513, 4346.667, 0, 0, []
1627749030.837, 62, 0, 4311.282, 4195.385, 4160.513, 4163.59, 4317.436, 0, 0, []
1627749030.8449, 63, 0, 4307.692, 4207.179, 4185.641, 4170.769, 4318.462, 0, 0, []
1627749030.8527, 64, 0, 4335.897, 4229.744, 4224.615, 4202.564, 4344.103, 450, 0, []
1627749030.8605, 65, 0, 4312.821, 4222.051, 4209.744, 4194.872, 4318.462, 450, 0, []
1627749030.8683, 66, 0, 4261.538, 4203.59, 4165.641, 4165.641, 4262.051, 16187, 0, []
1627749030.8763, 67, 0, 4265.641, 4210.769, 4164.103, 4178.974, 4263.59, 450, 0, []
1627749030.8842, 68, 0, 4289.231, 4220, 4188.718, 4206.667, 4290.769, 16171, 0, []
1627749030.8922, 69, 0, 4261.538, 4205.641, 4174.872, 4192.821, 4269.231, 450, 0, []
1627749030.9, 70, 0, 4221.026, 4193.846, 4148.718, 4163.59, 4229.231, 16157, 0, []
1627749030.908, 71, 0, 4214.359, 4201.538, 4156.41, 4162.564, 4219.487, 450, 0, []
1627749030.9159, 72, 0, 4218.974, 4204.103, 4168.205, 4173.333, 4220, 450, 0, []
1627749030.9239, 73, 0, 4213.333, 4196.41, 4157.949, 4173.333, 4213.333, 16195, 0, []
1627749030.9318, 74, 0, 4209.744, 4197.949, 4149.231, 4170.256, 4212.308, 450, 0, []
1627749030.9398, 75, 0, 4214.359, 4202.051, 4155.897, 4178.462, 4218.974, 16202, 0, []
1627749030.9476, 76, 0, 4216.41, 4201.026, 4163.59, 4181.026, 4220.513, 450, 0, []
1627749030.9555, 77, 0, 4207.692, 4198.974, 4164.615, 4177.436, 4211.795, 450, 0, []
1627749030.9634, 78, 0, 4192.308, 4194.872, 4150.769, 4173.846, 4196.923, 450, 0, []
1627749030.9712, 79, 0, 4175.897, 4184.615, 4131.795, 4158.974, 4183.077, 16202, 0, []
1627749030.9791, 80, 0, 4173.333, 4182.051, 4134.359, 4152.308, 4178.974, 450, 0, []
1627749030.9869, 81, 0, 4188.205, 4191.795, 4151.282, 4177.949, 4189.231, 450, 0, []
1627749030.9947, 82, 0, 4189.744, 4194.359, 4153.846, 4192.308, 4190.256, 450, 0, []
1627749031.0025, 83, 0, 4168.718, 4185.128, 4140.513, 4163.59, 4169.744, 16202, 0, []
1627749031.0104, 84, 0, 4163.077, 4181.538, 4140, 4147.179, 4156.41, 450, 0, []
1627749031.0182, 85, 0, 4181.538, 4189.231, 4156.41, 4164.615, 4166.154, 450, 0, []
1627749031.0261, 86, 0, 4187.692, 4195.897, 4161.538, 4173.846, 4181.538, 450, 0, []
1627749031.0338, 87, 0, 4182.564, 4190.769, 4149.231, 4169.744, 4184.103, 16202, 0, []
1627749031.0418, 88, 0, 4180.513, 4184.103, 4145.128, 4164.103, 4176.41, 450, 0, []
1627749031.0497, 89, 0, 4178.462, 4188.205, 4146.154, 4158.974, 4170.256, 450, 0, []
1627749031.0577, 90, 0, 4167.692, 4192.308, 4141.538, 4156.41, 4161.026, 450, 0, []
1627749031.0656, 91, 0, 4160.513, 4184.103, 4144.615, 4161.026, 4149.744, 16202, 0, []
1627749031.0736, 92, 0, 4170.256, 4185.128, 4155.385, 4177.949, 4161.538, 450, 0, []
1627749031.0814, 93, 0, 4172.821, 4191.795, 4146.667, 4182.564, 4171.795, 450, 0, []
1627749031.0894, 94, 0, 4150.769, 4174.359, 4116.41, 4155.385, 4142.564, 450, 0, []
1627749031.0973, 95, 0, 4140.513, 4156.923, 4113.846, 4138.462, 4120.513, 16202, 0, []
1627749031.1053, 96, 0, 4162.564, 4175.385, 4147.179, 4162.564, 4142.564, 450, 0, []
1627749031.1132, 97, 0, 4175.385, 4193.846, 4163.59, 4178.974, 4163.077, 450, 0, []
1627749031.121, 98, 0, 4165.641, 4182.051, 4156.41, 4165.641, 4152.821, 450, 0, []
1627749031.1288, 99, 0, 4166.154, 4172.821, 4155.897, 4163.59, 4142.051, 16202, 0, []
1627749031.1366, 100, 0, 4171.795, 4177.436, 4162.564, 4174.872, 4144.103, 450, 0, []
1627749031.1445, 101, 0, 4166.154, 4178.974, 4158.974, 4172.821, 4148.718, 450, 0, []
1627749031.1523, 102, 0, 4167.179, 4183.077, 4155.897, 4171.282, 4153.333, 450, 0, []
1627749031.1602, 103, 0, 4170.256, 4181.538, 4152.821, 4169.744, 4145.641, 16202, 0, []
1627749031.1679, 104, 0, 4155.897, 4169.744, 4140, 4158.462, 4127.692, 450, 0, []
1627749031.1758, 105, 0, 4145.641, 4166.667, 4139.487, 4156.923, 4128.205, 450, 0, []
1627749031.1836, 106, 0, 4157.949, 4168.205, 4157.436, 4171.282, 4144.103, 450, 0, []
1627749031.1916, 107, 0, 4179.487, 4172.308, 4171.795, 4182.051, 4158.974, 16202, 0, []
1627749031.1995, 108, 0, 4198.462, 4184.615, 4171.795, 4186.667, 4172.821, 450, 0, []
1627749031.2075, 109, 0, 4196.41, 4183.59, 4159.487, 4183.59, 4175.897, 450, 0, []
1627749031.2153, 110, 0, 4177.436, 4168.718, 4150.256, 4170.769, 4163.077, 450, 0, []
1627749031.2233, 111, 0, 4173.333, 4165.641, 4158.974, 4163.077, 4162.564, 16202, 0, []
1627749031.2312, 112, 0, 4184.103, 4165.641, 4153.333, 4154.872, 4179.487, 450, 0, []
1627749031.2392, 113, 0, 4209.744, 4165.641, 4140.513, 4150.769, 4212.308, 450, 0, []
1627749031.2471, 114, 0, 4251.282, 4172.821, 4151.282, 4157.949, 4257.436, 450, 0, []
1627749031.2551, 115, 0, 4283.59, 4167.179, 4146.667, 4138.974, 4286.667, 16202, 0, []
1627749031.2629, 116, 0, 4334.359, 4170.256, 4143.077, 4132.308, 4327.692, 450, 0, []
1627749031.2709, 117, 0, 4420, 4202.051, 4184.615, 4186.154, 4406.667, 450, 0, []
1627749031.2788, 118, 0, 4458.974, 4213.333, 4205.641, 4214.872, 4443.077, 450, 0, []
1627749031.2866, 119, 0, 4426.667, 4191.795, 4169.744, 4178.974, 4407.179, 16202, 0, []
1627749031.2945, 120, 0, 4400, 4184.103, 4149.744, 4166.154, 4385.641, 450, 0, []
1627749031.3022, 121, 0, 4392.308, 4192.308, 4160, 4177.949, 4387.692, 450, 0, []
1627749031.3101, 122, 0, 4363.077, 4185.128, 4150.256, 4160, 4357.949, 450, 0, []
1627749031.3179, 123, 0, 4330.256, 4181.026, 4137.436, 4152.821, 4322.051, 16202, 0, []
1627749031.3258, 124, 0, 4313.333, 4185.641, 4148.205, 4170.769, 4310.256, 450, 0, []
1627749031.3336, 125, 0, 4295.897, 4177.436, 4153.333, 4163.077, 4297.949, 450, 0, []
1627749031.3416, 126, 0, 4274.359, 4169.231, 4142.051, 4145.128, 4274.359, 450, 0, []
1627749031.3494, 127, 0, 4260, 4183.59, 4141.538, 4157.436, 4260, 16202, 0, []
1627749031.3574, 128, 0, 4253.333, 4196.923, 4158.462, 4175.385, 4254.872, 450, 0, []
1627749031.3653, 0, 0, 4243.077, 4188.205, 4167.179, 4171.282, 4245.641, 450, 0, []
1627749031.3733, 1, 0, 4234.872, 4184.615, 4162.051, 4166.667, 4237.949, 450, 0, []
1627749031.3812, 2, 0, 4232.308, 4187.179, 4163.077, 4168.718, 4233.846, 16182, 0, []
1627749031.3891, 3, 0, 4229.231, 4180.513, 4168.205, 4168.718, 4221.538, 450, 0, []
1627749031.397, 4, 0, 4217.436, 4174.359, 4165.641, 4171.282, 4206.667, 16196, 0, []
1627749031.405, 5, 0, 4198.462, 4169.231, 4165.641, 4170.769, 4195.385, 450, 0, []
1627749031.4129, 6, 0, 4184.103, 4160.513, 4163.077, 4156.923, 4180, 16162, 0, []
1627749031.4209, 7, 0, 4180.513, 4160, 4154.359, 4150.769, 4169.744, 450, 0, []
1627749031.4288, 8, 0, 4183.077, 4171.282, 4155.385, 4170.256, 4175.897, 450, 0, []
1627749031.4366, 9, 0, 4174.872, 4170.769, 4166.154, 4176.923, 4173.333, 16161, 0, []
1627749031.4445, 10, 0, 4160, 4162.564, 4161.026, 4156.923, 4150.769, 450, 0, []
1627749031.4524, 11, 0, 4163.59, 4172.308, 4151.795, 4156.41, 4148.205, 16194, 0, []
1627749031.4604, 12, 0, 4174.359, 4184.615, 4156.923, 4171.282, 4154.872, 450, 0, []
1627749031.4682, 13, 0, 4172.308, 4180, 4154.359, 4165.128, 4147.179, 450, 0, []
1627749031.4761, 14, 0, 4162.051, 4171.282, 4148.718, 4155.385, 4143.077, 450, 0, []
1627749031.4838, 15, 0, 4154.872, 4171.795, 4155.897, 4157.949, 4144.103, 16194, 0, []
1627749031.4917, 16, 0, 4152.821, 4172.308, 4154.359, 4157.436, 4136.923, 0, 0, []
1627749031.4995, 17, 0, 4152.821, 4172.308, 4142.564, 4154.359, 4133.333, 0, 0, []
1627749031.5075, 18, 0, 4145.128, 4178.462, 4141.026, 4162.564, 4137.436, 0, 0, []
1627749031.5154, 19, 0, 4134.359, 4183.077, 4146.154, 4169.231, 4136.923, 0, 0, []
1627749031.5233, 20, 0, 4141.538, 4185.128, 4150.769, 4167.692, 4136.923, 0, 0, []
1627749031.5312, 21, 0, 4153.333, 4184.103, 4156.923, 4166.667, 4144.615, 0, 0, []
1627749031.5392, 22, 0, 4156.41, 4185.641, 4172.308, 4180, 4154.872, 0, 0, []
1627749031.5471, 23, 0, 4156.41, 4193.333, 4183.59, 4191.282, 4160, 0, 0, []
1627749031.5551, 24, 0, 4153.846, 4185.128, 4172.308, 4180, 4153.333, 0, 0, []
1627749031.563, 25, 0, 4145.641, 4168.718, 4157.949, 4164.103, 4140, 0, 0, []
1627749031.5709, 26, 0, 4128.718, 4166.667, 4150.769, 4154.359, 4121.026, 0, 0, []
1627749031.5788, 27, 0, 4113.846, 4165.128, 4144.103, 4144.103, 4103.077, 0, 0, []
1627749031.5866, 28, 0, 4112.821, 4155.385, 4136.41, 4134.359, 4099.487, 0, 0, []
1627749031.5945, 29, 0, 4129.231, 4160.513, 4140, 4143.59, 4115.897, 0, 0, []
1627749031.6023, 30, 0, 4143.59, 4176.923, 4152.308, 4164.103, 4132.821, 0, 0, []
1627749031.6102, 31, 0, 4142.564, 4176.41, 4153.333, 4175.897, 4131.282, 0, 0, []
1627749031.6179, 32, 0, 4137.949, 4168.718, 4143.077, 4175.385, 4125.128, 0, 0, []
1627749031.6258, 33, 0, 4136.41, 4169.231, 4126.154, 4166.154, 4118.462, 0, 0, []
1627749031.6336, 34, 0, 4136.923, 4169.744, 4120, 4155.385, 4110.256, 0, 0, []
1627749031.6415, 35, 0, 4133.333, 4169.744, 4134.872, 4153.333, 4111.795, 0, 0, []
1627749031.6493, 36, 0, 4127.179, 4173.333, 4140, 4158.974, 4118.462, 0, 0, []
1627749031.6572, 37, 0, 4117.436, 4166.154, 4114.359, 4149.744, 4108.205, 0, 0, []
1627749031.6651, 38, 0, 4108.718, 4152.308, 4094.872, 4134.872, 4093.846, 0, 0, []
1627749031.6731, 39, 0, 4115.897, 4160.513, 4110.256, 4143.59, 4105.128, 0, 0, []
1627749031.681, 40, 0, 4131.795, 4182.051, 4129.744, 4153.846, 4119.487, 0, 0, []
1627749031.689, 41, 0, 4142.564, 4188.718, 4135.385, 4152.308, 4123.077, 0, 0, []
1627749031.6969, 42, 0, 4146.667, 4183.077, 4139.487, 4158.462, 4126.667, 0, 0, []
1627749031.7048, 43, 0, 4141.026, 4170.256, 4137.949, 4163.59, 4122.564, 0, 0, []
1627749031.7127, 44, 0, 4130.769, 4165.128, 4137.949, 4158.462, 4113.846, 0, 0, []
1627749031.7206, 45, 0, 4132.308, 4177.949, 4139.487, 4156.41, 4114.359, 0, 0, []
1627749031.7285, 46, 0, 4138.462, 4186.154, 4126.667, 4151.282, 4116.923, 0, 0, []
1627749031.7363, 47, 0, 4140, 4180, 4122.051, 4142.564, 4119.487, 0, 0, []
1627749031.7442, 48, 0, 4148.718, 4183.077, 4145.128, 4150.769, 4133.333, 0, 0, []
1627749031.7519, 49, 0, 4157.949, 4195.385, 4158.974, 4163.59, 4143.077, 0, 0, []
1627749031.7598, 50, 0, 4157.949, 4203.077, 4152.821, 4167.692, 4140.513, 0, 0, []
1627749031.7676, 51, 0, 4153.333, 4204.103, 4146.154, 4171.282, 4136.923, 0, 0, []
1627749031.7755, 52, 0, 4141.538, 4195.897, 4132.308, 4162.564, 4128.205, 0, 0, []
1627749031.7833, 53, 0, 4136.41, 4186.667, 4123.59, 4149.744, 4126.154, 0, 0, []
1627749031.7911, 54, 0, 4153.846, 4188.718, 4132.308, 4158.462, 4143.077, 0, 0, []
1627749031.7989, 55, 0, 4172.821, 4196.923, 4138.462, 4170.769, 4157.949, 0, 0, []
1627749031.8069, 56, 0, 4168.718, 4197.949, 4137.436, 4169.744, 4152.821, 0, 0, []
1627749031.8148, 57, 0, 4153.333, 4191.282, 4135.897, 4164.103, 4140, 0, 0, []
1627749031.8228, 58, 0, 4150.256, 4183.59, 4133.333, 4157.436, 4130.769, 0, 0, []
1627749031.8307, 59, 0, 4159.487, 4182.564, 4127.179, 4150.256, 4132.308, 0, 0, []
1627749031.8386, 60, 0, 4173.333, 4190.256, 4131.795, 4159.487, 4146.154, 0, 0, []
1627749031.8465, 61, 0, 4185.128, 4193.333, 4148.205, 4174.359, 4158.974, 0, 0, []
1627749031.8545, 62, 0, 4176.41, 4186.154, 4147.179, 4164.103, 4152.821, 0, 0, []
1627749031.8624, 63, 0, 4163.59, 4181.538, 4133.846, 4143.077, 4141.026, 0, 0, []
1627749031.8704, 64, 0, 4182.051, 4187.179, 4134.359, 4141.026, 4157.436, 450, 0, []
1627749031.8782, 65, 0, 4206.154, 4191.282, 4141.026, 4141.026, 4182.051, 450, 0, []
1627749031.8861, 66, 0, 4205.128, 4181.026, 4131.282, 4127.692, 4190.769, 16167, 0, []
1627749031.894, 67, 0, 4222.051, 4167.692, 4111.282, 4127.179, 4221.026, 450, 0, []
1627749031.9018, 68, 0, 4275.385, 4168.718, 4106.667, 4144.615, 4283.077, 16207, 0, []
1627749031.9097, 69, 0, 4317.949, 4175.897, 4115.897, 4155.897, 4338.974, 450, 0, []
1627749031.9175, 70, 0, 4332.821, 4170.256, 4122.564, 4159.487, 4376.923, 16162, 0, []
1627749031.9253, 71, 0, 4334.359, 4162.564, 4126.667, 4165.128, 4401.538, 450, 0, []
1627749031.9331, 72, 0, 4327.179, 4170.256, 4134.359, 4174.872, 4407.692, 450, 0, []
1627749031.941, 73, 0, 4310.256, 4172.308, 4139.487, 4179.487, 4400.513, 16140, 0, []
1627749031.9488, 74, 0, 4285.128, 4155.385, 4132.308, 4171.282, 4380.513, 450, 0, []
1627749031.9567, 75, 0, 4266.667, 4150.769, 4129.744, 4170.769, 4365.128, 16194, 0, []
1627749031.9645, 76, 0, 4253.846, 4161.538, 4140, 4182.051, 4358.462, 450, 0, []
1627749031.9724, 77, 0, 4235.385, 4162.564, 4138.462, 4180.513, 4337.949, 450, 0, []
1627749031.9803, 78, 0, 4218.974, 4157.436, 4128.205, 4169.744, 4310.769, 450, 0, []
1627749031.9883, 79, 0, 4205.641, 4158.974, 4124.615, 4167.179, 4293.333, 16194, 0, []
1627749031.9962, 80, 0, 4185.641, 4157.436, 4125.128, 4162.564, 4267.692, 450, 0, []
1627749032.0042, 81, 0, 4165.641, 4149.744, 4129.231, 4156.41, 4232.821, 450, 0, []
1627749032.012, 82, 0, 4158.462, 4144.103, 4135.897, 4159.487, 4216.923, 450, 0, []
1627749032.02, 83, 0, 4151.282, 4139.487, 4137.436, 4153.333, 4210.256, 16194, 0, []
1627749032.0279, 84, 0, 4139.487, 4138.462, 4135.897, 4143.59, 4195.385, 450, 0, []
1627749032.0358, 85, 0, 4136.41, 4141.026, 4135.897, 4148.718, 4183.077, 450, 0, []
1627749032.0437, 86, 0, 4135.385, 4142.051, 4129.231, 4153.333, 4173.846, 450, 0, []
1627749032.0515, 87, 0, 4126.154, 4142.564, 4121.538, 4146.154, 4166.154, 16194, 0, []
1627749032.0593, 88, 0, 4118.974, 4136.923, 4124.615, 4138.974, 4164.615, 450, 0, []
1627749032.0671, 89, 0, 4123.59, 4137.436, 4126.667, 4143.077, 4165.128, 450, 0, []
1627749032.075, 90, 0, 4123.59, 4150.256, 4112.308, 4144.615, 4154.872, 450, 0, []
1627749032.0828, 91, 0, 4111.282, 4149.231, 4100.513, 4137.949, 4141.538, 16194, 0, []
1627749032.0907, 92, 0, 4108.718, 4136.923, 4108.205, 4142.564, 4141.026, 450, 0, []
1627749032.0985, 93, 0, 4114.872, 4138.462, 4117.436, 4151.282, 4142.564, 450, 0, []
1627749032.1063, 94, 0, 4114.359, 4146.667, 4115.897, 4153.333, 4143.59, 450, 0, []
1627749032.1141, 95, 0, 4109.231, 4143.59, 4116.41, 4155.897, 4145.641, 16194, 0, []
1627749032.1221, 96, 0, 4100, 4136.41, 4117.949, 4149.744, 4133.333, 450, 0, []
1627749032.13, 97, 0, 4086.667, 4137.436, 4116.923, 4137.436, 4111.795, 450, 0, []
1627749032.138, 98, 0, 4086.154, 4147.179, 4126.154, 4142.051, 4108.718, 450, 0, []
1627749032.1458, 99, 0, 4092.308, 4151.282, 4131.282, 4150.256, 4113.333, 16194, 0, []
1627749032.1538, 100, 0, 4086.154, 4144.103, 4115.897, 4135.897, 4098.462, 450, 0, []
1627749032.1617, 101, 0, 4081.538, 4137.949, 4111.795, 4118.974, 4080, 450, 0, []
1627749032.1697, 102, 0, 4076.41, 4135.385, 4118.462, 4109.744, 4072.821, 450, 0, []
1627749032.1776, 103, 0, 4070.256, 4136.923, 4113.846, 4110.256, 4074.872, 16194, 0, []
1627749032.1856, 104, 0, 4075.897, 4134.359, 4099.487, 4114.872, 4079.487, 450, 0, []
1627749032.1934, 105, 0, 4075.897, 4121.538, 4096.41, 4112.308, 4077.436, 450, 0, []
1627749032.2012, 106, 0, 4068.205, 4121.538, 4118.462, 4119.487, 4080, 450, 0, []
1627749032.2091, 107, 0, 4076.923, 4136.923, 4131.795, 4140, 4089.744, 16194, 0, []
1627749032.2169, 108, 0, 4085.641, 4133.846, 4112.308, 4136.923, 4089.744, 450, 0, []
1627749032.2248, 109, 0, 4081.026, 4123.59, 4101.538, 4121.026, 4084.615, 450, 0, []
1627749032.2326, 110, 0, 4080, 4127.179, 4114.872, 4128.205, 4089.744, 450, 0, []
1627749032.2404, 111, 0, 4084.103, 4125.641, 4114.872, 4135.385, 4094.359, 16194, 0, []
1627749032.2482, 112, 0, 4088.205, 4122.564, 4102.564, 4130.769, 4093.333, 450, 0, []
1627749032.2561, 113, 0, 4093.333, 4131.282, 4100, 4129.231, 4093.846, 450, 0, []
1627749032.2639, 114, 0, 4094.359, 4138.462, 4091.795, 4129.231, 4089.744, 450, 0, []
1627749032.2719, 115, 0, 4096.923, 4135.897, 4090.769, 4132.308, 4091.795, 16194, 0, []
1627749032.2797, 116, 0, 4101.026, 4133.846, 4108.718, 4139.487, 4104.615, 450, 0, []
1627749032.2877, 117, 0, 4097.949, 4140.513, 4113.333, 4141.538, 4110.256, 450, 0, []
1627749032.2956, 118, 0, 4091.795, 4135.897, 4098.462, 4137.949, 4099.487, 450, 0, []
1627749032.3036, 119, 0, 4085.641, 4121.026, 4095.897, 4137.436, 4087.692, 16194, 0, []
1627749032.3115, 120, 0, 4086.154, 4124.615, 4102.564, 4138.974, 4095.385, 450, 0, []
1627749032.3195, 121, 0, 4092.821, 4137.949, 4104.615, 4137.436, 4106.154, 450, 0, []
1627749032.3273, 122, 0, 4090.256, 4135.897, 4102.051, 4123.077, 4096.41, 450, 0, []
1627749032.3353, 123, 0, 4085.641, 4133.846, 4100.513, 4112.821, 4087.179, 16194, 0, []
1627749032.3432, 124, 0, 4094.359, 4142.564, 4097.949, 4126.667, 4095.897, 450, 0, []
1627749032.351, 125, 0, 4095.897, 4140.513, 4087.692, 4137.436, 4098.974, 450, 0, []
1627749032.3589, 126, 0, 4083.59, 4134.359, 4089.231, 4137.949, 4088.718, 450, 0, []
1627749032.3667, 127, 0, 4078.462, 4135.897, 4105.128, 4135.385, 4081.026, 16194, 0, []
1627749032.3745, 128, 0, 4093.846, 4137.949, 4104.615, 4122.051, 4083.077, 450, 0, []
1627749032.3823, 0, 0, 4113.333, 4137.436, 4087.692, 4103.59, 4085.128, 450, 0, []
1627749032.3902, 1, 0, 4122.564, 4133.846, 4075.897, 4094.359, 4081.538, 450, 0, []
1627749032.398, 2, 0, 4128.205, 4131.282, 4078.974, 4091.282, 4072.308, 16190, 0, []
1627749032.4059, 3, 0, 4136.41, 4136.41, 4088.718, 4092.821, 4066.667, 450, 0, []
1627749032.4136, 4, 0, 4141.026, 4141.026, 4085.128, 4096.41, 4065.641, 16194, 0, []
1627749032.4216, 5, 0, 4139.487, 4137.436, 4065.128, 4086.667, 4058.974, 450, 0, []
1627749032.4295, 6, 0, 4136.41, 4138.462, 4061.538, 4073.846, 4048.718, 16162, 0, []
1627749032.4375, 7, 0, 4138.974, 4148.205, 4084.615, 4073.333, 4048.205, 450, 0, []
1627749032.4454, 8, 0, 4149.231, 4154.872, 4103.59, 4075.385, 4057.436, 450, 0, []
1627749032.4534, 9, 0, 4154.359, 4155.385, 4106.667, 4073.333, 4062.051, 16173, 0, []
1627749032.4612, 10, 0, 4143.077, 4151.282, 4111.282, 4076.41, 4061.538, 450, 0, []
1627749032.4692, 11, 0, 4133.333, 4147.692, 4120.513, 4090.769, 4061.026, 16202, 0, []
1627749032.4771, 12, 0, 4137.949, 4151.795, 4121.538, 4103.59, 4061.538, 450, 0, []
1627749032.4851, 13, 0, 4141.026, 4164.103, 4123.077, 4105.641, 4065.641, 450, 0, []
1627749032.493, 14, 0, 4142.051, 4167.179, 4130.256, 4103.59, 4073.846, 450, 0, []
1627749032.5007, 15, 0, 4150.256, 4158.974, 4140.513, 4105.641, 4075.897, 16202, 0, []
1627749032.5086, 16, 0, 4147.179, 4147.692, 4142.051, 4102.564, 4064.615, 0, 0, []
1627749032.5164, 17, 0, 4127.179, 4139.487, 4123.59, 4085.128, 4046.667, 0, 0, []
1627749032.5243, 18, 0, 4124.103, 4147.692, 4109.744, 4076.923, 4044.615, 0, 0, []
1627749032.5321, 19, 0, 4138.974, 4167.179, 4111.795, 4094.359, 4062.051, 0, 0, []
1627749032.54, 20, 0, 4149.231, 4172.308, 4107.179, 4113.846, 4080, 0, 0, []
1627749032.5477, 21, 0, 4161.026, 4169.231, 4102.051, 4121.538, 4089.744, 0, 0, []
1627749032.5556, 22, 0, 4167.179, 4168.205, 4115.385, 4129.744, 4097.436, 0, 0, []
1627749032.5634, 23, 0, 4159.487, 4155.897, 4124.615, 4136.923, 4093.846, 0, 0, []
1627749032.5713, 24, 0, 4161.026, 4144.103, 4123.077, 4139.487, 4091.282, 0, 0, []
1627749032.5791, 25, 0, 4176.923, 4158.462, 4140.513, 4140, 4104.615, 0, 0, []
1627749032.5871, 26, 0, 4172.308, 4171.795, 4145.128, 4126.154, 4100, 0, 0, []
1627749032.5949, 27, 0, 4150.769, 4169.744, 4118.462, 4104.103, 4076.41, 0, 0, []
1627749032.6029, 28, 0, 4149.231, 4176.41, 4110.256, 4107.692, 4070.769, 0, 0, []
1627749032.6108, 29, 0, 4152.821, 4178.462, 4112.821, 4124.103, 4076.41, 0, 0, []
1627749032.6188, 30, 0, 4146.667, 4157.949, 4094.359, 4117.436, 4074.872, 0, 0, []
1627749032.6267, 31, 0, 4151.282, 4141.026, 4095.897, 4115.385, 4083.077, 0, 0, []
1627749032.6346, 32, 0, 4168.718, 4149.231, 4131.282, 4135.897, 4102.051, 0, 0, []
1627749032.6425, 33, 0, 4175.385, 4165.128, 4150.769, 4147.179, 4111.282, 0, 0, []
1627749032.6505, 34, 0, 4170.256, 4173.846, 4136.41, 4141.538, 4110.769, 0, 0, []
1627749032.6584, 35, 0, 4161.026, 4178.974, 4121.026, 4135.897, 4102.564, 0, 0, []
1627749032.6663, 36, 0, 4151.795, 4183.59, 4117.436, 4126.154, 4091.795, 0, 0, []
1627749032.6742, 37, 0, 4148.205, 4187.179, 4116.41, 4116.923, 4085.641, 0, 0, []
1627749032.6819, 38, 0, 4151.282, 4183.077, 4123.077, 4124.615, 4091.795, 0, 0, []
1627749032.6898, 39, 0, 4160, 4184.103, 4134.359, 4139.487, 4105.641, 0, 0, []
1627749032.6976, 40, 0, 4162.051, 4191.795, 4131.795, 4140, 4104.615, 0, 0, []
1627749032.7055, 41, 0, 4163.077, 4196.41, 4133.846, 4142.564, 4104.103, 0, 0, []
1627749032.7133, 42, 0, 4177.949, 4207.692, 4147.179, 4162.051, 4125.128, 0, 0, []
1627749032.7212, 43, 0, 4189.744, 4215.385, 4148.205, 4173.846, 4136.41, 0, 0, []
1627749032.7289, 44, 0, 4190.769, 4217.436, 4146.667, 4173.846, 4138.462, 0, 0, []
1627749032.7368, 45, 0, 4202.051, 4227.179, 4162.564, 4168.205, 4156.923, 0, 0, []
1627749032.7446, 46, 0, 4201.026, 4228.718, 4171.282, 4146.667, 4151.282, 0, 0, []
1627749032.7526, 47, 0, 4186.667, 4215.385, 4158.462, 4127.692, 4137.949, 0, 0, []
