Timestamp, COUNTER, INTERPOLATED, AF3, T7, Pz, T8, AF4, RAW_CQ, MARKER_HARDWARE, MARKERS
1630311091.1134, 14, 0, 4183.077, 4191.795, 4093.333, 4148.205, 4168.205, 450, 0, []
1630311091.1213, 15, 0, 4179.487, 4213.333, 4068.205, 4145.641, 4157.436, 16196, 0, []
1630311091.1292, 16, 0, 4192.308, 4262.564, 4095.897, 4160.513, 4181.538, 0, 0, []
1630311091.1372, 17, 0, 4210.256, 4245.128, 4114.872, 4168.718, 4217.949, 0, 0, []
1630311091.1451, 18, 0, 4201.026, 4205.641, 4085.641, 4161.026, 4215.385, 0, 0, []
1630311091.1531, 19, 0, 4186.154, 4222.051, 4109.744, 4163.077, 4187.692, 0, 0, []
1630311091.1609, 20, 0, 4202.564, 4240.513, 4082.564, 4168.205, 4190.256, 0, 0, []
1630311091.1689, 21, 0, 4212.821, 4223.59, 4100, 4164.615, 4200.513, 0, 0, []
1630311091.1768, 22, 0, 4189.231, 4223.077, 4117.436, 4161.026, 4188.718, 0, 0, []
1630311091.1847, 23, 0, 4181.538, 4237.436, 4071.795, 4161.026, 4186.154, 0, 0, []
1630311091.1926, 24, 0, 4202.564, 4226.667, 4101.538, 4168.718, 4195.385, 0, 0, []
1630311091.2003, 25, 0, 4208.205, 4211.282, 4087.692, 4170.769, 4190.256, 0, 0, []
1630311091.2082, 26, 0, 4203.59, 4220, 4089.231, 4167.179, 4194.872, 0, 0, []
1630311091.216, 27, 0, 4208.205, 4236.923, 4110.769, 4169.744, 4208.205, 0, 0, []
1630311091.2239, 28, 0, 4198.974, 4245.641, 4070.769, 4164.103, 4193.846, 0, 0, []
1630311091.2317, 29, 0, 4182.051, 4231.795, 4096.923, 4155.385, 4170.769, 0, 0, []
1630311091.2395, 30, 0, 4182.051, 4212.308, 4086.667, 4152.821, 4166.154, 0, 0, []
1630311091.2473, 31, 0, 4187.692, 4223.077, 4077.436, 4155.897, 4171.282, 0, 0, []
1630311091.2552, 32, 0, 4183.59, 4225.641, 4097.436, 4155.385, 4168.718, 0, 0, []
1630311091.263, 33, 0, 4187.179, 4195.385, 4065.128, 4151.282, 4164.103, 0, 0, []
1630311091.2709, 34, 0, 4211.282, 4200.513, 4096.923, 4163.077, 4170.256, 0, 0, []
1630311091.2787, 35, 0, 4231.282, 4247.692, 4093.333, 4175.385, 4176.41, 0, 0, []
1630311091.2866, 36, 0, 4232.308, 4253.846, 4083.59, 4171.795, 4183.077, 0, 0, []
1630311091.2945, 37, 0, 4232.308, 4225.128, 4110.769, 4165.128, 4196.923, 0, 0, []
1630311091.3025, 38, 0, 4232.308, 4213.846, 4072.821, 4167.179, 4198.462, 0, 0, []
1630311091.3104, 39, 0, 4221.026, 4217.436, 4095.385, 4169.744, 4176.923, 0, 0, []
1630311091.3184, 40, 0, 4212.821, 4226.667, 4099.487, 4160.513, 4160.513, 0, 0, []
1630311091.3262, 41, 0, 4218.974, 4228.718, 4084.103, 4157.949, 4170.256, 0, 0, []
1630311091.3342, 42, 0, 4221.538, 4221.026, 4114.359, 4161.026, 4184.103, 0, 0, []
1630311091.3421, 43, 0, 4210.256, 4212.821, 4077.436, 4153.846, 4180.513, 0, 0, []
1630311091.3501, 44, 0, 4220, 4211.795, 4096.923, 4162.564, 4181.538, 0, 0, []
1630311091.358, 45, 0, 4237.949, 4224.615, 4108.718, 4181.538, 4191.282, 0, 0, []
1630311091.3657, 46, 0, 4216.923, 4235.897, 4074.872, 4171.795, 4177.949, 0, 0, []
1630311091.3736, 47, 0, 4194.359, 4219.487, 4094.359, 4141.538, 4162.051, 0, 0, []
1630311091.3814, 48, 0, 4212.821, 4204.103, 4072.821, 4134.359, 4178.462, 0, 0, []
1630311091.3893, 49, 0, 4231.282, 4217.436, 4097.436, 4161.538, 4194.359, 0, 0, []
1630311091.3971, 50, 0, 4228.205, 4230.256, 4108.718, 4179.487, 4187.692, 0, 0, []
1630311091.4049, 51, 0, 4233.333, 4235.897, 4077.436, 4172.308, 4178.974, 0, 0, []
1630311091.4127, 52, 0, 4237.436, 4240.513, 4110.256, 4167.692, 4175.897, 0, 0, []
1630311091.4206, 53, 0, 4222.564, 4228.205, 4082.051, 4164.615, 4172.308, 0, 0, []
1630311091.4284, 54, 0, 4212.308, 4205.128, 4088.718, 4163.59, 4170.769, 0, 0, []
1630311091.4364, 55, 0, 4216.923, 4201.538, 4114.359, 4172.308, 4171.795, 0, 0, []
1630311091.4442, 56, 0, 4220.513, 4214.359, 4083.077, 4167.692, 4165.641, 0, 0, []
1630311091.4522, 57, 0, 4215.897, 4222.564, 4115.897, 4154.359, 4160, 0, 0, []
1630311091.4601, 58, 0, 4202.051, 4206.667, 4093.333, 4143.077, 4161.026, 0, 0, []
1630311091.4681, 59, 0, 4194.872, 4186.154, 4082.564, 4143.077, 4165.128, 0, 0, []
1630311091.476, 60, 0, 4212.821, 4204.103, 4116.41, 4168.718, 4171.795, 0, 0, []
1630311091.4838, 61, 0, 4226.154, 4215.897, 4094.872, 4183.077, 4166.667, 0, 0, []
1630311091.4917, 62, 0, 4217.436, 4201.026, 4108.205, 4165.641, 4158.974, 0, 0, []
1630311091.4995, 63, 0, 4212.821, 4205.128, 4084.103, 4153.846, 4175.385, 0, 0, []
1630311091.5075, 64, 0, 4214.872, 4208.718, 4088.718, 4169.231, 4190.769, 450, 0, []
1630311091.5154, 65, 0, 4213.333, 4182.564, 4113.846, 4172.308, 4172.308, 450, 0, []
1630311091.5232, 66, 0, 4210.256, 4182.564, 4068.718, 4151.795, 4147.692, 16195, 0, []
1630311091.531, 67, 0, 4205.641, 4216.41, 4100.513, 4144.615, 4154.359, 450, 0, []
1630311091.5389, 68, 0, 4198.974, 4212.308, 4098.462, 4153.846, 4176.923, 16121, 0, []
1630311091.5467, 69, 0, 4196.41, 4187.179, 4082.564, 4161.538, 4184.103, 450, 0, []
1630311091.5546, 70, 0, 4203.077, 4200.513, 4104.103, 4160.513, 4170.256, 225, 0, []
1630311091.5623, 71, 0, 4210.769, 4218.974, 4064.103, 4154.872, 4162.051, 450, 0, []
1630311091.5702, 72, 0, 4199.487, 4203.59, 4091.282, 4151.282, 4172.308, 450, 0, []
1630311091.578, 73, 0, 4185.128, 4187.692, 4097.949, 4148.718, 4177.436, 16141, 0, []
1630311091.586, 74, 0, 4193.333, 4196.41, 4075.385, 4154.872, 4168.205, 450, 0, []
1630311091.5939, 75, 0, 4205.128, 4193.846, 4098.974, 4164.103, 4162.051, 16208, 0, []
1630311091.6018, 76, 0, 4203.077, 4184.103, 4073.846, 4156.923, 4165.641, 450, 0, []
1630311091.6098, 77, 0, 4195.897, 4198.974, 4100.513, 4148.718, 4172.821, 450, 0, []
1630311091.6177, 78, 0, 4192.308, 4223.077, 4106.154, 4161.538, 4181.026, 450, 0, []
1630311091.6257, 79, 0, 4203.077, 4229.231, 4087.692, 4183.59, 4188.205, 16208, 0, []
1630311091.6336, 80, 0, 4216.41, 4207.692, 4119.487, 4185.128, 4180, 450, 0, []
1630311091.6416, 81, 0, 4206.667, 4181.538, 4074.359, 4159.487, 4162.051, 450, 0, []
1630311091.6494, 82, 0, 4190.256, 4191.795, 4083.59, 4148.718, 4161.026, 450, 0, []
1630311091.6574, 83, 0, 4202.564, 4212.308, 4114.872, 4165.641, 4172.308, 16208, 0, []
1630311091.6653, 84, 0, 4225.128, 4199.487, 4089.231, 4172.821, 4172.821, 450, 0, []
1630311091.6733, 85, 0, 4225.128, 4192.308, 4105.641, 4157.949, 4164.615, 450, 0, []
1630311091.6812, 86, 0, 4210.769, 4201.026, 4077.436, 4140, 4165.641, 450, 0, []
1630311091.6891, 87, 0, 4209.744, 4196.923, 4090.769, 4154.359, 4185.641, 16208, 0, []
1630311091.697, 88, 0, 4223.077, 4202.564, 4110.769, 4183.59, 4205.641, 450, 0, []
1630311091.705, 89, 0, 4225.641, 4212.308, 4070.769, 4180, 4193.333, 450, 0, []
1630311091.7129, 90, 0, 4221.026, 4200, 4099.487, 4159.487, 4167.179, 450, 0, []
1630311091.7209, 91, 0, 4223.077, 4201.026, 4092.308, 4151.795, 4177.949, 16208, 0, []
1630311091.7287, 92, 0, 4215.385, 4221.538, 4095.385, 4153.846, 4200, 450, 0, []
1630311091.7367, 93, 0, 4202.051, 4222.564, 4107.692, 4158.462, 4192.821, 450, 0, []
1630311091.7446, 94, 0, 4212.308, 4211.795, 4074.872, 4166.667, 4178.462, 450, 0, []
1630311091.7526, 95, 0, 4230.769, 4204.103, 4111.282, 4176.41, 4171.282, 16208, 0, []
1630311091.7606, 96, 0, 4226.154, 4190.769, 4091.795, 4166.154, 4159.487, 450, 0, []
1630311091.7684, 97, 0, 4207.692, 4184.615, 4071.795, 4148.205, 4146.154, 450, 0, []
1630311091.7764, 98, 0, 4203.077, 4196.923, 4093.846, 4151.795, 4149.231, 450, 0, []
1630311091.7843, 99, 0, 4229.231, 4206.667, 4072.308, 4177.436, 4173.333, 16208, 0, []
1630311091.7923, 100, 0, 4256.41, 4197.949, 4109.744, 4188.205, 4189.744, 450, 0, []
1630311091.8002, 101, 0, 4237.436, 4191.795, 4096.41, 4158.974, 4173.333, 450, 0, []
1630311091.8081, 102, 0, 4201.026, 4201.026, 4081.538, 4144.615, 4161.026, 450, 0, []
1630311091.816, 103, 0, 4194.872, 4211.282, 4114.359, 4168.205, 4173.846, 16208, 0, []
1630311091.824, 104, 0, 4207.179, 4213.846, 4075.897, 4176.41, 4172.821, 450, 0, []
1630311091.8319, 105, 0, 4223.077, 4213.846, 4103.077, 4172.308, 4163.59, 450, 0, []
1630311091.8399, 106, 0, 4228.205, 4209.231, 4106.667, 4168.205, 4170.256, 450, 0, []
1630311091.8477, 107, 0, 4201.538, 4195.385, 4071.282, 4146.154, 4168.205, 16208, 0, []
1630311091.8557, 108, 0, 4177.436, 4189.231, 4091.282, 4129.231, 4156.41, 450, 0, []
1630311091.8636, 109, 0, 4189.744, 4207.179, 4066.667, 4143.077, 4154.872, 450, 0, []
1630311091.8716, 110, 0, 4202.564, 4214.359, 4092.308, 4151.795, 4153.333, 450, 0, []
1630311091.8795, 111, 0, 4198.462, 4198.462, 4108.205, 4144.615, 4153.846, 16208, 0, []
1630311091.8874, 112, 0, 4196.41, 4204.103, 4090.256, 4154.872, 4169.744, 450, 0, []
1630311091.8954, 113, 0, 4211.795, 4207.179, 4118.974, 4172.308, 4189.744, 450, 0, []
1630311091.9033, 114, 0, 4231.795, 4187.179, 4081.026, 4170.769, 4191.282, 450, 0, []
1630311091.9113, 115, 0, 4229.744, 4196.923, 4088.718, 4160, 4181.538, 16208, 0, []
1630311091.9192, 116, 0, 4211.795, 4221.026, 4106.154, 4152.308, 4182.051, 450, 0, []
1630311091.9271, 117, 0, 4207.692, 4208.205, 4084.103, 4153.846, 4192.308, 450, 0, []
1630311091.935, 118, 0, 4222.051, 4204.103, 4114.872, 4166.667, 4192.821, 450, 0, []
1630311091.943, 119, 0, 4224.615, 4225.128, 4080.513, 4163.59, 4172.308, 16208, 0, []
1630311091.9509, 120, 0, 4209.744, 4212.821, 4086.667, 4147.692, 4161.026, 450, 0, []
1630311091.9589, 121, 0, 4203.077, 4208.718, 4121.026, 4157.949, 4175.385, 450, 0, []
1630311091.9667, 122, 0, 4204.615, 4217.949, 4096.41, 4173.333, 4175.385, 450, 0, []
1630311091.9747, 123, 0, 4209.231, 4202.051, 4118.974, 4168.205, 4153.333, 16208, 0, []
1630311091.9826, 124, 0, 4211.282, 4194.872, 4089.231, 4153.846, 4155.385, 450, 0, []
1630311091.9906, 125, 0, 4207.179, 4200.513, 4088.205, 4155.385, 4180.513, 450, 0, []
1630311091.9985, 126, 0, 4197.436, 4201.538, 4109.744, 4161.538, 4181.026, 450, 0, []
1630311092.0064, 127, 0, 4194.872, 4201.538, 4066.667, 4160, 4152.308, 16208, 0, []
1630311092.0143, 128, 0, 4204.615, 4207.179, 4095.385, 4165.641, 4148.718, 450, 0, []
1630311092.0223, 0, 0, 4209.744, 4205.128, 4092.308, 4161.026, 4174.359, 450, 0, []
1630311092.0302, 1, 0, 4209.231, 4209.744, 4087.179, 4153.846, 4183.077, 450, 0, []
1630311092.0382, 2, 0, 4220, 4226.154, 4115.385, 4172.308, 4172.308, 16186, 0, []
1630311092.0462, 3, 0, 4227.179, 4220.513, 4097.949, 4191.795, 4168.205, 450, 0, []
1630311092.054, 4, 0, 4213.333, 4189.744, 4124.615, 4183.59, 4168.205, 16128, 0, []
1630311092.062, 5, 0, 4193.846, 4176.41, 4094.872, 4167.179, 4166.154, 450, 0, []
1630311092.0699, 6, 0, 4193.846, 4205.641, 4075.897, 4176.923, 4174.359, 224, 0, []
1630311092.0779, 7, 0, 4197.436, 4210.769, 4110.256, 4191.282, 4172.821, 450, 0, []
1630311092.0858, 8, 0, 4195.897, 4187.692, 4077.436, 4182.564, 4150.769, 450, 0, []
1630311092.0937, 9, 0, 4200.513, 4207.692, 4100.513, 4166.154, 4150.769, 16148, 0, []
1630311092.1016, 10, 0, 4201.026, 4227.179, 4094.872, 4157.436, 4177.949, 450, 0, []
1630311092.1096, 11, 0, 4202.051, 4210.256, 4070.256, 4163.59, 4191.282, 16200, 0, []
1630311092.1175, 12, 0, 4216.923, 4209.744, 4099.487, 4178.974, 4185.128, 450, 0, []
1630311092.1255, 13, 0, 4222.051, 4224.103, 4074.359, 4175.897, 4180.513, 450, 0, []
1630311092.1333, 14, 0, 4203.077, 4213.846, 4107.692, 4165.641, 4187.179, 450, 0, []
1630311092.1413, 15, 0, 4183.59, 4213.333, 4110.769, 4168.718, 4190.769, 16200, 0, []
1630311092.1492, 16, 0, 4181.026, 4215.897, 4068.205, 4177.949, 4175.897, 0, 0, []
1630311092.1572, 17, 0, 4193.846, 4195.897, 4107.692, 4187.179, 4165.128, 0, 0, []
1630311092.1651, 18, 0, 4212.308, 4202.051, 4101.538, 4189.744, 4183.077, 0, 0, []
1630311092.173, 19, 0, 4216.923, 4239.487, 4114.872, 4193.846, 4202.564, 0, 0, []
1630311092.1809, 20, 0, 4210.256, 4248.205, 4114.359, 4193.333, 4193.333, 0, 0, []
1630311092.1889, 21, 0, 4200.513, 4212.308, 4065.128, 4172.821, 4171.795, 0, 0, []
1630311092.1968, 22, 0, 4191.282, 4192.821, 4083.077, 4161.538, 4163.59, 0, 0, []
1630311092.2048, 23, 0, 4187.179, 4218.974, 4067.179, 4165.128, 4171.282, 0, 0, []
1630311092.2127, 24, 0, 4180.513, 4233.333, 4077.949, 4165.128, 4168.205, 0, 0, []
1630311092.2206, 25, 0, 4174.872, 4208.205, 4088.718, 4166.667, 4157.949, 0, 0, []
1630311092.2286, 26, 0, 4178.974, 4191.282, 4063.077, 4167.179, 4161.026, 0, 0, []
1630311092.2365, 27, 0, 4186.154, 4214.359, 4110.256, 4156.41, 4170.256, 0, 0, []
1630311092.2445, 28, 0, 4192.821, 4237.436, 4099.487, 4159.487, 4182.051, 0, 0, []
1630311092.2523, 29, 0, 4204.615, 4229.744, 4091.282, 4177.949, 4187.179, 0, 0, []
1630311092.2603, 30, 0, 4206.667, 4228.205, 4096.923, 4169.744, 4175.385, 0, 0, []
1630311092.2682, 31, 0, 4192.308, 4241.538, 4064.103, 4153.333, 4164.103, 0, 0, []
1630311092.2762, 32, 0, 4180, 4218.974, 4109.231, 4164.615, 4170.769, 0, 0, []
1630311092.2841, 33, 0, 4183.077, 4193.333, 4097.436, 4172.821, 4183.59, 0, 0, []
1630311092.292, 34, 0, 4192.821, 4217.949, 4080.513, 4168.205, 4183.59, 0, 0, []
1630311092.2999, 35, 0, 4193.333, 4231.282, 4097.949, 4166.667, 4174.359, 0, 0, []
1630311092.3079, 36, 0, 4184.615, 4216.41, 4058.974, 4154.359, 4165.641, 0, 0, []
1630311092.3158, 37, 0, 4182.564, 4224.103, 4090.769, 4152.821, 4173.333, 0, 0, []
1630311092.3238, 38, 0, 4187.179, 4224.615, 4088.205, 4170.769, 4177.436, 0, 0, []
1630311092.3316, 39, 0, 4187.179, 4210.256, 4070.769, 4169.231, 4151.282, 0, 0, []
1630311092.3396, 40, 0, 4195.385, 4218.974, 4100.513, 4143.59, 4137.436, 0, 0, []
1630311092.3475, 41, 0, 4210.769, 4227.179, 4073.846, 4135.385, 4160.513, 0, 0, []
1630311092.3553, 42, 0, 4212.308, 4217.949, 4091.282, 4154.359, 4168.718, 0, 0, []
1630311092.3633, 43, 0, 4204.103, 4209.231, 4071.282, 4151.795, 4137.949, 0, 0, []
1630311092.3711, 44, 0, 4192.821, 4209.744, 4050.256, 4131.282, 4117.949, 0, 0, []
1630311092.3791, 45, 0, 4187.692, 4216.923, 4106.667, 4136.41, 4135.897, 0, 0, []
1630311092.387, 46, 0, 4192.821, 4204.615, 4082.564, 4153.846, 4153.846, 0, 0, []
1630311092.395, 47, 0, 4200, 4194.872, 4078.462, 4157.436, 4145.641, 0, 0, []
1630311092.4029, 48, 0, 4200.513, 4215.385, 4080, 4147.179, 4132.821, 0, 0, []
1630311092.4109, 49, 0, 4196.41, 4215.897, 4078.974, 4138.974, 4142.564, 0, 0, []
1630311092.4187, 50, 0, 4187.692, 4196.41, 4112.308, 4144.103, 4153.846, 0, 0, []
1630311092.4267, 51, 0, 4183.077, 4208.718, 4065.128, 4142.564, 4140, 0, 0, []
1630311092.4346, 52, 0, 4190.256, 4223.59, 4082.564, 4129.231, 4131.795, 0, 0, []
1630311092.4426, 53, 0, 4186.667, 4212.821, 4105.641, 4126.667, 4150.256, 0, 0, []
1630311092.4505, 54, 0, 4181.538, 4204.615, 4065.128, 4141.026, 4160.513, 0, 0, []
1630311092.4584, 55, 0, 4197.949, 4203.59, 4086.154, 4156.923, 4151.282, 0, 0, []
1630311092.4663, 56, 0, 4203.59, 4201.026, 4066.667, 4152.821, 4138.974, 0, 0, []
1630311092.4742, 57, 0, 4184.615, 4196.923, 4076.923, 4144.103, 4136.923, 0, 0, []
1630311092.4821, 58, 0, 4170.256, 4199.487, 4088.718, 4149.744, 4148.205, 0, 0, []
1630311092.49, 59, 0, 4175.897, 4212.308, 4055.385, 4163.59, 4151.795, 0, 0, []
1630311092.4979, 60, 0, 4188.718, 4215.385, 4096.923, 4172.821, 4140, 0, 0, []
1630311092.5059, 61, 0, 4185.128, 4200.513, 4080.513, 4155.897, 4141.026, 0, 0, []
1630311092.5138, 62, 0, 4169.744, 4191.795, 4074.359, 4140.513, 4154.359, 0, 0, []
1630311092.5217, 63, 0, 4174.359, 4206.667, 4098.974, 4153.333, 4149.744, 0, 0, []
1630311092.5297, 64, 0, 4195.897, 4222.051, 4072.821, 4163.59, 4134.359, 450, 0, []
1630311092.5375, 65, 0, 4190.769, 4209.231, 4096.923, 4151.282, 4133.333, 450, 0, []
1630311092.5455, 66, 0, 4168.205, 4192.821, 4072.308, 4145.128, 4148.205, 16188, 0, []
1630311092.5534, 67, 0, 4165.641, 4205.128, 4065.128, 4158.462, 4159.487, 450, 0, []
1630311092.5614, 68, 0, 4175.385, 4218.462, 4092.821, 4155.897, 4144.103, 16128, 0, []
1630311092.5693, 69, 0, 4172.308, 4208.205, 4063.077, 4133.846, 4124.615, 450, 0, []
1630311092.5772, 70, 0, 4168.718, 4193.846, 4099.487, 4136.923, 4134.359, 238, 0, []
1630311092.5851, 71, 0, 4181.026, 4198.462, 4093.846, 4160.513, 4149.231, 450, 0, []
1630311092.5931, 72, 0, 4192.308, 4217.949, 4077.436, 4162.051, 4140, 450, 0, []
1630311092.601, 73, 0, 4195.385, 4214.872, 4109.231, 4146.667, 4135.897, 16149, 0, []
1630311092.609, 74, 0, 4198.462, 4198.974, 4075.897, 4146.154, 4154.359, 450, 0, []
1630311092.6168, 75, 0, 4200, 4207.179, 4091.282, 4162.051, 4154.359, 16203, 0, []
1630311092.6247, 76, 0, 4192.308, 4226.667, 4083.077, 4160, 4123.077, 450, 0, []
1630311092.6326, 77, 0, 4184.103, 4222.564, 4060.513, 4146.154, 4106.667, 450, 0, []
1630311092.6404, 78, 0, 4181.026, 4212.308, 4095.385, 4151.795, 4120, 450, 0, []
1630311092.6483, 79, 0, 4189.744, 4206.667, 4070.769, 4165.128, 4126.154, 16203, 0, []
1630311092.656, 80, 0, 4206.667, 4194.872, 4092.821, 4176.41, 4118.974, 450, 0, []
1630311092.6639, 81, 0, 4212.308, 4202.051, 4105.128, 4178.974, 4118.974, 450, 0, []
1630311092.6717, 82, 0, 4197.949, 4223.077, 4079.487, 4164.615, 4124.103, 450, 0, []
1630311092.6796, 83, 0, 4184.615, 4212.308, 4093.846, 4153.846, 4125.641, 16203, 0, []
1630311092.6874, 84, 0, 4193.333, 4181.538, 4056.41, 4160.513, 4122.564, 450, 0, []
1630311092.6953, 85, 0, 4213.333, 4191.795, 4086.667, 4172.821, 4123.077, 450, 0, []
1630311092.7032, 86, 0, 4226.667, 4230.256, 4118.462, 4174.359, 4141.538, 450, 0, []
1630311092.7112, 87, 0, 4222.564, 4224.103, 4087.692, 4173.846, 4167.692, 16203, 0, []
1630311092.7191, 88, 0, 4200.513, 4191.795, 4102.051, 4175.385, 4157.949, 450, 0, []
1630311092.7271, 89, 0, 4188.205, 4203.59, 4067.179, 4164.103, 4118.462, 450, 0, []
1630311092.7349, 90, 0, 4196.923, 4222.564, 4084.103, 4159.487, 4117.436, 450, 0, []
1630311092.7429, 91, 0, 4201.538, 4210.769, 4109.744, 4170.769, 4150.256, 16203, 0, []
1630311092.7508, 92, 0, 4194.872, 4205.641, 4072.821, 4177.436, 4156.41, 450, 0, []
1630311092.7588, 93, 0, 4209.744, 4218.462, 4107.692, 4182.564, 4152.821, 450, 0, []
1630311092.7667, 94, 0, 4235.897, 4235.897, 4100.513, 4186.154, 4172.308, 450, 0, []
1630311092.7746, 95, 0, 4229.231, 4226.154, 4098.462, 4173.333, 4179.487, 16203, 0, []
1630311092.7825, 96, 0, 4199.487, 4191.282, 4110.256, 4160, 4164.103, 450, 0, []
1630311092.7903, 97, 0, 4202.051, 4195.385, 4080.513, 4171.795, 4162.564, 450, 0, []
1630311092.7982, 98, 0, 4237.436, 4232.308, 4116.923, 4190.769, 4173.333, 450, 0, []
1630311092.806, 99, 0, 4238.462, 4229.744, 4100, 4181.026, 4170.769, 16203, 0, []
1630311092.814, 100, 0, 4207.179, 4211.282, 4095.385, 4165.641, 4165.128, 450, 0, []
1630311092.8218, 101, 0, 4203.59, 4212.821, 4127.692, 4177.436, 4175.897, 450, 0, []
1630311092.8298, 102, 0, 4222.564, 4211.282, 4086.154, 4190.769, 4189.231, 450, 0, []
1630311092.8377, 103, 0, 4223.59, 4221.538, 4104.103, 4187.179, 4177.436, 16203, 0, []
1630311092.8457, 104, 0, 4205.641, 4237.949, 4101.026, 4170.769, 4156.41, 450, 0, []
1630311092.8536, 105, 0, 4195.385, 4224.615, 4094.872, 4167.179, 4158.974, 450, 0, []
1630311092.8615, 106, 0, 4198.974, 4206.154, 4116.923, 4181.026, 4164.103, 450, 0, []
1630311092.8694, 107, 0, 4199.487, 4213.333, 4073.333, 4184.103, 4140, 16203, 0, []
1630311092.8774, 108, 0, 4200.513, 4219.487, 4101.538, 4180.513, 4127.179, 450, 0, []
1630311092.8853, 109, 0, 4210.256, 4214.359, 4111.795, 4185.128, 4153.846, 450, 0, []
1630311092.8933, 110, 0, 4215.385, 4220, 4090.769, 4189.744, 4165.641, 450, 0, []
1630311092.9011, 111, 0, 4216.41, 4232.821, 4111.795, 4186.154, 4144.615, 16203, 0, []
1630311092.9091, 112, 0, 4218.974, 4231.795, 4083.077, 4176.923, 4136.41, 450, 0, []
1630311092.917, 113, 0, 4206.154, 4212.308, 4112.308, 4167.179, 4144.103, 450, 0, []
1630311092.9248, 114, 0, 4185.641, 4208.718, 4115.897, 4162.564, 4140.513, 450, 0, []
1630311092.9327, 115, 0, 4186.667, 4231.795, 4077.436, 4167.692, 4123.077, 16203, 0, []
1630311092.9404, 116, 0, 4185.641, 4227.179, 4098.974, 4159.487, 4099.487, 450, 0, []
1630311092.9483, 117, 0, 4168.718, 4191.795, 4069.231, 4138.974, 4096.41, 450, 0, []
1630311092.9561, 118, 0, 4183.59, 4191.795, 4090.256, 4155.897, 4122.051, 450, 0, []
1630311092.964, 119, 0, 4207.179, 4233.333, 4112.308, 4183.077, 4125.128, 16203, 0, []
1630311092.9718, 120, 0, 4197.436, 4238.462, 4087.692, 4175.897, 4104.103, 450, 0, []
1630311092.9797, 121, 0, 4203.077, 4204.615, 4122.564, 4176.41, 4127.179, 450, 0, []
1630311092.9876, 122, 0, 4220, 4205.641, 4093.846, 4190.256, 4164.103, 450, 0, []
1630311092.9956, 123, 0, 4205.641, 4217.949, 4086.667, 4187.179, 4152.821, 16203, 0, []
1630311093.0035, 124, 0, 4195.385, 4194.872, 4093.333, 4178.462, 4132.308, 450, 0, []
1630311093.0115, 125, 0, 4205.128, 4185.641, 4063.59, 4171.282, 4134.359, 450, 0, []
1630311093.0193, 126, 0, 4205.128, 4210.769, 4112.308, 4167.692, 4140.513, 450, 0, []
1630311093.0273, 127, 0, 4201.026, 4211.282, 4096.41, 4171.795, 4143.59, 16203, 0, []
1630311093.0352, 128, 0, 4198.462, 4195.385, 4075.385, 4172.308, 4132.821, 450, 0, []
1630311093.0432, 0, 0, 4204.103, 4215.897, 4091.795, 4171.795, 4116.41, 450, 0, []
1630311093.0511, 1, 0, 4213.333, 4227.179, 4072.308, 4165.641, 4125.641, 450, 0, []
1630311093.059, 2, 0, 4193.333, 4202.564, 4099.487, 4146.667, 4135.385, 16187, 0, []
1630311093.0669, 3, 0, 4175.897, 4194.359, 4081.026, 4130.769, 4125.128, 450, 0, []
1630311093.0749, 4, 0, 4193.846, 4201.026, 4086.154, 4131.282, 4114.359, 16131, 0, []
1630311093.0828, 5, 0, 4206.154, 4196.923, 4116.41, 4136.923, 4124.615, 450, 0, []
1630311093.0906, 6, 0, 4201.026, 4205.641, 4085.641, 4147.692, 4143.077, 231, 0, []
1630311093.0984, 7, 0, 4202.564, 4215.897, 4118.974, 4174.359, 4146.154, 450, 0, []
1630311093.1062, 8, 0, 4205.128, 4209.231, 4105.641, 4182.564, 4136.923, 450, 0, []
1630311093.1141, 9, 0, 4202.564, 4209.231, 4090.256, 4166.154, 4131.795, 16149, 0, []
1630311093.1219, 10, 0, 4201.026, 4210.769, 4122.051, 4150.256, 4139.487, 450, 0, []
1630311093.1298, 11, 0, 4201.538, 4200.513, 4084.615, 4138.462, 4147.692, 16204, 0, []
1630311093.1375, 12, 0, 4221.538, 4202.051, 4108.205, 4142.051, 4147.692, 450, 0, []
1630311093.1455, 13, 0, 4242.564, 4212.308, 4110.256, 4143.59, 4143.59, 450, 0, []
1630311093.1534, 14, 0, 4223.077, 4198.462, 4081.026, 4122.564, 4133.333, 450, 0, []
1630311093.1614, 15, 0, 4192.821, 4197.436, 4099.487, 4113.333, 4122.051, 16204, 0, []
1630311093.1693, 16, 0, 4202.564, 4230.256, 4084.103, 4151.282, 4128.205, 0, 0, []
1630311093.1773, 17, 0, 4216.41, 4234.872, 4110.769, 4183.077, 4133.846, 0, 0, []
1630311093.1851, 18, 0, 4202.051, 4216.41, 4092.821, 4162.051, 4118.974, 0, 0, []
1630311093.1931, 19, 0, 4203.59, 4222.564, 4075.897, 4154.359, 4127.692, 0, 0, []
1630311093.201, 20, 0, 4233.333, 4232.821, 4132.308, 4188.718, 4173.333, 0, 0, []
1630311093.209, 21, 0, 4238.462, 4206.667, 4100.513, 4200, 4188.718, 0, 0, []
1630311093.2169, 22, 0, 4219.487, 4188.205, 4099.487, 4181.026, 4163.59, 0, 0, []
1630311093.2248, 23, 0, 4217.949, 4218.462, 4101.538, 4165.641, 4151.282, 0, 0, []
1630311093.2327, 24, 0, 4215.897, 4238.974, 4075.385, 4152.308, 4148.718, 0, 0, []
1630311093.2405, 25, 0, 4193.846, 4228.205, 4111.282, 4148.718, 4137.949, 0, 0, []
1630311093.2484, 26, 0, 4174.359, 4215.385, 4085.641, 4159.487, 4128.205, 0, 0, []
1630311093.2562, 27, 0, 4183.077, 4210.256, 4094.359, 4178.974, 4133.846, 0, 0, []
1630311093.264, 28, 0, 4211.282, 4216.923, 4109.744, 4195.897, 4149.744, 0, 0, []
1630311093.2718, 29, 0, 4223.077, 4222.564, 4078.974, 4191.795, 4155.385, 0, 0, []
1630311093.2798, 30, 0, 4201.026, 4209.231, 4111.795, 4167.692, 4148.205, 0, 0, []
1630311093.2877, 31, 0, 4174.359, 4206.667, 4091.282, 4149.744, 4142.051, 0, 0, []
1630311093.2957, 32, 0, 4171.795, 4229.744, 4089.231, 4160, 4129.231, 0, 0, []
1630311093.3035, 33, 0, 4170.256, 4231.282, 4086.667, 4157.436, 4093.333, 0, 0, []
1630311093.3115, 34, 0, 4167.179, 4215.897, 4056.923, 4141.026, 4084.615, 0, 0, []
1630311093.3194, 35, 0, 4180.513, 4208.718, 4120, 4164.103, 4126.154, 0, 0, []
1630311093.3274, 36, 0, 4199.487, 4198.462, 4101.538, 4197.949, 4150.769, 0, 0, []
1630311093.3353, 37, 0, 4212.821, 4203.59, 4090.769, 4205.641, 4138.462, 0, 0, []
1630311093.3432, 38, 0, 4222.051, 4232.821, 4116.923, 4199.487, 4125.641, 0, 0, []
1630311093.3511, 39, 0, 4216.41, 4237.436, 4074.872, 4170.769, 4114.359, 0, 0, []
1630311093.3591, 40, 0, 4190.256, 4215.385, 4097.436, 4135.385, 4106.154, 0, 0, []
1630311093.367, 41, 0, 4169.744, 4214.359, 4073.333, 4123.077, 4104.103, 0, 0, []
1630311093.375, 42, 0, 4171.282, 4224.615, 4073.846, 4129.231, 4091.795, 0, 0, []
1630311093.3828, 43, 0, 4188.205, 4224.615, 4108.718, 4135.897, 4087.179, 0, 0, []
1630311093.3906, 44, 0, 4203.59, 4214.872, 4070.256, 4137.436, 4110.256, 0, 0, []
1630311093.3985, 45, 0, 4206.667, 4204.615, 4113.333, 4157.436, 4138.974, 0, 0, []
1630311093.4063, 46, 0, 4201.026, 4209.231, 4090.769, 4178.462, 4145.128, 0, 0, []
1630311093.4142, 47, 0, 4201.026, 4227.179, 4083.077, 4178.462, 4130.256, 0, 0, []
1630311093.4219, 48, 0, 4205.128, 4241.026, 4124.103, 4169.231, 4113.333, 0, 0, []
1630311093.4298, 49, 0, 4195.897, 4229.744, 4067.692, 4151.282, 4112.308, 0, 0, []
1630311093.4376, 50, 0, 4183.59, 4203.59, 4109.231, 4138.974, 4118.974, 0, 0, []
1630311093.4455, 51, 0, 4186.667, 4198.462, 4090.769, 4144.103, 4116.923, 0, 0, []
1630311093.4533, 52, 0, 4186.154, 4203.59, 4068.205, 4154.872, 4105.128, 0, 0, []
1630311093.4612, 53, 0, 4159.487, 4179.487, 4122.051, 4138.462, 4089.744, 0, 0, []
1630311093.4691, 54, 0, 4135.385, 4142.564, 4073.333, 4116.923, 4084.103, 0, 0, []
1630311093.4771, 55, 0, 4154.359, 4148.205, 4109.744, 4143.59, 4098.462, 0, 0, []
1630311093.485, 56, 0, 4183.077, 4171.282, 4115.897, 4165.128, 4106.154, 0, 0, []
1630311093.4929, 57, 0, 4180.513, 4164.615, 4094.359, 4144.103, 4102.051, 0, 0, []
1630311093.5007, 58, 0, 4166.667, 4162.051, 4132.821, 4134.359, 4109.744, 0, 0, []
1630311093.5085, 59, 0, 4172.308, 4162.051, 4088.205, 4157.949, 4125.641, 0, 0, []
1630311093.5165, 60, 0, 4189.744, 4141.026, 4104.103, 4174.872, 4131.795, 0, 0, []
1630311093.5244, 61, 0, 4187.692, 4119.487, 4106.667, 4148.718, 4117.949, 0, 0, []
1630311093.5323, 62, 0, 4149.744, 4105.128, 4078.462, 4115.897, 4091.795, 0, 0, []
1630311093.5402, 63, 0, 4122.051, 4098.974, 4100, 4121.538, 4082.564, 0, 0, []
1630311093.548, 64, 0, 4143.077, 4114.359, 4068.205, 4135.897, 4088.205, 450, 0, []
1630311093.5558, 65, 0, 4156.41, 4136.41, 4091.282, 4130.769, 4086.667, 450, 0, []
1630311093.5637, 66, 0, 4146.154, 4141.026, 4109.744, 4128.205, 4106.667, 16194, 0, []
1630311093.5715, 67, 0, 4170.769, 4135.897, 4099.487, 4146.154, 4162.564, 450, 0, []
1630311093.5794, 68, 0, 4210.769, 4121.538, 4133.846, 4167.692, 4204.103, 16128, 0, []
1630311093.5871, 69, 0, 4215.897, 4108.205, 4100.513, 4172.308, 4213.333, 450, 0, []
1630311093.595, 70, 0, 4200.513, 4098.462, 4098.462, 4165.128, 4218.974, 233, 0, []
1630311093.6028, 71, 0, 4187.692, 4084.103, 4114.359, 4164.615, 4240.513, 450, 0, []
1630311093.6108, 72, 0, 4174.872, 4088.718, 4090.769, 4183.077, 4257.436, 450, 0, []
1630311093.6187, 73, 0, 4169.744, 4100.513, 4109.231, 4204.615, 4242.564, 16139, 0, []
1630311093.6266, 74, 0, 4175.897, 4091.795, 4099.487, 4203.59, 4226.667, 450, 0, []
1630311093.6345, 75, 0, 4184.103, 4075.897, 4124.103, 4203.077, 4243.077, 16204, 0, []
1630311093.6425, 76, 0, 4192.821, 4061.026, 4137.436, 4222.051, 4255.897, 450, 0, []
1630311093.6504, 77, 0, 4195.897, 4058.462, 4097.436, 4235.385, 4240, 450, 0, []
1630311093.6584, 78, 0, 4190.256, 4062.564, 4129.231, 4228.718, 4213.333, 450, 0, []
1630311093.6662, 79, 0, 4178.462, 4003.59, 4122.564, 4210.769, 4194.872, 16204, 0, []
1630311093.6742, 80, 0, 4164.615, 3891.795, 4108.205, 4206.154, 4189.231, 450, 0, []
1630311093.6821, 81, 0, 4152.821, 3820, 4107.179, 4203.077, 4179.487, 450, 0, []
1630311093.69, 82, 0, 4153.333, 3798.974, 4087.692, 4197.436, 4164.103, 450, 0, []
1630311093.6979, 83, 0, 4157.949, 3777.949, 4134.872, 4201.538, 4173.846, 16204, 0, []
1630311093.7056, 84, 0, 4158.974, 3740, 4120.513, 4206.667, 4188.205, 450, 0, []
1630311093.7135, 85, 0, 4167.692, 3717.949, 4102.051, 4215.385, 4177.436, 450, 0, []
1630311093.7213, 86, 0, 4167.179, 3705.641, 4132.821, 4218.462, 4166.667, 450, 0, []
1630311093.7292, 87, 0, 4143.077, 3670.256, 4104.103, 4206.667, 4170.256, 16204, 0, []
1630311093.737, 88, 0, 4127.692, 3646.667, 4114.872, 4205.641, 4164.615, 450, 0, []
1630311093.7448, 89, 0, 4141.538, 3666.667, 4112.821, 4209.744, 4151.795, 450, 0, []
1630311093.7526, 90, 0, 4151.282, 3687.179, 4093.846, 4186.154, 4148.718, 450, 0, []
1630311093.7606, 91, 0, 4148.205, 3681.538, 4107.179, 4171.795, 4154.359, 16204, 0, []
1630311093.7685, 92, 0, 4159.487, 3682.564, 4089.231, 4192.308, 4161.538, 450, 0, []
1630311093.7765, 93, 0, 4174.872, 3681.026, 4116.923, 4199.487, 4160.513, 450, 0, []
1630311093.7843, 94, 0, 4172.821, 3671.282, 4120.513, 4188.718, 4166.154, 450, 0, []
1630311093.7923, 95, 0, 4173.333, 3673.846, 4102.564, 4195.897, 4185.128, 16204, 0, []
1630311093.8002, 96, 0, 4184.103, 3681.538, 4126.667, 4206.667, 4179.487, 450, 0, []
1630311093.8082, 97, 0, 4176.41, 3680, 4111.282, 4189.231, 4161.026, 450, 0, []
1630311093.8161, 98, 0, 4160.513, 3666.667, 4129.744, 4182.564, 4163.59, 450, 0, []
1630311093.824, 99, 0, 4175.385, 3670.256, 4122.051, 4201.538, 4173.333, 16204, 0, []
1630311093.8319, 100, 0, 4191.795, 3691.282, 4082.051, 4203.077, 4169.744, 450, 0, []
1630311093.8399, 101, 0, 4180, 3692.308, 4102.564, 4184.103, 4167.692, 450, 0, []
1630311093.8478, 102, 0, 4173.846, 3689.744, 4092.308, 4180, 4173.846, 450, 0, []
1630311093.8558, 103, 0, 4181.538, 3723.59, 4103.59, 4194.872, 4167.179, 16204, 0, []
1630311093.8636, 104, 0, 4180.513, 3746.667, 4113.846, 4200.513, 4161.026, 450, 0, []
1630311093.8714, 105, 0, 4165.128, 3716.923, 4093.333, 4192.308, 4172.821, 450, 0, []
1630311093.8793, 106, 0, 4164.615, 3716.41, 4115.385, 4195.897, 4190.769, 450, 0, []
1630311093.8871, 107, 0, 4183.077, 3742.051, 4099.487, 4202.051, 4192.308, 16204, 0, []
1630311093.895, 108, 0, 4187.692, 3725.641, 4109.231, 4193.333, 4178.462, 450, 0, []
1630311093.9028, 109, 0, 4168.205, 3727.179, 4123.59, 4190.256, 4182.051, 450, 0, []
1630311093.9106, 110, 0, 4159.487, 3760, 4092.308, 4198.462, 4190.256, 450, 0, []
1630311093.9184, 111, 0, 4178.974, 3743.077, 4110.256, 4195.385, 4161.538, 16204, 0, []
1630311093.9264, 112, 0, 4189.744, 3736.923, 4096.41, 4179.487, 4133.846, 450, 0, []
1630311093.9343, 113, 0, 4183.077, 3783.077, 4097.949, 4184.615, 4160, 450, 0, []
1630311093.9423, 114, 0, 4185.128, 3781.026, 4120.513, 4205.128, 4181.026, 450, 0, []
1630311093.9501, 115, 0, 4190.769, 3749.231, 4096.41, 4201.538, 4149.744, 16204, 0, []
1630311093.9581, 116, 0, 4188.718, 3777.949, 4116.923, 4185.641, 4136.41, 450, 0, []
1630311093.966, 117, 0, 4183.077, 3797.436, 4110.256, 4180, 4155.897, 450, 0, []
1630311093.974, 118, 0, 4188.205, 3771.282, 4112.821, 4190.769, 4168.205, 450, 0, []
1630311093.9819, 119, 0, 4201.538, 3778.462, 4136.41, 4201.026, 4168.205, 16204, 0, []
1630311093.9897, 120, 0, 4208.718, 3809.231, 4101.538, 4193.846, 4163.077, 450, 0, []
1630311093.9976, 121, 0, 4203.077, 3803.077, 4113.846, 4182.564, 4157.436, 450, 0, []
1630311094.0054, 122, 0, 4200.513, 3791.282, 4116.923, 4185.641, 4165.641, 450, 0, []
1630311094.0133, 123, 0, 4208.205, 3804.103, 4109.231, 4203.59, 4171.282, 16204, 0, []
1630311094.0211, 124, 0, 4211.282, 3829.231, 4129.744, 4202.564, 4156.41, 450, 0, []
1630311094.0289, 125, 0, 4198.462, 3848.718, 4099.487, 4174.359, 4149.231, 450, 0, []
1630311094.0367, 126, 0, 4178.974, 3836.923, 4095.385, 4156.923, 4151.795, 450, 0, []
1630311094.0446, 127, 0, 4182.564, 3827.692, 4093.846, 4163.59, 4154.872, 16204, 0, []
1630311094.0524, 128, 0, 4210.769, 3861.026, 4100, 4187.692, 4172.821, 450, 0, []
1630311094.0603, 0, 0, 4235.897, 3870.769, 4135.385, 4202.051, 4203.077, 450, 0, []
1630311094.068, 1, 0, 4256.923, 3841.026, 4105.128, 4194.872, 4242.564, 450, 0, []
1630311094.076, 2, 0, 4297.436, 3849.744, 4110.256, 4204.103, 4283.59, 16187, 0, []
1630311094.0839, 3, 0, 4353.333, 3875.385, 4119.487, 4221.026, 4317.949, 450, 0, []
1630311094.0919, 4, 0, 4393.846, 3864.615, 4090.769, 4208.205, 4341.026, 16129, 0, []
1630311094.0998, 5, 0, 4423.077, 3869.231, 4104.615, 4185.641, 4353.846, 450, 0, []
1630311094.1077, 6, 0, 4443.59, 3904.615, 4083.59, 4168.718, 4358.974, 231, 0, []
1630311094.1156, 7, 0, 4430.256, 3907.179, 4081.538, 4152.821, 4337.949, 450, 0, []
1630311094.1236, 8, 0, 4378.974, 3890.769, 4091.282, 4144.615, 4278.974, 450, 0, []
1630311094.1315, 9, 0, 4322.051, 3909.231, 4069.231, 4132.308, 4206.154, 16141, 0, []
1630311094.1395, 10, 0, 4271.282, 3943.59, 4095.897, 4116.41, 4158.974, 450, 0, []
1630311094.1473, 11, 0, 4215.385, 3995.385, 4089.231, 4128.718, 4115.385, 16198, 0, []
1630311094.1551, 12, 0, 4155.385, 4078.462, 4080.513, 4143.077, 4044.615, 450, 0, []
1630311094.163, 13, 0, 4110.769, 4152.308, 4092.308, 4129.231, 3996.41, 450, 0, []
1630311094.1708, 14, 0, 4092.308, 4189.744, 4083.59, 4129.231, 3996.923, 450, 0, []
1630311094.1787, 15, 0, 4080, 4213.333, 4107.179, 4141.538, 3985.128, 16198, 0, []
1630311094.1864, 16, 0, 4061.538, 4236.41, 4085.641, 4123.59, 3947.692, 0, 0, []
1630311094.1943, 17, 0, 4051.795, 4238.974, 4078.974, 4115.897, 3946.667, 0, 0, []
1630311094.2021, 18, 0, 4055.385, 4235.385, 4101.538, 4135.385, 3967.692, 0, 0, []
1630311094.21, 19, 0, 4054.872, 4243.077, 4072.821, 4127.179, 3963.59, 0, 0, []
1630311094.2178, 20, 0, 4038.462, 4255.385, 4088.718, 4115.897, 3949.231, 0, 0, []
1630311094.2258, 21, 0, 4028.205, 4247.179, 4087.179, 4129.744, 3945.641, 0, 0, []
1630311094.2336, 22, 0, 4034.872, 4231.282, 4078.462, 4127.179, 3942.564, 0, 0, []
1630311094.2416, 23, 0, 4037.436, 4246.667, 4101.538, 4107.179, 3942.051, 0, 0, []
1630311094.2495, 24, 0, 4040, 4260.513, 4073.846, 4108.205, 3947.692, 0, 0, []
1630311094.2575, 25, 0, 4068.718, 4254.872, 4084.615, 4129.231, 3957.436, 0, 0, []
1630311094.2654, 26, 0, 4096.923, 4267.179, 4094.872, 4142.564, 3983.077, 0, 0, []
1630311094.2733, 27, 0, 4094.359, 4291.795, 4085.641, 4146.667, 4003.077, 0, 0, []
1630311094.2812, 28, 0, 4088.205, 4301.538, 4094.359, 4151.795, 3987.692, 0, 0, []
1630311094.2892, 29, 0, 4092.308, 4312.308, 4071.795, 4149.744, 3973.846, 0, 0, []
1630311094.2971, 30, 0, 4091.282, 4336.41, 4094.359, 4144.615, 3992.308, 0, 0, []
1630311094.3051, 31, 0, 4089.744, 4349.744, 4092.308, 4143.077, 3998.974, 0, 0, []
1630311094.3129, 32, 0, 4098.462, 4338.974, 4076.923, 4141.538, 3983.59, 0, 0, []
1630311094.3207, 33, 0, 4101.538, 4334.872, 4112.308, 4143.077, 3991.795, 0, 0, []
1630311094.3286, 34, 0, 4095.897, 4349.231, 4094.872, 4145.641, 4009.744, 0, 0, []
1630311094.3364, 35, 0, 4098.974, 4350.256, 4103.077, 4144.615, 4003.59, 0, 0, []
1630311094.3443, 36, 0, 4109.744, 4340, 4109.744, 4131.795, 4001.026, 0, 0, []
1630311094.352, 37, 0, 4110.769, 4355.897, 4091.795, 4131.282, 4021.026, 0, 0, []
1630311094.3599, 38, 0, 4107.179, 4369.744, 4104.615, 4147.692, 4033.846, 0, 0, []
1630311094.3677, 39, 0, 4119.487, 4352.308, 4080, 4153.333, 4025.128, 0, 0, []
1630311094.3756, 40, 0, 4127.692, 4344.103, 4092.821, 4150.256, 4015.385, 0, 0, []
1630311094.3834, 41, 0, 4112.821, 4357.436, 4087.692, 4144.103, 4010.256, 0, 0, []
1630311094.3913, 42, 0, 4106.154, 4364.615, 4056.923, 4142.564, 4003.59, 0, 0, []
1630311094.3992, 43, 0, 4110.769, 4367.179, 4084.615, 4141.538, 3991.795, 0, 0, []
1630311094.4072, 44, 0, 4090.769, 4373.333, 4064.615, 4123.59, 3977.436, 0, 0, []
1630311094.4151, 45, 0, 4076.41, 4376.41, 4068.205, 4122.051, 3971.795, 0, 0, []
1630311094.4231, 46, 0, 4109.744, 4386.154, 4078.974, 4141.538, 3984.615, 0, 0, []
1630311094.4309, 47, 0, 4142.051, 4388.718, 4056.41, 4142.564, 4008.205, 0, 0, []
1630311094.4389, 48, 0, 4138.462, 4385.128, 4081.538, 4144.103, 4038.974, 0, 0, []
1630311094.4468, 49, 0, 4138.974, 4406.154, 4068.205, 4169.744, 4061.026, 0, 0, []
1630311094.4548, 50, 0, 4149.231, 4422.564, 4068.205, 4167.179, 4051.282, 0, 0, []
1630311094.4627, 51, 0, 4143.077, 4409.744, 4070.769, 4128.718, 4035.897, 0, 0, []
1630311094.4704, 52, 0, 4128.205, 4412.821, 4053.333, 4131.282, 4053.333, 0, 0, []
1630311094.4783, 53, 0, 4119.487, 4438.974, 4094.872, 4163.59, 4064.103, 0, 0, []
1630311094.4862, 54, 0, 4126.667, 4433.846, 4076.923, 4157.436, 4044.103, 0, 0, []
1630311094.4941, 55, 0, 4149.231, 4409.744, 4068.718, 4141.026, 4050.256, 0, 0, []
1630311094.5019, 56, 0, 4160.513, 4408.205, 4089.744, 4143.077, 4076.923, 0, 0, []
1630311094.5097, 57, 0, 4157.949, 4420, 4054.359, 4148.718, 4080, 0, 0, []
1630311094.5175, 58, 0, 4166.154, 4434.359, 4068.205, 4158.462, 4078.462, 0, 0, []
1630311094.5254, 59, 0, 4178.974, 4435.385, 4067.179, 4161.026, 4083.077, 0, 0, []
1630311094.5332, 60, 0, 4171.282, 4412.308, 4053.846, 4137.949, 4082.051, 0, 0, []
1630311094.5412, 61, 0, 4157.436, 4395.897, 4062.051, 4120.513, 4077.436, 0, 0, []
1630311094.549, 62, 0, 4157.436, 4407.179, 4035.897, 4132.308, 4072.821, 0, 0, []
1630311094.557, 63, 0, 4170.256, 4415.897, 4060, 4147.179, 4071.795, 0, 0, []
1630311094.5649, 64, 0, 4184.615, 4417.436, 4072.821, 4141.026, 4088.205, 450, 0, []
1630311094.5729, 65, 0, 4192.821, 4423.59, 4069.231, 4131.795, 4108.205, 450, 0, []
1630311094.5808, 66, 0, 4194.872, 4417.949, 4096.923, 4138.974, 4114.872, 16193, 0, []
1630311094.5888, 67, 0, 4197.949, 4401.026, 4078.462, 4146.667, 4118.974, 450, 0, []
1630311094.5966, 68, 0, 4207.692, 4412.821, 4088.718, 4151.282, 4120, 16124, 0, []
1630311094.6046, 69, 0, 4214.872, 4438.974, 4099.487, 4150.769, 4122.564, 450, 0, []
1630311094.6125, 70, 0, 4202.051, 4434.359, 4079.487, 4141.026, 4129.231, 232, 0, []
1630311094.6203, 71, 0, 4179.487, 4407.179, 4075.897, 4133.846, 4124.103, 450, 0, []
1630311094.6282, 72, 0, 4177.436, 4388.205, 4045.641, 4128.205, 4108.205, 450, 0, []
1630311094.6359, 73, 0, 4191.795, 4388.205, 4068.718, 4128.718, 4094.359, 16142, 0, []
1630311094.6438, 74, 0, 4200.513, 4410.256, 4095.385, 4136.923, 4102.564, 450, 0, []
1630311094.6516, 75, 0, 4209.231, 4441.026, 4083.59, 4155.385, 4142.051, 16204, 0, []
1630311094.6595, 76, 0, 4226.154, 4437.436, 4101.026, 4167.179, 4174.872, 450, 0, []
1630311094.6673, 77, 0, 4240, 4409.231, 4082.051, 4166.154, 4171.795, 450, 0, []
1630311094.6751, 78, 0, 4252.308, 4409.744, 4087.692, 4165.641, 4161.538, 450, 0, []
1630311094.6829, 79, 0, 4263.077, 4432.821, 4101.538, 4163.077, 4167.179, 16204, 0, []
1630311094.6909, 80, 0, 4265.641, 4436.923, 4078.462, 4164.103, 4175.897, 450, 0, []
1630311094.6988, 81, 0, 4267.692, 4424.615, 4107.179, 4177.436, 4190.256, 450, 0, []
1630311094.7068, 82, 0, 4276.41, 4423.077, 4104.103, 4183.59, 4214.872, 450, 0, []
1630311094.7146, 83, 0, 4282.051, 4431.795, 4092.308, 4177.436, 4217.949, 16204, 0, []
1630311094.7226, 84, 0, 4294.872, 4431.795, 4102.564, 4177.436, 4195.897, 450, 0, []
1630311094.7305, 85, 0, 4320.513, 4412.308, 4091.795, 4184.103, 4191.795, 450, 0, []
1630311094.7385, 86, 0, 4333.846, 4415.897, 4106.154, 4177.436, 4210.256, 450, 0, []
1630311094.7464, 87, 0, 4315.385, 4448.205, 4075.897, 4163.59, 4211.282, 16204, 0, []
1630311094.7543, 88, 0, 4294.359, 4447.179, 4058.974, 4162.051, 4195.897, 450, 0, []
1630311094.7622, 89, 0, 4296.41, 4422.564, 4085.128, 4160, 4202.051, 450, 0, []
1630311094.77, 90, 0, 4301.026, 4408.205, 4070.256, 4152.821, 4220, 450, 0, []
1630311094.7779, 91, 0, 4295.897, 4403.59, 4083.59, 4158.462, 4220, 16204, 0, []
1630311094.7857, 92, 0, 4292.821, 4412.308, 4081.026, 4170.769, 4210.256, 450, 0, []
1630311094.7935, 93, 0, 4294.359, 4426.667, 4072.308, 4169.744, 4207.692, 450, 0, []
1630311094.8013, 94, 0, 4293.333, 4422.051, 4088.205, 4152.821, 4209.744, 450, 0, []
1630311094.8092, 95, 0, 4298.462, 4409.231, 4067.692, 4147.179, 4212.308, 16204, 0, []
1630311094.817, 96, 0, 4298.974, 4410.769, 4080, 4154.872, 4211.282, 450, 0, []
1630311094.8249, 97, 0, 4295.897, 4415.385, 4085.641, 4158.462, 4220, 450, 0, []
1630311094.8326, 98, 0, 4296.923, 4411.795, 4077.949, 4164.615, 4236.923, 450, 0, []
1630311094.8405, 99, 0, 4285.641, 4403.59, 4089.744, 4173.846, 4232.308, 16204, 0, []
1630311094.8483, 100, 0, 4284.103, 4412.821, 4067.692, 4178.462, 4220.513, 450, 0, []
1630311094.8563, 101, 0, 4307.692, 4419.487, 4088.205, 4190.256, 4226.667, 450, 0, []
1630311094.8642, 102, 0, 4318.462, 4402.051, 4098.974, 4198.974, 4229.231, 450, 0, []
1630311094.8721, 103, 0, 4310.769, 4405.128, 4072.821, 4180.513, 4214.872, 16204, 0, []
1630311094.88, 104, 0, 4314.359, 4430.769, 4091.795, 4165.128, 4211.795, 450, 0, []
1630311094.888, 105, 0, 4317.436, 4420.513, 4088.718, 4173.846, 4221.538, 450, 0, []
1630311094.8959, 106, 0, 4299.487, 4387.692, 4096.41, 4174.359, 4224.615, 450, 0, []
1630311094.9039, 107, 0, 4283.59, 4382.051, 4101.026, 4156.923, 4230.769, 16204, 0, []
1630311094.9117, 108, 0, 4279.487, 4384.615, 4077.436, 4150.256, 4233.846, 450, 0, []
1630311094.9197, 109, 0, 4282.051, 4386.154, 4100.513, 4167.692, 4230.769, 450, 0, []
1630311094.9276, 110, 0, 4290.769, 4389.744, 4096.41, 4179.487, 4233.333, 450, 0, []
1630311094.9354, 111, 0, 4293.846, 4379.487, 4093.333, 4175.385, 4233.333, 16204, 0, []
1630311094.9433, 112, 0, 4300.513, 4373.846, 4100.513, 4183.077, 4229.231, 450, 0, []
1630311094.9513, 113, 0, 4314.359, 4393.846, 4095.385, 4203.077, 4228.205, 450, 0, []
1630311094.9591, 114, 0, 4314.872, 4399.487, 4125.641, 4198.462, 4233.333, 450, 0, []
1630311094.9669, 115, 0, 4315.385, 4376.41, 4101.538, 4180, 4258.462, 16204, 0, []
1630311094.9748, 116, 0, 4335.385, 4367.179, 4094.872, 4183.59, 4296.923, 450, 0, []
1630311094.9826, 117, 0, 4374.872, 4384.615, 4116.923, 4186.154, 4330.256, 450, 0, []
1630311094.9905, 118, 0, 4425.128, 4394.872, 4081.026, 4181.026, 4366.667, 450, 0, []
1630311094.9982, 119, 0, 4459.487, 4380.513, 4092.821, 4184.615, 4395.897, 16204, 0, []
1630311095.0062, 120, 0, 4474.359, 4370.769, 4104.103, 4186.667, 4403.077, 450, 0, []
1630311095.0141, 121, 0, 4482.051, 4377.436, 4100.513, 4180, 4412.308, 450, 0, []
1630311095.0221, 122, 0, 4472.308, 4383.077, 4111.795, 4175.385, 4413.846, 450, 0, []
1630311095.03, 123, 0, 4445.128, 4372.308, 4089.231, 4170.256, 4386.667, 16204, 0, []
1630311095.0379, 124, 0, 4424.615, 4355.897, 4100.513, 4169.231, 4363.59, 450, 0, []
1630311095.0458, 125, 0, 4407.692, 4357.949, 4098.462, 4182.051, 4365.641, 450, 0, []
1630311095.0538, 126, 0, 4388.718, 4358.462, 4097.949, 4200.513, 4358.974, 450, 0, []
1630311095.0617, 127, 0, 4370.769, 4345.128, 4118.974, 4204.615, 4332.821, 16204, 0, []
1630311095.0697, 128, 0, 4346.154, 4346.667, 4081.538, 4194.359, 4310.256, 450, 0, []
1630311095.0775, 0, 0, 4335.897, 4370.256, 4087.179, 4196.923, 4298.974, 450, 0, []
1630311095.0853, 1, 0, 4343.59, 4365.128, 4096.923, 4204.615, 4290.769, 450, 0, []
1630311095.0932, 2, 0, 4332.308, 4322.564, 4075.897, 4192.308, 4269.744, 16196, 0, []
1630311095.101, 3, 0, 4311.795, 4315.897, 4093.333, 4183.077, 4246.667, 450, 0, []
1630311095.1089, 4, 0, 4318.462, 4361.538, 4094.872, 4197.436, 4248.718, 16119, 0, []
1630311095.1166, 5, 0, 4324.615, 4389.231, 4115.897, 4205.128, 4258.974, 450, 0, []
1630311095.1245, 6, 0, 4313.846, 4364.615, 4120.513, 4197.949, 4267.692, 235, 0, []
1630311095.1323, 7, 0, 4313.846, 4344.103, 4103.59, 4203.077, 4282.051, 450, 0, []
1630311095.1402, 8, 0, 4309.744, 4352.308, 4112.821, 4204.103, 4275.897, 450, 0, []
1630311095.148, 9, 0, 4295.897, 4352.821, 4084.615, 4193.846, 4251.795, 16126, 0, []
1630311095.1558, 10, 0, 4300.513, 4341.026, 4096.923, 4204.615, 4247.179, 450, 0, []
1630311095.1636, 11, 0, 4304.615, 4337.949, 4104.615, 4217.436, 4242.564, 16212, 0, []
1630311095.1715, 12, 0, 4283.077, 4347.692, 4067.179, 4207.179, 4214.872, 450, 0, []
1630311095.1793, 13, 0, 4272.308, 4356.923, 4096.923, 4198.974, 4206.154, 450, 0, []
1630311095.1873, 14, 0, 4276.923, 4350.769, 4104.615, 4193.846, 4220.513, 450, 0, []
1630311095.1951, 15, 0, 4261.026, 4334.359, 4097.436, 4188.718, 4218.462, 16212, 0, []
1630311095.2031, 16, 0, 4246.667, 4319.487, 4097.949, 4192.308, 4211.795, 0, 0, []
1630311095.211, 17, 0, 4258.974, 4328.718, 4087.692, 4188.205, 4217.949, 0, 0, []
1630311095.219, 18, 0, 4271.282, 4352.308, 4117.436, 4182.564, 4217.436, 0, 0, []
1630311095.2269, 19, 0, 4273.846, 4355.385, 4110.256, 4192.821, 4213.333, 0, 0, []
1630311095.2348, 20, 0, 4263.077, 4342.564, 4111.282, 4191.282, 4217.949, 0, 0, []
1630311095.2427, 21, 0, 4245.128, 4326.667, 4128.205, 4183.077, 4221.538, 0, 0, []
1630311095.2505, 22, 0, 4243.59, 4316.923, 4111.795, 4195.385, 4222.051, 0, 0, []
1630311095.2584, 23, 0, 4248.718, 4332.308, 4136.923, 4201.026, 4217.949, 0, 0, []
1630311095.2662, 24, 0, 4236.41, 4338.462, 4137.436, 4186.154, 4205.128, 0, 0, []
1630311095.2741, 25, 0, 4216.923, 4314.872, 4137.949, 4170.256, 4194.359, 0, 0, []
1630311095.2818, 26, 0, 4215.897, 4313.333, 4150.769, 4175.385, 4198.462, 0, 0, []
1630311095.2897, 27, 0, 4225.128, 4322.564, 4126.667, 4197.949, 4204.103, 0, 0, []
1630311095.2975, 28, 0, 4229.231, 4316.41, 4150.769, 4212.308, 4196.923, 0, 0, []
1630311095.3055, 29, 0, 4220, 4322.564, 4141.026, 4203.077, 4182.564, 0, 0, []
1630311095.3134, 30, 0, 4206.154, 4328.205, 4122.051, 4186.154, 4176.923, 0, 0, []
1630311095.3213, 31, 0, 4201.026, 4310.256, 4136.923, 4175.897, 4186.154, 0, 0, []
1630311095.3292, 32, 0, 4197.949, 4297.949, 4110.769, 4169.744, 4187.179, 0, 0, []
1630311095.3372, 33, 0, 4206.667, 4298.974, 4135.385, 4180, 4184.103, 0, 0, []
1630311095.3451, 34, 0, 4220, 4293.333, 4136.923, 4184.615, 4186.154, 0, 0, []
1630311095.3531, 35, 0, 4213.333, 4295.385, 4110.256, 4169.744, 4184.615, 0, 0, []
1630311095.3609, 36, 0, 4207.179, 4297.436, 4137.436, 4172.308, 4189.744, 0, 0, []
1630311095.3689, 37, 0, 4217.949, 4306.667, 4125.641, 4198.974, 4208.718, 0, 0, []
1630311095.3768, 38, 0, 4221.026, 4315.897, 4119.487, 4211.795, 4208.205, 0, 0, []
1630311095.3848, 39, 0, 4210.256, 4304.103, 4103.077, 4189.231, 4175.385, 0, 0, []
1630311095.3927, 40, 0, 4198.462, 4291.795, 4080.513, 4166.154, 4153.333, 0, 0, []
1630311095.4004, 41, 0, 4184.103, 4282.564, 4094.872, 4160.513, 4155.385, 0, 0, []
1630311095.4083, 42, 0, 4187.179, 4279.487, 4083.077, 4174.359, 4170.769, 0, 0, []
1630311095.4161, 43, 0, 4197.949, 4285.641, 4101.538, 4198.974, 4177.436, 0, 0, []
1630311095.424, 44, 0, 4202.051, 4285.641, 4105.128, 4200, 4168.718, 0, 0, []
1630311095.4318, 45, 0, 4236.923, 4278.462, 4085.128, 4184.615, 4186.667, 0, 0, []
1630311095.4396, 46, 0, 4294.872, 4283.077, 4114.359, 4182.051, 4244.103, 0, 0, []
1630311095.4474, 47, 0, 4342.564, 4290.769, 4104.615, 4183.59, 4311.282, 0, 0, []
1630311095.4553, 48, 0, 4401.026, 4289.231, 4112.821, 4181.026, 4381.538, 0, 0, []
1630311095.4631, 49, 0, 4475.385, 4296.41, 4130.769, 4186.154, 4452.308, 0, 0, []
1630311095.471, 50, 0, 4517.949, 4306.667, 4109.231, 4196.923, 4493.333, 0, 0, []
1630311095.4788, 51, 0, 4518.974, 4307.179, 4123.59, 4185.641, 4484.615, 0, 0, []
1630311095.4866, 52, 0, 4511.795, 4299.487, 4102.564, 4161.538, 4464.615, 0, 0, []
1630311095.4946, 53, 0, 4526.667, 4291.795, 4102.051, 4173.333, 4477.436, 0, 0, []
1630311095.5025, 54, 0, 4549.231, 4285.128, 4131.795, 4205.641, 4498.974, 0, 0, []
1630311095.5104, 55, 0, 4536.41, 4274.872, 4104.615, 4201.538, 4481.538, 0, 0, []
1630311095.5183, 56, 0, 4502.564, 4282.564, 4106.154, 4179.487, 4444.103, 0, 0, []
1630311095.5262, 57, 0, 4490.256, 4302.564, 4098.462, 4178.462, 4431.795, 0, 0, []
1630311095.5342, 58, 0, 4477.436, 4275.385, 4085.128, 4175.385, 4420.513, 0, 0, []
1630311095.5421, 59, 0, 4452.821, 4255.385, 4102.564, 4163.077, 4398.974, 0, 0, []
1630311095.5499, 60, 0, 4461.538, 4293.846, 4116.41, 4185.128, 4408.205, 0, 0, []
1630311095.5577, 61, 0, 4469.744, 4304.615, 4147.179, 4218.974, 4420, 0, 0, []
1630311095.5655, 62, 0, 4433.846, 4285.128, 4121.538, 4210.256, 4395.897, 0, 0, []
1630311095.5734, 63, 0, 4397.949, 4287.179, 4105.128, 4189.231, 4364.615, 0, 0, []
1630311095.5812, 64, 0, 4382.051, 4279.487, 4128.718, 4188.718, 4334.872, 450, 0, []
1630311095.5891, 65, 0, 4350.256, 4262.051, 4094.872, 4177.436, 4292.308, 450, 0, []
1630311095.5968, 66, 0, 4307.179, 4255.897, 4096.923, 4160.513, 4259.487, 16194, 0, []
1630311095.6047, 67, 0, 4295.385, 4247.179, 4106.667, 4158.974, 4259.487, 450, 0, []
1630311095.6125, 68, 0, 4298.462, 4252.308, 4100, 4160, 4271.795, 16109, 0, []
1630311095.6204, 69, 0, 4284.103, 4255.385, 4115.897, 4161.538, 4270.256, 450, 0, []
1630311095.6282, 70, 0, 4262.564, 4235.385, 4093.846, 4172.821, 4252.821, 219, 0, []
1630311095.6362, 71, 0, 4249.744, 4237.949, 4098.974, 4176.41, 4226.154, 450, 0, []
1630311095.644, 72, 0, 4247.692, 4255.385, 4097.436, 4166.667, 4206.154, 450, 0, []
1630311095.652, 73, 0, 4236.923, 4248.718, 4078.462, 4159.487, 4198.462, 16149, 0, []
1630311095.6599, 74, 0, 4210.256, 4242.051, 4097.436, 4149.231, 4194.359, 450, 0, []
1630311095.6679, 75, 0, 4202.051, 4246.667, 4083.077, 4149.744, 4200, 16188, 0, []
1630311095.6758, 76, 0, 4224.103, 4243.077, 4106.154, 4177.436, 4211.282, 450, 0, []
1630311095.6837, 77, 0, 4235.385, 4242.564, 4126.667, 4196.923, 4211.795, 450, 0, []
1630311095.6916, 78, 0, 4227.179, 4252.821, 4099.487, 4191.282, 4203.077, 450, 0, []
1630311095.6996, 79, 0, 4223.077, 4261.026, 4114.872, 4181.538, 4203.077, 16188, 0, []
1630311095.7075, 80, 0, 4215.385, 4258.974, 4100.513, 4173.846, 4199.487, 450, 0, []
1630311095.7153, 81, 0, 4192.821, 4234.359, 4091.795, 4162.051, 4174.359, 450, 0, []
1630311095.7231, 82, 0, 4180.513, 4221.538, 4095.897, 4157.436, 4153.333, 450, 0, []
1630311095.7309, 83, 0, 4170.769, 4237.436, 4075.897, 4143.59, 4140.513, 16188, 0, []
1630311095.7388, 84, 0, 4150.256, 4238.462, 4096.41, 4126.154, 4129.744, 450, 0, []
1630311095.7466, 85, 0, 4153.333, 4223.59, 4092.308, 4143.59, 4145.128, 450, 0, []
1630311095.7545, 86, 0, 4175.897, 4230.256, 4097.949, 4177.949, 4162.564, 450, 0, []
1630311095.7622, 87, 0, 4174.359, 4234.872, 4109.744, 4181.026, 4136.923, 16188, 0, []
1630311095.7701, 88, 0, 4137.436, 4210.769, 4070.769, 4144.615, 4102.051, 450, 0, []
1630311095.7779, 89, 0, 4114.359, 4212.308, 4080, 4128.718, 4107.179, 450, 0, []
1630311095.7859, 90, 0, 4128.718, 4227.692, 4085.641, 4152.821, 4123.59, 450, 0, []
1630311095.7938, 91, 0, 4134.359, 4210.769, 4084.103, 4161.538, 4105.641, 16188, 0, []
1630311095.8017, 92, 0, 4129.744, 4210.256, 4098.462, 4147.692, 4101.026, 450, 0, []
1630311095.8096, 93, 0, 4118.974, 4222.051, 4072.821, 4142.564, 4118.462, 450, 0, []
1630311095.8176, 94, 0, 4102.051, 4215.385, 4081.538, 4149.744, 4109.744, 450, 0, []
1630311095.8255, 95, 0, 4111.795, 4232.308, 4095.385, 4162.051, 4107.692, 16188, 0, []
1630311095.8335, 96, 0, 4122.564, 4248.205, 4094.872, 4164.615, 4127.692, 450, 0, []
1630311095.8413, 97, 0, 4093.333, 4231.282, 4093.333, 4148.718, 4113.333, 450, 0, []
1630311095.8493, 98, 0, 4080, 4240.513, 4067.692, 4151.282, 4077.436, 450, 0, []
1630311095.8572, 99, 0, 4095.385, 4261.538, 4085.128, 4161.538, 4074.359, 16188, 0, []
1630311095.8652, 100, 0, 4074.359, 4236.923, 4074.872, 4141.026, 4077.949, 450, 0, []
1630311095.8731, 101, 0, 4063.59, 4222.564, 4067.692, 4146.667, 4067.692, 450, 0, []
1630311095.8808, 102, 0, 4104.103, 4254.872, 4115.385, 4182.051, 4074.359, 450, 0, []
1630311095.8887, 103, 0, 4110.256, 4277.436, 4091.795, 4179.487, 4098.462, 16188, 0, []
1630311095.8965, 104, 0, 4092.308, 4268.718, 4090.769, 4172.821, 4111.795, 450, 0, []
1630311095.9044, 105, 0, 4100, 4249.744, 4107.179, 4184.615, 4096.41, 450, 0, []
1630311095.9122, 106, 0, 4089.744, 4253.846, 4086.154, 4169.231, 4077.949, 450, 0, []
1630311095.9201, 107, 0, 4067.179, 4266.667, 4096.41, 4151.795, 4078.974, 16188, 0, []
1630311095.928, 108, 0, 4075.385, 4247.179, 4081.026, 4153.333, 4075.897, 450, 0, []
1630311095.936, 109, 0, 4068.718, 4220.513, 4074.872, 4142.564, 4057.949, 450, 0, []
1630311095.9439, 110, 0, 4043.077, 4223.077, 4071.795, 4125.128, 4049.744, 450, 0, []
1630311095.9519, 111, 0, 4065.128, 4251.282, 4069.744, 4129.744, 4061.026, 16188, 0, []
1630311095.9597, 112, 0, 4095.897, 4267.692, 4109.231, 4136.923, 4070.769, 450, 0, []
1630311095.9677, 113, 0, 4087.692, 4248.718, 4087.692, 4131.795, 4072.308, 450, 0, []
1630311095.9756, 114, 0, 4094.872, 4235.897, 4086.667, 4141.538, 4080.513, 450, 0, []
1630311095.9836, 115, 0, 4137.436, 4268.718, 4118.462, 4160.513, 4113.846, 16188, 0, []
1630311095.9915, 116, 0, 4164.103, 4287.692, 4095.385, 4164.103, 4154.359, 450, 0, []
1630311095.9995, 117, 0, 4170.769, 4262.051, 4084.615, 4154.359, 4165.641, 450, 0, []
1630311096.0073, 118, 0, 4205.641, 4258.974, 4071.282, 4147.692, 4175.897, 450, 0, []
1630311096.0151, 119, 0, 4270.769, 4282.051, 4089.231, 4154.359, 4220.513, 16188, 0, []
1630311096.023, 120, 0, 4320, 4272.821, 4108.205, 4156.41, 4274.872, 450, 0, []
1630311096.0308, 121, 0, 4347.179, 4256.41, 4080, 4147.179, 4310.769, 450, 0, []
1630311096.0387, 122, 0, 4374.359, 4276.41, 4098.974, 4145.641, 4336.923, 450, 0, []
1630311096.0464, 123, 0, 4379.487, 4280.513, 4089.744, 4150.256, 4344.103, 16188, 0, []
1630311096.0543, 124, 0, 4352.821, 4249.744, 4076.41, 4153.333, 4320, 450, 0, []
1630311096.0621, 125, 0, 4336.41, 4247.179, 4098.462, 4161.026, 4300.513, 450, 0, []
1630311096.07, 126, 0, 4329.231, 4256.41, 4073.846, 4155.385, 4278.974, 450, 0, []
1630311096.0778, 127, 0, 4307.179, 4238.974, 4084.615, 4139.487, 4234.359, 16188, 0, []
1630311096.0856, 128, 0, 4301.538, 4250.256, 4104.615, 4157.436, 4219.487, 450, 0, []
1630311096.0934, 0, 0, 4295.385, 4271.795, 4102.564, 4176.41, 4232.308, 450, 0, []
1630311096.1014, 1, 0, 4253.333, 4242.051, 4095.897, 4152.308, 4213.333, 450, 0, []
1630311096.1093, 2, 0, 4222.564, 4220, 4062.051, 4139.487, 4182.051, 16188, 0, []
1630311096.1173, 3, 0, 4224.615, 4246.154, 4079.487, 4166.667, 4165.641, 450, 0, []
1630311096.1251, 4, 0, 4220, 4273.846, 4088.718, 4180.513, 4157.436, 16121, 0, []
1630311096.1331, 5, 0, 4198.462, 4261.538, 4081.026, 4165.641, 4151.282, 450, 0, []
1630311096.141, 6, 0, 4183.59, 4250.769, 4100, 4156.41, 4141.538, 220, 0, []
1630311096.149, 7, 0, 4181.026, 4265.128, 4075.897, 4165.128, 4124.615, 450, 0, []
1630311096.1569, 8, 0, 4182.051, 4270.256, 4094.359, 4171.282, 4110.769, 450, 0, []
1630311096.1648, 9, 0, 4169.231, 4258.974, 4106.667, 4152.821, 4098.974, 16149, 0, []
1630311096.1727, 10, 0, 4147.179, 4240.513, 4083.59, 4136.923, 4090.256, 450, 0, []
1630311096.1805, 11, 0, 4134.359, 4233.846, 4096.41, 4141.538, 4080, 16194, 0, []
1630311096.1884, 12, 0, 4114.872, 4236.41, 4067.692, 4128.205, 4051.795, 450, 0, []
1630311096.1962, 13, 0, 4110.256, 4249.744, 4086.667, 4125.128, 4052.308, 450, 0, []
1630311096.204, 14, 0, 4125.128, 4258.462, 4118.974, 4157.436, 4082.051, 450, 0, []
1630311096.2118, 15, 0, 4115.385, 4257.436, 4082.564, 4164.615, 4061.538, 16194, 0, []
1630311096.2197, 16, 0, 4099.487, 4269.744, 4085.641, 4141.538, 4025.641, 0, 0, []
1630311096.2275, 17, 0, 4104.615, 4272.308, 4079.487, 4141.026, 4046.667, 0, 0, []
1630311096.2354, 18, 0, 4107.179, 4265.128, 4078.462, 4161.026, 4070.769, 0, 0, []
1630311096.2431, 19, 0, 4106.667, 4264.615, 4085.128, 4168.205, 4049.231, 0, 0, []
1630311096.2511, 20, 0, 4119.487, 4283.59, 4076.41, 4161.026, 4041.538, 0, 0, []
1630311096.259, 21, 0, 4125.128, 4305.641, 4110.769, 4164.103, 4070.256, 0, 0, []
1630311096.267, 22, 0, 4121.026, 4288.718, 4097.436, 4173.846, 4073.846, 0, 0, []
1630311096.2749, 23, 0, 4122.051, 4267.692, 4083.59, 4165.641, 4047.692, 0, 0, []
1630311096.2828, 24, 0, 4107.692, 4275.897, 4093.846, 4138.462, 4040.513, 0, 0, []
1630311096.2907, 25, 0, 4087.692, 4282.051, 4067.692, 4129.231, 4044.615, 0, 0, []
1630311096.2987, 26, 0, 4100, 4283.59, 4094.872, 4155.897, 4040, 0, 0, []
1630311096.3066, 27, 0, 4129.231, 4306.154, 4111.795, 4182.051, 4057.436, 0, 0, []
1630311096.3146, 28, 0, 4128.718, 4315.897, 4107.692, 4182.564, 4078.974, 0, 0, []
1630311096.3224, 29, 0, 4110.769, 4297.949, 4108.718, 4172.821, 4062.564, 0, 0, []
1630311096.3302, 30, 0, 4115.385, 4293.333, 4086.667, 4172.308, 4042.564, 0, 0, []
1630311096.3381, 31, 0, 4124.103, 4294.359, 4113.846, 4169.744, 4048.205, 0, 0, []
1630311096.3459, 32, 0, 4110.256, 4292.821, 4106.667, 4156.923, 4055.385, 0, 0, []
1630311096.3538, 33, 0, 4102.051, 4304.615, 4082.564, 4153.333, 4049.231, 0, 0, []
1630311096.3616, 34, 0, 4105.128, 4303.077, 4092.308, 4154.359, 4035.897, 0, 0, []
1630311096.3694, 35, 0, 4097.949, 4276.923, 4066.667, 4144.103, 4031.282, 0, 0, []
1630311096.3772, 36, 0, 4092.821, 4275.897, 4086.667, 4147.179, 4035.385, 0, 0, []
1630311096.3851, 37, 0, 4106.154, 4301.538, 4095.897, 4167.179, 4026.154, 0, 0, []
1630311096.3929, 38, 0, 4113.333, 4290.256, 4074.872, 4167.179, 4012.821, 0, 0, []
1630311096.4009, 39, 0, 4101.538, 4263.077, 4090.256, 4148.718, 4026.667, 0, 0, []
1630311096.4087, 40, 0, 4097.436, 4273.846, 4069.231, 4151.282, 4044.103, 0, 0, []
1630311096.4167, 41, 0, 4097.949, 4294.872, 4073.333, 4160.513, 4030.769, 0, 0, []
1630311096.4246, 42, 0, 4093.333, 4296.41, 4087.692, 4149.744, 4029.744, 0, 0, []
1630311096.4326, 43, 0, 4087.179, 4282.564, 4085.128, 4143.59, 4052.821, 0, 0, []
1630311096.4405, 44, 0, 4084.615, 4265.128, 4103.59, 4147.179, 4049.231, 0, 0, []
1630311096.4484, 45, 0, 4104.615, 4278.974, 4083.077, 4147.179, 4038.462, 0, 0, []
1630311096.4563, 46, 0, 4125.641, 4321.026, 4100.513, 4154.872, 4060, 0, 0, []
1630311096.4643, 47, 0, 4124.103, 4327.692, 4118.462, 4166.154, 4081.026, 0, 0, []
1630311096.4722, 48, 0, 4121.538, 4293.846, 4093.333, 4169.744, 4071.795, 0, 0, []
1630311096.48, 49, 0, 4122.564, 4279.487, 4112.821, 4164.103, 4054.872, 0, 0, []
1630311096.4878, 50, 0, 4110.769, 4295.897, 4103.077, 4153.333, 4051.795, 0, 0, []
1630311096.4957, 51, 0, 4101.538, 4304.615, 4100.513, 4154.359, 4057.949, 0, 0, []
1630311096.5036, 52, 0, 4107.179, 4291.795, 4101.538, 4165.128, 4047.179, 0, 0, []
1630311096.5114, 53, 0, 4106.154, 4278.462, 4066.667, 4155.385, 4024.615, 0, 0, []
1630311096.5194, 54, 0, 4091.282, 4261.538, 4079.487, 4132.821, 4018.462, 0, 0, []
1630311096.5272, 55, 0, 4082.051, 4253.333, 4070.256, 4128.205, 4011.282, 0, 0, []
1630311096.5351, 56, 0, 4093.846, 4281.538, 4078.462, 4141.026, 4000, 0, 0, []
1630311096.5429, 57, 0, 4109.744, 4300, 4107.692, 4146.667, 4018.974, 0, 0, []
1630311096.5508, 58, 0, 4112.308, 4287.692, 4088.205, 4147.692, 4044.615, 0, 0, []
1630311096.5586, 59, 0, 4117.436, 4290.769, 4097.436, 4159.487, 4043.59, 0, 0, []
1630311096.5665, 60, 0, 4129.744, 4301.538, 4091.795, 4169.231, 4041.026, 0, 0, []
1630311096.5744, 61, 0, 4118.462, 4283.59, 4091.282, 4160, 4040, 0, 0, []
1630311096.5824, 62, 0, 4100.513, 4263.59, 4105.128, 4145.641, 4031.795, 0, 0, []
1630311096.5903, 63, 0, 4125.641, 4293.846, 4082.564, 4156.923, 4047.179, 0, 0, []
1630311096.5983, 64, 0, 4159.487, 4336.41, 4116.923, 4180.513, 4076.41, 450, 0, []
1630311096.6061, 65, 0, 4144.615, 4328.205, 4121.538, 4173.846, 4075.897, 450, 0, []
1630311096.6141, 66, 0, 4115.385, 4285.128, 4092.821, 4154.872, 4057.436, 16187, 0, []
1630311096.622, 67, 0, 4125.641, 4275.897, 4109.231, 4168.205, 4056.41, 450, 0, []
1630311096.6298, 68, 0, 4146.154, 4298.974, 4099.487, 4188.718, 4066.667, 16125, 0, []
1630311096.6377, 69, 0, 4143.077, 4290.256, 4108.205, 4176.41, 4064.615, 450, 0, []
1630311096.6454, 70, 0, 4129.744, 4271.282, 4096.41, 4157.436, 4054.872, 224, 0, []
1630311096.6533, 71, 0, 4129.231, 4284.103, 4081.026, 4165.641, 4047.179, 450, 0, []
1630311096.6611, 72, 0, 4148.205, 4308.205, 4112.308, 4182.051, 4046.154, 450, 0, []
1630311096.669, 73, 0, 4141.026, 4289.231, 4085.641, 4155.385, 4038.462, 16141, 0, []
1630311096.6768, 74, 0, 4101.538, 4246.667, 4072.821, 4118.462, 4016.923, 450, 0, []
1630311096.6847, 75, 0, 4091.795, 4261.026, 4074.359, 4131.282, 4008.205, 16200, 0, []
1630311096.6924, 76, 0, 4113.333, 4295.385, 4080, 4163.077, 4026.667, 450, 0, []
1630311096.7003, 77, 0, 4108.205, 4277.949, 4102.564, 4159.487, 4048.205, 450, 0, []
1630311096.7081, 78, 0, 4096.41, 4251.795, 4066.154, 4153.333, 4053.846, 450, 0, []
1630311096.7161, 79, 0, 4120.513, 4287.692, 4085.641, 4176.41, 4051.282, 16200, 0, []
1630311096.724, 80, 0, 4127.692, 4312.821, 4111.795, 4171.282, 4047.179, 450, 0, []
1630311096.7319, 81, 0, 4103.077, 4277.949, 4083.59, 4146.667, 4048.205, 450, 0, []
1630311096.7398, 82, 0, 4115.897, 4271.795, 4110.769, 4170.256, 4066.667, 450, 0, []
1630311096.7478, 83, 0, 4147.692, 4294.359, 4105.128, 4187.692, 4075.385, 16200, 0, []
1630311096.7557, 84, 0, 4139.487, 4278.462, 4093.846, 4158.974, 4061.026, 450, 0, []
1630311096.7637, 85, 0, 4125.641, 4253.846, 4100.513, 4151.795, 4056.923, 450, 0, []
1630311096.7715, 86, 0, 4139.487, 4272.821, 4074.872, 4174.359, 4061.026, 450, 0, []
1630311096.7795, 87, 0, 4138.462, 4284.615, 4082.564, 4163.077, 4042.051, 16200, 0, []
1630311096.7874, 88, 0, 4122.564, 4261.026, 4073.846, 4141.538, 4033.846, 450, 0, []
1630311096.7952, 89, 0, 4125.641, 4257.949, 4080.513, 4152.821, 4058.974, 450, 0, []
1630311096.8031, 90, 0, 4134.872, 4265.641, 4094.872, 4168.205, 4066.667, 450, 0, []
1630311096.8108, 91, 0, 4135.385, 4266.667, 4071.795, 4164.103, 4054.359, 16200, 0, []
1630311096.8187, 92, 0, 4136.41, 4277.949, 4094.872, 4156.41, 4071.282, 450, 0, []
1630311096.8265, 93, 0, 4140, 4277.436, 4088.718, 4160.513, 4091.795, 450, 0, []
1630311096.8344, 94, 0, 4130.769, 4257.949, 4069.744, 4151.795, 4070.256, 450, 0, []
1630311096.8422, 95, 0, 4112.821, 4260, 4075.897, 4125.641, 4049.231, 16200, 0, []
1630311096.85, 96, 0, 4118.462, 4283.077, 4066.667, 4129.744, 4083.077, 450, 0, []
1630311096.8578, 97, 0, 4140.513, 4285.128, 4097.949, 4163.077, 4121.538, 450, 0, []
1630311096.8658, 98, 0, 4142.564, 4258.462, 4081.026, 4163.59, 4100.513, 450, 0, []
1630311096.8737, 99, 0, 4119.487, 4234.359, 4057.949, 4138.462, 4065.641, 16200, 0, []
1630311096.8817, 100, 0, 4108.718, 4253.846, 4093.846, 4140, 4087.179, 450, 0, []
1630311096.8895, 101, 0, 4126.154, 4290.256, 4087.179, 4157.949, 4120.513, 450, 0, []
1630311096.8975, 102, 0, 4136.41, 4272.308, 4093.846, 4154.359, 4095.897, 450, 0, []
1630311096.9054, 103, 0, 4123.59, 4239.487, 4093.333, 4129.744, 4061.026, 16200, 0, []
1630311096.9134, 104, 0, 4114.872, 4256.41, 4084.615, 4131.795, 4073.333, 450, 0, []
1630311096.9213, 105, 0, 4117.949, 4263.59, 4097.949, 4156.41, 4084.615, 450, 0, []
1630311096.9292, 106, 0, 4113.846, 4235.385, 4042.051, 4147.179, 4064.103, 450, 0, []
1630311096.9371, 107, 0, 4102.564, 4236.41, 3983.077, 4121.026, 4055.897, 16200, 0, []
1630311096.9451, 108, 0, 4110.256, 4253.333, 3909.744, 4126.667, 4071.282, 450, 0, []
1630311096.953, 109, 0, 4143.59, 4243.077, 3822.564, 4147.692, 4085.128, 450, 0, []
1630311096.9608, 110, 0, 4167.179, 4249.231, 3826.154, 4144.615, 4093.333, 450, 0, []
1630311096.9686, 111, 0, 4146.154, 4280.513, 3826.154, 4125.128, 4098.974, 16200, 0, []
1630311096.9764, 112, 0, 4117.949, 4266.154, 3843.59, 4120, 4089.231, 450, 0, []
1630311096.9843, 113, 0, 4121.538, 4241.538, 3887.179, 4124.103, 4066.154, 450, 0, []
1630311096.9921, 114, 0, 4128.205, 4264.103, 3889.231, 4115.897, 4060, 450, 0, []
1630311097, 115, 0, 4121.026, 4276.923, 3942.051, 4118.462, 4074.359, 16200, 0, []
1630311097.0077, 116, 0, 4122.564, 4252.821, 3975.897, 4143.59, 4078.462, 450, 0, []
1630311097.0156, 117, 0, 4128.718, 4240, 3984.103, 4146.667, 4066.154, 450, 0, []
1630311097.0234, 118, 0, 4121.026, 4243.59, 4017.949, 4120.513, 4062.564, 450, 0, []
1630311097.0314, 119, 0, 4125.641, 4241.538, 4020, 4118.974, 4076.41, 16200, 0, []
1630311097.0393, 120, 0, 4152.821, 4248.205, 4055.385, 4153.333, 4092.821, 450, 0, []
1630311097.0473, 121, 0, 4167.692, 4264.103, 4065.128, 4166.667, 4096.923, 450, 0, []
1630311097.0551, 122, 0, 4156.923, 4261.026, 4068.718, 4153.333, 4094.359, 450, 0, []
1630311097.0631, 123, 0, 4143.077, 4238.462, 4096.41, 4152.308, 4096.41, 16200, 0, []
1630311097.071, 124, 0, 4134.872, 4235.897, 4065.641, 4155.385, 4078.974, 450, 0, []
1630311097.079, 125, 0, 4132.308, 4266.154, 4086.154, 4155.897, 4047.179, 450, 0, []
1630311097.0869, 126, 0, 4138.974, 4272.821, 4108.205, 4158.974, 4055.385, 450, 0, []
1630311097.0948, 127, 0, 4139.487, 4243.59, 4103.077, 4158.462, 4083.59, 16200, 0, []
1630311097.1027, 128, 0, 4135.385, 4245.641, 4126.667, 4162.051, 4081.026, 450, 0, []
1630311097.1105, 0, 0, 4137.949, 4272.308, 4103.59, 4171.795, 4063.077, 450, 0, []
1630311097.1184, 1, 0, 4141.026, 4255.897, 4109.231, 4165.128, 4061.538, 450, 0, []
1630311097.1262, 2, 0, 4136.41, 4230.256, 4111.282, 4148.718, 4073.333, 16188, 0, []
1630311097.134, 3, 0, 4138.462, 4238.974, 4098.462, 4147.692, 4080, 450, 0, []
1630311097.1418, 4, 0, 4138.974, 4254.872, 4127.692, 4141.538, 4066.667, 16124, 0, []
1630311097.1497, 5, 0, 4126.667, 4257.949, 4110.769, 4125.641, 4055.385, 450, 0, []
1630311097.1575, 6, 0, 4137.436, 4256.923, 4132.821, 4143.59, 4079.487, 224, 0, []
1630311097.1654, 7, 0, 4173.333, 4260, 4149.231, 4180.513, 4107.692, 450, 0, []
1630311097.1731, 8, 0, 4176.923, 4268.205, 4112.308, 4176.41, 4095.897, 450, 0, []
1630311097.1811, 9, 0, 4138.462, 4256.923, 4129.231, 4140, 4070.256, 16142, 0, []
1630311097.189, 10, 0, 4114.359, 4230.769, 4118.974, 4118.974, 4066.667, 450, 0, []
1630311097.197, 11, 0, 4124.615, 4245.641, 4124.615, 4126.154, 4067.692, 16201, 0, []
1630311097.2049, 12, 0, 4148.205, 4278.974, 4136.41, 4147.179, 4074.359, 450, 0, []
1630311097.2128, 13, 0, 4158.974, 4282.564, 4125.128, 4160, 4096.41, 450, 0, []
1630311097.2207, 14, 0, 4142.564, 4278.974, 4158.974, 4155.897, 4107.179, 450, 0, []
1630311097.2287, 15, 0, 4143.077, 4274.359, 4132.308, 4154.359, 4108.205, 16201, 0, []
1630311097.2366, 16, 0, 4175.897, 4275.385, 4121.538, 4167.179, 4113.333, 0, 0, []
1630311097.2446, 17, 0, 4186.667, 4277.436, 4136.923, 4160.513, 4100, 0, 0, []
1630311097.2524, 18, 0, 4165.641, 4267.179, 4112.821, 4135.897, 4080, 0, 0, []
1630311097.2602, 19, 0, 4161.538, 4272.308, 4135.385, 4137.436, 4088.718, 0, 0, []
1630311097.2681, 20, 0, 4167.179, 4286.667, 4114.872, 4149.231, 4090.769, 0, 0, []
1630311097.2759, 21, 0, 4150.769, 4268.718, 4099.487, 4135.385, 4064.615, 0, 0, []
1630311097.2838, 22, 0, 4136.41, 4257.949, 4115.897, 4113.846, 4065.641, 0, 0, []
1630311097.2915, 23, 0, 4142.051, 4285.641, 4094.359, 4121.538, 4094.359, 0, 0, []
1630311097.2994, 24, 0, 4151.282, 4282.564, 4121.026, 4149.231, 4095.385, 0, 0, []
1630311097.3072, 25, 0, 4150.256, 4274.359, 4116.41, 4151.795, 4075.385, 0, 0, []
1630311097.3151, 26, 0, 4138.974, 4298.462, 4106.667, 4125.128, 4072.821, 0, 0, []
1630311097.3229, 27, 0, 4128.718, 4287.692, 4122.564, 4108.718, 4080.513, 0, 0, []
1630311097.3307, 28, 0, 4134.872, 4255.385, 4093.333, 4119.487, 4084.103, 0, 0, []
1630311097.3385, 29, 0, 4151.795, 4271.282, 4121.026, 4129.744, 4086.667, 0, 0, []
1630311097.3464, 30, 0, 4153.333, 4292.821, 4125.128, 4120.513, 4090.769, 0, 0, []
1630311097.3542, 31, 0, 4141.538, 4263.59, 4102.564, 4112.308, 4089.744, 0, 0, []
1630311097.3622, 32, 0, 4144.615, 4250.769, 4116.41, 4127.692, 4088.205, 0, 0, []
1630311097.3701, 33, 0, 4165.128, 4298.462, 4098.974, 4147.179, 4094.872, 0, 0, []
1630311097.378, 34, 0, 4171.795, 4332.308, 4129.231, 4148.205, 4110.769, 0, 0, []
1630311097.3859, 35, 0, 4150.256, 4295.897, 4122.051, 4136.41, 4123.59, 0, 0, []
1630311097.3939, 36, 0, 4138.462, 4269.231, 4100.513, 4140.513, 4121.538, 0, 0, []
1630311097.4018, 37, 0, 4166.154, 4308.205, 4144.103, 4170.256, 4119.487, 0, 0, []
1630311097.4098, 38, 0, 4183.077, 4327.692, 4124.103, 4178.974, 4129.231, 0, 0, []
1630311097.4176, 39, 0, 4149.744, 4289.744, 4124.103, 4151.282, 4131.282, 0, 0, []
1630311097.4256, 40, 0, 4131.795, 4280.513, 4119.487, 4136.41, 4122.564, 0, 0, []
1630311097.4335, 41, 0, 4160, 4310.256, 4100.513, 4155.897, 4124.103, 0, 0, []
1630311097.4413, 42, 0, 4178.462, 4313.333, 4136.41, 4165.641, 4126.154, 0, 0, []
1630311097.4492, 43, 0, 4164.103, 4292.821, 4111.795, 4143.077, 4123.59, 0, 0, []
1630311097.4569, 44, 0, 4149.231, 4290.769, 4112.821, 4136.923, 4132.308, 0, 0, []
1630311097.4648, 45, 0, 4151.795, 4296.41, 4119.487, 4153.333, 4139.487, 0, 0, []
1630311097.4726, 46, 0, 4156.41, 4278.974, 4090.769, 4145.641, 4118.974, 0, 0, []
1630311097.4805, 47, 0, 4146.667, 4281.026, 4111.795, 4122.051, 4097.436, 0, 0, []
1630311097.4884, 48, 0, 4141.026, 4308.205, 4089.744, 4119.487, 4107.692, 0, 0, []
1630311097.4962, 49, 0, 4146.154, 4298.974, 4095.385, 4138.974, 4116.923, 0, 0, []
1630311097.5041, 50, 0, 4153.846, 4284.615, 4105.128, 4161.026, 4113.846, 0, 0, []
1630311097.5119, 51, 0, 4157.949, 4298.462, 4070.769, 4162.051, 4117.949, 0, 0, []
1630311097.5199, 52, 0, 4142.051, 4288.718, 4086.154, 4135.385, 4115.897, 0, 0, []
1630311097.5278, 53, 0, 4120.513, 4250.769, 4064.103, 4117.436, 4105.641, 0, 0, []
1630311097.5356, 54, 0, 4135.385, 4258.462, 4076.41, 4142.051, 4113.333, 0, 0, []
1630311097.5436, 55, 0, 4166.667, 4300.513, 4101.538, 4162.564, 4129.231, 0, 0, []
1630311097.5515, 56, 0, 4173.846, 4309.744, 4072.308, 4154.872, 4143.59, 0, 0, []
1630311097.5595, 57, 0, 4168.205, 4292.308, 4102.564, 4160.513, 4162.564, 0, 0, []
1630311097.5674, 58, 0, 4166.667, 4284.615, 4081.538, 4166.154, 4163.077, 0, 0, []
1630311097.5751, 59, 0, 4171.795, 4295.897, 4058.974, 4156.41, 4148.205, 0, 0, []
1630311097.583, 60, 0, 4180, 4291.282, 4064.103, 4149.231, 4149.231, 0, 0, []
1630311097.5908, 61, 0, 4189.744, 4275.385, 4015.897, 4135.385, 4167.692, 0, 0, []
1630311097.5987, 62, 0, 4222.564, 4282.051, 4030.256, 4129.231, 4205.641, 0, 0, []
1630311097.6065, 63, 0, 4271.282, 4293.333, 4029.744, 4145.641, 4255.385, 0, 0, []
1630311097.6143, 64, 0, 4317.949, 4288.205, 4033.846, 4161.538, 4295.385, 450, 0, []
1630311097.6221, 65, 0, 4372.821, 4292.821, 4074.872, 4167.692, 4332.821, 450, 0, []
1630311097.63, 66, 0, 4413.333, 4302.051, 4065.128, 4169.231, 4364.615, 16188, 0, []
1630311097.6378, 67, 0, 4402.051, 4273.846, 4086.154, 4152.821, 4360, 450, 0, []
1630311097.6458, 68, 0, 4385.128, 4258.974, 4089.744, 4134.872, 4347.692, 16124, 0, []
1630311097.6536, 69, 0, 4387.692, 4282.564, 4107.692, 4137.949, 4354.872, 450, 0, []
1630311097.6616, 70, 0, 4376.41, 4281.538, 4135.385, 4137.436, 4351.282, 237, 0, []
1630311097.6695, 71, 0, 4360, 4258.974, 4106.154, 4137.436, 4339.487, 450, 0, []
1630311097.6775, 72, 0, 4346.154, 4258.974, 4138.974, 4155.385, 4332.821, 450, 0, []
1630311097.6854, 73, 0, 4307.179, 4266.667, 4111.795, 4150.256, 4298.974, 16146, 0, []
1630311097.6933, 74, 0, 4275.897, 4261.026, 4074.359, 4141.026, 4262.564, 450, 0, []
1630311097.7012, 75, 0, 4282.051, 4257.436, 4117.436, 4153.333, 4260.513, 16194, 0, []
1630311097.7092, 76, 0, 4276.923, 4276.41, 4094.872, 4147.692, 4253.333, 450, 0, []
1630311097.7171, 77, 0, 4257.436, 4299.487, 4111.795, 4146.667, 4237.436, 450, 0, []
1630311097.7251, 78, 0, 4251.795, 4289.231, 4122.051, 4160, 4246.154, 450, 0, []
1630311097.733, 79, 0, 4237.949, 4274.872, 4087.692, 4158.974, 4247.179, 16194, 0, []
1630311097.7407, 80, 0, 4226.154, 4295.897, 4100, 4157.949, 4226.667, 450, 0, []
1630311097.7486, 81, 0, 4235.897, 4298.974, 4082.051, 4166.154, 4224.103, 450, 0, []
1630311097.7564, 82, 0, 4234.872, 4268.205, 4090.256, 4151.795, 4218.974, 450, 0, []
1630311097.7643, 83, 0, 4217.436, 4279.487, 4089.231, 4123.59, 4195.897, 16194, 0, []
1630311097.7721, 84, 0, 4208.718, 4319.487, 4081.538, 4129.231, 4201.538, 450, 0, []
1630311097.7799, 85, 0, 4205.641, 4340, 4123.077, 4147.179, 4217.949, 450, 0, []
1630311097.7877, 86, 0, 4209.744, 4362.564, 4092.308, 4150.769, 4201.538, 450, 0, []
1630311097.7956, 87, 0, 4215.385, 4373.333, 4083.077, 4158.462, 4177.949, 16194, 0, []
1630311097.8034, 88, 0, 4203.077, 4363.077, 4096.41, 4156.923, 4178.462, 450, 0, []
1630311097.8114, 89, 0, 4184.103, 4372.821, 4055.385, 4148.205, 4189.744, 450, 0, []
1630311097.8192, 90, 0, 4185.128, 4382.564, 4056.41, 4163.077, 4189.231, 450, 0, []
1630311097.8272, 91, 0, 4184.103, 4354.872, 4018.974, 4168.205, 4174.359, 16194, 0, []
1630311097.8351, 92, 0, 4162.051, 4332.308, 3986.154, 4134.359, 4156.41, 450, 0, []
1630311097.8431, 93, 0, 4159.487, 4334.359, 4008.718, 4123.59, 4172.308, 450, 0, []
1630311097.851, 94, 0, 4191.795, 4343.59, 4002.564, 4164.615, 4212.308, 450, 0, []
1630311097.8589, 95, 0, 4208.718, 4365.128, 4015.385, 4186.667, 4216.923, 16194, 0, []
1630311097.8668, 96, 0, 4196.923, 4364.103, 3996.41, 4163.077, 4188.718, 450, 0, []
1630311097.8748, 97, 0, 4188.718, 4326.667, 3994.359, 4146.154, 4174.359, 450, 0, []
1630311097.8827, 98, 0, 4181.026, 4319.487, 4034.872, 4141.026, 4175.385, 450, 0, []
1630311097.8905, 99, 0, 4167.179, 4344.615, 4012.308, 4129.231, 4170.769, 16194, 0, []
1630311097.8983, 100, 0, 4167.179, 4345.641, 4031.282, 4137.949, 4169.231, 450, 0, []
1630311097.9061, 101, 0, 4173.333, 4343.077, 4047.179, 4162.051, 4176.923, 450, 0, []
1630311097.914, 102, 0, 4169.231, 4370.769, 4038.462, 4156.923, 4184.103, 450, 0, []
1630311097.9218, 103, 0, 4167.692, 4388.205, 4071.282, 4146.154, 4189.231, 16194, 0, []
1630311097.9297, 104, 0, 4178.974, 4367.692, 4067.692, 4170.256, 4191.282, 450, 0, []
1630311097.9374, 105, 0, 4189.744, 4351.795, 4084.615, 4196.923, 4185.128, 450, 0, []
1630311097.9453, 106, 0, 4187.179, 4365.128, 4086.154, 4193.846, 4171.282, 450, 0, []
1630311097.9531, 107, 0, 4184.103, 4379.487, 4074.872, 4185.641, 4167.692, 16194, 0, []
1630311097.9611, 108, 0, 4192.308, 4376.41, 4106.154, 4193.846, 4183.59, 450, 0, []
1630311097.969, 109, 0, 4197.949, 4354.872, 4087.179, 4197.949, 4193.846, 450, 0, []
1630311097.9769, 110, 0, 4188.205, 4339.487, 4096.923, 4191.795, 4182.564, 450, 0, []
1630311097.9848, 111, 0, 4186.667, 4340.513, 4107.692, 4186.154, 4176.923, 16194, 0, []
1630311097.9928, 112, 0, 4187.692, 4317.436, 4081.538, 4167.692, 4175.897, 450, 0, []
1630311098.0007, 113, 0, 4169.231, 4291.795, 4093.333, 4151.795, 4158.974, 450, 0, []
1630311098.0087, 114, 0, 4165.128, 4304.615, 4074.872, 4167.692, 4155.385, 450, 0, []
1630311098.0165, 115, 0, 4186.667, 4309.231, 4093.333, 4188.205, 4170.769, 16194, 0, []
1630311098.0245, 116, 0, 4191.282, 4291.282, 4108.205, 4179.487, 4175.385, 450, 0, []
1630311098.0324, 117, 0, 4180, 4303.59, 4078.974, 4173.846, 4168.718, 450, 0, []
1630311098.0402, 118, 0, 4181.026, 4318.462, 4105.128, 4186.154, 4163.077, 450, 0, []
1630311098.0481, 119, 0, 4187.179, 4293.333, 4088.205, 4185.128, 4150.256, 16194, 0, []
1630311098.0558, 120, 0, 4186.154, 4287.179, 4080.513, 4180, 4141.538, 450, 0, []
1630311098.0637, 121, 0, 4182.051, 4308.205, 4093.333, 4171.282, 4155.385, 450, 0, []
1630311098.0715, 122, 0, 4178.974, 4290.769, 4063.59, 4157.436, 4167.179, 450, 0, []
1630311098.0794, 123, 0, 4192.308, 4269.231, 4096.41, 4177.436, 4172.821, 16194, 0, []
1630311098.0872, 124, 0, 4208.205, 4289.744, 4096.923, 4203.077, 4174.359, 450, 0, []
1630311098.0951, 125, 0, 4197.949, 4304.615, 4082.564, 4178.974, 4155.385, 450, 0, []
1630311098.1028, 126, 0, 4182.564, 4302.051, 4104.615, 4152.308, 4148.205, 450, 0, []
1630311098.1108, 127, 0, 4191.282, 4320.513, 4102.564, 4177.436, 4183.59, 16194, 0, []
1630311098.1187, 128, 0, 4205.128, 4321.538, 4133.333, 4203.077, 4212.821, 450, 0, []
1630311098.1266, 0, 0, 4200.513, 4283.59, 4114.359, 4192.308, 4193.846, 450, 0, []
1630311098.1344, 1, 0, 4190.769, 4269.744, 4094.359, 4180, 4174.872, 450, 0, []
1630311098.1423, 2, 0, 4185.641, 4281.026, 4120.513, 4177.949, 4189.744, 16188, 0, []
1630311098.1502, 3, 0, 4183.59, 4278.974, 4098.974, 4180, 4209.231, 450, 0, []
1630311098.1582, 4, 0, 4187.692, 4282.051, 4109.744, 4188.718, 4204.103, 16121, 0, []
1630311098.1661, 5, 0, 4199.487, 4304.615, 4103.077, 4193.333, 4186.667, 450, 0, []
1630311098.1741, 6, 0, 4202.564, 4307.179, 4092.308, 4184.615, 4192.821, 224, 0, []
1630311098.1819, 7, 0, 4178.974, 4284.615, 4111.282, 4167.179, 4207.692, 450, 0, []
1630311098.1897, 8, 0, 4161.026, 4278.974, 4078.462, 4159.487, 4196.41, 450, 0, []
1630311098.1976, 9, 0, 4181.026, 4297.436, 4101.026, 4174.872, 4183.077, 16144, 0, []
1630311098.2054, 10, 0, 4190.769, 4313.846, 4108.718, 4179.487, 4182.051, 450, 0, []
1630311098.2133, 11, 0, 4162.051, 4310.256, 4072.308, 4152.821, 4171.282, 16197, 0, []
1630311098.221, 12, 0, 4144.103, 4284.615, 4089.744, 4145.641, 4162.051, 450, 0, []
1630311098.2289, 13, 0, 4163.59, 4274.359, 4072.821, 4173.333, 4171.282, 450, 0, []
1630311098.2367, 14, 0, 4172.308, 4286.154, 4069.231, 4182.564, 4166.154, 450, 0, []
1630311098.2446, 15, 0, 4164.615, 4292.308, 4072.821, 4159.487, 4155.897, 16197, 0, []
1630311098.2524, 16, 0, 4175.897, 4286.667, 4065.641, 4162.564, 4178.462, 0, 0, []
1630311098.2603, 17, 0, 4184.103, 4284.103, 4093.333, 4186.667, 4200, 0, 0, []
1630311098.2682, 18, 0, 4179.487, 4287.692, 4059.487, 4178.462, 4193.846, 0, 0, []
1630311098.2761, 19, 0, 4181.026, 4299.487, 4051.282, 4156.41, 4174.872, 0, 0, []
1630311098.2839, 20, 0, 4178.462, 4303.59, 4063.077, 4147.179, 4165.641, 0, 0, []
1630311098.2919, 21, 0, 4171.282, 4284.615, 4026.667, 4151.795, 4175.385, 0, 0, []
1630311098.2997, 22, 0, 4181.026, 4278.974, 4041.538, 4167.692, 4182.564, 0, 0, []
1630311098.3077, 23, 0, 4186.667, 4310.256, 4028.718, 4168.718, 4169.231, 0, 0, []
1630311098.3156, 24, 0, 4174.359, 4332.821, 4016.41, 4148.718, 4160.513, 0, 0, []
1630311098.3236, 25, 0, 4166.154, 4306.667, 4020.513, 4141.538, 4171.282, 0, 0, []
1630311098.3315, 26, 0, 4161.538, 4262.051, 3983.59, 4146.667, 4172.821, 0, 0, []
1630311098.3394, 27, 0, 4166.667, 4249.744, 4011.282, 4149.744, 4163.077, 0, 0, []
1630311098.3473, 28, 0, 4179.487, 4248.718, 4020, 4160.513, 4168.718, 0, 0, []
1630311098.3551, 29, 0, 4182.564, 4240.513, 4009.231, 4167.179, 4183.59, 0, 0, []
1630311098.363, 30, 0, 4187.692, 4242.564, 4029.231, 4165.128, 4194.359, 0, 0, []
1630311098.3708, 31, 0, 4212.821, 4249.744, 4009.231, 4166.154, 4210.256, 0, 0, []
1630311098.3786, 32, 0, 4256.41, 4246.667, 4022.564, 4167.692, 4234.359, 0, 0, []
1630311098.3864, 33, 0, 4305.641, 4246.154, 4029.231, 4164.103, 4268.718, 0, 0, []
1630311098.3943, 34, 0, 4347.179, 4264.615, 4044.103, 4167.179, 4323.077, 0, 0, []
1630311098.4021, 35, 0, 4386.667, 4281.538, 4086.154, 4177.436, 4370.256, 0, 0, []
1630311098.41, 36, 0, 4418.974, 4277.949, 4062.564, 4180.513, 4383.59, 0, 0, []
1630311098.4178, 37, 0, 4420.513, 4252.308, 4073.333, 4173.333, 4380, 0, 0, []
1630311098.4257, 38, 0, 4409.744, 4240.513, 4080, 4162.564, 4384.103, 0, 0, []
1630311098.4336, 39, 0, 4400.513, 4253.333, 4069.744, 4156.923, 4381.538, 0, 0, []
1630311098.4416, 40, 0, 4382.564, 4255.897, 4101.538, 4162.564, 4371.282, 0, 0, []
1630311098.4495, 41, 0, 4369.744, 4240.513, 4085.641, 4174.872, 4367.179, 0, 0, []
1630311098.4575, 42, 0, 4361.538, 4238.462, 4098.462, 4188.718, 4349.744, 0, 0, []
1630311098.4653, 43, 0, 4335.897, 4260.513, 4100, 4184.615, 4313.846, 0, 0, []
1630311098.4732, 44, 0, 4309.744, 4263.077, 4078.462, 4172.821, 4287.179, 0, 0, []
1630311098.4811, 45, 0, 4299.487, 4245.128, 4112.821, 4178.462, 4277.436, 0, 0, []
1630311098.4889, 46, 0, 4277.949, 4252.821, 4090.256, 4174.872, 4249.231, 0, 0, []
1630311098.4969, 47, 0, 4245.641, 4260.513, 4092.821, 4152.821, 4210.256, 0, 0, []
1630311098.5047, 48, 0, 4234.359, 4238.974, 4119.487, 4148.718, 4211.282, 0, 0, []
1630311098.5126, 49, 0, 4235.897, 4219.487, 4114.872, 4170.256, 4222.051, 0, 0, []
1630311098.5204, 50, 0, 4229.744, 4230.769, 4140.513, 4182.564, 4203.077, 0, 0, []
1630311098.5283, 51, 0, 4226.154, 4242.564, 4113.333, 4178.974, 4191.795, 0, 0, []
1630311098.5361, 52, 0, 4232.821, 4247.179, 4119.487, 4180, 4206.667, 0, 0, []
1630311098.5439, 53, 0, 4229.744, 4258.974, 4144.103, 4181.538, 4209.231, 0, 0, []
1630311098.5517, 54, 0, 4210.256, 4265.128, 4127.692, 4183.077, 4201.026, 0, 0, []
1630311098.5596, 55, 0, 4197.949, 4250.256, 4148.205, 4188.205, 4198.974, 0, 0, []
1630311098.5674, 56, 0, 4204.103, 4227.179, 4116.41, 4187.179, 4189.231, 0, 0, []
1630311098.5754, 57, 0, 4196.923, 4213.846, 4115.385, 4168.718, 4167.179, 0, 0, []
1630311098.5832, 58, 0, 4171.282, 4215.385, 4149.744, 4147.179, 4150.769, 0, 0, []
1630311098.5912, 59, 0, 4166.154, 4217.436, 4126.154, 4153.846, 4148.718, 0, 0, []
1630311098.5991, 60, 0, 4181.026, 4215.897, 4143.077, 4179.487, 4144.103, 0, 0, []
1630311098.6071, 61, 0, 4184.103, 4222.051, 4128.205, 4180, 4132.821, 0, 0, []
1630311098.615, 62, 0, 4177.949, 4233.846, 4122.564, 4164.103, 4138.974, 0, 0, []
1630311098.6229, 63, 0, 4175.897, 4232.308, 4143.077, 4167.179, 4160.513, 0, 0, []
1630311098.6308, 64, 0, 4170.769, 4234.872, 4112.308, 4177.949, 4162.051, 450, 0, []
1630311098.6388, 65, 0, 4159.487, 4249.231, 4131.795, 4176.923, 4139.487, 450, 0, []
1630311098.6467, 66, 0, 4143.59, 4237.949, 4122.564, 4165.641, 4120.513, 16187, 0, []
1630311098.6547, 67, 0, 4132.821, 4215.897, 4114.872, 4160.513, 4123.077, 450, 0, []
1630311098.6625, 68, 0, 4134.872, 4215.385, 4148.718, 4174.872, 4140, 16126, 0, []
1630311098.6703, 69, 0, 4138.462, 4229.744, 4121.538, 4183.59, 4146.667, 450, 0, []
1630311098.6782, 70, 0, 4143.59, 4242.051, 4136.923, 4175.897, 4145.128, 219, 0, []
1630311098.686, 71, 0, 4155.385, 4245.641, 4139.487, 4164.103, 4154.872, 450, 0, []
1630311098.6939, 72, 0, 4158.974, 4244.103, 4114.359, 4157.949, 4160, 450, 0, []
1630311098.7016, 73, 0, 4145.641, 4248.205, 4125.128, 4156.923, 4135.385, 16142, 0, []
1630311098.7095, 74, 0, 4145.128, 4251.795, 4115.385, 4163.077, 4121.538, 450, 0, []
1630311098.7173, 75, 0, 4151.795, 4236.923, 4148.718, 4169.231, 4136.41, 16193, 0, []
1630311098.7252, 76, 0, 4132.821, 4214.872, 4133.846, 4163.59, 4139.487, 450, 0, []
1630311098.733, 77, 0, 4123.077, 4208.205, 4104.103, 4168.718, 4130.256, 450, 0, []
1630311098.7409, 78, 0, 4148.718, 4225.641, 4153.333, 4189.231, 4136.923, 450, 0, []
1630311098.7488, 79, 0, 4158.974, 4223.59, 4135.897, 4186.154, 4142.051, 16193, 0, []
1630311098.7568, 80, 0, 4142.564, 4198.462, 4134.872, 4174.872, 4135.385, 450, 0, []
1630311098.7647, 81, 0, 4149.744, 4200, 4141.538, 4182.051, 4134.872, 450, 0, []
1630311098.7727, 82, 0, 4160.513, 4210.769, 4108.718, 4174.872, 4122.564, 450, 0, []
1630311098.7806, 83, 0, 4139.487, 4203.077, 4121.538, 4141.538, 4104.103, 16193, 0, []
1630311098.7885, 84, 0, 4129.744, 4196.41, 4097.436, 4132.308, 4112.308, 450, 0, []
1630311098.7964, 85, 0, 4156.41, 4207.179, 4106.667, 4156.923, 4127.179, 450, 0, []
1630311098.8044, 86, 0, 4172.821, 4212.308, 4126.154, 4168.205, 4120, 450, 0, []
1630311098.8123, 87, 0, 4155.385, 4196.923, 4097.436, 4155.385, 4120.513, 16193, 0, []
1630311098.8201, 88, 0, 4136.41, 4188.718, 4109.744, 4150.769, 4136.923, 450, 0, []
1630311098.8279, 89, 0, 4138.462, 4203.59, 4090.256, 4166.154, 4137.949, 450, 0, []
1630311098.8357, 90, 0, 4144.103, 4198.974, 4095.897, 4174.872, 4124.103, 450, 0, []
1630311098.8436, 91, 0, 4133.333, 4175.897, 4106.154, 4154.872, 4120.513, 16193, 0, []
1630311098.8514, 92, 0, 4123.077, 4184.103, 4066.154, 4145.128, 4125.641, 450, 0, []
1630311098.8593, 93, 0, 4125.641, 4201.538, 4091.282, 4156.41, 4113.846, 450, 0, []
1630311098.867, 94, 0, 4128.718, 4209.231, 4085.641, 4149.231, 4104.615, 450, 0, []
1630311098.8749, 95, 0, 4130.256, 4222.051, 4088.205, 4143.59, 4124.103, 16193, 0, []
1630311098.8827, 96, 0, 4148.205, 4215.385, 4122.051, 4168.205, 4146.154, 450, 0, []
1630311098.8907, 97, 0, 4149.744, 4183.59, 4090.769, 4167.179, 4128.205, 450, 0, []
1630311098.8986, 98, 0, 4117.436, 4184.103, 4102.051, 4140, 4103.59, 450, 0, []
1630311098.9065, 99, 0, 4109.744, 4204.103, 4102.051, 4151.795, 4111.795, 16193, 0, []
1630311098.9144, 100, 0, 4127.179, 4197.949, 4089.744, 4174.872, 4112.308, 450, 0, []
1630311098.9224, 101, 0, 4129.744, 4201.538, 4104.615, 4163.077, 4109.744, 450, 0, []
1630311098.9303, 102, 0, 4128.718, 4224.103, 4081.538, 4157.949, 4134.359, 450, 0, []
1630311098.9383, 103, 0, 4135.897, 4216.923, 4103.59, 4175.897, 4140, 16193, 0, []
1630311098.9461, 104, 0, 4134.359, 4201.026, 4104.615, 4172.821, 4113.333, 450, 0, []
1630311098.9541, 105, 0, 4126.154, 4204.615, 4098.974, 4155.897, 4105.128, 450, 0, []
1630311098.962, 106, 0, 4118.974, 4194.872, 4120, 4152.821, 4103.077, 450, 0, []
1630311098.9698, 107, 0, 4119.487, 4188.205, 4085.641, 4159.487, 4089.231, 16193, 0, []
1630311098.9777, 108, 0, 4129.231, 4204.615, 4106.667, 4168.205, 4107.692, 450, 0, []
1630311098.9854, 109, 0, 4126.667, 4215.897, 4110.256, 4174.872, 4143.59, 450, 0, []
1630311098.9933, 110, 0, 4121.538, 4213.333, 4075.897, 4182.051, 4147.179, 450, 0, []
1630311099.0011, 111, 0, 4132.821, 4216.41, 4101.538, 4184.615, 4130.256, 16193, 0, []
1630311099.009, 112, 0, 4142.564, 4222.051, 4085.128, 4175.385, 4134.872, 450, 0, []
1630311099.0168, 113, 0, 4138.974, 4207.692, 4090.769, 4171.282, 4152.821, 450, 0, []
1630311099.0246, 114, 0, 4142.564, 4195.897, 4096.923, 4180.513, 4150.256, 450, 0, []
1630311099.0324, 115, 0, 4149.231, 4214.872, 4076.923, 4180.513, 4132.821, 16193, 0, []
1630311099.0403, 116, 0, 4140, 4225.128, 4108.718, 4177.436, 4134.359, 450, 0, []
1630311099.0481, 117, 0, 4134.872, 4194.872, 4091.795, 4186.154, 4148.205, 450, 0, []
1630311099.0561, 118, 0, 4134.872, 4184.615, 4096.923, 4179.487, 4124.103, 450, 0, []
1630311099.0639, 119, 0, 4128.718, 4204.615, 4113.846, 4148.718, 4095.897, 16193, 0, []
1630311099.0719, 120, 0, 4118.462, 4192.308, 4086.667, 4142.051, 4114.359, 450, 0, []
1630311099.0798, 121, 0, 4121.026, 4171.795, 4115.897, 4172.821, 4140, 450, 0, []
1630311099.0878, 122, 0, 4132.821, 4187.179, 4103.077, 4177.436, 4122.051, 450, 0, []
1630311099.0957, 123, 0, 4139.487, 4205.641, 4092.821, 4157.436, 4109.231, 16193, 0, []
1630311099.1036, 124, 0, 4136.923, 4203.077, 4106.154, 4161.026, 4132.821, 450, 0, []
1630311099.1115, 125, 0, 4129.744, 4200.513, 4081.026, 4166.154, 4135.385, 450, 0, []
1630311099.1195, 126, 0, 4131.282, 4202.564, 4092.308, 4154.872, 4115.385, 450, 0, []
1630311099.1274, 127, 0, 4135.385, 4212.308, 4067.692, 4152.308, 4122.051, 16193, 0, []
1630311099.1352, 128, 0, 4136.923, 4220.513, 4063.59, 4165.641, 4141.026, 450, 0, []
1630311099.1431, 0, 0, 4140.513, 4202.051, 4085.641, 4173.333, 4132.821, 450, 0, []
1630311099.1508, 1, 0, 4138.462, 4181.026, 4062.564, 4169.744, 4115.897, 450, 0, []
1630311099.1587, 2, 0, 4137.949, 4204.615, 4096.41, 4166.154, 4124.615, 16193, 0, []
1630311099.1665, 3, 0, 4151.282, 4230.256, 4105.128, 4172.308, 4145.128, 450, 0, []
1630311099.1744, 4, 0, 4167.692, 4213.333, 4100.513, 4188.718, 4148.718, 16127, 0, []
1630311099.1822, 5, 0, 4160, 4200.513, 4108.718, 4185.128, 4131.795, 450, 0, []
1630311099.19, 6, 0, 4143.077, 4213.846, 4068.718, 4161.538, 4127.179, 227, 0, []
1630311099.1978, 7, 0, 4137.436, 4225.128, 4094.872, 4162.564, 4138.462, 450, 0, []
1630311099.2058, 8, 0, 4136.923, 4208.205, 4106.667, 4184.103, 4140.513, 450, 0, []
1630311099.2137, 9, 0, 4143.077, 4194.359, 4090.256, 4188.718, 4136.41, 16144, 0, []
1630311099.2217, 10, 0, 4160, 4207.179, 4116.923, 4178.974, 4150.769, 450, 0, []
1630311099.2295, 11, 0, 4173.846, 4213.333, 4099.487, 4185.128, 4173.333, 16205, 0, []
1630311099.2375, 12, 0, 4168.718, 4209.744, 4111.795, 4206.154, 4175.897, 450, 0, []
1630311099.2454, 13, 0, 4160.513, 4204.615, 4113.846, 4206.667, 4162.564, 450, 0, []
1630311099.2534, 14, 0, 4152.308, 4203.077, 4090.769, 4182.051, 4155.385, 450, 0, []
1630311099.2613, 15, 0, 4140, 4211.282, 4103.077, 4173.846, 4164.103, 16205, 0, []
1630311099.2692, 16, 0, 4143.077, 4223.59, 4080, 4190.256, 4174.872, 0, 0, []
1630311099.2771, 17, 0, 4164.103, 4225.641, 4102.564, 4204.615, 4174.872, 0, 0, []
1630311099.2851, 18, 0, 4173.846, 4227.179, 4116.41, 4194.872, 4176.923, 0, 0, []
1630311099.293, 19, 0, 4168.205, 4238.462, 4093.333, 4182.564, 4188.718, 0, 0, []
1630311099.3008, 20, 0, 4166.154, 4221.026, 4116.923, 4191.282, 4191.282, 0, 0, []
1630311099.3086, 21, 0, 4163.59, 4191.795, 4093.846, 4192.821, 4173.846, 0, 0, []
1630311099.3164, 22, 0, 4150.256, 4191.795, 4097.436, 4170.256, 4159.487, 0, 0, []
1630311099.3243, 23, 0, 4138.462, 4202.051, 4114.872, 4161.026, 4164.103, 0, 0, []
1630311099.3321, 24, 0, 4149.744, 4196.41, 4103.077, 4188.205, 4178.462, 0, 0, []
1630311099.34, 25, 0, 4171.795, 4203.59, 4132.308, 4211.795, 4184.615, 0, 0, []
1630311099.3477, 26, 0, 4170.256, 4226.154, 4103.077, 4196.923, 4180.513, 0, 0, []
1630311099.3557, 27, 0, 4140.513, 4198.462, 4088.718, 4170.769, 4166.154, 0, 0, []
1630311099.3636, 28, 0, 4129.231, 4173.333, 4102.564, 4175.897, 4160, 0, 0, []
1630311099.3716, 29, 0, 4157.949, 4219.487, 4082.564, 4201.026, 4174.872, 0, 0, []
1630311099.3795, 30, 0, 4178.462, 4234.872, 4111.282, 4198.462, 4182.051, 0, 0, []
1630311099.3874, 31, 0, 4168.718, 4194.359, 4105.128, 4187.692, 4186.667, 0, 0, []
1630311099.3953, 32, 0, 4168.718, 4201.538, 4097.436, 4201.026, 4198.462, 0, 0, []
1630311099.4033, 33, 0, 4190.769, 4228.205, 4102.564, 4207.179, 4178.974, 0, 0, []
1630311099.4112, 34, 0, 4189.744, 4204.103, 4069.231, 4183.077, 4141.026, 0, 0, []
1630311099.4192, 35, 0, 4159.487, 4187.179, 4102.051, 4170.769, 4138.974, 0, 0, []
1630311099.427, 36, 0, 4144.103, 4205.128, 4095.385, 4177.949, 4149.744, 0, 0, []
1630311099.435, 37, 0, 4150.256, 4201.538, 4068.205, 4175.385, 4133.846, 0, 0, []
1630311099.4429, 38, 0, 4158.462, 4195.385, 4101.026, 4171.795, 4127.692, 0, 0, []
1630311099.4507, 39, 0, 4161.538, 4216.923, 4092.821, 4179.487, 4146.667, 0, 0, []
1630311099.4586, 40, 0, 4166.667, 4214.359, 4095.385, 4189.231, 4154.359, 0, 0, []
1630311099.4663, 41, 0, 4181.538, 4184.615, 4080.513, 4190.769, 4145.641, 0, 0, []
1630311099.4742, 42, 0, 4205.641, 4184.615, 4087.179, 4196.923, 4158.462, 0, 0, []
1630311099.4821, 43, 0, 4221.026, 4208.205, 4130.769, 4206.667, 4194.872, 0, 0, []
1630311099.4899, 44, 0, 4211.795, 4206.667, 4095.897, 4196.923, 4204.615, 0, 0, []
1630311099.4977, 45, 0, 4203.077, 4183.59, 4090.769, 4186.154, 4189.231, 0, 0, []
1630311099.5057, 46, 0, 4224.615, 4185.128, 4085.641, 4191.282, 4200.513, 0, 0, []
1630311099.5135, 47, 0, 4254.359, 4196.41, 4066.667, 4182.051, 4231.795, 0, 0, []
1630311099.5215, 48, 0, 4278.974, 4189.231, 4094.359, 4158.462, 4262.051, 0, 0, []
1630311099.5294, 49, 0, 4332.308, 4191.795, 4081.538, 4164.103, 4316.41, 0, 0, []
1630311099.5374, 50, 0, 4405.128, 4210.769, 4096.923, 4188.718, 4374.359, 0, 0, []
1630311099.5453, 51, 0, 4438.462, 4201.026, 4098.462, 4185.128, 4395.897, 0, 0, []
1630311099.5532, 52, 0, 4441.538, 4182.051, 4074.359, 4169.744, 4393.846, 0, 0, []
1630311099.5611, 53, 0, 4443.077, 4197.436, 4100.513, 4171.795, 4387.179, 0, 0, []
1630311099.5691, 54, 0, 4446.667, 4206.667, 4086.154, 4181.538, 4391.795, 0, 0, []
1630311099.577, 55, 0, 4460.513, 4210.769, 4111.282, 4203.077, 4416.41, 0, 0, []
1630311099.585, 56, 0, 4451.795, 4227.179, 4123.077, 4205.641, 4404.615, 0, 0, []
1630311099.5928, 57, 0, 4411.795, 4227.179, 4077.436, 4177.436, 4348.718, 0, 0, []
1630311099.6006, 58, 0, 4400, 4229.744, 4112.821, 4185.128, 4338.974, 0, 0, []
1630311099.6085, 59, 0, 4407.692, 4235.897, 4116.41, 4222.051, 4366.154, 0, 0, []
1630311099.6163, 60, 0, 4383.59, 4235.897, 4106.154, 4223.59, 4346.154, 0, 0, []
1630311099.6242, 61, 0, 4355.385, 4250.256, 4122.051, 4204.103, 4316.41, 0, 0, []
1630311099.6319, 62, 0, 4315.897, 4227.179, 4094.872, 4182.051, 4296.923, 0, 0, []
1630311099.6398, 63, 0, 4253.846, 4166.667, 4090.256, 4155.897, 4254.359, 0, 0, []
1630311099.6476, 64, 0, 4256.41, 4187.179, 4092.308, 4175.897, 4253.846, 450, 0, []
1630311099.6555, 65, 0, 4307.692, 4255.897, 4129.744, 4226.154, 4300.513, 450, 0, []
1630311099.6633, 66, 0, 4301.538, 4243.077, 4140.513, 4223.077, 4291.282, 16175, 0, []
1630311099.6712, 67, 0, 4250.769, 4198.974, 4097.436, 4189.231, 4245.128, 450, 0, []
1630311099.6791, 68, 0, 4224.103, 4212.308, 4127.692, 4184.615, 4235.385, 16124, 0, []
1630311099.6871, 69, 0, 4225.128, 4241.538, 4117.436, 4195.385, 4239.487, 450, 0, []
1630311099.695, 70, 0, 4225.128, 4251.282, 4102.051, 4201.026, 4221.538, 223, 0, []
1630311099.703, 71, 0, 4209.744, 4263.59, 4127.179, 4194.359, 4195.897, 450, 0, []
1630311099.7108, 72, 0, 4191.795, 4265.128, 4098.974, 4170.769, 4179.487, 450, 0, []
1630311099.7188, 73, 0, 4192.821, 4244.103, 4108.205, 4163.59, 4181.026, 16149, 0, []
1630311099.7267, 74, 0, 4202.051, 4248.205, 4104.103, 4190.769, 4182.564, 450, 0, []
1630311099.7347, 75, 0, 4185.641, 4269.744, 4091.795, 4200, 4150.256, 16202, 0, []
1630311099.7426, 76, 0, 4143.59, 4242.051, 4099.487, 4152.821, 4107.692, 450, 0, []
1630311099.7503, 77, 0, 4129.744, 4211.795, 4075.385, 4130.256, 4117.949, 450, 0, []
1630311099.7582, 78, 0, 4171.282, 4248.205, 4121.538, 4182.564, 4157.949, 450, 0, []
1630311099.766, 79, 0, 4195.897, 4291.282, 4129.231, 4203.59, 4150.256, 16202, 0, []
1630311099.7739, 80, 0, 4169.744, 4283.077, 4094.872, 4158.462, 4118.974, 450, 0, []
1630311099.7817, 81, 0, 4150.769, 4267.692, 4116.41, 4147.692, 4130.256, 450, 0, []
1630311099.7895, 82, 0, 4163.59, 4278.462, 4101.538, 4179.487, 4148.205, 450, 0, []
1630311099.7973, 83, 0, 4167.179, 4284.103, 4113.846, 4184.103, 4118.974, 16202, 0, []
1630311099.8052, 84, 0, 4152.821, 4271.282, 4117.949, 4158.974, 4097.436, 450, 0, []
1630311099.813, 85, 0, 4147.692, 4281.538, 4107.692, 4157.436, 4126.154, 450, 0, []
1630311099.821, 86, 0, 4152.821, 4306.667, 4132.308, 4181.538, 4142.564, 450, 0, []
1630311099.8289, 87, 0, 4144.103, 4283.077, 4096.41, 4177.436, 4106.667, 16202, 0, []
1630311099.8368, 88, 0, 4132.308, 4263.59, 4102.564, 4151.282, 4088.205, 450, 0, []
1630311099.8447, 89, 0, 4137.949, 4297.436, 4121.026, 4154.872, 4119.487, 450, 0, []
1630311099.8527, 90, 0, 4144.615, 4300, 4102.051, 4178.462, 4131.795, 450, 0, []
1630311099.8606, 91, 0, 4138.462, 4267.179, 4115.897, 4175.897, 4098.974, 16202, 0, []
1630311099.8686, 92, 0, 4122.564, 4265.641, 4088.718, 4160.513, 4080.513, 450, 0, []
1630311099.8764, 93, 0, 4119.487, 4267.692, 4101.026, 4167.692, 4098.462, 450, 0, []
1630311099.8844, 94, 0, 4143.59, 4267.179, 4120, 4178.974, 4110.256, 450, 0, []
1630311099.8923, 95, 0, 4160, 4288.205, 4089.744, 4167.179, 4100.513, 16202, 0, []
1630311099.9001, 96, 0, 4143.077, 4285.128, 4101.026, 4151.282, 4093.846, 450, 0, []
1630311099.908, 97, 0, 4131.795, 4270.769, 4078.974, 4156.41, 4096.923, 450, 0, []
1630311099.9157, 98, 0, 4139.487, 4286.154, 4073.846, 4160.513, 4090.256, 450, 0, []
1630311099.9236, 99, 0, 4136.41, 4285.128, 4089.744, 4150.769, 4090.769, 16202, 0, []
1630311099.9314, 100, 0, 4132.821, 4270.256, 4072.308, 4157.436, 4110.769, 450, 0, []
1630311099.9393, 101, 0, 4142.051, 4280.513, 4088.718, 4164.615, 4106.667, 450, 0, []
1630311099.9471, 102, 0, 4152.308, 4279.487, 4073.846, 4150.256, 4091.795, 450, 0, []
1630311099.9549, 103, 0, 4149.744, 4265.641, 4068.718, 4147.692, 4106.667, 16202, 0, []
1630311099.9627, 104, 0, 4142.564, 4299.487, 4080.513, 4156.923, 4120.513, 450, 0, []
1630311099.9706, 105, 0, 4150.769, 4370.769, 4044.103, 4153.846, 4113.846, 450, 0, []
1630311099.9784, 106, 0, 4177.436, 4423.077, 4067.179, 4161.026, 4127.179, 450, 0, []
1630311099.9864, 107, 0, 4204.615, 4410.769, 4086.154, 4174.872, 4167.179, 16202, 0, []
1630311099.9942, 108, 0, 4221.538, 4334.872, 4080, 4172.821, 4190.256, 450, 0, []
1630311100.0022, 109, 0, 4250.256, 4301.026, 4101.538, 4174.872, 4208.718, 450, 0, []
1630311100.0101, 110, 0, 4300.513, 4355.385, 4093.333, 4185.641, 4254.359, 450, 0, []
1630311100.0181, 111, 0, 4343.59, 4405.128, 4097.949, 4180.513, 4290.769, 16202, 0, []
1630311100.026, 112, 0, 4367.179, 4413.333, 4074.359, 4166.154, 4296.41, 450, 0, []
1630311100.0339, 113, 0, 4390.256, 4413.333, 4062.051, 4166.154, 4309.744, 450, 0, []
1630311100.0418, 114, 0, 4402.564, 4399.487, 4096.41, 4173.846, 4331.795, 450, 0, []
1630311100.0498, 115, 0, 4392.821, 4378.462, 4068.718, 4164.615, 4329.744, 16202, 0, []
1630311100.0577, 116, 0, 4393.333, 4367.692, 4072.308, 4150.769, 4321.026, 450, 0, []
1630311100.0656, 117, 0, 4408.205, 4351.282, 4088.205, 4160.513, 4325.641, 450, 0, []
1630311100.0734, 118, 0, 4394.359, 4314.872, 4074.872, 4174.359, 4318.462, 450, 0, []
1630311100.0812, 119, 0, 4357.949, 4306.154, 4085.641, 4163.59, 4295.385, 16202, 0, []
1630311100.0891, 120, 0, 4343.59, 4366.667, 4070.256, 4166.154, 4285.128, 450, 0, []
1630311100.0969, 121, 0, 4336.41, 4422.051, 4088.205, 4189.231, 4275.897, 450, 0, []
1630311100.1048, 122, 0, 4314.359, 4414.872, 4094.359, 4174.359, 4241.538, 450, 0, []
1630311100.1125, 123, 0, 4292.308, 4388.718, 4057.949, 4149.744, 4204.615, 16202, 0, []
1630311100.1204, 124, 0, 4269.231, 4360, 4071.282, 4154.872, 4193.333, 450, 0, []
1630311100.1282, 125, 0, 4252.821, 4321.026, 4069.231, 4155.897, 4202.051, 450, 0, []
1630311100.1361, 126, 0, 4244.103, 4311.282, 4079.487, 4157.949, 4201.026, 450, 0, []
1630311100.1439, 127, 0, 4212.821, 4325.641, 4081.538, 4168.205, 4169.231, 16202, 0, []
1630311100.1518, 128, 0, 4181.538, 4355.897, 4057.949, 4160.513, 4135.897, 450, 0, []
1630311100.1597, 0, 0, 4195.385, 4429.231, 4094.359, 4158.462, 4144.103, 450, 0, []
1630311100.1677, 1, 0, 4200, 4472.821, 4083.077, 4166.667, 4163.59, 450, 0, []
1630311100.1756, 2, 0, 4170.256, 4469.744, 4061.538, 4164.615, 4147.692, 16187, 0, []
1630311100.1836, 3, 0, 4159.487, 4471.282, 4072.308, 4164.615, 4118.974, 450, 0, []
1630311100.1915, 4, 0, 4158.974, 4464.103, 4050.769, 4159.487, 4094.872, 16126, 0, []
1630311100.1994, 5, 0, 4138.974, 4472.308, 4075.897, 4144.615, 4077.436, 450, 0, []
1630311100.2073, 6, 0, 4124.615, 4507.179, 4078.974, 4146.667, 4081.538, 285, 0, []
1630311100.2152, 7, 0, 4131.795, 4513.846, 4065.128, 4155.897, 4078.974, 450, 0, []
1630311100.2231, 8, 0, 4138.462, 4510.769, 4081.026, 4152.308, 4056.923, 450, 0, []
1630311100.2309, 9, 0, 4126.154, 4517.949, 4068.205, 4146.154, 4052.821, 16144, 0, []
1630311100.2387, 10, 0, 4114.359, 4455.897, 4074.872, 4146.667, 4061.026, 450, 0, []
1630311100.2465, 11, 0, 4119.487, 4353.846, 4058.974, 4151.795, 4048.205, 16200, 0, []
1630311100.2544, 12, 0, 4117.949, 4331.282, 4054.359, 4154.872, 4034.872, 450, 0, []
1630311100.2622, 13, 0, 4102.051, 4348.718, 4078.974, 4148.205, 4041.026, 450, 0, []
1630311100.2701, 14, 0, 4104.615, 4326.154, 4059.487, 4147.692, 4049.744, 450, 0, []
1630311100.2778, 15, 0, 4132.308, 4304.615, 4087.692, 4168.205, 4051.282, 16200, 0, []
1630311100.2858, 16, 0, 4152.821, 4317.949, 4104.615, 4183.59, 4064.103, 0, 0, []
1630311100.2937, 17, 0, 4132.821, 4314.872, 4080.513, 4175.897, 4075.897, 0, 0, []
1630311100.3017, 18, 0, 4101.538, 4283.077, 4084.103, 4169.744, 4060.513, 0, 0, []
1630311100.3096, 19, 0, 4104.103, 4278.974, 4071.795, 4170.769, 4043.077, 0, 0, []
1630311100.3175, 20, 0, 4100, 4285.128, 4081.538, 4150.769, 4046.154, 0, 0, []
1630311100.3254, 21, 0, 4071.795, 4246.667, 4067.179, 4123.077, 4043.59, 0, 0, []
1630311100.3334, 22, 0, 4074.359, 4229.231, 4048.205, 4134.359, 4031.282, 0, 0, []
1630311100.3413, 23, 0, 4094.359, 4283.077, 4084.615, 4150.769, 4034.872, 0, 0, []
1630311100.3493, 24, 0, 4083.59, 4315.897, 4067.692, 4144.615, 4052.308, 0, 0, []
1630311100.3571, 25, 0, 4073.846, 4304.615, 4064.615, 4150.256, 4056.41, 0, 0, []
1630311100.3649, 26, 0, 4078.462, 4321.026, 4075.897, 4157.949, 4036.923, 0, 0, []
1630311100.3728, 27, 0, 4070.256, 4316.923, 4053.846, 4135.897, 4024.103, 0, 0, []
1630311100.3806, 28, 0, 4071.282, 4258.974, 4068.718, 4124.103, 4040, 0, 0, []
1630311100.3885, 29, 0, 4087.179, 4241.538, 4063.59, 4143.077, 4044.103, 0, 0, []
1630311100.3962, 30, 0, 4082.564, 4281.026, 4073.846, 4146.667, 4029.231, 0, 0, []
1630311100.4041, 31, 0, 4076.41, 4309.744, 4087.179, 4136.41, 4036.923, 0, 0, []
1630311100.4119, 32, 0, 4099.487, 4329.231, 4062.564, 4149.744, 4054.359, 0, 0, []
1630311100.4198, 33, 0, 4112.821, 4325.128, 4081.538, 4165.128, 4051.795, 0, 0, []
1630311100.4276, 34, 0, 4094.359, 4278.974, 4071.282, 4155.897, 4044.615, 0, 0, []
1630311100.4354, 35, 0, 4084.615, 4256.923, 4064.615, 4142.051, 4032.308, 0, 0, []
1630311100.4432, 36, 0, 4091.795, 4267.692, 4085.128, 4135.385, 4012.308, 0, 0, []
1630311100.4512, 37, 0, 4096.923, 4253.846, 4075.385, 4139.487, 4019.487, 0, 0, []
1630311100.4591, 38, 0, 4103.077, 4231.795, 4089.231, 4154.872, 4043.077, 0, 0, []
1630311100.4671, 39, 0, 4107.179, 4251.282, 4065.641, 4156.41, 4042.051, 0, 0, []
1630311100.4749, 40, 0, 4090.256, 4263.077, 4044.615, 4133.333, 4021.026, 0, 0, []
1630311100.4828, 41, 0, 4067.179, 4240, 4060, 4121.538, 4012.821, 0, 0, []
1630311100.4907, 42, 0, 4067.692, 4230.256, 4055.385, 4136.923, 4017.436, 0, 0, []
1630311100.4987, 43, 0, 4076.923, 4222.564, 4086.667, 4138.462, 4014.872, 0, 0, []
1630311100.5067, 44, 0, 4071.795, 4216.41, 4074.872, 4128.205, 4017.436, 0, 0, []
1630311100.5145, 45, 0, 4064.103, 4236.923, 4045.641, 4131.795, 4020.513, 0, 0, []
1630311100.5224, 46, 0, 4065.641, 4230.256, 4066.154, 4130.769, 4011.282, 0, 0, []
1630311100.5303, 47, 0, 4068.718, 4187.179, 4060.513, 4121.026, 4013.846, 0, 0, []
1630311100.5382, 48, 0, 4068.718, 4205.128, 4069.744, 4132.821, 4025.128, 0, 0, []
1630311100.546, 49, 0, 4077.436, 4271.282, 4058.974, 4147.179, 4028.718, 0, 0, []
1630311100.5539, 50, 0, 4088.718, 4263.59, 4060, 4143.59, 4033.333, 0, 0, []
1630311100.5616, 51, 0, 4096.41, 4239.487, 4097.949, 4150.769, 4040.513, 0, 0, []
1630311100.5695, 52, 0, 4103.59, 4273.846, 4072.308, 4152.821, 4029.231, 0, 0, []
1630311100.5773, 53, 0, 4098.974, 4272.308, 4073.333, 4128.205, 4007.692, 0, 0, []
1630311100.5852, 54, 0, 4086.154, 4215.385, 4088.205, 4120.513, 4003.59, 0, 0, []
1630311100.593, 55, 0, 4096.923, 4233.846, 4080, 4149.744, 4017.949, 0, 0, []
1630311100.6009, 56, 0, 4115.897, 4288.205, 4102.564, 4164.103, 4037.436, 0, 0, []
1630311100.6088, 57, 0, 4091.282, 4249.231, 4075.385, 4133.333, 4030.769, 0, 0, []
1630311100.6168, 58, 0, 4068.718, 4243.077, 4066.667, 4117.949, 4010.769, 0, 0, []
1630311100.6247, 59, 0, 4094.359, 4333.846, 4083.077, 4131.795, 4023.077, 0, 0, []
1630311100.6327, 60, 0, 4098.974, 4332.308, 4072.821, 4127.179, 4040.513, 0, 0, []
1630311100.6405, 61, 0, 4078.974, 4273.846, 4092.308, 4124.103, 4036.41, 0, 0, []
1630311100.6485, 62, 0, 4098.462, 4303.59, 4080, 4143.59, 4037.949, 0, 0, []
1630311100.6564, 63, 0, 4119.487, 4289.231, 4083.59, 4147.179, 4049.231, 0, 0, []
1630311100.6644, 64, 0, 4102.564, 4227.179, 4094.872, 4138.462, 4057.436, 450, 0, []
1630311100.6723, 65, 0, 4106.154, 4304.615, 4075.897, 4152.308, 4069.744, 450, 0, []
1630311100.68, 66, 0, 4130.769, 4409.231, 4090.769, 4165.641, 4064.103, 16189, 0, []
1630311100.6879, 67, 0, 4126.667, 4401.026, 4067.692, 4146.154, 4040, 450, 0, []
1630311100.6957, 68, 0, 4117.949, 4370.256, 4066.667, 4138.462, 4047.692, 16127, 0, []
1630311100.7036, 69, 0, 4120, 4326.154, 4088.205, 4146.154, 4057.436, 450, 0, []
1630311100.7114, 70, 0, 4121.026, 4264.615, 4074.359, 4142.564, 4038.974, 237, 0, []
1630311100.7192, 71, 0, 4125.128, 4271.795, 4106.154, 4142.564, 4042.051, 450, 0, []
1630311100.727, 72, 0, 4125.641, 4300.513, 4095.385, 4144.615, 4066.154, 450, 0, []
1630311100.7349, 73, 0, 4122.564, 4281.026, 4072.821, 4138.974, 4063.59, 16144, 0, []
1630311100.7427, 74, 0, 4138.974, 4303.59, 4101.026, 4147.179, 4060, 450, 0, []
1630311100.7507, 75, 0, 4164.103, 4348.718, 4093.846, 4164.103, 4084.615, 16200, 0, []
1630311100.7585, 76, 0, 4147.179, 4333.846, 4093.333, 4153.333, 4092.821, 450, 0, []
1630311100.7665, 77, 0, 4124.103, 4343.59, 4085.128, 4150.769, 4088.718, 450, 0, []
1630311100.7744, 78, 0, 4138.974, 4376.41, 4085.128, 4180, 4089.231, 450, 0, []
1630311100.7824, 79, 0, 4141.538, 4348.205, 4094.872, 4172.308, 4074.872, 16200, 0, []
1630311100.7903, 80, 0, 4124.615, 4331.795, 4070.256, 4148.205, 4070.256, 450, 0, []
1630311100.7982, 81, 0, 4143.59, 4362.564, 4101.538, 4179.487, 4090.769, 450, 0, []
1630311100.8061, 82, 0, 4161.026, 4351.282, 4103.59, 4202.051, 4087.179, 450, 0, []
1630311100.8141, 83, 0, 4121.026, 4324.103, 4057.436, 4146.667, 4052.308, 16200, 0, []
1630311100.822, 84, 0, 4114.359, 4338.974, 4076.41, 4122.564, 4065.128, 450, 0, []
1630311100.83, 85, 0, 4185.128, 4338.462, 4090.769, 4182.564, 4125.641, 450, 0, []
1630311100.8378, 86, 0, 4223.077, 4361.538, 4106.667, 4214.872, 4146.667, 450, 0, []
1630311100.8456, 87, 0, 4206.154, 4418.462, 4103.077, 4190.256, 4138.462, 16200, 0, []
1630311100.8535, 88, 0, 4193.846, 4411.282, 4083.077, 4181.538, 4146.154, 450, 0, []
1630311100.8613, 89, 0, 4188.205, 4363.077, 4096.41, 4182.564, 4137.436, 450, 0, []
1630311100.8692, 90, 0, 4186.667, 4361.026, 4077.949, 4171.795, 4114.359, 450, 0, []
1630311100.877, 91, 0, 4196.923, 4373.846, 4089.231, 4173.846, 4124.103, 16200, 0, []
1630311100.8848, 92, 0, 4198.462, 4333.333, 4092.821, 4163.077, 4137.436, 450, 0, []
1630311100.8926, 93, 0, 4202.564, 4312.308, 4073.333, 4148.205, 4142.564, 450, 0, []
1630311100.9005, 94, 0, 4231.795, 4353.333, 4108.718, 4171.282, 4165.641, 450, 0, []
1630311100.9083, 95, 0, 4277.949, 4365.128, 4088.205, 4187.692, 4191.795, 16200, 0, []
1630311100.9163, 96, 0, 4336.923, 4343.077, 4073.846, 4176.923, 4224.615, 450, 0, []
1630311100.9241, 97, 0, 4394.359, 4347.692, 4097.436, 4176.923, 4283.077, 450, 0, []
1630311100.9321, 98, 0, 4437.436, 4336.41, 4085.641, 4184.615, 4331.282, 450, 0, []
1630311100.94, 99, 0, 4456.41, 4313.846, 4093.846, 4173.846, 4334.359, 16200, 0, []
1630311100.948, 100, 0, 4444.103, 4382.564, 4074.872, 4154.359, 4317.436, 450, 0, []
1630311100.9559, 101, 0, 4437.949, 4450.769, 4078.462, 4154.359, 4321.538, 450, 0, []
1630311100.9638, 102, 0, 4448.205, 4381.026, 4103.077, 4171.282, 4332.308, 450, 0, []
1630311100.9717, 103, 0, 4432.821, 4311.282, 4078.974, 4178.462, 4315.897, 16200, 0, []
1630311100.9797, 104, 0, 4411.282, 4372.821, 4100, 4185.128, 4304.103, 450, 0, []
1630311100.9876, 105, 0, 4411.282, 4417.436, 4102.564, 4202.051, 4313.333, 450, 0, []
1630311100.9954, 106, 0, 4398.974, 4357.436, 4088.718, 4204.103, 4306.667, 450, 0, []
1630311101.0032, 107, 0, 4370.256, 4344.615, 4098.462, 4189.231, 4286.154, 16200, 0, []
1630311101.011, 108, 0, 4343.077, 4407.692, 4074.872, 4171.795, 4266.667, 450, 0, []
1630311101.0189, 109, 0, 4323.077, 4393.333, 4084.615, 4168.205, 4244.615, 450, 0, []
1630311101.0267, 110, 0, 4321.538, 4325.128, 4086.667, 4189.744, 4243.59, 450, 0, []
1630311101.0346, 111, 0, 4327.179, 4304.615, 4086.667, 4208.205, 4254.359, 16200, 0, []
1630311101.0423, 112, 0, 4320.513, 4313.846, 4096.41, 4196.41, 4236.41, 450, 0, []
1630311101.0502, 113, 0, 4320, 4329.231, 4071.795, 4188.205, 4220, 450, 0, []
1630311101.058, 114, 0, 4321.026, 4323.077, 4102.564, 4195.385, 4240, 450, 0, []
1630311101.0659, 115, 0, 4305.128, 4298.462, 4106.154, 4182.564, 4250.256, 16200, 0, []
1630311101.0737, 116, 0, 4275.385, 4314.872, 4072.308, 4166.154, 4214.872, 450, 0, []
1630311101.0816, 117, 0, 4260, 4341.538, 4095.385, 4177.436, 4191.282, 450, 0, []
1630311101.0895, 118, 0, 4282.051, 4316.41, 4100, 4198.462, 4216.923, 450, 0, []
1630311101.0975, 119, 0, 4302.564, 4298.974, 4118.462, 4208.718, 4221.026, 16200, 0, []
1630311101.1054, 120, 0, 4285.128, 4312.821, 4119.487, 4205.641, 4178.974, 450, 0, []
1630311101.1134, 121, 0, 4247.692, 4323.077, 4095.385, 4188.718, 4151.795, 450, 0, []
1630311101.1212, 122, 0, 4214.359, 4343.077, 4103.59, 4167.179, 4147.179, 450, 0, []
1630311101.1292, 123, 0, 4201.538, 4331.795, 4081.538, 4168.718, 4137.436, 16200, 0, []
1630311101.1371, 124, 0, 4209.744, 4282.564, 4090.256, 4180.513, 4123.077, 450, 0, []
1630311101.1451, 125, 0, 4214.359, 4267.692, 4102.051, 4170.256, 4118.462, 450, 0, []
1630311101.153, 126, 0, 4200.513, 4280.513, 4086.667, 4164.103, 4131.282, 450, 0, []
1630311101.1607, 127, 0, 4183.077, 4263.077, 4108.718, 4179.487, 4137.949, 16200, 0, []
1630311101.1686, 128, 0, 4168.205, 4241.538, 4080, 4176.923, 4115.385, 450, 0, []
1630311101.1764, 0, 0, 4162.564, 4251.795, 4068.718, 4162.051, 4094.359, 450, 0, []
1630311101.1843, 1, 0, 4174.359, 4254.872, 4097.949, 4168.205, 4106.667, 450, 0, []
1630311101.1921, 2, 0, 4177.949, 4254.872, 4088.718, 4180.513, 4118.974, 16194, 0, []
1630311101.1999, 3, 0, 4160.513, 4306.667, 4088.205, 4172.308, 4100, 450, 0, []
1630311101.2077, 4, 0, 4156.923, 4386.667, 4072.308, 4156.923, 4092.821, 16135, 0, []
1630311101.2157, 5, 0, 4175.385, 4395.897, 4092.821, 4156.923, 4116.923, 450, 0, []
1630311101.2236, 6, 0, 4173.846, 4328.205, 4111.795, 4152.821, 4117.949, 227, 0, []
1630311101.2316, 7, 0, 4163.077, 4274.359, 4068.718, 4151.795, 4088.205, 450, 0, []
1630311101.2395, 8, 0, 4178.462, 4302.051, 4084.103, 4174.872, 4079.487, 450, 0, []
1630311101.2474, 9, 0, 4180, 4354.872, 4089.744, 4167.692, 4089.231, 16147, 0, []
1630311101.2553, 10, 0, 4156.923, 4317.949, 4087.692, 4137.436, 4092.308, 450, 0, []
1630311101.2633, 11, 0, 4169.744, 4272.821, 4114.359, 4156.923, 4106.154, 16193, 0, []
1630311101.2712, 12, 0, 4197.436, 4325.641, 4092.308, 4187.179, 4120.513, 450, 0, []
1630311101.2792, 13, 0, 4175.385, 4358.974, 4087.692, 4160, 4107.179, 450, 0, []
1630311101.287, 14, 0, 4129.231, 4298.974, 4073.846, 4127.179, 4088.205, 450, 0, []
1630311101.295, 15, 0, 4114.359, 4239.487, 4065.128, 4134.872, 4077.949, 16193, 0, []
1630311101.3029, 16, 0, 4128.205, 4249.744, 4085.128, 4149.744, 4066.154, 0, 0, []
1630311101.3107, 17, 0, 4143.077, 4290.769, 4073.846, 4155.385, 4074.359, 0, 0, []
1630311101.3186, 18, 0, 4132.821, 4297.949, 4088.205, 4151.282, 4088.718, 0, 0, []
1630311101.3263, 19, 0, 4107.179, 4247.692, 4065.128, 4131.282, 4065.641, 0, 0, []
1630311101.3342, 20, 0, 4102.051, 4187.179, 4043.077, 4118.974, 4036.923, 0, 0, []
1630311101.342, 21, 0, 4109.231, 4199.487, 4081.538, 4122.564, 4050.256, 0, 0, []
1630311101.3499, 22, 0, 4113.846, 4253.846, 4067.179, 4135.385, 4074.359, 0, 0, []
1630311101.3577, 23, 0, 4131.795, 4262.051, 4072.308, 4148.205, 4080, 0, 0, []
1630311101.3655, 24, 0, 4155.385, 4232.308, 4089.231, 4152.308, 4095.385, 0, 0, []
1630311101.3733, 25, 0, 4160, 4210.256, 4082.564, 4156.41, 4116.923, 0, 0, []
1630311101.3813, 26, 0, 4151.795, 4186.667, 4091.282, 4155.385, 4107.692, 0, 0, []
1630311101.3892, 27, 0, 4143.59, 4165.128, 4062.051, 4128.718, 4072.821, 0, 0, []
1630311101.3972, 28, 0, 4133.333, 4181.538, 4070.769, 4106.154, 4063.59, 0, 0, []
1630311101.405, 29, 0, 4130.769, 4193.333, 4091.795, 4125.128, 4086.667, 0, 0, []
1630311101.413, 30, 0, 4141.026, 4184.615, 4074.359, 4144.615, 4085.128, 0, 0, []
1630311101.4209, 31, 0, 4151.795, 4187.692, 4090.256, 4131.282, 4066.667, 0, 0, []
1630311101.4289, 32, 0, 4149.744, 4171.795, 4078.974, 4122.564, 4076.923, 0, 0, []
1630311101.4368, 33, 0, 4149.231, 4126.154, 4077.436, 4134.872, 4095.897, 0, 0, []
1630311101.4447, 34, 0, 4182.051, 4117.436, 4090.256, 4143.59, 4118.462, 0, 0, []
1630311101.4526, 35, 0, 4242.051, 4161.538, 4089.231, 4153.846, 4166.667, 0, 0, []
1630311101.4604, 36, 0, 4282.051, 4176.923, 4117.436, 4170.769, 4220.513, 0, 0, []
1630311101.4683, 37, 0, 4307.692, 4158.974, 4089.231, 4170.256, 4263.077, 0, 0, []
1630311101.4762, 38, 0, 4350.256, 4187.179, 4075.385, 4162.564, 4304.103, 0, 0, []
1630311101.484, 39, 0, 4387.179, 4220.513, 4091.282, 4161.026, 4325.641, 0, 0, []
1630311101.4919, 40, 0, 4404.103, 4203.59, 4060, 4158.462, 4329.744, 0, 0, []
1630311101.4997, 41, 0, 4423.59, 4204.615, 4075.897, 4160.513, 4341.026, 0, 0, []
1630311101.5075, 42, 0, 4433.846, 4209.744, 4087.692, 4168.718, 4348.205, 0, 0, []
1630311101.5154, 43, 0, 4407.692, 4173.846, 4085.641, 4161.538, 4322.564, 0, 0, []
1630311101.5231, 44, 0, 4373.333, 4170.256, 4092.821, 4147.692, 4291.795, 0, 0, []
1630311101.5311, 45, 0, 4344.615, 4181.026, 4063.077, 4135.897, 4276.923, 0, 0, []
1630311101.539, 46, 0, 4318.462, 4157.949, 4077.436, 4121.538, 4270.769, 0, 0, []
1630311101.547, 47, 0, 4331.282, 4190.256, 4097.949, 4140.513, 4298.974, 0, 0, []
1630311101.5549, 48, 0, 4351.795, 4252.821, 4106.667, 4188.718, 4331.282, 0, 0, []
1630311101.5628, 49, 0, 4312.821, 4225.641, 4109.231, 4194.872, 4302.564, 0, 0, []
1630311101.5707, 50, 0, 4260, 4163.077, 4070.769, 4163.077, 4247.179, 0, 0, []
1630311101.5787, 51, 0, 4251.282, 4156.923, 4088.718, 4157.949, 4232.821, 0, 0, []
1630311101.5866, 52, 0, 4255.385, 4161.026, 4094.359, 4171.282, 4234.359, 0, 0, []
1630311101.5946, 53, 0, 4234.359, 4137.436, 4069.744, 4156.923, 4212.308, 0, 0, []
1630311101.6025, 54, 0, 4202.051, 4108.718, 4082.051, 4134.359, 4189.231, 0, 0, []
1630311101.6104, 55, 0, 4191.282, 4102.051, 4065.641, 4148.205, 4181.026, 0, 0, []
1630311101.6183, 56, 0, 4205.641, 4133.846, 4088.718, 4179.487, 4176.41, 0, 0, []
1630311101.6261, 57, 0, 4200, 4163.59, 4098.974, 4169.231, 4155.897, 0, 0, []
1630311101.634, 58, 0, 4169.744, 4150.256, 4072.308, 4137.436, 4135.385, 0, 0, []
1630311101.6418, 59, 0, 4161.026, 4148.205, 4093.846, 4147.692, 4131.282, 0, 0, []
1630311101.6496, 60, 0, 4174.359, 4188.718, 4086.154, 4171.282, 4129.231, 0, 0, []
1630311101.6574, 61, 0, 4172.821, 4181.538, 4086.667, 4158.462, 4125.128, 0, 0, []
1630311101.6653, 62, 0, 4149.744, 4132.308, 4086.154, 4140, 4126.154, 0, 0, []
1630311101.6731, 63, 0, 4142.051, 4140.513, 4077.436, 4151.795, 4125.641, 0, 0, []
1630311101.681, 64, 0, 4161.538, 4158.462, 4111.282, 4168.718, 4117.436, 450, 0, []
1630311101.6887, 65, 0, 4170.256, 4137.436, 4093.846, 4166.667, 4116.41, 450, 0, []
1630311101.6967, 66, 0, 4150.256, 4129.231, 4087.692, 4164.615, 4109.744, 16187, 0, []
1630311101.7046, 67, 0, 4134.872, 4132.308, 4085.641, 4157.949, 4088.718, 450, 0, []
1630311101.7126, 68, 0, 4142.564, 4140, 4052.308, 4144.615, 4085.641, 16132, 0, []
1630311101.7205, 69, 0, 4140.513, 4148.205, 4082.564, 4145.128, 4104.615, 450, 0, []
1630311101.7284, 70, 0, 4126.667, 4137.949, 4086.154, 4155.385, 4117.436, 233, 0, []
1630311101.7363, 71, 0, 4122.051, 4152.308, 4080.513, 4160.513, 4108.205, 450, 0, []
1630311101.7443, 72, 0, 4115.385, 4168.718, 4093.846, 4150.256, 4100, 450, 0, []
1630311101.7522, 73, 0, 4105.641, 4131.282, 4072.821, 4144.103, 4103.077, 16146, 0, []
1630311101.7602, 74, 0, 4105.128, 4129.231, 4070.769, 4144.615, 4088.718, 450, 0, []
1630311101.768, 75, 0, 4100, 4186.667, 4052.308, 4123.077, 4067.179, 16207, 0, []
1630311101.7758, 76, 0, 4092.308, 4204.103, 4064.103, 4122.051, 4069.744, 450, 0, []
1630311101.7837, 77, 0, 4115.385, 4207.692, 4105.128, 4171.795, 4088.718, 450, 0, []
1630311101.7915, 78, 0, 4143.077, 4227.692, 4081.026, 4189.744, 4098.974, 450, 0, []
1630311101.7994, 79, 0, 4118.974, 4171.795, 4069.744, 4144.103, 4083.59, 16207, 0, []
1630311101.8071, 80, 0, 4094.359, 4099.487, 4070.769, 4131.282, 4065.641, 450, 0, []
1630311101.815, 81, 0, 4116.923, 4118.974, 4092.821, 4158.974, 4075.385, 450, 0, []
1630311101.8228, 82, 0, 4124.103, 4140, 4112.308, 4156.923, 4094.359, 450, 0, []
1630311101.8307, 83, 0, 4109.231, 4100, 4068.718, 4147.692, 4092.308, 16207, 0, []
1630311101.8385, 84, 0, 4124.615, 4092.308, 4079.487, 4161.538, 4086.667, 450, 0, []
1630311101.8464, 85, 0, 4135.385, 4100.513, 4083.59, 4157.949, 4094.872, 450, 0, []
1630311101.8543, 86, 0, 4102.564, 4055.385, 4054.359, 4137.949, 4088.205, 450, 0, []
1630311101.8623, 87, 0, 4085.641, 4042.564, 4063.59, 4134.872, 4066.154, 16207, 0, []
1630311101.8702, 88, 0, 4094.872, 4083.59, 4052.821, 4133.846, 4063.59, 450, 0, []
1630311101.8782, 89, 0, 4082.051, 4092.308, 4076.923, 4128.718, 4074.872, 450, 0, []
1630311101.886, 90, 0, 4078.462, 4096.923, 4087.692, 4133.333, 4070.256, 450, 0, []
1630311101.894, 91, 0, 4100.513, 4126.154, 4071.795, 4136.41, 4063.59, 16207, 0, []
1630311101.9019, 92, 0, 4113.333, 4128.718, 4104.615, 4145.128, 4085.641, 450, 0, []
1630311101.9099, 93, 0, 4111.282, 4083.59, 4080.513, 4155.385, 4092.821, 450, 0, []
1630311101.9178, 94, 0, 4102.051, 4067.692, 4060.513, 4143.077, 4055.897, 450, 0, []
1630311101.9255, 95, 0, 4096.41, 4140.513, 4078.974, 4124.103, 4039.487, 16207, 0, []
1630311101.9334, 96, 0, 4113.333, 4187.179, 4081.026, 4133.846, 4058.462, 450, 0, []
1630311101.9412, 97, 0, 4144.103, 4130.769, 4090.769, 4153.333, 4059.487, 450, 0, []
1630311101.9491, 98, 0, 4145.128, 4090.256, 4064.615, 4151.282, 4054.872, 450, 0, []
1630311101.9569, 99, 0, 4125.128, 4105.128, 4071.282, 4140, 4069.231, 16207, 0, []
1630311101.9648, 100, 0, 4121.026, 4081.538, 4086.667, 4135.385, 4071.282, 450, 0, []
1630311101.9725, 101, 0, 4127.692, 4053.333, 4067.692, 4138.462, 4063.59, 450, 0, []
1630311101.9804, 102, 0, 4123.59, 4096.41, 4089.231, 4136.41, 4073.333, 450, 0, []
1630311101.9882, 103, 0, 4122.051, 4158.462, 4077.436, 4136.41, 4085.641, 16207, 0, []
1630311101.9962, 104, 0, 4125.128, 4200.513, 4077.436, 4143.59, 4072.308, 450, 0, []
1630311102.0041, 105, 0, 4120, 4237.949, 4102.051, 4138.462, 4056.41, 450, 0, []
1630311102.012, 106, 0, 4117.949, 4233.333, 4080, 4136.923, 4061.026, 450, 0, []
1630311102.0199, 107, 0, 4122.564, 4171.795, 4084.615, 4141.538, 4057.949, 16207, 0, []
1630311102.0279, 108, 0, 4131.795, 4131.795, 4082.051, 4140.513, 4056.41, 450, 0, []
1630311102.0358, 109, 0, 4131.282, 4130.256, 4085.128, 4147.692, 4072.308, 450, 0, []
1630311102.0438, 110, 0, 4123.59, 4102.564, 4097.436, 4158.462, 4074.872, 450, 0, []
1630311102.0516, 111, 0, 4136.923, 4114.359, 4074.872, 4156.923, 4057.436, 16207, 0, []
1630311102.0596, 112, 0, 4157.949, 4207.179, 4097.949, 4152.821, 4063.077, 450, 0, []
1630311102.0675, 113, 0, 4147.692, 4238.974, 4085.641, 4157.949, 4081.026, 450, 0, []
1630311102.0753, 114, 0, 4132.821, 4203.077, 4057.436, 4154.872, 4066.667, 450, 0, []
1630311102.0832, 115, 0, 4137.949, 4206.667, 4084.615, 4141.538, 4041.026, 16207, 0, []
1630311102.0909, 116, 0, 4127.692, 4197.949, 4071.795, 4127.692, 4044.103, 450, 0, []
1630311102.0988, 117, 0, 4124.103, 4142.564, 4085.128, 4142.051, 4072.821, 450, 0, []
1630311102.1066, 118, 0, 4152.308, 4123.077, 4098.974, 4174.872, 4087.179, 450, 0, []
1630311102.1145, 119, 0, 4151.282, 4141.026, 4082.051, 4165.641, 4069.744, 16207, 0, []
1630311102.1223, 120, 0, 4121.538, 4163.59, 4085.128, 4142.051, 4053.333, 450, 0, []
1630311102.1301, 121, 0, 4123.59, 4206.154, 4066.154, 4150.256, 4059.487, 450, 0, []
1630311102.1379, 122, 0, 4133.846, 4232.821, 4079.487, 4155.385, 4057.436, 450, 0, []
1630311102.1458, 123, 0, 4110.256, 4212.821, 4078.462, 4134.359, 4042.564, 16207, 0, []
1630311102.1536, 124, 0, 4110.769, 4204.615, 4070.769, 4136.41, 4052.821, 450, 0, []
1630311102.1615, 125, 0, 4137.436, 4217.436, 4094.872, 4157.436, 4059.487, 450, 0, []
1630311102.1692, 126, 0, 4133.333, 4202.564, 4063.59, 4148.205, 4044.103, 450, 0, []
1630311102.1772, 127, 0, 4124.615, 4202.564, 4078.462, 4147.692, 4057.436, 16207, 0, []
1630311102.1851, 128, 0, 4145.641, 4251.282, 4105.128, 4170.769, 4082.564, 450, 0, []
1630311102.1931, 0, 0, 4143.077, 4237.436, 4067.692, 4162.051, 4056.41, 450, 0, []
1630311102.201, 1, 0, 4115.897, 4146.667, 4072.821, 4133.846, 4037.949, 450, 0, []
1630311102.2089, 2, 0, 4129.744, 4117.436, 4082.564, 4154.872, 4082.051, 16192, 0, []
1630311102.2168, 3, 0, 4156.923, 4149.744, 4088.718, 4189.231, 4101.538, 450, 0, []
1630311102.2248, 4, 0, 4157.436, 4137.949, 4082.564, 4164.103, 4072.308, 16133, 0, []
1630311102.2327, 5, 0, 4147.179, 4110.256, 4062.564, 4130.256, 4069.744, 450, 0, []
1630311102.2406, 6, 0, 4145.128, 4111.282, 4090.256, 4143.077, 4092.308, 230, 0, []
1630311102.2484, 7, 0, 4151.282, 4106.154, 4076.41, 4159.487, 4090.256, 450, 0, []
1630311102.2562, 8, 0, 4156.923, 4110.769, 4075.897, 4151.282, 4081.538, 450, 0, []
1630311102.2641, 9, 0, 4154.359, 4133.333, 4102.051, 4155.385, 4094.359, 16141, 0, []
1630311102.2719, 10, 0, 4153.333, 4123.077, 4075.897, 4169.231, 4097.436, 450, 0, []
1630311102.2798, 11, 0, 4166.667, 4083.59, 4088.205, 4163.077, 4087.179, 16138, 0, []
1630311102.2876, 12, 0, 4167.692, 4111.282, 4086.154, 4153.846, 4093.333, 450, 0, []
1630311102.2954, 13, 0, 4160, 4190.256, 4076.41, 4161.026, 4102.564, 450, 0, []
1630311102.3032, 14, 0, 4163.59, 4184.615, 4086.154, 4158.974, 4087.179, 450, 0, []
1630311102.3112, 15, 0, 4167.179, 4128.718, 4069.744, 4141.026, 4075.385, 16138, 0, []
1630311102.3191, 16, 0, 4166.667, 4125.641, 4094.872, 4150.256, 4094.872, 0, 0, []
1630311102.3271, 17, 0, 4176.923, 4143.077, 4091.795, 4180.513, 4114.359, 0, 0, []
1630311102.3349, 18, 0, 4193.333, 4151.282, 4083.077, 4189.744, 4112.821, 0, 0, []
1630311102.3429, 19, 0, 4184.103, 4150.769, 4107.179, 4173.333, 4104.103, 0, 0, []
1630311102.3508, 20, 0, 4153.333, 4111.282, 4082.051, 4155.385, 4096.923, 0, 0, []
1630311102.3588, 21, 0, 4146.154, 4083.077, 4085.128, 4152.821, 4096.41, 0, 0, []
1630311102.3667, 22, 0, 4169.744, 4117.949, 4086.154, 4155.897, 4102.051, 0, 0, []
1630311102.3746, 23, 0, 4165.128, 4115.897, 4071.282, 4151.282, 4101.538, 0, 0, []
