Timestamp, COUNTER, INTERPOLATED, AF3, T7, Pz, T8, AF4, RAW_CQ, MARKER_HARDWARE, MARKERS
1629739386.4903, 40, 0, 4205.641, 4226.667, 4111.795, 4168.205, 4167.179, 0, 0, []
1629739386.4982, 41, 0, 4198.974, 4223.077, 4121.538, 4154.359, 4162.051, 0, 0, []
1629739386.506, 42, 0, 4214.359, 4224.615, 4106.154, 4148.718, 4168.205, 0, 0, []
1629739386.5139, 43, 0, 4218.974, 4228.718, 4122.564, 4156.923, 4170.769, 0, 0, []
1629739386.5219, 44, 0, 4209.231, 4230.256, 4140, 4165.128, 4169.231, 0, 0, []
1629739386.5298, 45, 0, 4206.667, 4226.667, 4131.795, 4173.846, 4172.821, 0, 0, []
1629739386.5378, 46, 0, 4201.026, 4228.718, 4149.231, 4175.897, 4168.205, 0, 0, []
1629739386.5456, 47, 0, 4193.333, 4216.41, 4123.077, 4162.051, 4154.359, 0, 0, []
1629739386.5536, 48, 0, 4199.487, 4194.359, 4127.692, 4154.359, 4156.41, 0, 0, []
1629739386.5615, 49, 0, 4204.103, 4215.897, 4136.923, 4157.949, 4163.077, 0, 0, []
1629739386.5693, 50, 0, 4187.692, 4241.538, 4104.103, 4146.154, 4152.821, 0, 0, []
1629739386.5772, 51, 0, 4181.538, 4216.923, 4128.205, 4142.051, 4145.641, 0, 0, []
1629739386.5849, 52, 0, 4208.718, 4204.103, 4134.359, 4162.564, 4161.538, 0, 0, []
1629739386.5928, 53, 0, 4226.667, 4230.769, 4132.821, 4169.744, 4176.923, 0, 0, []
1629739386.6006, 54, 0, 4214.359, 4229.231, 4133.846, 4156.923, 4169.744, 0, 0, []
1629739386.6085, 55, 0, 4202.051, 4221.026, 4115.897, 4153.333, 4154.872, 0, 0, []
1629739386.6163, 56, 0, 4200.513, 4241.026, 4142.051, 4156.923, 4149.231, 0, 0, []
1629739386.6242, 57, 0, 4201.538, 4237.949, 4134.872, 4155.897, 4156.41, 0, 0, []
1629739386.6321, 58, 0, 4202.564, 4232.821, 4125.641, 4152.821, 4162.564, 0, 0, []
1629739386.6401, 59, 0, 4201.538, 4285.128, 4126.154, 4148.718, 4160, 0, 0, []
1629739386.648, 60, 0, 4205.128, 4358.974, 4105.641, 4151.795, 4164.615, 0, 0, []
1629739386.656, 61, 0, 4201.538, 4381.538, 4137.436, 4162.051, 4169.231, 0, 0, []
1629739386.6638, 62, 0, 4181.026, 4363.59, 4121.026, 4154.359, 4156.41, 0, 0, []
1629739386.6718, 63, 0, 4172.308, 4361.026, 4096.41, 4138.462, 4150.769, 0, 0, []
1629739386.6797, 64, 0, 4192.308, 4384.103, 4126.154, 4146.154, 4172.308, 450, 0, []
1629739386.6877, 65, 0, 4199.487, 4392.821, 4111.795, 4155.385, 4183.59, 450, 0, []
1629739386.6956, 66, 0, 4182.564, 4360, 4113.846, 4147.179, 4166.667, 16201, 0, []
1629739386.7034, 67, 0, 4182.564, 4347.179, 4111.282, 4144.615, 4163.077, 450, 0, []
1629739386.7112, 68, 0, 4191.282, 4362.564, 4103.077, 4152.821, 4170.769, 16135, 0, []
1629739386.719, 69, 0, 4187.692, 4369.744, 4119.487, 4151.282, 4169.231, 450, 0, []
1629739386.7269, 70, 0, 4186.154, 4389.744, 4107.692, 4148.205, 4175.385, 16063, 0, []
1629739386.7347, 71, 0, 4191.795, 4394.359, 4136.923, 4155.897, 4185.128, 450, 0, []
1629739386.7426, 72, 0, 4191.795, 4372.308, 4136.923, 4155.897, 4183.077, 450, 0, []
1629739386.7503, 73, 0, 4186.667, 4389.744, 4114.359, 4152.308, 4176.923, 16158, 0, []
1629739386.7582, 74, 0, 4181.026, 4418.462, 4143.077, 4156.41, 4172.308, 450, 0, []
1629739386.766, 75, 0, 4171.282, 4392.308, 4121.538, 4149.231, 4155.385, 16202, 0, []
1629739386.7739, 76, 0, 4163.077, 4373.846, 4120, 4140, 4143.077, 450, 0, []
1629739386.7817, 77, 0, 4166.667, 4390.256, 4129.231, 4146.667, 4156.923, 450, 0, []
1629739386.7896, 78, 0, 4176.923, 4379.487, 4109.744, 4152.308, 4171.795, 450, 0, []
1629739386.7975, 79, 0, 4177.949, 4371.282, 4129.744, 4144.615, 4168.718, 16202, 0, []
1629739386.8055, 80, 0, 4177.949, 4398.974, 4122.564, 4140, 4163.077, 450, 0, []
1629739386.8134, 81, 0, 4186.667, 4402.564, 4123.077, 4143.59, 4171.795, 450, 0, []
1629739386.8214, 82, 0, 4193.846, 4374.359, 4116.923, 4147.179, 4188.205, 450, 0, []
1629739386.8292, 83, 0, 4201.538, 4366.154, 4089.744, 4147.179, 4194.872, 16202, 0, []
1629739386.8372, 84, 0, 4232.308, 4375.385, 4127.692, 4146.667, 4214.872, 450, 0, []
1629739386.8451, 85, 0, 4282.564, 4371.795, 4130.769, 4151.795, 4260.513, 450, 0, []
1629739386.8531, 86, 0, 4316.41, 4353.333, 4119.487, 4155.897, 4293.333, 450, 0, []
1629739386.861, 87, 0, 4326.154, 4363.077, 4108.205, 4142.564, 4298.462, 16202, 0, []
1629739386.8687, 88, 0, 4332.308, 4391.282, 4075.897, 4135.385, 4305.128, 450, 0, []
1629739386.8766, 89, 0, 4348.205, 4388.718, 4104.103, 4156.923, 4316.923, 450, 0, []
1629739386.8844, 90, 0, 4364.103, 4383.077, 4107.692, 4172.308, 4324.615, 450, 0, []
1629739386.8923, 91, 0, 4349.231, 4394.872, 4107.692, 4165.128, 4328.718, 16202, 0, []
1629739386.9001, 92, 0, 4317.436, 4393.333, 4127.179, 4161.538, 4315.385, 450, 0, []
1629739386.9079, 93, 0, 4312.821, 4386.154, 4121.026, 4170.256, 4295.897, 450, 0, []
1629739386.9157, 94, 0, 4315.897, 4385.128, 4149.231, 4174.872, 4292.308, 450, 0, []
1629739386.9236, 95, 0, 4295.897, 4374.359, 4133.846, 4165.128, 4284.103, 16202, 0, []
1629739386.9314, 96, 0, 4277.436, 4362.564, 4113.846, 4156.923, 4261.026, 450, 0, []
1629739386.9393, 97, 0, 4264.615, 4360.513, 4131.795, 4161.026, 4241.538, 450, 0, []
1629739386.947, 98, 0, 4249.231, 4348.718, 4110.769, 4162.051, 4235.385, 450, 0, []
1629739386.955, 99, 0, 4248.718, 4341.538, 4127.692, 4159.487, 4237.436, 16202, 0, []
1629739386.9629, 100, 0, 4247.179, 4345.128, 4130.256, 4158.974, 4237.949, 450, 0, []
1629739386.9709, 101, 0, 4226.154, 4346.154, 4116.41, 4157.436, 4223.077, 450, 0, []
1629739386.9788, 102, 0, 4218.462, 4367.179, 4137.949, 4169.231, 4210.256, 450, 0, []
1629739386.9867, 103, 0, 4233.333, 4390.769, 4126.667, 4185.641, 4219.487, 16202, 0, []
1629739386.9946, 104, 0, 4238.462, 4378.974, 4146.154, 4180.513, 4229.744, 450, 0, []
1629739387.0026, 105, 0, 4234.872, 4366.154, 4149.231, 4173.333, 4224.103, 450, 0, []
1629739387.0105, 106, 0, 4227.692, 4377.949, 4121.538, 4176.923, 4209.744, 450, 0, []
1629739387.0185, 107, 0, 4225.128, 4385.641, 4142.051, 4177.949, 4206.667, 16202, 0, []
1629739387.0264, 108, 0, 4241.538, 4375.897, 4144.615, 4182.564, 4218.974, 450, 0, []
1629739387.0341, 109, 0, 4247.692, 4363.077, 4155.385, 4187.179, 4224.615, 450, 0, []
1629739387.042, 110, 0, 4229.231, 4379.487, 4136.923, 4173.333, 4213.333, 450, 0, []
1629739387.0498, 111, 0, 4218.462, 4400.513, 4110.769, 4160, 4202.564, 16202, 0, []
1629739387.0577, 112, 0, 4218.462, 4365.128, 4139.487, 4160, 4200.513, 450, 0, []
1629739387.0655, 113, 0, 4220, 4342.051, 4116.41, 4161.538, 4198.462, 450, 0, []
1629739387.0733, 114, 0, 4223.077, 4372.308, 4123.077, 4169.231, 4200, 450, 0, []
1629739387.0811, 115, 0, 4210.256, 4371.282, 4145.641, 4179.487, 4196.923, 16202, 0, []
1629739387.0891, 116, 0, 4190.769, 4348.205, 4117.436, 4184.103, 4183.077, 450, 0, []
1629739387.097, 117, 0, 4193.333, 4343.59, 4122.564, 4188.718, 4177.436, 450, 0, []
1629739387.1049, 118, 0, 4207.179, 4346.154, 4114.359, 4187.692, 4184.615, 450, 0, []
1629739387.1126, 119, 0, 4210.256, 4352.308, 4125.128, 4187.692, 4187.179, 16202, 0, []
1629739387.1206, 120, 0, 4209.744, 4354.872, 4136.923, 4197.949, 4183.077, 450, 0, []
1629739387.1285, 121, 0, 4213.333, 4358.974, 4115.897, 4203.077, 4188.205, 450, 0, []
1629739387.1365, 122, 0, 4213.333, 4364.103, 4137.436, 4190.769, 4189.231, 450, 0, []
1629739387.1444, 123, 0, 4209.231, 4351.795, 4122.564, 4170.256, 4173.846, 16202, 0, []
1629739387.1523, 124, 0, 4195.897, 4338.974, 4117.949, 4161.538, 4164.615, 450, 0, []
1629739387.1602, 125, 0, 4185.128, 4345.128, 4134.872, 4164.103, 4162.051, 450, 0, []
1629739387.1682, 126, 0, 4191.282, 4336.41, 4107.692, 4165.641, 4158.462, 450, 0, []
1629739387.1761, 127, 0, 4196.923, 4321.026, 4129.231, 4166.667, 4155.385, 16202, 0, []
1629739387.1839, 128, 0, 4192.308, 4338.462, 4130.769, 4173.846, 4156.41, 450, 0, []
1629739387.1917, 0, 0, 4185.128, 4347.179, 4112.308, 4187.692, 4161.026, 450, 0, []
1629739387.1995, 1, 0, 4183.59, 4328.718, 4111.282, 4187.179, 4158.462, 450, 0, []
1629739387.2074, 2, 0, 4190.256, 4321.026, 4090.769, 4181.538, 4163.59, 16196, 0, []
1629739387.2152, 3, 0, 4202.051, 4348.205, 4131.282, 4200, 4178.974, 450, 0, []
1629739387.2231, 4, 0, 4208.718, 4367.692, 4144.615, 4218.974, 4184.103, 16133, 0, []
1629739387.2308, 5, 0, 4201.026, 4330.769, 4115.897, 4212.821, 4170.256, 450, 0, []
1629739387.2387, 6, 0, 4182.564, 4306.667, 4114.359, 4194.359, 4155.385, 16080, 0, []
1629739387.2465, 7, 0, 4169.744, 4327.692, 4088.718, 4178.974, 4150.769, 450, 0, []
1629739387.2544, 8, 0, 4173.333, 4331.795, 4108.718, 4181.538, 4150.256, 450, 0, []
1629739387.2622, 9, 0, 4181.538, 4323.077, 4124.615, 4198.974, 4154.359, 16170, 0, []
1629739387.2701, 10, 0, 4184.103, 4324.615, 4118.974, 4202.051, 4151.795, 450, 0, []
1629739387.278, 11, 0, 4177.436, 4312.821, 4137.436, 4181.538, 4139.487, 16202, 0, []
1629739387.286, 12, 0, 4170.256, 4306.154, 4108.205, 4156.923, 4132.821, 450, 0, []
1629739387.2939, 13, 0, 4180.513, 4317.436, 4123.59, 4158.974, 4141.026, 450, 0, []
1629739387.3019, 14, 0, 4202.051, 4308.718, 4149.231, 4186.667, 4163.59, 450, 0, []
1629739387.3097, 15, 0, 4208.205, 4299.487, 4129.744, 4203.077, 4174.359, 16202, 0, []
1629739387.3177, 16, 0, 4197.949, 4317.949, 4134.872, 4193.333, 4162.051, 0, 0, []
1629739387.3256, 17, 0, 4189.231, 4325.641, 4107.179, 4173.846, 4147.179, 0, 0, []
1629739387.3334, 18, 0, 4186.154, 4297.949, 4106.154, 4166.154, 4149.231, 0, 0, []
1629739387.3413, 19, 0, 4195.385, 4297.949, 4129.744, 4178.974, 4164.103, 0, 0, []
1629739387.349, 20, 0, 4207.692, 4327.692, 4133.333, 4188.205, 4175.897, 0, 0, []
1629739387.3569, 21, 0, 4200, 4319.487, 4150.256, 4168.718, 4165.641, 0, 0, []
1629739387.3647, 22, 0, 4184.615, 4298.462, 4111.795, 4146.154, 4144.103, 0, 0, []
1629739387.3726, 23, 0, 4181.026, 4288.718, 4099.487, 4151.282, 4140.513, 0, 0, []
1629739387.3804, 24, 0, 4184.615, 4278.974, 4114.359, 4164.103, 4148.205, 0, 0, []
1629739387.3883, 25, 0, 4185.641, 4277.436, 4103.59, 4167.692, 4150.256, 0, 0, []
1629739387.396, 26, 0, 4192.308, 4288.718, 4144.615, 4177.436, 4150.256, 0, 0, []
1629739387.4039, 27, 0, 4204.615, 4302.051, 4146.154, 4184.615, 4156.41, 0, 0, []
1629739387.4117, 28, 0, 4201.026, 4314.872, 4130.256, 4178.974, 4162.051, 0, 0, []
1629739387.4197, 29, 0, 4193.333, 4311.282, 4130.769, 4172.308, 4159.487, 0, 0, []
1629739387.4276, 30, 0, 4185.128, 4281.538, 4096.923, 4154.872, 4146.667, 0, 0, []
1629739387.4355, 31, 0, 4165.641, 4273.846, 4104.615, 4130.769, 4124.103, 0, 0, []
1629739387.4434, 32, 0, 4163.59, 4283.077, 4103.59, 4133.846, 4125.641, 0, 0, []
1629739387.4514, 33, 0, 4184.615, 4268.205, 4108.718, 4157.436, 4146.667, 0, 0, []
1629739387.4593, 34, 0, 4185.128, 4251.282, 4136.41, 4167.692, 4148.205, 0, 0, []
1629739387.4673, 35, 0, 4174.359, 4267.692, 4118.462, 4164.103, 4142.051, 0, 0, []
1629739387.4751, 36, 0, 4180.513, 4286.154, 4130.769, 4158.974, 4153.846, 0, 0, []
1629739387.4831, 37, 0, 4191.795, 4276.41, 4122.051, 4155.897, 4170.769, 0, 0, []
1629739387.491, 38, 0, 4195.385, 4267.692, 4107.692, 4160, 4172.821, 0, 0, []
1629739387.4989, 39, 0, 4188.205, 4270.256, 4128.718, 4161.026, 4166.154, 0, 0, []
1629739387.5068, 40, 0, 4173.333, 4257.436, 4105.128, 4145.128, 4152.821, 0, 0, []
1629739387.5146, 41, 0, 4170.256, 4225.641, 4111.282, 4133.846, 4151.282, 0, 0, []
1629739387.5224, 42, 0, 4188.205, 4209.744, 4120, 4148.205, 4169.744, 0, 0, []
1629739387.5302, 43, 0, 4200.513, 4226.154, 4129.744, 4167.692, 4176.923, 0, 0, []
1629739387.5381, 44, 0, 4186.667, 4243.077, 4165.641, 4167.692, 4163.077, 0, 0, []
1629739387.5459, 45, 0, 4170.769, 4217.949, 4124.103, 4150.769, 4149.231, 0, 0, []
1629739387.5538, 46, 0, 4172.821, 4156.41, 4104.103, 4141.538, 4147.179, 0, 0, []
1629739387.5617, 47, 0, 4184.103, 4132.821, 4109.231, 4145.641, 4153.333, 0, 0, []
1629739387.5696, 48, 0, 4184.615, 4128.205, 4095.897, 4146.154, 4155.897, 0, 0, []
1629739387.5774, 49, 0, 4178.974, 4088.718, 4112.308, 4134.872, 4150.256, 0, 0, []
1629739387.5854, 50, 0, 4185.641, 4069.744, 4101.538, 4130.769, 4155.897, 0, 0, []
1629739387.5932, 51, 0, 4194.359, 4077.436, 4120.513, 4147.692, 4168.718, 0, 0, []
1629739387.6012, 52, 0, 4192.821, 4078.462, 4133.333, 4157.949, 4172.308, 0, 0, []
1629739387.6091, 53, 0, 4191.795, 4085.641, 4108.205, 4154.359, 4174.872, 0, 0, []
1629739387.6171, 54, 0, 4201.026, 4074.872, 4131.282, 4157.436, 4184.615, 0, 0, []
1629739387.625, 55, 0, 4205.128, 4061.538, 4116.41, 4153.333, 4186.154, 0, 0, []
1629739387.6329, 56, 0, 4198.462, 4086.154, 4105.128, 4144.103, 4175.385, 0, 0, []
1629739387.6408, 57, 0, 4188.205, 4101.538, 4115.385, 4136.41, 4167.692, 0, 0, []
1629739387.6486, 58, 0, 4187.692, 4082.051, 4104.103, 4126.667, 4163.59, 0, 0, []
1629739387.6565, 59, 0, 4204.103, 4084.103, 4140.513, 4130.769, 4168.205, 0, 0, []
1629739387.6643, 60, 0, 4220, 4112.308, 4145.128, 4150.256, 4183.59, 0, 0, []
1629739387.6721, 61, 0, 4219.487, 4111.282, 4135.897, 4156.41, 4195.897, 0, 0, []
1629739387.6799, 62, 0, 4214.872, 4091.795, 4135.385, 4151.795, 4197.436, 0, 0, []
1629739387.6878, 63, 0, 4215.385, 4091.795, 4104.103, 4145.641, 4195.385, 0, 0, []
1629739387.6956, 64, 0, 4210.769, 4098.974, 4126.154, 4129.744, 4189.231, 450, 0, []
1629739387.7035, 65, 0, 4199.487, 4101.026, 4126.667, 4114.872, 4176.923, 450, 0, []
1629739387.7112, 66, 0, 4187.692, 4108.718, 4125.128, 4116.923, 4166.667, 16196, 0, []
1629739387.7192, 67, 0, 4182.564, 4121.026, 4147.179, 4129.231, 4161.538, 450, 0, []
1629739387.7271, 68, 0, 4187.692, 4095.385, 4122.051, 4142.051, 4163.077, 16134, 0, []
1629739387.7351, 69, 0, 4192.821, 4069.744, 4136.923, 4151.795, 4165.641, 450, 0, []
1629739387.743, 70, 0, 4198.974, 4107.179, 4144.103, 4151.795, 4172.308, 16082, 0, []
1629739387.751, 71, 0, 4209.744, 4140.513, 4137.436, 4152.821, 4184.615, 450, 0, []
1629739387.7588, 72, 0, 4212.308, 4103.59, 4147.692, 4141.538, 4184.615, 450, 0, []
1629739387.7668, 73, 0, 4205.128, 4077.436, 4118.462, 4114.359, 4177.436, 16171, 0, []
1629739387.7747, 74, 0, 4203.077, 4113.846, 4135.897, 4102.564, 4178.462, 450, 0, []
1629739387.7827, 75, 0, 4203.59, 4121.026, 4138.462, 4110.769, 4180, 16202, 0, []
1629739387.7906, 76, 0, 4205.128, 4105.641, 4122.564, 4136.41, 4182.051, 450, 0, []
1629739387.7985, 77, 0, 4197.436, 4112.821, 4145.128, 4158.974, 4181.538, 450, 0, []
1629739387.8064, 78, 0, 4179.487, 4089.231, 4115.897, 4154.872, 4169.231, 450, 0, []
1629739387.8142, 79, 0, 4173.333, 4061.026, 4113.333, 4141.538, 4157.949, 16202, 0, []
1629739387.8221, 80, 0, 4186.154, 4080, 4129.231, 4147.179, 4165.641, 450, 0, []
1629739387.8299, 81, 0, 4189.744, 4106.154, 4121.026, 4154.359, 4170.769, 450, 0, []
1629739387.8377, 82, 0, 4178.974, 4118.462, 4130.769, 4142.564, 4163.077, 450, 0, []
1629739387.8455, 83, 0, 4180.513, 4120, 4104.615, 4132.308, 4162.564, 16202, 0, []
1629739387.8534, 84, 0, 4187.179, 4103.59, 4115.897, 4137.949, 4168.205, 450, 0, []
1629739387.8612, 85, 0, 4188.718, 4116.41, 4126.667, 4142.564, 4171.795, 450, 0, []
1629739387.8692, 86, 0, 4186.667, 4135.385, 4091.795, 4134.872, 4169.231, 450, 0, []
1629739387.877, 87, 0, 4175.897, 4096.41, 4111.282, 4128.205, 4165.128, 16202, 0, []
1629739387.885, 88, 0, 4169.744, 4086.154, 4115.385, 4126.667, 4166.667, 450, 0, []
1629739387.8929, 89, 0, 4174.872, 4130.769, 4115.385, 4127.179, 4168.718, 450, 0, []
1629739387.9009, 90, 0, 4176.41, 4134.872, 4111.282, 4125.128, 4160.513, 450, 0, []
1629739387.9088, 91, 0, 4171.282, 4111.795, 4090.769, 4120, 4158.462, 16202, 0, []
1629739387.9167, 92, 0, 4177.949, 4118.974, 4128.205, 4133.846, 4176.41, 450, 0, []
1629739387.9246, 93, 0, 4189.231, 4140.513, 4125.128, 4151.282, 4190.256, 450, 0, []
1629739387.9326, 94, 0, 4186.667, 4129.744, 4117.436, 4146.154, 4186.667, 450, 0, []
1629739387.9405, 95, 0, 4178.974, 4110.769, 4137.949, 4135.385, 4181.538, 16202, 0, []
1629739387.9485, 96, 0, 4175.897, 4127.179, 4122.051, 4134.872, 4181.026, 450, 0, []
1629739387.9563, 97, 0, 4183.59, 4147.179, 4141.026, 4140.513, 4187.179, 450, 0, []
1629739387.9641, 98, 0, 4200.513, 4138.974, 4141.026, 4149.231, 4201.026, 450, 0, []
1629739387.972, 99, 0, 4203.59, 4127.692, 4131.282, 4154.359, 4200.513, 16202, 0, []
1629739387.9798, 100, 0, 4197.436, 4129.231, 4142.051, 4155.385, 4194.872, 450, 0, []
1629739387.9877, 101, 0, 4201.026, 4107.692, 4124.103, 4165.641, 4209.231, 450, 0, []
1629739387.9954, 102, 0, 4205.641, 4105.128, 4149.231, 4176.41, 4222.564, 450, 0, []
1629739388.0033, 103, 0, 4205.128, 4133.846, 4152.308, 4174.872, 4215.897, 16202, 0, []
1629739388.0111, 104, 0, 4203.077, 4124.103, 4135.897, 4172.821, 4204.615, 450, 0, []
1629739388.019, 105, 0, 4196.41, 4117.436, 4143.59, 4169.744, 4196.41, 450, 0, []
1629739388.0268, 106, 0, 4196.41, 4143.59, 4118.462, 4162.564, 4198.462, 450, 0, []
1629739388.0347, 107, 0, 4205.128, 4140, 4140, 4160.513, 4204.615, 16202, 0, []
1629739388.0426, 108, 0, 4206.154, 4130.256, 4148.205, 4153.846, 4197.436, 450, 0, []
1629739388.0506, 109, 0, 4198.974, 4140.513, 4122.564, 4138.462, 4187.692, 450, 0, []
1629739388.0585, 110, 0, 4197.436, 4129.231, 4139.487, 4141.026, 4193.846, 450, 0, []
1629739388.0665, 111, 0, 4205.641, 4120, 4127.179, 4153.846, 4203.59, 16202, 0, []
1629739388.0743, 112, 0, 4210.256, 4138.974, 4137.949, 4151.282, 4197.436, 450, 0, []
1629739388.0823, 113, 0, 4204.103, 4136.923, 4135.897, 4139.487, 4187.692, 450, 0, []
1629739388.0902, 114, 0, 4196.41, 4128.205, 4108.718, 4138.462, 4188.718, 450, 0, []
1629739388.0982, 115, 0, 4196.923, 4148.718, 4133.333, 4146.667, 4197.436, 16202, 0, []
1629739388.1061, 116, 0, 4207.179, 4156.41, 4127.692, 4153.333, 4210.769, 450, 0, []
1629739388.1139, 117, 0, 4215.385, 4153.846, 4136.923, 4158.974, 4217.436, 450, 0, []
1629739388.1217, 118, 0, 4212.308, 4167.179, 4146.667, 4157.949, 4215.897, 450, 0, []
1629739388.1295, 119, 0, 4201.026, 4176.41, 4126.667, 4149.231, 4214.359, 16202, 0, []
1629739388.1374, 120, 0, 4195.385, 4164.103, 4151.795, 4146.154, 4212.821, 450, 0, []
1629739388.1452, 121, 0, 4204.615, 4148.205, 4142.564, 4151.795, 4209.744, 450, 0, []
1629739388.1531, 122, 0, 4209.744, 4153.333, 4136.41, 4157.436, 4209.231, 450, 0, []
1629739388.1608, 123, 0, 4204.103, 4172.308, 4137.949, 4152.821, 4205.128, 16202, 0, []
1629739388.1687, 124, 0, 4202.564, 4177.949, 4120, 4149.744, 4200.513, 450, 0, []
1629739388.1765, 125, 0, 4206.667, 4159.487, 4151.282, 4157.436, 4206.154, 450, 0, []
1629739388.1844, 126, 0, 4205.641, 4155.385, 4141.538, 4154.359, 4204.103, 450, 0, []
1629739388.1922, 127, 0, 4201.538, 4163.59, 4132.308, 4143.59, 4191.795, 16202, 0, []
1629739388.2001, 128, 0, 4197.949, 4161.538, 4149.744, 4146.154, 4187.692, 450, 0, []
1629739388.208, 0, 0, 4187.692, 4153.333, 4123.077, 4152.308, 4188.718, 450, 0, []
1629739388.216, 1, 0, 4178.974, 4141.538, 4128.718, 4149.744, 4179.487, 450, 0, []
1629739388.2239, 2, 0, 4184.103, 4145.128, 4125.641, 4146.154, 4175.385, 16196, 0, []
1629739388.2319, 3, 0, 4185.641, 4159.487, 4123.077, 4141.538, 4175.897, 450, 0, []
1629739388.2397, 4, 0, 4177.436, 4164.103, 4131.795, 4130.256, 4167.692, 16134, 0, []
1629739388.2477, 5, 0, 4186.667, 4171.795, 4109.744, 4128.718, 4174.872, 450, 0, []
1629739388.2556, 6, 0, 4212.308, 4193.846, 4142.564, 4147.179, 4197.949, 16085, 0, []
1629739388.2636, 7, 0, 4216.41, 4193.333, 4141.538, 4152.308, 4199.487, 450, 0, []
1629739388.2715, 8, 0, 4203.077, 4162.564, 4114.359, 4141.538, 4179.487, 450, 0, []
1629739388.2792, 9, 0, 4201.538, 4157.436, 4138.462, 4145.641, 4181.026, 16172, 0, []
1629739388.2871, 10, 0, 4209.231, 4209.744, 4124.615, 4157.949, 4195.385, 450, 0, []
1629739388.2949, 11, 0, 4208.205, 4251.795, 4128.205, 4153.846, 4190.256, 16202, 0, []
1629739388.3028, 12, 0, 4206.667, 4246.667, 4131.282, 4144.615, 4184.615, 450, 0, []
1629739388.3106, 13, 0, 4204.615, 4240, 4119.487, 4143.59, 4187.179, 450, 0, []
1629739388.3184, 14, 0, 4193.333, 4247.692, 4132.821, 4140, 4178.462, 450, 0, []
1629739388.3262, 15, 0, 4186.154, 4252.821, 4111.795, 4134.872, 4168.205, 16202, 0, []
1629739388.3342, 16, 0, 4183.59, 4258.974, 4124.615, 4137.949, 4168.205, 0, 0, []
1629739388.3421, 17, 0, 4180, 4266.154, 4129.231, 4140.513, 4166.154, 0, 0, []
1629739388.3501, 18, 0, 4185.128, 4264.103, 4104.615, 4137.436, 4167.179, 0, 0, []
1629739388.3579, 19, 0, 4195.897, 4262.564, 4112.821, 4130.256, 4178.974, 0, 0, []
1629739388.3659, 20, 0, 4207.692, 4260.513, 4087.179, 4123.077, 4194.872, 0, 0, []
1629739388.3738, 21, 0, 4209.231, 4243.077, 4098.974, 4122.051, 4194.359, 0, 0, []
1629739388.3818, 22, 0, 4201.026, 4229.744, 4122.051, 4124.103, 4183.077, 0, 0, []
1629739388.3897, 23, 0, 4206.667, 4235.897, 4112.821, 4134.359, 4189.231, 0, 0, []
1629739388.3976, 24, 0, 4224.103, 4256.41, 4141.026, 4152.821, 4204.103, 0, 0, []
1629739388.4055, 25, 0, 4220, 4271.795, 4120.513, 4155.897, 4198.974, 0, 0, []
1629739388.4134, 26, 0, 4194.872, 4262.564, 4111.795, 4140.513, 4178.462, 0, 0, []
1629739388.4213, 27, 0, 4195.385, 4248.205, 4134.359, 4138.462, 4180.513, 0, 0, []
1629739388.4291, 28, 0, 4217.949, 4249.744, 4126.154, 4154.872, 4201.538, 0, 0, []
1629739388.437, 29, 0, 4217.949, 4250.256, 4134.359, 4156.41, 4203.077, 0, 0, []
1629739388.4447, 30, 0, 4201.538, 4230.256, 4108.205, 4137.436, 4185.641, 0, 0, []
1629739388.4526, 31, 0, 4202.051, 4217.949, 4105.641, 4127.179, 4181.026, 0, 0, []
1629739388.4604, 32, 0, 4217.949, 4225.128, 4118.974, 4133.846, 4198.462, 0, 0, []
1629739388.4683, 33, 0, 4229.744, 4240, 4086.667, 4136.41, 4212.308, 0, 0, []
1629739388.4761, 34, 0, 4244.615, 4258.974, 4106.154, 4129.231, 4226.154, 0, 0, []
1629739388.4839, 35, 0, 4281.538, 4255.897, 4108.718, 4134.872, 4261.026, 0, 0, []
1629739388.4917, 36, 0, 4326.154, 4244.615, 4102.051, 4154.359, 4304.103, 0, 0, []
1629739388.4996, 37, 0, 4351.795, 4262.564, 4123.077, 4161.538, 4331.795, 0, 0, []
1629739388.5075, 38, 0, 4360, 4267.179, 4114.359, 4148.205, 4341.026, 0, 0, []
1629739388.5154, 39, 0, 4374.359, 4242.051, 4125.128, 4147.692, 4351.282, 0, 0, []
1629739388.5233, 40, 0, 4394.359, 4252.308, 4113.333, 4157.436, 4368.718, 0, 0, []
1629739388.5313, 41, 0, 4402.564, 4269.744, 4109.744, 4147.692, 4380, 0, 0, []
1629739388.5392, 42, 0, 4406.154, 4249.744, 4117.436, 4131.795, 4384.615, 0, 0, []
1629739388.5472, 43, 0, 4412.821, 4243.59, 4100, 4130.256, 4394.359, 0, 0, []
1629739388.5551, 44, 0, 4421.538, 4247.692, 4124.615, 4136.41, 4414.359, 0, 0, []
1629739388.563, 45, 0, 4429.231, 4235.897, 4103.077, 4130.769, 4426.667, 0, 0, []
1629739388.5709, 46, 0, 4439.487, 4230.769, 4102.564, 4133.846, 4434.872, 0, 0, []
1629739388.5787, 47, 0, 4456.923, 4240.513, 4149.231, 4157.949, 4454.359, 0, 0, []
1629739388.5866, 48, 0, 4467.692, 4251.282, 4125.641, 4161.538, 4460.513, 0, 0, []
1629739388.5944, 49, 0, 4462.564, 4248.205, 4130.256, 4145.128, 4451.795, 0, 0, []
1629739388.6022, 50, 0, 4459.487, 4234.872, 4133.846, 4138.974, 4452.821, 0, 0, []
1629739388.61, 51, 0, 4462.051, 4237.949, 4119.487, 4141.538, 4464.103, 0, 0, []
1629739388.6179, 52, 0, 4464.103, 4267.692, 4136.923, 4144.615, 4467.692, 0, 0, []
1629739388.6257, 53, 0, 4466.154, 4274.872, 4121.538, 4152.821, 4464.103, 0, 0, []
1629739388.6336, 54, 0, 4458.974, 4240.513, 4128.718, 4154.359, 4460, 0, 0, []
1629739388.6413, 55, 0, 4443.077, 4227.692, 4135.897, 4141.026, 4463.59, 0, 0, []
1629739388.6493, 56, 0, 4428.718, 4251.795, 4113.333, 4131.795, 4461.026, 0, 0, []
1629739388.6572, 57, 0, 4423.59, 4253.333, 4121.026, 4129.744, 4443.077, 0, 0, []
1629739388.6652, 58, 0, 4430.769, 4229.744, 4109.744, 4130.256, 4443.59, 0, 0, []
1629739388.6731, 59, 0, 4437.949, 4226.667, 4121.026, 4143.077, 4468.718, 0, 0, []
1629739388.681, 60, 0, 4437.949, 4225.641, 4141.538, 4166.667, 4490.256, 0, 0, []
1629739388.6889, 61, 0, 4431.795, 4213.333, 4132.821, 4170.769, 4489.744, 0, 0, []
1629739388.6969, 62, 0, 4415.385, 4208.718, 4153.333, 4150.769, 4465.641, 0, 0, []
1629739388.7048, 63, 0, 4395.897, 4213.333, 4133.333, 4134.872, 4450.256, 0, 0, []
1629739388.7128, 64, 0, 4381.538, 4240, 4114.872, 4136.923, 4443.59, 450, 0, []
1629739388.7206, 65, 0, 4361.538, 4248.205, 4128.718, 4144.103, 4422.564, 450, 0, []
1629739388.7286, 66, 0, 4330.256, 4209.744, 4116.923, 4143.077, 4399.487, 16192, 0, []
1629739388.7365, 67, 0, 4304.615, 4190.769, 4126.667, 4144.103, 4384.615, 450, 0, []
1629739388.7443, 68, 0, 4289.744, 4198.974, 4122.051, 4151.282, 4365.641, 16174, 0, []
1629739388.7522, 69, 0, 4266.154, 4182.564, 4121.538, 4149.744, 4342.564, 450, 0, []
1629739388.7599, 70, 0, 4245.128, 4185.641, 4132.821, 4138.462, 4328.718, 16085, 0, []
1629739388.7678, 71, 0, 4242.051, 4228.205, 4110.769, 4132.821, 4323.077, 450, 0, []
1629739388.7756, 72, 0, 4231.795, 4222.564, 4128.718, 4131.795, 4308.205, 450, 0, []
1629739388.7835, 73, 0, 4205.128, 4182.051, 4124.103, 4122.051, 4279.487, 16173, 0, []
1629739388.7913, 74, 0, 4183.59, 4187.692, 4105.128, 4114.872, 4254.359, 450, 0, []
1629739388.7993, 75, 0, 4171.282, 4200.513, 4123.077, 4118.974, 4243.077, 16225, 0, []
1629739388.8071, 76, 0, 4165.641, 4171.282, 4102.051, 4121.026, 4235.385, 450, 0, []
1629739388.8151, 77, 0, 4167.179, 4161.538, 4109.231, 4125.641, 4231.795, 450, 0, []
1629739388.823, 78, 0, 4168.205, 4201.538, 4130.769, 4137.949, 4232.308, 450, 0, []
1629739388.831, 79, 0, 4168.718, 4213.333, 4140, 4155.897, 4235.385, 16225, 0, []
1629739388.8389, 80, 0, 4169.231, 4192.821, 4152.821, 4166.154, 4232.308, 450, 0, []
1629739388.8468, 81, 0, 4160, 4207.692, 4115.897, 4154.872, 4220, 450, 0, []
1629739388.8547, 82, 0, 4146.667, 4217.436, 4107.692, 4142.564, 4211.795, 450, 0, []
1629739388.8627, 83, 0, 4134.872, 4188.205, 4111.282, 4145.641, 4208.205, 16225, 0, []
1629739388.8706, 84, 0, 4130.769, 4173.333, 4105.128, 4145.641, 4198.974, 450, 0, []
1629739388.8786, 85, 0, 4127.692, 4184.103, 4126.667, 4141.026, 4187.692, 450, 0, []
1629739388.8864, 86, 0, 4120, 4188.205, 4113.333, 4148.205, 4183.077, 450, 0, []
1629739388.8942, 87, 0, 4117.436, 4191.282, 4110.769, 4157.436, 4184.615, 16225, 0, []
1629739388.9021, 88, 0, 4121.538, 4199.487, 4114.359, 4155.897, 4184.615, 450, 0, []
1629739388.9099, 89, 0, 4122.051, 4207.179, 4124.103, 4161.538, 4183.077, 450, 0, []
1629739388.9178, 90, 0, 4123.59, 4215.897, 4121.538, 4169.744, 4192.308, 450, 0, []
1629739388.9255, 91, 0, 4131.795, 4222.564, 4106.154, 4162.051, 4204.615, 16225, 0, []
1629739388.9334, 92, 0, 4130.769, 4226.154, 4150.769, 4151.282, 4199.487, 450, 0, []
1629739388.9412, 93, 0, 4122.051, 4221.538, 4103.077, 4148.718, 4185.641, 450, 0, []
1629739388.9491, 94, 0, 4112.308, 4204.103, 4084.103, 4138.462, 4174.872, 450, 0, []
1629739388.9569, 95, 0, 4102.051, 4206.154, 4138.462, 4118.974, 4164.103, 16225, 0, []
1629739388.9647, 96, 0, 4096.923, 4222.051, 4084.103, 4108.718, 4154.872, 450, 0, []
1629739388.9725, 97, 0, 4095.385, 4200.513, 4122.564, 4116.41, 4155.385, 450, 0, []
1629739388.9805, 98, 0, 4104.615, 4182.051, 4120.513, 4129.231, 4170.769, 450, 0, []
1629739388.9884, 99, 0, 4124.103, 4194.872, 4066.667, 4139.487, 4190.769, 16225, 0, []
1629739388.9964, 100, 0, 4123.077, 4195.385, 4146.154, 4138.462, 4187.692, 450, 0, []
1629739389.0042, 101, 0, 4107.179, 4207.692, 4119.487, 4121.026, 4168.205, 450, 0, []
1629739389.0122, 102, 0, 4109.744, 4224.615, 4093.333, 4116.923, 4164.615, 450, 0, []
1629739389.0201, 103, 0, 4124.615, 4197.949, 4125.641, 4126.154, 4181.026, 16225, 0, []
1629739389.0281, 104, 0, 4124.615, 4181.026, 4101.538, 4124.615, 4186.154, 450, 0, []
1629739389.036, 105, 0, 4122.564, 4207.692, 4115.385, 4126.667, 4182.564, 450, 0, []
1629739389.0439, 106, 0, 4135.897, 4196.923, 4116.41, 4132.821, 4194.359, 450, 0, []
1629739389.0518, 107, 0, 4136.923, 4162.564, 4109.744, 4124.615, 4204.103, 16225, 0, []
1629739389.0596, 108, 0, 4127.179, 4189.744, 4110.256, 4120, 4199.487, 450, 0, []
1629739389.0675, 109, 0, 4135.385, 4211.795, 4105.641, 4127.692, 4200, 450, 0, []
1629739389.0753, 110, 0, 4143.59, 4184.103, 4118.462, 4130.256, 4201.026, 450, 0, []
1629739389.0831, 111, 0, 4129.744, 4196.41, 4106.154, 4120, 4190.769, 16225, 0, []
1629739389.0909, 112, 0, 4118.462, 4228.205, 4104.615, 4110.256, 4183.077, 450, 0, []
1629739389.0988, 113, 0, 4123.077, 4200.513, 4112.821, 4112.308, 4188.718, 450, 0, []
1629739389.1066, 114, 0, 4117.436, 4173.846, 4103.077, 4115.385, 4190.256, 450, 0, []
1629739389.1146, 115, 0, 4110.769, 4198.974, 4108.718, 4113.846, 4184.103, 16225, 0, []
1629739389.1224, 116, 0, 4130.769, 4198.462, 4099.487, 4116.923, 4194.359, 450, 0, []
1629739389.1304, 117, 0, 4144.615, 4164.615, 4096.923, 4119.487, 4204.103, 450, 0, []
1629739389.1383, 118, 0, 4128.718, 4169.231, 4108.205, 4113.846, 4190.769, 450, 0, []
1629739389.1463, 119, 0, 4123.077, 4198.974, 4102.564, 4114.872, 4190.769, 16225, 0, []
1629739389.1542, 120, 0, 4129.744, 4209.231, 4108.718, 4125.128, 4205.128, 450, 0, []
1629739389.1622, 121, 0, 4110.256, 4197.949, 4098.974, 4120.513, 4185.128, 450, 0, []
1629739389.17, 122, 0, 4078.462, 4188.205, 4088.718, 4109.744, 4148.718, 450, 0, []
1629739389.178, 123, 0, 4068.718, 4183.077, 4092.308, 4115.385, 4141.026, 16225, 0, []
1629739389.1859, 124, 0, 4070.256, 4169.744, 4078.462, 4116.923, 4146.154, 450, 0, []
1629739389.1937, 125, 0, 4067.179, 4164.103, 4086.667, 4112.308, 4146.154, 450, 0, []
1629739389.2016, 126, 0, 4085.128, 4176.923, 4095.385, 4123.59, 4161.026, 450, 0, []
1629739389.2093, 127, 0, 4104.615, 4161.538, 4094.872, 4137.436, 4178.974, 16225, 0, []
1629739389.2172, 128, 0, 4095.897, 4131.282, 4105.128, 4130.256, 4171.795, 450, 0, []
1629739389.225, 0, 0, 4085.641, 4150.256, 4094.872, 4117.949, 4151.282, 450, 0, []
1629739389.2329, 1, 0, 4082.564, 4155.897, 4097.436, 4116.923, 4135.897, 450, 0, []
1629739389.2407, 2, 0, 4066.667, 4120, 4103.077, 4113.333, 4117.436, 16194, 0, []
1629739389.2485, 3, 0, 4047.179, 4132.308, 4103.077, 4111.282, 4100.513, 450, 0, []
1629739389.2563, 4, 0, 4041.026, 4164.103, 4120.513, 4126.667, 4093.333, 16140, 0, []
1629739389.2643, 5, 0, 4036.41, 4133.846, 4121.026, 4138.462, 4081.538, 450, 0, []
1629739389.2722, 6, 0, 4024.615, 4098.462, 4116.41, 4127.179, 4066.154, 16075, 0, []
1629739389.2802, 7, 0, 4006.667, 4097.949, 4105.641, 4111.795, 4047.692, 450, 0, []
1629739389.288, 8, 0, 3992.308, 4089.231, 4104.615, 4111.795, 4025.641, 450, 0, []
1629739389.296, 9, 0, 3992.308, 4095.385, 4118.462, 4120.513, 4011.795, 16182, 0, []
1629739389.3039, 10, 0, 3990.256, 4101.538, 4097.436, 4120.513, 4005.641, 450, 0, []
1629739389.3119, 11, 0, 3986.667, 4092.308, 4094.872, 4115.385, 4001.026, 16209, 0, []
1629739389.3198, 12, 0, 3996.41, 4102.564, 4109.231, 4113.846, 4002.051, 450, 0, []
1629739389.3277, 13, 0, 4002.564, 4114.872, 4107.179, 4115.897, 4002.051, 450, 0, []
1629739389.3356, 14, 0, 3996.41, 4112.821, 4110.769, 4113.846, 3994.359, 450, 0, []
1629739389.3434, 15, 0, 3990.769, 4099.487, 4090.769, 4096.923, 3980, 16209, 0, []
1629739389.3513, 16, 0, 3991.795, 4087.179, 4085.641, 4087.692, 3970.769, 0, 0, []
1629739389.3591, 17, 0, 4001.538, 4096.923, 4102.564, 4102.564, 3980, 0, 0, []
1629739389.3669, 18, 0, 4008.718, 4095.897, 4091.282, 4104.615, 3988.205, 0, 0, []
1629739389.3747, 19, 0, 4005.128, 4068.718, 4077.436, 4086.667, 3974.359, 0, 0, []
1629739389.3826, 20, 0, 3994.872, 4076.41, 4067.179, 4077.436, 3959.487, 0, 0, []
1629739389.3904, 21, 0, 3985.128, 4096.923, 4068.205, 4077.436, 3953.846, 0, 0, []
1629739389.3983, 22, 0, 3989.744, 4080, 4069.231, 4076.41, 3955.385, 0, 0, []
1629739389.406, 23, 0, 3999.487, 4073.846, 4059.487, 4077.949, 3960.513, 0, 0, []
1629739389.4139, 24, 0, 3994.359, 4083.59, 4069.231, 4073.846, 3953.333, 0, 0, []
1629739389.4217, 25, 0, 3992.308, 4083.077, 4061.026, 4068.205, 3945.641, 0, 0, []
1629739389.4297, 26, 0, 4002.564, 4098.462, 4051.795, 4069.231, 3943.077, 0, 0, []
1629739389.4376, 27, 0, 4003.077, 4099.487, 4057.436, 4068.205, 3934.359, 0, 0, []
1629739389.4455, 28, 0, 3998.974, 4067.179, 4043.59, 4062.564, 3935.385, 0, 0, []
1629739389.4534, 29, 0, 4005.641, 4074.359, 4049.744, 4062.564, 3942.564, 0, 0, []
1629739389.4614, 30, 0, 4007.179, 4138.974, 4050.769, 4063.59, 3935.385, 0, 0, []
1629739389.4693, 31, 0, 3999.487, 4194.359, 4033.333, 4059.487, 3918.974, 0, 0, []
1629739389.4773, 32, 0, 4001.026, 4206.667, 4033.333, 4055.897, 3913.333, 0, 0, []
1629739389.4852, 33, 0, 4010.769, 4204.615, 4031.282, 4053.333, 3913.333, 0, 0, []
1629739389.4931, 34, 0, 4012.821, 4220, 4036.41, 4053.333, 3912.308, 0, 0, []
1629739389.501, 35, 0, 4005.641, 4224.615, 4041.026, 4053.333, 3908.718, 0, 0, []
1629739389.5089, 36, 0, 4009.231, 4211.282, 4042.051, 4055.385, 3909.744, 0, 0, []
1629739389.5168, 37, 0, 4016.41, 4217.949, 4045.128, 4057.949, 3911.282, 0, 0, []
1629739389.5247, 38, 0, 4007.179, 4233.333, 4025.128, 4050.769, 3895.897, 0, 0, []
1629739389.5325, 39, 0, 4006.667, 4220, 4025.128, 4051.282, 3892.308, 0, 0, []
1629739389.5403, 40, 0, 4026.154, 4207.179, 4038.462, 4062.564, 3910.769, 0, 0, []
1629739389.5483, 41, 0, 4032.821, 4225.641, 4029.744, 4057.436, 3912.308, 0, 0, []
1629739389.5562, 42, 0, 4025.128, 4243.077, 4033.846, 4047.692, 3903.077, 0, 0, []
1629739389.5642, 43, 0, 4033.333, 4242.564, 4035.897, 4058.974, 3907.692, 0, 0, []
1629739389.572, 44, 0, 4047.692, 4253.333, 4041.538, 4073.846, 3913.846, 0, 0, []
1629739389.58, 45, 0, 4050.769, 4274.872, 4052.821, 4073.846, 3911.282, 0, 0, []
1629739389.5879, 46, 0, 4050.256, 4256.41, 4047.179, 4067.179, 3907.692, 0, 0, []
1629739389.5959, 47, 0, 4061.026, 4229.231, 4056.41, 4078.974, 3912.308, 0, 0, []
1629739389.6038, 48, 0, 4068.205, 4249.744, 4055.897, 4092.821, 3916.923, 0, 0, []
1629739389.6117, 49, 0, 4048.718, 4255.385, 4041.026, 4075.385, 3896.41, 0, 0, []
1629739389.6196, 50, 0, 4031.282, 4242.051, 4036.923, 4061.026, 3876.923, 0, 0, []
1629739389.6276, 51, 0, 4042.051, 4264.103, 4042.564, 4078.974, 3887.179, 0, 0, []
1629739389.6355, 52, 0, 4052.821, 4260, 4057.436, 4088.205, 3893.846, 0, 0, []
1629739389.6433, 53, 0, 4048.718, 4228.205, 4044.615, 4080, 3881.026, 0, 0, []
1629739389.6511, 54, 0, 4042.564, 4254.359, 4038.462, 4081.026, 3876.923, 0, 0, []
1629739389.6589, 55, 0, 4047.179, 4274.872, 4047.692, 4084.615, 3885.641, 0, 0, []
1629739389.6668, 56, 0, 4061.026, 4248.205, 4034.359, 4077.949, 3901.538, 0, 0, []
1629739389.6746, 57, 0, 4063.077, 4268.718, 4039.487, 4076.41, 3907.179, 0, 0, []
1629739389.6825, 58, 0, 4055.385, 4303.59, 4044.615, 4071.795, 3895.385, 0, 0, []
1629739389.6902, 59, 0, 4066.667, 4288.718, 4048.205, 4070.769, 3897.436, 0, 0, []
1629739389.6981, 60, 0, 4075.897, 4272.308, 4063.59, 4085.128, 3913.333, 0, 0, []
1629739389.7059, 61, 0, 4065.641, 4281.538, 4054.872, 4094.359, 3910.769, 0, 0, []
1629739389.7138, 62, 0, 4068.718, 4310.256, 4052.308, 4093.846, 3899.487, 0, 0, []
1629739389.7216, 63, 0, 4076.41, 4324.103, 4040.513, 4082.051, 3894.359, 0, 0, []
1629739389.7295, 64, 0, 4063.59, 4299.487, 4022.564, 4066.154, 3892.308, 450, 0, []
1629739389.7374, 65, 0, 4057.949, 4298.974, 4035.897, 4067.179, 3894.872, 450, 0, []
1629739389.7454, 66, 0, 4076.41, 4326.154, 4041.026, 4080.513, 3897.436, 16194, 0, []
1629739389.7533, 67, 0, 4089.231, 4308.718, 4049.231, 4091.795, 3902.564, 450, 0, []
1629739389.7613, 68, 0, 4089.744, 4289.744, 4044.615, 4096.41, 3913.333, 16134, 0, []
1629739389.7691, 69, 0, 4076.923, 4317.436, 4017.436, 4084.103, 3903.59, 450, 0, []
1629739389.7771, 70, 0, 4053.846, 4334.872, 4015.897, 4055.897, 3877.436, 16085, 0, []
1629739389.785, 71, 0, 4053.333, 4334.359, 4027.692, 4041.538, 3875.385, 450, 0, []
1629739389.793, 72, 0, 4078.974, 4341.026, 4053.846, 4063.59, 3901.026, 450, 0, []
1629739389.8009, 73, 0, 4101.026, 4342.564, 4073.333, 4104.615, 3926.667, 16181, 0, []
1629739389.8088, 74, 0, 4113.333, 4351.282, 4075.897, 4133.846, 3944.615, 450, 0, []
1629739389.8167, 75, 0, 4123.077, 4365.128, 4086.667, 4139.487, 3951.282, 16209, 0, []
1629739389.8245, 76, 0, 4122.564, 4362.564, 4070.769, 4124.615, 3944.615, 450, 0, []
1629739389.8324, 77, 0, 4112.821, 4364.615, 4062.051, 4105.128, 3932.821, 450, 0, []
1629739389.8402, 78, 0, 4098.462, 4362.051, 4069.744, 4085.128, 3916.923, 450, 0, []
1629739389.8481, 79, 0, 4086.154, 4343.59, 4057.949, 4066.154, 3904.615, 16209, 0, []
1629739389.8558, 80, 0, 4090.769, 4358.974, 4061.538, 4072.821, 3910.769, 450, 0, []
1629739389.8637, 81, 0, 4104.103, 4381.538, 4060, 4102.051, 3924.615, 450, 0, []
1629739389.8715, 82, 0, 4115.385, 4357.436, 4062.051, 4124.615, 3925.641, 450, 0, []
1629739389.8794, 83, 0, 4126.154, 4318.462, 4074.872, 4133.846, 3925.641, 16209, 0, []
1629739389.8872, 84, 0, 4126.154, 4298.462, 4075.385, 4138.974, 3934.872, 450, 0, []
1629739389.895, 85, 0, 4115.897, 4308.718, 4090.769, 4144.103, 3941.538, 450, 0, []
1629739389.9028, 86, 0, 4114.359, 4317.949, 4093.846, 4143.59, 3942.564, 450, 0, []
1629739389.9108, 87, 0, 4113.846, 4304.103, 4087.692, 4132.821, 3945.128, 16209, 0, []
1629739389.9187, 88, 0, 4105.641, 4303.077, 4082.564, 4119.487, 3942.051, 450, 0, []
1629739389.9267, 89, 0, 4109.231, 4312.821, 4067.179, 4114.872, 3936.923, 450, 0, []
1629739389.9345, 90, 0, 4130.256, 4303.077, 4085.641, 4126.154, 3946.154, 450, 0, []
1629739389.9425, 91, 0, 4144.615, 4296.41, 4102.564, 4136.923, 3961.026, 16209, 0, []
1629739389.9504, 92, 0, 4136.41, 4310.769, 4095.385, 4130.256, 3960, 450, 0, []
1629739389.9584, 93, 0, 4122.564, 4316.41, 4083.077, 4114.872, 3952.821, 450, 0, []
1629739389.9663, 94, 0, 4119.487, 4308.205, 4063.077, 4111.282, 3954.872, 450, 0, []
1629739389.9742, 95, 0, 4127.692, 4293.846, 4074.872, 4127.179, 3964.103, 16209, 0, []
1629739389.9821, 96, 0, 4139.487, 4292.308, 4089.231, 4144.615, 3977.436, 450, 0, []
1629739389.9899, 97, 0, 4150.769, 4323.077, 4090.256, 4147.692, 3992.821, 450, 0, []
1629739389.9978, 98, 0, 4161.026, 4322.564, 4100.513, 4148.718, 4005.641, 450, 0, []
1629739390.0056, 99, 0, 4164.615, 4290.769, 4088.205, 4148.205, 4008.718, 16209, 0, []
1629739390.0134, 100, 0, 4155.897, 4288.205, 4081.026, 4138.974, 3995.897, 450, 0, []
1629739390.0212, 101, 0, 4146.154, 4305.641, 4076.923, 4130.769, 3986.667, 450, 0, []
1629739390.0291, 102, 0, 4144.103, 4331.282, 4079.487, 4134.359, 3994.359, 450, 0, []
1629739390.0369, 103, 0, 4141.026, 4349.231, 4102.051, 4137.436, 4000.513, 16209, 0, []
1629739390.0448, 104, 0, 4142.564, 4326.667, 4100.513, 4138.462, 4007.692, 450, 0, []
1629739390.0525, 105, 0, 4149.231, 4294.872, 4112.821, 4147.179, 4026.154, 450, 0, []
1629739390.0604, 106, 0, 4151.282, 4307.692, 4127.179, 4154.872, 4039.487, 450, 0, []
1629739390.0682, 107, 0, 4149.231, 4325.128, 4112.308, 4151.282, 4037.949, 16209, 0, []
1629739390.0762, 108, 0, 4150.769, 4305.128, 4107.692, 4144.103, 4034.359, 450, 0, []
1629739390.0841, 109, 0, 4155.897, 4301.026, 4100, 4138.462, 4037.436, 450, 0, []
1629739390.092, 110, 0, 4156.41, 4336.41, 4104.615, 4135.385, 4037.436, 450, 0, []
1629739390.0999, 111, 0, 4147.179, 4343.077, 4104.615, 4130.256, 4027.692, 16209, 0, []
1629739390.1079, 112, 0, 4136.41, 4312.308, 4082.051, 4120, 4017.436, 450, 0, []
1629739390.1158, 113, 0, 4132.308, 4312.308, 4081.026, 4116.923, 4014.872, 450, 0, []
1629739390.1236, 114, 0, 4127.692, 4331.282, 4083.077, 4116.41, 4014.872, 450, 0, []
1629739390.1314, 115, 0, 4124.615, 4321.026, 4098.974, 4119.487, 4018.462, 16209, 0, []
1629739390.1392, 116, 0, 4141.538, 4316.923, 4120, 4131.795, 4041.538, 450, 0, []
1629739390.1471, 117, 0, 4164.103, 4334.872, 4111.795, 4135.385, 4061.538, 450, 0, []
1629739390.1549, 118, 0, 4165.128, 4335.897, 4111.282, 4128.718, 4059.487, 450, 0, []
1629739390.1628, 119, 0, 4163.59, 4326.154, 4107.179, 4127.179, 4053.333, 16209, 0, []
1629739390.1705, 120, 0, 4175.385, 4323.59, 4112.308, 4136.923, 4061.026, 450, 0, []
1629739390.1784, 121, 0, 4180.513, 4336.41, 4126.667, 4151.282, 4071.282, 450, 0, []
1629739390.1862, 122, 0, 4176.41, 4332.308, 4118.974, 4154.359, 4063.59, 450, 0, []
1629739390.1941, 123, 0, 4169.231, 4289.744, 4124.103, 4138.462, 4049.744, 16209, 0, []
1629739390.2019, 124, 0, 4157.436, 4272.308, 4113.846, 4122.564, 4047.179, 450, 0, []
1629739390.2098, 125, 0, 4144.615, 4298.974, 4093.333, 4118.462, 4049.231, 450, 0, []
1629739390.2175, 126, 0, 4148.205, 4306.154, 4096.41, 4121.538, 4056.41, 450, 0, []
1629739390.2255, 127, 0, 4166.667, 4287.179, 4096.41, 4134.359, 4077.949, 16209, 0, []
1629739390.2334, 128, 0, 4184.103, 4283.077, 4112.308, 4153.333, 4103.59, 450, 0, []
1629739390.2414, 0, 0, 4191.282, 4302.051, 4127.179, 4162.564, 4115.897, 450, 0, []
1629739390.2493, 1, 0, 4191.282, 4332.821, 4133.333, 4165.641, 4117.436, 450, 0, []
1629739390.2572, 2, 0, 4185.641, 4326.667, 4136.923, 4162.564, 4098.462, 16192, 0, []
1629739390.2651, 3, 0, 4173.846, 4292.821, 4113.333, 4141.538, 4069.744, 450, 0, []
1629739390.2731, 4, 0, 4165.641, 4312.308, 4112.821, 4124.103, 4053.333, 16127, 0, []
1629739390.281, 5, 0, 4165.641, 4356.41, 4120, 4126.667, 4055.385, 450, 0, []
1629739390.289, 6, 0, 4178.974, 4353.846, 4113.333, 4131.282, 4071.795, 16074, 0, []
1629739390.2968, 7, 0, 4197.436, 4327.692, 4111.795, 4135.385, 4090.769, 450, 0, []
1629739390.3046, 8, 0, 4195.385, 4329.231, 4084.103, 4134.359, 4089.744, 450, 0, []
1629739390.3125, 9, 0, 4178.462, 4349.744, 4072.308, 4126.154, 4068.718, 16182, 0, []
1629739390.3203, 10, 0, 4180, 4357.436, 4084.615, 4124.103, 4067.692, 450, 0, []
1629739390.3282, 11, 0, 4206.154, 4337.949, 4099.487, 4130.256, 4093.846, 16197, 0, []
1629739390.3359, 12, 0, 4233.846, 4306.154, 4129.744, 4137.436, 4129.231, 450, 0, []
1629739390.3438, 13, 0, 4258.462, 4303.077, 4133.846, 4139.487, 4158.462, 450, 0, []
1629739390.3516, 14, 0, 4291.282, 4331.282, 4136.41, 4140, 4186.154, 450, 0, []
1629739390.3596, 15, 0, 4337.436, 4348.718, 4135.385, 4140.513, 4228.718, 16197, 0, []
1629739390.3675, 16, 0, 4386.154, 4338.974, 4114.872, 4143.59, 4285.128, 0, 0, []
1629739390.3754, 17, 0, 4429.744, 4343.077, 4122.564, 4153.333, 4342.051, 0, 0, []
1629739390.3833, 18, 0, 4463.077, 4355.385, 4132.308, 4153.846, 4380.513, 0, 0, []
1629739390.3913, 19, 0, 4470.256, 4346.154, 4141.538, 4138.974, 4394.872, 0, 0, []
1629739390.3992, 20, 0, 4442.051, 4335.897, 4142.564, 4129.231, 4392.308, 0, 0, []
1629739390.4072, 21, 0, 4407.692, 4325.641, 4123.077, 4138.462, 4386.154, 0, 0, []
1629739390.415, 22, 0, 4402.564, 4325.641, 4133.846, 4165.128, 4384.103, 0, 0, []
1629739390.423, 23, 0, 4420, 4330.769, 4148.718, 4191.795, 4389.744, 0, 0, []
1629739390.4309, 24, 0, 4428.718, 4310.769, 4159.487, 4200, 4406.154, 0, 0, []
1629739390.4388, 25, 0, 4422.051, 4310.769, 4172.308, 4197.436, 4416.41, 0, 0, []
1629739390.4467, 26, 0, 4418.462, 4351.282, 4173.333, 4196.41, 4407.179, 0, 0, []
1629739390.4544, 27, 0, 4412.308, 4345.641, 4180.513, 4182.051, 4385.128, 0, 0, []
1629739390.4623, 28, 0, 4389.231, 4302.051, 4163.077, 4151.795, 4364.103, 0, 0, []
1629739390.4701, 29, 0, 4363.077, 4314.872, 4155.897, 4146.667, 4349.744, 0, 0, []
1629739390.478, 30, 0, 4355.897, 4351.795, 4169.744, 4159.487, 4331.795, 0, 0, []
1629739390.4858, 31, 0, 4354.872, 4339.487, 4154.872, 4153.846, 4313.333, 0, 0, []
1629739390.4936, 32, 0, 4340, 4327.692, 4150.256, 4146.154, 4305.128, 0, 0, []
1629739390.5014, 33, 0, 4329.231, 4349.744, 4149.744, 4151.282, 4300.513, 0, 0, []
1629739390.5093, 34, 0, 4323.59, 4347.692, 4143.077, 4149.231, 4280, 0, 0, []
1629739390.5171, 35, 0, 4309.744, 4328.205, 4145.128, 4139.487, 4260, 0, 0, []
1629739390.5251, 36, 0, 4306.154, 4343.59, 4137.949, 4145.641, 4267.692, 0, 0, []
1629739390.533, 37, 0, 4312.821, 4355.897, 4148.205, 4162.564, 4274.359, 0, 0, []
1629739390.5409, 38, 0, 4296.923, 4320, 4142.564, 4153.846, 4255.385, 0, 0, []
1629739390.5488, 39, 0, 4278.462, 4295.385, 4126.154, 4136.923, 4247.692, 0, 0, []
1629739390.5568, 40, 0, 4289.744, 4319.487, 4137.949, 4143.59, 4260, 0, 0, []
1629739390.5647, 41, 0, 4286.667, 4339.487, 4124.615, 4135.897, 4257.436, 0, 0, []
1629739390.5727, 42, 0, 4261.026, 4336.41, 4106.667, 4113.333, 4241.026, 0, 0, []
1629739390.5805, 43, 0, 4258.974, 4325.641, 4104.615, 4117.436, 4238.462, 0, 0, []
1629739390.5883, 44, 0, 4267.692, 4312.821, 4107.692, 4127.692, 4243.077, 0, 0, []
1629739390.5962, 45, 0, 4260.513, 4294.872, 4119.487, 4120, 4242.051, 0, 0, []
1629739390.604, 46, 0, 4261.538, 4289.231, 4113.333, 4114.872, 4242.564, 0, 0, []
1629739390.6119, 47, 0, 4273.846, 4322.051, 4118.462, 4122.051, 4245.641, 0, 0, []
1629739390.6196, 48, 0, 4276.41, 4342.564, 4124.103, 4133.846, 4248.718, 0, 0, []
1629739390.6275, 49, 0, 4281.026, 4308.205, 4121.026, 4148.205, 4261.538, 0, 0, []
1629739390.6353, 50, 0, 4292.308, 4299.487, 4141.538, 4159.487, 4277.949, 0, 0, []
1629739390.6432, 51, 0, 4286.667, 4330.256, 4134.359, 4158.974, 4272.821, 0, 0, []
1629739390.651, 52, 0, 4265.128, 4314.872, 4118.462, 4148.205, 4258.974, 0, 0, []
1629739390.6588, 53, 0, 4263.59, 4304.615, 4128.718, 4146.154, 4261.026, 0, 0, []
1629739390.6666, 54, 0, 4268.718, 4334.359, 4133.333, 4155.897, 4255.897, 0, 0, []
1629739390.6746, 55, 0, 4248.718, 4316.41, 4128.718, 4150.769, 4235.897, 0, 0, []
1629739390.6825, 56, 0, 4228.205, 4284.103, 4105.641, 4134.359, 4227.692, 0, 0, []
1629739390.6905, 57, 0, 4228.718, 4291.282, 4106.154, 4128.205, 4232.821, 0, 0, []
1629739390.6983, 58, 0, 4231.795, 4289.744, 4127.179, 4132.308, 4233.846, 0, 0, []
1629739390.7063, 59, 0, 4229.744, 4278.974, 4108.205, 4131.282, 4225.641, 0, 0, []
1629739390.7142, 60, 0, 4224.103, 4296.41, 4097.949, 4138.462, 4226.154, 0, 0, []
1629739390.7222, 61, 0, 4213.846, 4307.179, 4108.718, 4156.41, 4230.769, 0, 0, []
1629739390.7301, 62, 0, 4226.667, 4301.026, 4129.744, 4172.308, 4228.718, 0, 0, []
1629739390.738, 63, 0, 4274.872, 4309.744, 4140.513, 4183.59, 4251.282, 0, 0, []
1629739390.7459, 64, 0, 4326.154, 4314.872, 4117.949, 4183.59, 4294.872, 450, 0, []
1629739390.7537, 65, 0, 4359.487, 4316.923, 4122.564, 4175.385, 4316.923, 450, 0, []
1629739390.7616, 66, 0, 4378.462, 4321.538, 4132.821, 4167.179, 4325.641, 16192, 0, []
1629739390.7694, 67, 0, 4386.667, 4317.949, 4122.051, 4162.564, 4344.615, 450, 0, []
1629739390.7772, 68, 0, 4386.154, 4312.308, 4115.897, 4158.974, 4339.487, 16127, 0, []
1629739390.785, 69, 0, 4376.923, 4306.667, 4107.692, 4147.179, 4316.41, 450, 0, []
1629739390.7929, 70, 0, 4362.564, 4286.154, 4117.949, 4142.564, 4311.282, 16082, 0, []
1629739390.8007, 71, 0, 4356.923, 4277.436, 4122.051, 4155.897, 4307.692, 450, 0, []
1629739390.8086, 72, 0, 4352.821, 4313.333, 4117.949, 4162.051, 4288.205, 450, 0, []
1629739390.8163, 73, 0, 4331.795, 4318.974, 4124.103, 4144.103, 4268.718, 16180, 0, []
1629739390.8243, 74, 0, 4309.744, 4287.692, 4111.282, 4129.231, 4253.846, 450, 0, []
1629739390.8322, 75, 0, 4310.256, 4298.462, 4117.436, 4129.744, 4244.103, 16197, 0, []
1629739390.8402, 76, 0, 4321.026, 4306.667, 4139.487, 4129.744, 4255.897, 450, 0, []
1629739390.8481, 77, 0, 4327.179, 4272.308, 4146.154, 4140, 4273.846, 450, 0, []
1629739390.856, 78, 0, 4327.179, 4274.359, 4152.821, 4150.256, 4266.667, 450, 0, []
1629739390.8639, 79, 0, 4315.897, 4304.103, 4144.103, 4135.385, 4256.41, 16197, 0, []
1629739390.8719, 80, 0, 4308.205, 4282.564, 4140.513, 4123.077, 4264.103, 450, 0, []
1629739390.8798, 81, 0, 4312.821, 4261.538, 4134.359, 4124.615, 4268.205, 450, 0, []
1629739390.8878, 82, 0, 4312.308, 4277.949, 4117.436, 4115.385, 4264.615, 450, 0, []
1629739390.8957, 83, 0, 4306.667, 4291.795, 4128.718, 4112.308, 4269.231, 16197, 0, []
1629739390.9036, 84, 0, 4304.615, 4287.692, 4125.641, 4120.513, 4266.154, 450, 0, []
1629739390.9115, 85, 0, 4306.154, 4274.872, 4122.051, 4123.59, 4266.154, 450, 0, []
1629739390.9193, 86, 0, 4314.872, 4271.282, 4144.615, 4132.821, 4283.077, 450, 0, []
1629739390.9272, 87, 0, 4306.667, 4278.974, 4147.692, 4126.154, 4267.692, 16197, 0, []
1629739390.935, 88, 0, 4273.333, 4271.282, 4141.026, 4102.051, 4229.744, 450, 0, []
1629739390.9428, 89, 0, 4269.231, 4255.385, 4130.769, 4106.154, 4237.949, 450, 0, []
1629739390.9506, 90, 0, 4293.846, 4265.641, 4132.308, 4123.077, 4262.051, 450, 0, []
1629739390.9585, 91, 0, 4293.846, 4261.538, 4141.538, 4125.641, 4256.923, 16197, 0, []
1629739390.9663, 92, 0, 4280, 4232.308, 4145.128, 4138.974, 4252.308, 450, 0, []
1629739390.9742, 93, 0, 4274.359, 4229.231, 4162.051, 4153.846, 4255.897, 450, 0, []
1629739390.9819, 94, 0, 4261.026, 4246.667, 4156.41, 4141.026, 4242.051, 450, 0, []
1629739390.9899, 95, 0, 4245.641, 4266.154, 4142.564, 4122.051, 4217.436, 16197, 0, []
1629739390.9978, 96, 0, 4231.795, 4268.718, 4130.256, 4104.615, 4200.513, 450, 0, []
1629739391.0058, 97, 0, 4227.692, 4255.385, 4098.462, 4084.103, 4193.846, 450, 0, []
1629739391.0137, 98, 0, 4238.974, 4245.641, 4103.077, 4081.538, 4200.513, 450, 0, []
1629739391.0216, 99, 0, 4245.641, 4228.205, 4123.077, 4100, 4210.256, 16197, 0, []
1629739391.0295, 100, 0, 4237.949, 4202.051, 4127.692, 4121.538, 4215.897, 450, 0, []
1629739391.0375, 101, 0, 4232.308, 4197.436, 4130.256, 4131.795, 4213.846, 450, 0, []
1629739391.0454, 102, 0, 4228.718, 4215.385, 4111.282, 4120, 4202.051, 450, 0, []
1629739391.0534, 103, 0, 4224.615, 4220.513, 4107.692, 4101.538, 4201.026, 16197, 0, []
1629739391.0612, 104, 0, 4239.487, 4239.487, 4122.564, 4109.231, 4220.513, 450, 0, []
1629739391.069, 105, 0, 4266.667, 4275.385, 4129.231, 4130.769, 4242.564, 450, 0, []
1629739391.0769, 106, 0, 4282.051, 4279.487, 4131.282, 4129.231, 4253.333, 450, 0, []
1629739391.0847, 107, 0, 4293.333, 4272.821, 4126.154, 4123.077, 4263.077, 16197, 0, []
1629739391.0926, 108, 0, 4304.103, 4291.282, 4137.436, 4135.385, 4276.41, 450, 0, []
1629739391.1003, 109, 0, 4303.59, 4289.231, 4126.667, 4132.821, 4288.205, 450, 0, []
1629739391.1082, 110, 0, 4310.769, 4244.615, 4098.462, 4111.795, 4306.154, 450, 0, []
1629739391.116, 111, 0, 4349.744, 4233.333, 4111.282, 4117.436, 4337.436, 16197, 0, []
1629739391.1239, 112, 0, 4392.308, 4254.872, 4117.949, 4126.154, 4376.41, 450, 0, []
1629739391.1317, 113, 0, 4418.462, 4251.282, 4115.385, 4121.538, 4411.282, 450, 0, []
1629739391.1396, 114, 0, 4445.641, 4270.256, 4120, 4130.256, 4428.718, 450, 0, []
1629739391.1475, 115, 0, 4457.436, 4297.949, 4122.564, 4132.821, 4419.487, 16197, 0, []
1629739391.1555, 116, 0, 4435.897, 4269.744, 4133.333, 4116.41, 4399.487, 450, 0, []
1629739391.1634, 117, 0, 4412.821, 4248.205, 4127.179, 4106.667, 4390.256, 450, 0, []
1629739391.1714, 118, 0, 4410.256, 4275.385, 4128.718, 4120, 4385.128, 450, 0, []
1629739391.1792, 119, 0, 4405.128, 4283.59, 4139.487, 4136.923, 4374.359, 16197, 0, []
1629739391.1872, 120, 0, 4385.128, 4262.051, 4129.744, 4138.974, 4369.744, 450, 0, []
1629739391.1951, 121, 0, 4353.846, 4240.513, 4117.436, 4121.026, 4353.846, 450, 0, []
1629739391.2031, 122, 0, 4324.615, 4228.205, 4095.897, 4103.077, 4320.513, 450, 0, []
1629739391.211, 123, 0, 4321.538, 4241.538, 4109.744, 4116.923, 4318.462, 16197, 0, []
1629739391.2189, 124, 0, 4318.974, 4264.615, 4154.872, 4131.282, 4330.769, 450, 0, []
1629739391.2268, 125, 0, 4292.308, 4263.077, 4116.923, 4115.385, 4300, 450, 0, []
1629739391.2346, 126, 0, 4277.949, 4250.256, 4106.154, 4105.128, 4272.308, 450, 0, []
1629739391.2425, 127, 0, 4292.308, 4257.436, 4190.256, 4122.051, 4285.641, 16197, 0, []
1629739391.2503, 128, 0, 4306.667, 4292.821, 4135.385, 4142.051, 4297.436, 450, 0, []
1629739391.2582, 0, 0, 4302.051, 4299.487, 4106.154, 4144.615, 4285.128, 450, 0, []
1629739391.2659, 1, 0, 4282.051, 4253.333, 4182.564, 4131.795, 4264.615, 450, 0, []
1629739391.2738, 2, 0, 4279.487, 4238.974, 4125.641, 4137.436, 4265.641, 16190, 0, []
1629739391.2816, 3, 0, 4285.128, 4266.154, 4126.667, 4156.923, 4282.051, 450, 0, []
1629739391.2896, 4, 0, 4257.436, 4289.231, 4152.821, 4137.949, 4263.077, 16128, 0, []
1629739391.2975, 5, 0, 4227.692, 4287.692, 4101.026, 4102.564, 4230.769, 450, 0, []
1629739391.3054, 6, 0, 4228.205, 4250.256, 4112.308, 4100.513, 4230.769, 16086, 0, []
1629739391.3133, 7, 0, 4233.846, 4225.128, 4117.436, 4110.256, 4238.462, 450, 0, []
1629739391.3213, 8, 0, 4241.026, 4242.564, 4118.974, 4127.179, 4240.513, 450, 0, []
1629739391.3292, 9, 0, 4256.41, 4267.179, 4131.795, 4150.256, 4248.718, 16180, 0, []
1629739391.3372, 10, 0, 4246.667, 4251.795, 4123.077, 4137.949, 4239.487, 450, 0, []
1629739391.345, 11, 0, 4228.718, 4233.846, 4096.41, 4108.205, 4226.667, 16254, 0, []
1629739391.353, 12, 0, 4243.077, 4247.692, 4116.923, 4120, 4240.513, 450, 0, []
1629739391.3609, 13, 0, 4254.872, 4266.154, 4148.718, 4141.538, 4244.615, 450, 0, []
1629739391.3688, 14, 0, 4238.462, 4271.282, 4116.41, 4125.128, 4226.154, 450, 0, []
1629739391.3767, 15, 0, 4216.41, 4266.667, 4106.154, 4102.051, 4214.359, 16254, 0, []
1629739391.3844, 16, 0, 4209.744, 4247.179, 4097.436, 4105.128, 4215.385, 0, 0, []
1629739391.3923, 17, 0, 4224.103, 4225.641, 4112.821, 4129.744, 4225.641, 0, 0, []
1629739391.4001, 18, 0, 4225.128, 4231.795, 4124.615, 4134.359, 4223.077, 0, 0, []
1629739391.408, 19, 0, 4202.051, 4218.974, 4080, 4112.821, 4208.718, 0, 0, []
1629739391.4158, 20, 0, 4197.949, 4199.487, 4098.462, 4119.487, 4214.359, 0, 0, []
1629739391.4236, 21, 0, 4209.231, 4231.282, 4108.718, 4138.462, 4221.026, 0, 0, []
1629739391.4314, 22, 0, 4194.359, 4242.564, 4088.205, 4119.487, 4204.103, 0, 0, []
1629739391.4394, 23, 0, 4182.051, 4223.077, 4087.692, 4097.949, 4195.385, 0, 0, []
1629739391.4473, 24, 0, 4187.692, 4246.154, 4074.359, 4104.615, 4199.487, 0, 0, []
1629739391.4553, 25, 0, 4183.077, 4266.154, 4098.974, 4111.795, 4196.923, 0, 0, []
1629739391.4631, 26, 0, 4184.103, 4243.077, 4089.231, 4110.256, 4198.974, 0, 0, []
1629739391.4711, 27, 0, 4181.538, 4240, 4098.974, 4102.051, 4193.333, 0, 0, []
1629739391.479, 28, 0, 4169.231, 4256.41, 4101.538, 4094.359, 4182.051, 0, 0, []
1629739391.487, 29, 0, 4166.667, 4236.41, 4046.154, 4092.821, 4176.923, 0, 0, []
1629739391.4949, 30, 0, 4163.59, 4209.231, 4099.487, 4086.667, 4168.718, 0, 0, []
1629739391.5027, 31, 0, 4180.513, 4222.051, 4099.487, 4098.974, 4183.59, 0, 0, []
1629739391.5106, 32, 0, 4214.359, 4245.128, 4104.103, 4138.462, 4228.718, 0, 0, []
1629739391.5184, 33, 0, 4224.103, 4236.41, 4156.923, 4149.231, 4240.513, 0, 0, []
1629739391.5264, 34, 0, 4222.051, 4210.256, 4108.718, 4129.231, 4226.154, 0, 0, []
1629739391.5343, 35, 0, 4233.846, 4210.256, 4132.308, 4145.641, 4238.974, 0, 0, []
1629739391.5421, 36, 0, 4233.333, 4221.538, 4145.128, 4163.59, 4251.795, 0, 0, []
1629739391.5499, 37, 0, 4213.846, 4209.744, 4112.308, 4134.872, 4231.795, 0, 0, []
1629739391.5578, 38, 0, 4206.154, 4202.051, 4118.974, 4113.846, 4208.205, 0, 0, []
1629739391.5656, 39, 0, 4185.641, 4200.513, 4090.769, 4106.667, 4190.256, 0, 0, []
1629739391.5735, 40, 0, 4160.513, 4187.692, 4088.205, 4100.513, 4182.564, 0, 0, []
1629739391.5812, 41, 0, 4176.41, 4197.949, 4104.103, 4114.872, 4201.026, 0, 0, []
1629739391.5891, 42, 0, 4198.462, 4224.615, 4100.513, 4132.821, 4218.974, 0, 0, []
1629739391.5969, 43, 0, 4189.744, 4194.359, 4092.308, 4127.179, 4215.897, 0, 0, []
1629739391.6048, 44, 0, 4178.462, 4151.795, 4081.026, 4115.385, 4209.231, 0, 0, []
1629739391.6126, 45, 0, 4185.128, 4168.205, 4094.872, 4114.359, 4207.179, 0, 0, []
1629739391.6206, 46, 0, 4187.179, 4162.564, 4095.897, 4113.846, 4206.154, 0, 0, []
1629739391.6284, 47, 0, 4192.308, 4115.897, 4086.667, 4115.897, 4212.821, 0, 0, []
1629739391.6364, 48, 0, 4214.872, 4132.308, 4106.154, 4133.846, 4227.179, 0, 0, []
1629739391.6443, 49, 0, 4218.974, 4166.154, 4111.795, 4147.179, 4236.923, 0, 0, []
1629739391.6523, 50, 0, 4214.872, 4141.026, 4111.795, 4144.103, 4241.026, 0, 0, []
1629739391.6602, 51, 0, 4227.692, 4145.128, 4113.333, 4144.103, 4249.231, 0, 0, []
1629739391.6681, 52, 0, 4228.718, 4182.051, 4111.282, 4153.333, 4253.333, 0, 0, []
1629739391.676, 53, 0, 4209.744, 4166.154, 4104.103, 4135.385, 4242.564, 0, 0, []
1629739391.684, 54, 0, 4220, 4136.923, 4073.333, 4104.615, 4239.487, 0, 0, []
1629739391.6919, 55, 0, 4268.718, 4159.487, 4081.026, 4120.513, 4272.308, 0, 0, []
1629739391.6997, 56, 0, 4311.795, 4202.051, 4120.513, 4160, 4322.051, 0, 0, []
1629739391.7075, 57, 0, 4340.513, 4200, 4131.282, 4170.256, 4355.385, 0, 0, []
1629739391.7153, 58, 0, 4357.949, 4174.359, 4119.487, 4152.308, 4356.923, 0, 0, []
1629739391.7232, 59, 0, 4358.462, 4173.846, 4086.667, 4118.462, 4335.897, 0, 0, []
1629739391.731, 60, 0, 4366.667, 4187.179, 4080.513, 4106.667, 4335.385, 0, 0, []
1629739391.7389, 61, 0, 4389.231, 4195.897, 4100.513, 4133.333, 4353.846, 0, 0, []
1629739391.7466, 62, 0, 4390.256, 4214.359, 4100, 4150.769, 4345.641, 0, 0, []
1629739391.7546, 63, 0, 4363.59, 4206.667, 4103.59, 4138.974, 4323.077, 0, 0, []
1629739391.7625, 64, 0, 4347.179, 4167.179, 4111.282, 4142.051, 4325.641, 450, 0, []
1629739391.7705, 65, 0, 4346.667, 4169.744, 4124.615, 4162.051, 4330.256, 450, 0, []
1629739391.7784, 66, 0, 4332.308, 4193.846, 4130.256, 4162.564, 4310.769, 16190, 0, []
1629739391.7863, 67, 0, 4309.744, 4182.564, 4107.179, 4146.667, 4291.795, 450, 0, []
1629739391.7942, 68, 0, 4303.077, 4176.923, 4102.051, 4142.051, 4282.051, 16136, 0, []
1629739391.8022, 69, 0, 4296.923, 4200, 4109.231, 4145.641, 4274.872, 450, 0, []
1629739391.8101, 70, 0, 4281.538, 4197.949, 4120.513, 4147.179, 4272.821, 16085, 0, []
1629739391.8181, 71, 0, 4277.436, 4163.077, 4130.256, 4148.205, 4271.795, 450, 0, []
1629739391.8259, 72, 0, 4279.487, 4170.256, 4121.538, 4144.615, 4270.769, 450, 0, []
1629739391.8337, 73, 0, 4273.846, 4208.205, 4126.667, 4138.462, 4271.282, 16180, 0, []
1629739391.8416, 74, 0, 4267.179, 4186.154, 4122.051, 4138.462, 4263.077, 450, 0, []
1629739391.8494, 75, 0, 4260.513, 4147.692, 4118.974, 4151.282, 4261.538, 16219, 0, []
1629739391.8573, 76, 0, 4253.846, 4187.179, 4140, 4168.205, 4276.41, 450, 0, []
1629739391.865, 77, 0, 4262.051, 4226.667, 4144.103, 4173.846, 4290.769, 450, 0, []
1629739391.8729, 78, 0, 4267.692, 4183.59, 4148.718, 4175.897, 4302.051, 450, 0, []
1629739391.8807, 79, 0, 4251.795, 4151.795, 4141.026, 4170.769, 4296.41, 16219, 0, []
1629739391.8886, 80, 0, 4241.538, 4183.077, 4118.462, 4150.256, 4278.462, 450, 0, []
1629739391.8964, 81, 0, 4247.692, 4182.051, 4117.949, 4142.564, 4282.564, 450, 0, []
1629739391.9042, 82, 0, 4229.231, 4141.026, 4112.308, 4152.308, 4280.513, 450, 0, []
1629739391.912, 83, 0, 4190.769, 4138.974, 4107.179, 4144.615, 4249.744, 16219, 0, []
1629739391.92, 84, 0, 4194.359, 4152.821, 4117.436, 4135.897, 4244.103, 450, 0, []
1629739391.9279, 85, 0, 4228.205, 4123.077, 4127.179, 4149.744, 4269.744, 450, 0, []
1629739391.9359, 86, 0, 4227.179, 4097.949, 4130.256, 4150.769, 4260.513, 450, 0, []
1629739391.9438, 87, 0, 4200, 4104.615, 4109.231, 4123.59, 4219.487, 16219, 0, []
1629739391.9517, 88, 0, 4192.821, 4101.538, 4101.538, 4113.333, 4199.487, 450, 0, []
1629739391.9596, 89, 0, 4202.564, 4115.385, 4121.026, 4130.769, 4204.103, 450, 0, []
1629739391.9676, 90, 0, 4210.769, 4132.308, 4132.821, 4135.385, 4201.538, 450, 0, []
1629739391.9755, 91, 0, 4202.051, 4120.513, 4136.923, 4117.436, 4175.897, 16219, 0, []
1629739391.9833, 92, 0, 4181.538, 4120, 4121.026, 4102.051, 4152.308, 450, 0, []
1629739391.9911, 93, 0, 4188.205, 4137.436, 4113.846, 4105.128, 4158.974, 450, 0, []
1629739391.9989, 94, 0, 4213.333, 4126.667, 4120.513, 4113.846, 4173.333, 450, 0, []
1629739392.0068, 95, 0, 4219.487, 4114.872, 4109.744, 4111.795, 4176.41, 16219, 0, []
1629739392.0146, 96, 0, 4210.256, 4142.051, 4105.128, 4103.59, 4171.282, 450, 0, []
1629739392.0225, 97, 0, 4202.564, 4157.436, 4098.462, 4100, 4166.667, 450, 0, []
1629739392.0302, 98, 0, 4208.205, 4154.359, 4109.231, 4115.385, 4182.051, 450, 0, []
1629739392.0381, 99, 0, 4203.077, 4150.256, 4123.077, 4117.949, 4187.692, 16219, 0, []
1629739392.0459, 100, 0, 4172.308, 4139.487, 4103.59, 4094.359, 4158.462, 450, 0, []
1629739392.0538, 101, 0, 4167.179, 4136.923, 4116.923, 4101.026, 4157.436, 450, 0, []
1629739392.0616, 102, 0, 4190.769, 4137.436, 4134.872, 4129.231, 4186.154, 450, 0, []
1629739392.0695, 103, 0, 4192.308, 4140.513, 4123.59, 4128.205, 4175.897, 16219, 0, []
1629739392.0774, 104, 0, 4177.436, 4154.359, 4125.641, 4118.974, 4160, 450, 0, []
1629739392.0854, 105, 0, 4184.615, 4167.692, 4132.821, 4134.359, 4183.59, 450, 0, []
1629739392.0933, 106, 0, 4195.897, 4165.641, 4138.974, 4148.718, 4201.026, 450, 0, []
1629739392.1013, 107, 0, 4169.231, 4143.59, 4114.359, 4125.128, 4176.41, 16219, 0, []
1629739392.1091, 108, 0, 4128.718, 4126.667, 4087.179, 4091.795, 4147.179, 450, 0, []
1629739392.1171, 109, 0, 4142.564, 4158.462, 4112.821, 4106.154, 4163.59, 450, 0, []
1629739392.125, 110, 0, 4182.564, 4198.974, 4142.051, 4141.026, 4197.436, 450, 0, []
1629739392.133, 111, 0, 4166.154, 4181.538, 4136.41, 4129.744, 4183.077, 16219, 0, []
1629739392.1409, 112, 0, 4153.333, 4162.564, 4130.769, 4121.538, 4171.282, 450, 0, []
1629739392.1486, 113, 0, 4205.641, 4187.692, 4160, 4165.128, 4216.41, 450, 0, []
1629739392.1565, 114, 0, 4234.872, 4194.872, 4174.359, 4185.641, 4233.333, 450, 0, []
1629739392.1643, 115, 0, 4197.436, 4173.333, 4128.718, 4150.769, 4192.821, 16219, 0, []
1629739392.1722, 116, 0, 4171.282, 4165.128, 4104.615, 4130.256, 4167.179, 450, 0, []
1629739392.18, 117, 0, 4179.487, 4154.359, 4116.923, 4142.051, 4169.231, 450, 0, []
1629739392.1878, 118, 0, 4180.513, 4132.821, 4124.615, 4148.205, 4170.256, 450, 0, []
1629739392.1956, 119, 0, 4170.256, 4142.564, 4122.564, 4140, 4165.128, 16219, 0, []
1629739392.2035, 120, 0, 4170.256, 4160.513, 4105.128, 4134.872, 4162.051, 450, 0, []
1629739392.2113, 121, 0, 4177.949, 4133.333, 4104.103, 4136.41, 4163.59, 450, 0, []
1629739392.2193, 122, 0, 4189.744, 4116.41, 4116.923, 4143.59, 4170.769, 450, 0, []
1629739392.2271, 123, 0, 4206.154, 4140, 4114.359, 4153.333, 4176.41, 16219, 0, []
1629739392.2351, 124, 0, 4201.538, 4131.282, 4110.256, 4145.128, 4164.615, 450, 0, []
1629739392.243, 125, 0, 4177.436, 4092.821, 4101.026, 4124.615, 4140.513, 450, 0, []
1629739392.251, 126, 0, 4167.692, 4096.923, 4109.744, 4124.103, 4123.59, 450, 0, []
1629739392.2589, 127, 0, 4158.974, 4123.59, 4125.641, 4129.744, 4107.692, 16219, 0, []
1629739392.2668, 128, 0, 4137.949, 4126.667, 4108.718, 4113.846, 4082.564, 450, 0, []
1629739392.2747, 0, 0, 4126.667, 4108.718, 4108.718, 4097.436, 4063.59, 450, 0, []
1629739392.2827, 1, 0, 4127.692, 4087.179, 4117.949, 4097.436, 4057.436, 450, 0, []
1629739392.2906, 2, 0, 4144.615, 4111.282, 4124.103, 4119.487, 4075.385, 16193, 0, []
1629739392.2986, 3, 0, 4184.103, 4177.949, 4155.897, 4162.564, 4118.974, 450, 0, []
1629739392.3065, 4, 0, 4196.41, 4194.872, 4169.231, 4182.051, 4128.205, 16140, 0, []
1629739392.3142, 5, 0, 4170.256, 4171.282, 4152.308, 4162.564, 4096.923, 450, 0, []
1629739392.3221, 6, 0, 4168.718, 4168.205, 4127.179, 4147.692, 4089.744, 16085, 0, []
1629739392.3299, 7, 0, 4180, 4162.564, 4121.538, 4157.949, 4101.026, 450, 0, []
1629739392.3378, 8, 0, 4156.923, 4154.359, 4123.077, 4154.359, 4081.538, 450, 0, []
1629739392.3456, 9, 0, 4150.256, 4179.487, 4109.231, 4138.462, 4069.744, 16180, 0, []
1629739392.3534, 10, 0, 4171.282, 4182.564, 4118.462, 4142.051, 4085.128, 450, 0, []
1629739392.3612, 11, 0, 4150.769, 4135.385, 4113.846, 4137.949, 4071.795, 16211, 0, []
1629739392.3691, 12, 0, 4136.923, 4130.256, 4101.026, 4130.769, 4064.615, 450, 0, []
1629739392.3769, 13, 0, 4188.205, 4184.615, 4137.436, 4157.949, 4108.205, 450, 0, []
1629739392.3849, 14, 0, 4217.949, 4206.667, 4154.359, 4183.59, 4131.282, 450, 0, []
1629739392.3927, 15, 0, 4182.051, 4170.256, 4125.641, 4166.154, 4097.949, 16211, 0, []
1629739392.4007, 16, 0, 4172.308, 4161.538, 4115.385, 4155.385, 4080, 0, 0, []
1629739392.4086, 17, 0, 4203.59, 4190.769, 4135.897, 4180, 4108.718, 0, 0, []
1629739392.4166, 18, 0, 4191.795, 4174.359, 4143.077, 4174.359, 4105.641, 0, 0, []
1629739392.4245, 19, 0, 4156.41, 4157.949, 4118.974, 4145.128, 4071.282, 0, 0, []
1629739392.4324, 20, 0, 4160, 4202.564, 4120, 4145.128, 4072.308, 0, 0, []
1629739392.4403, 21, 0, 4167.692, 4213.846, 4121.026, 4143.59, 4084.615, 0, 0, []
1629739392.4483, 22, 0, 4155.385, 4183.59, 4101.538, 4129.231, 4075.385, 0, 0, []
1629739392.4562, 23, 0, 4161.026, 4196.41, 4118.974, 4139.487, 4080, 0, 0, []
1629739392.464, 24, 0, 4196.41, 4227.179, 4138.462, 4170.256, 4117.949, 0, 0, []
1629739392.4718, 25, 0, 4234.359, 4236.41, 4146.154, 4198.462, 4152.308, 0, 0, []
1629739392.4796, 26, 0, 4243.077, 4235.897, 4151.795, 4211.795, 4157.949, 0, 0, []
1629739392.4875, 27, 0, 4209.231, 4222.564, 4115.897, 4190.256, 4131.795, 0, 0, []
1629739392.4953, 28, 0, 4177.436, 4208.205, 4101.538, 4157.949, 4103.077, 0, 0, []
1629739392.5032, 29, 0, 4195.897, 4223.077, 4123.077, 4163.59, 4118.974, 0, 0, []
1629739392.511, 30, 0, 4220.513, 4238.462, 4106.154, 4181.538, 4146.667, 0, 0, []
1629739392.5189, 31, 0, 4204.615, 4212.308, 4159.487, 4174.872, 4136.41, 0, 0, []
1629739392.5269, 32, 0, 4183.077, 4191.795, 4200, 4155.897, 4111.282, 0, 0, []
1629739392.5349, 33, 0, 4187.692, 4204.615, 4134.359, 4153.846, 4113.846, 0, 0, []
1629739392.5428, 34, 0, 4202.564, 4196.41, 4183.59, 4176.923, 4136.41, 0, 0, []
1629739392.5507, 35, 0, 4204.615, 4180, 4187.179, 4186.667, 4141.538, 0, 0, []
1629739392.5586, 36, 0, 4192.308, 4198.974, 4102.564, 4177.949, 4133.333, 0, 0, []
1629739392.5666, 37, 0, 4183.077, 4208.205, 4114.359, 4176.923, 4135.385, 0, 0, []
1629739392.5745, 38, 0, 4186.667, 4201.026, 4106.154, 4175.897, 4138.974, 0, 0, []
1629739392.5825, 39, 0, 4190.256, 4207.692, 4094.359, 4168.718, 4132.308, 0, 0, []
1629739392.5903, 40, 0, 4189.744, 4232.821, 4096.923, 4173.846, 4129.231, 0, 0, []
1629739392.5983, 41, 0, 4196.923, 4246.154, 4086.667, 4183.59, 4138.462, 0, 0, []
1629739392.6062, 42, 0, 4213.333, 4237.949, 4111.282, 4200, 4157.949, 0, 0, []
1629739392.614, 43, 0, 4224.615, 4252.308, 4147.179, 4222.051, 4175.897, 0, 0, []
1629739392.6219, 44, 0, 4212.821, 4265.128, 4090.769, 4210.769, 4164.615, 0, 0, []
1629739392.6296, 45, 0, 4184.615, 4226.667, 4082.051, 4168.205, 4134.872, 0, 0, []
1629739392.6375, 46, 0, 4178.462, 4206.154, 4128.718, 4152.821, 4130.769, 0, 0, []
1629739392.6453, 47, 0, 4193.333, 4238.974, 4041.026, 4161.538, 4140.513, 0, 0, []
1629739392.6532, 48, 0, 4176.923, 4226.154, 4077.436, 4152.308, 4120.513, 0, 0, []
1629739392.661, 49, 0, 4164.103, 4194.872, 4123.077, 4147.692, 4114.872, 0, 0, []
1629739392.6689, 50, 0, 4201.026, 4206.667, 4066.667, 4172.821, 4153.333, 0, 0, []
1629739392.6766, 51, 0, 4235.897, 4224.615, 4127.179, 4191.795, 4176.923, 0, 0, []
1629739392.6846, 52, 0, 4231.282, 4236.923, 4122.564, 4174.359, 4162.051, 0, 0, []
1629739392.6925, 53, 0, 4222.051, 4229.231, 4088.205, 4149.744, 4150.769, 0, 0, []
1629739392.7005, 54, 0, 4232.308, 4219.487, 4107.179, 4148.205, 4154.872, 0, 0, []
1629739392.7084, 55, 0, 4226.667, 4237.436, 4107.179, 4155.385, 4149.231, 0, 0, []
1629739392.7163, 56, 0, 4224.615, 4243.077, 4129.744, 4177.949, 4161.026, 0, 0, []
1629739392.7242, 57, 0, 4255.385, 4222.564, 4128.718, 4205.128, 4206.154, 0, 0, []
1629739392.7322, 58, 0, 4275.897, 4227.692, 4106.154, 4191.795, 4237.949, 0, 0, []
1629739392.7401, 59, 0, 4281.538, 4230.256, 4079.487, 4156.923, 4253.333, 0, 0, []
1629739392.7481, 60, 0, 4324.103, 4224.615, 4080.513, 4147.179, 4292.821, 0, 0, []
1629739392.7559, 61, 0, 4392.308, 4262.051, 4126.667, 4158.462, 4356.923, 0, 0, []
1629739392.7637, 62, 0, 4433.846, 4290.769, 4137.949, 4166.154, 4412.308, 0, 0, []
1629739392.7716, 63, 0, 4452.821, 4272.308, 4133.333, 4182.564, 4450.256, 0, 0, []
1629739392.7794, 64, 0, 4457.949, 4241.538, 4136.41, 4204.615, 4468.718, 450, 0, []
1629739392.7873, 65, 0, 4449.744, 4222.564, 4136.41, 4227.692, 4481.026, 450, 0, []
1629739392.795, 66, 0, 4445.641, 4220, 4162.564, 4252.821, 4501.538, 16189, 0, []
1629739392.8029, 67, 0, 4448.718, 4241.538, 4179.487, 4267.692, 4526.667, 450, 0, []
1629739392.8107, 68, 0, 4451.282, 4264.615, 4182.051, 4275.897, 4544.615, 16140, 0, []
1629739392.8186, 69, 0, 4435.897, 4266.154, 4172.821, 4271.282, 4534.872, 450, 0, []
1629739392.8264, 70, 0, 4411.795, 4249.231, 4154.872, 4255.897, 4518.462, 16083, 0, []
1629739392.8342, 71, 0, 4381.538, 4211.795, 4149.231, 4232.308, 4500, 450, 0, []
1629739392.842, 72, 0, 4353.333, 4204.615, 4121.538, 4206.154, 4471.282, 450, 0, []
1629739392.85, 73, 0, 4372.308, 4228.205, 4120.513, 4218.974, 4480, 16178, 0, []
1629739392.8579, 74, 0, 4418.974, 4230.256, 4156.923, 4254.872, 4520, 450, 0, []
1629739392.8659, 75, 0, 4422.564, 4227.692, 4152.821, 4251.282, 4530.256, 16201, 0, []
1629739392.8737, 76, 0, 4404.615, 4254.359, 4155.897, 4244.103, 4526.154, 450, 0, []
1629739392.8817, 77, 0, 4414.872, 4266.667, 4169.744, 4267.692, 4536.923, 450, 0, []
1629739392.8896, 78, 0, 4423.077, 4244.103, 4165.128, 4264.103, 4530.769, 450, 0, []
1629739392.8976, 79, 0, 4405.128, 4252.308, 4171.795, 4235.897, 4514.359, 16201, 0, []
1629739392.9055, 80, 0, 4383.59, 4273.846, 4166.667, 4220, 4506.154, 450, 0, []
1629739392.9134, 81, 0, 4393.333, 4270.256, 4160, 4218.462, 4513.333, 450, 0, []
1629739392.9213, 82, 0, 4434.359, 4276.923, 4176.41, 4248.718, 4548.205, 450, 0, []
1629739392.9291, 83, 0, 4431.282, 4275.897, 4184.103, 4269.744, 4551.282, 16201, 0, []
1629739392.937, 84, 0, 4382.564, 4240, 4157.949, 4236.923, 4503.59, 450, 0, []
1629739392.9448, 85, 0, 4363.59, 4226.667, 4123.077, 4207.692, 4474.872, 450, 0, []
1629739392.9526, 86, 0, 4368.205, 4253.333, 4129.231, 4218.462, 4467.692, 450, 0, []
1629739392.9604, 87, 0, 4360.513, 4270.256, 4143.077, 4227.179, 4457.436, 16201, 0, []
1629739392.9683, 88, 0, 4350.769, 4267.179, 4140, 4225.641, 4462.564, 450, 0, []
1629739392.9761, 89, 0, 4344.103, 4250.769, 4144.103, 4230.256, 4461.026, 450, 0, []
1629739392.984, 90, 0, 4341.538, 4246.667, 4143.077, 4239.487, 4443.077, 450, 0, []
1629739392.9918, 91, 0, 4318.974, 4255.897, 4138.462, 4227.692, 4415.385, 16201, 0, []
1629739392.9997, 92, 0, 4293.333, 4255.897, 4139.487, 4215.385, 4395.385, 450, 0, []
1629739393.0076, 93, 0, 4307.692, 4245.641, 4160, 4235.385, 4402.564, 450, 0, []
1629739393.0156, 94, 0, 4302.564, 4233.846, 4183.59, 4230.769, 4390.769, 450, 0, []
1629739393.0235, 95, 0, 4264.103, 4235.897, 4158.974, 4193.333, 4347.692, 16201, 0, []
1629739393.0315, 96, 0, 4266.154, 4262.564, 4147.179, 4195.897, 4336.41, 450, 0, []
1629739393.0393, 97, 0, 4271.282, 4293.846, 4152.821, 4213.333, 4339.487, 450, 0, []
1629739393.0473, 98, 0, 4231.795, 4282.564, 4112.308, 4186.667, 4298.974, 450, 0, []
1629739393.0552, 99, 0, 4225.128, 4249.231, 4104.103, 4175.897, 4274.359, 16201, 0, []
1629739393.0632, 100, 0, 4241.026, 4242.564, 4119.487, 4195.897, 4283.59, 450, 0, []
1629739393.0711, 101, 0, 4204.103, 4249.231, 4102.051, 4172.821, 4253.846, 450, 0, []
1629739393.0789, 102, 0, 4174.872, 4239.487, 4098.462, 4142.564, 4221.026, 450, 0, []
1629739393.0868, 103, 0, 4184.103, 4220.513, 4104.615, 4147.692, 4225.128, 16201, 0, []
1629739393.0946, 104, 0, 4174.872, 4228.205, 4102.564, 4144.615, 4217.949, 450, 0, []
1629739393.1025, 105, 0, 4165.128, 4264.615, 4100, 4137.949, 4204.103, 450, 0, []
1629739393.1103, 106, 0, 4184.103, 4270.769, 4123.077, 4157.949, 4218.462, 450, 0, []
1629739393.1181, 107, 0, 4185.128, 4234.872, 4140.513, 4173.333, 4223.077, 16201, 0, []
1629739393.1259, 108, 0, 4170.769, 4234.359, 4128.205, 4173.846, 4212.308, 450, 0, []
1629739393.1338, 109, 0, 4170.769, 4263.077, 4133.333, 4174.872, 4211.282, 450, 0, []
1629739393.1416, 110, 0, 4153.846, 4231.795, 4118.974, 4152.308, 4185.641, 450, 0, []
1629739393.1495, 111, 0, 4131.795, 4198.462, 4101.026, 4126.154, 4157.436, 16201, 0, []
1629739393.1572, 112, 0, 4148.718, 4226.667, 4129.744, 4139.487, 4175.897, 450, 0, []
1629739393.1652, 113, 0, 4160.513, 4232.821, 4133.333, 4146.154, 4193.333, 450, 0, []
1629739393.1731, 114, 0, 4151.795, 4231.795, 4131.795, 4136.923, 4185.641, 450, 0, []
1629739393.1811, 115, 0, 4160, 4252.821, 4157.949, 4149.744, 4187.692, 16201, 0, []
1629739393.189, 116, 0, 4149.231, 4230.256, 4152.308, 4140.513, 4172.308, 450, 0, []
1629739393.1969, 117, 0, 4123.077, 4214.872, 4138.462, 4111.795, 4152.821, 450, 0, []
1629739393.2048, 118, 0, 4135.897, 4259.487, 4149.744, 4118.462, 4166.154, 450, 0, []
1629739393.2128, 119, 0, 4158.462, 4269.231, 4166.154, 4138.974, 4179.487, 16201, 0, []
1629739393.2207, 120, 0, 4151.795, 4224.615, 4156.41, 4141.026, 4176.41, 450, 0, []
1629739393.2287, 121, 0, 4134.872, 4214.359, 4140, 4135.385, 4168.205, 450, 0, []
1629739393.2365, 122, 0, 4119.487, 4227.692, 4144.103, 4126.154, 4147.692, 450, 0, []
1629739393.2443, 123, 0, 4104.615, 4215.385, 4133.846, 4110.256, 4124.615, 16201, 0, []
1629739393.2522, 124, 0, 4113.333, 4194.359, 4138.462, 4114.872, 4130.769, 450, 0, []
1629739393.26, 125, 0, 4134.872, 4201.026, 4153.333, 4136.41, 4152.308, 450, 0, []
1629739393.2679, 126, 0, 4129.231, 4232.821, 4133.333, 4132.821, 4148.718, 450, 0, []
1629739393.2756, 127, 0, 4106.154, 4225.128, 4125.128, 4114.359, 4129.744, 16201, 0, []
1629739393.2835, 128, 0, 4109.744, 4191.282, 4133.333, 4117.949, 4137.436, 450, 0, []
1629739393.2913, 0, 0, 4120.513, 4206.667, 4131.795, 4125.128, 4155.897, 450, 0, []
1629739393.2992, 1, 0, 4103.59, 4226.154, 4117.949, 4111.282, 4141.538, 450, 0, []
1629739393.307, 2, 0, 4095.385, 4190.769, 4105.641, 4111.795, 4134.872, 16195, 0, []
1629739393.3149, 3, 0, 4099.487, 4163.59, 4105.641, 4121.538, 4143.077, 450, 0, []
1629739393.3228, 4, 0, 4081.026, 4183.077, 4089.744, 4104.615, 4124.615, 16138, 0, []
1629739393.3308, 5, 0, 4076.41, 4193.846, 4099.487, 4093.846, 4114.872, 450, 0, []
1629739393.3387, 6, 0, 4100, 4200, 4136.41, 4115.385, 4137.949, 16086, 0, []
1629739393.3467, 7, 0, 4113.333, 4217.436, 4127.692, 4133.846, 4151.795, 450, 0, []
1629739393.3546, 8, 0, 4107.179, 4211.282, 4120.513, 4127.692, 4144.103, 450, 0, []
1629739393.3625, 9, 0, 4090.769, 4198.462, 4128.718, 4114.359, 4129.231, 16178, 0, []
1629739393.3704, 10, 0, 4096.41, 4211.795, 4103.59, 4118.462, 4137.436, 450, 0, []
1629739393.3784, 11, 0, 4129.231, 4230.256, 4134.872, 4137.949, 4177.436, 16209, 0, []
1629739393.3863, 12, 0, 4142.051, 4218.462, 4166.154, 4141.026, 4204.615, 450, 0, []
1629739393.3941, 13, 0, 4133.333, 4194.359, 4104.103, 4131.795, 4201.026, 450, 0, []
1629739393.4019, 14, 0, 4135.385, 4197.436, 4135.385, 4132.308, 4199.487, 450, 0, []
1629739393.4097, 15, 0, 4141.026, 4220.513, 4158.462, 4135.897, 4202.564, 16209, 0, []
1629739393.4176, 16, 0, 4138.462, 4222.564, 4113.846, 4142.051, 4205.641, 0, 0, []
1629739393.4254, 17, 0, 4125.128, 4195.897, 4145.641, 4140, 4201.538, 0, 0, []
1629739393.4333, 18, 0, 4100.513, 4194.872, 4129.744, 4120.513, 4184.615, 0, 0, []
1629739393.441, 19, 0, 4102.564, 4207.179, 4124.103, 4122.564, 4186.667, 0, 0, []
1629739393.4489, 20, 0, 4138.462, 4201.538, 4157.949, 4153.846, 4213.333, 0, 0, []
1629739393.4567, 21, 0, 4130.769, 4195.385, 4137.949, 4146.154, 4202.564, 0, 0, []
1629739393.4647, 22, 0, 4092.821, 4202.051, 4127.179, 4112.308, 4171.282, 0, 0, []
1629739393.4726, 23, 0, 4110.256, 4214.872, 4148.718, 4135.897, 4189.231, 0, 0, []
1629739393.4805, 24, 0, 4141.026, 4210.256, 4178.974, 4169.744, 4212.308, 0, 0, []
1629739393.4884, 25, 0, 4125.641, 4198.974, 4149.744, 4150.769, 4195.385, 0, 0, []
1629739393.4964, 26, 0, 4108.718, 4187.179, 4125.641, 4126.154, 4178.974, 0, 0, []
1629739393.5043, 27, 0, 4108.718, 4174.872, 4131.282, 4127.179, 4175.385, 0, 0, []
1629739393.5122, 28, 0, 4096.923, 4167.692, 4114.872, 4123.59, 4156.923, 0, 0, []
1629739393.52, 29, 0, 4094.872, 4180.513, 4115.385, 4125.128, 4152.821, 0, 0, []
1629739393.5278, 30, 0, 4118.974, 4221.026, 4115.897, 4144.103, 4181.538, 0, 0, []
1629739393.5358, 31, 0, 4126.667, 4232.308, 4133.333, 4148.205, 4187.692, 0, 0, []
1629739393.5437, 32, 0, 4117.436, 4202.051, 4132.308, 4139.487, 4170.256, 0, 0, []
1629739393.5516, 33, 0, 4125.641, 4196.41, 4117.949, 4147.179, 4186.667, 0, 0, []
1629739393.5593, 34, 0, 4151.795, 4222.564, 4146.154, 4161.026, 4221.538, 0, 0, []
1629739393.5672, 35, 0, 4161.026, 4229.231, 4142.051, 4157.436, 4218.974, 0, 0, []
1629739393.575, 36, 0, 4149.744, 4210.769, 4140, 4153.333, 4198.462, 0, 0, []
1629739393.5829, 37, 0, 4151.795, 4195.385, 4147.179, 4162.051, 4201.026, 0, 0, []
1629739393.5907, 38, 0, 4154.872, 4197.436, 4133.846, 4163.077, 4207.179, 0, 0, []
1629739393.5985, 39, 0, 4135.385, 4199.487, 4137.436, 4147.179, 4196.923, 0, 0, []
1629739393.6063, 40, 0, 4125.128, 4187.692, 4120, 4136.923, 4191.282, 0, 0, []
1629739393.6143, 41, 0, 4133.846, 4188.205, 4124.103, 4144.103, 4195.385, 0, 0, []
1629739393.6222, 42, 0, 4140.513, 4202.564, 4138.974, 4153.846, 4203.59, 0, 0, []
1629739393.6302, 43, 0, 4156.923, 4211.282, 4134.359, 4165.641, 4218.974, 0, 0, []
1629739393.638, 44, 0, 4165.128, 4211.282, 4161.538, 4173.846, 4221.026, 0, 0, []
1629739393.646, 45, 0, 4144.615, 4208.205, 4154.872, 4161.538, 4198.462, 0, 0, []
1629739393.6539, 46, 0, 4137.949, 4204.103, 4146.667, 4158.462, 4194.872, 0, 0, []
1629739393.6619, 47, 0, 4158.462, 4216.41, 4160, 4178.462, 4218.974, 0, 0, []
1629739393.6698, 48, 0, 4164.615, 4230.769, 4138.974, 4180.513, 4215.385, 0, 0, []
1629739393.6777, 49, 0, 4145.128, 4224.103, 4137.949, 4155.385, 4183.59, 0, 0, []
1629739393.6856, 50, 0, 4134.872, 4226.154, 4130.256, 4146.154, 4174.872, 0, 0, []
1629739393.6936, 51, 0, 4146.154, 4228.718, 4120.513, 4156.41, 4186.154, 0, 0, []
1629739393.7015, 52, 0, 4153.846, 4214.872, 4126.667, 4156.41, 4181.538, 0, 0, []
1629739393.7093, 53, 0, 4151.795, 4215.897, 4116.41, 4152.308, 4178.462, 0, 0, []
1629739393.7172, 54, 0, 4149.231, 4238.462, 4134.872, 4152.308, 4185.128, 0, 0, []
1629739393.7249, 55, 0, 4150.769, 4244.615, 4129.744, 4144.615, 4183.077, 0, 0, []
1629739393.7328, 56, 0, 4164.615, 4233.333, 4124.103, 4145.641, 4191.795, 0, 0, []
1629739393.7406, 57, 0, 4187.179, 4239.487, 4147.692, 4163.077, 4212.821, 0, 0, []
1629739393.7485, 58, 0, 4187.692, 4235.897, 4128.205, 4166.667, 4212.821, 0, 0, []
1629739393.7563, 59, 0, 4172.821, 4215.385, 4137.436, 4156.923, 4201.026, 0, 0, []
1629739393.7641, 60, 0, 4164.615, 4218.462, 4147.179, 4151.795, 4198.462, 0, 0, []
1629739393.7719, 61, 0, 4162.564, 4241.026, 4128.718, 4145.641, 4197.436, 0, 0, []
1629739393.7798, 62, 0, 4167.692, 4235.897, 4134.872, 4145.641, 4196.41, 0, 0, []
1629739393.7876, 63, 0, 4177.436, 4208.718, 4127.179, 4158.974, 4200, 0, 0, []
1629739393.7956, 64, 0, 4188.205, 4221.026, 4148.205, 4175.385, 4206.667, 450, 0, []
1629739393.8034, 65, 0, 4195.385, 4254.359, 4159.487, 4174.359, 4209.744, 450, 0, []
1629739393.8114, 66, 0, 4187.692, 4241.026, 4130.256, 4153.333, 4203.59, 16165, 0, []
1629739393.8193, 67, 0, 4175.897, 4203.077, 4129.744, 4143.077, 4196.923, 450, 0, []
1629739393.8273, 68, 0, 4182.051, 4215.897, 4123.077, 4147.179, 4197.436, 16136, 0, []
1629739393.8352, 69, 0, 4194.872, 4247.179, 4127.179, 4143.077, 4202.051, 450, 0, []
1629739393.8431, 70, 0, 4204.103, 4232.821, 4132.821, 4142.564, 4208.718, 16085, 0, []
1629739393.851, 71, 0, 4216.41, 4230.769, 4125.641, 4154.359, 4217.436, 450, 0, []
1629739393.859, 72, 0, 4232.821, 4269.744, 4142.564, 4158.974, 4233.846, 450, 0, []
1629739393.8669, 73, 0, 4252.821, 4281.538, 4129.744, 4153.333, 4256.41, 16178, 0, []
1629739393.8747, 74, 0, 4274.872, 4254.359, 4129.231, 4152.308, 4274.359, 450, 0, []
1629739393.8825, 75, 0, 4302.051, 4265.641, 4138.974, 4150.256, 4302.051, 16208, 0, []
1629739393.8903, 76, 0, 4330.769, 4286.667, 4118.974, 4144.103, 4335.385, 450, 0, []
1629739393.8982, 77, 0, 4361.026, 4264.615, 4128.718, 4148.718, 4353.333, 450, 0, []
1629739393.906, 78, 0, 4388.718, 4258.974, 4132.821, 4162.564, 4367.179, 450, 0, []
1629739393.9139, 79, 0, 4391.795, 4282.051, 4137.436, 4163.077, 4380, 16208, 0, []
1629739393.9216, 80, 0, 4382.051, 4274.359, 4130.256, 4151.282, 4371.282, 450, 0, []
1629739393.9296, 81, 0, 4377.436, 4246.154, 4126.154, 4151.282, 4351.795, 450, 0, []
1629739393.9375, 82, 0, 4364.103, 4250.256, 4136.41, 4157.949, 4343.077, 450, 0, []
1629739393.9455, 83, 0, 4339.487, 4257.436, 4108.205, 4153.333, 4336.41, 16208, 0, []
1629739393.9534, 84, 0, 4326.154, 4255.385, 4138.462, 4153.333, 4320, 450, 0, []
1629739393.9613, 85, 0, 4318.462, 4268.205, 4141.026, 4153.333, 4301.026, 450, 0, []
1629739393.9692, 86, 0, 4296.923, 4257.949, 4122.564, 4143.59, 4284.103, 450, 0, []
1629739393.9772, 87, 0, 4270.769, 4233.846, 4138.462, 4137.436, 4264.103, 16208, 0, []
1629739393.9851, 88, 0, 4254.872, 4244.615, 4085.128, 4134.872, 4244.615, 450, 0, []
1629739393.9931, 89, 0, 4243.59, 4268.205, 4157.436, 4141.026, 4231.795, 450, 0, []
1629739394.0009, 90, 0, 4236.41, 4266.667, 4192.821, 4152.821, 4229.231, 450, 0, []
1629739394.0087, 91, 0, 4230.769, 4251.282, 4085.641, 4156.923, 4227.692, 16208, 0, []
1629739394.0166, 92, 0, 4215.897, 4242.564, 4123.59, 4156.41, 4213.333, 450, 0, []
1629739394.0244, 93, 0, 4203.59, 4254.872, 4139.487, 4148.205, 4200.513, 450, 0, []
1629739394.0323, 94, 0, 4196.41, 4272.308, 4113.333, 4130.769, 4195.897, 450, 0, []
1629739394.04, 95, 0, 4187.179, 4262.051, 4140, 4130.769, 4186.667, 16208, 0, []
1629739394.0479, 96, 0, 4181.026, 4253.333, 4130.769, 4148.718, 4181.026, 450, 0, []
1629739394.0557, 97, 0, 4180, 4275.385, 4145.128, 4158.462, 4183.59, 450, 0, []
1629739394.0636, 98, 0, 4177.436, 4280.513, 4143.077, 4153.846, 4177.949, 450, 0, []
1629739394.0714, 99, 0, 4157.949, 4230.769, 4118.462, 4136.41, 4152.308, 16208, 0, []
1629739394.0794, 100, 0, 4136.923, 4201.026, 4119.487, 4123.59, 4133.333, 450, 0, []
1629739394.0872, 101, 0, 4139.487, 4235.897, 4126.154, 4126.667, 4141.026, 450, 0, []
1629739394.0952, 102, 0, 4154.872, 4252.308, 4143.59, 4139.487, 4157.436, 450, 0, []
1629739394.1031, 103, 0, 4157.949, 4226.154, 4142.564, 4148.718, 4154.359, 16208, 0, []
1629739394.1111, 104, 0, 4148.205, 4233.846, 4140, 4140, 4134.359, 450, 0, []
1629739394.119, 105, 0, 4134.359, 4266.154, 4142.051, 4130.256, 4123.59, 450, 0, []
1629739394.1269, 106, 0, 4122.051, 4256.41, 4120.513, 4132.821, 4117.949, 450, 0, []
1629739394.1348, 107, 0, 4121.538, 4239.487, 4116.923, 4129.744, 4110.769, 16208, 0, []
1629739394.1428, 108, 0, 4122.564, 4238.462, 4118.462, 4114.359, 4106.667, 450, 0, []
1629739394.1507, 109, 0, 4123.077, 4229.231, 4111.282, 4113.846, 4113.846, 450, 0, []
1629739394.1586, 110, 0, 4133.333, 4230.256, 4125.128, 4126.667, 4128.205, 450, 0, []
1629739394.1664, 111, 0, 4144.103, 4253.333, 4131.282, 4133.333, 4136.41, 16208, 0, []
1629739394.1742, 112, 0, 4144.103, 4278.462, 4135.897, 4143.077, 4136.41, 450, 0, []
1629739394.1821, 113, 0, 4135.897, 4278.974, 4142.564, 4143.077, 4130.256, 450, 0, []
1629739394.1899, 114, 0, 4123.077, 4262.564, 4124.615, 4121.538, 4118.462, 450, 0, []
1629739394.1978, 115, 0, 4112.821, 4251.795, 4108.718, 4107.179, 4104.103, 16208, 0, []
1629739394.2055, 116, 0, 4113.333, 4243.59, 4114.359, 4113.846, 4100, 450, 0, []
1629739394.2134, 117, 0, 4116.923, 4233.333, 4128.718, 4125.128, 4113.333, 450, 0, []
1629739394.2212, 118, 0, 4126.154, 4237.436, 4132.308, 4131.795, 4125.128, 450, 0, []
1629739394.2291, 119, 0, 4133.846, 4249.744, 4125.128, 4131.795, 4121.538, 16208, 0, []
1629739394.2369, 120, 0, 4127.179, 4261.026, 4126.154, 4123.077, 4109.231, 450, 0, []
1629739394.2448, 121, 0, 4112.821, 4265.128, 4117.436, 4114.359, 4089.744, 450, 0, []
1629739394.2527, 122, 0, 4115.385, 4255.897, 4117.949, 4118.462, 4082.051, 450, 0, []
1629739394.2607, 123, 0, 4134.872, 4250.256, 4141.538, 4131.795, 4097.949, 16208, 0, []
1629739394.2686, 124, 0, 4136.41, 4264.103, 4126.154, 4137.436, 4109.231, 450, 0, []
1629739394.2766, 125, 0, 4126.667, 4262.051, 4106.667, 4139.487, 4105.641, 450, 0, []
1629739394.2844, 126, 0, 4132.308, 4243.077, 4130.769, 4143.077, 4108.718, 450, 0, []
1629739394.2924, 127, 0, 4138.974, 4249.744, 4134.872, 4140.513, 4112.821, 16208, 0, []
1629739394.3003, 128, 0, 4128.718, 4269.231, 4128.205, 4133.846, 4107.179, 450, 0, []
1629739394.3083, 0, 0, 4117.949, 4268.205, 4134.872, 4129.231, 4103.59, 450, 0, []
1629739394.3162, 1, 0, 4125.641, 4242.564, 4145.641, 4131.282, 4104.103, 450, 0, []
1629739394.3239, 2, 0, 4137.436, 4234.359, 4163.077, 4139.487, 4111.282, 16182, 0, []
1629739394.3318, 3, 0, 4143.077, 4262.564, 4149.744, 4143.59, 4119.487, 450, 0, []
1629739394.3396, 4, 0, 4137.949, 4268.718, 4133.846, 4135.385, 4113.846, 16136, 0, []
1629739394.3475, 5, 0, 4124.103, 4240, 4126.667, 4121.538, 4101.538, 450, 0, []
1629739394.3553, 6, 0, 4117.436, 4241.026, 4124.103, 4122.564, 4104.103, 16116, 0, []
1629739394.3631, 7, 0, 4128.205, 4273.333, 4144.615, 4134.359, 4110.769, 450, 0, []
1629739394.3709, 8, 0, 4136.923, 4271.795, 4132.308, 4133.333, 4107.179, 450, 0, []
1629739394.3788, 9, 0, 4132.821, 4253.333, 4126.667, 4122.564, 4109.231, 16177, 0, []
1629739394.3866, 10, 0, 4133.333, 4264.103, 4142.051, 4121.026, 4113.846, 450, 0, []
1629739394.3946, 11, 0, 4141.026, 4273.846, 4146.667, 4130.769, 4113.846, 16204, 0, []
1629739394.4025, 12, 0, 4141.538, 4249.231, 4150.256, 4136.923, 4111.282, 450, 0, []
1629739394.4104, 13, 0, 4138.974, 4229.231, 4131.795, 4140.513, 4115.385, 450, 0, []
1629739394.4183, 14, 0, 4138.974, 4242.564, 4136.41, 4139.487, 4117.949, 450, 0, []
1629739394.4263, 15, 0, 4139.487, 4265.128, 4140.513, 4136.923, 4113.846, 16204, 0, []
1629739394.4342, 16, 0, 4141.026, 4257.436, 4127.179, 4141.026, 4112.308, 0, 0, []
1629739394.4422, 17, 0, 4135.385, 4218.974, 4128.718, 4138.462, 4107.692, 0, 0, []
1629739394.45, 18, 0, 4137.436, 4216.41, 4115.385, 4132.821, 4106.154, 0, 0, []
1629739394.458, 19, 0, 4153.333, 4257.949, 4130.769, 4140.513, 4114.872, 0, 0, []
1629739394.4659, 20, 0, 4152.821, 4275.897, 4139.487, 4147.179, 4116.923, 0, 0, []
1629739394.4737, 21, 0, 4137.436, 4250.769, 4125.641, 4142.051, 4109.231, 0, 0, []
1629739394.4816, 22, 0, 4133.333, 4226.154, 4133.333, 4141.026, 4110.256, 0, 0, []
1629739394.4893, 23, 0, 4144.103, 4231.282, 4125.128, 4150.256, 4132.821, 0, 0, []
1629739394.4972, 24, 0, 4151.795, 4245.128, 4130.769, 4158.974, 4153.333, 0, 0, []
1629739394.505, 25, 0, 4153.333, 4254.872, 4129.231, 4156.923, 4156.923, 0, 0, []
1629739394.5129, 26, 0, 4151.282, 4266.154, 4123.077, 4148.205, 4153.846, 0, 0, []
1629739394.5208, 27, 0, 4143.077, 4255.385, 4128.718, 4145.641, 4147.179, 0, 0, []
1629739394.5286, 28, 0, 4135.897, 4232.821, 4103.077, 4149.231, 4136.41, 0, 0, []
1629739394.5364, 29, 0, 4135.897, 4251.282, 4106.667, 4155.385, 4128.718, 0, 0, []
1629739394.5443, 30, 0, 4135.385, 4274.359, 4109.744, 4158.974, 4123.077, 0, 0, []
1629739394.5521, 31, 0, 4132.821, 4235.897, 4100.513, 4163.077, 4121.026, 0, 0, []
1629739394.5601, 32, 0, 4144.103, 4208.718, 4131.795, 4177.436, 4134.359, 0, 0, []
1629739394.5679, 33, 0, 4152.821, 4242.051, 4129.744, 4188.718, 4141.538, 0, 0, []
1629739394.5759, 34, 0, 4138.974, 4249.744, 4115.385, 4184.615, 4126.667, 0, 0, []
1629739394.5838, 35, 0, 4130.769, 4227.179, 4114.359, 4182.051, 4123.59, 0, 0, []
1629739394.5918, 36, 0, 4147.179, 4230.769, 4117.949, 4192.821, 4136.923, 0, 0, []
1629739394.5997, 37, 0, 4154.872, 4230.256, 4138.462, 4200.513, 4138.462, 0, 0, []
1629739394.6076, 38, 0, 4152.308, 4205.128, 4125.128, 4194.872, 4135.385, 0, 0, []
1629739394.6155, 39, 0, 4160.513, 4212.821, 4128.205, 4190.769, 4141.538, 0, 0, []
1629739394.6235, 40, 0, 4161.538, 4255.897, 4141.026, 4187.692, 4143.077, 0, 0, []
1629739394.6314, 41, 0, 4152.821, 4256.923, 4127.692, 4184.615, 4136.923, 0, 0, []
1629739394.6392, 42, 0, 4154.359, 4238.462, 4140, 4191.795, 4133.846, 0, 0, []
1629739394.647, 43, 0, 4165.641, 4266.667, 4134.872, 4199.487, 4135.385, 0, 0, []
1629739394.6548, 44, 0, 4174.359, 4298.462, 4136.41, 4203.59, 4142.051, 0, 0, []
1629739394.6627, 45, 0, 4182.564, 4287.692, 4147.179, 4207.179, 4151.282, 0, 0, []
1629739394.6705, 46, 0, 4188.718, 4260.513, 4147.692, 4208.718, 4159.487, 0, 0, []
1629739394.6784, 47, 0, 4184.615, 4247.179, 4169.231, 4205.641, 4161.026, 0, 0, []
1629739394.6861, 48, 0, 4175.897, 4242.051, 4145.641, 4194.359, 4150.256, 0, 0, []
1629739394.694, 49, 0, 4166.154, 4250.769, 4124.615, 4185.641, 4137.436, 0, 0, []
1629739394.7018, 50, 0, 4164.103, 4261.026, 4133.846, 4186.154, 4134.872, 0, 0, []
1629739394.7098, 51, 0, 4173.333, 4251.282, 4117.949, 4193.846, 4142.564, 0, 0, []
1629739394.7177, 52, 0, 4183.59, 4259.487, 4124.615, 4203.59, 4147.179, 0, 0, []
1629739394.7256, 53, 0, 4190.769, 4284.615, 4126.154, 4206.667, 4153.333, 0, 0, []
1629739394.7335, 54, 0, 4192.308, 4267.692, 4133.333, 4204.615, 4157.436, 0, 0, []
1629739394.7415, 55, 0, 4180, 4234.359, 4147.179, 4199.487, 4146.154, 0, 0, []
1629739394.7494, 56, 0, 4167.179, 4254.359, 4123.59, 4195.385, 4127.692, 0, 0, []
1629739394.7574, 57, 0, 4162.051, 4285.641, 4127.692, 4192.821, 4123.077, 0, 0, []
1629739394.7653, 58, 0, 4164.615, 4267.692, 4127.179, 4194.872, 4131.282, 0, 0, []
1629739394.7732, 59, 0, 4176.923, 4248.205, 4120.513, 4202.564, 4139.487, 0, 0, []
1629739394.7811, 60, 0, 4185.641, 4265.641, 4131.795, 4204.615, 4142.051, 0, 0, []
1629739394.7889, 61, 0, 4189.231, 4277.436, 4111.795, 4198.462, 4142.051, 0, 0, []
1629739394.7968, 62, 0, 4196.923, 4251.795, 4122.051, 4194.872, 4147.692, 0, 0, []
1629739394.8046, 63, 0, 4200.513, 4241.026, 4127.179, 4194.359, 4153.333, 0, 0, []
1629739394.8124, 64, 0, 4187.692, 4249.744, 4106.154, 4186.667, 4145.128, 450, 0, []
1629739394.8202, 65, 0, 4176.923, 4245.641, 4112.308, 4177.436, 4132.821, 450, 0, []
1629739394.8281, 66, 0, 4183.077, 4261.538, 4105.641, 4178.974, 4134.359, 16188, 0, []
1629739394.8359, 67, 0, 4198.462, 4289.744, 4115.897, 4192.308, 4151.282, 450, 0, []
1629739394.8438, 68, 0, 4209.744, 4268.718, 4114.872, 4200.513, 4165.128, 16138, 0, []
1629739394.8515, 69, 0, 4214.359, 4251.795, 4097.949, 4196.923, 4174.359, 450, 0, []
1629739394.8595, 70, 0, 4231.282, 4280.513, 4120.513, 4198.462, 4194.359, 16089, 0, []
1629739394.8674, 71, 0, 4263.077, 4295.385, 4123.59, 4203.59, 4218.974, 450, 0, []
1629739394.8753, 72, 0, 4288.718, 4286.667, 4127.692, 4196.923, 4239.487, 450, 0, []
1629739394.8831, 73, 0, 4311.795, 4278.462, 4128.205, 4189.744, 4274.359, 16177, 0, []
1629739394.891, 74, 0, 4348.718, 4286.667, 4121.026, 4204.103, 4315.897, 450, 0, []
1629739394.8989, 75, 0, 4369.744, 4286.154, 4138.462, 4208.205, 4325.128, 16204, 0, []
1629739394.9069, 76, 0, 4353.333, 4252.308, 4109.744, 4183.077, 4312.821, 450, 0, []
1629739394.9148, 77, 0, 4343.59, 4248.718, 4105.128, 4177.949, 4309.744, 450, 0, []
1629739394.9228, 78, 0, 4349.744, 4290.256, 4134.872, 4195.897, 4298.974, 450, 0, []
1629739394.9306, 79, 0, 4337.949, 4297.436, 4125.641, 4192.821, 4284.615, 16204, 0, []
1629739394.9386, 80, 0, 4318.462, 4274.872, 4128.718, 4187.179, 4285.128, 450, 0, []
1629739394.9465, 81, 0, 4322.051, 4294.872, 4126.667, 4203.077, 4284.615, 450, 0, []
1629739394.9543, 82, 0, 4326.667, 4312.821, 4141.026, 4221.026, 4281.026, 450, 0, []
1629739394.9622, 83, 0, 4315.385, 4282.564, 4154.872, 4229.231, 4284.103, 16204, 0, []
1629739394.9699, 84, 0, 4296.923, 4263.59, 4128.718, 4223.077, 4269.231, 450, 0, []
1629739394.9778, 85, 0, 4277.436, 4275.385, 4134.872, 4207.692, 4240, 450, 0, []
1629739394.9856, 86, 0, 4267.692, 4263.077, 4134.872, 4208.718, 4233.333, 450, 0, []
1629739394.9935, 87, 0, 4261.538, 4233.333, 4137.949, 4217.949, 4233.333, 16204, 0, []
1629739395.0013, 88, 0, 4247.179, 4253.333, 4154.359, 4208.205, 4216.41, 450, 0, []
1629739395.0091, 89, 0, 4235.897, 4286.667, 4135.385, 4196.923, 4203.59, 450, 0, []
1629739395.0169, 90, 0, 4229.744, 4250.769, 4139.487, 4204.615, 4198.462, 450, 0, []
1629739395.0249, 91, 0, 4221.026, 4210.256, 4132.308, 4210.769, 4188.205, 16204, 0, []
1629739395.0328, 92, 0, 4212.308, 4244.615, 4121.538, 4210.769, 4174.872, 450, 0, []
1629739395.0408, 93, 0, 4207.179, 4276.923, 4135.385, 4206.154, 4167.179, 450, 0, []
1629739395.0486, 94, 0, 4206.667, 4237.436, 4120, 4192.308, 4168.718, 450, 0, []
1629739395.0566, 95, 0, 4211.282, 4213.333, 4127.692, 4186.154, 4169.744, 16204, 0, []
1629739395.0645, 96, 0, 4218.462, 4257.436, 4131.795, 4191.282, 4169.744, 450, 0, []
1629739395.0725, 97, 0, 4215.897, 4277.436, 4124.103, 4188.718, 4171.282, 450, 0, []
1629739395.0804, 98, 0, 4201.026, 4241.026, 4127.179, 4172.821, 4163.59, 450, 0, []
1629739395.0883, 99, 0, 4185.641, 4226.154, 4102.564, 4151.282, 4146.667, 16204, 0, []
1629739395.0962, 100, 0, 4178.462, 4246.154, 4102.051, 4137.436, 4140.513, 450, 0, []
1629739395.1041, 101, 0, 4187.179, 4254.872, 4104.103, 4144.103, 4148.718, 450, 0, []
1629739395.112, 102, 0, 4205.128, 4263.077, 4109.744, 4166.667, 4164.615, 450, 0, []
1629739395.1198, 103, 0, 4206.154, 4282.564, 4132.308, 4176.41, 4167.179, 16204, 0, []
1629739395.1277, 104, 0, 4193.846, 4288.205, 4114.872, 4168.718, 4156.41, 450, 0, []
1629739395.1354, 105, 0, 4194.872, 4273.846, 4129.231, 4172.308, 4163.077, 450, 0, []
1629739395.1433, 106, 0, 4194.359, 4258.974, 4150.256, 4180.513, 4169.231, 450, 0, []
1629739395.1511, 107, 0, 4183.077, 4253.846, 4141.026, 4181.026, 4160, 16204, 0, []
1629739395.159, 108, 0, 4182.564, 4243.59, 4149.231, 4189.231, 4162.051, 450, 0, []
1629739395.1668, 109, 0, 4193.846, 4234.359, 4132.821, 4194.359, 4175.897, 450, 0, []
1629739395.1746, 110, 0, 4187.692, 4265.641, 4131.795, 4194.872, 4168.718, 450, 0, []
1629739395.1824, 111, 0, 4172.821, 4319.487, 4138.974, 4200, 4153.846, 16204, 0, []
1629739395.1904, 112, 0, 4176.923, 4344.615, 4119.487, 4189.744, 4151.282, 450, 0, []
1629739395.1983, 113, 0, 4187.692, 4357.436, 4114.359, 4163.077, 4138.974, 450, 0, []
1629739395.2063, 114, 0, 4175.385, 4362.564, 4107.692, 4144.615, 4116.41, 450, 0, []
1629739395.2141, 115, 0, 4162.051, 4362.564, 4128.205, 4150.769, 4110.256, 16204, 0, []
1629739395.2221, 116, 0, 4175.385, 4396.41, 4121.538, 4163.077, 4124.615, 450, 0, []
1629739395.23, 117, 0, 4178.974, 4411.795, 4101.026, 4160, 4126.667, 450, 0, []
1629739395.238, 118, 0, 4166.154, 4385.128, 4122.051, 4150.769, 4122.051, 450, 0, []
1629739395.2459, 119, 0, 4174.359, 4417.949, 4108.205, 4155.385, 4143.077, 16204, 0, []
1629739395.2538, 120, 0, 4197.949, 4477.949, 4124.103, 4167.692, 4158.462, 450, 0, []
1629739395.2617, 121, 0, 4201.538, 4457.949, 4122.051, 4160.513, 4144.103, 450, 0, []
1629739395.2695, 122, 0, 4183.077, 4432.821, 4097.949, 4145.128, 4128.205, 450, 0, []
1629739395.2774, 123, 0, 4175.897, 4463.077, 4126.154, 4144.103, 4126.154, 16204, 0, []
1629739395.2852, 124, 0, 4182.564, 4468.718, 4100, 4149.231, 4128.718, 450, 0, []
1629739395.293, 125, 0, 4185.128, 4434.359, 4114.359, 4156.923, 4136.923, 450, 0, []
1629739395.3008, 126, 0, 4181.026, 4425.641, 4136.923, 4158.462, 4140, 450, 0, []
1629739395.3087, 127, 0, 4169.231, 4444.103, 4102.051, 4150.769, 4125.128, 16204, 0, []
1629739395.3165, 128, 0, 4158.974, 4446.667, 4123.59, 4150.769, 4114.872, 450, 0, []
1629739395.3245, 0, 0, 4150.256, 4429.744, 4098.462, 4147.179, 4112.308, 450, 0, []
1629739395.3323, 1, 0, 4141.026, 4424.103, 4100.513, 4131.282, 4102.051, 450, 0, []
1629739395.3402, 2, 0, 4155.385, 4447.179, 4140, 4138.974, 4112.308, 16188, 0, []
1629739395.348, 3, 0, 4179.487, 4453.846, 4108.718, 4163.59, 4131.795, 450, 0, []
1629739395.356, 4, 0, 4170.769, 4437.436, 4120, 4166.667, 4125.128, 16138, 0, []
1629739395.3639, 5, 0, 4151.282, 4438.974, 4116.923, 4152.308, 4111.282, 450, 0, []
1629739395.3718, 6, 0, 4152.308, 4452.308, 4096.923, 4144.615, 4113.846, 16088, 0, []
1629739395.3797, 7, 0, 4154.872, 4434.872, 4106.154, 4144.615, 4118.462, 450, 0, []
1629739395.3877, 8, 0, 4158.462, 4403.59, 4100, 4146.667, 4120.513, 450, 0, []
1629739395.3956, 9, 0, 4172.821, 4412.308, 4123.077, 4151.795, 4133.333, 16177, 0, []
1629739395.4035, 10, 0, 4185.641, 4422.564, 4130.769, 4158.462, 4147.692, 450, 0, []
1629739395.4113, 11, 0, 4184.103, 4405.128, 4124.103, 4165.641, 4150.256, 16203, 0, []
1629739395.4191, 12, 0, 4172.821, 4401.026, 4124.615, 4169.744, 4144.615, 450, 0, []
1629739395.427, 13, 0, 4170.769, 4408.718, 4111.795, 4168.205, 4141.538, 450, 0, []
1629739395.4348, 14, 0, 4176.41, 4412.308, 4118.974, 4163.077, 4142.564, 450, 0, []
1629739395.4427, 15, 0, 4171.795, 4415.385, 4115.385, 4162.051, 4139.487, 16203, 0, []
1629739395.4505, 16, 0, 4166.667, 4403.077, 4107.179, 4167.692, 4137.949, 0, 0, []
1629739395.4583, 17, 0, 4175.385, 4394.359, 4112.821, 4169.744, 4137.436, 0, 0, []
1629739395.4661, 18, 0, 4186.154, 4404.615, 4106.154, 4167.179, 4138.974, 0, 0, []
1629739395.474, 19, 0, 4181.026, 4392.821, 4112.821, 4163.077, 4142.564, 0, 0, []
1629739395.4818, 20, 0, 4169.231, 4371.795, 4107.692, 4159.487, 4137.949, 0, 0, []
1629739395.4898, 21, 0, 4173.846, 4376.923, 4098.462, 4168.205, 4134.872, 0, 0, []
1629739395.4976, 22, 0, 4183.59, 4392.821, 4109.744, 4175.897, 4143.077, 0, 0, []
1629739395.5055, 23, 0, 4181.026, 4397.949, 4104.615, 4157.949, 4140.513, 0, 0, []
1629739395.5134, 24, 0, 4167.179, 4375.385, 4102.564, 4135.385, 4120.513, 0, 0, []
1629739395.5212, 25, 0, 4156.923, 4347.179, 4105.128, 4146.154, 4110.769, 0, 0, []
1629739395.5292, 26, 0, 4165.128, 4357.949, 4116.923, 4177.949, 4122.564, 0, 0, []
1629739395.537, 27, 0, 4173.333, 4369.231, 4130.256, 4187.179, 4129.744, 0, 0, []
1629739395.5449, 28, 0, 4168.718, 4375.385, 4108.205, 4168.718, 4120.513, 0, 0, []
1629739395.5529, 29, 0, 4174.359, 4397.436, 4107.692, 4163.077, 4119.487, 0, 0, []
1629739395.5608, 30, 0, 4194.359, 4382.564, 4125.641, 4174.359, 4130.769, 0, 0, []
1629739395.5686, 31, 0, 4191.795, 4359.487, 4122.051, 4167.692, 4127.692, 0, 0, []
1629739395.5764, 32, 0, 4175.897, 4380, 4118.974, 4161.538, 4112.821, 0, 0, []
1629739395.5842, 33, 0, 4176.41, 4380.513, 4109.231, 4167.692, 4110.769, 0, 0, []
1629739395.5921, 34, 0, 4178.462, 4339.487, 4117.949, 4170.769, 4116.41, 0, 0, []
1629739395.5999, 35, 0, 4187.692, 4334.872, 4138.974, 4177.949, 4125.641, 0, 0, []
1629739395.6078, 36, 0, 4198.974, 4374.359, 4131.282, 4183.59, 4136.41, 0, 0, []
1629739395.6155, 37, 0, 4193.333, 4387.179, 4120, 4176.923, 4133.333, 0, 0, []
1629739395.6234, 38, 0, 4190.769, 4356.41, 4112.821, 4168.718, 4127.179, 0, 0, []
1629739395.6312, 39, 0, 4194.872, 4343.077, 4121.026, 4168.205, 4132.821, 0, 0, []
1629739395.6392, 40, 0, 4195.897, 4372.308, 4140, 4175.385, 4138.974, 0, 0, []
1629739395.6471, 41, 0, 4197.436, 4377.436, 4147.179, 4182.564, 4134.359, 0, 0, []
1629739395.655, 42, 0, 4201.538, 4334.359, 4150.769, 4180.513, 4127.179, 0, 0, []
1629739395.6629, 43, 0, 4200, 4316.41, 4132.308, 4169.744, 4121.026, 0, 0, []
1629739395.6709, 44, 0, 4194.359, 4351.282, 4108.205, 4162.564, 4119.487, 0, 0, []
1629739395.6788, 45, 0, 4196.41, 4374.872, 4098.462, 4163.59, 4125.128, 0, 0, []
1629739395.6868, 46, 0, 4214.872, 4355.385, 4107.179, 4175.385, 4143.59, 0, 0, []
1629739395.6946, 47, 0, 4233.846, 4342.051, 4145.128, 4201.026, 4168.205, 0, 0, []
1629739395.7026, 48, 0, 4226.154, 4354.872, 4146.154, 4212.821, 4165.641, 0, 0, []
1629739395.7105, 49, 0, 4208.205, 4357.949, 4124.615, 4193.333, 4144.615, 0, 0, []
1629739395.7185, 50, 0, 4204.103, 4350.256, 4131.795, 4170.769, 4140, 0, 0, []
1629739395.7264, 51, 0, 4202.051, 4356.41, 4132.821, 4164.103, 4145.641, 0, 0, []
1629739395.7341, 52, 0, 4198.974, 4363.077, 4136.923, 4161.026, 4141.538, 0, 0, []
1629739395.742, 53, 0, 4200, 4343.59, 4130.769, 4154.359, 4136.923, 0, 0, []
1629739395.7498, 54, 0, 4204.103, 4316.41, 4121.538, 4159.487, 4143.077, 0, 0, []
1629739395.7577, 55, 0, 4211.795, 4327.692, 4130.769, 4178.974, 4152.308, 0, 0, []
1629739395.7655, 56, 0, 4216.923, 4361.538, 4124.103, 4184.615, 4160, 0, 0, []
1629739395.7733, 57, 0, 4209.231, 4350.769, 4117.949, 4162.051, 4158.462, 0, 0, []
1629739395.7811, 58, 0, 4198.974, 4328.718, 4106.667, 4131.282, 4148.718, 0, 0, []
1629739395.7891, 59, 0, 4205.641, 4352.308, 4094.872, 4116.41, 4149.231, 0, 0, []
1629739395.797, 60, 0, 4227.692, 4364.103, 4103.077, 4123.077, 4166.154, 0, 0, []
1629739395.805, 61, 0, 4253.333, 4323.077, 4104.103, 4137.436, 4191.795, 0, 0, []
1629739395.8129, 62, 0, 4285.641, 4304.103, 4118.462, 4152.821, 4227.179, 0, 0, []
1629739395.8208, 63, 0, 4330.769, 4349.231, 4134.359, 4168.205, 4267.692, 0, 0, []
1629739395.8287, 64, 0, 4360.513, 4362.051, 4126.154, 4171.282, 4289.744, 450, 0, []
1629739395.8367, 65, 0, 4365.641, 4321.538, 4118.974, 4153.846, 4293.333, 450, 0, []
1629739395.8446, 66, 0, 4368.205, 4312.821, 4105.641, 4143.077, 4296.923, 16188, 0, []
1629739395.8526, 67, 0, 4369.744, 4332.821, 4103.077, 4155.897, 4291.795, 450, 0, []
1629739395.8604, 68, 0, 4363.59, 4332.821, 4105.641, 4158.974, 4281.538, 16138, 0, []
1629739395.8684, 69, 0, 4356.41, 4326.154, 4102.564, 4147.692, 4282.564, 450, 0, []
1629739395.8763, 70, 0, 4353.333, 4330.769, 4120, 4157.949, 4285.128, 16085, 0, []
1629739395.8841, 71, 0, 4348.718, 4328.205, 4123.077, 4172.821, 4273.846, 450, 0, []
1629739395.892, 72, 0, 4334.359, 4324.615, 4112.308, 4160, 4255.385, 450, 0, []
1629739395.8997, 73, 0, 4310.769, 4314.872, 4110.256, 4146.667, 4240, 16177, 0, []
1629739395.9076, 74, 0, 4294.872, 4291.282, 4111.282, 4144.103, 4231.282, 450, 0, []
1629739395.9154, 75, 0, 4287.179, 4293.333, 4120, 4135.385, 4227.179, 16203, 0, []
1629739395.9233, 76, 0, 4263.077, 4310.769, 4095.385, 4121.538, 4206.154, 450, 0, []
1629739395.9311, 77, 0, 4243.59, 4307.179, 4078.974, 4120, 4180, 450, 0, []
1629739395.9389, 78, 0, 4249.231, 4300, 4105.128, 4130.256, 4181.538, 450, 0, []
1629739395.9467, 79, 0, 4248.718, 4297.949, 4113.333, 4135.897, 4186.667, 16203, 0, []
1629739395.9547, 80, 0, 4237.949, 4284.103, 4117.949, 4141.026, 4173.846, 450, 0, []
1629739395.9626, 81, 0, 4226.667, 4280.513, 4121.538, 4140, 4155.897, 450, 0, []
1629739395.9706, 82, 0, 4209.744, 4293.333, 4110.256, 4123.59, 4141.538, 450, 0, []
1629739395.9784, 83, 0, 4197.949, 4285.128, 4097.436, 4114.872, 4134.872, 16203, 0, []
1629739395.9864, 84, 0, 4197.949, 4264.615, 4092.308, 4119.487, 4134.872, 450, 0, []
1629739395.9943, 85, 0, 4197.949, 4277.436, 4118.462, 4125.128, 4135.385, 450, 0, []
1629739396.0023, 86, 0, 4198.974, 4303.077, 4128.205, 4128.205, 4141.538, 450, 0, []
1629739396.0102, 87, 0, 4202.051, 4289.231, 4109.231, 4127.692, 4148.718, 16203, 0, []
1629739396.0181, 88, 0, 4202.051, 4278.462, 4107.179, 4122.051, 4143.59, 450, 0, []
1629739396.026, 89, 0, 4198.462, 4296.923, 4106.154, 4124.615, 4137.436, 450, 0, []
1629739396.0338, 90, 0, 4197.949, 4301.538, 4107.692, 4139.487, 4141.026, 450, 0, []
1629739396.0417, 91, 0, 4203.077, 4297.949, 4100.513, 4143.59, 4140, 16203, 0, []
1629739396.0495, 92, 0, 4197.436, 4302.051, 4086.667, 4125.128, 4126.154, 450, 0, []
1629739396.0573, 93, 0, 4181.538, 4306.667, 4096.923, 4113.333, 4114.359, 450, 0, []
1629739396.0651, 94, 0, 4190.256, 4305.128, 4100.513, 4123.59, 4131.795, 450, 0, []
1629739396.073, 95, 0, 4218.462, 4293.333, 4110.256, 4140, 4158.462, 16203, 0, []
1629739396.0808, 96, 0, 4221.026, 4276.41, 4125.641, 4146.667, 4154.872, 450, 0, []
1629739396.0887, 97, 0, 4207.179, 4276.41, 4122.051, 4146.154, 4140.513, 450, 0, []
1629739396.0964, 98, 0, 4198.462, 4293.333, 4111.795, 4133.846, 4133.846, 450, 0, []
1629739396.1044, 99, 0, 4186.154, 4300.513, 4090.256, 4114.872, 4120, 16203, 0, []
1629739396.1123, 100, 0, 4177.436, 4294.359, 4095.385, 4111.795, 4112.308, 450, 0, []
1629739396.1203, 101, 0, 4185.128, 4278.974, 4109.231, 4116.923, 4128.205, 450, 0, []
1629739396.1282, 102, 0, 4193.333, 4287.179, 4103.077, 4119.487, 4137.436, 450, 0, []
1629739396.1361, 103, 0, 4189.744, 4310.256, 4111.795, 4129.744, 4130.769, 16203, 0, []
1629739396.144, 104, 0, 4184.103, 4286.667, 4109.744, 4136.41, 4127.692, 450, 0, []
1629739396.152, 105, 0, 4184.103, 4266.154, 4110.769, 4132.308, 4127.179, 450, 0, []
1629739396.1599, 106, 0, 4187.179, 4309.231, 4120.513, 4133.846, 4129.744, 450, 0, []
1629739396.1679, 107, 0, 4189.231, 4324.615, 4112.821, 4134.359, 4131.282, 16203, 0, []
1629739396.1758, 108, 0, 4184.615, 4296.41, 4112.821, 4123.59, 4123.59, 450, 0, []
1629739396.1836, 109, 0, 4171.795, 4303.59, 4100, 4113.333, 4115.385, 450, 0, []
1629739396.1915, 110, 0, 4165.641, 4309.231, 4087.692, 4111.282, 4115.897, 450, 0, []
1629739396.1993, 111, 0, 4175.897, 4277.949, 4091.282, 4116.41, 4122.564, 16203, 0, []
1629739396.2072, 112, 0, 4184.103, 4278.462, 4094.872, 4125.641, 4130.256, 450, 0, []
1629739396.215, 113, 0, 4186.667, 4316.41, 4114.359, 4138.974, 4140.513, 450, 0, []
1629739396.2228, 114, 0, 4188.205, 4301.538, 4110.769, 4131.795, 4140.513, 450, 0, []
1629739396.2306, 115, 0, 4183.59, 4265.128, 4090.256, 4107.692, 4133.846, 16203, 0, []
1629739396.2385, 116, 0, 4175.385, 4277.436, 4095.897, 4105.128, 4127.179, 450, 0, []
1629739396.2463, 117, 0, 4170.769, 4285.128, 4096.41, 4118.462, 4121.026, 450, 0, []
1629739396.2543, 118, 0, 4167.692, 4282.564, 4093.333, 4124.615, 4120, 450, 0, []
1629739396.2621, 119, 0, 4158.974, 4293.333, 4086.667, 4128.718, 4115.385, 16203, 0, []
1629739396.2701, 120, 0, 4143.59, 4282.051, 4088.718, 4135.897, 4093.846, 450, 0, []
1629739396.278, 121, 0, 4132.308, 4274.359, 4104.103, 4138.974, 4076.41, 450, 0, []
1629739396.286, 122, 0, 4133.333, 4291.795, 4097.436, 4137.436, 4075.897, 450, 0, []
1629739396.2939, 123, 0, 4137.436, 4290.256, 4090.256, 4130.256, 4075.897, 16203, 0, []
1629739396.3018, 124, 0, 4140, 4276.923, 4085.641, 4122.564, 4078.974, 450, 0, []
1629739396.3097, 125, 0, 4142.051, 4275.897, 4079.487, 4118.974, 4084.615, 450, 0, []
1629739396.3177, 126, 0, 4135.897, 4251.795, 4082.564, 4109.231, 4072.821, 450, 0, []
1629739396.3256, 127, 0, 4128.718, 4238.974, 4077.949, 4102.564, 4067.179, 16203, 0, []
1629739396.3336, 128, 0, 4138.974, 4266.667, 4087.179, 4117.436, 4086.154, 450, 0, []
1629739396.3414, 0, 0, 4150.256, 4266.667, 4091.282, 4134.872, 4098.462, 450, 0, []
1629739396.3492, 1, 0, 4145.641, 4252.308, 4078.974, 4129.231, 4091.795, 450, 0, []
1629739396.3571, 2, 0, 4156.923, 4281.026, 4093.333, 4120, 4097.949, 16190, 0, []
1629739396.3649, 3, 0, 4182.564, 4291.795, 4107.692, 4131.795, 4119.487, 450, 0, []
1629739396.3728, 4, 0, 4180.513, 4263.077, 4114.872, 4140, 4122.564, 16138, 0, []
1629739396.3805, 5, 0, 4164.103, 4265.128, 4116.41, 4133.333, 4105.641, 450, 0, []
1629739396.3884, 6, 0, 4168.205, 4286.154, 4113.846, 4137.949, 4100, 16086, 0, []
1629739396.3962, 7, 0, 4171.282, 4268.718, 4123.077, 4150.769, 4109.231, 450, 0, []
1629739396.4041, 8, 0, 4166.667, 4252.821, 4117.436, 4149.744, 4113.333, 450, 0, []
1629739396.4119, 9, 0, 4182.051, 4293.333, 4128.205, 4151.795, 4120, 16182, 0, []
1629739396.4198, 10, 0, 4189.744, 4308.718, 4135.385, 4151.795, 4125.128, 450, 0, []
1629739396.4277, 11, 0, 4177.949, 4265.641, 4107.692, 4133.333, 4118.974, 16203, 0, []
1629739396.4357, 12, 0, 4181.538, 4264.615, 4112.308, 4133.333, 4122.051, 450, 0, []
1629739396.4436, 13, 0, 4192.308, 4307.692, 4123.077, 4147.179, 4124.615, 450, 0, []
1629739396.4516, 14, 0, 4187.692, 4293.846, 4116.41, 4141.026, 4113.333, 450, 0, []
1629739396.4594, 15, 0, 4180.513, 4250.769, 4108.718, 4128.205, 4107.692, 16203, 0, []
1629739396.4674, 16, 0, 4173.333, 4270.256, 4088.718, 4113.846, 4098.974, 0, 0, []
1629739396.4753, 17, 0, 4166.154, 4302.564, 4089.231, 4107.692, 4088.205, 0, 0, []
1629739396.4833, 18, 0, 4171.795, 4278.974, 4099.487, 4122.564, 4093.846, 0, 0, []
1629739396.4912, 19, 0, 4171.282, 4248.718, 4100, 4125.128, 4095.385, 0, 0, []
1629739396.499, 20, 0, 4162.051, 4271.795, 4104.103, 4109.744, 4085.641, 0, 0, []
1629739396.5069, 21, 0, 4162.564, 4302.564, 4107.692, 4110.256, 4090.769, 0, 0, []
1629739396.5148, 22, 0, 4158.974, 4271.795, 4108.205, 4116.41, 4089.231, 0, 0, []
1629739396.5227, 23, 0, 4150.769, 4241.026, 4094.359, 4109.231, 4077.949, 0, 0, []
1629739396.5307, 24, 0, 4152.821, 4269.744, 4097.949, 4116.923, 4086.667, 0, 0, []
1629739396.5386, 25, 0, 4156.923, 4283.59, 4118.462, 4130.256, 4094.872, 0, 0, []
1629739396.5463, 26, 0, 4153.333, 4259.487, 4105.641, 4118.974, 4082.051, 0, 0, []
1629739396.5542, 27, 0, 4150.769, 4272.308, 4097.436, 4107.179, 4074.872, 0, 0, []
1629739396.562, 28, 0, 4150.769, 4290.769, 4103.077, 4108.718, 4079.487, 0, 0, []
1629739396.57, 29, 0, 4158.974, 4265.128, 4105.128, 4115.897, 4084.615, 0, 0, []
1629739396.5779, 30, 0, 4173.846, 4263.077, 4112.308, 4124.615, 4098.974, 0, 0, []
1629739396.5858, 31, 0, 4173.846, 4287.692, 4094.359, 4121.538, 4103.59, 0, 0, []
1629739396.5937, 32, 0, 4165.641, 4273.333, 4092.308, 4109.744, 4090.256, 0, 0, []
1629739396.6017, 33, 0, 4170.256, 4257.436, 4100.513, 4112.308, 4088.205, 0, 0, []
1629739396.6096, 34, 0, 4167.179, 4263.077, 4080.513, 4115.385, 4091.795, 0, 0, []
1629739396.6176, 35, 0, 4154.872, 4246.154, 4081.538, 4112.821, 4087.179, 0, 0, []
1629739396.6254, 36, 0, 4159.487, 4231.282, 4089.744, 4109.231, 4083.59, 0, 0, []
1629739396.6334, 37, 0, 4162.564, 4241.026, 4086.667, 4100, 4088.718, 0, 0, []
1629739396.6413, 38, 0, 4163.077, 4248.205, 4083.59, 4102.051, 4101.026, 0, 0, []
1629739396.6491, 39, 0, 4174.359, 4269.231, 4087.692, 4115.897, 4112.821, 0, 0, []
1629739396.657, 40, 0, 4178.462, 4281.026, 4099.487, 4114.872, 4110.769, 0, 0, []
1629739396.6647, 41, 0, 4174.872, 4250.256, 4091.795, 4107.692, 4108.205, 0, 0, []
1629739396.6726, 42, 0, 4187.179, 4250.256, 4097.436, 4122.564, 4125.641, 0, 0, []
1629739396.6804, 43, 0, 4205.641, 4281.538, 4110.256, 4139.487, 4141.026, 0, 0, []
1629739396.6883, 44, 0, 4196.923, 4261.026, 4100.513, 4134.872, 4135.385, 0, 0, []
1629739396.6961, 45, 0, 4174.872, 4225.128, 4100, 4125.641, 4122.564, 0, 0, []
1629739396.7039, 46, 0, 4164.615, 4228.205, 4087.179, 4120.513, 4120, 0, 0, []
1629739396.7117, 47, 0, 4165.641, 4239.487, 4073.846, 4113.846, 4125.128, 0, 0, []
1629739396.7196, 48, 0, 4164.615, 4224.615, 4075.385, 4102.051, 4123.077, 0, 0, []
1629739396.7274, 49, 0, 4170.769, 4213.333, 4072.308, 4094.359, 4126.667, 0, 0, []
1629739396.7354, 50, 0, 4201.538, 4234.872, 4087.179, 4109.744, 4153.846, 0, 0, []
1629739396.7432, 51, 0, 4231.282, 4250.769, 4091.282, 4123.59, 4184.103, 0, 0, []
1629739396.7512, 52, 0, 4256.923, 4243.59, 4084.615, 4120.513, 4211.795, 0, 0, []
1629739396.7591, 53, 0, 4303.59, 4244.615, 4094.872, 4129.231, 4255.385, 0, 0, []
1629739396.7671, 54, 0, 4349.744, 4245.128, 4093.333, 4141.538, 4291.795, 0, 0, []
1629739396.775, 55, 0, 4365.128, 4233.333, 4096.41, 4131.795, 4304.103, 0, 0, []
1629739396.7829, 56, 0, 4371.282, 4247.179, 4097.436, 4122.051, 4327.179, 0, 0, []
1629739396.7908, 57, 0, 4390.769, 4256.41, 4095.897, 4130.256, 4355.385, 0, 0, []
1629739396.7986, 58, 0, 4410.769, 4228.718, 4103.077, 4130.256, 4367.692, 0, 0, []
1629739396.8065, 59, 0, 4414.359, 4233.846, 4098.462, 4120, 4375.385, 0, 0, []
1629739396.8143, 60, 0, 4411.282, 4263.59, 4106.667, 4121.538, 4385.128, 0, 0, []
1629739396.8221, 61, 0, 4418.974, 4260, 4112.308, 4134.359, 4393.333, 0, 0, []
1629739396.8299, 62, 0, 4430.256, 4243.077, 4108.205, 4140, 4397.436, 0, 0, []
1629739396.8378, 63, 0, 4419.487, 4226.154, 4112.821, 4130.256, 4394.359, 0, 0, []
1629739396.8456, 64, 0, 4401.538, 4213.333, 4097.436, 4122.051, 4390.769, 450, 0, []
1629739396.8535, 65, 0, 4407.179, 4216.923, 4099.487, 4132.308, 4395.897, 450, 0, []
1629739396.8613, 66, 0, 4426.667, 4240, 4118.462, 4144.615, 4396.923, 16190, 0, []
1629739396.8691, 67, 0, 4433.333, 4257.436, 4122.564, 4143.59, 4393.846, 450, 0, []
1629739396.8769, 68, 0, 4423.077, 4245.128, 4127.692, 4145.128, 4398.974, 16138, 0, []
1629739396.8849, 69, 0, 4408.205, 4223.59, 4117.949, 4146.154, 4397.436, 450, 0, []
1629739396.8928, 70, 0, 4398.462, 4233.333, 4111.282, 4136.923, 4375.385, 16087, 0, []
1629739396.9008, 71, 0, 4389.744, 4237.949, 4105.641, 4125.641, 4356.41, 450, 0, []
1629739396.9086, 72, 0, 4386.154, 4211.795, 4105.128, 4126.667, 4361.538, 450, 0, []
1629739396.9166, 73, 0, 4400.513, 4223.077, 4132.308, 4142.051, 4378.974, 16182, 0, []
1629739396.9245, 74, 0, 4408.718, 4262.051, 4125.641, 4142.564, 4372.821, 450, 0, []
1629739396.9325, 75, 0, 4384.615, 4241.026, 4103.59, 4121.538, 4345.128, 16203, 0, []
1629739396.9404, 76, 0, 4356.41, 4194.872, 4107.692, 4111.795, 4328.205, 450, 0, []
1629739396.9483, 77, 0, 4351.795, 4209.744, 4110.256, 4120.513, 4322.564, 450, 0, []
1629739396.9562, 78, 0, 4357.436, 4246.667, 4116.923, 4127.179, 4316.41, 450, 0, []
1629739396.964, 79, 0, 4351.282, 4225.641, 4117.949, 4125.641, 4313.846, 16203, 0, []
1629739396.9719, 80, 0, 4318.974, 4191.282, 4107.692, 4116.923, 4291.795, 450, 0, []
1629739396.9797, 81, 0, 4280, 4208.205, 4101.538, 4109.744, 4248.718, 450, 0, []
1629739396.9875, 82, 0, 4273.846, 4224.103, 4101.538, 4121.538, 4241.026, 450, 0, []
1629739396.9953, 83, 0, 4293.333, 4231.795, 4117.436, 4143.077, 4268.718, 16203, 0, []
1629739397.0032, 84, 0, 4293.846, 4246.667, 4116.41, 4140.513, 4267.692, 450, 0, []
1629739397.011, 85, 0, 4275.385, 4227.179, 4117.949, 4132.308, 4246.154, 450, 0, []
1629739397.0189, 86, 0, 4263.077, 4214.359, 4130.256, 4145.641, 4241.538, 450, 0, []
1629739397.0266, 87, 0, 4245.641, 4235.897, 4112.821, 4144.103, 4230.256, 16203, 0, []
1629739397.0346, 88, 0, 4233.846, 4215.385, 4109.231, 4123.077, 4211.282, 450, 0, []
1629739397.0425, 89, 0, 4235.385, 4176.923, 4117.436, 4115.385, 4204.103, 450, 0, []
1629739397.0505, 90, 0, 4218.974, 4206.667, 4111.795, 4112.308, 4194.872, 450, 0, []
1629739397.0584, 91, 0, 4200.513, 4236.41, 4115.385, 4109.231, 4179.487, 16203, 0, []
1629739397.0663, 92, 0, 4206.154, 4200.513, 4113.846, 4116.41, 4170.769, 450, 0, []
1629739397.0742, 93, 0, 4202.051, 4186.154, 4112.821, 4121.026, 4159.487, 450, 0, []
1629739397.0822, 94, 0, 4178.462, 4215.897, 4111.282, 4117.436, 4144.103, 450, 0, []
1629739397.0901, 95, 0, 4167.179, 4200.513, 4115.897, 4115.385, 4135.385, 16203, 0, []
1629739397.0981, 96, 0, 4161.538, 4157.949, 4125.128, 4109.231, 4126.154, 450, 0, []
1629739397.1059, 97, 0, 4158.462, 4188.718, 4113.846, 4103.59, 4121.538, 450, 0, []
1629739397.1138, 98, 0, 4163.077, 4232.308, 4117.949, 4111.282, 4126.667, 450, 0, []
1629739397.1217, 99, 0, 4159.487, 4200.513, 4126.154, 4118.462, 4126.154, 16203, 0, []
1629739397.1295, 100, 0, 4153.846, 4167.179, 4124.615, 4120, 4120.513, 450, 0, []
1629739397.1374, 101, 0, 4155.385, 4182.564, 4136.923, 4124.615, 4122.564, 450, 0, []
1629739397.1451, 102, 0, 4160.513, 4195.385, 4125.641, 4127.692, 4122.564, 450, 0, []
1629739397.153, 103, 0, 4154.872, 4176.923, 4111.282, 4120, 4113.846, 16203, 0, []
1629739397.1608, 104, 0, 4136.923, 4161.026, 4102.051, 4107.179, 4100, 450, 0, []
1629739397.1687, 105, 0, 4125.641, 4183.077, 4092.308, 4102.051, 4088.205, 450, 0, []
1629739397.1765, 106, 0, 4125.641, 4204.103, 4107.692, 4106.667, 4086.154, 450, 0, []
1629739397.1843, 107, 0, 4128.205, 4185.641, 4107.692, 4112.308, 4092.308, 16203, 0, []
1629739397.1921, 108, 0, 4137.949, 4174.872, 4111.795, 4116.41, 4106.667, 450, 0, []
1629739397.2001, 109, 0, 4143.59, 4211.282, 4128.205, 4121.026, 4116.41, 450, 0, []
1629739397.208, 110, 0, 4135.385, 4258.462, 4116.923, 4118.974, 4112.308, 450, 0, []
1629739397.216, 111, 0, 4144.103, 4264.103, 4112.308, 4115.897, 4115.385, 16203, 0, []
1629739397.2239, 112, 0, 4161.026, 4237.436, 4110.256, 4113.333, 4125.128, 450, 0, []
1629739397.2318, 113, 0, 4155.385, 4228.205, 4105.641, 4111.282, 4124.103, 450, 0, []
1629739397.2397, 114, 0, 4151.282, 4243.077, 4111.795, 4120, 4126.154, 450, 0, []
1629739397.2477, 115, 0, 4155.897, 4251.282, 4114.872, 4128.718, 4133.846, 16203, 0, []
1629739397.2556, 116, 0, 4149.744, 4253.333, 4118.462, 4124.615, 4127.692, 450, 0, []
1629739397.2636, 117, 0, 4143.077, 4252.308, 4100, 4114.359, 4117.436, 450, 0, []
1629739397.2714, 118, 0, 4150.256, 4222.564, 4091.795, 4113.846, 4120, 450, 0, []
1629739397.2792, 119, 0, 4155.385, 4213.846, 4109.744, 4126.154, 4125.128, 16203, 0, []
1629739397.2871, 120, 0, 4152.308, 4256.41, 4103.077, 4130.769, 4124.103, 450, 0, []
1629739397.2949, 121, 0, 4155.897, 4265.128, 4101.538, 4129.744, 4132.308, 450, 0, []
1629739397.3028, 122, 0, 4159.487, 4236.41, 4104.615, 4129.231, 4139.487, 450, 0, []
1629739397.3105, 123, 0, 4147.692, 4243.59, 4099.487, 4120.513, 4125.128, 16203, 0, []
1629739397.3184, 124, 0, 4137.436, 4258.974, 4098.462, 4110.256, 4108.718, 450, 0, []
1629739397.3262, 125, 0, 4134.872, 4233.333, 4079.487, 4100.513, 4104.615, 450, 0, []
1629739397.3341, 126, 0, 4136.923, 4225.128, 4080, 4096.923, 4104.615, 450, 0, []
1629739397.3419, 127, 0, 4147.179, 4257.949, 4100, 4109.744, 4114.872, 16203, 0, []
1629739397.3498, 128, 0, 4156.41, 4268.718, 4110.769, 4129.744, 4129.744, 450, 0, []
1629739397.3577, 0, 0, 4153.846, 4253.333, 4110.256, 4132.308, 4129.231, 450, 0, []
1629739397.3657, 1, 0, 4150.256, 4245.128, 4092.308, 4119.487, 4121.026, 450, 0, []
1629739397.3736, 2, 0, 4151.795, 4242.051, 4097.436, 4111.795, 4121.026, 16193, 0, []
1629739397.3816, 3, 0, 4154.872, 4254.359, 4105.128, 4112.821, 4129.231, 450, 0, []
1629739397.3894, 4, 0, 4158.462, 4266.667, 4094.872, 4118.462, 4132.308, 16138, 0, []
1629739397.3974, 5, 0, 4155.897, 4249.744, 4102.564, 4125.128, 4125.641, 450, 0, []
1629739397.4053, 6, 0, 4151.795, 4226.154, 4105.128, 4128.718, 4120.513, 16089, 0, []
1629739397.4133, 7, 0, 4153.846, 4222.051, 4091.282, 4120, 4120, 450, 0, []
1629739397.4212, 8, 0, 4151.795, 4244.615, 4074.359, 4105.128, 4118.462, 450, 0, []
1629739397.4289, 9, 0, 4148.718, 4264.615, 4079.487, 4105.128, 4121.026, 16180, 0, []
1629739397.4368, 10, 0, 4154.872, 4249.231, 4109.231, 4115.897, 4128.718, 450, 0, []
1629739397.4446, 11, 0, 4152.308, 4226.667, 4098.974, 4108.718, 4124.103, 16207, 0, []
1629739397.4525, 12, 0, 4146.154, 4235.385, 4087.179, 4098.974, 4119.487, 450, 0, []
1629739397.4603, 13, 0, 4161.538, 4260, 4103.59, 4114.872, 4135.385, 450, 0, []
1629739397.4681, 14, 0, 4171.795, 4253.846, 4100.513, 4126.667, 4143.59, 450, 0, []
1629739397.4759, 15, 0, 4149.744, 4224.615, 4097.436, 4114.872, 4122.051, 16207, 0, []
1629739397.4838, 16, 0, 4139.487, 4229.744, 4099.487, 4105.641, 4109.744, 0, 0, []
1629739397.4916, 17, 0, 4162.564, 4265.641, 4112.308, 4119.487, 4129.744, 0, 0, []
1629739397.4995, 18, 0, 4175.897, 4264.615, 4121.026, 4135.385, 4143.59, 0, 0, []
1629739397.5073, 19, 0, 4162.051, 4241.538, 4109.231, 4127.179, 4133.333, 0, 0, []
1629739397.5152, 20, 0, 4155.897, 4268.205, 4115.385, 4117.949, 4124.103, 0, 0, []
1629739397.5231, 21, 0, 4154.872, 4269.744, 4106.154, 4113.846, 4115.897, 0, 0, []
1629739397.531, 22, 0, 4147.692, 4225.128, 4093.846, 4107.179, 4109.231, 0, 0, []
1629739397.539, 23, 0, 4157.436, 4245.641, 4113.846, 4111.282, 4118.974, 0, 0, []
1629739397.5469, 24, 0, 4167.692, 4270.256, 4108.718, 4115.897, 4129.231, 0, 0, []
1629739397.5548, 25, 0, 4148.718, 4233.846, 4091.795, 4105.641, 4119.487, 0, 0, []
1629739397.5628, 26, 0, 4141.538, 4231.282, 4092.308, 4100, 4113.333, 0, 0, []
1629739397.5707, 27, 0, 4168.205, 4276.41, 4104.615, 4110.769, 4123.077, 0, 0, []
1629739397.5787, 28, 0, 4173.333, 4276.923, 4111.282, 4114.872, 4127.692, 0, 0, []
1629739397.5866, 29, 0, 4152.308, 4237.436, 4099.487, 4109.231, 4118.462, 0, 0, []
1629739397.5943, 30, 0, 4149.744, 4226.667, 4103.59, 4107.692, 4107.692, 0, 0, []
1629739397.6022, 31, 0, 4158.462, 4238.974, 4110.256, 4115.897, 4115.897, 0, 0, []
1629739397.61, 32, 0, 4157.436, 4246.667, 4101.538, 4122.564, 4125.641, 0, 0, []
1629739397.6179, 33, 0, 4151.282, 4250.769, 4094.872, 4109.231, 4114.872, 0, 0, []
1629739397.6257, 34, 0, 4153.846, 4256.41, 4090.769, 4098.974, 4107.692, 0, 0, []
1629739397.6335, 35, 0, 4155.897, 4251.795, 4106.154, 4109.231, 4116.41, 0, 0, []
1629739397.6413, 36, 0, 4149.744, 4260.513, 4114.872, 4113.333, 4116.41, 0, 0, []
1629739397.6492, 37, 0, 4139.487, 4275.385, 4104.103, 4097.949, 4108.718, 0, 0, []
1629739397.657, 38, 0, 4137.436, 4249.231, 4104.615, 4087.179, 4104.615, 0, 0, []
1629739397.6649, 39, 0, 4141.538, 4235.897, 4100.513, 4089.231, 4102.564, 0, 0, []
1629739397.6726, 40, 0, 4140, 4262.051, 4106.667, 4092.821, 4104.103, 0, 0, []
1629739397.6806, 41, 0, 4143.077, 4256.923, 4115.385, 4095.897, 4111.282, 0, 0, []
1629739397.6885, 42, 0, 4152.308, 4233.333, 4111.795, 4099.487, 4117.436, 0, 0, []
1629739397.6965, 43, 0, 4152.308, 4243.077, 4123.59, 4110.256, 4121.026, 0, 0, []
1629739397.7044, 44, 0, 4147.179, 4255.385, 4115.897, 4118.462, 4122.564, 0, 0, []
1629739397.7123, 45, 0, 4149.744, 4238.974, 4105.128, 4116.923, 4120.513, 0, 0, []
1629739397.7202, 46, 0, 4154.872, 4228.718, 4107.692, 4112.821, 4116.923, 0, 0, []
1629739397.7282, 47, 0, 4161.538, 4250.256, 4110.256, 4119.487, 4124.615, 0, 0, []
1629739397.7361, 48, 0, 4179.487, 4280.513, 4134.872, 4135.897, 4146.154, 0, 0, []
1629739397.744, 49, 0, 4177.436, 4267.692, 4131.795, 4128.718, 4142.051, 0, 0, []
