Timestamp, COUNTER, INTERPOLATED, AF3, T7, Pz, T8, AF4, RAW_CQ, MARKER_HARDWARE, MARKERS
1628616663.1627, 99, 0, 4035.385, 4077.436, 4012.821, 4102.051, 4018.462, 16196, 0, []
1628616663.1705, 100, 0, 4038.974, 4081.538, 4032.308, 4114.872, 4028.205, 450, 0, []
1628616663.1785, 101, 0, 4045.128, 4071.795, 4024.103, 4124.615, 4037.949, 450, 0, []
1628616663.1864, 102, 0, 4042.564, 4050.769, 4040.513, 4122.564, 4032.308, 450, 0, []
1628616663.1944, 103, 0, 4041.026, 4058.974, 4043.59, 4114.359, 4031.282, 16196, 0, []
1628616663.2023, 104, 0, 4046.667, 4072.821, 4034.359, 4119.487, 4044.615, 450, 0, []
1628616663.2102, 105, 0, 4050.256, 4071.795, 4036.923, 4123.077, 4047.179, 450, 0, []
1628616663.2181, 106, 0, 4050.256, 4072.821, 4024.615, 4115.897, 4036.41, 450, 0, []
1628616663.226, 107, 0, 4053.333, 4062.564, 4043.077, 4124.615, 4039.487, 16196, 0, []
1628616663.2339, 108, 0, 4062.051, 4040.513, 4052.308, 4138.462, 4053.846, 450, 0, []
1628616663.2417, 109, 0, 4069.231, 4043.59, 4043.077, 4143.59, 4060.513, 450, 0, []
1628616663.2495, 110, 0, 4068.718, 4057.949, 4054.359, 4148.205, 4062.051, 450, 0, []
1628616663.2573, 111, 0, 4056.923, 4045.128, 4041.026, 4142.564, 4050.769, 16196, 0, []
1628616663.2652, 112, 0, 4050.256, 4024.615, 4034.359, 4133.333, 4032.308, 450, 0, []
1628616663.273, 113, 0, 4073.333, 4024.103, 4031.795, 4121.538, 4038.974, 450, 0, []
1628616663.2809, 114, 0, 4110.256, 4041.538, 4027.692, 4114.872, 4073.846, 450, 0, []
1628616663.2886, 115, 0, 4129.231, 4037.949, 4046.154, 4125.128, 4095.897, 16196, 0, []
1628616663.2966, 116, 0, 4127.692, 3993.846, 4036.41, 4129.231, 4095.897, 450, 0, []
1628616663.3045, 117, 0, 4112.821, 3967.692, 4031.795, 4116.923, 4080, 450, 0, []
1628616663.3125, 118, 0, 4090.256, 3984.615, 4030.256, 4105.641, 4056.41, 450, 0, []
1628616663.3204, 119, 0, 4087.692, 3999.487, 4016.923, 4116.923, 4060.513, 16196, 0, []
1628616663.3283, 120, 0, 4097.436, 4004.103, 4024.615, 4126.667, 4073.846, 450, 0, []
1628616663.3362, 121, 0, 4094.872, 4004.615, 4013.846, 4114.872, 4064.103, 450, 0, []
1628616663.3442, 122, 0, 4092.821, 3989.231, 4013.846, 4111.282, 4060.513, 450, 0, []
1628616663.3521, 123, 0, 4094.359, 3981.026, 4018.462, 4108.205, 4067.692, 16196, 0, []
1628616663.3601, 124, 0, 4089.744, 3982.051, 3999.487, 4093.846, 4061.538, 450, 0, []
1628616663.3679, 125, 0, 4092.821, 3975.897, 4011.282, 4097.436, 4058.462, 450, 0, []
1628616663.3757, 126, 0, 4106.154, 3988.718, 4018.974, 4108.205, 4072.821, 450, 0, []
1628616663.3836, 127, 0, 4112.308, 3996.923, 4022.564, 4107.692, 4077.949, 16196, 0, []
1628616663.3914, 128, 0, 4108.718, 3970.769, 4025.641, 4102.564, 4072.308, 450, 0, []
1628616663.3993, 0, 0, 4109.231, 3988.205, 4008.205, 4104.615, 4077.949, 450, 0, []
1628616663.407, 1, 0, 4114.359, 4036.923, 4017.436, 4115.385, 4086.667, 450, 0, []
1628616663.4149, 2, 0, 4120, 4018.462, 4010.769, 4120, 4092.821, 16185, 0, []
1628616663.4227, 3, 0, 4126.154, 3995.385, 4011.795, 4130.256, 4105.641, 450, 0, []
1628616663.4306, 4, 0, 4124.615, 4030.769, 4038.462, 4141.026, 4108.718, 16108, 0, []
1628616663.4384, 5, 0, 4118.462, 4047.179, 4022.564, 4127.179, 4091.795, 450, 0, []
1628616663.4462, 6, 0, 4117.949, 4017.949, 4012.821, 4112.308, 4082.564, 16077, 0, []
1628616663.454, 7, 0, 4124.103, 4010.256, 4021.538, 4122.051, 4092.821, 450, 0, []
1628616663.462, 8, 0, 4122.564, 4022.051, 4026.154, 4138.462, 4095.897, 450, 0, []
1628616663.4699, 9, 0, 4116.41, 4009.231, 4029.231, 4138.462, 4088.718, 16181, 0, []
1628616663.4779, 10, 0, 4120, 3987.179, 4018.974, 4128.205, 4090.256, 450, 0, []
1628616663.4857, 11, 0, 4122.051, 3970.769, 4028.205, 4120, 4094.872, 16157, 0, []
1628616663.4937, 12, 0, 4118.974, 3954.872, 4021.538, 4115.897, 4093.846, 450, 0, []
1628616663.5016, 13, 0, 4118.974, 3956.41, 4004.103, 4120, 4098.974, 450, 0, []
1628616663.5096, 14, 0, 4121.026, 3986.667, 4010.769, 4126.154, 4104.103, 450, 0, []
1628616663.5175, 15, 0, 4120, 4008.205, 4000, 4126.667, 4099.487, 16157, 0, []
1628616663.5255, 16, 0, 4123.077, 3989.744, 4012.821, 4132.308, 4107.179, 0, 0, []
1628616663.5333, 17, 0, 4134.359, 3978.462, 4032.308, 4143.077, 4128.718, 0, 0, []
1628616663.5411, 18, 0, 4132.821, 4003.59, 4018.974, 4147.179, 4132.308, 0, 0, []
1628616663.549, 19, 0, 4124.615, 4002.564, 4014.872, 4143.077, 4127.179, 0, 0, []
1628616663.5568, 20, 0, 4136.923, 3967.179, 4013.333, 4144.103, 4139.487, 0, 0, []
1628616663.5647, 21, 0, 4152.821, 3971.282, 4023.077, 4146.667, 4147.179, 0, 0, []
1628616663.5724, 22, 0, 4148.205, 4000.513, 4021.538, 4133.846, 4140, 0, 0, []
1628616663.5803, 23, 0, 4139.487, 3994.359, 4005.128, 4122.564, 4138.462, 0, 0, []
1628616663.5881, 24, 0, 4147.692, 3974.359, 4014.872, 4129.231, 4149.231, 0, 0, []
1628616663.596, 25, 0, 4167.692, 3969.231, 4004.615, 4127.179, 4164.615, 0, 0, []
1628616663.6038, 26, 0, 4194.872, 3975.385, 4007.179, 4120, 4187.692, 0, 0, []
1628616663.6117, 27, 0, 4223.077, 3997.436, 4018.462, 4124.103, 4209.744, 0, 0, []
1628616663.6196, 28, 0, 4245.128, 4014.872, 3996.923, 4117.436, 4215.385, 0, 0, []
1628616663.6276, 29, 0, 4268.718, 4012.308, 4004.103, 4109.744, 4226.667, 0, 0, []
1628616663.6355, 30, 0, 4292.308, 4016.923, 4007.179, 4118.462, 4254.872, 0, 0, []
1628616663.6435, 31, 0, 4298.974, 4023.077, 4002.051, 4115.897, 4270.256, 0, 0, []
1628616663.6513, 32, 0, 4302.564, 4015.897, 4015.897, 4098.974, 4274.359, 0, 0, []
1628616663.6593, 33, 0, 4317.949, 4031.795, 4017.949, 4105.128, 4287.179, 0, 0, []
1628616663.6672, 34, 0, 4333.333, 4077.436, 4028.718, 4127.179, 4293.846, 0, 0, []
1628616663.6752, 35, 0, 4345.128, 4097.949, 4026.667, 4130.256, 4300, 0, 0, []
1628616663.6831, 36, 0, 4351.795, 4097.949, 4027.692, 4132.821, 4322.564, 0, 0, []
1628616663.6909, 37, 0, 4352.821, 4097.436, 4027.692, 4136.41, 4331.795, 0, 0, []
1628616663.6988, 38, 0, 4358.974, 4088.205, 4011.795, 4130.769, 4324.615, 0, 0, []
1628616663.7066, 39, 0, 4368.718, 4113.333, 4029.744, 4134.872, 4325.128, 0, 0, []
1628616663.7145, 40, 0, 4367.179, 4147.179, 4031.282, 4138.974, 4326.154, 0, 0, []
1628616663.7223, 41, 0, 4362.564, 4128.205, 4027.692, 4134.359, 4333.333, 0, 0, []
1628616663.7301, 42, 0, 4364.615, 4115.897, 4052.821, 4133.333, 4346.667, 0, 0, []
1628616663.7379, 43, 0, 4369.231, 4150.256, 4045.128, 4130.256, 4344.103, 0, 0, []
1628616663.7458, 44, 0, 4372.821, 4153.846, 4036.41, 4133.333, 4334.359, 0, 0, []
1628616663.7537, 45, 0, 4369.744, 4117.436, 4026.154, 4140.513, 4336.923, 0, 0, []
1628616663.7616, 46, 0, 4365.641, 4118.974, 4026.154, 4138.462, 4339.487, 0, 0, []
1628616663.7694, 47, 0, 4372.308, 4143.59, 4050.769, 4136.923, 4338.462, 0, 0, []
1628616663.7772, 48, 0, 4377.436, 4139.487, 4039.487, 4139.487, 4342.051, 0, 0, []
1628616663.7852, 49, 0, 4369.231, 4133.333, 4041.026, 4144.615, 4349.744, 0, 0, []
1628616663.7931, 50, 0, 4359.487, 4136.923, 4053.846, 4149.744, 4352.308, 0, 0, []
1628616663.801, 51, 0, 4354.872, 4136.41, 4054.872, 4155.897, 4341.538, 0, 0, []
1628616663.8089, 52, 0, 4344.615, 4138.974, 4061.538, 4153.846, 4320.513, 0, 0, []
1628616663.8168, 53, 0, 4317.949, 4127.692, 4041.026, 4143.59, 4300.513, 0, 0, []
1628616663.8248, 54, 0, 4283.59, 4105.128, 4042.564, 4138.974, 4282.051, 0, 0, []
1628616663.8327, 55, 0, 4251.282, 4123.077, 4053.333, 4126.667, 4261.538, 0, 0, []
1628616663.8407, 56, 0, 4233.333, 4157.436, 4042.051, 4117.949, 4245.128, 0, 0, []
1628616663.8485, 57, 0, 4233.846, 4149.231, 4051.795, 4133.333, 4237.436, 0, 0, []
1628616663.8563, 58, 0, 4237.436, 4135.385, 4049.744, 4150.256, 4235.385, 0, 0, []
1628616663.8642, 59, 0, 4233.333, 4138.974, 4056.923, 4155.897, 4234.872, 0, 0, []
1628616663.872, 60, 0, 4217.949, 4141.026, 4062.051, 4153.846, 4220.513, 0, 0, []
1628616663.8799, 61, 0, 4194.359, 4154.359, 4042.051, 4147.692, 4197.436, 0, 0, []
1628616663.8876, 62, 0, 4171.795, 4168.205, 4047.692, 4144.103, 4185.128, 0, 0, []
1628616663.8955, 63, 0, 4168.205, 4164.103, 4048.718, 4147.692, 4187.692, 0, 0, []
1628616663.9033, 64, 0, 4182.564, 4147.692, 4055.385, 4158.974, 4198.462, 450, 0, []
1628616663.9112, 65, 0, 4185.128, 4134.872, 4065.128, 4163.59, 4203.59, 450, 0, []
1628616663.919, 66, 0, 4172.821, 4143.077, 4052.308, 4155.385, 4197.949, 16180, 0, []
1628616663.9269, 67, 0, 4156.923, 4170.256, 4061.026, 4143.59, 4179.487, 450, 0, []
1628616663.9348, 68, 0, 4135.385, 4180, 4045.128, 4126.154, 4148.205, 16118, 0, []
1628616663.9428, 69, 0, 4116.923, 4151.282, 4025.641, 4115.385, 4121.538, 450, 0, []
1628616663.9507, 70, 0, 4123.077, 4150.769, 4049.744, 4122.051, 4124.103, 16103, 0, []
1628616663.9587, 71, 0, 4138.462, 4197.949, 4067.692, 4126.667, 4140, 450, 0, []
1628616663.9665, 72, 0, 4142.051, 4208.718, 4078.974, 4131.795, 4138.462, 450, 0, []
1628616663.9745, 73, 0, 4146.667, 4188.205, 4067.179, 4145.128, 4136.923, 16197, 0, []
1628616663.9824, 74, 0, 4144.615, 4199.487, 4052.821, 4145.641, 4138.462, 450, 0, []
1628616663.9904, 75, 0, 4122.051, 4201.538, 4047.179, 4128.205, 4122.051, 16192, 0, []
1628616663.9983, 76, 0, 4110.256, 4187.692, 4036.41, 4120.513, 4108.205, 450, 0, []
1628616664.006, 77, 0, 4116.41, 4203.077, 4058.974, 4129.231, 4111.795, 450, 0, []
1628616664.0139, 78, 0, 4111.795, 4192.821, 4052.308, 4125.128, 4110.256, 450, 0, []
1628616664.0217, 79, 0, 4105.641, 4160, 4036.923, 4120.513, 4106.667, 16192, 0, []
1628616664.0296, 80, 0, 4108.205, 4193.846, 4062.051, 4125.641, 4105.641, 450, 0, []
1628616664.0374, 81, 0, 4101.538, 4235.897, 4055.385, 4122.051, 4097.949, 450, 0, []
1628616664.0452, 82, 0, 4098.974, 4225.128, 4054.872, 4125.641, 4093.846, 450, 0, []
1628616664.053, 83, 0, 4106.154, 4215.897, 4063.59, 4129.231, 4096.41, 16192, 0, []
1628616664.0609, 84, 0, 4102.051, 4213.846, 4058.974, 4123.59, 4097.436, 450, 0, []
1628616664.0687, 85, 0, 4090.769, 4208.205, 4069.744, 4123.077, 4098.462, 450, 0, []
1628616664.0767, 86, 0, 4090.769, 4217.436, 4066.154, 4120.513, 4101.538, 450, 0, []
1628616664.0845, 87, 0, 4095.897, 4221.026, 4065.641, 4117.949, 4097.949, 16192, 0, []
1628616664.0925, 88, 0, 4090.256, 4202.564, 4062.564, 4120, 4089.231, 450, 0, []
1628616664.1004, 89, 0, 4081.026, 4204.103, 4060, 4121.026, 4086.154, 450, 0, []
1628616664.1084, 90, 0, 4084.103, 4231.282, 4077.949, 4120, 4092.821, 450, 0, []
1628616664.1163, 91, 0, 4092.821, 4220, 4057.436, 4118.974, 4099.487, 16192, 0, []
1628616664.1242, 92, 0, 4089.231, 4191.282, 4052.308, 4124.615, 4094.872, 450, 0, []
1628616664.1321, 93, 0, 4091.795, 4214.872, 4071.795, 4131.282, 4093.846, 450, 0, []
1628616664.1401, 94, 0, 4109.231, 4239.487, 4064.615, 4136.41, 4107.179, 450, 0, []
1628616664.148, 95, 0, 4110.256, 4216.41, 4062.051, 4135.897, 4108.205, 16192, 0, []
1628616664.1559, 96, 0, 4095.897, 4212.821, 4048.718, 4126.154, 4094.872, 450, 0, []
1628616664.1637, 97, 0, 4090.769, 4232.308, 4058.462, 4118.974, 4090.256, 450, 0, []
1628616664.1715, 98, 0, 4091.795, 4221.538, 4085.641, 4122.564, 4088.205, 450, 0, []
1628616664.1794, 99, 0, 4096.41, 4204.615, 4071.282, 4130.769, 4083.59, 16192, 0, []
1628616664.1872, 100, 0, 4106.667, 4217.949, 4068.205, 4136.41, 4090.256, 450, 0, []
1628616664.1951, 101, 0, 4106.154, 4237.436, 4067.179, 4136.923, 4091.282, 450, 0, []
1628616664.2028, 102, 0, 4091.282, 4239.487, 4058.974, 4133.846, 4073.846, 450, 0, []
1628616664.2107, 103, 0, 4089.744, 4251.795, 4055.385, 4129.231, 4062.564, 16192, 0, []
1628616664.2185, 104, 0, 4104.103, 4278.462, 4051.282, 4125.641, 4066.154, 450, 0, []
1628616664.2265, 105, 0, 4108.205, 4286.667, 4068.718, 4130.256, 4068.718, 450, 0, []
1628616664.2345, 106, 0, 4101.026, 4278.462, 4071.282, 4136.41, 4072.308, 450, 0, []
1628616664.2423, 107, 0, 4103.077, 4276.41, 4083.077, 4141.538, 4083.077, 16192, 0, []
1628616664.2502, 108, 0, 4106.154, 4270.256, 4093.333, 4140, 4082.564, 450, 0, []
1628616664.2582, 109, 0, 4103.077, 4266.154, 4058.974, 4131.795, 4077.949, 450, 0, []
1628616664.2661, 110, 0, 4110.769, 4290.769, 4069.744, 4139.487, 4090.256, 450, 0, []
1628616664.2741, 111, 0, 4121.538, 4304.615, 4087.692, 4149.744, 4098.462, 16192, 0, []
1628616664.282, 112, 0, 4110.769, 4288.205, 4069.744, 4147.692, 4088.205, 450, 0, []
1628616664.2899, 113, 0, 4103.077, 4266.154, 4076.923, 4145.128, 4081.538, 450, 0, []
1628616664.2978, 114, 0, 4116.923, 4258.974, 4080, 4136.923, 4090.769, 450, 0, []
1628616664.3056, 115, 0, 4125.128, 4270.769, 4076.41, 4128.205, 4098.462, 16192, 0, []
1628616664.3135, 116, 0, 4123.077, 4287.179, 4069.231, 4135.385, 4101.538, 450, 0, []
1628616664.3213, 117, 0, 4129.744, 4286.154, 4074.872, 4151.795, 4106.667, 450, 0, []
1628616664.3291, 118, 0, 4134.872, 4284.103, 4089.231, 4148.205, 4110.769, 450, 0, []
1628616664.3369, 119, 0, 4131.795, 4299.487, 4072.821, 4134.359, 4114.359, 16192, 0, []
1628616664.3448, 120, 0, 4138.974, 4298.974, 4081.538, 4138.974, 4123.077, 450, 0, []
1628616664.3526, 121, 0, 4158.974, 4295.385, 4089.231, 4139.487, 4140.513, 450, 0, []
1628616664.3605, 122, 0, 4184.103, 4316.41, 4072.308, 4135.385, 4162.051, 450, 0, []
1628616664.3682, 123, 0, 4210.769, 4319.487, 4085.128, 4145.128, 4175.385, 16192, 0, []
1628616664.3761, 124, 0, 4234.872, 4310.769, 4078.462, 4148.205, 4192.821, 450, 0, []
1628616664.3839, 125, 0, 4258.974, 4328.718, 4073.846, 4151.282, 4224.103, 450, 0, []
1628616664.3919, 126, 0, 4295.385, 4345.128, 4092.308, 4170.256, 4262.051, 450, 0, []
1628616664.3998, 127, 0, 4331.282, 4339.487, 4094.359, 4175.897, 4288.718, 16192, 0, []
1628616664.4077, 128, 0, 4342.564, 4318.462, 4094.872, 4162.051, 4290.769, 450, 0, []
1628616664.4156, 0, 0, 4340.513, 4298.462, 4078.974, 4148.205, 4288.718, 450, 0, []
1628616664.4236, 1, 0, 4346.154, 4307.692, 4080, 4143.077, 4303.077, 450, 0, []
1628616664.4315, 2, 0, 4349.744, 4322.564, 4096.923, 4144.615, 4310.769, 16177, 0, []
1628616664.4395, 3, 0, 4338.462, 4312.821, 4089.231, 4150.769, 4292.821, 450, 0, []
1628616664.4473, 4, 0, 4330.769, 4314.872, 4093.846, 4157.436, 4277.949, 16132, 0, []
1628616664.4553, 5, 0, 4332.308, 4322.051, 4084.615, 4155.897, 4284.103, 450, 0, []
1628616664.4632, 6, 0, 4320, 4302.051, 4080, 4150.256, 4284.615, 16075, 0, []
1628616664.471, 7, 0, 4296.923, 4297.949, 4087.692, 4150.256, 4260, 450, 0, []
1628616664.4789, 8, 0, 4279.487, 4311.795, 4074.872, 4157.949, 4229.744, 450, 0, []
1628616664.4866, 9, 0, 4265.128, 4317.949, 4090.256, 4161.026, 4214.872, 16136, 0, []
1628616664.4945, 10, 0, 4244.615, 4311.282, 4090.256, 4150.256, 4203.077, 450, 0, []
1628616664.5023, 11, 0, 4224.615, 4296.41, 4071.282, 4146.667, 4190.256, 16189, 0, []
1628616664.5102, 12, 0, 4215.897, 4291.282, 4081.026, 4154.359, 4189.231, 450, 0, []
1628616664.518, 13, 0, 4212.308, 4291.795, 4083.077, 4153.333, 4189.231, 450, 0, []
1628616664.5259, 14, 0, 4203.59, 4304.103, 4089.744, 4151.282, 4170.256, 450, 0, []
1628616664.5338, 15, 0, 4192.821, 4311.795, 4086.667, 4162.564, 4147.692, 16189, 0, []
1628616664.5418, 16, 0, 4189.744, 4286.154, 4079.487, 4173.846, 4143.077, 0, 0, []
1628616664.5497, 17, 0, 4184.615, 4263.077, 4080, 4154.872, 4144.615, 0, 0, []
1628616664.5577, 18, 0, 4182.564, 4265.641, 4067.692, 4135.897, 4148.718, 0, 0, []
1628616664.5655, 19, 0, 4194.359, 4262.564, 4085.641, 4153.333, 4163.59, 0, 0, []
1628616664.5735, 20, 0, 4188.718, 4263.077, 4086.667, 4160.513, 4165.128, 0, 0, []
1628616664.5814, 21, 0, 4154.359, 4277.949, 4066.154, 4143.59, 4136.41, 0, 0, []
1628616664.5894, 22, 0, 4125.128, 4276.41, 4071.282, 4137.949, 4104.615, 0, 0, []
1628616664.5973, 23, 0, 4127.179, 4289.231, 4061.538, 4135.897, 4098.974, 0, 0, []
1628616664.6052, 24, 0, 4143.077, 4321.538, 4070.256, 4137.949, 4110.769, 0, 0, []
1628616664.6131, 25, 0, 4152.821, 4300.513, 4084.615, 4149.744, 4118.974, 0, 0, []
1628616664.6209, 26, 0, 4158.974, 4269.744, 4071.282, 4154.872, 4124.615, 0, 0, []
1628616664.6288, 27, 0, 4158.462, 4288.205, 4071.795, 4147.179, 4123.077, 0, 0, []
1628616664.6366, 28, 0, 4151.795, 4286.667, 4072.308, 4142.051, 4114.872, 0, 0, []
1628616664.6444, 29, 0, 4142.564, 4260, 4089.744, 4151.282, 4107.179, 0, 0, []
1628616664.6522, 30, 0, 4136.41, 4284.103, 4093.333, 4158.974, 4103.59, 0, 0, []
1628616664.6601, 31, 0, 4145.128, 4319.487, 4069.231, 4157.949, 4109.231, 0, 0, []
1628616664.6679, 32, 0, 4160.513, 4313.333, 4080, 4152.308, 4118.462, 0, 0, []
1628616664.6758, 33, 0, 4164.103, 4310.256, 4084.103, 4143.59, 4124.103, 0, 0, []
1628616664.6835, 34, 0, 4157.949, 4328.205, 4081.538, 4148.205, 4123.077, 0, 0, []
1628616664.6915, 35, 0, 4151.282, 4331.795, 4086.667, 4152.821, 4117.436, 0, 0, []
1628616664.6994, 36, 0, 4141.538, 4316.923, 4082.564, 4152.821, 4114.872, 0, 0, []
1628616664.7074, 37, 0, 4136.41, 4300.513, 4091.795, 4169.231, 4122.564, 0, 0, []
1628616664.7153, 38, 0, 4137.949, 4308.718, 4081.026, 4184.615, 4132.308, 0, 0, []
1628616664.7232, 39, 0, 4125.128, 4322.564, 4072.821, 4173.333, 4114.872, 0, 0, []
1628616664.7311, 40, 0, 4109.231, 4304.103, 4075.385, 4141.538, 4086.667, 0, 0, []
1628616664.7391, 41, 0, 4120, 4288.718, 4061.538, 4122.051, 4089.744, 0, 0, []
1628616664.747, 42, 0, 4137.949, 4300.513, 4075.897, 4124.615, 4108.718, 0, 0, []
1628616664.7549, 43, 0, 4141.538, 4309.744, 4078.974, 4127.179, 4114.359, 0, 0, []
1628616664.7627, 44, 0, 4147.179, 4314.359, 4076.41, 4141.026, 4122.564, 0, 0, []
1628616664.7706, 45, 0, 4158.462, 4338.974, 4091.282, 4170.256, 4138.974, 0, 0, []
1628616664.7786, 46, 0, 4162.564, 4355.385, 4087.692, 4184.103, 4140, 0, 0, []
1628616664.7864, 47, 0, 4158.462, 4348.718, 4103.59, 4174.872, 4127.179, 0, 0, []
1628616664.7943, 48, 0, 4146.154, 4343.077, 4089.231, 4148.205, 4106.154, 0, 0, []
1628616664.802, 49, 0, 4130.256, 4327.179, 4056.41, 4122.051, 4077.436, 0, 0, []
1628616664.8099, 50, 0, 4122.564, 4321.026, 4067.179, 4125.641, 4066.154, 0, 0, []
1628616664.8177, 51, 0, 4112.308, 4346.154, 4058.974, 4140, 4067.692, 0, 0, []
1628616664.8256, 52, 0, 4097.436, 4350.256, 4048.205, 4133.333, 4060.513, 0, 0, []
1628616664.8334, 53, 0, 4104.103, 4324.615, 4047.179, 4122.051, 4061.026, 0, 0, []
1628616664.8412, 54, 0, 4122.051, 4330.769, 4057.949, 4117.436, 4072.821, 0, 0, []
1628616664.849, 55, 0, 4130.256, 4350.256, 4098.462, 4109.744, 4078.462, 0, 0, []
1628616664.857, 56, 0, 4133.333, 4342.051, 4106.154, 4106.154, 4085.641, 0, 0, []
1628616664.8649, 57, 0, 4137.436, 4352.308, 4097.949, 4115.385, 4098.462, 0, 0, []
1628616664.8729, 58, 0, 4138.974, 4361.538, 4088.205, 4128.718, 4102.051, 0, 0, []
1628616664.8807, 59, 0, 4131.282, 4326.154, 4074.872, 4141.026, 4097.436, 0, 0, []
1628616664.8887, 60, 0, 4120.513, 4304.103, 4082.564, 4142.051, 4091.795, 0, 0, []
1628616664.8966, 61, 0, 4116.41, 4333.333, 4080.513, 4126.154, 4086.667, 0, 0, []
1628616664.9046, 62, 0, 4125.641, 4361.538, 4088.205, 4123.59, 4093.333, 0, 0, []
1628616664.9125, 63, 0, 4139.487, 4353.333, 4095.897, 4137.949, 4108.718, 0, 0, []
1628616664.9204, 64, 0, 4147.692, 4347.179, 4094.872, 4150.256, 4112.821, 450, 0, []
1628616664.9283, 65, 0, 4142.564, 4358.462, 4111.282, 4154.359, 4099.487, 450, 0, []
1628616664.9361, 66, 0, 4128.205, 4353.846, 4096.923, 4136.923, 4081.538, 16187, 0, []
1628616664.944, 67, 0, 4123.59, 4335.897, 4078.974, 4121.026, 4077.436, 450, 0, []
1628616664.9518, 68, 0, 4134.359, 4329.231, 4078.462, 4134.359, 4089.231, 16133, 0, []
1628616664.9596, 69, 0, 4148.205, 4337.436, 4075.897, 4154.359, 4106.154, 450, 0, []
1628616664.9674, 70, 0, 4155.385, 4329.744, 4098.974, 4152.308, 4115.897, 16075, 0, []
1628616664.9753, 71, 0, 4165.128, 4311.795, 4100, 4139.487, 4123.077, 450, 0, []
1628616664.9831, 72, 0, 4176.41, 4315.897, 4095.897, 4144.103, 4134.872, 450, 0, []
1628616664.991, 73, 0, 4175.385, 4313.846, 4107.692, 4159.487, 4142.051, 16125, 0, []
1628616664.9988, 74, 0, 4169.744, 4296.41, 4097.436, 4158.974, 4140, 450, 0, []
1628616665.0066, 75, 0, 4163.59, 4303.59, 4102.051, 4145.128, 4129.744, 16196, 0, []
1628616665.0144, 76, 0, 4153.333, 4298.974, 4090.256, 4132.821, 4118.462, 450, 0, []
1628616665.0224, 77, 0, 4155.385, 4257.949, 4078.462, 4131.795, 4122.564, 450, 0, []
1628616665.0303, 78, 0, 4180.513, 4254.872, 4093.846, 4135.897, 4136.923, 450, 0, []
1628616665.0383, 79, 0, 4209.231, 4279.487, 4094.872, 4149.231, 4162.564, 16196, 0, []
1628616665.0461, 80, 0, 4236.41, 4261.538, 4106.154, 4161.538, 4192.821, 450, 0, []
1628616665.0541, 81, 0, 4272.308, 4245.641, 4108.205, 4154.359, 4216.923, 450, 0, []
1628616665.062, 82, 0, 4311.282, 4252.308, 4109.744, 4153.846, 4251.282, 450, 0, []
1628616665.07, 83, 0, 4340, 4247.692, 4121.538, 4153.846, 4277.436, 16196, 0, []
1628616665.0779, 84, 0, 4363.077, 4248.718, 4098.462, 4137.436, 4278.462, 450, 0, []
1628616665.0856, 85, 0, 4376.923, 4240.513, 4096.923, 4138.462, 4284.103, 450, 0, []
1628616665.0935, 86, 0, 4375.385, 4201.026, 4109.744, 4148.205, 4300.513, 450, 0, []
1628616665.1013, 87, 0, 4367.179, 4182.564, 4109.744, 4143.59, 4296.41, 16196, 0, []
1628616665.1092, 88, 0, 4355.385, 4199.487, 4116.923, 4146.154, 4274.359, 450, 0, []
1628616665.117, 89, 0, 4338.974, 4200.513, 4100, 4151.282, 4257.949, 450, 0, []
1628616665.1248, 90, 0, 4313.333, 4195.385, 4092.821, 4145.128, 4238.462, 450, 0, []
1628616665.1326, 91, 0, 4279.487, 4197.949, 4085.641, 4137.436, 4216.41, 16196, 0, []
1628616665.1405, 92, 0, 4258.974, 4188.205, 4081.026, 4142.564, 4202.051, 450, 0, []
1628616665.1483, 93, 0, 4261.538, 4184.615, 4108.718, 4154.359, 4191.795, 450, 0, []
1628616665.1563, 94, 0, 4265.128, 4210.256, 4104.103, 4163.077, 4185.128, 450, 0, []
1628616665.1641, 95, 0, 4256.923, 4224.615, 4104.615, 4168.718, 4181.538, 16196, 0, []
1628616665.1721, 96, 0, 4242.051, 4207.179, 4111.282, 4164.615, 4175.897, 450, 0, []
1628616665.18, 97, 0, 4221.026, 4194.359, 4089.744, 4157.949, 4163.59, 450, 0, []
1628616665.188, 98, 0, 4197.949, 4199.487, 4088.205, 4147.179, 4140.513, 450, 0, []
1628616665.1959, 99, 0, 4183.59, 4210.256, 4087.179, 4129.744, 4119.487, 16196, 0, []
1628616665.2038, 100, 0, 4180.513, 4214.872, 4108.205, 4136.923, 4114.872, 450, 0, []
1628616665.2117, 101, 0, 4182.564, 4202.051, 4135.897, 4159.487, 4117.436, 450, 0, []
1628616665.2197, 102, 0, 4183.077, 4194.872, 4122.564, 4159.487, 4113.333, 450, 0, []
1628616665.2276, 103, 0, 4175.897, 4218.462, 4112.308, 4150.256, 4104.615, 16196, 0, []
1628616665.2356, 104, 0, 4166.154, 4228.205, 4100, 4149.231, 4095.385, 450, 0, []
1628616665.2434, 105, 0, 4166.154, 4203.077, 4099.487, 4151.282, 4098.974, 450, 0, []
1628616665.2512, 106, 0, 4169.744, 4191.282, 4105.641, 4152.821, 4111.282, 450, 0, []
1628616665.2591, 107, 0, 4173.846, 4198.974, 4097.436, 4160.513, 4117.949, 16196, 0, []
1628616665.2669, 108, 0, 4175.897, 4205.128, 4120.513, 4170.769, 4118.462, 450, 0, []
1628616665.2748, 109, 0, 4172.308, 4207.692, 4125.128, 4163.59, 4120, 450, 0, []
1628616665.2825, 110, 0, 4169.744, 4218.462, 4103.59, 4151.282, 4116.41, 450, 0, []
1628616665.2904, 111, 0, 4169.744, 4229.744, 4099.487, 4150.769, 4102.051, 16196, 0, []
1628616665.2982, 112, 0, 4171.282, 4233.333, 4098.974, 4148.205, 4091.795, 450, 0, []
1628616665.3062, 113, 0, 4169.231, 4239.487, 4111.795, 4145.128, 4087.179, 450, 0, []
1628616665.3141, 114, 0, 4162.051, 4251.282, 4099.487, 4144.615, 4084.615, 450, 0, []
1628616665.3219, 115, 0, 4158.462, 4247.179, 4080, 4145.128, 4084.103, 16196, 0, []
1628616665.3297, 116, 0, 4163.077, 4227.179, 4102.051, 4152.821, 4088.205, 450, 0, []
1628616665.3377, 117, 0, 4170.256, 4232.821, 4119.487, 4168.205, 4098.974, 450, 0, []
1628616665.3456, 118, 0, 4169.231, 4250.769, 4122.051, 4168.205, 4104.103, 450, 0, []
1628616665.3536, 119, 0, 4163.077, 4250.769, 4102.051, 4153.333, 4104.103, 16196, 0, []
1628616665.3614, 120, 0, 4160, 4241.026, 4092.821, 4150.769, 4105.128, 450, 0, []
1628616665.3694, 121, 0, 4164.615, 4238.974, 4116.923, 4159.487, 4111.795, 450, 0, []
1628616665.3773, 122, 0, 4173.846, 4250.256, 4105.641, 4163.59, 4118.462, 450, 0, []
1628616665.3853, 123, 0, 4173.846, 4264.615, 4098.462, 4158.462, 4117.949, 16196, 0, []
1628616665.3932, 124, 0, 4166.154, 4272.821, 4107.179, 4145.128, 4111.282, 450, 0, []
1628616665.401, 125, 0, 4166.154, 4282.564, 4107.692, 4142.051, 4111.795, 450, 0, []
1628616665.4089, 126, 0, 4175.385, 4310.256, 4117.949, 4147.692, 4120.513, 450, 0, []
1628616665.4167, 127, 0, 4178.974, 4327.692, 4100.513, 4146.667, 4115.897, 16196, 0, []
1628616665.4246, 128, 0, 4173.333, 4327.692, 4096.923, 4149.744, 4101.538, 450, 0, []
1628616665.4324, 0, 0, 4171.795, 4351.795, 4114.359, 4157.949, 4100.513, 450, 0, []
1628616665.4402, 1, 0, 4174.359, 4366.154, 4114.359, 4159.487, 4109.744, 450, 0, []
1628616665.448, 2, 0, 4171.282, 4340.513, 4120.513, 4161.538, 4110.769, 16181, 0, []
1628616665.456, 3, 0, 4170.769, 4341.026, 4111.795, 4163.077, 4115.897, 450, 0, []
1628616665.4639, 4, 0, 4170.769, 4364.103, 4113.846, 4155.385, 4123.59, 16128, 0, []
1628616665.4719, 5, 0, 4163.077, 4349.744, 4114.872, 4142.051, 4111.795, 450, 0, []
1628616665.4797, 6, 0, 4161.538, 4342.051, 4094.359, 4138.974, 4102.051, 16073, 0, []
1628616665.4877, 7, 0, 4167.179, 4372.821, 4106.154, 4149.744, 4110.769, 450, 0, []
1628616665.4956, 8, 0, 4169.744, 4376.923, 4109.744, 4152.821, 4113.333, 450, 0, []
1628616665.5036, 9, 0, 4169.744, 4330.256, 4106.154, 4151.795, 4103.59, 16117, 0, []
1628616665.5115, 10, 0, 4169.231, 4299.487, 4108.718, 4152.308, 4101.538, 450, 0, []
1628616665.5194, 11, 0, 4167.692, 4319.487, 4095.385, 4146.154, 4106.667, 16194, 0, []
1628616665.5273, 12, 0, 4173.846, 4346.667, 4109.231, 4148.718, 4113.333, 450, 0, []
1628616665.5353, 13, 0, 4186.667, 4350.769, 4111.795, 4158.974, 4125.641, 450, 0, []
1628616665.5432, 14, 0, 4185.128, 4345.128, 4105.641, 4165.128, 4129.231, 450, 0, []
1628616665.551, 15, 0, 4170.256, 4333.846, 4112.308, 4165.641, 4118.974, 16194, 0, []
1628616665.5588, 16, 0, 4162.051, 4323.077, 4098.974, 4155.897, 4109.744, 0, 0, []
1628616665.5666, 17, 0, 4164.615, 4341.538, 4100.513, 4143.077, 4111.282, 0, 0, []
1628616665.5745, 18, 0, 4167.179, 4352.821, 4100.513, 4141.026, 4117.436, 0, 0, []
1628616665.5823, 19, 0, 4178.974, 4326.667, 4107.692, 4156.41, 4123.59, 0, 0, []
1628616665.5902, 20, 0, 4196.923, 4330.256, 4130.769, 4171.282, 4127.692, 0, 0, []
1628616665.5979, 21, 0, 4193.333, 4356.923, 4108.205, 4168.205, 4120, 0, 0, []
1628616665.6058, 22, 0, 4180.513, 4347.692, 4102.051, 4162.564, 4111.282, 0, 0, []
1628616665.6136, 23, 0, 4187.179, 4335.385, 4121.538, 4167.692, 4120, 0, 0, []
1628616665.6215, 24, 0, 4191.282, 4352.821, 4122.564, 4173.333, 4129.744, 0, 0, []
1628616665.6293, 25, 0, 4172.821, 4341.026, 4118.974, 4162.564, 4115.385, 0, 0, []
1628616665.6372, 26, 0, 4163.077, 4301.026, 4104.103, 4149.231, 4103.077, 0, 0, []
1628616665.6451, 27, 0, 4166.154, 4310.256, 4111.795, 4148.718, 4112.308, 0, 0, []
1628616665.6531, 28, 0, 4163.59, 4352.821, 4114.872, 4141.538, 4121.026, 0, 0, []
1628616665.661, 29, 0, 4168.718, 4371.282, 4106.154, 4137.949, 4122.564, 0, 0, []
1628616665.669, 30, 0, 4185.641, 4362.051, 4114.872, 4151.282, 4122.051, 0, 0, []
1628616665.6768, 31, 0, 4190.256, 4356.923, 4103.077, 4162.051, 4125.128, 0, 0, []
1628616665.6848, 32, 0, 4182.051, 4364.103, 4115.385, 4164.615, 4129.231, 0, 0, []
1628616665.6927, 33, 0, 4190.256, 4361.026, 4133.333, 4163.59, 4134.872, 0, 0, []
1628616665.7005, 34, 0, 4203.077, 4355.897, 4117.436, 4160.513, 4143.077, 0, 0, []
1628616665.7084, 35, 0, 4189.231, 4356.923, 4118.974, 4155.385, 4140.513, 0, 0, []
1628616665.7161, 36, 0, 4169.744, 4351.795, 4110.256, 4145.641, 4127.692, 0, 0, []
1628616665.724, 37, 0, 4169.231, 4351.282, 4107.179, 4144.615, 4121.026, 0, 0, []
1628616665.7318, 38, 0, 4170.256, 4356.41, 4115.385, 4152.821, 4124.103, 0, 0, []
1628616665.7397, 39, 0, 4173.333, 4329.231, 4109.231, 4159.487, 4127.179, 0, 0, []
1628616665.7475, 40, 0, 4183.59, 4301.538, 4115.897, 4161.026, 4118.462, 0, 0, []
1628616665.7554, 41, 0, 4175.385, 4319.487, 4100, 4146.667, 4103.59, 0, 0, []
1628616665.7631, 42, 0, 4153.846, 4329.744, 4095.897, 4132.821, 4097.436, 0, 0, []
1628616665.7711, 43, 0, 4149.231, 4316.41, 4107.692, 4135.897, 4102.564, 0, 0, []
1628616665.779, 44, 0, 4161.538, 4331.282, 4093.846, 4145.641, 4117.436, 0, 0, []
1628616665.787, 45, 0, 4168.718, 4343.077, 4101.538, 4151.795, 4128.205, 0, 0, []
1628616665.7949, 46, 0, 4157.949, 4310.256, 4102.051, 4142.564, 4120, 0, 0, []
1628616665.8028, 47, 0, 4147.179, 4301.026, 4091.282, 4128.718, 4110.769, 0, 0, []
1628616665.8107, 48, 0, 4156.41, 4335.897, 4096.41, 4130.769, 4118.974, 0, 0, []
1628616665.8187, 49, 0, 4171.282, 4340.513, 4095.385, 4147.692, 4128.205, 0, 0, []
1628616665.8266, 50, 0, 4171.795, 4321.538, 4104.103, 4151.282, 4119.487, 0, 0, []
1628616665.8346, 51, 0, 4168.205, 4335.897, 4095.897, 4131.282, 4107.692, 0, 0, []
1628616665.8424, 52, 0, 4167.692, 4349.231, 4090.256, 4129.744, 4110.769, 0, 0, []
1628616665.8503, 53, 0, 4168.718, 4334.872, 4108.718, 4153.846, 4126.154, 0, 0, []
1628616665.8582, 54, 0, 4171.282, 4324.103, 4101.026, 4162.051, 4138.974, 0, 0, []
1628616665.866, 55, 0, 4173.846, 4305.641, 4103.077, 4154.872, 4142.051, 0, 0, []
1628616665.8739, 56, 0, 4171.282, 4293.333, 4105.128, 4154.359, 4137.436, 0, 0, []
1628616665.8816, 57, 0, 4166.154, 4309.744, 4093.333, 4147.692, 4128.205, 0, 0, []
1628616665.8895, 58, 0, 4165.641, 4307.179, 4094.872, 4129.231, 4121.026, 0, 0, []
1628616665.8973, 59, 0, 4166.667, 4300, 4085.641, 4123.077, 4124.103, 0, 0, []
1628616665.9052, 60, 0, 4169.231, 4321.026, 4098.974, 4138.974, 4132.821, 0, 0, []
1628616665.913, 61, 0, 4180.513, 4305.128, 4112.821, 4152.308, 4135.897, 0, 0, []
1628616665.9208, 62, 0, 4187.692, 4268.718, 4105.641, 4151.795, 4133.846, 0, 0, []
1628616665.9286, 63, 0, 4184.103, 4292.308, 4116.41, 4154.359, 4131.282, 0, 0, []
1628616665.9366, 64, 0, 4186.154, 4307.692, 4111.282, 4161.026, 4131.282, 450, 0, []
1628616665.9445, 65, 0, 4183.077, 4275.897, 4109.231, 4156.41, 4124.615, 450, 0, []
1628616665.9525, 66, 0, 4163.077, 4272.308, 4104.615, 4141.026, 4108.718, 16188, 0, []
1628616665.9603, 67, 0, 4149.231, 4274.359, 4090.769, 4130.256, 4101.026, 450, 0, []
1628616665.9683, 68, 0, 4145.641, 4241.538, 4105.128, 4128.205, 4097.436, 16133, 0, []
1628616665.9762, 69, 0, 4150.256, 4230.256, 4108.205, 4137.436, 4104.103, 450, 0, []
1628616665.9842, 70, 0, 4169.231, 4249.231, 4115.385, 4159.487, 4126.667, 16082, 0, []
1628616665.9921, 71, 0, 4180.513, 4262.051, 4115.897, 4165.641, 4138.974, 450, 0, []
1628616666, 72, 0, 4168.205, 4264.615, 4097.436, 4150.256, 4124.615, 450, 0, []
1628616666.0079, 73, 0, 4162.564, 4255.385, 4116.41, 4143.077, 4114.359, 16129, 0, []
1628616666.0159, 74, 0, 4180, 4236.923, 4118.974, 4145.128, 4124.615, 450, 0, []
1628616666.0238, 75, 0, 4188.718, 4217.436, 4109.744, 4146.667, 4128.718, 16198, 0, []
1628616666.0316, 76, 0, 4183.077, 4214.872, 4118.974, 4141.538, 4128.205, 450, 0, []
1628616666.0394, 77, 0, 4190.256, 4226.154, 4114.359, 4139.487, 4142.564, 450, 0, []
1628616666.0472, 78, 0, 4201.538, 4220.513, 4118.974, 4152.821, 4153.846, 450, 0, []
1628616666.0551, 79, 0, 4200, 4187.692, 4104.615, 4156.41, 4155.897, 16198, 0, []
1628616666.0629, 80, 0, 4213.846, 4174.359, 4089.744, 4143.077, 4170.769, 450, 0, []
1628616666.0708, 81, 0, 4253.846, 4195.385, 4100.513, 4135.385, 4196.41, 450, 0, []
1628616666.0785, 82, 0, 4296.41, 4207.179, 4094.359, 4132.308, 4220, 450, 0, []
1628616666.0864, 83, 0, 4337.949, 4215.385, 4096.41, 4131.795, 4255.897, 16198, 0, []
1628616666.0942, 84, 0, 4376.923, 4214.872, 4095.897, 4136.923, 4308.718, 450, 0, []
1628616666.1022, 85, 0, 4397.949, 4202.051, 4103.077, 4147.179, 4342.564, 450, 0, []
1628616666.1101, 86, 0, 4406.667, 4217.436, 4124.103, 4156.923, 4347.179, 450, 0, []
1628616666.118, 87, 0, 4409.231, 4233.333, 4112.308, 4169.744, 4346.154, 16198, 0, []
1628616666.1259, 88, 0, 4403.59, 4214.359, 4121.538, 4180, 4344.615, 450, 0, []
1628616666.1339, 89, 0, 4391.795, 4202.564, 4137.436, 4174.872, 4332.821, 450, 0, []
1628616666.1418, 90, 0, 4382.564, 4217.949, 4133.333, 4173.333, 4319.487, 450, 0, []
1628616666.1498, 91, 0, 4368.718, 4224.615, 4134.359, 4174.359, 4302.051, 16198, 0, []
1628616666.1576, 92, 0, 4337.949, 4230.256, 4123.59, 4163.59, 4276.923, 450, 0, []
1628616666.1656, 93, 0, 4310.256, 4251.282, 4132.308, 4158.462, 4255.897, 450, 0, []
1628616666.1735, 94, 0, 4307.179, 4268.718, 4134.872, 4158.974, 4244.103, 450, 0, []
1628616666.1813, 95, 0, 4306.154, 4273.846, 4121.026, 4160.513, 4237.949, 16198, 0, []
1628616666.1892, 96, 0, 4285.128, 4253.846, 4130.769, 4166.667, 4229.744, 450, 0, []
1628616666.1969, 97, 0, 4257.949, 4240.513, 4120, 4165.128, 4212.821, 450, 0, []
1628616666.2048, 98, 0, 4246.154, 4263.077, 4116.41, 4158.974, 4198.974, 450, 0, []
1628616666.2126, 99, 0, 4245.641, 4267.179, 4121.026, 4162.051, 4196.41, 16198, 0, []
1628616666.2205, 100, 0, 4236.923, 4244.615, 4108.718, 4162.051, 4182.051, 450, 0, []
1628616666.2283, 101, 0, 4210.256, 4247.179, 4114.872, 4148.718, 4149.744, 450, 0, []
1628616666.2361, 102, 0, 4194.359, 4252.821, 4107.692, 4144.615, 4139.487, 450, 0, []
1628616666.2439, 103, 0, 4205.641, 4232.821, 4101.026, 4149.744, 4152.821, 16198, 0, []
1628616666.2519, 104, 0, 4208.205, 4229.231, 4094.359, 4137.949, 4151.282, 450, 0, []
1628616666.2598, 105, 0, 4189.231, 4235.385, 4080, 4129.231, 4135.897, 450, 0, []
1628616666.2678, 106, 0, 4178.974, 4226.154, 4110.256, 4150.256, 4133.846, 450, 0, []
1628616666.2756, 107, 0, 4185.128, 4225.128, 4120.513, 4163.59, 4140, 16198, 0, []
1628616666.2836, 108, 0, 4190.256, 4241.538, 4108.718, 4157.949, 4136.41, 450, 0, []
1628616666.2915, 109, 0, 4195.897, 4265.641, 4111.795, 4157.949, 4135.897, 450, 0, []
1628616666.2995, 110, 0, 4202.051, 4256.41, 4106.154, 4159.487, 4142.564, 450, 0, []
1628616666.3074, 111, 0, 4201.538, 4208.718, 4107.179, 4164.103, 4141.538, 16198, 0, []
1628616666.3153, 112, 0, 4198.462, 4206.667, 4089.231, 4172.308, 4137.436, 450, 0, []
1628616666.3232, 113, 0, 4202.051, 4251.282, 4083.077, 4171.282, 4146.667, 450, 0, []
1628616666.331, 114, 0, 4210.769, 4246.154, 4101.538, 4166.667, 4158.974, 450, 0, []
1628616666.3389, 115, 0, 4212.821, 4223.59, 4101.538, 4169.744, 4160.513, 16198, 0, []
1628616666.3467, 116, 0, 4198.462, 4248.718, 4111.795, 4168.205, 4154.359, 450, 0, []
1628616666.3545, 117, 0, 4184.615, 4271.795, 4103.59, 4150.769, 4147.179, 450, 0, []
1628616666.3623, 118, 0, 4186.154, 4276.923, 4095.385, 4149.231, 4150.769, 450, 0, []
1628616666.3702, 119, 0, 4188.205, 4280.513, 4102.564, 4158.462, 4151.795, 16198, 0, []
1628616666.378, 120, 0, 4183.077, 4284.103, 4076.923, 4147.692, 4135.897, 450, 0, []
1628616666.3859, 121, 0, 4188.205, 4303.077, 4077.436, 4141.538, 4131.795, 450, 0, []
1628616666.3936, 122, 0, 4200.513, 4311.795, 4091.795, 4148.718, 4147.692, 450, 0, []
1628616666.4016, 123, 0, 4204.615, 4304.615, 4090.256, 4157.949, 4154.872, 16198, 0, []
1628616666.4095, 124, 0, 4197.436, 4310.769, 4094.359, 4165.128, 4147.692, 450, 0, []
1628616666.4175, 125, 0, 4180.513, 4300.513, 4075.897, 4160.513, 4135.897, 450, 0, []
1628616666.4254, 126, 0, 4170.769, 4275.897, 4076.923, 4147.179, 4122.564, 450, 0, []
1628616666.4333, 127, 0, 4182.051, 4293.333, 4089.744, 4141.026, 4126.667, 16198, 0, []
1628616666.4412, 128, 0, 4188.718, 4321.026, 4085.128, 4137.949, 4142.564, 450, 0, []
1628616666.4492, 0, 0, 4182.051, 4324.615, 4082.564, 4134.872, 4134.872, 450, 0, []
1628616666.4571, 1, 0, 4182.564, 4326.154, 4066.667, 4140.513, 4119.487, 450, 0, []
1628616666.4651, 2, 0, 4187.179, 4315.897, 4071.795, 4144.615, 4125.128, 16184, 0, []
1628616666.4729, 3, 0, 4192.821, 4310.769, 4082.051, 4141.026, 4141.538, 450, 0, []
1628616666.4807, 4, 0, 4200.513, 4309.744, 4078.462, 4145.641, 4147.692, 16132, 0, []
1628616666.4886, 5, 0, 4185.641, 4287.179, 4091.795, 4144.103, 4138.462, 450, 0, []
1628616666.4964, 6, 0, 4156.41, 4275.385, 4076.923, 4122.564, 4125.128, 16078, 0, []
1628616666.5043, 7, 0, 4152.821, 4295.385, 4068.205, 4120, 4116.41, 450, 0, []
1628616666.5121, 8, 0, 4165.641, 4316.41, 4074.872, 4136.41, 4120.513, 450, 0, []
1628616666.5199, 9, 0, 4171.795, 4316.923, 4065.128, 4139.487, 4135.897, 16125, 0, []
1628616666.5277, 10, 0, 4177.949, 4316.923, 4078.974, 4135.897, 4137.436, 450, 0, []
1628616666.5356, 11, 0, 4180, 4329.744, 4081.538, 4137.949, 4127.179, 16195, 0, []
1628616666.5434, 12, 0, 4171.795, 4335.385, 4072.821, 4137.949, 4121.538, 450, 0, []
1628616666.5514, 13, 0, 4165.641, 4324.103, 4077.949, 4129.744, 4117.436, 450, 0, []
1628616666.5592, 14, 0, 4172.821, 4320.513, 4074.872, 4130.256, 4124.103, 450, 0, []
1628616666.5672, 15, 0, 4187.179, 4352.308, 4087.179, 4145.128, 4146.667, 16195, 0, []
1628616666.5751, 16, 0, 4194.872, 4382.051, 4088.205, 4151.282, 4154.359, 0, 0, []
1628616666.5831, 17, 0, 4190.769, 4380, 4084.615, 4143.077, 4139.487, 0, 0, []
1628616666.5911, 18, 0, 4181.026, 4376.41, 4088.205, 4135.897, 4133.846, 0, 0, []
1628616666.5989, 19, 0, 4176.923, 4379.487, 4077.436, 4133.333, 4139.487, 0, 0, []
1628616666.6069, 20, 0, 4172.308, 4373.333, 4087.179, 4129.231, 4134.872, 0, 0, []
1628616666.6148, 21, 0, 4168.205, 4373.846, 4077.949, 4117.436, 4124.103, 0, 0, []
1628616666.6228, 22, 0, 4169.744, 4384.103, 4070.256, 4127.179, 4128.205, 0, 0, []
1628616666.6307, 23, 0, 4173.846, 4376.41, 4097.436, 4151.282, 4138.462, 0, 0, []
1628616666.6386, 24, 0, 4168.205, 4364.103, 4086.667, 4142.564, 4131.795, 0, 0, []
1628616666.6465, 25, 0, 4158.462, 4383.077, 4076.923, 4119.487, 4120.513, 0, 0, []
1628616666.6545, 26, 0, 4156.41, 4400.513, 4072.821, 4112.308, 4122.564, 0, 0, []
1628616666.6624, 27, 0, 4156.41, 4384.103, 4072.821, 4108.718, 4124.615, 0, 0, []
1628616666.6704, 28, 0, 4152.308, 4350.256, 4088.205, 4105.641, 4119.487, 0, 0, []
1628616666.6782, 29, 0, 4153.333, 4352.308, 4075.385, 4114.359, 4120, 0, 0, []
1628616666.6862, 30, 0, 4163.077, 4382.564, 4089.744, 4139.487, 4127.179, 0, 0, []
1628616666.6941, 31, 0, 4167.179, 4373.333, 4105.641, 4158.974, 4134.359, 0, 0, []
1628616666.7021, 32, 0, 4166.154, 4345.128, 4089.744, 4157.949, 4139.487, 0, 0, []
1628616666.7101, 33, 0, 4173.846, 4356.41, 4093.333, 4148.718, 4140.513, 0, 0, []
1628616666.7179, 34, 0, 4182.564, 4373.333, 4088.718, 4143.59, 4134.359, 0, 0, []
1628616666.7259, 35, 0, 4184.615, 4352.821, 4085.641, 4134.359, 4126.667, 0, 0, []
1628616666.7338, 36, 0, 4189.744, 4348.718, 4084.103, 4122.051, 4135.385, 0, 0, []
1628616666.7417, 37, 0, 4197.436, 4363.077, 4080, 4124.615, 4148.718, 0, 0, []
1628616666.7496, 38, 0, 4182.564, 4332.821, 4096.923, 4133.846, 4145.641, 0, 0, []
1628616666.7574, 39, 0, 4160, 4302.051, 4089.744, 4138.974, 4137.436, 0, 0, []
1628616666.7654, 40, 0, 4157.949, 4330.769, 4079.487, 4148.205, 4135.385, 0, 0, []
1628616666.7734, 41, 0, 4170.769, 4347.692, 4083.077, 4149.231, 4142.564, 0, 0, []
1628616666.7813, 42, 0, 4185.641, 4322.564, 4083.077, 4146.667, 4157.436, 0, 0, []
1628616666.7893, 43, 0, 4186.154, 4331.795, 4092.308, 4146.667, 4151.282, 0, 0, []
1628616666.7971, 44, 0, 4171.282, 4353.846, 4072.821, 4133.846, 4126.667, 0, 0, []
1628616666.8051, 45, 0, 4164.103, 4332.308, 4065.641, 4126.667, 4123.077, 0, 0, []
1628616666.813, 46, 0, 4169.231, 4303.59, 4078.974, 4128.718, 4130.256, 0, 0, []
1628616666.821, 47, 0, 4170.769, 4311.282, 4068.718, 4125.128, 4127.179, 0, 0, []
1628616666.8289, 48, 0, 4167.692, 4328.718, 4081.538, 4127.179, 4130.256, 0, 0, []
1628616666.8368, 49, 0, 4171.282, 4310.256, 4091.795, 4136.923, 4149.744, 0, 0, []
1628616666.8447, 50, 0, 4191.282, 4272.308, 4098.462, 4149.744, 4175.385, 0, 0, []
1628616666.8527, 51, 0, 4208.205, 4271.795, 4102.051, 4143.59, 4186.154, 0, 0, []
1628616666.8607, 52, 0, 4208.718, 4302.051, 4082.564, 4118.974, 4184.103, 0, 0, []
1628616666.8686, 53, 0, 4222.564, 4298.974, 4097.949, 4120.513, 4190.769, 0, 0, []
1628616666.8765, 54, 0, 4252.821, 4286.667, 4094.359, 4131.282, 4208.205, 0, 0, []
1628616666.8844, 55, 0, 4275.385, 4307.692, 4069.744, 4119.487, 4225.128, 0, 0, []
1628616666.8924, 56, 0, 4298.974, 4323.077, 4080, 4115.897, 4250.769, 0, 0, []
1628616666.9003, 57, 0, 4333.333, 4301.026, 4083.59, 4133.846, 4287.179, 0, 0, []
1628616666.9083, 58, 0, 4357.436, 4275.385, 4086.154, 4137.949, 4307.692, 0, 0, []
1628616666.9161, 59, 0, 4364.103, 4274.359, 4082.564, 4131.282, 4312.308, 0, 0, []
1628616666.9241, 60, 0, 4362.564, 4260.513, 4083.59, 4138.462, 4314.872, 0, 0, []
1628616666.932, 61, 0, 4357.949, 4253.333, 4106.154, 4145.128, 4316.923, 0, 0, []
1628616666.94, 62, 0, 4353.846, 4266.154, 4107.692, 4135.897, 4308.718, 0, 0, []
1628616666.9479, 63, 0, 4344.615, 4257.436, 4108.205, 4128.205, 4292.821, 0, 0, []
1628616666.9558, 64, 0, 4324.103, 4242.564, 4096.923, 4134.359, 4279.487, 450, 0, []
1628616666.9637, 65, 0, 4305.641, 4261.538, 4082.564, 4146.667, 4275.385, 450, 0, []
1628616666.9717, 66, 0, 4290.256, 4270.769, 4096.923, 4144.615, 4264.615, 16182, 0, []
1628616666.9796, 67, 0, 4271.795, 4241.026, 4084.103, 4128.205, 4237.949, 450, 0, []
1628616666.9876, 68, 0, 4258.462, 4242.051, 4082.051, 4118.462, 4218.462, 16128, 0, []
1628616666.9954, 69, 0, 4251.282, 4252.308, 4095.385, 4123.077, 4215.897, 450, 0, []
1628616667.0034, 70, 0, 4247.179, 4236.41, 4088.718, 4136.923, 4217.949, 16074, 0, []
1628616667.0113, 71, 0, 4244.615, 4246.667, 4091.795, 4141.538, 4216.41, 450, 0, []
1628616667.0193, 72, 0, 4235.897, 4271.282, 4082.564, 4129.744, 4207.179, 450, 0, []
1628616667.0273, 73, 0, 4218.462, 4252.821, 4088.205, 4127.692, 4189.744, 16126, 0, []
1628616667.0351, 74, 0, 4204.615, 4213.333, 4093.846, 4130.256, 4181.026, 450, 0, []
1628616667.0431, 75, 0, 4201.538, 4201.538, 4077.436, 4120, 4182.051, 16195, 0, []
1628616667.051, 76, 0, 4201.026, 4203.077, 4099.487, 4117.949, 4172.308, 450, 0, []
1628616667.059, 77, 0, 4202.564, 4203.077, 4106.667, 4125.128, 4167.179, 450, 0, []
1628616667.0669, 78, 0, 4203.59, 4195.897, 4095.385, 4129.231, 4173.846, 450, 0, []
1628616667.0748, 79, 0, 4190.769, 4186.154, 4093.333, 4127.692, 4162.051, 16195, 0, []
1628616667.0827, 80, 0, 4169.744, 4180.513, 4075.385, 4121.538, 4136.923, 450, 0, []
1628616667.0907, 81, 0, 4162.051, 4177.436, 4076.41, 4120.513, 4132.308, 450, 0, []
1628616667.0986, 82, 0, 4174.359, 4202.051, 4088.718, 4132.308, 4146.667, 450, 0, []
1628616667.1066, 83, 0, 4186.154, 4223.59, 4116.923, 4149.231, 4161.026, 16195, 0, []
1628616667.1144, 84, 0, 4181.538, 4198.462, 4134.872, 4147.179, 4163.077, 450, 0, []
1628616667.1224, 85, 0, 4177.436, 4180.513, 4107.692, 4136.923, 4160.513, 450, 0, []
1628616667.1303, 86, 0, 4178.462, 4206.667, 4097.949, 4140.513, 4155.897, 450, 0, []
1628616667.1383, 87, 0, 4175.385, 4210.769, 4088.718, 4149.744, 4144.615, 16195, 0, []
1628616667.1462, 88, 0, 4167.692, 4173.846, 4087.179, 4158.974, 4133.333, 450, 0, []
1628616667.1541, 89, 0, 4166.667, 4172.308, 4109.231, 4167.692, 4133.333, 450, 0, []
1628616667.162, 90, 0, 4176.41, 4196.923, 4109.744, 4172.308, 4147.692, 450, 0, []
1628616667.17, 91, 0, 4181.026, 4189.231, 4124.103, 4169.231, 4154.872, 16195, 0, []
1628616667.178, 92, 0, 4173.333, 4175.385, 4123.59, 4146.667, 4144.103, 450, 0, []
1628616667.1859, 93, 0, 4166.154, 4177.436, 4109.231, 4125.641, 4131.282, 450, 0, []
1628616667.1938, 94, 0, 4167.179, 4185.128, 4126.667, 4136.41, 4132.308, 450, 0, []
1628616667.2017, 95, 0, 4169.744, 4202.564, 4121.026, 4158.462, 4145.128, 16195, 0, []
1628616667.2097, 96, 0, 4173.846, 4224.103, 4110.256, 4168.205, 4151.795, 450, 0, []
1628616667.2176, 97, 0, 4181.538, 4209.744, 4107.179, 4171.795, 4154.872, 450, 0, []
1628616667.2256, 98, 0, 4176.41, 4181.538, 4102.051, 4172.821, 4156.41, 450, 0, []
1628616667.2334, 99, 0, 4158.974, 4191.795, 4101.026, 4161.538, 4139.487, 16195, 0, []
1628616667.2414, 100, 0, 4149.231, 4200.513, 4078.974, 4140, 4112.821, 450, 0, []
1628616667.2493, 101, 0, 4153.333, 4195.897, 4082.564, 4130.769, 4110.769, 450, 0, []
1628616667.2573, 102, 0, 4157.436, 4210.769, 4093.846, 4142.564, 4122.564, 450, 0, []
1628616667.2652, 103, 0, 4157.436, 4214.359, 4085.128, 4160.513, 4122.564, 16195, 0, []
1628616667.2731, 104, 0, 4162.051, 4188.205, 4090.769, 4167.692, 4126.667, 450, 0, []
1628616667.281, 105, 0, 4168.205, 4179.487, 4077.949, 4161.026, 4138.462, 450, 0, []
1628616667.289, 106, 0, 4159.487, 4201.026, 4076.923, 4155.897, 4134.359, 450, 0, []
1628616667.2969, 107, 0, 4141.538, 4200.513, 4081.026, 4147.179, 4120, 16195, 0, []
1628616667.3049, 108, 0, 4136.41, 4191.795, 4072.308, 4140.513, 4120.513, 450, 0, []
1628616667.3127, 109, 0, 4140.513, 4208.718, 4103.59, 4144.103, 4123.077, 450, 0, []
1628616667.3206, 110, 0, 4132.821, 4207.692, 4114.872, 4135.385, 4111.795, 450, 0, []
1628616667.3285, 111, 0, 4125.128, 4205.128, 4105.128, 4129.231, 4107.179, 16195, 0, []
1628616667.3363, 112, 0, 4133.846, 4232.821, 4104.103, 4141.538, 4118.974, 450, 0, []
1628616667.3443, 113, 0, 4142.051, 4233.333, 4089.231, 4144.615, 4123.59, 450, 0, []
1628616667.3521, 114, 0, 4143.077, 4210.769, 4089.744, 4134.359, 4122.051, 450, 0, []
1628616667.3601, 115, 0, 4146.667, 4233.333, 4083.077, 4128.718, 4121.026, 16195, 0, []
1628616667.368, 116, 0, 4137.949, 4255.385, 4079.487, 4126.154, 4104.615, 450, 0, []
1628616667.376, 117, 0, 4133.846, 4230.769, 4088.718, 4125.641, 4092.821, 450, 0, []
1628616667.3839, 118, 0, 4156.923, 4233.333, 4083.59, 4128.718, 4112.308, 450, 0, []
1628616667.3918, 119, 0, 4179.487, 4263.077, 4096.923, 4134.359, 4143.077, 16195, 0, []
1628616667.3997, 120, 0, 4177.436, 4252.308, 4096.923, 4147.692, 4158.462, 450, 0, []
1628616667.4077, 121, 0, 4160.513, 4230.769, 4089.744, 4155.897, 4156.41, 450, 0, []
1628616667.4156, 122, 0, 4154.872, 4244.615, 4104.615, 4149.231, 4145.128, 450, 0, []
1628616667.4236, 123, 0, 4163.59, 4260.513, 4103.077, 4156.41, 4145.128, 16195, 0, []
1628616667.4314, 124, 0, 4161.538, 4243.077, 4100.513, 4173.846, 4150.256, 450, 0, []
1628616667.4394, 125, 0, 4148.205, 4223.59, 4086.667, 4162.564, 4141.538, 450, 0, []
1628616667.4473, 126, 0, 4151.282, 4229.744, 4086.154, 4148.205, 4140, 450, 0, []
1628616667.4553, 127, 0, 4159.487, 4241.026, 4110.256, 4154.872, 4154.359, 16195, 0, []
1628616667.4632, 128, 0, 4156.41, 4232.821, 4096.923, 4150.256, 4157.949, 450, 0, []
1628616667.471, 0, 0, 4156.923, 4209.231, 4096.41, 4132.821, 4144.103, 450, 0, []
1628616667.4788, 1, 0, 4159.487, 4207.692, 4098.462, 4129.744, 4135.897, 450, 0, []
1628616667.4866, 2, 0, 4157.436, 4216.41, 4081.538, 4145.641, 4138.462, 16181, 0, []
1628616667.4946, 3, 0, 4152.308, 4213.333, 4093.333, 4153.333, 4129.231, 450, 0, []
1628616667.5025, 4, 0, 4144.615, 4215.385, 4089.231, 4139.487, 4113.846, 16133, 0, []
1628616667.5105, 5, 0, 4138.974, 4240, 4083.59, 4138.974, 4111.795, 450, 0, []
1628616667.5183, 6, 0, 4142.564, 4260, 4089.231, 4152.821, 4120, 16078, 0, []
1628616667.5263, 7, 0, 4152.821, 4247.692, 4092.821, 4157.436, 4129.231, 450, 0, []
1628616667.5342, 8, 0, 4162.051, 4237.436, 4109.231, 4160.513, 4140.513, 450, 0, []
1628616667.5422, 9, 0, 4168.718, 4248.205, 4102.051, 4166.667, 4153.846, 16131, 0, []
1628616667.5501, 10, 0, 4169.744, 4252.308, 4097.949, 4168.205, 4157.949, 450, 0, []
1628616667.558, 11, 0, 4169.231, 4245.641, 4099.487, 4161.538, 4151.282, 16196, 0, []
1628616667.5659, 12, 0, 4172.308, 4245.128, 4088.718, 4154.359, 4150.769, 450, 0, []
1628616667.5739, 13, 0, 4172.821, 4235.385, 4094.872, 4150.769, 4153.846, 450, 0, []
1628616667.5818, 14, 0, 4172.308, 4218.462, 4086.154, 4145.128, 4145.641, 450, 0, []
1628616667.5898, 15, 0, 4181.026, 4224.615, 4088.205, 4148.718, 4134.359, 16196, 0, []
1628616667.5976, 16, 0, 4183.59, 4243.59, 4099.487, 4150.256, 4133.333, 0, 0, []
1628616667.6054, 17, 0, 4173.846, 4251.282, 4081.538, 4139.487, 4138.974, 0, 0, []
1628616667.6133, 18, 0, 4170.256, 4237.949, 4080.513, 4139.487, 4143.077, 0, 0, []
1628616667.6211, 19, 0, 4167.692, 4223.077, 4072.821, 4144.615, 4141.026, 0, 0, []
1628616667.629, 20, 0, 4154.359, 4226.667, 4069.231, 4138.974, 4137.436, 0, 0, []
1628616667.6367, 21, 0, 4148.718, 4235.385, 4084.103, 4141.026, 4136.923, 0, 0, []
1628616667.6447, 22, 0, 4157.436, 4236.41, 4082.564, 4155.385, 4139.487, 0, 0, []
1628616667.6526, 23, 0, 4165.641, 4228.205, 4097.949, 4162.564, 4147.179, 0, 0, []
1628616667.6606, 24, 0, 4167.692, 4221.026, 4090.769, 4151.795, 4155.897, 0, 0, []
1628616667.6685, 25, 0, 4170.769, 4239.487, 4080, 4149.231, 4160, 0, 0, []
1628616667.6764, 26, 0, 4168.205, 4249.744, 4095.897, 4155.897, 4152.821, 0, 0, []
1628616667.6843, 27, 0, 4158.462, 4231.282, 4079.487, 4148.718, 4131.795, 0, 0, []
1628616667.6923, 28, 0, 4152.821, 4237.949, 4065.641, 4137.436, 4110.256, 0, 0, []
1628616667.7002, 29, 0, 4147.692, 4245.128, 4052.821, 4129.744, 4104.103, 0, 0, []
1628616667.7082, 30, 0, 4138.462, 4221.026, 4050.769, 4126.154, 4104.615, 0, 0, []
1628616667.716, 31, 0, 4138.974, 4216.41, 4079.487, 4127.692, 4102.564, 0, 0, []
1628616667.724, 32, 0, 4153.846, 4240.513, 4082.051, 4130.256, 4113.333, 0, 0, []
1628616667.7319, 33, 0, 4160.513, 4257.949, 4088.718, 4136.923, 4131.282, 0, 0, []
1628616667.7399, 34, 0, 4157.949, 4257.949, 4103.59, 4142.564, 4137.949, 0, 0, []
1628616667.7478, 35, 0, 4166.154, 4246.667, 4107.179, 4144.615, 4139.487, 0, 0, []
1628616667.7556, 36, 0, 4172.308, 4251.795, 4113.846, 4138.974, 4141.538, 0, 0, []
1628616667.7635, 37, 0, 4172.308, 4271.795, 4100.513, 4137.949, 4142.564, 0, 0, []
1628616667.7714, 38, 0, 4172.308, 4263.59, 4101.538, 4147.692, 4142.051, 0, 0, []
1628616667.7794, 39, 0, 4169.231, 4257.949, 4100.513, 4148.205, 4136.923, 0, 0, []
1628616667.7872, 40, 0, 4167.692, 4285.641, 4089.744, 4147.692, 4136.41, 0, 0, []
1628616667.795, 41, 0, 4178.974, 4305.128, 4108.205, 4153.846, 4147.692, 0, 0, []
1628616667.8028, 42, 0, 4187.179, 4295.897, 4098.462, 4147.179, 4154.872, 0, 0, []
1628616667.8108, 43, 0, 4173.846, 4282.051, 4081.026, 4138.974, 4144.103, 0, 0, []
1628616667.8187, 44, 0, 4164.103, 4294.872, 4078.974, 4143.077, 4136.41, 0, 0, []
1628616667.8267, 45, 0, 4167.692, 4313.333, 4072.308, 4147.692, 4142.051, 0, 0, []
1628616667.8345, 46, 0, 4161.538, 4294.872, 4089.231, 4145.641, 4140, 0, 0, []
1628616667.8425, 47, 0, 4155.385, 4275.385, 4091.795, 4140.513, 4134.359, 0, 0, []
1628616667.8504, 48, 0, 4164.615, 4292.821, 4086.667, 4137.949, 4144.615, 0, 0, []
1628616667.8584, 49, 0, 4185.128, 4301.026, 4093.333, 4141.026, 4168.718, 0, 0, []
1628616667.8663, 50, 0, 4211.282, 4295.385, 4094.359, 4146.667, 4187.692, 0, 0, []
1628616667.8742, 51, 0, 4237.949, 4309.744, 4103.59, 4148.205, 4198.462, 0, 0, []
1628616667.8821, 52, 0, 4268.718, 4300, 4089.744, 4146.667, 4225.128, 0, 0, []
1628616667.8901, 53, 0, 4297.949, 4266.667, 4084.103, 4141.026, 4257.436, 0, 0, []
1628616667.898, 54, 0, 4315.897, 4278.462, 4088.718, 4126.667, 4272.821, 0, 0, []
1628616667.9058, 55, 0, 4337.436, 4308.718, 4073.846, 4124.615, 4293.333, 0, 0, []
1628616667.9136, 56, 0, 4370.769, 4296.923, 4098.462, 4146.154, 4322.564, 0, 0, []
1628616667.9214, 57, 0, 4387.179, 4280, 4114.872, 4156.923, 4334.359, 0, 0, []
1628616667.9293, 58, 0, 4386.667, 4274.872, 4111.282, 4152.308, 4338.462, 0, 0, []
1628616667.9371, 59, 0, 4383.077, 4269.231, 4119.487, 4150.256, 4340, 0, 0, []
1628616667.945, 60, 0, 4372.821, 4270.256, 4102.564, 4142.564, 4320.513, 0, 0, []
1628616667.9527, 61, 0, 4358.974, 4268.205, 4095.897, 4138.462, 4297.949, 0, 0, []
1628616667.9607, 62, 0, 4341.538, 4255.385, 4087.692, 4142.051, 4289.744, 0, 0, []
1628616667.9686, 63, 0, 4307.692, 4237.436, 4074.872, 4140.513, 4270.256, 0, 0, []
1628616667.9766, 64, 0, 4280.513, 4236.41, 4083.59, 4136.41, 4238.974, 450, 0, []
1628616667.9845, 65, 0, 4276.41, 4247.179, 4077.436, 4139.487, 4226.154, 450, 0, []
1628616667.9924, 66, 0, 4267.692, 4242.051, 4084.103, 4142.564, 4220, 16188, 0, []
1628616668.0003, 67, 0, 4244.615, 4215.385, 4084.615, 4130.256, 4198.462, 450, 0, []
1628616668.0083, 68, 0, 4227.692, 4205.641, 4072.821, 4127.179, 4182.564, 16139, 0, []
1628616668.0162, 69, 0, 4217.436, 4227.179, 4085.128, 4143.077, 4182.564, 450, 0, []
1628616668.0242, 70, 0, 4210.256, 4222.564, 4083.59, 4148.205, 4185.128, 16074, 0, []
1628616668.032, 71, 0, 4220.513, 4200, 4097.949, 4143.59, 4188.205, 450, 0, []
1628616668.04, 72, 0, 4233.333, 4211.282, 4109.231, 4140, 4190.769, 450, 0, []
1628616668.0479, 73, 0, 4218.462, 4224.615, 4083.077, 4135.897, 4180, 16131, 0, []
1628616668.0557, 74, 0, 4195.385, 4202.564, 4078.462, 4132.308, 4156.923, 450, 0, []
1628616668.0636, 75, 0, 4196.41, 4187.179, 4081.538, 4133.846, 4150.256, 16195, 0, []
1628616668.0713, 76, 0, 4206.154, 4201.026, 4091.282, 4137.949, 4162.051, 450, 0, []
1628616668.0792, 77, 0, 4195.385, 4202.051, 4091.282, 4133.333, 4165.128, 450, 0, []
1628616668.087, 78, 0, 4187.179, 4182.564, 4075.897, 4131.795, 4160.513, 450, 0, []
1628616668.0949, 79, 0, 4198.462, 4185.128, 4092.821, 4144.103, 4166.667, 16195, 0, []
1628616668.1027, 80, 0, 4198.462, 4204.615, 4094.872, 4145.128, 4168.718, 450, 0, []
1628616668.1106, 81, 0, 4190.256, 4190.256, 4088.205, 4138.974, 4153.846, 450, 0, []
1628616668.1185, 82, 0, 4201.538, 4168.718, 4087.692, 4139.487, 4150.769, 450, 0, []
1628616668.1265, 83, 0, 4206.154, 4199.487, 4077.949, 4138.974, 4160.513, 16195, 0, []
1628616668.1344, 84, 0, 4188.718, 4228.718, 4090.769, 4134.359, 4154.359, 450, 0, []
1628616668.1424, 85, 0, 4186.154, 4194.359, 4081.538, 4132.821, 4149.744, 450, 0, []
1628616668.1502, 86, 0, 4192.821, 4175.897, 4080, 4141.026, 4155.897, 450, 0, []
1628616668.1582, 87, 0, 4181.026, 4199.487, 4100, 4150.769, 4151.282, 16195, 0, []
1628616668.1661, 88, 0, 4175.897, 4209.744, 4090.256, 4153.333, 4141.026, 450, 0, []
1628616668.1741, 89, 0, 4187.179, 4191.795, 4097.949, 4155.385, 4147.179, 450, 0, []
1628616668.182, 90, 0, 4194.872, 4175.385, 4109.231, 4159.487, 4155.385, 450, 0, []
1628616668.1899, 91, 0, 4198.462, 4185.641, 4114.359, 4160.513, 4149.744, 16195, 0, []
1628616668.1978, 92, 0, 4200, 4200, 4122.051, 4155.385, 4138.974, 450, 0, []
1628616668.2057, 93, 0, 4184.615, 4189.231, 4099.487, 4143.59, 4129.231, 450, 0, []
1628616668.2136, 94, 0, 4166.154, 4172.308, 4092.308, 4137.436, 4117.436, 450, 0, []
1628616668.2214, 95, 0, 4165.128, 4191.795, 4096.923, 4141.538, 4116.923, 16195, 0, []
1628616668.2292, 96, 0, 4170.256, 4214.872, 4095.385, 4141.538, 4122.051, 450, 0, []
1628616668.237, 97, 0, 4168.205, 4194.872, 4099.487, 4138.462, 4119.487, 450, 0, []
1628616668.2449, 98, 0, 4167.179, 4161.538, 4087.692, 4144.103, 4126.154, 450, 0, []
1628616668.2527, 99, 0, 4174.872, 4155.897, 4105.128, 4157.949, 4144.103, 16195, 0, []
1628616668.2606, 100, 0, 4184.103, 4173.333, 4121.026, 4162.564, 4156.41, 450, 0, []
1628616668.2683, 101, 0, 4189.231, 4193.846, 4114.872, 4164.103, 4157.949, 450, 0, []
1628616668.2763, 102, 0, 4189.744, 4208.718, 4122.051, 4165.641, 4158.462, 450, 0, []
1628616668.2842, 103, 0, 4188.718, 4197.949, 4107.692, 4158.974, 4155.897, 16195, 0, []
1628616668.2922, 104, 0, 4187.692, 4177.949, 4102.564, 4148.718, 4148.718, 450, 0, []
1628616668.3001, 105, 0, 4183.59, 4186.667, 4093.333, 4133.333, 4138.974, 450, 0, []
1628616668.3081, 106, 0, 4184.615, 4214.359, 4077.949, 4133.846, 4134.872, 450, 0, []
1628616668.3159, 107, 0, 4195.385, 4210.256, 4101.538, 4156.41, 4145.128, 16195, 0, []
1628616668.3239, 108, 0, 4199.487, 4186.667, 4097.949, 4162.564, 4154.359, 450, 0, []
1628616668.3318, 109, 0, 4186.154, 4193.333, 4084.103, 4151.795, 4149.744, 450, 0, []
1628616668.3398, 110, 0, 4165.641, 4204.615, 4082.051, 4143.077, 4136.41, 450, 0, []
1628616668.3477, 111, 0, 4159.487, 4194.872, 4070.769, 4142.564, 4127.692, 16195, 0, []
1628616668.3556, 112, 0, 4171.795, 4205.128, 4085.128, 4151.795, 4133.846, 450, 0, []
1628616668.3635, 113, 0, 4186.154, 4222.564, 4091.282, 4162.564, 4150.769, 450, 0, []
1628616668.3713, 114, 0, 4192.308, 4203.59, 4092.308, 4155.897, 4161.538, 450, 0, []
1628616668.3792, 115, 0, 4183.59, 4198.462, 4088.718, 4129.231, 4144.103, 16195, 0, []
1628616668.387, 116, 0, 4171.282, 4226.154, 4072.821, 4121.538, 4121.026, 450, 0, []
1628616668.3948, 117, 0, 4176.41, 4236.41, 4083.59, 4143.077, 4126.667, 450, 0, []
1628616668.4026, 118, 0, 4188.718, 4223.077, 4075.385, 4148.718, 4140, 450, 0, []
1628616668.4105, 119, 0, 4181.026, 4216.41, 4067.692, 4134.359, 4132.821, 16195, 0, []
1628616668.4183, 120, 0, 4168.205, 4221.538, 4084.103, 4134.359, 4122.051, 450, 0, []
1628616668.4263, 121, 0, 4162.564, 4212.308, 4084.103, 4140, 4120, 450, 0, []
1628616668.4341, 122, 0, 4155.897, 4207.179, 4091.282, 4136.41, 4117.436, 450, 0, []
1628616668.4421, 123, 0, 4157.436, 4230.769, 4078.462, 4138.462, 4124.103, 16195, 0, []
1628616668.45, 124, 0, 4175.385, 4235.897, 4069.231, 4146.667, 4140.513, 450, 0, []
1628616668.458, 125, 0, 4183.077, 4208.205, 4088.718, 4147.692, 4144.103, 450, 0, []
1628616668.4659, 126, 0, 4176.923, 4206.154, 4081.538, 4146.154, 4140, 450, 0, []
1628616668.4738, 127, 0, 4177.436, 4215.385, 4076.923, 4145.128, 4137.436, 16195, 0, []
1628616668.4817, 128, 0, 4185.128, 4203.077, 4064.103, 4135.385, 4131.282, 450, 0, []
1628616668.4897, 0, 0, 4188.205, 4221.538, 4062.051, 4132.821, 4129.744, 450, 0, []
1628616668.4976, 1, 0, 4186.667, 4255.385, 4087.692, 4141.538, 4137.949, 450, 0, []
1628616668.5056, 2, 0, 4189.744, 4241.026, 4078.974, 4144.103, 4145.128, 16182, 0, []
1628616668.5134, 3, 0, 4184.103, 4220.513, 4070.769, 4144.103, 4140, 450, 0, []
1628616668.5212, 4, 0, 4169.744, 4228.205, 4073.846, 4141.538, 4127.692, 16135, 0, []
1628616668.5291, 5, 0, 4165.641, 4228.718, 4074.872, 4134.872, 4127.179, 450, 0, []
1628616668.5369, 6, 0, 4168.205, 4235.897, 4086.667, 4131.282, 4131.282, 16072, 0, []
1628616668.5448, 7, 0, 4166.154, 4244.103, 4076.923, 4129.231, 4127.692, 450, 0, []
1628616668.5525, 8, 0, 4165.128, 4214.359, 4083.59, 4134.359, 4129.744, 450, 0, []
1628616668.5604, 9, 0, 4174.872, 4194.359, 4094.872, 4134.872, 4136.923, 16124, 0, []
1628616668.5682, 10, 0, 4185.128, 4218.462, 4079.487, 4129.744, 4137.436, 450, 0, []
1628616668.5762, 11, 0, 4185.128, 4223.077, 4076.41, 4137.436, 4140, 16192, 0, []
1628616668.5841, 12, 0, 4183.59, 4201.026, 4069.231, 4146.154, 4148.205, 450, 0, []
1628616668.592, 13, 0, 4186.154, 4209.231, 4073.846, 4138.462, 4144.103, 450, 0, []
1628616668.5999, 14, 0, 4181.026, 4224.103, 4069.231, 4125.641, 4135.897, 450, 0, []
1628616668.6079, 15, 0, 4173.333, 4214.872, 4053.846, 4130.256, 4144.615, 16192, 0, []
1628616668.6158, 16, 0, 4179.487, 4209.231, 4084.103, 4142.564, 4154.359, 0, 0, []
1628616668.6238, 17, 0, 4183.59, 4206.667, 4091.795, 4140, 4150.256, 0, 0, []
1628616668.6316, 18, 0, 4172.308, 4201.538, 4081.026, 4131.282, 4138.462, 0, 0, []
1628616668.6396, 19, 0, 4163.59, 4203.077, 4084.615, 4126.667, 4133.846, 0, 0, []
1628616668.6475, 20, 0, 4175.385, 4215.897, 4088.718, 4131.282, 4148.718, 0, 0, []
1628616668.6555, 21, 0, 4189.744, 4227.692, 4104.103, 4144.615, 4156.923, 0, 0, []
1628616668.6634, 22, 0, 4190.256, 4224.615, 4083.077, 4150.256, 4144.103, 0, 0, []
1628616668.6711, 23, 0, 4185.641, 4204.615, 4070.769, 4149.231, 4137.436, 0, 0, []
1628616668.679, 24, 0, 4183.59, 4194.872, 4095.385, 4148.205, 4142.564, 0, 0, []
1628616668.6868, 25, 0, 4184.615, 4217.436, 4088.205, 4145.128, 4146.154, 0, 0, []
1628616668.6947, 26, 0, 4183.077, 4217.949, 4076.41, 4142.564, 4147.179, 0, 0, []
1628616668.7025, 27, 0, 4184.615, 4191.795, 4079.487, 4140.513, 4153.333, 0, 0, []
1628616668.7103, 28, 0, 4188.718, 4199.487, 4098.974, 4138.462, 4154.359, 0, 0, []
1628616668.7181, 29, 0, 4191.795, 4209.744, 4105.128, 4136.41, 4152.821, 0, 0, []
1628616668.726, 30, 0, 4193.846, 4199.487, 4082.051, 4134.359, 4159.487, 0, 0, []
1628616668.7338, 31, 0, 4198.462, 4203.59, 4097.949, 4140, 4165.641, 0, 0, []
1628616668.7418, 32, 0, 4206.667, 4213.333, 4109.231, 4146.154, 4168.205, 0, 0, []
1628616668.7496, 33, 0, 4213.333, 4208.718, 4091.282, 4143.59, 4171.795, 0, 0, []
1628616668.7575, 34, 0, 4221.026, 4211.795, 4091.282, 4137.436, 4181.026, 0, 0, []
1628616668.7654, 35, 0, 4244.615, 4218.462, 4086.667, 4147.179, 4203.077, 0, 0, []
1628616668.7734, 36, 0, 4277.949, 4207.179, 4097.436, 4161.538, 4241.026, 0, 0, []
1628616668.7813, 37, 0, 4303.077, 4191.795, 4092.308, 4151.795, 4278.974, 0, 0, []
1628616668.7892, 38, 0, 4333.846, 4186.667, 4073.333, 4142.051, 4300.513, 0, 0, []
1628616668.7971, 39, 0, 4377.436, 4207.692, 4089.231, 4145.128, 4316.41, 0, 0, []
1628616668.8051, 40, 0, 4408.205, 4225.641, 4088.718, 4149.231, 4347.179, 0, 0, []
1628616668.813, 41, 0, 4417.949, 4204.615, 4085.641, 4156.41, 4374.872, 0, 0, []
1628616668.821, 42, 0, 4415.385, 4202.051, 4077.436, 4154.359, 4368.718, 0, 0, []
1628616668.8288, 43, 0, 4401.026, 4228.718, 4065.128, 4142.051, 4345.128, 0, 0, []
1628616668.8366, 44, 0, 4377.436, 4222.564, 4084.615, 4139.487, 4330.256, 0, 0, []
1628616668.8445, 45, 0, 4358.462, 4200.513, 4082.564, 4142.564, 4316.923, 0, 0, []
1628616668.8523, 46, 0, 4342.564, 4211.795, 4083.077, 4139.487, 4294.872, 0, 0, []
1628616668.8602, 47, 0, 4324.103, 4221.026, 4091.795, 4129.231, 4270.256, 0, 0, []
1628616668.8679, 48, 0, 4306.667, 4203.077, 4087.179, 4126.667, 4250.769, 0, 0, []
1628616668.8758, 49, 0, 4291.282, 4202.051, 4094.872, 4142.564, 4245.641, 0, 0, []
1628616668.8836, 50, 0, 4274.872, 4215.897, 4077.949, 4148.718, 4246.154, 0, 0, []
1628616668.8916, 51, 0, 4258.462, 4207.179, 4078.974, 4141.026, 4232.821, 0, 0, []
1628616668.8995, 52, 0, 4249.744, 4198.462, 4103.59, 4145.641, 4210.256, 0, 0, []
1628616668.9074, 53, 0, 4245.641, 4218.462, 4096.41, 4158.974, 4202.051, 0, 0, []
1628616668.9153, 54, 0, 4233.846, 4229.744, 4090.256, 4158.974, 4200, 0, 0, []
1628616668.9233, 55, 0, 4214.359, 4209.231, 4076.923, 4145.128, 4185.128, 0, 0, []
1628616668.9312, 56, 0, 4201.026, 4175.897, 4073.333, 4142.564, 4169.744, 0, 0, []
1628616668.9392, 57, 0, 4200.513, 4163.077, 4084.615, 4148.205, 4166.667, 0, 0, []
1628616668.947, 58, 0, 4195.385, 4172.308, 4073.846, 4140, 4164.103, 0, 0, []
1628616668.955, 59, 0, 4186.154, 4187.179, 4078.974, 4132.308, 4154.872, 0, 0, []
1628616668.9629, 60, 0, 4190.256, 4213.333, 4088.718, 4139.487, 4151.795, 0, 0, []
1628616668.9709, 61, 0, 4203.59, 4234.872, 4101.026, 4157.436, 4158.462, 0, 0, []
1628616668.9788, 62, 0, 4204.103, 4229.231, 4100.513, 4160.513, 4159.487, 0, 0, []
1628616668.9865, 63, 0, 4185.128, 4202.051, 4070.769, 4140, 4144.615, 0, 0, []
1628616668.9944, 64, 0, 4169.231, 4191.282, 4087.692, 4134.359, 4130.256, 450, 0, []
1628616669.0022, 65, 0, 4167.692, 4186.154, 4105.128, 4149.231, 4131.282, 450, 0, []
1628616669.0101, 66, 0, 4171.282, 4173.846, 4093.846, 4161.538, 4144.615, 16185, 0, []
1628616669.0179, 67, 0, 4173.846, 4182.051, 4106.667, 4165.128, 4153.333, 450, 0, []
1628616669.0257, 68, 0, 4171.795, 4195.385, 4104.103, 4151.795, 4146.154, 16127, 0, []
1628616669.0335, 69, 0, 4167.179, 4193.846, 4104.103, 4136.41, 4132.821, 450, 0, []
1628616669.0415, 70, 0, 4164.615, 4197.949, 4104.103, 4134.872, 4128.205, 16074, 0, []
1628616669.0494, 71, 0, 4161.538, 4212.821, 4094.872, 4134.359, 4130.256, 450, 0, []
1628616669.0574, 72, 0, 4153.333, 4200.513, 4100, 4125.641, 4123.077, 450, 0, []
1628616669.0653, 73, 0, 4148.718, 4178.974, 4090.256, 4116.41, 4108.205, 16123, 0, []
1628616669.0732, 74, 0, 4151.282, 4188.205, 4089.744, 4117.436, 4105.128, 450, 0, []
1628616669.0811, 75, 0, 4153.846, 4213.846, 4088.205, 4121.026, 4113.333, 16138, 0, []
1628616669.0891, 76, 0, 4154.872, 4231.795, 4075.897, 4124.103, 4112.821, 450, 0, []
1628616669.097, 77, 0, 4153.846, 4231.282, 4082.564, 4127.692, 4107.179, 450, 0, []
1628616669.105, 78, 0, 4165.641, 4229.744, 4088.205, 4135.897, 4123.59, 450, 0, []
1628616669.1128, 79, 0, 4187.692, 4232.308, 4110.769, 4155.385, 4145.128, 16138, 0, []
1628616669.1208, 80, 0, 4179.487, 4228.205, 4117.949, 4154.872, 4137.436, 450, 0, []
1628616669.1287, 81, 0, 4153.333, 4211.795, 4095.385, 4137.949, 4126.154, 450, 0, []
1628616669.1365, 82, 0, 4153.846, 4203.077, 4105.128, 4130.256, 4130.769, 450, 0, []
1628616669.1444, 83, 0, 4168.718, 4214.359, 4106.154, 4132.308, 4140, 16138, 0, []
1628616669.1521, 84, 0, 4174.359, 4220, 4102.564, 4142.051, 4147.179, 450, 0, []
1628616669.16, 85, 0, 4177.436, 4215.897, 4106.667, 4144.103, 4147.692, 450, 0, []
1628616669.1678, 86, 0, 4177.949, 4214.872, 4096.41, 4134.872, 4142.051, 450, 0, []
1628616669.1757, 87, 0, 4178.462, 4210.256, 4097.949, 4133.333, 4136.41, 16138, 0, []
1628616669.1835, 88, 0, 4183.59, 4203.59, 4081.538, 4138.462, 4138.974, 450, 0, []
1628616669.1913, 89, 0, 4180, 4212.308, 4073.333, 4135.897, 4146.667, 450, 0, []
1628616669.1991, 90, 0, 4170.256, 4213.846, 4086.154, 4136.923, 4152.308, 450, 0, []
1628616669.2071, 91, 0, 4176.923, 4199.487, 4082.564, 4147.692, 4155.897, 16138, 0, []
1628616669.215, 92, 0, 4180, 4196.41, 4100.513, 4156.41, 4154.872, 450, 0, []
1628616669.223, 93, 0, 4174.872, 4194.872, 4105.641, 4154.359, 4154.359, 450, 0, []
1628616669.2308, 94, 0, 4180, 4196.923, 4101.026, 4148.718, 4149.744, 450, 0, []
1628616669.2388, 95, 0, 4178.974, 4201.538, 4105.128, 4149.231, 4140, 16138, 0, []
1628616669.2467, 96, 0, 4164.103, 4174.872, 4086.154, 4152.308, 4132.821, 450, 0, []
1628616669.2547, 97, 0, 4147.692, 4163.077, 4095.897, 4150.256, 4117.436, 450, 0, []
1628616669.2626, 98, 0, 4151.795, 4196.923, 4102.051, 4149.231, 4110.769, 450, 0, []
1628616669.2705, 99, 0, 4175.385, 4204.615, 4098.974, 4168.205, 4141.026, 16138, 0, []
1628616669.2784, 100, 0, 4186.667, 4177.436, 4123.077, 4184.615, 4170.769, 450, 0, []
1628616669.2862, 101, 0, 4174.872, 4178.462, 4115.897, 4174.359, 4160, 450, 0, []
1628616669.2941, 102, 0, 4164.103, 4194.359, 4102.564, 4166.154, 4143.077, 450, 0, []
1628616669.3019, 103, 0, 4166.667, 4184.615, 4101.538, 4162.564, 4148.205, 16138, 0, []
1628616669.3097, 104, 0, 4170.256, 4182.051, 4110.256, 4161.538, 4157.949, 450, 0, []
1628616669.3175, 105, 0, 4178.462, 4192.821, 4131.282, 4170.769, 4160, 450, 0, []
1628616669.3254, 106, 0, 4188.205, 4183.077, 4121.026, 4173.846, 4157.436, 450, 0, []
1628616669.3332, 107, 0, 4187.179, 4168.205, 4127.179, 4177.949, 4158.974, 16138, 0, []
1628616669.3411, 108, 0, 4186.667, 4184.103, 4134.872, 4191.795, 4167.179, 450, 0, []
1628616669.3488, 109, 0, 4189.744, 4202.564, 4113.846, 4193.846, 4174.359, 450, 0, []
1628616669.3568, 110, 0, 4180.513, 4181.538, 4115.385, 4172.308, 4166.667, 450, 0, []
1628616669.3647, 111, 0, 4170.256, 4162.564, 4114.359, 4156.41, 4155.385, 16138, 0, []
1628616669.3727, 112, 0, 4175.897, 4169.744, 4119.487, 4159.487, 4153.846, 450, 0, []
1628616669.3806, 113, 0, 4174.872, 4165.128, 4125.641, 4153.333, 4153.333, 450, 0, []
1628616669.3885, 114, 0, 4171.282, 4152.308, 4116.923, 4146.667, 4151.795, 450, 0, []
1628616669.3964, 115, 0, 4182.564, 4153.846, 4118.974, 4157.436, 4150.256, 16138, 0, []
1628616669.4044, 116, 0, 4186.667, 4153.333, 4101.538, 4164.615, 4146.154, 450, 0, []
1628616669.4123, 117, 0, 4168.718, 4134.359, 4097.949, 4154.359, 4135.385, 450, 0, []
1628616669.4203, 118, 0, 4157.949, 4133.333, 4107.692, 4137.949, 4125.641, 450, 0, []
1628616669.4281, 119, 0, 4172.821, 4163.077, 4102.051, 4141.026, 4137.436, 16138, 0, []
1628616669.4359, 120, 0, 4190.769, 4191.795, 4121.538, 4164.615, 4165.128, 450, 0, []
1628616669.4438, 121, 0, 4185.641, 4184.615, 4120, 4171.795, 4166.667, 450, 0, []
1628616669.4516, 122, 0, 4165.641, 4140, 4101.026, 4147.692, 4141.538, 450, 0, []
1628616669.4595, 123, 0, 4160.513, 4121.026, 4101.026, 4132.308, 4137.436, 16138, 0, []
1628616669.4672, 124, 0, 4172.821, 4142.564, 4102.051, 4140.513, 4157.436, 450, 0, []
1628616669.4751, 125, 0, 4183.59, 4153.333, 4117.949, 4149.231, 4158.462, 450, 0, []
1628616669.4829, 126, 0, 4184.103, 4160.513, 4109.744, 4149.744, 4143.59, 450, 0, []
1628616669.4909, 127, 0, 4181.026, 4174.872, 4101.538, 4159.487, 4146.154, 16138, 0, []
1628616669.4988, 128, 0, 4188.205, 4164.103, 4113.846, 4166.154, 4158.974, 450, 0, []
1628616669.5067, 0, 0, 4188.205, 4139.487, 4095.385, 4153.846, 4160.513, 450, 0, []
1628616669.5146, 1, 0, 4171.282, 4136.41, 4095.897, 4151.795, 4150.769, 450, 0, []
1628616669.5226, 2, 0, 4165.641, 4144.615, 4103.59, 4157.949, 4149.744, 16184, 0, []
1628616669.5305, 3, 0, 4170.256, 4133.846, 4101.026, 4148.205, 4154.872, 450, 0, []
1628616669.5385, 4, 0, 4167.179, 4120.513, 4107.179, 4132.308, 4149.231, 16127, 0, []
1628616669.5463, 5, 0, 4172.308, 4127.692, 4097.949, 4136.923, 4147.179, 450, 0, []
1628616669.5543, 6, 0, 4186.667, 4130.256, 4106.154, 4156.923, 4154.359, 16074, 0, []
1628616669.5622, 7, 0, 4188.205, 4130.256, 4094.359, 4163.077, 4155.385, 450, 0, []
1628616669.5702, 8, 0, 4182.564, 4148.205, 4075.897, 4161.538, 4150.256, 450, 0, []
1628616669.5781, 9, 0, 4186.667, 4145.128, 4102.564, 4166.154, 4151.282, 16124, 0, []
1628616669.5859, 10, 0, 4180, 4116.923, 4098.974, 4164.615, 4146.667, 450, 0, []
1628616669.5938, 11, 0, 4166.154, 4133.333, 4082.051, 4160.513, 4136.923, 16188, 0, []
1628616669.6016, 12, 0, 4170.256, 4166.667, 4092.308, 4161.026, 4140.513, 450, 0, []
1628616669.6095, 13, 0, 4188.718, 4150.769, 4110.256, 4168.718, 4158.974, 450, 0, []
1628616669.6173, 14, 0, 4194.872, 4145.641, 4117.436, 4176.41, 4168.718, 450, 0, []
1628616669.6251, 15, 0, 4191.282, 4175.897, 4091.795, 4175.897, 4163.59, 16188, 0, []
1628616669.6329, 16, 0, 4191.795, 4185.128, 4087.179, 4173.846, 4161.538, 0, 0, []
1628616669.6408, 17, 0, 4184.103, 4155.897, 4087.692, 4163.59, 4156.41, 0, 0, []
1628616669.6486, 18, 0, 4173.846, 4144.103, 4074.359, 4152.821, 4143.077, 0, 0, []
1628616669.6565, 19, 0, 4178.974, 4177.949, 4094.359, 4160.513, 4144.103, 0, 0, []
1628616669.6642, 20, 0, 4189.744, 4191.282, 4094.359, 4174.359, 4165.641, 0, 0, []
1628616669.6722, 21, 0, 4183.59, 4157.436, 4092.821, 4174.872, 4170.256, 0, 0, []
1628616669.6801, 22, 0, 4168.205, 4148.205, 4108.718, 4159.487, 4146.667, 0, 0, []
1628616669.6881, 23, 0, 4169.744, 4185.641, 4100.513, 4152.821, 4137.949, 0, 0, []
1628616669.696, 24, 0, 4179.487, 4200, 4102.564, 4162.051, 4149.231, 0, 0, []
1628616669.7039, 25, 0, 4183.59, 4180, 4098.974, 4163.59, 4153.846, 0, 0, []
1628616669.7118, 26, 0, 4189.231, 4181.538, 4096.41, 4164.103, 4150.256, 0, 0, []
1628616669.7198, 27, 0, 4193.846, 4209.744, 4094.359, 4172.821, 4150.256, 0, 0, []
1628616669.7277, 28, 0, 4188.718, 4225.641, 4070.769, 4171.795, 4154.872, 0, 0, []
1628616669.7357, 29, 0, 4187.179, 4207.692, 4077.949, 4161.538, 4158.974, 0, 0, []
1628616669.7435, 30, 0, 4194.359, 4182.564, 4078.974, 4155.897, 4162.051, 0, 0, []
1628616669.7514, 31, 0, 4206.154, 4184.103, 4075.897, 4158.974, 4174.872, 0, 0, []
1628616669.7594, 32, 0, 4228.718, 4208.205, 4093.846, 4162.564, 4202.051, 0, 0, []
1628616669.7672, 33, 0, 4263.59, 4233.846, 4088.718, 4160, 4224.103, 0, 0, []
1628616669.7751, 34, 0, 4297.949, 4237.436, 4082.564, 4160.513, 4236.923, 0, 0, []
1628616669.7828, 35, 0, 4329.231, 4215.897, 4071.795, 4168.205, 4265.641, 0, 0, []
1628616669.7907, 36, 0, 4363.59, 4213.846, 4078.462, 4178.462, 4317.436, 0, 0, []
1628616669.7985, 37, 0, 4393.333, 4234.872, 4098.974, 4174.359, 4353.846, 0, 0, []
1628616669.8064, 38, 0, 4415.897, 4233.846, 4085.641, 4164.103, 4359.487, 0, 0, []
1628616669.8142, 39, 0, 4413.846, 4225.641, 4090.769, 4170.256, 4357.436, 0, 0, []
1628616669.8222, 40, 0, 4389.231, 4242.564, 4089.744, 4177.949, 4352.308, 0, 0, []
1628616669.83, 41, 0, 4374.872, 4262.051, 4077.949, 4170.769, 4336.41, 0, 0, []
1628616669.838, 42, 0, 4368.205, 4252.821, 4100, 4164.615, 4312.821, 0, 0, []
1628616669.8459, 43, 0, 4341.538, 4219.487, 4089.744, 4164.615, 4289.231, 0, 0, []
1628616669.8539, 44, 0, 4305.128, 4204.103, 4074.359, 4153.333, 4266.154, 0, 0, []
1628616669.8618, 45, 0, 4289.231, 4223.59, 4082.051, 4141.026, 4247.179, 0, 0, []
1628616669.8697, 46, 0, 4281.026, 4223.077, 4082.051, 4145.641, 4234.872, 0, 0, []
1628616669.8776, 47, 0, 4270.769, 4198.462, 4089.231, 4164.615, 4229.744, 0, 0, []
1628616669.8854, 48, 0, 4264.615, 4195.897, 4086.667, 4171.282, 4227.692, 0, 0, []
1628616669.8933, 49, 0, 4253.846, 4195.897, 4086.667, 4164.103, 4218.462, 0, 0, []
1628616669.9011, 50, 0, 4240, 4190.256, 4082.051, 4153.846, 4209.744, 0, 0, []
1628616669.9089, 51, 0, 4233.333, 4199.487, 4077.949, 4150.769, 4203.59, 0, 0, []
1628616669.9167, 52, 0, 4231.282, 4205.128, 4094.359, 4154.872, 4189.744, 0, 0, []
1628616669.9246, 53, 0, 4229.744, 4200, 4076.923, 4147.179, 4181.026, 0, 0, []
1628616669.9324, 54, 0, 4229.231, 4187.179, 4072.821, 4146.154, 4189.744, 0, 0, []
1628616669.9403, 55, 0, 4225.128, 4178.974, 4090.769, 4157.949, 4194.872, 0, 0, []
1628616669.948, 56, 0, 4217.436, 4203.59, 4082.564, 4155.897, 4188.205, 0, 0, []
1628616669.956, 57, 0, 4210.256, 4222.564, 4096.41, 4150.769, 4180, 0, 0, []
1628616669.9639, 58, 0, 4203.59, 4201.026, 4106.154, 4156.41, 4175.897, 0, 0, []
1628616669.9718, 59, 0, 4200.513, 4194.872, 4097.949, 4162.051, 4171.795, 0, 0, []
1628616669.9796, 60, 0, 4199.487, 4203.077, 4091.795, 4156.923, 4163.59, 0, 0, []
1628616669.9875, 61, 0, 4201.538, 4193.846, 4086.154, 4156.923, 4167.179, 0, 0, []
1628616669.9954, 62, 0, 4205.641, 4195.897, 4105.641, 4165.128, 4176.41, 0, 0, []
1628616670.0034, 63, 0, 4204.103, 4200, 4107.692, 4169.231, 4176.41, 0, 0, []
1628616670.0113, 64, 0, 4189.744, 4173.846, 4105.641, 4169.744, 4165.641, 450, 0, []
1628616670.0193, 65, 0, 4178.974, 4166.154, 4110.769, 4155.385, 4153.333, 450, 0, []
1628616670.0271, 66, 0, 4182.564, 4200.513, 4089.231, 4138.462, 4151.282, 16184, 0, []
1628616670.0351, 67, 0, 4186.154, 4229.744, 4097.949, 4143.59, 4150.769, 450, 0, []
1628616670.043, 68, 0, 4185.641, 4226.154, 4107.179, 4149.744, 4147.692, 16129, 0, []
1628616670.051, 69, 0, 4182.051, 4200.513, 4098.974, 4145.128, 4146.154, 450, 0, []
1628616670.0589, 70, 0, 4182.051, 4202.051, 4104.103, 4148.205, 4144.103, 16074, 0, []
1628616670.0666, 71, 0, 4193.846, 4238.974, 4089.744, 4167.179, 4145.641, 450, 0, []
1628616670.0745, 72, 0, 4198.462, 4248.205, 4093.846, 4181.538, 4150.256, 450, 0, []
1628616670.0823, 73, 0, 4187.179, 4212.308, 4098.462, 4169.744, 4149.231, 16125, 0, []
1628616670.0902, 74, 0, 4182.051, 4203.59, 4087.692, 4155.897, 4141.538, 450, 0, []
1628616670.098, 75, 0, 4181.026, 4230.769, 4097.436, 4162.564, 4137.436, 16205, 0, []
1628616670.1058, 76, 0, 4174.359, 4225.128, 4094.359, 4162.051, 4142.051, 450, 0, []
1628616670.1136, 77, 0, 4171.282, 4207.179, 4103.077, 4149.744, 4144.103, 450, 0, []
1628616670.1215, 78, 0, 4165.641, 4212.821, 4106.154, 4148.718, 4135.385, 450, 0, []
1628616670.1293, 79, 0, 4150.769, 4201.538, 4088.718, 4153.333, 4123.59, 16205, 0, []
1628616670.1373, 80, 0, 4146.154, 4183.077, 4088.718, 4144.103, 4116.41, 450, 0, []
1628616670.1451, 81, 0, 4156.41, 4201.538, 4083.077, 4128.718, 4119.487, 450, 0, []
1628616670.1531, 82, 0, 4172.821, 4225.128, 4098.974, 4137.949, 4134.359, 450, 0, []
1628616670.161, 83, 0, 4173.333, 4218.974, 4107.179, 4155.897, 4136.41, 16205, 0, []
1628616670.169, 84, 0, 4156.923, 4211.795, 4086.154, 4153.846, 4117.949, 450, 0, []
1628616670.1769, 85, 0, 4157.949, 4224.615, 4095.897, 4147.179, 4116.923, 450, 0, []
1628616670.1848, 86, 0, 4169.744, 4227.179, 4099.487, 4146.154, 4131.795, 450, 0, []
1628616670.1927, 87, 0, 4167.692, 4211.282, 4106.667, 4149.744, 4131.795, 16205, 0, []
1628616670.2007, 88, 0, 4175.897, 4220, 4116.923, 4158.462, 4136.923, 450, 0, []
1628616670.2086, 89, 0, 4189.231, 4234.359, 4108.718, 4160, 4156.923, 450, 0, []
1628616670.2164, 90, 0, 4174.872, 4226.154, 4120.513, 4148.205, 4152.821, 450, 0, []
1628616670.2242, 91, 0, 4162.564, 4225.128, 4111.282, 4141.538, 4137.436, 16205, 0, []
1628616670.232, 92, 0, 4168.205, 4222.051, 4096.923, 4147.692, 4138.974, 450, 0, []
1628616670.2399, 93, 0, 4160.513, 4210.256, 4105.641, 4146.154, 4134.872, 450, 0, []
1628616670.2477, 94, 0, 4150.769, 4211.282, 4096.41, 4142.564, 4117.949, 450, 0, []
1628616670.2556, 95, 0, 4157.949, 4210.769, 4095.897, 4156.41, 4115.897, 16205, 0, []
1628616670.2633, 96, 0, 4158.974, 4203.59, 4097.949, 4166.154, 4123.077, 450, 0, []
1628616670.2712, 97, 0, 4162.051, 4211.795, 4105.641, 4166.667, 4131.282, 450, 0, []
1628616670.279, 98, 0, 4183.59, 4211.795, 4106.154, 4163.077, 4145.641, 450, 0, []
1628616670.287, 99, 0, 4191.282, 4194.872, 4077.436, 4152.821, 4142.564, 16205, 0, []
1628616670.2949, 100, 0, 4171.282, 4199.487, 4081.538, 4142.051, 4121.538, 450, 0, []
1628616670.3028, 101, 0, 4155.897, 4201.026, 4086.154, 4141.026, 4113.846, 450, 0, []
1628616670.3107, 102, 0, 4157.436, 4199.487, 4081.026, 4154.359, 4123.077, 450, 0, []
1628616670.3187, 103, 0, 4169.231, 4214.359, 4110.256, 4172.821, 4130.769, 16205, 0, []
1628616670.3266, 104, 0, 4180.513, 4214.359, 4117.436, 4176.41, 4127.692, 450, 0, []
1628616670.3346, 105, 0, 4177.436, 4204.103, 4110.769, 4170.256, 4117.436, 450, 0, []
1628616670.3424, 106, 0, 4166.154, 4200.513, 4098.974, 4162.564, 4108.205, 450, 0, []
1628616670.3504, 107, 0, 4165.128, 4198.462, 4098.462, 4149.231, 4111.282, 16205, 0, []
1628616670.3583, 108, 0, 4170.256, 4191.282, 4112.821, 4132.308, 4113.846, 450, 0, []
1628616670.3661, 109, 0, 4169.231, 4197.949, 4089.231, 4118.974, 4111.795, 450, 0, []
1628616670.374, 110, 0, 4160.513, 4196.41, 4093.333, 4130.256, 4113.846, 450, 0, []
1628616670.3817, 111, 0, 4153.846, 4181.538, 4113.333, 4158.974, 4116.41, 16205, 0, []
1628616670.3896, 112, 0, 4162.564, 4206.154, 4111.795, 4177.436, 4122.564, 450, 0, []
1628616670.3974, 113, 0, 4171.795, 4231.795, 4111.282, 4170.769, 4124.615, 450, 0, []
1628616670.4053, 114, 0, 4153.333, 4198.974, 4074.359, 4144.615, 4111.795, 450, 0, []
1628616670.4131, 115, 0, 4128.718, 4173.846, 4066.667, 4134.872, 4095.897, 16205, 0, []
1628616670.4209, 116, 0, 4130.256, 4201.538, 4096.41, 4138.974, 4095.897, 450, 0, []
1628616670.4287, 117, 0, 4163.077, 4207.692, 4106.667, 4145.641, 4116.41, 450, 0, []
1628616670.4366, 118, 0, 4194.359, 4197.949, 4111.282, 4152.821, 4130.769, 450, 0, []
1628616670.4444, 119, 0, 4195.897, 4209.231, 4095.385, 4150.256, 4128.718, 16205, 0, []
1628616670.4524, 120, 0, 4185.641, 4211.795, 4082.051, 4144.615, 4130.256, 450, 0, []
1628616670.4602, 121, 0, 4188.718, 4213.846, 4081.026, 4137.949, 4135.385, 450, 0, []
1628616670.4682, 122, 0, 4190.769, 4206.667, 4078.462, 4140, 4132.308, 450, 0, []
1628616670.4761, 123, 0, 4177.949, 4175.897, 4089.744, 4153.333, 4127.692, 16205, 0, []
1628616670.4841, 124, 0, 4166.154, 4170.256, 4082.564, 4161.538, 4128.718, 450, 0, []
1628616670.492, 125, 0, 4166.154, 4179.487, 4089.744, 4155.897, 4128.718, 450, 0, []
1628616670.4999, 126, 0, 4172.308, 4172.821, 4107.179, 4142.051, 4130.256, 450, 0, []
1628616670.5078, 127, 0, 4185.128, 4178.462, 4093.333, 4130.769, 4138.974, 16205, 0, []
1628616670.5156, 128, 0, 4192.821, 4181.026, 4107.179, 4130.256, 4150.256, 450, 0, []
1628616670.5235, 0, 0, 4191.795, 4169.744, 4120.513, 4136.41, 4155.897, 450, 0, []
1628616670.5313, 1, 0, 4185.641, 4184.615, 4108.718, 4139.487, 4141.026, 450, 0, []
1628616670.5391, 2, 0, 4175.385, 4211.795, 4098.974, 4129.744, 4116.41, 16186, 0, []
1628616670.5469, 3, 0, 4168.718, 4210.769, 4080, 4117.436, 4112.308, 450, 0, []
1628616670.5548, 4, 0, 4177.436, 4197.436, 4085.641, 4125.128, 4125.128, 16126, 0, []
1628616670.5626, 5, 0, 4188.718, 4198.974, 4086.667, 4140.513, 4139.487, 450, 0, []
1628616670.5705, 6, 0, 4188.205, 4225.128, 4088.718, 4146.667, 4145.128, 16072, 0, []
1628616670.5783, 7, 0, 4184.615, 4244.615, 4109.744, 4153.333, 4140, 450, 0, []
1628616670.5861, 8, 0, 4185.641, 4225.641, 4102.051, 4162.051, 4143.077, 450, 0, []
1628616670.5939, 9, 0, 4185.128, 4221.026, 4109.231, 4154.359, 4155.385, 16127, 0, []
1628616670.6019, 10, 0, 4185.641, 4253.333, 4109.231, 4132.308, 4156.41, 450, 0, []
1628616670.6098, 11, 0, 4181.538, 4244.615, 4076.923, 4123.59, 4143.59, 16197, 0, []
1628616670.6178, 12, 0, 4180, 4209.744, 4073.846, 4133.333, 4133.846, 450, 0, []
1628616670.6256, 13, 0, 4192.308, 4231.795, 4086.667, 4149.744, 4143.077, 450, 0, []
1628616670.6336, 14, 0, 4200.513, 4277.949, 4103.077, 4168.718, 4155.897, 450, 0, []
1628616670.6415, 15, 0, 4187.692, 4266.667, 4086.154, 4165.641, 4148.205, 16197, 0, []
1628616670.6495, 16, 0, 4173.846, 4223.59, 4055.385, 4147.179, 4137.949, 0, 0, []
1628616670.6574, 17, 0, 4169.744, 4221.026, 4064.103, 4145.641, 4144.615, 0, 0, []
1628616670.6653, 18, 0, 4164.615, 4243.59, 4060.513, 4144.615, 4145.128, 0, 0, []
1628616670.6732, 19, 0, 4173.846, 4253.333, 4073.846, 4137.436, 4144.103, 0, 0, []
1628616670.681, 20, 0, 4200, 4246.154, 4102.564, 4143.077, 4158.462, 0, 0, []
1628616670.6889, 21, 0, 4211.282, 4240.513, 4103.077, 4151.282, 4164.615, 0, 0, []
1628616670.6967, 22, 0, 4201.026, 4249.231, 4098.462, 4144.615, 4152.821, 0, 0, []
1628616670.7045, 23, 0, 4189.744, 4270.769, 4077.436, 4135.385, 4149.744, 0, 0, []
1628616670.7123, 24, 0, 4185.641, 4274.359, 4072.821, 4138.974, 4149.231, 0, 0, []
1628616670.7202, 25, 0, 4180.513, 4236.41, 4068.718, 4130.769, 4138.462, 0, 0, []
1628616670.728, 26, 0, 4173.333, 4208.718, 4040.513, 4116.923, 4133.333, 0, 0, []
1628616670.7359, 27, 0, 4163.59, 4218.974, 4055.897, 4132.821, 4135.385, 0, 0, []
1628616670.7436, 28, 0, 4154.359, 4231.795, 4074.359, 4158.974, 4133.846, 0, 0, []
1628616670.7515, 29, 0, 4158.462, 4235.385, 4078.462, 4161.026, 4136.41, 0, 0, []
1628616670.7594, 30, 0, 4177.949, 4227.692, 4086.154, 4152.821, 4149.231, 0, 0, []
1628616670.7674, 31, 0, 4189.744, 4214.359, 4080, 4151.795, 4160, 0, 0, []
1628616670.7754, 32, 0, 4184.615, 4216.41, 4089.744, 4153.846, 4161.026, 0, 0, []
1628616670.7832, 33, 0, 4191.795, 4243.59, 4080.513, 4163.077, 4165.641, 0, 0, []
1628616670.7911, 34, 0, 4203.077, 4258.462, 4068.205, 4176.923, 4171.282, 0, 0, []
1628616670.7991, 35, 0, 4198.974, 4249.744, 4077.436, 4171.795, 4166.667, 0, 0, []
1628616670.807, 36, 0, 4195.897, 4251.282, 4072.821, 4161.538, 4161.026, 0, 0, []
1628616670.815, 37, 0, 4194.359, 4250.769, 4082.564, 4158.462, 4158.974, 0, 0, []
1628616670.8228, 38, 0, 4183.077, 4236.41, 4079.487, 4140, 4152.821, 0, 0, []
1628616670.8307, 39, 0, 4178.974, 4236.41, 4074.872, 4129.744, 4151.795, 0, 0, []
1628616670.8386, 40, 0, 4186.667, 4248.205, 4090.256, 4134.872, 4154.872, 0, 0, []
1628616670.8464, 41, 0, 4181.538, 4235.385, 4076.41, 4132.821, 4146.667, 0, 0, []
1628616670.8543, 42, 0, 4169.231, 4226.667, 4068.205, 4135.897, 4126.667, 0, 0, []
1628616670.862, 43, 0, 4176.923, 4238.974, 4064.615, 4145.128, 4117.949, 0, 0, []
1628616670.8699, 44, 0, 4193.846, 4223.59, 4066.154, 4147.692, 4132.821, 0, 0, []
1628616670.8777, 45, 0, 4195.385, 4205.641, 4084.103, 4146.667, 4148.718, 0, 0, []
1628616670.8856, 46, 0, 4183.59, 4211.282, 4073.846, 4150.256, 4150.256, 0, 0, []
1628616670.8934, 47, 0, 4175.897, 4217.949, 4075.897, 4149.744, 4146.154, 0, 0, []
1628616670.9012, 48, 0, 4170.769, 4226.154, 4075.897, 4136.923, 4143.59, 0, 0, []
1628616670.909, 49, 0, 4173.333, 4227.179, 4066.667, 4130.256, 4148.205, 0, 0, []
1628616670.917, 50, 0, 4177.436, 4210.256, 4089.744, 4134.359, 4151.282, 0, 0, []
1628616670.9249, 51, 0, 4171.282, 4206.667, 4084.615, 4130.769, 4143.077, 0, 0, []
1628616670.9329, 52, 0, 4174.359, 4217.949, 4081.026, 4136.41, 4142.564, 0, 0, []
1628616670.9407, 53, 0, 4189.231, 4208.718, 4088.205, 4155.897, 4149.744, 0, 0, []
1628616670.9487, 54, 0, 4186.667, 4201.026, 4069.231, 4158.462, 4146.154, 0, 0, []
1628616670.9566, 55, 0, 4183.59, 4226.667, 4074.359, 4149.744, 4142.051, 0, 0, []
1628616670.9646, 56, 0, 4199.487, 4246.154, 4080.513, 4144.103, 4151.795, 0, 0, []
1628616670.9725, 57, 0, 4200, 4233.333, 4089.231, 4146.667, 4163.077, 0, 0, []
1628616670.9804, 58, 0, 4184.103, 4224.103, 4107.179, 4155.385, 4166.154, 0, 0, []
1628616670.9883, 59, 0, 4186.667, 4224.103, 4096.41, 4156.41, 4166.667, 0, 0, []
1628616670.9961, 60, 0, 4190.256, 4209.231, 4080.513, 4155.897, 4158.462, 0, 0, []
1628616671.004, 61, 0, 4174.872, 4195.385, 4063.59, 4158.974, 4142.051, 0, 0, []
1628616671.0118, 62, 0, 4163.59, 4212.308, 4063.077, 4153.333, 4121.026, 0, 0, []
1628616671.0196, 63, 0, 4154.872, 4226.154, 4058.974, 4135.897, 4102.051, 0, 0, []
1628616671.0274, 64, 0, 4146.154, 4198.974, 4037.436, 4129.231, 4097.436, 450, 0, []
1628616671.0353, 65, 0, 4160.513, 4183.077, 4064.103, 4145.128, 4110.769, 450, 0, []
1628616671.0431, 66, 0, 4178.974, 4210.256, 4084.103, 4149.231, 4126.667, 16208, 0, []
1628616671.051, 67, 0, 4171.795, 4217.436, 4079.487, 4131.795, 4131.282, 450, 0, []
1628616671.0587, 68, 0, 4156.41, 4198.462, 4080, 4120.513, 4129.744, 16131, 0, []
1628616671.0667, 69, 0, 4155.897, 4213.846, 4073.846, 4131.282, 4132.308, 450, 0, []
1628616671.0746, 70, 0, 4161.538, 4228.205, 4085.641, 4144.615, 4133.333, 16073, 0, []
1628616671.0826, 71, 0, 4156.923, 4205.641, 4077.949, 4139.487, 4128.718, 450, 0, []
1628616671.0905, 72, 0, 4150.256, 4191.282, 4068.718, 4131.282, 4122.564, 450, 0, []
1628616671.0984, 73, 0, 4157.436, 4191.795, 4088.205, 4134.872, 4121.026, 16127, 0, []
1628616671.1063, 74, 0, 4171.282, 4189.231, 4091.795, 4146.154, 4124.615, 450, 0, []
1628616671.1143, 75, 0, 4172.821, 4195.897, 4097.949, 4150.769, 4123.077, 16197, 0, []
1628616671.1222, 76, 0, 4165.128, 4206.667, 4093.333, 4143.077, 4118.974, 450, 0, []
1628616671.1302, 77, 0, 4169.231, 4203.077, 4094.872, 4140.513, 4131.795, 450, 0, []
1628616671.138, 78, 0, 4181.026, 4193.846, 4115.385, 4145.128, 4149.744, 450, 0, []
1628616671.146, 79, 0, 4185.128, 4205.128, 4101.538, 4155.897, 4159.487, 16197, 0, []
1628616671.1539, 80, 0, 4177.436, 4212.308, 4097.436, 4168.205, 4157.949, 450, 0, []
1628616671.1617, 81, 0, 4164.103, 4183.077, 4097.436, 4153.333, 4138.974, 450, 0, []
1628616671.1696, 82, 0, 4156.41, 4167.692, 4074.359, 4131.282, 4120, 450, 0, []
1628616671.1773, 83, 0, 4161.026, 4188.205, 4074.872, 4134.872, 4126.667, 16197, 0, []
1628616671.1852, 84, 0, 4168.718, 4188.718, 4075.897, 4135.897, 4137.436, 450, 0, []
1628616671.193, 85, 0, 4168.718, 4188.205, 4087.179, 4132.308, 4133.333, 450, 0, []
1628616671.2009, 86, 0, 4168.718, 4206.154, 4095.385, 4141.026, 4133.333, 450, 0, []
1628616671.2087, 87, 0, 4172.308, 4192.821, 4080.513, 4140, 4141.026, 16197, 0, []
1628616671.2166, 88, 0, 4171.795, 4177.949, 4079.487, 4131.795, 4146.667, 450, 0, []
1628616671.2245, 89, 0, 4177.949, 4194.359, 4065.128, 4140.513, 4151.795, 450, 0, []
1628616671.2324, 90, 0, 4182.564, 4196.923, 4069.231, 4151.282, 4155.897, 450, 0, []
1628616671.2402, 91, 0, 4168.718, 4184.615, 4088.205, 4140, 4153.846, 16197, 0, []
1628616671.2482, 92, 0, 4157.949, 4171.795, 4086.154, 4130.256, 4146.667, 450, 0, []
1628616671.256, 93, 0, 4160, 4158.974, 4103.077, 4134.359, 4140.513, 450, 0, []
1628616671.264, 94, 0, 4166.667, 4176.41, 4101.026, 4133.846, 4147.692, 450, 0, []
1628616671.2719, 95, 0, 4177.436, 4189.744, 4090.769, 4135.385, 4162.051, 16197, 0, []
1628616671.2799, 96, 0, 4184.103, 4164.103, 4090.769, 4136.923, 4152.308, 450, 0, []
1628616671.2878, 97, 0, 4180.513, 4175.385, 4077.949, 4135.385, 4134.872, 450, 0, []
1628616671.2957, 98, 0, 4180, 4213.333, 4090.769, 4134.872, 4141.538, 450, 0, []
1628616671.3036, 99, 0, 4186.667, 4191.282, 4093.846, 4130.256, 4156.923, 16197, 0, []
1628616671.3114, 100, 0, 4190.769, 4158.462, 4090.256, 4135.385, 4161.538, 450, 0, []
1628616671.3193, 101, 0, 4190.256, 4189.231, 4107.179, 4152.308, 4165.128, 450, 0, []
1628616671.3271, 102, 0, 4186.667, 4214.872, 4107.692, 4158.974, 4172.821, 450, 0, []
1628616671.335, 103, 0, 4184.103, 4180.513, 4113.333, 4159.487, 4167.179, 16197, 0, []
1628616671.3427, 104, 0, 4185.641, 4155.897, 4100, 4157.436, 4158.974, 450, 0, []
1628616671.3506, 105, 0, 4176.923, 4160, 4080, 4145.128, 4155.897, 450, 0, []
1628616671.3584, 106, 0, 4163.077, 4163.077, 4091.795, 4134.359, 4143.59, 450, 0, []
1628616671.3663, 107, 0, 4170.769, 4160.513, 4089.231, 4142.051, 4134.359, 16197, 0, []
1628616671.3741, 108, 0, 4192.821, 4151.282, 4100.513, 4165.641, 4145.128, 450, 0, []
1628616671.382, 109, 0, 4204.103, 4155.897, 4109.231, 4178.462, 4160.513, 450, 0, []
1628616671.3899, 110, 0, 4198.462, 4172.821, 4105.641, 4167.179, 4162.051, 450, 0, []
1628616671.3979, 111, 0, 4194.359, 4173.846, 4125.641, 4162.564, 4163.59, 16197, 0, []
1628616671.4058, 112, 0, 4200, 4174.359, 4121.026, 4171.795, 4174.359, 450, 0, []
1628616671.4138, 113, 0, 4204.615, 4188.718, 4108.718, 4172.821, 4178.462, 450, 0, []
1628616671.4216, 114, 0, 4199.487, 4167.692, 4100.513, 4157.949, 4166.667, 450, 0, []
1628616671.4296, 115, 0, 4194.359, 4140.513, 4100.513, 4152.308, 4156.923, 16197, 0, []
1628616671.4375, 116, 0, 4198.974, 4175.897, 4110.769, 4160.513, 4165.641, 450, 0, []
1628616671.4455, 117, 0, 4204.615, 4196.923, 4089.744, 4156.923, 4174.359, 450, 0, []
1628616671.4534, 118, 0, 4199.487, 4169.744, 4091.795, 4149.744, 4167.692, 450, 0, []
1628616671.4611, 119, 0, 4193.333, 4169.231, 4102.564, 4156.923, 4162.051, 16197, 0, []
1628616671.469, 120, 0, 4185.128, 4181.538, 4088.718, 4163.59, 4164.103, 450, 0, []
1628616671.4768, 121, 0, 4173.846, 4173.333, 4096.923, 4152.821, 4156.923, 450, 0, []
1628616671.4847, 122, 0, 4173.846, 4182.051, 4092.821, 4142.564, 4152.308, 450, 0, []
1628616671.4925, 123, 0, 4185.128, 4194.872, 4090.769, 4148.718, 4159.487, 16197, 0, []
1628616671.5003, 124, 0, 4184.615, 4165.641, 4092.308, 4145.641, 4155.385, 450, 0, []
1628616671.5081, 125, 0, 4177.436, 4146.667, 4072.308, 4140.513, 4140.513, 450, 0, []
1628616671.516, 126, 0, 4181.026, 4173.333, 4074.872, 4154.872, 4138.462, 450, 0, []
1628616671.5238, 127, 0, 4179.487, 4178.974, 4068.718, 4156.41, 4142.051, 16197, 0, []
1628616671.5318, 128, 0, 4171.795, 4143.59, 4064.103, 4146.154, 4136.41, 450, 0, []
1628616671.5396, 0, 0, 4176.41, 4136.41, 4074.359, 4151.282, 4136.923, 450, 0, []
1628616671.5476, 1, 0, 4186.667, 4155.385, 4076.923, 4159.487, 4153.333, 450, 0, []
1628616671.5555, 2, 0, 4189.744, 4142.051, 4097.436, 4157.949, 4162.051, 16196, 0, []
1628616671.5635, 3, 0, 4186.667, 4130.769, 4090.769, 4159.487, 4160.513, 450, 0, []
1628616671.5714, 4, 0, 4187.692, 4160.513, 4082.564, 4165.128, 4165.128, 16132, 0, []
1628616671.5793, 5, 0, 4193.333, 4185.128, 4102.051, 4156.41, 4169.744, 450, 0, []
1628616671.5872, 6, 0, 4200.513, 4170.256, 4093.333, 4143.59, 4168.718, 266, 0, []
1628616671.5951, 7, 0, 4206.154, 4160.513, 4095.385, 4152.308, 4168.205, 450, 0, []
1628616671.603, 8, 0, 4205.641, 4178.974, 4101.026, 4163.59, 4166.667, 450, 0, []
1628616671.6108, 9, 0, 4202.564, 4186.154, 4097.436, 4156.41, 4161.026, 16128, 0, []
1628616671.6186, 10, 0, 4197.436, 4171.282, 4098.974, 4147.179, 4154.872, 450, 0, []
1628616671.6264, 11, 0, 4190.256, 4168.718, 4080.513, 4157.436, 4157.436, 16194, 0, []
1628616671.6343, 12, 0, 4190.256, 4175.897, 4087.179, 4176.41, 4168.205, 450, 0, []
1628616671.6421, 13, 0, 4196.41, 4156.923, 4093.846, 4168.718, 4169.744, 450, 0, []
1628616671.65, 14, 0, 4190.256, 4140, 4080, 4148.205, 4160, 450, 0, []
1628616671.6577, 15, 0, 4184.615, 4162.051, 4087.179, 4145.641, 4161.538, 16194, 0, []
1628616671.6656, 16, 0, 4205.128, 4174.872, 4086.154, 4149.231, 4168.205, 0, 0, []
1628616671.6734, 17, 0, 4215.897, 4154.872, 4082.564, 4154.359, 4164.103, 0, 0, []
1628616671.6814, 18, 0, 4199.487, 4146.154, 4073.846, 4154.359, 4159.487, 0, 0, []
1628616671.6893, 19, 0, 4202.051, 4161.538, 4070.256, 4148.205, 4171.795, 0, 0, []
1628616671.6972, 20, 0, 4224.615, 4176.923, 4090.256, 4158.974, 4188.205, 0, 0, []
1628616671.7051, 21, 0, 4227.179, 4193.333, 4085.128, 4176.41, 4191.282, 0, 0, []
1628616671.7131, 22, 0, 4216.923, 4205.641, 4091.795, 4179.487, 4189.744, 0, 0, []
1628616671.721, 23, 0, 4214.872, 4193.333, 4100, 4166.154, 4190.769, 0, 0, []
1628616671.729, 24, 0, 4217.436, 4192.821, 4086.154, 4162.564, 4191.795, 0, 0, []
1628616671.7368, 25, 0, 4229.231, 4214.872, 4095.385, 4177.436, 4192.308, 0, 0, []
1628616671.7448, 26, 0, 4232.308, 4214.359, 4088.205, 4179.487, 4193.846, 0, 0, []
1628616671.7527, 27, 0, 4213.846, 4198.462, 4082.564, 4165.128, 4188.205, 0, 0, []
1628616671.7606, 28, 0, 4200, 4192.308, 4080.513, 4151.282, 4175.385, 0, 0, []
1628616671.7686, 29, 0, 4208.205, 4184.103, 4064.103, 4150.256, 4174.872, 0, 0, []
1628616671.7763, 30, 0, 4210.769, 4187.179, 4084.615, 4152.821, 4183.59, 0, 0, []
1628616671.7842, 31, 0, 4201.026, 4216.41, 4090.256, 4145.641, 4186.154, 0, 0, []
1628616671.792, 32, 0, 4207.692, 4224.615, 4083.077, 4146.154, 4184.103, 0, 0, []
1628616671.7999, 33, 0, 4221.026, 4204.615, 4089.231, 4154.872, 4184.615, 0, 0, []
1628616671.8077, 34, 0, 4208.718, 4205.128, 4076.41, 4151.282, 4180, 0, 0, []
1628616671.8155, 35, 0, 4187.179, 4200.513, 4077.436, 4139.487, 4166.154, 0, 0, []
1628616671.8233, 36, 0, 4189.231, 4169.744, 4074.359, 4140.513, 4166.154, 0, 0, []
1628616671.8312, 37, 0, 4191.795, 4162.564, 4067.692, 4145.128, 4172.821, 0, 0, []
1628616671.839, 38, 0, 4180, 4186.667, 4075.385, 4130.256, 4166.154, 0, 0, []
1628616671.847, 39, 0, 4177.949, 4174.359, 4073.333, 4120, 4157.949, 0, 0, []
1628616671.8548, 40, 0, 4185.641, 4147.692, 4082.564, 4131.795, 4160.513, 0, 0, []
1628616671.8628, 41, 0, 4190.256, 4173.333, 4077.436, 4139.487, 4168.205, 0, 0, []
1628616671.8707, 42, 0, 4189.744, 4188.718, 4071.795, 4137.436, 4170.256, 0, 0, []
1628616671.8787, 43, 0, 4185.641, 4158.462, 4087.179, 4141.026, 4161.026, 0, 0, []
1628616671.8866, 44, 0, 4183.077, 4148.205, 4079.487, 4142.564, 4153.846, 0, 0, []
1628616671.8945, 45, 0, 4190.256, 4154.359, 4077.436, 4138.462, 4160, 0, 0, []
1628616671.9024, 46, 0, 4202.564, 4129.744, 4071.795, 4134.359, 4173.333, 0, 0, []
1628616671.9104, 47, 0, 4216.41, 4124.103, 4076.923, 4140, 4195.385, 0, 0, []
1628616671.9183, 48, 0, 4217.949, 4141.026, 4109.744, 4149.744, 4209.231, 0, 0, []
1628616671.9261, 49, 0, 4209.744, 4135.385, 4097.436, 4148.205, 4201.538, 0, 0, []
1628616671.9339, 50, 0, 4223.077, 4132.821, 4083.59, 4142.051, 4202.051, 0, 0, []
1628616671.9417, 51, 0, 4261.538, 4140.513, 4090.256, 4141.538, 4226.667, 0, 0, []
1628616671.9496, 52, 0, 4303.59, 4144.615, 4090.256, 4149.744, 4255.897, 0, 0, []
1628616671.9574, 53, 0, 4340, 4151.795, 4095.385, 4153.333, 4280.513, 0, 0, []
1628616671.9653, 54, 0, 4366.667, 4140.513, 4072.821, 4134.359, 4309.744, 0, 0, []
1628616671.973, 55, 0, 4394.359, 4112.308, 4072.308, 4123.077, 4338.462, 0, 0, []
1628616671.9809, 56, 0, 4431.795, 4125.641, 4096.923, 4130.769, 4358.974, 0, 0, []
1628616671.9887, 57, 0, 4446.667, 4161.538, 4098.462, 4135.897, 4369.231, 0, 0, []
1628616671.9967, 58, 0, 4422.051, 4143.59, 4100, 4134.359, 4360, 0, 0, []
1628616672.0046, 59, 0, 4394.872, 4123.077, 4087.179, 4130.256, 4336.41, 0, 0, []
1628616672.0125, 60, 0, 4379.487, 4145.128, 4089.744, 4131.795, 4314.872, 0, 0, []
1628616672.0204, 61, 0, 4364.615, 4160.513, 4093.333, 4134.872, 4305.128, 0, 0, []
1628616672.0284, 62, 0, 4351.282, 4143.59, 4082.564, 4138.462, 4304.103, 0, 0, []
1628616672.0363, 63, 0, 4333.333, 4136.41, 4107.179, 4140, 4295.897, 0, 0, []
1628616672.0443, 64, 0, 4315.897, 4148.718, 4114.872, 4131.282, 4278.462, 450, 0, []
1628616672.0521, 65, 0, 4309.744, 4138.462, 4104.103, 4128.718, 4266.154, 450, 0, []
1628616672.0601, 66, 0, 4297.949, 4134.359, 4095.385, 4135.897, 4256.41, 16186, 0, []
1628616672.068, 67, 0, 4277.436, 4149.744, 4087.692, 4139.487, 4242.051, 450, 0, []
1628616672.0758, 68, 0, 4259.487, 4143.59, 4112.821, 4138.462, 4231.282, 16132, 0, []
1628616672.0837, 69, 0, 4248.718, 4120, 4111.282, 4137.436, 4227.179, 450, 0, []
1628616672.0915, 70, 0, 4253.333, 4124.615, 4107.692, 4142.564, 4224.103, 312, 0, []
1628616672.0993, 71, 0, 4261.026, 4154.359, 4133.846, 4143.59, 4214.872, 450, 0, []
1628616672.1071, 72, 0, 4254.872, 4144.615, 4126.154, 4130.256, 4209.231, 450, 0, []
1628616672.115, 73, 0, 4241.026, 4110.256, 4107.179, 4121.026, 4206.154, 16128, 0, []
1628616672.1228, 74, 0, 4234.359, 4098.462, 4083.59, 4125.128, 4205.641, 450, 0, []
1628616672.1308, 75, 0, 4231.282, 4112.821, 4071.282, 4133.333, 4209.744, 16198, 0, []
1628616672.1386, 76, 0, 4230.769, 4133.846, 4089.744, 4140, 4209.231, 450, 0, []
1628616672.1466, 77, 0, 4235.385, 4128.718, 4087.692, 4145.641, 4197.436, 450, 0, []
1628616672.1545, 78, 0, 4232.821, 4111.795, 4085.128, 4146.667, 4184.615, 450, 0, []
1628616672.1625, 79, 0, 4230.769, 4116.923, 4088.718, 4144.615, 4185.641, 16198, 0, []
1628616672.1704, 80, 0, 4229.231, 4128.205, 4093.846, 4141.538, 4188.718, 450, 0, []
1628616672.1783, 81, 0, 4220.513, 4122.564, 4105.641, 4134.359, 4183.077, 450, 0, []
1628616672.1862, 82, 0, 4216.41, 4137.949, 4092.308, 4125.641, 4183.59, 450, 0, []
1628616672.1942, 83, 0, 4217.949, 4143.077, 4093.846, 4121.538, 4189.231, 16198, 0, []
1628616672.2021, 84, 0, 4212.308, 4102.564, 4094.359, 4118.462, 4183.077, 450, 0, []
1628616672.2101, 85, 0, 4207.179, 4092.308, 4089.231, 4124.615, 4170.256, 450, 0, []
1628616672.2179, 86, 0, 4216.41, 4121.538, 4106.667, 4138.462, 4173.846, 450, 0, []
1628616672.2257, 87, 0, 4220.513, 4120, 4096.923, 4143.077, 4186.154, 16198, 0, []
1628616672.2336, 88, 0, 4209.744, 4094.872, 4103.077, 4144.103, 4181.026, 450, 0, []
1628616672.2414, 89, 0, 4192.308, 4081.026, 4113.333, 4134.872, 4159.487, 450, 0, []
1628616672.2493, 90, 0, 4183.077, 4069.231, 4091.795, 4118.974, 4151.282, 450, 0, []
1628616672.257, 91, 0, 4192.308, 4070.769, 4098.462, 4123.077, 4163.077, 16198, 0, []
1628616672.2649, 92, 0, 4203.59, 4086.667, 4092.821, 4126.667, 4172.821, 450, 0, []
1628616672.2727, 93, 0, 4201.538, 4096.923, 4082.564, 4118.974, 4168.205, 450, 0, []
1628616672.2806, 94, 0, 4197.436, 4104.615, 4091.795, 4125.128, 4156.923, 450, 0, []
1628616672.2884, 95, 0, 4201.538, 4109.231, 4092.821, 4139.487, 4158.462, 16198, 0, []
1628616672.2962, 96, 0, 4206.154, 4108.205, 4101.026, 4132.308, 4165.128, 450, 0, []
1628616672.304, 97, 0, 4197.436, 4110.769, 4094.359, 4120, 4165.641, 450, 0, []
1628616672.312, 98, 0, 4189.231, 4107.179, 4097.436, 4134.872, 4173.333, 450, 0, []
1628616672.3199, 99, 0, 4205.641, 4095.385, 4105.128, 4147.692, 4192.821, 16198, 0, []
1628616672.3279, 100, 0, 4224.615, 4105.128, 4089.231, 4138.462, 4198.974, 450, 0, []
1628616672.3357, 101, 0, 4211.282, 4127.179, 4105.128, 4130.256, 4186.154, 450, 0, []
1628616672.3437, 102, 0, 4196.923, 4121.538, 4109.231, 4131.795, 4177.949, 450, 0, []
1628616672.3516, 103, 0, 4203.59, 4092.821, 4084.103, 4136.41, 4176.41, 16198, 0, []
1628616672.3596, 104, 0, 4196.41, 4089.744, 4075.385, 4133.333, 4169.744, 450, 0, []
1628616672.3675, 105, 0, 4182.051, 4106.667, 4070.256, 4130.256, 4165.641, 450, 0, []
1628616672.3752, 106, 0, 4185.641, 4106.667, 4089.231, 4144.103, 4168.205, 450, 0, []
1628616672.3831, 107, 0, 4183.077, 4095.385, 4098.974, 4156.41, 4170.256, 16198, 0, []
1628616672.3909, 108, 0, 4171.795, 4078.462, 4103.077, 4155.385, 4171.795, 450, 0, []
1628616672.3988, 109, 0, 4177.949, 4070.769, 4114.872, 4151.795, 4177.436, 450, 0, []
1628616672.4066, 110, 0, 4189.744, 4095.897, 4102.564, 4153.846, 4182.564, 450, 0, []
1628616672.4144, 111, 0, 4187.692, 4117.436, 4109.231, 4160, 4172.308, 16198, 0, []
1628616672.4222, 112, 0, 4180.513, 4089.231, 4101.538, 4161.026, 4156.41, 450, 0, []
1628616672.4301, 113, 0, 4177.949, 4066.154, 4082.564, 4162.051, 4151.795, 450, 0, []
1628616672.4379, 114, 0, 4178.462, 4089.744, 4104.615, 4167.692, 4153.846, 450, 0, []
1628616672.4458, 115, 0, 4186.154, 4102.564, 4108.205, 4164.615, 4157.436, 16198, 0, []
1628616672.4535, 116, 0, 4187.692, 4095.897, 4097.949, 4151.795, 4158.462, 450, 0, []
1628616672.4615, 117, 0, 4173.846, 4112.308, 4090.256, 4140.513, 4151.795, 450, 0, []
1628616672.4694, 118, 0, 4170.256, 4117.436, 4089.744, 4148.718, 4156.923, 450, 0, []
1628616672.4774, 119, 0, 4188.718, 4106.154, 4105.641, 4158.974, 4172.821, 16198, 0, []
1628616672.4853, 120, 0, 4207.179, 4120.513, 4102.051, 4152.821, 4181.538, 450, 0, []
1628616672.4932, 121, 0, 4201.026, 4127.692, 4112.821, 4152.308, 4174.872, 450, 0, []
1628616672.5011, 122, 0, 4180, 4103.59, 4109.231, 4153.846, 4155.385, 450, 0, []
1628616672.5091, 123, 0, 4166.154, 4084.103, 4078.974, 4142.051, 4137.949, 16198, 0, []
1628616672.517, 124, 0, 4163.59, 4086.667, 4091.282, 4134.872, 4134.872, 450, 0, []
1628616672.525, 125, 0, 4163.077, 4086.154, 4092.821, 4128.205, 4130.256, 450, 0, []
1628616672.5328, 126, 0, 4155.897, 4083.59, 4078.974, 4115.897, 4120.513, 450, 0, []
1628616672.5408, 127, 0, 4160, 4101.026, 4079.487, 4128.718, 4134.359, 16198, 0, []
1628616672.5487, 128, 0, 4172.308, 4114.359, 4078.974, 4162.051, 4158.462, 450, 0, []
1628616672.5565, 0, 0, 4167.179, 4102.564, 4088.205, 4163.59, 4153.333, 450, 0, []
1628616672.5644, 1, 0, 4151.282, 4101.538, 4082.564, 4141.538, 4133.846, 450, 0, []
1628616672.5721, 2, 0, 4154.359, 4122.564, 4091.282, 4142.564, 4135.897, 16184, 0, []
1628616672.58, 3, 0, 4175.385, 4132.308, 4106.667, 4150.256, 4152.308, 450, 0, []
1628616672.5878, 4, 0, 4186.667, 4138.462, 4091.795, 4145.128, 4156.923, 16135, 0, []
1628616672.5958, 5, 0, 4187.179, 4146.154, 4089.744, 4150.256, 4152.821, 450, 0, []
1628616672.6037, 6, 0, 4183.077, 4149.231, 4071.282, 4148.718, 4152.821, 16070, 0, []
1628616672.6116, 7, 0, 4176.923, 4151.795, 4056.923, 4135.897, 4150.256, 450, 0, []
1628616672.6195, 8, 0, 4166.154, 4136.923, 4078.462, 4134.872, 4138.462, 450, 0, []
1628616672.6275, 9, 0, 4154.872, 4123.59, 4078.974, 4137.949, 4130.769, 16133, 0, []
1628616672.6354, 10, 0, 4156.41, 4140.513, 4081.538, 4141.538, 4136.41, 450, 0, []
1628616672.6434, 11, 0, 4174.872, 4144.103, 4085.641, 4152.308, 4150.256, 16190, 0, []
1628616672.6512, 12, 0, 4194.359, 4140, 4090.769, 4158.974, 4165.641, 450, 0, []
1628616672.6592, 13, 0, 4197.949, 4158.974, 4105.128, 4157.436, 4172.308, 450, 0, []
1628616672.6671, 14, 0, 4197.949, 4168.205, 4087.692, 4161.538, 4172.821, 450, 0, []
1628616672.675, 15, 0, 4202.564, 4153.333, 4082.564, 4165.641, 4171.795, 16190, 0, []
1628616672.6829, 16, 0, 4200, 4138.462, 4084.615, 4158.462, 4165.128, 0, 0, []
1628616672.6906, 17, 0, 4194.359, 4154.359, 4082.051, 4163.077, 4162.051, 0, 0, []
1628616672.6985, 18, 0, 4198.974, 4177.436, 4094.359, 4170.256, 4164.615, 0, 0, []
1628616672.7063, 19, 0, 4204.615, 4158.974, 4084.103, 4163.59, 4167.692, 0, 0, []
1628616672.7142, 20, 0, 4196.41, 4129.744, 4080, 4161.026, 4170.256, 0, 0, []
1628616672.722, 21, 0, 4185.641, 4136.41, 4076.923, 4155.897, 4163.077, 0, 0, []
1628616672.7298, 22, 0, 4185.641, 4162.564, 4081.538, 4154.359, 4155.897, 0, 0, []
1628616672.7376, 23, 0, 4189.231, 4169.744, 4104.615, 4166.154, 4165.128, 0, 0, []
1628616672.7455, 24, 0, 4187.179, 4147.179, 4083.077, 4158.462, 4172.821, 0, 0, []
1628616672.7534, 25, 0, 4183.59, 4140, 4070.256, 4137.949, 4165.128, 0, 0, []
1628616672.7614, 26, 0, 4187.179, 4168.718, 4080, 4133.333, 4163.077, 0, 0, []
1628616672.7693, 27, 0, 4189.231, 4155.385, 4072.821, 4131.795, 4160.513, 0, 0, []
1628616672.7772, 28, 0, 4184.103, 4116.41, 4075.385, 4126.154, 4141.538, 0, 0, []
1628616672.7851, 29, 0, 4180.513, 4141.026, 4066.667, 4134.872, 4135.385, 0, 0, []
1628616672.7931, 30, 0, 4187.692, 4166.667, 4076.923, 4160, 4155.897, 0, 0, []
1628616672.801, 31, 0, 4204.615, 4144.103, 4104.615, 4174.872, 4179.487, 0, 0, []
1628616672.8089, 32, 0, 4217.436, 4131.795, 4103.59, 4176.923, 4191.795, 0, 0, []
1628616672.8168, 33, 0, 4208.718, 4143.077, 4102.051, 4173.333, 4184.615, 0, 0, []
1628616672.8248, 34, 0, 4180, 4149.744, 4075.385, 4145.128, 4154.872, 0, 0, []
1628616672.8327, 35, 0, 4163.077, 4150.769, 4057.949, 4119.487, 4133.333, 0, 0, []
1628616672.8405, 36, 0, 4173.846, 4156.923, 4074.872, 4132.821, 4144.103, 0, 0, []
1628616672.8484, 37, 0, 4185.128, 4154.359, 4084.103, 4151.282, 4157.436, 0, 0, []
1628616672.8561, 38, 0, 4180, 4129.744, 4100.513, 4146.667, 4151.795, 0, 0, []
1628616672.864, 39, 0, 4185.128, 4114.872, 4090.769, 4146.667, 4149.744, 0, 0, []
1628616672.8718, 40, 0, 4202.051, 4147.179, 4086.667, 4161.538, 4154.872, 0, 0, []
1628616672.8797, 41, 0, 4204.103, 4181.026, 4103.59, 4158.462, 4154.872, 0, 0, []
1628616672.8875, 42, 0, 4200.513, 4167.692, 4083.59, 4138.462, 4152.821, 0, 0, []
1628616672.8953, 43, 0, 4198.462, 4148.718, 4078.462, 4133.846, 4152.308, 0, 0, []
1628616672.9031, 44, 0, 4189.744, 4145.641, 4076.41, 4139.487, 4151.282, 0, 0, []
1628616672.9111, 45, 0, 4181.538, 4139.487, 4072.821, 4142.051, 4154.872, 0, 0, []
1628616672.919, 46, 0, 4186.667, 4138.462, 4100.513, 4150.769, 4156.41, 0, 0, []
1628616672.927, 47, 0, 4203.59, 4154.872, 4109.231, 4161.538, 4165.641, 0, 0, []
1628616672.9348, 48, 0, 4221.538, 4170.256, 4112.308, 4170.256, 4191.795, 0, 0, []
1628616672.9428, 49, 0, 4221.538, 4169.231, 4110.256, 4173.846, 4197.436, 0, 0, []
1628616672.9507, 50, 0, 4213.846, 4169.744, 4099.487, 4166.667, 4176.923, 0, 0, []
1628616672.9587, 51, 0, 4225.128, 4186.154, 4097.436, 4157.949, 4170.256, 0, 0, []
1628616672.9666, 52, 0, 4237.949, 4192.308, 4088.718, 4158.974, 4181.026, 0, 0, []
1628616672.9745, 53, 0, 4226.667, 4162.051, 4097.949, 4157.436, 4179.487, 0, 0, []
1628616672.9824, 54, 0, 4210.256, 4140.513, 4093.333, 4147.179, 4171.282, 0, 0, []
1628616672.9903, 55, 0, 4202.564, 4143.59, 4069.231, 4146.154, 4165.128, 0, 0, []
1628616672.9982, 56, 0, 4195.897, 4143.59, 4078.974, 4150.256, 4153.333, 0, 0, []
1628616673.006, 57, 0, 4196.41, 4151.795, 4086.154, 4142.564, 4148.718, 0, 0, []
1628616673.0138, 58, 0, 4198.462, 4149.744, 4097.436, 4136.41, 4153.333, 0, 0, []
1628616673.0216, 59, 0, 4189.744, 4132.821, 4101.026, 4132.308, 4149.744, 0, 0, []
1628616673.0295, 60, 0, 4183.077, 4136.41, 4083.077, 4128.205, 4144.615, 0, 0, []
1628616673.0373, 61, 0, 4196.41, 4152.308, 4087.179, 4137.436, 4152.821, 0, 0, []
1628616673.0452, 62, 0, 4215.897, 4150.256, 4086.154, 4154.872, 4169.744, 0, 0, []
1628616673.0529, 63, 0, 4223.59, 4144.615, 4100.513, 4164.103, 4180.513, 0, 0, []
1628616673.0609, 64, 0, 4226.667, 4140, 4122.564, 4164.615, 4188.205, 450, 0, []
1628616673.0688, 65, 0, 4222.051, 4131.282, 4111.795, 4163.59, 4186.667, 450, 0, []
1628616673.0768, 66, 0, 4200, 4148.205, 4107.179, 4149.744, 4160, 16181, 0, []
1628616673.0847, 67, 0, 4180.513, 4161.538, 4094.872, 4124.103, 4136.923, 450, 0, []
1628616673.0926, 68, 0, 4181.538, 4137.436, 4091.795, 4120, 4141.538, 16132, 0, []
1628616673.1005, 69, 0, 4192.821, 4118.974, 4103.077, 4134.359, 4155.897, 450, 0, []
1628616673.1085, 70, 0, 4207.179, 4138.974, 4094.359, 4147.692, 4166.667, 16075, 0, []
1628616673.1164, 71, 0, 4214.359, 4165.641, 4102.051, 4162.051, 4165.128, 450, 0, []
1628616673.1244, 72, 0, 4207.692, 4152.821, 4096.923, 4162.051, 4156.41, 450, 0, []
1628616673.1322, 73, 0, 4200, 4143.077, 4083.077, 4140, 4155.385, 16133, 0, []
1628616673.1402, 74, 0, 4194.359, 4158.462, 4088.205, 4125.641, 4150.769, 450, 0, []
1628616673.1481, 75, 0, 4188.205, 4141.538, 4081.538, 4130.256, 4142.051, 16196, 0, []
1628616673.1559, 76, 0, 4178.974, 4120.513, 4086.154, 4135.385, 4142.564, 450, 0, []
1628616673.1638, 77, 0, 4171.795, 4146.154, 4085.641, 4128.205, 4143.077, 450, 0, []
1628616673.1715, 78, 0, 4181.538, 4169.744, 4090.256, 4129.744, 4144.615, 450, 0, []
1628616673.1794, 79, 0, 4194.872, 4169.231, 4104.615, 4137.949, 4153.333, 16196, 0, []
1628616673.1872, 80, 0, 4189.744, 4163.59, 4082.564, 4124.615, 4146.667, 450, 0, []
1628616673.1951, 81, 0, 4184.103, 4147.692, 4089.744, 4116.41, 4133.333, 450, 0, []
1628616673.2029, 82, 0, 4188.718, 4152.821, 4106.154, 4124.103, 4143.077, 450, 0, []
1628616673.2107, 83, 0, 4186.154, 4164.103, 4094.872, 4125.641, 4153.333, 16196, 0, []
1628616673.2185, 84, 0, 4191.795, 4135.385, 4101.026, 4133.333, 4151.795, 450, 0, []
1628616673.2264, 85, 0, 4202.564, 4122.051, 4103.077, 4145.128, 4157.949, 450, 0, []
1628616673.2342, 86, 0, 4185.128, 4130.769, 4106.667, 4141.026, 4157.949, 450, 0, []
1628616673.2422, 87, 0, 4164.103, 4109.744, 4089.744, 4126.667, 4145.641, 16196, 0, []
1628616673.25, 88, 0, 4173.333, 4105.128, 4069.744, 4125.128, 4146.667, 450, 0, []
1628616673.258, 89, 0, 4186.667, 4118.462, 4093.333, 4126.667, 4158.462, 450, 0, []
1628616673.2659, 90, 0, 4196.923, 4108.205, 4090.769, 4125.641, 4166.667, 450, 0, []
1628616673.2739, 91, 0, 4226.154, 4118.462, 4086.154, 4142.051, 4183.59, 16196, 0, []
1628616673.2818, 92, 0, 4269.231, 4152.821, 4096.923, 4160.513, 4218.462, 450, 0, []
1628616673.2897, 93, 0, 4299.487, 4161.026, 4092.821, 4156.41, 4255.385, 450, 0, []
1628616673.2976, 94, 0, 4320, 4145.128, 4105.128, 4143.59, 4280.513, 450, 0, []
1628616673.3056, 95, 0, 4354.872, 4134.359, 4101.538, 4137.436, 4301.538, 16196, 0, []
1628616673.3135, 96, 0, 4402.564, 4146.667, 4100, 4145.128, 4331.795, 450, 0, []
1628616673.3213, 97, 0, 4428.205, 4162.564, 4106.667, 4154.359, 4359.487, 450, 0, []
1628616673.3291, 98, 0, 4417.436, 4154.872, 4097.949, 4151.795, 4364.615, 450, 0, []
1628616673.3369, 99, 0, 4400.513, 4167.179, 4106.154, 4147.692, 4349.744, 16196, 0, []
1628616673.3448, 100, 0, 4385.641, 4195.385, 4098.974, 4144.103, 4327.692, 450, 0, []
1628616673.3526, 101, 0, 4366.667, 4180, 4092.308, 4144.615, 4314.359, 450, 0, []
1628616673.3605, 102, 0, 4350.256, 4171.282, 4104.615, 4152.821, 4310.256, 450, 0, []
1628616673.3682, 103, 0, 4342.564, 4200, 4102.564, 4162.564, 4300.513, 16196, 0, []
1628616673.3761, 104, 0, 4329.231, 4203.077, 4110.769, 4164.615, 4282.051, 450, 0, []
1628616673.3839, 105, 0, 4307.179, 4194.359, 4105.128, 4158.974, 4267.692, 450, 0, []
1628616673.3919, 106, 0, 4292.821, 4195.897, 4103.077, 4164.103, 4262.051, 450, 0, []
1628616673.3998, 107, 0, 4282.051, 4180.513, 4112.821, 4168.718, 4248.205, 16196, 0, []
1628616673.4077, 108, 0, 4277.949, 4182.564, 4095.385, 4160.513, 4235.385, 450, 0, []
1628616673.4156, 109, 0, 4280, 4205.641, 4096.923, 4163.077, 4240.513, 450, 0, []
1628616673.4236, 110, 0, 4264.103, 4186.154, 4102.051, 4166.667, 4235.897, 450, 0, []
1628616673.4315, 111, 0, 4241.538, 4170.256, 4096.41, 4152.821, 4209.231, 16196, 0, []
1628616673.4395, 112, 0, 4237.436, 4193.333, 4094.872, 4143.59, 4194.872, 450, 0, []
1628616673.4473, 113, 0, 4240.513, 4173.846, 4080.513, 4155.897, 4200, 450, 0, []
1628616673.4553, 114, 0, 4233.846, 4149.744, 4095.385, 4166.667, 4195.385, 450, 0, []
1628616673.4632, 115, 0, 4221.538, 4181.026, 4097.949, 4160, 4176.923, 16196, 0, []
1628616673.4712, 116, 0, 4214.359, 4190.769, 4089.744, 4163.59, 4169.744, 450, 0, []
1628616673.4791, 117, 0, 4219.487, 4176.923, 4116.923, 4182.051, 4183.077, 450, 0, []
1628616673.4868, 118, 0, 4218.462, 4176.923, 4111.282, 4178.462, 4197.436, 450, 0, []
1628616673.4947, 119, 0, 4201.026, 4166.667, 4100.513, 4157.949, 4183.077, 16196, 0, []
1628616673.5025, 120, 0, 4194.872, 4153.333, 4105.641, 4154.872, 4154.872, 450, 0, []
1628616673.5104, 121, 0, 4203.077, 4152.308, 4096.923, 4161.026, 4147.179, 450, 0, []
1628616673.5182, 122, 0, 4196.923, 4158.974, 4097.949, 4152.308, 4144.615, 450, 0, []
1628616673.5261, 123, 0, 4194.359, 4172.308, 4098.462, 4143.59, 4148.205, 16196, 0, []
1628616673.534, 124, 0, 4213.333, 4179.487, 4116.923, 4163.077, 4173.333, 450, 0, []
1628616673.5419, 125, 0, 4215.385, 4172.821, 4125.128, 4177.949, 4181.026, 450, 0, []
1628616673.5497, 126, 0, 4203.59, 4185.641, 4108.205, 4170.769, 4174.359, 450, 0, []
1628616673.5577, 127, 0, 4216.923, 4194.359, 4122.051, 4172.308, 4189.744, 16196, 0, []
1628616673.5655, 128, 0, 4233.333, 4175.897, 4125.128, 4178.462, 4203.077, 450, 0, []
1628616673.5735, 0, 0, 4221.538, 4178.974, 4115.385, 4178.974, 4187.692, 450, 0, []
1628616673.5814, 1, 0, 4207.179, 4194.359, 4102.564, 4174.872, 4174.359, 450, 0, []
1628616673.5894, 2, 0, 4204.103, 4177.949, 4082.564, 4171.282, 4174.872, 16179, 0, []
1628616673.5973, 3, 0, 4192.308, 4137.949, 4093.333, 4168.718, 4167.179, 450, 0, []
1628616673.6053, 4, 0, 4181.538, 4120, 4087.692, 4157.436, 4158.974, 16129, 0, []
1628616673.6131, 5, 0, 4183.077, 4124.103, 4083.077, 4155.897, 4154.872, 450, 0, []
1628616673.6211, 6, 0, 4183.077, 4122.564, 4095.897, 4157.949, 4149.744, 16074, 0, []
1628616673.629, 7, 0, 4184.103, 4111.282, 4089.231, 4146.154, 4150.256, 450, 0, []
1628616673.6368, 8, 0, 4188.718, 4105.128, 4095.385, 4144.615, 4152.821, 450, 0, []
1628616673.6447, 9, 0, 4180.513, 4111.795, 4088.718, 4162.564, 4143.59, 16127, 0, []
1628616673.6524, 10, 0, 4166.154, 4115.385, 4084.103, 4168.205, 4129.231, 450, 0, []
1628616673.6603, 11, 0, 4171.282, 4118.974, 4090.769, 4156.41, 4135.385, 16192, 0, []
1628616673.6681, 12, 0, 4185.128, 4118.974, 4070.256, 4154.359, 4155.385, 450, 0, []
1628616673.676, 13, 0, 4185.128, 4117.949, 4079.487, 4157.436, 4156.923, 450, 0, []
1628616673.6838, 14, 0, 4183.59, 4125.641, 4092.821, 4152.308, 4155.385, 450, 0, []
1628616673.6916, 15, 0, 4186.667, 4140, 4085.128, 4152.821, 4164.615, 16192, 0, []
1628616673.6994, 16, 0, 4187.692, 4147.692, 4091.282, 4151.795, 4163.59, 0, 0, []
1628616673.7074, 17, 0, 4187.179, 4135.385, 4086.667, 4146.667, 4152.308, 0, 0, []
1628616673.7153, 18, 0, 4182.051, 4135.385, 4086.667, 4151.282, 4142.051, 0, 0, []
1628616673.7233, 19, 0, 4167.179, 4137.436, 4071.282, 4150.769, 4130.769, 0, 0, []
1628616673.7311, 20, 0, 4158.462, 4115.385, 4061.538, 4141.026, 4125.128, 0, 0, []
1628616673.7391, 21, 0, 4164.615, 4100.513, 4097.436, 4148.718, 4135.385, 0, 0, []
1628616673.747, 22, 0, 4171.795, 4105.641, 4109.231, 4162.564, 4152.821, 0, 0, []
1628616673.7549, 23, 0, 4171.795, 4097.949, 4106.154, 4158.462, 4159.487, 0, 0, []
1628616673.7628, 24, 0, 4166.667, 4078.974, 4092.821, 4144.615, 4148.718, 0, 0, []
1628616673.7706, 25, 0, 4165.641, 4083.59, 4074.359, 4141.538, 4137.949, 0, 0, []
1628616673.7785, 26, 0, 4177.949, 4077.436, 4091.282, 4149.744, 4145.641, 0, 0, []
1628616673.7863, 27, 0, 4189.231, 4042.051, 4087.692, 4156.923, 4157.436, 0, 0, []
1628616673.7943, 28, 0, 4183.59, 4028.718, 4076.923, 4160, 4151.282, 0, 0, []
1628616673.8022, 29, 0, 4182.564, 4030.256, 4082.051, 4155.385, 4144.103, 0, 0, []
1628616673.81, 30, 0, 4187.692, 4016.41, 4082.051, 4150.769, 4149.231, 0, 0, []
1628616673.8178, 31, 0, 4175.385, 4002.051, 4086.154, 4147.179, 4150.769, 0, 0, []
1628616673.8257, 32, 0, 4172.308, 3996.923, 4073.333, 4144.103, 4157.949, 0, 0, []
1628616673.8335, 33, 0, 4187.179, 3987.692, 4081.538, 4153.846, 4172.308, 0, 0, []
1628616673.8414, 34, 0, 4180, 3975.385, 4093.333, 4157.949, 4161.538, 0, 0, []
1628616673.8491, 35, 0, 4161.538, 3970.769, 4073.846, 4147.179, 4142.051, 0, 0, []
1628616673.8571, 36, 0, 4172.308, 3973.846, 4076.923, 4144.615, 4144.103, 0, 0, []
1628616673.865, 37, 0, 4186.667, 3973.846, 4077.436, 4149.231, 4148.205, 0, 0, []
1628616673.873, 38, 0, 4175.385, 3969.231, 4078.462, 4146.154, 4138.974, 0, 0, []
1628616673.8809, 39, 0, 4164.103, 3980, 4072.308, 4131.282, 4132.308, 0, 0, []
1628616673.8888, 40, 0, 4166.667, 3991.282, 4048.205, 4126.667, 4133.333, 0, 0, []
1628616673.8967, 41, 0, 4169.231, 3974.359, 4073.333, 4148.718, 4136.923, 0, 0, []
1628616673.9047, 42, 0, 4168.205, 3967.692, 4090.256, 4162.051, 4137.436, 0, 0, []
1628616673.9126, 43, 0, 4168.718, 3989.231, 4082.051, 4154.872, 4143.077, 0, 0, []
1628616673.9206, 44, 0, 4173.333, 4000, 4098.974, 4161.538, 4155.385, 0, 0, []
1628616673.9284, 45, 0, 4179.487, 3987.179, 4102.051, 4172.308, 4160, 0, 0, []
1628616673.9362, 46, 0, 4184.103, 3976.41, 4100, 4160, 4158.974, 0, 0, []
1628616673.9441, 47, 0, 4184.103, 3971.282, 4089.231, 4146.154, 4166.154, 0, 0, []
1628616673.9519, 48, 0, 4186.154, 3961.026, 4083.077, 4155.897, 4171.282, 0, 0, []
1628616673.9598, 49, 0, 4190.256, 3968.205, 4094.872, 4167.692, 4166.154, 0, 0, []
1628616673.9675, 50, 0, 4188.718, 4004.103, 4090.256, 4158.462, 4152.821, 0, 0, []
1628616673.9754, 51, 0, 4181.538, 4009.744, 4098.462, 4153.846, 4144.103, 0, 0, []
1628616673.9832, 52, 0, 4183.59, 3994.359, 4093.333, 4161.538, 4156.923, 0, 0, []
1628616673.9911, 53, 0, 4193.333, 4014.872, 4081.026, 4165.128, 4174.359, 0, 0, []
1628616673.9989, 54, 0, 4190.256, 4033.333, 4097.436, 4162.051, 4169.231, 0, 0, []
1628616674.0067, 55, 0, 4181.538, 4032.308, 4095.897, 4159.487, 4160.513, 0, 0, []
1628616674.0145, 56, 0, 4184.103, 4038.462, 4101.026, 4161.538, 4166.154, 0, 0, []
1628616674.0225, 57, 0, 4188.205, 4040.513, 4101.538, 4161.538, 4173.846, 0, 0, []
1628616674.0304, 58, 0, 4183.077, 4044.103, 4086.667, 4152.308, 4170.769, 0, 0, []
1628616674.0384, 59, 0, 4186.154, 4082.564, 4094.359, 4148.718, 4163.59, 0, 0, []
1628616674.0462, 60, 0, 4202.051, 4119.487, 4093.333, 4160, 4167.179, 0, 0, []
1628616674.0542, 61, 0, 4203.077, 4114.359, 4102.564, 4170.769, 4169.744, 0, 0, []
1628616674.0621, 62, 0, 4182.564, 4089.231, 4108.718, 4164.103, 4158.462, 0, 0, []
1628616674.0701, 63, 0, 4166.667, 4071.795, 4093.846, 4148.205, 4148.718, 0, 0, []
1628616674.078, 64, 0, 4171.795, 4074.359, 4100.513, 4144.615, 4152.308, 450, 0, []
1628616674.0859, 65, 0, 4182.051, 4086.667, 4090.769, 4157.436, 4163.077, 450, 0, []
1628616674.0938, 66, 0, 4183.59, 4098.974, 4083.59, 4165.641, 4168.718, 16189, 0, []
1628616674.1016, 67, 0, 4181.026, 4104.103, 4093.846, 4159.487, 4168.718, 450, 0, []
1628616674.1095, 68, 0, 4183.077, 4111.795, 4091.282, 4160, 4171.795, 16134, 0, []
1628616674.1173, 69, 0, 4185.641, 4125.128, 4102.564, 4162.051, 4169.744, 450, 0, []
1628616674.1251, 70, 0, 4188.205, 4118.462, 4096.41, 4148.718, 4157.436, 16078, 0, []
1628616674.1329, 71, 0, 4189.744, 4108.718, 4082.051, 4144.103, 4157.436, 450, 0, []
1628616674.1408, 72, 0, 4185.128, 4120.513, 4084.103, 4151.795, 4164.103, 450, 0, []
1628616674.1486, 73, 0, 4193.846, 4128.718, 4091.795, 4160.513, 4173.333, 16134, 0, []
1628616674.1565, 74, 0, 4205.128, 4121.026, 4121.026, 4166.154, 4184.103, 450, 0, []
1628616674.1642, 75, 0, 4188.718, 4123.59, 4108.205, 4147.692, 4173.333, 16221, 0, []
1628616674.1721, 76, 0, 4165.641, 4146.667, 4082.051, 4124.103, 4150.769, 450, 0, []
1628616674.1799, 77, 0, 4162.051, 4160, 4091.282, 4128.205, 4144.103, 450, 0, []
1628616674.1879, 78, 0, 4155.385, 4127.692, 4080.513, 4131.795, 4138.462, 450, 0, []
1628616674.1958, 79, 0, 4144.615, 4101.026, 4083.077, 4128.718, 4129.231, 16221, 0, []
1628616674.2037, 80, 0, 4154.359, 4126.667, 4090.769, 4134.872, 4137.949, 450, 0, []
1628616674.2116, 81, 0, 4170.769, 4131.795, 4095.897, 4149.231, 4152.308, 450, 0, []
1628616674.2196, 82, 0, 4173.846, 4113.846, 4109.744, 4151.795, 4147.179, 450, 0, []
1628616674.2275, 83, 0, 4169.744, 4135.897, 4090.769, 4137.949, 4133.333, 16221, 0, []
1628616674.2355, 84, 0, 4169.744, 4143.59, 4090.256, 4137.436, 4131.282, 450, 0, []
1628616674.2433, 85, 0, 4171.795, 4121.538, 4104.103, 4141.026, 4141.026, 450, 0, []
1628616674.2511, 86, 0, 4168.718, 4137.949, 4099.487, 4132.308, 4142.564, 450, 0, []
1628616674.259, 87, 0, 4165.641, 4165.641, 4100, 4125.641, 4136.41, 16221, 0, []
1628616674.2668, 88, 0, 4166.154, 4152.308, 4088.718, 4129.744, 4137.949, 450, 0, []
1628616674.2747, 89, 0, 4162.051, 4130.769, 4086.154, 4132.821, 4137.436, 450, 0, []
1628616674.2824, 90, 0, 4146.154, 4124.615, 4074.359, 4125.641, 4126.667, 450, 0, []
1628616674.2903, 91, 0, 4132.308, 4121.026, 4060.513, 4120.513, 4118.462, 16221, 0, []
1628616674.2981, 92, 0, 4137.436, 4114.359, 4088.718, 4124.103, 4124.103, 450, 0, []
1628616674.306, 93, 0, 4162.564, 4130.769, 4103.077, 4128.205, 4144.615, 450, 0, []
1628616674.3138, 94, 0, 4184.615, 4155.385, 4105.128, 4136.41, 4159.487, 450, 0, []
1628616674.3217, 95, 0, 4178.974, 4152.308, 4102.051, 4141.026, 4152.308, 16221, 0, []
1628616674.3294, 96, 0, 4168.718, 4135.385, 4091.795, 4138.462, 4142.051, 450, 0, []
1628616674.3374, 97, 0, 4174.359, 4127.179, 4099.487, 4141.026, 4137.436, 450, 0, []
1628616674.3453, 98, 0, 4176.923, 4117.436, 4082.051, 4139.487, 4126.667, 450, 0, []
1628616674.3533, 99, 0, 4167.179, 4124.615, 4074.872, 4128.718, 4125.128, 16221, 0, []
1628616674.3612, 100, 0, 4162.051, 4134.359, 4084.103, 4123.59, 4132.308, 450, 0, []
1628616674.3691, 101, 0, 4174.872, 4099.487, 4074.872, 4133.846, 4140, 450, 0, []
1628616674.377, 102, 0, 4184.103, 4081.026, 4088.718, 4141.026, 4151.795, 450, 0, []
1628616674.385, 103, 0, 4181.538, 4101.026, 4098.974, 4139.487, 4165.128, 16221, 0, []
1628616674.3929, 104, 0, 4194.359, 4100.513, 4109.231, 4147.179, 4182.564, 450, 0, []
1628616674.4009, 105, 0, 4223.59, 4104.615, 4116.923, 4150.256, 4196.923, 450, 0, []
1628616674.4087, 106, 0, 4239.487, 4122.051, 4090.256, 4143.59, 4202.564, 450, 0, []
1628616674.4165, 107, 0, 4247.692, 4114.872, 4088.205, 4145.641, 4208.718, 16221, 0, []
1628616674.4244, 108, 0, 4275.897, 4103.077, 4090.769, 4148.718, 4230.256, 450, 0, []
