Timestamp, COUNTER, INTERPOLATED, AF3, T7, Pz, T8, AF4, RAW_CQ, MARKER_HARDWARE, MARKERS
1628959417.7637, 110, 0, 4171.282, 4492.821, 4142.564, 4165.128, 4212.308, 450, 0, []
1628959417.7716, 111, 0, 4200, 4497.949, 4178.462, 4206.667, 4249.744, 16196, 0, []
1628959417.7796, 112, 0, 4218.462, 4490.256, 4201.026, 4216.923, 4261.026, 450, 0, []
1628959417.7874, 113, 0, 4197.436, 4473.333, 4163.077, 4188.718, 4232.821, 450, 0, []
1628959417.7954, 114, 0, 4183.077, 4472.821, 4158.462, 4182.051, 4222.564, 450, 0, []
1628959417.8033, 115, 0, 4187.692, 4460, 4152.821, 4190.256, 4225.128, 16196, 0, []
1628959417.8113, 116, 0, 4193.333, 4411.282, 4165.128, 4191.282, 4223.077, 450, 0, []
1628959417.8192, 117, 0, 4197.949, 4398.974, 4178.462, 4190.769, 4228.718, 450, 0, []
1628959417.827, 118, 0, 4188.718, 4432.821, 4167.692, 4191.282, 4223.59, 450, 0, []
1628959417.8349, 119, 0, 4176.923, 4430.256, 4178.974, 4193.333, 4208.205, 16196, 0, []
1628959417.8427, 120, 0, 4182.051, 4420.513, 4174.872, 4194.359, 4211.282, 450, 0, []
1628959417.8506, 121, 0, 4188.205, 4428.205, 4178.974, 4200.513, 4219.487, 450, 0, []
1628959417.8584, 122, 0, 4188.718, 4408.205, 4179.487, 4204.615, 4214.872, 450, 0, []
1628959417.8662, 123, 0, 4180, 4396.923, 4157.949, 4192.821, 4201.026, 16196, 0, []
1628959417.874, 124, 0, 4169.744, 4413.846, 4164.615, 4185.128, 4195.385, 450, 0, []
1628959417.8819, 125, 0, 4173.846, 4414.359, 4155.385, 4187.692, 4203.59, 450, 0, []
1628959417.8897, 126, 0, 4165.641, 4404.103, 4147.692, 4173.846, 4192.821, 450, 0, []
1628959417.8976, 127, 0, 4145.641, 4397.436, 4142.564, 4148.205, 4172.308, 16196, 0, []
1628959417.9054, 128, 0, 4176.923, 4390.769, 4151.795, 4173.846, 4205.641, 450, 0, []
1628959417.9132, 0, 0, 4229.744, 4428.205, 4209.744, 4234.872, 4262.564, 450, 0, []
1628959417.921, 1, 0, 4231.795, 4459.487, 4207.179, 4245.128, 4268.718, 450, 0, []
1628959417.929, 2, 0, 4217.436, 4415.897, 4186.154, 4219.487, 4245.641, 16192, 0, []
1628959417.9369, 3, 0, 4222.051, 4401.538, 4188.718, 4197.436, 4237.949, 450, 0, []
1628959417.9449, 4, 0, 4207.692, 4438.974, 4170.769, 4189.744, 4223.59, 16140, 0, []
1628959417.9527, 5, 0, 4180.513, 4424.615, 4181.538, 4193.846, 4193.333, 450, 0, []
1628959417.9607, 6, 0, 4171.795, 4394.872, 4168.718, 4187.692, 4172.308, 16113, 0, []
1628959417.9686, 7, 0, 4152.821, 4414.872, 4155.385, 4181.538, 4146.667, 450, 0, []
1628959417.9766, 8, 0, 4116.923, 4411.282, 4167.179, 4178.974, 4111.282, 450, 0, []
1628959417.9845, 9, 0, 4102.564, 4369.231, 4142.564, 4172.308, 4095.897, 16078, 0, []
1628959417.9922, 10, 0, 4098.974, 4365.641, 4141.538, 4172.821, 4091.282, 450, 0, []
1628959418.0001, 11, 0, 4088.718, 4409.744, 4159.487, 4168.718, 4079.487, 16207, 0, []
1628959418.0079, 12, 0, 4084.615, 4434.359, 4144.615, 4158.462, 4072.308, 450, 0, []
1628959418.0158, 13, 0, 4088.205, 4412.308, 4160.513, 4166.154, 4074.359, 450, 0, []
1628959418.0236, 14, 0, 4077.949, 4393.846, 4162.564, 4166.154, 4067.692, 450, 0, []
1628959418.0314, 15, 0, 4063.077, 4406.154, 4119.487, 4146.667, 4054.872, 16207, 0, []
1628959418.0392, 16, 0, 4090.769, 4425.641, 4136.923, 4161.026, 4080.513, 0, 0, []
1628959418.0471, 17, 0, 4142.564, 4424.103, 4182.564, 4202.564, 4132.308, 0, 0, []
1628959418.0549, 18, 0, 4138.974, 4408.205, 4181.026, 4204.615, 4133.333, 0, 0, []
1628959418.0628, 19, 0, 4098.462, 4429.231, 4152.308, 4168.718, 4093.333, 0, 0, []
1628959418.0705, 20, 0, 4100, 4462.051, 4137.949, 4156.41, 4086.667, 0, 0, []
1628959418.0785, 21, 0, 4128.205, 4453.333, 4137.949, 4173.333, 4108.205, 0, 0, []
1628959418.0864, 22, 0, 4130.769, 4448.205, 4130.256, 4184.615, 4113.846, 0, 0, []
1628959418.0944, 23, 0, 4114.872, 4452.821, 4137.436, 4188.205, 4104.103, 0, 0, []
1628959418.1023, 24, 0, 4096.923, 4430.256, 4128.205, 4180, 4086.667, 0, 0, []
1628959418.1102, 25, 0, 4078.974, 4434.359, 4116.923, 4166.154, 4070.256, 0, 0, []
1628959418.1181, 26, 0, 4092.821, 4480, 4134.872, 4175.385, 4087.179, 0, 0, []
1628959418.1261, 27, 0, 4131.282, 4483.59, 4151.282, 4197.436, 4124.103, 0, 0, []
1628959418.134, 28, 0, 4140, 4465.128, 4165.641, 4195.897, 4133.846, 0, 0, []
1628959418.142, 29, 0, 4128.718, 4490.769, 4156.923, 4181.538, 4121.538, 0, 0, []
1628959418.1498, 30, 0, 4134.359, 4511.795, 4165.641, 4187.692, 4121.026, 0, 0, []
1628959418.1576, 31, 0, 4138.462, 4486.154, 4181.026, 4186.667, 4121.538, 0, 0, []
1628959418.1655, 32, 0, 4127.692, 4474.359, 4160.513, 4167.692, 4115.385, 0, 0, []
1628959418.1733, 33, 0, 4136.41, 4500, 4169.231, 4174.872, 4128.205, 0, 0, []
1628959418.1812, 34, 0, 4149.744, 4503.077, 4164.615, 4187.692, 4143.077, 0, 0, []
1628959418.1889, 35, 0, 4124.103, 4489.744, 4146.154, 4173.846, 4117.436, 0, 0, []
1628959418.1968, 36, 0, 4091.282, 4498.974, 4144.615, 4149.231, 4085.128, 0, 0, []
1628959418.2046, 37, 0, 4108.205, 4496.41, 4136.41, 4147.692, 4098.974, 0, 0, []
1628959418.2125, 38, 0, 4140, 4465.128, 4165.641, 4173.846, 4123.59, 0, 0, []
1628959418.2203, 39, 0, 4129.744, 4450.256, 4172.821, 4178.974, 4108.205, 0, 0, []
1628959418.2282, 40, 0, 4118.974, 4481.026, 4151.282, 4173.333, 4093.333, 0, 0, []
1628959418.2361, 41, 0, 4135.897, 4525.641, 4158.974, 4182.564, 4108.205, 0, 0, []
1628959418.2441, 42, 0, 4133.333, 4518.974, 4144.103, 4177.436, 4111.282, 0, 0, []
1628959418.252, 43, 0, 4127.179, 4464.103, 4150.256, 4170.769, 4110.256, 0, 0, []
1628959418.26, 44, 0, 4145.128, 4456.923, 4165.641, 4180.513, 4126.154, 0, 0, []
1628959418.2678, 45, 0, 4149.744, 4486.667, 4159.487, 4186.154, 4131.795, 0, 0, []
1628959418.2758, 46, 0, 4132.821, 4483.077, 4163.59, 4174.872, 4121.538, 0, 0, []
1628959418.2837, 47, 0, 4120.513, 4472.308, 4146.154, 4155.897, 4110.769, 0, 0, []
1628959418.2917, 48, 0, 4126.154, 4486.667, 4152.308, 4154.359, 4113.846, 0, 0, []
1628959418.2996, 49, 0, 4136.923, 4478.462, 4164.103, 4165.641, 4125.641, 0, 0, []
1628959418.3074, 50, 0, 4130.769, 4426.154, 4141.538, 4161.026, 4118.974, 0, 0, []
1628959418.3153, 51, 0, 4136.41, 4412.821, 4152.821, 4162.051, 4120.513, 0, 0, []
1628959418.3231, 52, 0, 4167.692, 4460, 4165.641, 4188.205, 4152.308, 0, 0, []
1628959418.331, 53, 0, 4167.179, 4486.154, 4156.923, 4192.308, 4153.846, 0, 0, []
1628959418.3388, 54, 0, 4153.333, 4460, 4145.641, 4169.744, 4135.897, 0, 0, []
1628959418.3466, 55, 0, 4188.205, 4421.538, 4161.026, 4180.513, 4168.718, 0, 0, []
1628959418.3544, 56, 0, 4222.051, 4419.487, 4190.769, 4201.026, 4207.179, 0, 0, []
1628959418.3623, 57, 0, 4212.821, 4429.744, 4160, 4187.692, 4197.949, 0, 0, []
1628959418.3701, 58, 0, 4192.821, 4420.513, 4146.667, 4177.436, 4173.846, 0, 0, []
1628959418.378, 59, 0, 4184.103, 4409.744, 4168.718, 4185.641, 4165.641, 0, 0, []
1628959418.3857, 60, 0, 4191.282, 4403.59, 4163.077, 4196.41, 4176.923, 0, 0, []
1628959418.3937, 61, 0, 4202.051, 4393.846, 4174.872, 4206.154, 4188.718, 0, 0, []
1628959418.4016, 62, 0, 4191.795, 4388.718, 4163.077, 4194.872, 4174.359, 0, 0, []
1628959418.4096, 63, 0, 4180, 4398.462, 4148.205, 4184.615, 4161.538, 0, 0, []
1628959418.4175, 64, 0, 4194.359, 4404.103, 4171.795, 4191.795, 4181.538, 450, 0, []
1628959418.4254, 65, 0, 4192.308, 4383.59, 4164.103, 4180, 4181.538, 450, 0, []
1628959418.4333, 66, 0, 4177.949, 4368.718, 4160.513, 4169.231, 4165.641, 16192, 0, []
1628959418.4413, 67, 0, 4200.513, 4403.59, 4174.872, 4197.436, 4190.769, 450, 0, []
1628959418.4492, 68, 0, 4216.41, 4437.949, 4183.077, 4215.897, 4210.256, 16142, 0, []
1628959418.4572, 69, 0, 4189.231, 4379.487, 4163.59, 4187.179, 4180.513, 450, 0, []
1628959418.465, 70, 0, 4176.923, 4328.718, 4129.231, 4169.231, 4169.744, 16139, 0, []
1628959418.4728, 71, 0, 4191.795, 4379.487, 4143.59, 4186.154, 4189.231, 450, 0, []
1628959418.4807, 72, 0, 4188.718, 4417.949, 4133.846, 4184.103, 4186.154, 450, 0, []
1628959418.4885, 73, 0, 4187.179, 4394.872, 4120.513, 4180.513, 4184.103, 16078, 0, []
1628959418.4964, 74, 0, 4198.974, 4387.179, 4151.795, 4197.436, 4200.513, 450, 0, []
1628959418.5041, 75, 0, 4195.897, 4389.231, 4140.513, 4201.026, 4205.641, 16207, 0, []
1628959418.512, 76, 0, 4184.103, 4357.949, 4129.231, 4190.256, 4191.795, 450, 0, []
1628959418.5198, 77, 0, 4181.026, 4331.795, 4131.282, 4176.923, 4182.564, 450, 0, []
1628959418.5277, 78, 0, 4196.41, 4352.821, 4132.821, 4172.308, 4192.821, 450, 0, []
1628959418.5355, 79, 0, 4213.333, 4394.872, 4153.333, 4174.872, 4202.051, 16207, 0, []
1628959418.5434, 80, 0, 4217.436, 4393.333, 4142.564, 4177.949, 4200, 450, 0, []
1628959418.5513, 81, 0, 4222.051, 4378.974, 4152.308, 4194.872, 4204.615, 450, 0, []
1628959418.5593, 82, 0, 4217.436, 4393.333, 4159.487, 4200.513, 4195.897, 450, 0, []
1628959418.5672, 83, 0, 4183.59, 4382.564, 4132.308, 4186.667, 4159.487, 16207, 0, []
1628959418.5752, 84, 0, 4162.051, 4360, 4143.077, 4193.333, 4150.769, 450, 0, []
1628959418.583, 85, 0, 4181.026, 4360, 4151.795, 4205.641, 4174.359, 450, 0, []
1628959418.591, 86, 0, 4185.641, 4352.308, 4156.923, 4193.333, 4168.718, 450, 0, []
1628959418.5989, 87, 0, 4167.692, 4359.487, 4149.744, 4163.077, 4149.231, 16207, 0, []
1628959418.6069, 88, 0, 4168.718, 4409.744, 4135.897, 4142.051, 4151.795, 450, 0, []
1628959418.6148, 89, 0, 4178.974, 4408.718, 4168.205, 4143.077, 4150.256, 450, 0, []
1628959418.6227, 90, 0, 4171.282, 4350.256, 4166.154, 4150.256, 4136.41, 450, 0, []
1628959418.6306, 91, 0, 4167.179, 4358.462, 4157.436, 4172.308, 4141.026, 16207, 0, []
1628959418.6384, 92, 0, 4181.538, 4393.846, 4166.667, 4198.462, 4155.385, 450, 0, []
1628959418.6463, 93, 0, 4184.103, 4364.103, 4154.872, 4207.692, 4159.487, 450, 0, []
1628959418.6541, 94, 0, 4172.821, 4332.821, 4162.051, 4202.564, 4161.026, 450, 0, []
1628959418.662, 95, 0, 4164.103, 4379.487, 4137.436, 4170.769, 4147.692, 16207, 0, []
1628959418.6697, 96, 0, 4168.205, 4414.359, 4132.308, 4148.718, 4132.308, 450, 0, []
1628959418.6776, 97, 0, 4192.308, 4378.462, 4181.538, 4167.692, 4155.385, 450, 0, []
1628959418.6854, 98, 0, 4211.795, 4378.462, 4190.256, 4180.513, 4177.949, 450, 0, []
1628959418.6934, 99, 0, 4196.41, 4417.436, 4182.051, 4156.41, 4157.949, 16207, 0, []
1628959418.7013, 100, 0, 4180, 4397.436, 4164.103, 4140.513, 4144.615, 450, 0, []
1628959418.7092, 101, 0, 4185.128, 4357.949, 4156.41, 4160.513, 4156.923, 450, 0, []
1628959418.7171, 102, 0, 4184.103, 4403.077, 4162.051, 4178.462, 4157.949, 450, 0, []
1628959418.7251, 103, 0, 4175.385, 4446.667, 4141.538, 4180.513, 4150.769, 16207, 0, []
1628959418.733, 104, 0, 4180.513, 4397.436, 4155.897, 4192.308, 4158.462, 450, 0, []
1628959418.741, 105, 0, 4194.872, 4370.769, 4162.564, 4197.949, 4171.282, 450, 0, []
1628959418.7488, 106, 0, 4201.538, 4413.333, 4149.231, 4187.179, 4173.846, 450, 0, []
1628959418.7568, 107, 0, 4202.051, 4417.436, 4159.487, 4174.359, 4168.718, 16207, 0, []
1628959418.7647, 108, 0, 4197.436, 4361.538, 4147.692, 4166.667, 4168.205, 450, 0, []
1628959418.7725, 109, 0, 4188.205, 4344.103, 4150.256, 4165.641, 4164.103, 450, 0, []
1628959418.7804, 110, 0, 4183.59, 4369.231, 4151.282, 4153.333, 4152.821, 450, 0, []
1628959418.7881, 111, 0, 4182.564, 4373.333, 4144.615, 4136.923, 4153.333, 16207, 0, []
1628959418.796, 112, 0, 4185.641, 4347.179, 4164.615, 4135.897, 4163.59, 450, 0, []
1628959418.8038, 113, 0, 4190.769, 4321.538, 4155.897, 4146.154, 4168.205, 450, 0, []
1628959418.8117, 114, 0, 4201.026, 4341.538, 4163.59, 4172.821, 4177.949, 450, 0, []
1628959418.8195, 115, 0, 4206.667, 4370.769, 4161.026, 4186.154, 4190.769, 16207, 0, []
1628959418.8273, 116, 0, 4197.949, 4368.205, 4132.308, 4171.282, 4182.051, 450, 0, []
1628959418.8351, 117, 0, 4190.769, 4344.615, 4146.667, 4169.744, 4170.769, 450, 0, []
1628959418.843, 118, 0, 4206.667, 4313.846, 4150.769, 4182.564, 4185.128, 450, 0, []
1628959418.8508, 119, 0, 4228.718, 4307.179, 4164.615, 4191.282, 4204.615, 16207, 0, []
1628959418.8588, 120, 0, 4230.256, 4335.897, 4185.128, 4193.333, 4202.564, 450, 0, []
1628959418.8666, 121, 0, 4217.436, 4342.051, 4174.359, 4196.41, 4192.821, 450, 0, []
1628959418.8746, 122, 0, 4198.462, 4302.564, 4167.692, 4186.154, 4181.026, 450, 0, []
1628959418.8825, 123, 0, 4188.718, 4311.795, 4151.282, 4174.872, 4171.282, 16207, 0, []
1628959418.8905, 124, 0, 4204.103, 4349.231, 4170.769, 4195.385, 4182.051, 450, 0, []
1628959418.8984, 125, 0, 4206.154, 4325.641, 4175.897, 4200, 4185.128, 450, 0, []
1628959418.9063, 126, 0, 4190.769, 4293.333, 4134.359, 4171.795, 4166.154, 450, 0, []
1628959418.9142, 127, 0, 4204.615, 4305.641, 4161.538, 4172.821, 4173.333, 16207, 0, []
1628959418.9221, 128, 0, 4223.59, 4308.718, 4186.154, 4177.436, 4196.923, 450, 0, []
1628959418.93, 0, 0, 4205.128, 4275.385, 4160.513, 4146.667, 4178.974, 450, 0, []
1628959418.9378, 1, 0, 4192.821, 4255.897, 4141.026, 4128.205, 4153.333, 450, 0, []
1628959418.9456, 2, 0, 4208.205, 4263.59, 4136.923, 4153.333, 4170.256, 16192, 0, []
1628959418.9534, 3, 0, 4216.41, 4275.385, 4164.103, 4190.256, 4196.923, 450, 0, []
1628959418.9613, 4, 0, 4215.385, 4282.051, 4165.641, 4201.026, 4201.026, 16142, 0, []
1628959418.9691, 5, 0, 4223.077, 4278.462, 4157.436, 4193.846, 4198.462, 450, 0, []
1628959418.977, 6, 0, 4229.231, 4257.949, 4169.231, 4182.051, 4209.231, 16112, 0, []
1628959418.9847, 7, 0, 4226.667, 4231.795, 4160, 4176.923, 4214.872, 450, 0, []
1628959418.9926, 8, 0, 4216.41, 4217.949, 4168.205, 4174.359, 4198.974, 450, 0, []
1628959419.0004, 9, 0, 4212.821, 4228.205, 4161.538, 4161.538, 4186.154, 16072, 0, []
1628959419.0084, 10, 0, 4216.923, 4253.846, 4151.795, 4161.538, 4187.692, 450, 0, []
1628959419.0163, 11, 0, 4214.359, 4231.282, 4164.103, 4171.795, 4185.641, 16205, 0, []
1628959419.0242, 12, 0, 4219.487, 4203.077, 4155.897, 4182.564, 4196.923, 450, 0, []
1628959419.0321, 13, 0, 4224.615, 4226.154, 4157.436, 4189.231, 4203.59, 450, 0, []
1628959419.0401, 14, 0, 4195.385, 4223.077, 4124.615, 4156.923, 4168.205, 450, 0, []
1628959419.048, 15, 0, 4185.128, 4186.154, 4114.872, 4144.103, 4158.462, 16205, 0, []
1628959419.056, 16, 0, 4235.385, 4197.949, 4186.667, 4194.872, 4206.154, 0, 0, []
1628959419.0638, 17, 0, 4263.59, 4232.821, 4189.744, 4209.744, 4221.026, 0, 0, []
1628959419.0718, 18, 0, 4229.231, 4226.154, 4156.41, 4168.205, 4182.564, 0, 0, []
1628959419.0797, 19, 0, 4209.231, 4212.308, 4150.256, 4152.308, 4170.256, 0, 0, []
1628959419.0877, 20, 0, 4222.051, 4223.077, 4150.256, 4167.179, 4183.59, 0, 0, []
1628959419.0956, 21, 0, 4232.821, 4229.744, 4177.949, 4185.128, 4195.385, 0, 0, []
1628959419.1033, 22, 0, 4243.59, 4205.641, 4177.949, 4198.974, 4215.897, 0, 0, []
1628959419.1112, 23, 0, 4241.538, 4186.154, 4163.59, 4195.897, 4220, 0, 0, []
1628959419.119, 24, 0, 4228.205, 4215.385, 4150.769, 4171.282, 4196.41, 0, 0, []
1628959419.1269, 25, 0, 4226.667, 4221.538, 4141.026, 4161.026, 4186.154, 0, 0, []
1628959419.1347, 26, 0, 4236.923, 4197.949, 4163.077, 4172.821, 4202.564, 0, 0, []
1628959419.1425, 27, 0, 4241.538, 4201.538, 4148.205, 4169.231, 4204.103, 0, 0, []
1628959419.1503, 28, 0, 4233.846, 4184.615, 4141.538, 4161.538, 4187.692, 0, 0, []
1628959419.1583, 29, 0, 4228.718, 4169.744, 4158.462, 4168.205, 4187.692, 0, 0, []
1628959419.1662, 30, 0, 4239.487, 4214.872, 4149.744, 4177.949, 4201.538, 0, 0, []
1628959419.1741, 31, 0, 4256.923, 4238.974, 4173.846, 4188.718, 4212.308, 0, 0, []
1628959419.1818, 32, 0, 4263.077, 4202.051, 4183.59, 4196.923, 4222.564, 0, 0, []
1628959419.1898, 33, 0, 4252.308, 4185.128, 4171.282, 4196.923, 4217.436, 0, 0, []
1628959419.1977, 34, 0, 4237.436, 4208.718, 4163.077, 4185.641, 4201.538, 0, 0, []
1628959419.2057, 35, 0, 4244.103, 4205.128, 4153.846, 4189.231, 4210.256, 0, 0, []
1628959419.2136, 36, 0, 4255.897, 4177.436, 4177.436, 4204.615, 4222.051, 0, 0, []
1628959419.2215, 37, 0, 4239.487, 4184.103, 4157.949, 4184.103, 4202.051, 0, 0, []
1628959419.2294, 38, 0, 4224.103, 4193.846, 4143.59, 4166.667, 4191.795, 0, 0, []
1628959419.2374, 39, 0, 4237.949, 4186.667, 4176.41, 4182.051, 4205.128, 0, 0, []
1628959419.2453, 40, 0, 4235.385, 4197.436, 4160.513, 4173.846, 4197.436, 0, 0, []
1628959419.2533, 41, 0, 4212.308, 4210.769, 4144.103, 4150.769, 4175.385, 0, 0, []
1628959419.2611, 42, 0, 4223.077, 4212.308, 4149.744, 4160.513, 4184.103, 0, 0, []
1628959419.2689, 43, 0, 4251.795, 4228.718, 4165.128, 4193.333, 4212.821, 0, 0, []
1628959419.2768, 44, 0, 4252.308, 4233.846, 4177.949, 4201.026, 4220, 0, 0, []
1628959419.2846, 45, 0, 4230.256, 4205.128, 4144.103, 4173.846, 4194.359, 0, 0, []
1628959419.2925, 46, 0, 4226.667, 4219.487, 4146.667, 4169.231, 4183.59, 0, 0, []
1628959419.3002, 47, 0, 4254.872, 4248.205, 4166.667, 4196.41, 4216.923, 0, 0, []
1628959419.3081, 48, 0, 4276.923, 4250.256, 4167.179, 4216.923, 4245.128, 0, 0, []
1628959419.3159, 49, 0, 4261.538, 4263.077, 4172.821, 4205.641, 4227.692, 0, 0, []
1628959419.3239, 50, 0, 4236.41, 4269.231, 4149.744, 4184.615, 4203.59, 0, 0, []
1628959419.3318, 51, 0, 4228.718, 4269.231, 4152.821, 4178.462, 4200, 0, 0, []
1628959419.3397, 52, 0, 4217.949, 4271.795, 4151.795, 4171.282, 4192.821, 0, 0, []
1628959419.3476, 53, 0, 4206.154, 4250.769, 4126.667, 4163.077, 4180, 0, 0, []
1628959419.3556, 54, 0, 4210.769, 4222.564, 4147.179, 4165.641, 4176.923, 0, 0, []
1628959419.3635, 55, 0, 4221.538, 4234.359, 4156.923, 4170.769, 4186.667, 0, 0, []
1628959419.3715, 56, 0, 4213.846, 4240.513, 4152.308, 4175.385, 4186.667, 0, 0, []
1628959419.3793, 57, 0, 4204.615, 4224.615, 4137.436, 4170.769, 4179.487, 0, 0, []
1628959419.3873, 58, 0, 4222.051, 4228.718, 4138.462, 4181.026, 4197.949, 0, 0, []
1628959419.3952, 59, 0, 4236.923, 4229.231, 4178.974, 4202.564, 4219.487, 0, 0, []
1628959419.4031, 60, 0, 4225.641, 4199.487, 4161.026, 4192.821, 4207.179, 0, 0, []
1628959419.411, 61, 0, 4210.256, 4163.59, 4134.359, 4170.256, 4182.051, 0, 0, []
1628959419.4188, 62, 0, 4208.205, 4159.487, 4148.718, 4167.692, 4180, 0, 0, []
1628959419.4267, 63, 0, 4220, 4175.897, 4158.974, 4186.667, 4196.923, 0, 0, []
1628959419.4346, 64, 0, 4228.205, 4194.359, 4172.308, 4195.385, 4203.59, 450, 0, []
1628959419.4425, 65, 0, 4226.154, 4201.538, 4151.795, 4180.513, 4198.462, 450, 0, []
1628959419.4503, 66, 0, 4235.897, 4189.231, 4158.974, 4191.795, 4207.179, 16192, 0, []
1628959419.4583, 67, 0, 4253.333, 4203.59, 4185.641, 4220, 4226.667, 450, 0, []
1628959419.4661, 68, 0, 4243.077, 4233.333, 4153.846, 4207.692, 4221.538, 16142, 0, []
1628959419.474, 69, 0, 4222.051, 4217.436, 4146.667, 4184.103, 4200.513, 450, 0, []
1628959419.482, 70, 0, 4217.436, 4198.974, 4143.077, 4177.436, 4192.821, 16108, 0, []
1628959419.4899, 71, 0, 4212.308, 4233.846, 4132.821, 4172.821, 4187.692, 450, 0, []
1628959419.4979, 72, 0, 4199.487, 4231.282, 4143.077, 4162.564, 4171.282, 450, 0, []
1628959419.5057, 73, 0, 4195.897, 4193.846, 4131.282, 4154.872, 4166.154, 16074, 0, []
1628959419.5137, 74, 0, 4205.641, 4226.667, 4144.615, 4166.667, 4182.564, 450, 0, []
1628959419.5216, 75, 0, 4218.462, 4254.872, 4156.41, 4179.487, 4193.846, 16204, 0, []
1628959419.5296, 76, 0, 4216.41, 4228.718, 4153.846, 4176.41, 4183.077, 450, 0, []
1628959419.5375, 77, 0, 4198.974, 4241.026, 4152.308, 4164.615, 4172.308, 450, 0, []
1628959419.5454, 78, 0, 4178.462, 4249.744, 4112.308, 4148.718, 4162.564, 450, 0, []
1628959419.5533, 79, 0, 4190.769, 4229.231, 4129.744, 4158.974, 4167.692, 16204, 0, []
1628959419.5613, 80, 0, 4235.385, 4265.128, 4181.538, 4193.333, 4204.103, 450, 0, []
1628959419.5692, 81, 0, 4250.256, 4295.385, 4182.564, 4205.641, 4224.615, 450, 0, []
1628959419.5772, 82, 0, 4219.487, 4245.128, 4161.538, 4183.59, 4201.026, 450, 0, []
1628959419.585, 83, 0, 4196.923, 4235.385, 4131.282, 4166.667, 4177.436, 16204, 0, []
1628959419.593, 84, 0, 4204.103, 4273.846, 4146.154, 4174.872, 4181.538, 450, 0, []
1628959419.6009, 85, 0, 4220, 4273.846, 4159.487, 4177.436, 4197.949, 450, 0, []
1628959419.6089, 86, 0, 4228.718, 4268.205, 4145.641, 4169.744, 4202.564, 450, 0, []
1628959419.6169, 87, 0, 4215.897, 4260, 4163.077, 4166.667, 4190.256, 16204, 0, []
1628959419.6247, 88, 0, 4197.949, 4233.333, 4151.282, 4166.154, 4181.026, 450, 0, []
1628959419.6327, 89, 0, 4199.487, 4243.077, 4137.949, 4173.846, 4181.538, 450, 0, []
1628959419.6406, 90, 0, 4199.487, 4273.333, 4130.256, 4175.385, 4169.744, 450, 0, []
1628959419.6485, 91, 0, 4186.667, 4253.333, 4111.795, 4168.718, 4151.282, 16204, 0, []
1628959419.6564, 92, 0, 4190.256, 4231.282, 4136.923, 4172.821, 4159.487, 450, 0, []
1628959419.6642, 93, 0, 4212.821, 4249.231, 4152.308, 4182.564, 4189.231, 450, 0, []
1628959419.6721, 94, 0, 4223.59, 4257.949, 4168.718, 4189.231, 4206.154, 450, 0, []
1628959419.6801, 95, 0, 4221.538, 4260, 4181.026, 4175.897, 4201.026, 16204, 0, []
1628959419.6881, 96, 0, 4210.256, 4283.59, 4155.385, 4149.231, 4183.077, 450, 0, []
1628959419.696, 97, 0, 4194.359, 4284.103, 4151.282, 4147.179, 4170.769, 450, 0, []
1628959419.7038, 98, 0, 4198.462, 4250.769, 4140, 4162.564, 4174.872, 450, 0, []
1628959419.7118, 99, 0, 4200.513, 4236.923, 4134.872, 4169.231, 4175.385, 16204, 0, []
1628959419.7197, 100, 0, 4184.615, 4228.205, 4146.154, 4164.103, 4162.051, 450, 0, []
1628959419.7277, 101, 0, 4191.795, 4224.103, 4147.179, 4175.385, 4172.308, 450, 0, []
1628959419.7356, 102, 0, 4223.59, 4233.846, 4178.974, 4199.487, 4202.564, 450, 0, []
1628959419.7435, 103, 0, 4225.641, 4224.103, 4170.769, 4189.744, 4205.128, 16204, 0, []
1628959419.7514, 104, 0, 4205.641, 4195.385, 4149.744, 4166.154, 4193.333, 450, 0, []
1628959419.7594, 105, 0, 4213.333, 4182.564, 4173.846, 4168.718, 4200.513, 450, 0, []
1628959419.7673, 106, 0, 4230.769, 4189.744, 4173.846, 4176.923, 4208.205, 450, 0, []
1628959419.7753, 107, 0, 4227.179, 4203.077, 4167.179, 4172.308, 4199.487, 16204, 0, []
1628959419.7832, 108, 0, 4219.487, 4241.538, 4144.103, 4160.513, 4190.256, 450, 0, []
1628959419.7911, 109, 0, 4230.256, 4267.692, 4150.256, 4170.769, 4196.41, 450, 0, []
1628959419.7991, 110, 0, 4239.487, 4235.385, 4189.231, 4183.59, 4208.205, 450, 0, []
1628959419.807, 111, 0, 4222.564, 4208.718, 4162.051, 4160.513, 4200.513, 16204, 0, []
1628959419.815, 112, 0, 4213.846, 4230.769, 4157.436, 4154.359, 4193.333, 450, 0, []
1628959419.8228, 113, 0, 4230.769, 4225.128, 4182.564, 4182.051, 4213.333, 450, 0, []
1628959419.8308, 114, 0, 4240, 4198.974, 4186.154, 4196.41, 4222.051, 450, 0, []
1628959419.8387, 115, 0, 4230.256, 4222.051, 4189.744, 4185.641, 4206.154, 16204, 0, []
1628959419.8467, 116, 0, 4224.103, 4224.615, 4165.128, 4174.359, 4198.974, 450, 0, []
1628959419.8546, 117, 0, 4208.205, 4179.487, 4155.385, 4167.179, 4188.718, 450, 0, []
1628959419.8625, 118, 0, 4182.051, 4183.59, 4143.077, 4151.282, 4158.974, 450, 0, []
1628959419.8704, 119, 0, 4192.308, 4227.692, 4128.205, 4156.41, 4163.077, 16204, 0, []
1628959419.8784, 120, 0, 4218.462, 4217.436, 4153.333, 4179.487, 4195.897, 450, 0, []
1628959419.8863, 121, 0, 4213.846, 4181.538, 4154.359, 4178.462, 4196.41, 450, 0, []
1628959419.8943, 122, 0, 4206.667, 4193.333, 4167.179, 4178.974, 4193.333, 450, 0, []
1628959419.9021, 123, 0, 4236.923, 4202.564, 4180.513, 4198.462, 4236.923, 16204, 0, []
1628959419.9101, 124, 0, 4278.974, 4160.513, 4166.154, 4202.564, 4294.872, 450, 0, []
1628959419.918, 125, 0, 4316.923, 4145.641, 4183.59, 4186.154, 4342.564, 450, 0, []
1628959419.926, 126, 0, 4370.769, 4172.308, 4182.564, 4183.077, 4406.154, 450, 0, []
1628959419.934, 127, 0, 4422.051, 4175.385, 4182.564, 4195.897, 4465.128, 16204, 0, []
1628959419.9418, 128, 0, 4443.59, 4173.846, 4193.846, 4196.41, 4490.256, 450, 0, []
1628959419.9497, 0, 0, 4459.487, 4211.282, 4196.41, 4213.846, 4514.872, 450, 0, []
1628959419.9577, 1, 0, 4474.872, 4239.487, 4220, 4248.718, 4541.026, 450, 0, []
1628959419.9657, 2, 0, 4458.974, 4217.436, 4198.462, 4225.641, 4520.513, 16192, 0, []
1628959419.9736, 3, 0, 4424.615, 4202.051, 4180.513, 4177.949, 4470.769, 450, 0, []
1628959419.9815, 4, 0, 4401.026, 4216.923, 4195.385, 4177.436, 4444.103, 16142, 0, []
1628959419.9894, 5, 0, 4383.59, 4221.026, 4188.718, 4193.846, 4425.641, 450, 0, []
1628959419.9974, 6, 0, 4360, 4205.128, 4194.359, 4188.718, 4391.795, 16101, 0, []
1628959420.0053, 7, 0, 4341.538, 4210.256, 4179.487, 4178.974, 4368.205, 450, 0, []
1628959420.0133, 8, 0, 4335.385, 4244.615, 4175.385, 4186.154, 4359.487, 450, 0, []
1628959420.0211, 9, 0, 4330.256, 4267.179, 4190.769, 4187.692, 4348.205, 16071, 0, []
1628959420.0291, 10, 0, 4318.974, 4262.051, 4188.205, 4186.154, 4340.513, 450, 0, []
1628959420.037, 11, 0, 4315.385, 4254.359, 4199.487, 4190.769, 4342.051, 16200, 0, []
1628959420.045, 12, 0, 4314.359, 4269.231, 4180.513, 4189.231, 4339.487, 450, 0, []
1628959420.0529, 13, 0, 4303.59, 4279.487, 4194.872, 4202.051, 4326.667, 450, 0, []
1628959420.0608, 14, 0, 4293.846, 4270.256, 4185.128, 4201.026, 4316.923, 450, 0, []
1628959420.0687, 15, 0, 4285.641, 4271.282, 4138.462, 4181.026, 4309.744, 16200, 0, []
1628959420.0767, 16, 0, 4278.974, 4296.41, 4202.051, 4183.59, 4302.051, 0, 0, []
1628959420.0846, 17, 0, 4281.538, 4296.923, 4195.897, 4185.641, 4297.436, 0, 0, []
1628959420.0926, 18, 0, 4279.487, 4269.744, 4159.487, 4190.769, 4293.333, 0, 0, []
1628959420.1005, 19, 0, 4273.846, 4273.333, 4193.846, 4195.385, 4290.769, 0, 0, []
1628959420.1084, 20, 0, 4284.615, 4305.641, 4187.179, 4192.821, 4295.385, 0, 0, []
1628959420.1164, 21, 0, 4289.231, 4312.821, 4198.974, 4193.846, 4290.769, 0, 0, []
1628959420.1243, 22, 0, 4263.077, 4291.795, 4186.667, 4176.923, 4265.641, 0, 0, []
1628959420.1323, 23, 0, 4250.769, 4316.41, 4170.256, 4171.282, 4253.333, 0, 0, []
1628959420.1401, 24, 0, 4266.154, 4336.41, 4202.051, 4188.205, 4268.205, 0, 0, []
1628959420.1481, 25, 0, 4261.026, 4307.692, 4202.051, 4190.256, 4268.205, 0, 0, []
1628959420.156, 26, 0, 4236.41, 4304.103, 4192.821, 4177.436, 4247.179, 0, 0, []
1628959420.164, 27, 0, 4232.308, 4326.154, 4179.487, 4166.154, 4247.692, 0, 0, []
1628959420.1719, 28, 0, 4252.308, 4315.385, 4175.897, 4173.333, 4274.359, 0, 0, []
1628959420.1798, 29, 0, 4265.128, 4310.769, 4190.256, 4194.872, 4284.103, 0, 0, []
1628959420.1877, 30, 0, 4253.846, 4332.821, 4172.308, 4189.744, 4264.103, 0, 0, []
1628959420.1957, 31, 0, 4227.179, 4288.205, 4161.538, 4165.128, 4242.051, 0, 0, []
1628959420.2036, 32, 0, 4217.949, 4241.538, 4167.692, 4169.744, 4239.487, 0, 0, []
1628959420.2116, 33, 0, 4231.282, 4290.769, 4173.846, 4191.795, 4249.231, 0, 0, []
1628959420.2194, 34, 0, 4239.487, 4333.333, 4192.308, 4195.897, 4249.744, 0, 0, []
1628959420.2274, 35, 0, 4230.769, 4311.795, 4172.821, 4178.462, 4234.872, 0, 0, []
1628959420.2353, 36, 0, 4220, 4297.949, 4165.641, 4166.667, 4223.077, 0, 0, []
1628959420.2431, 37, 0, 4228.718, 4319.487, 4195.897, 4180.513, 4237.949, 0, 0, []
1628959420.251, 38, 0, 4236.41, 4322.564, 4199.487, 4195.897, 4250.256, 0, 0, []
1628959420.2587, 39, 0, 4224.615, 4297.436, 4194.359, 4190.769, 4236.923, 0, 0, []
1628959420.2667, 40, 0, 4216.923, 4294.872, 4181.538, 4185.128, 4231.282, 0, 0, []
1628959420.2746, 41, 0, 4219.487, 4298.974, 4171.282, 4187.179, 4231.282, 0, 0, []
1628959420.2826, 42, 0, 4213.846, 4271.282, 4164.103, 4169.231, 4213.846, 0, 0, []
1628959420.2905, 43, 0, 4214.359, 4277.949, 4166.667, 4162.051, 4213.846, 0, 0, []
1628959420.2984, 44, 0, 4216.41, 4299.487, 4182.564, 4179.487, 4231.795, 0, 0, []
1628959420.3063, 45, 0, 4191.282, 4274.872, 4149.744, 4167.179, 4212.821, 0, 0, []
1628959420.3143, 46, 0, 4181.538, 4267.692, 4137.949, 4156.923, 4191.282, 0, 0, []
1628959420.3222, 47, 0, 4214.359, 4305.641, 4178.974, 4187.692, 4217.949, 0, 0, []
1628959420.3302, 48, 0, 4246.667, 4311.282, 4195.385, 4210.256, 4254.359, 0, 0, []
1628959420.338, 49, 0, 4231.282, 4278.974, 4191.282, 4191.795, 4241.538, 0, 0, []
1628959420.346, 50, 0, 4193.333, 4273.846, 4168.205, 4165.641, 4200, 0, 0, []
1628959420.3539, 51, 0, 4200, 4287.692, 4166.154, 4170.769, 4204.615, 0, 0, []
1628959420.3619, 52, 0, 4238.462, 4294.359, 4183.59, 4183.59, 4241.026, 0, 0, []
1628959420.3698, 53, 0, 4240, 4301.026, 4164.615, 4177.949, 4238.462, 0, 0, []
1628959420.3778, 54, 0, 4215.897, 4319.487, 4162.564, 4165.128, 4216.41, 0, 0, []
1628959420.3856, 55, 0, 4209.744, 4317.436, 4167.692, 4155.897, 4215.385, 0, 0, []
1628959420.3934, 56, 0, 4205.641, 4266.667, 4158.974, 4153.333, 4208.205, 0, 0, []
1628959420.4013, 57, 0, 4200, 4247.179, 4167.179, 4157.949, 4198.462, 0, 0, []
1628959420.4091, 58, 0, 4196.41, 4281.026, 4161.538, 4155.897, 4196.41, 0, 0, []
1628959420.417, 59, 0, 4185.128, 4293.333, 4154.359, 4152.821, 4187.179, 0, 0, []
1628959420.4247, 60, 0, 4181.538, 4275.897, 4151.282, 4158.974, 4181.538, 0, 0, []
1628959420.4327, 61, 0, 4184.103, 4274.359, 4154.872, 4160.513, 4183.59, 0, 0, []
1628959420.4406, 62, 0, 4193.846, 4297.949, 4182.051, 4164.615, 4197.436, 0, 0, []
1628959420.4486, 63, 0, 4204.103, 4295.897, 4175.897, 4172.308, 4213.333, 0, 0, []
1628959420.4565, 64, 0, 4191.795, 4277.436, 4163.077, 4171.282, 4198.974, 450, 0, []
1628959420.4644, 65, 0, 4176.41, 4300.513, 4164.103, 4162.564, 4170.256, 450, 0, []
1628959420.4723, 66, 0, 4189.744, 4301.538, 4156.923, 4147.692, 4168.205, 16192, 0, []
1628959420.4803, 67, 0, 4202.564, 4255.897, 4147.179, 4134.872, 4177.436, 450, 0, []
1628959420.4882, 68, 0, 4206.667, 4267.179, 4141.538, 4147.179, 4184.103, 16144, 0, []
1628959420.4962, 69, 0, 4214.359, 4298.974, 4171.795, 4179.487, 4199.487, 450, 0, []
1628959420.504, 70, 0, 4209.231, 4287.179, 4175.385, 4185.641, 4203.077, 16106, 0, []
1628959420.512, 71, 0, 4195.897, 4291.795, 4141.026, 4175.897, 4188.718, 450, 0, []
1628959420.5199, 72, 0, 4190.769, 4300.513, 4145.641, 4169.744, 4176.923, 450, 0, []
1628959420.5279, 73, 0, 4183.59, 4277.436, 4136.923, 4145.641, 4162.564, 16071, 0, []
1628959420.5359, 74, 0, 4172.308, 4281.026, 4129.744, 4127.179, 4151.282, 450, 0, []
1628959420.5437, 75, 0, 4174.872, 4320.513, 4157.949, 4140, 4161.538, 16200, 0, []
1628959420.5516, 76, 0, 4182.564, 4311.282, 4169.744, 4155.897, 4172.308, 450, 0, []
1628959420.5595, 77, 0, 4182.051, 4291.795, 4172.308, 4163.59, 4168.718, 450, 0, []
1628959420.5675, 78, 0, 4185.641, 4328.718, 4181.026, 4180.513, 4178.974, 450, 0, []
1628959420.5755, 79, 0, 4192.308, 4330.256, 4194.872, 4191.795, 4191.282, 16200, 0, []
1628959420.5833, 80, 0, 4181.026, 4276.41, 4181.538, 4168.718, 4173.333, 450, 0, []
1628959420.5913, 81, 0, 4173.846, 4299.487, 4152.308, 4151.282, 4161.538, 450, 0, []
1628959420.5992, 82, 0, 4188.718, 4372.821, 4171.282, 4166.154, 4177.949, 450, 0, []
1628959420.6072, 83, 0, 4194.359, 4341.026, 4173.333, 4172.821, 4188.205, 16200, 0, []
1628959420.6151, 84, 0, 4184.103, 4290.769, 4156.41, 4165.128, 4183.59, 450, 0, []
1628959420.623, 85, 0, 4181.538, 4342.051, 4168.205, 4167.692, 4182.051, 450, 0, []
1628959420.6309, 86, 0, 4192.308, 4386.154, 4166.667, 4172.821, 4186.667, 450, 0, []
1628959420.6389, 87, 0, 4201.538, 4350.256, 4161.538, 4169.231, 4190.769, 16200, 0, []
1628959420.6468, 88, 0, 4202.051, 4315.897, 4151.795, 4156.41, 4191.795, 450, 0, []
1628959420.6547, 89, 0, 4194.872, 4329.231, 4151.795, 4154.359, 4189.231, 450, 0, []
1628959420.6625, 90, 0, 4178.974, 4324.103, 4154.359, 4149.744, 4176.923, 450, 0, []
1628959420.6704, 91, 0, 4162.051, 4294.872, 4128.205, 4126.667, 4161.538, 16200, 0, []
1628959420.6783, 92, 0, 4177.436, 4325.128, 4148.205, 4138.974, 4170.769, 450, 0, []
1628959420.6863, 93, 0, 4208.718, 4349.231, 4176.41, 4172.821, 4193.333, 450, 0, []
1628959420.6942, 94, 0, 4202.564, 4306.667, 4160, 4167.692, 4191.795, 450, 0, []
1628959420.7021, 95, 0, 4182.564, 4294.872, 4155.385, 4150.769, 4180, 16200, 0, []
1628959420.7101, 96, 0, 4185.128, 4311.795, 4155.897, 4158.462, 4184.615, 450, 0, []
1628959420.718, 97, 0, 4190.769, 4301.538, 4166.667, 4165.641, 4187.179, 450, 0, []
1628959420.726, 98, 0, 4188.718, 4285.641, 4169.231, 4158.974, 4185.128, 450, 0, []
1628959420.7339, 99, 0, 4189.231, 4277.949, 4161.026, 4160, 4186.667, 16200, 0, []
1628959420.7418, 100, 0, 4184.103, 4262.051, 4170.256, 4157.436, 4177.436, 450, 0, []
1628959420.7497, 101, 0, 4183.59, 4250.769, 4165.128, 4158.974, 4172.308, 450, 0, []
1628959420.7577, 102, 0, 4194.872, 4275.897, 4172.308, 4178.974, 4189.744, 450, 0, []
1628959420.7656, 103, 0, 4190.769, 4295.897, 4180, 4175.385, 4188.205, 16200, 0, []
1628959420.7736, 104, 0, 4168.718, 4256.923, 4158.974, 4147.179, 4154.359, 450, 0, []
1628959420.7814, 105, 0, 4166.667, 4234.872, 4166.154, 4149.231, 4148.205, 450, 0, []
1628959420.7894, 106, 0, 4186.667, 4301.026, 4176.41, 4169.231, 4178.462, 450, 0, []
1628959420.7973, 107, 0, 4187.179, 4321.026, 4167.692, 4170.769, 4187.179, 16200, 0, []
1628959420.8053, 108, 0, 4173.333, 4263.59, 4159.487, 4167.179, 4173.333, 450, 0, []
1628959420.8132, 109, 0, 4180, 4265.128, 4157.436, 4172.821, 4170.256, 450, 0, []
1628959420.8211, 110, 0, 4182.564, 4275.385, 4168.718, 4168.205, 4172.308, 450, 0, []
1628959420.829, 111, 0, 4170.769, 4262.564, 4160, 4156.923, 4168.718, 16200, 0, []
1628959420.837, 112, 0, 4172.308, 4300, 4167.179, 4162.564, 4169.231, 450, 0, []
1628959420.8449, 113, 0, 4183.077, 4311.282, 4188.718, 4171.282, 4174.872, 450, 0, []
1628959420.8529, 114, 0, 4196.41, 4276.923, 4179.487, 4174.359, 4190.769, 450, 0, []
1628959420.8607, 115, 0, 4206.154, 4306.667, 4183.077, 4174.872, 4207.179, 16200, 0, []
1628959420.8687, 116, 0, 4184.615, 4332.821, 4177.949, 4161.538, 4185.641, 450, 0, []
1628959420.8767, 117, 0, 4162.564, 4292.308, 4158.974, 4156.923, 4160.513, 450, 0, []
1628959420.8846, 118, 0, 4195.385, 4291.795, 4167.692, 4173.846, 4185.128, 450, 0, []
1628959420.8926, 119, 0, 4228.718, 4314.359, 4174.872, 4183.077, 4212.308, 16200, 0, []
1628959420.9004, 120, 0, 4214.872, 4287.692, 4178.974, 4178.462, 4203.59, 450, 0, []
1628959420.9084, 121, 0, 4207.179, 4278.974, 4165.641, 4173.333, 4197.436, 450, 0, []
1628959420.9163, 122, 0, 4214.872, 4305.128, 4156.41, 4170.769, 4205.128, 450, 0, []
1628959420.9243, 123, 0, 4208.205, 4321.538, 4169.744, 4173.846, 4203.077, 16200, 0, []
1628959420.9322, 124, 0, 4203.59, 4311.282, 4155.385, 4174.872, 4193.846, 450, 0, []
1628959420.9401, 125, 0, 4196.923, 4281.538, 4145.128, 4158.462, 4177.949, 450, 0, []
1628959420.948, 126, 0, 4183.077, 4274.359, 4156.41, 4146.667, 4168.205, 450, 0, []
1628959420.956, 127, 0, 4192.308, 4294.359, 4174.359, 4158.974, 4183.59, 16200, 0, []
1628959420.9639, 128, 0, 4202.564, 4293.846, 4181.026, 4161.026, 4188.205, 450, 0, []
1628959420.9719, 0, 0, 4195.897, 4300.513, 4168.205, 4151.795, 4182.051, 450, 0, []
1628959420.9797, 1, 0, 4196.923, 4333.846, 4188.718, 4168.718, 4190.769, 450, 0, []
1628959420.9877, 2, 0, 4198.462, 4321.026, 4190.769, 4178.462, 4187.692, 16192, 0, []
1628959420.9957, 3, 0, 4188.205, 4272.308, 4162.051, 4165.128, 4170.256, 450, 0, []
1628959421.0036, 4, 0, 4185.128, 4269.231, 4171.795, 4160.513, 4171.282, 16147, 0, []
1628959421.0115, 5, 0, 4185.128, 4298.462, 4170.256, 4159.487, 4178.462, 450, 0, []
1628959421.0194, 6, 0, 4189.231, 4295.385, 4169.231, 4168.718, 4177.436, 16102, 0, []
1628959421.0273, 7, 0, 4204.103, 4279.487, 4183.077, 4181.538, 4187.179, 450, 0, []
1628959421.0353, 8, 0, 4201.026, 4289.744, 4163.59, 4172.308, 4186.667, 450, 0, []
1628959421.0432, 9, 0, 4185.128, 4298.974, 4158.974, 4164.103, 4172.308, 16070, 0, []
1628959421.0512, 10, 0, 4191.795, 4319.487, 4174.872, 4176.923, 4184.103, 450, 0, []
1628959421.059, 11, 0, 4206.154, 4351.795, 4183.59, 4183.59, 4203.59, 16200, 0, []
1628959421.067, 12, 0, 4198.462, 4326.667, 4166.154, 4167.692, 4193.333, 450, 0, []
1628959421.0749, 13, 0, 4181.538, 4280, 4141.026, 4150.256, 4171.282, 450, 0, []
1628959421.0829, 14, 0, 4180.513, 4311.795, 4161.026, 4154.872, 4171.795, 450, 0, []
1628959421.0908, 15, 0, 4189.231, 4361.538, 4168.718, 4166.154, 4185.128, 16200, 0, []
1628959421.0987, 16, 0, 4188.205, 4354.359, 4161.538, 4169.744, 4181.538, 0, 0, []
1628959421.1066, 17, 0, 4185.641, 4334.359, 4171.795, 4170.256, 4167.692, 0, 0, []
1628959421.1146, 18, 0, 4184.615, 4318.462, 4163.59, 4171.282, 4157.436, 0, 0, []
1628959421.1225, 19, 0, 4172.308, 4292.821, 4154.872, 4165.128, 4152.308, 0, 0, []
1628959421.1305, 20, 0, 4169.744, 4297.949, 4150.256, 4154.359, 4153.333, 0, 0, []
1628959421.1383, 21, 0, 4183.077, 4328.718, 4164.103, 4153.846, 4157.949, 0, 0, []
1628959421.1463, 22, 0, 4180, 4315.385, 4176.41, 4158.974, 4153.846, 0, 0, []
1628959421.1542, 23, 0, 4169.744, 4297.949, 4150.256, 4157.949, 4154.359, 0, 0, []
1628959421.1622, 24, 0, 4176.923, 4309.231, 4146.667, 4164.103, 4164.103, 0, 0, []
1628959421.1701, 25, 0, 4193.333, 4303.59, 4161.026, 4180, 4171.282, 0, 0, []
1628959421.178, 26, 0, 4201.538, 4299.487, 4175.385, 4191.795, 4173.846, 0, 0, []
1628959421.186, 27, 0, 4194.359, 4305.641, 4192.308, 4182.051, 4166.667, 0, 0, []
1628959421.1939, 28, 0, 4181.538, 4275.897, 4175.897, 4164.103, 4160, 0, 0, []
1628959421.2019, 29, 0, 4192.308, 4266.667, 4176.923, 4170.256, 4173.846, 0, 0, []
1628959421.2098, 30, 0, 4198.462, 4303.077, 4183.077, 4173.333, 4174.872, 0, 0, []
1628959421.2178, 31, 0, 4165.128, 4296.923, 4160.513, 4155.385, 4138.974, 0, 0, []
1628959421.2256, 32, 0, 4145.641, 4275.385, 4148.718, 4154.872, 4126.667, 0, 0, []
1628959421.2336, 33, 0, 4155.385, 4291.795, 4137.436, 4167.692, 4145.128, 0, 0, []
1628959421.2415, 34, 0, 4155.385, 4306.154, 4148.205, 4168.205, 4147.179, 0, 0, []
1628959421.2495, 35, 0, 4149.744, 4311.282, 4162.051, 4156.923, 4140.513, 0, 0, []
1628959421.2574, 36, 0, 4157.436, 4326.154, 4164.103, 4158.462, 4148.718, 0, 0, []
1628959421.2653, 37, 0, 4171.282, 4338.462, 4190.769, 4175.385, 4163.59, 0, 0, []
1628959421.2732, 38, 0, 4176.923, 4324.615, 4188.718, 4184.103, 4173.846, 0, 0, []
1628959421.2812, 39, 0, 4171.282, 4310.769, 4168.718, 4176.923, 4171.282, 0, 0, []
1628959421.2891, 40, 0, 4162.564, 4323.59, 4171.795, 4171.795, 4159.487, 0, 0, []
1628959421.2971, 41, 0, 4162.564, 4315.897, 4171.282, 4173.846, 4154.872, 0, 0, []
1628959421.3049, 42, 0, 4163.59, 4290.256, 4170.256, 4173.846, 4153.333, 0, 0, []
1628959421.3129, 43, 0, 4167.179, 4309.744, 4167.179, 4173.333, 4156.923, 0, 0, []
1628959421.3208, 44, 0, 4173.846, 4332.821, 4179.487, 4175.385, 4170.256, 0, 0, []
1628959421.3288, 45, 0, 4172.821, 4316.923, 4181.026, 4172.308, 4178.974, 0, 0, []
1628959421.3367, 46, 0, 4175.897, 4289.744, 4162.564, 4167.179, 4179.487, 0, 0, []
1628959421.3446, 47, 0, 4192.308, 4289.744, 4177.436, 4170.769, 4183.077, 0, 0, []
1628959421.3526, 48, 0, 4208.205, 4315.385, 4185.128, 4185.128, 4197.949, 0, 0, []
1628959421.3605, 49, 0, 4204.615, 4329.231, 4182.564, 4199.487, 4202.051, 0, 0, []
1628959421.3685, 50, 0, 4186.667, 4298.974, 4185.641, 4194.872, 4188.205, 0, 0, []
1628959421.3764, 51, 0, 4172.308, 4261.026, 4164.103, 4176.41, 4179.487, 0, 0, []
1628959421.3843, 52, 0, 4171.282, 4269.231, 4161.538, 4168.205, 4181.026, 0, 0, []
1628959421.3922, 53, 0, 4168.718, 4290.769, 4155.897, 4160.513, 4168.205, 0, 0, []
1628959421.4002, 54, 0, 4162.051, 4280, 4143.59, 4157.949, 4155.385, 0, 0, []
1628959421.4081, 55, 0, 4171.795, 4256.923, 4160.513, 4167.179, 4163.59, 0, 0, []
1628959421.4161, 56, 0, 4189.744, 4284.615, 4170.256, 4174.872, 4181.026, 0, 0, []
1628959421.4239, 57, 0, 4192.821, 4318.462, 4186.667, 4171.795, 4186.154, 0, 0, []
1628959421.4319, 58, 0, 4184.103, 4272.821, 4189.744, 4159.487, 4173.333, 0, 0, []
1628959421.4398, 59, 0, 4187.692, 4236.923, 4184.103, 4163.59, 4171.795, 0, 0, []
1628959421.4478, 60, 0, 4199.487, 4292.821, 4197.436, 4187.692, 4194.359, 0, 0, []
1628959421.4557, 61, 0, 4203.077, 4322.051, 4179.487, 4202.564, 4207.179, 0, 0, []
1628959421.4636, 62, 0, 4198.462, 4253.333, 4161.538, 4207.692, 4199.487, 0, 0, []
1628959421.4715, 63, 0, 4194.359, 4231.795, 4160.513, 4212.821, 4199.487, 0, 0, []
1628959421.4795, 64, 0, 4196.923, 4262.564, 4157.436, 4210.769, 4202.051, 450, 0, []
1628959421.4875, 65, 0, 4194.359, 4222.564, 4161.026, 4192.308, 4184.103, 450, 0, []
1628959421.4954, 66, 0, 4188.205, 4204.103, 4160, 4172.308, 4169.231, 16192, 0, []
1628959421.5033, 67, 0, 4180, 4254.872, 4177.436, 4166.154, 4165.641, 450, 0, []
1628959421.5112, 68, 0, 4181.538, 4231.795, 4184.103, 4161.026, 4168.205, 16148, 0, []
1628959421.5192, 69, 0, 4193.333, 4167.692, 4174.359, 4166.667, 4184.615, 450, 0, []
1628959421.5271, 70, 0, 4193.333, 4184.615, 4178.462, 4188.205, 4193.333, 16105, 0, []
1628959421.5351, 71, 0, 4192.308, 4207.692, 4160.513, 4203.077, 4189.231, 450, 0, []
1628959421.5429, 72, 0, 4201.026, 4194.872, 4157.436, 4213.333, 4194.359, 450, 0, []
1628959421.5509, 73, 0, 4196.923, 4197.949, 4165.641, 4215.897, 4194.872, 16069, 0, []
1628959421.5588, 74, 0, 4177.949, 4200, 4150.256, 4200, 4177.949, 450, 0, []
1628959421.5668, 75, 0, 4184.103, 4201.026, 4164.615, 4192.308, 4175.897, 16204, 0, []
1628959421.5747, 76, 0, 4210.769, 4198.462, 4182.564, 4198.974, 4198.462, 450, 0, []
1628959421.5826, 77, 0, 4219.487, 4189.744, 4195.385, 4198.974, 4212.308, 450, 0, []
1628959421.5905, 78, 0, 4219.487, 4192.821, 4205.128, 4190.256, 4207.692, 450, 0, []
1628959421.5985, 79, 0, 4216.923, 4178.462, 4183.077, 4178.974, 4193.846, 16204, 0, []
1628959421.6064, 80, 0, 4205.641, 4173.846, 4167.179, 4162.564, 4180, 450, 0, []
1628959421.6144, 81, 0, 4193.333, 4196.41, 4149.744, 4141.026, 4173.846, 450, 0, []
1628959421.6222, 82, 0, 4191.795, 4172.821, 4153.846, 4144.615, 4175.897, 450, 0, []
1628959421.6302, 83, 0, 4200, 4144.615, 4177.436, 4174.872, 4186.154, 16204, 0, []
1628959421.6382, 84, 0, 4207.692, 4190.769, 4171.282, 4190.769, 4192.821, 450, 0, []
1628959421.6461, 85, 0, 4220, 4212.308, 4183.077, 4196.41, 4201.538, 450, 0, []
1628959421.654, 86, 0, 4229.744, 4175.385, 4193.846, 4196.923, 4204.103, 450, 0, []
1628959421.6618, 87, 0, 4221.538, 4194.359, 4180.513, 4181.538, 4190.769, 16204, 0, []
1628959421.6698, 88, 0, 4213.333, 4229.744, 4178.974, 4166.667, 4180.513, 450, 0, []
1628959421.6778, 89, 0, 4217.949, 4221.026, 4177.436, 4171.795, 4186.154, 450, 0, []
1628959421.6857, 90, 0, 4216.923, 4209.231, 4175.385, 4182.564, 4187.179, 450, 0, []
1628959421.6936, 91, 0, 4209.744, 4206.667, 4159.487, 4185.128, 4183.59, 16204, 0, []
1628959421.7015, 92, 0, 4216.41, 4203.59, 4162.051, 4193.846, 4194.359, 450, 0, []
1628959421.7094, 93, 0, 4220, 4199.487, 4180.513, 4190.769, 4202.051, 450, 0, []
1628959421.7174, 94, 0, 4216.41, 4211.282, 4167.692, 4175.385, 4199.487, 450, 0, []
1628959421.7253, 95, 0, 4222.051, 4208.205, 4178.974, 4175.385, 4201.538, 16204, 0, []
1628959421.7333, 96, 0, 4224.615, 4192.821, 4187.179, 4172.821, 4205.641, 450, 0, []
1628959421.7411, 97, 0, 4217.949, 4201.538, 4165.128, 4164.615, 4199.487, 450, 0, []
1628959421.7491, 98, 0, 4216.923, 4227.692, 4168.718, 4175.897, 4199.487, 450, 0, []
1628959421.757, 99, 0, 4215.385, 4238.974, 4167.692, 4191.282, 4204.103, 16204, 0, []
1628959421.765, 100, 0, 4203.077, 4250.256, 4170.256, 4187.692, 4192.821, 450, 0, []
1628959421.7729, 101, 0, 4195.385, 4253.333, 4182.564, 4180.513, 4181.026, 450, 0, []
1628959421.7808, 102, 0, 4198.974, 4218.974, 4177.949, 4189.231, 4185.128, 450, 0, []
1628959421.7888, 103, 0, 4205.128, 4217.949, 4182.564, 4198.974, 4192.821, 16204, 0, []
1628959421.7967, 104, 0, 4214.872, 4258.462, 4181.538, 4188.205, 4193.333, 450, 0, []
1628959421.8047, 105, 0, 4215.897, 4282.564, 4183.077, 4170.256, 4189.231, 450, 0, []
1628959421.8126, 106, 0, 4206.154, 4284.615, 4178.974, 4165.128, 4185.641, 450, 0, []
1628959421.8205, 107, 0, 4203.077, 4272.308, 4162.564, 4170.256, 4184.615, 16204, 0, []
1628959421.8284, 108, 0, 4195.897, 4254.359, 4158.974, 4175.385, 4178.462, 450, 0, []
1628959421.8364, 109, 0, 4183.077, 4276.41, 4147.692, 4182.051, 4173.846, 450, 0, []
1628959421.8443, 110, 0, 4184.615, 4301.538, 4156.923, 4194.872, 4178.462, 450, 0, []
1628959421.8523, 111, 0, 4197.949, 4273.846, 4179.487, 4196.41, 4187.179, 16204, 0, []
1628959421.8601, 112, 0, 4216.41, 4277.949, 4175.897, 4190.256, 4202.051, 450, 0, []
1628959421.8681, 113, 0, 4223.077, 4307.692, 4180.513, 4190.769, 4204.103, 450, 0, []
1628959421.876, 114, 0, 4203.59, 4301.026, 4169.231, 4185.128, 4184.103, 450, 0, []
1628959421.884, 115, 0, 4182.564, 4307.692, 4152.821, 4176.923, 4171.282, 16204, 0, []
1628959421.8919, 116, 0, 4190.256, 4334.872, 4160.513, 4185.128, 4184.615, 450, 0, []
1628959421.8998, 117, 0, 4206.154, 4306.667, 4164.103, 4199.487, 4201.538, 450, 0, []
1628959421.9077, 118, 0, 4200, 4283.077, 4174.359, 4201.538, 4200, 450, 0, []
1628959421.9157, 119, 0, 4187.692, 4313.333, 4168.205, 4191.795, 4190.256, 16204, 0, []
1628959421.9236, 120, 0, 4189.744, 4305.128, 4168.718, 4191.282, 4191.795, 450, 0, []
1628959421.9316, 121, 0, 4204.103, 4288.718, 4197.949, 4206.154, 4204.615, 450, 0, []
1628959421.9395, 122, 0, 4209.231, 4326.154, 4192.308, 4212.821, 4206.154, 450, 0, []
1628959421.9474, 123, 0, 4195.385, 4346.154, 4179.487, 4200, 4186.154, 16204, 0, []
1628959421.9554, 124, 0, 4185.128, 4300.513, 4167.692, 4178.462, 4171.282, 450, 0, []
1628959421.9634, 125, 0, 4190.769, 4274.872, 4161.538, 4167.692, 4171.282, 450, 0, []
1628959421.9713, 126, 0, 4194.359, 4311.282, 4177.949, 4171.795, 4173.846, 450, 0, []
1628959421.9793, 127, 0, 4187.692, 4335.385, 4173.846, 4173.846, 4170.256, 16204, 0, []
1628959421.9871, 128, 0, 4184.615, 4309.231, 4174.359, 4171.282, 4168.718, 450, 0, []
1628959421.9951, 0, 0, 4193.333, 4290.256, 4178.974, 4174.872, 4177.436, 450, 0, []
1628959422.003, 1, 0, 4201.538, 4298.462, 4175.897, 4188.205, 4187.179, 450, 0, []
1628959422.011, 2, 0, 4205.128, 4280, 4185.128, 4198.974, 4190.769, 16190, 0, []
1628959422.0189, 3, 0, 4202.051, 4259.487, 4168.205, 4195.385, 4187.179, 450, 0, []
1628959422.0268, 4, 0, 4198.462, 4269.231, 4162.051, 4194.872, 4181.538, 16142, 0, []
1628959422.0347, 5, 0, 4203.59, 4277.949, 4171.795, 4194.872, 4183.59, 450, 0, []
1628959422.0427, 6, 0, 4198.974, 4283.59, 4158.462, 4185.128, 4183.59, 16108, 0, []
1628959422.0506, 7, 0, 4190.256, 4296.923, 4164.103, 4183.59, 4180, 450, 0, []
1628959422.0586, 8, 0, 4204.103, 4309.231, 4175.897, 4193.333, 4185.128, 450, 0, []
1628959422.0664, 9, 0, 4222.051, 4311.795, 4182.051, 4202.564, 4192.821, 16078, 0, []
1628959422.0744, 10, 0, 4216.41, 4291.795, 4175.897, 4203.077, 4188.205, 450, 0, []
1628959422.0824, 11, 0, 4206.154, 4263.077, 4157.949, 4194.359, 4182.564, 16204, 0, []
1628959422.0904, 12, 0, 4206.154, 4265.128, 4167.179, 4190.769, 4187.692, 450, 0, []
1628959422.0983, 13, 0, 4201.538, 4274.872, 4160, 4192.308, 4182.564, 450, 0, []
1628959422.1061, 14, 0, 4192.308, 4262.564, 4158.974, 4193.846, 4169.744, 450, 0, []
1628959422.1141, 15, 0, 4182.564, 4257.949, 4172.821, 4184.615, 4167.692, 16204, 0, []
1628959422.122, 16, 0, 4184.103, 4275.385, 4163.59, 4179.487, 4172.821, 0, 0, []
1628959422.13, 17, 0, 4190.256, 4292.821, 4164.615, 4185.641, 4166.667, 0, 0, []
1628959422.1379, 18, 0, 4174.359, 4286.667, 4146.154, 4175.385, 4150.256, 0, 0, []
1628959422.1458, 19, 0, 4169.744, 4276.41, 4144.103, 4176.923, 4153.846, 0, 0, []
1628959422.1537, 20, 0, 4193.333, 4295.385, 4171.282, 4195.897, 4172.821, 0, 0, []
1628959422.1617, 21, 0, 4201.026, 4313.846, 4154.872, 4190.769, 4173.333, 0, 0, []
1628959422.1696, 22, 0, 4184.615, 4296.923, 4145.641, 4176.41, 4163.59, 0, 0, []
1628959422.1776, 23, 0, 4183.59, 4271.282, 4155.385, 4182.564, 4165.641, 0, 0, []
1628959422.1854, 24, 0, 4196.41, 4272.821, 4159.487, 4189.744, 4169.744, 0, 0, []
1628959422.1934, 25, 0, 4200.513, 4283.077, 4161.026, 4176.923, 4174.872, 0, 0, []
1628959422.2013, 26, 0, 4203.077, 4259.487, 4152.821, 4173.333, 4187.179, 0, 0, []
1628959422.2093, 27, 0, 4198.462, 4227.179, 4167.179, 4182.564, 4185.128, 0, 0, []
1628959422.2173, 28, 0, 4182.051, 4231.282, 4170.256, 4175.897, 4167.692, 0, 0, []
1628959422.2251, 29, 0, 4182.051, 4264.103, 4157.436, 4171.795, 4163.077, 0, 0, []
1628959422.233, 30, 0, 4196.923, 4306.667, 4166.154, 4178.462, 4171.795, 0, 0, []
1628959422.241, 31, 0, 4193.846, 4327.692, 4156.923, 4169.231, 4169.231, 0, 0, []
1628959422.249, 32, 0, 4186.154, 4298.974, 4149.744, 4164.103, 4163.59, 0, 0, []
1628959422.2569, 33, 0, 4203.59, 4282.564, 4158.462, 4180.513, 4175.897, 0, 0, []
1628959422.2648, 34, 0, 4224.103, 4335.897, 4169.744, 4196.41, 4192.821, 0, 0, []
1628959422.2727, 35, 0, 4232.821, 4384.103, 4185.128, 4199.487, 4201.538, 0, 0, []
1628959422.2807, 36, 0, 4236.923, 4349.744, 4175.385, 4194.872, 4201.026, 0, 0, []
1628959422.2886, 37, 0, 4229.744, 4300.513, 4171.282, 4191.282, 4191.282, 0, 0, []
1628959422.2966, 38, 0, 4226.154, 4336.41, 4169.744, 4193.333, 4191.282, 0, 0, []
1628959422.3044, 39, 0, 4234.872, 4372.821, 4163.59, 4197.949, 4200.513, 0, 0, []
1628959422.3124, 40, 0, 4235.385, 4326.154, 4177.949, 4196.41, 4199.487, 0, 0, []
1628959422.3203, 41, 0, 4230.769, 4305.128, 4171.795, 4192.308, 4194.872, 0, 0, []
1628959422.3283, 42, 0, 4232.308, 4352.821, 4170.769, 4197.949, 4201.026, 0, 0, []
1628959422.3362, 43, 0, 4237.949, 4378.462, 4184.103, 4205.128, 4211.282, 0, 0, []
1628959422.3442, 44, 0, 4237.949, 4347.692, 4174.872, 4204.103, 4213.846, 0, 0, []
1628959422.352, 45, 0, 4231.795, 4329.231, 4170.256, 4196.923, 4207.692, 0, 0, []
1628959422.36, 46, 0, 4230.256, 4357.436, 4161.026, 4197.949, 4202.564, 0, 0, []
1628959422.3679, 47, 0, 4229.744, 4373.846, 4161.538, 4205.128, 4198.974, 0, 0, []
1628959422.3759, 48, 0, 4238.462, 4354.872, 4184.615, 4208.205, 4202.564, 0, 0, []
1628959422.3838, 49, 0, 4251.282, 4356.923, 4188.205, 4209.744, 4211.795, 0, 0, []
1628959422.3917, 50, 0, 4237.949, 4396.41, 4182.051, 4205.641, 4199.487, 0, 0, []
1628959422.3997, 51, 0, 4224.615, 4412.821, 4169.231, 4194.359, 4186.154, 0, 0, []
1628959422.4076, 52, 0, 4244.103, 4378.462, 4174.359, 4200.513, 4199.487, 0, 0, []
1628959422.4156, 53, 0, 4252.821, 4350.256, 4184.615, 4215.897, 4207.692, 0, 0, []
1628959422.4235, 54, 0, 4240, 4383.59, 4170.256, 4215.385, 4200.513, 0, 0, []
1628959422.4314, 55, 0, 4234.359, 4417.436, 4181.538, 4214.359, 4200, 0, 0, []
1628959422.4393, 56, 0, 4220, 4380.513, 4175.385, 4208.205, 4188.205, 0, 0, []
1628959422.4473, 57, 0, 4209.231, 4328.205, 4149.744, 4194.359, 4178.462, 0, 0, []
1628959422.4552, 58, 0, 4237.949, 4330.769, 4153.846, 4194.359, 4205.128, 0, 0, []
1628959422.4632, 59, 1, 4240.798, 4337.892, 4156.695, 4195.954, 4207.692, 50, 0, []
1628959422.471, 60, 1, 4243.647, 4345.014, 4159.544, 4197.55, 4210.256, 100, 0, []
1628959422.4789, 61, 1, 4246.496, 4352.137, 4162.393, 4199.145, 4212.821, 150, 0, []
1628959422.4868, 62, 1, 4249.345, 4359.259, 4165.242, 4200.741, 4215.385, 200, 0, []
1628959422.4947, 63, 1, 4252.194, 4366.382, 4168.091, 4202.336, 4217.949, 250, 0, []
1628959422.5026, 64, 1, 4255.043, 4373.504, 4170.94, 4203.932, 4220.513, 450, 0, []
1628959422.5104, 65, 1, 4257.892, 4380.627, 4173.789, 4205.527, 4223.077, 450, 0, []
1628959422.5183, 66, 1, 4260.741, 4387.749, 4176.638, 4207.123, 4225.641, 16190, 0, []
1628959422.5262, 67, 0, 4263.59, 4394.872, 4179.487, 4208.718, 4228.205, 450, 0, []
1628959422.534, 68, 0, 4241.026, 4385.128, 4173.846, 4191.795, 4204.615, 16142, 0, []
1628959422.5419, 69, 0, 4231.282, 4352.821, 4161.538, 4188.718, 4200.513, 450, 0, []
1628959422.5496, 70, 0, 4245.128, 4368.205, 4175.897, 4212.308, 4223.59, 16103, 0, []
1628959422.5575, 71, 0, 4252.821, 4397.949, 4191.795, 4223.59, 4236.41, 450, 0, []
1628959422.5653, 72, 0, 4251.282, 4375.385, 4185.128, 4209.744, 4226.154, 450, 0, []
1628959422.5731, 73, 0, 4256.41, 4340, 4192.821, 4196.923, 4220.513, 16075, 0, []
1628959422.581, 74, 0, 4265.641, 4352.821, 4184.103, 4200, 4230.769, 450, 0, []
1628959422.5887, 75, 0, 4264.615, 4372.821, 4179.487, 4209.231, 4237.436, 16202, 0, []
1628959422.5966, 76, 0, 4260.513, 4338.462, 4185.128, 4205.128, 4233.846, 450, 0, []
1628959422.6044, 77, 0, 4260.513, 4286.154, 4172.821, 4193.846, 4232.821, 450, 0, []
1628959422.6124, 78, 0, 4256.41, 4302.051, 4176.41, 4191.282, 4234.359, 450, 0, []
1628959422.6203, 79, 0, 4257.949, 4347.179, 4178.462, 4186.667, 4231.795, 16202, 0, []
1628959422.628, 80, 0, 4272.308, 4330.256, 4193.333, 4190.256, 4236.923, 450, 0, []
1628959422.6359, 81, 0, 4273.846, 4306.667, 4207.179, 4192.821, 4240.513, 450, 0, []
1628959422.6437, 82, 0, 4249.231, 4324.103, 4176.41, 4173.846, 4220, 450, 0, []
1628959422.6516, 83, 0, 4243.59, 4330.769, 4173.333, 4172.821, 4205.641, 16202, 0, []
1628959422.6595, 84, 0, 4264.615, 4308.205, 4184.103, 4195.897, 4227.692, 450, 0, []
1628959422.6673, 85, 0, 4262.051, 4309.231, 4180, 4198.462, 4239.487, 450, 0, []
1628959422.6752, 86, 0, 4241.026, 4330.256, 4175.385, 4174.872, 4217.436, 450, 0, []
1628959422.6831, 87, 0, 4240, 4325.641, 4166.667, 4171.795, 4208.718, 16202, 0, []
1628959422.6909, 88, 0, 4250.256, 4330.769, 4186.154, 4191.282, 4219.487, 450, 0, []
1628959422.6989, 89, 0, 4251.282, 4364.103, 4196.923, 4197.436, 4223.077, 450, 0, []
1628959422.7067, 90, 0, 4243.59, 4373.846, 4187.179, 4189.744, 4214.872, 450, 0, []
1628959422.7146, 91, 0, 4231.795, 4338.974, 4178.974, 4180, 4202.051, 16202, 0, []
1628959422.7224, 92, 0, 4230.769, 4325.128, 4170.256, 4182.564, 4204.615, 450, 0, []
1628959422.7303, 93, 0, 4242.564, 4326.154, 4189.231, 4195.897, 4217.949, 450, 0, []
1628959422.7381, 94, 0, 4238.462, 4298.974, 4186.154, 4189.231, 4212.821, 450, 0, []
1628959422.746, 95, 0, 4223.077, 4285.641, 4157.949, 4172.308, 4197.436, 16202, 0, []
1628959422.7539, 96, 0, 4210.256, 4284.103, 4158.462, 4163.59, 4186.667, 450, 0, []
1628959422.7619, 97, 0, 4198.462, 4274.359, 4160, 4157.949, 4180.513, 450, 0, []
1628959422.7698, 98, 0, 4203.077, 4297.436, 4173.333, 4169.744, 4188.205, 450, 0, []
1628959422.7776, 99, 0, 4220.513, 4337.949, 4178.462, 4184.103, 4201.538, 16202, 0, []
1628959422.7854, 100, 0, 4232.308, 4324.103, 4170.256, 4182.564, 4210.769, 450, 0, []
1628959422.7932, 101, 0, 4232.308, 4290.769, 4184.615, 4180.513, 4217.436, 450, 0, []
1628959422.8011, 102, 0, 4230.256, 4309.231, 4171.795, 4178.974, 4214.359, 450, 0, []
1628959422.8089, 103, 0, 4244.103, 4344.103, 4169.231, 4191.282, 4216.923, 16202, 0, []
1628959422.8168, 104, 0, 4262.564, 4359.487, 4187.179, 4206.154, 4236.41, 450, 0, []
1628959422.8245, 105, 0, 4255.897, 4347.692, 4175.385, 4191.282, 4236.41, 450, 0, []
1628959422.8324, 106, 0, 4240, 4312.821, 4175.385, 4174.872, 4218.462, 450, 0, []
1628959422.8402, 107, 0, 4240, 4298.974, 4183.077, 4178.974, 4213.846, 16202, 0, []
1628959422.8481, 108, 0, 4235.897, 4318.462, 4192.821, 4180.513, 4208.718, 450, 0, []
1628959422.8559, 109, 0, 4225.641, 4341.538, 4192.821, 4175.385, 4198.974, 450, 0, []
1628959422.8638, 110, 0, 4231.795, 4338.974, 4173.846, 4180, 4201.538, 450, 0, []
1628959422.8715, 111, 0, 4231.795, 4335.897, 4172.821, 4181.538, 4204.615, 16202, 0, []
1628959422.8794, 112, 0, 4220.513, 4355.897, 4165.128, 4173.846, 4196.41, 450, 0, []
1628959422.8872, 113, 0, 4223.59, 4369.231, 4168.718, 4175.385, 4193.333, 450, 0, []
1628959422.8952, 114, 0, 4234.359, 4352.821, 4181.026, 4175.385, 4202.051, 450, 0, []
1628959422.9031, 115, 0, 4236.41, 4307.692, 4166.154, 4167.179, 4206.667, 16202, 0, []
1628959422.911, 116, 0, 4225.641, 4303.077, 4169.231, 4162.051, 4198.462, 450, 0, []
1628959422.9189, 117, 0, 4218.462, 4349.231, 4173.333, 4158.974, 4188.205, 450, 0, []
1628959422.9269, 118, 0, 4214.359, 4353.333, 4168.718, 4165.128, 4187.692, 450, 0, []
1628959422.9348, 119, 0, 4205.128, 4326.667, 4167.179, 4167.692, 4185.641, 16202, 0, []
1628959422.9426, 120, 0, 4200.513, 4332.821, 4151.795, 4163.077, 4183.59, 450, 0, []
1628959422.9504, 121, 0, 4205.128, 4337.949, 4160, 4168.718, 4186.667, 450, 0, []
1628959422.9582, 122, 0, 4208.205, 4316.41, 4161.026, 4173.846, 4185.128, 450, 0, []
1628959422.9661, 123, 0, 4198.462, 4307.179, 4150.256, 4165.128, 4169.231, 16202, 0, []
1628959422.9739, 124, 0, 4196.41, 4289.744, 4161.026, 4156.41, 4164.103, 450, 0, []
1628959422.9818, 125, 0, 4205.641, 4268.718, 4156.923, 4159.487, 4177.436, 450, 0, []
1628959422.9895, 126, 0, 4214.872, 4303.59, 4160.513, 4171.282, 4188.718, 450, 0, []
1628959422.9974, 127, 0, 4216.41, 4345.128, 4164.103, 4175.897, 4194.359, 16202, 0, []
1628959423.0052, 128, 0, 4214.359, 4336.41, 4164.615, 4169.231, 4197.949, 450, 0, []
1628959423.0131, 0, 0, 4214.872, 4313.846, 4177.949, 4168.205, 4197.949, 450, 0, []
1628959423.0209, 1, 0, 4210.256, 4324.615, 4172.821, 4177.436, 4195.897, 450, 0, []
1628959423.0287, 2, 0, 4205.641, 4341.026, 4175.385, 4174.872, 4192.821, 16190, 0, []
1628959423.0365, 3, 0, 4217.436, 4328.718, 4162.564, 4157.436, 4192.821, 450, 0, []
1628959423.0445, 4, 0, 4239.487, 4307.692, 4146.154, 4159.487, 4212.821, 16141, 0, []
1628959423.0524, 5, 0, 4261.538, 4300.513, 4168.718, 4178.462, 4244.103, 450, 0, []
1628959423.0603, 6, 0, 4286.667, 4322.051, 4157.436, 4177.949, 4268.718, 16103, 0, []
1628959423.068, 7, 0, 4318.462, 4348.718, 4146.667, 4166.154, 4290.769, 450, 0, []
1628959423.076, 8, 0, 4345.128, 4330.256, 4164.103, 4167.692, 4316.923, 450, 0, []
1628959423.0839, 9, 0, 4357.436, 4289.744, 4162.564, 4176.923, 4332.308, 16075, 0, []
1628959423.0919, 10, 0, 4349.744, 4293.846, 4167.692, 4181.538, 4321.538, 450, 0, []
1628959423.0998, 11, 0, 4311.282, 4319.487, 4156.923, 4173.333, 4277.436, 16197, 0, []
1628959423.1077, 12, 0, 4247.179, 4327.692, 4137.436, 4164.615, 4210.769, 450, 0, []
1628959423.1156, 13, 0, 4198.974, 4326.154, 4134.872, 4165.641, 4163.077, 450, 0, []
1628959423.1234, 14, 0, 4171.282, 4309.744, 4136.41, 4170.769, 4135.385, 450, 0, []
1628959423.1313, 15, 0, 4146.154, 4293.333, 4161.026, 4183.077, 4113.333, 16197, 0, []
1628959423.1391, 16, 0, 4131.795, 4274.359, 4172.821, 4193.846, 4105.641, 0, 0, []
1628959423.1469, 17, 0, 4117.436, 4246.667, 4166.154, 4183.59, 4091.282, 0, 0, []
1628959423.1547, 18, 0, 4100, 4248.205, 4156.923, 4165.128, 4069.231, 0, 0, []
1628959423.1626, 19, 0, 4105.641, 4272.821, 4151.282, 4171.795, 4071.282, 0, 0, []
1628959423.1704, 20, 0, 4119.487, 4269.231, 4175.385, 4187.179, 4081.538, 0, 0, []
1628959423.1783, 21, 0, 4107.179, 4248.718, 4167.692, 4169.744, 4069.231, 0, 0, []
1628959423.186, 22, 0, 4098.462, 4245.128, 4147.179, 4160, 4064.103, 0, 0, []
1628959423.1939, 23, 0, 4120, 4250.256, 4162.051, 4178.974, 4087.179, 0, 0, []
1628959423.2017, 24, 0, 4133.333, 4267.179, 4161.538, 4181.538, 4097.949, 0, 0, []
1628959423.2097, 25, 0, 4110.769, 4257.436, 4160.513, 4162.051, 4074.872, 0, 0, []
1628959423.2176, 26, 0, 4089.231, 4222.564, 4154.359, 4150.256, 4055.897, 0, 0, []
1628959423.2255, 27, 0, 4097.949, 4232.308, 4150.256, 4163.59, 4068.718, 0, 0, []
1628959423.2334, 28, 0, 4099.487, 4250.769, 4148.205, 4170.256, 4074.359, 0, 0, []
1628959423.2414, 29, 0, 4082.051, 4237.436, 4124.103, 4153.333, 4053.846, 0, 0, []
1628959423.2493, 30, 0, 4091.795, 4237.436, 4144.103, 4153.846, 4057.949, 0, 0, []
1628959423.2573, 31, 0, 4114.872, 4262.564, 4165.128, 4164.103, 4081.026, 0, 0, []
1628959423.2651, 32, 0, 4112.308, 4262.051, 4150.256, 4157.949, 4082.564, 0, 0, []
1628959423.2729, 33, 0, 4112.308, 4237.436, 4161.538, 4160, 4081.538, 0, 0, []
1628959423.2808, 34, 0, 4136.41, 4227.692, 4177.949, 4176.41, 4100.513, 0, 0, []
1628959423.2886, 35, 0, 4137.949, 4248.718, 4176.923, 4171.282, 4102.564, 0, 0, []
1628959423.2965, 36, 0, 4112.308, 4284.615, 4146.667, 4151.282, 4080.513, 0, 0, []
1628959423.3042, 37, 0, 4115.897, 4283.077, 4133.333, 4166.667, 4085.128, 0, 0, []
1628959423.3121, 38, 0, 4141.026, 4273.333, 4166.667, 4192.308, 4111.282, 0, 0, []
1628959423.3199, 39, 0, 4143.59, 4296.41, 4163.077, 4182.051, 4116.41, 0, 0, []
1628959423.3278, 40, 0, 4136.923, 4300, 4152.308, 4175.897, 4111.282, 0, 0, []
1628959423.3356, 41, 0, 4140, 4292.308, 4157.949, 4183.59, 4113.333, 0, 0, []
1628959423.3434, 42, 0, 4142.051, 4298.974, 4153.846, 4180.513, 4116.41, 0, 0, []
1628959423.3512, 43, 0, 4148.205, 4275.385, 4168.718, 4185.128, 4121.538, 0, 0, []
1628959423.3592, 44, 0, 4150.256, 4231.795, 4163.59, 4189.744, 4121.026, 0, 0, []
1628959423.3671, 45, 0, 4123.59, 4232.308, 4137.949, 4158.974, 4097.436, 0, 0, []
1628959423.3751, 46, 0, 4101.026, 4273.846, 4121.538, 4128.205, 4075.385, 0, 0, []
1628959423.3829, 47, 0, 4122.564, 4296.41, 4124.103, 4151.795, 4093.333, 0, 0, []
1628959423.3909, 48, 0, 4151.795, 4281.538, 4150.769, 4184.615, 4120.513, 0, 0, []
1628959423.3988, 49, 0, 4156.923, 4252.821, 4151.795, 4187.692, 4126.667, 0, 0, []
1628959423.4068, 50, 0, 4150.769, 4266.154, 4152.308, 4183.077, 4121.026, 0, 0, []
1628959423.4147, 51, 0, 4145.128, 4290.256, 4157.436, 4173.846, 4112.821, 0, 0, []
1628959423.4224, 52, 0, 4146.154, 4252.308, 4137.436, 4164.615, 4111.795, 0, 0, []
1628959423.4303, 53, 0, 4148.718, 4217.949, 4148.205, 4173.333, 4120, 0, 0, []
1628959423.4381, 54, 0, 4152.308, 4232.308, 4165.641, 4186.154, 4122.564, 0, 0, []
1628959423.446, 55, 0, 4147.692, 4247.692, 4160, 4182.051, 4110.256, 0, 0, []
1628959423.4538, 56, 0, 4142.051, 4262.564, 4153.333, 4176.41, 4106.154, 0, 0, []
1628959423.4616, 57, 0, 4144.103, 4281.538, 4136.923, 4168.205, 4109.744, 0, 0, []
1628959423.4694, 58, 0, 4134.359, 4285.128, 4131.282, 4151.795, 4092.308, 0, 0, []
1628959423.4773, 59, 0, 4126.667, 4284.615, 4118.462, 4144.103, 4084.103, 0, 0, []
1628959423.4851, 60, 0, 4149.744, 4285.128, 4127.179, 4168.718, 4114.872, 0, 0, []
1628959423.493, 61, 0, 4176.41, 4272.308, 4166.667, 4200, 4145.641, 0, 0, []
1628959423.5007, 62, 0, 4176.41, 4265.128, 4175.897, 4215.897, 4151.282, 0, 0, []
1628959423.5087, 63, 0, 4172.821, 4246.667, 4186.667, 4231.282, 4150.256, 0, 0, []
1628959423.5166, 64, 0, 4161.026, 4215.897, 4173.846, 4217.949, 4136.41, 450, 0, []
1628959423.5246, 65, 0, 4140.513, 4243.59, 4140.513, 4184.615, 4112.308, 450, 0, []
1628959423.5325, 66, 0, 4142.564, 4278.974, 4142.051, 4174.359, 4106.667, 16189, 0, []
1628959423.5404, 67, 0, 4150.769, 4245.641, 4124.615, 4163.59, 4105.641, 450, 0, []
1628959423.5483, 68, 0, 4156.923, 4231.795, 4116.923, 4148.205, 4106.667, 16141, 0, []
1628959423.5563, 69, 0, 4181.538, 4274.359, 4142.051, 4157.436, 4131.282, 450, 0, []
1628959423.5642, 70, 0, 4196.41, 4264.615, 4158.462, 4176.923, 4153.333, 16100, 0, []
1628959423.5721, 71, 0, 4165.641, 4204.103, 4153.846, 4174.872, 4133.846, 450, 0, []
1628959423.58, 72, 0, 4126.667, 4193.846, 4125.641, 4165.128, 4098.462, 450, 0, []
1628959423.5877, 73, 0, 4131.795, 4200.513, 4136.41, 4178.462, 4101.026, 16073, 0, []
1628959423.5956, 74, 0, 4156.41, 4182.564, 4156.923, 4196.923, 4131.282, 450, 0, []
1628959423.6034, 75, 0, 4163.077, 4190.256, 4145.128, 4192.308, 4147.692, 16197, 0, []
1628959423.6113, 76, 0, 4169.744, 4202.564, 4163.077, 4181.026, 4151.282, 450, 0, []
1628959423.6191, 77, 0, 4189.231, 4190.769, 4174.359, 4182.564, 4156.41, 450, 0, []
1628959423.6269, 78, 0, 4187.179, 4202.051, 4167.179, 4188.718, 4154.872, 450, 0, []
1628959423.6347, 79, 0, 4175.385, 4229.744, 4165.128, 4191.282, 4152.308, 16197, 0, []
1628959423.6426, 80, 0, 4177.949, 4211.795, 4150.769, 4186.667, 4153.333, 450, 0, []
1628959423.6504, 81, 0, 4168.718, 4171.795, 4140, 4171.282, 4138.974, 450, 0, []
1628959423.6583, 82, 0, 4157.436, 4192.308, 4141.026, 4168.205, 4130.256, 450, 0, []
1628959423.6661, 83, 0, 4166.667, 4221.538, 4165.641, 4184.615, 4146.154, 16197, 0, []
1628959423.674, 84, 0, 4170.769, 4186.667, 4173.846, 4181.538, 4149.744, 450, 0, []
1628959423.6819, 85, 0, 4166.667, 4169.231, 4154.359, 4172.821, 4140.513, 450, 0, []
1628959423.6899, 86, 0, 4182.564, 4221.538, 4177.949, 4197.436, 4157.436, 450, 0, []
1628959423.6979, 87, 0, 4195.385, 4234.872, 4187.179, 4215.385, 4176.41, 16197, 0, []
1628959423.7057, 88, 0, 4177.436, 4192.821, 4167.692, 4199.487, 4161.538, 450, 0, []
1628959423.7136, 89, 0, 4164.615, 4201.538, 4164.615, 4186.154, 4146.154, 450, 0, []
1628959423.7216, 90, 0, 4169.231, 4230.256, 4154.359, 4184.103, 4149.744, 450, 0, []
1628959423.7295, 91, 0, 4168.718, 4229.231, 4163.077, 4186.154, 4151.795, 16197, 0, []
1628959423.7373, 92, 0, 4172.308, 4252.308, 4159.487, 4182.051, 4151.282, 450, 0, []
1628959423.7451, 93, 0, 4183.077, 4252.821, 4143.077, 4176.41, 4152.821, 450, 0, []
1628959423.7529, 94, 0, 4187.692, 4207.692, 4157.949, 4181.026, 4155.385, 450, 0, []
1628959423.7608, 95, 0, 4185.128, 4202.564, 4153.846, 4184.615, 4156.41, 16197, 0, []
1628959423.7686, 96, 0, 4182.051, 4221.026, 4149.231, 4187.179, 4154.872, 450, 0, []
1628959423.7765, 97, 0, 4175.385, 4197.949, 4145.128, 4182.564, 4152.308, 450, 0, []
1628959423.7842, 98, 0, 4169.231, 4194.359, 4142.051, 4174.359, 4144.615, 450, 0, []
1628959423.7921, 99, 0, 4171.282, 4237.949, 4160.513, 4174.359, 4135.385, 16197, 0, []
1628959423.7999, 100, 0, 4171.282, 4235.385, 4151.282, 4177.436, 4140.513, 450, 0, []
1628959423.8078, 101, 0, 4172.821, 4220.513, 4149.231, 4180, 4149.744, 450, 0, []
1628959423.8156, 102, 0, 4184.615, 4249.231, 4160.513, 4184.103, 4157.949, 450, 0, []
1628959423.8235, 103, 0, 4190.769, 4238.974, 4159.487, 4190.769, 4164.103, 16197, 0, []
1628959423.8314, 104, 0, 4185.641, 4202.051, 4163.59, 4189.231, 4163.077, 450, 0, []
1628959423.8394, 105, 0, 4183.59, 4230.769, 4154.359, 4184.615, 4163.077, 450, 0, []
1628959423.8473, 106, 0, 4186.667, 4276.923, 4154.872, 4189.744, 4166.154, 450, 0, []
1628959423.8553, 107, 0, 4185.641, 4260.513, 4148.205, 4185.641, 4161.538, 16197, 0, []
1628959423.8631, 108, 0, 4183.59, 4233.333, 4132.821, 4172.308, 4151.795, 450, 0, []
1628959423.8711, 109, 0, 4185.128, 4250.256, 4149.744, 4172.308, 4153.333, 450, 0, []
1628959423.879, 110, 0, 4189.231, 4272.821, 4145.128, 4173.846, 4157.949, 450, 0, []
1628959423.887, 111, 0, 4186.154, 4274.359, 4141.538, 4173.846, 4154.872, 16197, 0, []
1628959423.8949, 112, 0, 4181.538, 4249.744, 4155.385, 4180, 4156.41, 450, 0, []
1628959423.9026, 113, 0, 4180, 4208.205, 4150.256, 4184.103, 4160, 450, 0, []
1628959423.9105, 114, 0, 4170.256, 4201.538, 4152.308, 4176.41, 4151.282, 450, 0, []
1628959423.9183, 115, 0, 4169.744, 4233.333, 4146.154, 4172.821, 4151.795, 16197, 0, []
1628959423.9262, 116, 0, 4187.179, 4224.103, 4150.769, 4186.667, 4171.282, 450, 0, []
1628959423.934, 117, 0, 4185.128, 4196.923, 4152.821, 4182.051, 4168.205, 450, 0, []
1628959423.9418, 118, 0, 4176.41, 4241.026, 4138.974, 4168.718, 4158.462, 450, 0, []
1628959423.9496, 119, 0, 4203.59, 4280.513, 4173.333, 4191.282, 4190.256, 16197, 0, []
1628959423.9575, 120, 0, 4223.077, 4246.154, 4186.154, 4210.256, 4210.769, 450, 0, []
1628959423.9653, 121, 0, 4200, 4231.795, 4164.103, 4191.282, 4186.667, 450, 0, []
1628959423.9733, 122, 0, 4187.179, 4277.949, 4168.718, 4177.436, 4177.436, 450, 0, []
1628959423.9811, 123, 0, 4192.821, 4302.051, 4164.103, 4180, 4185.128, 16197, 0, []
1628959423.9891, 124, 0, 4184.103, 4283.077, 4156.41, 4174.359, 4171.282, 450, 0, []
1628959423.997, 125, 0, 4180, 4291.795, 4140.513, 4169.231, 4165.641, 450, 0, []
1628959424.005, 126, 0, 4181.538, 4310.256, 4127.692, 4171.282, 4169.744, 450, 0, []
1628959424.0129, 127, 0, 4166.667, 4279.487, 4135.897, 4165.641, 4155.385, 16197, 0, []
1628959424.0208, 128, 0, 4165.641, 4243.077, 4135.385, 4166.667, 4155.897, 450, 0, []
1628959424.0287, 0, 0, 4193.333, 4235.897, 4154.872, 4189.744, 4181.538, 450, 0, []
1628959424.0367, 1, 0, 4204.103, 4246.154, 4165.128, 4195.897, 4190.769, 450, 0, []
1628959424.0446, 2, 0, 4197.436, 4269.744, 4158.462, 4189.744, 4184.103, 16186, 0, []
1628959424.0526, 3, 0, 4196.41, 4284.103, 4166.154, 4190.256, 4177.949, 450, 0, []
1628959424.0604, 4, 0, 4189.231, 4278.974, 4151.795, 4183.077, 4170.256, 16140, 0, []
1628959424.0682, 5, 0, 4183.59, 4282.051, 4153.333, 4179.487, 4173.846, 450, 0, []
1628959424.0761, 6, 0, 4188.718, 4290.256, 4153.846, 4177.436, 4178.974, 16101, 0, []
1628959424.0839, 7, 0, 4184.615, 4274.872, 4130.256, 4172.821, 4164.615, 450, 0, []
1628959424.0918, 8, 0, 4179.487, 4263.077, 4136.41, 4177.949, 4153.333, 450, 0, []
1628959424.0995, 9, 0, 4185.641, 4269.231, 4140.513, 4182.051, 4161.026, 16074, 0, []
1628959424.1074, 10, 0, 4184.103, 4281.026, 4137.436, 4174.359, 4163.59, 450, 0, []
1628959424.1152, 11, 0, 4183.077, 4303.59, 4145.641, 4177.436, 4170.256, 16194, 0, []
1628959424.1232, 12, 0, 4192.308, 4309.231, 4150.769, 4194.359, 4185.128, 450, 0, []
1628959424.1311, 13, 0, 4184.103, 4285.128, 4152.308, 4187.179, 4176.923, 450, 0, []
1628959424.139, 14, 0, 4173.846, 4260, 4141.538, 4173.333, 4165.641, 450, 0, []
1628959424.1469, 15, 0, 4194.872, 4277.436, 4156.41, 4190.256, 4182.051, 16194, 0, []
1628959424.1549, 16, 0, 4207.692, 4293.333, 4169.744, 4198.462, 4192.308, 0, 0, []
1628959424.1628, 17, 0, 4196.923, 4255.385, 4148.205, 4183.59, 4178.462, 0, 0, []
1628959424.1708, 18, 0, 4205.641, 4234.359, 4153.333, 4189.231, 4182.051, 0, 0, []
1628959424.1786, 19, 0, 4216.923, 4283.59, 4148.718, 4197.436, 4192.821, 0, 0, []
1628959424.1866, 20, 0, 4202.564, 4311.795, 4134.872, 4182.564, 4181.538, 0, 0, []
1628959424.1945, 21, 0, 4194.872, 4276.41, 4140.513, 4177.949, 4174.872, 0, 0, []
1628959424.2023, 22, 0, 4205.641, 4272.821, 4134.359, 4191.282, 4182.051, 0, 0, []
1628959424.2102, 23, 0, 4209.744, 4287.692, 4144.615, 4195.385, 4185.641, 0, 0, []
1628959424.2179, 24, 0, 4207.179, 4275.385, 4152.821, 4192.308, 4185.128, 0, 0, []
1628959424.2258, 25, 0, 4202.051, 4287.692, 4147.179, 4192.308, 4183.59, 0, 0, []
1628959424.2336, 26, 0, 4198.974, 4315.897, 4146.154, 4187.179, 4182.564, 0, 0, []
1628959424.2415, 27, 0, 4202.564, 4288.205, 4138.462, 4180.513, 4183.59, 0, 0, []
1628959424.2493, 28, 0, 4197.949, 4248.205, 4140.513, 4179.487, 4180, 0, 0, []
1628959424.2571, 29, 0, 4189.231, 4258.974, 4137.436, 4174.872, 4172.821, 0, 0, []
1628959424.2649, 30, 0, 4177.949, 4255.897, 4131.282, 4163.077, 4160, 0, 0, []
1628959424.2728, 31, 0, 4168.718, 4233.333, 4138.974, 4157.436, 4145.128, 0, 0, []
1628959424.2806, 32, 0, 4186.667, 4249.231, 4147.179, 4174.872, 4160.513, 0, 0, []
1628959424.2886, 33, 0, 4208.718, 4283.59, 4169.744, 4196.41, 4186.667, 0, 0, []
1628959424.2965, 34, 0, 4198.462, 4303.59, 4167.692, 4192.308, 4182.564, 0, 0, []
1628959424.3044, 35, 0, 4184.615, 4308.205, 4147.692, 4183.077, 4173.333, 0, 0, []
1628959424.3123, 36, 0, 4213.846, 4302.051, 4155.385, 4192.821, 4205.641, 0, 0, []
1628959424.3203, 37, 0, 4264.103, 4291.795, 4143.077, 4185.641, 4259.487, 0, 0, []
1628959424.3282, 38, 0, 4313.333, 4286.667, 4141.538, 4174.872, 4314.872, 0, 0, []
1628959424.3362, 39, 0, 4371.795, 4277.949, 4160, 4190.256, 4378.974, 0, 0, []
1628959424.344, 40, 0, 4433.333, 4284.615, 4172.821, 4202.051, 4440.513, 0, 0, []
1628959424.352, 41, 0, 4474.359, 4306.667, 4192.308, 4193.846, 4475.385, 0, 0, []
1628959424.3599, 42, 0, 4470.769, 4304.615, 4157.949, 4168.205, 4463.077, 0, 0, []
1628959424.3677, 43, 0, 4448.205, 4285.641, 4137.436, 4164.103, 4438.974, 0, 0, []
1628959424.3756, 44, 0, 4452.308, 4292.821, 4170.769, 4192.821, 4449.231, 0, 0, []
1628959424.3833, 45, 0, 4455.897, 4327.692, 4182.564, 4202.051, 4455.385, 0, 0, []
1628959424.3912, 46, 0, 4416.41, 4333.846, 4168.205, 4175.897, 4411.795, 0, 0, []
1628959424.399, 47, 0, 4385.128, 4307.179, 4158.462, 4174.359, 4377.949, 0, 0, []
1628959424.4069, 48, 0, 4390.769, 4321.026, 4181.538, 4200.513, 4385.641, 0, 0, []
1628959424.4147, 49, 0, 4369.231, 4342.564, 4178.462, 4177.949, 4367.179, 0, 0, []
1628959424.4225, 50, 0, 4334.872, 4305.641, 4150.256, 4155.897, 4332.821, 0, 0, []
1628959424.4303, 51, 0, 4347.179, 4311.795, 4180, 4190.256, 4340.513, 0, 0, []
1628959424.4382, 52, 0, 4355.385, 4352.308, 4192.821, 4201.538, 4342.051, 0, 0, []
1628959424.446, 53, 0, 4312.821, 4309.744, 4167.179, 4168.205, 4297.949, 0, 0, []
1628959424.454, 54, 0, 4285.128, 4269.744, 4168.205, 4149.231, 4274.359, 0, 0, []
1628959424.4618, 55, 0, 4306.154, 4305.641, 4181.026, 4163.077, 4291.795, 0, 0, []
1628959424.4698, 56, 0, 4324.103, 4342.051, 4193.846, 4186.154, 4302.564, 0, 0, []
1628959424.4777, 57, 0, 4319.487, 4355.897, 4178.974, 4188.718, 4293.333, 0, 0, []
1628959424.4857, 58, 0, 4300, 4347.179, 4158.462, 4173.333, 4271.282, 0, 0, []
1628959424.4936, 59, 0, 4270.256, 4311.282, 4152.821, 4163.077, 4245.128, 0, 0, []
1628959424.5015, 60, 0, 4258.462, 4311.282, 4145.128, 4170.769, 4242.051, 0, 0, []
1628959424.5094, 61, 0, 4278.462, 4332.821, 4172.308, 4189.231, 4261.538, 0, 0, []
1628959424.5174, 62, 0, 4284.615, 4328.205, 4174.359, 4177.436, 4261.026, 0, 0, []
1628959424.5253, 63, 0, 4265.128, 4333.333, 4149.231, 4148.718, 4242.564, 0, 0, []
1628959424.5331, 64, 0, 4265.641, 4346.154, 4172.308, 4154.872, 4239.487, 450, 0, []
1628959424.5409, 65, 0, 4276.923, 4344.103, 4189.231, 4174.872, 4237.949, 450, 0, []
1628959424.5487, 66, 0, 4263.077, 4347.179, 4179.487, 4165.641, 4219.487, 16186, 0, []
1628959424.5566, 67, 0, 4244.615, 4345.128, 4159.487, 4147.692, 4207.692, 450, 0, []
1628959424.5644, 68, 0, 4252.308, 4330.256, 4151.795, 4156.923, 4216.41, 16140, 0, []
1628959424.5723, 69, 0, 4275.897, 4347.692, 4175.385, 4168.718, 4231.282, 450, 0, []
1628959424.58, 70, 0, 4282.564, 4372.821, 4181.538, 4163.59, 4238.462, 16101, 0, []
1628959424.5879, 71, 0, 4264.615, 4356.923, 4180.513, 4155.385, 4222.051, 450, 0, []
1628959424.5957, 72, 0, 4243.077, 4334.359, 4173.333, 4153.846, 4200, 450, 0, []
1628959424.6037, 73, 0, 4235.897, 4326.154, 4158.462, 4161.538, 4200.513, 16074, 0, []
1628959424.6116, 74, 0, 4228.205, 4336.41, 4164.103, 4166.667, 4201.026, 450, 0, []
1628959424.6195, 75, 0, 4218.974, 4352.308, 4155.385, 4167.179, 4187.692, 16196, 0, []
1628959424.6274, 76, 0, 4210.256, 4349.744, 4157.436, 4163.59, 4174.359, 450, 0, []
1628959424.6354, 77, 0, 4208.205, 4329.231, 4164.103, 4154.872, 4170.256, 450, 0, []
1628959424.6433, 78, 0, 4214.872, 4313.846, 4156.923, 4146.154, 4170.256, 450, 0, []
1628959424.6513, 79, 0, 4218.974, 4326.667, 4177.436, 4151.795, 4171.795, 16196, 0, []
1628959424.6591, 80, 0, 4216.41, 4340, 4178.462, 4156.41, 4167.692, 450, 0, []
1628959424.667, 81, 0, 4213.333, 4318.974, 4168.718, 4151.795, 4164.103, 450, 0, []
1628959424.675, 82, 0, 4219.487, 4316.41, 4183.59, 4152.308, 4175.897, 450, 0, []
1628959424.683, 83, 0, 4228.205, 4368.205, 4185.128, 4158.462, 4186.667, 16196, 0, []
1628959424.6909, 84, 0, 4231.282, 4393.846, 4177.436, 4163.077, 4184.615, 450, 0, []
1628959424.6986, 85, 0, 4231.795, 4370.769, 4162.564, 4157.436, 4183.59, 450, 0, []
1628959424.7065, 86, 0, 4228.718, 4371.795, 4172.308, 4162.564, 4188.205, 450, 0, []
1628959424.7143, 87, 0, 4226.667, 4394.359, 4186.154, 4179.487, 4182.051, 16196, 0, []
1628959424.7222, 88, 0, 4230.256, 4366.154, 4169.231, 4187.692, 4173.333, 450, 0, []
1628959424.73, 89, 0, 4225.641, 4324.103, 4172.308, 4182.051, 4171.795, 450, 0, []
1628959424.7378, 90, 0, 4209.744, 4337.949, 4167.179, 4162.564, 4164.615, 450, 0, []
1628959424.7456, 91, 0, 4202.051, 4354.872, 4154.359, 4147.179, 4152.821, 16196, 0, []
1628959424.7536, 92, 0, 4203.077, 4339.487, 4166.154, 4140.513, 4152.308, 450, 0, []
1628959424.7615, 93, 0, 4209.744, 4360.513, 4173.333, 4148.718, 4163.077, 450, 0, []
1628959424.7695, 94, 0, 4218.974, 4408.718, 4181.026, 4164.615, 4167.692, 450, 0, []
1628959424.7773, 95, 0, 4218.462, 4388.205, 4167.692, 4167.692, 4167.179, 16196, 0, []
1628959424.7853, 96, 0, 4218.974, 4357.436, 4163.077, 4172.821, 4173.333, 450, 0, []
1628959424.7932, 97, 0, 4232.308, 4368.205, 4185.128, 4184.103, 4180, 450, 0, []
1628959424.8012, 98, 0, 4235.897, 4356.41, 4167.692, 4175.897, 4175.897, 450, 0, []
1628959424.8091, 99, 0, 4227.692, 4336.41, 4150.256, 4155.897, 4166.667, 16196, 0, []
1628959424.817, 100, 0, 4230.769, 4359.487, 4150.769, 4154.359, 4167.179, 450, 0, []
1628959424.8249, 101, 0, 4235.897, 4402.051, 4144.103, 4156.923, 4170.256, 450, 0, []
1628959424.8327, 102, 0, 4221.538, 4412.821, 4145.128, 4149.231, 4156.923, 450, 0, []
1628959424.8406, 103, 0, 4213.333, 4387.692, 4141.538, 4151.795, 4147.692, 16196, 0, []
1628959424.8484, 104, 0, 4224.615, 4342.564, 4148.718, 4169.231, 4163.077, 450, 0, []
1628959424.8562, 105, 0, 4225.641, 4330.769, 4141.538, 4172.821, 4168.205, 450, 0, []
1628959424.864, 106, 0, 4219.487, 4372.821, 4131.282, 4166.667, 4156.41, 450, 0, []
1628959424.8719, 107, 0, 4226.154, 4387.179, 4152.821, 4173.846, 4161.026, 16196, 0, []
1628959424.8797, 108, 0, 4238.462, 4353.846, 4150.769, 4173.846, 4173.333, 450, 0, []
1628959424.8876, 109, 0, 4243.077, 4358.462, 4157.949, 4174.359, 4177.436, 450, 0, []
1628959424.8953, 110, 0, 4238.974, 4412.308, 4168.205, 4176.923, 4172.308, 450, 0, []
1628959424.9032, 111, 0, 4221.538, 4421.538, 4140, 4168.718, 4156.923, 16196, 0, []
1628959424.911, 112, 0, 4205.641, 4377.949, 4138.462, 4158.462, 4146.667, 450, 0, []
1628959424.919, 113, 0, 4208.718, 4352.821, 4142.051, 4157.436, 4152.308, 450, 0, []
1628959424.9269, 114, 0, 4222.051, 4356.41, 4135.385, 4164.103, 4161.538, 450, 0, []
1628959424.9348, 115, 0, 4236.41, 4369.231, 4147.179, 4174.359, 4177.949, 16196, 0, []
1628959424.9427, 116, 0, 4238.974, 4386.154, 4152.308, 4176.923, 4186.667, 450, 0, []
1628959424.9507, 117, 0, 4224.615, 4401.026, 4147.692, 4159.487, 4162.564, 450, 0, []
1628959424.9586, 118, 0, 4226.667, 4392.821, 4136.41, 4151.795, 4153.846, 450, 0, []
1628959424.9666, 119, 0, 4252.821, 4368.205, 4152.308, 4170.769, 4185.128, 16196, 0, []
1628959424.9744, 120, 0, 4267.179, 4379.487, 4170.256, 4174.872, 4200, 450, 0, []
1628959424.9824, 121, 0, 4256.41, 4404.615, 4148.718, 4155.385, 4187.179, 450, 0, []
1628959424.9903, 122, 0, 4254.872, 4373.846, 4145.128, 4150.769, 4187.692, 450, 0, []
1628959424.9983, 123, 0, 4275.897, 4342.051, 4142.564, 4160.513, 4209.231, 16196, 0, []
1628959425.0062, 124, 0, 4314.359, 4370.256, 4145.641, 4171.282, 4248.205, 450, 0, []
1628959425.0139, 125, 0, 4376.41, 4411.795, 4184.103, 4194.872, 4317.436, 450, 0, []
1628959425.0218, 126, 0, 4444.615, 4426.154, 4202.564, 4218.974, 4397.436, 450, 0, []
1628959425.0296, 127, 0, 4490.769, 4412.308, 4203.59, 4227.179, 4453.846, 16196, 0, []
1628959425.0375, 128, 0, 4509.231, 4380.513, 4193.846, 4221.538, 4483.59, 450, 0, []
1628959425.0453, 0, 0, 4508.205, 4358.462, 4188.718, 4217.436, 4488.718, 450, 0, []
1628959425.0532, 1, 0, 4493.846, 4362.051, 4192.308, 4213.333, 4471.795, 450, 0, []
1628959425.0609, 2, 0, 4474.359, 4358.462, 4169.231, 4207.179, 4449.744, 16186, 0, []
1628959425.0688, 3, 0, 4449.744, 4349.231, 4171.282, 4213.333, 4430.769, 450, 0, []
1628959425.0766, 4, 0, 4422.051, 4351.282, 4180.513, 4210.256, 4406.667, 16140, 0, []
1628959425.0846, 5, 0, 4410.256, 4349.231, 4174.359, 4206.154, 4385.641, 450, 0, []
1628959425.0925, 6, 0, 4410.256, 4357.436, 4191.282, 4224.103, 4376.923, 16103, 0, []
1628959425.1004, 7, 0, 4389.231, 4366.667, 4185.128, 4225.128, 4357.949, 450, 0, []
1628959425.1083, 8, 0, 4358.974, 4360.513, 4177.436, 4205.128, 4327.179, 450, 0, []
1628959425.1163, 9, 0, 4351.795, 4348.718, 4196.923, 4205.128, 4314.359, 16074, 0, []
1628959425.1242, 10, 0, 4335.897, 4354.872, 4193.846, 4209.231, 4311.282, 450, 0, []
1628959425.1322, 11, 0, 4307.179, 4383.077, 4183.59, 4193.846, 4295.385, 16197, 0, []
1628959425.14, 12, 0, 4306.154, 4382.564, 4180.513, 4187.692, 4282.564, 450, 0, []
1628959425.1478, 13, 0, 4312.308, 4368.205, 4200.513, 4196.41, 4276.923, 450, 0, []
1628959425.1557, 14, 0, 4304.615, 4368.205, 4211.795, 4203.59, 4276.41, 450, 0, []
1628959425.1635, 15, 0, 4291.795, 4369.231, 4188.718, 4208.205, 4275.385, 16197, 0, []
1628959425.1714, 16, 0, 4275.897, 4360, 4177.949, 4205.641, 4260.513, 0, 0, []
1628959425.1791, 17, 0, 4271.795, 4355.897, 4160.513, 4201.026, 4245.128, 0, 0, []
1628959425.187, 18, 0, 4278.974, 4360.513, 4159.487, 4203.59, 4249.744, 0, 0, []
1628959425.1948, 19, 0, 4271.795, 4345.641, 4167.692, 4194.872, 4246.154, 0, 0, []
1628959425.2027, 20, 0, 4257.949, 4330.256, 4143.59, 4178.462, 4229.744, 0, 0, []
1628959425.2105, 21, 0, 4262.564, 4334.359, 4151.282, 4190.769, 4235.385, 0, 0, []
1628959425.2184, 22, 0, 4269.744, 4352.821, 4174.359, 4207.179, 4251.282, 0, 0, []
1628959425.2263, 23, 0, 4265.641, 4372.308, 4176.923, 4203.077, 4246.154, 0, 0, []
1628959425.2343, 24, 0, 4247.692, 4346.154, 4159.487, 4190.769, 4224.615, 0, 0, []
1628959425.2422, 25, 0, 4231.795, 4308.205, 4133.846, 4184.103, 4211.282, 0, 0, []
1628959425.2502, 26, 0, 4247.692, 4321.026, 4161.538, 4204.103, 4223.077, 0, 0, []
1628959425.258, 27, 0, 4274.872, 4354.359, 4189.231, 4227.179, 4242.051, 0, 0, []
1628959425.266, 28, 0, 4267.692, 4347.692, 4173.846, 4216.41, 4229.231, 0, 0, []
1628959425.2739, 29, 0, 4234.872, 4310.769, 4156.923, 4188.718, 4195.385, 0, 0, []
1628959425.2819, 30, 0, 4226.154, 4304.103, 4152.308, 4188.718, 4186.154, 0, 0, []
1628959425.2898, 31, 0, 4242.051, 4326.667, 4183.59, 4212.821, 4202.564, 0, 0, []
1628959425.2975, 32, 0, 4242.564, 4322.564, 4188.205, 4210.256, 4204.103, 0, 0, []
1628959425.3054, 33, 0, 4226.667, 4305.641, 4164.103, 4190.256, 4188.718, 0, 0, []
1628959425.3132, 34, 0, 4226.154, 4330.769, 4177.949, 4198.974, 4197.436, 0, 0, []
1628959425.3211, 35, 0, 4246.154, 4344.103, 4186.154, 4218.462, 4222.564, 0, 0, []
1628959425.3289, 36, 0, 4250.769, 4290.256, 4182.051, 4217.949, 4221.538, 0, 0, []
1628959425.3367, 37, 0, 4229.231, 4278.974, 4167.692, 4198.462, 4202.564, 0, 0, []
1628959425.3445, 38, 0, 4215.897, 4317.436, 4153.333, 4188.718, 4195.897, 0, 0, []
1628959425.3524, 39, 0, 4227.179, 4309.231, 4173.333, 4193.333, 4200, 0, 0, []
1628959425.3602, 40, 0, 4231.282, 4288.205, 4178.974, 4198.974, 4204.615, 0, 0, []
1628959425.3681, 41, 0, 4216.41, 4314.359, 4176.41, 4206.154, 4202.564, 0, 0, []
1628959425.3758, 42, 0, 4212.821, 4344.103, 4174.872, 4207.179, 4196.41, 0, 0, []
1628959425.3837, 43, 0, 4218.462, 4323.59, 4164.103, 4201.538, 4196.41, 0, 0, []
1628959425.3915, 44, 0, 4212.821, 4307.692, 4167.179, 4202.564, 4194.872, 0, 0, []
1628959425.3995, 45, 0, 4198.974, 4311.795, 4151.282, 4194.872, 4178.462, 0, 0, []
1628959425.4074, 46, 0, 4193.333, 4306.154, 4151.282, 4182.051, 4165.128, 0, 0, []
1628959425.4153, 47, 0, 4198.462, 4290.256, 4170.256, 4184.103, 4167.692, 0, 0, []
1628959425.4232, 48, 0, 4197.436, 4270.256, 4160, 4188.718, 4168.718, 0, 0, []
1628959425.4312, 49, 0, 4196.41, 4272.821, 4174.872, 4197.436, 4174.359, 0, 0, []
1628959425.4391, 50, 0, 4205.641, 4300, 4188.718, 4206.154, 4190.256, 0, 0, []
1628959425.4471, 51, 0, 4202.564, 4306.154, 4172.308, 4200.513, 4186.667, 0, 0, []
1628959425.4549, 52, 0, 4188.205, 4260, 4150.769, 4188.205, 4167.692, 0, 0, []
1628959425.4627, 53, 0, 4186.667, 4240, 4144.103, 4190.769, 4174.359, 0, 0, []
1628959425.4706, 54, 0, 4192.308, 4284.615, 4172.308, 4198.974, 4187.692, 0, 0, []
1628959425.4784, 55, 0, 4185.641, 4313.333, 4181.538, 4192.308, 4174.359, 0, 0, []
1628959425.4863, 56, 0, 4174.872, 4287.692, 4174.872, 4190.769, 4157.436, 0, 0, []
1628959425.494, 57, 0, 4161.538, 4251.282, 4170.769, 4190.256, 4152.308, 0, 0, []
1628959425.5019, 58, 0, 4158.462, 4281.026, 4155.897, 4184.615, 4152.821, 0, 0, []
1628959425.5097, 59, 0, 4176.41, 4321.026, 4177.436, 4194.359, 4164.615, 0, 0, []
1628959425.5176, 60, 0, 4193.846, 4301.538, 4190.256, 4208.205, 4182.051, 0, 0, []
1628959425.5254, 61, 0, 4187.692, 4278.462, 4174.872, 4206.154, 4174.872, 0, 0, []
1628959425.5333, 62, 0, 4174.872, 4284.103, 4178.974, 4198.974, 4163.59, 0, 0, []
1628959425.5412, 63, 0, 4182.051, 4282.564, 4179.487, 4201.538, 4177.949, 0, 0, []
1628959425.5492, 64, 0, 4190.769, 4276.41, 4181.026, 4205.128, 4186.154, 450, 0, []
1628959425.5571, 65, 0, 4180.513, 4284.615, 4169.744, 4192.308, 4170.256, 450, 0, []
1628959425.5651, 66, 0, 4169.744, 4294.359, 4161.538, 4178.974, 4160, 16187, 0, []
1628959425.5729, 67, 0, 4181.538, 4323.59, 4183.077, 4185.641, 4174.872, 450, 0, []
1628959425.5809, 68, 0, 4191.282, 4330.769, 4178.974, 4190.256, 4178.974, 16141, 0, []
1628959425.5888, 69, 0, 4176.923, 4300, 4175.897, 4190.769, 4163.077, 450, 0, []
1628959425.5968, 70, 0, 4169.231, 4314.872, 4181.538, 4199.487, 4161.026, 16100, 0, []
1628959425.6047, 71, 0, 4178.974, 4338.462, 4176.923, 4203.59, 4169.744, 450, 0, []
1628959425.6124, 72, 0, 4183.077, 4316.41, 4182.564, 4195.385, 4169.744, 450, 0, []
1628959425.6203, 73, 0, 4183.59, 4307.692, 4178.974, 4193.333, 4169.231, 16072, 0, []
1628959425.6281, 74, 0, 4188.205, 4318.974, 4189.231, 4197.949, 4172.821, 450, 0, []
1628959425.636, 75, 0, 4182.051, 4316.923, 4190.256, 4188.718, 4168.205, 16200, 0, []
1628959425.6438, 76, 0, 4175.897, 4308.718, 4174.872, 4182.051, 4164.615, 450, 0, []
1628959425.6516, 77, 0, 4184.615, 4297.949, 4194.359, 4184.615, 4172.308, 450, 0, []
1628959425.6594, 78, 0, 4188.205, 4310.769, 4193.846, 4177.949, 4172.308, 450, 0, []
1628959425.6673, 79, 0, 4183.59, 4324.103, 4177.436, 4171.795, 4164.615, 16200, 0, []
1628959425.6752, 80, 0, 4182.051, 4296.923, 4180.513, 4171.795, 4158.462, 450, 0, []
1628959425.6832, 81, 0, 4173.333, 4293.333, 4182.564, 4172.308, 4153.333, 450, 0, []
1628959425.6911, 82, 0, 4168.718, 4330.256, 4193.333, 4181.538, 4158.462, 450, 0, []
1628959425.699, 83, 0, 4185.128, 4313.846, 4186.154, 4192.308, 4178.974, 16200, 0, []
1628959425.7069, 84, 0, 4189.744, 4265.128, 4177.949, 4200.513, 4201.538, 450, 0, []
1628959425.7149, 85, 0, 4173.846, 4281.026, 4184.103, 4206.667, 4210.256, 450, 0, []
1628959425.7228, 86, 0, 4176.923, 4316.41, 4176.41, 4205.128, 4210.769, 450, 0, []
1628959425.7307, 87, 0, 4190.769, 4298.974, 4187.179, 4203.59, 4205.641, 16200, 0, []
1628959425.7386, 88, 0, 4185.128, 4265.641, 4186.667, 4207.692, 4202.564, 450, 0, []
1628959425.7466, 89, 0, 4182.051, 4266.667, 4181.538, 4217.949, 4213.846, 450, 0, []
1628959425.7545, 90, 0, 4186.667, 4254.872, 4189.744, 4218.462, 4220, 450, 0, []
1628959425.7625, 91, 0, 4163.59, 4207.692, 4163.59, 4194.359, 4194.872, 16200, 0, []
1628959425.7704, 92, 0, 4143.59, 4202.051, 4158.462, 4182.051, 4174.359, 450, 0, []
1628959425.7781, 93, 0, 4172.821, 4239.487, 4176.41, 4198.462, 4196.923, 450, 0, []
1628959425.786, 94, 0, 4201.026, 4258.462, 4188.718, 4219.487, 4221.538, 450, 0, []
1628959425.7938, 95, 0, 4193.333, 4241.026, 4196.923, 4219.487, 4217.436, 16200, 0, []
1628959425.8017, 96, 0, 4185.641, 4238.974, 4186.667, 4212.308, 4215.897, 450, 0, []
1628959425.8095, 97, 0, 4188.205, 4283.077, 4193.333, 4218.462, 4218.462, 450, 0, []
1628959425.8173, 98, 0, 4187.692, 4310.769, 4193.333, 4218.462, 4210.769, 450, 0, []
1628959425.8251, 99, 0, 4189.231, 4298.974, 4185.641, 4215.897, 4203.077, 16200, 0, []
1628959425.833, 100, 0, 4180.513, 4297.436, 4196.923, 4210.769, 4193.333, 450, 0, []
1628959425.8408, 101, 0, 4164.615, 4285.128, 4179.487, 4194.359, 4177.949, 450, 0, []
1628959425.8488, 102, 0, 4169.744, 4228.205, 4171.795, 4196.923, 4179.487, 450, 0, []
1628959425.8566, 103, 0, 4187.692, 4210.769, 4181.026, 4208.718, 4194.872, 16200, 0, []
1628959425.8646, 104, 0, 4190.256, 4242.051, 4183.077, 4198.974, 4196.41, 450, 0, []
1628959425.8725, 105, 0, 4181.538, 4243.077, 4204.103, 4194.872, 4193.333, 450, 0, []
1628959425.8805, 106, 0, 4176.41, 4234.872, 4197.949, 4210.769, 4202.051, 450, 0, []
1628959425.8884, 107, 0, 4167.179, 4236.41, 4178.974, 4203.077, 4201.538, 16200, 0, []
1628959425.8963, 108, 0, 4164.615, 4228.718, 4177.949, 4177.436, 4192.821, 450, 0, []
1628959425.9042, 109, 0, 4188.205, 4231.282, 4189.231, 4188.718, 4206.667, 450, 0, []
1628959425.9122, 110, 0, 4214.359, 4241.026, 4219.487, 4223.59, 4233.333, 450, 0, []
1628959425.9201, 111, 0, 4213.846, 4252.821, 4215.897, 4229.231, 4236.41, 16200, 0, []
1628959425.9279, 112, 0, 4194.359, 4271.795, 4202.564, 4217.949, 4216.41, 450, 0, []
1628959425.9357, 113, 0, 4177.436, 4267.692, 4196.923, 4212.308, 4195.385, 450, 0, []
1628959425.9435, 114, 0, 4172.821, 4244.615, 4174.359, 4207.692, 4185.128, 450, 0, []
1628959425.9514, 115, 0, 4173.846, 4233.333, 4170.769, 4198.462, 4183.077, 16200, 0, []
1628959425.9592, 116, 0, 4165.128, 4216.923, 4160.513, 4190.256, 4181.538, 450, 0, []
1628959425.9671, 117, 0, 4160, 4209.744, 4163.59, 4192.821, 4182.564, 450, 0, []
1628959425.9748, 118, 0, 4165.641, 4218.974, 4180, 4192.308, 4178.462, 450, 0, []
1628959425.9827, 119, 0, 4167.692, 4238.462, 4172.821, 4188.718, 4172.308, 16200, 0, []
1628959425.9905, 120, 0, 4167.692, 4262.564, 4186.667, 4196.923, 4175.897, 450, 0, []
1628959425.9985, 121, 0, 4165.128, 4256.41, 4184.103, 4190.256, 4177.436, 450, 0, []
1628959426.0064, 122, 0, 4158.462, 4231.282, 4161.538, 4175.385, 4171.795, 450, 0, []
1628959426.0143, 123, 0, 4164.615, 4247.692, 4169.744, 4191.282, 4178.462, 16200, 0, []
1628959426.0222, 124, 0, 4176.41, 4252.821, 4178.462, 4213.333, 4192.821, 450, 0, []
1628959426.0302, 125, 0, 4172.821, 4195.897, 4188.205, 4208.718, 4186.667, 450, 0, []
1628959426.0381, 126, 0, 4166.667, 4183.59, 4180, 4195.385, 4171.795, 450, 0, []
1628959426.0461, 127, 0, 4168.205, 4238.974, 4174.872, 4196.41, 4170.769, 16200, 0, []
1628959426.0539, 128, 0, 4185.641, 4261.538, 4209.744, 4211.795, 4194.872, 450, 0, []
1628959426.0619, 0, 0, 4216.41, 4249.744, 4230.769, 4227.179, 4233.333, 450, 0, []
1628959426.0698, 1, 0, 4214.359, 4259.487, 4229.744, 4231.795, 4238.462, 450, 0, []
1628959426.0776, 2, 0, 4183.077, 4279.487, 4198.462, 4218.974, 4209.231, 16187, 0, []
1628959426.0855, 3, 0, 4178.974, 4267.692, 4174.872, 4211.795, 4194.872, 450, 0, []
1628959426.0932, 4, 0, 4187.179, 4263.077, 4187.692, 4209.744, 4198.974, 16141, 0, []
1628959426.1011, 5, 0, 4175.385, 4290.769, 4170.769, 4195.385, 4189.744, 450, 0, []
1628959426.1089, 6, 0, 4165.128, 4281.538, 4169.744, 4196.41, 4180.513, 324, 0, []
1628959426.1168, 7, 0, 4167.692, 4247.692, 4187.179, 4209.744, 4183.59, 450, 0, []
1628959426.1246, 8, 0, 4172.821, 4263.077, 4185.641, 4218.462, 4185.128, 450, 0, []
1628959426.1324, 9, 0, 4177.949, 4285.641, 4194.359, 4224.615, 4193.333, 16075, 0, []
1628959426.1402, 10, 0, 4176.41, 4269.744, 4186.154, 4223.077, 4200.513, 450, 0, []
1628959426.1482, 11, 0, 4166.667, 4263.077, 4180, 4215.385, 4193.333, 16198, 0, []
1628959426.1561, 12, 0, 4157.949, 4265.641, 4178.462, 4205.128, 4179.487, 450, 0, []
1628959426.1641, 13, 0, 4148.205, 4260, 4164.103, 4197.949, 4166.667, 450, 0, []
1628959426.1719, 14, 0, 4148.718, 4266.667, 4176.41, 4203.077, 4169.231, 450, 0, []
1628959426.1799, 15, 0, 4166.154, 4287.692, 4178.462, 4208.205, 4185.641, 16198, 0, []
1628959426.1878, 16, 0, 4174.872, 4320, 4182.051, 4205.128, 4192.821, 0, 0, []
1628959426.1958, 17, 0, 4168.205, 4328.718, 4183.077, 4196.41, 4187.179, 0, 0, []
1628959426.2037, 18, 0, 4165.128, 4286.667, 4160, 4192.821, 4185.128, 0, 0, []
1628959426.2116, 19, 0, 4162.564, 4281.538, 4171.795, 4202.051, 4182.564, 0, 0, []
1628959426.2195, 20, 0, 4161.538, 4302.051, 4180, 4205.128, 4183.59, 0, 0, []
1628959426.2273, 21, 0, 4171.795, 4266.667, 4165.641, 4190.256, 4193.846, 0, 0, []
1628959426.2352, 22, 0, 4178.974, 4238.462, 4160, 4173.333, 4200.513, 0, 0, []
1628959426.243, 23, 0, 4190.769, 4248.205, 4161.538, 4182.051, 4215.385, 0, 0, []
1628959426.2508, 24, 0, 4230.769, 4246.154, 4172.821, 4194.359, 4248.205, 0, 0, []
1628959426.2586, 25, 0, 4274.872, 4263.59, 4146.154, 4173.846, 4277.949, 0, 0, []
1628959426.2665, 26, 0, 4317.949, 4286.154, 4138.974, 4169.231, 4317.949, 0, 0, []
1628959426.2743, 27, 0, 4369.744, 4281.026, 4177.436, 4201.026, 4368.205, 0, 0, []
1628959426.2822, 28, 0, 4390.769, 4296.923, 4174.872, 4212.308, 4376.41, 0, 0, []
1628959426.2899, 29, 0, 4360, 4303.59, 4164.615, 4192.821, 4336.923, 0, 0, []
1628959426.2978, 30, 0, 4310.256, 4281.538, 4165.641, 4174.872, 4287.692, 0, 0, []
1628959426.3056, 31, 0, 4254.872, 4279.487, 4165.128, 4168.205, 4231.282, 0, 0, []
1628959426.3136, 32, 0, 4200.513, 4261.026, 4171.795, 4165.128, 4172.308, 0, 0, []
1628959426.3215, 33, 0, 4155.897, 4238.974, 4158.462, 4170.256, 4128.718, 0, 0, []
1628959426.3294, 34, 0, 4115.385, 4278.462, 4155.897, 4180.513, 4089.231, 0, 0, []
1628959426.3373, 35, 0, 4085.641, 4304.615, 4157.436, 4182.564, 4054.872, 0, 0, []
1628959426.3453, 36, 0, 4062.051, 4275.897, 4142.564, 4176.923, 4034.359, 0, 0, []
1628959426.3532, 37, 0, 4043.077, 4285.641, 4140.513, 4169.231, 4016.41, 0, 0, []
1628959426.3612, 38, 0, 4048.718, 4323.59, 4147.692, 4168.718, 4015.385, 0, 0, []
1628959426.369, 39, 0, 4064.615, 4316.923, 4175.385, 4185.128, 4035.385, 0, 0, []
1628959426.377, 40, 0, 4063.59, 4293.846, 4182.051, 4195.385, 4045.128, 0, 0, []
1628959426.3849, 41, 0, 4054.872, 4295.897, 4164.103, 4179.487, 4034.359, 0, 0, []
1628959426.3927, 42, 0, 4053.846, 4317.436, 4181.538, 4164.103, 4030.769, 0, 0, []
1628959426.4006, 43, 0, 4067.179, 4329.744, 4187.692, 4173.333, 4049.744, 0, 0, []
1628959426.4083, 44, 0, 4082.051, 4306.154, 4181.538, 4187.179, 4066.154, 0, 0, []
1628959426.4162, 45, 0, 4081.538, 4296.923, 4171.795, 4182.051, 4065.641, 0, 0, []
1628959426.424, 46, 0, 4081.026, 4330.256, 4156.923, 4183.59, 4067.179, 0, 0, []
1628959426.4319, 47, 0, 4093.333, 4343.077, 4171.282, 4197.949, 4078.974, 0, 0, []
1628959426.4397, 48, 0, 4096.923, 4308.718, 4163.59, 4192.308, 4077.949, 0, 0, []
1628959426.4475, 49, 0, 4087.179, 4298.462, 4150.769, 4183.077, 4062.564, 0, 0, []
1628959426.4553, 50, 0, 4082.564, 4325.128, 4162.051, 4187.692, 4056.923, 0, 0, []
1628959426.4633, 51, 0, 4086.154, 4314.872, 4154.872, 4185.641, 4059.487, 0, 0, []
1628959426.4712, 52, 0, 4092.308, 4272.308, 4157.436, 4184.615, 4061.538, 0, 0, []
1628959426.4792, 53, 0, 4095.897, 4262.051, 4154.872, 4185.641, 4066.154, 0, 0, []
1628959426.487, 54, 0, 4087.692, 4294.359, 4151.282, 4175.897, 4061.026, 0, 0, []
1628959426.495, 55, 0, 4076.41, 4308.205, 4157.949, 4164.615, 4052.308, 0, 0, []
1628959426.5029, 56, 0, 4080, 4267.179, 4154.872, 4164.103, 4057.949, 0, 0, []
1628959426.5109, 57, 0, 4095.897, 4235.897, 4167.692, 4173.333, 4075.897, 0, 0, []
1628959426.5188, 58, 0, 4112.308, 4255.385, 4162.051, 4178.462, 4094.359, 0, 0, []
1628959426.5268, 59, 0, 4123.077, 4269.744, 4160, 4188.205, 4108.205, 0, 0, []
1628959426.5346, 60, 0, 4120, 4246.154, 4180, 4197.949, 4113.333, 0, 0, []
1628959426.5424, 61, 0, 4104.103, 4214.872, 4163.59, 4188.718, 4100, 0, 0, []
1628959426.5503, 62, 0, 4100.513, 4201.538, 4156.923, 4183.077, 4089.231, 0, 0, []
1628959426.5581, 63, 0, 4113.846, 4204.103, 4159.487, 4191.795, 4102.051, 0, 0, []
1628959426.566, 64, 0, 4108.205, 4193.846, 4148.718, 4187.692, 4104.615, 450, 0, []
1628959426.5737, 65, 0, 4099.487, 4194.872, 4162.051, 4177.949, 4096.41, 450, 0, []
1628959426.5816, 66, 0, 4122.051, 4236.923, 4181.026, 4197.949, 4115.897, 16187, 0, []
1628959426.5894, 67, 0, 4129.231, 4254.359, 4187.692, 4210.256, 4125.128, 450, 0, []
1628959426.5973, 68, 0, 4103.077, 4253.846, 4159.487, 4186.154, 4097.949, 16141, 0, []
1628959426.6051, 69, 0, 4104.103, 4278.462, 4147.179, 4177.436, 4099.487, 450, 0, []
1628959426.6129, 70, 0, 4129.231, 4265.128, 4176.923, 4189.231, 4127.692, 16098, 0, []
1628959426.6207, 71, 0, 4122.564, 4247.179, 4166.667, 4180.513, 4118.974, 450, 0, []
1628959426.6286, 72, 0, 4098.462, 4270.256, 4145.641, 4167.692, 4092.821, 450, 0, []
1628959426.6364, 73, 0, 4094.872, 4256.41, 4134.359, 4168.205, 4091.282, 16071, 0, []
1628959426.6444, 74, 0, 4103.59, 4224.615, 4128.718, 4175.897, 4104.615, 450, 0, []
1628959426.6522, 75, 0, 4108.205, 4213.846, 4149.744, 4181.026, 4108.718, 16196, 0, []
1628959426.6602, 76, 0, 4109.231, 4197.949, 4152.308, 4174.359, 4103.59, 450, 0, []
1628959426.6681, 77, 0, 4115.385, 4202.051, 4165.641, 4180.513, 4110.256, 450, 0, []
1628959426.676, 78, 0, 4126.667, 4203.59, 4180, 4195.897, 4124.615, 450, 0, []
1628959426.684, 79, 0, 4137.949, 4180, 4169.231, 4194.359, 4131.282, 16196, 0, []
1628959426.6919, 80, 0, 4139.487, 4166.154, 4180.513, 4184.615, 4128.205, 450, 0, []
1628959426.6998, 81, 0, 4128.205, 4140, 4170.256, 4173.846, 4118.974, 450, 0, []
1628959426.7076, 82, 0, 4125.128, 4117.436, 4159.487, 4172.308, 4118.462, 450, 0, []
1628959426.7155, 83, 0, 4124.615, 4140, 4167.692, 4169.744, 4117.949, 16196, 0, []
1628959426.7233, 84, 0, 4116.923, 4134.872, 4157.949, 4161.026, 4113.333, 450, 0, []
1628959426.7311, 85, 0, 4116.41, 4112.821, 4164.103, 4164.103, 4116.923, 450, 0, []
1628959426.7389, 86, 0, 4124.615, 4165.128, 4159.487, 4172.821, 4128.718, 450, 0, []
1628959426.7469, 87, 0, 4124.103, 4202.051, 4156.923, 4175.385, 4128.718, 16196, 0, []
1628959426.7548, 88, 0, 4121.026, 4152.308, 4164.103, 4170.769, 4120, 450, 0, []
1628959426.7628, 89, 0, 4128.205, 4125.128, 4147.179, 4171.795, 4125.128, 450, 0, []
1628959426.7707, 90, 0, 4138.462, 4161.026, 4156.923, 4185.641, 4137.436, 450, 0, []
1628959426.7786, 91, 0, 4143.077, 4170.256, 4169.231, 4191.282, 4142.564, 16196, 0, []
1628959426.7866, 92, 0, 4134.872, 4136.923, 4159.487, 4178.974, 4133.333, 450, 0, []
1628959426.7945, 93, 0, 4120, 4126.667, 4150.769, 4162.564, 4123.59, 450, 0, []
1628959426.8025, 94, 0, 4118.974, 4151.282, 4130.769, 4157.949, 4124.103, 450, 0, []
1628959426.8103, 95, 0, 4130.256, 4163.077, 4138.462, 4163.077, 4127.692, 16196, 0, []
1628959426.8183, 96, 0, 4132.821, 4151.795, 4145.128, 4160, 4127.179, 450, 0, []
1628959426.8262, 97, 0, 4125.641, 4149.744, 4136.41, 4154.359, 4126.154, 450, 0, []
1628959426.8342, 98, 0, 4125.128, 4162.564, 4146.667, 4157.949, 4128.205, 450, 0, []
1628959426.8421, 99, 0, 4130.769, 4182.051, 4145.128, 4159.487, 4127.692, 16196, 0, []
1628959426.85, 100, 0, 4135.385, 4195.385, 4158.974, 4161.538, 4130.256, 450, 0, []
1628959426.8579, 101, 0, 4139.487, 4191.795, 4168.205, 4169.231, 4142.051, 450, 0, []
1628959426.8659, 102, 0, 4141.026, 4188.205, 4156.41, 4176.41, 4149.231, 450, 0, []
1628959426.8738, 103, 0, 4132.821, 4202.051, 4155.897, 4174.359, 4140, 16196, 0, []
1628959426.8818, 104, 0, 4125.128, 4192.308, 4138.462, 4162.051, 4127.692, 450, 0, []
1628959426.8896, 105, 0, 4137.949, 4181.026, 4146.154, 4170.256, 4141.538, 450, 0, []
1628959426.8976, 106, 0, 4150.769, 4214.359, 4159.487, 4181.538, 4153.846, 450, 0, []
1628959426.9055, 107, 0, 4137.949, 4213.846, 4140.513, 4166.154, 4137.949, 16196, 0, []
1628959426.9135, 108, 0, 4130.256, 4168.718, 4148.718, 4165.128, 4136.923, 450, 0, []
1628959426.9214, 109, 0, 4142.051, 4187.692, 4155.897, 4178.974, 4155.385, 450, 0, []
1628959426.9293, 110, 0, 4137.436, 4243.077, 4152.308, 4174.359, 4145.128, 450, 0, []
1628959426.9372, 111, 0, 4126.667, 4232.821, 4149.231, 4161.026, 4128.718, 16196, 0, []
1628959426.9452, 112, 0, 4134.872, 4192.821, 4152.821, 4168.718, 4146.154, 450, 0, []
1628959426.9532, 113, 0, 4145.641, 4212.821, 4168.718, 4180.513, 4158.462, 450, 0, []
1628959426.9611, 114, 0, 4139.487, 4255.897, 4151.282, 4170.256, 4141.026, 450, 0, []
1628959426.969, 115, 0, 4132.308, 4234.872, 4151.282, 4164.615, 4132.308, 16196, 0, []
1628959426.9769, 116, 0, 4143.077, 4186.667, 4169.744, 4172.308, 4147.692, 450, 0, []
1628959426.9849, 117, 0, 4154.359, 4189.231, 4151.795, 4176.923, 4158.974, 450, 0, []
1628959426.9928, 118, 0, 4156.923, 4204.103, 4153.846, 4177.949, 4157.436, 450, 0, []
1628959427.0008, 119, 0, 4157.436, 4198.974, 4158.974, 4172.308, 4158.974, 16196, 0, []
1628959427.0086, 120, 0, 4156.923, 4192.308, 4154.872, 4164.103, 4159.487, 450, 0, []
1628959427.0166, 121, 0, 4154.359, 4196.41, 4153.846, 4157.436, 4153.846, 450, 0, []
1628959427.0245, 122, 0, 4148.718, 4213.333, 4142.051, 4150.256, 4148.205, 450, 0, []
1628959427.0325, 123, 0, 4154.872, 4242.564, 4160, 4153.846, 4153.333, 16196, 0, []
1628959427.0404, 124, 0, 4176.923, 4251.795, 4176.923, 4175.385, 4168.718, 450, 0, []
1628959427.0483, 125, 0, 4185.641, 4226.667, 4176.923, 4197.436, 4174.359, 450, 0, []
1628959427.0562, 126, 0, 4171.282, 4217.949, 4173.333, 4195.385, 4165.641, 450, 0, []
1628959427.0642, 127, 0, 4164.615, 4232.821, 4154.359, 4182.051, 4165.128, 16196, 0, []
1628959427.0721, 128, 0, 4174.872, 4259.487, 4166.667, 4184.615, 4177.949, 450, 0, []
1628959427.0801, 0, 0, 4178.462, 4278.462, 4174.359, 4189.744, 4189.231, 450, 0, []
1628959427.0879, 1, 0, 4170.769, 4240.513, 4159.487, 4181.538, 4184.103, 450, 0, []
1628959427.0959, 2, 0, 4176.923, 4206.667, 4167.179, 4178.462, 4182.051, 16187, 0, []
1628959427.1039, 3, 0, 4194.359, 4251.795, 4171.282, 4185.641, 4196.41, 450, 0, []
1628959427.1118, 4, 0, 4192.821, 4283.59, 4176.41, 4188.205, 4203.077, 16142, 0, []
1628959427.1198, 5, 0, 4181.538, 4249.744, 4176.41, 4186.667, 4196.41, 450, 0, []
1628959427.1276, 6, 0, 4187.179, 4240, 4173.846, 4192.821, 4200.513, 16103, 0, []
1628959427.1356, 7, 0, 4188.205, 4251.282, 4176.923, 4189.744, 4200.513, 450, 0, []
1628959427.1435, 8, 0, 4188.205, 4231.795, 4163.59, 4182.051, 4196.923, 450, 0, []
1628959427.1515, 9, 0, 4209.744, 4229.231, 4183.077, 4196.41, 4213.333, 16065, 0, []
1628959427.1594, 10, 0, 4212.308, 4246.154, 4188.718, 4195.897, 4214.872, 450, 0, []
1628959427.1673, 11, 0, 4178.462, 4246.667, 4150.256, 4168.205, 4185.641, 16196, 0, []
1628959427.1752, 12, 0, 4161.538, 4250.769, 4160, 4167.692, 4174.872, 450, 0, []
1628959427.1832, 13, 0, 4181.026, 4248.718, 4185.641, 4191.795, 4190.256, 450, 0, []
1628959427.1911, 14, 0, 4189.744, 4228.205, 4189.744, 4205.128, 4193.333, 450, 0, []
1628959427.1991, 15, 0, 4171.795, 4237.949, 4180, 4194.872, 4181.538, 16196, 0, []
1628959427.2069, 16, 0, 4165.128, 4279.487, 4161.538, 4179.487, 4176.41, 0, 0, []
1628959427.2149, 17, 0, 4165.641, 4284.103, 4161.026, 4170.256, 4168.718, 0, 0, []
1628959427.2228, 18, 0, 4154.872, 4276.41, 4142.051, 4157.436, 4157.949, 0, 0, []
1628959427.2308, 19, 0, 4151.795, 4289.231, 4140, 4147.179, 4154.359, 0, 0, []
1628959427.2387, 20, 0, 4167.692, 4250.769, 4173.333, 4152.308, 4169.231, 0, 0, []
1628959427.2466, 21, 0, 4184.103, 4206.667, 4187.692, 4178.462, 4194.359, 0, 0, []
1628959427.2546, 22, 0, 4185.641, 4244.615, 4200, 4208.718, 4203.077, 0, 0, []
1628959427.2625, 23, 0, 4167.179, 4266.667, 4188.718, 4205.641, 4188.718, 0, 0, []
1628959427.2705, 24, 0, 4152.308, 4249.231, 4171.282, 4184.615, 4175.385, 0, 0, []
1628959427.2784, 25, 0, 4154.872, 4274.872, 4168.205, 4175.385, 4169.231, 0, 0, []
1628959427.2864, 26, 0, 4152.821, 4283.077, 4145.641, 4163.077, 4154.359, 0, 0, []
1628959427.2942, 27, 0, 4153.333, 4227.692, 4147.179, 4139.487, 4151.282, 0, 0, []
1628959427.3022, 28, 0, 4174.359, 4226.154, 4164.103, 4131.282, 4174.359, 0, 0, []
1628959427.3101, 29, 0, 4185.128, 4271.282, 4175.385, 4148.718, 4187.179, 0, 0, []
1628959427.3181, 30, 0, 4191.795, 4265.128, 4198.462, 4187.179, 4193.846, 0, 0, []
1628959427.326, 31, 0, 4208.205, 4274.359, 4206.667, 4228.205, 4208.718, 0, 0, []
1628959427.3339, 32, 0, 4196.923, 4314.359, 4201.538, 4229.231, 4198.462, 0, 0, []
1628959427.3418, 33, 0, 4174.359, 4300.513, 4173.846, 4195.385, 4171.795, 0, 0, []
1628959427.3498, 34, 0, 4175.897, 4247.692, 4145.641, 4176.923, 4162.051, 0, 0, []
1628959427.3577, 35, 0, 4180, 4258.462, 4146.154, 4169.744, 4156.41, 0, 0, []
1628959427.3657, 36, 0, 4176.923, 4307.692, 4143.077, 4152.821, 4156.41, 0, 0, []
1628959427.3735, 37, 0, 4182.564, 4299.487, 4164.103, 4151.795, 4168.205, 0, 0, []
1628959427.3815, 38, 0, 4186.154, 4279.487, 4179.487, 4165.128, 4169.231, 0, 0, []
1628959427.3894, 39, 0, 4183.077, 4285.641, 4166.154, 4174.359, 4163.59, 0, 0, []
1628959427.3974, 40, 0, 4181.026, 4280.513, 4173.333, 4188.718, 4172.821, 0, 0, []
1628959427.4054, 41, 0, 4170.769, 4266.154, 4155.897, 4192.308, 4170.769, 0, 0, []
1628959427.4132, 42, 0, 4159.487, 4263.59, 4136.923, 4181.026, 4152.821, 0, 0, []
1628959427.4212, 43, 0, 4168.205, 4255.897, 4143.077, 4171.795, 4156.41, 0, 0, []
1628959427.4291, 44, 0, 4187.692, 4246.154, 4156.923, 4175.385, 4181.538, 0, 0, []
1628959427.4371, 45, 0, 4189.231, 4256.923, 4184.615, 4176.923, 4189.231, 0, 0, []
1628959427.445, 46, 0, 4169.744, 4247.692, 4170.769, 4158.462, 4170.256, 0, 0, []
1628959427.4529, 47, 0, 4162.564, 4236.923, 4158.974, 4146.667, 4161.026, 0, 0, []
1628959427.4608, 48, 0, 4174.872, 4265.641, 4178.974, 4162.564, 4171.795, 0, 0, []
1628959427.4688, 49, 0, 4175.385, 4286.154, 4171.795, 4175.385, 4174.359, 0, 0, []
1628959427.4767, 50, 0, 4163.59, 4273.333, 4162.564, 4170.769, 4165.128, 0, 0, []
1628959427.4847, 51, 0, 4173.846, 4286.154, 4157.436, 4170.769, 4169.744, 0, 0, []
1628959427.4925, 52, 0, 4190.256, 4314.359, 4166.667, 4182.564, 4181.538, 0, 0, []
1628959427.5005, 53, 0, 4178.974, 4301.026, 4166.154, 4178.974, 4174.872, 0, 0, []
1628959427.5084, 54, 0, 4163.077, 4295.385, 4145.128, 4167.179, 4162.051, 0, 0, []
1628959427.5164, 55, 0, 4173.333, 4338.462, 4163.59, 4176.41, 4165.128, 0, 0, []
1628959427.5243, 56, 0, 4189.744, 4350.769, 4173.333, 4186.667, 4178.974, 0, 0, []
1628959427.5322, 57, 0, 4191.282, 4299.487, 4169.744, 4185.128, 4181.026, 0, 0, []
1628959427.5401, 58, 0, 4172.821, 4274.359, 4172.821, 4168.205, 4158.462, 0, 0, []
1628959427.5481, 59, 0, 4165.641, 4294.872, 4164.615, 4156.41, 4148.205, 0, 0, []
1628959427.556, 60, 0, 4176.41, 4307.179, 4184.103, 4174.359, 4163.077, 0, 0, []
1628959427.5638, 61, 0, 4170.769, 4309.744, 4175.385, 4180.513, 4160, 0, 0, []
1628959427.5717, 62, 0, 4178.974, 4315.897, 4151.282, 4175.385, 4169.231, 0, 0, []
1628959427.5796, 63, 0, 4244.103, 4332.821, 4163.59, 4185.128, 4233.846, 0, 0, []
1628959427.5876, 64, 0, 4320.513, 4336.923, 4164.103, 4190.769, 4309.231, 450, 0, []
1628959427.5955, 65, 0, 4376.923, 4327.692, 4174.359, 4196.41, 4378.462, 450, 0, []
1628959427.6035, 66, 0, 4448.718, 4344.103, 4181.026, 4209.744, 4463.077, 16187, 0, []
1628959427.6113, 67, 0, 4508.205, 4345.641, 4164.103, 4203.59, 4517.436, 450, 0, []
1628959427.6193, 68, 0, 4525.128, 4326.154, 4157.436, 4175.897, 4526.667, 16142, 0, []
1628959427.6272, 69, 0, 4541.026, 4345.128, 4158.974, 4167.179, 4543.077, 450, 0, []
1628959427.6352, 70, 0, 4561.026, 4366.667, 4182.564, 4183.59, 4559.487, 16106, 0, []
1628959427.6431, 71, 0, 4555.897, 4354.872, 4185.641, 4188.718, 4547.179, 450, 0, []
1628959427.6509, 72, 0, 4520.513, 4362.564, 4168.718, 4174.359, 4513.333, 450, 0, []
1628959427.6588, 73, 0, 4492.308, 4361.026, 4181.026, 4163.59, 4485.641, 16066, 0, []
1628959427.6667, 74, 0, 4494.359, 4318.462, 4185.128, 4177.436, 4480, 450, 0, []
1628959427.6747, 75, 0, 4482.051, 4323.077, 4192.821, 4204.103, 4473.333, 16197, 0, []
1628959427.6825, 76, 0, 4429.744, 4327.179, 4185.641, 4199.487, 4433.846, 450, 0, []
1628959427.6903, 77, 0, 4390.769, 4287.692, 4166.154, 4174.359, 4388.718, 450, 0, []
1628959427.6981, 78, 0, 4391.282, 4308.205, 4204.103, 4185.128, 4382.564, 450, 0, []
1628959427.706, 79, 0, 4388.718, 4369.744, 4217.949, 4212.308, 4388.205, 16197, 0, []
1628959427.7138, 80, 0, 4368.718, 4373.846, 4196.41, 4210.256, 4371.282, 450, 0, []
1628959427.7218, 81, 0, 4350.769, 4320.513, 4187.692, 4186.667, 4344.103, 450, 0, []
1628959427.7296, 82, 0, 4338.974, 4311.282, 4185.641, 4175.385, 4327.692, 450, 0, []
1628959427.7376, 83, 0, 4336.41, 4353.846, 4205.641, 4178.974, 4324.615, 16197, 0, []
1628959427.7455, 84, 0, 4338.462, 4356.923, 4212.821, 4184.615, 4332.308, 450, 0, []
1628959427.7535, 85, 0, 4320, 4328.205, 4204.615, 4183.077, 4315.385, 450, 0, []
1628959427.7614, 86, 0, 4291.282, 4336.41, 4193.846, 4168.205, 4276.923, 450, 0, []
1628959427.7693, 87, 0, 4292.308, 4348.718, 4183.077, 4173.333, 4280.513, 16197, 0, []
1628959427.7772, 88, 0, 4307.692, 4305.641, 4195.385, 4192.821, 4306.667, 450, 0, []
1628959427.7852, 89, 0, 4293.846, 4292.308, 4182.051, 4185.128, 4288.718, 450, 0, []
1628959427.7931, 90, 0, 4269.231, 4324.615, 4165.128, 4164.103, 4254.872, 450, 0, []
1628959427.8011, 91, 0, 4265.128, 4317.949, 4175.385, 4154.872, 4250.256, 16197, 0, []
1628959427.8089, 92, 0, 4246.154, 4272.308, 4155.897, 4142.051, 4237.949, 450, 0, []
1628959427.8169, 93, 0, 4224.615, 4261.538, 4157.436, 4138.462, 4221.538, 450, 0, []
1628959427.8249, 94, 0, 4257.436, 4307.692, 4197.949, 4172.821, 4249.744, 450, 0, []
1628959427.8328, 95, 0, 4289.744, 4316.923, 4219.487, 4202.564, 4278.462, 16197, 0, []
1628959427.8408, 96, 0, 4263.59, 4283.59, 4197.436, 4183.077, 4256.923, 450, 0, []
1628959427.8486, 97, 0, 4236.41, 4288.718, 4167.692, 4152.821, 4233.333, 450, 0, []
1628959427.8566, 98, 0, 4247.692, 4316.923, 4193.846, 4161.026, 4240.513, 450, 0, []
1628959427.8645, 99, 0, 4251.795, 4302.051, 4201.026, 4171.282, 4241.538, 16197, 0, []
1628959427.8725, 100, 0, 4241.538, 4279.487, 4180, 4164.103, 4231.282, 450, 0, []
1628959427.8805, 101, 0, 4242.051, 4317.436, 4188.718, 4170.256, 4229.231, 450, 0, []
1628959427.8883, 102, 0, 4245.128, 4354.359, 4178.462, 4172.821, 4228.205, 450, 0, []
1628959427.8963, 103, 0, 4243.59, 4349.231, 4176.41, 4167.692, 4230.769, 16197, 0, []
1628959427.9042, 104, 0, 4238.974, 4333.846, 4182.051, 4169.744, 4231.795, 450, 0, []
1628959427.9122, 105, 0, 4227.692, 4323.59, 4163.077, 4171.282, 4215.897, 450, 0, []
1628959427.9201, 106, 0, 4209.744, 4316.923, 4152.821, 4158.974, 4194.359, 450, 0, []
1628959427.928, 107, 0, 4208.205, 4321.026, 4156.923, 4151.282, 4193.846, 16197, 0, []
1628959427.9359, 108, 0, 4230.769, 4344.103, 4186.667, 4174.872, 4214.359, 450, 0, []
1628959427.9439, 109, 0, 4232.308, 4352.308, 4195.897, 4180.513, 4222.564, 450, 0, []
1628959427.9518, 110, 0, 4211.795, 4353.846, 4171.795, 4161.026, 4211.282, 450, 0, []
1628959427.9598, 111, 0, 4228.718, 4383.59, 4180, 4167.692, 4220, 16197, 0, []
1628959427.9677, 112, 0, 4261.538, 4392.308, 4182.051, 4179.487, 4235.897, 450, 0, []
1628959427.9756, 113, 0, 4241.538, 4349.744, 4171.795, 4172.308, 4224.103, 450, 0, []
1628959427.9835, 114, 0, 4208.718, 4311.795, 4165.128, 4163.59, 4208.205, 450, 0, []
1628959427.9915, 115, 0, 4222.051, 4323.59, 4160.513, 4167.179, 4217.436, 16197, 0, []
1628959427.9994, 116, 0, 4238.462, 4367.692, 4179.487, 4176.923, 4226.154, 450, 0, []
1628959428.0074, 117, 0, 4214.872, 4385.128, 4166.667, 4172.821, 4211.795, 450, 0, []
1628959428.0152, 118, 0, 4189.744, 4357.949, 4154.359, 4157.949, 4193.846, 450, 0, []
1628959428.0232, 119, 0, 4206.154, 4364.103, 4186.154, 4170.256, 4201.026, 16197, 0, []
1628959428.0312, 120, 0, 4235.897, 4410.256, 4193.333, 4197.949, 4225.128, 450, 0, []
1628959428.0391, 121, 0, 4233.846, 4395.897, 4178.462, 4192.821, 4224.103, 450, 0, []
1628959428.0471, 122, 0, 4217.949, 4362.051, 4165.641, 4171.795, 4204.615, 450, 0, []
1628959428.0549, 123, 0, 4214.872, 4375.385, 4171.282, 4172.308, 4197.949, 16197, 0, []
1628959428.0629, 124, 0, 4208.205, 4363.077, 4175.385, 4170.769, 4198.462, 450, 0, []
1628959428.0708, 125, 0, 4200.513, 4334.359, 4158.974, 4168.205, 4201.538, 450, 0, []
1628959428.0788, 126, 0, 4200, 4338.462, 4165.641, 4168.718, 4196.41, 450, 0, []
1628959428.0867, 127, 0, 4194.872, 4349.231, 4156.923, 4156.41, 4181.026, 16197, 0, []
1628959428.0946, 128, 0, 4206.667, 4366.667, 4156.923, 4163.077, 4190.769, 450, 0, []
1628959428.1026, 0, 0, 4235.897, 4382.564, 4195.385, 4190.769, 4224.103, 450, 0, []
1628959428.1105, 1, 0, 4235.385, 4365.641, 4183.077, 4182.564, 4223.077, 450, 0, []
1628959428.1184, 2, 0, 4209.231, 4347.179, 4156.41, 4153.846, 4192.821, 16187, 0, []
1628959428.1264, 3, 0, 4212.821, 4347.179, 4161.538, 4156.923, 4194.359, 450, 0, []
1628959428.1342, 4, 0, 4231.795, 4333.846, 4165.128, 4173.846, 4212.821, 16143, 0, []
1628959428.1422, 5, 0, 4221.026, 4323.077, 4156.41, 4168.205, 4203.077, 450, 0, []
1628959428.1501, 6, 0, 4200.513, 4337.949, 4140.513, 4157.949, 4184.615, 16098, 0, []
1628959428.1581, 7, 0, 4198.462, 4337.949, 4158.974, 4163.077, 4183.59, 450, 0, []
1628959428.1661, 8, 0, 4203.077, 4326.667, 4164.103, 4161.538, 4185.128, 450, 0, []
1628959428.1739, 9, 0, 4209.231, 4322.564, 4148.205, 4151.795, 4183.077, 16067, 0, []
1628959428.1819, 10, 0, 4213.846, 4314.359, 4164.615, 4152.308, 4181.026, 450, 0, []
1628959428.1898, 11, 0, 4210.769, 4311.282, 4158.462, 4152.821, 4175.897, 16197, 0, []
1628959428.1978, 12, 0, 4207.179, 4324.103, 4155.897, 4156.923, 4173.846, 450, 0, []
1628959428.2057, 13, 0, 4205.128, 4344.103, 4165.128, 4166.154, 4174.359, 450, 0, []
1628959428.2136, 14, 0, 4202.564, 4343.077, 4155.385, 4171.795, 4174.359, 450, 0, []
1628959428.2215, 15, 0, 4209.744, 4315.897, 4170.769, 4184.103, 4185.641, 16197, 0, []
1628959428.2295, 16, 0, 4211.282, 4310.769, 4171.282, 4184.615, 4189.744, 0, 0, []
1628959428.2374, 17, 0, 4191.795, 4332.821, 4153.333, 4168.205, 4169.231, 0, 0, []
1628959428.2454, 18, 0, 4187.692, 4337.949, 4161.538, 4165.128, 4166.667, 0, 0, []
1628959428.2532, 19, 0, 4200, 4322.051, 4173.846, 4177.949, 4186.154, 0, 0, []
1628959428.2612, 20, 0, 4203.59, 4324.615, 4188.205, 4183.59, 4190.769, 0, 0, []
1628959428.2691, 21, 0, 4204.103, 4336.41, 4177.949, 4175.897, 4191.282, 0, 0, []
1628959428.2771, 22, 0, 4194.872, 4324.615, 4161.538, 4167.179, 4188.205, 0, 0, []
1628959428.285, 23, 0, 4192.821, 4320, 4167.692, 4167.179, 4183.077, 0, 0, []
1628959428.2929, 24, 0, 4211.795, 4331.795, 4178.974, 4178.974, 4193.846, 0, 0, []
1628959428.3008, 25, 0, 4216.923, 4330.256, 4200.513, 4188.718, 4204.103, 0, 0, []
1628959428.3088, 26, 0, 4202.051, 4312.308, 4188.205, 4180.513, 4189.231, 0, 0, []
1628959428.3168, 27, 0, 4191.282, 4294.872, 4166.667, 4160.513, 4168.205, 0, 0, []
1628959428.3247, 28, 0, 4187.179, 4293.333, 4170.769, 4150.256, 4167.179, 0, 0, []
1628959428.3326, 29, 0, 4190.256, 4302.564, 4161.538, 4157.949, 4175.385, 0, 0, []
1628959428.3405, 30, 0, 4195.897, 4301.538, 4163.59, 4171.795, 4172.821, 0, 0, []
1628959428.3485, 31, 0, 4194.872, 4288.205, 4169.231, 4175.385, 4172.821, 0, 0, []
1628959428.3564, 32, 0, 4197.949, 4271.795, 4172.821, 4186.667, 4184.615, 0, 0, []
1628959428.3644, 33, 0, 4206.154, 4267.692, 4180, 4196.41, 4183.077, 0, 0, []
1628959428.3723, 34, 0, 4207.179, 4284.615, 4162.564, 4182.564, 4172.308, 0, 0, []
1628959428.3802, 35, 0, 4213.333, 4316.923, 4167.692, 4174.872, 4182.051, 0, 0, []
1628959428.3881, 36, 0, 4218.462, 4304.615, 4173.846, 4173.333, 4190.256, 0, 0, []
1628959428.3961, 37, 0, 4214.872, 4258.462, 4163.59, 4165.641, 4179.487, 0, 0, []
1628959428.404, 38, 0, 4225.128, 4273.333, 4186.154, 4173.846, 4186.154, 0, 0, []
1628959428.412, 39, 0, 4237.949, 4304.615, 4191.282, 4188.205, 4202.051, 0, 0, []
1628959428.4198, 40, 0, 4235.385, 4281.026, 4183.077, 4186.154, 4194.359, 0, 0, []
1628959428.4278, 41, 0, 4232.308, 4272.308, 4176.923, 4185.128, 4181.538, 0, 0, []
1628959428.4357, 42, 0, 4231.795, 4297.436, 4171.282, 4190.256, 4182.564, 0, 0, []
1628959428.4437, 43, 0, 4230.769, 4302.564, 4184.103, 4190.256, 4185.641, 0, 0, []
1628959428.4516, 44, 0, 4232.821, 4315.385, 4171.282, 4186.667, 4186.667, 0, 0, []
1628959428.4595, 45, 0, 4230.256, 4336.923, 4164.615, 4187.179, 4182.051, 0, 0, []
1628959428.4674, 46, 0, 4222.051, 4309.744, 4171.282, 4184.615, 4172.821, 0, 0, []
1628959428.4754, 47, 0, 4233.846, 4313.333, 4175.897, 4193.333, 4180.513, 0, 0, []
1628959428.4833, 48, 0, 4246.667, 4362.564, 4192.821, 4201.538, 4192.308, 0, 0, []
1628959428.4913, 49, 0, 4226.667, 4354.359, 4166.154, 4179.487, 4175.385, 0, 0, []
1628959428.4992, 50, 0, 4208.205, 4326.667, 4147.692, 4171.795, 4158.974, 0, 0, []
1628959428.5071, 51, 0, 4221.538, 4316.41, 4176.923, 4193.333, 4169.231, 0, 0, []
1628959428.5151, 52, 0, 4232.308, 4307.692, 4185.641, 4201.538, 4175.385, 0, 0, []
1628959428.523, 53, 0, 4213.846, 4322.564, 4183.59, 4184.615, 4154.359, 0, 0, []
1628959428.531, 54, 0, 4194.872, 4313.846, 4172.821, 4169.231, 4135.897, 0, 0, []
1628959428.5388, 55, 0, 4198.974, 4275.385, 4167.692, 4178.974, 4146.154, 0, 0, []
1628959428.5468, 56, 0, 4217.436, 4301.026, 4177.949, 4201.026, 4176.923, 0, 0, []
1628959428.5547, 57, 0, 4224.103, 4333.333, 4167.179, 4205.128, 4198.974, 0, 0, []
1628959428.5627, 58, 0, 4211.795, 4294.359, 4156.923, 4193.846, 4193.333, 0, 0, []
1628959428.5706, 59, 0, 4217.436, 4289.231, 4157.949, 4200, 4200.513, 0, 0, []
1628959428.5785, 60, 0, 4250.256, 4343.077, 4182.051, 4229.231, 4230.256, 0, 0, []
1628959428.5864, 61, 0, 4253.333, 4358.462, 4195.897, 4233.846, 4229.231, 0, 0, []
1628959428.5944, 62, 0, 4227.179, 4326.667, 4164.615, 4205.128, 4202.051, 0, 0, []
1628959428.6023, 63, 0, 4221.538, 4314.359, 4171.282, 4202.051, 4196.923, 0, 0, []
1628959428.6103, 64, 0, 4221.026, 4323.59, 4178.974, 4206.154, 4193.333, 450, 0, []
1628959428.6181, 65, 0, 4209.744, 4311.282, 4154.359, 4193.333, 4183.077, 450, 0, []
1628959428.6261, 66, 0, 4223.077, 4306.667, 4173.846, 4201.538, 4198.462, 16187, 0, []
1628959428.634, 67, 0, 4242.564, 4344.103, 4191.282, 4213.333, 4206.667, 450, 0, []
1628959428.642, 68, 0, 4220, 4334.872, 4171.795, 4188.205, 4176.41, 16143, 0, []
1628959428.6499, 69, 0, 4200.513, 4293.846, 4150.769, 4162.051, 4160.513, 450, 0, []
1628959428.6577, 70, 0, 4217.949, 4316.41, 4160, 4182.051, 4177.436, 16104, 0, []
1628959428.6656, 71, 0, 4228.205, 4341.538, 4184.103, 4207.692, 4183.077, 450, 0, []
1628959428.6736, 72, 0, 4216.923, 4318.462, 4171.795, 4208.205, 4178.974, 450, 0, []
1628959428.6816, 73, 0, 4214.359, 4306.667, 4172.308, 4209.744, 4181.026, 16070, 0, []
1628959428.6895, 74, 0, 4221.026, 4326.154, 4168.718, 4211.795, 4177.436, 450, 0, []
1628959428.6974, 75, 0, 4218.974, 4345.128, 4150.769, 4204.615, 4172.821, 16200, 0, []
1628959428.7053, 76, 0, 4217.436, 4331.282, 4176.41, 4204.103, 4179.487, 450, 0, []
1628959428.7133, 77, 0, 4223.077, 4306.154, 4174.359, 4206.154, 4188.205, 450, 0, []
1628959428.7212, 78, 0, 4220, 4284.615, 4160.513, 4200.513, 4186.667, 450, 0, []
1628959428.7292, 79, 0, 4205.641, 4251.282, 4165.641, 4190.769, 4176.41, 16200, 0, []
1628959428.737, 80, 0, 4196.41, 4236.923, 4157.436, 4185.128, 4165.128, 450, 0, []
1628959428.745, 81, 0, 4204.615, 4245.641, 4169.744, 4188.718, 4169.744, 450, 0, []
1628959428.7529, 82, 0, 4204.103, 4206.154, 4159.487, 4181.538, 4173.333, 450, 0, []
1628959428.7609, 83, 0, 4194.872, 4189.231, 4146.154, 4176.923, 4165.128, 16200, 0, []
1628959428.7688, 84, 0, 4207.179, 4223.59, 4172.308, 4194.872, 4174.359, 450, 0, []
1628959428.7768, 85, 0, 4219.487, 4215.385, 4189.744, 4208.718, 4187.179, 450, 0, []
1628959428.7846, 86, 0, 4207.692, 4200.513, 4192.821, 4204.615, 4186.667, 450, 0, []
1628959428.7924, 87, 0, 4201.026, 4213.333, 4174.359, 4196.41, 4188.718, 16200, 0, []
1628959428.8004, 88, 0, 4204.103, 4184.103, 4167.179, 4186.667, 4184.103, 450, 0, []
1628959428.8083, 89, 0, 4200.513, 4158.462, 4176.923, 4177.949, 4168.205, 450, 0, []
1628959428.8163, 90, 0, 4205.128, 4193.333, 4172.821, 4184.615, 4170.769, 450, 0, []
1628959428.8241, 91, 0, 4217.949, 4213.846, 4180, 4205.128, 4188.205, 16200, 0, []
1628959428.8321, 92, 0, 4214.359, 4180.513, 4173.333, 4208.718, 4185.641, 450, 0, []
1628959428.84, 93, 0, 4202.051, 4143.077, 4165.128, 4195.385, 4169.744, 450, 0, []
1628959428.848, 94, 0, 4202.564, 4147.692, 4172.308, 4182.051, 4166.154, 450, 0, []
1628959428.8559, 95, 0, 4203.59, 4172.821, 4159.487, 4174.359, 4169.231, 16200, 0, []
1628959428.8638, 96, 0, 4200, 4174.872, 4170.769, 4180, 4167.692, 450, 0, []
1628959428.8717, 97, 0, 4208.205, 4161.538, 4186.667, 4192.308, 4172.821, 450, 0, []
1628959428.8797, 98, 0, 4224.103, 4147.692, 4187.179, 4204.103, 4190.769, 450, 0, []
1628959428.8876, 99, 0, 4220, 4152.308, 4191.795, 4202.564, 4192.308, 16200, 0, []
1628959428.8956, 100, 0, 4193.846, 4169.744, 4162.051, 4183.59, 4169.231, 450, 0, []
1628959428.9035, 101, 0, 4187.692, 4166.667, 4155.897, 4180.513, 4166.667, 450, 0, []
1628959428.9114, 102, 0, 4209.231, 4157.949, 4181.538, 4190.769, 4189.744, 450, 0, []
1628959428.9193, 103, 0, 4213.846, 4152.821, 4184.615, 4190.256, 4193.333, 16200, 0, []
1628959428.9273, 104, 0, 4199.487, 4127.692, 4191.282, 4188.718, 4184.615, 450, 0, []
1628959428.9352, 105, 0, 4197.436, 4129.231, 4180, 4188.718, 4185.128, 450, 0, []
1628959428.9429, 106, 0, 4197.949, 4172.821, 4164.103, 4174.872, 4175.897, 450, 0, []
1628959428.9509, 107, 0, 4198.462, 4176.41, 4169.231, 4172.308, 4169.231, 16200, 0, []
1628959428.9588, 108, 0, 4214.872, 4146.154, 4188.718, 4204.103, 4184.615, 450, 0, []
1628959428.9668, 109, 0, 4223.077, 4138.974, 4209.231, 4219.487, 4190.769, 450, 0, []
1628959428.9747, 110, 0, 4214.872, 4153.846, 4189.744, 4194.359, 4181.026, 450, 0, []
1628959428.9826, 111, 0, 4214.872, 4167.692, 4185.128, 4187.692, 4183.077, 16200, 0, []
1628959428.9905, 112, 0, 4220.513, 4149.231, 4196.923, 4202.564, 4190.769, 450, 0, []
1628959428.9985, 113, 0, 4218.462, 4126.667, 4191.282, 4203.59, 4193.846, 450, 0, []
1628959429.0064, 114, 0, 4219.487, 4137.949, 4202.564, 4201.538, 4201.026, 450, 0, []
1628959429.0144, 115, 0, 4214.872, 4151.795, 4188.205, 4191.282, 4195.897, 16200, 0, []
1628959429.0222, 116, 0, 4196.923, 4167.692, 4173.846, 4176.41, 4174.359, 450, 0, []
1628959429.0302, 117, 0, 4184.103, 4192.821, 4178.462, 4173.333, 4163.59, 450, 0, []
1628959429.0381, 118, 0, 4182.051, 4187.692, 4163.077, 4181.538, 4164.103, 450, 0, []
