Timestamp, COUNTER, INTERPOLATED, AF3, T7, Pz, T8, AF4, RAW_CQ, MARKER_HARDWARE, MARKERS
1627624562.6964, 116, 0, 4237.436, 4354.359, 4169.744, 4168.718, 4217.436, 450, 0, []
1627624562.7043, 117, 0, 4234.872, 4353.333, 4238.462, 4171.795, 4209.744, 450, 0, []
1627624562.712, 118, 0, 4240, 4354.359, 4208.718, 4169.231, 4207.179, 450, 0, []
1627624562.7199, 119, 0, 4242.051, 4351.795, 4204.103, 4164.615, 4206.667, 16195, 0, []
1627624562.7277, 120, 0, 4235.385, 4349.231, 4228.718, 4158.974, 4208.205, 450, 0, []
1627624562.7356, 121, 0, 4230.256, 4344.103, 4185.128, 4156.923, 4214.359, 450, 0, []
1627624562.7434, 122, 0, 4222.564, 4336.923, 4225.128, 4155.385, 4207.692, 450, 0, []
1627624562.7512, 123, 0, 4211.282, 4328.718, 4166.667, 4147.692, 4193.846, 16195, 0, []
1627624562.759, 124, 0, 4215.385, 4336.41, 4155.385, 4148.718, 4196.923, 450, 0, []
1627624562.767, 125, 0, 4228.718, 4358.462, 4206.154, 4164.103, 4204.615, 450, 0, []
1627624562.7749, 126, 0, 4219.487, 4357.949, 4161.538, 4166.154, 4196.923, 450, 0, []
1627624562.7829, 127, 0, 4212.821, 4350.769, 4221.538, 4157.436, 4192.308, 16195, 0, []
1627624562.7907, 128, 0, 4239.487, 4365.641, 4216.923, 4169.231, 4211.282, 450, 0, []
1627624562.7987, 0, 0, 4252.821, 4377.436, 4190.256, 4182.051, 4220.513, 450, 0, []
1627624562.8066, 1, 0, 4221.538, 4353.846, 4210.769, 4161.026, 4191.795, 450, 0, []
1627624562.8146, 2, 0, 4213.846, 4331.795, 4166.667, 4151.282, 4185.128, 16179, 0, []
1627624562.8225, 3, 0, 4247.692, 4346.667, 4213.333, 4182.564, 4225.641, 450, 0, []
1627624562.8304, 4, 0, 4254.359, 4344.615, 4181.026, 4194.359, 4241.538, 16123, 0, []
1627624562.8383, 5, 0, 4243.59, 4324.615, 4151.795, 4175.385, 4229.231, 450, 0, []
1627624562.8461, 6, 0, 4250.769, 4328.718, 4206.154, 4168.718, 4237.949, 310, 0, []
1627624562.854, 7, 0, 4246.667, 4331.795, 4146.667, 4170.256, 4236.41, 450, 0, []
1627624562.8618, 8, 0, 4229.231, 4332.821, 4173.846, 4162.564, 4212.821, 450, 0, []
1627624562.8696, 9, 0, 4230.256, 4344.615, 4176.923, 4165.128, 4213.846, 16169, 0, []
1627624562.8774, 10, 0, 4225.641, 4347.692, 4150.769, 4164.103, 4209.744, 450, 0, []
1627624562.8853, 11, 0, 4211.282, 4344.615, 4217.436, 4149.744, 4185.128, 16194, 0, []
1627624562.8931, 12, 0, 4216.41, 4347.692, 4181.026, 4157.436, 4185.641, 450, 0, []
1627624562.9011, 13, 0, 4224.615, 4354.359, 4202.051, 4173.333, 4205.641, 450, 0, []
1627624562.9089, 14, 0, 4224.103, 4352.308, 4207.692, 4167.179, 4209.231, 450, 0, []
1627624562.9169, 15, 0, 4228.205, 4343.59, 4168.718, 4162.051, 4204.103, 16194, 0, []
1627624562.9248, 16, 0, 4220, 4337.436, 4209.744, 4160.513, 4199.487, 0, 0, []
1627624562.9328, 17, 0, 4202.051, 4334.872, 4153.846, 4149.231, 4194.359, 0, 0, []
1627624562.9407, 18, 0, 4222.564, 4355.897, 4174.872, 4158.462, 4214.359, 0, 0, []
1627624562.9486, 19, 0, 4249.231, 4370.256, 4196.923, 4178.462, 4236.41, 0, 0, []
1627624562.9565, 20, 0, 4233.333, 4351.795, 4150.769, 4167.692, 4217.436, 0, 0, []
1627624562.9644, 21, 0, 4232.821, 4355.385, 4213.846, 4166.667, 4210.769, 0, 0, []
1627624562.9723, 22, 0, 4259.487, 4376.41, 4192.308, 4193.846, 4243.077, 0, 0, []
1627624562.9801, 23, 0, 4264.103, 4382.051, 4203.59, 4202.051, 4251.795, 0, 0, []
1627624562.988, 24, 0, 4258.974, 4382.564, 4223.59, 4197.436, 4238.462, 0, 0, []
1627624562.9959, 25, 0, 4265.128, 4383.077, 4179.487, 4201.538, 4242.564, 0, 0, []
1627624563.0038, 26, 0, 4257.949, 4383.59, 4241.538, 4191.282, 4243.59, 0, 0, []
1627624563.0116, 27, 0, 4252.308, 4380, 4209.744, 4184.615, 4234.359, 0, 0, []
1627624563.0195, 28, 0, 4267.179, 4380.513, 4205.128, 4197.949, 4241.026, 0, 0, []
1627624563.0272, 29, 0, 4280, 4383.077, 4241.026, 4207.179, 4259.487, 0, 0, []
1627624563.0351, 30, 0, 4276.923, 4375.385, 4189.231, 4204.103, 4264.615, 0, 0, []
1627624563.0429, 31, 0, 4256.41, 4362.564, 4234.359, 4191.282, 4244.615, 0, 0, []
1627624563.0508, 32, 0, 4231.282, 4337.949, 4203.077, 4168.718, 4214.359, 0, 0, []
1627624563.0586, 33, 0, 4225.641, 4322.564, 4169.744, 4158.462, 4207.692, 0, 0, []
1627624563.0665, 34, 0, 4241.538, 4330.769, 4200, 4172.308, 4225.641, 0, 0, []
1627624563.0744, 35, 0, 4249.744, 4325.641, 4149.744, 4181.538, 4233.846, 0, 0, []
1627624563.0824, 36, 0, 4239.487, 4312.308, 4187.692, 4175.897, 4224.615, 0, 0, []
1627624563.0903, 37, 0, 4229.744, 4312.821, 4174.359, 4173.846, 4214.359, 0, 0, []
1627624563.0983, 38, 0, 4232.821, 4318.462, 4155.897, 4173.333, 4212.308, 0, 0, []
1627624563.1061, 39, 0, 4232.308, 4313.846, 4204.103, 4166.667, 4213.333, 0, 0, []
1627624563.1141, 40, 0, 4227.179, 4303.59, 4153.846, 4172.308, 4218.462, 0, 0, []
1627624563.122, 41, 0, 4232.308, 4310.769, 4197.436, 4184.615, 4225.641, 0, 0, []
1627624563.13, 42, 0, 4234.359, 4313.333, 4201.538, 4171.795, 4218.462, 0, 0, []
1627624563.1379, 43, 0, 4231.795, 4301.538, 4169.744, 4155.385, 4211.795, 0, 0, []
1627624563.1457, 44, 0, 4233.333, 4293.846, 4223.077, 4163.59, 4216.41, 0, 0, []
1627624563.1535, 45, 0, 4231.795, 4284.103, 4174.872, 4168.205, 4214.872, 0, 0, []
1627624563.1613, 46, 0, 4231.282, 4274.872, 4191.795, 4165.128, 4211.795, 0, 0, []
1627624563.1692, 47, 0, 4236.41, 4264.103, 4185.641, 4166.667, 4217.949, 0, 0, []
1627624563.177, 48, 0, 4240.513, 4256.41, 4140.513, 4158.462, 4214.359, 0, 0, []
1627624563.1849, 49, 0, 4241.538, 4248.205, 4192.308, 4138.462, 4206.667, 0, 0, []
1627624563.1926, 50, 0, 4262.564, 4223.077, 4139.487, 4131.282, 4230.256, 0, 0, []
1627624563.2005, 51, 0, 4321.026, 4211.282, 4152.821, 4146.154, 4287.692, 0, 0, []
1627624563.2083, 52, 0, 4381.026, 4208.205, 4179.487, 4152.308, 4336.41, 0, 0, []
1627624563.2163, 53, 0, 4428.205, 4197.949, 4143.59, 4151.795, 4386.154, 0, 0, []
1627624563.2242, 54, 0, 4498.462, 4207.179, 4207.692, 4174.359, 4467.692, 0, 0, []
1627624563.2321, 55, 0, 4555.897, 4212.821, 4183.59, 4192.821, 4528.718, 0, 0, []
1627624563.24, 56, 0, 4554.359, 4210.256, 4193.333, 4190.769, 4534.872, 0, 0, []
1627624563.248, 57, 0, 4525.641, 4227.692, 4211.282, 4207.692, 4532.308, 0, 0, []
1627624563.2559, 58, 0, 4471.795, 4235.897, 4145.128, 4221.026, 4500, 0, 0, []
1627624563.2639, 59, 0, 4383.59, 4225.641, 4185.128, 4207.179, 4422.051, 0, 0, []
1627624563.2717, 60, 0, 4315.897, 4220.513, 4156.41, 4202.564, 4362.051, 0, 0, []
1627624563.2797, 61, 0, 4269.744, 4213.333, 4150.769, 4187.179, 4317.436, 0, 0, []
1627624563.2876, 62, 0, 4228.205, 4207.692, 4178.462, 4159.487, 4269.744, 0, 0, []
1627624563.2954, 63, 0, 4217.949, 4221.538, 4138.462, 4172.821, 4253.846, 0, 0, []
1627624563.3033, 64, 0, 4216.923, 4234.359, 4213.333, 4195.385, 4250.769, 450, 0, []
1627624563.311, 65, 0, 4191.795, 4218.974, 4201.026, 4188.718, 4224.615, 450, 0, []
1627624563.3189, 66, 0, 4169.744, 4206.154, 4177.949, 4182.051, 4205.641, 16185, 0, []
1627624563.3267, 67, 0, 4161.538, 4205.128, 4205.128, 4180.513, 4203.077, 450, 0, []
1627624563.3346, 68, 0, 4147.179, 4197.949, 4131.282, 4170.256, 4188.205, 16143, 0, []
1627624563.3424, 69, 0, 4134.872, 4207.179, 4162.564, 4159.487, 4168.205, 450, 0, []
1627624563.3502, 70, 0, 4133.846, 4229.231, 4156.41, 4151.282, 4156.923, 278, 0, []
1627624563.358, 71, 0, 4131.282, 4237.436, 4149.231, 4147.692, 4151.795, 450, 0, []
1627624563.366, 72, 0, 4122.564, 4228.718, 4211.282, 4149.744, 4148.205, 450, 0, []
1627624563.3739, 73, 0, 4116.923, 4207.692, 4150.769, 4149.744, 4145.641, 16171, 0, []
1627624563.3819, 74, 0, 4121.026, 4201.538, 4164.103, 4154.872, 4150.256, 450, 0, []
1627624563.3897, 75, 0, 4123.077, 4208.205, 4146.667, 4161.538, 4156.41, 16194, 0, []
1627624563.3977, 76, 0, 4120, 4207.179, 4114.359, 4156.923, 4151.795, 450, 0, []
1627624563.4056, 77, 0, 4130.256, 4211.795, 4189.231, 4159.487, 4150.256, 450, 0, []
1627624563.4136, 78, 0, 4148.205, 4223.077, 4157.436, 4176.923, 4165.128, 450, 0, []
1627624563.4215, 79, 0, 4145.641, 4233.846, 4163.59, 4179.487, 4168.718, 16194, 0, []
1627624563.4294, 80, 0, 4135.897, 4238.462, 4151.282, 4164.615, 4158.974, 450, 0, []
1627624563.4373, 81, 0, 4145.128, 4251.282, 4126.667, 4172.308, 4166.667, 450, 0, []
1627624563.4453, 82, 0, 4153.333, 4271.795, 4193.333, 4186.667, 4177.436, 450, 0, []
1627624563.4532, 83, 0, 4122.051, 4251.282, 4146.667, 4163.077, 4146.154, 16194, 0, []
1627624563.461, 84, 0, 4077.436, 4216.923, 4163.59, 4129.231, 4100, 450, 0, []
1627624563.4688, 85, 0, 4077.436, 4208.718, 4170.256, 4128.718, 4104.615, 450, 0, []
1627624563.4766, 86, 0, 4114.359, 4213.846, 4115.897, 4145.128, 4140.513, 450, 0, []
1627624563.4845, 87, 0, 4136.41, 4230.256, 4179.487, 4155.385, 4164.615, 16194, 0, []
1627624563.4923, 88, 0, 4126.667, 4231.282, 4151.282, 4156.923, 4159.487, 450, 0, []
1627624563.5002, 89, 0, 4103.59, 4214.359, 4151.282, 4141.026, 4129.744, 450, 0, []
1627624563.5079, 90, 0, 4090.769, 4215.385, 4164.103, 4133.846, 4114.872, 450, 0, []
1627624563.5158, 91, 0, 4093.846, 4229.744, 4106.154, 4148.205, 4122.051, 16194, 0, []
1627624563.5236, 92, 0, 4090.256, 4229.744, 4160, 4141.026, 4116.41, 450, 0, []
1627624563.5316, 93, 0, 4082.051, 4214.872, 4146.154, 4121.538, 4101.538, 450, 0, []
1627624563.5395, 94, 0, 4088.718, 4210.256, 4149.744, 4128.718, 4106.667, 450, 0, []
1627624563.5474, 95, 0, 4086.667, 4202.564, 4164.615, 4132.821, 4103.077, 16194, 0, []
1627624563.5553, 96, 0, 4072.308, 4189.744, 4107.179, 4119.487, 4087.692, 450, 0, []
1627624563.5633, 97, 0, 4084.103, 4208.205, 4178.974, 4134.872, 4100.513, 450, 0, []
1627624563.5712, 98, 0, 4117.436, 4228.205, 4172.821, 4167.179, 4124.615, 450, 0, []
1627624563.5792, 99, 0, 4122.564, 4217.949, 4149.231, 4163.077, 4126.154, 16194, 0, []
1627624563.587, 100, 0, 4102.564, 4207.179, 4163.59, 4133.333, 4115.385, 450, 0, []
1627624563.595, 101, 0, 4103.077, 4214.872, 4104.103, 4128.718, 4120.513, 450, 0, []
1627624563.6029, 102, 0, 4124.615, 4229.744, 4178.462, 4152.821, 4138.462, 450, 0, []
1627624563.6107, 103, 0, 4130.769, 4222.564, 4185.128, 4162.564, 4144.103, 16194, 0, []
1627624563.6186, 104, 0, 4121.538, 4211.795, 4145.641, 4157.436, 4133.333, 450, 0, []
1627624563.6263, 105, 0, 4120.513, 4217.949, 4173.333, 4160, 4127.692, 450, 0, []
1627624563.6342, 106, 0, 4116.923, 4222.564, 4123.59, 4161.538, 4125.128, 450, 0, []
1627624563.642, 107, 0, 4112.821, 4233.333, 4177.436, 4160.513, 4125.128, 16194, 0, []
1627624563.6499, 108, 0, 4130.256, 4249.231, 4196.923, 4168.718, 4142.051, 450, 0, []
1627624563.6577, 109, 0, 4149.231, 4254.872, 4172.821, 4169.744, 4159.487, 450, 0, []
1627624563.6655, 110, 0, 4146.154, 4254.359, 4209.744, 4162.051, 4160, 450, 0, []
1627624563.6733, 111, 0, 4123.077, 4245.128, 4144.615, 4150.769, 4136.41, 16194, 0, []
1627624563.6813, 112, 0, 4101.026, 4248.205, 4165.641, 4140, 4105.128, 450, 0, []
1627624563.6892, 113, 0, 4097.436, 4267.692, 4182.564, 4143.077, 4098.974, 450, 0, []
1627624563.6972, 114, 0, 4110.769, 4271.282, 4164.615, 4153.846, 4123.077, 450, 0, []
1627624563.705, 115, 0, 4136.923, 4262.564, 4223.077, 4158.462, 4154.872, 16194, 0, []
1627624563.713, 116, 0, 4141.538, 4254.872, 4165.128, 4150.256, 4155.385, 450, 0, []
1627624563.7209, 117, 0, 4115.897, 4250.769, 4167.692, 4128.718, 4129.231, 450, 0, []
1627624563.7289, 118, 0, 4107.692, 4255.897, 4177.949, 4125.128, 4124.103, 450, 0, []
1627624563.7368, 119, 0, 4118.974, 4263.59, 4154.872, 4145.128, 4133.846, 16194, 0, []
1627624563.7447, 120, 0, 4110.769, 4262.051, 4225.641, 4150.256, 4123.59, 450, 0, []
1627624563.7526, 121, 0, 4090.256, 4237.436, 4163.077, 4132.308, 4101.538, 450, 0, []
1627624563.7604, 122, 0, 4085.641, 4224.103, 4156.41, 4121.538, 4092.308, 450, 0, []
1627624563.7683, 123, 0, 4096.923, 4237.436, 4200, 4128.718, 4100, 16194, 0, []
1627624563.7761, 124, 0, 4114.359, 4245.641, 4167.179, 4142.051, 4117.436, 450, 0, []
1627624563.7839, 125, 0, 4126.667, 4247.179, 4215.897, 4148.718, 4128.718, 450, 0, []
1627624563.7917, 126, 0, 4130.256, 4249.231, 4174.359, 4143.59, 4131.795, 450, 0, []
1627624563.7996, 127, 0, 4127.179, 4253.846, 4155.897, 4131.282, 4130.256, 16194, 0, []
1627624563.8074, 128, 0, 4109.744, 4256.41, 4187.179, 4128.205, 4118.462, 450, 0, []
1627624563.8153, 0, 0, 4108.205, 4260.513, 4167.179, 4147.692, 4117.436, 450, 0, []
1627624563.823, 1, 0, 4134.872, 4273.846, 4228.205, 4165.128, 4132.821, 450, 0, []
1627624563.831, 2, 0, 4147.179, 4268.718, 4180, 4152.821, 4124.103, 16185, 0, []
1627624563.8389, 3, 0, 4135.385, 4254.359, 4160, 4138.974, 4095.385, 450, 0, []
1627624563.8469, 4, 0, 4122.051, 4255.385, 4202.564, 4134.359, 4077.949, 16119, 0, []
1627624563.8548, 5, 0, 4115.897, 4260.513, 4140.513, 4124.103, 4070.769, 450, 0, []
1627624563.8627, 6, 0, 4118.462, 4266.667, 4193.333, 4118.974, 4074.359, 318, 0, []
1627624563.8706, 7, 0, 4122.564, 4258.462, 4191.795, 4121.538, 4083.59, 450, 0, []
1627624563.8786, 8, 0, 4122.051, 4244.103, 4146.154, 4128.205, 4085.128, 450, 0, []
1627624563.8865, 9, 0, 4122.564, 4251.795, 4174.872, 4133.846, 4083.077, 16171, 0, []
1627624563.8945, 10, 0, 4117.436, 4259.487, 4136.923, 4128.718, 4077.949, 450, 0, []
1627624563.9024, 11, 0, 4106.667, 4254.359, 4186.154, 4116.923, 4066.154, 16194, 0, []
1627624563.9102, 12, 0, 4106.667, 4244.615, 4185.641, 4116.923, 4061.538, 450, 0, []
1627624563.9181, 13, 0, 4121.538, 4247.692, 4147.179, 4134.872, 4081.538, 450, 0, []
1627624563.9259, 14, 0, 4131.795, 4260.513, 4183.59, 4146.667, 4101.538, 450, 0, []
1627624563.9338, 15, 0, 4117.949, 4254.872, 4132.821, 4133.846, 4087.179, 16194, 0, []
1627624563.9416, 16, 0, 4108.718, 4254.359, 4169.231, 4125.128, 4073.846, 0, 0, []
1627624563.9494, 17, 0, 4124.103, 4264.103, 4190.769, 4142.051, 4090.769, 0, 0, []
1627624563.9573, 18, 0, 4141.026, 4271.282, 4162.051, 4156.41, 4110.256, 0, 0, []
1627624563.9651, 19, 0, 4149.231, 4273.846, 4209.231, 4157.436, 4122.051, 0, 0, []
1627624563.9729, 20, 0, 4149.744, 4265.641, 4153.333, 4160, 4129.744, 0, 0, []
1627624563.9809, 21, 0, 4141.026, 4263.077, 4159.487, 4153.846, 4118.462, 0, 0, []
1627624563.9887, 22, 0, 4134.359, 4273.333, 4182.051, 4142.051, 4102.051, 0, 0, []
1627624563.9967, 23, 0, 4136.41, 4267.692, 4148.205, 4133.333, 4100.513, 0, 0, []
1627624564.0046, 24, 0, 4129.744, 4243.59, 4185.641, 4125.641, 4100.513, 0, 0, []
1627624564.0126, 25, 0, 4109.744, 4220.513, 4130.769, 4121.026, 4087.179, 0, 0, []
1627624564.0205, 26, 0, 4101.538, 4225.641, 4146.667, 4124.103, 4078.974, 0, 0, []
1627624564.0284, 27, 0, 4131.795, 4251.282, 4188.205, 4138.974, 4101.026, 0, 0, []
1627624564.0363, 28, 0, 4172.821, 4260.513, 4150.256, 4156.923, 4127.179, 0, 0, []
1627624564.0443, 29, 0, 4176.41, 4253.846, 4209.744, 4157.436, 4122.051, 0, 0, []
1627624564.0522, 30, 0, 4170.769, 4242.564, 4173.333, 4155.897, 4122.564, 0, 0, []
1627624564.0602, 31, 0, 4186.154, 4244.103, 4150.769, 4170.256, 4149.231, 0, 0, []
1627624564.068, 32, 0, 4190.769, 4260.513, 4175.897, 4174.359, 4158.462, 0, 0, []
1627624564.0758, 33, 0, 4171.795, 4256.41, 4128.205, 4155.897, 4138.462, 0, 0, []
1627624564.0837, 34, 0, 4154.872, 4245.641, 4187.692, 4148.205, 4125.641, 0, 0, []
1627624564.0915, 35, 0, 4155.897, 4245.641, 4181.026, 4154.359, 4124.615, 0, 0, []
1627624564.0994, 36, 0, 4165.641, 4249.744, 4171.795, 4154.359, 4127.692, 0, 0, []
1627624564.1071, 37, 0, 4169.744, 4242.051, 4198.974, 4152.821, 4135.385, 0, 0, []
1627624564.115, 38, 0, 4171.795, 4226.667, 4129.744, 4158.974, 4145.128, 0, 0, []
1627624564.1228, 39, 0, 4179.487, 4235.897, 4164.103, 4166.154, 4152.308, 0, 0, []
1627624564.1307, 40, 0, 4171.282, 4241.538, 4154.872, 4158.974, 4140.513, 0, 0, []
1627624564.1385, 41, 0, 4148.718, 4228.718, 4144.103, 4134.359, 4117.949, 0, 0, []
1627624564.1464, 42, 0, 4162.564, 4241.026, 4205.641, 4137.949, 4135.385, 0, 0, []
1627624564.1543, 43, 0, 4200, 4263.59, 4164.103, 4174.872, 4171.795, 0, 0, []
1627624564.1623, 44, 0, 4195.385, 4259.487, 4193.333, 4178.462, 4165.641, 0, 0, []
1627624564.1702, 45, 0, 4164.615, 4235.385, 4169.744, 4150.256, 4141.538, 0, 0, []
1627624564.1782, 46, 0, 4161.538, 4230.769, 4133.333, 4150.769, 4143.59, 0, 0, []
1627624564.186, 47, 0, 4182.051, 4252.308, 4197.436, 4175.897, 4162.051, 0, 0, []
1627624564.194, 48, 0, 4189.744, 4260.513, 4155.385, 4178.974, 4169.744, 0, 0, []
1627624564.2019, 49, 0, 4183.59, 4255.897, 4191.795, 4171.282, 4167.692, 0, 0, []
1627624564.2099, 50, 0, 4188.718, 4249.744, 4211.282, 4168.718, 4175.385, 0, 0, []
1627624564.2178, 51, 0, 4226.154, 4250.769, 4168.718, 4171.282, 4206.154, 0, 0, []
1627624564.2255, 52, 0, 4269.231, 4257.436, 4215.385, 4175.897, 4241.538, 0, 0, []
1627624564.2334, 53, 0, 4268.205, 4248.205, 4171.795, 4173.333, 4247.179, 0, 0, []
1627624564.2412, 54, 0, 4235.385, 4244.103, 4179.487, 4165.641, 4226.154, 0, 0, []
1627624564.2491, 55, 0, 4216.923, 4248.205, 4174.872, 4157.436, 4204.103, 0, 0, []
1627624564.2569, 56, 0, 4211.795, 4244.615, 4120, 4152.308, 4195.897, 0, 0, []
1627624564.2647, 57, 0, 4208.205, 4246.667, 4179.487, 4149.744, 4193.846, 0, 0, []
1627624564.2725, 58, 0, 4208.718, 4251.282, 4157.436, 4151.282, 4194.872, 0, 0, []
1627624564.2804, 59, 0, 4214.359, 4249.231, 4182.051, 4158.974, 4205.128, 0, 0, []
1627624564.2882, 60, 0, 4226.154, 4252.308, 4215.385, 4167.179, 4218.462, 0, 0, []
1627624564.2962, 61, 0, 4237.949, 4260, 4174.359, 4175.385, 4227.692, 0, 0, []
1627624564.304, 62, 0, 4237.949, 4264.103, 4231.282, 4183.59, 4233.846, 0, 0, []
1627624564.312, 63, 0, 4232.821, 4258.462, 4196.923, 4191.282, 4233.846, 0, 0, []
1627624564.3199, 64, 0, 4231.795, 4256.923, 4188.205, 4191.795, 4224.103, 450, 0, []
1627624564.3279, 65, 0, 4235.385, 4266.154, 4214.872, 4187.179, 4220, 450, 0, []
1627624564.3358, 66, 0, 4241.538, 4270.256, 4154.872, 4190.256, 4229.231, 16182, 0, []
1627624564.3437, 67, 0, 4241.538, 4261.026, 4187.179, 4194.872, 4240.513, 450, 0, []
1627624564.3516, 68, 0, 4237.436, 4246.667, 4155.385, 4198.974, 4247.692, 16110, 0, []
1627624564.3596, 69, 0, 4236.923, 4258.462, 4157.436, 4197.436, 4246.667, 450, 0, []
1627624564.3675, 70, 0, 4234.872, 4275.897, 4207.692, 4189.744, 4240, 16071, 0, []
1627624564.3755, 71, 0, 4236.923, 4265.641, 4152.821, 4188.205, 4243.077, 450, 0, []
1627624564.3833, 72, 0, 4243.077, 4266.154, 4202.051, 4190.769, 4249.231, 450, 0, []
1627624564.3911, 73, 0, 4234.872, 4281.026, 4195.897, 4186.154, 4237.949, 16166, 0, []
1627624564.399, 74, 0, 4227.692, 4280, 4176.923, 4180, 4224.103, 450, 0, []
1627624564.4068, 75, 0, 4246.154, 4283.59, 4233.333, 4195.897, 4240, 16194, 0, []
1627624564.4147, 76, 0, 4254.872, 4288.718, 4193.846, 4207.179, 4250.769, 450, 0, []
1627624564.4224, 77, 0, 4237.949, 4279.487, 4216.41, 4191.282, 4235.385, 450, 0, []
1627624564.4303, 78, 0, 4225.641, 4270.769, 4189.231, 4177.949, 4223.077, 450, 0, []
1627624564.4381, 79, 0, 4229.231, 4279.487, 4163.077, 4186.667, 4225.128, 16194, 0, []
1627624564.446, 80, 0, 4242.564, 4285.641, 4216.41, 4203.077, 4242.051, 450, 0, []
1627624564.4538, 81, 0, 4249.231, 4267.179, 4147.179, 4209.231, 4255.897, 450, 0, []
1627624564.4617, 82, 0, 4248.718, 4269.231, 4168.205, 4211.795, 4252.308, 450, 0, []
1627624564.4696, 83, 0, 4255.385, 4288.205, 4189.744, 4220.513, 4252.308, 16194, 0, []
1627624564.4776, 84, 0, 4261.538, 4283.59, 4152.821, 4218.462, 4260.513, 450, 0, []
1627624564.4855, 85, 0, 4246.667, 4277.949, 4190.256, 4202.051, 4251.282, 450, 0, []
1627624564.4935, 86, 0, 4231.795, 4277.949, 4151.282, 4188.718, 4235.385, 450, 0, []
1627624564.5013, 87, 0, 4252.308, 4289.231, 4187.179, 4194.359, 4251.282, 16194, 0, []
1627624564.5093, 88, 0, 4299.487, 4305.128, 4203.59, 4216.923, 4300, 450, 0, []
1627624564.5172, 89, 0, 4343.59, 4305.641, 4163.59, 4222.564, 4345.641, 450, 0, []
1627624564.5252, 90, 0, 4408.718, 4303.077, 4225.641, 4219.487, 4400.513, 450, 0, []
1627624564.5331, 91, 0, 4505.128, 4299.487, 4178.462, 4221.026, 4480, 16194, 0, []
1627624564.5408, 92, 0, 4573.333, 4291.795, 4185.641, 4206.667, 4538.974, 450, 0, []
1627624564.5487, 93, 0, 4606.154, 4294.359, 4229.231, 4196.41, 4567.179, 450, 0, []
1627624564.5565, 94, 0, 4636.41, 4312.308, 4185.641, 4222.564, 4600.513, 450, 0, []
1627624564.5644, 95, 0, 4625.128, 4314.359, 4216.41, 4235.897, 4606.154, 16194, 0, []
1627624564.5722, 96, 0, 4552.308, 4283.077, 4173.846, 4199.487, 4545.641, 450, 0, []
1627624564.58, 97, 0, 4505.128, 4282.564, 4193.846, 4186.667, 4491.282, 450, 0, []
1627624564.5878, 98, 0, 4505.641, 4314.872, 4247.179, 4222.051, 4485.641, 450, 0, []
1627624564.5957, 99, 0, 4487.692, 4316.923, 4182.051, 4238.974, 4476.41, 16194, 0, []
1627624564.6035, 100, 0, 4442.564, 4302.564, 4209.744, 4225.128, 4438.462, 450, 0, []
1627624564.6115, 101, 0, 4397.436, 4294.359, 4188.205, 4211.282, 4389.744, 450, 0, []
1627624564.6193, 102, 0, 4362.564, 4288.718, 4179.487, 4203.59, 4355.385, 450, 0, []
1627624564.6273, 103, 0, 4333.846, 4279.487, 4208.205, 4197.949, 4338.462, 16194, 0, []
1627624564.6352, 104, 0, 4322.051, 4277.436, 4153.333, 4208.205, 4334.359, 450, 0, []
1627624564.6432, 105, 0, 4322.564, 4290.769, 4202.564, 4221.026, 4331.795, 450, 0, []
1627624564.6511, 106, 0, 4290.256, 4282.051, 4180.513, 4190.769, 4296.923, 450, 0, []
1627624564.6591, 107, 0, 4260, 4272.821, 4150.769, 4167.179, 4264.103, 16194, 0, []
1627624564.6669, 108, 0, 4278.462, 4303.59, 4207.692, 4203.077, 4278.974, 450, 0, []
1627624564.6749, 109, 0, 4282.564, 4316.41, 4169.231, 4221.026, 4281.026, 450, 0, []
1627624564.6828, 110, 0, 4250.769, 4293.846, 4199.487, 4194.359, 4247.179, 450, 0, []
1627624564.6906, 111, 0, 4251.795, 4289.744, 4185.641, 4200, 4247.179, 16194, 0, []
1627624564.6985, 112, 0, 4272.821, 4306.667, 4153.333, 4223.59, 4270.769, 450, 0, []
1627624564.7062, 113, 0, 4253.846, 4311.795, 4197.436, 4207.692, 4254.872, 450, 0, []
1627624564.7141, 114, 0, 4229.231, 4302.564, 4143.59, 4193.333, 4229.231, 450, 0, []
1627624564.7219, 115, 0, 4228.718, 4301.026, 4184.103, 4198.974, 4224.103, 16194, 0, []
1627624564.7298, 116, 0, 4229.231, 4306.667, 4207.692, 4195.385, 4221.538, 450, 0, []
1627624564.7376, 117, 0, 4225.128, 4308.718, 4169.231, 4185.641, 4215.897, 450, 0, []
1627624564.7454, 118, 0, 4214.872, 4298.462, 4215.897, 4171.795, 4204.615, 450, 0, []
1627624564.7532, 119, 0, 4211.282, 4283.59, 4179.487, 4168.718, 4196.41, 16194, 0, []
1627624564.7612, 120, 0, 4223.077, 4287.692, 4202.051, 4187.179, 4206.154, 450, 0, []
1627624564.7691, 121, 0, 4211.795, 4276.923, 4198.462, 4178.462, 4197.949, 450, 0, []
1627624564.7771, 122, 0, 4185.128, 4250.769, 4138.974, 4149.744, 4164.615, 450, 0, []
1627624564.7849, 123, 0, 4195.897, 4269.231, 4195.385, 4163.077, 4168.205, 16194, 0, []
1627624564.7929, 124, 0, 4221.538, 4297.949, 4161.026, 4195.897, 4202.051, 450, 0, []
1627624564.8008, 125, 0, 4212.308, 4295.897, 4166.154, 4195.385, 4202.564, 450, 0, []
1627624564.8088, 126, 0, 4188.718, 4283.077, 4187.179, 4176.41, 4172.308, 450, 0, []
1627624564.8167, 127, 0, 4178.462, 4276.923, 4149.744, 4164.615, 4148.718, 16194, 0, []
1627624564.8246, 128, 0, 4183.077, 4287.179, 4225.128, 4174.872, 4153.846, 450, 0, []
1627624564.8325, 0, 0, 4193.333, 4292.308, 4209.231, 4192.308, 4169.744, 450, 0, []
1627624564.8404, 1, 0, 4177.436, 4274.359, 4197.949, 4181.026, 4157.949, 450, 0, []
1627624564.8483, 2, 0, 4155.897, 4255.897, 4207.179, 4159.487, 4135.385, 16179, 0, []
1627624564.8561, 3, 0, 4170.769, 4254.872, 4148.718, 4169.744, 4142.564, 450, 0, []
1627624564.8639, 4, 0, 4192.821, 4265.128, 4197.436, 4194.359, 4164.103, 16171, 0, []
1627624564.8717, 5, 0, 4193.846, 4268.205, 4168.718, 4202.564, 4175.385, 450, 0, []
1627624564.8796, 6, 0, 4187.179, 4269.231, 4160, 4191.795, 4169.744, 180, 0, []
1627624564.8874, 7, 0, 4183.077, 4274.872, 4216.41, 4181.026, 4157.436, 450, 0, []
1627624564.8953, 8, 0, 4184.103, 4266.667, 4180, 4184.615, 4158.462, 450, 0, []
1627624564.903, 9, 0, 4194.359, 4256.41, 4222.051, 4189.231, 4169.231, 16169, 0, []
1627624564.9109, 10, 0, 4202.564, 4254.359, 4201.538, 4185.641, 4177.436, 450, 0, []
1627624564.9187, 11, 0, 4202.564, 4250.256, 4181.026, 4185.641, 4183.077, 16200, 0, []
1627624564.9267, 12, 0, 4192.308, 4245.641, 4218.462, 4183.59, 4173.846, 450, 0, []
1627624564.9346, 13, 0, 4183.077, 4250.256, 4153.333, 4176.923, 4158.462, 450, 0, []
1627624564.9425, 14, 0, 4196.923, 4273.846, 4193.333, 4188.205, 4171.282, 450, 0, []
1627624564.9504, 15, 0, 4213.846, 4287.179, 4197.436, 4207.179, 4192.308, 16200, 0, []
1627624564.9583, 16, 0, 4212.308, 4283.59, 4172.308, 4207.179, 4188.205, 0, 0, []
1627624564.9663, 17, 0, 4212.821, 4284.103, 4233.333, 4204.615, 4183.59, 0, 0, []
1627624564.9743, 18, 0, 4217.436, 4274.872, 4196.41, 4210.769, 4188.718, 0, 0, []
1627624564.9821, 19, 0, 4209.744, 4265.128, 4223.077, 4201.026, 4183.077, 0, 0, []
1627624564.9901, 20, 0, 4197.949, 4261.538, 4223.077, 4172.821, 4167.692, 0, 0, []
1627624564.998, 21, 0, 4192.308, 4255.385, 4182.564, 4161.026, 4160.513, 0, 0, []
1627624565.0058, 22, 0, 4193.846, 4254.359, 4222.564, 4173.333, 4165.641, 0, 0, []
1627624565.0137, 23, 0, 4200, 4256.923, 4163.077, 4186.667, 4178.974, 0, 0, []
1627624565.0214, 24, 0, 4205.128, 4266.154, 4179.487, 4188.205, 4185.128, 0, 0, []
1627624565.0293, 25, 0, 4204.615, 4272.308, 4204.103, 4186.667, 4182.051, 0, 0, []
1627624565.0371, 26, 0, 4200.513, 4270.769, 4166.667, 4188.205, 4177.949, 0, 0, []
1627624565.045, 27, 0, 4201.538, 4281.026, 4228.205, 4186.154, 4179.487, 0, 0, []
1627624565.0528, 28, 0, 4211.795, 4288.205, 4206.154, 4185.128, 4184.615, 0, 0, []
1627624565.0606, 29, 0, 4213.333, 4278.974, 4213.846, 4184.615, 4183.59, 0, 0, []
1627624565.0684, 30, 0, 4210.256, 4265.641, 4224.615, 4182.564, 4180.513, 0, 0, []
1627624565.0764, 31, 0, 4210.769, 4260.513, 4174.872, 4182.051, 4182.564, 0, 0, []
1627624565.0843, 32, 0, 4206.154, 4257.949, 4215.897, 4180, 4187.692, 0, 0, []
1627624565.0923, 33, 0, 4204.103, 4247.692, 4168.718, 4182.051, 4185.641, 0, 0, []
1627624565.1001, 34, 0, 4212.308, 4255.897, 4173.333, 4193.846, 4183.59, 0, 0, []
1627624565.1081, 35, 0, 4215.385, 4272.821, 4207.179, 4196.41, 4185.641, 0, 0, []
1627624565.116, 36, 0, 4211.795, 4266.667, 4152.821, 4188.718, 4182.564, 0, 0, []
1627624565.124, 37, 0, 4222.051, 4271.795, 4224.615, 4195.897, 4184.615, 0, 0, []
1627624565.1319, 38, 0, 4234.872, 4290.769, 4221.026, 4206.667, 4197.436, 0, 0, []
1627624565.1398, 39, 0, 4231.795, 4287.692, 4201.538, 4202.051, 4199.487, 0, 0, []
1627624565.1477, 40, 0, 4222.564, 4273.333, 4234.872, 4200.513, 4187.692, 0, 0, []
1627624565.1557, 41, 0, 4213.333, 4262.051, 4187.179, 4199.487, 4184.615, 0, 0, []
1627624565.1636, 42, 0, 4206.154, 4255.897, 4221.538, 4188.205, 4184.615, 0, 0, []
1627624565.1716, 43, 0, 4202.051, 4253.333, 4193.846, 4186.154, 4180.513, 0, 0, []
1627624565.1794, 44, 0, 4211.282, 4258.462, 4169.231, 4196.41, 4186.667, 0, 0, []
1627624565.1872, 45, 0, 4224.615, 4271.282, 4212.308, 4210.256, 4204.103, 0, 0, []
1627624565.1951, 46, 0, 4223.59, 4279.487, 4162.051, 4224.615, 4208.718, 0, 0, []
1627624565.2029, 47, 0, 4208.718, 4280.513, 4201.538, 4213.846, 4189.231, 0, 0, []
1627624565.2108, 48, 0, 4195.897, 4270.769, 4203.59, 4187.692, 4172.821, 0, 0, []
1627624565.2185, 49, 0, 4197.436, 4267.692, 4187.692, 4188.205, 4177.949, 0, 0, []
1627624565.2264, 50, 0, 4212.821, 4282.564, 4249.744, 4207.179, 4188.205, 0, 0, []
1627624565.2342, 51, 0, 4222.051, 4282.051, 4204.103, 4209.231, 4188.205, 0, 0, []
1627624565.2422, 52, 0, 4205.641, 4263.077, 4214.872, 4186.667, 4175.385, 0, 0, []
1627624565.2501, 53, 0, 4185.128, 4246.667, 4188.205, 4170.256, 4164.103, 0, 0, []
1627624565.258, 54, 0, 4202.564, 4252.821, 4151.282, 4185.128, 4174.872, 0, 0, []
1627624565.2659, 55, 0, 4221.538, 4278.974, 4223.077, 4204.103, 4190.769, 0, 0, []
1627624565.2739, 56, 0, 4208.205, 4280.513, 4172.308, 4195.385, 4181.026, 0, 0, []
1627624565.2818, 57, 0, 4193.846, 4260.513, 4189.231, 4175.385, 4163.077, 0, 0, []
1627624565.2898, 58, 0, 4190.256, 4250.256, 4228.205, 4171.795, 4161.538, 0, 0, []
1627624565.2976, 59, 0, 4185.641, 4249.231, 4195.385, 4171.795, 4159.487, 0, 0, []
1627624565.3056, 60, 0, 4184.103, 4243.077, 4229.744, 4167.692, 4152.821, 0, 0, []
1627624565.3135, 61, 0, 4183.59, 4227.179, 4175.897, 4163.59, 4149.231, 0, 0, []
1627624565.3213, 62, 0, 4178.462, 4227.179, 4185.641, 4160.513, 4142.564, 0, 0, []
1627624565.3292, 63, 0, 4189.231, 4244.103, 4205.641, 4171.282, 4149.744, 0, 0, []
1627624565.3369, 64, 0, 4212.308, 4254.872, 4160, 4187.692, 4177.436, 450, 0, []
1627624565.3448, 65, 0, 4222.564, 4262.564, 4219.487, 4192.308, 4195.385, 450, 0, []
1627624565.3526, 66, 0, 4222.051, 4259.487, 4193.333, 4195.385, 4191.282, 16185, 0, []
1627624565.3605, 67, 0, 4214.359, 4251.795, 4200, 4196.41, 4178.974, 450, 0, []
1627624565.3683, 68, 0, 4206.154, 4248.205, 4240.513, 4188.205, 4171.795, 16143, 0, []
1627624565.3761, 69, 0, 4204.103, 4246.154, 4190.769, 4183.077, 4170.256, 450, 0, []
1627624565.3839, 70, 0, 4208.205, 4253.333, 4222.051, 4190.256, 4174.872, 289, 0, []
1627624565.3918, 71, 0, 4204.103, 4248.718, 4185.641, 4189.744, 4177.436, 450, 0, []
1627624565.3996, 72, 0, 4193.846, 4234.872, 4181.026, 4182.564, 4172.821, 450, 0, []
1627624565.4076, 73, 0, 4188.205, 4236.41, 4220.513, 4182.051, 4170.256, 16171, 0, []
1627624565.4155, 74, 0, 4183.59, 4238.462, 4159.487, 4180.513, 4169.744, 450, 0, []
1627624565.4234, 75, 0, 4186.154, 4243.077, 4208.718, 4181.026, 4168.718, 16200, 0, []
1627624565.4313, 76, 0, 4193.333, 4248.205, 4207.179, 4190.256, 4170.769, 450, 0, []
1627624565.4393, 77, 0, 4200.513, 4247.692, 4188.718, 4197.436, 4180.513, 450, 0, []
1627624565.4472, 78, 0, 4206.667, 4238.974, 4240.513, 4194.872, 4190.256, 450, 0, []
1627624565.4552, 79, 0, 4201.026, 4223.077, 4192.821, 4186.154, 4181.026, 16200, 0, []
1627624565.463, 80, 0, 4189.231, 4218.974, 4214.872, 4180, 4167.692, 450, 0, []
1627624565.471, 81, 0, 4181.538, 4215.385, 4193.846, 4177.436, 4168.718, 450, 0, []
1627624565.4789, 82, 0, 4181.026, 4210.256, 4163.077, 4183.077, 4175.897, 450, 0, []
1627624565.4867, 83, 0, 4192.308, 4221.026, 4216.41, 4194.872, 4184.615, 16200, 0, []
1627624565.4946, 84, 0, 4210.256, 4232.821, 4178.462, 4204.103, 4196.923, 450, 0, []
1627624565.5023, 85, 0, 4211.795, 4239.487, 4221.026, 4204.103, 4197.949, 450, 0, []
1627624565.5102, 86, 0, 4189.744, 4233.846, 4228.718, 4187.692, 4171.282, 450, 0, []
1627624565.518, 87, 0, 4175.385, 4214.872, 4187.179, 4170.769, 4147.692, 16200, 0, []
1627624565.5259, 88, 0, 4188.205, 4211.795, 4232.308, 4178.974, 4162.564, 450, 0, []
1627624565.5337, 89, 0, 4208.205, 4216.41, 4185.128, 4200, 4190.769, 450, 0, []
1627624565.5415, 90, 0, 4204.103, 4208.718, 4200, 4200, 4184.103, 450, 0, []
1627624565.5493, 91, 0, 4190.769, 4203.077, 4203.59, 4184.615, 4168.205, 16200, 0, []
1627624565.5573, 92, 0, 4204.103, 4216.41, 4159.487, 4190.769, 4185.128, 450, 0, []
1627624565.5652, 93, 0, 4218.462, 4240, 4217.436, 4202.564, 4197.949, 450, 0, []
1627624565.5732, 94, 0, 4202.564, 4242.564, 4181.026, 4189.744, 4178.462, 450, 0, []
1627624565.581, 95, 0, 4182.564, 4231.282, 4192.821, 4165.641, 4156.41, 16200, 0, []
1627624565.589, 96, 0, 4180, 4224.103, 4216.923, 4165.641, 4152.308, 450, 0, []
1627624565.5969, 97, 0, 4190.256, 4218.974, 4172.308, 4183.59, 4160, 450, 0, []
1627624565.6049, 98, 0, 4201.538, 4218.974, 4220, 4193.333, 4170.256, 450, 0, []
1627624565.6128, 99, 0, 4199.487, 4209.744, 4174.872, 4188.718, 4170.256, 16200, 0, []
1627624565.6205, 100, 0, 4188.205, 4204.103, 4172.308, 4177.949, 4162.051, 450, 0, []
1627624565.6284, 101, 0, 4186.154, 4210.769, 4209.231, 4173.846, 4162.051, 450, 0, []
1627624565.6362, 102, 0, 4184.103, 4206.667, 4156.41, 4171.795, 4156.923, 450, 0, []
1627624565.6441, 103, 0, 4180.513, 4206.667, 4203.59, 4170.256, 4152.821, 16200, 0, []
1627624565.6519, 104, 0, 4180, 4215.897, 4190.769, 4169.744, 4160.513, 450, 0, []
1627624565.6597, 105, 0, 4182.564, 4226.154, 4193.333, 4169.231, 4165.641, 450, 0, []
1627624565.6675, 106, 0, 4188.718, 4229.744, 4233.333, 4169.744, 4165.641, 450, 0, []
1627624565.6754, 107, 0, 4190.256, 4223.077, 4173.846, 4165.641, 4165.128, 16200, 0, []
1627624565.6832, 108, 0, 4188.205, 4229.231, 4204.103, 4161.026, 4170.769, 450, 0, []
1627624565.6911, 109, 0, 4192.821, 4235.897, 4174.359, 4158.974, 4174.359, 450, 0, []
1627624565.6988, 110, 0, 4195.897, 4234.872, 4150.769, 4160, 4168.205, 450, 0, []
1627624565.7068, 111, 0, 4194.359, 4242.051, 4200.513, 4165.128, 4172.308, 16200, 0, []
1627624565.7147, 112, 0, 4205.641, 4246.667, 4157.949, 4173.846, 4192.821, 450, 0, []
1627624565.7227, 113, 0, 4216.923, 4245.641, 4209.744, 4177.436, 4201.538, 450, 0, []
1627624565.7306, 114, 0, 4211.282, 4239.487, 4216.41, 4170.256, 4187.179, 450, 0, []
1627624565.7385, 115, 0, 4224.103, 4242.051, 4186.154, 4167.179, 4190.769, 16200, 0, []
1627624565.7464, 116, 0, 4276.923, 4258.974, 4233.846, 4183.59, 4239.487, 450, 0, []
1627624565.7544, 117, 0, 4335.897, 4271.795, 4200, 4200, 4300.513, 450, 0, []
1627624565.7623, 118, 0, 4379.487, 4269.744, 4236.41, 4190.256, 4345.641, 450, 0, []
1627624565.7703, 119, 0, 4427.179, 4258.462, 4226.154, 4182.051, 4390.769, 16200, 0, []
1627624565.7781, 120, 0, 4476.923, 4262.051, 4175.897, 4191.795, 4438.462, 450, 0, []
1627624565.7859, 121, 0, 4503.077, 4270.769, 4218.462, 4197.436, 4465.641, 450, 0, []
1627624565.7938, 122, 0, 4501.538, 4258.974, 4172.308, 4203.59, 4476.923, 450, 0, []
1627624565.8016, 123, 0, 4472.821, 4248.205, 4192.821, 4196.923, 4456.923, 16200, 0, []
1627624565.8095, 124, 0, 4420, 4245.641, 4199.487, 4162.051, 4391.795, 450, 0, []
1627624565.8172, 125, 0, 4387.179, 4246.154, 4165.128, 4160, 4351.282, 450, 0, []
1627624565.8251, 126, 0, 4384.103, 4258.974, 4240.513, 4196.923, 4360, 450, 0, []
1627624565.8329, 127, 0, 4357.436, 4267.692, 4205.128, 4201.538, 4341.538, 16200, 0, []
1627624565.8408, 128, 0, 4313.846, 4266.667, 4208.205, 4180.513, 4295.897, 450, 0, []
1627624565.8486, 0, 0, 4296.41, 4266.154, 4233.846, 4187.179, 4279.487, 450, 0, []
1627624565.8565, 1, 0, 4285.641, 4265.641, 4185.641, 4200.513, 4265.128, 450, 0, []
1627624565.8644, 2, 0, 4256.923, 4270.769, 4229.231, 4192.821, 4233.846, 16185, 0, []
1627624565.8724, 3, 0, 4226.154, 4260.513, 4195.385, 4178.974, 4210.769, 450, 0, []
1627624565.8803, 4, 0, 4195.897, 4240, 4192.821, 4160, 4186.667, 16104, 0, []
1627624565.8883, 5, 0, 4178.974, 4237.436, 4213.846, 4152.308, 4169.231, 450, 0, []
1627624565.8961, 6, 0, 4182.564, 4236.41, 4157.949, 4164.615, 4175.385, 16133, 0, []
1627624565.9041, 7, 0, 4188.718, 4245.641, 4214.872, 4172.308, 4184.615, 450, 0, []
1627624565.912, 8, 0, 4186.154, 4269.744, 4200.513, 4171.795, 4181.026, 450, 0, []
1627624565.92, 9, 0, 4168.205, 4277.949, 4192.308, 4164.103, 4161.538, 16162, 0, []
1627624565.9279, 10, 0, 4152.308, 4275.897, 4232.308, 4154.359, 4142.051, 450, 0, []
1627624565.9356, 11, 0, 4155.385, 4276.41, 4179.487, 4151.282, 4142.051, 16190, 0, []
1627624565.9435, 12, 0, 4162.051, 4270.256, 4216.923, 4155.897, 4154.872, 450, 0, []
1627624565.9513, 13, 0, 4153.333, 4246.667, 4190.256, 4155.897, 4154.359, 450, 0, []
1627624565.9592, 14, 0, 4147.179, 4237.436, 4167.179, 4154.872, 4145.641, 450, 0, []
1627624565.967, 15, 0, 4151.795, 4253.846, 4216.923, 4158.974, 4143.59, 16190, 0, []
1627624565.9748, 16, 0, 4149.744, 4258.974, 4172.821, 4153.846, 4142.051, 0, 0, []
1627624565.9826, 17, 0, 4151.282, 4256.41, 4222.564, 4154.359, 4145.641, 0, 0, []
1627624565.9905, 18, 0, 4161.538, 4249.231, 4224.103, 4168.718, 4155.897, 0, 0, []
1627624565.9983, 19, 0, 4158.974, 4246.154, 4190.769, 4170.769, 4157.436, 0, 0, []
1627624566.0063, 20, 0, 4152.821, 4257.436, 4224.615, 4164.103, 4157.949, 0, 0, []
1627624566.0141, 21, 0, 4158.974, 4259.487, 4159.487, 4169.231, 4163.077, 0, 0, []
1627624566.0221, 22, 0, 4143.59, 4248.718, 4191.795, 4167.179, 4145.641, 0, 0, []
1627624566.03, 23, 0, 4115.385, 4238.462, 4216.923, 4155.897, 4118.462, 0, 0, []
1627624566.038, 24, 0, 4116.923, 4240, 4183.59, 4163.59, 4118.462, 0, 0, []
1627624566.0459, 25, 0, 4123.59, 4248.718, 4215.897, 4180.513, 4127.692, 0, 0, []
1627624566.0538, 26, 0, 4115.385, 4248.718, 4167.692, 4186.154, 4120.513, 0, 0, []
1627624566.0617, 27, 0, 4122.564, 4260.513, 4195.385, 4190.769, 4123.077, 0, 0, []
1627624566.0697, 28, 0, 4126.154, 4263.077, 4209.744, 4184.615, 4123.077, 0, 0, []
1627624566.0776, 29, 0, 4105.128, 4241.538, 4170.769, 4165.641, 4097.949, 0, 0, []
1627624566.0854, 30, 0, 4098.462, 4235.385, 4229.231, 4166.154, 4093.846, 0, 0, []
1627624566.0932, 31, 0, 4101.026, 4235.385, 4177.436, 4172.821, 4104.103, 0, 0, []
1627624566.101, 32, 0, 4090.769, 4227.179, 4166.667, 4157.949, 4091.795, 0, 0, []
1627624566.1089, 33, 0, 4093.846, 4226.667, 4197.949, 4152.308, 4089.231, 0, 0, []
1627624566.1167, 34, 0, 4115.897, 4228.205, 4177.436, 4166.667, 4110.256, 0, 0, []
1627624566.1246, 35, 0, 4111.795, 4214.359, 4224.103, 4159.487, 4104.615, 0, 0, []
1627624566.1324, 36, 0, 4082.564, 4186.667, 4164.103, 4136.41, 4078.462, 0, 0, []
1627624566.1402, 37, 0, 4081.538, 4191.795, 4164.615, 4141.538, 4075.897, 0, 0, []
1627624566.148, 38, 0, 4096.41, 4222.051, 4216.923, 4160, 4081.026, 0, 0, []
1627624566.1559, 39, 0, 4093.846, 4226.667, 4172.821, 4155.385, 4080.513, 0, 0, []
1627624566.1637, 40, 0, 4092.308, 4213.846, 4201.538, 4146.154, 4085.128, 0, 0, []
1627624566.1717, 41, 0, 4105.128, 4211.282, 4158.974, 4161.026, 4096.923, 0, 0, []
1627624566.1795, 42, 0, 4112.308, 4220, 4161.026, 4173.846, 4107.692, 0, 0, []
1627624566.1875, 43, 0, 4111.282, 4226.154, 4214.872, 4158.974, 4106.154, 0, 0, []
1627624566.1954, 44, 0, 4113.846, 4218.974, 4153.333, 4147.179, 4098.462, 0, 0, []
1627624566.2034, 45, 0, 4118.974, 4219.487, 4185.641, 4160, 4102.564, 0, 0, []
1627624566.2113, 46, 0, 4130.769, 4227.179, 4167.179, 4174.872, 4121.026, 0, 0, []
1627624566.2192, 47, 0, 4135.897, 4231.795, 4145.641, 4173.333, 4122.564, 0, 0, []
1627624566.2271, 48, 0, 4130.256, 4234.359, 4203.077, 4171.795, 4115.385, 0, 0, []
1627624566.2351, 49, 0, 4129.744, 4227.179, 4170.256, 4175.385, 4116.41, 0, 0, []
1627624566.243, 50, 0, 4137.949, 4214.872, 4206.154, 4174.359, 4117.949, 0, 0, []
1627624566.2508, 51, 0, 4139.487, 4207.179, 4186.667, 4175.385, 4116.41, 0, 0, []
1627624566.2586, 52, 0, 4130.769, 4215.897, 4156.923, 4179.487, 4116.923, 0, 0, []
1627624566.2664, 53, 0, 4141.026, 4242.564, 4223.59, 4183.077, 4133.846, 0, 0, []
1627624566.2743, 54, 0, 4153.846, 4245.128, 4192.308, 4187.179, 4142.564, 0, 0, []
1627624566.2821, 55, 0, 4141.026, 4227.179, 4223.59, 4180, 4126.154, 0, 0, []
1627624566.29, 56, 0, 4133.333, 4217.949, 4206.667, 4168.205, 4124.615, 0, 0, []
1627624566.2977, 57, 0, 4149.744, 4220.513, 4167.179, 4172.308, 4146.667, 0, 0, []
1627624566.3056, 58, 0, 4158.462, 4229.231, 4229.231, 4177.949, 4151.795, 0, 0, []
1627624566.3134, 59, 0, 4149.231, 4231.795, 4176.41, 4167.179, 4135.385, 0, 0, []
1627624566.3214, 60, 0, 4152.308, 4234.872, 4208.718, 4171.795, 4136.41, 0, 0, []
1627624566.3293, 61, 0, 4157.949, 4232.821, 4238.974, 4189.744, 4146.154, 0, 0, []
1627624566.3372, 62, 0, 4150.769, 4225.128, 4176.41, 4181.026, 4141.026, 0, 0, []
1627624566.3451, 63, 0, 4149.744, 4229.231, 4195.385, 4167.179, 4137.436, 0, 0, []
1627624566.3531, 64, 0, 4154.872, 4232.308, 4151.795, 4174.359, 4142.564, 450, 0, []
1627624566.361, 65, 0, 4145.128, 4224.615, 4174.872, 4167.179, 4136.41, 450, 0, []
1627624566.369, 66, 0, 4130.256, 4219.487, 4201.026, 4148.205, 4121.026, 16186, 0, []
1627624566.3768, 67, 0, 4143.077, 4231.795, 4159.487, 4160, 4131.282, 450, 0, []
1627624566.3848, 68, 0, 4163.077, 4245.128, 4200.513, 4179.487, 4156.41, 16152, 0, []
1627624566.3927, 69, 0, 4156.41, 4234.359, 4143.59, 4171.795, 4152.821, 450, 0, []
1627624566.4005, 70, 0, 4155.897, 4235.385, 4151.282, 4172.821, 4146.154, 16071, 0, []
1627624566.4084, 71, 0, 4174.359, 4250.769, 4203.077, 4187.179, 4158.462, 450, 0, []
1627624566.4161, 72, 0, 4171.795, 4244.615, 4159.487, 4179.487, 4151.282, 450, 0, []
1627624566.424, 73, 0, 4156.923, 4234.359, 4211.795, 4163.59, 4132.821, 16164, 0, []
1627624566.4318, 74, 0, 4161.538, 4226.667, 4182.051, 4165.641, 4140, 450, 0, []
1627624566.4397, 75, 0, 4162.051, 4221.538, 4161.538, 4169.744, 4145.128, 16193, 0, []
1627624566.4475, 76, 0, 4153.846, 4227.179, 4197.436, 4168.718, 4137.949, 450, 0, []
1627624566.4553, 77, 0, 4158.974, 4229.744, 4143.077, 4167.179, 4141.538, 450, 0, []
1627624566.4631, 78, 0, 4169.744, 4230.769, 4188.205, 4167.179, 4152.821, 450, 0, []
1627624566.4711, 79, 0, 4178.974, 4228.718, 4190.769, 4180, 4162.564, 16193, 0, []
1627624566.479, 80, 0, 4183.59, 4226.667, 4176.923, 4189.744, 4168.718, 450, 0, []
1627624566.487, 81, 0, 4173.846, 4221.026, 4194.359, 4175.385, 4162.051, 450, 0, []
1627624566.4948, 82, 0, 4164.103, 4210.769, 4126.154, 4163.077, 4150.769, 450, 0, []
1627624566.5028, 83, 0, 4170.256, 4216.923, 4176.41, 4173.333, 4156.923, 16193, 0, []
1627624566.5107, 84, 0, 4174.359, 4226.667, 4183.59, 4181.538, 4170.256, 450, 0, []
1627624566.5187, 85, 0, 4168.718, 4225.641, 4158.462, 4174.359, 4165.128, 450, 0, []
1627624566.5266, 86, 0, 4167.179, 4223.59, 4209.231, 4169.744, 4154.359, 450, 0, []
1627624566.5345, 87, 0, 4170.256, 4220.513, 4160, 4171.795, 4158.974, 16193, 0, []
1627624566.5424, 88, 0, 4172.308, 4215.385, 4179.487, 4169.231, 4163.59, 450, 0, []
1627624566.5504, 89, 0, 4169.231, 4211.282, 4174.359, 4166.154, 4156.41, 450, 0, []
1627624566.5583, 90, 0, 4164.103, 4216.41, 4146.154, 4165.128, 4158.462, 450, 0, []
1627624566.5661, 91, 0, 4169.231, 4229.231, 4209.231, 4169.744, 4172.308, 16193, 0, []
1627624566.5739, 92, 0, 4178.462, 4223.077, 4173.333, 4180, 4173.333, 450, 0, []
1627624566.5817, 93, 0, 4177.949, 4213.846, 4193.333, 4184.615, 4170.256, 450, 0, []
1627624566.5896, 94, 0, 4172.821, 4213.846, 4185.641, 4182.051, 4174.359, 450, 0, []
1627624566.5974, 95, 0, 4164.615, 4204.615, 4131.282, 4176.923, 4171.282, 16193, 0, []
1627624566.6053, 96, 0, 4159.487, 4204.615, 4195.385, 4173.333, 4168.205, 450, 0, []
1627624566.613, 97, 0, 4165.641, 4218.974, 4166.667, 4169.231, 4170.769, 450, 0, []
1627624566.6209, 98, 0, 4166.667, 4221.026, 4182.564, 4156.923, 4163.59, 450, 0, []
1627624566.6287, 99, 0, 4161.538, 4211.282, 4213.846, 4151.795, 4158.974, 16193, 0, []
1627624566.6367, 100, 0, 4163.077, 4211.282, 4170.769, 4163.077, 4166.154, 450, 0, []
1627624566.6446, 101, 0, 4163.59, 4222.564, 4201.538, 4167.179, 4166.667, 450, 0, []
1627624566.6525, 102, 0, 4156.41, 4221.026, 4149.744, 4152.821, 4154.872, 450, 0, []
1627624566.6604, 103, 0, 4153.333, 4221.026, 4160.513, 4148.205, 4146.154, 16193, 0, []
1627624566.6684, 104, 0, 4153.333, 4230.256, 4203.077, 4156.41, 4145.128, 450, 0, []
1627624566.6763, 105, 0, 4150.769, 4224.615, 4153.846, 4155.385, 4146.154, 450, 0, []
1627624566.6843, 106, 0, 4154.872, 4214.359, 4195.385, 4149.744, 4155.385, 450, 0, []
1627624566.6921, 107, 0, 4157.436, 4210.256, 4151.282, 4149.231, 4166.667, 16193, 0, []
1627624566.6999, 108, 0, 4155.385, 4211.282, 4135.385, 4145.641, 4164.103, 450, 0, []
1627624566.7078, 109, 0, 4154.359, 4213.846, 4189.744, 4140, 4152.308, 450, 0, []
1627624566.7156, 110, 0, 4165.128, 4218.974, 4158.974, 4153.333, 4157.949, 450, 0, []
1627624566.7235, 111, 0, 4182.051, 4234.359, 4221.538, 4175.385, 4176.923, 16193, 0, []
1627624566.7312, 112, 0, 4175.385, 4225.641, 4210.256, 4167.692, 4171.795, 450, 0, []
1627624566.7391, 113, 0, 4167.692, 4207.179, 4180.513, 4155.385, 4164.615, 450, 0, []
1627624566.7469, 114, 0, 4193.846, 4223.59, 4214.872, 4175.385, 4191.795, 450, 0, []
1627624566.7548, 115, 0, 4208.718, 4238.974, 4163.077, 4193.333, 4212.308, 16193, 0, []
1627624566.7626, 116, 0, 4188.205, 4236.923, 4194.359, 4186.154, 4196.923, 450, 0, []
1627624566.7704, 117, 0, 4178.462, 4235.897, 4179.487, 4175.385, 4183.59, 450, 0, []
1627624566.7782, 118, 0, 4185.128, 4243.59, 4167.692, 4174.872, 4188.205, 450, 0, []
1627624566.7862, 119, 0, 4172.308, 4244.103, 4231.795, 4170.256, 4179.487, 16193, 0, []
1627624566.7941, 120, 0, 4167.692, 4235.385, 4183.59, 4167.179, 4167.179, 450, 0, []
1627624566.8021, 121, 0, 4192.821, 4248.205, 4220, 4182.051, 4184.615, 450, 0, []
1627624566.8099, 122, 0, 4207.692, 4265.128, 4219.487, 4191.282, 4206.154, 450, 0, []
1627624566.8179, 123, 0, 4203.59, 4263.077, 4168.718, 4177.949, 4203.077, 16193, 0, []
1627624566.8258, 124, 0, 4200, 4257.949, 4207.692, 4166.154, 4191.795, 450, 0, []
1627624566.8338, 125, 0, 4195.897, 4252.821, 4153.333, 4172.821, 4188.205, 450, 0, []
1627624566.8417, 126, 0, 4198.974, 4252.821, 4182.051, 4182.564, 4195.897, 450, 0, []
1627624566.8496, 127, 0, 4215.897, 4262.051, 4215.897, 4191.795, 4215.897, 16193, 0, []
1627624566.8575, 128, 0, 4218.974, 4267.179, 4180.513, 4191.795, 4217.436, 450, 0, []
1627624566.8653, 0, 0, 4201.538, 4263.59, 4225.128, 4175.897, 4196.41, 450, 0, []
1627624566.8732, 1, 0, 4194.359, 4259.487, 4188.718, 4169.744, 4188.718, 450, 0, []
1627624566.881, 2, 0, 4203.077, 4267.179, 4206.667, 4180.513, 4197.436, 16186, 0, []
1627624566.8889, 3, 0, 4218.462, 4271.795, 4222.564, 4189.231, 4208.205, 450, 0, []
1627624566.8966, 4, 0, 4222.564, 4263.077, 4170.256, 4188.718, 4212.308, 16134, 0, []
1627624566.9045, 5, 0, 4207.179, 4253.333, 4212.308, 4181.026, 4204.615, 450, 0, []
1627624566.9123, 6, 0, 4203.59, 4248.718, 4168.718, 4173.333, 4195.385, 325, 0, []
1627624566.9202, 7, 0, 4217.949, 4260, 4185.128, 4169.744, 4200.513, 450, 0, []
1627624566.928, 8, 0, 4222.051, 4272.308, 4227.692, 4170.256, 4207.692, 450, 0, []
1627624566.9359, 9, 0, 4214.359, 4266.667, 4180, 4168.205, 4202.051, 16116, 0, []
1627624566.9438, 10, 0, 4215.385, 4267.692, 4239.487, 4168.205, 4201.026, 450, 0, []
1627624566.9517, 11, 0, 4222.564, 4270.769, 4216.41, 4175.897, 4210.769, 16147, 0, []
1627624566.9595, 12, 0, 4217.436, 4262.051, 4195.385, 4176.41, 4207.692, 450, 0, []
1627624566.9675, 13, 0, 4204.615, 4256.923, 4218.974, 4164.615, 4189.744, 450, 0, []
1627624566.9753, 14, 0, 4196.41, 4254.359, 4155.385, 4153.333, 4182.051, 450, 0, []
1627624566.9833, 15, 0, 4197.949, 4260, 4202.051, 4152.308, 4189.744, 16147, 0, []
1627624566.9912, 16, 0, 4197.436, 4261.026, 4188.718, 4151.282, 4188.718, 0, 0, []
1627624566.9992, 17, 0, 4192.821, 4260, 4170.769, 4147.692, 4181.538, 0, 0, []
1627624567.0071, 18, 0, 4202.564, 4272.821, 4230.769, 4155.897, 4191.282, 0, 0, []
1627624567.0148, 19, 0, 4203.077, 4262.564, 4187.692, 4156.923, 4186.667, 0, 0, []
1627624567.0227, 20, 0, 4186.667, 4236.923, 4218.462, 4143.59, 4167.692, 0, 0, []
1627624567.0305, 21, 0, 4194.872, 4236.41, 4203.59, 4156.41, 4182.051, 0, 0, []
1627624567.0384, 22, 0, 4214.359, 4242.564, 4173.846, 4179.487, 4204.103, 0, 0, []
1627624567.0462, 23, 0, 4201.538, 4224.103, 4209.231, 4161.538, 4190.256, 0, 0, []
1627624567.054, 24, 0, 4177.949, 4208.205, 4140.513, 4133.846, 4173.846, 0, 0, []
1627624567.0618, 25, 0, 4188.718, 4226.667, 4186.667, 4147.179, 4186.154, 0, 0, []
1627624567.0697, 26, 0, 4204.615, 4235.897, 4214.872, 4167.179, 4193.333, 0, 0, []
1627624567.0775, 27, 0, 4196.923, 4225.641, 4183.077, 4164.615, 4187.692, 0, 0, []
1627624567.0854, 28, 0, 4193.846, 4224.103, 4232.308, 4158.974, 4185.641, 0, 0, []
1627624567.0931, 29, 0, 4197.436, 4215.385, 4187.179, 4157.949, 4183.077, 0, 0, []
1627624567.1011, 30, 0, 4189.744, 4206.667, 4203.59, 4152.308, 4182.564, 0, 0, []
1627624567.109, 31, 0, 4186.667, 4209.231, 4196.923, 4150.256, 4184.103, 0, 0, []
1627624567.117, 32, 0, 4203.59, 4213.333, 4150.769, 4162.051, 4187.179, 0, 0, []
1627624567.1249, 33, 0, 4200.513, 4214.872, 4209.744, 4162.564, 4184.615, 0, 0, []
1627624567.1328, 34, 0, 4182.564, 4207.692, 4165.641, 4155.385, 4179.487, 0, 0, []
1627624567.1407, 35, 0, 4193.333, 4206.154, 4185.128, 4162.564, 4183.59, 0, 0, []
1627624567.1487, 36, 0, 4206.154, 4206.154, 4225.128, 4164.615, 4183.077, 0, 0, []
1627624567.1566, 37, 0, 4191.795, 4192.308, 4184.615, 4154.359, 4175.897, 0, 0, []
1627624567.1646, 38, 0, 4183.077, 4182.564, 4223.59, 4152.821, 4180.513, 0, 0, []
1627624567.1724, 39, 0, 4195.897, 4178.462, 4170.769, 4160, 4186.667, 0, 0, []
1627624567.1802, 40, 0, 4203.59, 4176.41, 4162.051, 4163.59, 4183.077, 0, 0, []
1627624567.1881, 41, 0, 4202.051, 4175.385, 4192.821, 4171.282, 4191.795, 0, 0, []
1627624567.1959, 42, 0, 4203.077, 4173.333, 4156.41, 4175.385, 4200, 0, 0, []
1627624567.2038, 43, 0, 4202.564, 4187.179, 4214.872, 4171.795, 4187.692, 0, 0, []
1627624567.2115, 44, 0, 4201.026, 4199.487, 4192.821, 4173.333, 4181.026, 0, 0, []
1627624567.2194, 45, 0, 4198.462, 4192.821, 4195.385, 4168.718, 4187.692, 0, 0, []
1627624567.2272, 46, 0, 4202.564, 4186.154, 4244.103, 4160.513, 4190.256, 0, 0, []
1627624567.2351, 47, 0, 4199.487, 4182.051, 4187.179, 4152.821, 4179.487, 0, 0, []
1627624567.2429, 48, 0, 4187.179, 4176.41, 4208.718, 4150.769, 4167.692, 0, 0, []
1627624567.2508, 49, 0, 4190.256, 4174.359, 4173.846, 4160.513, 4175.385, 0, 0, []
1627624567.2587, 50, 0, 4201.026, 4184.103, 4156.41, 4165.128, 4188.205, 0, 0, []
1627624567.2666, 51, 0, 4201.026, 4197.436, 4207.692, 4160.513, 4189.231, 0, 0, []
1627624567.2744, 52, 0, 4200, 4198.974, 4167.692, 4163.077, 4192.308, 0, 0, []
1627624567.2824, 53, 0, 4201.538, 4203.59, 4214.872, 4165.641, 4193.846, 0, 0, []
1627624567.2902, 54, 0, 4186.154, 4204.615, 4207.692, 4145.641, 4173.333, 0, 0, []
1627624567.2982, 55, 0, 4177.436, 4198.974, 4183.077, 4135.897, 4161.026, 0, 0, []
1627624567.3061, 56, 0, 4193.333, 4198.462, 4230.256, 4156.923, 4183.077, 0, 0, []
1627624567.3141, 57, 0, 4204.103, 4196.41, 4173.846, 4173.846, 4203.077, 0, 0, []
1627624567.322, 58, 0, 4202.564, 4205.641, 4201.538, 4169.744, 4199.487, 0, 0, []
1627624567.3299, 59, 0, 4201.538, 4215.897, 4194.359, 4159.487, 4189.744, 0, 0, []
1627624567.3378, 60, 0, 4202.564, 4216.41, 4163.077, 4149.231, 4182.051, 0, 0, []
1627624567.3456, 61, 0, 4200.513, 4217.949, 4239.487, 4138.974, 4171.795, 0, 0, []
1627624567.3535, 62, 0, 4195.897, 4212.308, 4198.974, 4138.974, 4168.205, 0, 0, []
1627624567.3613, 63, 0, 4197.949, 4207.179, 4205.641, 4148.718, 4178.974, 0, 0, []
1627624567.3691, 64, 0, 4208.205, 4208.205, 4209.231, 4157.436, 4192.821, 450, 0, []
1627624567.3769, 65, 0, 4216.923, 4212.821, 4169.231, 4163.077, 4193.846, 450, 0, []
1627624567.3848, 66, 0, 4216.41, 4218.462, 4208.718, 4161.026, 4188.718, 16186, 0, []
1627624567.3926, 67, 0, 4212.821, 4215.385, 4153.333, 4156.923, 4187.692, 450, 0, []
1627624567.4005, 68, 0, 4209.231, 4214.359, 4176.41, 4150.769, 4182.564, 16131, 0, []
1627624567.4082, 69, 0, 4200, 4216.923, 4206.667, 4143.59, 4169.744, 450, 0, []
1627624567.4162, 70, 0, 4195.385, 4214.872, 4162.051, 4147.692, 4172.821, 307, 0, []
1627624567.4241, 71, 0, 4203.077, 4213.333, 4223.59, 4161.026, 4185.128, 450, 0, []
1627624567.4321, 72, 0, 4203.59, 4205.128, 4185.128, 4155.897, 4177.949, 450, 0, []
1627624567.44, 73, 0, 4188.718, 4198.462, 4175.897, 4140, 4167.692, 16159, 0, []
1627624567.4479, 74, 0, 4179.487, 4201.538, 4201.538, 4134.359, 4171.282, 450, 0, []
1627624567.4558, 75, 0, 4182.564, 4204.615, 4156.41, 4136.923, 4171.795, 16182, 0, []
1627624567.4638, 76, 0, 4187.179, 4213.846, 4218.974, 4146.667, 4168.205, 450, 0, []
1627624567.4717, 77, 0, 4192.821, 4220, 4205.128, 4162.051, 4175.385, 450, 0, []
1627624567.4797, 78, 0, 4203.077, 4221.026, 4200, 4174.872, 4187.692, 450, 0, []
1627624567.4875, 79, 0, 4209.744, 4219.487, 4231.282, 4172.821, 4192.308, 16182, 0, []
1627624567.4953, 80, 0, 4200.513, 4206.154, 4171.282, 4154.872, 4183.59, 450, 0, []
1627624567.5032, 81, 0, 4196.923, 4202.564, 4198.462, 4145.128, 4180.513, 450, 0, []
1627624567.511, 82, 0, 4209.231, 4205.641, 4166.154, 4147.179, 4194.872, 450, 0, []
1627624567.5189, 83, 0, 4211.795, 4204.615, 4161.538, 4145.641, 4201.538, 16182, 0, []
1627624567.5266, 84, 0, 4198.462, 4210.769, 4217.436, 4144.615, 4189.231, 450, 0, []
1627624567.5345, 85, 0, 4198.462, 4217.436, 4172.308, 4159.487, 4182.051, 450, 0, []
1627624567.5423, 86, 0, 4210.256, 4221.538, 4229.231, 4168.205, 4190.256, 450, 0, []
1627624567.5502, 87, 0, 4206.667, 4208.205, 4230.256, 4158.974, 4191.282, 16182, 0, []
1627624567.558, 88, 0, 4198.974, 4193.333, 4198.462, 4156.923, 4182.051, 450, 0, []
1627624567.5659, 89, 0, 4202.051, 4196.41, 4230.256, 4166.154, 4183.59, 450, 0, []
1627624567.5738, 90, 0, 4205.641, 4195.385, 4159.487, 4169.231, 4190.256, 450, 0, []
1627624567.5818, 91, 0, 4200, 4192.308, 4187.692, 4165.641, 4182.051, 16182, 0, []
1627624567.5897, 92, 0, 4194.872, 4199.487, 4195.897, 4168.205, 4174.872, 450, 0, []
1627624567.5977, 93, 0, 4206.667, 4209.744, 4173.846, 4169.744, 4181.538, 450, 0, []
1627624567.6056, 94, 0, 4220, 4214.872, 4242.564, 4167.179, 4192.821, 450, 0, []
1627624567.6135, 95, 0, 4217.436, 4211.795, 4200, 4170.769, 4195.897, 16182, 0, []
1627624567.6214, 96, 0, 4213.333, 4215.897, 4217.949, 4171.282, 4193.333, 450, 0, []
1627624567.6294, 97, 0, 4217.949, 4220.513, 4223.077, 4166.154, 4194.872, 450, 0, []
1627624567.6373, 98, 0, 4209.744, 4207.692, 4172.821, 4155.897, 4193.846, 450, 0, []
1627624567.6453, 99, 0, 4199.487, 4198.974, 4215.385, 4152.308, 4189.744, 16182, 0, []
1627624567.6531, 100, 0, 4201.026, 4202.564, 4161.026, 4164.103, 4186.154, 450, 0, []
1627624567.6609, 101, 0, 4196.923, 4209.231, 4173.333, 4168.205, 4185.128, 450, 0, []
1627624567.6688, 102, 0, 4191.282, 4206.667, 4197.436, 4155.385, 4182.564, 450, 0, []
1627624567.6766, 103, 0, 4192.821, 4197.436, 4154.872, 4149.744, 4181.538, 16182, 0, []
1627624567.6845, 104, 0, 4192.821, 4194.872, 4224.103, 4158.974, 4181.538, 450, 0, []
1627624567.6922, 105, 0, 4195.897, 4188.205, 4200.513, 4165.641, 4180, 450, 0, []
1627624567.7001, 106, 0, 4217.436, 4192.821, 4189.231, 4176.923, 4201.538, 450, 0, []
1627624567.7079, 107, 0, 4233.333, 4208.205, 4197.436, 4185.641, 4224.103, 16182, 0, []
1627624567.7159, 108, 0, 4223.077, 4204.615, 4149.744, 4174.359, 4210.256, 450, 0, []
1627624567.7238, 109, 0, 4218.462, 4203.077, 4208.205, 4164.615, 4193.846, 450, 0, []
1627624567.7317, 110, 0, 4234.872, 4213.333, 4173.846, 4173.846, 4208.718, 450, 0, []
1627624567.7396, 111, 0, 4240, 4221.538, 4169.744, 4177.436, 4217.949, 16182, 0, []
1627624567.7476, 112, 0, 4222.051, 4227.179, 4220, 4168.205, 4204.103, 450, 0, []
1627624567.7555, 113, 0, 4213.846, 4226.154, 4175.385, 4168.718, 4198.462, 450, 0, []
1627624567.7635, 114, 0, 4215.897, 4222.051, 4221.538, 4173.333, 4196.923, 450, 0, []
1627624567.7713, 115, 0, 4201.026, 4207.692, 4200.513, 4162.051, 4183.59, 16182, 0, []
1627624567.7793, 116, 0, 4186.154, 4199.487, 4185.641, 4148.718, 4177.949, 450, 0, []
1627624567.7872, 117, 0, 4191.795, 4203.59, 4223.59, 4152.308, 4186.154, 450, 0, []
1627624567.7952, 118, 0, 4202.564, 4199.487, 4155.897, 4161.538, 4190.256, 450, 0, []
1627624567.8031, 119, 0, 4203.077, 4198.974, 4189.744, 4160, 4188.718, 16182, 0, []
1627624567.8108, 120, 0, 4193.846, 4205.128, 4184.615, 4150.256, 4188.205, 450, 0, []
1627624567.8187, 121, 0, 4183.59, 4208.205, 4160.513, 4138.462, 4181.538, 450, 0, []
1627624567.8265, 122, 0, 4190.256, 4215.897, 4207.179, 4136.41, 4176.923, 450, 0, []
1627624567.8344, 123, 0, 4197.949, 4215.897, 4158.974, 4140, 4174.872, 16182, 0, []
1627624567.8422, 124, 0, 4182.564, 4203.59, 4192.308, 4125.641, 4167.179, 450, 0, []
1627624567.85, 125, 0, 4167.179, 4192.821, 4186.667, 4109.744, 4162.051, 450, 0, []
1627624567.8578, 126, 0, 4172.308, 4193.333, 4146.154, 4118.974, 4168.205, 450, 0, []
1627624567.8657, 127, 0, 4171.282, 4196.923, 4191.795, 4134.359, 4169.231, 16182, 0, []
1627624567.8735, 128, 0, 4166.667, 4201.026, 4148.718, 4135.897, 4165.128, 450, 0, []
1627624567.8815, 0, 0, 4173.846, 4213.846, 4195.385, 4136.923, 4170.769, 450, 0, []
1627624567.8893, 1, 0, 4167.692, 4204.103, 4211.795, 4130.256, 4165.128, 450, 0, []
1627624567.8973, 2, 0, 4144.615, 4176.923, 4148.205, 4108.205, 4137.949, 16186, 0, []
1627624567.9052, 3, 0, 4145.128, 4187.692, 4182.051, 4107.692, 4137.436, 450, 0, []
1627624567.9132, 4, 0, 4167.179, 4207.692, 4143.59, 4131.282, 4163.077, 16129, 0, []
1627624567.9211, 5, 0, 4174.359, 4213.333, 4174.872, 4142.051, 4170.256, 450, 0, []
1627624567.929, 6, 0, 4177.436, 4226.667, 4210.769, 4148.205, 4171.795, 301, 0, []
1627624567.9369, 7, 0, 4186.667, 4230.769, 4173.846, 4157.949, 4182.051, 450, 0, []
1627624567.9449, 8, 0, 4178.974, 4212.821, 4209.231, 4144.615, 4170.256, 450, 0, []
1627624567.9528, 9, 0, 4172.308, 4207.692, 4149.744, 4128.205, 4159.487, 16165, 0, []
1627624567.9607, 10, 0, 4192.821, 4231.282, 4158.974, 4145.641, 4180.513, 450, 0, []
1627624567.9685, 11, 0, 4209.231, 4248.205, 4192.308, 4165.641, 4195.385, 16187, 0, []
1627624567.9764, 12, 0, 4194.359, 4246.667, 4138.974, 4157.949, 4180.513, 450, 0, []
1627624567.9842, 13, 0, 4185.128, 4250.256, 4205.641, 4151.282, 4171.795, 450, 0, []
1627624567.992, 14, 0, 4198.462, 4247.179, 4194.359, 4156.41, 4176.923, 450, 0, []
1627624567.9999, 15, 0, 4192.821, 4235.897, 4184.103, 4145.128, 4166.667, 16187, 0, []
1627624568.0076, 16, 0, 4166.154, 4228.718, 4211.795, 4121.538, 4150.256, 0, 0, []
1627624568.0155, 17, 0, 4165.641, 4227.179, 4157.949, 4125.128, 4154.359, 0, 0, []
1627624568.0233, 18, 0, 4186.667, 4239.487, 4197.949, 4143.59, 4170.769, 0, 0, []
1627624568.0313, 19, 0, 4190.769, 4245.128, 4172.821, 4142.564, 4174.872, 0, 0, []
1627624568.0392, 20, 0, 4182.564, 4249.231, 4160, 4136.41, 4170.256, 0, 0, []
1627624568.0471, 21, 0, 4177.949, 4260, 4207.179, 4139.487, 4163.59, 0, 0, []
1627624568.055, 22, 0, 4168.205, 4251.795, 4156.41, 4138.462, 4152.821, 0, 0, []
1627624568.063, 23, 0, 4163.077, 4240.513, 4197.436, 4130.769, 4147.179, 0, 0, []
1627624568.0709, 24, 0, 4175.385, 4238.974, 4182.051, 4133.333, 4153.333, 0, 0, []
1627624568.0789, 25, 0, 4183.077, 4234.359, 4152.308, 4140, 4161.538, 0, 0, []
1627624568.0867, 26, 0, 4169.744, 4228.205, 4200, 4130.769, 4156.41, 0, 0, []
1627624568.0947, 27, 0, 4162.564, 4228.718, 4149.744, 4125.128, 4151.282, 0, 0, []
1627624568.1026, 28, 0, 4178.974, 4248.718, 4191.795, 4141.538, 4164.103, 0, 0, []
1627624568.1106, 29, 0, 4195.385, 4270.769, 4207.692, 4157.436, 4182.564, 0, 0, []
1627624568.1185, 30, 0, 4199.487, 4270.256, 4182.051, 4153.846, 4184.615, 0, 0, []
1627624568.1262, 31, 0, 4202.564, 4261.538, 4229.744, 4150.769, 4185.641, 0, 0, []
1627624568.1341, 32, 0, 4205.128, 4253.333, 4175.897, 4156.41, 4193.846, 0, 0, []
1627624568.1419, 33, 0, 4200.513, 4249.231, 4191.795, 4155.897, 4188.718, 0, 0, []
1627624568.1498, 34, 0, 4201.538, 4245.641, 4189.231, 4155.897, 4185.128, 0, 0, []
1627624568.1576, 35, 0, 4213.333, 4248.205, 4146.154, 4166.154, 4197.436, 0, 0, []
1627624568.1654, 36, 0, 4221.026, 4266.154, 4202.564, 4178.462, 4208.205, 0, 0, []
1627624568.1732, 37, 0, 4221.026, 4272.821, 4158.974, 4179.487, 4205.641, 0, 0, []
1627624568.1812, 38, 0, 4214.872, 4269.231, 4187.692, 4167.692, 4197.436, 0, 0, []
1627624568.1891, 39, 0, 4204.103, 4266.667, 4230.256, 4160, 4187.692, 0, 0, []
1627624568.197, 40, 0, 4197.436, 4256.923, 4182.564, 4156.41, 4181.026, 0, 0, []
1627624568.2047, 41, 0, 4197.949, 4245.641, 4210.769, 4151.795, 4182.564, 0, 0, []
1627624568.2127, 42, 0, 4198.974, 4238.462, 4167.692, 4152.821, 4185.128, 0, 0, []
1627624568.2206, 43, 0, 4204.615, 4240.513, 4180, 4158.462, 4186.154, 0, 0, []
1627624568.2286, 44, 0, 4203.077, 4232.308, 4191.282, 4158.462, 4183.077, 0, 0, []
1627624568.2365, 45, 0, 4194.872, 4222.051, 4133.333, 4162.051, 4185.128, 0, 0, []
1627624568.2444, 46, 0, 4207.692, 4247.692, 4209.231, 4171.282, 4199.487, 0, 0, []
1627624568.2523, 47, 0, 4221.026, 4270.256, 4191.282, 4163.59, 4201.026, 0, 0, []
1627624568.2603, 48, 0, 4198.974, 4253.846, 4174.872, 4136.923, 4175.385, 0, 0, []
1627624568.2682, 49, 0, 4178.974, 4236.41, 4217.949, 4126.154, 4158.974, 0, 0, []
1627624568.276, 50, 0, 4192.821, 4238.462, 4173.846, 4140.513, 4170.769, 0, 0, []
1627624568.2838, 51, 0, 4204.615, 4239.487, 4198.462, 4146.667, 4183.59, 0, 0, []
1627624568.2916, 52, 0, 4206.667, 4231.795, 4161.026, 4147.692, 4191.282, 0, 0, []
1627624568.2995, 53, 0, 4214.359, 4236.923, 4158.462, 4155.897, 4200, 0, 0, []
1627624568.3073, 54, 0, 4222.564, 4257.949, 4211.282, 4157.949, 4204.615, 0, 0, []
1627624568.3152, 55, 0, 4228.718, 4268.718, 4162.051, 4161.538, 4208.718, 0, 0, []
1627624568.3229, 56, 0, 4236.41, 4275.897, 4214.872, 4177.949, 4218.974, 0, 0, []
1627624568.3308, 57, 0, 4237.436, 4280.513, 4212.308, 4181.026, 4217.949, 0, 0, []
1627624568.3386, 58, 0, 4225.128, 4271.795, 4188.718, 4164.103, 4198.974, 0, 0, []
1627624568.3465, 59, 0, 4227.179, 4266.154, 4238.462, 4161.026, 4202.564, 0, 0, []
1627624568.3543, 60, 0, 4232.308, 4256.923, 4179.487, 4163.59, 4208.205, 0, 0, []
1627624568.3623, 61, 0, 4213.846, 4243.077, 4203.59, 4149.231, 4186.667, 0, 0, []
1627624568.3701, 62, 0, 4205.128, 4243.59, 4202.564, 4152.308, 4188.718, 0, 0, []
1627624568.3781, 63, 0, 4223.59, 4258.462, 4169.231, 4171.795, 4213.846, 0, 0, []
1627624568.386, 64, 0, 4227.692, 4258.462, 4211.795, 4168.718, 4212.821, 450, 0, []
1627624568.394, 65, 0, 4211.795, 4237.436, 4156.923, 4149.231, 4196.41, 450, 0, []
1627624568.4019, 66, 0, 4214.359, 4243.077, 4186.667, 4148.205, 4196.923, 16186, 0, []
1627624568.4098, 67, 0, 4219.487, 4261.538, 4210.256, 4162.564, 4205.128, 450, 0, []
1627624568.4177, 68, 0, 4214.872, 4257.436, 4185.128, 4170.256, 4208.718, 16134, 0, []
1627624568.4255, 69, 0, 4223.077, 4255.897, 4242.564, 4171.795, 4210.769, 450, 0, []
1627624568.4334, 70, 0, 4226.667, 4251.795, 4193.846, 4169.231, 4200.513, 305, 0, []
1627624568.4412, 71, 0, 4219.487, 4249.231, 4200, 4166.667, 4191.282, 450, 0, []
1627624568.449, 72, 0, 4218.462, 4250.256, 4205.641, 4163.077, 4196.41, 450, 0, []
1627624568.4568, 73, 0, 4218.462, 4242.051, 4155.385, 4156.41, 4197.436, 16166, 0, []
1627624568.4647, 74, 0, 4217.436, 4241.538, 4205.128, 4155.385, 4193.333, 450, 0, []
1627624568.4725, 75, 0, 4215.385, 4245.128, 4161.538, 4157.436, 4191.795, 16189, 0, []
1627624568.4804, 76, 0, 4206.667, 4248.205, 4178.974, 4152.821, 4186.667, 450, 0, []
1627624568.4881, 77, 0, 4201.538, 4255.897, 4226.154, 4148.718, 4183.077, 450, 0, []
1627624568.4961, 78, 0, 4212.308, 4257.949, 4173.333, 4157.949, 4189.744, 450, 0, []
1627624568.504, 79, 0, 4218.974, 4251.282, 4215.897, 4169.744, 4195.385, 16189, 0, []
1627624568.512, 80, 0, 4219.487, 4241.538, 4186.154, 4167.179, 4192.821, 450, 0, []
1627624568.5199, 81, 0, 4213.846, 4237.436, 4167.692, 4156.41, 4191.795, 450, 0, []
1627624568.5278, 82, 0, 4200, 4229.231, 4187.179, 4147.179, 4185.641, 450, 0, []
1627624568.5357, 83, 0, 4201.026, 4218.462, 4140.513, 4146.667, 4180, 16189, 0, []
1627624568.5437, 84, 0, 4214.872, 4228.718, 4200, 4154.872, 4186.667, 450, 0, []
1627624568.5516, 85, 0, 4218.462, 4237.949, 4187.179, 4160.513, 4195.385, 450, 0, []
1627624568.5596, 86, 0, 4210.769, 4229.744, 4176.41, 4152.308, 4186.154, 450, 0, []
1627624568.5674, 87, 0, 4204.103, 4224.103, 4213.846, 4140, 4172.308, 16189, 0, []
1627624568.5754, 88, 0, 4200.513, 4217.436, 4153.333, 4142.051, 4175.385, 450, 0, []
1627624568.5833, 89, 0, 4201.026, 4211.795, 4190.256, 4146.667, 4184.615, 450, 0, []
1627624568.5911, 90, 0, 4208.205, 4211.795, 4168.205, 4147.692, 4190.769, 450, 0, []
1627624568.599, 91, 0, 4216.41, 4217.949, 4141.026, 4153.846, 4197.949, 16189, 0, []
1627624568.6067, 92, 0, 4207.179, 4217.949, 4190.769, 4149.744, 4193.846, 450, 0, []
1627624568.6146, 93, 0, 4194.359, 4211.795, 4137.436, 4137.436, 4176.923, 450, 0, []
1627624568.6224, 94, 0, 4217.436, 4231.795, 4188.205, 4156.41, 4191.795, 450, 0, []
1627624568.6303, 95, 0, 4243.077, 4248.205, 4210.256, 4182.564, 4222.564, 16189, 0, []
1627624568.6381, 96, 0, 4217.436, 4227.692, 4177.436, 4158.974, 4203.077, 450, 0, []
1627624568.6459, 97, 0, 4200.513, 4214.872, 4213.846, 4142.051, 4181.538, 450, 0, []
1627624568.6537, 98, 0, 4226.667, 4219.487, 4153.846, 4167.692, 4208.205, 450, 0, []
1627624568.6616, 99, 0, 4229.744, 4217.949, 4176.41, 4167.179, 4217.949, 16189, 0, []
1627624568.6694, 100, 0, 4199.487, 4201.538, 4177.949, 4134.359, 4186.154, 450, 0, []
1627624568.6774, 101, 0, 4192.308, 4194.872, 4127.179, 4130.256, 4178.974, 450, 0, []
1627624568.6852, 102, 0, 4205.128, 4209.744, 4189.231, 4143.59, 4188.718, 450, 0, []
1627624568.6932, 103, 0, 4198.462, 4213.846, 4167.692, 4131.795, 4172.821, 16189, 0, []
1627624568.7011, 104, 0, 4192.821, 4211.795, 4182.564, 4124.615, 4168.205, 450, 0, []
1627624568.7091, 105, 0, 4211.282, 4215.385, 4197.436, 4146.154, 4188.205, 450, 0, []
1627624568.717, 106, 0, 4216.41, 4210.769, 4158.974, 4155.385, 4189.231, 450, 0, []
1627624568.7249, 107, 0, 4192.308, 4198.974, 4196.41, 4137.949, 4175.385, 16189, 0, []
1627624568.7328, 108, 0, 4177.436, 4189.744, 4143.077, 4130.256, 4172.308, 450, 0, []
1627624568.7407, 109, 0, 4195.385, 4203.59, 4163.59, 4145.128, 4182.564, 450, 0, []
1627624568.7486, 110, 0, 4218.974, 4227.692, 4203.59, 4151.282, 4192.308, 450, 0, []
1627624568.7564, 111, 0, 4213.846, 4228.718, 4153.846, 4140, 4189.744, 16189, 0, []
1627624568.7642, 112, 0, 4199.487, 4216.923, 4208.718, 4135.385, 4182.564, 450, 0, []
1627624568.772, 113, 0, 4205.641, 4209.744, 4176.41, 4145.641, 4184.615, 450, 0, []
1627624568.7799, 114, 0, 4215.897, 4212.308, 4153.846, 4152.821, 4187.692, 450, 0, []
1627624568.7877, 115, 0, 4210.256, 4215.897, 4171.795, 4147.692, 4189.231, 16189, 0, []
1627624568.7956, 116, 0, 4206.154, 4213.333, 4124.103, 4145.128, 4194.359, 450, 0, []
1627624568.8033, 117, 0, 4220, 4226.154, 4187.179, 4153.333, 4200.513, 450, 0, []
1627624568.8112, 118, 0, 4232.821, 4248.205, 4177.436, 4167.179, 4210.769, 450, 0, []
1627624568.819, 119, 0, 4228.718, 4238.974, 4162.051, 4169.231, 4214.872, 16189, 0, []
1627624568.827, 120, 0, 4218.462, 4209.231, 4195.385, 4157.949, 4204.615, 450, 0, []
1627624568.8349, 121, 0, 4212.821, 4193.846, 4135.897, 4152.821, 4196.41, 450, 0, []
1627624568.8428, 122, 0, 4204.615, 4201.538, 4173.846, 4151.795, 4193.333, 450, 0, []
1627624568.8507, 123, 0, 4189.744, 4202.051, 4160, 4140.513, 4180.513, 16189, 0, []
1627624568.8587, 124, 0, 4194.872, 4204.615, 4146.667, 4137.436, 4176.41, 450, 0, []
1627624568.8666, 125, 0, 4205.128, 4224.103, 4219.487, 4149.231, 4186.667, 450, 0, []
1627624568.8746, 126, 0, 4191.282, 4217.436, 4172.821, 4154.359, 4177.949, 450, 0, []
1627624568.8824, 127, 0, 4202.564, 4204.103, 4185.641, 4157.949, 4186.667, 16189, 0, []
1627624568.8904, 128, 0, 4256.41, 4209.744, 4171.282, 4162.051, 4237.436, 450, 0, []
1627624568.8983, 0, 0, 4283.59, 4211.282, 4138.462, 4154.359, 4266.154, 450, 0, []
1627624568.9061, 1, 0, 4270.256, 4206.667, 4176.41, 4147.179, 4257.949, 450, 0, []
1627624568.914, 2, 0, 4264.103, 4212.308, 4118.974, 4158.462, 4255.385, 16186, 0, []
1627624568.9217, 3, 0, 4262.051, 4229.744, 4166.154, 4169.231, 4245.641, 450, 0, []
1627624568.9296, 4, 0, 4244.615, 4231.282, 4187.179, 4160, 4216.41, 16127, 0, []
1627624568.9374, 5, 0, 4239.487, 4228.205, 4139.487, 4153.846, 4213.333, 450, 0, []
1627624568.9453, 6, 0, 4250.769, 4243.59, 4204.615, 4163.59, 4235.385, 303, 0, []
1627624568.9531, 7, 0, 4253.846, 4243.59, 4181.026, 4162.051, 4237.436, 450, 0, []
1627624568.9609, 8, 0, 4253.846, 4234.359, 4183.59, 4151.795, 4225.641, 450, 0, []
1627624568.9688, 9, 0, 4250.256, 4230.769, 4176.923, 4153.846, 4227.692, 16170, 0, []
1627624568.9767, 10, 0, 4237.436, 4221.538, 4134.359, 4155.897, 4228.205, 450, 0, []
1627624568.9847, 11, 0, 4234.359, 4219.487, 4187.179, 4153.846, 4225.128, 16195, 0, []
1627624568.9927, 12, 0, 4245.641, 4225.128, 4138.462, 4164.103, 4228.205, 450, 0, []
1627624569.0005, 13, 0, 4241.538, 4232.821, 4150.256, 4166.667, 4223.59, 450, 0, []
1627624569.0085, 14, 0, 4231.795, 4242.564, 4187.692, 4160, 4216.923, 450, 0, []
1627624569.0164, 15, 0, 4240, 4247.692, 4143.077, 4163.59, 4221.538, 16195, 0, []
1627624569.0244, 16, 0, 4236.923, 4245.128, 4190.769, 4161.026, 4220, 0, 0, []
1627624569.0323, 17, 0, 4224.615, 4239.487, 4161.538, 4156.923, 4208.718, 0, 0, []
1627624569.0402, 18, 0, 4236.923, 4247.692, 4162.564, 4168.718, 4215.385, 0, 0, []
1627624569.0481, 19, 0, 4246.154, 4251.282, 4189.744, 4174.872, 4226.154, 0, 0, []
1627624569.0559, 20, 0, 4244.103, 4244.615, 4123.077, 4174.359, 4231.282, 0, 0, []
1627624569.0638, 21, 0, 4269.231, 4266.154, 4172.308, 4191.795, 4257.949, 0, 0, []
1627624569.0716, 22, 0, 4286.154, 4284.615, 4156.923, 4201.026, 4272.308, 0, 0, []
1627624569.0794, 23, 0, 4254.872, 4268.205, 4134.359, 4178.462, 4240.513, 0, 0, []
1627624569.0872, 24, 0, 4232.821, 4263.077, 4176.923, 4169.744, 4220, 0, 0, []
1627624569.0951, 25, 0, 4228.205, 4265.641, 4134.359, 4170.256, 4215.897, 0, 0, []
1627624569.1029, 26, 0, 4218.462, 4256.923, 4183.59, 4152.821, 4199.487, 0, 0, []
1627624569.1109, 27, 0, 4237.436, 4261.026, 4181.538, 4154.872, 4209.231, 0, 0, []
1627624569.1188, 28, 0, 4266.154, 4275.385, 4154.872, 4175.385, 4240.513, 0, 0, []
1627624569.1267, 29, 0, 4254.872, 4274.872, 4193.846, 4179.487, 4235.897, 0, 0, []
1627624569.1346, 30, 0, 4243.077, 4271.795, 4151.795, 4182.051, 4224.103, 0, 0, []
1627624569.1426, 31, 0, 4256.41, 4284.103, 4188.205, 4188.718, 4232.821, 0, 0, []
1627624569.1505, 32, 0, 4250.256, 4279.487, 4169.231, 4177.436, 4226.154, 0, 0, []
1627624569.1585, 33, 0, 4229.231, 4264.103, 4136.923, 4165.641, 4210.769, 0, 0, []
1627624569.1663, 34, 0, 4229.744, 4270.256, 4193.333, 4174.359, 4216.923, 0, 0, []
1627624569.1743, 35, 0, 4233.846, 4265.641, 4128.718, 4175.385, 4216.41, 0, 0, []
1627624569.1822, 36, 0, 4213.333, 4250.769, 4150.256, 4155.897, 4191.795, 0, 0, []
1627624569.19, 37, 0, 4202.051, 4263.077, 4182.564, 4150.256, 4183.077, 0, 0, []
1627624569.1979, 38, 0, 4220.513, 4283.59, 4155.385, 4170.769, 4202.051, 0, 0, []
1627624569.2056, 39, 0, 4227.179, 4278.462, 4202.051, 4173.846, 4208.205, 0, 0, []
1627624569.2135, 40, 0, 4210.769, 4259.487, 4171.795, 4156.923, 4193.846, 0, 0, []
1627624569.2213, 41, 0, 4217.436, 4266.667, 4191.282, 4164.103, 4198.462, 0, 0, []
1627624569.2292, 42, 0, 4227.692, 4275.897, 4186.667, 4174.872, 4211.282, 0, 0, []
1627624569.237, 43, 0, 4200, 4259.487, 4130.256, 4152.308, 4193.846, 0, 0, []
1627624569.2448, 44, 0, 4187.692, 4258.462, 4174.359, 4143.59, 4182.051, 0, 0, []
1627624569.2526, 45, 0, 4211.282, 4269.231, 4129.744, 4164.615, 4196.923, 0, 0, []
1627624569.2605, 46, 0, 4213.333, 4272.821, 4136.923, 4168.718, 4194.359, 0, 0, []
1627624569.2683, 47, 0, 4193.846, 4275.897, 4181.026, 4161.538, 4179.487, 0, 0, []
1627624569.2763, 48, 0, 4207.692, 4283.077, 4162.564, 4172.308, 4193.333, 0, 0, []
1627624569.2841, 49, 0, 4226.154, 4289.231, 4210.256, 4181.538, 4203.077, 0, 0, []
1627624569.2921, 50, 0, 4204.615, 4270.256, 4173.846, 4165.641, 4177.949, 0, 0, []
1627624569.3, 51, 0, 4180, 4246.667, 4169.744, 4145.128, 4159.487, 0, 0, []
1627624569.308, 52, 0, 4185.128, 4241.026, 4172.821, 4140.513, 4166.154, 0, 0, []
1627624569.3159, 53, 0, 4196.923, 4242.051, 4104.103, 4146.667, 4169.744, 0, 0, []
1627624569.3238, 54, 0, 4190.256, 4253.846, 4160.513, 4149.231, 4164.615, 0, 0, []
1627624569.3317, 55, 0, 4181.026, 4262.051, 4150.769, 4146.154, 4163.59, 0, 0, []
1627624569.3397, 56, 0, 4189.231, 4256.41, 4154.359, 4150.256, 4168.718, 0, 0, []
1627624569.3476, 57, 0, 4203.59, 4252.308, 4204.615, 4156.923, 4175.897, 0, 0, []
1627624569.3554, 58, 0, 4200, 4247.179, 4147.692, 4149.231, 4174.359, 0, 0, []
1627624569.3632, 59, 0, 4188.205, 4244.103, 4184.103, 4139.487, 4165.641, 0, 0, []
1627624569.371, 60, 0, 4185.641, 4241.538, 4165.128, 4137.949, 4157.949, 0, 0, []
1627624569.3789, 61, 0, 4178.974, 4238.974, 4113.846, 4138.462, 4151.282, 0, 0, []
1627624569.3867, 62, 0, 4179.487, 4246.154, 4146.154, 4154.359, 4156.923, 0, 0, []
1627624569.3946, 63, 0, 4192.821, 4252.821, 4110.256, 4172.821, 4169.744, 0, 0, []
1627624569.4023, 64, 0, 4194.872, 4256.41, 4150.256, 4162.564, 4169.744, 450, 0, []
1627624569.4102, 65, 0, 4185.641, 4251.795, 4150.769, 4147.692, 4163.59, 450, 0, []
1627624569.418, 66, 0, 4184.615, 4247.179, 4130.256, 4150.769, 4161.538, 16186, 0, []
1627624569.426, 67, 0, 4179.487, 4245.641, 4172.821, 4148.205, 4159.487, 450, 0, []
1627624569.4339, 68, 0, 4165.128, 4224.103, 4106.667, 4135.897, 4147.692, 16126, 0, []
1627624569.4418, 69, 0, 4163.077, 4210.769, 4133.333, 4132.308, 4138.462, 450, 0, []
1627624569.4497, 70, 0, 4169.744, 4221.538, 4143.59, 4143.59, 4140, 325, 0, []
1627624569.4577, 71, 0, 4167.692, 4227.179, 4102.564, 4154.872, 4144.615, 450, 0, []
1627624569.4656, 72, 0, 4164.615, 4221.026, 4173.846, 4154.359, 4149.744, 450, 0, []
1627624569.4736, 73, 0, 4174.872, 4217.436, 4154.872, 4158.462, 4164.103, 16170, 0, []
1627624569.4814, 74, 0, 4184.615, 4221.026, 4164.103, 4168.205, 4182.051, 450, 0, []
1627624569.4894, 75, 0, 4177.949, 4209.744, 4154.872, 4163.077, 4182.051, 16195, 0, []
1627624569.4973, 76, 0, 4167.692, 4194.872, 4102.051, 4151.282, 4170.256, 450, 0, []
1627624569.5053, 77, 0, 4169.231, 4202.564, 4165.641, 4151.282, 4168.205, 450, 0, []
1627624569.5132, 78, 0, 4175.385, 4205.128, 4145.128, 4162.051, 4176.41, 450, 0, []
1627624569.5209, 79, 0, 4173.333, 4196.41, 4169.744, 4168.718, 4174.359, 16195, 0, []
1627624569.5288, 80, 0, 4157.949, 4188.718, 4200, 4156.41, 4160, 450, 0, []
1627624569.5366, 81, 0, 4140.513, 4186.154, 4134.872, 4137.436, 4147.692, 450, 0, []
1627624569.5445, 82, 0, 4141.026, 4200.513, 4163.59, 4135.897, 4144.615, 450, 0, []
1627624569.5523, 83, 0, 4149.744, 4211.795, 4132.308, 4141.026, 4143.59, 16195, 0, []
1627624569.5601, 84, 0, 4153.846, 4221.026, 4153.333, 4140, 4146.154, 450, 0, []
1627624569.5679, 85, 0, 4155.897, 4230.256, 4197.436, 4143.077, 4155.385, 450, 0, []
1627624569.5758, 86, 0, 4144.103, 4209.744, 4126.154, 4141.026, 4151.795, 450, 0, []
1627624569.5836, 87, 0, 4130.769, 4181.538, 4162.564, 4128.205, 4141.538, 16195, 0, []
1627624569.5916, 88, 0, 4131.795, 4169.744, 4132.308, 4118.462, 4143.59, 450, 0, []
1627624569.5994, 89, 0, 4138.974, 4171.282, 4115.385, 4118.462, 4154.872, 450, 0, []
1627624569.6074, 90, 0, 4140.513, 4177.949, 4185.641, 4123.077, 4159.487, 450, 0, []
1627624569.6153, 91, 0, 4132.308, 4174.359, 4142.564, 4126.154, 4150.256, 16195, 0, []
1627624569.6233, 92, 0, 4117.949, 4168.205, 4157.949, 4113.846, 4136.41, 450, 0, []
1627624569.6312, 93, 0, 4121.026, 4165.641, 4123.59, 4105.128, 4135.385, 450, 0, []
1627624569.6391, 94, 0, 4141.026, 4167.692, 4105.128, 4115.385, 4145.641, 450, 0, []
1627624569.647, 95, 0, 4144.103, 4175.385, 4173.333, 4120, 4144.615, 16195, 0, []
1627624569.655, 96, 0, 4140, 4177.436, 4138.462, 4115.385, 4140.513, 450, 0, []
1627624569.6629, 97, 0, 4151.282, 4180.513, 4178.462, 4119.487, 4153.333, 450, 0, []
1627624569.6707, 98, 0, 4156.923, 4175.897, 4167.692, 4119.487, 4162.051, 450, 0, []
1627624569.6785, 99, 0, 4138.462, 4163.59, 4123.077, 4104.103, 4149.231, 16195, 0, []
1627624569.6863, 100, 0, 4114.872, 4166.667, 4173.333, 4096.41, 4127.179, 450, 0, []
1627624569.6942, 101, 0, 4110.256, 4169.744, 4141.538, 4097.436, 4114.872, 450, 0, []
1627624569.702, 102, 0, 4129.231, 4168.205, 4178.462, 4091.795, 4124.615, 450, 0, []
1627624569.7099, 103, 0, 4149.744, 4161.538, 4171.282, 4088.205, 4139.487, 16195, 0, []
1627624569.7176, 104, 0, 4149.231, 4152.821, 4117.949, 4087.179, 4139.487, 450, 0, []
1627624569.7255, 105, 0, 4146.154, 4160.513, 4173.846, 4089.231, 4137.436, 450, 0, []
1627624569.7333, 106, 0, 4152.821, 4173.333, 4137.436, 4098.462, 4139.487, 450, 0, []
1627624569.7413, 107, 0, 4156.41, 4184.615, 4158.974, 4108.205, 4137.436, 16195, 0, []
1627624569.7492, 108, 0, 4153.333, 4183.59, 4190.256, 4105.641, 4136.41, 450, 0, []
1627624569.7571, 109, 0, 4159.487, 4175.385, 4154.359, 4108.718, 4147.692, 450, 0, []
1627624569.765, 110, 0, 4170.256, 4175.897, 4182.051, 4122.051, 4158.974, 450, 0, []
1627624569.773, 111, 0, 4167.692, 4158.974, 4127.179, 4116.41, 4156.923, 16195, 0, []
1627624569.7809, 112, 0, 4160, 4141.538, 4156.923, 4107.179, 4151.282, 450, 0, []
1627624569.7889, 113, 0, 4156.41, 4143.59, 4211.795, 4108.205, 4146.154, 450, 0, []
1627624569.7967, 114, 0, 4148.718, 4130.256, 4168.205, 4094.872, 4133.333, 450, 0, []
1627624569.8047, 115, 0, 4149.231, 4109.744, 4198.974, 4090.769, 4135.385, 16195, 0, []
1627624569.8126, 116, 0, 4166.667, 4114.359, 4153.333, 4118.974, 4159.487, 450, 0, []
1627624569.8206, 117, 0, 4171.282, 4136.923, 4143.59, 4129.744, 4162.051, 450, 0, []
1627624569.8285, 118, 0, 4160, 4151.282, 4179.487, 4112.821, 4145.128, 450, 0, []
1627624569.8362, 119, 0, 4149.744, 4151.795, 4147.692, 4101.538, 4132.308, 16195, 0, []
1627624569.8441, 120, 0, 4145.128, 4151.282, 4202.564, 4096.41, 4121.026, 450, 0, []
1627624569.8519, 121, 0, 4152.821, 4150.769, 4162.564, 4098.974, 4127.692, 450, 0, []
1627624569.8598, 122, 0, 4171.282, 4159.487, 4137.949, 4117.436, 4152.308, 450, 0, []
1627624569.8676, 123, 0, 4176.41, 4171.795, 4185.128, 4128.718, 4157.436, 16195, 0, []
1627624569.8755, 124, 0, 4161.538, 4167.692, 4137.436, 4116.41, 4138.462, 450, 0, []
1627624569.8832, 125, 0, 4157.949, 4170.769, 4181.026, 4106.667, 4139.487, 450, 0, []
1627624569.8912, 126, 0, 4170.769, 4172.308, 4178.462, 4112.308, 4156.41, 450, 0, []
1627624569.8991, 127, 0, 4165.641, 4157.436, 4153.846, 4112.308, 4150.256, 16195, 0, []
1627624569.9071, 128, 0, 4151.282, 4149.744, 4183.077, 4105.128, 4135.897, 450, 0, []
1627624569.915, 0, 0, 4158.974, 4150.769, 4130.769, 4107.179, 4137.949, 450, 0, []
1627624569.9229, 1, 0, 4170.769, 4156.41, 4179.487, 4111.795, 4143.59, 450, 0, []
1627624569.9308, 2, 0, 4162.564, 4163.077, 4186.154, 4106.667, 4141.538, 16186, 0, []
1627624569.9388, 3, 0, 4161.026, 4170.256, 4152.308, 4104.103, 4142.051, 450, 0, []
1627624569.9467, 4, 0, 4177.436, 4173.846, 4192.308, 4115.897, 4154.872, 16134, 0, []
1627624569.9547, 5, 0, 4182.051, 4163.59, 4138.462, 4124.615, 4165.128, 450, 0, []
1627624569.9625, 6, 0, 4178.462, 4168.718, 4164.103, 4122.564, 4169.231, 279, 0, []
1627624569.9703, 7, 0, 4185.128, 4180, 4169.231, 4125.128, 4172.308, 450, 0, []
1627624569.9782, 8, 0, 4193.846, 4177.436, 4128.205, 4136.923, 4176.41, 450, 0, []
1627624569.986, 9, 0, 4201.538, 4178.974, 4196.923, 4137.949, 4181.538, 16170, 0, []
1627624569.9939, 10, 0, 4205.641, 4174.359, 4171.282, 4123.077, 4181.026, 450, 0, []
1627624570.0016, 11, 0, 4231.282, 4173.333, 4177.949, 4122.564, 4201.538, 16190, 0, []
1627624570.0095, 12, 0, 4293.846, 4186.667, 4188.205, 4143.59, 4261.026, 450, 0, []
1627624570.0173, 13, 0, 4370.256, 4202.051, 4154.359, 4163.59, 4336.41, 450, 0, []
1627624570.0252, 14, 0, 4446.667, 4215.897, 4211.282, 4171.795, 4410.769, 450, 0, []
1627624570.033, 15, 0, 4517.949, 4216.923, 4169.744, 4167.692, 4472.821, 16190, 0, []
1627624570.0408, 16, 0, 4555.385, 4215.385, 4169.231, 4157.436, 4506.667, 0, 0, []
1627624570.0486, 17, 0, 4556.923, 4221.026, 4180.513, 4157.436, 4516.41, 0, 0, []
1627624570.0566, 18, 0, 4553.333, 4222.564, 4127.692, 4170.769, 4519.487, 0, 0, []
1627624570.0645, 19, 0, 4537.949, 4221.538, 4184.103, 4175.897, 4508.718, 0, 0, []
1627624570.0725, 20, 0, 4502.564, 4220.513, 4166.154, 4177.436, 4476.923, 0, 0, []
1627624570.0803, 21, 0, 4469.744, 4226.154, 4182.051, 4184.615, 4438.974, 0, 0, []
1627624570.0883, 22, 0, 4446.667, 4237.949, 4216.923, 4187.179, 4415.385, 0, 0, []
1627624570.0962, 23, 0, 4415.385, 4237.436, 4155.897, 4173.846, 4391.795, 0, 0, []
1627624570.1042, 24, 0, 4370.256, 4228.205, 4201.538, 4152.308, 4349.744, 0, 0, []
1627624570.1121, 25, 0, 4341.026, 4225.128, 4176.923, 4146.154, 4319.487, 0, 0, []
1627624570.12, 26, 0, 4329.744, 4230.256, 4160.513, 4151.795, 4309.744, 0, 0, []
1627624570.1279, 27, 0, 4316.923, 4231.795, 4197.949, 4152.308, 4299.487, 0, 0, []
1627624570.1357, 28, 0, 4303.077, 4231.282, 4147.692, 4155.897, 4291.795, 0, 0, []
1627624570.1436, 29, 0, 4285.641, 4239.487, 4195.897, 4161.026, 4281.026, 0, 0, []
1627624570.1514, 30, 0, 4263.59, 4233.846, 4194.872, 4153.333, 4254.872, 0, 0, []
1627624570.1592, 31, 0, 4257.436, 4220.513, 4176.41, 4149.231, 4238.974, 0, 0, []
1627624570.167, 32, 0, 4258.974, 4219.487, 4215.385, 4154.872, 4241.026, 0, 0, []
1627624570.1749, 33, 0, 4243.077, 4215.385, 4169.231, 4152.821, 4231.282, 0, 0, []
1627624570.1827, 34, 0, 4233.333, 4221.538, 4201.538, 4154.872, 4223.077, 0, 0, []
1627624570.1906, 35, 0, 4229.744, 4225.641, 4184.103, 4155.897, 4220, 0, 0, []
1627624570.1983, 36, 0, 4209.744, 4208.205, 4142.564, 4132.308, 4197.436, 0, 0, []
1627624570.2063, 37, 0, 4202.051, 4202.051, 4180.513, 4124.615, 4186.667, 0, 0, []
1627624570.2142, 38, 0, 4225.128, 4221.026, 4137.949, 4160.513, 4214.872, 0, 0, []
1627624570.2222, 39, 0, 4235.897, 4238.462, 4186.667, 4179.487, 4229.744, 0, 0, []
1627624570.2301, 40, 0, 4215.897, 4234.872, 4193.846, 4159.487, 4208.205, 0, 0, []
1627624570.238, 41, 0, 4210.256, 4235.385, 4140, 4155.385, 4205.128, 0, 0, []
1627624570.2459, 42, 0, 4228.718, 4258.974, 4198.974, 4177.436, 4222.564, 0, 0, []
1627624570.2539, 43, 0, 4235.385, 4268.718, 4179.487, 4187.179, 4219.487, 0, 0, []
1627624570.2618, 44, 0, 4233.333, 4268.205, 4200.513, 4186.154, 4214.359, 0, 0, []
1627624570.2698, 45, 0, 4235.897, 4269.231, 4208.718, 4191.282, 4220.513, 0, 0, []
1627624570.2776, 46, 0, 4228.205, 4259.487, 4168.205, 4185.128, 4212.821, 0, 0, []
1627624570.2856, 47, 0, 4218.462, 4260.513, 4221.538, 4177.436, 4207.179, 0, 0, []
1627624570.2935, 48, 0, 4218.974, 4266.154, 4173.846, 4178.462, 4210.769, 0, 0, []
1627624570.3013, 49, 0, 4212.821, 4258.974, 4172.308, 4167.179, 4197.949, 0, 0, []
1627624570.3092, 50, 0, 4205.641, 4256.923, 4184.615, 4156.923, 4191.282, 0, 0, []
1627624570.3169, 51, 0, 4213.333, 4273.333, 4131.795, 4167.179, 4205.641, 0, 0, []
1627624570.3248, 52, 0, 4221.026, 4292.308, 4192.821, 4172.821, 4209.231, 0, 0, []
1627624570.3326, 53, 0, 4224.615, 4292.308, 4176.923, 4171.795, 4205.128, 0, 0, []
1627624570.3405, 54, 0, 4228.205, 4289.744, 4181.538, 4180.513, 4208.718, 0, 0, []
1627624570.3483, 55, 0, 4223.59, 4290.769, 4221.026, 4181.538, 4207.179, 0, 0, []
1627624570.3562, 56, 0, 4215.385, 4280.513, 4174.359, 4171.282, 4198.462, 0, 0, []
1627624570.3641, 57, 0, 4214.872, 4272.308, 4214.359, 4166.667, 4196.923, 0, 0, []
1627624570.3721, 58, 0, 4215.385, 4262.564, 4180.513, 4163.59, 4195.897, 0, 0, []
1627624570.38, 59, 0, 4212.821, 4254.359, 4160.513, 4166.154, 4196.923, 0, 0, []
1627624570.388, 60, 0, 4207.179, 4257.949, 4193.846, 4174.359, 4197.949, 0, 0, []
1627624570.3958, 61, 0, 4197.949, 4262.051, 4138.974, 4167.179, 4185.641, 0, 0, []
1627624570.4038, 62, 0, 4200.513, 4270.769, 4195.385, 4156.41, 4183.077, 0, 0, []
1627624570.4117, 63, 0, 4211.795, 4277.949, 4211.795, 4164.103, 4193.333, 0, 0, []
1627624570.4197, 64, 0, 4210.769, 4277.949, 4198.974, 4171.282, 4190.256, 450, 0, []
1627624570.4276, 65, 0, 4207.692, 4277.949, 4231.282, 4169.744, 4185.128, 450, 0, []
1627624570.4353, 66, 0, 4213.333, 4280.513, 4179.487, 4178.462, 4202.051, 16188, 0, []
1627624570.4432, 67, 0, 4218.974, 4288.718, 4212.821, 4193.846, 4219.487, 450, 0, []
1627624570.451, 68, 0, 4208.205, 4287.179, 4187.692, 4188.205, 4207.692, 16118, 0, []
1627624570.4589, 69, 0, 4180.513, 4271.282, 4139.487, 4161.026, 4175.385, 450, 0, []
1627624570.4667, 70, 0, 4169.744, 4269.231, 4192.821, 4150.769, 4159.487, 16111, 0, []
1627624570.4745, 71, 0, 4192.308, 4279.487, 4165.641, 4173.846, 4177.436, 450, 0, []
1627624570.4823, 72, 0, 4212.821, 4289.231, 4209.744, 4200.513, 4198.974, 450, 0, []
1627624570.4902, 73, 0, 4211.795, 4288.718, 4218.462, 4204.615, 4200, 16170, 0, []
1627624570.498, 74, 0, 4208.205, 4286.154, 4172.308, 4197.949, 4192.308, 450, 0, []
1627624570.5059, 75, 0, 4206.154, 4293.333, 4205.641, 4192.308, 4189.744, 16185, 0, []
1627624570.5136, 76, 0, 4200, 4290.256, 4151.282, 4191.282, 4187.179, 450, 0, []
1627624570.5216, 77, 0, 4196.923, 4288.718, 4180.513, 4190.769, 4180, 450, 0, []
1627624570.5295, 78, 0, 4188.205, 4294.872, 4218.462, 4177.949, 4169.231, 450, 0, []
1627624570.5375, 79, 0, 4180.513, 4289.231, 4186.667, 4171.282, 4164.103, 16185, 0, []
1627624570.5454, 80, 0, 4185.641, 4280.513, 4228.205, 4182.564, 4170.769, 450, 0, []
1627624570.5533, 81, 0, 4185.128, 4268.718, 4177.436, 4183.59, 4169.231, 450, 0, []
1627624570.5612, 82, 0, 4182.051, 4269.231, 4188.205, 4179.487, 4165.641, 450, 0, []
1627624570.5692, 83, 0, 4196.923, 4285.128, 4211.282, 4196.41, 4181.026, 16185, 0, []
1627624570.5771, 84, 0, 4210.256, 4296.41, 4158.462, 4210.256, 4194.872, 450, 0, []
1627624570.5851, 85, 0, 4208.718, 4302.564, 4221.026, 4200, 4188.205, 450, 0, []
1627624570.5929, 86, 0, 4198.462, 4295.385, 4208.718, 4186.667, 4179.487, 450, 0, []
1627624570.6007, 87, 0, 4188.718, 4284.615, 4205.641, 4185.128, 4178.462, 16185, 0, []
1627624570.6086, 88, 0, 4190.256, 4282.051, 4224.103, 4190.769, 4179.487, 450, 0, []
1627624570.6164, 89, 0, 4206.667, 4288.718, 4165.128, 4198.974, 4188.718, 450, 0, []
1627624570.6243, 90, 0, 4218.974, 4304.615, 4202.051, 4203.59, 4203.59, 450, 0, []
1627624570.6321, 91, 0, 4211.795, 4302.564, 4176.923, 4205.128, 4201.538, 16185, 0, []
1627624570.6399, 92, 0, 4194.359, 4293.846, 4168.718, 4200.513, 4181.026, 450, 0, []
1627624570.6477, 93, 0, 4183.59, 4300, 4208.718, 4193.333, 4167.692, 450, 0, []
1627624570.6556, 94, 0, 4186.667, 4296.41, 4164.103, 4192.821, 4173.333, 450, 0, []
1627624570.6634, 95, 0, 4197.436, 4289.744, 4216.41, 4197.436, 4183.59, 16185, 0, []
1627624570.6713, 96, 0, 4210.256, 4292.821, 4211.282, 4202.564, 4189.231, 450, 0, []
1627624570.679, 97, 0, 4208.205, 4288.205, 4183.59, 4196.923, 4184.615, 450, 0, []
1627624570.687, 98, 0, 4191.282, 4275.897, 4211.282, 4183.077, 4173.846, 450, 0, []
1627624570.6949, 99, 0, 4186.667, 4271.282, 4155.897, 4177.949, 4170.769, 16185, 0, []
1627624570.7029, 100, 0, 4200, 4285.641, 4195.385, 4186.667, 4176.923, 450, 0, []
1627624570.7108, 101, 0, 4206.154, 4295.897, 4191.282, 4191.282, 4177.949, 450, 0, []
1627624570.7187, 102, 0, 4194.872, 4294.359, 4169.744, 4185.128, 4170.769, 450, 0, []
1627624570.7266, 103, 0, 4184.103, 4290.769, 4237.436, 4183.077, 4167.179, 16185, 0, []
1627624570.7346, 104, 0, 4187.179, 4280, 4194.359, 4183.59, 4172.308, 450, 0, []
1627624570.7425, 105, 0, 4199.487, 4277.949, 4203.59, 4185.641, 4190.256, 450, 0, []
1627624570.7505, 106, 0, 4207.179, 4280, 4188.205, 4191.282, 4208.205, 450, 0, []
1627624570.7583, 107, 0, 4200, 4273.846, 4150.256, 4190.769, 4203.077, 16185, 0, []
1627624570.7661, 108, 0, 4185.641, 4277.436, 4215.897, 4180, 4186.667, 450, 0, []
1627624570.774, 109, 0, 4186.154, 4285.128, 4179.487, 4179.487, 4181.538, 450, 0, []
1627624570.7818, 110, 0, 4202.051, 4287.179, 4193.333, 4194.872, 4188.205, 450, 0, []
1627624570.7897, 111, 0, 4206.154, 4283.077, 4215.897, 4203.077, 4190.769, 16185, 0, []
1627624570.7974, 112, 0, 4197.436, 4276.41, 4187.179, 4200.513, 4185.641, 450, 0, []
1627624570.8053, 113, 0, 4202.564, 4272.308, 4225.128, 4195.897, 4186.154, 450, 0, []
1627624570.8131, 114, 0, 4200, 4264.103, 4165.128, 4192.821, 4187.179, 450, 0, []
1627624570.8211, 115, 0, 4185.641, 4266.154, 4174.359, 4190.256, 4180, 16185, 0, []
1627624570.829, 116, 0, 4189.744, 4275.385, 4200.513, 4186.154, 4176.41, 450, 0, []
1627624570.8369, 117, 0, 4199.487, 4280, 4156.41, 4184.103, 4179.487, 450, 0, []
1627624570.8448, 118, 0, 4205.641, 4286.154, 4230.256, 4188.205, 4185.128, 450, 0, []
1627624570.8528, 119, 0, 4210.769, 4276.41, 4214.872, 4192.308, 4186.667, 16185, 0, []
1627624570.8607, 120, 0, 4207.692, 4255.897, 4192.821, 4185.641, 4184.615, 450, 0, []
1627624570.8687, 121, 0, 4204.103, 4248.718, 4203.59, 4180.513, 4184.615, 450, 0, []
1627624570.8765, 122, 0, 4213.846, 4252.821, 4154.872, 4192.308, 4186.667, 450, 0, []
1627624570.8845, 123, 0, 4217.436, 4263.59, 4203.077, 4204.615, 4188.718, 16185, 0, []
1627624570.8924, 124, 0, 4198.462, 4261.026, 4175.897, 4191.282, 4178.974, 450, 0, []
1627624570.9004, 125, 0, 4178.462, 4249.231, 4166.154, 4163.077, 4155.385, 450, 0, []
1627624570.9083, 126, 0, 4179.487, 4255.897, 4220, 4161.026, 4151.282, 450, 0, []
1627624570.916, 127, 0, 4194.872, 4260.513, 4185.641, 4187.179, 4172.821, 16185, 0, []
1627624570.9239, 128, 0, 4201.026, 4252.308, 4222.564, 4198.462, 4185.128, 450, 0, []
1627624570.9317, 0, 0, 4195.897, 4246.154, 4184.615, 4187.692, 4181.538, 450, 0, []
1627624570.9396, 1, 0, 4205.128, 4262.564, 4152.821, 4189.744, 4191.795, 450, 0, []
1627624570.9474, 2, 0, 4227.692, 4290.769, 4210.256, 4212.308, 4214.872, 16187, 0, []
1627624570.9552, 3, 0, 4234.359, 4294.872, 4170.769, 4222.564, 4219.487, 450, 0, []
1627624570.963, 4, 0, 4221.538, 4288.205, 4214.872, 4211.795, 4205.128, 16124, 0, []
1627624570.9709, 5, 0, 4215.385, 4288.718, 4228.205, 4206.154, 4199.487, 450, 0, []
1627624570.9787, 6, 0, 4217.949, 4278.974, 4202.051, 4201.026, 4200.513, 311, 0, []
1627624570.9867, 7, 0, 4204.615, 4260, 4232.821, 4190.256, 4188.718, 450, 0, []
1627624570.9945, 8, 0, 4194.872, 4253.846, 4173.333, 4187.692, 4178.462, 450, 0, []
1627624571.0025, 9, 0, 4207.692, 4270.769, 4193.846, 4189.744, 4186.154, 16170, 0, []
1627624571.0104, 10, 0, 4217.436, 4273.846, 4187.692, 4182.564, 4189.231, 450, 0, []
1627624571.0184, 11, 0, 4216.923, 4265.641, 4153.333, 4180.513, 4186.667, 16187, 0, []
1627624571.0263, 12, 0, 4213.333, 4274.872, 4220, 4187.692, 4189.231, 450, 0, []
1627624571.0342, 13, 0, 4202.051, 4275.385, 4189.744, 4183.59, 4182.564, 450, 0, []
1627624571.0421, 14, 0, 4192.308, 4262.564, 4207.692, 4175.897, 4169.744, 450, 0, []
1627624571.0501, 15, 0, 4184.615, 4245.641, 4195.385, 4166.154, 4158.974, 16187, 0, []
1627624571.058, 16, 0, 4172.821, 4233.333, 4132.821, 4153.333, 4151.795, 0, 0, []
1627624571.0658, 17, 0, 4171.282, 4241.026, 4202.051, 4151.282, 4151.282, 0, 0, []
1627624571.0736, 18, 0, 4180, 4242.564, 4171.795, 4152.308, 4154.872, 0, 0, []
1627624571.0814, 19, 0, 4191.282, 4246.667, 4172.821, 4156.41, 4162.051, 0, 0, []
1627624571.0893, 20, 0, 4206.154, 4275.385, 4216.923, 4170.769, 4176.41, 0, 0, []
1627624571.0971, 21, 0, 4205.641, 4283.59, 4188.205, 4174.872, 4175.385, 0, 0, []
1627624571.105, 22, 0, 4186.667, 4257.949, 4217.949, 4153.333, 4153.333, 0, 0, []
1627624571.1127, 23, 0, 4171.282, 4236.41, 4165.128, 4131.795, 4140, 0, 0, []
1627624571.1206, 24, 0, 4158.974, 4228.718, 4162.051, 4121.538, 4131.282, 0, 0, []
1627624571.1284, 25, 0, 4145.641, 4225.641, 4193.846, 4115.897, 4116.923, 0, 0, []
1627624571.1364, 26, 0, 4150.256, 4230.256, 4146.667, 4126.667, 4119.487, 0, 0, []
1627624571.1443, 27, 0, 4168.718, 4242.564, 4207.692, 4149.231, 4136.923, 0, 0, []
1627624571.1522, 28, 0, 4178.462, 4240, 4196.41, 4158.974, 4147.179, 0, 0, []
1627624571.1601, 29, 0, 4181.538, 4241.026, 4179.487, 4159.487, 4158.462, 0, 0, []
1627624571.1681, 30, 0, 4195.897, 4258.974, 4203.077, 4167.692, 4181.538, 0, 0, []
1627624571.176, 31, 0, 4208.718, 4263.59, 4145.128, 4171.282, 4193.333, 0, 0, []
1627624571.184, 32, 0, 4210.256, 4264.615, 4188.205, 4162.564, 4190.256, 0, 0, []
1627624571.1918, 33, 0, 4194.359, 4262.564, 4180, 4141.538, 4172.821, 0, 0, []
1627624571.1998, 34, 0, 4176.41, 4256.41, 4171.795, 4125.128, 4152.308, 0, 0, []
1627624571.2077, 35, 0, 4196.923, 4267.179, 4234.872, 4152.821, 4171.282, 0, 0, []
1627624571.2155, 36, 0, 4230.256, 4277.949, 4195.385, 4202.564, 4201.538, 0, 0, []
1627624571.2234, 37, 0, 4226.667, 4276.923, 4228.205, 4212.308, 4197.949, 0, 0, []
1627624571.2311, 38, 0, 4209.231, 4265.641, 4211.795, 4194.359, 4186.667, 0, 0, []
1627624571.239, 39, 0, 4198.974, 4251.282, 4171.795, 4176.923, 4179.487, 0, 0, []
1627624571.2468, 40, 0, 4180, 4237.949, 4208.718, 4151.282, 4156.41, 0, 0, []
1627624571.2547, 41, 0, 4158.462, 4228.718, 4148.205, 4122.564, 4131.282, 0, 0, []
1627624571.2625, 42, 0, 4152.821, 4239.487, 4182.051, 4114.872, 4130.769, 0, 0, []
1627624571.2703, 43, 0, 4161.026, 4247.179, 4206.154, 4126.667, 4136.923, 0, 0, []
1627624571.2781, 44, 0, 4168.718, 4237.436, 4163.077, 4135.385, 4134.872, 0, 0, []
1627624571.286, 45, 0, 4169.231, 4229.744, 4191.795, 4135.897, 4141.538, 0, 0, []
1627624571.2938, 46, 0, 4178.974, 4228.718, 4149.744, 4141.026, 4157.436, 0, 0, []
1627624571.3018, 47, 0, 4187.179, 4242.564, 4183.077, 4144.103, 4157.949, 0, 0, []
1627624571.3096, 48, 0, 4169.744, 4251.795, 4206.154, 4138.462, 4142.051, 0, 0, []
1627624571.3176, 49, 0, 4148.205, 4239.487, 4168.205, 4134.359, 4127.692, 0, 0, []
1627624571.3255, 50, 0, 4149.744, 4233.333, 4217.949, 4131.795, 4122.564, 0, 0, []
1627624571.3335, 51, 0, 4165.128, 4238.462, 4166.154, 4133.846, 4131.795, 0, 0, []
1627624571.3414, 52, 0, 4165.641, 4239.487, 4156.923, 4133.846, 4140.513, 0, 0, []
1627624571.3493, 53, 0, 4155.897, 4238.974, 4181.538, 4129.231, 4133.333, 0, 0, []
1627624571.3572, 54, 0, 4165.641, 4254.359, 4158.462, 4139.487, 4140, 0, 0, []
1627624571.3652, 55, 0, 4185.128, 4276.41, 4227.179, 4157.949, 4157.949, 0, 0, []
1627624571.3731, 56, 0, 4189.231, 4271.795, 4189.744, 4159.487, 4158.974, 0, 0, []
1627624571.3809, 57, 0, 4184.103, 4254.359, 4180.513, 4150.769, 4149.744, 0, 0, []
1627624571.3888, 58, 0, 4180.513, 4246.154, 4203.59, 4144.615, 4148.205, 0, 0, []
1627624571.3965, 59, 0, 4179.487, 4249.231, 4147.179, 4144.615, 4154.872, 0, 0, []
1627624571.4044, 60, 0, 4189.231, 4275.897, 4203.59, 4156.41, 4163.077, 0, 0, []
1627624571.4122, 61, 0, 4190.256, 4287.692, 4192.308, 4157.436, 4158.462, 0, 0, []
1627624571.4201, 62, 0, 4175.897, 4273.846, 4188.718, 4138.462, 4149.744, 0, 0, []
1627624571.4279, 63, 0, 4175.897, 4276.41, 4224.103, 4135.897, 4156.41, 0, 0, []
1627624571.4357, 64, 0, 4182.051, 4282.051, 4156.923, 4154.872, 4162.564, 450, 0, []
1627624571.4435, 65, 0, 4177.436, 4275.897, 4191.282, 4157.436, 4154.872, 450, 0, []
1627624571.4515, 66, 0, 4174.359, 4273.333, 4184.615, 4141.538, 4150.256, 16186, 0, []
1627624571.4594, 67, 0, 4176.923, 4285.128, 4168.718, 4136.41, 4150.256, 450, 0, []
1627624571.4674, 68, 0, 4172.308, 4287.692, 4213.333, 4136.41, 4145.128, 16120, 0, []
1627624571.4752, 69, 0, 4165.641, 4274.872, 4169.231, 4134.359, 4140.513, 450, 0, []
1627624571.4832, 70, 0, 4167.692, 4284.103, 4209.231, 4145.641, 4143.077, 16060, 0, []
1627624571.4911, 71, 0, 4171.282, 4297.436, 4189.744, 4158.462, 4145.641, 450, 0, []
1627624571.4991, 72, 0, 4169.744, 4294.359, 4144.615, 4154.359, 4139.487, 450, 0, []
1627624571.507, 73, 0, 4163.59, 4295.385, 4207.692, 4152.821, 4131.282, 16170, 0, []
1627624571.5149, 74, 0, 4157.949, 4285.128, 4180.513, 4159.487, 4125.641, 450, 0, []
1627624571.5228, 75, 0, 4154.872, 4262.051, 4193.333, 4148.205, 4119.487, 16192, 0, []
1627624571.5306, 76, 0, 4154.872, 4260.513, 4171.282, 4141.026, 4117.436, 450, 0, []
1627624571.5385, 77, 0, 4156.923, 4278.974, 4142.564, 4154.872, 4122.564, 450, 0, []
1627624571.5463, 78, 0, 4156.923, 4295.897, 4224.103, 4161.538, 4125.128, 450, 0, []
1627624571.5541, 79, 0, 4151.795, 4301.026, 4192.308, 4155.897, 4118.462, 16192, 0, []
1627624571.5619, 80, 0, 4148.718, 4301.026, 4200.513, 4155.897, 4115.897, 450, 0, []
1627624571.5698, 81, 0, 4158.462, 4293.846, 4203.59, 4160, 4126.667, 450, 0, []
1627624571.5776, 82, 0, 4169.231, 4282.564, 4154.359, 4157.949, 4136.41, 450, 0, []
1627624571.5855, 83, 0, 4169.744, 4290.769, 4201.538, 4155.897, 4139.487, 16192, 0, []
1627624571.5932, 84, 0, 4167.179, 4302.564, 4174.359, 4154.872, 4140, 450, 0, []
1627624571.6011, 85, 0, 4169.744, 4310.769, 4201.538, 4161.026, 4138.462, 450, 0, []
1627624571.6089, 86, 0, 4169.744, 4313.846, 4231.795, 4166.667, 4134.872, 450, 0, []
1627624571.6169, 87, 0, 4168.718, 4310.769, 4181.538, 4166.667, 4145.641, 16192, 0, []
1627624571.6248, 88, 0, 4167.179, 4306.667, 4215.897, 4161.538, 4150.256, 450, 0, []
1627624571.6327, 89, 0, 4166.667, 4300.513, 4176.41, 4158.974, 4137.436, 450, 0, []
1627624571.6406, 90, 0, 4190.256, 4316.41, 4195.897, 4180.513, 4149.744, 450, 0, []
1627624571.6486, 91, 0, 4223.59, 4342.564, 4250.256, 4208.718, 4183.077, 16192, 0, []
1627624571.6565, 92, 0, 4209.231, 4331.282, 4197.436, 4197.949, 4174.359, 450, 0, []
1627624571.6645, 93, 0, 4171.282, 4309.744, 4220.513, 4175.897, 4145.128, 450, 0, []
1627624571.6723, 94, 0, 4180.513, 4306.667, 4178.974, 4181.026, 4153.846, 450, 0, []
1627624571.6801, 95, 0, 4208.718, 4310.769, 4162.051, 4188.718, 4175.385, 16192, 0, []
1627624571.688, 96, 0, 4214.359, 4315.897, 4200, 4188.718, 4178.462, 450, 0, []
1627624571.6958, 97, 0, 4209.744, 4313.333, 4156.923, 4190.769, 4168.205, 450, 0, []
1627624571.7037, 98, 0, 4204.615, 4308.718, 4217.949, 4182.051, 4159.487, 450, 0, []
1627624571.7114, 99, 0, 4209.744, 4317.949, 4218.974, 4183.59, 4169.231, 16192, 0, []
1627624571.7193, 100, 0, 4225.641, 4336.41, 4192.821, 4201.538, 4186.667, 450, 0, []
1627624571.7271, 101, 0, 4216.923, 4326.667, 4221.026, 4196.923, 4177.436, 450, 0, []
1627624571.735, 102, 0, 4185.128, 4293.333, 4157.436, 4172.308, 4150.256, 450, 0, []
1627624571.7428, 103, 0, 4181.026, 4292.308, 4184.615, 4166.667, 4146.667, 16192, 0, []
1627624571.7506, 104, 0, 4190.769, 4307.692, 4179.487, 4175.385, 4156.41, 450, 0, []
1627624571.7584, 105, 0, 4180, 4304.615, 4161.538, 4169.744, 4149.231, 450, 0, []
1627624571.7664, 106, 0, 4165.641, 4294.872, 4221.538, 4156.923, 4131.795, 450, 0, []
1627624571.7743, 107, 0, 4163.59, 4283.59, 4160, 4156.923, 4124.615, 16192, 0, []
1627624571.7823, 108, 0, 4178.462, 4289.231, 4166.154, 4171.795, 4140.513, 450, 0, []
1627624571.7901, 109, 0, 4201.026, 4309.231, 4171.282, 4188.718, 4169.744, 450, 0, []
1627624571.7981, 110, 0, 4217.949, 4324.103, 4152.821, 4197.949, 4185.641, 450, 0, []
1627624571.806, 111, 0, 4229.744, 4337.436, 4220.513, 4202.564, 4188.205, 16192, 0, []
1627624571.814, 112, 0, 4232.821, 4337.436, 4186.154, 4198.462, 4189.744, 450, 0, []
1627624571.8219, 113, 0, 4236.923, 4337.949, 4208.718, 4200.513, 4197.949, 450, 0, []
1627624571.8298, 114, 0, 4250.769, 4343.59, 4227.179, 4222.051, 4211.795, 450, 0, []
1627624571.8377, 115, 0, 4260, 4335.385, 4182.564, 4235.897, 4219.487, 16192, 0, []
1627624571.8457, 116, 0, 4255.385, 4331.282, 4216.41, 4229.744, 4220.513, 450, 0, []
1627624571.8536, 117, 0, 4244.615, 4330.769, 4163.077, 4214.872, 4217.436, 450, 0, []
1627624571.8614, 118, 0, 4236.41, 4324.103, 4168.718, 4202.051, 4210.769, 450, 0, []
1627624571.8692, 119, 0, 4232.821, 4321.538, 4183.077, 4200.513, 4208.718, 16192, 0, []
1627624571.877, 120, 0, 4234.359, 4323.59, 4134.359, 4202.051, 4209.231, 450, 0, []
1627624571.8849, 121, 0, 4232.821, 4326.154, 4201.538, 4191.282, 4205.641, 450, 0, []
1627624571.8927, 122, 0, 4235.385, 4320, 4179.487, 4184.103, 4199.487, 450, 0, []
1627624571.9006, 123, 0, 4245.128, 4317.949, 4177.949, 4193.333, 4200, 16192, 0, []
1627624571.9083, 124, 0, 4249.744, 4326.667, 4225.641, 4206.667, 4211.282, 450, 0, []
1627624571.9162, 125, 0, 4249.231, 4329.744, 4178.462, 4215.897, 4221.026, 450, 0, []
1627624571.924, 126, 0, 4249.744, 4327.179, 4201.026, 4216.923, 4222.051, 450, 0, []
1627624571.932, 127, 0, 4257.949, 4320.513, 4162.564, 4212.308, 4226.154, 16192, 0, []
1627624571.9399, 128, 0, 4263.59, 4318.974, 4161.026, 4213.846, 4236.923, 450, 0, []
1627624571.9477, 0, 0, 4258.462, 4323.59, 4202.564, 4213.846, 4235.385, 450, 0, []
1627624571.9556, 1, 0, 4246.667, 4310.256, 4135.897, 4203.59, 4221.538, 450, 0, []
1627624571.9635, 2, 0, 4233.333, 4296.923, 4179.487, 4192.821, 4210.256, 16185, 0, []
1627624571.9715, 3, 0, 4239.487, 4314.872, 4192.308, 4199.487, 4215.897, 450, 0, []
1627624571.9795, 4, 0, 4251.795, 4334.872, 4186.154, 4209.744, 4222.051, 16124, 0, []
1627624571.9873, 5, 0, 4225.128, 4305.128, 4220.513, 4181.026, 4193.333, 450, 0, []
1627624571.9953, 6, 0, 4203.59, 4270.256, 4166.154, 4160.513, 4176.923, 324, 0, []
1627624572.0032, 7, 0, 4235.385, 4287.692, 4205.641, 4196.41, 4211.795, 450, 0, []
1627624572.011, 8, 0, 4250.769, 4298.462, 4189.231, 4214.872, 4229.231, 450, 0, []
1627624572.0189, 9, 0, 4235.385, 4290.256, 4155.897, 4196.923, 4214.359, 16170, 0, []
1627624572.0266, 10, 0, 4254.359, 4314.872, 4206.667, 4216.923, 4235.897, 450, 0, []
1627624572.0345, 11, 0, 4270.769, 4329.231, 4150.256, 4241.026, 4254.872, 16192, 0, []
1627624572.0423, 12, 0, 4249.231, 4312.821, 4178.974, 4215.385, 4222.051, 450, 0, []
1627624572.0502, 13, 0, 4226.154, 4292.821, 4192.821, 4184.615, 4196.923, 450, 0, []
1627624572.058, 14, 0, 4209.744, 4270.769, 4157.949, 4172.821, 4194.359, 450, 0, []
1627624572.0658, 15, 0, 4204.615, 4252.821, 4204.103, 4167.179, 4192.308, 16192, 0, []
1627624572.0736, 16, 0, 4209.744, 4238.462, 4151.282, 4168.205, 4189.744, 0, 0, []
1627624572.0815, 17, 0, 4203.077, 4238.974, 4165.641, 4170.256, 4187.179, 0, 0, []
1627624572.0893, 18, 0, 4201.538, 4259.487, 4176.923, 4181.026, 4196.41, 0, 0, []
1627624572.0973, 19, 0, 4218.462, 4274.359, 4132.308, 4197.436, 4211.795, 0, 0, []
1627624572.1052, 20, 0, 4220, 4277.949, 4188.205, 4193.846, 4205.128, 0, 0, []
1627624572.1131, 21, 0, 4214.359, 4287.179, 4167.179, 4188.718, 4200, 0, 0, []
1627624572.121, 22, 0, 4221.538, 4292.308, 4192.308, 4192.308, 4212.821, 0, 0, []
1627624572.129, 23, 0, 4209.744, 4263.077, 4204.103, 4179.487, 4199.487, 0, 0, []
1627624572.1369, 24, 0, 4186.154, 4233.846, 4141.538, 4166.667, 4176.41, 0, 0, []
1627624572.1449, 25, 0, 4184.103, 4240, 4188.205, 4166.154, 4178.974, 0, 0, []
1627624572.1527, 26, 0, 4194.872, 4248.205, 4150.256, 4174.872, 4188.205, 0, 0, []
1627624572.1607, 27, 0, 4205.128, 4254.359, 4157.436, 4190.769, 4194.359, 0, 0, []
1627624572.1686, 28, 0, 4213.846, 4268.205, 4211.795, 4198.974, 4200.513, 0, 0, []
1627624572.1764, 29, 0, 4215.897, 4271.282, 4166.667, 4192.821, 4197.436, 0, 0, []
1627624572.1843, 30, 0, 4218.974, 4275.385, 4198.974, 4195.897, 4202.564, 0, 0, []
1627624572.192, 31, 0, 4227.179, 4271.795, 4168.205, 4205.128, 4212.308, 0, 0, []
1627624572.1999, 32, 0, 4226.154, 4260.513, 4162.051, 4196.923, 4201.538, 0, 0, []
1627624572.2077, 33, 0, 4229.744, 4272.821, 4207.179, 4196.41, 4206.154, 0, 0, []
1627624572.2156, 34, 0, 4243.077, 4285.641, 4159.487, 4214.872, 4229.231, 0, 0, []
1627624572.2234, 35, 0, 4243.077, 4278.974, 4197.949, 4216.923, 4229.744, 0, 0, []
1627624572.2312, 36, 0, 4231.795, 4270.769, 4189.231, 4199.487, 4213.846, 0, 0, []
1627624572.239, 37, 0, 4230.256, 4272.821, 4192.308, 4196.41, 4213.333, 0, 0, []
1627624572.247, 38, 0, 4234.872, 4274.872, 4244.103, 4203.077, 4218.462, 0, 0, []
1627624572.2549, 39, 0, 4228.718, 4261.538, 4173.846, 4191.795, 4211.282, 0, 0, []
1627624572.2629, 40, 0, 4214.872, 4251.282, 4189.231, 4181.538, 4205.128, 0, 0, []
1627624572.2707, 41, 0, 4202.051, 4240.513, 4170.256, 4183.59, 4200, 0, 0, []
1627624572.2787, 42, 0, 4193.846, 4229.744, 4138.462, 4175.385, 4188.205, 0, 0, []
1627624572.2866, 43, 0, 4204.103, 4242.051, 4202.051, 4173.846, 4194.872, 0, 0, []
1627624572.2946, 44, 0, 4225.641, 4265.128, 4176.923, 4197.436, 4224.103, 0, 0, []
1627624572.3025, 45, 0, 4235.897, 4280, 4212.308, 4212.821, 4236.923, 0, 0, []
1627624572.3104, 46, 0, 4241.538, 4276.41, 4216.41, 4207.179, 4228.205, 0, 0, []
1627624572.3183, 47, 0, 4248.718, 4263.59, 4189.744, 4203.077, 4228.205, 0, 0, []
1627624572.3262, 48, 0, 4242.564, 4263.59, 4235.897, 4205.128, 4229.231, 0, 0, []
1627624572.3341, 49, 0, 4232.308, 4262.564, 4165.128, 4203.077, 4220, 0, 0, []
1627624572.3419, 50, 0, 4229.231, 4253.333, 4176.923, 4194.872, 4211.795, 0, 0, []
1627624572.3497, 51, 0, 4227.692, 4247.179, 4197.436, 4193.333, 4209.231, 0, 0, []
1627624572.3575, 52, 0, 4237.949, 4258.974, 4155.385, 4204.103, 4217.949, 0, 0, []
1627624572.3654, 53, 0, 4253.333, 4284.103, 4208.718, 4211.795, 4231.282, 0, 0, []
1627624572.3732, 54, 0, 4250.256, 4287.692, 4179.487, 4211.795, 4232.308, 0, 0, []
1627624572.3811, 55, 0, 4247.179, 4283.077, 4203.077, 4210.769, 4231.282, 0, 0, []
1627624572.3888, 56, 0, 4253.333, 4285.641, 4234.359, 4206.667, 4236.41, 0, 0, []
1627624572.3968, 57, 0, 4246.667, 4278.462, 4188.718, 4202.564, 4232.308, 0, 0, []
1627624572.4047, 58, 0, 4249.231, 4278.462, 4233.333, 4213.333, 4233.846, 0, 0, []
1627624572.4127, 59, 0, 4265.641, 4283.077, 4192.821, 4228.205, 4248.205, 0, 0, []
1627624572.4206, 60, 0, 4261.026, 4280, 4184.103, 4227.179, 4247.179, 0, 0, []
1627624572.4285, 61, 0, 4247.179, 4272.821, 4205.641, 4215.385, 4236.923, 0, 0, []
1627624572.4364, 62, 0, 4242.051, 4264.615, 4152.308, 4204.103, 4233.846, 0, 0, []
1627624572.4444, 63, 0, 4238.974, 4266.667, 4200.513, 4198.462, 4228.205, 0, 0, []
1627624572.4523, 64, 0, 4241.026, 4275.897, 4177.949, 4206.154, 4223.077, 450, 0, []
1627624572.4603, 65, 0, 4250.256, 4285.128, 4175.385, 4215.385, 4231.795, 450, 0, []
1627624572.4681, 66, 0, 4252.308, 4288.718, 4216.41, 4210.769, 4238.974, 16185, 0, []
1627624572.4759, 67, 0, 4248.718, 4288.205, 4161.026, 4206.154, 4230.769, 450, 0, []
1627624572.4838, 68, 0, 4251.795, 4294.872, 4206.667, 4213.333, 4230.769, 16121, 0, []
1627624572.4916, 69, 0, 4261.538, 4296.923, 4202.051, 4218.974, 4242.564, 450, 0, []
1627624572.4995, 70, 0, 4265.641, 4293.333, 4190.769, 4218.974, 4242.564, 16064, 0, []
1627624572.5072, 71, 0, 4254.359, 4292.308, 4237.436, 4217.949, 4229.231, 450, 0, []
1627624572.5151, 72, 0, 4240.513, 4281.538, 4185.641, 4207.179, 4216.41, 450, 0, []
1627624572.5229, 73, 0, 4238.974, 4274.359, 4215.897, 4201.538, 4215.897, 16167, 0, []
1627624572.5308, 74, 0, 4244.615, 4275.385, 4202.564, 4211.282, 4227.179, 450, 0, []
1627624572.5386, 75, 0, 4252.308, 4280.513, 4176.41, 4217.436, 4241.026, 16186, 0, []
1627624572.5464, 76, 0, 4262.051, 4291.282, 4227.179, 4224.615, 4250.769, 450, 0, []
1627624572.5542, 77, 0, 4261.026, 4293.846, 4162.564, 4229.231, 4245.128, 450, 0, []
1627624572.5622, 78, 0, 4254.872, 4297.949, 4177.436, 4221.538, 4236.41, 450, 0, []
1627624572.5701, 79, 0, 4251.282, 4301.538, 4185.641, 4217.436, 4236.923, 16186, 0, []
1627624572.5781, 80, 0, 4241.538, 4296.41, 4154.359, 4211.795, 4228.718, 450, 0, []
1627624572.5859, 81, 0, 4237.436, 4302.564, 4214.359, 4201.026, 4218.462, 450, 0, []
1627624572.5939, 82, 0, 4241.538, 4305.641, 4180, 4197.436, 4221.026, 450, 0, []
1627624572.6018, 83, 0, 4245.128, 4308.205, 4207.179, 4195.897, 4224.103, 16186, 0, []
1627624572.6098, 84, 0, 4247.179, 4318.462, 4232.308, 4192.308, 4218.462, 450, 0, []
1627624572.6177, 85, 0, 4244.103, 4316.41, 4191.282, 4191.795, 4215.897, 450, 0, []
1627624572.6256, 86, 0, 4236.923, 4306.154, 4231.282, 4189.231, 4217.949, 450, 0, []
1627624572.6335, 87, 0, 4243.59, 4302.051, 4185.641, 4190.256, 4221.538, 16186, 0, []
1627624572.6413, 88, 0, 4262.051, 4306.667, 4189.231, 4203.59, 4233.846, 450, 0, []
1627624572.6492, 89, 0, 4263.077, 4301.026, 4196.41, 4207.179, 4239.487, 450, 0, []
1627624572.657, 90, 0, 4256.41, 4294.872, 4147.179, 4200.513, 4227.179, 450, 0, []
1627624572.6648, 91, 0, 4261.538, 4309.231, 4202.564, 4203.59, 4221.538, 16186, 0, []
1627624572.6726, 92, 0, 4261.538, 4308.718, 4164.615, 4208.205, 4232.308, 450, 0, []
1627624572.6805, 93, 0, 4252.821, 4298.462, 4168.205, 4207.179, 4234.872, 450, 0, []
1627624572.6883, 94, 0, 4247.692, 4305.128, 4205.641, 4201.538, 4222.051, 450, 0, []
1627624572.6962, 95, 0, 4240, 4309.231, 4150.256, 4189.231, 4213.846, 16186, 0, []
1627624572.7039, 96, 0, 4232.821, 4306.667, 4204.103, 4182.564, 4216.41, 450, 0, []
1627624572.7119, 97, 0, 4237.949, 4303.59, 4201.026, 4192.308, 4218.462, 450, 0, []
1627624572.7198, 98, 0, 4235.385, 4294.872, 4199.487, 4200, 4214.872, 450, 0, []
1627624572.7278, 99, 0, 4222.564, 4281.026, 4237.949, 4194.359, 4210.256, 16186, 0, []
1627624572.7357, 100, 0, 4232.821, 4272.821, 4190.769, 4199.487, 4222.564, 450, 0, []
1627624572.7436, 101, 0, 4252.308, 4275.897, 4221.538, 4205.641, 4235.385, 450, 0, []
1627624572.7515, 102, 0, 4242.051, 4270.256, 4184.103, 4192.308, 4226.667, 450, 0, []
1627624572.7595, 103, 0, 4224.615, 4267.692, 4164.103, 4183.077, 4210.256, 16186, 0, []
1627624572.7674, 104, 0, 4229.231, 4276.41, 4209.744, 4183.59, 4206.667, 450, 0, []
1627624572.7754, 105, 0, 4239.487, 4267.692, 4153.846, 4178.462, 4210.256, 450, 0, []
1627624572.7832, 106, 0, 4242.051, 4268.718, 4196.923, 4178.974, 4212.821, 450, 0, []
1627624572.791, 107, 0, 4246.154, 4286.154, 4197.949, 4191.795, 4221.538, 16186, 0, []
1627624572.7989, 108, 0, 4256.923, 4291.282, 4177.436, 4202.564, 4233.333, 450, 0, []
1627624572.8067, 109, 0, 4265.128, 4291.282, 4238.974, 4201.538, 4236.923, 450, 0, []
1627624572.8146, 110, 0, 4258.462, 4293.846, 4189.231, 4192.308, 4223.59, 450, 0, []
1627624572.8223, 111, 0, 4238.974, 4287.179, 4204.103, 4181.538, 4204.615, 16186, 0, []
1627624572.8302, 112, 0, 4229.744, 4267.179, 4208.718, 4181.538, 4198.974, 450, 0, []
1627624572.838, 113, 0, 4229.744, 4249.231, 4175.385, 4186.154, 4199.487, 450, 0, []
1627624572.8459, 114, 0, 4223.077, 4245.128, 4206.667, 4178.974, 4195.897, 450, 0, []
1627624572.8537, 115, 0, 4213.333, 4246.154, 4155.897, 4167.179, 4189.744, 16186, 0, []
1627624572.8617, 116, 0, 4213.333, 4259.487, 4186.667, 4173.846, 4192.308, 450, 0, []
1627624572.8695, 117, 0, 4223.077, 4278.462, 4191.795, 4193.333, 4207.692, 450, 0, []
1627624572.8775, 118, 0, 4233.333, 4292.308, 4151.795, 4204.103, 4218.974, 450, 0, []
1627624572.8854, 119, 0, 4237.949, 4301.026, 4228.718, 4199.487, 4211.795, 16186, 0, []
1627624572.8934, 120, 0, 4230.256, 4280.513, 4187.179, 4183.59, 4200, 450, 0, []
1627624572.9013, 121, 0, 4218.974, 4254.359, 4186.667, 4171.795, 4195.897, 450, 0, []
1627624572.9092, 122, 0, 4218.974, 4254.359, 4223.59, 4174.359, 4193.333, 450, 0, []
1627624572.9171, 123, 0, 4218.974, 4254.872, 4176.923, 4173.846, 4181.538, 16186, 0, []
1627624572.9251, 124, 0, 4213.846, 4252.308, 4203.077, 4166.154, 4174.872, 450, 0, []
1627624572.933, 125, 0, 4214.872, 4252.308, 4162.051, 4164.615, 4181.026, 450, 0, []
1627624572.9409, 126, 0, 4212.821, 4255.385, 4167.179, 4159.487, 4180, 450, 0, []
1627624572.9487, 127, 0, 4209.231, 4264.615, 4195.897, 4157.949, 4178.974, 16186, 0, []
1627624572.9566, 128, 0, 4220.513, 4276.923, 4152.308, 4172.821, 4192.821, 450, 0, []
1627624572.9645, 0, 0, 4235.385, 4288.205, 4211.282, 4177.949, 4203.59, 450, 0, []
1627624572.9723, 1, 0, 4237.949, 4286.667, 4187.692, 4162.564, 4201.538, 450, 0, []
1627624572.9803, 2, 0, 4224.103, 4273.333, 4176.41, 4149.231, 4189.231, 16182, 0, []
1627624572.9881, 3, 0, 4203.59, 4257.949, 4222.051, 4154.359, 4174.872, 450, 0, []
1627624572.996, 4, 0, 4201.026, 4248.718, 4179.487, 4166.667, 4173.333, 16129, 0, []
1627624573.0038, 5, 0, 4213.333, 4253.333, 4212.308, 4172.821, 4182.564, 450, 0, []
1627624573.0118, 6, 0, 4222.564, 4257.436, 4180, 4177.436, 4187.179, 309, 0, []
1627624573.0197, 7, 0, 4229.744, 4267.179, 4167.179, 4187.179, 4196.923, 450, 0, []
1627624573.0276, 8, 0, 4237.436, 4281.538, 4216.923, 4189.744, 4214.359, 450, 0, []
1627624573.0355, 9, 0, 4240.513, 4278.974, 4152.821, 4184.103, 4214.872, 16171, 0, []
1627624573.0435, 10, 0, 4250.256, 4284.103, 4191.282, 4192.308, 4218.974, 450, 0, []
1627624573.0514, 11, 0, 4254.359, 4287.179, 4198.462, 4196.923, 4228.718, 16189, 0, []
1627624573.0594, 12, 0, 4246.667, 4280.513, 4172.308, 4186.667, 4223.59, 450, 0, []
1627624573.0672, 13, 0, 4249.231, 4290.769, 4223.077, 4180.513, 4217.949, 450, 0, []
1627624573.0752, 14, 0, 4250.769, 4295.385, 4182.564, 4176.923, 4212.821, 450, 0, []
1627624573.0831, 15, 0, 4239.487, 4283.077, 4212.821, 4170.256, 4202.564, 16189, 0, []
1627624573.0909, 16, 0, 4229.744, 4268.718, 4216.41, 4167.179, 4196.41, 0, 0, []
1627624573.0988, 17, 0, 4231.282, 4262.051, 4188.205, 4167.692, 4199.487, 0, 0, []
1627624573.1065, 18, 0, 4237.949, 4263.59, 4232.308, 4172.821, 4205.128, 0, 0, []
1627624573.1144, 19, 0, 4232.821, 4254.872, 4172.821, 4176.41, 4203.077, 0, 0, []
1627624573.1222, 20, 0, 4224.103, 4250.256, 4190.769, 4163.077, 4193.333, 0, 0, []
1627624573.1301, 21, 0, 4230.256, 4260.513, 4195.897, 4159.487, 4196.923, 0, 0, []
1627624573.1379, 22, 0, 4226.154, 4261.538, 4146.667, 4167.692, 4201.538, 0, 0, []
1627624573.1457, 23, 0, 4199.487, 4250.769, 4197.436, 4152.308, 4175.897, 0, 0, []
1627624573.1535, 24, 0, 4193.846, 4245.128, 4152.308, 4137.436, 4161.538, 0, 0, []
1627624573.1615, 25, 0, 4213.846, 4258.974, 4175.385, 4150.769, 4181.538, 0, 0, []
1627624573.1694, 26, 0, 4220, 4268.718, 4223.077, 4159.487, 4189.231, 0, 0, []
1627624573.1774, 27, 0, 4221.026, 4252.308, 4171.282, 4148.718, 4189.231, 0, 0, []
1627624573.1852, 28, 0, 4255.897, 4244.615, 4211.795, 4147.179, 4228.205, 0, 0, []
1627624573.1932, 29, 0, 4302.051, 4253.333, 4198.974, 4157.949, 4277.436, 0, 0, []
1627624573.2011, 30, 0, 4311.282, 4256.41, 4205.128, 4165.128, 4286.667, 0, 0, []
1627624573.2091, 31, 0, 4278.974, 4245.128, 4205.641, 4156.41, 4260, 0, 0, []
1627624573.217, 32, 0, 4241.538, 4234.359, 4138.462, 4137.949, 4228.718, 0, 0, []
1627624573.2249, 33, 0, 4231.795, 4240, 4188.718, 4134.872, 4219.487, 0, 0, []
1627624573.2328, 34, 0, 4230.769, 4235.897, 4165.641, 4138.462, 4218.462, 0, 0, []
1627624573.2406, 35, 0, 4223.59, 4233.333, 4161.538, 4134.872, 4209.744, 0, 0, []
1627624573.2485, 36, 0, 4238.462, 4258.462, 4206.154, 4144.103, 4224.615, 0, 0, []
1627624573.2563, 37, 0, 4263.59, 4272.821, 4166.154, 4159.487, 4245.128, 0, 0, []
1627624573.2641, 38, 0, 4255.897, 4261.026, 4215.385, 4153.333, 4232.308, 0, 0, []
1627624573.2719, 39, 0, 4240, 4250.256, 4197.949, 4146.667, 4216.923, 0, 0, []
1627624573.2798, 40, 0, 4256.41, 4255.897, 4184.615, 4163.077, 4230.769, 0, 0, []
1627624573.2876, 41, 0, 4266.154, 4255.897, 4228.718, 4171.282, 4240, 0, 0, []
1627624573.2955, 42, 0, 4248.718, 4243.077, 4171.795, 4164.103, 4227.692, 0, 0, []
1627624573.3032, 43, 0, 4246.667, 4248.205, 4209.231, 4169.744, 4228.718, 0, 0, []
1627624573.3111, 44, 0, 4265.128, 4257.949, 4207.179, 4184.615, 4244.103, 0, 0, []
1627624573.3189, 45, 0, 4276.923, 4260.513, 4177.436, 4188.718, 4250.769, 0, 0, []
1627624573.3269, 46, 0, 4273.846, 4261.538, 4217.436, 4176.923, 4246.667, 0, 0, []
1627624573.3348, 47, 0, 4260, 4247.179, 4160.513, 4156.923, 4237.436, 0, 0, []
1627624573.3427, 48, 0, 4245.641, 4242.051, 4182.051, 4150.769, 4230.769, 0, 0, []
1627624573.3506, 49, 0, 4252.308, 4255.385, 4184.615, 4167.179, 4235.385, 0, 0, []
1627624573.3586, 50, 0, 4264.103, 4264.615, 4153.846, 4176.41, 4241.026, 0, 0, []
1627624573.3665, 51, 0, 4257.949, 4269.231, 4208.718, 4168.205, 4238.462, 0, 0, []
1627624573.3745, 52, 0, 4247.179, 4270.256, 4165.128, 4170.256, 4231.795, 0, 0, []
1627624573.3823, 53, 0, 4233.846, 4258.974, 4190.256, 4169.231, 4212.821, 0, 0, []
1627624573.3903, 54, 0, 4216.41, 4245.128, 4212.821, 4152.308, 4190.256, 0, 0, []
1627624573.3982, 55, 0, 4214.872, 4245.128, 4182.564, 4152.308, 4192.308, 0, 0, []
1627624573.406, 56, 0, 4233.846, 4257.436, 4242.051, 4169.744, 4215.385, 0, 0, []
1627624573.4139, 57, 0, 4246.154, 4259.487, 4202.564, 4177.436, 4229.231, 0, 0, []
1627624573.4216, 58, 0, 4238.462, 4253.846, 4205.128, 4166.154, 4217.949, 0, 0, []
1627624573.4295, 59, 0, 4229.744, 4249.231, 4208.718, 4155.385, 4206.154, 0, 0, []
1627624573.4373, 60, 0, 4237.949, 4248.718, 4154.872, 4162.051, 4212.308, 0, 0, []
1627624573.4452, 61, 0, 4248.718, 4256.41, 4213.846, 4173.846, 4222.564, 0, 0, []
1627624573.453, 62, 0, 4243.077, 4252.308, 4179.487, 4170.256, 4218.462, 0, 0, []
1627624573.4608, 63, 0, 4249.744, 4258.974, 4178.974, 4170.769, 4225.128, 0, 0, []
1627624573.4686, 64, 0, 4272.308, 4278.462, 4206.154, 4188.205, 4244.615, 450, 0, []
1627624573.4765, 65, 0, 4265.641, 4276.41, 4147.692, 4190.769, 4241.538, 450, 0, []
1627624573.4843, 66, 0, 4245.641, 4285.128, 4203.59, 4184.615, 4224.615, 16182, 0, []
1627624573.4923, 67, 0, 4256.41, 4305.128, 4192.821, 4197.436, 4229.744, 450, 0, []
1627624573.5001, 68, 0, 4267.692, 4299.487, 4192.308, 4208.205, 4243.59, 16125, 0, []
1627624573.5081, 69, 0, 4253.846, 4285.128, 4241.026, 4199.487, 4238.462, 450, 0, []
1627624573.516, 70, 0, 4243.59, 4277.436, 4190.256, 4186.667, 4228.718, 310, 0, []
1627624573.524, 71, 0, 4249.231, 4277.436, 4224.103, 4181.026, 4232.821, 450, 0, []
1627624573.5319, 72, 0, 4251.282, 4280.513, 4210.256, 4191.282, 4236.41, 450, 0, []
1627624573.5398, 73, 0, 4244.615, 4280, 4196.923, 4207.692, 4229.231, 16171, 0, []
1627624573.5477, 74, 0, 4234.359, 4272.308, 4225.641, 4208.718, 4221.538, 450, 0, []
1627624573.5555, 75, 0, 4228.718, 4265.641, 4166.154, 4200.513, 4216.41, 16194, 0, []
1627624573.5634, 76, 0, 4232.821, 4273.846, 4212.308, 4200.513, 4214.872, 450, 0, []
1627624573.5712, 77, 0, 4228.718, 4275.897, 4201.538, 4197.949, 4213.846, 450, 0, []
1627624573.5791, 78, 0, 4212.821, 4267.692, 4162.051, 4176.923, 4203.077, 450, 0, []
1627624573.5868, 79, 0, 4211.795, 4278.462, 4209.231, 4169.231, 4194.872, 16194, 0, []
1627624573.5947, 80, 0, 4228.205, 4295.385, 4162.564, 4196.41, 4208.718, 450, 0, []
1627624573.6025, 81, 0, 4237.949, 4294.872, 4194.359, 4215.897, 4222.564, 450, 0, []
1627624573.6104, 82, 0, 4229.744, 4280.513, 4199.487, 4203.077, 4208.718, 450, 0, []
1627624573.6182, 83, 0, 4226.667, 4278.974, 4170.769, 4196.41, 4193.846, 16194, 0, []
1627624573.6261, 84, 0, 4234.359, 4291.282, 4228.718, 4202.564, 4207.692, 450, 0, []
1627624573.634, 85, 0, 4235.385, 4284.615, 4184.103, 4185.128, 4218.974, 450, 0, []
1627624573.642, 86, 0, 4230.256, 4277.436, 4210.256, 4164.103, 4213.333, 450, 0, []
1627624573.6499, 87, 0, 4231.795, 4285.128, 4234.359, 4172.308, 4212.308, 16194, 0, []
1627624573.6579, 88, 0, 4235.897, 4289.231, 4190.256, 4192.308, 4215.385, 450, 0, []
1627624573.6657, 89, 0, 4234.359, 4286.154, 4222.564, 4201.538, 4211.795, 450, 0, []
1627624573.6737, 90, 0, 4231.795, 4275.897, 4175.385, 4203.59, 4211.282, 450, 0, []
1627624573.6816, 91, 0, 4233.333, 4278.462, 4192.821, 4205.641, 4217.436, 16194, 0, []
1627624573.6896, 92, 0, 4236.923, 4290.256, 4207.179, 4202.051, 4220.513, 450, 0, []
1627624573.6975, 93, 0, 4234.872, 4294.872, 4156.41, 4183.077, 4214.872, 450, 0, []
1627624573.7054, 94, 0, 4230.256, 4307.179, 4223.077, 4165.641, 4208.718, 450, 0, []
1627624573.7133, 95, 0, 4234.872, 4314.359, 4196.923, 4167.179, 4204.615, 16194, 0, []
1627624573.7211, 96, 0, 4231.282, 4300.513, 4195.385, 4167.692, 4198.974, 450, 0, []
1627624573.729, 97, 0, 4216.923, 4279.487, 4230.769, 4167.692, 4198.462, 450, 0, []
1627624573.7368, 98, 0, 4221.538, 4274.359, 4190.256, 4188.718, 4212.308, 450, 0, []
1627624573.7446, 99, 0, 4238.462, 4291.282, 4230.256, 4210.769, 4231.795, 16194, 0, []
1627624573.7524, 100, 0, 4231.795, 4294.359, 4176.923, 4199.487, 4232.308, 450, 0, []
1627624573.7603, 101, 0, 4212.308, 4288.718, 4156.41, 4170.256, 4213.333, 450, 0, []
1627624573.7681, 102, 0, 4214.872, 4296.41, 4203.077, 4167.179, 4202.564, 450, 0, []
1627624573.7761, 103, 0, 4221.538, 4294.359, 4160.513, 4170.769, 4202.564, 16194, 0, []
1627624573.7839, 104, 0, 4209.231, 4288.718, 4211.795, 4153.333, 4193.846, 450, 0, []
1627624573.7919, 105, 0, 4216.41, 4299.487, 4216.41, 4158.974, 4196.41, 450, 0, []
1627624573.7998, 106, 0, 4242.564, 4313.333, 4218.974, 4197.949, 4223.077, 450, 0, []
1627624573.8078, 107, 0, 4247.179, 4312.821, 4256.41, 4213.333, 4236.41, 16194, 0, []
1627624573.8157, 108, 0, 4229.231, 4302.564, 4187.179, 4194.872, 4221.538, 450, 0, []
1627624573.8236, 109, 0, 4221.538, 4304.615, 4213.846, 4185.128, 4212.308, 450, 0, []
1627624573.8315, 110, 0, 4224.615, 4305.128, 4196.41, 4189.231, 4217.949, 450, 0, []
1627624573.8395, 111, 0, 4222.564, 4293.846, 4159.487, 4182.051, 4212.821, 16194, 0, []
1627624573.8474, 112, 0, 4213.846, 4280.513, 4195.897, 4163.59, 4198.974, 450, 0, []
1627624573.8553, 113, 0, 4206.154, 4275.897, 4141.538, 4155.385, 4196.41, 450, 0, []
1627624573.8631, 114, 0, 4212.308, 4293.846, 4190.256, 4163.077, 4204.103, 450, 0, []
1627624573.8709, 115, 0, 4218.974, 4308.205, 4214.872, 4168.205, 4206.154, 16194, 0, []
1627624573.8788, 116, 0, 4216.923, 4300.513, 4189.231, 4167.692, 4198.974, 450, 0, []
1627624573.8866, 117, 0, 4213.846, 4302.564, 4241.026, 4172.308, 4192.821, 450, 0, []
1627624573.8945, 118, 0, 4214.359, 4307.692, 4194.359, 4177.436, 4190.256, 450, 0, []
1627624573.9022, 119, 0, 4226.154, 4308.718, 4214.359, 4185.128, 4197.949, 16194, 0, []
1627624573.9101, 120, 0, 4236.41, 4302.564, 4218.974, 4190.256, 4210.256, 450, 0, []
1627624573.9179, 121, 0, 4234.872, 4290.256, 4168.718, 4182.564, 4214.359, 450, 0, []
1627624573.9258, 122, 0, 4231.282, 4287.179, 4211.795, 4173.846, 4221.538, 450, 0, []
1627624573.9336, 123, 0, 4224.615, 4278.462, 4168.205, 4168.718, 4215.385, 16194, 0, []
1627624573.9414, 124, 0, 4207.692, 4269.231, 4193.846, 4157.436, 4188.205, 450, 0, []
