Timestamp, COUNTER, INTERPOLATED, AF3, T7, Pz, T8, AF4, RAW_CQ, MARKER_HARDWARE, MARKERS
1628601708.8478, 5, 0, 4198.974, 4156.923, 4158.974, 4124.103, 4148.718, 450, 0, []
1628601708.8557, 6, 0, 4198.462, 4158.974, 4116.923, 4119.487, 4136.41, 16208, 0, []
1628601708.8637, 7, 0, 4195.897, 4172.821, 4125.641, 4121.026, 4128.205, 450, 0, []
1628601708.8715, 8, 0, 4186.667, 4169.744, 4142.564, 4113.333, 4121.538, 450, 0, []
1628601708.8795, 9, 0, 4205.128, 4169.744, 4124.103, 4117.949, 4140.513, 16085, 0, []
1628601708.8874, 10, 0, 4225.128, 4181.026, 4165.128, 4135.897, 4160.513, 450, 0, []
1628601708.8954, 11, 0, 4218.974, 4185.128, 4121.026, 4135.897, 4154.359, 16195, 0, []
1628601708.9033, 12, 0, 4220, 4186.154, 4132.821, 4138.974, 4153.333, 450, 0, []
1628601708.9112, 13, 0, 4233.846, 4190.256, 4164.615, 4155.897, 4165.128, 450, 0, []
1628601708.9191, 14, 0, 4228.718, 4196.41, 4127.692, 4157.949, 4163.077, 450, 0, []
1628601708.9271, 15, 0, 4213.846, 4185.128, 4169.744, 4148.205, 4153.846, 16195, 0, []
1628601708.9351, 16, 0, 4216.41, 4168.718, 4150.769, 4147.692, 4153.846, 0, 0, []
1628601708.943, 17, 0, 4225.641, 4170.769, 4144.103, 4146.154, 4155.385, 0, 0, []
1628601708.9509, 18, 0, 4229.231, 4168.718, 4155.385, 4134.359, 4152.308, 0, 0, []
1628601708.9588, 19, 0, 4247.692, 4169.231, 4114.872, 4134.872, 4159.487, 0, 0, []
1628601708.9668, 20, 0, 4271.282, 4194.872, 4165.641, 4150.256, 4172.308, 0, 0, []
1628601708.9747, 21, 0, 4247.179, 4199.487, 4137.949, 4128.718, 4151.795, 0, 0, []
1628601708.9827, 22, 0, 4217.436, 4167.179, 4114.872, 4105.128, 4123.59, 0, 0, []
1628601708.9905, 23, 0, 4257.949, 4170.256, 4166.667, 4141.026, 4160, 0, 0, []
1628601708.9985, 24, 0, 4304.103, 4205.128, 4138.974, 4170.256, 4208.205, 0, 0, []
1628601709.0064, 25, 0, 4283.59, 4201.538, 4155.897, 4158.974, 4189.744, 0, 0, []
1628601709.0144, 26, 0, 4260, 4178.974, 4136.41, 4158.974, 4165.128, 0, 0, []
1628601709.0224, 27, 0, 4267.179, 4172.821, 4125.128, 4165.128, 4175.897, 0, 0, []
1628601709.0302, 28, 0, 4264.615, 4164.103, 4161.026, 4146.154, 4170.769, 0, 0, []
1628601709.0381, 29, 0, 4256.41, 4162.564, 4117.949, 4134.872, 4155.897, 0, 0, []
1628601709.0461, 30, 0, 4263.077, 4190.769, 4145.641, 4152.308, 4166.154, 0, 0, []
1628601709.054, 31, 0, 4265.641, 4211.282, 4140, 4155.385, 4172.821, 0, 0, []
1628601709.062, 32, 0, 4267.692, 4198.974, 4122.051, 4142.051, 4167.179, 0, 0, []
1628601709.0699, 33, 0, 4278.974, 4190.256, 4166.667, 4143.077, 4167.692, 0, 0, []
1628601709.0778, 34, 0, 4281.026, 4197.436, 4120.513, 4148.718, 4176.41, 0, 0, []
1628601709.0858, 35, 0, 4271.795, 4203.59, 4137.949, 4152.821, 4183.077, 0, 0, []
1628601709.0937, 36, 0, 4266.154, 4200.513, 4146.667, 4156.41, 4177.949, 0, 0, []
1628601709.1017, 37, 0, 4251.282, 4180.513, 4116.41, 4158.462, 4161.026, 0, 0, []
1628601709.1096, 38, 0, 4228.205, 4153.333, 4152.821, 4157.436, 4141.538, 0, 0, []
1628601709.1175, 39, 0, 4239.487, 4169.744, 4118.462, 4159.487, 4138.974, 0, 0, []
1628601709.1254, 40, 0, 4282.051, 4214.359, 4136.923, 4183.077, 4163.59, 0, 0, []
1628601709.1334, 41, 0, 4294.872, 4209.231, 4137.949, 4189.231, 4180.513, 0, 0, []
1628601709.1413, 42, 0, 4262.564, 4175.385, 4093.333, 4158.974, 4162.051, 0, 0, []
1628601709.1493, 43, 0, 4245.128, 4181.538, 4155.385, 4153.333, 4147.692, 0, 0, []
1628601709.1571, 44, 0, 4260.513, 4206.667, 4133.846, 4170.769, 4155.897, 0, 0, []
1628601709.1651, 45, 0, 4266.154, 4201.538, 4125.641, 4171.282, 4157.436, 0, 0, []
1628601709.173, 46, 0, 4260, 4180, 4151.795, 4163.59, 4157.436, 0, 0, []
1628601709.181, 47, 0, 4258.462, 4180.513, 4124.103, 4160, 4166.667, 0, 0, []
1628601709.1889, 48, 0, 4256.923, 4193.333, 4152.821, 4160, 4169.231, 0, 0, []
1628601709.1968, 49, 0, 4254.359, 4202.564, 4125.641, 4152.308, 4168.205, 0, 0, []
1628601709.2047, 50, 0, 4251.795, 4198.974, 4133.333, 4137.949, 4164.615, 0, 0, []
1628601709.2127, 51, 0, 4248.205, 4184.103, 4162.051, 4129.744, 4157.436, 0, 0, []
1628601709.2207, 52, 0, 4244.615, 4178.974, 4115.385, 4128.718, 4149.744, 0, 0, []
1628601709.2286, 53, 0, 4249.744, 4197.949, 4154.359, 4138.462, 4149.744, 0, 0, []
1628601709.2365, 54, 0, 4262.564, 4210.769, 4144.615, 4150.256, 4161.538, 0, 0, []
1628601709.2444, 55, 0, 4265.128, 4190.256, 4128.718, 4154.872, 4171.282, 0, 0, []
1628601709.2524, 56, 0, 4254.872, 4176.41, 4147.692, 4144.103, 4165.641, 0, 0, []
1628601709.2603, 57, 0, 4245.641, 4193.846, 4100.513, 4129.231, 4151.282, 0, 0, []
1628601709.2683, 58, 0, 4230.256, 4192.308, 4134.359, 4122.051, 4134.872, 0, 0, []
1628601709.2761, 59, 0, 4207.179, 4166.154, 4123.077, 4108.718, 4117.436, 0, 0, []
1628601709.2841, 60, 0, 4220, 4170.769, 4115.385, 4116.41, 4130.769, 0, 0, []
1628601709.292, 61, 0, 4253.846, 4202.564, 4162.564, 4151.282, 4167.179, 0, 0, []
1628601709.3, 62, 0, 4250.256, 4208.205, 4114.359, 4156.41, 4172.308, 0, 0, []
1628601709.3079, 63, 0, 4233.846, 4183.077, 4132.308, 4147.179, 4155.897, 0, 0, []
1628601709.3158, 64, 0, 4226.154, 4166.154, 4124.103, 4148.718, 4150.256, 450, 0, []
1628601709.3237, 65, 0, 4217.949, 4172.308, 4107.179, 4146.154, 4152.821, 450, 0, []
1628601709.3317, 66, 0, 4225.128, 4187.692, 4148.718, 4142.051, 4158.974, 16185, 0, []
1628601709.3396, 67, 0, 4233.846, 4188.718, 4094.359, 4130.256, 4157.436, 450, 0, []
1628601709.3476, 68, 0, 4217.949, 4174.359, 4125.641, 4115.897, 4143.59, 16158, 0, []
1628601709.3554, 69, 0, 4208.205, 4170.256, 4151.795, 4121.026, 4144.615, 450, 0, []
1628601709.3634, 70, 0, 4220, 4186.154, 4107.179, 4137.949, 4164.103, 16198, 0, []
1628601709.3713, 71, 0, 4220.513, 4195.385, 4133.846, 4137.436, 4163.59, 450, 0, []
1628601709.3793, 72, 0, 4212.308, 4175.897, 4106.154, 4125.641, 4147.692, 450, 0, []
1628601709.3873, 73, 0, 4220.513, 4166.154, 4124.103, 4132.821, 4151.282, 274, 0, []
1628601709.3951, 74, 0, 4234.872, 4188.718, 4143.59, 4146.154, 4170.769, 450, 0, []
1628601709.4031, 75, 0, 4237.436, 4207.179, 4121.538, 4152.308, 4175.897, 16143, 0, []
1628601709.411, 76, 0, 4227.692, 4197.436, 4162.564, 4155.897, 4162.564, 450, 0, []
1628601709.419, 77, 0, 4220, 4183.59, 4120, 4153.846, 4154.872, 450, 0, []
1628601709.4269, 78, 0, 4217.949, 4185.641, 4123.077, 4155.897, 4159.487, 450, 0, []
1628601709.4348, 79, 0, 4217.949, 4186.667, 4151.795, 4158.462, 4156.923, 16143, 0, []
1628601709.4427, 80, 0, 4222.051, 4187.179, 4114.872, 4153.333, 4157.949, 450, 0, []
1628601709.4507, 81, 0, 4225.128, 4196.923, 4151.282, 4147.179, 4165.641, 450, 0, []
1628601709.4587, 82, 1, 4227.628, 4198.782, 4152.756, 4151.859, 4180.192, 450, 0, []
1628601709.4666, 83, 1, 4230.128, 4200.641, 4154.231, 4156.538, 4194.744, 450, 0, []
1628601709.4744, 84, 1, 4232.628, 4202.5, 4155.705, 4161.218, 4209.295, 450, 0, []
1628601709.4823, 85, 1, 4235.128, 4204.359, 4157.179, 4165.897, 4223.846, 450, 0, []
1628601709.4902, 86, 1, 4237.628, 4206.218, 4158.654, 4170.577, 4238.397, 450, 0, []
1628601709.4981, 87, 1, 4240.128, 4208.077, 4160.128, 4175.256, 4252.949, 450, 0, []
1628601709.506, 88, 1, 4242.628, 4209.936, 4161.603, 4179.936, 4267.5, 450, 0, []
1628601709.5138, 89, 0, 4245.128, 4211.795, 4163.077, 4184.615, 4282.051, 450, 0, []
1628601709.5217, 90, 0, 4231.795, 4200.513, 4115.385, 4191.795, 4278.462, 450, 0, []
1628601709.5295, 91, 0, 4214.359, 4189.231, 4137.436, 4188.718, 4253.333, 16143, 0, []
1628601709.5374, 92, 0, 4197.436, 4201.026, 4125.128, 4185.128, 4231.282, 450, 0, []
1628601709.5452, 93, 0, 4184.615, 4195.897, 4116.41, 4168.718, 4216.923, 450, 0, []
1628601709.553, 94, 0, 4180, 4184.615, 4164.103, 4158.462, 4207.179, 450, 0, []
1628601709.5608, 95, 0, 4172.308, 4190.256, 4118.974, 4160.513, 4199.487, 16143, 0, []
1628601709.5687, 96, 0, 4162.051, 4171.282, 4138.974, 4163.077, 4197.949, 450, 0, []
1628601709.5765, 97, 0, 4161.026, 4146.154, 4134.359, 4161.026, 4198.974, 450, 0, []
1628601709.5844, 98, 0, 4163.077, 4171.795, 4110.256, 4163.59, 4195.897, 450, 0, []
1628601709.5921, 99, 0, 4155.897, 4184.103, 4156.41, 4158.462, 4186.154, 16143, 0, []
1628601709.5999, 100, 0, 4143.59, 4144.615, 4112.308, 4132.821, 4172.308, 450, 0, []
1628601709.6078, 101, 0, 4147.179, 4153.333, 4128.205, 4135.385, 4175.897, 450, 0, []
1628601709.6156, 102, 0, 4167.179, 4200, 4147.179, 4163.59, 4199.487, 450, 0, []
1628601709.6235, 103, 0, 4172.308, 4199.487, 4118.462, 4158.974, 4201.538, 16143, 0, []
1628601709.6312, 104, 0, 4153.333, 4174.872, 4154.872, 4126.154, 4175.385, 450, 0, []
1628601709.6391, 105, 0, 4149.744, 4181.538, 4127.692, 4122.564, 4170.769, 450, 0, []
1628601709.6469, 106, 0, 4168.205, 4200.513, 4148.205, 4154.872, 4188.205, 450, 0, []
1628601709.6548, 107, 0, 4174.872, 4206.667, 4152.308, 4162.564, 4190.769, 16143, 0, []
1628601709.6626, 108, 0, 4164.103, 4194.359, 4106.154, 4141.538, 4182.051, 450, 0, []
1628601709.6704, 109, 0, 4156.923, 4171.795, 4155.897, 4137.949, 4179.487, 450, 0, []
1628601709.6782, 110, 0, 4160, 4179.487, 4134.872, 4148.205, 4180.513, 450, 0, []
1628601709.6861, 111, 0, 4163.077, 4205.641, 4132.308, 4158.974, 4183.59, 16143, 0, []
1628601709.6939, 112, 0, 4157.949, 4189.231, 4144.615, 4156.923, 4177.436, 450, 0, []
1628601709.7018, 113, 0, 4149.744, 4157.436, 4107.179, 4129.744, 4164.103, 450, 0, []
1628601709.7095, 114, 0, 4155.897, 4184.103, 4151.795, 4117.436, 4166.154, 450, 0, []
1628601709.7174, 115, 0, 4162.564, 4223.59, 4128.205, 4129.231, 4173.333, 16143, 0, []
1628601709.7252, 116, 0, 4153.846, 4202.564, 4125.128, 4141.538, 4170.769, 450, 0, []
1628601709.733, 117, 0, 4153.333, 4176.923, 4155.897, 4151.282, 4172.821, 450, 0, []
1628601709.7409, 118, 0, 4177.436, 4194.872, 4113.846, 4163.077, 4194.359, 450, 0, []
1628601709.7486, 119, 0, 4188.205, 4196.923, 4144.103, 4157.436, 4206.667, 16143, 0, []
1628601709.7565, 120, 0, 4161.538, 4157.949, 4122.051, 4123.59, 4182.564, 450, 0, []
1628601709.7643, 121, 0, 4151.795, 4146.667, 4114.872, 4121.538, 4169.231, 450, 0, []
1628601709.7722, 122, 0, 4174.872, 4169.231, 4153.333, 4150.769, 4188.718, 450, 0, []
1628601709.78, 123, 0, 4185.641, 4166.667, 4106.154, 4156.923, 4198.974, 16143, 0, []
1628601709.7878, 124, 0, 4185.128, 4164.103, 4137.436, 4162.564, 4200, 450, 0, []
1628601709.7956, 125, 0, 4187.179, 4192.821, 4132.821, 4165.128, 4200, 450, 0, []
1628601709.8035, 126, 0, 4184.615, 4212.821, 4112.308, 4143.59, 4187.179, 450, 0, []
1628601709.8113, 127, 0, 4187.692, 4202.564, 4152.308, 4144.615, 4189.231, 16143, 0, []
1628601709.8192, 128, 0, 4193.333, 4184.103, 4109.744, 4161.026, 4202.051, 450, 0, []
1628601709.8269, 0, 0, 4183.077, 4182.564, 4122.564, 4149.231, 4192.821, 450, 0, []
1628601709.8348, 1, 0, 4180, 4190.256, 4121.026, 4137.436, 4189.231, 450, 0, []
1628601709.8426, 2, 0, 4190.769, 4182.564, 4111.795, 4148.205, 4205.128, 16185, 0, []
1628601709.8505, 3, 0, 4178.462, 4172.821, 4156.41, 4137.949, 4190.256, 450, 0, []
1628601709.8583, 4, 0, 4153.333, 4182.564, 4108.205, 4106.154, 4157.949, 16158, 0, []
1628601709.8661, 5, 0, 4164.615, 4187.692, 4137.436, 4116.923, 4170.256, 450, 0, []
1628601709.874, 6, 0, 4182.564, 4174.359, 4148.205, 4144.615, 4190.256, 16202, 0, []
1628601709.8819, 7, 0, 4154.359, 4160.513, 4093.846, 4133.333, 4165.641, 450, 0, []
1628601709.8898, 8, 0, 4133.333, 4164.103, 4134.872, 4117.949, 4148.205, 450, 0, []
1628601709.8976, 9, 0, 4167.179, 4193.333, 4122.564, 4122.051, 4173.333, 16067, 0, []
1628601709.9055, 10, 0, 4185.128, 4206.154, 4137.436, 4122.051, 4184.615, 450, 0, []
1628601709.9132, 11, 0, 4157.436, 4182.051, 4142.564, 4111.795, 4157.949, 16180, 0, []
1628601709.9211, 12, 0, 4140, 4167.179, 4098.974, 4113.333, 4137.949, 450, 0, []
1628601709.9289, 13, 0, 4147.692, 4172.821, 4145.641, 4130.769, 4138.462, 450, 0, []
1628601709.9368, 14, 0, 4168.205, 4181.026, 4130.769, 4142.564, 4150.256, 450, 0, []
1628601709.9446, 15, 0, 4181.538, 4191.282, 4135.897, 4137.949, 4157.949, 16180, 0, []
1628601709.9524, 16, 0, 4172.821, 4192.821, 4149.744, 4126.154, 4150.769, 0, 0, []
1628601709.9602, 17, 0, 4175.385, 4176.923, 4104.103, 4121.026, 4152.821, 0, 0, []
1628601709.9681, 18, 0, 4185.128, 4178.974, 4149.231, 4123.077, 4158.462, 0, 0, []
1628601709.9759, 19, 0, 4173.846, 4198.974, 4141.026, 4126.154, 4146.154, 0, 0, []
1628601709.9838, 20, 0, 4173.333, 4183.59, 4129.744, 4124.615, 4134.872, 0, 0, []
1628601709.9915, 21, 0, 4207.179, 4163.077, 4147.692, 4122.564, 4157.436, 0, 0, []
1628601709.9994, 22, 0, 4242.051, 4181.538, 4118.462, 4131.282, 4198.462, 0, 0, []
1628601710.0072, 23, 0, 4248.205, 4201.026, 4159.487, 4145.128, 4209.744, 0, 0, []
1628601710.0151, 24, 0, 4227.692, 4187.692, 4131.282, 4136.923, 4186.154, 0, 0, []
1628601710.0229, 25, 0, 4212.308, 4170.769, 4121.538, 4124.103, 4164.615, 0, 0, []
1628601710.0307, 26, 0, 4213.846, 4174.359, 4163.59, 4129.231, 4162.051, 0, 0, []
1628601710.0385, 27, 0, 4211.795, 4179.487, 4110.256, 4126.154, 4150.769, 0, 0, []
1628601710.0463, 28, 0, 4209.231, 4183.077, 4144.615, 4117.949, 4135.897, 0, 0, []
1628601710.0542, 29, 0, 4218.974, 4190.256, 4148.718, 4109.744, 4140, 0, 0, []
1628601710.062, 30, 0, 4220, 4188.205, 4112.821, 4108.718, 4148.718, 0, 0, []
1628601710.0698, 31, 0, 4215.897, 4183.077, 4145.128, 4118.974, 4151.795, 0, 0, []
1628601710.0776, 32, 0, 4227.692, 4192.821, 4117.949, 4125.641, 4150.769, 0, 0, []
1628601710.0855, 33, 0, 4228.718, 4197.949, 4144.103, 4129.744, 4142.051, 0, 0, []
1628601710.0933, 34, 0, 4220, 4181.538, 4141.538, 4133.846, 4140, 0, 0, []
1628601710.1012, 35, 0, 4231.282, 4182.564, 4116.923, 4145.641, 4156.41, 0, 0, []
1628601710.1089, 36, 0, 4241.026, 4206.154, 4156.923, 4152.821, 4161.026, 0, 0, []
1628601710.1168, 37, 0, 4226.667, 4210.256, 4117.949, 4138.462, 4144.615, 0, 0, []
1628601710.1246, 38, 0, 4226.667, 4198.462, 4145.641, 4142.564, 4149.744, 0, 0, []
1628601710.1325, 39, 0, 4252.308, 4193.846, 4153.846, 4168.718, 4172.308, 0, 0, []
1628601710.1403, 40, 0, 4255.385, 4197.949, 4109.744, 4172.821, 4175.385, 0, 0, []
1628601710.1481, 41, 0, 4240.513, 4204.615, 4154.359, 4164.615, 4166.154, 0, 0, []
1628601710.1559, 42, 0, 4242.051, 4208.205, 4122.564, 4163.59, 4166.667, 0, 0, []
1628601710.1638, 43, 0, 4245.641, 4203.59, 4120, 4165.128, 4171.282, 0, 0, []
1628601710.1716, 44, 0, 4237.436, 4194.872, 4132.308, 4160, 4170.256, 0, 0, []
1628601710.1795, 45, 0, 4226.154, 4189.231, 4097.949, 4143.077, 4159.487, 0, 0, []
1628601710.1872, 46, 0, 4215.897, 4179.487, 4138.974, 4126.667, 4140, 0, 0, []
1628601710.1951, 47, 0, 4213.846, 4185.641, 4110.769, 4126.154, 4135.897, 0, 0, []
1628601710.2029, 48, 0, 4231.282, 4214.872, 4115.897, 4148.718, 4153.333, 0, 0, []
1628601710.2108, 49, 0, 4239.487, 4208.205, 4138.462, 4161.026, 4160.513, 0, 0, []
1628601710.2186, 50, 0, 4230.256, 4180.513, 4092.821, 4152.821, 4154.872, 0, 0, []
1628601710.2263, 51, 0, 4238.974, 4196.923, 4131.795, 4162.564, 4162.051, 0, 0, []
1628601710.2342, 52, 0, 4249.231, 4208.718, 4118.974, 4177.436, 4172.308, 0, 0, []
1628601710.242, 53, 0, 4237.436, 4187.692, 4115.897, 4173.333, 4168.718, 0, 0, []
1628601710.2499, 54, 0, 4234.872, 4199.487, 4137.949, 4172.308, 4163.59, 0, 0, []
1628601710.2577, 55, 0, 4250.769, 4222.051, 4097.949, 4176.41, 4169.744, 0, 0, []
1628601710.2655, 56, 0, 4257.436, 4213.333, 4142.051, 4170.256, 4178.462, 0, 0, []
1628601710.2733, 57, 0, 4253.846, 4210.769, 4120.513, 4161.538, 4178.462, 0, 0, []
1628601710.2812, 58, 0, 4246.667, 4210.769, 4101.026, 4162.051, 4163.077, 0, 0, []
1628601710.289, 59, 0, 4236.923, 4192.308, 4144.615, 4166.154, 4151.282, 0, 0, []
1628601710.2969, 60, 0, 4232.308, 4191.282, 4102.564, 4162.051, 4155.385, 0, 0, []
1628601710.3046, 61, 0, 4230.256, 4200.513, 4128.718, 4160.513, 4151.282, 0, 0, []
1628601710.3125, 62, 0, 4220, 4190.769, 4126.154, 4153.333, 4132.821, 0, 0, []
1628601710.3203, 63, 0, 4210.769, 4184.103, 4108.718, 4140, 4125.128, 0, 0, []
1628601710.3282, 64, 0, 4217.949, 4198.974, 4149.744, 4144.103, 4145.641, 450, 0, []
1628601710.336, 65, 0, 4230.769, 4204.103, 4107.692, 4153.333, 4165.641, 450, 0, []
1628601710.3439, 66, 0, 4234.359, 4188.718, 4129.744, 4163.59, 4167.692, 16185, 0, []
1628601710.3518, 67, 0, 4220, 4182.051, 4131.795, 4163.59, 4158.974, 450, 0, []
1628601710.3598, 68, 0, 4186.667, 4182.564, 4102.051, 4144.103, 4138.974, 16158, 0, []
1628601710.3677, 69, 0, 4181.538, 4184.615, 4145.128, 4134.872, 4136.923, 450, 0, []
1628601710.3755, 70, 0, 4220, 4205.128, 4114.359, 4151.795, 4173.846, 16205, 0, []
1628601710.3833, 71, 0, 4243.077, 4234.359, 4131.795, 4168.718, 4192.821, 450, 0, []
1628601710.3911, 72, 0, 4229.744, 4235.385, 4135.897, 4150.256, 4169.744, 450, 0, []
1628601710.399, 73, 0, 4215.897, 4205.128, 4096.41, 4128.205, 4157.436, 16082, 0, []
1628601710.4068, 74, 0, 4208.718, 4194.359, 4135.897, 4132.308, 4157.949, 450, 0, []
1628601710.4147, 75, 0, 4198.974, 4204.103, 4101.538, 4130.769, 4139.487, 16194, 0, []
1628601710.4224, 76, 0, 4200, 4193.333, 4111.795, 4128.205, 4134.359, 450, 0, []
1628601710.4303, 77, 0, 4210.769, 4176.41, 4133.333, 4134.359, 4148.718, 450, 0, []
1628601710.4381, 78, 0, 4210.769, 4194.359, 4101.538, 4135.385, 4146.667, 450, 0, []
1628601710.446, 79, 0, 4200.513, 4210.256, 4143.077, 4132.821, 4136.923, 16194, 0, []
1628601710.4538, 80, 0, 4203.077, 4197.949, 4109.231, 4134.359, 4143.077, 450, 0, []
1628601710.4617, 81, 0, 4206.667, 4190.256, 4108.718, 4133.846, 4139.487, 450, 0, []
1628601710.4694, 82, 0, 4188.205, 4186.154, 4134.872, 4120, 4110.256, 450, 0, []
1628601710.4773, 83, 0, 4182.564, 4188.205, 4097.949, 4114.872, 4110.256, 16194, 0, []
1628601710.4851, 84, 0, 4212.821, 4200, 4147.179, 4147.179, 4154.359, 450, 0, []
1628601710.493, 85, 0, 4227.179, 4205.641, 4127.692, 4169.231, 4169.231, 450, 0, []
1628601710.5008, 86, 0, 4211.282, 4212.308, 4116.923, 4150.769, 4146.154, 450, 0, []
1628601710.5086, 87, 0, 4201.538, 4210.769, 4147.179, 4134.359, 4136.923, 16194, 0, []
1628601710.5164, 88, 0, 4197.949, 4187.692, 4096.41, 4133.333, 4136.41, 450, 0, []
1628601710.5244, 89, 0, 4198.462, 4177.436, 4127.692, 4137.436, 4135.385, 450, 0, []
1628601710.5323, 90, 0, 4211.282, 4190.256, 4122.051, 4142.051, 4147.692, 450, 0, []
1628601710.5403, 91, 0, 4219.487, 4193.333, 4108.205, 4142.051, 4154.872, 16194, 0, []
1628601710.5481, 92, 0, 4211.795, 4193.846, 4142.051, 4136.41, 4147.179, 450, 0, []
1628601710.5559, 93, 0, 4207.692, 4189.231, 4103.077, 4129.231, 4142.051, 450, 0, []
1628601710.5638, 94, 0, 4231.282, 4178.974, 4129.744, 4134.359, 4159.487, 450, 0, []
1628601710.5716, 95, 0, 4273.846, 4185.641, 4114.872, 4142.051, 4200.513, 16194, 0, []
1628601710.5795, 96, 0, 4313.846, 4197.949, 4099.487, 4145.128, 4245.128, 450, 0, []
1628601710.5872, 97, 0, 4360, 4214.872, 4162.051, 4156.41, 4291.282, 450, 0, []
1628601710.5951, 98, 0, 4415.897, 4218.974, 4122.564, 4161.026, 4343.077, 450, 0, []
1628601710.6029, 99, 0, 4449.744, 4200.513, 4128.205, 4141.026, 4374.872, 16194, 0, []
1628601710.6108, 100, 0, 4472.821, 4199.487, 4135.897, 4124.103, 4394.872, 450, 0, []
1628601710.6186, 101, 0, 4498.974, 4212.308, 4125.128, 4142.051, 4418.974, 450, 0, []
1628601710.6264, 102, 0, 4492.308, 4210.256, 4156.41, 4164.103, 4417.949, 450, 0, []
1628601710.6342, 103, 0, 4454.359, 4210.769, 4101.026, 4157.949, 4382.051, 16194, 0, []
1628601710.6421, 104, 0, 4423.077, 4204.103, 4126.154, 4158.974, 4351.795, 450, 0, []
1628601710.6499, 105, 0, 4401.538, 4189.744, 4149.231, 4169.744, 4343.077, 450, 0, []
1628601710.6579, 106, 0, 4369.744, 4203.077, 4111.795, 4162.051, 4327.179, 450, 0, []
1628601710.6657, 107, 0, 4329.231, 4204.103, 4149.744, 4148.718, 4290.769, 16194, 0, []
1628601710.6737, 108, 0, 4301.538, 4179.487, 4112.308, 4141.026, 4256.41, 450, 0, []
1628601710.6816, 109, 0, 4292.821, 4185.128, 4121.026, 4144.615, 4251.282, 450, 0, []
1628601710.6896, 110, 0, 4284.615, 4203.077, 4139.487, 4145.128, 4245.641, 450, 0, []
1628601710.6975, 111, 0, 4264.615, 4205.128, 4094.872, 4133.846, 4222.564, 16194, 0, []
1628601710.7052, 112, 0, 4249.744, 4199.487, 4140.513, 4133.333, 4211.282, 450, 0, []
1628601710.7131, 113, 0, 4247.692, 4193.846, 4130.769, 4137.436, 4210.256, 450, 0, []
1628601710.7209, 114, 0, 4248.718, 4200, 4131.282, 4144.615, 4205.641, 450, 0, []
1628601710.7288, 115, 0, 4235.385, 4206.154, 4146.667, 4148.205, 4196.41, 16194, 0, []
1628601710.7366, 116, 0, 4216.41, 4191.282, 4111.795, 4143.077, 4187.179, 450, 0, []
1628601710.7444, 117, 0, 4214.359, 4186.154, 4158.974, 4147.692, 4182.564, 450, 0, []
1628601710.7522, 118, 0, 4217.949, 4198.462, 4130.769, 4154.872, 4182.051, 450, 0, []
1628601710.7601, 119, 0, 4207.179, 4188.205, 4111.795, 4152.821, 4177.436, 16194, 0, []
1628601710.7679, 120, 0, 4189.744, 4166.154, 4143.59, 4149.744, 4161.026, 450, 0, []
1628601710.7758, 121, 0, 4185.641, 4171.282, 4104.615, 4151.282, 4155.897, 450, 0, []
1628601710.7835, 122, 0, 4185.128, 4195.897, 4129.231, 4149.231, 4152.308, 450, 0, []
1628601710.7915, 123, 0, 4183.077, 4205.641, 4116.923, 4141.538, 4144.615, 16194, 0, []
1628601710.7994, 124, 0, 4190.769, 4197.436, 4117.949, 4151.795, 4152.821, 450, 0, []
1628601710.8074, 125, 0, 4194.872, 4195.385, 4153.333, 4165.128, 4158.974, 450, 0, []
1628601710.8153, 126, 0, 4171.795, 4197.436, 4100, 4146.667, 4133.333, 450, 0, []
1628601710.8232, 127, 0, 4140, 4190.256, 4133.846, 4124.103, 4098.974, 16194, 0, []
1628601710.8311, 128, 0, 4136.923, 4189.231, 4136.41, 4124.615, 4102.564, 450, 0, []
1628601710.8391, 0, 0, 4160.513, 4203.59, 4110.769, 4138.462, 4131.795, 450, 0, []
1628601710.847, 1, 0, 4175.897, 4218.462, 4152.821, 4146.154, 4148.205, 450, 0, []
1628601710.855, 2, 0, 4163.59, 4224.615, 4111.795, 4136.923, 4133.846, 16185, 0, []
1628601710.8628, 3, 0, 4147.179, 4218.462, 4128.205, 4128.205, 4108.205, 450, 0, []
1628601710.8706, 4, 0, 4147.179, 4217.436, 4134.359, 4130.256, 4104.103, 16158, 0, []
1628601710.8785, 5, 0, 4144.103, 4221.026, 4100.513, 4130.256, 4112.308, 450, 0, []
1628601710.8863, 6, 0, 4137.436, 4192.308, 4141.026, 4126.667, 4114.359, 16211, 0, []
1628601710.8942, 7, 0, 4142.051, 4170.256, 4118.462, 4125.128, 4112.308, 450, 0, []
1628601710.9019, 8, 0, 4141.538, 4192.308, 4132.308, 4127.692, 4106.667, 450, 0, []
1628601710.9098, 9, 0, 4125.128, 4197.436, 4129.231, 4125.641, 4093.846, 16082, 0, []
1628601710.9176, 10, 0, 4115.385, 4182.051, 4095.385, 4124.615, 4084.615, 450, 0, []
1628601710.9255, 11, 0, 4120.513, 4197.949, 4151.282, 4132.821, 4088.718, 16194, 0, []
1628601710.9333, 12, 0, 4123.077, 4204.615, 4118.974, 4131.282, 4090.769, 450, 0, []
1628601710.9411, 13, 0, 4117.949, 4174.359, 4117.949, 4126.667, 4085.128, 450, 0, []
1628601710.9489, 14, 0, 4120, 4165.641, 4134.359, 4135.385, 4088.718, 450, 0, []
1628601710.9569, 15, 0, 4131.282, 4191.282, 4098.462, 4142.564, 4102.564, 16194, 0, []
1628601710.9648, 16, 0, 4142.051, 4218.974, 4142.564, 4147.179, 4121.538, 0, 0, []
1628601710.9728, 17, 0, 4141.538, 4214.872, 4112.821, 4150.256, 4125.641, 0, 0, []
1628601710.9806, 18, 0, 4134.359, 4192.821, 4111.795, 4143.077, 4109.744, 0, 0, []
1628601710.9886, 19, 0, 4143.077, 4205.641, 4148.205, 4141.538, 4108.205, 0, 0, []
1628601710.9965, 20, 0, 4157.949, 4223.59, 4117.949, 4149.231, 4120.513, 0, 0, []
1628601711.0045, 21, 0, 4156.41, 4206.667, 4162.051, 4152.821, 4113.846, 0, 0, []
1628601711.0124, 22, 0, 4149.231, 4189.744, 4136.41, 4136.923, 4102.051, 0, 0, []
1628601711.0201, 23, 0, 4157.436, 4201.026, 4124.103, 4126.667, 4103.077, 0, 0, []
1628601711.028, 24, 0, 4171.282, 4204.615, 4164.103, 4137.949, 4108.205, 0, 0, []
1628601711.0358, 25, 0, 4177.949, 4190.256, 4115.385, 4145.641, 4114.872, 0, 0, []
1628601711.0437, 26, 0, 4168.718, 4184.103, 4134.359, 4135.897, 4109.231, 0, 0, []
1628601711.0515, 27, 0, 4160.513, 4196.923, 4126.154, 4123.077, 4098.462, 0, 0, []
1628601711.0593, 28, 0, 4174.359, 4205.128, 4118.974, 4140, 4115.385, 0, 0, []
1628601711.0671, 29, 0, 4188.205, 4197.436, 4155.897, 4159.487, 4129.231, 0, 0, []
1628601711.075, 30, 0, 4179.487, 4207.179, 4115.385, 4144.103, 4113.846, 0, 0, []
1628601711.0828, 31, 0, 4168.718, 4220, 4141.538, 4137.436, 4100.513, 0, 0, []
1628601711.0907, 32, 0, 4167.179, 4206.154, 4135.897, 4148.205, 4099.487, 0, 0, []
1628601711.0984, 33, 0, 4166.154, 4193.333, 4119.487, 4152.308, 4106.667, 0, 0, []
1628601711.1063, 34, 0, 4177.436, 4202.564, 4163.59, 4157.436, 4123.59, 0, 0, []
1628601711.1141, 35, 0, 4184.615, 4208.205, 4122.564, 4157.436, 4122.564, 0, 0, []
1628601711.1221, 36, 0, 4172.821, 4210.769, 4150.769, 4152.308, 4102.564, 0, 0, []
1628601711.13, 37, 0, 4176.923, 4233.846, 4163.077, 4152.821, 4108.205, 0, 0, []
1628601711.138, 38, 0, 4197.949, 4234.872, 4122.051, 4153.846, 4124.615, 0, 0, []
1628601711.1458, 39, 0, 4203.59, 4202.564, 4147.179, 4158.974, 4121.538, 0, 0, []
1628601711.1538, 40, 0, 4196.41, 4206.667, 4109.231, 4162.051, 4111.282, 0, 0, []
1628601711.1617, 41, 0, 4194.872, 4232.308, 4130.769, 4158.462, 4110.256, 0, 0, []
1628601711.1697, 42, 0, 4190.769, 4211.282, 4143.077, 4152.821, 4107.692, 0, 0, []
1628601711.1776, 43, 0, 4186.154, 4191.795, 4105.641, 4153.846, 4101.026, 0, 0, []
1628601711.1853, 44, 0, 4186.154, 4214.359, 4153.846, 4161.026, 4101.538, 0, 0, []
1628601711.1932, 45, 0, 4187.179, 4224.103, 4123.59, 4158.974, 4104.103, 0, 0, []
1628601711.201, 46, 0, 4186.667, 4213.846, 4124.615, 4151.282, 4094.872, 0, 0, []
1628601711.2089, 47, 0, 4183.077, 4213.333, 4144.103, 4146.667, 4082.564, 0, 0, []
1628601711.2167, 48, 0, 4185.641, 4209.231, 4107.692, 4153.846, 4090.256, 0, 0, []
1628601711.2245, 49, 0, 4202.051, 4197.436, 4152.821, 4173.846, 4111.282, 0, 0, []
1628601711.2323, 50, 0, 4209.231, 4201.538, 4128.718, 4178.462, 4112.308, 0, 0, []
1628601711.2402, 51, 0, 4195.897, 4207.179, 4120.513, 4161.538, 4092.308, 0, 0, []
1628601711.248, 52, 0, 4180.513, 4185.641, 4136.41, 4140.513, 4078.974, 0, 0, []
1628601711.2559, 53, 0, 4178.462, 4176.41, 4096.41, 4133.846, 4082.564, 0, 0, []
1628601711.2636, 54, 0, 4194.359, 4207.692, 4152.308, 4150.256, 4095.385, 0, 0, []
1628601711.2715, 55, 0, 4214.359, 4225.641, 4142.564, 4160.513, 4109.231, 0, 0, []
1628601711.2793, 56, 0, 4216.41, 4214.359, 4122.564, 4155.897, 4113.846, 0, 0, []
1628601711.2873, 57, 0, 4212.308, 4217.436, 4146.667, 4153.333, 4107.179, 0, 0, []
1628601711.2952, 58, 0, 4220, 4216.923, 4105.128, 4151.282, 4111.795, 0, 0, []
1628601711.3031, 59, 0, 4232.821, 4212.821, 4148.718, 4154.872, 4130.769, 0, 0, []
1628601711.311, 60, 0, 4249.744, 4230.256, 4146.154, 4161.026, 4143.077, 0, 0, []
1628601711.319, 61, 0, 4266.667, 4221.026, 4121.026, 4158.462, 4150.769, 0, 0, []
1628601711.3269, 62, 0, 4280, 4191.282, 4152.308, 4143.59, 4173.846, 0, 0, []
1628601711.3349, 63, 0, 4309.744, 4209.231, 4116.41, 4136.923, 4208.718, 0, 0, []
1628601711.3427, 64, 0, 4349.744, 4227.179, 4138.462, 4148.718, 4240, 450, 0, []
1628601711.3505, 65, 0, 4378.462, 4203.59, 4126.154, 4152.821, 4272.821, 450, 0, []
1628601711.3584, 66, 0, 4406.154, 4201.538, 4111.795, 4151.282, 4309.231, 16185, 0, []
1628601711.3662, 67, 0, 4424.103, 4227.179, 4164.103, 4158.462, 4325.641, 450, 0, []
1628601711.3741, 68, 0, 4402.051, 4236.41, 4115.897, 4148.718, 4309.231, 16158, 0, []
1628601711.3818, 69, 0, 4356.41, 4229.231, 4127.692, 4126.154, 4273.846, 450, 0, []
1628601711.3897, 70, 0, 4313.846, 4207.692, 4137.436, 4113.846, 4232.308, 16210, 0, []
1628601711.3975, 71, 0, 4291.795, 4195.385, 4110.256, 4122.051, 4208.205, 450, 0, []
1628601711.4054, 72, 0, 4296.923, 4214.872, 4155.897, 4152.821, 4221.538, 450, 0, []
1628601711.4132, 73, 0, 4289.231, 4215.385, 4124.103, 4163.59, 4218.462, 16082, 0, []
1628601711.4211, 74, 0, 4249.231, 4202.051, 4137.436, 4146.667, 4174.872, 450, 0, []
1628601711.429, 75, 0, 4225.128, 4218.462, 4144.615, 4137.436, 4152.308, 16194, 0, []
1628601711.437, 76, 0, 4225.641, 4216.923, 4096.923, 4131.282, 4158.974, 450, 0, []
1628601711.4449, 77, 0, 4218.462, 4198.462, 4132.821, 4123.077, 4151.795, 450, 0, []
1628601711.4529, 78, 0, 4194.872, 4206.667, 4100.513, 4114.359, 4126.154, 450, 0, []
1628601711.4607, 79, 0, 4177.949, 4209.744, 4110.256, 4115.897, 4113.333, 16194, 0, []
1628601711.4687, 80, 0, 4193.846, 4202.051, 4151.795, 4140.513, 4134.359, 450, 0, []
1628601711.4766, 81, 0, 4218.462, 4214.359, 4127.692, 4163.077, 4161.026, 450, 0, []
1628601711.4846, 82, 0, 4208.205, 4219.487, 4156.923, 4156.41, 4148.718, 450, 0, []
1628601711.4925, 83, 0, 4177.949, 4208.718, 4117.949, 4133.846, 4119.487, 16194, 0, []
1628601711.5002, 84, 0, 4164.615, 4197.949, 4118.462, 4129.231, 4113.846, 450, 0, []
1628601711.5081, 85, 0, 4162.564, 4184.103, 4143.077, 4127.179, 4109.231, 450, 0, []
1628601711.5159, 86, 0, 4152.821, 4183.59, 4090.769, 4111.282, 4090.256, 450, 0, []
1628601711.5238, 87, 0, 4140.513, 4192.821, 4133.846, 4107.179, 4080.513, 16194, 0, []
1628601711.5316, 88, 0, 4138.462, 4178.462, 4125.128, 4113.846, 4085.641, 450, 0, []
1628601711.5394, 89, 0, 4148.718, 4162.564, 4114.872, 4126.667, 4097.436, 450, 0, []
1628601711.5472, 90, 0, 4160, 4177.949, 4150.769, 4140.513, 4113.333, 450, 0, []
1628601711.5551, 91, 0, 4167.692, 4201.538, 4113.333, 4147.692, 4124.615, 16194, 0, []
1628601711.5629, 92, 0, 4167.179, 4199.487, 4143.59, 4148.205, 4123.077, 450, 0, []
1628601711.5708, 93, 0, 4168.718, 4192.821, 4130.769, 4141.538, 4126.667, 450, 0, []
1628601711.5785, 94, 0, 4175.385, 4202.051, 4116.41, 4133.846, 4138.974, 450, 0, []
1628601711.5865, 95, 0, 4163.59, 4202.564, 4148.205, 4118.974, 4123.59, 16194, 0, []
1628601711.5944, 96, 0, 4143.59, 4189.231, 4096.923, 4102.051, 4098.462, 450, 0, []
1628601711.6024, 97, 0, 4148.718, 4183.077, 4137.436, 4118.462, 4110.256, 450, 0, []
1628601711.6103, 98, 0, 4157.436, 4184.615, 4141.538, 4143.59, 4129.744, 450, 0, []
1628601711.6182, 99, 0, 4151.282, 4182.051, 4103.077, 4136.923, 4120.513, 16194, 0, []
1628601711.6261, 100, 0, 4153.846, 4186.154, 4146.667, 4129.231, 4111.795, 450, 0, []
1628601711.6341, 101, 0, 4172.821, 4192.308, 4113.846, 4143.59, 4122.051, 450, 0, []
1628601711.642, 102, 0, 4186.154, 4182.051, 4133.846, 4159.487, 4128.205, 450, 0, []
1628601711.65, 103, 0, 4176.41, 4170.769, 4144.103, 4158.462, 4121.026, 16194, 0, []
1628601711.6578, 104, 0, 4156.923, 4174.872, 4103.59, 4144.615, 4106.154, 450, 0, []
1628601711.6656, 105, 0, 4152.821, 4176.923, 4140, 4138.974, 4094.872, 450, 0, []
1628601711.6735, 106, 0, 4154.359, 4165.128, 4122.564, 4137.436, 4089.744, 450, 0, []
1628601711.6813, 107, 0, 4150.256, 4173.333, 4140.513, 4143.59, 4089.744, 16194, 0, []
1628601711.6892, 108, 0, 4152.308, 4192.821, 4133.333, 4149.231, 4096.41, 450, 0, []
1628601711.6969, 109, 0, 4143.077, 4165.128, 4090.256, 4137.436, 4089.744, 450, 0, []
1628601711.7048, 110, 0, 4125.641, 4125.128, 4145.641, 4124.103, 4071.795, 450, 0, []
1628601711.7126, 111, 0, 4132.308, 4147.179, 4119.487, 4127.692, 4077.949, 16194, 0, []
1628601711.7206, 112, 0, 4143.077, 4178.974, 4121.538, 4138.974, 4095.385, 450, 0, []
1628601711.7285, 113, 0, 4136.41, 4160, 4145.128, 4144.103, 4096.923, 450, 0, []
1628601711.7363, 114, 0, 4141.026, 4141.538, 4110.256, 4146.667, 4094.359, 450, 0, []
1628601711.7441, 115, 0, 4155.385, 4152.821, 4147.179, 4147.179, 4098.974, 16194, 0, []
1628601711.7521, 116, 0, 4155.897, 4164.615, 4115.897, 4136.41, 4104.103, 450, 0, []
1628601711.76, 117, 0, 4146.667, 4175.897, 4120.513, 4130.769, 4103.077, 450, 0, []
1628601711.768, 118, 0, 4137.949, 4188.205, 4154.872, 4140, 4095.897, 450, 0, []
1628601711.7758, 119, 0, 4134.872, 4184.615, 4105.641, 4146.154, 4098.462, 16194, 0, []
1628601711.7838, 120, 0, 4138.462, 4173.846, 4137.949, 4142.564, 4104.615, 450, 0, []
1628601711.7917, 121, 0, 4138.974, 4165.641, 4125.128, 4131.795, 4094.872, 450, 0, []
1628601711.7997, 122, 0, 4133.333, 4167.179, 4117.436, 4133.846, 4085.641, 450, 0, []
1628601711.8076, 123, 0, 4131.282, 4170.769, 4151.795, 4142.051, 4087.692, 16194, 0, []
1628601711.8153, 124, 0, 4142.051, 4165.128, 4105.641, 4146.154, 4097.436, 450, 0, []
1628601711.8232, 125, 0, 4151.795, 4177.436, 4133.846, 4157.436, 4108.718, 450, 0, []
1628601711.831, 126, 0, 4148.718, 4192.308, 4130.769, 4151.282, 4109.231, 450, 0, []
1628601711.8389, 127, 0, 4148.718, 4169.744, 4116.923, 4128.718, 4108.718, 16194, 0, []
1628601711.8467, 128, 0, 4152.308, 4157.436, 4149.231, 4121.538, 4109.231, 450, 0, []
1628601711.8545, 0, 0, 4153.846, 4179.487, 4105.641, 4128.205, 4113.333, 450, 0, []
1628601711.8623, 1, 0, 4165.641, 4180, 4140.513, 4145.641, 4130.256, 450, 0, []
1628601711.8702, 2, 0, 4171.282, 4162.051, 4139.487, 4147.179, 4138.974, 16185, 0, []
1628601711.878, 3, 0, 4154.359, 4166.154, 4101.538, 4116.923, 4120, 450, 0, []
1628601711.886, 4, 0, 4148.205, 4171.282, 4144.103, 4112.308, 4112.821, 16158, 0, []
1628601711.8939, 5, 0, 4159.487, 4165.641, 4112.821, 4137.436, 4129.744, 450, 0, []
1628601711.9018, 6, 0, 4152.821, 4161.026, 4128.205, 4134.359, 4123.59, 16203, 0, []
1628601711.9097, 7, 0, 4133.846, 4158.974, 4138.462, 4108.205, 4098.462, 450, 0, []
1628601711.9177, 8, 0, 4131.282, 4151.795, 4112.821, 4106.667, 4093.846, 450, 0, []
1628601711.9256, 9, 0, 4136.923, 4151.282, 4153.333, 4130.256, 4105.128, 16082, 0, []
1628601711.9336, 10, 0, 4135.897, 4168.718, 4120, 4136.923, 4104.615, 450, 0, []
1628601711.9414, 11, 0, 4130.769, 4178.462, 4132.308, 4134.872, 4099.487, 16197, 0, []
1628601711.9494, 12, 0, 4134.872, 4171.795, 4138.974, 4136.923, 4108.205, 450, 0, []
1628601711.9573, 13, 0, 4153.333, 4180.513, 4105.128, 4135.897, 4122.051, 450, 0, []
1628601711.9651, 14, 0, 4166.667, 4190.256, 4157.949, 4134.359, 4121.026, 450, 0, []
1628601711.973, 15, 0, 4156.923, 4158.974, 4125.641, 4125.641, 4108.718, 16197, 0, []
1628601711.9807, 16, 0, 4145.641, 4132.308, 4126.667, 4117.436, 4104.103, 0, 0, []
1628601711.9886, 17, 0, 4151.282, 4156.923, 4157.436, 4114.872, 4104.615, 0, 0, []
1628601711.9964, 18, 0, 4157.436, 4184.615, 4113.333, 4113.846, 4101.026, 0, 0, []
1628601712.0044, 19, 0, 4164.103, 4189.744, 4144.615, 4126.667, 4114.359, 0, 0, []
1628601712.0123, 20, 0, 4178.974, 4198.462, 4126.154, 4130.769, 4131.282, 0, 0, []
1628601712.0201, 21, 0, 4184.615, 4211.282, 4122.051, 4118.462, 4124.103, 0, 0, []
1628601712.0279, 22, 0, 4184.615, 4195.897, 4142.051, 4116.923, 4123.077, 0, 0, []
1628601712.0358, 23, 0, 4196.923, 4176.41, 4104.615, 4123.077, 4137.949, 0, 0, []
1628601712.0436, 24, 0, 4200, 4186.154, 4152.308, 4118.462, 4132.821, 0, 0, []
1628601712.0516, 25, 0, 4185.641, 4189.744, 4133.846, 4114.872, 4111.795, 0, 0, []
1628601712.0594, 26, 0, 4178.974, 4183.59, 4114.359, 4126.154, 4104.103, 0, 0, []
1628601712.0674, 27, 0, 4186.154, 4188.718, 4149.231, 4124.615, 4112.308, 0, 0, []
1628601712.0753, 28, 0, 4190.256, 4191.282, 4115.897, 4105.641, 4120, 0, 0, []
1628601712.0833, 29, 0, 4196.923, 4190.256, 4154.872, 4112.821, 4122.051, 0, 0, []
1628601712.0912, 30, 0, 4211.282, 4191.795, 4140, 4134.872, 4128.718, 0, 0, []
1628601712.0991, 31, 0, 4219.487, 4188.205, 4110.769, 4138.462, 4137.949, 0, 0, []
1628601712.107, 32, 0, 4218.974, 4191.282, 4152.308, 4133.846, 4140.513, 0, 0, []
1628601712.1149, 33, 0, 4209.744, 4203.077, 4110.256, 4123.077, 4126.667, 0, 0, []
1628601712.1228, 34, 0, 4193.333, 4196.923, 4130.769, 4108.205, 4105.128, 0, 0, []
1628601712.1306, 35, 0, 4192.308, 4186.667, 4134.359, 4108.205, 4105.641, 0, 0, []
1628601712.1384, 36, 0, 4207.179, 4185.641, 4110.256, 4120, 4125.641, 0, 0, []
1628601712.1462, 37, 0, 4208.718, 4182.564, 4149.744, 4117.436, 4126.154, 0, 0, []
1628601712.1541, 38, 0, 4204.615, 4191.282, 4115.385, 4111.795, 4118.462, 0, 0, []
1628601712.1619, 39, 0, 4216.41, 4200.513, 4143.077, 4136.923, 4134.872, 0, 0, []
1628601712.1698, 40, 0, 4225.128, 4193.846, 4153.333, 4155.897, 4144.103, 0, 0, []
1628601712.1775, 41, 0, 4216.923, 4182.564, 4109.744, 4138.462, 4128.205, 0, 0, []
1628601712.1855, 42, 0, 4211.282, 4181.538, 4148.718, 4122.564, 4124.615, 0, 0, []
1628601712.1934, 43, 0, 4222.051, 4205.128, 4126.154, 4125.641, 4136.41, 0, 0, []
1628601712.2014, 44, 0, 4233.846, 4229.231, 4141.026, 4136.41, 4140.513, 0, 0, []
1628601712.2093, 45, 0, 4225.128, 4219.487, 4149.744, 4132.821, 4136.923, 0, 0, []
1628601712.2172, 46, 0, 4207.692, 4194.359, 4110.769, 4121.026, 4135.385, 0, 0, []
1628601712.2251, 47, 0, 4206.154, 4184.615, 4157.949, 4128.205, 4135.385, 0, 0, []
1628601712.2331, 48, 0, 4212.821, 4185.641, 4130.256, 4141.026, 4137.436, 0, 0, []
1628601712.241, 49, 0, 4217.436, 4196.41, 4131.795, 4147.179, 4143.077, 0, 0, []
1628601712.249, 50, 0, 4213.846, 4205.641, 4145.641, 4134.872, 4137.436, 0, 0, []
1628601712.2568, 51, 0, 4198.974, 4201.026, 4093.333, 4106.667, 4123.077, 0, 0, []
1628601712.2648, 52, 0, 4202.564, 4198.974, 4141.026, 4107.179, 4129.744, 0, 0, []
1628601712.2727, 53, 0, 4220.513, 4207.179, 4132.821, 4126.667, 4148.205, 0, 0, []
1628601712.2805, 54, 0, 4214.872, 4204.615, 4123.077, 4114.872, 4136.41, 0, 0, []
1628601712.2884, 55, 0, 4202.051, 4187.179, 4148.205, 4093.846, 4120, 0, 0, []
1628601712.2961, 56, 0, 4215.897, 4176.923, 4117.949, 4110.256, 4139.487, 0, 0, []
1628601712.304, 57, 0, 4227.692, 4188.718, 4156.41, 4137.949, 4153.846, 0, 0, []
1628601712.3118, 58, 0, 4202.564, 4190.256, 4126.154, 4113.333, 4125.641, 0, 0, []
1628601712.3197, 59, 0, 4173.846, 4176.41, 4109.744, 4075.897, 4098.462, 0, 0, []
1628601712.3275, 60, 0, 4187.692, 4188.205, 4165.128, 4095.897, 4116.923, 0, 0, []
1628601712.3354, 61, 0, 4220.513, 4210.256, 4129.231, 4128.205, 4148.205, 0, 0, []
1628601712.3433, 62, 0, 4218.974, 4207.692, 4140, 4121.538, 4147.692, 0, 0, []
1628601712.3513, 63, 0, 4197.949, 4188.718, 4127.179, 4107.179, 4126.154, 0, 0, []
1628601712.3592, 64, 0, 4194.872, 4181.538, 4118.974, 4113.333, 4120, 450, 0, []
1628601712.3672, 65, 0, 4198.974, 4200, 4157.436, 4114.872, 4131.282, 450, 0, []
1628601712.3751, 66, 0, 4199.487, 4208.205, 4107.692, 4103.59, 4140.513, 16185, 0, []
1628601712.383, 67, 0, 4197.949, 4185.641, 4136.41, 4108.205, 4141.538, 450, 0, []
1628601712.3909, 68, 0, 4190.256, 4173.846, 4137.436, 4106.154, 4133.846, 16158, 0, []
1628601712.3989, 69, 0, 4181.026, 4191.282, 4104.615, 4087.179, 4121.538, 450, 0, []
1628601712.4068, 70, 0, 4178.974, 4184.615, 4154.872, 4081.026, 4117.949, 16188, 0, []
1628601712.4147, 71, 0, 4181.538, 4165.641, 4121.538, 4088.718, 4122.564, 450, 0, []
1628601712.4226, 72, 0, 4188.718, 4176.41, 4127.692, 4100, 4127.179, 450, 0, []
1628601712.4304, 73, 0, 4201.026, 4188.205, 4132.821, 4105.128, 4138.462, 16082, 0, []
1628601712.4383, 74, 0, 4212.308, 4187.692, 4099.487, 4108.205, 4156.41, 450, 0, []
1628601712.4461, 75, 0, 4225.128, 4184.615, 4141.538, 4111.795, 4165.641, 16197, 0, []
1628601712.4539, 76, 0, 4251.282, 4173.846, 4120, 4105.128, 4177.949, 450, 0, []
1628601712.4617, 77, 0, 4292.821, 4172.821, 4140.513, 4112.821, 4217.436, 450, 0, []
1628601712.4697, 78, 0, 4337.949, 4190.769, 4147.692, 4135.897, 4268.718, 450, 0, []
1628601712.4776, 79, 0, 4371.282, 4188.718, 4097.436, 4136.923, 4302.051, 16197, 0, []
1628601712.4855, 80, 0, 4392.308, 4177.949, 4142.051, 4130.256, 4322.564, 450, 0, []
1628601712.4932, 81, 0, 4406.667, 4202.051, 4124.615, 4141.538, 4340, 450, 0, []
1628601712.5011, 82, 0, 4406.667, 4213.333, 4132.308, 4150.256, 4343.59, 450, 0, []
1628601712.5089, 83, 0, 4383.59, 4187.179, 4144.103, 4139.487, 4324.615, 16197, 0, []
1628601712.5169, 84, 0, 4343.59, 4175.385, 4092.308, 4132.308, 4290.769, 450, 0, []
1628601712.5248, 85, 0, 4312.821, 4189.231, 4148.718, 4141.538, 4264.615, 450, 0, []
1628601712.5327, 86, 0, 4286.667, 4178.462, 4135.385, 4127.179, 4236.923, 450, 0, []
1628601712.5406, 87, 0, 4255.897, 4154.872, 4112.821, 4110.769, 4211.282, 16197, 0, []
1628601712.5486, 88, 0, 4250.256, 4178.974, 4148.205, 4135.897, 4217.949, 450, 0, []
1628601712.5565, 89, 0, 4256.41, 4208.718, 4127.692, 4158.462, 4229.744, 450, 0, []
1628601712.5645, 90, 0, 4242.564, 4197.949, 4160.513, 4155.897, 4212.308, 450, 0, []
1628601712.5723, 91, 0, 4216.923, 4179.487, 4133.846, 4146.154, 4185.641, 16197, 0, []
1628601712.5801, 92, 0, 4202.564, 4173.846, 4117.949, 4143.59, 4174.872, 450, 0, []
1628601712.588, 93, 0, 4198.974, 4166.154, 4155.385, 4149.744, 4171.795, 450, 0, []
1628601712.5958, 94, 0, 4195.897, 4167.179, 4112.308, 4152.821, 4167.179, 450, 0, []
1628601712.6037, 95, 0, 4190.769, 4180, 4140, 4149.744, 4162.051, 16197, 0, []
1628601712.6114, 96, 0, 4182.564, 4182.564, 4136.923, 4138.974, 4157.949, 450, 0, []
1628601712.6193, 97, 0, 4170.769, 4180.513, 4124.103, 4131.795, 4148.205, 450, 0, []
1628601712.6271, 98, 0, 4155.385, 4193.333, 4160, 4132.308, 4133.333, 450, 0, []
1628601712.635, 99, 0, 4154.872, 4201.538, 4108.718, 4130.769, 4134.872, 16197, 0, []
1628601712.6428, 100, 0, 4156.41, 4172.308, 4135.385, 4121.538, 4135.385, 450, 0, []
1628601712.6507, 101, 0, 4152.308, 4165.641, 4153.333, 4120.513, 4129.744, 450, 0, []
1628601712.6584, 102, 0, 4157.949, 4202.564, 4122.051, 4134.359, 4136.923, 450, 0, []
1628601712.6664, 103, 0, 4161.538, 4194.872, 4148.718, 4129.231, 4140.513, 16197, 0, []
1628601712.6743, 104, 0, 4154.359, 4165.641, 4112.821, 4098.462, 4129.231, 450, 0, []
1628601712.6823, 105, 0, 4153.846, 4179.487, 4133.846, 4094.359, 4123.59, 450, 0, []
1628601712.6902, 106, 0, 4158.974, 4185.641, 4136.923, 4109.231, 4133.333, 450, 0, []
1628601712.6981, 107, 0, 4159.487, 4161.026, 4106.667, 4112.821, 4137.949, 16197, 0, []
1628601712.706, 108, 0, 4156.923, 4162.051, 4164.615, 4118.974, 4129.231, 450, 0, []
1628601712.714, 109, 0, 4142.564, 4184.615, 4122.564, 4108.718, 4107.179, 450, 0, []
1628601712.7219, 110, 0, 4115.385, 4182.564, 4120, 4091.282, 4086.154, 450, 0, []
1628601712.7299, 111, 0, 4104.615, 4170.769, 4151.795, 4094.359, 4083.59, 16197, 0, []
1628601712.7377, 112, 0, 4108.205, 4170.256, 4111.282, 4099.487, 4091.282, 450, 0, []
1628601712.7455, 113, 0, 4107.179, 4167.179, 4139.487, 4097.436, 4101.026, 450, 0, []
1628601712.7534, 114, 0, 4110.769, 4154.872, 4120.513, 4097.949, 4103.59, 450, 0, []
1628601712.7612, 115, 0, 4121.026, 4159.487, 4125.641, 4103.077, 4095.385, 16197, 0, []
1628601712.7691, 116, 0, 4118.974, 4184.615, 4138.462, 4102.051, 4092.308, 450, 0, []
1628601712.7768, 117, 0, 4117.949, 4185.128, 4099.487, 4104.615, 4100.513, 450, 0, []
1628601712.7847, 118, 0, 4129.231, 4165.128, 4151.282, 4111.795, 4101.026, 450, 0, []
1628601712.7925, 119, 0, 4142.564, 4161.538, 4129.744, 4103.077, 4106.154, 16197, 0, []
1628601712.8004, 120, 0, 4177.949, 4169.744, 4127.692, 4103.59, 4156.923, 450, 0, []
1628601712.8082, 121, 0, 4232.821, 4178.974, 4158.462, 4122.051, 4224.103, 450, 0, []
1628601712.816, 122, 0, 4271.795, 4183.59, 4111.282, 4129.231, 4265.641, 450, 0, []
1628601712.8238, 123, 0, 4306.154, 4180.513, 4158.462, 4137.949, 4307.692, 16197, 0, []
1628601712.8318, 124, 0, 4340, 4167.179, 4132.821, 4156.41, 4354.359, 450, 0, []
1628601712.8397, 125, 0, 4348.205, 4166.667, 4109.744, 4162.051, 4381.026, 450, 0, []
1628601712.8477, 126, 0, 4336.923, 4170.769, 4151.282, 4150.769, 4388.718, 450, 0, []
1628601712.8555, 127, 0, 4318.462, 4165.641, 4104.103, 4154.359, 4393.333, 16197, 0, []
1628601712.8635, 128, 0, 4288.205, 4172.308, 4138.974, 4183.077, 4389.744, 450, 0, []
1628601712.8714, 0, 0, 4258.974, 4183.077, 4133.846, 4199.487, 4376.41, 450, 0, []
1628601712.8794, 1, 0, 4242.051, 4187.179, 4123.077, 4202.564, 4371.795, 450, 0, []
1628601712.8873, 2, 0, 4222.564, 4183.077, 4159.487, 4210.769, 4368.718, 16186, 0, []
1628601712.895, 3, 0, 4194.872, 4169.231, 4106.154, 4215.897, 4349.231, 450, 0, []
1628601712.9029, 4, 0, 4160, 4166.154, 4151.795, 4215.385, 4314.359, 16158, 0, []
1628601712.9107, 5, 0, 4117.436, 4174.359, 4148.205, 4204.103, 4272.308, 450, 0, []
1628601712.9186, 6, 0, 4077.949, 4164.615, 4122.564, 4191.282, 4229.744, 16201, 0, []
1628601712.9264, 7, 0, 4048.718, 4154.872, 4177.436, 4194.359, 4201.026, 450, 0, []
1628601712.9342, 8, 0, 4040.513, 4173.333, 4118.462, 4198.974, 4193.333, 450, 0, []
1628601712.942, 9, 0, 4062.564, 4186.154, 4147.179, 4212.821, 4196.923, 16082, 0, []
1628601712.9499, 10, 0, 4093.333, 4188.205, 4149.231, 4233.846, 4205.641, 450, 0, []
1628601712.9577, 11, 0, 4095.385, 4182.564, 4113.846, 4231.282, 4200.513, 16197, 0, []
1628601712.9656, 12, 0, 4068.205, 4163.59, 4184.103, 4208.205, 4171.795, 450, 0, []
1628601712.9733, 13, 0, 4048.718, 4163.077, 4100, 4179.487, 4148.205, 450, 0, []
1628601712.9813, 14, 0, 4043.077, 4173.333, 4098.974, 4166.667, 4138.974, 450, 0, []
1628601712.9892, 15, 0, 4041.026, 4165.641, 4155.385, 4167.692, 4130.256, 16197, 0, []
1628601712.9972, 16, 0, 4057.436, 4173.333, 4118.974, 4178.462, 4136.923, 0, 0, []
1628601713.0051, 17, 0, 4082.564, 4190.769, 4165.641, 4201.026, 4159.487, 0, 0, []
1628601713.013, 18, 0, 4083.077, 4181.026, 4137.949, 4196.41, 4156.41, 0, 0, []
1628601713.0209, 19, 0, 4070.769, 4181.026, 4154.359, 4185.128, 4136.41, 0, 0, []
1628601713.0289, 20, 0, 4075.897, 4198.974, 4172.821, 4196.41, 4132.821, 0, 0, []
1628601713.0369, 21, 0, 4084.615, 4188.718, 4117.436, 4192.821, 4136.923, 0, 0, []
1628601713.0448, 22, 0, 4085.641, 4181.026, 4160, 4175.385, 4135.385, 0, 0, []
1628601713.0526, 23, 0, 4096.923, 4192.308, 4126.667, 4166.667, 4135.385, 0, 0, []
1628601713.0605, 24, 0, 4114.872, 4186.667, 4133.333, 4165.641, 4143.59, 0, 0, []
1628601713.0685, 25, 0, 4125.641, 4188.718, 4172.308, 4169.231, 4156.923, 0, 0, []
1628601713.0764, 26, 0, 4125.641, 4209.231, 4120.513, 4172.821, 4161.538, 0, 0, []
1628601713.0844, 27, 0, 4111.282, 4201.538, 4140, 4165.641, 4138.974, 0, 0, []
1628601713.0922, 28, 0, 4091.795, 4160, 4114.872, 4139.487, 4102.051, 0, 0, []
1628601713.1002, 29, 0, 4081.026, 4134.872, 4113.846, 4115.385, 4080, 0, 0, []
1628601713.1081, 30, 0, 4076.41, 4141.538, 4147.179, 4108.205, 4072.821, 0, 0, []
1628601713.1161, 31, 0, 4079.487, 4157.436, 4115.897, 4116.923, 4071.795, 0, 0, []
1628601713.1241, 32, 0, 4091.795, 4166.667, 4156.923, 4137.949, 4080, 0, 0, []
1628601713.1319, 33, 0, 4106.667, 4176.923, 4140.513, 4143.59, 4097.949, 0, 0, []
1628601713.1399, 34, 0, 4113.846, 4181.538, 4128.718, 4141.026, 4110.769, 0, 0, []
1628601713.1478, 35, 0, 4113.333, 4176.923, 4159.487, 4140, 4108.718, 0, 0, []
1628601713.1558, 36, 0, 4102.564, 4184.103, 4116.923, 4129.231, 4092.308, 0, 0, []
1628601713.1637, 37, 0, 4086.667, 4184.103, 4152.821, 4123.077, 4072.821, 0, 0, []
1628601713.1716, 38, 0, 4093.846, 4171.282, 4137.436, 4123.59, 4076.41, 0, 0, []
1628601713.1795, 39, 0, 4107.692, 4175.385, 4106.667, 4113.846, 4091.795, 0, 0, []
1628601713.1875, 40, 0, 4111.282, 4180.513, 4158.974, 4108.205, 4095.385, 0, 0, []
1628601713.1954, 41, 0, 4118.462, 4171.795, 4134.359, 4116.41, 4092.821, 0, 0, []
1628601713.2033, 42, 0, 4120.513, 4186.667, 4147.179, 4129.744, 4091.795, 0, 0, []
1628601713.2112, 43, 0, 4112.308, 4208.205, 4133.333, 4138.974, 4094.359, 0, 0, []
1628601713.2192, 44, 0, 4104.103, 4190.769, 4107.179, 4140.513, 4088.205, 0, 0, []
1628601713.2271, 45, 0, 4094.872, 4166.667, 4148.205, 4129.231, 4068.718, 0, 0, []
1628601713.2351, 46, 0, 4085.128, 4166.154, 4108.205, 4115.897, 4055.385, 0, 0, []
1628601713.243, 47, 0, 4089.744, 4167.179, 4129.744, 4126.154, 4064.615, 0, 0, []
1628601713.2509, 48, 0, 4095.897, 4172.308, 4151.282, 4137.949, 4071.795, 0, 0, []
1628601713.2588, 49, 0, 4088.718, 4179.487, 4126.154, 4135.385, 4064.615, 0, 0, []
1628601713.2668, 50, 0, 4085.128, 4186.667, 4150.769, 4140, 4063.077, 0, 0, []
1628601713.2747, 51, 0, 4093.846, 4196.923, 4101.538, 4141.538, 4066.154, 0, 0, []
1628601713.2827, 52, 0, 4104.615, 4197.949, 4116.41, 4137.436, 4068.205, 0, 0, []
1628601713.2905, 53, 0, 4109.744, 4189.231, 4136.923, 4140.513, 4071.282, 0, 0, []
1628601713.2985, 54, 0, 4112.308, 4179.487, 4096.923, 4143.59, 4078.974, 0, 0, []
1628601713.3065, 55, 0, 4121.026, 4184.615, 4144.103, 4148.718, 4088.205, 0, 0, []
1628601713.3144, 56, 0, 4134.872, 4195.385, 4127.692, 4151.282, 4093.333, 0, 0, []
1628601713.3224, 57, 0, 4138.462, 4187.179, 4125.641, 4152.821, 4094.872, 0, 0, []
1628601713.3302, 58, 0, 4132.308, 4176.41, 4138.974, 4154.359, 4091.282, 0, 0, []
1628601713.3382, 59, 0, 4126.667, 4178.974, 4103.59, 4144.615, 4087.692, 0, 0, []
1628601713.3461, 60, 0, 4129.231, 4178.462, 4149.231, 4135.385, 4089.231, 0, 0, []
1628601713.3541, 61, 0, 4134.359, 4176.923, 4129.231, 4131.795, 4087.179, 0, 0, []
1628601713.362, 62, 0, 4129.744, 4187.179, 4118.462, 4121.026, 4076.41, 0, 0, []
1628601713.3699, 63, 0, 4122.051, 4177.436, 4146.667, 4113.333, 4074.359, 0, 0, []
1628601713.3778, 64, 0, 4124.615, 4158.462, 4109.231, 4116.923, 4083.59, 450, 0, []
1628601713.3858, 65, 0, 4138.462, 4173.846, 4137.949, 4126.154, 4091.282, 450, 0, []
1628601713.3937, 66, 0, 4147.179, 4200.513, 4121.026, 4127.692, 4095.385, 16187, 0, []
1628601713.4017, 67, 0, 4153.846, 4208.718, 4107.692, 4135.385, 4097.949, 450, 0, []
1628601713.4095, 68, 0, 4166.667, 4196.923, 4146.154, 4145.128, 4104.615, 16156, 0, []
1628601713.4175, 69, 0, 4172.308, 4191.282, 4114.872, 4131.795, 4109.744, 450, 0, []
1628601713.4254, 70, 0, 4167.692, 4201.026, 4148.205, 4124.103, 4108.205, 16204, 0, []
1628601713.4334, 71, 0, 4180, 4197.436, 4141.538, 4135.385, 4119.487, 450, 0, []
1628601713.4414, 72, 0, 4217.436, 4186.667, 4115.385, 4138.462, 4149.231, 450, 0, []
1628601713.4492, 73, 0, 4250.256, 4195.897, 4155.385, 4132.308, 4181.538, 16082, 0, []
1628601713.4572, 74, 0, 4278.462, 4208.718, 4118.974, 4134.359, 4211.282, 450, 0, []
1628601713.4651, 75, 0, 4321.538, 4218.974, 4139.487, 4152.308, 4244.615, 16197, 0, []
1628601713.4731, 76, 0, 4354.359, 4219.487, 4148.718, 4157.436, 4266.667, 450, 0, []
1628601713.481, 77, 0, 4350.256, 4192.821, 4118.462, 4142.051, 4263.077, 450, 0, []
1628601713.489, 78, 0, 4329.744, 4183.077, 4152.308, 4142.051, 4249.744, 450, 0, []
1628601713.4968, 79, 0, 4317.949, 4205.641, 4116.923, 4146.154, 4240, 16197, 0, []
1628601713.5048, 80, 0, 4307.179, 4204.615, 4118.974, 4134.359, 4226.667, 450, 0, []
1628601713.5127, 81, 0, 4294.359, 4185.641, 4126.154, 4120, 4210.256, 450, 0, []
1628601713.5207, 82, 0, 4290.256, 4187.692, 4105.128, 4126.667, 4213.333, 450, 0, []
1628601713.5286, 83, 0, 4297.949, 4187.692, 4148.718, 4150.769, 4229.744, 16197, 0, []
1628601713.5365, 84, 0, 4297.436, 4175.385, 4114.872, 4148.718, 4224.615, 450, 0, []
1628601713.5444, 85, 0, 4278.974, 4181.026, 4117.436, 4126.154, 4200.513, 450, 0, []
1628601713.5524, 86, 0, 4263.077, 4196.41, 4136.923, 4115.385, 4184.103, 450, 0, []
1628601713.5603, 87, 0, 4262.564, 4203.59, 4102.564, 4124.103, 4184.103, 16197, 0, []
1628601713.5683, 88, 0, 4266.154, 4204.103, 4144.103, 4143.59, 4190.256, 450, 0, []
1628601713.5761, 89, 0, 4271.282, 4201.026, 4124.103, 4144.615, 4196.923, 450, 0, []
1628601713.5841, 90, 0, 4277.949, 4200.513, 4122.564, 4136.923, 4205.641, 450, 0, []
1628601713.5921, 91, 0, 4269.231, 4203.077, 4157.436, 4142.051, 4201.538, 16197, 0, []
1628601713.6, 92, 0, 4249.744, 4197.949, 4119.487, 4146.667, 4186.667, 450, 0, []
1628601713.608, 93, 0, 4243.59, 4195.897, 4148.718, 4143.077, 4181.026, 450, 0, []
1628601713.6158, 94, 0, 4248.718, 4211.795, 4135.897, 4133.846, 4180.513, 450, 0, []
1628601713.6238, 95, 0, 4248.205, 4225.128, 4115.385, 4135.897, 4173.333, 16197, 0, []
1628601713.6317, 96, 0, 4244.615, 4209.231, 4155.385, 4148.205, 4174.359, 450, 0, []
1628601713.6397, 97, 0, 4252.308, 4192.821, 4132.308, 4155.897, 4186.154, 450, 0, []
1628601713.6476, 98, 0, 4263.077, 4209.744, 4148.205, 4165.128, 4191.795, 450, 0, []
1628601713.6555, 99, 0, 4256.41, 4230.256, 4126.667, 4169.744, 4185.128, 16197, 0, []
1628601713.6634, 100, 0, 4234.359, 4213.333, 4107.179, 4158.462, 4172.821, 450, 0, []
1628601713.6714, 101, 0, 4220.513, 4190.769, 4152.821, 4140.513, 4167.692, 450, 0, []
1628601713.6793, 102, 0, 4219.487, 4200, 4112.821, 4133.333, 4163.59, 450, 0, []
1628601713.6873, 103, 0, 4213.333, 4217.949, 4127.692, 4137.949, 4146.667, 16197, 0, []
1628601713.6951, 104, 0, 4202.564, 4210.769, 4137.436, 4135.385, 4133.846, 450, 0, []
1628601713.7031, 105, 0, 4193.846, 4190.256, 4115.897, 4129.231, 4134.359, 450, 0, []
1628601713.711, 106, 0, 4190.256, 4190.256, 4154.872, 4134.359, 4129.744, 450, 0, []
1628601713.719, 107, 0, 4188.718, 4191.795, 4115.385, 4133.846, 4121.026, 16197, 0, []
1628601713.7269, 108, 0, 4182.564, 4177.949, 4128.205, 4129.231, 4117.436, 450, 0, []
1628601713.7348, 109, 0, 4181.026, 4184.615, 4147.692, 4128.718, 4122.564, 450, 0, []
1628601713.7427, 110, 0, 4201.538, 4208.205, 4111.795, 4127.179, 4138.974, 450, 0, []
1628601713.7505, 111, 0, 4203.59, 4202.564, 4147.179, 4129.744, 4140.513, 16197, 0, []
1628601713.7585, 112, 0, 4186.154, 4192.821, 4115.897, 4128.205, 4127.179, 450, 0, []
1628601713.7664, 113, 0, 4192.821, 4213.333, 4114.872, 4128.205, 4129.231, 450, 0, []
1628601713.7743, 114, 0, 4193.333, 4223.59, 4144.103, 4129.231, 4131.795, 450, 0, []
1628601713.7822, 115, 0, 4181.026, 4204.103, 4109.744, 4132.821, 4128.718, 16197, 0, []
1628601713.7902, 116, 0, 4183.077, 4183.077, 4154.359, 4145.128, 4130.769, 450, 0, []
1628601713.7981, 117, 0, 4174.872, 4180, 4138.974, 4145.128, 4123.59, 450, 0, []
1628601713.8061, 118, 0, 4163.59, 4198.974, 4096.41, 4137.949, 4118.974, 450, 0, []
1628601713.8139, 119, 0, 4182.051, 4206.154, 4160, 4144.103, 4141.026, 16197, 0, []
1628601713.8219, 120, 0, 4191.282, 4185.641, 4130.769, 4144.103, 4155.897, 450, 0, []
1628601713.8298, 121, 0, 4180, 4179.487, 4075.897, 4136.923, 4145.641, 450, 0, []
1628601713.8378, 122, 0, 4187.692, 4190.769, 4159.487, 4137.436, 4150.256, 450, 0, []
1628601713.8457, 123, 0, 4206.154, 4182.564, 4162.564, 4128.205, 4169.231, 16197, 0, []
1628601713.8536, 124, 0, 4239.487, 4184.103, 4113.846, 4126.154, 4200.513, 450, 0, []
1628601713.8615, 125, 0, 4288.718, 4203.59, 4148.205, 4139.487, 4242.564, 450, 0, []
1628601713.8695, 126, 0, 4341.538, 4202.051, 4150.256, 4138.974, 4284.615, 450, 0, []
1628601713.8774, 127, 0, 4384.615, 4196.41, 4151.282, 4135.385, 4319.487, 16197, 0, []
1628601713.8852, 128, 0, 4396.41, 4196.923, 4133.333, 4143.077, 4338.974, 450, 0, []
1628601713.893, 0, 0, 4397.949, 4185.641, 4127.179, 4150.256, 4354.359, 450, 0, []
1628601713.9008, 1, 0, 4407.692, 4182.564, 4150.256, 4147.179, 4362.564, 450, 0, []
1628601713.9088, 2, 0, 4400, 4186.667, 4137.949, 4141.026, 4345.641, 16188, 0, []
1628601713.9167, 3, 0, 4370.769, 4185.641, 4130.256, 4138.462, 4314.872, 450, 0, []
1628601713.9247, 4, 0, 4350.256, 4198.462, 4128.718, 4141.538, 4298.462, 16157, 0, []
1628601713.9325, 5, 0, 4335.385, 4200.513, 4145.641, 4152.821, 4283.59, 450, 0, []
1628601713.9405, 6, 0, 4313.846, 4181.026, 4117.436, 4155.897, 4258.974, 16208, 0, []
1628601713.9484, 7, 0, 4286.667, 4185.641, 4124.615, 4144.615, 4239.487, 450, 0, []
1628601713.9564, 8, 0, 4264.103, 4202.051, 4144.615, 4132.308, 4226.667, 450, 0, []
1628601713.9643, 9, 0, 4256.41, 4203.59, 4111.795, 4126.667, 4216.41, 16086, 0, []
1628601713.9722, 10, 0, 4245.128, 4201.026, 4158.974, 4132.308, 4205.128, 450, 0, []
1628601713.9801, 11, 0, 4228.718, 4202.564, 4138.974, 4134.359, 4195.385, 16198, 0, []
1628601713.9881, 12, 0, 4225.641, 4201.538, 4126.667, 4135.385, 4197.436, 450, 0, []
1628601713.996, 13, 0, 4234.359, 4195.385, 4167.692, 4147.692, 4209.744, 450, 0, []
1628601714.004, 14, 0, 4236.41, 4184.615, 4114.359, 4154.359, 4211.795, 450, 0, []
1628601714.0118, 15, 0, 4226.667, 4180.513, 4125.641, 4145.128, 4196.41, 16198, 0, []
1628601714.0198, 16, 0, 4214.359, 4187.179, 4127.692, 4128.718, 4181.026, 0, 0, []
1628601714.0277, 17, 0, 4211.282, 4185.128, 4118.974, 4122.051, 4178.974, 0, 0, []
1628601714.0355, 18, 0, 4223.59, 4186.154, 4154.872, 4133.333, 4187.179, 0, 0, []
1628601714.0434, 19, 0, 4223.077, 4194.872, 4131.282, 4146.667, 4187.692, 0, 0, []
1628601714.0511, 20, 0, 4204.615, 4190.769, 4162.051, 4150.769, 4171.795, 0, 0, []
1628601714.0591, 21, 0, 4204.103, 4204.103, 4161.538, 4148.718, 4165.641, 0, 0, []
1628601714.067, 22, 0, 4215.385, 4228.718, 4133.846, 4149.744, 4176.923, 0, 0, []
1628601714.075, 23, 0, 4208.718, 4217.436, 4150.256, 4145.641, 4174.872, 0, 0, []
1628601714.0829, 24, 0, 4194.359, 4198.974, 4121.026, 4122.051, 4156.41, 0, 0, []
1628601714.0908, 25, 0, 4199.487, 4210.769, 4164.615, 4117.436, 4150.256, 0, 0, []
1628601714.0987, 26, 0, 4213.333, 4222.051, 4154.359, 4125.641, 4160, 0, 0, []
1628601714.1067, 27, 0, 4215.897, 4209.744, 4122.564, 4118.462, 4166.667, 0, 0, []
1628601714.1146, 28, 0, 4216.923, 4214.359, 4179.487, 4129.744, 4170.256, 0, 0, []
1628601714.1226, 29, 0, 4218.974, 4225.641, 4130.769, 4151.795, 4166.667, 0, 0, []
1628601714.1304, 30, 0, 4214.872, 4220, 4150.769, 4164.615, 4157.949, 0, 0, []
1628601714.1384, 31, 0, 4214.872, 4221.538, 4168.718, 4159.487, 4159.487, 0, 0, []
1628601714.1463, 32, 0, 4225.641, 4225.128, 4123.59, 4137.949, 4168.718, 0, 0, []
1628601714.1543, 33, 0, 4234.359, 4230.769, 4169.744, 4120, 4176.41, 0, 0, []
1628601714.1622, 34, 0, 4231.282, 4234.359, 4129.231, 4103.077, 4173.333, 0, 0, []
1628601714.1699, 35, 0, 4224.615, 4229.231, 4139.487, 4100.513, 4162.051, 0, 0, []
1628601714.1778, 36, 0, 4218.974, 4214.359, 4161.026, 4115.897, 4153.333, 0, 0, []
1628601714.1856, 37, 0, 4214.359, 4207.179, 4117.949, 4126.154, 4149.744, 0, 0, []
1628601714.1935, 38, 0, 4213.846, 4224.103, 4167.692, 4131.795, 4150.256, 0, 0, []
1628601714.2013, 39, 0, 4223.077, 4235.385, 4136.41, 4140.513, 4159.487, 0, 0, []
1628601714.2091, 40, 0, 4231.282, 4215.385, 4137.949, 4144.615, 4168.718, 0, 0, []
1628601714.2171, 41, 0, 4224.615, 4197.436, 4153.333, 4126.667, 4156.41, 0, 0, []
1628601714.2251, 42, 0, 4213.333, 4214.872, 4095.897, 4112.308, 4140, 0, 0, []
1628601714.233, 43, 0, 4206.667, 4221.538, 4148.205, 4124.103, 4138.462, 0, 0, []
1628601714.241, 44, 0, 4199.487, 4209.231, 4121.026, 4123.077, 4136.41, 0, 0, []
1628601714.2488, 45, 0, 4202.564, 4212.821, 4110.769, 4115.385, 4140, 0, 0, []
1628601714.2568, 46, 0, 4216.923, 4215.897, 4155.385, 4127.692, 4157.436, 0, 0, []
1628601714.2647, 47, 0, 4223.077, 4222.051, 4101.026, 4136.41, 4166.667, 0, 0, []
1628601714.2727, 48, 0, 4214.359, 4229.744, 4133.333, 4136.923, 4158.462, 0, 0, []
1628601714.2806, 49, 0, 4200, 4210.769, 4110.769, 4123.077, 4141.026, 0, 0, []
1628601714.2885, 50, 0, 4190.256, 4201.538, 4098.974, 4115.385, 4131.282, 0, 0, []
1628601714.2964, 51, 0, 4203.077, 4216.923, 4153.846, 4132.308, 4146.154, 0, 0, []
1628601714.3044, 52, 0, 4218.462, 4220, 4095.385, 4133.846, 4162.051, 0, 0, []
1628601714.3123, 53, 0, 4209.231, 4222.051, 4131.282, 4123.59, 4156.41, 0, 0, []
1628601714.3201, 54, 0, 4199.487, 4224.615, 4128.718, 4127.179, 4155.897, 0, 0, []
1628601714.3279, 55, 0, 4206.154, 4216.41, 4096.923, 4138.462, 4168.205, 0, 0, []
1628601714.3357, 56, 0, 4207.179, 4215.897, 4143.59, 4141.026, 4165.128, 0, 0, []
1628601714.3436, 57, 0, 4203.077, 4223.077, 4098.462, 4129.231, 4151.795, 0, 0, []
1628601714.3514, 58, 0, 4214.359, 4211.282, 4136.41, 4131.795, 4155.897, 0, 0, []
1628601714.3593, 59, 0, 4226.154, 4197.436, 4132.821, 4137.436, 4166.667, 0, 0, []
1628601714.3671, 60, 0, 4215.385, 4209.231, 4084.615, 4130.256, 4161.026, 0, 0, []
1628601714.375, 61, 0, 4200.513, 4217.949, 4142.564, 4128.205, 4150.256, 0, 0, []
1628601714.3829, 62, 0, 4198.462, 4200.513, 4095.897, 4136.41, 4149.744, 0, 0, []
1628601714.3909, 63, 0, 4200.513, 4197.949, 4105.128, 4150.256, 4152.821, 0, 0, []
1628601714.3988, 64, 0, 4191.795, 4220.513, 4111.282, 4140, 4146.154, 450, 0, []
1628601714.4068, 65, 0, 4171.282, 4217.436, 4070.256, 4113.846, 4128.718, 450, 0, []
1628601714.4146, 66, 0, 4170.256, 4200.513, 4141.026, 4120, 4124.615, 16236, 0, []
1628601714.4226, 67, 0, 4200, 4206.154, 4109.231, 4125.641, 4147.179, 450, 0, []
1628601714.4305, 68, 0, 4223.59, 4200.513, 4118.462, 4117.436, 4172.821, 16161, 0, []
1628601714.4385, 69, 0, 4221.026, 4180, 4144.615, 4129.231, 4181.538, 450, 0, []
1628601714.4464, 70, 0, 4212.308, 4187.179, 4095.385, 4147.179, 4178.462, 16208, 0, []
1628601714.4543, 71, 0, 4205.128, 4205.128, 4152.821, 4150.769, 4169.744, 450, 0, []
1628601714.4622, 72, 0, 4195.897, 4202.051, 4106.154, 4146.667, 4164.103, 450, 0, []
1628601714.4702, 73, 0, 4201.026, 4200, 4098.974, 4162.564, 4171.282, 16086, 0, []
1628601714.4781, 74, 0, 4202.051, 4199.487, 4151.795, 4171.282, 4170.769, 450, 0, []
1628601714.4859, 75, 0, 4182.564, 4187.692, 4094.872, 4150.256, 4157.436, 16200, 0, []
1628601714.4937, 76, 0, 4168.205, 4196.923, 4145.641, 4145.641, 4150.256, 450, 0, []
1628601714.5015, 77, 0, 4169.231, 4216.41, 4107.179, 4149.231, 4144.615, 450, 0, []
1628601714.5094, 78, 0, 4170.769, 4202.564, 4059.487, 4135.897, 4136.41, 450, 0, []
1628601714.5172, 79, 0, 4164.103, 4189.744, 4117.949, 4123.59, 4133.846, 16200, 0, []
1628601714.5251, 80, 0, 4155.897, 4201.538, 4074.359, 4120.513, 4133.333, 450, 0, []
1628601714.5328, 81, 0, 4152.308, 4193.846, 4131.795, 4132.308, 4125.641, 450, 0, []
1628601714.5408, 82, 0, 4157.436, 4180.513, 4131.795, 4138.462, 4125.641, 450, 0, []
1628601714.5487, 83, 0, 4166.667, 4194.872, 4098.974, 4145.128, 4142.051, 16200, 0, []
1628601714.5567, 84, 0, 4174.872, 4204.103, 4181.026, 4153.333, 4152.821, 450, 0, []
1628601714.5646, 85, 0, 4178.974, 4193.333, 4141.538, 4147.179, 4151.795, 450, 0, []
1628601714.5725, 86, 0, 4178.974, 4193.846, 4186.154, 4152.821, 4154.359, 450, 0, []
1628601714.5804, 87, 0, 4174.872, 4200, 4193.846, 4126.667, 4153.846, 16200, 0, []
1628601714.5884, 88, 0, 4161.538, 4200, 4142.051, 4092.308, 4136.41, 450, 0, []
1628601714.5963, 89, 0, 4153.333, 4207.179, 4201.026, 4133.333, 4128.205, 450, 0, []
1628601714.6043, 90, 0, 4150.769, 4203.077, 4149.744, 4173.333, 4127.692, 450, 0, []
1628601714.6121, 91, 0, 4153.846, 4182.564, 4166.154, 4152.308, 4120.513, 16200, 0, []
1628601714.6201, 92, 0, 4180, 4189.231, 4153.846, 4145.641, 4140, 450, 0, []
1628601714.628, 93, 0, 4211.282, 4218.462, 4114.359, 4169.744, 4180.513, 450, 0, []
1628601714.6358, 94, 0, 4211.282, 4214.872, 4195.897, 4171.795, 4184.615, 450, 0, []
1628601714.6437, 95, 0, 4192.308, 4194.359, 4128.718, 4150.769, 4160.513, 16200, 0, []
1628601714.6514, 96, 0, 4183.077, 4193.333, 4135.385, 4135.897, 4153.333, 450, 0, []
1628601714.6593, 97, 0, 4177.436, 4208.718, 4156.923, 4127.692, 4155.385, 450, 0, []
1628601714.6671, 98, 0, 4171.795, 4217.949, 4090.256, 4122.051, 4147.179, 450, 0, []
1628601714.675, 99, 0, 4171.282, 4196.41, 4172.821, 4124.103, 4138.974, 16200, 0, []
1628601714.6828, 100, 0, 4167.179, 4184.615, 4137.949, 4120.513, 4131.282, 450, 0, []
1628601714.6907, 101, 0, 4154.872, 4208.205, 4117.436, 4116.923, 4121.538, 450, 0, []
1628601714.6986, 102, 0, 4151.282, 4216.923, 4167.179, 4126.667, 4122.051, 450, 0, []
1628601714.7066, 103, 0, 4160.513, 4189.744, 4116.923, 4127.179, 4126.667, 16200, 0, []
1628601714.7145, 104, 0, 4162.564, 4176.923, 4151.795, 4121.538, 4118.974, 450, 0, []
1628601714.7225, 105, 0, 4151.282, 4196.41, 4112.308, 4113.333, 4109.744, 450, 0, []
1628601714.7303, 106, 0, 4148.205, 4213.333, 4112.821, 4120, 4115.897, 450, 0, []
1628601714.7383, 107, 0, 4158.974, 4206.154, 4154.872, 4133.846, 4130.769, 16200, 0, []
1628601714.7462, 108, 0, 4168.718, 4186.154, 4087.179, 4127.692, 4138.974, 450, 0, []
1628601714.7542, 109, 0, 4168.718, 4189.231, 4143.077, 4129.231, 4140.513, 450, 0, []
1628601714.7621, 110, 0, 4161.538, 4213.333, 4114.359, 4134.359, 4138.462, 450, 0, []
1628601714.77, 111, 0, 4153.846, 4210.256, 4097.436, 4135.385, 4134.359, 16200, 0, []
1628601714.7779, 112, 0, 4150.256, 4186.154, 4147.692, 4140, 4127.179, 450, 0, []
1628601714.7857, 113, 0, 4141.538, 4175.385, 4082.564, 4135.385, 4120.513, 450, 0, []
1628601714.7936, 114, 0, 4136.41, 4183.59, 4135.897, 4135.897, 4122.564, 450, 0, []
1628601714.8014, 115, 0, 4137.436, 4196.41, 4105.641, 4131.282, 4124.103, 16200, 0, []
1628601714.8092, 116, 0, 4135.897, 4190.256, 4080, 4126.154, 4121.538, 450, 0, []
1628601714.817, 117, 0, 4145.641, 4177.949, 4157.436, 4138.974, 4133.846, 450, 0, []
1628601714.8249, 118, 0, 4161.026, 4191.282, 4094.359, 4146.154, 4148.718, 450, 0, []
1628601714.8327, 119, 0, 4155.385, 4207.179, 4132.821, 4150.769, 4144.615, 16200, 0, []
1628601714.8406, 120, 0, 4144.615, 4189.744, 4124.615, 4152.308, 4136.923, 450, 0, []
1628601714.8483, 121, 0, 4152.308, 4173.333, 4093.846, 4151.795, 4144.103, 450, 0, []
1628601714.8562, 122, 0, 4165.641, 4190.256, 4171.282, 4164.615, 4156.923, 450, 0, []
1628601714.864, 123, 0, 4170.256, 4215.385, 4104.103, 4171.795, 4163.59, 16200, 0, []
1628601714.872, 124, 0, 4169.231, 4221.026, 4139.487, 4166.667, 4162.564, 450, 0, []
1628601714.8799, 125, 0, 4161.538, 4198.462, 4144.615, 4154.359, 4156.923, 450, 0, []
1628601714.8878, 126, 0, 4152.308, 4175.385, 4074.872, 4143.077, 4149.231, 450, 0, []
1628601714.8957, 127, 0, 4148.205, 4182.564, 4143.077, 4134.359, 4137.949, 16200, 0, []
1628601714.9037, 128, 0, 4143.59, 4196.923, 4101.026, 4120, 4126.154, 450, 0, []
1628601714.9116, 0, 0, 4150.256, 4188.205, 4134.872, 4130.256, 4134.359, 450, 0, []
1628601714.9196, 1, 0, 4167.692, 4178.974, 4158.462, 4143.077, 4156.41, 450, 0, []
1628601714.9274, 2, 0, 4183.077, 4185.128, 4095.385, 4126.154, 4169.231, 16196, 0, []
1628601714.9354, 3, 0, 4207.692, 4201.538, 4154.872, 4117.949, 4190.256, 450, 0, []
1628601714.9433, 4, 0, 4255.385, 4213.333, 4108.205, 4117.949, 4233.846, 16161, 0, []
1628601714.9511, 5, 0, 4311.795, 4200.513, 4131.795, 4119.487, 4286.667, 450, 0, []
1628601714.959, 6, 0, 4361.538, 4190.256, 4172.308, 4124.103, 4331.282, 16208, 0, []
1628601714.9667, 7, 0, 4410.256, 4200, 4127.179, 4128.205, 4374.359, 450, 0, []
1628601714.9746, 8, 0, 4449.744, 4204.103, 4188.718, 4137.949, 4413.333, 450, 0, []
1628601714.9824, 9, 0, 4460.513, 4203.077, 4148.718, 4130.769, 4424.103, 16080, 0, []
1628601714.9903, 10, 0, 4442.051, 4211.282, 4179.487, 4118.974, 4404.103, 450, 0, []
1628601714.9981, 11, 0, 4420.513, 4212.821, 4216.41, 4125.128, 4382.564, 16200, 0, []
1628601715.006, 12, 0, 4402.564, 4197.436, 4151.795, 4128.718, 4369.231, 450, 0, []
1628601715.0139, 13, 0, 4373.333, 4186.154, 4198.462, 4125.128, 4345.641, 450, 0, []
1628601715.0219, 14, 0, 4347.179, 4190.769, 4125.128, 4122.051, 4318.462, 450, 0, []
1628601715.0298, 15, 0, 4335.385, 4210.256, 4118.974, 4132.821, 4303.077, 16200, 0, []
1628601715.0378, 16, 0, 4317.436, 4226.154, 4176.41, 4140.513, 4285.641, 0, 0, []
1628601715.0456, 17, 0, 4291.795, 4214.359, 4107.179, 4134.872, 4264.615, 0, 0, []
1628601715.0536, 18, 0, 4278.974, 4201.538, 4166.667, 4146.154, 4249.231, 0, 0, []
1628601715.0615, 19, 0, 4268.718, 4215.385, 4148.205, 4148.205, 4231.282, 0, 0, []
1628601715.0695, 20, 0, 4245.128, 4222.051, 4126.667, 4127.179, 4207.179, 0, 0, []
1628601715.0774, 21, 0, 4226.154, 4197.949, 4183.077, 4117.949, 4194.872, 0, 0, []
1628601715.0852, 22, 0, 4225.641, 4184.103, 4121.538, 4121.026, 4195.385, 0, 0, []
1628601715.0931, 23, 0, 4232.308, 4198.974, 4160, 4129.744, 4191.282, 0, 0, []
1628601715.1009, 24, 0, 4231.795, 4216.41, 4135.897, 4128.718, 4184.103, 0, 0, []
1628601715.1088, 25, 0, 4229.231, 4221.026, 4114.359, 4123.59, 4183.077, 0, 0, []
1628601715.1166, 26, 0, 4232.308, 4206.154, 4195.385, 4134.872, 4186.154, 0, 0, []
1628601715.1244, 27, 0, 4226.667, 4191.795, 4123.59, 4149.744, 4184.103, 0, 0, []
1628601715.1322, 28, 0, 4216.41, 4194.359, 4154.872, 4156.923, 4173.846, 0, 0, []
1628601715.1401, 29, 0, 4223.077, 4204.103, 4170.769, 4146.154, 4172.821, 0, 0, []
1628601715.1479, 30, 0, 4231.282, 4213.333, 4120, 4137.949, 4180.513, 0, 0, []
1628601715.1558, 31, 0, 4224.615, 4218.462, 4174.359, 4154.872, 4180.513, 0, 0, []
1628601715.1636, 32, 0, 4218.974, 4211.795, 4121.026, 4149.744, 4169.231, 0, 0, []
1628601715.1715, 33, 0, 4220, 4209.744, 4144.103, 4139.487, 4156.41, 0, 0, []
1628601715.1794, 34, 0, 4217.436, 4215.897, 4155.385, 4147.692, 4148.205, 0, 0, []
1628601715.1874, 35, 0, 4208.205, 4211.795, 4106.154, 4150.769, 4148.718, 0, 0, []
1628601715.1953, 36, 0, 4209.744, 4214.359, 4169.231, 4157.949, 4155.897, 0, 0, []
1628601715.2032, 37, 0, 4214.359, 4218.462, 4106.667, 4158.462, 4151.282, 0, 0, []
1628601715.211, 38, 0, 4204.103, 4207.179, 4128.205, 4148.205, 4137.949, 0, 0, []
1628601715.2189, 39, 0, 4194.359, 4199.487, 4172.308, 4141.026, 4134.359, 0, 0, []
1628601715.2267, 40, 0, 4195.385, 4201.026, 4094.872, 4142.564, 4138.462, 0, 0, []
1628601715.2347, 41, 0, 4192.308, 4196.923, 4146.667, 4152.821, 4137.949, 0, 0, []
1628601715.2426, 42, 0, 4189.231, 4196.41, 4121.538, 4155.385, 4137.436, 0, 0, []
1628601715.2503, 43, 0, 4200, 4213.333, 4128.205, 4168.718, 4149.231, 0, 0, []
1628601715.2582, 44, 0, 4206.667, 4210.769, 4160, 4173.333, 4157.436, 0, 0, []
1628601715.266, 45, 0, 4195.385, 4185.641, 4096.923, 4151.282, 4147.179, 0, 0, []
1628601715.2739, 46, 0, 4189.231, 4185.641, 4166.154, 4146.154, 4136.41, 0, 0, []
1628601715.2817, 47, 0, 4192.308, 4196.923, 4133.333, 4148.718, 4136.923, 0, 0, []
1628601715.2895, 48, 0, 4189.231, 4182.564, 4108.205, 4143.59, 4136.923, 0, 0, []
1628601715.2973, 49, 0, 4187.692, 4178.974, 4160, 4149.744, 4137.436, 0, 0, []
1628601715.3052, 50, 0, 4199.487, 4208.205, 4101.026, 4155.385, 4143.077, 0, 0, []
1628601715.313, 51, 0, 4202.564, 4205.641, 4148.718, 4150.256, 4138.974, 0, 0, []
1628601715.321, 52, 0, 4184.615, 4174.872, 4123.59, 4128.718, 4123.59, 0, 0, []
1628601715.3288, 53, 0, 4176.41, 4187.179, 4108.205, 4123.59, 4118.974, 0, 0, []
1628601715.3368, 54, 0, 4187.179, 4212.821, 4177.436, 4147.692, 4125.128, 0, 0, []
1628601715.3447, 55, 0, 4183.59, 4188.718, 4101.026, 4149.231, 4116.41, 0, 0, []
1628601715.3527, 56, 0, 4168.205, 4164.615, 4136.41, 4137.949, 4102.564, 0, 0, []
1628601715.3606, 57, 0, 4168.718, 4191.282, 4133.333, 4141.026, 4108.205, 0, 0, []
1628601715.3685, 58, 0, 4184.615, 4210.256, 4095.897, 4144.615, 4118.974, 0, 0, []
1628601715.3764, 59, 0, 4188.205, 4182.051, 4157.436, 4135.897, 4117.949, 0, 0, []
1628601715.3844, 60, 0, 4174.872, 4157.436, 4096.41, 4114.872, 4107.692, 0, 0, []
1628601715.3923, 61, 0, 4158.974, 4174.359, 4125.128, 4108.205, 4101.026, 0, 0, []
1628601715.4003, 62, 0, 4150.769, 4187.692, 4122.564, 4098.462, 4100, 0, 0, []
1628601715.4081, 63, 0, 4158.462, 4175.897, 4086.154, 4085.641, 4107.179, 0, 0, []
1628601715.4159, 64, 0, 4172.821, 4175.897, 4168.205, 4100.513, 4126.154, 450, 0, []
1628601715.4238, 65, 0, 4181.026, 4185.641, 4112.308, 4110.256, 4138.462, 450, 0, []
1628601715.4316, 66, 0, 4182.051, 4185.641, 4138.974, 4118.974, 4134.359, 16195, 0, []
1628601715.4395, 67, 0, 4177.436, 4183.077, 4157.949, 4129.744, 4128.718, 450, 0, []
1628601715.4472, 68, 0, 4165.641, 4176.41, 4097.436, 4124.615, 4124.615, 16161, 0, []
1628601715.4551, 69, 0, 4154.872, 4170.256, 4161.538, 4124.615, 4112.821, 450, 0, []
1628601715.4629, 70, 0, 4150.256, 4193.846, 4110.769, 4120.513, 4094.359, 16206, 0, []
1628601715.4708, 71, 0, 4146.154, 4204.615, 4124.615, 4112.308, 4082.051, 450, 0, []
1628601715.4786, 72, 0, 4149.744, 4177.436, 4164.615, 4116.923, 4088.718, 450, 0, []
1628601715.4865, 73, 0, 4163.077, 4177.436, 4108.718, 4122.564, 4109.744, 16081, 0, []
1628601715.4944, 74, 0, 4171.795, 4201.538, 4163.077, 4129.231, 4121.026, 450, 0, []
1628601715.5024, 75, 0, 4169.744, 4206.154, 4116.923, 4132.308, 4120.513, 16200, 0, []
1628601715.5103, 76, 0, 4168.718, 4195.897, 4121.026, 4135.897, 4120.513, 450, 0, []
1628601715.5183, 77, 0, 4172.821, 4185.128, 4157.949, 4127.692, 4114.359, 450, 0, []
1628601715.5261, 78, 0, 4169.231, 4172.821, 4086.667, 4108.205, 4103.59, 450, 0, []
1628601715.5341, 79, 0, 4162.564, 4176.923, 4156.923, 4110.769, 4102.051, 16200, 0, []
1628601715.542, 80, 0, 4160.513, 4198.462, 4128.718, 4111.282, 4105.128, 450, 0, []
1628601715.55, 81, 0, 4161.538, 4192.821, 4104.103, 4104.615, 4107.692, 450, 0, []
1628601715.5579, 82, 0, 4168.718, 4172.821, 4167.179, 4109.231, 4115.385, 450, 0, []
1628601715.5656, 83, 0, 4174.872, 4171.282, 4108.205, 4104.103, 4124.615, 16200, 0, []
1628601715.5735, 84, 0, 4187.692, 4178.974, 4143.59, 4105.128, 4139.487, 450, 0, []
1628601715.5813, 85, 0, 4225.128, 4193.846, 4122.564, 4118.974, 4173.333, 450, 0, []
1628601715.5892, 86, 0, 4272.308, 4210.769, 4106.667, 4131.795, 4216.41, 450, 0, []
1628601715.597, 87, 0, 4323.077, 4210.256, 4168.205, 4134.872, 4260, 16200, 0, []
1628601715.6048, 88, 0, 4381.026, 4196.41, 4093.846, 4127.692, 4308.718, 450, 0, []
1628601715.6126, 89, 0, 4424.103, 4203.59, 4131.795, 4133.333, 4353.846, 450, 0, []
1628601715.6206, 90, 0, 4433.333, 4212.308, 4132.821, 4133.333, 4372.308, 450, 0, []
1628601715.6285, 91, 0, 4430.256, 4203.59, 4103.59, 4132.308, 4371.282, 16200, 0, []
1628601715.6365, 92, 0, 4426.154, 4201.538, 4169.231, 4146.154, 4368.205, 450, 0, []
1628601715.6443, 93, 0, 4395.897, 4198.462, 4105.641, 4143.077, 4345.641, 450, 0, []
1628601715.6523, 94, 0, 4344.103, 4189.744, 4136.923, 4137.949, 4302.564, 450, 0, []
1628601715.6602, 95, 0, 4304.615, 4180, 4138.462, 4136.923, 4267.692, 16200, 0, []
1628601715.6682, 96, 0, 4282.051, 4166.154, 4089.231, 4122.564, 4245.128, 450, 0, []
1628601715.6761, 97, 0, 4265.128, 4170.256, 4164.615, 4115.897, 4226.667, 450, 0, []
1628601715.684, 98, 0, 4257.949, 4200.513, 4120.513, 4126.667, 4223.077, 450, 0, []
1628601715.6919, 99, 0, 4257.949, 4204.103, 4137.949, 4142.564, 4228.718, 16200, 0, []
1628601715.6999, 100, 0, 4245.128, 4187.692, 4142.564, 4127.692, 4215.897, 450, 0, []
1628601715.7078, 101, 0, 4232.308, 4200, 4096.923, 4104.103, 4202.051, 450, 0, []
1628601715.7156, 102, 0, 4229.744, 4205.128, 4172.821, 4110.769, 4200.513, 450, 0, []
1628601715.7234, 103, 0, 4218.462, 4193.846, 4114.359, 4107.692, 4185.641, 16200, 0, []
1628601715.7312, 104, 0, 4201.026, 4188.718, 4120, 4091.795, 4163.077, 450, 0, []
1628601715.7391, 105, 0, 4192.308, 4172.821, 4152.308, 4094.872, 4157.436, 450, 0, []
1628601715.7469, 106, 0, 4179.487, 4157.436, 4086.154, 4099.487, 4148.205, 450, 0, []
1628601715.7548, 107, 0, 4157.436, 4160.513, 4143.077, 4089.231, 4121.026, 16200, 0, []
1628601715.7625, 108, 0, 4145.641, 4172.308, 4106.154, 4071.795, 4102.564, 450, 0, []
1628601715.7705, 109, 0, 4150.769, 4186.154, 4111.795, 4076.923, 4109.231, 450, 0, []
1628601715.7784, 110, 0, 4157.436, 4181.026, 4153.333, 4096.41, 4123.077, 450, 0, []
1628601715.7863, 111, 0, 4154.359, 4158.974, 4080, 4100, 4118.462, 16200, 0, []
1628601715.7941, 112, 0, 4150.769, 4173.333, 4138.462, 4110.256, 4107.692, 450, 0, []
1628601715.802, 113, 0, 4152.821, 4195.385, 4119.487, 4118.974, 4107.692, 450, 0, []
1628601715.8099, 114, 0, 4148.718, 4172.821, 4097.949, 4108.718, 4108.718, 450, 0, []
1628601715.8179, 115, 0, 4147.692, 4165.641, 4142.051, 4103.59, 4111.282, 16200, 0, []
1628601715.8258, 116, 0, 4160.513, 4188.718, 4089.744, 4108.718, 4120, 450, 0, []
1628601715.8338, 117, 0, 4173.846, 4192.308, 4157.436, 4121.026, 4125.641, 450, 0, []
1628601715.8416, 118, 0, 4172.821, 4187.692, 4144.103, 4121.026, 4131.282, 450, 0, []
1628601715.8496, 119, 0, 4169.231, 4188.205, 4109.231, 4111.795, 4133.846, 16200, 0, []
1628601715.8575, 120, 0, 4170.256, 4186.154, 4166.154, 4106.667, 4126.154, 450, 0, []
1628601715.8654, 121, 0, 4166.667, 4193.333, 4100.513, 4098.974, 4123.077, 450, 0, []
1628601715.8733, 122, 0, 4156.41, 4202.051, 4147.179, 4106.154, 4123.077, 450, 0, []
1628601715.881, 123, 0, 4151.282, 4198.462, 4150.769, 4108.718, 4112.308, 16200, 0, []
1628601715.8889, 124, 0, 4158.462, 4198.974, 4101.026, 4102.051, 4113.846, 450, 0, []
1628601715.8967, 125, 0, 4169.744, 4201.026, 4163.077, 4106.154, 4127.179, 450, 0, []
1628601715.9046, 126, 0, 4170.256, 4195.897, 4112.821, 4106.154, 4123.077, 450, 0, []
1628601715.9124, 127, 0, 4162.051, 4186.154, 4142.564, 4114.872, 4118.462, 16200, 0, []
1628601715.9203, 128, 0, 4163.59, 4170.256, 4147.692, 4122.564, 4124.615, 450, 0, []
1628601715.928, 0, 0, 4166.154, 4171.795, 4105.641, 4112.308, 4116.923, 450, 0, []
1628601715.936, 1, 0, 4160.513, 4200.513, 4182.564, 4109.231, 4107.179, 450, 0, []
1628601715.9439, 2, 0, 4159.487, 4206.154, 4126.154, 4111.282, 4120.513, 16188, 0, []
1628601715.9519, 3, 0, 4168.718, 4187.692, 4137.436, 4123.077, 4139.487, 450, 0, []
1628601715.9598, 4, 0, 4179.487, 4190.769, 4150.769, 4134.359, 4145.128, 16161, 0, []
1628601715.9677, 5, 0, 4182.051, 4208.205, 4097.436, 4126.154, 4140, 450, 0, []
1628601715.9756, 6, 0, 4174.872, 4208.205, 4160, 4127.692, 4128.718, 16205, 0, []
1628601715.9836, 7, 0, 4164.103, 4194.872, 4103.59, 4130.256, 4122.051, 450, 0, []
1628601715.9915, 8, 0, 4168.205, 4195.897, 4128.718, 4128.205, 4127.692, 450, 0, []
1628601715.9995, 9, 0, 4181.026, 4207.692, 4172.821, 4127.179, 4134.359, 16082, 0, []
1628601716.0073, 10, 0, 4182.051, 4200.513, 4095.897, 4123.077, 4132.308, 450, 0, []
1628601716.0151, 11, 0, 4185.641, 4180.513, 4152.308, 4126.154, 4136.923, 16198, 0, []
1628601716.023, 12, 0, 4190.769, 4191.795, 4125.128, 4123.077, 4144.615, 450, 0, []
1628601716.0308, 13, 0, 4178.974, 4214.872, 4114.872, 4117.949, 4134.872, 450, 0, []
1628601716.0387, 14, 0, 4170.256, 4210.256, 4149.231, 4125.641, 4124.615, 450, 0, []
1628601716.0464, 15, 0, 4184.103, 4201.026, 4099.487, 4138.462, 4136.41, 16198, 0, []
1628601716.0543, 16, 0, 4186.667, 4202.051, 4158.974, 4146.667, 4146.667, 0, 0, []
1628601716.0621, 17, 0, 4173.333, 4199.487, 4122.564, 4144.103, 4137.436, 0, 0, []
1628601716.07, 18, 0, 4171.795, 4196.41, 4108.718, 4147.692, 4128.205, 0, 0, []
1628601716.0778, 19, 0, 4174.872, 4205.641, 4162.051, 4146.667, 4126.667, 0, 0, []
1628601716.0857, 20, 0, 4169.231, 4200, 4091.282, 4132.821, 4122.564, 0, 0, []
1628601716.0936, 21, 0, 4165.128, 4183.59, 4147.179, 4140, 4119.487, 0, 0, []
1628601716.1016, 22, 0, 4168.205, 4200, 4137.949, 4141.538, 4123.59, 0, 0, []
1628601716.1095, 23, 0, 4180, 4219.487, 4103.59, 4134.359, 4135.385, 0, 0, []
1628601716.1175, 24, 0, 4194.359, 4207.179, 4167.179, 4148.205, 4147.179, 0, 0, []
1628601716.1253, 25, 0, 4182.051, 4195.385, 4099.487, 4137.436, 4132.821, 0, 0, []
1628601716.1333, 26, 0, 4166.154, 4207.692, 4132.821, 4115.897, 4113.846, 0, 0, []
1628601716.1412, 27, 0, 4181.538, 4205.128, 4141.026, 4122.051, 4125.641, 0, 0, []
1628601716.1492, 28, 0, 4188.205, 4183.077, 4103.077, 4130.769, 4136.923, 0, 0, []
1628601716.1571, 29, 0, 4171.795, 4177.949, 4158.462, 4124.615, 4126.154, 0, 0, []
1628601716.1648, 30, 0, 4164.103, 4186.667, 4093.846, 4113.846, 4117.436, 0, 0, []
1628601716.1727, 31, 0, 4170.256, 4184.103, 4125.641, 4130.256, 4117.949, 0, 0, []
1628601716.1805, 32, 0, 4172.821, 4171.282, 4142.051, 4145.128, 4116.923, 0, 0, []
1628601716.1884, 33, 0, 4166.667, 4171.795, 4093.333, 4137.436, 4118.462, 0, 0, []
1628601716.1962, 34, 0, 4157.949, 4185.641, 4163.59, 4143.077, 4117.436, 0, 0, []
1628601716.204, 35, 0, 4151.282, 4183.59, 4106.667, 4144.103, 4104.615, 0, 0, []
1628601716.212, 36, 0, 4151.795, 4169.231, 4117.949, 4130.256, 4102.051, 0, 0, []
1628601716.2199, 37, 0, 4151.282, 4177.436, 4140, 4124.615, 4105.128, 0, 0, []
1628601716.2277, 38, 0, 4146.667, 4197.436, 4076.923, 4133.333, 4101.538, 0, 0, []
1628601716.2357, 39, 0, 4153.333, 4197.436, 4147.692, 4148.718, 4109.231, 0, 0, []
1628601716.2435, 40, 0, 4166.667, 4183.077, 4111.795, 4149.744, 4125.128, 0, 0, []
1628601716.2515, 41, 0, 4169.231, 4176.41, 4118.462, 4157.949, 4128.718, 0, 0, []
1628601716.2594, 42, 0, 4166.154, 4183.59, 4160.513, 4169.744, 4124.103, 0, 0, []
1628601716.2674, 43, 0, 4162.564, 4183.077, 4098.974, 4156.41, 4117.436, 0, 0, []
1628601716.2753, 44, 0, 4153.333, 4171.282, 4156.41, 4146.667, 4105.128, 0, 0, []
1628601716.2832, 45, 0, 4149.231, 4170.256, 4124.103, 4151.795, 4104.615, 0, 0, []
1628601716.2911, 46, 0, 4147.692, 4184.103, 4127.179, 4154.359, 4112.821, 0, 0, []
1628601716.2991, 47, 0, 4140, 4192.308, 4172.308, 4145.641, 4105.641, 0, 0, []
1628601716.307, 48, 0, 4141.538, 4187.692, 4091.795, 4141.538, 4102.051, 0, 0, []
1628601716.3148, 49, 0, 4148.718, 4174.359, 4140.513, 4149.231, 4109.231, 0, 0, []
1628601716.3226, 50, 0, 4145.128, 4167.179, 4123.077, 4143.077, 4106.667, 0, 0, []
1628601716.3304, 51, 0, 4148.718, 4176.41, 4111.282, 4146.154, 4105.641, 0, 0, []
1628601716.3383, 52, 0, 4157.949, 4183.59, 4164.103, 4162.051, 4118.462, 0, 0, []
1628601716.3461, 53, 0, 4153.333, 4185.641, 4100.513, 4151.795, 4120.513, 0, 0, []
1628601716.354, 54, 0, 4150.256, 4184.615, 4156.41, 4147.179, 4113.333, 0, 0, []
1628601716.3617, 55, 0, 4159.487, 4173.846, 4138.462, 4155.897, 4115.385, 0, 0, []
1628601716.3696, 56, 0, 4167.692, 4167.179, 4094.872, 4153.333, 4123.59, 0, 0, []
1628601716.3774, 57, 0, 4171.282, 4174.359, 4147.692, 4150.256, 4133.333, 0, 0, []
1628601716.3853, 58, 0, 4165.128, 4182.564, 4088.205, 4142.564, 4133.846, 0, 0, []
1628601716.3931, 59, 0, 4155.385, 4189.231, 4137.949, 4136.41, 4124.615, 0, 0, []
1628601716.401, 60, 0, 4150.769, 4190.256, 4140.513, 4131.282, 4120, 0, 0, []
1628601716.4089, 61, 0, 4150.256, 4182.564, 4098.462, 4130.769, 4122.051, 0, 0, []
1628601716.4169, 62, 0, 4155.385, 4174.872, 4160, 4143.59, 4125.128, 0, 0, []
1628601716.4248, 63, 0, 4158.462, 4164.615, 4096.41, 4137.949, 4125.641, 0, 0, []
1628601716.4328, 64, 0, 4154.872, 4161.538, 4125.641, 4122.564, 4120.513, 450, 0, []
1628601716.4406, 65, 0, 4152.821, 4167.179, 4137.949, 4109.744, 4114.359, 450, 0, []
1628601716.4486, 66, 0, 4153.333, 4167.179, 4090.256, 4104.103, 4115.385, 16188, 0, []
1628601716.4565, 67, 0, 4148.718, 4171.795, 4162.564, 4110.256, 4114.872, 450, 0, []
1628601716.4645, 68, 0, 4146.154, 4188.718, 4103.077, 4109.744, 4112.308, 16129, 0, []
1628601716.4724, 69, 0, 4138.462, 4192.821, 4116.41, 4116.923, 4111.282, 450, 0, []
1628601716.4801, 70, 0, 4128.205, 4173.846, 4151.795, 4126.667, 4107.692, 16204, 0, []
1628601716.488, 71, 0, 4138.974, 4170.256, 4096.923, 4114.872, 4104.615, 450, 0, []
1628601716.4958, 72, 0, 4153.846, 4185.128, 4151.282, 4103.59, 4101.538, 450, 0, []
1628601716.5037, 73, 0, 4136.923, 4184.615, 4101.538, 4089.744, 4086.154, 16082, 0, []
1628601716.5115, 74, 0, 4105.128, 4171.282, 4114.872, 4083.59, 4061.538, 450, 0, []
1628601716.5193, 75, 0, 4099.487, 4165.641, 4161.538, 4094.359, 4052.821, 16198, 0, []
1628601716.5271, 76, 0, 4114.872, 4164.103, 4100, 4100.513, 4068.718, 450, 0, []
1628601716.535, 77, 0, 4125.128, 4165.641, 4154.872, 4099.487, 4084.103, 450, 0, []
1628601716.5428, 78, 0, 4124.103, 4172.308, 4116.923, 4087.179, 4077.949, 450, 0, []
1628601716.5508, 79, 0, 4120, 4171.795, 4120.513, 4083.59, 4070.769, 16198, 0, []
1628601716.5586, 80, 0, 4123.077, 4165.128, 4172.821, 4093.846, 4078.974, 450, 0, []
1628601716.5666, 81, 0, 4123.59, 4172.821, 4094.872, 4091.282, 4078.462, 450, 0, []
1628601716.5745, 82, 0, 4116.41, 4189.744, 4145.641, 4090.769, 4066.667, 450, 0, []
1628601716.5825, 83, 0, 4105.128, 4184.103, 4122.564, 4095.897, 4056.923, 16198, 0, []
1628601716.5904, 84, 0, 4100.513, 4170.769, 4092.308, 4099.487, 4057.436, 450, 0, []
1628601716.5983, 85, 0, 4111.282, 4167.179, 4148.205, 4095.385, 4073.846, 450, 0, []
1628601716.6062, 86, 0, 4118.462, 4160.513, 4093.846, 4078.974, 4082.564, 450, 0, []
1628601716.6142, 87, 0, 4110.256, 4151.795, 4141.538, 4084.103, 4071.795, 16198, 0, []
1628601716.6221, 88, 0, 4103.077, 4155.897, 4128.718, 4098.462, 4063.59, 450, 0, []
1628601716.6299, 89, 0, 4110.256, 4157.436, 4101.026, 4100.513, 4071.795, 450, 0, []
1628601716.6377, 90, 0, 4123.59, 4164.615, 4156.923, 4108.718, 4084.103, 450, 0, []
1628601716.6455, 91, 0, 4132.308, 4180.513, 4088.718, 4113.846, 4096.41, 16198, 0, []
1628601716.6534, 92, 0, 4136.923, 4177.436, 4133.846, 4109.744, 4105.641, 450, 0, []
1628601716.6612, 93, 0, 4138.462, 4174.872, 4139.487, 4101.026, 4104.615, 450, 0, []
1628601716.6691, 94, 0, 4139.487, 4183.59, 4097.436, 4102.051, 4103.59, 450, 0, []
1628601716.6769, 95, 0, 4137.436, 4172.308, 4166.667, 4112.308, 4102.564, 16198, 0, []
1628601716.6847, 96, 0, 4130.256, 4166.667, 4107.692, 4100.513, 4094.359, 450, 0, []
1628601716.6925, 97, 0, 4129.231, 4184.615, 4135.897, 4092.308, 4091.282, 450, 0, []
1628601716.7004, 98, 0, 4136.923, 4182.051, 4149.231, 4091.282, 4093.333, 450, 0, []
1628601716.7082, 99, 0, 4136.41, 4164.103, 4093.846, 4082.051, 4086.667, 16198, 0, []
1628601716.7162, 100, 0, 4128.205, 4167.179, 4170.769, 4082.051, 4077.949, 450, 0, []
1628601716.724, 101, 0, 4137.949, 4174.872, 4126.667, 4095.385, 4093.333, 450, 0, []
1628601716.732, 102, 0, 4158.974, 4181.538, 4135.385, 4118.974, 4119.487, 450, 0, []
1628601716.7399, 103, 0, 4158.462, 4186.154, 4156.923, 4121.538, 4117.436, 16198, 0, []
1628601716.7479, 104, 0, 4149.744, 4175.385, 4096.41, 4108.718, 4104.615, 450, 0, []
1628601716.7558, 105, 0, 4154.359, 4175.897, 4158.462, 4118.974, 4108.205, 450, 0, []
1628601716.7637, 106, 0, 4153.846, 4192.821, 4113.333, 4122.564, 4110.769, 450, 0, []
1628601716.7716, 107, 0, 4148.205, 4175.897, 4112.821, 4116.41, 4107.692, 16198, 0, []
1628601716.7796, 108, 0, 4161.538, 4155.385, 4149.231, 4121.026, 4114.872, 450, 0, []
1628601716.7875, 109, 0, 4170.769, 4177.949, 4093.333, 4120, 4120.513, 450, 0, []
1628601716.7953, 110, 0, 4168.718, 4191.795, 4162.564, 4131.282, 4120.513, 450, 0, []
1628601716.8031, 111, 0, 4177.436, 4186.154, 4125.128, 4148.205, 4132.821, 16198, 0, []
1628601716.8109, 112, 0, 4185.128, 4203.077, 4112.821, 4145.641, 4141.538, 450, 0, []
1628601716.8188, 113, 0, 4172.821, 4202.051, 4163.077, 4130.256, 4127.179, 450, 0, []
1628601716.8266, 114, 0, 4158.462, 4162.051, 4095.385, 4118.974, 4110.256, 450, 0, []
1628601716.8345, 115, 0, 4170.769, 4152.821, 4155.897, 4132.308, 4124.103, 16198, 0, []
1628601716.8422, 116, 0, 4193.846, 4188.205, 4138.462, 4140, 4144.615, 450, 0, []
1628601716.8501, 117, 0, 4190.769, 4199.487, 4108.205, 4135.897, 4134.872, 450, 0, []
1628601716.8579, 118, 0, 4174.872, 4183.077, 4158.462, 4143.59, 4122.051, 450, 0, []
1628601716.8659, 119, 0, 4180.513, 4191.282, 4096.41, 4151.795, 4132.308, 16198, 0, []
1628601716.8738, 120, 0, 4197.949, 4208.205, 4148.205, 4160, 4144.103, 450, 0, []
1628601716.8817, 121, 0, 4201.026, 4194.872, 4140.513, 4151.282, 4142.564, 450, 0, []
1628601716.8896, 122, 0, 4194.872, 4181.538, 4104.615, 4141.026, 4138.974, 450, 0, []
1628601716.8976, 123, 0, 4191.282, 4182.564, 4162.564, 4154.359, 4136.923, 16198, 0, []
1628601716.9055, 124, 0, 4198.462, 4184.615, 4105.128, 4161.026, 4142.051, 450, 0, []
1628601716.9135, 125, 0, 4210.256, 4188.205, 4152.308, 4162.051, 4153.846, 450, 0, []
1628601716.9213, 126, 0, 4211.795, 4183.077, 4147.179, 4154.872, 4153.333, 450, 0, []
1628601716.9293, 127, 0, 4214.872, 4178.974, 4090.256, 4136.41, 4150.256, 16198, 0, []
1628601716.9372, 128, 0, 4246.667, 4194.872, 4148.718, 4136.923, 4174.359, 450, 0, []
1628601716.945, 0, 0, 4295.385, 4201.538, 4095.897, 4151.282, 4216.923, 450, 0, []
1628601716.9529, 1, 0, 4338.462, 4199.487, 4136.41, 4161.538, 4252.821, 450, 0, []
1628601716.9606, 2, 0, 4380, 4211.795, 4145.128, 4153.333, 4284.615, 16188, 0, []
1628601716.9685, 3, 0, 4416.923, 4210.769, 4087.692, 4143.077, 4313.846, 450, 0, []
1628601716.9763, 4, 0, 4434.872, 4195.385, 4166.154, 4147.179, 4331.795, 16133, 0, []
1628601716.9842, 5, 0, 4438.974, 4203.077, 4114.359, 4144.103, 4341.026, 450, 0, []
1628601716.992, 6, 0, 4438.974, 4215.897, 4124.103, 4148.205, 4340, 16198, 0, []
1628601716.9998, 7, 0, 4430.769, 4206.667, 4155.385, 4154.872, 4328.718, 450, 0, []
1628601717.0076, 8, 0, 4405.641, 4191.282, 4098.974, 4147.692, 4308.718, 450, 0, []
1628601717.0156, 9, 0, 4367.692, 4195.897, 4158.974, 4147.692, 4280.513, 16083, 0, []
1628601717.0235, 10, 0, 4331.282, 4215.897, 4113.333, 4140.513, 4248.718, 450, 0, []
1628601717.0315, 11, 0, 4296.923, 4203.077, 4112.821, 4126.667, 4218.462, 16197, 0, []
1628601717.0393, 12, 0, 4265.128, 4178.974, 4148.718, 4129.744, 4193.846, 450, 0, []
1628601717.0473, 13, 0, 4247.692, 4192.308, 4088.718, 4140.513, 4180.513, 450, 0, []
1628601717.0552, 14, 0, 4245.128, 4206.154, 4151.282, 4156.923, 4181.538, 450, 0, []
1628601717.0632, 15, 0, 4254.872, 4198.974, 4121.538, 4163.59, 4190.769, 16197, 0, []
1628601717.0711, 16, 0, 4262.051, 4192.308, 4118.974, 4162.564, 4197.436, 0, 0, []
1628601717.079, 17, 0, 4250.769, 4195.897, 4163.59, 4163.077, 4192.308, 0, 0, []
1628601717.0869, 18, 0, 4228.718, 4203.077, 4090.256, 4156.41, 4175.897, 0, 0, []
1628601717.0947, 19, 0, 4211.795, 4199.487, 4150.769, 4149.231, 4155.385, 0, 0, []
1628601717.1026, 20, 0, 4201.026, 4189.744, 4134.359, 4140.513, 4139.487, 0, 0, []
1628601717.1104, 21, 0, 4197.436, 4185.641, 4105.128, 4142.564, 4141.026, 0, 0, []
1628601717.1182, 22, 0, 4201.538, 4180.513, 4162.051, 4149.744, 4153.846, 0, 0, []
1628601717.126, 23, 0, 4210.256, 4185.641, 4097.436, 4144.103, 4154.872, 0, 0, []
1628601717.1339, 24, 0, 4212.821, 4201.026, 4145.128, 4148.718, 4143.077, 0, 0, []
1628601717.1417, 25, 0, 4196.923, 4189.231, 4144.103, 4150.769, 4134.872, 0, 0, []
1628601717.1496, 26, 0, 4183.59, 4175.897, 4103.077, 4148.718, 4133.846, 0, 0, []
1628601717.1573, 27, 0, 4185.128, 4181.026, 4154.359, 4154.872, 4128.718, 0, 0, []
1628601717.1652, 28, 0, 4184.103, 4170.769, 4094.872, 4143.59, 4120, 0, 0, []
1628601717.173, 29, 0, 4185.128, 4168.718, 4136.41, 4135.897, 4126.667, 0, 0, []
1628601717.181, 30, 0, 4200, 4192.821, 4147.179, 4144.615, 4147.179, 0, 0, []
1628601717.1889, 31, 0, 4206.154, 4186.667, 4106.154, 4142.051, 4148.718, 0, 0, []
1628601717.1968, 32, 0, 4196.41, 4158.462, 4161.026, 4131.282, 4130.256, 0, 0, []
1628601717.2047, 33, 0, 4193.846, 4174.359, 4101.026, 4131.795, 4127.692, 0, 0, []
1628601717.2126, 34, 0, 4198.462, 4204.103, 4140, 4149.744, 4141.538, 0, 0, []
1628601717.2204, 35, 0, 4197.949, 4188.718, 4154.872, 4152.308, 4147.692, 0, 0, []
1628601717.2284, 36, 0, 4200, 4167.179, 4085.641, 4137.949, 4148.718, 0, 0, []
1628601717.2362, 37, 0, 4200, 4168.718, 4155.385, 4136.923, 4147.692, 0, 0, []
1628601717.2442, 38, 0, 4190.256, 4157.436, 4113.333, 4138.462, 4137.949, 0, 0, []
1628601717.2521, 39, 0, 4185.641, 4148.718, 4121.026, 4145.641, 4134.872, 0, 0, []
1628601717.2599, 40, 0, 4184.615, 4165.128, 4150.256, 4147.692, 4138.974, 0, 0, []
1628601717.2678, 41, 0, 4170.769, 4161.538, 4096.41, 4129.231, 4135.897, 0, 0, []
1628601717.2755, 42, 0, 4166.154, 4137.949, 4164.615, 4132.308, 4134.359, 0, 0, []
1628601717.2834, 43, 0, 4173.333, 4135.897, 4117.949, 4150.256, 4138.462, 0, 0, []
1628601717.2912, 44, 0, 4169.744, 4147.692, 4115.897, 4154.872, 4137.436, 0, 0, []
1628601717.2991, 45, 0, 4164.103, 4162.564, 4161.026, 4140.513, 4131.282, 0, 0, []
1628601717.3069, 46, 0, 4165.128, 4175.897, 4094.872, 4126.667, 4129.231, 0, 0, []
1628601717.3147, 47, 0, 4166.667, 4159.487, 4150.769, 4138.974, 4134.872, 0, 0, []
1628601717.3225, 48, 0, 4170.256, 4143.59, 4125.641, 4147.692, 4141.538, 0, 0, []
1628601717.3304, 49, 0, 4168.718, 4162.564, 4113.333, 4144.103, 4135.385, 0, 0, []
1628601717.3382, 50, 0, 4158.974, 4169.744, 4155.897, 4143.077, 4124.103, 0, 0, []
1628601717.3462, 51, 0, 4157.949, 4148.718, 4088.205, 4141.538, 4124.103, 0, 0, []
1628601717.354, 52, 0, 4172.308, 4147.692, 4141.026, 4149.744, 4137.436, 0, 0, []
1628601717.362, 53, 0, 4183.59, 4166.154, 4121.026, 4153.333, 4151.795, 0, 0, []
1628601717.3699, 54, 0, 4176.923, 4157.949, 4102.051, 4149.231, 4151.282, 0, 0, []
1628601717.3779, 55, 0, 4167.692, 4146.154, 4167.692, 4150.256, 4136.923, 0, 0, []
1628601717.3858, 56, 0, 4166.154, 4164.103, 4100.513, 4148.718, 4131.282, 0, 0, []
1628601717.3938, 57, 0, 4171.795, 4169.231, 4140.513, 4161.538, 4148.718, 0, 0, []
1628601717.4016, 58, 0, 4177.436, 4155.897, 4134.872, 4170.769, 4159.487, 0, 0, []
1628601717.4096, 59, 0, 4164.615, 4152.308, 4091.282, 4153.846, 4139.487, 0, 0, []
1628601717.4175, 60, 0, 4148.718, 4150.769, 4148.205, 4142.051, 4127.179, 0, 0, []
1628601717.4253, 61, 0, 4150.256, 4148.718, 4094.872, 4140.513, 4138.974, 0, 0, []
1628601717.4332, 62, 0, 4150.256, 4158.462, 4134.872, 4134.359, 4136.923, 0, 0, []
1628601717.4409, 63, 0, 4138.974, 4166.667, 4137.949, 4123.077, 4117.949, 0, 0, []
1628601717.4488, 64, 0, 4130.256, 4157.436, 4092.821, 4126.667, 4115.897, 450, 0, []
1628601717.4566, 65, 0, 4129.231, 4141.026, 4162.564, 4138.974, 4121.538, 450, 0, []
1628601717.4645, 66, 0, 4137.436, 4144.615, 4108.718, 4133.846, 4117.949, 16188, 0, []
1628601717.4723, 67, 0, 4150.256, 4169.231, 4131.282, 4142.051, 4122.051, 450, 0, []
1628601717.4801, 68, 0, 4151.282, 4174.872, 4143.59, 4153.846, 4133.846, 16151, 0, []
1628601717.4879, 69, 0, 4146.667, 4145.641, 4084.615, 4143.59, 4135.897, 450, 0, []
1628601717.4958, 70, 0, 4155.385, 4144.615, 4154.359, 4148.718, 4145.641, 16206, 0, []
1628601717.5036, 71, 0, 4162.564, 4178.974, 4104.615, 4157.949, 4158.462, 450, 0, []
1628601717.5116, 72, 0, 4151.282, 4183.077, 4116.41, 4156.41, 4148.205, 450, 0, []
1628601717.5194, 73, 0, 4144.615, 4177.436, 4153.333, 4153.846, 4134.872, 16083, 0, []
1628601717.5274, 74, 0, 4154.872, 4190.769, 4090.769, 4145.641, 4142.051, 450, 0, []
1628601717.5353, 75, 0, 4153.846, 4177.949, 4152.308, 4144.615, 4142.564, 16197, 0, []
1628601717.5433, 76, 0, 4134.872, 4155.897, 4117.949, 4138.462, 4123.59, 450, 0, []
1628601717.5512, 77, 0, 4130.769, 4171.795, 4113.846, 4126.667, 4116.41, 450, 0, []
1628601717.5591, 78, 0, 4137.949, 4183.59, 4145.641, 4124.615, 4120.513, 450, 0, []
1628601717.567, 79, 0, 4135.385, 4172.308, 4088.205, 4128.718, 4116.41, 16197, 0, []
1628601717.5748, 80, 0, 4144.615, 4175.897, 4164.615, 4137.949, 4121.026, 450, 0, []
1628601717.5827, 81, 0, 4168.205, 4186.667, 4136.41, 4138.462, 4142.564, 450, 0, []
1628601717.5905, 82, 0, 4179.487, 4199.487, 4111.795, 4141.538, 4155.897, 450, 0, []
1628601717.5983, 83, 0, 4174.359, 4201.538, 4163.077, 4144.103, 4151.795, 16197, 0, []
1628601717.6061, 84, 0, 4168.205, 4182.564, 4103.077, 4135.385, 4149.744, 450, 0, []
1628601717.614, 85, 0, 4170.769, 4197.949, 4155.897, 4146.154, 4152.821, 450, 0, []
1628601717.6218, 86, 0, 4180, 4224.103, 4135.897, 4161.026, 4151.795, 450, 0, []
1628601717.6297, 87, 0, 4185.641, 4203.077, 4108.205, 4160, 4158.462, 16197, 0, []
1628601717.6374, 88, 0, 4189.231, 4204.103, 4172.821, 4156.41, 4170.769, 450, 0, []
1628601717.6453, 89, 0, 4195.385, 4238.462, 4111.282, 4146.667, 4169.231, 450, 0, []
1628601717.6531, 90, 0, 4201.538, 4225.641, 4145.641, 4147.179, 4166.667, 450, 0, []
1628601717.6611, 91, 0, 4202.051, 4194.359, 4130.769, 4152.821, 4176.923, 16197, 0, []
1628601717.669, 92, 0, 4197.949, 4197.949, 4095.385, 4143.59, 4177.949, 450, 0, []
1628601717.6769, 93, 0, 4198.462, 4204.615, 4168.205, 4135.897, 4174.359, 450, 0, []
1628601717.6848, 94, 0, 4207.692, 4203.077, 4103.077, 4133.846, 4185.128, 450, 0, []
1628601717.6928, 95, 0, 4216.41, 4211.282, 4127.692, 4140, 4189.744, 16197, 0, []
1628601717.7007, 96, 0, 4218.974, 4223.077, 4142.564, 4143.59, 4185.641, 450, 0, []
1628601717.7087, 97, 0, 4222.051, 4213.846, 4102.051, 4146.667, 4190.769, 450, 0, []
1628601717.7165, 98, 0, 4220.513, 4197.436, 4164.615, 4160, 4192.821, 450, 0, []
1628601717.7245, 99, 0, 4215.385, 4209.231, 4110.256, 4162.564, 4185.641, 16197, 0, []
1628601717.7324, 100, 0, 4218.974, 4225.128, 4135.897, 4162.051, 4188.718, 450, 0, []
1628601717.7402, 101, 0, 4221.026, 4209.744, 4155.897, 4164.103, 4192.821, 450, 0, []
1628601717.7481, 102, 0, 4214.359, 4197.949, 4096.41, 4161.538, 4185.128, 450, 0, []
1628601717.7558, 103, 0, 4219.487, 4210.256, 4161.026, 4169.231, 4187.692, 16197, 0, []
1628601717.7637, 104, 0, 4233.333, 4215.385, 4110.256, 4168.718, 4203.077, 450, 0, []
1628601717.7715, 105, 0, 4232.821, 4217.949, 4115.385, 4164.615, 4204.615, 450, 0, []
1628601717.7794, 106, 0, 4227.692, 4212.821, 4150.769, 4175.897, 4200, 450, 0, []
1628601717.7872, 107, 0, 4234.872, 4198.974, 4096.923, 4190.256, 4207.692, 16197, 0, []
1628601717.795, 108, 0, 4236.41, 4206.154, 4159.487, 4199.487, 4212.821, 450, 0, []
1628601717.8028, 109, 0, 4217.949, 4216.923, 4113.846, 4188.718, 4196.923, 450, 0, []
1628601717.8108, 110, 0, 4208.718, 4211.795, 4115.385, 4180, 4182.564, 450, 0, []
1628601717.8187, 111, 0, 4220.513, 4216.923, 4171.795, 4185.641, 4184.103, 16197, 0, []
1628601717.8267, 112, 0, 4218.974, 4223.59, 4101.538, 4177.436, 4186.667, 450, 0, []
1628601717.8345, 113, 0, 4204.103, 4204.103, 4144.103, 4171.282, 4183.077, 450, 0, []
1628601717.8425, 114, 0, 4210.769, 4202.564, 4118.462, 4169.231, 4183.59, 450, 0, []
1628601717.8504, 115, 0, 4216.923, 4215.897, 4116.41, 4170.256, 4182.051, 16197, 0, []
1628601717.8584, 116, 0, 4205.128, 4201.538, 4166.154, 4172.308, 4172.821, 450, 0, []
1628601717.8663, 117, 0, 4201.538, 4194.872, 4086.667, 4163.59, 4169.744, 450, 0, []
1628601717.8742, 118, 0, 4206.154, 4207.692, 4138.462, 4159.487, 4170.256, 450, 0, []
1628601717.8821, 119, 0, 4201.026, 4212.821, 4134.359, 4162.051, 4167.179, 16197, 0, []
1628601717.8901, 120, 0, 4197.436, 4206.154, 4112.821, 4164.615, 4170.256, 450, 0, []
1628601717.898, 121, 0, 4206.154, 4199.487, 4167.179, 4162.051, 4175.897, 450, 0, []
1628601717.9058, 122, 0, 4207.692, 4209.231, 4094.359, 4154.872, 4171.795, 450, 0, []
1628601717.9136, 123, 0, 4201.026, 4218.974, 4139.487, 4158.974, 4161.026, 16197, 0, []
1628601717.9214, 124, 0, 4195.897, 4199.487, 4145.641, 4152.308, 4151.795, 450, 0, []
1628601717.9293, 125, 0, 4198.462, 4186.667, 4110.256, 4145.641, 4150.769, 450, 0, []
1628601717.9371, 126, 0, 4205.128, 4192.821, 4171.282, 4157.949, 4155.897, 450, 0, []
1628601717.945, 127, 0, 4204.615, 4185.128, 4104.103, 4149.231, 4154.872, 16197, 0, []
1628601717.9527, 128, 0, 4201.026, 4186.154, 4134.872, 4129.744, 4150.769, 450, 0, []
1628601717.9606, 0, 0, 4200.513, 4202.051, 4153.846, 4132.308, 4150.769, 450, 0, []
1628601717.9684, 1, 0, 4200, 4200.513, 4106.154, 4146.667, 4150.256, 450, 0, []
1628601717.9764, 2, 0, 4204.103, 4196.41, 4165.641, 4165.641, 4157.949, 16188, 0, []
1628601717.9843, 3, 0, 4209.744, 4197.949, 4110.769, 4168.718, 4169.744, 450, 0, []
1628601717.9922, 4, 0, 4203.59, 4193.846, 4128.205, 4160, 4169.744, 16151, 0, []
1628601718.0001, 5, 0, 4194.359, 4194.359, 4144.103, 4155.385, 4153.846, 450, 0, []
1628601718.0081, 6, 0, 4192.821, 4201.026, 4088.718, 4153.846, 4140, 16204, 0, []
1628601718.016, 7, 0, 4200, 4200.513, 4156.923, 4165.641, 4150.256, 450, 0, []
1628601718.024, 8, 0, 4205.128, 4188.205, 4109.231, 4166.667, 4161.026, 450, 0, []
1628601718.0318, 9, 0, 4202.564, 4182.051, 4122.051, 4154.359, 4155.897, 16081, 0, []
1628601718.0398, 10, 0, 4201.538, 4200.513, 4151.282, 4149.744, 4161.538, 450, 0, []
1628601718.0477, 11, 0, 4205.128, 4208.205, 4072.308, 4141.026, 4168.718, 16197, 0, []
1628601718.0555, 12, 0, 4201.026, 4182.051, 4133.333, 4124.103, 4153.846, 450, 0, []
1628601718.0634, 13, 0, 4187.692, 4178.462, 4107.179, 4104.615, 4143.077, 450, 0, []
1628601718.0711, 14, 0, 4184.615, 4207.692, 4102.564, 4112.308, 4152.821, 450, 0, []
1628601718.079, 15, 0, 4187.692, 4201.538, 4132.308, 4128.205, 4156.41, 16197, 0, []
1628601718.0868, 16, 0, 4183.077, 4167.692, 4062.051, 4118.462, 4147.179, 0, 0, []
1628601718.0947, 17, 0, 4177.436, 4174.359, 4138.974, 4121.538, 4144.103, 0, 0, []
1628601718.1025, 18, 0, 4176.41, 4200, 4118.974, 4129.231, 4146.154, 0, 0, []
1628601718.1103, 19, 0, 4179.487, 4193.333, 4087.692, 4130.769, 4145.128, 0, 0, []
1628601718.1181, 20, 0, 4184.103, 4190.769, 4147.179, 4143.59, 4145.641, 0, 0, []
1628601718.1261, 21, 0, 4181.026, 4202.564, 4093.333, 4149.744, 4145.641, 0, 0, []
1628601718.134, 22, 0, 4171.795, 4194.872, 4134.872, 4154.872, 4141.026, 0, 0, []
1628601718.142, 23, 0, 4168.205, 4188.718, 4112.821, 4161.026, 4140, 0, 0, []
1628601718.1499, 24, 0, 4168.205, 4185.128, 4086.154, 4161.026, 4136.923, 0, 0, []
1628601718.1578, 25, 0, 4166.667, 4167.179, 4152.308, 4159.487, 4125.641, 0, 0, []
1628601718.1657, 26, 0, 4167.692, 4172.308, 4088.205, 4156.41, 4127.179, 0, 0, []
1628601718.1737, 27, 0, 4170.769, 4188.205, 4122.051, 4161.026, 4142.051, 0, 0, []
1628601718.1816, 28, 0, 4169.744, 4173.333, 4120, 4162.051, 4143.59, 0, 0, []
1628601718.1896, 29, 0, 4167.179, 4163.59, 4085.128, 4162.564, 4140, 0, 0, []
1628601718.1974, 30, 0, 4172.308, 4183.077, 4149.744, 4171.795, 4143.59, 0, 0, []
1628601718.2052, 31, 0, 4176.923, 4193.333, 4089.744, 4169.231, 4144.615, 0, 0, []
1628601718.2131, 32, 0, 4175.897, 4178.974, 4122.564, 4168.718, 4149.744, 0, 0, []
1628601718.2209, 33, 0, 4178.974, 4178.462, 4135.897, 4167.179, 4158.462, 0, 0, []
1628601718.2288, 34, 0, 4177.436, 4185.641, 4088.718, 4155.385, 4155.385, 0, 0, []
1628601718.2365, 35, 0, 4173.846, 4174.359, 4156.41, 4154.872, 4155.385, 0, 0, []
1628601718.2444, 36, 0, 4176.923, 4167.692, 4095.385, 4152.308, 4163.59, 0, 0, []
1628601718.2522, 37, 0, 4175.385, 4169.231, 4105.128, 4144.103, 4162.564, 0, 0, []
1628601718.2601, 38, 0, 4168.205, 4154.872, 4130.769, 4135.385, 4154.359, 0, 0, []
1628601718.2679, 39, 0, 4164.615, 4148.205, 4074.359, 4124.615, 4148.205, 0, 0, []
1628601718.2758, 40, 0, 4161.538, 4171.795, 4138.462, 4124.103, 4142.564, 0, 0, []
1628601718.2837, 41, 0, 4162.564, 4178.974, 4102.564, 4127.692, 4147.692, 0, 0, []
1628601718.2917, 42, 0, 4168.718, 4160, 4115.897, 4142.564, 4161.538, 0, 0, []
1628601718.2996, 43, 0, 4165.641, 4154.359, 4140.513, 4160.513, 4161.026, 0, 0, []
1628601718.3076, 44, 0, 4155.897, 4166.154, 4070.256, 4155.385, 4148.205, 0, 0, []
1628601718.3154, 45, 0, 4152.821, 4174.359, 4140, 4141.026, 4139.487, 0, 0, []
1628601718.3234, 46, 0, 4151.282, 4160, 4106.667, 4125.641, 4134.872, 0, 0, []
1628601718.3313, 47, 0, 4154.359, 4141.538, 4098.462, 4122.564, 4140, 0, 0, []
1628601718.3393, 48, 0, 4157.949, 4153.333, 4149.744, 4126.667, 4145.128, 0, 0, []
1628601718.3472, 49, 0, 4154.872, 4173.846, 4083.59, 4118.974, 4140, 0, 0, []
1628601718.3551, 50, 0, 4151.795, 4165.641, 4131.795, 4117.436, 4135.385, 0, 0, []
1628601718.363, 51, 0, 4154.359, 4151.795, 4104.615, 4109.231, 4136.923, 0, 0, []
1628601718.3708, 52, 0, 4162.564, 4156.41, 4091.282, 4106.154, 4143.077, 0, 0, []
1628601718.3787, 53, 0, 4171.282, 4168.205, 4151.795, 4122.564, 4154.359, 0, 0, []
1628601718.3865, 54, 0, 4170.769, 4170.769, 4087.179, 4122.564, 4157.436, 0, 0, []
1628601718.3943, 55, 0, 4169.744, 4158.462, 4132.308, 4120, 4151.795, 0, 0, []
1628601718.4021, 56, 0, 4176.41, 4158.974, 4124.615, 4130.256, 4160, 0, 0, []
1628601718.41, 57, 0, 4173.846, 4177.949, 4099.487, 4134.359, 4169.744, 0, 0, []
1628601718.4178, 58, 0, 4162.564, 4173.846, 4151.282, 4129.231, 4160.513, 0, 0, []
1628601718.4257, 59, 0, 4165.128, 4153.846, 4083.59, 4115.385, 4148.718, 0, 0, []
1628601718.4334, 60, 0, 4178.462, 4156.41, 4134.359, 4119.487, 4158.462, 0, 0, []
1628601718.4414, 61, 0, 4186.667, 4155.897, 4133.846, 4138.462, 4175.897, 0, 0, []
1628601718.4493, 62, 0, 4188.718, 4153.846, 4073.846, 4140, 4178.974, 0, 0, []
1628601718.4573, 63, 0, 4189.231, 4165.128, 4146.154, 4131.795, 4170.769, 0, 0, []
1628601718.4652, 64, 0, 4180, 4165.128, 4106.667, 4127.692, 4164.615, 450, 0, []
1628601718.4731, 65, 0, 4169.231, 4155.385, 4133.846, 4130.769, 4165.641, 450, 0, []
1628601718.481, 66, 0, 4175.385, 4149.231, 4142.564, 4126.667, 4169.231, 16188, 0, []
1628601718.489, 67, 0, 4181.026, 4156.923, 4090.256, 4126.667, 4170.256, 450, 0, []
1628601718.4969, 68, 0, 4178.974, 4175.385, 4156.41, 4135.897, 4166.154, 16151, 0, []
1628601718.5049, 69, 0, 4189.744, 4168.205, 4106.154, 4126.154, 4167.692, 450, 0, []
1628601718.5127, 70, 0, 4200, 4149.744, 4122.051, 4128.205, 4182.564, 16205, 0, []
1628601718.5205, 71, 0, 4192.308, 4170.256, 4146.667, 4140, 4192.308, 450, 0, []
1628601718.5284, 72, 0, 4183.077, 4178.462, 4085.128, 4128.718, 4180, 450, 0, []
1628601718.5362, 73, 0, 4183.077, 4149.231, 4149.744, 4127.179, 4166.154, 16083, 0, []
1628601718.5441, 74, 0, 4188.205, 4160.513, 4115.897, 4135.897, 4170.256, 450, 0, []
1628601718.5518, 75, 0, 4200, 4174.359, 4123.59, 4142.564, 4185.128, 16197, 0, []
1628601718.5597, 76, 0, 4208.718, 4138.462, 4146.667, 4138.462, 4191.282, 450, 0, []
1628601718.5675, 77, 0, 4200, 4128.718, 4080.513, 4116.41, 4180.513, 450, 0, []
1628601718.5755, 78, 0, 4181.026, 4157.949, 4154.359, 4110.769, 4165.641, 450, 0, []
1628601718.5834, 79, 0, 4169.231, 4152.821, 4111.795, 4122.564, 4157.949, 16197, 0, []
1628601718.5913, 80, 0, 4164.103, 4139.487, 4086.154, 4131.795, 4152.308, 450, 0, []
1628601718.5992, 81, 0, 4154.359, 4148.718, 4140, 4122.564, 4142.051, 450, 0, []
1628601718.6072, 82, 0, 4153.333, 4153.333, 4083.59, 4107.692, 4140, 450, 0, []
1628601718.6151, 83, 0, 4177.949, 4165.641, 4139.487, 4126.667, 4160, 16197, 0, []
1628601718.6231, 84, 0, 4195.385, 4178.974, 4124.615, 4140, 4175.385, 450, 0, []
1628601718.6309, 85, 0, 4188.205, 4169.231, 4110.256, 4131.795, 4164.615, 450, 0, []
1628601718.6389, 86, 0, 4183.59, 4160, 4157.436, 4138.462, 4153.846, 450, 0, []
1628601718.6468, 87, 0, 4190.769, 4170.256, 4086.154, 4148.718, 4162.564, 16197, 0, []
1628601718.6547, 88, 0, 4196.41, 4185.641, 4146.667, 4151.795, 4170.769, 450, 0, []
1628601718.6626, 89, 0, 4200, 4202.051, 4149.744, 4148.718, 4168.718, 450, 0, []
1628601718.6703, 90, 0, 4203.077, 4206.154, 4114.359, 4151.282, 4167.179, 450, 0, []
1628601718.6782, 91, 0, 4205.641, 4183.077, 4169.231, 4157.436, 4174.359, 16197, 0, []
1628601718.686, 92, 0, 4209.231, 4171.282, 4108.205, 4149.744, 4183.59, 450, 0, []
1628601718.6939, 93, 0, 4220, 4196.923, 4157.436, 4151.795, 4189.744, 450, 0, []
1628601718.7017, 94, 0, 4228.205, 4214.359, 4162.564, 4159.487, 4189.231, 450, 0, []
1628601718.7095, 95, 0, 4221.538, 4189.744, 4101.026, 4156.923, 4184.615, 16197, 0, []
1628601718.7173, 96, 0, 4218.974, 4183.077, 4155.897, 4157.436, 4185.128, 450, 0, []
1628601718.7253, 97, 0, 4224.103, 4210.256, 4114.359, 4153.333, 4187.692, 450, 0, []
1628601718.7332, 98, 0, 4217.436, 4196.923, 4146.667, 4147.179, 4187.179, 450, 0, []
1628601718.7412, 99, 0, 4206.154, 4165.641, 4142.051, 4133.846, 4184.615, 16197, 0, []
1628601718.749, 100, 0, 4209.744, 4180, 4080, 4121.538, 4182.051, 450, 0, []
1628601718.757, 101, 0, 4217.949, 4209.231, 4149.744, 4138.462, 4186.154, 450, 0, []
1628601718.7649, 102, 0, 4215.897, 4201.026, 4093.846, 4148.205, 4190.769, 450, 0, []
1628601718.7729, 103, 0, 4216.923, 4184.615, 4118.462, 4145.641, 4190.769, 16197, 0, []
1628601718.7808, 104, 0, 4225.128, 4190.769, 4166.154, 4153.846, 4192.821, 450, 0, []
1628601718.7887, 105, 0, 4228.205, 4201.026, 4101.538, 4159.487, 4197.436, 450, 0, []
1628601718.7966, 106, 0, 4236.923, 4203.59, 4158.974, 4170.769, 4207.692, 450, 0, []
1628601718.8046, 107, 0, 4250.769, 4202.051, 4123.59, 4185.128, 4220.513, 16197, 0, []
1628601718.8125, 108, 0, 4252.308, 4205.128, 4121.538, 4189.744, 4220, 450, 0, []
1628601718.8203, 109, 0, 4247.179, 4218.974, 4153.333, 4181.538, 4213.333, 450, 0, []
1628601718.8281, 110, 0, 4251.795, 4225.128, 4092.308, 4173.846, 4211.282, 450, 0, []
1628601718.8359, 111, 0, 4251.282, 4210.256, 4155.385, 4175.897, 4210.256, 16197, 0, []
1628601718.8438, 112, 0, 4237.436, 4198.974, 4122.564, 4160, 4200, 450, 0, []
1628601718.8516, 113, 0, 4234.359, 4198.462, 4112.821, 4151.795, 4189.231, 450, 0, []
1628601718.8595, 114, 0, 4230.769, 4190.769, 4160, 4162.564, 4183.077, 450, 0, []
1628601718.8672, 115, 0, 4219.487, 4197.436, 4095.385, 4159.487, 4183.077, 16197, 0, []
1628601718.8752, 116, 0, 4222.564, 4209.744, 4153.846, 4166.154, 4188.718, 450, 0, []
1628601718.8831, 117, 0, 4232.308, 4191.282, 4127.692, 4177.436, 4192.821, 450, 0, []
1628601718.8911, 118, 0, 4231.795, 4180.513, 4102.564, 4180.513, 4195.897, 450, 0, []
1628601718.899, 119, 0, 4233.333, 4208.718, 4165.128, 4187.692, 4201.538, 16197, 0, []
1628601718.907, 120, 0, 4237.949, 4221.026, 4095.385, 4186.667, 4202.051, 450, 0, []
1628601718.9148, 121, 0, 4230.769, 4191.795, 4133.846, 4182.051, 4192.821, 450, 0, []
1628601718.9228, 122, 0, 4225.641, 4173.846, 4130.769, 4176.41, 4190.256, 450, 0, []
1628601718.9307, 123, 0, 4233.333, 4189.231, 4100.513, 4175.385, 4196.41, 16197, 0, []
1628601718.9387, 124, 0, 4236.41, 4182.564, 4156.41, 4185.641, 4191.282, 450, 0, []
1628601718.9466, 125, 0, 4232.308, 4160, 4092.308, 4184.615, 4182.564, 450, 0, []
1628601718.9545, 126, 0, 4233.333, 4179.487, 4131.795, 4181.026, 4186.154, 450, 0, []
1628601718.9624, 127, 0, 4236.41, 4211.795, 4135.385, 4181.538, 4189.744, 16197, 0, []
1628601718.9702, 128, 0, 4231.795, 4204.103, 4089.744, 4188.205, 4186.154, 450, 0, []
1628601718.9781, 0, 0, 4227.692, 4190.256, 4164.615, 4202.564, 4185.641, 450, 0, []
1628601718.9859, 1, 0, 4232.308, 4192.821, 4121.026, 4199.487, 4191.282, 450, 0, []
1628601718.9937, 2, 0, 4231.795, 4185.128, 4147.179, 4188.205, 4201.538, 16188, 0, []
1628601719.0015, 3, 0, 4228.205, 4187.179, 4153.333, 4190.256, 4205.641, 450, 0, []
1628601719.0094, 4, 0, 4226.154, 4202.051, 4097.436, 4194.359, 4193.333, 16152, 0, []
1628601719.0172, 5, 0, 4220, 4194.359, 4174.359, 4182.051, 4178.462, 450, 0, []
1628601719.0251, 6, 0, 4213.333, 4184.103, 4124.103, 4161.026, 4171.795, 16203, 0, []
1628601719.0328, 7, 0, 4216.41, 4202.051, 4132.308, 4173.333, 4171.282, 450, 0, []
1628601719.0408, 8, 0, 4225.128, 4213.333, 4167.179, 4196.41, 4181.538, 450, 0, []
1628601719.0487, 9, 0, 4223.59, 4189.744, 4101.538, 4194.872, 4185.128, 16082, 0, []
1628601719.0567, 10, 0, 4206.154, 4173.846, 4160.513, 4194.872, 4164.103, 450, 0, []
1628601719.0646, 11, 0, 4198.462, 4186.667, 4132.821, 4198.974, 4154.359, 16197, 0, []
1628601719.0725, 12, 0, 4208.205, 4196.923, 4134.872, 4200.513, 4168.718, 450, 0, []
1628601719.0804, 13, 0, 4207.692, 4184.615, 4161.538, 4198.974, 4166.154, 450, 0, []
1628601719.0884, 14, 0, 4194.872, 4169.231, 4094.872, 4192.308, 4151.282, 450, 0, []
1628601719.0963, 15, 0, 4192.821, 4170.256, 4164.615, 4191.795, 4152.821, 16197, 0, []
1628601719.1043, 16, 0, 4200, 4187.692, 4138.974, 4183.59, 4155.897, 0, 0, []
1628601719.1121, 17, 0, 4197.949, 4195.385, 4118.462, 4171.282, 4154.359, 0, 0, []
1628601719.1201, 18, 0, 4192.821, 4171.282, 4155.385, 4158.462, 4157.436, 0, 0, []
1628601719.128, 19, 0, 4192.821, 4158.974, 4089.744, 4141.026, 4151.795, 0, 0, []
1628601719.1358, 20, 0, 4192.821, 4176.41, 4154.872, 4149.231, 4143.59, 0, 0, []
1628601719.1437, 21, 0, 4192.308, 4181.538, 4140.513, 4159.487, 4150.256, 0, 0, []
1628601719.1514, 22, 0, 4187.692, 4158.974, 4111.282, 4157.436, 4153.846, 0, 0, []
1628601719.1593, 23, 0, 4176.923, 4148.205, 4172.308, 4162.564, 4140.513, 0, 0, []
1628601719.1671, 24, 0, 4166.154, 4154.872, 4106.667, 4153.846, 4129.744, 0, 0, []
1628601719.175, 25, 0, 4165.641, 4151.795, 4144.103, 4140, 4130.256, 0, 0, []
1628601719.1828, 26, 0, 4174.872, 4151.282, 4140, 4134.872, 4134.359, 0, 0, []
1628601719.1907, 27, 0, 4184.103, 4164.615, 4108.205, 4132.821, 4144.615, 0, 0, []
1628601719.1986, 28, 0, 4190.769, 4174.359, 4166.667, 4133.846, 4156.41, 0, 0, []
1628601719.2066, 29, 0, 4190.256, 4172.308, 4104.615, 4131.795, 4155.385, 0, 0, []
1628601719.2145, 30, 0, 4194.359, 4171.795, 4143.077, 4137.949, 4154.359, 0, 0, []
1628601719.2225, 31, 0, 4204.103, 4169.231, 4149.744, 4135.385, 4160.513, 0, 0, []
1628601719.2303, 32, 0, 4199.487, 4153.846, 4102.051, 4120.513, 4152.821, 0, 0, []
1628601719.2383, 33, 0, 4185.128, 4144.615, 4167.179, 4122.051, 4139.487, 0, 0, []
1628601719.2462, 34, 0, 4180.513, 4161.538, 4114.359, 4124.103, 4139.487, 0, 0, []
1628601719.2542, 35, 0, 4183.077, 4181.026, 4147.692, 4132.821, 4143.59, 0, 0, []
1628601719.2621, 36, 0, 4178.974, 4178.462, 4164.103, 4144.615, 4137.949, 0, 0, []
1628601719.2698, 37, 0, 4175.897, 4176.923, 4092.308, 4142.051, 4135.385, 0, 0, []
1628601719.2777, 38, 0, 4189.231, 4186.154, 4155.897, 4145.641, 4148.205, 0, 0, []
1628601719.2855, 39, 0, 4203.077, 4170.256, 4115.897, 4144.103, 4158.974, 0, 0, []
1628601719.2934, 40, 0, 4199.487, 4156.41, 4128.718, 4144.615, 4155.897, 0, 0, []
1628601719.3012, 41, 0, 4191.795, 4173.333, 4154.872, 4151.795, 4154.359, 0, 0, []
1628601719.309, 42, 0, 4187.179, 4162.051, 4090.256, 4141.026, 4154.872, 0, 0, []
1628601719.3168, 43, 0, 4183.59, 4135.897, 4156.41, 4131.282, 4151.795, 0, 0, []
1628601719.3247, 44, 0, 4191.282, 4152.308, 4115.385, 4140.513, 4159.487, 0, 0, []
1628601719.3325, 45, 0, 4204.615, 4172.821, 4112.308, 4154.872, 4174.872, 0, 0, []
1628601719.3404, 46, 0, 4205.641, 4178.462, 4160.513, 4157.436, 4172.821, 0, 0, []
1628601719.3481, 47, 0, 4196.923, 4190.769, 4095.897, 4156.41, 4163.077, 0, 0, []
1628601719.356, 48, 0, 4192.308, 4181.538, 4153.333, 4156.923, 4165.641, 0, 0, []
1628601719.3638, 49, 0, 4188.718, 4157.436, 4135.897, 4138.462, 4168.718, 0, 0, []
1628601719.3718, 50, 0, 4186.667, 4169.231, 4124.615, 4133.333, 4164.615, 0, 0, []
1628601719.3797, 51, 0, 4190.256, 4191.795, 4165.128, 4156.41, 4165.641, 0, 0, []
1628601719.3876, 52, 0, 4184.615, 4184.103, 4091.282, 4154.359, 4164.103, 0, 0, []
1628601719.3955, 53, 0, 4171.282, 4164.103, 4148.205, 4130.256, 4155.385, 0, 0, []
1628601719.4035, 54, 0, 4172.821, 4151.795, 4137.436, 4112.821, 4154.359, 0, 0, []
1628601719.4114, 55, 0, 4186.154, 4157.436, 4103.077, 4116.923, 4160, 0, 0, []
1628601719.4194, 56, 0, 4187.692, 4170.769, 4156.923, 4127.692, 4157.949, 0, 0, []
1628601719.4272, 57, 0, 4181.538, 4172.821, 4104.615, 4121.026, 4154.359, 0, 0, []
1628601719.435, 58, 0, 4182.564, 4164.103, 4154.359, 4125.641, 4158.974, 0, 0, []
1628601719.4429, 59, 0, 4186.154, 4154.359, 4140.513, 4135.897, 4165.641, 0, 0, []
1628601719.4507, 60, 0, 4184.615, 4150.256, 4101.026, 4129.744, 4168.718, 0, 0, []
1628601719.4586, 61, 0, 4187.179, 4152.821, 4173.846, 4135.897, 4173.333, 0, 0, []
1628601719.4663, 62, 0, 4196.923, 4162.051, 4112.821, 4149.231, 4177.436, 0, 0, []
1628601719.4742, 63, 0, 4196.41, 4170.256, 4140.513, 4150.769, 4173.846, 0, 0, []
1628601719.482, 64, 0, 4186.154, 4177.436, 4144.615, 4136.923, 4166.667, 450, 0, []
1628601719.4899, 65, 0, 4186.667, 4168.205, 4095.385, 4125.128, 4166.667, 450, 0, []
1628601719.4977, 66, 0, 4191.282, 4149.231, 4167.692, 4130.256, 4170.256, 16188, 0, []
1628601719.5056, 67, 0, 4187.179, 4162.051, 4117.949, 4128.718, 4164.615, 450, 0, []
1628601719.5135, 68, 0, 4178.462, 4182.564, 4132.308, 4133.333, 4154.359, 16157, 0, []
1628601719.5214, 69, 0, 4177.436, 4168.718, 4146.154, 4141.026, 4152.821, 450, 0, []
1628601719.5292, 70, 0, 4182.564, 4149.231, 4095.385, 4135.385, 4156.923, 16201, 0, []
1628601719.5372, 71, 0, 4182.564, 4149.231, 4165.128, 4143.59, 4160.513, 450, 0, []
1628601719.545, 72, 0, 4178.974, 4148.718, 4118.462, 4149.231, 4164.615, 450, 0, []
1628601719.553, 73, 0, 4184.615, 4157.436, 4127.179, 4142.051, 4170.769, 16082, 0, []
1628601719.5609, 74, 0, 4188.205, 4177.949, 4160.513, 4123.59, 4169.744, 450, 0, []
1628601719.5689, 75, 0, 4179.487, 4174.872, 4100, 4110.256, 4165.128, 16197, 0, []
1628601719.5768, 76, 0, 4181.538, 4162.564, 4159.487, 4126.667, 4171.795, 450, 0, []
1628601719.5847, 77, 0, 4187.692, 4169.231, 4117.949, 4125.641, 4173.333, 450, 0, []
1628601719.5926, 78, 0, 4175.897, 4174.872, 4125.641, 4114.872, 4161.026, 450, 0, []
1628601719.6004, 79, 0, 4172.308, 4169.744, 4172.821, 4134.359, 4159.487, 16197, 0, []
1628601719.6083, 80, 0, 4184.615, 4165.641, 4087.179, 4152.308, 4171.795, 450, 0, []
1628601719.6161, 81, 0, 4187.179, 4168.205, 4140.513, 4150.769, 4172.821, 450, 0, []
1628601719.6239, 82, 0, 4181.026, 4181.026, 4131.282, 4143.59, 4166.667, 450, 0, []
1628601719.6317, 83, 0, 4185.128, 4187.692, 4121.026, 4149.231, 4174.872, 16197, 0, []
1628601719.6396, 84, 0, 4190.769, 4179.487, 4166.667, 4166.154, 4183.077, 450, 0, []
1628601719.6474, 85, 0, 4190.256, 4169.231, 4092.821, 4163.59, 4176.41, 450, 0, []
1628601719.6554, 86, 0, 4182.051, 4153.846, 4141.026, 4146.154, 4162.051, 450, 0, []
1628601719.6633, 87, 0, 4162.051, 4148.205, 4127.692, 4132.308, 4142.051, 16197, 0, []
1628601719.6712, 88, 0, 4151.795, 4161.026, 4104.615, 4137.436, 4134.872, 450, 0, []
1628601719.6791, 89, 0, 4157.949, 4157.436, 4161.026, 4145.641, 4149.744, 450, 0, []
1628601719.6871, 90, 0, 4156.41, 4146.154, 4092.308, 4138.462, 4151.795, 450, 0, []
1628601719.695, 91, 0, 4150.256, 4149.744, 4143.59, 4139.487, 4141.026, 16197, 0, []
1628601719.703, 92, 0, 4152.308, 4154.359, 4152.308, 4137.949, 4146.667, 450, 0, []
1628601719.7108, 93, 0, 4152.308, 4163.59, 4102.051, 4133.333, 4148.205, 450, 0, []
1628601719.7188, 94, 0, 4151.282, 4183.077, 4154.872, 4147.179, 4136.41, 450, 0, []
1628601719.7267, 95, 0, 4153.846, 4188.205, 4103.59, 4149.744, 4135.385, 16197, 0, []
1628601719.7347, 96, 0, 4149.231, 4181.538, 4140.513, 4143.077, 4137.949, 450, 0, []
1628601719.7426, 97, 0, 4144.103, 4172.821, 4145.128, 4141.538, 4129.744, 450, 0, []
1628601719.7504, 98, 0, 4148.205, 4161.538, 4093.333, 4138.462, 4129.744, 450, 0, []
1628601719.7583, 99, 0, 4160, 4176.923, 4169.744, 4143.59, 4145.641, 16197, 0, []
1628601719.7661, 100, 0, 4168.205, 4197.436, 4122.051, 4147.692, 4152.821, 450, 0, []
1628601719.774, 101, 0, 4167.179, 4189.231, 4136.41, 4146.154, 4144.103, 450, 0, []
1628601719.7818, 102, 0, 4167.179, 4180.513, 4156.923, 4140.513, 4143.59, 450, 0, []
1628601719.7896, 103, 0, 4180.513, 4180.513, 4097.949, 4135.897, 4155.897, 16197, 0, []
1628601719.7974, 104, 0, 4198.462, 4178.462, 4163.077, 4144.615, 4162.051, 450, 0, []
1628601719.8053, 105, 0, 4204.615, 4181.538, 4124.615, 4144.103, 4158.462, 450, 0, []
1628601719.8131, 106, 0, 4207.692, 4198.462, 4138.462, 4148.205, 4162.051, 450, 0, []
1628601719.821, 107, 0, 4215.897, 4213.333, 4169.231, 4164.103, 4175.385, 16197, 0, []
1628601719.8287, 108, 0, 4222.564, 4215.897, 4102.051, 4162.051, 4182.564, 450, 0, []
1628601719.8367, 109, 0, 4227.179, 4207.179, 4170.256, 4152.308, 4178.462, 450, 0, []
1628601719.8446, 110, 0, 4242.051, 4187.692, 4138.974, 4144.615, 4186.154, 450, 0, []
1628601719.8526, 111, 0, 4272.308, 4191.795, 4130.256, 4151.282, 4221.026, 16197, 0, []
1628601719.8605, 112, 0, 4313.846, 4215.385, 4171.282, 4162.564, 4262.051, 450, 0, []
1628601719.8684, 113, 0, 4364.103, 4212.308, 4106.154, 4154.359, 4302.051, 450, 0, []
1628601719.8763, 114, 0, 4413.333, 4196.41, 4168.205, 4156.923, 4348.718, 450, 0, []
1628601719.8843, 115, 0, 4444.103, 4199.487, 4143.077, 4157.436, 4379.487, 16197, 0, []
1628601719.8922, 116, 0, 4447.179, 4203.077, 4116.41, 4148.718, 4382.564, 450, 0, []
1628601719.9, 117, 0, 4438.974, 4206.667, 4166.667, 4147.179, 4376.41, 450, 0, []
1628601719.9078, 118, 0, 4426.154, 4218.462, 4106.154, 4140.513, 4367.692, 450, 0, []
1628601719.9156, 119, 0, 4404.103, 4219.487, 4157.436, 4143.59, 4358.462, 16197, 0, []
1628601719.9235, 120, 0, 4381.538, 4224.103, 4149.744, 4153.846, 4343.59, 450, 0, []
1628601719.9313, 121, 0, 4362.051, 4231.282, 4122.564, 4154.359, 4318.974, 450, 0, []
1628601719.9392, 122, 0, 4333.333, 4211.282, 4175.385, 4154.359, 4291.795, 450, 0, []
1628601719.9469, 123, 0, 4308.718, 4202.051, 4107.179, 4158.462, 4273.846, 16197, 0, []
1628601719.9548, 124, 0, 4306.667, 4214.359, 4149.231, 4171.795, 4269.231, 450, 0, []
1628601719.9626, 125, 0, 4302.564, 4213.846, 4150.256, 4176.923, 4263.59, 450, 0, []
1628601719.9706, 126, 0, 4288.205, 4221.026, 4115.897, 4172.308, 4249.744, 450, 0, []
1628601719.9785, 127, 0, 4288.205, 4236.923, 4184.103, 4168.205, 4246.154, 16197, 0, []
1628601719.9864, 128, 0, 4297.436, 4228.718, 4111.282, 4155.897, 4255.897, 450, 0, []
1628601719.9943, 0, 0, 4296.41, 4213.333, 4134.359, 4151.282, 4255.897, 450, 0, []
1628601720.0023, 1, 0, 4293.846, 4218.462, 4156.923, 4155.385, 4246.667, 450, 0, []
1628601720.0102, 2, 0, 4294.359, 4218.974, 4102.051, 4153.333, 4247.179, 16188, 0, []
1628601720.0182, 3, 0, 4293.333, 4215.385, 4160, 4155.897, 4253.846, 450, 0, []
1628601720.026, 4, 0, 4287.179, 4229.231, 4115.385, 4149.231, 4250.256, 16157, 0, []
1628601720.034, 5, 0, 4266.667, 4231.795, 4143.077, 4128.205, 4223.077, 450, 0, []
1628601720.0419, 6, 0, 4244.103, 4212.308, 4163.077, 4104.615, 4197.436, 16205, 0, []
1628601720.0499, 7, 0, 4242.564, 4202.564, 4094.359, 4098.974, 4200.513, 450, 0, []
1628601720.0578, 8, 0, 4249.744, 4202.564, 4154.359, 4114.872, 4208.205, 450, 0, []
1628601720.0655, 9, 0, 4243.59, 4208.205, 4117.436, 4113.333, 4197.436, 16083, 0, []
1628601720.0734, 10, 0, 4240, 4221.026, 4130.769, 4122.051, 4195.385, 450, 0, []
1628601720.0812, 11, 0, 4248.205, 4207.179, 4157.949, 4149.231, 4204.103, 16196, 0, []
1628601720.0891, 12, 0, 4246.154, 4182.564, 4087.179, 4153.846, 4196.41, 450, 0, []
1628601720.0969, 13, 0, 4236.41, 4202.051, 4153.846, 4161.538, 4188.205, 450, 0, []
1628601720.1047, 14, 0, 4235.385, 4225.128, 4125.128, 4171.282, 4194.359, 450, 0, []
