Timestamp, COUNTER, INTERPOLATED, AF3, T7, Pz, T8, AF4, RAW_CQ, MARKER_HARDWARE, MARKERS
1627802594.8055, 125, 0, 4200.513, 4215.385, 4168.718, 4168.718, 4207.179, 450, 0, []
1627802594.8134, 126, 0, 4187.179, 4227.692, 4184.103, 4170.256, 4196.41, 450, 0, []
1627802594.8212, 127, 0, 4191.282, 4238.462, 4181.026, 4169.231, 4187.179, 16202, 0, []
1627802594.8291, 128, 0, 4198.462, 4247.692, 4166.154, 4164.615, 4186.154, 450, 0, []
1627802594.8368, 0, 0, 4194.359, 4231.282, 4183.077, 4172.821, 4191.282, 450, 0, []
1627802594.8448, 1, 0, 4186.667, 4210.256, 4159.487, 4174.359, 4184.103, 450, 0, []
1627802594.8527, 2, 0, 4176.41, 4233.846, 4176.41, 4164.615, 4169.744, 16184, 0, []
1627802594.8607, 3, 0, 4167.179, 4253.333, 4170.256, 4165.641, 4165.641, 450, 0, []
1627802594.8686, 4, 0, 4171.282, 4237.949, 4158.974, 4180.513, 4171.795, 16154, 0, []
1627802594.8765, 5, 0, 4177.436, 4224.103, 4194.872, 4190.769, 4174.872, 450, 0, []
1627802594.8844, 6, 0, 4172.308, 4219.487, 4166.154, 4191.282, 4169.231, 289, 0, []
1627802594.8924, 7, 0, 4167.179, 4223.59, 4171.795, 4191.282, 4161.026, 450, 0, []
1627802594.9003, 8, 0, 4171.795, 4227.179, 4180, 4181.026, 4161.538, 450, 0, []
1627802594.9081, 9, 0, 4180.513, 4234.872, 4161.538, 4170.256, 4165.641, 16163, 0, []
1627802594.9159, 10, 0, 4182.051, 4250.769, 4192.308, 4172.821, 4162.051, 450, 0, []
1627802594.9237, 11, 0, 4163.59, 4239.487, 4170.256, 4162.051, 4144.103, 16194, 0, []
1627802594.9316, 12, 0, 4149.744, 4206.154, 4170.256, 4148.205, 4130.256, 450, 0, []
1627802594.9394, 13, 0, 4163.077, 4217.436, 4188.205, 4160, 4141.026, 450, 0, []
1627802594.9473, 14, 0, 4175.385, 4253.846, 4177.436, 4169.744, 4156.923, 450, 0, []
1627802594.9551, 15, 0, 4169.231, 4246.667, 4201.538, 4171.795, 4155.385, 16194, 0, []
1627802594.9629, 16, 0, 4166.667, 4222.051, 4183.077, 4187.692, 4147.692, 0, 0, []
1627802594.9707, 17, 0, 4173.846, 4226.667, 4188.718, 4192.821, 4152.308, 0, 0, []
1627802594.9786, 18, 0, 4170.256, 4246.154, 4196.41, 4175.897, 4155.897, 0, 0, []
1627802594.9864, 19, 0, 4151.795, 4238.462, 4163.077, 4165.128, 4142.564, 0, 0, []
1627802594.9944, 20, 0, 4137.949, 4226.154, 4185.128, 4169.231, 4133.846, 0, 0, []
1627802595.0022, 21, 0, 4134.872, 4240, 4170.256, 4170.256, 4145.128, 0, 0, []
1627802595.0102, 22, 0, 4140.513, 4240, 4173.333, 4170.256, 4152.821, 0, 0, []
1627802595.0181, 23, 0, 4139.487, 4223.59, 4197.949, 4168.718, 4143.59, 0, 0, []
1627802595.0261, 24, 0, 4126.667, 4218.974, 4161.026, 4165.128, 4134.359, 0, 0, []
1627802595.034, 25, 0, 4127.692, 4207.179, 4173.333, 4173.846, 4136.923, 0, 0, []
1627802595.0419, 26, 0, 4140.513, 4202.564, 4169.744, 4175.897, 4140.513, 0, 0, []
1627802595.0498, 27, 0, 4137.436, 4231.795, 4164.615, 4167.692, 4140.513, 0, 0, []
1627802595.0578, 28, 0, 4133.333, 4242.051, 4178.974, 4160.513, 4147.179, 0, 0, []
1627802595.0657, 29, 0, 4140, 4235.385, 4149.231, 4151.282, 4149.231, 0, 0, []
1627802595.0735, 30, 0, 4134.359, 4246.154, 4172.308, 4156.923, 4143.077, 0, 0, []
1627802595.0813, 31, 0, 4127.179, 4247.179, 4162.564, 4170.256, 4143.59, 0, 0, []
1627802595.0891, 32, 0, 4147.179, 4230.256, 4145.128, 4178.462, 4152.821, 0, 0, []
1627802595.097, 33, 0, 4164.103, 4235.897, 4176.41, 4183.077, 4156.41, 0, 0, []
1627802595.1048, 34, 0, 4152.308, 4239.487, 4154.872, 4176.923, 4151.282, 0, 0, []
1627802595.1127, 35, 0, 4134.872, 4217.436, 4163.077, 4169.231, 4144.615, 0, 0, []
1627802595.1204, 36, 0, 4127.692, 4215.385, 4161.538, 4160, 4135.385, 0, 0, []
1627802595.1283, 37, 0, 4124.103, 4231.282, 4152.821, 4148.718, 4130.769, 0, 0, []
1627802595.1361, 38, 0, 4123.077, 4237.949, 4177.949, 4150.769, 4133.846, 0, 0, []
1627802595.1441, 39, 0, 4125.641, 4237.949, 4151.282, 4166.154, 4134.359, 0, 0, []
1627802595.152, 40, 0, 4124.103, 4219.487, 4170.256, 4181.026, 4132.308, 0, 0, []
1627802595.1599, 41, 0, 4113.846, 4202.051, 4176.923, 4176.923, 4126.667, 0, 0, []
1627802595.1678, 42, 0, 4112.308, 4226.154, 4152.308, 4165.128, 4123.077, 0, 0, []
1627802595.1758, 43, 0, 4123.077, 4244.103, 4181.538, 4167.692, 4128.205, 0, 0, []
1627802595.1837, 44, 0, 4127.692, 4215.897, 4167.692, 4173.846, 4136.923, 0, 0, []
1627802595.1917, 45, 0, 4126.667, 4210.256, 4175.897, 4174.359, 4144.103, 0, 0, []
1627802595.1995, 46, 0, 4127.179, 4242.564, 4180.513, 4170.256, 4141.538, 0, 0, []
1627802595.2075, 47, 0, 4124.615, 4253.333, 4152.308, 4172.821, 4136.41, 0, 0, []
1627802595.2154, 48, 0, 4122.051, 4244.103, 4177.949, 4186.154, 4138.974, 0, 0, []
1627802595.2234, 49, 0, 4121.026, 4230.256, 4160.513, 4185.128, 4136.41, 0, 0, []
1627802595.2313, 50, 0, 4113.846, 4217.436, 4156.923, 4166.154, 4123.59, 0, 0, []
1627802595.239, 51, 0, 4111.282, 4220, 4169.744, 4158.462, 4118.974, 0, 0, []
1627802595.2469, 52, 0, 4114.872, 4231.282, 4149.231, 4161.026, 4122.564, 0, 0, []
1627802595.2547, 53, 0, 4121.026, 4246.154, 4176.41, 4161.538, 4129.744, 0, 0, []
1627802595.2626, 54, 0, 4133.333, 4263.59, 4164.103, 4168.718, 4145.641, 0, 0, []
1627802595.2704, 55, 0, 4141.538, 4264.615, 4166.154, 4183.59, 4153.333, 0, 0, []
1627802595.2782, 56, 0, 4142.564, 4241.538, 4190.256, 4186.667, 4149.744, 0, 0, []
1627802595.286, 57, 0, 4139.487, 4232.308, 4166.154, 4178.974, 4146.667, 0, 0, []
1627802595.2939, 58, 0, 4130.256, 4248.718, 4183.077, 4178.974, 4143.59, 0, 0, []
1627802595.3017, 59, 0, 4122.564, 4254.359, 4166.154, 4174.872, 4135.897, 0, 0, []
1627802595.3096, 60, 0, 4123.077, 4253.333, 4165.128, 4164.103, 4125.641, 0, 0, []
1627802595.3173, 61, 0, 4132.308, 4255.897, 4196.923, 4168.718, 4125.641, 0, 0, []
1627802595.3253, 62, 0, 4132.308, 4254.872, 4161.538, 4183.077, 4134.359, 0, 0, []
1627802595.3332, 63, 0, 4128.205, 4269.744, 4168.205, 4192.821, 4135.385, 0, 0, []
1627802595.3412, 64, 0, 4131.282, 4285.641, 4167.179, 4189.744, 4126.667, 450, 0, []
1627802595.3491, 65, 0, 4136.923, 4265.641, 4165.128, 4189.744, 4130.769, 450, 0, []
1627802595.357, 66, 0, 4140, 4259.487, 4195.897, 4199.487, 4147.692, 16184, 0, []
1627802595.3649, 67, 0, 4138.462, 4274.359, 4170.256, 4197.436, 4148.205, 450, 0, []
1627802595.3729, 68, 0, 4136.923, 4262.564, 4177.436, 4182.051, 4136.41, 16148, 0, []
1627802595.3808, 69, 0, 4143.077, 4275.385, 4173.846, 4174.872, 4142.051, 450, 0, []
1627802595.3887, 70, 0, 4153.333, 4303.077, 4157.949, 4180.513, 4155.897, 291, 0, []
1627802595.3965, 71, 0, 4155.897, 4282.564, 4177.436, 4182.564, 4150.769, 450, 0, []
1627802595.4043, 72, 0, 4150.256, 4259.487, 4152.821, 4177.949, 4141.538, 450, 0, []
1627802595.4122, 73, 0, 4147.692, 4269.744, 4170.769, 4175.897, 4143.077, 16163, 0, []
1627802595.42, 74, 0, 4145.641, 4269.744, 4170.769, 4176.41, 4144.615, 450, 0, []
1627802595.4279, 75, 0, 4138.974, 4256.923, 4137.949, 4175.897, 4137.436, 16194, 0, []
1627802595.4356, 76, 0, 4139.487, 4267.692, 4170.256, 4179.487, 4133.846, 450, 0, []
1627802595.4435, 77, 0, 4147.179, 4278.462, 4156.923, 4178.974, 4138.462, 450, 0, []
1627802595.4513, 78, 0, 4150.256, 4270.769, 4160.513, 4178.462, 4141.538, 450, 0, []
1627802595.4592, 79, 0, 4159.487, 4265.128, 4188.205, 4191.795, 4148.205, 16194, 0, []
1627802595.467, 80, 0, 4170.769, 4270.769, 4183.077, 4200.513, 4158.462, 450, 0, []
1627802595.4749, 81, 0, 4165.641, 4280, 4194.872, 4195.897, 4158.974, 450, 0, []
1627802595.4828, 82, 0, 4156.41, 4272.821, 4160, 4189.744, 4155.897, 450, 0, []
1627802595.4908, 83, 0, 4165.641, 4280.513, 4170.769, 4188.205, 4167.179, 16194, 0, []
1627802595.4987, 84, 0, 4176.41, 4302.051, 4191.282, 4185.128, 4176.41, 450, 0, []
1627802595.5067, 85, 0, 4163.59, 4299.487, 4157.436, 4174.872, 4162.564, 450, 0, []
1627802595.5145, 86, 0, 4153.846, 4285.641, 4188.718, 4170.256, 4153.846, 450, 0, []
1627802595.5225, 87, 0, 4155.897, 4282.564, 4181.026, 4166.154, 4161.026, 16194, 0, []
1627802595.5304, 88, 0, 4159.487, 4296.41, 4168.718, 4165.641, 4163.59, 450, 0, []
1627802595.5384, 89, 0, 4163.077, 4300.513, 4178.974, 4166.154, 4158.974, 450, 0, []
1627802595.5463, 90, 0, 4167.692, 4274.359, 4149.231, 4156.923, 4163.59, 450, 0, []
1627802595.554, 91, 0, 4169.744, 4259.487, 4176.923, 4162.564, 4174.359, 16194, 0, []
1627802595.5619, 92, 0, 4167.179, 4283.59, 4177.436, 4181.026, 4173.333, 450, 0, []
1627802595.5697, 93, 0, 4168.205, 4289.744, 4167.692, 4185.128, 4168.718, 450, 0, []
1627802595.5776, 94, 0, 4173.333, 4268.205, 4175.897, 4177.949, 4170.256, 450, 0, []
1627802595.5854, 95, 0, 4167.692, 4270.256, 4142.051, 4170.769, 4171.282, 16194, 0, []
1627802595.5932, 96, 0, 4153.333, 4273.333, 4160, 4168.718, 4165.641, 450, 0, []
1627802595.601, 97, 0, 4152.821, 4263.59, 4161.538, 4168.718, 4158.974, 450, 0, []
1627802595.609, 98, 0, 4161.538, 4272.821, 4153.333, 4167.179, 4162.051, 450, 0, []
1627802595.6169, 99, 0, 4166.154, 4298.974, 4172.821, 4169.231, 4170.769, 16194, 0, []
1627802595.6249, 100, 0, 4174.359, 4309.231, 4152.308, 4170.769, 4169.231, 450, 0, []
1627802595.6327, 101, 0, 4182.051, 4288.718, 4181.538, 4180, 4164.103, 450, 0, []
1627802595.6407, 102, 0, 4184.103, 4274.872, 4185.128, 4196.923, 4168.718, 450, 0, []
1627802595.6486, 103, 0, 4178.462, 4286.154, 4159.487, 4201.538, 4172.308, 16194, 0, []
1627802595.6566, 104, 0, 4172.821, 4278.974, 4175.897, 4196.41, 4169.231, 450, 0, []
1627802595.6645, 105, 0, 4176.923, 4281.538, 4155.385, 4196.923, 4171.795, 450, 0, []
1627802595.6724, 106, 0, 4188.718, 4303.077, 4178.974, 4199.487, 4186.154, 450, 0, []
1627802595.6803, 107, 0, 4191.282, 4286.154, 4181.026, 4190.256, 4192.821, 16194, 0, []
1627802595.6881, 108, 0, 4181.538, 4262.564, 4149.231, 4187.692, 4178.974, 450, 0, []
1627802595.696, 109, 0, 4168.718, 4265.128, 4177.949, 4199.487, 4161.026, 450, 0, []
1627802595.704, 110, 0, 4156.923, 4255.385, 4154.359, 4198.462, 4155.897, 450, 0, []
1627802595.7119, 111, 0, 4151.795, 4255.897, 4149.231, 4187.692, 4154.359, 16194, 0, []
1627802595.7196, 112, 0, 4153.333, 4287.179, 4161.026, 4176.41, 4151.795, 450, 0, []
1627802595.7275, 113, 0, 4162.051, 4289.744, 4149.744, 4171.795, 4164.103, 450, 0, []
1627802595.7353, 114, 0, 4171.795, 4267.179, 4183.59, 4176.41, 4185.641, 450, 0, []
1627802595.7432, 115, 0, 4170.256, 4270.769, 4179.487, 4181.026, 4188.718, 16194, 0, []
1627802595.751, 116, 0, 4170.769, 4283.077, 4194.872, 4185.128, 4180.513, 450, 0, []
1627802595.7588, 117, 0, 4172.308, 4280.513, 4193.333, 4183.077, 4175.897, 450, 0, []
1627802595.7666, 118, 0, 4164.615, 4262.564, 4140.513, 4175.385, 4171.795, 450, 0, []
1627802595.7746, 119, 0, 4171.282, 4250.769, 4174.359, 4185.641, 4175.385, 16194, 0, []
1627802595.7825, 120, 0, 4188.718, 4266.667, 4184.103, 4195.897, 4185.128, 450, 0, []
1627802595.7905, 121, 0, 4188.718, 4285.641, 4173.333, 4185.641, 4188.205, 450, 0, []
1627802595.7983, 122, 0, 4189.231, 4271.795, 4179.487, 4180, 4187.179, 450, 0, []
1627802595.8063, 123, 0, 4201.538, 4252.308, 4161.538, 4186.667, 4187.692, 16194, 0, []
1627802595.8142, 124, 0, 4198.974, 4260.513, 4186.667, 4187.179, 4183.077, 450, 0, []
1627802595.8222, 125, 0, 4184.103, 4263.59, 4164.103, 4177.949, 4175.897, 450, 0, []
1627802595.8301, 126, 0, 4183.59, 4244.615, 4147.692, 4176.41, 4177.949, 450, 0, []
1627802595.838, 127, 0, 4187.692, 4242.051, 4178.462, 4182.051, 4183.077, 16194, 0, []
1627802595.8459, 128, 0, 4178.974, 4261.026, 4158.462, 4174.359, 4180.513, 450, 0, []
1627802595.8537, 0, 0, 4181.538, 4267.692, 4175.385, 4176.923, 4183.077, 450, 0, []
1627802595.8616, 1, 0, 4196.923, 4252.308, 4171.282, 4189.231, 4196.923, 450, 0, []
1627802595.8694, 2, 0, 4192.308, 4243.077, 4163.59, 4184.103, 4196.923, 16184, 0, []
1627802595.8772, 3, 0, 4187.179, 4256.41, 4191.795, 4182.564, 4191.282, 450, 0, []
1627802595.885, 4, 0, 4204.615, 4262.564, 4164.103, 4190.769, 4201.538, 16148, 0, []
1627802595.8929, 5, 0, 4213.846, 4261.538, 4174.872, 4191.282, 4211.282, 450, 0, []
1627802595.9007, 6, 0, 4201.026, 4268.718, 4171.795, 4185.128, 4202.051, 293, 0, []
1627802595.9086, 7, 0, 4194.872, 4254.359, 4154.872, 4180.513, 4190.256, 450, 0, []
1627802595.9163, 8, 0, 4196.923, 4231.282, 4180.513, 4169.231, 4182.051, 450, 0, []
1627802595.9242, 9, 0, 4187.179, 4234.872, 4150.256, 4154.359, 4166.667, 16163, 0, []
1627802595.932, 10, 0, 4181.538, 4244.615, 4161.538, 4162.564, 4168.718, 450, 0, []
1627802595.94, 11, 0, 4190.769, 4253.333, 4177.949, 4173.333, 4183.59, 16194, 0, []
1627802595.9479, 12, 0, 4198.462, 4258.462, 4170.256, 4166.667, 4182.051, 450, 0, []
1627802595.9558, 13, 0, 4205.128, 4245.128, 4199.487, 4171.282, 4186.667, 450, 0, []
1627802595.9637, 14, 0, 4213.846, 4246.154, 4175.897, 4182.051, 4211.795, 450, 0, []
1627802595.9717, 15, 0, 4217.949, 4254.872, 4182.564, 4182.564, 4216.41, 16194, 0, []
1627802595.9796, 16, 0, 4216.923, 4249.744, 4191.795, 4177.436, 4199.487, 0, 0, []
1627802595.9876, 17, 0, 4212.308, 4261.538, 4168.205, 4174.359, 4198.462, 0, 0, []
1627802595.9954, 18, 0, 4208.205, 4273.846, 4193.846, 4171.795, 4207.692, 0, 0, []
1627802596.0034, 19, 0, 4208.718, 4258.974, 4168.205, 4170.256, 4213.846, 0, 0, []
1627802596.0113, 20, 0, 4204.103, 4255.385, 4162.051, 4171.282, 4211.795, 0, 0, []
1627802596.0191, 21, 0, 4197.436, 4272.821, 4184.615, 4172.308, 4203.077, 0, 0, []
1627802596.027, 22, 0, 4200.513, 4274.359, 4168.718, 4175.897, 4196.923, 0, 0, []
1627802596.0347, 23, 0, 4194.872, 4269.231, 4183.59, 4177.949, 4191.795, 0, 0, []
1627802596.0426, 24, 0, 4182.564, 4255.385, 4160, 4171.795, 4183.077, 0, 0, []
1627802596.0504, 25, 0, 4191.282, 4229.231, 4163.077, 4171.282, 4182.051, 0, 0, []
1627802596.0583, 26, 0, 4206.154, 4235.385, 4185.641, 4175.385, 4187.692, 0, 0, []
1627802596.0661, 27, 0, 4197.436, 4256.41, 4153.333, 4174.872, 4187.692, 0, 0, []
1627802596.074, 28, 0, 4182.564, 4253.846, 4171.795, 4174.359, 4183.59, 0, 0, []
1627802596.0819, 29, 0, 4188.718, 4243.59, 4160, 4174.872, 4182.051, 0, 0, []
1627802596.0899, 30, 0, 4205.641, 4247.179, 4157.949, 4187.692, 4193.846, 0, 0, []
1627802596.0978, 31, 0, 4213.846, 4254.872, 4192.821, 4205.128, 4209.231, 0, 0, []
1627802596.1058, 32, 0, 4205.128, 4261.538, 4159.487, 4191.282, 4199.487, 0, 0, []
1627802596.1136, 33, 0, 4191.795, 4264.103, 4165.641, 4168.205, 4182.051, 0, 0, []
1627802596.1216, 34, 0, 4191.795, 4248.205, 4174.359, 4174.359, 4190.256, 0, 0, []
1627802596.1295, 35, 0, 4198.974, 4239.487, 4178.462, 4192.308, 4202.051, 0, 0, []
1627802596.1375, 36, 0, 4195.385, 4249.744, 4191.795, 4197.436, 4194.359, 0, 0, []
1627802596.1454, 37, 0, 4183.077, 4247.179, 4150.769, 4191.282, 4181.538, 0, 0, []
1627802596.1533, 38, 0, 4182.051, 4237.436, 4171.795, 4191.795, 4183.59, 0, 0, []
1627802596.1612, 39, 0, 4196.41, 4250.769, 4176.923, 4195.897, 4197.436, 0, 0, []
1627802596.169, 40, 0, 4201.026, 4266.154, 4158.462, 4190.769, 4196.41, 0, 0, []
1627802596.1769, 41, 0, 4191.282, 4260.513, 4185.128, 4183.077, 4188.718, 0, 0, []
1627802596.1847, 42, 0, 4185.641, 4248.205, 4163.077, 4181.538, 4188.718, 0, 0, []
1627802596.1925, 43, 0, 4195.897, 4238.974, 4181.538, 4189.744, 4191.795, 0, 0, []
1627802596.2003, 44, 0, 4204.103, 4241.538, 4188.205, 4193.333, 4194.872, 0, 0, []
1627802596.2082, 45, 0, 4200, 4250.256, 4159.487, 4189.744, 4202.051, 0, 0, []
1627802596.216, 46, 0, 4192.821, 4240, 4182.564, 4186.667, 4201.026, 0, 0, []
1627802596.2239, 47, 0, 4187.692, 4222.564, 4163.59, 4176.41, 4184.103, 0, 0, []
1627802596.2316, 48, 0, 4194.359, 4242.051, 4175.385, 4168.718, 4182.051, 0, 0, []
1627802596.2396, 49, 0, 4207.179, 4260.513, 4190.769, 4174.872, 4193.846, 0, 0, []
1627802596.2475, 50, 0, 4196.923, 4233.846, 4160, 4173.846, 4186.667, 0, 0, []
1627802596.2555, 51, 0, 4171.795, 4210.256, 4171.282, 4168.205, 4164.615, 0, 0, []
1627802596.2634, 52, 0, 4160, 4212.821, 4153.333, 4172.821, 4154.872, 0, 0, []
1627802596.2713, 53, 0, 4166.154, 4224.103, 4165.128, 4183.077, 4168.205, 0, 0, []
1627802596.2792, 54, 0, 4179.487, 4237.436, 4180.513, 4183.077, 4183.077, 0, 0, []
1627802596.2872, 55, 0, 4179.487, 4230.769, 4151.795, 4169.744, 4184.103, 0, 0, []
1627802596.2951, 56, 0, 4176.41, 4207.179, 4185.128, 4166.667, 4183.077, 0, 0, []
1627802596.3031, 57, 0, 4188.205, 4228.718, 4187.179, 4178.462, 4189.231, 0, 0, []
1627802596.3109, 58, 0, 4192.821, 4267.179, 4186.667, 4189.231, 4191.282, 0, 0, []
1627802596.3187, 59, 0, 4175.897, 4243.077, 4194.359, 4189.744, 4180, 0, 0, []
1627802596.3266, 60, 0, 4160.513, 4222.051, 4161.026, 4184.615, 4162.051, 0, 0, []
1627802596.3344, 61, 0, 4169.231, 4258.974, 4186.154, 4193.846, 4158.974, 0, 0, []
1627802596.3423, 62, 0, 4182.564, 4268.718, 4178.974, 4204.103, 4173.333, 0, 0, []
1627802596.35, 63, 0, 4186.154, 4235.897, 4165.128, 4195.897, 4185.641, 0, 0, []
1627802596.3579, 64, 0, 4185.128, 4249.231, 4180, 4184.615, 4187.692, 450, 0, []
1627802596.3657, 65, 0, 4192.821, 4284.615, 4155.897, 4182.051, 4182.051, 450, 0, []
1627802596.3736, 66, 0, 4206.667, 4273.846, 4191.795, 4189.231, 4181.538, 16184, 0, []
1627802596.3814, 67, 0, 4206.667, 4251.795, 4194.872, 4187.692, 4184.615, 450, 0, []
1627802596.3892, 68, 0, 4196.923, 4258.462, 4171.282, 4185.128, 4180.513, 16148, 0, []
1627802596.397, 69, 0, 4198.462, 4272.308, 4190.256, 4193.846, 4176.41, 450, 0, []
1627802596.405, 70, 0, 4202.051, 4264.103, 4170.769, 4193.846, 4178.974, 292, 0, []
1627802596.4129, 71, 0, 4192.308, 4234.872, 4184.103, 4187.692, 4178.974, 450, 0, []
1627802596.4209, 72, 0, 4178.462, 4238.974, 4173.846, 4186.667, 4172.308, 450, 0, []
1627802596.4288, 73, 0, 4173.333, 4264.103, 4159.487, 4188.718, 4163.59, 16163, 0, []
1627802596.4367, 74, 0, 4163.59, 4251.282, 4183.59, 4182.564, 4147.179, 450, 0, []
1627802596.4446, 75, 0, 4149.744, 4231.795, 4140.513, 4167.692, 4137.436, 16194, 0, []
1627802596.4526, 76, 0, 4157.436, 4254.359, 4152.821, 4167.179, 4150.769, 450, 0, []
1627802596.4605, 77, 0, 4169.744, 4265.641, 4173.846, 4172.821, 4159.487, 450, 0, []
1627802596.4685, 78, 0, 4168.205, 4245.641, 4153.846, 4172.821, 4151.282, 450, 0, []
1627802596.4763, 79, 0, 4175.897, 4259.487, 4179.487, 4180, 4158.974, 16194, 0, []
1627802596.4841, 80, 0, 4191.282, 4271.795, 4166.667, 4188.205, 4180.513, 450, 0, []
1627802596.492, 81, 0, 4186.154, 4253.333, 4173.333, 4185.128, 4180.513, 450, 0, []
1627802596.4998, 82, 0, 4181.538, 4254.359, 4180, 4176.923, 4166.667, 450, 0, []
1627802596.5077, 83, 0, 4194.872, 4273.333, 4160, 4176.41, 4166.154, 16194, 0, []
1627802596.5154, 84, 0, 4192.821, 4268.205, 4181.538, 4180.513, 4170.769, 450, 0, []
1627802596.5233, 85, 0, 4177.436, 4250.769, 4155.385, 4182.051, 4169.231, 450, 0, []
1627802596.5311, 86, 0, 4170.256, 4248.718, 4156.41, 4183.59, 4161.026, 450, 0, []
1627802596.5391, 87, 0, 4167.692, 4250.256, 4171.282, 4176.923, 4150.769, 16194, 0, []
1627802596.547, 88, 0, 4174.872, 4250.769, 4151.282, 4173.846, 4155.897, 450, 0, []
1627802596.5549, 89, 0, 4189.744, 4238.974, 4184.615, 4187.179, 4172.308, 450, 0, []
1627802596.5628, 90, 0, 4188.718, 4220.513, 4167.692, 4189.231, 4171.282, 450, 0, []
1627802596.5708, 91, 0, 4171.795, 4233.333, 4157.436, 4174.872, 4154.359, 16194, 0, []
1627802596.5787, 92, 0, 4175.897, 4270.769, 4185.128, 4181.026, 4152.308, 450, 0, []
1627802596.5867, 93, 0, 4192.308, 4282.564, 4166.667, 4196.41, 4165.641, 450, 0, []
1627802596.5945, 94, 0, 4196.41, 4253.333, 4186.154, 4196.923, 4175.385, 450, 0, []
1627802596.6025, 95, 0, 4192.821, 4242.051, 4175.897, 4188.718, 4173.846, 16194, 0, []
1627802596.6104, 96, 0, 4181.538, 4265.641, 4165.128, 4178.974, 4162.051, 450, 0, []
1627802596.6184, 97, 0, 4175.385, 4262.564, 4183.077, 4173.846, 4154.872, 450, 0, []
1627802596.6263, 98, 0, 4187.179, 4228.718, 4157.949, 4181.026, 4163.59, 450, 0, []
1627802596.634, 99, 0, 4195.385, 4243.077, 4182.564, 4193.333, 4175.385, 16194, 0, []
1627802596.6419, 100, 0, 4185.641, 4275.385, 4177.949, 4187.692, 4171.282, 450, 0, []
1627802596.6497, 101, 0, 4180, 4248.205, 4158.462, 4175.385, 4163.59, 450, 0, []
1627802596.6576, 102, 0, 4188.718, 4231.795, 4187.692, 4178.974, 4176.41, 450, 0, []
1627802596.6654, 103, 0, 4194.359, 4261.026, 4170.769, 4181.026, 4186.667, 16194, 0, []
1627802596.6732, 104, 0, 4194.359, 4252.821, 4181.026, 4178.462, 4177.949, 450, 0, []
1627802596.681, 105, 0, 4189.231, 4223.59, 4178.462, 4180.513, 4171.282, 450, 0, []
1627802596.6889, 106, 0, 4184.103, 4242.564, 4174.359, 4189.744, 4180, 450, 0, []
1627802596.6967, 107, 0, 4190.256, 4278.462, 4212.308, 4199.487, 4193.333, 16194, 0, []
1627802596.7046, 108, 0, 4191.282, 4278.974, 4181.538, 4191.282, 4200, 450, 0, []
1627802596.7123, 109, 0, 4186.667, 4251.795, 4182.564, 4178.462, 4198.462, 450, 0, []
1627802596.7203, 110, 0, 4191.795, 4232.821, 4185.641, 4178.462, 4186.667, 450, 0, []
1627802596.7282, 111, 0, 4195.897, 4242.564, 4169.231, 4186.154, 4181.538, 16194, 0, []
1627802596.7362, 112, 0, 4193.846, 4252.821, 4198.462, 4186.667, 4194.359, 450, 0, []
1627802596.7441, 113, 0, 4187.692, 4244.615, 4169.231, 4175.897, 4203.077, 450, 0, []
1627802596.752, 114, 0, 4186.154, 4238.462, 4168.205, 4174.359, 4197.949, 450, 0, []
1627802596.7599, 115, 0, 4193.333, 4246.154, 4179.487, 4180.513, 4192.308, 16194, 0, []
1627802596.7679, 116, 0, 4199.487, 4248.205, 4165.128, 4175.897, 4192.308, 450, 0, []
1627802596.7758, 117, 0, 4200.513, 4237.949, 4196.923, 4172.308, 4193.846, 450, 0, []
1627802596.7837, 118, 0, 4203.077, 4240.513, 4172.308, 4176.41, 4197.436, 450, 0, []
1627802596.7915, 119, 0, 4208.718, 4249.744, 4165.128, 4183.59, 4201.538, 16194, 0, []
1627802596.7993, 120, 0, 4206.154, 4237.436, 4181.538, 4188.205, 4198.974, 450, 0, []
1627802596.8072, 121, 0, 4198.462, 4228.718, 4163.077, 4183.59, 4196.923, 450, 0, []
1627802596.815, 122, 0, 4195.897, 4253.333, 4187.179, 4178.974, 4200.513, 450, 0, []
1627802596.8229, 123, 0, 4205.641, 4272.821, 4169.744, 4184.615, 4204.615, 16194, 0, []
1627802596.8306, 124, 0, 4215.897, 4250.769, 4165.641, 4188.205, 4197.949, 450, 0, []
1627802596.8385, 125, 0, 4207.692, 4215.385, 4178.974, 4175.897, 4180, 450, 0, []
1627802596.8463, 126, 0, 4196.41, 4216.41, 4151.282, 4164.103, 4173.846, 450, 0, []
1627802596.8542, 127, 0, 4204.615, 4248.718, 4184.615, 4178.462, 4187.179, 16194, 0, []
1627802596.862, 128, 0, 4213.333, 4258.974, 4180.513, 4191.282, 4191.282, 450, 0, []
1627802596.8699, 0, 0, 4208.718, 4245.641, 4166.667, 4182.564, 4178.974, 450, 0, []
1627802596.8778, 1, 0, 4203.077, 4237.436, 4187.179, 4176.923, 4175.897, 450, 0, []
1627802596.8858, 2, 0, 4197.949, 4243.59, 4161.538, 4185.128, 4182.564, 16184, 0, []
1627802596.8937, 3, 0, 4196.923, 4257.949, 4179.487, 4195.897, 4185.641, 450, 0, []
1627802596.9017, 4, 0, 4201.538, 4256.41, 4176.923, 4194.359, 4187.179, 16148, 0, []
1627802596.9095, 5, 0, 4198.974, 4230.769, 4158.974, 4188.205, 4182.051, 450, 0, []
1627802596.9175, 6, 0, 4188.205, 4223.077, 4173.333, 4188.718, 4171.795, 293, 0, []
1627802596.9254, 7, 0, 4180.513, 4246.154, 4151.282, 4188.718, 4167.179, 450, 0, []
1627802596.9334, 8, 0, 4186.154, 4241.538, 4178.974, 4189.231, 4171.282, 450, 0, []
1627802596.9413, 9, 0, 4194.872, 4209.744, 4182.564, 4184.615, 4174.872, 16163, 0, []
1627802596.949, 10, 0, 4200.513, 4213.846, 4168.718, 4185.641, 4178.462, 450, 0, []
1627802596.9569, 11, 0, 4203.59, 4240.513, 4204.103, 4201.026, 4191.795, 16194, 0, []
1627802596.9647, 12, 0, 4202.564, 4237.436, 4176.41, 4203.077, 4200, 450, 0, []
1627802596.9726, 13, 0, 4201.538, 4224.615, 4172.821, 4189.231, 4194.359, 450, 0, []
1627802596.9804, 14, 0, 4200.513, 4227.179, 4174.359, 4177.949, 4181.538, 450, 0, []
1627802596.9882, 15, 0, 4201.026, 4218.974, 4158.974, 4169.231, 4171.795, 16194, 0, []
1627802596.996, 16, 0, 4205.128, 4203.59, 4183.59, 4168.205, 4171.282, 0, 0, []
1627802597.0039, 17, 0, 4204.615, 4208.718, 4155.385, 4174.872, 4174.359, 0, 0, []
1627802597.0117, 18, 0, 4200, 4225.641, 4167.179, 4186.154, 4180.513, 0, 0, []
1627802597.0197, 19, 0, 4203.59, 4236.923, 4188.205, 4194.359, 4186.667, 0, 0, []
1627802597.0275, 20, 0, 4204.103, 4237.949, 4155.897, 4190.256, 4184.103, 0, 0, []
1627802597.0355, 21, 0, 4189.744, 4221.026, 4165.641, 4175.385, 4166.154, 0, 0, []
1627802597.0434, 22, 0, 4183.59, 4196.41, 4148.718, 4174.872, 4155.897, 0, 0, []
1627802597.0514, 23, 0, 4196.923, 4197.436, 4165.128, 4192.308, 4170.256, 0, 0, []
1627802597.0593, 24, 0, 4220, 4212.308, 4191.795, 4195.897, 4192.821, 0, 0, []
1627802597.0672, 25, 0, 4233.333, 4220.513, 4167.179, 4188.205, 4201.538, 0, 0, []
1627802597.0751, 26, 0, 4220.513, 4229.231, 4188.718, 4193.846, 4188.205, 0, 0, []
1627802597.0831, 27, 0, 4198.974, 4222.564, 4173.333, 4191.282, 4171.282, 0, 0, []
1627802597.091, 28, 0, 4196.41, 4202.051, 4167.692, 4176.923, 4168.718, 0, 0, []
1627802597.099, 29, 0, 4203.077, 4206.667, 4177.949, 4170.769, 4169.231, 0, 0, []
1627802597.1068, 30, 0, 4193.846, 4220.513, 4145.128, 4171.795, 4164.615, 0, 0, []
1627802597.1146, 31, 0, 4183.59, 4214.872, 4171.282, 4173.333, 4164.103, 0, 0, []
1627802597.1225, 32, 0, 4187.692, 4215.385, 4170.256, 4173.333, 4166.154, 0, 0, []
1627802597.1303, 33, 0, 4193.333, 4213.333, 4168.718, 4175.897, 4168.718, 0, 0, []
1627802597.1382, 34, 0, 4196.41, 4187.179, 4184.615, 4177.949, 4173.333, 0, 0, []
1627802597.1459, 35, 0, 4198.974, 4184.615, 4145.641, 4165.641, 4167.692, 0, 0, []
1627802597.1538, 36, 0, 4201.026, 4212.308, 4167.692, 4164.103, 4164.615, 0, 0, []
1627802597.1616, 37, 0, 4207.692, 4222.051, 4177.436, 4180, 4178.462, 0, 0, []
1627802597.1695, 38, 0, 4214.872, 4210.256, 4166.667, 4184.103, 4188.205, 0, 0, []
1627802597.1773, 39, 0, 4212.308, 4209.744, 4185.641, 4177.436, 4184.615, 0, 0, []
1627802597.1853, 40, 0, 4200.513, 4228.718, 4160, 4182.564, 4184.103, 0, 0, []
1627802597.1931, 41, 0, 4192.821, 4228.718, 4176.41, 4194.872, 4186.154, 0, 0, []
1627802597.2011, 42, 0, 4191.795, 4218.974, 4176.923, 4195.897, 4182.564, 0, 0, []
1627802597.209, 43, 0, 4193.333, 4229.744, 4160, 4185.641, 4178.974, 0, 0, []
1627802597.217, 44, 0, 4200.513, 4241.026, 4192.821, 4184.103, 4184.615, 0, 0, []
1627802597.2249, 45, 0, 4202.564, 4233.333, 4171.795, 4190.256, 4185.641, 0, 0, []
1627802597.2328, 46, 0, 4194.872, 4217.436, 4176.41, 4194.872, 4172.821, 0, 0, []
1627802597.2407, 47, 0, 4192.308, 4229.231, 4185.128, 4195.897, 4169.744, 0, 0, []
1627802597.2487, 48, 0, 4199.487, 4253.333, 4171.795, 4196.41, 4182.051, 0, 0, []
1627802597.2566, 49, 0, 4205.128, 4241.026, 4197.436, 4202.051, 4189.744, 0, 0, []
1627802597.2644, 50, 0, 4196.41, 4211.795, 4175.897, 4204.103, 4186.667, 0, 0, []
1627802597.2722, 51, 0, 4190.769, 4228.205, 4185.641, 4194.872, 4188.205, 0, 0, []
1627802597.28, 52, 0, 4196.923, 4256.923, 4183.59, 4180.513, 4185.641, 0, 0, []
1627802597.2879, 53, 0, 4195.897, 4228.205, 4142.051, 4172.308, 4168.718, 0, 0, []
1627802597.2957, 54, 0, 4188.205, 4212.308, 4173.333, 4176.923, 4167.692, 0, 0, []
1627802597.3036, 55, 0, 4183.59, 4238.462, 4172.308, 4186.667, 4184.103, 0, 0, []
1627802597.3113, 56, 0, 4184.615, 4247.692, 4181.026, 4191.282, 4186.667, 0, 0, []
1627802597.3192, 57, 0, 4190.769, 4229.231, 4200.513, 4185.128, 4183.077, 0, 0, []
1627802597.327, 58, 0, 4197.949, 4218.462, 4183.59, 4188.205, 4191.795, 0, 0, []
1627802597.335, 59, 0, 4192.821, 4224.103, 4205.641, 4201.538, 4190.769, 0, 0, []
1627802597.3429, 60, 0, 4189.744, 4229.744, 4177.436, 4192.821, 4181.026, 0, 0, []
1627802597.3508, 61, 0, 4201.538, 4239.487, 4174.872, 4182.051, 4182.564, 0, 0, []
1627802597.3587, 62, 0, 4206.154, 4244.615, 4205.641, 4196.923, 4186.667, 0, 0, []
1627802597.3667, 63, 0, 4207.692, 4254.872, 4180, 4200, 4188.718, 0, 0, []
1627802597.3746, 64, 0, 4219.487, 4274.872, 4201.538, 4186.667, 4185.641, 450, 0, []
1627802597.3826, 65, 0, 4219.487, 4269.744, 4196.923, 4183.59, 4171.795, 450, 0, []
1627802597.3904, 66, 0, 4210.256, 4244.615, 4187.179, 4186.667, 4171.282, 16184, 0, []
1627802597.3984, 67, 0, 4214.872, 4238.974, 4196.923, 4190.256, 4195.385, 450, 0, []
1627802597.4063, 68, 0, 4220.513, 4250.256, 4160, 4191.282, 4207.179, 16148, 0, []
1627802597.4141, 69, 0, 4204.103, 4246.154, 4185.641, 4190.769, 4187.179, 450, 0, []
1627802597.422, 70, 0, 4185.128, 4236.41, 4186.154, 4185.128, 4168.718, 295, 0, []
1627802597.4297, 71, 0, 4188.205, 4242.051, 4162.051, 4184.103, 4176.923, 450, 0, []
1627802597.4376, 72, 0, 4202.564, 4253.846, 4183.077, 4192.308, 4193.333, 450, 0, []
1627802597.4454, 73, 0, 4204.103, 4264.103, 4165.641, 4190.769, 4187.179, 16163, 0, []
1627802597.4533, 74, 0, 4194.359, 4261.026, 4181.026, 4187.179, 4169.744, 450, 0, []
1627802597.4611, 75, 0, 4195.897, 4243.59, 4181.538, 4186.667, 4176.41, 16194, 0, []
1627802597.4689, 76, 0, 4205.641, 4235.897, 4171.795, 4186.667, 4192.821, 450, 0, []
1627802597.4767, 77, 0, 4207.692, 4247.179, 4196.923, 4190.769, 4194.359, 450, 0, []
1627802597.4847, 78, 0, 4200, 4264.103, 4169.231, 4191.795, 4183.077, 450, 0, []
1627802597.4926, 79, 0, 4194.359, 4266.667, 4184.615, 4189.231, 4173.333, 16194, 0, []
1627802597.5006, 80, 0, 4189.231, 4253.333, 4187.179, 4186.667, 4170.256, 450, 0, []
1627802597.5084, 81, 0, 4181.026, 4228.205, 4158.462, 4183.59, 4167.692, 450, 0, []
1627802597.5164, 82, 0, 4188.205, 4228.205, 4187.179, 4178.974, 4168.205, 450, 0, []
1627802597.5243, 83, 0, 4200, 4257.949, 4175.385, 4177.949, 4171.795, 16194, 0, []
1627802597.5323, 84, 0, 4201.538, 4265.641, 4182.564, 4184.103, 4182.051, 450, 0, []
1627802597.5402, 85, 0, 4209.231, 4264.103, 4194.359, 4188.205, 4197.436, 450, 0, []
1627802597.5481, 86, 0, 4216.923, 4265.641, 4175.897, 4188.205, 4199.487, 450, 0, []
1627802597.556, 87, 0, 4215.897, 4247.179, 4202.051, 4195.897, 4193.333, 16194, 0, []
1627802597.5638, 88, 0, 4218.974, 4244.615, 4184.103, 4203.59, 4200.513, 450, 0, []
1627802597.5717, 89, 0, 4223.59, 4272.821, 4188.205, 4204.615, 4215.897, 450, 0, []
1627802597.5795, 90, 0, 4217.436, 4260.513, 4201.026, 4208.205, 4219.487, 450, 0, []
1627802597.5873, 91, 0, 4211.282, 4233.333, 4174.359, 4206.154, 4213.846, 16194, 0, []
1627802597.5951, 92, 0, 4221.538, 4266.154, 4204.103, 4205.641, 4216.923, 450, 0, []
1627802597.603, 93, 0, 4229.231, 4294.872, 4191.282, 4211.795, 4222.051, 450, 0, []
1627802597.6108, 94, 0, 4224.615, 4271.795, 4184.103, 4213.333, 4223.59, 450, 0, []
1627802597.6187, 95, 0, 4215.385, 4255.385, 4195.897, 4206.667, 4216.923, 16194, 0, []
1627802597.6264, 96, 0, 4212.821, 4263.59, 4159.487, 4202.051, 4201.538, 450, 0, []
1627802597.6343, 97, 0, 4218.974, 4268.205, 4184.615, 4205.641, 4196.923, 450, 0, []
1627802597.6421, 98, 0, 4220.513, 4258.974, 4181.026, 4194.359, 4206.154, 450, 0, []
1627802597.6501, 99, 0, 4212.821, 4236.41, 4172.821, 4185.128, 4208.718, 16194, 0, []
1627802597.658, 100, 0, 4205.641, 4236.41, 4194.359, 4196.923, 4198.974, 450, 0, []
1627802597.6659, 101, 0, 4203.59, 4263.59, 4169.231, 4199.487, 4195.897, 450, 0, []
1627802597.6738, 102, 0, 4207.179, 4249.231, 4187.692, 4194.359, 4204.615, 450, 0, []
1627802597.6818, 103, 0, 4209.744, 4211.282, 4178.974, 4195.897, 4205.128, 16194, 0, []
1627802597.6897, 104, 0, 4206.667, 4240.513, 4167.179, 4197.949, 4202.051, 450, 0, []
1627802597.6977, 105, 0, 4207.179, 4282.051, 4205.641, 4196.41, 4207.692, 450, 0, []
1627802597.7055, 106, 0, 4201.538, 4240.513, 4182.051, 4185.128, 4199.487, 450, 0, []
1627802597.7135, 107, 0, 4186.667, 4204.103, 4184.103, 4177.436, 4183.59, 16194, 0, []
1627802597.7214, 108, 0, 4191.282, 4235.385, 4185.128, 4185.128, 4196.923, 450, 0, []
1627802597.7292, 109, 0, 4203.077, 4248.718, 4173.333, 4188.718, 4212.821, 450, 0, []
1627802597.7371, 110, 0, 4194.359, 4240, 4187.179, 4181.538, 4196.923, 450, 0, []
1627802597.7448, 111, 0, 4187.179, 4245.641, 4154.359, 4178.974, 4185.128, 16194, 0, []
1627802597.7527, 112, 0, 4202.051, 4234.872, 4171.795, 4187.179, 4198.462, 450, 0, []
1627802597.7605, 113, 0, 4214.872, 4221.538, 4180, 4183.077, 4213.846, 450, 0, []
1627802597.7684, 114, 0, 4210.769, 4238.974, 4152.821, 4166.154, 4212.821, 450, 0, []
1627802597.7762, 115, 0, 4202.051, 4242.051, 4180, 4162.051, 4200, 16194, 0, []
1627802597.784, 116, 0, 4189.744, 4225.641, 4163.077, 4164.103, 4185.641, 450, 0, []
1627802597.7918, 117, 0, 4184.103, 4232.308, 4166.154, 4165.641, 4185.128, 450, 0, []
1627802597.7998, 118, 0, 4193.846, 4245.641, 4172.821, 4178.462, 4195.385, 450, 0, []
1627802597.8077, 119, 0, 4197.436, 4244.103, 4152.821, 4190.256, 4197.436, 16194, 0, []
1627802597.8157, 120, 0, 4192.821, 4230.256, 4185.641, 4192.821, 4193.333, 450, 0, []
1627802597.8235, 121, 0, 4200, 4236.41, 4177.949, 4197.436, 4205.641, 450, 0, []
1627802597.8315, 122, 0, 4210.769, 4247.179, 4182.051, 4207.692, 4220.513, 450, 0, []
1627802597.8394, 123, 0, 4205.128, 4223.59, 4188.718, 4198.974, 4209.231, 16194, 0, []
1627802597.8474, 124, 0, 4197.949, 4223.077, 4163.077, 4181.026, 4194.359, 450, 0, []
1627802597.8553, 125, 0, 4206.154, 4252.308, 4195.385, 4184.615, 4200, 450, 0, []
1627802597.8632, 126, 0, 4210.769, 4237.949, 4177.436, 4197.949, 4207.179, 450, 0, []
1627802597.8711, 127, 0, 4206.154, 4213.333, 4166.667, 4206.667, 4211.282, 16194, 0, []
1627802597.8789, 128, 0, 4204.103, 4227.692, 4186.154, 4202.051, 4210.769, 450, 0, []
1627802597.8868, 0, 0, 4204.615, 4231.282, 4160.513, 4196.41, 4200.513, 450, 0, []
1627802597.8946, 1, 0, 4206.667, 4228.718, 4182.564, 4197.949, 4201.026, 450, 0, []
1627802597.9024, 2, 0, 4210.256, 4239.487, 4172.821, 4187.179, 4213.333, 16184, 0, []
1627802597.9102, 3, 0, 4213.846, 4222.051, 4165.128, 4174.872, 4215.385, 450, 0, []
1627802597.9181, 4, 0, 4213.333, 4217.949, 4196.41, 4180.513, 4210.769, 16148, 0, []
1627802597.9259, 5, 0, 4208.205, 4243.59, 4168.205, 4182.564, 4203.59, 450, 0, []
1627802597.9338, 6, 0, 4209.744, 4233.333, 4172.821, 4176.923, 4201.026, 291, 0, []
1627802597.9416, 7, 0, 4214.872, 4210.769, 4171.282, 4180, 4207.692, 450, 0, []
1627802597.9495, 8, 0, 4218.974, 4218.974, 4173.333, 4193.333, 4216.41, 450, 0, []
1627802597.9574, 9, 0, 4222.564, 4236.923, 4202.564, 4202.564, 4217.949, 16163, 0, []
1627802597.9654, 10, 0, 4214.359, 4242.051, 4168.205, 4196.41, 4207.692, 450, 0, []
1627802597.9733, 11, 0, 4202.564, 4230.769, 4177.436, 4193.333, 4200.513, 16194, 0, []
1627802597.9813, 12, 0, 4208.205, 4235.385, 4184.615, 4192.308, 4199.487, 450, 0, []
1627802597.9891, 13, 0, 4216.41, 4244.615, 4172.821, 4183.077, 4193.846, 450, 0, []
1627802597.9971, 14, 0, 4207.179, 4221.026, 4194.872, 4178.974, 4183.59, 450, 0, []
1627802598.005, 15, 0, 4198.462, 4201.026, 4167.692, 4179.487, 4178.462, 16194, 0, []
1627802598.013, 16, 0, 4204.615, 4223.59, 4181.026, 4174.359, 4184.103, 0, 0, []
1627802598.0209, 17, 0, 4212.308, 4232.308, 4188.718, 4168.718, 4193.333, 0, 0, []
1627802598.0287, 18, 0, 4211.795, 4205.641, 4174.872, 4172.821, 4198.462, 0, 0, []
1627802598.0366, 19, 0, 4216.41, 4218.462, 4208.205, 4183.077, 4194.359, 0, 0, []
1627802598.0444, 20, 0, 4213.333, 4244.615, 4179.487, 4175.385, 4187.179, 0, 0, []
1627802598.0523, 21, 0, 4192.821, 4218.974, 4177.949, 4158.974, 4185.128, 0, 0, []
1627802598.0601, 22, 0, 4185.128, 4189.231, 4183.59, 4159.487, 4184.615, 0, 0, []
1627802598.0679, 23, 0, 4193.846, 4207.692, 4149.231, 4164.103, 4181.026, 0, 0, []
1627802598.0757, 24, 0, 4184.615, 4228.718, 4171.282, 4156.41, 4171.795, 0, 0, []
1627802598.0836, 25, 0, 4169.231, 4211.282, 4157.949, 4147.179, 4156.923, 0, 0, []
1627802598.0914, 26, 0, 4174.872, 4198.974, 4162.564, 4150.256, 4152.308, 0, 0, []
1627802598.0994, 27, 0, 4188.205, 4205.641, 4183.59, 4167.692, 4171.795, 0, 0, []
1627802598.1072, 28, 0, 4198.462, 4194.359, 4164.615, 4181.538, 4191.282, 0, 0, []
1627802598.1152, 29, 0, 4201.538, 4178.974, 4189.744, 4184.615, 4190.769, 0, 0, []
1627802598.1231, 30, 0, 4195.385, 4193.333, 4179.487, 4180, 4184.103, 0, 0, []
1627802598.1311, 31, 0, 4192.821, 4216.41, 4177.436, 4177.436, 4181.538, 0, 0, []
1627802598.139, 32, 0, 4198.462, 4222.051, 4187.179, 4184.615, 4178.462, 0, 0, []
1627802598.1469, 33, 0, 4204.615, 4220, 4162.051, 4190.256, 4183.077, 0, 0, []
1627802598.1548, 34, 0, 4205.641, 4213.333, 4195.897, 4187.179, 4186.667, 0, 0, []
1627802598.1628, 35, 0, 4198.974, 4205.128, 4176.41, 4171.795, 4174.359, 0, 0, []
1627802598.1707, 36, 0, 4194.359, 4212.308, 4148.718, 4158.462, 4161.538, 0, 0, []
1627802598.1785, 37, 0, 4192.308, 4221.538, 4178.974, 4159.487, 4157.949, 0, 0, []
1627802598.1863, 38, 0, 4180, 4203.59, 4160, 4159.487, 4150.256, 0, 0, []
1627802598.1941, 39, 0, 4177.949, 4201.026, 4174.359, 4167.179, 4147.179, 0, 0, []
1627802598.202, 40, 0, 4198.974, 4232.821, 4177.949, 4186.154, 4163.077, 0, 0, []
1627802598.2098, 41, 0, 4206.154, 4225.641, 4173.333, 4192.308, 4175.385, 0, 0, []
1627802598.2177, 42, 0, 4187.692, 4193.333, 4187.179, 4180, 4169.744, 0, 0, []
1627802598.2254, 43, 0, 4182.051, 4212.308, 4152.821, 4170.256, 4165.641, 0, 0, []
1627802598.2333, 44, 0, 4192.821, 4223.077, 4168.718, 4164.615, 4166.667, 0, 0, []
1627802598.2411, 45, 0, 4184.615, 4180.513, 4170.256, 4141.026, 4160.513, 0, 0, []
1627802598.249, 46, 0, 4175.385, 4189.231, 4162.051, 4133.846, 4163.077, 0, 0, []
1627802598.2568, 47, 0, 4191.282, 4239.487, 4201.538, 4169.744, 4180.513, 0, 0, []
1627802598.2647, 48, 0, 4203.59, 4222.051, 4178.462, 4197.949, 4188.205, 0, 0, []
1627802598.2726, 49, 0, 4202.564, 4186.154, 4177.949, 4195.897, 4187.179, 0, 0, []
1627802598.2806, 50, 0, 4201.538, 4209.744, 4176.923, 4185.128, 4188.205, 0, 0, []
1627802598.2885, 51, 0, 4198.462, 4227.692, 4156.41, 4178.462, 4188.205, 0, 0, []
1627802598.2965, 52, 0, 4198.974, 4211.282, 4186.154, 4176.923, 4185.128, 0, 0, []
1627802598.3043, 53, 0, 4208.718, 4216.41, 4169.231, 4174.359, 4180.513, 0, 0, []
1627802598.3123, 54, 0, 4221.538, 4230.256, 4181.538, 4180.513, 4186.154, 0, 0, []
1627802598.3202, 55, 0, 4224.615, 4222.051, 4200, 4188.205, 4198.974, 0, 0, []
1627802598.3282, 56, 0, 4212.308, 4217.949, 4170.769, 4181.538, 4193.846, 0, 0, []
1627802598.3361, 57, 0, 4199.487, 4227.692, 4182.051, 4183.59, 4172.821, 0, 0, []
1627802598.344, 58, 0, 4197.949, 4245.128, 4157.949, 4191.282, 4167.179, 0, 0, []
1627802598.3519, 59, 0, 4201.538, 4260, 4166.154, 4184.615, 4182.564, 0, 0, []
1627802598.3597, 60, 0, 4211.282, 4255.897, 4185.128, 4174.359, 4198.974, 0, 0, []
1627802598.3676, 61, 0, 4223.077, 4241.538, 4157.436, 4168.718, 4204.103, 0, 0, []
1627802598.3754, 62, 0, 4225.641, 4228.718, 4186.154, 4165.641, 4204.615, 0, 0, []
1627802598.3832, 63, 0, 4213.846, 4230.769, 4175.897, 4168.718, 4200, 0, 0, []
1627802598.391, 64, 0, 4192.821, 4225.641, 4161.538, 4178.462, 4182.051, 450, 0, []
1627802598.3989, 65, 0, 4180.513, 4200.513, 4173.846, 4189.231, 4166.154, 450, 0, []
1627802598.4067, 66, 0, 4189.231, 4212.308, 4157.436, 4198.974, 4173.846, 16184, 0, []
1627802598.4147, 67, 0, 4203.077, 4255.385, 4191.282, 4201.026, 4186.667, 450, 0, []
1627802598.4225, 68, 0, 4203.59, 4250.769, 4184.103, 4188.718, 4185.641, 16148, 0, []
1627802598.4305, 69, 0, 4197.949, 4225.128, 4174.872, 4183.077, 4183.59, 450, 0, []
1627802598.4384, 70, 0, 4201.538, 4252.308, 4191.795, 4192.308, 4185.128, 294, 0, []
1627802598.4464, 71, 0, 4211.282, 4260.513, 4161.538, 4190.256, 4183.077, 450, 0, []
1627802598.4543, 72, 0, 4212.308, 4218.974, 4187.692, 4178.462, 4181.026, 450, 0, []
1627802598.4622, 73, 0, 4202.564, 4216.41, 4187.179, 4177.949, 4184.615, 16162, 0, []
1627802598.4701, 74, 0, 4198.974, 4256.41, 4166.154, 4190.769, 4181.538, 450, 0, []
1627802598.478, 75, 0, 4202.051, 4263.077, 4189.744, 4198.974, 4170.769, 16194, 0, []
1627802598.4859, 76, 0, 4208.718, 4242.051, 4170.256, 4195.897, 4172.308, 450, 0, []
1627802598.4938, 77, 0, 4215.897, 4252.308, 4183.59, 4199.487, 4187.692, 450, 0, []
1627802598.5017, 78, 0, 4212.821, 4255.897, 4180.513, 4191.795, 4197.436, 450, 0, []
1627802598.5095, 79, 0, 4197.436, 4230.256, 4163.077, 4166.154, 4189.231, 16194, 0, []
1627802598.5174, 80, 0, 4195.385, 4241.026, 4192.308, 4167.692, 4182.051, 450, 0, []
1627802598.5252, 81, 0, 4210.256, 4262.051, 4177.436, 4192.308, 4193.333, 450, 0, []
1627802598.5331, 82, 0, 4216.923, 4248.718, 4192.308, 4201.026, 4207.692, 450, 0, []
1627802598.5408, 83, 0, 4205.641, 4245.641, 4178.974, 4189.744, 4206.667, 16194, 0, []
1627802598.5487, 84, 0, 4195.897, 4258.462, 4132.821, 4180.513, 4190.256, 450, 0, []
1627802598.5565, 85, 0, 4207.692, 4244.615, 4169.231, 4181.538, 4184.615, 450, 0, []
1627802598.5645, 86, 0, 4218.462, 4235.897, 4168.718, 4180.513, 4192.308, 450, 0, []
1627802598.5724, 87, 0, 4220, 4247.692, 4176.923, 4179.487, 4202.051, 16194, 0, []
1627802598.5803, 88, 0, 4227.692, 4256.923, 4188.205, 4180.513, 4209.231, 450, 0, []
1627802598.5882, 89, 0, 4231.282, 4273.333, 4169.744, 4179.487, 4210.769, 450, 0, []
1627802598.5962, 90, 0, 4230.256, 4294.359, 4199.487, 4189.231, 4214.872, 450, 0, []
1627802598.6041, 91, 0, 4232.308, 4290.256, 4184.103, 4200.513, 4215.385, 16194, 0, []
1627802598.6121, 92, 0, 4231.282, 4257.949, 4184.103, 4195.897, 4205.128, 450, 0, []
1627802598.6199, 93, 0, 4224.103, 4240, 4189.231, 4184.615, 4199.487, 450, 0, []
1627802598.6279, 94, 0, 4225.641, 4247.692, 4156.923, 4187.179, 4211.795, 450, 0, []
1627802598.6358, 95, 0, 4232.308, 4270.769, 4188.205, 4199.487, 4221.026, 16194, 0, []
1627802598.6436, 96, 0, 4230.769, 4281.026, 4185.641, 4199.487, 4213.846, 450, 0, []
1627802598.6515, 97, 0, 4233.333, 4258.462, 4187.692, 4197.436, 4214.872, 450, 0, []
1627802598.6592, 98, 0, 4232.821, 4250.769, 4196.923, 4195.385, 4220, 450, 0, []
1627802598.6671, 99, 0, 4218.462, 4271.795, 4154.872, 4188.205, 4210.769, 16194, 0, []
1627802598.6749, 100, 0, 4215.897, 4275.897, 4182.564, 4192.308, 4199.487, 450, 0, []
1627802598.6828, 101, 0, 4225.641, 4258.462, 4185.641, 4194.872, 4190.769, 450, 0, []
1627802598.6906, 102, 0, 4217.949, 4257.949, 4170.256, 4182.051, 4186.667, 450, 0, []
1627802598.6985, 103, 0, 4212.821, 4267.179, 4189.744, 4181.538, 4195.897, 16194, 0, []
1627802598.7062, 104, 0, 4222.051, 4266.154, 4169.231, 4193.846, 4205.641, 450, 0, []
1627802598.7141, 105, 0, 4222.564, 4261.538, 4184.615, 4198.462, 4201.026, 450, 0, []
1627802598.7219, 106, 0, 4221.026, 4256.923, 4181.026, 4196.923, 4196.923, 450, 0, []
1627802598.7298, 107, 0, 4227.179, 4254.872, 4173.333, 4193.333, 4201.026, 16194, 0, []
1627802598.7376, 108, 0, 4223.59, 4254.872, 4191.282, 4182.564, 4200, 450, 0, []
1627802598.7455, 109, 0, 4210.256, 4241.538, 4157.436, 4170.256, 4192.308, 450, 0, []
1627802598.7534, 110, 0, 4208.718, 4236.41, 4179.487, 4175.385, 4190.769, 450, 0, []
1627802598.7614, 111, 0, 4216.41, 4263.077, 4192.821, 4185.128, 4196.41, 16194, 0, []
1627802598.7693, 112, 0, 4222.564, 4284.615, 4181.538, 4185.641, 4202.051, 450, 0, []
1627802598.7773, 113, 0, 4225.128, 4270.769, 4207.179, 4191.795, 4206.154, 450, 0, []
1627802598.7851, 114, 0, 4214.872, 4244.615, 4174.872, 4198.462, 4198.462, 450, 0, []
1627802598.7931, 115, 0, 4213.846, 4245.641, 4182.051, 4200.513, 4183.59, 16194, 0, []
1627802598.801, 116, 0, 4231.795, 4257.949, 4193.333, 4197.949, 4185.128, 450, 0, []
1627802598.8088, 117, 0, 4231.282, 4254.872, 4170.256, 4186.667, 4189.231, 450, 0, []
1627802598.8167, 118, 0, 4204.615, 4246.154, 4183.59, 4166.667, 4168.718, 450, 0, []
1627802598.8244, 119, 0, 4196.41, 4238.974, 4160.513, 4148.205, 4150.256, 16194, 0, []
1627802598.8323, 120, 0, 4213.846, 4230.256, 4182.051, 4159.487, 4171.282, 450, 0, []
1627802598.8401, 121, 0, 4221.538, 4234.872, 4202.564, 4180, 4197.436, 450, 0, []
1627802598.848, 122, 0, 4211.282, 4252.308, 4176.41, 4180, 4191.282, 450, 0, []
1627802598.8558, 123, 0, 4209.744, 4245.128, 4202.051, 4179.487, 4182.051, 16194, 0, []
1627802598.8636, 124, 0, 4216.41, 4230.769, 4184.103, 4178.462, 4181.026, 450, 0, []
1627802598.8714, 125, 0, 4209.744, 4226.667, 4175.385, 4166.667, 4174.359, 450, 0, []
1627802598.8793, 126, 0, 4202.051, 4230.769, 4186.667, 4167.692, 4180, 450, 0, []
1627802598.8871, 127, 0, 4211.282, 4254.872, 4173.846, 4188.718, 4200, 16194, 0, []
1627802598.8951, 128, 0, 4219.487, 4262.051, 4209.744, 4199.487, 4205.641, 450, 0, []
1627802598.9029, 0, 0, 4211.795, 4235.897, 4188.205, 4188.718, 4197.949, 450, 0, []
1627802598.9109, 1, 0, 4210.256, 4237.949, 4175.897, 4187.692, 4199.487, 450, 0, []
1627802598.9188, 2, 0, 4217.949, 4269.744, 4200.513, 4199.487, 4205.641, 16184, 0, []
1627802598.9268, 3, 0, 4217.436, 4255.385, 4176.41, 4195.897, 4200, 450, 0, []
1627802598.9347, 4, 0, 4216.923, 4225.128, 4198.462, 4196.41, 4192.821, 16148, 0, []
1627802598.9426, 5, 0, 4226.667, 4248.718, 4196.923, 4207.179, 4197.949, 450, 0, []
1627802598.9505, 6, 0, 4228.205, 4264.103, 4189.231, 4199.487, 4201.538, 292, 0, []
1627802598.9585, 7, 0, 4209.231, 4227.179, 4194.872, 4176.923, 4188.718, 450, 0, []
1627802598.9664, 8, 0, 4193.333, 4213.846, 4161.538, 4175.897, 4177.949, 450, 0, []
1627802598.9742, 9, 0, 4200.513, 4250.256, 4193.333, 4193.846, 4185.641, 16162, 0, []
1627802598.982, 10, 0, 4214.359, 4257.949, 4198.462, 4194.359, 4203.59, 450, 0, []
1627802598.9898, 11, 0, 4213.846, 4233.333, 4186.667, 4187.179, 4213.333, 16194, 0, []
1627802598.9977, 12, 0, 4209.744, 4249.231, 4214.872, 4195.897, 4207.179, 450, 0, []
1627802599.0055, 13, 0, 4209.744, 4277.436, 4188.718, 4204.103, 4196.41, 450, 0, []
1627802599.0134, 14, 0, 4213.333, 4273.846, 4209.744, 4206.667, 4202.051, 450, 0, []
1627802599.0211, 15, 0, 4219.487, 4256.41, 4219.487, 4209.744, 4217.436, 16194, 0, []
1627802599.029, 16, 0, 4212.308, 4235.385, 4187.692, 4202.564, 4213.846, 0, 0, []
1627802599.0368, 17, 0, 4200, 4234.359, 4202.564, 4191.795, 4205.128, 0, 0, []
1627802599.0448, 18, 0, 4205.641, 4261.538, 4184.103, 4197.949, 4214.359, 0, 0, []
1627802599.0527, 19, 0, 4212.308, 4266.667, 4192.821, 4214.359, 4219.487, 0, 0, []
1627802599.0606, 20, 0, 4200.513, 4228.718, 4194.872, 4210.256, 4205.128, 0, 0, []
1627802599.0685, 21, 0, 4194.359, 4211.282, 4176.923, 4193.846, 4197.436, 0, 0, []
1627802599.0765, 22, 0, 4201.538, 4235.897, 4201.538, 4197.436, 4204.103, 0, 0, []
1627802599.0844, 23, 0, 4205.641, 4255.385, 4183.59, 4199.487, 4202.564, 0, 0, []
1627802599.0924, 24, 0, 4213.846, 4249.744, 4200.513, 4191.795, 4200, 0, 0, []
1627802599.1002, 25, 0, 4223.59, 4225.641, 4205.128, 4191.282, 4206.667, 0, 0, []
1627802599.1082, 26, 0, 4213.333, 4218.462, 4163.59, 4186.667, 4201.538, 0, 0, []
1627802599.1161, 27, 0, 4205.641, 4231.795, 4185.641, 4175.897, 4188.718, 0, 0, []
1627802599.1239, 28, 0, 4214.359, 4231.282, 4169.231, 4170.256, 4196.41, 0, 0, []
1627802599.1318, 29, 0, 4217.949, 4205.128, 4171.795, 4181.026, 4217.436, 0, 0, []
1627802599.1395, 30, 0, 4205.641, 4195.897, 4190.256, 4195.385, 4223.077, 0, 0, []
1627802599.1474, 31, 0, 4191.795, 4223.59, 4157.949, 4186.667, 4206.667, 0, 0, []
1627802599.1552, 32, 0, 4185.641, 4235.897, 4175.385, 4169.744, 4185.641, 0, 0, []
1627802599.1631, 33, 0, 4189.231, 4218.462, 4171.282, 4167.692, 4184.103, 0, 0, []
1627802599.1709, 34, 0, 4206.667, 4198.974, 4178.974, 4182.564, 4211.795, 0, 0, []
1627802599.1788, 35, 0, 4218.974, 4190.769, 4191.282, 4180.513, 4228.718, 0, 0, []
1627802599.1867, 36, 0, 4203.59, 4197.949, 4148.718, 4157.949, 4205.641, 0, 0, []
1627802599.1946, 37, 0, 4186.667, 4216.41, 4170.256, 4156.41, 4183.077, 0, 0, []
1627802599.2024, 38, 0, 4191.282, 4212.821, 4170.256, 4172.308, 4188.718, 0, 0, []
1627802599.2104, 39, 0, 4199.487, 4204.615, 4163.59, 4180.513, 4201.538, 0, 0, []
1627802599.2182, 40, 0, 4202.051, 4228.718, 4189.231, 4184.103, 4210.769, 0, 0, []
1627802599.2262, 41, 0, 4211.282, 4224.103, 4174.359, 4187.692, 4225.641, 0, 0, []
1627802599.2341, 42, 0, 4214.359, 4189.231, 4203.59, 4184.615, 4228.205, 0, 0, []
1627802599.2421, 43, 0, 4197.949, 4210.769, 4191.795, 4168.718, 4210.256, 0, 0, []
1627802599.25, 44, 0, 4185.641, 4254.872, 4161.538, 4161.538, 4199.487, 0, 0, []
1627802599.2579, 45, 0, 4181.538, 4246.667, 4173.846, 4166.667, 4184.615, 0, 0, []
1627802599.2658, 46, 0, 4163.077, 4220, 4142.564, 4158.462, 4153.333, 0, 0, []
1627802599.2738, 47, 0, 4160, 4231.795, 4169.744, 4162.051, 4156.41, 0, 0, []
1627802599.2817, 48, 0, 4186.667, 4243.077, 4194.359, 4190.256, 4195.897, 0, 0, []
1627802599.2895, 49, 0, 4196.41, 4225.128, 4184.103, 4198.462, 4214.872, 0, 0, []
1627802599.2973, 50, 0, 4184.615, 4223.59, 4203.077, 4184.103, 4202.564, 0, 0, []
1627802599.3051, 51, 0, 4183.59, 4233.846, 4177.436, 4178.462, 4191.282, 0, 0, []
1627802599.313, 52, 0, 4186.154, 4216.41, 4182.564, 4179.487, 4189.231, 0, 0, []
1627802599.3208, 53, 0, 4174.872, 4214.872, 4177.436, 4171.795, 4182.564, 0, 0, []
1627802599.3287, 54, 0, 4164.103, 4240.513, 4155.385, 4163.59, 4165.128, 0, 0, []
1627802599.3364, 55, 0, 4158.974, 4225.128, 4188.205, 4165.128, 4156.41, 0, 0, []
1627802599.3444, 56, 0, 4153.846, 4198.974, 4169.231, 4168.718, 4165.128, 0, 0, []
1627802599.3523, 57, 0, 4151.795, 4218.462, 4169.744, 4169.744, 4167.692, 0, 0, []
1627802599.3603, 58, 0, 4152.308, 4227.179, 4174.872, 4171.795, 4160.513, 0, 0, []
1627802599.3682, 59, 0, 4152.821, 4214.359, 4153.333, 4172.308, 4165.128, 0, 0, []
1627802599.3761, 60, 0, 4159.487, 4214.359, 4182.564, 4170.769, 4172.821, 0, 0, []
1627802599.384, 61, 0, 4168.718, 4201.538, 4163.077, 4168.718, 4174.872, 0, 0, []
1627802599.392, 62, 0, 4167.179, 4195.897, 4163.077, 4171.795, 4171.795, 0, 0, []
1627802599.3999, 63, 0, 4156.923, 4208.718, 4179.487, 4169.231, 4160, 0, 0, []
1627802599.4079, 64, 0, 4143.077, 4196.41, 4150.769, 4155.897, 4148.718, 450, 0, []
1627802599.4157, 65, 0, 4134.872, 4181.538, 4171.282, 4154.872, 4150.769, 450, 0, []
1627802599.4237, 66, 0, 4141.026, 4202.051, 4157.949, 4160, 4153.333, 16184, 0, []
1627802599.4316, 67, 0, 4148.718, 4213.846, 4161.026, 4161.026, 4150.769, 450, 0, []
1627802599.4394, 68, 0, 4145.641, 4182.564, 4185.641, 4157.949, 4150.769, 16148, 0, []
1627802599.4473, 69, 0, 4143.59, 4160, 4154.872, 4157.436, 4154.872, 450, 0, []
1627802599.4551, 70, 0, 4155.897, 4182.564, 4175.897, 4170.769, 4158.974, 287, 0, []
1627802599.4629, 71, 0, 4156.41, 4200, 4172.821, 4172.308, 4153.846, 450, 0, []
1627802599.4707, 72, 0, 4140.513, 4166.667, 4165.641, 4158.974, 4146.667, 450, 0, []
1627802599.4786, 73, 0, 4143.077, 4147.692, 4188.718, 4164.103, 4157.436, 16162, 0, []
1627802599.4865, 74, 0, 4166.667, 4189.231, 4164.103, 4175.385, 4172.821, 450, 0, []
1627802599.4943, 75, 0, 4174.872, 4217.436, 4178.462, 4172.821, 4172.308, 16194, 0, []
1627802599.502, 76, 0, 4157.436, 4186.154, 4161.538, 4159.487, 4160, 450, 0, []
1627802599.5099, 77, 0, 4142.051, 4149.231, 4138.462, 4152.308, 4153.333, 450, 0, []
1627802599.5177, 78, 0, 4141.538, 4156.41, 4168.205, 4160, 4159.487, 450, 0, []
1627802599.5257, 79, 0, 4138.974, 4171.282, 4150.256, 4160, 4156.923, 16194, 0, []
1627802599.5336, 80, 0, 4140, 4165.128, 4163.59, 4152.821, 4148.205, 450, 0, []
1627802599.5415, 81, 0, 4160, 4164.103, 4168.205, 4162.564, 4167.179, 450, 0, []
1627802599.5494, 82, 0, 4181.026, 4193.846, 4164.103, 4183.077, 4192.821, 450, 0, []
1627802599.5574, 83, 0, 4178.462, 4221.026, 4194.359, 4182.564, 4182.564, 16194, 0, []
1627802599.5653, 84, 0, 4169.744, 4198.974, 4162.564, 4168.205, 4165.128, 450, 0, []
1627802599.5733, 85, 0, 4164.615, 4176.923, 4166.154, 4169.744, 4163.59, 450, 0, []
1627802599.5811, 86, 0, 4160, 4198.462, 4171.795, 4172.821, 4155.897, 450, 0, []
1627802599.5889, 87, 0, 4168.718, 4208.718, 4154.872, 4164.103, 4148.718, 16194, 0, []
1627802599.5968, 88, 0, 4182.564, 4197.436, 4186.154, 4161.026, 4155.385, 450, 0, []
1627802599.6046, 89, 0, 4176.41, 4208.718, 4163.077, 4162.564, 4156.41, 450, 0, []
1627802599.6125, 90, 0, 4166.667, 4207.692, 4164.103, 4163.077, 4153.333, 450, 0, []
1627802599.6202, 91, 0, 4176.923, 4184.103, 4178.974, 4170.769, 4161.538, 16194, 0, []
1627802599.6281, 92, 0, 4192.821, 4195.897, 4163.077, 4181.026, 4170.769, 450, 0, []
1627802599.6359, 93, 0, 4205.128, 4216.41, 4192.308, 4188.718, 4178.462, 450, 0, []
1627802599.6438, 94, 0, 4210.769, 4210.256, 4170.256, 4193.846, 4187.179, 450, 0, []
1627802599.6516, 95, 0, 4197.949, 4216.923, 4163.59, 4195.385, 4185.641, 16194, 0, []
1627802599.6595, 96, 0, 4183.59, 4221.026, 4182.051, 4190.769, 4171.795, 450, 0, []
1627802599.6674, 97, 0, 4187.692, 4197.436, 4167.692, 4187.179, 4164.103, 450, 0, []
1627802599.6754, 98, 0, 4195.385, 4197.436, 4196.41, 4191.282, 4170.769, 450, 0, []
1627802599.6833, 99, 0, 4188.205, 4221.026, 4174.359, 4181.538, 4169.231, 16194, 0, []
1627802599.6913, 100, 0, 4181.026, 4219.487, 4159.487, 4167.692, 4162.051, 450, 0, []
1627802599.6991, 101, 0, 4188.718, 4209.744, 4179.487, 4173.846, 4163.59, 450, 0, []
1627802599.7071, 102, 0, 4191.795, 4215.385, 4162.051, 4183.59, 4167.179, 450, 0, []
1627802599.715, 103, 0, 4191.282, 4206.154, 4182.564, 4179.487, 4169.744, 16194, 0, []
1627802599.723, 104, 0, 4189.744, 4194.359, 4163.59, 4160, 4170.769, 450, 0, []
1627802599.7309, 105, 0, 4186.154, 4205.128, 4155.897, 4156.41, 4166.154, 450, 0, []
1627802599.7387, 106, 0, 4193.846, 4215.897, 4190.769, 4177.949, 4174.359, 450, 0, []
1627802599.7466, 107, 0, 4203.077, 4215.385, 4158.974, 4184.615, 4185.128, 16194, 0, []
1627802599.7544, 108, 0, 4196.41, 4209.744, 4162.564, 4176.923, 4174.872, 450, 0, []
1627802599.7623, 109, 0, 4187.692, 4209.231, 4168.718, 4178.462, 4170.769, 450, 0, []
1627802599.7701, 110, 0, 4196.41, 4224.103, 4171.282, 4182.564, 4188.718, 450, 0, []
1627802599.7779, 111, 0, 4209.231, 4232.821, 4193.333, 4181.026, 4194.872, 16194, 0, []
1627802599.7857, 112, 0, 4200.513, 4237.436, 4160.513, 4174.872, 4180.513, 450, 0, []
1627802599.7936, 113, 0, 4187.179, 4236.41, 4176.923, 4171.795, 4182.564, 450, 0, []
1627802599.8014, 114, 0, 4192.308, 4216.923, 4177.949, 4173.846, 4199.487, 450, 0, []
1627802599.8094, 115, 0, 4201.026, 4211.282, 4154.872, 4174.872, 4196.923, 16194, 0, []
1627802599.8172, 116, 0, 4204.103, 4227.179, 4191.795, 4183.59, 4191.282, 450, 0, []
1627802599.8252, 117, 0, 4213.333, 4221.026, 4186.667, 4201.026, 4203.59, 450, 0, []
1627802599.8331, 118, 0, 4217.949, 4213.333, 4192.308, 4206.154, 4209.744, 450, 0, []
1627802599.8411, 119, 0, 4209.231, 4241.538, 4188.205, 4192.308, 4197.949, 16194, 0, []
1627802599.849, 120, 0, 4207.179, 4252.308, 4172.308, 4193.333, 4198.974, 450, 0, []
1627802599.8569, 121, 0, 4208.718, 4234.359, 4199.487, 4208.205, 4207.179, 450, 0, []
1627802599.8648, 122, 0, 4196.923, 4230.769, 4170.256, 4195.897, 4201.538, 450, 0, []
1627802599.8728, 123, 0, 4193.333, 4236.41, 4171.282, 4178.462, 4201.538, 16194, 0, []
1627802599.8807, 124, 0, 4207.179, 4233.333, 4183.077, 4184.103, 4213.333, 450, 0, []
1627802599.8885, 125, 0, 4212.308, 4217.436, 4161.026, 4185.128, 4215.385, 450, 0, []
1627802599.8963, 126, 0, 4207.692, 4209.231, 4189.744, 4181.026, 4210.256, 450, 0, []
1627802599.9041, 127, 0, 4205.641, 4230.769, 4170.769, 4185.128, 4203.077, 16194, 0, []
1627802599.912, 128, 0, 4204.615, 4248.718, 4170.256, 4188.718, 4191.795, 450, 0, []
1627802599.9198, 0, 0, 4198.462, 4215.385, 4185.128, 4189.744, 4187.179, 450, 0, []
1627802599.9277, 1, 0, 4200, 4197.436, 4164.103, 4201.026, 4198.974, 450, 0, []
1627802599.9354, 2, 0, 4216.41, 4238.462, 4203.59, 4217.949, 4215.385, 16184, 0, []
1627802599.9433, 3, 0, 4221.538, 4243.077, 4194.359, 4213.333, 4219.487, 450, 0, []
1627802599.9511, 4, 0, 4211.282, 4203.59, 4180.513, 4202.564, 4211.282, 16148, 0, []
1627802599.9591, 5, 0, 4211.795, 4213.333, 4199.487, 4210.769, 4211.795, 450, 0, []
1627802599.967, 6, 0, 4216.923, 4241.026, 4176.923, 4213.333, 4213.333, 289, 0, []
1627802599.9749, 7, 0, 4206.154, 4232.308, 4190.769, 4190.256, 4195.385, 450, 0, []
1627802599.9828, 8, 0, 4191.795, 4213.333, 4171.795, 4170.769, 4183.077, 450, 0, []
1627802599.9908, 9, 0, 4197.436, 4198.974, 4168.205, 4180.513, 4203.59, 16162, 0, []
1627802599.9987, 10, 0, 4212.821, 4206.667, 4210.256, 4198.974, 4221.538, 450, 0, []
1627802600.0067, 11, 0, 4218.462, 4233.333, 4188.205, 4209.231, 4216.923, 16194, 0, []
1627802600.0145, 12, 0, 4216.41, 4222.051, 4193.846, 4220.513, 4217.949, 450, 0, []
1627802600.0225, 13, 0, 4207.179, 4198.462, 4183.59, 4213.333, 4221.538, 450, 0, []
1627802600.0304, 14, 0, 4190.769, 4210.256, 4164.103, 4186.154, 4207.692, 450, 0, []
1627802600.0382, 15, 0, 4182.051, 4211.282, 4185.641, 4172.821, 4190.769, 16194, 0, []
1627802600.0461, 16, 0, 4186.154, 4194.872, 4167.179, 4170.769, 4190.769, 0, 0, []
1627802600.0538, 17, 0, 4203.077, 4202.564, 4190.256, 4184.103, 4210.256, 0, 0, []
1627802600.0617, 18, 0, 4221.538, 4230.769, 4191.795, 4203.077, 4224.615, 0, 0, []
1627802600.0695, 19, 0, 4229.744, 4247.179, 4171.795, 4212.308, 4229.744, 0, 0, []
1627802600.0774, 20, 0, 4235.897, 4235.897, 4204.103, 4228.205, 4243.59, 0, 0, []
1627802600.0852, 21, 0, 4232.308, 4211.282, 4184.615, 4230.769, 4251.795, 0, 0, []
1627802600.093, 22, 0, 4211.282, 4207.692, 4180.513, 4205.128, 4231.282, 0, 0, []
1627802600.1008, 23, 0, 4197.949, 4231.795, 4172.821, 4181.538, 4210.256, 0, 0, []
1627802600.1087, 24, 0, 4199.487, 4235.385, 4154.872, 4175.897, 4214.359, 0, 0, []
1627802600.1165, 25, 0, 4191.282, 4208.718, 4183.077, 4172.308, 4216.41, 0, 0, []
1627802600.1245, 26, 0, 4187.179, 4199.487, 4160.513, 4174.359, 4208.718, 0, 0, []
1627802600.1323, 27, 0, 4209.231, 4205.128, 4174.359, 4189.744, 4220.513, 0, 0, []
1627802600.1403, 28, 0, 4222.564, 4206.154, 4190.769, 4192.821, 4237.436, 0, 0, []
1627802600.1482, 29, 0, 4213.333, 4225.128, 4155.897, 4180, 4230.256, 0, 0, []
1627802600.1562, 30, 0, 4212.821, 4249.231, 4178.462, 4176.41, 4215.897, 0, 0, []
1627802600.1641, 31, 0, 4217.949, 4233.333, 4170.769, 4179.487, 4213.333, 0, 0, []
1627802600.1721, 32, 0, 4209.744, 4217.436, 4177.436, 4181.026, 4214.359, 0, 0, []
1627802600.1799, 33, 0, 4208.205, 4237.436, 4195.897, 4186.667, 4221.538, 0, 0, []
1627802600.1879, 34, 0, 4219.487, 4240, 4168.718, 4187.692, 4227.179, 0, 0, []
1627802600.1958, 35, 0, 4218.974, 4207.692, 4187.179, 4185.128, 4221.538, 0, 0, []
1627802600.2038, 36, 0, 4211.282, 4206.667, 4170.256, 4184.103, 4221.538, 0, 0, []
1627802600.2117, 37, 0, 4210.256, 4246.667, 4173.333, 4188.205, 4226.154, 0, 0, []
1627802600.2196, 38, 0, 4206.154, 4245.641, 4201.538, 4188.718, 4223.077, 0, 0, []
1627802600.2275, 39, 0, 4201.538, 4209.231, 4171.795, 4184.103, 4221.538, 0, 0, []
1627802600.2353, 40, 0, 4223.077, 4226.154, 4189.744, 4195.897, 4235.897, 0, 0, []
1627802600.2432, 41, 0, 4249.744, 4258.462, 4179.487, 4202.564, 4248.718, 0, 0, []
1627802600.251, 42, 0, 4249.231, 4230.769, 4165.641, 4191.795, 4246.667, 0, 0, []
1627802600.2588, 43, 0, 4237.436, 4200, 4188.718, 4190.769, 4237.949, 0, 0, []
1627802600.2666, 44, 0, 4227.179, 4230.769, 4160.513, 4193.846, 4226.154, 0, 0, []
1627802600.2746, 45, 0, 4221.538, 4258.462, 4175.897, 4186.667, 4223.077, 0, 0, []
1627802600.2825, 46, 0, 4228.205, 4240.513, 4181.026, 4181.538, 4230.256, 0, 0, []
1627802600.2905, 47, 0, 4233.846, 4236.41, 4173.333, 4186.667, 4232.821, 0, 0, []
1627802600.2983, 48, 0, 4224.615, 4251.282, 4189.744, 4181.538, 4227.692, 0, 0, []
1627802600.3063, 49, 0, 4215.385, 4232.821, 4157.436, 4172.821, 4228.718, 0, 0, []
1627802600.3142, 50, 0, 4216.923, 4218.462, 4166.667, 4189.231, 4232.308, 0, 0, []
1627802600.3222, 51, 0, 4218.974, 4243.077, 4168.205, 4203.59, 4223.59, 0, 0, []
1627802600.3301, 52, 0, 4214.359, 4242.051, 4158.462, 4193.846, 4215.385, 0, 0, []
1627802600.338, 53, 0, 4205.128, 4211.282, 4187.692, 4186.154, 4213.846, 0, 0, []
1627802600.3459, 54, 0, 4203.077, 4207.692, 4162.564, 4177.949, 4212.821, 0, 0, []
1627802600.3539, 55, 0, 4213.846, 4230.256, 4177.436, 4170.769, 4214.872, 0, 0, []
1627802600.3618, 56, 0, 4222.564, 4236.41, 4190.769, 4180, 4220, 0, 0, []
1627802600.3696, 57, 0, 4214.359, 4217.949, 4163.077, 4187.692, 4214.359, 0, 0, []
1627802600.3774, 58, 0, 4200, 4213.846, 4179.487, 4177.436, 4200.513, 0, 0, []
1627802600.3852, 59, 0, 4199.487, 4229.744, 4156.923, 4167.179, 4196.923, 0, 0, []
1627802600.3931, 60, 0, 4209.231, 4244.615, 4165.128, 4171.282, 4202.564, 0, 0, []
1627802600.4009, 61, 0, 4218.462, 4244.103, 4181.538, 4172.308, 4209.744, 0, 0, []
1627802600.4088, 62, 0, 4225.128, 4213.846, 4166.667, 4168.205, 4222.051, 0, 0, []
1627802600.4165, 63, 0, 4237.436, 4185.641, 4204.615, 4182.051, 4242.564, 0, 0, []
1627802600.4244, 64, 0, 4240, 4208.718, 4186.154, 4198.974, 4248.205, 450, 0, []
1627802600.4322, 65, 0, 4220.513, 4223.59, 4170.769, 4201.538, 4235.385, 450, 0, []
1627802600.4401, 66, 0, 4203.077, 4201.538, 4177.949, 4194.359, 4227.179, 16184, 0, []
1627802600.4479, 67, 0, 4198.462, 4220, 4146.667, 4178.462, 4220, 450, 0, []
1627802600.4558, 68, 0, 4193.333, 4254.872, 4168.205, 4168.205, 4208.205, 16148, 0, []
1627802600.4637, 69, 0, 4191.282, 4244.103, 4163.59, 4168.718, 4210.256, 450, 0, []
1627802600.4717, 70, 0, 4198.462, 4215.385, 4167.179, 4177.949, 4222.564, 300, 0, []
1627802600.4796, 71, 0, 4204.615, 4207.692, 4187.179, 4185.641, 4220, 450, 0, []
1627802600.4875, 72, 0, 4203.59, 4224.103, 4156.923, 4184.103, 4210.769, 450, 0, []
1627802600.4954, 73, 0, 4204.103, 4248.205, 4180.513, 4190.769, 4214.872, 16162, 0, []
1627802600.5034, 74, 0, 4202.051, 4248.718, 4173.846, 4200, 4218.462, 450, 0, []
1627802600.5113, 75, 0, 4199.487, 4227.179, 4158.462, 4196.41, 4217.949, 16196, 0, []
1627802600.5191, 76, 0, 4203.59, 4217.436, 4175.897, 4183.59, 4217.436, 450, 0, []
1627802600.527, 77, 0, 4208.718, 4214.359, 4143.59, 4172.308, 4214.359, 450, 0, []
1627802600.5347, 78, 0, 4214.872, 4210.769, 4164.615, 4172.821, 4214.359, 450, 0, []
1627802600.5426, 79, 0, 4215.385, 4217.436, 4171.795, 4172.821, 4216.923, 16196, 0, []
1627802600.5504, 80, 0, 4210.769, 4232.308, 4156.923, 4172.308, 4216.41, 450, 0, []
1627802600.5583, 81, 0, 4211.282, 4238.974, 4170.769, 4178.462, 4216.923, 450, 0, []
1627802600.5661, 82, 0, 4214.359, 4230.769, 4147.692, 4176.41, 4216.41, 450, 0, []
1627802600.5739, 83, 0, 4215.897, 4226.154, 4172.821, 4172.308, 4219.487, 16196, 0, []
1627802600.5817, 84, 0, 4217.436, 4225.641, 4170.769, 4177.949, 4226.154, 450, 0, []
1627802600.5897, 85, 0, 4213.333, 4208.205, 4146.667, 4181.026, 4222.564, 450, 0, []
1627802600.5976, 86, 0, 4210.769, 4189.231, 4185.128, 4181.026, 4220.513, 450, 0, []
1627802600.6056, 87, 0, 4215.385, 4208.205, 4172.308, 4186.667, 4230.256, 16196, 0, []
1627802600.6134, 88, 0, 4215.897, 4237.436, 4172.821, 4186.154, 4227.692, 450, 0, []
1627802600.6214, 89, 0, 4212.308, 4236.923, 4173.846, 4175.897, 4217.949, 450, 0, []
1627802600.6293, 90, 0, 4217.949, 4231.282, 4157.949, 4176.923, 4224.103, 450, 0, []
1627802600.6373, 91, 0, 4219.487, 4241.026, 4182.564, 4184.103, 4223.077, 16196, 0, []
1627802600.6452, 92, 0, 4202.564, 4248.718, 4156.41, 4176.41, 4203.077, 450, 0, []
1627802600.6531, 93, 0, 4189.231, 4248.718, 4165.641, 4172.308, 4193.333, 450, 0, []
1627802600.661, 94, 0, 4192.821, 4248.205, 4183.59, 4174.872, 4198.462, 450, 0, []
1627802600.669, 95, 0, 4196.923, 4242.051, 4161.026, 4170.769, 4199.487, 16196, 0, []
1627802600.6769, 96, 0, 4204.615, 4245.641, 4193.333, 4177.949, 4201.538, 450, 0, []
1627802600.6847, 97, 0, 4222.051, 4250.256, 4185.128, 4189.231, 4213.846, 450, 0, []
1627802600.6925, 98, 0, 4225.128, 4229.231, 4178.974, 4189.231, 4217.436, 450, 0, []
1627802600.7003, 99, 0, 4209.744, 4226.667, 4182.051, 4186.154, 4205.128, 16196, 0, []
1627802600.7082, 100, 0, 4198.974, 4260, 4151.282, 4185.128, 4197.949, 450, 0, []
1627802600.716, 101, 0, 4202.051, 4268.718, 4180, 4181.538, 4197.949, 450, 0, []
1627802600.7239, 102, 0, 4204.615, 4249.231, 4172.308, 4170.769, 4194.359, 450, 0, []
1627802600.7316, 103, 0, 4202.051, 4252.821, 4163.077, 4170.769, 4197.436, 16196, 0, []
1627802600.7396, 104, 0, 4200.513, 4260.513, 4182.564, 4181.026, 4204.615, 450, 0, []
1627802600.7475, 105, 0, 4207.179, 4264.103, 4169.744, 4176.41, 4203.59, 450, 0, []
1627802600.7555, 106, 0, 4220.513, 4268.718, 4198.974, 4175.385, 4203.59, 450, 0, []
1627802600.7634, 107, 0, 4221.538, 4249.231, 4188.718, 4188.205, 4205.128, 16196, 0, []
1627802600.7713, 108, 0, 4213.333, 4245.128, 4168.718, 4193.333, 4200.513, 450, 0, []
1627802600.7792, 109, 0, 4201.026, 4265.641, 4176.41, 4185.641, 4191.795, 450, 0, []
1627802600.7872, 110, 0, 4183.59, 4253.846, 4170.256, 4178.462, 4176.41, 450, 0, []
1627802600.7951, 111, 0, 4181.538, 4249.744, 4171.282, 4182.051, 4169.744, 16196, 0, []
1627802600.8031, 112, 0, 4190.769, 4275.385, 4171.282, 4188.205, 4180, 450, 0, []
1627802600.8109, 113, 0, 4187.179, 4272.308, 4235.897, 4185.641, 4185.128, 450, 0, []
1627802600.8187, 114, 0, 4180, 4263.077, 4156.41, 4172.821, 4176.923, 450, 0, []
1627802600.8266, 115, 0, 4187.692, 4269.231, 4102.051, 4170.256, 4178.974, 16196, 0, []
1627802600.8344, 116, 0, 4200, 4260.513, 4215.897, 4182.564, 4195.897, 450, 0, []
1627802600.8423, 117, 0, 4208.205, 4278.462, 4112.821, 4185.641, 4204.103, 450, 0, []
1627802600.85, 118, 0, 4215.385, 4314.359, 4143.077, 4196.923, 4203.077, 450, 0, []
1627802600.8579, 119, 0, 4216.41, 4289.744, 4257.436, 4204.615, 4203.59, 16196, 0, []
1627802600.8657, 120, 0, 4220.513, 4257.949, 4142.564, 4195.897, 4208.718, 450, 0, []
1627802600.8736, 121, 0, 4232.308, 4285.641, 4161.538, 4200.513, 4210.769, 450, 0, []
1627802600.8814, 122, 0, 4233.846, 4314.359, 4190.769, 4193.846, 4204.615, 450, 0, []
1627802600.8892, 123, 0, 4228.205, 4289.744, 4152.821, 4176.41, 4198.974, 16196, 0, []
1627802600.897, 124, 0, 4231.282, 4269.231, 4178.462, 4187.179, 4201.026, 450, 0, []
1627802600.905, 125, 0, 4234.359, 4295.385, 4177.436, 4200.513, 4208.718, 450, 0, []
1627802600.9129, 126, 0, 4234.872, 4309.744, 4188.718, 4199.487, 4217.949, 450, 0, []
1627802600.9209, 127, 0, 4233.333, 4293.846, 4182.564, 4204.103, 4222.564, 16196, 0, []
1627802600.9288, 128, 0, 4227.179, 4284.615, 4171.795, 4205.128, 4216.41, 450, 0, []
1627802600.9367, 0, 0, 4229.744, 4297.949, 4191.795, 4201.026, 4214.359, 450, 0, []
1627802600.9446, 1, 0, 4241.538, 4314.359, 4183.077, 4207.692, 4220.513, 450, 0, []
1627802600.9526, 2, 0, 4235.385, 4304.615, 4185.128, 4210.769, 4211.282, 16184, 0, []
1627802600.9605, 3, 0, 4219.487, 4291.795, 4184.103, 4200, 4197.949, 450, 0, []
1627802600.9683, 4, 0, 4222.564, 4306.667, 4180, 4194.359, 4206.154, 16148, 0, []
1627802600.9761, 5, 0, 4224.615, 4310.769, 4197.436, 4196.923, 4210.769, 450, 0, []
1627802600.9839, 6, 0, 4214.872, 4281.538, 4186.667, 4198.462, 4201.026, 326, 0, []
1627802600.9918, 7, 0, 4221.026, 4286.154, 4192.308, 4199.487, 4203.077, 450, 0, []
1627802600.9996, 8, 0, 4234.359, 4302.564, 4194.359, 4195.897, 4210.256, 450, 0, []
1627802601.0075, 9, 0, 4231.795, 4275.385, 4173.846, 4191.282, 4207.692, 16162, 0, []
1627802601.0152, 10, 0, 4229.744, 4278.462, 4182.051, 4197.949, 4203.59, 450, 0, []
1627802601.0231, 11, 0, 4233.846, 4322.051, 4171.795, 4202.564, 4202.564, 16196, 0, []
1627802601.0309, 12, 0, 4232.821, 4306.667, 4170.256, 4195.897, 4206.154, 450, 0, []
1627802601.0388, 13, 0, 4231.795, 4263.077, 4181.538, 4196.41, 4216.41, 450, 0, []
1627802601.0466, 14, 0, 4228.718, 4286.667, 4172.821, 4202.051, 4219.487, 450, 0, []
1627802601.0544, 15, 0, 4218.974, 4313.846, 4182.051, 4191.282, 4210.769, 16196, 0, []
1627802601.0622, 16, 0, 4214.359, 4285.128, 4173.846, 4177.949, 4203.077, 0, 0, []
1627802601.0702, 17, 0, 4217.436, 4265.641, 4176.923, 4184.615, 4204.103, 0, 0, []
1627802601.0781, 18, 0, 4216.41, 4282.564, 4186.154, 4188.205, 4201.538, 0, 0, []
1627802601.0861, 19, 0, 4216.41, 4290.769, 4173.333, 4182.564, 4199.487, 0, 0, []
1627802601.0939, 20, 0, 4218.974, 4270.769, 4194.359, 4189.231, 4207.692, 0, 0, []
1627802601.1019, 21, 0, 4217.436, 4261.538, 4192.308, 4195.897, 4207.179, 0, 0, []
1627802601.1098, 22, 0, 4212.308, 4278.462, 4176.923, 4197.949, 4199.487, 0, 0, []
1627802601.1178, 23, 0, 4210.256, 4290.769, 4191.795, 4203.077, 4199.487, 0, 0, []
1627802601.1257, 24, 0, 4216.923, 4284.103, 4190.769, 4202.564, 4197.949, 0, 0, []
1627802601.1335, 25, 0, 4231.795, 4278.974, 4194.359, 4201.026, 4194.872, 0, 0, []
1627802601.1414, 26, 0, 4235.385, 4288.205, 4185.128, 4199.487, 4201.538, 0, 0, []
1627802601.1492, 27, 0, 4222.051, 4295.897, 4178.462, 4194.872, 4200.513, 0, 0, []
1627802601.1571, 28, 0, 4214.359, 4285.128, 4185.641, 4196.923, 4188.718, 0, 0, []
1627802601.1649, 29, 0, 4216.41, 4261.538, 4165.128, 4194.359, 4189.231, 0, 0, []
1627802601.1727, 30, 0, 4213.333, 4256.923, 4173.846, 4184.615, 4195.897, 0, 0, []
1627802601.1805, 31, 0, 4215.385, 4265.128, 4186.154, 4191.282, 4200.513, 0, 0, []
1627802601.1884, 32, 0, 4218.974, 4258.974, 4176.41, 4200.513, 4197.949, 0, 0, []
1627802601.1962, 33, 0, 4209.231, 4258.462, 4182.051, 4197.436, 4186.154, 0, 0, []
1627802601.2042, 34, 0, 4204.615, 4260.513, 4175.385, 4193.333, 4178.974, 0, 0, []
1627802601.212, 35, 0, 4211.282, 4242.051, 4187.179, 4193.846, 4184.615, 0, 0, []
1627802601.22, 36, 0, 4214.359, 4233.846, 4195.897, 4194.359, 4194.359, 0, 0, []
1627802601.2279, 37, 0, 4208.718, 4256.923, 4176.41, 4192.308, 4192.308, 0, 0, []
1627802601.2359, 38, 0, 4204.615, 4277.436, 4179.487, 4187.692, 4191.282, 0, 0, []
1627802601.2438, 39, 0, 4207.179, 4272.308, 4172.308, 4180.513, 4192.821, 0, 0, []
1627802601.2517, 40, 0, 4211.282, 4241.026, 4176.41, 4182.051, 4188.718, 0, 0, []
1627802601.2596, 41, 0, 4214.872, 4231.282, 4187.692, 4192.308, 4190.769, 0, 0, []
1627802601.2676, 42, 0, 4215.897, 4258.462, 4155.385, 4193.846, 4201.026, 0, 0, []
1627802601.2755, 43, 0, 4214.359, 4260.513, 4191.282, 4189.231, 4201.538, 0, 0, []
1627802601.2835, 44, 0, 4205.128, 4233.333, 4225.128, 4185.128, 4188.205, 0, 0, []
1627802601.2913, 45, 0, 4196.923, 4247.179, 4125.641, 4176.41, 4181.026, 0, 0, []
1627802601.2993, 46, 0, 4203.59, 4283.59, 4147.692, 4177.949, 4188.718, 0, 0, []
1627802601.3072, 47, 0, 4212.821, 4270.769, 4233.333, 4191.795, 4202.564, 0, 0, []
1627802601.315, 48, 0, 4216.41, 4251.795, 4193.846, 4193.846, 4204.103, 0, 0, []
1627802601.3229, 49, 0, 4215.385, 4270.769, 4176.41, 4189.744, 4196.41, 0, 0, []
1627802601.3306, 50, 0, 4214.872, 4284.615, 4192.308, 4191.795, 4205.128, 0, 0, []
1627802601.3385, 51, 0, 4221.026, 4285.641, 4220, 4198.462, 4222.564, 0, 0, []
1627802601.3463, 52, 0, 4223.077, 4275.897, 4176.923, 4194.359, 4220.513, 0, 0, []
1627802601.3542, 53, 0, 4219.487, 4258.974, 4163.59, 4193.333, 4213.846, 0, 0, []
1627802601.362, 54, 0, 4225.641, 4271.282, 4233.333, 4213.333, 4227.179, 0, 0, []
1627802601.3698, 55, 0, 4228.718, 4284.615, 4186.154, 4220.513, 4231.282, 0, 0, []
1627802601.3776, 56, 0, 4218.974, 4263.077, 4184.615, 4214.359, 4217.436, 0, 0, []
1627802601.3856, 57, 0, 4213.333, 4262.564, 4201.538, 4211.282, 4214.872, 0, 0, []
1627802601.3935, 58, 0, 4214.872, 4294.872, 4176.41, 4207.179, 4214.872, 0, 0, []
1627802601.4015, 59, 0, 4216.41, 4292.308, 4200, 4204.615, 4213.333, 0, 0, []
1627802601.4093, 60, 0, 4214.359, 4252.308, 4187.692, 4195.385, 4210.256, 0, 0, []
1627802601.4173, 61, 0, 4214.359, 4246.154, 4189.231, 4185.128, 4203.077, 0, 0, []
1627802601.4252, 62, 0, 4223.59, 4270.256, 4178.974, 4191.795, 4207.692, 0, 0, []
1627802601.4332, 63, 0, 4233.846, 4274.872, 4185.128, 4204.615, 4221.538, 0, 0, []
1627802601.4411, 64, 0, 4233.333, 4262.051, 4202.564, 4204.103, 4219.487, 450, 0, []
1627802601.4488, 65, 0, 4232.821, 4257.949, 4176.41, 4199.487, 4214.359, 450, 0, []
1627802601.4567, 66, 0, 4232.308, 4266.154, 4198.974, 4205.641, 4218.974, 16184, 0, []
1627802601.4645, 67, 0, 4218.462, 4272.821, 4180, 4201.538, 4207.692, 450, 0, []
1627802601.4724, 68, 0, 4209.231, 4262.051, 4169.231, 4194.872, 4195.897, 16148, 0, []
1627802601.4802, 69, 0, 4215.897, 4247.692, 4192.821, 4199.487, 4198.974, 450, 0, []
1627802601.488, 70, 0, 4214.359, 4255.385, 4170.256, 4200.513, 4198.462, 294, 0, []
1627802601.4958, 71, 0, 4203.077, 4262.051, 4191.795, 4197.949, 4194.872, 450, 0, []
1627802601.5037, 72, 0, 4197.436, 4247.179, 4185.641, 4183.077, 4197.436, 450, 0, []
1627802601.5115, 73, 0, 4202.051, 4243.59, 4176.41, 4175.897, 4199.487, 16159, 0, []
1627802601.5194, 74, 0, 4212.308, 4256.41, 4196.923, 4188.205, 4201.538, 450, 0, []
1627802601.5271, 75, 0, 4215.385, 4265.128, 4175.897, 4191.795, 4209.744, 16196, 0, []
1627802601.5351, 76, 0, 4216.41, 4264.615, 4192.821, 4190.769, 4217.949, 450, 0, []
1627802601.543, 77, 0, 4224.103, 4250.769, 4183.077, 4198.462, 4219.487, 450, 0, []
1627802601.551, 78, 0, 4228.718, 4241.538, 4175.897, 4204.615, 4213.846, 450, 0, []
1627802601.5589, 79, 0, 4232.308, 4253.333, 4201.026, 4207.692, 4209.231, 16196, 0, []
1627802601.5668, 80, 0, 4244.615, 4272.308, 4172.308, 4211.795, 4213.333, 450, 0, []
1627802601.5747, 81, 0, 4253.333, 4290.256, 4188.205, 4208.718, 4225.128, 450, 0, []
1627802601.5827, 82, 0, 4249.744, 4285.641, 4187.692, 4200.513, 4234.872, 450, 0, []
1627802601.5906, 83, 0, 4243.077, 4254.872, 4169.744, 4194.359, 4232.308, 16196, 0, []
1627802601.5984, 84, 0, 4237.436, 4253.846, 4197.436, 4189.231, 4216.923, 450, 0, []
1627802601.6062, 85, 0, 4231.282, 4278.974, 4175.385, 4184.103, 4194.359, 450, 0, []
1627802601.614, 86, 0, 4231.282, 4266.667, 4180.513, 4190.256, 4193.846, 450, 0, []
1627802601.6219, 87, 0, 4233.333, 4246.667, 4182.051, 4197.436, 4212.308, 16196, 0, []
1627802601.6297, 88, 0, 4232.308, 4260.513, 4170.769, 4198.462, 4214.872, 450, 0, []
1627802601.6376, 89, 0, 4236.41, 4272.308, 4208.205, 4209.231, 4209.231, 450, 0, []
1627802601.6454, 90, 0, 4233.846, 4260.513, 4188.205, 4207.692, 4215.385, 450, 0, []
1627802601.6532, 91, 0, 4221.538, 4245.128, 4188.718, 4195.897, 4220.513, 16196, 0, []
1627802601.661, 92, 0, 4217.949, 4239.487, 4194.359, 4196.923, 4213.333, 450, 0, []
1627802601.6689, 93, 0, 4222.564, 4241.026, 4172.308, 4203.59, 4212.308, 450, 0, []
1627802601.6767, 94, 0, 4226.667, 4245.128, 4195.897, 4201.026, 4221.026, 450, 0, []
1627802601.6846, 95, 0, 4226.667, 4251.795, 4177.436, 4190.256, 4212.821, 16196, 0, []
1627802601.6923, 96, 0, 4222.051, 4244.615, 4185.641, 4189.231, 4198.462, 450, 0, []
1627802601.7003, 97, 0, 4217.949, 4223.59, 4203.077, 4190.769, 4204.103, 450, 0, []
1627802601.7082, 98, 0, 4221.026, 4244.103, 4186.154, 4187.179, 4209.744, 450, 0, []
1627802601.7162, 99, 0, 4222.564, 4276.923, 4211.282, 4185.641, 4196.923, 16196, 0, []
1627802601.7241, 100, 0, 4220, 4243.59, 4182.051, 4181.538, 4190.769, 450, 0, []
1627802601.732, 101, 0, 4242.564, 4228.718, 4178.462, 4185.641, 4217.949, 450, 0, []
1627802601.7399, 102, 0, 4297.949, 4271.282, 4208.205, 4198.974, 4272.821, 450, 0, []
1627802601.7479, 103, 0, 4369.744, 4272.308, 4180, 4206.667, 4342.564, 16196, 0, []
1627802601.7558, 104, 0, 4461.026, 4250.256, 4198.462, 4218.974, 4421.026, 450, 0, []
1627802601.7638, 105, 0, 4549.231, 4259.487, 4200.513, 4236.41, 4502.564, 450, 0, []
1627802601.7716, 106, 0, 4593.333, 4265.128, 4189.744, 4229.744, 4559.487, 450, 0, []
1627802601.7794, 107, 0, 4609.744, 4255.385, 4192.821, 4204.103, 4580, 16196, 0, []
1627802601.7873, 108, 0, 4628.718, 4236.923, 4171.795, 4201.026, 4596.41, 450, 0, []
1627802601.7951, 109, 0, 4631.795, 4223.59, 4206.667, 4218.462, 4614.359, 450, 0, []
1627802601.803, 110, 0, 4616.923, 4249.231, 4198.462, 4218.974, 4607.692, 450, 0, []
1627802601.8107, 111, 0, 4612.308, 4257.949, 4174.872, 4212.308, 4599.487, 16196, 0, []
1627802601.8186, 112, 0, 4623.077, 4226.667, 4192.308, 4216.41, 4612.308, 450, 0, []
1627802601.8264, 113, 0, 4633.333, 4242.051, 4166.154, 4204.103, 4615.385, 450, 0, []
1627802601.8344, 114, 0, 4644.615, 4276.41, 4183.077, 4191.282, 4607.692, 450, 0, []
1627802601.8423, 115, 0, 4658.462, 4269.231, 4191.282, 4211.282, 4624.103, 16196, 0, []
1627802601.8502, 116, 0, 4666.667, 4271.282, 4191.282, 4233.333, 4645.641, 450, 0, []
1627802601.8581, 117, 0, 4664.103, 4279.487, 4215.897, 4217.436, 4642.051, 450, 0, []
1627802601.8661, 118, 0, 4657.436, 4254.359, 4172.308, 4199.487, 4633.333, 450, 0, []
1627802601.874, 119, 0, 4648.718, 4240.513, 4177.949, 4208.718, 4626.667, 16196, 0, []
1627802601.882, 120, 0, 4634.872, 4250.769, 4193.333, 4204.615, 4611.795, 450, 0, []
1627802601.8898, 121, 0, 4625.128, 4255.897, 4179.487, 4191.282, 4602.051, 450, 0, []
1627802601.8978, 122, 0, 4613.846, 4255.385, 4198.462, 4198.462, 4594.359, 450, 0, []
1627802601.9057, 123, 0, 4587.692, 4264.103, 4167.692, 4202.051, 4573.846, 16196, 0, []
1627802601.9137, 124, 0, 4557.436, 4276.41, 4171.282, 4197.436, 4552.308, 450, 0, []
1627802601.9216, 125, 0, 4532.308, 4265.641, 4180.513, 4203.59, 4531.282, 450, 0, []
1627802601.9293, 126, 0, 4505.641, 4250.256, 4165.641, 4210.256, 4497.436, 450, 0, []
1627802601.9372, 127, 0, 4480.513, 4264.615, 4197.949, 4213.333, 4467.692, 16196, 0, []
1627802601.945, 128, 0, 4453.846, 4270.256, 4170.769, 4207.692, 4441.026, 450, 0, []
1627802601.9529, 0, 0, 4427.692, 4249.231, 4165.128, 4197.949, 4409.744, 450, 0, []
1627802601.9607, 1, 0, 4411.795, 4246.667, 4186.154, 4199.487, 4390.256, 450, 0, []
1627802601.9685, 2, 0, 4396.41, 4261.026, 4167.692, 4201.538, 4376.923, 16184, 0, []
1627802601.9763, 3, 0, 4372.308, 4271.282, 4195.385, 4203.077, 4353.846, 450, 0, []
1627802601.9842, 4, 0, 4346.154, 4281.026, 4188.205, 4210.256, 4331.795, 16142, 0, []
1627802601.992, 5, 0, 4320, 4267.179, 4184.103, 4207.692, 4308.205, 450, 0, []
1627802602, 6, 0, 4300.513, 4253.333, 4198.462, 4203.077, 4281.538, 295, 0, []
1627802602.0078, 7, 0, 4288.205, 4263.077, 4182.564, 4204.615, 4266.667, 450, 0, []
1627802602.0158, 8, 0, 4268.718, 4256.923, 4204.103, 4200.513, 4250.256, 450, 0, []
1627802602.0237, 9, 0, 4243.59, 4236.923, 4183.077, 4191.795, 4230.769, 16159, 0, []
1627802602.0317, 10, 0, 4228.718, 4239.487, 4174.872, 4194.359, 4225.641, 450, 0, []
1627802602.0396, 11, 0, 4220, 4257.949, 4188.718, 4200, 4218.974, 16194, 0, []
1627802602.0475, 12, 0, 4210.769, 4260, 4156.923, 4201.538, 4199.487, 450, 0, []
1627802602.0554, 13, 0, 4195.897, 4234.872, 4182.564, 4202.051, 4181.538, 450, 0, []
1627802602.0633, 14, 0, 4174.359, 4225.128, 4177.436, 4194.872, 4170.256, 450, 0, []
1627802602.0712, 15, 0, 4158.462, 4245.128, 4164.615, 4184.103, 4155.385, 16194, 0, []
1627802602.079, 16, 0, 4157.436, 4246.154, 4198.462, 4182.051, 4144.615, 0, 0, []
1627802602.0868, 17, 0, 4155.897, 4220, 4176.41, 4186.154, 4147.692, 0, 0, []
1627802602.0946, 18, 0, 4147.179, 4216.41, 4185.128, 4192.308, 4151.795, 0, 0, []
1627802602.1025, 19, 0, 4135.385, 4226.154, 4182.564, 4184.615, 4140.513, 0, 0, []
1627802602.1103, 20, 0, 4130.769, 4225.641, 4171.795, 4179.487, 4127.179, 0, 0, []
1627802602.1183, 21, 0, 4131.795, 4244.103, 4197.949, 4192.308, 4129.231, 0, 0, []
1627802602.1261, 22, 0, 4121.026, 4270.256, 4166.154, 4186.154, 4122.564, 0, 0, []
1627802602.134, 23, 0, 4107.179, 4243.59, 4172.821, 4171.282, 4102.564, 0, 0, []
1627802602.1418, 24, 0, 4107.179, 4214.872, 4178.462, 4176.923, 4096.923, 0, 0, []
1627802602.1498, 25, 0, 4105.641, 4235.385, 4158.462, 4175.897, 4094.872, 0, 0, []
1627802602.1577, 26, 0, 4101.538, 4250.256, 4187.692, 4170.256, 4090.256, 0, 0, []
1627802602.1656, 27, 0, 4107.692, 4230.769, 4171.282, 4183.077, 4090.769, 0, 0, []
1627802602.1735, 28, 0, 4111.282, 4224.103, 4171.795, 4194.872, 4092.308, 0, 0, []
1627802602.1815, 29, 0, 4106.154, 4238.462, 4169.231, 4184.103, 4094.872, 0, 0, []
1627802602.1894, 30, 0, 4103.59, 4262.564, 4150.769, 4176.923, 4099.487, 0, 0, []
1627802602.1974, 31, 0, 4104.615, 4270.256, 4191.282, 4188.718, 4097.949, 0, 0, []
1627802602.2052, 32, 0, 4102.564, 4240, 4175.897, 4190.256, 4094.872, 0, 0, []
1627802602.2132, 33, 0, 4101.538, 4226.667, 4170.256, 4190.256, 4105.641, 0, 0, []
1627802602.2211, 34, 0, 4105.128, 4249.744, 4183.077, 4200.513, 4112.821, 0, 0, []
1627802602.2291, 35, 0, 4107.692, 4260.513, 4171.795, 4200, 4105.641, 0, 0, []
1627802602.237, 36, 0, 4107.692, 4246.154, 4203.59, 4196.923, 4103.59, 0, 0, []
1627802602.2447, 37, 0, 4102.051, 4226.667, 4171.795, 4189.231, 4094.359, 0, 0, []
1627802602.2526, 38, 0, 4098.462, 4230.769, 4156.923, 4180, 4079.487, 0, 0, []
1627802602.2604, 39, 0, 4102.051, 4254.872, 4184.103, 4185.641, 4082.564, 0, 0, []
1627802602.2683, 40, 0, 4104.615, 4255.897, 4166.667, 4194.359, 4089.744, 0, 0, []
1627802602.2761, 41, 0, 4107.179, 4225.641, 4186.667, 4195.385, 4085.128, 0, 0, []
1627802602.2839, 42, 0, 4109.744, 4224.103, 4177.436, 4195.385, 4089.231, 0, 0, []
1627802602.2917, 43, 0, 4110.256, 4262.564, 4167.692, 4196.923, 4101.026, 0, 0, []
1627802602.2996, 44, 0, 4110.256, 4271.795, 4177.949, 4195.897, 4093.333, 0, 0, []
1627802602.3074, 45, 0, 4101.538, 4230.256, 4150.769, 4200, 4082.051, 0, 0, []
1627802602.3154, 46, 0, 4092.821, 4218.462, 4178.462, 4203.59, 4086.154, 0, 0, []
1627802602.3232, 47, 0, 4092.821, 4242.051, 4177.436, 4184.103, 4079.487, 0, 0, []
1627802602.3312, 48, 0, 4087.692, 4225.641, 4162.564, 4168.205, 4062.051, 0, 0, []
1627802602.3391, 49, 0, 4076.41, 4199.487, 4177.949, 4175.385, 4053.846, 0, 0, []
1627802602.3471, 50, 0, 4080, 4209.231, 4146.667, 4178.462, 4057.436, 0, 0, []
1627802602.355, 51, 0, 4092.821, 4218.974, 4167.179, 4178.462, 4059.487, 0, 0, []
1627802602.3629, 52, 0, 4092.821, 4217.949, 4175.897, 4189.231, 4061.026, 0, 0, []
1627802602.3708, 53, 0, 4091.795, 4213.333, 4161.538, 4191.282, 4064.615, 0, 0, []
1627802602.3786, 54, 0, 4104.615, 4219.487, 4188.205, 4182.051, 4075.897, 0, 0, []
1627802602.3865, 55, 0, 4114.872, 4247.692, 4171.795, 4177.436, 4092.308, 0, 0, []
1627802602.3943, 56, 0, 4118.462, 4246.154, 4185.641, 4184.615, 4096.923, 0, 0, []
1627802602.4021, 57, 0, 4125.128, 4222.051, 4187.179, 4190.256, 4095.897, 0, 0, []
1627802602.4099, 58, 0, 4129.231, 4232.308, 4165.641, 4187.179, 4105.641, 0, 0, []
1627802602.4178, 59, 0, 4139.487, 4237.949, 4186.667, 4187.179, 4129.231, 0, 0, []
1627802602.4256, 60, 0, 4167.692, 4224.615, 4158.462, 4175.897, 4154.359, 0, 0, []
1627802602.4335, 61, 0, 4211.282, 4230.769, 4168.205, 4162.564, 4188.718, 0, 0, []
1627802602.4413, 62, 0, 4269.231, 4231.282, 4187.179, 4172.821, 4246.667, 0, 0, []
1627802602.4492, 63, 0, 4332.821, 4217.436, 4164.103, 4184.615, 4303.59, 0, 0, []
1627802602.4571, 64, 0, 4389.744, 4214.872, 4183.59, 4182.051, 4350.256, 450, 0, []
1627802602.4651, 65, 0, 4431.795, 4206.154, 4167.692, 4182.051, 4396.41, 450, 0, []
1627802602.473, 66, 0, 4458.974, 4210.256, 4179.487, 4196.41, 4426.667, 16187, 0, []
1627802602.481, 67, 0, 4455.897, 4231.282, 4196.41, 4200, 4415.385, 450, 0, []
1627802602.4888, 68, 0, 4426.154, 4221.026, 4162.051, 4188.205, 4386.667, 16144, 0, []
1627802602.4968, 69, 0, 4401.026, 4210.769, 4188.205, 4190.769, 4374.872, 450, 0, []
1627802602.5047, 70, 0, 4383.59, 4232.821, 4190.769, 4202.564, 4360.513, 295, 0, []
1627802602.5127, 71, 0, 4348.205, 4242.051, 4188.718, 4195.897, 4321.538, 450, 0, []
1627802602.5206, 72, 0, 4298.462, 4228.718, 4193.846, 4171.795, 4278.974, 450, 0, []
1627802602.5283, 73, 0, 4269.231, 4220.513, 4169.744, 4165.128, 4257.949, 16159, 0, []
1627802602.5362, 74, 0, 4259.487, 4204.615, 4198.974, 4178.974, 4247.692, 450, 0, []
1627802602.544, 75, 0, 4241.026, 4188.205, 4187.179, 4185.641, 4226.154, 16200, 0, []
1627802602.5519, 76, 0, 4217.436, 4201.538, 4173.846, 4190.256, 4201.538, 450, 0, []
1627802602.5597, 77, 0, 4203.077, 4229.231, 4189.744, 4195.385, 4182.564, 450, 0, []
1627802602.5675, 78, 0, 4192.308, 4240, 4163.59, 4191.282, 4171.282, 450, 0, []
1627802602.5753, 79, 0, 4181.538, 4221.026, 4182.564, 4184.615, 4163.59, 16200, 0, []
1627802602.5832, 80, 0, 4174.872, 4201.026, 4174.359, 4174.872, 4155.385, 450, 0, []
1627802602.591, 81, 0, 4175.385, 4220, 4168.205, 4173.333, 4154.359, 450, 0, []
1627802602.599, 82, 0, 4175.385, 4241.026, 4203.077, 4178.462, 4150.256, 450, 0, []
1627802602.6068, 83, 0, 4161.026, 4215.897, 4177.949, 4169.231, 4132.308, 16200, 0, []
1627802602.6147, 84, 0, 4150.256, 4196.41, 4185.641, 4171.282, 4128.205, 450, 0, []
1627802602.6225, 85, 0, 4152.308, 4225.128, 4188.718, 4191.795, 4141.026, 450, 0, []
1627802602.6305, 86, 0, 4147.692, 4249.744, 4174.872, 4195.385, 4133.333, 450, 0, []
1627802602.6384, 87, 0, 4134.359, 4244.615, 4194.872, 4187.692, 4115.385, 16200, 0, []
1627802602.6463, 88, 0, 4128.718, 4233.333, 4177.436, 4190.256, 4116.923, 450, 0, []
1627802602.6542, 89, 0, 4128.718, 4216.923, 4198.462, 4197.949, 4119.487, 450, 0, []
1627802602.6622, 90, 0, 4122.564, 4216.41, 4200.513, 4194.359, 4109.231, 450, 0, []
1627802602.6701, 91, 0, 4116.923, 4235.385, 4178.462, 4191.282, 4104.103, 16200, 0, []
1627802602.6781, 92, 0, 4118.462, 4239.487, 4202.564, 4200, 4110.769, 450, 0, []
1627802602.6859, 93, 0, 4112.821, 4228.205, 4170.769, 4190.769, 4106.667, 450, 0, []
1627802602.6937, 94, 0, 4103.077, 4217.949, 4170.256, 4177.436, 4097.949, 450, 0, []
1627802602.7016, 95, 0, 4111.282, 4215.385, 4188.718, 4187.692, 4109.231, 16200, 0, []
1627802602.7095, 96, 0, 4119.487, 4216.41, 4176.923, 4196.923, 4117.436, 450, 0, []
1627802602.7174, 97, 0, 4116.41, 4217.949, 4203.077, 4189.744, 4114.872, 450, 0, []
1627802602.7251, 98, 0, 4117.436, 4223.077, 4178.462, 4187.179, 4114.872, 450, 0, []
1627802602.733, 99, 0, 4115.897, 4225.641, 4172.821, 4185.641, 4111.795, 16200, 0, []
1627802602.7408, 100, 0, 4104.615, 4217.949, 4188.205, 4183.59, 4103.077, 450, 0, []
1627802602.7487, 101, 0, 4099.487, 4210.769, 4167.692, 4186.667, 4098.974, 450, 0, []
1627802602.7565, 102, 0, 4106.154, 4228.718, 4191.795, 4187.179, 4098.974, 450, 0, []
1627802602.7644, 103, 0, 4116.923, 4248.205, 4180, 4188.205, 4105.128, 16200, 0, []
1627802602.7723, 104, 0, 4117.436, 4232.821, 4179.487, 4197.436, 4114.359, 450, 0, []
1627802602.7803, 105, 0, 4093.333, 4209.231, 4194.359, 4190.256, 4100.513, 450, 0, []
1627802602.7882, 106, 0, 4073.333, 4214.359, 4158.462, 4174.359, 4074.359, 450, 0, []
1627802602.7962, 107, 0, 4082.564, 4233.846, 4184.615, 4183.077, 4075.385, 16200, 0, []
1627802602.804, 108, 0, 4091.795, 4239.487, 4188.205, 4185.128, 4085.128, 450, 0, []
1627802602.812, 109, 0, 4088.205, 4233.846, 4178.974, 4167.692, 4079.487, 450, 0, []
1627802602.8199, 110, 0, 4095.385, 4209.744, 4197.436, 4167.179, 4078.974, 450, 0, []
1627802602.8279, 111, 0, 4103.077, 4191.795, 4168.718, 4168.718, 4086.667, 16200, 0, []
1627802602.8358, 112, 0, 4093.846, 4216.41, 4186.154, 4164.103, 4080, 450, 0, []
1627802602.8437, 113, 0, 4086.667, 4238.462, 4191.282, 4173.846, 4075.385, 450, 0, []
1627802602.8516, 114, 0, 4094.872, 4237.436, 4182.564, 4190.769, 4088.718, 450, 0, []
1627802602.8594, 115, 0, 4098.462, 4225.641, 4194.359, 4190.769, 4095.897, 16200, 0, []
1627802602.8673, 116, 0, 4094.359, 4208.718, 4163.59, 4178.974, 4088.205, 450, 0, []
1627802602.8751, 117, 0, 4095.897, 4203.59, 4182.564, 4169.744, 4082.564, 450, 0, []
1627802602.8829, 118, 0, 4087.179, 4213.333, 4176.923, 4154.359, 4080, 450, 0, []
1627802602.8907, 119, 0, 4072.308, 4226.667, 4153.846, 4133.333, 4069.744, 16200, 0, []
1627802602.8986, 120, 0, 4072.308, 4231.795, 4183.59, 4125.128, 4058.974, 450, 0, []
1627802602.9064, 121, 0, 4077.436, 4225.641, 4156.923, 4130.256, 4065.128, 450, 0, []
1627802602.9143, 122, 0, 4080.513, 4210.769, 4154.872, 4153.846, 4074.872, 450, 0, []
1627802602.922, 123, 0, 4089.744, 4210.256, 4165.128, 4187.179, 4074.872, 16200, 0, []
1627802602.93, 124, 0, 4094.872, 4220.513, 4158.462, 4204.615, 4084.103, 450, 0, []
1627802602.9379, 125, 0, 4088.205, 4213.846, 4188.718, 4201.026, 4096.923, 450, 0, []
1627802602.9459, 126, 0, 4093.846, 4208.205, 4173.333, 4195.897, 4093.846, 450, 0, []
1627802602.9538, 127, 0, 4108.718, 4209.231, 4186.154, 4199.487, 4093.333, 16200, 0, []
1627802602.9617, 128, 0, 4103.59, 4221.026, 4191.795, 4191.795, 4099.487, 450, 0, []
1627802602.9696, 0, 0, 4088.205, 4232.308, 4158.462, 4170.769, 4093.333, 450, 0, []
1627802602.9776, 1, 0, 4090.256, 4231.795, 4182.051, 4167.179, 4086.667, 450, 0, []
1627802602.9855, 2, 0, 4093.846, 4241.538, 4173.333, 4171.795, 4093.333, 16187, 0, []
1627802602.9935, 3, 0, 4092.308, 4242.564, 4185.641, 4173.846, 4103.59, 450, 0, []
1627802603.0013, 4, 0, 4105.128, 4218.462, 4207.179, 4185.128, 4115.385, 16144, 0, []
1627802603.0091, 5, 0, 4113.846, 4214.872, 4172.821, 4186.667, 4121.026, 450, 0, []
1627802603.017, 6, 0, 4103.59, 4232.821, 4180, 4171.282, 4115.897, 294, 0, []
1627802603.0248, 7, 0, 4097.949, 4220, 4159.487, 4166.154, 4108.718, 450, 0, []
1627802603.0327, 8, 0, 4099.487, 4213.846, 4153.846, 4168.718, 4097.949, 450, 0, []
1627802603.0404, 9, 0, 4101.538, 4234.359, 4174.872, 4170.256, 4094.872, 16159, 0, []
1627802603.0483, 10, 0, 4113.846, 4225.128, 4161.026, 4182.564, 4110.256, 450, 0, []
1627802603.0561, 11, 0, 4126.667, 4217.949, 4192.821, 4203.59, 4125.641, 16200, 0, []
1627802603.064, 12, 0, 4121.026, 4231.795, 4172.308, 4196.41, 4119.487, 450, 0, []
1627802603.0718, 13, 0, 4113.333, 4224.615, 4151.795, 4174.872, 4107.179, 450, 0, []
1627802603.0796, 14, 0, 4127.179, 4226.667, 4194.872, 4183.59, 4114.359, 450, 0, []
1627802603.0874, 15, 0, 4140.513, 4252.308, 4187.692, 4195.385, 4128.718, 16200, 0, []
1627802603.0954, 16, 0, 4135.897, 4249.231, 4195.385, 4184.615, 4125.641, 0, 0, []
1627802603.1033, 17, 0, 4136.923, 4242.564, 4187.179, 4180, 4121.538, 0, 0, []
1627802603.1113, 18, 0, 4150.256, 4266.667, 4185.641, 4200.513, 4138.974, 0, 0, []
1627802603.1191, 19, 0, 4158.974, 4272.821, 4212.308, 4215.385, 4154.872, 0, 0, []
1627802603.1271, 20, 0, 4161.538, 4257.436, 4178.462, 4203.077, 4154.872, 0, 0, []
1627802603.135, 21, 0, 4181.538, 4252.308, 4181.026, 4190.769, 4168.718, 0, 0, []
1627802603.143, 22, 0, 4235.897, 4246.667, 4179.487, 4196.41, 4213.846, 0, 0, []
1627802603.1509, 23, 0, 4306.667, 4241.538, 4171.795, 4212.308, 4278.462, 0, 0, []
1627802603.1587, 24, 0, 4372.821, 4261.026, 4192.821, 4216.923, 4339.487, 0, 0, []
1627802603.1665, 25, 0, 4435.897, 4278.462, 4157.436, 4208.205, 4391.282, 0, 0, []
1627802603.1743, 26, 0, 4488.205, 4267.692, 4172.821, 4211.795, 4439.487, 0, 0, []
1627802603.1822, 27, 0, 4503.59, 4254.359, 4189.744, 4211.282, 4468.718, 0, 0, []
1627802603.19, 28, 0, 4490.769, 4245.641, 4167.692, 4195.897, 4469.231, 0, 0, []
1627802603.1979, 29, 0, 4478.974, 4245.128, 4189.231, 4202.564, 4460.513, 0, 0, []
1627802603.2056, 30, 0, 4457.436, 4259.487, 4170.256, 4210.769, 4439.487, 0, 0, []
1627802603.2135, 31, 0, 4420.513, 4246.154, 4175.897, 4195.897, 4404.103, 0, 0, []
1627802603.2213, 32, 0, 4397.436, 4216.923, 4192.821, 4194.872, 4378.974, 0, 0, []
1627802603.2293, 33, 0, 4378.462, 4224.615, 4175.897, 4205.128, 4366.154, 0, 0, []
1627802603.2372, 34, 0, 4347.692, 4237.436, 4195.897, 4196.923, 4342.564, 0, 0, []
1627802603.2451, 35, 0, 4319.487, 4233.846, 4172.821, 4186.154, 4306.154, 0, 0, []
1627802603.253, 36, 0, 4296.41, 4239.487, 4176.41, 4189.744, 4275.385, 0, 0, []
1627802603.261, 37, 0, 4272.308, 4251.282, 4199.487, 4191.795, 4260.513, 0, 0, []
1627802603.2689, 38, 0, 4257.949, 4244.103, 4167.692, 4189.744, 4249.744, 0, 0, []
1627802603.2769, 39, 0, 4241.538, 4225.128, 4174.359, 4187.692, 4230.256, 0, 0, []
1627802603.2847, 40, 0, 4215.385, 4213.846, 4159.487, 4174.872, 4208.718, 0, 0, []
1627802603.2927, 41, 0, 4206.154, 4216.41, 4169.744, 4174.359, 4201.538, 0, 0, []
1627802603.3006, 42, 0, 4210.769, 4231.795, 4196.41, 4189.231, 4202.051, 0, 0, []
1627802603.3086, 43, 0, 4200, 4240.513, 4166.667, 4185.641, 4190.769, 0, 0, []
1627802603.3165, 44, 0, 4188.205, 4247.179, 4189.231, 4180.513, 4173.846, 0, 0, []
1627802603.3242, 45, 0, 4184.103, 4250.769, 4177.949, 4187.692, 4166.154, 0, 0, []
1627802603.3321, 46, 0, 4175.385, 4245.128, 4162.564, 4189.231, 4165.641, 0, 0, []
1627802603.3399, 47, 0, 4160.513, 4251.282, 4188.205, 4177.436, 4156.41, 0, 0, []
1627802603.3478, 48, 0, 4146.667, 4255.385, 4165.641, 4173.846, 4136.923, 0, 0, []
1627802603.3556, 49, 0, 4149.744, 4228.205, 4185.128, 4192.308, 4132.821, 0, 0, []
1627802603.3634, 50, 0, 4154.872, 4206.667, 4185.641, 4198.974, 4141.026, 0, 0, []
1627802603.3712, 51, 0, 4144.103, 4220.513, 4168.718, 4185.641, 4132.821, 0, 0, []
1627802603.3791, 52, 0, 4132.821, 4233.333, 4182.564, 4177.436, 4118.462, 0, 0, []
1627802603.3869, 53, 0, 4136.41, 4228.205, 4154.872, 4177.949, 4122.564, 0, 0, []
1627802603.3948, 54, 0, 4142.051, 4225.128, 4174.872, 4178.974, 4127.692, 0, 0, []
1627802603.4025, 55, 0, 4132.308, 4240.513, 4184.615, 4182.051, 4122.564, 0, 0, []
1627802603.4105, 56, 0, 4116.41, 4247.179, 4166.154, 4190.256, 4121.538, 0, 0, []
1627802603.4184, 57, 0, 4117.949, 4220.513, 4187.179, 4201.026, 4125.128, 0, 0, []
1627802603.4264, 58, 0, 4130.769, 4213.846, 4174.872, 4203.077, 4127.692, 0, 0, []
1627802603.4343, 59, 0, 4129.231, 4245.128, 4196.923, 4196.41, 4129.231, 0, 0, []
1627802603.4422, 60, 0, 4123.077, 4250.256, 4194.359, 4198.974, 4125.128, 0, 0, []
1627802603.4501, 61, 0, 4128.718, 4236.923, 4164.615, 4209.744, 4122.051, 0, 0, []
1627802603.4581, 62, 0, 4132.821, 4247.692, 4201.026, 4215.897, 4131.795, 0, 0, []
1627802603.466, 63, 0, 4124.615, 4241.026, 4180, 4210.256, 4133.846, 0, 0, []
1627802603.4738, 64, 0, 4119.487, 4222.051, 4169.231, 4204.615, 4125.128, 450, 0, []
1627802603.4816, 65, 0, 4125.128, 4245.128, 4181.538, 4197.949, 4117.949, 450, 0, []
1627802603.4895, 66, 0, 4127.692, 4267.692, 4168.718, 4189.231, 4119.487, 16189, 0, []
1627802603.4974, 67, 0, 4130.256, 4248.718, 4194.872, 4201.538, 4134.359, 450, 0, []
1627802603.5052, 68, 0, 4133.333, 4228.718, 4173.846, 4213.333, 4147.179, 16149, 0, []
1627802603.5131, 69, 0, 4132.308, 4249.744, 4176.923, 4213.846, 4145.641, 450, 0, []
1627802603.5208, 70, 0, 4129.231, 4267.179, 4192.821, 4210.256, 4139.487, 297, 0, []
1627802603.5287, 71, 0, 4122.564, 4233.333, 4157.436, 4199.487, 4139.487, 450, 0, []
1627802603.5365, 72, 0, 4120.513, 4225.641, 4179.487, 4194.359, 4139.487, 450, 0, []
1627802603.5445, 73, 0, 4128.205, 4252.821, 4175.897, 4197.949, 4134.359, 16159, 0, []
1627802603.5524, 74, 0, 4137.949, 4242.564, 4175.385, 4201.538, 4136.41, 450, 0, []
1627802603.5603, 75, 0, 4136.923, 4231.795, 4192.821, 4206.667, 4141.026, 16200, 0, []
1627802603.5682, 76, 0, 4121.026, 4234.359, 4160, 4201.538, 4122.051, 450, 0, []
1627802603.5762, 77, 0, 4108.205, 4226.667, 4175.385, 4189.231, 4101.026, 450, 0, []
1627802603.5841, 78, 0, 4111.795, 4245.641, 4170.256, 4183.59, 4111.282, 450, 0, []
1627802603.5921, 79, 0, 4118.974, 4256.923, 4165.128, 4181.538, 4119.487, 16200, 0, []
1627802603.5999, 80, 0, 4112.821, 4218.462, 4191.795, 4177.436, 4106.154, 450, 0, []
1627802603.6079, 81, 0, 4101.538, 4222.051, 4168.718, 4177.949, 4101.026, 450, 0, []
1627802603.6158, 82, 0, 4102.564, 4256.41, 4184.103, 4185.128, 4107.179, 450, 0, []
1627802603.6237, 83, 0, 4117.436, 4236.41, 4188.205, 4188.205, 4114.872, 16200, 0, []
1627802603.6316, 84, 0, 4119.487, 4220.513, 4174.872, 4183.59, 4117.436, 450, 0, []
1627802603.6393, 85, 0, 4104.103, 4242.564, 4183.077, 4178.462, 4107.179, 450, 0, []
1627802603.6472, 86, 0, 4105.641, 4248.718, 4156.41, 4182.564, 4102.564, 450, 0, []
1627802603.655, 87, 0, 4120.513, 4240, 4183.077, 4195.385, 4115.385, 16200, 0, []
1627802603.6629, 88, 0, 4115.897, 4238.462, 4185.641, 4198.974, 4125.641, 450, 0, []
1627802603.6707, 89, 0, 4112.821, 4227.179, 4162.564, 4198.462, 4126.154, 450, 0, []
1627802603.6785, 90, 0, 4125.641, 4220.513, 4185.641, 4197.949, 4124.615, 450, 0, []
1627802603.6863, 91, 0, 4123.59, 4238.462, 4155.897, 4191.282, 4123.077, 16200, 0, []
1627802603.6942, 92, 0, 4107.179, 4237.949, 4160.513, 4190.256, 4120, 450, 0, []
1627802603.702, 93, 0, 4101.026, 4216.41, 4168.718, 4186.154, 4114.359, 450, 0, []
1627802603.71, 94, 0, 4103.077, 4230.769, 4149.744, 4183.077, 4116.41, 450, 0, []
1627802603.7178, 95, 0, 4109.744, 4260, 4184.615, 4193.846, 4126.154, 16200, 0, []
1627802603.7258, 96, 0, 4115.897, 4236.923, 4170.769, 4193.333, 4132.308, 450, 0, []
1627802603.7337, 97, 0, 4123.077, 4210.256, 4171.795, 4186.154, 4136.923, 450, 0, []
1627802603.7417, 98, 0, 4127.692, 4238.974, 4184.103, 4192.308, 4140.513, 450, 0, []
1627802603.7496, 99, 0, 4121.538, 4255.385, 4157.949, 4189.744, 4132.821, 16200, 0, []
1627802603.7575, 100, 0, 4114.872, 4221.026, 4174.872, 4188.205, 4122.564, 450, 0, []
1627802603.7654, 101, 0, 4116.41, 4209.744, 4160.513, 4200.513, 4118.974, 450, 0, []
1627802603.7734, 102, 0, 4123.077, 4243.077, 4170.769, 4206.154, 4126.154, 450, 0, []
1627802603.7813, 103, 0, 4129.231, 4253.846, 4192.308, 4205.128, 4135.385, 16200, 0, []
1627802603.7891, 104, 0, 4121.026, 4229.744, 4158.974, 4199.487, 4124.615, 450, 0, []
1627802603.7969, 105, 0, 4120, 4224.103, 4178.462, 4196.923, 4121.538, 450, 0, []
1627802603.8047, 106, 0, 4140, 4239.487, 4171.282, 4205.641, 4144.615, 450, 0, []
1627802603.8126, 107, 0, 4150.769, 4249.744, 4167.692, 4214.359, 4153.846, 16200, 0, []
1627802603.8204, 108, 0, 4135.385, 4236.923, 4185.641, 4203.077, 4136.41, 450, 0, []
1627802603.8283, 109, 0, 4115.897, 4211.282, 4152.821, 4177.949, 4126.154, 450, 0, []
1627802603.836, 110, 0, 4122.051, 4219.487, 4169.744, 4181.538, 4138.974, 450, 0, []
1627802603.844, 111, 0, 4141.538, 4239.487, 4174.872, 4199.487, 4150.769, 16200, 0, []
1627802603.8519, 112, 0, 4146.154, 4225.641, 4177.949, 4201.026, 4148.718, 450, 0, []
1627802603.8599, 113, 0, 4142.051, 4226.667, 4197.436, 4200, 4146.667, 450, 0, []
1627802603.8678, 114, 0, 4147.692, 4255.897, 4160, 4203.59, 4155.897, 450, 0, []
1627802603.8757, 115, 0, 4154.359, 4242.051, 4174.872, 4202.051, 4159.487, 16200, 0, []
1627802603.8836, 116, 0, 4154.872, 4217.949, 4182.051, 4195.897, 4152.308, 450, 0, []
1627802603.8916, 117, 0, 4160, 4248.205, 4178.462, 4198.974, 4157.436, 450, 0, []
1627802603.8995, 118, 0, 4163.59, 4257.436, 4200.513, 4203.077, 4167.692, 450, 0, []
1627802603.9075, 119, 0, 4160.513, 4234.359, 4169.744, 4200, 4164.615, 16200, 0, []
1627802603.9154, 120, 0, 4162.051, 4249.231, 4182.564, 4196.923, 4161.538, 450, 0, []
1627802603.9233, 121, 0, 4172.821, 4261.538, 4186.154, 4192.308, 4176.41, 450, 0, []
1627802603.9312, 122, 0, 4197.436, 4247.179, 4169.231, 4192.308, 4204.615, 450, 0, []
1627802603.939, 123, 0, 4238.462, 4260, 4196.923, 4200, 4244.615, 16200, 0, []
1627802603.9469, 124, 0, 4295.897, 4273.333, 4182.051, 4204.103, 4297.436, 450, 0, []
1627802603.9547, 125, 0, 4370.256, 4247.179, 4197.949, 4206.154, 4356.41, 450, 0, []
1627802603.9625, 126, 0, 4443.59, 4243.077, 4201.538, 4209.231, 4412.821, 450, 0, []
1627802603.9703, 127, 0, 4494.872, 4272.821, 4175.897, 4203.077, 4456.923, 16200, 0, []
1627802603.9782, 128, 0, 4520, 4267.179, 4203.59, 4201.026, 4488.718, 450, 0, []
1627802603.986, 0, 0, 4522.564, 4238.462, 4181.026, 4205.641, 4498.462, 450, 0, []
1627802603.9939, 1, 0, 4510.256, 4255.385, 4180, 4205.641, 4484.103, 450, 0, []
1627802604.0016, 2, 0, 4487.179, 4288.718, 4195.897, 4205.641, 4467.179, 16187, 0, []
1627802604.0096, 3, 0, 4455.385, 4265.641, 4174.872, 4210.256, 4447.179, 450, 0, []
1627802604.0175, 4, 0, 4424.103, 4237.949, 4204.615, 4213.846, 4415.385, 16149, 0, []
1627802604.0255, 5, 0, 4394.359, 4264.103, 4190.769, 4206.667, 4382.051, 450, 0, []
1627802604.0334, 6, 0, 4367.179, 4274.872, 4184.615, 4207.179, 4357.949, 287, 0, []
1627802604.0413, 7, 0, 4340.513, 4246.667, 4200, 4215.897, 4336.923, 450, 0, []
1627802604.0492, 8, 0, 4313.846, 4246.667, 4172.821, 4212.821, 4316.923, 450, 0, []
1627802604.0572, 9, 0, 4290.256, 4276.41, 4195.897, 4209.744, 4296.41, 16159, 0, []
1627802604.0651, 10, 0, 4269.744, 4272.821, 4187.179, 4205.641, 4272.308, 450, 0, []
1627802604.0731, 11, 0, 4248.718, 4245.128, 4178.462, 4194.872, 4244.103, 16200, 0, []
1627802604.0809, 12, 0, 4233.846, 4240.513, 4194.359, 4187.179, 4216.923, 450, 0, []
1627802604.0887, 13, 0, 4228.718, 4244.103, 4170.256, 4189.231, 4209.231, 450, 0, []
1627802604.0966, 14, 0, 4224.103, 4243.59, 4194.359, 4195.385, 4216.923, 450, 0, []
1627802604.1044, 15, 0, 4209.744, 4247.179, 4180, 4191.795, 4202.051, 16200, 0, []
1627802604.1123, 16, 0, 4192.821, 4230.256, 4157.436, 4181.026, 4169.231, 0, 0, []
1627802604.12, 17, 0, 4185.128, 4211.795, 4182.564, 4178.462, 4162.051, 0, 0, []
1627802604.1279, 18, 0, 4186.667, 4224.103, 4170.256, 4182.564, 4177.436, 0, 0, []
1627802604.1357, 19, 0, 4181.026, 4233.846, 4192.308, 4183.077, 4174.872, 0, 0, []
1627802604.1436, 20, 0, 4168.718, 4236.923, 4189.231, 4174.872, 4159.487, 0, 0, []
1627802604.1514, 21, 0, 4163.077, 4252.308, 4171.282, 4171.795, 4158.974, 0, 0, []
1627802604.1593, 22, 0, 4159.487, 4233.846, 4189.231, 4177.949, 4162.564, 0, 0, []
1627802604.1672, 23, 0, 4150.256, 4210.256, 4166.154, 4173.846, 4149.231, 0, 0, []
1627802604.1752, 24, 0, 4153.846, 4231.282, 4193.333, 4175.385, 4142.564, 0, 0, []
1627802604.1831, 25, 0, 4167.179, 4237.949, 4204.615, 4189.231, 4148.718, 0, 0, []
1627802604.1911, 26, 0, 4160, 4232.308, 4171.282, 4183.59, 4145.128, 0, 0, []
1627802604.1989, 27, 0, 4155.897, 4244.103, 4181.026, 4171.795, 4144.103, 0, 0, []
1627802604.2069, 28, 0, 4165.128, 4235.897, 4161.026, 4176.923, 4148.718, 0, 0, []
1627802604.2148, 29, 0, 4158.462, 4217.436, 4170.769, 4181.026, 4139.487, 0, 0, []
1627802604.2228, 30, 0, 4145.128, 4215.897, 4172.821, 4173.846, 4131.795, 0, 0, []
1627802604.2307, 31, 0, 4145.641, 4216.923, 4149.231, 4170.769, 4134.359, 0, 0, []
1627802604.2384, 32, 0, 4152.308, 4224.103, 4186.154, 4176.41, 4129.231, 0, 0, []
1627802604.2463, 33, 0, 4153.333, 4235.385, 4178.462, 4183.59, 4121.538, 0, 0, []
1627802604.2541, 34, 0, 4150.769, 4239.487, 4176.923, 4189.744, 4126.667, 0, 0, []
1627802604.262, 35, 0, 4143.077, 4246.154, 4176.923, 4184.103, 4126.667, 0, 0, []
1627802604.2698, 36, 0, 4136.41, 4243.077, 4151.282, 4170.769, 4116.41, 0, 0, []
1627802604.2776, 37, 0, 4135.897, 4229.744, 4185.641, 4172.821, 4115.897, 0, 0, []
1627802604.2854, 38, 0, 4134.872, 4236.41, 4172.308, 4177.949, 4122.564, 0, 0, []
1627802604.2933, 39, 0, 4137.949, 4232.821, 4167.692, 4180, 4123.59, 0, 0, []
1627802604.3011, 40, 0, 4141.538, 4220, 4188.205, 4184.103, 4123.59, 0, 0, []
1627802604.3091, 41, 0, 4134.359, 4222.051, 4158.462, 4177.436, 4124.103, 0, 0, []
1627802604.3169, 42, 0, 4126.667, 4207.692, 4165.641, 4174.359, 4115.385, 0, 0, []
1627802604.3249, 43, 0, 4132.821, 4204.103, 4157.436, 4183.59, 4110.769, 0, 0, []
1627802604.3328, 44, 0, 4140.513, 4229.231, 4164.615, 4185.128, 4121.026, 0, 0, []
1627802604.3408, 45, 0, 4139.487, 4216.41, 4185.641, 4175.897, 4127.179, 0, 0, []
1627802604.3487, 46, 0, 4140, 4194.872, 4158.462, 4169.231, 4121.026, 0, 0, []
1627802604.3566, 47, 0, 4136.41, 4211.795, 4176.923, 4168.718, 4115.385, 0, 0, []
1627802604.3645, 48, 0, 4128.718, 4217.436, 4160.513, 4161.538, 4113.846, 0, 0, []
1627802604.3725, 49, 0, 4134.872, 4204.103, 4147.692, 4163.077, 4117.949, 0, 0, []
1627802604.3804, 50, 0, 4146.667, 4204.615, 4180.513, 4176.923, 4120, 0, 0, []
1627802604.3883, 51, 0, 4141.026, 4192.821, 4150.769, 4174.872, 4116.923, 0, 0, []
1627802604.3961, 52, 0, 4135.385, 4186.154, 4163.59, 4178.462, 4122.051, 0, 0, []
1627802604.4039, 53, 0, 4148.718, 4219.487, 4170.256, 4200, 4129.231, 0, 0, []
1627802604.4118, 54, 0, 4154.872, 4236.923, 4156.41, 4207.692, 4123.077, 0, 0, []
1627802604.4196, 55, 0, 4147.692, 4221.026, 4185.641, 4199.487, 4121.026, 0, 0, []
1627802604.4275, 56, 0, 4149.231, 4215.897, 4169.231, 4195.897, 4132.308, 0, 0, []
1627802604.4352, 57, 0, 4157.949, 4213.846, 4182.051, 4199.487, 4135.897, 0, 0, []
1627802604.4431, 58, 0, 4157.949, 4211.795, 4185.128, 4197.436, 4130.769, 0, 0, []
1627802604.4509, 59, 0, 4145.128, 4208.205, 4159.487, 4183.077, 4122.051, 0, 0, []
1627802604.4588, 60, 0, 4140, 4190.256, 4173.846, 4170.256, 4109.744, 0, 0, []
1627802604.4666, 61, 0, 4150.256, 4183.077, 4156.41, 4171.795, 4115.897, 0, 0, []
1627802604.4745, 62, 0, 4152.308, 4210.256, 4176.41, 4180.513, 4137.436, 0, 0, []
1627802604.4824, 63, 0, 4144.103, 4222.564, 4183.59, 4177.436, 4139.487, 0, 0, []
1627802604.4904, 64, 0, 4143.59, 4182.051, 4154.359, 4171.795, 4120.513, 450, 0, []
1627802604.4983, 65, 0, 4143.077, 4159.487, 4179.487, 4173.846, 4108.718, 450, 0, []
1627802604.5063, 66, 0, 4136.923, 4197.436, 4156.923, 4172.821, 4112.308, 16187, 0, []
1627802604.5141, 67, 0, 4134.359, 4226.154, 4153.333, 4173.333, 4123.59, 450, 0, []
1627802604.5221, 68, 0, 4130.769, 4210.256, 4170.769, 4174.872, 4127.179, 16149, 0, []
1627802604.53, 69, 0, 4133.846, 4200, 4156.41, 4169.744, 4129.231, 450, 0, []
1627802604.538, 70, 0, 4160, 4202.051, 4189.231, 4171.795, 4148.205, 293, 0, []
1627802604.5459, 71, 0, 4168.205, 4190.769, 4176.923, 4169.231, 4155.385, 450, 0, []
1627802604.5536, 72, 0, 4147.692, 4189.744, 4168.718, 4165.128, 4136.41, 450, 0, []
1627802604.5615, 73, 0, 4142.564, 4210.769, 4175.897, 4174.872, 4128.718, 16159, 0, []
1627802604.5695, 74, 0, 4147.179, 4220.513, 4138.462, 4179.487, 4133.846, 450, 0, []
1627802604.5774, 75, 0, 4149.744, 4212.308, 4160, 4185.128, 4141.538, 16200, 0, []
1627802604.5852, 76, 0, 4155.385, 4201.538, 4162.564, 4191.795, 4153.333, 450, 0, []
1627802604.593, 77, 0, 4152.821, 4193.846, 4162.564, 4173.846, 4154.359, 450, 0, []
1627802604.6008, 78, 0, 4148.205, 4208.205, 4184.103, 4147.692, 4144.615, 450, 0, []
1627802604.6087, 79, 0, 4152.821, 4232.821, 4155.897, 4145.641, 4141.026, 16200, 0, []
1627802604.6165, 80, 0, 4149.744, 4215.897, 4165.128, 4154.359, 4130.769, 450, 0, []
1627802604.6245, 81, 0, 4142.051, 4178.462, 4150.769, 4158.462, 4117.436, 450, 0, []
1627802604.6323, 82, 0, 4157.949, 4186.154, 4150.769, 4181.026, 4134.872, 450, 0, []
1627802604.6403, 83, 0, 4177.436, 4221.538, 4191.795, 4203.59, 4166.154, 16200, 0, []
1627802604.6482, 84, 0, 4177.949, 4201.538, 4162.051, 4196.41, 4169.231, 450, 0, []
1627802604.6562, 85, 0, 4177.949, 4167.692, 4164.615, 4183.59, 4158.974, 450, 0, []
1627802604.6641, 86, 0, 4172.308, 4202.051, 4164.103, 4168.718, 4155.897, 450, 0, []
1627802604.6721, 87, 0, 4157.949, 4241.538, 4161.538, 4156.41, 4146.154, 16200, 0, []
1627802604.6799, 88, 0, 4150.769, 4212.821, 4194.872, 4164.103, 4128.205, 450, 0, []
1627802604.6879, 89, 0, 4152.308, 4173.846, 4166.667, 4175.385, 4121.026, 450, 0, []
1627802604.6958, 90, 0, 4152.821, 4191.282, 4179.487, 4186.667, 4134.359, 450, 0, []
1627802604.7036, 91, 0, 4151.795, 4211.795, 4191.282, 4202.051, 4147.692, 16200, 0, []
1627802604.7115, 92, 0, 4152.308, 4182.051, 4168.205, 4202.051, 4142.564, 450, 0, []
1627802604.7192, 93, 0, 4156.41, 4169.231, 4191.795, 4193.333, 4138.974, 450, 0, []
1627802604.7271, 94, 0, 4158.974, 4197.436, 4175.897, 4192.308, 4147.692, 450, 0, []
1627802604.7349, 95, 0, 4153.333, 4190.769, 4178.462, 4186.667, 4148.718, 16200, 0, []
1627802604.7428, 96, 0, 4145.128, 4174.872, 4183.59, 4172.821, 4131.282, 450, 0, []
1627802604.7506, 97, 0, 4137.436, 4208.205, 4166.667, 4162.564, 4118.462, 450, 0, []
1627802604.7584, 98, 0, 4126.667, 4227.692, 4189.231, 4159.487, 4116.923, 450, 0, []
1627802604.7662, 99, 0, 4122.564, 4212.308, 4156.923, 4155.897, 4114.872, 16200, 0, []
1627802604.7742, 100, 0, 4143.077, 4214.359, 4159.487, 4162.564, 4126.154, 450, 0, []
1627802604.7821, 101, 0, 4171.795, 4210.769, 4192.308, 4174.359, 4149.231, 450, 0, []
1627802604.7901, 102, 0, 4170.256, 4189.744, 4171.795, 4177.436, 4154.872, 450, 0, []
1627802604.7979, 103, 0, 4155.897, 4207.692, 4187.692, 4176.923, 4145.128, 16200, 0, []
1627802604.8059, 104, 0, 4157.949, 4227.179, 4180, 4173.846, 4143.59, 450, 0, []
1627802604.8138, 105, 0, 4158.462, 4205.641, 4184.103, 4174.359, 4149.744, 450, 0, []
1627802604.8218, 106, 0, 4161.538, 4197.949, 4190.256, 4178.462, 4159.487, 450, 0, []
1627802604.8297, 107, 0, 4178.974, 4221.538, 4154.872, 4178.462, 4173.333, 16200, 0, []
1627802604.8376, 108, 0, 4185.641, 4230.256, 4182.051, 4180, 4175.897, 450, 0, []
1627802604.8455, 109, 0, 4176.41, 4212.821, 4178.462, 4184.615, 4166.154, 450, 0, []
1627802604.8535, 110, 0, 4182.051, 4207.692, 4172.821, 4191.282, 4165.128, 450, 0, []
1627802604.8614, 111, 0, 4192.308, 4203.077, 4190.256, 4197.436, 4172.821, 16200, 0, []
1627802604.8692, 112, 0, 4180.513, 4189.231, 4161.538, 4189.744, 4170.769, 450, 0, []
1627802604.877, 113, 0, 4166.154, 4188.718, 4186.154, 4176.41, 4163.077, 450, 0, []
1627802604.8848, 114, 0, 4154.359, 4198.974, 4177.949, 4168.205, 4151.282, 450, 0, []
1627802604.8927, 115, 0, 4137.949, 4216.923, 4150.769, 4158.974, 4134.872, 16200, 0, []
1627802604.9005, 116, 0, 4136.41, 4229.231, 4172.308, 4158.462, 4128.718, 450, 0, []
1627802604.9084, 117, 0, 4154.359, 4234.359, 4159.487, 4168.205, 4142.564, 450, 0, []
1627802604.9161, 118, 0, 4172.308, 4220.513, 4183.59, 4181.026, 4161.538, 450, 0, []
1627802604.924, 119, 0, 4182.051, 4199.487, 4182.051, 4180, 4171.795, 16200, 0, []
1627802604.9318, 120, 0, 4182.051, 4202.564, 4159.487, 4171.282, 4172.308, 450, 0, []
1627802604.9397, 121, 0, 4173.333, 4216.923, 4189.231, 4176.41, 4163.077, 450, 0, []
1627802604.9475, 122, 0, 4162.051, 4204.103, 4169.231, 4177.949, 4153.333, 450, 0, []
1627802604.9554, 123, 0, 4154.872, 4191.282, 4171.795, 4166.154, 4148.718, 16200, 0, []
1627802604.9633, 124, 0, 4152.821, 4214.872, 4172.308, 4160.513, 4151.795, 450, 0, []
1627802604.9713, 125, 0, 4161.538, 4233.846, 4163.59, 4179.487, 4165.641, 450, 0, []
1627802604.9792, 126, 0, 4179.487, 4228.718, 4204.103, 4195.897, 4176.41, 450, 0, []
1627802604.9872, 127, 0, 4185.128, 4232.821, 4192.308, 4178.462, 4171.795, 16200, 0, []
1627802604.995, 128, 0, 4176.923, 4249.744, 4195.385, 4161.538, 4167.179, 450, 0, []
1627802605.003, 0, 0, 4172.308, 4254.359, 4189.231, 4166.154, 4170.256, 450, 0, []
1627802605.0109, 1, 0, 4175.897, 4242.051, 4155.385, 4172.821, 4169.744, 450, 0, []
1627802605.0188, 2, 0, 4172.821, 4247.179, 4180.513, 4178.974, 4167.692, 16187, 0, []
1627802605.0267, 3, 0, 4167.692, 4257.436, 4160.513, 4180, 4168.718, 450, 0, []
1627802605.0344, 4, 0, 4167.179, 4230.256, 4150.769, 4174.872, 4171.282, 16148, 0, []
1627802605.0423, 5, 0, 4159.487, 4220.513, 4165.128, 4171.282, 4166.667, 450, 0, []
1627802605.0501, 6, 0, 4150.256, 4242.564, 4148.718, 4164.615, 4148.718, 295, 0, []
1627802605.058, 7, 0, 4152.821, 4232.308, 4172.308, 4161.026, 4140.513, 450, 0, []
1627802605.0658, 8, 0, 4158.974, 4221.538, 4159.487, 4174.359, 4156.41, 450, 0, []
1627802605.0736, 9, 0, 4167.179, 4229.744, 4167.692, 4194.359, 4170.256, 16159, 0, []
1627802605.0814, 10, 0, 4181.538, 4232.308, 4201.538, 4203.59, 4175.897, 450, 0, []
1627802605.0893, 11, 0, 4187.692, 4236.923, 4180.513, 4203.59, 4185.641, 16200, 0, []
1627802605.0971, 12, 0, 4187.692, 4230.256, 4192.821, 4200, 4192.308, 450, 0, []
1627802605.1051, 13, 0, 4190.256, 4215.385, 4170.769, 4192.821, 4189.231, 450, 0, []
1627802605.1129, 14, 0, 4182.051, 4238.974, 4160, 4187.179, 4179.487, 450, 0, []
1627802605.1209, 15, 0, 4176.41, 4258.462, 4187.692, 4181.026, 4172.821, 16200, 0, []
1627802605.1288, 16, 0, 4186.154, 4241.538, 4165.641, 4172.821, 4176.923, 0, 0, []
1627802605.1368, 17, 0, 4193.333, 4249.744, 4187.179, 4181.538, 4185.641, 0, 0, []
1627802605.1447, 18, 0, 4186.154, 4248.205, 4186.154, 4192.821, 4186.667, 0, 0, []
1627802605.1526, 19, 0, 4180, 4210.256, 4170.256, 4191.795, 4182.564, 0, 0, []
1627802605.1605, 20, 0, 4185.641, 4202.051, 4192.308, 4197.949, 4183.077, 0, 0, []
1627802605.1683, 21, 0, 4191.795, 4214.872, 4167.179, 4207.692, 4190.769, 0, 0, []
1627802605.1762, 22, 0, 4200.513, 4220.513, 4180.513, 4207.692, 4200.513, 0, 0, []
1627802605.184, 23, 0, 4208.718, 4245.641, 4185.641, 4202.564, 4203.59, 0, 0, []
1627802605.1918, 24, 0, 4206.667, 4256.923, 4172.308, 4190.769, 4190.769, 0, 0, []
1627802605.1996, 25, 0, 4201.026, 4228.718, 4194.359, 4171.282, 4178.462, 0, 0, []
1627802605.2075, 26, 0, 4197.949, 4233.333, 4168.205, 4165.641, 4181.026, 0, 0, []
1627802605.2153, 27, 0, 4193.846, 4260.513, 4176.923, 4184.615, 4184.103, 0, 0, []
1627802605.2232, 28, 0, 4196.923, 4242.051, 4182.051, 4195.385, 4182.051, 0, 0, []
1627802605.2309, 29, 0, 4210.256, 4223.59, 4161.538, 4190.769, 4192.821, 0, 0, []
1627802605.2388, 30, 0, 4213.846, 4228.718, 4183.077, 4197.436, 4207.692, 0, 0, []
1627802605.2466, 31, 0, 4198.462, 4230.256, 4160.513, 4193.333, 4192.821, 0, 0, []
1627802605.2545, 32, 0, 4189.231, 4225.641, 4176.41, 4174.359, 4170.769, 0, 0, []
1627802605.2623, 33, 0, 4193.333, 4233.333, 4195.897, 4173.333, 4170.769, 0, 0, []
1627802605.2702, 34, 0, 4195.385, 4246.667, 4171.282, 4187.692, 4179.487, 0, 0, []
1627802605.2781, 35, 0, 4203.077, 4250.769, 4197.949, 4207.692, 4192.821, 0, 0, []
1627802605.2861, 36, 0, 4212.821, 4243.59, 4186.667, 4217.949, 4201.026, 0, 0, []
1627802605.294, 37, 0, 4212.821, 4234.872, 4184.103, 4210.256, 4192.821, 0, 0, []
1627802605.302, 38, 0, 4211.282, 4251.795, 4200, 4197.436, 4184.103, 0, 0, []
1627802605.3098, 39, 0, 4205.641, 4272.308, 4173.333, 4189.744, 4186.667, 0, 0, []
1627802605.3178, 40, 0, 4196.41, 4269.231, 4188.718, 4187.179, 4188.205, 0, 0, []
1627802605.3257, 41, 0, 4197.436, 4264.615, 4181.026, 4183.077, 4179.487, 0, 0, []
1627802605.3337, 42, 0, 4213.846, 4259.487, 4188.205, 4186.667, 4183.077, 0, 0, []
1627802605.3416, 43, 0, 4218.462, 4248.205, 4198.974, 4191.795, 4198.974, 0, 0, []
1627802605.3493, 44, 0, 4196.923, 4228.205, 4153.846, 4191.282, 4194.359, 0, 0, []
1627802605.3572, 45, 0, 4182.564, 4220.513, 4168.718, 4194.872, 4179.487, 0, 0, []
1627802605.365, 46, 0, 4196.41, 4247.179, 4171.795, 4196.41, 4183.59, 0, 0, []
1627802605.3729, 47, 0, 4215.385, 4268.205, 4177.436, 4198.462, 4200, 0, 0, []
1627802605.3807, 48, 0, 4216.41, 4243.077, 4197.436, 4196.41, 4207.692, 0, 0, []
1627802605.3886, 49, 0, 4209.744, 4227.179, 4155.897, 4181.026, 4204.103, 0, 0, []
1627802605.3963, 50, 0, 4220, 4246.667, 4170.256, 4172.821, 4208.718, 0, 0, []
1627802605.4042, 51, 0, 4261.538, 4241.538, 4176.923, 4186.154, 4242.051, 0, 0, []
1627802605.412, 52, 0, 4324.103, 4240, 4168.205, 4201.026, 4297.436, 0, 0, []
1627802605.42, 53, 0, 4391.282, 4261.026, 4188.718, 4198.462, 4361.538, 0, 0, []
1627802605.4279, 54, 0, 4471.795, 4251.282, 4164.103, 4188.205, 4441.538, 0, 0, []
1627802605.4358, 55, 0, 4555.385, 4242.051, 4188.205, 4193.846, 4522.564, 0, 0, []
1627802605.4437, 56, 0, 4595.897, 4260.513, 4189.744, 4200.513, 4558.462, 0, 0, []
1627802605.4517, 57, 0, 4583.59, 4252.821, 4160, 4195.385, 4543.077, 0, 0, []
1627802605.4596, 58, 0, 4560, 4225.641, 4182.564, 4202.051, 4517.949, 0, 0, []
1627802605.4676, 59, 0, 4537.436, 4233.846, 4166.154, 4215.897, 4497.949, 0, 0, []
1627802605.4754, 60, 0, 4503.59, 4256.41, 4177.949, 4219.487, 4472.308, 0, 0, []
1627802605.4833, 61, 0, 4467.179, 4254.359, 4184.103, 4222.564, 4441.538, 0, 0, []
1627802605.4911, 62, 0, 4435.385, 4231.282, 4168.718, 4223.59, 4413.333, 0, 0, []
1627802605.4989, 63, 0, 4398.974, 4223.077, 4198.974, 4208.718, 4385.128, 0, 0, []
1627802605.5068, 64, 0, 4366.154, 4239.487, 4176.41, 4183.59, 4358.974, 450, 0, []
1627802605.5145, 65, 0, 4348.718, 4248.205, 4183.59, 4183.077, 4345.128, 450, 0, []
1627802605.5224, 66, 0, 4337.949, 4242.051, 4207.692, 4211.795, 4340.513, 16187, 0, []
1627802605.5302, 67, 0, 4320, 4217.436, 4183.077, 4228.718, 4328.718, 450, 0, []
1627802605.5381, 68, 0, 4300.513, 4199.487, 4194.359, 4220, 4304.103, 16149, 0, []
1627802605.5459, 69, 0, 4293.333, 4229.744, 4175.897, 4214.872, 4288.718, 450, 0, []
1627802605.5538, 70, 0, 4296.923, 4253.846, 4184.615, 4216.41, 4292.308, 288, 0, []
1627802605.5617, 71, 0, 4291.282, 4228.205, 4205.128, 4203.077, 4283.59, 450, 0, []
1627802605.5696, 72, 0, 4274.359, 4222.051, 4175.897, 4187.179, 4261.538, 450, 0, []
1627802605.5774, 73, 0, 4266.154, 4256.41, 4196.923, 4195.385, 4259.487, 16159, 0, []
1627802605.5854, 74, 0, 4267.692, 4256.923, 4186.667, 4207.179, 4268.718, 450, 0, []
1627802605.5932, 75, 0, 4262.051, 4229.231, 4175.897, 4209.231, 4258.974, 16200, 0, []
1627802605.6012, 76, 0, 4245.128, 4225.128, 4184.615, 4201.538, 4231.795, 450, 0, []
1627802605.6091, 77, 0, 4227.692, 4230.256, 4160.513, 4184.615, 4214.359, 450, 0, []
1627802605.6171, 78, 0, 4221.538, 4235.897, 4197.949, 4185.128, 4217.436, 450, 0, []
1627802605.625, 79, 0, 4218.462, 4237.436, 4195.385, 4190.769, 4217.949, 16200, 0, []
1627802605.6329, 80, 0, 4209.744, 4216.923, 4172.821, 4178.462, 4201.026, 450, 0, []
1627802605.6408, 81, 0, 4203.59, 4208.205, 4188.205, 4177.949, 4191.282, 450, 0, []
1627802605.6488, 82, 0, 4197.436, 4220, 4164.615, 4188.205, 4190.769, 450, 0, []
1627802605.6567, 83, 0, 4189.231, 4222.051, 4174.872, 4187.692, 4178.462, 16200, 0, []
1627802605.6645, 84, 0, 4187.179, 4220, 4164.103, 4181.538, 4168.718, 450, 0, []
1627802605.6723, 85, 0, 4183.59, 4224.103, 4155.897, 4174.359, 4166.154, 450, 0, []
1627802605.6801, 86, 0, 4173.333, 4237.436, 4187.692, 4167.692, 4156.41, 450, 0, []
1627802605.688, 87, 0, 4169.231, 4240, 4158.462, 4165.641, 4154.872, 16200, 0, []
1627802605.6958, 88, 0, 4173.333, 4216.41, 4169.744, 4177.436, 4170.769, 450, 0, []
1627802605.7037, 89, 0, 4171.795, 4219.487, 4177.949, 4186.154, 4174.872, 450, 0, []
1627802605.7114, 90, 0, 4166.667, 4245.128, 4161.026, 4183.59, 4165.128, 450, 0, []
1627802605.7193, 91, 0, 4171.795, 4233.846, 4180, 4182.564, 4172.821, 16200, 0, []
1627802605.7271, 92, 0, 4177.436, 4220.513, 4153.846, 4181.026, 4183.077, 450, 0, []
1627802605.7351, 93, 0, 4174.359, 4229.744, 4162.564, 4184.103, 4175.897, 450, 0, []
1627802605.743, 94, 0, 4170.256, 4209.744, 4162.564, 4184.615, 4166.667, 450, 0, []
1627802605.7509, 95, 0, 4164.103, 4193.846, 4137.436, 4182.051, 4166.667, 16200, 0, []
1627802605.7588, 96, 0, 4159.487, 4235.385, 4171.282, 4187.692, 4167.179, 450, 0, []
1627802605.7668, 97, 0, 4161.026, 4255.385, 4161.538, 4190.769, 4167.179, 450, 0, []
1627802605.7747, 98, 0, 4170.769, 4222.564, 4171.795, 4192.308, 4173.333, 450, 0, []
1627802605.7827, 99, 0, 4180.513, 4215.385, 4185.641, 4193.846, 4173.846, 16200, 0, []
1627802605.7905, 100, 0, 4180, 4238.462, 4155.897, 4190.256, 4167.179, 450, 0, []
1627802605.7985, 101, 0, 4172.308, 4231.282, 4172.821, 4189.231, 4166.667, 450, 0, []
1627802605.8064, 102, 0, 4165.128, 4197.436, 4157.436, 4195.897, 4170.769, 450, 0, []
1627802605.8143, 103, 0, 4160, 4193.333, 4158.462, 4197.436, 4168.718, 16200, 0, []
1627802605.8222, 104, 0, 4151.795, 4199.487, 4170.769, 4181.538, 4164.615, 450, 0, []
1627802605.8299, 105, 0, 4144.103, 4195.897, 4142.051, 4168.205, 4162.564, 450, 0, []
1627802605.8378, 106, 0, 4151.795, 4219.487, 4175.385, 4181.538, 4160.513, 450, 0, []
1627802605.8456, 107, 0, 4164.615, 4226.154, 4174.872, 4196.41, 4154.872, 16200, 0, []
1627802605.8535, 108, 0, 4166.667, 4203.077, 4165.641, 4197.949, 4154.359, 450, 0, []
1627802605.8613, 109, 0, 4162.564, 4219.487, 4181.026, 4201.538, 4164.103, 450, 0, []
1627802605.8691, 110, 0, 4161.026, 4247.179, 4155.897, 4202.051, 4165.128, 450, 0, []
1627802605.8769, 111, 0, 4162.564, 4211.795, 4169.231, 4197.436, 4156.41, 16200, 0, []
1627802605.8849, 112, 0, 4165.128, 4195.385, 4157.436, 4192.821, 4154.872, 450, 0, []
1627802605.8928, 113, 0, 4168.205, 4234.359, 4158.462, 4193.846, 4156.41, 450, 0, []
1627802605.9008, 114, 0, 4171.795, 4231.795, 4195.897, 4203.077, 4155.385, 450, 0, []
1627802605.9086, 115, 0, 4173.333, 4207.179, 4169.744, 4203.077, 4155.385, 16200, 0, []
1627802605.9166, 116, 0, 4166.154, 4214.872, 4174.359, 4192.821, 4148.205, 450, 0, []
1627802605.9245, 117, 0, 4157.436, 4212.821, 4157.949, 4184.615, 4137.436, 450, 0, []
1627802605.9325, 118, 0, 4161.538, 4192.308, 4141.026, 4186.154, 4144.103, 450, 0, []
1627802605.9404, 119, 0, 4166.667, 4206.667, 4174.872, 4187.692, 4156.41, 16200, 0, []
1627802605.9483, 120, 0, 4162.564, 4235.897, 4153.846, 4184.615, 4153.846, 450, 0, []
1627802605.9562, 121, 0, 4163.59, 4225.128, 4164.615, 4201.538, 4151.282, 450, 0, []
1627802605.964, 122, 0, 4175.897, 4210.769, 4176.41, 4225.641, 4166.154, 450, 0, []
1627802605.9719, 123, 0, 4182.564, 4229.231, 4169.231, 4226.154, 4174.872, 16200, 0, []
1627802605.9797, 124, 0, 4175.897, 4231.282, 4190.256, 4208.718, 4163.077, 450, 0, []
1627802605.9875, 125, 0, 4166.667, 4204.103, 4158.974, 4192.308, 4151.282, 450, 0, []
1627802605.9953, 126, 0, 4163.077, 4211.795, 4171.795, 4193.846, 4148.205, 450, 0, []
1627802606.0032, 127, 0, 4165.128, 4237.436, 4182.051, 4197.436, 4141.538, 16200, 0, []
1627802606.011, 128, 0, 4160, 4229.231, 4150.769, 4186.154, 4132.821, 450, 0, []
1627802606.019, 0, 0, 4155.385, 4234.359, 4172.821, 4183.59, 4136.923, 450, 0, []
1627802606.0268, 1, 0, 4157.949, 4258.974, 4157.436, 4188.205, 4145.641, 450, 0, []
1627802606.0347, 2, 0, 4166.154, 4246.667, 4157.949, 4182.564, 4146.667, 16187, 0, []
1627802606.0425, 3, 0, 4175.897, 4222.051, 4172.821, 4181.026, 4150.256, 450, 0, []
1627802606.0505, 4, 0, 4176.923, 4227.692, 4157.436, 4185.128, 4152.308, 16149, 0, []
1627802606.0584, 5, 0, 4170.256, 4257.949, 4183.59, 4187.692, 4149.744, 450, 0, []
