Timestamp, COUNTER, INTERPOLATED, AF3, T7, Pz, T8, AF4, RAW_CQ, MARKER_HARDWARE, MARKERS
1630237612.9414, 92, 0, 4126.154, 4122.564, 4041.026, 4133.333, 4096.923, 450, 0, []
1630237612.9493, 93, 0, 4073.333, 4110.769, 4011.282, 4101.538, 4044.103, 450, 0, []
1630237612.9571, 94, 0, 4069.231, 4115.385, 3989.744, 4073.333, 4031.795, 450, 0, []
1630237612.965, 95, 0, 4117.436, 4150.256, 4036.923, 4105.128, 4076.923, 16201, 0, []
1630237612.9727, 96, 0, 4104.103, 4127.692, 4027.692, 4105.641, 4065.128, 450, 0, []
1630237612.9806, 97, 0, 4064.103, 4078.974, 3993.333, 4075.385, 4024.103, 450, 0, []
1630237612.9884, 98, 0, 4096.41, 4127.179, 4043.077, 4113.333, 4056.923, 450, 0, []
1630237612.9964, 99, 0, 4125.128, 4181.026, 4053.333, 4147.692, 4092.308, 16201, 0, []
1630237613.0043, 100, 0, 4084.615, 4134.872, 4016.923, 4118.974, 4052.308, 450, 0, []
1630237613.0122, 101, 0, 4070.256, 4110.256, 4012.308, 4103.59, 4044.103, 450, 0, []
1630237613.0201, 102, 0, 4099.487, 4143.077, 4033.333, 4116.41, 4071.795, 450, 0, []
1630237613.0281, 103, 0, 4101.026, 4156.923, 4041.026, 4109.744, 4058.974, 16201, 0, []
1630237613.036, 104, 0, 4093.846, 4166.154, 4023.59, 4106.154, 4054.359, 450, 0, []
1630237613.044, 105, 0, 4100.513, 4168.718, 4041.026, 4128.718, 4072.821, 450, 0, []
1630237613.0518, 106, 0, 4095.385, 4152.308, 4047.179, 4127.179, 4068.718, 450, 0, []
1630237613.0598, 107, 0, 4110.769, 4177.436, 4041.538, 4121.538, 4074.872, 16201, 0, []
1630237613.0677, 108, 0, 4144.103, 4206.667, 4065.641, 4143.077, 4105.128, 450, 0, []
1630237613.0757, 109, 0, 4130.769, 4165.128, 4039.487, 4131.795, 4087.179, 450, 0, []
1630237613.0836, 110, 0, 4096.923, 4134.359, 4022.051, 4113.846, 4045.641, 450, 0, []
1630237613.0913, 111, 0, 4097.949, 4161.026, 4038.462, 4135.897, 4052.308, 16201, 0, []
1630237613.0992, 112, 0, 4096.923, 4157.436, 4026.154, 4144.103, 4059.487, 450, 0, []
1630237613.107, 113, 0, 4070.769, 4138.974, 4015.385, 4126.667, 4041.026, 450, 0, []
1630237613.1149, 114, 0, 4076.41, 4169.744, 4022.051, 4122.051, 4048.205, 450, 0, []
1630237613.1227, 115, 0, 4100.513, 4182.051, 4055.385, 4140, 4075.385, 16201, 0, []
1630237613.1305, 116, 0, 4097.949, 4150.769, 4053.333, 4144.103, 4073.846, 450, 0, []
1630237613.1383, 117, 0, 4094.359, 4150.769, 4031.282, 4132.821, 4068.205, 450, 0, []
1630237613.1462, 118, 0, 4100.513, 4177.436, 4058.462, 4144.103, 4074.872, 450, 0, []
1630237613.154, 119, 0, 4082.564, 4169.231, 4042.564, 4136.41, 4051.282, 16201, 0, []
1630237613.1619, 120, 0, 4070.256, 4165.641, 4024.103, 4131.795, 4043.077, 450, 0, []
1630237613.1696, 121, 0, 4086.667, 4194.359, 4038.462, 4144.615, 4066.154, 450, 0, []
1630237613.1776, 122, 0, 4071.795, 4176.923, 4012.821, 4111.795, 4051.282, 450, 0, []
1630237613.1855, 123, 0, 4065.128, 4139.487, 4014.359, 4102.564, 4039.487, 16201, 0, []
1630237613.1935, 124, 0, 4099.487, 4160, 4034.359, 4135.897, 4067.179, 450, 0, []
1630237613.2014, 125, 0, 4091.795, 4181.538, 4024.103, 4134.872, 4062.051, 450, 0, []
1630237613.2093, 126, 0, 4051.282, 4156.923, 4003.077, 4110.769, 4023.59, 450, 0, []
1630237613.2172, 127, 0, 4058.462, 4158.974, 4001.026, 4119.487, 4031.795, 16201, 0, []
1630237613.2252, 128, 0, 4094.872, 4203.077, 4037.436, 4156.41, 4072.821, 450, 0, []
1630237613.2331, 0, 0, 4091.795, 4210.769, 4033.333, 4146.667, 4079.487, 450, 0, []
1630237613.2411, 1, 0, 4064.103, 4170.769, 4009.744, 4107.692, 4049.231, 450, 0, []
1630237613.249, 2, 0, 4073.333, 4146.154, 4032.821, 4118.974, 4055.385, 16192, 0, []
1630237613.2567, 3, 0, 4107.692, 4170.256, 4049.744, 4155.385, 4098.974, 450, 0, []
1630237613.2646, 4, 0, 4105.641, 4203.077, 4054.872, 4155.385, 4085.128, 16098, 0, []
1630237613.2724, 5, 0, 4080.513, 4200, 4028.718, 4127.179, 4043.077, 450, 0, []
1630237613.2803, 6, 0, 4076.923, 4178.974, 4006.154, 4115.385, 4046.667, 16085, 0, []
1630237613.2881, 7, 0, 4082.051, 4182.051, 4030.769, 4123.077, 4064.103, 450, 0, []
1630237613.2959, 8, 0, 4090.769, 4196.41, 4040.513, 4125.128, 4063.59, 450, 0, []
1630237613.3037, 9, 0, 4091.282, 4173.333, 4047.692, 4134.872, 4057.436, 324, 0, []
1630237613.3117, 10, 0, 4066.667, 4143.59, 4022.564, 4129.744, 4041.026, 450, 0, []
1630237613.3196, 11, 0, 4069.231, 4170.769, 4004.615, 4115.897, 4038.974, 16200, 0, []
1630237613.3276, 12, 0, 4095.385, 4213.333, 4038.462, 4130.769, 4065.641, 450, 0, []
1630237613.3354, 13, 0, 4075.897, 4190.256, 4013.846, 4117.436, 4052.308, 450, 0, []
1630237613.3434, 14, 0, 4060, 4155.897, 3999.487, 4102.051, 4038.974, 450, 0, []
1630237613.3513, 15, 0, 4106.154, 4184.615, 4031.282, 4133.333, 4085.641, 16200, 0, []
1630237613.3593, 16, 0, 4142.051, 4208.205, 4047.179, 4152.308, 4118.462, 0, 0, []
1630237613.3672, 17, 0, 4137.949, 4193.846, 4061.026, 4150.769, 4108.205, 0, 0, []
1630237613.3751, 18, 0, 4136.41, 4198.462, 4051.795, 4150.769, 4106.667, 0, 0, []
1630237613.383, 19, 0, 4124.615, 4221.026, 4050.769, 4151.282, 4111.282, 0, 0, []
1630237613.391, 20, 0, 4115.897, 4220, 4046.154, 4146.667, 4102.564, 0, 0, []
1630237613.3989, 21, 0, 4146.667, 4212.308, 4042.051, 4151.282, 4113.333, 0, 0, []
1630237613.4067, 22, 0, 4153.846, 4215.897, 4056.923, 4161.538, 4121.538, 0, 0, []
1630237613.4145, 23, 0, 4113.846, 4217.949, 4023.077, 4141.538, 4096.923, 0, 0, []
1630237613.4223, 24, 0, 4104.615, 4222.564, 4018.462, 4132.821, 4090.256, 0, 0, []
1630237613.4302, 25, 0, 4138.462, 4217.949, 4061.026, 4151.282, 4118.462, 0, 0, []
1630237613.438, 26, 0, 4148.205, 4210.769, 4064.615, 4157.436, 4128.205, 0, 0, []
1630237613.4459, 27, 0, 4109.231, 4203.59, 4042.564, 4141.538, 4087.179, 0, 0, []
1630237613.4536, 28, 0, 4072.821, 4204.103, 4012.308, 4119.487, 4049.744, 0, 0, []
1630237613.4615, 29, 0, 4078.462, 4224.103, 4021.026, 4126.667, 4063.59, 0, 0, []
1630237613.4694, 30, 0, 4107.692, 4223.59, 4043.59, 4145.128, 4091.795, 0, 0, []
1630237613.4774, 31, 0, 4127.692, 4204.103, 4032.821, 4148.718, 4103.077, 0, 0, []
1630237613.4854, 32, 0, 4128.205, 4217.949, 4040, 4158.462, 4105.128, 0, 0, []
1630237613.4932, 33, 0, 4121.538, 4239.487, 4031.795, 4147.692, 4099.487, 0, 0, []
1630237613.5011, 34, 0, 4115.897, 4216.41, 4026.154, 4121.026, 4087.692, 0, 0, []
1630237613.5091, 35, 0, 4122.051, 4205.641, 4050.769, 4132.821, 4088.718, 0, 0, []
1630237613.517, 36, 0, 4127.692, 4233.846, 4047.179, 4156.923, 4092.308, 0, 0, []
1630237613.525, 37, 0, 4113.333, 4235.897, 4032.308, 4154.872, 4082.051, 0, 0, []
1630237613.5328, 38, 0, 4103.59, 4213.846, 4014.359, 4137.436, 4075.897, 0, 0, []
1630237613.5408, 39, 0, 4107.179, 4202.564, 4021.026, 4128.718, 4079.487, 0, 0, []
1630237613.5487, 40, 0, 4110.256, 4192.821, 4034.872, 4137.436, 4082.051, 0, 0, []
1630237613.5567, 41, 0, 4121.538, 4207.692, 4026.667, 4152.821, 4095.385, 0, 0, []
1630237613.5646, 42, 0, 4137.949, 4246.154, 4060.513, 4164.615, 4116.923, 0, 0, []
1630237613.5724, 43, 0, 4135.385, 4249.231, 4064.615, 4141.538, 4114.872, 0, 0, []
1630237613.5802, 44, 0, 4126.154, 4224.103, 4035.897, 4118.974, 4096.41, 0, 0, []
1630237613.588, 45, 0, 4130.769, 4220.513, 4052.308, 4146.154, 4096.923, 0, 0, []
1630237613.5959, 46, 0, 4138.974, 4245.128, 4054.872, 4167.692, 4114.359, 0, 0, []
1630237613.6037, 47, 0, 4133.333, 4236.923, 4040.513, 4160, 4113.846, 0, 0, []
1630237613.6116, 48, 0, 4122.564, 4204.103, 4028.205, 4148.205, 4099.487, 0, 0, []
1630237613.6193, 49, 0, 4129.231, 4211.282, 4029.231, 4150.256, 4093.846, 0, 0, []
1630237613.6273, 50, 0, 4153.846, 4253.846, 4057.436, 4165.641, 4114.359, 0, 0, []
1630237613.6352, 51, 0, 4169.231, 4275.897, 4052.821, 4161.026, 4143.077, 0, 0, []
1630237613.6432, 52, 0, 4145.128, 4251.795, 4034.872, 4144.103, 4116.923, 0, 0, []
1630237613.6511, 53, 0, 4124.615, 4229.231, 4041.026, 4148.205, 4092.821, 0, 0, []
1630237613.659, 54, 0, 4147.692, 4239.487, 4059.487, 4166.667, 4129.231, 0, 0, []
1630237613.6669, 55, 0, 4161.026, 4252.821, 4071.795, 4164.615, 4142.051, 0, 0, []
1630237613.6749, 56, 0, 4130.256, 4241.026, 4042.051, 4142.051, 4104.103, 0, 0, []
1630237613.6828, 57, 0, 4118.974, 4220.513, 4047.692, 4162.051, 4103.59, 0, 0, []
1630237613.6908, 58, 0, 4165.641, 4234.872, 4083.077, 4203.59, 4157.949, 0, 0, []
1630237613.6986, 59, 0, 4167.692, 4248.205, 4048.718, 4180.513, 4160, 0, 0, []
1630237613.7065, 60, 0, 4111.282, 4229.231, 4005.128, 4140.513, 4093.846, 0, 0, []
1630237613.7144, 61, 0, 4110.769, 4219.487, 4008.718, 4143.59, 4083.59, 0, 0, []
1630237613.7222, 62, 0, 4166.667, 4246.667, 4062.564, 4172.308, 4145.641, 0, 0, []
1630237613.7301, 63, 0, 4185.641, 4277.436, 4087.179, 4184.103, 4155.897, 0, 0, []
1630237613.7378, 64, 0, 4158.462, 4269.744, 4046.154, 4161.026, 4114.359, 450, 0, []
1630237613.7457, 65, 0, 4147.692, 4245.641, 4041.026, 4145.128, 4117.436, 450, 0, []
1630237613.7535, 66, 0, 4150.769, 4247.179, 4042.564, 4134.359, 4126.154, 16186, 0, []
1630237613.7614, 67, 0, 4150.769, 4262.051, 4052.308, 4146.154, 4122.051, 450, 0, []
1630237613.7692, 68, 0, 4161.026, 4265.128, 4080.513, 4183.077, 4142.051, 16098, 0, []
1630237613.7771, 69, 0, 4169.231, 4260, 4063.077, 4171.282, 4148.205, 450, 0, []
1630237613.785, 70, 0, 4166.154, 4258.462, 4067.179, 4158.974, 4143.077, 16077, 0, []
1630237613.793, 71, 0, 4165.128, 4255.385, 4071.282, 4175.385, 4144.615, 450, 0, []
1630237613.8009, 72, 0, 4157.949, 4243.59, 4040.513, 4152.308, 4128.718, 450, 0, []
1630237613.8089, 73, 0, 4145.128, 4243.077, 4037.949, 4133.846, 4116.923, 322, 0, []
1630237613.8167, 74, 0, 4166.667, 4267.692, 4059.487, 4169.744, 4137.436, 450, 0, []
1630237613.8247, 75, 0, 4165.128, 4266.154, 4067.179, 4171.282, 4130.256, 16198, 0, []
1630237613.8326, 76, 0, 4104.103, 4229.231, 4023.59, 4111.282, 4080, 450, 0, []
1630237613.8406, 77, 0, 4110.256, 4233.846, 4029.744, 4125.128, 4092.308, 450, 0, []
1630237613.8485, 78, 0, 4190.769, 4274.872, 4111.795, 4198.974, 4182.564, 450, 0, []
1630237613.8562, 79, 0, 4208.718, 4262.051, 4105.641, 4184.615, 4230.769, 16198, 0, []
1630237613.8641, 80, 0, 4164.615, 4217.436, 4053.333, 4134.359, 4201.026, 450, 0, []
1630237613.8719, 81, 0, 4159.487, 4226.154, 4056.41, 4154.359, 4202.051, 450, 0, []
1630237613.8798, 82, 0, 4168.718, 4248.718, 4065.128, 4180, 4228.718, 450, 0, []
1630237613.8876, 83, 0, 4151.282, 4231.795, 4063.59, 4163.59, 4205.128, 16198, 0, []
1630237613.8954, 84, 0, 4148.205, 4227.692, 4067.692, 4160.513, 4192.821, 450, 0, []
1630237613.9032, 85, 0, 4162.564, 4257.949, 4086.154, 4186.667, 4209.231, 450, 0, []
1630237613.9111, 86, 0, 4165.128, 4262.051, 4078.974, 4176.923, 4201.538, 450, 0, []
1630237613.9189, 87, 0, 4140.513, 4245.128, 4053.333, 4141.538, 4174.872, 16198, 0, []
1630237613.9269, 88, 0, 4116.923, 4241.026, 4059.487, 4154.872, 4154.359, 450, 0, []
1630237613.9348, 89, 0, 4119.487, 4230.256, 4050.769, 4167.692, 4146.667, 450, 0, []
1630237613.9426, 90, 0, 4119.487, 4210.256, 4043.077, 4134.359, 4139.487, 450, 0, []
1630237613.9504, 91, 0, 4108.718, 4206.667, 4043.59, 4117.436, 4127.179, 16198, 0, []
1630237613.9583, 92, 0, 4106.667, 4226.154, 4038.974, 4145.128, 4132.821, 450, 0, []
1630237613.9661, 93, 0, 4121.026, 4247.692, 4072.308, 4178.462, 4154.872, 450, 0, []
1630237613.9741, 94, 0, 4131.282, 4249.231, 4076.41, 4163.59, 4155.897, 450, 0, []
1630237613.9819, 95, 0, 4135.385, 4236.41, 4065.128, 4153.333, 4157.949, 16198, 0, []
1630237613.9899, 96, 0, 4140, 4231.795, 4071.282, 4175.385, 4165.641, 450, 0, []
1630237613.9978, 97, 0, 4133.333, 4240.513, 4048.718, 4154.872, 4151.282, 450, 0, []
1630237614.0058, 98, 0, 4131.282, 4237.436, 4062.051, 4136.41, 4149.231, 450, 0, []
1630237614.0137, 99, 0, 4149.744, 4230.256, 4084.103, 4161.538, 4160.513, 16198, 0, []
1630237614.0216, 100, 0, 4153.846, 4246.667, 4077.949, 4176.923, 4159.487, 450, 0, []
1630237614.0295, 101, 0, 4128.718, 4247.179, 4068.205, 4155.897, 4145.641, 450, 0, []
1630237614.0373, 102, 0, 4103.077, 4204.615, 4045.128, 4119.487, 4114.872, 450, 0, []
1630237614.0452, 103, 0, 4115.897, 4203.59, 4068.718, 4138.974, 4117.436, 16198, 0, []
1630237614.053, 104, 0, 4159.487, 4268.718, 4100, 4195.897, 4171.795, 450, 0, []
1630237614.0608, 105, 0, 4166.154, 4280.513, 4083.077, 4187.179, 4182.564, 450, 0, []
1630237614.0686, 106, 0, 4130.769, 4218.974, 4066.154, 4143.59, 4137.949, 450, 0, []
1630237614.0765, 107, 0, 4130.256, 4207.179, 4056.923, 4146.154, 4133.333, 16198, 0, []
1630237614.0843, 108, 0, 4151.795, 4248.718, 4070.769, 4175.897, 4162.564, 450, 0, []
1630237614.0923, 109, 0, 4135.897, 4249.744, 4067.179, 4167.692, 4156.41, 450, 0, []
1630237614.1001, 110, 0, 4111.795, 4217.949, 4048.718, 4143.077, 4120, 450, 0, []
1630237614.1081, 111, 0, 4115.385, 4222.051, 4067.179, 4157.949, 4109.231, 16198, 0, []
1630237614.116, 112, 0, 4126.667, 4246.154, 4067.179, 4167.692, 4126.667, 450, 0, []
1630237614.124, 113, 0, 4123.59, 4232.821, 4064.103, 4151.795, 4128.718, 450, 0, []
1630237614.1319, 114, 0, 4114.359, 4218.462, 4059.487, 4139.487, 4114.872, 450, 0, []
1630237614.1398, 115, 0, 4111.795, 4230.769, 4053.846, 4134.872, 4114.359, 16198, 0, []
1630237614.1477, 116, 0, 4123.59, 4235.897, 4093.333, 4159.487, 4136.41, 450, 0, []
1630237614.1557, 117, 0, 4126.667, 4229.231, 4088.205, 4172.821, 4141.538, 450, 0, []
1630237614.1636, 118, 0, 4115.385, 4242.051, 4062.564, 4152.821, 4124.615, 450, 0, []
1630237614.1714, 119, 0, 4130.769, 4257.949, 4082.051, 4149.744, 4132.821, 16198, 0, []
1630237614.1792, 120, 0, 4151.282, 4236.923, 4089.231, 4167.179, 4142.051, 450, 0, []
1630237614.187, 121, 0, 4143.59, 4230.256, 4088.718, 4173.846, 4129.744, 450, 0, []
1630237614.1949, 122, 0, 4145.128, 4256.41, 4092.308, 4165.128, 4132.308, 450, 0, []
1630237614.2027, 123, 0, 4158.974, 4253.846, 4101.538, 4174.359, 4137.436, 16198, 0, []
1630237614.2106, 124, 0, 4138.974, 4231.795, 4081.026, 4176.923, 4115.385, 450, 0, []
1630237614.2183, 125, 0, 4116.41, 4234.872, 4049.231, 4144.615, 4098.974, 450, 0, []
1630237614.2262, 126, 0, 4135.385, 4231.795, 4071.795, 4136.923, 4103.59, 450, 0, []
1630237614.234, 127, 0, 4144.103, 4210.256, 4072.821, 4152.308, 4112.821, 16198, 0, []
1630237614.242, 128, 0, 4131.282, 4219.487, 4055.897, 4156.41, 4115.385, 450, 0, []
1630237614.2499, 0, 0, 4131.795, 4232.821, 4058.462, 4144.615, 4107.179, 450, 0, []
1630237614.2579, 1, 0, 4133.333, 4209.744, 4058.462, 4142.564, 4106.667, 450, 0, []
1630237614.2657, 2, 0, 4134.872, 4194.872, 4081.026, 4172.308, 4111.282, 16186, 0, []
1630237614.2737, 3, 0, 4136.923, 4195.897, 4077.436, 4163.077, 4102.564, 450, 0, []
1630237614.2816, 4, 0, 4136.41, 4178.462, 4066.154, 4135.385, 4102.564, 16103, 0, []
1630237614.2896, 5, 0, 4142.051, 4148.205, 4078.974, 4153.846, 4113.333, 450, 0, []
1630237614.2975, 6, 0, 4136.41, 4141.538, 4060.513, 4160.513, 4106.154, 16081, 0, []
1630237614.3054, 7, 0, 4120.513, 4160.513, 4053.846, 4149.231, 4101.538, 450, 0, []
1630237614.3133, 8, 0, 4118.974, 4152.308, 4040.513, 4138.974, 4107.692, 450, 0, []
1630237614.3213, 9, 0, 4128.205, 4114.872, 4029.744, 4130.769, 4105.641, 319, 0, []
1630237614.3292, 10, 0, 4137.949, 4113.846, 4065.128, 4147.692, 4108.718, 450, 0, []
1630237614.337, 11, 0, 4140, 4144.103, 4068.205, 4158.974, 4118.462, 16200, 0, []
1630237614.3448, 12, 0, 4132.308, 4148.205, 4055.897, 4154.872, 4118.974, 450, 0, []
1630237614.3526, 13, 0, 4143.077, 4136.41, 4069.231, 4155.385, 4122.051, 450, 0, []
1630237614.3605, 14, 0, 4162.564, 4132.308, 4089.231, 4158.974, 4130.256, 450, 0, []
1630237614.3683, 15, 0, 4152.308, 4127.692, 4082.564, 4160.513, 4120, 16200, 0, []
1630237614.3762, 16, 0, 4140, 4127.692, 4050.256, 4151.795, 4112.821, 0, 0, []
1630237614.3839, 17, 0, 4150.769, 4127.179, 4071.795, 4152.308, 4122.051, 0, 0, []
1630237614.3918, 18, 0, 4156.41, 4117.949, 4094.872, 4154.872, 4113.333, 0, 0, []
1630237614.3996, 19, 0, 4149.744, 4124.103, 4082.051, 4152.308, 4105.641, 0, 0, []
1630237614.4076, 20, 0, 4148.718, 4146.154, 4090.256, 4159.487, 4118.462, 0, 0, []
1630237614.4155, 21, 0, 4161.538, 4150.769, 4083.077, 4158.974, 4132.821, 0, 0, []
1630237614.4234, 22, 0, 4167.179, 4146.667, 4087.692, 4169.231, 4135.897, 0, 0, []
1630237614.4313, 23, 0, 4159.487, 4154.872, 4089.231, 4177.949, 4125.641, 0, 0, []
1630237614.4393, 24, 0, 4160.513, 4166.154, 4071.282, 4153.846, 4129.231, 0, 0, []
1630237614.4472, 25, 0, 4173.846, 4155.897, 4098.462, 4150.256, 4152.308, 0, 0, []
1630237614.4551, 26, 0, 4172.308, 4142.051, 4100, 4163.59, 4143.59, 0, 0, []
1630237614.4629, 27, 0, 4154.359, 4144.615, 4073.846, 4154.359, 4113.846, 0, 0, []
1630237614.4708, 28, 0, 4154.872, 4145.641, 4064.103, 4144.615, 4122.051, 0, 0, []
1630237614.4788, 29, 0, 4156.41, 4134.359, 4053.846, 4141.026, 4125.641, 0, 0, []
1630237614.4866, 30, 0, 4143.077, 4139.487, 4076.41, 4153.846, 4109.231, 0, 0, []
1630237614.4945, 31, 0, 4143.077, 4163.59, 4072.308, 4161.538, 4114.872, 0, 0, []
1630237614.5022, 32, 0, 4152.821, 4155.897, 4049.231, 4147.692, 4121.026, 0, 0, []
1630237614.5101, 33, 0, 4160, 4138.462, 4071.795, 4143.077, 4126.154, 0, 0, []
1630237614.5179, 34, 0, 4163.077, 4156.923, 4078.974, 4147.692, 4120, 0, 0, []
1630237614.5258, 35, 0, 4153.846, 4172.821, 4074.359, 4155.897, 4098.974, 0, 0, []
1630237614.5336, 36, 0, 4149.744, 4171.795, 4066.667, 4151.282, 4107.692, 0, 0, []
1630237614.5414, 37, 0, 4161.026, 4152.308, 4062.564, 4133.846, 4127.692, 0, 0, []
1630237614.5492, 38, 0, 4161.026, 4135.385, 4072.821, 4135.897, 4121.538, 0, 0, []
1630237614.5571, 39, 0, 4156.41, 4167.692, 4066.667, 4147.179, 4115.897, 0, 0, []
1630237614.5649, 40, 0, 4164.103, 4200, 4075.385, 4151.282, 4127.179, 0, 0, []
1630237614.5729, 41, 0, 4166.667, 4174.872, 4075.385, 4142.051, 4133.846, 0, 0, []
1630237614.5807, 42, 0, 4163.077, 4156.41, 4070.256, 4148.205, 4125.128, 0, 0, []
1630237614.5887, 43, 0, 4179.487, 4196.41, 4097.436, 4184.615, 4135.385, 0, 0, []
1630237614.5966, 44, 0, 4203.077, 4229.231, 4102.051, 4202.051, 4168.205, 0, 0, []
1630237614.6046, 45, 0, 4195.897, 4200.513, 4101.026, 4185.641, 4164.103, 0, 0, []
1630237614.6125, 46, 0, 4165.641, 4169.744, 4090.256, 4160, 4126.154, 0, 0, []
1630237614.6205, 47, 0, 4166.667, 4196.41, 4086.154, 4162.051, 4128.205, 0, 0, []
1630237614.6283, 48, 0, 4192.821, 4225.641, 4114.872, 4181.538, 4150.256, 0, 0, []
1630237614.6363, 49, 0, 4182.564, 4202.564, 4097.436, 4169.231, 4137.436, 0, 0, []
1630237614.6442, 50, 0, 4174.359, 4187.692, 4080, 4175.897, 4134.872, 0, 0, []
1630237614.652, 51, 0, 4211.282, 4205.128, 4100.513, 4198.974, 4165.641, 0, 0, []
1630237614.6599, 52, 0, 4216.923, 4199.487, 4108.718, 4186.154, 4169.231, 0, 0, []
1630237614.6676, 53, 0, 4166.667, 4185.641, 4091.795, 4162.051, 4122.564, 0, 0, []
1630237614.6755, 54, 0, 4136.41, 4196.923, 4056.41, 4133.846, 4088.205, 0, 0, []
1630237614.6833, 55, 0, 4143.59, 4200.513, 4056.923, 4115.385, 4087.692, 0, 0, []
1630237614.6912, 56, 0, 4148.718, 4192.308, 4057.949, 4124.103, 4082.051, 0, 0, []
1630237614.699, 57, 0, 4163.59, 4217.436, 4059.487, 4154.359, 4102.564, 0, 0, []
1630237614.7069, 58, 0, 4190.256, 4245.641, 4098.462, 4186.154, 4147.179, 0, 0, []
1630237614.7148, 59, 0, 4193.846, 4229.231, 4087.692, 4181.538, 4145.128, 0, 0, []
1630237614.7227, 60, 0, 4189.744, 4202.564, 4083.59, 4174.359, 4136.41, 0, 0, []
1630237614.7305, 61, 0, 4201.026, 4191.795, 4116.923, 4197.436, 4165.128, 0, 0, []
1630237614.7385, 62, 0, 4207.179, 4192.821, 4108.205, 4204.615, 4164.615, 0, 0, []
1630237614.7463, 63, 0, 4192.308, 4205.641, 4103.077, 4183.077, 4139.487, 0, 0, []
1630237614.7543, 64, 0, 4166.154, 4203.077, 4084.103, 4149.744, 4131.795, 450, 0, []
1630237614.7622, 65, 0, 4151.282, 4185.641, 4058.462, 4141.538, 4109.744, 450, 0, []
1630237614.7702, 66, 0, 4170.256, 4220, 4075.385, 4164.103, 4111.282, 16190, 0, []
1630237614.7781, 67, 0, 4191.282, 4256.41, 4088.205, 4168.205, 4150.256, 450, 0, []
1630237614.786, 68, 0, 4182.564, 4223.077, 4084.103, 4163.59, 4145.641, 16103, 0, []
1630237614.7939, 69, 0, 4165.641, 4196.923, 4060, 4157.436, 4118.462, 450, 0, []
1630237614.8017, 70, 0, 4157.949, 4201.026, 4062.564, 4157.949, 4125.641, 16072, 0, []
1630237614.8096, 71, 0, 4147.179, 4171.282, 4085.128, 4172.821, 4117.436, 450, 0, []
1630237614.8174, 72, 0, 4139.487, 4169.231, 4080.513, 4169.744, 4101.026, 450, 0, []
1630237614.8252, 73, 0, 4154.359, 4237.949, 4106.154, 4171.795, 4126.667, 319, 0, []
1630237614.833, 74, 0, 4181.026, 4259.487, 4116.41, 4179.487, 4143.59, 450, 0, []
1630237614.8409, 75, 0, 4188.205, 4234.359, 4108.205, 4171.795, 4140, 16196, 0, []
1630237614.8487, 76, 0, 4169.231, 4240, 4091.795, 4146.154, 4138.974, 450, 0, []
1630237614.8566, 77, 0, 4168.205, 4236.923, 4062.564, 4134.872, 4128.718, 450, 0, []
1630237614.8643, 78, 0, 4209.744, 4236.923, 4119.487, 4178.974, 4156.41, 450, 0, []
1630237614.8723, 79, 0, 4233.333, 4274.872, 4147.179, 4197.949, 4202.051, 16196, 0, []
1630237614.8802, 80, 0, 4201.026, 4273.846, 4104.103, 4168.718, 4167.179, 450, 0, []
1630237614.8882, 81, 0, 4177.436, 4236.41, 4102.564, 4158.462, 4128.718, 450, 0, []
1630237614.8961, 82, 0, 4190.256, 4253.846, 4101.026, 4161.026, 4162.051, 450, 0, []
1630237614.904, 83, 0, 4187.692, 4274.359, 4097.436, 4170.256, 4162.564, 16196, 0, []
1630237614.9119, 84, 0, 4170.769, 4243.59, 4075.897, 4160, 4127.179, 450, 0, []
1630237614.9199, 85, 0, 4165.641, 4224.103, 4064.615, 4142.564, 4132.308, 450, 0, []
1630237614.9278, 86, 0, 4168.205, 4227.692, 4072.821, 4148.718, 4130.256, 450, 0, []
1630237614.9358, 87, 0, 4179.487, 4237.436, 4055.385, 4146.667, 4118.974, 16196, 0, []
1630237614.9436, 88, 0, 4186.667, 4238.462, 4075.385, 4148.205, 4136.41, 450, 0, []
1630237614.9514, 89, 0, 4173.333, 4224.103, 4061.538, 4140, 4133.333, 450, 0, []
1630237614.9593, 90, 0, 4149.744, 4210.256, 4028.205, 4122.564, 4103.59, 450, 0, []
1630237614.9671, 91, 0, 4130.769, 4194.359, 4038.462, 4117.436, 4087.692, 16196, 0, []
1630237614.975, 92, 0, 4138.974, 4200.513, 4032.821, 4119.487, 4088.718, 450, 0, []
1630237614.9828, 93, 0, 4176.41, 4246.154, 4074.359, 4165.128, 4121.538, 450, 0, []
1630237614.9906, 94, 0, 4197.949, 4258.462, 4100.513, 4195.897, 4154.359, 450, 0, []
1630237614.9984, 95, 0, 4179.487, 4211.282, 4064.103, 4166.154, 4129.231, 16196, 0, []
1630237615.0063, 96, 0, 4163.59, 4216.41, 4073.846, 4161.026, 4104.615, 450, 0, []
1630237615.0141, 97, 0, 4178.462, 4261.026, 4083.077, 4185.128, 4129.744, 450, 0, []
1630237615.0221, 98, 0, 4186.667, 4238.462, 4080, 4184.615, 4145.128, 450, 0, []
1630237615.0299, 99, 0, 4174.359, 4212.821, 4083.077, 4164.103, 4137.949, 16196, 0, []
1630237615.0379, 100, 0, 4168.205, 4236.41, 4066.667, 4162.051, 4134.359, 450, 0, []
1630237615.0458, 101, 0, 4171.795, 4240.513, 4071.795, 4180.513, 4134.872, 450, 0, []
1630237615.0538, 102, 0, 4172.308, 4207.692, 4071.795, 4173.846, 4137.436, 450, 0, []
1630237615.0617, 103, 0, 4165.128, 4200.513, 4062.564, 4168.718, 4126.154, 16196, 0, []
1630237615.0696, 104, 0, 4154.359, 4215.897, 4056.41, 4172.821, 4112.308, 450, 0, []
1630237615.0775, 105, 0, 4153.846, 4215.385, 4042.564, 4159.487, 4115.385, 450, 0, []
1630237615.0855, 106, 0, 4162.564, 4226.154, 4061.026, 4156.41, 4115.385, 450, 0, []
1630237615.0934, 107, 0, 4145.128, 4240.513, 4058.974, 4155.897, 4098.462, 16196, 0, []
1630237615.1013, 108, 0, 4120, 4219.487, 4031.795, 4142.051, 4085.641, 450, 0, []
1630237615.1091, 109, 0, 4132.821, 4213.333, 4043.59, 4137.949, 4091.795, 450, 0, []
1630237615.1171, 110, 0, 4151.282, 4263.59, 4065.641, 4154.872, 4108.205, 450, 0, []
1630237615.125, 111, 0, 4137.436, 4294.872, 4055.897, 4166.154, 4102.564, 16196, 0, []
1630237615.1328, 112, 0, 4125.128, 4297.436, 4029.231, 4152.821, 4089.231, 450, 0, []
1630237615.1407, 113, 0, 4147.692, 4322.051, 4041.538, 4147.692, 4109.231, 450, 0, []
1630237615.1484, 114, 0, 4165.128, 4333.333, 4066.667, 4155.897, 4121.538, 450, 0, []
1630237615.1563, 115, 0, 4148.718, 4325.641, 4054.872, 4160, 4103.077, 16196, 0, []
1630237615.1641, 116, 0, 4137.436, 4357.949, 4049.744, 4164.103, 4100, 450, 0, []
1630237615.1721, 117, 0, 4150.769, 4390.256, 4053.846, 4165.128, 4114.872, 450, 0, []
1630237615.18, 118, 0, 4155.897, 4369.744, 4048.718, 4155.897, 4121.538, 450, 0, []
1630237615.1879, 119, 0, 4147.692, 4349.231, 4053.333, 4152.821, 4109.744, 16196, 0, []
1630237615.1958, 120, 0, 4136.41, 4371.795, 4045.128, 4150.769, 4088.205, 450, 0, []
1630237615.2038, 121, 0, 4133.333, 4395.385, 4036.923, 4145.128, 4088.205, 450, 0, []
1630237615.2117, 122, 0, 4149.231, 4393.846, 4057.436, 4156.41, 4108.718, 450, 0, []
1630237615.2197, 123, 0, 4157.949, 4395.385, 4074.359, 4166.667, 4111.795, 16196, 0, []
1630237615.2275, 124, 0, 4147.179, 4404.103, 4070.256, 4165.128, 4103.077, 450, 0, []
1630237615.2355, 125, 0, 4151.282, 4424.103, 4051.282, 4161.538, 4105.641, 450, 0, []
1630237615.2434, 126, 0, 4153.333, 4457.436, 4050.256, 4158.974, 4107.179, 450, 0, []
1630237615.2514, 127, 0, 4132.308, 4464.615, 4049.231, 4157.949, 4091.282, 16196, 0, []
1630237615.2593, 128, 0, 4137.949, 4464.615, 4039.487, 4150.769, 4093.333, 450, 0, []
1630237615.267, 0, 0, 4170.769, 4484.103, 4073.846, 4163.59, 4128.205, 450, 0, []
1630237615.2749, 1, 0, 4180, 4478.974, 4081.538, 4184.615, 4136.41, 450, 0, []
1630237615.2827, 2, 0, 4178.462, 4461.538, 4063.59, 4169.744, 4115.897, 16193, 0, []
1630237615.2906, 3, 0, 4173.333, 4477.436, 4080.513, 4155.897, 4122.051, 450, 0, []
1630237615.2984, 4, 0, 4160, 4467.179, 4061.026, 4157.436, 4128.205, 16101, 0, []
1630237615.3062, 5, 0, 4169.231, 4444.615, 4047.179, 4161.026, 4125.128, 450, 0, []
1630237615.314, 6, 0, 4190.769, 4473.846, 4079.487, 4174.359, 4148.205, 16079, 0, []
1630237615.3219, 7, 0, 4189.744, 4492.308, 4086.154, 4184.103, 4157.949, 450, 0, []
1630237615.3297, 8, 0, 4179.487, 4458.462, 4070.256, 4168.205, 4133.846, 450, 0, []
1630237615.3377, 9, 0, 4182.564, 4446.667, 4071.795, 4155.385, 4130.769, 325, 0, []
1630237615.3456, 10, 0, 4191.795, 4475.897, 4087.692, 4183.077, 4146.667, 450, 0, []
1630237615.3535, 11, 0, 4182.564, 4458.974, 4067.692, 4179.487, 4138.974, 16197, 0, []
1630237615.3614, 12, 0, 4165.641, 4415.897, 4047.692, 4147.179, 4135.897, 450, 0, []
1630237615.3694, 13, 0, 4190.769, 4448.718, 4083.077, 4178.462, 4163.59, 450, 0, []
1630237615.3773, 14, 0, 4234.359, 4501.538, 4111.795, 4214.872, 4185.128, 450, 0, []
1630237615.3853, 15, 0, 4227.692, 4473.846, 4125.641, 4206.667, 4185.641, 16197, 0, []
1630237615.3931, 16, 0, 4209.744, 4447.692, 4122.051, 4206.154, 4180, 0, 0, []
1630237615.4011, 17, 0, 4218.462, 4467.179, 4091.795, 4196.41, 4159.487, 0, 0, []
1630237615.409, 18, 0, 4215.897, 4453.333, 4097.436, 4170.256, 4145.641, 0, 0, []
1630237615.4168, 19, 0, 4216.923, 4449.231, 4117.436, 4186.154, 4178.462, 0, 0, []
1630237615.4247, 20, 0, 4238.462, 4476.41, 4122.564, 4221.538, 4207.692, 0, 0, []
1630237615.4324, 21, 0, 4240, 4472.308, 4112.821, 4210.769, 4187.692, 0, 0, []
1630237615.4403, 22, 0, 4213.846, 4459.487, 4091.795, 4183.59, 4162.564, 0, 0, []
1630237615.4481, 23, 0, 4199.487, 4463.59, 4091.282, 4190.769, 4161.026, 0, 0, []
1630237615.456, 24, 0, 4200, 4449.744, 4088.205, 4192.821, 4147.692, 0, 0, []
1630237615.4639, 25, 0, 4202.051, 4437.436, 4105.128, 4184.615, 4142.564, 0, 0, []
1630237615.4717, 26, 0, 4215.897, 4462.564, 4129.744, 4202.051, 4173.333, 0, 0, []
1630237615.4796, 27, 0, 4232.308, 4486.154, 4113.846, 4211.282, 4184.615, 0, 0, []
1630237615.4876, 28, 0, 4231.282, 4486.154, 4115.897, 4201.538, 4170.256, 0, 0, []
1630237615.4955, 29, 0, 4233.333, 4492.308, 4140, 4207.179, 4188.718, 0, 0, []
1630237615.5035, 30, 0, 4235.385, 4495.897, 4144.615, 4216.923, 4195.385, 0, 0, []
1630237615.5113, 31, 0, 4218.462, 4477.949, 4115.385, 4199.487, 4151.282, 0, 0, []
1630237615.5193, 32, 0, 4222.051, 4490.769, 4115.897, 4191.795, 4158.974, 0, 0, []
1630237615.5272, 33, 0, 4255.897, 4506.154, 4170.769, 4227.179, 4218.462, 0, 0, []
1630237615.5352, 34, 0, 4262.564, 4471.795, 4148.718, 4225.641, 4208.718, 0, 0, []
1630237615.5431, 35, 0, 4244.615, 4461.538, 4110.769, 4185.641, 4177.436, 0, 0, []
1630237615.5509, 36, 0, 4238.462, 4493.333, 4130.769, 4188.718, 4201.026, 0, 0, []
1630237615.5588, 37, 0, 4221.026, 4475.385, 4100, 4191.282, 4192.308, 0, 0, []
1630237615.5666, 38, 0, 4209.744, 4452.821, 4077.949, 4182.051, 4154.872, 0, 0, []
1630237615.5745, 39, 0, 4236.41, 4482.564, 4111.795, 4193.846, 4185.641, 0, 0, []
1630237615.5823, 40, 0, 4247.692, 4471.282, 4130.769, 4205.641, 4222.051, 0, 0, []
1630237615.5901, 41, 0, 4238.974, 4441.026, 4122.051, 4213.333, 4200, 0, 0, []
1630237615.5979, 42, 0, 4247.692, 4465.641, 4109.744, 4208.718, 4189.231, 0, 0, []
1630237615.6058, 43, 0, 4248.718, 4478.462, 4129.744, 4207.179, 4211.282, 0, 0, []
1630237615.6136, 44, 0, 4237.436, 4452.821, 4123.59, 4199.487, 4204.103, 0, 0, []
1630237615.6215, 45, 0, 4224.103, 4419.487, 4090.256, 4168.718, 4161.026, 0, 0, []
1630237615.6292, 46, 0, 4206.667, 4388.205, 4094.872, 4161.538, 4148.718, 0, 0, []
1630237615.6371, 47, 0, 4207.692, 4357.949, 4103.077, 4184.615, 4177.436, 0, 0, []
1630237615.6449, 48, 0, 4238.462, 4325.128, 4116.923, 4213.333, 4189.744, 0, 0, []
1630237615.6528, 49, 0, 4254.359, 4301.538, 4122.051, 4210.769, 4189.231, 0, 0, []
1630237615.6606, 50, 0, 4242.051, 4299.487, 4109.744, 4190.256, 4206.667, 0, 0, []
1630237615.6686, 51, 0, 4224.103, 4289.744, 4105.641, 4186.667, 4192.308, 0, 0, []
1630237615.6764, 52, 0, 4207.692, 4271.795, 4089.744, 4172.821, 4152.821, 0, 0, []
1630237615.6844, 53, 0, 4196.41, 4279.487, 4095.385, 4169.231, 4152.821, 0, 0, []
1630237615.6923, 54, 0, 4196.923, 4279.487, 4097.436, 4184.615, 4171.282, 0, 0, []
1630237615.7003, 55, 0, 4213.333, 4271.282, 4083.59, 4192.308, 4180, 0, 0, []
1630237615.7082, 56, 0, 4214.872, 4288.205, 4096.923, 4188.205, 4181.026, 0, 0, []
1630237615.7161, 57, 0, 4200.513, 4282.051, 4086.667, 4172.821, 4170.769, 0, 0, []
1630237615.724, 58, 0, 4215.897, 4267.179, 4088.205, 4181.026, 4171.795, 0, 0, []
1630237615.7318, 59, 0, 4239.487, 4289.231, 4118.462, 4207.692, 4192.308, 0, 0, []
1630237615.7397, 60, 0, 4235.385, 4294.872, 4111.795, 4207.692, 4195.385, 0, 0, []
1630237615.7475, 61, 0, 4227.692, 4280, 4100, 4193.333, 4177.436, 0, 0, []
1630237615.7553, 62, 0, 4225.128, 4277.436, 4089.744, 4175.385, 4172.308, 0, 0, []
1630237615.7631, 63, 0, 4207.692, 4256.41, 4088.718, 4159.487, 4167.692, 0, 0, []
1630237615.771, 64, 0, 4198.974, 4242.564, 4093.846, 4168.718, 4148.718, 450, 0, []
1630237615.7788, 65, 0, 4197.949, 4266.667, 4080.513, 4170.769, 4142.051, 450, 0, []
1630237615.7867, 66, 0, 4181.026, 4255.897, 4083.077, 4149.231, 4140.513, 16189, 0, []
1630237615.7944, 67, 0, 4180, 4222.051, 4078.974, 4142.051, 4128.718, 450, 0, []
1630237615.8024, 68, 0, 4195.897, 4239.487, 4081.026, 4162.051, 4134.872, 16100, 0, []
1630237615.8103, 69, 0, 4203.077, 4251.282, 4101.026, 4171.795, 4160, 450, 0, []
1630237615.8183, 70, 0, 4208.718, 4223.59, 4094.872, 4164.615, 4163.59, 16080, 0, []
1630237615.8262, 71, 0, 4216.41, 4213.846, 4101.538, 4174.872, 4168.718, 450, 0, []
1630237615.8341, 72, 0, 4206.667, 4217.949, 4093.846, 4164.615, 4173.846, 450, 0, []
1630237615.842, 73, 0, 4192.821, 4215.897, 4072.821, 4143.59, 4146.154, 322, 0, []
1630237615.85, 74, 0, 4195.385, 4216.41, 4082.051, 4155.385, 4141.026, 450, 0, []
1630237615.8579, 75, 0, 4183.077, 4208.718, 4065.641, 4150.769, 4157.949, 16198, 0, []
1630237615.8659, 76, 0, 4167.692, 4197.436, 4055.385, 4137.949, 4138.462, 450, 0, []
1630237615.8737, 77, 0, 4181.538, 4202.051, 4067.179, 4151.795, 4134.872, 450, 0, []
1630237615.8815, 78, 0, 4192.308, 4195.385, 4075.897, 4159.487, 4161.026, 450, 0, []
1630237615.8894, 79, 0, 4184.615, 4190.256, 4078.462, 4157.436, 4150.256, 16198, 0, []
1630237615.8972, 80, 0, 4207.179, 4223.59, 4080, 4160.513, 4149.231, 450, 0, []
1630237615.9051, 81, 0, 4235.897, 4240, 4108.718, 4170.256, 4182.564, 450, 0, []
1630237615.9128, 82, 0, 4214.872, 4214.872, 4088.205, 4162.564, 4162.051, 450, 0, []
1630237615.9207, 83, 0, 4197.436, 4208.205, 4049.231, 4150.769, 4136.41, 16198, 0, []
1630237615.9285, 84, 0, 4220, 4223.59, 4085.128, 4168.718, 4171.795, 450, 0, []
1630237615.9364, 85, 0, 4212.308, 4215.897, 4076.923, 4158.974, 4165.641, 450, 0, []
1630237615.9442, 86, 0, 4176.923, 4206.154, 4045.128, 4134.872, 4119.487, 450, 0, []
1630237615.9521, 87, 0, 4186.667, 4226.154, 4069.744, 4152.821, 4139.487, 16198, 0, []
1630237615.96, 88, 0, 4201.026, 4243.077, 4080.513, 4163.077, 4155.897, 450, 0, []
1630237615.968, 89, 0, 4186.667, 4233.333, 4074.872, 4147.179, 4133.333, 450, 0, []
1630237615.9759, 90, 0, 4197.436, 4198.974, 4072.821, 4146.667, 4151.795, 450, 0, []
1630237615.9839, 91, 0, 4224.615, 4193.846, 4086.667, 4171.282, 4177.436, 16198, 0, []
1630237615.9917, 92, 0, 4222.564, 4221.538, 4090.256, 4172.821, 4171.282, 450, 0, []
1630237615.9997, 93, 0, 4211.795, 4226.154, 4079.487, 4158.974, 4176.41, 450, 0, []
1630237616.0076, 94, 0, 4228.205, 4222.564, 4095.385, 4182.051, 4185.128, 450, 0, []
1630237616.0156, 95, 0, 4233.333, 4228.205, 4078.462, 4180.513, 4170.256, 16198, 0, []
1630237616.0235, 96, 0, 4199.487, 4216.41, 4062.564, 4152.308, 4154.872, 450, 0, []
1630237616.0315, 97, 0, 4181.538, 4205.128, 4078.974, 4158.974, 4149.231, 450, 0, []
1630237616.0393, 98, 0, 4215.385, 4226.667, 4089.744, 4175.897, 4166.667, 450, 0, []
1630237616.0471, 99, 0, 4234.872, 4240, 4108.718, 4187.692, 4199.487, 16198, 0, []
1630237616.055, 100, 0, 4225.128, 4227.692, 4090.256, 4189.744, 4207.179, 450, 0, []
1630237616.0628, 101, 0, 4209.231, 4200.513, 4064.103, 4172.308, 4179.487, 450, 0, []
1630237616.0707, 102, 0, 4173.333, 4179.487, 4069.231, 4156.923, 4148.718, 450, 0, []
1630237616.0784, 103, 0, 4170.256, 4222.051, 4076.41, 4162.564, 4154.872, 16198, 0, []
1630237616.0863, 104, 0, 4208.205, 4243.59, 4098.462, 4167.692, 4172.821, 450, 0, []
1630237616.0941, 105, 0, 4203.077, 4190.256, 4075.897, 4147.179, 4163.59, 450, 0, []
1630237616.1021, 106, 0, 4197.949, 4187.692, 4055.897, 4161.026, 4169.744, 450, 0, []
1630237616.11, 107, 0, 4243.59, 4229.744, 4103.077, 4203.59, 4201.538, 16198, 0, []
1630237616.1179, 108, 0, 4231.795, 4218.462, 4108.718, 4184.615, 4190.256, 450, 0, []
1630237616.1258, 109, 0, 4179.487, 4198.462, 4090.769, 4160, 4153.846, 450, 0, []
1630237616.1338, 110, 0, 4189.231, 4218.974, 4084.103, 4167.692, 4148.205, 450, 0, []
1630237616.1417, 111, 0, 4207.692, 4225.641, 4084.615, 4166.154, 4157.436, 16198, 0, []
1630237616.1497, 112, 0, 4211.282, 4221.026, 4110.256, 4182.051, 4171.282, 450, 0, []
1630237616.1575, 113, 0, 4226.667, 4232.821, 4100, 4188.718, 4170.769, 450, 0, []
1630237616.1655, 114, 0, 4222.564, 4228.718, 4085.128, 4166.154, 4157.436, 450, 0, []
1630237616.1734, 115, 0, 4212.821, 4217.436, 4089.231, 4163.59, 4172.821, 16198, 0, []
1630237616.1812, 116, 0, 4217.436, 4218.462, 4082.564, 4177.436, 4182.564, 450, 0, []
1630237616.1891, 117, 0, 4226.667, 4240.513, 4099.487, 4186.667, 4182.564, 450, 0, []
1630237616.1968, 118, 0, 4236.923, 4263.59, 4109.744, 4194.359, 4214.872, 450, 0, []
1630237616.2047, 119, 0, 4214.872, 4234.872, 4082.051, 4186.667, 4197.436, 16198, 0, []
1630237616.2125, 120, 0, 4180.513, 4196.923, 4053.846, 4163.077, 4137.949, 450, 0, []
1630237616.2204, 121, 0, 4202.051, 4222.051, 4093.333, 4187.179, 4170.256, 450, 0, []
1630237616.2282, 122, 0, 4227.692, 4245.641, 4136.923, 4223.077, 4214.872, 450, 0, []
1630237616.236, 123, 0, 4206.154, 4214.359, 4080.513, 4183.59, 4165.128, 16198, 0, []
1630237616.2438, 124, 0, 4195.897, 4228.718, 4062.564, 4167.179, 4149.231, 450, 0, []
1630237616.2517, 125, 0, 4195.897, 4258.462, 4078.974, 4195.897, 4180, 450, 0, []
1630237616.2595, 126, 0, 4182.051, 4212.821, 4041.026, 4180.513, 4151.282, 450, 0, []
1630237616.2675, 127, 0, 4195.385, 4190.769, 4068.205, 4184.615, 4151.282, 16198, 0, []
1630237616.2753, 128, 0, 4218.974, 4216.41, 4103.59, 4209.744, 4206.667, 450, 0, []
1630237616.2833, 0, 0, 4208.718, 4197.436, 4076.923, 4190.256, 4185.128, 450, 0, []
1630237616.2912, 1, 0, 4193.333, 4184.103, 4069.231, 4171.282, 4141.026, 450, 0, []
1630237616.2992, 2, 0, 4202.051, 4225.641, 4081.026, 4178.462, 4172.308, 16186, 0, []
1630237616.3071, 3, 0, 4205.128, 4234.872, 4076.923, 4174.872, 4182.051, 450, 0, []
1630237616.315, 4, 0, 4190.769, 4216.41, 4048.718, 4146.154, 4152.821, 16100, 0, []
1630237616.3229, 5, 0, 4196.41, 4228.205, 4072.308, 4155.385, 4171.795, 450, 0, []
1630237616.3309, 6, 0, 4217.949, 4236.41, 4115.385, 4191.795, 4191.795, 16070, 0, []
1630237616.3388, 7, 0, 4215.385, 4230.769, 4094.359, 4177.436, 4177.436, 450, 0, []
1630237616.3466, 8, 0, 4209.231, 4230.769, 4097.949, 4171.282, 4195.385, 450, 0, []
1630237616.3544, 9, 0, 4226.154, 4229.231, 4095.897, 4190.769, 4218.974, 323, 0, []
1630237616.3622, 10, 0, 4243.077, 4206.667, 4055.385, 4171.282, 4213.846, 450, 0, []
1630237616.3701, 11, 0, 4282.051, 4191.795, 4067.692, 4156.41, 4265.641, 16194, 0, []
1630237616.3779, 12, 0, 4377.436, 4209.231, 4100, 4180.513, 4384.103, 450, 0, []
1630237616.3858, 13, 0, 4467.692, 4229.231, 4109.744, 4192.308, 4467.179, 450, 0, []
1630237616.3936, 14, 0, 4523.077, 4227.692, 4091.795, 4172.821, 4508.205, 450, 0, []
1630237616.4014, 15, 0, 4572.308, 4227.179, 4086.154, 4170.769, 4557.949, 16194, 0, []
1630237616.4092, 16, 0, 4601.026, 4246.154, 4107.179, 4189.231, 4589.231, 0, 0, []
1630237616.4171, 17, 0, 4581.026, 4252.821, 4091.795, 4176.923, 4568.718, 0, 0, []
1630237616.4249, 18, 0, 4547.179, 4247.179, 4092.821, 4172.308, 4541.538, 0, 0, []
1630237616.4329, 19, 0, 4532.821, 4231.282, 4107.692, 4185.641, 4527.692, 0, 0, []
1630237616.4407, 20, 0, 4507.692, 4214.872, 4094.872, 4180.513, 4494.359, 0, 0, []
1630237616.4486, 21, 0, 4474.359, 4229.231, 4107.179, 4187.692, 4462.051, 0, 0, []
1630237616.4565, 22, 0, 4458.462, 4251.282, 4109.744, 4197.949, 4450.769, 0, 0, []
1630237616.4644, 23, 0, 4448.205, 4254.872, 4109.744, 4201.026, 4423.077, 0, 0, []
1630237616.4723, 24, 0, 4418.462, 4253.846, 4100, 4201.538, 4379.487, 0, 0, []
1630237616.48, 25, 0, 4372.308, 4243.077, 4066.667, 4172.308, 4347.692, 0, 0, []
1630237616.488, 26, 0, 4336.41, 4222.564, 4071.282, 4154.872, 4330.256, 0, 0, []
1630237616.4959, 27, 0, 4328.205, 4225.641, 4081.538, 4174.872, 4322.051, 0, 0, []
1630237616.5038, 28, 0, 4340, 4243.59, 4100.513, 4204.103, 4319.487, 0, 0, []
1630237616.5116, 29, 0, 4336.41, 4244.615, 4114.359, 4196.923, 4307.692, 0, 0, []
1630237616.5194, 30, 0, 4289.744, 4234.359, 4090.769, 4152.308, 4278.974, 0, 0, []
1630237616.5272, 31, 0, 4255.385, 4239.487, 4093.333, 4148.718, 4262.564, 0, 0, []
1630237616.5351, 32, 0, 4278.974, 4258.462, 4090.256, 4178.462, 4265.641, 0, 0, []
1630237616.5429, 33, 0, 4302.564, 4255.385, 4092.308, 4193.333, 4270.769, 0, 0, []
1630237616.5508, 34, 0, 4285.641, 4250.769, 4115.385, 4198.462, 4282.564, 0, 0, []
1630237616.5585, 35, 0, 4252.308, 4247.692, 4095.385, 4189.744, 4269.231, 0, 0, []
1630237616.5664, 36, 0, 4244.615, 4223.077, 4082.564, 4178.462, 4230.769, 0, 0, []
1630237616.5742, 37, 0, 4279.487, 4232.308, 4103.59, 4178.974, 4247.179, 0, 0, []
1630237616.5822, 38, 0, 4296.923, 4276.41, 4123.59, 4197.436, 4293.846, 0, 0, []
1630237616.5901, 39, 0, 4239.487, 4252.821, 4085.128, 4185.128, 4241.026, 0, 0, []
1630237616.598, 40, 0, 4203.077, 4223.077, 4042.564, 4155.897, 4164.103, 0, 0, []
1630237616.6059, 41, 0, 4250.769, 4273.846, 4108.718, 4201.538, 4212.821, 0, 0, []
1630237616.6139, 42, 0, 4276.41, 4289.231, 4135.897, 4236.923, 4269.744, 0, 0, []
1630237616.6218, 43, 0, 4242.564, 4250.256, 4086.154, 4201.538, 4221.026, 0, 0, []
1630237616.6298, 44, 0, 4211.795, 4246.667, 4084.615, 4175.897, 4174.872, 0, 0, []
1630237616.6376, 45, 0, 4201.538, 4245.641, 4089.231, 4168.205, 4182.051, 0, 0, []
1630237616.6456, 46, 0, 4202.051, 4230.256, 4086.667, 4167.692, 4181.538, 0, 0, []
1630237616.6535, 47, 0, 4230.256, 4251.795, 4110.769, 4189.231, 4198.974, 0, 0, []
1630237616.6613, 48, 0, 4245.641, 4277.436, 4134.359, 4206.154, 4231.795, 0, 0, []
1630237616.6692, 49, 0, 4216.41, 4263.59, 4113.846, 4197.949, 4206.667, 0, 0, []
1630237616.6769, 50, 0, 4217.949, 4262.564, 4091.282, 4200.513, 4188.205, 0, 0, []
1630237616.6848, 51, 0, 4238.974, 4268.718, 4131.795, 4223.59, 4217.436, 0, 0, []
1630237616.6926, 52, 0, 4218.974, 4259.487, 4127.692, 4208.718, 4211.282, 0, 0, []
1630237616.7005, 53, 0, 4192.821, 4249.231, 4073.333, 4169.744, 4170.769, 0, 0, []
1630237616.7083, 54, 0, 4189.744, 4220.513, 4088.205, 4173.333, 4165.128, 0, 0, []
1630237616.7162, 55, 0, 4189.231, 4218.462, 4100, 4186.154, 4177.436, 0, 0, []
1630237616.7239, 56, 0, 4209.231, 4264.103, 4108.205, 4202.564, 4185.128, 0, 0, []
1630237616.7318, 57, 0, 4222.051, 4270.256, 4122.051, 4216.41, 4193.333, 0, 0, []
1630237616.7396, 58, 0, 4188.205, 4237.436, 4094.872, 4184.615, 4176.923, 0, 0, []
1630237616.7476, 59, 0, 4177.949, 4238.974, 4094.872, 4171.282, 4154.359, 0, 0, []
1630237616.7555, 60, 0, 4188.205, 4243.077, 4081.538, 4173.333, 4150.256, 0, 0, []
1630237616.7634, 61, 0, 4182.051, 4230.769, 4074.872, 4169.231, 4158.974, 0, 0, []
1630237616.7713, 62, 0, 4196.41, 4252.821, 4122.051, 4191.795, 4164.103, 0, 0, []
1630237616.7793, 63, 0, 4199.487, 4266.667, 4135.385, 4210.256, 4158.462, 0, 0, []
1630237616.7872, 64, 0, 4168.718, 4236.923, 4108.718, 4197.436, 4155.385, 450, 0, []
1630237616.7952, 65, 0, 4163.59, 4226.154, 4081.026, 4175.897, 4148.718, 450, 0, []
1630237616.803, 66, 0, 4183.59, 4237.949, 4096.923, 4185.641, 4154.359, 16167, 0, []
1630237616.811, 67, 0, 4175.897, 4229.231, 4119.487, 4200.513, 4161.026, 450, 0, []
1630237616.8189, 68, 0, 4165.128, 4226.154, 4103.077, 4185.128, 4147.179, 16100, 0, []
1630237616.8267, 69, 0, 4171.282, 4242.564, 4105.128, 4173.846, 4140.513, 450, 0, []
1630237616.8346, 70, 0, 4177.949, 4229.231, 4090.256, 4167.692, 4143.077, 16075, 0, []
1630237616.8423, 71, 0, 4192.821, 4207.179, 4067.692, 4161.026, 4127.179, 450, 0, []
1630237616.8502, 72, 0, 4200.513, 4221.538, 4073.333, 4155.385, 4119.487, 450, 0, []
1630237616.858, 73, 0, 4184.615, 4228.718, 4058.462, 4136.923, 4125.641, 16057, 0, []
1630237616.8659, 74, 0, 4149.744, 4191.282, 4052.308, 4119.487, 4082.051, 450, 0, []
1630237616.8737, 75, 0, 4136.923, 4187.179, 4067.179, 4129.231, 4054.359, 16204, 0, []
1630237616.8816, 76, 0, 4172.308, 4247.692, 4098.462, 4173.333, 4105.641, 450, 0, []
1630237616.8895, 77, 0, 4193.333, 4262.564, 4108.205, 4190.769, 4120, 450, 0, []
1630237616.8975, 78, 0, 4151.282, 4204.103, 4056.923, 4148.205, 4065.641, 450, 0, []
1630237616.9054, 79, 0, 4120, 4190.256, 4061.538, 4141.026, 4051.795, 16204, 0, []
1630237616.9134, 80, 0, 4150.256, 4236.41, 4107.692, 4170.769, 4092.308, 450, 0, []
1630237616.9212, 81, 0, 4156.41, 4237.436, 4095.385, 4158.974, 4092.821, 450, 0, []
1630237616.9292, 82, 0, 4114.872, 4209.231, 4062.051, 4133.333, 4049.231, 450, 0, []
1630237616.9371, 83, 0, 4106.667, 4216.923, 4054.359, 4136.41, 4052.308, 16204, 0, []
1630237616.9451, 84, 0, 4137.949, 4222.051, 4089.744, 4159.487, 4091.795, 450, 0, []
1630237616.953, 85, 0, 4146.667, 4211.795, 4088.718, 4156.923, 4077.949, 450, 0, []
1630237616.9609, 86, 0, 4125.128, 4216.41, 4056.41, 4137.949, 4041.026, 450, 0, []
1630237616.9688, 87, 0, 4131.795, 4232.821, 4075.385, 4160.513, 4061.026, 16204, 0, []
1630237616.9768, 88, 0, 4170.256, 4243.59, 4090.769, 4184.615, 4095.385, 450, 0, []
1630237616.9847, 89, 0, 4173.333, 4243.077, 4100.513, 4183.077, 4097.436, 450, 0, []
1630237616.9925, 90, 0, 4133.846, 4235.897, 4077.436, 4161.026, 4074.359, 450, 0, []
1630237617.0003, 91, 0, 4121.538, 4224.103, 4042.051, 4139.487, 4056.41, 16204, 0, []
1630237617.0081, 92, 0, 4147.179, 4218.462, 4089.744, 4172.821, 4088.205, 450, 0, []
1630237617.016, 93, 0, 4143.077, 4215.385, 4089.744, 4185.641, 4105.128, 450, 0, []
1630237617.0238, 94, 0, 4114.359, 4205.641, 4048.205, 4143.077, 4067.179, 450, 0, []
1630237617.0317, 95, 0, 4123.077, 4212.821, 4085.641, 4147.692, 4071.795, 16204, 0, []
1630237617.0394, 96, 0, 4146.667, 4234.359, 4112.308, 4187.692, 4101.026, 450, 0, []
1630237617.0473, 97, 0, 4142.564, 4240, 4093.846, 4185.641, 4082.564, 450, 0, []
1630237617.0551, 98, 0, 4134.872, 4218.974, 4071.795, 4161.026, 4070.256, 450, 0, []
1630237617.0631, 99, 0, 4138.462, 4200, 4078.462, 4168.205, 4076.41, 16204, 0, []
1630237617.071, 100, 0, 4132.821, 4211.795, 4088.205, 4172.308, 4064.615, 450, 0, []
1630237617.079, 101, 0, 4118.974, 4227.179, 4066.154, 4142.564, 4056.41, 450, 0, []
1630237617.0868, 102, 0, 4116.923, 4201.026, 4071.795, 4142.051, 4057.949, 450, 0, []
1630237617.0948, 103, 0, 4138.974, 4189.231, 4090.256, 4181.026, 4082.564, 16204, 0, []
1630237617.1027, 104, 0, 4175.385, 4245.641, 4112.308, 4212.821, 4128.718, 450, 0, []
1630237617.1107, 105, 0, 4174.359, 4263.59, 4111.282, 4190.769, 4121.026, 450, 0, []
1630237617.1186, 106, 0, 4127.692, 4210.256, 4066.154, 4142.051, 4068.205, 450, 0, []
1630237617.1264, 107, 0, 4108.205, 4192.821, 4064.103, 4147.692, 4059.487, 16204, 0, []
1630237617.1343, 108, 0, 4131.282, 4215.385, 4068.718, 4163.59, 4081.026, 450, 0, []
1630237617.1421, 109, 0, 4143.077, 4226.154, 4066.154, 4156.41, 4082.564, 450, 0, []
1630237617.15, 110, 0, 4131.795, 4228.205, 4084.103, 4161.538, 4071.795, 450, 0, []
1630237617.1578, 111, 0, 4125.128, 4221.538, 4073.333, 4163.59, 4072.821, 16204, 0, []
1630237617.1656, 112, 0, 4119.487, 4213.846, 4070.769, 4170.256, 4070.256, 450, 0, []
1630237617.1734, 113, 0, 4115.897, 4220, 4069.744, 4176.923, 4074.359, 450, 0, []
1630237617.1813, 114, 0, 4140, 4225.128, 4063.59, 4171.795, 4104.615, 450, 0, []
1630237617.1891, 115, 0, 4155.385, 4216.923, 4075.897, 4172.308, 4113.846, 16204, 0, []
1630237617.1971, 116, 0, 4132.308, 4208.205, 4060.513, 4168.718, 4087.179, 450, 0, []
1630237617.2049, 117, 0, 4117.949, 4205.128, 4055.897, 4161.026, 4078.974, 450, 0, []
1630237617.2129, 118, 0, 4143.077, 4212.821, 4071.795, 4168.205, 4101.026, 450, 0, []
1630237617.2208, 119, 0, 4147.692, 4225.641, 4074.872, 4179.487, 4112.308, 16204, 0, []
1630237617.2288, 120, 0, 4118.462, 4229.231, 4074.359, 4181.026, 4100, 450, 0, []
1630237617.2367, 121, 0, 4122.051, 4234.359, 4065.641, 4170.769, 4095.897, 450, 0, []
1630237617.2446, 122, 0, 4145.128, 4235.897, 4083.077, 4170.769, 4107.692, 450, 0, []
1630237617.2525, 123, 0, 4133.846, 4204.103, 4080, 4172.821, 4100, 16204, 0, []
1630237617.2605, 124, 0, 4133.333, 4197.949, 4058.462, 4166.667, 4101.026, 450, 0, []
1630237617.2684, 125, 0, 4171.282, 4239.487, 4099.487, 4191.795, 4144.103, 450, 0, []
1630237617.2764, 126, 0, 4161.538, 4232.308, 4093.846, 4198.462, 4133.333, 450, 0, []
1630237617.2842, 127, 0, 4121.026, 4196.41, 4057.949, 4180, 4088.205, 16204, 0, []
1630237617.292, 128, 0, 4146.667, 4236.41, 4074.872, 4190.256, 4118.462, 450, 0, []
1630237617.2999, 0, 0, 4181.538, 4272.308, 4082.051, 4188.718, 4155.385, 450, 0, []
1630237617.3077, 1, 0, 4164.103, 4224.615, 4089.744, 4177.949, 4129.744, 450, 0, []
1630237617.3156, 2, 0, 4150.769, 4215.897, 4084.615, 4176.923, 4111.795, 16185, 0, []
1630237617.3233, 3, 0, 4148.718, 4245.128, 4071.795, 4174.872, 4117.436, 450, 0, []
1630237617.3312, 4, 0, 4147.179, 4227.692, 4087.179, 4178.974, 4123.077, 16102, 0, []
1630237617.339, 5, 0, 4166.154, 4221.538, 4095.385, 4184.103, 4138.462, 450, 0, []
1630237617.347, 6, 0, 4168.718, 4237.949, 4096.41, 4187.179, 4138.974, 16074, 0, []
1630237617.3549, 7, 0, 4157.949, 4234.359, 4080, 4191.795, 4131.282, 450, 0, []
1630237617.3628, 8, 0, 4163.077, 4235.385, 4072.308, 4190.769, 4138.462, 450, 0, []
1630237617.3707, 9, 0, 4156.923, 4243.077, 4072.821, 4173.333, 4134.359, 16060, 0, []
1630237617.3787, 10, 0, 4145.641, 4222.564, 4056.41, 4168.205, 4121.026, 450, 0, []
1630237617.3866, 11, 0, 4157.949, 4220, 4093.846, 4207.692, 4137.949, 16201, 0, []
1630237617.3946, 12, 0, 4192.308, 4268.205, 4128.718, 4232.821, 4182.564, 450, 0, []
1630237617.4024, 13, 0, 4209.231, 4272.821, 4111.795, 4212.821, 4185.128, 450, 0, []
1630237617.4104, 14, 0, 4197.436, 4228.718, 4107.179, 4208.718, 4160.513, 450, 0, []
1630237617.4183, 15, 0, 4194.359, 4239.487, 4102.051, 4216.923, 4172.821, 16201, 0, []
1630237617.4263, 16, 0, 4196.923, 4262.564, 4102.564, 4202.564, 4183.077, 0, 0, []
1630237617.4342, 17, 0, 4168.205, 4220, 4084.615, 4174.872, 4155.385, 0, 0, []
1630237617.442, 18, 0, 4157.949, 4218.462, 4063.59, 4182.564, 4143.077, 0, 0, []
1630237617.4498, 19, 0, 4200, 4274.872, 4101.026, 4219.487, 4173.846, 0, 0, []
1630237617.4577, 20, 0, 4202.564, 4257.436, 4110.256, 4211.282, 4181.026, 0, 0, []
1630237617.4656, 21, 0, 4164.103, 4217.436, 4080.513, 4188.205, 4145.641, 0, 0, []
1630237617.4735, 22, 0, 4170.256, 4248.205, 4072.308, 4191.282, 4143.077, 0, 0, []
1630237617.4815, 23, 0, 4188.718, 4256.41, 4082.564, 4189.231, 4170.769, 0, 0, []
1630237617.4892, 24, 0, 4182.564, 4224.103, 4085.128, 4178.462, 4162.564, 0, 0, []
1630237617.4971, 25, 0, 4188.205, 4243.59, 4069.231, 4163.59, 4145.641, 0, 0, []
1630237617.5049, 26, 0, 4203.59, 4273.846, 4108.718, 4178.974, 4169.744, 0, 0, []
1630237617.5129, 27, 0, 4195.897, 4244.615, 4124.615, 4196.41, 4176.41, 0, 0, []
1630237617.5208, 28, 0, 4183.077, 4219.487, 4070.769, 4176.41, 4150.256, 0, 0, []
1630237617.5287, 29, 0, 4178.974, 4235.385, 4077.436, 4180.513, 4150.256, 0, 0, []
1630237617.5366, 30, 0, 4182.051, 4243.59, 4095.897, 4197.949, 4163.59, 0, 0, []
1630237617.5446, 31, 0, 4184.103, 4225.641, 4093.846, 4189.744, 4155.897, 0, 0, []
1630237617.5525, 32, 0, 4171.282, 4223.59, 4097.949, 4181.538, 4143.59, 0, 0, []
1630237617.5605, 33, 0, 4168.205, 4253.333, 4081.538, 4170.256, 4137.949, 0, 0, []
1630237617.5683, 34, 0, 4182.051, 4258.974, 4090.769, 4163.077, 4137.949, 0, 0, []
1630237617.5763, 35, 0, 4170.256, 4231.795, 4093.333, 4168.205, 4135.897, 0, 0, []
1630237617.5842, 36, 0, 4144.615, 4231.795, 4077.949, 4173.333, 4121.026, 0, 0, []
1630237617.592, 37, 0, 4157.949, 4245.128, 4081.538, 4175.385, 4122.051, 0, 0, []
1630237617.5999, 38, 0, 4171.795, 4227.692, 4078.974, 4172.821, 4137.436, 0, 0, []
1630237617.6076, 39, 0, 4171.282, 4230.769, 4090.769, 4188.205, 4138.974, 0, 0, []
1630237617.6155, 40, 0, 4193.333, 4254.872, 4096.923, 4192.821, 4149.231, 0, 0, []
1630237617.6233, 41, 0, 4195.897, 4239.487, 4093.846, 4177.436, 4165.641, 0, 0, []
1630237617.6312, 42, 0, 4184.103, 4237.949, 4097.949, 4177.949, 4160.513, 0, 0, []
1630237617.639, 43, 0, 4202.051, 4267.692, 4098.462, 4179.487, 4153.846, 0, 0, []
1630237617.6468, 44, 0, 4209.231, 4265.641, 4113.846, 4177.949, 4166.154, 0, 0, []
1630237617.6546, 45, 0, 4189.231, 4242.564, 4088.205, 4167.179, 4164.103, 0, 0, []
1630237617.6626, 46, 0, 4217.436, 4235.385, 4080, 4174.359, 4177.436, 0, 0, []
1630237617.6705, 47, 0, 4307.692, 4239.487, 4129.231, 4205.641, 4266.667, 0, 0, []
1630237617.6785, 48, 0, 4400, 4252.308, 4119.487, 4196.41, 4387.692, 0, 0, []
1630237617.6863, 49, 0, 4483.59, 4263.077, 4098.462, 4178.974, 4478.462, 0, 0, []
1630237617.6943, 50, 0, 4560.513, 4252.308, 4106.667, 4191.282, 4546.667, 0, 0, []
1630237617.7022, 51, 0, 4598.462, 4249.231, 4101.538, 4187.692, 4589.231, 0, 0, []
1630237617.7102, 52, 0, 4614.359, 4259.487, 4120.513, 4183.077, 4604.615, 0, 0, []
1630237617.7181, 53, 0, 4637.949, 4265.641, 4139.487, 4203.077, 4614.359, 0, 0, []
1630237617.7258, 54, 0, 4620.513, 4271.795, 4143.59, 4217.436, 4594.359, 0, 0, []
1630237617.7337, 55, 0, 4544.103, 4276.41, 4124.615, 4202.051, 4531.282, 0, 0, []
1630237617.7415, 56, 0, 4489.744, 4264.103, 4111.795, 4192.308, 4488.718, 0, 0, []
1630237617.7494, 57, 0, 4476.923, 4256.923, 4142.051, 4207.692, 4480, 0, 0, []
1630237617.7572, 58, 0, 4455.897, 4280.513, 4144.103, 4207.692, 4457.436, 0, 0, []
1630237617.7651, 59, 0, 4425.128, 4295.385, 4144.615, 4218.974, 4427.692, 0, 0, []
1630237617.7728, 60, 0, 4393.846, 4271.282, 4139.487, 4235.897, 4397.949, 0, 0, []
1630237617.7807, 61, 0, 4354.872, 4262.564, 4097.949, 4214.359, 4352.821, 0, 0, []
1630237617.7885, 62, 0, 4330.256, 4277.949, 4100.513, 4206.154, 4319.487, 0, 0, []
1630237617.7964, 63, 0, 4329.231, 4275.385, 4121.026, 4215.385, 4324.103, 0, 0, []
1630237617.8042, 64, 0, 4306.667, 4253.846, 4125.641, 4207.179, 4324.103, 450, 0, []
1630237617.8121, 65, 0, 4265.128, 4244.615, 4115.897, 4189.744, 4291.282, 450, 0, []
1630237617.82, 66, 0, 4267.179, 4259.487, 4115.385, 4187.179, 4267.179, 16201, 0, []
1630237617.828, 67, 0, 4293.846, 4255.897, 4152.821, 4203.077, 4278.462, 450, 0, []
1630237617.8359, 68, 0, 4277.436, 4229.231, 4132.821, 4197.949, 4280, 16085, 0, []
1630237617.8439, 69, 0, 4226.154, 4227.692, 4075.385, 4170.256, 4227.692, 450, 0, []
1630237617.8517, 70, 0, 4208.205, 4253.846, 4077.949, 4152.308, 4189.744, 16072, 0, []
1630237617.8597, 71, 0, 4222.564, 4248.718, 4096.41, 4149.744, 4215.897, 450, 0, []
1630237617.8676, 72, 0, 4227.179, 4227.179, 4094.872, 4162.051, 4223.59, 450, 0, []
1630237617.8756, 73, 0, 4237.949, 4239.487, 4080, 4178.462, 4211.795, 315, 0, []
1630237617.8835, 74, 0, 4251.282, 4255.897, 4101.538, 4194.872, 4240.513, 450, 0, []
1630237617.8914, 75, 0, 4239.487, 4246.154, 4124.615, 4200.513, 4252.308, 16202, 0, []
1630237617.8993, 76, 0, 4220.513, 4227.692, 4084.615, 4175.897, 4207.692, 450, 0, []
1630237617.9071, 77, 0, 4214.359, 4234.872, 4087.179, 4172.308, 4193.333, 450, 0, []
1630237617.915, 78, 0, 4203.077, 4248.718, 4106.154, 4181.026, 4205.128, 450, 0, []
1630237617.9228, 79, 0, 4195.385, 4230.256, 4094.872, 4171.282, 4183.077, 16202, 0, []
1630237617.9306, 80, 0, 4197.436, 4218.974, 4104.615, 4166.667, 4176.923, 450, 0, []
1630237617.9384, 81, 0, 4192.821, 4241.026, 4097.949, 4160, 4191.282, 450, 0, []
1630237617.9463, 82, 0, 4194.359, 4246.667, 4106.154, 4173.333, 4174.872, 450, 0, []
1630237617.9541, 83, 0, 4187.692, 4223.077, 4105.641, 4179.487, 4155.385, 16202, 0, []
1630237617.962, 84, 0, 4180.513, 4216.923, 4087.692, 4170.769, 4173.846, 450, 0, []
1630237617.9697, 85, 0, 4197.949, 4229.744, 4101.026, 4186.667, 4180, 450, 0, []
1630237617.9777, 86, 0, 4187.179, 4243.077, 4085.128, 4176.41, 4156.41, 450, 0, []
1630237617.9856, 87, 0, 4163.077, 4249.231, 4082.051, 4164.103, 4161.538, 16202, 0, []
1630237617.9936, 88, 0, 4173.846, 4228.205, 4100, 4183.59, 4166.667, 450, 0, []
1630237618.0015, 89, 0, 4163.077, 4194.359, 4075.897, 4171.282, 4140.513, 450, 0, []
1630237618.0094, 90, 0, 4148.718, 4205.641, 4082.051, 4165.641, 4147.179, 450, 0, []
1630237618.0173, 91, 0, 4200.513, 4248.718, 4130.256, 4209.231, 4190.256, 16202, 0, []
1630237618.0253, 92, 0, 4217.949, 4248.718, 4140, 4216.41, 4188.718, 450, 0, []
1630237618.0332, 93, 0, 4163.077, 4225.128, 4089.231, 4166.154, 4149.744, 450, 0, []
1630237618.0412, 94, 0, 4161.538, 4242.051, 4082.051, 4164.103, 4152.308, 450, 0, []
1630237618.049, 95, 0, 4192.821, 4253.333, 4136.41, 4212.821, 4186.154, 16202, 0, []
1630237618.0568, 96, 0, 4164.103, 4220, 4108.205, 4204.103, 4174.872, 450, 0, []
1630237618.0647, 97, 0, 4125.641, 4199.487, 4064.615, 4155.385, 4131.795, 450, 0, []
1630237618.0725, 98, 0, 4133.333, 4207.179, 4083.59, 4155.897, 4133.846, 450, 0, []
1630237618.0804, 99, 0, 4143.077, 4210.769, 4078.462, 4174.872, 4151.282, 16202, 0, []
1630237618.0881, 100, 0, 4127.179, 4196.923, 4079.487, 4167.692, 4136.41, 450, 0, []
1630237618.096, 101, 0, 4128.205, 4191.795, 4096.41, 4152.821, 4134.359, 450, 0, []
1630237618.1038, 102, 0, 4158.462, 4223.077, 4118.462, 4170.769, 4155.897, 450, 0, []
1630237618.1117, 103, 0, 4167.179, 4247.179, 4124.615, 4197.436, 4162.051, 16202, 0, []
1630237618.1195, 104, 0, 4139.487, 4225.128, 4082.564, 4176.41, 4144.103, 450, 0, []
1630237618.1275, 105, 0, 4141.538, 4205.641, 4093.846, 4167.179, 4142.564, 450, 0, []
1630237618.1353, 106, 0, 4167.692, 4219.487, 4123.077, 4189.744, 4164.103, 450, 0, []
1630237618.1433, 107, 0, 4159.487, 4219.487, 4104.103, 4194.872, 4161.026, 16202, 0, []
1630237618.1512, 108, 0, 4147.179, 4210.769, 4096.41, 4187.692, 4146.154, 450, 0, []
1630237618.1592, 109, 0, 4156.923, 4222.051, 4104.615, 4186.154, 4160, 450, 0, []
1630237618.1671, 110, 0, 4154.359, 4216.923, 4115.897, 4200, 4158.974, 450, 0, []
1630237618.175, 111, 0, 4138.974, 4200.513, 4093.333, 4191.795, 4133.846, 16202, 0, []
1630237618.1829, 112, 0, 4137.436, 4209.744, 4077.949, 4172.821, 4132.821, 450, 0, []
1630237618.1909, 113, 0, 4147.692, 4224.103, 4099.487, 4187.692, 4141.538, 450, 0, []
1630237618.1988, 114, 0, 4154.359, 4222.051, 4093.333, 4200.513, 4143.077, 450, 0, []
1630237618.2066, 115, 0, 4157.436, 4227.692, 4095.385, 4201.026, 4152.821, 16202, 0, []
1630237618.2144, 116, 0, 4151.282, 4230.769, 4090.769, 4186.154, 4144.103, 450, 0, []
1630237618.2222, 117, 0, 4132.821, 4201.026, 4070.769, 4167.179, 4121.538, 450, 0, []
1630237618.2301, 118, 0, 4126.667, 4183.59, 4076.41, 4175.897, 4113.846, 450, 0, []
1630237618.2379, 119, 0, 4135.897, 4202.051, 4059.487, 4180.513, 4128.718, 16202, 0, []
1630237618.2458, 120, 0, 4136.923, 4213.846, 4058.462, 4170.256, 4143.59, 450, 0, []
1630237618.2535, 121, 0, 4140, 4216.923, 4077.949, 4168.718, 4143.59, 450, 0, []
1630237618.2614, 122, 0, 4156.923, 4225.641, 4083.077, 4186.154, 4145.641, 450, 0, []
1630237618.2692, 123, 0, 4152.308, 4220.513, 4089.744, 4204.103, 4152.821, 16202, 0, []
1630237618.2771, 124, 0, 4132.308, 4202.051, 4064.615, 4184.103, 4149.231, 450, 0, []
1630237618.2849, 125, 0, 4145.641, 4203.077, 4066.667, 4174.872, 4149.231, 450, 0, []
1630237618.2927, 126, 0, 4154.359, 4213.846, 4084.103, 4188.205, 4144.615, 450, 0, []
1630237618.3005, 127, 0, 4128.718, 4221.538, 4053.846, 4177.436, 4124.615, 16202, 0, []
1630237618.3085, 128, 0, 4122.564, 4240.513, 4049.231, 4173.333, 4123.077, 450, 0, []
1630237618.3164, 0, 0, 4140, 4250.256, 4056.41, 4175.385, 4142.051, 450, 0, []
1630237618.3244, 1, 0, 4146.154, 4214.359, 4071.795, 4175.897, 4146.667, 450, 0, []
1630237618.3322, 2, 0, 4158.462, 4197.436, 4094.872, 4201.538, 4149.744, 16196, 0, []
1630237618.3402, 3, 0, 4175.897, 4238.974, 4085.641, 4210.769, 4162.051, 450, 0, []
1630237618.3481, 4, 0, 4168.205, 4251.282, 4090.769, 4190.769, 4170.769, 16108, 0, []
1630237618.3561, 5, 0, 4164.103, 4211.282, 4087.692, 4177.436, 4166.667, 450, 0, []
1630237618.364, 6, 0, 4172.308, 4212.821, 4085.641, 4193.333, 4164.103, 16079, 0, []
1630237618.3719, 7, 0, 4155.897, 4254.872, 4085.641, 4194.872, 4152.821, 450, 0, []
1630237618.3798, 8, 0, 4141.026, 4241.026, 4061.026, 4157.436, 4133.846, 450, 0, []
1630237618.3876, 9, 0, 4156.923, 4213.846, 4084.615, 4166.154, 4147.179, 326, 0, []
1630237618.3955, 10, 0, 4170.769, 4241.538, 4102.051, 4206.154, 4171.282, 450, 0, []
1630237618.4033, 11, 0, 4164.615, 4256.41, 4084.103, 4203.59, 4163.59, 16198, 0, []
1630237618.4111, 12, 0, 4144.615, 4211.282, 4076.41, 4163.077, 4139.487, 450, 0, []
1630237618.4189, 13, 0, 4135.385, 4190.769, 4063.59, 4135.897, 4125.128, 450, 0, []
1630237618.4268, 14, 0, 4149.231, 4230.256, 4085.641, 4175.385, 4140, 450, 0, []
1630237618.4346, 15, 0, 4173.846, 4252.308, 4108.718, 4218.462, 4167.692, 16198, 0, []
1630237618.4426, 16, 0, 4181.026, 4232.308, 4104.103, 4198.462, 4166.667, 0, 0, []
1630237618.4504, 17, 0, 4173.846, 4220.513, 4111.282, 4187.179, 4158.462, 0, 0, []
1630237618.4583, 18, 0, 4173.846, 4246.154, 4101.026, 4205.641, 4164.103, 0, 0, []
1630237618.4662, 19, 0, 4166.667, 4245.641, 4089.231, 4186.154, 4147.179, 0, 0, []
1630237618.4742, 20, 0, 4161.538, 4209.744, 4089.744, 4153.333, 4136.923, 0, 0, []
1630237618.4822, 21, 0, 4186.154, 4217.436, 4105.641, 4183.077, 4166.154, 0, 0, []
1630237618.4901, 22, 0, 4189.231, 4243.59, 4121.026, 4210.769, 4173.333, 0, 0, []
1630237618.4979, 23, 0, 4158.974, 4226.667, 4086.667, 4172.308, 4145.641, 0, 0, []
1630237618.5059, 24, 0, 4161.538, 4204.103, 4078.974, 4162.564, 4135.897, 0, 0, []
1630237618.5138, 25, 0, 4188.205, 4224.103, 4104.615, 4190.769, 4156.923, 0, 0, []
1630237618.5216, 26, 0, 4175.897, 4239.487, 4097.949, 4171.795, 4162.051, 0, 0, []
1630237618.5295, 27, 0, 4152.821, 4212.308, 4094.872, 4151.282, 4131.795, 0, 0, []
1630237618.5372, 28, 0, 4167.692, 4201.026, 4094.359, 4172.308, 4139.487, 0, 0, []
1630237618.5451, 29, 0, 4196.41, 4231.282, 4103.59, 4195.385, 4186.154, 0, 0, []
1630237618.5529, 30, 0, 4196.923, 4238.462, 4098.974, 4187.179, 4182.564, 0, 0, []
1630237618.5608, 31, 0, 4175.897, 4222.051, 4076.41, 4172.821, 4151.795, 0, 0, []
1630237618.5686, 32, 0, 4184.103, 4243.077, 4101.026, 4190.256, 4173.333, 0, 0, []
1630237618.5764, 33, 0, 4208.205, 4246.154, 4098.462, 4186.154, 4190.769, 0, 0, []
1630237618.5842, 34, 0, 4193.333, 4208.205, 4081.538, 4165.128, 4171.795, 0, 0, []
1630237618.5922, 35, 0, 4195.897, 4230.256, 4104.103, 4186.154, 4195.897, 0, 0, []
1630237618.6001, 36, 0, 4247.692, 4279.487, 4116.923, 4207.179, 4235.897, 0, 0, []
1630237618.6081, 37, 0, 4266.154, 4257.949, 4134.359, 4202.564, 4233.333, 0, 0, []
1630237618.6159, 38, 0, 4244.615, 4235.897, 4132.821, 4194.359, 4235.897, 0, 0, []
1630237618.6239, 39, 0, 4247.179, 4267.692, 4124.615, 4206.154, 4250.769, 0, 0, []
1630237618.6318, 40, 0, 4258.462, 4274.872, 4127.692, 4221.026, 4229.231, 0, 0, []
1630237618.6398, 41, 0, 4235.385, 4229.744, 4102.051, 4198.462, 4203.59, 0, 0, []
1630237618.6477, 42, 0, 4227.179, 4198.462, 4105.641, 4191.282, 4231.795, 0, 0, []
1630237618.6556, 43, 0, 4285.641, 4231.795, 4124.103, 4212.308, 4291.795, 0, 0, []
1630237618.6635, 44, 0, 4369.231, 4268.205, 4126.667, 4212.308, 4342.564, 0, 0, []
1630237618.6713, 45, 0, 4440, 4257.949, 4133.333, 4204.615, 4402.051, 0, 0, []
1630237618.6792, 46, 0, 4515.385, 4252.308, 4126.154, 4208.718, 4483.59, 0, 0, []
1630237618.687, 47, 0, 4571.795, 4259.487, 4127.179, 4209.744, 4530.256, 0, 0, []
1630237618.6948, 48, 0, 4587.179, 4264.103, 4116.923, 4199.487, 4531.795, 0, 0, []
1630237618.7026, 49, 0, 4604.103, 4274.872, 4120, 4212.821, 4549.744, 0, 0, []
1630237618.7105, 50, 0, 4620, 4273.333, 4151.282, 4244.615, 4571.795, 0, 0, []
1630237618.7183, 51, 0, 4597.949, 4257.436, 4127.692, 4230.769, 4551.282, 0, 0, []
1630237618.7262, 52, 0, 4552.821, 4280, 4107.692, 4211.795, 4511.795, 0, 0, []
1630237618.7339, 53, 0, 4524.103, 4304.103, 4121.026, 4222.564, 4495.385, 0, 0, []
1630237618.7418, 54, 0, 4513.846, 4283.077, 4131.795, 4238.974, 4489.231, 0, 0, []
1630237618.7496, 55, 0, 4482.051, 4275.385, 4141.538, 4241.026, 4459.487, 0, 0, []
1630237618.7576, 56, 0, 4428.718, 4278.462, 4125.641, 4211.282, 4414.359, 0, 0, []
1630237618.7655, 57, 0, 4398.462, 4251.795, 4132.821, 4206.154, 4394.359, 0, 0, []
1630237618.7734, 58, 0, 4383.59, 4236.41, 4136.41, 4231.282, 4384.103, 0, 0, []
1630237618.7813, 59, 0, 4349.231, 4261.538, 4107.692, 4221.026, 4344.103, 0, 0, []
1630237618.7893, 60, 0, 4308.718, 4267.692, 4108.205, 4194.359, 4288.205, 0, 0, []
1630237618.7972, 61, 0, 4282.564, 4236.41, 4108.718, 4187.179, 4264.615, 0, 0, []
1630237618.8052, 62, 0, 4260, 4226.667, 4110.769, 4204.615, 4265.128, 0, 0, []
1630237618.8131, 63, 0, 4245.128, 4249.231, 4107.692, 4217.949, 4250.769, 0, 0, []
1630237618.821, 64, 0, 4250.769, 4262.564, 4100, 4213.333, 4242.051, 450, 0, []
1630237618.8289, 65, 0, 4238.974, 4232.308, 4121.538, 4204.103, 4242.564, 450, 0, []
1630237618.8367, 66, 0, 4208.718, 4219.487, 4105.128, 4180.513, 4221.026, 16198, 0, []
1630237618.8446, 67, 0, 4196.923, 4243.077, 4089.231, 4162.564, 4189.744, 450, 0, []
1630237618.8524, 68, 0, 4176.923, 4231.795, 4095.897, 4165.641, 4165.641, 16133, 0, []
1630237618.8602, 69, 0, 4138.974, 4213.333, 4069.744, 4167.692, 4139.487, 450, 0, []
1630237618.868, 70, 0, 4146.154, 4218.974, 4091.282, 4190.256, 4147.179, 16081, 0, []
1630237618.8759, 71, 0, 4182.564, 4206.667, 4123.077, 4217.949, 4189.231, 450, 0, []
1630237618.8837, 72, 0, 4156.41, 4181.538, 4087.179, 4200.513, 4163.59, 450, 0, []
1630237618.8916, 73, 0, 4117.436, 4187.179, 4062.564, 4168.718, 4113.846, 16058, 0, []
1630237618.8993, 74, 0, 4122.564, 4196.41, 4067.692, 4151.282, 4118.974, 450, 0, []
1630237618.9072, 75, 0, 4125.641, 4205.641, 4085.128, 4149.744, 4114.872, 16182, 0, []
1630237618.915, 76, 0, 4110.769, 4231.795, 4077.436, 4149.231, 4088.205, 450, 0, []
1630237618.923, 77, 0, 4101.538, 4216.41, 4072.308, 4150.769, 4085.128, 450, 0, []
1630237618.9309, 78, 0, 4113.333, 4189.744, 4094.872, 4174.359, 4108.718, 450, 0, []
1630237618.9388, 79, 0, 4122.564, 4191.282, 4089.744, 4189.231, 4121.538, 16182, 0, []
1630237618.9467, 80, 0, 4111.282, 4167.179, 4101.538, 4202.564, 4118.974, 450, 0, []
1630237618.9547, 81, 0, 4102.564, 4135.897, 4115.897, 4222.564, 4123.077, 450, 0, []
1630237618.9626, 82, 0, 4115.897, 4163.077, 4116.923, 4227.692, 4140, 450, 0, []
1630237618.9706, 83, 0, 4127.179, 4206.154, 4130.769, 4211.795, 4145.641, 16182, 0, []
1630237618.9784, 84, 0, 4120.513, 4205.641, 4108.718, 4171.795, 4123.077, 450, 0, []
1630237618.9864, 85, 0, 4093.846, 4203.077, 4080, 4149.744, 4081.026, 450, 0, []
1630237618.9943, 86, 0, 4064.103, 4218.974, 4060, 4151.282, 4046.667, 450, 0, []
1630237619.0021, 87, 0, 4072.821, 4218.462, 4064.615, 4164.103, 4059.487, 16182, 0, []
1630237619.01, 88, 0, 4090.256, 4206.154, 4087.179, 4185.641, 4085.128, 450, 0, []
1630237619.0177, 89, 0, 4084.615, 4201.538, 4063.59, 4184.103, 4078.974, 450, 0, []
1630237619.0256, 90, 0, 4080, 4175.897, 4059.487, 4173.846, 4078.974, 450, 0, []
1630237619.0334, 91, 0, 4075.385, 4134.359, 4061.538, 4156.923, 4076.41, 16182, 0, []
1630237619.0413, 92, 0, 4072.308, 4138.974, 4047.179, 4136.923, 4070.256, 450, 0, []
1630237619.0491, 93, 0, 4105.128, 4171.282, 4089.744, 4161.026, 4102.051, 450, 0, []
1630237619.0569, 94, 0, 4131.795, 4167.692, 4102.051, 4169.231, 4116.923, 450, 0, []
1630237619.0647, 95, 0, 4103.077, 4144.103, 4078.974, 4151.282, 4086.667, 16182, 0, []
1630237619.0727, 96, 0, 4097.436, 4147.179, 4089.231, 4179.487, 4090.769, 450, 0, []
1630237619.0806, 97, 0, 4116.923, 4148.205, 4083.077, 4197.436, 4116.923, 450, 0, []
1630237619.0886, 98, 0, 4111.795, 4140, 4076.41, 4184.615, 4111.282, 450, 0, []
1630237619.0964, 99, 0, 4115.897, 4143.077, 4085.641, 4190.256, 4114.359, 16182, 0, []
1630237619.1044, 100, 0, 4123.077, 4132.821, 4103.077, 4208.205, 4123.077, 450, 0, []
1630237619.1123, 101, 0, 4099.487, 4121.538, 4103.077, 4195.385, 4094.872, 450, 0, []
1630237619.1203, 102, 0, 4077.949, 4124.615, 4085.128, 4164.615, 4071.282, 450, 0, []
1630237619.1282, 103, 0, 4076.41, 4106.667, 4098.974, 4158.974, 4071.282, 16182, 0, []
1630237619.1361, 104, 0, 4060.513, 4084.103, 4083.59, 4149.231, 4062.564, 450, 0, []
1630237619.144, 105, 0, 4074.359, 4117.949, 4075.897, 4167.179, 4075.897, 450, 0, []
1630237619.1518, 106, 0, 4125.128, 4161.026, 4113.846, 4211.282, 4117.436, 450, 0, []
1630237619.1597, 107, 0, 4117.949, 4142.051, 4102.564, 4204.615, 4107.692, 16182, 0, []
1630237619.1675, 108, 0, 4087.692, 4123.59, 4084.103, 4187.692, 4073.846, 450, 0, []
1630237619.1754, 109, 0, 4111.282, 4142.051, 4074.872, 4189.744, 4102.564, 450, 0, []
1630237619.1831, 110, 0, 4123.59, 4135.897, 4061.538, 4177.436, 4131.795, 450, 0, []
1630237619.191, 111, 0, 4089.744, 4109.231, 4072.308, 4167.692, 4117.949, 16182, 0, []
1630237619.1988, 112, 0, 4099.487, 4133.846, 4084.103, 4192.308, 4125.641, 450, 0, []
1630237619.2068, 113, 0, 4121.026, 4169.231, 4099.487, 4205.641, 4129.231, 450, 0, []
1630237619.2147, 114, 0, 4093.846, 4161.538, 4090.256, 4189.231, 4099.487, 450, 0, []
1630237619.2226, 115, 0, 4083.077, 4155.897, 4069.744, 4196.923, 4095.385, 16182, 0, []
1630237619.2305, 116, 0, 4088.718, 4159.487, 4071.282, 4210.256, 4106.154, 450, 0, []
1630237619.2385, 117, 0, 4086.667, 4164.615, 4071.795, 4197.436, 4106.154, 450, 0, []
1630237619.2464, 118, 0, 4096.923, 4167.179, 4101.026, 4203.59, 4127.692, 450, 0, []
1630237619.2544, 119, 0, 4118.974, 4165.641, 4119.487, 4224.615, 4150.769, 16182, 0, []
1630237619.2622, 120, 0, 4112.821, 4170.256, 4093.846, 4209.744, 4124.103, 450, 0, []
1630237619.2702, 121, 0, 4078.974, 4163.077, 4074.359, 4193.333, 4083.59, 450, 0, []
1630237619.2781, 122, 0, 4064.103, 4156.923, 4047.179, 4186.667, 4082.051, 450, 0, []
1630237619.2861, 123, 0, 4083.59, 4190.256, 4061.026, 4188.718, 4109.231, 16182, 0, []
1630237619.294, 124, 0, 4104.615, 4221.538, 4079.487, 4189.744, 4117.436, 450, 0, []
1630237619.3017, 125, 0, 4084.103, 4186.667, 4038.974, 4156.41, 4088.718, 450, 0, []
1630237619.3096, 126, 0, 4081.538, 4175.385, 4048.205, 4159.487, 4085.641, 450, 0, []
1630237619.3174, 127, 0, 4127.179, 4241.538, 4085.641, 4203.077, 4119.487, 16182, 0, []
1630237619.3253, 128, 0, 4137.949, 4276.41, 4100, 4217.436, 4132.821, 450, 0, []
1630237619.3331, 0, 0, 4114.359, 4268.205, 4098.974, 4207.692, 4123.59, 450, 0, []
1630237619.3409, 1, 0, 4101.538, 4245.128, 4078.974, 4189.744, 4113.333, 450, 0, []
1630237619.3487, 2, 0, 4098.462, 4218.974, 4077.949, 4180, 4092.308, 16193, 0, []
1630237619.3566, 3, 0, 4112.821, 4237.436, 4085.128, 4190.256, 4094.872, 450, 0, []
1630237619.3644, 4, 0, 4145.128, 4275.897, 4123.077, 4228.205, 4141.538, 16110, 0, []
1630237619.3724, 5, 0, 4146.154, 4282.564, 4138.462, 4239.487, 4152.821, 450, 0, []
1630237619.3802, 6, 0, 4104.615, 4260, 4078.974, 4186.154, 4102.564, 16086, 0, []
1630237619.3882, 7, 0, 4090.769, 4238.974, 4082.564, 4180.513, 4086.667, 450, 0, []
1630237619.3961, 8, 0, 4121.538, 4252.821, 4118.974, 4222.564, 4124.615, 450, 0, []
1630237619.4041, 9, 0, 4122.051, 4276.41, 4092.821, 4203.59, 4126.667, 323, 0, []
1630237619.412, 10, 0, 4096.923, 4261.538, 4070.256, 4170.769, 4101.538, 450, 0, []
1630237619.4199, 11, 0, 4110.256, 4255.897, 4085.641, 4192.308, 4106.154, 16198, 0, []
1630237619.4278, 12, 0, 4142.051, 4288.718, 4124.103, 4232.308, 4126.154, 450, 0, []
1630237619.4358, 13, 0, 4140.513, 4292.821, 4111.795, 4229.744, 4126.154, 450, 0, []
1630237619.4437, 14, 0, 4133.333, 4286.154, 4092.821, 4214.359, 4120.513, 450, 0, []
1630237619.4517, 15, 0, 4134.872, 4284.615, 4105.128, 4212.308, 4119.487, 16198, 0, []
1630237619.4595, 16, 0, 4117.949, 4258.462, 4071.282, 4191.795, 4105.128, 0, 0, []
1630237619.4674, 17, 0, 4117.949, 4270.769, 4076.923, 4203.077, 4109.744, 0, 0, []
1630237619.4753, 18, 0, 4140.513, 4315.385, 4103.077, 4216.41, 4130.769, 0, 0, []
1630237619.4833, 19, 0, 4137.436, 4301.026, 4091.282, 4190.769, 4127.692, 0, 0, []
1630237619.4912, 20, 0, 4123.077, 4259.487, 4100, 4198.974, 4113.846, 0, 0, []
1630237619.4989, 21, 0, 4132.308, 4271.282, 4104.615, 4227.692, 4120.513, 0, 0, []
1630237619.5068, 22, 0, 4141.538, 4298.974, 4111.795, 4221.538, 4127.692, 0, 0, []
1630237619.5146, 23, 0, 4124.615, 4283.077, 4114.872, 4196.41, 4115.385, 0, 0, []
1630237619.5226, 24, 0, 4129.744, 4257.949, 4127.692, 4209.744, 4125.128, 0, 0, []
1630237619.5305, 25, 0, 4149.744, 4271.282, 4151.282, 4241.026, 4143.077, 0, 0, []
1630237619.5385, 26, 0, 4121.538, 4293.333, 4108.718, 4212.308, 4113.333, 0, 0, []
1630237619.5463, 27, 0, 4095.897, 4276.41, 4093.333, 4190.256, 4087.179, 0, 0, []
1630237619.5543, 28, 0, 4125.128, 4263.59, 4118.974, 4211.282, 4111.282, 0, 0, []
1630237619.5622, 29, 0, 4143.077, 4277.436, 4107.692, 4209.231, 4128.205, 0, 0, []
1630237619.5702, 30, 0, 4132.308, 4282.564, 4116.41, 4209.744, 4124.615, 0, 0, []
1630237619.5781, 31, 0, 4143.077, 4287.692, 4120, 4221.026, 4135.385, 0, 0, []
1630237619.586, 32, 0, 4157.436, 4297.436, 4109.744, 4212.821, 4139.487, 0, 0, []
1630237619.5939, 33, 0, 4146.667, 4283.59, 4105.641, 4197.436, 4129.744, 0, 0, []
1630237619.6017, 34, 0, 4125.641, 4242.051, 4085.641, 4187.692, 4113.333, 0, 0, []
1630237619.6096, 35, 0, 4109.231, 4232.821, 4087.179, 4187.692, 4094.872, 0, 0, []
1630237619.6174, 36, 0, 4132.308, 4285.128, 4102.051, 4192.308, 4122.051, 0, 0, []
1630237619.6252, 37, 0, 4181.538, 4314.359, 4131.795, 4210.769, 4171.795, 0, 0, []
1630237619.633, 38, 0, 4184.615, 4275.897, 4147.692, 4222.564, 4170.256, 0, 0, []
1630237619.6409, 39, 0, 4164.103, 4265.641, 4124.615, 4213.333, 4150.256, 0, 0, []
1630237619.6487, 40, 0, 4167.692, 4300, 4124.615, 4208.718, 4150.256, 0, 0, []
1630237619.6566, 41, 0, 4168.205, 4289.744, 4121.538, 4207.179, 4151.282, 0, 0, []
1630237619.6643, 42, 0, 4163.59, 4277.949, 4115.385, 4213.846, 4146.667, 0, 0, []
1630237619.6722, 43, 0, 4166.667, 4301.026, 4122.051, 4204.103, 4141.538, 0, 0, []
1630237619.68, 44, 0, 4165.641, 4283.59, 4107.179, 4177.949, 4135.897, 0, 0, []
1630237619.688, 45, 0, 4155.897, 4247.179, 4108.205, 4190.769, 4123.59, 0, 0, []
1630237619.6959, 46, 0, 4143.077, 4269.231, 4101.538, 4206.154, 4112.821, 0, 0, []
1630237619.7038, 47, 0, 4145.128, 4286.667, 4093.846, 4198.462, 4124.103, 0, 0, []
1630237619.7117, 48, 0, 4161.026, 4262.564, 4107.692, 4204.103, 4139.487, 0, 0, []
1630237619.7197, 49, 0, 4150.256, 4262.051, 4089.744, 4198.462, 4136.41, 0, 0, []
1630237619.7276, 50, 0, 4140.513, 4284.103, 4092.821, 4194.359, 4137.949, 0, 0, []
1630237619.7356, 51, 0, 4170.769, 4287.179, 4116.923, 4204.615, 4154.359, 0, 0, []
1630237619.7434, 52, 0, 4188.718, 4276.923, 4125.641, 4206.667, 4169.231, 0, 0, []
1630237619.7512, 53, 0, 4163.59, 4270.769, 4112.308, 4201.538, 4157.436, 0, 0, []
1630237619.7591, 54, 0, 4131.282, 4249.744, 4064.103, 4174.359, 4122.564, 0, 0, []
1630237619.7671, 55, 0, 4138.974, 4239.487, 4081.026, 4171.795, 4118.462, 0, 0, []
1630237619.775, 56, 0, 4183.59, 4275.897, 4129.231, 4215.897, 4150.769, 0, 0, []
1630237619.7827, 57, 0, 4201.026, 4297.436, 4122.051, 4227.179, 4166.154, 0, 0, []
1630237619.7906, 58, 0, 4166.667, 4257.436, 4109.744, 4192.821, 4146.154, 0, 0, []
1630237619.7984, 59, 0, 4160.513, 4243.077, 4104.615, 4182.564, 4135.897, 0, 0, []
1630237619.8063, 60, 0, 4184.615, 4289.231, 4118.974, 4212.821, 4152.821, 0, 0, []
1630237619.8141, 61, 0, 4177.949, 4291.282, 4114.359, 4213.333, 4163.59, 0, 0, []
1630237619.8219, 62, 0, 4169.744, 4253.333, 4096.41, 4188.205, 4150.769, 0, 0, []
1630237619.8297, 63, 0, 4177.949, 4265.641, 4129.231, 4200, 4148.718, 0, 0, []
1630237619.8377, 64, 0, 4179.487, 4305.128, 4128.205, 4209.231, 4164.103, 450, 0, []
1630237619.8456, 65, 0, 4168.205, 4294.872, 4104.615, 4194.359, 4156.41, 450, 0, []
1630237619.8536, 66, 0, 4149.744, 4248.205, 4106.667, 4185.128, 4129.231, 16187, 0, []
1630237619.8615, 67, 0, 4143.59, 4232.821, 4094.872, 4180.513, 4117.949, 450, 0, []
1630237619.8694, 68, 0, 4151.795, 4252.821, 4102.564, 4182.051, 4127.179, 16098, 0, []
1630237619.8773, 69, 0, 4142.564, 4252.308, 4098.974, 4176.923, 4126.154, 450, 0, []
1630237619.8853, 70, 0, 4132.821, 4223.077, 4085.128, 4171.795, 4112.308, 16079, 0, []
1630237619.8932, 71, 0, 4167.692, 4228.718, 4095.897, 4180.513, 4143.077, 450, 0, []
1630237619.9012, 72, 0, 4215.385, 4253.846, 4094.359, 4176.923, 4204.615, 450, 0, []
1630237619.909, 73, 0, 4228.205, 4237.436, 4094.872, 4180, 4217.436, 324, 0, []
1630237619.9168, 74, 0, 4205.128, 4206.667, 4078.462, 4171.282, 4185.641, 450, 0, []
1630237619.9247, 75, 0, 4173.846, 4218.974, 4069.744, 4151.282, 4165.641, 16198, 0, []
1630237619.9325, 76, 0, 4169.231, 4240, 4085.641, 4162.564, 4153.333, 450, 0, []
1630237619.9404, 77, 0, 4166.154, 4222.051, 4076.923, 4172.308, 4145.128, 450, 0, []
1630237619.9481, 78, 0, 4141.538, 4204.103, 4074.872, 4161.026, 4140, 450, 0, []
1630237619.956, 79, 0, 4136.41, 4213.333, 4068.718, 4143.59, 4125.641, 16198, 0, []
1630237619.9638, 80, 0, 4153.846, 4218.462, 4077.949, 4153.846, 4130.769, 450, 0, []
1630237619.9717, 81, 0, 4163.077, 4216.923, 4103.59, 4186.667, 4153.333, 450, 0, []
1630237619.9795, 82, 0, 4152.308, 4213.333, 4075.385, 4166.154, 4144.103, 450, 0, []
1630237619.9874, 83, 0, 4141.538, 4202.051, 4074.359, 4135.385, 4123.077, 16198, 0, []
1630237619.9953, 84, 0, 4162.564, 4216.923, 4098.974, 4165.128, 4134.359, 450, 0, []
1630237620.0033, 85, 0, 4171.795, 4238.974, 4075.897, 4180.513, 4142.564, 450, 0, []
1630237620.0112, 86, 0, 4143.59, 4212.821, 4055.897, 4151.282, 4123.59, 450, 0, []
1630237620.0192, 87, 0, 4134.359, 4184.103, 4054.872, 4142.564, 4113.333, 16198, 0, []
1630237620.027, 88, 0, 4135.897, 4183.59, 4064.103, 4162.051, 4107.692, 450, 0, []
1630237620.035, 89, 0, 4128.205, 4182.564, 4055.385, 4166.667, 4107.692, 450, 0, []
1630237620.0429, 90, 0, 4154.359, 4198.462, 4063.59, 4165.128, 4136.41, 450, 0, []
1630237620.0509, 91, 0, 4183.59, 4228.205, 4104.615, 4184.103, 4160, 16198, 0, []
1630237620.0588, 92, 0, 4167.692, 4226.667, 4078.462, 4185.128, 4144.615, 450, 0, []
1630237620.0667, 93, 0, 4144.615, 4197.436, 4049.231, 4160, 4126.667, 450, 0, []
1630237620.0746, 94, 0, 4156.923, 4194.359, 4072.308, 4151.282, 4144.103, 450, 0, []
1630237620.0824, 95, 0, 4184.615, 4220.513, 4082.564, 4171.795, 4165.128, 16198, 0, []
1630237620.0903, 96, 0, 4190.769, 4235.897, 4091.795, 4190.769, 4171.282, 450, 0, []
1630237620.0981, 97, 0, 4180.513, 4225.641, 4080, 4176.41, 4169.231, 450, 0, []
1630237620.1059, 98, 0, 4177.949, 4194.359, 4078.462, 4168.205, 4151.282, 450, 0, []
1630237620.1137, 99, 0, 4173.846, 4181.538, 4087.179, 4176.41, 4135.385, 16198, 0, []
1630237620.1216, 100, 0, 4155.385, 4205.641, 4059.487, 4161.538, 4132.821, 450, 0, []
1630237620.1294, 101, 0, 4148.205, 4222.051, 4056.923, 4155.385, 4133.333, 450, 0, []
1630237620.1373, 102, 0, 4163.077, 4213.333, 4069.744, 4167.179, 4148.718, 450, 0, []
1630237620.145, 103, 0, 4175.897, 4216.41, 4078.462, 4177.949, 4152.308, 16198, 0, []
1630237620.153, 104, 0, 4168.205, 4225.641, 4083.077, 4167.179, 4129.231, 450, 0, []
1630237620.1609, 105, 0, 4160, 4205.641, 4065.641, 4141.026, 4120.513, 450, 0, []
1630237620.1689, 106, 0, 4164.615, 4202.564, 4081.538, 4158.462, 4129.744, 450, 0, []
1630237620.1768, 107, 0, 4174.359, 4240.513, 4102.051, 4192.821, 4142.051, 16198, 0, []
1630237620.1847, 108, 0, 4177.436, 4242.051, 4110.769, 4196.41, 4154.872, 450, 0, []
1630237620.1926, 109, 0, 4172.308, 4206.154, 4103.59, 4182.564, 4145.128, 450, 0, []
1630237620.2006, 110, 0, 4171.795, 4216.41, 4076.923, 4172.821, 4140.513, 450, 0, []
1630237620.2085, 111, 0, 4185.641, 4244.103, 4094.359, 4189.744, 4159.487, 16198, 0, []
1630237620.2165, 112, 0, 4182.051, 4223.59, 4090.769, 4183.077, 4142.051, 450, 0, []
1630237620.2244, 113, 0, 4141.538, 4204.103, 4057.436, 4149.744, 4102.564, 450, 0, []
1630237620.2321, 114, 0, 4127.692, 4213.333, 4058.462, 4157.949, 4111.795, 450, 0, []
1630237620.24, 115, 0, 4166.154, 4212.308, 4060.513, 4175.385, 4145.641, 16198, 0, []
1630237620.2478, 116, 0, 4177.949, 4192.308, 4072.821, 4169.231, 4144.103, 450, 0, []
1630237620.2557, 117, 0, 4154.359, 4201.538, 4066.667, 4161.538, 4115.897, 450, 0, []
1630237620.2635, 118, 0, 4156.41, 4233.846, 4053.846, 4161.026, 4120.513, 450, 0, []
1630237620.2713, 119, 0, 4171.795, 4221.538, 4069.744, 4165.128, 4144.615, 16198, 0, []
1630237620.2791, 120, 0, 4163.077, 4180.513, 4052.308, 4155.897, 4124.103, 450, 0, []
1630237620.287, 121, 0, 4163.077, 4198.462, 4066.667, 4171.282, 4120.513, 450, 0, []
1630237620.2948, 122, 0, 4176.923, 4231.282, 4090.769, 4194.872, 4166.154, 450, 0, []
1630237620.3028, 123, 0, 4177.949, 4213.846, 4068.205, 4186.154, 4162.564, 16198, 0, []
1630237620.3106, 124, 0, 4188.718, 4214.359, 4089.231, 4192.308, 4148.718, 450, 0, []
1630237620.3186, 125, 0, 4204.103, 4241.538, 4103.59, 4197.949, 4189.744, 450, 0, []
1630237620.3265, 126, 0, 4187.179, 4220.513, 4079.487, 4173.333, 4180, 450, 0, []
1630237620.3345, 127, 0, 4160.513, 4204.615, 4068.205, 4156.41, 4128.205, 16198, 0, []
1630237620.3424, 128, 0, 4175.897, 4238.462, 4086.667, 4172.308, 4148.205, 450, 0, []
1630237620.3503, 0, 0, 4206.154, 4245.641, 4120.513, 4197.949, 4180, 450, 0, []
1630237620.3582, 1, 0, 4189.744, 4219.487, 4101.538, 4185.641, 4157.436, 450, 0, []
1630237620.3662, 2, 0, 4162.564, 4218.462, 4075.897, 4167.179, 4141.538, 16187, 0, []
1630237620.3741, 3, 0, 4164.103, 4211.282, 4072.821, 4164.103, 4137.949, 450, 0, []
1630237620.3819, 4, 0, 4157.436, 4181.026, 4061.026, 4156.923, 4121.026, 16102, 0, []
1630237620.3897, 5, 0, 4155.897, 4195.897, 4081.538, 4175.385, 4129.231, 450, 0, []
1630237620.3975, 6, 0, 4194.359, 4235.385, 4092.821, 4189.231, 4161.538, 283, 0, []
1630237620.4054, 7, 0, 4205.641, 4226.154, 4087.179, 4177.949, 4168.718, 450, 0, []
1630237620.4132, 8, 0, 4176.41, 4213.846, 4084.615, 4175.897, 4150.769, 450, 0, []
1630237620.4211, 9, 0, 4171.282, 4223.59, 4069.744, 4166.154, 4142.051, 324, 0, []
1630237620.4288, 10, 0, 4176.923, 4212.821, 4088.205, 4161.026, 4147.179, 450, 0, []
1630237620.4368, 11, 0, 4161.026, 4190.769, 4082.051, 4157.949, 4133.333, 16198, 0, []
1630237620.4447, 12, 0, 4146.154, 4182.051, 4054.872, 4150.256, 4114.872, 450, 0, []
1630237620.4526, 13, 0, 4151.282, 4190.256, 4075.385, 4161.026, 4128.205, 450, 0, []
1630237620.4604, 14, 0, 4159.487, 4215.385, 4090.769, 4168.718, 4136.923, 450, 0, []
1630237620.4682, 15, 0, 4149.231, 4212.308, 4089.744, 4167.692, 4115.385, 16198, 0, []
1630237620.4761, 16, 0, 4152.308, 4204.103, 4083.077, 4182.051, 4119.487, 0, 0, []
1630237620.4839, 17, 0, 4178.974, 4237.436, 4097.436, 4198.462, 4151.282, 0, 0, []
1630237620.4919, 18, 0, 4185.641, 4248.205, 4118.462, 4192.308, 4150.769, 0, 0, []
1630237620.4998, 19, 0, 4176.923, 4221.538, 4090.769, 4182.051, 4131.282, 0, 0, []
1630237620.5076, 20, 0, 4168.205, 4219.487, 4080.513, 4188.205, 4127.692, 0, 0, []
1630237620.5156, 21, 0, 4164.615, 4229.744, 4084.615, 4181.538, 4128.718, 0, 0, []
1630237620.5235, 22, 0, 4163.077, 4203.59, 4075.897, 4164.103, 4112.821, 0, 0, []
1630237620.5313, 23, 0, 4138.462, 4176.41, 4079.487, 4162.564, 4088.205, 0, 0, []
1630237620.5392, 24, 0, 4128.718, 4212.308, 4073.333, 4165.641, 4089.744, 0, 0, []
1630237620.547, 25, 0, 4167.692, 4257.949, 4101.026, 4183.077, 4123.59, 0, 0, []
1630237620.5548, 26, 0, 4191.795, 4237.436, 4122.564, 4196.41, 4150.256, 0, 0, []
1630237620.5626, 27, 0, 4172.308, 4210.769, 4095.385, 4185.641, 4135.897, 0, 0, []
1630237620.5705, 28, 0, 4154.872, 4232.821, 4091.795, 4181.026, 4111.795, 0, 0, []
1630237620.5783, 29, 0, 4138.974, 4230.769, 4075.897, 4162.051, 4097.949, 0, 0, []
1630237620.5862, 30, 0, 4147.179, 4208.205, 4080, 4162.564, 4108.718, 0, 0, []
1630237620.5939, 31, 0, 4176.923, 4224.103, 4107.179, 4194.872, 4137.949, 0, 0, []
1630237620.6018, 32, 0, 4166.667, 4238.974, 4080, 4189.231, 4131.282, 0, 0, []
1630237620.6096, 33, 0, 4140, 4234.872, 4056.41, 4167.179, 4101.538, 0, 0, []
1630237620.6176, 34, 0, 4145.641, 4225.128, 4061.538, 4166.154, 4109.231, 0, 0, []
1630237620.6255, 35, 0, 4152.821, 4205.641, 4088.718, 4181.538, 4122.564, 0, 0, []
1630237620.6334, 36, 0, 4152.821, 4221.538, 4103.077, 4188.718, 4124.103, 0, 0, []
1630237620.6413, 37, 0, 4165.128, 4252.821, 4085.128, 4173.846, 4141.538, 0, 0, []
1630237620.6493, 38, 0, 4169.231, 4221.026, 4092.308, 4171.282, 4141.026, 0, 0, []
1630237620.6572, 39, 0, 4165.128, 4199.487, 4092.308, 4187.692, 4126.154, 0, 0, []
1630237620.6652, 40, 0, 4174.872, 4253.846, 4083.59, 4201.538, 4137.436, 0, 0, []
1630237620.673, 41, 0, 4180.513, 4262.051, 4075.897, 4183.59, 4139.487, 0, 0, []
1630237620.681, 42, 0, 4177.949, 4215.897, 4071.795, 4167.692, 4137.949, 0, 0, []
1630237620.6889, 43, 0, 4197.436, 4229.231, 4117.436, 4210.769, 4167.692, 0, 0, []
1630237620.6967, 44, 0, 4210.769, 4254.872, 4127.692, 4221.538, 4179.487, 0, 0, []
1630237620.7046, 45, 0, 4182.051, 4230.256, 4101.538, 4178.974, 4154.872, 0, 0, []
1630237620.7123, 46, 0, 4178.974, 4240.513, 4116.41, 4193.333, 4150.769, 0, 0, []
1630237620.7202, 47, 0, 4216.41, 4279.487, 4126.154, 4223.59, 4178.462, 0, 0, []
1630237620.728, 48, 0, 4222.051, 4254.359, 4133.333, 4215.385, 4191.282, 0, 0, []
1630237620.7359, 49, 0, 4205.128, 4226.154, 4112.821, 4202.564, 4167.692, 0, 0, []
1630237620.7437, 50, 0, 4179.487, 4250.769, 4063.077, 4178.974, 4130.769, 0, 0, []
1630237620.7515, 51, 0, 4146.667, 4244.615, 4046.667, 4148.718, 4114.872, 0, 0, []
1630237620.7593, 52, 0, 4161.026, 4213.846, 4068.205, 4160, 4131.282, 0, 0, []
1630237620.7673, 53, 0, 4193.333, 4235.385, 4114.359, 4204.615, 4156.923, 0, 0, []
1630237620.7752, 54, 0, 4188.205, 4258.462, 4104.615, 4207.179, 4161.538, 0, 0, []
1630237620.7832, 55, 0, 4184.615, 4237.949, 4074.359, 4183.077, 4152.308, 0, 0, []
1630237620.791, 56, 0, 4201.026, 4237.949, 4107.692, 4195.385, 4162.564, 0, 0, []
1630237620.799, 57, 0, 4209.744, 4258.974, 4113.846, 4205.641, 4181.538, 0, 0, []
1630237620.8069, 58, 0, 4211.795, 4248.718, 4107.179, 4195.897, 4175.385, 0, 0, []
1630237620.8149, 59, 0, 4198.974, 4236.923, 4102.564, 4183.59, 4157.436, 0, 0, []
1630237620.8228, 60, 0, 4184.103, 4254.359, 4078.462, 4174.872, 4155.385, 0, 0, []
1630237620.8307, 61, 0, 4198.462, 4258.974, 4098.974, 4190.256, 4163.59, 0, 0, []
1630237620.8386, 62, 0, 4198.974, 4236.41, 4111.795, 4193.333, 4164.103, 0, 0, []
1630237620.8464, 63, 0, 4170.769, 4224.103, 4099.487, 4183.59, 4149.231, 0, 0, []
1630237620.8543, 64, 0, 4178.974, 4242.564, 4105.128, 4189.231, 4146.667, 450, 0, []
1630237620.8621, 65, 0, 4204.103, 4268.205, 4115.897, 4191.795, 4169.744, 450, 0, []
1630237620.8699, 66, 0, 4195.897, 4269.231, 4128.205, 4199.487, 4176.41, 16193, 0, []
1630237620.8777, 67, 0, 4206.154, 4255.897, 4113.846, 4205.128, 4171.795, 450, 0, []
1630237620.8856, 68, 0, 4244.103, 4246.154, 4112.821, 4200, 4198.462, 16106, 0, []
1630237620.8934, 69, 0, 4263.077, 4241.026, 4115.385, 4189.231, 4230.769, 450, 0, []
1630237620.9013, 70, 0, 4262.051, 4235.385, 4089.231, 4175.385, 4221.538, 315, 0, []
1630237620.9091, 71, 0, 4246.154, 4235.897, 4100, 4178.974, 4208.205, 450, 0, []
1630237620.9169, 72, 0, 4214.872, 4233.846, 4098.974, 4168.205, 4200.513, 450, 0, []
1630237620.9247, 73, 0, 4193.333, 4212.821, 4079.487, 4145.641, 4161.538, 16059, 0, []
1630237620.9327, 74, 0, 4190.769, 4208.718, 4090.769, 4153.846, 4140, 450, 0, []
1630237620.9406, 75, 0, 4179.487, 4216.923, 4076.41, 4149.231, 4142.051, 16201, 0, []
1630237620.9486, 76, 0, 4186.667, 4208.205, 4075.897, 4136.923, 4139.487, 450, 0, []
1630237620.9564, 77, 0, 4218.462, 4204.103, 4106.154, 4154.359, 4166.154, 450, 0, []
1630237620.9644, 78, 0, 4224.103, 4208.718, 4118.462, 4172.308, 4192.308, 450, 0, []
1630237620.9723, 79, 0, 4210.769, 4201.026, 4101.026, 4161.026, 4170.769, 16201, 0, []
1630237620.9803, 80, 0, 4194.359, 4192.821, 4077.436, 4142.051, 4146.154, 450, 0, []
1630237620.9882, 81, 0, 4186.154, 4203.077, 4102.051, 4162.564, 4151.795, 450, 0, []
1630237620.9961, 82, 0, 4206.154, 4211.795, 4108.205, 4179.487, 4167.179, 450, 0, []
1630237621.004, 83, 0, 4206.667, 4198.462, 4077.949, 4157.949, 4160, 16201, 0, []
1630237621.0118, 84, 0, 4164.103, 4178.462, 4066.667, 4140, 4116.923, 450, 0, []
1630237621.0197, 85, 0, 4164.103, 4181.026, 4065.128, 4136.923, 4112.308, 450, 0, []
1630237621.0275, 86, 0, 4215.897, 4200, 4102.564, 4163.59, 4169.744, 450, 0, []
1630237621.0353, 87, 0, 4218.462, 4198.974, 4102.051, 4171.795, 4167.179, 16201, 0, []
1630237621.0431, 88, 0, 4184.103, 4189.231, 4068.205, 4150.256, 4122.051, 450, 0, []
1630237621.051, 89, 0, 4199.487, 4193.333, 4090.769, 4167.179, 4153.333, 450, 0, []
1630237621.0588, 90, 0, 4225.128, 4205.641, 4092.821, 4184.103, 4189.744, 450, 0, []
1630237621.0667, 91, 0, 4196.41, 4202.051, 4076.41, 4165.641, 4157.949, 16201, 0, []
1630237621.0744, 92, 0, 4176.923, 4185.128, 4072.308, 4151.795, 4138.974, 450, 0, []
1630237621.0823, 93, 0, 4197.949, 4186.154, 4074.359, 4156.923, 4156.923, 450, 0, []
1630237621.0901, 94, 0, 4193.846, 4188.205, 4091.795, 4164.103, 4151.795, 450, 0, []
1630237621.0981, 95, 0, 4171.282, 4162.051, 4061.026, 4152.821, 4125.641, 16201, 0, []
1630237621.106, 96, 0, 4173.333, 4140, 4042.051, 4146.667, 4123.077, 450, 0, []
1630237621.1139, 97, 0, 4176.41, 4169.231, 4065.641, 4154.359, 4141.538, 450, 0, []
1630237621.1218, 98, 0, 4171.795, 4178.974, 4069.744, 4148.205, 4139.487, 450, 0, []
1630237621.1298, 99, 0, 4181.538, 4135.897, 4079.487, 4146.154, 4127.692, 16201, 0, []
1630237621.1377, 100, 0, 4194.872, 4146.667, 4068.205, 4153.846, 4137.436, 450, 0, []
1630237621.1457, 101, 0, 4201.026, 4197.436, 4064.103, 4158.462, 4157.436, 450, 0, []
1630237621.1535, 102, 0, 4203.077, 4179.487, 4083.077, 4161.026, 4169.231, 450, 0, []
1630237621.1614, 103, 0, 4202.051, 4147.692, 4074.872, 4164.103, 4164.615, 16201, 0, []
1630237621.1693, 104, 0, 4197.949, 4176.41, 4077.436, 4168.718, 4154.359, 450, 0, []
1630237621.1771, 105, 0, 4183.59, 4189.231, 4061.026, 4147.179, 4144.103, 450, 0, []
1630237621.185, 106, 0, 4169.231, 4151.282, 4050.256, 4135.385, 4130.769, 450, 0, []
1630237621.1927, 107, 0, 4160, 4128.205, 4067.179, 4158.462, 4121.538, 16201, 0, []
1630237621.2006, 108, 0, 4162.564, 4158.974, 4059.487, 4167.692, 4128.205, 450, 0, []
1630237621.2084, 109, 0, 4176.41, 4188.205, 4068.718, 4166.154, 4145.128, 450, 0, []
1630237621.2163, 110, 0, 4190.769, 4161.026, 4077.436, 4169.231, 4153.846, 450, 0, []
1630237621.2241, 111, 0, 4201.026, 4145.128, 4077.436, 4184.615, 4151.795, 16201, 0, []
1630237621.2319, 112, 0, 4187.179, 4171.795, 4069.744, 4178.974, 4137.949, 450, 0, []
1630237621.2397, 113, 0, 4166.154, 4170.769, 4041.026, 4140, 4129.231, 450, 0, []
1630237621.2477, 114, 0, 4178.462, 4151.282, 4068.718, 4148.718, 4138.462, 450, 0, []
1630237621.2556, 115, 0, 4186.154, 4162.564, 4087.692, 4176.41, 4142.564, 16201, 0, []
1630237621.2636, 116, 0, 4172.308, 4176.923, 4062.051, 4162.564, 4143.59, 450, 0, []
1630237621.2715, 117, 0, 4191.795, 4180.513, 4072.308, 4160, 4159.487, 450, 0, []
1630237621.2794, 118, 0, 4211.795, 4173.846, 4082.051, 4167.692, 4168.205, 450, 0, []
1630237621.2873, 119, 0, 4188.205, 4172.308, 4076.923, 4167.179, 4148.205, 16201, 0, []
1630237621.2953, 120, 0, 4193.846, 4195.385, 4073.333, 4172.821, 4154.872, 450, 0, []
1630237621.3032, 121, 0, 4223.59, 4190.769, 4074.359, 4172.821, 4182.564, 450, 0, []
1630237621.3112, 122, 0, 4210.256, 4166.667, 4078.974, 4169.231, 4163.077, 450, 0, []
1630237621.319, 123, 0, 4181.538, 4180.513, 4054.872, 4161.538, 4141.026, 16201, 0, []
1630237621.3268, 124, 0, 4184.103, 4185.128, 4058.462, 4155.897, 4152.821, 450, 0, []
1630237621.3347, 125, 0, 4212.308, 4164.103, 4082.051, 4164.615, 4164.615, 450, 0, []
1630237621.3425, 126, 0, 4221.538, 4171.795, 4081.538, 4180, 4173.333, 450, 0, []
1630237621.3504, 127, 0, 4205.641, 4193.846, 4082.051, 4186.667, 4179.487, 16201, 0, []
1630237621.3581, 128, 0, 4202.051, 4181.538, 4062.051, 4168.718, 4169.231, 450, 0, []
1630237621.366, 0, 0, 4196.41, 4167.692, 4058.462, 4165.641, 4157.436, 450, 0, []
1630237621.3738, 1, 0, 4186.667, 4192.821, 4069.744, 4186.154, 4158.974, 450, 0, []
1630237621.3817, 2, 0, 4194.359, 4213.846, 4066.154, 4179.487, 4157.949, 16190, 0, []
1630237621.3895, 3, 0, 4200.513, 4192.821, 4092.308, 4184.615, 4164.615, 450, 0, []
1630237621.3974, 4, 0, 4200.513, 4191.795, 4090.256, 4208.205, 4176.41, 16102, 0, []
1630237621.4053, 5, 0, 4213.333, 4221.538, 4086.667, 4211.282, 4182.051, 450, 0, []
1630237621.4133, 6, 0, 4222.564, 4210.256, 4105.641, 4204.615, 4193.846, 16070, 0, []
1630237621.4212, 7, 0, 4208.718, 4187.692, 4077.436, 4194.872, 4183.59, 450, 0, []
1630237621.4292, 8, 0, 4200, 4207.692, 4068.718, 4183.59, 4165.641, 450, 0, []
1630237621.437, 9, 0, 4212.821, 4226.154, 4081.538, 4173.333, 4176.923, 16057, 0, []
1630237621.445, 10, 0, 4216.41, 4213.333, 4076.923, 4178.462, 4174.872, 450, 0, []
1630237621.4529, 11, 0, 4203.077, 4203.59, 4072.308, 4182.051, 4157.949, 16194, 0, []
1630237621.4608, 12, 0, 4205.641, 4189.231, 4070.256, 4173.333, 4170.769, 450, 0, []
1630237621.4687, 13, 0, 4224.615, 4178.974, 4087.692, 4194.872, 4181.538, 450, 0, []
1630237621.4764, 14, 0, 4221.026, 4202.051, 4076.923, 4199.487, 4168.205, 450, 0, []
1630237621.4844, 15, 0, 4188.205, 4204.615, 4058.974, 4161.026, 4150.769, 16194, 0, []
1630237621.4923, 16, 0, 4177.949, 4185.128, 4071.795, 4156.41, 4134.359, 0, 0, []
1630237621.5002, 17, 0, 4208.718, 4205.128, 4075.385, 4182.564, 4155.385, 0, 0, []
1630237621.508, 18, 0, 4236.41, 4229.744, 4107.692, 4206.667, 4207.692, 0, 0, []
1630237621.5158, 19, 0, 4216.923, 4197.949, 4103.59, 4195.385, 4188.718, 0, 0, []
1630237621.5236, 20, 0, 4182.051, 4165.128, 4065.641, 4165.128, 4137.949, 0, 0, []
1630237621.5315, 21, 0, 4207.179, 4189.744, 4101.026, 4190.769, 4184.103, 0, 0, []
1630237621.5393, 22, 0, 4248.205, 4215.897, 4120, 4218.462, 4228.205, 0, 0, []
1630237621.5473, 23, 0, 4226.667, 4205.128, 4095.897, 4198.462, 4191.795, 0, 0, []
1630237621.5551, 24, 0, 4207.692, 4194.359, 4077.949, 4182.051, 4177.436, 0, 0, []
1630237621.5631, 25, 0, 4229.744, 4198.974, 4080, 4192.308, 4188.718, 0, 0, []
1630237621.571, 26, 0, 4217.949, 4201.026, 4089.231, 4192.821, 4170.769, 0, 0, []
1630237621.579, 27, 0, 4195.385, 4195.897, 4077.949, 4174.359, 4167.179, 0, 0, []
1630237621.5869, 28, 0, 4218.974, 4195.897, 4105.641, 4189.231, 4187.692, 0, 0, []
1630237621.5949, 29, 0, 4217.436, 4203.59, 4112.821, 4196.41, 4176.923, 0, 0, []
1630237621.6027, 30, 0, 4194.359, 4201.538, 4074.359, 4174.872, 4162.564, 0, 0, []
1630237621.6107, 31, 0, 4214.359, 4188.205, 4090.256, 4186.667, 4172.308, 0, 0, []
1630237621.6186, 32, 0, 4229.744, 4202.051, 4108.718, 4207.179, 4185.641, 0, 0, []
1630237621.6266, 33, 0, 4221.026, 4223.59, 4108.718, 4205.641, 4193.846, 0, 0, []
1630237621.6345, 34, 0, 4224.615, 4209.231, 4105.128, 4191.282, 4182.051, 0, 0, []
1630237621.6422, 35, 0, 4214.872, 4200, 4094.359, 4177.436, 4167.179, 0, 0, []
1630237621.6501, 36, 0, 4209.744, 4209.231, 4109.744, 4193.333, 4183.077, 0, 0, []
1630237621.6579, 37, 0, 4232.308, 4203.077, 4102.564, 4203.59, 4193.333, 0, 0, []
1630237621.6658, 38, 0, 4217.436, 4204.615, 4092.821, 4190.256, 4170.769, 0, 0, []
1630237621.6736, 39, 0, 4190.769, 4229.231, 4096.41, 4188.718, 4164.103, 0, 0, []
1630237621.6814, 40, 0, 4225.128, 4237.436, 4091.795, 4200, 4190.769, 0, 0, []
1630237621.6892, 41, 0, 4253.333, 4224.103, 4113.333, 4209.744, 4208.718, 0, 0, []
1630237621.6972, 42, 0, 4230.256, 4217.436, 4100, 4189.744, 4197.949, 0, 0, []
1630237621.7051, 43, 0, 4226.667, 4217.949, 4087.692, 4178.462, 4184.615, 0, 0, []
1630237621.7131, 44, 0, 4235.897, 4216.41, 4111.282, 4197.949, 4188.718, 0, 0, []
1630237621.7209, 45, 0, 4209.744, 4213.333, 4087.179, 4186.667, 4178.462, 0, 0, []
1630237621.7289, 46, 0, 4209.744, 4222.051, 4078.462, 4180, 4166.154, 0, 0, []
1630237621.7368, 47, 0, 4245.128, 4223.077, 4094.872, 4195.385, 4191.282, 0, 0, []
1630237621.7448, 48, 0, 4243.59, 4209.744, 4095.385, 4191.282, 4210.256, 0, 0, []
1630237621.7527, 49, 0, 4227.692, 4217.436, 4100, 4188.718, 4187.692, 0, 0, []
1630237621.7606, 50, 0, 4239.487, 4236.41, 4106.667, 4195.385, 4182.051, 0, 0, []
1630237621.7685, 51, 0, 4234.359, 4224.103, 4110.256, 4188.205, 4188.718, 0, 0, []
1630237621.7765, 52, 0, 4209.744, 4213.846, 4068.718, 4165.128, 4164.615, 0, 0, []
1630237621.7844, 53, 0, 4221.538, 4225.641, 4054.872, 4169.744, 4173.846, 0, 0, []
1630237621.7922, 54, 0, 4241.538, 4218.974, 4096.41, 4197.949, 4209.231, 0, 0, []
1630237621.8, 55, 0, 4233.846, 4218.462, 4087.692, 4196.923, 4192.308, 0, 0, []
1630237621.8078, 56, 0, 4229.744, 4232.308, 4085.641, 4187.179, 4168.205, 0, 0, []
1630237621.8157, 57, 0, 4233.333, 4218.974, 4101.026, 4191.282, 4184.103, 0, 0, []
1630237621.8235, 58, 0, 4231.282, 4222.051, 4089.231, 4198.974, 4192.821, 0, 0, []
1630237621.8314, 59, 0, 4230.769, 4249.231, 4093.333, 4195.385, 4182.051, 0, 0, []
1630237621.8391, 60, 0, 4232.821, 4237.436, 4095.897, 4183.59, 4186.667, 0, 0, []
1630237621.847, 61, 0, 4228.205, 4231.282, 4095.385, 4191.282, 4186.667, 0, 0, []
1630237621.8548, 62, 0, 4220, 4245.641, 4093.333, 4193.846, 4173.333, 0, 0, []
1630237621.8628, 63, 0, 4230.256, 4238.974, 4107.692, 4193.333, 4194.359, 0, 0, []
1630237621.8707, 64, 0, 4262.564, 4246.154, 4154.872, 4232.821, 4238.974, 450, 0, []
1630237621.8786, 65, 0, 4267.179, 4259.487, 4125.641, 4233.333, 4226.667, 450, 0, []
1630237621.8865, 66, 0, 4227.179, 4236.41, 4082.564, 4185.128, 4181.538, 16186, 0, []
1630237621.8945, 67, 0, 4225.128, 4218.974, 4111.282, 4194.359, 4202.564, 450, 0, []
1630237621.9024, 68, 0, 4266.154, 4246.667, 4129.231, 4231.282, 4238.974, 16100, 0, []
1630237621.9104, 69, 0, 4261.026, 4261.026, 4124.615, 4222.564, 4211.795, 450, 0, []
1630237621.9182, 70, 0, 4199.487, 4222.051, 4093.333, 4180.513, 4171.795, 16064, 0, []
1630237621.9262, 71, 0, 4165.641, 4198.974, 4075.385, 4168.718, 4158.462, 450, 0, []
1630237621.9341, 72, 0, 4200.513, 4225.128, 4096.41, 4190.769, 4166.667, 450, 0, []
1630237621.9419, 73, 0, 4227.179, 4236.923, 4110.256, 4196.923, 4188.718, 320, 0, []
1630237621.9498, 74, 0, 4201.538, 4221.026, 4117.949, 4198.462, 4186.154, 450, 0, []
1630237621.9576, 75, 0, 4192.821, 4216.923, 4100.513, 4196.41, 4165.641, 16192, 0, []
1630237621.9654, 76, 0, 4217.436, 4220, 4107.692, 4197.436, 4177.436, 450, 0, []
1630237621.9732, 77, 0, 4214.359, 4218.974, 4115.385, 4193.333, 4180, 450, 0, []
1630237621.9811, 78, 0, 4190.256, 4201.538, 4074.872, 4156.41, 4144.103, 450, 0, []
1630237621.9889, 79, 0, 4194.872, 4186.667, 4091.795, 4160.513, 4145.641, 16192, 0, []
1630237621.9968, 80, 0, 4213.333, 4208.718, 4111.282, 4194.872, 4176.41, 450, 0, []
1630237622.0045, 81, 0, 4195.385, 4214.872, 4086.667, 4172.821, 4150.769, 450, 0, []
1630237622.0125, 82, 0, 4160, 4176.923, 4086.667, 4140.513, 4111.282, 450, 0, []
1630237622.0204, 83, 0, 4154.872, 4151.795, 4081.026, 4151.795, 4113.333, 16192, 0, []
1630237622.0284, 84, 0, 4160, 4164.615, 4083.077, 4178.462, 4116.923, 450, 0, []
1630237622.0363, 85, 0, 4156.41, 4200.513, 4085.641, 4183.077, 4116.41, 450, 0, []
1630237622.0442, 86, 0, 4149.744, 4210.256, 4077.436, 4168.205, 4121.026, 450, 0, []
1630237622.0521, 87, 0, 4149.744, 4189.231, 4086.667, 4161.538, 4114.872, 16192, 0, []
1630237622.0601, 88, 0, 4163.077, 4201.538, 4091.795, 4171.795, 4112.308, 450, 0, []
1630237622.068, 89, 0, 4160.513, 4215.385, 4089.231, 4183.59, 4109.231, 450, 0, []
1630237622.076, 90, 0, 4131.795, 4184.103, 4053.846, 4160, 4082.564, 450, 0, []
1630237622.0838, 91, 0, 4133.333, 4183.077, 4046.154, 4147.179, 4085.641, 16192, 0, []
1630237622.0916, 92, 0, 4160.513, 4204.615, 4090.256, 4171.795, 4110.256, 450, 0, []
1630237622.0995, 93, 0, 4158.462, 4182.051, 4086.154, 4164.103, 4096.923, 450, 0, []
1630237622.1073, 94, 0, 4138.974, 4165.128, 4076.923, 4146.154, 4077.436, 450, 0, []
1630237622.1152, 95, 0, 4121.538, 4182.051, 4067.692, 4141.538, 4069.744, 16192, 0, []
1630237622.1229, 96, 0, 4114.872, 4192.821, 4043.077, 4132.308, 4067.179, 450, 0, []
1630237622.1308, 97, 0, 4136.41, 4186.154, 4067.692, 4151.795, 4078.462, 450, 0, []
1630237622.1386, 98, 0, 4160.513, 4174.359, 4080, 4171.282, 4096.923, 450, 0, []
1630237622.1465, 99, 0, 4148.718, 4164.615, 4064.615, 4166.667, 4094.872, 16192, 0, []
1630237622.1543, 100, 0, 4132.821, 4176.923, 4049.231, 4159.487, 4084.615, 450, 0, []
1630237622.1622, 101, 0, 4143.59, 4195.385, 4041.538, 4154.872, 4097.949, 450, 0, []
1630237622.1701, 102, 0, 4175.385, 4203.077, 4085.641, 4174.359, 4127.179, 450, 0, []
1630237622.1781, 103, 0, 4181.026, 4201.538, 4093.333, 4178.462, 4129.744, 16192, 0, []
1630237622.186, 104, 0, 4145.641, 4191.282, 4063.077, 4164.103, 4100.513, 450, 0, []
1630237622.194, 105, 0, 4146.154, 4191.282, 4074.359, 4176.41, 4101.026, 450, 0, []
1630237622.2018, 106, 0, 4177.949, 4200, 4086.667, 4180.513, 4132.821, 450, 0, []
1630237622.2098, 107, 0, 4183.59, 4207.179, 4103.59, 4176.41, 4143.077, 16192, 0, []
1630237622.2177, 108, 0, 4167.692, 4201.538, 4095.385, 4173.846, 4124.615, 450, 0, []
1630237622.2257, 109, 0, 4150.769, 4184.615, 4074.872, 4161.538, 4102.051, 450, 0, []
1630237622.2336, 110, 0, 4146.154, 4192.308, 4080, 4158.974, 4106.154, 450, 0, []
1630237622.2413, 111, 0, 4161.538, 4218.462, 4082.051, 4166.154, 4132.821, 16192, 0, []
1630237622.2492, 112, 0, 4177.436, 4221.026, 4097.436, 4176.41, 4140, 450, 0, []
1630237622.257, 113, 0, 4165.641, 4214.359, 4088.205, 4172.308, 4119.487, 450, 0, []
1630237622.2649, 114, 0, 4146.154, 4219.487, 4074.872, 4170.769, 4106.154, 450, 0, []
1630237622.2727, 115, 0, 4154.359, 4213.846, 4092.308, 4182.564, 4116.923, 16192, 0, []
1630237622.2805, 116, 0, 4176.923, 4215.897, 4093.846, 4180.513, 4136.923, 450, 0, []
1630237622.2883, 117, 0, 4175.385, 4211.795, 4094.359, 4178.462, 4136.923, 450, 0, []
1630237622.2962, 118, 0, 4166.667, 4192.821, 4081.026, 4187.179, 4126.154, 450, 0, []
1630237622.304, 119, 0, 4170.256, 4213.846, 4069.744, 4184.103, 4129.231, 16192, 0, []
1630237622.3119, 120, 0, 4157.949, 4226.667, 4080, 4161.538, 4121.538, 450, 0, []
1630237622.3197, 121, 0, 4157.949, 4198.462, 4072.308, 4158.462, 4115.897, 450, 0, []
1630237622.3276, 122, 0, 4188.718, 4200.513, 4093.333, 4197.436, 4144.103, 450, 0, []
1630237622.3355, 123, 0, 4196.41, 4231.282, 4105.128, 4206.667, 4164.615, 16192, 0, []
1630237622.3435, 124, 0, 4183.59, 4223.59, 4081.026, 4171.282, 4146.154, 450, 0, []
1630237622.3514, 125, 0, 4173.846, 4194.872, 4072.821, 4157.949, 4133.846, 450, 0, []
1630237622.3594, 126, 0, 4175.385, 4191.282, 4042.051, 4151.282, 4148.718, 450, 0, []
1630237622.3672, 127, 0, 4205.641, 4200, 4047.179, 4150.256, 4173.846, 16192, 0, []
1630237622.3752, 128, 0, 4230.256, 4218.462, 4092.821, 4174.359, 4205.641, 450, 0, []
1630237622.3831, 0, 0, 4217.436, 4236.923, 4092.821, 4190.769, 4209.231, 450, 0, []
1630237622.3911, 1, 0, 4211.282, 4222.564, 4093.333, 4192.821, 4186.667, 450, 0, []
1630237622.399, 2, 0, 4217.436, 4208.718, 4101.026, 4190.256, 4197.436, 16193, 0, []
1630237622.4067, 3, 0, 4214.872, 4235.897, 4108.205, 4201.026, 4217.436, 450, 0, []
1630237622.4146, 4, 0, 4223.077, 4252.308, 4104.615, 4209.231, 4206.154, 16103, 0, []
1630237622.4224, 5, 0, 4212.821, 4222.564, 4085.641, 4188.718, 4185.128, 450, 0, []
1630237622.4303, 6, 0, 4179.487, 4202.564, 4089.231, 4173.333, 4169.744, 16079, 0, []
1630237622.4381, 7, 0, 4188.205, 4216.41, 4085.128, 4173.846, 4170.256, 450, 0, []
1630237622.4459, 8, 0, 4208.205, 4223.077, 4091.282, 4190.256, 4183.077, 450, 0, []
1630237622.4538, 9, 0, 4186.154, 4207.692, 4086.667, 4190.769, 4170.769, 325, 0, []
1630237622.4617, 10, 0, 4179.487, 4201.538, 4068.718, 4163.59, 4154.872, 450, 0, []
1630237622.4696, 11, 0, 4205.641, 4222.051, 4104.615, 4182.051, 4175.385, 16196, 0, []
1630237622.4776, 12, 0, 4205.128, 4237.436, 4097.436, 4209.744, 4178.974, 450, 0, []
1630237622.4855, 13, 0, 4201.538, 4215.897, 4078.462, 4196.41, 4172.308, 450, 0, []
1630237622.4934, 14, 0, 4218.462, 4193.846, 4118.462, 4191.795, 4192.308, 450, 0, []
1630237622.5013, 15, 0, 4217.949, 4206.154, 4106.154, 4198.974, 4190.769, 16196, 0, []
1630237622.5093, 16, 0, 4200.513, 4228.718, 4075.385, 4192.308, 4168.718, 0, 0, []
1630237622.5172, 17, 0, 4187.692, 4236.923, 4065.128, 4163.59, 4155.897, 0, 0, []
1630237622.5251, 18, 0, 4183.077, 4227.179, 4068.718, 4155.385, 4140, 0, 0, []
1630237622.533, 19, 0, 4194.872, 4226.667, 4096.41, 4190.256, 4153.333, 0, 0, []
1630237622.541, 20, 0, 4214.872, 4249.231, 4095.385, 4204.615, 4189.744, 0, 0, []
1630237622.5489, 21, 0, 4205.641, 4255.897, 4085.641, 4185.128, 4173.846, 0, 0, []
1630237622.5567, 22, 0, 4166.154, 4232.308, 4062.564, 4158.462, 4124.615, 0, 0, []
1630237622.5645, 23, 0, 4156.41, 4217.436, 4048.718, 4154.359, 4117.949, 0, 0, []
1630237622.5723, 24, 0, 4204.103, 4236.923, 4094.359, 4186.667, 4165.128, 0, 0, []
1630237622.5802, 25, 0, 4236.41, 4253.333, 4118.462, 4200.513, 4197.436, 0, 0, []
1630237622.588, 26, 0, 4217.949, 4246.154, 4110.256, 4196.41, 4170.769, 0, 0, []
1630237622.5959, 27, 0, 4193.333, 4236.41, 4077.949, 4182.051, 4143.59, 0, 0, []
1630237622.6036, 28, 0, 4182.564, 4224.615, 4055.385, 4160, 4144.615, 0, 0, []
1630237622.6115, 29, 0, 4203.59, 4235.897, 4095.385, 4186.667, 4157.949, 0, 0, []
1630237622.6193, 30, 0, 4243.077, 4272.308, 4123.59, 4226.667, 4191.282, 0, 0, []
1630237622.6273, 31, 0, 4243.077, 4259.487, 4116.923, 4212.308, 4202.564, 0, 0, []
1630237622.6352, 32, 0, 4208.718, 4208.205, 4086.667, 4169.231, 4154.359, 0, 0, []
1630237622.6432, 33, 0, 4200, 4220.513, 4077.436, 4163.59, 4142.051, 0, 0, []
1630237622.651, 34, 0, 4224.103, 4274.872, 4115.385, 4197.949, 4191.795, 0, 0, []
1630237622.659, 35, 0, 4242.564, 4276.923, 4105.641, 4206.154, 4198.974, 0, 0, []
1630237622.6669, 36, 0, 4223.59, 4235.385, 4087.692, 4188.205, 4167.179, 0, 0, []
1630237622.6749, 37, 0, 4196.923, 4222.051, 4098.462, 4182.564, 4163.077, 0, 0, []
1630237622.6828, 38, 0, 4211.282, 4252.308, 4101.026, 4193.333, 4176.41, 0, 0, []
1630237622.6907, 39, 0, 4227.692, 4264.103, 4111.795, 4203.59, 4184.615, 0, 0, []
1630237622.6986, 40, 0, 4221.026, 4236.923, 4098.462, 4190.769, 4188.205, 0, 0, []
1630237622.7066, 41, 0, 4206.667, 4216.923, 4094.359, 4184.615, 4167.692, 0, 0, []
1630237622.7145, 42, 0, 4186.154, 4230.256, 4110.256, 4196.41, 4149.231, 0, 0, []
1630237622.7223, 43, 0, 4183.077, 4235.897, 4094.872, 4184.103, 4161.538, 0, 0, []
1630237622.7301, 44, 0, 4204.615, 4225.641, 4101.538, 4176.923, 4168.205, 0, 0, []
1630237622.7379, 45, 0, 4220, 4249.231, 4112.308, 4188.718, 4176.923, 0, 0, []
1630237622.7458, 46, 0, 4215.897, 4269.744, 4105.128, 4188.718, 4192.308, 0, 0, []
1630237622.7536, 47, 0, 4206.667, 4247.179, 4103.077, 4178.462, 4173.846, 0, 0, []
1630237622.7615, 48, 0, 4195.385, 4235.897, 4098.462, 4171.795, 4158.974, 0, 0, []
1630237622.7692, 49, 0, 4209.744, 4245.128, 4118.974, 4200, 4188.205, 0, 0, []
1630237622.7771, 50, 0, 4232.308, 4242.051, 4110.256, 4216.41, 4189.231, 0, 0, []
1630237622.7849, 51, 0, 4220.513, 4249.744, 4089.744, 4196.41, 4163.59, 0, 0, []
1630237622.7929, 52, 0, 4215.385, 4266.154, 4111.282, 4204.103, 4189.231, 0, 0, []
1630237622.8008, 53, 0, 4237.436, 4263.077, 4118.974, 4216.41, 4208.205, 0, 0, []
1630237622.8087, 54, 0, 4236.41, 4257.436, 4123.077, 4202.564, 4185.128, 0, 0, []
1630237622.8166, 55, 0, 4225.128, 4267.692, 4116.923, 4195.385, 4189.744, 0, 0, []
1630237622.8246, 56, 0, 4234.359, 4267.179, 4112.821, 4214.872, 4204.615, 0, 0, []
1630237622.8325, 57, 0, 4225.128, 4245.641, 4117.949, 4217.436, 4186.154, 0, 0, []
1630237622.8405, 58, 0, 4212.308, 4244.615, 4094.359, 4195.385, 4181.538, 0, 0, []
1630237622.8483, 59, 0, 4232.308, 4265.128, 4108.205, 4209.231, 4197.436, 0, 0, []
1630237622.8563, 60, 0, 4232.308, 4261.538, 4122.564, 4212.308, 4192.308, 0, 0, []
1630237622.8642, 61, 0, 4202.051, 4246.154, 4095.385, 4172.308, 4173.333, 0, 0, []
1630237622.872, 62, 0, 4186.667, 4247.179, 4098.462, 4163.077, 4153.333, 0, 0, []
1630237622.8799, 63, 0, 4202.051, 4250.769, 4110.769, 4181.026, 4164.615, 0, 0, []
1630237622.8876, 64, 0, 4232.821, 4259.487, 4124.103, 4198.462, 4207.692, 450, 0, []
1630237622.8955, 65, 0, 4233.846, 4254.359, 4101.538, 4200.513, 4195.897, 450, 0, []
1630237622.9033, 66, 0, 4201.538, 4242.564, 4066.154, 4183.077, 4157.436, 16189, 0, []
1630237622.9112, 67, 0, 4201.026, 4257.949, 4102.564, 4191.282, 4178.462, 450, 0, []
1630237622.919, 68, 0, 4230.256, 4264.615, 4112.308, 4194.359, 4190.256, 16148, 0, []
1630237622.9268, 69, 0, 4219.487, 4247.179, 4088.718, 4170.769, 4163.077, 450, 0, []
1630237622.9346, 70, 0, 4200.513, 4242.564, 4094.872, 4163.077, 4169.744, 16073, 0, []
1630237622.9426, 71, 0, 4202.564, 4235.897, 4091.282, 4160.513, 4173.846, 450, 0, []
1630237622.9505, 72, 0, 4198.974, 4240, 4093.333, 4169.744, 4157.949, 450, 0, []
1630237622.9585, 73, 0, 4207.692, 4278.974, 4094.359, 4190.256, 4177.436, 16060, 0, []
1630237622.9663, 74, 0, 4224.615, 4276.923, 4112.821, 4194.872, 4190.256, 450, 0, []
1630237622.9743, 75, 0, 4214.359, 4233.846, 4124.615, 4182.051, 4174.872, 16197, 0, []
1630237622.9822, 76, 0, 4188.718, 4222.051, 4080, 4162.051, 4166.667, 450, 0, []
1630237622.9902, 77, 0, 4180.513, 4232.308, 4065.641, 4157.949, 4151.795, 450, 0, []
1630237622.9981, 78, 0, 4196.923, 4238.462, 4081.026, 4163.077, 4158.974, 450, 0, []
1630237623.006, 79, 0, 4222.051, 4243.59, 4101.026, 4186.667, 4198.974, 16197, 0, []
1630237623.0138, 80, 0, 4231.282, 4245.641, 4116.41, 4209.744, 4193.846, 450, 0, []
1630237623.0216, 81, 0, 4218.974, 4251.282, 4101.026, 4195.897, 4165.641, 450, 0, []
1630237623.0295, 82, 0, 4208.205, 4252.308, 4107.692, 4188.718, 4171.795, 450, 0, []
1630237623.0373, 83, 0, 4201.026, 4230.769, 4095.385, 4185.128, 4162.051, 16197, 0, []
1630237623.0452, 84, 0, 4204.615, 4216.923, 4084.103, 4173.846, 4155.897, 450, 0, []
1630237623.0529, 85, 0, 4216.923, 4227.692, 4112.821, 4183.077, 4190.769, 450, 0, []
1630237623.0608, 86, 0, 4209.231, 4230.256, 4097.949, 4180, 4181.026, 450, 0, []
1630237623.0686, 87, 0, 4198.462, 4216.41, 4092.308, 4166.154, 4151.795, 16197, 0, []
1630237623.0765, 88, 0, 4196.923, 4206.667, 4100, 4157.949, 4167.692, 450, 0, []
1630237623.0843, 89, 0, 4194.359, 4225.128, 4084.615, 4160.513, 4165.641, 450, 0, []
1630237623.0921, 90, 0, 4211.795, 4251.795, 4103.59, 4181.538, 4158.462, 450, 0, []
1630237623.0999, 91, 0, 4224.103, 4244.615, 4117.949, 4188.718, 4186.667, 16197, 0, []
1630237623.1078, 92, 0, 4193.333, 4213.846, 4096.923, 4182.564, 4170.769, 450, 0, []
1630237623.1156, 93, 0, 4170.769, 4195.897, 4069.744, 4170.256, 4131.795, 450, 0, []
1630237623.1236, 94, 0, 4192.821, 4198.462, 4090.256, 4173.846, 4155.897, 450, 0, []
1630237623.1314, 95, 0, 4203.077, 4214.359, 4120.513, 4198.974, 4172.308, 16197, 0, []
1630237623.1394, 96, 0, 4184.615, 4213.333, 4075.385, 4178.974, 4138.974, 450, 0, []
1630237623.1473, 97, 0, 4172.821, 4191.795, 4050.769, 4146.154, 4125.641, 450, 0, []
1630237623.1553, 98, 0, 4193.846, 4207.179, 4070.256, 4166.154, 4145.128, 450, 0, []
1630237623.1632, 99, 0, 4224.103, 4238.974, 4082.564, 4185.641, 4166.667, 16197, 0, []
1630237623.1711, 100, 0, 4209.231, 4214.872, 4096.41, 4168.718, 4166.667, 450, 0, []
1630237623.179, 101, 0, 4183.59, 4187.179, 4066.154, 4154.872, 4139.487, 450, 0, []
1630237623.1868, 102, 0, 4180, 4198.462, 4053.333, 4158.462, 4117.436, 450, 0, []
1630237623.1947, 103, 0, 4173.846, 4200.513, 4083.077, 4162.051, 4129.744, 16197, 0, []
1630237623.2025, 104, 0, 4177.436, 4195.897, 4079.487, 4163.077, 4141.538, 450, 0, []
1630237623.2103, 105, 0, 4196.41, 4210.256, 4083.59, 4168.718, 4134.872, 450, 0, []
1630237623.2181, 106, 0, 4209.231, 4230.256, 4096.923, 4177.436, 4148.718, 450, 0, []
1630237623.226, 107, 0, 4198.974, 4222.051, 4091.282, 4182.564, 4153.846, 16197, 0, []
1630237623.2338, 108, 0, 4186.667, 4198.974, 4080, 4172.308, 4141.026, 450, 0, []
1630237623.2417, 109, 0, 4196.923, 4200, 4084.615, 4168.205, 4157.949, 450, 0, []
1630237623.2494, 110, 0, 4209.231, 4231.282, 4107.692, 4194.359, 4172.308, 450, 0, []
1630237623.2574, 111, 0, 4202.051, 4247.179, 4087.692, 4190.256, 4161.538, 16197, 0, []
1630237623.2653, 112, 0, 4203.077, 4217.949, 4090.256, 4177.436, 4168.718, 450, 0, []
1630237623.2733, 113, 0, 4207.179, 4195.897, 4108.205, 4191.282, 4158.462, 450, 0, []
1630237623.2812, 114, 0, 4185.128, 4208.718, 4062.051, 4174.359, 4125.128, 450, 0, []
1630237623.2891, 115, 0, 4177.436, 4211.282, 4067.692, 4168.205, 4140, 16197, 0, []
1630237623.297, 116, 0, 4190.256, 4184.615, 4089.744, 4181.026, 4155.897, 450, 0, []
1630237623.305, 117, 0, 4188.205, 4186.667, 4070.256, 4183.077, 4142.564, 450, 0, []
1630237623.3129, 118, 0, 4206.667, 4216.41, 4086.667, 4205.128, 4166.667, 450, 0, []
1630237623.3209, 119, 0, 4227.179, 4213.333, 4106.667, 4209.231, 4183.59, 16197, 0, []
1630237623.3288, 120, 0, 4195.385, 4191.795, 4103.077, 4185.128, 4148.205, 450, 0, []
1630237623.3365, 121, 0, 4165.641, 4193.333, 4072.821, 4174.872, 4127.179, 450, 0, []
1630237623.3444, 122, 0, 4189.231, 4210.769, 4065.128, 4178.974, 4150.769, 450, 0, []
1630237623.3522, 123, 0, 4208.205, 4220.513, 4100, 4187.179, 4164.103, 16197, 0, []
1630237623.3601, 124, 0, 4196.923, 4227.179, 4093.846, 4187.692, 4148.205, 450, 0, []
1630237623.3679, 125, 0, 4191.795, 4220, 4087.179, 4175.897, 4137.949, 450, 0, []
1630237623.3757, 126, 0, 4197.949, 4207.179, 4092.821, 4168.205, 4153.333, 450, 0, []
1630237623.3835, 127, 0, 4207.692, 4208.205, 4083.077, 4181.538, 4162.051, 16197, 0, []
1630237623.3914, 128, 0, 4200, 4207.692, 4080.513, 4183.59, 4146.667, 450, 0, []
1630237623.3992, 0, 0, 4186.154, 4205.641, 4061.538, 4154.359, 4145.128, 450, 0, []
1630237623.4072, 1, 0, 4201.026, 4212.821, 4074.872, 4157.949, 4151.282, 450, 0, []
1630237623.415, 2, 0, 4206.667, 4212.821, 4106.154, 4180, 4143.59, 16187, 0, []
1630237623.423, 3, 0, 4186.154, 4197.949, 4099.487, 4168.205, 4137.436, 450, 0, []
1630237623.4309, 4, 0, 4192.821, 4199.487, 4095.897, 4164.615, 4136.923, 16111, 0, []
1630237623.4389, 5, 0, 4222.051, 4228.205, 4090.769, 4168.205, 4151.282, 450, 0, []
1630237623.4468, 6, 0, 4222.564, 4237.436, 4101.026, 4169.231, 4170.256, 16074, 0, []
1630237623.4546, 7, 0, 4208.718, 4225.641, 4104.103, 4177.436, 4162.051, 450, 0, []
1630237623.4625, 8, 0, 4201.538, 4212.821, 4081.026, 4167.179, 4147.179, 450, 0, []
1630237623.4704, 9, 0, 4203.59, 4210.256, 4096.923, 4170.256, 4157.436, 323, 0, []
1630237623.4782, 10, 0, 4216.41, 4220, 4090.769, 4181.538, 4155.897, 450, 0, []
1630237623.4862, 11, 0, 4206.154, 4218.462, 4063.59, 4166.154, 4136.41, 16189, 0, []
1630237623.494, 12, 0, 4205.128, 4210.256, 4085.641, 4164.615, 4151.795, 450, 0, []
1630237623.5018, 13, 0, 4224.103, 4214.872, 4098.462, 4178.462, 4166.154, 450, 0, []
1630237623.5097, 14, 0, 4196.923, 4217.949, 4085.641, 4169.231, 4141.538, 450, 0, []
1630237623.5175, 15, 0, 4182.564, 4218.462, 4078.462, 4164.103, 4148.205, 16189, 0, []
1630237623.5254, 16, 0, 4224.103, 4231.795, 4106.667, 4198.462, 4177.436, 0, 0, []
1630237623.5331, 17, 0, 4214.359, 4230.256, 4109.744, 4199.487, 4164.615, 0, 0, []
1630237623.541, 18, 0, 4182.051, 4220, 4074.872, 4165.128, 4151.282, 0, 0, []
1630237623.5488, 19, 0, 4225.128, 4236.41, 4108.718, 4192.308, 4168.205, 0, 0, []
1630237623.5567, 20, 0, 4241.538, 4236.41, 4112.308, 4202.564, 4165.641, 0, 0, []
1630237623.5645, 21, 0, 4185.128, 4204.615, 4056.923, 4157.949, 4140.513, 0, 0, []
1630237623.5724, 22, 0, 4178.462, 4197.949, 4062.051, 4164.103, 4141.538, 0, 0, []
1630237623.5803, 23, 0, 4198.974, 4215.385, 4074.359, 4184.103, 4151.282, 0, 0, []
1630237623.5883, 24, 0, 4191.795, 4223.59, 4080, 4185.128, 4153.333, 0, 0, []
1630237623.5962, 25, 0, 4211.795, 4233.846, 4093.846, 4195.897, 4171.795, 0, 0, []
1630237623.6042, 26, 0, 4219.487, 4232.821, 4093.333, 4187.692, 4175.897, 0, 0, []
1630237623.612, 27, 0, 4191.795, 4217.949, 4086.154, 4173.846, 4153.333, 0, 0, []
1630237623.62, 28, 0, 4203.077, 4225.128, 4079.487, 4176.923, 4153.333, 0, 0, []
1630237623.6279, 29, 0, 4217.436, 4243.077, 4107.179, 4194.359, 4176.41, 0, 0, []
1630237623.6359, 30, 0, 4191.795, 4236.923, 4100.513, 4196.41, 4163.077, 0, 0, []
1630237623.6438, 31, 0, 4183.077, 4219.487, 4066.154, 4177.949, 4130.769, 0, 0, []
1630237623.6515, 32, 0, 4190.256, 4208.205, 4089.744, 4179.487, 4134.359, 0, 0, []
1630237623.6594, 33, 0, 4188.718, 4220, 4091.795, 4190.769, 4150.769, 0, 0, []
1630237623.6672, 34, 0, 4211.282, 4247.692, 4096.923, 4197.949, 4166.154, 0, 0, []
1630237623.6751, 35, 0, 4212.308, 4233.333, 4106.154, 4189.744, 4164.615, 0, 0, []
1630237623.6829, 36, 0, 4183.59, 4200, 4081.538, 4179.487, 4141.026, 0, 0, []
1630237623.6908, 37, 0, 4205.641, 4219.487, 4097.949, 4188.718, 4148.205, 0, 0, []
1630237623.6985, 38, 0, 4225.641, 4245.128, 4098.462, 4176.41, 4167.179, 0, 0, []
1630237623.7064, 39, 0, 4195.385, 4225.641, 4079.487, 4164.103, 4141.538, 0, 0, []
1630237623.7142, 40, 0, 4199.487, 4227.179, 4103.077, 4185.641, 4141.026, 0, 0, []
1630237623.7222, 41, 0, 4224.615, 4242.564, 4117.949, 4193.846, 4174.359, 0, 0, []
1630237623.7301, 42, 0, 4213.846, 4228.205, 4114.359, 4190.769, 4163.077, 0, 0, []
1630237623.738, 43, 0, 4217.436, 4240, 4113.846, 4194.359, 4155.897, 0, 0, []
1630237623.7459, 44, 0, 4214.359, 4246.667, 4118.974, 4191.282, 4164.103, 0, 0, []
1630237623.7539, 45, 0, 4192.308, 4217.436, 4100.513, 4184.615, 4146.154, 0, 0, []
1630237623.7618, 46, 0, 4215.897, 4230.769, 4089.231, 4188.205, 4157.949, 0, 0, []
1630237623.7698, 47, 0, 4239.487, 4270.769, 4136.923, 4208.718, 4196.41, 0, 0, []
1630237623.7776, 48, 0, 4222.051, 4256.41, 4131.282, 4208.205, 4185.641, 0, 0, []
1630237623.7856, 49, 0, 4214.359, 4217.436, 4093.846, 4189.744, 4156.923, 0, 0, []
1630237623.7935, 50, 0, 4209.744, 4216.923, 4097.949, 4183.077, 4158.462, 0, 0, []
1630237623.8013, 51, 0, 4211.795, 4243.077, 4094.872, 4182.051, 4172.308, 0, 0, []
1630237623.8092, 52, 0, 4245.128, 4269.231, 4118.462, 4201.026, 4190.769, 0, 0, []
1630237623.8169, 53, 0, 4250.769, 4262.051, 4127.179, 4206.667, 4200, 0, 0, []
1630237623.8248, 54, 0, 4221.538, 4235.385, 4103.077, 4186.154, 4185.641, 0, 0, []
1630237623.8326, 55, 0, 4214.359, 4232.821, 4095.897, 4182.051, 4155.385, 0, 0, []
1630237623.8405, 56, 0, 4226.667, 4234.872, 4092.821, 4190.769, 4159.487, 0, 0, []
1630237623.8483, 57, 0, 4233.333, 4229.231, 4112.308, 4198.974, 4191.282, 0, 0, []
1630237623.8561, 58, 0, 4212.308, 4225.641, 4099.487, 4186.154, 4163.077, 0, 0, []
1630237623.8639, 59, 0, 4177.436, 4230.769, 4076.923, 4166.667, 4113.333, 0, 0, []
1630237623.8719, 60, 0, 4177.436, 4248.718, 4104.103, 4175.897, 4124.103, 0, 0, []
1630237623.8798, 61, 0, 4179.487, 4249.744, 4092.821, 4175.897, 4123.59, 0, 0, []
1630237623.8878, 62, 0, 4157.436, 4235.897, 4085.641, 4189.231, 4098.974, 0, 0, []
1630237623.8956, 63, 0, 4175.385, 4255.385, 4120, 4228.205, 4131.282, 0, 0, []
1630237623.9036, 64, 0, 4185.641, 4261.538, 4116.41, 4207.692, 4141.538, 450, 0, []
1630237623.9115, 65, 0, 4140.513, 4219.487, 4087.179, 4164.103, 4094.359, 450, 0, []
1630237623.9195, 66, 0, 4136.41, 4236.923, 4070.256, 4180, 4101.026, 16193, 0, []
1630237623.9274, 67, 0, 4182.051, 4295.897, 4104.615, 4212.308, 4148.718, 450, 0, []
1630237623.9353, 68, 0, 4189.744, 4273.846, 4127.692, 4196.923, 4147.692, 16103, 0, []
1630237623.9432, 69, 0, 4168.718, 4230.769, 4101.538, 4171.795, 4112.308, 450, 0, []
1630237623.9511, 70, 0, 4161.538, 4247.692, 4098.462, 4178.974, 4103.077, 16075, 0, []
1630237623.959, 71, 0, 4161.026, 4263.077, 4089.231, 4175.897, 4113.846, 450, 0, []
1630237623.9668, 72, 0, 4152.821, 4241.538, 4089.744, 4170.256, 4102.051, 450, 0, []
1630237623.9746, 73, 0, 4134.872, 4224.103, 4094.359, 4172.308, 4076.923, 320, 0, []
1630237623.9824, 74, 0, 4128.205, 4237.949, 4072.308, 4166.667, 4076.923, 450, 0, []
1630237623.9903, 75, 0, 4123.59, 4246.667, 4072.308, 4172.308, 4081.538, 16197, 0, []
1630237623.9981, 76, 0, 4113.333, 4238.462, 4063.59, 4169.744, 4070.256, 450, 0, []
1630237624.006, 77, 0, 4134.872, 4241.026, 4073.333, 4175.897, 4086.154, 450, 0, []
1630237624.0137, 78, 0, 4165.641, 4246.667, 4109.744, 4206.154, 4123.077, 450, 0, []
1630237624.0216, 79, 0, 4168.718, 4252.821, 4108.205, 4216.41, 4133.333, 16197, 0, []
1630237624.0294, 80, 0, 4173.333, 4262.564, 4114.359, 4219.487, 4133.333, 450, 0, []
1630237624.0374, 81, 0, 4173.333, 4240.513, 4104.615, 4208.718, 4128.718, 450, 0, []
1630237624.0453, 82, 0, 4145.128, 4210.256, 4085.128, 4184.103, 4102.564, 450, 0, []
1630237624.0533, 83, 0, 4134.359, 4236.923, 4093.846, 4183.59, 4096.923, 16197, 0, []
1630237624.0611, 84, 0, 4140.513, 4261.026, 4078.974, 4175.897, 4103.59, 450, 0, []
1630237624.0691, 85, 0, 4141.026, 4241.538, 4086.154, 4164.615, 4093.846, 450, 0, []
1630237624.077, 86, 0, 4160, 4242.564, 4107.179, 4179.487, 4110.256, 450, 0, []
1630237624.085, 87, 0, 4143.59, 4232.308, 4082.564, 4181.538, 4109.744, 16197, 0, []
1630237624.0929, 88, 0, 4109.231, 4207.179, 4062.564, 4164.615, 4074.872, 450, 0, []
1630237624.1008, 89, 0, 4153.333, 4229.744, 4092.821, 4186.667, 4106.154, 450, 0, []
1630237624.1087, 90, 0, 4218.462, 4256.923, 4149.744, 4237.949, 4161.026, 450, 0, []
1630237624.1165, 91, 0, 4200.513, 4247.692, 4125.641, 4212.308, 4131.282, 16197, 0, []
1630237624.1244, 92, 0, 4157.949, 4236.923, 4070.769, 4153.333, 4090.256, 450, 0, []
1630237624.1322, 93, 0, 4167.179, 4231.282, 4090.256, 4169.744, 4104.103, 450, 0, []
1630237624.14, 94, 0, 4181.026, 4235.385, 4102.051, 4194.872, 4115.385, 450, 0, []
1630237624.1478, 95, 0, 4166.154, 4254.359, 4096.923, 4184.103, 4102.564, 16197, 0, []
1630237624.1557, 96, 0, 4139.487, 4219.487, 4074.359, 4154.359, 4084.103, 450, 0, []
1630237624.1635, 97, 0, 4134.359, 4172.308, 4057.949, 4137.436, 4081.538, 450, 0, []
1630237624.1714, 98, 0, 4163.077, 4218.462, 4098.974, 4171.282, 4099.487, 450, 0, []
1630237624.1791, 99, 0, 4166.667, 4258.462, 4102.564, 4180.513, 4095.385, 16197, 0, []
1630237624.187, 100, 0, 4129.744, 4203.59, 4066.154, 4138.462, 4066.154, 450, 0, []
1630237624.1948, 101, 0, 4132.308, 4181.538, 4053.846, 4134.872, 4074.359, 450, 0, []
