Timestamp, COUNTER, INTERPOLATED, AF3, T7, Pz, T8, AF4, RAW_CQ, MARKER_HARDWARE, MARKERS
1627802970.331, 2, 0, 4178.974, 4234.359, 4166.667, 4131.795, 4071.282, 16186, 0, []
1627802970.3389, 3, 0, 4168.205, 4193.846, 4154.872, 4125.641, 4058.974, 450, 0, []
1627802970.3467, 4, 0, 4161.538, 4194.359, 4136.923, 4118.974, 4055.897, 16143, 0, []
1627802970.3545, 5, 0, 4177.949, 4233.846, 4167.179, 4124.103, 4067.692, 450, 0, []
1627802970.3623, 6, 0, 4184.615, 4230.769, 4147.179, 4126.154, 4072.308, 299, 0, []
1627802970.3703, 7, 0, 4167.692, 4219.487, 4156.41, 4128.718, 4064.615, 450, 0, []
1627802970.3782, 8, 0, 4168.718, 4234.872, 4169.231, 4146.154, 4067.179, 450, 0, []
1627802970.3862, 9, 0, 4186.667, 4227.179, 4154.872, 4165.641, 4080.513, 16158, 0, []
1627802970.394, 10, 0, 4181.026, 4213.333, 4175.385, 4166.667, 4081.026, 450, 0, []
1627802970.402, 11, 0, 4171.282, 4225.641, 4152.308, 4149.744, 4073.333, 16195, 0, []
1627802970.4099, 12, 0, 4185.641, 4229.231, 4158.974, 4137.949, 4077.949, 450, 0, []
1627802970.4179, 13, 0, 4191.282, 4214.872, 4165.641, 4137.436, 4084.615, 450, 0, []
1627802970.4258, 14, 0, 4172.821, 4207.692, 4132.308, 4133.846, 4073.846, 450, 0, []
1627802970.4337, 15, 0, 4178.462, 4207.179, 4160, 4129.744, 4068.718, 16195, 0, []
1627802970.4416, 16, 0, 4205.128, 4208.718, 4156.923, 4125.128, 4080.513, 0, 0, []
1627802970.4494, 17, 0, 4204.615, 4202.564, 4152.821, 4121.026, 4085.128, 0, 0, []
1627802970.4573, 18, 0, 4212.821, 4204.615, 4171.795, 4148.718, 4107.179, 0, 0, []
1627802970.4651, 19, 0, 4240, 4237.436, 4167.692, 4187.692, 4141.538, 0, 0, []
1627802970.4729, 20, 0, 4226.154, 4247.179, 4184.103, 4181.026, 4127.692, 0, 0, []
1627802970.4807, 21, 0, 4186.154, 4212.821, 4153.333, 4148.718, 4086.154, 0, 0, []
1627802970.4886, 22, 0, 4178.974, 4207.179, 4146.154, 4149.744, 4087.179, 0, 0, []
1627802970.4964, 23, 0, 4180, 4225.641, 4158.974, 4157.949, 4099.487, 0, 0, []
1627802970.5044, 24, 0, 4163.59, 4215.385, 4125.641, 4139.487, 4083.077, 0, 0, []
1627802970.5122, 25, 0, 4165.641, 4210.256, 4155.385, 4136.41, 4078.462, 0, 0, []
1627802970.5202, 26, 0, 4185.128, 4235.385, 4172.308, 4153.846, 4096.41, 0, 0, []
1627802970.5281, 27, 0, 4196.923, 4236.923, 4173.846, 4159.487, 4111.282, 0, 0, []
1627802970.5361, 28, 0, 4188.718, 4203.59, 4165.128, 4140, 4103.077, 0, 0, []
1627802970.544, 29, 0, 4179.487, 4194.872, 4116.41, 4129.231, 4090.256, 0, 0, []
1627802970.5519, 30, 0, 4181.538, 4221.026, 4147.692, 4153.333, 4095.385, 0, 0, []
1627802970.5598, 31, 0, 4180.513, 4221.538, 4153.333, 4161.538, 4095.897, 0, 0, []
1627802970.5678, 32, 0, 4178.462, 4195.385, 4134.359, 4147.179, 4091.795, 0, 0, []
1627802970.5757, 33, 0, 4180, 4191.282, 4158.462, 4144.615, 4096.923, 0, 0, []
1627802970.5837, 34, 0, 4183.59, 4197.436, 4146.667, 4144.615, 4108.205, 0, 0, []
1627802970.5915, 35, 0, 4200, 4206.154, 4184.615, 4160, 4128.718, 0, 0, []
1627802970.5993, 36, 0, 4218.462, 4226.154, 4208.205, 4185.128, 4144.615, 0, 0, []
1627802970.6072, 37, 0, 4209.231, 4232.821, 4176.923, 4170.769, 4128.205, 0, 0, []
1627802970.615, 38, 0, 4186.667, 4218.974, 4168.205, 4142.051, 4105.641, 0, 0, []
1627802970.6229, 39, 0, 4181.538, 4209.231, 4147.692, 4149.231, 4108.718, 0, 0, []
1627802970.6306, 40, 0, 4192.821, 4204.615, 4169.744, 4165.641, 4116.923, 0, 0, []
1627802970.6385, 41, 0, 4196.923, 4192.308, 4163.077, 4155.385, 4111.282, 0, 0, []
1627802970.6463, 42, 0, 4189.744, 4205.641, 4133.846, 4148.718, 4109.744, 0, 0, []
1627802970.6542, 43, 0, 4195.897, 4229.744, 4183.077, 4181.538, 4136.923, 0, 0, []
1627802970.662, 44, 0, 4206.667, 4231.795, 4189.744, 4209.744, 4160.513, 0, 0, []
1627802970.6699, 45, 0, 4198.462, 4213.846, 4174.359, 4187.179, 4141.026, 0, 0, []
1627802970.6778, 46, 0, 4176.923, 4184.103, 4144.615, 4142.051, 4110.769, 0, 0, []
1627802970.6858, 47, 0, 4178.974, 4191.795, 4123.59, 4140.513, 4121.026, 0, 0, []
1627802970.6937, 48, 0, 4210.256, 4225.128, 4172.821, 4178.462, 4157.949, 0, 0, []
1627802970.7017, 49, 0, 4218.462, 4212.821, 4160, 4182.051, 4162.051, 0, 0, []
1627802970.7095, 50, 0, 4203.59, 4195.897, 4156.41, 4157.949, 4140, 0, 0, []
1627802970.7175, 51, 0, 4204.615, 4217.949, 4177.436, 4162.564, 4139.487, 0, 0, []
1627802970.7254, 52, 0, 4213.846, 4213.846, 4158.974, 4180, 4156.41, 0, 0, []
1627802970.7334, 53, 0, 4205.128, 4197.949, 4175.897, 4180.513, 4150.256, 0, 0, []
1627802970.7413, 54, 0, 4191.282, 4227.179, 4158.462, 4175.897, 4135.897, 0, 0, []
1627802970.749, 55, 0, 4187.179, 4237.949, 4152.308, 4169.231, 4126.667, 0, 0, []
1627802970.7569, 56, 0, 4179.487, 4215.897, 4173.846, 4161.026, 4114.872, 0, 0, []
1627802970.7647, 57, 0, 4181.026, 4197.949, 4160, 4165.128, 4130.769, 0, 0, []
1627802970.7726, 58, 0, 4208.718, 4195.385, 4182.051, 4184.103, 4187.692, 0, 0, []
1627802970.7804, 59, 0, 4234.872, 4218.974, 4169.744, 4190.256, 4237.949, 0, 0, []
1627802970.7882, 60, 0, 4248.205, 4231.282, 4156.923, 4183.077, 4272.308, 0, 0, []
1627802970.796, 61, 0, 4288.718, 4230.256, 4189.231, 4201.026, 4335.385, 0, 0, []
1627802970.8039, 62, 0, 4341.538, 4259.487, 4192.308, 4243.59, 4406.154, 0, 0, []
1627802970.8117, 63, 0, 4332.821, 4261.538, 4201.538, 4247.179, 4416.923, 0, 0, []
1627802970.8197, 64, 0, 4296.923, 4216.923, 4175.385, 4218.974, 4392.821, 450, 0, []
1627802970.8275, 65, 0, 4304.615, 4231.282, 4186.667, 4234.872, 4394.872, 450, 0, []
1627802970.8355, 66, 0, 4312.308, 4274.872, 4232.308, 4264.103, 4393.846, 16186, 0, []
1627802970.8434, 67, 0, 4287.179, 4239.487, 4194.872, 4246.154, 4364.103, 450, 0, []
1627802970.8514, 68, 0, 4270.769, 4195.897, 4196.41, 4226.667, 4346.154, 16143, 0, []
1627802970.8593, 69, 0, 4267.179, 4218.462, 4187.179, 4219.487, 4336.41, 450, 0, []
1627802970.8672, 70, 0, 4255.897, 4230.769, 4155.897, 4196.41, 4312.308, 297, 0, []
1627802970.8751, 71, 0, 4254.872, 4198.974, 4190.769, 4187.179, 4303.59, 450, 0, []
1627802970.8831, 72, 0, 4265.128, 4201.026, 4187.692, 4203.077, 4316.923, 450, 0, []
1627802970.891, 73, 0, 4261.538, 4229.744, 4184.615, 4209.744, 4322.564, 16158, 0, []
1627802970.8988, 74, 0, 4262.051, 4229.231, 4187.179, 4214.359, 4322.564, 450, 0, []
1627802970.9066, 75, 0, 4271.795, 4217.949, 4189.744, 4229.231, 4327.179, 16195, 0, []
1627802970.9144, 76, 0, 4262.051, 4221.026, 4207.692, 4230.769, 4318.974, 450, 0, []
1627802970.9223, 77, 0, 4241.538, 4222.564, 4168.718, 4213.846, 4303.59, 450, 0, []
1627802970.9301, 78, 0, 4246.667, 4208.718, 4179.487, 4215.385, 4305.128, 450, 0, []
1627802970.938, 79, 0, 4263.59, 4198.462, 4197.949, 4226.667, 4308.718, 16195, 0, []
1627802970.9457, 80, 0, 4268.718, 4219.487, 4181.026, 4227.692, 4309.231, 450, 0, []
1627802970.9536, 81, 0, 4277.436, 4250.256, 4214.872, 4237.949, 4323.59, 450, 0, []
1627802970.9614, 82, 0, 4270.256, 4237.949, 4188.718, 4236.41, 4321.538, 450, 0, []
1627802970.9694, 83, 0, 4237.436, 4219.487, 4174.359, 4207.692, 4289.231, 16195, 0, []
1627802970.9773, 84, 0, 4213.846, 4248.205, 4192.821, 4192.308, 4258.462, 450, 0, []
1627802970.9853, 85, 0, 4204.615, 4247.692, 4161.538, 4189.744, 4238.974, 450, 0, []
1627802970.9931, 86, 0, 4218.462, 4215.897, 4171.282, 4191.282, 4256.41, 450, 0, []
1627802971.0011, 87, 0, 4259.487, 4234.872, 4175.385, 4205.128, 4320, 16195, 0, []
1627802971.009, 88, 0, 4300.513, 4250.256, 4186.154, 4220.513, 4373.846, 450, 0, []
1627802971.017, 89, 0, 4313.846, 4223.59, 4196.923, 4220.513, 4384.615, 450, 0, []
1627802971.0249, 90, 0, 4310.256, 4227.179, 4177.436, 4217.949, 4384.103, 450, 0, []
1627802971.0328, 91, 0, 4311.795, 4249.744, 4220, 4235.385, 4385.641, 16195, 0, []
1627802971.0407, 92, 0, 4316.41, 4250.256, 4218.462, 4247.692, 4370.769, 450, 0, []
1627802971.0487, 93, 0, 4302.051, 4241.026, 4188.205, 4227.692, 4342.051, 450, 0, []
1627802971.0566, 94, 0, 4282.564, 4229.231, 4192.821, 4210.769, 4327.179, 450, 0, []
1627802971.0644, 95, 0, 4296.41, 4241.026, 4185.641, 4223.59, 4344.615, 16195, 0, []
1627802971.0722, 96, 0, 4305.128, 4264.103, 4212.821, 4229.744, 4348.718, 450, 0, []
1627802971.08, 97, 0, 4280, 4252.821, 4192.308, 4214.359, 4324.615, 450, 0, []
1627802971.0879, 98, 0, 4254.872, 4223.59, 4164.615, 4196.923, 4302.051, 450, 0, []
1627802971.0957, 99, 0, 4253.333, 4218.462, 4191.282, 4191.282, 4296.923, 16195, 0, []
1627802971.1036, 100, 0, 4282.564, 4246.667, 4194.359, 4215.385, 4323.59, 450, 0, []
1627802971.1113, 101, 0, 4304.103, 4285.641, 4226.667, 4244.103, 4346.667, 450, 0, []
1627802971.1192, 102, 0, 4275.897, 4278.462, 4200.513, 4222.564, 4320, 450, 0, []
1627802971.127, 103, 0, 4249.231, 4230.256, 4163.59, 4199.487, 4291.795, 16195, 0, []
1627802971.1349, 104, 0, 4278.974, 4234.359, 4217.949, 4231.282, 4314.359, 450, 0, []
1627802971.1427, 105, 0, 4295.897, 4264.103, 4211.795, 4247.692, 4325.641, 450, 0, []
1627802971.1506, 106, 0, 4279.487, 4244.615, 4207.179, 4238.462, 4308.205, 450, 0, []
1627802971.1585, 107, 0, 4278.974, 4233.846, 4214.872, 4248.718, 4306.154, 16195, 0, []
1627802971.1665, 108, 0, 4271.795, 4258.462, 4189.231, 4246.154, 4303.077, 450, 0, []
1627802971.1744, 109, 0, 4248.718, 4252.308, 4193.333, 4225.128, 4290.769, 450, 0, []
1627802971.1824, 110, 0, 4249.744, 4240.513, 4180, 4222.564, 4290.769, 450, 0, []
1627802971.1902, 111, 0, 4269.744, 4283.077, 4208.718, 4233.333, 4298.974, 16195, 0, []
1627802971.1981, 112, 0, 4268.718, 4288.718, 4223.59, 4228.205, 4293.846, 450, 0, []
1627802971.206, 113, 0, 4258.974, 4237.436, 4193.333, 4222.564, 4286.667, 450, 0, []
1627802971.2139, 114, 0, 4268.205, 4252.821, 4223.077, 4237.949, 4294.359, 450, 0, []
1627802971.2218, 115, 0, 4273.333, 4280, 4207.692, 4238.974, 4298.974, 16195, 0, []
1627802971.2295, 116, 0, 4251.795, 4238.974, 4189.744, 4216.923, 4284.103, 450, 0, []
1627802971.2374, 117, 0, 4230.256, 4218.974, 4195.385, 4202.564, 4270.769, 450, 0, []
1627802971.2452, 118, 0, 4238.462, 4256.923, 4181.538, 4211.282, 4282.564, 450, 0, []
1627802971.2531, 119, 0, 4257.949, 4276.41, 4211.795, 4229.744, 4299.487, 16195, 0, []
1627802971.2609, 120, 0, 4248.205, 4251.795, 4185.641, 4223.59, 4285.641, 450, 0, []
1627802971.2687, 121, 0, 4222.564, 4230.256, 4166.667, 4204.615, 4254.872, 450, 0, []
1627802971.2765, 122, 0, 4232.308, 4242.564, 4198.462, 4224.615, 4260.513, 450, 0, []
1627802971.2845, 123, 0, 4263.59, 4261.026, 4196.41, 4249.744, 4292.821, 16195, 0, []
1627802971.2924, 124, 0, 4254.872, 4248.205, 4210.769, 4231.795, 4291.795, 450, 0, []
1627802971.3004, 125, 0, 4214.872, 4225.641, 4185.128, 4203.077, 4255.897, 450, 0, []
1627802971.3082, 126, 0, 4207.179, 4233.333, 4178.462, 4195.897, 4238.974, 450, 0, []
1627802971.3162, 127, 0, 4239.487, 4250.769, 4203.077, 4194.359, 4259.487, 16195, 0, []
1627802971.3241, 128, 0, 4265.641, 4256.41, 4178.462, 4191.795, 4279.487, 450, 0, []
1627802971.3321, 0, 0, 4264.615, 4243.59, 4192.308, 4200, 4278.462, 450, 0, []
1627802971.34, 1, 0, 4258.462, 4242.564, 4185.128, 4211.795, 4277.436, 450, 0, []
1627802971.3479, 2, 0, 4257.949, 4258.462, 4180.513, 4216.923, 4280, 16186, 0, []
1627802971.3558, 3, 0, 4256.41, 4249.744, 4206.154, 4218.462, 4271.795, 450, 0, []
1627802971.3637, 4, 0, 4238.462, 4236.923, 4173.333, 4205.641, 4253.333, 16143, 0, []
1627802971.3716, 5, 0, 4211.282, 4238.974, 4176.923, 4182.564, 4233.333, 450, 0, []
1627802971.3794, 6, 0, 4218.974, 4226.667, 4185.128, 4181.538, 4236.41, 299, 0, []
1627802971.3872, 7, 0, 4252.308, 4215.385, 4191.282, 4203.077, 4259.487, 450, 0, []
1627802971.395, 8, 0, 4257.949, 4231.795, 4210.769, 4207.179, 4262.564, 450, 0, []
1627802971.4029, 9, 0, 4249.744, 4253.333, 4187.179, 4200, 4257.949, 16158, 0, []
1627802971.4107, 10, 0, 4267.179, 4269.744, 4218.974, 4222.564, 4275.897, 450, 0, []
1627802971.4186, 11, 0, 4270.769, 4274.872, 4212.821, 4234.359, 4280.513, 16195, 0, []
1627802971.4263, 12, 0, 4251.282, 4246.154, 4163.077, 4205.641, 4252.821, 450, 0, []
1627802971.4342, 13, 0, 4252.308, 4235.897, 4175.897, 4180.513, 4239.487, 450, 0, []
1627802971.442, 14, 0, 4263.077, 4258.974, 4162.564, 4182.051, 4256.41, 450, 0, []
1627802971.4499, 15, 0, 4270.769, 4263.59, 4186.154, 4203.077, 4275.897, 16195, 0, []
1627802971.4577, 16, 0, 4265.128, 4246.667, 4196.41, 4203.59, 4272.821, 0, 0, []
1627802971.4656, 17, 0, 4247.692, 4228.718, 4164.615, 4183.077, 4255.385, 0, 0, []
1627802971.4735, 18, 0, 4249.744, 4230.256, 4189.744, 4188.205, 4255.385, 0, 0, []
1627802971.4815, 19, 0, 4265.641, 4256.41, 4187.692, 4215.897, 4268.205, 0, 0, []
1627802971.4894, 20, 0, 4268.205, 4266.154, 4201.026, 4228.718, 4275.385, 0, 0, []
1627802971.4974, 21, 0, 4260, 4251.795, 4200.513, 4212.821, 4269.744, 0, 0, []
1627802971.5052, 22, 0, 4252.308, 4249.231, 4154.872, 4187.692, 4248.205, 0, 0, []
1627802971.5132, 23, 0, 4240, 4242.564, 4171.282, 4180, 4231.282, 0, 0, []
1627802971.5211, 24, 0, 4227.179, 4210.769, 4161.538, 4181.538, 4228.718, 0, 0, []
1627802971.5291, 25, 0, 4227.179, 4216.923, 4161.026, 4185.641, 4232.821, 0, 0, []
1627802971.537, 26, 0, 4241.026, 4258.974, 4189.231, 4200.513, 4241.026, 0, 0, []
1627802971.5447, 27, 0, 4247.692, 4256.923, 4182.564, 4203.59, 4247.179, 0, 0, []
1627802971.5526, 28, 0, 4231.282, 4224.615, 4189.744, 4183.077, 4237.436, 0, 0, []
1627802971.5604, 29, 0, 4222.051, 4224.615, 4157.949, 4170.769, 4228.205, 0, 0, []
1627802971.5683, 30, 0, 4236.41, 4235.385, 4151.795, 4180, 4235.897, 0, 0, []
1627802971.5761, 31, 0, 4258.974, 4237.436, 4187.179, 4198.462, 4255.897, 0, 0, []
1627802971.5839, 32, 0, 4263.077, 4251.282, 4170.256, 4203.59, 4261.026, 0, 0, []
1627802971.5917, 33, 0, 4253.846, 4257.436, 4179.487, 4194.872, 4252.821, 0, 0, []
1627802971.5997, 34, 0, 4264.615, 4247.179, 4175.385, 4202.051, 4264.103, 0, 0, []
1627802971.6076, 35, 0, 4276.41, 4247.692, 4170.769, 4211.795, 4275.897, 0, 0, []
1627802971.6156, 36, 0, 4262.564, 4248.205, 4182.051, 4202.564, 4261.538, 0, 0, []
1627802971.6234, 37, 0, 4257.949, 4232.821, 4160, 4196.923, 4256.923, 0, 0, []
1627802971.6314, 38, 0, 4267.692, 4230.256, 4189.744, 4202.564, 4268.718, 0, 0, []
1627802971.6393, 39, 0, 4246.154, 4238.974, 4179.487, 4183.077, 4249.231, 0, 0, []
1627802971.6473, 40, 0, 4220.513, 4234.872, 4153.333, 4166.154, 4223.077, 0, 0, []
1627802971.6552, 41, 0, 4237.949, 4228.718, 4190.256, 4190.769, 4236.923, 0, 0, []
1627802971.6631, 42, 0, 4251.795, 4229.744, 4165.128, 4197.436, 4249.744, 0, 0, []
1627802971.671, 43, 0, 4245.128, 4235.385, 4156.923, 4182.051, 4241.538, 0, 0, []
1627802971.6788, 44, 0, 4255.385, 4245.128, 4166.154, 4190.256, 4247.179, 0, 0, []
1627802971.6867, 45, 0, 4274.359, 4258.462, 4164.615, 4202.051, 4258.462, 0, 0, []
1627802971.6945, 46, 0, 4264.615, 4258.974, 4184.103, 4192.308, 4243.077, 0, 0, []
1627802971.7023, 47, 0, 4244.103, 4251.282, 4159.487, 4183.077, 4227.692, 0, 0, []
1627802971.7101, 48, 0, 4248.718, 4242.564, 4176.923, 4189.744, 4238.974, 0, 0, []
1627802971.718, 49, 0, 4275.385, 4236.923, 4191.795, 4203.59, 4257.436, 0, 0, []
1627802971.7258, 50, 0, 4294.359, 4252.308, 4179.487, 4226.154, 4273.846, 0, 0, []
1627802971.7337, 51, 0, 4290.256, 4268.718, 4205.641, 4238.974, 4285.128, 0, 0, []
1627802971.7415, 52, 0, 4276.923, 4264.615, 4188.205, 4226.667, 4275.385, 0, 0, []
1627802971.7494, 53, 0, 4264.615, 4256.41, 4188.205, 4214.359, 4250.256, 0, 0, []
1627802971.7573, 54, 0, 4252.308, 4254.872, 4174.872, 4205.128, 4232.308, 0, 0, []
1627802971.7653, 55, 0, 4244.103, 4235.385, 4135.385, 4189.744, 4228.718, 0, 0, []
1627802971.7732, 56, 0, 4241.538, 4227.692, 4163.077, 4187.692, 4229.231, 0, 0, []
1627802971.7812, 57, 0, 4241.538, 4241.538, 4153.846, 4193.333, 4227.179, 0, 0, []
1627802971.789, 58, 0, 4243.59, 4236.923, 4158.974, 4198.974, 4228.718, 0, 0, []
1627802971.797, 59, 0, 4251.282, 4236.923, 4191.282, 4212.308, 4238.974, 0, 0, []
1627802971.8049, 60, 0, 4244.103, 4231.795, 4166.154, 4205.128, 4232.308, 0, 0, []
1627802971.8129, 61, 0, 4228.718, 4219.487, 4171.795, 4182.051, 4214.359, 0, 0, []
1627802971.8208, 62, 0, 4235.385, 4245.128, 4173.846, 4187.692, 4225.128, 0, 0, []
1627802971.8286, 63, 0, 4241.538, 4267.179, 4177.949, 4205.641, 4239.487, 0, 0, []
1627802971.8365, 64, 0, 4227.179, 4241.026, 4177.436, 4196.923, 4222.051, 450, 0, []
1627802971.8445, 65, 0, 4219.487, 4228.205, 4147.179, 4184.615, 4206.667, 450, 0, []
1627802971.8524, 66, 0, 4223.077, 4227.692, 4169.231, 4189.231, 4214.872, 16186, 0, []
1627802971.8602, 67, 0, 4216.923, 4198.462, 4157.949, 4187.179, 4216.923, 450, 0, []
1627802971.868, 68, 0, 4211.795, 4195.385, 4149.231, 4184.103, 4213.333, 16143, 0, []
1627802971.8758, 69, 0, 4221.026, 4222.564, 4178.462, 4196.923, 4219.487, 450, 0, []
1627802971.8837, 70, 0, 4220.513, 4220, 4152.308, 4197.436, 4215.897, 300, 0, []
1627802971.8915, 71, 0, 4209.231, 4188.718, 4161.538, 4183.077, 4198.974, 450, 0, []
1627802971.8994, 72, 0, 4221.026, 4182.051, 4174.872, 4190.769, 4205.128, 450, 0, []
1627802971.9071, 73, 0, 4237.436, 4214.359, 4168.205, 4207.692, 4222.051, 16158, 0, []
1627802971.9151, 74, 0, 4226.154, 4227.179, 4178.974, 4197.949, 4212.308, 450, 0, []
1627802971.923, 75, 0, 4228.205, 4212.308, 4172.308, 4196.41, 4211.795, 16195, 0, []
1627802971.931, 76, 0, 4265.641, 4217.436, 4204.615, 4225.128, 4245.641, 450, 0, []
1627802971.9389, 77, 0, 4282.564, 4233.846, 4191.795, 4226.154, 4265.128, 450, 0, []
1627802971.9468, 78, 0, 4290.769, 4237.949, 4157.436, 4200.513, 4276.41, 450, 0, []
1627802971.9547, 79, 0, 4359.487, 4251.795, 4186.154, 4206.667, 4337.949, 16195, 0, []
1627802971.9627, 80, 0, 4466.667, 4253.846, 4171.795, 4215.897, 4437.436, 450, 0, []
1627802971.9706, 81, 0, 4558.462, 4224.103, 4182.051, 4207.692, 4527.179, 450, 0, []
1627802971.9786, 82, 0, 4619.487, 4217.949, 4191.795, 4204.103, 4584.615, 450, 0, []
1627802971.9864, 83, 0, 4651.282, 4249.744, 4171.282, 4205.128, 4612.308, 16195, 0, []
1627802971.9942, 84, 0, 4654.359, 4253.846, 4194.359, 4210.256, 4621.026, 450, 0, []
1627802972.0021, 85, 0, 4619.487, 4229.744, 4179.487, 4208.718, 4595.897, 450, 0, []
1627802972.0099, 86, 0, 4576.41, 4231.795, 4185.641, 4209.231, 4552.821, 450, 0, []
1627802972.0178, 87, 0, 4544.615, 4248.205, 4202.051, 4215.385, 4526.667, 16195, 0, []
1627802972.0255, 88, 0, 4512.821, 4260, 4191.282, 4214.359, 4506.667, 450, 0, []
1627802972.0334, 89, 0, 4480, 4262.564, 4203.077, 4214.359, 4475.385, 450, 0, []
1627802972.0412, 90, 0, 4435.385, 4230.256, 4164.615, 4204.615, 4431.282, 450, 0, []
1627802972.0491, 91, 0, 4393.333, 4207.179, 4163.59, 4194.359, 4394.872, 16195, 0, []
1627802972.0569, 92, 0, 4381.538, 4233.333, 4193.333, 4206.154, 4387.179, 450, 0, []
1627802972.0648, 93, 0, 4375.385, 4247.179, 4186.667, 4212.821, 4378.974, 450, 0, []
1627802972.0727, 94, 0, 4350.769, 4226.667, 4196.923, 4195.897, 4349.744, 450, 0, []
1627802972.0807, 95, 0, 4334.872, 4208.205, 4178.974, 4182.564, 4334.872, 16195, 0, []
1627802972.0886, 96, 0, 4333.333, 4205.641, 4189.231, 4190.769, 4335.897, 450, 0, []
1627802972.0966, 97, 0, 4318.974, 4227.692, 4187.179, 4194.359, 4321.026, 450, 0, []
1627802972.1044, 98, 0, 4305.641, 4239.487, 4160, 4189.231, 4303.59, 450, 0, []
1627802972.1124, 99, 0, 4306.154, 4218.462, 4190.256, 4191.795, 4297.949, 16195, 0, []
1627802972.1203, 100, 0, 4302.051, 4218.462, 4180, 4197.949, 4288.205, 450, 0, []
1627802972.1283, 101, 0, 4286.667, 4227.692, 4182.051, 4195.385, 4271.795, 450, 0, []
1627802972.1362, 102, 0, 4272.821, 4226.154, 4187.179, 4186.154, 4257.436, 450, 0, []
1627802972.1439, 103, 0, 4273.846, 4234.359, 4183.077, 4196.923, 4258.462, 16195, 0, []
1627802972.1518, 104, 0, 4276.923, 4237.949, 4212.821, 4217.436, 4266.154, 450, 0, []
1627802972.1596, 105, 0, 4263.59, 4230.769, 4158.974, 4205.128, 4256.923, 450, 0, []
1627802972.1675, 106, 0, 4242.051, 4225.641, 4159.487, 4182.564, 4236.923, 450, 0, []
1627802972.1753, 107, 0, 4239.487, 4218.462, 4184.615, 4190.256, 4231.795, 16195, 0, []
1627802972.1831, 108, 0, 4255.385, 4218.974, 4155.385, 4213.846, 4242.564, 450, 0, []
1627802972.1909, 109, 0, 4246.667, 4244.103, 4191.795, 4212.308, 4241.538, 450, 0, []
1627802972.1988, 110, 0, 4221.026, 4254.872, 4165.128, 4188.718, 4227.179, 450, 0, []
1627802972.2066, 111, 0, 4227.179, 4241.026, 4174.359, 4195.385, 4234.872, 16195, 0, []
1627802972.2146, 112, 0, 4239.487, 4240.513, 4209.231, 4211.282, 4240.513, 450, 0, []
1627802972.2224, 113, 0, 4214.359, 4251.795, 4154.872, 4191.282, 4211.795, 450, 0, []
1627802972.2304, 114, 0, 4193.333, 4249.744, 4192.821, 4185.641, 4191.282, 450, 0, []
1627802972.2383, 115, 0, 4200.513, 4232.821, 4180.513, 4200.513, 4197.436, 16195, 0, []
1627802972.2463, 116, 0, 4203.59, 4233.333, 4155.897, 4207.692, 4205.641, 450, 0, []
1627802972.2542, 117, 0, 4189.744, 4232.308, 4193.846, 4206.154, 4198.974, 450, 0, []
1627802972.2621, 118, 0, 4175.897, 4218.974, 4153.333, 4189.231, 4180, 450, 0, []
1627802972.27, 119, 0, 4186.154, 4222.564, 4176.41, 4186.154, 4176.923, 16195, 0, []
1627802972.278, 120, 0, 4200.513, 4221.026, 4191.282, 4201.538, 4189.744, 450, 0, []
1627802972.2859, 121, 0, 4196.923, 4214.872, 4162.051, 4199.487, 4186.667, 450, 0, []
1627802972.2937, 122, 0, 4200.513, 4242.051, 4187.692, 4193.333, 4187.179, 450, 0, []
1627802972.3015, 123, 0, 4215.897, 4260, 4189.744, 4208.205, 4207.692, 16195, 0, []
1627802972.3093, 124, 0, 4221.026, 4231.795, 4187.179, 4217.436, 4215.897, 450, 0, []
1627802972.3172, 125, 0, 4208.718, 4218.462, 4164.615, 4198.462, 4205.641, 450, 0, []
1627802972.325, 126, 0, 4193.846, 4213.333, 4152.821, 4177.949, 4197.949, 450, 0, []
1627802972.3329, 127, 0, 4215.385, 4206.154, 4184.103, 4189.231, 4216.923, 16195, 0, []
1627802972.3406, 128, 0, 4275.385, 4244.103, 4191.282, 4221.026, 4264.615, 450, 0, []
1627802972.3485, 0, 0, 4301.538, 4269.744, 4188.718, 4216.41, 4289.744, 450, 0, []
1627802972.3563, 1, 0, 4298.462, 4243.077, 4171.795, 4180.513, 4289.744, 450, 0, []
1627802972.3643, 2, 0, 4340, 4224.103, 4179.487, 4180.513, 4323.077, 16186, 0, []
1627802972.3722, 3, 0, 4401.026, 4234.359, 4210.769, 4205.641, 4378.974, 450, 0, []
1627802972.3801, 4, 0, 4443.59, 4243.077, 4189.231, 4199.487, 4425.128, 16143, 0, []
1627802972.388, 5, 0, 4494.872, 4256.923, 4184.103, 4188.205, 4471.795, 450, 0, []
1627802972.396, 6, 0, 4545.641, 4254.359, 4189.231, 4198.974, 4512.308, 294, 0, []
1627802972.4039, 7, 0, 4565.128, 4225.641, 4178.974, 4206.154, 4534.359, 450, 0, []
1627802972.4119, 8, 0, 4566.667, 4230.769, 4193.333, 4207.692, 4544.615, 450, 0, []
1627802972.4197, 9, 0, 4564.103, 4245.128, 4193.846, 4212.821, 4541.538, 16158, 0, []
1627802972.4277, 10, 0, 4540.513, 4234.872, 4198.974, 4201.026, 4514.359, 450, 0, []
1627802972.4356, 11, 0, 4495.385, 4236.41, 4197.949, 4174.359, 4468.205, 16194, 0, []
1627802972.4434, 12, 0, 4456.923, 4250.769, 4187.692, 4168.718, 4424.103, 450, 0, []
1627802972.4513, 13, 0, 4428.718, 4247.179, 4197.949, 4184.103, 4394.872, 450, 0, []
1627802972.459, 14, 0, 4392.308, 4224.103, 4176.923, 4191.282, 4369.744, 450, 0, []
1627802972.4669, 15, 0, 4357.949, 4226.667, 4171.795, 4193.333, 4340.513, 16194, 0, []
1627802972.4747, 16, 0, 4324.103, 4234.872, 4175.385, 4184.103, 4304.103, 0, 0, []
1627802972.4826, 17, 0, 4295.385, 4209.231, 4157.949, 4170.256, 4277.436, 0, 0, []
1627802972.4904, 18, 0, 4301.538, 4196.923, 4184.615, 4189.231, 4290.769, 0, 0, []
1627802972.4983, 19, 0, 4297.949, 4239.487, 4191.282, 4205.641, 4290.256, 0, 0, []
1627802972.5061, 20, 0, 4250.256, 4263.077, 4171.795, 4181.538, 4239.487, 0, 0, []
1627802972.514, 21, 0, 4218.974, 4228.718, 4169.744, 4165.128, 4208.718, 0, 0, []
1627802972.5218, 22, 0, 4223.077, 4220.513, 4162.051, 4171.282, 4212.821, 0, 0, []
1627802972.5298, 23, 0, 4218.974, 4248.718, 4171.795, 4175.897, 4210.769, 0, 0, []
1627802972.5377, 24, 0, 4215.897, 4244.103, 4182.051, 4187.692, 4212.821, 0, 0, []
1627802972.5456, 25, 0, 4216.923, 4212.308, 4198.462, 4197.949, 4208.718, 0, 0, []
1627802972.5535, 26, 0, 4200.513, 4201.026, 4205.128, 4188.205, 4184.615, 0, 0, []
1627802972.5615, 27, 0, 4185.641, 4216.41, 4181.026, 4179.487, 4175.385, 0, 0, []
1627802972.5694, 28, 0, 4178.462, 4230.769, 4177.436, 4177.436, 4177.436, 0, 0, []
1627802972.5774, 29, 0, 4162.051, 4223.077, 4165.641, 4170.256, 4157.436, 0, 0, []
1627802972.5852, 30, 0, 4142.051, 4214.359, 4154.872, 4158.974, 4132.308, 0, 0, []
1627802972.593, 31, 0, 4133.846, 4229.231, 4161.026, 4150.256, 4125.641, 0, 0, []
1627802972.6009, 32, 0, 4139.487, 4235.385, 4147.692, 4157.436, 4133.846, 0, 0, []
1627802972.6087, 33, 0, 4144.615, 4211.795, 4157.949, 4172.821, 4135.385, 0, 0, []
1627802972.6166, 34, 0, 4134.872, 4204.615, 4162.564, 4163.59, 4116.41, 0, 0, []
1627802972.6243, 35, 0, 4121.026, 4226.667, 4150.769, 4147.179, 4097.949, 0, 0, []
1627802972.6322, 36, 0, 4116.923, 4237.949, 4163.077, 4157.436, 4093.846, 0, 0, []
1627802972.64, 37, 0, 4129.744, 4236.41, 4167.692, 4172.308, 4098.974, 0, 0, []
1627802972.6479, 38, 0, 4145.128, 4228.205, 4172.308, 4167.692, 4105.641, 0, 0, []
1627802972.6557, 39, 0, 4152.821, 4228.718, 4172.821, 4166.667, 4112.308, 0, 0, []
1627802972.6636, 40, 0, 4155.897, 4252.821, 4178.462, 4185.128, 4124.103, 0, 0, []
1627802972.6715, 41, 0, 4144.103, 4253.846, 4193.333, 4188.205, 4124.615, 0, 0, []
1627802972.6795, 42, 0, 4132.308, 4218.974, 4177.436, 4171.795, 4105.128, 0, 0, []
1627802972.6874, 43, 0, 4131.282, 4209.744, 4178.974, 4167.179, 4090.256, 0, 0, []
1627802972.6954, 44, 0, 4131.795, 4232.308, 4186.154, 4170.769, 4095.385, 0, 0, []
1627802972.7032, 45, 0, 4133.333, 4248.718, 4176.41, 4173.846, 4105.641, 0, 0, []
1627802972.7112, 46, 0, 4140, 4245.641, 4188.718, 4186.154, 4109.231, 0, 0, []
1627802972.7191, 47, 0, 4140.513, 4235.385, 4175.385, 4191.795, 4110.769, 0, 0, []
1627802972.7271, 48, 0, 4128.205, 4238.462, 4161.538, 4171.795, 4103.59, 0, 0, []
1627802972.735, 49, 0, 4116.41, 4245.641, 4165.641, 4155.897, 4090.769, 0, 0, []
1627802972.7429, 50, 0, 4109.744, 4237.949, 4152.821, 4150.256, 4077.436, 0, 0, []
1627802972.7508, 51, 0, 4102.051, 4224.103, 4151.795, 4140, 4067.179, 0, 0, []
1627802972.7588, 52, 0, 4096.41, 4230.256, 4148.205, 4143.077, 4064.103, 0, 0, []
1627802972.7667, 53, 0, 4101.538, 4233.333, 4160.513, 4162.051, 4064.615, 0, 0, []
1627802972.7745, 54, 0, 4119.487, 4214.872, 4183.59, 4173.333, 4069.744, 0, 0, []
1627802972.7824, 55, 0, 4125.128, 4220.513, 4173.846, 4169.744, 4077.949, 0, 0, []
1627802972.7903, 56, 0, 4120.513, 4242.051, 4171.795, 4169.744, 4081.538, 0, 0, []
1627802972.7982, 57, 0, 4126.154, 4233.846, 4168.718, 4167.179, 4078.974, 0, 0, []
1627802972.8061, 58, 0, 4136.41, 4232.308, 4167.692, 4160, 4085.641, 0, 0, []
1627802972.8141, 59, 0, 4139.487, 4248.718, 4173.846, 4154.359, 4094.872, 0, 0, []
1627802972.822, 60, 0, 4135.385, 4224.103, 4168.718, 4150.256, 4081.538, 0, 0, []
1627802972.8299, 61, 0, 4137.436, 4211.282, 4171.282, 4154.872, 4081.026, 0, 0, []
1627802972.8379, 62, 0, 4156.923, 4236.41, 4154.359, 4156.41, 4124.103, 0, 0, []
1627802972.8458, 63, 0, 4189.744, 4214.359, 4144.615, 4152.821, 4180, 0, 0, []
1627802972.8538, 64, 0, 4230.769, 4192.821, 4162.051, 4157.949, 4231.282, 450, 0, []
1627802972.8616, 65, 0, 4283.59, 4213.333, 4158.974, 4168.205, 4298.974, 450, 0, []
1627802972.8696, 66, 0, 4341.538, 4205.128, 4166.667, 4175.897, 4369.744, 16186, 0, []
1627802972.8775, 67, 0, 4379.487, 4186.154, 4169.231, 4185.641, 4414.359, 450, 0, []
1627802972.8855, 68, 0, 4398.462, 4190.769, 4166.667, 4198.462, 4452.821, 16143, 0, []
1627802972.8934, 69, 0, 4399.487, 4185.128, 4184.615, 4204.615, 4477.949, 450, 0, []
1627802972.9013, 70, 0, 4366.154, 4181.538, 4177.949, 4202.051, 4461.026, 293, 0, []
1627802972.9092, 71, 0, 4307.692, 4179.487, 4174.359, 4200.513, 4425.128, 450, 0, []
1627802972.9172, 72, 0, 4253.846, 4162.564, 4171.282, 4205.641, 4393.333, 450, 0, []
1627802972.9251, 73, 0, 4212.821, 4172.821, 4165.641, 4214.872, 4358.974, 16158, 0, []
1627802972.9331, 74, 0, 4170.256, 4186.667, 4181.538, 4220, 4318.462, 450, 0, []
1627802972.9409, 75, 0, 4127.179, 4162.051, 4172.308, 4217.949, 4280, 16194, 0, []
1627802972.9489, 76, 0, 4092.821, 4152.821, 4170.769, 4211.795, 4243.077, 450, 0, []
1627802972.9568, 77, 0, 4064.103, 4182.564, 4178.462, 4202.564, 4210.769, 450, 0, []
1627802972.9648, 78, 0, 4046.667, 4190.769, 4172.308, 4191.282, 4187.692, 450, 0, []
1627802972.9727, 79, 0, 4042.564, 4157.436, 4183.077, 4191.795, 4167.692, 16194, 0, []
1627802972.9806, 80, 0, 4036.923, 4141.026, 4178.974, 4197.436, 4150.256, 450, 0, []
1627802972.9885, 81, 0, 4025.128, 4160.513, 4170.256, 4191.795, 4133.846, 450, 0, []
1627802972.9965, 82, 0, 4022.051, 4166.154, 4168.205, 4181.026, 4117.949, 450, 0, []
1627802973.0045, 83, 0, 4025.128, 4145.641, 4163.077, 4175.385, 4110.256, 16194, 0, []
1627802973.0124, 84, 0, 4025.128, 4161.026, 4169.744, 4177.949, 4107.692, 450, 0, []
1627802973.0203, 85, 0, 4031.282, 4207.179, 4160.513, 4184.615, 4104.615, 450, 0, []
1627802973.0282, 86, 0, 4035.385, 4210.256, 4162.564, 4182.051, 4096.923, 450, 0, []
1627802973.0362, 87, 0, 4031.282, 4205.641, 4169.231, 4177.949, 4089.744, 16194, 0, []
1627802973.0441, 88, 0, 4036.923, 4235.897, 4160, 4189.231, 4091.795, 450, 0, []
1627802973.0521, 89, 0, 4047.179, 4245.128, 4182.051, 4208.205, 4098.974, 450, 0, []
1627802973.0599, 90, 0, 4052.821, 4232.821, 4190.769, 4221.538, 4107.179, 450, 0, []
1627802973.0679, 91, 0, 4064.615, 4232.821, 4180, 4226.154, 4109.231, 16194, 0, []
1627802973.0758, 92, 0, 4076.41, 4216.41, 4182.051, 4219.487, 4101.026, 450, 0, []
1627802973.0838, 93, 0, 4072.821, 4205.128, 4182.051, 4212.821, 4095.385, 450, 0, []
1627802973.0917, 94, 0, 4065.128, 4230.256, 4196.41, 4220, 4096.41, 450, 0, []
1627802973.0996, 95, 0, 4060.513, 4225.128, 4191.282, 4215.897, 4086.154, 16194, 0, []
1627802973.1075, 96, 0, 4056.41, 4199.487, 4186.667, 4198.974, 4075.385, 450, 0, []
1627802973.1155, 97, 0, 4067.179, 4209.744, 4199.487, 4202.564, 4090.769, 450, 0, []
1627802973.1234, 98, 0, 4093.333, 4227.179, 4193.333, 4216.923, 4111.795, 450, 0, []
1627802973.1314, 99, 0, 4109.231, 4244.615, 4205.641, 4220, 4116.923, 16194, 0, []
1627802973.1393, 100, 0, 4104.615, 4256.923, 4208.205, 4214.872, 4115.897, 450, 0, []
1627802973.1472, 101, 0, 4091.282, 4231.282, 4196.923, 4207.692, 4106.154, 450, 0, []
1627802973.1551, 102, 0, 4088.205, 4218.462, 4206.154, 4204.103, 4091.795, 450, 0, []
1627802973.1631, 103, 0, 4096.923, 4246.667, 4199.487, 4207.179, 4091.795, 16194, 0, []
1627802973.1711, 104, 0, 4105.128, 4247.692, 4194.359, 4201.538, 4098.462, 450, 0, []
1627802973.1789, 105, 0, 4107.179, 4220.513, 4194.359, 4192.821, 4097.949, 450, 0, []
1627802973.1869, 106, 0, 4105.128, 4205.641, 4185.128, 4191.282, 4090.256, 450, 0, []
1627802973.1948, 107, 0, 4104.103, 4212.821, 4182.051, 4187.179, 4082.564, 16194, 0, []
1627802973.2028, 108, 0, 4106.667, 4231.795, 4175.897, 4190.769, 4084.103, 450, 0, []
1627802973.2107, 109, 0, 4105.128, 4221.538, 4190.769, 4206.154, 4083.077, 450, 0, []
1627802973.2186, 110, 0, 4107.692, 4206.667, 4201.026, 4207.179, 4080.513, 450, 0, []
1627802973.2265, 111, 0, 4128.205, 4223.077, 4193.846, 4200, 4102.051, 16194, 0, []
1627802973.2345, 112, 0, 4141.538, 4236.923, 4207.692, 4203.077, 4122.564, 450, 0, []
1627802973.2424, 113, 0, 4130.769, 4251.282, 4205.641, 4197.949, 4108.205, 450, 0, []
1627802973.2504, 114, 0, 4121.538, 4262.051, 4198.974, 4185.128, 4088.718, 450, 0, []
1627802973.2582, 115, 0, 4120, 4222.564, 4193.846, 4182.051, 4087.692, 16194, 0, []
1627802973.2662, 116, 0, 4120.513, 4185.641, 4176.41, 4190.256, 4091.282, 450, 0, []
1627802973.2741, 117, 0, 4129.231, 4224.615, 4186.154, 4206.667, 4095.385, 450, 0, []
1627802973.2821, 118, 0, 4132.821, 4256.923, 4189.744, 4212.821, 4095.385, 450, 0, []
1627802973.2901, 119, 0, 4123.59, 4222.564, 4195.897, 4201.026, 4093.846, 16194, 0, []
1627802973.2979, 120, 0, 4122.564, 4204.103, 4207.179, 4187.179, 4102.051, 450, 0, []
1627802973.3059, 121, 0, 4133.846, 4241.538, 4190.769, 4173.846, 4111.282, 450, 0, []
1627802973.3138, 122, 0, 4145.641, 4262.051, 4200, 4161.026, 4112.308, 450, 0, []
1627802973.3218, 123, 0, 4153.333, 4233.333, 4205.128, 4148.205, 4114.359, 16194, 0, []
1627802973.3297, 124, 0, 4149.744, 4226.667, 4189.231, 4141.026, 4112.308, 450, 0, []
1627802973.3376, 125, 0, 4139.487, 4252.821, 4198.462, 4167.692, 4104.103, 450, 0, []
1627802973.3455, 126, 0, 4138.462, 4272.821, 4214.359, 4223.077, 4108.718, 450, 0, []
1627802973.3535, 127, 0, 4139.487, 4281.026, 4224.103, 4244.103, 4122.051, 16194, 0, []
1627802973.3614, 128, 0, 4137.436, 4273.333, 4207.179, 4226.154, 4130.256, 450, 0, []
1627802973.3694, 0, 0, 4151.282, 4258.974, 4206.154, 4228.718, 4145.128, 450, 0, []
1627802973.3772, 1, 0, 4171.795, 4257.949, 4226.154, 4242.051, 4165.128, 450, 0, []
1627802973.3852, 2, 0, 4163.59, 4252.821, 4196.41, 4221.026, 4155.897, 16186, 0, []
1627802973.3931, 3, 0, 4135.385, 4231.795, 4172.821, 4192.308, 4122.564, 450, 0, []
1627802973.4011, 4, 0, 4125.128, 4222.564, 4180, 4183.077, 4105.641, 16143, 0, []
1627802973.409, 5, 0, 4131.795, 4240.513, 4194.872, 4178.462, 4104.615, 450, 0, []
1627802973.417, 6, 0, 4137.436, 4278.974, 4209.744, 4180, 4103.59, 297, 0, []
1627802973.4248, 7, 0, 4134.359, 4295.897, 4191.282, 4194.872, 4105.641, 450, 0, []
1627802973.4328, 8, 0, 4126.154, 4262.564, 4187.692, 4203.59, 4113.846, 450, 0, []
1627802973.4407, 9, 0, 4126.154, 4246.667, 4194.359, 4197.949, 4118.974, 16158, 0, []
1627802973.4485, 10, 0, 4137.436, 4270.256, 4182.564, 4193.846, 4122.564, 450, 0, []
1627802973.4565, 11, 0, 4143.59, 4267.179, 4188.718, 4196.41, 4120.513, 16194, 0, []
1627802973.4643, 12, 0, 4130.769, 4247.179, 4184.103, 4185.641, 4108.205, 450, 0, []
1627802973.4723, 13, 0, 4123.077, 4252.308, 4176.923, 4173.333, 4107.692, 450, 0, []
1627802973.4802, 14, 0, 4133.333, 4257.436, 4176.41, 4183.077, 4127.692, 450, 0, []
1627802973.4881, 15, 0, 4135.897, 4252.821, 4173.333, 4192.821, 4139.487, 16194, 0, []
1627802973.4961, 16, 0, 4125.641, 4251.282, 4188.205, 4189.231, 4129.231, 0, 0, []
1627802973.504, 17, 0, 4121.538, 4255.385, 4183.077, 4186.667, 4116.923, 0, 0, []
1627802973.5119, 18, 0, 4123.077, 4261.026, 4177.436, 4190.769, 4111.795, 0, 0, []
1627802973.5199, 19, 0, 4120, 4248.718, 4187.179, 4196.41, 4112.308, 0, 0, []
1627802973.5278, 20, 0, 4120.513, 4223.59, 4185.641, 4194.872, 4114.359, 0, 0, []
1627802973.5358, 21, 0, 4115.385, 4226.667, 4190.256, 4191.282, 4108.718, 0, 0, []
1627802973.5436, 22, 0, 4107.179, 4245.128, 4178.974, 4194.359, 4102.564, 0, 0, []
1627802973.5516, 23, 0, 4114.359, 4250.769, 4187.692, 4199.487, 4103.59, 0, 0, []
1627802973.5595, 24, 0, 4124.103, 4263.59, 4211.282, 4199.487, 4107.179, 0, 0, []
1627802973.5675, 25, 0, 4122.051, 4265.641, 4190.769, 4195.385, 4113.333, 0, 0, []
1627802973.5754, 26, 0, 4123.077, 4249.744, 4182.564, 4197.436, 4122.051, 0, 0, []
1627802973.5833, 27, 0, 4130.769, 4227.179, 4189.744, 4204.103, 4126.667, 0, 0, []
1627802973.5912, 28, 0, 4131.282, 4221.026, 4195.897, 4209.231, 4124.615, 0, 0, []
1627802973.599, 29, 0, 4125.128, 4241.538, 4200.513, 4206.667, 4123.077, 0, 0, []
1627802973.607, 30, 0, 4121.026, 4250.769, 4177.949, 4196.41, 4121.538, 0, 0, []
1627802973.6149, 31, 0, 4119.487, 4243.59, 4178.462, 4190.256, 4117.949, 0, 0, []
1627802973.6228, 32, 0, 4124.615, 4245.641, 4182.564, 4191.282, 4117.949, 0, 0, []
1627802973.6307, 33, 0, 4128.205, 4249.744, 4174.872, 4191.795, 4122.051, 0, 0, []
1627802973.6387, 34, 0, 4123.59, 4244.615, 4185.128, 4197.436, 4124.615, 0, 0, []
1627802973.6466, 35, 0, 4125.641, 4245.641, 4177.949, 4198.974, 4121.538, 0, 0, []
1627802973.6546, 36, 0, 4144.103, 4246.667, 4183.077, 4193.333, 4124.103, 0, 0, []
1627802973.6624, 37, 0, 4160.513, 4244.103, 4188.205, 4202.564, 4138.462, 0, 0, []
1627802973.6704, 38, 0, 4149.744, 4233.846, 4163.59, 4214.872, 4140, 0, 0, []
1627802973.6783, 39, 0, 4137.949, 4210.769, 4183.59, 4205.641, 4130.769, 0, 0, []
1627802973.6863, 40, 0, 4140, 4203.59, 4192.308, 4195.385, 4129.744, 0, 0, []
1627802973.6942, 41, 0, 4131.282, 4212.821, 4123.077, 4195.897, 4127.692, 0, 0, []
1627802973.7021, 42, 0, 4127.692, 4222.564, 4135.385, 4183.077, 4119.487, 0, 0, []
1627802973.71, 43, 0, 4149.744, 4229.744, 4205.128, 4175.897, 4123.59, 0, 0, []
1627802973.718, 44, 0, 4163.59, 4226.154, 4186.667, 4189.744, 4129.231, 0, 0, []
1627802973.7259, 45, 0, 4152.821, 4218.462, 4163.077, 4189.231, 4119.487, 0, 0, []
1627802973.7337, 46, 0, 4147.692, 4212.821, 4174.872, 4175.897, 4118.974, 0, 0, []
1627802973.7415, 47, 0, 4155.385, 4207.179, 4170.256, 4184.103, 4135.385, 0, 0, []
1627802973.7493, 48, 0, 4158.974, 4223.077, 4179.487, 4198.974, 4139.487, 0, 0, []
1627802973.7572, 49, 0, 4155.897, 4238.974, 4201.026, 4196.923, 4127.179, 0, 0, []
1627802973.765, 50, 0, 4150.769, 4209.231, 4177.436, 4190.769, 4122.051, 0, 0, []
1627802973.773, 51, 0, 4150.256, 4197.949, 4171.282, 4190.769, 4126.154, 0, 0, []
1627802973.7808, 52, 0, 4149.231, 4229.231, 4190.769, 4195.897, 4125.641, 0, 0, []
1627802973.7888, 53, 0, 4152.308, 4228.718, 4175.385, 4200, 4128.205, 0, 0, []
1627802973.7967, 54, 0, 4162.564, 4208.205, 4193.846, 4200.513, 4138.462, 0, 0, []
1627802973.8047, 55, 0, 4154.359, 4217.949, 4191.282, 4191.282, 4135.385, 0, 0, []
1627802973.8126, 56, 0, 4133.846, 4223.59, 4163.59, 4175.897, 4123.59, 0, 0, []
1627802973.8205, 57, 0, 4136.41, 4211.795, 4176.923, 4173.333, 4121.538, 0, 0, []
1627802973.8284, 58, 0, 4153.846, 4217.436, 4177.949, 4180, 4125.641, 0, 0, []
1627802973.8364, 59, 0, 4152.821, 4236.41, 4196.923, 4189.744, 4131.282, 0, 0, []
1627802973.8443, 60, 0, 4142.564, 4237.436, 4206.154, 4195.385, 4139.487, 0, 0, []
1627802973.8523, 61, 0, 4141.026, 4219.487, 4182.051, 4193.846, 4134.872, 0, 0, []
1627802973.8601, 62, 0, 4140.513, 4217.436, 4190.256, 4187.179, 4121.538, 0, 0, []
1627802973.8681, 63, 0, 4140.513, 4231.795, 4193.333, 4188.205, 4121.538, 0, 0, []
1627802973.876, 64, 0, 4147.179, 4235.897, 4188.718, 4191.795, 4126.667, 450, 0, []
1627802973.8838, 65, 0, 4152.308, 4233.846, 4194.872, 4184.103, 4119.487, 450, 0, []
1627802973.8917, 66, 0, 4154.872, 4230.256, 4192.308, 4180, 4114.872, 16186, 0, []
1627802973.8996, 67, 0, 4166.667, 4234.872, 4193.333, 4190.769, 4127.692, 450, 0, []
1627802973.9075, 68, 0, 4180.513, 4249.231, 4184.103, 4195.385, 4142.051, 16143, 0, []
1627802973.9153, 69, 0, 4169.231, 4253.846, 4192.308, 4191.795, 4138.462, 450, 0, []
1627802973.9233, 70, 0, 4156.923, 4243.077, 4205.128, 4196.41, 4133.846, 295, 0, []
1627802973.9312, 71, 0, 4180, 4232.821, 4195.385, 4200, 4150.769, 450, 0, []
1627802973.9391, 72, 0, 4207.692, 4226.154, 4201.026, 4191.795, 4166.667, 450, 0, []
1627802973.947, 73, 0, 4206.667, 4227.179, 4187.179, 4181.026, 4164.103, 16158, 0, []
1627802973.955, 74, 0, 4198.462, 4237.436, 4186.667, 4176.923, 4164.615, 450, 0, []
1627802973.9629, 75, 0, 4204.103, 4234.359, 4203.077, 4187.692, 4175.385, 16194, 0, []
1627802973.9709, 76, 0, 4203.59, 4228.205, 4162.564, 4196.41, 4171.795, 450, 0, []
1627802973.9787, 77, 0, 4190.769, 4243.077, 4182.564, 4192.821, 4156.41, 450, 0, []
1627802973.9867, 78, 0, 4183.077, 4250.256, 4212.821, 4191.282, 4151.282, 450, 0, []
1627802973.9946, 79, 0, 4183.59, 4232.308, 4152.308, 4194.872, 4155.385, 16194, 0, []
1627802974.0026, 80, 0, 4183.59, 4223.59, 4186.154, 4190.769, 4151.795, 450, 0, []
1627802974.0105, 81, 0, 4179.487, 4257.436, 4196.41, 4185.641, 4137.949, 450, 0, []
1627802974.0184, 82, 0, 4181.026, 4283.59, 4156.41, 4204.103, 4142.051, 450, 0, []
1627802974.0263, 83, 0, 4191.282, 4257.949, 4212.821, 4220.513, 4160.513, 16194, 0, []
1627802974.0341, 84, 0, 4183.59, 4245.128, 4195.897, 4200.513, 4154.872, 450, 0, []
1627802974.042, 85, 0, 4165.641, 4260.513, 4176.41, 4183.59, 4140.513, 450, 0, []
1627802974.0498, 86, 0, 4171.282, 4258.462, 4196.41, 4194.359, 4155.897, 450, 0, []
1627802974.0576, 87, 0, 4190.256, 4246.154, 4190.256, 4201.538, 4173.333, 16194, 0, []
1627802974.0654, 88, 0, 4188.205, 4247.179, 4197.949, 4193.846, 4158.974, 450, 0, []
1627802974.0734, 89, 0, 4173.846, 4244.103, 4188.205, 4187.692, 4144.103, 450, 0, []
1627802974.0813, 90, 0, 4177.949, 4240.513, 4196.41, 4197.949, 4152.308, 450, 0, []
1627802974.0892, 91, 0, 4180, 4255.385, 4189.231, 4218.462, 4152.308, 16194, 0, []
1627802974.0969, 92, 0, 4184.103, 4254.872, 4200, 4229.231, 4160, 450, 0, []
1627802974.1049, 93, 0, 4228.718, 4260.513, 4209.744, 4225.641, 4208.718, 450, 0, []
1627802974.1128, 94, 0, 4278.974, 4289.231, 4187.692, 4224.103, 4260.513, 450, 0, []
1627802974.1208, 95, 0, 4280.513, 4283.077, 4215.897, 4228.718, 4269.231, 16194, 0, []
1627802974.1287, 96, 0, 4252.821, 4253.846, 4196.41, 4222.564, 4250.256, 450, 0, []
1627802974.1366, 97, 0, 4238.974, 4254.359, 4183.59, 4211.282, 4234.359, 450, 0, []
1627802974.1445, 98, 0, 4236.41, 4265.128, 4205.641, 4207.692, 4228.205, 450, 0, []
1627802974.1525, 99, 0, 4235.385, 4244.615, 4189.744, 4208.718, 4224.615, 16194, 0, []
1627802974.1604, 100, 0, 4235.897, 4241.538, 4202.564, 4214.359, 4220.513, 450, 0, []
1627802974.1684, 101, 0, 4232.308, 4274.359, 4189.231, 4209.744, 4215.385, 450, 0, []
1627802974.1762, 102, 0, 4224.615, 4275.897, 4190.256, 4188.205, 4200, 450, 0, []
1627802974.184, 103, 0, 4215.385, 4242.564, 4205.128, 4177.949, 4182.564, 16194, 0, []
1627802974.1919, 104, 0, 4210.769, 4227.692, 4167.692, 4188.718, 4188.718, 450, 0, []
1627802974.1997, 105, 0, 4212.821, 4247.179, 4193.846, 4200, 4201.026, 450, 0, []
1627802974.2076, 106, 0, 4214.872, 4267.692, 4204.103, 4203.077, 4193.333, 450, 0, []
1627802974.2153, 107, 0, 4211.795, 4257.436, 4187.692, 4207.692, 4180.513, 16194, 0, []
1627802974.2232, 108, 0, 4201.538, 4226.154, 4192.821, 4197.436, 4171.282, 450, 0, []
1627802974.231, 109, 0, 4192.821, 4215.897, 4167.179, 4175.385, 4168.718, 450, 0, []
1627802974.2389, 110, 0, 4202.051, 4246.154, 4190.769, 4188.205, 4181.538, 450, 0, []
1627802974.2467, 111, 0, 4214.872, 4261.026, 4196.41, 4210.256, 4193.333, 16194, 0, []
1627802974.2547, 112, 0, 4214.359, 4230.256, 4183.59, 4199.487, 4181.538, 450, 0, []
1627802974.2625, 113, 0, 4214.359, 4229.231, 4203.59, 4192.821, 4175.897, 450, 0, []
1627802974.2705, 114, 0, 4218.462, 4262.564, 4184.103, 4205.128, 4191.282, 450, 0, []
1627802974.2784, 115, 0, 4210.256, 4265.128, 4193.846, 4205.641, 4197.949, 16194, 0, []
1627802974.2864, 116, 0, 4201.026, 4239.487, 4182.051, 4196.41, 4186.667, 450, 0, []
1627802974.2943, 117, 0, 4197.436, 4223.077, 4163.077, 4190.769, 4172.821, 450, 0, []
1627802974.3022, 118, 0, 4193.846, 4234.872, 4190.769, 4191.282, 4168.205, 450, 0, []
1627802974.3101, 119, 0, 4189.231, 4250.769, 4166.154, 4193.333, 4167.692, 16194, 0, []
1627802974.3181, 120, 0, 4185.128, 4227.179, 4172.308, 4194.872, 4169.744, 450, 0, []
1627802974.326, 121, 0, 4177.949, 4204.103, 4178.462, 4188.205, 4165.128, 450, 0, []
1627802974.334, 122, 0, 4169.744, 4237.436, 4161.026, 4177.436, 4150.256, 450, 0, []
1627802974.3418, 123, 0, 4175.897, 4254.359, 4184.615, 4184.615, 4149.744, 16194, 0, []
1627802974.3496, 124, 0, 4187.692, 4227.692, 4160, 4184.615, 4168.718, 450, 0, []
1627802974.3575, 125, 0, 4185.128, 4241.538, 4166.154, 4178.974, 4176.41, 450, 0, []
1627802974.3653, 126, 0, 4182.051, 4273.846, 4189.744, 4189.231, 4168.205, 450, 0, []
1627802974.3732, 127, 0, 4207.692, 4267.179, 4176.923, 4202.051, 4183.077, 16194, 0, []
1627802974.3809, 128, 0, 4241.538, 4249.231, 4192.821, 4200.513, 4210.769, 450, 0, []
1627802974.3888, 0, 0, 4237.436, 4235.385, 4169.231, 4189.744, 4208.205, 450, 0, []
1627802974.3966, 1, 0, 4219.487, 4228.205, 4183.077, 4195.385, 4200, 450, 0, []
1627802974.4046, 2, 0, 4217.949, 4236.41, 4202.564, 4205.128, 4203.077, 16186, 0, []
1627802974.4125, 3, 0, 4211.795, 4241.538, 4164.103, 4200.513, 4193.846, 450, 0, []
1627802974.4204, 4, 0, 4201.026, 4251.795, 4184.103, 4198.974, 4184.103, 16143, 0, []
1627802974.4283, 5, 0, 4207.179, 4266.154, 4176.923, 4202.051, 4185.128, 450, 0, []
1627802974.4363, 6, 0, 4216.923, 4252.821, 4173.333, 4203.077, 4190.256, 295, 0, []
1627802974.4442, 7, 0, 4207.179, 4229.744, 4186.154, 4202.564, 4194.872, 450, 0, []
1627802974.4522, 8, 0, 4195.897, 4232.308, 4156.41, 4203.077, 4192.821, 450, 0, []
1627802974.46, 9, 0, 4200.513, 4248.205, 4180.513, 4201.538, 4183.077, 16161, 0, []
1627802974.468, 10, 0, 4205.128, 4270.256, 4181.026, 4202.051, 4183.59, 450, 0, []
1627802974.4759, 11, 0, 4204.103, 4274.872, 4172.821, 4201.538, 4189.744, 16217, 0, []
1627802974.4837, 12, 0, 4201.026, 4254.872, 4186.667, 4194.359, 4186.154, 450, 0, []
1627802974.4916, 13, 0, 4198.974, 4241.026, 4164.103, 4197.949, 4183.59, 450, 0, []
1627802974.4993, 14, 0, 4198.462, 4239.487, 4180.513, 4207.692, 4182.564, 450, 0, []
1627802974.5072, 15, 0, 4193.333, 4245.128, 4170.256, 4186.667, 4173.846, 16217, 0, []
1627802974.5151, 16, 0, 4177.949, 4242.564, 4166.154, 4163.59, 4160.513, 0, 0, []
1627802974.523, 17, 0, 4168.718, 4237.436, 4188.718, 4176.41, 4154.872, 0, 0, []
1627802974.531, 18, 0, 4184.103, 4249.744, 4153.846, 4186.667, 4171.795, 0, 0, []
1627802974.5389, 19, 0, 4211.795, 4267.692, 4171.282, 4185.641, 4198.974, 0, 0, []
1627802974.5468, 20, 0, 4217.949, 4266.154, 4181.538, 4190.769, 4205.641, 0, 0, []
1627802974.5548, 21, 0, 4202.564, 4254.359, 4169.231, 4187.179, 4188.718, 0, 0, []
1627802974.5627, 22, 0, 4200, 4248.205, 4197.436, 4185.641, 4182.564, 0, 0, []
1627802974.5707, 23, 0, 4205.641, 4241.026, 4172.821, 4196.923, 4189.744, 0, 0, []
1627802974.5785, 24, 0, 4194.872, 4244.615, 4174.872, 4202.051, 4184.615, 0, 0, []
1627802974.5865, 25, 0, 4182.564, 4243.077, 4178.974, 4192.821, 4173.846, 0, 0, []
1627802974.5944, 26, 0, 4183.59, 4246.667, 4163.59, 4185.641, 4175.385, 0, 0, []
1627802974.6024, 27, 0, 4188.205, 4264.615, 4186.667, 4182.564, 4182.051, 0, 0, []
1627802974.6103, 28, 0, 4185.128, 4251.282, 4161.538, 4174.872, 4175.897, 0, 0, []
1627802974.6182, 29, 0, 4174.872, 4233.846, 4168.205, 4173.333, 4166.667, 0, 0, []
1627802974.6261, 30, 0, 4174.872, 4256.41, 4181.538, 4174.359, 4167.692, 0, 0, []
1627802974.6339, 31, 0, 4188.205, 4268.205, 4158.462, 4174.359, 4169.744, 0, 0, []
1627802974.6418, 32, 0, 4197.436, 4234.872, 4176.923, 4184.103, 4170.256, 0, 0, []
1627802974.6496, 33, 0, 4190.256, 4221.026, 4158.462, 4187.692, 4173.333, 0, 0, []
1627802974.6574, 34, 0, 4177.949, 4250.769, 4168.205, 4175.897, 4169.744, 0, 0, []
1627802974.6652, 35, 0, 4176.923, 4263.59, 4193.846, 4168.205, 4156.923, 0, 0, []
1627802974.6731, 36, 0, 4181.026, 4244.615, 4182.564, 4182.051, 4152.308, 0, 0, []
1627802974.6809, 37, 0, 4180.513, 4229.231, 4203.59, 4202.051, 4158.462, 0, 0, []
1627802974.6888, 38, 0, 4169.231, 4236.41, 4172.308, 4189.231, 4154.359, 0, 0, []
1627802974.6965, 39, 0, 4164.615, 4247.179, 4170.256, 4167.179, 4144.103, 0, 0, []
1627802974.7045, 40, 0, 4185.128, 4259.487, 4203.59, 4180, 4155.897, 0, 0, []
1627802974.7124, 41, 0, 4194.872, 4267.692, 4182.564, 4192.308, 4165.641, 0, 0, []
1627802974.7204, 42, 0, 4173.846, 4254.359, 4196.41, 4177.436, 4148.205, 0, 0, []
1627802974.7283, 43, 0, 4157.949, 4247.179, 4181.538, 4163.59, 4137.436, 0, 0, []
1627802974.7362, 44, 0, 4171.282, 4266.667, 4173.846, 4172.308, 4153.333, 0, 0, []
1627802974.7441, 45, 0, 4181.538, 4280, 4193.333, 4181.026, 4157.436, 0, 0, []
1627802974.7521, 46, 0, 4171.282, 4262.051, 4165.641, 4175.897, 4141.538, 0, 0, []
1627802974.76, 47, 0, 4168.205, 4262.051, 4182.051, 4170.769, 4140.513, 0, 0, []
1627802974.768, 48, 0, 4180.513, 4283.077, 4178.462, 4167.179, 4148.718, 0, 0, []
1627802974.7758, 49, 0, 4189.231, 4268.205, 4168.205, 4165.641, 4146.667, 0, 0, []
1627802974.7838, 50, 0, 4181.538, 4240, 4187.692, 4175.385, 4145.128, 0, 0, []
1627802974.7917, 51, 0, 4172.308, 4244.103, 4167.179, 4188.718, 4144.103, 0, 0, []
1627802974.7995, 52, 0, 4173.333, 4252.821, 4181.538, 4187.692, 4133.846, 0, 0, []
1627802974.8074, 53, 0, 4168.718, 4248.205, 4171.282, 4172.308, 4122.051, 0, 0, []
1627802974.8151, 54, 0, 4155.385, 4264.615, 4151.795, 4164.103, 4119.487, 0, 0, []
1627802974.823, 55, 0, 4152.821, 4262.564, 4174.872, 4163.59, 4121.538, 0, 0, []
1627802974.8308, 56, 0, 4158.974, 4230.256, 4153.333, 4160, 4128.718, 0, 0, []
1627802974.8387, 57, 0, 4163.59, 4233.846, 4173.333, 4160, 4133.846, 0, 0, []
1627802974.8465, 58, 0, 4164.615, 4247.692, 4176.41, 4163.077, 4130.256, 0, 0, []
1627802974.8543, 59, 0, 4168.205, 4245.128, 4152.821, 4175.385, 4133.333, 0, 0, []
1627802974.8621, 60, 0, 4180, 4267.692, 4187.692, 4200, 4151.282, 0, 0, []
1627802974.8701, 61, 0, 4183.077, 4276.923, 4175.385, 4206.154, 4159.487, 0, 0, []
1627802974.878, 62, 0, 4172.308, 4246.154, 4175.385, 4192.821, 4152.821, 0, 0, []
1627802974.886, 63, 0, 4174.359, 4242.051, 4171.795, 4187.179, 4150.769, 0, 0, []
1627802974.8938, 64, 0, 4188.718, 4262.051, 4151.795, 4183.59, 4155.385, 450, 0, []
1627802974.9018, 65, 0, 4188.205, 4246.154, 4185.641, 4169.231, 4157.436, 450, 0, []
1627802974.9097, 66, 0, 4179.487, 4238.462, 4163.59, 4154.359, 4154.872, 16186, 0, []
1627802974.9177, 67, 0, 4186.667, 4269.744, 4157.949, 4165.128, 4151.282, 450, 0, []
1627802974.9256, 68, 0, 4181.026, 4274.872, 4175.897, 4184.103, 4141.538, 16143, 0, []
1627802974.9335, 69, 0, 4161.026, 4249.231, 4160, 4182.564, 4132.821, 450, 0, []
1627802974.9414, 70, 0, 4171.795, 4245.641, 4189.744, 4183.59, 4142.051, 296, 0, []
1627802974.9492, 71, 0, 4193.333, 4247.692, 4182.564, 4192.308, 4163.077, 450, 0, []
1627802974.9571, 72, 0, 4192.308, 4240, 4175.385, 4196.41, 4172.821, 450, 0, []
1627802974.9649, 73, 0, 4190.769, 4253.333, 4176.41, 4194.872, 4168.718, 16161, 0, []
1627802974.9727, 74, 0, 4198.462, 4263.59, 4152.308, 4191.282, 4167.179, 450, 0, []
1627802974.9805, 75, 0, 4200, 4237.949, 4184.103, 4187.692, 4170.769, 16205, 0, []
1627802974.9884, 76, 0, 4197.949, 4221.026, 4169.231, 4175.897, 4170.769, 450, 0, []
1627802974.9962, 77, 0, 4202.051, 4244.615, 4160.513, 4171.795, 4173.846, 450, 0, []
1627802975.0041, 78, 0, 4206.667, 4269.231, 4185.128, 4185.128, 4185.128, 450, 0, []
1627802975.0118, 79, 0, 4203.077, 4259.487, 4157.436, 4189.744, 4191.795, 16205, 0, []
1627802975.0198, 80, 0, 4201.026, 4247.692, 4172.308, 4190.256, 4191.282, 450, 0, []
1627802975.0277, 81, 0, 4204.103, 4256.923, 4172.821, 4193.333, 4191.795, 450, 0, []
1627802975.0357, 82, 0, 4196.923, 4245.128, 4167.179, 4186.667, 4187.692, 450, 0, []
1627802975.0436, 83, 0, 4186.154, 4208.718, 4184.103, 4174.359, 4183.59, 16205, 0, []
1627802975.0516, 84, 0, 4187.692, 4215.897, 4158.974, 4159.487, 4180, 450, 0, []
1627802975.0594, 85, 0, 4186.154, 4255.897, 4183.59, 4139.487, 4171.795, 450, 0, []
1627802975.0674, 86, 0, 4185.128, 4258.974, 4186.667, 4128.205, 4172.308, 450, 0, []
1627802975.0753, 87, 0, 4192.821, 4241.538, 4165.128, 4144.615, 4185.641, 16205, 0, []
1627802975.0833, 88, 0, 4197.949, 4241.538, 4185.641, 4178.462, 4193.846, 450, 0, []
1627802975.0912, 89, 0, 4203.077, 4252.821, 4170.769, 4203.077, 4197.436, 450, 0, []
1627802975.0989, 90, 0, 4210.769, 4244.103, 4187.692, 4213.846, 4203.077, 450, 0, []
1627802975.1068, 91, 0, 4202.564, 4235.897, 4181.026, 4208.205, 4199.487, 16205, 0, []
1627802975.1146, 92, 0, 4195.385, 4252.308, 4152.821, 4195.385, 4197.436, 450, 0, []
1627802975.1225, 93, 0, 4213.846, 4263.077, 4176.41, 4188.718, 4204.615, 450, 0, []
1627802975.1303, 94, 0, 4217.949, 4263.59, 4153.333, 4181.538, 4204.103, 450, 0, []
1627802975.1381, 95, 0, 4201.026, 4250.256, 4164.103, 4181.026, 4201.026, 16205, 0, []
1627802975.1459, 96, 0, 4200.513, 4230.769, 4182.051, 4193.333, 4197.949, 450, 0, []
1627802975.1538, 97, 0, 4214.872, 4242.564, 4164.615, 4206.667, 4196.923, 450, 0, []
1627802975.1616, 98, 0, 4221.538, 4266.154, 4187.179, 4213.846, 4211.282, 450, 0, []
1627802975.1696, 99, 0, 4216.923, 4258.974, 4173.333, 4212.308, 4225.641, 16205, 0, []
1627802975.1774, 100, 0, 4212.308, 4239.487, 4178.462, 4203.59, 4216.41, 450, 0, []
1627802975.1854, 101, 0, 4220.513, 4240, 4177.436, 4193.333, 4213.333, 450, 0, []
1627802975.1933, 102, 0, 4232.821, 4233.846, 4143.077, 4184.615, 4226.154, 450, 0, []
1627802975.2013, 103, 0, 4227.692, 4226.667, 4168.718, 4182.051, 4226.154, 16205, 0, []
1627802975.2092, 104, 0, 4212.821, 4235.385, 4153.846, 4183.077, 4215.385, 450, 0, []
1627802975.2171, 105, 0, 4204.615, 4228.205, 4147.692, 4183.59, 4207.692, 450, 0, []
1627802975.225, 106, 0, 4201.026, 4210.256, 4167.179, 4181.538, 4201.538, 450, 0, []
1627802975.233, 107, 0, 4202.051, 4210.256, 4146.154, 4181.026, 4195.897, 16205, 0, []
1627802975.2409, 108, 0, 4198.974, 4217.949, 4167.692, 4182.051, 4187.692, 450, 0, []
1627802975.2489, 109, 0, 4191.282, 4211.795, 4158.462, 4171.795, 4182.051, 450, 0, []
1627802975.2567, 110, 0, 4194.359, 4203.59, 4156.41, 4168.718, 4187.692, 450, 0, []
1627802975.2645, 111, 0, 4206.667, 4223.59, 4181.026, 4186.154, 4192.308, 16205, 0, []
1627802975.2724, 112, 0, 4208.205, 4238.462, 4155.897, 4188.205, 4185.128, 450, 0, []
1627802975.2802, 113, 0, 4203.59, 4214.359, 4175.897, 4181.538, 4182.564, 450, 0, []
1627802975.2881, 114, 0, 4203.077, 4205.641, 4169.744, 4185.128, 4186.667, 450, 0, []
1627802975.2958, 115, 0, 4195.385, 4225.641, 4146.667, 4180.513, 4183.077, 16205, 0, []
1627802975.3037, 116, 0, 4188.205, 4227.179, 4158.974, 4166.154, 4181.538, 450, 0, []
1627802975.3115, 117, 0, 4202.564, 4217.436, 4145.641, 4168.205, 4194.359, 450, 0, []
1627802975.3194, 118, 0, 4218.462, 4223.077, 4174.872, 4183.59, 4201.026, 450, 0, []
1627802975.3272, 119, 0, 4207.179, 4213.333, 4168.718, 4178.974, 4192.821, 16205, 0, []
1627802975.335, 120, 0, 4196.923, 4213.846, 4149.231, 4173.333, 4192.308, 450, 0, []
1627802975.3428, 121, 0, 4207.179, 4238.462, 4180, 4186.667, 4206.154, 450, 0, []
1627802975.3508, 122, 0, 4205.641, 4228.205, 4154.872, 4185.128, 4199.487, 450, 0, []
1627802975.3587, 123, 0, 4196.41, 4214.359, 4160, 4174.359, 4183.077, 16205, 0, []
1627802975.3667, 124, 0, 4204.615, 4226.667, 4173.333, 4183.59, 4192.821, 450, 0, []
1627802975.3745, 125, 0, 4209.231, 4214.872, 4173.846, 4197.949, 4200.513, 450, 0, []
1627802975.3825, 126, 0, 4209.231, 4207.692, 4203.59, 4201.026, 4193.846, 450, 0, []
1627802975.3904, 127, 0, 4211.282, 4246.667, 4174.359, 4197.949, 4195.897, 16205, 0, []
1627802975.3984, 128, 0, 4204.615, 4249.231, 4179.487, 4194.359, 4204.615, 450, 0, []
1627802975.4063, 0, 0, 4199.487, 4213.333, 4192.308, 4191.282, 4204.103, 450, 0, []
1627802975.414, 1, 0, 4205.641, 4229.231, 4173.846, 4190.256, 4197.949, 450, 0, []
1627802975.4219, 2, 0, 4207.692, 4255.897, 4194.872, 4194.872, 4200, 16186, 0, []
1627802975.4297, 3, 0, 4209.231, 4239.487, 4167.179, 4197.436, 4207.692, 450, 0, []
1627802975.4376, 4, 0, 4213.333, 4219.487, 4164.103, 4190.769, 4211.282, 16143, 0, []
1627802975.4454, 5, 0, 4206.154, 4222.564, 4170.769, 4181.538, 4200.513, 450, 0, []
1627802975.4532, 6, 0, 4195.385, 4222.051, 4145.641, 4176.923, 4189.231, 299, 0, []
1627802975.461, 7, 0, 4197.436, 4223.59, 4179.487, 4178.462, 4192.821, 450, 0, []
1627802975.4689, 8, 0, 4204.615, 4227.692, 4169.744, 4171.282, 4199.487, 450, 0, []
1627802975.4767, 9, 0, 4211.795, 4217.949, 4165.641, 4171.795, 4198.974, 16161, 0, []
1627802975.4846, 10, 0, 4213.333, 4213.333, 4182.564, 4186.154, 4197.436, 450, 0, []
1627802975.4923, 11, 0, 4204.615, 4220.513, 4155.897, 4189.231, 4192.821, 16202, 0, []
1627802975.5003, 12, 0, 4202.564, 4233.846, 4173.333, 4187.692, 4188.718, 450, 0, []
1627802975.5082, 13, 0, 4199.487, 4238.974, 4161.026, 4183.077, 4183.59, 450, 0, []
1627802975.5162, 14, 0, 4195.385, 4220, 4152.821, 4175.897, 4183.077, 450, 0, []
1627802975.5241, 15, 0, 4206.667, 4196.41, 4170.256, 4175.897, 4194.359, 16202, 0, []
1627802975.532, 16, 0, 4213.333, 4204.615, 4154.872, 4179.487, 4203.077, 0, 0, []
1627802975.5399, 17, 0, 4208.718, 4231.282, 4183.59, 4185.641, 4203.077, 0, 0, []
1627802975.5479, 18, 0, 4215.385, 4226.154, 4173.846, 4186.667, 4204.103, 0, 0, []
1627802975.5558, 19, 0, 4232.821, 4210.769, 4162.564, 4182.564, 4209.744, 0, 0, []
1627802975.5638, 20, 0, 4237.949, 4214.359, 4182.051, 4185.641, 4207.692, 0, 0, []
1627802975.5716, 21, 0, 4231.282, 4223.077, 4149.231, 4185.641, 4202.051, 0, 0, []
1627802975.5794, 22, 0, 4222.564, 4233.333, 4163.59, 4184.103, 4201.026, 0, 0, []
1627802975.5873, 23, 0, 4212.821, 4233.846, 4159.487, 4184.615, 4199.487, 0, 0, []
1627802975.5951, 24, 0, 4212.308, 4217.949, 4143.59, 4183.59, 4194.359, 0, 0, []
1627802975.603, 25, 0, 4220, 4208.205, 4177.436, 4181.538, 4192.821, 0, 0, []
1627802975.6107, 26, 0, 4221.538, 4224.103, 4167.692, 4186.154, 4198.974, 0, 0, []
1627802975.6186, 27, 0, 4218.462, 4247.692, 4181.538, 4195.897, 4205.128, 0, 0, []
1627802975.6264, 28, 0, 4218.462, 4245.641, 4177.436, 4195.897, 4205.641, 0, 0, []
1627802975.6343, 29, 0, 4213.333, 4217.436, 4156.41, 4188.205, 4200, 0, 0, []
1627802975.6421, 30, 0, 4202.564, 4207.692, 4174.359, 4180.513, 4191.795, 0, 0, []
1627802975.65, 31, 0, 4203.59, 4222.564, 4149.231, 4174.359, 4188.205, 0, 0, []
1627802975.6579, 32, 0, 4206.154, 4217.436, 4163.59, 4176.923, 4183.077, 0, 0, []
1627802975.6659, 33, 0, 4202.564, 4211.282, 4176.41, 4182.051, 4177.436, 0, 0, []
1627802975.6738, 34, 0, 4203.077, 4227.692, 4161.538, 4182.051, 4178.974, 0, 0, []
1627802975.6818, 35, 0, 4209.231, 4230.256, 4186.667, 4180, 4186.154, 0, 0, []
1627802975.6896, 36, 0, 4209.744, 4213.846, 4160, 4177.436, 4191.282, 0, 0, []
1627802975.6976, 37, 0, 4207.179, 4210.256, 4166.667, 4175.897, 4192.308, 0, 0, []
1627802975.7055, 38, 0, 4202.564, 4224.615, 4174.872, 4165.641, 4185.128, 0, 0, []
1627802975.7135, 39, 0, 4191.795, 4219.487, 4140.513, 4155.385, 4178.462, 0, 0, []
1627802975.7214, 40, 0, 4191.282, 4201.026, 4176.41, 4168.205, 4186.154, 0, 0, []
1627802975.7291, 41, 0, 4197.949, 4223.59, 4174.872, 4176.923, 4186.667, 0, 0, []
1627802975.737, 42, 0, 4199.487, 4253.846, 4170.256, 4172.821, 4177.949, 0, 0, []
1627802975.7448, 43, 0, 4193.846, 4234.872, 4182.564, 4176.923, 4180, 0, 0, []
1627802975.7527, 44, 0, 4183.59, 4214.359, 4154.359, 4176.41, 4178.462, 0, 0, []
1627802975.7605, 45, 0, 4188.205, 4234.872, 4176.923, 4176.923, 4176.41, 0, 0, []
1627802975.7684, 46, 0, 4200.513, 4244.615, 4171.795, 4180, 4185.128, 0, 0, []
1627802975.7761, 47, 0, 4200, 4220, 4164.103, 4172.308, 4187.692, 0, 0, []
1627802975.7841, 48, 0, 4195.385, 4212.821, 4169.744, 4165.128, 4178.974, 0, 0, []
1627802975.792, 49, 0, 4195.897, 4237.436, 4145.641, 4165.641, 4175.385, 0, 0, []
1627802975.8, 50, 0, 4202.564, 4253.846, 4175.897, 4179.487, 4187.179, 0, 0, []
1627802975.8079, 51, 0, 4209.744, 4245.641, 4162.564, 4197.436, 4202.051, 0, 0, []
1627802975.8157, 52, 0, 4208.718, 4222.564, 4142.051, 4197.949, 4201.026, 0, 0, []
1627802975.8235, 53, 0, 4205.641, 4215.385, 4173.333, 4187.179, 4189.744, 0, 0, []
1627802975.8315, 54, 0, 4211.282, 4236.41, 4164.103, 4185.128, 4193.333, 0, 0, []
1627802975.8394, 55, 0, 4221.026, 4252.308, 4178.462, 4188.718, 4204.103, 0, 0, []
1627802975.8474, 56, 0, 4224.615, 4249.231, 4167.179, 4174.872, 4201.026, 0, 0, []
1627802975.8552, 57, 0, 4222.051, 4240.513, 4154.872, 4163.077, 4192.821, 0, 0, []
1627802975.8632, 58, 0, 4218.462, 4229.231, 4173.846, 4169.744, 4188.718, 0, 0, []
1627802975.8711, 59, 0, 4209.231, 4236.923, 4150.256, 4178.462, 4183.077, 0, 0, []
1627802975.879, 60, 0, 4202.051, 4256.41, 4177.949, 4189.231, 4182.051, 0, 0, []
1627802975.8869, 61, 0, 4207.179, 4246.154, 4185.128, 4198.974, 4188.718, 0, 0, []
1627802975.8946, 62, 0, 4217.949, 4238.462, 4167.692, 4201.026, 4201.026, 0, 0, []
1627802975.9025, 63, 0, 4222.051, 4257.436, 4197.949, 4193.333, 4205.128, 0, 0, []
1627802975.9103, 64, 0, 4221.026, 4258.462, 4172.821, 4177.949, 4198.974, 450, 0, []
1627802975.9182, 65, 0, 4221.026, 4241.026, 4172.308, 4166.154, 4197.949, 450, 0, []
1627802975.926, 66, 0, 4216.41, 4234.359, 4175.897, 4155.385, 4198.974, 16186, 0, []
1627802975.9338, 67, 0, 4214.359, 4234.872, 4160, 4155.897, 4198.462, 450, 0, []
1627802975.9416, 68, 0, 4217.949, 4236.41, 4190.256, 4185.128, 4204.103, 16143, 0, []
1627802975.9495, 69, 0, 4216.923, 4230.256, 4175.897, 4208.718, 4209.744, 450, 0, []
1627802975.9573, 70, 0, 4214.872, 4229.744, 4185.641, 4205.128, 4207.692, 297, 0, []
1627802975.9653, 71, 0, 4206.154, 4236.41, 4189.231, 4197.436, 4197.949, 450, 0, []
1627802975.9731, 72, 0, 4189.744, 4218.974, 4146.154, 4187.179, 4195.385, 450, 0, []
1627802975.9811, 73, 0, 4189.231, 4215.385, 4163.59, 4173.333, 4211.282, 16161, 0, []
1627802975.989, 74, 0, 4202.564, 4249.231, 4154.359, 4164.103, 4222.051, 450, 0, []
1627802975.997, 75, 0, 4202.051, 4258.974, 4158.974, 4170.256, 4213.846, 16202, 0, []
1627802976.0049, 76, 0, 4197.436, 4240.513, 4177.436, 4185.128, 4210.769, 450, 0, []
1627802976.0128, 77, 0, 4204.615, 4227.179, 4160.513, 4191.282, 4215.385, 450, 0, []
1627802976.0207, 78, 0, 4210.256, 4213.333, 4178.974, 4193.333, 4213.333, 450, 0, []
1627802976.0287, 79, 0, 4205.641, 4226.667, 4151.795, 4195.897, 4211.795, 16202, 0, []
1627802976.0366, 80, 0, 4203.077, 4258.974, 4148.718, 4199.487, 4215.385, 450, 0, []
1627802976.0444, 81, 0, 4208.205, 4242.051, 4182.051, 4199.487, 4216.923, 450, 0, []
1627802976.0522, 82, 0, 4213.846, 4216.923, 4160, 4191.795, 4213.333, 450, 0, []
1627802976.06, 83, 0, 4208.205, 4239.487, 4169.744, 4184.615, 4208.718, 16202, 0, []
1627802976.0679, 84, 0, 4188.718, 4247.179, 4152.308, 4177.949, 4195.385, 450, 0, []
1627802976.0757, 85, 0, 4177.949, 4226.154, 4149.744, 4184.615, 4182.564, 450, 0, []
1627802976.0836, 86, 0, 4185.641, 4227.179, 4182.051, 4200, 4188.205, 450, 0, []
1627802976.0913, 87, 0, 4189.231, 4235.385, 4156.923, 4196.41, 4193.333, 16202, 0, []
1627802976.0992, 88, 0, 4189.231, 4227.692, 4171.795, 4182.051, 4188.205, 450, 0, []
1627802976.107, 89, 0, 4198.462, 4233.333, 4166.667, 4174.872, 4192.821, 450, 0, []
1627802976.115, 90, 0, 4201.538, 4248.205, 4150.769, 4166.154, 4200, 450, 0, []
1627802976.1229, 91, 0, 4194.872, 4236.923, 4172.821, 4153.333, 4192.308, 16202, 0, []
1627802976.1308, 92, 0, 4195.897, 4233.333, 4153.846, 4152.821, 4190.256, 450, 0, []
1627802976.1387, 93, 0, 4204.103, 4249.231, 4181.026, 4172.821, 4200, 450, 0, []
1627802976.1467, 94, 0, 4210.256, 4244.103, 4192.821, 4194.359, 4209.744, 450, 0, []
1627802976.1546, 95, 0, 4217.436, 4227.179, 4178.462, 4205.128, 4216.923, 16202, 0, []
1627802976.1626, 96, 0, 4223.077, 4227.179, 4200.513, 4205.128, 4212.308, 450, 0, []
1627802976.1704, 97, 0, 4214.359, 4234.872, 4171.795, 4189.231, 4200, 450, 0, []
1627802976.1784, 98, 0, 4204.615, 4242.051, 4169.744, 4178.462, 4198.462, 450, 0, []
1627802976.1863, 99, 0, 4206.667, 4246.667, 4168.718, 4178.974, 4201.026, 16202, 0, []
1627802976.1941, 100, 0, 4214.872, 4243.59, 4155.385, 4180.513, 4196.923, 450, 0, []
1627802976.202, 101, 0, 4217.949, 4248.718, 4185.128, 4182.564, 4195.385, 450, 0, []
1627802976.2097, 102, 0, 4212.308, 4249.744, 4158.462, 4174.359, 4193.846, 450, 0, []
1627802976.2176, 103, 0, 4215.897, 4244.103, 4162.564, 4175.897, 4195.897, 16202, 0, []
1627802976.2254, 104, 0, 4228.718, 4250.256, 4182.051, 4192.308, 4202.051, 450, 0, []
1627802976.2333, 105, 0, 4228.718, 4242.051, 4164.615, 4197.436, 4203.59, 450, 0, []
1627802976.2411, 106, 0, 4230.256, 4224.103, 4188.205, 4194.872, 4207.692, 450, 0, []
1627802976.249, 107, 0, 4242.051, 4226.154, 4177.949, 4194.872, 4217.949, 16202, 0, []
1627802976.2569, 108, 0, 4240.513, 4238.974, 4183.077, 4197.436, 4219.487, 450, 0, []
1627802976.2649, 109, 0, 4229.231, 4250.769, 4191.282, 4196.923, 4216.923, 450, 0, []
1627802976.2728, 110, 0, 4232.308, 4243.077, 4163.59, 4193.333, 4220.513, 450, 0, []
1627802976.2808, 111, 0, 4237.949, 4228.718, 4188.718, 4194.872, 4224.103, 16202, 0, []
1627802976.2886, 112, 0, 4225.641, 4235.385, 4173.846, 4194.359, 4218.974, 450, 0, []
1627802976.2966, 113, 0, 4211.795, 4227.179, 4166.154, 4185.641, 4205.641, 450, 0, []
1627802976.3045, 114, 0, 4215.897, 4201.538, 4185.641, 4180, 4199.487, 450, 0, []
1627802976.3125, 115, 0, 4228.718, 4210.769, 4168.205, 4186.667, 4212.308, 16202, 0, []
1627802976.3204, 116, 0, 4237.436, 4245.641, 4193.333, 4194.872, 4223.59, 450, 0, []
1627802976.3283, 117, 0, 4231.795, 4257.949, 4184.615, 4191.795, 4215.385, 450, 0, []
1627802976.3362, 118, 0, 4221.026, 4235.385, 4173.846, 4183.077, 4204.103, 450, 0, []
1627802976.344, 119, 0, 4223.59, 4211.282, 4193.333, 4182.051, 4208.205, 16202, 0, []
1627802976.3519, 120, 0, 4236.41, 4232.308, 4167.179, 4186.667, 4224.103, 450, 0, []
1627802976.3597, 121, 0, 4240, 4251.795, 4185.128, 4194.872, 4234.872, 450, 0, []
1627802976.3675, 122, 0, 4233.846, 4218.974, 4177.949, 4192.308, 4228.205, 450, 0, []
1627802976.3753, 123, 0, 4223.077, 4203.077, 4161.538, 4178.974, 4214.359, 16202, 0, []
1627802976.3832, 124, 0, 4211.795, 4233.846, 4183.077, 4171.282, 4203.077, 450, 0, []
1627802976.391, 125, 0, 4210.769, 4244.103, 4151.282, 4172.308, 4200, 450, 0, []
1627802976.3989, 126, 0, 4217.949, 4210.256, 4163.077, 4177.949, 4201.026, 450, 0, []
1627802976.4066, 127, 0, 4217.949, 4206.667, 4172.821, 4177.949, 4199.487, 16202, 0, []
1627802976.4146, 128, 0, 4216.41, 4245.128, 4165.128, 4178.462, 4198.462, 450, 0, []
1627802976.4225, 0, 0, 4221.026, 4255.385, 4192.821, 4186.154, 4201.538, 450, 0, []
1627802976.4305, 1, 0, 4219.487, 4232.821, 4162.051, 4182.051, 4200.513, 450, 0, []
1627802976.4384, 2, 0, 4212.308, 4220, 4161.026, 4169.231, 4197.436, 16136, 0, []
1627802976.4463, 3, 0, 4210.769, 4223.59, 4175.385, 4171.795, 4200, 450, 0, []
1627802976.4542, 4, 0, 4213.846, 4222.564, 4166.154, 4183.077, 4202.564, 16143, 0, []
1627802976.4622, 5, 0, 4218.462, 4225.128, 4185.128, 4184.615, 4204.103, 450, 0, []
1627802976.4701, 6, 0, 4214.359, 4242.051, 4161.026, 4176.923, 4196.41, 297, 0, []
1627802976.4781, 7, 0, 4204.615, 4246.667, 4171.282, 4178.462, 4185.128, 450, 0, []
1627802976.4859, 8, 0, 4210.769, 4229.231, 4184.615, 4188.205, 4192.308, 450, 0, []
1627802976.4938, 9, 0, 4223.59, 4216.41, 4166.154, 4189.744, 4204.103, 16161, 0, []
1627802976.5017, 10, 0, 4218.462, 4231.795, 4199.487, 4188.205, 4197.949, 450, 0, []
1627802976.5096, 11, 0, 4201.026, 4248.718, 4172.308, 4176.41, 4182.051, 16202, 0, []
1627802976.5176, 12, 0, 4195.385, 4243.59, 4152.821, 4161.026, 4170.256, 450, 0, []
1627802976.5253, 13, 0, 4206.667, 4231.282, 4172.308, 4168.718, 4175.385, 450, 0, []
1627802976.5332, 14, 0, 4216.41, 4222.564, 4161.026, 4184.615, 4193.846, 450, 0, []
1627802976.541, 15, 0, 4220, 4221.026, 4176.923, 4185.641, 4205.128, 16202, 0, []
1627802976.5489, 16, 0, 4225.641, 4223.59, 4160, 4182.564, 4208.718, 0, 0, []
1627802976.5567, 17, 0, 4237.436, 4245.128, 4174.359, 4192.821, 4216.41, 0, 0, []
1627802976.5647, 18, 0, 4238.462, 4262.051, 4200.513, 4197.436, 4221.026, 0, 0, []
1627802976.5725, 19, 0, 4231.282, 4231.795, 4164.103, 4185.128, 4212.821, 0, 0, []
1627802976.5805, 20, 0, 4234.359, 4206.667, 4183.59, 4181.538, 4202.051, 0, 0, []
1627802976.5884, 21, 0, 4231.795, 4240.513, 4178.974, 4184.615, 4198.462, 0, 0, []
1627802976.5964, 22, 0, 4221.538, 4267.692, 4173.846, 4184.103, 4203.077, 0, 0, []
1627802976.6043, 23, 0, 4217.949, 4240.513, 4195.385, 4180.513, 4203.59, 0, 0, []
1627802976.6122, 24, 0, 4214.359, 4218.974, 4166.667, 4174.359, 4195.897, 0, 0, []
1627802976.6201, 25, 0, 4210.769, 4232.821, 4183.077, 4180, 4197.436, 0, 0, []
1627802976.6281, 26, 0, 4215.385, 4243.077, 4178.462, 4186.154, 4201.026, 0, 0, []
1627802976.636, 27, 0, 4213.846, 4241.026, 4164.615, 4180, 4189.744, 0, 0, []
1627802976.6438, 28, 0, 4201.538, 4243.59, 4189.744, 4176.923, 4180.513, 0, 0, []
1627802976.6516, 29, 0, 4206.154, 4243.59, 4169.231, 4183.077, 4191.282, 0, 0, []
1627802976.6594, 30, 0, 4222.564, 4240, 4185.128, 4187.692, 4199.487, 0, 0, []
1627802976.6673, 31, 0, 4223.59, 4252.821, 4184.103, 4180.513, 4193.846, 0, 0, []
1627802976.6751, 32, 0, 4218.974, 4264.103, 4169.744, 4177.949, 4196.41, 0, 0, []
1627802976.683, 33, 0, 4224.103, 4254.359, 4195.385, 4190.769, 4207.692, 0, 0, []
1627802976.6907, 34, 0, 4221.538, 4222.564, 4168.205, 4194.872, 4204.615, 0, 0, []
1627802976.6986, 35, 0, 4209.231, 4206.667, 4177.949, 4184.615, 4188.718, 0, 0, []
1627802976.7064, 36, 0, 4209.231, 4232.821, 4190.256, 4181.538, 4188.718, 0, 0, []
1627802976.7144, 37, 0, 4216.41, 4245.128, 4167.179, 4183.59, 4202.051, 0, 0, []
1627802976.7223, 38, 0, 4217.949, 4238.462, 4176.923, 4177.436, 4201.026, 0, 0, []
1627802976.7302, 39, 0, 4215.385, 4251.282, 4153.333, 4166.154, 4187.179, 0, 0, []
1627802976.7381, 40, 0, 4206.154, 4251.282, 4167.179, 4165.128, 4175.897, 0, 0, []
1627802976.7461, 41, 0, 4200.513, 4226.154, 4181.538, 4168.718, 4174.359, 0, 0, []
1627802976.754, 42, 0, 4205.641, 4231.282, 4158.974, 4174.359, 4178.462, 0, 0, []
1627802976.762, 43, 0, 4208.205, 4247.179, 4183.077, 4187.179, 4184.615, 0, 0, []
1627802976.7698, 44, 0, 4206.667, 4246.154, 4164.615, 4192.308, 4191.795, 0, 0, []
1627802976.7778, 45, 0, 4213.846, 4258.462, 4169.231, 4191.795, 4192.821, 0, 0, []
1627802976.7857, 46, 0, 4218.462, 4255.385, 4187.692, 4195.897, 4187.692, 0, 0, []
1627802976.7935, 47, 0, 4213.333, 4239.487, 4163.077, 4200, 4189.231, 0, 0, []
1627802976.8014, 48, 0, 4213.333, 4250.256, 4185.128, 4200.513, 4200.513, 0, 0, []
1627802976.8091, 49, 0, 4217.949, 4256.923, 4169.231, 4191.282, 4202.564, 0, 0, []
1627802976.817, 50, 0, 4213.333, 4241.026, 4166.667, 4188.718, 4195.385, 0, 0, []
1627802976.8248, 51, 0, 4204.103, 4239.487, 4187.179, 4197.436, 4193.333, 0, 0, []
1627802976.8327, 52, 0, 4197.949, 4249.744, 4164.103, 4191.282, 4187.179, 0, 0, []
1627802976.8405, 53, 0, 4202.564, 4251.282, 4188.205, 4182.564, 4183.077, 0, 0, []
1627802976.8483, 54, 0, 4211.795, 4248.205, 4178.974, 4189.231, 4191.282, 0, 0, []
1627802976.8561, 55, 0, 4211.795, 4249.744, 4173.846, 4198.462, 4202.051, 0, 0, []
1627802976.864, 56, 0, 4211.282, 4264.103, 4192.308, 4194.872, 4201.538, 0, 0, []
1627802976.8718, 57, 0, 4209.231, 4262.051, 4162.051, 4186.154, 4191.282, 0, 0, []
1627802976.8798, 58, 0, 4206.154, 4256.923, 4180, 4192.821, 4195.385, 0, 0, []
1627802976.8876, 59, 0, 4206.154, 4272.308, 4173.333, 4200, 4202.051, 0, 0, []
1627802976.8956, 60, 0, 4205.128, 4261.026, 4155.385, 4195.385, 4190.769, 0, 0, []
1627802976.9035, 61, 0, 4205.641, 4225.128, 4179.487, 4196.41, 4185.128, 0, 0, []
1627802976.9115, 62, 0, 4213.846, 4236.923, 4157.949, 4201.026, 4195.897, 0, 0, []
1627802976.9194, 63, 0, 4223.077, 4278.974, 4175.897, 4205.641, 4208.718, 0, 0, []
1627802976.9273, 64, 0, 4218.974, 4266.667, 4181.538, 4202.564, 4214.872, 450, 0, []
1627802976.9352, 65, 0, 4215.385, 4235.385, 4168.718, 4193.846, 4218.462, 450, 0, []
1627802976.9432, 66, 0, 4220, 4251.795, 4193.846, 4197.436, 4218.462, 16175, 0, []
1627802976.9511, 67, 0, 4212.308, 4257.949, 4161.026, 4201.026, 4213.333, 450, 0, []
1627802976.9591, 68, 0, 4202.051, 4229.744, 4164.615, 4194.359, 4207.692, 16144, 0, []
1627802976.9669, 69, 0, 4208.205, 4242.564, 4174.872, 4200.513, 4210.256, 450, 0, []
1627802976.9747, 70, 0, 4214.872, 4270.769, 4163.077, 4213.333, 4220.513, 16098, 0, []
1627802976.9826, 71, 0, 4208.205, 4242.051, 4190.769, 4209.231, 4218.974, 450, 0, []
1627802976.9904, 72, 0, 4201.026, 4223.077, 4172.308, 4191.282, 4203.077, 450, 0, []
1627802976.9983, 73, 0, 4201.026, 4247.692, 4177.949, 4181.538, 4195.385, 16161, 0, []
1627802977.006, 74, 0, 4201.538, 4251.282, 4184.615, 4186.667, 4205.641, 450, 0, []
1627802977.0139, 75, 0, 4200.513, 4237.436, 4168.718, 4196.41, 4208.718, 16202, 0, []
1627802977.0217, 76, 0, 4199.487, 4238.974, 4200.513, 4200, 4201.026, 450, 0, []
1627802977.0297, 77, 0, 4198.462, 4232.308, 4178.462, 4197.949, 4204.615, 450, 0, []
1627802977.0376, 78, 0, 4202.051, 4222.564, 4171.795, 4203.077, 4215.897, 450, 0, []
1627802977.0455, 79, 0, 4208.205, 4237.949, 4181.538, 4199.487, 4211.282, 16202, 0, []
1627802977.0534, 80, 0, 4208.718, 4255.385, 4161.026, 4186.154, 4200.513, 450, 0, []
1627802977.0614, 81, 0, 4206.667, 4244.615, 4186.154, 4193.846, 4202.051, 450, 0, []
1627802977.0693, 82, 0, 4198.462, 4210.769, 4162.564, 4197.436, 4196.923, 450, 0, []
1627802977.0773, 83, 0, 4187.692, 4201.538, 4147.692, 4182.051, 4184.615, 16202, 0, []
1627802977.0851, 84, 0, 4182.564, 4220.513, 4157.949, 4174.359, 4182.051, 450, 0, []
1627802977.0931, 85, 0, 4181.538, 4228.718, 4130.769, 4170.769, 4183.077, 450, 0, []
1627802977.101, 86, 0, 4184.103, 4225.128, 4166.667, 4167.692, 4180.513, 450, 0, []
1627802977.1088, 87, 0, 4190.769, 4229.744, 4172.821, 4166.154, 4178.462, 16202, 0, []
1627802977.1167, 88, 0, 4198.974, 4241.026, 4167.179, 4171.282, 4188.718, 450, 0, []
1627802977.1244, 89, 0, 4202.564, 4236.923, 4189.231, 4185.128, 4202.564, 450, 0, []
1627802977.1323, 90, 0, 4203.077, 4223.077, 4164.103, 4193.333, 4206.154, 450, 0, []
1627802977.1401, 91, 0, 4198.462, 4216.923, 4170.256, 4192.821, 4199.487, 16202, 0, []
1627802977.148, 92, 0, 4192.308, 4231.795, 4156.41, 4191.795, 4196.923, 450, 0, []
1627802977.1558, 93, 0, 4198.974, 4246.154, 4156.923, 4191.282, 4204.103, 450, 0, []
1627802977.1636, 94, 0, 4207.179, 4223.077, 4186.154, 4180.513, 4204.615, 450, 0, []
1627802977.1714, 95, 0, 4201.026, 4207.179, 4152.308, 4168.718, 4204.615, 16202, 0, []
1627802977.1793, 96, 0, 4198.974, 4226.667, 4169.231, 4177.436, 4215.897, 450, 0, []
1627802977.1871, 97, 0, 4199.487, 4238.462, 4172.308, 4185.128, 4216.923, 450, 0, []
1627802977.1951, 98, 0, 4188.718, 4231.795, 4153.333, 4180.513, 4202.051, 450, 0, []
1627802977.2029, 99, 0, 4186.667, 4229.231, 4182.564, 4185.128, 4203.59, 16202, 0, []
1627802977.2109, 100, 0, 4200, 4233.846, 4170.769, 4195.897, 4218.974, 450, 0, []
1627802977.2188, 101, 0, 4201.538, 4247.179, 4189.231, 4202.051, 4220.513, 450, 0, []
1627802977.2268, 102, 0, 4189.744, 4255.897, 4184.615, 4194.872, 4208.205, 450, 0, []
1627802977.2347, 103, 0, 4182.564, 4241.026, 4152.821, 4181.026, 4196.41, 16202, 0, []
1627802977.2426, 104, 0, 4186.667, 4220.513, 4182.051, 4185.128, 4196.923, 450, 0, []
1627802977.2505, 105, 0, 4195.897, 4214.359, 4172.821, 4196.41, 4210.769, 450, 0, []
1627802977.2585, 106, 0, 4197.436, 4217.949, 4180, 4195.385, 4215.385, 450, 0, []
1627802977.2664, 107, 0, 4191.795, 4229.231, 4184.615, 4189.744, 4212.308, 16202, 0, []
1627802977.2742, 108, 0, 4194.359, 4227.692, 4167.179, 4193.333, 4213.333, 450, 0, []
1627802977.282, 109, 0, 4200.513, 4212.821, 4191.795, 4191.795, 4207.692, 450, 0, []
1627802977.2898, 110, 0, 4200, 4228.718, 4171.282, 4175.897, 4199.487, 450, 0, []
1627802977.2977, 111, 0, 4199.487, 4238.974, 4172.821, 4171.282, 4197.949, 16202, 0, []
1627802977.3055, 112, 0, 4200.513, 4216.41, 4178.462, 4178.974, 4202.564, 450, 0, []
1627802977.3134, 113, 0, 4204.103, 4216.923, 4154.359, 4180.513, 4207.179, 450, 0, []
1627802977.3212, 114, 0, 4215.897, 4244.615, 4191.795, 4179.487, 4209.231, 450, 0, []
1627802977.329, 115, 0, 4221.026, 4254.872, 4180.513, 4178.974, 4203.077, 16202, 0, []
1627802977.3368, 116, 0, 4210.769, 4237.949, 4167.179, 4171.282, 4196.41, 450, 0, []
1627802977.3448, 117, 0, 4198.974, 4214.872, 4181.538, 4166.154, 4198.974, 450, 0, []
1627802977.3527, 118, 0, 4195.897, 4213.846, 4156.41, 4169.744, 4203.59, 450, 0, []
1627802977.3607, 119, 0, 4195.897, 4234.872, 4171.282, 4173.846, 4195.385, 16202, 0, []
1627802977.3685, 120, 0, 4198.974, 4241.026, 4154.872, 4168.205, 4186.154, 450, 0, []
1627802977.3765, 121, 0, 4218.974, 4234.872, 4155.897, 4172.308, 4209.231, 450, 0, []
1627802977.3844, 122, 0, 4254.359, 4240, 4186.667, 4184.103, 4253.846, 450, 0, []
1627802977.3924, 123, 0, 4298.974, 4238.974, 4156.41, 4177.949, 4292.308, 16202, 0, []
1627802977.4003, 124, 0, 4368.718, 4227.692, 4172.308, 4179.487, 4349.231, 450, 0, []
1627802977.4082, 125, 0, 4453.333, 4230.769, 4177.949, 4189.744, 4428.718, 450, 0, []
1627802977.4161, 126, 0, 4509.744, 4254.872, 4178.462, 4183.59, 4489.744, 450, 0, []
1627802977.4239, 127, 0, 4537.949, 4269.744, 4204.103, 4182.564, 4520.513, 16202, 0, []
1627802977.4318, 128, 0, 4545.128, 4252.821, 4173.333, 4186.154, 4522.564, 450, 0, []
1627802977.4396, 0, 0, 4525.641, 4230.769, 4177.949, 4175.897, 4493.846, 450, 0, []
1627802977.4474, 1, 0, 4490.769, 4228.205, 4168.718, 4172.308, 4459.487, 450, 0, []
1627802977.4552, 2, 0, 4451.282, 4233.333, 4152.308, 4187.692, 4430.769, 16178, 0, []
1627802977.4631, 3, 0, 4408.718, 4244.103, 4173.333, 4194.359, 4396.923, 450, 0, []
1627802977.4709, 4, 0, 4372.308, 4240, 4143.59, 4177.949, 4361.026, 16144, 0, []
1627802977.4788, 5, 0, 4349.744, 4209.744, 4153.846, 4168.205, 4339.487, 450, 0, []
1627802977.4865, 6, 0, 4329.744, 4211.795, 4162.564, 4166.667, 4323.59, 310, 0, []
1627802977.4944, 7, 0, 4311.282, 4248.205, 4155.897, 4164.103, 4311.795, 450, 0, []
1627802977.5022, 8, 0, 4301.538, 4243.59, 4190.256, 4168.718, 4307.179, 450, 0, []
1627802977.5102, 9, 0, 4290.769, 4209.231, 4170.256, 4179.487, 4297.436, 16161, 0, []
1627802977.5181, 10, 0, 4281.538, 4215.385, 4179.487, 4191.795, 4284.615, 450, 0, []
1627802977.526, 11, 0, 4281.538, 4239.487, 4188.205, 4192.821, 4279.487, 16194, 0, []
1627802977.5339, 12, 0, 4278.462, 4233.846, 4161.538, 4183.077, 4275.897, 450, 0, []
1627802977.5419, 13, 0, 4268.205, 4238.974, 4188.718, 4185.128, 4269.231, 450, 0, []
1627802977.5498, 14, 0, 4259.487, 4254.359, 4171.795, 4187.179, 4260.513, 450, 0, []
1627802977.5578, 15, 0, 4257.436, 4234.872, 4165.641, 4177.436, 4253.846, 16194, 0, []
1627802977.5656, 16, 0, 4245.641, 4217.949, 4177.436, 4164.103, 4245.641, 0, 0, []
1627802977.5734, 17, 0, 4228.205, 4230.769, 4165.128, 4150.769, 4232.821, 0, 0, []
1627802977.5813, 18, 0, 4230.769, 4234.359, 4201.538, 4152.308, 4231.282, 0, 0, []
1627802977.5891, 19, 0, 4236.41, 4216.41, 4186.154, 4165.128, 4234.872, 0, 0, []
1627802977.597, 20, 0, 4217.436, 4199.487, 4171.795, 4169.744, 4219.487, 0, 0, []
1627802977.6047, 21, 0, 4202.564, 4205.641, 4177.949, 4163.59, 4204.615, 0, 0, []
1627802977.6126, 22, 0, 4206.154, 4229.231, 4151.795, 4160.513, 4210.256, 0, 0, []
1627802977.6204, 23, 0, 4210.769, 4237.949, 4177.436, 4175.897, 4219.487, 0, 0, []
1627802977.6283, 24, 0, 4213.846, 4231.795, 4171.795, 4193.846, 4222.051, 0, 0, []
1627802977.6361, 25, 0, 4216.923, 4229.231, 4169.744, 4194.872, 4220.513, 0, 0, []
1627802977.6439, 26, 0, 4208.205, 4233.846, 4188.205, 4182.564, 4209.231, 0, 0, []
1627802977.6517, 27, 0, 4193.846, 4232.308, 4164.103, 4175.897, 4196.923, 0, 0, []
1627802977.6597, 28, 0, 4191.282, 4221.538, 4189.231, 4184.103, 4197.949, 0, 0, []
1627802977.6676, 29, 0, 4194.872, 4222.564, 4179.487, 4184.103, 4200, 0, 0, []
1627802977.6756, 30, 0, 4198.462, 4228.205, 4165.641, 4177.949, 4195.897, 0, 0, []
1627802977.6834, 31, 0, 4202.051, 4218.462, 4195.897, 4179.487, 4197.436, 0, 0, []
1627802977.6914, 32, 0, 4202.051, 4212.308, 4169.744, 4174.872, 4201.538, 0, 0, []
1627802977.6993, 33, 0, 4201.538, 4215.897, 4174.359, 4168.205, 4195.897, 0, 0, []
1627802977.7073, 34, 0, 4196.41, 4220, 4164.615, 4169.744, 4184.615, 0, 0, []
1627802977.7152, 35, 0, 4185.641, 4234.872, 4143.59, 4177.949, 4173.333, 0, 0, []
1627802977.7231, 36, 0, 4179.487, 4239.487, 4171.282, 4191.282, 4166.667, 0, 0, []
1627802977.731, 37, 0, 4180, 4232.308, 4164.615, 4195.385, 4168.205, 0, 0, []
1627802977.7388, 38, 0, 4186.154, 4229.744, 4182.564, 4191.795, 4172.821, 0, 0, []
1627802977.7467, 39, 0, 4189.231, 4214.359, 4173.333, 4187.179, 4173.846, 0, 0, []
1627802977.7545, 40, 0, 4173.333, 4210.256, 4149.231, 4181.026, 4165.128, 0, 0, []
1627802977.7623, 41, 0, 4154.359, 4224.103, 4177.949, 4173.846, 4155.897, 0, 0, []
1627802977.7701, 42, 0, 4155.897, 4223.59, 4158.974, 4169.744, 4157.436, 0, 0, []
1627802977.778, 43, 0, 4172.308, 4229.231, 4178.462, 4181.538, 4172.821, 0, 0, []
1627802977.7858, 44, 0, 4187.179, 4250.769, 4196.41, 4195.897, 4188.205, 0, 0, []
1627802977.7937, 45, 0, 4188.205, 4241.026, 4168.205, 4192.308, 4187.692, 0, 0, []
1627802977.8014, 46, 0, 4176.41, 4225.641, 4182.051, 4187.692, 4172.308, 0, 0, []
1627802977.8093, 47, 0, 4165.128, 4237.436, 4155.897, 4182.051, 4152.821, 0, 0, []
1627802977.8171, 48, 0, 4159.487, 4226.154, 4156.923, 4174.872, 4141.026, 0, 0, []
1627802977.8251, 49, 0, 4153.846, 4206.667, 4169.231, 4180, 4140, 0, 0, []
1627802977.833, 50, 0, 4154.872, 4220.513, 4142.051, 4184.103, 4140.513, 0, 0, []
1627802977.8409, 51, 0, 4156.41, 4243.077, 4163.077, 4176.41, 4135.897, 0, 0, []
1627802977.8488, 52, 0, 4150.769, 4236.923, 4152.821, 4168.205, 4133.333, 0, 0, []
1627802977.8568, 53, 0, 4151.282, 4209.231, 4158.462, 4173.333, 4137.949, 0, 0, []
1627802977.8647, 54, 0, 4154.872, 4204.615, 4174.872, 4183.077, 4141.026, 0, 0, []
1627802977.8727, 55, 0, 4151.282, 4222.564, 4146.667, 4183.077, 4138.974, 0, 0, []
1627802977.8805, 56, 0, 4152.308, 4235.897, 4169.231, 4183.077, 4143.077, 0, 0, []
1627802977.8884, 57, 0, 4153.846, 4244.615, 4157.949, 4183.077, 4148.718, 0, 0, []
1627802977.8963, 58, 0, 4145.641, 4241.026, 4150.769, 4176.923, 4145.641, 0, 0, []
1627802977.9041, 59, 0, 4138.974, 4236.41, 4170.256, 4166.667, 4136.41, 0, 0, []
1627802977.912, 60, 0, 4146.667, 4240.513, 4140.513, 4165.641, 4134.872, 0, 0, []
1627802977.9197, 61, 0, 4155.897, 4238.462, 4159.487, 4180.513, 4140, 0, 0, []
1627802977.9276, 62, 0, 4152.821, 4230.769, 4160, 4186.154, 4140, 0, 0, []
1627802977.9354, 63, 0, 4146.667, 4226.154, 4156.923, 4182.051, 4142.564, 0, 0, []
1627802977.9433, 64, 0, 4154.359, 4227.179, 4180, 4189.231, 4154.872, 450, 0, []
1627802977.9511, 65, 0, 4161.538, 4235.897, 4152.821, 4197.436, 4156.923, 450, 0, []
1627802977.9589, 66, 0, 4158.974, 4257.949, 4171.282, 4198.974, 4154.872, 16180, 0, []
1627802977.9667, 67, 0, 4161.538, 4254.359, 4172.821, 4194.359, 4161.026, 450, 0, []
1627802977.9747, 68, 0, 4166.667, 4232.821, 4156.41, 4189.744, 4161.026, 16144, 0, []
1627802977.9826, 69, 0, 4165.128, 4243.59, 4175.897, 4189.231, 4154.359, 450, 0, []
1627802977.9906, 70, 0, 4165.128, 4243.077, 4156.41, 4190.769, 4157.436, 296, 0, []
1627802977.9984, 71, 0, 4170.769, 4232.821, 4177.949, 4193.846, 4168.205, 450, 0, []
1627802978.0064, 72, 0, 4164.615, 4254.359, 4173.333, 4190.769, 4167.179, 450, 0, []
1627802978.0143, 73, 0, 4155.897, 4257.436, 4143.077, 4186.154, 4162.051, 16159, 0, []
1627802978.0223, 74, 0, 4148.205, 4226.667, 4170.769, 4185.128, 4157.436, 450, 0, []
1627802978.0302, 75, 0, 4130.256, 4230.256, 4154.359, 4185.128, 4146.154, 16194, 0, []
1627802978.0382, 76, 0, 4136.41, 4247.692, 4160.513, 4194.359, 4142.051, 450, 0, []
1627802978.046, 77, 0, 4155.897, 4216.923, 4166.667, 4197.949, 4144.615, 450, 0, []
1627802978.0538, 78, 0, 4145.641, 4210.769, 4144.103, 4184.103, 4138.974, 450, 0, []
1627802978.0617, 79, 0, 4128.718, 4248.205, 4170.769, 4182.564, 4126.667, 16194, 0, []
1627802978.0695, 80, 0, 4130.769, 4251.795, 4153.846, 4187.692, 4122.564, 450, 0, []
1627802978.0774, 81, 0, 4132.308, 4246.667, 4160, 4177.436, 4123.077, 450, 0, []
1627802978.0851, 82, 0, 4125.641, 4251.795, 4169.231, 4160.513, 4112.308, 450, 0, []
1627802978.093, 83, 0, 4117.949, 4239.487, 4137.949, 4154.359, 4099.487, 16194, 0, []
1627802978.1008, 84, 0, 4113.846, 4234.872, 4167.179, 4164.615, 4098.462, 450, 0, []
1627802978.1087, 85, 0, 4121.026, 4256.41, 4166.154, 4174.359, 4103.077, 450, 0, []
1627802978.1165, 86, 0, 4127.692, 4257.436, 4168.205, 4177.436, 4104.103, 450, 0, []
1627802978.1244, 87, 0, 4132.308, 4231.282, 4178.462, 4175.897, 4111.795, 16194, 0, []
1627802978.1323, 88, 0, 4132.308, 4232.308, 4151.795, 4173.333, 4122.564, 450, 0, []
1627802978.1403, 89, 0, 4126.154, 4252.308, 4174.872, 4175.897, 4118.974, 450, 0, []
1627802978.1482, 90, 0, 4129.744, 4253.333, 4159.487, 4170.256, 4109.744, 450, 0, []
1627802978.1562, 91, 0, 4134.359, 4235.385, 4149.231, 4163.077, 4106.154, 16194, 0, []
1627802978.164, 92, 0, 4126.154, 4225.641, 4168.205, 4160.513, 4102.564, 450, 0, []
1627802978.172, 93, 0, 4125.641, 4239.487, 4148.718, 4158.462, 4101.026, 450, 0, []
1627802978.1799, 94, 0, 4137.949, 4240.513, 4176.923, 4170.256, 4111.282, 450, 0, []
1627802978.1879, 95, 0, 4145.641, 4224.615, 4169.744, 4187.179, 4126.667, 16194, 0, []
1627802978.1958, 96, 0, 4139.487, 4234.359, 4156.923, 4182.051, 4126.154, 450, 0, []
1627802978.2035, 97, 0, 4122.051, 4250.769, 4178.974, 4165.128, 4111.282, 450, 0, []
1627802978.2114, 98, 0, 4121.538, 4233.846, 4155.897, 4163.077, 4104.615, 450, 0, []
1627802978.2192, 99, 0, 4150.769, 4234.872, 4183.59, 4173.846, 4117.949, 16194, 0, []
1627802978.2271, 100, 0, 4158.974, 4258.462, 4182.051, 4170.256, 4125.641, 450, 0, []
1627802978.2349, 101, 0, 4139.487, 4238.462, 4149.744, 4156.41, 4115.897, 450, 0, []
1627802978.2427, 102, 0, 4135.385, 4208.205, 4167.179, 4154.359, 4105.128, 450, 0, []
1627802978.2505, 103, 0, 4135.385, 4212.308, 4145.641, 4158.462, 4103.077, 16194, 0, []
1627802978.2584, 104, 0, 4127.179, 4226.667, 4153.846, 4164.615, 4105.641, 450, 0, []
1627802978.2662, 105, 0, 4131.282, 4235.385, 4154.359, 4170.256, 4109.231, 450, 0, []
1627802978.2742, 106, 0, 4137.436, 4225.128, 4147.179, 4172.821, 4114.359, 450, 0, []
1627802978.282, 107, 0, 4129.744, 4208.718, 4175.897, 4172.308, 4113.846, 16194, 0, []
1627802978.29, 108, 0, 4122.051, 4226.154, 4136.923, 4155.897, 4101.026, 450, 0, []
1627802978.2979, 109, 0, 4128.718, 4236.41, 4137.436, 4144.103, 4098.462, 450, 0, []
1627802978.3059, 110, 0, 4138.462, 4220, 4160.513, 4153.333, 4108.718, 450, 0, []
1627802978.3138, 111, 0, 4133.846, 4224.615, 4155.385, 4161.026, 4108.205, 16194, 0, []
1627802978.3217, 112, 0, 4128.205, 4220, 4181.026, 4161.538, 4104.615, 450, 0, []
1627802978.3296, 113, 0, 4144.615, 4211.795, 4162.564, 4167.179, 4124.615, 450, 0, []
1627802978.3376, 114, 0, 4162.564, 4225.128, 4167.179, 4173.333, 4146.667, 450, 0, []
1627802978.3455, 115, 0, 4156.41, 4215.897, 4167.692, 4162.564, 4142.564, 16194, 0, []
1627802978.3533, 116, 0, 4146.667, 4205.641, 4140, 4156.923, 4130.769, 450, 0, []
1627802978.3611, 117, 0, 4153.846, 4232.821, 4176.41, 4171.795, 4133.846, 450, 0, []
1627802978.3689, 118, 0, 4158.462, 4233.846, 4167.179, 4175.897, 4138.462, 450, 0, []
1627802978.3768, 119, 0, 4157.436, 4205.641, 4164.103, 4172.308, 4138.974, 16194, 0, []
1627802978.3846, 120, 0, 4162.051, 4214.872, 4184.103, 4175.897, 4146.154, 450, 0, []
1627802978.3925, 121, 0, 4165.128, 4238.974, 4167.179, 4175.897, 4147.692, 450, 0, []
1627802978.4002, 122, 0, 4160, 4245.128, 4193.333, 4176.41, 4142.564, 450, 0, []
1627802978.4081, 123, 0, 4150.769, 4242.051, 4173.846, 4177.436, 4141.538, 16194, 0, []
1627802978.4159, 124, 0, 4150.256, 4234.359, 4160.513, 4176.41, 4147.692, 450, 0, []
1627802978.4239, 125, 0, 4158.974, 4230.256, 4187.692, 4179.487, 4153.846, 450, 0, []
1627802978.4318, 126, 0, 4167.179, 4240, 4176.41, 4181.538, 4155.897, 450, 0, []
1627802978.4397, 127, 0, 4177.436, 4250.769, 4197.949, 4175.897, 4164.103, 16194, 0, []
1627802978.4476, 128, 0, 4185.641, 4235.897, 4176.41, 4171.282, 4171.795, 450, 0, []
1627802978.4556, 0, 0, 4184.615, 4215.385, 4161.026, 4180, 4164.615, 450, 0, []
1627802978.4635, 1, 0, 4185.641, 4235.385, 4194.359, 4188.205, 4157.436, 450, 0, []
1627802978.4715, 2, 0, 4187.179, 4267.692, 4169.231, 4180, 4158.462, 16182, 0, []
1627802978.4793, 3, 0, 4167.179, 4245.641, 4170.769, 4167.179, 4143.077, 450, 0, []
1627802978.4873, 4, 0, 4143.077, 4200.513, 4163.59, 4158.974, 4124.103, 16144, 0, []
1627802978.4952, 5, 0, 4145.641, 4194.359, 4158.974, 4156.923, 4133.333, 450, 0, []
1627802978.5031, 6, 0, 4161.538, 4230.769, 4186.154, 4158.974, 4144.615, 299, 0, []
1627802978.511, 7, 0, 4159.487, 4240.513, 4161.026, 4159.487, 4135.897, 450, 0, []
1627802978.5188, 8, 0, 4140.513, 4205.641, 4176.41, 4164.103, 4130.256, 450, 0, []
1627802978.5268, 9, 0, 4142.564, 4199.487, 4172.821, 4167.179, 4134.872, 16158, 0, []
1627802978.5346, 10, 0, 4164.615, 4224.615, 4156.923, 4166.154, 4141.538, 450, 0, []
1627802978.5425, 11, 0, 4165.641, 4232.821, 4195.897, 4176.923, 4143.59, 16194, 0, []
1627802978.5503, 12, 0, 4150.256, 4232.821, 4171.795, 4176.923, 4135.385, 450, 0, []
1627802978.5581, 13, 0, 4149.744, 4234.359, 4173.846, 4164.103, 4127.179, 450, 0, []
1627802978.5659, 14, 0, 4153.333, 4223.077, 4186.667, 4168.205, 4132.308, 450, 0, []
1627802978.5738, 15, 0, 4151.795, 4209.231, 4170.769, 4176.923, 4140, 16194, 0, []
1627802978.5816, 16, 0, 4156.923, 4210.769, 4191.282, 4172.308, 4136.41, 0, 0, []
1627802978.5895, 17, 0, 4148.205, 4217.436, 4168.718, 4164.103, 4126.667, 0, 0, []
1627802978.5972, 18, 0, 4132.821, 4210.256, 4176.41, 4164.615, 4124.103, 0, 0, []
1627802978.6052, 19, 0, 4139.487, 4191.795, 4185.128, 4167.179, 4128.718, 0, 0, []
1627802978.6131, 20, 0, 4153.846, 4191.282, 4149.231, 4163.59, 4132.308, 0, 0, []
1627802978.6211, 21, 0, 4154.359, 4204.103, 4170.256, 4163.077, 4130.256, 0, 0, []
1627802978.629, 22, 0, 4143.077, 4201.026, 4157.436, 4164.615, 4122.564, 0, 0, []
1627802978.6369, 23, 0, 4137.949, 4192.308, 4153.846, 4162.564, 4126.154, 0, 0, []
1627802978.6448, 24, 0, 4146.667, 4215.385, 4171.795, 4165.128, 4140, 0, 0, []
1627802978.6528, 25, 0, 4156.923, 4233.333, 4162.051, 4173.333, 4143.077, 0, 0, []
1627802978.6607, 26, 0, 4155.897, 4212.308, 4186.154, 4174.359, 4137.949, 0, 0, []
1627802978.6687, 27, 0, 4147.179, 4200, 4156.923, 4158.974, 4136.41, 0, 0, []
1627802978.6765, 28, 0, 4144.103, 4218.462, 4147.692, 4155.385, 4137.949, 0, 0, []
1627802978.6843, 29, 0, 4149.744, 4227.692, 4180.513, 4164.615, 4138.462, 0, 0, []
1627802978.6922, 30, 0, 4143.077, 4206.154, 4160.513, 4158.974, 4129.744, 0, 0, []
1627802978.7, 31, 0, 4137.949, 4181.538, 4171.795, 4153.333, 4133.846, 0, 0, []
1627802978.7079, 32, 0, 4180, 4188.205, 4172.308, 4172.821, 4192.821, 0, 0, []
1627802978.7156, 33, 0, 4240, 4204.103, 4188.718, 4202.564, 4272.308, 0, 0, []
1627802978.7235, 34, 0, 4259.487, 4201.538, 4212.308, 4211.282, 4295.897, 0, 0, []
1627802978.7313, 35, 0, 4250.256, 4211.282, 4174.872, 4200.513, 4281.538, 0, 0, []
1627802978.7393, 36, 0, 4237.436, 4216.923, 4183.59, 4197.436, 4271.795, 0, 0, []
1627802978.7472, 37, 0, 4223.077, 4200, 4171.282, 4196.923, 4263.077, 0, 0, []
1627802978.7551, 38, 0, 4224.615, 4215.385, 4158.974, 4194.872, 4256.41, 0, 0, []
1627802978.763, 39, 0, 4233.333, 4228.718, 4195.385, 4196.923, 4252.308, 0, 0, []
1627802978.771, 40, 0, 4231.795, 4205.128, 4173.846, 4193.846, 4248.205, 0, 0, []
1627802978.7789, 41, 0, 4233.846, 4211.795, 4189.744, 4188.718, 4247.692, 0, 0, []
1627802978.7869, 42, 0, 4234.872, 4227.692, 4196.41, 4186.154, 4246.154, 0, 0, []
1627802978.7948, 43, 0, 4228.718, 4214.872, 4172.308, 4182.051, 4249.231, 0, 0, []
1627802978.8027, 44, 0, 4231.282, 4218.462, 4194.359, 4187.692, 4265.128, 0, 0, []
1627802978.8106, 45, 0, 4231.282, 4230.769, 4180, 4192.821, 4268.205, 0, 0, []
1627802978.8186, 46, 0, 4218.974, 4215.385, 4188.718, 4184.103, 4247.179, 0, 0, []
1627802978.8265, 47, 0, 4212.308, 4193.846, 4188.205, 4176.923, 4235.385, 0, 0, []
1627802978.8343, 48, 0, 4221.538, 4195.385, 4172.821, 4187.179, 4248.205, 0, 0, []
1627802978.8421, 49, 0, 4232.308, 4220, 4203.59, 4201.026, 4263.077, 0, 0, []
1627802978.8499, 50, 0, 4232.308, 4225.641, 4181.026, 4197.436, 4257.436, 0, 0, []
1627802978.8578, 51, 0, 4228.718, 4202.564, 4185.641, 4193.333, 4245.128, 0, 0, []
1627802978.8656, 52, 0, 4236.41, 4209.231, 4204.103, 4200, 4252.308, 0, 0, []
1627802978.8735, 53, 0, 4244.615, 4245.128, 4187.179, 4204.615, 4263.077, 0, 0, []
1627802978.8812, 54, 0, 4240.513, 4258.974, 4208.205, 4200.513, 4257.949, 0, 0, []
1627802978.8892, 55, 0, 4236.923, 4243.59, 4195.897, 4191.795, 4251.282, 0, 0, []
1627802978.8971, 56, 0, 4237.436, 4221.538, 4199.487, 4191.795, 4252.821, 0, 0, []
1627802978.905, 57, 0, 4237.436, 4221.538, 4195.385, 4192.308, 4253.846, 0, 0, []
1627802978.9128, 58, 0, 4229.231, 4230.256, 4164.615, 4184.103, 4246.154, 0, 0, []
1627802978.9207, 59, 0, 4220.513, 4232.821, 4200, 4190.256, 4235.897, 0, 0, []
1627802978.9286, 60, 0, 4223.59, 4248.718, 4188.205, 4197.949, 4231.795, 0, 0, []
1627802978.9366, 61, 0, 4227.179, 4253.846, 4179.487, 4192.308, 4229.231, 0, 0, []
1627802978.9445, 62, 0, 4228.205, 4227.692, 4200.513, 4188.718, 4231.282, 0, 0, []
1627802978.9525, 63, 0, 4229.744, 4231.795, 4172.308, 4189.231, 4235.897, 0, 0, []
1627802978.9603, 64, 0, 4225.641, 4262.564, 4184.103, 4194.359, 4237.949, 450, 0, []
1627802978.9683, 65, 0, 4217.436, 4245.641, 4175.385, 4202.564, 4234.359, 450, 0, []
1627802978.9762, 66, 0, 4220.513, 4212.308, 4170.256, 4201.026, 4231.282, 16182, 0, []
1627802978.984, 67, 0, 4225.128, 4224.615, 4188.718, 4193.846, 4223.59, 450, 0, []
1627802978.9919, 68, 0, 4221.538, 4238.974, 4162.051, 4186.154, 4220.513, 16144, 0, []
1627802978.9996, 69, 0, 4238.974, 4225.128, 4188.205, 4184.103, 4245.128, 450, 0, []
1627802979.0075, 70, 0, 4288.205, 4229.231, 4198.462, 4191.795, 4294.872, 299, 0, []
1627802979.0153, 71, 0, 4368.205, 4242.564, 4190.256, 4203.077, 4368.205, 450, 0, []
1627802979.0232, 72, 0, 4467.179, 4248.718, 4217.436, 4213.846, 4459.487, 450, 0, []
1627802979.031, 73, 0, 4549.231, 4263.077, 4202.564, 4221.026, 4533.846, 16158, 0, []
1627802979.0389, 74, 0, 4594.872, 4270.769, 4212.308, 4222.051, 4573.846, 450, 0, []
1627802979.0468, 75, 0, 4605.641, 4262.564, 4197.949, 4213.846, 4593.846, 16162, 0, []
1627802979.0547, 76, 0, 4590.256, 4244.103, 4169.744, 4209.744, 4587.692, 450, 0, []
1627802979.0625, 77, 0, 4569.744, 4231.282, 4192.821, 4213.333, 4560, 450, 0, []
1627802979.0705, 78, 0, 4545.641, 4239.487, 4177.436, 4213.846, 4533.333, 450, 0, []
1627802979.0784, 79, 0, 4507.179, 4244.103, 4191.795, 4223.077, 4505.128, 16162, 0, []
1627802979.0863, 80, 0, 4462.564, 4232.821, 4191.282, 4226.667, 4473.333, 450, 0, []
1627802979.0943, 81, 0, 4430.256, 4240, 4161.026, 4207.692, 4439.487, 450, 0, []
1627802979.1022, 82, 0, 4405.128, 4243.59, 4190.256, 4196.923, 4405.128, 450, 0, []
1627802979.1102, 83, 0, 4375.897, 4236.41, 4183.59, 4201.538, 4374.872, 16162, 0, []
1627802979.118, 84, 0, 4354.872, 4255.385, 4202.564, 4211.282, 4357.949, 450, 0, []
1627802979.126, 85, 0, 4344.615, 4256.923, 4221.026, 4223.077, 4346.154, 450, 0, []
1627802979.1339, 86, 0, 4325.128, 4230.256, 4191.282, 4228.205, 4326.667, 450, 0, []
1627802979.1419, 87, 0, 4298.462, 4240, 4201.026, 4217.949, 4300.513, 16162, 0, []
1627802979.1498, 88, 0, 4280.513, 4252.821, 4176.923, 4202.051, 4280.513, 450, 0, []
1627802979.1577, 89, 0, 4270.769, 4225.641, 4183.077, 4197.949, 4272.308, 450, 0, []
1627802979.1656, 90, 0, 4262.051, 4219.487, 4207.692, 4201.026, 4263.59, 450, 0, []
1627802979.1736, 91, 0, 4255.385, 4236.923, 4184.615, 4205.128, 4258.462, 16162, 0, []
1627802979.1815, 92, 0, 4253.333, 4244.615, 4204.103, 4213.333, 4260, 450, 0, []
1627802979.1895, 93, 0, 4249.231, 4245.641, 4189.744, 4212.821, 4254.359, 450, 0, []
1627802979.1974, 94, 0, 4236.41, 4233.846, 4182.564, 4206.667, 4245.641, 450, 0, []
1627802979.2053, 95, 0, 4219.487, 4225.641, 4196.923, 4198.462, 4232.821, 16162, 0, []
1627802979.2133, 96, 0, 4205.641, 4231.282, 4163.59, 4185.641, 4217.436, 450, 0, []
1627802979.2212, 97, 0, 4202.051, 4229.744, 4180, 4186.667, 4216.923, 450, 0, []
1627802979.2292, 98, 0, 4195.897, 4224.615, 4169.231, 4188.718, 4217.436, 450, 0, []
1627802979.237, 99, 0, 4185.128, 4220.513, 4166.667, 4187.179, 4208.718, 16162, 0, []
1627802979.245, 100, 0, 4189.744, 4214.359, 4209.744, 4203.077, 4216.923, 450, 0, []
1627802979.2529, 101, 0, 4203.59, 4215.897, 4188.718, 4208.718, 4230.256, 450, 0, []
1627802979.2609, 102, 0, 4201.538, 4230.769, 4190.256, 4192.821, 4223.077, 450, 0, []
1627802979.2688, 103, 0, 4182.051, 4232.308, 4174.359, 4185.128, 4209.231, 16162, 0, []
1627802979.2767, 104, 0, 4168.205, 4220, 4155.897, 4191.795, 4195.385, 450, 0, []
1627802979.2846, 105, 0, 4174.872, 4236.923, 4180.513, 4192.821, 4184.103, 450, 0, []
1627802979.2926, 106, 0, 4181.538, 4252.308, 4164.615, 4189.744, 4189.231, 450, 0, []
1627802979.3005, 107, 0, 4174.359, 4230.256, 4183.077, 4193.846, 4199.487, 16162, 0, []
1627802979.3085, 108, 0, 4173.333, 4219.487, 4186.154, 4196.923, 4201.026, 450, 0, []
1627802979.3163, 109, 0, 4181.026, 4228.718, 4170.256, 4199.487, 4197.949, 450, 0, []
1627802979.3243, 110, 0, 4179.487, 4215.897, 4193.333, 4202.051, 4190.769, 450, 0, []
1627802979.3322, 111, 0, 4173.333, 4218.462, 4169.231, 4193.846, 4182.564, 16162, 0, []
1627802979.3402, 112, 0, 4171.795, 4242.564, 4175.385, 4186.154, 4178.974, 450, 0, []
1627802979.3481, 113, 0, 4167.692, 4214.359, 4177.949, 4189.744, 4180, 450, 0, []
1627802979.356, 114, 0, 4165.641, 4184.615, 4162.051, 4195.385, 4183.59, 450, 0, []
1627802979.364, 115, 0, 4170.769, 4226.667, 4198.974, 4203.59, 4187.692, 16162, 0, []
1627802979.3719, 116, 0, 4171.795, 4241.026, 4181.026, 4205.641, 4180, 450, 0, []
1627802979.3799, 117, 0, 4164.103, 4202.051, 4179.487, 4199.487, 4169.231, 450, 0, []
1627802979.3878, 118, 0, 4162.564, 4191.795, 4193.846, 4195.385, 4177.436, 450, 0, []
1627802979.3957, 119, 0, 4172.821, 4216.41, 4178.974, 4195.897, 4189.744, 16162, 0, []
1627802979.4036, 120, 0, 4168.205, 4234.359, 4202.051, 4193.333, 4176.923, 450, 0, []
1627802979.4116, 121, 0, 4154.359, 4233.333, 4181.026, 4190.256, 4164.103, 450, 0, []
1627802979.4195, 122, 0, 4169.744, 4221.538, 4185.641, 4205.128, 4191.795, 450, 0, []
1627802979.4275, 123, 0, 4198.462, 4218.462, 4201.538, 4214.359, 4228.718, 16162, 0, []
1627802979.4353, 124, 0, 4202.564, 4222.564, 4168.205, 4204.103, 4236.41, 450, 0, []
1627802979.4433, 125, 0, 4191.282, 4215.385, 4192.308, 4206.154, 4232.308, 450, 0, []
1627802979.4512, 126, 0, 4189.231, 4222.564, 4183.59, 4211.795, 4223.59, 450, 0, []
1627802979.4592, 127, 0, 4187.692, 4238.462, 4172.308, 4198.974, 4205.641, 16162, 0, []
1627802979.4671, 128, 0, 4175.385, 4230.769, 4186.667, 4181.538, 4186.667, 450, 0, []
1627802979.475, 0, 0, 4163.077, 4216.923, 4167.179, 4174.872, 4177.436, 450, 0, []
1627802979.4829, 1, 0, 4166.154, 4217.949, 4194.872, 4186.667, 4180.513, 450, 0, []
1627802979.4909, 2, 0, 4178.974, 4226.667, 4191.282, 4201.026, 4185.128, 16182, 0, []
1627802979.4988, 3, 0, 4182.564, 4230.256, 4186.154, 4203.077, 4177.949, 450, 0, []
1627802979.5068, 4, 0, 4175.385, 4225.128, 4205.128, 4197.436, 4173.333, 16143, 0, []
1627802979.5147, 5, 0, 4171.282, 4225.641, 4176.923, 4192.821, 4182.051, 450, 0, []
1627802979.5226, 6, 0, 4179.487, 4232.821, 4204.103, 4197.949, 4189.231, 297, 0, []
1627802979.5306, 7, 0, 4186.667, 4225.128, 4207.692, 4207.179, 4185.641, 450, 0, []
1627802979.5385, 8, 0, 4181.538, 4220, 4184.615, 4212.308, 4181.538, 450, 0, []
1627802979.5465, 9, 0, 4178.462, 4237.436, 4205.128, 4215.385, 4189.231, 16158, 0, []
1627802979.5543, 10, 0, 4174.359, 4236.41, 4185.641, 4203.077, 4185.641, 450, 0, []
1627802979.5623, 11, 0, 4163.59, 4210.256, 4190.769, 4180, 4162.564, 16173, 0, []
1627802979.5702, 12, 0, 4157.949, 4210.256, 4183.59, 4166.154, 4151.282, 450, 0, []
1627802979.5782, 13, 0, 4160, 4231.795, 4171.795, 4162.564, 4157.949, 450, 0, []
1627802979.5861, 14, 0, 4164.615, 4215.897, 4202.051, 4173.333, 4158.462, 450, 0, []
1627802979.594, 15, 0, 4163.077, 4188.718, 4175.385, 4184.103, 4153.846, 16173, 0, []
1627802979.6019, 16, 0, 4167.179, 4203.59, 4185.128, 4186.667, 4161.026, 0, 0, []
1627802979.6099, 17, 0, 4176.923, 4224.103, 4195.385, 4189.744, 4173.846, 0, 0, []
1627802979.6178, 18, 0, 4175.897, 4213.333, 4171.282, 4190.256, 4173.333, 0, 0, []
1627802979.6258, 19, 0, 4174.359, 4220.513, 4188.205, 4181.026, 4170.256, 0, 0, []
1627802979.6336, 20, 0, 4180.513, 4244.103, 4173.846, 4174.872, 4173.333, 0, 0, []
1627802979.6416, 21, 0, 4185.641, 4224.103, 4193.846, 4189.231, 4172.308, 0, 0, []
1627802979.6495, 22, 0, 4179.487, 4194.872, 4201.026, 4195.385, 4168.718, 0, 0, []
1627802979.6575, 23, 0, 4172.308, 4205.641, 4170.256, 4181.538, 4166.154, 0, 0, []
1627802979.6655, 24, 0, 4184.615, 4222.051, 4195.897, 4176.41, 4170.769, 0, 0, []
1627802979.6734, 25, 0, 4220, 4215.897, 4175.385, 4182.564, 4197.949, 0, 0, []
1627802979.6813, 26, 0, 4276.923, 4220, 4181.026, 4185.641, 4256.923, 0, 0, []
1627802979.6892, 27, 0, 4360, 4244.615, 4208.718, 4186.667, 4333.333, 0, 0, []
1627802979.6972, 28, 0, 4450.769, 4237.949, 4178.462, 4188.718, 4407.179, 0, 0, []
1627802979.7051, 29, 0, 4515.897, 4215.385, 4196.41, 4197.436, 4470.769, 0, 0, []
1627802979.7131, 30, 0, 4554.359, 4241.026, 4195.385, 4206.154, 4518.974, 0, 0, []
1627802979.7209, 31, 0, 4572.308, 4268.718, 4189.744, 4208.205, 4541.538, 0, 0, []
1627802979.7289, 32, 0, 4558.462, 4232.821, 4193.333, 4206.154, 4528.205, 0, 0, []
1627802979.7368, 33, 0, 4521.026, 4206.667, 4166.667, 4195.897, 4489.231, 0, 0, []
1627802979.7448, 34, 0, 4478.974, 4238.462, 4199.487, 4188.205, 4448.205, 0, 0, []
1627802979.7527, 35, 0, 4425.641, 4249.744, 4186.154, 4186.154, 4404.103, 0, 0, []
1627802979.7606, 36, 0, 4371.795, 4229.744, 4162.051, 4181.538, 4360, 0, 0, []
1627802979.7685, 37, 0, 4341.026, 4218.462, 4181.026, 4180, 4330.769, 0, 0, []
1627802979.7765, 38, 0, 4320.513, 4209.744, 4158.974, 4183.077, 4305.128, 0, 0, []
1627802979.7844, 39, 0, 4291.795, 4208.205, 4174.872, 4190.256, 4275.385, 0, 0, []
1627802979.7924, 40, 0, 4266.154, 4210.256, 4172.821, 4190.769, 4255.385, 0, 0, []
1627802979.8002, 41, 0, 4248.205, 4201.538, 4169.744, 4184.103, 4241.026, 0, 0, []
1627802979.8082, 42, 0, 4233.846, 4199.487, 4192.308, 4176.923, 4218.462, 0, 0, []
1627802979.8161, 43, 0, 4223.59, 4216.923, 4160, 4165.128, 4196.923, 0, 0, []
1627802979.8239, 44, 0, 4213.846, 4229.231, 4171.795, 4163.59, 4187.692, 0, 0, []
1627802979.8319, 45, 0, 4201.538, 4222.564, 4170.256, 4175.385, 4184.615, 0, 0, []
1627802979.8397, 46, 0, 4194.872, 4204.615, 4157.436, 4184.103, 4180.513, 0, 0, []
1627802979.8477, 47, 0, 4198.462, 4190.769, 4189.744, 4192.821, 4183.077, 0, 0, []
1627802979.8556, 48, 0, 4204.103, 4210.256, 4173.333, 4201.538, 4192.821, 0, 0, []
1627802979.8636, 49, 0, 4201.026, 4234.872, 4186.154, 4190.256, 4188.718, 0, 0, []
1627802979.8715, 50, 0, 4193.333, 4233.333, 4189.744, 4167.692, 4168.205, 0, 0, []
1627802979.8794, 51, 0, 4192.821, 4228.718, 4175.385, 4165.128, 4163.59, 0, 0, []
1627802979.8873, 52, 0, 4191.795, 4226.667, 4197.949, 4166.154, 4171.282, 0, 0, []
1627802979.8953, 53, 0, 4180, 4213.846, 4163.077, 4158.462, 4166.667, 0, 0, []
1627802979.9032, 54, 0, 4177.436, 4212.308, 4169.231, 4172.308, 4165.128, 0, 0, []
1627802979.9112, 55, 0, 4197.436, 4230.769, 4197.436, 4196.41, 4179.487, 0, 0, []
1627802979.919, 56, 0, 4211.795, 4233.846, 4194.872, 4201.026, 4189.231, 0, 0, []
1627802979.927, 57, 0, 4212.308, 4226.154, 4220, 4199.487, 4191.282, 0, 0, []
1627802979.9349, 58, 0, 4201.538, 4234.872, 4176.41, 4188.205, 4188.718, 0, 0, []
1627802979.9429, 59, 0, 4186.154, 4233.846, 4160, 4176.41, 4184.103, 0, 0, []
1627802979.9508, 60, 0, 4177.436, 4217.949, 4181.026, 4176.923, 4176.923, 0, 0, []
1627802979.9587, 61, 0, 4177.949, 4218.462, 4168.718, 4179.487, 4168.205, 0, 0, []
1627802979.9666, 62, 0, 4178.974, 4240.513, 4198.974, 4185.128, 4161.026, 0, 0, []
1627802979.9744, 63, 0, 4160.513, 4235.897, 4188.205, 4188.205, 4144.615, 0, 0, []
1627802979.9824, 64, 0, 4143.077, 4215.897, 4177.949, 4185.641, 4122.564, 450, 0, []
1627802979.9903, 65, 0, 4133.846, 4224.103, 4176.41, 4175.385, 4104.103, 450, 0, []
1627802979.9982, 66, 0, 4103.59, 4225.641, 4136.41, 4157.949, 4074.872, 16182, 0, []
1627802980.0061, 67, 0, 4086.154, 4214.872, 4168.205, 4160, 4061.538, 450, 0, []
1627802980.0141, 68, 0, 4108.718, 4220.513, 4175.385, 4181.538, 4088.205, 16143, 0, []
1627802980.022, 69, 0, 4121.538, 4211.282, 4167.692, 4192.308, 4106.667, 450, 0, []
1627802980.03, 70, 0, 4111.795, 4186.667, 4192.308, 4191.795, 4100, 297, 0, []
1627802980.0378, 71, 0, 4114.359, 4197.949, 4174.359, 4193.846, 4103.59, 450, 0, []
1627802980.0458, 72, 0, 4107.179, 4218.974, 4183.59, 4185.128, 4098.974, 450, 0, []
1627802980.0537, 73, 0, 4085.641, 4214.872, 4175.897, 4170.256, 4081.538, 16158, 0, []
1627802980.0617, 74, 0, 4091.282, 4229.744, 4173.846, 4180.513, 4089.231, 450, 0, []
1627802980.0696, 75, 0, 4111.795, 4252.308, 4190.769, 4197.436, 4104.103, 16192, 0, []
1627802980.0775, 76, 0, 4114.872, 4245.128, 4156.41, 4188.718, 4101.538, 450, 0, []
1627802980.0854, 77, 0, 4111.282, 4224.103, 4183.077, 4185.128, 4112.308, 450, 0, []
1627802980.0934, 78, 0, 4112.821, 4218.974, 4192.308, 4194.359, 4126.667, 450, 0, []
1627802980.1013, 79, 0, 4115.385, 4221.026, 4164.615, 4198.462, 4117.949, 16192, 0, []
1627802980.1091, 80, 0, 4118.462, 4221.026, 4182.051, 4198.462, 4113.333, 450, 0, []
1627802980.1169, 81, 0, 4120, 4243.59, 4166.667, 4189.231, 4120, 450, 0, []
1627802980.1247, 82, 0, 4120.513, 4254.359, 4184.103, 4184.615, 4117.949, 450, 0, []
1627802980.1327, 83, 0, 4117.949, 4238.462, 4188.205, 4196.923, 4109.744, 16192, 0, []
1627802980.1406, 84, 0, 4114.359, 4248.718, 4171.795, 4202.051, 4115.385, 450, 0, []
1627802980.1486, 85, 0, 4129.744, 4265.128, 4205.641, 4198.462, 4131.795, 450, 0, []
1627802980.1564, 86, 0, 4146.667, 4244.615, 4184.615, 4202.051, 4141.538, 450, 0, []
1627802980.1644, 87, 0, 4144.615, 4244.615, 4184.103, 4211.282, 4138.462, 16192, 0, []
1627802980.1723, 88, 0, 4136.923, 4278.462, 4190.769, 4212.821, 4130.769, 450, 0, []
1627802980.1803, 89, 0, 4138.462, 4264.103, 4164.615, 4203.59, 4127.179, 450, 0, []
1627802980.1882, 90, 0, 4138.974, 4236.41, 4185.641, 4194.359, 4126.154, 450, 0, []
1627802980.1961, 91, 0, 4133.333, 4261.538, 4169.744, 4190.769, 4125.128, 16192, 0, []
1627802980.204, 92, 0, 4137.436, 4284.615, 4176.41, 4203.077, 4132.821, 450, 0, []
1627802980.212, 93, 0, 4147.692, 4271.282, 4195.897, 4222.564, 4146.667, 450, 0, []
1627802980.2199, 94, 0, 4155.385, 4255.385, 4178.974, 4225.641, 4155.897, 450, 0, []
1627802980.2279, 95, 0, 4165.641, 4256.923, 4207.692, 4218.974, 4156.41, 16192, 0, []
1627802980.2357, 96, 0, 4172.821, 4273.846, 4189.231, 4218.462, 4154.872, 450, 0, []
1627802980.2435, 97, 0, 4155.897, 4287.692, 4180.513, 4225.128, 4143.59, 450, 0, []
1627802980.2514, 98, 0, 4139.487, 4265.128, 4195.897, 4223.59, 4128.205, 450, 0, []
1627802980.2592, 99, 0, 4157.436, 4243.59, 4170.256, 4212.821, 4129.231, 16192, 0, []
1627802980.2671, 100, 0, 4177.436, 4267.692, 4197.436, 4210.769, 4142.051, 450, 0, []
1627802980.2748, 101, 0, 4177.436, 4280.513, 4189.231, 4211.282, 4148.205, 450, 0, []
1627802980.2827, 102, 0, 4175.897, 4258.974, 4174.359, 4207.692, 4149.231, 450, 0, []
1627802980.2905, 103, 0, 4175.897, 4267.179, 4190.256, 4210.256, 4152.821, 16192, 0, []
1627802980.2985, 104, 0, 4170.769, 4295.385, 4166.154, 4215.385, 4150.769, 450, 0, []
1627802980.3064, 105, 0, 4164.615, 4289.231, 4190.769, 4216.923, 4142.051, 450, 0, []
1627802980.3143, 106, 0, 4162.051, 4262.051, 4189.744, 4210.256, 4137.949, 450, 0, []
1627802980.3222, 107, 0, 4166.667, 4257.949, 4178.974, 4207.692, 4140, 16192, 0, []
1627802980.3302, 108, 0, 4173.333, 4278.974, 4204.103, 4214.359, 4150.256, 450, 0, []
1627802980.3381, 109, 0, 4169.231, 4284.615, 4182.051, 4211.795, 4153.333, 450, 0, []
1627802980.3461, 110, 0, 4167.692, 4264.103, 4194.359, 4205.128, 4143.077, 450, 0, []
1627802980.3539, 111, 0, 4170.256, 4254.872, 4189.744, 4205.641, 4143.077, 16192, 0, []
1627802980.3619, 112, 0, 4167.692, 4277.436, 4173.846, 4207.179, 4152.821, 450, 0, []
1627802980.3698, 113, 0, 4166.667, 4289.231, 4194.359, 4202.564, 4147.179, 450, 0, []
1627802980.3778, 114, 0, 4168.718, 4269.231, 4170.256, 4191.282, 4140, 450, 0, []
1627802980.3857, 115, 0, 4167.179, 4254.872, 4188.718, 4189.744, 4150.256, 16192, 0, []
1627802980.3936, 116, 0, 4161.538, 4260, 4197.949, 4195.385, 4153.333, 450, 0, []
1627802980.4015, 117, 0, 4164.103, 4271.282, 4186.667, 4204.103, 4147.692, 450, 0, []
1627802980.4093, 118, 0, 4172.308, 4281.538, 4222.564, 4215.385, 4146.154, 450, 0, []
1627802980.4172, 119, 0, 4169.231, 4285.128, 4197.949, 4210.769, 4142.051, 16192, 0, []
1627802980.425, 120, 0, 4167.179, 4268.205, 4201.026, 4204.615, 4148.718, 450, 0, []
1627802980.4328, 121, 0, 4179.487, 4256.41, 4220, 4216.923, 4169.744, 450, 0, []
1627802980.4406, 122, 0, 4187.179, 4264.615, 4194.359, 4221.026, 4176.41, 450, 0, []
1627802980.4485, 123, 0, 4183.59, 4264.103, 4209.744, 4214.872, 4167.692, 16192, 0, []
1627802980.4563, 124, 0, 4183.59, 4265.641, 4200.513, 4217.949, 4167.179, 450, 0, []
1627802980.4643, 125, 0, 4187.179, 4275.897, 4205.128, 4223.077, 4176.923, 450, 0, []
1627802980.4721, 126, 0, 4189.231, 4268.718, 4205.641, 4221.538, 4182.564, 450, 0, []
1627802980.4801, 127, 0, 4185.641, 4261.026, 4173.846, 4214.872, 4175.897, 16192, 0, []
1627802980.488, 128, 0, 4184.615, 4275.897, 4200.513, 4210.769, 4168.718, 450, 0, []
1627802980.4959, 0, 0, 4187.692, 4271.282, 4188.205, 4216.41, 4169.231, 450, 0, []
1627802980.5038, 1, 0, 4180.513, 4244.615, 4183.077, 4222.051, 4166.667, 450, 0, []
1627802980.5116, 2, 0, 4177.436, 4260, 4201.026, 4215.385, 4162.051, 16182, 0, []
1627802980.5194, 3, 0, 4177.949, 4286.667, 4176.41, 4205.641, 4159.487, 450, 0, []
1627802980.5274, 4, 0, 4173.333, 4262.564, 4196.41, 4203.077, 4158.462, 16143, 0, []
1627802980.5353, 5, 0, 4179.487, 4252.308, 4190.256, 4203.077, 4165.128, 450, 0, []
1627802980.5433, 6, 0, 4190.256, 4285.641, 4192.821, 4210.769, 4172.308, 297, 0, []
1627802980.5512, 7, 0, 4184.103, 4285.128, 4211.282, 4212.821, 4163.077, 450, 0, []
1627802980.5589, 8, 0, 4171.282, 4260, 4166.667, 4199.487, 4151.282, 450, 0, []
1627802980.5668, 9, 0, 4176.41, 4265.641, 4178.462, 4202.051, 4162.051, 16158, 0, []
1627802980.5746, 10, 0, 4184.103, 4275.897, 4182.564, 4211.795, 4176.41, 450, 0, []
1627802980.5825, 11, 0, 4190.769, 4264.103, 4177.949, 4205.641, 4175.385, 16193, 0, []
1627802980.5903, 12, 0, 4204.615, 4251.282, 4204.615, 4206.154, 4182.564, 450, 0, []
1627802980.5982, 13, 0, 4200, 4249.231, 4172.821, 4204.615, 4180.513, 450, 0, []
1627802980.6061, 14, 0, 4179.487, 4261.026, 4182.051, 4194.872, 4160, 450, 0, []
1627802980.6141, 15, 0, 4171.795, 4277.949, 4182.564, 4195.385, 4156.41, 16193, 0, []
1627802980.622, 16, 0, 4184.103, 4259.487, 4163.077, 4205.641, 4174.872, 0, 0, []
1627802980.63, 17, 0, 4189.744, 4227.692, 4181.026, 4206.667, 4175.385, 0, 0, []
1627802980.6378, 18, 0, 4180, 4240.513, 4156.41, 4194.359, 4161.538, 0, 0, []
1627802980.6458, 19, 0, 4181.538, 4263.59, 4173.846, 4197.436, 4165.641, 0, 0, []
1627802980.6537, 20, 0, 4193.333, 4250.769, 4181.538, 4205.128, 4172.821, 0, 0, []
1627802980.6617, 21, 0, 4194.872, 4242.564, 4167.692, 4201.026, 4170.256, 0, 0, []
1627802980.6696, 22, 0, 4188.718, 4248.205, 4197.949, 4202.051, 4169.744, 0, 0, []
1627802980.6775, 23, 0, 4185.128, 4235.897, 4165.641, 4200, 4166.154, 0, 0, []
1627802980.6854, 24, 0, 4185.641, 4236.923, 4167.179, 4197.949, 4165.128, 0, 0, []
1627802980.6934, 25, 0, 4195.897, 4266.154, 4183.59, 4205.128, 4176.923, 0, 0, []
1627802980.7013, 26, 0, 4203.59, 4272.308, 4158.974, 4203.59, 4183.077, 0, 0, []
1627802980.7092, 27, 0, 4194.359, 4256.41, 4176.41, 4192.308, 4177.436, 0, 0, []
1627802980.717, 28, 0, 4185.641, 4255.385, 4163.59, 4191.282, 4178.974, 0, 0, []
1627802980.7248, 29, 0, 4190.769, 4257.436, 4175.385, 4200.513, 4186.667, 0, 0, []
1627802980.7327, 30, 0, 4190.256, 4249.744, 4196.41, 4201.538, 4186.667, 0, 0, []
1627802980.7405, 31, 0, 4178.974, 4232.308, 4180.513, 4200, 4178.462, 0, 0, []
1627802980.7484, 32, 0, 4178.974, 4218.974, 4202.051, 4195.897, 4174.359, 0, 0, []
1627802980.7561, 33, 0, 4193.846, 4233.846, 4180.513, 4189.231, 4182.564, 0, 0, []
1627802980.764, 34, 0, 4200.513, 4260.513, 4178.974, 4196.923, 4191.282, 0, 0, []
1627802980.7718, 35, 0, 4187.179, 4261.026, 4191.282, 4200.513, 4177.436, 0, 0, []
1627802980.7798, 36, 0, 4183.077, 4231.795, 4159.487, 4187.692, 4160.513, 0, 0, []
1627802980.7877, 37, 0, 4198.462, 4229.231, 4189.231, 4191.282, 4165.641, 0, 0, []
1627802980.7956, 38, 0, 4204.615, 4265.128, 4185.128, 4201.538, 4178.974, 0, 0, []
1627802980.8035, 39, 0, 4195.897, 4255.897, 4165.641, 4191.795, 4181.538, 0, 0, []
1627802980.8115, 40, 0, 4189.231, 4224.103, 4176.923, 4180, 4176.41, 0, 0, []
1627802980.8194, 41, 0, 4196.923, 4248.718, 4162.051, 4185.128, 4183.59, 0, 0, []
1627802980.8274, 42, 0, 4223.077, 4263.077, 4192.821, 4195.897, 4205.641, 0, 0, []
1627802980.8352, 43, 0, 4254.359, 4236.923, 4190.769, 4202.051, 4231.282, 0, 0, []
1627802980.8432, 44, 0, 4285.128, 4244.103, 4181.538, 4198.974, 4261.538, 0, 0, []
1627802980.8511, 45, 0, 4363.59, 4270.769, 4204.103, 4200, 4333.333, 0, 0, []
1627802980.8589, 46, 0, 4480, 4264.103, 4174.872, 4206.154, 4439.487, 0, 0, []
1627802980.8668, 47, 0, 4556.923, 4247.692, 4192.821, 4202.051, 4510.769, 0, 0, []
1627802980.8745, 48, 0, 4588.205, 4243.077, 4195.897, 4195.385, 4538.462, 0, 0, []
1627802980.8824, 49, 0, 4603.59, 4251.282, 4180.513, 4205.128, 4564.615, 0, 0, []
1627802980.8902, 50, 0, 4587.692, 4265.128, 4199.487, 4213.333, 4566.154, 0, 0, []
1627802980.8981, 51, 0, 4545.641, 4249.744, 4169.744, 4206.667, 4530.256, 0, 0, []
1627802980.9059, 52, 0, 4517.949, 4235.897, 4188.718, 4214.359, 4504.615, 0, 0, []
1627802980.9137, 53, 0, 4501.026, 4266.667, 4198.974, 4222.564, 4495.897, 0, 0, []
1627802980.9215, 54, 0, 4474.872, 4271.795, 4174.872, 4218.974, 4470.769, 0, 0, []
1627802980.9295, 55, 0, 4444.615, 4235.897, 4195.385, 4223.59, 4437.949, 0, 0, []
1627802980.9374, 56, 0, 4408.718, 4226.667, 4175.897, 4216.41, 4405.128, 0, 0, []
1627802980.9454, 57, 0, 4370.769, 4246.667, 4187.692, 4201.538, 4374.872, 0, 0, []
1627802980.9532, 58, 0, 4344.103, 4258.974, 4202.051, 4204.103, 4355.385, 0, 0, []
1627802980.9612, 59, 0, 4326.667, 4244.103, 4186.667, 4208.718, 4343.077, 0, 0, []
1627802980.9691, 60, 0, 4317.436, 4231.282, 4218.462, 4210.769, 4337.949, 0, 0, []
1627802980.9771, 61, 0, 4311.282, 4252.308, 4196.41, 4217.436, 4333.333, 0, 0, []
1627802980.985, 62, 0, 4293.846, 4270.769, 4181.026, 4211.282, 4307.692, 0, 0, []
1627802980.9929, 63, 0, 4270.769, 4256.41, 4189.231, 4192.821, 4271.795, 0, 0, []
1627802981.0008, 64, 0, 4259.487, 4241.538, 4176.923, 4188.205, 4251.795, 450, 0, []
1627802981.0088, 65, 0, 4258.974, 4239.487, 4202.564, 4197.949, 4252.308, 450, 0, []
1627802981.0167, 66, 0, 4249.744, 4231.795, 4176.923, 4194.872, 4254.872, 16182, 0, []
1627802981.0245, 67, 0, 4241.538, 4241.026, 4173.846, 4186.667, 4250.256, 450, 0, []
1627802981.0323, 68, 0, 4248.205, 4255.897, 4198.974, 4196.41, 4249.231, 16143, 0, []
1627802981.0401, 69, 0, 4239.487, 4231.282, 4173.846, 4204.615, 4243.59, 450, 0, []
1627802981.048, 70, 0, 4211.795, 4210.769, 4189.744, 4198.974, 4227.692, 300, 0, []
1627802981.0558, 71, 0, 4196.41, 4235.385, 4173.333, 4185.641, 4209.231, 450, 0, []
1627802981.0637, 72, 0, 4198.974, 4263.077, 4162.051, 4178.974, 4194.359, 450, 0, []
1627802981.0714, 73, 0, 4203.077, 4255.385, 4189.744, 4184.103, 4191.282, 16158, 0, []
1627802981.0793, 74, 0, 4207.692, 4240, 4179.487, 4192.821, 4200.513, 450, 0, []
1627802981.0871, 75, 0, 4211.795, 4248.205, 4207.179, 4203.59, 4208.718, 16193, 0, []
1627802981.0951, 76, 0, 4197.436, 4252.308, 4191.282, 4197.436, 4195.897, 450, 0, []
1627802981.103, 77, 0, 4182.564, 4244.103, 4172.821, 4177.949, 4183.077, 450, 0, []
1627802981.1109, 78, 0, 4184.615, 4237.436, 4201.538, 4173.846, 4183.077, 450, 0, []
1627802981.1188, 79, 0, 4185.641, 4253.846, 4181.026, 4179.487, 4184.103, 16193, 0, []
1627802981.1268, 80, 0, 4187.179, 4277.436, 4202.564, 4198.462, 4190.256, 450, 0, []
1627802981.1347, 81, 0, 4200, 4267.692, 4203.59, 4217.436, 4202.564, 450, 0, []
1627802981.1427, 82, 0, 4201.026, 4264.103, 4178.462, 4215.897, 4202.051, 450, 0, []
1627802981.1505, 83, 0, 4186.667, 4284.615, 4191.795, 4208.718, 4188.205, 16193, 0, []
1627802981.1585, 84, 0, 4182.051, 4272.821, 4163.59, 4204.615, 4185.641, 450, 0, []
1627802981.1664, 85, 0, 4183.59, 4258.974, 4178.462, 4203.59, 4186.154, 450, 0, []
1627802981.1742, 86, 0, 4176.923, 4285.641, 4186.667, 4203.59, 4176.41, 450, 0, []
1627802981.1821, 87, 0, 4168.718, 4272.308, 4167.692, 4201.026, 4168.718, 16193, 0, []
1627802981.1898, 88, 0, 4166.667, 4229.744, 4191.795, 4195.385, 4166.667, 450, 0, []
1627802981.1977, 89, 0, 4173.846, 4256.41, 4178.462, 4193.846, 4172.308, 450, 0, []
1627802981.2055, 90, 0, 4182.051, 4289.744, 4195.385, 4206.154, 4182.051, 450, 0, []
1627802981.2134, 91, 0, 4175.897, 4259.487, 4196.923, 4211.795, 4178.974, 16193, 0, []
1627802981.2212, 92, 0, 4165.128, 4240.513, 4157.436, 4196.923, 4158.462, 450, 0, []
1627802981.229, 93, 0, 4169.231, 4263.077, 4177.436, 4189.744, 4151.795, 450, 0, []
1627802981.2368, 94, 0, 4170.769, 4274.359, 4170.769, 4197.949, 4166.154, 450, 0, []
1627802981.2448, 95, 0, 4166.667, 4255.897, 4181.026, 4211.282, 4175.897, 16193, 0, []
1627802981.2527, 96, 0, 4177.949, 4243.59, 4189.231, 4218.974, 4170.769, 450, 0, []
1627802981.2607, 97, 0, 4183.077, 4254.359, 4167.179, 4213.333, 4168.205, 450, 0, []
1627802981.2685, 98, 0, 4172.821, 4264.103, 4195.897, 4202.564, 4171.795, 450, 0, []
1627802981.2765, 99, 0, 4172.821, 4261.026, 4175.897, 4193.846, 4169.744, 16193, 0, []
1627802981.2844, 100, 0, 4180.513, 4265.128, 4179.487, 4196.923, 4171.282, 450, 0, []
1627802981.2924, 101, 0, 4177.436, 4271.282, 4204.103, 4203.077, 4178.974, 450, 0, []
1627802981.3003, 102, 0, 4167.179, 4250.256, 4164.103, 4195.385, 4172.308, 450, 0, []
1627802981.3083, 103, 0, 4160.513, 4243.59, 4168.718, 4189.744, 4158.974, 16193, 0, []
1627802981.3161, 104, 0, 4161.026, 4266.154, 4169.231, 4186.667, 4159.487, 450, 0, []
1627802981.324, 105, 0, 4167.692, 4261.538, 4172.821, 4185.641, 4164.615, 450, 0, []
1627802981.3319, 106, 0, 4170.256, 4251.282, 4171.795, 4188.718, 4164.103, 450, 0, []
1627802981.3397, 107, 0, 4161.538, 4267.179, 4143.077, 4189.744, 4165.128, 16193, 0, []
1627802981.3476, 108, 0, 4162.051, 4272.821, 4182.051, 4198.462, 4168.718, 450, 0, []
1627802981.3553, 109, 0, 4175.897, 4252.308, 4178.974, 4206.154, 4171.282, 450, 0, []
1627802981.3632, 110, 0, 4180, 4240.513, 4169.231, 4203.59, 4171.795, 450, 0, []
1627802981.371, 111, 0, 4171.282, 4249.231, 4191.282, 4195.897, 4169.231, 16193, 0, []
1627802981.3789, 112, 0, 4161.538, 4257.949, 4152.308, 4184.103, 4163.59, 450, 0, []
1627802981.3867, 113, 0, 4156.41, 4256.923, 4162.051, 4180, 4158.974, 450, 0, []
1627802981.3946, 114, 0, 4155.897, 4246.667, 4171.795, 4187.692, 4152.821, 450, 0, []
1627802981.4025, 115, 0, 4163.077, 4248.718, 4170.256, 4196.923, 4152.821, 16193, 0, []
1627802981.4105, 116, 0, 4173.333, 4262.051, 4202.051, 4200, 4167.692, 450, 0, []
1627802981.4184, 117, 0, 4172.308, 4265.641, 4185.641, 4203.077, 4174.872, 450, 0, []
1627802981.4264, 118, 0, 4168.205, 4258.974, 4197.436, 4210.769, 4172.821, 450, 0, []
1627802981.4342, 119, 0, 4168.718, 4247.692, 4187.179, 4203.077, 4174.359, 16193, 0, []
1627802981.4422, 120, 0, 4155.897, 4247.692, 4158.462, 4186.154, 4163.077, 450, 0, []
1627802981.4501, 121, 0, 4146.154, 4251.795, 4186.667, 4187.179, 4151.282, 450, 0, []
1627802981.4581, 122, 0, 4162.051, 4236.923, 4171.795, 4201.026, 4166.667, 450, 0, []
1627802981.466, 123, 0, 4167.179, 4223.59, 4179.487, 4208.718, 4178.462, 16193, 0, []
1627802981.4737, 124, 0, 4141.538, 4233.333, 4185.128, 4203.077, 4157.949, 450, 0, []
1627802981.4816, 125, 0, 4130.256, 4237.436, 4161.538, 4197.436, 4147.179, 450, 0, []
1627802981.4894, 126, 0, 4141.538, 4213.846, 4185.641, 4198.974, 4153.846, 450, 0, []
1627802981.4973, 127, 0, 4136.41, 4213.846, 4174.359, 4194.359, 4141.538, 16193, 0, []
1627802981.5053, 128, 0, 4123.59, 4249.744, 4185.128, 4191.795, 4130.769, 450, 0, []
1627802981.5131, 0, 0, 4119.487, 4253.846, 4194.359, 4193.846, 4134.872, 450, 0, []
1627802981.5209, 1, 0, 4117.949, 4225.128, 4166.154, 4192.821, 4135.385, 450, 0, []
1627802981.5288, 2, 0, 4120, 4233.333, 4196.41, 4204.103, 4132.308, 16185, 0, []
1627802981.5366, 3, 0, 4128.205, 4252.821, 4194.359, 4215.385, 4135.385, 450, 0, []
1627802981.5446, 4, 0, 4135.385, 4218.974, 4198.462, 4206.154, 4139.487, 16143, 0, []
1627802981.5524, 5, 0, 4134.359, 4192.821, 4209.744, 4196.923, 4136.923, 450, 0, []
1627802981.5604, 6, 0, 4130.769, 4227.692, 4172.821, 4202.051, 4128.718, 302, 0, []
1627802981.5683, 7, 0, 4126.154, 4263.59, 4186.154, 4199.487, 4115.897, 450, 0, []
1627802981.5763, 8, 0, 4112.821, 4257.436, 4164.615, 4184.103, 4101.538, 450, 0, []
1627802981.5842, 9, 0, 4101.538, 4236.41, 4149.231, 4186.154, 4102.051, 16158, 0, []
1627802981.5921, 10, 0, 4113.333, 4220.513, 4182.564, 4204.615, 4121.538, 450, 0, []
1627802981.6, 11, 0, 4130.256, 4225.128, 4174.872, 4208.718, 4137.949, 16193, 0, []
