Timestamp, COUNTER, INTERPOLATED, AF3, T7, Pz, T8, AF4, RAW_CQ, MARKER_HARDWARE, MARKERS
1628362750.378, 7, 0, 4210.256, 4110.256, 4133.333, 4187.692, 4052.821, 450, 0, []
1628362750.3859, 8, 0, 4186.667, 4095.385, 4104.615, 4160.513, 4024.615, 450, 0, []
1628362750.3937, 9, 0, 4184.615, 4098.974, 4096.41, 4157.436, 4012.308, 16173, 0, []
1628362750.4016, 10, 0, 4215.385, 4126.667, 4134.359, 4188.205, 4037.436, 450, 0, []
1628362750.4095, 11, 0, 4222.051, 4128.205, 4150.769, 4199.487, 4045.128, 16193, 0, []
1628362750.4173, 12, 0, 4186.667, 4097.949, 4126.154, 4171.795, 4015.385, 450, 0, []
1628362750.4251, 13, 0, 4171.795, 4089.744, 4104.103, 4148.205, 4000.513, 450, 0, []
1628362750.4331, 14, 0, 4201.026, 4106.154, 4102.051, 4159.487, 4022.564, 450, 0, []
1628362750.441, 15, 0, 4231.795, 4110.256, 4123.59, 4182.564, 4052.308, 16193, 0, []
1628362750.449, 16, 0, 4238.462, 4107.692, 4134.872, 4192.308, 4071.795, 0, 0, []
1628362750.4568, 17, 0, 4225.641, 4105.641, 4130.256, 4186.154, 4066.667, 0, 0, []
1628362750.4648, 18, 0, 4205.128, 4096.41, 4127.179, 4170.256, 4043.59, 0, 0, []
1628362750.4727, 19, 0, 4184.615, 4076.923, 4101.538, 4151.795, 4028.718, 0, 0, []
1628362750.4807, 20, 0, 4182.051, 4073.846, 4094.872, 4153.846, 4028.718, 0, 0, []
1628362750.4886, 21, 0, 4186.667, 4086.154, 4103.077, 4162.051, 4024.615, 0, 0, []
1628362750.4965, 22, 0, 4163.077, 4070.256, 4081.538, 4133.333, 3994.872, 0, 0, []
1628362750.5044, 23, 0, 4167.692, 4064.615, 4091.282, 4132.821, 3995.897, 0, 0, []
1628362750.5124, 24, 0, 4228.205, 4112.821, 4143.077, 4199.487, 4051.795, 0, 0, []
1628362750.5203, 25, 0, 4241.026, 4133.333, 4165.641, 4224.103, 4065.128, 0, 0, []
1628362750.5281, 26, 0, 4204.615, 4097.949, 4140.513, 4180.513, 4034.359, 0, 0, []
1628362750.5359, 27, 0, 4206.154, 4090.256, 4138.974, 4168.205, 4037.436, 0, 0, []
1628362750.5437, 28, 0, 4216.41, 4101.026, 4154.872, 4176.41, 4040.513, 0, 0, []
1628362750.5516, 29, 0, 4199.487, 4082.564, 4125.641, 4156.923, 4014.359, 0, 0, []
1628362750.5594, 30, 0, 4189.744, 4068.718, 4111.795, 4147.692, 4008.718, 0, 0, []
1628362750.5673, 31, 0, 4182.564, 4076.41, 4111.282, 4155.385, 4015.897, 0, 0, []
1628362750.575, 32, 0, 4169.231, 4074.872, 4088.718, 4148.205, 4008.718, 0, 0, []
1628362750.5829, 33, 0, 4162.051, 4066.154, 4084.103, 4135.897, 4009.231, 0, 0, []
1628362750.5907, 34, 0, 4159.487, 4067.692, 4092.821, 4135.897, 4020.513, 0, 0, []
1628362750.5986, 35, 0, 4160.513, 4072.821, 4109.744, 4140, 4022.564, 0, 0, []
1628362750.6064, 36, 0, 4171.795, 4087.179, 4117.949, 4142.564, 4023.59, 0, 0, []
1628362750.6144, 37, 0, 4170.769, 4100, 4110.769, 4135.385, 4027.179, 0, 0, []
1628362750.6222, 38, 0, 4154.359, 4088.205, 4111.795, 4126.154, 4021.538, 0, 0, []
1628362750.6302, 39, 0, 4156.41, 4077.949, 4110.256, 4136.41, 4021.026, 0, 0, []
1628362750.6381, 40, 0, 4170.256, 4090.769, 4115.385, 4137.949, 4027.179, 0, 0, []
1628362750.6461, 41, 0, 4171.795, 4102.051, 4117.949, 4122.564, 4034.872, 0, 0, []
1628362750.654, 42, 0, 4174.872, 4102.564, 4117.949, 4133.846, 4049.231, 0, 0, []
1628362750.6619, 43, 0, 4190.256, 4110.256, 4134.872, 4159.487, 4057.436, 0, 0, []
1628362750.6698, 44, 0, 4193.846, 4106.667, 4125.128, 4149.744, 4048.718, 0, 0, []
1628362750.6776, 45, 0, 4173.846, 4089.744, 4106.154, 4123.59, 4035.385, 0, 0, []
1628362750.6855, 46, 0, 4158.974, 4089.231, 4103.59, 4118.974, 4025.128, 0, 0, []
1628362750.6933, 47, 0, 4178.462, 4104.103, 4103.077, 4134.872, 4030.256, 0, 0, []
1628362750.7011, 48, 0, 4203.077, 4116.41, 4122.564, 4150.769, 4048.205, 0, 0, []
1628362750.7089, 49, 0, 4182.564, 4110.256, 4108.205, 4131.282, 4037.949, 0, 0, []
1628362750.7168, 50, 0, 4158.974, 4101.026, 4075.897, 4108.718, 4018.974, 0, 0, []
1628362750.7246, 51, 0, 4184.103, 4114.872, 4086.667, 4129.231, 4040, 0, 0, []
1628362750.7325, 52, 0, 4196.41, 4130.256, 4097.949, 4137.949, 4052.308, 0, 0, []
1628362750.7402, 53, 0, 4169.231, 4123.59, 4097.436, 4110.769, 4027.179, 0, 0, []
1628362750.7482, 54, 0, 4161.538, 4111.282, 4084.615, 4100.513, 4019.487, 0, 0, []
1628362750.7561, 55, 0, 4172.821, 4111.795, 4076.41, 4110.256, 4026.667, 0, 0, []
1628362750.7641, 56, 0, 4176.41, 4122.564, 4087.692, 4113.333, 4026.154, 0, 0, []
1628362750.772, 57, 0, 4179.487, 4131.282, 4096.41, 4118.974, 4043.077, 0, 0, []
1628362750.7799, 58, 0, 4187.179, 4126.667, 4106.154, 4131.795, 4063.077, 0, 0, []
1628362750.7878, 59, 0, 4190.769, 4118.974, 4093.846, 4132.821, 4050.769, 0, 0, []
1628362750.7958, 60, 0, 4182.564, 4131.282, 4087.179, 4121.026, 4034.872, 0, 0, []
1628362750.8037, 61, 0, 4183.59, 4149.744, 4106.667, 4120, 4053.333, 0, 0, []
1628362750.8117, 62, 0, 4206.667, 4153.846, 4108.718, 4138.462, 4077.436, 0, 0, []
1628362750.8195, 63, 0, 4223.59, 4159.487, 4112.821, 4143.077, 4077.436, 0, 0, []
1628362750.8275, 64, 0, 4205.641, 4162.564, 4102.051, 4124.103, 4065.128, 450, 0, []
1628362750.8354, 65, 0, 4178.462, 4139.487, 4082.051, 4112.821, 4052.821, 450, 0, []
1628362750.8432, 66, 0, 4192.821, 4135.385, 4105.128, 4128.205, 4066.154, 16189, 0, []
1628362750.8511, 67, 0, 4238.462, 4169.744, 4113.333, 4140, 4096.923, 450, 0, []
1628362750.8588, 68, 0, 4261.026, 4177.949, 4097.436, 4126.667, 4114.359, 16166, 0, []
1628362750.8667, 69, 0, 4275.385, 4156.41, 4092.308, 4116.923, 4143.59, 450, 0, []
1628362750.8745, 70, 0, 4332.821, 4161.538, 4095.897, 4132.308, 4201.026, 16113, 0, []
1628362750.8824, 71, 0, 4403.59, 4176.923, 4103.59, 4144.103, 4253.846, 450, 0, []
1628362750.8902, 72, 0, 4441.538, 4171.282, 4103.077, 4138.462, 4290.769, 450, 0, []
1628362750.898, 73, 0, 4455.897, 4167.179, 4110.769, 4135.897, 4311.282, 16173, 0, []
1628362750.9058, 74, 0, 4458.462, 4177.436, 4111.282, 4136.923, 4310.256, 450, 0, []
1628362750.9138, 75, 0, 4451.282, 4183.59, 4100.513, 4132.308, 4303.59, 16193, 0, []
1628362750.9217, 76, 0, 4435.385, 4185.128, 4116.923, 4126.154, 4290.256, 450, 0, []
1628362750.9297, 77, 0, 4418.462, 4203.59, 4128.718, 4133.846, 4274.359, 450, 0, []
1628362750.9375, 78, 0, 4393.333, 4212.308, 4123.59, 4142.051, 4263.077, 450, 0, []
1628362750.9455, 79, 0, 4353.333, 4188.718, 4122.564, 4130.256, 4235.897, 16193, 0, []
1628362750.9534, 80, 0, 4329.231, 4174.872, 4116.923, 4123.59, 4202.051, 450, 0, []
1628362750.9614, 81, 0, 4334.359, 4190.769, 4129.744, 4140.513, 4193.333, 450, 0, []
1628362750.9693, 82, 0, 4332.308, 4202.051, 4130.769, 4147.692, 4186.667, 450, 0, []
1628362750.9773, 83, 0, 4307.692, 4192.821, 4111.282, 4132.821, 4158.974, 16193, 0, []
1628362750.9851, 84, 0, 4284.103, 4181.538, 4112.308, 4128.718, 4139.487, 450, 0, []
1628362750.9929, 85, 0, 4265.641, 4177.949, 4105.641, 4132.308, 4134.872, 450, 0, []
1628362751.0008, 86, 0, 4258.462, 4184.615, 4109.744, 4136.923, 4137.949, 450, 0, []
1628362751.0086, 87, 0, 4264.615, 4194.872, 4123.59, 4146.667, 4140, 16193, 0, []
1628362751.0165, 88, 0, 4248.718, 4188.205, 4109.231, 4127.692, 4118.974, 450, 0, []
1628362751.0242, 89, 0, 4222.564, 4171.282, 4092.308, 4097.436, 4105.641, 450, 0, []
1628362751.0321, 90, 0, 4225.128, 4173.846, 4098.974, 4104.615, 4122.564, 450, 0, []
1628362751.0399, 91, 0, 4237.436, 4183.077, 4122.564, 4131.795, 4128.718, 16193, 0, []
1628362751.0478, 92, 0, 4232.308, 4174.359, 4107.179, 4137.436, 4122.564, 450, 0, []
1628362751.0556, 93, 0, 4228.205, 4163.59, 4092.821, 4137.949, 4134.872, 450, 0, []
1628362751.0634, 94, 0, 4230.769, 4170.769, 4105.641, 4143.59, 4140.513, 450, 0, []
1628362751.0712, 95, 0, 4220, 4169.744, 4085.128, 4132.308, 4116.41, 16193, 0, []
1628362751.0792, 96, 0, 4206.154, 4159.487, 4071.795, 4109.744, 4094.872, 450, 0, []
1628362751.0871, 97, 0, 4200, 4164.615, 4073.333, 4100, 4094.359, 450, 0, []
1628362751.0951, 98, 0, 4200, 4168.718, 4075.385, 4111.282, 4091.795, 450, 0, []
1628362751.1029, 99, 0, 4205.128, 4163.077, 4091.795, 4121.026, 4077.949, 16193, 0, []
1628362751.1109, 100, 0, 4220, 4175.385, 4104.103, 4123.077, 4088.718, 450, 0, []
1628362751.1188, 101, 0, 4228.205, 4188.205, 4117.949, 4124.615, 4111.795, 450, 0, []
1628362751.1268, 102, 0, 4215.385, 4167.692, 4095.385, 4121.026, 4102.051, 450, 0, []
1628362751.1347, 103, 0, 4219.487, 4164.103, 4074.872, 4128.718, 4102.051, 16193, 0, []
1628362751.1424, 104, 0, 4237.436, 4187.692, 4112.308, 4145.641, 4126.667, 450, 0, []
1628362751.1503, 105, 0, 4227.179, 4184.103, 4116.41, 4142.564, 4115.385, 450, 0, []
1628362751.1581, 106, 0, 4208.205, 4174.872, 4095.897, 4132.821, 4085.128, 450, 0, []
1628362751.166, 107, 0, 4220, 4192.821, 4101.026, 4141.538, 4086.154, 16193, 0, []
1628362751.1738, 108, 0, 4223.077, 4188.205, 4098.974, 4136.41, 4090.769, 450, 0, []
1628362751.1816, 109, 0, 4191.282, 4163.077, 4090.256, 4108.718, 4073.333, 450, 0, []
1628362751.1894, 110, 0, 4175.385, 4163.59, 4074.872, 4101.026, 4055.385, 450, 0, []
1628362751.1973, 111, 0, 4179.487, 4164.103, 4078.462, 4107.692, 4046.667, 16193, 0, []
1628362751.2051, 112, 0, 4189.744, 4166.154, 4091.282, 4109.744, 4061.538, 450, 0, []
1628362751.2131, 113, 0, 4217.436, 4190.256, 4101.026, 4130.256, 4100.513, 450, 0, []
1628362751.2209, 114, 0, 4238.462, 4197.949, 4126.154, 4160.513, 4118.462, 450, 0, []
1628362751.2289, 115, 0, 4218.974, 4180, 4102.051, 4144.615, 4087.692, 16193, 0, []
1628362751.2368, 116, 0, 4191.795, 4178.974, 4071.795, 4104.615, 4055.385, 450, 0, []
1628362751.2448, 117, 0, 4196.41, 4188.718, 4088.205, 4109.231, 4070.769, 450, 0, []
1628362751.2527, 118, 0, 4210.769, 4184.103, 4089.231, 4131.795, 4094.359, 450, 0, []
1628362751.2606, 119, 0, 4214.359, 4182.051, 4089.231, 4129.744, 4086.154, 16193, 0, []
1628362751.2685, 120, 0, 4205.641, 4182.564, 4087.179, 4113.846, 4070.256, 450, 0, []
1628362751.2765, 121, 0, 4185.641, 4168.205, 4075.897, 4105.641, 4058.462, 450, 0, []
1628362751.2844, 122, 0, 4176.41, 4164.103, 4064.103, 4110.769, 4047.179, 450, 0, []
1628362751.2924, 123, 0, 4184.103, 4175.897, 4057.436, 4116.923, 4050.769, 16193, 0, []
1628362751.3002, 124, 0, 4182.051, 4177.436, 4077.436, 4109.231, 4060.513, 450, 0, []
1628362751.308, 125, 0, 4166.154, 4166.667, 4060.513, 4089.231, 4049.744, 450, 0, []
1628362751.3159, 126, 0, 4175.897, 4171.282, 4054.359, 4095.897, 4048.205, 450, 0, []
1628362751.3237, 127, 0, 4214.872, 4192.308, 4099.487, 4133.333, 4083.59, 16193, 0, []
1628362751.3316, 128, 0, 4229.231, 4197.949, 4101.026, 4144.615, 4107.179, 450, 0, []
1628362751.3394, 0, 0, 4203.59, 4185.128, 4089.744, 4121.538, 4084.103, 450, 0, []
1628362751.3472, 1, 0, 4184.103, 4180.513, 4085.128, 4106.667, 4056.923, 450, 0, []
1628362751.355, 2, 0, 4192.308, 4188.718, 4084.615, 4107.692, 4062.051, 16189, 0, []
1628362751.3629, 3, 0, 4205.128, 4188.205, 4097.436, 4113.333, 4078.974, 450, 0, []
1628362751.3707, 4, 0, 4200.513, 4174.359, 4088.205, 4115.897, 4075.385, 16165, 0, []
1628362751.3786, 5, 0, 4193.846, 4166.154, 4095.897, 4111.282, 4070.256, 450, 0, []
1628362751.3863, 6, 0, 4206.154, 4177.949, 4111.282, 4108.718, 4090.256, 16115, 0, []
1628362751.3943, 7, 0, 4223.59, 4194.872, 4122.051, 4117.949, 4110.769, 450, 0, []
1628362751.4022, 8, 0, 4233.333, 4202.564, 4134.872, 4128.205, 4111.282, 450, 0, []
1628362751.4102, 9, 0, 4238.462, 4212.821, 4114.872, 4130.256, 4106.667, 16173, 0, []
1628362751.4181, 10, 0, 4232.308, 4217.436, 4108.718, 4127.179, 4101.026, 450, 0, []
1628362751.426, 11, 0, 4218.974, 4199.487, 4105.641, 4122.051, 4091.795, 16193, 0, []
1628362751.4339, 12, 0, 4213.846, 4190.256, 4093.333, 4120.513, 4085.128, 450, 0, []
1628362751.4419, 13, 0, 4215.385, 4206.667, 4100, 4116.923, 4075.897, 450, 0, []
1628362751.4498, 14, 0, 4213.333, 4207.179, 4086.154, 4106.154, 4073.333, 450, 0, []
1628362751.4578, 15, 0, 4214.359, 4197.436, 4094.359, 4108.718, 4087.179, 16193, 0, []
1628362751.4656, 16, 0, 4214.359, 4210.256, 4116.41, 4118.974, 4092.308, 0, 0, []
1628362751.4734, 17, 0, 4211.795, 4220, 4111.282, 4123.077, 4084.615, 0, 0, []
1628362751.4813, 18, 0, 4208.718, 4204.615, 4120, 4118.974, 4084.615, 0, 0, []
1628362751.4891, 19, 0, 4207.692, 4191.282, 4126.667, 4122.564, 4095.897, 0, 0, []
1628362751.497, 20, 0, 4225.641, 4207.179, 4129.744, 4147.692, 4114.359, 0, 0, []
1628362751.5047, 21, 0, 4249.231, 4231.795, 4136.41, 4163.077, 4124.615, 0, 0, []
1628362751.5126, 22, 0, 4242.564, 4226.154, 4124.615, 4143.59, 4116.923, 0, 0, []
1628362751.5204, 23, 0, 4218.462, 4200.513, 4114.359, 4127.179, 4106.154, 0, 0, []
1628362751.5283, 24, 0, 4208.718, 4190.256, 4099.487, 4129.744, 4100, 0, 0, []
1628362751.5361, 25, 0, 4211.795, 4199.487, 4098.462, 4129.744, 4094.872, 0, 0, []
1628362751.544, 26, 0, 4203.59, 4198.974, 4108.718, 4118.462, 4087.179, 0, 0, []
1628362751.5519, 27, 0, 4182.051, 4184.103, 4090.769, 4100.513, 4072.308, 0, 0, []
1628362751.5599, 28, 0, 4182.051, 4190.256, 4094.359, 4101.538, 4070.769, 0, 0, []
1628362751.5678, 29, 0, 4213.333, 4226.154, 4114.872, 4129.744, 4100, 0, 0, []
1628362751.5758, 30, 0, 4228.205, 4242.051, 4123.59, 4148.205, 4124.103, 0, 0, []
1628362751.5836, 31, 0, 4212.308, 4215.385, 4122.051, 4140.513, 4118.462, 0, 0, []
1628362751.5916, 32, 0, 4202.564, 4204.103, 4105.128, 4128.718, 4104.103, 0, 0, []
1628362751.5995, 33, 0, 4202.564, 4217.436, 4112.821, 4117.949, 4094.359, 0, 0, []
1628362751.6073, 34, 0, 4201.026, 4217.436, 4115.897, 4111.282, 4097.949, 0, 0, []
1628362751.6152, 35, 0, 4197.949, 4207.179, 4117.949, 4124.615, 4104.103, 0, 0, []
1628362751.6229, 36, 0, 4196.41, 4208.205, 4119.487, 4132.821, 4093.333, 0, 0, []
1628362751.6308, 37, 0, 4202.564, 4213.846, 4089.744, 4104.103, 4083.59, 0, 0, []
1628362751.6386, 38, 0, 4209.231, 4201.026, 4083.59, 4067.692, 4080.513, 0, 0, []
1628362751.6465, 39, 0, 4241.538, 4196.41, 4089.231, 4082.564, 4098.974, 0, 0, []
1628362751.6543, 40, 0, 4297.949, 4221.538, 4105.128, 4120.513, 4136.41, 0, 0, []
1628362751.6622, 41, 0, 4314.872, 4246.154, 4129.231, 4111.795, 4141.026, 0, 0, []
1628362751.6699, 42, 0, 4301.026, 4248.205, 4120, 4091.795, 4122.564, 0, 0, []
1628362751.6778, 43, 0, 4307.179, 4249.744, 4128.205, 4108.205, 4130.769, 0, 0, []
1628362751.6856, 44, 0, 4304.103, 4251.795, 4124.103, 4115.897, 4124.103, 0, 0, []
1628362751.6936, 45, 0, 4268.205, 4230.769, 4098.974, 4087.179, 4075.897, 0, 0, []
1628362751.7015, 46, 0, 4249.231, 4214.359, 4110.769, 4070.769, 4058.462, 0, 0, []
1628362751.7094, 47, 0, 4250.256, 4221.026, 4112.308, 4083.077, 4081.026, 0, 0, []
1628362751.7173, 48, 0, 4233.333, 4213.846, 4105.641, 4082.051, 4070.769, 0, 0, []
1628362751.7253, 49, 0, 4201.538, 4187.692, 4082.564, 4051.795, 4028.205, 0, 0, []
1628362751.7332, 50, 0, 4201.026, 4191.795, 4073.846, 4046.667, 4032.308, 0, 0, []
1628362751.7412, 51, 0, 4244.615, 4231.795, 4135.385, 4099.487, 4094.872, 0, 0, []
1628362751.749, 52, 0, 4269.231, 4247.179, 4161.026, 4135.897, 4127.179, 0, 0, []
1628362751.757, 53, 0, 4246.667, 4221.538, 4138.974, 4116.923, 4098.462, 0, 0, []
1628362751.7649, 54, 0, 4224.615, 4204.615, 4125.641, 4100.513, 4080.513, 0, 0, []
1628362751.7727, 55, 0, 4214.872, 4200, 4110.256, 4101.538, 4087.692, 0, 0, []
1628362751.7806, 56, 0, 4198.974, 4187.692, 4093.846, 4091.282, 4069.231, 0, 0, []
1628362751.7883, 57, 0, 4189.744, 4188.718, 4073.846, 4075.385, 4045.641, 0, 0, []
1628362751.7962, 58, 0, 4183.077, 4193.333, 4072.308, 4063.59, 4050.769, 0, 0, []
1628362751.804, 59, 0, 4167.179, 4182.051, 4066.667, 4054.872, 4057.436, 0, 0, []
1628362751.8119, 60, 0, 4173.846, 4185.641, 4063.077, 4067.692, 4060, 0, 0, []
1628362751.8197, 61, 0, 4197.436, 4202.051, 4091.282, 4084.615, 4075.385, 0, 0, []
1628362751.8275, 62, 0, 4200, 4189.231, 4092.308, 4081.538, 4091.795, 0, 0, []
1628362751.8353, 63, 0, 4180, 4166.667, 4083.077, 4078.462, 4088.718, 0, 0, []
1628362751.8432, 64, 0, 4160.513, 4162.051, 4081.026, 4076.923, 4066.667, 450, 0, []
1628362751.851, 65, 0, 4154.359, 4164.615, 4069.231, 4071.282, 4058.462, 450, 0, []
1628362751.859, 66, 0, 4158.462, 4175.897, 4082.564, 4073.846, 4076.41, 16188, 0, []
1628362751.8668, 67, 0, 4154.872, 4189.231, 4072.308, 4063.59, 4074.872, 450, 0, []
1628362751.8748, 68, 0, 4137.436, 4181.026, 4051.282, 4025.641, 4044.615, 16165, 0, []
1628362751.8827, 69, 0, 4148.205, 4174.872, 4074.359, 4033.333, 4060.513, 450, 0, []
1628362751.8907, 70, 0, 4185.641, 4191.282, 4101.026, 4105.128, 4116.923, 16118, 0, []
1628362751.8986, 71, 0, 4179.487, 4188.718, 4099.487, 4131.282, 4113.333, 450, 0, []
1628362751.9065, 72, 0, 4143.59, 4169.231, 4077.436, 4098.974, 4076.41, 450, 0, []
1628362751.9144, 73, 0, 4154.359, 4185.641, 4096.41, 4105.128, 4102.051, 16173, 0, []
1628362751.9224, 74, 0, 4192.308, 4213.846, 4133.333, 4127.692, 4146.667, 450, 0, []
1628362751.9303, 75, 0, 4185.641, 4208.205, 4111.282, 4077.436, 4133.333, 16195, 0, []
1628362751.9382, 76, 0, 4159.487, 4192.821, 4104.615, 4022.051, 4110.769, 450, 0, []
1628362751.946, 77, 0, 4156.923, 4190.256, 4113.333, 4042.051, 4110.769, 450, 0, []
1628362751.9538, 78, 0, 4138.462, 4166.154, 4074.359, 4060.513, 4077.949, 450, 0, []
1628362751.9617, 79, 0, 4130.769, 4148.205, 4055.897, 4062.564, 4057.436, 16195, 0, []
1628362751.9695, 80, 0, 4178.974, 4183.077, 4092.821, 4108.205, 4108.718, 450, 0, []
1628362751.9774, 81, 0, 4207.179, 4207.179, 4127.692, 4137.949, 4136.41, 450, 0, []
1628362751.9851, 82, 0, 4178.462, 4190.256, 4101.026, 4095.385, 4093.333, 450, 0, []
1628362751.993, 83, 0, 4156.41, 4181.538, 4078.462, 4051.282, 4071.795, 16195, 0, []
1628362752.0008, 84, 0, 4151.795, 4176.923, 4095.897, 4049.744, 4083.59, 450, 0, []
1628362752.0088, 85, 0, 4133.846, 4145.641, 4071.795, 4042.051, 4060.513, 450, 0, []
1628362752.0167, 86, 0, 4123.59, 4134.359, 4058.462, 4035.897, 4034.872, 450, 0, []
1628362752.0247, 87, 0, 4136.923, 4152.308, 4079.487, 4073.846, 4060.513, 16195, 0, []
1628362752.0325, 88, 0, 4150.256, 4153.333, 4083.59, 4114.359, 4085.128, 450, 0, []
1628362752.0405, 89, 0, 4152.821, 4154.872, 4084.103, 4107.692, 4075.385, 450, 0, []
1628362752.0484, 90, 0, 4146.667, 4170.256, 4077.949, 4077.436, 4075.385, 450, 0, []
1628362752.0564, 91, 0, 4152.308, 4170.769, 4092.821, 4076.41, 4093.846, 16195, 0, []
1628362752.0643, 92, 0, 4166.154, 4160.513, 4105.128, 4084.615, 4091.795, 450, 0, []
1628362752.0722, 93, 0, 4157.949, 4156.923, 4093.846, 4056.41, 4076.923, 450, 0, []
1628362752.0801, 94, 0, 4134.359, 4151.795, 4096.41, 4027.179, 4071.282, 450, 0, []
1628362752.0879, 95, 0, 4125.641, 4148.205, 4091.795, 4031.795, 4057.436, 16195, 0, []
1628362752.0958, 96, 0, 4122.051, 4154.359, 4086.154, 4036.923, 4033.846, 450, 0, []
1628362752.1036, 97, 0, 4117.949, 4158.462, 4079.487, 4035.897, 4028.205, 450, 0, []
1628362752.1114, 98, 0, 4123.077, 4151.795, 4063.59, 4057.949, 4044.615, 450, 0, []
1628362752.1192, 99, 0, 4125.128, 4141.538, 4066.667, 4078.462, 4059.487, 16195, 0, []
1628362752.1271, 100, 0, 4127.692, 4141.538, 4077.436, 4081.538, 4075.385, 450, 0, []
1628362752.1349, 101, 0, 4151.282, 4153.333, 4097.436, 4095.385, 4096.923, 450, 0, []
1628362752.1428, 102, 0, 4164.103, 4151.795, 4105.641, 4091.795, 4097.949, 450, 0, []
1628362752.1505, 103, 0, 4146.667, 4140.513, 4084.615, 4060, 4084.615, 16195, 0, []
1628362752.1585, 104, 0, 4125.641, 4134.359, 4070.256, 4035.385, 4074.872, 450, 0, []
1628362752.1664, 105, 0, 4116.41, 4126.154, 4060, 4027.692, 4060.513, 450, 0, []
1628362752.1744, 106, 0, 4116.923, 4120.513, 4065.128, 4040.513, 4054.872, 450, 0, []
1628362752.1823, 107, 0, 4119.487, 4118.462, 4078.974, 4063.077, 4068.205, 16195, 0, []
1628362752.1902, 108, 0, 4124.103, 4112.308, 4074.872, 4071.282, 4081.538, 450, 0, []
1628362752.1981, 109, 0, 4130.256, 4112.821, 4087.179, 4076.41, 4094.359, 450, 0, []
1628362752.2061, 110, 0, 4129.231, 4122.564, 4087.179, 4078.974, 4096.923, 450, 0, []
1628362752.214, 111, 0, 4127.179, 4122.564, 4080, 4064.103, 4085.128, 16195, 0, []
1628362752.222, 112, 0, 4135.897, 4117.949, 4103.077, 4057.436, 4094.872, 450, 0, []
1628362752.2298, 113, 0, 4144.615, 4122.564, 4104.615, 4071.282, 4111.282, 450, 0, []
1628362752.2378, 114, 0, 4140.513, 4124.103, 4088.718, 4077.949, 4090.769, 450, 0, []
1628362752.2457, 115, 0, 4137.949, 4121.538, 4085.641, 4070.769, 4077.949, 16195, 0, []
1628362752.2535, 116, 0, 4141.026, 4124.615, 4091.795, 4080.513, 4102.564, 450, 0, []
1628362752.2614, 117, 0, 4142.051, 4123.59, 4091.795, 4102.564, 4112.308, 450, 0, []
1628362752.2691, 118, 0, 4136.41, 4110.769, 4075.897, 4097.436, 4102.564, 450, 0, []
1628362752.277, 119, 0, 4134.872, 4102.051, 4076.923, 4080, 4110.769, 16195, 0, []
1628362752.2848, 120, 0, 4138.462, 4105.128, 4066.154, 4077.949, 4117.436, 450, 0, []
1628362752.2927, 121, 0, 4136.41, 4108.205, 4047.692, 4075.897, 4110.256, 450, 0, []
1628362752.3005, 122, 0, 4144.103, 4119.487, 4078.462, 4079.487, 4120, 450, 0, []
1628362752.3083, 123, 0, 4151.282, 4127.179, 4086.667, 4084.103, 4131.795, 16195, 0, []
1628362752.3161, 124, 0, 4138.974, 4111.795, 4063.077, 4070.769, 4117.949, 450, 0, []
1628362752.3241, 125, 0, 4137.949, 4108.718, 4064.615, 4078.974, 4120, 450, 0, []
1628362752.332, 126, 0, 4153.846, 4118.462, 4070.769, 4104.103, 4138.974, 450, 0, []
1628362752.34, 127, 0, 4160, 4109.231, 4072.308, 4106.667, 4137.949, 16195, 0, []
1628362752.3478, 128, 0, 4164.103, 4108.718, 4076.923, 4107.179, 4141.026, 450, 0, []
1628362752.3558, 0, 0, 4172.821, 4131.795, 4089.744, 4120, 4157.949, 450, 0, []
1628362752.3637, 1, 0, 4171.282, 4144.615, 4086.154, 4122.564, 4159.487, 450, 0, []
1628362752.3717, 2, 0, 4162.564, 4138.974, 4073.846, 4120.513, 4152.308, 16186, 0, []
1628362752.3796, 3, 0, 4149.231, 4130.256, 4083.077, 4121.538, 4148.205, 450, 0, []
1628362752.3876, 4, 0, 4134.872, 4123.077, 4076.923, 4114.872, 4140.513, 16165, 0, []
1628362752.3954, 5, 0, 4134.359, 4127.692, 4069.231, 4103.59, 4135.385, 450, 0, []
1628362752.4032, 6, 0, 4133.846, 4140, 4065.128, 4093.846, 4141.538, 16119, 0, []
1628362752.4111, 7, 0, 4129.744, 4138.974, 4055.897, 4095.897, 4148.718, 450, 0, []
1628362752.419, 8, 0, 4135.385, 4132.821, 4067.179, 4105.641, 4150.769, 450, 0, []
1628362752.4269, 9, 0, 4149.744, 4143.077, 4078.462, 4112.308, 4161.538, 16173, 0, []
1628362752.4346, 10, 0, 4163.077, 4153.333, 4091.795, 4133.846, 4188.205, 450, 0, []
1628362752.4425, 11, 0, 4157.949, 4133.333, 4094.872, 4149.231, 4188.718, 16195, 0, []
1628362752.4503, 12, 0, 4142.051, 4113.333, 4070.769, 4125.641, 4167.692, 450, 0, []
1628362752.4582, 13, 0, 4143.077, 4133.846, 4079.487, 4108.718, 4176.41, 450, 0, []
1628362752.466, 14, 0, 4155.385, 4165.641, 4092.821, 4119.487, 4188.718, 450, 0, []
1628362752.4739, 15, 0, 4153.846, 4171.795, 4073.333, 4123.077, 4174.359, 16195, 0, []
1628362752.4818, 16, 0, 4153.333, 4168.718, 4073.333, 4121.538, 4183.59, 0, 0, []
1628362752.4898, 17, 0, 4166.154, 4164.615, 4093.333, 4132.821, 4216.41, 0, 0, []
1628362752.4977, 18, 0, 4170.256, 4163.59, 4104.615, 4144.615, 4217.436, 0, 0, []
1628362752.5057, 19, 0, 4155.385, 4166.667, 4094.872, 4140, 4195.897, 0, 0, []
1628362752.5135, 20, 0, 4135.897, 4168.718, 4092.821, 4129.744, 4186.667, 0, 0, []
1628362752.5215, 21, 0, 4134.359, 4168.205, 4101.026, 4131.282, 4186.154, 0, 0, []
1628362752.5294, 22, 0, 4138.974, 4169.744, 4074.359, 4127.692, 4182.564, 0, 0, []
1628362752.5374, 23, 0, 4139.487, 4167.179, 4060.513, 4109.744, 4185.128, 0, 0, []
1628362752.5453, 24, 0, 4148.205, 4166.154, 4078.462, 4106.667, 4201.538, 0, 0, []
1628362752.553, 25, 0, 4161.026, 4183.59, 4086.667, 4125.128, 4213.333, 0, 0, []
1628362752.5609, 26, 0, 4162.051, 4201.538, 4091.795, 4130.256, 4214.872, 0, 0, []
1628362752.5687, 27, 0, 4144.103, 4191.795, 4087.692, 4115.897, 4197.949, 0, 0, []
1628362752.5766, 28, 0, 4131.282, 4176.41, 4088.205, 4117.949, 4178.974, 0, 0, []
1628362752.5844, 29, 0, 4143.59, 4186.667, 4087.692, 4127.179, 4190.769, 0, 0, []
1628362752.5922, 30, 0, 4143.59, 4191.795, 4067.692, 4105.128, 4201.538, 0, 0, []
1628362752.6, 31, 0, 4131.795, 4179.487, 4067.692, 4096.41, 4200.513, 0, 0, []
1628362752.608, 32, 0, 4146.667, 4190.769, 4085.128, 4132.821, 4217.436, 0, 0, []
1628362752.6159, 33, 0, 4160.513, 4209.744, 4091.795, 4149.231, 4228.205, 0, 0, []
1628362752.6239, 34, 0, 4153.333, 4206.154, 4078.462, 4142.564, 4224.615, 0, 0, []
1628362752.6317, 35, 0, 4166.154, 4203.077, 4077.949, 4165.128, 4242.564, 0, 0, []
1628362752.6397, 36, 0, 4178.974, 4219.487, 4097.949, 4181.026, 4253.846, 0, 0, []
1628362752.6476, 37, 0, 4158.974, 4220.513, 4090.769, 4157.436, 4236.923, 0, 0, []
1628362752.6556, 38, 0, 4150.769, 4203.077, 4090.769, 4138.974, 4232.821, 0, 0, []
1628362752.6635, 39, 0, 4152.821, 4200.513, 4101.026, 4131.795, 4232.308, 0, 0, []
1628362752.6714, 40, 0, 4136.41, 4199.487, 4083.077, 4115.385, 4217.436, 0, 0, []
1628362752.6793, 41, 0, 4127.179, 4202.051, 4081.026, 4118.462, 4211.795, 0, 0, []
1628362752.6873, 42, 0, 4143.59, 4223.59, 4090.256, 4140, 4212.821, 0, 0, []
1628362752.6952, 43, 0, 4156.41, 4231.795, 4095.897, 4146.154, 4215.897, 0, 0, []
1628362752.703, 44, 0, 4142.564, 4214.359, 4092.308, 4137.949, 4216.923, 0, 0, []
1628362752.7108, 45, 0, 4129.231, 4211.282, 4073.333, 4134.359, 4208.205, 0, 0, []
1628362752.7186, 46, 0, 4133.846, 4220.513, 4074.359, 4129.744, 4198.462, 0, 0, []
1628362752.7265, 47, 0, 4133.333, 4221.026, 4083.59, 4121.026, 4203.59, 0, 0, []
1628362752.7343, 48, 0, 4132.308, 4230.256, 4091.795, 4129.744, 4219.487, 0, 0, []
1628362752.7422, 49, 0, 4149.744, 4241.538, 4099.487, 4143.077, 4225.128, 0, 0, []
1628362752.75, 50, 0, 4142.051, 4232.821, 4080.513, 4127.692, 4203.077, 0, 0, []
1628362752.7578, 51, 0, 4110.256, 4231.795, 4076.41, 4117.949, 4181.026, 0, 0, []
1628362752.7656, 52, 0, 4115.385, 4247.692, 4093.333, 4142.564, 4192.821, 0, 0, []
1628362752.7735, 53, 0, 4126.667, 4251.795, 4097.949, 4160.513, 4199.487, 0, 0, []
1628362752.7813, 54, 0, 4098.462, 4245.128, 4095.897, 4153.333, 4180, 0, 0, []
1628362752.7893, 55, 0, 4082.051, 4243.59, 4089.744, 4148.718, 4170.769, 0, 0, []
1628362752.7971, 56, 0, 4093.846, 4237.949, 4089.231, 4148.205, 4169.744, 0, 0, []
1628362752.8051, 57, 0, 4096.923, 4226.154, 4090.769, 4142.051, 4170.256, 0, 0, []
1628362752.813, 58, 0, 4105.641, 4231.282, 4104.103, 4149.744, 4189.231, 0, 0, []
1628362752.821, 59, 0, 4119.487, 4257.436, 4123.59, 4161.538, 4194.872, 0, 0, []
1628362752.8289, 60, 0, 4115.385, 4271.282, 4112.821, 4153.333, 4185.128, 0, 0, []
1628362752.8368, 61, 0, 4106.667, 4256.41, 4096.923, 4146.154, 4184.615, 0, 0, []
1628362752.8447, 62, 0, 4099.487, 4241.538, 4088.718, 4148.205, 4174.359, 0, 0, []
1628362752.8527, 63, 0, 4095.385, 4250.769, 4085.128, 4138.462, 4163.077, 0, 0, []
1628362752.8606, 64, 0, 4096.41, 4248.718, 4094.872, 4129.744, 4167.179, 450, 0, []
1628362752.8684, 65, 0, 4100, 4232.308, 4089.744, 4131.795, 4162.051, 450, 0, []
1628362752.8762, 66, 0, 4098.974, 4234.872, 4085.128, 4121.026, 4146.154, 16186, 0, []
1628362752.884, 67, 0, 4096.923, 4244.103, 4085.128, 4109.231, 4144.615, 450, 0, []
1628362752.8919, 68, 0, 4115.385, 4250.769, 4087.179, 4127.692, 4162.051, 16165, 0, []
1628362752.8997, 69, 0, 4147.692, 4264.615, 4113.846, 4147.179, 4190.769, 450, 0, []
1628362752.9076, 70, 0, 4154.359, 4264.615, 4118.974, 4138.974, 4207.179, 16173, 0, []
1628362752.9153, 71, 0, 4141.538, 4251.282, 4096.923, 4138.462, 4202.051, 450, 0, []
1628362752.9232, 72, 0, 4142.051, 4254.872, 4085.128, 4153.333, 4195.385, 450, 0, []
1628362752.931, 73, 0, 4150.256, 4270.256, 4079.487, 4158.462, 4206.154, 16216, 0, []
1628362752.939, 74, 0, 4143.59, 4265.128, 4078.462, 4150.769, 4208.205, 450, 0, []
1628362752.9469, 75, 0, 4133.333, 4249.231, 4069.744, 4124.103, 4181.026, 16195, 0, []
1628362752.9548, 76, 0, 4132.308, 4253.846, 4069.744, 4086.667, 4168.718, 450, 0, []
1628362752.9627, 77, 0, 4139.487, 4269.231, 4082.051, 4073.846, 4183.077, 450, 0, []
1628362752.9707, 78, 0, 4141.538, 4263.59, 4073.846, 4087.692, 4180.513, 450, 0, []
1628362752.9786, 79, 0, 4137.949, 4260.513, 4077.949, 4107.179, 4168.718, 16195, 0, []
1628362752.9866, 80, 0, 4144.103, 4277.949, 4093.846, 4124.615, 4179.487, 450, 0, []
1628362752.9944, 81, 0, 4156.41, 4274.872, 4093.846, 4137.949, 4191.282, 450, 0, []
1628362753.0024, 82, 0, 4171.282, 4261.538, 4097.436, 4152.308, 4198.462, 450, 0, []
1628362753.0103, 83, 0, 4176.41, 4266.667, 4102.564, 4154.359, 4210.256, 16195, 0, []
1628362753.0181, 84, 0, 4150.769, 4263.59, 4094.359, 4127.179, 4196.41, 450, 0, []
1628362753.026, 85, 0, 4131.282, 4258.462, 4075.897, 4111.282, 4173.333, 450, 0, []
1628362753.0337, 86, 0, 4141.026, 4268.205, 4077.436, 4134.359, 4169.231, 450, 0, []
1628362753.0416, 87, 0, 4144.103, 4270.769, 4088.718, 4154.359, 4168.718, 16195, 0, []
1628362753.0494, 88, 0, 4139.487, 4269.744, 4082.051, 4152.821, 4174.359, 450, 0, []
1628362753.0573, 89, 0, 4156.41, 4274.872, 4088.718, 4161.026, 4186.154, 450, 0, []
1628362753.0651, 90, 0, 4167.179, 4272.308, 4090.769, 4160, 4185.128, 450, 0, []
1628362753.0731, 91, 0, 4160.513, 4270.256, 4081.538, 4135.897, 4184.103, 16195, 0, []
1628362753.0809, 92, 0, 4150.769, 4271.795, 4088.205, 4125.128, 4187.179, 450, 0, []
1628362753.0888, 93, 0, 4138.974, 4266.154, 4080, 4121.538, 4163.59, 450, 0, []
1628362753.0966, 94, 0, 4135.385, 4262.564, 4077.436, 4107.179, 4136.41, 450, 0, []
1628362753.1046, 95, 0, 4152.308, 4272.308, 4100.513, 4114.359, 4156.41, 16195, 0, []
1628362753.1125, 96, 0, 4166.667, 4275.385, 4107.692, 4137.949, 4181.538, 450, 0, []
1628362753.1204, 97, 0, 4167.179, 4265.128, 4096.41, 4140.513, 4171.795, 450, 0, []
1628362753.1283, 98, 0, 4174.872, 4261.538, 4094.872, 4131.795, 4168.205, 450, 0, []
1628362753.1363, 99, 0, 4184.103, 4269.231, 4116.41, 4127.692, 4185.641, 16195, 0, []
1628362753.1442, 100, 0, 4186.154, 4277.949, 4125.641, 4126.154, 4196.923, 450, 0, []
1628362753.1522, 101, 0, 4196.923, 4283.077, 4119.487, 4132.821, 4200, 450, 0, []
1628362753.16, 102, 0, 4190.769, 4284.103, 4118.974, 4126.667, 4187.692, 450, 0, []
1628362753.1678, 103, 0, 4151.795, 4264.615, 4084.103, 4098.462, 4152.308, 16195, 0, []
1628362753.1757, 104, 0, 4135.897, 4253.846, 4063.077, 4101.026, 4135.897, 450, 0, []
1628362753.1835, 105, 0, 4162.564, 4271.795, 4098.974, 4133.846, 4157.436, 450, 0, []
1628362753.1914, 106, 0, 4183.077, 4280, 4123.077, 4147.692, 4182.051, 450, 0, []
1628362753.1991, 107, 0, 4199.487, 4281.026, 4126.154, 4151.795, 4203.077, 16195, 0, []
1628362753.207, 108, 0, 4210.256, 4289.744, 4125.128, 4160.513, 4209.231, 450, 0, []
1628362753.2148, 109, 0, 4212.821, 4284.615, 4118.974, 4158.974, 4207.179, 450, 0, []
1628362753.2227, 110, 0, 4242.564, 4273.846, 4108.718, 4145.641, 4232.821, 450, 0, []
1628362753.2305, 111, 0, 4293.846, 4286.154, 4101.538, 4134.872, 4282.564, 16195, 0, []
1628362753.2384, 112, 0, 4336.923, 4301.026, 4114.359, 4145.641, 4318.974, 450, 0, []
1628362753.2463, 113, 0, 4386.667, 4306.154, 4123.59, 4168.718, 4352.308, 450, 0, []
1628362753.2543, 114, 0, 4434.872, 4322.564, 4130.256, 4179.487, 4394.872, 450, 0, []
1628362753.2622, 115, 0, 4436.923, 4328.205, 4135.897, 4171.795, 4404.103, 16195, 0, []
1628362753.2702, 116, 0, 4404.615, 4304.103, 4126.667, 4158.974, 4373.333, 450, 0, []
1628362753.278, 117, 0, 4374.359, 4287.179, 4126.154, 4152.308, 4340.513, 450, 0, []
1628362753.286, 118, 0, 4356.923, 4298.462, 4125.128, 4153.846, 4331.282, 450, 0, []
1628362753.2939, 119, 0, 4347.692, 4303.077, 4120.513, 4152.821, 4330.769, 16195, 0, []
1628362753.3019, 120, 0, 4332.308, 4285.128, 4116.923, 4132.821, 4311.795, 450, 0, []
1628362753.3098, 121, 0, 4341.026, 4286.154, 4112.821, 4132.308, 4317.436, 450, 0, []
1628362753.3177, 122, 0, 4381.538, 4321.026, 4137.949, 4168.205, 4359.487, 450, 0, []
1628362753.3256, 123, 0, 4386.154, 4332.308, 4151.282, 4172.821, 4362.564, 16195, 0, []
1628362753.3334, 124, 0, 4347.692, 4309.744, 4141.026, 4143.59, 4325.641, 450, 0, []
1628362753.3413, 125, 0, 4329.231, 4296.923, 4144.103, 4140, 4311.795, 450, 0, []
1628362753.3491, 126, 0, 4345.641, 4303.077, 4142.051, 4162.051, 4326.154, 450, 0, []
1628362753.3569, 127, 0, 4354.359, 4314.359, 4143.077, 4176.41, 4335.385, 16195, 0, []
1628362753.3647, 128, 0, 4345.128, 4313.846, 4144.103, 4170.769, 4329.744, 450, 0, []
1628362753.3726, 0, 0, 4341.538, 4297.436, 4130.256, 4153.846, 4323.077, 450, 0, []
1628362753.3804, 1, 0, 4345.641, 4290.769, 4125.641, 4151.282, 4323.077, 450, 0, []
1628362753.3883, 2, 0, 4336.923, 4299.487, 4119.487, 4158.974, 4311.795, 16186, 0, []
1628362753.396, 3, 0, 4301.538, 4284.615, 4102.564, 4144.103, 4277.436, 450, 0, []
1628362753.404, 4, 0, 4284.103, 4257.949, 4095.385, 4133.846, 4269.231, 16165, 0, []
1628362753.4119, 5, 0, 4308.205, 4268.205, 4113.846, 4160, 4299.487, 450, 0, []
1628362753.4198, 6, 0, 4321.538, 4296.41, 4130.769, 4172.821, 4306.154, 16133, 0, []
1628362753.4277, 7, 0, 4304.103, 4297.436, 4109.231, 4144.615, 4284.615, 450, 0, []
1628362753.4356, 8, 0, 4287.692, 4275.897, 4095.385, 4114.872, 4269.231, 450, 0, []
1628362753.4433, 9, 0, 4285.128, 4265.641, 4110.256, 4114.872, 4266.154, 16184, 0, []
1628362753.4513, 10, 0, 4275.385, 4254.872, 4107.179, 4123.59, 4266.667, 450, 0, []
1628362753.4592, 11, 0, 4268.718, 4233.846, 4091.795, 4125.128, 4269.231, 16195, 0, []
1628362753.4672, 12, 0, 4288.205, 4230.256, 4081.538, 4122.564, 4273.333, 450, 0, []
1628362753.4751, 13, 0, 4313.333, 4235.897, 4083.59, 4111.282, 4282.564, 450, 0, []
1628362753.4828, 14, 0, 4321.538, 4229.744, 4089.744, 4103.59, 4301.026, 450, 0, []
1628362753.4907, 15, 0, 4320, 4228.718, 4080.513, 4105.641, 4312.308, 16195, 0, []
1628362753.4985, 16, 0, 4313.846, 4232.821, 4078.974, 4108.205, 4305.128, 0, 0, []
1628362753.5064, 17, 0, 4297.436, 4226.667, 4078.462, 4112.821, 4292.821, 0, 0, []
1628362753.5142, 18, 0, 4281.026, 4221.026, 4080, 4122.051, 4279.487, 0, 0, []
1628362753.522, 19, 0, 4276.41, 4225.641, 4087.179, 4126.154, 4261.026, 0, 0, []
1628362753.5298, 20, 0, 4276.923, 4230.256, 4083.077, 4121.026, 4249.744, 0, 0, []
1628362753.5378, 21, 0, 4277.436, 4230.256, 4097.949, 4115.897, 4257.436, 0, 0, []
1628362753.5457, 22, 0, 4273.846, 4227.179, 4115.897, 4108.205, 4265.128, 0, 0, []
1628362753.5537, 23, 0, 4266.667, 4225.641, 4101.538, 4097.436, 4251.795, 0, 0, []
1628362753.5615, 24, 0, 4268.205, 4228.718, 4089.744, 4100.513, 4237.949, 0, 0, []
1628362753.5695, 25, 0, 4277.949, 4232.308, 4092.821, 4110.769, 4239.487, 0, 0, []
1628362753.5774, 26, 0, 4261.538, 4228.205, 4086.154, 4101.026, 4223.59, 0, 0, []
1628362753.5854, 27, 0, 4238.462, 4217.436, 4067.179, 4081.538, 4199.487, 0, 0, []
1628362753.5933, 28, 0, 4246.154, 4217.436, 4074.872, 4080.513, 4195.385, 0, 0, []
1628362753.6012, 29, 0, 4253.333, 4231.795, 4097.436, 4093.333, 4193.846, 0, 0, []
1628362753.6091, 30, 0, 4256.41, 4238.462, 4097.949, 4101.538, 4211.795, 0, 0, []
1628362753.6171, 31, 0, 4270.769, 4231.795, 4102.051, 4103.59, 4257.436, 0, 0, []
1628362753.625, 32, 0, 4281.538, 4228.205, 4102.051, 4106.667, 4293.333, 0, 0, []
1628362753.6328, 33, 0, 4292.308, 4231.795, 4093.846, 4122.051, 4312.821, 0, 0, []
1628362753.6406, 34, 0, 4303.077, 4232.308, 4101.026, 4144.103, 4329.231, 0, 0, []
1628362753.6484, 35, 0, 4297.949, 4223.59, 4095.897, 4149.744, 4337.949, 0, 0, []
1628362753.6563, 36, 0, 4288.205, 4216.41, 4098.462, 4151.795, 4345.641, 0, 0, []
1628362753.6641, 37, 0, 4291.795, 4218.462, 4123.077, 4166.154, 4354.872, 0, 0, []
1628362753.672, 38, 0, 4275.897, 4215.385, 4130.256, 4166.667, 4339.487, 0, 0, []
1628362753.6797, 39, 0, 4246.154, 4219.487, 4126.154, 4157.949, 4316.923, 0, 0, []
1628362753.6876, 40, 0, 4235.385, 4231.795, 4118.462, 4162.564, 4309.231, 0, 0, []
1628362753.6954, 41, 0, 4229.744, 4226.154, 4124.103, 4181.026, 4309.744, 0, 0, []
1628362753.7034, 42, 0, 4217.949, 4217.436, 4127.692, 4194.359, 4306.667, 0, 0, []
1628362753.7113, 43, 0, 4214.359, 4229.231, 4115.897, 4192.821, 4291.282, 0, 0, []
1628362753.7192, 44, 0, 4215.385, 4238.974, 4124.615, 4182.564, 4279.487, 0, 0, []
1628362753.7271, 45, 0, 4203.59, 4230.256, 4129.744, 4168.718, 4275.385, 0, 0, []
1628362753.7351, 46, 0, 4194.872, 4224.615, 4129.231, 4170.769, 4266.154, 0, 0, []
1628362753.743, 47, 0, 4200.513, 4231.282, 4134.359, 4174.359, 4255.897, 0, 0, []
1628362753.751, 48, 0, 4193.333, 4234.359, 4127.692, 4157.436, 4245.128, 0, 0, []
1628362753.7588, 49, 0, 4179.487, 4223.077, 4123.077, 4146.154, 4233.846, 0, 0, []
1628362753.7668, 50, 0, 4183.59, 4213.333, 4119.487, 4153.846, 4232.308, 0, 0, []
1628362753.7747, 51, 0, 4191.282, 4219.487, 4120.513, 4146.667, 4229.231, 0, 0, []
1628362753.7825, 52, 0, 4194.359, 4240.513, 4124.103, 4131.282, 4225.641, 0, 0, []
1628362753.7904, 53, 0, 4197.436, 4251.282, 4117.436, 4136.41, 4233.333, 0, 0, []
1628362753.7982, 54, 0, 4195.897, 4237.949, 4107.179, 4143.077, 4235.385, 0, 0, []
1628362753.806, 55, 0, 4205.641, 4236.41, 4100.513, 4146.667, 4232.821, 0, 0, []
1628362753.8138, 56, 0, 4218.462, 4246.154, 4113.846, 4151.282, 4234.872, 0, 0, []
1628362753.8217, 57, 0, 4207.179, 4239.487, 4121.026, 4143.077, 4232.308, 0, 0, []
1628362753.8295, 58, 0, 4202.051, 4233.333, 4105.641, 4133.333, 4229.231, 0, 0, []
1628362753.8374, 59, 0, 4226.154, 4247.179, 4111.795, 4140.513, 4233.333, 0, 0, []
1628362753.8451, 60, 0, 4240, 4253.846, 4122.564, 4142.051, 4234.359, 0, 0, []
1628362753.853, 61, 0, 4232.308, 4245.128, 4117.436, 4134.359, 4231.282, 0, 0, []
1628362753.8608, 62, 0, 4233.846, 4247.692, 4115.385, 4143.59, 4233.333, 0, 0, []
1628362753.8688, 63, 0, 4238.974, 4251.795, 4110.769, 4152.308, 4234.359, 0, 0, []
1628362753.8767, 64, 0, 4238.462, 4247.692, 4105.641, 4147.179, 4233.333, 450, 0, []
1628362753.8846, 65, 0, 4240.513, 4250.256, 4093.333, 4135.897, 4240.513, 450, 0, []
1628362753.8925, 66, 0, 4250.256, 4273.846, 4095.897, 4126.154, 4260.513, 16187, 0, []
1628362753.9005, 67, 0, 4260, 4291.282, 4118.462, 4125.641, 4280.513, 450, 0, []
1628362753.9084, 68, 0, 4264.615, 4274.359, 4113.846, 4133.846, 4277.436, 16165, 0, []
1628362753.9164, 69, 0, 4265.641, 4265.641, 4109.744, 4146.667, 4270.769, 450, 0, []
1628362753.9242, 70, 0, 4256.41, 4278.462, 4120, 4143.077, 4277.436, 16123, 0, []
1628362753.9322, 71, 0, 4242.564, 4278.462, 4121.026, 4122.051, 4275.385, 450, 0, []
1628362753.9401, 72, 0, 4252.308, 4281.538, 4123.59, 4124.103, 4275.385, 450, 0, []
1628362753.9479, 73, 0, 4271.282, 4291.282, 4109.231, 4131.795, 4282.564, 16182, 0, []
1628362753.9558, 74, 0, 4250.256, 4276.41, 4081.026, 4098.462, 4260.513, 450, 0, []
1628362753.9635, 75, 0, 4218.974, 4259.487, 4063.077, 4062.051, 4229.231, 16195, 0, []
1628362753.9714, 76, 0, 4238.974, 4281.538, 4084.615, 4094.872, 4253.846, 450, 0, []
1628362753.9792, 77, 0, 4282.051, 4312.821, 4136.923, 4162.051, 4300.513, 450, 0, []
1628362753.9871, 78, 0, 4284.615, 4312.308, 4142.564, 4179.487, 4294.872, 450, 0, []
1628362753.9949, 79, 0, 4256.923, 4300, 4113.846, 4148.718, 4261.026, 16195, 0, []
1628362754.0028, 80, 0, 4248.718, 4308.205, 4113.846, 4125.641, 4255.385, 450, 0, []
1628362754.0107, 81, 0, 4255.385, 4313.846, 4127.692, 4124.615, 4261.026, 450, 0, []
1628362754.0187, 82, 0, 4242.051, 4300.513, 4126.154, 4118.462, 4233.846, 450, 0, []
1628362754.0266, 83, 0, 4225.128, 4291.282, 4110.256, 4103.59, 4196.41, 16195, 0, []
1628362754.0346, 84, 0, 4221.026, 4286.154, 4077.436, 4077.436, 4176.41, 450, 0, []
1628362754.0424, 85, 0, 4237.949, 4281.026, 4057.949, 4063.077, 4178.462, 450, 0, []
1628362754.0504, 86, 0, 4282.051, 4302.564, 4091.282, 4098.974, 4217.436, 450, 0, []
1628362754.0583, 87, 0, 4323.59, 4332.308, 4128.718, 4134.359, 4252.308, 16195, 0, []
1628362754.0663, 88, 0, 4340.513, 4337.436, 4114.872, 4125.128, 4247.179, 450, 0, []
1628362754.0742, 89, 0, 4342.051, 4334.359, 4103.59, 4115.385, 4234.359, 450, 0, []
1628362754.0821, 90, 0, 4313.846, 4325.641, 4101.538, 4110.769, 4223.59, 450, 0, []
1628362754.09, 91, 0, 4259.487, 4302.051, 4063.59, 4080.513, 4192.308, 16195, 0, []
1628362754.0979, 92, 0, 4236.41, 4284.103, 4045.128, 4060, 4166.154, 450, 0, []
1628362754.1058, 93, 0, 4244.103, 4284.103, 4059.487, 4065.128, 4156.923, 450, 0, []
1628362754.1136, 94, 0, 4231.282, 4283.59, 4060.513, 4055.897, 4137.949, 450, 0, []
1628362754.1214, 95, 0, 4196.41, 4264.615, 4041.538, 4027.179, 4114.359, 16195, 0, []
1628362754.1292, 96, 0, 4190.256, 4256.41, 4034.872, 4029.744, 4118.462, 450, 0, []
1628362754.1371, 97, 0, 4251.795, 4290.256, 4089.744, 4100.513, 4173.333, 450, 0, []
1628362754.1449, 98, 0, 4316.41, 4324.103, 4143.077, 4168.205, 4232.821, 450, 0, []
1628362754.1528, 99, 0, 4309.231, 4312.821, 4128.718, 4157.436, 4229.231, 16195, 0, []
1628362754.1606, 100, 0, 4263.077, 4279.487, 4110.769, 4111.282, 4187.179, 450, 0, []
1628362754.1684, 101, 0, 4240.513, 4253.846, 4110.769, 4090.256, 4170.769, 450, 0, []
1628362754.1762, 102, 0, 4228.718, 4242.564, 4089.231, 4084.103, 4167.179, 450, 0, []
1628362754.1842, 103, 0, 4203.077, 4240.513, 4057.949, 4073.333, 4142.051, 16195, 0, []
1628362754.1921, 104, 0, 4198.974, 4240, 4063.077, 4079.487, 4136.41, 450, 0, []
1628362754.2001, 105, 0, 4224.103, 4250.256, 4100.513, 4109.744, 4166.667, 450, 0, []
1628362754.2079, 106, 0, 4230.769, 4261.026, 4100, 4124.103, 4177.436, 450, 0, []
1628362754.2159, 107, 0, 4205.128, 4247.692, 4073.846, 4101.538, 4149.744, 16195, 0, []
1628362754.2238, 108, 0, 4181.026, 4225.641, 4066.667, 4072.821, 4124.615, 450, 0, []
1628362754.2318, 109, 0, 4180.513, 4225.128, 4072.308, 4072.821, 4131.282, 450, 0, []
1628362754.2397, 110, 0, 4197.436, 4238.462, 4091.795, 4105.128, 4154.872, 450, 0, []
1628362754.2476, 111, 0, 4194.359, 4224.103, 4077.949, 4109.231, 4140.513, 16195, 0, []
1628362754.2555, 112, 0, 4183.077, 4209.231, 4052.308, 4089.744, 4116.41, 450, 0, []
1628362754.2633, 113, 0, 4230.769, 4241.538, 4090.256, 4120.513, 4164.615, 450, 0, []
1628362754.2712, 114, 0, 4286.154, 4264.103, 4129.231, 4156.41, 4220.513, 450, 0, []
1628362754.279, 115, 0, 4272.308, 4237.949, 4106.154, 4127.692, 4195.385, 16195, 0, []
1628362754.2868, 116, 0, 4254.872, 4231.282, 4075.385, 4094.872, 4160.513, 450, 0, []
1628362754.2946, 117, 0, 4268.205, 4247.179, 4082.051, 4092.821, 4165.128, 450, 0, []
1628362754.3025, 118, 0, 4262.051, 4227.692, 4082.564, 4077.949, 4160, 450, 0, []
1628362754.3103, 119, 0, 4241.538, 4201.026, 4063.59, 4061.538, 4141.538, 16195, 0, []
1628362754.3182, 120, 0, 4234.872, 4208.718, 4070.256, 4075.385, 4132.821, 450, 0, []
1628362754.3259, 121, 0, 4231.795, 4215.897, 4084.615, 4089.744, 4133.333, 450, 0, []
1628362754.3339, 122, 0, 4215.385, 4200, 4084.615, 4084.103, 4136.923, 450, 0, []
1628362754.3418, 123, 0, 4186.154, 4177.436, 4076.923, 4069.231, 4122.564, 16195, 0, []
1628362754.3498, 124, 0, 4185.641, 4178.974, 4076.923, 4077.436, 4114.872, 450, 0, []
1628362754.3577, 125, 0, 4203.59, 4187.179, 4094.359, 4098.974, 4135.385, 450, 0, []
1628362754.3656, 126, 0, 4185.128, 4160.513, 4085.641, 4088.205, 4133.333, 450, 0, []
1628362754.3735, 127, 0, 4160.513, 4141.538, 4071.795, 4065.128, 4106.667, 16195, 0, []
1628362754.3815, 128, 0, 4185.641, 4171.795, 4113.846, 4087.692, 4120, 450, 0, []
1628362754.3894, 0, 0, 4215.897, 4197.949, 4150.256, 4120.513, 4158.462, 450, 0, []
1628362754.3974, 1, 0, 4196.41, 4177.436, 4133.846, 4110.256, 4154.359, 450, 0, []
1628362754.4052, 2, 0, 4164.103, 4142.051, 4103.59, 4091.282, 4122.051, 16187, 0, []
1628362754.4131, 3, 0, 4167.692, 4133.333, 4100, 4098.462, 4123.59, 450, 0, []
1628362754.4209, 4, 0, 4182.564, 4145.641, 4113.333, 4114.359, 4151.795, 16165, 0, []
1628362754.4287, 5, 0, 4180, 4150.769, 4111.282, 4125.128, 4159.487, 450, 0, []
1628362754.4366, 6, 0, 4163.077, 4136.923, 4100, 4113.333, 4133.333, 16123, 0, []
1628362754.4443, 7, 0, 4144.615, 4116.41, 4082.051, 4085.641, 4114.359, 450, 0, []
1628362754.4522, 8, 0, 4135.897, 4104.103, 4069.231, 4084.103, 4127.692, 450, 0, []
1628362754.46, 9, 0, 4137.436, 4106.667, 4083.59, 4099.487, 4135.897, 16182, 0, []
1628362754.4679, 10, 0, 4138.974, 4108.205, 4090.256, 4095.385, 4128.718, 450, 0, []
1628362754.4757, 11, 0, 4121.026, 4083.59, 4083.077, 4080.513, 4115.897, 16196, 0, []
1628362754.4837, 12, 0, 4106.667, 4071.282, 4086.667, 4073.846, 4104.615, 450, 0, []
1628362754.4915, 13, 0, 4116.41, 4091.795, 4094.872, 4076.923, 4111.795, 450, 0, []
1628362754.4995, 14, 0, 4122.564, 4102.051, 4108.718, 4092.308, 4129.231, 450, 0, []
1628362754.5074, 15, 0, 4135.897, 4107.179, 4129.744, 4131.795, 4150.769, 16196, 0, []
1628362754.5154, 16, 0, 4156.923, 4124.103, 4140, 4158.974, 4160, 0, 0, []
1628362754.5233, 17, 0, 4140.513, 4113.333, 4120, 4131.282, 4135.385, 0, 0, []
1628362754.5312, 18, 0, 4097.949, 4074.359, 4088.718, 4091.795, 4106.154, 0, 0, []
1628362754.5391, 19, 0, 4089.744, 4064.615, 4093.333, 4098.974, 4111.795, 0, 0, []
1628362754.5471, 20, 0, 4101.538, 4074.872, 4094.872, 4107.692, 4123.077, 0, 0, []
1628362754.555, 21, 0, 4095.385, 4070.256, 4081.026, 4089.744, 4120.513, 0, 0, []
1628362754.5628, 22, 0, 4092.308, 4067.692, 4088.718, 4092.308, 4127.692, 0, 0, []
1628362754.5706, 23, 0, 4098.974, 4077.949, 4098.974, 4112.308, 4147.692, 0, 0, []
1628362754.5784, 24, 0, 4098.974, 4084.103, 4101.538, 4115.897, 4172.308, 0, 0, []
1628362754.5863, 25, 0, 4080, 4063.077, 4080.513, 4098.462, 4174.359, 0, 0, []
1628362754.5941, 26, 0, 4080.513, 4061.026, 4085.641, 4100, 4170.256, 0, 0, []
1628362754.602, 27, 0, 4095.385, 4084.103, 4109.231, 4115.385, 4182.564, 0, 0, []
1628362754.6097, 28, 0, 4070.769, 4071.282, 4070.256, 4094.359, 4166.154, 0, 0, []
1628362754.6176, 29, 0, 4059.487, 4061.026, 4049.231, 4084.615, 4151.282, 0, 0, []
1628362754.6254, 30, 0, 4113.846, 4100, 4108.205, 4135.897, 4208.205, 0, 0, []
1628362754.6334, 31, 0, 4137.436, 4114.872, 4148.205, 4166.667, 4253.846, 0, 0, []
1628362754.6413, 32, 0, 4092.308, 4088.718, 4124.103, 4133.333, 4222.564, 0, 0, []
1628362754.6492, 33, 0, 4063.59, 4091.282, 4107.692, 4112.821, 4196.923, 0, 0, []
1628362754.6571, 34, 0, 4077.436, 4104.615, 4131.795, 4133.846, 4225.128, 0, 0, []
1628362754.6651, 35, 0, 4109.231, 4104.615, 4133.846, 4156.923, 4274.359, 0, 0, []
1628362754.673, 36, 0, 4128.718, 4106.154, 4103.59, 4150.256, 4302.051, 0, 0, []
1628362754.681, 37, 0, 4106.154, 4094.872, 4078.974, 4118.462, 4288.205, 0, 0, []
1628362754.6888, 38, 0, 4084.615, 4086.667, 4067.179, 4108.205, 4274.359, 0, 0, []
1628362754.6968, 39, 0, 4094.359, 4093.333, 4076.41, 4124.615, 4289.231, 0, 0, []
1628362754.7047, 40, 0, 4086.667, 4089.744, 4077.436, 4122.564, 4289.231, 0, 0, []
1628362754.7125, 41, 0, 4075.897, 4093.846, 4068.205, 4116.41, 4264.615, 0, 0, []
1628362754.7204, 42, 0, 4087.692, 4108.205, 4075.385, 4126.154, 4245.128, 0, 0, []
1628362754.7281, 43, 0, 4079.487, 4102.564, 4067.692, 4116.923, 4233.846, 0, 0, []
1628362754.736, 44, 0, 4060.513, 4095.385, 4069.231, 4098.974, 4230.769, 0, 0, []
1628362754.7438, 45, 0, 4073.846, 4104.103, 4097.949, 4107.179, 4239.487, 0, 0, []
1628362754.7517, 46, 0, 4078.974, 4109.744, 4107.179, 4117.949, 4249.744, 0, 0, []
1628362754.7595, 47, 0, 4056.41, 4104.103, 4094.872, 4111.282, 4244.615, 0, 0, []
1628362754.7673, 48, 0, 4052.821, 4106.154, 4086.667, 4107.692, 4237.949, 0, 0, []
1628362754.7751, 49, 0, 4074.359, 4131.795, 4102.564, 4119.487, 4254.872, 0, 0, []
1628362754.7831, 50, 0, 4096.923, 4167.179, 4128.718, 4143.59, 4289.744, 0, 0, []
1628362754.791, 51, 0, 4108.718, 4180, 4132.308, 4157.436, 4314.359, 0, 0, []
1628362754.799, 52, 0, 4100, 4169.744, 4121.026, 4138.462, 4310.256, 0, 0, []
1628362754.8068, 53, 0, 4087.179, 4165.641, 4110.256, 4121.026, 4303.077, 0, 0, []
1628362754.8148, 54, 0, 4097.949, 4168.718, 4120, 4143.077, 4317.436, 0, 0, []
1628362754.8227, 55, 0, 4115.897, 4177.949, 4137.436, 4170.256, 4340, 0, 0, []
1628362754.8307, 56, 0, 4120.513, 4192.308, 4129.744, 4167.179, 4351.795, 0, 0, []
1628362754.8386, 57, 0, 4112.821, 4196.923, 4120, 4153.333, 4342.564, 0, 0, []
1628362754.8466, 58, 0, 4107.179, 4192.821, 4109.231, 4137.436, 4329.231, 0, 0, []
1628362754.8544, 59, 0, 4112.308, 4196.41, 4105.128, 4118.974, 4338.974, 0, 0, []
1628362754.8624, 60, 0, 4118.974, 4203.59, 4126.154, 4118.462, 4362.564, 0, 0, []
1628362754.8703, 61, 0, 4131.282, 4200.513, 4139.487, 4148.718, 4386.667, 0, 0, []
1628362754.8781, 62, 0, 4148.718, 4200.513, 4143.59, 4177.436, 4405.128, 0, 0, []
1628362754.886, 63, 0, 4159.487, 4214.872, 4138.462, 4173.846, 4416.41, 0, 0, []
1628362754.8937, 64, 0, 4159.487, 4226.667, 4128.205, 4161.538, 4425.641, 450, 0, []
1628362754.9016, 65, 0, 4155.385, 4222.051, 4129.231, 4163.59, 4428.205, 450, 0, []
1628362754.9094, 66, 0, 4147.179, 4216.923, 4108.205, 4149.231, 4407.692, 16187, 0, []
1628362754.9173, 67, 0, 4134.872, 4218.974, 4089.744, 4122.564, 4390.769, 450, 0, []
1628362754.9251, 68, 0, 4133.846, 4217.436, 4095.897, 4120.513, 4407.179, 16165, 0, []
1628362754.9329, 69, 0, 4144.103, 4221.026, 4109.231, 4138.462, 4425.641, 450, 0, []
1628362754.9407, 70, 0, 4153.846, 4234.872, 4130.769, 4152.821, 4431.795, 16115, 0, []
1628362754.9486, 71, 0, 4154.359, 4235.385, 4129.231, 4149.744, 4448.205, 450, 0, []
1628362754.9564, 72, 0, 4164.615, 4232.308, 4128.205, 4152.821, 4484.103, 450, 0, []
1628362754.9644, 73, 0, 4190.256, 4234.872, 4143.59, 4170.769, 4519.487, 16181, 0, []
1628362754.9722, 74, 0, 4186.667, 4223.077, 4129.231, 4165.641, 4512.821, 450, 0, []
1628362754.9802, 75, 0, 4164.615, 4217.436, 4123.077, 4148.718, 4488.205, 16196, 0, []
1628362754.9881, 76, 0, 4168.718, 4242.051, 4140.513, 4156.41, 4495.897, 450, 0, []
1628362754.9961, 77, 0, 4190.256, 4256.41, 4149.744, 4176.41, 4513.846, 450, 0, []
1628362755.004, 78, 0, 4200, 4245.641, 4142.051, 4182.564, 4517.949, 450, 0, []
1628362755.0119, 79, 0, 4201.026, 4239.487, 4131.795, 4180.513, 4518.462, 16196, 0, []
1628362755.0198, 80, 0, 4203.59, 4247.179, 4154.359, 4174.872, 4522.564, 450, 0, []
1628362755.0277, 81, 0, 4198.462, 4247.179, 4171.282, 4168.718, 4523.077, 450, 0, []
1628362755.0357, 82, 1, 4196.638, 4241.083, 4167.521, 4168.832, 4519.259, 450, 0, []
1628362755.0436, 83, 1, 4194.815, 4234.986, 4163.761, 4168.946, 4515.442, 450, 0, []
1628362755.0514, 84, 1, 4192.991, 4228.889, 4160, 4169.06, 4511.624, 450, 0, []
1628362755.0593, 85, 1, 4191.168, 4222.792, 4156.239, 4169.174, 4507.806, 450, 0, []
1628362755.0672, 86, 1, 4189.345, 4216.695, 4152.479, 4169.288, 4503.989, 450, 0, []
1628362755.0751, 87, 1, 4187.521, 4210.598, 4148.718, 4169.402, 4500.171, 450, 0, []
1628362755.083, 88, 1, 4185.698, 4204.501, 4144.957, 4169.516, 4496.353, 450, 0, []
1628362755.0908, 89, 1, 4183.875, 4198.405, 4141.197, 4169.63, 4492.536, 450, 0, []
1628362755.0987, 90, 0, 4182.051, 4192.308, 4137.436, 4169.744, 4488.718, 450, 0, []
1628362755.1066, 91, 0, 4200.513, 4208.718, 4146.667, 4182.051, 4507.692, 16196, 0, []
1628362755.1144, 92, 0, 4189.744, 4222.564, 4144.615, 4176.923, 4505.128, 450, 0, []
1628362755.1223, 93, 0, 4166.154, 4206.154, 4152.308, 4160, 4479.487, 450, 0, []
1628362755.13, 94, 0, 4162.564, 4183.077, 4143.59, 4165.641, 4491.795, 450, 0, []
1628362755.1379, 95, 0, 4151.795, 4168.205, 4127.692, 4177.949, 4506.154, 16196, 0, []
1628362755.1457, 96, 0, 4107.692, 4158.974, 4120, 4154.872, 4480.513, 450, 0, []
1628362755.1536, 97, 0, 4070.256, 4154.359, 4115.385, 4131.282, 4463.59, 450, 0, []
1628362755.1614, 98, 0, 4081.538, 4152.308, 4123.077, 4145.128, 4471.282, 450, 0, []
1628362755.1691, 99, 0, 4105.128, 4158.462, 4116.923, 4157.949, 4472.308, 16196, 0, []
1628362755.177, 100, 0, 4098.974, 4163.077, 4114.872, 4158.462, 4472.308, 450, 0, []
1628362755.1848, 101, 0, 4086.154, 4157.949, 4120, 4168.205, 4474.872, 450, 0, []
1628362755.1927, 102, 0, 4092.821, 4160, 4115.897, 4165.641, 4464.103, 450, 0, []
1628362755.2005, 103, 0, 4100.513, 4174.359, 4122.564, 4141.538, 4460, 16196, 0, []
1628362755.2084, 104, 0, 4095.385, 4170.769, 4119.487, 4129.744, 4466.667, 450, 0, []
1628362755.2161, 105, 0, 4098.462, 4156.41, 4125.128, 4139.487, 4462.051, 450, 0, []
1628362755.224, 106, 0, 4107.692, 4154.872, 4132.821, 4145.128, 4453.333, 450, 0, []
1628362755.2318, 107, 0, 4106.667, 4151.795, 4117.949, 4141.538, 4465.128, 16196, 0, []
1628362755.2397, 108, 0, 4104.615, 4148.205, 4129.744, 4138.974, 4480, 450, 0, []
1628362755.2475, 109, 0, 4108.205, 4158.974, 4134.359, 4137.949, 4474.872, 450, 0, []
1628362755.2553, 110, 0, 4110.769, 4169.744, 4121.026, 4137.436, 4468.205, 450, 0, []
1628362755.2631, 111, 0, 4116.923, 4168.205, 4121.538, 4135.897, 4471.795, 16196, 0, []
1628362755.271, 112, 0, 4129.744, 4174.359, 4112.821, 4137.436, 4481.538, 450, 0, []
1628362755.2788, 113, 0, 4137.949, 4191.282, 4120, 4144.103, 4495.897, 450, 0, []
1628362755.2866, 114, 0, 4144.615, 4193.333, 4127.692, 4152.821, 4508.205, 450, 0, []
1628362755.2944, 115, 0, 4154.872, 4184.615, 4130.256, 4156.923, 4512.308, 16196, 0, []
1628362755.3023, 116, 0, 4154.359, 4187.179, 4138.462, 4150.769, 4504.615, 450, 0, []
1628362755.3101, 117, 0, 4141.538, 4194.872, 4126.154, 4136.41, 4490.256, 450, 0, []
1628362755.318, 118, 0, 4145.128, 4195.385, 4133.846, 4135.897, 4484.103, 450, 0, []
1628362755.3258, 119, 0, 4169.231, 4200, 4138.462, 4150.256, 4493.846, 16196, 0, []
1628362755.3335, 120, 0, 4171.282, 4204.103, 4129.744, 4140.513, 4490.769, 450, 0, []
1628362755.3414, 121, 0, 4152.308, 4199.487, 4137.436, 4120.513, 4472.821, 450, 0, []
1628362755.3492, 122, 0, 4155.897, 4198.462, 4131.282, 4129.231, 4470.256, 450, 0, []
1628362755.3571, 123, 0, 4176.41, 4202.564, 4132.308, 4147.179, 4483.59, 16196, 0, []
1628362755.3649, 124, 0, 4173.333, 4204.103, 4129.231, 4136.923, 4483.077, 450, 0, []
1628362755.3727, 125, 0, 4163.077, 4206.154, 4123.59, 4125.641, 4468.718, 450, 0, []
1628362755.3805, 126, 0, 4186.154, 4215.897, 4143.59, 4153.846, 4477.436, 450, 0, []
1628362755.3884, 127, 0, 4206.154, 4222.564, 4142.564, 4171.795, 4496.41, 16196, 0, []
1628362755.3962, 128, 0, 4188.718, 4211.795, 4137.949, 4148.205, 4483.59, 450, 0, []
1628362755.4041, 0, 0, 4180, 4198.462, 4124.615, 4136.923, 4460, 450, 0, []
1628362755.4118, 1, 0, 4200.513, 4208.205, 4108.718, 4153.333, 4454.872, 450, 0, []
1628362755.4197, 2, 0, 4203.59, 4222.051, 4126.667, 4151.795, 4450.769, 16187, 0, []
1628362755.4275, 3, 0, 4180, 4213.333, 4116.923, 4128.205, 4430.769, 450, 0, []
1628362755.4354, 4, 0, 4184.103, 4213.846, 4111.795, 4130.769, 4429.231, 16165, 0, []
1628362755.4432, 5, 0, 4209.744, 4232.821, 4132.821, 4154.359, 4439.487, 450, 0, []
1628362755.451, 6, 0, 4213.846, 4233.846, 4122.564, 4148.718, 4421.538, 16112, 0, []
1628362755.4588, 7, 0, 4204.103, 4227.179, 4109.744, 4130.256, 4397.436, 450, 0, []
1628362755.4667, 8, 0, 4207.692, 4229.744, 4100, 4140, 4406.667, 450, 0, []
1628362755.4746, 9, 0, 4240, 4228.205, 4103.077, 4151.282, 4454.359, 16179, 0, []
1628362755.4824, 10, 0, 4320.513, 4233.846, 4115.385, 4143.59, 4535.897, 450, 0, []
1628362755.4901, 11, 0, 4418.974, 4245.128, 4106.154, 4135.897, 4618.974, 16195, 0, []
1628362755.498, 12, 0, 4485.641, 4243.077, 4110.256, 4128.205, 4672.821, 450, 0, []
1628362755.5059, 13, 0, 4538.974, 4245.128, 4124.615, 4126.667, 4717.949, 450, 0, []
1628362755.5137, 14, 0, 4572.308, 4254.872, 4131.282, 4137.949, 4735.897, 450, 0, []
1628362755.5216, 15, 0, 4550.256, 4248.205, 4121.026, 4136.923, 4696.41, 16195, 0, []
1628362755.5293, 16, 0, 4508.718, 4241.026, 4098.462, 4126.154, 4658.462, 0, 0, []
1628362755.5372, 17, 0, 4485.128, 4242.051, 4111.795, 4128.718, 4643.077, 0, 0, []
1628362755.545, 18, 0, 4451.282, 4236.923, 4110.769, 4123.077, 4608.718, 0, 0, []
1628362755.5529, 19, 0, 4407.692, 4235.385, 4095.897, 4108.205, 4569.231, 0, 0, []
1628362755.5607, 20, 0, 4386.667, 4232.821, 4101.538, 4105.128, 4554.872, 0, 0, []
1628362755.5685, 21, 0, 4370.256, 4228.718, 4102.051, 4104.615, 4540, 0, 0, []
1628362755.5763, 22, 0, 4356.41, 4240, 4121.538, 4111.282, 4521.538, 0, 0, []
1628362755.5842, 23, 0, 4354.872, 4252.821, 4123.59, 4126.154, 4510.769, 0, 0, []
1628362755.592, 24, 0, 4346.154, 4250.769, 4114.359, 4126.667, 4495.897, 0, 0, []
1628362755.5998, 25, 0, 4333.846, 4242.564, 4130.256, 4115.385, 4477.949, 0, 0, []
1628362755.6077, 26, 0, 4332.821, 4242.564, 4136.923, 4110.769, 4463.077, 0, 0, []
1628362755.6154, 27, 0, 4325.641, 4251.795, 4146.154, 4109.231, 4448.718, 0, 0, []
1628362755.6233, 28, 0, 4312.821, 4257.949, 4152.821, 4108.205, 4442.564, 0, 0, []
1628362755.6311, 29, 0, 4314.359, 4249.744, 4169.744, 4117.436, 4443.59, 0, 0, []
1628362755.639, 30, 0, 4316.923, 4244.615, 4173.846, 4124.615, 4437.949, 0, 0, []
1628362755.6468, 31, 0, 4309.744, 4248.205, 4123.077, 4118.974, 4425.641, 0, 0, []
1628362755.6546, 32, 0, 4301.538, 4248.718, 4111.282, 4120, 4412.308, 0, 0, []
1628362755.6624, 33, 0, 4298.974, 4251.795, 4134.872, 4123.077, 4398.462, 0, 0, []
1628362755.6703, 34, 0, 4298.462, 4252.821, 4132.308, 4120.513, 4391.282, 0, 0, []
1628362755.6781, 35, 0, 4288.205, 4248.205, 4120, 4120.513, 4386.154, 0, 0, []
1628362755.686, 36, 0, 4276.41, 4245.641, 4104.615, 4120.513, 4372.308, 0, 0, []
1628362755.6937, 37, 0, 4275.385, 4245.128, 4121.538, 4117.949, 4357.436, 0, 0, []
1628362755.7016, 38, 0, 4277.949, 4246.667, 4127.179, 4111.795, 4349.744, 0, 0, []
1628362755.7094, 39, 0, 4272.308, 4239.487, 4112.821, 4104.615, 4347.179, 0, 0, []
1628362755.7173, 40, 0, 4266.667, 4232.308, 4107.692, 4110.769, 4347.692, 0, 0, []
1628362755.7251, 41, 0, 4262.564, 4240, 4080, 4118.974, 4336.41, 0, 0, []
1628362755.7329, 42, 0, 4260.513, 4245.641, 4097.949, 4112.821, 4316.923, 0, 0, []
1628362755.7407, 43, 0, 4265.128, 4242.564, 4121.538, 4112.821, 4318.462, 0, 0, []
1628362755.7486, 44, 0, 4271.795, 4244.615, 4116.923, 4131.282, 4341.026, 0, 0, []
1628362755.7564, 45, 0, 4265.128, 4239.487, 4130.769, 4139.487, 4342.051, 0, 0, []
1628362755.7642, 46, 0, 4251.282, 4222.051, 4112.308, 4122.564, 4313.846, 0, 0, []
1628362755.772, 47, 0, 4251.795, 4219.487, 4104.103, 4113.333, 4304.103, 0, 0, []
1628362755.7799, 48, 0, 4269.744, 4235.385, 4120.513, 4123.59, 4330.256, 0, 0, []
1628362755.7877, 49, 0, 4267.692, 4236.41, 4121.026, 4122.051, 4335.385, 0, 0, []
1628362755.7955, 50, 0, 4244.615, 4210.256, 4124.103, 4106.667, 4305.641, 0, 0, []
1628362755.8034, 51, 0, 4254.359, 4206.154, 4121.538, 4123.077, 4308.205, 0, 0, []
1628362755.8111, 52, 0, 4287.692, 4235.385, 4141.538, 4154.872, 4339.487, 0, 0, []
1628362755.819, 53, 0, 4292.308, 4243.59, 4155.385, 4143.077, 4342.564, 0, 0, []
1628362755.8268, 54, 0, 4288.205, 4221.538, 4122.564, 4115.385, 4336.41, 0, 0, []
1628362755.8347, 55, 0, 4324.103, 4211.282, 4110.769, 4125.128, 4366.154, 0, 0, []
1628362755.8425, 56, 0, 4387.179, 4224.615, 4112.821, 4140, 4415.897, 0, 0, []
1628362755.8503, 57, 0, 4446.667, 4235.897, 4115.385, 4136.923, 4460.513, 0, 0, []
1628362755.8581, 58, 0, 4498.462, 4229.231, 4123.077, 4141.026, 4510.256, 0, 0, []
1628362755.866, 59, 0, 4545.641, 4226.667, 4114.872, 4150.256, 4562.564, 0, 0, []
1628362755.8738, 60, 0, 4577.949, 4244.615, 4124.615, 4159.487, 4595.897, 0, 0, []
1628362755.8817, 61, 0, 4570.256, 4239.487, 4111.795, 4151.282, 4587.179, 0, 0, []
1628362755.8894, 62, 0, 4552.308, 4222.051, 4097.436, 4132.308, 4570.256, 0, 0, []
1628362755.8972, 63, 0, 4560.513, 4231.282, 4115.897, 4133.846, 4580, 0, 0, []
1628362755.9051, 64, 0, 4542.051, 4227.692, 4109.231, 4136.923, 4570.769, 450, 0, []
1628362755.913, 65, 0, 4489.744, 4211.795, 4107.179, 4132.821, 4534.872, 450, 0, []
1628362755.9208, 66, 0, 4460, 4216.41, 4100.513, 4132.308, 4505.128, 16197, 0, []
1628362755.9286, 67, 0, 4440.513, 4214.359, 4084.103, 4126.154, 4473.846, 450, 0, []
1628362755.9364, 68, 0, 4409.744, 4209.744, 4095.897, 4128.718, 4448.205, 16158, 0, []
1628362755.9442, 69, 0, 4379.487, 4215.897, 4097.436, 4130.256, 4433.333, 450, 0, []
1628362755.9521, 70, 0, 4355.385, 4201.538, 4094.359, 4113.333, 4410.256, 16111, 0, []
1628362755.9599, 71, 0, 4347.692, 4199.487, 4099.487, 4119.487, 4394.359, 450, 0, []
1628362755.9678, 72, 0, 4355.385, 4229.231, 4113.333, 4155.897, 4398.462, 450, 0, []
1628362755.9755, 73, 0, 4341.538, 4229.231, 4115.897, 4157.436, 4380, 16178, 0, []
1628362755.9834, 74, 0, 4319.487, 4211.282, 4101.026, 4137.949, 4346.667, 450, 0, []
1628362755.9912, 75, 0, 4313.333, 4214.359, 4120, 4140.513, 4334.359, 16192, 0, []
1628362755.9991, 76, 0, 4293.846, 4214.872, 4118.974, 4133.846, 4322.051, 450, 0, []
1628362756.0069, 77, 0, 4275.385, 4206.667, 4100.513, 4121.538, 4305.128, 450, 0, []
1628362756.0147, 78, 0, 4276.923, 4203.077, 4115.897, 4121.026, 4289.231, 450, 0, []
1628362756.0225, 79, 0, 4273.846, 4202.051, 4118.462, 4129.231, 4278.462, 16192, 0, []
1628362756.0304, 80, 0, 4258.462, 4202.564, 4121.538, 4138.974, 4274.872, 450, 0, []
1628362756.0382, 81, 0, 4247.179, 4191.795, 4103.077, 4118.974, 4257.436, 450, 0, []
1628362756.0461, 82, 0, 4247.179, 4182.564, 4078.462, 4100.513, 4236.41, 450, 0, []
1628362756.0538, 83, 0, 4247.179, 4199.487, 4111.795, 4127.179, 4236.923, 16192, 0, []
1628362756.0616, 84, 0, 4236.923, 4209.231, 4121.026, 4147.692, 4233.333, 450, 0, []
1628362756.0695, 85, 0, 4226.154, 4195.897, 4102.051, 4133.333, 4211.282, 450, 0, []
1628362756.0773, 86, 0, 4230.769, 4195.385, 4104.615, 4131.282, 4197.949, 450, 0, []
1628362756.0852, 87, 0, 4233.333, 4205.641, 4107.692, 4134.359, 4191.795, 16192, 0, []
1628362756.0929, 88, 0, 4218.462, 4206.154, 4112.308, 4121.026, 4178.974, 450, 0, []
1628362756.1008, 89, 0, 4197.436, 4196.923, 4096.41, 4108.718, 4154.872, 450, 0, []
1628362756.1086, 90, 0, 4194.359, 4189.231, 4095.385, 4116.41, 4141.026, 450, 0, []
1628362756.1165, 91, 0, 4209.231, 4198.462, 4118.974, 4140.513, 4151.795, 16192, 0, []
1628362756.1243, 92, 0, 4203.077, 4206.667, 4118.462, 4146.667, 4157.949, 450, 0, []
1628362756.1321, 93, 0, 4189.231, 4197.436, 4120, 4139.487, 4150.769, 450, 0, []
1628362756.1399, 94, 0, 4197.436, 4197.436, 4117.436, 4144.103, 4146.154, 450, 0, []
1628362756.1478, 95, 0, 4196.923, 4200.513, 4112.821, 4137.949, 4135.897, 16192, 0, []
1628362756.1556, 96, 0, 4178.462, 4191.282, 4112.821, 4119.487, 4116.923, 450, 0, []
1628362756.1635, 97, 0, 4175.897, 4186.154, 4109.744, 4115.897, 4101.538, 450, 0, []
1628362756.1712, 98, 0, 4184.615, 4186.154, 4116.41, 4114.359, 4085.641, 450, 0, []
1628362756.1791, 99, 0, 4182.051, 4189.231, 4109.744, 4109.231, 4081.538, 16192, 0, []
1628362756.1869, 100, 0, 4176.923, 4195.897, 4111.795, 4121.538, 4092.308, 450, 0, []
1628362756.1948, 101, 0, 4173.846, 4201.538, 4114.872, 4132.308, 4088.205, 450, 0, []
1628362756.2026, 102, 0, 4170.769, 4196.923, 4096.41, 4119.487, 4072.821, 450, 0, []
1628362756.2104, 103, 0, 4164.615, 4195.385, 4108.205, 4108.205, 4070.769, 16192, 0, []
1628362756.2182, 104, 0, 4162.051, 4207.179, 4115.385, 4114.359, 4070.256, 450, 0, []
1628362756.2261, 105, 0, 4168.205, 4207.692, 4106.667, 4120, 4060, 450, 0, []
1628362756.2339, 106, 0, 4175.385, 4203.077, 4114.872, 4115.897, 4062.051, 450, 0, []
1628362756.2417, 107, 0, 4181.026, 4207.692, 4118.462, 4117.949, 4075.385, 16192, 0, []
1628362756.2495, 108, 0, 4191.282, 4207.179, 4127.179, 4131.795, 4075.385, 450, 0, []
1628362756.2573, 109, 0, 4190.769, 4201.026, 4123.077, 4124.615, 4060, 450, 0, []
1628362756.2652, 110, 0, 4169.744, 4207.692, 4114.872, 4104.103, 4047.179, 450, 0, []
1628362756.273, 111, 0, 4167.692, 4220.513, 4118.462, 4112.308, 4046.667, 16192, 0, []
1628362756.2809, 112, 0, 4193.846, 4227.179, 4100.513, 4136.41, 4054.872, 450, 0, []
1628362756.2887, 113, 0, 4208.205, 4229.744, 4103.59, 4141.026, 4071.282, 450, 0, []
1628362756.2965, 114, 0, 4200.513, 4221.538, 4123.077, 4128.718, 4082.051, 450, 0, []
1628362756.3043, 115, 0, 4194.872, 4211.795, 4123.077, 4117.949, 4068.718, 16192, 0, []
1628362756.3121, 116, 0, 4187.692, 4218.462, 4122.051, 4110.256, 4042.564, 450, 0, []
1628362756.32, 117, 0, 4171.282, 4220, 4109.231, 4102.051, 4030.256, 450, 0, []
1628362756.3279, 118, 0, 4171.795, 4211.282, 4107.692, 4108.205, 4037.436, 450, 0, []
1628362756.3357, 119, 0, 4189.744, 4210.769, 4105.128, 4122.051, 4040.513, 16192, 0, []
1628362756.3435, 120, 0, 4204.615, 4223.077, 4094.359, 4123.077, 4040, 450, 0, []
1628362756.3514, 121, 0, 4216.923, 4227.692, 4117.949, 4119.487, 4064.103, 450, 0, []
1628362756.3592, 122, 0, 4226.154, 4211.282, 4135.385, 4126.154, 4082.564, 450, 0, []
1628362756.3671, 123, 0, 4219.487, 4201.026, 4133.846, 4130.769, 4059.487, 16192, 0, []
1628362756.3748, 124, 0, 4188.205, 4206.154, 4121.538, 4104.103, 4022.564, 450, 0, []
1628362756.3826, 125, 0, 4157.436, 4196.923, 4085.641, 4069.744, 3996.41, 450, 0, []
1628362756.3905, 126, 0, 4166.154, 4193.333, 4072.308, 4084.103, 3987.179, 450, 0, []
1628362756.3983, 127, 0, 4207.692, 4231.282, 4093.846, 4128.205, 4019.487, 16192, 0, []
1628362756.4062, 128, 0, 4239.487, 4258.462, 4134.359, 4148.205, 4072.821, 450, 0, []
1628362756.4139, 0, 0, 4249.231, 4229.744, 4157.436, 4153.846, 4086.154, 450, 0, []
1628362756.4218, 1, 0, 4253.333, 4207.179, 4154.872, 4164.103, 4069.231, 450, 0, []
1628362756.4296, 2, 0, 4241.538, 4219.487, 4161.538, 4156.41, 4053.333, 16193, 0, []
1628362756.4375, 3, 0, 4202.564, 4214.872, 4138.462, 4126.667, 4029.744, 450, 0, []
1628362756.4453, 4, 0, 4176.923, 4191.795, 4105.128, 4112.821, 4007.692, 16159, 0, []
1628362756.4531, 5, 0, 4186.667, 4193.333, 4108.205, 4122.051, 4002.051, 450, 0, []
1628362756.461, 6, 0, 4206.154, 4214.359, 4117.949, 4128.718, 4014.872, 16110, 0, []
1628362756.4689, 7, 0, 4212.821, 4217.436, 4128.205, 4126.154, 4031.795, 450, 0, []
1628362756.4768, 8, 0, 4212.308, 4206.667, 4129.231, 4134.359, 4027.692, 450, 0, []
1628362756.4846, 9, 0, 4217.949, 4207.179, 4131.795, 4145.641, 4014.872, 16175, 0, []
1628362756.4923, 10, 0, 4213.333, 4191.795, 4117.436, 4108.718, 3999.487, 450, 0, []
1628362756.5002, 11, 0, 4207.179, 4162.051, 4076.923, 4055.897, 3987.179, 16193, 0, []
1628362756.508, 12, 0, 4264.103, 4177.949, 4101.026, 4083.077, 4029.231, 450, 0, []
1628362756.5159, 13, 0, 4357.949, 4215.897, 4140.513, 4135.897, 4098.462, 450, 0, []
1628362756.5237, 14, 0, 4389.744, 4205.128, 4108.718, 4104.615, 4103.077, 450, 0, []
1628362756.5315, 15, 0, 4385.641, 4181.538, 4078.974, 4047.179, 4070.769, 16193, 0, []
1628362756.5393, 16, 0, 4428.205, 4187.692, 4089.231, 4048.718, 4083.077, 0, 0, []
1628362756.5471, 17, 0, 4467.179, 4191.282, 4095.385, 4048.718, 4096.41, 0, 0, []
1628362756.555, 18, 0, 4445.128, 4183.59, 4072.308, 4018.462, 4057.949, 0, 0, []
1628362756.5628, 19, 0, 4417.949, 4186.667, 4060, 4021.026, 4010.769, 0, 0, []
1628362756.5706, 20, 0, 4405.641, 4195.385, 4074.359, 4044.615, 3973.846, 0, 0, []
1628362756.5784, 21, 0, 4384.103, 4204.615, 4072.308, 4045.641, 3934.872, 0, 0, []
1628362756.5863, 22, 0, 4346.667, 4205.128, 4077.436, 4043.59, 3896.41, 0, 0, []
1628362756.5941, 23, 0, 4298.462, 4187.179, 4081.538, 4043.59, 3866.667, 0, 0, []
1628362756.602, 24, 0, 4257.436, 4167.179, 4062.051, 4035.385, 3843.077, 0, 0, []
1628362756.6098, 25, 0, 4243.077, 4167.692, 4066.667, 4036.41, 3829.744, 0, 0, []
1628362756.6176, 26, 0, 4233.333, 4180.513, 4082.564, 4035.385, 3836.41, 0, 0, []
1628362756.6254, 27, 0, 4199.487, 4172.308, 4077.436, 4021.538, 3833.846, 0, 0, []
1628362756.6333, 28, 0, 4179.487, 4149.231, 4067.692, 4034.872, 3816.923, 0, 0, []
1628362756.6411, 29, 0, 4193.846, 4150.769, 4078.974, 4062.051, 3816.41, 0, 0, []
1628362756.649, 30, 0, 4194.872, 4163.077, 4094.872, 4058.462, 3824.103, 0, 0, []
1628362756.6567, 31, 0, 4171.282, 4145.641, 4072.821, 4044.103, 3807.179, 0, 0, []
1628362756.6646, 32, 0, 4162.564, 4118.462, 4066.154, 4045.641, 3765.641, 0, 0, []
1628362756.6724, 33, 0, 4167.692, 4120.513, 4085.128, 4053.333, 3728.718, 0, 0, []
1628362756.6803, 34, 0, 4163.077, 4129.231, 4078.974, 4057.436, 3707.179, 0, 0, []
1628362756.6881, 35, 0, 4147.179, 4110.769, 4077.949, 4049.231, 3698.462, 0, 0, []
1628362756.6959, 36, 0, 4134.359, 4094.872, 4076.923, 4039.487, 3721.538, 0, 0, []
1628362756.7037, 37, 0, 4136.41, 4100.513, 4067.692, 4047.179, 3773.333, 0, 0, []
1628362756.7115, 38, 0, 4139.487, 4099.487, 4066.667, 4051.282, 3804.103, 0, 0, []
1628362756.7194, 39, 0, 4132.308, 4093.846, 4058.462, 4050.256, 3807.179, 0, 0, []
1628362756.7272, 40, 0, 4136.41, 4093.333, 4052.308, 4056.923, 3820, 0, 0, []
1628362756.735, 41, 0, 4148.718, 4080, 4043.077, 4046.154, 3829.231, 0, 0, []
1628362756.7428, 42, 0, 4155.385, 4067.692, 4053.846, 4034.872, 3835.897, 0, 0, []
1628362756.7507, 43, 0, 4205.128, 4094.359, 4091.795, 4069.744, 3900, 0, 0, []
1628362756.7585, 44, 0, 4293.846, 4126.667, 4109.744, 4112.821, 3999.487, 0, 0, []
1628362756.7664, 45, 0, 4334.872, 4121.538, 4114.359, 4111.795, 4055.897, 0, 0, []
1628362756.7741, 46, 0, 4340, 4100, 4110.256, 4104.103, 4081.026, 0, 0, []
1628362756.782, 47, 0, 4368.205, 4086.154, 4101.026, 4111.795, 4116.923, 0, 0, []
1628362756.7898, 48, 0, 4389.744, 4081.538, 4100, 4117.949, 4151.795, 0, 0, []
1628362756.7977, 49, 0, 4385.641, 4088.205, 4093.846, 4126.667, 4175.385, 0, 0, []
1628362756.8055, 50, 0, 4374.359, 4094.359, 4099.487, 4134.872, 4185.128, 0, 0, []
1628362756.8133, 51, 0, 4334.872, 4078.974, 4091.282, 4116.923, 4163.077, 0, 0, []
1628362756.8211, 52, 0, 4268.718, 4051.795, 4065.128, 4088.205, 4123.077, 0, 0, []
1628362756.829, 53, 0, 4241.538, 4061.026, 4085.128, 4116.41, 4115.385, 0, 0, []
1628362756.8368, 54, 0, 4232.821, 4091.282, 4108.205, 4162.051, 4113.333, 0, 0, []
1628362756.8446, 55, 0, 4178.974, 4084.103, 4093.846, 4148.205, 4071.282, 0, 0, []
1628362756.8524, 56, 0, 4124.615, 4065.128, 4089.744, 4139.487, 4037.436, 0, 0, []
1628362756.8602, 57, 0, 4095.897, 4072.308, 4105.128, 4171.282, 4017.949, 0, 0, []
1628362756.8681, 58, 0, 4037.949, 4073.333, 4106.667, 4173.333, 3937.949, 0, 0, []
1628362756.8759, 59, 0, 3973.333, 4065.128, 4090.769, 4153.333, 3843.077, 0, 0, []
1628362756.8838, 60, 0, 3957.949, 4073.846, 4101.538, 4167.179, 3825.641, 0, 0, []
1628362756.8915, 61, 0, 3942.051, 4073.846, 4095.897, 4170.256, 3812.821, 0, 0, []
1628362756.8994, 62, 0, 3897.436, 4051.282, 4054.872, 4140, 3751.795, 0, 0, []
1628362756.9072, 63, 0, 3897.436, 4057.436, 4072.821, 4143.59, 3735.897, 0, 0, []
1628362756.9151, 64, 0, 3943.59, 4097.436, 4120, 4176.41, 3782.564, 450, 0, []
1628362756.9229, 65, 0, 3958.974, 4114.359, 4119.487, 4175.385, 3797.436, 450, 0, []
1628362756.9308, 66, 0, 3938.462, 4094.872, 4087.179, 4145.641, 3758.974, 16188, 0, []
1628362756.9385, 67, 0, 3940.513, 4087.692, 4073.333, 4132.821, 3727.179, 450, 0, []
1628362756.9464, 68, 0, 3958.462, 4103.59, 4090.256, 4136.41, 3715.897, 16162, 0, []
1628362756.9542, 69, 0, 3957.436, 4112.308, 4092.821, 4136.41, 3701.026, 450, 0, []
1628362756.9621, 70, 0, 3951.795, 4109.744, 4076.923, 4132.821, 3689.744, 16111, 0, []
1628362756.9699, 71, 0, 3952.308, 4104.615, 4065.128, 4124.103, 3696.923, 450, 0, []
1628362756.9777, 72, 0, 3959.487, 4110.769, 4064.615, 4121.538, 3725.128, 450, 0, []
1628362756.9855, 73, 0, 3961.538, 4126.154, 4075.897, 4120, 3739.487, 16175, 0, []
1628362756.9934, 74, 0, 3955.897, 4134.359, 4073.846, 4107.179, 3721.538, 450, 0, []
1628362757.0012, 75, 0, 3968.205, 4144.615, 4080, 4116.41, 3719.487, 16202, 0, []
1628362757.0091, 76, 0, 3977.949, 4151.282, 4074.872, 4130.769, 3729.231, 450, 0, []
1628362757.0168, 77, 0, 3962.051, 4140, 4033.333, 4102.564, 3713.333, 450, 0, []
1628362757.0246, 78, 0, 3970.256, 4156.923, 4044.615, 4097.949, 3720, 450, 0, []
1628362757.0325, 79, 0, 4014.359, 4202.051, 4083.077, 4136.923, 3756.923, 16202, 0, []
1628362757.0403, 80, 0, 4026.154, 4207.179, 4081.538, 4137.436, 3762.564, 450, 0, []
1628362757.0482, 81, 0, 4010.256, 4194.359, 4076.923, 4120, 3747.179, 450, 0, []
1628362757.0559, 82, 0, 4027.692, 4213.333, 4092.308, 4138.462, 3760.513, 450, 0, []
1628362757.0638, 83, 0, 4048.718, 4228.205, 4109.744, 4146.154, 3773.333, 16202, 0, []
1628362757.0716, 84, 0, 4036.41, 4221.538, 4091.795, 4117.949, 3761.538, 450, 0, []
1628362757.0795, 85, 0, 4030.256, 4231.795, 4074.872, 4106.667, 3768.205, 450, 0, []
1628362757.0873, 86, 0, 4040.513, 4256.41, 4097.436, 4126.667, 3796.41, 450, 0, []
1628362757.0951, 87, 0, 4042.564, 4265.128, 4104.103, 4140, 3805.641, 16202, 0, []
1628362757.1029, 88, 0, 4042.051, 4254.359, 4088.205, 4134.359, 3795.385, 450, 0, []
1628362757.1108, 89, 0, 4058.974, 4250.256, 4086.154, 4142.051, 3804.615, 450, 0, []
1628362757.1186, 90, 0, 4087.179, 4266.154, 4113.846, 4174.359, 3831.282, 450, 0, []
1628362757.1265, 91, 0, 4092.821, 4271.795, 4132.308, 4178.462, 3828.718, 16202, 0, []
1628362757.1342, 92, 0, 4081.538, 4264.103, 4110.256, 4149.744, 3817.949, 450, 0, []
1628362757.1421, 93, 0, 4095.385, 4283.59, 4111.282, 4148.718, 3828.718, 450, 0, []
1628362757.1499, 94, 0, 4114.359, 4311.282, 4128.718, 4161.026, 3834.359, 450, 0, []
1628362757.1578, 95, 0, 4106.667, 4299.487, 4120, 4147.692, 3829.231, 16202, 0, []
1628362757.1656, 96, 0, 4104.615, 4280.513, 4115.385, 4147.179, 3836.923, 450, 0, []
1628362757.1733, 97, 0, 4117.949, 4282.051, 4117.949, 4160, 3845.641, 450, 0, []
1628362757.1812, 98, 0, 4107.692, 4269.231, 4118.462, 4147.692, 3832.308, 450, 0, []
1628362757.189, 99, 0, 4094.359, 4251.282, 4106.667, 4132.308, 3823.077, 16202, 0, []
1628362757.1969, 100, 0, 4111.795, 4262.564, 4101.026, 4137.949, 3834.359, 450, 0, []
1628362757.2047, 101, 0, 4122.051, 4276.41, 4109.744, 4138.462, 3838.974, 450, 0, []
1628362757.2125, 102, 0, 4119.487, 4267.692, 4096.41, 4134.359, 3832.821, 450, 0, []
1628362757.2203, 103, 0, 4135.897, 4256.923, 4089.744, 4146.154, 3833.846, 16202, 0, []
1628362757.2282, 104, 0, 4154.359, 4262.564, 4096.923, 4155.897, 3843.077, 450, 0, []
1628362757.236, 105, 0, 4156.923, 4271.282, 4102.564, 4156.41, 3854.872, 450, 0, []
1628362757.2439, 106, 0, 4155.385, 4275.385, 4108.718, 4150.769, 3854.359, 450, 0, []
1628362757.2517, 107, 0, 4157.949, 4275.897, 4100, 4136.41, 3847.179, 16202, 0, []
1628362757.2595, 108, 0, 4161.026, 4276.923, 4109.231, 4131.795, 3853.333, 450, 0, []
1628362757.2673, 109, 0, 4162.564, 4278.462, 4117.436, 4138.462, 3859.487, 450, 0, []
1628362757.2752, 110, 0, 4164.103, 4277.949, 4100, 4137.436, 3856.923, 450, 0, []
1628362757.283, 111, 0, 4161.026, 4279.487, 4110.769, 4133.333, 3859.487, 16202, 0, []
1628362757.2909, 112, 0, 4159.487, 4276.923, 4122.564, 4140, 3862.051, 450, 0, []
1628362757.2986, 113, 0, 4164.103, 4264.615, 4102.564, 4142.564, 3855.897, 450, 0, []
1628362757.3064, 114, 0, 4165.128, 4256.41, 4096.923, 4133.333, 3855.385, 450, 0, []
1628362757.3143, 115, 0, 4160.513, 4261.026, 4105.641, 4126.154, 3858.462, 16202, 0, []
1628362757.3221, 116, 0, 4164.615, 4272.821, 4106.154, 4136.41, 3854.359, 450, 0, []
1628362757.33, 117, 0, 4183.59, 4276.41, 4104.103, 4151.282, 3865.128, 450, 0, []
1628362757.3377, 118, 0, 4186.667, 4281.026, 4116.41, 4155.897, 3877.949, 450, 0, []
1628362757.3456, 119, 0, 4172.821, 4291.795, 4128.718, 4162.051, 3869.744, 16202, 0, []
1628362757.3534, 120, 0, 4181.026, 4285.128, 4110.769, 4157.436, 3872.308, 450, 0, []
1628362757.3613, 121, 0, 4237.436, 4276.923, 4105.128, 4145.128, 3925.128, 450, 0, []
1628362757.3691, 122, 0, 4311.795, 4297.949, 4132.821, 4159.487, 4004.103, 450, 0, []
1628362757.3769, 123, 0, 4365.128, 4313.846, 4148.205, 4177.949, 4051.282, 16202, 0, []
1628362757.3847, 124, 0, 4406.154, 4309.231, 4144.615, 4173.333, 4072.308, 450, 0, []
1628362757.3926, 125, 0, 4436.923, 4316.923, 4146.667, 4168.205, 4095.897, 450, 0, []
1628362757.4004, 126, 0, 4450.256, 4326.667, 4146.667, 4166.667, 4106.667, 450, 0, []
1628362757.4083, 127, 0, 4458.462, 4323.077, 4129.231, 4154.872, 4096.923, 16202, 0, []
1628362757.416, 128, 0, 4471.282, 4319.487, 4130.769, 4146.667, 4102.564, 450, 0, []
1628362757.4239, 0, 0, 4474.872, 4317.436, 4147.692, 4146.667, 4113.333, 450, 0, []
1628362757.4317, 1, 0, 4478.974, 4320, 4142.051, 4140.513, 4102.564, 450, 0, []
1628362757.4396, 2, 0, 4484.103, 4324.615, 4146.667, 4135.897, 4085.128, 16188, 0, []
1628362757.4475, 3, 0, 4464.103, 4316.41, 4168.205, 4146.667, 4061.026, 450, 0, []
1628362757.4553, 4, 0, 4432.308, 4312.308, 4166.667, 4155.897, 4032.308, 16162, 0, []
1628362757.4631, 5, 0, 4403.59, 4313.846, 4144.615, 4151.282, 3998.974, 450, 0, []
1628362757.4709, 6, 0, 4392.308, 4298.974, 4125.128, 4144.103, 3976.41, 16112, 0, []
1628362757.4788, 7, 0, 4398.974, 4294.872, 4127.179, 4143.077, 3981.026, 450, 0, []
1628362757.4866, 8, 0, 4402.564, 4307.179, 4135.385, 4134.872, 3990.256, 450, 0, []
1628362757.4944, 9, 0, 4397.436, 4304.103, 4129.231, 4116.923, 3989.231, 16175, 0, []
1628362757.5022, 10, 0, 4389.744, 4292.308, 4135.897, 4106.154, 3980, 450, 0, []
1628362757.5101, 11, 0, 4394.872, 4289.231, 4149.231, 4118.974, 3978.462, 16203, 0, []
1628362757.5179, 12, 0, 4398.974, 4280, 4141.026, 4144.103, 3982.564, 450, 0, []
1628362757.5258, 13, 0, 4396.41, 4278.462, 4138.974, 4158.974, 3985.641, 450, 0, []
1628362757.5336, 14, 0, 4398.974, 4294.359, 4154.359, 4161.538, 3987.692, 450, 0, []
1628362757.5414, 15, 0, 4383.077, 4288.718, 4147.692, 4141.538, 3965.641, 16203, 0, []
1628362757.5492, 16, 0, 4352.308, 4261.538, 4115.897, 4104.615, 3937.436, 0, 0, []
1628362757.5571, 17, 0, 4358.974, 4252.308, 4115.897, 4095.385, 3955.897, 0, 0, []
1628362757.5649, 18, 0, 4391.282, 4264.615, 4142.051, 4122.564, 4004.103, 0, 0, []
1628362757.5728, 19, 0, 4391.795, 4274.872, 4139.487, 4141.026, 4013.846, 0, 0, []
1628362757.5805, 20, 0, 4370.256, 4271.282, 4129.744, 4138.462, 3993.333, 0, 0, []
1628362757.5884, 21, 0, 4367.692, 4259.487, 4128.205, 4136.923, 3989.744, 0, 0, []
1628362757.5962, 22, 0, 4370.769, 4260, 4126.154, 4138.462, 3994.872, 0, 0, []
1628362757.6041, 23, 0, 4360, 4266.667, 4132.821, 4141.538, 3998.974, 0, 0, []
1628362757.6119, 24, 0, 4352.308, 4257.436, 4132.821, 4139.487, 4010.769, 0, 0, []
1628362757.6197, 25, 0, 4347.179, 4243.59, 4122.051, 4127.692, 4009.744, 0, 0, []
1628362757.6275, 26, 0, 4344.615, 4244.615, 4127.179, 4126.667, 4005.641, 0, 0, []
1628362757.6353, 27, 0, 4348.718, 4252.308, 4140.513, 4137.949, 4016.923, 0, 0, []
1628362757.6432, 28, 0, 4350.769, 4255.385, 4144.103, 4145.128, 4029.744, 0, 0, []
1628362757.651, 29, 0, 4359.487, 4264.615, 4144.615, 4156.923, 4044.103, 0, 0, []
1628362757.6588, 30, 0, 4364.615, 4270.769, 4151.282, 4162.564, 4053.333, 0, 0, []
1628362757.6666, 31, 0, 4342.564, 4254.872, 4148.205, 4146.667, 4036.41, 0, 0, []
1628362757.6745, 32, 0, 4324.615, 4246.667, 4133.846, 4136.41, 4016.923, 0, 0, []
1628362757.6823, 33, 0, 4340.513, 4250.769, 4135.385, 4145.128, 4022.051, 0, 0, []
1628362757.6902, 34, 0, 4346.154, 4237.436, 4135.897, 4136.923, 4022.051, 0, 0, []
1628362757.6979, 35, 0, 4323.59, 4224.103, 4134.359, 4120.513, 4007.692, 0, 0, []
1628362757.7058, 36, 0, 4323.59, 4231.282, 4147.179, 4128.205, 4015.385, 0, 0, []
1628362757.7136, 37, 0, 4332.308, 4233.846, 4147.692, 4138.462, 4027.179, 0, 0, []
1628362757.7215, 38, 0, 4312.308, 4227.179, 4135.385, 4138.462, 4014.872, 0, 0, []
1628362757.7293, 39, 0, 4296.923, 4231.795, 4121.538, 4134.359, 4002.564, 0, 0, []
1628362757.7371, 40, 0, 4303.077, 4226.667, 4120.513, 4130.256, 4001.026, 0, 0, []
1628362757.7449, 41, 0, 4297.949, 4203.59, 4126.667, 4123.59, 4003.077, 0, 0, []
1628362757.7528, 42, 0, 4281.538, 4196.41, 4118.462, 4124.615, 4007.692, 0, 0, []
1628362757.7606, 43, 0, 4274.359, 4206.667, 4118.462, 4126.154, 4004.103, 0, 0, []
1628362757.7685, 44, 0, 4279.487, 4205.641, 4119.487, 4117.436, 3994.872, 0, 0, []
1628362757.7762, 45, 0, 4292.308, 4200.513, 4118.974, 4126.154, 4010.256, 0, 0, []
1628362757.784, 46, 0, 4292.308, 4200, 4125.641, 4143.59, 4030.769, 0, 0, []
1628362757.7919, 47, 0, 4269.231, 4180.513, 4116.41, 4129.744, 4017.436, 0, 0, []
1628362757.7997, 48, 0, 4261.026, 4157.949, 4112.308, 4116.41, 4002.051, 0, 0, []
1628362757.8076, 49, 0, 4281.538, 4173.333, 4124.615, 4137.436, 4017.949, 0, 0, []
1628362757.8153, 50, 0, 4287.179, 4191.282, 4123.59, 4143.077, 4028.718, 0, 0, []
1628362757.8232, 51, 0, 4265.641, 4176.41, 4113.846, 4119.487, 4012.821, 0, 0, []
1628362757.831, 52, 0, 4256.41, 4166.154, 4112.821, 4113.846, 4003.59, 0, 0, []
1628362757.8389, 53, 0, 4262.051, 4177.949, 4109.744, 4124.103, 4003.59, 0, 0, []
1628362757.8467, 54, 0, 4265.128, 4179.487, 4089.231, 4121.538, 4000, 0, 0, []
1628362757.8546, 55, 0, 4270.256, 4173.333, 4093.333, 4119.487, 4010.256, 0, 0, []
1628362757.8623, 56, 0, 4274.359, 4181.026, 4124.615, 4130.256, 4027.179, 0, 0, []
1628362757.8702, 57, 0, 4271.282, 4187.179, 4130.256, 4132.308, 4026.154, 0, 0, []
1628362757.878, 58, 0, 4270.256, 4185.128, 4127.179, 4124.103, 4017.436, 0, 0, []
1628362757.8859, 59, 0, 4277.436, 4184.615, 4133.333, 4127.179, 4026.154, 0, 0, []
1628362757.8937, 60, 0, 4281.026, 4178.974, 4135.385, 4131.282, 4043.59, 0, 0, []
1628362757.9015, 61, 0, 4284.103, 4179.487, 4142.051, 4133.333, 4053.846, 0, 0, []
1628362757.9093, 62, 0, 4294.359, 4183.077, 4144.103, 4136.923, 4064.103, 0, 0, []
1628362757.9171, 63, 0, 4294.872, 4172.308, 4136.923, 4133.333, 4067.179, 0, 0, []
1628362757.925, 64, 0, 4302.564, 4173.846, 4132.821, 4131.282, 4075.385, 450, 0, []
1628362757.9328, 65, 0, 4324.615, 4182.051, 4137.436, 4133.333, 4099.487, 450, 0, []
1628362757.9406, 66, 0, 4342.051, 4174.359, 4139.487, 4131.282, 4125.641, 16181, 0, []
1628362757.9484, 67, 0, 4378.462, 4171.795, 4124.615, 4137.436, 4167.179, 450, 0, []
1628362757.9563, 68, 0, 4435.897, 4184.615, 4117.949, 4157.436, 4222.564, 16165, 0, []
1628362757.9641, 69, 0, 4482.051, 4186.154, 4120.513, 4160.513, 4272.308, 450, 0, []
1628362757.972, 70, 0, 4528.718, 4183.077, 4123.077, 4154.359, 4325.128, 16112, 0, []
1628362757.9797, 71, 0, 4581.026, 4193.846, 4129.744, 4157.949, 4375.897, 450, 0, []
1628362757.9876, 72, 0, 4611.795, 4198.462, 4120, 4152.821, 4408.205, 450, 0, []
1628362757.9954, 73, 0, 4624.615, 4205.641, 4127.179, 4152.308, 4432.308, 16174, 0, []
1628362758.0033, 74, 0, 4618.462, 4214.359, 4143.59, 4158.974, 4443.077, 450, 0, []
1628362758.0111, 75, 0, 4581.538, 4207.179, 4127.692, 4148.718, 4426.667, 16205, 0, []
1628362758.0188, 76, 0, 4524.103, 4199.487, 4118.462, 4141.026, 4387.179, 450, 0, []
1628362758.0267, 77, 0, 4455.897, 4206.154, 4125.641, 4149.231, 4320, 450, 0, []
1628362758.0345, 78, 0, 4386.154, 4207.692, 4127.692, 4155.897, 4247.692, 450, 0, []
1628362758.0424, 79, 0, 4325.641, 4189.231, 4122.564, 4158.974, 4191.795, 16205, 0, []
1628362758.0502, 80, 0, 4264.103, 4180.513, 4103.59, 4154.359, 4128.718, 450, 0, []
1628362758.058, 81, 0, 4204.103, 4194.359, 4096.923, 4143.077, 4073.333, 450, 0, []
1628362758.0658, 82, 0, 4166.154, 4204.615, 4108.718, 4143.59, 4045.641, 450, 0, []
1628362758.0737, 83, 0, 4139.487, 4199.487, 4108.718, 4145.128, 4015.897, 16205, 0, []
1628362758.0815, 84, 0, 4122.051, 4195.897, 4102.051, 4137.436, 3992.308, 450, 0, []
1628362758.0893, 85, 0, 4117.436, 4202.564, 4104.615, 4140, 3998.974, 450, 0, []
1628362758.0971, 86, 0, 4098.462, 4203.077, 4096.923, 4133.846, 3980.513, 450, 0, []
1628362758.1049, 87, 0, 4086.667, 4198.462, 4087.179, 4112.821, 3953.333, 16205, 0, []
1628362758.1128, 88, 0, 4109.231, 4204.103, 4114.359, 4128.718, 3983.59, 450, 0, []
1628362758.1206, 89, 0, 4129.231, 4218.974, 4138.462, 4162.051, 4015.385, 450, 0, []
1628362758.1285, 90, 0, 4117.949, 4220, 4120.513, 4149.744, 4005.641, 450, 0, []
1628362758.1362, 91, 0, 4103.077, 4204.103, 4109.744, 4130.769, 4001.538, 16205, 0, []
1628362758.1441, 92, 0, 4107.179, 4203.59, 4115.897, 4142.051, 4010.256, 450, 0, []
1628362758.1519, 93, 0, 4116.923, 4220, 4123.59, 4144.103, 4010.769, 450, 0, []
1628362758.1598, 94, 0, 4114.359, 4225.128, 4129.744, 4135.897, 4009.231, 450, 0, []
1628362758.1676, 95, 0, 4103.59, 4209.231, 4105.128, 4132.308, 3998.462, 16205, 0, []
1628362758.1755, 96, 0, 4102.564, 4197.436, 4084.615, 4121.538, 3985.641, 450, 0, []
1628362758.1832, 97, 0, 4115.897, 4207.179, 4102.051, 4127.692, 4001.026, 450, 0, []
1628362758.1911, 98, 0, 4133.846, 4224.103, 4115.897, 4154.872, 4019.487, 450, 0, []
1628362758.1989, 99, 0, 4134.359, 4221.026, 4105.641, 4155.385, 4007.179, 16205, 0, []
1628362758.2068, 100, 0, 4119.487, 4202.051, 4092.821, 4131.795, 3995.385, 450, 0, []
1628362758.2146, 101, 0, 4121.026, 4203.59, 4103.59, 4133.333, 4008.205, 450, 0, []
1628362758.2224, 102, 0, 4140.513, 4220.513, 4121.538, 4152.821, 4026.667, 450, 0, []
1628362758.2302, 103, 0, 4148.718, 4222.564, 4128.718, 4152.308, 4044.615, 16205, 0, []
1628362758.238, 104, 0, 4137.436, 4210.256, 4125.128, 4140, 4051.282, 450, 0, []
1628362758.2459, 105, 0, 4133.333, 4199.487, 4111.795, 4141.026, 4042.564, 450, 0, []
1628362758.2537, 106, 0, 4138.462, 4202.051, 4109.744, 4142.564, 4037.436, 450, 0, []
1628362758.2615, 107, 0, 4131.795, 4207.179, 4101.538, 4123.59, 4041.538, 16205, 0, []
1628362758.2693, 108, 0, 4126.154, 4196.41, 4083.077, 4113.333, 4047.692, 450, 0, []
1628362758.2772, 109, 0, 4136.923, 4191.282, 4095.897, 4134.359, 4060, 450, 0, []
1628362758.285, 110, 0, 4143.59, 4196.923, 4113.333, 4142.564, 4073.333, 450, 0, []
1628362758.2929, 111, 0, 4134.359, 4191.282, 4104.103, 4127.692, 4074.359, 16205, 0, []
1628362758.3006, 112, 0, 4129.744, 4187.692, 4102.051, 4127.179, 4069.231, 450, 0, []
1628362758.3085, 113, 0, 4129.744, 4194.872, 4104.103, 4126.667, 4061.538, 450, 0, []
1628362758.3163, 114, 0, 4125.641, 4189.231, 4101.026, 4113.333, 4060, 450, 0, []
1628362758.3242, 115, 0, 4134.359, 4180.513, 4098.974, 4115.897, 4076.41, 16205, 0, []
1628362758.332, 116, 0, 4146.667, 4184.615, 4100.513, 4129.231, 4090.769, 450, 0, []
1628362758.3398, 117, 0, 4153.333, 4189.744, 4108.718, 4126.154, 4098.974, 450, 0, []
1628362758.3476, 118, 0, 4156.41, 4182.564, 4105.128, 4116.923, 4110.256, 450, 0, []
1628362758.3555, 119, 0, 4148.205, 4170.256, 4091.795, 4118.462, 4105.128, 16205, 0, []
1628362758.3633, 120, 0, 4149.231, 4177.949, 4090.256, 4127.692, 4097.949, 450, 0, []
1628362758.3712, 121, 0, 4167.179, 4197.949, 4096.923, 4132.308, 4114.359, 450, 0, []
1628362758.3789, 122, 0, 4177.436, 4192.821, 4098.462, 4130.256, 4132.308, 450, 0, []
1628362758.3868, 123, 0, 4189.744, 4176.923, 4098.462, 4134.359, 4146.667, 16205, 0, []
1628362758.3946, 124, 0, 4220, 4175.897, 4110.769, 4141.538, 4171.282, 450, 0, []
1628362758.4024, 125, 0, 4250.769, 4175.385, 4112.821, 4137.949, 4200.513, 450, 0, []
1628362758.4103, 126, 0, 4282.564, 4169.744, 4102.564, 4135.385, 4234.872, 450, 0, []
1628362758.418, 127, 0, 4325.128, 4169.744, 4094.872, 4138.974, 4275.385, 16205, 0, []
1628362758.4259, 128, 0, 4367.179, 4170.769, 4083.077, 4135.385, 4310.769, 450, 0, []
1628362758.4338, 0, 0, 4394.872, 4180, 4093.846, 4134.872, 4333.333, 450, 0, []
1628362758.4417, 1, 0, 4402.051, 4185.641, 4111.282, 4138.462, 4344.103, 450, 0, []
1628362758.4495, 2, 0, 4402.051, 4183.077, 4115.385, 4138.462, 4350.769, 16181, 0, []
1628362758.4572, 3, 0, 4403.59, 4197.949, 4129.231, 4145.128, 4353.846, 450, 0, []
1628362758.4651, 4, 0, 4382.051, 4203.077, 4133.333, 4147.179, 4331.282, 16165, 0, []
1628362758.473, 5, 0, 4331.282, 4175.897, 4119.487, 4129.744, 4277.949, 450, 0, []
1628362758.4808, 6, 0, 4295.897, 4163.59, 4104.615, 4117.436, 4231.795, 16116, 0, []
1628362758.4887, 7, 0, 4281.026, 4182.051, 4090.769, 4115.897, 4208.205, 450, 0, []
1628362758.4965, 8, 0, 4260.513, 4190.256, 4090.256, 4113.846, 4190.256, 450, 0, []
1628362758.5043, 9, 0, 4253.846, 4184.103, 4104.103, 4127.692, 4187.692, 16174, 0, []
1628362758.5121, 10, 0, 4261.538, 4185.128, 4120, 4152.308, 4195.897, 450, 0, []
1628362758.52, 11, 0, 4253.333, 4190.769, 4125.641, 4154.359, 4186.154, 16202, 0, []
1628362758.5278, 12, 0, 4231.282, 4180, 4125.128, 4134.359, 4162.564, 450, 0, []
1628362758.5357, 13, 0, 4207.692, 4157.949, 4116.41, 4120.513, 4147.692, 450, 0, []
1628362758.5434, 14, 0, 4191.282, 4156.923, 4102.051, 4120.513, 4141.026, 450, 0, []
1628362758.5512, 15, 0, 4187.179, 4170.256, 4107.692, 4122.051, 4128.718, 16202, 0, []
1628362758.5591, 16, 0, 4187.692, 4170.769, 4117.949, 4119.487, 4121.538, 0, 0, []
1628362758.5669, 17, 0, 4184.103, 4165.641, 4115.897, 4122.051, 4130.769, 0, 0, []
1628362758.5748, 18, 0, 4183.59, 4168.718, 4114.872, 4137.949, 4137.436, 0, 0, []
1628362758.5825, 19, 0, 4187.692, 4168.205, 4106.667, 4152.821, 4138.462, 0, 0, []
1628362758.5904, 20, 0, 4189.744, 4168.205, 4104.615, 4147.692, 4146.667, 0, 0, []
1628362758.5982, 21, 0, 4178.462, 4171.282, 4105.128, 4132.308, 4140, 0, 0, []
1628362758.6061, 22, 0, 4157.949, 4163.59, 4084.615, 4117.949, 4104.103, 0, 0, []
1628362758.6139, 23, 0, 4151.282, 4150.769, 4083.077, 4108.718, 4090.769, 0, 0, []
1628362758.6217, 24, 0, 4164.615, 4156.41, 4097.436, 4113.846, 4116.923, 0, 0, []
1628362758.6295, 25, 0, 4162.051, 4169.744, 4090.769, 4119.487, 4118.462, 0, 0, []
1628362758.6374, 26, 0, 4137.949, 4166.667, 4084.615, 4108.205, 4091.795, 0, 0, []
1628362758.6452, 27, 0, 4129.744, 4161.538, 4090.256, 4101.026, 4089.231, 0, 0, []
1628362758.6531, 28, 0, 4135.385, 4164.615, 4089.231, 4109.231, 4100.513, 0, 0, []
1628362758.6608, 29, 0, 4135.385, 4155.897, 4082.051, 4106.154, 4100, 0, 0, []
1628362758.6687, 30, 0, 4141.026, 4148.205, 4088.205, 4105.641, 4113.333, 0, 0, []
1628362758.6765, 31, 0, 4152.308, 4159.487, 4093.846, 4124.615, 4129.231, 0, 0, []
1628362758.6844, 32, 0, 4157.436, 4169.744, 4088.205, 4124.615, 4118.974, 0, 0, []
1628362758.6922, 33, 0, 4155.385, 4172.821, 4097.949, 4109.744, 4111.795, 0, 0, []
1628362758.6999, 34, 0, 4152.308, 4173.846, 4101.026, 4111.795, 4115.385, 0, 0, []
1628362758.7078, 35, 0, 4149.744, 4168.205, 4088.718, 4114.359, 4106.154, 0, 0, []
1628362758.7156, 36, 0, 4144.103, 4169.231, 4096.923, 4107.179, 4093.333, 0, 0, []
1628362758.7235, 37, 0, 4137.949, 4182.564, 4100.513, 4106.154, 4097.436, 0, 0, []
1628362758.7313, 38, 0, 4138.974, 4185.641, 4083.59, 4109.231, 4098.462, 0, 0, []
1628362758.7391, 39, 0, 4149.744, 4182.051, 4085.128, 4111.795, 4096.41, 0, 0, []
1628362758.7469, 40, 0, 4161.026, 4185.128, 4111.282, 4120, 4115.897, 0, 0, []
1628362758.7548, 41, 0, 4169.231, 4186.154, 4128.718, 4138.462, 4143.077, 0, 0, []
1628362758.7626, 42, 0, 4174.359, 4184.103, 4112.308, 4137.436, 4144.103, 0, 0, []
1628362758.7705, 43, 0, 4170.256, 4184.615, 4093.333, 4115.897, 4128.205, 0, 0, []
1628362758.7783, 44, 0, 4161.538, 4184.103, 4092.821, 4112.821, 4124.615, 0, 0, []
1628362758.7861, 45, 0, 4150.769, 4182.564, 4082.564, 4122.564, 4121.026, 0, 0, []
1628362758.7939, 46, 0, 4136.923, 4188.205, 4071.282, 4113.846, 4111.795, 0, 0, []
1628362758.8018, 47, 0, 4131.795, 4183.077, 4070.769, 4098.462, 4115.385, 0, 0, []
1628362758.8096, 48, 0, 4146.667, 4170.256, 4076.41, 4104.615, 4124.103, 0, 0, []
1628362758.8175, 49, 0, 4156.41, 4169.231, 4074.872, 4113.846, 4123.59, 0, 0, []
1628362758.8252, 50, 0, 4136.923, 4159.487, 4058.974, 4094.872, 4113.333, 0, 0, []
1628362758.8331, 51, 0, 4127.179, 4156.41, 4066.154, 4092.308, 4114.872, 0, 0, []
1628362758.8409, 52, 0, 4142.564, 4169.744, 4091.282, 4118.974, 4125.128, 0, 0, []
1628362758.8488, 53, 0, 4137.436, 4160, 4088.718, 4107.692, 4115.385, 0, 0, []
1628362758.8566, 54, 0, 4122.564, 4143.59, 4066.667, 4082.564, 4103.59, 0, 0, []
1628362758.8643, 55, 0, 4138.462, 4161.538, 4065.128, 4105.128, 4120.513, 0, 0, []
1628362758.8722, 56, 0, 4149.231, 4178.974, 4084.615, 4122.051, 4133.333, 0, 0, []
1628362758.88, 57, 0, 4136.41, 4167.692, 4095.897, 4109.231, 4122.564, 0, 0, []
1628362758.8879, 58, 0, 4135.385, 4166.667, 4098.462, 4115.385, 4121.026, 0, 0, []
1628362758.8957, 59, 0, 4137.949, 4175.897, 4088.718, 4119.487, 4124.615, 0, 0, []
1628362758.9035, 60, 0, 4128.205, 4166.154, 4073.333, 4098.974, 4119.487, 0, 0, []
1628362758.9113, 61, 0, 4127.692, 4159.487, 4069.744, 4099.487, 4116.923, 0, 0, []
1628362758.9192, 62, 0, 4138.462, 4168.718, 4068.718, 4104.615, 4120, 0, 0, []
1628362758.927, 63, 0, 4137.949, 4165.641, 4073.846, 4093.846, 4124.615, 0, 0, []
1628362758.9349, 64, 0, 4131.282, 4155.385, 4078.462, 4095.897, 4123.077, 450, 0, []
1628362758.9426, 65, 0, 4138.462, 4165.641, 4076.923, 4101.538, 4123.59, 450, 0, []
1628362758.9505, 66, 0, 4141.026, 4176.923, 4088.205, 4097.436, 4132.821, 16185, 0, []
1628362758.9583, 67, 0, 4134.872, 4165.128, 4087.179, 4091.282, 4131.795, 450, 0, []
1628362758.9662, 68, 0, 4144.615, 4163.077, 4075.385, 4090.769, 4124.615, 16165, 0, []
1628362758.974, 69, 0, 4156.41, 4178.974, 4080.513, 4099.487, 4132.821, 450, 0, []
1628362758.9818, 70, 0, 4154.872, 4183.077, 4077.949, 4108.718, 4143.59, 16117, 0, []
1628362758.9896, 71, 0, 4158.462, 4181.538, 4076.923, 4112.821, 4142.051, 450, 0, []
1628362758.9974, 72, 0, 4163.59, 4191.795, 4094.359, 4108.718, 4142.051, 450, 0, []
1628362759.0052, 73, 0, 4156.41, 4195.897, 4103.077, 4106.154, 4146.667, 16174, 0, []
1628362759.0131, 74, 0, 4151.282, 4186.667, 4098.974, 4111.282, 4141.026, 450, 0, []
1628362759.0208, 75, 0, 4152.821, 4187.179, 4098.462, 4113.846, 4135.385, 16202, 0, []
1628362759.0287, 76, 0, 4153.333, 4193.333, 4107.179, 4114.359, 4145.641, 450, 0, []
1628362759.0365, 77, 0, 4146.154, 4183.077, 4100.513, 4108.718, 4144.615, 450, 0, []
1628362759.0444, 78, 0, 4126.667, 4170.769, 4081.538, 4088.205, 4113.846, 450, 0, []
1628362759.0522, 79, 0, 4111.282, 4172.308, 4073.333, 4072.821, 4095.897, 16202, 0, []
1628362759.06, 80, 0, 4126.667, 4174.359, 4069.231, 4081.026, 4126.154, 450, 0, []
1628362759.0678, 81, 0, 4156.41, 4170.769, 4076.923, 4094.872, 4165.641, 450, 0, []
1628362759.0757, 82, 0, 4169.231, 4170.256, 4088.718, 4097.436, 4185.128, 450, 0, []
1628362759.0835, 83, 0, 4171.795, 4168.205, 4085.641, 4096.41, 4194.359, 16202, 0, []
1628362759.0914, 84, 0, 4169.231, 4160.513, 4082.564, 4094.872, 4186.154, 450, 0, []
1628362759.0992, 85, 0, 4156.923, 4157.436, 4076.41, 4089.744, 4169.231, 450, 0, []
1628362759.107, 86, 0, 4145.641, 4162.564, 4067.179, 4088.205, 4166.667, 450, 0, []
1628362759.1148, 87, 0, 4149.744, 4177.436, 4070.769, 4095.385, 4174.872, 16202, 0, []
1628362759.1227, 88, 0, 4164.103, 4185.128, 4085.128, 4103.59, 4184.615, 450, 0, []
1628362759.1305, 89, 0, 4167.692, 4179.487, 4097.949, 4104.615, 4194.872, 450, 0, []
1628362759.1384, 90, 0, 4167.692, 4181.026, 4098.974, 4106.667, 4203.59, 450, 0, []
1628362759.1461, 91, 0, 4172.821, 4190.769, 4100.513, 4112.821, 4203.59, 16202, 0, []
1628362759.154, 92, 0, 4165.641, 4187.179, 4101.538, 4106.154, 4190.769, 450, 0, []
1628362759.1618, 93, 0, 4151.795, 4178.462, 4092.821, 4095.385, 4181.538, 450, 0, []
1628362759.1696, 94, 0, 4160, 4183.59, 4096.41, 4112.821, 4190.769, 450, 0, []
1628362759.1775, 95, 0, 4176.923, 4189.231, 4105.128, 4126.667, 4197.949, 16202, 0, []
1628362759.1852, 96, 0, 4172.308, 4185.128, 4097.949, 4107.179, 4194.359, 450, 0, []
1628362759.1931, 97, 0, 4161.538, 4182.051, 4088.718, 4101.538, 4195.897, 450, 0, []
1628362759.2009, 98, 0, 4168.205, 4189.231, 4087.179, 4123.077, 4202.051, 450, 0, []
1628362759.2088, 99, 0, 4183.077, 4201.538, 4095.385, 4130.769, 4211.282, 16202, 0, []
1628362759.2166, 100, 0, 4181.538, 4204.615, 4094.359, 4123.59, 4215.385, 450, 0, []
1628362759.2244, 101, 0, 4171.282, 4189.231, 4086.667, 4121.026, 4206.667, 450, 0, []
1628362759.2322, 102, 0, 4175.385, 4181.026, 4094.872, 4118.462, 4197.436, 450, 0, []
1628362759.2401, 103, 0, 4177.436, 4193.846, 4107.692, 4116.41, 4200.513, 16202, 0, []
1628362759.2479, 104, 0, 4177.436, 4200, 4113.333, 4124.103, 4212.308, 450, 0, []
1628362759.2558, 105, 0, 4187.692, 4195.897, 4107.692, 4136.923, 4217.949, 450, 0, []
1628362759.2635, 106, 0, 4176.41, 4196.923, 4104.615, 4135.897, 4200.513, 450, 0, []
1628362759.2714, 107, 0, 4143.077, 4203.077, 4111.795, 4123.077, 4177.436, 16202, 0, []
1628362759.2792, 108, 0, 4146.154, 4207.179, 4115.385, 4121.026, 4181.026, 450, 0, []
1628362759.2871, 109, 0, 4169.231, 4211.795, 4111.795, 4121.538, 4185.128, 450, 0, []
1628362759.2949, 110, 0, 4169.231, 4218.462, 4108.718, 4115.897, 4186.667, 450, 0, []
1628362759.3026, 111, 0, 4172.821, 4225.128, 4109.231, 4115.897, 4202.564, 16202, 0, []
1628362759.3105, 112, 0, 4174.872, 4238.974, 4098.462, 4115.897, 4194.359, 450, 0, []
1628362759.3183, 113, 0, 4158.974, 4244.615, 4075.897, 4110.256, 4168.718, 450, 0, []
1628362759.3262, 114, 0, 4145.128, 4234.872, 4069.744, 4105.128, 4165.128, 450, 0, []
1628362759.334, 115, 0, 4144.615, 4236.923, 4077.949, 4095.385, 4163.59, 16202, 0, []
1628362759.3418, 116, 0, 4156.923, 4255.897, 4089.744, 4093.333, 4167.692, 450, 0, []
1628362759.3496, 117, 0, 4169.231, 4261.538, 4112.308, 4118.974, 4196.923, 450, 0, []
1628362759.3575, 118, 0, 4171.795, 4247.179, 4125.641, 4133.846, 4206.667, 450, 0, []
1628362759.3653, 119, 0, 4168.718, 4242.564, 4124.103, 4121.026, 4189.231, 16202, 0, []
1628362759.3732, 120, 0, 4161.538, 4258.462, 4127.692, 4119.487, 4192.821, 450, 0, []
1628362759.3809, 121, 0, 4161.538, 4266.667, 4125.128, 4136.41, 4207.179, 450, 0, []
1628362759.3888, 122, 0, 4181.026, 4265.641, 4112.821, 4144.615, 4204.615, 450, 0, []
1628362759.3966, 123, 0, 4180.513, 4256.923, 4112.308, 4135.897, 4201.026, 16202, 0, []
1628362759.4045, 124, 0, 4157.949, 4248.718, 4129.744, 4140.513, 4203.077, 450, 0, []
1628362759.4123, 125, 0, 4168.718, 4252.821, 4131.795, 4151.282, 4201.026, 450, 0, []
1628362759.4202, 126, 0, 4193.333, 4255.385, 4115.897, 4135.897, 4195.897, 450, 0, []
1628362759.428, 127, 0, 4177.436, 4250.256, 4112.308, 4115.385, 4180.513, 16202, 0, []
1628362759.4358, 128, 0, 4155.897, 4246.667, 4103.59, 4115.385, 4151.795, 450, 0, []
1628362759.4436, 0, 0, 4168.718, 4253.846, 4092.308, 4123.077, 4138.974, 450, 0, []
1628362759.4515, 1, 0, 4178.974, 4254.359, 4105.641, 4127.179, 4153.333, 450, 0, []
1628362759.4593, 2, 0, 4178.462, 4240, 4125.641, 4139.487, 4177.949, 16186, 0, []
1628362759.4672, 3, 0, 4185.641, 4232.821, 4131.795, 4147.692, 4189.231, 450, 0, []
1628362759.4751, 4, 0, 4181.026, 4229.231, 4121.538, 4129.231, 4178.974, 16165, 0, []
1628362759.4831, 5, 0, 4155.897, 4225.641, 4104.615, 4104.615, 4167.692, 450, 0, []
1628362759.491, 6, 0, 4149.744, 4235.897, 4097.436, 4111.282, 4168.718, 16117, 0, []
1628362759.4988, 7, 0, 4169.231, 4251.282, 4097.949, 4124.615, 4164.103, 450, 0, []
1628362759.5066, 8, 0, 4170.256, 4244.103, 4098.462, 4112.308, 4155.897, 450, 0, []
1628362759.5144, 9, 0, 4161.026, 4219.487, 4102.564, 4108.205, 4164.103, 16174, 0, []
1628362759.5223, 10, 0, 4169.744, 4202.051, 4112.821, 4121.538, 4174.359, 450, 0, []
1628362759.5301, 11, 0, 4169.744, 4189.744, 4121.026, 4117.949, 4176.41, 16202, 0, []
1628362759.538, 12, 0, 4157.949, 4187.179, 4112.308, 4102.051, 4179.487, 450, 0, []
1628362759.5457, 13, 0, 4159.487, 4203.59, 4102.051, 4106.667, 4177.436, 450, 0, []
1628362759.5536, 14, 0, 4164.615, 4233.333, 4099.487, 4120, 4166.667, 450, 0, []
1628362759.5614, 15, 0, 4166.154, 4258.462, 4094.872, 4123.077, 4169.231, 16202, 0, []
1628362759.5693, 16, 0, 4171.282, 4253.333, 4089.744, 4122.051, 4174.359, 0, 0, []
1628362759.5771, 17, 0, 4185.128, 4245.641, 4089.231, 4132.821, 4182.564, 0, 0, []
1628362759.5849, 18, 0, 4197.949, 4256.41, 4101.026, 4143.59, 4201.026, 0, 0, []
1628362759.5927, 19, 0, 4191.795, 4249.231, 4109.744, 4131.282, 4201.026, 0, 0, []
1628362759.6007, 20, 0, 4186.667, 4230.256, 4111.282, 4118.462, 4189.231, 0, 0, []
1628362759.6086, 21, 0, 4197.436, 4243.59, 4122.051, 4127.692, 4193.333, 0, 0, []
1628362759.6166, 22, 0, 4207.179, 4268.205, 4130.769, 4129.231, 4207.179, 0, 0, []
1628362759.6244, 23, 0, 4212.308, 4265.641, 4131.282, 4118.462, 4214.872, 0, 0, []
1628362759.6322, 24, 0, 4214.359, 4248.205, 4134.359, 4128.718, 4213.333, 0, 0, []
1628362759.6401, 25, 0, 4210.769, 4232.821, 4128.205, 4141.538, 4207.692, 0, 0, []
1628362759.6479, 26, 0, 4207.179, 4230.769, 4124.103, 4133.333, 4202.051, 0, 0, []
1628362759.6558, 27, 0, 4207.179, 4235.385, 4133.333, 4132.308, 4205.641, 0, 0, []
1628362759.6635, 28, 0, 4207.179, 4236.41, 4140.513, 4151.282, 4210.769, 0, 0, []
1628362759.6714, 29, 0, 4194.359, 4241.538, 4132.308, 4153.846, 4188.718, 0, 0, []
1628362759.6792, 30, 0, 4158.974, 4235.897, 4118.462, 4121.538, 4145.641, 0, 0, []
1628362759.6871, 31, 0, 4130.256, 4230.769, 4118.462, 4108.205, 4132.308, 0, 0, []
1628362759.6949, 32, 0, 4133.846, 4242.051, 4121.026, 4125.128, 4144.615, 0, 0, []
1628362759.7028, 33, 0, 4141.538, 4246.667, 4120.513, 4132.821, 4147.692, 0, 0, []
1628362759.7107, 34, 0, 4135.897, 4232.821, 4114.872, 4131.795, 4148.205, 0, 0, []
1628362759.7186, 35, 0, 4144.615, 4226.667, 4109.231, 4133.333, 4154.359, 0, 0, []
1628362759.7264, 36, 0, 4157.436, 4234.872, 4120, 4127.692, 4158.462, 0, 0, []
1628362759.7343, 37, 0, 4149.231, 4235.897, 4129.744, 4123.59, 4168.205, 0, 0, []
1628362759.7421, 38, 0, 4141.538, 4228.718, 4132.821, 4135.897, 4173.333, 0, 0, []
1628362759.7499, 39, 0, 4158.974, 4230.769, 4142.564, 4142.051, 4169.744, 0, 0, []
1628362759.7577, 40, 0, 4178.974, 4242.051, 4146.667, 4135.897, 4185.128, 0, 0, []
1628362759.7656, 41, 0, 4168.205, 4238.462, 4133.846, 4134.359, 4191.282, 0, 0, []
1628362759.7734, 42, 0, 4150.256, 4227.179, 4112.308, 4128.205, 4163.59, 0, 0, []
1628362759.7814, 43, 0, 4149.231, 4229.744, 4104.615, 4118.462, 4147.692, 0, 0, []
1628362759.7892, 44, 0, 4153.846, 4238.974, 4110.256, 4123.59, 4165.128, 0, 0, []
1628362759.7972, 45, 0, 4154.359, 4232.821, 4108.718, 4137.949, 4176.41, 0, 0, []
1628362759.8051, 46, 0, 4152.308, 4225.641, 4106.154, 4141.026, 4163.077, 0, 0, []
1628362759.8129, 47, 0, 4155.897, 4236.41, 4112.308, 4134.872, 4164.103, 0, 0, []
1628362759.8208, 48, 0, 4165.641, 4242.564, 4118.974, 4138.462, 4184.615, 0, 0, []
1628362759.8285, 49, 0, 4170.769, 4234.359, 4121.538, 4149.231, 4187.692, 0, 0, []
1628362759.8364, 50, 0, 4171.282, 4230.256, 4116.41, 4145.128, 4178.974, 0, 0, []
1628362759.8442, 51, 0, 4168.718, 4234.359, 4118.462, 4134.359, 4187.692, 0, 0, []
1628362759.8521, 52, 0, 4162.051, 4232.821, 4119.487, 4135.385, 4198.974, 0, 0, []
1628362759.8599, 53, 0, 4168.718, 4231.795, 4109.231, 4140, 4201.026, 0, 0, []
1628362759.8677, 54, 0, 4181.026, 4234.359, 4105.641, 4137.436, 4208.205, 0, 0, []
1628362759.8755, 55, 0, 4170.769, 4228.718, 4107.692, 4135.897, 4205.641, 0, 0, []
1628362759.8834, 56, 0, 4159.487, 4228.718, 4102.051, 4137.949, 4190.769, 0, 0, []
1628362759.8912, 57, 0, 4175.385, 4232.821, 4094.359, 4134.359, 4188.718, 0, 0, []
1628362759.8991, 58, 0, 4198.974, 4230.256, 4094.872, 4121.026, 4200.513, 0, 0, []
1628362759.9068, 59, 0, 4202.564, 4233.333, 4092.821, 4112.821, 4209.231, 0, 0, []
1628362759.9147, 60, 0, 4196.923, 4236.923, 4080, 4117.949, 4208.718, 0, 0, []
1628362759.9225, 61, 0, 4196.923, 4230.769, 4078.462, 4121.026, 4200.513, 0, 0, []
1628362759.9305, 62, 0, 4190.256, 4229.231, 4088.718, 4115.385, 4195.385, 0, 0, []
1628362759.9384, 63, 0, 4189.231, 4232.308, 4092.821, 4118.974, 4208.718, 0, 0, []
1628362759.9463, 64, 0, 4205.641, 4232.821, 4095.897, 4140, 4223.077, 450, 0, []
1628362759.9542, 65, 0, 4207.179, 4233.333, 4090.769, 4138.974, 4205.641, 450, 0, []
1628362759.9622, 66, 0, 4186.154, 4225.641, 4083.59, 4110.769, 4188.205, 16186, 0, []
1628362759.9701, 67, 0, 4184.103, 4218.462, 4092.821, 4113.333, 4204.103, 450, 0, []
1628362759.978, 68, 0, 4200, 4229.744, 4103.59, 4137.949, 4218.974, 16165, 0, []
1628362759.9858, 69, 0, 4190.769, 4237.949, 4098.974, 4129.231, 4205.641, 450, 0, []
1628362759.9936, 70, 0, 4167.179, 4219.487, 4084.615, 4101.026, 4189.231, 16116, 0, []
1628362760.0015, 71, 0, 4165.128, 4208.718, 4082.564, 4095.385, 4184.103, 450, 0, []
1628362760.0093, 72, 0, 4177.436, 4223.59, 4096.41, 4103.59, 4188.205, 450, 0, []
1628362760.0172, 73, 0, 4178.462, 4217.436, 4088.718, 4101.538, 4198.974, 16173, 0, []
1628362760.0249, 74, 0, 4172.821, 4196.41, 4072.821, 4102.564, 4201.538, 450, 0, []
1628362760.0328, 75, 0, 4183.077, 4207.179, 4081.026, 4120.513, 4198.462, 16202, 0, []
1628362760.0406, 76, 0, 4193.333, 4223.077, 4096.41, 4126.667, 4204.615, 450, 0, []
1628362760.0485, 77, 0, 4183.077, 4205.641, 4094.359, 4108.205, 4206.154, 450, 0, []
1628362760.0563, 78, 0, 4182.051, 4198.462, 4087.692, 4101.538, 4204.103, 450, 0, []
1628362760.0642, 79, 0, 4192.308, 4217.949, 4090.256, 4110.769, 4202.051, 16202, 0, []
1628362760.0719, 80, 0, 4182.564, 4218.974, 4082.051, 4101.538, 4198.974, 450, 0, []
1628362760.0798, 81, 0, 4176.923, 4210.769, 4083.077, 4099.487, 4215.897, 450, 0, []
1628362760.0876, 82, 0, 4196.41, 4217.949, 4104.103, 4131.795, 4235.385, 450, 0, []
1628362760.0956, 83, 0, 4204.615, 4220, 4104.103, 4142.564, 4225.641, 16202, 0, []
1628362760.1035, 84, 0, 4189.231, 4210.256, 4087.179, 4115.385, 4211.282, 450, 0, []
1628362760.1114, 85, 0, 4182.564, 4211.282, 4083.59, 4103.59, 4209.744, 450, 0, []
1628362760.1193, 86, 0, 4190.256, 4214.872, 4090.256, 4116.923, 4204.615, 450, 0, []
1628362760.1273, 87, 0, 4187.179, 4209.231, 4097.949, 4120, 4196.923, 16202, 0, []
1628362760.1352, 88, 0, 4176.41, 4201.538, 4097.436, 4106.667, 4196.41, 450, 0, []
1628362760.143, 89, 0, 4172.821, 4196.923, 4087.179, 4096.923, 4191.282, 450, 0, []
1628362760.1508, 90, 0, 4177.949, 4193.846, 4079.487, 4097.949, 4186.667, 450, 0, []
1628362760.1586, 91, 0, 4179.487, 4195.897, 4078.462, 4092.821, 4182.051, 16202, 0, []
1628362760.1665, 92, 0, 4170.256, 4197.436, 4081.026, 4073.333, 4173.846, 450, 0, []
1628362760.1743, 93, 0, 4170.769, 4187.692, 4079.487, 4069.744, 4178.974, 450, 0, []
1628362760.1822, 94, 0, 4172.821, 4181.026, 4078.462, 4098.974, 4188.205, 450, 0, []
1628362760.1899, 95, 0, 4157.436, 4185.128, 4078.974, 4114.872, 4181.026, 16202, 0, []
1628362760.1978, 96, 0, 4151.795, 4187.179, 4075.897, 4098.974, 4182.564, 450, 0, []
1628362760.2056, 97, 0, 4156.41, 4185.128, 4081.026, 4092.821, 4196.41, 450, 0, []
1628362760.2135, 98, 0, 4144.103, 4178.974, 4084.103, 4089.231, 4182.564, 450, 0, []
1628362760.2213, 99, 0, 4134.359, 4178.974, 4080.513, 4066.667, 4162.564, 16202, 0, []
1628362760.2291, 100, 0, 4144.615, 4187.692, 4078.462, 4069.231, 4166.667, 450, 0, []
1628362760.2369, 101, 0, 4145.128, 4184.615, 4069.744, 4101.538, 4163.077, 450, 0, []
1628362760.2449, 102, 0, 4132.308, 4171.795, 4064.103, 4116.923, 4152.821, 450, 0, []
1628362760.2528, 103, 0, 4137.949, 4172.821, 4072.308, 4117.436, 4171.795, 16202, 0, []
1628362760.2608, 104, 0, 4154.359, 4177.949, 4085.128, 4126.667, 4195.385, 450, 0, []
1628362760.2686, 105, 0, 4155.385, 4171.795, 4089.744, 4122.051, 4185.128, 450, 0, []
1628362760.2766, 106, 0, 4150.769, 4177.949, 4097.949, 4089.231, 4181.538, 450, 0, []
1628362760.2845, 107, 0, 4154.872, 4197.949, 4114.359, 4073.846, 4197.949, 16202, 0, []
1628362760.2923, 108, 0, 4153.846, 4192.821, 4104.103, 4091.795, 4190.256, 450, 0, []
1628362760.3002, 109, 0, 4139.487, 4170.769, 4076.41, 4106.667, 4167.179, 450, 0, []
1628362760.3079, 110, 0, 4126.154, 4170.769, 4073.333, 4112.821, 4166.154, 450, 0, []
1628362760.3158, 111, 0, 4129.231, 4164.103, 4081.538, 4124.103, 4177.436, 16202, 0, []
1628362760.3236, 112, 0, 4141.538, 4143.59, 4077.436, 4126.154, 4174.872, 450, 0, []
1628362760.3315, 113, 0, 4156.41, 4153.333, 4083.077, 4112.821, 4176.923, 450, 0, []
1628362760.3393, 114, 0, 4176.41, 4183.59, 4103.077, 4104.615, 4197.949, 450, 0, []
1628362760.3471, 115, 0, 4182.564, 4193.846, 4100, 4098.974, 4201.538, 16202, 0, []
1628362760.3549, 116, 0, 4162.564, 4188.205, 4069.231, 4091.795, 4176.923, 450, 0, []
1628362760.3628, 117, 0, 4134.359, 4183.59, 4049.231, 4089.231, 4152.821, 450, 0, []
1628362760.3706, 118, 0, 4120, 4169.744, 4050.769, 4089.744, 4146.667, 450, 0, []
1628362760.3785, 119, 0, 4132.821, 4163.077, 4076.923, 4107.179, 4156.923, 16202, 0, []
1628362760.3863, 120, 0, 4169.231, 4173.846, 4109.231, 4130.769, 4184.615, 450, 0, []
1628362760.3942, 121, 0, 4205.128, 4162.564, 4105.641, 4129.231, 4216.41, 450, 0, []
1628362760.4021, 122, 0, 4235.897, 4146.667, 4087.179, 4120, 4232.821, 450, 0, []
1628362760.4101, 123, 0, 4267.179, 4178.974, 4085.128, 4127.692, 4236.923, 16202, 0, []
1628362760.418, 124, 0, 4288.718, 4211.795, 4080.513, 4122.051, 4242.051, 450, 0, []
1628362760.4259, 125, 0, 4287.179, 4207.179, 4076.41, 4100.513, 4244.615, 450, 0, []
1628362760.4337, 126, 0, 4285.641, 4208.205, 4088.718, 4092.821, 4248.718, 450, 0, []
1628362760.4415, 127, 0, 4297.436, 4216.923, 4099.487, 4086.154, 4264.615, 16202, 0, []
1628362760.4495, 128, 0, 4299.487, 4215.897, 4095.385, 4071.795, 4273.333, 450, 0, []
1628362760.4574, 0, 0, 4287.692, 4216.923, 4091.282, 4068.718, 4260.513, 450, 0, []
1628362760.4653, 1, 0, 4279.487, 4215.385, 4103.59, 4078.462, 4243.077, 450, 0, []
1628362760.473, 2, 0, 4282.051, 4208.205, 4120.513, 4093.333, 4241.026, 16186, 0, []
1628362760.4809, 3, 0, 4285.128, 4204.103, 4124.103, 4106.154, 4254.872, 450, 0, []
1628362760.4887, 4, 0, 4277.949, 4192.821, 4116.923, 4110.769, 4263.59, 16166, 0, []
1628362760.4966, 5, 0, 4264.103, 4170.769, 4110.256, 4099.487, 4247.692, 450, 0, []
1628362760.5044, 6, 0, 4263.077, 4174.872, 4115.385, 4092.821, 4229.744, 16072, 0, []
1628362760.5122, 7, 0, 4275.897, 4197.949, 4118.462, 4100.513, 4236.41, 450, 0, []
1628362760.52, 8, 0, 4273.846, 4197.949, 4110.769, 4098.462, 4240.513, 450, 0, []
1628362760.5279, 9, 0, 4254.359, 4180.513, 4103.077, 4095.897, 4231.282, 16173, 0, []
1628362760.5357, 10, 0, 4250.769, 4183.59, 4104.615, 4121.026, 4242.564, 450, 0, []
1628362760.5437, 11, 0, 4257.949, 4203.59, 4116.41, 4141.538, 4255.897, 16201, 0, []
1628362760.5515, 12, 0, 4247.692, 4203.077, 4109.231, 4125.128, 4239.487, 450, 0, []
1628362760.5595, 13, 0, 4242.051, 4196.41, 4098.462, 4114.872, 4227.179, 450, 0, []
1628362760.5674, 14, 0, 4250.769, 4201.538, 4118.974, 4129.744, 4240, 450, 0, []
1628362760.5754, 15, 0, 4256.41, 4205.128, 4130.256, 4126.154, 4249.231, 16201, 0, []
1628362760.5833, 16, 0, 4258.462, 4201.026, 4114.872, 4111.282, 4247.692, 0, 0, []
1628362760.5912, 17, 0, 4262.051, 4190.256, 4113.333, 4111.795, 4241.026, 0, 0, []
1628362760.5991, 18, 0, 4258.974, 4182.564, 4130.769, 4115.897, 4238.974, 0, 0, []
1628362760.6071, 19, 0, 4242.051, 4185.128, 4128.718, 4115.897, 4243.077, 0, 0, []
1628362760.615, 20, 0, 4229.744, 4190.769, 4104.103, 4112.821, 4238.974, 0, 0, []
1628362760.623, 21, 0, 4231.282, 4200, 4093.846, 4108.205, 4225.641, 0, 0, []
1628362760.6308, 22, 0, 4245.641, 4206.154, 4095.385, 4110.256, 4229.744, 0, 0, []
1628362760.6386, 23, 0, 4257.949, 4198.974, 4097.436, 4108.718, 4249.744, 0, 0, []
1628362760.6465, 24, 0, 4246.667, 4191.795, 4102.051, 4096.923, 4251.282, 0, 0, []
1628362760.6543, 25, 0, 4232.821, 4182.564, 4100.513, 4090.256, 4249.231, 0, 0, []
1628362760.6622, 26, 0, 4243.077, 4168.718, 4098.462, 4103.59, 4257.436, 0, 0, []
1628362760.6699, 27, 0, 4261.538, 4171.795, 4102.051, 4121.538, 4263.59, 0, 0, []
1628362760.6778, 28, 0, 4257.436, 4181.538, 4104.615, 4123.077, 4269.231, 0, 0, []
1628362760.6856, 29, 0, 4233.333, 4176.41, 4104.615, 4108.205, 4261.538, 0, 0, []
1628362760.6935, 30, 0, 4219.487, 4166.667, 4094.872, 4087.692, 4235.385, 0, 0, []
1628362760.7013, 31, 0, 4229.744, 4169.231, 4090.256, 4084.103, 4230.256, 0, 0, []
1628362760.7092, 32, 0, 4245.128, 4180, 4102.051, 4098.462, 4253.846, 0, 0, []
1628362760.7171, 33, 0, 4241.538, 4181.026, 4108.718, 4100.513, 4259.487, 0, 0, []
1628362760.7251, 34, 0, 4227.692, 4173.333, 4097.436, 4102.564, 4247.692, 0, 0, []
1628362760.733, 35, 0, 4227.692, 4175.385, 4084.615, 4123.59, 4242.051, 0, 0, []
1628362760.741, 36, 0, 4239.487, 4190.256, 4091.795, 4141.026, 4237.949, 0, 0, []
1628362760.7489, 37, 0, 4243.59, 4194.872, 4102.051, 4134.872, 4237.436, 0, 0, []
1628362760.7568, 38, 0, 4237.949, 4175.897, 4092.821, 4112.821, 4243.59, 0, 0, []
1628362760.7647, 39, 0, 4231.795, 4154.359, 4093.333, 4105.641, 4248.205, 0, 0, []
1628362760.7727, 40, 0, 4235.385, 4148.205, 4107.692, 4113.333, 4248.718, 0, 0, []
1628362760.7806, 41, 0, 4245.128, 4153.333, 4110.256, 4117.949, 4243.077, 0, 0, []
1628362760.7884, 42, 0, 4224.103, 4150.769, 4093.846, 4105.128, 4225.128, 0, 0, []
1628362760.7962, 43, 0, 4199.487, 4156.923, 4086.667, 4108.205, 4225.128, 0, 0, []
1628362760.804, 44, 0, 4222.051, 4183.59, 4108.718, 4150.769, 4250.769, 0, 0, []
1628362760.8119, 45, 0, 4244.103, 4188.205, 4111.795, 4163.59, 4253.846, 0, 0, []
1628362760.8197, 46, 0, 4224.615, 4169.744, 4082.564, 4123.59, 4230.769, 0, 0, []
1628362760.8276, 47, 0, 4211.795, 4169.231, 4071.282, 4095.897, 4225.641, 0, 0, []
1628362760.8353, 48, 0, 4222.564, 4176.41, 4088.205, 4090.256, 4232.821, 0, 0, []
1628362760.8432, 49, 0, 4219.487, 4160.513, 4102.051, 4074.872, 4220, 0, 0, []
1628362760.851, 50, 0, 4205.641, 4147.692, 4105.641, 4064.615, 4197.949, 0, 0, []
1628362760.8589, 51, 0, 4193.333, 4156.923, 4108.718, 4073.333, 4192.308, 0, 0, []
1628362760.8667, 52, 0, 4181.026, 4159.487, 4105.128, 4089.744, 4197.949, 0, 0, []
1628362760.8746, 53, 0, 4180.513, 4152.308, 4091.795, 4104.615, 4200, 0, 0, []
1628362760.8825, 54, 0, 4187.179, 4156.923, 4086.667, 4108.718, 4189.744, 0, 0, []
1628362760.8905, 55, 0, 4196.923, 4168.718, 4094.359, 4107.692, 4192.821, 0, 0, []
1628362760.8984, 56, 0, 4193.333, 4175.897, 4095.897, 4106.154, 4206.154, 0, 0, []
1628362760.9064, 57, 0, 4162.051, 4173.333, 4089.744, 4097.436, 4185.641, 0, 0, []
1628362760.9142, 58, 0, 4159.487, 4164.103, 4085.641, 4093.846, 4171.282, 0, 0, []
1628362760.9222, 59, 0, 4204.615, 4165.641, 4097.436, 4117.436, 4224.103, 0, 0, []
1628362760.9301, 60, 0, 4253.333, 4182.051, 4110.769, 4137.436, 4281.538, 0, 0, []
1628362760.9379, 61, 0, 4297.436, 4195.897, 4113.846, 4131.282, 4299.487, 0, 0, []
1628362760.9458, 62, 0, 4344.103, 4201.538, 4121.538, 4133.333, 4325.641, 0, 0, []
1628362760.9535, 63, 0, 4377.949, 4197.436, 4118.462, 4134.872, 4362.051, 0, 0, []
1628362760.9614, 64, 0, 4396.41, 4185.641, 4099.487, 4110.256, 4364.103, 450, 0, []
1628362760.9692, 65, 0, 4410.256, 4187.692, 4097.949, 4088.718, 4348.205, 450, 0, []
1628362760.9771, 66, 0, 4428.205, 4204.103, 4121.026, 4099.487, 4361.538, 16188, 0, []
1628362760.9849, 67, 0, 4428.718, 4204.615, 4138.974, 4118.974, 4381.026, 450, 0, []
1628362760.9927, 68, 0, 4389.744, 4192.308, 4130.769, 4118.462, 4369.231, 16167, 0, []
1628362761.0005, 69, 0, 4366.667, 4200.513, 4117.949, 4111.282, 4363.077, 450, 0, []
1628362761.0084, 70, 0, 4384.615, 4220.513, 4123.077, 4113.846, 4377.949, 16104, 0, []
1628362761.0162, 71, 0, 4378.974, 4215.385, 4133.333, 4116.41, 4369.231, 450, 0, []
1628362761.0242, 72, 0, 4341.538, 4198.462, 4134.872, 4104.103, 4333.846, 450, 0, []
1628362761.032, 73, 0, 4320.513, 4205.128, 4135.897, 4096.923, 4311.795, 16177, 0, []
1628362761.04, 74, 0, 4305.128, 4219.487, 4136.41, 4105.128, 4290.769, 450, 0, []
1628362761.0479, 75, 0, 4281.026, 4215.897, 4136.41, 4113.846, 4269.231, 16198, 0, []
1628362761.0559, 76, 0, 4272.821, 4214.872, 4138.974, 4127.179, 4276.923, 450, 0, []
1628362761.0638, 77, 0, 4265.128, 4211.282, 4129.744, 4135.385, 4274.359, 450, 0, []
1628362761.0717, 78, 0, 4227.692, 4187.179, 4103.59, 4115.897, 4232.308, 450, 0, []
1628362761.0796, 79, 0, 4205.641, 4174.359, 4090.769, 4088.205, 4201.026, 16198, 0, []
1628362761.0875, 80, 0, 4237.949, 4194.359, 4117.436, 4098.974, 4223.077, 450, 0, []
1628362761.0954, 81, 0, 4265.128, 4214.359, 4148.718, 4133.333, 4266.667, 450, 0, []
1628362761.1033, 82, 0, 4246.154, 4209.744, 4144.615, 4137.949, 4262.564, 450, 0, []
1628362761.1112, 83, 0, 4241.026, 4200.513, 4129.744, 4127.692, 4231.282, 16198, 0, []
1628362761.1189, 84, 0, 4262.564, 4202.564, 4129.231, 4129.231, 4237.949, 450, 0, []
1628362761.1268, 85, 0, 4241.026, 4200, 4128.205, 4123.59, 4254.359, 450, 0, []
1628362761.1346, 86, 0, 4196.923, 4179.487, 4118.462, 4110.769, 4231.795, 450, 0, []
1628362761.1425, 87, 0, 4197.436, 4162.564, 4110.769, 4109.231, 4206.667, 16198, 0, []
1628362761.1503, 88, 0, 4227.692, 4171.795, 4106.154, 4107.179, 4209.231, 450, 0, []
1628362761.1582, 89, 0, 4249.744, 4183.59, 4098.974, 4101.026, 4225.128, 450, 0, []
1628362761.1661, 90, 0, 4264.103, 4184.103, 4103.59, 4110.769, 4249.744, 450, 0, []
1628362761.1741, 91, 0, 4275.385, 4189.744, 4115.897, 4129.231, 4272.308, 16198, 0, []
1628362761.182, 92, 0, 4269.744, 4189.231, 4126.667, 4143.077, 4270.256, 450, 0, []
1628362761.19, 93, 0, 4249.231, 4170.256, 4132.821, 4146.667, 4256.923, 450, 0, []
1628362761.1978, 94, 0, 4231.795, 4165.128, 4124.103, 4129.744, 4247.179, 450, 0, []
1628362761.2058, 95, 0, 4213.846, 4169.744, 4120, 4114.359, 4230.769, 16198, 0, []
1628362761.2137, 96, 0, 4200, 4157.436, 4130.256, 4118.974, 4209.744, 450, 0, []
1628362761.2217, 97, 0, 4207.179, 4154.872, 4143.59, 4133.846, 4203.59, 450, 0, []
1628362761.2296, 98, 0, 4219.487, 4164.103, 4152.821, 4133.846, 4206.667, 450, 0, []
1628362761.2373, 99, 0, 4202.051, 4149.744, 4150.769, 4117.949, 4200, 16198, 0, []
1628362761.2452, 100, 0, 4175.385, 4131.795, 4149.231, 4113.333, 4190.256, 450, 0, []
1628362761.2532, 101, 0, 4186.154, 4137.436, 4151.795, 4131.282, 4204.103, 450, 0, []
1628362761.2611, 102, 0, 4197.949, 4141.538, 4154.872, 4144.103, 4214.872, 450, 0, []
1628362761.2689, 103, 0, 4174.872, 4136.41, 4161.538, 4129.744, 4202.051, 16198, 0, []
1628362761.2767, 104, 0, 4165.641, 4141.026, 4168.205, 4121.538, 4204.615, 450, 0, []
1628362761.2845, 105, 0, 4176.923, 4141.026, 4169.231, 4132.821, 4216.923, 450, 0, []
1628362761.2924, 106, 0, 4162.564, 4117.436, 4142.051, 4118.462, 4201.538, 450, 0, []
1628362761.3002, 107, 0, 4147.179, 4104.103, 4115.385, 4096.41, 4191.795, 16198, 0, []
1628362761.3081, 108, 0, 4169.744, 4111.795, 4136.923, 4118.974, 4211.282, 450, 0, []
1628362761.3158, 109, 0, 4194.359, 4112.308, 4155.897, 4148.205, 4224.615, 450, 0, []
1628362761.3238, 110, 0, 4189.231, 4107.179, 4140.513, 4135.897, 4220.513, 450, 0, []
1628362761.3317, 111, 0, 4172.308, 4106.154, 4130.769, 4113.846, 4214.872, 16198, 0, []
1628362761.3397, 112, 0, 4153.333, 4098.462, 4129.231, 4102.564, 4195.897, 450, 0, []
1628362761.3476, 113, 0, 4126.667, 4078.462, 4112.308, 4080, 4160.513, 450, 0, []
1628362761.3555, 114, 0, 4106.154, 4051.282, 4082.051, 4058.462, 4141.026, 450, 0, []
1628362761.3634, 115, 0, 4100.513, 4037.949, 4075.385, 4059.487, 4140, 16198, 0, []
1628362761.3714, 116, 0, 4085.128, 4035.897, 4078.462, 4057.436, 4117.436, 450, 0, []
1628362761.3793, 117, 0, 4072.308, 4027.179, 4065.641, 4049.231, 4101.538, 450, 0, []
1628362761.3873, 118, 0, 4098.974, 4022.564, 4064.103, 4067.692, 4134.359, 450, 0, []
1628362761.3951, 119, 0, 4123.077, 4027.179, 4071.795, 4081.538, 4158.974, 16198, 0, []
1628362761.4029, 120, 0, 4106.154, 4032.821, 4074.359, 4068.718, 4145.641, 450, 0, []
1628362761.4108, 121, 0, 4100.513, 4043.59, 4080.513, 4073.333, 4152.308, 450, 0, []
1628362761.4187, 122, 0, 4119.487, 4048.718, 4085.641, 4088.718, 4177.436, 450, 0, []
1628362761.4266, 123, 0, 4114.359, 4037.436, 4089.231, 4085.641, 4172.821, 16198, 0, []
1628362761.4344, 124, 0, 4102.051, 4027.179, 4087.179, 4071.282, 4157.436, 450, 0, []
1628362761.4423, 125, 0, 4105.641, 4021.026, 4081.026, 4061.026, 4157.949, 450, 0, []
1628362761.4502, 126, 0, 4104.615, 4007.692, 4072.308, 4058.462, 4163.077, 450, 0, []
1628362761.4582, 127, 0, 4118.462, 4010.769, 4073.333, 4069.231, 4178.974, 16198, 0, []
1628362761.466, 128, 0, 4151.795, 4031.282, 4085.128, 4074.872, 4198.462, 450, 0, []
1628362761.4739, 0, 0, 4165.641, 4025.641, 4074.359, 4056.41, 4209.231, 450, 0, []
1628362761.4816, 1, 0, 4171.282, 4006.154, 4059.487, 4050.256, 4225.128, 450, 0, []
1628362761.4896, 2, 0, 4198.974, 4013.846, 4063.077, 4061.538, 4245.128, 16187, 0, []
1628362761.4975, 3, 0, 4236.41, 4033.333, 4059.487, 4060.513, 4272.308, 450, 0, []
1628362761.5055, 4, 0, 4278.974, 4023.59, 4051.282, 4052.821, 4325.641, 16167, 0, []
1628362761.5134, 5, 0, 4344.103, 4008.718, 4052.308, 4048.718, 4402.564, 450, 0, []
1628362761.5213, 6, 0, 4412.308, 4014.359, 4057.436, 4046.667, 4462.564, 16112, 0, []
1628362761.5292, 7, 0, 4438.974, 4010.769, 4049.744, 4035.897, 4481.538, 450, 0, []
1628362761.5372, 8, 0, 4448.718, 3998.462, 4031.795, 4022.564, 4495.897, 450, 0, []
1628362761.5451, 9, 0, 4475.385, 4009.231, 4036.41, 4028.718, 4527.179, 16177, 0, []
1628362761.5529, 10, 0, 4479.487, 4024.615, 4051.282, 4053.333, 4534.359, 450, 0, []
1628362761.5607, 11, 0, 4429.231, 4020, 4049.744, 4065.641, 4486.667, 16198, 0, []
1628362761.5685, 12, 0, 4355.385, 4014.359, 4042.564, 4054.872, 4418.462, 450, 0, []
1628362761.5764, 13, 0, 4283.077, 4009.231, 4038.462, 4048.718, 4363.59, 450, 0, []
1628362761.5842, 14, 0, 4196.41, 3990.256, 4038.974, 4050.769, 4290.256, 450, 0, []
1628362761.5921, 15, 0, 4116.923, 3992.308, 4035.385, 4047.179, 4198.974, 16198, 0, []
