Timestamp, COUNTER, INTERPOLATED, AF3, T7, Pz, T8, AF4, RAW_CQ, MARKER_HARDWARE, MARKERS
1629740529.4495, 80, 0, 4195.385, 4287.692, 4121.026, 4148.718, 4180, 450, 0, []
1629740529.4574, 81, 0, 4186.154, 4281.538, 4107.692, 4137.949, 4163.59, 450, 0, []
1629740529.4651, 82, 0, 4197.949, 4283.59, 4096.41, 4139.487, 4164.103, 450, 0, []
1629740529.473, 83, 0, 4218.462, 4304.615, 4111.795, 4157.949, 4180, 16203, 0, []
1629740529.4808, 84, 0, 4216.41, 4295.897, 4137.949, 4158.462, 4185.128, 450, 0, []
1629740529.4887, 85, 0, 4206.154, 4282.051, 4116.923, 4147.179, 4184.615, 450, 0, []
1629740529.4965, 86, 0, 4211.795, 4307.692, 4134.359, 4153.333, 4183.59, 450, 0, []
1629740529.5043, 87, 0, 4218.974, 4324.615, 4129.231, 4157.436, 4175.385, 16203, 0, []
1629740529.5122, 88, 0, 4214.872, 4294.872, 4108.205, 4150.769, 4175.897, 450, 0, []
1629740529.5201, 89, 0, 4202.564, 4275.385, 4117.949, 4147.692, 4178.462, 450, 0, []
1629740529.528, 90, 0, 4201.026, 4294.872, 4093.333, 4150.256, 4179.487, 450, 0, []
1629740529.5358, 91, 0, 4222.051, 4301.538, 4112.821, 4163.077, 4188.718, 16203, 0, []
1629740529.5438, 92, 0, 4236.923, 4302.564, 4128.205, 4168.718, 4190.769, 450, 0, []
1629740529.5516, 93, 0, 4232.821, 4321.538, 4111.282, 4158.974, 4190.769, 450, 0, []
1629740529.5595, 94, 0, 4228.205, 4321.026, 4129.744, 4156.923, 4204.103, 450, 0, []
1629740529.5675, 95, 0, 4223.077, 4294.359, 4114.872, 4155.897, 4204.615, 16203, 0, []
1629740529.5754, 96, 0, 4210.769, 4282.051, 4104.103, 4143.59, 4174.872, 450, 0, []
1629740529.5832, 97, 0, 4210.769, 4296.923, 4097.949, 4141.538, 4161.026, 450, 0, []
1629740529.591, 98, 0, 4222.564, 4305.128, 4087.692, 4150.256, 4172.308, 450, 0, []
1629740529.5988, 99, 0, 4224.615, 4292.821, 4115.897, 4150.256, 4182.564, 16203, 0, []
1629740529.6067, 100, 0, 4223.59, 4276.41, 4113.846, 4153.333, 4192.821, 450, 0, []
1629740529.6145, 101, 0, 4220.513, 4268.205, 4113.333, 4157.949, 4184.103, 450, 0, []
1629740529.6224, 102, 0, 4219.487, 4274.872, 4110.256, 4152.308, 4161.538, 450, 0, []
1629740529.6301, 103, 0, 4224.615, 4295.385, 4101.538, 4153.846, 4162.051, 16203, 0, []
1629740529.638, 104, 0, 4219.487, 4289.744, 4123.077, 4150.256, 4168.205, 450, 0, []
1629740529.6458, 105, 0, 4214.872, 4259.487, 4104.103, 4137.436, 4169.231, 450, 0, []
1629740529.6537, 106, 0, 4223.59, 4237.949, 4109.744, 4148.205, 4175.385, 450, 0, []
1629740529.6615, 107, 0, 4229.231, 4253.846, 4128.205, 4171.795, 4177.949, 16203, 0, []
1629740529.6694, 108, 0, 4224.103, 4273.333, 4109.231, 4172.308, 4176.41, 450, 0, []
1629740529.6773, 109, 0, 4212.308, 4266.154, 4130.769, 4156.41, 4174.359, 450, 0, []
1629740529.6853, 110, 0, 4207.692, 4258.974, 4124.103, 4150.769, 4172.821, 450, 0, []
1629740529.6932, 111, 0, 4218.462, 4248.205, 4107.692, 4155.897, 4173.333, 16203, 0, []
1629740529.7012, 112, 0, 4231.795, 4245.128, 4118.974, 4156.923, 4177.436, 450, 0, []
1629740529.709, 113, 0, 4234.872, 4263.59, 4113.333, 4152.821, 4182.051, 450, 0, []
1629740529.717, 114, 0, 4228.205, 4257.949, 4125.128, 4153.846, 4177.949, 450, 0, []
1629740529.7249, 115, 0, 4224.103, 4217.436, 4106.154, 4157.436, 4176.41, 16203, 0, []
1629740529.7329, 116, 0, 4222.051, 4215.385, 4101.538, 4155.897, 4183.077, 450, 0, []
1629740529.7408, 117, 0, 4216.923, 4246.154, 4127.179, 4154.359, 4180.513, 450, 0, []
1629740529.7485, 118, 0, 4212.821, 4227.179, 4111.282, 4154.359, 4166.667, 450, 0, []
1629740529.7564, 119, 0, 4214.872, 4203.077, 4127.692, 4155.897, 4173.333, 16203, 0, []
1629740529.7642, 120, 0, 4216.923, 4216.41, 4121.026, 4155.385, 4188.205, 450, 0, []
1629740529.7721, 121, 0, 4209.744, 4226.154, 4104.615, 4153.846, 4175.385, 450, 0, []
1629740529.7799, 122, 0, 4213.333, 4225.641, 4131.795, 4157.436, 4165.641, 450, 0, []
1629740529.7877, 123, 0, 4224.615, 4227.692, 4112.308, 4153.846, 4173.333, 16203, 0, []
1629740529.7955, 124, 0, 4211.795, 4208.718, 4107.179, 4143.077, 4165.641, 450, 0, []
1629740529.8034, 125, 0, 4198.462, 4171.795, 4106.154, 4140.513, 4152.308, 450, 0, []
1629740529.8112, 126, 0, 4203.59, 4138.462, 4097.949, 4145.641, 4160.513, 450, 0, []
1629740529.8192, 127, 0, 4203.59, 4113.333, 4112.308, 4144.103, 4163.077, 16203, 0, []
1629740529.827, 128, 0, 4196.923, 4114.359, 4088.718, 4133.846, 4151.795, 450, 0, []
1629740529.835, 0, 0, 4201.026, 4148.205, 4098.974, 4132.821, 4157.949, 450, 0, []
1629740529.8429, 1, 0, 4206.154, 4177.436, 4109.744, 4135.897, 4167.179, 450, 0, []
1629740529.8509, 2, 0, 4206.154, 4159.487, 4097.436, 4136.923, 4162.564, 16190, 0, []
1629740529.8588, 3, 0, 4209.231, 4127.179, 4120, 4145.641, 4166.154, 450, 0, []
1629740529.8667, 4, 0, 4208.718, 4129.231, 4103.59, 4155.385, 4179.487, 16118, 0, []
1629740529.8746, 5, 0, 4202.564, 4135.897, 4102.564, 4156.41, 4176.923, 450, 0, []
1629740529.8826, 6, 0, 4205.641, 4138.974, 4117.949, 4153.333, 4169.231, 16102, 0, []
1629740529.8905, 7, 0, 4220, 4166.154, 4115.897, 4152.821, 4178.462, 450, 0, []
1629740529.8984, 8, 0, 4226.154, 4174.872, 4140, 4145.641, 4190.769, 450, 0, []
1629740529.9063, 9, 0, 4221.538, 4161.538, 4120.513, 4132.308, 4191.795, 16174, 0, []
1629740529.914, 10, 0, 4221.026, 4178.974, 4115.897, 4138.462, 4186.154, 450, 0, []
1629740529.9219, 11, 0, 4219.487, 4194.872, 4132.308, 4151.795, 4181.026, 16203, 0, []
1629740529.9297, 12, 0, 4206.154, 4186.667, 4111.282, 4143.59, 4176.923, 450, 0, []
1629740529.9376, 13, 0, 4202.564, 4189.231, 4114.359, 4133.333, 4177.436, 450, 0, []
1629740529.9454, 14, 0, 4216.41, 4190.256, 4105.641, 4146.154, 4185.128, 450, 0, []
1629740529.9532, 15, 0, 4218.462, 4168.205, 4114.872, 4158.974, 4186.154, 16203, 0, []
1629740529.961, 16, 0, 4211.795, 4141.026, 4130.769, 4157.436, 4185.128, 0, 0, []
1629740529.969, 17, 0, 4208.205, 4128.718, 4098.462, 4148.205, 4189.744, 0, 0, []
1629740529.9769, 18, 0, 4194.359, 4122.564, 4107.179, 4138.462, 4183.077, 0, 0, []
1629740529.9849, 19, 0, 4187.692, 4139.487, 4113.333, 4142.564, 4174.359, 0, 0, []
1629740529.9927, 20, 0, 4195.897, 4163.077, 4114.359, 4155.385, 4175.385, 0, 0, []
1629740530.0007, 21, 0, 4203.077, 4164.103, 4127.692, 4156.923, 4183.59, 0, 0, []
1629740530.0086, 22, 0, 4207.692, 4150.256, 4112.308, 4156.923, 4195.897, 0, 0, []
1629740530.0166, 23, 0, 4210.256, 4141.538, 4130.256, 4164.615, 4200.513, 0, 0, []
1629740530.0245, 24, 0, 4218.462, 4159.487, 4131.795, 4167.179, 4202.051, 0, 0, []
1629740530.0324, 25, 0, 4227.179, 4177.436, 4126.667, 4157.949, 4211.795, 0, 0, []
1629740530.0403, 26, 0, 4212.308, 4153.846, 4139.487, 4142.564, 4208.718, 0, 0, []
1629740530.0483, 27, 0, 4184.615, 4110.256, 4107.179, 4135.385, 4188.205, 0, 0, []
1629740530.0562, 28, 0, 4178.974, 4127.692, 4115.385, 4145.128, 4177.436, 0, 0, []
1629740530.064, 29, 0, 4202.051, 4182.564, 4132.821, 4165.128, 4194.359, 0, 0, []
1629740530.0718, 30, 0, 4222.051, 4168.205, 4133.333, 4174.872, 4218.462, 0, 0, []
1629740530.0796, 31, 0, 4207.692, 4123.077, 4147.692, 4162.051, 4210.256, 0, 0, []
1629740530.0875, 32, 0, 4189.744, 4132.821, 4116.41, 4140.513, 4190.256, 0, 0, []
1629740530.0953, 33, 0, 4205.641, 4155.897, 4125.128, 4146.154, 4200.513, 0, 0, []
1629740530.1032, 34, 0, 4214.359, 4151.795, 4144.103, 4160.513, 4210.769, 0, 0, []
1629740530.1109, 35, 0, 4188.205, 4152.308, 4121.538, 4146.667, 4188.718, 0, 0, []
1629740530.1188, 36, 0, 4171.795, 4146.667, 4125.641, 4133.333, 4170.769, 0, 0, []
1629740530.1266, 37, 0, 4190.256, 4137.949, 4115.897, 4148.205, 4179.487, 0, 0, []
1629740530.1346, 38, 0, 4195.385, 4131.795, 4120, 4152.821, 4177.436, 0, 0, []
1629740530.1425, 39, 0, 4178.974, 4130.256, 4116.923, 4133.333, 4166.154, 0, 0, []
1629740530.1504, 40, 0, 4175.385, 4150.256, 4098.462, 4130.256, 4169.744, 0, 0, []
1629740530.1583, 41, 0, 4181.026, 4156.41, 4120, 4138.974, 4168.205, 0, 0, []
1629740530.1663, 42, 0, 4184.103, 4135.897, 4103.59, 4132.308, 4160, 0, 0, []
1629740530.1742, 43, 0, 4197.949, 4133.846, 4114.872, 4134.872, 4171.282, 0, 0, []
1629740530.1822, 44, 0, 4198.974, 4149.744, 4137.436, 4142.051, 4178.462, 0, 0, []
1629740530.19, 45, 0, 4177.436, 4143.59, 4103.59, 4134.872, 4158.462, 0, 0, []
1629740530.198, 46, 0, 4183.59, 4144.615, 4116.923, 4143.077, 4150.769, 0, 0, []
1629740530.2059, 47, 0, 4210.256, 4162.564, 4123.077, 4162.051, 4166.667, 0, 0, []
1629740530.2138, 48, 0, 4197.436, 4155.385, 4111.795, 4150.769, 4165.128, 0, 0, []
1629740530.2217, 49, 0, 4171.795, 4144.103, 4111.795, 4136.923, 4152.821, 0, 0, []
1629740530.2294, 50, 0, 4180.513, 4142.564, 4094.872, 4149.231, 4149.231, 0, 0, []
1629740530.2373, 51, 0, 4184.103, 4151.282, 4110.256, 4158.462, 4149.744, 0, 0, []
1629740530.2451, 52, 0, 4163.59, 4166.667, 4104.615, 4154.872, 4163.59, 0, 0, []
1629740530.253, 53, 0, 4156.41, 4153.333, 4109.744, 4158.974, 4182.051, 0, 0, []
1629740530.2608, 54, 0, 4162.564, 4144.615, 4134.872, 4167.179, 4183.077, 0, 0, []
1629740530.2687, 55, 0, 4161.538, 4169.744, 4108.205, 4167.692, 4174.872, 0, 0, []
1629740530.2764, 56, 0, 4158.974, 4169.231, 4120, 4165.641, 4174.359, 0, 0, []
1629740530.2844, 57, 0, 4172.821, 4144.615, 4135.897, 4169.744, 4195.385, 0, 0, []
1629740530.2923, 58, 0, 4173.846, 4155.385, 4128.205, 4174.872, 4205.128, 0, 0, []
1629740530.3003, 59, 0, 4153.846, 4180, 4130.769, 4172.308, 4183.077, 0, 0, []
1629740530.3082, 60, 0, 4141.538, 4165.128, 4103.077, 4161.538, 4170.769, 0, 0, []
1629740530.3161, 61, 0, 4135.897, 4146.667, 4112.821, 4152.821, 4177.949, 0, 0, []
1629740530.324, 62, 0, 4139.487, 4156.923, 4117.436, 4155.897, 4174.872, 0, 0, []
1629740530.332, 63, 0, 4157.949, 4157.949, 4107.179, 4169.231, 4173.333, 0, 0, []
1629740530.3399, 64, 0, 4170.769, 4144.103, 4133.846, 4176.923, 4188.718, 450, 0, []
1629740530.3479, 65, 0, 4168.718, 4162.051, 4120.513, 4165.641, 4197.436, 450, 0, []
1629740530.3557, 66, 0, 4158.462, 4175.897, 4118.462, 4150.256, 4192.308, 16190, 0, []
1629740530.3635, 67, 0, 4153.333, 4151.282, 4112.308, 4143.59, 4182.564, 450, 0, []
1629740530.3714, 68, 0, 4162.564, 4166.667, 4093.846, 4151.795, 4181.538, 16118, 0, []
1629740530.3792, 69, 0, 4170.769, 4201.026, 4123.077, 4161.538, 4190.769, 450, 0, []
1629740530.3871, 70, 0, 4164.103, 4177.436, 4117.949, 4156.923, 4193.333, 16100, 0, []
1629740530.3948, 71, 0, 4165.641, 4165.641, 4120.513, 4158.462, 4190.769, 450, 0, []
1629740530.4027, 72, 0, 4185.641, 4202.051, 4124.615, 4171.282, 4193.846, 450, 0, []
1629740530.4105, 73, 0, 4190.769, 4193.333, 4103.59, 4170.256, 4196.41, 16174, 0, []
1629740530.4184, 74, 0, 4176.41, 4146.667, 4122.051, 4159.487, 4193.333, 450, 0, []
1629740530.4262, 75, 0, 4170.769, 4160, 4112.308, 4154.872, 4189.231, 16203, 0, []
1629740530.4341, 76, 0, 4176.923, 4197.949, 4118.974, 4160, 4180.513, 450, 0, []
1629740530.442, 77, 0, 4185.641, 4202.051, 4140.513, 4167.692, 4184.103, 450, 0, []
1629740530.45, 78, 0, 4191.282, 4200, 4121.538, 4167.179, 4202.564, 450, 0, []
1629740530.4579, 79, 0, 4182.564, 4183.077, 4134.872, 4154.359, 4201.538, 16203, 0, []
1629740530.4659, 80, 0, 4180.513, 4167.179, 4133.333, 4149.744, 4193.846, 450, 0, []
1629740530.4737, 81, 0, 4193.333, 4194.359, 4133.846, 4166.154, 4200.513, 450, 0, []
1629740530.4817, 82, 0, 4190.256, 4215.897, 4140, 4174.359, 4196.923, 450, 0, []
1629740530.4896, 83, 0, 4170.769, 4183.59, 4110.256, 4154.359, 4177.436, 16203, 0, []
1629740530.4976, 84, 0, 4169.231, 4156.41, 4126.667, 4140.513, 4178.462, 450, 0, []
1629740530.5055, 85, 0, 4188.718, 4170.769, 4131.795, 4155.897, 4203.077, 450, 0, []
1629740530.5133, 86, 0, 4192.308, 4183.59, 4125.641, 4164.103, 4206.667, 450, 0, []
1629740530.5213, 87, 0, 4177.949, 4169.744, 4132.821, 4144.103, 4181.026, 16203, 0, []
1629740530.5291, 88, 0, 4168.718, 4160, 4108.718, 4128.718, 4166.154, 450, 0, []
1629740530.537, 89, 0, 4163.59, 4168.205, 4125.641, 4130.769, 4176.923, 450, 0, []
1629740530.5448, 90, 0, 4165.128, 4176.923, 4128.205, 4134.359, 4189.744, 450, 0, []
1629740530.5526, 91, 0, 4175.385, 4183.077, 4113.846, 4137.436, 4187.692, 16203, 0, []
1629740530.5604, 92, 0, 4180.513, 4171.282, 4130.769, 4143.077, 4184.103, 450, 0, []
1629740530.5683, 93, 0, 4179.487, 4151.795, 4110.769, 4133.333, 4188.718, 450, 0, []
1629740530.5761, 94, 0, 4183.077, 4149.744, 4115.385, 4124.103, 4194.872, 450, 0, []
1629740530.584, 95, 0, 4198.974, 4151.795, 4123.077, 4134.872, 4207.692, 16203, 0, []
1629740530.5918, 96, 0, 4219.487, 4162.051, 4110.769, 4142.564, 4220, 450, 0, []
1629740530.5997, 97, 0, 4239.487, 4176.41, 4118.462, 4136.41, 4234.359, 450, 0, []
1629740530.6076, 98, 0, 4262.051, 4165.128, 4102.564, 4131.282, 4259.487, 450, 0, []
1629740530.6156, 99, 0, 4276.41, 4151.795, 4121.538, 4131.795, 4279.487, 16203, 0, []
1629740530.6235, 100, 0, 4277.436, 4166.667, 4125.641, 4133.333, 4283.077, 450, 0, []
1629740530.6315, 101, 0, 4278.462, 4170.256, 4098.462, 4139.487, 4282.564, 450, 0, []
1629740530.6393, 102, 0, 4280.513, 4161.026, 4118.462, 4144.103, 4276.923, 450, 0, []
1629740530.6473, 103, 0, 4274.872, 4166.154, 4105.128, 4140.513, 4264.615, 16203, 0, []
1629740530.6552, 104, 0, 4260.513, 4158.974, 4107.179, 4132.308, 4256.41, 450, 0, []
1629740530.6632, 105, 0, 4251.282, 4157.436, 4125.128, 4124.615, 4252.821, 450, 0, []
1629740530.6711, 106, 0, 4259.487, 4182.564, 4114.872, 4136.923, 4258.462, 450, 0, []
1629740530.6788, 107, 0, 4267.179, 4198.974, 4134.359, 4159.487, 4261.026, 16203, 0, []
1629740530.6867, 108, 0, 4251.795, 4196.41, 4118.974, 4153.333, 4240, 450, 0, []
1629740530.6945, 109, 0, 4226.154, 4201.026, 4108.718, 4133.333, 4211.795, 450, 0, []
1629740530.7024, 110, 0, 4220.513, 4220.513, 4126.667, 4142.051, 4210.769, 450, 0, []
1629740530.7102, 111, 0, 4221.538, 4227.179, 4120, 4156.923, 4220.513, 16203, 0, []
1629740530.718, 112, 0, 4213.333, 4215.385, 4134.872, 4155.897, 4211.795, 450, 0, []
1629740530.7258, 113, 0, 4214.359, 4198.974, 4120, 4156.923, 4203.59, 450, 0, []
1629740530.7337, 114, 0, 4216.923, 4183.077, 4112.308, 4155.385, 4200, 450, 0, []
1629740530.7415, 115, 0, 4207.179, 4205.641, 4127.692, 4145.128, 4186.154, 16203, 0, []
1629740530.7495, 116, 0, 4194.872, 4227.692, 4100.513, 4134.359, 4170.256, 450, 0, []
1629740530.7573, 117, 0, 4184.615, 4192.308, 4102.051, 4130.256, 4164.615, 450, 0, []
1629740530.7653, 118, 0, 4184.103, 4170.769, 4100, 4131.795, 4169.744, 450, 0, []
1629740530.7732, 119, 0, 4202.051, 4189.231, 4104.103, 4140.513, 4182.051, 16203, 0, []
1629740530.7812, 120, 0, 4214.872, 4191.795, 4128.205, 4144.103, 4185.641, 450, 0, []
1629740530.7891, 121, 0, 4203.077, 4172.821, 4105.641, 4132.821, 4176.41, 450, 0, []
1629740530.797, 122, 0, 4178.974, 4160.513, 4102.564, 4124.615, 4165.128, 450, 0, []
1629740530.8049, 123, 0, 4169.231, 4176.923, 4095.897, 4131.795, 4162.564, 16203, 0, []
1629740530.8129, 124, 0, 4177.949, 4191.282, 4093.846, 4138.974, 4163.59, 450, 0, []
1629740530.8208, 125, 0, 4181.026, 4176.41, 4111.795, 4125.128, 4156.41, 450, 0, []
1629740530.8286, 126, 0, 4174.359, 4179.487, 4088.205, 4112.308, 4154.872, 450, 0, []
1629740530.8364, 127, 0, 4174.359, 4195.897, 4106.154, 4125.128, 4165.641, 16203, 0, []
1629740530.8442, 128, 0, 4188.205, 4170.769, 4117.949, 4140, 4174.359, 450, 0, []
1629740530.8521, 0, 0, 4191.795, 4153.846, 4101.026, 4141.026, 4171.282, 450, 0, []
1629740530.8599, 1, 0, 4178.974, 4185.641, 4117.949, 4134.872, 4162.051, 450, 0, []
1629740530.8678, 2, 0, 4166.667, 4190.769, 4096.923, 4124.615, 4160, 16190, 0, []
1629740530.8755, 3, 0, 4158.974, 4145.128, 4096.923, 4120, 4160, 450, 0, []
1629740530.8834, 4, 0, 4165.128, 4148.205, 4105.128, 4126.154, 4157.436, 16119, 0, []
1629740530.8912, 5, 0, 4181.026, 4187.692, 4098.462, 4130.256, 4158.974, 450, 0, []
1629740530.8992, 6, 0, 4178.974, 4173.846, 4126.667, 4124.103, 4158.974, 16098, 0, []
1629740530.9071, 7, 0, 4161.538, 4150.769, 4109.744, 4116.923, 4147.179, 450, 0, []
1629740530.915, 8, 0, 4155.385, 4166.667, 4102.051, 4114.359, 4135.385, 450, 0, []
1629740530.9229, 9, 0, 4161.026, 4165.128, 4113.846, 4113.333, 4137.949, 16178, 0, []
1629740530.9309, 10, 0, 4161.538, 4152.821, 4104.615, 4112.308, 4143.077, 450, 0, []
1629740530.9388, 11, 0, 4161.538, 4191.795, 4129.744, 4125.128, 4148.718, 16203, 0, []
1629740530.9468, 12, 0, 4171.795, 4216.923, 4115.385, 4137.436, 4155.897, 450, 0, []
1629740530.9547, 13, 0, 4175.385, 4185.641, 4102.051, 4123.59, 4149.744, 450, 0, []
1629740530.9626, 14, 0, 4164.615, 4170.256, 4106.667, 4109.744, 4138.462, 450, 0, []
1629740530.9705, 15, 0, 4156.923, 4174.359, 4080, 4113.846, 4140, 16203, 0, []
1629740530.9785, 16, 0, 4162.564, 4176.41, 4091.795, 4120, 4148.718, 0, 0, []
1629740530.9864, 17, 0, 4174.872, 4186.667, 4090.256, 4122.564, 4156.41, 0, 0, []
1629740530.9942, 18, 0, 4174.359, 4186.154, 4089.744, 4122.051, 4157.436, 0, 0, []
1629740531.002, 19, 0, 4161.026, 4162.564, 4103.077, 4114.359, 4150.256, 0, 0, []
1629740531.0098, 20, 0, 4150.769, 4164.103, 4083.59, 4114.359, 4148.718, 0, 0, []
1629740531.0177, 21, 0, 4153.846, 4192.308, 4100.513, 4131.282, 4152.821, 0, 0, []
1629740531.0255, 22, 0, 4168.205, 4203.59, 4105.641, 4139.487, 4151.795, 0, 0, []
1629740531.0334, 23, 0, 4173.333, 4194.872, 4104.103, 4129.231, 4152.308, 0, 0, []
1629740531.0411, 24, 0, 4157.436, 4169.231, 4110.256, 4117.436, 4148.718, 0, 0, []
1629740531.049, 25, 0, 4147.179, 4157.436, 4084.615, 4115.385, 4137.949, 0, 0, []
1629740531.0568, 26, 0, 4153.333, 4185.641, 4108.718, 4125.641, 4138.974, 0, 0, []
1629740531.0648, 27, 0, 4163.59, 4208.718, 4116.41, 4134.359, 4155.897, 0, 0, []
1629740531.0727, 28, 0, 4163.59, 4192.308, 4101.538, 4132.821, 4161.538, 0, 0, []
1629740531.0806, 29, 0, 4154.359, 4183.59, 4120, 4131.282, 4154.359, 0, 0, []
1629740531.0885, 30, 0, 4160.513, 4194.359, 4105.641, 4135.897, 4153.333, 0, 0, []
1629740531.0965, 31, 0, 4173.846, 4185.128, 4115.897, 4134.359, 4152.308, 0, 0, []
1629740531.1044, 32, 0, 4170.769, 4192.308, 4122.564, 4127.692, 4153.333, 0, 0, []
1629740531.1124, 33, 0, 4161.538, 4223.077, 4114.359, 4135.385, 4162.564, 0, 0, []
1629740531.1202, 34, 0, 4163.59, 4207.692, 4138.974, 4145.128, 4164.615, 0, 0, []
1629740531.1282, 35, 0, 4166.154, 4178.974, 4121.026, 4134.359, 4156.41, 0, 0, []
1629740531.1361, 36, 0, 4164.615, 4209.744, 4121.026, 4131.282, 4154.872, 0, 0, []
1629740531.1441, 37, 0, 4159.487, 4228.205, 4120.513, 4133.846, 4155.385, 0, 0, []
1629740531.152, 38, 0, 4148.718, 4193.846, 4091.795, 4122.051, 4144.103, 0, 0, []
1629740531.1597, 39, 0, 4143.077, 4175.897, 4103.59, 4114.872, 4129.231, 0, 0, []
1629740531.1676, 40, 0, 4149.744, 4197.436, 4089.231, 4118.974, 4128.205, 0, 0, []
1629740531.1754, 41, 0, 4155.897, 4205.128, 4090.256, 4125.641, 4137.949, 0, 0, []
1629740531.1833, 42, 0, 4150.769, 4202.051, 4099.487, 4124.103, 4140, 0, 0, []
1629740531.1911, 43, 0, 4143.077, 4216.41, 4077.436, 4118.462, 4133.846, 0, 0, []
1629740531.1989, 44, 0, 4155.897, 4228.205, 4100.513, 4131.795, 4141.538, 0, 0, []
1629740531.2067, 45, 0, 4181.026, 4239.487, 4111.282, 4152.308, 4160, 0, 0, []
1629740531.2146, 46, 0, 4181.026, 4242.564, 4115.385, 4149.744, 4156.923, 0, 0, []
1629740531.2224, 47, 0, 4169.744, 4228.718, 4117.949, 4140.513, 4142.051, 0, 0, []
1629740531.2304, 48, 0, 4178.462, 4228.205, 4096.41, 4144.615, 4146.667, 0, 0, []
1629740531.2382, 49, 0, 4188.205, 4242.051, 4116.41, 4142.564, 4155.385, 0, 0, []
1629740531.2462, 50, 0, 4181.026, 4243.59, 4108.718, 4134.359, 4148.205, 0, 0, []
1629740531.2541, 51, 0, 4172.308, 4238.462, 4098.462, 4132.821, 4145.641, 0, 0, []
1629740531.2621, 52, 0, 4180.513, 4237.949, 4108.718, 4132.308, 4157.436, 0, 0, []
1629740531.27, 53, 0, 4193.846, 4228.718, 4091.795, 4136.41, 4160, 0, 0, []
1629740531.2779, 54, 0, 4193.846, 4223.077, 4111.795, 4140, 4148.718, 0, 0, []
1629740531.2858, 55, 0, 4189.231, 4234.359, 4105.641, 4134.872, 4152.308, 0, 0, []
1629740531.2936, 56, 0, 4184.615, 4241.026, 4092.308, 4136.41, 4164.103, 0, 0, []
1629740531.3015, 57, 0, 4178.462, 4230.256, 4110.256, 4139.487, 4158.462, 0, 0, []
1629740531.3093, 58, 0, 4183.59, 4227.692, 4094.359, 4138.974, 4154.872, 0, 0, []
1629740531.3172, 59, 0, 4189.231, 4240, 4114.359, 4142.564, 4161.026, 0, 0, []
1629740531.3249, 60, 0, 4183.077, 4233.333, 4118.974, 4137.949, 4162.564, 0, 0, []
1629740531.3328, 61, 0, 4177.949, 4222.564, 4097.949, 4124.103, 4159.487, 0, 0, []
1629740531.3406, 62, 0, 4178.974, 4241.538, 4107.692, 4126.154, 4154.872, 0, 0, []
1629740531.3485, 63, 0, 4182.564, 4250.256, 4092.821, 4136.923, 4152.821, 0, 0, []
1629740531.3563, 64, 0, 4178.974, 4230.769, 4098.974, 4134.872, 4154.359, 450, 0, []
1629740531.3642, 65, 0, 4173.333, 4240.513, 4097.436, 4130.256, 4158.462, 450, 0, []
1629740531.3721, 66, 0, 4174.359, 4248.205, 4087.179, 4130.769, 4157.436, 16192, 0, []
1629740531.3801, 67, 0, 4173.846, 4216.41, 4104.615, 4128.718, 4149.744, 450, 0, []
1629740531.388, 68, 0, 4179.487, 4229.744, 4085.128, 4132.821, 4152.308, 16092, 0, []
1629740531.396, 69, 0, 4193.333, 4262.564, 4106.667, 4143.077, 4168.205, 450, 0, []
1629740531.4038, 70, 0, 4194.359, 4241.538, 4131.795, 4145.641, 4175.897, 16101, 0, []
1629740531.4118, 71, 0, 4177.949, 4236.41, 4103.077, 4135.385, 4162.051, 450, 0, []
1629740531.4197, 72, 0, 4169.744, 4254.872, 4103.077, 4122.051, 4148.205, 450, 0, []
1629740531.4277, 73, 0, 4181.026, 4245.641, 4091.282, 4122.051, 4158.974, 16178, 0, []
1629740531.4356, 74, 0, 4189.744, 4254.359, 4105.128, 4137.436, 4176.923, 450, 0, []
1629740531.4435, 75, 0, 4190.256, 4285.128, 4122.051, 4143.59, 4178.462, 16203, 0, []
1629740531.4514, 76, 0, 4194.359, 4252.308, 4098.974, 4141.026, 4171.795, 450, 0, []
1629740531.4592, 77, 0, 4194.872, 4215.897, 4113.846, 4142.051, 4164.615, 450, 0, []
1629740531.4671, 78, 0, 4194.359, 4252.821, 4108.718, 4138.974, 4165.128, 450, 0, []
1629740531.4749, 79, 0, 4198.462, 4266.154, 4117.949, 4133.333, 4174.872, 16203, 0, []
1629740531.4827, 80, 0, 4205.128, 4244.615, 4146.667, 4141.538, 4184.615, 450, 0, []
1629740531.4905, 81, 0, 4209.231, 4265.641, 4129.744, 4155.897, 4181.538, 450, 0, []
1629740531.4984, 82, 0, 4205.128, 4292.308, 4129.231, 4153.333, 4165.128, 450, 0, []
1629740531.5063, 83, 0, 4196.41, 4271.282, 4114.872, 4138.462, 4154.359, 16203, 0, []
1629740531.5142, 84, 0, 4189.744, 4256.923, 4113.333, 4134.872, 4161.026, 450, 0, []
1629740531.522, 85, 0, 4191.795, 4263.077, 4128.205, 4138.462, 4173.333, 450, 0, []
1629740531.5298, 86, 0, 4196.41, 4255.385, 4112.308, 4140, 4175.897, 450, 0, []
1629740531.5378, 87, 0, 4195.385, 4258.462, 4137.436, 4142.564, 4170.256, 16203, 0, []
1629740531.5457, 88, 0, 4194.872, 4266.154, 4135.897, 4143.59, 4168.205, 450, 0, []
1629740531.5536, 89, 0, 4193.333, 4246.667, 4119.487, 4139.487, 4168.718, 450, 0, []
1629740531.5615, 90, 0, 4190.769, 4236.923, 4136.41, 4138.974, 4173.333, 450, 0, []
1629740531.5694, 91, 0, 4193.333, 4257.949, 4118.462, 4141.026, 4175.385, 16203, 0, []
1629740531.5774, 92, 0, 4193.333, 4271.795, 4121.538, 4140.513, 4169.744, 450, 0, []
1629740531.5853, 93, 0, 4193.846, 4271.282, 4117.949, 4139.487, 4169.231, 450, 0, []
1629740531.5933, 94, 0, 4197.436, 4266.154, 4106.154, 4139.487, 4170.769, 450, 0, []
1629740531.6011, 95, 0, 4194.872, 4257.436, 4125.128, 4137.436, 4169.231, 16203, 0, []
1629740531.6089, 96, 0, 4192.308, 4276.41, 4117.436, 4134.872, 4171.795, 450, 0, []
1629740531.6168, 97, 0, 4194.359, 4296.41, 4130.769, 4140, 4170.769, 450, 0, []
1629740531.6246, 98, 0, 4193.333, 4269.231, 4125.128, 4141.538, 4158.974, 450, 0, []
1629740531.6325, 99, 0, 4185.641, 4233.333, 4102.051, 4131.282, 4149.744, 16203, 0, []
1629740531.6402, 100, 0, 4178.974, 4235.897, 4122.051, 4122.564, 4147.692, 450, 0, []
1629740531.6481, 101, 0, 4175.385, 4254.359, 4097.436, 4118.974, 4146.667, 450, 0, []
1629740531.6559, 102, 0, 4173.333, 4256.41, 4095.897, 4124.615, 4146.154, 450, 0, []
1629740531.6638, 103, 0, 4186.667, 4251.795, 4116.41, 4136.923, 4151.282, 16203, 0, []
1629740531.6716, 104, 0, 4197.949, 4255.897, 4107.692, 4134.359, 4158.462, 450, 0, []
1629740531.6796, 105, 0, 4192.308, 4268.205, 4124.615, 4127.692, 4159.487, 450, 0, []
1629740531.6874, 106, 0, 4194.872, 4269.744, 4114.359, 4136.41, 4163.59, 450, 0, []
1629740531.6954, 107, 0, 4198.462, 4263.59, 4114.359, 4143.59, 4165.128, 16203, 0, []
1629740531.7033, 108, 0, 4193.846, 4257.949, 4118.974, 4140.513, 4160.513, 450, 0, []
1629740531.7113, 109, 0, 4192.821, 4252.308, 4106.154, 4139.487, 4162.564, 450, 0, []
1629740531.7192, 110, 0, 4192.821, 4244.103, 4132.308, 4137.949, 4165.128, 450, 0, []
1629740531.7271, 111, 0, 4188.205, 4239.487, 4116.923, 4136.41, 4164.615, 16203, 0, []
1629740531.735, 112, 0, 4188.205, 4246.154, 4107.692, 4138.462, 4162.051, 450, 0, []
1629740531.743, 113, 0, 4192.821, 4254.872, 4118.974, 4129.744, 4155.897, 450, 0, []
1629740531.7509, 114, 0, 4189.231, 4241.538, 4091.795, 4110.256, 4149.744, 450, 0, []
1629740531.7589, 115, 0, 4180, 4211.282, 4102.051, 4102.051, 4149.744, 16203, 0, []
1629740531.7667, 116, 0, 4180.513, 4213.846, 4104.103, 4111.282, 4148.205, 450, 0, []
1629740531.7745, 117, 0, 4183.59, 4252.821, 4106.667, 4123.077, 4138.974, 450, 0, []
1629740531.7824, 118, 0, 4186.667, 4262.051, 4122.051, 4125.128, 4133.846, 450, 0, []
1629740531.7902, 119, 0, 4189.744, 4234.359, 4105.128, 4124.103, 4138.462, 16203, 0, []
1629740531.7981, 120, 0, 4184.615, 4231.282, 4122.051, 4127.179, 4141.538, 450, 0, []
1629740531.8058, 121, 0, 4175.385, 4246.667, 4114.872, 4121.538, 4137.949, 450, 0, []
1629740531.8137, 122, 0, 4176.923, 4232.308, 4102.051, 4109.231, 4133.846, 450, 0, []
1629740531.8215, 123, 0, 4182.051, 4227.692, 4125.641, 4111.282, 4138.974, 16203, 0, []
1629740531.8294, 124, 0, 4180, 4238.974, 4112.308, 4113.333, 4141.026, 450, 0, []
1629740531.8372, 125, 0, 4177.949, 4227.179, 4114.359, 4106.667, 4134.359, 450, 0, []
1629740531.8451, 126, 0, 4185.128, 4230.769, 4107.692, 4111.282, 4135.897, 450, 0, []
1629740531.853, 127, 0, 4191.282, 4254.872, 4101.538, 4120, 4140.513, 16203, 0, []
1629740531.861, 128, 0, 4186.154, 4247.179, 4123.077, 4115.385, 4137.436, 450, 0, []
1629740531.8689, 0, 0, 4177.949, 4226.667, 4098.462, 4114.359, 4140, 450, 0, []
1629740531.8769, 1, 0, 4178.462, 4238.974, 4108.205, 4124.103, 4149.231, 450, 0, []
1629740531.8847, 2, 0, 4188.718, 4254.359, 4125.641, 4125.128, 4152.821, 16192, 0, []
1629740531.8927, 3, 0, 4198.974, 4234.359, 4114.872, 4118.974, 4150.256, 450, 0, []
1629740531.9006, 4, 0, 4195.385, 4220.513, 4124.103, 4115.897, 4151.795, 16106, 0, []
1629740531.9084, 5, 0, 4189.744, 4234.359, 4101.538, 4118.462, 4158.974, 450, 0, []
1629740531.9163, 6, 0, 4189.231, 4229.231, 4109.744, 4125.641, 4155.897, 16109, 0, []
1629740531.924, 7, 0, 4186.667, 4207.179, 4120, 4122.564, 4140.513, 450, 0, []
1629740531.9319, 8, 0, 4183.077, 4217.436, 4101.026, 4114.359, 4138.462, 450, 0, []
1629740531.9397, 9, 0, 4176.41, 4226.154, 4114.872, 4108.205, 4141.026, 16178, 0, []
1629740531.9476, 10, 0, 4170.256, 4220, 4093.846, 4105.641, 4135.385, 450, 0, []
1629740531.9554, 11, 0, 4172.821, 4232.821, 4098.462, 4116.923, 4137.436, 16203, 0, []
1629740531.9632, 12, 0, 4180, 4249.744, 4121.538, 4123.59, 4143.077, 450, 0, []
1629740531.971, 13, 0, 4173.333, 4245.128, 4101.026, 4108.205, 4141.538, 450, 0, []
1629740531.9789, 14, 0, 4161.538, 4210.256, 4113.333, 4104.103, 4141.026, 450, 0, []
1629740531.9867, 15, 0, 4172.308, 4204.103, 4109.231, 4121.538, 4149.744, 16203, 0, []
1629740531.9947, 16, 0, 4186.667, 4233.333, 4104.615, 4128.718, 4150.769, 0, 0, []
1629740532.0026, 17, 0, 4187.692, 4229.744, 4115.897, 4126.667, 4149.744, 0, 0, []
1629740532.0105, 18, 0, 4195.385, 4226.667, 4108.205, 4134.872, 4162.564, 0, 0, []
1629740532.0184, 19, 0, 4195.897, 4231.795, 4123.59, 4139.487, 4166.667, 0, 0, []
1629740532.0264, 20, 0, 4177.436, 4213.333, 4093.846, 4125.641, 4151.795, 0, 0, []
1629740532.0343, 21, 0, 4161.538, 4215.897, 4074.359, 4108.205, 4134.872, 0, 0, []
1629740532.0423, 22, 0, 4160, 4243.077, 4106.154, 4104.615, 4131.282, 0, 0, []
1629740532.0501, 23, 0, 4170.256, 4244.615, 4106.154, 4121.538, 4147.179, 0, 0, []
1629740532.0581, 24, 0, 4187.692, 4235.385, 4121.026, 4141.026, 4165.128, 0, 0, []
1629740532.066, 25, 0, 4200.513, 4227.692, 4114.359, 4140.513, 4169.231, 0, 0, []
1629740532.0738, 26, 0, 4194.872, 4214.359, 4104.615, 4130.769, 4165.128, 0, 0, []
1629740532.0817, 27, 0, 4174.359, 4220, 4113.333, 4120, 4147.179, 0, 0, []
1629740532.0896, 28, 0, 4170.769, 4230.256, 4089.231, 4115.385, 4141.538, 0, 0, []
1629740532.0975, 29, 0, 4189.744, 4241.538, 4125.128, 4134.872, 4167.692, 0, 0, []
1629740532.1053, 30, 0, 4189.744, 4244.615, 4143.077, 4145.641, 4166.667, 0, 0, []
1629740532.1132, 31, 0, 4168.205, 4225.128, 4103.59, 4121.538, 4129.231, 0, 0, []
1629740532.121, 32, 0, 4194.872, 4234.872, 4118.974, 4120, 4156.41, 0, 0, []
1629740532.1288, 33, 0, 4264.103, 4264.615, 4129.744, 4144.615, 4233.846, 0, 0, []
1629740532.1366, 34, 0, 4300.513, 4261.538, 4132.308, 4141.538, 4260, 0, 0, []
1629740532.1446, 35, 0, 4338.462, 4254.872, 4127.692, 4139.487, 4280.513, 0, 0, []
1629740532.1525, 36, 0, 4403.077, 4262.051, 4127.692, 4154.359, 4333.333, 0, 0, []
1629740532.1605, 37, 0, 4443.59, 4257.436, 4138.462, 4142.564, 4358.974, 0, 0, []
1629740532.1683, 38, 0, 4477.436, 4256.923, 4109.231, 4128.205, 4378.462, 0, 0, []
1629740532.1763, 39, 0, 4513.333, 4263.077, 4126.154, 4142.564, 4409.231, 0, 0, []
1629740532.1842, 40, 0, 4500.513, 4275.897, 4136.41, 4143.077, 4397.436, 0, 0, []
1629740532.1922, 41, 0, 4465.641, 4288.718, 4110.769, 4120.513, 4358.974, 0, 0, []
1629740532.2001, 42, 0, 4467.692, 4271.795, 4131.795, 4123.59, 4361.538, 0, 0, []
1629740532.208, 43, 0, 4476.923, 4262.564, 4123.077, 4146.667, 4384.103, 0, 0, []
1629740532.2159, 44, 0, 4461.026, 4273.333, 4122.564, 4149.231, 4372.821, 0, 0, []
1629740532.2238, 45, 0, 4440.513, 4256.41, 4127.692, 4136.923, 4346.667, 0, 0, []
1629740532.2317, 46, 0, 4412.821, 4238.462, 4124.103, 4138.974, 4326.667, 0, 0, []
1629740532.2395, 47, 0, 4376.41, 4248.718, 4152.308, 4141.538, 4300, 0, 0, []
1629740532.2473, 48, 0, 4351.795, 4252.821, 4128.718, 4125.128, 4268.205, 0, 0, []
1629740532.2551, 49, 0, 4335.385, 4243.59, 4123.59, 4116.41, 4243.077, 0, 0, []
1629740532.263, 50, 0, 4325.128, 4235.897, 4139.487, 4122.051, 4237.949, 0, 0, []
1629740532.2708, 51, 0, 4316.41, 4223.077, 4118.462, 4113.846, 4243.59, 0, 0, []
1629740532.2787, 52, 0, 4293.846, 4225.128, 4125.128, 4098.974, 4233.846, 0, 0, []
1629740532.2864, 53, 0, 4282.564, 4251.282, 4110.769, 4109.231, 4222.051, 0, 0, []
1629740532.2943, 54, 0, 4304.615, 4248.718, 4128.205, 4137.949, 4236.923, 0, 0, []
1629740532.3021, 55, 0, 4324.615, 4222.564, 4165.641, 4149.231, 4255.385, 0, 0, []
1629740532.3101, 56, 0, 4304.103, 4223.59, 4131.795, 4125.641, 4231.795, 0, 0, []
1629740532.318, 57, 0, 4277.949, 4245.128, 4126.154, 4104.615, 4203.077, 0, 0, []
1629740532.3259, 58, 0, 4288.205, 4273.846, 4133.333, 4120, 4226.667, 0, 0, []
1629740532.3338, 59, 0, 4288.205, 4271.795, 4127.179, 4133.333, 4240.513, 0, 0, []
1629740532.3418, 60, 0, 4253.846, 4227.179, 4124.615, 4120.513, 4201.538, 0, 0, []
1629740532.3497, 61, 0, 4250.256, 4225.641, 4107.179, 4122.564, 4189.744, 0, 0, []
1629740532.3577, 62, 0, 4274.872, 4264.103, 4143.077, 4143.59, 4214.359, 0, 0, []
1629740532.3656, 63, 0, 4271.795, 4268.718, 4157.949, 4145.641, 4211.795, 0, 0, []
1629740532.3735, 64, 0, 4266.154, 4251.282, 4145.128, 4137.949, 4208.718, 450, 0, []
1629740532.3814, 65, 0, 4284.103, 4249.231, 4165.128, 4137.949, 4228.718, 450, 0, []
1629740532.3892, 66, 0, 4291.282, 4261.538, 4148.718, 4141.026, 4229.231, 16182, 0, []
1629740532.3971, 67, 0, 4282.051, 4262.051, 4148.718, 4147.179, 4215.385, 450, 0, []
1629740532.4049, 68, 0, 4290.769, 4255.385, 4160.513, 4156.923, 4222.564, 16117, 0, []
1629740532.4127, 69, 0, 4297.436, 4261.026, 4158.974, 4158.462, 4227.692, 450, 0, []
1629740532.4205, 70, 0, 4278.462, 4288.718, 4162.564, 4144.103, 4204.103, 16097, 0, []
1629740532.4284, 71, 0, 4266.667, 4311.282, 4130.769, 4133.846, 4187.179, 450, 0, []
1629740532.4362, 72, 0, 4265.128, 4275.897, 4137.949, 4138.974, 4190.256, 450, 0, []
1629740532.4441, 73, 0, 4226.154, 4229.231, 4117.436, 4110.256, 4161.026, 16180, 0, []
1629740532.4518, 74, 0, 4197.436, 4249.744, 4084.103, 4090.769, 4133.846, 450, 0, []
1629740532.4597, 75, 0, 4247.692, 4302.051, 4156.923, 4150.256, 4176.41, 16203, 0, []
1629740532.4675, 76, 0, 4290.769, 4305.641, 4175.385, 4189.744, 4215.385, 450, 0, []
1629740532.4755, 77, 0, 4268.718, 4282.564, 4146.154, 4157.949, 4195.385, 450, 0, []
1629740532.4834, 78, 0, 4255.897, 4290.769, 4148.718, 4143.077, 4184.103, 450, 0, []
1629740532.4913, 79, 0, 4256.41, 4309.231, 4140.513, 4148.718, 4187.179, 16203, 0, []
1629740532.4992, 80, 0, 4234.359, 4314.359, 4147.179, 4137.436, 4168.205, 450, 0, []
1629740532.5071, 81, 0, 4236.41, 4321.026, 4145.128, 4151.282, 4170.769, 450, 0, []
1629740532.515, 82, 0, 4253.333, 4329.744, 4158.462, 4174.872, 4188.718, 450, 0, []
1629740532.523, 83, 0, 4249.231, 4330.256, 4167.692, 4149.744, 4169.231, 16203, 0, []
1629740532.5308, 84, 0, 4259.487, 4319.487, 4138.974, 4122.051, 4147.692, 450, 0, []
1629740532.5388, 85, 0, 4268.718, 4310.769, 4138.974, 4120.513, 4142.564, 450, 0, []
1629740532.5467, 86, 0, 4250.256, 4314.359, 4123.077, 4116.923, 4134.359, 450, 0, []
1629740532.5545, 87, 0, 4260, 4316.41, 4128.718, 4130.769, 4141.538, 16203, 0, []
1629740532.5624, 88, 0, 4298.974, 4324.103, 4172.308, 4175.897, 4172.821, 450, 0, []
1629740532.5701, 89, 0, 4298.974, 4345.128, 4161.026, 4194.359, 4183.59, 450, 0, []
1629740532.578, 90, 0, 4280, 4348.718, 4148.718, 4166.667, 4163.59, 450, 0, []
1629740532.5858, 91, 0, 4291.282, 4344.615, 4145.128, 4153.333, 4161.026, 16203, 0, []
1629740532.5937, 92, 0, 4286.154, 4353.846, 4144.103, 4151.282, 4159.487, 450, 0, []
1629740532.6015, 93, 0, 4252.821, 4347.179, 4143.59, 4133.333, 4142.564, 450, 0, []
1629740532.6094, 94, 0, 4253.333, 4341.026, 4125.128, 4141.026, 4146.667, 450, 0, []
1629740532.6173, 95, 0, 4254.872, 4333.333, 4136.41, 4150.256, 4142.564, 16203, 0, []
1629740532.6253, 96, 0, 4233.846, 4306.154, 4116.923, 4134.359, 4122.564, 450, 0, []
1629740532.6332, 97, 0, 4253.846, 4296.923, 4125.641, 4155.385, 4145.128, 450, 0, []
1629740532.6412, 98, 0, 4286.154, 4324.103, 4181.026, 4186.667, 4171.795, 450, 0, []
1629740532.649, 99, 0, 4276.41, 4333.846, 4152.308, 4164.103, 4157.436, 16203, 0, []
1629740532.657, 100, 0, 4268.205, 4323.077, 4149.744, 4143.59, 4154.872, 450, 0, []
1629740532.6649, 101, 0, 4277.949, 4330.256, 4164.103, 4150.769, 4169.744, 450, 0, []
1629740532.6729, 102, 0, 4261.538, 4324.615, 4136.923, 4148.718, 4156.923, 450, 0, []
1629740532.6808, 103, 0, 4233.846, 4290.256, 4130.769, 4137.949, 4127.179, 16203, 0, []
1629740532.6885, 104, 0, 4216.41, 4250.256, 4093.846, 4120, 4101.026, 450, 0, []
1629740532.6964, 105, 0, 4209.744, 4220.513, 4083.077, 4105.641, 4094.359, 450, 0, []
1629740532.7042, 106, 0, 4237.436, 4241.538, 4110.769, 4130.256, 4132.308, 450, 0, []
1629740532.7121, 107, 0, 4283.59, 4314.359, 4138.974, 4175.897, 4188.205, 16203, 0, []
1629740532.7199, 108, 0, 4302.564, 4352.308, 4175.897, 4195.385, 4208.205, 450, 0, []
1629740532.7278, 109, 0, 4295.897, 4320, 4157.949, 4183.59, 4196.41, 450, 0, []
1629740532.7355, 110, 0, 4282.051, 4301.538, 4157.436, 4170.769, 4181.538, 450, 0, []
1629740532.7434, 111, 0, 4265.641, 4306.667, 4164.103, 4167.179, 4171.282, 16203, 0, []
1629740532.7512, 112, 0, 4250.769, 4276.923, 4126.154, 4152.308, 4163.59, 450, 0, []
1629740532.7591, 113, 0, 4235.385, 4249.231, 4121.026, 4134.359, 4155.385, 450, 0, []
1629740532.7669, 114, 0, 4232.308, 4257.949, 4109.744, 4141.538, 4153.846, 450, 0, []
1629740532.7748, 115, 0, 4246.667, 4271.282, 4115.897, 4162.564, 4161.538, 16203, 0, []
1629740532.7827, 116, 0, 4270.769, 4301.026, 4145.641, 4178.974, 4183.077, 450, 0, []
1629740532.7907, 117, 0, 4281.538, 4328.205, 4143.077, 4181.538, 4198.974, 450, 0, []
1629740532.7986, 118, 0, 4275.897, 4296.41, 4155.897, 4172.308, 4191.795, 450, 0, []
1629740532.8066, 119, 0, 4274.359, 4253.846, 4142.051, 4164.103, 4189.231, 16203, 0, []
1629740532.8144, 120, 0, 4265.128, 4265.641, 4133.846, 4163.077, 4190.256, 450, 0, []
1629740532.8224, 121, 0, 4252.821, 4286.154, 4150.256, 4168.205, 4185.641, 450, 0, []
1629740532.8303, 122, 0, 4245.641, 4270.769, 4130.769, 4167.179, 4176.923, 450, 0, []
1629740532.8383, 123, 0, 4255.897, 4267.692, 4151.282, 4169.231, 4186.154, 16203, 0, []
1629740532.8462, 124, 0, 4300.513, 4290.256, 4176.923, 4201.538, 4230.256, 450, 0, []
1629740532.8539, 125, 0, 4307.179, 4271.795, 4164.103, 4207.692, 4237.949, 450, 0, []
1629740532.8618, 126, 0, 4256.41, 4229.744, 4140.513, 4158.462, 4193.333, 450, 0, []
1629740532.8696, 127, 0, 4249.744, 4244.103, 4117.436, 4147.692, 4187.179, 16203, 0, []
1629740532.8775, 128, 0, 4285.641, 4271.282, 4154.359, 4186.667, 4214.872, 450, 0, []
1629740532.8853, 0, 0, 4275.897, 4258.462, 4145.128, 4180.513, 4202.564, 450, 0, []
1629740532.8931, 1, 0, 4241.026, 4256.41, 4104.615, 4148.205, 4175.385, 450, 0, []
1629740532.9009, 2, 0, 4236.41, 4256.923, 4123.077, 4152.308, 4176.923, 16187, 0, []
1629740532.9088, 3, 0, 4252.308, 4236.41, 4116.41, 4162.564, 4196.923, 450, 0, []
1629740532.9166, 4, 0, 4264.103, 4242.564, 4124.103, 4157.436, 4213.333, 16117, 0, []
1629740532.9246, 5, 0, 4253.846, 4267.179, 4113.846, 4147.179, 4198.462, 450, 0, []
1629740532.9324, 6, 0, 4239.487, 4258.974, 4085.128, 4141.026, 4174.359, 16098, 0, []
1629740532.9404, 7, 0, 4244.615, 4242.051, 4111.795, 4142.564, 4176.923, 450, 0, []
1629740532.9483, 8, 0, 4240.513, 4242.051, 4104.103, 4138.462, 4176.41, 450, 0, []
1629740532.9563, 9, 0, 4227.692, 4245.641, 4110.769, 4137.949, 4166.667, 16177, 0, []
1629740532.9642, 10, 0, 4249.744, 4272.308, 4143.59, 4167.692, 4200, 450, 0, []
1629740532.9721, 11, 0, 4280, 4286.154, 4143.077, 4194.359, 4242.564, 16203, 0, []
1629740532.98, 12, 0, 4255.897, 4225.128, 4137.436, 4168.205, 4215.897, 450, 0, []
1629740532.988, 13, 0, 4233.846, 4192.308, 4113.333, 4145.641, 4185.128, 450, 0, []
1629740532.9959, 14, 0, 4245.641, 4246.667, 4128.718, 4165.641, 4196.923, 450, 0, []
1629740533.0039, 15, 0, 4228.718, 4252.308, 4141.026, 4160, 4188.205, 16203, 0, []
1629740533.0117, 16, 0, 4207.692, 4202.564, 4113.846, 4138.974, 4171.795, 0, 0, []
1629740533.0195, 17, 0, 4227.179, 4229.744, 4147.179, 4162.051, 4194.872, 0, 0, []
1629740533.0274, 18, 0, 4233.846, 4283.59, 4137.436, 4170.769, 4198.462, 0, 0, []
1629740533.0352, 19, 0, 4200, 4237.949, 4091.795, 4123.077, 4149.744, 0, 0, []
1629740533.0431, 20, 0, 4193.333, 4198.974, 4112.821, 4111.282, 4136.923, 0, 0, []
1629740533.0509, 21, 0, 4222.051, 4253.846, 4134.359, 4152.821, 4178.462, 0, 0, []
1629740533.0587, 22, 0, 4213.333, 4270.769, 4144.615, 4154.359, 4182.051, 0, 0, []
1629740533.0665, 23, 0, 4185.641, 4234.872, 4128.718, 4130.256, 4155.897, 0, 0, []
1629740533.0745, 24, 0, 4192.308, 4244.615, 4130.256, 4142.051, 4159.487, 0, 0, []
1629740533.0824, 25, 0, 4213.333, 4264.615, 4150.769, 4157.949, 4172.821, 0, 0, []
1629740533.0904, 26, 0, 4204.615, 4232.821, 4116.923, 4137.436, 4162.564, 0, 0, []
1629740533.0982, 27, 0, 4183.077, 4211.795, 4116.923, 4117.436, 4150.769, 0, 0, []
1629740533.1062, 28, 0, 4195.385, 4248.205, 4127.692, 4138.462, 4168.718, 0, 0, []
1629740533.1141, 29, 0, 4220.513, 4262.564, 4128.718, 4160, 4186.154, 0, 0, []
1629740533.1221, 30, 0, 4220, 4223.59, 4150.256, 4148.718, 4175.385, 0, 0, []
1629740533.13, 31, 0, 4194.872, 4205.128, 4123.59, 4129.744, 4151.795, 0, 0, []
1629740533.1379, 32, 0, 4180.513, 4218.462, 4123.59, 4131.795, 4151.282, 0, 0, []
1629740533.1458, 33, 0, 4213.846, 4221.026, 4136.923, 4149.231, 4190.769, 0, 0, []
1629740533.1536, 34, 0, 4259.487, 4229.744, 4128.205, 4154.359, 4230.256, 0, 0, []
1629740533.1615, 35, 0, 4272.821, 4231.795, 4124.103, 4131.282, 4241.538, 0, 0, []
1629740533.1693, 36, 0, 4300.513, 4205.128, 4087.692, 4118.974, 4276.41, 0, 0, []
1629740533.1771, 37, 0, 4379.487, 4199.487, 4118.462, 4152.821, 4354.872, 0, 0, []
1629740533.1849, 38, 0, 4426.154, 4229.231, 4147.692, 4170.769, 4395.385, 0, 0, []
1629740533.1928, 39, 0, 4427.692, 4248.205, 4126.154, 4152.821, 4400, 0, 0, []
1629740533.2006, 40, 0, 4452.821, 4241.538, 4151.282, 4153.846, 4429.744, 0, 0, []
1629740533.2085, 41, 0, 4452.308, 4209.231, 4128.205, 4149.231, 4430.769, 0, 0, []
1629740533.2162, 42, 0, 4422.564, 4201.026, 4122.564, 4145.641, 4409.744, 0, 0, []
1629740533.2241, 43, 0, 4424.615, 4237.436, 4152.308, 4168.718, 4424.615, 0, 0, []
1629740533.2319, 44, 0, 4410.769, 4223.077, 4128.205, 4160.513, 4415.385, 0, 0, []
1629740533.2399, 45, 0, 4371.282, 4186.154, 4122.564, 4139.487, 4378.462, 0, 0, []
1629740533.2478, 46, 0, 4373.333, 4221.026, 4127.692, 4165.128, 4383.59, 0, 0, []
1629740533.2557, 47, 0, 4363.077, 4231.795, 4135.385, 4175.385, 4377.436, 0, 0, []
1629740533.2636, 48, 0, 4308.718, 4173.333, 4117.436, 4140.513, 4328.205, 0, 0, []
1629740533.2716, 49, 0, 4297.949, 4177.436, 4099.487, 4144.615, 4313.846, 0, 0, []
1629740533.2795, 50, 0, 4308.205, 4231.795, 4134.359, 4168.205, 4314.359, 0, 0, []
1629740533.2875, 51, 0, 4290.256, 4217.949, 4118.974, 4153.846, 4287.179, 0, 0, []
1629740533.2953, 52, 0, 4282.051, 4193.333, 4115.897, 4142.564, 4272.821, 0, 0, []
1629740533.3033, 53, 0, 4278.462, 4228.205, 4136.41, 4149.744, 4268.205, 0, 0, []
1629740533.3112, 54, 0, 4263.59, 4240.513, 4112.821, 4157.949, 4260.513, 0, 0, []
1629740533.319, 55, 0, 4250.256, 4201.026, 4131.282, 4156.41, 4258.462, 0, 0, []
1629740533.3269, 56, 0, 4248.718, 4217.436, 4142.564, 4152.821, 4261.026, 0, 0, []
1629740533.3346, 57, 0, 4253.846, 4269.231, 4144.103, 4161.026, 4257.436, 0, 0, []
1629740533.3425, 58, 0, 4268.205, 4246.154, 4157.436, 4175.897, 4258.462, 0, 0, []
1629740533.3503, 59, 0, 4257.949, 4205.641, 4118.462, 4163.077, 4244.103, 0, 0, []
1629740533.3582, 60, 0, 4204.615, 4207.692, 4095.897, 4114.872, 4190.769, 0, 0, []
1629740533.366, 61, 0, 4193.846, 4212.821, 4097.436, 4106.154, 4177.949, 0, 0, []
1629740533.3739, 62, 0, 4232.821, 4212.308, 4128.205, 4150.769, 4218.974, 0, 0, []
1629740533.3818, 63, 0, 4241.538, 4213.333, 4143.077, 4168.205, 4225.128, 0, 0, []
1629740533.3898, 64, 0, 4224.615, 4220.513, 4101.026, 4138.974, 4198.974, 450, 0, []
1629740533.3977, 65, 0, 4240, 4245.128, 4137.949, 4130.769, 4205.641, 450, 0, []
1629740533.4057, 66, 0, 4263.077, 4253.333, 4167.179, 4153.846, 4234.359, 16193, 0, []
1629740533.4136, 67, 0, 4231.795, 4217.949, 4123.59, 4143.59, 4215.385, 450, 0, []
1629740533.4215, 68, 0, 4197.949, 4199.487, 4113.333, 4130.256, 4188.718, 16118, 0, []
1629740533.4294, 69, 0, 4224.615, 4236.41, 4118.974, 4160.513, 4215.385, 450, 0, []
1629740533.4374, 70, 0, 4255.385, 4255.385, 4149.744, 4182.051, 4242.051, 16100, 0, []
1629740533.4453, 71, 0, 4232.821, 4226.154, 4130.256, 4151.795, 4218.974, 450, 0, []
1629740533.4533, 72, 0, 4216.41, 4218.462, 4101.538, 4127.692, 4206.667, 450, 0, []
1629740533.4611, 73, 0, 4241.538, 4231.282, 4142.051, 4146.667, 4235.897, 16173, 0, []
1629740533.4689, 74, 0, 4256.41, 4229.744, 4131.282, 4156.41, 4246.667, 450, 0, []
1629740533.4768, 75, 0, 4253.846, 4226.667, 4129.744, 4143.59, 4240, 16198, 0, []
1629740533.4846, 76, 0, 4254.359, 4228.718, 4137.436, 4136.41, 4247.179, 450, 0, []
1629740533.4925, 77, 0, 4274.872, 4220.513, 4117.949, 4135.385, 4270.769, 450, 0, []
1629740533.5003, 78, 0, 4328.718, 4226.667, 4146.667, 4139.487, 4316.41, 450, 0, []
1629740533.5082, 79, 0, 4371.795, 4246.667, 4143.077, 4138.974, 4352.821, 16198, 0, []
1629740533.5161, 80, 0, 4358.462, 4227.692, 4121.026, 4119.487, 4343.59, 450, 0, []
1629740533.5241, 81, 0, 4320.513, 4208.205, 4093.846, 4085.641, 4302.564, 450, 0, []
1629740533.5319, 82, 0, 4309.231, 4220, 4078.462, 4088.718, 4284.103, 450, 0, []
1629740533.5398, 83, 0, 4304.615, 4220, 4129.744, 4134.872, 4285.641, 16198, 0, []
1629740533.5477, 84, 0, 4281.026, 4222.564, 4132.308, 4157.436, 4266.667, 450, 0, []
1629740533.5557, 85, 0, 4239.487, 4236.923, 4119.487, 4143.077, 4227.692, 450, 0, []
1629740533.5636, 86, 0, 4211.795, 4235.385, 4134.359, 4141.026, 4210.256, 450, 0, []
1629740533.5716, 87, 0, 4217.436, 4231.282, 4126.154, 4159.487, 4223.077, 16198, 0, []
1629740533.5794, 88, 0, 4204.615, 4228.205, 4132.308, 4154.872, 4211.282, 450, 0, []
1629740533.5874, 89, 0, 4166.667, 4225.128, 4100, 4131.795, 4171.282, 450, 0, []
1629740533.5953, 90, 0, 4143.077, 4235.897, 4082.564, 4122.051, 4140, 450, 0, []
1629740533.6033, 91, 0, 4133.846, 4231.282, 4105.641, 4124.103, 4129.231, 16198, 0, []
1629740533.6112, 92, 0, 4130.769, 4222.564, 4092.821, 4132.821, 4142.564, 450, 0, []
1629740533.6189, 93, 0, 4151.795, 4243.59, 4131.282, 4161.538, 4175.897, 450, 0, []
1629740533.6268, 94, 0, 4169.231, 4250.769, 4144.103, 4170.769, 4183.59, 450, 0, []
1629740533.6346, 95, 0, 4144.615, 4212.308, 4108.718, 4136.923, 4147.692, 16198, 0, []
1629740533.6425, 96, 0, 4140, 4205.641, 4136.41, 4137.436, 4148.205, 450, 0, []
1629740533.6503, 97, 0, 4169.231, 4241.026, 4152.308, 4176.923, 4185.128, 450, 0, []
1629740533.6581, 98, 0, 4146.154, 4214.872, 4129.744, 4156.41, 4152.821, 450, 0, []
1629740533.6659, 99, 0, 4103.077, 4172.821, 4081.026, 4103.59, 4092.821, 16198, 0, []
1629740533.6738, 100, 0, 4117.436, 4207.692, 4076.41, 4110.256, 4103.077, 450, 0, []
1629740533.6816, 101, 0, 4137.949, 4238.974, 4114.872, 4130.256, 4128.718, 450, 0, []
1629740533.6895, 102, 0, 4119.487, 4200, 4081.538, 4116.923, 4113.333, 450, 0, []
1629740533.6972, 103, 0, 4099.487, 4174.872, 4073.846, 4098.462, 4094.359, 16198, 0, []
1629740533.7052, 104, 0, 4107.692, 4193.846, 4098.974, 4103.59, 4105.128, 450, 0, []
1629740533.7131, 105, 0, 4129.231, 4203.59, 4110.256, 4132.821, 4131.795, 450, 0, []
1629740533.7211, 106, 0, 4137.436, 4222.564, 4130.256, 4144.615, 4134.359, 450, 0, []
1629740533.729, 107, 0, 4140, 4241.026, 4118.462, 4140, 4126.154, 16198, 0, []
1629740533.7369, 108, 0, 4133.333, 4215.897, 4128.205, 4137.436, 4129.231, 450, 0, []
1629740533.7448, 109, 0, 4095.385, 4177.949, 4103.59, 4110.769, 4104.615, 450, 0, []
1629740533.7528, 110, 0, 4069.231, 4171.282, 4054.359, 4082.051, 4064.615, 450, 0, []
1629740533.7607, 111, 0, 4090.256, 4193.333, 4104.615, 4101.538, 4077.436, 16198, 0, []
1629740533.7685, 112, 0, 4105.128, 4209.231, 4112.308, 4121.538, 4107.692, 450, 0, []
1629740533.7764, 113, 0, 4088.718, 4182.051, 4085.128, 4102.564, 4087.692, 450, 0, []
1629740533.7841, 114, 0, 4100.513, 4158.974, 4110.256, 4108.718, 4083.077, 450, 0, []
1629740533.792, 115, 0, 4123.077, 4182.051, 4112.308, 4129.744, 4107.692, 16198, 0, []
1629740533.7998, 116, 0, 4095.897, 4183.077, 4100, 4106.667, 4084.615, 450, 0, []
1629740533.8077, 117, 0, 4084.615, 4163.077, 4086.154, 4102.564, 4073.333, 450, 0, []
1629740533.8155, 118, 0, 4131.282, 4193.846, 4126.667, 4154.872, 4126.667, 450, 0, []
1629740533.8233, 119, 0, 4137.949, 4221.026, 4145.128, 4160, 4136.923, 16198, 0, []
1629740533.8311, 120, 0, 4095.385, 4186.667, 4077.949, 4111.282, 4086.154, 450, 0, []
1629740533.839, 121, 0, 4107.692, 4171.795, 4101.538, 4118.974, 4091.282, 450, 0, []
1629740533.8468, 122, 0, 4152.308, 4210.769, 4139.487, 4158.462, 4137.436, 450, 0, []
1629740533.8548, 123, 0, 4117.436, 4210.256, 4102.051, 4125.641, 4112.308, 16198, 0, []
1629740533.8626, 124, 0, 4078.462, 4188.205, 4078.974, 4089.231, 4071.282, 450, 0, []
1629740533.8706, 125, 0, 4112.308, 4203.077, 4086.154, 4124.615, 4093.846, 450, 0, []
1629740533.8785, 126, 0, 4118.462, 4194.872, 4115.385, 4142.564, 4107.692, 450, 0, []
1629740533.8865, 127, 0, 4080.513, 4163.077, 4087.179, 4113.333, 4083.59, 16198, 0, []
1629740533.8944, 128, 0, 4068.205, 4147.692, 4062.051, 4097.436, 4064.103, 450, 0, []
1629740533.9023, 0, 0, 4071.795, 4143.59, 4076.41, 4090.256, 4057.949, 450, 0, []
1629740533.9102, 1, 0, 4081.538, 4178.462, 4067.692, 4096.923, 4078.462, 450, 0, []
1629740533.9182, 2, 0, 4111.282, 4217.436, 4117.949, 4137.436, 4118.974, 16193, 0, []
1629740533.9261, 3, 0, 4120.513, 4200, 4134.872, 4154.872, 4122.051, 450, 0, []
1629740533.9339, 4, 0, 4097.949, 4171.282, 4099.487, 4130.256, 4098.974, 16118, 0, []
1629740533.9417, 5, 0, 4084.615, 4168.718, 4103.077, 4120.513, 4095.897, 450, 0, []
1629740533.9495, 6, 0, 4086.154, 4177.949, 4081.026, 4124.103, 4095.385, 16103, 0, []
1629740533.9574, 7, 0, 4093.333, 4185.641, 4093.846, 4123.077, 4091.795, 450, 0, []
1629740533.9652, 8, 0, 4105.128, 4197.949, 4116.923, 4132.821, 4108.718, 450, 0, []
1629740533.9731, 9, 0, 4113.846, 4194.872, 4104.103, 4145.641, 4121.026, 16173, 0, []
1629740533.9808, 10, 0, 4107.179, 4182.051, 4103.077, 4134.359, 4098.462, 450, 0, []
1629740533.9887, 11, 0, 4098.974, 4180.513, 4079.487, 4115.385, 4083.59, 16198, 0, []
1629740533.9965, 12, 0, 4098.462, 4183.59, 4089.744, 4124.103, 4103.077, 450, 0, []
1629740534.0044, 13, 0, 4095.385, 4187.179, 4095.385, 4133.333, 4106.154, 450, 0, []
1629740534.0122, 14, 0, 4103.077, 4192.308, 4084.103, 4131.282, 4097.436, 450, 0, []
1629740534.0201, 15, 0, 4130.256, 4213.333, 4135.897, 4152.821, 4127.692, 16198, 0, []
1629740534.028, 16, 0, 4147.179, 4223.59, 4139.487, 4174.359, 4155.897, 0, 0, []
1629740534.036, 17, 0, 4134.359, 4210.256, 4121.538, 4161.538, 4129.744, 0, 0, []
1629740534.0439, 18, 0, 4110.769, 4191.795, 4118.974, 4137.949, 4100.513, 0, 0, []
1629740534.0519, 19, 0, 4096.41, 4185.128, 4094.359, 4122.051, 4098.974, 0, 0, []
1629740534.0597, 20, 0, 4113.846, 4212.821, 4113.846, 4128.718, 4113.333, 0, 0, []
1629740534.0677, 21, 0, 4146.667, 4226.154, 4113.846, 4151.795, 4130.769, 0, 0, []
1629740534.0756, 22, 0, 4143.077, 4200, 4109.744, 4151.282, 4126.667, 0, 0, []
1629740534.0836, 23, 0, 4120.513, 4200, 4117.436, 4133.333, 4112.308, 0, 0, []
1629740534.0915, 24, 0, 4121.026, 4237.436, 4101.538, 4133.846, 4112.308, 0, 0, []
1629740534.0992, 25, 0, 4125.641, 4217.436, 4115.385, 4133.846, 4108.718, 0, 0, []
1629740534.1071, 26, 0, 4106.667, 4164.615, 4082.051, 4106.154, 4084.103, 0, 0, []
1629740534.1149, 27, 0, 4087.179, 4175.385, 4053.846, 4090.256, 4069.744, 0, 0, []
1629740534.1228, 28, 0, 4106.667, 4213.846, 4093.846, 4122.564, 4091.282, 0, 0, []
1629740534.1306, 29, 0, 4145.128, 4232.308, 4104.615, 4159.487, 4121.026, 0, 0, []
1629740534.1385, 30, 0, 4136.923, 4225.128, 4107.692, 4144.103, 4113.333, 0, 0, []
1629740534.1462, 31, 0, 4100.513, 4204.615, 4078.974, 4109.744, 4086.667, 0, 0, []
1629740534.1541, 32, 0, 4103.59, 4188.205, 4069.231, 4121.026, 4092.308, 0, 0, []
1629740534.1619, 33, 0, 4128.205, 4189.744, 4108.718, 4147.692, 4116.923, 0, 0, []
1629740534.1699, 34, 0, 4132.821, 4195.385, 4091.282, 4146.667, 4127.179, 0, 0, []
1629740534.1778, 35, 0, 4120.513, 4193.333, 4080.513, 4133.846, 4114.359, 0, 0, []
1629740534.1857, 36, 0, 4124.103, 4225.128, 4078.462, 4136.41, 4106.154, 0, 0, []
1629740534.1936, 37, 0, 4137.949, 4230.769, 4069.231, 4141.026, 4112.308, 0, 0, []
1629740534.2016, 38, 0, 4114.872, 4174.359, 4070.256, 4115.897, 4098.462, 0, 0, []
1629740534.2095, 39, 0, 4098.974, 4181.026, 4047.692, 4100, 4088.718, 0, 0, []
1629740534.2175, 40, 0, 4131.282, 4245.641, 4088.718, 4127.179, 4112.308, 0, 0, []
1629740534.2253, 41, 0, 4154.359, 4228.718, 4120, 4146.154, 4131.282, 0, 0, []
1629740534.2333, 42, 0, 4144.103, 4177.949, 4093.846, 4134.872, 4129.231, 0, 0, []
1629740534.2412, 43, 0, 4145.641, 4209.231, 4111.795, 4138.462, 4131.795, 0, 0, []
1629740534.249, 44, 0, 4153.333, 4236.923, 4095.385, 4144.103, 4133.333, 0, 0, []
1629740534.2569, 45, 0, 4133.333, 4182.051, 4071.282, 4114.872, 4114.359, 0, 0, []
1629740534.2646, 46, 0, 4129.744, 4157.949, 4084.103, 4105.641, 4115.385, 0, 0, []
1629740534.2725, 47, 0, 4151.282, 4201.026, 4093.333, 4135.897, 4136.41, 0, 0, []
1629740534.2803, 48, 0, 4151.282, 4216.923, 4106.667, 4142.564, 4135.385, 0, 0, []
1629740534.2882, 49, 0, 4148.718, 4207.179, 4087.179, 4128.718, 4137.436, 0, 0, []
1629740534.296, 50, 0, 4162.564, 4217.949, 4106.154, 4139.487, 4152.821, 0, 0, []
1629740534.3038, 51, 0, 4152.821, 4220.513, 4124.615, 4141.538, 4137.436, 0, 0, []
1629740534.3116, 52, 0, 4123.59, 4206.667, 4086.154, 4117.436, 4111.282, 0, 0, []
1629740534.3196, 53, 0, 4140.513, 4221.538, 4112.308, 4134.872, 4133.846, 0, 0, []
1629740534.3275, 54, 0, 4184.615, 4249.231, 4129.744, 4182.564, 4172.821, 0, 0, []
1629740534.3355, 55, 0, 4179.487, 4237.949, 4115.897, 4180, 4163.59, 0, 0, []
1629740534.3433, 56, 0, 4143.59, 4208.718, 4110.769, 4140.513, 4131.282, 0, 0, []
1629740534.3513, 57, 0, 4135.385, 4206.667, 4096.41, 4130.769, 4128.718, 0, 0, []
1629740534.3592, 58, 0, 4136.923, 4218.462, 4112.821, 4145.641, 4132.821, 0, 0, []
1629740534.3672, 59, 0, 4123.077, 4212.821, 4084.103, 4133.846, 4107.692, 0, 0, []
1629740534.3751, 60, 0, 4101.538, 4198.974, 4053.333, 4101.538, 4078.462, 0, 0, []
1629740534.383, 61, 0, 4117.436, 4215.897, 4088.718, 4116.41, 4107.179, 0, 0, []
1629740534.3909, 62, 0, 4175.385, 4256.923, 4111.795, 4182.564, 4170.256, 0, 0, []
1629740534.3987, 63, 0, 4200, 4252.308, 4131.282, 4197.436, 4178.462, 0, 0, []
1629740534.4066, 64, 0, 4166.154, 4218.974, 4105.641, 4149.231, 4142.051, 450, 0, []
1629740534.4144, 65, 0, 4143.077, 4227.179, 4096.923, 4139.487, 4135.897, 450, 0, []
1629740534.4222, 66, 0, 4162.564, 4250.256, 4142.564, 4178.462, 4157.949, 16193, 0, []
1629740534.43, 67, 0, 4159.487, 4225.128, 4108.205, 4165.128, 4145.641, 450, 0, []
1629740534.4379, 68, 0, 4127.692, 4191.282, 4081.538, 4117.436, 4117.949, 16118, 0, []
1629740534.4457, 69, 0, 4140, 4226.154, 4092.308, 4126.667, 4132.308, 450, 0, []
1629740534.4536, 70, 0, 4176.923, 4258.974, 4102.564, 4161.026, 4154.359, 16101, 0, []
1629740534.4614, 71, 0, 4178.462, 4227.692, 4127.692, 4157.949, 4152.821, 450, 0, []
1629740534.4692, 72, 0, 4168.718, 4208.205, 4113.846, 4144.103, 4157.949, 450, 0, []
1629740534.477, 73, 0, 4170.256, 4223.59, 4121.026, 4145.128, 4160, 16174, 0, []
1629740534.485, 74, 0, 4149.744, 4224.615, 4108.718, 4130.769, 4129.744, 450, 0, []
1629740534.4929, 75, 0, 4128.205, 4216.41, 4082.564, 4115.897, 4111.795, 16201, 0, []
1629740534.5008, 76, 0, 4132.821, 4222.051, 4119.487, 4123.077, 4130.769, 450, 0, []
1629740534.5086, 77, 0, 4130.256, 4213.333, 4104.103, 4117.436, 4131.282, 450, 0, []
1629740534.5165, 78, 0, 4120.513, 4194.872, 4091.282, 4104.103, 4112.821, 450, 0, []
1629740534.5244, 79, 0, 4137.949, 4195.897, 4115.897, 4113.846, 4126.667, 16201, 0, []
1629740534.5322, 80, 0, 4159.487, 4209.231, 4122.051, 4134.872, 4157.436, 450, 0, []
1629740534.5402, 81, 0, 4163.077, 4234.872, 4146.667, 4147.179, 4161.026, 450, 0, []
1629740534.548, 82, 0, 4177.949, 4260, 4141.538, 4154.872, 4158.462, 450, 0, []
1629740534.5559, 83, 0, 4168.205, 4227.179, 4131.795, 4134.872, 4147.179, 16201, 0, []
1629740534.5639, 84, 0, 4121.538, 4178.462, 4114.359, 4100, 4118.462, 450, 0, []
1629740534.5718, 85, 0, 4136.923, 4221.538, 4102.564, 4125.128, 4136.41, 450, 0, []
1629740534.5796, 86, 0, 4195.385, 4273.846, 4157.436, 4172.308, 4184.615, 450, 0, []
1629740534.5874, 87, 0, 4200, 4246.154, 4154.872, 4163.59, 4192.821, 16201, 0, []
1629740534.5952, 88, 0, 4177.436, 4224.103, 4134.359, 4146.667, 4179.487, 450, 0, []
1629740534.6031, 89, 0, 4170.256, 4223.077, 4145.641, 4151.795, 4169.744, 450, 0, []
1629740534.6109, 90, 0, 4157.949, 4201.538, 4115.897, 4137.436, 4149.744, 450, 0, []
1629740534.6188, 91, 0, 4139.487, 4212.821, 4116.923, 4110.769, 4136.41, 16201, 0, []
1629740534.6265, 92, 0, 4140.513, 4248.205, 4120, 4116.41, 4152.821, 450, 0, []
1629740534.6345, 93, 0, 4163.077, 4234.359, 4126.154, 4140, 4168.718, 450, 0, []
1629740534.6424, 94, 0, 4181.026, 4225.128, 4151.795, 4149.231, 4169.744, 450, 0, []
1629740534.6504, 95, 0, 4175.385, 4239.487, 4131.282, 4143.077, 4169.744, 16201, 0, []
1629740534.6583, 96, 0, 4161.538, 4229.231, 4142.051, 4139.487, 4170.769, 450, 0, []
1629740534.6662, 97, 0, 4157.436, 4215.897, 4144.103, 4140, 4165.128, 450, 0, []
1629740534.6741, 98, 0, 4147.692, 4224.103, 4114.872, 4123.59, 4140, 450, 0, []
1629740534.6821, 99, 0, 4142.051, 4238.974, 4112.821, 4105.128, 4127.692, 16201, 0, []
1629740534.69, 100, 0, 4153.333, 4232.821, 4097.949, 4116.41, 4152.308, 450, 0, []
1629740534.698, 101, 0, 4142.564, 4203.077, 4106.667, 4124.615, 4150.769, 450, 0, []
1629740534.7058, 102, 0, 4129.231, 4210.256, 4108.718, 4116.41, 4127.179, 450, 0, []
1629740534.7137, 103, 0, 4163.59, 4248.205, 4122.051, 4131.282, 4154.872, 16201, 0, []
1629740534.7216, 104, 0, 4183.59, 4228.718, 4150.769, 4142.564, 4185.641, 450, 0, []
1629740534.7294, 105, 0, 4155.897, 4199.487, 4102.564, 4120, 4157.949, 450, 0, []
1629740534.7373, 106, 0, 4152.821, 4231.282, 4106.667, 4109.231, 4141.538, 450, 0, []
1629740534.745, 107, 0, 4177.949, 4259.487, 4135.385, 4122.564, 4168.718, 16201, 0, []
1629740534.7529, 108, 0, 4168.718, 4228.205, 4105.641, 4121.026, 4171.795, 450, 0, []
1629740534.7607, 109, 0, 4165.128, 4219.487, 4126.667, 4131.795, 4165.641, 450, 0, []
1629740534.7686, 110, 0, 4192.308, 4260.513, 4148.718, 4169.231, 4187.692, 450, 0, []
1629740534.7764, 111, 0, 4188.718, 4260.513, 4157.949, 4177.436, 4190.256, 16201, 0, []
1629740534.7843, 112, 0, 4170.769, 4229.231, 4158.974, 4157.436, 4175.385, 450, 0, []
1629740534.7922, 113, 0, 4175.385, 4232.821, 4141.538, 4144.615, 4176.41, 450, 0, []
1629740534.8002, 114, 0, 4184.615, 4253.846, 4143.077, 4125.641, 4179.487, 450, 0, []
1629740534.8081, 115, 0, 4205.128, 4246.154, 4100, 4094.359, 4194.872, 16201, 0, []
1629740534.8161, 116, 0, 4247.179, 4218.462, 4088.718, 4087.692, 4244.615, 450, 0, []
1629740534.824, 117, 0, 4299.487, 4215.897, 4113.333, 4117.436, 4306.667, 450, 0, []
1629740534.8319, 118, 0, 4347.179, 4238.974, 4101.538, 4142.051, 4352.308, 450, 0, []
1629740534.8398, 119, 0, 4374.359, 4243.077, 4129.744, 4147.692, 4381.538, 16201, 0, []
1629740534.8478, 120, 0, 4362.564, 4225.128, 4122.564, 4136.923, 4378.974, 450, 0, []
1629740534.8557, 121, 0, 4339.487, 4229.231, 4105.641, 4123.59, 4357.436, 450, 0, []
1629740534.8635, 122, 0, 4344.103, 4243.59, 4136.923, 4133.333, 4356.923, 450, 0, []
1629740534.8713, 123, 0, 4353.846, 4246.667, 4134.872, 4141.026, 4360.513, 16201, 0, []
1629740534.8791, 124, 0, 4338.974, 4249.231, 4132.308, 4117.436, 4345.641, 450, 0, []
1629740534.887, 125, 0, 4335.897, 4262.051, 4128.718, 4116.41, 4357.949, 450, 0, []
1629740534.8948, 126, 0, 4337.949, 4252.821, 4146.667, 4155.897, 4372.821, 450, 0, []
1629740534.9027, 127, 0, 4302.564, 4216.41, 4160.513, 4169.744, 4332.308, 16201, 0, []
1629740534.9104, 128, 0, 4275.897, 4221.538, 4125.128, 4160, 4294.872, 450, 0, []
1629740534.9183, 0, 0, 4285.641, 4262.564, 4144.615, 4165.128, 4298.462, 450, 0, []
1629740534.9261, 1, 0, 4284.615, 4262.564, 4138.462, 4165.128, 4290.769, 450, 0, []
1629740534.934, 2, 0, 4259.487, 4235.385, 4096.41, 4144.615, 4266.154, 16193, 0, []
1629740534.9418, 3, 0, 4254.872, 4232.308, 4123.077, 4139.487, 4268.718, 450, 0, []
1629740534.9497, 4, 0, 4278.462, 4245.128, 4152.821, 4164.615, 4294.359, 16118, 0, []
1629740534.9576, 5, 0, 4280.513, 4247.692, 4178.974, 4176.923, 4289.744, 450, 0, []
1629740534.9656, 6, 0, 4252.308, 4244.615, 4161.538, 4151.795, 4255.385, 16102, 0, []
1629740534.9735, 7, 0, 4230.769, 4234.359, 4133.333, 4133.333, 4228.718, 450, 0, []
1629740534.9815, 8, 0, 4223.59, 4226.667, 4157.949, 4146.667, 4224.615, 450, 0, []
1629740534.9893, 9, 0, 4215.385, 4237.949, 4134.359, 4150.769, 4226.154, 16175, 0, []
1629740534.9973, 10, 0, 4202.564, 4251.795, 4109.231, 4128.205, 4215.385, 450, 0, []
1629740535.0052, 11, 0, 4182.564, 4226.154, 4086.154, 4095.385, 4186.667, 16201, 0, []
1629740535.0132, 12, 0, 4176.923, 4189.744, 4076.41, 4089.231, 4181.538, 450, 0, []
1629740535.0211, 13, 0, 4203.59, 4213.333, 4136.41, 4122.564, 4218.462, 450, 0, []
1629740535.0289, 14, 0, 4225.128, 4231.795, 4134.872, 4144.615, 4234.359, 450, 0, []
1629740535.0368, 15, 0, 4220, 4212.821, 4121.026, 4140.513, 4214.872, 16201, 0, []
1629740535.0446, 16, 0, 4213.846, 4224.615, 4122.564, 4142.051, 4208.205, 0, 0, []
1629740535.0525, 17, 0, 4211.795, 4247.179, 4092.308, 4139.487, 4215.385, 0, 0, []
1629740535.0603, 18, 0, 4205.128, 4238.974, 4108.205, 4136.41, 4211.795, 0, 0, []
1629740535.0681, 19, 0, 4197.436, 4228.205, 4102.564, 4139.487, 4193.846, 0, 0, []
1629740535.0759, 20, 0, 4175.897, 4211.795, 4084.103, 4120, 4162.051, 0, 0, []
1629740535.0838, 21, 0, 4172.308, 4212.308, 4100.513, 4111.795, 4170.256, 0, 0, []
1629740535.0916, 22, 0, 4205.641, 4261.538, 4115.897, 4150.256, 4220.513, 0, 0, []
1629740535.0995, 23, 0, 4202.564, 4250.769, 4134.359, 4157.436, 4214.872, 0, 0, []
1629740535.1072, 24, 0, 4170.769, 4196.41, 4111.282, 4123.077, 4174.872, 0, 0, []
1629740535.1152, 25, 0, 4176.923, 4221.026, 4115.897, 4127.179, 4178.974, 0, 0, []
1629740535.1231, 26, 0, 4185.128, 4251.282, 4127.692, 4140, 4187.692, 0, 0, []
1629740535.1311, 27, 0, 4170.769, 4210.256, 4085.641, 4130.256, 4178.462, 0, 0, []
1629740535.139, 28, 0, 4169.231, 4186.667, 4109.231, 4141.026, 4178.462, 0, 0, []
1629740535.1469, 29, 0, 4173.333, 4224.103, 4114.359, 4144.103, 4173.333, 0, 0, []
1629740535.1548, 30, 0, 4178.462, 4253.846, 4093.333, 4124.615, 4173.333, 0, 0, []
1629740535.1628, 31, 0, 4196.41, 4245.128, 4120.513, 4135.385, 4202.564, 0, 0, []
1629740535.1707, 32, 0, 4187.179, 4219.487, 4105.128, 4145.641, 4202.051, 0, 0, []
1629740535.1785, 33, 0, 4159.487, 4221.538, 4105.128, 4134.359, 4171.282, 0, 0, []
1629740535.1864, 34, 0, 4178.462, 4243.59, 4125.641, 4154.359, 4185.641, 0, 0, []
1629740535.1941, 35, 0, 4203.59, 4234.872, 4131.795, 4176.41, 4211.795, 0, 0, []
1629740535.202, 36, 0, 4195.385, 4235.897, 4131.282, 4157.949, 4203.077, 0, 0, []
1629740535.2098, 37, 0, 4196.923, 4256.923, 4109.231, 4150.769, 4198.974, 0, 0, []
1629740535.2177, 38, 0, 4205.128, 4242.051, 4137.949, 4164.103, 4204.103, 0, 0, []
1629740535.2255, 39, 0, 4193.846, 4223.077, 4142.564, 4159.487, 4198.462, 0, 0, []
1629740535.2333, 40, 0, 4181.538, 4230.769, 4113.846, 4152.821, 4196.923, 0, 0, []
1629740535.2411, 41, 0, 4185.128, 4237.949, 4132.308, 4157.949, 4195.897, 0, 0, []
1629740535.249, 42, 0, 4183.077, 4251.795, 4113.846, 4153.333, 4181.026, 0, 0, []
1629740535.2568, 43, 0, 4154.359, 4236.41, 4097.949, 4128.718, 4162.051, 0, 0, []
1629740535.2648, 44, 0, 4135.897, 4193.846, 4098.462, 4114.359, 4159.487, 0, 0, []
1629740535.2726, 45, 0, 4167.179, 4217.436, 4105.641, 4144.615, 4182.051, 0, 0, []
1629740535.2806, 46, 0, 4201.026, 4263.077, 4144.615, 4177.436, 4202.564, 0, 0, []
1629740535.2885, 47, 0, 4194.359, 4245.128, 4127.692, 4161.538, 4196.41, 0, 0, []
1629740535.2965, 48, 0, 4169.744, 4220, 4121.026, 4130.256, 4174.359, 0, 0, []
1629740535.3044, 49, 0, 4165.128, 4247.692, 4137.436, 4131.795, 4173.333, 0, 0, []
1629740535.3123, 50, 0, 4176.41, 4274.872, 4116.923, 4148.205, 4184.615, 0, 0, []
1629740535.3202, 51, 0, 4162.051, 4233.333, 4111.795, 4139.487, 4164.103, 0, 0, []
1629740535.3282, 52, 0, 4137.949, 4194.872, 4087.692, 4115.385, 4133.846, 0, 0, []
1629740535.3361, 53, 0, 4136.41, 4225.128, 4097.436, 4120, 4139.487, 0, 0, []
1629740535.344, 54, 0, 4141.538, 4242.051, 4122.051, 4143.077, 4153.333, 0, 0, []
1629740535.3518, 55, 0, 4138.974, 4207.692, 4086.154, 4126.667, 4143.59, 0, 0, []
1629740535.3596, 56, 0, 4140, 4211.795, 4090.256, 4091.282, 4137.949, 0, 0, []
1629740535.3675, 57, 0, 4156.41, 4248.205, 4105.641, 4108.205, 4155.897, 0, 0, []
1629740535.3753, 58, 0, 4181.538, 4241.538, 4130.256, 4157.949, 4176.41, 0, 0, []
1629740535.3832, 59, 0, 4192.821, 4238.462, 4148.205, 4168.205, 4181.538, 0, 0, []
1629740535.3909, 60, 0, 4178.974, 4246.667, 4102.564, 4138.462, 4170.256, 0, 0, []
1629740535.3988, 61, 0, 4148.205, 4216.923, 4100, 4118.974, 4147.179, 0, 0, []
1629740535.4066, 62, 0, 4128.205, 4203.59, 4097.436, 4119.487, 4127.692, 0, 0, []
1629740535.4146, 63, 0, 4133.846, 4215.385, 4089.231, 4124.103, 4132.308, 0, 0, []
1629740535.4225, 64, 0, 4152.821, 4207.179, 4114.359, 4122.564, 4149.744, 450, 0, []
1629740535.4304, 65, 0, 4160, 4227.179, 4107.179, 4116.923, 4160.513, 450, 0, []
1629740535.4383, 66, 0, 4158.974, 4261.538, 4125.641, 4122.051, 4162.051, 16193, 0, []
1629740535.4463, 67, 0, 4164.103, 4234.359, 4121.026, 4123.077, 4156.923, 450, 0, []
1629740535.4542, 68, 0, 4155.385, 4213.333, 4097.949, 4107.179, 4143.077, 16121, 0, []
1629740535.4622, 69, 0, 4147.179, 4242.051, 4128.718, 4112.308, 4143.59, 450, 0, []
1629740535.47, 70, 0, 4163.59, 4247.179, 4124.615, 4142.564, 4162.051, 16098, 0, []
1629740535.478, 71, 0, 4181.026, 4234.872, 4122.051, 4152.821, 4166.154, 450, 0, []
1629740535.4859, 72, 0, 4179.487, 4250.769, 4117.949, 4134.872, 4160.513, 450, 0, []
1629740535.4937, 73, 0, 4153.846, 4244.103, 4094.872, 4106.154, 4145.641, 16175, 0, []
1629740535.5016, 74, 0, 4135.897, 4217.436, 4099.487, 4094.872, 4132.308, 450, 0, []
1629740535.5095, 75, 0, 4167.179, 4248.718, 4098.462, 4124.615, 4158.974, 16201, 0, []
1629740535.5173, 76, 0, 4189.744, 4267.179, 4129.231, 4148.718, 4184.615, 450, 0, []
1629740535.5253, 77, 0, 4164.615, 4230.256, 4123.59, 4133.333, 4168.718, 450, 0, []
1629740535.5332, 78, 0, 4161.538, 4243.077, 4083.59, 4131.282, 4163.59, 450, 0, []
1629740535.541, 79, 0, 4194.359, 4285.128, 4120, 4159.487, 4188.718, 16201, 0, []
1629740535.5489, 80, 0, 4187.179, 4258.462, 4121.026, 4156.923, 4181.538, 450, 0, []
1629740535.5566, 81, 0, 4144.615, 4217.436, 4101.026, 4121.026, 4143.59, 450, 0, []
1629740535.5646, 82, 0, 4143.59, 4246.667, 4109.231, 4121.538, 4148.718, 450, 0, []
1629740535.5725, 83, 0, 4174.872, 4279.487, 4113.333, 4157.436, 4180.513, 16201, 0, []
1629740535.5805, 84, 0, 4166.154, 4257.949, 4137.949, 4152.821, 4172.308, 450, 0, []
1629740535.5884, 85, 0, 4136.41, 4223.077, 4123.59, 4120, 4149.744, 450, 0, []
1629740535.5963, 86, 0, 4141.026, 4230.769, 4129.744, 4117.949, 4156.41, 450, 0, []
1629740535.6042, 87, 0, 4165.128, 4268.718, 4151.282, 4137.436, 4175.897, 16201, 0, []
1629740535.6122, 88, 0, 4173.333, 4269.231, 4122.564, 4148.205, 4182.051, 450, 0, []
1629740535.6201, 89, 0, 4164.103, 4230.769, 4124.615, 4150.256, 4175.897, 450, 0, []
1629740535.6281, 90, 0, 4159.487, 4235.385, 4107.692, 4156.923, 4173.333, 450, 0, []
1629740535.6359, 91, 0, 4160.513, 4271.795, 4104.615, 4160.513, 4171.282, 16201, 0, []
1629740535.6437, 92, 0, 4147.179, 4267.179, 4119.487, 4136.41, 4149.744, 450, 0, []
1629740535.6516, 93, 0, 4126.154, 4241.026, 4095.897, 4106.154, 4134.872, 450, 0, []
1629740535.6594, 94, 0, 4128.205, 4241.538, 4124.615, 4111.795, 4146.154, 450, 0, []
1629740535.6673, 95, 0, 4141.538, 4265.641, 4125.128, 4118.974, 4146.154, 16201, 0, []
1629740535.675, 96, 0, 4146.154, 4271.282, 4116.923, 4113.333, 4145.128, 450, 0, []
1629740535.6829, 97, 0, 4164.103, 4247.692, 4154.872, 4145.641, 4178.462, 450, 0, []
1629740535.6907, 98, 0, 4178.974, 4241.026, 4129.744, 4176.923, 4195.897, 450, 0, []
1629740535.6986, 99, 0, 4162.564, 4273.846, 4113.846, 4157.949, 4162.051, 16201, 0, []
1629740535.7064, 100, 0, 4152.821, 4288.718, 4118.974, 4142.564, 4144.615, 450, 0, []
1629740535.7143, 101, 0, 4161.026, 4261.026, 4115.897, 4147.179, 4159.487, 450, 0, []
1629740535.7222, 102, 0, 4165.641, 4256.923, 4121.538, 4148.205, 4168.205, 450, 0, []
1629740535.7302, 103, 0, 4175.385, 4281.026, 4105.641, 4154.359, 4176.923, 16201, 0, []
1629740535.7381, 104, 0, 4176.923, 4263.59, 4130.769, 4152.308, 4180, 450, 0, []
1629740535.7461, 105, 0, 4152.821, 4216.923, 4129.231, 4129.231, 4167.179, 450, 0, []
1629740535.7539, 106, 0, 4137.949, 4221.538, 4106.154, 4125.641, 4158.974, 450, 0, []
1629740535.7619, 107, 0, 4151.282, 4258.974, 4143.077, 4152.308, 4168.205, 16201, 0, []
1629740535.7698, 108, 0, 4166.667, 4258.462, 4135.897, 4160, 4181.538, 450, 0, []
1629740535.7778, 109, 0, 4164.103, 4222.564, 4119.487, 4144.103, 4180.513, 450, 0, []
1629740535.7857, 110, 0, 4164.103, 4237.436, 4126.154, 4150.769, 4183.077, 450, 0, []
1629740535.7936, 111, 0, 4184.615, 4297.436, 4135.385, 4173.333, 4197.949, 16201, 0, []
1629740535.8015, 112, 0, 4183.077, 4286.154, 4150.769, 4158.974, 4193.333, 450, 0, []
1629740535.8093, 113, 0, 4153.333, 4236.41, 4112.308, 4125.641, 4168.205, 450, 0, []
1629740535.8172, 114, 0, 4152.308, 4253.846, 4121.026, 4140.513, 4165.641, 450, 0, []
1629740535.825, 115, 0, 4170.769, 4285.128, 4152.821, 4164.103, 4171.282, 16201, 0, []
1629740535.8328, 116, 0, 4154.872, 4255.897, 4118.974, 4139.487, 4153.333, 450, 0, []
1629740535.8406, 117, 0, 4138.462, 4232.308, 4121.538, 4116.923, 4143.077, 450, 0, []
1629740535.8485, 118, 0, 4157.436, 4238.974, 4121.538, 4132.308, 4156.923, 450, 0, []
1629740535.8563, 119, 0, 4164.103, 4226.154, 4120.513, 4141.538, 4162.051, 16201, 0, []
1629740535.8642, 120, 0, 4148.205, 4224.103, 4129.744, 4124.103, 4155.385, 450, 0, []
1629740535.872, 121, 0, 4147.179, 4244.103, 4111.795, 4116.923, 4159.487, 450, 0, []
1629740535.8799, 122, 0, 4149.231, 4242.564, 4129.744, 4125.128, 4160.513, 450, 0, []
1629740535.8878, 123, 0, 4145.128, 4239.487, 4128.205, 4133.333, 4149.744, 16201, 0, []
1629740535.8958, 124, 0, 4150.769, 4252.308, 4132.821, 4145.641, 4156.923, 450, 0, []
1629740535.9037, 125, 0, 4157.436, 4248.205, 4152.821, 4154.359, 4175.385, 450, 0, []
1629740535.9117, 126, 0, 4157.949, 4244.103, 4125.128, 4156.41, 4177.949, 450, 0, []
1629740535.9195, 127, 0, 4156.41, 4247.692, 4137.949, 4154.872, 4165.641, 16201, 0, []
1629740535.9275, 128, 0, 4148.718, 4243.077, 4139.487, 4143.59, 4161.026, 450, 0, []
1629740535.9354, 0, 0, 4142.564, 4237.949, 4124.615, 4136.923, 4163.59, 450, 0, []
1629740535.9432, 1, 0, 4158.974, 4234.872, 4138.462, 4144.103, 4163.59, 450, 0, []
1629740535.9511, 2, 0, 4176.41, 4228.718, 4118.462, 4144.103, 4162.051, 16193, 0, []
1629740535.9588, 3, 0, 4171.795, 4233.846, 4136.41, 4138.462, 4163.59, 450, 0, []
1629740535.9667, 4, 0, 4156.41, 4264.103, 4144.615, 4135.385, 4164.103, 16121, 0, []
1629740535.9745, 5, 0, 4140.513, 4250.256, 4112.308, 4121.026, 4148.718, 450, 0, []
1629740535.9824, 6, 0, 4143.59, 4214.872, 4122.051, 4120, 4137.436, 16098, 0, []
1629740535.9902, 7, 0, 4169.744, 4244.615, 4126.154, 4143.077, 4151.282, 450, 0, []
1629740535.998, 8, 0, 4169.744, 4270.769, 4134.872, 4148.205, 4157.949, 450, 0, []
1629740536.0058, 9, 0, 4150.769, 4227.692, 4120, 4132.821, 4153.333, 16175, 0, []
1629740536.0137, 10, 0, 4157.949, 4196.41, 4102.564, 4131.795, 4153.846, 450, 0, []
1629740536.0215, 11, 0, 4169.744, 4239.487, 4142.051, 4144.615, 4159.487, 16201, 0, []
1629740536.0295, 12, 0, 4176.41, 4270.769, 4141.026, 4151.795, 4177.436, 450, 0, []
1629740536.0373, 13, 0, 4189.231, 4234.359, 4142.051, 4153.333, 4194.359, 450, 0, []
1629740536.0453, 14, 0, 4196.923, 4222.564, 4145.641, 4154.359, 4196.923, 450, 0, []
1629740536.0532, 15, 0, 4204.615, 4254.872, 4131.795, 4161.538, 4203.077, 16201, 0, []
1629740536.0612, 16, 0, 4235.897, 4251.282, 4159.487, 4172.821, 4236.923, 0, 0, []
1629740536.0691, 17, 0, 4276.41, 4240, 4150.256, 4177.949, 4284.615, 0, 0, []
1629740536.077, 18, 0, 4295.385, 4256.41, 4138.462, 4165.641, 4310.256, 0, 0, []
1629740536.0849, 19, 0, 4315.897, 4251.795, 4137.436, 4154.872, 4330.256, 0, 0, []
1629740536.0929, 20, 0, 4357.436, 4242.051, 4123.077, 4171.795, 4374.359, 0, 0, []
1629740536.1008, 21, 0, 4389.231, 4251.282, 4151.795, 4187.692, 4407.179, 0, 0, []
1629740536.1086, 22, 0, 4390.256, 4233.846, 4139.487, 4174.872, 4402.564, 0, 0, []
1629740536.1164, 23, 0, 4381.026, 4205.128, 4130.769, 4165.641, 4398.462, 0, 0, []
1629740536.1242, 24, 0, 4381.538, 4230.256, 4152.821, 4175.897, 4405.641, 0, 0, []
1629740536.1321, 25, 0, 4374.872, 4262.564, 4134.359, 4175.897, 4388.718, 0, 0, []
1629740536.1399, 26, 0, 4348.718, 4249.231, 4144.103, 4166.667, 4356.923, 0, 0, []
1629740536.1478, 27, 0, 4321.538, 4239.487, 4133.846, 4165.128, 4343.59, 0, 0, []
1629740536.1555, 28, 0, 4305.641, 4251.795, 4125.641, 4170.256, 4336.41, 0, 0, []
1629740536.1634, 29, 0, 4295.897, 4250.256, 4143.077, 4173.333, 4315.897, 0, 0, []
1629740536.1712, 30, 0, 4280.513, 4243.59, 4122.564, 4162.564, 4293.333, 0, 0, []
1629740536.1791, 31, 0, 4268.205, 4266.667, 4142.051, 4161.026, 4284.615, 0, 0, []
1629740536.1869, 32, 0, 4271.795, 4283.59, 4152.308, 4175.385, 4286.667, 0, 0, []
1629740536.1947, 33, 0, 4268.718, 4250.256, 4140, 4178.462, 4285.128, 0, 0, []
1629740536.2025, 34, 0, 4259.487, 4224.615, 4152.308, 4175.897, 4289.231, 0, 0, []
1629740536.2105, 35, 0, 4270.256, 4253.846, 4135.385, 4186.667, 4300.513, 0, 0, []
1629740536.2184, 36, 0, 4277.436, 4281.026, 4142.564, 4188.205, 4292.821, 0, 0, []
1629740536.2264, 37, 0, 4261.026, 4262.564, 4135.897, 4174.872, 4271.795, 0, 0, []
1629740536.2343, 38, 0, 4244.103, 4251.282, 4124.103, 4168.205, 4258.974, 0, 0, []
1629740536.2422, 39, 0, 4247.179, 4256.41, 4155.385, 4171.795, 4262.564, 0, 0, []
1629740536.2501, 40, 0, 4253.846, 4244.103, 4146.667, 4174.872, 4271.795, 0, 0, []
1629740536.2581, 41, 0, 4240.513, 4238.974, 4152.308, 4168.718, 4263.077, 0, 0, []
1629740536.266, 42, 0, 4215.385, 4258.462, 4150.256, 4155.385, 4234.872, 0, 0, []
1629740536.2738, 43, 0, 4207.692, 4264.103, 4124.615, 4150.256, 4215.897, 0, 0, []
1629740536.2816, 44, 0, 4212.308, 4248.205, 4141.538, 4142.051, 4212.308, 0, 0, []
1629740536.2894, 45, 0, 4202.564, 4248.718, 4122.564, 4122.051, 4203.59, 0, 0, []
1629740536.2973, 46, 0, 4198.462, 4249.744, 4121.538, 4124.615, 4203.59, 0, 0, []
1629740536.3051, 47, 0, 4221.026, 4239.487, 4147.692, 4157.436, 4225.641, 0, 0, []
1629740536.313, 48, 0, 4241.538, 4252.308, 4150.769, 4175.385, 4241.538, 0, 0, []
1629740536.3207, 49, 0, 4228.205, 4264.615, 4159.487, 4157.436, 4228.718, 0, 0, []
1629740536.3286, 50, 0, 4202.564, 4250.256, 4124.615, 4126.667, 4212.308, 0, 0, []
1629740536.3364, 51, 0, 4201.026, 4244.103, 4125.641, 4124.615, 4217.436, 0, 0, []
1629740536.3444, 52, 0, 4210.769, 4261.538, 4148.718, 4138.462, 4220, 0, 0, []
1629740536.3523, 53, 0, 4211.282, 4249.744, 4127.179, 4137.436, 4211.795, 0, 0, []
1629740536.3602, 54, 0, 4208.718, 4226.154, 4143.077, 4134.359, 4215.897, 0, 0, []
1629740536.3681, 55, 0, 4209.744, 4260.513, 4135.897, 4143.59, 4229.744, 0, 0, []
1629740536.3761, 56, 0, 4205.641, 4286.154, 4125.128, 4142.051, 4223.59, 0, 0, []
1629740536.384, 57, 0, 4202.051, 4252.308, 4135.897, 4134.872, 4207.179, 0, 0, []
1629740536.392, 58, 0, 4205.128, 4227.179, 4125.128, 4141.538, 4205.128, 0, 0, []
1629740536.3998, 59, 0, 4198.462, 4242.564, 4149.744, 4144.103, 4203.59, 0, 0, []
1629740536.4078, 60, 0, 4191.282, 4265.128, 4143.59, 4139.487, 4202.564, 0, 0, []
1629740536.4157, 61, 0, 4198.462, 4258.462, 4126.667, 4141.026, 4209.744, 0, 0, []
1629740536.4237, 62, 0, 4204.615, 4236.923, 4133.333, 4137.949, 4206.667, 0, 0, []
1629740536.4316, 63, 0, 4200.513, 4243.077, 4111.795, 4128.205, 4193.333, 0, 0, []
1629740536.4393, 64, 0, 4191.282, 4248.718, 4131.282, 4128.205, 4187.692, 450, 0, []
1629740536.4472, 65, 0, 4191.795, 4239.487, 4141.026, 4146.154, 4202.564, 450, 0, []
1629740536.455, 66, 0, 4200, 4258.974, 4132.821, 4163.077, 4208.718, 16192, 0, []
1629740536.4629, 67, 0, 4196.41, 4282.051, 4137.436, 4152.821, 4187.692, 450, 0, []
1629740536.4707, 68, 0, 4199.487, 4268.718, 4112.308, 4139.487, 4182.564, 16119, 0, []
1629740536.4785, 69, 0, 4217.436, 4257.436, 4138.462, 4154.359, 4213.846, 450, 0, []
1629740536.4863, 70, 0, 4221.538, 4263.59, 4143.077, 4161.538, 4229.231, 16097, 0, []
1629740536.4942, 71, 0, 4204.615, 4250.256, 4107.179, 4137.436, 4205.641, 450, 0, []
1629740536.502, 72, 0, 4200, 4231.282, 4124.615, 4122.564, 4189.744, 450, 0, []
1629740536.5099, 73, 0, 4204.615, 4217.949, 4115.897, 4124.103, 4198.462, 16175, 0, []
1629740536.5177, 74, 0, 4190.256, 4216.41, 4107.692, 4120, 4193.333, 450, 0, []
1629740536.5255, 75, 0, 4183.077, 4240, 4108.205, 4119.487, 4182.051, 16201, 0, []
1629740536.5335, 76, 0, 4186.667, 4240.513, 4097.949, 4119.487, 4178.462, 450, 0, []
1629740536.5414, 77, 0, 4183.077, 4218.462, 4123.077, 4115.385, 4170.769, 450, 0, []
1629740536.5493, 78, 0, 4186.154, 4226.667, 4122.051, 4117.436, 4175.897, 450, 0, []
1629740536.5573, 79, 0, 4193.846, 4249.744, 4130.256, 4129.744, 4186.667, 16201, 0, []
1629740536.5651, 80, 0, 4188.205, 4242.564, 4125.128, 4137.949, 4179.487, 450, 0, []
1629740536.5731, 81, 0, 4176.923, 4228.718, 4098.462, 4133.846, 4164.103, 450, 0, []
1629740536.581, 82, 0, 4177.436, 4246.667, 4127.179, 4127.692, 4168.205, 450, 0, []
1629740536.5888, 83, 0, 4170.256, 4250.769, 4111.282, 4117.949, 4175.897, 16201, 0, []
1629740536.5967, 84, 0, 4162.051, 4228.718, 4097.949, 4109.744, 4166.667, 450, 0, []
1629740536.6044, 85, 0, 4177.436, 4224.103, 4120, 4117.436, 4167.692, 450, 0, []
1629740536.6123, 86, 0, 4190.769, 4224.615, 4113.846, 4126.154, 4179.487, 450, 0, []
1629740536.6201, 87, 0, 4183.077, 4213.846, 4130.769, 4122.051, 4184.615, 16201, 0, []
1629740536.628, 88, 0, 4178.974, 4226.667, 4116.923, 4124.103, 4183.59, 450, 0, []
1629740536.6358, 89, 0, 4166.667, 4252.308, 4095.897, 4126.667, 4166.667, 450, 0, []
1629740536.6436, 90, 0, 4149.231, 4246.154, 4096.923, 4118.974, 4142.564, 450, 0, []
1629740536.6514, 91, 0, 4167.179, 4243.077, 4096.41, 4126.667, 4155.385, 16201, 0, []
1629740536.6594, 92, 0, 4182.051, 4242.051, 4130.256, 4135.897, 4177.949, 450, 0, []
1629740536.6673, 93, 0, 4166.667, 4214.359, 4113.846, 4123.077, 4166.154, 450, 0, []
1629740536.6753, 94, 0, 4169.231, 4199.487, 4099.487, 4118.462, 4156.923, 450, 0, []
1629740536.6831, 95, 0, 4181.026, 4209.231, 4123.59, 4120, 4165.641, 16201, 0, []
1629740536.6911, 96, 0, 4167.692, 4216.923, 4100, 4106.667, 4164.615, 450, 0, []
1629740536.699, 97, 0, 4154.872, 4212.821, 4108.718, 4106.667, 4156.923, 450, 0, []
1629740536.707, 98, 0, 4160.513, 4222.051, 4109.744, 4120.513, 4157.436, 450, 0, []
1629740536.7149, 99, 0, 4162.051, 4246.154, 4091.795, 4117.436, 4160, 16201, 0, []
1629740536.7228, 100, 0, 4162.564, 4254.872, 4114.872, 4114.359, 4168.718, 450, 0, []
1629740536.7307, 101, 0, 4168.205, 4231.795, 4103.59, 4123.59, 4176.923, 450, 0, []
1629740536.7385, 102, 0, 4165.641, 4205.128, 4104.615, 4127.692, 4169.231, 450, 0, []
1629740536.7464, 103, 0, 4168.205, 4221.026, 4108.718, 4133.333, 4167.692, 16201, 0, []
1629740536.7542, 104, 0, 4179.487, 4256.923, 4103.077, 4141.538, 4177.949, 450, 0, []
1629740536.762, 105, 0, 4182.564, 4245.641, 4120.513, 4141.538, 4182.564, 450, 0, []
1629740536.7698, 106, 0, 4180.513, 4220, 4103.077, 4143.59, 4175.897, 450, 0, []
1629740536.7777, 107, 0, 4176.923, 4235.897, 4108.718, 4146.154, 4158.974, 16201, 0, []
1629740536.7855, 108, 0, 4170.256, 4258.462, 4105.128, 4129.231, 4149.744, 450, 0, []
1629740536.7934, 109, 0, 4167.692, 4241.026, 4086.154, 4118.462, 4165.641, 450, 0, []
1629740536.8011, 110, 0, 4165.641, 4211.795, 4114.359, 4128.718, 4168.205, 450, 0, []
1629740536.8091, 111, 0, 4163.077, 4207.692, 4098.462, 4128.205, 4143.077, 16201, 0, []
1629740536.817, 112, 0, 4171.795, 4220, 4101.026, 4124.615, 4144.615, 450, 0, []
1629740536.825, 113, 0, 4182.564, 4235.897, 4112.821, 4134.359, 4170.769, 450, 0, []
1629740536.8329, 114, 0, 4180.513, 4228.718, 4086.667, 4137.949, 4170.256, 450, 0, []
1629740536.8408, 115, 0, 4185.641, 4225.128, 4110.769, 4142.051, 4162.051, 16201, 0, []
1629740536.8487, 116, 0, 4200, 4250.769, 4113.333, 4155.385, 4174.872, 450, 0, []
1629740536.8567, 117, 0, 4190.256, 4236.923, 4108.718, 4152.308, 4176.923, 450, 0, []
1629740536.8646, 118, 0, 4171.795, 4207.179, 4112.308, 4139.487, 4159.487, 450, 0, []
1629740536.8726, 119, 0, 4172.308, 4233.846, 4090.256, 4138.462, 4146.154, 16201, 0, []
1629740536.8804, 120, 0, 4161.538, 4252.821, 4099.487, 4123.077, 4131.795, 450, 0, []
1629740536.8882, 121, 0, 4143.077, 4228.718, 4090.256, 4106.154, 4129.231, 450, 0, []
1629740536.8961, 122, 0, 4146.154, 4224.103, 4096.41, 4115.385, 4142.564, 450, 0, []
1629740536.9039, 123, 0, 4158.462, 4218.462, 4116.923, 4122.051, 4145.128, 16201, 0, []
1629740536.9118, 124, 0, 4165.128, 4206.154, 4091.795, 4113.333, 4140, 450, 0, []
1629740536.9196, 125, 0, 4173.333, 4225.641, 4106.667, 4117.436, 4150.769, 450, 0, []
1629740536.9274, 126, 0, 4177.949, 4238.462, 4105.641, 4128.205, 4158.974, 450, 0, []
1629740536.9352, 127, 0, 4166.154, 4220, 4096.41, 4121.026, 4141.026, 16201, 0, []
1629740536.9431, 128, 0, 4163.077, 4222.564, 4121.538, 4123.077, 4133.333, 450, 0, []
1629740536.9509, 0, 0, 4171.795, 4239.487, 4103.077, 4137.436, 4150.256, 450, 0, []
1629740536.9589, 1, 0, 4169.231, 4225.128, 4099.487, 4140, 4156.41, 450, 0, []
1629740536.9667, 2, 0, 4170.256, 4219.487, 4096.41, 4137.949, 4154.872, 16192, 0, []
1629740536.9747, 3, 0, 4179.487, 4224.103, 4098.974, 4139.487, 4161.538, 450, 0, []
1629740536.9826, 4, 0, 4180.513, 4220.513, 4121.538, 4137.949, 4166.154, 16119, 0, []
1629740536.9906, 5, 0, 4173.846, 4229.744, 4095.897, 4131.282, 4161.538, 450, 0, []
1629740536.9985, 6, 0, 4171.795, 4237.436, 4102.051, 4127.179, 4153.846, 16101, 0, []
1629740537.0064, 7, 0, 4166.667, 4224.615, 4093.846, 4118.462, 4140, 450, 0, []
1629740537.0143, 8, 0, 4160.513, 4207.179, 4064.615, 4116.41, 4135.385, 450, 0, []
1629740537.0223, 9, 0, 4172.821, 4218.974, 4100, 4145.128, 4156.41, 16175, 0, []
1629740537.0302, 10, 0, 4192.821, 4227.692, 4105.128, 4170.769, 4173.333, 450, 0, []
1629740537.0382, 11, 0, 4190.769, 4215.385, 4108.205, 4162.051, 4165.641, 16201, 0, []
1629740537.046, 12, 0, 4179.487, 4228.718, 4113.333, 4149.744, 4165.128, 450, 0, []
1629740537.0538, 13, 0, 4184.103, 4257.436, 4105.641, 4157.949, 4177.949, 450, 0, []
1629740537.0617, 14, 0, 4181.026, 4240, 4116.923, 4146.667, 4163.59, 450, 0, []
1629740537.0695, 15, 0, 4170.769, 4196.41, 4082.564, 4118.462, 4146.154, 16201, 0, []
1629740537.0774, 16, 0, 4182.564, 4210.256, 4086.154, 4126.667, 4166.667, 0, 0, []
1629740537.0851, 17, 0, 4204.615, 4246.154, 4116.41, 4155.897, 4190.769, 0, 0, []
1629740537.093, 18, 0, 4206.667, 4226.667, 4102.564, 4157.436, 4189.744, 0, 0, []
1629740537.1008, 19, 0, 4195.385, 4202.564, 4112.821, 4139.487, 4180, 0, 0, []
1629740537.1087, 20, 0, 4195.385, 4228.205, 4104.103, 4133.333, 4180, 0, 0, []
1629740537.1165, 21, 0, 4198.974, 4241.538, 4106.154, 4142.564, 4187.692, 0, 0, []
1629740537.1243, 22, 0, 4200, 4220.513, 4115.385, 4152.308, 4187.179, 0, 0, []
1629740537.1321, 23, 0, 4203.59, 4213.333, 4096.41, 4158.974, 4182.564, 0, 0, []
1629740537.1401, 24, 0, 4195.385, 4225.641, 4116.41, 4152.308, 4176.41, 0, 0, []
1629740537.148, 25, 0, 4185.128, 4237.436, 4112.308, 4146.154, 4181.026, 0, 0, []
1629740537.156, 26, 0, 4198.462, 4240, 4110.769, 4155.897, 4193.333, 0, 0, []
1629740537.1638, 27, 0, 4210.256, 4236.41, 4123.077, 4156.41, 4190.769, 0, 0, []
1629740537.1718, 28, 0, 4203.59, 4225.641, 4091.795, 4138.974, 4176.41, 0, 0, []
1629740537.1797, 29, 0, 4200.513, 4219.487, 4106.667, 4132.308, 4180, 0, 0, []
1629740537.1877, 30, 0, 4208.718, 4236.41, 4115.897, 4144.615, 4200.513, 0, 0, []
1629740537.1956, 31, 0, 4213.846, 4246.154, 4114.359, 4161.026, 4211.795, 0, 0, []
1629740537.2035, 32, 0, 4210.769, 4219.487, 4130.769, 4167.179, 4207.179, 0, 0, []
1629740537.2114, 33, 0, 4213.846, 4207.692, 4109.744, 4168.718, 4206.154, 0, 0, []
1629740537.2192, 34, 0, 4227.179, 4228.718, 4126.667, 4177.436, 4217.436, 0, 0, []
1629740537.2271, 35, 0, 4232.821, 4241.538, 4131.795, 4177.436, 4227.179, 0, 0, []
1629740537.2349, 36, 0, 4216.923, 4240, 4115.385, 4158.974, 4216.923, 0, 0, []
1629740537.2427, 37, 0, 4208.718, 4233.333, 4136.41, 4156.923, 4202.564, 0, 0, []
1629740537.2505, 38, 0, 4225.641, 4216.41, 4122.564, 4171.795, 4203.59, 0, 0, []
1629740537.2584, 39, 0, 4231.282, 4211.795, 4128.205, 4173.333, 4204.103, 0, 0, []
1629740537.2662, 40, 0, 4206.667, 4233.333, 4128.205, 4154.872, 4190.769, 0, 0, []
1629740537.2742, 41, 0, 4173.333, 4237.436, 4093.846, 4122.051, 4160.513, 0, 0, []
1629740537.2821, 42, 0, 4173.846, 4227.179, 4094.359, 4112.821, 4149.744, 0, 0, []
1629740537.29, 43, 0, 4210.769, 4231.282, 4101.538, 4144.103, 4185.128, 0, 0, []
1629740537.2979, 44, 0, 4220.513, 4228.205, 4136.923, 4155.897, 4206.154, 0, 0, []
1629740537.3059, 45, 0, 4192.821, 4222.051, 4135.385, 4133.333, 4184.103, 0, 0, []
1629740537.3138, 46, 0, 4187.179, 4232.308, 4097.949, 4127.179, 4171.795, 0, 0, []
1629740537.3218, 47, 0, 4212.308, 4230.769, 4121.538, 4151.282, 4191.795, 0, 0, []
1629740537.3296, 48, 0, 4214.872, 4216.41, 4110.256, 4160.513, 4197.436, 0, 0, []
1629740537.3376, 49, 0, 4183.59, 4227.179, 4095.897, 4138.462, 4169.744, 0, 0, []
1629740537.3455, 50, 0, 4173.333, 4250.769, 4101.538, 4125.128, 4158.974, 0, 0, []
1629740537.3535, 51, 0, 4191.282, 4243.59, 4090.769, 4134.872, 4176.923, 0, 0, []
1629740537.3614, 52, 0, 4196.923, 4210.256, 4116.923, 4135.897, 4182.051, 0, 0, []
1629740537.3691, 53, 0, 4191.795, 4209.231, 4108.205, 4115.897, 4171.795, 0, 0, []
1629740537.377, 54, 0, 4186.667, 4235.385, 4106.154, 4105.641, 4172.308, 0, 0, []
1629740537.3848, 55, 0, 4186.154, 4217.436, 4126.667, 4119.487, 4185.128, 0, 0, []
1629740537.3927, 56, 0, 4197.949, 4200, 4119.487, 4141.026, 4191.282, 0, 0, []
1629740537.4005, 57, 0, 4189.231, 4235.385, 4127.179, 4136.923, 4169.744, 0, 0, []
1629740537.4083, 58, 0, 4162.051, 4242.564, 4090.256, 4114.359, 4151.795, 0, 0, []
1629740537.4161, 59, 0, 4166.667, 4212.821, 4080.513, 4125.128, 4167.692, 0, 0, []
1629740537.4241, 60, 0, 4181.026, 4220, 4114.872, 4149.231, 4173.333, 0, 0, []
1629740537.432, 61, 0, 4178.462, 4241.538, 4105.128, 4153.333, 4159.487, 0, 0, []
1629740537.44, 62, 0, 4183.077, 4237.436, 4126.154, 4150.769, 4162.564, 0, 0, []
1629740537.4478, 63, 0, 4193.333, 4243.59, 4132.308, 4151.282, 4176.923, 0, 0, []
1629740537.4558, 64, 0, 4190.769, 4245.128, 4121.538, 4149.744, 4181.538, 450, 0, []
1629740537.4637, 65, 0, 4188.718, 4219.487, 4133.333, 4142.051, 4177.436, 450, 0, []
1629740537.4717, 66, 0, 4190.769, 4225.128, 4112.821, 4131.795, 4173.846, 16192, 0, []
1629740537.4796, 67, 0, 4189.744, 4248.718, 4128.718, 4140.513, 4180, 450, 0, []
1629740537.4875, 68, 0, 4195.385, 4227.179, 4136.923, 4169.744, 4197.949, 16119, 0, []
1629740537.4954, 69, 0, 4190.769, 4191.795, 4113.846, 4175.385, 4191.282, 450, 0, []
1629740537.5033, 70, 0, 4176.41, 4208.718, 4119.487, 4155.897, 4162.564, 16100, 0, []
1629740537.5112, 71, 0, 4185.128, 4240.513, 4110.769, 4148.718, 4161.026, 450, 0, []
1629740537.5191, 72, 0, 4197.949, 4210.256, 4132.821, 4154.872, 4183.59, 450, 0, []
1629740537.527, 73, 0, 4194.359, 4189.231, 4138.974, 4153.846, 4188.205, 16175, 0, []
1629740537.5348, 74, 0, 4190.769, 4231.795, 4121.026, 4145.641, 4171.282, 450, 0, []
1629740537.5427, 75, 0, 4189.231, 4235.897, 4141.538, 4132.308, 4158.974, 16201, 0, []
1629740537.5505, 76, 0, 4176.923, 4196.923, 4116.41, 4109.744, 4154.872, 450, 0, []
1629740537.5584, 77, 0, 4170.769, 4219.487, 4113.333, 4105.641, 4155.897, 450, 0, []
1629740537.5661, 78, 0, 4187.179, 4252.821, 4128.205, 4126.154, 4168.205, 450, 0, []
1629740537.574, 79, 0, 4204.615, 4220.513, 4114.872, 4141.026, 4177.949, 16201, 0, []
1629740537.5818, 80, 0, 4209.231, 4218.974, 4142.051, 4151.795, 4191.282, 450, 0, []
1629740537.5898, 81, 0, 4210.769, 4269.744, 4142.564, 4169.744, 4208.205, 450, 0, []
1629740537.5977, 82, 0, 4209.744, 4257.436, 4135.385, 4170.769, 4202.564, 450, 0, []
1629740537.6057, 83, 0, 4208.205, 4216.41, 4132.821, 4156.923, 4185.128, 16201, 0, []
1629740537.6135, 84, 0, 4211.282, 4243.59, 4123.59, 4158.462, 4188.205, 450, 0, []
1629740537.6215, 85, 0, 4210.256, 4265.128, 4153.846, 4162.564, 4197.436, 450, 0, []
1629740537.6294, 86, 0, 4203.077, 4232.821, 4135.897, 4154.872, 4193.333, 450, 0, []
1629740537.6374, 87, 0, 4201.026, 4223.59, 4123.59, 4148.205, 4184.615, 16201, 0, []
1629740537.6453, 88, 0, 4207.179, 4231.795, 4138.462, 4145.128, 4184.615, 450, 0, []
1629740537.6532, 89, 0, 4203.59, 4216.923, 4115.897, 4138.462, 4186.667, 450, 0, []
1629740537.6611, 90, 0, 4194.359, 4212.821, 4126.154, 4133.846, 4183.077, 450, 0, []
1629740537.669, 91, 0, 4202.564, 4225.641, 4122.051, 4144.615, 4184.615, 16201, 0, []
1629740537.6769, 92, 0, 4206.154, 4229.231, 4122.051, 4152.308, 4177.949, 450, 0, []
1629740537.6847, 93, 0, 4190.769, 4222.051, 4138.462, 4140.513, 4162.564, 450, 0, []
1629740537.6925, 94, 0, 4189.231, 4220.513, 4117.949, 4138.974, 4170.256, 450, 0, []
1629740537.7003, 95, 0, 4203.077, 4237.949, 4136.923, 4155.897, 4188.205, 16201, 0, []
1629740537.7082, 96, 0, 4208.718, 4265.128, 4133.333, 4158.462, 4188.205, 450, 0, []
1629740537.716, 97, 0, 4213.333, 4253.333, 4117.949, 4155.385, 4184.615, 450, 0, []
1629740537.7239, 98, 0, 4211.795, 4221.026, 4133.846, 4153.846, 4180.513, 450, 0, []
1629740537.7316, 99, 0, 4192.308, 4218.974, 4107.179, 4133.333, 4169.744, 16201, 0, []
1629740537.7395, 100, 0, 4184.615, 4222.564, 4118.462, 4127.179, 4171.282, 450, 0, []
1629740537.7473, 101, 0, 4198.974, 4203.077, 4130.769, 4145.641, 4180.513, 450, 0, []
1629740537.7553, 102, 0, 4202.051, 4191.795, 4109.231, 4140.513, 4170.256, 450, 0, []
1629740537.7632, 103, 0, 4191.282, 4205.128, 4111.795, 4116.923, 4155.385, 16201, 0, []
1629740537.7711, 104, 0, 4183.59, 4206.667, 4094.359, 4115.385, 4163.077, 450, 0, []
1629740537.779, 105, 0, 4180, 4197.436, 4101.538, 4121.026, 4166.154, 450, 0, []
1629740537.787, 106, 0, 4186.667, 4213.333, 4101.026, 4118.974, 4158.462, 450, 0, []
1629740537.7949, 107, 0, 4192.821, 4214.359, 4092.821, 4125.641, 4161.538, 16201, 0, []
1629740537.8029, 108, 0, 4177.436, 4188.205, 4122.564, 4128.718, 4158.462, 450, 0, []
1629740537.8107, 109, 0, 4169.231, 4182.051, 4103.077, 4119.487, 4145.641, 450, 0, []
1629740537.8185, 110, 0, 4181.026, 4169.231, 4101.026, 4117.949, 4147.692, 450, 0, []
1629740537.8264, 111, 0, 4194.872, 4161.026, 4117.436, 4131.282, 4165.128, 16201, 0, []
1629740537.8342, 112, 0, 4197.949, 4195.897, 4110.769, 4139.487, 4170.769, 450, 0, []
1629740537.8421, 113, 0, 4190.256, 4201.026, 4130.256, 4144.615, 4168.205, 450, 0, []
1629740537.8498, 114, 0, 4190.769, 4176.41, 4117.436, 4158.462, 4175.385, 450, 0, []
1629740537.8577, 115, 0, 4192.821, 4184.615, 4116.41, 4158.462, 4172.308, 16201, 0, []
1629740537.8655, 116, 0, 4177.949, 4202.051, 4117.436, 4134.359, 4155.897, 450, 0, []
1629740537.8734, 117, 0, 4171.795, 4191.282, 4095.385, 4111.795, 4155.897, 450, 0, []
1629740537.8812, 118, 0, 4184.615, 4159.487, 4120, 4101.538, 4168.205, 450, 0, []
1629740537.889, 119, 0, 4196.41, 4156.41, 4113.333, 4104.103, 4171.795, 16201, 0, []
1629740537.8968, 120, 0, 4205.641, 4194.359, 4117.436, 4132.821, 4184.103, 450, 0, []
1629740537.9047, 121, 0, 4215.385, 4221.538, 4138.462, 4160, 4202.051, 450, 0, []
1629740537.9125, 122, 0, 4207.692, 4193.846, 4107.692, 4157.949, 4194.872, 450, 0, []
1629740537.9205, 123, 0, 4190.256, 4158.462, 4108.718, 4153.846, 4173.846, 16201, 0, []
1629740537.9283, 124, 0, 4191.282, 4172.308, 4103.077, 4153.846, 4168.205, 450, 0, []
1629740537.9363, 125, 0, 4203.59, 4182.051, 4103.077, 4143.077, 4170.769, 450, 0, []
1629740537.9442, 126, 0, 4210.256, 4175.385, 4131.795, 4135.385, 4176.41, 450, 0, []
1629740537.9522, 127, 0, 4219.487, 4193.846, 4117.436, 4135.897, 4191.282, 16201, 0, []
1629740537.9601, 128, 0, 4234.359, 4199.487, 4120, 4133.846, 4205.641, 450, 0, []
1629740537.9681, 0, 0, 4253.846, 4182.564, 4120, 4141.026, 4221.538, 450, 0, []
1629740537.9759, 1, 0, 4268.718, 4182.564, 4122.564, 4155.897, 4244.615, 450, 0, []
1629740537.9839, 2, 0, 4275.897, 4185.641, 4137.949, 4153.846, 4264.615, 16192, 0, []
1629740537.9918, 3, 0, 4296.41, 4175.897, 4110.256, 4146.154, 4284.615, 450, 0, []
1629740537.9996, 4, 0, 4325.128, 4186.154, 4121.026, 4154.359, 4305.641, 16119, 0, []
1629740538.0075, 5, 0, 4330.769, 4203.077, 4116.923, 4152.821, 4306.667, 450, 0, []
1629740538.0152, 6, 0, 4315.897, 4190.256, 4093.846, 4138.462, 4290.256, 16096, 0, []
1629740538.0231, 7, 0, 4312.821, 4176.41, 4124.615, 4150.256, 4290.769, 450, 0, []
1629740538.0309, 8, 0, 4317.436, 4188.718, 4121.026, 4171.282, 4303.077, 450, 0, []
1629740538.0388, 9, 0, 4308.205, 4212.308, 4130.256, 4173.333, 4302.051, 16175, 0, []
1629740538.0466, 10, 0, 4294.359, 4207.692, 4134.872, 4168.205, 4287.692, 450, 0, []
1629740538.0544, 11, 0, 4278.974, 4181.538, 4112.308, 4161.026, 4270.256, 16200, 0, []
1629740538.0622, 12, 0, 4264.615, 4186.154, 4132.308, 4157.436, 4256.923, 450, 0, []
1629740538.0702, 13, 0, 4257.436, 4204.615, 4119.487, 4157.436, 4244.103, 450, 0, []
1629740538.0781, 14, 0, 4244.615, 4206.154, 4106.154, 4145.641, 4226.667, 450, 0, []
1629740538.0861, 15, 0, 4237.436, 4209.231, 4115.897, 4139.487, 4227.692, 16200, 0, []
1629740538.0939, 16, 0, 4244.615, 4216.41, 4128.205, 4153.846, 4238.974, 0, 0, []
1629740538.1019, 17, 0, 4246.667, 4211.795, 4159.487, 4160.513, 4228.205, 0, 0, []
1629740538.1098, 18, 0, 4239.487, 4204.615, 4133.846, 4154.872, 4214.872, 0, 0, []
1629740538.1178, 19, 0, 4234.872, 4200, 4127.692, 4154.359, 4215.385, 0, 0, []
1629740538.1257, 20, 0, 4231.795, 4198.974, 4146.667, 4154.359, 4211.795, 0, 0, []
1629740538.1336, 21, 0, 4227.692, 4186.667, 4124.615, 4154.359, 4207.179, 0, 0, []
1629740538.1415, 22, 0, 4223.077, 4178.462, 4133.333, 4158.462, 4205.128, 0, 0, []
1629740538.1493, 23, 0, 4222.564, 4201.538, 4122.051, 4157.949, 4205.128, 0, 0, []
1629740538.1572, 24, 0, 4217.949, 4205.128, 4113.333, 4147.692, 4203.077, 0, 0, []
1629740538.165, 25, 0, 4209.231, 4188.205, 4116.41, 4136.41, 4202.564, 0, 0, []
1629740538.1728, 26, 0, 4217.949, 4200.513, 4096.41, 4139.487, 4211.282, 0, 0, []
1629740538.1806, 27, 0, 4230.769, 4212.308, 4130.256, 4154.872, 4219.487, 0, 0, []
1629740538.1885, 28, 0, 4228.718, 4212.308, 4140.513, 4167.692, 4220.513, 0, 0, []
1629740538.1963, 29, 0, 4226.154, 4213.846, 4141.538, 4170.769, 4221.538, 0, 0, []
1629740538.2043, 30, 0, 4232.308, 4204.103, 4156.923, 4162.564, 4225.128, 0, 0, []
1629740538.2121, 31, 0, 4230.256, 4202.564, 4125.641, 4154.872, 4224.615, 0, 0, []
1629740538.2201, 32, 0, 4226.667, 4214.872, 4137.436, 4157.436, 4216.923, 0, 0, []
1629740538.228, 33, 0, 4235.897, 4217.949, 4137.436, 4153.846, 4208.718, 0, 0, []
1629740538.236, 34, 0, 4231.282, 4224.103, 4122.564, 4142.051, 4208.205, 0, 0, []
1629740538.2439, 35, 0, 4210.769, 4230.256, 4143.59, 4137.949, 4213.333, 0, 0, []
1629740538.2518, 36, 0, 4208.718, 4210.769, 4126.154, 4138.974, 4207.692, 0, 0, []
1629740538.2597, 37, 0, 4216.41, 4188.205, 4136.923, 4145.641, 4197.949, 0, 0, []
1629740538.2677, 38, 0, 4209.744, 4196.41, 4142.051, 4151.282, 4192.308, 0, 0, []
1629740538.2756, 39, 0, 4198.974, 4214.872, 4125.641, 4145.128, 4185.128, 0, 0, []
1629740538.2834, 40, 0, 4195.385, 4210.256, 4132.821, 4136.41, 4181.538, 0, 0, []
1629740538.2912, 41, 0, 4193.846, 4192.308, 4108.718, 4137.436, 4186.667, 0, 0, []
1629740538.299, 42, 0, 4193.846, 4196.41, 4120.513, 4141.538, 4186.154, 0, 0, []
1629740538.3069, 43, 0, 4197.436, 4226.154, 4131.795, 4133.333, 4175.385, 0, 0, []
1629740538.3147, 44, 0, 4198.462, 4240.513, 4118.974, 4129.744, 4175.385, 0, 0, []
1629740538.3226, 45, 0, 4196.41, 4208.718, 4140, 4146.667, 4184.103, 0, 0, []
1629740538.3304, 46, 0, 4195.385, 4188.205, 4119.487, 4149.231, 4181.026, 0, 0, []
1629740538.3382, 47, 0, 4195.897, 4220.513, 4119.487, 4121.538, 4170.256, 0, 0, []
1629740538.346, 48, 0, 4201.026, 4229.231, 4142.051, 4119.487, 4180.513, 0, 0, []
1629740538.3539, 49, 0, 4210.256, 4207.692, 4137.949, 4152.821, 4204.615, 0, 0, []
1629740538.3617, 50, 0, 4216.41, 4232.308, 4150.256, 4163.59, 4200.513, 0, 0, []
1629740538.3696, 51, 0, 4210.256, 4248.718, 4122.564, 4140.513, 4171.282, 0, 0, []
1629740538.3773, 52, 0, 4195.897, 4206.667, 4113.846, 4128.205, 4157.436, 0, 0, []
1629740538.3853, 53, 0, 4194.359, 4200, 4137.436, 4144.103, 4174.872, 0, 0, []
1629740538.3932, 54, 0, 4210.769, 4246.154, 4134.872, 4160, 4192.821, 0, 0, []
1629740538.4012, 55, 0, 4217.436, 4249.744, 4149.744, 4158.462, 4183.077, 0, 0, []
1629740538.4091, 56, 0, 4207.692, 4213.333, 4129.744, 4152.821, 4171.795, 0, 0, []
1629740538.417, 57, 0, 4198.462, 4195.897, 4120.513, 4147.179, 4174.872, 0, 0, []
1629740538.4249, 58, 0, 4192.308, 4207.692, 4129.744, 4138.974, 4175.385, 0, 0, []
1629740538.4329, 59, 0, 4190.769, 4231.282, 4103.59, 4138.462, 4169.744, 0, 0, []
1629740538.4408, 60, 0, 4187.692, 4246.667, 4118.974, 4140.513, 4163.077, 0, 0, []
1629740538.4486, 61, 0, 4181.026, 4241.026, 4125.128, 4136.41, 4164.615, 0, 0, []
1629740538.4564, 62, 0, 4172.821, 4214.872, 4116.923, 4132.821, 4161.026, 0, 0, []
1629740538.4642, 63, 0, 4174.872, 4208.205, 4117.436, 4134.359, 4150.256, 0, 0, []
1629740538.4721, 64, 0, 4194.872, 4227.692, 4105.641, 4147.179, 4163.59, 450, 0, []
1629740538.4799, 65, 0, 4201.538, 4232.308, 4137.949, 4157.436, 4187.692, 450, 0, []
1629740538.4878, 66, 0, 4189.744, 4231.282, 4132.821, 4151.795, 4186.154, 16193, 0, []
1629740538.4955, 67, 0, 4191.795, 4233.333, 4115.385, 4152.821, 4176.923, 450, 0, []
1629740538.5034, 68, 0, 4199.487, 4218.462, 4135.897, 4155.897, 4174.872, 16119, 0, []
1629740538.5113, 69, 0, 4195.385, 4211.282, 4131.282, 4142.051, 4173.333, 450, 0, []
1629740538.5191, 70, 0, 4198.462, 4226.667, 4126.667, 4143.077, 4183.59, 16103, 0, []
1629740538.5271, 71, 0, 4217.949, 4220, 4103.077, 4162.051, 4203.59, 450, 0, []
1629740538.5349, 72, 0, 4222.564, 4205.641, 4125.128, 4163.077, 4209.744, 450, 0, []
1629740538.5428, 73, 0, 4212.308, 4218.974, 4156.923, 4156.923, 4205.128, 16175, 0, []
1629740538.5508, 74, 0, 4205.641, 4233.333, 4111.282, 4157.436, 4197.436, 450, 0, []
1629740538.5587, 75, 0, 4195.897, 4218.462, 4110.769, 4147.179, 4183.59, 16203, 0, []
1629740538.5667, 76, 0, 4184.103, 4207.179, 4107.179, 4130.769, 4171.795, 450, 0, []
1629740538.5745, 77, 0, 4181.538, 4214.359, 4087.692, 4126.154, 4169.744, 450, 0, []
1629740538.5825, 78, 0, 4187.692, 4210.769, 4109.231, 4128.205, 4174.872, 450, 0, []
1629740538.5904, 79, 0, 4201.026, 4220.513, 4095.897, 4141.538, 4186.154, 16203, 0, []
1629740538.5983, 80, 0, 4205.641, 4244.615, 4096.923, 4155.897, 4188.205, 450, 0, []
1629740538.6062, 81, 0, 4205.641, 4243.077, 4105.128, 4150.256, 4177.949, 450, 0, []
1629740538.6139, 82, 0, 4213.333, 4232.821, 4093.846, 4143.077, 4180, 450, 0, []
1629740538.6218, 83, 0, 4211.795, 4236.923, 4118.462, 4142.564, 4190.769, 16203, 0, []
1629740538.6296, 84, 0, 4209.744, 4236.923, 4101.026, 4139.487, 4194.872, 450, 0, []
1629740538.6375, 85, 0, 4222.564, 4227.692, 4087.179, 4144.103, 4196.923, 450, 0, []
1629740538.6453, 86, 0, 4224.103, 4233.846, 4108.718, 4154.359, 4197.436, 450, 0, []
1629740538.6532, 87, 0, 4208.205, 4252.308, 4092.821, 4148.718, 4192.821, 16203, 0, []
1629740538.6609, 88, 0, 4196.41, 4242.051, 4094.872, 4141.026, 4182.564, 450, 0, []
1629740538.6689, 89, 0, 4182.051, 4204.103, 4078.462, 4134.359, 4158.462, 450, 0, []
1629740538.6768, 90, 0, 4170.256, 4206.667, 4071.795, 4127.692, 4144.103, 450, 0, []
1629740538.6848, 91, 0, 4192.308, 4248.718, 4122.564, 4148.205, 4176.41, 16203, 0, []
1629740538.6927, 92, 0, 4222.051, 4247.179, 4133.333, 4178.462, 4215.897, 450, 0, []
1629740538.7006, 93, 0, 4215.897, 4224.103, 4127.179, 4172.308, 4203.59, 450, 0, []
1629740538.7085, 94, 0, 4196.923, 4229.231, 4102.564, 4143.59, 4172.821, 450, 0, []
1629740538.7165, 95, 0, 4199.487, 4235.897, 4097.436, 4138.974, 4172.821, 16203, 0, []
1629740538.7244, 96, 0, 4211.282, 4240.513, 4134.359, 4151.282, 4183.59, 450, 0, []
1629740538.7324, 97, 0, 4210.769, 4254.872, 4120, 4154.359, 4182.051, 450, 0, []
1629740538.7402, 98, 0, 4207.692, 4257.436, 4115.385, 4152.821, 4177.436, 450, 0, []
1629740538.7482, 99, 0, 4222.051, 4267.692, 4121.026, 4154.872, 4185.128, 16203, 0, []
1629740538.7561, 100, 0, 4222.051, 4270.256, 4124.103, 4149.744, 4188.205, 450, 0, []
1629740538.7639, 101, 0, 4190.256, 4229.744, 4136.41, 4133.846, 4169.231, 450, 0, []
1629740538.7718, 102, 0, 4179.487, 4226.154, 4116.923, 4136.923, 4156.923, 450, 0, []
1629740538.7795, 103, 0, 4193.333, 4260, 4130.256, 4150.256, 4163.077, 16203, 0, []
1629740538.7874, 104, 0, 4192.821, 4256.923, 4123.077, 4142.051, 4165.128, 450, 0, []
1629740538.7952, 105, 0, 4187.692, 4244.103, 4096.41, 4133.846, 4166.154, 450, 0, []
1629740538.8031, 106, 0, 4194.872, 4239.487, 4113.846, 4141.026, 4173.333, 450, 0, []
1629740538.8109, 107, 0, 4191.282, 4220, 4092.308, 4132.308, 4164.103, 16203, 0, []
1629740538.8187, 108, 0, 4181.026, 4232.308, 4089.744, 4116.41, 4148.718, 450, 0, []
1629740538.8265, 109, 0, 4188.718, 4273.333, 4110.256, 4127.179, 4163.59, 450, 0, []
1629740538.8345, 110, 0, 4196.41, 4253.846, 4108.205, 4139.487, 4182.564, 450, 0, []
1629740538.8424, 111, 0, 4194.872, 4240, 4123.59, 4141.538, 4179.487, 16203, 0, []
1629740538.8504, 112, 0, 4204.103, 4289.231, 4121.538, 4153.846, 4177.949, 450, 0, []
1629740538.8582, 113, 0, 4198.974, 4271.282, 4131.282, 4149.231, 4165.128, 450, 0, []
1629740538.8662, 114, 0, 4180.513, 4222.564, 4127.179, 4130.256, 4149.744, 450, 0, []
1629740538.8741, 115, 0, 4180.513, 4253.846, 4098.974, 4132.821, 4162.051, 16203, 0, []
1629740538.8821, 116, 0, 4178.974, 4270.256, 4109.744, 4140, 4166.667, 450, 0, []
1629740538.89, 117, 0, 4173.846, 4237.949, 4101.538, 4136.41, 4148.205, 450, 0, []
1629740538.8979, 118, 0, 4180.513, 4256.41, 4110.256, 4132.821, 4141.026, 450, 0, []
1629740538.9058, 119, 0, 4174.359, 4283.59, 4116.41, 4126.154, 4144.103, 16203, 0, []
1629740538.9138, 120, 0, 4152.821, 4244.103, 4083.077, 4120, 4132.821, 450, 0, []
1629740538.9217, 121, 0, 4153.333, 4210.256, 4102.051, 4123.59, 4117.949, 450, 0, []
1629740538.9295, 122, 0, 4165.128, 4240, 4107.692, 4122.051, 4124.615, 450, 0, []
1629740538.9373, 123, 0, 4155.897, 4262.564, 4097.949, 4118.462, 4134.359, 16203, 0, []
1629740538.9451, 124, 0, 4146.154, 4250.256, 4111.795, 4128.205, 4126.154, 450, 0, []
1629740538.953, 125, 0, 4159.487, 4250.769, 4109.231, 4138.462, 4121.538, 450, 0, []
1629740538.9608, 126, 0, 4178.462, 4254.872, 4132.821, 4146.154, 4140.513, 450, 0, []
1629740538.9687, 127, 0, 4185.128, 4243.077, 4120, 4151.282, 4161.538, 16203, 0, []
1629740538.9764, 128, 0, 4177.949, 4236.41, 4095.385, 4147.179, 4156.41, 450, 0, []
1629740538.9844, 0, 0, 4171.282, 4246.667, 4100.513, 4138.462, 4138.462, 450, 0, []
1629740538.9923, 1, 0, 4166.154, 4235.897, 4072.821, 4128.205, 4123.59, 450, 0, []
1629740539.0003, 2, 0, 4151.795, 4196.41, 4083.59, 4120.513, 4116.923, 16219, 0, []
1629740539.0082, 3, 0, 4140.513, 4202.564, 4090.256, 4121.538, 4120, 450, 0, []
1629740539.0162, 4, 0, 4154.359, 4236.41, 4081.026, 4132.821, 4128.205, 16119, 0, []
1629740539.024, 5, 0, 4185.128, 4235.897, 4117.949, 4147.179, 4141.026, 450, 0, []
1629740539.032, 6, 0, 4196.41, 4229.744, 4122.051, 4155.897, 4151.282, 16102, 0, []
1629740539.0399, 7, 0, 4180, 4234.359, 4121.538, 4157.949, 4151.795, 450, 0, []
1629740539.0479, 8, 0, 4177.949, 4227.692, 4116.923, 4156.923, 4150.256, 450, 0, []
1629740539.0558, 9, 0, 4196.923, 4220, 4110.769, 4158.462, 4152.821, 16175, 0, []
1629740539.0635, 10, 0, 4194.872, 4234.872, 4135.897, 4160.513, 4152.821, 450, 0, []
1629740539.0714, 11, 0, 4182.564, 4254.359, 4126.154, 4165.128, 4156.923, 16203, 0, []
1629740539.0792, 12, 0, 4186.667, 4241.026, 4128.205, 4169.744, 4162.051, 450, 0, []
1629740539.0871, 13, 0, 4189.744, 4221.538, 4122.564, 4158.974, 4153.846, 450, 0, []
1629740539.0949, 14, 0, 4175.385, 4236.41, 4098.462, 4140.513, 4141.026, 450, 0, []
1629740539.1027, 15, 0, 4162.051, 4237.436, 4115.897, 4133.846, 4133.333, 16203, 0, []
1629740539.1105, 16, 0, 4171.282, 4209.744, 4106.154, 4147.179, 4140.513, 0, 0, []
1629740539.1184, 17, 0, 4194.872, 4216.41, 4116.923, 4167.692, 4158.462, 0, 0, []
1629740539.1262, 18, 0, 4205.641, 4241.026, 4137.436, 4171.795, 4166.154, 0, 0, []
1629740539.1342, 19, 0, 4204.103, 4244.615, 4114.872, 4160.513, 4158.974, 0, 0, []
1629740539.142, 20, 0, 4208.205, 4255.897, 4127.692, 4146.154, 4160, 0, 0, []
1629740539.15, 21, 0, 4215.897, 4261.538, 4121.026, 4143.077, 4174.872, 0, 0, []
1629740539.1579, 22, 0, 4208.205, 4241.538, 4109.231, 4150.256, 4172.308, 0, 0, []
1629740539.1659, 23, 0, 4201.026, 4237.436, 4116.41, 4156.41, 4154.359, 0, 0, []
1629740539.1738, 24, 0, 4204.103, 4242.051, 4100.513, 4149.744, 4154.872, 0, 0, []
1629740539.1817, 25, 0, 4199.487, 4219.487, 4113.846, 4142.564, 4166.667, 0, 0, []
1629740539.1896, 26, 0, 4185.641, 4202.564, 4109.231, 4143.59, 4163.077, 0, 0, []
1629740539.1976, 27, 0, 4187.179, 4230.769, 4109.231, 4147.179, 4152.821, 0, 0, []
1629740539.2055, 28, 0, 4197.436, 4256.923, 4122.051, 4144.615, 4153.333, 0, 0, []
1629740539.2134, 29, 0, 4191.282, 4233.846, 4092.308, 4127.692, 4150.769, 0, 0, []
1629740539.2212, 30, 0, 4190.256, 4203.59, 4107.692, 4128.205, 4150.256, 0, 0, []
1629740539.229, 31, 0, 4203.077, 4204.615, 4111.795, 4150.256, 4157.436, 0, 0, []
1629740539.2369, 32, 0, 4192.308, 4209.744, 4081.026, 4141.026, 4143.59, 0, 0, []
1629740539.2447, 33, 0, 4170.769, 4202.564, 4082.564, 4111.795, 4127.179, 0, 0, []
1629740539.2526, 34, 0, 4179.487, 4198.462, 4087.692, 4118.974, 4141.026, 0, 0, []
1629740539.2603, 35, 0, 4195.385, 4206.154, 4118.974, 4141.538, 4154.872, 0, 0, []
1629740539.2682, 36, 0, 4202.051, 4225.641, 4115.385, 4141.538, 4159.487, 0, 0, []
1629740539.276, 37, 0, 4211.795, 4228.205, 4098.974, 4134.872, 4164.615, 0, 0, []
1629740539.2839, 38, 0, 4215.897, 4223.077, 4132.308, 4137.436, 4170.769, 0, 0, []
1629740539.2917, 39, 0, 4210.256, 4248.718, 4128.718, 4147.179, 4174.872, 0, 0, []
1629740539.2996, 40, 0, 4201.026, 4257.949, 4126.154, 4151.282, 4164.103, 0, 0, []
1629740539.3075, 41, 0, 4200.513, 4229.231, 4127.692, 4147.179, 4151.282, 0, 0, []
1629740539.3155, 42, 0, 4203.59, 4227.179, 4123.077, 4143.59, 4156.41, 0, 0, []
1629740539.3234, 43, 0, 4194.359, 4246.667, 4139.487, 4141.538, 4160.513, 0, 0, []
1629740539.3314, 44, 0, 4184.103, 4217.436, 4107.179, 4133.333, 4150.769, 0, 0, []
1629740539.3392, 45, 0, 4181.538, 4188.718, 4098.462, 4124.615, 4147.692, 0, 0, []
1629740539.3472, 46, 0, 4180, 4219.487, 4106.667, 4122.051, 4151.282, 0, 0, []
1629740539.3551, 47, 0, 4178.974, 4240.513, 4091.795, 4121.538, 4151.795, 0, 0, []
1629740539.3631, 48, 0, 4178.974, 4222.564, 4110.256, 4120, 4149.231, 0, 0, []
1629740539.371, 49, 0, 4181.026, 4215.385, 4100, 4118.462, 4142.564, 0, 0, []
1629740539.379, 50, 0, 4177.949, 4221.538, 4099.487, 4122.051, 4135.385, 0, 0, []
1629740539.3868, 51, 0, 4172.308, 4228.205, 4111.795, 4117.949, 4137.436, 0, 0, []
1629740539.3946, 52, 0, 4186.154, 4227.692, 4106.154, 4123.59, 4156.41, 0, 0, []
1629740539.4025, 53, 0, 4205.641, 4214.359, 4132.308, 4147.692, 4174.359, 0, 0, []
1629740539.4103, 54, 0, 4207.179, 4217.436, 4122.564, 4151.795, 4169.744, 0, 0, []
1629740539.4182, 55, 0, 4195.897, 4227.179, 4119.487, 4130.256, 4155.897, 0, 0, []
1629740539.4259, 56, 0, 4182.564, 4209.231, 4130.256, 4116.41, 4148.205, 0, 0, []
1629740539.4338, 57, 0, 4176.41, 4203.077, 4105.641, 4119.487, 4145.128, 0, 0, []
1629740539.4416, 58, 0, 4181.026, 4213.333, 4118.462, 4125.641, 4139.487, 0, 0, []
1629740539.4495, 59, 0, 4182.564, 4218.974, 4116.923, 4127.179, 4138.974, 0, 0, []
1629740539.4573, 60, 0, 4175.897, 4229.231, 4112.308, 4124.615, 4144.615, 0, 0, []
1629740539.4652, 61, 0, 4178.462, 4230.256, 4127.179, 4130.256, 4147.692, 0, 0, []
1629740539.4731, 62, 0, 4186.154, 4210.256, 4105.128, 4137.436, 4149.744, 0, 0, []
1629740539.4811, 63, 0, 4183.59, 4209.744, 4112.821, 4132.308, 4150.769, 0, 0, []
1629740539.489, 64, 0, 4178.974, 4226.667, 4115.385, 4123.077, 4148.205, 450, 0, []
1629740539.497, 65, 0, 4169.744, 4214.872, 4102.564, 4113.846, 4137.949, 450, 0, []
1629740539.5048, 66, 0, 4163.077, 4208.205, 4099.487, 4107.179, 4129.231, 16202, 0, []
1629740539.5127, 67, 0, 4169.744, 4226.154, 4083.077, 4108.205, 4128.205, 450, 0, []
1629740539.5206, 68, 0, 4167.179, 4214.359, 4106.154, 4107.692, 4124.615, 16120, 0, []
1629740539.5284, 69, 0, 4165.641, 4203.077, 4103.077, 4116.41, 4137.949, 450, 0, []
1629740539.5364, 70, 0, 4184.615, 4218.462, 4092.308, 4136.923, 4164.103, 314, 0, []
1629740539.5442, 71, 0, 4200.513, 4206.154, 4118.462, 4135.385, 4167.179, 450, 0, []
1629740539.5521, 72, 0, 4201.026, 4194.872, 4102.564, 4119.487, 4162.564, 450, 0, []
1629740539.5599, 73, 0, 4196.923, 4222.564, 4111.795, 4123.077, 4171.282, 16175, 0, []
1629740539.5678, 74, 0, 4192.308, 4213.333, 4115.897, 4130.769, 4168.205, 450, 0, []
1629740539.5756, 75, 0, 4183.077, 4173.333, 4087.179, 4123.077, 4150.256, 16203, 0, []
1629740539.5834, 76, 0, 4177.436, 4197.436, 4094.872, 4112.308, 4141.538, 450, 0, []
1629740539.5912, 77, 0, 4181.538, 4235.897, 4087.692, 4108.205, 4146.667, 450, 0, []
1629740539.5992, 78, 0, 4190.256, 4209.231, 4102.564, 4117.949, 4160, 450, 0, []
1629740539.6071, 79, 0, 4197.949, 4191.795, 4114.872, 4128.718, 4171.795, 16203, 0, []
1629740539.6151, 80, 0, 4189.231, 4216.41, 4089.744, 4115.385, 4160, 450, 0, []
1629740539.6229, 81, 0, 4170.769, 4216.41, 4094.872, 4097.949, 4142.564, 450, 0, []
1629740539.6309, 82, 0, 4178.462, 4212.821, 4094.359, 4112.308, 4159.487, 450, 0, []
1629740539.6388, 83, 0, 4197.436, 4237.949, 4106.154, 4136.923, 4180, 16203, 0, []
1629740539.6468, 84, 0, 4187.179, 4227.179, 4103.077, 4130.769, 4161.538, 450, 0, []
1629740539.6547, 85, 0, 4173.333, 4189.231, 4076.923, 4112.821, 4146.667, 450, 0, []
1629740539.6626, 86, 0, 4175.897, 4200, 4102.051, 4111.282, 4156.923, 450, 0, []
1629740539.6705, 87, 0, 4170.769, 4228.205, 4094.872, 4111.282, 4148.718, 16203, 0, []
1629740539.6785, 88, 0, 4171.282, 4228.718, 4091.282, 4113.333, 4135.385, 450, 0, []
1629740539.6864, 89, 0, 4196.41, 4236.923, 4120.513, 4129.231, 4157.949, 450, 0, []
1629740539.6942, 90, 0, 4213.333, 4260, 4113.846, 4137.436, 4184.615, 450, 0, []
1629740539.702, 91, 0, 4208.718, 4251.282, 4127.179, 4136.923, 4187.179, 16203, 0, []
1629740539.7098, 92, 0, 4205.641, 4215.897, 4124.615, 4139.487, 4175.385, 450, 0, []
1629740539.7177, 93, 0, 4201.026, 4213.846, 4114.872, 4136.923, 4161.026, 450, 0, []
1629740539.7255, 94, 0, 4193.846, 4242.564, 4121.026, 4133.333, 4161.538, 450, 0, []
1629740539.7334, 95, 0, 4187.692, 4227.692, 4105.128, 4131.282, 4166.667, 16203, 0, []
1629740539.7412, 96, 0, 4178.462, 4202.564, 4122.564, 4131.282, 4154.359, 450, 0, []
1629740539.749, 97, 0, 4177.949, 4235.897, 4124.103, 4138.974, 4149.231, 450, 0, []
1629740539.7568, 98, 0, 4192.821, 4244.103, 4114.872, 4146.154, 4162.564, 450, 0, []
1629740539.7648, 99, 0, 4199.487, 4201.026, 4121.538, 4141.538, 4170.256, 16203, 0, []
1629740539.7727, 100, 0, 4178.462, 4210.256, 4103.59, 4134.359, 4160.513, 450, 0, []
1629740539.7807, 101, 0, 4163.077, 4250.256, 4123.077, 4136.41, 4147.179, 450, 0, []
1629740539.7885, 102, 0, 4185.641, 4241.538, 4126.154, 4138.462, 4154.872, 450, 0, []
1629740539.7965, 103, 0, 4215.385, 4221.538, 4117.949, 4141.026, 4180, 16203, 0, []
1629740539.8044, 104, 0, 4217.949, 4241.026, 4151.282, 4148.718, 4194.872, 450, 0, []
1629740539.8124, 105, 0, 4206.154, 4250.256, 4148.205, 4154.872, 4196.41, 450, 0, []
1629740539.8203, 106, 0, 4198.974, 4227.179, 4141.538, 4147.179, 4185.128, 450, 0, []
1629740539.8281, 107, 0, 4197.436, 4231.282, 4123.077, 4136.41, 4168.205, 16203, 0, []
1629740539.836, 108, 0, 4191.795, 4240, 4102.564, 4137.949, 4158.974, 450, 0, []
1629740539.8438, 109, 0, 4178.462, 4216.923, 4126.154, 4135.897, 4150.769, 450, 0, []
1629740539.8517, 110, 0, 4173.333, 4231.795, 4120, 4128.718, 4148.718, 450, 0, []
1629740539.8595, 111, 0, 4167.179, 4256.41, 4117.436, 4123.59, 4146.667, 16203, 0, []
1629740539.8673, 112, 0, 4162.564, 4212.821, 4111.795, 4117.436, 4138.974, 450, 0, []
1629740539.8751, 113, 0, 4181.538, 4208.205, 4099.487, 4126.667, 4151.282, 450, 0, []
1629740539.883, 114, 0, 4198.462, 4261.026, 4137.949, 4152.821, 4177.949, 450, 0, []
1629740539.8908, 115, 0, 4195.385, 4249.231, 4131.795, 4161.538, 4183.077, 16203, 0, []
1629740539.8987, 116, 0, 4188.718, 4204.103, 4115.385, 4149.231, 4166.667, 450, 0, []
1629740539.9064, 117, 0, 4182.564, 4218.462, 4121.026, 4140, 4157.436, 450, 0, []
1629740539.9144, 118, 0, 4188.718, 4252.308, 4109.744, 4133.846, 4166.154, 450, 0, []
1629740539.9223, 119, 0, 4206.667, 4245.128, 4136.41, 4138.974, 4184.615, 16203, 0, []
1629740539.9303, 120, 0, 4213.846, 4228.718, 4144.103, 4154.872, 4191.795, 450, 0, []
1629740539.9382, 121, 0, 4196.923, 4224.103, 4134.872, 4150.256, 4169.744, 450, 0, []
1629740539.9461, 122, 0, 4178.462, 4218.974, 4127.179, 4126.667, 4150.769, 450, 0, []
1629740539.954, 123, 0, 4176.41, 4212.308, 4101.026, 4121.026, 4158.462, 16203, 0, []
1629740539.962, 124, 0, 4186.154, 4217.436, 4114.872, 4135.385, 4167.179, 450, 0, []
1629740539.9699, 125, 0, 4190.769, 4229.744, 4106.667, 4138.462, 4157.436, 450, 0, []
1629740539.9779, 126, 0, 4173.846, 4218.974, 4090.769, 4125.128, 4137.436, 450, 0, []
1629740539.9857, 127, 0, 4162.051, 4225.641, 4098.462, 4116.923, 4131.795, 16203, 0, []
1629740539.9935, 128, 0, 4180, 4254.872, 4098.462, 4127.179, 4145.128, 450, 0, []
1629740540.0014, 0, 0, 4195.385, 4246.154, 4132.821, 4147.179, 4154.872, 450, 0, []
1629740540.0092, 1, 0, 4194.359, 4228.205, 4126.667, 4155.385, 4153.846, 450, 0, []
1629740540.0171, 2, 0, 4194.872, 4237.949, 4107.692, 4147.692, 4156.41, 16198, 0, []
1629740540.0248, 3, 0, 4196.41, 4238.974, 4130.769, 4147.179, 4168.205, 450, 0, []
1629740540.0327, 4, 0, 4192.821, 4241.026, 4111.282, 4154.359, 4171.795, 16120, 0, []
1629740540.0405, 5, 0, 4180.513, 4250.769, 4112.308, 4145.641, 4153.846, 450, 0, []
1629740540.0484, 6, 0, 4169.744, 4224.615, 4120.513, 4131.795, 4136.923, 16090, 0, []
1629740540.0562, 7, 0, 4179.487, 4203.077, 4113.846, 4133.846, 4148.718, 450, 0, []
1629740540.0641, 8, 0, 4194.872, 4220, 4147.179, 4137.436, 4168.718, 450, 0, []
1629740540.0718, 9, 0, 4195.385, 4231.282, 4129.744, 4136.923, 4167.692, 16175, 0, []
1629740540.0798, 10, 0, 4193.333, 4237.436, 4125.641, 4149.231, 4160.513, 450, 0, []
1629740540.0877, 11, 0, 4196.923, 4252.821, 4149.744, 4153.846, 4167.179, 16203, 0, []
1629740540.0957, 12, 0, 4192.308, 4243.077, 4117.436, 4140.513, 4177.949, 450, 0, []
1629740540.1036, 13, 0, 4190.769, 4217.436, 4124.103, 4142.051, 4176.41, 450, 0, []
1629740540.1115, 14, 0, 4205.641, 4214.359, 4135.897, 4158.462, 4173.846, 450, 0, []
1629740540.1194, 15, 0, 4212.821, 4222.564, 4130.256, 4158.462, 4176.41, 16203, 0, []
1629740540.1274, 16, 0, 4211.795, 4231.795, 4137.949, 4148.718, 4184.103, 0, 0, []
1629740540.1353, 17, 0, 4217.436, 4237.949, 4134.872, 4151.282, 4193.333, 0, 0, []
1629740540.1433, 18, 0, 4225.128, 4235.897, 4150.769, 4156.41, 4192.821, 0, 0, []
1629740540.1511, 19, 0, 4233.846, 4233.846, 4127.179, 4157.436, 4192.821, 0, 0, []
1629740540.1589, 20, 0, 4242.051, 4213.846, 4112.821, 4149.231, 4200, 0, 0, []
1629740540.1668, 21, 0, 4235.385, 4202.564, 4130.256, 4143.59, 4202.051, 0, 0, []
1629740540.1746, 22, 0, 4233.333, 4235.385, 4124.615, 4161.026, 4202.051, 0, 0, []
1629740540.1825, 23, 0, 4241.538, 4262.051, 4140.513, 4173.333, 4197.949, 0, 0, []
1629740540.1902, 24, 0, 4234.359, 4241.026, 4121.026, 4151.282, 4182.051, 0, 0, []
1629740540.1981, 25, 0, 4216.41, 4208.718, 4105.641, 4131.795, 4171.282, 0, 0, []
1629740540.2059, 26, 0, 4211.282, 4202.051, 4118.974, 4143.59, 4180.513, 0, 0, []
1629740540.2138, 27, 0, 4207.692, 4215.385, 4096.923, 4153.333, 4185.128, 0, 0, []
1629740540.2216, 28, 0, 4193.846, 4222.051, 4104.615, 4137.949, 4164.103, 0, 0, []
1629740540.2295, 29, 0, 4196.41, 4218.974, 4102.564, 4120, 4152.308, 0, 0, []
1629740540.2374, 30, 0, 4211.282, 4227.692, 4115.897, 4126.154, 4171.795, 0, 0, []
1629740540.2454, 31, 0, 4216.41, 4233.333, 4148.718, 4144.615, 4188.718, 0, 0, []
1629740540.2533, 32, 0, 4213.846, 4232.308, 4121.538, 4144.103, 4180.513, 0, 0, []
1629740540.2613, 33, 0, 4217.436, 4238.974, 4134.359, 4136.923, 4171.795, 0, 0, []
1629740540.2691, 34, 0, 4227.179, 4242.051, 4145.128, 4144.615, 4180, 0, 0, []
1629740540.2771, 35, 0, 4212.821, 4226.667, 4120.513, 4139.487, 4167.692, 0, 0, []
1629740540.285, 36, 0, 4190.769, 4215.897, 4123.077, 4122.564, 4146.154, 0, 0, []
1629740540.293, 37, 0, 4202.564, 4234.359, 4109.231, 4130.769, 4160.513, 0, 0, []
1629740540.3009, 38, 0, 4217.436, 4234.872, 4118.462, 4145.641, 4179.487, 0, 0, []
1629740540.3086, 39, 0, 4209.231, 4201.538, 4120, 4136.923, 4174.872, 0, 0, []
1629740540.3165, 40, 0, 4203.59, 4194.872, 4118.974, 4131.795, 4174.359, 0, 0, []
1629740540.3243, 41, 0, 4214.872, 4233.333, 4149.231, 4146.154, 4182.051, 0, 0, []
1629740540.3322, 42, 0, 4223.077, 4256.923, 4125.128, 4149.231, 4177.949, 0, 0, []
1629740540.34, 43, 0, 4215.385, 4237.949, 4115.385, 4137.436, 4168.718, 0, 0, []
1629740540.3478, 44, 0, 4204.103, 4234.359, 4120, 4130.769, 4171.795, 0, 0, []
1629740540.3556, 45, 0, 4204.103, 4243.077, 4110.769, 4139.487, 4176.923, 0, 0, []
1629740540.3635, 46, 0, 4213.846, 4211.795, 4136.923, 4155.385, 4180.513, 0, 0, []
1629740540.3713, 47, 0, 4222.051, 4189.231, 4132.308, 4162.564, 4187.179, 0, 0, []
1629740540.3793, 48, 0, 4217.436, 4215.897, 4135.385, 4150.256, 4186.154, 0, 0, []
1629740540.3871, 49, 0, 4205.641, 4241.538, 4135.385, 4135.897, 4173.333, 0, 0, []
1629740540.3951, 50, 0, 4205.128, 4246.154, 4110.769, 4138.974, 4166.667, 0, 0, []
1629740540.403, 51, 0, 4210.769, 4258.974, 4127.692, 4143.077, 4167.692, 0, 0, []
1629740540.411, 52, 0, 4211.795, 4255.897, 4120, 4147.179, 4175.897, 0, 0, []
1629740540.4189, 53, 0, 4206.667, 4215.385, 4122.051, 4154.359, 4185.641, 0, 0, []
1629740540.4269, 54, 0, 4196.41, 4196.923, 4124.103, 4140, 4177.949, 0, 0, []
1629740540.4347, 55, 0, 4190.769, 4213.333, 4093.846, 4117.949, 4164.103, 0, 0, []
1629740540.4427, 56, 0, 4196.923, 4226.667, 4130.769, 4129.231, 4173.333, 0, 0, []
1629740540.4506, 57, 0, 4199.487, 4229.744, 4134.872, 4148.205, 4183.59, 0, 0, []
1629740540.4585, 58, 0, 4181.538, 4209.231, 4096.923, 4141.026, 4167.692, 0, 0, []
1629740540.4664, 59, 0, 4173.846, 4200.513, 4093.333, 4135.385, 4155.897, 0, 0, []
1629740540.4741, 60, 0, 4202.051, 4241.538, 4092.821, 4145.128, 4172.308, 0, 0, []
1629740540.482, 61, 0, 4216.923, 4263.077, 4118.974, 4149.744, 4184.103, 0, 0, []
1629740540.4898, 62, 0, 4193.333, 4226.667, 4109.744, 4137.949, 4176.41, 0, 0, []
1629740540.4977, 63, 0, 4180, 4203.59, 4104.103, 4132.308, 4170.256, 0, 0, []
1629740540.5055, 64, 0, 4196.923, 4206.154, 4138.974, 4148.718, 4174.359, 450, 0, []
1629740540.5133, 65, 0, 4204.615, 4207.692, 4127.179, 4157.949, 4175.897, 450, 0, []
1629740540.5211, 66, 0, 4189.231, 4221.026, 4135.385, 4145.128, 4165.641, 16196, 0, []
1629740540.529, 67, 0, 4180, 4219.487, 4128.205, 4135.897, 4156.41, 450, 0, []
1629740540.5368, 68, 0, 4186.154, 4203.077, 4096.41, 4133.333, 4158.462, 16120, 0, []
1629740540.5448, 69, 0, 4194.872, 4213.333, 4110.769, 4126.154, 4160.513, 450, 0, []
1629740540.5526, 70, 0, 4197.949, 4213.846, 4110.769, 4119.487, 4157.949, 16102, 0, []
1629740540.5606, 71, 0, 4191.795, 4198.974, 4127.179, 4118.974, 4157.436, 450, 0, []
1629740540.5685, 72, 0, 4186.667, 4209.231, 4119.487, 4125.641, 4159.487, 450, 0, []
1629740540.5765, 73, 0, 4185.128, 4217.949, 4092.821, 4136.923, 4157.436, 16175, 0, []
1629740540.5844, 74, 0, 4188.205, 4212.308, 4126.667, 4146.154, 4163.59, 450, 0, []
1629740540.5923, 75, 0, 4189.231, 4211.795, 4123.077, 4141.538, 4174.872, 16203, 0, []
1629740540.6002, 76, 0, 4181.026, 4204.615, 4110.769, 4129.231, 4167.179, 450, 0, []
1629740540.6082, 77, 0, 4178.974, 4208.205, 4106.667, 4125.641, 4151.795, 450, 0, []
1629740540.6161, 78, 0, 4182.051, 4217.949, 4095.385, 4126.154, 4148.718, 450, 0, []
1629740540.6239, 79, 0, 4175.897, 4207.179, 4120.513, 4115.385, 4152.821, 16203, 0, []
1629740540.6317, 80, 0, 4185.128, 4222.564, 4113.846, 4117.949, 4166.154, 450, 0, []
1629740540.6395, 81, 0, 4213.333, 4247.692, 4125.641, 4142.051, 4185.128, 450, 0, []
1629740540.6474, 82, 0, 4211.795, 4219.487, 4134.359, 4136.41, 4180, 450, 0, []
1629740540.6552, 83, 0, 4191.282, 4193.333, 4098.974, 4118.462, 4169.231, 16203, 0, []
1629740540.6631, 84, 0, 4200, 4225.641, 4127.692, 4140, 4187.179, 450, 0, []
1629740540.6708, 85, 0, 4210.769, 4251.795, 4131.282, 4162.564, 4201.026, 450, 0, []
1629740540.6787, 86, 0, 4197.949, 4218.462, 4115.897, 4153.333, 4185.128, 450, 0, []
1629740540.6865, 87, 0, 4202.051, 4196.923, 4137.436, 4148.205, 4186.154, 16203, 0, []
1629740540.6945, 88, 0, 4223.59, 4231.795, 4136.923, 4158.462, 4213.333, 450, 0, []
1629740540.7024, 89, 0, 4221.026, 4256.923, 4146.667, 4158.462, 4213.333, 450, 0, []
