Timestamp, COUNTER, INTERPOLATED, AF3, T7, Pz, T8, AF4, RAW_CQ, MARKER_HARDWARE, MARKERS
1630163536.6299, 124, 0, 4145.641, 4267.179, 4071.282, 4122.051, 4067.692, 450, 0, []
1630163536.6379, 125, 0, 4131.282, 4266.154, 4050.256, 4115.385, 4057.436, 450, 0, []
1630163536.6458, 126, 0, 4143.077, 4234.872, 4079.487, 4127.692, 4064.103, 450, 0, []
1630163536.6536, 127, 0, 4158.974, 4232.821, 4052.821, 4134.872, 4077.436, 16197, 0, []
1630163536.6616, 128, 0, 4155.385, 4255.897, 4057.949, 4120.513, 4069.744, 450, 0, []
1630163536.6695, 0, 0, 4148.718, 4256.41, 4035.897, 4103.077, 4070.256, 450, 0, []
1630163536.6775, 1, 0, 4153.846, 4229.231, 4056.41, 4102.564, 4090.256, 450, 0, []
1630163536.6854, 2, 0, 4175.897, 4241.538, 4109.231, 4118.462, 4116.41, 16144, 0, []
1630163536.6933, 3, 0, 4197.436, 4289.231, 4095.385, 4142.564, 4137.949, 450, 0, []
1630163536.7012, 4, 0, 4176.923, 4264.103, 4127.179, 4150.769, 4122.564, 16090, 0, []
1630163536.7092, 5, 0, 4131.795, 4207.692, 4101.026, 4127.692, 4083.59, 450, 0, []
1630163536.7171, 6, 0, 4134.872, 4215.897, 4083.59, 4130.769, 4084.103, 238, 0, []
1630163536.7251, 7, 0, 4172.308, 4251.282, 4122.564, 4156.923, 4116.41, 450, 0, []
1630163536.733, 8, 0, 4155.385, 4231.795, 4066.667, 4124.615, 4102.564, 450, 0, []
1630163536.7409, 9, 0, 4123.077, 4203.077, 4057.436, 4091.282, 4082.051, 16113, 0, []
1630163536.7488, 10, 0, 4175.897, 4242.051, 4092.821, 4138.462, 4140, 450, 0, []
1630163536.7568, 11, 0, 4241.026, 4270.256, 4111.795, 4185.128, 4191.795, 16197, 0, []
1630163536.7648, 12, 0, 4227.179, 4257.949, 4122.051, 4169.744, 4181.026, 450, 0, []
1630163536.7727, 13, 0, 4206.154, 4263.077, 4102.051, 4174.359, 4181.538, 450, 0, []
1630163536.7806, 14, 0, 4224.615, 4272.821, 4134.872, 4207.692, 4209.231, 450, 0, []
1630163536.7885, 15, 0, 4248.205, 4282.564, 4134.359, 4198.974, 4212.821, 16197, 0, []
1630163536.7965, 16, 0, 4281.538, 4315.385, 4118.462, 4198.462, 4213.333, 0, 0, []
1630163536.8044, 17, 0, 4312.308, 4323.077, 4152.821, 4221.538, 4231.795, 0, 0, []
1630163536.8124, 18, 0, 4312.821, 4311.795, 4125.128, 4200, 4238.462, 0, 0, []
1630163536.8202, 19, 0, 4312.821, 4317.436, 4110.256, 4177.436, 4226.667, 0, 0, []
1630163536.8282, 20, 0, 4317.436, 4291.795, 4109.231, 4166.154, 4205.641, 0, 0, []
1630163536.8361, 21, 0, 4330.256, 4284.615, 4109.744, 4169.231, 4218.974, 0, 0, []
1630163536.8441, 22, 1, 4328.091, 4292.251, 4112.137, 4171.396, 4218.348, 0, 0, []
1630163536.852, 23, 1, 4325.926, 4299.886, 4114.53, 4173.561, 4217.721, 0, 0, []
1630163536.8598, 24, 1, 4323.761, 4307.521, 4116.923, 4175.726, 4217.094, 0, 0, []
1630163536.8677, 25, 1, 4321.595, 4315.157, 4119.316, 4177.892, 4216.467, 0, 0, []
1630163536.8756, 26, 1, 4319.43, 4322.792, 4121.709, 4180.057, 4215.84, 0, 0, []
1630163536.8835, 27, 1, 4317.265, 4330.427, 4124.103, 4182.222, 4215.214, 0, 0, []
1630163536.8914, 28, 1, 4315.1, 4338.063, 4126.496, 4184.387, 4214.587, 0, 0, []
1630163536.8992, 29, 1, 4312.934, 4345.698, 4128.889, 4186.553, 4213.96, 0, 0, []
1630163536.9071, 30, 0, 4310.769, 4353.333, 4131.282, 4188.718, 4213.333, 0, 0, []
1630163536.9149, 31, 0, 4310.256, 4388.205, 4124.615, 4191.795, 4218.462, 0, 0, []
1630163536.9228, 32, 0, 4321.026, 4385.641, 4147.692, 4203.077, 4215.897, 0, 0, []
1630163536.9306, 33, 0, 4298.974, 4345.641, 4125.128, 4186.667, 4199.487, 0, 0, []
1630163536.9384, 34, 0, 4294.359, 4344.615, 4110.256, 4183.59, 4222.564, 0, 0, []
1630163536.9462, 35, 0, 4321.026, 4371.282, 4141.538, 4205.128, 4257.436, 0, 0, []
1630163536.9541, 36, 0, 4302.051, 4360.513, 4120, 4204.103, 4245.128, 0, 0, []
1630163536.9619, 37, 0, 4293.846, 4372.308, 4132.821, 4220.513, 4251.795, 0, 0, []
1630163536.9697, 38, 0, 4326.154, 4397.436, 4150.256, 4243.59, 4281.538, 0, 0, []
1630163536.9776, 39, 0, 4304.615, 4358.974, 4124.103, 4211.282, 4264.103, 0, 0, []
1630163536.9853, 40, 0, 4267.692, 4319.487, 4124.103, 4177.949, 4245.128, 0, 0, []
1630163536.9932, 41, 0, 4292.308, 4338.974, 4128.718, 4197.949, 4263.077, 0, 0, []
1630163537.001, 42, 0, 4281.538, 4323.077, 4120, 4191.795, 4245.128, 0, 0, []
1630163537.0089, 43, 0, 4227.179, 4258.462, 4082.564, 4137.436, 4197.949, 0, 0, []
1630163537.0167, 44, 0, 4264.103, 4275.897, 4093.333, 4157.436, 4217.436, 0, 0, []
1630163537.0245, 45, 0, 4341.538, 4358.974, 4164.615, 4232.308, 4284.103, 0, 0, []
1630163537.0323, 46, 0, 4347.692, 4375.897, 4156.41, 4244.615, 4316.41, 0, 0, []
1630163537.0402, 47, 0, 4321.026, 4321.538, 4141.538, 4218.974, 4296.41, 0, 0, []
1630163537.048, 48, 0, 4309.231, 4297.949, 4147.179, 4207.692, 4268.205, 0, 0, []
1630163537.0559, 49, 0, 4310.256, 4308.718, 4125.641, 4204.615, 4266.667, 0, 0, []
1630163537.0636, 50, 0, 4312.308, 4299.487, 4128.205, 4205.641, 4267.179, 0, 0, []
1630163537.0715, 51, 0, 4299.487, 4297.436, 4116.923, 4200.513, 4265.641, 0, 0, []
1630163537.0793, 52, 0, 4277.949, 4291.282, 4110.256, 4187.692, 4262.564, 0, 0, []
1630163537.0872, 53, 0, 4275.385, 4272.308, 4115.897, 4187.692, 4251.282, 0, 0, []
1630163537.095, 54, 0, 4280.513, 4287.692, 4108.718, 4199.487, 4252.308, 0, 0, []
1630163537.1028, 55, 0, 4287.692, 4308.718, 4124.615, 4207.179, 4267.179, 0, 0, []
1630163537.1106, 56, 0, 4298.974, 4292.308, 4110.769, 4204.103, 4266.154, 0, 0, []
1630163537.1184, 57, 0, 4280, 4270.256, 4108.205, 4191.795, 4248.718, 0, 0, []
1630163537.1263, 58, 0, 4252.821, 4253.846, 4116.923, 4183.077, 4248.205, 0, 0, []
1630163537.1341, 59, 0, 4247.179, 4244.103, 4091.795, 4177.949, 4251.795, 0, 0, []
1630163537.1419, 60, 0, 4243.59, 4268.718, 4111.795, 4183.077, 4250.769, 0, 0, []
1630163537.1497, 61, 0, 4254.872, 4285.128, 4123.59, 4205.128, 4264.103, 0, 0, []
1630163537.1576, 62, 0, 4268.205, 4274.359, 4121.026, 4217.436, 4281.026, 0, 0, []
1630163537.1654, 63, 0, 4253.333, 4266.154, 4116.41, 4197.436, 4281.026, 0, 0, []
1630163537.1733, 64, 0, 4250.769, 4251.795, 4095.385, 4178.974, 4270.769, 450, 0, []
1630163537.181, 65, 0, 4270.769, 4251.282, 4126.154, 4189.231, 4266.667, 450, 0, []
1630163537.1889, 66, 0, 4263.59, 4284.615, 4122.051, 4204.103, 4263.59, 16173, 0, []
1630163537.1967, 67, 0, 4247.179, 4287.179, 4105.128, 4209.744, 4266.667, 450, 0, []
1630163537.2046, 68, 0, 4248.205, 4252.821, 4126.667, 4202.564, 4263.077, 16088, 0, []
1630163537.2124, 69, 0, 4234.872, 4257.436, 4106.667, 4179.487, 4241.538, 450, 0, []
1630163537.2202, 70, 0, 4207.179, 4265.641, 4100.513, 4164.103, 4225.641, 235, 0, []
1630163537.228, 71, 0, 4211.795, 4260, 4106.667, 4176.41, 4237.436, 450, 0, []
1630163537.2359, 72, 0, 4244.615, 4285.128, 4115.385, 4193.333, 4265.128, 450, 0, []
1630163537.2437, 73, 0, 4261.538, 4301.538, 4127.179, 4184.615, 4262.051, 16118, 0, []
1630163537.2516, 74, 0, 4270.769, 4294.872, 4109.231, 4187.692, 4246.667, 450, 0, []
1630163537.2593, 75, 0, 4280.513, 4325.128, 4144.103, 4228.205, 4261.026, 16196, 0, []
1630163537.2672, 76, 0, 4275.897, 4382.051, 4154.872, 4244.103, 4285.128, 450, 0, []
1630163537.275, 77, 0, 4270.769, 4380.513, 4127.179, 4218.974, 4283.077, 450, 0, []
1630163537.2828, 78, 0, 4269.744, 4345.641, 4142.051, 4203.077, 4263.59, 450, 0, []
1630163537.2907, 79, 0, 4246.154, 4344.103, 4111.282, 4189.231, 4250.256, 16196, 0, []
1630163537.2985, 80, 0, 4211.795, 4358.462, 4103.077, 4172.821, 4245.128, 450, 0, []
1630163537.3063, 81, 0, 4215.385, 4349.744, 4120.513, 4178.974, 4249.744, 450, 0, []
1630163537.3141, 82, 0, 4241.026, 4329.744, 4108.718, 4194.872, 4252.821, 450, 0, []
1630163537.322, 83, 0, 4248.205, 4345.128, 4133.846, 4210.256, 4252.821, 16196, 0, []
1630163537.3298, 84, 0, 4238.974, 4364.615, 4130.256, 4214.359, 4251.795, 450, 0, []
1630163537.3377, 85, 0, 4227.692, 4362.051, 4120.513, 4191.795, 4246.154, 450, 0, []
1630163537.3454, 86, 0, 4234.872, 4354.872, 4118.974, 4177.436, 4251.282, 450, 0, []
1630163537.3533, 87, 0, 4258.462, 4347.692, 4122.051, 4205.128, 4264.103, 16196, 0, []
1630163537.3611, 88, 0, 4267.179, 4366.667, 4167.692, 4240.513, 4274.872, 450, 0, []
1630163537.369, 89, 0, 4255.385, 4396.41, 4143.077, 4227.692, 4275.385, 450, 0, []
1630163537.3768, 90, 0, 4240.513, 4377.436, 4113.846, 4195.385, 4255.897, 450, 0, []
1630163537.3846, 91, 0, 4235.385, 4345.128, 4125.641, 4187.692, 4238.974, 16196, 0, []
1630163537.3924, 92, 0, 4240, 4361.026, 4119.487, 4201.538, 4248.205, 450, 0, []
1630163537.4003, 93, 0, 4235.897, 4367.179, 4140.513, 4205.128, 4248.718, 450, 0, []
1630163537.4081, 94, 0, 4226.154, 4352.308, 4125.641, 4190.769, 4233.846, 450, 0, []
1630163537.416, 95, 0, 4240, 4350.769, 4123.59, 4200.513, 4246.667, 16196, 0, []
1630163537.4237, 96, 0, 4251.282, 4330.769, 4140, 4214.872, 4257.949, 450, 0, []
1630163537.4316, 97, 0, 4238.462, 4324.615, 4109.744, 4206.154, 4235.897, 450, 0, []
1630163537.4394, 98, 0, 4237.436, 4357.949, 4127.692, 4210.769, 4227.179, 450, 0, []
1630163537.4472, 99, 0, 4241.538, 4355.897, 4122.564, 4212.308, 4233.333, 16196, 0, []
1630163537.4551, 100, 0, 4208.205, 4312.821, 4093.333, 4171.282, 4202.051, 450, 0, []
1630163537.4628, 101, 0, 4186.154, 4322.564, 4106.154, 4142.051, 4168.718, 450, 0, []
1630163537.4707, 102, 0, 4216.923, 4381.538, 4107.179, 4170.769, 4191.282, 450, 0, []
1630163537.4785, 103, 0, 4246.667, 4409.231, 4141.026, 4215.385, 4225.641, 16196, 0, []
1630163537.4864, 104, 0, 4253.846, 4391.282, 4140.513, 4227.179, 4240.513, 450, 0, []
1630163537.4942, 105, 0, 4256.923, 4353.333, 4123.59, 4214.359, 4251.282, 450, 0, []
1630163537.502, 106, 0, 4245.128, 4350.256, 4147.179, 4208.205, 4248.718, 450, 0, []
1630163537.5098, 107, 0, 4227.692, 4372.308, 4118.974, 4204.615, 4235.897, 16196, 0, []
1630163537.5177, 108, 0, 4225.641, 4352.308, 4115.897, 4196.41, 4231.282, 450, 0, []
1630163537.5255, 109, 0, 4225.128, 4324.615, 4120, 4182.564, 4219.487, 450, 0, []
1630163537.5334, 110, 0, 4215.385, 4338.462, 4108.718, 4176.923, 4199.487, 450, 0, []
1630163537.5411, 111, 0, 4210.256, 4339.487, 4132.308, 4184.103, 4195.385, 16196, 0, []
1630163537.5489, 112, 0, 4208.205, 4322.564, 4107.179, 4177.949, 4196.41, 450, 0, []
1630163537.5568, 113, 0, 4217.949, 4342.051, 4113.333, 4177.949, 4201.026, 450, 0, []
1630163537.5647, 114, 0, 4241.538, 4353.846, 4140, 4193.846, 4219.487, 450, 0, []
1630163537.5725, 115, 0, 4246.667, 4342.051, 4131.795, 4194.872, 4217.949, 16196, 0, []
1630163537.5803, 116, 0, 4235.897, 4352.308, 4136.923, 4188.205, 4198.974, 450, 0, []
1630163537.5881, 117, 0, 4233.333, 4362.564, 4100, 4186.154, 4197.436, 450, 0, []
1630163537.596, 118, 0, 4229.231, 4347.692, 4102.051, 4179.487, 4198.462, 450, 0, []
1630163537.6038, 119, 0, 4242.051, 4337.949, 4138.974, 4188.718, 4208.205, 16196, 0, []
1630163537.6116, 120, 0, 4269.231, 4348.205, 4128.718, 4215.897, 4230.256, 450, 0, []
1630163537.6195, 121, 0, 4271.282, 4363.59, 4137.949, 4225.641, 4237.949, 450, 0, []
1630163537.6272, 122, 0, 4266.154, 4371.795, 4130.769, 4216.923, 4244.103, 450, 0, []
1630163537.6351, 123, 0, 4278.462, 4376.923, 4137.436, 4218.462, 4248.718, 16196, 0, []
1630163537.6429, 124, 0, 4275.897, 4388.718, 4141.538, 4214.359, 4230.769, 450, 0, []
1630163537.6508, 125, 0, 4248.205, 4383.59, 4104.103, 4190.256, 4203.59, 450, 0, []
1630163537.6586, 126, 0, 4227.179, 4367.692, 4118.462, 4166.667, 4186.667, 450, 0, []
1630163537.6664, 127, 0, 4227.692, 4357.436, 4112.821, 4160.513, 4186.154, 16196, 0, []
1630163537.6743, 128, 0, 4241.538, 4346.154, 4115.385, 4180.513, 4195.897, 450, 0, []
1630163537.6822, 0, 0, 4245.128, 4346.154, 4135.385, 4189.744, 4195.385, 450, 0, []
1630163537.69, 1, 0, 4242.564, 4369.231, 4106.667, 4174.359, 4200.513, 450, 0, []
1630163537.6979, 2, 0, 4260.513, 4374.872, 4134.359, 4184.615, 4227.692, 16174, 0, []
1630163537.7056, 3, 0, 4269.231, 4361.538, 4135.385, 4198.974, 4233.333, 450, 0, []
1630163537.7135, 4, 0, 4248.205, 4365.641, 4106.667, 4187.692, 4215.897, 16088, 0, []
1630163537.7213, 5, 0, 4237.949, 4365.641, 4128.205, 4181.538, 4216.41, 450, 0, []
1630163537.7292, 6, 0, 4255.385, 4362.564, 4125.641, 4192.821, 4225.641, 237, 0, []
1630163537.737, 7, 0, 4263.59, 4374.359, 4138.462, 4198.462, 4218.462, 450, 0, []
1630163537.7447, 8, 0, 4253.846, 4381.538, 4121.538, 4184.615, 4211.282, 450, 0, []
1630163537.7526, 9, 0, 4254.359, 4350.769, 4101.538, 4179.487, 4222.564, 16120, 0, []
1630163537.7604, 10, 0, 4255.897, 4330.769, 4131.795, 4187.179, 4224.615, 450, 0, []
1630163537.7683, 11, 0, 4244.615, 4355.897, 4111.795, 4174.872, 4209.744, 16196, 0, []
1630163537.7761, 12, 0, 4229.231, 4345.641, 4105.641, 4151.795, 4198.462, 450, 0, []
1630163537.7839, 13, 0, 4233.333, 4316.41, 4109.231, 4147.179, 4197.436, 450, 0, []
1630163537.7917, 14, 0, 4247.179, 4327.692, 4104.103, 4166.154, 4204.615, 450, 0, []
1630163537.7996, 15, 0, 4229.231, 4313.333, 4111.282, 4170.256, 4191.795, 16196, 0, []
1630163537.8074, 16, 0, 4215.385, 4276.923, 4080.513, 4152.821, 4181.026, 0, 0, []
1630163537.8153, 17, 0, 4257.436, 4314.359, 4114.872, 4172.821, 4216.41, 0, 0, []
1630163537.823, 18, 0, 4296.923, 4351.795, 4146.667, 4209.744, 4249.231, 0, 0, []
1630163537.8309, 19, 0, 4286.667, 4311.282, 4114.872, 4205.128, 4247.179, 0, 0, []
1630163537.8387, 20, 0, 4290.769, 4280, 4135.897, 4204.103, 4266.667, 0, 0, []
1630163537.8466, 21, 0, 4314.872, 4287.692, 4126.667, 4218.974, 4286.667, 0, 0, []
1630163537.8544, 22, 0, 4304.615, 4281.538, 4121.026, 4206.154, 4271.795, 0, 0, []
1630163537.8622, 23, 0, 4304.103, 4268.718, 4145.128, 4202.051, 4282.051, 0, 0, []
1630163537.87, 24, 0, 4330.769, 4289.744, 4133.333, 4222.564, 4301.026, 0, 0, []
1630163537.8779, 25, 0, 4331.795, 4317.949, 4142.564, 4216.41, 4289.231, 0, 0, []
1630163537.8857, 26, 0, 4319.487, 4302.564, 4127.179, 4201.026, 4288.205, 0, 0, []
1630163537.8936, 27, 0, 4328.718, 4277.436, 4133.333, 4219.487, 4301.538, 0, 0, []
1630163537.9014, 28, 0, 4358.974, 4305.128, 4166.667, 4243.59, 4322.564, 0, 0, []
1630163537.9091, 29, 0, 4378.974, 4332.308, 4151.795, 4242.564, 4354.359, 0, 0, []
1630163537.917, 30, 0, 4368.205, 4317.949, 4155.897, 4234.872, 4358.974, 0, 0, []
1630163537.9248, 31, 0, 4351.282, 4311.282, 4131.795, 4228.718, 4328.718, 0, 0, []
1630163537.9327, 32, 0, 4340, 4299.487, 4119.487, 4221.538, 4318.462, 0, 0, []
1630163537.9405, 33, 0, 4330.256, 4273.846, 4131.282, 4212.821, 4325.128, 0, 0, []
1630163537.9483, 34, 0, 4333.333, 4273.846, 4103.077, 4206.667, 4312.821, 0, 0, []
1630163537.9561, 35, 0, 4325.128, 4275.897, 4115.385, 4191.795, 4288.205, 0, 0, []
1630163537.964, 36, 0, 4281.538, 4233.333, 4093.333, 4147.692, 4262.051, 0, 0, []
1630163537.9718, 37, 0, 4265.128, 4208.718, 4087.179, 4134.872, 4258.974, 0, 0, []
1630163537.9797, 38, 0, 4296.923, 4235.385, 4142.564, 4169.744, 4285.641, 0, 0, []
1630163537.9874, 39, 0, 4315.897, 4252.821, 4128.205, 4186.154, 4302.051, 0, 0, []
1630163537.9953, 40, 0, 4315.897, 4253.846, 4127.179, 4193.333, 4295.385, 0, 0, []
1630163538.0031, 41, 0, 4311.795, 4244.103, 4124.103, 4193.333, 4295.385, 0, 0, []
1630163538.011, 42, 0, 4298.974, 4227.692, 4103.59, 4166.667, 4293.333, 0, 0, []
1630163538.0188, 43, 0, 4286.154, 4229.231, 4115.897, 4151.795, 4268.718, 0, 0, []
1630163538.0266, 44, 0, 4280, 4229.744, 4093.333, 4157.949, 4258.974, 0, 0, []
1630163538.0344, 45, 0, 4286.667, 4234.359, 4103.59, 4165.641, 4275.385, 0, 0, []
1630163538.0423, 46, 0, 4298.462, 4250.769, 4121.026, 4166.667, 4281.026, 0, 0, []
1630163538.0501, 47, 0, 4286.667, 4238.974, 4111.795, 4165.641, 4281.026, 0, 0, []
1630163538.0579, 48, 0, 4275.897, 4215.385, 4130.769, 4175.385, 4297.436, 0, 0, []
1630163538.0657, 49, 0, 4289.231, 4227.692, 4112.821, 4177.436, 4305.128, 0, 0, []
1630163538.0735, 50, 0, 4278.462, 4235.897, 4115.385, 4162.564, 4281.538, 0, 0, []
1630163538.0814, 51, 0, 4259.487, 4225.128, 4128.718, 4157.949, 4260, 0, 0, []
1630163538.0892, 52, 0, 4268.718, 4234.872, 4136.923, 4163.077, 4272.821, 0, 0, []
1630163538.0971, 53, 0, 4276.923, 4233.333, 4189.744, 4165.128, 4295.385, 0, 0, []
1630163538.1048, 54, 0, 4268.205, 4206.667, 4178.462, 4160.513, 4286.667, 0, 0, []
1630163538.1127, 55, 0, 4247.179, 4188.205, 4173.333, 4144.103, 4255.897, 0, 0, []
1630163538.1205, 56, 0, 4241.026, 4203.59, 4198.974, 4139.487, 4255.897, 0, 0, []
1630163538.1284, 57, 0, 4261.538, 4233.846, 4197.949, 4163.077, 4282.564, 0, 0, []
1630163538.1362, 58, 0, 4262.564, 4247.179, 4216.41, 4169.231, 4275.897, 0, 0, []
1630163538.144, 59, 0, 4234.872, 4259.487, 4189.744, 4142.564, 4241.026, 0, 0, []
1630163538.1518, 60, 0, 4224.615, 4267.692, 4188.205, 4142.051, 4234.872, 0, 0, []
1630163538.1597, 61, 0, 4241.538, 4249.744, 4205.641, 4157.949, 4252.821, 0, 0, []
1630163538.1675, 62, 0, 4246.154, 4239.487, 4175.385, 4145.641, 4252.821, 0, 0, []
1630163538.1754, 63, 0, 4236.923, 4254.872, 4198.974, 4140.513, 4246.667, 0, 0, []
1630163538.1831, 64, 0, 4222.051, 4254.359, 4180.513, 4143.59, 4246.154, 450, 0, []
1630163538.191, 65, 0, 4200, 4229.744, 4141.538, 4121.026, 4231.795, 450, 0, []
1630163538.1988, 66, 0, 4191.795, 4217.436, 4155.385, 4099.487, 4223.59, 16177, 0, []
1630163538.2066, 67, 0, 4218.462, 4244.103, 4167.179, 4122.564, 4256.923, 450, 0, []
1630163538.2145, 68, 0, 4250.769, 4277.436, 4202.564, 4161.538, 4293.333, 16090, 0, []
1630163538.2223, 69, 0, 4226.154, 4264.103, 4159.487, 4136.41, 4260.513, 450, 0, []
1630163538.2301, 70, 0, 4181.538, 4241.026, 4130.256, 4106.667, 4212.821, 234, 0, []
1630163538.2379, 71, 0, 4212.821, 4247.692, 4192.308, 4151.795, 4254.359, 450, 0, []
1630163538.2458, 72, 0, 4277.949, 4256.923, 4198.462, 4185.641, 4325.128, 450, 0, []
1630163538.2536, 73, 0, 4282.051, 4253.333, 4192.821, 4156.923, 4334.359, 16124, 0, []
1630163538.2615, 74, 0, 4285.641, 4253.333, 4163.077, 4143.59, 4349.744, 450, 0, []
1630163538.2692, 75, 0, 4346.667, 4236.41, 4155.385, 4164.103, 4412.821, 16194, 0, []
1630163538.2771, 76, 0, 4373.333, 4213.333, 4178.462, 4141.538, 4442.051, 450, 0, []
1630163538.2849, 77, 0, 4381.026, 4232.821, 4147.179, 4117.436, 4457.436, 450, 0, []
1630163538.2928, 78, 0, 4451.282, 4263.59, 4186.667, 4168.718, 4520.513, 450, 0, []
1630163538.3006, 79, 0, 4501.538, 4266.667, 4207.692, 4207.179, 4563.077, 16194, 0, []
1630163538.3083, 80, 0, 4468.718, 4266.154, 4171.282, 4175.897, 4538.974, 450, 0, []
1630163538.3162, 81, 0, 4430.256, 4272.821, 4186.667, 4150.256, 4512.821, 450, 0, []
1630163538.3241, 82, 0, 4412.821, 4258.974, 4162.051, 4155.897, 4505.128, 450, 0, []
1630163538.332, 83, 0, 4384.103, 4228.205, 4156.923, 4160, 4471.282, 16194, 0, []
1630163538.3398, 84, 0, 4357.436, 4221.026, 4165.641, 4145.641, 4426.154, 450, 0, []
1630163538.3475, 85, 0, 4330.256, 4244.103, 4148.718, 4129.744, 4397.436, 450, 0, []
1630163538.3554, 86, 0, 4302.564, 4263.077, 4173.846, 4132.308, 4369.744, 450, 0, []
1630163538.3633, 87, 0, 4292.308, 4245.641, 4165.128, 4131.282, 4357.949, 16194, 0, []
1630163538.3711, 88, 0, 4279.487, 4216.41, 4167.179, 4127.179, 4355.897, 450, 0, []
1630163538.3789, 89, 0, 4260.513, 4211.282, 4168.205, 4131.282, 4330.256, 450, 0, []
1630163538.3867, 90, 0, 4266.154, 4220.513, 4149.744, 4133.846, 4322.051, 450, 0, []
1630163538.3945, 91, 0, 4281.026, 4231.795, 4190.256, 4133.846, 4339.487, 16194, 0, []
1630163538.4024, 92, 0, 4274.872, 4248.205, 4185.128, 4133.333, 4323.59, 450, 0, []
1630163538.4102, 93, 0, 4274.872, 4260.513, 4182.051, 4150.769, 4309.231, 450, 0, []
1630163538.4181, 94, 0, 4298.974, 4261.538, 4205.641, 4176.41, 4333.333, 450, 0, []
1630163538.4258, 95, 0, 4304.103, 4256.923, 4171.795, 4169.231, 4330.769, 16194, 0, []
1630163538.4337, 96, 0, 4272.821, 4236.923, 4166.667, 4143.59, 4290.256, 450, 0, []
1630163538.4415, 97, 0, 4247.692, 4220, 4160.513, 4135.897, 4274.872, 450, 0, []
1630163538.4494, 98, 0, 4236.923, 4227.692, 4145.641, 4129.231, 4274.359, 450, 0, []
1630163538.4572, 99, 0, 4245.641, 4245.128, 4162.564, 4127.692, 4276.923, 16194, 0, []
1630163538.465, 100, 0, 4262.564, 4252.821, 4158.974, 4144.615, 4284.103, 450, 0, []
1630163538.4728, 101, 0, 4245.641, 4248.718, 4169.231, 4148.718, 4273.846, 450, 0, []
1630163538.4807, 102, 0, 4222.051, 4245.641, 4160, 4136.41, 4258.462, 450, 0, []
1630163538.4885, 103, 0, 4230.256, 4248.205, 4148.205, 4134.872, 4261.538, 16194, 0, []
1630163538.4964, 104, 0, 4245.128, 4248.205, 4170.256, 4143.077, 4266.667, 450, 0, []
1630163538.5041, 105, 0, 4233.333, 4226.667, 4160, 4136.41, 4252.308, 450, 0, []
1630163538.512, 106, 0, 4207.179, 4219.487, 4164.615, 4122.564, 4227.692, 450, 0, []
1630163538.5198, 107, 0, 4196.923, 4252.821, 4156.41, 4123.077, 4221.538, 16194, 0, []
1630163538.5276, 108, 0, 4209.744, 4266.154, 4145.641, 4133.333, 4236.41, 450, 0, []
1630163538.5355, 109, 0, 4206.667, 4236.41, 4156.923, 4121.538, 4235.385, 450, 0, []
1630163538.5433, 110, 0, 4182.051, 4223.59, 4127.179, 4098.462, 4213.846, 450, 0, []
1630163538.5511, 111, 0, 4195.385, 4253.846, 4158.462, 4129.231, 4227.179, 16194, 0, []
1630163538.5589, 112, 0, 4226.154, 4282.564, 4181.026, 4171.282, 4257.949, 450, 0, []
1630163538.5668, 113, 0, 4220, 4265.128, 4147.179, 4166.154, 4258.974, 450, 0, []
1630163538.5746, 114, 0, 4208.205, 4236.41, 4155.385, 4152.308, 4246.667, 450, 0, []
1630163538.5825, 115, 0, 4207.692, 4244.103, 4140.513, 4138.974, 4235.385, 16194, 0, []
1630163538.5902, 116, 0, 4188.718, 4238.974, 4133.846, 4119.487, 4206.667, 450, 0, []
1630163538.5981, 117, 0, 4165.641, 4214.872, 4128.718, 4110.769, 4181.026, 450, 0, []
1630163538.6059, 118, 0, 4170.769, 4237.436, 4117.949, 4121.538, 4184.615, 450, 0, []
1630163538.6138, 119, 0, 4175.897, 4235.385, 4148.205, 4130.256, 4186.154, 16194, 0, []
1630163538.6216, 120, 0, 4155.897, 4180.513, 4126.667, 4119.487, 4178.462, 450, 0, []
1630163538.6294, 121, 0, 4157.436, 4188.205, 4126.154, 4116.923, 4186.667, 450, 0, []
1630163538.6372, 122, 0, 4185.128, 4230.256, 4152.308, 4125.641, 4205.641, 450, 0, []
1630163538.6451, 123, 0, 4185.641, 4215.385, 4132.308, 4128.718, 4211.282, 16194, 0, []
1630163538.6529, 124, 0, 4158.974, 4204.103, 4127.692, 4112.308, 4186.154, 450, 0, []
1630163538.6608, 125, 0, 4149.231, 4224.103, 4108.205, 4098.974, 4163.59, 450, 0, []
1630163538.6685, 126, 0, 4159.487, 4212.821, 4125.641, 4125.128, 4178.462, 450, 0, []
1630163538.6763, 127, 0, 4149.744, 4167.179, 4140.513, 4132.821, 4189.744, 16194, 0, []
1630163538.6842, 128, 0, 4132.308, 4146.154, 4095.897, 4097.436, 4168.718, 450, 0, []
1630163538.692, 0, 0, 4141.026, 4178.462, 4118.462, 4089.231, 4162.564, 450, 0, []
1630163538.6999, 1, 0, 4166.154, 4209.231, 4136.41, 4113.333, 4189.744, 450, 0, []
1630163538.7076, 2, 0, 4175.897, 4202.051, 4136.41, 4118.974, 4198.974, 16192, 0, []
1630163538.7155, 3, 0, 4163.59, 4201.538, 4143.59, 4106.154, 4174.359, 450, 0, []
1630163538.7233, 4, 0, 4148.205, 4199.487, 4107.692, 4096.41, 4153.333, 16125, 0, []
1630163538.7312, 5, 0, 4148.205, 4182.564, 4123.59, 4104.615, 4163.077, 450, 0, []
1630163538.739, 6, 0, 4167.692, 4208.205, 4132.308, 4126.667, 4187.179, 247, 0, []
1630163538.7468, 7, 0, 4163.077, 4235.897, 4113.846, 4131.282, 4176.923, 450, 0, []
1630163538.7546, 8, 0, 4130.256, 4206.667, 4121.026, 4111.282, 4139.487, 450, 0, []
1630163538.7625, 9, 0, 4117.436, 4178.462, 4112.308, 4099.487, 4131.282, 16121, 0, []
1630163538.7703, 10, 0, 4121.026, 4182.051, 4129.744, 4102.051, 4143.59, 450, 0, []
1630163538.7782, 11, 0, 4115.897, 4201.026, 4108.718, 4087.692, 4133.846, 16218, 0, []
1630163538.7859, 12, 0, 4117.436, 4201.026, 4092.308, 4078.462, 4120.513, 450, 0, []
1630163538.7938, 13, 0, 4136.41, 4162.051, 4141.538, 4105.641, 4138.462, 450, 0, []
1630163538.8016, 14, 0, 4146.667, 4151.282, 4132.308, 4128.718, 4161.026, 450, 0, []
1630163538.8095, 15, 0, 4132.821, 4164.615, 4121.538, 4117.949, 4155.897, 16218, 0, []
1630163538.8173, 16, 0, 4108.718, 4132.821, 4114.359, 4097.949, 4133.333, 0, 0, []
1630163538.8251, 17, 0, 4122.564, 4122.564, 4102.564, 4111.282, 4136.923, 0, 0, []
1630163538.8329, 18, 0, 4164.103, 4159.487, 4115.385, 4145.641, 4170.769, 0, 0, []
1630163538.8407, 19, 0, 4160.513, 4138.974, 4058.462, 4140, 4175.385, 0, 0, []
1630163538.8486, 20, 0, 4118.974, 4098.462, 4027.179, 4108.718, 4141.538, 0, 0, []
1630163538.8564, 21, 0, 4120, 4131.795, 4038.974, 4106.667, 4139.487, 0, 0, []
1630163538.8643, 22, 0, 4140, 4140.513, 4027.179, 4115.897, 4160.513, 0, 0, []
1630163538.872, 23, 0, 4127.179, 4092.821, 4044.103, 4109.744, 4150.256, 0, 0, []
1630163538.8799, 24, 0, 4124.103, 4093.333, 4036.923, 4111.795, 4144.103, 0, 0, []
1630163538.8877, 25, 0, 4139.487, 4111.282, 4047.692, 4123.077, 4158.462, 0, 0, []
1630163538.8956, 26, 0, 4144.103, 4093.846, 4051.795, 4120.513, 4160.513, 0, 0, []
1630163538.9034, 27, 0, 4143.59, 4090.769, 4025.641, 4110.769, 4152.821, 0, 0, []
1630163538.9112, 28, 0, 4133.846, 4097.949, 4052.821, 4105.128, 4149.231, 0, 0, []
1630163538.919, 29, 0, 4132.821, 4091.282, 4043.077, 4106.667, 4158.974, 0, 0, []
1630163538.9269, 30, 0, 4160.513, 4123.077, 4041.538, 4127.179, 4182.564, 0, 0, []
1630163538.9347, 31, 0, 4177.949, 4147.692, 4060, 4143.59, 4191.282, 0, 0, []
1630163538.9426, 32, 0, 4174.359, 4105.128, 4038.462, 4140, 4184.615, 0, 0, []
1630163538.9503, 33, 0, 4203.59, 4111.282, 4075.897, 4161.538, 4205.641, 0, 0, []
1630163538.9582, 34, 0, 4235.897, 4153.333, 4073.333, 4185.128, 4233.333, 0, 0, []
1630163538.966, 35, 0, 4204.103, 4120, 4044.615, 4164.615, 4213.846, 0, 0, []
1630163538.9738, 36, 0, 4178.462, 4101.026, 4071.795, 4141.538, 4191.795, 0, 0, []
1630163538.9817, 37, 0, 4217.949, 4153.846, 4073.846, 4156.41, 4221.538, 0, 0, []
1630163538.9894, 38, 0, 4247.179, 4165.128, 4086.667, 4178.974, 4255.385, 0, 0, []
1630163538.9973, 39, 0, 4218.974, 4139.487, 4066.154, 4166.154, 4245.641, 0, 0, []
1630163539.0051, 40, 0, 4191.282, 4142.051, 4042.051, 4147.179, 4227.692, 0, 0, []
1630163539.013, 41, 0, 4197.436, 4135.897, 4056.41, 4149.744, 4233.333, 0, 0, []
1630163539.0208, 42, 0, 4195.385, 4125.641, 4029.231, 4144.103, 4236.41, 0, 0, []
1630163539.0286, 43, 0, 4173.333, 4119.487, 4044.615, 4129.231, 4222.051, 0, 0, []
1630163539.0364, 44, 0, 4152.308, 4091.795, 4045.641, 4118.462, 4191.795, 0, 0, []
1630163539.0443, 45, 0, 4138.974, 4097.436, 4026.667, 4109.231, 4162.564, 0, 0, []
1630163539.0521, 46, 0, 4148.718, 4133.846, 4063.59, 4121.026, 4172.308, 0, 0, []
1630163539.06, 47, 0, 4169.744, 4129.744, 4062.051, 4143.077, 4196.41, 0, 0, []
1630163539.0677, 48, 0, 4168.718, 4116.41, 4066.667, 4147.692, 4191.795, 0, 0, []
1630163539.0756, 49, 0, 4154.359, 4142.051, 4056.923, 4139.487, 4182.051, 0, 0, []
1630163539.0834, 50, 0, 4150.769, 4152.821, 4029.744, 4128.718, 4185.641, 0, 0, []
1630163539.0913, 51, 0, 4159.487, 4145.641, 4058.974, 4128.205, 4198.462, 0, 0, []
1630163539.0991, 52, 0, 4177.949, 4168.718, 4057.949, 4144.103, 4222.051, 0, 0, []
1630163539.1069, 53, 0, 4190.769, 4178.974, 4063.077, 4149.231, 4231.795, 0, 0, []
1630163539.1147, 54, 0, 4167.179, 4147.692, 4049.231, 4121.026, 4196.923, 0, 0, []
1630163539.1225, 55, 0, 4149.231, 4154.359, 4033.333, 4115.385, 4176.923, 0, 0, []
1630163539.1304, 56, 0, 4174.872, 4204.103, 4080.513, 4155.897, 4208.205, 0, 0, []
1630163539.1382, 57, 0, 4184.103, 4199.487, 4060.513, 4156.923, 4212.821, 0, 0, []
1630163539.1461, 58, 0, 4153.846, 4167.179, 4045.128, 4121.538, 4173.333, 0, 0, []
1630163539.1538, 59, 0, 4139.487, 4193.333, 4052.821, 4117.949, 4159.487, 0, 0, []
1630163539.1617, 60, 0, 4134.872, 4200.513, 4023.59, 4125.128, 4163.59, 0, 0, []
1630163539.1695, 61, 0, 4120, 4150.769, 4043.077, 4113.333, 4147.179, 0, 0, []
1630163539.1774, 62, 0, 4125.641, 4162.051, 4042.564, 4112.308, 4151.282, 0, 0, []
1630163539.1852, 63, 0, 4140.513, 4207.692, 4045.641, 4140, 4175.897, 0, 0, []
1630163539.193, 64, 0, 4136.41, 4188.205, 4055.897, 4155.385, 4179.487, 450, 0, []
1630163539.2008, 65, 0, 4136.41, 4182.564, 4033.333, 4144.615, 4182.564, 450, 0, []
1630163539.2087, 66, 0, 4136.41, 4211.795, 4052.308, 4137.436, 4181.538, 16208, 0, []
1630163539.2165, 67, 0, 4125.641, 4194.872, 4038.462, 4132.308, 4164.103, 450, 0, []
1630163539.2244, 68, 0, 4132.821, 4187.179, 4042.564, 4140, 4167.179, 16105, 0, []
1630163539.2321, 69, 0, 4142.051, 4214.359, 4068.205, 4143.077, 4173.846, 450, 0, []
1630163539.24, 70, 0, 4122.564, 4191.282, 4020.513, 4115.385, 4150.769, 214, 0, []
1630163539.2478, 71, 0, 4131.282, 4170.769, 4047.692, 4120, 4163.077, 450, 0, []
1630163539.2557, 72, 0, 4174.359, 4215.385, 4086.154, 4160, 4214.359, 450, 0, []
1630163539.2635, 73, 0, 4162.564, 4237.436, 4056.923, 4150.256, 4204.103, 16123, 0, []
1630163539.2712, 74, 0, 4121.538, 4204.103, 4034.872, 4116.41, 4158.974, 450, 0, []
1630163539.2791, 75, 0, 4147.179, 4183.59, 4028.718, 4136.41, 4174.359, 16208, 0, []
1630163539.2869, 76, 0, 4181.026, 4194.872, 4073.846, 4171.282, 4208.205, 450, 0, []
1630163539.2948, 77, 0, 4161.026, 4207.179, 4073.333, 4163.59, 4193.846, 450, 0, []
1630163539.3026, 78, 0, 4140, 4190.256, 4044.615, 4141.538, 4164.103, 450, 0, []
1630163539.3104, 79, 0, 4141.538, 4160, 4062.564, 4138.974, 4154.872, 16208, 0, []
1630163539.3182, 80, 0, 4135.897, 4164.103, 4040, 4137.949, 4157.436, 450, 0, []
1630163539.3261, 81, 0, 4117.949, 4197.436, 4047.179, 4122.564, 4145.641, 450, 0, []
1630163539.3339, 82, 0, 4116.923, 4207.692, 4061.538, 4116.923, 4141.026, 450, 0, []
1630163539.3418, 83, 0, 4139.487, 4194.872, 4051.795, 4138.462, 4164.615, 16208, 0, []
1630163539.3495, 84, 0, 4132.821, 4187.692, 4065.128, 4135.897, 4154.872, 450, 0, []
1630163539.3574, 85, 0, 4100.513, 4189.744, 4036.41, 4103.59, 4113.333, 450, 0, []
1630163539.3652, 86, 0, 4109.744, 4198.462, 4053.846, 4120, 4125.641, 450, 0, []
1630163539.3731, 87, 0, 4147.692, 4199.487, 4078.462, 4160, 4168.718, 16208, 0, []
1630163539.3809, 88, 0, 4142.564, 4190.256, 4054.872, 4148.718, 4158.462, 450, 0, []
1630163539.3887, 89, 0, 4118.462, 4204.615, 4072.308, 4126.667, 4128.205, 450, 0, []
1630163539.3965, 90, 0, 4122.564, 4220.513, 4054.359, 4129.744, 4135.897, 450, 0, []
1630163539.4044, 91, 0, 4122.051, 4195.897, 4038.974, 4128.205, 4132.821, 16208, 0, []
1630163539.4122, 92, 0, 4098.462, 4176.41, 4030.256, 4106.667, 4103.077, 450, 0, []
1630163539.4201, 93, 0, 4098.974, 4203.077, 4015.897, 4109.231, 4109.231, 450, 0, []
1630163539.4278, 94, 0, 4118.462, 4207.692, 4062.564, 4138.462, 4138.974, 450, 0, []
1630163539.4356, 95, 0, 4115.897, 4187.692, 4047.179, 4134.872, 4127.179, 16208, 0, []
1630163539.4435, 96, 0, 4102.051, 4196.41, 4028.718, 4109.744, 4103.077, 450, 0, []
1630163539.4513, 97, 0, 4095.897, 4194.872, 4049.744, 4104.615, 4106.154, 450, 0, []
1630163539.4592, 98, 0, 4097.949, 4166.154, 4035.385, 4106.667, 4108.205, 450, 0, []
1630163539.467, 99, 0, 4120.513, 4168.718, 4066.154, 4115.897, 4131.795, 16208, 0, []
1630163539.4748, 100, 0, 4142.051, 4173.846, 4069.231, 4124.615, 4177.436, 450, 0, []
1630163539.4826, 101, 0, 4140.513, 4136.41, 4053.846, 4119.487, 4191.282, 450, 0, []
1630163539.4905, 102, 0, 4154.359, 4141.538, 4072.308, 4129.744, 4198.462, 450, 0, []
1630163539.4983, 103, 0, 4158.974, 4167.179, 4048.718, 4135.897, 4202.564, 16208, 0, []
1630163539.5062, 104, 0, 4123.59, 4123.077, 4043.077, 4115.897, 4174.359, 450, 0, []
1630163539.5139, 105, 0, 4122.051, 4105.641, 4044.615, 4122.564, 4172.821, 450, 0, []
1630163539.5218, 106, 0, 4153.846, 4125.128, 4060.513, 4159.487, 4202.564, 450, 0, []
1630163539.5296, 107, 0, 4142.051, 4088.205, 4073.333, 4161.026, 4187.179, 16208, 0, []
1630163539.5375, 108, 0, 4112.821, 4043.59, 4037.436, 4135.385, 4148.718, 450, 0, []
1630163539.5453, 109, 0, 4098.974, 4030.256, 4051.795, 4129.231, 4127.692, 450, 0, []
1630163539.5531, 110, 0, 4065.128, 3998.462, 4031.795, 4115.897, 4092.821, 450, 0, []
1630163539.5609, 111, 0, 4043.59, 3982.564, 4014.872, 4109.744, 4078.974, 16208, 0, []
1630163539.5688, 112, 0, 4072.821, 4027.179, 4070.256, 4141.538, 4111.795, 450, 0, []
1630163539.5766, 113, 0, 4100, 4051.795, 4062.051, 4154.359, 4126.154, 450, 0, []
1630163539.5844, 114, 0, 4110.256, 4034.359, 4075.385, 4149.744, 4125.128, 450, 0, []
1630163539.5922, 115, 0, 4120.513, 4031.795, 4081.538, 4149.231, 4135.897, 16208, 0, []
1630163539.6, 116, 0, 4117.436, 4040.513, 4051.282, 4145.641, 4136.41, 450, 0, []
1630163539.6079, 117, 0, 4120, 4034.872, 4086.667, 4161.026, 4138.974, 450, 0, []
1630163539.6157, 118, 0, 4134.872, 4043.59, 4084.615, 4178.462, 4145.641, 450, 0, []
1630163539.6236, 119, 0, 4113.333, 4078.974, 4060, 4156.923, 4121.538, 16208, 0, []
1630163539.6313, 120, 0, 4097.949, 4085.641, 4056.41, 4144.615, 4113.846, 450, 0, []
1630163539.6392, 121, 0, 4133.846, 4069.744, 4071.282, 4174.872, 4153.333, 450, 0, []
1630163539.6471, 122, 0, 4132.308, 4068.718, 4096.41, 4170.256, 4147.692, 450, 0, []
1630163539.655, 123, 0, 4089.231, 4093.333, 4056.923, 4130.256, 4109.744, 16208, 0, []
1630163539.6629, 124, 0, 4092.308, 4108.205, 4068.205, 4139.487, 4123.59, 450, 0, []
1630163539.6706, 125, 0, 4107.692, 4093.333, 4084.103, 4151.282, 4140.513, 450, 0, []
1630163539.6784, 126, 0, 4089.231, 4102.051, 4030.769, 4125.641, 4118.974, 450, 0, []
1630163539.6863, 127, 0, 4089.744, 4129.744, 4049.231, 4134.359, 4114.359, 16208, 0, []
1630163539.6941, 128, 0, 4110.769, 4112.308, 4058.462, 4156.41, 4127.692, 450, 0, []
1630163539.702, 0, 0, 4111.795, 4084.103, 4058.974, 4152.308, 4129.744, 450, 0, []
1630163539.7097, 1, 0, 4101.538, 4098.974, 4067.179, 4138.974, 4122.051, 450, 0, []
1630163539.7176, 2, 0, 4087.692, 4111.795, 4045.128, 4127.692, 4105.128, 16190, 0, []
1630163539.7254, 3, 0, 4076.41, 4100.513, 4063.59, 4131.795, 4088.205, 450, 0, []
1630163539.7333, 4, 0, 4064.103, 4085.641, 4046.154, 4127.692, 4063.59, 16109, 0, []
1630163539.7411, 5, 0, 4063.077, 4089.231, 4049.231, 4117.949, 4056.41, 450, 0, []
1630163539.7488, 6, 0, 4085.128, 4124.615, 4094.359, 4132.821, 4090.769, 235, 0, []
1630163539.7567, 7, 0, 4100.513, 4149.744, 4075.385, 4145.641, 4115.897, 450, 0, []
1630163539.7645, 8, 0, 4092.308, 4126.667, 4075.385, 4126.667, 4109.231, 450, 0, []
1630163539.7724, 9, 0, 4099.487, 4117.949, 4063.59, 4110.256, 4128.718, 16112, 0, []
1630163539.7802, 10, 0, 4125.641, 4149.231, 4051.795, 4116.923, 4161.538, 450, 0, []
1630163539.7881, 11, 0, 4125.641, 4159.487, 4071.282, 4115.897, 4150.769, 16201, 0, []
1630163539.7958, 12, 0, 4108.205, 4135.897, 4044.615, 4102.051, 4121.026, 450, 0, []
1630163539.8037, 13, 0, 4115.385, 4123.077, 4061.538, 4106.154, 4114.872, 450, 0, []
1630163539.8115, 14, 0, 4130.769, 4124.103, 4073.333, 4113.333, 4117.436, 450, 0, []
1630163539.8194, 15, 0, 4110.256, 4124.103, 4053.333, 4102.564, 4096.41, 16201, 0, []
1630163539.8272, 16, 0, 4089.231, 4147.692, 4067.692, 4104.615, 4081.538, 0, 0, []
1630163539.835, 17, 0, 4105.128, 4166.667, 4054.872, 4117.949, 4103.59, 0, 0, []
1630163539.8428, 18, 0, 4106.154, 4154.359, 4067.179, 4123.077, 4114.872, 0, 0, []
1630163539.8507, 19, 0, 4092.821, 4149.744, 4064.103, 4120.513, 4102.051, 0, 0, []
1630163539.8585, 20, 0, 4109.744, 4160.513, 4051.795, 4128.718, 4111.282, 0, 0, []
1630163539.8664, 21, 0, 4131.282, 4166.154, 4083.077, 4143.077, 4132.308, 0, 0, []
1630163539.8741, 22, 0, 4126.667, 4166.154, 4053.333, 4131.795, 4127.179, 0, 0, []
1630163539.882, 23, 0, 4125.128, 4172.308, 4052.821, 4118.974, 4116.41, 0, 0, []
1630163539.8898, 24, 0, 4136.41, 4184.103, 4077.949, 4130.256, 4120.513, 0, 0, []
1630163539.8976, 25, 0, 4140.513, 4196.923, 4065.641, 4147.179, 4127.179, 0, 0, []
1630163539.9055, 26, 0, 4134.872, 4186.154, 4076.41, 4148.718, 4118.974, 0, 0, []
1630163539.9132, 27, 0, 4122.051, 4152.308, 4049.744, 4132.308, 4097.436, 0, 0, []
1630163539.9211, 28, 0, 4113.846, 4131.795, 4051.795, 4128.718, 4088.205, 0, 0, []
1630163539.9289, 29, 0, 4125.641, 4148.205, 4074.872, 4138.462, 4101.026, 0, 0, []
1630163539.9368, 30, 0, 4136.41, 4181.026, 4053.846, 4136.41, 4107.179, 0, 0, []
1630163539.9446, 31, 0, 4136.41, 4187.692, 4072.821, 4134.359, 4099.487, 0, 0, []
1630163539.9524, 32, 0, 4148.718, 4172.821, 4065.641, 4145.641, 4110.769, 0, 0, []
1630163539.9602, 33, 0, 4164.615, 4172.308, 4066.154, 4154.872, 4133.846, 0, 0, []
1630163539.9681, 34, 0, 4154.359, 4176.41, 4078.462, 4146.154, 4137.436, 0, 0, []
1630163539.9759, 35, 0, 4135.897, 4163.59, 4050.256, 4130.256, 4124.103, 0, 0, []
1630163539.9838, 36, 0, 4144.103, 4156.923, 4066.667, 4130.769, 4126.154, 0, 0, []
1630163539.9915, 37, 0, 4142.564, 4158.462, 4047.179, 4125.641, 4125.641, 0, 0, []
1630163539.9994, 38, 0, 4117.436, 4141.026, 4036.41, 4112.821, 4101.026, 0, 0, []
1630163540.0072, 39, 0, 4129.744, 4137.949, 4068.205, 4118.974, 4093.333, 0, 0, []
1630163540.0151, 40, 0, 4151.795, 4161.026, 4049.744, 4121.538, 4103.59, 0, 0, []
1630163540.0229, 41, 0, 4140, 4154.359, 4061.026, 4110.769, 4101.538, 0, 0, []
1630163540.0307, 42, 0, 4141.026, 4139.487, 4059.487, 4112.308, 4106.154, 0, 0, []
1630163540.0385, 43, 0, 4155.897, 4158.974, 4055.897, 4128.205, 4114.872, 0, 0, []
1630163540.0463, 44, 0, 4139.487, 4153.333, 4075.385, 4129.231, 4104.615, 0, 0, []
1630163540.0542, 45, 0, 4143.077, 4123.077, 4056.923, 4126.667, 4109.744, 0, 0, []
1630163540.062, 46, 0, 4183.59, 4138.462, 4090.769, 4145.128, 4144.103, 0, 0, []
1630163540.0698, 47, 0, 4185.641, 4176.923, 4090.769, 4149.744, 4153.846, 0, 0, []
1630163540.0776, 48, 0, 4170.256, 4165.128, 4056.923, 4144.615, 4139.487, 0, 0, []
1630163540.0855, 49, 0, 4183.077, 4121.026, 4077.436, 4145.641, 4135.897, 0, 0, []
1630163540.0933, 50, 0, 4168.718, 4107.692, 4057.949, 4124.103, 4122.051, 0, 0, []
1630163540.1012, 51, 0, 4129.744, 4127.179, 4065.641, 4112.821, 4095.385, 0, 0, []
1630163540.109, 52, 0, 4149.231, 4129.744, 4091.282, 4133.333, 4106.154, 0, 0, []
1630163540.1168, 53, 0, 4206.154, 4133.333, 4096.923, 4151.282, 4152.308, 0, 0, []
1630163540.1246, 54, 0, 4230.769, 4176.923, 4113.333, 4156.41, 4181.026, 0, 0, []
1630163540.1325, 55, 0, 4241.026, 4194.872, 4087.692, 4150.256, 4185.128, 0, 0, []
1630163540.1403, 56, 0, 4244.615, 4164.615, 4090.769, 4136.41, 4176.923, 0, 0, []
1630163540.1482, 57, 0, 4222.051, 4156.41, 4081.026, 4123.077, 4148.718, 0, 0, []
1630163540.1559, 58, 0, 4194.872, 4160, 4049.231, 4118.462, 4122.051, 0, 0, []
1630163540.1638, 59, 0, 4187.179, 4130.769, 4076.923, 4119.487, 4114.872, 0, 0, []
1630163540.1716, 60, 0, 4184.615, 4118.974, 4061.538, 4111.795, 4108.205, 0, 0, []
1630163540.1795, 61, 0, 4177.436, 4134.872, 4061.538, 4099.487, 4098.462, 0, 0, []
1630163540.1873, 62, 0, 4170.256, 4121.538, 4079.487, 4097.949, 4095.385, 0, 0, []
1630163540.1951, 63, 0, 4159.487, 4108.205, 4049.744, 4096.923, 4087.692, 0, 0, []
1630163540.2029, 64, 0, 4150.256, 4130.769, 4058.462, 4089.231, 4074.359, 450, 0, []
1630163540.2108, 65, 0, 4153.333, 4148.205, 4052.308, 4091.282, 4077.949, 450, 0, []
1630163540.2186, 66, 0, 4166.667, 4136.923, 4065.641, 4105.128, 4090.256, 16180, 0, []
1630163540.2264, 67, 0, 4184.615, 4138.462, 4092.308, 4117.436, 4105.641, 450, 0, []
1630163540.2342, 68, 0, 4213.333, 4166.154, 4082.051, 4143.077, 4142.051, 16086, 0, []
1630163540.242, 69, 0, 4227.692, 4178.462, 4112.308, 4170.256, 4166.154, 450, 0, []
1630163540.2499, 70, 0, 4201.538, 4157.436, 4092.308, 4150.256, 4143.077, 235, 0, []
1630163540.2577, 71, 0, 4181.538, 4145.641, 4073.333, 4128.205, 4118.462, 450, 0, []
1630163540.2656, 72, 0, 4183.077, 4165.641, 4096.41, 4138.462, 4114.359, 450, 0, []
1630163540.2733, 73, 0, 4173.333, 4186.154, 4068.718, 4134.872, 4100.513, 16116, 0, []
1630163540.2812, 74, 0, 4156.923, 4191.282, 4086.667, 4128.205, 4089.744, 450, 0, []
1630163540.289, 75, 0, 4152.821, 4189.744, 4088.205, 4126.154, 4086.154, 16198, 0, []
1630163540.2969, 76, 0, 4147.179, 4177.949, 4059.487, 4113.846, 4074.359, 450, 0, []
1630163540.3047, 77, 0, 4135.897, 4173.846, 4070.256, 4109.744, 4063.077, 450, 0, []
1630163540.3125, 78, 0, 4145.128, 4178.974, 4070.769, 4120, 4071.282, 450, 0, []
1630163540.3203, 79, 0, 4173.846, 4177.436, 4101.538, 4129.231, 4092.821, 16198, 0, []
1630163540.3282, 80, 0, 4197.949, 4188.205, 4095.385, 4129.744, 4112.308, 450, 0, []
1630163540.336, 81, 0, 4207.692, 4201.026, 4073.846, 4136.41, 4121.026, 450, 0, []
1630163540.3439, 82, 0, 4196.41, 4189.231, 4087.179, 4138.974, 4110.769, 450, 0, []
1630163540.3516, 83, 0, 4172.821, 4170.769, 4050.769, 4121.538, 4091.282, 16198, 0, []
1630163540.3594, 84, 0, 4160, 4176.923, 4059.487, 4114.872, 4090.769, 450, 0, []
1630163540.3673, 85, 0, 4165.128, 4205.128, 4075.897, 4126.154, 4103.077, 450, 0, []
1630163540.3751, 86, 0, 4172.821, 4215.897, 4068.718, 4137.949, 4110.256, 450, 0, []
1630163540.383, 87, 0, 4153.333, 4184.615, 4081.026, 4120, 4092.308, 16198, 0, []
1630163540.3908, 88, 0, 4121.026, 4148.718, 4042.564, 4080.513, 4061.026, 450, 0, []
1630163540.3986, 89, 0, 4142.051, 4170.256, 4067.692, 4105.641, 4076.41, 450, 0, []
1630163540.4064, 90, 0, 4179.487, 4206.667, 4097.436, 4152.821, 4113.846, 450, 0, []
1630163540.4143, 91, 0, 4152.821, 4196.41, 4046.667, 4130.256, 4093.333, 16198, 0, []
1630163540.4221, 92, 0, 4129.744, 4192.821, 4052.308, 4104.103, 4067.692, 450, 0, []
1630163540.43, 93, 0, 4160.513, 4221.538, 4062.564, 4124.103, 4096.41, 450, 0, []
1630163540.4377, 94, 0, 4158.974, 4225.128, 4066.154, 4125.128, 4099.487, 450, 0, []
1630163540.4456, 95, 0, 4136.41, 4210.256, 4069.231, 4105.641, 4077.949, 16198, 0, []
1630163540.4534, 96, 0, 4146.154, 4211.795, 4055.897, 4107.692, 4081.026, 450, 0, []
1630163540.4613, 97, 0, 4146.154, 4216.41, 4082.051, 4112.821, 4072.821, 450, 0, []
1630163540.4691, 98, 0, 4143.077, 4207.692, 4074.872, 4116.41, 4072.821, 450, 0, []
1630163540.4769, 99, 0, 4150.256, 4201.026, 4076.41, 4124.103, 4088.718, 16198, 0, []
1630163540.4847, 100, 0, 4143.077, 4211.795, 4084.103, 4121.026, 4079.487, 450, 0, []
1630163540.4926, 101, 0, 4138.462, 4216.923, 4063.59, 4114.359, 4065.128, 450, 0, []
1630163540.5004, 102, 0, 4153.333, 4202.564, 4102.564, 4123.59, 4079.487, 450, 0, []
1630163540.5083, 103, 0, 4158.462, 4197.436, 4090.769, 4129.744, 4092.308, 16198, 0, []
1630163540.516, 104, 0, 4155.897, 4215.385, 4074.359, 4132.821, 4091.795, 450, 0, []
1630163540.5239, 105, 0, 4155.897, 4213.333, 4095.385, 4137.949, 4087.179, 450, 0, []
1630163540.5317, 106, 0, 4129.231, 4175.897, 4050.256, 4111.282, 4057.436, 450, 0, []
1630163540.5395, 107, 0, 4112.308, 4171.282, 4052.308, 4091.282, 4041.538, 16198, 0, []
1630163540.5474, 108, 0, 4144.615, 4202.051, 4076.41, 4121.026, 4078.462, 450, 0, []
1630163540.5551, 109, 0, 4175.897, 4207.179, 4084.103, 4150.256, 4114.872, 450, 0, []
1630163540.563, 110, 0, 4159.487, 4193.846, 4082.051, 4128.205, 4097.436, 450, 0, []
1630163540.5708, 111, 0, 4150.769, 4202.051, 4053.846, 4114.872, 4088.205, 16198, 0, []
1630163540.5787, 112, 0, 4173.846, 4200, 4081.026, 4140.513, 4111.795, 450, 0, []
1630163540.5865, 113, 0, 4173.333, 4169.744, 4067.179, 4134.872, 4103.077, 450, 0, []
1630163540.5943, 114, 0, 4155.385, 4184.103, 4041.026, 4110.256, 4071.795, 450, 0, []
1630163540.6021, 115, 0, 4145.128, 4208.205, 4070.769, 4105.128, 4056.923, 16198, 0, []
1630163540.61, 116, 0, 4150.256, 4201.538, 4053.333, 4106.667, 4059.487, 450, 0, []
1630163540.6178, 117, 0, 4169.744, 4213.333, 4064.615, 4117.436, 4078.974, 450, 0, []
1630163540.6257, 118, 0, 4171.795, 4209.231, 4071.282, 4120, 4087.179, 450, 0, []
1630163540.6334, 119, 0, 4140.513, 4166.667, 4044.103, 4106.667, 4053.333, 16198, 0, []
1630163540.6413, 120, 0, 4131.282, 4158.462, 4062.564, 4104.103, 4033.333, 450, 0, []
1630163540.6492, 121, 0, 4148.205, 4182.564, 4049.231, 4105.128, 4050.769, 450, 0, []
1630163540.6571, 122, 0, 4122.564, 4162.564, 4043.59, 4090.769, 4037.949, 450, 0, []
1630163540.665, 123, 0, 4106.154, 4154.872, 4046.154, 4085.128, 4022.564, 16198, 0, []
1630163540.6727, 124, 0, 4150.256, 4203.077, 4052.821, 4110.256, 4066.154, 450, 0, []
1630163540.6805, 125, 0, 4173.333, 4227.179, 4091.282, 4136.41, 4094.359, 450, 0, []
1630163540.6884, 126, 0, 4149.231, 4219.487, 4056.41, 4128.718, 4073.846, 450, 0, []
1630163540.6963, 127, 0, 4136.41, 4214.359, 4047.692, 4114.359, 4072.821, 16198, 0, []
1630163540.7041, 128, 0, 4142.051, 4210.256, 4068.718, 4113.333, 4090.769, 450, 0, []
1630163540.712, 0, 0, 4147.179, 4209.744, 4050.256, 4113.333, 4087.179, 450, 0, []
1630163540.7197, 1, 0, 4144.615, 4207.179, 4064.615, 4111.795, 4074.359, 450, 0, []
1630163540.7276, 2, 0, 4125.128, 4197.436, 4043.59, 4099.487, 4062.051, 16178, 0, []
1630163540.7354, 3, 0, 4132.308, 4202.564, 4059.487, 4108.718, 4070.769, 450, 0, []
1630163540.7433, 4, 0, 4170.769, 4221.026, 4095.897, 4136.923, 4099.487, 16108, 0, []
1630163540.7511, 5, 0, 4168.205, 4212.308, 4057.436, 4118.974, 4095.897, 450, 0, []
1630163540.7589, 6, 0, 4146.154, 4198.974, 4067.692, 4094.359, 4070.769, 248, 0, []
1630163540.7667, 7, 0, 4154.359, 4212.308, 4076.41, 4112.308, 4070.769, 450, 0, []
1630163540.7746, 8, 0, 4152.308, 4202.051, 4073.846, 4128.718, 4071.795, 450, 0, []
1630163540.7824, 9, 0, 4140.513, 4181.026, 4082.564, 4122.051, 4061.538, 16100, 0, []
1630163540.7903, 10, 0, 4150.769, 4200.513, 4053.333, 4109.744, 4058.462, 450, 0, []
1630163540.798, 11, 0, 4152.308, 4214.359, 4073.333, 4103.59, 4061.538, 16208, 0, []
1630163540.8059, 12, 0, 4135.897, 4205.641, 4072.821, 4101.026, 4056.923, 450, 0, []
1630163540.8137, 13, 0, 4120, 4196.923, 4044.103, 4084.103, 4036.41, 450, 0, []
1630163540.8216, 14, 0, 4120.513, 4187.179, 4054.872, 4072.308, 4027.179, 450, 0, []
1630163540.8294, 15, 0, 4133.333, 4182.564, 4042.564, 4090.769, 4046.154, 16208, 0, []
1630163540.8371, 16, 0, 4137.949, 4188.718, 4056.923, 4110.769, 4057.436, 0, 0, []
1630163540.845, 17, 0, 4155.385, 4191.282, 4067.692, 4118.462, 4071.282, 0, 0, []
1630163540.8528, 18, 0, 4190.256, 4204.103, 4082.564, 4142.564, 4103.077, 0, 0, []
1630163540.8607, 19, 0, 4186.667, 4236.923, 4102.051, 4150.769, 4103.077, 0, 0, []
1630163540.8685, 20, 0, 4148.205, 4223.59, 4047.692, 4121.026, 4064.103, 0, 0, []
1630163540.8763, 21, 0, 4145.128, 4194.359, 4061.026, 4118.974, 4056.41, 0, 0, []
1630163540.8841, 22, 0, 4162.564, 4209.744, 4087.179, 4131.282, 4077.949, 0, 0, []
1630163540.892, 23, 0, 4153.846, 4217.436, 4063.077, 4116.41, 4071.282, 0, 0, []
1630163540.8998, 24, 0, 4150.256, 4205.128, 4078.974, 4112.308, 4062.051, 0, 0, []
1630163540.9077, 25, 0, 4154.359, 4192.821, 4065.128, 4122.051, 4070.769, 0, 0, []
1630163540.9154, 26, 0, 4143.077, 4186.154, 4068.718, 4124.103, 4066.154, 0, 0, []
1630163540.9233, 27, 0, 4120.513, 4200, 4066.154, 4111.282, 4044.615, 0, 0, []
1630163540.9311, 28, 0, 4121.026, 4231.282, 4051.795, 4109.231, 4047.692, 0, 0, []
1630163540.939, 29, 0, 4152.821, 4225.128, 4092.308, 4137.949, 4082.051, 0, 0, []
1630163540.9468, 30, 0, 4172.821, 4193.333, 4073.846, 4151.795, 4097.436, 0, 0, []
1630163540.9545, 31, 0, 4164.103, 4199.487, 4062.051, 4136.41, 4082.051, 0, 0, []
1630163540.9624, 32, 0, 4146.154, 4204.103, 4065.128, 4118.462, 4064.103, 0, 0, []
1630163540.9702, 33, 0, 4126.154, 4183.077, 4031.282, 4102.564, 4044.615, 0, 0, []
1630163540.9781, 34, 0, 4115.385, 4173.846, 4055.385, 4104.103, 4040, 0, 0, []
1630163540.9859, 35, 0, 4134.872, 4188.205, 4068.718, 4125.128, 4071.282, 0, 0, []
1630163540.9937, 36, 0, 4147.692, 4203.59, 4075.897, 4136.923, 4093.846, 0, 0, []
1630163541.0015, 37, 0, 4137.436, 4215.897, 4075.385, 4130.256, 4084.615, 0, 0, []
1630163541.0094, 38, 0, 4142.564, 4226.667, 4049.231, 4133.846, 4092.821, 0, 0, []
1630163541.0172, 39, 0, 4159.487, 4223.59, 4082.564, 4149.231, 4110.769, 0, 0, []
1630163541.0251, 40, 0, 4167.179, 4215.897, 4082.051, 4139.487, 4104.615, 0, 0, []
1630163541.0329, 41, 0, 4161.538, 4211.795, 4067.179, 4111.282, 4083.077, 0, 0, []
1630163541.0407, 42, 0, 4146.667, 4213.333, 4065.641, 4097.436, 4068.205, 0, 0, []
1630163541.0485, 43, 0, 4148.205, 4210.769, 4038.462, 4107.692, 4072.308, 0, 0, []
1630163541.0564, 44, 0, 4168.718, 4222.564, 4071.282, 4125.641, 4092.308, 0, 0, []
1630163541.0642, 45, 0, 4178.974, 4244.615, 4070.769, 4124.615, 4098.462, 0, 0, []
1630163541.0721, 46, 0, 4174.359, 4230.256, 4055.897, 4119.487, 4089.744, 0, 0, []
1630163541.0798, 47, 0, 4175.897, 4210.769, 4089.231, 4126.667, 4090.256, 0, 0, []
1630163541.0877, 48, 0, 4185.128, 4220, 4072.821, 4129.231, 4100, 0, 0, []
1630163541.0955, 49, 0, 4182.564, 4228.718, 4072.308, 4120, 4090.769, 0, 0, []
1630163541.1034, 50, 0, 4167.179, 4212.821, 4066.154, 4109.231, 4072.821, 0, 0, []
1630163541.1112, 51, 0, 4170.256, 4205.128, 4063.59, 4122.564, 4085.128, 0, 0, []
1630163541.119, 52, 0, 4197.949, 4224.103, 4096.923, 4148.718, 4114.872, 0, 0, []
1630163541.1268, 53, 0, 4217.436, 4247.692, 4085.641, 4158.462, 4123.077, 0, 0, []
1630163541.1346, 54, 0, 4217.949, 4254.872, 4100.513, 4156.923, 4120, 0, 0, []
1630163541.1425, 55, 0, 4212.821, 4226.667, 4091.795, 4136.41, 4127.692, 0, 0, []
1630163541.1503, 56, 0, 4218.462, 4218.974, 4071.282, 4120.513, 4136.41, 0, 0, []
1630163541.1581, 57, 0, 4239.487, 4260.513, 4118.462, 4145.641, 4145.128, 0, 0, []
1630163541.1659, 58, 0, 4250.769, 4269.231, 4108.205, 4162.564, 4151.795, 0, 0, []
1630163541.1738, 59, 0, 4247.692, 4252.821, 4102.564, 4152.821, 4154.872, 0, 0, []
1630163541.1816, 60, 0, 4238.974, 4264.615, 4104.615, 4146.667, 4147.692, 0, 0, []
1630163541.1895, 61, 0, 4215.385, 4267.179, 4075.897, 4138.462, 4117.949, 0, 0, []
1630163541.1972, 62, 0, 4197.436, 4252.821, 4090.769, 4130.256, 4100, 0, 0, []
1630163541.2051, 63, 0, 4205.641, 4257.949, 4076.923, 4135.897, 4111.282, 0, 0, []
1630163541.2129, 64, 0, 4210.769, 4258.462, 4083.59, 4145.641, 4120.513, 450, 0, []
1630163541.2208, 65, 0, 4209.744, 4229.744, 4098.462, 4149.744, 4117.949, 450, 0, []
1630163541.2286, 66, 0, 4215.897, 4220, 4077.949, 4154.359, 4123.59, 16188, 0, []
1630163541.2364, 67, 0, 4214.872, 4225.641, 4092.308, 4157.949, 4137.949, 450, 0, []
1630163541.2442, 68, 0, 4206.154, 4219.487, 4065.641, 4142.564, 4125.641, 16096, 0, []
1630163541.2521, 69, 0, 4194.359, 4216.923, 4060.513, 4127.692, 4097.436, 450, 0, []
1630163541.2599, 70, 0, 4187.179, 4209.231, 4080, 4130.256, 4100.513, 240, 0, []
1630163541.2678, 71, 0, 4195.897, 4203.077, 4060.513, 4137.436, 4129.744, 450, 0, []
1630163541.2755, 72, 0, 4213.846, 4217.436, 4088.718, 4151.795, 4142.564, 450, 0, []
1630163541.2834, 73, 0, 4225.641, 4243.59, 4085.128, 4158.462, 4140.513, 16112, 0, []
1630163541.2912, 74, 0, 4229.744, 4253.333, 4080, 4154.359, 4143.077, 450, 0, []
1630163541.299, 75, 0, 4215.897, 4232.821, 4095.897, 4145.128, 4134.872, 16208, 0, []
1630163541.3069, 76, 0, 4194.359, 4205.128, 4063.59, 4138.462, 4126.154, 450, 0, []
1630163541.3146, 77, 0, 4202.564, 4205.128, 4082.051, 4156.41, 4135.897, 450, 0, []
1630163541.3225, 78, 0, 4221.026, 4236.923, 4086.667, 4171.282, 4148.205, 450, 0, []
1630163541.3303, 79, 0, 4206.667, 4228.718, 4064.103, 4157.949, 4140.513, 16208, 0, []
1630163541.3382, 80, 0, 4185.641, 4191.282, 4066.154, 4140, 4127.179, 450, 0, []
1630163541.346, 81, 0, 4184.615, 4207.179, 4044.103, 4130.769, 4124.103, 450, 0, []
1630163541.3539, 82, 0, 4178.974, 4231.795, 4060, 4119.487, 4115.897, 450, 0, []
1630163541.3616, 83, 0, 4175.385, 4201.538, 4056.923, 4113.333, 4108.718, 16208, 0, []
1630163541.3695, 84, 0, 4181.026, 4189.744, 4048.205, 4118.462, 4110.769, 450, 0, []
1630163541.3773, 85, 0, 4175.897, 4223.59, 4070.769, 4121.538, 4104.615, 450, 0, []
1630163541.3852, 86, 0, 4183.59, 4244.103, 4054.872, 4129.744, 4105.641, 450, 0, []
1630163541.393, 87, 0, 4215.385, 4245.641, 4089.231, 4161.026, 4138.462, 16208, 0, []
1630163541.4008, 88, 0, 4220, 4237.949, 4095.897, 4167.692, 4151.795, 450, 0, []
1630163541.4086, 89, 0, 4198.462, 4222.564, 4056.923, 4138.974, 4128.205, 450, 0, []
1630163541.4165, 90, 0, 4195.897, 4203.59, 4074.872, 4133.333, 4119.487, 450, 0, []
1630163541.4243, 91, 0, 4195.385, 4197.436, 4053.333, 4136.41, 4121.026, 16208, 0, []
1630163541.4322, 92, 0, 4180, 4201.538, 4044.615, 4120, 4104.103, 450, 0, []
1630163541.4399, 93, 0, 4178.974, 4195.897, 4053.333, 4111.795, 4098.974, 450, 0, []
1630163541.4478, 94, 0, 4202.051, 4190.769, 4047.179, 4127.179, 4122.564, 450, 0, []
1630163541.4556, 95, 0, 4215.385, 4193.333, 4076.41, 4143.59, 4132.821, 16208, 0, []
1630163541.4634, 96, 0, 4209.744, 4204.103, 4062.051, 4141.026, 4126.154, 450, 0, []
1630163541.4713, 97, 0, 4197.949, 4208.205, 4065.641, 4133.846, 4121.538, 450, 0, []
1630163541.479, 98, 0, 4187.179, 4204.615, 4069.744, 4125.641, 4121.538, 450, 0, []
1630163541.4869, 99, 0, 4188.718, 4204.103, 4044.615, 4125.641, 4130.256, 16208, 0, []
1630163541.4947, 100, 0, 4200, 4222.051, 4080.513, 4139.487, 4144.103, 450, 0, []
1630163541.5026, 101, 0, 4202.051, 4255.385, 4073.333, 4142.564, 4145.128, 450, 0, []
1630163541.5104, 102, 0, 4200.513, 4268.718, 4064.615, 4134.359, 4140, 450, 0, []
1630163541.5182, 103, 0, 4201.026, 4246.667, 4071.282, 4125.128, 4137.436, 16208, 0, []
1630163541.526, 104, 0, 4193.333, 4197.436, 4037.436, 4116.41, 4132.308, 450, 0, []
1630163541.5339, 105, 0, 4192.821, 4177.949, 4056.41, 4120.513, 4132.821, 450, 0, []
1630163541.5417, 106, 0, 4198.462, 4207.692, 4061.026, 4126.667, 4136.41, 450, 0, []
1630163541.5496, 107, 0, 4203.077, 4228.205, 4067.179, 4140, 4146.154, 16208, 0, []
1630163541.5573, 108, 0, 4210.256, 4212.308, 4078.974, 4152.821, 4150.256, 450, 0, []
1630163541.5652, 109, 0, 4187.692, 4189.744, 4036.923, 4129.231, 4116.923, 450, 0, []
1630163541.573, 110, 0, 4163.077, 4184.103, 4052.821, 4111.282, 4090.769, 450, 0, []
1630163541.5809, 111, 0, 4189.744, 4191.795, 4067.692, 4130.769, 4125.128, 16208, 0, []
1630163541.5887, 112, 0, 4211.282, 4197.949, 4061.026, 4138.974, 4146.154, 450, 0, []
1630163541.5965, 113, 0, 4181.538, 4185.641, 4065.641, 4116.923, 4119.487, 450, 0, []
1630163541.6043, 114, 0, 4166.667, 4187.179, 4035.897, 4103.077, 4112.308, 450, 0, []
1630163541.6121, 115, 0, 4181.538, 4220.513, 4060, 4116.41, 4122.564, 16208, 0, []
1630163541.62, 116, 0, 4188.205, 4219.487, 4069.744, 4126.667, 4115.385, 450, 0, []
1630163541.6279, 117, 0, 4187.179, 4180, 4060, 4123.59, 4114.359, 450, 0, []
1630163541.6357, 118, 0, 4185.128, 4196.41, 4085.641, 4122.051, 4128.205, 450, 0, []
1630163541.6436, 119, 0, 4180, 4240.513, 4060.513, 4116.923, 4123.077, 16208, 0, []
1630163541.6514, 120, 0, 4176.923, 4218.462, 4067.692, 4118.974, 4108.205, 450, 0, []
1630163541.6592, 121, 0, 4192.308, 4206.667, 4085.128, 4141.026, 4130.769, 450, 0, []
1630163541.6671, 122, 0, 4207.179, 4249.744, 4073.846, 4155.385, 4162.051, 450, 0, []
1630163541.6749, 123, 0, 4192.308, 4258.462, 4074.872, 4135.385, 4143.077, 16208, 0, []
1630163541.6827, 124, 0, 4185.641, 4229.744, 4050.256, 4120.513, 4117.949, 450, 0, []
1630163541.6905, 125, 0, 4213.846, 4229.744, 4084.615, 4152.821, 4142.051, 450, 0, []
1630163541.6984, 126, 0, 4211.282, 4227.179, 4093.333, 4161.538, 4143.59, 450, 0, []
1630163541.7062, 127, 0, 4165.641, 4206.154, 4046.154, 4123.59, 4093.846, 16208, 0, []
1630163541.7141, 128, 0, 4168.205, 4213.333, 4077.949, 4123.59, 4088.718, 450, 0, []
1630163541.7218, 0, 0, 4195.385, 4225.641, 4085.641, 4146.154, 4115.897, 450, 0, []
1630163541.7297, 1, 0, 4190.256, 4216.41, 4090.256, 4152.308, 4111.282, 450, 0, []
1630163541.7375, 2, 0, 4182.564, 4221.026, 4090.256, 4149.744, 4099.487, 16189, 0, []
1630163541.7454, 3, 0, 4187.179, 4244.103, 4056.41, 4141.026, 4105.128, 450, 0, []
1630163541.7532, 4, 0, 4189.231, 4236.923, 4080, 4137.949, 4114.872, 16095, 0, []
1630163541.7609, 5, 0, 4194.872, 4226.667, 4078.462, 4142.564, 4115.897, 450, 0, []
1630163541.7688, 6, 0, 4201.026, 4257.949, 4077.949, 4146.667, 4110.256, 239, 0, []
1630163541.7766, 7, 0, 4183.59, 4269.744, 4077.436, 4137.436, 4092.821, 450, 0, []
1630163541.7845, 8, 0, 4165.128, 4230.769, 4047.692, 4124.103, 4078.974, 450, 0, []
1630163541.7923, 9, 0, 4185.128, 4223.59, 4091.282, 4139.487, 4098.974, 16117, 0, []
1630163541.8001, 10, 0, 4208.205, 4257.436, 4096.923, 4155.385, 4127.179, 450, 0, []
1630163541.8079, 11, 0, 4192.821, 4250.256, 4073.333, 4142.564, 4117.949, 16204, 0, []
1630163541.8158, 12, 0, 4189.231, 4251.282, 4096.923, 4143.077, 4108.718, 450, 0, []
1630163541.8236, 13, 0, 4214.872, 4282.051, 4090.256, 4164.615, 4136.923, 450, 0, []
1630163541.8315, 14, 0, 4206.667, 4261.026, 4089.744, 4158.974, 4144.615, 450, 0, []
1630163541.8392, 15, 0, 4195.897, 4234.872, 4077.949, 4143.077, 4139.487, 16204, 0, []
1630163541.8471, 16, 0, 4217.436, 4257.436, 4082.051, 4149.231, 4156.41, 0, 0, []
1630163541.8549, 17, 0, 4218.462, 4270.769, 4097.949, 4151.795, 4162.051, 0, 0, []
1630163541.8628, 18, 0, 4200, 4261.026, 4068.718, 4151.795, 4151.795, 0, 0, []
1630163541.8706, 19, 0, 4188.205, 4249.231, 4084.615, 4151.795, 4136.41, 0, 0, []
1630163541.8784, 20, 0, 4177.949, 4225.128, 4080.513, 4136.923, 4122.564, 0, 0, []
1630163541.8862, 21, 0, 4193.846, 4252.821, 4078.462, 4148.205, 4136.41, 0, 0, []
1630163541.8941, 22, 0, 4220.513, 4300, 4124.615, 4183.077, 4163.077, 0, 0, []
1630163541.9019, 23, 0, 4213.846, 4273.846, 4105.128, 4170.256, 4159.487, 0, 0, []
1630163541.9098, 24, 0, 4191.282, 4244.103, 4100, 4135.897, 4139.487, 0, 0, []
1630163541.9175, 25, 0, 4186.667, 4256.41, 4088.718, 4130.769, 4129.231, 0, 0, []
1630163541.9253, 26, 0, 4184.103, 4241.026, 4064.615, 4134.359, 4125.641, 0, 0, []
1630163541.9332, 27, 0, 4170.769, 4200, 4082.051, 4128.718, 4121.026, 0, 0, []
1630163541.941, 28, 0, 4168.205, 4197.436, 4067.692, 4122.564, 4117.949, 0, 0, []
1630163541.9489, 29, 0, 4184.615, 4217.949, 4100, 4140, 4132.308, 0, 0, []
1630163541.9567, 30, 0, 4192.821, 4218.974, 4116.41, 4155.385, 4146.154, 0, 0, []
1630163541.9645, 31, 0, 4181.026, 4206.667, 4073.846, 4145.641, 4138.462, 0, 0, []
1630163541.9723, 32, 0, 4188.205, 4233.846, 4093.333, 4151.795, 4141.026, 0, 0, []
1630163541.9802, 33, 0, 4206.667, 4275.897, 4092.821, 4167.692, 4164.103, 0, 0, []
1630163541.988, 34, 0, 4204.103, 4248.718, 4094.359, 4169.231, 4177.436, 0, 0, []
1630163541.9959, 35, 0, 4205.128, 4223.077, 4098.974, 4163.077, 4174.872, 0, 0, []
1630163542.0036, 36, 0, 4218.974, 4258.462, 4082.051, 4161.538, 4171.795, 0, 0, []
1630163542.0115, 37, 0, 4220, 4251.282, 4111.795, 4167.692, 4174.872, 0, 0, []
1630163542.0193, 38, 0, 4206.154, 4213.333, 4096.923, 4161.026, 4167.179, 0, 0, []
1630163542.0272, 39, 0, 4193.846, 4235.385, 4086.667, 4147.692, 4145.128, 0, 0, []
1630163542.035, 40, 0, 4190.256, 4244.103, 4097.949, 4148.718, 4139.487, 0, 0, []
1630163542.0428, 41, 0, 4202.564, 4222.051, 4087.179, 4167.692, 4155.385, 0, 0, []
1630163542.0506, 42, 0, 4197.949, 4239.487, 4111.795, 4169.744, 4151.795, 0, 0, []
1630163542.0584, 43, 0, 4180.513, 4249.231, 4080.513, 4140.513, 4128.718, 0, 0, []
1630163542.0663, 44, 0, 4193.333, 4227.179, 4063.59, 4132.308, 4139.487, 0, 0, []
1630163542.0741, 45, 0, 4211.282, 4226.667, 4097.949, 4156.41, 4163.077, 0, 0, []
1630163542.0819, 46, 0, 4205.128, 4233.846, 4075.385, 4151.795, 4147.179, 0, 0, []
1630163542.0897, 47, 0, 4190.769, 4216.923, 4074.872, 4121.538, 4123.59, 0, 0, []
1630163542.0976, 48, 0, 4184.615, 4195.897, 4068.205, 4113.846, 4125.641, 0, 0, []
1630163542.1054, 49, 0, 4192.308, 4196.923, 4074.872, 4140, 4149.231, 0, 0, []
1630163542.1133, 50, 0, 4203.077, 4204.615, 4096.923, 4151.282, 4156.923, 0, 0, []
1630163542.121, 51, 0, 4193.846, 4203.077, 4062.564, 4124.615, 4143.59, 0, 0, []
1630163542.1289, 52, 0, 4198.462, 4223.077, 4089.231, 4126.667, 4145.128, 0, 0, []
1630163542.1367, 53, 0, 4224.103, 4250.769, 4105.641, 4152.821, 4158.462, 0, 0, []
1630163542.1446, 54, 0, 4198.974, 4233.333, 4074.872, 4140, 4138.462, 0, 0, []
1630163542.1524, 55, 0, 4164.615, 4202.564, 4083.59, 4117.436, 4108.205, 0, 0, []
1630163542.1602, 56, 0, 4192.821, 4218.462, 4085.128, 4128.205, 4130.256, 0, 0, []
1630163542.168, 57, 0, 4222.564, 4245.641, 4108.205, 4147.692, 4159.487, 0, 0, []
1630163542.1759, 58, 0, 4212.308, 4254.359, 4097.436, 4142.564, 4152.821, 0, 0, []
1630163542.1837, 59, 0, 4197.436, 4246.154, 4072.308, 4133.333, 4136.41, 0, 0, []
1630163542.1916, 60, 0, 4197.436, 4234.359, 4101.026, 4137.436, 4128.718, 0, 0, []
1630163542.1993, 61, 0, 4218.974, 4275.385, 4097.949, 4155.897, 4153.333, 0, 0, []
1630163542.2072, 62, 0, 4252.821, 4327.179, 4131.282, 4188.205, 4197.949, 0, 0, []
1630163542.215, 63, 0, 4256.923, 4311.795, 4144.103, 4195.385, 4208.205, 0, 0, []
1630163542.2229, 64, 0, 4236.923, 4266.154, 4096.41, 4176.923, 4179.487, 450, 0, []
1630163542.2307, 65, 0, 4229.231, 4265.128, 4104.615, 4169.744, 4159.487, 450, 0, []
1630163542.2384, 66, 0, 4227.179, 4305.128, 4103.077, 4169.231, 4161.026, 16190, 0, []
1630163542.2463, 67, 0, 4217.949, 4310.256, 4106.667, 4158.974, 4149.231, 450, 0, []
1630163542.2541, 68, 0, 4205.641, 4255.385, 4096.923, 4131.795, 4128.205, 16095, 0, []
1630163542.262, 69, 0, 4224.615, 4245.641, 4097.436, 4143.077, 4151.795, 450, 0, []
1630163542.2698, 70, 0, 4268.205, 4309.744, 4162.564, 4200.513, 4200.513, 242, 0, []
1630163542.2777, 71, 0, 4272.821, 4316.923, 4123.59, 4200, 4204.103, 450, 0, []
1630163542.2854, 72, 0, 4244.103, 4277.949, 4083.59, 4155.385, 4173.846, 450, 0, []
1630163542.2933, 73, 0, 4238.462, 4294.872, 4118.462, 4155.897, 4165.641, 16117, 0, []
1630163542.3011, 74, 0, 4251.795, 4310.256, 4114.359, 4175.897, 4179.487, 450, 0, []
1630163542.309, 75, 0, 4252.821, 4291.282, 4122.564, 4175.897, 4187.692, 16204, 0, []
1630163542.3168, 76, 0, 4249.231, 4280.513, 4112.821, 4165.128, 4188.205, 450, 0, []
1630163542.3246, 77, 0, 4247.692, 4256.923, 4113.846, 4152.821, 4183.077, 450, 0, []
1630163542.3324, 78, 0, 4250.769, 4238.974, 4132.821, 4157.436, 4181.538, 450, 0, []
1630163542.3403, 79, 0, 4241.026, 4255.385, 4108.205, 4166.154, 4170.256, 16204, 0, []
1630163542.3481, 80, 0, 4220, 4268.718, 4119.487, 4163.077, 4154.872, 450, 0, []
1630163542.356, 81, 0, 4223.077, 4289.231, 4106.154, 4161.026, 4160, 450, 0, []
1630163542.3637, 82, 0, 4238.462, 4292.821, 4096.41, 4168.205, 4165.128, 450, 0, []
1630163542.3716, 83, 0, 4229.231, 4256.923, 4117.949, 4158.462, 4144.103, 16204, 0, []
1630163542.3794, 84, 0, 4216.923, 4253.846, 4090.256, 4145.641, 4130.769, 450, 0, []
1630163542.3872, 85, 0, 4236.41, 4289.231, 4111.282, 4164.615, 4163.077, 450, 0, []
1630163542.3951, 86, 0, 4256.41, 4284.615, 4115.385, 4174.359, 4192.821, 450, 0, []
1630163542.4028, 87, 0, 4242.051, 4259.487, 4093.846, 4153.333, 4177.436, 16204, 0, []
1630163542.4107, 88, 0, 4228.718, 4259.487, 4115.897, 4141.026, 4154.872, 450, 0, []
1630163542.4185, 89, 0, 4232.821, 4253.846, 4098.462, 4141.538, 4152.821, 450, 0, []
1630163542.4264, 90, 0, 4225.641, 4249.744, 4108.718, 4144.615, 4157.436, 450, 0, []
1630163542.4342, 91, 0, 4214.359, 4249.744, 4119.487, 4154.359, 4166.667, 16204, 0, []
1630163542.442, 92, 0, 4229.744, 4237.436, 4117.949, 4181.538, 4182.564, 450, 0, []
1630163542.4498, 93, 0, 4249.744, 4240.513, 4144.615, 4193.333, 4186.667, 450, 0, []
1630163542.4577, 94, 0, 4239.487, 4246.154, 4112.821, 4163.59, 4172.821, 450, 0, []
1630163542.4655, 95, 0, 4208.205, 4232.308, 4098.462, 4131.282, 4149.744, 16204, 0, []
1630163542.4734, 96, 0, 4189.231, 4220.513, 4092.821, 4125.641, 4136.41, 450, 0, []
1630163542.4811, 97, 0, 4212.308, 4233.846, 4095.385, 4150.769, 4160.513, 450, 0, []
1630163542.489, 98, 0, 4236.923, 4244.103, 4149.744, 4182.564, 4189.231, 450, 0, []
1630163542.4968, 99, 0, 4218.462, 4223.59, 4124.615, 4180, 4175.385, 16204, 0, []
1630163542.5047, 100, 0, 4194.872, 4198.462, 4104.615, 4151.795, 4149.231, 450, 0, []
1630163542.5125, 101, 0, 4195.385, 4197.949, 4108.718, 4124.615, 4141.538, 450, 0, []
1630163542.5203, 102, 0, 4203.077, 4200, 4092.308, 4116.41, 4138.974, 450, 0, []
1630163542.5281, 103, 0, 4222.051, 4192.308, 4133.846, 4143.59, 4159.487, 16204, 0, []
1630163542.5359, 104, 0, 4253.846, 4214.872, 4129.744, 4182.564, 4189.231, 450, 0, []
1630163542.5438, 105, 0, 4246.154, 4241.538, 4110.256, 4195.385, 4174.359, 450, 0, []
1630163542.5516, 106, 0, 4214.359, 4233.333, 4117.436, 4183.59, 4147.179, 450, 0, []
1630163542.5594, 107, 0, 4218.462, 4236.923, 4105.128, 4168.205, 4152.308, 16204, 0, []
1630163542.5672, 108, 0, 4212.821, 4253.846, 4116.923, 4150.769, 4147.179, 450, 0, []
1630163542.5751, 109, 0, 4186.667, 4242.564, 4094.359, 4136.41, 4133.846, 450, 0, []
1630163542.5829, 110, 0, 4198.974, 4229.744, 4096.923, 4135.385, 4154.359, 450, 0, []
1630163542.5908, 111, 0, 4224.103, 4237.949, 4122.051, 4132.308, 4176.41, 16204, 0, []
1630163542.5986, 112, 0, 4215.897, 4253.333, 4097.949, 4123.077, 4161.538, 450, 0, []
1630163542.6064, 113, 0, 4201.538, 4251.282, 4119.487, 4132.308, 4138.974, 450, 0, []
1630163542.6142, 114, 0, 4208.205, 4227.179, 4114.359, 4148.718, 4144.103, 450, 0, []
1630163542.6221, 115, 0, 4206.154, 4223.59, 4092.821, 4150.256, 4154.359, 16204, 0, []
1630163542.63, 116, 0, 4181.026, 4243.077, 4095.385, 4133.846, 4136.923, 450, 0, []
1630163542.6379, 117, 0, 4171.282, 4237.436, 4076.41, 4122.051, 4124.103, 450, 0, []
1630163542.6457, 118, 0, 4189.231, 4219.487, 4123.077, 4141.538, 4144.615, 450, 0, []
1630163542.6535, 119, 0, 4196.41, 4236.41, 4126.667, 4156.923, 4154.359, 16204, 0, []
1630163542.6613, 120, 0, 4178.462, 4250.769, 4090.256, 4149.744, 4136.41, 450, 0, []
1630163542.6691, 121, 0, 4176.923, 4243.59, 4116.923, 4148.718, 4138.974, 450, 0, []
1630163542.677, 122, 0, 4175.897, 4252.821, 4102.051, 4136.41, 4145.128, 450, 0, []
1630163542.6847, 123, 0, 4159.487, 4252.821, 4100.513, 4124.615, 4134.872, 16204, 0, []
1630163542.6926, 124, 0, 4169.744, 4233.846, 4100, 4134.872, 4138.974, 450, 0, []
1630163542.7004, 125, 0, 4184.615, 4240, 4088.205, 4134.359, 4148.205, 450, 0, []
1630163542.7083, 126, 0, 4168.205, 4245.128, 4105.128, 4117.949, 4134.359, 450, 0, []
1630163542.7161, 127, 0, 4134.872, 4208.205, 4067.692, 4089.231, 4094.359, 16204, 0, []
1630163542.7239, 128, 0, 4131.795, 4187.692, 4078.462, 4086.154, 4085.128, 450, 0, []
1630163542.7317, 0, 0, 4180.513, 4226.667, 4123.077, 4130.769, 4132.308, 450, 0, []
1630163542.7396, 1, 0, 4192.308, 4236.923, 4107.179, 4145.128, 4137.949, 450, 0, []
1630163542.7474, 2, 0, 4153.333, 4198.974, 4097.436, 4111.795, 4092.821, 16187, 0, []
1630163542.7553, 3, 0, 4163.077, 4213.846, 4093.333, 4120.513, 4113.846, 450, 0, []
1630163542.763, 4, 0, 4197.436, 4253.846, 4114.872, 4154.359, 4152.308, 16097, 0, []
1630163542.7709, 5, 0, 4172.821, 4227.692, 4086.667, 4126.667, 4114.359, 450, 0, []
1630163542.7787, 6, 0, 4157.436, 4209.744, 4054.872, 4107.692, 4095.897, 234, 0, []
1630163542.7866, 7, 0, 4184.103, 4239.487, 4110.769, 4137.949, 4127.692, 450, 0, []
1630163542.7944, 8, 0, 4175.897, 4227.692, 4094.872, 4131.795, 4117.949, 450, 0, []
1630163542.8022, 9, 0, 4158.462, 4195.897, 4095.897, 4122.051, 4100.513, 16120, 0, []
1630163542.81, 10, 0, 4180.513, 4222.564, 4136.41, 4145.641, 4126.154, 450, 0, []
1630163542.8179, 11, 0, 4209.231, 4260, 4107.692, 4148.205, 4153.846, 16196, 0, []
1630163542.8257, 12, 0, 4218.462, 4242.564, 4112.308, 4138.462, 4169.744, 450, 0, []
1630163542.8335, 13, 0, 4213.333, 4231.795, 4102.564, 4138.974, 4171.795, 450, 0, []
1630163542.8413, 14, 0, 4200.513, 4255.897, 4089.231, 4134.872, 4152.821, 450, 0, []
1630163542.8491, 15, 0, 4200, 4263.077, 4110.769, 4141.026, 4155.385, 16196, 0, []
1630163542.857, 16, 0, 4203.077, 4236.923, 4113.333, 4153.846, 4173.333, 0, 0, []
1630163542.8648, 17, 0, 4194.872, 4223.59, 4134.872, 4150.256, 4160, 0, 0, []
1630163542.8727, 18, 0, 4182.564, 4222.051, 4104.103, 4131.795, 4134.872, 0, 0, []
1630163542.8804, 19, 0, 4171.282, 4212.821, 4086.154, 4125.641, 4140, 0, 0, []
1630163542.8883, 20, 0, 4180.513, 4233.846, 4126.154, 4144.103, 4161.538, 0, 0, []
1630163542.8961, 21, 0, 4202.564, 4263.59, 4113.333, 4157.949, 4171.282, 0, 0, []
1630163542.904, 22, 0, 4206.667, 4250.769, 4121.538, 4157.949, 4171.795, 0, 0, []
1630163542.9118, 23, 0, 4201.026, 4210.256, 4116.923, 4148.718, 4168.718, 0, 0, []
1630163542.9197, 24, 0, 4198.462, 4200.513, 4101.538, 4148.205, 4158.462, 0, 0, []
1630163542.9274, 25, 0, 4193.846, 4226.154, 4113.333, 4154.359, 4142.051, 0, 0, []
1630163542.9353, 26, 0, 4184.103, 4231.795, 4086.154, 4148.718, 4134.872, 0, 0, []
1630163542.9431, 27, 0, 4172.308, 4223.59, 4096.41, 4140, 4124.103, 0, 0, []
1630163542.951, 28, 0, 4162.051, 4224.103, 4091.282, 4130.256, 4106.154, 0, 0, []
1630163542.9588, 29, 0, 4177.949, 4242.051, 4076.923, 4134.872, 4118.462, 0, 0, []
1630163542.9666, 30, 0, 4193.846, 4255.385, 4107.692, 4139.487, 4140.513, 0, 0, []
1630163542.9744, 31, 0, 4194.872, 4251.282, 4089.744, 4132.308, 4138.462, 0, 0, []
1630163542.9824, 32, 0, 4203.077, 4248.718, 4106.154, 4141.026, 4144.103, 0, 0, []
1630163542.9903, 33, 0, 4194.359, 4238.462, 4112.821, 4141.026, 4141.538, 0, 0, []
1630163542.9983, 34, 0, 4162.051, 4224.615, 4077.949, 4114.359, 4106.154, 0, 0, []
1630163543.0061, 35, 0, 4156.41, 4234.872, 4103.077, 4114.359, 4097.949, 0, 0, []
1630163543.0139, 36, 0, 4172.308, 4242.051, 4096.923, 4134.359, 4121.538, 0, 0, []
1630163543.0218, 37, 0, 4173.846, 4230.256, 4089.744, 4132.308, 4125.128, 0, 0, []
1630163543.0296, 38, 0, 4181.026, 4245.641, 4087.179, 4124.103, 4129.744, 0, 0, []
1630163543.0375, 39, 0, 4195.385, 4266.667, 4071.795, 4132.821, 4144.615, 0, 0, []
1630163543.0452, 40, 0, 4193.333, 4251.795, 4108.718, 4150.769, 4147.179, 0, 0, []
1630163543.0531, 41, 0, 4187.692, 4251.795, 4097.949, 4151.795, 4148.718, 0, 0, []
1630163543.0609, 42, 0, 4182.564, 4255.897, 4091.795, 4144.103, 4151.282, 0, 0, []
1630163543.0688, 43, 0, 4181.026, 4238.974, 4103.077, 4138.974, 4143.077, 0, 0, []
1630163543.0766, 44, 0, 4192.821, 4244.103, 4079.487, 4131.795, 4137.436, 0, 0, []
1630163543.0844, 45, 0, 4193.846, 4243.59, 4095.897, 4126.154, 4132.821, 0, 0, []
1630163543.0922, 46, 0, 4171.282, 4230.256, 4080, 4116.41, 4114.359, 0, 0, []
1630163543.1001, 47, 0, 4155.897, 4228.718, 4075.897, 4112.821, 4105.128, 0, 0, []
1630163543.1079, 48, 0, 4158.462, 4220, 4095.385, 4113.333, 4107.692, 0, 0, []
1630163543.1158, 49, 0, 4174.359, 4222.051, 4079.487, 4122.051, 4118.462, 0, 0, []
1630163543.1235, 50, 0, 4212.308, 4251.795, 4117.949, 4159.487, 4154.359, 0, 0, []
1630163543.1314, 51, 0, 4239.487, 4284.615, 4125.641, 4189.231, 4183.59, 0, 0, []
1630163543.1392, 52, 0, 4222.564, 4274.872, 4105.128, 4171.282, 4174.359, 0, 0, []
1630163543.1471, 53, 0, 4212.308, 4269.231, 4116.923, 4146.667, 4162.564, 0, 0, []
1630163543.1549, 54, 0, 4229.231, 4289.231, 4104.615, 4151.282, 4171.795, 0, 0, []
1630163543.1628, 55, 0, 4224.103, 4288.718, 4123.077, 4158.974, 4168.718, 0, 0, []
1630163543.1707, 56, 0, 4201.026, 4272.308, 4104.103, 4140, 4146.154, 0, 0, []
1630163543.1785, 57, 0, 4197.949, 4260, 4078.974, 4131.795, 4136.923, 0, 0, []
1630163543.1864, 58, 0, 4205.128, 4259.487, 4111.282, 4151.795, 4147.179, 0, 0, []
1630163543.1942, 59, 0, 4201.538, 4265.641, 4095.897, 4154.359, 4156.923, 0, 0, []
1630163543.202, 60, 0, 4196.923, 4273.846, 4099.487, 4142.051, 4151.282, 0, 0, []
1630163543.2098, 61, 0, 4197.949, 4275.897, 4106.154, 4144.615, 4154.359, 0, 0, []
1630163543.2177, 62, 0, 4204.103, 4286.154, 4102.564, 4158.974, 4164.103, 0, 0, []
1630163543.2255, 63, 0, 4216.41, 4288.205, 4121.026, 4165.128, 4155.897, 0, 0, []
1630163543.2334, 64, 0, 4218.974, 4254.359, 4091.795, 4152.308, 4152.821, 450, 0, []
1630163543.2412, 65, 0, 4211.282, 4247.692, 4110.256, 4138.974, 4161.026, 450, 0, []
1630163543.249, 66, 0, 4221.026, 4269.744, 4131.795, 4136.41, 4174.359, 16188, 0, []
1630163543.2568, 67, 0, 4236.923, 4262.051, 4111.795, 4144.615, 4191.282, 450, 0, []
1630163543.2647, 68, 0, 4210.769, 4221.026, 4116.41, 4138.462, 4174.359, 16097, 0, []
1630163543.2725, 69, 0, 4183.59, 4204.103, 4090.769, 4129.744, 4151.795, 450, 0, []
1630163543.2804, 70, 0, 4210.769, 4242.564, 4117.436, 4155.897, 4172.821, 239, 0, []
1630163543.2881, 71, 0, 4221.026, 4253.846, 4132.308, 4164.103, 4185.128, 450, 0, []
1630163543.2961, 72, 0, 4196.41, 4218.974, 4088.205, 4142.051, 4159.487, 450, 0, []
1630163543.304, 73, 0, 4206.667, 4226.154, 4118.974, 4151.282, 4164.615, 16115, 0, []
1630163543.312, 74, 0, 4223.077, 4264.103, 4117.436, 4165.128, 4187.179, 450, 0, []
1630163543.3199, 75, 0, 4211.795, 4265.641, 4103.59, 4157.949, 4187.179, 16198, 0, []
1630163543.3278, 76, 0, 4222.564, 4266.154, 4125.128, 4170.769, 4204.615, 450, 0, []
1630163543.3357, 77, 0, 4241.026, 4273.333, 4111.795, 4177.949, 4218.974, 450, 0, []
1630163543.3435, 78, 0, 4229.231, 4239.487, 4117.949, 4160, 4206.154, 450, 0, []
1630163543.3514, 79, 0, 4219.487, 4200.513, 4104.103, 4158.462, 4204.103, 16198, 0, []
1630163543.3592, 80, 0, 4213.333, 4182.564, 4101.026, 4160.513, 4197.436, 450, 0, []
1630163543.367, 81, 0, 4211.795, 4175.897, 4111.795, 4151.795, 4188.205, 450, 0, []
1630163543.3748, 82, 0, 4255.897, 4216.41, 4107.692, 4178.974, 4223.077, 450, 0, []
1630163543.3827, 83, 0, 4300, 4289.744, 4156.923, 4221.026, 4263.59, 16198, 0, []
1630163543.3905, 84, 0, 4301.538, 4312.308, 4154.872, 4224.103, 4271.282, 450, 0, []
1630163543.3984, 85, 0, 4314.872, 4284.615, 4143.59, 4231.282, 4289.744, 450, 0, []
1630163543.4061, 86, 0, 4325.128, 4262.564, 4156.41, 4236.923, 4288.205, 450, 0, []
1630163543.414, 87, 0, 4278.974, 4240.513, 4112.308, 4192.821, 4234.359, 16198, 0, []
1630163543.4218, 88, 0, 4238.974, 4230.769, 4121.538, 4168.718, 4207.179, 450, 0, []
1630163543.4297, 89, 0, 4246.667, 4218.974, 4122.564, 4178.462, 4219.487, 450, 0, []
1630163543.4375, 90, 0, 4250.769, 4201.538, 4112.308, 4181.538, 4223.077, 450, 0, []
1630163543.4454, 91, 0, 4255.385, 4216.923, 4143.59, 4196.41, 4229.744, 16198, 0, []
1630163543.4533, 92, 0, 4277.949, 4245.128, 4129.231, 4206.667, 4250.256, 450, 0, []
1630163543.4613, 93, 0, 4274.359, 4236.41, 4124.615, 4186.667, 4240, 450, 0, []
1630163543.4692, 94, 0, 4246.154, 4207.179, 4096.41, 4152.821, 4192.821, 450, 0, []
1630163543.4772, 95, 0, 4246.154, 4210.256, 4081.026, 4149.231, 4183.077, 16198, 0, []
1630163543.485, 96, 0, 4268.718, 4219.487, 4127.692, 4171.795, 4221.026, 450, 0, []
1630163543.493, 97, 0, 4272.308, 4206.154, 4106.154, 4174.872, 4232.821, 450, 0, []
1630163543.5009, 98, 0, 4255.385, 4179.487, 4097.949, 4167.179, 4204.615, 450, 0, []
1630163543.5087, 99, 0, 4244.615, 4182.564, 4108.205, 4169.744, 4192.821, 16198, 0, []
1630163543.5166, 100, 0, 4243.077, 4221.538, 4096.41, 4168.205, 4206.154, 450, 0, []
1630163543.5243, 101, 0, 4257.949, 4249.744, 4127.692, 4168.718, 4223.077, 450, 0, []
1630163543.5322, 102, 0, 4265.641, 4232.821, 4108.205, 4171.282, 4219.487, 450, 0, []
1630163543.54, 103, 0, 4238.974, 4203.59, 4091.282, 4161.538, 4195.897, 16198, 0, []
1630163543.5479, 104, 0, 4234.359, 4231.282, 4102.564, 4167.692, 4204.103, 450, 0, []
1630163543.5557, 105, 0, 4257.436, 4267.179, 4096.41, 4181.538, 4228.718, 450, 0, []
1630163543.5636, 106, 0, 4244.103, 4248.718, 4111.282, 4165.641, 4210.256, 450, 0, []
1630163543.5713, 107, 0, 4214.359, 4221.538, 4087.692, 4142.051, 4178.974, 16198, 0, []
1630163543.5792, 108, 0, 4213.333, 4231.282, 4093.846, 4148.718, 4180, 450, 0, []
1630163543.587, 109, 0, 4209.231, 4248.205, 4101.538, 4146.667, 4181.538, 450, 0, []
1630163543.595, 110, 0, 4201.026, 4248.205, 4071.282, 4129.231, 4171.795, 450, 0, []
1630163543.6029, 111, 0, 4227.179, 4258.462, 4111.282, 4147.692, 4186.667, 16198, 0, []
1630163543.6108, 112, 0, 4256.41, 4288.718, 4120.513, 4174.359, 4211.282, 450, 0, []
1630163543.6187, 113, 0, 4254.359, 4294.872, 4114.359, 4185.641, 4214.359, 450, 0, []
1630163543.6266, 114, 0, 4222.564, 4245.128, 4101.538, 4166.154, 4190.256, 450, 0, []
1630163543.6345, 115, 0, 4197.949, 4232.821, 4063.59, 4128.718, 4175.385, 16198, 0, []
1630163543.6424, 116, 0, 4229.744, 4279.487, 4122.564, 4147.179, 4205.128, 450, 0, []
1630163543.6503, 117, 0, 4268.718, 4288.718, 4142.051, 4183.077, 4232.308, 450, 0, []
1630163543.6581, 118, 0, 4242.564, 4266.667, 4100, 4161.538, 4204.615, 450, 0, []
1630163543.666, 119, 0, 4207.179, 4269.744, 4104.103, 4135.897, 4175.385, 16198, 0, []
1630163543.6738, 120, 0, 4221.026, 4276.923, 4103.59, 4155.385, 4193.846, 450, 0, []
1630163543.6817, 121, 0, 4229.744, 4260, 4115.897, 4161.538, 4207.692, 450, 0, []
1630163543.6894, 122, 0, 4213.333, 4265.128, 4103.077, 4141.026, 4198.974, 450, 0, []
1630163543.6973, 123, 0, 4213.333, 4280.513, 4104.103, 4154.359, 4201.026, 16198, 0, []
1630163543.7051, 124, 0, 4215.897, 4261.026, 4122.051, 4166.667, 4197.436, 450, 0, []
1630163543.713, 125, 0, 4211.282, 4258.462, 4093.846, 4151.795, 4190.769, 450, 0, []
1630163543.7208, 126, 0, 4216.41, 4282.564, 4127.179, 4156.923, 4195.897, 450, 0, []
1630163543.7286, 127, 0, 4207.692, 4270.256, 4128.718, 4161.026, 4191.795, 16198, 0, []
1630163543.7364, 128, 0, 4180, 4242.051, 4084.103, 4130.769, 4161.538, 450, 0, []
1630163543.7443, 0, 0, 4186.154, 4257.949, 4115.897, 4129.744, 4153.333, 450, 0, []
1630163543.7521, 1, 0, 4223.59, 4279.487, 4129.744, 4174.359, 4186.667, 450, 0, []
1630163543.7601, 2, 0, 4217.949, 4264.615, 4123.59, 4177.949, 4187.179, 16188, 0, []
1630163543.7679, 3, 0, 4179.487, 4253.333, 4091.795, 4130.769, 4151.282, 450, 0, []
1630163543.7759, 4, 0, 4185.128, 4250.769, 4078.462, 4122.051, 4147.692, 16097, 0, []
1630163543.7838, 5, 0, 4214.872, 4249.744, 4129.744, 4156.41, 4181.538, 450, 0, []
1630163543.7918, 6, 0, 4223.077, 4272.308, 4110.256, 4169.744, 4201.026, 238, 0, []
1630163543.7997, 7, 0, 4219.487, 4279.487, 4105.128, 4170.769, 4194.359, 450, 0, []
1630163543.8076, 8, 0, 4209.744, 4236.923, 4118.462, 4168.205, 4178.462, 450, 0, []
1630163543.8155, 9, 0, 4182.051, 4206.667, 4083.077, 4132.821, 4151.282, 16116, 0, []
1630163543.8233, 10, 0, 4172.821, 4240, 4095.897, 4114.872, 4140.513, 450, 0, []
1630163543.8312, 11, 0, 4194.872, 4277.949, 4098.462, 4138.462, 4158.462, 16197, 0, []
1630163543.839, 12, 0, 4206.667, 4270.769, 4112.821, 4160.513, 4175.897, 450, 0, []
1630163543.8468, 13, 0, 4206.667, 4234.872, 4125.641, 4167.179, 4177.949, 450, 0, []
1630163543.8546, 14, 0, 4201.538, 4206.667, 4094.359, 4162.051, 4170.256, 450, 0, []
1630163543.8625, 15, 0, 4189.744, 4223.077, 4108.718, 4158.462, 4165.128, 16197, 0, []
1630163543.8703, 16, 0, 4200, 4260, 4109.744, 4166.154, 4173.846, 0, 0, []
1630163543.8782, 17, 0, 4209.744, 4254.872, 4114.872, 4167.692, 4177.949, 0, 0, []
1630163543.886, 18, 0, 4164.615, 4216.41, 4103.077, 4126.667, 4133.333, 0, 0, []
1630163543.8938, 19, 0, 4132.308, 4222.051, 4065.128, 4094.359, 4101.538, 0, 0, []
1630163543.9016, 20, 0, 4182.564, 4258.974, 4117.949, 4137.436, 4147.179, 0, 0, []
1630163543.9095, 21, 0, 4221.538, 4261.026, 4127.692, 4178.462, 4188.718, 0, 0, []
1630163543.9173, 22, 0, 4187.692, 4244.615, 4092.308, 4163.077, 4163.59, 0, 0, []
1630163543.9253, 23, 0, 4166.154, 4231.282, 4100.513, 4145.641, 4137.949, 0, 0, []
1630163543.9331, 24, 0, 4186.154, 4224.103, 4090.769, 4156.923, 4145.641, 0, 0, []
1630163543.9411, 25, 0, 4188.718, 4225.641, 4112.821, 4164.615, 4138.974, 0, 0, []
1630163543.949, 26, 0, 4172.308, 4225.128, 4104.615, 4146.667, 4128.718, 0, 0, []
1630163543.957, 27, 0, 4165.641, 4207.179, 4081.538, 4125.128, 4128.205, 0, 0, []
1630163543.9649, 28, 0, 4168.718, 4188.205, 4101.538, 4122.564, 4128.205, 0, 0, []
1630163543.9728, 29, 0, 4177.436, 4202.051, 4084.615, 4138.462, 4140.513, 0, 0, []
1630163543.9807, 30, 0, 4181.026, 4217.949, 4106.154, 4151.282, 4155.897, 0, 0, []
1630163543.9887, 31, 0, 4177.949, 4201.538, 4112.821, 4146.667, 4150.769, 0, 0, []
1630163543.9966, 32, 0, 4170.769, 4181.026, 4085.641, 4137.949, 4127.692, 0, 0, []
1630163544.0044, 33, 0, 4160, 4205.641, 4098.974, 4134.359, 4121.538, 0, 0, []
1630163544.0122, 34, 0, 4184.615, 4239.487, 4106.154, 4151.282, 4155.897, 0, 0, []
1630163544.02, 35, 0, 4220, 4227.179, 4144.103, 4175.385, 4188.718, 0, 0, []
1630163544.0279, 36, 0, 4194.359, 4207.692, 4120, 4147.179, 4158.462, 0, 0, []
1630163544.0357, 37, 0, 4156.41, 4208.718, 4071.795, 4101.538, 4124.103, 0, 0, []
1630163544.0436, 38, 0, 4186.667, 4232.308, 4123.077, 4127.692, 4151.795, 0, 0, []
1630163544.0513, 39, 0, 4213.333, 4259.487, 4123.59, 4158.974, 4167.179, 0, 0, []
1630163544.0592, 40, 0, 4190.769, 4243.59, 4113.333, 4145.641, 4138.462, 0, 0, []
1630163544.067, 41, 0, 4183.077, 4213.846, 4123.077, 4142.564, 4132.821, 0, 0, []
1630163544.0749, 42, 0, 4179.487, 4233.846, 4105.128, 4146.154, 4137.436, 0, 0, []
1630163544.0827, 43, 0, 4163.59, 4257.436, 4125.641, 4140, 4125.641, 0, 0, []
1630163544.0906, 44, 0, 4157.436, 4236.41, 4104.615, 4128.718, 4117.949, 0, 0, []
1630163544.0985, 45, 0, 4151.795, 4231.282, 4094.359, 4122.051, 4114.872, 0, 0, []
1630163544.1065, 46, 0, 4157.436, 4247.692, 4121.538, 4133.846, 4130.769, 0, 0, []
1630163544.1144, 47, 0, 4182.051, 4255.385, 4114.359, 4150.769, 4151.282, 0, 0, []
1630163544.1224, 48, 0, 4187.692, 4247.179, 4119.487, 4153.333, 4144.103, 0, 0, []
1630163544.1302, 49, 0, 4172.308, 4224.615, 4099.487, 4147.692, 4132.308, 0, 0, []
1630163544.1382, 50, 0, 4171.795, 4216.923, 4110.769, 4151.795, 4136.41, 0, 0, []
1630163544.1461, 51, 0, 4169.744, 4232.821, 4128.205, 4154.359, 4138.462, 0, 0, []
1630163544.1539, 52, 0, 4172.821, 4246.154, 4095.385, 4153.846, 4146.667, 0, 0, []
1630163544.1618, 53, 0, 4199.487, 4245.128, 4120, 4166.154, 4170.256, 0, 0, []
1630163544.1695, 54, 0, 4215.385, 4241.538, 4120.513, 4168.205, 4180.513, 0, 0, []
1630163544.1774, 55, 0, 4198.462, 4242.051, 4121.026, 4154.872, 4167.692, 0, 0, []
1630163544.1852, 56, 0, 4179.487, 4248.205, 4146.667, 4147.692, 4154.872, 0, 0, []
1630163544.1931, 57, 0, 4182.051, 4243.59, 4112.308, 4146.154, 4155.385, 0, 0, []
1630163544.2009, 58, 0, 4178.462, 4226.154, 4106.667, 4140.513, 4148.718, 0, 0, []
1630163544.2087, 59, 0, 4168.718, 4228.718, 4093.846, 4128.718, 4135.385, 0, 0, []
1630163544.2165, 60, 0, 4189.744, 4242.051, 4095.385, 4137.436, 4149.744, 0, 0, []
1630163544.2244, 61, 0, 4226.667, 4249.231, 4133.333, 4157.949, 4178.974, 0, 0, []
1630163544.2322, 62, 0, 4208.205, 4235.897, 4097.436, 4137.436, 4165.641, 0, 0, []
1630163544.2402, 63, 0, 4173.333, 4215.385, 4102.051, 4128.205, 4141.026, 0, 0, []
1630163544.2481, 64, 0, 4201.026, 4237.949, 4126.154, 4163.077, 4154.359, 450, 0, []
1630163544.256, 65, 0, 4218.974, 4253.333, 4120.513, 4172.308, 4162.564, 450, 0, []
1630163544.2639, 66, 0, 4195.385, 4228.205, 4134.872, 4160, 4145.128, 16186, 0, []
1630163544.2719, 67, 0, 4203.077, 4240.513, 4121.026, 4172.821, 4153.846, 450, 0, []
1630163544.2798, 68, 0, 4232.821, 4275.897, 4143.077, 4190.769, 4181.538, 16092, 0, []
1630163544.2878, 69, 0, 4230.256, 4263.59, 4140, 4173.333, 4177.949, 450, 0, []
1630163544.2956, 70, 0, 4208.205, 4232.308, 4100.513, 4151.282, 4155.897, 235, 0, []
1630163544.3035, 71, 0, 4200, 4218.974, 4116.41, 4153.333, 4150.769, 450, 0, []
1630163544.3114, 72, 0, 4203.59, 4217.949, 4104.615, 4154.872, 4162.564, 450, 0, []
1630163544.3192, 73, 0, 4213.333, 4232.821, 4115.897, 4161.026, 4168.205, 16116, 0, []
1630163544.3271, 74, 0, 4216.923, 4235.385, 4125.128, 4170.256, 4159.487, 450, 0, []
1630163544.3348, 75, 0, 4211.795, 4209.231, 4102.564, 4174.872, 4156.41, 16244, 0, []
1630163544.3427, 76, 0, 4200.513, 4207.179, 4116.923, 4165.641, 4156.41, 450, 0, []
1630163544.3505, 77, 0, 4191.795, 4236.41, 4093.846, 4148.205, 4156.923, 450, 0, []
1630163544.3584, 78, 0, 4214.872, 4254.359, 4115.897, 4168.205, 4175.897, 450, 0, []
1630163544.3662, 79, 0, 4247.179, 4269.744, 4156.923, 4200.513, 4196.923, 16244, 0, []
1630163544.374, 80, 0, 4227.692, 4281.538, 4116.41, 4187.179, 4182.051, 450, 0, []
1630163544.3818, 81, 0, 4186.154, 4267.692, 4105.641, 4155.385, 4152.821, 450, 0, []
1630163544.3898, 82, 0, 4194.872, 4247.179, 4097.949, 4152.821, 4158.462, 450, 0, []
1630163544.3977, 83, 0, 4226.154, 4249.744, 4114.872, 4171.795, 4184.103, 16244, 0, []
1630163544.4057, 84, 0, 4207.692, 4249.744, 4127.692, 4165.641, 4180.513, 450, 0, []
1630163544.4135, 85, 0, 4177.949, 4241.026, 4096.41, 4146.154, 4152.821, 450, 0, []
1630163544.4215, 86, 0, 4187.692, 4267.692, 4125.128, 4154.872, 4150.256, 450, 0, []
1630163544.4294, 87, 0, 4194.872, 4277.949, 4113.333, 4162.564, 4161.026, 16244, 0, []
1630163544.4374, 88, 0, 4182.564, 4235.385, 4092.308, 4149.231, 4148.205, 450, 0, []
1630163544.4453, 89, 0, 4175.385, 4231.795, 4121.026, 4141.538, 4139.487, 450, 0, []
1630163544.453, 90, 0, 4180.513, 4274.359, 4105.128, 4137.436, 4147.692, 450, 0, []
1630163544.4609, 91, 0, 4188.205, 4255.897, 4116.923, 4137.949, 4158.974, 16244, 0, []
1630163544.4687, 92, 0, 4194.872, 4223.59, 4112.821, 4146.667, 4163.077, 450, 0, []
1630163544.4766, 93, 0, 4199.487, 4264.615, 4107.179, 4154.359, 4163.59, 450, 0, []
1630163544.4844, 94, 0, 4214.359, 4308.718, 4136.41, 4165.641, 4177.436, 450, 0, []
1630163544.4922, 95, 0, 4224.615, 4287.179, 4110.769, 4166.154, 4181.538, 16244, 0, []
1630163544.5, 96, 0, 4205.641, 4252.821, 4111.795, 4150.256, 4168.718, 450, 0, []
1630163544.5079, 97, 0, 4215.385, 4284.103, 4125.641, 4165.128, 4185.128, 450, 0, []
1630163544.5157, 98, 0, 4257.436, 4326.154, 4143.077, 4201.538, 4220, 450, 0, []
1630163544.5236, 99, 0, 4266.154, 4301.026, 4170.256, 4213.846, 4224.103, 16244, 0, []
1630163544.5313, 100, 0, 4266.154, 4277.436, 4131.795, 4216.41, 4224.615, 450, 0, []
1630163544.5393, 101, 0, 4283.59, 4300.513, 4134.872, 4223.59, 4243.077, 450, 0, []
1630163544.5472, 102, 0, 4256.41, 4282.051, 4121.026, 4182.051, 4213.333, 450, 0, []
1630163544.5552, 103, 0, 4208.718, 4223.077, 4077.436, 4137.436, 4155.897, 16244, 0, []
1630163544.5631, 104, 0, 4215.385, 4224.103, 4103.59, 4154.872, 4154.872, 450, 0, []
1630163544.5711, 105, 0, 4234.872, 4250.256, 4099.487, 4170.769, 4187.692, 450, 0, []
1630163544.5789, 106, 0, 4240, 4242.564, 4122.564, 4173.846, 4207.692, 450, 0, []
1630163544.5869, 107, 0, 4256.923, 4229.744, 4142.051, 4189.744, 4222.564, 16244, 0, []
1630163544.5948, 108, 0, 4256.923, 4228.205, 4105.641, 4192.308, 4217.949, 450, 0, []
1630163544.6028, 109, 0, 4232.308, 4214.872, 4115.897, 4172.821, 4195.897, 450, 0, []
1630163544.6107, 110, 0, 4224.103, 4184.615, 4104.103, 4152.821, 4189.744, 450, 0, []
1630163544.6185, 111, 0, 4235.897, 4193.333, 4107.179, 4155.385, 4194.872, 16244, 0, []
1630163544.6264, 112, 0, 4236.923, 4221.026, 4114.872, 4162.564, 4190.256, 450, 0, []
1630163544.6343, 113, 0, 4222.051, 4200.513, 4081.538, 4151.795, 4180.513, 450, 0, []
1630163544.6422, 114, 0, 4207.179, 4187.179, 4097.436, 4143.59, 4173.846, 450, 0, []
1630163544.6502, 115, 0, 4213.333, 4206.667, 4092.308, 4149.744, 4181.538, 16244, 0, []
1630163544.658, 116, 0, 4221.538, 4194.359, 4090.769, 4147.692, 4190.256, 450, 0, []
1630163544.6658, 117, 0, 4210.256, 4175.385, 4107.179, 4139.487, 4179.487, 450, 0, []
1630163544.6737, 118, 0, 4214.872, 4210.256, 4098.974, 4153.333, 4185.128, 450, 0, []
1630163544.6815, 119, 0, 4234.359, 4224.103, 4124.615, 4173.333, 4219.487, 16244, 0, []
1630163544.6895, 120, 0, 4224.103, 4188.205, 4096.923, 4157.436, 4217.949, 450, 0, []
1630163544.6973, 121, 0, 4208.205, 4181.538, 4085.128, 4147.179, 4195.385, 450, 0, []
1630163544.7053, 122, 0, 4236.41, 4204.615, 4136.41, 4184.615, 4216.923, 450, 0, []
1630163544.7132, 123, 0, 4252.821, 4212.821, 4128.205, 4200, 4239.487, 16244, 0, []
1630163544.7212, 124, 0, 4209.231, 4194.359, 4117.436, 4167.179, 4205.641, 450, 0, []
1630163544.7291, 125, 0, 4182.051, 4176.923, 4093.846, 4148.205, 4170.256, 450, 0, []
1630163544.737, 126, 0, 4184.615, 4171.795, 4082.564, 4149.231, 4168.205, 450, 0, []
1630163544.7449, 127, 0, 4169.744, 4163.59, 4102.051, 4131.795, 4155.385, 16244, 0, []
1630163544.7529, 128, 0, 4167.692, 4171.795, 4088.718, 4120.513, 4143.077, 450, 0, []
1630163544.7608, 0, 0, 4190.256, 4194.872, 4116.923, 4144.615, 4160, 450, 0, []
1630163544.7686, 1, 0, 4198.974, 4191.795, 4116.923, 4160.513, 4180, 450, 0, []
1630163544.7764, 2, 0, 4178.974, 4156.41, 4087.179, 4138.462, 4167.179, 16186, 0, []
1630163544.7842, 3, 0, 4180, 4164.103, 4111.795, 4130.769, 4158.462, 450, 0, []
1630163544.7921, 4, 0, 4211.795, 4217.436, 4109.744, 4158.462, 4186.667, 16092, 0, []
1630163544.7999, 5, 0, 4208.205, 4222.564, 4112.821, 4163.59, 4186.667, 450, 0, []
1630163544.8078, 6, 0, 4182.564, 4212.308, 4097.949, 4134.359, 4154.359, 245, 0, []
1630163544.8155, 7, 0, 4203.077, 4243.077, 4098.462, 4150.256, 4177.436, 450, 0, []
1630163544.8234, 8, 0, 4233.333, 4245.128, 4146.154, 4190.769, 4213.333, 450, 0, []
1630163544.8312, 9, 0, 4202.564, 4194.872, 4106.667, 4162.564, 4182.051, 16120, 0, []
1630163544.8391, 10, 0, 4170.256, 4188.205, 4093.846, 4130.256, 4148.718, 450, 0, []
1630163544.8469, 11, 0, 4196.41, 4234.359, 4125.128, 4160, 4178.974, 16211, 0, []
1630163544.8548, 12, 0, 4214.359, 4247.179, 4108.205, 4176.923, 4196.41, 450, 0, []
1630163544.8627, 13, 0, 4198.974, 4214.872, 4110.769, 4151.795, 4164.103, 450, 0, []
1630163544.8707, 14, 0, 4190.256, 4178.462, 4090.256, 4129.744, 4147.179, 450, 0, []
1630163544.8786, 15, 0, 4194.359, 4173.333, 4097.436, 4135.897, 4155.385, 16211, 0, []
1630163544.8866, 16, 0, 4197.436, 4185.641, 4107.179, 4146.154, 4158.974, 0, 0, []
1630163544.8944, 17, 0, 4194.359, 4187.179, 4070.256, 4147.692, 4157.436, 0, 0, []
1630163544.9024, 18, 0, 4191.282, 4181.538, 4091.282, 4154.872, 4156.923, 0, 0, []
1630163544.9103, 19, 0, 4186.154, 4170.769, 4090.769, 4146.154, 4154.872, 0, 0, []
1630163544.9181, 20, 0, 4182.564, 4167.179, 4090.769, 4129.231, 4150.256, 0, 0, []
1630163544.926, 21, 0, 4191.282, 4191.282, 4108.718, 4138.974, 4156.41, 0, 0, []
1630163544.9338, 22, 0, 4205.128, 4210.769, 4089.231, 4160.513, 4158.462, 0, 0, []
1630163544.9416, 23, 0, 4200, 4195.385, 4110.769, 4163.59, 4142.564, 0, 0, []
1630163544.9494, 24, 0, 4177.436, 4182.564, 4102.564, 4144.615, 4128.205, 0, 0, []
1630163544.9573, 25, 0, 4169.744, 4183.59, 4102.051, 4133.333, 4129.231, 0, 0, []
1630163544.9651, 26, 0, 4173.846, 4175.385, 4117.949, 4128.718, 4132.308, 0, 0, []
1630163544.973, 27, 0, 4167.692, 4166.667, 4080, 4122.051, 4129.744, 0, 0, []
1630163544.9807, 28, 0, 4164.103, 4166.667, 4102.564, 4132.821, 4144.103, 0, 0, []
1630163544.9886, 29, 0, 4178.974, 4169.231, 4107.692, 4147.692, 4158.462, 0, 0, []
1630163544.9964, 30, 0, 4185.641, 4169.231, 4087.179, 4146.154, 4150.256, 0, 0, []
1630163545.0044, 31, 0, 4158.974, 4159.487, 4086.667, 4131.795, 4121.538, 0, 0, []
1630163545.0123, 32, 0, 4135.385, 4141.538, 4048.205, 4109.231, 4094.359, 0, 0, []
1630163545.0202, 33, 0, 4158.462, 4135.385, 4086.154, 4115.897, 4113.333, 0, 0, []
1630163545.0281, 34, 0, 4193.333, 4148.205, 4117.436, 4139.487, 4153.846, 0, 0, []
1630163545.0361, 35, 0, 4177.436, 4169.231, 4080, 4122.051, 4140.513, 0, 0, []
1630163545.044, 36, 0, 4148.718, 4175.897, 4074.872, 4096.41, 4107.692, 0, 0, []
1630163545.052, 37, 0, 4160, 4162.051, 4075.385, 4113.333, 4131.795, 0, 0, []
1630163545.0598, 38, 0, 4179.487, 4160.513, 4104.615, 4145.128, 4162.051, 0, 0, []
1630163545.0678, 39, 0, 4171.795, 4172.308, 4091.282, 4142.051, 4143.59, 0, 0, []
1630163545.0757, 40, 0, 4164.103, 4172.821, 4060.513, 4124.615, 4125.641, 0, 0, []
1630163545.0837, 41, 0, 4175.385, 4162.564, 4096.41, 4124.103, 4132.821, 0, 0, []
1630163545.0916, 42, 0, 4193.333, 4172.308, 4090.256, 4136.41, 4146.154, 0, 0, []
1630163545.0993, 43, 0, 4208.718, 4211.795, 4105.128, 4158.974, 4159.487, 0, 0, []
1630163545.1072, 44, 0, 4194.359, 4217.949, 4108.205, 4152.821, 4153.333, 0, 0, []
1630163545.115, 45, 0, 4160, 4172.821, 4064.103, 4118.462, 4117.436, 0, 0, []
1630163545.1229, 46, 0, 4163.59, 4163.077, 4086.154, 4122.564, 4114.872, 0, 0, []
1630163545.1307, 47, 0, 4193.333, 4202.564, 4097.436, 4154.359, 4151.795, 0, 0, []
1630163545.1385, 48, 0, 4191.282, 4200.513, 4108.205, 4157.436, 4159.487, 0, 0, []
1630163545.1463, 49, 0, 4166.667, 4163.59, 4103.077, 4132.821, 4131.282, 0, 0, []
1630163545.1542, 50, 0, 4162.051, 4151.282, 4072.308, 4118.462, 4116.41, 0, 0, []
1630163545.162, 51, 0, 4178.974, 4150.769, 4105.641, 4136.923, 4131.282, 0, 0, []
1630163545.17, 52, 0, 4195.897, 4159.487, 4098.974, 4153.846, 4142.564, 0, 0, []
1630163545.1778, 53, 0, 4192.821, 4177.949, 4095.385, 4151.282, 4138.462, 0, 0, []
1630163545.1858, 54, 0, 4196.41, 4188.205, 4117.436, 4153.333, 4148.205, 0, 0, []
1630163545.1937, 55, 0, 4207.179, 4193.333, 4091.795, 4160.513, 4166.667, 0, 0, []
1630163545.2017, 56, 0, 4163.077, 4174.872, 4087.692, 4135.897, 4129.231, 0, 0, []
1630163545.2096, 57, 0, 4121.538, 4153.846, 4072.821, 4103.077, 4085.641, 0, 0, []
1630163545.2175, 58, 0, 4168.718, 4193.846, 4095.897, 4136.923, 4132.821, 0, 0, []
1630163545.2254, 59, 0, 4202.564, 4246.667, 4129.231, 4181.026, 4174.359, 0, 0, []
1630163545.2334, 60, 0, 4151.795, 4225.641, 4081.538, 4159.487, 4127.692, 0, 0, []
1630163545.2413, 61, 0, 4122.564, 4199.487, 4082.051, 4140.513, 4093.846, 0, 0, []
1630163545.2493, 62, 0, 4140.513, 4202.564, 4081.538, 4143.59, 4109.231, 0, 0, []
1630163545.2571, 63, 0, 4140, 4190.769, 4071.795, 4136.41, 4113.333, 0, 0, []
1630163545.2649, 64, 0, 4139.487, 4198.974, 4104.103, 4142.564, 4113.333, 450, 0, []
1630163545.2728, 65, 0, 4151.282, 4218.462, 4096.41, 4158.974, 4121.026, 450, 0, []
1630163545.2806, 66, 0, 4138.462, 4207.179, 4104.615, 4151.282, 4108.205, 16190, 0, []
1630163545.2885, 67, 0, 4104.103, 4193.333, 4085.128, 4122.564, 4078.462, 450, 0, []
1630163545.2963, 68, 0, 4094.872, 4194.359, 4066.667, 4114.359, 4065.128, 16090, 0, []
1630163545.3042, 69, 0, 4123.59, 4220.513, 4111.282, 4142.564, 4093.333, 450, 0, []
1630163545.3121, 70, 0, 4143.59, 4247.692, 4103.077, 4161.538, 4113.333, 249, 0, []
1630163545.32, 71, 0, 4131.282, 4232.308, 4103.59, 4154.359, 4095.897, 450, 0, []
1630163545.3278, 72, 0, 4126.154, 4218.974, 4097.949, 4148.205, 4089.231, 450, 0, []
1630163545.3358, 73, 0, 4131.795, 4234.872, 4075.897, 4147.692, 4091.282, 16103, 0, []
1630163545.3436, 74, 0, 4122.051, 4233.846, 4100, 4142.051, 4076.923, 450, 0, []
1630163545.3516, 75, 0, 4124.615, 4247.692, 4085.128, 4137.436, 4080, 16208, 0, []
1630163545.3595, 76, 0, 4142.564, 4277.436, 4094.872, 4144.103, 4098.974, 450, 0, []
1630163545.3675, 77, 0, 4138.462, 4256.41, 4100.513, 4142.051, 4088.718, 450, 0, []
1630163545.3754, 78, 0, 4107.179, 4218.462, 4061.026, 4113.846, 4054.872, 450, 0, []
1630163545.3831, 79, 0, 4097.436, 4229.231, 4084.615, 4108.205, 4052.821, 16208, 0, []
1630163545.391, 80, 0, 4134.872, 4268.205, 4104.103, 4144.615, 4100, 450, 0, []
1630163545.3988, 81, 0, 4165.641, 4280.513, 4118.974, 4169.744, 4141.026, 450, 0, []
1630163545.4067, 82, 0, 4149.744, 4254.872, 4106.667, 4152.308, 4126.667, 450, 0, []
1630163545.4145, 83, 0, 4139.487, 4255.385, 4085.128, 4137.436, 4102.564, 16208, 0, []
1630163545.4223, 84, 0, 4157.436, 4291.282, 4129.744, 4148.205, 4110.769, 450, 0, []
1630163545.4301, 85, 0, 4167.692, 4293.846, 4115.897, 4154.359, 4132.821, 450, 0, []
1630163545.438, 86, 0, 4174.359, 4276.923, 4107.692, 4161.538, 4138.462, 450, 0, []
1630163545.4458, 87, 0, 4174.359, 4277.436, 4120, 4158.974, 4124.615, 16208, 0, []
1630163545.4537, 88, 0, 4164.103, 4282.051, 4089.744, 4146.667, 4122.051, 450, 0, []
1630163545.4614, 89, 0, 4172.308, 4289.744, 4118.974, 4155.897, 4139.487, 450, 0, []
1630163545.4694, 90, 0, 4192.821, 4293.846, 4124.103, 4169.744, 4150.256, 450, 0, []
1630163545.4773, 91, 0, 4202.564, 4291.795, 4113.846, 4181.026, 4155.897, 16208, 0, []
1630163545.4853, 92, 0, 4202.564, 4300, 4126.667, 4191.282, 4163.077, 450, 0, []
1630163545.4932, 93, 0, 4181.026, 4294.359, 4091.282, 4173.333, 4142.564, 450, 0, []
1630163545.5011, 94, 0, 4154.872, 4259.487, 4093.333, 4147.692, 4114.359, 450, 0, []
1630163545.509, 95, 0, 4173.846, 4254.359, 4092.308, 4149.744, 4128.718, 16208, 0, []
1630163545.517, 96, 0, 4189.231, 4264.615, 4087.692, 4152.308, 4143.59, 450, 0, []
1630163545.5249, 97, 0, 4165.641, 4246.154, 4104.103, 4138.974, 4120.513, 450, 0, []
1630163545.5329, 98, 0, 4168.205, 4260.513, 4089.231, 4146.667, 4123.077, 450, 0, []
1630163545.5407, 99, 0, 4194.359, 4287.179, 4109.231, 4175.897, 4155.385, 16208, 0, []
1630163545.5485, 100, 0, 4184.615, 4256.923, 4089.744, 4164.103, 4143.077, 450, 0, []
1630163545.5564, 101, 0, 4162.051, 4242.051, 4066.667, 4137.949, 4115.385, 450, 0, []
1630163545.5642, 102, 0, 4164.615, 4264.615, 4098.974, 4144.103, 4118.974, 450, 0, []
1630163545.5721, 103, 0, 4181.026, 4260, 4081.538, 4145.128, 4132.308, 16208, 0, []
1630163545.5798, 104, 0, 4199.487, 4251.795, 4102.564, 4144.615, 4144.615, 450, 0, []
1630163545.5877, 105, 0, 4202.564, 4268.205, 4118.462, 4157.949, 4155.385, 450, 0, []
1630163545.5955, 106, 0, 4191.282, 4267.692, 4097.436, 4165.641, 4155.897, 450, 0, []
1630163545.6034, 107, 0, 4184.615, 4257.436, 4112.308, 4153.333, 4140.513, 16208, 0, []
1630163545.6112, 108, 0, 4170.769, 4255.385, 4080.513, 4132.821, 4123.077, 450, 0, []
1630163545.6191, 109, 0, 4155.897, 4253.846, 4081.538, 4127.692, 4122.051, 450, 0, []
1630163545.6269, 110, 0, 4162.564, 4265.641, 4096.923, 4128.205, 4139.487, 450, 0, []
1630163545.6348, 111, 0, 4167.179, 4257.949, 4072.308, 4126.154, 4146.154, 16208, 0, []
1630163545.6428, 112, 0, 4149.231, 4217.436, 4089.744, 4127.692, 4131.282, 450, 0, []
1630163545.6508, 113, 0, 4151.795, 4212.821, 4085.641, 4143.077, 4138.974, 450, 0, []
1630163545.6587, 114, 0, 4184.615, 4265.641, 4105.641, 4171.282, 4171.282, 450, 0, []
1630163545.6666, 115, 0, 4209.231, 4290.769, 4135.897, 4188.718, 4194.359, 16208, 0, []
1630163545.6745, 116, 0, 4209.744, 4247.692, 4114.872, 4183.077, 4191.795, 450, 0, []
1630163545.6825, 117, 0, 4191.282, 4225.641, 4113.846, 4162.051, 4175.897, 450, 0, []
1630163545.6904, 118, 0, 4179.487, 4240.513, 4084.615, 4137.949, 4160, 450, 0, []
1630163545.6982, 119, 0, 4190.256, 4212.821, 4089.231, 4139.487, 4156.923, 16208, 0, []
1630163545.706, 120, 0, 4215.385, 4171.282, 4122.564, 4169.744, 4182.564, 450, 0, []
1630163545.7138, 121, 0, 4232.308, 4184.615, 4104.615, 4186.667, 4203.077, 450, 0, []
1630163545.7217, 122, 0, 4232.308, 4202.051, 4114.872, 4181.538, 4201.026, 450, 0, []
1630163545.7295, 123, 0, 4232.308, 4187.692, 4102.051, 4171.795, 4198.974, 16208, 0, []
1630163545.7374, 124, 0, 4235.897, 4195.385, 4107.179, 4171.282, 4197.436, 450, 0, []
1630163545.7451, 125, 0, 4229.231, 4232.821, 4125.641, 4175.897, 4192.308, 450, 0, []
1630163545.753, 126, 0, 4213.846, 4245.128, 4081.026, 4163.59, 4179.487, 450, 0, []
1630163545.7608, 127, 0, 4217.436, 4230.769, 4104.103, 4154.872, 4180, 16208, 0, []
1630163545.7687, 128, 0, 4236.923, 4233.333, 4121.026, 4158.974, 4196.923, 450, 0, []
1630163545.7765, 0, 0, 4231.795, 4238.974, 4107.179, 4159.487, 4201.538, 450, 0, []
1630163545.7844, 1, 0, 4208.718, 4232.821, 4114.872, 4159.487, 4182.051, 450, 0, []
1630163545.7923, 2, 0, 4214.872, 4242.051, 4089.231, 4162.051, 4173.333, 16186, 0, []
1630163545.8003, 3, 0, 4242.564, 4269.744, 4113.333, 4172.821, 4203.59, 450, 0, []
1630163545.8082, 4, 0, 4242.051, 4272.308, 4120, 4168.718, 4220, 16087, 0, []
1630163545.8162, 5, 0, 4230.256, 4242.564, 4101.538, 4153.333, 4205.641, 450, 0, []
1630163545.824, 6, 0, 4244.103, 4241.538, 4116.923, 4161.026, 4202.564, 242, 0, []
1630163545.832, 7, 0, 4247.179, 4270.769, 4089.744, 4169.231, 4196.923, 450, 0, []
1630163545.8399, 8, 0, 4225.128, 4273.846, 4096.923, 4158.462, 4179.487, 450, 0, []
1630163545.8479, 9, 0, 4230.769, 4261.026, 4103.59, 4153.333, 4195.897, 16106, 0, []
1630163545.8558, 10, 0, 4243.077, 4265.641, 4084.103, 4162.564, 4228.718, 450, 0, []
1630163545.8635, 11, 0, 4215.385, 4251.795, 4095.385, 4156.41, 4212.308, 16198, 0, []
1630163545.8714, 12, 0, 4197.949, 4243.59, 4069.231, 4138.974, 4185.641, 450, 0, []
1630163545.8792, 13, 0, 4221.026, 4290.769, 4084.103, 4151.795, 4201.538, 450, 0, []
1630163545.8871, 14, 0, 4238.974, 4309.744, 4106.154, 4174.359, 4222.564, 450, 0, []
1630163545.8949, 15, 0, 4228.718, 4267.692, 4079.487, 4164.103, 4218.974, 16198, 0, []
1630163545.9027, 16, 0, 4226.667, 4251.795, 4093.846, 4154.359, 4214.359, 0, 0, []
1630163545.9105, 17, 0, 4238.462, 4271.282, 4094.359, 4165.641, 4217.949, 0, 0, []
1630163545.9184, 18, 0, 4224.615, 4288.718, 4107.179, 4163.59, 4207.179, 0, 0, []
1630163545.9262, 19, 0, 4199.487, 4295.897, 4103.59, 4137.949, 4185.641, 0, 0, []
1630163545.9342, 20, 0, 4195.385, 4291.795, 4074.359, 4129.744, 4183.077, 0, 0, []
1630163545.942, 21, 0, 4207.692, 4286.667, 4112.308, 4150.256, 4191.282, 0, 0, []
1630163545.95, 22, 0, 4205.641, 4268.205, 4098.462, 4149.744, 4191.282, 0, 0, []
1630163545.9579, 23, 0, 4190.256, 4243.077, 4085.128, 4147.692, 4192.308, 0, 0, []
1630163545.9659, 24, 0, 4191.795, 4257.436, 4103.59, 4162.564, 4199.487, 0, 0, []
1630163545.9738, 25, 0, 4197.949, 4269.231, 4082.564, 4159.487, 4202.051, 0, 0, []
1630163545.9818, 26, 0, 4193.333, 4240.513, 4101.026, 4148.205, 4194.359, 0, 0, []
1630163545.9896, 27, 0, 4191.795, 4254.872, 4089.231, 4146.154, 4186.667, 0, 0, []
1630163545.9976, 28, 0, 4194.872, 4288.205, 4078.974, 4150.769, 4185.128, 0, 0, []
1630163546.0055, 29, 0, 4187.692, 4257.436, 4099.487, 4146.154, 4182.564, 0, 0, []
1630163546.0133, 30, 0, 4187.692, 4250.769, 4084.615, 4142.564, 4181.538, 0, 0, []
1630163546.0212, 31, 0, 4204.615, 4295.385, 4114.872, 4152.821, 4184.615, 0, 0, []
1630163546.0289, 32, 0, 4206.667, 4279.487, 4110.769, 4151.795, 4189.231, 0, 0, []
1630163546.0368, 33, 0, 4192.821, 4234.359, 4084.615, 4138.462, 4176.923, 0, 0, []
1630163546.0446, 34, 0, 4178.462, 4247.179, 4094.872, 4131.282, 4158.462, 0, 0, []
1630163546.0525, 35, 0, 4180, 4283.077, 4072.821, 4126.667, 4160, 0, 0, []
1630163546.0603, 36, 0, 4194.359, 4281.538, 4088.718, 4133.333, 4173.846, 0, 0, []
1630163546.0681, 37, 0, 4197.436, 4247.179, 4090.256, 4147.692, 4173.333, 0, 0, []
1630163546.0761, 38, 0, 4190.256, 4222.564, 4080, 4147.179, 4159.487, 0, 0, []
1630163546.0841, 39, 0, 4184.103, 4233.846, 4105.128, 4135.385, 4158.974, 0, 0, []
1630163546.092, 40, 0, 4168.205, 4259.487, 4074.359, 4119.487, 4151.795, 0, 0, []
1630163546.1, 41, 0, 4151.282, 4262.051, 4076.41, 4116.41, 4131.795, 0, 0, []
1630163546.1078, 42, 0, 4174.359, 4249.744, 4094.359, 4138.974, 4148.205, 0, 0, []
1630163546.1158, 43, 0, 4212.821, 4246.667, 4086.667, 4157.436, 4186.154, 0, 0, []
1630163546.1237, 44, 0, 4210.256, 4251.795, 4090.769, 4144.103, 4178.974, 0, 0, []
1630163546.1317, 45, 0, 4183.077, 4232.308, 4059.487, 4116.923, 4147.692, 0, 0, []
1630163546.1396, 46, 0, 4180.513, 4211.282, 4083.59, 4113.333, 4149.231, 0, 0, []
1630163546.1475, 47, 0, 4195.385, 4232.308, 4101.538, 4117.949, 4156.41, 0, 0, []
1630163546.1554, 48, 0, 4189.744, 4252.308, 4072.308, 4118.462, 4142.564, 0, 0, []
1630163546.1632, 49, 0, 4176.923, 4249.744, 4100.513, 4128.718, 4135.385, 0, 0, []
1630163546.1711, 50, 0, 4172.308, 4240, 4086.154, 4125.641, 4131.282, 0, 0, []
1630163546.1789, 51, 0, 4160, 4215.897, 4064.103, 4107.179, 4114.359, 0, 0, []
1630163546.1867, 52, 0, 4170.256, 4217.436, 4073.846, 4114.872, 4128.718, 0, 0, []
1630163546.1945, 53, 0, 4202.564, 4243.59, 4080.513, 4143.077, 4167.692, 0, 0, []
1630163546.2024, 54, 0, 4192.308, 4234.359, 4097.436, 4126.154, 4159.487, 0, 0, []
1630163546.2102, 55, 0, 4163.59, 4220, 4060.513, 4084.103, 4132.821, 0, 0, []
1630163546.2181, 56, 0, 4172.821, 4234.359, 4067.692, 4087.692, 4137.949, 0, 0, []
1630163546.2258, 57, 0, 4177.436, 4220.513, 4091.795, 4101.538, 4132.821, 0, 0, []
1630163546.2337, 58, 0, 4166.154, 4200.513, 4069.231, 4107.179, 4118.462, 0, 0, []
1630163546.2415, 59, 0, 4168.205, 4211.795, 4109.231, 4135.385, 4132.308, 0, 0, []
1630163546.2494, 60, 0, 4179.487, 4222.564, 4102.564, 4150.256, 4145.641, 0, 0, []
1630163546.2572, 61, 0, 4191.795, 4221.026, 4077.436, 4131.795, 4149.744, 0, 0, []
1630163546.2651, 62, 0, 4197.436, 4235.897, 4092.308, 4120, 4152.308, 0, 0, []
1630163546.273, 63, 0, 4187.692, 4260, 4071.795, 4112.821, 4144.615, 0, 0, []
1630163546.281, 64, 0, 4184.103, 4249.744, 4091.282, 4110.769, 4141.026, 450, 0, []
1630163546.2889, 65, 0, 4196.41, 4217.949, 4094.359, 4115.385, 4140.513, 450, 0, []
1630163546.2969, 66, 0, 4198.974, 4228.205, 4089.744, 4127.179, 4136.41, 16185, 0, []
1630163546.3047, 67, 0, 4195.385, 4257.436, 4111.282, 4145.641, 4139.487, 450, 0, []
1630163546.3127, 68, 0, 4195.385, 4236.41, 4088.205, 4148.205, 4148.718, 16088, 0, []
1630163546.3206, 69, 0, 4199.487, 4217.949, 4104.615, 4138.974, 4152.308, 450, 0, []
1630163546.3284, 70, 0, 4203.077, 4238.974, 4102.564, 4127.179, 4153.333, 240, 0, []
1630163546.3363, 71, 0, 4200.513, 4253.333, 4086.154, 4125.128, 4152.821, 450, 0, []
1630163546.3441, 72, 0, 4198.462, 4265.641, 4107.692, 4128.205, 4148.718, 450, 0, []
1630163546.3519, 73, 0, 4188.718, 4270.256, 4075.897, 4116.41, 4140.513, 16116, 0, []
1630163546.3597, 74, 0, 4174.359, 4246.667, 4081.538, 4115.385, 4130.256, 450, 0, []
1630163546.3676, 75, 0, 4186.154, 4239.487, 4108.718, 4144.615, 4146.154, 16196, 0, []
1630163546.3754, 76, 0, 4203.59, 4251.282, 4102.564, 4156.923, 4163.59, 450, 0, []
1630163546.3833, 77, 0, 4187.179, 4223.59, 4103.077, 4129.231, 4150.256, 450, 0, []
1630163546.391, 78, 0, 4174.359, 4218.462, 4073.846, 4114.872, 4143.59, 450, 0, []
1630163546.3989, 79, 0, 4187.179, 4265.641, 4098.974, 4130.769, 4150.256, 16196, 0, []
1630163546.4067, 80, 0, 4187.692, 4276.41, 4113.333, 4130.256, 4142.564, 450, 0, []
1630163546.4147, 81, 0, 4189.744, 4261.026, 4084.615, 4131.282, 4140.513, 450, 0, []
1630163546.4226, 82, 0, 4207.179, 4275.897, 4110.769, 4152.821, 4161.026, 450, 0, []
1630163546.4305, 83, 0, 4198.462, 4287.692, 4094.872, 4147.692, 4163.077, 16196, 0, []
1630163546.4384, 84, 0, 4173.846, 4273.333, 4096.923, 4138.974, 4155.385, 450, 0, []
1630163546.4464, 85, 0, 4188.718, 4273.846, 4118.462, 4160.513, 4169.231, 450, 0, []
1630163546.4543, 86, 0, 4206.154, 4286.154, 4092.821, 4154.359, 4175.897, 450, 0, []
1630163546.4623, 87, 0, 4183.59, 4284.615, 4096.923, 4123.59, 4154.359, 16196, 0, []
1630163546.4701, 88, 0, 4166.667, 4278.974, 4082.051, 4123.59, 4132.821, 450, 0, []
1630163546.4781, 89, 0, 4178.974, 4278.974, 4095.385, 4151.795, 4138.462, 450, 0, []
1630163546.486, 90, 0, 4189.744, 4278.974, 4114.872, 4166.154, 4156.923, 450, 0, []
1630163546.4938, 91, 0, 4184.615, 4271.795, 4078.974, 4151.795, 4158.974, 16196, 0, []
1630163546.5017, 92, 0, 4181.026, 4279.487, 4098.974, 4140, 4142.564, 450, 0, []
1630163546.5094, 93, 0, 4188.205, 4283.077, 4098.462, 4143.077, 4145.128, 450, 0, []
1630163546.5173, 94, 0, 4190.769, 4261.026, 4083.077, 4138.462, 4160.513, 450, 0, []
1630163546.5251, 95, 0, 4192.308, 4260.513, 4094.872, 4131.795, 4158.974, 16196, 0, []
1630163546.533, 96, 0, 4195.897, 4277.436, 4082.564, 4146.154, 4152.308, 450, 0, []
1630163546.5408, 97, 0, 4193.333, 4251.795, 4101.538, 4163.077, 4152.308, 450, 0, []
1630163546.5486, 98, 0, 4177.949, 4213.846, 4078.462, 4147.179, 4141.026, 450, 0, []
1630163546.5564, 99, 0, 4147.179, 4211.282, 4053.333, 4116.923, 4105.641, 16196, 0, []
1630163546.5643, 100, 0, 4129.231, 4210.769, 4083.59, 4104.615, 4085.128, 450, 0, []
1630163546.5721, 101, 0, 4155.897, 4214.872, 4084.103, 4112.308, 4101.026, 450, 0, []
1630163546.5801, 102, 0, 4193.846, 4260.513, 4108.718, 4133.333, 4133.846, 450, 0, []
1630163546.5879, 103, 0, 4193.846, 4299.487, 4095.385, 4130.256, 4139.487, 16196, 0, []
1630163546.5959, 104, 0, 4176.41, 4267.179, 4065.641, 4112.821, 4122.564, 450, 0, []
1630163546.6038, 105, 0, 4183.59, 4238.462, 4090.256, 4129.231, 4127.179, 450, 0, []
1630163546.6118, 106, 0, 4197.949, 4273.333, 4084.103, 4153.846, 4146.667, 450, 0, []
1630163546.6197, 107, 0, 4203.077, 4288.205, 4107.179, 4156.923, 4150.769, 16196, 0, []
1630163546.6275, 108, 0, 4205.641, 4266.667, 4105.128, 4145.128, 4144.615, 450, 0, []
1630163546.6355, 109, 0, 4202.051, 4262.051, 4076.41, 4134.872, 4139.487, 450, 0, []
1630163546.6433, 110, 0, 4181.538, 4247.179, 4091.282, 4121.538, 4121.026, 450, 0, []
1630163546.6512, 111, 0, 4168.205, 4229.231, 4065.128, 4111.795, 4105.128, 16196, 0, []
1630163546.659, 112, 0, 4180, 4242.051, 4084.615, 4130.256, 4114.872, 450, 0, []
1630163546.6669, 113, 0, 4187.179, 4244.615, 4107.179, 4146.154, 4129.744, 450, 0, []
1630163546.6746, 114, 0, 4188.205, 4239.487, 4087.179, 4138.974, 4135.385, 450, 0, []
1630163546.6825, 115, 0, 4210.256, 4249.231, 4120, 4151.282, 4155.897, 16196, 0, []
1630163546.6903, 116, 0, 4230.769, 4238.974, 4115.385, 4169.231, 4182.564, 450, 0, []
1630163546.6982, 117, 0, 4216.41, 4225.128, 4113.333, 4155.897, 4173.846, 450, 0, []
1630163546.706, 118, 0, 4212.821, 4235.385, 4128.718, 4153.333, 4167.692, 450, 0, []
1630163546.7139, 119, 0, 4240, 4222.051, 4125.641, 4185.641, 4185.641, 16196, 0, []
1630163546.7218, 120, 0, 4238.462, 4204.615, 4146.667, 4193.846, 4182.564, 450, 0, []
1630163546.7298, 121, 0, 4208.718, 4233.846, 4108.205, 4157.949, 4156.923, 450, 0, []
1630163546.7377, 122, 0, 4194.359, 4240.513, 4088.205, 4137.949, 4142.051, 450, 0, []
1630163546.7457, 123, 0, 4197.949, 4209.744, 4104.615, 4146.667, 4144.103, 16196, 0, []
1630163546.7535, 124, 0, 4208.205, 4206.154, 4096.923, 4150.256, 4156.41, 450, 0, []
1630163546.7615, 125, 0, 4217.436, 4230.769, 4129.744, 4157.949, 4161.026, 450, 0, []
1630163546.7694, 126, 0, 4207.692, 4242.051, 4110.256, 4162.051, 4148.718, 450, 0, []
1630163546.7774, 127, 0, 4197.436, 4223.59, 4093.333, 4160, 4147.179, 16196, 0, []
1630163546.7853, 128, 0, 4209.231, 4211.282, 4114.359, 4158.462, 4152.821, 450, 0, []
1630163546.793, 0, 0, 4216.41, 4235.897, 4087.179, 4156.41, 4153.333, 450, 0, []
1630163546.8009, 1, 0, 4230.256, 4265.128, 4112.821, 4177.436, 4174.872, 450, 0, []
1630163546.8087, 2, 0, 4234.872, 4245.128, 4117.949, 4178.974, 4185.641, 16184, 0, []
1630163546.8166, 3, 0, 4218.462, 4216.923, 4105.641, 4153.846, 4166.154, 450, 0, []
1630163546.8244, 4, 0, 4227.179, 4229.744, 4142.051, 4167.179, 4164.103, 16092, 0, []
1630163546.8322, 5, 0, 4251.795, 4241.538, 4133.333, 4197.949, 4189.231, 450, 0, []
1630163546.84, 6, 0, 4237.949, 4215.385, 4124.615, 4186.154, 4191.795, 234, 0, []
1630163546.8479, 7, 0, 4203.59, 4170.256, 4089.231, 4142.564, 4168.718, 450, 0, []
1630163546.8557, 8, 0, 4214.872, 4162.564, 4081.026, 4142.051, 4173.846, 450, 0, []
1630163546.8637, 9, 0, 4258.974, 4216.923, 4133.333, 4182.051, 4212.821, 16120, 0, []
1630163546.8715, 10, 0, 4275.385, 4264.615, 4120.513, 4200, 4232.821, 450, 0, []
1630163546.8795, 11, 0, 4259.487, 4254.872, 4123.59, 4193.846, 4218.974, 16198, 0, []
1630163546.8874, 12, 0, 4254.872, 4236.41, 4126.667, 4176.923, 4217.949, 450, 0, []
1630163546.8954, 13, 0, 4265.641, 4229.744, 4110.256, 4168.205, 4227.179, 450, 0, []
1630163546.9033, 14, 0, 4260, 4217.436, 4122.051, 4171.795, 4217.949, 450, 0, []
1630163546.9112, 15, 0, 4250.256, 4217.949, 4100, 4172.308, 4214.359, 16198, 0, []
1630163546.9191, 16, 0, 4248.718, 4230.256, 4114.359, 4169.744, 4218.974, 0, 0, []
1630163546.9271, 17, 0, 4250.256, 4235.385, 4116.923, 4166.154, 4214.872, 0, 0, []
1630163546.935, 18, 0, 4250.769, 4244.103, 4098.974, 4173.846, 4220, 0, 0, []
1630163546.9428, 19, 0, 4249.744, 4246.154, 4132.821, 4184.103, 4231.282, 0, 0, []
1630163546.9506, 20, 0, 4243.59, 4222.051, 4108.205, 4170.769, 4223.077, 0, 0, []
1630163546.9584, 21, 0, 4234.359, 4218.462, 4101.026, 4160, 4213.333, 0, 0, []
1630163546.9663, 22, 0, 4226.154, 4239.487, 4103.077, 4158.974, 4206.667, 0, 0, []
1630163546.9741, 23, 0, 4226.667, 4231.282, 4073.846, 4150.256, 4194.872, 0, 0, []
1630163546.9821, 24, 0, 4247.179, 4222.564, 4114.872, 4161.026, 4211.795, 0, 0, []
1630163546.9899, 25, 0, 4262.564, 4249.744, 4114.359, 4180.513, 4237.949, 0, 0, []
1630163546.9978, 26, 0, 4247.179, 4251.282, 4100.513, 4173.846, 4227.179, 0, 0, []
1630163547.0056, 27, 0, 4233.333, 4226.154, 4115.897, 4164.615, 4206.154, 0, 0, []
1630163547.0136, 28, 0, 4228.718, 4241.026, 4092.308, 4163.59, 4197.949, 0, 0, []
1630163547.0215, 29, 0, 4225.128, 4269.231, 4107.179, 4163.59, 4196.923, 0, 0, []
1630163547.0295, 30, 0, 4241.026, 4265.128, 4116.41, 4174.872, 4215.385, 0, 0, []
1630163547.0374, 31, 0, 4240.513, 4223.59, 4108.718, 4171.795, 4211.795, 0, 0, []
1630163547.0453, 32, 0, 4211.795, 4197.949, 4099.487, 4149.231, 4178.974, 0, 0, []
1630163547.0532, 33, 0, 4217.436, 4230.769, 4079.487, 4153.333, 4184.615, 0, 0, []
1630163547.0611, 34, 0, 4244.103, 4244.103, 4114.359, 4177.949, 4212.308, 0, 0, []
1630163547.0691, 35, 0, 4236.41, 4166.667, 4100, 4172.308, 4202.564, 0, 0, []
1630163547.0769, 36, 0, 4221.538, 4124.103, 4090.769, 4162.051, 4185.128, 0, 0, []
1630163547.0849, 37, 0, 4227.692, 4172.308, 4122.564, 4168.718, 4188.205, 0, 0, []
1630163547.0928, 38, 0, 4205.641, 4164.103, 4076.923, 4143.077, 4165.641, 0, 0, []
1630163547.1008, 39, 0, 4174.872, 4132.308, 4075.385, 4116.41, 4138.974, 0, 0, []
1630163547.1087, 40, 0, 4198.974, 4162.051, 4098.462, 4147.692, 4170.769, 0, 0, []
1630163547.1166, 41, 0, 4237.949, 4165.641, 4108.205, 4185.641, 4201.538, 0, 0, []
1630163547.1245, 42, 0, 4231.795, 4149.744, 4124.615, 4171.795, 4183.077, 0, 0, []
1630163547.1325, 43, 0, 4215.385, 4178.462, 4085.128, 4152.308, 4169.231, 0, 0, []
1630163547.1404, 44, 0, 4208.205, 4168.205, 4086.667, 4154.872, 4158.974, 0, 0, []
1630163547.1484, 45, 0, 4201.026, 4143.59, 4088.718, 4149.744, 4147.179, 0, 0, []
1630163547.1563, 46, 0, 4218.974, 4196.923, 4097.436, 4157.436, 4169.231, 0, 0, []
1630163547.1642, 47, 0, 4233.333, 4222.564, 4133.333, 4169.231, 4189.744, 0, 0, []
1630163547.1722, 48, 0, 4213.846, 4188.718, 4086.154, 4152.308, 4169.231, 0, 0, []
1630163547.1801, 49, 0, 4202.051, 4176.923, 4092.308, 4146.154, 4150.256, 0, 0, []
1630163547.1881, 50, 0, 4198.974, 4183.59, 4109.744, 4146.667, 4145.641, 0, 0, []
1630163547.1959, 51, 0, 4189.744, 4201.026, 4082.051, 4135.385, 4137.436, 0, 0, []
1630163547.2039, 52, 0, 4195.385, 4215.897, 4104.615, 4139.487, 4147.692, 0, 0, []
1630163547.2118, 53, 0, 4205.128, 4201.538, 4088.718, 4141.026, 4157.436, 0, 0, []
1630163547.2198, 54, 0, 4203.59, 4198.462, 4103.59, 4143.077, 4152.308, 0, 0, []
1630163547.2277, 55, 0, 4203.59, 4230.256, 4115.385, 4153.846, 4158.974, 0, 0, []
1630163547.2356, 56, 0, 4202.051, 4227.692, 4085.641, 4153.333, 4169.744, 0, 0, []
1630163547.2435, 57, 0, 4198.462, 4208.205, 4103.59, 4150.256, 4170.769, 0, 0, []
1630163547.2515, 58, 0, 4202.051, 4236.41, 4071.795, 4141.538, 4164.103, 0, 0, []
1630163547.2594, 59, 0, 4193.333, 4251.282, 4071.795, 4130.256, 4156.923, 0, 0, []
1630163547.2674, 60, 0, 4185.641, 4217.949, 4082.564, 4126.154, 4149.744, 0, 0, []
1630163547.2752, 61, 0, 4198.462, 4214.872, 4060.513, 4132.821, 4154.872, 0, 0, []
1630163547.2832, 62, 0, 4208.205, 4246.154, 4096.923, 4147.692, 4170.769, 0, 0, []
1630163547.2912, 63, 0, 4203.59, 4234.359, 4061.538, 4148.718, 4169.744, 0, 0, []
1630163547.2991, 64, 0, 4196.923, 4204.103, 4056.923, 4138.462, 4156.923, 450, 0, []
1630163547.3071, 65, 0, 4197.949, 4216.41, 4083.077, 4128.718, 4150.769, 450, 0, []
1630163547.3149, 66, 0, 4197.949, 4227.692, 4056.923, 4123.59, 4153.846, 16186, 0, []
1630163547.3229, 67, 0, 4195.897, 4207.692, 4097.949, 4127.692, 4157.436, 450, 0, []
1630163547.3308, 68, 0, 4205.641, 4204.103, 4085.641, 4135.385, 4164.103, 16093, 0, []
1630163547.3388, 69, 0, 4221.538, 4214.872, 4091.795, 4157.436, 4170.769, 450, 0, []
1630163547.3467, 70, 0, 4227.692, 4209.744, 4122.051, 4172.308, 4171.282, 272, 0, []
1630163547.3546, 71, 0, 4225.641, 4189.231, 4072.821, 4148.718, 4175.385, 450, 0, []
1630163547.3625, 72, 0, 4208.718, 4170.769, 4090.256, 4116.923, 4163.077, 450, 0, []
1630163547.3705, 73, 0, 4194.872, 4167.179, 4091.282, 4106.667, 4151.795, 16124, 0, []
1630163547.3784, 74, 0, 4224.615, 4178.462, 4100, 4132.821, 4186.154, 450, 0, []
1630163547.3864, 75, 0, 4247.179, 4192.821, 4133.333, 4154.359, 4207.179, 16195, 0, []
1630163547.3942, 76, 0, 4220, 4185.641, 4095.385, 4139.487, 4189.231, 450, 0, []
1630163547.4022, 77, 0, 4215.385, 4179.487, 4104.615, 4140.513, 4203.59, 450, 0, []
1630163547.4101, 78, 0, 4224.615, 4172.821, 4092.821, 4148.205, 4223.59, 450, 0, []
1630163547.4181, 79, 0, 4185.641, 4152.308, 4060, 4126.667, 4188.718, 16195, 0, []
1630163547.426, 80, 0, 4167.692, 4144.615, 4083.59, 4124.103, 4180, 450, 0, []
1630163547.434, 81, 0, 4196.923, 4150.256, 4089.744, 4155.897, 4221.538, 450, 0, []
1630163547.4418, 82, 0, 4193.333, 4173.333, 4109.744, 4165.641, 4222.564, 450, 0, []
1630163547.4498, 83, 0, 4168.718, 4187.692, 4095.385, 4144.615, 4196.923, 16195, 0, []
1630163547.4578, 84, 0, 4167.692, 4167.179, 4082.051, 4132.821, 4190.769, 450, 0, []
1630163547.4657, 85, 0, 4181.026, 4168.718, 4122.051, 4146.154, 4203.59, 450, 0, []
1630163547.4737, 86, 0, 4194.872, 4200.513, 4110.769, 4161.026, 4211.282, 450, 0, []
1630163547.4815, 87, 0, 4181.538, 4175.897, 4109.231, 4141.026, 4187.179, 16195, 0, []
1630163547.4895, 88, 0, 4171.795, 4136.923, 4114.359, 4125.641, 4182.564, 450, 0, []
1630163547.4974, 89, 0, 4213.846, 4173.846, 4131.795, 4174.872, 4228.718, 450, 0, []
1630163547.5054, 90, 0, 4243.59, 4224.103, 4167.179, 4220.513, 4254.359, 450, 0, []
1630163547.5133, 91, 0, 4220, 4205.641, 4117.436, 4188.718, 4225.128, 16195, 0, []
1630163547.5212, 92, 0, 4198.974, 4161.538, 4101.026, 4147.179, 4200, 450, 0, []
1630163547.5291, 93, 0, 4192.821, 4143.077, 4107.692, 4138.462, 4187.692, 450, 0, []
1630163547.5371, 94, 0, 4185.128, 4146.154, 4087.692, 4137.949, 4173.846, 450, 0, []
1630163547.545, 95, 0, 4180.513, 4138.974, 4098.974, 4130.256, 4171.282, 16195, 0, []
1630163547.553, 96, 0, 4163.077, 4096.923, 4066.667, 4108.718, 4160.513, 450, 0, []
1630163547.5608, 97, 0, 4168.205, 4084.615, 4085.128, 4126.667, 4164.103, 450, 0, []
1630163547.5688, 98, 0, 4211.795, 4140, 4130.769, 4177.436, 4201.026, 450, 0, []
1630163547.5767, 99, 0, 4213.846, 4147.179, 4093.333, 4170.256, 4208.205, 16195, 0, []
1630163547.5847, 100, 0, 4171.282, 4081.538, 4076.923, 4122.051, 4163.59, 450, 0, []
1630163547.5926, 101, 0, 4177.436, 4094.359, 4093.333, 4130.256, 4161.538, 450, 0, []
1630163547.6005, 102, 0, 4233.333, 4168.205, 4146.154, 4193.846, 4222.051, 450, 0, []
1630163547.6084, 103, 0, 4242.564, 4135.897, 4146.154, 4197.949, 4227.692, 16195, 0, []
1630163547.6164, 104, 0, 4195.385, 4086.667, 4078.974, 4147.692, 4178.462, 450, 0, []
1630163547.6244, 105, 0, 4189.744, 4144.103, 4106.154, 4151.795, 4180.513, 450, 0, []
1630163547.6323, 106, 0, 4225.128, 4175.897, 4124.615, 4181.026, 4222.051, 450, 0, []
1630163547.6402, 107, 0, 4229.231, 4135.897, 4108.718, 4170.256, 4227.179, 16195, 0, []
1630163547.6481, 108, 0, 4226.154, 4150.769, 4125.128, 4162.564, 4221.538, 450, 0, []
1630163547.6561, 109, 0, 4236.923, 4204.103, 4117.436, 4175.385, 4228.718, 450, 0, []
1630163547.664, 110, 0, 4216.923, 4184.615, 4112.308, 4157.436, 4209.231, 450, 0, []
1630163547.672, 111, 0, 4205.641, 4154.359, 4095.385, 4142.051, 4202.564, 16195, 0, []
1630163547.6798, 112, 0, 4231.282, 4181.026, 4112.308, 4174.359, 4227.692, 450, 0, []
1630163547.6878, 113, 0, 4234.359, 4187.179, 4138.462, 4189.744, 4233.846, 450, 0, []
1630163547.6957, 114, 0, 4212.308, 4169.744, 4100.513, 4164.615, 4216.41, 450, 0, []
1630163547.7037, 115, 0, 4200.513, 4163.59, 4107.179, 4150.769, 4198.462, 16195, 0, []
1630163547.7116, 116, 0, 4198.974, 4160.513, 4107.692, 4153.333, 4192.308, 450, 0, []
1630163547.7195, 117, 0, 4208.205, 4170.769, 4096.41, 4156.923, 4195.385, 450, 0, []
1630163547.7274, 118, 0, 4217.436, 4191.282, 4118.462, 4161.538, 4198.974, 450, 0, []
1630163547.7354, 119, 0, 4215.385, 4189.744, 4097.436, 4158.974, 4190.769, 16195, 0, []
1630163547.7433, 120, 0, 4214.872, 4174.872, 4109.744, 4157.949, 4188.205, 450, 0, []
1630163547.7513, 121, 0, 4216.923, 4183.59, 4107.692, 4155.897, 4190.256, 450, 0, []
1630163547.7591, 122, 0, 4195.897, 4187.179, 4074.872, 4136.41, 4169.744, 450, 0, []
1630163547.7671, 123, 0, 4174.359, 4167.692, 4095.385, 4128.205, 4155.385, 16195, 0, []
1630163547.7751, 124, 0, 4190.769, 4174.359, 4093.846, 4144.615, 4175.897, 450, 0, []
1630163547.783, 125, 0, 4199.487, 4220, 4102.564, 4152.821, 4191.282, 450, 0, []
1630163547.791, 126, 0, 4166.154, 4226.154, 4094.359, 4132.308, 4165.641, 450, 0, []
1630163547.7988, 127, 0, 4168.718, 4207.692, 4076.41, 4122.051, 4163.077, 16195, 0, []
1630163547.8068, 128, 0, 4234.872, 4258.974, 4124.615, 4154.872, 4206.667, 450, 0, []
1630163547.8147, 0, 0, 4277.949, 4299.487, 4126.667, 4178.462, 4220.513, 450, 0, []
1630163547.8227, 1, 0, 4275.385, 4248.718, 4114.359, 4168.205, 4204.615, 450, 0, []
1630163547.8306, 2, 0, 4272.821, 4209.744, 4111.282, 4151.795, 4199.487, 16189, 0, []
1630163547.8386, 3, 0, 4257.949, 4222.564, 4088.718, 4136.41, 4186.154, 450, 0, []
