Timestamp, COUNTER, INTERPOLATED, AF3, T7, Pz, T8, AF4, RAW_CQ, MARKER_HARDWARE, MARKERS
1628959212.8479, 34, 0, 4186.667, 4295.385, 4186.667, 4196.923, 4182.051, 0, 0, []
1628959212.8557, 35, 0, 4187.692, 4270.769, 4174.359, 4187.692, 4180.513, 0, 0, []
1628959212.8636, 36, 0, 4195.897, 4244.615, 4198.462, 4189.231, 4181.026, 0, 0, []
1628959212.8714, 37, 0, 4207.692, 4254.872, 4191.795, 4201.538, 4190.769, 0, 0, []
1628959212.8793, 38, 0, 4220, 4271.795, 4184.615, 4195.897, 4197.949, 0, 0, []
1628959212.887, 39, 0, 4237.949, 4282.564, 4185.641, 4183.59, 4217.949, 0, 0, []
1628959212.8949, 40, 0, 4262.564, 4280, 4180, 4188.718, 4258.462, 0, 0, []
1628959212.9027, 41, 0, 4298.462, 4277.949, 4196.923, 4195.385, 4296.41, 0, 0, []
1628959212.9106, 42, 0, 4336.41, 4277.949, 4178.462, 4187.179, 4326.154, 0, 0, []
1628959212.9184, 43, 0, 4349.744, 4276.923, 4174.359, 4181.026, 4346.154, 0, 0, []
1628959212.9262, 44, 0, 4348.205, 4296.41, 4187.179, 4182.051, 4353.846, 0, 0, []
1628959212.934, 45, 0, 4355.897, 4306.154, 4176.923, 4193.846, 4361.538, 0, 0, []
1628959212.9419, 46, 0, 4348.718, 4282.051, 4178.462, 4188.205, 4349.231, 0, 0, []
1628959212.9497, 47, 0, 4337.949, 4279.487, 4167.692, 4171.795, 4330.256, 0, 0, []
1628959212.9576, 48, 0, 4358.974, 4305.641, 4190.769, 4209.744, 4353.846, 0, 0, []
1628959212.9653, 49, 0, 4364.103, 4314.872, 4220, 4248.205, 4373.333, 0, 0, []
1628959212.9732, 50, 0, 4316.41, 4310.769, 4191.795, 4218.974, 4332.308, 0, 0, []
1628959212.981, 51, 0, 4275.385, 4300.513, 4185.128, 4185.641, 4286.667, 0, 0, []
1628959212.9888, 52, 0, 4261.538, 4284.615, 4176.923, 4181.538, 4266.667, 0, 0, []
1628959212.9967, 53, 0, 4261.026, 4293.846, 4184.103, 4190.769, 4257.949, 0, 0, []
1628959213.0044, 54, 0, 4266.154, 4313.333, 4209.744, 4209.231, 4263.077, 0, 0, []
1628959213.0123, 55, 0, 4250.256, 4283.077, 4183.59, 4207.179, 4251.795, 0, 0, []
1628959213.0201, 56, 0, 4229.231, 4264.103, 4178.974, 4194.359, 4232.308, 0, 0, []
1628959213.028, 57, 0, 4226.154, 4308.205, 4175.897, 4193.846, 4231.282, 0, 0, []
1628959213.0358, 58, 0, 4214.359, 4315.897, 4162.564, 4188.718, 4215.385, 0, 0, []
1628959213.0437, 59, 0, 4203.59, 4278.462, 4182.564, 4182.051, 4196.41, 0, 0, []
1628959213.0514, 60, 0, 4205.641, 4292.308, 4186.154, 4180.513, 4198.462, 0, 0, []
1628959213.0593, 61, 0, 4187.692, 4317.949, 4185.128, 4171.282, 4185.128, 0, 0, []
1628959213.0671, 62, 0, 4168.205, 4293.846, 4165.641, 4154.872, 4162.051, 0, 0, []
1628959213.075, 63, 0, 4177.949, 4266.154, 4162.564, 4159.487, 4165.128, 0, 0, []
1628959213.0828, 64, 0, 4174.359, 4275.897, 4180.513, 4170.769, 4168.205, 450, 0, []
1628959213.0906, 65, 0, 4155.897, 4301.026, 4148.718, 4162.051, 4155.385, 450, 0, []
1628959213.0984, 66, 0, 4151.795, 4298.974, 4145.641, 4158.974, 4145.641, 16187, 0, []
1628959213.1063, 67, 0, 4144.103, 4284.103, 4151.282, 4161.026, 4137.436, 450, 0, []
1628959213.1141, 68, 0, 4140.513, 4300.513, 4146.154, 4168.205, 4136.41, 16151, 0, []
1628959213.122, 69, 0, 4150.769, 4318.974, 4175.385, 4178.974, 4144.103, 450, 0, []
1628959213.1297, 70, 0, 4142.564, 4305.641, 4153.846, 4169.744, 4136.923, 16096, 0, []
1628959213.1375, 71, 0, 4121.026, 4279.487, 4135.385, 4158.462, 4121.538, 450, 0, []
1628959213.1454, 72, 0, 4123.077, 4272.821, 4149.231, 4155.385, 4119.487, 450, 0, []
1628959213.1532, 73, 0, 4126.154, 4303.59, 4128.718, 4149.231, 4119.487, 16103, 0, []
1628959213.1611, 74, 0, 4120.513, 4321.026, 4130.769, 4151.282, 4121.538, 450, 0, []
1628959213.1688, 75, 0, 4138.462, 4293.333, 4149.231, 4167.692, 4136.41, 16197, 0, []
1628959213.1767, 76, 0, 4158.462, 4299.487, 4170.769, 4183.077, 4145.641, 450, 0, []
1628959213.1845, 77, 0, 4146.154, 4327.179, 4164.103, 4175.385, 4132.308, 450, 0, []
1628959213.1924, 78, 0, 4138.462, 4294.872, 4140, 4167.179, 4125.641, 450, 0, []
1628959213.2002, 79, 0, 4161.538, 4286.154, 4170.256, 4186.154, 4147.179, 16197, 0, []
1628959213.208, 80, 0, 4169.744, 4331.795, 4165.641, 4191.795, 4157.949, 450, 0, []
1628959213.2158, 81, 0, 4145.641, 4324.103, 4145.641, 4169.744, 4132.308, 450, 0, []
1628959213.2237, 82, 0, 4124.103, 4294.359, 4154.359, 4156.41, 4109.744, 450, 0, []
1628959213.2315, 83, 0, 4127.692, 4313.846, 4155.897, 4166.667, 4116.923, 16197, 0, []
1628959213.2394, 84, 0, 4140, 4334.359, 4177.949, 4177.436, 4130.769, 450, 0, []
1628959213.2471, 85, 0, 4141.538, 4340, 4163.59, 4173.846, 4132.308, 450, 0, []
1628959213.255, 86, 0, 4136.923, 4350.256, 4150.256, 4180, 4132.308, 450, 0, []
1628959213.2628, 87, 0, 4145.641, 4347.692, 4175.385, 4196.41, 4145.641, 16197, 0, []
1628959213.2707, 88, 0, 4154.359, 4322.564, 4171.282, 4194.359, 4154.359, 450, 0, []
1628959213.2785, 89, 0, 4144.615, 4301.538, 4172.821, 4183.077, 4145.641, 450, 0, []
1628959213.2863, 90, 0, 4125.128, 4285.641, 4152.308, 4171.795, 4128.718, 450, 0, []
1628959213.2941, 91, 0, 4114.359, 4258.974, 4138.462, 4165.128, 4114.872, 16197, 0, []
1628959213.3021, 92, 0, 4135.385, 4249.231, 4177.949, 4177.949, 4128.718, 450, 0, []
1628959213.31, 93, 0, 4162.051, 4262.564, 4184.615, 4194.872, 4154.359, 450, 0, []
1628959213.3178, 94, 0, 4150.769, 4277.436, 4174.872, 4187.692, 4147.692, 450, 0, []
1628959213.3256, 95, 0, 4138.462, 4283.59, 4165.128, 4172.821, 4131.282, 16197, 0, []
1628959213.3334, 96, 0, 4152.821, 4270.769, 4166.154, 4186.667, 4141.538, 450, 0, []
1628959213.3413, 97, 0, 4153.333, 4237.436, 4176.923, 4190.769, 4141.538, 450, 0, []
1628959213.3491, 98, 0, 4141.026, 4208.718, 4148.718, 4168.205, 4121.538, 450, 0, []
1628959213.357, 99, 0, 4151.282, 4215.385, 4158.462, 4170.769, 4125.128, 16197, 0, []
1628959213.3647, 100, 0, 4161.538, 4222.564, 4174.359, 4186.667, 4143.077, 450, 0, []
1628959213.3726, 101, 0, 4154.872, 4207.179, 4166.667, 4185.128, 4142.564, 450, 0, []
1628959213.3804, 102, 0, 4150.769, 4184.615, 4180, 4175.385, 4133.846, 450, 0, []
1628959213.3883, 103, 0, 4155.897, 4182.564, 4166.667, 4170.769, 4136.923, 16197, 0, []
1628959213.3961, 104, 0, 4156.41, 4197.436, 4172.308, 4175.385, 4135.385, 450, 0, []
1628959213.4039, 105, 0, 4153.333, 4190.256, 4172.821, 4170.256, 4122.051, 450, 0, []
1628959213.4117, 106, 0, 4154.359, 4188.205, 4151.795, 4166.667, 4126.667, 450, 0, []
1628959213.4196, 107, 0, 4153.846, 4196.41, 4170.769, 4176.923, 4139.487, 16197, 0, []
1628959213.4274, 108, 0, 4155.385, 4176.41, 4165.641, 4178.974, 4137.949, 450, 0, []
1628959213.4353, 109, 0, 4165.128, 4164.615, 4171.282, 4178.462, 4141.538, 450, 0, []
1628959213.443, 110, 0, 4175.897, 4174.359, 4199.487, 4187.179, 4155.385, 450, 0, []
1628959213.4509, 111, 0, 4174.359, 4165.128, 4192.821, 4189.744, 4152.821, 16197, 0, []
1628959213.4587, 112, 0, 4157.436, 4154.359, 4184.615, 4176.923, 4134.872, 450, 0, []
1628959213.4667, 113, 0, 4146.154, 4170.769, 4160, 4162.564, 4128.718, 450, 0, []
1628959213.4746, 114, 0, 4148.205, 4174.359, 4156.41, 4167.179, 4129.744, 450, 0, []
1628959213.4825, 115, 0, 4153.846, 4156.41, 4169.744, 4180.513, 4132.821, 16197, 0, []
1628959213.4904, 116, 0, 4164.615, 4145.641, 4163.59, 4183.59, 4145.641, 450, 0, []
1628959213.4982, 117, 0, 4167.179, 4165.128, 4183.59, 4180.513, 4150.769, 450, 0, []
1628959213.5061, 118, 0, 4157.436, 4195.385, 4174.359, 4176.41, 4143.59, 450, 0, []
1628959213.5139, 119, 0, 4157.949, 4173.333, 4171.282, 4186.154, 4143.59, 16197, 0, []
1628959213.5217, 120, 0, 4165.128, 4146.667, 4192.308, 4197.949, 4149.744, 450, 0, []
1628959213.5295, 121, 0, 4156.41, 4171.282, 4167.179, 4185.641, 4140, 450, 0, []
1628959213.5374, 122, 0, 4146.667, 4183.59, 4175.385, 4173.846, 4123.59, 450, 0, []
1628959213.5452, 123, 0, 4151.795, 4174.359, 4188.205, 4177.949, 4128.205, 16197, 0, []
1628959213.5531, 124, 0, 4158.974, 4180, 4180.513, 4177.436, 4137.436, 450, 0, []
1628959213.5608, 125, 0, 4166.667, 4181.026, 4191.282, 4166.667, 4141.026, 450, 0, []
1628959213.5687, 126, 0, 4170.256, 4172.308, 4180, 4167.179, 4143.59, 450, 0, []
1628959213.5765, 127, 0, 4160.513, 4173.333, 4184.615, 4181.026, 4136.41, 16197, 0, []
1628959213.5844, 128, 0, 4149.231, 4194.359, 4175.385, 4177.949, 4123.59, 450, 0, []
1628959213.5922, 0, 0, 4151.795, 4211.282, 4167.179, 4176.923, 4126.154, 450, 0, []
1628959213.6, 1, 0, 4158.974, 4193.846, 4189.231, 4186.154, 4137.949, 450, 0, []
1628959213.6078, 2, 0, 4149.744, 4183.077, 4162.564, 4178.462, 4130.769, 16188, 0, []
1628959213.6157, 3, 0, 4140, 4201.026, 4157.949, 4173.333, 4119.487, 450, 0, []
1628959213.6235, 4, 0, 4149.231, 4192.308, 4173.333, 4170.769, 4120.513, 16151, 0, []
1628959213.6315, 5, 0, 4162.564, 4193.846, 4170.769, 4162.051, 4123.077, 450, 0, []
1628959213.6394, 6, 0, 4162.051, 4213.846, 4183.59, 4160.513, 4124.103, 16101, 0, []
1628959213.6473, 7, 0, 4154.359, 4191.795, 4167.692, 4158.974, 4122.051, 450, 0, []
1628959213.6552, 8, 0, 4154.872, 4176.41, 4177.436, 4162.564, 4121.538, 450, 0, []
1628959213.6631, 9, 0, 4160.513, 4197.949, 4191.795, 4165.641, 4127.692, 16098, 0, []
1628959213.671, 10, 0, 4158.974, 4212.308, 4169.744, 4163.077, 4130.256, 450, 0, []
1628959213.6789, 11, 0, 4150.256, 4210.769, 4173.333, 4162.564, 4124.103, 16197, 0, []
1628959213.6868, 12, 0, 4151.282, 4197.949, 4168.718, 4165.128, 4122.564, 450, 0, []
1628959213.6946, 13, 0, 4155.385, 4187.179, 4173.846, 4169.744, 4128.718, 450, 0, []
1628959213.7025, 14, 0, 4146.154, 4206.667, 4172.821, 4163.59, 4125.128, 450, 0, []
1628959213.7103, 15, 0, 4140.513, 4211.795, 4150.769, 4156.923, 4119.487, 16197, 0, []
1628959213.7182, 16, 0, 4152.308, 4183.59, 4176.923, 4171.282, 4131.795, 0, 0, []
1628959213.7259, 17, 0, 4159.487, 4175.897, 4176.923, 4182.564, 4140, 0, 0, []
1628959213.7338, 18, 0, 4141.026, 4182.051, 4157.436, 4176.41, 4119.487, 0, 0, []
1628959213.7416, 19, 0, 4121.538, 4197.949, 4150.769, 4165.641, 4100, 0, 0, []
1628959213.7495, 20, 0, 4126.154, 4207.692, 4142.564, 4162.564, 4107.692, 0, 0, []
1628959213.7573, 21, 0, 4145.641, 4186.154, 4174.359, 4168.718, 4126.154, 0, 0, []
1628959213.7651, 22, 0, 4158.974, 4181.026, 4182.564, 4175.897, 4141.026, 0, 0, []
1628959213.7729, 23, 0, 4154.872, 4212.821, 4176.923, 4173.846, 4137.949, 0, 0, []
1628959213.7809, 24, 0, 4147.179, 4225.641, 4184.103, 4161.026, 4128.205, 0, 0, []
1628959213.7888, 25, 0, 4160, 4196.41, 4172.821, 4162.564, 4140, 0, 0, []
1628959213.7968, 26, 0, 4180.513, 4186.154, 4194.359, 4185.641, 4160.513, 0, 0, []
1628959213.8046, 27, 0, 4183.077, 4196.923, 4196.41, 4191.282, 4160.513, 0, 0, []
1628959213.8126, 28, 0, 4173.333, 4195.385, 4191.282, 4183.59, 4153.333, 0, 0, []
1628959213.8205, 29, 0, 4171.795, 4206.154, 4208.205, 4181.538, 4156.41, 0, 0, []
1628959213.8283, 30, 0, 4170.256, 4211.795, 4180, 4171.282, 4152.308, 0, 0, []
1628959213.8362, 31, 0, 4168.205, 4187.179, 4181.538, 4168.205, 4147.692, 0, 0, []
1628959213.8439, 32, 0, 4171.282, 4181.026, 4190.256, 4176.923, 4152.308, 0, 0, []
1628959213.8518, 33, 0, 4163.59, 4203.077, 4170.256, 4186.154, 4147.179, 0, 0, []
1628959213.8596, 34, 0, 4158.462, 4207.179, 4174.872, 4192.821, 4138.462, 0, 0, []
1628959213.8675, 35, 0, 4168.205, 4195.897, 4165.641, 4191.282, 4140, 0, 0, []
1628959213.8753, 36, 0, 4166.154, 4192.821, 4169.231, 4185.128, 4139.487, 0, 0, []
1628959213.8831, 37, 0, 4154.872, 4191.795, 4166.154, 4179.487, 4135.385, 0, 0, []
1628959213.8909, 38, 0, 4155.897, 4176.41, 4163.077, 4185.128, 4141.538, 0, 0, []
1628959213.8988, 39, 0, 4157.436, 4167.179, 4191.795, 4184.103, 4142.051, 0, 0, []
1628959213.9066, 40, 0, 4149.744, 4202.564, 4174.872, 4169.231, 4131.795, 0, 0, []
1628959213.9146, 41, 0, 4146.667, 4237.436, 4169.231, 4170.256, 4129.744, 0, 0, []
1628959213.9224, 42, 0, 4152.308, 4202.051, 4180, 4181.538, 4138.974, 0, 0, []
1628959213.9304, 43, 0, 4159.487, 4169.231, 4172.308, 4184.615, 4144.103, 0, 0, []
1628959213.9383, 44, 0, 4154.872, 4213.846, 4176.41, 4175.897, 4129.744, 0, 0, []
1628959213.9463, 45, 0, 4151.795, 4250.769, 4161.026, 4165.641, 4125.128, 0, 0, []
1628959213.9542, 46, 0, 4165.641, 4218.974, 4177.949, 4177.949, 4146.667, 0, 0, []
1628959213.962, 47, 0, 4177.436, 4203.077, 4196.41, 4193.333, 4162.051, 0, 0, []
1628959213.9699, 48, 0, 4176.923, 4236.923, 4163.59, 4192.821, 4155.897, 0, 0, []
1628959213.9777, 49, 0, 4172.821, 4247.179, 4157.436, 4193.333, 4152.821, 0, 0, []
1628959213.9856, 50, 0, 4172.821, 4236.923, 4147.692, 4194.359, 4159.487, 0, 0, []
1628959213.9934, 51, 0, 4173.333, 4229.744, 4146.154, 4199.487, 4157.436, 0, 0, []
1628959214.0012, 52, 0, 4166.154, 4214.872, 4153.846, 4195.385, 4144.103, 0, 0, []
1628959214.009, 53, 0, 4153.846, 4216.923, 4135.897, 4178.462, 4133.846, 0, 0, []
1628959214.0169, 54, 0, 4153.846, 4233.333, 4148.205, 4177.436, 4135.897, 0, 0, []
1628959214.0247, 55, 0, 4153.846, 4215.897, 4140.513, 4174.872, 4130.256, 0, 0, []
1628959214.0326, 56, 0, 4135.385, 4187.179, 4129.744, 4162.564, 4107.179, 0, 0, []
1628959214.0403, 57, 0, 4128.718, 4205.128, 4146.154, 4164.103, 4106.154, 0, 0, []
1628959214.0482, 58, 0, 4151.282, 4224.103, 4138.462, 4180.513, 4132.821, 0, 0, []
1628959214.056, 59, 0, 4176.41, 4194.872, 4161.026, 4191.282, 4149.744, 0, 0, []
1628959214.0639, 60, 0, 4175.897, 4173.333, 4167.179, 4182.051, 4142.564, 0, 0, []
1628959214.0717, 61, 0, 4163.077, 4221.026, 4154.872, 4177.949, 4137.949, 0, 0, []
1628959214.0796, 62, 0, 4157.949, 4252.308, 4167.179, 4183.077, 4140.513, 0, 0, []
1628959214.0875, 63, 0, 4155.897, 4209.744, 4147.692, 4178.462, 4137.436, 0, 0, []
1628959214.0955, 64, 0, 4160.513, 4207.692, 4157.436, 4180.513, 4144.103, 450, 0, []
1628959214.1034, 65, 0, 4170.769, 4236.41, 4175.385, 4186.154, 4158.462, 450, 0, []
1628959214.1114, 66, 0, 4169.744, 4219.487, 4169.744, 4184.615, 4160, 16188, 0, []
1628959214.1192, 67, 0, 4155.385, 4224.103, 4167.179, 4181.538, 4151.282, 450, 0, []
1628959214.1271, 68, 0, 4149.744, 4260, 4140.513, 4175.385, 4144.615, 16151, 0, []
1628959214.135, 69, 0, 4162.051, 4238.462, 4147.179, 4175.897, 4145.128, 450, 0, []
1628959214.1428, 70, 0, 4168.205, 4223.077, 4154.359, 4180.513, 4145.128, 16103, 0, []
1628959214.1507, 71, 0, 4166.667, 4266.154, 4155.897, 4188.718, 4149.231, 450, 0, []
1628959214.1584, 72, 0, 4169.231, 4268.718, 4184.103, 4196.923, 4151.795, 450, 0, []
1628959214.1663, 73, 0, 4168.718, 4250.769, 4160.513, 4188.718, 4150.769, 16097, 0, []
1628959214.1741, 74, 0, 4166.667, 4268.205, 4160, 4184.615, 4155.385, 450, 0, []
1628959214.182, 75, 0, 4177.949, 4271.795, 4185.128, 4196.923, 4171.282, 16200, 0, []
1628959214.1898, 76, 0, 4189.231, 4265.641, 4167.692, 4206.667, 4177.436, 450, 0, []
1628959214.1976, 77, 0, 4183.077, 4296.41, 4166.667, 4198.974, 4169.231, 450, 0, []
1628959214.2054, 78, 0, 4180.513, 4298.974, 4156.41, 4189.231, 4174.359, 450, 0, []
1628959214.2133, 79, 0, 4187.692, 4252.308, 4158.462, 4193.333, 4180.513, 16200, 0, []
1628959214.2211, 80, 0, 4183.59, 4250.256, 4170.256, 4189.231, 4169.744, 450, 0, []
1628959214.2291, 81, 0, 4175.385, 4266.154, 4161.538, 4180.513, 4169.231, 450, 0, []
1628959214.2369, 82, 0, 4184.615, 4247.692, 4180.513, 4190.256, 4182.564, 450, 0, []
1628959214.2449, 83, 0, 4201.538, 4237.436, 4178.462, 4201.026, 4194.359, 16200, 0, []
1628959214.2528, 84, 0, 4206.154, 4263.59, 4180, 4206.667, 4200.513, 450, 0, []
1628959214.2608, 85, 0, 4194.359, 4277.949, 4196.41, 4208.718, 4196.923, 450, 0, []
1628959214.2687, 86, 0, 4187.179, 4249.744, 4185.128, 4206.154, 4186.154, 450, 0, []
1628959214.2766, 87, 0, 4191.795, 4251.795, 4194.872, 4205.641, 4187.692, 16200, 0, []
1628959214.2845, 88, 0, 4190.769, 4263.59, 4180.513, 4195.385, 4187.692, 450, 0, []
1628959214.2925, 89, 0, 4185.641, 4226.667, 4173.333, 4192.821, 4183.077, 450, 0, []
1628959214.3004, 90, 0, 4189.231, 4196.923, 4191.795, 4199.487, 4191.282, 450, 0, []
1628959214.3082, 91, 0, 4186.154, 4200.513, 4164.103, 4194.359, 4190.256, 16200, 0, []
1628959214.316, 92, 0, 4181.538, 4182.051, 4166.154, 4191.795, 4186.154, 450, 0, []
1628959214.3238, 93, 0, 4202.564, 4180, 4181.026, 4202.051, 4206.154, 450, 0, []
1628959214.3317, 94, 0, 4220.513, 4240.513, 4181.026, 4208.205, 4222.051, 450, 0, []
1628959214.3395, 95, 0, 4211.795, 4253.846, 4186.667, 4196.41, 4210.769, 16200, 0, []
1628959214.3474, 96, 0, 4213.846, 4213.333, 4180, 4193.846, 4212.821, 450, 0, []
1628959214.3552, 97, 0, 4225.128, 4227.692, 4202.051, 4209.231, 4230.256, 450, 0, []
1628959214.363, 98, 0, 4213.333, 4260.513, 4192.821, 4204.103, 4226.154, 450, 0, []
1628959214.3708, 99, 0, 4197.949, 4241.538, 4172.821, 4200.513, 4214.872, 16200, 0, []
1628959214.3787, 100, 0, 4201.026, 4221.026, 4197.436, 4211.282, 4212.308, 450, 0, []
1628959214.3865, 101, 0, 4195.385, 4232.308, 4181.538, 4207.179, 4204.103, 450, 0, []
1628959214.3944, 102, 0, 4181.026, 4245.128, 4175.897, 4205.128, 4199.487, 450, 0, []
1628959214.4021, 103, 0, 4184.103, 4256.923, 4190.769, 4213.846, 4212.821, 16200, 0, []
1628959214.4101, 104, 0, 4188.718, 4252.308, 4185.641, 4213.846, 4217.949, 450, 0, []
1628959214.418, 105, 0, 4182.051, 4228.718, 4184.615, 4205.128, 4206.667, 450, 0, []
1628959214.426, 106, 0, 4189.744, 4231.795, 4164.103, 4201.026, 4210.256, 450, 0, []
1628959214.4339, 107, 0, 4202.564, 4249.231, 4174.872, 4201.538, 4218.462, 16200, 0, []
1628959214.4418, 108, 0, 4199.487, 4252.821, 4184.103, 4197.949, 4216.41, 450, 0, []
1628959214.4497, 109, 0, 4195.385, 4255.897, 4161.026, 4197.436, 4215.385, 450, 0, []
1628959214.4577, 110, 0, 4201.026, 4266.667, 4178.462, 4203.077, 4218.462, 450, 0, []
1628959214.4656, 111, 0, 4200, 4274.872, 4176.923, 4196.41, 4217.436, 16200, 0, []
1628959214.4734, 112, 0, 4187.692, 4265.128, 4174.872, 4188.205, 4211.795, 450, 0, []
1628959214.4812, 113, 0, 4182.051, 4252.821, 4180.513, 4190.256, 4212.821, 450, 0, []
1628959214.489, 114, 0, 4189.231, 4278.462, 4174.872, 4201.026, 4215.897, 450, 0, []
1628959214.4969, 115, 0, 4183.077, 4307.692, 4193.333, 4203.59, 4206.154, 16200, 0, []
1628959214.5047, 116, 0, 4156.923, 4272.821, 4160.513, 4179.487, 4180.513, 450, 0, []
1628959214.5126, 117, 0, 4155.385, 4229.231, 4144.615, 4171.282, 4178.974, 450, 0, []
1628959214.5203, 118, 0, 4186.667, 4261.538, 4180.513, 4191.795, 4210.256, 450, 0, []
1628959214.5282, 119, 0, 4202.051, 4304.615, 4175.385, 4196.41, 4224.615, 16200, 0, []
1628959214.536, 120, 0, 4196.923, 4287.179, 4180, 4195.385, 4215.897, 450, 0, []
1628959214.544, 121, 0, 4203.077, 4262.051, 4181.026, 4204.103, 4217.949, 450, 0, []
1628959214.5519, 122, 0, 4203.077, 4290.769, 4175.897, 4206.667, 4217.436, 450, 0, []
1628959214.5598, 123, 0, 4186.154, 4321.026, 4178.462, 4196.41, 4203.077, 16200, 0, []
1628959214.5677, 124, 0, 4188.205, 4309.744, 4159.487, 4191.795, 4197.436, 450, 0, []
1628959214.5757, 125, 0, 4200.513, 4300.513, 4178.974, 4204.103, 4206.667, 450, 0, []
1628959214.5836, 126, 0, 4203.077, 4302.051, 4195.897, 4210.769, 4220.513, 450, 0, []
1628959214.5916, 127, 0, 4202.564, 4310.769, 4185.128, 4205.128, 4218.974, 16200, 0, []
1628959214.5994, 128, 0, 4201.026, 4315.385, 4174.359, 4194.359, 4203.077, 450, 0, []
1628959214.6074, 0, 0, 4204.615, 4297.949, 4151.282, 4191.795, 4205.641, 450, 0, []
1628959214.6153, 1, 0, 4208.718, 4287.692, 4168.205, 4195.385, 4217.436, 450, 0, []
1628959214.6231, 2, 0, 4203.59, 4316.41, 4167.179, 4187.692, 4207.692, 16188, 0, []
1628959214.631, 3, 0, 4197.436, 4347.692, 4156.923, 4191.795, 4197.949, 450, 0, []
1628959214.6387, 4, 0, 4194.359, 4330.256, 4183.077, 4199.487, 4201.026, 16151, 0, []
1628959214.6466, 5, 0, 4194.359, 4297.949, 4167.179, 4189.744, 4206.667, 450, 0, []
1628959214.6545, 6, 0, 4204.103, 4303.077, 4172.821, 4191.282, 4215.385, 16101, 0, []
1628959214.6624, 7, 0, 4206.154, 4345.641, 4185.641, 4195.385, 4210.769, 450, 0, []
1628959214.6703, 8, 0, 4196.923, 4354.359, 4166.667, 4188.205, 4195.385, 450, 0, []
1628959214.6781, 9, 0, 4208.205, 4324.103, 4182.564, 4195.897, 4205.641, 16097, 0, []
1628959214.6859, 10, 0, 4221.538, 4330.769, 4184.103, 4204.615, 4220, 450, 0, []
1628959214.6938, 11, 0, 4208.205, 4335.897, 4185.641, 4203.59, 4207.179, 16200, 0, []
1628959214.7016, 12, 0, 4192.821, 4316.41, 4183.59, 4195.385, 4196.923, 450, 0, []
1628959214.7096, 13, 0, 4188.718, 4322.564, 4158.462, 4187.179, 4199.487, 450, 0, []
1628959214.7174, 14, 0, 4185.128, 4328.205, 4163.59, 4187.179, 4197.436, 450, 0, []
1628959214.7254, 15, 0, 4183.077, 4324.615, 4152.821, 4186.154, 4195.385, 16200, 0, []
1628959214.7333, 16, 0, 4182.564, 4325.128, 4157.436, 4186.154, 4198.462, 0, 0, []
1628959214.7413, 17, 0, 4184.103, 4313.333, 4171.795, 4189.744, 4199.487, 0, 0, []
1628959214.7492, 18, 0, 4185.128, 4296.41, 4155.897, 4191.795, 4200, 0, 0, []
1628959214.7571, 19, 0, 4182.051, 4307.692, 4172.821, 4193.846, 4205.128, 0, 0, []
1628959214.765, 20, 0, 4193.333, 4328.718, 4176.923, 4202.051, 4217.949, 0, 0, []
1628959214.7728, 21, 0, 4203.077, 4319.487, 4171.282, 4210.769, 4222.564, 0, 0, []
1628959214.7807, 22, 0, 4187.179, 4292.308, 4169.231, 4200, 4208.205, 0, 0, []
1628959214.7885, 23, 0, 4169.231, 4287.692, 4149.744, 4190.256, 4199.487, 0, 0, []
1628959214.7963, 24, 0, 4168.205, 4332.308, 4166.154, 4191.282, 4199.487, 0, 0, []
1628959214.8041, 25, 0, 4177.436, 4352.308, 4168.718, 4186.154, 4203.59, 0, 0, []
1628959214.812, 26, 0, 4184.103, 4316.923, 4168.205, 4187.692, 4211.282, 0, 0, []
1628959214.8198, 27, 0, 4187.179, 4317.949, 4184.615, 4198.462, 4215.897, 0, 0, []
1628959214.8277, 28, 0, 4193.333, 4338.462, 4167.692, 4203.077, 4212.308, 0, 0, []
1628959214.8354, 29, 0, 4201.026, 4329.231, 4173.846, 4205.641, 4206.154, 0, 0, []
1628959214.8434, 30, 0, 4201.026, 4329.744, 4162.051, 4195.897, 4201.026, 0, 0, []
1628959214.8513, 31, 0, 4197.949, 4346.154, 4149.744, 4189.744, 4202.564, 0, 0, []
1628959214.8593, 32, 0, 4193.333, 4314.872, 4171.795, 4192.308, 4202.051, 0, 0, []
1628959214.8672, 33, 0, 4180, 4290.256, 4149.231, 4176.41, 4187.692, 0, 0, []
1628959214.8751, 34, 0, 4177.949, 4327.692, 4149.231, 4170.256, 4189.744, 0, 0, []
1628959214.883, 35, 0, 4183.59, 4331.795, 4162.051, 4184.615, 4203.59, 0, 0, []
1628959214.891, 36, 0, 4177.436, 4312.821, 4155.385, 4186.667, 4192.821, 0, 0, []
1628959214.8989, 37, 0, 4169.231, 4326.154, 4166.154, 4170.769, 4178.974, 0, 0, []
1628959214.9069, 38, 0, 4169.744, 4311.282, 4155.897, 4159.487, 4182.051, 0, 0, []
1628959214.9147, 39, 0, 4168.718, 4283.077, 4163.077, 4163.59, 4183.59, 0, 0, []
1628959214.9225, 40, 0, 4168.205, 4318.462, 4168.718, 4168.718, 4182.051, 0, 0, []
1628959214.9304, 41, 0, 4174.359, 4353.846, 4155.385, 4177.436, 4184.103, 0, 0, []
1628959214.9382, 42, 0, 4175.385, 4331.795, 4159.487, 4183.077, 4178.462, 0, 0, []
1628959214.9461, 43, 0, 4170.256, 4321.538, 4142.051, 4178.462, 4175.897, 0, 0, []
1628959214.9538, 44, 0, 4168.718, 4333.333, 4149.231, 4178.462, 4180.513, 0, 0, []
1628959214.9617, 45, 0, 4170.769, 4329.744, 4158.974, 4171.282, 4178.974, 0, 0, []
1628959214.9695, 46, 0, 4168.718, 4320.513, 4135.385, 4160, 4171.795, 0, 0, []
1628959214.9774, 47, 0, 4163.59, 4311.282, 4146.154, 4167.179, 4169.744, 0, 0, []
1628959214.9852, 48, 0, 4167.692, 4306.154, 4147.692, 4179.487, 4176.41, 0, 0, []
1628959214.993, 49, 0, 4168.205, 4320, 4155.897, 4181.026, 4174.872, 0, 0, []
1628959215.0008, 50, 0, 4157.436, 4343.59, 4166.154, 4174.872, 4167.179, 0, 0, []
1628959215.0088, 51, 0, 4156.41, 4348.718, 4151.282, 4173.333, 4170.769, 0, 0, []
1628959215.0167, 52, 0, 4170.256, 4354.359, 4173.846, 4176.923, 4182.051, 0, 0, []
1628959215.0247, 53, 0, 4175.385, 4354.872, 4167.179, 4168.718, 4188.205, 0, 0, []
1628959215.0325, 54, 0, 4165.128, 4316.923, 4146.154, 4155.385, 4178.974, 0, 0, []
1628959215.0405, 55, 0, 4171.282, 4312.308, 4161.026, 4154.872, 4179.487, 0, 0, []
1628959215.0484, 56, 0, 4201.538, 4348.718, 4166.154, 4175.897, 4204.615, 0, 0, []
1628959215.0564, 57, 0, 4223.077, 4342.564, 4190.769, 4206.154, 4225.641, 0, 0, []
1628959215.0643, 58, 0, 4224.103, 4327.179, 4184.615, 4207.692, 4223.077, 0, 0, []
1628959215.0722, 59, 0, 4215.897, 4338.462, 4171.795, 4195.897, 4216.41, 0, 0, []
1628959215.0801, 60, 0, 4207.179, 4339.487, 4183.59, 4190.256, 4211.795, 0, 0, []
1628959215.0879, 61, 0, 4200, 4330.256, 4158.974, 4177.436, 4195.897, 0, 0, []
1628959215.0958, 62, 0, 4192.821, 4328.718, 4155.897, 4163.59, 4183.59, 0, 0, []
1628959215.1036, 63, 0, 4192.821, 4329.231, 4155.385, 4161.538, 4184.615, 0, 0, []
1628959215.1115, 64, 0, 4205.641, 4338.462, 4157.949, 4173.333, 4192.308, 450, 0, []
1628959215.1192, 65, 0, 4218.462, 4335.385, 4184.615, 4186.154, 4201.538, 450, 0, []
1628959215.1271, 66, 0, 4213.846, 4340.513, 4176.41, 4186.667, 4201.026, 16192, 0, []
1628959215.1349, 67, 0, 4204.103, 4356.923, 4183.077, 4183.59, 4191.795, 450, 0, []
1628959215.1428, 68, 0, 4200, 4341.538, 4177.436, 4170.769, 4185.128, 16150, 0, []
1628959215.1506, 69, 0, 4190.769, 4327.179, 4152.308, 4162.564, 4184.103, 450, 0, []
1628959215.1585, 70, 0, 4181.026, 4332.308, 4157.949, 4166.154, 4180, 16098, 0, []
1628959215.1664, 71, 0, 4187.179, 4325.641, 4149.744, 4174.872, 4177.436, 450, 0, []
1628959215.1744, 72, 0, 4201.538, 4321.026, 4161.026, 4187.179, 4191.282, 450, 0, []
1628959215.1823, 73, 0, 4198.974, 4336.41, 4166.667, 4183.59, 4192.821, 16094, 0, []
1628959215.1903, 74, 0, 4198.974, 4355.897, 4162.564, 4184.615, 4191.795, 450, 0, []
1628959215.1981, 75, 0, 4224.615, 4361.538, 4188.205, 4203.59, 4227.692, 16200, 0, []
1628959215.2061, 76, 0, 4253.333, 4343.59, 4167.692, 4198.462, 4273.333, 450, 0, []
1628959215.214, 77, 0, 4290.769, 4344.615, 4177.436, 4194.359, 4317.949, 450, 0, []
1628959215.222, 78, 0, 4334.359, 4358.462, 4212.308, 4207.179, 4369.231, 450, 0, []
1628959215.2299, 79, 0, 4349.744, 4333.333, 4191.282, 4201.538, 4391.795, 16200, 0, []
1628959215.2378, 80, 0, 4353.333, 4337.949, 4190.769, 4191.795, 4392.308, 450, 0, []
1628959215.2457, 81, 0, 4358.974, 4365.641, 4190.256, 4197.949, 4401.026, 450, 0, []
1628959215.2535, 82, 0, 4341.538, 4346.154, 4190.256, 4199.487, 4392.308, 450, 0, []
1628959215.2614, 83, 0, 4321.538, 4362.051, 4193.333, 4192.821, 4371.282, 16200, 0, []
1628959215.2692, 84, 0, 4320.513, 4396.923, 4186.154, 4202.051, 4370.769, 450, 0, []
1628959215.277, 85, 0, 4312.821, 4369.744, 4208.718, 4214.359, 4362.564, 450, 0, []
1628959215.2848, 86, 0, 4292.308, 4360.513, 4196.923, 4194.872, 4332.308, 450, 0, []
1628959215.2927, 87, 0, 4276.41, 4378.462, 4184.103, 4174.872, 4311.795, 16200, 0, []
1628959215.3005, 88, 0, 4271.282, 4361.026, 4192.308, 4174.359, 4306.154, 450, 0, []
1628959215.3084, 89, 0, 4256.41, 4363.077, 4167.692, 4165.641, 4287.692, 450, 0, []
1628959215.3161, 90, 0, 4243.59, 4394.872, 4185.128, 4174.359, 4272.821, 450, 0, []
1628959215.324, 91, 0, 4263.59, 4402.051, 4210.769, 4212.821, 4292.821, 16200, 0, []
1628959215.3318, 92, 0, 4262.051, 4369.744, 4194.359, 4210.769, 4284.615, 450, 0, []
1628959215.3398, 93, 0, 4215.897, 4325.641, 4162.564, 4166.667, 4230.256, 450, 0, []
1628959215.3477, 94, 0, 4217.436, 4338.462, 4156.41, 4173.846, 4235.897, 450, 0, []
1628959215.3556, 95, 0, 4261.538, 4377.436, 4200.513, 4216.923, 4285.128, 16200, 0, []
1628959215.3635, 96, 0, 4255.385, 4336.923, 4186.154, 4211.282, 4273.333, 450, 0, []
1628959215.3715, 97, 0, 4229.231, 4277.436, 4156.923, 4192.821, 4238.462, 450, 0, []
1628959215.3794, 98, 0, 4226.154, 4289.744, 4171.795, 4192.308, 4236.923, 450, 0, []
1628959215.3874, 99, 0, 4221.026, 4310.769, 4158.974, 4184.103, 4234.872, 16200, 0, []
1628959215.3952, 100, 0, 4222.051, 4294.872, 4175.897, 4184.103, 4229.231, 450, 0, []
1628959215.403, 101, 0, 4224.103, 4276.41, 4180, 4182.051, 4227.179, 450, 0, []
1628959215.4109, 102, 0, 4199.487, 4263.077, 4152.821, 4162.564, 4205.641, 450, 0, []
1628959215.4187, 103, 0, 4193.333, 4273.846, 4169.231, 4168.205, 4202.051, 16200, 0, []
1628959215.4266, 104, 0, 4220.513, 4290.769, 4175.385, 4194.359, 4226.667, 450, 0, []
1628959215.4343, 105, 0, 4216.923, 4275.385, 4180.513, 4191.795, 4219.487, 450, 0, []
1628959215.4422, 106, 0, 4193.333, 4277.436, 4172.821, 4173.333, 4197.949, 450, 0, []
1628959215.45, 107, 0, 4195.897, 4299.487, 4158.974, 4177.949, 4208.205, 16200, 0, []
1628959215.4579, 108, 0, 4204.103, 4281.538, 4180, 4183.59, 4213.846, 450, 0, []
1628959215.4657, 109, 0, 4196.41, 4257.949, 4171.795, 4177.949, 4197.436, 450, 0, []
1628959215.4735, 110, 0, 4196.923, 4300, 4181.538, 4198.462, 4203.59, 450, 0, []
1628959215.4813, 111, 0, 4214.872, 4343.077, 4208.718, 4225.641, 4231.282, 16200, 0, []
1628959215.4893, 112, 0, 4226.154, 4311.795, 4202.051, 4226.667, 4236.923, 450, 0, []
1628959215.4972, 113, 0, 4208.205, 4282.051, 4190.769, 4205.641, 4218.974, 450, 0, []
1628959215.5052, 114, 0, 4182.051, 4304.103, 4153.846, 4174.872, 4194.872, 450, 0, []
1628959215.513, 115, 0, 4180, 4318.974, 4153.846, 4171.795, 4185.641, 16200, 0, []
1628959215.521, 116, 0, 4186.667, 4316.923, 4171.795, 4188.718, 4192.308, 450, 0, []
1628959215.5289, 117, 0, 4185.128, 4333.333, 4155.897, 4193.333, 4201.538, 450, 0, []
1628959215.5369, 118, 0, 4185.128, 4336.923, 4168.205, 4190.769, 4198.974, 450, 0, []
1628959215.5448, 119, 0, 4185.128, 4311.795, 4153.333, 4182.564, 4188.718, 16200, 0, []
1628959215.5527, 120, 0, 4186.667, 4315.897, 4142.051, 4180, 4187.692, 450, 0, []
1628959215.5606, 121, 0, 4174.872, 4326.667, 4154.359, 4169.744, 4178.462, 450, 0, []
1628959215.5684, 122, 0, 4150.769, 4320.513, 4132.308, 4154.359, 4158.974, 450, 0, []
1628959215.5763, 123, 0, 4153.333, 4333.846, 4142.564, 4172.821, 4168.205, 16200, 0, []
1628959215.5841, 124, 0, 4173.846, 4338.974, 4147.692, 4191.282, 4190.769, 450, 0, []
1628959215.5919, 125, 0, 4165.641, 4326.667, 4134.872, 4169.231, 4186.154, 450, 0, []
1628959215.5997, 126, 0, 4162.051, 4343.077, 4148.205, 4157.949, 4189.744, 450, 0, []
1628959215.6076, 127, 0, 4197.949, 4379.487, 4163.59, 4194.872, 4228.718, 16200, 0, []
1628959215.6154, 128, 0, 4211.282, 4369.744, 4186.667, 4218.462, 4244.103, 450, 0, []
1628959215.6234, 0, 0, 4180, 4333.846, 4171.282, 4192.821, 4214.872, 450, 0, []
1628959215.6312, 1, 0, 4160, 4333.333, 4166.667, 4179.487, 4193.846, 450, 0, []
1628959215.6392, 2, 0, 4160.513, 4349.744, 4198.462, 4186.154, 4192.821, 16193, 0, []
1628959215.6471, 3, 0, 4155.897, 4361.026, 4176.923, 4176.41, 4188.205, 450, 0, []
1628959215.655, 4, 0, 4153.333, 4356.41, 4163.59, 4174.359, 4185.641, 16149, 0, []
1628959215.6629, 5, 0, 4154.872, 4349.744, 4151.282, 4181.538, 4187.179, 450, 0, []
1628959215.6707, 6, 0, 4150.769, 4348.718, 4139.487, 4177.949, 4178.462, 16100, 0, []
1628959215.6786, 7, 0, 4144.103, 4343.077, 4165.641, 4172.821, 4170.769, 450, 0, []
1628959215.6866, 8, 0, 4138.974, 4335.897, 4152.821, 4170.769, 4169.744, 450, 0, []
1628959215.6945, 9, 0, 4135.897, 4317.949, 4151.795, 4165.641, 4165.128, 16089, 0, []
1628959215.7023, 10, 0, 4151.282, 4313.333, 4171.795, 4162.051, 4172.821, 450, 0, []
1628959215.7101, 11, 0, 4181.026, 4365.128, 4181.538, 4179.487, 4200.513, 16200, 0, []
1628959215.7179, 12, 0, 4180, 4414.872, 4192.821, 4193.333, 4206.154, 450, 0, []
1628959215.7258, 13, 0, 4156.923, 4392.308, 4161.026, 4184.103, 4183.59, 450, 0, []
1628959215.7336, 14, 0, 4158.462, 4376.923, 4155.385, 4194.359, 4180, 450, 0, []
1628959215.7415, 15, 0, 4147.692, 4404.103, 4153.846, 4189.231, 4166.154, 16200, 0, []
1628959215.7492, 16, 0, 4109.744, 4386.154, 4124.615, 4152.308, 4129.744, 0, 0, []
1628959215.7571, 17, 0, 4132.821, 4355.897, 4171.282, 4178.974, 4153.846, 0, 0, []
1628959215.7649, 18, 0, 4194.872, 4381.538, 4212.308, 4241.026, 4217.436, 0, 0, []
1628959215.7728, 19, 0, 4189.231, 4416.41, 4194.872, 4234.359, 4216.41, 0, 0, []
1628959215.7806, 20, 0, 4150.769, 4415.897, 4170.256, 4188.718, 4177.436, 0, 0, []
1628959215.7884, 21, 0, 4146.154, 4383.59, 4161.538, 4170.256, 4169.744, 0, 0, []
1628959215.7962, 22, 0, 4150.769, 4354.359, 4181.026, 4162.051, 4169.231, 0, 0, []
1628959215.8042, 23, 0, 4149.744, 4361.026, 4160.513, 4159.487, 4159.487, 0, 0, []
1628959215.8121, 24, 0, 4153.333, 4396.923, 4146.667, 4178.462, 4156.41, 0, 0, []
1628959215.8201, 25, 0, 4147.692, 4415.385, 4156.923, 4186.154, 4154.872, 0, 0, []
1628959215.828, 26, 0, 4132.308, 4364.615, 4128.205, 4177.436, 4147.179, 0, 0, []
1628959215.8359, 27, 0, 4136.923, 4334.359, 4137.436, 4189.231, 4150.256, 0, 0, []
1628959215.8438, 28, 0, 4157.436, 4394.872, 4158.974, 4207.179, 4170.769, 0, 0, []
1628959215.8518, 29, 0, 4152.308, 4420.513, 4157.436, 4196.41, 4169.744, 0, 0, []
1628959215.8597, 30, 0, 4134.872, 4393.333, 4160.513, 4171.282, 4150.256, 0, 0, []
1628959215.8677, 31, 0, 4149.744, 4416.923, 4158.462, 4167.179, 4159.487, 0, 0, []
1628959215.8755, 32, 0, 4165.128, 4438.974, 4176.41, 4173.846, 4174.872, 0, 0, []
1628959215.8833, 33, 0, 4163.59, 4404.615, 4169.744, 4171.282, 4176.923, 0, 0, []
1628959215.8912, 34, 0, 4178.462, 4403.59, 4176.923, 4193.846, 4197.949, 0, 0, []
1628959215.899, 35, 0, 4180.513, 4435.897, 4200, 4210.256, 4210.769, 0, 0, []
1628959215.9069, 36, 0, 4170.256, 4420.513, 4147.179, 4173.333, 4198.462, 0, 0, []
1628959215.9146, 37, 0, 4225.641, 4411.282, 4144.615, 4161.026, 4237.949, 0, 0, []
1628959215.9225, 38, 0, 4325.128, 4446.667, 4190.769, 4197.436, 4327.179, 0, 0, []
1628959215.9303, 39, 0, 4375.385, 4463.59, 4193.846, 4212.821, 4380, 0, 0, []
1628959215.9382, 40, 0, 4376.923, 4460.513, 4178.974, 4195.897, 4388.205, 0, 0, []
1628959215.946, 41, 0, 4393.333, 4483.59, 4154.359, 4190.769, 4398.974, 0, 0, []
1628959215.9539, 42, 0, 4421.538, 4491.282, 4178.974, 4201.538, 4412.821, 0, 0, []
1628959215.9618, 43, 0, 4421.538, 4448.718, 4194.872, 4195.385, 4407.692, 0, 0, []
1628959215.9698, 44, 0, 4404.103, 4433.846, 4171.795, 4182.051, 4386.667, 0, 0, []
1628959215.9777, 45, 0, 4400, 4472.821, 4190.769, 4177.436, 4372.821, 0, 0, []
1628959215.9857, 46, 0, 4400.513, 4493.846, 4195.385, 4184.103, 4373.846, 0, 0, []
1628959215.9935, 47, 0, 4377.436, 4460, 4185.641, 4187.179, 4359.487, 0, 0, []
1628959216.0015, 48, 0, 4341.538, 4418.462, 4170.256, 4164.103, 4316.923, 0, 0, []
1628959216.0094, 49, 0, 4319.487, 4416.923, 4146.667, 4150.769, 4288.205, 0, 0, []
1628959216.0174, 50, 0, 4304.615, 4420, 4162.051, 4164.615, 4278.462, 0, 0, []
1628959216.0253, 51, 0, 4288.718, 4393.846, 4155.385, 4161.026, 4261.026, 0, 0, []
1628959216.033, 52, 0, 4294.872, 4381.538, 4168.205, 4164.103, 4265.128, 0, 0, []
1628959216.0409, 53, 0, 4310.769, 4416.41, 4200, 4185.641, 4281.538, 0, 0, []
1628959216.0487, 54, 0, 4300.513, 4435.385, 4185.128, 4184.615, 4265.641, 0, 0, []
1628959216.0566, 55, 0, 4285.128, 4411.282, 4190.769, 4174.359, 4248.718, 0, 0, []
1628959216.0644, 56, 0, 4285.128, 4413.333, 4189.231, 4170.256, 4252.821, 0, 0, []
1628959216.0722, 57, 0, 4282.564, 4432.308, 4186.667, 4169.231, 4245.641, 0, 0, []
1628959216.08, 58, 0, 4265.128, 4405.641, 4188.718, 4168.205, 4224.615, 0, 0, []
1628959216.0879, 59, 0, 4240.513, 4393.333, 4153.333, 4155.897, 4202.564, 0, 0, []
1628959216.0957, 60, 0, 4225.128, 4427.692, 4144.103, 4140.513, 4187.179, 0, 0, []
1628959216.1037, 61, 0, 4226.154, 4429.744, 4143.077, 4143.077, 4187.692, 0, 0, []
1628959216.1115, 62, 0, 4220.513, 4403.077, 4149.231, 4157.436, 4189.744, 0, 0, []
1628959216.1195, 63, 0, 4214.359, 4410.256, 4161.026, 4164.615, 4183.59, 0, 0, []
1628959216.1274, 64, 0, 4214.359, 4419.487, 4147.179, 4164.103, 4177.949, 450, 0, []
1628959216.1354, 65, 0, 4204.103, 4399.487, 4153.846, 4160.513, 4167.692, 450, 0, []
1628959216.1433, 66, 0, 4202.051, 4396.923, 4154.359, 4163.077, 4170.769, 16193, 0, []
1628959216.1512, 67, 0, 4207.179, 4417.436, 4163.077, 4181.538, 4183.077, 450, 0, []
1628959216.1591, 68, 0, 4206.154, 4435.385, 4182.564, 4186.667, 4179.487, 16149, 0, []
1628959216.1671, 69, 0, 4213.846, 4428.205, 4152.821, 4162.564, 4169.744, 450, 0, []
1628959216.1751, 70, 0, 4240.513, 4410.769, 4149.744, 4150.256, 4182.564, 16097, 0, []
1628959216.183, 71, 0, 4277.436, 4426.154, 4164.615, 4166.154, 4214.359, 450, 0, []
1628959216.1909, 72, 0, 4306.667, 4446.154, 4169.231, 4185.641, 4239.487, 450, 0, []
1628959216.1988, 73, 0, 4311.282, 4446.667, 4176.923, 4189.744, 4246.154, 16090, 0, []
1628959216.2068, 74, 0, 4294.872, 4426.154, 4153.333, 4184.103, 4234.872, 450, 0, []
1628959216.2147, 75, 0, 4277.436, 4406.154, 4156.41, 4174.872, 4214.872, 16200, 0, []
1628959216.2227, 76, 0, 4258.462, 4407.179, 4168.718, 4159.487, 4200, 450, 0, []
1628959216.2305, 77, 0, 4234.359, 4408.718, 4154.872, 4143.077, 4183.077, 450, 0, []
1628959216.2385, 78, 0, 4221.538, 4390.769, 4160, 4139.487, 4168.718, 450, 0, []
1628959216.2465, 79, 0, 4239.487, 4377.949, 4165.128, 4157.949, 4182.564, 16200, 0, []
1628959216.2544, 80, 0, 4257.436, 4383.59, 4185.128, 4181.026, 4206.154, 450, 0, []
1628959216.2624, 81, 0, 4237.436, 4397.949, 4189.231, 4171.795, 4190.769, 450, 0, []
1628959216.2702, 82, 0, 4214.872, 4429.231, 4177.949, 4160, 4168.205, 450, 0, []
1628959216.2782, 83, 0, 4218.462, 4435.897, 4196.923, 4169.744, 4172.821, 16200, 0, []
1628959216.2861, 84, 0, 4218.974, 4430.769, 4174.359, 4158.974, 4175.897, 450, 0, []
1628959216.2941, 85, 0, 4210.256, 4451.795, 4157.436, 4140, 4161.538, 450, 0, []
1628959216.302, 86, 0, 4208.205, 4446.667, 4173.333, 4141.538, 4151.795, 450, 0, []
1628959216.3099, 87, 0, 4214.872, 4445.128, 4175.897, 4155.897, 4158.974, 16200, 0, []
1628959216.3178, 88, 0, 4220, 4476.41, 4199.487, 4173.333, 4170.256, 450, 0, []
1628959216.3258, 89, 0, 4209.744, 4460, 4191.795, 4179.487, 4168.205, 450, 0, []
1628959216.3338, 90, 0, 4201.538, 4420, 4176.923, 4187.179, 4166.667, 450, 0, []
1628959216.3417, 91, 0, 4214.359, 4431.795, 4180.513, 4195.385, 4174.359, 16200, 0, []
1628959216.3496, 92, 0, 4222.051, 4447.692, 4158.462, 4184.103, 4171.795, 450, 0, []
1628959216.3575, 93, 0, 4205.128, 4444.103, 4160, 4164.615, 4157.949, 450, 0, []
1628959216.3655, 94, 0, 4191.795, 4444.615, 4176.923, 4150.769, 4150.256, 450, 0, []
1628959216.3734, 95, 0, 4193.846, 4438.974, 4199.487, 4149.744, 4152.821, 16200, 0, []
1628959216.3814, 96, 0, 4201.026, 4440, 4150.769, 4150.769, 4154.872, 450, 0, []
1628959216.3892, 97, 0, 4203.077, 4452.308, 4153.333, 4172.821, 4150.769, 450, 0, []
1628959216.3972, 98, 0, 4202.051, 4450.256, 4269.231, 4203.077, 4158.974, 450, 0, []
1628959216.4052, 99, 0, 4204.615, 4448.205, 4181.026, 4194.872, 4179.487, 16200, 0, []
1628959216.4131, 100, 0, 4202.051, 4445.128, 4126.667, 4188.718, 4181.026, 450, 0, []
1628959216.4211, 101, 0, 4193.846, 4422.564, 4209.231, 4182.051, 4166.154, 450, 0, []
1628959216.4289, 102, 0, 4197.949, 4408.205, 4161.538, 4164.615, 4170.256, 450, 0, []
1628959216.4369, 103, 0, 4203.59, 4434.872, 4143.077, 4160.513, 4171.795, 16200, 0, []
1628959216.4448, 104, 0, 4177.436, 4460.513, 4148.718, 4152.308, 4135.897, 450, 0, []
1628959216.4528, 105, 0, 4159.487, 4430.256, 4151.795, 4161.026, 4120.513, 450, 0, []
1628959216.4607, 106, 0, 4176.41, 4400, 4177.436, 4177.949, 4152.308, 450, 0, []
1628959216.4686, 107, 0, 4188.718, 4404.615, 4163.077, 4182.564, 4185.641, 16200, 0, []
1628959216.4765, 108, 0, 4189.744, 4414.872, 4181.538, 4193.333, 4195.897, 450, 0, []
1628959216.4845, 109, 0, 4190.256, 4425.641, 4192.308, 4195.897, 4191.795, 450, 0, []
1628959216.4924, 110, 0, 4191.795, 4431.795, 4185.641, 4191.795, 4186.154, 450, 0, []
1628959216.5004, 111, 0, 4197.436, 4442.051, 4198.462, 4198.974, 4184.103, 16200, 0, []
1628959216.5082, 112, 0, 4187.692, 4452.308, 4185.128, 4202.051, 4174.359, 450, 0, []
1628959216.5162, 113, 0, 4163.077, 4445.128, 4175.385, 4194.872, 4160, 450, 0, []
1628959216.5241, 114, 0, 4168.718, 4429.744, 4179.487, 4199.487, 4172.308, 450, 0, []
1628959216.5321, 115, 0, 4170.256, 4401.026, 4164.615, 4186.667, 4170.256, 16200, 0, []
1628959216.54, 116, 0, 4142.051, 4360, 4150.256, 4154.872, 4141.538, 450, 0, []
1628959216.5479, 117, 0, 4165.641, 4377.436, 4175.385, 4178.462, 4166.154, 450, 0, []
1628959216.5558, 118, 0, 4214.359, 4448.718, 4227.692, 4229.231, 4210.769, 450, 0, []
1628959216.5638, 119, 0, 4205.641, 4457.949, 4214.872, 4225.128, 4201.026, 16200, 0, []
1628959216.5718, 120, 0, 4183.077, 4404.615, 4174.359, 4206.154, 4183.077, 450, 0, []
1628959216.5797, 121, 0, 4187.179, 4390.256, 4187.692, 4214.872, 4194.359, 450, 0, []
1628959216.5876, 122, 0, 4173.333, 4419.487, 4177.436, 4206.667, 4186.154, 450, 0, []
1628959216.5955, 123, 0, 4146.667, 4429.231, 4153.333, 4183.59, 4162.564, 16200, 0, []
1628959216.6035, 124, 0, 4151.282, 4416.923, 4162.564, 4182.051, 4163.59, 450, 0, []
1628959216.6114, 125, 0, 4173.333, 4425.641, 4183.077, 4198.974, 4177.949, 450, 0, []
1628959216.6194, 126, 0, 4190.769, 4457.436, 4207.179, 4216.923, 4190.769, 450, 0, []
1628959216.6272, 127, 0, 4185.128, 4447.179, 4181.538, 4209.231, 4184.615, 16200, 0, []
1628959216.6352, 128, 0, 4163.59, 4401.538, 4151.282, 4184.103, 4160.513, 450, 0, []
1628959216.6431, 0, 0, 4158.974, 4408.205, 4166.154, 4175.385, 4153.846, 450, 0, []
1628959216.651, 1, 0, 4160, 4423.59, 4164.103, 4176.923, 4158.974, 450, 0, []
1628959216.6589, 2, 0, 4158.974, 4397.436, 4157.436, 4180.513, 4160.513, 16193, 0, []
1628959216.6668, 3, 0, 4176.923, 4406.154, 4184.103, 4203.59, 4178.974, 450, 0, []
1628959216.6747, 4, 0, 4194.872, 4443.077, 4195.897, 4223.59, 4200.513, 16149, 0, []
1628959216.6827, 5, 0, 4179.487, 4423.077, 4173.333, 4203.077, 4183.077, 450, 0, []
1628959216.6906, 6, 0, 4156.923, 4393.333, 4151.795, 4167.692, 4151.282, 16095, 0, []
1628959216.6986, 7, 0, 4157.436, 4412.821, 4146.667, 4166.154, 4150.769, 450, 0, []
1628959216.7065, 8, 0, 4158.974, 4414.359, 4141.538, 4181.538, 4154.872, 450, 0, []
1628959216.7144, 9, 0, 4156.923, 4374.872, 4141.026, 4190.769, 4149.744, 16092, 0, []
1628959216.7224, 10, 0, 4158.974, 4363.077, 4164.615, 4204.103, 4155.385, 450, 0, []
1628959216.7303, 11, 0, 4157.436, 4380.513, 4170.769, 4202.051, 4155.385, 16200, 0, []
1628959216.7383, 12, 0, 4154.872, 4365.128, 4152.308, 4176.923, 4143.077, 450, 0, []
1628959216.7462, 13, 0, 4155.897, 4320.513, 4143.077, 4164.103, 4143.077, 450, 0, []
1628959216.7541, 14, 0, 4160.513, 4298.462, 4129.744, 4165.128, 4154.359, 450, 0, []
1628959216.762, 15, 0, 4163.077, 4322.051, 4140.513, 4169.231, 4158.462, 16200, 0, []
1628959216.77, 16, 0, 4161.026, 4347.179, 4153.846, 4179.487, 4156.41, 0, 0, []
1628959216.7779, 17, 0, 4145.641, 4324.615, 4147.692, 4179.487, 4141.026, 0, 0, []
1628959216.7859, 18, 0, 4128.718, 4302.564, 4148.718, 4167.692, 4124.615, 0, 0, []
1628959216.7937, 19, 0, 4148.205, 4347.179, 4153.333, 4177.436, 4144.615, 0, 0, []
1628959216.8017, 20, 0, 4173.846, 4377.949, 4163.59, 4191.282, 4167.179, 0, 0, []
1628959216.8096, 21, 0, 4167.692, 4346.154, 4150.256, 4174.872, 4154.359, 0, 0, []
1628959216.8176, 22, 0, 4154.359, 4333.846, 4145.128, 4164.615, 4140.513, 0, 0, []
1628959216.8255, 23, 0, 4151.282, 4328.718, 4146.154, 4166.667, 4137.436, 0, 0, []
1628959216.8334, 24, 0, 4161.026, 4324.615, 4141.026, 4167.179, 4138.462, 0, 0, []
1628959216.8413, 25, 0, 4190.769, 4349.231, 4182.051, 4186.667, 4160.513, 0, 0, []
1628959216.8493, 26, 0, 4213.333, 4339.487, 4190.256, 4201.026, 4188.205, 0, 0, []
1628959216.8573, 27, 0, 4203.59, 4317.436, 4162.051, 4187.692, 4188.718, 0, 0, []
1628959216.8652, 28, 0, 4193.846, 4341.026, 4163.077, 4184.615, 4182.564, 0, 0, []
1628959216.8731, 29, 0, 4190.769, 4344.615, 4166.154, 4192.308, 4178.462, 0, 0, []
1628959216.881, 30, 0, 4173.333, 4315.897, 4164.103, 4177.949, 4160.513, 0, 0, []
1628959216.889, 31, 0, 4165.641, 4327.692, 4152.821, 4164.103, 4154.872, 0, 0, []
1628959216.8969, 32, 0, 4174.359, 4336.923, 4162.564, 4174.872, 4167.179, 0, 0, []
1628959216.9049, 33, 0, 4178.974, 4310.256, 4170.769, 4186.154, 4171.795, 0, 0, []
1628959216.9127, 34, 0, 4184.615, 4327.179, 4157.949, 4190.769, 4172.308, 0, 0, []
1628959216.9207, 35, 0, 4194.872, 4355.897, 4168.205, 4194.872, 4182.564, 0, 0, []
1628959216.9286, 36, 0, 4192.308, 4332.308, 4162.051, 4195.385, 4187.179, 0, 0, []
1628959216.9366, 37, 0, 4165.641, 4317.949, 4149.744, 4182.564, 4165.128, 0, 0, []
1628959216.9445, 38, 0, 4149.231, 4335.385, 4152.821, 4167.692, 4142.051, 0, 0, []
1628959216.9524, 39, 0, 4163.077, 4316.41, 4150.256, 4167.179, 4149.744, 0, 0, []
1628959216.9603, 40, 0, 4169.231, 4293.846, 4165.128, 4176.41, 4163.59, 0, 0, []
1628959216.9683, 41, 0, 4170.256, 4334.872, 4164.103, 4190.769, 4172.308, 0, 0, []
1628959216.9762, 42, 0, 4185.641, 4367.692, 4163.077, 4210.256, 4182.564, 0, 0, []
1628959216.9842, 43, 0, 4182.051, 4338.462, 4167.179, 4205.128, 4176.41, 0, 0, []
1628959216.992, 44, 0, 4156.41, 4311.282, 4137.436, 4177.949, 4153.333, 0, 0, []
1628959217, 45, 0, 4152.821, 4338.462, 4141.538, 4173.333, 4146.154, 0, 0, []
1628959217.0079, 46, 0, 4179.487, 4382.564, 4158.462, 4193.846, 4167.179, 0, 0, []
1628959217.0159, 47, 0, 4197.949, 4397.949, 4165.641, 4209.744, 4189.744, 0, 0, []
1628959217.0238, 48, 0, 4192.308, 4394.359, 4168.718, 4195.385, 4184.103, 0, 0, []
1628959217.0317, 49, 0, 4182.564, 4400.513, 4132.821, 4169.231, 4158.974, 0, 0, []
1628959217.0397, 50, 0, 4178.974, 4414.872, 4138.462, 4176.923, 4152.308, 0, 0, []
1628959217.0476, 51, 0, 4173.846, 4411.282, 4147.179, 4185.128, 4154.359, 0, 0, []
1628959217.0556, 52, 0, 4175.385, 4413.846, 4126.667, 4172.821, 4147.179, 0, 0, []
1628959217.0635, 53, 0, 4185.641, 4433.846, 4142.564, 4173.846, 4153.333, 0, 0, []
1628959217.0714, 54, 0, 4176.923, 4421.538, 4129.744, 4173.333, 4153.846, 0, 0, []
1628959217.0793, 55, 0, 4164.103, 4386.667, 4113.333, 4161.538, 4137.436, 0, 0, []
1628959217.0873, 56, 0, 4167.692, 4397.949, 4125.641, 4157.436, 4135.897, 0, 0, []
1628959217.0952, 57, 0, 4170.769, 4427.179, 4127.692, 4165.641, 4151.282, 0, 0, []
1628959217.1032, 58, 0, 4172.308, 4421.026, 4136.923, 4174.872, 4155.385, 0, 0, []
1628959217.111, 59, 0, 4163.077, 4390.769, 4116.923, 4157.949, 4137.436, 0, 0, []
1628959217.119, 60, 0, 4147.692, 4374.872, 4100.513, 4137.436, 4121.538, 0, 0, []
1628959217.1269, 61, 0, 4159.487, 4394.872, 4115.385, 4148.205, 4132.821, 0, 0, []
1628959217.1349, 62, 0, 4166.154, 4390.769, 4108.205, 4153.333, 4136.41, 0, 0, []
1628959217.1428, 63, 0, 4149.744, 4357.949, 4108.718, 4142.051, 4119.487, 0, 0, []
1628959217.1507, 64, 0, 4166.154, 4383.077, 4125.641, 4158.974, 4134.359, 450, 0, []
1628959217.1586, 65, 0, 4199.487, 4422.564, 4149.744, 4186.154, 4169.744, 450, 0, []
1628959217.1666, 66, 0, 4206.667, 4408.205, 4162.564, 4183.077, 4179.487, 16193, 0, []
1628959217.1746, 67, 0, 4198.974, 4385.641, 4135.897, 4170.769, 4167.179, 450, 0, []
1628959217.1825, 68, 0, 4180, 4389.231, 4120.513, 4160, 4147.179, 16149, 0, []
1628959217.1904, 69, 0, 4192.308, 4408.205, 4142.564, 4172.821, 4158.462, 450, 0, []
1628959217.1983, 70, 0, 4252.308, 4401.026, 4185.641, 4218.974, 4208.718, 16100, 0, []
1628959217.2063, 71, 0, 4268.718, 4371.795, 4193.846, 4226.154, 4222.564, 450, 0, []
1628959217.2142, 72, 0, 4227.692, 4364.103, 4151.795, 4185.128, 4192.308, 450, 0, []
1628959217.2222, 73, 0, 4213.846, 4364.615, 4151.282, 4176.923, 4185.641, 16094, 0, []
1628959217.23, 74, 0, 4221.026, 4345.641, 4149.744, 4182.051, 4187.692, 450, 0, []
1628959217.238, 75, 0, 4210.769, 4337.436, 4128.718, 4166.154, 4172.821, 16200, 0, []
1628959217.2459, 76, 0, 4211.282, 4353.333, 4152.308, 4174.359, 4178.462, 450, 0, []
1628959217.2539, 77, 0, 4231.282, 4359.487, 4162.051, 4196.923, 4202.051, 450, 0, []
1628959217.2618, 78, 0, 4234.872, 4362.564, 4159.487, 4188.205, 4205.128, 450, 0, []
1628959217.2697, 79, 0, 4219.487, 4371.795, 4155.897, 4169.231, 4186.154, 16200, 0, []
1628959217.2776, 80, 0, 4223.077, 4375.385, 4145.641, 4176.41, 4183.59, 450, 0, []
1628959217.2856, 81, 0, 4236.923, 4339.487, 4162.564, 4188.205, 4198.462, 450, 0, []
1628959217.2935, 82, 0, 4226.154, 4297.949, 4150.256, 4169.744, 4192.821, 450, 0, []
1628959217.3015, 83, 0, 4214.359, 4340, 4135.385, 4156.41, 4177.949, 16200, 0, []
1628959217.3093, 84, 0, 4212.308, 4378.462, 4141.538, 4156.923, 4173.846, 450, 0, []
1628959217.3173, 85, 0, 4198.462, 4330.769, 4126.667, 4146.154, 4165.641, 450, 0, []
1628959217.3252, 86, 0, 4198.974, 4313.333, 4135.385, 4151.282, 4167.179, 450, 0, []
1628959217.3332, 87, 0, 4218.974, 4373.333, 4145.641, 4172.821, 4182.564, 16200, 0, []
1628959217.3412, 88, 0, 4209.744, 4402.051, 4137.949, 4172.821, 4179.487, 450, 0, []
1628959217.349, 89, 0, 4184.103, 4356.923, 4131.282, 4151.795, 4158.974, 450, 0, []
1628959217.357, 90, 0, 4192.821, 4335.385, 4132.821, 4149.744, 4163.077, 450, 0, []
1628959217.3649, 91, 0, 4222.564, 4366.154, 4165.641, 4173.333, 4193.333, 16200, 0, []
1628959217.3729, 92, 0, 4224.103, 4372.821, 4167.692, 4177.436, 4205.641, 450, 0, []
1628959217.3808, 93, 0, 4204.103, 4347.692, 4151.282, 4163.077, 4189.744, 450, 0, []
1628959217.3887, 94, 0, 4196.41, 4350.769, 4150.769, 4157.436, 4177.436, 450, 0, []
1628959217.3966, 95, 0, 4208.205, 4372.821, 4143.077, 4164.103, 4187.179, 16200, 0, []
1628959217.4046, 96, 0, 4221.026, 4365.641, 4151.795, 4170.769, 4198.462, 450, 0, []
1628959217.4125, 97, 0, 4214.359, 4363.59, 4142.564, 4165.641, 4188.718, 450, 0, []
1628959217.4205, 98, 0, 4200, 4375.897, 4132.821, 4162.051, 4171.282, 450, 0, []
1628959217.4283, 99, 0, 4197.949, 4355.385, 4157.436, 4165.641, 4167.692, 16200, 0, []
1628959217.4363, 100, 0, 4201.026, 4344.615, 4153.846, 4165.641, 4180.513, 450, 0, []
1628959217.4442, 101, 0, 4202.051, 4371.795, 4150.256, 4166.154, 4185.128, 450, 0, []
1628959217.4522, 102, 0, 4197.436, 4380, 4143.59, 4168.205, 4175.385, 450, 0, []
1628959217.4601, 103, 0, 4184.615, 4335.385, 4132.821, 4164.103, 4163.077, 16200, 0, []
1628959217.468, 104, 0, 4180.513, 4322.051, 4144.615, 4161.538, 4160.513, 450, 0, []
1628959217.476, 105, 0, 4189.744, 4357.949, 4133.333, 4162.051, 4166.667, 450, 0, []
1628959217.4839, 106, 0, 4186.667, 4356.41, 4133.846, 4157.436, 4167.179, 450, 0, []
1628959217.4919, 107, 0, 4185.128, 4336.923, 4142.051, 4152.821, 4167.179, 16200, 0, []
1628959217.4998, 108, 0, 4195.385, 4345.641, 4130.256, 4153.846, 4167.692, 450, 0, []
1628959217.5077, 109, 0, 4197.949, 4339.487, 4138.462, 4159.487, 4168.718, 450, 0, []
1628959217.5156, 110, 0, 4212.821, 4311.282, 4149.744, 4181.026, 4187.179, 450, 0, []
1628959217.5236, 111, 0, 4238.974, 4325.641, 4173.333, 4208.205, 4209.744, 16200, 0, []
1628959217.5315, 112, 0, 4237.949, 4364.615, 4177.436, 4204.103, 4204.615, 450, 0, []
1628959217.5395, 113, 0, 4217.949, 4347.179, 4154.359, 4183.077, 4186.667, 450, 0, []
1628959217.5473, 114, 0, 4206.667, 4307.179, 4165.128, 4177.436, 4183.59, 450, 0, []
1628959217.5553, 115, 0, 4208.205, 4318.462, 4168.718, 4175.897, 4185.128, 16200, 0, []
1628959217.5632, 116, 0, 4214.872, 4342.051, 4171.282, 4180, 4183.59, 450, 0, []
1628959217.5712, 117, 0, 4217.949, 4315.385, 4170.256, 4182.564, 4184.615, 450, 0, []
1628959217.5791, 118, 0, 4216.41, 4302.564, 4147.692, 4175.385, 4186.667, 450, 0, []
1628959217.587, 119, 0, 4213.846, 4343.59, 4156.41, 4174.872, 4180.513, 16200, 0, []
1628959217.595, 120, 0, 4209.744, 4345.128, 4151.795, 4172.821, 4168.718, 450, 0, []
1628959217.6029, 121, 0, 4217.436, 4317.436, 4146.154, 4173.333, 4172.821, 450, 0, []
1628959217.6108, 122, 0, 4220, 4326.154, 4161.026, 4174.872, 4178.462, 450, 0, []
1628959217.6188, 123, 0, 4195.385, 4330.256, 4142.564, 4163.077, 4160.513, 16200, 0, []
1628959217.6266, 124, 0, 4190.256, 4334.359, 4144.103, 4167.692, 4154.359, 450, 0, []
1628959217.6346, 125, 0, 4209.231, 4363.077, 4153.333, 4187.692, 4166.667, 450, 0, []
1628959217.6425, 126, 0, 4187.179, 4359.487, 4150.256, 4184.615, 4145.128, 450, 0, []
1628959217.6505, 127, 0, 4142.564, 4326.667, 4151.795, 4171.282, 4104.615, 16200, 0, []
1628959217.6585, 128, 0, 4134.359, 4331.795, 4132.821, 4172.308, 4091.282, 450, 0, []
1628959217.6663, 0, 0, 4132.308, 4345.128, 4139.487, 4174.872, 4082.051, 450, 0, []
1628959217.6743, 1, 0, 4106.154, 4323.077, 4140.513, 4165.641, 4056.923, 450, 0, []
1628959217.6822, 2, 0, 4081.538, 4326.154, 4131.282, 4161.538, 4034.359, 16192, 0, []
1628959217.6902, 3, 0, 4066.154, 4341.538, 4148.205, 4161.026, 4016.41, 450, 0, []
1628959217.6981, 4, 0, 4063.59, 4326.154, 4138.462, 4151.795, 4011.282, 16148, 0, []
1628959217.7061, 5, 0, 4072.308, 4323.59, 4138.462, 4151.282, 4022.051, 450, 0, []
1628959217.7139, 6, 0, 4076.41, 4335.385, 4137.949, 4158.462, 4031.282, 16097, 0, []
1628959217.7219, 7, 0, 4078.462, 4315.897, 4132.821, 4161.026, 4032.308, 450, 0, []
1628959217.7298, 8, 0, 4088.718, 4309.744, 4155.897, 4160, 4037.436, 450, 0, []
1628959217.7378, 9, 0, 4096.923, 4354.872, 4146.667, 4158.462, 4048.718, 16094, 0, []
1628959217.7457, 10, 0, 4096.923, 4348.718, 4144.103, 4160.513, 4051.795, 450, 0, []
1628959217.7536, 11, 0, 4090.256, 4293.333, 4145.641, 4151.795, 4042.564, 16198, 0, []
1628959217.7615, 12, 0, 4088.718, 4307.692, 4131.795, 4147.179, 4040.513, 450, 0, []
1628959217.7695, 13, 0, 4103.59, 4328.205, 4144.615, 4159.487, 4056.41, 450, 0, []
1628959217.7774, 14, 0, 4109.744, 4281.538, 4130.256, 4150.256, 4064.103, 450, 0, []
1628959217.7854, 15, 0, 4097.436, 4251.795, 4122.564, 4130.769, 4055.897, 16198, 0, []
1628959217.7933, 16, 0, 4106.667, 4261.538, 4133.333, 4139.487, 4061.538, 0, 0, []
1628959217.8012, 17, 0, 4131.282, 4238.974, 4136.923, 4163.077, 4083.59, 0, 0, []
1628959217.8092, 18, 0, 4132.308, 4210.769, 4146.667, 4172.308, 4095.385, 0, 0, []
1628959217.8171, 19, 0, 4117.949, 4194.359, 4117.436, 4161.538, 4088.718, 0, 0, []
1628959217.8251, 20, 0, 4110.769, 4167.692, 4116.41, 4148.718, 4076.41, 0, 0, []
1628959217.8329, 21, 0, 4111.282, 4150.769, 4143.59, 4145.641, 4072.821, 0, 0, []
1628959217.8409, 22, 0, 4121.026, 4127.179, 4134.359, 4154.872, 4082.051, 0, 0, []
1628959217.8488, 23, 0, 4134.359, 4093.846, 4138.462, 4163.077, 4093.846, 0, 0, []
1628959217.8568, 24, 0, 4141.026, 4089.744, 4130.256, 4156.923, 4097.949, 0, 0, []
1628959217.8647, 25, 0, 4138.974, 4094.872, 4132.308, 4150.769, 4094.359, 0, 0, []
1628959217.8726, 26, 0, 4134.359, 4089.744, 4150.256, 4149.744, 4089.744, 0, 0, []
1628959217.8805, 27, 0, 4149.231, 4094.872, 4136.923, 4158.974, 4100, 0, 0, []
1628959217.8885, 28, 0, 4171.795, 4082.051, 4133.333, 4162.051, 4119.487, 0, 0, []
1628959217.8964, 29, 0, 4172.308, 4040, 4112.308, 4138.974, 4124.615, 0, 0, []
1628959217.9044, 30, 0, 4171.282, 4025.128, 4117.436, 4140, 4127.179, 0, 0, []
1628959217.9122, 31, 0, 4182.564, 4055.897, 4150.256, 4167.179, 4136.923, 0, 0, []
1628959217.9202, 32, 0, 4171.282, 4064.103, 4128.718, 4159.487, 4125.128, 0, 0, []
1628959217.9281, 33, 0, 4140.513, 4013.846, 4117.436, 4137.436, 4094.872, 0, 0, []
1628959217.9361, 34, 0, 4137.436, 3995.385, 4118.974, 4141.026, 4090.769, 0, 0, []
1628959217.944, 35, 0, 4153.333, 4031.282, 4126.667, 4152.308, 4108.718, 0, 0, []
1628959217.9519, 36, 0, 4157.949, 4014.872, 4142.051, 4147.692, 4111.282, 0, 0, []
1628959217.9598, 37, 0, 4161.538, 3964.103, 4126.154, 4152.821, 4113.333, 0, 0, []
1628959217.9676, 38, 0, 4173.846, 3976.41, 4140.513, 4175.897, 4124.615, 0, 0, []
1628959217.9756, 39, 0, 4169.744, 4002.051, 4142.564, 4171.282, 4118.974, 0, 0, []
1628959217.9835, 40, 0, 4144.615, 3973.846, 4120, 4145.128, 4091.282, 0, 0, []
1628959217.9914, 41, 0, 4149.744, 3958.974, 4133.846, 4142.564, 4090.769, 0, 0, []
1628959217.9993, 42, 0, 4173.333, 3986.667, 4141.026, 4155.385, 4116.923, 0, 0, []
1628959218.0073, 43, 0, 4157.436, 3983.59, 4144.103, 4156.41, 4107.179, 0, 0, []
1628959218.0152, 44, 0, 4129.231, 3930.769, 4106.667, 4134.872, 4077.436, 0, 0, []
1628959218.0232, 45, 0, 4155.385, 3920, 4076.923, 4130.769, 4105.641, 0, 0, []
1628959218.031, 46, 0, 4241.026, 3961.026, 4135.897, 4172.308, 4193.333, 0, 0, []
1628959218.039, 47, 0, 4313.846, 3984.615, 4163.077, 4206.154, 4270.769, 0, 0, []
1628959218.0469, 48, 0, 4324.103, 3988.718, 4151.795, 4200, 4298.974, 0, 0, []
1628959218.0549, 49, 0, 4309.744, 3985.128, 4144.103, 4179.487, 4287.692, 0, 0, []
1628959218.0628, 50, 0, 4309.744, 3970.769, 4135.897, 4175.897, 4267.179, 0, 0, []
1628959218.0707, 51, 0, 4304.615, 3987.179, 4154.359, 4183.59, 4255.897, 0, 0, []
1628959218.0786, 52, 0, 4288.205, 4009.231, 4147.179, 4189.231, 4241.026, 0, 0, []
1628959218.0866, 53, 0, 4271.282, 3988.718, 4145.128, 4191.282, 4216.41, 0, 0, []
1628959218.0945, 54, 0, 4248.718, 3974.359, 4145.128, 4180.513, 4195.897, 0, 0, []
1628959218.1025, 55, 0, 4248.205, 3984.615, 4135.897, 4177.949, 4198.462, 0, 0, []
1628959218.1103, 56, 0, 4264.103, 3986.154, 4170.769, 4192.821, 4211.282, 0, 0, []
1628959218.1181, 57, 0, 4258.974, 3990.256, 4173.846, 4191.795, 4206.154, 0, 0, []
1628959218.1261, 58, 0, 4250.256, 3992.308, 4171.795, 4186.667, 4200, 0, 0, []
1628959218.134, 59, 0, 4240.513, 3982.564, 4185.128, 4185.128, 4195.385, 0, 0, []
1628959218.142, 60, 0, 4227.179, 3982.051, 4168.718, 4178.974, 4185.128, 0, 0, []
1628959218.1498, 61, 0, 4240.513, 3990.769, 4189.231, 4196.41, 4201.026, 0, 0, []
1628959218.1578, 62, 0, 4255.385, 3989.744, 4190.256, 4213.846, 4222.051, 0, 0, []
1628959218.1657, 63, 0, 4236.41, 3973.846, 4174.872, 4205.128, 4210.256, 0, 0, []
1628959218.1737, 64, 0, 4223.59, 3970.256, 4181.538, 4195.897, 4197.949, 450, 0, []
1628959218.1816, 65, 0, 4233.333, 3984.103, 4157.949, 4191.795, 4203.59, 450, 0, []
1628959218.1895, 66, 0, 4232.308, 3983.077, 4169.231, 4193.333, 4204.103, 16190, 0, []
1628959218.1974, 67, 0, 4241.026, 3972.821, 4192.821, 4208.718, 4212.821, 450, 0, []
1628959218.2054, 68, 0, 4260, 3977.436, 4184.615, 4208.718, 4225.128, 16155, 0, []
1628959218.2133, 69, 0, 4270.256, 3991.282, 4187.179, 4194.359, 4233.333, 450, 0, []
1628959218.2213, 70, 0, 4282.564, 3995.897, 4192.308, 4204.615, 4251.795, 16102, 0, []
1628959218.2291, 71, 0, 4284.103, 3979.487, 4209.231, 4214.872, 4253.846, 450, 0, []
1628959218.2371, 72, 0, 4266.154, 3963.077, 4199.487, 4198.974, 4233.333, 450, 0, []
1628959218.245, 73, 0, 4261.026, 3982.564, 4190.769, 4199.487, 4231.282, 16096, 0, []
1628959218.253, 74, 0, 4262.051, 3997.436, 4206.154, 4202.051, 4232.821, 450, 0, []
1628959218.261, 75, 0, 4244.103, 3983.59, 4183.077, 4182.564, 4211.795, 16198, 0, []
1628959218.2688, 76, 0, 4236.923, 4002.564, 4184.615, 4188.205, 4204.615, 450, 0, []
1628959218.2768, 77, 0, 4240.513, 4034.872, 4185.128, 4202.564, 4212.308, 450, 0, []
1628959218.2847, 78, 0, 4236.41, 4033.846, 4169.231, 4197.949, 4209.744, 450, 0, []
1628959218.2927, 79, 0, 4244.615, 4043.077, 4198.974, 4204.103, 4213.846, 16198, 0, []
1628959218.3006, 80, 0, 4248.718, 4049.744, 4186.667, 4196.923, 4216.41, 450, 0, []
1628959218.3085, 81, 0, 4230.256, 4007.692, 4157.949, 4167.692, 4198.974, 450, 0, []
1628959218.3164, 82, 0, 4229.744, 3996.41, 4160.513, 4161.026, 4195.897, 450, 0, []
1628959218.3244, 83, 0, 4250.769, 4036.41, 4167.179, 4183.59, 4216.41, 16198, 0, []
1628959218.3323, 84, 0, 4253.846, 4036.923, 4180.513, 4200, 4221.538, 450, 0, []
1628959218.3403, 85, 0, 4246.154, 4028.205, 4171.795, 4203.077, 4217.949, 450, 0, []
1628959218.3481, 86, 0, 4245.641, 4042.051, 4189.744, 4201.538, 4216.923, 450, 0, []
1628959218.3561, 87, 0, 4255.385, 4037.949, 4203.59, 4187.179, 4217.949, 16198, 0, []
1628959218.364, 88, 0, 4270.256, 4044.103, 4175.385, 4168.205, 4227.692, 450, 0, []
1628959218.372, 89, 0, 4274.872, 4075.385, 4186.667, 4168.205, 4235.385, 450, 0, []
1628959218.3799, 90, 0, 4275.385, 4065.641, 4196.41, 4186.667, 4237.949, 450, 0, []
1628959218.3878, 91, 0, 4271.795, 4043.077, 4191.282, 4200, 4232.821, 16198, 0, []
1628959218.3957, 92, 0, 4253.846, 4063.59, 4177.436, 4194.359, 4221.026, 450, 0, []
1628959218.4035, 93, 0, 4245.128, 4068.205, 4152.821, 4190.769, 4213.846, 450, 0, []
1628959218.4114, 94, 0, 4250.256, 4049.231, 4170.769, 4191.282, 4215.385, 450, 0, []
1628959218.4192, 95, 0, 4235.897, 4060, 4158.462, 4164.103, 4200.513, 16198, 0, []
1628959218.4271, 96, 0, 4216.41, 4078.462, 4138.462, 4141.026, 4181.026, 450, 0, []
1628959218.435, 97, 0, 4219.487, 4084.103, 4161.538, 4153.846, 4186.667, 450, 0, []
1628959218.443, 98, 0, 4236.41, 4087.692, 4164.103, 4169.231, 4204.103, 450, 0, []
1628959218.4509, 99, 0, 4238.462, 4078.462, 4171.795, 4171.795, 4207.692, 16198, 0, []
1628959218.4589, 100, 0, 4222.564, 4075.385, 4158.974, 4164.103, 4195.385, 450, 0, []
1628959218.4667, 101, 0, 4218.462, 4101.026, 4143.59, 4163.59, 4189.744, 450, 0, []
1628959218.4747, 102, 0, 4232.821, 4109.744, 4167.692, 4173.846, 4202.051, 450, 0, []
1628959218.4826, 103, 0, 4242.564, 4088.718, 4171.795, 4180.513, 4214.359, 16198, 0, []
1628959218.4906, 104, 0, 4243.077, 4097.436, 4187.179, 4193.333, 4218.462, 450, 0, []
1628959218.4985, 105, 0, 4248.718, 4127.692, 4182.051, 4192.821, 4218.974, 450, 0, []
1628959218.5064, 106, 0, 4251.795, 4125.641, 4157.436, 4175.385, 4218.462, 450, 0, []
1628959218.5143, 107, 0, 4247.692, 4128.205, 4174.872, 4164.103, 4216.923, 16198, 0, []
1628959218.5222, 108, 0, 4249.744, 4156.923, 4171.282, 4165.128, 4220, 450, 0, []
1628959218.5301, 109, 0, 4253.846, 4155.897, 4166.154, 4166.667, 4219.487, 450, 0, []
1628959218.5379, 110, 0, 4247.179, 4130.769, 4158.974, 4155.385, 4208.718, 450, 0, []
1628959218.5457, 111, 0, 4231.282, 4147.692, 4151.282, 4149.744, 4193.846, 16198, 0, []
1628959218.5535, 112, 0, 4222.564, 4193.333, 4172.308, 4157.436, 4187.179, 450, 0, []
1628959218.5614, 113, 0, 4213.333, 4188.205, 4156.41, 4158.462, 4186.154, 450, 0, []
1628959218.5692, 114, 0, 4197.949, 4151.282, 4147.692, 4158.462, 4181.538, 450, 0, []
1628959218.5772, 115, 0, 4195.385, 4173.846, 4150.769, 4163.077, 4180, 16198, 0, []
1628959218.585, 116, 0, 4203.077, 4218.462, 4137.436, 4170.256, 4184.615, 450, 0, []
1628959218.593, 117, 0, 4200.513, 4185.641, 4148.205, 4167.179, 4178.462, 450, 0, []
1628959218.6009, 118, 0, 4196.41, 4157.949, 4138.462, 4150.769, 4169.231, 450, 0, []
1628959218.6089, 119, 0, 4204.103, 4205.128, 4138.974, 4141.538, 4165.641, 16198, 0, []
1628959218.6168, 120, 0, 4204.103, 4211.795, 4144.615, 4141.026, 4157.949, 450, 0, []
1628959218.6247, 121, 0, 4195.385, 4163.59, 4133.333, 4144.103, 4154.872, 450, 0, []
1628959218.6326, 122, 0, 4214.359, 4175.385, 4168.718, 4170.256, 4182.051, 450, 0, []
1628959218.6406, 123, 0, 4240, 4234.872, 4168.718, 4187.692, 4206.154, 16198, 0, []
1628959218.6485, 124, 0, 4227.179, 4233.846, 4145.641, 4179.487, 4197.436, 450, 0, []
1628959218.6565, 125, 0, 4214.872, 4205.128, 4155.897, 4171.282, 4196.41, 450, 0, []
1628959218.6644, 126, 0, 4218.974, 4236.41, 4153.333, 4164.615, 4197.436, 450, 0, []
1628959218.6723, 127, 0, 4204.615, 4258.974, 4152.821, 4156.923, 4176.923, 16198, 0, []
1628959218.6802, 128, 0, 4202.564, 4221.026, 4139.487, 4161.538, 4177.436, 450, 0, []
1628959218.688, 0, 0, 4222.051, 4204.103, 4142.564, 4177.949, 4205.128, 450, 0, []
1628959218.6959, 1, 0, 4208.718, 4208.718, 4148.205, 4171.282, 4205.128, 450, 0, []
1628959218.7037, 2, 0, 4195.897, 4208.718, 4129.744, 4171.282, 4197.949, 16189, 0, []
1628959218.7115, 3, 0, 4221.026, 4242.564, 4158.462, 4198.462, 4217.949, 450, 0, []
1628959218.7193, 4, 0, 4228.718, 4257.949, 4157.949, 4190.769, 4218.974, 16156, 0, []
1628959218.7273, 5, 0, 4211.795, 4247.179, 4136.923, 4171.282, 4203.077, 450, 0, []
1628959218.7352, 6, 0, 4204.103, 4268.718, 4160, 4174.872, 4196.41, 16104, 0, []
1628959218.7431, 7, 0, 4201.538, 4267.692, 4155.385, 4173.846, 4193.333, 450, 0, []
1628959218.7508, 8, 0, 4211.795, 4241.538, 4164.615, 4176.923, 4195.897, 450, 0, []
1628959218.7588, 9, 0, 4227.692, 4288.205, 4178.974, 4190.769, 4206.154, 16097, 0, []
1628959218.7667, 10, 0, 4224.103, 4322.051, 4167.179, 4191.282, 4203.077, 450, 0, []
1628959218.7747, 11, 0, 4212.821, 4267.179, 4169.744, 4184.615, 4190.769, 16200, 0, []
1628959218.7826, 12, 0, 4203.077, 4253.333, 4149.231, 4173.333, 4180.513, 450, 0, []
1628959218.7905, 13, 0, 4203.59, 4296.923, 4151.282, 4169.744, 4181.026, 450, 0, []
1628959218.7984, 14, 0, 4222.051, 4292.308, 4171.795, 4185.128, 4203.077, 450, 0, []
1628959218.8064, 15, 0, 4226.667, 4264.103, 4168.718, 4192.308, 4206.154, 16200, 0, []
1628959218.8143, 16, 0, 4209.744, 4278.974, 4170.769, 4179.487, 4183.59, 0, 0, []
1628959218.8223, 17, 0, 4210.769, 4287.179, 4157.436, 4180.513, 4190.256, 0, 0, []
1628959218.8301, 18, 0, 4220, 4273.333, 4163.077, 4190.769, 4203.077, 0, 0, []
1628959218.8379, 19, 0, 4214.359, 4282.564, 4165.128, 4186.154, 4191.795, 0, 0, []
1628959218.8458, 20, 0, 4212.821, 4273.333, 4153.846, 4194.872, 4191.795, 0, 0, []
1628959218.8536, 21, 0, 4218.974, 4258.974, 4176.923, 4214.872, 4202.564, 0, 0, []
1628959218.8615, 22, 0, 4220, 4283.077, 4167.179, 4210.769, 4195.897, 0, 0, []
1628959218.8692, 23, 0, 4208.718, 4283.59, 4156.41, 4199.487, 4184.103, 0, 0, []
1628959218.8771, 24, 0, 4198.462, 4263.077, 4169.231, 4196.41, 4181.026, 0, 0, []
1628959218.8849, 25, 0, 4203.077, 4278.462, 4168.205, 4200.513, 4183.59, 0, 0, []
1628959218.8928, 26, 0, 4202.051, 4282.051, 4180.513, 4198.462, 4183.077, 0, 0, []
1628959218.9006, 27, 0, 4189.231, 4260, 4159.487, 4176.923, 4172.821, 0, 0, []
1628959218.9085, 28, 0, 4190.769, 4271.282, 4150.769, 4165.641, 4165.128, 0, 0, []
1628959218.9164, 29, 0, 4198.974, 4277.436, 4162.564, 4166.154, 4166.154, 0, 0, []
1628959218.9244, 30, 0, 4208.205, 4263.077, 4148.205, 4170.256, 4178.974, 0, 0, []
1628959218.9323, 31, 0, 4204.103, 4259.487, 4156.41, 4174.872, 4178.462, 0, 0, []
1628959218.9403, 32, 0, 4165.128, 4248.205, 4131.282, 4147.692, 4138.462, 0, 0, []
1628959218.9481, 33, 0, 4160, 4262.051, 4127.692, 4142.564, 4132.821, 0, 0, []
1628959218.9561, 34, 0, 4198.462, 4281.538, 4175.385, 4185.128, 4172.821, 0, 0, []
1628959218.964, 35, 0, 4192.821, 4269.744, 4158.974, 4197.436, 4162.564, 0, 0, []
1628959218.972, 36, 0, 4153.846, 4266.154, 4141.538, 4176.923, 4114.359, 0, 0, []
1628959218.9799, 37, 0, 4142.564, 4268.205, 4143.077, 4175.897, 4100.513, 0, 0, []
1628959218.9878, 38, 0, 4118.974, 4244.615, 4126.667, 4178.462, 4080, 0, 0, []
1628959218.9957, 39, 0, 4079.487, 4229.744, 4119.487, 4166.667, 4040.513, 0, 0, []
1628959219.0035, 40, 0, 4086.154, 4248.205, 4126.667, 4176.923, 4047.692, 0, 0, []
1628959219.0114, 41, 0, 4101.538, 4267.179, 4159.487, 4191.795, 4068.718, 0, 0, []
1628959219.0192, 42, 0, 4087.179, 4285.128, 4153.333, 4175.385, 4053.333, 0, 0, []
1628959219.027, 43, 0, 4079.487, 4276.923, 4133.333, 4158.974, 4034.359, 0, 0, []
1628959219.0348, 44, 0, 4086.154, 4246.667, 4150.256, 4164.615, 4057.949, 0, 0, []
1628959219.0427, 45, 0, 4097.949, 4265.641, 4144.103, 4177.436, 4114.872, 0, 0, []
1628959219.0505, 46, 0, 4115.897, 4299.487, 4156.41, 4192.308, 4155.385, 0, 0, []
1628959219.0585, 47, 0, 4119.487, 4287.179, 4163.59, 4188.718, 4156.923, 0, 0, []
1628959219.0663, 48, 0, 4108.718, 4258.462, 4148.205, 4174.872, 4152.308, 0, 0, []
1628959219.0743, 49, 0, 4117.949, 4257.949, 4171.795, 4191.795, 4176.41, 0, 0, []
1628959219.0822, 50, 0, 4132.821, 4269.231, 4165.128, 4209.231, 4191.282, 0, 0, []
1628959219.0902, 51, 0, 4131.795, 4291.795, 4152.308, 4204.103, 4184.615, 0, 0, []
1628959219.0981, 52, 0, 4135.385, 4297.949, 4150.769, 4198.974, 4187.179, 0, 0, []
1628959219.106, 53, 0, 4129.744, 4252.821, 4129.231, 4187.179, 4180.513, 0, 0, []
1628959219.1139, 54, 0, 4114.872, 4237.436, 4138.462, 4171.282, 4163.59, 0, 0, []
1628959219.1219, 55, 0, 4124.615, 4271.282, 4145.128, 4172.821, 4171.795, 0, 0, []
1628959219.1298, 56, 0, 4137.436, 4255.897, 4158.462, 4184.103, 4192.308, 0, 0, []
1628959219.1378, 57, 0, 4142.564, 4233.846, 4179.487, 4184.615, 4205.128, 0, 0, []
1628959219.1456, 58, 0, 4160, 4251.795, 4178.974, 4187.179, 4219.487, 0, 0, []
1628959219.1534, 59, 0, 4165.641, 4255.385, 4200, 4198.974, 4221.026, 0, 0, []
1628959219.1613, 60, 0, 4149.744, 4257.949, 4195.897, 4202.564, 4206.154, 0, 0, []
1628959219.1691, 61, 0, 4136.41, 4252.308, 4170.256, 4188.718, 4194.359, 0, 0, []
1628959219.177, 62, 0, 4147.692, 4228.718, 4154.359, 4167.692, 4196.923, 0, 0, []
1628959219.1847, 63, 0, 4175.897, 4254.872, 4149.744, 4170.256, 4213.846, 0, 0, []
1628959219.1926, 64, 0, 4186.154, 4294.359, 4184.103, 4183.59, 4222.051, 450, 0, []
1628959219.2004, 65, 0, 4175.897, 4268.205, 4176.41, 4171.795, 4216.41, 450, 0, []
1628959219.2083, 66, 0, 4170.769, 4253.846, 4164.615, 4162.564, 4212.308, 16188, 0, []
1628959219.2161, 67, 0, 4171.282, 4266.154, 4185.641, 4170.769, 4207.692, 450, 0, []
1628959219.224, 68, 0, 4169.231, 4238.974, 4164.615, 4171.282, 4198.974, 16155, 0, []
1628959219.2319, 69, 0, 4175.897, 4231.282, 4168.718, 4175.385, 4203.077, 450, 0, []
1628959219.2399, 70, 0, 4176.41, 4251.282, 4172.821, 4174.872, 4210.256, 16098, 0, []
1628959219.2478, 71, 0, 4149.231, 4233.333, 4150.769, 4147.179, 4188.718, 450, 0, []
1628959219.2558, 72, 0, 4133.846, 4217.949, 4153.333, 4128.205, 4171.282, 450, 0, []
1628959219.2636, 73, 0, 4155.385, 4247.179, 4148.205, 4141.026, 4189.744, 16093, 0, []
1628959219.2716, 74, 0, 4173.333, 4258.974, 4161.538, 4157.436, 4206.667, 450, 0, []
1628959219.2795, 75, 0, 4169.231, 4249.744, 4164.615, 4156.923, 4201.538, 16200, 0, []
1628959219.2875, 76, 0, 4166.154, 4254.872, 4158.974, 4162.051, 4195.897, 450, 0, []
1628959219.2954, 77, 0, 4173.333, 4256.41, 4184.103, 4175.897, 4203.077, 450, 0, []
1628959219.3031, 78, 0, 4176.923, 4254.872, 4176.41, 4178.974, 4210.256, 450, 0, []
1628959219.311, 79, 0, 4168.718, 4232.308, 4173.333, 4178.974, 4205.128, 16200, 0, []
1628959219.3188, 80, 0, 4165.128, 4215.897, 4166.154, 4171.282, 4193.333, 450, 0, []
1628959219.3267, 81, 0, 4174.872, 4240, 4149.744, 4163.59, 4195.385, 450, 0, []
1628959219.3345, 82, 0, 4186.154, 4257.949, 4173.846, 4166.667, 4211.795, 450, 0, []
1628959219.3423, 83, 0, 4196.923, 4257.436, 4170.769, 4167.692, 4220.513, 16200, 0, []
1628959219.3501, 84, 0, 4200.513, 4264.103, 4162.051, 4166.154, 4218.974, 450, 0, []
1628959219.358, 85, 0, 4184.103, 4256.923, 4147.692, 4156.923, 4205.641, 450, 0, []
1628959219.3658, 86, 0, 4173.333, 4226.154, 4132.308, 4155.385, 4195.385, 450, 0, []
1628959219.3738, 87, 0, 4185.128, 4219.487, 4162.564, 4172.821, 4198.974, 16200, 0, []
1628959219.3816, 88, 0, 4193.846, 4244.103, 4158.974, 4181.538, 4202.564, 450, 0, []
1628959219.3896, 89, 0, 4194.872, 4253.846, 4164.615, 4180.513, 4207.692, 450, 0, []
1628959219.3975, 90, 0, 4200.513, 4230.256, 4185.128, 4172.308, 4208.718, 450, 0, []
1628959219.4055, 91, 0, 4208.718, 4231.795, 4173.333, 4170.769, 4207.692, 16200, 0, []
1628959219.4134, 92, 0, 4216.41, 4271.282, 4185.641, 4181.538, 4215.897, 450, 0, []
1628959219.4214, 93, 0, 4220, 4262.564, 4175.385, 4176.923, 4221.538, 450, 0, []
1628959219.4292, 94, 0, 4218.462, 4244.615, 4162.564, 4169.744, 4216.923, 450, 0, []
1628959219.4372, 95, 0, 4214.872, 4263.077, 4171.795, 4179.487, 4216.41, 16200, 0, []
1628959219.4451, 96, 0, 4209.231, 4242.051, 4152.821, 4184.615, 4218.974, 450, 0, []
1628959219.4531, 97, 0, 4212.308, 4233.333, 4154.872, 4183.077, 4215.385, 450, 0, []
1628959219.461, 98, 0, 4223.077, 4275.897, 4163.077, 4187.692, 4217.949, 450, 0, []
1628959219.4687, 99, 0, 4211.282, 4254.872, 4165.128, 4183.59, 4216.41, 16200, 0, []
1628959219.4766, 100, 0, 4193.333, 4217.436, 4164.615, 4165.128, 4207.179, 450, 0, []
1628959219.4844, 101, 0, 4203.59, 4258.462, 4153.333, 4168.718, 4214.872, 450, 0, []
1628959219.4923, 102, 0, 4218.462, 4278.974, 4183.077, 4188.205, 4226.667, 450, 0, []
1628959219.5001, 103, 0, 4216.923, 4245.641, 4181.538, 4180, 4223.077, 16200, 0, []
1628959219.5079, 104, 0, 4220, 4253.846, 4161.026, 4168.205, 4225.641, 450, 0, []
1628959219.5157, 105, 0, 4239.487, 4275.897, 4189.231, 4186.154, 4248.718, 450, 0, []
1628959219.5237, 106, 0, 4242.564, 4254.872, 4179.487, 4191.282, 4252.821, 450, 0, []
1628959219.5316, 107, 0, 4223.077, 4246.154, 4164.103, 4177.436, 4227.692, 16200, 0, []
1628959219.5396, 108, 0, 4214.359, 4266.667, 4161.538, 4166.154, 4216.923, 450, 0, []
1628959219.5474, 109, 0, 4221.026, 4270.769, 4156.923, 4160.513, 4220, 450, 0, []
1628959219.5554, 110, 0, 4217.436, 4257.949, 4165.128, 4157.436, 4209.744, 450, 0, []
1628959219.5633, 111, 0, 4200.513, 4235.385, 4145.128, 4148.205, 4198.974, 16200, 0, []
1628959219.5713, 112, 0, 4192.308, 4217.949, 4149.231, 4147.692, 4198.462, 450, 0, []
1628959219.5792, 113, 0, 4201.026, 4250.769, 4155.385, 4161.538, 4197.436, 450, 0, []
1628959219.5871, 114, 0, 4218.974, 4285.641, 4149.744, 4176.41, 4205.641, 450, 0, []
1628959219.595, 115, 0, 4238.462, 4267.179, 4185.641, 4186.154, 4227.179, 16200, 0, []
1628959219.603, 116, 0, 4246.154, 4266.667, 4186.667, 4185.641, 4235.897, 450, 0, []
1628959219.6109, 117, 0, 4243.077, 4287.692, 4177.949, 4182.564, 4233.333, 450, 0, []
1628959219.6187, 118, 0, 4232.821, 4273.846, 4165.128, 4173.333, 4229.231, 450, 0, []
1628959219.6265, 119, 0, 4217.436, 4251.282, 4136.41, 4168.718, 4214.872, 16200, 0, []
1628959219.6343, 120, 0, 4211.282, 4248.205, 4148.205, 4170.256, 4202.051, 450, 0, []
1628959219.6422, 121, 0, 4214.359, 4249.744, 4143.077, 4156.41, 4203.077, 450, 0, []
1628959219.65, 122, 0, 4215.897, 4269.744, 4147.692, 4142.051, 4208.718, 450, 0, []
1628959219.6579, 123, 0, 4225.128, 4288.205, 4174.359, 4155.897, 4216.41, 16200, 0, []
1628959219.6657, 124, 0, 4237.949, 4265.128, 4165.641, 4171.282, 4223.077, 450, 0, []
1628959219.6736, 125, 0, 4233.333, 4256.41, 4157.949, 4166.154, 4218.462, 450, 0, []
1628959219.6815, 126, 0, 4221.026, 4269.744, 4138.462, 4164.615, 4211.282, 450, 0, []
1628959219.6894, 127, 0, 4232.821, 4249.744, 4153.846, 4194.872, 4222.051, 16200, 0, []
1628959219.6973, 128, 0, 4255.897, 4234.872, 4184.615, 4219.487, 4243.077, 450, 0, []
1628959219.7052, 0, 0, 4233.846, 4241.026, 4145.641, 4184.615, 4224.615, 450, 0, []
1628959219.7132, 1, 0, 4190.769, 4241.026, 4126.154, 4141.538, 4183.077, 450, 0, []
1628959219.7211, 2, 0, 4216.923, 4275.897, 4152.821, 4164.615, 4204.615, 16189, 0, []
1628959219.729, 3, 0, 4268.718, 4305.641, 4181.026, 4213.333, 4256.41, 450, 0, []
1628959219.737, 4, 0, 4254.872, 4276.41, 4176.923, 4208.718, 4247.179, 16155, 0, []
1628959219.7448, 5, 0, 4229.231, 4261.538, 4155.897, 4188.718, 4222.051, 450, 0, []
1628959219.7526, 6, 0, 4233.846, 4269.231, 4185.641, 4203.59, 4229.231, 16106, 0, []
1628959219.7605, 7, 0, 4214.359, 4249.744, 4177.949, 4205.641, 4217.949, 450, 0, []
1628959219.7683, 8, 0, 4196.923, 4233.846, 4153.333, 4194.359, 4201.026, 450, 0, []
1628959219.7762, 9, 0, 4209.744, 4252.308, 4165.641, 4193.846, 4208.718, 16090, 0, []
1628959219.7839, 10, 0, 4200.513, 4273.846, 4145.128, 4185.128, 4199.487, 450, 0, []
1628959219.7918, 11, 0, 4186.667, 4285.128, 4140.513, 4173.846, 4182.564, 16200, 0, []
1628959219.7996, 12, 0, 4227.179, 4284.103, 4144.103, 4169.744, 4214.359, 450, 0, []
1628959219.8075, 13, 0, 4286.154, 4271.282, 4134.872, 4171.282, 4273.846, 450, 0, []
1628959219.8153, 14, 0, 4326.667, 4264.103, 4138.462, 4157.436, 4321.026, 450, 0, []
1628959219.8232, 15, 0, 4391.282, 4265.641, 4128.205, 4144.615, 4385.641, 16200, 0, []
1628959219.8311, 16, 0, 4473.333, 4281.538, 4155.385, 4175.897, 4471.795, 0, 0, []
1628959219.8391, 17, 0, 4525.641, 4311.795, 4183.077, 4212.821, 4541.026, 0, 0, []
1628959219.847, 18, 0, 4540, 4343.59, 4165.641, 4205.128, 4560, 0, 0, []
1628959219.855, 19, 0, 4528.718, 4336.41, 4158.462, 4179.487, 4535.385, 0, 0, []
1628959219.8628, 20, 0, 4517.949, 4297.436, 4160, 4176.923, 4522.564, 0, 0, []
1628959219.8708, 21, 0, 4517.436, 4310.256, 4196.923, 4198.974, 4529.231, 0, 0, []
1628959219.8787, 22, 0, 4496.923, 4351.795, 4206.154, 4208.718, 4506.667, 0, 0, []
1628959219.8867, 23, 0, 4446.154, 4332.821, 4174.872, 4194.359, 4453.333, 0, 0, []
1628959219.8946, 24, 0, 4397.949, 4277.949, 4184.615, 4187.179, 4412.308, 0, 0, []
1628959219.9025, 25, 0, 4355.897, 4275.897, 4161.026, 4177.949, 4374.359, 0, 0, []
1628959219.9104, 26, 0, 4336.41, 4304.615, 4154.359, 4172.821, 4345.128, 0, 0, []
1628959219.9182, 27, 0, 4348.718, 4306.154, 4182.564, 4188.718, 4355.897, 0, 0, []
1628959219.9261, 28, 0, 4353.333, 4301.026, 4179.487, 4194.872, 4361.026, 0, 0, []
1628959219.9339, 29, 0, 4335.897, 4291.282, 4185.641, 4175.897, 4330.256, 0, 0, []
1628959219.9417, 30, 0, 4329.231, 4292.821, 4187.179, 4176.923, 4312.821, 0, 0, []
1628959219.9495, 31, 0, 4345.128, 4323.59, 4204.103, 4214.872, 4334.359, 0, 0, []
1628959219.9574, 32, 0, 4344.615, 4320.513, 4200, 4219.487, 4341.538, 0, 0, []
1628959219.9652, 33, 0, 4313.846, 4269.231, 4175.897, 4186.154, 4310.256, 0, 0, []
1628959219.9731, 34, 0, 4303.077, 4287.692, 4196.923, 4181.026, 4301.026, 0, 0, []
1628959219.9808, 35, 0, 4317.949, 4353.333, 4189.744, 4197.436, 4319.487, 0, 0, []
1628959219.9888, 36, 0, 4291.282, 4324.103, 4182.564, 4183.59, 4295.897, 0, 0, []
1628959219.9967, 37, 0, 4252.308, 4276.923, 4155.385, 4156.41, 4256.41, 0, 0, []
1628959220.0047, 38, 0, 4276.923, 4307.692, 4149.231, 4188.205, 4274.872, 0, 0, []
1628959220.0126, 39, 0, 4301.026, 4338.462, 4211.282, 4224.615, 4297.436, 0, 0, []
1628959220.0205, 40, 0, 4275.385, 4329.744, 4156.923, 4190.256, 4266.667, 0, 0, []
1628959220.0284, 41, 0, 4263.077, 4332.308, 4150.769, 4180.513, 4249.231, 0, 0, []
1628959220.0364, 42, 0, 4291.282, 4349.744, 4215.897, 4216.41, 4282.051, 0, 0, []
1628959220.0443, 43, 0, 4287.179, 4345.128, 4163.077, 4207.692, 4277.949, 0, 0, []
1628959220.0522, 44, 0, 4249.744, 4338.462, 4164.615, 4180.513, 4238.462, 0, 0, []
1628959220.06, 45, 0, 4272.821, 4340.513, 4182.564, 4186.667, 4271.795, 0, 0, []
1628959220.0678, 46, 0, 4332.821, 4334.359, 4174.359, 4216.41, 4349.231, 0, 0, []
1628959220.0757, 47, 0, 4340.513, 4338.974, 4190.256, 4223.077, 4368.718, 0, 0, []
1628959220.0835, 48, 0, 4315.897, 4375.897, 4173.846, 4216.923, 4353.846, 0, 0, []
1628959220.0914, 49, 0, 4306.154, 4384.615, 4186.154, 4230.256, 4345.641, 0, 0, []
1628959220.0991, 50, 0, 4291.282, 4341.538, 4177.949, 4223.077, 4317.949, 0, 0, []
1628959220.107, 51, 0, 4287.692, 4350.769, 4172.308, 4222.564, 4304.615, 0, 0, []
1628959220.1148, 52, 0, 4302.051, 4392.308, 4210.256, 4247.692, 4320.513, 0, 0, []
1628959220.1227, 53, 0, 4286.667, 4368.718, 4199.487, 4238.462, 4307.179, 0, 0, []
1628959220.1305, 54, 0, 4267.692, 4351.795, 4187.692, 4213.333, 4285.128, 0, 0, []
1628959220.1385, 55, 0, 4271.795, 4366.667, 4187.179, 4213.333, 4284.615, 0, 0, []
1628959220.1463, 56, 0, 4265.128, 4345.128, 4173.846, 4207.692, 4269.744, 0, 0, []
1628959220.1543, 57, 0, 4256.923, 4347.179, 4185.128, 4195.897, 4259.487, 0, 0, []
1628959220.1622, 58, 0, 4264.615, 4370.769, 4188.205, 4200, 4272.308, 0, 0, []
1628959220.1702, 59, 0, 4264.615, 4332.821, 4175.385, 4198.974, 4270.256, 0, 0, []
1628959220.1781, 60, 0, 4261.538, 4314.359, 4183.077, 4204.103, 4258.462, 0, 0, []
1628959220.186, 61, 0, 4263.077, 4358.974, 4185.128, 4216.923, 4258.974, 0, 0, []
1628959220.1939, 62, 0, 4251.795, 4375.385, 4175.385, 4210.256, 4256.41, 0, 0, []
1628959220.2019, 63, 0, 4248.718, 4364.103, 4183.077, 4207.692, 4260, 0, 0, []
1628959220.2098, 64, 0, 4257.949, 4363.077, 4188.718, 4215.897, 4266.154, 450, 0, []
1628959220.2176, 65, 0, 4254.359, 4356.923, 4184.103, 4209.231, 4255.897, 450, 0, []
1628959220.2254, 66, 0, 4244.103, 4351.282, 4187.692, 4200, 4248.718, 16189, 0, []
1628959220.2332, 67, 0, 4231.795, 4354.872, 4194.872, 4195.897, 4238.462, 450, 0, []
1628959220.2411, 68, 0, 4227.692, 4353.846, 4197.436, 4189.744, 4229.231, 16155, 0, []
1628959220.2489, 69, 0, 4256.41, 4345.641, 4197.436, 4196.41, 4258.462, 450, 0, []
1628959220.2568, 70, 0, 4284.615, 4345.641, 4204.615, 4211.282, 4289.744, 16059, 0, []
1628959220.2645, 71, 0, 4267.692, 4361.026, 4203.59, 4212.821, 4275.385, 450, 0, []
1628959220.2724, 72, 0, 4229.744, 4375.897, 4191.795, 4198.462, 4243.077, 450, 0, []
1628959220.2802, 73, 0, 4210.256, 4368.718, 4177.436, 4183.59, 4226.667, 16094, 0, []
1628959220.2882, 74, 0, 4221.538, 4351.795, 4166.154, 4182.051, 4226.154, 450, 0, []
1628959220.2961, 75, 0, 4244.615, 4353.846, 4205.128, 4202.051, 4241.538, 16200, 0, []
1628959220.304, 76, 0, 4253.333, 4370.256, 4222.051, 4211.795, 4255.385, 450, 0, []
1628959220.3119, 77, 0, 4243.59, 4379.487, 4193.333, 4200, 4244.103, 450, 0, []
1628959220.3199, 78, 0, 4242.051, 4385.128, 4205.641, 4202.051, 4234.872, 450, 0, []
1628959220.3278, 79, 0, 4253.846, 4391.282, 4218.974, 4205.128, 4244.615, 16200, 0, []
1628959220.3358, 80, 0, 4250.769, 4358.462, 4207.179, 4188.205, 4242.564, 450, 0, []
1628959220.3436, 81, 0, 4232.308, 4331.795, 4189.744, 4171.282, 4227.692, 450, 0, []
1628959220.3516, 82, 0, 4230.256, 4370.256, 4191.795, 4186.154, 4232.308, 450, 0, []
1628959220.3595, 83, 0, 4236.923, 4387.179, 4200.513, 4208.718, 4236.41, 16200, 0, []
1628959220.3675, 84, 0, 4224.615, 4339.487, 4184.615, 4198.462, 4215.897, 450, 0, []
1628959220.3754, 85, 0, 4213.333, 4333.846, 4198.974, 4191.795, 4211.795, 450, 0, []
1628959220.3831, 86, 0, 4220, 4374.872, 4195.385, 4198.974, 4226.667, 450, 0, []
1628959220.391, 87, 0, 4220.513, 4366.667, 4187.692, 4193.846, 4223.59, 16200, 0, []
1628959220.3988, 88, 0, 4214.359, 4341.026, 4207.692, 4185.641, 4218.462, 450, 0, []
1628959220.4067, 89, 0, 4228.718, 4341.538, 4196.41, 4195.385, 4232.308, 450, 0, []
1628959220.4145, 90, 0, 4245.641, 4336.41, 4209.744, 4209.744, 4242.564, 450, 0, []
1628959220.4224, 91, 0, 4234.872, 4350.256, 4208.205, 4204.103, 4228.718, 16200, 0, []
1628959220.4303, 92, 0, 4215.897, 4363.59, 4190.256, 4198.462, 4215.385, 450, 0, []
1628959220.4383, 93, 0, 4208.718, 4331.795, 4192.308, 4194.359, 4211.795, 450, 0, []
1628959220.4462, 94, 0, 4201.026, 4326.667, 4166.154, 4178.462, 4200.513, 450, 0, []
1628959220.4542, 95, 0, 4194.359, 4356.41, 4180, 4173.333, 4190.256, 16200, 0, []
1628959220.462, 96, 0, 4204.103, 4342.051, 4200, 4181.538, 4195.897, 450, 0, []
1628959220.47, 97, 0, 4218.462, 4322.564, 4198.462, 4191.795, 4210.256, 450, 0, []
1628959220.4779, 98, 0, 4218.974, 4351.282, 4196.41, 4186.667, 4212.308, 450, 0, []
1628959220.4859, 99, 0, 4213.846, 4365.641, 4182.051, 4176.923, 4209.744, 16200, 0, []
1628959220.4938, 100, 0, 4227.179, 4341.538, 4211.282, 4194.872, 4217.949, 450, 0, []
1628959220.5017, 101, 0, 4241.538, 4331.795, 4201.538, 4201.026, 4222.564, 450, 0, []
1628959220.5096, 102, 0, 4219.487, 4344.103, 4168.718, 4177.949, 4205.128, 450, 0, []
1628959220.5176, 103, 0, 4206.154, 4355.897, 4196.41, 4185.641, 4196.41, 16200, 0, []
1628959220.5255, 104, 0, 4233.333, 4344.103, 4201.538, 4211.282, 4213.333, 450, 0, []
1628959220.5333, 105, 0, 4235.385, 4328.205, 4184.615, 4198.462, 4206.154, 450, 0, []
1628959220.5411, 106, 0, 4204.615, 4357.436, 4162.564, 4171.282, 4174.359, 450, 0, []
1628959220.5489, 107, 0, 4193.333, 4366.154, 4163.077, 4177.949, 4155.897, 16200, 0, []
1628959220.5568, 108, 0, 4180.513, 4325.641, 4177.436, 4176.923, 4140, 450, 0, []
1628959220.5646, 109, 0, 4155.897, 4331.795, 4151.795, 4153.333, 4117.949, 450, 0, []
1628959220.5725, 110, 0, 4147.692, 4362.051, 4149.744, 4144.615, 4106.154, 450, 0, []
1628959220.5802, 111, 0, 4137.949, 4316.923, 4140, 4137.949, 4098.462, 16200, 0, []
1628959220.5881, 112, 0, 4123.59, 4269.744, 4129.744, 4138.974, 4091.795, 450, 0, []
1628959220.5959, 113, 0, 4136.41, 4308.205, 4158.462, 4151.282, 4097.949, 450, 0, []
1628959220.6039, 114, 0, 4157.949, 4351.282, 4155.897, 4151.282, 4111.795, 450, 0, []
1628959220.6118, 115, 0, 4160.513, 4344.615, 4167.692, 4151.282, 4119.487, 16200, 0, []
1628959220.6197, 116, 0, 4146.667, 4333.333, 4160.513, 4145.128, 4107.179, 450, 0, []
1628959220.6276, 117, 0, 4129.744, 4337.436, 4126.154, 4129.231, 4083.59, 450, 0, []
1628959220.6356, 118, 0, 4138.462, 4347.179, 4162.051, 4141.538, 4093.333, 450, 0, []
1628959220.6435, 119, 0, 4169.231, 4370.256, 4185.641, 4173.846, 4127.179, 16200, 0, []
1628959220.6515, 120, 0, 4174.872, 4367.692, 4176.41, 4178.974, 4131.795, 450, 0, []
1628959220.6593, 121, 0, 4166.667, 4331.282, 4169.231, 4165.641, 4123.077, 450, 0, []
1628959220.6672, 122, 0, 4187.692, 4323.59, 4168.718, 4172.821, 4143.077, 450, 0, []
1628959220.6751, 123, 0, 4208.718, 4340, 4189.231, 4182.564, 4164.615, 16200, 0, []
1628959220.6829, 124, 0, 4198.974, 4326.667, 4167.179, 4172.308, 4157.436, 450, 0, []
1628959220.6908, 125, 0, 4175.385, 4323.077, 4149.231, 4162.564, 4139.487, 450, 0, []
1628959220.6985, 126, 0, 4157.949, 4352.308, 4151.282, 4154.872, 4120.513, 450, 0, []
1628959220.7064, 127, 0, 4163.59, 4336.41, 4148.718, 4152.308, 4116.41, 16200, 0, []
1628959220.7142, 128, 0, 4173.846, 4300.513, 4173.846, 4154.872, 4127.179, 450, 0, []
1628959220.7221, 0, 0, 4156.41, 4307.179, 4147.179, 4139.487, 4118.974, 450, 0, []
1628959220.7299, 1, 0, 4143.077, 4324.615, 4132.821, 4142.051, 4106.667, 450, 0, []
1628959220.7377, 2, 0, 4175.385, 4333.846, 4174.872, 4181.026, 4132.308, 16190, 0, []
1628959220.7455, 3, 0, 4202.051, 4337.436, 4171.282, 4198.462, 4157.949, 450, 0, []
1628959220.7535, 4, 0, 4191.795, 4335.897, 4167.692, 4176.41, 4144.615, 16155, 0, []
1628959220.7614, 5, 0, 4185.128, 4334.872, 4163.59, 4153.333, 4135.385, 450, 0, []
1628959220.7694, 6, 0, 4188.205, 4325.128, 4153.333, 4147.692, 4143.077, 16093, 0, []
1628959220.7772, 7, 0, 4177.949, 4311.282, 4152.308, 4146.154, 4135.385, 450, 0, []
1628959220.7852, 8, 0, 4164.103, 4330.769, 4129.231, 4140.513, 4121.026, 450, 0, []
1628959220.7931, 9, 0, 4158.462, 4363.077, 4137.436, 4142.564, 4119.487, 16093, 0, []
1628959220.8011, 10, 0, 4152.821, 4344.615, 4139.487, 4142.051, 4118.974, 450, 0, []
1628959220.809, 11, 0, 4157.949, 4308.718, 4143.077, 4147.692, 4123.59, 16201, 0, []
1628959220.8169, 12, 0, 4180, 4327.692, 4176.41, 4165.128, 4145.641, 450, 0, []
1628959220.8248, 13, 0, 4189.231, 4360.513, 4158.462, 4162.564, 4157.949, 450, 0, []
1628959220.8326, 14, 0, 4184.103, 4332.821, 4152.308, 4153.846, 4148.205, 450, 0, []
1628959220.8405, 15, 0, 4187.179, 4284.615, 4162.564, 4156.923, 4144.103, 16201, 0, []
1628959220.8483, 16, 0, 4185.641, 4300.513, 4158.462, 4157.436, 4143.077, 0, 0, []
1628959220.8561, 17, 0, 4170.769, 4339.487, 4172.308, 4156.41, 4135.385, 0, 0, []
1628959220.8639, 18, 0, 4163.077, 4323.59, 4162.564, 4166.154, 4134.872, 0, 0, []
1628959220.8718, 19, 0, 4171.795, 4318.974, 4168.718, 4179.487, 4142.564, 0, 0, []
1628959220.8796, 20, 0, 4180.513, 4345.128, 4161.026, 4171.282, 4141.538, 0, 0, []
1628959220.8875, 21, 0, 4175.897, 4331.282, 4135.897, 4155.385, 4134.359, 0, 0, []
1628959220.8953, 22, 0, 4170.256, 4322.051, 4156.41, 4146.154, 4136.41, 0, 0, []
1628959220.9031, 23, 0, 4176.41, 4333.846, 4146.667, 4130.769, 4143.077, 0, 0, []
1628959220.9109, 24, 0, 4169.231, 4306.154, 4141.026, 4109.744, 4130.256, 0, 0, []
1628959220.9188, 25, 0, 4144.615, 4288.205, 4155.897, 4111.282, 4110.256, 0, 0, []
1628959220.9266, 26, 0, 4157.436, 4311.795, 4170.769, 4154.872, 4129.744, 0, 0, []
1628959220.9346, 27, 0, 4190.256, 4313.333, 4206.667, 4195.897, 4158.974, 0, 0, []
1628959220.9424, 28, 0, 4190.256, 4315.385, 4188.718, 4198.462, 4154.359, 0, 0, []
1628959220.9504, 29, 0, 4188.205, 4344.103, 4168.718, 4198.974, 4155.385, 0, 0, []
1628959220.9583, 30, 0, 4204.103, 4354.359, 4169.231, 4196.923, 4177.949, 0, 0, []
1628959220.9663, 31, 0, 4196.41, 4336.41, 4140.513, 4170.256, 4177.949, 0, 0, []
1628959220.9742, 32, 0, 4176.41, 4336.41, 4149.744, 4155.385, 4163.077, 0, 0, []
1628959220.9821, 33, 0, 4190.769, 4369.744, 4165.128, 4170.256, 4170.256, 0, 0, []
1628959220.99, 34, 0, 4203.59, 4360, 4171.795, 4185.128, 4176.41, 0, 0, []
1628959220.9979, 35, 0, 4184.103, 4312.308, 4171.795, 4176.923, 4160.513, 0, 0, []
1628959221.0058, 36, 0, 4162.051, 4323.59, 4143.59, 4157.436, 4141.026, 0, 0, []
1628959221.0136, 37, 0, 4171.282, 4355.897, 4162.051, 4165.128, 4144.615, 0, 0, []
1628959221.0214, 38, 0, 4202.564, 4341.026, 4175.897, 4186.154, 4169.744, 0, 0, []
1628959221.0292, 39, 0, 4205.641, 4327.692, 4173.333, 4185.641, 4172.308, 0, 0, []
1628959221.0371, 40, 0, 4181.026, 4349.744, 4184.615, 4173.846, 4152.821, 0, 0, []
1628959221.0449, 41, 0, 4175.385, 4354.359, 4164.615, 4171.795, 4146.667, 0, 0, []
1628959221.0528, 42, 0, 4182.051, 4315.897, 4161.026, 4176.923, 4151.795, 0, 0, []
1628959221.0605, 43, 0, 4178.974, 4305.641, 4156.923, 4176.923, 4158.462, 0, 0, []
1628959221.0684, 44, 0, 4180, 4352.821, 4161.026, 4185.641, 4167.692, 0, 0, []
1628959221.0762, 45, 0, 4172.308, 4356.41, 4173.333, 4187.692, 4157.949, 0, 0, []
1628959221.0842, 46, 0, 4162.564, 4315.385, 4153.333, 4176.41, 4152.308, 0, 0, []
1628959221.0921, 47, 0, 4191.795, 4354.359, 4186.667, 4194.359, 4187.179, 0, 0, []
1628959221.1, 48, 0, 4233.333, 4415.385, 4204.615, 4211.282, 4213.846, 0, 0, []
1628959221.1079, 49, 0, 4221.026, 4368.205, 4161.026, 4181.026, 4186.154, 0, 0, []
1628959221.1159, 50, 0, 4187.692, 4314.359, 4160.513, 4155.897, 4157.436, 0, 0, []
1628959221.1238, 51, 0, 4198.974, 4353.333, 4182.564, 4178.462, 4176.923, 0, 0, []
1628959221.1318, 52, 0, 4229.231, 4382.564, 4214.872, 4214.359, 4209.744, 0, 0, []
1628959221.1396, 53, 0, 4228.205, 4355.385, 4209.744, 4213.333, 4208.718, 0, 0, []
1628959221.1476, 54, 0, 4206.154, 4346.154, 4177.949, 4195.385, 4187.692, 0, 0, []
1628959221.1555, 55, 0, 4198.462, 4368.718, 4193.846, 4190.769, 4183.59, 0, 0, []
1628959221.1633, 56, 0, 4203.077, 4355.385, 4183.59, 4190.769, 4188.718, 0, 0, []
1628959221.1712, 57, 0, 4200.513, 4328.718, 4173.846, 4185.641, 4184.103, 0, 0, []
1628959221.1789, 58, 0, 4199.487, 4344.615, 4178.974, 4180, 4185.641, 0, 0, []
1628959221.1868, 59, 0, 4207.692, 4360, 4170.256, 4184.103, 4196.41, 0, 0, []
1628959221.1946, 60, 0, 4218.974, 4344.615, 4188.718, 4196.41, 4203.59, 0, 0, []
1628959221.2025, 61, 0, 4220.513, 4342.564, 4183.59, 4194.359, 4211.795, 0, 0, []
1628959221.2103, 62, 0, 4217.949, 4375.385, 4178.974, 4189.231, 4217.949, 0, 0, []
1628959221.2181, 63, 0, 4218.974, 4367.692, 4180.513, 4187.179, 4215.897, 0, 0, []
1628959221.2259, 64, 0, 4208.718, 4325.128, 4158.974, 4175.385, 4200.513, 450, 0, []
1628959221.2339, 65, 0, 4182.564, 4325.128, 4167.179, 4160.513, 4176.41, 450, 0, []
1628959221.2418, 66, 0, 4169.744, 4343.077, 4163.077, 4164.103, 4171.795, 16190, 0, []
1628959221.2497, 67, 0, 4182.564, 4343.59, 4177.949, 4200, 4189.744, 450, 0, []
1628959221.2574, 68, 0, 4167.692, 4321.538, 4186.667, 4205.641, 4168.718, 16155, 0, []
1628959221.2654, 69, 0, 4096.41, 4276.41, 4123.59, 4157.436, 4093.846, 450, 0, []
1628959221.2733, 70, 0, 4075.897, 4283.077, 4137.949, 4161.026, 4077.436, 16100, 0, []
1628959221.2813, 71, 0, 4132.821, 4355.897, 4201.538, 4223.59, 4138.462, 450, 0, []
1628959221.2892, 72, 0, 4145.641, 4356.41, 4201.026, 4241.538, 4152.821, 450, 0, []
1628959221.297, 73, 0, 4109.231, 4298.462, 4173.333, 4212.821, 4118.974, 16096, 0, []
1628959221.3049, 74, 0, 4106.667, 4310.769, 4166.154, 4204.103, 4116.923, 450, 0, []
1628959221.3127, 75, 0, 4115.897, 4326.667, 4195.385, 4203.59, 4127.692, 16201, 0, []
1628959221.3206, 76, 0, 4098.462, 4298.462, 4182.564, 4185.128, 4112.308, 450, 0, []
1628959221.3284, 77, 0, 4092.308, 4310.769, 4168.718, 4177.436, 4104.103, 450, 0, []
1628959221.3362, 78, 0, 4100.513, 4340.513, 4183.59, 4174.359, 4107.179, 450, 0, []
1628959221.344, 79, 0, 4105.128, 4312.308, 4168.718, 4170.769, 4110.769, 16201, 0, []
1628959221.3519, 80, 0, 4112.308, 4284.103, 4184.615, 4185.128, 4122.051, 450, 0, []
1628959221.3597, 81, 0, 4117.949, 4312.821, 4193.846, 4197.949, 4132.821, 450, 0, []
1628959221.3676, 82, 0, 4127.179, 4340, 4184.103, 4205.641, 4142.051, 450, 0, []
1628959221.3753, 83, 0, 4124.103, 4316.41, 4181.538, 4200.513, 4138.462, 16201, 0, []
1628959221.3833, 84, 0, 4089.231, 4275.385, 4135.385, 4170.769, 4106.154, 450, 0, []
1628959221.3912, 85, 0, 4071.282, 4267.692, 4131.795, 4160, 4087.692, 450, 0, []
1628959221.3992, 86, 0, 4107.179, 4292.821, 4161.026, 4185.641, 4118.462, 450, 0, []
1628959221.4071, 87, 0, 4145.128, 4315.385, 4164.103, 4212.821, 4155.897, 16201, 0, []
1628959221.415, 88, 0, 4142.564, 4316.41, 4175.385, 4218.462, 4159.487, 450, 0, []
1628959221.4229, 89, 0, 4136.41, 4312.821, 4164.615, 4204.103, 4147.179, 450, 0, []
1628959221.4309, 90, 0, 4141.026, 4298.462, 4167.692, 4191.795, 4144.615, 450, 0, []
1628959221.4388, 91, 0, 4131.282, 4271.795, 4165.641, 4180, 4135.385, 16201, 0, []
1628959221.4468, 92, 0, 4117.949, 4290.769, 4144.103, 4175.897, 4121.026, 450, 0, []
1628959221.4546, 93, 0, 4117.436, 4317.949, 4170.256, 4190.769, 4124.103, 450, 0, []
1628959221.4626, 94, 0, 4128.718, 4287.692, 4177.436, 4196.41, 4137.436, 450, 0, []
1628959221.4705, 95, 0, 4144.615, 4271.282, 4164.615, 4180, 4138.974, 16201, 0, []
1628959221.4783, 96, 0, 4153.333, 4304.103, 4159.487, 4165.128, 4134.872, 450, 0, []
1628959221.4862, 97, 0, 4160, 4291.795, 4153.846, 4173.846, 4144.615, 450, 0, []
1628959221.4939, 98, 0, 4170.769, 4265.128, 4170.769, 4185.641, 4155.897, 450, 0, []
1628959221.5018, 99, 0, 4175.385, 4287.179, 4159.487, 4173.333, 4158.974, 16201, 0, []
1628959221.5096, 100, 0, 4169.231, 4297.949, 4156.41, 4163.077, 4153.333, 450, 0, []
1628959221.5175, 101, 0, 4166.154, 4288.718, 4166.667, 4169.231, 4144.615, 450, 0, []
1628959221.5253, 102, 0, 4169.231, 4280, 4145.641, 4167.692, 4142.564, 450, 0, []
1628959221.5331, 103, 0, 4167.692, 4261.538, 4151.282, 4160, 4140, 16201, 0, []
1628959221.5409, 104, 0, 4164.615, 4269.744, 4153.846, 4163.59, 4135.897, 450, 0, []
1628959221.5489, 105, 0, 4172.821, 4300, 4162.051, 4178.974, 4144.615, 450, 0, []
1628959221.5568, 106, 0, 4187.179, 4291.282, 4177.949, 4186.667, 4161.026, 450, 0, []
1628959221.5648, 107, 0, 4182.564, 4252.308, 4153.333, 4173.846, 4159.487, 16201, 0, []
1628959221.5726, 108, 0, 4166.154, 4241.026, 4156.923, 4159.487, 4148.718, 450, 0, []
1628959221.5806, 109, 0, 4164.103, 4262.564, 4167.179, 4163.59, 4152.308, 450, 0, []
1628959221.5885, 110, 0, 4172.308, 4282.051, 4167.179, 4178.974, 4159.487, 450, 0, []
1628959221.5965, 111, 0, 4170.769, 4275.897, 4173.846, 4183.59, 4156.41, 16201, 0, []
1628959221.6044, 112, 0, 4171.795, 4276.41, 4156.41, 4174.359, 4150.769, 450, 0, []
1628959221.6123, 113, 0, 4184.615, 4278.462, 4166.667, 4179.487, 4158.462, 450, 0, []
1628959221.6201, 114, 0, 4177.949, 4254.872, 4158.974, 4177.949, 4159.487, 450, 0, []
1628959221.6279, 115, 0, 4148.205, 4251.795, 4127.692, 4153.846, 4137.949, 16201, 0, []
1628959221.6358, 116, 0, 4150.769, 4275.897, 4149.744, 4151.795, 4141.026, 450, 0, []
1628959221.6436, 117, 0, 4184.103, 4286.667, 4152.821, 4175.385, 4172.821, 450, 0, []
1628959221.6515, 118, 0, 4190.769, 4278.462, 4160, 4185.641, 4181.026, 450, 0, []
1628959221.6593, 119, 0, 4181.026, 4256.923, 4172.821, 4172.821, 4170.256, 16201, 0, []
1628959221.6673, 120, 0, 4184.103, 4248.205, 4148.205, 4167.692, 4170.256, 450, 0, []
1628959221.6751, 121, 0, 4182.051, 4280, 4149.231, 4173.846, 4168.718, 450, 0, []
1628959221.6831, 122, 0, 4181.026, 4292.821, 4144.615, 4176.923, 4170.256, 450, 0, []
1628959221.691, 123, 0, 4187.179, 4267.692, 4147.179, 4179.487, 4175.385, 16201, 0, []
1628959221.6989, 124, 0, 4168.718, 4249.744, 4145.641, 4163.59, 4160, 450, 0, []
1628959221.7068, 125, 0, 4154.872, 4252.821, 4121.026, 4149.231, 4148.718, 450, 0, []
1628959221.7148, 126, 0, 4172.821, 4270.256, 4153.846, 4171.282, 4158.974, 450, 0, []
1628959221.7227, 127, 0, 4170.769, 4275.385, 4151.282, 4176.41, 4154.359, 16201, 0, []
1628959221.7307, 128, 0, 4150.256, 4251.282, 4126.154, 4154.872, 4136.41, 450, 0, []
1628959221.7385, 0, 0, 4161.026, 4242.051, 4156.923, 4157.436, 4150.256, 450, 0, []
1628959221.7465, 1, 0, 4175.897, 4257.949, 4158.462, 4170.256, 4169.231, 450, 0, []
1628959221.7544, 2, 0, 4166.667, 4256.41, 4155.385, 4172.821, 4160, 16189, 0, []
1628959221.7622, 3, 0, 4165.128, 4234.872, 4147.692, 4170.256, 4160.513, 450, 0, []
1628959221.7701, 4, 0, 4170.769, 4218.974, 4140.513, 4164.615, 4170.769, 16154, 0, []
1628959221.7778, 5, 0, 4167.692, 4238.974, 4148.718, 4155.385, 4163.077, 450, 0, []
1628959221.7857, 6, 0, 4168.718, 4262.564, 4131.282, 4149.744, 4151.282, 16102, 0, []
1628959221.7935, 7, 0, 4178.462, 4232.308, 4142.564, 4156.41, 4153.846, 450, 0, []
1628959221.8014, 8, 0, 4184.103, 4214.359, 4138.462, 4163.59, 4162.051, 450, 0, []
1628959221.8092, 9, 0, 4179.487, 4247.692, 4128.718, 4169.744, 4164.103, 16097, 0, []
1628959221.817, 10, 0, 4172.308, 4265.641, 4148.718, 4167.692, 4161.538, 450, 0, []
1628959221.8248, 11, 0, 4169.744, 4247.692, 4133.333, 4154.359, 4153.846, 16201, 0, []
1628959221.8327, 12, 0, 4174.872, 4227.179, 4136.41, 4148.718, 4151.282, 450, 0, []
1628959221.8405, 13, 0, 4182.051, 4220, 4138.974, 4147.692, 4153.846, 450, 0, []
1628959221.8485, 14, 0, 4179.487, 4229.231, 4133.846, 4144.103, 4149.744, 450, 0, []
1628959221.8563, 15, 0, 4182.564, 4251.282, 4161.538, 4150.769, 4156.41, 16201, 0, []
1628959221.8643, 16, 0, 4203.59, 4274.359, 4166.154, 4169.744, 4181.538, 0, 0, []
1628959221.8722, 17, 0, 4211.795, 4273.846, 4171.795, 4183.077, 4194.359, 0, 0, []
1628959221.8802, 18, 0, 4202.564, 4246.154, 4155.897, 4170.769, 4183.077, 0, 0, []
1628959221.8881, 19, 0, 4196.41, 4230.256, 4128.205, 4158.974, 4173.846, 0, 0, []
1628959221.896, 20, 0, 4188.205, 4239.487, 4139.487, 4157.949, 4163.59, 0, 0, []
1628959221.9039, 21, 0, 4184.103, 4262.564, 4134.872, 4151.795, 4158.462, 0, 0, []
1628959221.9119, 22, 0, 4191.282, 4269.744, 4147.692, 4153.846, 4165.641, 0, 0, []
1628959221.9198, 23, 0, 4193.846, 4239.487, 4152.821, 4160, 4167.179, 0, 0, []
1628959221.9276, 24, 0, 4198.974, 4228.718, 4146.154, 4171.795, 4177.436, 0, 0, []
1628959221.9354, 25, 0, 4205.128, 4249.231, 4177.949, 4186.154, 4188.205, 0, 0, []
1628959221.9432, 26, 0, 4186.154, 4243.59, 4152.821, 4167.692, 4164.103, 0, 0, []
1628959221.9511, 27, 0, 4169.231, 4248.718, 4131.282, 4143.59, 4138.974, 0, 0, []
1628959221.9589, 28, 0, 4188.718, 4286.154, 4148.205, 4150.769, 4158.974, 0, 0, []
1628959221.9668, 29, 0, 4202.564, 4255.897, 4132.821, 4155.897, 4170.256, 0, 0, []
1628959221.9745, 30, 0, 4185.641, 4207.692, 4144.615, 4152.821, 4154.359, 0, 0, []
1628959221.9824, 31, 0, 4178.974, 4240.513, 4148.205, 4163.59, 4152.821, 0, 0, []
1628959221.9902, 32, 0, 4182.051, 4260, 4139.487, 4171.795, 4156.923, 0, 0, []
1628959221.9981, 33, 0, 4172.308, 4241.538, 4145.128, 4167.179, 4151.282, 0, 0, []
1628959222.0059, 34, 0, 4167.692, 4261.026, 4147.692, 4170.769, 4144.615, 0, 0, []
1628959222.0138, 35, 0, 4184.615, 4275.385, 4163.59, 4171.282, 4156.41, 0, 0, []
1628959222.0217, 36, 0, 4232.821, 4253.333, 4145.641, 4157.436, 4206.154, 0, 0, []
1628959222.0297, 37, 0, 4301.026, 4266.154, 4149.231, 4162.051, 4269.231, 0, 0, []
1628959222.0376, 38, 0, 4336.41, 4305.641, 4175.897, 4177.949, 4300, 0, 0, []
1628959222.0456, 39, 0, 4324.615, 4295.897, 4155.385, 4176.41, 4301.026, 0, 0, []
1628959222.0534, 40, 0, 4309.231, 4254.359, 4157.949, 4173.333, 4290.769, 0, 0, []
1628959222.0614, 41, 0, 4299.487, 4234.359, 4154.359, 4169.744, 4272.308, 0, 0, []
1628959222.0693, 42, 0, 4264.103, 4212.821, 4138.462, 4156.41, 4239.487, 0, 0, []
1628959222.0773, 43, 0, 4216.923, 4191.795, 4132.308, 4128.205, 4191.795, 0, 0, []
1628959222.0852, 44, 0, 4216.41, 4233.333, 4126.154, 4123.077, 4186.154, 0, 0, []
1628959222.0929, 45, 0, 4248.718, 4285.128, 4177.436, 4161.026, 4224.103, 0, 0, []
1628959222.1008, 46, 0, 4256.923, 4258.974, 4188.718, 4176.41, 4232.308, 0, 0, []
1628959222.1086, 47, 0, 4241.538, 4223.59, 4153.333, 4163.59, 4211.795, 0, 0, []
1628959222.1165, 48, 0, 4232.308, 4252.308, 4165.128, 4162.051, 4208.718, 0, 0, []
1628959222.1243, 49, 0, 4228.205, 4295.897, 4160.513, 4153.333, 4205.641, 0, 0, []
1628959222.1321, 50, 0, 4221.538, 4290.256, 4159.487, 4145.641, 4192.821, 0, 0, []
1628959222.1399, 51, 0, 4230.769, 4280.513, 4166.154, 4158.462, 4207.692, 0, 0, []
1628959222.1479, 52, 0, 4246.154, 4302.051, 4166.667, 4173.333, 4228.718, 0, 0, []
1628959222.1558, 53, 0, 4237.436, 4300.513, 4172.821, 4169.744, 4223.59, 0, 0, []
1628959222.1638, 54, 0, 4222.564, 4266.667, 4140.513, 4158.462, 4210.256, 0, 0, []
1628959222.1716, 55, 0, 4225.128, 4260, 4149.231, 4165.641, 4214.872, 0, 0, []
1628959222.1796, 56, 0, 4231.282, 4286.667, 4171.282, 4171.795, 4225.641, 0, 0, []
1628959222.1875, 57, 0, 4241.538, 4316.41, 4162.564, 4172.308, 4234.359, 0, 0, []
1628959222.1955, 58, 0, 4264.103, 4335.897, 4187.179, 4181.026, 4251.795, 0, 0, []
1628959222.2034, 59, 0, 4266.667, 4304.615, 4178.974, 4182.564, 4263.077, 0, 0, []
1628959222.2113, 60, 0, 4245.128, 4261.538, 4171.282, 4175.385, 4252.308, 0, 0, []
1628959222.2192, 61, 0, 4249.744, 4290.769, 4189.744, 4183.077, 4244.615, 0, 0, []
1628959222.2272, 62, 0, 4263.59, 4325.641, 4187.692, 4192.821, 4257.949, 0, 0, []
1628959222.2351, 63, 0, 4242.051, 4289.231, 4195.385, 4177.949, 4230.256, 0, 0, []
1628959222.2429, 64, 0, 4226.154, 4254.872, 4186.154, 4162.564, 4139.487, 450, 0, []
1628959222.2507, 65, 0, 4224.615, 4285.128, 4186.154, 4162.051, 4057.949, 450, 0, []
1628959222.2585, 66, 0, 4201.026, 4295.897, 4174.872, 4140, 4017.436, 16188, 0, []
1628959222.2664, 67, 0, 4197.436, 4260, 4149.744, 4132.308, 4022.564, 450, 0, []
1628959222.2742, 68, 0, 4240.513, 4275.385, 4190.256, 4178.462, 4069.744, 16154, 0, []
1628959222.2821, 69, 0, 4257.436, 4322.051, 4197.436, 4202.051, 4101.026, 450, 0, []
1628959222.2898, 70, 0, 4227.179, 4314.872, 4168.718, 4175.897, 4076.923, 16098, 0, []
1628959222.2977, 71, 0, 4209.744, 4286.667, 4166.154, 4161.538, 4057.949, 450, 0, []
1628959222.3055, 72, 0, 4215.385, 4284.103, 4155.385, 4174.359, 4079.487, 450, 0, []
1628959222.3135, 73, 0, 4216.41, 4271.795, 4165.641, 4186.154, 4093.846, 16100, 0, []
1628959222.3214, 74, 0, 4205.641, 4265.128, 4155.897, 4171.795, 4087.692, 450, 0, []
1628959222.3293, 75, 0, 4204.103, 4298.974, 4150.769, 4158.974, 4089.744, 16201, 0, []
1628959222.3372, 76, 0, 4221.026, 4309.744, 4172.821, 4165.128, 4104.615, 450, 0, []
1628959222.3452, 77, 0, 4223.59, 4277.436, 4154.872, 4168.205, 4112.821, 450, 0, []
1628959222.3531, 78, 0, 4214.872, 4280, 4163.077, 4172.308, 4118.974, 450, 0, []
1628959222.3611, 79, 0, 4221.538, 4306.154, 4174.359, 4182.051, 4123.077, 16201, 0, []
1628959222.369, 80, 0, 4212.821, 4287.692, 4162.051, 4185.128, 4109.744, 450, 0, []
1628959222.3769, 81, 0, 4200, 4263.59, 4167.179, 4183.59, 4111.282, 450, 0, []
1628959222.3848, 82, 0, 4204.615, 4290.769, 4155.897, 4176.41, 4124.615, 450, 0, []
1628959222.3928, 83, 0, 4191.282, 4307.179, 4158.462, 4161.538, 4105.641, 16201, 0, []
1628959222.4007, 84, 0, 4178.462, 4270.769, 4150.769, 4152.308, 4096.923, 450, 0, []
1628959222.4085, 85, 0, 4216.923, 4266.667, 4158.462, 4180, 4154.359, 450, 0, []
1628959222.4163, 86, 0, 4243.077, 4298.462, 4191.795, 4205.128, 4198.462, 450, 0, []
1628959222.4241, 87, 0, 4209.231, 4290.256, 4158.974, 4180.513, 4168.205, 16201, 0, []
1628959222.432, 88, 0, 4202.051, 4266.667, 4164.103, 4176.41, 4152.821, 450, 0, []
1628959222.4398, 89, 0, 4246.154, 4291.282, 4209.231, 4221.538, 4190.256, 450, 0, []
1628959222.4477, 90, 0, 4253.846, 4314.872, 4205.641, 4234.872, 4201.538, 450, 0, []
1628959222.4554, 91, 0, 4215.897, 4287.692, 4182.051, 4197.949, 4172.821, 16201, 0, []
1628959222.4633, 92, 0, 4196.41, 4258.462, 4154.872, 4182.051, 4163.077, 450, 0, []
1628959222.4711, 93, 0, 4203.59, 4254.359, 4179.487, 4196.923, 4171.795, 450, 0, []
1628959222.4791, 94, 0, 4202.564, 4287.692, 4188.205, 4192.821, 4168.205, 450, 0, []
1628959222.487, 95, 0, 4191.795, 4302.051, 4154.872, 4180, 4158.974, 16201, 0, []
1628959222.4949, 96, 0, 4184.615, 4263.59, 4165.641, 4177.949, 4151.282, 450, 0, []
1628959222.5028, 97, 0, 4183.077, 4262.564, 4161.026, 4171.795, 4148.718, 450, 0, []
1628959222.5108, 98, 0, 4186.667, 4284.103, 4163.077, 4175.385, 4155.385, 450, 0, []
1628959222.5187, 99, 0, 4202.051, 4287.179, 4180, 4190.769, 4167.179, 16201, 0, []
1628959222.5267, 100, 0, 4200.513, 4291.282, 4159.487, 4185.128, 4156.41, 450, 0, []
1628959222.5345, 101, 0, 4182.051, 4303.077, 4161.538, 4176.923, 4143.59, 450, 0, []
1628959222.5425, 102, 0, 4204.615, 4323.077, 4179.487, 4209.744, 4178.462, 450, 0, []
1628959222.5504, 103, 0, 4229.744, 4334.872, 4200.513, 4239.487, 4206.154, 16201, 0, []
1628959222.5582, 104, 0, 4207.179, 4327.692, 4198.974, 4229.744, 4189.231, 450, 0, []
1628959222.5661, 105, 0, 4198.462, 4302.564, 4176.41, 4222.564, 4183.077, 450, 0, []
1628959222.5738, 106, 0, 4218.462, 4284.103, 4193.846, 4228.205, 4194.359, 450, 0, []
1628959222.5817, 107, 0, 4211.795, 4284.615, 4180, 4214.359, 4190.769, 16201, 0, []
1628959222.5895, 108, 0, 4194.359, 4290.769, 4171.795, 4207.692, 4186.667, 450, 0, []
1628959222.5974, 109, 0, 4205.128, 4298.974, 4200, 4213.846, 4194.359, 450, 0, []
1628959222.6052, 110, 0, 4208.205, 4307.179, 4181.538, 4203.59, 4189.744, 450, 0, []
1628959222.6131, 111, 0, 4185.128, 4306.154, 4172.308, 4194.359, 4168.718, 16201, 0, []
1628959222.621, 112, 0, 4173.846, 4297.436, 4162.051, 4188.205, 4151.795, 450, 0, []
1628959222.629, 113, 0, 4179.487, 4304.615, 4153.333, 4187.692, 4157.436, 450, 0, []
1628959222.6369, 114, 0, 4174.872, 4313.846, 4169.231, 4190.769, 4159.487, 450, 0, []
1628959222.6449, 115, 0, 4165.128, 4292.821, 4155.385, 4182.564, 4149.231, 16201, 0, []
1628959222.6527, 116, 0, 4168.718, 4273.846, 4164.103, 4180, 4156.41, 450, 0, []
1628959222.6606, 117, 0, 4172.308, 4278.462, 4172.821, 4177.949, 4164.103, 450, 0, []
1628959222.6685, 118, 0, 4170.769, 4278.462, 4161.538, 4177.949, 4155.385, 450, 0, []
1628959222.6764, 119, 0, 4165.641, 4259.487, 4170.769, 4185.128, 4151.795, 16201, 0, []
1628959222.6843, 120, 0, 4156.923, 4260.513, 4159.487, 4185.641, 4154.872, 450, 0, []
1628959222.692, 121, 0, 4162.051, 4298.462, 4167.692, 4188.718, 4155.897, 450, 0, []
1628959222.7, 122, 0, 4176.923, 4304.615, 4178.462, 4200.513, 4160, 450, 0, []
1628959222.7079, 123, 0, 4169.744, 4274.872, 4158.974, 4195.385, 4155.897, 16201, 0, []
1628959222.7158, 124, 0, 4150.256, 4282.564, 4157.436, 4173.846, 4143.077, 450, 0, []
1628959222.7236, 125, 0, 4145.641, 4308.718, 4151.795, 4167.692, 4143.59, 450, 0, []
1628959222.7314, 126, 0, 4142.051, 4297.949, 4164.103, 4176.41, 4143.59, 450, 0, []
1628959222.7392, 127, 0, 4129.231, 4274.872, 4165.641, 4168.205, 4129.231, 16201, 0, []
1628959222.7471, 128, 0, 4142.564, 4287.692, 4152.308, 4167.179, 4134.872, 450, 0, []
1628959222.7549, 0, 0, 4174.359, 4302.051, 4176.923, 4195.897, 4167.692, 450, 0, []
1628959222.7628, 1, 0, 4181.026, 4292.308, 4168.205, 4203.59, 4181.538, 450, 0, []
1628959222.7705, 2, 0, 4165.641, 4273.846, 4155.897, 4185.128, 4168.718, 16188, 0, []
1628959222.7785, 3, 0, 4153.333, 4256.41, 4160.513, 4172.821, 4153.846, 450, 0, []
1628959222.7864, 4, 0, 4145.128, 4255.385, 4140, 4170.256, 4145.128, 16154, 0, []
1628959222.7944, 5, 0, 4155.897, 4286.154, 4161.026, 4188.718, 4156.923, 450, 0, []
1628959222.8023, 6, 0, 4174.359, 4303.077, 4172.821, 4206.667, 4174.359, 16100, 0, []
1628959222.8102, 7, 0, 4168.205, 4260, 4163.59, 4196.41, 4167.692, 450, 0, []
1628959222.8181, 8, 0, 4166.154, 4250.256, 4179.487, 4187.179, 4164.615, 450, 0, []
1628959222.8261, 9, 0, 4173.846, 4299.487, 4175.897, 4200.513, 4173.333, 16101, 0, []
1628959222.834, 10, 0, 4153.846, 4308.205, 4164.103, 4195.385, 4155.385, 450, 0, []
1628959222.842, 11, 0, 4132.308, 4282.564, 4144.615, 4171.795, 4133.333, 16201, 0, []
1628959222.8498, 12, 0, 4130.769, 4266.154, 4140, 4166.667, 4127.179, 450, 0, []
1628959222.8576, 13, 0, 4126.667, 4261.538, 4158.974, 4173.846, 4124.103, 450, 0, []
1628959222.8655, 14, 0, 4126.154, 4289.744, 4160.513, 4183.59, 4130.256, 450, 0, []
1628959222.8733, 15, 0, 4157.949, 4321.538, 4189.744, 4202.051, 4162.051, 16201, 0, []
1628959222.8812, 16, 0, 4199.487, 4291.282, 4182.051, 4201.026, 4204.615, 0, 0, []
1628959222.8889, 17, 0, 4212.308, 4254.359, 4140.513, 4175.385, 4226.154, 0, 0, []
1628959222.8968, 18, 0, 4220, 4274.359, 4148.205, 4169.231, 4239.487, 0, 0, []
1628959222.9046, 19, 0, 4246.154, 4293.333, 4161.026, 4188.718, 4260, 0, 0, []
1628959222.9125, 20, 0, 4255.897, 4276.41, 4178.462, 4204.103, 4261.538, 0, 0, []
1628959222.9203, 21, 0, 4236.41, 4272.821, 4168.718, 4199.487, 4236.923, 0, 0, []
1628959222.9282, 22, 0, 4227.179, 4293.333, 4150.769, 4198.974, 4229.231, 0, 0, []
1628959222.9361, 23, 0, 4222.051, 4294.872, 4162.564, 4199.487, 4228.718, 0, 0, []
1628959222.9441, 24, 0, 4201.538, 4272.308, 4144.615, 4183.59, 4204.615, 0, 0, []
1628959222.952, 25, 0, 4204.103, 4295.385, 4161.538, 4184.615, 4203.077, 0, 0, []
1628959222.96, 26, 0, 4215.385, 4330.769, 4181.026, 4188.718, 4216.41, 0, 0, []
1628959222.9678, 27, 0, 4201.026, 4285.641, 4160, 4173.846, 4202.051, 0, 0, []
1628959222.9758, 28, 0, 4197.949, 4250.769, 4177.436, 4176.41, 4192.821, 0, 0, []
1628959222.9837, 29, 0, 4213.846, 4292.308, 4180.513, 4190.769, 4207.692, 0, 0, []
1628959222.9917, 30, 0, 4200.513, 4306.154, 4167.179, 4183.59, 4202.051, 0, 0, []
1628959222.9996, 31, 0, 4186.154, 4272.821, 4176.41, 4172.821, 4186.667, 0, 0, []
1628959223.0075, 32, 0, 4215.385, 4273.333, 4194.872, 4194.359, 4210.769, 0, 0, []
1628959223.0154, 33, 0, 4241.538, 4290.769, 4213.846, 4219.487, 4238.974, 0, 0, []
1628959223.0232, 34, 0, 4230.256, 4290.769, 4182.051, 4210.256, 4228.718, 0, 0, []
1628959223.0311, 35, 0, 4207.692, 4292.821, 4158.974, 4191.795, 4204.103, 0, 0, []
1628959223.0389, 36, 0, 4198.974, 4288.205, 4163.077, 4186.667, 4195.385, 0, 0, []
1628959223.0467, 37, 0, 4199.487, 4282.564, 4149.231, 4190.769, 4195.385, 0, 0, []
1628959223.0545, 38, 0, 4197.949, 4285.128, 4160, 4194.359, 4190.769, 0, 0, []
1628959223.0624, 39, 0, 4200.513, 4286.667, 4158.462, 4183.077, 4186.667, 0, 0, []
1628959223.0702, 40, 0, 4197.436, 4276.41, 4152.308, 4168.718, 4183.077, 0, 0, []
1628959223.0781, 41, 0, 4191.795, 4261.026, 4162.051, 4170.256, 4186.154, 0, 0, []
1628959223.0859, 42, 0, 4213.846, 4261.538, 4164.103, 4192.821, 4208.718, 0, 0, []
1628959223.0937, 43, 0, 4246.667, 4291.795, 4192.821, 4215.385, 4229.231, 0, 0, []
1628959223.1015, 44, 0, 4242.564, 4330.769, 4184.103, 4210.769, 4227.692, 0, 0, []
1628959223.1095, 45, 0, 4217.949, 4325.641, 4156.41, 4198.462, 4210.769, 0, 0, []
1628959223.1174, 46, 0, 4214.872, 4290.769, 4162.564, 4198.974, 4202.564, 0, 0, []
1628959223.1254, 47, 0, 4221.538, 4278.974, 4156.41, 4201.026, 4212.821, 0, 0, []
1628959223.1332, 48, 0, 4215.385, 4286.154, 4164.103, 4197.949, 4220, 0, 0, []
1628959223.1412, 49, 0, 4201.026, 4295.385, 4159.487, 4186.154, 4200, 0, 0, []
1628959223.1491, 50, 0, 4193.846, 4308.718, 4153.846, 4182.564, 4181.026, 0, 0, []
1628959223.1571, 51, 0, 4199.487, 4305.128, 4175.897, 4191.795, 4193.846, 0, 0, []
1628959223.165, 52, 0, 4196.923, 4277.949, 4160.513, 4189.744, 4205.641, 0, 0, []
1628959223.1727, 53, 0, 4184.103, 4281.538, 4160.513, 4183.59, 4196.41, 0, 0, []
1628959223.1806, 54, 0, 4187.692, 4301.026, 4163.59, 4185.128, 4189.231, 0, 0, []
1628959223.1884, 55, 0, 4202.564, 4300, 4148.205, 4192.308, 4192.821, 0, 0, []
1628959223.1963, 56, 0, 4217.436, 4315.897, 4176.923, 4206.667, 4211.795, 0, 0, []
1628959223.2041, 57, 0, 4229.744, 4339.487, 4180, 4211.795, 4228.718, 0, 0, []
1628959223.2119, 58, 0, 4206.667, 4334.359, 4160.513, 4187.692, 4205.641, 0, 0, []
1628959223.2197, 59, 0, 4172.308, 4323.077, 4145.641, 4159.487, 4178.462, 0, 0, []
1628959223.2276, 60, 0, 4187.692, 4336.41, 4155.897, 4175.385, 4202.564, 0, 0, []
1628959223.2354, 61, 0, 4204.615, 4348.205, 4200, 4202.564, 4222.051, 0, 0, []
1628959223.2434, 62, 0, 4186.154, 4347.179, 4177.436, 4192.308, 4200, 0, 0, []
1628959223.2512, 63, 0, 4186.667, 4346.154, 4156.41, 4185.128, 4195.385, 0, 0, []
1628959223.2592, 64, 0, 4202.051, 4336.923, 4178.974, 4198.462, 4209.231, 450, 0, []
1628959223.2671, 65, 0, 4177.949, 4310.769, 4169.231, 4188.205, 4187.179, 450, 0, []
1628959223.2751, 66, 0, 4140, 4293.333, 4151.282, 4156.41, 4148.205, 16188, 0, []
1628959223.283, 67, 0, 4151.795, 4326.667, 4141.538, 4154.359, 4157.436, 450, 0, []
1628959223.2909, 68, 0, 4191.282, 4365.128, 4176.923, 4197.436, 4198.462, 16152, 0, []
1628959223.2988, 69, 0, 4195.385, 4356.41, 4201.026, 4220.513, 4207.179, 450, 0, []
1628959223.3068, 70, 0, 4169.744, 4323.59, 4167.692, 4194.359, 4186.667, 16103, 0, []
1628959223.3147, 71, 0, 4167.692, 4301.026, 4180, 4180.513, 4186.154, 450, 0, []
1628959223.3227, 72, 0, 4182.051, 4314.359, 4188.718, 4187.692, 4195.897, 450, 0, []
1628959223.3305, 73, 0, 4170.769, 4336.923, 4166.667, 4179.487, 4179.487, 16093, 0, []
1628959223.3383, 74, 0, 4164.103, 4319.487, 4174.359, 4175.897, 4173.333, 450, 0, []
1628959223.3462, 75, 0, 4181.026, 4293.846, 4176.923, 4186.154, 4193.846, 16201, 0, []
1628959223.354, 76, 0, 4187.692, 4309.231, 4180.513, 4187.179, 4196.41, 450, 0, []
1628959223.3619, 77, 0, 4192.308, 4325.128, 4176.41, 4180.513, 4189.231, 450, 0, []
1628959223.3696, 78, 0, 4197.436, 4310.769, 4178.974, 4185.641, 4197.436, 450, 0, []
1628959223.3775, 79, 0, 4190.769, 4296.41, 4186.154, 4191.795, 4197.436, 16201, 0, []
1628959223.3853, 80, 0, 4187.692, 4304.103, 4162.564, 4189.744, 4190.769, 450, 0, []
1628959223.3932, 81, 0, 4200.513, 4335.385, 4176.41, 4191.795, 4200, 450, 0, []
1628959223.401, 82, 0, 4206.667, 4357.949, 4174.359, 4185.641, 4205.641, 450, 0, []
1628959223.4089, 83, 0, 4201.538, 4332.308, 4154.359, 4181.026, 4200, 16201, 0, []
1628959223.4168, 84, 0, 4200.513, 4315.897, 4175.385, 4190.769, 4198.974, 450, 0, []
1628959223.4248, 85, 0, 4201.538, 4337.949, 4163.59, 4195.385, 4200.513, 450, 0, []
1628959223.4327, 86, 0, 4212.308, 4352.308, 4165.641, 4194.359, 4207.692, 450, 0, []
1628959223.4407, 87, 0, 4221.538, 4364.103, 4178.462, 4187.179, 4213.333, 16201, 0, []
1628959223.4485, 88, 0, 4207.179, 4354.872, 4161.538, 4177.436, 4202.564, 450, 0, []
1628959223.4565, 89, 0, 4196.923, 4324.615, 4176.41, 4182.051, 4197.436, 450, 0, []
1628959223.4644, 90, 0, 4200.513, 4329.231, 4170.769, 4187.179, 4201.026, 450, 0, []
1628959223.4724, 91, 0, 4204.103, 4347.179, 4163.077, 4187.179, 4200, 16201, 0, []
1628959223.4803, 92, 0, 4220.513, 4332.821, 4181.026, 4197.949, 4215.385, 450, 0, []
1628959223.488, 93, 0, 4240, 4323.077, 4186.667, 4210.256, 4239.487, 450, 0, []
1628959223.4959, 94, 0, 4227.692, 4335.897, 4189.231, 4197.949, 4227.692, 450, 0, []
1628959223.5037, 95, 0, 4211.282, 4340.513, 4163.077, 4175.385, 4209.231, 16201, 0, []
1628959223.5116, 96, 0, 4224.103, 4336.41, 4168.205, 4185.641, 4217.949, 450, 0, []
1628959223.5194, 97, 0, 4234.359, 4338.462, 4186.667, 4204.103, 4226.667, 450, 0, []
1628959223.5272, 98, 0, 4226.667, 4351.795, 4165.128, 4202.051, 4224.103, 450, 0, []
1628959223.535, 99, 0, 4216.923, 4345.128, 4168.718, 4196.923, 4218.462, 16201, 0, []
1628959223.5429, 100, 0, 4207.179, 4311.795, 4154.359, 4182.051, 4206.667, 450, 0, []
1628959223.5507, 101, 0, 4196.41, 4306.667, 4145.128, 4164.615, 4195.897, 450, 0, []
1628959223.5587, 102, 0, 4201.026, 4320.513, 4159.487, 4168.718, 4207.179, 450, 0, []
1628959223.5665, 103, 0, 4211.282, 4301.026, 4146.667, 4178.462, 4216.923, 16201, 0, []
1628959223.5745, 104, 0, 4206.667, 4294.359, 4157.436, 4178.462, 4208.718, 450, 0, []
1628959223.5824, 105, 0, 4205.641, 4324.103, 4155.385, 4180.513, 4206.667, 450, 0, []
1628959223.5904, 106, 0, 4211.795, 4317.436, 4151.282, 4187.692, 4214.872, 450, 0, []
1628959223.5983, 107, 0, 4218.974, 4291.282, 4175.385, 4186.667, 4225.641, 16201, 0, []
1628959223.6062, 108, 0, 4228.718, 4300.513, 4172.821, 4184.103, 4231.795, 450, 0, []
1628959223.6141, 109, 0, 4234.359, 4302.051, 4186.154, 4188.718, 4235.385, 450, 0, []
1628959223.6221, 110, 0, 4222.051, 4293.333, 4180, 4180.513, 4231.282, 450, 0, []
1628959223.63, 111, 0, 4212.821, 4303.59, 4164.103, 4173.333, 4226.667, 16201, 0, []
1628959223.6378, 112, 0, 4228.718, 4311.795, 4175.897, 4184.103, 4233.333, 450, 0, []
1628959223.6456, 113, 0, 4229.744, 4303.077, 4150.256, 4186.667, 4232.821, 450, 0, []
1628959223.6535, 114, 0, 4220, 4285.128, 4152.308, 4187.692, 4229.744, 450, 0, []
1628959223.6614, 115, 0, 4224.615, 4278.974, 4166.154, 4185.128, 4232.821, 16201, 0, []
1628959223.6693, 116, 0, 4224.615, 4295.897, 4159.487, 4176.41, 4230.256, 450, 0, []
1628959223.6772, 117, 0, 4225.128, 4307.179, 4166.154, 4180.513, 4231.282, 450, 0, []
1628959223.6849, 118, 0, 4231.282, 4292.308, 4151.282, 4177.949, 4239.487, 450, 0, []
1628959223.6928, 119, 0, 4228.718, 4292.308, 4159.487, 4160, 4241.538, 16201, 0, []
1628959223.7006, 120, 0, 4242.564, 4307.179, 4167.179, 4157.436, 4257.436, 450, 0, []
1628959223.7085, 121, 0, 4288.718, 4293.846, 4161.026, 4185.128, 4300.513, 450, 0, []
1628959223.7163, 122, 0, 4312.308, 4289.231, 4172.308, 4204.103, 4331.282, 450, 0, []
1628959223.7242, 123, 0, 4304.615, 4320.513, 4146.667, 4194.359, 4333.333, 16201, 0, []
1628959223.7321, 124, 0, 4313.333, 4336.923, 4151.795, 4193.846, 4336.41, 450, 0, []
1628959223.7401, 125, 0, 4323.59, 4320, 4168.718, 4203.077, 4341.026, 450, 0, []
1628959223.748, 126, 0, 4308.718, 4300, 4151.282, 4200, 4330.769, 450, 0, []
1628959223.756, 127, 0, 4289.744, 4284.103, 4161.538, 4192.821, 4317.949, 16201, 0, []
1628959223.7638, 128, 0, 4293.333, 4279.487, 4155.897, 4185.641, 4314.872, 450, 0, []
1628959223.7718, 0, 0, 4313.846, 4293.846, 4161.026, 4191.282, 4333.333, 450, 0, []
1628959223.7797, 1, 0, 4336.41, 4306.154, 4169.231, 4197.436, 4368.718, 450, 0, []
1628959223.7876, 2, 0, 4373.846, 4322.051, 4151.795, 4193.333, 4414.359, 16187, 0, []
1628959223.7955, 3, 0, 4418.974, 4329.744, 4172.308, 4191.282, 4461.026, 450, 0, []
1628959223.8032, 4, 0, 4442.051, 4299.487, 4169.744, 4196.923, 4498.462, 16150, 0, []
1628959223.8111, 5, 0, 4460.513, 4289.744, 4165.641, 4218.462, 4533.333, 450, 0, []
1628959223.8189, 6, 0, 4487.179, 4320, 4182.564, 4228.205, 4553.333, 16100, 0, []
1628959223.8268, 7, 0, 4478.974, 4312.821, 4162.564, 4210.256, 4532.821, 450, 0, []
1628959223.8346, 8, 0, 4432.821, 4292.821, 4153.333, 4189.744, 4481.026, 450, 0, []
1628959223.8425, 9, 0, 4400, 4288.205, 4137.436, 4175.897, 4444.103, 16095, 0, []
1628959223.8502, 10, 0, 4395.385, 4265.641, 4140, 4180, 4433.846, 450, 0, []
1628959223.8581, 11, 0, 4386.667, 4265.128, 4161.538, 4193.333, 4423.077, 16195, 0, []
1628959223.8659, 12, 0, 4357.436, 4283.077, 4143.59, 4188.718, 4393.846, 450, 0, []
1628959223.8738, 13, 0, 4318.974, 4266.667, 4148.205, 4172.308, 4355.385, 450, 0, []
1628959223.8816, 14, 0, 4297.436, 4259.487, 4154.872, 4165.641, 4329.744, 450, 0, []
1628959223.8895, 15, 0, 4287.179, 4292.821, 4151.795, 4168.205, 4316.923, 16195, 0, []
1628959223.8974, 16, 0, 4268.718, 4295.897, 4158.974, 4166.154, 4300, 0, 0, []
1628959223.9054, 17, 0, 4252.308, 4257.436, 4143.077, 4161.538, 4277.436, 0, 0, []
1628959223.9133, 18, 0, 4245.128, 4250.769, 4150.769, 4161.538, 4257.436, 0, 0, []
1628959223.9213, 19, 0, 4247.692, 4266.154, 4155.385, 4163.077, 4252.308, 0, 0, []
1628959223.9291, 20, 0, 4256.923, 4280.513, 4160.513, 4175.385, 4256.923, 0, 0, []
1628959223.9371, 21, 0, 4256.41, 4289.231, 4184.103, 4181.026, 4252.308, 0, 0, []
1628959223.945, 22, 0, 4238.974, 4288.205, 4154.872, 4165.641, 4235.897, 0, 0, []
1628959223.9528, 23, 0, 4218.974, 4271.282, 4151.795, 4159.487, 4221.538, 0, 0, []
1628959223.9607, 24, 0, 4215.897, 4255.385, 4171.795, 4174.872, 4222.564, 0, 0, []
1628959223.9684, 25, 0, 4225.641, 4280, 4164.103, 4194.359, 4231.282, 0, 0, []
1628959223.9763, 26, 0, 4208.205, 4288.205, 4154.872, 4183.077, 4211.795, 0, 0, []
1628959223.9841, 27, 0, 4189.231, 4265.128, 4133.333, 4166.667, 4187.692, 0, 0, []
1628959223.992, 28, 0, 4217.949, 4283.077, 4171.795, 4200, 4213.846, 0, 0, []
1628959223.9998, 29, 0, 4245.641, 4312.308, 4195.897, 4220, 4241.026, 0, 0, []
1628959224.0076, 30, 0, 4224.103, 4289.231, 4154.359, 4191.282, 4214.872, 0, 0, []
1628959224.0154, 31, 0, 4205.641, 4257.436, 4160, 4182.051, 4194.872, 0, 0, []
1628959224.0233, 32, 0, 4212.821, 4254.872, 4165.128, 4190.769, 4202.564, 0, 0, []
1628959224.0311, 33, 0, 4196.923, 4251.282, 4162.564, 4182.564, 4189.744, 0, 0, []
1628959224.0391, 34, 0, 4169.744, 4263.59, 4172.308, 4177.436, 4171.795, 0, 0, []
1628959224.0469, 35, 0, 4160.513, 4275.385, 4163.077, 4181.026, 4167.692, 0, 0, []
1628959224.0549, 36, 0, 4152.821, 4265.128, 4164.103, 4169.744, 4154.359, 0, 0, []
1628959224.0628, 37, 0, 4153.846, 4259.487, 4152.308, 4155.385, 4148.205, 0, 0, []
1628959224.0708, 38, 0, 4179.487, 4255.897, 4164.615, 4167.179, 4170.256, 0, 0, []
1628959224.0787, 39, 0, 4195.385, 4276.923, 4183.59, 4184.615, 4184.615, 0, 0, []
1628959224.0866, 40, 0, 4177.436, 4302.051, 4156.923, 4178.974, 4172.308, 0, 0, []
1628959224.0945, 41, 0, 4164.615, 4264.103, 4162.051, 4171.282, 4162.564, 0, 0, []
1628959224.1025, 42, 0, 4168.718, 4232.821, 4155.897, 4174.359, 4159.487, 0, 0, []
1628959224.1104, 43, 0, 4171.282, 4275.897, 4148.718, 4185.641, 4160, 0, 0, []
