Timestamp, COUNTER, INTERPOLATED, AF3, T7, Pz, T8, AF4, RAW_CQ, MARKER_HARDWARE, MARKERS
1628600306.0207, 72, 0, 4175.897, 4198.974, 4109.231, 4183.59, 4158.974, 450, 0, []
1628600306.0285, 73, 0, 4165.128, 4170.769, 4074.359, 4175.897, 4152.308, 16209, 0, []
1628600306.0363, 74, 0, 4161.538, 4145.128, 4094.359, 4186.667, 4134.359, 450, 0, []
1628600306.0442, 75, 0, 4171.282, 4163.59, 4075.385, 4164.103, 4135.897, 16192, 0, []
1628600306.052, 76, 0, 4184.103, 4172.821, 4112.308, 4183.077, 4158.974, 450, 0, []
1628600306.0599, 77, 0, 4186.154, 4156.923, 4100.513, 4175.385, 4172.821, 450, 0, []
1628600306.0676, 78, 0, 4193.333, 4154.359, 4059.487, 4154.872, 4176.923, 450, 0, []
1628600306.0756, 79, 0, 4237.436, 4164.615, 4112.821, 4183.077, 4209.744, 16192, 0, []
1628600306.0835, 80, 0, 4304.103, 4173.846, 4100, 4178.974, 4272.308, 450, 0, []
1628600306.0915, 81, 0, 4346.154, 4183.077, 4090.256, 4185.641, 4316.923, 450, 0, []
1628600306.0994, 82, 0, 4381.026, 4187.692, 4088.718, 4171.282, 4338.462, 450, 0, []
1628600306.1073, 83, 0, 4451.795, 4178.974, 4097.949, 4165.128, 4389.744, 16192, 0, []
1628600306.1152, 84, 0, 4515.897, 4183.59, 4164.103, 4213.846, 4458.462, 450, 0, []
1628600306.1232, 85, 0, 4526.154, 4212.308, 4125.641, 4194.359, 4482.051, 450, 0, []
1628600306.1311, 86, 0, 4510.256, 4219.487, 4103.077, 4175.385, 4463.59, 450, 0, []
1628600306.1391, 87, 0, 4489.231, 4205.641, 4109.231, 4173.333, 4437.436, 16192, 0, []
1628600306.1469, 88, 0, 4455.897, 4197.949, 4094.359, 4166.154, 4407.692, 450, 0, []
1628600306.1547, 89, 0, 4417.949, 4190.769, 4128.718, 4189.231, 4378.462, 450, 0, []
1628600306.1626, 90, 0, 4386.154, 4191.282, 4082.051, 4161.026, 4357.436, 450, 0, []
1628600306.1704, 91, 0, 4365.641, 4193.333, 4077.436, 4165.128, 4337.949, 16192, 0, []
1628600306.1783, 92, 0, 4349.744, 4188.205, 4117.436, 4193.333, 4331.795, 450, 0, []
1628600306.186, 93, 0, 4310.256, 4186.154, 4087.692, 4182.051, 4313.333, 450, 0, []
1628600306.1939, 94, 0, 4271.795, 4187.692, 4110.256, 4186.667, 4277.949, 450, 0, []
1628600306.2017, 95, 0, 4271.795, 4187.179, 4103.077, 4164.103, 4270.256, 16192, 0, []
1628600306.2096, 96, 0, 4272.821, 4178.462, 4105.641, 4178.974, 4273.333, 450, 0, []
1628600306.2174, 97, 0, 4251.795, 4163.59, 4111.282, 4196.923, 4260.513, 450, 0, []
1628600306.2254, 98, 0, 4238.462, 4161.026, 4074.872, 4175.897, 4255.385, 450, 0, []
1628600306.2332, 99, 0, 4245.641, 4163.59, 4124.103, 4199.487, 4265.128, 16192, 0, []
1628600306.2412, 100, 0, 4246.154, 4160, 4114.872, 4182.051, 4265.128, 450, 0, []
1628600306.2491, 101, 0, 4236.41, 4183.59, 4109.231, 4182.051, 4255.897, 450, 0, []
1628600306.2571, 102, 0, 4232.308, 4206.667, 4137.949, 4204.615, 4257.436, 450, 0, []
1628600306.265, 103, 0, 4218.974, 4173.333, 4087.692, 4172.308, 4241.538, 16192, 0, []
1628600306.2729, 104, 0, 4200, 4157.436, 4113.846, 4188.205, 4219.487, 450, 0, []
1628600306.2808, 105, 0, 4211.282, 4197.436, 4123.077, 4189.744, 4228.205, 450, 0, []
1628600306.2888, 106, 0, 4232.821, 4204.103, 4120.513, 4184.615, 4243.59, 450, 0, []
1628600306.2967, 107, 0, 4212.308, 4181.026, 4140.513, 4198.462, 4228.718, 16192, 0, []
1628600306.3047, 108, 0, 4175.385, 4186.154, 4086.154, 4168.718, 4197.436, 450, 0, []
1628600306.3125, 109, 0, 4167.692, 4183.077, 4106.154, 4171.795, 4183.077, 450, 0, []
1628600306.3203, 110, 0, 4172.821, 4163.59, 4108.718, 4164.615, 4181.026, 450, 0, []
1628600306.3282, 111, 0, 4168.205, 4178.974, 4088.718, 4168.205, 4183.59, 16192, 0, []
1628600306.336, 112, 0, 4166.154, 4204.615, 4127.179, 4185.641, 4184.103, 450, 0, []
1628600306.3439, 113, 0, 4176.41, 4185.641, 4103.077, 4163.077, 4188.718, 450, 0, []
1628600306.3516, 114, 0, 4186.667, 4160.513, 4121.026, 4195.897, 4202.564, 450, 0, []
1628600306.3595, 115, 0, 4175.385, 4168.205, 4110.769, 4185.128, 4196.41, 16192, 0, []
1628600306.3673, 116, 0, 4147.692, 4172.308, 4073.333, 4151.795, 4169.231, 450, 0, []
1628600306.3752, 117, 0, 4131.282, 4151.795, 4117.436, 4185.128, 4157.436, 450, 0, []
1628600306.383, 118, 0, 4119.487, 4134.872, 4088.205, 4161.538, 4151.795, 450, 0, []
1628600306.3909, 119, 0, 4115.897, 4150.769, 4089.231, 4156.923, 4141.026, 16192, 0, []
1628600306.3988, 120, 0, 4149.744, 4182.564, 4111.282, 4176.41, 4156.923, 450, 0, []
1628600306.4068, 121, 0, 4173.333, 4174.872, 4092.821, 4170.769, 4176.41, 450, 0, []
1628600306.4147, 122, 0, 4146.154, 4138.974, 4119.487, 4182.051, 4152.821, 450, 0, []
1628600306.4227, 123, 0, 4119.487, 4124.615, 4085.641, 4157.949, 4128.205, 16192, 0, []
1628600306.4305, 124, 0, 4124.615, 4117.949, 4097.436, 4171.282, 4138.974, 450, 0, []
1628600306.4385, 125, 0, 4126.154, 4116.41, 4115.385, 4180, 4145.128, 450, 0, []
1628600306.4464, 126, 0, 4118.462, 4145.128, 4066.154, 4153.333, 4135.897, 450, 0, []
1628600306.4544, 127, 0, 4118.974, 4172.821, 4104.103, 4185.641, 4140.513, 16192, 0, []
1628600306.4623, 128, 0, 4124.103, 4170.769, 4102.051, 4186.667, 4144.615, 450, 0, []
1628600306.47, 0, 0, 4130.769, 4163.077, 4101.026, 4183.077, 4140, 450, 0, []
1628600306.4779, 1, 0, 4144.103, 4164.615, 4125.128, 4177.436, 4146.154, 450, 0, []
1628600306.4857, 2, 0, 4151.795, 4162.564, 4098.974, 4153.846, 4157.436, 16172, 0, []
1628600306.4936, 3, 0, 4139.487, 4167.692, 4141.026, 4183.077, 4147.692, 450, 0, []
1628600306.5014, 4, 0, 4121.538, 4187.692, 4125.128, 4168.205, 4133.333, 16172, 0, []
1628600306.5092, 5, 0, 4117.436, 4209.231, 4099.487, 4164.615, 4132.308, 450, 0, []
1628600306.517, 6, 0, 4125.641, 4221.026, 4121.538, 4189.744, 4135.897, 155, 0, []
1628600306.5249, 7, 0, 4136.41, 4211.282, 4096.41, 4165.128, 4137.436, 450, 0, []
1628600306.5327, 8, 0, 4155.897, 4210.256, 4144.615, 4185.641, 4162.051, 450, 0, []
1628600306.5407, 9, 0, 4180.513, 4223.077, 4149.744, 4186.154, 4190.256, 16220, 0, []
1628600306.5485, 10, 0, 4184.615, 4211.795, 4126.667, 4170.256, 4180, 450, 0, []
1628600306.5565, 11, 0, 4163.59, 4203.59, 4140.513, 4173.846, 4150.256, 16201, 0, []
1628600306.5644, 12, 0, 4135.897, 4214.872, 4085.641, 4148.718, 4124.615, 450, 0, []
1628600306.5724, 13, 0, 4122.564, 4207.692, 4106.667, 4167.179, 4111.795, 450, 0, []
1628600306.5803, 14, 0, 4103.077, 4189.231, 4104.615, 4158.974, 4095.897, 450, 0, []
1628600306.5882, 15, 0, 4092.308, 4196.41, 4078.462, 4152.308, 4084.615, 16201, 0, []
1628600306.5961, 16, 0, 4137.949, 4223.077, 4141.026, 4188.718, 4115.385, 0, 0, []
1628600306.6041, 17, 0, 4183.077, 4239.487, 4133.333, 4175.897, 4154.359, 0, 0, []
1628600306.612, 18, 0, 4177.436, 4224.615, 4143.59, 4189.744, 4160.513, 0, 0, []
1628600306.6198, 19, 0, 4173.333, 4200.513, 4144.615, 4189.231, 4161.026, 0, 0, []
1628600306.6276, 20, 0, 4184.103, 4202.564, 4118.462, 4171.795, 4172.308, 0, 0, []
1628600306.6354, 21, 0, 4175.897, 4225.641, 4144.103, 4188.205, 4171.282, 0, 0, []
1628600306.6433, 22, 0, 4168.205, 4241.538, 4106.667, 4167.179, 4166.667, 0, 0, []
1628600306.6511, 23, 0, 4166.154, 4231.282, 4121.538, 4178.974, 4167.179, 0, 0, []
1628600306.659, 24, 0, 4162.051, 4218.974, 4141.026, 4173.333, 4162.051, 0, 0, []
1628600306.6667, 25, 0, 4173.846, 4240, 4110.256, 4147.692, 4169.744, 0, 0, []
1628600306.6747, 26, 0, 4191.795, 4248.718, 4140, 4176.41, 4185.128, 0, 0, []
1628600306.6826, 27, 0, 4196.923, 4230.769, 4109.744, 4161.538, 4186.667, 0, 0, []
1628600306.6906, 28, 0, 4194.359, 4240.513, 4122.564, 4168.718, 4183.077, 0, 0, []
1628600306.6985, 29, 0, 4195.385, 4254.359, 4157.436, 4174.872, 4185.128, 0, 0, []
1628600306.7064, 30, 0, 4195.385, 4234.872, 4112.821, 4150.769, 4181.026, 0, 0, []
1628600306.7143, 31, 0, 4190.256, 4235.385, 4131.282, 4176.41, 4170.256, 0, 0, []
1628600306.7223, 32, 0, 4189.744, 4253.333, 4113.846, 4165.128, 4171.282, 0, 0, []
1628600306.7302, 33, 0, 4205.128, 4246.154, 4115.385, 4167.179, 4190.769, 0, 0, []
1628600306.7382, 34, 0, 4207.179, 4236.41, 4132.308, 4165.641, 4190.256, 0, 0, []
1628600306.746, 35, 0, 4185.641, 4224.615, 4080, 4135.897, 4164.615, 0, 0, []
1628600306.7539, 36, 0, 4181.538, 4218.974, 4116.923, 4175.385, 4154.359, 0, 0, []
1628600306.7618, 37, 0, 4182.051, 4231.282, 4110.769, 4165.128, 4151.795, 0, 0, []
1628600306.7696, 38, 0, 4165.128, 4224.615, 4102.564, 4151.795, 4138.462, 0, 0, []
1628600306.7775, 39, 0, 4156.41, 4215.385, 4135.897, 4180, 4137.436, 0, 0, []
1628600306.7852, 40, 0, 4160.513, 4224.615, 4087.692, 4158.974, 4142.051, 0, 0, []
1628600306.7931, 41, 0, 4158.462, 4213.333, 4112.308, 4166.667, 4141.026, 0, 0, []
1628600306.8009, 42, 0, 4154.872, 4181.026, 4121.026, 4160.513, 4144.103, 0, 0, []
1628600306.8088, 43, 0, 4157.949, 4178.974, 4110.769, 4160.513, 4141.026, 0, 0, []
1628600306.8166, 44, 0, 4157.949, 4194.359, 4131.282, 4174.872, 4129.231, 0, 0, []
1628600306.8245, 45, 0, 4151.795, 4190.256, 4085.641, 4147.692, 4126.667, 0, 0, []
1628600306.8324, 46, 0, 4148.205, 4184.103, 4116.41, 4168.718, 4128.718, 0, 0, []
1628600306.8404, 47, 0, 4151.795, 4182.564, 4122.564, 4163.59, 4126.154, 0, 0, []
1628600306.8483, 48, 0, 4146.667, 4185.128, 4091.282, 4151.795, 4118.974, 0, 0, []
1628600306.8563, 49, 0, 4133.333, 4187.179, 4114.872, 4175.385, 4106.667, 0, 0, []
1628600306.8641, 50, 0, 4132.821, 4187.692, 4083.077, 4153.846, 4103.59, 0, 0, []
1628600306.8721, 51, 0, 4140.513, 4186.154, 4108.205, 4172.308, 4114.872, 0, 0, []
1628600306.88, 52, 0, 4127.692, 4180, 4100.513, 4166.154, 4109.231, 0, 0, []
1628600306.888, 53, 0, 4113.333, 4185.641, 4058.974, 4141.026, 4093.846, 0, 0, []
1628600306.8959, 54, 0, 4124.103, 4205.641, 4108.205, 4164.615, 4096.923, 0, 0, []
1628600306.9038, 55, 0, 4122.051, 4206.667, 4083.077, 4138.974, 4096.41, 0, 0, []
1628600306.9117, 56, 0, 4100.513, 4176.41, 4095.897, 4147.692, 4084.615, 0, 0, []
1628600306.9195, 57, 0, 4099.487, 4160.513, 4117.436, 4163.59, 4090.769, 0, 0, []
1628600306.9274, 58, 0, 4114.872, 4177.436, 4078.462, 4151.282, 4105.128, 0, 0, []
1628600306.9352, 59, 0, 4120, 4183.077, 4109.744, 4170.256, 4105.128, 0, 0, []
1628600306.943, 60, 0, 4130.769, 4185.128, 4093.333, 4152.308, 4106.667, 0, 0, []
1628600306.9508, 61, 0, 4155.385, 4210.769, 4102.564, 4169.231, 4130.256, 0, 0, []
1628600306.9587, 62, 0, 4174.359, 4215.385, 4117.436, 4177.436, 4152.821, 0, 0, []
1628600306.9665, 63, 0, 4187.179, 4170.769, 4080.513, 4148.718, 4163.077, 0, 0, []
1628600306.9744, 64, 0, 4217.949, 4139.487, 4121.538, 4179.487, 4193.333, 450, 0, []
1628600306.9822, 65, 0, 4261.538, 4163.59, 4105.128, 4174.359, 4235.385, 450, 0, []
1628600306.9901, 66, 0, 4284.103, 4192.308, 4098.462, 4173.846, 4248.205, 16181, 0, []
1628600306.998, 67, 0, 4301.538, 4182.051, 4113.846, 4185.128, 4256.923, 450, 0, []
1628600307.006, 68, 0, 4347.179, 4172.308, 4073.846, 4166.154, 4291.282, 16166, 0, []
1628600307.0139, 69, 0, 4389.744, 4178.462, 4124.615, 4184.103, 4326.154, 450, 0, []
1628600307.0219, 70, 0, 4393.846, 4174.872, 4118.462, 4166.154, 4342.564, 154, 0, []
1628600307.0297, 71, 0, 4377.436, 4168.205, 4098.462, 4173.846, 4337.949, 450, 0, []
1628600307.0377, 72, 0, 4357.949, 4178.462, 4133.333, 4201.538, 4309.744, 450, 0, []
1628600307.0456, 73, 0, 4328.718, 4172.821, 4100, 4168.205, 4280, 16212, 0, []
1628600307.0536, 74, 0, 4291.795, 4144.103, 4115.897, 4173.846, 4253.846, 450, 0, []
1628600307.0615, 75, 0, 4255.385, 4147.179, 4093.846, 4163.077, 4223.077, 16196, 0, []
1628600307.0692, 76, 0, 4241.538, 4172.821, 4076.41, 4163.077, 4214.359, 450, 0, []
1628600307.0771, 77, 0, 4245.641, 4188.205, 4125.641, 4189.231, 4215.897, 450, 0, []
1628600307.0849, 78, 0, 4233.846, 4205.641, 4095.385, 4169.231, 4200, 450, 0, []
1628600307.0928, 79, 0, 4216.923, 4211.282, 4123.077, 4188.718, 4186.667, 16196, 0, []
1628600307.1006, 80, 0, 4207.692, 4190.256, 4123.59, 4180, 4177.436, 450, 0, []
1628600307.1084, 81, 0, 4180.513, 4175.385, 4074.872, 4158.974, 4145.641, 450, 0, []
1628600307.1162, 82, 0, 4146.667, 4186.667, 4091.282, 4171.795, 4122.051, 450, 0, []
1628600307.1241, 83, 0, 4141.026, 4179.487, 4065.128, 4140, 4128.718, 16196, 0, []
1628600307.1319, 84, 0, 4155.385, 4158.974, 4095.897, 4162.051, 4142.051, 450, 0, []
1628600307.1399, 85, 0, 4171.282, 4171.282, 4111.795, 4175.385, 4149.231, 450, 0, []
1628600307.1477, 86, 0, 4182.051, 4188.718, 4092.821, 4162.051, 4149.231, 450, 0, []
1628600307.1557, 87, 0, 4173.333, 4182.051, 4124.615, 4185.641, 4142.051, 16196, 0, []
1628600307.1636, 88, 0, 4152.308, 4164.103, 4072.308, 4161.026, 4129.231, 450, 0, []
1628600307.1716, 89, 0, 4147.179, 4164.103, 4081.026, 4174.359, 4124.103, 450, 0, []
1628600307.1795, 90, 0, 4147.179, 4184.615, 4111.282, 4184.103, 4126.667, 450, 0, []
1628600307.1874, 91, 0, 4138.462, 4189.231, 4085.128, 4147.692, 4119.487, 16196, 0, []
1628600307.1953, 92, 0, 4137.949, 4169.231, 4117.436, 4155.385, 4109.231, 450, 0, []
1628600307.2033, 93, 0, 4151.282, 4157.949, 4094.359, 4148.205, 4112.308, 450, 0, []
1628600307.2112, 94, 0, 4167.692, 4171.282, 4112.308, 4172.821, 4130.256, 450, 0, []
1628600307.219, 95, 0, 4174.872, 4180.513, 4137.436, 4182.051, 4142.051, 16196, 0, []
1628600307.2268, 96, 0, 4167.179, 4162.051, 4091.795, 4156.41, 4138.974, 450, 0, []
1628600307.2346, 97, 0, 4150.769, 4147.692, 4117.949, 4186.154, 4127.179, 450, 0, []
1628600307.2425, 98, 0, 4126.154, 4160.513, 4088.718, 4170.769, 4104.615, 450, 0, []
1628600307.2503, 99, 0, 4116.41, 4168.205, 4085.641, 4162.564, 4090.769, 16196, 0, []
1628600307.2582, 100, 0, 4136.41, 4161.026, 4119.487, 4172.308, 4103.077, 450, 0, []
1628600307.2659, 101, 0, 4135.385, 4168.718, 4081.026, 4152.821, 4101.026, 450, 0, []
1628600307.2738, 102, 0, 4111.795, 4177.949, 4111.795, 4170.769, 4073.846, 450, 0, []
1628600307.2816, 103, 0, 4123.077, 4161.026, 4096.41, 4151.282, 4069.744, 16196, 0, []
1628600307.2896, 104, 0, 4141.026, 4150.256, 4079.487, 4154.872, 4083.59, 450, 0, []
1628600307.2975, 105, 0, 4123.077, 4155.385, 4106.154, 4176.923, 4078.974, 450, 0, []
1628600307.3054, 106, 0, 4102.051, 4153.333, 4074.359, 4162.051, 4069.744, 450, 0, []
1628600307.3133, 107, 0, 4106.154, 4151.795, 4100.513, 4185.641, 4078.974, 16196, 0, []
1628600307.3213, 108, 0, 4116.41, 4145.128, 4076.41, 4166.154, 4088.205, 450, 0, []
1628600307.3292, 109, 0, 4117.949, 4133.333, 4057.949, 4157.436, 4093.333, 450, 0, []
1628600307.3372, 110, 0, 4103.59, 4132.821, 4106.154, 4178.462, 4089.744, 450, 0, []
1628600307.345, 111, 0, 4087.692, 4140.513, 4068.718, 4143.59, 4072.308, 16196, 0, []
1628600307.353, 112, 0, 4083.59, 4137.949, 4087.179, 4154.359, 4057.949, 450, 0, []
1628600307.3609, 113, 0, 4075.385, 4145.128, 4096.923, 4157.436, 4056.923, 450, 0, []
1628600307.3689, 114, 0, 4074.872, 4158.974, 4082.564, 4161.026, 4067.179, 450, 0, []
1628600307.3768, 115, 0, 4095.385, 4155.385, 4122.564, 4194.872, 4083.59, 16196, 0, []
1628600307.3845, 116, 0, 4111.282, 4165.128, 4092.308, 4166.154, 4097.436, 450, 0, []
1628600307.3924, 117, 0, 4111.795, 4185.641, 4109.231, 4169.744, 4106.154, 450, 0, []
1628600307.4002, 118, 0, 4111.282, 4171.795, 4110.769, 4167.692, 4115.897, 450, 0, []
1628600307.4081, 119, 0, 4110.256, 4148.718, 4082.051, 4149.231, 4128.205, 16196, 0, []
1628600307.4159, 120, 0, 4112.308, 4167.692, 4129.744, 4168.718, 4144.103, 450, 0, []
1628600307.4237, 121, 0, 4122.051, 4202.564, 4095.897, 4152.308, 4157.949, 450, 0, []
1628600307.4315, 122, 0, 4117.949, 4208.718, 4096.923, 4168.205, 4153.333, 450, 0, []
1628600307.4394, 123, 0, 4095.385, 4191.282, 4106.154, 4169.744, 4134.359, 16196, 0, []
1628600307.4472, 124, 0, 4084.103, 4170.769, 4063.59, 4152.821, 4128.718, 450, 0, []
1628600307.4552, 125, 0, 4089.744, 4170.256, 4104.103, 4183.59, 4136.923, 450, 0, []
1628600307.463, 126, 0, 4077.436, 4167.179, 4086.667, 4158.462, 4125.641, 450, 0, []
1628600307.471, 127, 0, 4062.051, 4155.385, 4089.744, 4163.59, 4113.333, 16196, 0, []
1628600307.4789, 128, 0, 4083.59, 4174.359, 4116.923, 4188.718, 4140, 450, 0, []
1628600307.4869, 0, 0, 4116.41, 4192.308, 4088.205, 4168.718, 4169.231, 450, 0, []
1628600307.4948, 1, 0, 4117.949, 4165.641, 4118.974, 4184.103, 4161.538, 450, 0, []
1628600307.5027, 2, 0, 4103.59, 4151.282, 4090.256, 4175.897, 4143.59, 16201, 0, []
1628600307.5106, 3, 0, 4092.308, 4167.692, 4088.718, 4178.974, 4140, 450, 0, []
1628600307.5186, 4, 0, 4084.615, 4157.436, 4123.59, 4182.564, 4135.385, 16152, 0, []
1628600307.5265, 5, 0, 4092.308, 4147.179, 4093.333, 4164.103, 4130.769, 450, 0, []
1628600307.5345, 6, 0, 4104.103, 4168.205, 4133.846, 4190.256, 4136.41, 148, 0, []
1628600307.5423, 7, 0, 4115.385, 4188.718, 4128.718, 4171.282, 4155.897, 450, 0, []
1628600307.5501, 8, 0, 4133.846, 4194.872, 4125.128, 4177.436, 4183.077, 450, 0, []
1628600307.558, 9, 0, 4145.128, 4187.179, 4149.744, 4205.641, 4189.744, 16211, 0, []
1628600307.5658, 10, 0, 4141.026, 4174.359, 4093.846, 4171.282, 4170.256, 450, 0, []
1628600307.5737, 11, 0, 4140, 4170.256, 4121.026, 4185.128, 4161.538, 16187, 0, []
1628600307.5814, 12, 0, 4141.026, 4163.59, 4117.436, 4175.385, 4159.487, 450, 0, []
1628600307.5893, 13, 0, 4131.282, 4149.231, 4091.282, 4158.462, 4145.128, 450, 0, []
1628600307.5971, 14, 0, 4137.436, 4157.436, 4134.359, 4181.538, 4149.231, 450, 0, []
1628600307.605, 15, 0, 4152.308, 4172.821, 4105.641, 4167.692, 4170.256, 16187, 0, []
1628600307.6128, 16, 0, 4152.821, 4164.615, 4114.872, 4176.923, 4168.205, 0, 0, []
1628600307.6207, 17, 0, 4153.846, 4160.513, 4116.923, 4172.308, 4162.051, 0, 0, []
1628600307.6286, 18, 0, 4167.692, 4174.872, 4108.718, 4174.359, 4168.205, 0, 0, []
1628600307.6366, 19, 0, 4173.333, 4181.538, 4137.436, 4189.744, 4163.077, 0, 0, []
1628600307.6445, 20, 0, 4161.026, 4164.103, 4087.179, 4146.667, 4147.179, 0, 0, []
1628600307.6525, 21, 0, 4154.872, 4147.692, 4111.282, 4168.718, 4148.205, 0, 0, []
1628600307.6603, 22, 0, 4155.385, 4151.282, 4123.077, 4185.641, 4150.256, 0, 0, []
1628600307.6683, 23, 0, 4154.359, 4160, 4088.718, 4168.718, 4145.641, 0, 0, []
1628600307.6762, 24, 0, 4171.282, 4156.923, 4132.308, 4191.795, 4161.026, 0, 0, []
1628600307.6842, 25, 0, 4193.333, 4146.154, 4104.615, 4164.103, 4183.077, 0, 0, []
1628600307.6921, 26, 0, 4191.282, 4135.897, 4111.282, 4161.538, 4182.564, 0, 0, []
1628600307.6998, 27, 0, 4174.359, 4143.077, 4117.436, 4167.179, 4171.282, 0, 0, []
1628600307.7077, 28, 0, 4166.154, 4161.538, 4083.077, 4158.462, 4163.077, 0, 0, []
1628600307.7155, 29, 0, 4171.282, 4170.256, 4133.846, 4183.077, 4161.026, 0, 0, []
1628600307.7234, 30, 0, 4178.974, 4167.692, 4107.692, 4146.154, 4164.103, 0, 0, []
1628600307.7312, 31, 0, 4175.897, 4157.436, 4095.897, 4144.103, 4163.59, 0, 0, []
1628600307.7391, 32, 0, 4172.308, 4157.436, 4115.385, 4165.641, 4156.923, 0, 0, []
1628600307.7468, 33, 0, 4179.487, 4176.41, 4081.538, 4141.026, 4158.974, 0, 0, []
1628600307.7548, 34, 0, 4183.077, 4183.077, 4116.41, 4151.795, 4165.641, 0, 0, []
1628600307.7627, 35, 0, 4175.385, 4158.974, 4095.897, 4138.462, 4153.333, 0, 0, []
1628600307.7707, 36, 0, 4164.615, 4156.41, 4084.103, 4149.231, 4132.821, 0, 0, []
1628600307.7786, 37, 0, 4157.949, 4172.308, 4106.154, 4164.103, 4134.872, 0, 0, []
1628600307.7865, 38, 0, 4156.923, 4154.872, 4074.359, 4142.564, 4147.692, 0, 0, []
1628600307.7944, 39, 0, 4165.641, 4141.538, 4108.205, 4167.179, 4149.744, 0, 0, []
1628600307.8024, 40, 0, 4166.154, 4151.282, 4093.333, 4152.821, 4140, 0, 0, []
1628600307.8103, 41, 0, 4163.59, 4146.667, 4099.487, 4154.872, 4138.974, 0, 0, []
1628600307.8183, 42, 0, 4181.538, 4143.077, 4142.564, 4179.487, 4153.333, 0, 0, []
1628600307.8261, 43, 0, 4200, 4171.282, 4087.692, 4155.897, 4166.154, 0, 0, []
1628600307.8341, 44, 0, 4195.385, 4186.154, 4108.205, 4175.385, 4171.795, 0, 0, []
1628600307.842, 45, 0, 4183.59, 4161.026, 4111.795, 4160.513, 4169.231, 0, 0, []
1628600307.8498, 46, 0, 4185.128, 4144.103, 4090.256, 4142.051, 4168.205, 0, 0, []
1628600307.8577, 47, 0, 4188.205, 4160.513, 4115.385, 4164.103, 4174.872, 0, 0, []
1628600307.8654, 48, 0, 4185.128, 4175.385, 4079.487, 4146.667, 4174.359, 0, 0, []
1628600307.8733, 49, 0, 4185.641, 4170.769, 4110.256, 4170.769, 4164.615, 0, 0, []
1628600307.8811, 50, 0, 4183.59, 4171.795, 4109.744, 4173.846, 4162.564, 0, 0, []
1628600307.889, 51, 0, 4181.538, 4170.769, 4072.821, 4160, 4163.59, 0, 0, []
1628600307.8968, 52, 0, 4187.179, 4168.205, 4102.564, 4181.538, 4162.564, 0, 0, []
1628600307.9046, 53, 0, 4189.231, 4175.385, 4066.667, 4157.436, 4162.564, 0, 0, []
1628600307.9124, 54, 0, 4182.564, 4161.026, 4088.718, 4164.615, 4158.974, 0, 0, []
1628600307.9203, 55, 0, 4178.974, 4140.513, 4102.564, 4167.179, 4155.385, 0, 0, []
1628600307.9281, 56, 0, 4186.154, 4150.256, 4070.769, 4158.974, 4165.641, 0, 0, []
1628600307.9361, 57, 0, 4191.795, 4139.487, 4105.641, 4181.538, 4177.436, 0, 0, []
1628600307.9439, 58, 0, 4178.462, 4105.128, 4073.333, 4153.333, 4158.974, 0, 0, []
1628600307.9519, 59, 0, 4168.205, 4125.128, 4086.154, 4165.128, 4148.718, 0, 0, []
1628600307.9598, 60, 0, 4179.487, 4162.564, 4110.256, 4178.462, 4164.103, 0, 0, []
1628600307.9678, 61, 0, 4180, 4145.128, 4084.103, 4161.538, 4158.974, 0, 0, []
1628600307.9757, 62, 0, 4173.333, 4127.692, 4128.718, 4182.051, 4144.615, 0, 0, []
1628600307.9836, 63, 0, 4183.59, 4151.795, 4106.154, 4163.077, 4162.051, 0, 0, []
1628600307.9915, 64, 0, 4185.641, 4156.923, 4102.051, 4174.359, 4177.436, 450, 0, []
1628600307.9995, 65, 0, 4171.282, 4142.051, 4117.949, 4183.59, 4165.128, 450, 0, []
1628600308.0074, 66, 0, 4167.179, 4145.641, 4080.513, 4158.974, 4158.974, 16197, 0, []
1628600308.0152, 67, 0, 4167.179, 4147.692, 4109.744, 4184.103, 4157.949, 450, 0, []
1628600308.023, 68, 0, 4166.154, 4145.641, 4076.923, 4162.051, 4153.846, 16152, 0, []
1628600308.0308, 69, 0, 4173.333, 4150.256, 4073.846, 4161.026, 4156.923, 450, 0, []
1628600308.0387, 70, 0, 4175.385, 4143.59, 4108.205, 4177.949, 4156.41, 146, 0, []
1628600308.0465, 71, 0, 4172.308, 4137.949, 4062.564, 4153.846, 4152.821, 450, 0, []
1628600308.0544, 72, 0, 4176.41, 4160, 4095.385, 4182.564, 4158.462, 450, 0, []
1628600308.0621, 73, 0, 4173.333, 4173.846, 4092.821, 4170.256, 4156.41, 16208, 0, []
1628600308.07, 74, 0, 4156.923, 4157.949, 4082.564, 4156.41, 4144.615, 450, 0, []
1628600308.0778, 75, 0, 4142.564, 4143.59, 4114.359, 4176.41, 4141.538, 16195, 0, []
1628600308.0857, 76, 0, 4134.359, 4140.513, 4070.256, 4155.385, 4133.846, 450, 0, []
1628600308.0935, 77, 0, 4134.872, 4134.872, 4094.359, 4170.256, 4128.205, 450, 0, []
1628600308.1014, 78, 0, 4148.205, 4134.359, 4100, 4165.128, 4142.051, 450, 0, []
1628600308.1093, 79, 0, 4155.897, 4147.179, 4083.077, 4165.641, 4154.359, 16195, 0, []
1628600308.1173, 80, 0, 4142.564, 4143.59, 4103.59, 4182.564, 4141.538, 450, 0, []
1628600308.1252, 81, 0, 4123.077, 4126.667, 4061.026, 4151.282, 4121.026, 450, 0, []
1628600308.1332, 82, 0, 4121.538, 4129.744, 4092.821, 4169.744, 4117.949, 450, 0, []
1628600308.141, 83, 0, 4140, 4140.513, 4102.051, 4171.795, 4138.974, 16195, 0, []
1628600308.149, 84, 0, 4157.436, 4137.949, 4077.436, 4159.487, 4153.846, 450, 0, []
1628600308.1569, 85, 0, 4155.897, 4140.513, 4122.051, 4182.564, 4144.615, 450, 0, []
1628600308.1647, 86, 0, 4149.231, 4139.487, 4096.41, 4158.462, 4136.923, 450, 0, []
1628600308.1726, 87, 0, 4152.821, 4123.077, 4106.667, 4174.359, 4145.641, 16195, 0, []
1628600308.1803, 88, 0, 4148.718, 4124.615, 4100, 4176.923, 4146.667, 450, 0, []
1628600308.1882, 89, 0, 4132.821, 4141.538, 4066.667, 4151.282, 4134.872, 450, 0, []
1628600308.196, 90, 0, 4141.026, 4157.949, 4118.462, 4171.795, 4135.897, 450, 0, []
1628600308.2039, 91, 0, 4159.487, 4161.538, 4086.154, 4148.718, 4145.641, 16195, 0, []
1628600308.2117, 92, 0, 4150.256, 4140.513, 4080, 4153.333, 4139.487, 450, 0, []
1628600308.2195, 93, 0, 4139.487, 4126.667, 4096.41, 4164.615, 4131.795, 450, 0, []
1628600308.2273, 94, 0, 4147.692, 4141.026, 4077.436, 4152.308, 4136.923, 450, 0, []
1628600308.2352, 95, 0, 4149.744, 4145.641, 4120.513, 4177.436, 4141.538, 16195, 0, []
1628600308.243, 96, 0, 4154.872, 4124.103, 4089.744, 4162.051, 4148.205, 450, 0, []
1628600308.251, 97, 0, 4172.821, 4110.769, 4100, 4174.872, 4163.59, 450, 0, []
1628600308.2588, 98, 0, 4171.282, 4118.462, 4125.641, 4183.59, 4164.615, 450, 0, []
1628600308.2668, 99, 0, 4156.923, 4133.333, 4077.436, 4155.385, 4155.897, 16195, 0, []
1628600308.2747, 100, 0, 4149.231, 4142.564, 4104.615, 4168.205, 4147.179, 450, 0, []
1628600308.2827, 101, 0, 4147.179, 4144.103, 4084.103, 4148.205, 4131.795, 450, 0, []
1628600308.2906, 102, 0, 4169.744, 4154.359, 4090.769, 4163.077, 4140, 450, 0, []
1628600308.2985, 103, 0, 4187.692, 4163.59, 4131.282, 4185.641, 4157.949, 16195, 0, []
1628600308.3064, 104, 0, 4167.179, 4142.051, 4084.103, 4158.462, 4135.385, 450, 0, []
1628600308.3144, 105, 0, 4163.077, 4123.077, 4103.077, 4181.538, 4120.513, 450, 0, []
1628600308.3223, 106, 0, 4189.744, 4144.103, 4090.769, 4165.641, 4147.179, 450, 0, []
1628600308.3301, 107, 0, 4190.769, 4152.821, 4082.564, 4151.795, 4164.103, 16195, 0, []
1628600308.3379, 108, 0, 4173.333, 4137.949, 4113.846, 4171.282, 4152.308, 450, 0, []
1628600308.3457, 109, 0, 4164.103, 4138.462, 4070.256, 4154.872, 4139.487, 450, 0, []
1628600308.3536, 110, 0, 4154.872, 4133.333, 4091.795, 4178.974, 4132.821, 450, 0, []
1628600308.3614, 111, 0, 4156.923, 4125.641, 4092.308, 4169.231, 4132.821, 16195, 0, []
1628600308.3693, 112, 0, 4167.179, 4159.487, 4092.821, 4162.564, 4141.026, 450, 0, []
1628600308.377, 113, 0, 4168.718, 4187.179, 4132.821, 4183.077, 4143.59, 450, 0, []
1628600308.3849, 114, 0, 4164.103, 4152.821, 4075.897, 4148.205, 4130.769, 450, 0, []
1628600308.3927, 115, 0, 4158.974, 4132.821, 4093.846, 4162.051, 4118.974, 16195, 0, []
1628600308.4007, 116, 0, 4156.41, 4158.462, 4107.692, 4167.179, 4127.179, 450, 0, []
1628600308.4086, 117, 0, 4152.821, 4154.872, 4075.897, 4154.359, 4131.795, 450, 0, []
1628600308.4165, 118, 0, 4151.282, 4128.718, 4105.128, 4171.795, 4121.026, 450, 0, []
1628600308.4244, 119, 0, 4156.41, 4148.205, 4080, 4149.744, 4119.487, 16195, 0, []
1628600308.4324, 120, 0, 4170.256, 4180, 4106.667, 4163.59, 4140, 450, 0, []
1628600308.4403, 121, 0, 4184.103, 4161.026, 4116.41, 4163.077, 4153.846, 450, 0, []
1628600308.4483, 122, 0, 4184.615, 4137.949, 4075.897, 4150.256, 4141.026, 450, 0, []
1628600308.4561, 123, 0, 4174.359, 4153.333, 4112.308, 4173.333, 4132.821, 16195, 0, []
1628600308.4641, 124, 0, 4157.949, 4165.641, 4091.282, 4152.821, 4135.385, 450, 0, []
1628600308.472, 125, 0, 4149.744, 4152.308, 4098.974, 4170.769, 4131.282, 450, 0, []
1628600308.4798, 126, 0, 4160, 4137.949, 4110.256, 4177.436, 4131.795, 450, 0, []
1628600308.4877, 127, 0, 4170.769, 4137.436, 4081.026, 4151.795, 4139.487, 16195, 0, []
1628600308.4955, 128, 0, 4163.59, 4151.282, 4121.026, 4183.59, 4137.949, 450, 0, []
1628600308.5033, 0, 0, 4150.256, 4154.872, 4086.667, 4164.103, 4126.154, 450, 0, []
1628600308.5111, 1, 0, 4148.205, 4141.026, 4085.641, 4157.436, 4125.128, 450, 0, []
1628600308.519, 2, 0, 4148.718, 4144.615, 4114.359, 4168.718, 4124.103, 16195, 0, []
1628600308.5268, 3, 0, 4146.154, 4152.821, 4073.846, 4147.692, 4123.077, 450, 0, []
1628600308.5347, 4, 0, 4152.821, 4140.513, 4104.103, 4170.256, 4136.41, 16164, 0, []
1628600308.5424, 5, 0, 4162.051, 4131.795, 4091.795, 4169.744, 4150.769, 450, 0, []
1628600308.5503, 6, 0, 4166.154, 4137.436, 4094.872, 4180, 4157.436, 159, 0, []
1628600308.5581, 7, 0, 4171.282, 4148.718, 4123.077, 4186.154, 4165.128, 450, 0, []
1628600308.5661, 8, 0, 4169.744, 4152.821, 4083.59, 4160.513, 4167.179, 450, 0, []
1628600308.574, 9, 0, 4155.385, 4129.744, 4114.872, 4184.615, 4147.179, 16204, 0, []
1628600308.5819, 10, 0, 4148.718, 4113.333, 4102.564, 4165.641, 4130.769, 450, 0, []
1628600308.5898, 11, 0, 4154.359, 4135.385, 4095.897, 4164.615, 4137.436, 16218, 0, []
1628600308.5978, 12, 0, 4157.949, 4144.103, 4135.897, 4187.692, 4140.513, 450, 0, []
1628600308.6057, 13, 0, 4155.385, 4138.462, 4098.462, 4153.333, 4133.846, 450, 0, []
1628600308.6137, 14, 0, 4160, 4164.615, 4127.692, 4166.667, 4137.436, 450, 0, []
1628600308.6215, 15, 0, 4165.641, 4180, 4124.103, 4165.641, 4138.462, 16218, 0, []
1628600308.6295, 16, 0, 4164.615, 4155.385, 4109.744, 4164.103, 4127.179, 0, 0, []
1628600308.6374, 17, 0, 4178.974, 4149.744, 4153.846, 4183.59, 4140.513, 0, 0, []
1628600308.6452, 18, 0, 4196.923, 4181.026, 4109.231, 4151.282, 4168.205, 0, 0, []
1628600308.6531, 19, 0, 4197.436, 4182.051, 4121.538, 4173.333, 4173.333, 0, 0, []
1628600308.6608, 20, 0, 4198.462, 4169.231, 4125.641, 4183.077, 4174.872, 0, 0, []
1628600308.6687, 21, 0, 4207.692, 4190.769, 4097.949, 4171.282, 4177.949, 0, 0, []
1628600308.6765, 22, 0, 4211.795, 4208.205, 4138.462, 4195.897, 4175.897, 0, 0, []
1628600308.6844, 23, 0, 4211.282, 4204.103, 4112.308, 4173.333, 4181.538, 0, 0, []
1628600308.6922, 24, 0, 4220, 4194.359, 4122.564, 4176.923, 4193.333, 0, 0, []
1628600308.7, 25, 0, 4228.205, 4185.641, 4116.41, 4172.308, 4195.897, 0, 0, []
1628600308.7078, 26, 0, 4233.333, 4185.128, 4088.718, 4156.923, 4200, 0, 0, []
1628600308.7158, 27, 0, 4233.846, 4193.846, 4142.564, 4183.59, 4206.667, 0, 0, []
1628600308.7237, 28, 0, 4230.256, 4187.692, 4099.487, 4157.949, 4192.821, 0, 0, []
1628600308.7317, 29, 0, 4230.769, 4169.744, 4081.538, 4160, 4182.564, 0, 0, []
1628600308.7395, 30, 0, 4236.923, 4180.513, 4103.077, 4166.667, 4193.333, 0, 0, []
1628600308.7475, 31, 0, 4244.615, 4202.051, 4091.282, 4156.41, 4195.385, 0, 0, []
1628600308.7554, 32, 0, 4248.205, 4201.026, 4129.231, 4187.692, 4192.308, 0, 0, []
1628600308.7634, 33, 0, 4249.231, 4190.256, 4089.231, 4166.154, 4200, 0, 0, []
1628600308.7713, 34, 0, 4236.41, 4181.026, 4084.103, 4168.718, 4190.769, 0, 0, []
1628600308.7792, 35, 0, 4228.205, 4184.103, 4109.744, 4174.359, 4174.872, 0, 0, []
1628600308.7871, 36, 0, 4245.128, 4185.128, 4068.205, 4150.256, 4188.205, 0, 0, []
1628600308.7949, 37, 0, 4250.256, 4161.538, 4099.487, 4174.872, 4198.974, 0, 0, []
1628600308.8028, 38, 0, 4237.436, 4151.795, 4085.641, 4152.308, 4185.128, 0, 0, []
1628600308.8106, 39, 0, 4237.949, 4168.718, 4083.59, 4156.41, 4184.103, 0, 0, []
1628600308.8184, 40, 0, 4246.154, 4165.641, 4110.769, 4178.462, 4190.769, 0, 0, []
1628600308.8262, 41, 0, 4237.436, 4160, 4073.333, 4142.564, 4187.692, 0, 0, []
1628600308.8341, 42, 0, 4238.974, 4184.103, 4109.231, 4161.026, 4197.436, 0, 0, []
1628600308.8419, 43, 0, 4257.436, 4195.385, 4094.359, 4165.641, 4212.308, 0, 0, []
1628600308.8498, 44, 0, 4257.949, 4178.462, 4080, 4166.667, 4202.564, 0, 0, []
1628600308.8575, 45, 0, 4246.667, 4163.59, 4119.487, 4182.564, 4186.667, 0, 0, []
1628600308.8655, 46, 0, 4240.513, 4148.718, 4077.436, 4160, 4187.179, 0, 0, []
1628600308.8734, 47, 0, 4250.769, 4152.308, 4096.923, 4172.308, 4195.897, 0, 0, []
1628600308.8814, 48, 0, 4276.923, 4158.462, 4097.436, 4169.231, 4210.256, 0, 0, []
1628600308.8893, 49, 0, 4315.385, 4150.769, 4090.769, 4180, 4242.564, 0, 0, []
1628600308.8972, 50, 0, 4366.154, 4158.462, 4125.641, 4196.41, 4290.769, 0, 0, []
1628600308.9051, 51, 0, 4423.077, 4168.718, 4075.897, 4149.231, 4335.385, 0, 0, []
1628600308.9131, 52, 0, 4486.667, 4175.897, 4101.026, 4161.538, 4385.641, 0, 0, []
1628600308.921, 53, 0, 4547.179, 4189.231, 4117.436, 4176.41, 4441.538, 0, 0, []
1628600308.929, 54, 0, 4573.333, 4174.359, 4089.231, 4173.333, 4463.077, 0, 0, []
1628600308.9368, 55, 0, 4561.538, 4145.641, 4115.897, 4189.231, 4448.718, 0, 0, []
1628600308.9446, 56, 0, 4539.487, 4158.462, 4068.718, 4148.718, 4433.846, 0, 0, []
1628600308.9525, 57, 0, 4524.615, 4169.231, 4084.103, 4153.846, 4420, 0, 0, []
1628600308.9603, 58, 0, 4505.641, 4157.436, 4115.897, 4172.308, 4398.974, 0, 0, []
1628600308.9682, 59, 0, 4472.821, 4172.308, 4086.667, 4164.103, 4375.897, 0, 0, []
1628600308.9759, 60, 0, 4434.872, 4172.821, 4109.231, 4171.795, 4349.744, 0, 0, []
1628600308.9838, 61, 0, 4406.154, 4154.359, 4076.923, 4144.615, 4322.051, 0, 0, []
1628600308.9916, 62, 0, 4385.128, 4166.667, 4092.308, 4171.795, 4310.256, 0, 0, []
1628600308.9995, 63, 0, 4361.538, 4169.231, 4111.282, 4181.538, 4305.128, 0, 0, []
1628600309.0073, 64, 0, 4333.333, 4152.308, 4075.897, 4143.077, 4282.564, 450, 0, []
1628600309.0152, 65, 0, 4319.487, 4163.59, 4114.872, 4168.205, 4265.128, 450, 0, []
1628600309.0231, 66, 0, 4314.359, 4171.795, 4090.256, 4164.615, 4259.487, 16188, 0, []
1628600309.0311, 67, 0, 4294.872, 4154.872, 4092.308, 4163.077, 4242.051, 450, 0, []
1628600309.039, 68, 0, 4266.154, 4156.923, 4109.744, 4163.077, 4217.436, 16156, 0, []
1628600309.047, 69, 0, 4251.795, 4159.487, 4066.154, 4147.692, 4203.077, 450, 0, []
1628600309.0548, 70, 0, 4250.256, 4148.718, 4110.769, 4177.949, 4196.41, 140, 0, []
1628600309.0628, 71, 0, 4234.872, 4161.026, 4088.718, 4151.282, 4178.974, 450, 0, []
1628600309.0707, 72, 0, 4218.462, 4175.385, 4070.769, 4154.359, 4167.692, 450, 0, []
1628600309.0787, 73, 0, 4223.077, 4164.103, 4111.282, 4189.744, 4173.846, 16212, 0, []
1628600309.0866, 74, 0, 4230.256, 4158.974, 4085.128, 4173.333, 4183.59, 450, 0, []
1628600309.0943, 75, 0, 4222.051, 4169.744, 4105.641, 4190.256, 4187.692, 16195, 0, []
1628600309.1022, 76, 0, 4214.872, 4171.282, 4088.205, 4165.641, 4185.641, 450, 0, []
1628600309.11, 77, 0, 4225.641, 4168.205, 4089.231, 4159.487, 4190.256, 450, 0, []
1628600309.1179, 78, 0, 4224.103, 4167.692, 4119.487, 4185.128, 4185.128, 450, 0, []
1628600309.1257, 79, 0, 4207.692, 4163.077, 4064.103, 4157.949, 4168.718, 16195, 0, []
1628600309.1335, 80, 0, 4214.359, 4169.744, 4095.385, 4177.949, 4169.744, 450, 0, []
1628600309.1413, 81, 0, 4226.154, 4188.205, 4103.59, 4178.974, 4176.41, 450, 0, []
1628600309.1492, 82, 0, 4208.718, 4186.154, 4079.487, 4169.231, 4170.256, 450, 0, []
1628600309.157, 83, 0, 4195.385, 4173.333, 4108.718, 4182.051, 4165.641, 16195, 0, []
1628600309.1649, 84, 0, 4208.205, 4165.641, 4079.487, 4154.359, 4173.333, 450, 0, []
1628600309.1726, 85, 0, 4211.795, 4163.077, 4111.795, 4171.282, 4172.821, 450, 0, []
1628600309.1806, 86, 0, 4205.128, 4173.333, 4109.231, 4173.846, 4164.103, 450, 0, []
1628600309.1885, 87, 0, 4196.41, 4163.077, 4073.846, 4158.462, 4153.333, 16195, 0, []
1628600309.1965, 88, 0, 4184.615, 4143.59, 4115.897, 4172.308, 4144.103, 450, 0, []
1628600309.2044, 89, 0, 4188.718, 4156.41, 4082.051, 4149.231, 4146.154, 450, 0, []
1628600309.2123, 90, 0, 4204.103, 4172.821, 4090.769, 4167.179, 4157.436, 450, 0, []
1628600309.22, 91, 0, 4196.41, 4166.154, 4094.872, 4166.154, 4155.897, 16195, 0, []
1628600309.228, 92, 0, 4174.359, 4156.923, 4055.897, 4145.641, 4134.872, 450, 0, []
1628600309.2359, 93, 0, 4180, 4163.077, 4103.077, 4181.026, 4138.462, 450, 0, []
1628600309.2439, 94, 0, 4192.821, 4164.615, 4087.179, 4163.59, 4159.487, 450, 0, []
1628600309.2518, 95, 0, 4178.462, 4155.897, 4081.538, 4161.538, 4147.179, 16195, 0, []
1628600309.2595, 96, 0, 4158.462, 4150.769, 4088.718, 4169.744, 4124.103, 450, 0, []
1628600309.2674, 97, 0, 4163.59, 4151.282, 4078.462, 4161.538, 4134.359, 450, 0, []
1628600309.2752, 98, 0, 4172.308, 4148.205, 4130.769, 4185.128, 4145.128, 450, 0, []
1628600309.2831, 99, 0, 4165.641, 4156.923, 4091.282, 4156.41, 4135.897, 16195, 0, []
1628600309.2909, 100, 0, 4171.795, 4190.256, 4096.923, 4163.59, 4138.974, 450, 0, []
1628600309.2987, 101, 0, 4182.051, 4194.872, 4129.231, 4182.564, 4147.692, 450, 0, []
1628600309.3065, 102, 0, 4167.179, 4172.821, 4068.718, 4156.923, 4136.41, 450, 0, []
1628600309.3144, 103, 0, 4156.41, 4166.154, 4099.487, 4177.436, 4127.179, 16195, 0, []
1628600309.3222, 104, 0, 4173.846, 4158.462, 4103.077, 4170.256, 4139.487, 450, 0, []
1628600309.3302, 105, 0, 4182.564, 4151.795, 4089.744, 4177.436, 4149.744, 450, 0, []
1628600309.338, 106, 0, 4165.641, 4161.538, 4104.615, 4184.615, 4141.026, 450, 0, []
1628600309.346, 107, 0, 4149.744, 4164.103, 4076.41, 4150.769, 4128.205, 16195, 0, []
1628600309.3539, 108, 0, 4147.692, 4170.769, 4114.872, 4172.821, 4120.513, 450, 0, []
1628600309.3619, 109, 0, 4153.846, 4187.179, 4097.949, 4162.051, 4124.103, 450, 0, []
1628600309.3698, 110, 0, 4158.974, 4181.538, 4086.667, 4162.051, 4132.821, 450, 0, []
1628600309.3777, 111, 0, 4172.821, 4188.718, 4131.282, 4197.436, 4150.769, 16195, 0, []
1628600309.3856, 112, 0, 4200, 4234.359, 4099.487, 4178.974, 4173.333, 450, 0, []
1628600309.3936, 113, 0, 4223.077, 4247.692, 4131.795, 4192.821, 4190.769, 450, 0, []
1628600309.4015, 114, 0, 4226.154, 4230.256, 4130.256, 4192.821, 4201.026, 450, 0, []
1628600309.4095, 115, 0, 4225.641, 4241.538, 4110.256, 4191.282, 4210.256, 16195, 0, []
1628600309.4173, 116, 0, 4243.59, 4255.385, 4157.436, 4208.718, 4228.718, 450, 0, []
1628600309.4251, 117, 0, 4255.385, 4254.359, 4121.026, 4172.821, 4236.41, 450, 0, []
1628600309.433, 118, 0, 4238.974, 4264.103, 4120, 4186.667, 4215.385, 450, 0, []
1628600309.4408, 119, 0, 4221.538, 4264.615, 4112.308, 4197.949, 4197.949, 16195, 0, []
1628600309.4487, 120, 0, 4230.769, 4245.641, 4099.487, 4187.179, 4208.205, 450, 0, []
1628600309.4564, 121, 0, 4241.026, 4249.231, 4143.59, 4198.974, 4221.538, 450, 0, []
1628600309.4643, 122, 0, 4230.256, 4250.256, 4100.513, 4176.41, 4214.872, 450, 0, []
1628600309.4721, 123, 0, 4227.692, 4224.615, 4118.462, 4196.923, 4213.846, 16195, 0, []
1628600309.4801, 124, 0, 4236.41, 4236.923, 4138.462, 4191.795, 4219.487, 450, 0, []
1628600309.488, 125, 0, 4227.692, 4253.333, 4104.103, 4176.41, 4207.692, 450, 0, []
1628600309.4959, 126, 0, 4213.333, 4233.846, 4137.949, 4216.41, 4198.974, 450, 0, []
1628600309.5038, 127, 0, 4218.462, 4246.154, 4106.667, 4194.872, 4209.744, 16195, 0, []
1628600309.5118, 128, 0, 4227.692, 4272.308, 4112.821, 4193.846, 4215.897, 450, 0, []
1628600309.5197, 0, 0, 4226.154, 4265.641, 4126.667, 4191.795, 4206.154, 450, 0, []
1628600309.5277, 1, 0, 4227.179, 4254.872, 4089.231, 4173.846, 4209.744, 450, 0, []
1628600309.5355, 2, 0, 4232.308, 4244.103, 4129.231, 4205.641, 4223.077, 16175, 0, []
1628600309.5435, 3, 0, 4230.769, 4240, 4103.59, 4183.077, 4217.436, 450, 0, []
1628600309.5514, 4, 0, 4229.231, 4258.974, 4108.205, 4184.103, 4213.846, 16158, 0, []
1628600309.5592, 5, 0, 4231.282, 4243.59, 4145.128, 4206.154, 4227.179, 450, 0, []
1628600309.5671, 6, 0, 4228.718, 4204.103, 4106.667, 4195.385, 4233.333, 141, 0, []
1628600309.5749, 7, 0, 4228.205, 4223.59, 4131.282, 4217.949, 4229.744, 450, 0, []
1628600309.5828, 8, 0, 4234.359, 4245.128, 4110.769, 4194.359, 4227.692, 450, 0, []
1628600309.5906, 9, 0, 4229.744, 4218.462, 4108.205, 4187.692, 4216.41, 16227, 0, []
1628600309.5985, 10, 0, 4219.487, 4211.282, 4141.538, 4201.026, 4201.538, 450, 0, []
1628600309.6063, 11, 0, 4224.103, 4231.795, 4101.538, 4176.41, 4200.513, 16201, 0, []
1628600309.6141, 12, 0, 4233.333, 4232.821, 4131.795, 4205.128, 4205.641, 450, 0, []
1628600309.6219, 13, 0, 4229.231, 4230.769, 4115.385, 4205.128, 4207.692, 450, 0, []
1628600309.6298, 14, 0, 4221.026, 4244.615, 4104.615, 4196.923, 4207.179, 450, 0, []
1628600309.6376, 15, 0, 4222.564, 4243.59, 4153.333, 4215.385, 4206.667, 16201, 0, []
1628600309.6456, 16, 0, 4225.128, 4237.436, 4116.41, 4192.308, 4201.538, 0, 0, []
1628600309.6534, 17, 0, 4229.744, 4245.641, 4144.615, 4201.026, 4202.051, 0, 0, []
1628600309.6614, 18, 0, 4236.923, 4248.205, 4161.026, 4195.385, 4212.308, 0, 0, []
1628600309.6693, 19, 0, 4240, 4248.718, 4152.308, 4201.026, 4214.359, 0, 0, []
1628600309.6773, 20, 0, 4245.641, 4267.179, 4183.077, 4225.641, 4212.821, 0, 0, []
1628600309.6852, 21, 0, 4247.692, 4275.897, 4141.538, 4184.615, 4210.769, 0, 0, []
1628600309.6931, 22, 0, 4236.923, 4248.205, 4161.026, 4188.718, 4200.513, 0, 0, []
1628600309.701, 23, 0, 4225.128, 4232.821, 4165.128, 4186.667, 4183.077, 0, 0, []
1628600309.709, 24, 0, 4222.564, 4238.974, 4138.974, 4176.41, 4175.385, 0, 0, []
1628600309.7169, 25, 0, 4230.769, 4235.897, 4176.41, 4206.154, 4188.718, 0, 0, []
1628600309.7249, 26, 0, 4244.615, 4241.538, 4145.128, 4191.282, 4203.077, 0, 0, []
1628600309.7327, 27, 0, 4251.282, 4265.128, 4154.872, 4207.692, 4204.615, 0, 0, []
1628600309.7405, 28, 0, 4247.692, 4271.795, 4154.359, 4194.872, 4196.41, 0, 0, []
1628600309.7484, 29, 0, 4241.026, 4252.821, 4119.487, 4171.282, 4188.205, 0, 0, []
1628600309.7562, 30, 0, 4236.41, 4229.231, 4160.513, 4211.795, 4182.564, 0, 0, []
1628600309.7641, 31, 0, 4236.41, 4231.795, 4125.641, 4188.718, 4177.436, 0, 0, []
1628600309.7718, 32, 0, 4242.564, 4265.641, 4135.385, 4190.769, 4182.051, 0, 0, []
1628600309.7797, 33, 0, 4254.359, 4269.744, 4157.436, 4208.718, 4195.897, 0, 0, []
1628600309.7875, 34, 0, 4263.077, 4234.359, 4117.436, 4188.718, 4200.513, 0, 0, []
1628600309.7954, 35, 0, 4253.333, 4228.205, 4154.872, 4202.564, 4189.744, 0, 0, []
1628600309.8032, 36, 0, 4232.821, 4232.308, 4125.641, 4182.051, 4171.795, 0, 0, []
1628600309.8111, 37, 0, 4238.974, 4225.641, 4118.462, 4189.231, 4182.051, 0, 0, []
1628600309.819, 38, 0, 4269.744, 4242.564, 4151.282, 4203.077, 4209.744, 0, 0, []
1628600309.827, 39, 0, 4273.333, 4245.128, 4121.026, 4186.154, 4206.667, 0, 0, []
1628600309.8349, 40, 0, 4256.923, 4222.051, 4152.821, 4210.769, 4193.846, 0, 0, []
1628600309.8429, 41, 0, 4255.897, 4234.872, 4135.385, 4188.718, 4197.436, 0, 0, []
1628600309.8507, 42, 0, 4254.359, 4252.308, 4131.282, 4182.564, 4194.872, 0, 0, []
1628600309.8587, 43, 0, 4250.256, 4227.692, 4155.897, 4192.308, 4187.692, 0, 0, []
1628600309.8666, 44, 0, 4254.359, 4213.846, 4113.333, 4162.051, 4191.795, 0, 0, []
1628600309.8746, 45, 0, 4258.462, 4233.333, 4148.205, 4185.641, 4193.333, 0, 0, []
1628600309.8825, 46, 0, 4249.231, 4235.385, 4135.385, 4182.051, 4183.077, 0, 0, []
1628600309.8902, 47, 0, 4239.487, 4218.462, 4105.641, 4174.359, 4178.974, 0, 0, []
1628600309.8981, 48, 0, 4235.897, 4215.385, 4129.231, 4184.615, 4179.487, 0, 0, []
1628600309.9059, 49, 0, 4225.641, 4212.308, 4090.256, 4157.436, 4168.205, 0, 0, []
1628600309.9138, 50, 0, 4226.667, 4218.462, 4122.564, 4178.974, 4165.128, 0, 0, []
1628600309.9216, 51, 0, 4244.103, 4248.205, 4133.846, 4178.462, 4187.692, 0, 0, []
1628600309.9294, 52, 0, 4248.718, 4254.872, 4120.513, 4176.41, 4201.538, 0, 0, []
1628600309.9372, 53, 0, 4236.923, 4231.795, 4152.821, 4200, 4189.231, 0, 0, []
1628600309.9451, 54, 0, 4231.795, 4229.744, 4109.744, 4176.41, 4182.051, 0, 0, []
1628600309.9529, 55, 0, 4230.256, 4230.769, 4129.744, 4189.744, 4176.923, 0, 0, []
1628600309.9609, 56, 0, 4227.692, 4203.59, 4140, 4185.128, 4167.179, 0, 0, []
1628600309.9688, 57, 0, 4245.641, 4202.051, 4121.026, 4178.462, 4182.051, 0, 0, []
1628600309.9767, 58, 0, 4256.41, 4228.205, 4148.718, 4203.077, 4195.385, 0, 0, []
1628600309.9846, 59, 0, 4229.231, 4230.769, 4090.769, 4164.615, 4171.795, 0, 0, []
1628600309.9926, 60, 0, 4212.308, 4221.538, 4107.692, 4172.308, 4148.718, 0, 0, []
1628600310.0005, 61, 0, 4226.154, 4222.051, 4135.897, 4184.615, 4158.462, 0, 0, []
1628600310.0085, 62, 0, 4237.949, 4240.513, 4102.051, 4165.128, 4177.436, 0, 0, []
1628600310.0163, 63, 0, 4234.872, 4249.744, 4132.821, 4182.564, 4176.41, 0, 0, []
1628600310.0243, 64, 0, 4229.744, 4227.179, 4103.077, 4165.128, 4169.231, 450, 0, []
1628600310.0322, 65, 0, 4237.949, 4223.077, 4116.41, 4184.103, 4180, 450, 0, []
1628600310.0402, 66, 0, 4249.744, 4253.846, 4142.564, 4197.949, 4193.333, 16184, 0, []
1628600310.0481, 67, 0, 4245.128, 4241.538, 4104.103, 4170.256, 4188.205, 450, 0, []
1628600310.0558, 68, 0, 4234.872, 4196.41, 4137.949, 4193.846, 4176.41, 16161, 0, []
1628600310.0637, 69, 0, 4237.436, 4212.308, 4120, 4186.154, 4176.923, 450, 0, []
1628600310.0715, 70, 0, 4238.974, 4235.385, 4123.077, 4188.205, 4181.026, 142, 0, []
1628600310.0794, 71, 0, 4235.385, 4219.487, 4134.872, 4186.667, 4175.897, 450, 0, []
1628600310.0872, 72, 0, 4230.769, 4223.59, 4082.051, 4160.513, 4164.103, 450, 0, []
1628600310.095, 73, 0, 4220.513, 4225.128, 4120.513, 4186.154, 4161.538, 16226, 0, []
1628600310.1028, 74, 0, 4225.128, 4204.103, 4122.051, 4169.744, 4166.667, 450, 0, []
1628600310.1108, 75, 0, 4242.051, 4196.41, 4127.692, 4179.487, 4174.872, 16154, 0, []
1628600310.1187, 76, 0, 4246.667, 4202.564, 4153.846, 4206.667, 4192.821, 450, 0, []
1628600310.1267, 77, 0, 4235.897, 4206.154, 4101.026, 4175.385, 4192.308, 450, 0, []
1628600310.1345, 78, 0, 4218.974, 4212.821, 4117.436, 4188.718, 4174.872, 450, 0, []
1628600310.1425, 79, 0, 4209.231, 4208.205, 4104.615, 4179.487, 4173.846, 16154, 0, []
1628600310.1504, 80, 0, 4206.667, 4190.256, 4098.974, 4180, 4176.41, 450, 0, []
1628600310.1584, 81, 0, 4204.615, 4184.103, 4138.974, 4194.872, 4164.615, 450, 0, []
1628600310.1663, 82, 0, 4198.462, 4173.846, 4098.974, 4160.513, 4156.923, 450, 0, []
1628600310.1742, 83, 0, 4203.077, 4167.692, 4122.051, 4182.564, 4168.718, 16154, 0, []
1628600310.1821, 84, 0, 4215.385, 4198.974, 4120, 4188.205, 4181.538, 450, 0, []
1628600310.1899, 85, 0, 4211.282, 4216.923, 4103.59, 4179.487, 4180, 450, 0, []
1628600310.1978, 86, 0, 4209.231, 4196.41, 4143.59, 4194.872, 4175.385, 450, 0, []
1628600310.2057, 87, 0, 4212.821, 4196.41, 4100, 4163.59, 4173.846, 16154, 0, []
1628600310.2134, 88, 0, 4207.692, 4216.923, 4119.487, 4174.872, 4167.179, 450, 0, []
1628600310.2212, 89, 0, 4202.051, 4209.744, 4128.205, 4178.462, 4162.051, 450, 0, []
1628600310.2291, 90, 0, 4208.205, 4181.026, 4094.872, 4172.821, 4173.846, 450, 0, []
1628600310.2369, 91, 0, 4210.769, 4179.487, 4134.872, 4200.513, 4182.051, 16154, 0, []
1628600310.2449, 92, 0, 4198.974, 4195.897, 4107.692, 4180.513, 4164.615, 450, 0, []
1628600310.2527, 93, 0, 4193.846, 4203.077, 4123.59, 4190.769, 4152.308, 450, 0, []
1628600310.2607, 94, 0, 4197.949, 4207.179, 4134.359, 4188.718, 4165.641, 450, 0, []
1628600310.2686, 95, 0, 4194.359, 4203.077, 4096.41, 4170.256, 4169.231, 16154, 0, []
1628600310.2766, 96, 0, 4185.641, 4195.385, 4127.692, 4200, 4157.949, 450, 0, []
1628600310.2845, 97, 0, 4189.744, 4197.949, 4103.59, 4178.974, 4160.513, 450, 0, []
1628600310.2924, 98, 0, 4200, 4206.154, 4118.974, 4187.692, 4166.667, 450, 0, []
1628600310.3003, 99, 0, 4202.051, 4204.615, 4132.821, 4195.897, 4164.615, 16154, 0, []
1628600310.3083, 100, 0, 4210.256, 4203.59, 4101.026, 4169.231, 4172.821, 450, 0, []
1628600310.3162, 101, 0, 4225.128, 4208.205, 4155.385, 4192.308, 4191.795, 450, 0, []
1628600310.3241, 102, 0, 4223.59, 4202.051, 4131.795, 4174.359, 4190.256, 450, 0, []
1628600310.3319, 103, 0, 4202.564, 4193.333, 4108.718, 4170.769, 4174.359, 16154, 0, []
1628600310.3397, 104, 0, 4183.077, 4184.615, 4121.538, 4182.564, 4163.59, 450, 0, []
1628600310.3476, 105, 0, 4186.667, 4175.897, 4098.462, 4175.385, 4168.205, 450, 0, []
1628600310.3554, 106, 0, 4207.179, 4180.513, 4140.513, 4200.513, 4188.205, 450, 0, []
1628600310.3633, 107, 0, 4211.795, 4189.231, 4108.205, 4174.872, 4197.949, 16154, 0, []
1628600310.371, 108, 0, 4196.923, 4187.179, 4092.308, 4171.795, 4185.641, 450, 0, []
1628600310.3789, 109, 0, 4191.282, 4182.051, 4136.41, 4183.077, 4172.821, 450, 0, []
1628600310.3867, 110, 0, 4195.897, 4182.051, 4103.59, 4149.744, 4168.205, 450, 0, []
1628600310.3946, 111, 0, 4202.051, 4182.564, 4129.744, 4175.385, 4175.385, 16154, 0, []
1628600310.4024, 112, 0, 4205.641, 4185.128, 4119.487, 4176.41, 4190.256, 450, 0, []
1628600310.4103, 113, 0, 4197.949, 4197.436, 4107.692, 4176.41, 4185.641, 450, 0, []
1628600310.4182, 114, 0, 4188.718, 4201.538, 4137.949, 4201.026, 4168.205, 450, 0, []
1628600310.4262, 115, 0, 4182.564, 4191.795, 4087.179, 4170.769, 4158.974, 16154, 0, []
1628600310.4341, 116, 0, 4178.462, 4189.231, 4114.359, 4175.385, 4156.41, 450, 0, []
1628600310.4421, 117, 0, 4178.462, 4182.564, 4116.41, 4167.692, 4154.872, 450, 0, []
1628600310.4499, 118, 0, 4164.103, 4161.026, 4083.077, 4162.564, 4143.59, 450, 0, []
1628600310.4579, 119, 0, 4159.487, 4168.718, 4117.436, 4183.59, 4136.41, 16154, 0, []
1628600310.4658, 120, 0, 4193.846, 4210.256, 4092.821, 4163.077, 4157.436, 450, 0, []
1628600310.4738, 121, 0, 4215.897, 4212.821, 4112.308, 4185.128, 4178.462, 450, 0, []
1628600310.4817, 122, 0, 4200.513, 4183.59, 4111.282, 4183.59, 4169.744, 450, 0, []
1628600310.4894, 123, 0, 4191.795, 4181.538, 4096.923, 4172.308, 4161.026, 16154, 0, []
1628600310.4973, 124, 0, 4196.923, 4188.718, 4145.641, 4198.974, 4164.103, 450, 0, []
1628600310.5051, 125, 0, 4183.077, 4174.872, 4097.436, 4168.718, 4149.231, 450, 0, []
1628600310.513, 126, 0, 4169.231, 4168.205, 4097.949, 4178.974, 4138.462, 450, 0, []
1628600310.5208, 127, 0, 4167.179, 4187.179, 4101.026, 4185.641, 4145.641, 16154, 0, []
1628600310.5286, 128, 0, 4168.205, 4196.923, 4066.667, 4166.154, 4149.744, 450, 0, []
1628600310.5364, 0, 0, 4182.564, 4187.179, 4130.256, 4197.949, 4161.026, 450, 0, []
1628600310.5443, 1, 0, 4182.051, 4181.026, 4117.436, 4184.103, 4167.179, 450, 0, []
1628600310.5521, 2, 0, 4169.744, 4193.846, 4113.846, 4185.641, 4159.487, 16186, 0, []
1628600310.5601, 3, 0, 4175.897, 4198.462, 4131.795, 4189.744, 4165.641, 450, 0, []
1628600310.5679, 4, 0, 4188.205, 4164.103, 4099.487, 4169.231, 4174.359, 16155, 0, []
1628600310.5759, 5, 0, 4185.641, 4139.487, 4122.564, 4186.154, 4160, 450, 0, []
1628600310.5838, 6, 0, 4183.59, 4167.179, 4093.846, 4170.769, 4156.41, 147, 0, []
1628600310.5918, 7, 0, 4187.179, 4191.795, 4104.103, 4186.154, 4172.308, 450, 0, []
1628600310.5997, 8, 0, 4175.385, 4181.026, 4127.179, 4186.667, 4162.564, 450, 0, []
1628600310.6076, 9, 0, 4167.179, 4174.872, 4086.667, 4148.205, 4141.538, 16219, 0, []
1628600310.6155, 10, 0, 4182.564, 4189.744, 4138.462, 4187.179, 4153.333, 450, 0, []
1628600310.6235, 11, 0, 4192.821, 4193.333, 4127.179, 4184.615, 4166.667, 16178, 0, []
1628600310.6314, 12, 0, 4182.051, 4170.256, 4096.923, 4169.744, 4152.308, 450, 0, []
1628600310.6392, 13, 0, 4176.923, 4159.487, 4123.077, 4181.026, 4148.718, 450, 0, []
1628600310.647, 14, 0, 4189.744, 4183.59, 4101.026, 4167.692, 4165.641, 450, 0, []
1628600310.6548, 15, 0, 4204.103, 4197.949, 4133.333, 4197.436, 4177.949, 16178, 0, []
1628600310.6627, 16, 0, 4208.205, 4183.59, 4114.359, 4187.692, 4182.051, 0, 0, []
1628600310.6705, 17, 0, 4192.821, 4180, 4090.256, 4171.282, 4173.846, 0, 0, []
1628600310.6784, 18, 0, 4178.974, 4191.795, 4122.051, 4186.667, 4157.949, 0, 0, []
1628600310.6861, 19, 0, 4182.051, 4185.128, 4091.282, 4167.179, 4155.385, 0, 0, []
1628600310.694, 20, 0, 4181.026, 4172.821, 4116.41, 4177.436, 4163.077, 0, 0, []
1628600310.7018, 21, 0, 4168.205, 4181.538, 4108.205, 4163.59, 4153.846, 0, 0, []
1628600310.7098, 22, 0, 4166.154, 4177.949, 4092.308, 4163.59, 4146.667, 0, 0, []
1628600310.7177, 23, 0, 4175.385, 4154.872, 4137.949, 4187.179, 4158.974, 0, 0, []
1628600310.7256, 24, 0, 4180, 4165.128, 4093.846, 4151.795, 4167.179, 0, 0, []
1628600310.7333, 25, 0, 4181.026, 4192.308, 4109.231, 4177.436, 4167.692, 0, 0, []
1628600310.7413, 26, 0, 4178.974, 4176.41, 4118.974, 4189.744, 4165.641, 0, 0, []
1628600310.7492, 27, 0, 4170.256, 4151.282, 4075.897, 4161.538, 4156.923, 0, 0, []
1628600310.7572, 28, 0, 4185.641, 4171.795, 4111.795, 4183.59, 4171.282, 0, 0, []
1628600310.7651, 29, 0, 4228.718, 4204.615, 4108.718, 4186.154, 4211.282, 0, 0, []
1628600310.773, 30, 0, 4248.718, 4198.462, 4137.949, 4204.615, 4230.769, 0, 0, []
1628600310.7809, 31, 0, 4263.077, 4179.487, 4133.846, 4193.333, 4237.436, 0, 0, []
1628600310.7889, 32, 0, 4315.385, 4192.821, 4093.333, 4163.077, 4266.154, 0, 0, []
1628600310.7968, 33, 0, 4356.41, 4205.641, 4143.59, 4188.205, 4290.256, 0, 0, []
1628600310.8046, 34, 0, 4348.205, 4192.308, 4113.333, 4175.897, 4281.026, 0, 0, []
1628600310.8124, 35, 0, 4335.385, 4176.923, 4114.359, 4191.282, 4263.077, 0, 0, []
1628600310.8202, 36, 0, 4338.974, 4178.462, 4143.077, 4200, 4257.949, 0, 0, []
1628600310.8281, 37, 0, 4328.205, 4189.231, 4111.282, 4175.385, 4244.103, 0, 0, []
1628600310.8359, 38, 0, 4297.949, 4211.282, 4149.744, 4195.385, 4212.308, 0, 0, []
1628600310.8438, 39, 0, 4262.564, 4227.179, 4127.179, 4167.179, 4180, 0, 0, []
1628600310.8515, 40, 0, 4228.205, 4196.923, 4113.333, 4163.59, 4150.769, 0, 0, []
1628600310.8594, 41, 0, 4194.872, 4154.872, 4128.205, 4174.872, 4115.897, 0, 0, []
1628600310.8672, 42, 0, 4185.128, 4162.564, 4098.462, 4149.744, 4103.077, 0, 0, []
1628600310.8751, 43, 0, 4210.256, 4197.436, 4144.615, 4176.41, 4126.154, 0, 0, []
1628600310.8829, 44, 0, 4218.462, 4202.564, 4126.667, 4164.103, 4136.41, 0, 0, []
1628600310.8908, 45, 0, 4200, 4195.897, 4116.923, 4155.385, 4120.513, 0, 0, []
1628600310.8987, 46, 0, 4197.949, 4205.128, 4147.179, 4165.641, 4109.744, 0, 0, []
1628600310.9067, 47, 0, 4198.462, 4208.205, 4102.564, 4147.179, 4108.205, 0, 0, []
1628600310.9146, 48, 0, 4186.667, 4196.923, 4133.846, 4177.949, 4105.641, 0, 0, []
1628600310.9226, 49, 0, 4180.513, 4184.103, 4130.769, 4168.205, 4101.538, 0, 0, []
1628600310.9304, 50, 0, 4185.128, 4178.974, 4117.949, 4163.59, 4107.692, 0, 0, []
1628600310.9384, 51, 0, 4190.769, 4184.615, 4144.103, 4178.974, 4111.795, 0, 0, []
1628600310.9463, 52, 0, 4183.59, 4195.385, 4090.769, 4139.487, 4092.308, 0, 0, []
1628600310.9543, 53, 0, 4161.538, 4198.974, 4112.821, 4147.692, 4072.821, 0, 0, []
1628600310.9622, 54, 0, 4158.974, 4198.462, 4118.462, 4151.282, 4078.462, 0, 0, []
1628600310.9699, 55, 0, 4181.026, 4202.051, 4107.179, 4158.462, 4091.795, 0, 0, []
1628600310.9778, 56, 0, 4183.59, 4205.128, 4144.615, 4180, 4094.359, 0, 0, []
1628600310.9856, 57, 0, 4165.128, 4188.718, 4098.974, 4152.308, 4085.641, 0, 0, []
1628600310.9935, 58, 0, 4161.538, 4172.308, 4123.59, 4171.795, 4074.872, 0, 0, []
1628600311.0013, 59, 0, 4173.333, 4191.282, 4134.359, 4166.667, 4079.487, 0, 0, []
1628600311.0091, 60, 0, 4175.897, 4201.538, 4097.949, 4147.179, 4088.718, 0, 0, []
1628600311.0169, 61, 0, 4176.41, 4189.744, 4131.282, 4170.256, 4095.385, 0, 0, []
1628600311.0248, 62, 0, 4185.641, 4198.974, 4104.615, 4152.308, 4104.103, 0, 0, []
1628600311.0326, 63, 0, 4185.128, 4204.103, 4120.513, 4172.308, 4100, 0, 0, []
1628600311.0406, 64, 0, 4178.462, 4192.821, 4125.128, 4174.872, 4088.205, 450, 0, []
1628600311.0484, 65, 0, 4175.897, 4194.359, 4095.385, 4151.282, 4089.744, 450, 0, []
1628600311.0564, 66, 0, 4154.872, 4195.897, 4122.564, 4168.718, 4070.769, 16186, 0, []
1628600311.0643, 67, 0, 4117.949, 4165.641, 4060.513, 4129.744, 4026.667, 450, 0, []
1628600311.0723, 68, 0, 4111.282, 4149.231, 4071.282, 4141.538, 4023.077, 16165, 0, []
1628600311.0802, 69, 0, 4129.744, 4166.154, 4117.436, 4171.282, 4052.308, 450, 0, []
1628600311.0881, 70, 0, 4131.282, 4171.795, 4080, 4150.769, 4052.308, 149, 0, []
1628600311.096, 71, 0, 4134.359, 4176.923, 4118.974, 4175.385, 4048.718, 450, 0, []
1628600311.104, 72, 0, 4146.667, 4189.231, 4102.051, 4164.103, 4066.154, 450, 0, []
1628600311.1119, 73, 0, 4144.615, 4195.385, 4092.308, 4156.41, 4071.282, 16212, 0, []
1628600311.1199, 74, 0, 4142.564, 4186.154, 4115.897, 4162.564, 4068.718, 450, 0, []
1628600311.1277, 75, 0, 4151.795, 4169.744, 4085.128, 4152.821, 4073.846, 16211, 0, []
1628600311.1355, 76, 0, 4156.41, 4167.179, 4123.59, 4180.513, 4080, 450, 0, []
1628600311.1434, 77, 0, 4154.872, 4185.128, 4108.718, 4157.436, 4084.103, 450, 0, []
1628600311.1512, 78, 0, 4144.615, 4190.769, 4094.872, 4152.308, 4082.051, 450, 0, []
1628600311.1591, 79, 0, 4130.769, 4158.974, 4117.949, 4163.59, 4071.282, 16211, 0, []
1628600311.1668, 80, 0, 4125.128, 4147.179, 4078.974, 4143.59, 4060.513, 450, 0, []
1628600311.1747, 81, 0, 4131.282, 4177.949, 4111.282, 4181.538, 4058.974, 450, 0, []
1628600311.1825, 82, 0, 4140, 4192.821, 4089.744, 4170.769, 4066.667, 450, 0, []
1628600311.1904, 83, 0, 4149.744, 4186.667, 4071.282, 4153.846, 4078.974, 16211, 0, []
1628600311.1982, 84, 0, 4153.846, 4184.103, 4124.103, 4175.897, 4087.692, 450, 0, []
1628600311.206, 85, 0, 4167.692, 4174.359, 4091.795, 4142.564, 4096.41, 450, 0, []
1628600311.2139, 86, 0, 4235.385, 4181.538, 4116.41, 4154.359, 4146.667, 450, 0, []
1628600311.2217, 87, 0, 4319.487, 4210.769, 4111.795, 4165.641, 4224.615, 16211, 0, []
1628600311.2297, 88, 0, 4355.385, 4208.205, 4077.949, 4162.564, 4270.769, 450, 0, []
1628600311.2376, 89, 0, 4388.718, 4191.795, 4116.41, 4173.333, 4296.923, 450, 0, []
1628600311.2454, 90, 0, 4436.923, 4208.205, 4094.872, 4152.308, 4334.359, 450, 0, []
1628600311.2534, 91, 0, 4434.872, 4214.872, 4114.872, 4181.026, 4352.308, 16211, 0, []
1628600311.2613, 92, 0, 4385.641, 4184.103, 4102.051, 4175.385, 4325.128, 450, 0, []
1628600311.2693, 93, 0, 4362.564, 4181.538, 4077.949, 4148.205, 4294.872, 450, 0, []
1628600311.2772, 94, 0, 4355.385, 4219.487, 4135.897, 4177.436, 4282.564, 450, 0, []
1628600311.2849, 95, 0, 4320.513, 4224.103, 4097.949, 4160, 4261.538, 16211, 0, []
1628600311.2928, 96, 0, 4284.103, 4197.949, 4095.897, 4169.231, 4232.308, 450, 0, []
1628600311.3006, 97, 0, 4261.026, 4203.59, 4104.103, 4170.256, 4214.872, 450, 0, []
1628600311.3085, 98, 0, 4248.718, 4232.308, 4081.538, 4154.872, 4206.667, 450, 0, []
1628600311.3163, 99, 0, 4246.154, 4235.385, 4125.128, 4184.103, 4204.103, 16211, 0, []
1628600311.3241, 100, 0, 4249.231, 4224.103, 4090.256, 4160.513, 4207.692, 450, 0, []
1628600311.3319, 101, 0, 4251.795, 4226.154, 4102.051, 4168.205, 4209.231, 450, 0, []
1628600311.3398, 102, 0, 4242.564, 4225.641, 4131.282, 4180.513, 4202.051, 450, 0, []
1628600311.3476, 103, 0, 4218.462, 4215.897, 4088.718, 4160.513, 4185.128, 16211, 0, []
1628600311.3556, 104, 0, 4200.513, 4207.179, 4116.923, 4186.154, 4172.308, 450, 0, []
1628600311.3634, 105, 0, 4201.026, 4212.821, 4089.231, 4171.795, 4171.282, 450, 0, []
1628600311.3714, 106, 0, 4197.949, 4222.051, 4088.718, 4176.923, 4172.821, 450, 0, []
1628600311.3793, 107, 0, 4202.051, 4214.872, 4125.641, 4183.077, 4176.41, 16211, 0, []
1628600311.3873, 108, 0, 4222.051, 4205.641, 4088.718, 4156.923, 4183.59, 450, 0, []
1628600311.3952, 109, 0, 4227.179, 4203.077, 4110.256, 4183.59, 4181.026, 450, 0, []
1628600311.4031, 110, 0, 4215.385, 4201.538, 4097.949, 4174.359, 4174.872, 450, 0, []
1628600311.411, 111, 0, 4202.051, 4200, 4101.538, 4183.59, 4173.333, 16211, 0, []
1628600311.419, 112, 0, 4189.744, 4204.103, 4132.821, 4193.846, 4162.051, 450, 0, []
1628600311.4269, 113, 0, 4178.462, 4200, 4086.154, 4147.692, 4149.231, 450, 0, []
1628600311.4349, 114, 0, 4172.308, 4176.923, 4103.077, 4165.641, 4145.128, 450, 0, []
1628600311.4427, 115, 0, 4166.154, 4175.897, 4085.128, 4165.128, 4137.949, 16211, 0, []
1628600311.4505, 116, 0, 4164.103, 4199.487, 4085.128, 4158.462, 4141.026, 450, 0, []
1628600311.4584, 117, 0, 4171.795, 4196.41, 4124.615, 4174.359, 4156.41, 450, 0, []
1628600311.4662, 118, 0, 4170.256, 4190.256, 4067.179, 4151.282, 4156.41, 450, 0, []
1628600311.4741, 119, 0, 4158.462, 4208.718, 4090.256, 4173.846, 4143.077, 16211, 0, []
1628600311.4819, 120, 0, 4153.846, 4207.179, 4106.667, 4178.462, 4138.462, 450, 0, []
1628600311.4897, 121, 0, 4154.872, 4180.513, 4089.231, 4169.744, 4136.923, 450, 0, []
1628600311.4975, 122, 0, 4157.949, 4181.538, 4118.462, 4184.615, 4131.282, 450, 0, []
1628600311.5055, 123, 0, 4161.538, 4193.846, 4083.077, 4158.974, 4126.667, 16211, 0, []
1628600311.5134, 124, 0, 4153.333, 4175.897, 4100.513, 4168.205, 4122.051, 450, 0, []
1628600311.5214, 125, 0, 4146.667, 4158.462, 4098.462, 4168.205, 4128.718, 450, 0, []
1628600311.5292, 126, 0, 4156.923, 4162.051, 4078.462, 4167.692, 4140.513, 450, 0, []
1628600311.5372, 127, 0, 4155.385, 4175.385, 4127.179, 4192.821, 4134.872, 16211, 0, []
1628600311.5451, 128, 0, 4135.385, 4188.205, 4087.179, 4163.59, 4116.41, 450, 0, []
1628600311.5531, 0, 0, 4134.359, 4185.641, 4088.205, 4176.41, 4118.462, 450, 0, []
1628600311.561, 1, 0, 4146.667, 4177.436, 4101.538, 4178.462, 4127.692, 450, 0, []
1628600311.5689, 2, 0, 4133.846, 4161.538, 4066.667, 4151.282, 4115.385, 16189, 0, []
1628600311.5768, 3, 0, 4123.59, 4157.436, 4101.538, 4173.846, 4107.179, 450, 0, []
1628600311.5847, 4, 0, 4121.538, 4171.795, 4076.41, 4162.051, 4106.667, 16167, 0, []
1628600311.5926, 5, 0, 4102.564, 4170.769, 4081.026, 4174.359, 4089.231, 450, 0, []
1628600311.6004, 6, 0, 4093.846, 4160.513, 4100, 4177.436, 4078.462, 156, 0, []
1628600311.6082, 7, 0, 4105.641, 4169.744, 4075.385, 4156.41, 4087.692, 450, 0, []
1628600311.616, 8, 0, 4110.256, 4171.795, 4120, 4187.692, 4095.385, 450, 0, []
1628600311.6239, 9, 0, 4111.795, 4159.487, 4088.205, 4163.077, 4096.923, 16214, 0, []
1628600311.6317, 10, 0, 4118.462, 4170.769, 4082.564, 4153.333, 4102.051, 450, 0, []
1628600311.6396, 11, 0, 4116.923, 4191.282, 4111.795, 4170.769, 4102.564, 16205, 0, []
1628600311.6473, 12, 0, 4122.564, 4192.821, 4077.436, 4158.974, 4100, 450, 0, []
1628600311.6552, 13, 0, 4137.949, 4181.026, 4114.359, 4178.974, 4109.744, 450, 0, []
1628600311.663, 14, 0, 4136.923, 4169.231, 4087.692, 4154.359, 4120.513, 450, 0, []
1628600311.671, 15, 0, 4125.641, 4183.59, 4080, 4155.897, 4115.385, 16205, 0, []
1628600311.6789, 16, 0, 4124.103, 4199.487, 4120.513, 4181.538, 4105.641, 0, 0, []
1628600311.6868, 17, 0, 4122.564, 4182.051, 4069.231, 4153.846, 4105.641, 0, 0, []
1628600311.6947, 18, 0, 4116.41, 4167.179, 4092.821, 4168.205, 4107.692, 0, 0, []
1628600311.7027, 19, 0, 4117.949, 4182.051, 4090.769, 4160, 4106.154, 0, 0, []
1628600311.7106, 20, 0, 4116.41, 4197.949, 4070.256, 4155.385, 4100.513, 0, 0, []
1628600311.7186, 21, 0, 4107.692, 4209.231, 4098.974, 4170.769, 4095.385, 0, 0, []
1628600311.7264, 22, 0, 4112.821, 4218.462, 4071.795, 4148.718, 4098.462, 0, 0, []
1628600311.7342, 23, 0, 4122.564, 4204.615, 4103.077, 4176.41, 4099.487, 0, 0, []
1628600311.7421, 24, 0, 4116.41, 4190.256, 4092.821, 4168.205, 4094.359, 0, 0, []
1628600311.75, 25, 0, 4116.41, 4196.923, 4073.846, 4157.436, 4102.051, 0, 0, []
1628600311.7579, 26, 0, 4126.154, 4202.564, 4121.538, 4186.667, 4112.308, 0, 0, []
1628600311.7656, 27, 0, 4118.974, 4197.436, 4085.641, 4157.949, 4097.436, 0, 0, []
1628600311.7735, 28, 0, 4126.154, 4195.897, 4110.256, 4167.692, 4092.821, 0, 0, []
1628600311.7813, 29, 0, 4156.41, 4208.205, 4119.487, 4169.231, 4122.564, 0, 0, []
1628600311.7892, 30, 0, 4161.538, 4217.436, 4083.59, 4154.359, 4135.897, 0, 0, []
1628600311.797, 31, 0, 4151.282, 4224.615, 4113.846, 4176.923, 4127.179, 0, 0, []
1628600311.8048, 32, 0, 4150.256, 4248.205, 4075.897, 4155.897, 4121.538, 0, 0, []
1628600311.8126, 33, 0, 4137.436, 4240.513, 4084.103, 4171.282, 4113.333, 0, 0, []
1628600311.8206, 34, 0, 4119.487, 4212.821, 4104.103, 4170.769, 4095.385, 0, 0, []
1628600311.8285, 35, 0, 4111.282, 4220.513, 4079.487, 4147.692, 4084.615, 0, 0, []
1628600311.8365, 36, 0, 4110.769, 4232.308, 4119.487, 4178.974, 4092.308, 0, 0, []
1628600311.8443, 37, 0, 4109.744, 4212.308, 4089.744, 4154.872, 4094.872, 0, 0, []
1628600311.8523, 38, 0, 4102.564, 4206.154, 4090.256, 4154.872, 4082.564, 0, 0, []
1628600311.8602, 39, 0, 4107.692, 4223.59, 4103.59, 4178.974, 4090.256, 0, 0, []
1628600311.8682, 40, 0, 4121.538, 4212.821, 4068.718, 4174.359, 4110.769, 0, 0, []
1628600311.8761, 41, 0, 4121.026, 4196.923, 4108.205, 4192.821, 4105.128, 0, 0, []
1628600311.884, 42, 0, 4105.128, 4196.41, 4078.462, 4156.923, 4079.487, 0, 0, []
1628600311.8919, 43, 0, 4102.564, 4192.308, 4084.103, 4156.923, 4073.333, 0, 0, []
1628600311.8999, 44, 0, 4115.385, 4194.872, 4120.513, 4185.128, 4082.564, 0, 0, []
1628600311.9078, 45, 0, 4116.41, 4196.923, 4072.821, 4164.615, 4077.949, 0, 0, []
1628600311.9156, 46, 0, 4110.769, 4188.205, 4099.487, 4182.051, 4073.333, 0, 0, []
1628600311.9234, 47, 0, 4105.128, 4166.667, 4091.795, 4170.769, 4064.103, 0, 0, []
1628600311.9312, 48, 0, 4100.513, 4153.333, 4103.077, 4174.359, 4055.385, 0, 0, []
1628600311.9391, 49, 0, 4110.769, 4148.718, 4146.154, 4189.231, 4075.385, 0, 0, []
1628600311.9469, 50, 0, 4129.231, 4147.179, 4103.59, 4163.59, 4111.795, 0, 0, []
1628600311.9549, 51, 0, 4134.872, 4158.462, 4127.179, 4185.128, 4130.769, 0, 0, []
1628600311.9627, 52, 0, 4130.256, 4157.436, 4109.231, 4164.615, 4124.615, 0, 0, []
1628600311.9706, 53, 0, 4130.256, 4148.718, 4080.513, 4152.821, 4115.385, 0, 0, []
1628600311.9784, 54, 0, 4133.333, 4158.974, 4115.385, 4184.615, 4119.487, 0, 0, []
1628600311.9864, 55, 0, 4135.897, 4175.897, 4103.077, 4172.308, 4130.769, 0, 0, []
1628600311.9943, 56, 0, 4140.513, 4175.897, 4133.846, 4197.436, 4131.282, 0, 0, []
1628600312.0022, 57, 0, 4135.897, 4160, 4106.667, 4178.974, 4113.846, 0, 0, []
1628600312.0101, 58, 0, 4123.077, 4145.641, 4075.897, 4143.077, 4094.872, 0, 0, []
1628600312.0181, 59, 0, 4121.538, 4147.179, 4117.949, 4161.026, 4086.667, 0, 0, []
1628600312.026, 60, 0, 4123.077, 4153.333, 4078.974, 4146.667, 4080.513, 0, 0, []
1628600312.034, 61, 0, 4122.564, 4153.333, 4094.359, 4165.128, 4074.872, 0, 0, []
1628600312.0418, 62, 0, 4132.308, 4149.744, 4102.564, 4169.744, 4084.615, 0, 0, []
1628600312.0497, 63, 0, 4145.641, 4144.615, 4082.051, 4160.513, 4097.436, 0, 0, []
1628600312.0576, 64, 0, 4153.846, 4143.077, 4117.436, 4185.128, 4105.641, 450, 0, []
1628600312.0654, 65, 0, 4160, 4151.795, 4080, 4161.538, 4110.256, 450, 0, []
1628600312.0733, 66, 0, 4159.487, 4158.974, 4104.615, 4177.436, 4113.333, 16175, 0, []
1628600312.081, 67, 0, 4158.462, 4152.308, 4121.538, 4179.487, 4110.769, 450, 0, []
1628600312.0889, 68, 0, 4162.051, 4143.59, 4077.949, 4154.359, 4106.667, 16185, 0, []
1628600312.0967, 69, 0, 4160.513, 4137.436, 4121.538, 4188.205, 4106.667, 450, 0, []
1628600312.1046, 70, 0, 4156.923, 4132.308, 4108.205, 4179.487, 4108.718, 154, 0, []
1628600312.1124, 71, 0, 4166.667, 4121.538, 4107.179, 4181.026, 4109.744, 450, 0, []
1628600312.1202, 72, 0, 4174.359, 4115.385, 4112.821, 4174.359, 4113.333, 450, 0, []
1628600312.128, 73, 0, 4173.333, 4140.513, 4078.462, 4149.231, 4120, 16221, 0, []
1628600312.136, 74, 0, 4175.385, 4154.872, 4120.513, 4187.179, 4121.026, 450, 0, []
1628600312.1439, 75, 0, 4175.897, 4133.846, 4090.769, 4167.692, 4113.333, 16205, 0, []
1628600312.1519, 76, 0, 4185.641, 4126.154, 4081.538, 4156.923, 4121.538, 450, 0, []
1628600312.1597, 77, 0, 4200, 4140.513, 4114.872, 4171.282, 4134.359, 450, 0, []
1628600312.1677, 78, 0, 4193.333, 4129.744, 4081.026, 4149.744, 4122.051, 450, 0, []
1628600312.1756, 79, 0, 4182.051, 4107.692, 4109.231, 4169.231, 4107.692, 16205, 0, []
1628600312.1836, 80, 0, 4184.103, 4111.795, 4094.872, 4154.872, 4114.359, 450, 0, []
1628600312.1915, 81, 0, 4191.282, 4101.026, 4097.949, 4155.385, 4125.641, 450, 0, []
1628600312.1994, 82, 0, 4189.231, 4078.974, 4128.205, 4173.846, 4120.513, 450, 0, []
1628600312.2073, 83, 0, 4170.256, 4086.154, 4073.846, 4146.154, 4099.487, 16205, 0, []
1628600312.2151, 84, 0, 4156.41, 4095.897, 4108.205, 4172.308, 4095.385, 450, 0, []
1628600312.223, 85, 0, 4166.667, 4085.641, 4114.359, 4166.667, 4106.667, 450, 0, []
1628600312.2308, 86, 0, 4183.077, 4084.615, 4095.897, 4163.59, 4114.359, 450, 0, []
1628600312.2387, 87, 0, 4188.205, 4107.179, 4126.667, 4182.564, 4126.154, 16205, 0, []
1628600312.2464, 88, 0, 4189.744, 4117.949, 4086.667, 4153.846, 4141.538, 450, 0, []
1628600312.2543, 89, 0, 4195.897, 4103.59, 4102.564, 4183.59, 4146.154, 450, 0, []
1628600312.2621, 90, 0, 4197.436, 4089.744, 4101.026, 4184.103, 4141.026, 450, 0, []
1628600312.27, 91, 0, 4190.769, 4094.359, 4095.385, 4167.692, 4133.846, 16205, 0, []
1628600312.2778, 92, 0, 4184.103, 4101.538, 4131.795, 4187.692, 4128.205, 450, 0, []
1628600312.2857, 93, 0, 4184.615, 4102.564, 4088.205, 4160.513, 4131.282, 450, 0, []
1628600312.2936, 94, 0, 4183.59, 4116.923, 4117.436, 4174.359, 4134.359, 450, 0, []
1628600312.3016, 95, 0, 4177.949, 4120.513, 4127.179, 4170.256, 4133.846, 16205, 0, []
1628600312.3095, 96, 0, 4181.538, 4100, 4087.179, 4154.872, 4136.41, 450, 0, []
1628600312.3175, 97, 0, 4185.641, 4092.821, 4118.974, 4185.641, 4131.795, 450, 0, []
1628600312.3253, 98, 0, 4181.026, 4093.846, 4091.282, 4165.641, 4121.538, 450, 0, []
1628600312.3333, 99, 0, 4183.077, 4079.487, 4104.103, 4167.692, 4122.051, 16205, 0, []
1628600312.3412, 100, 0, 4187.179, 4069.231, 4112.308, 4170.256, 4131.282, 450, 0, []
1628600312.3492, 101, 0, 4178.462, 4077.436, 4075.897, 4165.128, 4132.308, 450, 0, []
1628600312.3571, 102, 0, 4172.308, 4093.846, 4108.205, 4181.538, 4124.103, 450, 0, []
1628600312.3648, 103, 0, 4178.974, 4094.359, 4073.846, 4144.103, 4123.59, 16205, 0, []
1628600312.3727, 104, 0, 4186.667, 4068.718, 4079.487, 4168.718, 4135.897, 450, 0, []
1628600312.3805, 105, 0, 4197.949, 4062.564, 4103.077, 4187.692, 4147.179, 450, 0, []
1628600312.3884, 106, 0, 4211.282, 4089.231, 4067.692, 4157.436, 4152.821, 450, 0, []
1628600312.3962, 107, 0, 4208.718, 4103.077, 4107.692, 4187.692, 4155.385, 16205, 0, []
1628600312.404, 108, 0, 4200, 4093.846, 4092.821, 4166.154, 4145.128, 450, 0, []
1628600312.4118, 109, 0, 4200, 4084.615, 4096.923, 4155.897, 4142.564, 450, 0, []
1628600312.4197, 110, 0, 4207.179, 4083.077, 4119.487, 4167.692, 4156.923, 450, 0, []
1628600312.4275, 111, 0, 4210.769, 4084.615, 4072.821, 4149.744, 4154.872, 16205, 0, []
1628600312.4354, 112, 0, 4203.077, 4070.256, 4114.359, 4178.462, 4141.538, 450, 0, []
1628600312.4431, 113, 0, 4189.744, 4055.385, 4105.641, 4161.026, 4136.41, 450, 0, []
1628600312.4511, 114, 0, 4180, 4070.256, 4083.077, 4152.308, 4126.667, 450, 0, []
1628600312.459, 115, 0, 4180, 4086.667, 4102.051, 4171.282, 4120.513, 16205, 0, []
1628600312.467, 116, 0, 4186.154, 4082.051, 4073.333, 4154.359, 4128.718, 450, 0, []
1628600312.4749, 117, 0, 4192.308, 4073.333, 4115.897, 4173.333, 4133.333, 450, 0, []
1628600312.4828, 118, 0, 4188.205, 4065.641, 4100.513, 4155.897, 4124.103, 450, 0, []
1628600312.4907, 119, 0, 4175.897, 4044.103, 4082.051, 4153.846, 4115.897, 16205, 0, []
1628600312.4987, 120, 0, 4175.897, 4038.974, 4123.077, 4176.923, 4119.487, 450, 0, []
1628600312.5066, 121, 0, 4187.692, 4069.231, 4082.051, 4151.795, 4131.795, 450, 0, []
1628600312.5144, 122, 0, 4196.41, 4085.641, 4101.026, 4179.487, 4142.564, 450, 0, []
1628600312.5222, 123, 0, 4197.436, 4083.077, 4094.872, 4170.769, 4145.128, 16205, 0, []
1628600312.53, 124, 0, 4201.538, 4087.692, 4073.846, 4153.333, 4149.231, 450, 0, []
1628600312.5379, 125, 0, 4203.077, 4078.974, 4120.513, 4179.487, 4156.41, 450, 0, []
1628600312.5457, 126, 0, 4189.231, 4061.026, 4087.179, 4156.923, 4157.436, 450, 0, []
1628600312.5536, 127, 0, 4181.538, 4072.821, 4097.436, 4174.872, 4160, 16205, 0, []
1628600312.5613, 128, 0, 4192.308, 4087.179, 4100, 4172.308, 4170.769, 450, 0, []
1628600312.5692, 0, 0, 4204.615, 4072.308, 4080, 4149.744, 4175.385, 450, 0, []
1628600312.577, 1, 0, 4201.538, 4051.795, 4118.462, 4168.718, 4163.59, 450, 0, []
1628600312.5849, 2, 0, 4197.436, 4055.385, 4085.641, 4149.744, 4155.897, 16194, 0, []
1628600312.5927, 3, 0, 4208.205, 4072.821, 4108.718, 4173.333, 4171.282, 450, 0, []
1628600312.6006, 4, 0, 4217.436, 4072.821, 4119.487, 4183.077, 4184.615, 16163, 0, []
1628600312.6085, 5, 0, 4213.333, 4050.769, 4078.462, 4165.641, 4175.897, 450, 0, []
1628600312.6165, 6, 0, 4210.769, 4040.513, 4126.154, 4191.795, 4171.795, 120, 0, []
1628600312.6244, 7, 0, 4218.462, 4052.821, 4104.615, 4164.103, 4185.128, 450, 0, []
1628600312.6324, 8, 0, 4217.436, 4063.59, 4092.821, 4161.026, 4188.205, 450, 0, []
1628600312.6402, 9, 0, 4202.564, 4054.359, 4092.308, 4166.667, 4170.769, 16194, 0, []
1628600312.6482, 10, 0, 4199.487, 4040.513, 4060.513, 4155.385, 4161.026, 450, 0, []
1628600312.6561, 11, 0, 4216.41, 4044.615, 4115.385, 4194.359, 4172.821, 16208, 0, []
1628600312.6641, 12, 0, 4221.026, 4050.769, 4098.462, 4168.718, 4174.359, 450, 0, []
1628600312.672, 13, 0, 4207.179, 4040, 4091.795, 4154.872, 4160.513, 450, 0, []
1628600312.6797, 14, 0, 4208.718, 4020, 4117.949, 4164.103, 4153.846, 450, 0, []
1628600312.6876, 15, 0, 4217.436, 4000, 4079.487, 4147.179, 4154.359, 16208, 0, []
1628600312.6954, 16, 0, 4207.179, 3998.974, 4107.692, 4177.436, 4156.41, 0, 0, []
1628600312.7033, 17, 0, 4194.872, 4002.564, 4090.769, 4168.718, 4156.41, 0, 0, []
1628600312.7111, 18, 0, 4195.897, 3997.436, 4087.692, 4174.872, 4153.846, 0, 0, []
1628600312.7189, 19, 0, 4204.615, 4016.41, 4118.462, 4184.103, 4160.513, 0, 0, []
1628600312.7267, 20, 0, 4200.513, 4032.308, 4068.718, 4151.795, 4167.692, 0, 0, []
1628600312.7347, 21, 0, 4182.051, 4004.615, 4100.513, 4186.154, 4156.41, 0, 0, []
1628600312.7426, 22, 0, 4187.179, 4004.615, 4111.282, 4182.051, 4155.385, 0, 0, []
1628600312.7506, 23, 0, 4216.41, 4030.769, 4104.615, 4170.769, 4178.462, 0, 0, []
1628600312.7584, 24, 0, 4225.641, 4027.179, 4134.359, 4186.667, 4192.308, 0, 0, []
1628600312.7664, 25, 0, 4212.821, 4033.846, 4093.333, 4159.487, 4185.641, 0, 0, []
1628600312.7743, 26, 0, 4198.974, 4038.974, 4109.231, 4177.949, 4174.359, 0, 0, []
1628600312.7823, 27, 0, 4194.872, 4016.923, 4093.846, 4170.256, 4166.667, 0, 0, []
1628600312.7902, 28, 0, 4206.667, 4034.359, 4080, 4160, 4175.897, 0, 0, []
1628600312.7981, 29, 0, 4224.615, 4073.333, 4129.231, 4184.103, 4190.769, 0, 0, []
1628600312.806, 30, 0, 4221.538, 4045.641, 4086.667, 4158.974, 4189.744, 0, 0, []
1628600312.814, 31, 0, 4202.051, 4006.667, 4107.179, 4174.359, 4180.513, 0, 0, []
1628600312.8219, 32, 0, 4192.308, 4026.667, 4124.615, 4175.385, 4172.308, 0, 0, []
1628600312.8297, 33, 0, 4198.974, 4047.179, 4087.179, 4163.59, 4164.615, 0, 0, []
1628600312.8375, 34, 0, 4207.179, 4043.077, 4106.667, 4182.564, 4166.667, 0, 0, []
1628600312.8453, 35, 0, 4195.897, 4027.179, 4067.692, 4154.872, 4162.564, 0, 0, []
1628600312.8532, 36, 0, 4181.026, 4013.333, 4085.641, 4174.359, 4148.205, 0, 0, []
1628600312.861, 37, 0, 4182.051, 4022.564, 4102.051, 4181.026, 4146.667, 0, 0, []
1628600312.8689, 38, 0, 4189.744, 4033.333, 4072.821, 4155.385, 4153.846, 0, 0, []
1628600312.8766, 39, 0, 4200, 4016.41, 4129.744, 4188.205, 4166.667, 0, 0, []
1628600312.8845, 40, 0, 4201.538, 4001.026, 4109.231, 4177.949, 4173.846, 0, 0, []
1628600312.8923, 41, 0, 4187.179, 4017.436, 4103.077, 4176.923, 4160.513, 0, 0, []
1628600312.9002, 42, 0, 4184.615, 4025.128, 4115.385, 4168.205, 4152.308, 0, 0, []
1628600312.908, 43, 0, 4198.462, 4016.41, 4084.103, 4149.231, 4167.692, 0, 0, []
1628600312.9159, 44, 0, 4196.41, 4017.436, 4117.436, 4185.128, 4175.385, 0, 0, []
1628600312.9238, 45, 0, 4184.103, 4019.487, 4076.41, 4156.923, 4162.564, 0, 0, []
1628600312.9318, 46, 0, 4194.359, 4017.949, 4075.897, 4159.487, 4173.333, 0, 0, []
1628600312.9397, 47, 0, 4211.282, 4014.872, 4124.103, 4192.821, 4195.385, 0, 0, []
1628600312.9477, 48, 0, 4200.513, 4018.974, 4093.333, 4172.308, 4182.051, 0, 0, []
1628600312.9556, 49, 0, 4181.538, 4029.744, 4116.41, 4177.436, 4156.923, 0, 0, []
1628600312.9635, 50, 0, 4186.667, 4034.872, 4095.385, 4156.41, 4157.949, 0, 0, []
1628600312.9714, 51, 0, 4197.436, 4030.769, 4094.872, 4172.821, 4170.769, 0, 0, []
1628600312.9794, 52, 0, 4191.282, 4030.256, 4121.026, 4197.436, 4173.846, 0, 0, []
1628600312.9873, 53, 0, 4181.026, 4045.128, 4066.667, 4160.513, 4165.128, 0, 0, []
1628600312.9951, 54, 0, 4181.026, 4048.718, 4097.436, 4183.077, 4154.359, 0, 0, []
1628600313.0029, 55, 0, 4186.154, 4031.795, 4101.026, 4185.128, 4158.462, 0, 0, []
1628600313.0107, 56, 0, 4189.231, 4023.59, 4091.282, 4183.59, 4167.179, 0, 0, []
1628600313.0186, 57, 0, 4185.128, 4035.385, 4123.077, 4195.385, 4163.59, 0, 0, []
1628600313.0264, 58, 0, 4182.564, 4050.769, 4091.282, 4165.641, 4163.59, 0, 0, []
1628600313.0343, 59, 0, 4201.026, 4073.333, 4135.385, 4194.359, 4183.077, 0, 0, []
1628600313.042, 60, 0, 4224.615, 4104.615, 4142.564, 4187.692, 4194.872, 0, 0, []
1628600313.05, 61, 0, 4222.564, 4097.949, 4108.718, 4164.103, 4182.564, 0, 0, []
1628600313.0579, 62, 0, 4215.897, 4071.282, 4133.333, 4180, 4168.718, 0, 0, []
1628600313.0659, 63, 0, 4233.333, 4073.846, 4100, 4159.487, 4173.846, 0, 0, []
1628600313.0738, 64, 0, 4272.308, 4095.897, 4128.718, 4181.026, 4211.282, 450, 0, []
1628600313.0817, 65, 0, 4330.769, 4106.667, 4129.744, 4169.744, 4258.462, 450, 0, []
1628600313.0896, 66, 0, 4402.051, 4098.462, 4090.769, 4151.282, 4294.872, 16190, 0, []
1628600313.0976, 67, 0, 4450.256, 4084.103, 4125.641, 4184.615, 4331.795, 450, 0, []
1628600313.1055, 68, 0, 4462.051, 4082.564, 4086.154, 4160, 4354.872, 16164, 0, []
1628600313.1135, 69, 0, 4477.436, 4099.487, 4092.821, 4165.128, 4349.231, 450, 0, []
1628600313.1213, 70, 0, 4493.333, 4103.077, 4115.897, 4173.333, 4338.974, 110, 0, []
1628600313.1291, 71, 0, 4469.231, 4087.692, 4095.897, 4164.615, 4325.128, 450, 0, []
1628600313.137, 72, 0, 4424.103, 4091.282, 4129.744, 4184.615, 4289.231, 450, 0, []
1628600313.1448, 73, 0, 4390.769, 4112.308, 4092.821, 4152.821, 4251.282, 16194, 0, []
1628600313.1527, 74, 0, 4347.692, 4112.821, 4103.59, 4165.128, 4218.974, 450, 0, []
1628600313.1604, 75, 0, 4295.385, 4097.436, 4123.077, 4174.872, 4177.436, 16194, 0, []
1628600313.1683, 76, 0, 4271.282, 4087.179, 4085.641, 4150.769, 4148.718, 450, 0, []
1628600313.1761, 77, 0, 4259.487, 4075.385, 4123.077, 4180.513, 4144.103, 450, 0, []
1628600313.184, 78, 0, 4232.821, 4074.872, 4093.333, 4168.205, 4130.769, 450, 0, []
1628600313.1918, 79, 0, 4214.872, 4089.231, 4089.231, 4168.205, 4108.205, 16194, 0, []
1628600313.1996, 80, 0, 4216.41, 4102.051, 4124.103, 4166.667, 4104.103, 450, 0, []
1628600313.2076, 81, 0, 4211.282, 4093.333, 4088.205, 4140, 4109.744, 450, 0, []
1628600313.2156, 82, 0, 4201.538, 4072.821, 4115.897, 4168.205, 4107.692, 450, 0, []
1628600313.2235, 83, 0, 4201.538, 4075.385, 4099.487, 4149.744, 4106.667, 16194, 0, []
1628600313.2315, 84, 0, 4200.513, 4077.949, 4095.897, 4145.641, 4112.821, 450, 0, []
1628600313.2393, 85, 0, 4193.333, 4067.179, 4121.026, 4164.103, 4115.385, 450, 0, []
1628600313.2473, 86, 0, 4187.692, 4072.821, 4093.333, 4154.872, 4105.128, 450, 0, []
1628600313.2552, 87, 0, 4188.205, 4087.692, 4117.949, 4169.231, 4090.769, 16194, 0, []
1628600313.2632, 88, 0, 4187.179, 4102.564, 4087.179, 4137.436, 4087.692, 450, 0, []
1628600313.2711, 89, 0, 4181.026, 4114.359, 4097.949, 4141.026, 4092.308, 450, 0, []
1628600313.2789, 90, 0, 4169.231, 4114.872, 4124.103, 4155.385, 4084.103, 450, 0, []
1628600313.2868, 91, 0, 4156.41, 4110.256, 4062.564, 4129.231, 4068.205, 16194, 0, []
1628600313.2946, 92, 0, 4147.692, 4111.282, 4104.103, 4165.128, 4065.128, 450, 0, []
1628600313.3025, 93, 0, 4152.308, 4113.333, 4105.128, 4165.128, 4077.949, 450, 0, []
1628600313.3103, 94, 0, 4174.872, 4125.128, 4092.308, 4171.795, 4103.59, 450, 0, []
1628600313.3181, 95, 0, 4195.897, 4144.615, 4127.179, 4190.256, 4124.103, 16194, 0, []
1628600313.3259, 96, 0, 4190.256, 4143.59, 4089.744, 4155.385, 4122.051, 450, 0, []
1628600313.3338, 97, 0, 4172.821, 4134.872, 4108.718, 4168.205, 4106.154, 450, 0, []
1628600313.3416, 98, 0, 4172.821, 4138.462, 4104.615, 4164.615, 4097.949, 450, 0, []
1628600313.3496, 99, 0, 4185.128, 4144.615, 4092.308, 4165.128, 4104.103, 16194, 0, []
1628600313.3574, 100, 0, 4186.154, 4153.846, 4119.487, 4183.077, 4113.333, 450, 0, []
1628600313.3654, 101, 0, 4181.026, 4163.077, 4085.128, 4159.487, 4113.333, 450, 0, []
1628600313.3733, 102, 0, 4186.154, 4152.308, 4108.205, 4172.821, 4111.282, 450, 0, []
1628600313.3813, 103, 0, 4191.282, 4131.282, 4098.974, 4155.897, 4111.282, 16194, 0, []
1628600313.3892, 104, 0, 4170.769, 4136.923, 4071.282, 4149.744, 4098.462, 450, 0, []
1628600313.3971, 105, 0, 4150.769, 4155.385, 4111.795, 4186.154, 4083.077, 450, 0, []
1628600313.405, 106, 0, 4157.949, 4148.718, 4082.051, 4160, 4084.103, 450, 0, []
1628600313.413, 107, 0, 4170.256, 4131.282, 4098.462, 4163.59, 4095.385, 16194, 0, []
1628600313.4209, 108, 0, 4168.205, 4138.462, 4112.821, 4166.667, 4102.564, 450, 0, []
1628600313.4289, 109, 0, 4165.128, 4150.256, 4086.667, 4149.744, 4105.128, 450, 0, []
1628600313.4367, 110, 0, 4173.846, 4156.41, 4118.974, 4166.154, 4107.692, 450, 0, []
1628600313.4445, 111, 0, 4183.077, 4163.59, 4089.231, 4152.308, 4113.333, 16194, 0, []
1628600313.4524, 112, 0, 4189.231, 4158.462, 4096.41, 4173.846, 4125.128, 450, 0, []
1628600313.4602, 113, 0, 4183.077, 4142.564, 4114.872, 4179.487, 4125.641, 450, 0, []
1628600313.4681, 114, 0, 4167.179, 4134.872, 4077.949, 4149.744, 4115.897, 450, 0, []
1628600313.4758, 115, 0, 4167.179, 4135.897, 4106.667, 4176.41, 4120.513, 16194, 0, []
1628600313.4837, 116, 0, 4173.846, 4140.513, 4085.641, 4171.795, 4126.154, 450, 0, []
1628600313.4915, 117, 0, 4167.179, 4142.564, 4078.462, 4168.718, 4118.462, 450, 0, []
1628600313.4994, 118, 0, 4166.154, 4127.692, 4105.641, 4173.846, 4121.538, 450, 0, []
1628600313.5072, 119, 0, 4182.051, 4110.769, 4074.872, 4157.949, 4147.692, 16194, 0, []
1628600313.515, 120, 0, 4191.282, 4108.718, 4095.897, 4183.077, 4168.205, 450, 0, []
1628600313.5228, 121, 0, 4184.615, 4101.026, 4078.974, 4167.179, 4159.487, 450, 0, []
1628600313.5308, 122, 0, 4180.513, 4091.795, 4070.769, 4155.897, 4147.692, 450, 0, []
1628600313.5387, 123, 0, 4185.128, 4105.128, 4118.462, 4178.462, 4159.487, 16194, 0, []
1628600313.5467, 124, 0, 4189.744, 4119.487, 4103.077, 4162.051, 4171.795, 450, 0, []
1628600313.5545, 125, 0, 4182.564, 4120, 4121.026, 4168.718, 4162.564, 450, 0, []
1628600313.5625, 126, 0, 4165.128, 4117.436, 4102.051, 4165.641, 4143.59, 450, 0, []
1628600313.5704, 127, 0, 4158.462, 4108.205, 4074.359, 4165.128, 4137.949, 16194, 0, []
1628600313.5784, 128, 0, 4168.718, 4112.821, 4113.333, 4183.077, 4148.718, 450, 0, []
1628600313.5863, 0, 0, 4176.923, 4126.667, 4089.231, 4173.333, 4158.974, 450, 0, []
1628600313.594, 1, 0, 4168.718, 4124.103, 4098.974, 4190.256, 4153.846, 450, 0, []
1628600313.6019, 2, 0, 4155.385, 4113.846, 4105.128, 4168.205, 4146.154, 16187, 0, []
1628600313.6097, 3, 0, 4152.821, 4117.436, 4082.564, 4140, 4148.205, 450, 0, []
1628600313.6176, 4, 0, 4152.308, 4126.667, 4100.513, 4161.026, 4138.462, 16164, 0, []
1628600313.6254, 5, 0, 4151.795, 4124.615, 4080, 4151.282, 4127.179, 450, 0, []
1628600313.6332, 6, 0, 4154.872, 4116.41, 4106.667, 4168.718, 4133.333, 143, 0, []
1628600313.641, 7, 0, 4156.41, 4104.615, 4102.051, 4168.718, 4136.923, 450, 0, []
1628600313.6489, 8, 0, 4155.897, 4103.077, 4064.103, 4153.846, 4138.974, 450, 0, []
1628600313.6567, 9, 0, 4157.436, 4112.308, 4110.769, 4179.487, 4153.333, 16216, 0, []
1628600313.6646, 10, 0, 4158.462, 4120, 4092.308, 4160.513, 4154.872, 450, 0, []
1628600313.6723, 11, 0, 4153.333, 4128.718, 4086.667, 4162.051, 4141.026, 16190, 0, []
1628600313.6803, 12, 0, 4152.821, 4135.897, 4098.974, 4164.103, 4136.923, 450, 0, []
1628600313.6882, 13, 0, 4157.949, 4126.667, 4073.333, 4145.128, 4140.513, 450, 0, []
1628600313.6962, 14, 0, 4166.154, 4108.205, 4114.359, 4173.846, 4149.744, 450, 0, []
1628600313.7041, 15, 0, 4173.846, 4113.333, 4103.59, 4159.487, 4157.436, 16190, 0, []
1628600313.7121, 16, 0, 4164.615, 4134.872, 4091.795, 4152.821, 4143.077, 0, 0, []
1628600313.7199, 17, 0, 4155.897, 4129.744, 4106.154, 4168.718, 4131.282, 0, 0, []
1628600313.7279, 18, 0, 4164.103, 4114.872, 4079.487, 4155.897, 4137.436, 0, 0, []
1628600313.7358, 19, 0, 4171.795, 4127.692, 4110.769, 4162.564, 4142.051, 0, 0, []
1628600313.7438, 20, 0, 4170.256, 4145.128, 4092.821, 4143.59, 4144.615, 0, 0, []
1628600313.7517, 21, 0, 4168.718, 4147.179, 4084.615, 4153.333, 4152.308, 0, 0, []
1628600313.7596, 22, 0, 4164.615, 4153.846, 4114.872, 4175.385, 4150.769, 0, 0, []
1628600313.7675, 23, 0, 4153.846, 4161.026, 4078.462, 4148.205, 4138.974, 0, 0, []
1628600313.7753, 24, 0, 4145.128, 4153.846, 4098.974, 4166.667, 4137.436, 0, 0, []
1628600313.7832, 25, 0, 4142.051, 4145.641, 4093.846, 4165.641, 4138.974, 0, 0, []
1628600313.791, 26, 0, 4141.538, 4148.205, 4084.103, 4153.846, 4134.872, 0, 0, []
1628600313.7988, 27, 0, 4142.564, 4155.897, 4114.359, 4163.59, 4138.462, 0, 0, []
1628600313.8066, 28, 0, 4156.923, 4155.385, 4082.564, 4152.821, 4155.897, 0, 0, []
1628600313.8145, 29, 0, 4174.359, 4144.103, 4106.667, 4176.41, 4172.308, 0, 0, []
1628600313.8223, 30, 0, 4167.692, 4136.923, 4095.385, 4156.41, 4165.128, 0, 0, []
1628600313.8302, 31, 0, 4169.744, 4138.974, 4069.231, 4141.026, 4160.513, 0, 0, []
1628600313.8379, 32, 0, 4234.872, 4155.897, 4113.846, 4169.231, 4210.256, 0, 0, []
1628600313.8459, 33, 0, 4328.205, 4176.41, 4086.154, 4150.769, 4293.333, 0, 0, []
1628600313.8538, 34, 0, 4402.051, 4162.051, 4093.846, 4169.231, 4358.462, 0, 0, []
1628600313.8618, 35, 0, 4458.462, 4136.923, 4108.205, 4178.462, 4401.538, 0, 0, []
1628600313.8697, 36, 0, 4494.359, 4142.051, 4096.41, 4166.154, 4433.333, 0, 0, []
1628600313.8776, 37, 0, 4513.333, 4156.923, 4122.564, 4184.103, 4450.256, 0, 0, []
1628600313.8855, 38, 0, 4503.59, 4157.949, 4086.154, 4159.487, 4438.462, 0, 0, []
1628600313.8935, 39, 0, 4456.41, 4149.231, 4091.795, 4162.051, 4409.231, 0, 0, []
1628600313.9014, 40, 0, 4412.308, 4138.974, 4095.897, 4172.821, 4383.59, 0, 0, []
1628600313.9094, 41, 0, 4386.667, 4127.692, 4074.872, 4159.487, 4354.872, 0, 0, []
1628600313.9172, 42, 0, 4367.692, 4114.359, 4113.333, 4172.308, 4333.846, 0, 0, []
1628600313.925, 43, 0, 4347.179, 4112.821, 4083.59, 4160, 4323.59, 0, 0, []
1628600313.9329, 44, 0, 4320, 4125.128, 4087.692, 4172.308, 4298.974, 0, 0, []
1628600313.9407, 45, 0, 4293.333, 4122.051, 4112.821, 4182.564, 4272.308, 0, 0, []
1628600313.9486, 46, 0, 4278.974, 4102.051, 4081.538, 4165.128, 4264.615, 0, 0, []
1628600313.9563, 47, 0, 4267.692, 4104.103, 4104.615, 4173.333, 4250.256, 0, 0, []
1628600313.9642, 48, 0, 4251.795, 4113.333, 4097.436, 4155.897, 4231.282, 0, 0, []
1628600313.972, 49, 0, 4242.051, 4095.385, 4108.718, 4161.026, 4227.179, 0, 0, []
1628600313.9799, 50, 0, 4233.846, 4092.308, 4121.026, 4168.205, 4220.513, 0, 0, []
1628600313.9877, 51, 0, 4231.795, 4114.359, 4095.385, 4156.41, 4215.897, 0, 0, []
1628600313.9956, 52, 0, 4229.231, 4106.154, 4134.359, 4174.872, 4215.897, 0, 0, []
1628600314.0035, 53, 0, 4219.487, 4087.179, 4108.205, 4149.744, 4208.205, 0, 0, []
1628600314.0115, 54, 0, 4222.564, 4112.308, 4091.282, 4156.41, 4210.256, 0, 0, []
1628600314.0194, 55, 0, 4227.179, 4140, 4113.333, 4177.436, 4215.385, 0, 0, []
1628600314.0274, 56, 0, 4217.949, 4115.897, 4073.846, 4150.769, 4201.026, 0, 0, []
1628600314.0352, 57, 0, 4209.231, 4100, 4102.051, 4174.359, 4187.179, 0, 0, []
1628600314.0432, 58, 0, 4201.538, 4120.513, 4099.487, 4173.333, 4187.179, 0, 0, []
1628600314.0511, 59, 0, 4186.667, 4124.615, 4082.051, 4172.308, 4183.59, 0, 0, []
1628600314.0591, 60, 0, 4182.051, 4116.923, 4105.641, 4192.308, 4185.128, 0, 0, []
1628600314.067, 61, 0, 4200, 4146.154, 4083.59, 4168.205, 4197.436, 0, 0, []
1628600314.0747, 62, 0, 4215.897, 4171.795, 4125.641, 4185.641, 4204.615, 0, 0, []
1628600314.0826, 63, 0, 4218.462, 4161.026, 4127.692, 4183.59, 4203.59, 0, 0, []
1628600314.0904, 64, 0, 4219.487, 4171.282, 4107.692, 4170.769, 4195.897, 450, 0, []
1628600314.0983, 65, 0, 4219.487, 4187.692, 4140, 4187.179, 4189.231, 450, 0, []
1628600314.1061, 66, 0, 4208.205, 4180, 4092.821, 4162.564, 4177.949, 16186, 0, []
1628600314.1139, 67, 0, 4198.462, 4189.231, 4097.436, 4167.179, 4171.795, 450, 0, []
1628600314.1217, 68, 0, 4200.513, 4199.487, 4116.41, 4162.564, 4171.795, 16164, 0, []
1628600314.1296, 69, 0, 4202.051, 4175.897, 4098.462, 4155.385, 4168.718, 450, 0, []
1628600314.1374, 70, 0, 4203.077, 4174.359, 4112.821, 4177.436, 4167.692, 148, 0, []
1628600314.1454, 71, 0, 4202.564, 4202.564, 4083.077, 4156.923, 4168.718, 450, 0, []
1628600314.1532, 72, 0, 4198.462, 4178.462, 4102.564, 4165.641, 4164.103, 450, 0, []
1628600314.1612, 73, 0, 4206.667, 4148.205, 4117.436, 4167.692, 4161.026, 16228, 0, []
1628600314.1691, 74, 0, 4214.872, 4176.41, 4096.923, 4155.385, 4168.718, 450, 0, []
1628600314.1771, 75, 0, 4214.872, 4191.282, 4122.564, 4176.923, 4177.436, 16198, 0, []
1628600314.185, 76, 0, 4214.359, 4164.103, 4086.154, 4161.538, 4174.872, 450, 0, []
1628600314.1928, 77, 0, 4214.872, 4161.538, 4091.795, 4174.359, 4166.154, 450, 0, []
1628600314.2006, 78, 0, 4214.872, 4180.513, 4107.179, 4182.564, 4166.154, 450, 0, []
1628600314.2086, 79, 0, 4216.923, 4173.846, 4078.974, 4162.051, 4176.923, 16198, 0, []
1628600314.2165, 80, 0, 4216.923, 4162.564, 4118.974, 4175.385, 4171.795, 450, 0, []
1628600314.2245, 81, 0, 4207.179, 4164.615, 4099.487, 4156.41, 4152.308, 450, 0, []
1628600314.2323, 82, 0, 4205.641, 4175.897, 4100.513, 4167.692, 4148.718, 450, 0, []
1628600314.2401, 83, 0, 4206.154, 4185.641, 4124.103, 4179.487, 4147.692, 16198, 0, []
1628600314.248, 84, 0, 4188.718, 4177.436, 4076.923, 4145.641, 4130.256, 450, 0, []
1628600314.2558, 85, 0, 4178.462, 4172.308, 4100, 4162.051, 4129.744, 450, 0, []
1628600314.2637, 86, 0, 4194.359, 4179.487, 4098.462, 4158.974, 4139.487, 450, 0, []
1628600314.2714, 87, 0, 4206.154, 4173.333, 4093.333, 4155.897, 4140, 16198, 0, []
1628600314.2793, 88, 0, 4201.538, 4159.487, 4106.667, 4158.462, 4142.564, 450, 0, []
1628600314.2871, 89, 0, 4208.205, 4170.769, 4077.436, 4141.538, 4152.308, 450, 0, []
1628600314.295, 90, 0, 4220.513, 4185.641, 4118.974, 4177.949, 4168.205, 450, 0, []
1628600314.3028, 91, 0, 4211.282, 4178.974, 4105.128, 4170.256, 4169.231, 16198, 0, []
1628600314.3107, 92, 0, 4194.872, 4171.282, 4071.795, 4153.333, 4150.256, 450, 0, []
1628600314.3186, 93, 0, 4193.846, 4184.103, 4096.923, 4165.128, 4137.436, 450, 0, []
1628600314.3266, 94, 0, 4201.026, 4203.59, 4082.051, 4150.256, 4142.051, 450, 0, []
1628600314.3345, 95, 0, 4203.077, 4201.026, 4105.641, 4167.692, 4151.795, 16198, 0, []
1628600314.3425, 96, 0, 4203.59, 4191.282, 4094.359, 4158.974, 4151.282, 450, 0, []
1628600314.3503, 97, 0, 4196.41, 4195.897, 4084.615, 4151.282, 4141.026, 450, 0, []
1628600314.3583, 98, 0, 4190.256, 4208.205, 4123.59, 4169.231, 4133.333, 450, 0, []
1628600314.3662, 99, 0, 4199.487, 4214.359, 4090.769, 4154.359, 4142.564, 16198, 0, []
1628600314.3742, 100, 0, 4203.59, 4215.897, 4102.051, 4174.872, 4146.154, 450, 0, []
1628600314.3821, 101, 0, 4189.231, 4211.282, 4101.026, 4165.128, 4137.436, 450, 0, []
1628600314.3898, 102, 0, 4180.513, 4204.615, 4081.538, 4143.077, 4135.385, 450, 0, []
1628600314.3977, 103, 0, 4188.205, 4204.615, 4121.026, 4168.205, 4141.026, 16198, 0, []
1628600314.4055, 104, 0, 4188.718, 4193.333, 4094.872, 4153.846, 4135.897, 450, 0, []
1628600314.4134, 105, 0, 4174.872, 4181.026, 4096.41, 4151.282, 4120.513, 450, 0, []
1628600314.4212, 106, 0, 4177.436, 4189.231, 4102.051, 4151.282, 4126.154, 450, 0, []
1628600314.429, 107, 0, 4193.846, 4201.538, 4085.641, 4144.615, 4142.564, 16198, 0, []
1628600314.4368, 108, 0, 4193.846, 4198.462, 4114.872, 4156.923, 4138.974, 450, 0, []
1628600314.4447, 109, 0, 4182.564, 4202.051, 4082.564, 4136.41, 4127.179, 450, 0, []
1628600314.4525, 110, 0, 4177.436, 4223.59, 4089.744, 4154.872, 4126.667, 450, 0, []
1628600314.4605, 111, 0, 4181.026, 4250.256, 4106.154, 4167.692, 4134.872, 16198, 0, []
1628600314.4684, 112, 0, 4182.564, 4254.872, 4077.436, 4150.256, 4138.462, 450, 0, []
1628600314.4763, 113, 0, 4178.462, 4218.462, 4116.41, 4162.051, 4134.872, 450, 0, []
1628600314.4842, 114, 0, 4173.333, 4196.923, 4104.103, 4140.513, 4129.231, 450, 0, []
1628600314.4922, 115, 0, 4183.077, 4214.872, 4104.103, 4150.769, 4131.795, 16198, 0, []
1628600314.5001, 116, 0, 4186.154, 4221.026, 4117.949, 4160, 4131.282, 450, 0, []
1628600314.5081, 117, 0, 4167.692, 4208.718, 4081.026, 4139.487, 4114.872, 450, 0, []
1628600314.5159, 118, 0, 4167.692, 4207.692, 4115.897, 4169.744, 4112.821, 450, 0, []
1628600314.5239, 119, 0, 4186.667, 4219.487, 4108.205, 4158.974, 4132.821, 16198, 0, []
1628600314.5318, 120, 0, 4188.718, 4226.667, 4096.923, 4156.41, 4142.564, 450, 0, []
1628600314.5396, 121, 0, 4173.846, 4218.974, 4112.308, 4170.256, 4132.308, 450, 0, []
1628600314.5475, 122, 0, 4158.462, 4206.154, 4076.41, 4138.462, 4120.513, 450, 0, []
1628600314.5552, 123, 0, 4156.41, 4206.667, 4100, 4155.385, 4121.538, 16198, 0, []
1628600314.5631, 124, 0, 4166.667, 4209.231, 4094.359, 4168.205, 4132.821, 450, 0, []
1628600314.5709, 125, 0, 4173.846, 4192.308, 4091.282, 4161.026, 4135.897, 450, 0, []
1628600314.5788, 126, 0, 4166.667, 4193.333, 4116.923, 4153.333, 4126.667, 450, 0, []
1628600314.5866, 127, 0, 4160, 4204.615, 4078.462, 4143.077, 4125.128, 16198, 0, []
1628600314.5944, 128, 0, 4165.641, 4196.923, 4103.077, 4182.564, 4138.462, 450, 0, []
1628600314.6022, 0, 0, 4171.282, 4196.41, 4105.128, 4168.718, 4148.205, 450, 0, []
1628600314.6101, 1, 0, 4169.744, 4198.462, 4091.795, 4149.231, 4144.103, 450, 0, []
1628600314.6179, 2, 0, 4168.718, 4194.359, 4112.308, 4167.179, 4136.923, 16185, 0, []
1628600314.6259, 3, 0, 4177.436, 4200.513, 4069.744, 4147.692, 4140, 450, 0, []
1628600314.6337, 4, 0, 4191.282, 4204.615, 4097.949, 4171.282, 4157.949, 16155, 0, []
1628600314.6417, 5, 0, 4201.026, 4201.538, 4109.744, 4176.41, 4171.795, 450, 0, []
1628600314.6496, 6, 0, 4206.154, 4204.615, 4074.872, 4155.385, 4175.385, 146, 0, []
1628600314.6576, 7, 0, 4236.41, 4202.051, 4100.513, 4170.256, 4197.436, 450, 0, []
1628600314.6655, 8, 0, 4289.744, 4193.333, 4073.333, 4160, 4243.59, 450, 0, []
1628600314.6734, 9, 0, 4334.359, 4190.256, 4086.667, 4172.308, 4285.128, 16226, 0, []
1628600314.6813, 10, 0, 4380.513, 4194.359, 4107.179, 4162.051, 4316.923, 450, 0, []
1628600314.6893, 11, 0, 4426.154, 4209.231, 4086.667, 4147.179, 4346.667, 16194, 0, []
1628600314.6972, 12, 0, 4447.692, 4217.949, 4111.282, 4186.667, 4373.333, 450, 0, []
1628600314.7052, 13, 0, 4452.821, 4206.667, 4083.59, 4169.744, 4384.615, 450, 0, []
1628600314.713, 14, 0, 4445.128, 4198.462, 4097.436, 4160.513, 4370.256, 450, 0, []
1628600314.7208, 15, 0, 4415.897, 4202.564, 4111.282, 4162.564, 4345.128, 16194, 0, []
1628600314.7287, 16, 0, 4378.462, 4196.41, 4082.051, 4151.795, 4324.103, 0, 0, []
1628600314.7365, 17, 0, 4356.923, 4191.795, 4115.897, 4171.282, 4302.051, 0, 0, []
1628600314.7444, 18, 0, 4341.538, 4184.615, 4079.487, 4157.436, 4278.462, 0, 0, []
1628600314.7521, 19, 0, 4313.846, 4181.026, 4074.359, 4169.231, 4260, 0, 0, []
1628600314.76, 20, 0, 4278.974, 4197.949, 4102.564, 4170.769, 4235.385, 0, 0, []
1628600314.7678, 21, 0, 4251.795, 4211.795, 4067.179, 4140.513, 4208.205, 0, 0, []
1628600314.7758, 22, 0, 4240, 4216.923, 4101.538, 4172.308, 4195.385, 0, 0, []
1628600314.7837, 23, 0, 4232.308, 4218.974, 4098.974, 4164.615, 4188.718, 0, 0, []
1628600314.7916, 24, 0, 4215.897, 4197.949, 4075.897, 4152.821, 4180, 0, 0, []
1628600314.7995, 25, 0, 4198.462, 4177.949, 4085.128, 4162.564, 4169.744, 0, 0, []
1628600314.8075, 26, 0, 4195.897, 4198.974, 4059.487, 4142.564, 4170.256, 0, 0, []
1628600314.8154, 27, 0, 4207.692, 4226.154, 4106.154, 4180, 4186.154, 0, 0, []
1628600314.8234, 28, 0, 4211.282, 4232.821, 4103.077, 4182.564, 4189.231, 0, 0, []
1628600314.8312, 29, 0, 4200.513, 4235.385, 4076.41, 4160, 4170.769, 0, 0, []
1628600314.8392, 30, 0, 4188.205, 4221.026, 4113.846, 4180.513, 4156.41, 0, 0, []
1628600314.8471, 31, 0, 4178.974, 4201.538, 4070.256, 4160, 4150.256, 0, 0, []
1628600314.855, 32, 0, 4175.897, 4210.769, 4082.051, 4170.769, 4144.103, 0, 0, []
1628600314.8629, 33, 0, 4172.821, 4221.026, 4099.487, 4175.897, 4140.513, 0, 0, []
1628600314.8706, 34, 0, 4169.744, 4210.769, 4068.718, 4157.436, 4135.897, 0, 0, []
1628600314.8785, 35, 0, 4170.256, 4203.077, 4097.436, 4172.308, 4136.923, 0, 0, []
1628600314.8863, 36, 0, 4164.615, 4203.59, 4078.974, 4160, 4140.513, 0, 0, []
1628600314.8942, 37, 0, 4154.359, 4203.077, 4088.205, 4164.615, 4137.436, 0, 0, []
1628600314.902, 38, 0, 4157.949, 4204.103, 4090.256, 4155.385, 4132.821, 0, 0, []
1628600314.9098, 39, 0, 4173.333, 4207.692, 4077.949, 4152.308, 4137.949, 0, 0, []
1628600314.9176, 40, 0, 4177.949, 4214.872, 4115.897, 4178.974, 4151.282, 0, 0, []
1628600314.9255, 41, 0, 4171.795, 4231.282, 4078.462, 4153.846, 4150.769, 0, 0, []
1628600314.9333, 42, 0, 4169.744, 4230.769, 4089.744, 4167.179, 4140.513, 0, 0, []
1628600314.9413, 43, 0, 4172.821, 4210.769, 4108.718, 4175.897, 4139.487, 0, 0, []
1628600314.9491, 44, 0, 4168.205, 4197.436, 4082.564, 4164.615, 4139.487, 0, 0, []
1628600314.9571, 45, 0, 4157.949, 4190.256, 4112.821, 4183.077, 4136.41, 0, 0, []
1628600314.965, 46, 0, 4152.821, 4180, 4079.487, 4151.282, 4134.872, 0, 0, []
1628600314.973, 47, 0, 4150.769, 4183.077, 4088.205, 4165.128, 4131.795, 0, 0, []
1628600314.9809, 48, 0, 4144.103, 4215.897, 4110.256, 4177.436, 4126.154, 0, 0, []
1628600314.9888, 49, 0, 4136.41, 4231.795, 4068.718, 4146.154, 4118.974, 0, 0, []
1628600314.9967, 50, 0, 4133.846, 4213.846, 4091.282, 4167.692, 4113.333, 0, 0, []
1628600315.0047, 51, 0, 4141.026, 4210.256, 4076.923, 4158.462, 4119.487, 0, 0, []
1628600315.0126, 52, 0, 4151.282, 4222.051, 4089.231, 4158.462, 4129.744, 0, 0, []
1628600315.0204, 53, 0, 4150.256, 4221.538, 4106.154, 4162.564, 4127.692, 0, 0, []
1628600315.0282, 54, 0, 4151.282, 4226.154, 4071.282, 4141.538, 4129.231, 0, 0, []
1628600315.036, 55, 0, 4172.308, 4236.41, 4109.744, 4163.59, 4144.103, 0, 0, []
1628600315.0439, 56, 0, 4184.615, 4214.359, 4087.692, 4148.718, 4148.205, 0, 0, []
1628600315.0517, 57, 0, 4169.231, 4188.205, 4082.051, 4152.821, 4137.436, 0, 0, []
1628600315.0596, 58, 0, 4153.333, 4198.462, 4112.308, 4173.846, 4128.205, 0, 0, []
1628600315.0673, 59, 0, 4148.205, 4218.462, 4071.795, 4155.897, 4123.59, 0, 0, []
1628600315.0752, 60, 0, 4140, 4226.154, 4105.128, 4178.974, 4117.436, 0, 0, []
1628600315.083, 61, 0, 4123.077, 4237.949, 4097.949, 4158.974, 4108.718, 0, 0, []
1628600315.091, 62, 0, 4104.615, 4250.769, 4086.667, 4148.718, 4094.872, 0, 0, []
1628600315.0989, 63, 0, 4098.974, 4253.333, 4123.59, 4178.974, 4085.128, 0, 0, []
1628600315.1068, 64, 0, 4102.051, 4238.462, 4075.897, 4156.923, 4087.179, 450, 0, []
1628600315.1147, 65, 0, 4105.641, 4214.359, 4090.769, 4163.59, 4092.821, 450, 0, []
1628600315.1227, 66, 0, 4111.282, 4229.744, 4097.949, 4157.949, 4097.949, 16187, 0, []
1628600315.1306, 67, 0, 4120.513, 4257.949, 4085.128, 4161.026, 4106.667, 450, 0, []
1628600315.1386, 68, 0, 4129.231, 4246.667, 4124.103, 4191.795, 4113.846, 16161, 0, []
1628600315.1464, 69, 0, 4129.231, 4224.103, 4086.154, 4163.59, 4109.744, 450, 0, []
1628600315.1544, 70, 0, 4115.897, 4221.026, 4092.308, 4172.308, 4096.923, 148, 0, []
1628600315.1623, 71, 0, 4107.692, 4227.692, 4095.897, 4176.923, 4090.256, 450, 0, []
1628600315.1701, 72, 0, 4118.462, 4241.026, 4077.949, 4167.179, 4094.359, 450, 0, []
1628600315.178, 73, 0, 4126.667, 4250.769, 4130.256, 4185.641, 4102.051, 16224, 0, []
1628600315.1857, 74, 0, 4125.641, 4244.615, 4109.231, 4153.846, 4102.564, 450, 0, []
1628600315.1936, 75, 0, 4132.308, 4245.641, 4115.897, 4163.59, 4107.692, 16194, 0, []
1628600315.2014, 76, 0, 4142.564, 4252.821, 4126.154, 4171.795, 4113.333, 450, 0, []
1628600315.2093, 77, 0, 4150.256, 4232.821, 4085.641, 4147.692, 4110.769, 450, 0, []
1628600315.2172, 78, 0, 4158.974, 4203.59, 4110.256, 4171.282, 4110.256, 450, 0, []
1628600315.2252, 79, 0, 4155.385, 4203.59, 4093.333, 4160, 4107.179, 16194, 0, []
1628600315.2329, 80, 0, 4148.718, 4228.718, 4111.795, 4161.538, 4100, 450, 0, []
1628600315.2409, 81, 0, 4154.359, 4228.205, 4134.872, 4163.59, 4102.051, 450, 0, []
1628600315.2488, 82, 0, 4150.769, 4203.077, 4097.949, 4143.59, 4099.487, 450, 0, []
1628600315.2568, 83, 0, 4144.103, 4217.949, 4127.179, 4169.744, 4095.897, 16194, 0, []
1628600315.2647, 84, 0, 4151.795, 4246.154, 4100, 4158.462, 4101.538, 450, 0, []
1628600315.2726, 85, 0, 4155.897, 4222.051, 4087.692, 4163.59, 4103.077, 450, 0, []
1628600315.2805, 86, 0, 4149.231, 4190.769, 4103.59, 4169.744, 4096.923, 450, 0, []
1628600315.2885, 87, 0, 4149.744, 4208.205, 4078.974, 4148.205, 4101.538, 16194, 0, []
1628600315.2964, 88, 0, 4156.923, 4235.385, 4128.205, 4173.846, 4111.795, 450, 0, []
1628600315.3044, 89, 0, 4158.974, 4228.205, 4098.974, 4152.308, 4108.205, 450, 0, []
1628600315.3122, 90, 0, 4160, 4194.872, 4078.974, 4150.256, 4106.154, 450, 0, []
1628600315.3202, 91, 0, 4165.128, 4179.487, 4121.026, 4177.436, 4114.872, 16194, 0, []
1628600315.3281, 92, 0, 4161.538, 4203.077, 4089.744, 4161.538, 4113.846, 450, 0, []
1628600315.3359, 93, 0, 4155.897, 4217.436, 4110.769, 4181.538, 4109.744, 450, 0, []
1628600315.3438, 94, 0, 4159.487, 4208.205, 4098.974, 4162.051, 4107.179, 450, 0, []
1628600315.3515, 95, 0, 4171.795, 4218.462, 4095.385, 4153.333, 4108.205, 16194, 0, []
1628600315.3594, 96, 0, 4184.103, 4245.641, 4137.436, 4173.846, 4124.615, 450, 0, []
1628600315.3672, 97, 0, 4185.128, 4239.487, 4094.359, 4143.59, 4138.974, 450, 0, []
1628600315.3752, 98, 0, 4183.077, 4219.487, 4106.154, 4157.436, 4131.282, 450, 0, []
1628600315.3831, 99, 0, 4187.692, 4217.949, 4100, 4157.436, 4125.128, 16194, 0, []
1628600315.391, 100, 0, 4185.128, 4213.846, 4073.846, 4157.436, 4122.564, 450, 0, []
1628600315.3989, 101, 0, 4170.769, 4217.949, 4104.103, 4181.026, 4109.231, 450, 0, []
1628600315.4069, 102, 0, 4166.667, 4225.641, 4082.051, 4162.051, 4106.667, 450, 0, []
1628600315.4148, 103, 0, 4167.692, 4201.538, 4105.641, 4175.385, 4109.231, 16194, 0, []
1628600315.4228, 104, 0, 4161.538, 4185.128, 4093.846, 4156.41, 4098.974, 450, 0, []
1628600315.4306, 105, 0, 4156.923, 4202.564, 4074.872, 4136.923, 4097.436, 450, 0, []
1628600315.4386, 106, 0, 4158.462, 4204.615, 4112.308, 4166.154, 4110.769, 450, 0, []
1628600315.4465, 107, 0, 4161.538, 4189.231, 4053.333, 4145.128, 4112.308, 16194, 0, []
1628600315.4544, 108, 0, 4159.487, 4183.077, 4067.692, 4161.538, 4102.051, 450, 0, []
1628600315.4623, 109, 0, 4153.333, 4183.59, 4092.821, 4164.615, 4093.333, 450, 0, []
1628600315.47, 110, 0, 4147.692, 4184.615, 4064.615, 4146.667, 4088.205, 450, 0, []
1628600315.4779, 111, 0, 4145.128, 4172.821, 4106.154, 4173.846, 4084.103, 16194, 0, []
1628600315.4857, 112, 0, 4132.308, 4156.41, 4078.974, 4150.769, 4076.41, 450, 0, []
1628600315.4936, 113, 0, 4117.436, 4165.128, 4083.077, 4157.436, 4068.718, 450, 0, []
1628600315.5014, 114, 0, 4125.128, 4164.615, 4094.359, 4163.077, 4074.872, 450, 0, []
1628600315.5092, 115, 0, 4144.103, 4143.59, 4060.513, 4147.692, 4092.821, 16194, 0, []
1628600315.517, 116, 0, 4159.487, 4170.256, 4108.205, 4176.923, 4115.897, 450, 0, []
1628600315.5249, 117, 0, 4165.128, 4195.385, 4089.231, 4145.128, 4122.051, 450, 0, []
1628600315.5327, 118, 0, 4161.026, 4165.641, 4082.564, 4140, 4111.282, 450, 0, []
1628600315.5406, 119, 0, 4153.333, 4158.974, 4098.462, 4161.538, 4106.154, 16194, 0, []
1628600315.5483, 120, 0, 4151.282, 4178.462, 4067.692, 4146.667, 4103.077, 450, 0, []
1628600315.5563, 121, 0, 4149.744, 4165.641, 4106.667, 4163.077, 4094.359, 450, 0, []
1628600315.5642, 122, 0, 4144.615, 4149.231, 4074.359, 4145.128, 4090.256, 450, 0, []
1628600315.5722, 123, 0, 4147.692, 4152.821, 4064.615, 4162.051, 4101.026, 16194, 0, []
1628600315.5801, 124, 0, 4167.692, 4142.051, 4109.231, 4192.821, 4119.487, 450, 0, []
1628600315.588, 125, 0, 4187.179, 4133.333, 4078.462, 4158.974, 4131.795, 450, 0, []
1628600315.5959, 126, 0, 4190.769, 4153.333, 4100, 4162.051, 4130.769, 450, 0, []
1628600315.6039, 127, 0, 4181.026, 4156.41, 4078.974, 4154.359, 4117.949, 16194, 0, []
1628600315.6118, 128, 0, 4173.846, 4133.846, 4073.333, 4167.179, 4115.897, 450, 0, []
1628600315.6196, 0, 0, 4175.897, 4141.026, 4115.897, 4181.538, 4127.179, 450, 0, []
1628600315.6274, 1, 0, 4176.41, 4176.923, 4076.923, 4151.282, 4133.333, 450, 0, []
1628600315.6352, 2, 0, 4173.846, 4177.436, 4106.154, 4174.872, 4132.821, 16189, 0, []
1628600315.6431, 3, 0, 4167.692, 4145.641, 4093.333, 4160.513, 4125.128, 450, 0, []
1628600315.6509, 4, 0, 4164.103, 4138.462, 4063.59, 4149.744, 4118.974, 16158, 0, []
1628600315.6588, 5, 0, 4171.282, 4151.282, 4107.692, 4182.051, 4129.744, 450, 0, []
1628600315.6665, 6, 0, 4169.744, 4160.513, 4074.359, 4156.41, 4137.436, 155, 0, []
1628600315.6744, 7, 0, 4155.385, 4166.667, 4087.692, 4165.128, 4124.103, 450, 0, []
1628600315.6822, 8, 0, 4155.897, 4165.128, 4093.846, 4162.051, 4120.513, 450, 0, []
1628600315.6901, 9, 0, 4165.641, 4147.692, 4082.564, 4157.949, 4130.769, 16218, 0, []
1628600315.6979, 10, 0, 4157.949, 4141.026, 4120.513, 4188.205, 4128.718, 450, 0, []
1628600315.7058, 11, 0, 4154.359, 4152.308, 4072.821, 4157.436, 4126.667, 16189, 0, []
1628600315.7137, 12, 0, 4163.59, 4141.538, 4077.436, 4171.795, 4134.359, 450, 0, []
1628600315.7217, 13, 0, 4167.179, 4135.385, 4086.154, 4183.077, 4137.949, 450, 0, []
1628600315.7296, 14, 0, 4166.154, 4161.538, 4058.462, 4159.487, 4134.359, 450, 0, []
1628600315.7376, 15, 0, 4161.026, 4170.769, 4100, 4172.308, 4127.179, 16189, 0, []
1628600315.7454, 16, 0, 4150.769, 4140.513, 4074.359, 4153.846, 4115.897, 0, 0, []
1628600315.7534, 17, 0, 4150.769, 4125.128, 4078.974, 4167.179, 4114.359, 0, 0, []
1628600315.7613, 18, 0, 4153.846, 4146.154, 4090.769, 4166.154, 4120, 0, 0, []
1628600315.7693, 19, 0, 4150.256, 4153.846, 4063.59, 4151.282, 4117.949, 0, 0, []
1628600315.7772, 20, 0, 4152.821, 4141.538, 4107.179, 4184.615, 4115.897, 0, 0, []
1628600315.7849, 21, 0, 4152.308, 4141.538, 4076.923, 4155.385, 4114.872, 0, 0, []
1628600315.7928, 22, 0, 4148.205, 4165.641, 4082.564, 4163.59, 4116.41, 0, 0, []
1628600315.8006, 23, 0, 4156.923, 4180.513, 4116.41, 4194.359, 4129.744, 0, 0, []
1628600315.8085, 24, 0, 4159.487, 4168.205, 4069.231, 4169.231, 4131.795, 0, 0, []
1628600315.8163, 25, 0, 4144.103, 4152.821, 4089.231, 4176.41, 4112.821, 0, 0, []
1628600315.8241, 26, 0, 4141.538, 4145.641, 4073.333, 4164.615, 4108.205, 0, 0, []
1628600315.8319, 27, 0, 4152.308, 4145.641, 4076.923, 4169.231, 4122.051, 0, 0, []
1628600315.8398, 28, 0, 4155.897, 4152.308, 4100.513, 4171.282, 4128.718, 0, 0, []
1628600315.8476, 29, 0, 4163.077, 4152.308, 4064.103, 4146.154, 4143.077, 0, 0, []
1628600315.8556, 30, 0, 4176.41, 4137.436, 4109.744, 4178.974, 4166.154, 0, 0, []
1628600315.8634, 31, 0, 4175.897, 4130.256, 4096.41, 4168.205, 4162.564, 0, 0, []
1628600315.8714, 32, 0, 4162.051, 4145.128, 4076.923, 4160.513, 4135.897, 0, 0, []
1628600315.8793, 33, 0, 4155.897, 4152.308, 4110.769, 4170.769, 4128.718, 0, 0, []
1628600315.8873, 34, 0, 4162.051, 4157.436, 4077.436, 4145.128, 4144.103, 0, 0, []
1628600315.8952, 35, 0, 4169.744, 4165.128, 4105.641, 4170.256, 4148.205, 0, 0, []
1628600315.9031, 36, 0, 4169.231, 4161.026, 4096.41, 4157.949, 4141.538, 0, 0, []
1628600315.911, 37, 0, 4168.718, 4155.385, 4082.564, 4158.974, 4155.385, 0, 0, []
1628600315.919, 38, 0, 4173.846, 4165.128, 4120.513, 4194.359, 4173.333, 0, 0, []
1628600315.9269, 39, 0, 4171.795, 4182.051, 4070.256, 4159.487, 4158.974, 0, 0, []
1628600315.9347, 40, 0, 4167.692, 4185.128, 4094.359, 4177.436, 4144.615, 0, 0, []
1628600315.9425, 41, 0, 4168.718, 4177.949, 4105.128, 4183.59, 4147.179, 0, 0, []
1628600315.9503, 42, 0, 4163.077, 4163.59, 4076.41, 4160, 4140, 0, 0, []
1628600315.9582, 43, 0, 4157.949, 4152.821, 4117.436, 4172.821, 4134.872, 0, 0, []
1628600315.966, 44, 0, 4164.103, 4161.026, 4090.769, 4153.333, 4146.667, 0, 0, []
1628600315.9739, 45, 0, 4171.795, 4175.385, 4104.103, 4169.231, 4159.487, 0, 0, []
1628600315.9817, 46, 0, 4172.308, 4188.718, 4110.769, 4168.718, 4160.513, 0, 0, []
1628600315.9895, 47, 0, 4169.744, 4186.154, 4083.59, 4156.923, 4148.205, 0, 0, []
1628600315.9973, 48, 0, 4165.641, 4165.128, 4121.538, 4186.154, 4134.359, 0, 0, []
1628600316.0052, 49, 0, 4155.897, 4161.538, 4076.41, 4157.436, 4124.615, 0, 0, []
1628600316.013, 50, 0, 4142.051, 4181.538, 4068.718, 4164.103, 4116.923, 0, 0, []
1628600316.021, 51, 0, 4130.769, 4191.282, 4082.051, 4171.795, 4111.795, 0, 0, []
1628600316.0288, 52, 0, 4131.282, 4188.718, 4064.615, 4154.359, 4115.897, 0, 0, []
1628600316.0368, 53, 0, 4143.59, 4188.205, 4111.795, 4181.026, 4122.051, 0, 0, []
1628600316.0447, 54, 0, 4156.923, 4188.718, 4077.949, 4161.026, 4125.128, 0, 0, []
1628600316.0527, 55, 0, 4167.179, 4180, 4086.154, 4173.333, 4135.897, 0, 0, []
1628600316.0606, 56, 0, 4165.641, 4166.154, 4117.436, 4188.718, 4146.667, 0, 0, []
1628600316.0685, 57, 0, 4146.154, 4161.538, 4064.615, 4156.923, 4131.282, 0, 0, []
1628600316.0764, 58, 0, 4129.744, 4171.282, 4095.385, 4170.769, 4114.872, 0, 0, []
1628600316.0844, 59, 0, 4129.231, 4182.051, 4087.179, 4152.821, 4123.077, 0, 0, []
1628600316.0923, 60, 0, 4138.974, 4191.282, 4077.436, 4155.897, 4131.282, 0, 0, []
1628600316.1001, 61, 0, 4157.949, 4206.154, 4100, 4174.872, 4138.462, 0, 0, []
1628600316.1079, 62, 0, 4171.282, 4201.026, 4069.231, 4156.923, 4146.667, 0, 0, []
1628600316.1157, 63, 0, 4172.308, 4175.385, 4102.051, 4184.103, 4149.231, 0, 0, []
1628600316.1236, 64, 0, 4170.769, 4165.128, 4084.103, 4170.769, 4150.256, 450, 0, []
1628600316.1314, 65, 0, 4160, 4171.282, 4071.282, 4158.974, 4150.256, 450, 0, []
1628600316.1393, 66, 0, 4140, 4182.051, 4103.077, 4172.308, 4141.026, 16189, 0, []
1628600316.147, 67, 0, 4130.256, 4190.769, 4067.692, 4157.436, 4127.179, 450, 0, []
1628600316.155, 68, 0, 4134.872, 4184.615, 4104.615, 4187.179, 4128.718, 16148, 0, []
1628600316.1629, 69, 0, 4138.974, 4160.513, 4097.949, 4169.744, 4133.846, 450, 0, []
1628600316.1709, 70, 0, 4140, 4161.538, 4069.744, 4160.513, 4135.897, 139, 0, []
1628600316.1788, 71, 0, 4140.513, 4191.282, 4102.051, 4192.308, 4146.667, 450, 0, []
1628600316.1867, 72, 0, 4136.923, 4182.564, 4068.205, 4160, 4148.205, 450, 0, []
1628600316.1946, 73, 0, 4134.359, 4152.308, 4093.846, 4172.308, 4139.487, 16221, 0, []
1628600316.2026, 74, 0, 4132.821, 4163.59, 4086.154, 4168.205, 4138.974, 450, 0, []
1628600316.2105, 75, 0, 4132.821, 4175.385, 4061.538, 4148.205, 4142.564, 16185, 0, []
1628600316.2185, 76, 0, 4144.103, 4155.897, 4115.897, 4173.846, 4149.231, 450, 0, []
1628600316.2263, 77, 0, 4152.821, 4152.821, 4084.103, 4159.487, 4160, 450, 0, []
1628600316.2341, 78, 0, 4152.308, 4165.128, 4089.231, 4172.308, 4167.692, 450, 0, []
1628600316.242, 79, 0, 4160, 4157.949, 4090.769, 4165.641, 4168.205, 16185, 0, []
1628600316.2498, 80, 0, 4165.641, 4147.179, 4056.41, 4150.256, 4162.564, 450, 0, []
1628600316.2577, 81, 0, 4162.051, 4147.179, 4094.359, 4171.282, 4157.949, 450, 0, []
1628600316.2654, 82, 0, 4181.026, 4155.385, 4071.795, 4147.179, 4174.359, 450, 0, []
1628600316.2733, 83, 0, 4226.667, 4178.462, 4085.641, 4172.308, 4214.359, 16185, 0, []
1628600316.2811, 84, 0, 4267.179, 4185.641, 4090.769, 4188.718, 4254.359, 450, 0, []
1628600316.289, 85, 0, 4323.077, 4170.256, 4070.256, 4175.897, 4296.923, 450, 0, []
1628600316.2968, 86, 0, 4401.538, 4169.231, 4136.923, 4209.231, 4347.179, 450, 0, []
1628600316.3047, 87, 0, 4442.051, 4169.231, 4105.128, 4188.205, 4377.436, 16185, 0, []
1628600316.3126, 88, 0, 4422.564, 4150.769, 4092.308, 4180, 4373.846, 450, 0, []
1628600316.3206, 89, 0, 4402.051, 4145.128, 4118.974, 4175.385, 4354.872, 450, 0, []
1628600316.3285, 90, 0, 4403.59, 4156.41, 4092.821, 4149.744, 4340.513, 450, 0, []
1628600316.3365, 91, 0, 4385.128, 4163.59, 4126.667, 4174.872, 4324.103, 16185, 0, []
1628600316.3443, 92, 0, 4355.897, 4172.821, 4102.051, 4155.897, 4307.179, 450, 0, []
1628600316.3523, 93, 0, 4353.333, 4165.128, 4109.744, 4159.487, 4299.487, 450, 0, []
1628600316.3602, 94, 0, 4346.667, 4140, 4138.974, 4189.231, 4295.897, 450, 0, []
1628600316.3682, 95, 0, 4314.872, 4141.538, 4089.231, 4175.897, 4283.59, 16185, 0, []
1628600316.3761, 96, 0, 4294.872, 4160.513, 4134.872, 4179.487, 4259.487, 450, 0, []
1628600316.384, 97, 0, 4282.051, 4172.308, 4122.051, 4147.692, 4232.821, 450, 0, []
1628600316.3919, 98, 0, 4263.077, 4187.179, 4081.026, 4153.846, 4218.462, 450, 0, []
1628600316.3997, 99, 0, 4258.974, 4202.564, 4106.667, 4177.436, 4214.359, 16185, 0, []
1628600316.4076, 100, 0, 4250.256, 4191.795, 4080, 4142.564, 4200.513, 450, 0, []
1628600316.4154, 101, 0, 4229.744, 4168.205, 4102.564, 4172.821, 4188.205, 450, 0, []
1628600316.4232, 102, 0, 4225.128, 4174.359, 4094.872, 4181.026, 4193.333, 450, 0, []
1628600316.431, 103, 0, 4227.692, 4183.077, 4095.897, 4173.333, 4198.974, 16185, 0, []
1628600316.4389, 104, 0, 4235.897, 4175.385, 4145.641, 4185.128, 4196.923, 450, 0, []
1628600316.4467, 105, 0, 4240, 4180, 4104.103, 4151.282, 4189.744, 450, 0, []
1628600316.4546, 106, 0, 4222.051, 4190.256, 4106.667, 4157.949, 4176.923, 450, 0, []
1628600316.4623, 107, 0, 4217.949, 4192.821, 4103.59, 4150.256, 4181.026, 16185, 0, []
1628600316.4703, 108, 0, 4242.051, 4197.949, 4105.641, 4151.282, 4195.897, 450, 0, []
1628600316.4782, 109, 0, 4242.564, 4206.154, 4145.641, 4182.051, 4193.846, 450, 0, []
1628600316.4862, 110, 0, 4226.154, 4191.795, 4084.103, 4158.974, 4189.231, 450, 0, []
1628600316.4941, 111, 0, 4234.359, 4175.385, 4094.359, 4181.026, 4198.974, 16185, 0, []
1628600316.502, 112, 0, 4239.487, 4193.333, 4109.231, 4174.359, 4193.846, 450, 0, []
1628600316.5099, 113, 0, 4215.385, 4205.641, 4074.359, 4140, 4165.641, 450, 0, []
1628600316.5179, 114, 0, 4189.231, 4184.615, 4105.641, 4158.462, 4143.59, 450, 0, []
1628600316.5258, 115, 0, 4180.513, 4171.282, 4074.872, 4141.026, 4136.41, 16185, 0, []
1628600316.5338, 116, 0, 4195.385, 4196.41, 4092.821, 4158.462, 4155.897, 450, 0, []
1628600316.5416, 117, 0, 4216.923, 4216.923, 4115.385, 4160.513, 4182.051, 450, 0, []
1628600316.5494, 118, 0, 4217.949, 4215.897, 4084.103, 4131.795, 4176.41, 450, 0, []
1628600316.5573, 119, 0, 4217.436, 4216.923, 4130.769, 4161.538, 4171.795, 16185, 0, []
1628600316.5651, 120, 0, 4231.282, 4219.487, 4107.179, 4155.897, 4187.692, 450, 0, []
1628600316.573, 121, 0, 4233.846, 4222.051, 4093.846, 4168.718, 4188.718, 450, 0, []
1628600316.5807, 122, 0, 4224.103, 4213.333, 4096.923, 4178.974, 4175.897, 450, 0, []
1628600316.5886, 123, 0, 4230.256, 4216.923, 4066.667, 4151.282, 4176.923, 16185, 0, []
1628600316.5964, 124, 0, 4233.333, 4231.795, 4115.385, 4163.59, 4180, 450, 0, []
1628600316.6043, 125, 0, 4210.256, 4217.949, 4088.718, 4144.103, 4164.615, 450, 0, []
1628600316.6121, 126, 0, 4193.333, 4203.59, 4086.667, 4153.846, 4149.744, 450, 0, []
1628600316.62, 127, 0, 4193.846, 4208.718, 4117.949, 4167.179, 4147.179, 16185, 0, []
1628600316.6279, 128, 0, 4204.103, 4204.615, 4067.692, 4141.026, 4160.513, 450, 0, []
1628600316.6359, 0, 0, 4229.231, 4198.974, 4103.59, 4180, 4183.077, 450, 0, []
1628600316.6438, 1, 0, 4238.462, 4212.821, 4107.692, 4176.923, 4189.231, 450, 0, []
1628600316.6518, 2, 0, 4222.564, 4222.564, 4099.487, 4168.718, 4179.487, 16181, 0, []
1628600316.6596, 3, 0, 4215.897, 4206.154, 4126.154, 4188.718, 4176.923, 450, 0, []
1628600316.6676, 4, 0, 4215.385, 4190.256, 4080, 4163.59, 4171.282, 16151, 0, []
1628600316.6755, 5, 0, 4212.308, 4206.667, 4099.487, 4176.41, 4166.154, 450, 0, []
1628600316.6835, 6, 0, 4224.103, 4233.846, 4098.974, 4164.615, 4178.462, 151, 0, []
1628600316.6914, 7, 0, 4225.641, 4224.615, 4088.718, 4158.974, 4175.385, 450, 0, []
1628600316.6993, 8, 0, 4197.436, 4202.564, 4118.462, 4177.436, 4144.615, 450, 0, []
1628600316.7072, 9, 0, 4180, 4191.795, 4078.974, 4144.103, 4131.282, 16234, 0, []
1628600316.715, 10, 0, 4182.051, 4182.564, 4101.538, 4161.026, 4136.923, 450, 0, []
1628600316.7229, 11, 0, 4177.949, 4197.436, 4086.667, 4155.897, 4130.256, 16189, 0, []
1628600316.7307, 12, 0, 4165.128, 4204.103, 4057.949, 4138.462, 4117.436, 450, 0, []
1628600316.7386, 13, 0, 4159.487, 4186.154, 4108.205, 4161.026, 4118.974, 450, 0, []
1628600316.7463, 14, 0, 4170.256, 4193.333, 4076.923, 4145.128, 4135.385, 450, 0, []
1628600316.7542, 15, 0, 4186.667, 4200.513, 4098.974, 4168.718, 4152.821, 16189, 0, []
1628600316.762, 16, 0, 4188.205, 4188.718, 4114.359, 4167.692, 4153.846, 0, 0, []
1628600316.7699, 17, 0, 4178.974, 4203.077, 4083.077, 4149.231, 4143.077, 0, 0, []
1628600316.7777, 18, 0, 4183.59, 4222.051, 4114.359, 4176.923, 4148.205, 0, 0, []
1628600316.7855, 19, 0, 4188.205, 4211.795, 4081.026, 4163.59, 4157.436, 0, 0, []
1628600316.7933, 20, 0, 4181.538, 4220.513, 4094.359, 4178.462, 4151.282, 0, 0, []
1628600316.8013, 21, 0, 4172.821, 4237.949, 4109.744, 4168.205, 4141.026, 0, 0, []
1628600316.8092, 22, 0, 4165.128, 4221.026, 4080.513, 4142.564, 4132.821, 0, 0, []
1628600316.8172, 23, 0, 4168.718, 4211.282, 4121.026, 4185.128, 4141.538, 0, 0, []
1628600316.825, 24, 0, 4184.615, 4224.103, 4089.744, 4175.897, 4158.462, 0, 0, []
1628600316.833, 25, 0, 4190.769, 4216.923, 4093.333, 4170.256, 4161.538, 0, 0, []
1628600316.8409, 26, 0, 4188.205, 4212.308, 4113.333, 4170.256, 4162.564, 0, 0, []
1628600316.8489, 27, 0, 4190.256, 4235.897, 4072.821, 4158.462, 4170.256, 0, 0, []
1628600316.8568, 28, 0, 4182.564, 4234.872, 4105.128, 4193.333, 4162.564, 0, 0, []
1628600316.8647, 29, 0, 4174.872, 4224.615, 4082.051, 4170.769, 4147.692, 0, 0, []
1628600316.8726, 30, 0, 4178.462, 4243.59, 4080, 4165.641, 4153.846, 0, 0, []
1628600316.8804, 31, 0, 4168.718, 4248.718, 4101.538, 4172.821, 4151.795, 0, 0, []
1628600316.8883, 32, 0, 4149.744, 4229.231, 4064.103, 4144.103, 4134.872, 0, 0, []
1628600316.8961, 33, 0, 4149.231, 4225.641, 4110.769, 4173.846, 4134.359, 0, 0, []
1628600316.9039, 34, 0, 4156.41, 4234.872, 4095.897, 4169.231, 4139.487, 0, 0, []
1628600316.9117, 35, 0, 4154.359, 4229.744, 4075.897, 4173.333, 4141.026, 0, 0, []
1628600316.9196, 36, 0, 4157.436, 4224.615, 4101.538, 4189.744, 4145.128, 0, 0, []
1628600316.9274, 37, 0, 4159.487, 4215.385, 4056.923, 4154.359, 4145.128, 0, 0, []
1628600316.9354, 38, 0, 4143.077, 4207.692, 4088.718, 4174.359, 4135.897, 0, 0, []
1628600316.9432, 39, 0, 4127.692, 4211.795, 4089.231, 4165.641, 4125.641, 0, 0, []
1628600316.9512, 40, 0, 4134.872, 4209.744, 4074.872, 4154.359, 4118.462, 0, 0, []
1628600316.9591, 41, 0, 4150.256, 4216.923, 4110.256, 4173.846, 4114.872, 0, 0, []
1628600316.9671, 42, 0, 4147.692, 4228.718, 4067.179, 4154.872, 4107.692, 0, 0, []
1628600316.975, 43, 0, 4136.41, 4217.436, 4085.641, 4174.872, 4082.051, 0, 0, []
1628600316.9829, 44, 0, 4127.692, 4221.538, 4085.641, 4163.077, 4054.872, 0, 0, []
1628600316.9908, 45, 0, 4105.641, 4247.692, 4059.487, 4143.59, 4032.308, 0, 0, []
1628600316.9988, 46, 0, 4079.487, 4233.333, 4087.179, 4157.949, 4013.846, 0, 0, []
1628600317.0067, 47, 0, 4068.205, 4199.487, 4061.538, 4134.872, 4005.641, 0, 0, []
1628600317.0145, 48, 0, 4070.256, 4213.846, 4101.538, 4160, 4008.718, 0, 0, []
1628600317.0223, 49, 0, 4081.026, 4236.923, 4108.718, 4160, 4021.538, 0, 0, []
1628600317.0301, 50, 0, 4091.795, 4215.385, 4076.41, 4145.641, 4031.795, 0, 0, []
1628600317.038, 51, 0, 4089.231, 4194.359, 4114.872, 4175.385, 4027.692, 0, 0, []
1628600317.0458, 52, 0, 4078.974, 4203.59, 4072.821, 4149.231, 4024.103, 0, 0, []
1628600317.0537, 53, 0, 4083.077, 4220.513, 4085.128, 4156.41, 4038.974, 0, 0, []
1628600317.0614, 54, 0, 4081.538, 4221.538, 4098.462, 4162.051, 4035.897, 0, 0, []
1628600317.0693, 55, 0, 4053.846, 4204.615, 4049.744, 4145.641, 4003.59, 0, 0, []
1628600317.0771, 56, 0, 4040.513, 4183.077, 4080.513, 4170.769, 3997.436, 0, 0, []
1628600317.085, 57, 0, 4060.513, 4186.154, 4064.103, 4149.744, 4022.051, 0, 0, []
1628600317.0928, 58, 0, 4065.128, 4209.744, 4080, 4155.897, 4027.692, 0, 0, []
1628600317.1007, 59, 0, 4050.769, 4224.615, 4100, 4168.205, 4016.923, 0, 0, []
1628600317.1086, 60, 0, 4058.462, 4230.769, 4067.179, 4155.897, 4027.179, 0, 0, []
1628600317.1166, 61, 0, 4076.41, 4232.821, 4110.256, 4175.897, 4043.077, 0, 0, []
1628600317.1245, 62, 0, 4079.487, 4228.718, 4088.718, 4148.205, 4042.051, 0, 0, []
1628600317.1325, 63, 0, 4085.128, 4232.308, 4092.308, 4160, 4038.462, 0, 0, []
1628600317.1403, 64, 0, 4100, 4231.795, 4121.538, 4181.538, 4050.256, 450, 0, []
1628600317.1483, 65, 0, 4103.59, 4218.462, 4070.256, 4150.256, 4055.897, 450, 0, []
1628600317.1562, 66, 0, 4102.564, 4217.436, 4105.641, 4171.282, 4054.872, 16185, 0, []
1628600317.164, 67, 0, 4106.154, 4215.897, 4101.538, 4160.513, 4057.949, 450, 0, []
1628600317.1719, 68, 0, 4106.667, 4205.128, 4085.641, 4157.949, 4057.436, 16159, 0, []
1628600317.1796, 69, 0, 4107.179, 4217.436, 4107.692, 4172.308, 4055.385, 450, 0, []
1628600317.1875, 70, 0, 4107.179, 4227.692, 4068.718, 4145.641, 4054.872, 155, 0, []
1628600317.1953, 71, 0, 4113.333, 4207.692, 4103.077, 4166.667, 4065.641, 450, 0, []
1628600317.2032, 72, 0, 4127.692, 4218.974, 4098.974, 4159.487, 4085.641, 450, 0, []
1628600317.211, 73, 0, 4114.359, 4238.462, 4076.41, 4158.974, 4078.974, 16225, 0, []
1628600317.2188, 74, 0, 4085.641, 4211.282, 4100, 4177.436, 4055.385, 450, 0, []
1628600317.2266, 75, 0, 4097.949, 4212.308, 4066.667, 4148.718, 4066.667, 16204, 0, []
1628600317.2346, 76, 0, 4129.744, 4237.436, 4105.128, 4176.923, 4100, 450, 0, []
1628600317.2425, 77, 0, 4136.41, 4218.974, 4100, 4166.667, 4105.128, 450, 0, []
1628600317.2505, 78, 0, 4111.282, 4189.744, 4066.667, 4135.897, 4077.949, 450, 0, []
1628600317.2583, 79, 0, 4075.385, 4199.487, 4095.385, 4149.744, 4041.026, 16204, 0, []
1628600317.2663, 80, 0, 4070.256, 4217.949, 4060, 4132.821, 4029.744, 450, 0, []
1628600317.2742, 81, 0, 4105.641, 4232.821, 4102.564, 4161.538, 4064.103, 450, 0, []
