Timestamp, COUNTER, INTERPOLATED, AF3, T7, Pz, T8, AF4, RAW_CQ, MARKER_HARDWARE, MARKERS
1629739223.9807, 56, 0, 4200.513, 4273.333, 4139.487, 4171.795, 4248.205, 0, 0, []
1629739223.9886, 57, 0, 4198.974, 4252.821, 4136.923, 4159.487, 4235.385, 0, 0, []
1629739223.9965, 58, 0, 4192.308, 4224.103, 4136.41, 4160.513, 4239.487, 0, 0, []
1629739224.0044, 59, 0, 4186.667, 4256.41, 4150.256, 4160, 4243.59, 0, 0, []
1629739224.0124, 60, 0, 4189.231, 4282.051, 4128.205, 4150.769, 4238.462, 0, 0, []
1629739224.0203, 61, 0, 4195.897, 4243.59, 4134.359, 4154.872, 4241.026, 0, 0, []
1629739224.0281, 62, 0, 4207.692, 4218.462, 4140.513, 4163.077, 4251.795, 0, 0, []
1629739224.0359, 63, 0, 4216.923, 4257.949, 4133.846, 4161.026, 4254.359, 0, 0, []
1629739224.0437, 64, 0, 4212.821, 4276.41, 4140, 4151.282, 4246.154, 450, 0, []
1629739224.0516, 65, 0, 4207.179, 4241.026, 4122.564, 4148.205, 4234.872, 450, 0, []
1629739224.0594, 66, 0, 4212.308, 4245.641, 4131.282, 4153.333, 4231.282, 16192, 0, []
1629739224.0673, 67, 0, 4220.513, 4278.974, 4131.795, 4154.872, 4233.846, 450, 0, []
1629739224.075, 68, 0, 4220.513, 4254.359, 4121.538, 4153.333, 4233.846, 16151, 0, []
1629739224.0829, 69, 0, 4213.333, 4233.333, 4140, 4153.333, 4231.282, 450, 0, []
1629739224.0907, 70, 0, 4212.308, 4266.154, 4129.744, 4154.872, 4224.615, 16097, 0, []
1629739224.0986, 71, 0, 4213.333, 4255.385, 4142.051, 4160.513, 4216.923, 450, 0, []
1629739224.1064, 72, 0, 4204.615, 4221.538, 4152.308, 4159.487, 4211.795, 450, 0, []
1629739224.1143, 73, 0, 4190.256, 4250.769, 4127.692, 4148.718, 4204.103, 16125, 0, []
1629739224.1222, 74, 0, 4184.103, 4259.487, 4125.128, 4143.077, 4197.436, 450, 0, []
1629739224.1302, 75, 0, 4190.769, 4233.333, 4116.41, 4150.256, 4200, 16200, 0, []
1629739224.1381, 76, 0, 4204.103, 4262.564, 4129.231, 4157.436, 4211.795, 450, 0, []
1629739224.1461, 77, 0, 4214.359, 4276.41, 4132.308, 4152.308, 4212.308, 450, 0, []
1629739224.1539, 78, 0, 4215.385, 4236.923, 4112.821, 4147.692, 4205.641, 450, 0, []
1629739224.1619, 79, 0, 4208.718, 4244.615, 4133.333, 4153.333, 4202.564, 16200, 0, []
1629739224.1698, 80, 0, 4200.513, 4278.462, 4131.282, 4154.872, 4202.564, 450, 0, []
1629739224.1778, 81, 0, 4207.179, 4265.128, 4135.897, 4154.359, 4209.231, 450, 0, []
1629739224.1857, 82, 0, 4216.923, 4250.256, 4143.59, 4153.333, 4215.385, 450, 0, []
1629739224.1934, 83, 0, 4217.949, 4260.513, 4118.974, 4150.256, 4217.436, 16200, 0, []
1629739224.2013, 84, 0, 4223.077, 4258.974, 4132.308, 4153.846, 4221.538, 450, 0, []
1629739224.2091, 85, 0, 4226.154, 4236.923, 4141.538, 4160, 4227.179, 450, 0, []
1629739224.217, 86, 0, 4217.436, 4221.538, 4147.179, 4164.615, 4218.974, 450, 0, []
1629739224.2248, 87, 0, 4215.385, 4236.41, 4154.872, 4169.231, 4213.846, 16200, 0, []
1629739224.2326, 88, 0, 4219.487, 4251.795, 4134.359, 4167.692, 4226.154, 450, 0, []
1629739224.2404, 89, 0, 4217.436, 4247.692, 4145.641, 4165.641, 4233.846, 450, 0, []
1629739224.2483, 90, 0, 4218.974, 4267.179, 4149.744, 4166.667, 4233.333, 450, 0, []
1629739224.2561, 91, 0, 4221.538, 4272.821, 4135.385, 4159.487, 4227.179, 16200, 0, []
1629739224.2641, 92, 0, 4211.282, 4232.821, 4125.128, 4148.718, 4210.769, 450, 0, []
1629739224.272, 93, 0, 4205.128, 4229.231, 4104.615, 4150.769, 4201.538, 450, 0, []
1629739224.2799, 94, 0, 4207.179, 4249.231, 4118.974, 4157.949, 4208.205, 450, 0, []
1629739224.2878, 95, 0, 4205.641, 4233.846, 4115.897, 4156.41, 4214.359, 16200, 0, []
1629739224.2958, 96, 0, 4201.538, 4225.128, 4105.641, 4151.282, 4208.205, 450, 0, []
1629739224.3037, 97, 0, 4195.385, 4241.538, 4129.231, 4148.205, 4200, 450, 0, []
1629739224.3117, 98, 0, 4182.564, 4243.077, 4114.359, 4139.487, 4183.59, 450, 0, []
1629739224.3195, 99, 0, 4170.769, 4231.282, 4109.744, 4127.692, 4166.154, 16200, 0, []
1629739224.3275, 100, 0, 4177.436, 4231.282, 4117.949, 4135.385, 4172.308, 450, 0, []
1629739224.3354, 101, 0, 4189.231, 4247.179, 4120.513, 4153.333, 4192.308, 450, 0, []
1629739224.3432, 102, 0, 4197.436, 4247.179, 4133.333, 4157.949, 4201.026, 450, 0, []
1629739224.3511, 103, 0, 4211.282, 4223.077, 4123.077, 4151.795, 4206.154, 16200, 0, []
1629739224.3588, 104, 0, 4216.923, 4227.692, 4130.769, 4149.231, 4212.821, 450, 0, []
1629739224.3667, 105, 0, 4204.103, 4241.538, 4120.513, 4135.897, 4200, 450, 0, []
1629739224.3745, 106, 0, 4190.769, 4217.949, 4096.41, 4119.487, 4178.974, 450, 0, []
1629739224.3824, 107, 0, 4196.41, 4208.718, 4119.487, 4129.231, 4183.077, 16200, 0, []
1629739224.3902, 108, 0, 4214.359, 4240, 4122.564, 4151.282, 4208.205, 450, 0, []
1629739224.398, 109, 0, 4225.641, 4260.513, 4134.359, 4163.077, 4222.051, 450, 0, []
1629739224.4058, 110, 0, 4224.103, 4261.026, 4143.077, 4162.564, 4214.359, 450, 0, []
1629739224.4138, 111, 0, 4220, 4258.974, 4125.128, 4158.974, 4205.641, 16200, 0, []
1629739224.4217, 112, 0, 4211.282, 4242.051, 4142.564, 4150.769, 4198.462, 450, 0, []
1629739224.4297, 113, 0, 4195.385, 4231.282, 4129.231, 4136.923, 4188.718, 450, 0, []
1629739224.4375, 114, 0, 4189.231, 4235.897, 4111.795, 4130.256, 4178.462, 450, 0, []
1629739224.4455, 115, 0, 4187.692, 4234.872, 4121.026, 4125.641, 4167.692, 16200, 0, []
1629739224.4534, 116, 0, 4180.513, 4221.026, 4114.359, 4118.974, 4160, 450, 0, []
1629739224.4614, 117, 0, 4192.308, 4220.513, 4130.769, 4128.205, 4173.333, 450, 0, []
1629739224.4693, 118, 0, 4215.897, 4237.949, 4132.821, 4144.615, 4196.923, 450, 0, []
1629739224.4772, 119, 0, 4207.179, 4219.487, 4124.615, 4137.949, 4193.333, 16200, 0, []
1629739224.4851, 120, 0, 4195.385, 4198.462, 4130.256, 4124.103, 4180, 450, 0, []
1629739224.4931, 121, 0, 4208.718, 4244.103, 4127.692, 4132.308, 4187.179, 450, 0, []
1629739224.501, 122, 0, 4208.205, 4266.154, 4138.974, 4141.026, 4189.744, 450, 0, []
1629739224.5089, 123, 0, 4195.897, 4222.564, 4120.513, 4134.359, 4182.564, 16200, 0, []
1629739224.5167, 124, 0, 4201.026, 4218.974, 4118.974, 4136.923, 4191.795, 450, 0, []
1629739224.5246, 125, 0, 4200, 4242.564, 4144.615, 4148.205, 4194.359, 450, 0, []
1629739224.5325, 126, 0, 4181.538, 4224.615, 4116.41, 4140.513, 4174.359, 450, 0, []
1629739224.5403, 127, 0, 4169.231, 4223.077, 4107.692, 4125.641, 4164.615, 16200, 0, []
1629739224.5482, 128, 0, 4169.231, 4252.308, 4112.821, 4115.385, 4166.154, 450, 0, []
1629739224.5559, 0, 0, 4177.949, 4257.436, 4117.949, 4109.231, 4160, 450, 0, []
1629739224.5638, 1, 0, 4186.154, 4240.513, 4131.282, 4109.744, 4155.385, 450, 0, []
1629739224.5716, 2, 0, 4198.462, 4231.795, 4117.436, 4124.615, 4169.744, 16192, 0, []
1629739224.5796, 3, 0, 4213.846, 4231.282, 4134.359, 4137.949, 4186.667, 450, 0, []
1629739224.5875, 4, 0, 4211.282, 4237.436, 4140.513, 4133.846, 4186.154, 16142, 0, []
1629739224.5953, 5, 0, 4206.154, 4242.564, 4124.103, 4134.872, 4181.538, 450, 0, []
1629739224.6031, 6, 0, 4211.795, 4244.615, 4135.385, 4142.564, 4187.179, 16093, 0, []
1629739224.6111, 7, 0, 4207.692, 4248.718, 4120, 4134.359, 4184.615, 450, 0, []
1629739224.619, 8, 0, 4192.821, 4233.846, 4118.462, 4123.077, 4173.846, 450, 0, []
1629739224.627, 9, 0, 4199.487, 4226.154, 4126.154, 4132.821, 4180.513, 16167, 0, []
1629739224.6349, 10, 0, 4211.282, 4237.949, 4118.974, 4144.103, 4192.308, 450, 0, []
1629739224.6428, 11, 0, 4203.59, 4240.513, 4130.769, 4136.923, 4180.513, 16200, 0, []
1629739224.6507, 12, 0, 4198.974, 4254.359, 4117.436, 4131.282, 4171.795, 450, 0, []
1629739224.6587, 13, 0, 4202.564, 4267.692, 4116.923, 4139.487, 4183.077, 450, 0, []
1629739224.6666, 14, 0, 4196.923, 4236.41, 4122.564, 4138.974, 4180.513, 450, 0, []
1629739224.6744, 15, 0, 4184.103, 4205.128, 4109.744, 4129.744, 4171.282, 16200, 0, []
1629739224.6822, 16, 0, 4189.744, 4240.513, 4131.795, 4143.59, 4181.026, 0, 0, []
1629739224.69, 17, 0, 4205.641, 4281.026, 4136.923, 4162.564, 4191.282, 0, 0, []
1629739224.6979, 18, 0, 4213.333, 4264.615, 4142.051, 4160.513, 4190.769, 0, 0, []
1629739224.7057, 19, 0, 4218.462, 4245.641, 4150.769, 4157.436, 4200, 0, 0, []
1629739224.7136, 20, 0, 4220.513, 4250.769, 4133.333, 4160.513, 4207.179, 0, 0, []
1629739224.7213, 21, 0, 4217.949, 4248.205, 4143.077, 4157.436, 4200, 0, 0, []
1629739224.7293, 22, 0, 4221.026, 4246.154, 4134.872, 4158.462, 4203.59, 0, 0, []
1629739224.7372, 23, 0, 4225.128, 4249.231, 4129.231, 4163.59, 4210.769, 0, 0, []
1629739224.7452, 24, 0, 4213.333, 4233.333, 4134.872, 4157.436, 4200.513, 0, 0, []
1629739224.7531, 25, 0, 4193.846, 4219.487, 4110.769, 4142.051, 4183.59, 0, 0, []
1629739224.761, 26, 0, 4191.795, 4248.718, 4117.949, 4137.436, 4181.538, 0, 0, []
1629739224.7689, 27, 0, 4211.795, 4273.333, 4126.154, 4150.769, 4192.821, 0, 0, []
1629739224.7769, 28, 0, 4221.538, 4248.718, 4131.795, 4161.538, 4197.949, 0, 0, []
1629739224.7848, 29, 0, 4217.949, 4227.179, 4145.641, 4160, 4197.436, 0, 0, []
1629739224.7928, 30, 0, 4214.359, 4232.821, 4142.051, 4164.615, 4200.513, 0, 0, []
1629739224.8006, 31, 0, 4210.769, 4240, 4165.641, 4175.385, 4202.051, 0, 0, []
1629739224.8086, 32, 0, 4219.487, 4236.923, 4155.897, 4168.718, 4198.974, 0, 0, []
1629739224.8165, 33, 0, 4237.949, 4237.949, 4134.359, 4157.436, 4202.564, 0, 0, []
1629739224.8243, 34, 0, 4236.41, 4245.641, 4144.615, 4154.872, 4205.128, 0, 0, []
1629739224.8322, 35, 0, 4220.513, 4254.872, 4129.231, 4151.282, 4199.487, 0, 0, []
1629739224.8399, 36, 0, 4214.359, 4248.205, 4141.026, 4153.333, 4192.308, 0, 0, []
1629739224.8478, 37, 0, 4214.359, 4236.923, 4149.231, 4162.051, 4187.179, 0, 0, []
1629739224.8556, 38, 0, 4215.385, 4247.179, 4130.256, 4165.641, 4191.795, 0, 0, []
1629739224.8635, 39, 0, 4220, 4244.103, 4136.923, 4168.205, 4202.051, 0, 0, []
1629739224.8713, 40, 0, 4215.385, 4236.41, 4121.026, 4163.077, 4198.462, 0, 0, []
1629739224.8791, 41, 0, 4203.59, 4248.718, 4112.308, 4151.282, 4182.564, 0, 0, []
1629739224.8869, 42, 0, 4193.846, 4242.564, 4104.103, 4135.385, 4162.051, 0, 0, []
1629739224.8949, 43, 0, 4183.59, 4206.667, 4086.154, 4120, 4148.205, 0, 0, []
1629739224.9028, 44, 0, 4176.41, 4204.615, 4102.051, 4120.513, 4153.333, 0, 0, []
1629739224.9108, 45, 0, 4185.128, 4244.615, 4100.513, 4130.256, 4170.256, 0, 0, []
1629739224.9186, 46, 0, 4197.949, 4257.436, 4101.538, 4134.872, 4172.308, 0, 0, []
1629739224.9266, 47, 0, 4198.974, 4234.872, 4104.615, 4133.333, 4170.256, 0, 0, []
1629739224.9345, 48, 0, 4205.128, 4221.538, 4104.103, 4139.487, 4181.026, 0, 0, []
1629739224.9425, 49, 0, 4216.923, 4246.667, 4137.949, 4149.231, 4190.769, 0, 0, []
1629739224.9504, 50, 0, 4216.41, 4264.615, 4127.179, 4146.154, 4189.231, 0, 0, []
1629739224.9583, 51, 0, 4207.179, 4237.436, 4108.718, 4140.513, 4177.436, 0, 0, []
1629739224.9662, 52, 0, 4202.564, 4218.974, 4117.949, 4136.41, 4167.179, 0, 0, []
1629739224.974, 53, 0, 4201.026, 4243.59, 4117.436, 4137.436, 4166.154, 0, 0, []
1629739224.9819, 54, 0, 4197.949, 4252.308, 4138.462, 4145.128, 4167.179, 0, 0, []
1629739224.9897, 55, 0, 4207.179, 4225.641, 4131.282, 4148.205, 4174.359, 0, 0, []
1629739224.9976, 56, 0, 4221.538, 4219.487, 4121.538, 4144.615, 4183.077, 0, 0, []
1629739225.0053, 57, 0, 4220, 4237.949, 4126.667, 4143.59, 4178.462, 0, 0, []
1629739225.0132, 58, 0, 4199.487, 4234.359, 4098.974, 4139.487, 4165.641, 0, 0, []
1629739225.021, 59, 0, 4191.795, 4223.59, 4097.436, 4124.615, 4166.154, 0, 0, []
1629739225.0289, 60, 0, 4210.256, 4243.59, 4098.974, 4122.051, 4177.949, 0, 0, []
1629739225.0367, 61, 0, 4222.051, 4254.872, 4107.692, 4135.897, 4186.154, 0, 0, []
1629739225.0446, 62, 0, 4215.897, 4226.667, 4126.154, 4145.128, 4187.692, 0, 0, []
1629739225.0525, 63, 0, 4216.923, 4220, 4111.795, 4147.179, 4187.692, 0, 0, []
1629739225.0605, 64, 0, 4224.103, 4251.795, 4118.974, 4152.308, 4188.205, 450, 0, []
1629739225.0684, 65, 0, 4215.897, 4266.154, 4104.103, 4146.154, 4179.487, 450, 0, []
1629739225.0764, 66, 0, 4200.513, 4242.051, 4082.051, 4137.949, 4169.231, 16192, 0, []
1629739225.0842, 67, 0, 4195.385, 4224.615, 4100.513, 4142.051, 4165.128, 450, 0, []
1629739225.0922, 68, 0, 4203.077, 4234.872, 4103.077, 4145.641, 4167.179, 16142, 0, []
1629739225.1001, 69, 0, 4216.41, 4244.615, 4122.051, 4148.718, 4176.41, 450, 0, []
1629739225.1081, 70, 0, 4214.359, 4233.846, 4118.974, 4145.641, 4176.41, 16094, 0, []
1629739225.116, 71, 0, 4201.026, 4226.154, 4103.59, 4138.462, 4169.744, 450, 0, []
1629739225.1238, 72, 0, 4198.462, 4242.051, 4130.256, 4143.077, 4169.744, 450, 0, []
1629739225.1317, 73, 0, 4202.564, 4256.41, 4124.615, 4149.231, 4172.308, 16174, 0, []
1629739225.1395, 74, 0, 4203.59, 4244.615, 4112.308, 4140.513, 4169.231, 450, 0, []
1629739225.1474, 75, 0, 4208.205, 4229.231, 4110.256, 4136.923, 4166.667, 16200, 0, []
1629739225.1552, 76, 0, 4220.513, 4236.41, 4118.462, 4151.795, 4168.718, 450, 0, []
1629739225.163, 77, 0, 4224.103, 4246.154, 4144.103, 4156.923, 4170.256, 450, 0, []
1629739225.1708, 78, 0, 4220.513, 4237.949, 4127.179, 4154.872, 4171.795, 450, 0, []
1629739225.1787, 79, 0, 4215.385, 4231.795, 4120.513, 4153.333, 4171.282, 16200, 0, []
1629739225.1865, 80, 0, 4206.667, 4228.205, 4114.872, 4141.538, 4167.179, 450, 0, []
1629739225.1944, 81, 0, 4197.436, 4231.282, 4098.974, 4128.718, 4155.385, 450, 0, []
1629739225.2021, 82, 0, 4195.385, 4232.308, 4110.256, 4131.282, 4152.308, 450, 0, []
1629739225.21, 83, 0, 4210.769, 4223.077, 4115.897, 4146.667, 4166.154, 16200, 0, []
1629739225.2178, 84, 0, 4220.513, 4223.077, 4130.769, 4150.769, 4173.846, 450, 0, []
1629739225.2258, 85, 0, 4213.333, 4232.308, 4099.487, 4145.128, 4177.436, 450, 0, []
1629739225.2337, 86, 0, 4208.718, 4242.564, 4122.051, 4149.231, 4181.026, 450, 0, []
1629739225.2416, 87, 0, 4208.718, 4246.154, 4158.974, 4160, 4174.872, 16200, 0, []
1629739225.2495, 88, 0, 4204.615, 4236.923, 4078.974, 4150.256, 4167.179, 450, 0, []
1629739225.2575, 89, 0, 4193.333, 4219.487, 4137.949, 4126.667, 4162.564, 450, 0, []
1629739225.2654, 90, 0, 4192.821, 4228.718, 4156.41, 4122.051, 4161.538, 450, 0, []
1629739225.2734, 91, 0, 4200, 4248.718, 4064.103, 4131.795, 4169.231, 16200, 0, []
1629739225.2812, 92, 0, 4198.974, 4242.564, 4112.821, 4137.949, 4174.359, 450, 0, []
1629739225.289, 93, 0, 4200.513, 4247.179, 4111.795, 4133.333, 4171.282, 450, 0, []
1629739225.2969, 94, 0, 4198.462, 4242.564, 4089.231, 4129.744, 4167.692, 450, 0, []
1629739225.3047, 95, 0, 4188.205, 4233.333, 4112.821, 4132.821, 4168.205, 16200, 0, []
1629739225.3126, 96, 0, 4187.692, 4250.769, 4098.974, 4137.949, 4175.385, 450, 0, []
1629739225.3204, 97, 0, 4194.872, 4257.949, 4100.513, 4135.385, 4174.872, 450, 0, []
1629739225.3282, 98, 0, 4190.256, 4250.256, 4101.538, 4127.692, 4167.179, 450, 0, []
1629739225.336, 99, 0, 4182.051, 4257.436, 4121.026, 4134.872, 4175.385, 16200, 0, []
1629739225.3439, 100, 0, 4188.718, 4270.769, 4124.615, 4142.051, 4188.205, 450, 0, []
1629739225.3517, 101, 0, 4198.462, 4261.026, 4103.077, 4131.282, 4187.179, 450, 0, []
1629739225.3597, 102, 0, 4202.051, 4257.949, 4115.385, 4124.103, 4188.205, 450, 0, []
1629739225.3675, 103, 0, 4204.103, 4267.692, 4109.744, 4124.615, 4193.333, 16200, 0, []
1629739225.3755, 104, 0, 4195.385, 4251.795, 4103.59, 4121.026, 4182.051, 450, 0, []
1629739225.3834, 105, 0, 4184.615, 4229.231, 4115.385, 4116.41, 4168.205, 450, 0, []
1629739225.3914, 106, 0, 4189.231, 4237.949, 4112.821, 4116.41, 4174.872, 450, 0, []
1629739225.3993, 107, 0, 4202.564, 4270.256, 4123.077, 4130.769, 4193.846, 16200, 0, []
1629739225.4072, 108, 0, 4210.769, 4283.077, 4124.103, 4149.231, 4203.59, 450, 0, []
1629739225.4151, 109, 0, 4214.359, 4271.282, 4126.667, 4150.769, 4208.205, 450, 0, []
1629739225.4231, 110, 0, 4218.462, 4266.667, 4134.872, 4147.179, 4216.923, 450, 0, []
1629739225.431, 111, 0, 4214.872, 4262.051, 4124.615, 4147.179, 4216.923, 16200, 0, []
1629739225.4388, 112, 0, 4202.564, 4252.308, 4122.051, 4136.41, 4205.641, 450, 0, []
1629739225.4466, 113, 0, 4188.205, 4247.179, 4107.692, 4117.949, 4192.308, 450, 0, []
1629739225.4544, 114, 0, 4180.513, 4237.949, 4095.385, 4116.41, 4181.538, 450, 0, []
1629739225.4623, 115, 0, 4184.615, 4255.385, 4104.103, 4137.436, 4190.256, 16200, 0, []
1629739225.4701, 116, 0, 4186.667, 4280, 4107.692, 4151.282, 4210.769, 450, 0, []
1629739225.478, 117, 0, 4190.256, 4265.641, 4112.308, 4148.718, 4216.923, 450, 0, []
1629739225.4857, 118, 0, 4201.026, 4254.872, 4102.051, 4142.564, 4217.949, 450, 0, []
1629739225.4936, 119, 0, 4200.513, 4258.974, 4090.769, 4133.846, 4218.462, 16200, 0, []
1629739225.5015, 120, 0, 4185.641, 4251.282, 4096.923, 4120, 4207.179, 450, 0, []
1629739225.5094, 121, 0, 4178.462, 4262.051, 4097.436, 4114.872, 4196.923, 450, 0, []
1629739225.5174, 122, 0, 4189.744, 4278.974, 4119.487, 4131.282, 4202.564, 450, 0, []
1629739225.5253, 123, 0, 4203.59, 4259.487, 4126.667, 4148.205, 4215.897, 16200, 0, []
1629739225.5332, 124, 0, 4196.923, 4244.103, 4107.692, 4141.026, 4213.333, 450, 0, []
1629739225.5412, 125, 0, 4182.051, 4262.564, 4117.436, 4129.231, 4205.641, 450, 0, []
1629739225.5491, 126, 0, 4185.641, 4284.615, 4123.59, 4138.974, 4213.846, 450, 0, []
1629739225.5571, 127, 0, 4187.692, 4278.462, 4115.385, 4140, 4218.462, 16200, 0, []
1629739225.5649, 128, 0, 4180.513, 4251.795, 4100, 4123.59, 4209.744, 450, 0, []
1629739225.5729, 0, 0, 4192.308, 4247.692, 4098.974, 4125.128, 4215.385, 450, 0, []
1629739225.5808, 1, 0, 4192.821, 4259.487, 4110.256, 4133.333, 4220.513, 450, 0, []
1629739225.5888, 2, 0, 4168.205, 4240, 4092.308, 4118.974, 4202.564, 16192, 0, []
1629739225.5967, 3, 0, 4166.667, 4231.795, 4094.872, 4113.333, 4192.308, 450, 0, []
1629739225.6044, 4, 0, 4190.256, 4273.846, 4113.846, 4130.256, 4207.179, 16142, 0, []
1629739225.6123, 5, 0, 4193.333, 4288.205, 4109.744, 4142.051, 4221.538, 450, 0, []
1629739225.6201, 6, 0, 4177.949, 4257.949, 4107.692, 4137.949, 4214.359, 16094, 0, []
1629739225.628, 7, 0, 4183.59, 4264.103, 4101.026, 4136.41, 4212.308, 450, 0, []
1629739225.6358, 8, 0, 4203.59, 4277.949, 4106.154, 4142.564, 4226.154, 450, 0, []
1629739225.6436, 9, 0, 4202.564, 4259.487, 4108.205, 4133.333, 4225.128, 16174, 0, []
1629739225.6514, 10, 0, 4186.667, 4257.949, 4088.718, 4114.872, 4211.795, 450, 0, []
1629739225.6594, 11, 0, 4185.641, 4266.154, 4094.359, 4117.436, 4215.385, 16200, 0, []
1629739225.6673, 12, 0, 4189.744, 4244.103, 4092.821, 4118.974, 4219.487, 450, 0, []
1629739225.6753, 13, 0, 4185.128, 4268.205, 4085.641, 4107.179, 4212.821, 450, 0, []
1629739225.6832, 14, 0, 4185.128, 4343.59, 4097.949, 4112.308, 4216.41, 450, 0, []
1629739225.6911, 15, 0, 4182.564, 4344.103, 4101.026, 4120.513, 4216.41, 16200, 0, []
1629739225.699, 16, 0, 4187.179, 4319.487, 4116.41, 4123.077, 4217.436, 0, 0, []
1629739225.707, 17, 0, 4212.308, 4357.436, 4125.641, 4142.051, 4240, 0, 0, []
1629739225.7149, 18, 0, 4217.949, 4372.821, 4114.359, 4144.615, 4249.744, 0, 0, []
1629739225.7229, 19, 0, 4200, 4333.333, 4096.923, 4116.41, 4232.821, 0, 0, []
1629739225.7307, 20, 0, 4197.436, 4313.333, 4086.667, 4108.718, 4228.205, 0, 0, []
1629739225.7385, 21, 0, 4201.538, 4324.103, 4106.667, 4126.667, 4234.872, 0, 0, []
1629739225.7464, 22, 0, 4197.949, 4326.154, 4102.564, 4125.128, 4232.308, 0, 0, []
1629739225.7542, 23, 0, 4202.051, 4318.462, 4087.179, 4124.615, 4242.051, 0, 0, []
1629739225.7621, 24, 0, 4207.692, 4300, 4097.949, 4140, 4253.333, 0, 0, []
1629739225.7698, 25, 0, 4205.128, 4288.718, 4102.051, 4141.538, 4250.769, 0, 0, []
1629739225.7777, 26, 0, 4212.308, 4308.205, 4117.436, 4142.051, 4255.385, 0, 0, []
1629739225.7855, 27, 0, 4221.026, 4308.718, 4122.051, 4146.667, 4261.538, 0, 0, []
1629739225.7934, 28, 0, 4220, 4297.949, 4110.769, 4139.487, 4254.872, 0, 0, []
1629739225.8012, 29, 0, 4215.897, 4314.359, 4115.385, 4131.795, 4244.103, 0, 0, []
1629739225.809, 30, 0, 4205.641, 4314.872, 4107.179, 4134.872, 4234.872, 0, 0, []
1629739225.8168, 31, 0, 4197.436, 4310.256, 4113.846, 4138.462, 4229.231, 0, 0, []
1629739225.8248, 32, 0, 4198.974, 4326.667, 4132.821, 4144.615, 4233.846, 0, 0, []
1629739225.8327, 33, 0, 4199.487, 4307.179, 4126.667, 4137.436, 4230.769, 0, 0, []
1629739225.8407, 34, 0, 4195.897, 4264.615, 4122.051, 4115.897, 4222.051, 0, 0, []
1629739225.8485, 35, 0, 4203.077, 4273.333, 4126.667, 4116.41, 4227.179, 0, 0, []
1629739225.8565, 36, 0, 4217.436, 4315.897, 4142.051, 4137.436, 4231.795, 0, 0, []
1629739225.8644, 37, 0, 4221.026, 4341.538, 4143.077, 4151.282, 4236.923, 0, 0, []
1629739225.8724, 38, 0, 4214.872, 4353.846, 4137.436, 4157.949, 4243.59, 0, 0, []
1629739225.8803, 39, 0, 4215.385, 4366.154, 4141.026, 4159.487, 4238.462, 0, 0, []
1629739225.8882, 40, 0, 4226.154, 4360.513, 4125.128, 4153.333, 4232.308, 0, 0, []
1629739225.8961, 41, 0, 4223.077, 4326.154, 4135.897, 4154.872, 4237.436, 0, 0, []
1629739225.9039, 42, 0, 4213.333, 4309.744, 4150.256, 4164.615, 4239.487, 0, 0, []
1629739225.9118, 43, 0, 4223.59, 4313.846, 4124.103, 4155.385, 4231.795, 0, 0, []
1629739225.9196, 44, 0, 4239.487, 4307.692, 4116.923, 4142.051, 4232.821, 0, 0, []
1629739225.9274, 45, 0, 4230.256, 4308.718, 4120, 4138.974, 4233.846, 0, 0, []
1629739225.9352, 46, 0, 4213.846, 4321.538, 4120, 4133.333, 4221.026, 0, 0, []
1629739225.9431, 47, 0, 4219.487, 4316.41, 4112.308, 4125.128, 4212.821, 0, 0, []
1629739225.9509, 48, 0, 4233.333, 4305.128, 4097.949, 4130.256, 4225.128, 0, 0, []
1629739225.9588, 49, 0, 4238.462, 4304.103, 4115.385, 4144.615, 4241.026, 0, 0, []
1629739225.9665, 50, 0, 4224.103, 4311.282, 4117.949, 4140.513, 4228.718, 0, 0, []
1629739225.9745, 51, 0, 4201.538, 4327.692, 4101.026, 4122.564, 4202.564, 0, 0, []
1629739225.9824, 52, 0, 4193.846, 4316.41, 4101.026, 4113.333, 4195.897, 0, 0, []
1629739225.9904, 53, 0, 4200, 4280, 4099.487, 4109.744, 4204.103, 0, 0, []
1629739225.9983, 54, 0, 4202.564, 4272.308, 4110.256, 4109.231, 4201.026, 0, 0, []
1629739226.0062, 55, 0, 4201.026, 4305.128, 4115.385, 4121.538, 4198.462, 0, 0, []
1629739226.0141, 56, 0, 4202.051, 4314.359, 4108.718, 4135.385, 4205.128, 0, 0, []
1629739226.0221, 57, 0, 4202.564, 4281.538, 4105.641, 4135.385, 4204.103, 0, 0, []
1629739226.03, 58, 0, 4200.513, 4270.769, 4094.359, 4135.897, 4204.615, 0, 0, []
1629739226.038, 59, 0, 4203.077, 4288.205, 4097.949, 4142.564, 4209.231, 0, 0, []
1629739226.0459, 60, 0, 4210.769, 4299.487, 4099.487, 4137.949, 4210.256, 0, 0, []
1629739226.0537, 61, 0, 4217.949, 4287.179, 4096.923, 4132.308, 4211.282, 0, 0, []
1629739226.0616, 62, 0, 4221.026, 4278.974, 4106.154, 4138.974, 4219.487, 0, 0, []
1629739226.0694, 63, 0, 4218.462, 4283.59, 4090.769, 4140, 4216.923, 0, 0, []
1629739226.0773, 64, 0, 4201.538, 4273.333, 4085.641, 4125.641, 4196.923, 450, 0, []
1629739226.0851, 65, 0, 4188.718, 4271.282, 4102.051, 4120, 4187.179, 450, 0, []
1629739226.0929, 66, 0, 4198.462, 4287.692, 4108.205, 4132.308, 4198.462, 16192, 0, []
1629739226.1007, 67, 0, 4202.051, 4274.359, 4105.641, 4137.436, 4206.154, 450, 0, []
1629739226.1086, 68, 0, 4188.718, 4238.974, 4090.256, 4130.256, 4196.923, 16142, 0, []
1629739226.1164, 69, 0, 4184.103, 4262.051, 4099.487, 4134.872, 4195.897, 450, 0, []
1629739226.1244, 70, 0, 4188.205, 4290.769, 4108.718, 4141.538, 4200, 16096, 0, []
1629739226.1322, 71, 0, 4192.308, 4264.103, 4094.359, 4131.795, 4200.513, 450, 0, []
1629739226.1402, 72, 0, 4200, 4257.436, 4100, 4130.769, 4206.667, 450, 0, []
1629739226.1481, 73, 0, 4200, 4269.744, 4103.077, 4134.872, 4207.179, 16174, 0, []
1629739226.1561, 74, 0, 4195.897, 4254.359, 4110.256, 4125.128, 4204.615, 450, 0, []
1629739226.164, 75, 0, 4204.615, 4248.205, 4124.615, 4126.154, 4214.359, 16200, 0, []
1629739226.1719, 76, 0, 4216.923, 4270.256, 4115.385, 4135.897, 4220.513, 450, 0, []
1629739226.1798, 77, 0, 4215.385, 4282.051, 4106.667, 4131.282, 4207.179, 450, 0, []
1629739226.1878, 78, 0, 4204.615, 4269.231, 4101.538, 4124.103, 4195.897, 450, 0, []
1629739226.1957, 79, 0, 4195.385, 4257.949, 4108.205, 4125.641, 4192.308, 16200, 0, []
1629739226.2035, 80, 0, 4204.615, 4260.513, 4120.513, 4131.282, 4200, 450, 0, []
1629739226.2113, 81, 0, 4226.154, 4271.282, 4123.59, 4140.513, 4216.923, 450, 0, []
1629739226.2191, 82, 0, 4233.846, 4276.923, 4141.538, 4149.231, 4224.615, 450, 0, []
1629739226.227, 83, 0, 4230.769, 4268.718, 4134.872, 4150.769, 4221.538, 16200, 0, []
1629739226.2348, 84, 0, 4229.231, 4263.077, 4115.385, 4147.179, 4216.923, 450, 0, []
1629739226.2427, 85, 0, 4228.718, 4268.205, 4124.103, 4150.769, 4220.513, 450, 0, []
1629739226.2504, 86, 0, 4231.795, 4277.949, 4127.692, 4152.821, 4218.974, 450, 0, []
1629739226.2583, 87, 0, 4230.769, 4288.718, 4128.718, 4145.128, 4204.615, 16200, 0, []
1629739226.2661, 88, 0, 4222.564, 4295.385, 4122.564, 4134.872, 4192.308, 450, 0, []
1629739226.274, 89, 0, 4219.487, 4280.513, 4118.462, 4136.41, 4192.308, 450, 0, []
1629739226.2818, 90, 0, 4215.897, 4262.564, 4128.205, 4150.256, 4189.744, 450, 0, []
1629739226.2897, 91, 0, 4203.077, 4265.641, 4118.462, 4152.308, 4178.462, 16200, 0, []
1629739226.2976, 92, 0, 4196.923, 4253.846, 4111.282, 4138.462, 4181.026, 450, 0, []
1629739226.3056, 93, 0, 4201.026, 4220.513, 4110.256, 4133.333, 4198.462, 450, 0, []
1629739226.3135, 94, 0, 4199.487, 4201.026, 4108.205, 4142.564, 4209.231, 450, 0, []
1629739226.3215, 95, 0, 4197.436, 4202.051, 4109.744, 4139.487, 4201.538, 16200, 0, []
1629739226.3293, 96, 0, 4207.692, 4199.487, 4105.128, 4131.282, 4204.615, 450, 0, []
1629739226.3373, 97, 0, 4218.974, 4183.59, 4120.513, 4142.051, 4215.385, 450, 0, []
1629739226.3452, 98, 0, 4216.923, 4186.667, 4129.744, 4153.333, 4210.256, 450, 0, []
1629739226.3532, 99, 0, 4211.282, 4201.538, 4122.564, 4154.872, 4204.103, 16200, 0, []
1629739226.3611, 100, 0, 4206.667, 4179.487, 4129.744, 4147.692, 4197.949, 450, 0, []
1629739226.3688, 101, 0, 4201.026, 4156.41, 4121.026, 4132.821, 4185.128, 450, 0, []
1629739226.3767, 102, 0, 4208.205, 4184.615, 4125.641, 4131.282, 4188.205, 450, 0, []
1629739226.3845, 103, 0, 4214.359, 4209.231, 4141.026, 4138.462, 4203.077, 16200, 0, []
1629739226.3924, 104, 0, 4207.692, 4195.385, 4134.359, 4138.462, 4197.949, 450, 0, []
1629739226.4002, 105, 0, 4204.615, 4182.051, 4134.872, 4137.436, 4185.128, 450, 0, []
1629739226.4081, 106, 0, 4207.179, 4194.872, 4128.205, 4137.949, 4185.128, 450, 0, []
1629739226.4158, 107, 0, 4206.154, 4212.308, 4131.795, 4137.949, 4186.154, 16200, 0, []
1629739226.4237, 108, 0, 4204.615, 4200.513, 4143.59, 4141.026, 4186.667, 450, 0, []
1629739226.4315, 109, 0, 4200.513, 4182.051, 4125.641, 4132.821, 4185.128, 450, 0, []
1629739226.4395, 110, 0, 4192.821, 4199.487, 4120.513, 4118.974, 4183.077, 450, 0, []
1629739226.4474, 111, 0, 4203.077, 4214.872, 4128.205, 4123.59, 4184.103, 16200, 0, []
1629739226.4553, 112, 0, 4213.846, 4183.59, 4139.487, 4129.231, 4186.667, 450, 0, []
1629739226.4632, 113, 0, 4207.179, 4180.513, 4147.692, 4129.231, 4188.205, 450, 0, []
1629739226.4712, 114, 0, 4197.949, 4204.615, 4130.769, 4129.231, 4177.436, 450, 0, []
1629739226.4791, 115, 0, 4195.385, 4195.385, 4132.821, 4132.308, 4170.256, 16200, 0, []
1629739226.4871, 116, 0, 4204.615, 4185.641, 4145.128, 4142.051, 4183.077, 450, 0, []
1629739226.4949, 117, 0, 4210.256, 4201.538, 4143.077, 4140.513, 4193.846, 450, 0, []
1629739226.5028, 118, 0, 4205.128, 4224.615, 4136.41, 4132.821, 4186.667, 450, 0, []
1629739226.5107, 119, 0, 4196.41, 4223.077, 4118.974, 4133.846, 4184.103, 16200, 0, []
1629739226.5186, 120, 0, 4191.795, 4196.41, 4117.436, 4134.359, 4180.513, 450, 0, []
1629739226.5265, 121, 0, 4188.718, 4187.179, 4117.436, 4124.103, 4167.692, 450, 0, []
1629739226.5342, 122, 0, 4193.333, 4209.744, 4120.513, 4128.718, 4165.128, 450, 0, []
1629739226.5422, 123, 0, 4199.487, 4219.487, 4131.282, 4140, 4165.128, 16200, 0, []
1629739226.5501, 124, 0, 4187.692, 4200.513, 4103.077, 4124.615, 4153.846, 450, 0, []
1629739226.558, 125, 0, 4193.846, 4186.667, 4089.744, 4116.923, 4160.513, 450, 0, []
1629739226.5658, 126, 0, 4246.667, 4190.769, 4113.333, 4138.974, 4205.128, 450, 0, []
1629739226.5736, 127, 0, 4301.026, 4220.513, 4125.128, 4153.846, 4249.744, 16200, 0, []
1629739226.5814, 128, 0, 4320.513, 4239.487, 4122.051, 4143.077, 4266.154, 450, 0, []
1629739226.5893, 0, 0, 4334.359, 4204.615, 4104.103, 4131.795, 4281.538, 450, 0, []
1629739226.5971, 1, 0, 4366.667, 4179.487, 4111.282, 4138.974, 4314.872, 450, 0, []
1629739226.6051, 2, 0, 4389.231, 4207.179, 4124.615, 4147.692, 4332.308, 16192, 0, []
1629739226.6129, 3, 0, 4383.077, 4230.769, 4105.641, 4139.487, 4321.026, 450, 0, []
1629739226.6209, 4, 0, 4366.667, 4222.051, 4108.205, 4127.692, 4310.256, 16142, 0, []
1629739226.6288, 5, 0, 4355.897, 4215.385, 4113.846, 4129.744, 4298.974, 450, 0, []
1629739226.6368, 6, 0, 4349.744, 4217.436, 4092.308, 4137.949, 4286.667, 16089, 0, []
1629739226.6447, 7, 0, 4339.487, 4195.897, 4107.179, 4143.59, 4280.513, 450, 0, []
1629739226.6526, 8, 0, 4330.769, 4181.538, 4120, 4146.667, 4267.692, 450, 0, []
1629739226.6605, 9, 0, 4325.128, 4212.821, 4100, 4143.077, 4249.744, 16174, 0, []
1629739226.6685, 10, 0, 4309.744, 4229.744, 4114.359, 4134.359, 4231.795, 450, 0, []
1629739226.6764, 11, 0, 4281.026, 4192.821, 4104.103, 4126.667, 4202.051, 16203, 0, []
1629739226.6842, 12, 0, 4262.564, 4179.487, 4092.821, 4126.667, 4173.846, 450, 0, []
1629739226.692, 13, 0, 4263.077, 4205.128, 4122.564, 4127.692, 4169.744, 450, 0, []
1629739226.6998, 14, 0, 4267.692, 4206.667, 4117.949, 4132.821, 4181.026, 450, 0, []
1629739226.7077, 15, 0, 4278.462, 4203.59, 4115.897, 4154.359, 4194.359, 16203, 0, []
1629739226.7155, 16, 0, 4285.641, 4212.308, 4144.103, 4168.205, 4189.231, 0, 0, []
1629739226.7234, 17, 0, 4259.487, 4208.205, 4141.026, 4149.231, 4155.897, 0, 0, []
1629739226.7312, 18, 0, 4228.205, 4203.59, 4106.154, 4129.231, 4126.667, 0, 0, []
1629739226.739, 19, 0, 4236.41, 4217.436, 4109.231, 4132.308, 4125.128, 0, 0, []
1629739226.7468, 20, 0, 4255.897, 4224.615, 4110.769, 4131.795, 4123.59, 0, 0, []
1629739226.7548, 21, 0, 4243.077, 4201.026, 4091.282, 4120.513, 4109.744, 0, 0, []
1629739226.7627, 22, 0, 4223.59, 4185.641, 4101.538, 4118.974, 4101.538, 0, 0, []
1629739226.7707, 23, 0, 4233.333, 4196.923, 4105.128, 4135.897, 4106.154, 0, 0, []
1629739226.7785, 24, 0, 4254.359, 4217.949, 4123.077, 4167.179, 4116.41, 0, 0, []
1629739226.7865, 25, 0, 4256.41, 4229.744, 4130.769, 4181.538, 4115.897, 0, 0, []
1629739226.7944, 26, 0, 4233.846, 4220, 4101.538, 4162.051, 4094.359, 0, 0, []
1629739226.8024, 27, 0, 4214.359, 4205.641, 4092.821, 4140.513, 4072.821, 0, 0, []
1629739226.8103, 28, 0, 4216.923, 4194.872, 4077.436, 4128.205, 4073.846, 0, 0, []
1629739226.8182, 29, 0, 4215.897, 4194.872, 4074.872, 4113.333, 4076.41, 0, 0, []
1629739226.8261, 30, 0, 4201.538, 4191.282, 4084.103, 4103.59, 4066.667, 0, 0, []
1629739226.8339, 31, 0, 4202.051, 4191.282, 4089.744, 4116.923, 4067.179, 0, 0, []
1629739226.8418, 32, 0, 4219.487, 4202.564, 4127.179, 4141.026, 4084.103, 0, 0, []
1629739226.8496, 33, 0, 4220.513, 4203.59, 4129.744, 4143.077, 4087.692, 0, 0, []
1629739226.8574, 34, 0, 4197.949, 4214.359, 4104.615, 4121.538, 4061.538, 0, 0, []
1629739226.8652, 35, 0, 4181.026, 4216.41, 4093.846, 4110.769, 4037.949, 0, 0, []
1629739226.8731, 36, 0, 4186.154, 4200, 4092.308, 4115.897, 4043.077, 0, 0, []
1629739226.8809, 37, 0, 4204.615, 4209.744, 4114.872, 4118.462, 4059.487, 0, 0, []
1629739226.8888, 38, 0, 4217.949, 4234.872, 4111.282, 4123.59, 4070.769, 0, 0, []
1629739226.8965, 39, 0, 4222.564, 4232.821, 4115.385, 4141.026, 4080.513, 0, 0, []
1629739226.9045, 40, 0, 4214.872, 4213.333, 4141.026, 4149.744, 4080.513, 0, 0, []
1629739226.9124, 41, 0, 4203.077, 4213.846, 4122.564, 4143.59, 4073.846, 0, 0, []
1629739226.9204, 42, 0, 4208.718, 4222.564, 4120.513, 4143.59, 4078.974, 0, 0, []
1629739226.9283, 43, 0, 4220, 4235.385, 4129.744, 4137.436, 4077.436, 0, 0, []
1629739226.9362, 44, 0, 4218.462, 4243.077, 4108.718, 4123.59, 4067.179, 0, 0, []
1629739226.9441, 45, 0, 4209.744, 4222.051, 4116.41, 4127.692, 4070.769, 0, 0, []
1629739226.9521, 46, 0, 4203.077, 4214.359, 4120.513, 4133.846, 4073.846, 0, 0, []
1629739226.96, 47, 0, 4197.949, 4227.179, 4110.256, 4130.769, 4066.154, 0, 0, []
1629739226.968, 48, 0, 4194.359, 4216.923, 4125.128, 4129.744, 4068.718, 0, 0, []
1629739226.9758, 49, 0, 4193.846, 4199.487, 4111.795, 4130.256, 4076.41, 0, 0, []
1629739226.9838, 50, 0, 4190.769, 4213.333, 4103.077, 4126.154, 4070.256, 0, 0, []
1629739226.9917, 51, 0, 4183.59, 4233.333, 4120, 4126.154, 4057.949, 0, 0, []
1629739226.9995, 52, 0, 4184.103, 4222.564, 4118.462, 4140, 4060, 0, 0, []
1629739227.0074, 53, 0, 4188.205, 4218.462, 4114.872, 4148.205, 4067.692, 0, 0, []
1629739227.0151, 54, 0, 4181.026, 4216.923, 4107.692, 4136.923, 4062.564, 0, 0, []
1629739227.023, 55, 0, 4178.462, 4201.026, 4114.359, 4134.359, 4060.513, 0, 0, []
1629739227.0308, 56, 0, 4184.615, 4208.205, 4109.231, 4146.667, 4071.795, 0, 0, []
1629739227.0387, 57, 0, 4181.538, 4222.051, 4105.128, 4147.692, 4073.333, 0, 0, []
1629739227.0465, 58, 0, 4178.974, 4213.333, 4118.974, 4141.026, 4066.154, 0, 0, []
1629739227.0543, 59, 0, 4187.179, 4206.154, 4105.641, 4140, 4066.667, 0, 0, []
1629739227.0621, 60, 0, 4186.154, 4211.282, 4106.667, 4135.897, 4060, 0, 0, []
1629739227.0701, 61, 0, 4181.026, 4216.923, 4107.692, 4136.41, 4054.359, 0, 0, []
1629739227.078, 62, 0, 4186.667, 4224.615, 4105.128, 4144.615, 4061.538, 0, 0, []
1629739227.086, 63, 0, 4180.513, 4224.615, 4106.154, 4141.538, 4053.333, 0, 0, []
1629739227.0939, 64, 0, 4173.333, 4232.308, 4096.923, 4141.026, 4044.103, 450, 0, []
1629739227.1018, 65, 0, 4177.436, 4256.923, 4116.41, 4148.205, 4052.821, 450, 0, []
1629739227.1097, 66, 0, 4175.897, 4258.974, 4107.179, 4139.487, 4052.821, 16190, 0, []
1629739227.1177, 67, 0, 4170.256, 4230.256, 4091.282, 4129.231, 4048.205, 450, 0, []
1629739227.1256, 68, 0, 4169.231, 4212.308, 4100.513, 4131.282, 4052.821, 16142, 0, []
1629739227.1336, 69, 0, 4168.718, 4223.59, 4088.718, 4132.308, 4050.769, 450, 0, []
1629739227.1414, 70, 0, 4167.179, 4243.59, 4096.923, 4131.795, 4042.051, 16078, 0, []
1629739227.1492, 71, 0, 4168.205, 4238.462, 4092.308, 4129.231, 4039.487, 450, 0, []
1629739227.1571, 72, 0, 4175.385, 4218.462, 4089.231, 4136.41, 4049.231, 450, 0, []
1629739227.1649, 73, 0, 4188.718, 4218.462, 4124.615, 4152.308, 4060, 16171, 0, []
1629739227.1728, 74, 0, 4186.667, 4234.359, 4115.897, 4152.308, 4058.462, 450, 0, []
1629739227.1805, 75, 0, 4176.923, 4251.795, 4106.667, 4148.205, 4054.872, 16203, 0, []
1629739227.1884, 76, 0, 4182.564, 4241.538, 4108.718, 4152.821, 4061.026, 450, 0, []
1629739227.1962, 77, 0, 4182.051, 4222.564, 4104.615, 4152.821, 4062.051, 450, 0, []
1629739227.2041, 78, 0, 4170.769, 4241.538, 4116.923, 4146.667, 4058.462, 450, 0, []
1629739227.2119, 79, 0, 4178.974, 4251.795, 4104.615, 4149.744, 4065.641, 16203, 0, []
1629739227.2198, 80, 0, 4187.179, 4237.949, 4111.795, 4156.41, 4069.744, 450, 0, []
1629739227.2277, 81, 0, 4175.385, 4250.256, 4126.667, 4156.41, 4061.538, 450, 0, []
1629739227.2357, 82, 0, 4172.308, 4253.846, 4115.385, 4149.231, 4063.59, 450, 0, []
1629739227.2436, 83, 0, 4182.051, 4230.769, 4115.897, 4146.667, 4076.41, 16203, 0, []
1629739227.2516, 84, 0, 4182.051, 4234.359, 4101.026, 4146.154, 4078.462, 450, 0, []
1629739227.2594, 85, 0, 4168.718, 4239.487, 4101.538, 4137.949, 4068.205, 450, 0, []
1629739227.2674, 86, 0, 4165.128, 4229.744, 4106.154, 4133.333, 4067.179, 450, 0, []
1629739227.2753, 87, 0, 4180.513, 4241.538, 4096.41, 4142.564, 4081.538, 16203, 0, []
1629739227.2833, 88, 0, 4185.128, 4253.333, 4110.256, 4145.641, 4092.308, 450, 0, []
1629739227.2912, 89, 0, 4173.846, 4248.205, 4092.821, 4133.846, 4090.256, 450, 0, []
1629739227.2989, 90, 0, 4175.897, 4244.615, 4088.718, 4138.974, 4088.205, 450, 0, []
1629739227.3068, 91, 0, 4192.308, 4247.179, 4114.359, 4158.974, 4095.385, 16203, 0, []
1629739227.3146, 92, 0, 4192.308, 4253.333, 4106.154, 4163.077, 4096.923, 450, 0, []
1629739227.3225, 93, 0, 4179.487, 4236.923, 4107.179, 4154.872, 4084.103, 450, 0, []
1629739227.3303, 94, 0, 4174.359, 4212.821, 4096.923, 4150.256, 4080, 450, 0, []
1629739227.3381, 95, 0, 4179.487, 4237.949, 4102.051, 4155.897, 4094.872, 16203, 0, []
1629739227.3459, 96, 0, 4188.205, 4274.872, 4127.179, 4162.051, 4107.692, 450, 0, []
1629739227.3538, 97, 0, 4189.744, 4258.974, 4121.538, 4164.615, 4107.179, 450, 0, []
1629739227.3616, 98, 0, 4184.615, 4218.974, 4133.846, 4166.154, 4107.179, 450, 0, []
1629739227.3696, 99, 0, 4182.564, 4217.949, 4122.051, 4163.59, 4104.615, 16203, 0, []
1629739227.3774, 100, 0, 4183.077, 4245.641, 4107.692, 4154.872, 4096.41, 450, 0, []
1629739227.3854, 101, 0, 4185.128, 4246.154, 4124.103, 4154.872, 4096.923, 450, 0, []
1629739227.3933, 102, 0, 4189.231, 4226.154, 4113.846, 4161.026, 4104.103, 450, 0, []
1629739227.4013, 103, 0, 4188.718, 4235.897, 4121.538, 4158.974, 4106.154, 16203, 0, []
1629739227.4092, 104, 0, 4186.154, 4243.59, 4122.051, 4156.923, 4104.103, 450, 0, []
1629739227.4171, 105, 0, 4186.667, 4230.256, 4110.769, 4155.897, 4103.59, 450, 0, []
1629739227.425, 106, 0, 4186.667, 4241.538, 4116.41, 4146.667, 4098.974, 450, 0, []
1629739227.433, 107, 0, 4190.769, 4261.026, 4107.692, 4139.487, 4102.051, 16203, 0, []
1629739227.4409, 108, 0, 4198.462, 4251.795, 4126.154, 4151.795, 4117.436, 450, 0, []
1629739227.4487, 109, 0, 4195.897, 4236.923, 4125.128, 4155.897, 4120.513, 450, 0, []
1629739227.4566, 110, 0, 4182.564, 4235.385, 4098.974, 4138.462, 4105.641, 450, 0, []
1629739227.4643, 111, 0, 4180.513, 4227.179, 4113.846, 4134.872, 4099.487, 16203, 0, []
1629739227.4722, 112, 0, 4193.333, 4230.256, 4120, 4150.256, 4114.359, 450, 0, []
1629739227.48, 113, 0, 4201.026, 4243.59, 4131.282, 4155.897, 4122.051, 450, 0, []
1629739227.4879, 114, 0, 4197.949, 4248.718, 4129.231, 4149.231, 4117.949, 450, 0, []
1629739227.4957, 115, 0, 4200.513, 4263.59, 4111.282, 4154.359, 4124.615, 16203, 0, []
1629739227.5035, 116, 0, 4205.641, 4281.026, 4128.718, 4160, 4136.41, 450, 0, []
1629739227.5114, 117, 0, 4196.923, 4267.692, 4125.641, 4155.385, 4134.872, 450, 0, []
1629739227.5194, 118, 0, 4184.103, 4228.205, 4123.59, 4148.718, 4122.051, 450, 0, []
1629739227.5272, 119, 0, 4183.59, 4225.128, 4124.103, 4139.487, 4113.846, 16203, 0, []
1629739227.5351, 120, 0, 4187.692, 4252.308, 4106.667, 4134.359, 4109.744, 450, 0, []
1629739227.5428, 121, 0, 4176.923, 4248.718, 4113.333, 4132.821, 4104.103, 450, 0, []
1629739227.5508, 122, 0, 4172.308, 4240, 4102.051, 4126.667, 4105.128, 450, 0, []
1629739227.5587, 123, 0, 4182.564, 4263.077, 4104.615, 4123.59, 4116.41, 16203, 0, []
1629739227.5667, 124, 0, 4179.487, 4263.59, 4117.949, 4129.231, 4124.615, 450, 0, []
1629739227.5746, 125, 0, 4172.308, 4231.282, 4104.103, 4132.308, 4122.051, 450, 0, []
1629739227.5825, 126, 0, 4182.051, 4236.41, 4120, 4133.846, 4118.974, 450, 0, []
1629739227.5904, 127, 0, 4185.641, 4245.128, 4115.897, 4138.974, 4123.077, 16203, 0, []
1629739227.5984, 128, 0, 4175.385, 4223.077, 4104.103, 4135.897, 4124.615, 450, 0, []
1629739227.6063, 0, 0, 4176.923, 4235.897, 4107.692, 4123.077, 4118.462, 450, 0, []
1629739227.6141, 1, 0, 4176.923, 4266.667, 4094.359, 4115.897, 4110.769, 450, 0, []
1629739227.6219, 2, 0, 4167.692, 4246.667, 4113.333, 4120.513, 4111.795, 16190, 0, []
1629739227.6297, 3, 0, 4166.154, 4212.821, 4105.128, 4119.487, 4113.846, 450, 0, []
1629739227.6376, 4, 0, 4169.231, 4222.051, 4087.179, 4120, 4113.333, 16142, 0, []
1629739227.6454, 5, 0, 4171.282, 4239.487, 4112.308, 4130.769, 4124.103, 450, 0, []
1629739227.6533, 6, 0, 4174.872, 4221.538, 4113.846, 4132.821, 4133.333, 16093, 0, []
1629739227.661, 7, 0, 4170.769, 4208.205, 4111.282, 4123.077, 4125.128, 450, 0, []
1629739227.6689, 8, 0, 4165.641, 4236.923, 4101.026, 4117.949, 4117.949, 450, 0, []
1629739227.6767, 9, 0, 4172.308, 4256.41, 4101.538, 4124.615, 4131.282, 16173, 0, []
1629739227.6847, 10, 0, 4177.949, 4245.641, 4121.026, 4128.718, 4140.513, 450, 0, []
1629739227.6926, 11, 0, 4172.308, 4244.103, 4103.59, 4121.538, 4128.718, 16203, 0, []
1629739227.7005, 12, 0, 4163.077, 4246.154, 4104.615, 4118.974, 4118.462, 450, 0, []
1629739227.7084, 13, 0, 4164.615, 4234.872, 4109.231, 4128.205, 4123.077, 450, 0, []
1629739227.7164, 14, 0, 4172.821, 4213.846, 4104.103, 4131.282, 4129.744, 450, 0, []
1629739227.7243, 15, 0, 4165.128, 4195.385, 4115.897, 4114.359, 4120, 16203, 0, []
1629739227.7323, 16, 0, 4145.128, 4207.179, 4090.256, 4094.359, 4104.103, 0, 0, []
1629739227.7401, 17, 0, 4132.308, 4230.256, 4075.897, 4085.128, 4096.923, 0, 0, []
1629739227.7481, 18, 0, 4142.051, 4220, 4081.538, 4090.769, 4100.513, 0, 0, []
1629739227.756, 19, 0, 4165.641, 4201.538, 4085.128, 4109.744, 4116.923, 0, 0, []
1629739227.764, 20, 0, 4167.692, 4195.385, 4096.41, 4113.333, 4119.487, 0, 0, []
1629739227.7719, 21, 0, 4148.718, 4199.487, 4067.692, 4096.41, 4101.538, 0, 0, []
1629739227.7796, 22, 0, 4143.59, 4220, 4068.718, 4088.205, 4094.872, 0, 0, []
1629739227.7875, 23, 0, 4155.385, 4238.462, 4095.897, 4090.256, 4104.103, 0, 0, []
1629739227.7953, 24, 0, 4156.923, 4234.872, 4089.744, 4088.718, 4111.282, 0, 0, []
1629739227.8032, 25, 0, 4148.718, 4216.41, 4101.026, 4090.256, 4113.333, 0, 0, []
1629739227.811, 26, 0, 4153.846, 4210.769, 4108.205, 4104.103, 4122.564, 0, 0, []
1629739227.8189, 27, 0, 4164.615, 4226.154, 4116.923, 4118.462, 4129.744, 0, 0, []
1629739227.8266, 28, 0, 4160, 4234.359, 4116.923, 4115.385, 4127.179, 0, 0, []
1629739227.8346, 29, 0, 4148.718, 4219.487, 4093.846, 4105.128, 4124.103, 0, 0, []
1629739227.8425, 30, 0, 4149.231, 4215.385, 4109.231, 4107.692, 4125.641, 0, 0, []
1629739227.8505, 31, 0, 4153.846, 4232.821, 4104.615, 4115.897, 4127.692, 0, 0, []
1629739227.8584, 32, 0, 4158.462, 4235.385, 4100, 4123.077, 4135.385, 0, 0, []
1629739227.8663, 33, 0, 4167.179, 4230.769, 4121.538, 4133.333, 4147.179, 0, 0, []
1629739227.8742, 34, 0, 4167.179, 4230.769, 4111.282, 4129.231, 4145.128, 0, 0, []
1629739227.8822, 35, 0, 4160, 4232.308, 4119.487, 4118.974, 4140, 0, 0, []
1629739227.8901, 36, 0, 4157.949, 4234.359, 4114.359, 4114.359, 4138.974, 0, 0, []
1629739227.8981, 37, 0, 4152.821, 4230.256, 4097.949, 4107.692, 4131.795, 0, 0, []
1629739227.9059, 38, 0, 4155.385, 4229.744, 4110.256, 4110.769, 4139.487, 0, 0, []
1629739227.9137, 39, 0, 4174.359, 4234.872, 4115.897, 4126.667, 4163.077, 0, 0, []
1629739227.9216, 40, 0, 4187.692, 4229.744, 4144.103, 4138.974, 4172.821, 0, 0, []
1629739227.9294, 41, 0, 4184.615, 4238.974, 4146.154, 4141.538, 4167.692, 0, 0, []
1629739227.9373, 42, 0, 4173.333, 4260.513, 4123.077, 4137.949, 4160, 0, 0, []
1629739227.945, 43, 0, 4165.128, 4237.436, 4124.615, 4132.821, 4156.41, 0, 0, []
1629739227.9529, 44, 0, 4172.821, 4224.103, 4118.462, 4130.256, 4167.179, 0, 0, []
1629739227.9607, 45, 0, 4182.051, 4259.487, 4133.333, 4133.333, 4180.513, 0, 0, []
1629739227.9686, 46, 0, 4181.538, 4256.923, 4124.103, 4138.974, 4182.051, 0, 0, []
1629739227.9764, 47, 0, 4189.231, 4237.436, 4109.744, 4149.231, 4188.205, 0, 0, []
1629739227.9842, 48, 0, 4199.487, 4255.897, 4137.949, 4150.256, 4197.436, 0, 0, []
1629739227.992, 49, 0, 4189.744, 4264.615, 4126.667, 4134.359, 4190.769, 0, 0, []
1629739228, 50, 0, 4181.026, 4254.359, 4123.077, 4130.769, 4181.538, 0, 0, []
1629739228.0079, 51, 0, 4186.667, 4236.923, 4136.923, 4136.923, 4185.128, 0, 0, []
1629739228.0159, 52, 0, 4186.667, 4218.462, 4130.256, 4133.846, 4188.205, 0, 0, []
1629739228.0237, 53, 0, 4179.487, 4232.308, 4133.846, 4127.692, 4184.103, 0, 0, []
1629739228.0317, 54, 0, 4175.897, 4252.821, 4116.41, 4130.256, 4185.641, 0, 0, []
1629739228.0396, 55, 0, 4169.231, 4229.744, 4120.513, 4142.051, 4189.231, 0, 0, []
1629739228.0476, 56, 0, 4161.026, 4211.795, 4131.282, 4137.436, 4181.026, 0, 0, []
1629739228.0555, 57, 0, 4162.051, 4228.205, 4115.385, 4121.026, 4170.256, 0, 0, []
1629739228.0634, 58, 0, 4168.205, 4237.436, 4126.154, 4127.179, 4176.41, 0, 0, []
1629739228.0713, 59, 0, 4166.667, 4232.821, 4117.436, 4137.949, 4187.692, 0, 0, []
1629739228.0791, 60, 0, 4160, 4229.231, 4114.872, 4128.205, 4180.513, 0, 0, []
1629739228.087, 61, 0, 4170.769, 4236.923, 4133.333, 4126.154, 4181.026, 0, 0, []
1629739228.0948, 62, 0, 4188.718, 4245.128, 4128.205, 4140.513, 4195.897, 0, 0, []
1629739228.1026, 63, 0, 4190.256, 4253.846, 4137.436, 4147.692, 4194.872, 0, 0, []
1629739228.1104, 64, 0, 4180, 4265.641, 4126.667, 4142.564, 4179.487, 450, 0, []
1629739228.1183, 65, 0, 4173.846, 4244.615, 4124.615, 4145.128, 4172.821, 450, 0, []
1629739228.1261, 66, 0, 4180.513, 4215.385, 4141.026, 4157.436, 4172.308, 16194, 0, []
1629739228.134, 67, 0, 4184.103, 4242.051, 4122.051, 4158.974, 4169.744, 450, 0, []
1629739228.1418, 68, 0, 4170.769, 4269.231, 4124.103, 4149.744, 4166.667, 16142, 0, []
1629739228.1496, 69, 0, 4164.615, 4232.821, 4121.538, 4143.59, 4170.769, 450, 0, []
1629739228.1574, 70, 0, 4178.462, 4210.769, 4116.923, 4145.641, 4181.026, 16100, 0, []
1629739228.1654, 71, 0, 4185.641, 4232.308, 4127.179, 4147.692, 4186.667, 450, 0, []
1629739228.1733, 72, 0, 4183.59, 4251.795, 4113.333, 4152.821, 4189.231, 450, 0, []
1629739228.1813, 73, 0, 4185.641, 4257.949, 4127.692, 4158.462, 4192.308, 16174, 0, []
1629739228.1891, 74, 0, 4186.667, 4248.205, 4128.205, 4160.513, 4190.769, 450, 0, []
1629739228.1971, 75, 0, 4184.103, 4238.462, 4111.282, 4161.538, 4185.641, 16205, 0, []
1629739228.205, 76, 0, 4184.615, 4245.641, 4120.513, 4156.41, 4186.154, 450, 0, []
1629739228.213, 77, 0, 4186.667, 4240, 4107.692, 4146.667, 4190.256, 450, 0, []
1629739228.2209, 78, 0, 4176.923, 4215.897, 4108.205, 4136.41, 4187.692, 450, 0, []
1629739228.2287, 79, 0, 4170.256, 4224.103, 4110.769, 4128.205, 4178.974, 16205, 0, []
1629739228.2366, 80, 0, 4176.41, 4248.205, 4111.282, 4136.41, 4178.462, 450, 0, []
1629739228.2444, 81, 0, 4176.923, 4247.179, 4125.128, 4150.769, 4180.513, 450, 0, []
1629739228.2523, 82, 0, 4177.949, 4239.487, 4105.641, 4151.795, 4180.513, 450, 0, []
1629739228.2601, 83, 0, 4192.821, 4247.179, 4123.59, 4159.487, 4193.846, 16205, 0, []
1629739228.2679, 84, 0, 4200.513, 4270.769, 4144.103, 4173.333, 4203.077, 450, 0, []
1629739228.2757, 85, 0, 4180.513, 4263.077, 4118.974, 4162.564, 4185.641, 450, 0, []
1629739228.2836, 86, 0, 4163.077, 4228.205, 4121.538, 4145.641, 4169.231, 450, 0, []
1629739228.2914, 87, 0, 4172.308, 4241.538, 4117.436, 4143.077, 4180.513, 16205, 0, []
1629739228.2994, 88, 0, 4189.231, 4275.385, 4120.513, 4145.641, 4196.41, 450, 0, []
1629739228.3072, 89, 0, 4189.744, 4260.513, 4123.077, 4146.667, 4196.41, 450, 0, []
1629739228.3152, 90, 0, 4178.974, 4238.462, 4106.667, 4146.154, 4186.154, 450, 0, []
1629739228.3231, 91, 0, 4181.026, 4248.205, 4129.744, 4141.026, 4182.564, 16205, 0, []
1629739228.3311, 92, 0, 4184.103, 4252.821, 4126.667, 4138.462, 4188.205, 450, 0, []
1629739228.339, 93, 0, 4181.026, 4243.077, 4117.949, 4143.077, 4189.231, 450, 0, []
1629739228.3469, 94, 0, 4187.179, 4247.179, 4126.667, 4140.513, 4188.205, 450, 0, []
1629739228.3548, 95, 0, 4193.846, 4254.872, 4114.359, 4135.897, 4192.821, 16205, 0, []
1629739228.3628, 96, 0, 4203.077, 4236.923, 4126.667, 4142.564, 4209.231, 450, 0, []
1629739228.3707, 97, 0, 4230.256, 4212.821, 4118.462, 4155.385, 4237.436, 450, 0, []
1629739228.3785, 98, 0, 4267.692, 4217.949, 4102.051, 4156.923, 4264.615, 450, 0, []
1629739228.3863, 99, 0, 4300, 4237.949, 4108.718, 4146.154, 4295.385, 16205, 0, []
1629739228.3941, 100, 0, 4331.282, 4239.487, 4112.308, 4150.769, 4334.359, 450, 0, []
1629739228.402, 101, 0, 4356.41, 4226.667, 4130.256, 4162.564, 4354.359, 450, 0, []
1629739228.4098, 102, 0, 4371.282, 4238.462, 4116.41, 4151.795, 4360, 450, 0, []
1629739228.4177, 103, 0, 4374.872, 4248.718, 4104.103, 4137.436, 4369.231, 16205, 0, []
1629739228.4254, 104, 0, 4361.026, 4223.59, 4114.872, 4140.513, 4363.077, 450, 0, []
1629739228.4333, 105, 0, 4352.821, 4226.667, 4111.795, 4149.231, 4353.846, 450, 0, []
1629739228.4411, 106, 0, 4349.744, 4265.128, 4136.41, 4154.359, 4354.872, 450, 0, []
1629739228.449, 107, 0, 4335.897, 4250.256, 4134.872, 4156.923, 4343.077, 16205, 0, []
1629739228.4568, 108, 0, 4327.692, 4213.333, 4120.513, 4157.436, 4327.692, 450, 0, []
1629739228.4646, 109, 0, 4317.949, 4243.077, 4134.872, 4154.359, 4313.846, 450, 0, []
1629739228.4724, 110, 0, 4293.333, 4271.282, 4113.333, 4148.718, 4287.179, 450, 0, []
1629739228.4804, 111, 0, 4273.333, 4249.231, 4112.821, 4146.154, 4271.282, 16205, 0, []
1629739228.4883, 112, 0, 4257.949, 4237.949, 4119.487, 4141.026, 4266.154, 450, 0, []
1629739228.4963, 113, 0, 4237.436, 4247.692, 4101.538, 4129.744, 4243.59, 450, 0, []
1629739228.5042, 114, 0, 4229.231, 4247.179, 4107.179, 4126.154, 4232.308, 450, 0, []
1629739228.512, 115, 0, 4234.872, 4234.359, 4102.564, 4134.359, 4245.128, 16205, 0, []
1629739228.5199, 116, 0, 4236.41, 4240.513, 4117.949, 4142.051, 4251.795, 450, 0, []
1629739228.5277, 117, 0, 4232.821, 4250.256, 4128.205, 4141.026, 4246.667, 450, 0, []
1629739228.5357, 118, 0, 4225.128, 4235.385, 4113.846, 4137.436, 4235.897, 450, 0, []
1629739228.5436, 119, 0, 4211.795, 4232.308, 4135.897, 4139.487, 4217.949, 16205, 0, []
1629739228.5514, 120, 0, 4202.564, 4244.103, 4136.41, 4137.949, 4211.282, 450, 0, []
1629739228.5592, 121, 0, 4206.667, 4237.436, 4123.59, 4131.795, 4225.641, 450, 0, []
1629739228.5671, 122, 0, 4215.385, 4222.051, 4110.256, 4127.692, 4227.692, 450, 0, []
1629739228.5749, 123, 0, 4217.949, 4236.41, 4106.154, 4130.769, 4218.974, 16205, 0, []
1629739228.5828, 124, 0, 4217.436, 4249.231, 4138.462, 4146.667, 4220, 450, 0, []
1629739228.5905, 125, 0, 4218.462, 4244.103, 4123.077, 4153.846, 4222.051, 450, 0, []
1629739228.5984, 126, 0, 4212.308, 4242.051, 4105.641, 4142.051, 4211.795, 450, 0, []
1629739228.6062, 127, 0, 4197.949, 4227.692, 4108.718, 4126.667, 4196.923, 16205, 0, []
1629739228.6142, 128, 0, 4190.256, 4217.436, 4089.231, 4120, 4195.385, 450, 0, []
1629739228.6221, 0, 0, 4188.205, 4228.718, 4103.59, 4129.231, 4198.462, 450, 0, []
1629739228.63, 1, 0, 4186.154, 4234.359, 4107.179, 4134.872, 4200.513, 450, 0, []
1629739228.6379, 2, 0, 4188.718, 4212.821, 4104.103, 4129.231, 4209.744, 16194, 0, []
1629739228.6459, 3, 0, 4188.718, 4202.051, 4117.949, 4127.692, 4210.256, 450, 0, []
1629739228.6538, 4, 0, 4178.974, 4237.436, 4112.308, 4137.949, 4192.821, 16142, 0, []
1629739228.6618, 5, 0, 4182.051, 4245.128, 4123.59, 4142.051, 4186.154, 450, 0, []
1629739228.6696, 6, 0, 4202.564, 4224.103, 4111.795, 4128.718, 4199.487, 16096, 0, []
1629739228.6776, 7, 0, 4216.923, 4232.308, 4099.487, 4121.026, 4201.538, 450, 0, []
1629739228.6855, 8, 0, 4226.667, 4238.974, 4126.154, 4131.282, 4204.615, 450, 0, []
1629739228.6935, 9, 0, 4236.41, 4241.538, 4135.897, 4149.744, 4226.154, 16174, 0, []
1629739228.7014, 10, 0, 4237.436, 4255.897, 4150.769, 4162.051, 4235.897, 450, 0, []
1629739228.7091, 11, 0, 4231.795, 4245.128, 4134.872, 4155.897, 4218.462, 16205, 0, []
1629739228.717, 12, 0, 4221.538, 4230.256, 4106.667, 4135.897, 4197.436, 450, 0, []
1629739228.7248, 13, 0, 4212.308, 4247.179, 4117.949, 4129.744, 4201.026, 450, 0, []
1629739228.7327, 14, 0, 4214.359, 4242.564, 4117.436, 4140.513, 4216.923, 450, 0, []
1629739228.7405, 15, 0, 4213.846, 4207.179, 4136.41, 4145.641, 4211.795, 16205, 0, []
1629739228.7483, 16, 0, 4201.538, 4211.282, 4147.692, 4147.179, 4193.846, 0, 0, []
1629739228.7561, 17, 0, 4190.769, 4228.205, 4134.359, 4152.821, 4186.154, 0, 0, []
1629739228.764, 18, 0, 4184.615, 4220, 4130.256, 4148.205, 4180, 0, 0, []
1629739228.7718, 19, 0, 4171.282, 4235.385, 4100.513, 4122.564, 4163.077, 0, 0, []
1629739228.7798, 20, 0, 4157.949, 4253.333, 4101.538, 4107.179, 4148.718, 0, 0, []
1629739228.7876, 21, 0, 4159.487, 4231.282, 4113.846, 4120, 4149.744, 0, 0, []
1629739228.7956, 22, 0, 4171.282, 4205.641, 4105.641, 4137.436, 4162.564, 0, 0, []
1629739228.8035, 23, 0, 4184.615, 4206.667, 4125.641, 4151.795, 4183.077, 0, 0, []
1629739228.8115, 24, 0, 4184.615, 4217.949, 4131.282, 4163.59, 4195.385, 0, 0, []
1629739228.8194, 25, 0, 4177.436, 4218.974, 4143.59, 4163.077, 4191.282, 0, 0, []
1629739228.8273, 26, 0, 4189.231, 4207.692, 4146.667, 4142.564, 4189.744, 0, 0, []
1629739228.8352, 27, 0, 4208.718, 4207.692, 4124.103, 4125.128, 4195.385, 0, 0, []
1629739228.8432, 28, 0, 4200, 4238.462, 4139.487, 4122.051, 4181.538, 0, 0, []
1629739228.8511, 29, 0, 4185.128, 4264.103, 4132.821, 4128.718, 4166.667, 0, 0, []
1629739228.8589, 30, 0, 4189.744, 4248.718, 4118.974, 4137.949, 4168.718, 0, 0, []
1629739228.8668, 31, 0, 4186.154, 4221.026, 4115.897, 4136.923, 4162.564, 0, 0, []
1629739228.8745, 32, 0, 4177.949, 4219.487, 4103.59, 4131.282, 4155.385, 0, 0, []
1629739228.8824, 33, 0, 4183.59, 4258.974, 4128.205, 4131.282, 4159.487, 0, 0, []
1629739228.8902, 34, 0, 4190.256, 4280, 4130.769, 4133.846, 4162.051, 0, 0, []
1629739228.8981, 35, 0, 4182.051, 4250.256, 4124.103, 4138.462, 4163.077, 0, 0, []
1629739228.9059, 36, 0, 4172.308, 4243.077, 4131.795, 4140.513, 4158.462, 0, 0, []
1629739228.9137, 37, 0, 4165.128, 4245.641, 4112.308, 4136.923, 4146.667, 0, 0, []
1629739228.9215, 38, 0, 4150.769, 4213.333, 4111.795, 4133.333, 4136.923, 0, 0, []
1629739228.9295, 39, 0, 4145.641, 4218.974, 4107.179, 4125.128, 4133.333, 0, 0, []
1629739228.9374, 40, 0, 4159.487, 4263.077, 4112.821, 4125.128, 4140.513, 0, 0, []
1629739228.9454, 41, 0, 4168.205, 4262.051, 4137.436, 4133.333, 4151.795, 0, 0, []
1629739228.9532, 42, 0, 4163.077, 4245.128, 4125.641, 4137.949, 4154.872, 0, 0, []
1629739228.9612, 43, 0, 4167.692, 4261.538, 4130.769, 4151.282, 4156.41, 0, 0, []
1629739228.9691, 44, 0, 4172.308, 4266.154, 4124.103, 4158.974, 4155.897, 0, 0, []
1629739228.9771, 45, 0, 4157.949, 4233.846, 4111.795, 4139.487, 4140.513, 0, 0, []
1629739228.985, 46, 0, 4146.154, 4221.026, 4124.103, 4126.154, 4137.436, 0, 0, []
1629739228.9929, 47, 0, 4151.795, 4248.718, 4113.333, 4134.872, 4152.821, 0, 0, []
1629739229.0008, 48, 0, 4157.949, 4244.103, 4120, 4134.359, 4153.333, 0, 0, []
1629739229.0088, 49, 0, 4165.128, 4222.051, 4128.718, 4134.359, 4157.436, 0, 0, []
1629739229.0167, 50, 0, 4182.564, 4253.333, 4144.103, 4153.333, 4181.538, 0, 0, []
1629739229.0245, 51, 0, 4197.436, 4274.872, 4129.231, 4164.103, 4195.385, 0, 0, []
1629739229.0323, 52, 0, 4195.897, 4242.564, 4116.41, 4154.872, 4188.205, 0, 0, []
1629739229.0401, 53, 0, 4181.538, 4224.103, 4178.462, 4146.667, 4173.846, 0, 0, []
1629739229.048, 54, 0, 4175.385, 4242.564, 4095.385, 4143.59, 4169.231, 0, 0, []
1629739229.0558, 55, 0, 4165.641, 4246.667, 4066.667, 4138.974, 4167.179, 0, 0, []
1629739229.0637, 56, 0, 4153.333, 4245.128, 4172.308, 4142.051, 4164.103, 0, 0, []
1629739229.0714, 57, 0, 4161.026, 4249.231, 4126.154, 4154.872, 4170.769, 0, 0, []
1629739229.0794, 58, 0, 4162.564, 4234.359, 4112.821, 4154.872, 4174.872, 0, 0, []
1629739229.0873, 59, 0, 4149.744, 4240.513, 4121.026, 4137.949, 4168.205, 0, 0, []
1629739229.0952, 60, 0, 4157.949, 4256.41, 4101.026, 4140.513, 4177.436, 0, 0, []
1629739229.103, 61, 0, 4175.385, 4233.846, 4133.333, 4155.897, 4192.821, 0, 0, []
1629739229.1109, 62, 0, 4160, 4204.615, 4116.41, 4145.128, 4180.513, 0, 0, []
1629739229.1188, 63, 0, 4133.846, 4213.846, 4107.692, 4134.359, 4161.026, 0, 0, []
1629739229.1268, 64, 0, 4132.308, 4231.282, 4108.205, 4144.103, 4156.41, 450, 0, []
1629739229.1347, 65, 0, 4135.897, 4205.128, 4107.692, 4143.077, 4157.949, 450, 0, []
1629739229.1427, 66, 0, 4137.436, 4200, 4124.615, 4140, 4169.744, 16193, 0, []
1629739229.1505, 67, 0, 4145.641, 4237.436, 4118.974, 4149.744, 4184.615, 450, 0, []
1629739229.1585, 68, 0, 4158.462, 4240.513, 4123.59, 4155.897, 4191.282, 16143, 0, []
1629739229.1664, 69, 0, 4171.795, 4211.795, 4117.436, 4158.974, 4201.026, 450, 0, []
1629739229.1742, 70, 0, 4174.872, 4220, 4105.641, 4164.103, 4206.154, 16098, 0, []
1629739229.1821, 71, 0, 4155.897, 4247.692, 4113.846, 4163.077, 4193.333, 450, 0, []
1629739229.1899, 72, 0, 4136.41, 4226.154, 4100.513, 4150.769, 4176.41, 450, 0, []
1629739229.1977, 73, 0, 4136.41, 4199.487, 4100.513, 4142.051, 4169.231, 16175, 0, []
1629739229.2055, 74, 0, 4137.949, 4223.077, 4113.333, 4142.564, 4165.641, 450, 0, []
1629739229.2134, 75, 0, 4137.949, 4253.846, 4120, 4152.821, 4173.333, 16200, 0, []
1629739229.2212, 76, 0, 4149.744, 4247.179, 4128.205, 4162.564, 4196.41, 450, 0, []
1629739229.2291, 77, 0, 4157.436, 4223.59, 4111.282, 4158.462, 4209.231, 450, 0, []
1629739229.2368, 78, 0, 4152.308, 4230.256, 4113.846, 4154.872, 4204.615, 450, 0, []
1629739229.2448, 79, 0, 4153.846, 4237.436, 4122.051, 4156.41, 4208.205, 16200, 0, []
1629739229.2527, 80, 0, 4156.41, 4215.385, 4099.487, 4147.179, 4212.308, 450, 0, []
1629739229.2607, 81, 0, 4156.41, 4216.923, 4107.692, 4146.667, 4212.308, 450, 0, []
1629739229.2686, 82, 0, 4164.615, 4246.667, 4123.59, 4164.103, 4221.538, 450, 0, []
1629739229.2765, 83, 0, 4168.205, 4251.282, 4120.513, 4172.308, 4229.231, 16200, 0, []
1629739229.2844, 84, 0, 4168.718, 4240.513, 4115.385, 4173.846, 4230.256, 450, 0, []
1629739229.2924, 85, 0, 4171.282, 4246.154, 4113.846, 4182.564, 4227.179, 450, 0, []
1629739229.3003, 86, 0, 4166.667, 4243.077, 4131.795, 4189.744, 4225.641, 450, 0, []
1629739229.3083, 87, 0, 4156.41, 4232.308, 4127.692, 4191.282, 4230.769, 16200, 0, []
1629739229.3161, 88, 0, 4151.282, 4229.231, 4114.359, 4190.769, 4228.205, 450, 0, []
1629739229.3239, 89, 0, 4153.846, 4240, 4118.462, 4193.333, 4224.615, 450, 0, []
1629739229.3318, 90, 0, 4154.872, 4258.974, 4117.949, 4191.795, 4228.718, 450, 0, []
1629739229.3396, 91, 0, 4156.923, 4249.231, 4131.282, 4187.692, 4232.308, 16200, 0, []
1629739229.3475, 92, 0, 4173.333, 4242.564, 4137.436, 4192.821, 4238.462, 450, 0, []
1629739229.3552, 93, 0, 4183.59, 4258.462, 4136.923, 4193.333, 4250.256, 450, 0, []
1629739229.3631, 94, 0, 4167.179, 4241.538, 4133.333, 4175.385, 4249.744, 450, 0, []
1629739229.3709, 95, 0, 4162.051, 4214.359, 4113.846, 4158.974, 4243.077, 16200, 0, []
1629739229.3788, 96, 0, 4168.718, 4228.718, 4108.205, 4157.436, 4237.949, 450, 0, []
1629739229.3866, 97, 0, 4152.821, 4235.897, 4098.974, 4156.923, 4226.667, 450, 0, []
1629739229.3945, 98, 0, 4160.513, 4233.333, 4110.769, 4166.154, 4240.513, 450, 0, []
1629739229.4024, 99, 0, 4197.949, 4251.795, 4138.974, 4179.487, 4271.795, 16200, 0, []
1629739229.4104, 100, 0, 4195.897, 4243.077, 4120.513, 4172.308, 4265.128, 450, 0, []
1629739229.4183, 101, 0, 4157.436, 4225.128, 4103.077, 4151.282, 4229.744, 450, 0, []
1629739229.4263, 102, 0, 4142.564, 4237.949, 4098.974, 4135.897, 4216.923, 450, 0, []
1629739229.4341, 103, 0, 4156.41, 4242.051, 4102.564, 4145.641, 4238.974, 16200, 0, []
1629739229.4421, 104, 0, 4171.282, 4242.564, 4122.564, 4170.256, 4263.59, 450, 0, []
1629739229.45, 105, 0, 4174.872, 4249.231, 4115.385, 4176.923, 4268.718, 450, 0, []
1629739229.458, 106, 0, 4161.026, 4252.308, 4107.692, 4171.795, 4258.462, 450, 0, []
1629739229.4659, 107, 0, 4151.282, 4260.513, 4106.667, 4167.692, 4248.718, 16200, 0, []
1629739229.4736, 108, 0, 4158.462, 4261.026, 4098.974, 4158.462, 4250.769, 450, 0, []
1629739229.4815, 109, 0, 4164.103, 4250.256, 4106.154, 4154.872, 4257.949, 450, 0, []
1629739229.4893, 110, 0, 4156.923, 4233.333, 4103.59, 4153.846, 4260.513, 450, 0, []
1629739229.4972, 111, 0, 4151.795, 4227.179, 4107.179, 4142.564, 4261.026, 16200, 0, []
1629739229.5051, 112, 0, 4156.923, 4242.051, 4105.128, 4137.949, 4266.667, 450, 0, []
1629739229.5129, 113, 0, 4153.846, 4253.333, 4090.769, 4146.667, 4268.205, 450, 0, []
1629739229.5209, 114, 0, 4154.359, 4253.333, 4105.641, 4151.282, 4272.821, 450, 0, []
1629739229.5288, 115, 0, 4177.949, 4272.821, 4123.077, 4160, 4292.821, 16200, 0, []
1629739229.5366, 116, 0, 4192.821, 4285.128, 4130.769, 4173.846, 4303.59, 450, 0, []
1629739229.5446, 117, 0, 4167.179, 4231.795, 4118.974, 4161.026, 4284.103, 450, 0, []
1629739229.5525, 118, 0, 4146.667, 4204.103, 4099.487, 4133.846, 4266.667, 450, 0, []
1629739229.5604, 119, 0, 4171.795, 4254.359, 4119.487, 4138.974, 4285.128, 16200, 0, []
1629739229.5683, 120, 0, 4187.692, 4276.41, 4127.692, 4156.41, 4297.949, 450, 0, []
1629739229.5763, 121, 0, 4165.641, 4252.821, 4121.026, 4152.308, 4282.051, 450, 0, []
1629739229.5842, 122, 0, 4154.872, 4242.564, 4123.077, 4147.179, 4272.308, 450, 0, []
1629739229.5922, 123, 0, 4170.256, 4243.077, 4117.949, 4154.872, 4285.128, 16200, 0, []
1629739229.6, 124, 0, 4181.538, 4237.436, 4130.769, 4160, 4299.487, 450, 0, []
1629739229.608, 125, 0, 4181.026, 4245.641, 4135.385, 4154.872, 4303.59, 450, 0, []
1629739229.6159, 126, 0, 4177.436, 4271.282, 4118.974, 4146.154, 4303.077, 450, 0, []
1629739229.6237, 127, 0, 4166.154, 4273.846, 4095.897, 4129.744, 4291.795, 16200, 0, []
1629739229.6316, 128, 0, 4157.949, 4244.615, 4075.385, 4112.308, 4282.051, 450, 0, []
1629739229.6393, 0, 0, 4165.641, 4227.179, 4092.821, 4114.872, 4290.256, 450, 0, []
1629739229.6472, 1, 0, 4176.41, 4255.897, 4112.308, 4136.923, 4307.692, 450, 0, []
1629739229.655, 2, 0, 4177.949, 4272.821, 4115.897, 4152.308, 4315.897, 16193, 0, []
1629739229.6629, 3, 0, 4189.231, 4258.974, 4133.846, 4162.564, 4328.718, 450, 0, []
1629739229.6707, 4, 0, 4215.385, 4284.103, 4145.641, 4181.026, 4350.256, 16143, 0, []
1629739229.6785, 5, 0, 4216.41, 4301.538, 4148.718, 4183.59, 4347.692, 450, 0, []
1629739229.6863, 6, 0, 4188.718, 4262.564, 4124.615, 4154.872, 4321.026, 16101, 0, []
1629739229.6942, 7, 0, 4166.667, 4241.538, 4089.231, 4122.564, 4295.897, 450, 0, []
1629739229.702, 8, 0, 4159.487, 4268.205, 4084.615, 4120, 4290.256, 450, 0, []
1629739229.71, 9, 0, 4150.769, 4262.051, 4078.462, 4126.154, 4289.231, 16177, 0, []
1629739229.7178, 10, 0, 4143.59, 4216.923, 4085.641, 4128.718, 4286.667, 450, 0, []
1629739229.7258, 11, 0, 4165.641, 4224.615, 4113.846, 4149.744, 4305.128, 16200, 0, []
1629739229.7337, 12, 0, 4198.462, 4264.103, 4143.077, 4178.974, 4333.333, 450, 0, []
1629739229.7417, 13, 0, 4205.641, 4257.949, 4166.667, 4188.718, 4338.462, 450, 0, []
1629739229.7496, 14, 0, 4190.769, 4235.385, 4152.821, 4167.692, 4317.436, 450, 0, []
1629739229.7575, 15, 0, 4177.436, 4252.821, 4132.821, 4131.795, 4295.897, 16200, 0, []
1629739229.7654, 16, 0, 4174.359, 4284.615, 4120.513, 4116.41, 4291.282, 0, 0, []
1629739229.7734, 17, 0, 4174.359, 4294.359, 4102.564, 4129.231, 4288.718, 0, 0, []
1629739229.7813, 18, 0, 4167.692, 4305.641, 4095.385, 4141.026, 4277.436, 0, 0, []
1629739229.7891, 19, 0, 4161.538, 4326.154, 4097.436, 4151.795, 4282.564, 0, 0, []
1629739229.7969, 20, 0, 4171.282, 4336.41, 4121.538, 4167.179, 4304.103, 0, 0, []
1629739229.8047, 21, 0, 4186.154, 4334.359, 4135.897, 4159.487, 4315.385, 0, 0, []
1629739229.8126, 22, 0, 4207.692, 4324.615, 4131.795, 4151.282, 4331.795, 0, 0, []
1629739229.8204, 23, 0, 4237.436, 4312.308, 4145.641, 4155.385, 4357.949, 0, 0, []
1629739229.8283, 24, 0, 4263.077, 4311.795, 4136.923, 4133.846, 4377.949, 0, 0, []
1629739229.836, 25, 0, 4297.436, 4326.667, 4135.385, 4115.385, 4405.128, 0, 0, []
1629739229.8439, 26, 0, 4331.795, 4317.436, 4147.692, 4121.538, 4428.718, 0, 0, []
1629739229.8517, 27, 0, 4343.077, 4297.949, 4118.462, 4117.436, 4437.436, 0, 0, []
1629739229.8597, 28, 0, 4368.718, 4321.538, 4103.59, 4130.256, 4474.359, 0, 0, []
1629739229.8676, 29, 0, 4414.359, 4329.231, 4109.231, 4167.692, 4526.154, 0, 0, []
1629739229.8755, 30, 0, 4439.487, 4306.154, 4121.538, 4184.103, 4550.769, 0, 0, []
1629739229.8834, 31, 0, 4452.308, 4327.179, 4146.667, 4182.564, 4565.641, 0, 0, []
1629739229.8914, 32, 0, 4464.103, 4348.718, 4151.795, 4181.538, 4572.308, 0, 0, []
1629739229.8993, 33, 0, 4467.692, 4325.128, 4161.026, 4178.462, 4562.051, 0, 0, []
1629739229.9073, 34, 0, 4467.692, 4319.487, 4163.077, 4177.949, 4557.949, 0, 0, []
1629739229.9152, 35, 0, 4451.282, 4324.103, 4146.154, 4167.692, 4551.795, 0, 0, []
1629739229.9231, 36, 0, 4424.615, 4306.154, 4135.897, 4148.205, 4536.923, 0, 0, []
1629739229.931, 37, 0, 4428.205, 4308.205, 4125.641, 4153.846, 4541.026, 0, 0, []
1629739229.9388, 38, 0, 4450.769, 4300.513, 4123.077, 4166.667, 4549.231, 0, 0, []
1629739229.9467, 39, 0, 4466.667, 4294.359, 4118.462, 4156.41, 4551.795, 0, 0, []
1629739229.9545, 40, 0, 4473.333, 4335.385, 4121.026, 4147.692, 4567.692, 0, 0, []
1629739229.9623, 41, 0, 4467.179, 4350.256, 4137.949, 4149.744, 4579.487, 0, 0, []
1629739229.9701, 42, 0, 4463.077, 4325.641, 4140, 4148.718, 4580, 0, 0, []
1629739229.978, 43, 0, 4468.718, 4328.718, 4155.897, 4150.769, 4578.462, 0, 0, []
1629739229.9858, 44, 0, 4477.436, 4335.385, 4169.744, 4164.615, 4573.333, 0, 0, []
1629739229.9937, 45, 0, 4494.359, 4328.718, 4168.718, 4182.564, 4578.462, 0, 0, []
1629739230.0014, 46, 0, 4512.308, 4364.615, 4182.564, 4192.308, 4594.359, 0, 0, []
1629739230.0094, 47, 0, 4513.333, 4401.538, 4172.308, 4186.154, 4593.333, 0, 0, []
1629739230.0173, 48, 0, 4510.769, 4386.154, 4157.949, 4180.513, 4579.487, 0, 0, []
1629739230.0253, 49, 0, 4511.795, 4372.308, 4159.487, 4183.59, 4572.308, 0, 0, []
1629739230.0332, 50, 0, 4500, 4377.949, 4146.667, 4172.821, 4561.026, 0, 0, []
1629739230.0411, 51, 0, 4479.487, 4382.564, 4138.974, 4149.231, 4541.538, 0, 0, []
1629739230.049, 52, 0, 4457.949, 4373.333, 4126.667, 4131.282, 4519.487, 0, 0, []
1629739230.057, 53, 0, 4451.282, 4356.41, 4122.051, 4131.795, 4507.179, 0, 0, []
1629739230.0649, 54, 0, 4460.513, 4355.897, 4120.513, 4137.949, 4502.564, 0, 0, []
1629739230.0729, 55, 0, 4457.436, 4363.59, 4107.692, 4137.949, 4492.308, 0, 0, []
1629739230.0807, 56, 0, 4458.462, 4354.872, 4128.205, 4149.744, 4497.436, 0, 0, []
1629739230.0887, 57, 0, 4495.897, 4361.026, 4162.051, 4177.436, 4540, 0, 0, []
1629739230.0966, 58, 0, 4512.308, 4387.692, 4178.462, 4190.256, 4567.179, 0, 0, []
1629739230.1044, 59, 0, 4477.436, 4366.154, 4167.692, 4181.538, 4545.641, 0, 0, []
1629739230.1123, 60, 0, 4455.897, 4330.256, 4138.462, 4173.333, 4518.462, 0, 0, []
1629739230.12, 61, 0, 4455.897, 4331.795, 4135.897, 4170.769, 4506.667, 0, 0, []
1629739230.1279, 62, 0, 4442.051, 4309.231, 4126.154, 4159.487, 4492.821, 0, 0, []
1629739230.1357, 63, 0, 4434.872, 4283.59, 4114.872, 4148.205, 4481.026, 0, 0, []
1629739230.1436, 64, 0, 4443.59, 4308.205, 4127.179, 4152.821, 4482.051, 450, 0, []
1629739230.1514, 65, 0, 4450.256, 4325.128, 4136.41, 4167.692, 4488.205, 450, 0, []
1629739230.1592, 66, 0, 4457.949, 4308.205, 4153.846, 4168.205, 4496.41, 16187, 0, []
1629739230.167, 67, 0, 4457.436, 4304.615, 4150.769, 4149.231, 4496.41, 450, 0, []
1629739230.175, 68, 0, 4461.026, 4312.308, 4145.128, 4152.308, 4493.846, 16140, 0, []
1629739230.1829, 69, 0, 4482.564, 4328.205, 4163.077, 4183.59, 4495.897, 450, 0, []
1629739230.1909, 70, 0, 4473.846, 4338.462, 4147.692, 4181.538, 4476.923, 16094, 0, []
1629739230.1987, 71, 0, 4437.949, 4310.769, 4130.769, 4154.359, 4454.359, 450, 0, []
1629739230.2067, 72, 0, 4425.641, 4288.205, 4128.205, 4156.41, 4458.974, 450, 0, []
1629739230.2146, 73, 0, 4421.026, 4299.487, 4122.051, 4168.718, 4457.949, 16177, 0, []
1629739230.2226, 74, 0, 4413.846, 4305.641, 4125.641, 4165.641, 4441.026, 450, 0, []
1629739230.2305, 75, 0, 4427.692, 4318.974, 4120.513, 4155.385, 4441.538, 16200, 0, []
1629739230.2384, 76, 0, 4425.641, 4335.385, 4116.923, 4131.795, 4437.949, 450, 0, []
1629739230.2463, 77, 0, 4402.051, 4310.256, 4119.487, 4120, 4419.487, 450, 0, []
1629739230.2541, 78, 0, 4406.154, 4283.077, 4129.231, 4149.744, 4418.462, 450, 0, []
1629739230.262, 79, 0, 4418.462, 4291.282, 4146.667, 4177.949, 4428.205, 16200, 0, []
1629739230.2698, 80, 0, 4408.205, 4303.077, 4133.846, 4178.462, 4432.308, 450, 0, []
1629739230.2777, 81, 0, 4397.436, 4298.462, 4122.564, 4183.077, 4428.205, 450, 0, []
1629739230.2854, 82, 0, 4402.051, 4290.769, 4126.667, 4190.769, 4420, 450, 0, []
1629739230.2933, 83, 0, 4406.154, 4304.615, 4129.744, 4180, 4418.974, 16200, 0, []
1629739230.3011, 84, 0, 4389.744, 4321.026, 4136.41, 4166.667, 4410.256, 450, 0, []
1629739230.309, 85, 0, 4363.077, 4306.667, 4118.462, 4164.103, 4377.949, 450, 0, []
1629739230.3168, 86, 0, 4350.769, 4282.564, 4112.308, 4169.231, 4356.923, 450, 0, []
1629739230.3247, 87, 0, 4347.179, 4284.615, 4124.103, 4172.821, 4355.897, 16200, 0, []
1629739230.3326, 88, 0, 4331.795, 4282.564, 4112.821, 4164.103, 4333.846, 450, 0, []
1629739230.3406, 89, 0, 4302.051, 4271.795, 4111.795, 4153.846, 4297.436, 450, 0, []
1629739230.3485, 90, 0, 4277.436, 4264.615, 4109.231, 4148.205, 4274.359, 450, 0, []
1629739230.3565, 91, 0, 4273.846, 4250.256, 4107.692, 4151.795, 4265.128, 16200, 0, []
1629739230.3643, 92, 0, 4263.59, 4255.385, 4116.923, 4164.103, 4253.846, 450, 0, []
1629739230.3723, 93, 0, 4226.667, 4264.615, 4102.051, 4164.103, 4223.59, 450, 0, []
1629739230.3802, 94, 0, 4206.667, 4249.744, 4091.282, 4153.333, 4197.436, 450, 0, []
1629739230.3882, 95, 0, 4217.436, 4250.769, 4093.846, 4154.872, 4196.41, 16200, 0, []
1629739230.3961, 96, 0, 4212.308, 4262.564, 4111.795, 4168.205, 4191.795, 450, 0, []
1629739230.4038, 97, 0, 4192.308, 4247.692, 4129.744, 4172.821, 4172.821, 450, 0, []
1629739230.4117, 98, 0, 4186.154, 4245.128, 4122.564, 4169.744, 4164.103, 450, 0, []
1629739230.4195, 99, 0, 4183.59, 4265.641, 4125.128, 4173.333, 4162.564, 16200, 0, []
1629739230.4274, 100, 0, 4176.923, 4255.897, 4117.949, 4174.359, 4155.897, 450, 0, []
1629739230.4352, 101, 0, 4180, 4234.872, 4110.769, 4166.154, 4151.795, 450, 0, []
1629739230.443, 102, 0, 4187.692, 4242.564, 4123.077, 4164.615, 4149.231, 450, 0, []
1629739230.4508, 103, 0, 4172.821, 4262.564, 4111.282, 4162.051, 4144.103, 16200, 0, []
1629739230.4587, 104, 0, 4152.821, 4266.154, 4107.692, 4155.897, 4136.923, 450, 0, []
1629739230.4665, 105, 0, 4155.385, 4234.872, 4112.821, 4163.077, 4135.385, 450, 0, []
1629739230.4744, 106, 0, 4160.513, 4218.974, 4112.308, 4168.718, 4137.949, 450, 0, []
1629739230.4821, 107, 0, 4154.359, 4254.359, 4122.564, 4166.154, 4134.359, 16200, 0, []
1629739230.4901, 108, 0, 4154.872, 4257.436, 4117.436, 4163.077, 4125.128, 450, 0, []
1629739230.498, 109, 0, 4151.795, 4226.667, 4116.41, 4158.462, 4121.026, 450, 0, []
1629739230.5059, 110, 0, 4137.949, 4242.564, 4119.487, 4159.487, 4122.051, 450, 0, []
1629739230.5138, 111, 0, 4126.154, 4246.154, 4111.282, 4162.051, 4108.718, 16200, 0, []
1629739230.5216, 112, 0, 4122.051, 4203.59, 4110.256, 4153.333, 4089.744, 450, 0, []
1629739230.5296, 113, 0, 4122.564, 4190.769, 4105.641, 4151.795, 4095.385, 450, 0, []
1629739230.5376, 114, 0, 4125.641, 4211.795, 4116.923, 4165.128, 4107.179, 450, 0, []
1629739230.5455, 115, 0, 4121.026, 4225.641, 4117.436, 4164.103, 4098.462, 16200, 0, []
1629739230.5534, 116, 0, 4111.282, 4222.564, 4092.308, 4147.179, 4083.077, 450, 0, []
1629739230.5612, 117, 0, 4110.256, 4201.538, 4096.923, 4140, 4076.923, 450, 0, []
1629739230.569, 118, 0, 4112.308, 4199.487, 4107.692, 4144.615, 4074.872, 450, 0, []
1629739230.5769, 119, 0, 4110.256, 4215.897, 4109.744, 4151.282, 4074.872, 16200, 0, []
1629739230.5847, 120, 0, 4113.333, 4201.538, 4109.231, 4149.744, 4082.051, 450, 0, []
1629739230.5926, 121, 0, 4124.103, 4195.385, 4107.179, 4149.231, 4090.256, 450, 0, []
1629739230.6004, 122, 0, 4131.795, 4227.179, 4129.231, 4158.462, 4094.359, 450, 0, []
1629739230.6082, 123, 0, 4129.744, 4227.692, 4134.359, 4162.051, 4094.359, 16200, 0, []
1629739230.616, 124, 0, 4124.615, 4212.308, 4125.128, 4150.769, 4090.256, 450, 0, []
1629739230.6239, 125, 0, 4117.949, 4223.59, 4128.718, 4137.436, 4081.538, 450, 0, []
1629739230.6317, 126, 0, 4110.769, 4210.769, 4126.667, 4139.487, 4073.846, 450, 0, []
1629739230.6397, 127, 0, 4108.718, 4182.564, 4131.282, 4153.846, 4074.359, 16200, 0, []
1629739230.6475, 128, 0, 4116.41, 4196.923, 4121.538, 4155.897, 4077.436, 450, 0, []
1629739230.6555, 0, 0, 4121.538, 4221.538, 4116.41, 4151.795, 4079.487, 450, 0, []
1629739230.6634, 1, 0, 4120.513, 4203.59, 4127.692, 4160, 4081.538, 450, 0, []
1629739230.6714, 2, 0, 4121.538, 4167.179, 4121.026, 4170.256, 4084.615, 16192, 0, []
1629739230.6793, 3, 0, 4120.513, 4159.487, 4125.128, 4167.692, 4084.103, 450, 0, []
1629739230.6872, 4, 0, 4113.846, 4184.615, 4122.051, 4159.487, 4077.436, 16140, 0, []
1629739230.6951, 5, 0, 4110.256, 4192.821, 4109.231, 4151.795, 4073.333, 450, 0, []
1629739230.7031, 6, 0, 4108.205, 4152.821, 4109.744, 4148.718, 4067.179, 16095, 0, []
1629739230.711, 7, 0, 4105.641, 4131.795, 4106.667, 4147.179, 4057.436, 450, 0, []
1629739230.7188, 8, 0, 4101.538, 4156.923, 4116.923, 4144.103, 4055.385, 450, 0, []
1629739230.7266, 9, 0, 4097.949, 4158.462, 4116.923, 4146.667, 4062.051, 16180, 0, []
1629739230.7344, 10, 0, 4100, 4141.026, 4106.154, 4154.359, 4064.103, 450, 0, []
1629739230.7423, 11, 0, 4105.128, 4146.667, 4110.769, 4152.821, 4063.59, 16204, 0, []
1629739230.7501, 12, 0, 4110.256, 4155.897, 4104.615, 4143.077, 4069.744, 450, 0, []
1629739230.758, 13, 0, 4112.821, 4163.59, 4102.051, 4135.385, 4077.436, 450, 0, []
1629739230.7657, 14, 0, 4125.128, 4175.897, 4102.051, 4138.462, 4088.205, 450, 0, []
1629739230.7736, 15, 0, 4161.538, 4163.59, 4108.205, 4151.795, 4122.051, 16204, 0, []
1629739230.7814, 16, 0, 4186.154, 4137.949, 4128.205, 4158.462, 4150.769, 0, 0, []
1629739230.7894, 17, 0, 4180.513, 4131.795, 4107.179, 4139.487, 4144.615, 0, 0, []
1629739230.7973, 18, 0, 4211.795, 4142.564, 4100.513, 4135.897, 4164.615, 0, 0, []
1629739230.8052, 19, 0, 4276.41, 4138.974, 4126.154, 4164.103, 4221.538, 0, 0, []
1629739230.8131, 20, 0, 4278.974, 4117.949, 4110.769, 4158.974, 4231.795, 0, 0, []
1629739230.8211, 21, 0, 4260.513, 4126.667, 4092.821, 4131.282, 4212.821, 0, 0, []
1629739230.829, 22, 0, 4282.564, 4152.308, 4092.821, 4136.41, 4224.103, 0, 0, []
1629739230.837, 23, 0, 4282.051, 4150.256, 4094.359, 4146.154, 4218.462, 0, 0, []
1629739230.8448, 24, 0, 4246.667, 4141.538, 4097.949, 4138.462, 4186.154, 0, 0, []
1629739230.8528, 25, 0, 4232.821, 4134.359, 4100, 4138.462, 4174.872, 0, 0, []
1629739230.8607, 26, 0, 4235.897, 4121.026, 4106.667, 4144.615, 4173.846, 0, 0, []
1629739230.8687, 27, 0, 4233.846, 4129.744, 4104.615, 4147.179, 4170.769, 0, 0, []
1629739230.8766, 28, 0, 4224.103, 4149.744, 4118.974, 4151.795, 4168.205, 0, 0, []
1629739230.8843, 29, 0, 4195.897, 4136.41, 4129.231, 4147.692, 4154.872, 0, 0, []
1629739230.8922, 30, 0, 4171.795, 4133.333, 4113.846, 4138.462, 4131.795, 0, 0, []
1629739230.9, 31, 0, 4166.154, 4152.821, 4116.41, 4135.385, 4115.897, 0, 0, []
1629739230.9079, 32, 0, 4153.333, 4147.692, 4106.154, 4131.282, 4101.026, 0, 0, []
1629739230.9157, 33, 0, 4135.385, 4131.282, 4093.846, 4123.59, 4084.615, 0, 0, []
1629739230.9235, 34, 0, 4132.308, 4135.897, 4108.205, 4131.795, 4080.513, 0, 0, []
1629739230.9313, 35, 0, 4132.821, 4145.128, 4111.795, 4143.59, 4084.615, 0, 0, []
1629739230.9392, 36, 0, 4121.026, 4137.949, 4106.667, 4138.462, 4078.462, 0, 0, []
1629739230.947, 37, 0, 4103.077, 4125.641, 4088.718, 4117.949, 4056.923, 0, 0, []
1629739230.955, 38, 0, 4101.026, 4119.487, 4090.256, 4104.103, 4044.103, 0, 0, []
1629739230.9629, 39, 0, 4115.897, 4131.795, 4113.846, 4112.821, 4053.333, 0, 0, []
1629739230.9708, 40, 0, 4121.538, 4134.359, 4109.231, 4123.59, 4061.538, 0, 0, []
1629739230.9787, 41, 0, 4107.692, 4111.795, 4103.59, 4120, 4050.769, 0, 0, []
1629739230.9867, 42, 0, 4100.513, 4114.872, 4098.974, 4112.308, 4037.949, 0, 0, []
1629739230.9946, 43, 0, 4105.128, 4119.487, 4096.41, 4114.359, 4044.615, 0, 0, []
1629739231.0026, 44, 0, 4108.205, 4107.692, 4106.154, 4122.051, 4056.41, 0, 0, []
1629739231.0104, 45, 0, 4116.923, 4117.949, 4096.41, 4126.667, 4055.897, 0, 0, []
1629739231.0184, 46, 0, 4119.487, 4133.846, 4100, 4129.744, 4048.205, 0, 0, []
1629739231.0263, 47, 0, 4103.59, 4117.436, 4111.282, 4123.59, 4032.308, 0, 0, []
1629739231.0341, 48, 0, 4097.949, 4108.718, 4105.641, 4117.436, 4018.462, 0, 0, []
1629739231.042, 49, 0, 4109.231, 4129.231, 4116.41, 4129.744, 4027.179, 0, 0, []
1629739231.0497, 50, 0, 4111.795, 4125.641, 4122.564, 4143.077, 4042.051, 0, 0, []
1629739231.0576, 51, 0, 4104.615, 4120.513, 4126.154, 4142.564, 4040.513, 0, 0, []
1629739231.0654, 52, 0, 4111.795, 4145.128, 4129.744, 4144.103, 4044.103, 0, 0, []
1629739231.0733, 53, 0, 4124.103, 4148.718, 4122.564, 4144.103, 4052.308, 0, 0, []
1629739231.0811, 54, 0, 4120, 4139.487, 4128.205, 4141.538, 4046.667, 0, 0, []
1629739231.0889, 55, 0, 4109.231, 4150.256, 4126.154, 4141.538, 4035.385, 0, 0, []
1629739231.0967, 56, 0, 4104.103, 4141.026, 4123.077, 4140.513, 4031.795, 0, 0, []
1629739231.1047, 57, 0, 4102.564, 4098.974, 4116.923, 4136.41, 4036.41, 0, 0, []
1629739231.1126, 58, 0, 4097.949, 4104.615, 4101.026, 4129.744, 4030.769, 0, 0, []
1629739231.1205, 59, 0, 4087.692, 4143.077, 4106.154, 4122.564, 4017.949, 0, 0, []
1629739231.1282, 60, 0, 4082.564, 4137.436, 4103.59, 4125.128, 4018.462, 0, 0, []
1629739231.1362, 61, 0, 4091.282, 4127.179, 4105.128, 4137.949, 4029.744, 0, 0, []
1629739231.1441, 62, 0, 4108.205, 4140.513, 4117.949, 4142.051, 4037.436, 0, 0, []
1629739231.1521, 63, 0, 4110.256, 4151.282, 4114.872, 4139.487, 4037.436, 0, 0, []
1629739231.16, 64, 0, 4096.923, 4142.564, 4121.026, 4136.41, 4028.718, 450, 0, []
1629739231.1679, 65, 0, 4094.872, 4121.538, 4119.487, 4128.718, 4020.513, 450, 0, []
1629739231.1758, 66, 0, 4102.564, 4127.692, 4110.769, 4124.615, 4021.026, 16192, 0, []
1629739231.1836, 67, 0, 4102.051, 4151.795, 4109.744, 4120.513, 4017.436, 450, 0, []
1629739231.1915, 68, 0, 4100, 4147.179, 4110.769, 4121.538, 4014.359, 16111, 0, []
1629739231.1993, 69, 0, 4111.795, 4129.744, 4132.821, 4140.513, 4030.769, 450, 0, []
1629739231.2071, 70, 0, 4117.949, 4141.538, 4130.769, 4144.615, 4034.872, 16102, 0, []
1629739231.2149, 71, 0, 4103.077, 4156.41, 4106.154, 4124.103, 4008.718, 450, 0, []
1629739231.2228, 72, 0, 4091.795, 4161.538, 4104.615, 4123.077, 3999.487, 450, 0, []
1629739231.2306, 73, 0, 4101.026, 4160, 4096.923, 4137.949, 4010.769, 16171, 0, []
1629739231.2385, 74, 0, 4102.564, 4131.282, 4090.769, 4135.385, 4008.205, 450, 0, []
1629739231.2462, 75, 0, 4089.744, 4123.077, 4092.821, 4128.718, 3998.462, 16204, 0, []
1629739231.2541, 76, 0, 4093.333, 4146.667, 4101.026, 4132.308, 4006.154, 450, 0, []
1629739231.2619, 77, 0, 4108.205, 4148.205, 4116.923, 4137.436, 4018.974, 450, 0, []
1629739231.2699, 78, 0, 4116.41, 4134.359, 4110.256, 4141.026, 4024.615, 450, 0, []
1629739231.2778, 79, 0, 4121.538, 4132.821, 4109.231, 4148.205, 4031.795, 16204, 0, []
1629739231.2858, 80, 0, 4118.974, 4142.051, 4105.641, 4148.718, 4030.256, 450, 0, []
1629739231.2936, 81, 0, 4106.154, 4134.872, 4092.821, 4137.436, 4012.821, 450, 0, []
1629739231.3016, 82, 0, 4101.026, 4116.923, 4101.026, 4133.846, 4005.128, 450, 0, []
1629739231.3095, 83, 0, 4109.744, 4133.333, 4096.923, 4137.436, 4016.41, 16204, 0, []
1629739231.3175, 84, 0, 4116.923, 4158.462, 4100, 4134.359, 4022.564, 450, 0, []
1629739231.3254, 85, 0, 4120, 4142.051, 4108.718, 4128.718, 4020, 450, 0, []
1629739231.3333, 86, 0, 4120, 4129.744, 4099.487, 4131.795, 4021.026, 450, 0, []
1629739231.3412, 87, 0, 4120.513, 4143.077, 4105.641, 4146.154, 4021.538, 16204, 0, []
1629739231.349, 88, 0, 4125.641, 4140.513, 4107.179, 4153.846, 4024.615, 450, 0, []
1629739231.3569, 89, 0, 4125.641, 4134.872, 4101.026, 4145.641, 4029.744, 450, 0, []
1629739231.3647, 90, 0, 4123.077, 4126.154, 4103.59, 4140, 4033.846, 450, 0, []
1629739231.3725, 91, 0, 4130.256, 4111.795, 4110.769, 4146.667, 4037.949, 16204, 0, []
1629739231.3803, 92, 0, 4140.513, 4127.179, 4118.974, 4149.744, 4042.564, 450, 0, []
1629739231.3882, 93, 0, 4132.308, 4140.513, 4097.949, 4137.949, 4036.41, 450, 0, []
1629739231.396, 94, 0, 4115.385, 4131.795, 4093.333, 4129.231, 4023.59, 450, 0, []
1629739231.4039, 95, 0, 4124.615, 4143.077, 4112.821, 4133.846, 4028.205, 16204, 0, []
1629739231.4116, 96, 0, 4147.179, 4153.333, 4106.154, 4136.41, 4042.564, 450, 0, []
1629739231.4196, 97, 0, 4155.385, 4145.641, 4108.718, 4137.949, 4049.231, 450, 0, []
1629739231.4275, 98, 0, 4158.462, 4141.538, 4115.897, 4147.179, 4054.872, 450, 0, []
1629739231.4355, 99, 0, 4160, 4149.744, 4121.026, 4154.872, 4058.462, 16204, 0, []
1629739231.4434, 100, 0, 4155.897, 4151.282, 4133.846, 4155.385, 4054.872, 450, 0, []
1629739231.4513, 101, 0, 4151.795, 4140.513, 4133.846, 4158.462, 4051.282, 450, 0, []
1629739231.4592, 102, 0, 4152.821, 4146.667, 4135.385, 4156.41, 4050.769, 450, 0, []
1629739231.4672, 103, 0, 4153.846, 4161.026, 4123.077, 4145.128, 4043.59, 16204, 0, []
1629739231.4751, 104, 0, 4148.718, 4140.513, 4112.821, 4141.026, 4037.949, 450, 0, []
1629739231.4831, 105, 0, 4138.462, 4112.821, 4124.615, 4142.564, 4031.795, 450, 0, []
1629739231.4909, 106, 0, 4134.872, 4137.436, 4127.179, 4137.436, 4028.718, 450, 0, []
1629739231.4987, 107, 0, 4146.667, 4162.564, 4133.333, 4138.974, 4037.949, 16204, 0, []
1629739231.5066, 108, 0, 4152.821, 4155.385, 4132.308, 4147.179, 4045.128, 450, 0, []
1629739231.5145, 109, 0, 4154.359, 4153.846, 4129.231, 4148.718, 4045.641, 450, 0, []
1629739231.5225, 110, 0, 4155.897, 4142.051, 4138.462, 4148.718, 4047.179, 450, 0, []
1629739231.5302, 111, 0, 4146.154, 4126.667, 4126.154, 4149.744, 4046.667, 16204, 0, []
1629739231.5381, 112, 0, 4145.128, 4149.231, 4127.179, 4153.333, 4047.692, 450, 0, []
1629739231.5459, 113, 0, 4152.308, 4159.487, 4140.513, 4154.359, 4050.256, 450, 0, []
1629739231.5538, 114, 0, 4138.974, 4127.692, 4141.538, 4147.692, 4040, 450, 0, []
1629739231.5616, 115, 0, 4130.769, 4140.513, 4147.692, 4149.231, 4037.436, 16204, 0, []
1629739231.5695, 116, 0, 4155.897, 4173.846, 4133.333, 4154.872, 4057.949, 450, 0, []
1629739231.5774, 117, 0, 4169.744, 4145.641, 4125.128, 4148.205, 4062.564, 450, 0, []
1629739231.5854, 118, 0, 4153.846, 4124.615, 4132.821, 4137.949, 4044.615, 450, 0, []
1629739231.5933, 119, 0, 4143.077, 4149.231, 4125.128, 4133.333, 4033.333, 16204, 0, []
1629739231.6013, 120, 0, 4138.974, 4150.769, 4123.077, 4131.795, 4029.231, 450, 0, []
1629739231.6091, 121, 0, 4134.872, 4133.333, 4119.487, 4128.718, 4023.077, 450, 0, []
1629739231.6171, 122, 0, 4144.103, 4134.872, 4129.231, 4131.795, 4027.179, 450, 0, []
1629739231.625, 123, 0, 4160.513, 4146.667, 4146.154, 4144.615, 4039.487, 16204, 0, []
1629739231.633, 124, 0, 4161.026, 4144.615, 4138.462, 4149.744, 4042.564, 450, 0, []
1629739231.6409, 125, 0, 4150.769, 4124.615, 4135.385, 4141.026, 4035.897, 450, 0, []
1629739231.6489, 126, 0, 4158.974, 4128.718, 4136.41, 4142.051, 4037.436, 450, 0, []
1629739231.6567, 127, 0, 4168.718, 4154.359, 4138.974, 4151.282, 4042.564, 16204, 0, []
1629739231.6645, 128, 0, 4158.462, 4146.154, 4136.41, 4148.205, 4036.41, 450, 0, []
1629739231.6724, 0, 0, 4155.385, 4132.308, 4127.179, 4140, 4028.718, 450, 0, []
1629739231.6802, 1, 0, 4166.667, 4160, 4138.974, 4144.103, 4036.923, 450, 0, []
1629739231.6881, 2, 0, 4172.308, 4170.256, 4134.872, 4151.282, 4048.718, 16193, 0, []
1629739231.6958, 3, 0, 4168.205, 4145.128, 4126.154, 4149.744, 4052.308, 450, 0, []
1629739231.7037, 4, 0, 4168.718, 4142.564, 4130.256, 4141.538, 4049.744, 16124, 0, []
1629739231.7115, 5, 0, 4175.897, 4152.821, 4122.051, 4131.795, 4046.154, 450, 0, []
1629739231.7194, 6, 0, 4185.128, 4153.846, 4127.179, 4137.949, 4050.256, 16133, 0, []
1629739231.7272, 7, 0, 4184.103, 4145.641, 4129.744, 4146.154, 4055.897, 450, 0, []
1629739231.7351, 8, 0, 4170.769, 4147.179, 4123.59, 4141.026, 4051.282, 450, 0, []
1629739231.743, 9, 0, 4165.641, 4163.077, 4129.744, 4142.564, 4048.205, 16164, 0, []
1629739231.7509, 10, 0, 4184.103, 4163.59, 4126.667, 4151.282, 4063.077, 450, 0, []
1629739231.7587, 11, 0, 4203.59, 4149.744, 4131.795, 4149.744, 4077.436, 16211, 0, []
1629739231.7667, 12, 0, 4191.795, 4152.821, 4126.154, 4138.462, 4065.128, 450, 0, []
1629739231.7745, 13, 0, 4160.513, 4163.59, 4105.128, 4129.744, 4041.538, 450, 0, []
1629739231.7825, 14, 0, 4150.256, 4140, 4104.103, 4127.179, 4034.872, 450, 0, []
1629739231.7904, 15, 0, 4161.026, 4129.744, 4107.692, 4133.846, 4041.026, 16211, 0, []
1629739231.7984, 16, 0, 4168.205, 4166.154, 4117.436, 4142.564, 4048.718, 0, 0, []
1629739231.8063, 17, 0, 4166.667, 4173.333, 4116.41, 4140.513, 4056.923, 0, 0, []
1629739231.814, 18, 0, 4165.128, 4138.974, 4109.744, 4134.359, 4058.462, 0, 0, []
1629739231.8219, 19, 0, 4174.872, 4152.308, 4127.179, 4137.436, 4060, 0, 0, []
1629739231.8297, 20, 0, 4182.564, 4193.846, 4129.744, 4143.59, 4068.718, 0, 0, []
1629739231.8376, 21, 0, 4173.333, 4168.205, 4124.103, 4139.487, 4065.641, 0, 0, []
1629739231.8454, 22, 0, 4168.205, 4141.026, 4117.949, 4131.795, 4052.821, 0, 0, []
1629739231.8532, 23, 0, 4168.205, 4167.692, 4110.769, 4135.897, 4050.256, 0, 0, []
1629739231.861, 24, 0, 4157.436, 4173.846, 4120.513, 4140, 4046.154, 0, 0, []
1629739231.8689, 25, 0, 4149.744, 4154.359, 4113.333, 4132.821, 4041.538, 0, 0, []
1629739231.8767, 26, 0, 4155.385, 4149.231, 4108.205, 4123.077, 4046.154, 0, 0, []
1629739231.8847, 27, 0, 4154.872, 4142.051, 4115.897, 4119.487, 4048.205, 0, 0, []
1629739231.8925, 28, 0, 4153.333, 4135.385, 4112.308, 4118.462, 4051.282, 0, 0, []
1629739231.9005, 29, 0, 4155.897, 4164.103, 4113.846, 4118.974, 4057.949, 0, 0, []
1629739231.9084, 30, 0, 4146.667, 4177.949, 4106.154, 4114.359, 4052.308, 0, 0, []
1629739231.9164, 31, 0, 4142.564, 4140.513, 4104.615, 4112.308, 4041.538, 0, 0, []
1629739231.9243, 32, 0, 4152.308, 4137.436, 4107.179, 4120.513, 4048.718, 0, 0, []
1629739231.9322, 33, 0, 4156.41, 4166.667, 4095.897, 4124.615, 4059.487, 0, 0, []
1629739231.9401, 34, 0, 4151.282, 4153.846, 4100.513, 4127.692, 4055.385, 0, 0, []
1629739231.9481, 35, 0, 4139.487, 4132.821, 4097.436, 4125.641, 4038.974, 0, 0, []
1629739231.956, 36, 0, 4123.077, 4148.718, 4089.231, 4103.59, 4027.179, 0, 0, []
1629739231.9638, 37, 0, 4120.513, 4163.59, 4099.487, 4084.103, 4033.846, 0, 0, []
1629739231.9716, 38, 0, 4132.308, 4154.872, 4099.487, 4091.795, 4044.615, 0, 0, []
1629739231.9794, 39, 0, 4136.923, 4143.077, 4103.59, 4108.205, 4045.128, 0, 0, []
1629739231.9873, 40, 0, 4136.41, 4137.949, 4103.077, 4114.872, 4050.256, 0, 0, []
1629739231.9951, 41, 0, 4142.051, 4150.256, 4098.462, 4122.051, 4061.538, 0, 0, []
1629739232.003, 42, 0, 4143.077, 4148.718, 4102.051, 4126.154, 4058.462, 0, 0, []
1629739232.0108, 43, 0, 4134.359, 4121.538, 4102.051, 4122.564, 4052.821, 0, 0, []
1629739232.0186, 44, 0, 4125.128, 4131.795, 4115.897, 4114.359, 4058.462, 0, 0, []
1629739232.0264, 45, 0, 4123.59, 4153.846, 4110.769, 4095.897, 4055.385, 0, 0, []
1629739232.0344, 46, 0, 4125.641, 4147.692, 4092.821, 4074.359, 4044.103, 0, 0, []
1629739232.0423, 47, 0, 4131.282, 4145.128, 4107.179, 4078.462, 4051.795, 0, 0, []
1629739232.0503, 48, 0, 4146.667, 4151.282, 4111.795, 4108.205, 4073.333, 0, 0, []
1629739232.0581, 49, 0, 4155.385, 4162.051, 4106.154, 4130.769, 4088.718, 0, 0, []
1629739232.0661, 50, 0, 4154.359, 4163.077, 4099.487, 4128.718, 4091.282, 0, 0, []
1629739232.074, 51, 0, 4155.385, 4148.205, 4096.923, 4113.333, 4084.103, 0, 0, []
1629739232.082, 52, 0, 4163.077, 4157.436, 4111.282, 4107.692, 4090.769, 0, 0, []
1629739232.0899, 53, 0, 4175.897, 4179.487, 4106.667, 4101.538, 4107.692, 0, 0, []
1629739232.0978, 54, 0, 4200, 4164.103, 4102.564, 4095.385, 4129.231, 0, 0, []
1629739232.1057, 55, 0, 4234.359, 4151.795, 4110.256, 4107.179, 4162.564, 0, 0, []
1629739232.1135, 56, 0, 4262.564, 4170.769, 4107.692, 4120, 4200.513, 0, 0, []
1629739232.1214, 57, 0, 4297.949, 4170.256, 4118.462, 4127.692, 4239.487, 0, 0, []
1629739232.1292, 58, 0, 4336.41, 4164.615, 4120, 4130.769, 4271.795, 0, 0, []
1629739232.137, 59, 0, 4349.744, 4177.436, 4123.59, 4130.256, 4290.256, 0, 0, []
1629739232.1448, 60, 0, 4342.564, 4187.692, 4130.256, 4129.231, 4293.846, 0, 0, []
1629739232.1527, 61, 0, 4328.205, 4192.308, 4120, 4122.051, 4283.59, 0, 0, []
1629739232.1605, 62, 0, 4315.897, 4174.359, 4117.436, 4113.333, 4267.692, 0, 0, []
1629739232.1684, 63, 0, 4307.692, 4152.308, 4111.795, 4113.846, 4264.615, 0, 0, []
1629739232.1761, 64, 0, 4304.103, 4166.667, 4120.513, 4130.769, 4267.692, 450, 0, []
1629739232.1841, 65, 0, 4295.897, 4182.051, 4142.051, 4148.205, 4258.462, 450, 0, []
1629739232.192, 66, 0, 4282.051, 4168.718, 4131.795, 4147.179, 4241.026, 16194, 0, []
1629739232.2, 67, 0, 4270.256, 4156.41, 4118.974, 4140.513, 4227.179, 450, 0, []
1629739232.2079, 68, 0, 4263.077, 4169.231, 4108.718, 4143.59, 4218.974, 16128, 0, []
1629739232.2158, 69, 0, 4246.667, 4172.821, 4103.077, 4140.513, 4208.718, 450, 0, []
1629739232.2237, 70, 0, 4230.256, 4150.769, 4105.128, 4132.308, 4195.897, 16110, 0, []
1629739232.2317, 71, 0, 4233.333, 4150.769, 4103.077, 4131.795, 4189.744, 450, 0, []
1629739232.2396, 72, 0, 4239.487, 4176.923, 4114.872, 4132.308, 4190.256, 450, 0, []
1629739232.2476, 73, 0, 4233.333, 4171.282, 4118.462, 4135.897, 4193.333, 16178, 0, []
1629739232.2554, 74, 0, 4228.718, 4150.769, 4116.923, 4146.154, 4197.949, 450, 0, []
1629739232.2633, 75, 0, 4231.282, 4172.308, 4127.692, 4149.744, 4200.513, 16209, 0, []
1629739232.2712, 76, 0, 4233.846, 4176.923, 4124.615, 4148.718, 4198.974, 450, 0, []
1629739232.279, 77, 0, 4231.282, 4146.667, 4123.59, 4156.41, 4194.359, 450, 0, []
1629739232.2869, 78, 0, 4224.615, 4143.077, 4114.359, 4152.821, 4187.179, 450, 0, []
1629739232.2946, 79, 0, 4215.897, 4153.846, 4107.692, 4141.026, 4180.513, 16209, 0, []
1629739232.3025, 80, 0, 4206.667, 4153.333, 4125.128, 4140.513, 4167.692, 450, 0, []
1629739232.3103, 81, 0, 4198.974, 4141.026, 4127.179, 4135.897, 4157.436, 450, 0, []
1629739232.3182, 82, 0, 4194.359, 4138.974, 4128.205, 4125.641, 4153.333, 450, 0, []
1629739232.326, 83, 0, 4192.821, 4157.436, 4123.59, 4127.179, 4153.846, 16209, 0, []
1629739232.3338, 84, 0, 4190.256, 4155.897, 4106.667, 4140, 4161.026, 450, 0, []
1629739232.3416, 85, 0, 4185.128, 4126.154, 4102.051, 4148.205, 4161.538, 450, 0, []
1629739232.3496, 86, 0, 4191.282, 4133.846, 4096.923, 4152.308, 4157.949, 450, 0, []
1629739232.3575, 87, 0, 4208.718, 4177.949, 4114.359, 4160, 4170.256, 16209, 0, []
1629739232.3655, 88, 0, 4211.795, 4169.231, 4130.256, 4160.513, 4181.026, 450, 0, []
1629739232.3734, 89, 0, 4200, 4138.462, 4115.897, 4148.718, 4169.744, 450, 0, []
1629739232.3813, 90, 0, 4193.333, 4147.179, 4116.41, 4139.487, 4157.949, 450, 0, []
1629739232.3892, 91, 0, 4197.436, 4157.436, 4125.641, 4144.103, 4163.59, 16209, 0, []
1629739232.3972, 92, 0, 4202.051, 4153.846, 4132.821, 4157.949, 4170.769, 450, 0, []
1629739232.4051, 93, 0, 4195.385, 4159.487, 4130.769, 4162.564, 4163.077, 450, 0, []
1629739232.4131, 94, 0, 4181.026, 4148.205, 4118.462, 4153.846, 4142.564, 450, 0, []
1629739232.4209, 95, 0, 4178.974, 4135.897, 4128.205, 4151.795, 4134.359, 16209, 0, []
1629739232.4289, 96, 0, 4192.821, 4155.897, 4135.385, 4153.846, 4141.026, 450, 0, []
1629739232.4368, 97, 0, 4196.923, 4149.744, 4135.385, 4155.385, 4146.667, 450, 0, []
1629739232.4446, 98, 0, 4191.795, 4133.333, 4140, 4163.077, 4152.821, 450, 0, []
1629739232.4525, 99, 0, 4189.744, 4158.974, 4128.205, 4164.103, 4152.821, 16209, 0, []
1629739232.4602, 100, 0, 4179.487, 4169.744, 4123.077, 4150.769, 4136.41, 450, 0, []
1629739232.4681, 101, 0, 4158.462, 4157.436, 4114.872, 4139.487, 4118.974, 450, 0, []
1629739232.4759, 102, 0, 4155.385, 4170.769, 4112.308, 4139.487, 4119.487, 450, 0, []
1629739232.4838, 103, 0, 4176.923, 4172.821, 4121.538, 4143.59, 4132.308, 16209, 0, []
1629739232.4916, 104, 0, 4194.872, 4155.385, 4121.026, 4153.333, 4145.128, 450, 0, []
1629739232.4995, 105, 0, 4206.154, 4153.846, 4134.872, 4169.744, 4166.667, 450, 0, []
1629739232.5074, 106, 0, 4212.308, 4145.641, 4133.846, 4174.872, 4184.103, 450, 0, []
1629739232.5154, 107, 0, 4208.718, 4125.128, 4123.59, 4166.154, 4180.513, 16209, 0, []
1629739232.5233, 108, 0, 4206.154, 4107.692, 4132.308, 4156.41, 4166.667, 450, 0, []
1629739232.5313, 109, 0, 4207.179, 4096.41, 4127.692, 4150.769, 4158.462, 450, 0, []
1629739232.5391, 110, 0, 4200.513, 4109.231, 4121.538, 4145.641, 4153.846, 450, 0, []
1629739232.5471, 111, 0, 4186.154, 4132.821, 4106.154, 4137.949, 4143.59, 16209, 0, []
1629739232.555, 112, 0, 4171.795, 4117.436, 4093.846, 4134.359, 4132.821, 450, 0, []
1629739232.563, 113, 0, 4166.667, 4083.59, 4103.077, 4141.538, 4120, 450, 0, []
1629739232.5709, 114, 0, 4167.179, 4076.923, 4097.436, 4140, 4112.308, 450, 0, []
1629739232.5786, 115, 0, 4164.103, 4075.385, 4097.949, 4124.615, 4115.385, 16209, 0, []
1629739232.5865, 116, 0, 4166.154, 4082.051, 4110.769, 4123.59, 4121.026, 450, 0, []
1629739232.5943, 117, 0, 4178.974, 4094.359, 4112.308, 4137.436, 4126.154, 450, 0, []
1629739232.6022, 118, 0, 4188.718, 4078.462, 4115.897, 4140, 4132.821, 450, 0, []
1629739232.61, 119, 0, 4191.282, 4064.615, 4114.872, 4141.538, 4141.026, 16209, 0, []
1629739232.6178, 120, 0, 4201.026, 4090.256, 4127.179, 4160, 4148.205, 450, 0, []
1629739232.6256, 121, 0, 4203.077, 4100, 4130.769, 4161.026, 4147.692, 450, 0, []
1629739232.6335, 122, 0, 4184.103, 4082.051, 4111.282, 4135.897, 4131.795, 450, 0, []
1629739232.6413, 123, 0, 4171.282, 4098.462, 4110.769, 4132.821, 4120.513, 16209, 0, []
1629739232.6492, 124, 0, 4171.795, 4098.462, 4106.667, 4139.487, 4123.077, 450, 0, []
1629739232.6569, 125, 0, 4169.231, 4069.744, 4109.231, 4128.718, 4122.564, 450, 0, []
1629739232.6649, 126, 0, 4166.154, 4084.615, 4119.487, 4128.205, 4120, 450, 0, []
1629739232.6728, 127, 0, 4168.205, 4105.128, 4110.769, 4133.846, 4116.923, 16209, 0, []
1629739232.6808, 128, 0, 4175.385, 4090.769, 4115.897, 4127.179, 4117.436, 450, 0, []
1629739232.6887, 0, 0, 4190.769, 4087.692, 4126.154, 4127.692, 4133.846, 450, 0, []
1629739232.6967, 1, 0, 4202.564, 4094.359, 4134.872, 4134.359, 4144.615, 450, 0, []
1629739232.7045, 2, 0, 4198.974, 4081.538, 4130.256, 4131.282, 4138.462, 16195, 0, []
1629739232.7125, 3, 0, 4198.462, 4093.333, 4117.436, 4131.795, 4141.538, 450, 0, []
1629739232.7204, 4, 0, 4203.077, 4130.769, 4129.744, 4140.513, 4149.231, 16136, 0, []
1629739232.7284, 5, 0, 4203.59, 4140, 4127.692, 4142.051, 4141.026, 450, 0, []
1629739232.7363, 6, 0, 4203.59, 4139.487, 4123.59, 4142.564, 4138.974, 16096, 0, []
1629739232.744, 7, 0, 4196.923, 4138.462, 4138.974, 4142.564, 4145.641, 450, 0, []
1629739232.7519, 8, 0, 4185.641, 4128.718, 4133.333, 4135.897, 4138.462, 450, 0, []
1629739232.7597, 9, 0, 4184.103, 4131.795, 4127.692, 4134.359, 4124.103, 16178, 0, []
1629739232.7676, 10, 0, 4181.026, 4136.923, 4118.462, 4135.385, 4111.795, 450, 0, []
1629739232.7754, 11, 0, 4173.846, 4116.923, 4105.641, 4133.333, 4101.538, 16208, 0, []
1629739232.7832, 12, 0, 4177.436, 4115.385, 4110.769, 4137.436, 4106.154, 450, 0, []
1629739232.791, 13, 0, 4191.282, 4146.154, 4115.385, 4145.128, 4120, 450, 0, []
1629739232.7989, 14, 0, 4195.897, 4144.615, 4123.077, 4148.718, 4123.59, 450, 0, []
1629739232.8067, 15, 0, 4190.769, 4142.564, 4115.897, 4149.231, 4122.051, 16208, 0, []
1629739232.8147, 16, 0, 4186.667, 4172.821, 4103.077, 4148.205, 4124.103, 0, 0, []
1629739232.8225, 17, 0, 4185.641, 4167.692, 4118.462, 4147.692, 4123.59, 0, 0, []
1629739232.8305, 18, 0, 4187.179, 4135.385, 4120.513, 4142.564, 4122.564, 0, 0, []
1629739232.8384, 19, 0, 4182.564, 4139.487, 4113.846, 4134.872, 4121.538, 0, 0, []
1629739232.8464, 20, 0, 4175.897, 4155.385, 4109.231, 4132.308, 4112.821, 0, 0, []
1629739232.8543, 21, 0, 4176.923, 4148.205, 4109.231, 4136.923, 4106.154, 0, 0, []
1629739232.8622, 22, 0, 4176.923, 4160, 4121.538, 4144.615, 4106.667, 0, 0, []
1629739232.8701, 23, 0, 4169.744, 4169.744, 4104.615, 4136.41, 4105.641, 0, 0, []
1629739232.8781, 24, 0, 4169.744, 4144.103, 4091.282, 4120, 4103.077, 0, 0, []
1629739232.886, 25, 0, 4182.564, 4119.487, 4103.59, 4119.487, 4104.103, 0, 0, []
1629739232.8938, 26, 0, 4192.821, 4135.897, 4110.769, 4132.821, 4111.795, 0, 0, []
1629739232.9016, 27, 0, 4198.974, 4171.795, 4120.513, 4141.026, 4119.487, 0, 0, []
1629739232.9094, 28, 0, 4205.128, 4165.128, 4127.179, 4144.615, 4123.59, 0, 0, []
1629739232.9173, 29, 0, 4201.026, 4141.026, 4135.385, 4149.231, 4121.026, 0, 0, []
1629739232.9251, 30, 0, 4190.769, 4165.128, 4127.692, 4144.103, 4115.385, 0, 0, []
1629739232.933, 31, 0, 4186.154, 4192.308, 4107.179, 4132.308, 4107.179, 0, 0, []
1629739232.9407, 32, 0, 4185.641, 4163.077, 4115.897, 4132.821, 4103.59, 0, 0, []
1629739232.9486, 33, 0, 4182.564, 4133.333, 4120, 4133.333, 4104.103, 0, 0, []
1629739232.9564, 34, 0, 4182.051, 4146.667, 4114.359, 4124.615, 4103.59, 0, 0, []
1629739232.9644, 35, 0, 4185.128, 4171.282, 4113.333, 4126.154, 4105.128, 0, 0, []
1629739232.9723, 36, 0, 4184.103, 4170.769, 4105.128, 4132.821, 4103.077, 0, 0, []
1629739232.9802, 37, 0, 4189.744, 4143.077, 4109.231, 4136.41, 4103.59, 0, 0, []
1629739232.9881, 38, 0, 4201.026, 4143.077, 4111.282, 4136.923, 4112.308, 0, 0, []
1629739232.9961, 39, 0, 4189.744, 4165.641, 4109.231, 4127.692, 4103.59, 0, 0, []
1629739233.004, 40, 0, 4168.205, 4158.462, 4110.769, 4114.359, 4091.795, 0, 0, []
1629739233.012, 41, 0, 4174.359, 4145.641, 4097.949, 4114.872, 4107.692, 0, 0, []
1629739233.0198, 42, 0, 4188.718, 4156.41, 4111.282, 4131.795, 4126.667, 0, 0, []
1629739233.0278, 43, 0, 4180, 4168.205, 4128.205, 4143.59, 4127.692, 0, 0, []
1629739233.0357, 44, 0, 4151.795, 4171.795, 4116.41, 4138.462, 4115.897, 0, 0, []
1629739233.0437, 45, 0, 4125.128, 4173.333, 4101.026, 4126.667, 4094.359, 0, 0, []
1629739233.0516, 46, 0, 4121.538, 4156.41, 4091.282, 4129.231, 4084.615, 0, 0, []
1629739233.0594, 47, 0, 4129.231, 4142.564, 4103.077, 4140.513, 4094.872, 0, 0, []
1629739233.0672, 48, 0, 4129.744, 4147.179, 4102.564, 4135.897, 4100.513, 0, 0, []
1629739233.075, 49, 0, 4145.641, 4165.641, 4105.128, 4134.872, 4108.205, 0, 0, []
1629739233.0829, 50, 0, 4174.872, 4183.59, 4134.359, 4153.846, 4125.641, 0, 0, []
1629739233.0907, 51, 0, 4177.949, 4175.385, 4136.41, 4164.615, 4129.231, 0, 0, []
1629739233.0986, 52, 0, 4168.718, 4170.769, 4129.231, 4159.487, 4128.205, 0, 0, []
1629739233.1063, 53, 0, 4173.846, 4163.59, 4129.744, 4154.872, 4127.692, 0, 0, []
1629739233.1142, 54, 0, 4172.308, 4145.128, 4128.718, 4147.179, 4117.949, 0, 0, []
1629739233.122, 55, 0, 4157.949, 4167.179, 4133.846, 4135.897, 4115.897, 0, 0, []
1629739233.13, 56, 0, 4151.795, 4202.051, 4127.179, 4131.795, 4116.41, 0, 0, []
1629739233.1379, 57, 0, 4154.872, 4182.564, 4131.282, 4138.974, 4109.744, 0, 0, []
1629739233.1458, 58, 0, 4153.846, 4154.359, 4137.436, 4150.256, 4105.641, 0, 0, []
1629739233.1537, 59, 0, 4142.564, 4184.615, 4124.103, 4153.846, 4101.026, 0, 0, []
1629739233.1617, 60, 0, 4135.385, 4187.692, 4118.974, 4148.718, 4093.846, 0, 0, []
1629739233.1696, 61, 0, 4137.436, 4153.333, 4103.077, 4136.41, 4093.333, 0, 0, []
1629739233.1776, 62, 0, 4135.385, 4168.205, 4092.821, 4122.564, 4092.821, 0, 0, []
1629739233.1854, 63, 0, 4138.974, 4197.436, 4104.103, 4127.692, 4093.846, 0, 0, []
1629739233.1934, 64, 0, 4156.923, 4182.051, 4121.538, 4147.692, 4114.872, 450, 0, []
1629739233.2013, 65, 0, 4169.231, 4171.282, 4137.436, 4150.256, 4132.821, 450, 0, []
1629739233.2091, 66, 0, 4168.718, 4193.846, 4125.128, 4141.538, 4127.692, 16195, 0, []
1629739233.217, 67, 0, 4170.256, 4184.103, 4120, 4150.769, 4124.615, 450, 0, []
1629739233.2247, 68, 0, 4170.769, 4166.154, 4131.795, 4162.051, 4132.821, 16141, 0, []
1629739233.2326, 69, 0, 4161.538, 4190.256, 4123.59, 4153.333, 4125.641, 450, 0, []
1629739233.2404, 70, 0, 4150.769, 4196.923, 4115.385, 4141.538, 4106.154, 16098, 0, []
1629739233.2483, 71, 0, 4142.051, 4169.744, 4103.077, 4138.462, 4101.026, 450, 0, []
1629739233.2561, 72, 0, 4134.872, 4163.077, 4094.359, 4136.923, 4101.538, 450, 0, []
1629739233.2639, 73, 0, 4132.821, 4187.179, 4100, 4136.41, 4098.462, 16177, 0, []
1629739233.2717, 74, 0, 4135.385, 4195.385, 4093.846, 4131.282, 4097.949, 450, 0, []
1629739233.2797, 75, 0, 4136.923, 4183.077, 4095.385, 4127.179, 4097.436, 16204, 0, []
1629739233.2876, 76, 0, 4135.385, 4178.462, 4096.41, 4126.667, 4097.436, 450, 0, []
1629739233.2956, 77, 0, 4140, 4178.974, 4098.974, 4127.692, 4103.59, 450, 0, []
1629739233.3034, 78, 0, 4154.359, 4176.923, 4117.436, 4136.923, 4111.282, 450, 0, []
1629739233.3114, 79, 0, 4160.513, 4168.718, 4112.308, 4144.615, 4116.41, 16204, 0, []
1629739233.3193, 80, 0, 4152.821, 4180, 4103.077, 4139.487, 4120.513, 450, 0, []
1629739233.3273, 81, 0, 4148.718, 4200.513, 4104.103, 4131.282, 4122.051, 450, 0, []
1629739233.3352, 82, 0, 4159.487, 4192.308, 4112.821, 4136.923, 4123.077, 450, 0, []
1629739233.3431, 83, 0, 4161.026, 4185.128, 4121.538, 4147.179, 4120, 16204, 0, []
1629739233.351, 84, 0, 4144.615, 4189.744, 4096.923, 4140.513, 4104.615, 450, 0, []
1629739233.3588, 85, 0, 4134.872, 4177.949, 4082.564, 4127.692, 4090.256, 450, 0, []
1629739233.3667, 86, 0, 4138.974, 4162.051, 4085.641, 4121.026, 4094.359, 450, 0, []
1629739233.3745, 87, 0, 4139.487, 4163.077, 4083.59, 4121.026, 4103.59, 16204, 0, []
1629739233.3823, 88, 0, 4143.59, 4172.308, 4094.359, 4129.231, 4105.641, 450, 0, []
1629739233.3901, 89, 0, 4153.846, 4179.487, 4094.359, 4134.872, 4109.744, 450, 0, []
1629739233.398, 90, 0, 4155.385, 4170.256, 4096.41, 4136.41, 4119.487, 450, 0, []
1629739233.4058, 91, 0, 4160, 4150.256, 4105.128, 4142.564, 4131.282, 16204, 0, []
1629739233.4137, 92, 0, 4176.41, 4170.256, 4105.641, 4149.231, 4140, 450, 0, []
1629739233.4215, 93, 0, 4187.692, 4196.41, 4113.846, 4150.256, 4142.051, 450, 0, []
1629739233.4294, 94, 0, 4186.667, 4180.513, 4117.436, 4150.256, 4142.051, 450, 0, []
1629739233.4373, 95, 0, 4183.59, 4186.154, 4129.231, 4155.385, 4145.128, 16204, 0, []
1629739233.4453, 96, 0, 4184.615, 4214.359, 4132.821, 4155.897, 4148.718, 450, 0, []
1629739233.4532, 97, 0, 4187.692, 4191.795, 4116.41, 4148.205, 4154.872, 450, 0, []
1629739233.4612, 98, 0, 4184.103, 4164.615, 4121.026, 4150.256, 4155.897, 450, 0, []
1629739233.469, 99, 0, 4172.308, 4191.282, 4110.769, 4152.308, 4143.077, 16204, 0, []
1629739233.477, 100, 0, 4162.564, 4217.436, 4096.41, 4138.462, 4134.872, 450, 0, []
1629739233.4849, 101, 0, 4161.538, 4190.769, 4102.051, 4133.846, 4136.923, 450, 0, []
1629739233.4929, 102, 0, 4165.641, 4166.154, 4093.333, 4144.615, 4142.051, 450, 0, []
1629739233.5008, 103, 0, 4169.744, 4197.436, 4095.385, 4147.692, 4149.744, 16204, 0, []
1629739233.5086, 104, 0, 4176.41, 4213.846, 4104.103, 4143.59, 4157.949, 450, 0, []
1629739233.5165, 105, 0, 4185.128, 4180, 4106.154, 4143.59, 4155.897, 450, 0, []
1629739233.5243, 106, 0, 4188.718, 4166.667, 4104.615, 4144.615, 4152.821, 450, 0, []
1629739233.5323, 107, 0, 4189.231, 4191.795, 4099.487, 4150.256, 4164.615, 16204, 0, []
1629739233.5402, 108, 0, 4189.231, 4201.538, 4108.205, 4155.897, 4175.385, 450, 0, []
1629739233.548, 109, 0, 4178.462, 4193.846, 4097.436, 4144.615, 4163.59, 450, 0, []
1629739233.5558, 110, 0, 4166.667, 4191.795, 4082.051, 4131.282, 4141.538, 450, 0, []
1629739233.5637, 111, 0, 4166.667, 4191.282, 4094.359, 4132.308, 4138.462, 16204, 0, []
1629739233.5715, 112, 0, 4170.256, 4192.308, 4098.462, 4136.41, 4148.205, 450, 0, []
1629739233.5794, 113, 0, 4173.333, 4188.205, 4103.077, 4142.564, 4151.795, 450, 0, []
1629739233.5871, 114, 0, 4184.103, 4189.231, 4107.179, 4151.795, 4152.308, 450, 0, []
1629739233.5951, 115, 0, 4192.308, 4203.59, 4103.077, 4150.769, 4154.872, 16204, 0, []
1629739233.603, 116, 0, 4189.744, 4209.231, 4096.923, 4137.949, 4154.872, 450, 0, []
1629739233.611, 117, 0, 4185.128, 4201.538, 4082.564, 4131.795, 4150.256, 450, 0, []
1629739233.6189, 118, 0, 4184.615, 4181.538, 4089.744, 4137.436, 4154.872, 450, 0, []
1629739233.6268, 119, 0, 4192.308, 4165.128, 4095.385, 4145.128, 4166.154, 16204, 0, []
1629739233.6347, 120, 0, 4202.564, 4185.128, 4084.103, 4146.154, 4167.179, 450, 0, []
1629739233.6427, 121, 0, 4198.462, 4216.41, 4090.256, 4141.538, 4167.179, 450, 0, []
1629739233.6506, 122, 0, 4188.205, 4194.359, 4092.308, 4138.462, 4168.205, 450, 0, []
1629739233.6584, 123, 0, 4192.308, 4179.487, 4095.385, 4149.231, 4169.744, 16204, 0, []
1629739233.6662, 124, 0, 4204.103, 4218.462, 4101.026, 4163.59, 4178.462, 450, 0, []
1629739233.674, 125, 0, 4201.538, 4230.769, 4096.923, 4157.436, 4180, 450, 0, []
1629739233.6819, 126, 0, 4188.718, 4214.359, 4108.718, 4143.59, 4167.692, 450, 0, []
1629739233.6897, 127, 0, 4183.59, 4213.846, 4110.769, 4143.59, 4163.59, 16204, 0, []
1629739233.6976, 128, 0, 4192.821, 4216.41, 4105.641, 4150.256, 4169.231, 450, 0, []
1629739233.7053, 0, 0, 4203.59, 4209.231, 4098.974, 4156.923, 4174.359, 450, 0, []
1629739233.7132, 1, 0, 4202.564, 4224.615, 4089.231, 4161.026, 4178.974, 450, 0, []
1629739233.721, 2, 0, 4200.513, 4248.718, 4104.615, 4167.179, 4180.513, 16195, 0, []
1629739233.7289, 3, 0, 4202.051, 4237.436, 4105.128, 4164.615, 4174.872, 450, 0, []
1629739233.7367, 4, 0, 4192.308, 4231.795, 4096.41, 4150.769, 4171.795, 16149, 0, []
1629739233.7447, 5, 0, 4181.026, 4249.744, 4101.538, 4142.564, 4171.282, 450, 0, []
1629739233.7525, 6, 0, 4184.103, 4235.385, 4096.41, 4141.026, 4168.718, 16101, 0, []
1629739233.7605, 7, 0, 4192.308, 4206.154, 4101.538, 4143.077, 4169.744, 450, 0, []
1629739233.7684, 8, 0, 4200.513, 4238.462, 4107.692, 4145.128, 4173.846, 450, 0, []
1629739233.7764, 9, 0, 4201.538, 4284.103, 4111.282, 4146.667, 4170.769, 16166, 0, []
1629739233.7843, 10, 0, 4191.795, 4258.462, 4117.436, 4146.154, 4164.103, 450, 0, []
1629739233.7922, 11, 0, 4191.795, 4223.59, 4110.769, 4144.103, 4165.128, 16205, 0, []
1629739233.8001, 12, 0, 4203.59, 4236.41, 4113.846, 4144.615, 4172.821, 450, 0, []
1629739233.8081, 13, 0, 4205.641, 4244.615, 4115.385, 4147.179, 4175.385, 450, 0, []
1629739233.816, 14, 0, 4198.974, 4227.179, 4109.744, 4147.179, 4171.282, 450, 0, []
1629739233.8238, 15, 0, 4196.41, 4236.41, 4110.256, 4142.051, 4167.179, 16205, 0, []
1629739233.8316, 16, 0, 4194.872, 4264.615, 4106.667, 4138.462, 4164.103, 0, 0, []
1629739233.8394, 17, 0, 4194.872, 4255.385, 4110.769, 4143.077, 4167.692, 0, 0, []
1629739233.8473, 18, 0, 4187.692, 4223.077, 4104.615, 4146.154, 4170.256, 0, 0, []
1629739233.8551, 19, 0, 4172.821, 4220.513, 4103.59, 4138.974, 4161.026, 0, 0, []
1629739233.863, 20, 0, 4188.718, 4243.077, 4123.077, 4134.359, 4161.538, 0, 0, []
1629739233.8707, 21, 0, 4238.462, 4261.538, 4113.333, 4131.795, 4188.205, 0, 0, []
1629739233.8786, 22, 0, 4280, 4253.333, 4105.641, 4130.769, 4224.103, 0, 0, []
1629739233.8864, 23, 0, 4315.385, 4227.692, 4108.718, 4131.795, 4252.821, 0, 0, []
1629739233.8944, 24, 0, 4354.872, 4229.231, 4101.026, 4129.231, 4276.41, 0, 0, []
1629739233.9023, 25, 0, 4380, 4250.769, 4105.128, 4123.59, 4298.462, 0, 0, []
1629739233.9102, 26, 0, 4385.641, 4249.744, 4096.923, 4115.385, 4308.718, 0, 0, []
1629739233.9181, 27, 0, 4381.026, 4232.308, 4089.744, 4107.179, 4301.538, 0, 0, []
1629739233.9261, 28, 0, 4376.41, 4226.154, 4100, 4108.205, 4301.538, 0, 0, []
1629739233.934, 29, 0, 4384.615, 4229.231, 4112.308, 4126.154, 4318.462, 0, 0, []
1629739233.942, 30, 0, 4385.128, 4240.513, 4128.205, 4143.59, 4319.487, 0, 0, []
1629739233.9498, 31, 0, 4363.077, 4252.308, 4124.615, 4144.615, 4303.59, 0, 0, []
1629739233.9578, 32, 0, 4351.282, 4259.487, 4127.179, 4147.179, 4297.436, 0, 0, []
1629739233.9657, 33, 0, 4352.308, 4281.026, 4134.872, 4151.795, 4289.231, 0, 0, []
1629739233.9737, 34, 0, 4327.692, 4274.872, 4118.462, 4136.41, 4264.103, 0, 0, []
1629739233.9816, 35, 0, 4295.897, 4238.974, 4119.487, 4124.103, 4242.564, 0, 0, []
1629739233.9893, 36, 0, 4297.436, 4252.308, 4130.256, 4136.41, 4236.41, 0, 0, []
1629739233.9972, 37, 0, 4307.692, 4282.051, 4141.026, 4148.205, 4242.051, 0, 0, []
1629739234.005, 38, 0, 4308.718, 4271.795, 4153.333, 4150.256, 4249.231, 0, 0, []
1629739234.0129, 39, 0, 4309.744, 4265.641, 4156.41, 4154.359, 4250.256, 0, 0, []
1629739234.0207, 40, 0, 4300.513, 4275.385, 4156.41, 4154.359, 4243.59, 0, 0, []
1629739234.0285, 41, 0, 4282.051, 4258.974, 4128.718, 4145.128, 4228.718, 0, 0, []
1629739234.0363, 42, 0, 4274.359, 4250.769, 4115.897, 4139.487, 4213.333, 0, 0, []
1629739234.0442, 43, 0, 4271.282, 4253.333, 4131.282, 4137.436, 4205.128, 0, 0, []
1629739234.052, 44, 0, 4261.026, 4235.897, 4118.974, 4128.718, 4195.897, 0, 0, []
1629739234.0599, 45, 0, 4252.308, 4226.154, 4112.308, 4127.692, 4187.692, 0, 0, []
1629739234.0676, 46, 0, 4245.641, 4227.692, 4121.026, 4132.308, 4189.231, 0, 0, []
1629739234.0756, 47, 0, 4252.821, 4235.897, 4133.333, 4134.359, 4200, 0, 0, []
1629739234.0835, 48, 0, 4266.667, 4249.744, 4142.051, 4135.897, 4201.538, 0, 0, []
1629739234.0915, 49, 0, 4251.282, 4242.051, 4126.667, 4129.744, 4189.744, 0, 0, []
1629739234.0994, 50, 0, 4231.795, 4216.41, 4122.564, 4122.051, 4183.077, 0, 0, []
1629739234.1074, 51, 0, 4229.231, 4210.256, 4122.051, 4116.923, 4186.667, 0, 0, []
1629739234.1152, 52, 0, 4222.051, 4216.41, 4109.744, 4112.308, 4182.051, 0, 0, []
1629739234.1232, 53, 0, 4213.846, 4218.974, 4113.333, 4108.718, 4171.282, 0, 0, []
1629739234.1311, 54, 0, 4217.436, 4242.564, 4109.744, 4107.179, 4166.154, 0, 0, []
1629739234.1389, 55, 0, 4212.821, 4258.974, 4095.897, 4103.077, 4161.026, 0, 0, []
1629739234.1468, 56, 0, 4199.487, 4243.077, 4089.744, 4103.59, 4155.897, 0, 0, []
1629739234.1545, 57, 0, 4198.974, 4215.385, 4097.949, 4115.897, 4156.923, 0, 0, []
1629739234.1624, 58, 0, 4202.564, 4211.795, 4109.231, 4118.462, 4154.872, 0, 0, []
1629739234.1702, 59, 0, 4198.974, 4229.231, 4092.821, 4107.179, 4148.718, 0, 0, []
1629739234.1781, 60, 0, 4198.974, 4240, 4088.205, 4106.667, 4151.282, 0, 0, []
1629739234.1859, 61, 0, 4209.231, 4237.436, 4091.795, 4115.897, 4155.897, 0, 0, []
1629739234.1937, 62, 0, 4216.923, 4220.513, 4082.051, 4114.359, 4153.333, 0, 0, []
1629739234.2015, 63, 0, 4209.744, 4209.744, 4093.846, 4111.282, 4154.359, 0, 0, []
1629739234.2094, 64, 0, 4201.538, 4214.359, 4097.949, 4115.385, 4155.897, 450, 0, []
1629739234.2172, 65, 0, 4198.974, 4227.692, 4097.436, 4115.897, 4153.333, 450, 0, []
1629739234.2252, 66, 0, 4192.308, 4237.436, 4100.513, 4113.846, 4156.41, 16195, 0, []
1629739234.233, 67, 0, 4185.128, 4241.026, 4090.256, 4109.231, 4158.974, 450, 0, []
1629739234.241, 68, 0, 4184.103, 4230.769, 4095.385, 4109.744, 4152.821, 16141, 0, []
1629739234.2489, 69, 0, 4185.128, 4213.846, 4098.974, 4116.41, 4155.385, 450, 0, []
1629739234.2569, 70, 0, 4189.744, 4228.205, 4100.513, 4120, 4169.231, 16098, 0, []
1629739234.2648, 71, 0, 4189.744, 4232.308, 4103.077, 4113.333, 4168.718, 450, 0, []
1629739234.2727, 72, 0, 4185.128, 4221.026, 4091.795, 4106.667, 4156.41, 450, 0, []
1629739234.2806, 73, 0, 4183.077, 4231.282, 4095.897, 4108.718, 4153.333, 16172, 0, []
1629739234.2886, 74, 0, 4186.154, 4227.179, 4098.974, 4113.846, 4155.897, 450, 0, []
1629739234.2965, 75, 0, 4191.282, 4209.231, 4093.333, 4113.846, 4156.41, 16205, 0, []
1629739234.3043, 76, 0, 4196.41, 4230.256, 4097.949, 4113.333, 4160.513, 450, 0, []
1629739234.3121, 77, 0, 4209.744, 4260, 4107.692, 4125.641, 4177.949, 450, 0, []
1629739234.3199, 78, 0, 4218.974, 4243.077, 4125.641, 4140, 4193.846, 450, 0, []
1629739234.3278, 79, 0, 4207.692, 4225.128, 4116.41, 4133.333, 4185.128, 16205, 0, []
1629739234.3356, 80, 0, 4194.872, 4235.385, 4098.974, 4116.41, 4170.256, 450, 0, []
1629739234.3435, 81, 0, 4204.615, 4250.769, 4104.615, 4116.41, 4180.513, 450, 0, []
1629739234.3512, 82, 0, 4214.359, 4243.59, 4097.436, 4120.513, 4192.308, 450, 0, []
1629739234.3591, 83, 0, 4198.462, 4220, 4093.846, 4113.333, 4177.436, 16205, 0, []
1629739234.3669, 84, 0, 4185.641, 4217.436, 4092.308, 4108.205, 4165.641, 450, 0, []
1629739234.3749, 85, 0, 4200, 4233.333, 4085.128, 4114.872, 4179.487, 450, 0, []
1629739234.3828, 86, 0, 4218.974, 4244.103, 4091.795, 4122.564, 4196.41, 450, 0, []
1629739234.3907, 87, 0, 4218.974, 4242.564, 4094.872, 4121.026, 4200, 16205, 0, []
1629739234.3986, 88, 0, 4213.846, 4246.154, 4105.128, 4123.077, 4200, 450, 0, []
1629739234.4066, 89, 0, 4217.949, 4260.513, 4108.205, 4124.103, 4200, 450, 0, []
1629739234.4145, 90, 0, 4218.974, 4265.641, 4096.923, 4120.513, 4199.487, 450, 0, []
1629739234.4225, 91, 0, 4215.897, 4261.538, 4103.59, 4122.051, 4204.615, 16205, 0, []
1629739234.4303, 92, 0, 4217.949, 4252.821, 4109.231, 4127.179, 4214.359, 450, 0, []
1629739234.4383, 93, 0, 4227.692, 4249.231, 4114.359, 4128.718, 4222.051, 450, 0, []
1629739234.4462, 94, 0, 4246.667, 4255.385, 4113.846, 4122.051, 4240.513, 450, 0, []
1629739234.4542, 95, 0, 4271.795, 4256.41, 4105.641, 4117.436, 4268.205, 16205, 0, []
1629739234.4621, 96, 0, 4295.897, 4262.564, 4116.923, 4126.154, 4287.179, 450, 0, []
1629739234.47, 97, 0, 4318.462, 4273.846, 4112.308, 4134.359, 4303.077, 450, 0, []
1629739234.4778, 98, 0, 4350.769, 4262.564, 4106.154, 4137.949, 4332.308, 450, 0, []
1629739234.4856, 99, 0, 4388.205, 4266.667, 4115.385, 4141.538, 4354.359, 16205, 0, []
1629739234.4935, 100, 0, 4405.641, 4291.795, 4114.359, 4135.385, 4360, 450, 0, []
1629739234.5013, 101, 0, 4401.538, 4282.051, 4120, 4129.744, 4363.077, 450, 0, []
1629739234.5092, 102, 0, 4396.923, 4270.256, 4117.436, 4128.718, 4358.974, 450, 0, []
1629739234.517, 103, 0, 4390.256, 4280, 4118.974, 4118.974, 4340, 16205, 0, []
1629739234.525, 104, 0, 4366.154, 4273.846, 4124.103, 4117.436, 4328.205, 450, 0, []
1629739234.533, 105, 0, 4343.077, 4264.615, 4115.897, 4131.795, 4328.205, 450, 0, []
1629739234.5409, 106, 0, 4330.769, 4266.667, 4120.513, 4131.795, 4315.385, 450, 0, []
1629739234.5488, 107, 0, 4309.744, 4258.462, 4110.256, 4114.359, 4289.744, 16205, 0, []
1629739234.5567, 108, 0, 4287.692, 4255.385, 4101.538, 4113.333, 4272.821, 450, 0, []
1629739234.5646, 109, 0, 4295.385, 4260.513, 4124.103, 4130.769, 4281.026, 450, 0, []
1629739234.5726, 110, 0, 4309.744, 4258.974, 4128.718, 4141.026, 4290.769, 450, 0, []
1629739234.5805, 111, 0, 4294.872, 4264.615, 4119.487, 4139.487, 4270.256, 16205, 0, []
1629739234.5885, 112, 0, 4278.462, 4269.744, 4124.615, 4142.564, 4253.846, 450, 0, []
1629739234.5963, 113, 0, 4275.897, 4273.846, 4135.897, 4150.256, 4257.436, 450, 0, []
1629739234.6041, 114, 0, 4267.179, 4283.077, 4136.41, 4146.154, 4250.256, 450, 0, []
1629739234.612, 115, 0, 4258.974, 4283.077, 4124.615, 4137.949, 4232.308, 16205, 0, []
1629739234.6198, 116, 0, 4249.231, 4278.462, 4126.154, 4141.538, 4221.026, 450, 0, []
1629739234.6277, 117, 0, 4236.41, 4273.333, 4116.41, 4146.154, 4215.897, 450, 0, []
1629739234.6354, 118, 0, 4237.436, 4257.949, 4109.744, 4146.154, 4213.846, 450, 0, []
1629739234.6433, 119, 0, 4232.821, 4248.718, 4126.667, 4143.59, 4206.667, 16205, 0, []
1629739234.6511, 120, 0, 4213.846, 4259.487, 4118.974, 4131.795, 4187.692, 450, 0, []
1629739234.659, 121, 0, 4216.923, 4264.103, 4116.923, 4124.103, 4181.026, 450, 0, []
1629739234.6668, 122, 0, 4233.846, 4253.846, 4131.795, 4132.821, 4195.897, 450, 0, []
1629739234.6747, 123, 0, 4233.333, 4255.897, 4134.872, 4138.462, 4213.333, 16205, 0, []
1629739234.6826, 124, 0, 4229.744, 4270.769, 4140.513, 4141.538, 4220, 450, 0, []
1629739234.6906, 125, 0, 4225.641, 4267.179, 4131.282, 4150.769, 4208.205, 450, 0, []
1629739234.6985, 126, 0, 4213.333, 4251.282, 4127.179, 4156.41, 4195.897, 450, 0, []
1629739234.7065, 127, 0, 4217.436, 4258.974, 4137.436, 4156.923, 4208.718, 16205, 0, []
1629739234.7143, 128, 0, 4229.231, 4300, 4137.436, 4155.897, 4220, 450, 0, []
1629739234.7223, 0, 0, 4220.513, 4312.821, 4138.974, 4152.308, 4206.667, 450, 0, []
1629739234.7302, 1, 0, 4212.308, 4265.128, 4128.205, 4144.615, 4189.231, 450, 0, []
1629739234.7382, 2, 0, 4213.333, 4256.41, 4125.641, 4137.949, 4189.744, 16194, 0, []
1629739234.7461, 3, 0, 4207.179, 4289.231, 4125.641, 4134.872, 4191.282, 450, 0, []
1629739234.7538, 4, 0, 4204.615, 4267.692, 4112.821, 4128.718, 4182.564, 16139, 0, []
1629739234.7617, 5, 0, 4215.897, 4236.923, 4124.615, 4126.154, 4182.564, 450, 0, []
1629739234.7695, 6, 0, 4221.538, 4251.795, 4123.59, 4126.667, 4184.615, 16095, 0, []
1629739234.7774, 7, 0, 4211.282, 4260.513, 4107.179, 4117.436, 4173.846, 450, 0, []
1629739234.7852, 8, 0, 4199.487, 4255.897, 4105.128, 4112.821, 4166.154, 450, 0, []
1629739234.793, 9, 0, 4200, 4259.487, 4107.179, 4122.051, 4173.333, 16172, 0, []
1629739234.8008, 10, 0, 4210.769, 4246.154, 4122.051, 4137.436, 4186.667, 450, 0, []
1629739234.8087, 11, 0, 4212.308, 4238.974, 4121.538, 4140, 4186.667, 16205, 0, []
1629739234.8165, 12, 0, 4200.513, 4271.795, 4116.41, 4131.795, 4175.385, 450, 0, []
1629739234.8244, 13, 0, 4195.385, 4291.795, 4120.513, 4128.718, 4165.641, 450, 0, []
1629739234.8322, 14, 0, 4198.462, 4251.282, 4103.59, 4133.333, 4165.128, 450, 0, []
1629739234.8401, 15, 0, 4200.513, 4230.256, 4104.103, 4143.077, 4168.718, 16205, 0, []
1629739234.848, 16, 0, 4204.103, 4264.615, 4123.077, 4144.103, 4172.308, 0, 0, []
1629739234.856, 17, 0, 4201.538, 4277.949, 4124.103, 4130.256, 4169.744, 0, 0, []
1629739234.8639, 18, 0, 4196.41, 4258.974, 4118.462, 4120.513, 4164.103, 0, 0, []
1629739234.8719, 19, 0, 4214.359, 4276.41, 4123.59, 4136.41, 4183.59, 0, 0, []
1629739234.8797, 20, 0, 4238.974, 4305.128, 4148.205, 4160, 4209.231, 0, 0, []
1629739234.8877, 21, 0, 4239.487, 4295.897, 4150.769, 4158.974, 4202.564, 0, 0, []
1629739234.8956, 22, 0, 4234.359, 4296.923, 4135.385, 4152.308, 4191.282, 0, 0, []
1629739234.9034, 23, 0, 4235.897, 4312.308, 4134.872, 4157.436, 4195.385, 0, 0, []
1629739234.9113, 24, 0, 4228.205, 4308.205, 4125.641, 4156.923, 4193.333, 0, 0, []
1629739234.919, 25, 0, 4212.821, 4288.718, 4126.667, 4154.359, 4178.462, 0, 0, []
1629739234.9269, 26, 0, 4202.051, 4274.872, 4131.282, 4151.282, 4170.256, 0, 0, []
1629739234.9347, 27, 0, 4198.974, 4289.231, 4123.59, 4144.103, 4164.615, 0, 0, []
1629739234.9426, 28, 0, 4192.308, 4286.154, 4121.538, 4133.846, 4151.795, 0, 0, []
1629739234.9504, 29, 0, 4171.282, 4276.41, 4101.026, 4122.051, 4136.923, 0, 0, []
1629739234.9582, 30, 0, 4164.103, 4309.744, 4103.077, 4125.641, 4137.949, 0, 0, []
1629739234.966, 31, 0, 4187.692, 4331.795, 4129.231, 4143.077, 4159.487, 0, 0, []
1629739234.9739, 32, 0, 4211.282, 4308.205, 4132.308, 4152.821, 4171.282, 0, 0, []
1629739234.9817, 33, 0, 4217.436, 4312.308, 4134.872, 4152.308, 4171.282, 0, 0, []
1629739234.9897, 34, 0, 4217.949, 4329.744, 4131.795, 4154.359, 4177.949, 0, 0, []
1629739234.9975, 35, 0, 4215.385, 4304.103, 4126.154, 4154.359, 4183.077, 0, 0, []
1629739235.0055, 36, 0, 4219.487, 4309.231, 4128.205, 4153.333, 4192.821, 0, 0, []
1629739235.0134, 37, 0, 4228.205, 4340, 4133.846, 4159.487, 4201.538, 0, 0, []
1629739235.0214, 38, 0, 4220.513, 4309.744, 4148.718, 4161.538, 4187.692, 0, 0, []
1629739235.0293, 39, 0, 4199.487, 4270.769, 4140, 4157.436, 4165.128, 0, 0, []
1629739235.0372, 40, 0, 4187.179, 4286.667, 4126.154, 4150.769, 4156.41, 0, 0, []
1629739235.0451, 41, 0, 4184.615, 4300.513, 4127.692, 4142.564, 4154.359, 0, 0, []
1629739235.0531, 42, 0, 4186.667, 4286.667, 4117.949, 4133.333, 4147.179, 0, 0, []
1629739235.061, 43, 0, 4195.385, 4292.308, 4119.487, 4135.385, 4145.128, 0, 0, []
1629739235.069, 44, 0, 4204.615, 4306.154, 4130.256, 4152.308, 4155.897, 0, 0, []
1629739235.0768, 45, 0, 4205.128, 4285.641, 4130.769, 4154.359, 4169.231, 0, 0, []
1629739235.0846, 46, 0, 4204.103, 4273.846, 4116.923, 4142.564, 4168.718, 0, 0, []
1629739235.0925, 47, 0, 4199.487, 4307.179, 4098.974, 4131.282, 4158.462, 0, 0, []
1629739235.1003, 48, 0, 4188.718, 4324.103, 4108.205, 4124.615, 4150.769, 0, 0, []
1629739235.1082, 49, 0, 4190.256, 4301.538, 4112.821, 4132.821, 4153.333, 0, 0, []
1629739235.1159, 50, 0, 4201.538, 4290.769, 4120, 4153.333, 4169.744, 0, 0, []
1629739235.1238, 51, 0, 4200.513, 4296.41, 4141.538, 4168.205, 4174.359, 0, 0, []
1629739235.1316, 52, 0, 4191.282, 4288.718, 4130.769, 4158.462, 4157.436, 0, 0, []
1629739235.1396, 53, 0, 4197.436, 4269.744, 4124.615, 4151.795, 4158.462, 0, 0, []
1629739235.1475, 54, 0, 4208.718, 4272.308, 4131.795, 4156.923, 4172.308, 0, 0, []
1629739235.1555, 55, 0, 4200, 4295.897, 4126.154, 4151.795, 4162.564, 0, 0, []
1629739235.1633, 56, 0, 4184.615, 4303.077, 4123.077, 4146.667, 4147.692, 0, 0, []
1629739235.1713, 57, 0, 4188.205, 4291.795, 4114.872, 4148.718, 4150.769, 0, 0, []
1629739235.1792, 58, 0, 4200.513, 4281.538, 4114.359, 4149.744, 4158.462, 0, 0, []
1629739235.1872, 59, 0, 4198.462, 4270.769, 4106.667, 4142.051, 4158.462, 0, 0, []
1629739235.1951, 60, 0, 4191.795, 4271.282, 4096.923, 4138.974, 4156.923, 0, 0, []
1629739235.203, 61, 0, 4201.026, 4301.538, 4121.026, 4150.256, 4164.103, 0, 0, []
1629739235.2109, 62, 0, 4211.282, 4315.385, 4125.128, 4158.462, 4173.333, 0, 0, []
1629739235.2187, 63, 0, 4201.538, 4278.974, 4116.41, 4152.308, 4166.667, 0, 0, []
1629739235.2266, 64, 0, 4185.641, 4253.846, 4114.872, 4148.718, 4156.41, 450, 0, []
1629739235.2344, 65, 0, 4182.564, 4278.462, 4104.103, 4151.282, 4155.385, 450, 0, []
