Timestamp, COUNTER, INTERPOLATED, AF3, T7, Pz, T8, AF4, RAW_CQ, MARKER_HARDWARE, MARKERS
1631386314.8101, 31, 0, 3909.744, 4274.872, 4221.538, 4105.128, 3941.538, 0, 0, []
1631386314.818, 32, 0, 3886.154, 4252.821, 4153.846, 4069.744, 3932.308, 0, 0, []
1631386314.8258, 33, 0, 3874.359, 4231.282, 4211.282, 4036.41, 3912.821, 0, 0, []
1631386314.8337, 34, 0, 3895.897, 4222.564, 4112.821, 4054.872, 3915.385, 0, 0, []
1631386314.8415, 35, 0, 3917.949, 4232.821, 4151.795, 4093.846, 3945.128, 0, 0, []
1631386314.8494, 36, 0, 3910.769, 4237.949, 4225.641, 4101.538, 3950.769, 0, 0, []
1631386314.8571, 37, 0, 3901.026, 4233.333, 4080.513, 4103.59, 3938.462, 0, 0, []
1631386314.865, 38, 0, 3914.359, 4244.103, 4205.641, 4121.538, 3945.641, 0, 0, []
1631386314.8728, 39, 0, 3920.513, 4254.872, 4191.282, 4124.103, 3955.897, 0, 0, []
1631386314.8808, 40, 0, 3911.795, 4249.231, 4137.949, 4123.59, 3962.051, 0, 0, []
1631386314.8887, 41, 0, 3927.692, 4249.744, 4191.795, 4148.205, 3974.872, 0, 0, []
1631386314.8966, 42, 0, 3941.026, 4248.718, 4106.154, 4157.436, 3969.744, 0, 0, []
1631386314.9045, 43, 0, 3914.359, 4245.128, 4216.41, 4128.205, 3937.949, 0, 0, []
1631386314.9125, 44, 0, 3882.051, 4248.718, 4173.846, 4098.462, 3915.897, 0, 0, []
1631386314.9204, 45, 0, 3888.718, 4252.821, 4135.897, 4086.667, 3924.615, 0, 0, []
1631386314.9284, 46, 0, 3923.59, 4257.949, 4252.308, 4073.846, 3951.282, 0, 0, []
1631386314.9362, 47, 0, 3946.667, 4264.103, 4121.026, 4062.051, 3973.333, 0, 0, []
1631386314.9442, 48, 0, 3955.897, 4261.538, 4162.051, 4084.103, 3994.359, 0, 0, []
1631386314.9521, 49, 0, 3969.744, 4245.128, 4173.846, 4133.846, 4017.436, 0, 0, []
1631386314.9599, 50, 0, 3976.41, 4229.744, 4168.205, 4164.615, 4017.436, 0, 0, []
1631386314.9678, 51, 0, 3961.026, 4230.769, 4258.462, 4157.436, 3994.359, 0, 0, []
1631386314.9755, 52, 0, 3953.846, 4257.436, 4082.564, 4143.077, 3986.667, 0, 0, []
1631386314.9834, 53, 0, 3954.359, 4274.872, 4129.231, 4129.231, 3985.641, 0, 0, []
1631386314.9912, 54, 0, 3941.538, 4264.103, 4196.41, 4101.026, 3971.795, 0, 0, []
1631386314.9991, 55, 0, 3944.615, 4272.821, 4165.128, 4087.692, 3972.821, 0, 0, []
1631386315.0069, 56, 0, 3962.051, 4294.872, 4226.154, 4098.462, 3983.59, 0, 0, []
1631386315.0147, 57, 0, 3956.923, 4289.231, 4062.564, 4104.615, 3977.436, 0, 0, []
1631386315.0225, 58, 0, 3942.564, 4275.897, 4129.231, 4107.692, 3969.231, 0, 0, []
1631386315.0305, 59, 0, 3939.487, 4275.385, 4209.231, 4111.282, 3966.667, 0, 0, []
1631386315.0384, 60, 0, 3943.59, 4264.615, 4138.974, 4113.846, 3969.744, 0, 0, []
1631386315.0464, 61, 0, 3966.667, 4260, 4230.769, 4141.538, 3997.436, 0, 0, []
1631386315.0542, 62, 0, 3995.385, 4280, 4097.436, 4167.692, 4031.282, 0, 0, []
1631386315.0622, 63, 0, 4004.615, 4280, 4122.051, 4152.821, 4028.205, 0, 0, []
1631386315.0701, 64, 0, 4009.744, 4273.846, 4212.821, 4131.282, 4014.872, 450, 0, []
1631386315.0781, 65, 0, 4035.385, 4293.333, 4122.564, 4133.846, 4023.077, 450, 0, []
1631386315.086, 66, 0, 4045.641, 4296.41, 4204.615, 4136.923, 4022.564, 16179, 0, []
1631386315.094, 67, 0, 4014.872, 4283.077, 4102.564, 4125.128, 4000.513, 450, 0, []
1631386315.1018, 68, 0, 3997.436, 4283.59, 4124.615, 4121.026, 3988.718, 16172, 0, []
1631386315.1098, 69, 0, 4014.359, 4284.103, 4235.385, 4130.769, 4000.513, 450, 0, []
1631386315.1177, 70, 0, 4031.282, 4283.59, 4136.41, 4133.846, 4022.564, 126, 0, []
1631386315.1255, 71, 0, 4044.615, 4289.744, 4226.154, 4122.564, 4038.462, 450, 0, []
1631386315.1334, 72, 0, 4055.897, 4289.231, 4167.692, 4117.436, 4044.615, 450, 0, []
1631386315.1411, 73, 0, 4038.462, 4282.051, 4146.154, 4128.718, 4031.282, 16174, 0, []
1631386315.149, 74, 0, 4004.103, 4273.846, 4220.513, 4127.692, 4006.667, 450, 0, []
1631386315.1568, 75, 0, 3992.821, 4265.128, 4115.897, 4108.718, 3997.949, 16218, 0, []
1631386315.1647, 76, 0, 4003.077, 4263.59, 4210.256, 4098.974, 4002.051, 450, 0, []
1631386315.1725, 77, 0, 4022.051, 4275.897, 4174.359, 4106.667, 4013.846, 450, 0, []
1631386315.1803, 78, 0, 4046.154, 4294.359, 4149.744, 4118.974, 4035.897, 450, 0, []
1631386315.1881, 79, 0, 4049.744, 4304.103, 4218.462, 4114.359, 4042.564, 16218, 0, []
1631386315.1961, 80, 0, 4023.59, 4286.667, 4076.41, 4090.256, 4021.026, 450, 0, []
1631386315.204, 81, 0, 4020.513, 4268.205, 4187.692, 4088.205, 4022.051, 450, 0, []
1631386315.212, 82, 0, 4045.128, 4286.154, 4215.385, 4115.897, 4050.256, 450, 0, []
1631386315.2198, 83, 0, 4045.128, 4306.667, 4169.231, 4131.282, 4047.179, 16218, 0, []
1631386315.2278, 84, 0, 4025.641, 4294.872, 4227.179, 4126.667, 4025.128, 450, 0, []
1631386315.2357, 85, 0, 4022.564, 4282.051, 4070.769, 4125.128, 4032.308, 450, 0, []
1631386315.2437, 86, 0, 4049.231, 4295.385, 4155.385, 4144.103, 4058.974, 450, 0, []
1631386315.2516, 87, 0, 4085.128, 4312.821, 4222.564, 4160, 4082.051, 16218, 0, []
1631386315.2595, 88, 0, 4088.718, 4310.769, 4181.026, 4142.564, 4081.026, 450, 0, []
1631386315.2674, 89, 0, 4044.103, 4287.692, 4223.59, 4103.077, 4037.436, 450, 0, []
1631386315.2753, 90, 0, 4004.103, 4277.949, 4059.487, 4089.744, 4001.026, 450, 0, []
1631386315.2832, 91, 0, 4012.821, 4301.026, 4146.667, 4113.846, 4016.923, 16218, 0, []
1631386315.2911, 92, 0, 4034.872, 4305.128, 4229.744, 4125.128, 4042.564, 450, 0, []
1631386315.2989, 93, 0, 4046.667, 4277.436, 4157.436, 4124.103, 4053.333, 450, 0, []
1631386315.3069, 94, 0, 4064.103, 4274.359, 4232.308, 4131.795, 4068.718, 450, 0, []
1631386315.3148, 95, 0, 4085.128, 4293.846, 4089.231, 4133.846, 4091.282, 16218, 0, []
1631386315.3226, 96, 0, 4099.487, 4293.846, 4133.846, 4134.359, 4099.487, 450, 0, []
1631386315.3305, 97, 0, 4097.949, 4293.846, 4243.077, 4131.795, 4090.256, 450, 0, []
1631386315.3383, 98, 0, 4072.308, 4300.513, 4151.795, 4112.308, 4067.692, 450, 0, []
1631386315.3462, 99, 0, 4043.077, 4297.436, 4217.436, 4095.385, 4038.462, 16218, 0, []
1631386315.3541, 100, 0, 4037.436, 4297.436, 4110.769, 4096.41, 4029.744, 450, 0, []
1631386315.3621, 101, 0, 4046.154, 4283.077, 4121.538, 4098.462, 4038.974, 450, 0, []
1631386315.37, 102, 0, 4054.359, 4262.051, 4216.41, 4100, 4049.744, 450, 0, []
1631386315.378, 103, 0, 4059.487, 4267.692, 4140, 4098.974, 4054.872, 16218, 0, []
1631386315.3858, 104, 0, 4065.641, 4270.769, 4240, 4087.179, 4056.923, 450, 0, []
1631386315.3938, 105, 0, 4069.744, 4263.077, 4164.615, 4080, 4061.538, 450, 0, []
1631386315.4017, 106, 0, 4073.846, 4274.872, 4135.897, 4086.154, 4061.538, 450, 0, []
1631386315.4097, 107, 0, 4077.949, 4281.026, 4190.256, 4103.077, 4060.513, 16218, 0, []
1631386315.4176, 108, 0, 4071.795, 4272.821, 4098.462, 4121.026, 4062.051, 450, 0, []
1631386315.4253, 109, 0, 4063.59, 4272.308, 4227.692, 4120, 4059.487, 450, 0, []
1631386315.4332, 110, 0, 4072.821, 4273.333, 4185.641, 4106.667, 4063.077, 450, 0, []
1631386315.441, 111, 0, 4090.256, 4271.795, 4157.436, 4103.59, 4078.974, 16218, 0, []
1631386315.4489, 112, 0, 4092.308, 4274.872, 4210.769, 4097.436, 4086.154, 450, 0, []
1631386315.4567, 113, 0, 4090.769, 4279.487, 4046.667, 4083.077, 4080, 450, 0, []
1631386315.4645, 114, 0, 4103.077, 4275.385, 4161.538, 4089.231, 4086.667, 450, 0, []
1631386315.4723, 115, 0, 4121.026, 4264.615, 4203.077, 4115.897, 4113.333, 16218, 0, []
1631386315.4802, 116, 0, 4142.564, 4261.538, 4184.103, 4148.718, 4146.667, 450, 0, []
1631386315.488, 117, 0, 4165.128, 4269.744, 4283.077, 4173.333, 4169.231, 450, 0, []
1631386315.496, 118, 0, 4174.872, 4280.513, 4130.769, 4172.821, 4174.359, 450, 0, []
1631386315.5038, 119, 0, 4179.487, 4277.949, 4165.128, 4143.59, 4167.692, 16218, 0, []
1631386315.5118, 120, 0, 4197.949, 4267.692, 4184.103, 4102.564, 4165.128, 450, 0, []
1631386315.5197, 121, 0, 4233.333, 4264.615, 4160, 4093.333, 4185.128, 450, 0, []
1631386315.5277, 122, 0, 4276.923, 4278.974, 4254.359, 4107.179, 4212.308, 450, 0, []
1631386315.5356, 123, 0, 4309.231, 4297.436, 4078.974, 4092.308, 4227.179, 16218, 0, []
1631386315.5435, 124, 0, 4329.231, 4306.154, 4116.923, 4087.179, 4244.615, 450, 0, []
1631386315.5514, 125, 0, 4330.769, 4306.667, 4208.205, 4112.308, 4255.385, 450, 0, []
1631386315.5594, 126, 0, 4291.282, 4298.462, 4170.769, 4111.282, 4239.487, 450, 0, []
1631386315.5673, 127, 0, 4253.846, 4290.769, 4243.59, 4102.051, 4220.513, 16218, 0, []
1631386315.5751, 128, 0, 4257.949, 4289.231, 4109.744, 4116.923, 4222.564, 450, 0, []
1631386315.5829, 0, 0, 4271.282, 4288.205, 4149.744, 4117.436, 4227.179, 450, 0, []
1631386315.5907, 1, 0, 4266.667, 4291.795, 4200.513, 4109.231, 4229.231, 450, 0, []
1631386315.5986, 2, 0, 4257.949, 4292.308, 4127.692, 4123.59, 4225.128, 16184, 0, []
1631386315.6064, 3, 0, 4237.949, 4285.128, 4232.821, 4126.667, 4197.949, 450, 0, []
1631386315.6143, 4, 0, 4212.308, 4290.769, 4114.872, 4115.897, 4175.385, 16173, 0, []
1631386315.6221, 5, 0, 4210.256, 4305.641, 4126.154, 4127.692, 4178.974, 450, 0, []
1631386315.6299, 6, 0, 4219.487, 4306.667, 4201.026, 4140, 4190.256, 173, 0, []
1631386315.6377, 7, 0, 4212.308, 4297.949, 4122.564, 4125.641, 4193.846, 450, 0, []
1631386315.6456, 8, 0, 4186.154, 4287.692, 4224.615, 4103.077, 4176.923, 450, 0, []
1631386315.6534, 9, 0, 4162.051, 4290.256, 4129.231, 4101.026, 4155.385, 16170, 0, []
1631386315.6614, 10, 0, 4166.667, 4300, 4138.974, 4128.205, 4156.923, 450, 0, []
1631386315.6692, 11, 0, 4181.026, 4293.333, 4249.744, 4149.231, 4169.231, 16211, 0, []
1631386315.6772, 12, 0, 4171.795, 4284.103, 4162.564, 4148.718, 4167.179, 450, 0, []
1631386315.6851, 13, 0, 4157.436, 4285.641, 4240, 4144.103, 4152.308, 450, 0, []
1631386315.6931, 14, 0, 4149.744, 4283.59, 4165.128, 4128.718, 4134.359, 450, 0, []
1631386315.701, 15, 0, 4135.385, 4277.436, 4163.59, 4098.462, 4114.359, 16211, 0, []
1631386315.7089, 16, 0, 4126.154, 4273.333, 4234.872, 4077.436, 4105.128, 0, 0, []
1631386315.7168, 17, 0, 4139.487, 4268.205, 4060, 4080.513, 4115.897, 0, 0, []
1631386315.7248, 18, 0, 4158.974, 4278.974, 4146.667, 4096.41, 4136.41, 0, 0, []
1631386315.7327, 19, 0, 4156.923, 4300.513, 4166.154, 4110.769, 4149.231, 0, 0, []
1631386315.7405, 20, 0, 4145.128, 4294.872, 4140, 4125.641, 4144.615, 0, 0, []
1631386315.7483, 21, 0, 4141.026, 4275.385, 4225.641, 4136.923, 4137.436, 0, 0, []
1631386315.7562, 22, 0, 4129.231, 4264.615, 4103.077, 4126.667, 4132.308, 0, 0, []
1631386315.7641, 23, 0, 4122.564, 4257.436, 4183.59, 4117.436, 4128.718, 0, 0, []
1631386315.7719, 24, 0, 4133.333, 4264.615, 4217.436, 4123.59, 4132.821, 0, 0, []
1631386315.7798, 25, 0, 4144.615, 4279.487, 4194.872, 4124.103, 4142.564, 0, 0, []
1631386315.7875, 26, 0, 4152.308, 4278.462, 4248.718, 4117.949, 4147.179, 0, 0, []
1631386315.7954, 27, 0, 4154.359, 4277.949, 4058.974, 4119.487, 4147.179, 0, 0, []
1631386315.8032, 28, 0, 4148.205, 4287.179, 4123.077, 4124.103, 4140.513, 0, 0, []
1631386315.8112, 29, 0, 4146.154, 4289.231, 4194.359, 4117.436, 4140, 0, 0, []
1631386315.8191, 30, 0, 4146.154, 4282.051, 4150.256, 4111.795, 4146.667, 0, 0, []
1631386315.827, 31, 0, 4131.282, 4276.41, 4248.205, 4112.308, 4137.436, 0, 0, []
1631386315.8349, 32, 0, 4107.692, 4270.256, 4121.538, 4102.051, 4112.821, 0, 0, []
1631386315.8429, 33, 0, 4092.821, 4264.103, 4158.462, 4089.231, 4091.282, 0, 0, []
1631386315.8508, 34, 0, 4091.282, 4258.462, 4210.256, 4091.795, 4086.154, 0, 0, []
1631386315.8588, 35, 0, 4098.974, 4251.282, 4149.231, 4102.564, 4096.41, 0, 0, []
1631386315.8667, 36, 0, 4104.615, 4247.692, 4240, 4107.179, 4104.103, 0, 0, []
1631386315.8746, 37, 0, 4099.487, 4247.179, 4087.692, 4107.692, 4104.103, 0, 0, []
1631386315.8825, 38, 0, 4102.051, 4249.744, 4110.769, 4101.538, 4108.718, 0, 0, []
1631386315.8903, 39, 0, 4112.821, 4257.949, 4223.077, 4092.821, 4117.949, 0, 0, []
1631386315.8982, 40, 0, 4124.615, 4267.179, 4147.692, 4102.051, 4128.205, 0, 0, []
1631386315.906, 41, 0, 4129.744, 4270.769, 4248.718, 4111.795, 4132.308, 0, 0, []
1631386315.9138, 42, 0, 4111.795, 4266.667, 4158.974, 4102.051, 4116.923, 0, 0, []
1631386315.9216, 43, 0, 4098.462, 4261.026, 4125.641, 4099.487, 4109.231, 0, 0, []
1631386315.9295, 44, 0, 4120, 4255.385, 4175.897, 4120.513, 4136.41, 0, 0, []
1631386315.9373, 45, 0, 4145.128, 4251.795, 4103.59, 4132.308, 4166.154, 0, 0, []
1631386315.9452, 46, 0, 4145.641, 4246.667, 4218.974, 4128.205, 4171.282, 0, 0, []
1631386315.9529, 47, 0, 4147.692, 4252.308, 4140.513, 4138.462, 4182.564, 0, 0, []
1631386315.9608, 48, 0, 4155.897, 4262.051, 4141.026, 4157.436, 4196.923, 0, 0, []
1631386315.9686, 49, 0, 4148.718, 4250.769, 4262.564, 4160, 4197.436, 0, 0, []
1631386315.9766, 50, 0, 4136.923, 4241.026, 4151.282, 4153.333, 4201.026, 0, 0, []
1631386315.9845, 51, 0, 4127.692, 4244.103, 4222.051, 4154.872, 4198.462, 0, 0, []
1631386315.9924, 52, 0, 4120, 4250.256, 4193.846, 4161.026, 4189.744, 0, 0, []
1631386316.0003, 53, 0, 4121.538, 4249.744, 4178.462, 4163.59, 4191.795, 0, 0, []
1631386316.0083, 54, 0, 4123.077, 4242.564, 4226.667, 4158.974, 4195.385, 0, 0, []
1631386316.0162, 55, 0, 4109.744, 4233.333, 4050.256, 4151.282, 4186.154, 0, 0, []
1631386316.0242, 56, 0, 4098.974, 4228.205, 4143.077, 4152.308, 4176.923, 0, 0, []
1631386316.032, 57, 0, 4107.692, 4240.513, 4184.615, 4164.103, 4184.103, 0, 0, []
1631386316.0398, 58, 0, 4118.974, 4250.769, 4156.41, 4170.769, 4193.333, 0, 0, []
1631386316.0477, 59, 0, 4123.077, 4245.128, 4249.744, 4162.564, 4192.308, 0, 0, []
1631386316.0555, 60, 0, 4117.949, 4241.538, 4121.026, 4157.949, 4185.128, 0, 0, []
1631386316.0634, 61, 0, 4120.513, 4250.256, 4180, 4172.308, 4184.103, 0, 0, []
1631386316.0711, 62, 0, 4134.872, 4256.923, 4215.385, 4179.487, 4191.282, 0, 0, []
1631386316.079, 63, 0, 4126.667, 4248.718, 4172.821, 4163.077, 4186.154, 0, 0, []
1631386316.0868, 64, 0, 4103.59, 4242.564, 4234.872, 4150.769, 4173.846, 450, 0, []
1631386316.0947, 65, 0, 4094.359, 4244.615, 4069.231, 4151.795, 4166.667, 450, 0, []
1631386316.1025, 66, 0, 4091.795, 4241.538, 4139.487, 4152.821, 4156.923, 16184, 0, []
1631386316.1105, 67, 0, 4089.744, 4242.564, 4227.179, 4157.436, 4155.385, 450, 0, []
1631386316.1183, 68, 0, 4105.641, 4252.308, 4154.872, 4166.154, 4173.333, 16205, 0, []
1631386316.1263, 69, 0, 4132.821, 4255.385, 4237.436, 4173.333, 4194.359, 450, 0, []
1631386316.1342, 70, 0, 4147.179, 4251.282, 4108.718, 4164.103, 4204.103, 196, 0, []
1631386316.1422, 71, 0, 4150.256, 4250.256, 4126.154, 4162.051, 4203.077, 450, 0, []
1631386316.1501, 72, 0, 4153.333, 4263.077, 4194.872, 4173.846, 4203.077, 450, 0, []
1631386316.158, 73, 0, 4158.462, 4280.513, 4145.641, 4172.821, 4213.333, 16161, 0, []
1631386316.1659, 74, 0, 4157.949, 4280.513, 4251.795, 4165.641, 4214.872, 450, 0, []
1631386316.1739, 75, 0, 4145.128, 4276.41, 4113.333, 4168.718, 4205.128, 16210, 0, []
1631386316.1818, 76, 0, 4143.077, 4281.026, 4135.897, 4172.308, 4205.641, 450, 0, []
1631386316.1898, 77, 0, 4147.179, 4270.769, 4252.821, 4155.897, 4203.077, 450, 0, []
1631386316.1976, 78, 0, 4136.923, 4255.385, 4137.436, 4131.282, 4189.744, 450, 0, []
1631386316.2054, 79, 0, 4134.359, 4257.949, 4220.513, 4131.282, 4187.179, 16210, 0, []
1631386316.2133, 80, 0, 4141.538, 4255.897, 4166.154, 4136.41, 4192.308, 450, 0, []
1631386316.2211, 81, 0, 4151.795, 4242.051, 4138.974, 4137.949, 4195.897, 450, 0, []
1631386316.229, 82, 0, 4174.359, 4244.103, 4192.308, 4161.026, 4211.795, 450, 0, []
1631386316.2367, 83, 0, 4185.128, 4259.487, 4106.154, 4182.051, 4228.205, 16210, 0, []
1631386316.2446, 84, 0, 4167.692, 4261.538, 4224.103, 4170.769, 4214.359, 450, 0, []
1631386316.2524, 85, 0, 4149.744, 4256.41, 4173.333, 4146.154, 4191.795, 450, 0, []
1631386316.2603, 86, 0, 4150.256, 4256.923, 4161.538, 4131.282, 4188.718, 450, 0, []
1631386316.2681, 87, 0, 4149.744, 4261.538, 4267.179, 4127.692, 4189.744, 16210, 0, []
1631386316.2759, 88, 0, 4147.179, 4262.564, 4107.692, 4134.872, 4187.179, 450, 0, []
1631386316.2838, 89, 0, 4150.256, 4247.692, 4152.308, 4143.077, 4187.692, 450, 0, []
1631386316.2917, 90, 0, 4150.256, 4227.692, 4165.128, 4141.026, 4188.718, 450, 0, []
1631386316.2996, 91, 0, 4153.333, 4224.103, 4155.385, 4146.667, 4190.256, 16210, 0, []
1631386316.3075, 92, 0, 4155.385, 4231.282, 4226.667, 4147.179, 4194.359, 450, 0, []
1631386316.3152, 93, 0, 4149.231, 4237.949, 4087.692, 4125.128, 4188.718, 450, 0, []
1631386316.3232, 94, 0, 4149.231, 4239.487, 4197.949, 4110.769, 4178.974, 450, 0, []
1631386316.3311, 95, 0, 4159.487, 4230.769, 4244.615, 4118.462, 4192.308, 16210, 0, []
1631386316.3391, 96, 0, 4163.59, 4222.051, 4187.692, 4135.897, 4205.641, 450, 0, []
1631386316.347, 97, 0, 4164.615, 4230.769, 4256.923, 4160.513, 4200, 450, 0, []
1631386316.3549, 98, 0, 4175.897, 4237.949, 4085.641, 4181.026, 4208.205, 450, 0, []
1631386316.3628, 99, 0, 4177.949, 4226.154, 4118.974, 4169.231, 4220, 16210, 0, []
1631386316.3706, 100, 0, 4165.128, 4227.179, 4188.205, 4135.385, 4209.744, 450, 0, []
1631386316.3785, 101, 0, 4160, 4246.154, 4154.359, 4120.513, 4193.846, 450, 0, []
1631386316.3863, 102, 0, 4162.051, 4243.59, 4233.846, 4114.359, 4182.051, 450, 0, []
1631386316.3942, 103, 0, 4161.026, 4232.308, 4089.744, 4109.744, 4178.462, 16210, 0, []
1631386316.4019, 104, 0, 4169.231, 4232.308, 4137.949, 4132.308, 4188.718, 450, 0, []
1631386316.4098, 105, 0, 4175.385, 4218.974, 4209.231, 4151.795, 4191.282, 450, 0, []
1631386316.4176, 106, 0, 4171.282, 4202.051, 4129.231, 4155.385, 4190.256, 450, 0, []
1631386316.4255, 107, 0, 4178.462, 4206.667, 4238.974, 4160, 4202.564, 16210, 0, []
1631386316.4333, 108, 0, 4186.667, 4222.051, 4128.718, 4148.205, 4207.179, 450, 0, []
1631386316.4412, 109, 0, 4180.513, 4231.282, 4112.308, 4132.821, 4190.769, 450, 0, []
1631386316.4491, 110, 0, 4175.385, 4236.41, 4183.59, 4131.795, 4180.513, 450, 0, []
1631386316.4571, 111, 0, 4181.538, 4233.846, 4131.795, 4130.769, 4187.692, 16210, 0, []
1631386316.465, 112, 0, 4184.615, 4224.103, 4236.41, 4120, 4188.718, 450, 0, []
1631386316.473, 113, 0, 4173.333, 4221.538, 4122.051, 4112.308, 4176.923, 450, 0, []
1631386316.4808, 114, 0, 4174.872, 4226.667, 4131.282, 4124.103, 4179.487, 450, 0, []
1631386316.4888, 115, 0, 4196.923, 4230.256, 4264.103, 4149.231, 4201.026, 16210, 0, []
1631386316.4967, 116, 0, 4200.513, 4228.718, 4167.692, 4159.487, 4208.718, 450, 0, []
1631386316.5047, 117, 0, 4187.692, 4228.718, 4241.026, 4151.795, 4196.41, 450, 0, []
1631386316.5126, 118, 0, 4192.821, 4234.872, 4185.641, 4143.59, 4200.513, 450, 0, []
1631386316.5204, 119, 0, 4193.333, 4242.051, 4179.487, 4132.821, 4211.795, 16210, 0, []
1631386316.5283, 120, 0, 4146.154, 4236.923, 4234.872, 4104.615, 4183.077, 450, 0, []
1631386316.5361, 121, 0, 4117.949, 4218.974, 4066.667, 4077.436, 4140.513, 450, 0, []
1631386316.544, 122, 0, 4170.256, 4223.59, 4162.564, 4091.795, 4158.462, 450, 0, []
1631386316.5518, 123, 0, 4226.667, 4242.564, 4182.051, 4124.615, 4210.256, 16210, 0, []
1631386316.5596, 124, 0, 4240.513, 4241.026, 4155.385, 4133.846, 4224.103, 450, 0, []
1631386316.5674, 125, 0, 4264.615, 4244.103, 4212.308, 4128.205, 4230.769, 450, 0, []
1631386316.5754, 126, 0, 4294.872, 4255.897, 4074.359, 4114.359, 4248.205, 450, 0, []
1631386316.5833, 127, 0, 4312.308, 4248.718, 4173.333, 4077.949, 4244.103, 16210, 0, []
1631386316.5913, 128, 0, 4341.026, 4246.154, 4175.385, 4051.795, 4253.333, 450, 0, []
1631386316.5991, 0, 0, 4385.128, 4252.308, 4123.077, 4056.41, 4286.154, 450, 0, []
1631386316.6071, 1, 0, 4428.205, 4241.026, 4240.513, 4066.154, 4303.59, 450, 0, []
1631386316.615, 2, 0, 4461.538, 4244.615, 4080.513, 4081.026, 4322.564, 16187, 0, []
1631386316.623, 3, 0, 4476.41, 4268.205, 4101.026, 4108.718, 4354.359, 450, 0, []
1631386316.6309, 4, 0, 4469.231, 4269.744, 4208.718, 4124.615, 4354.872, 16184, 0, []
1631386316.6389, 5, 0, 4436.923, 4267.692, 4214.872, 4104.615, 4311.795, 450, 0, []
1631386316.6467, 6, 0, 4384.103, 4277.949, 4250.769, 4073.333, 4263.077, 198, 0, []
1631386316.6546, 7, 0, 4335.385, 4267.692, 4081.538, 4069.231, 4241.026, 450, 0, []
1631386316.6625, 8, 0, 4311.282, 4248.718, 4151.795, 4087.692, 4226.667, 450, 0, []
1631386316.6703, 9, 0, 4308.205, 4266.667, 4215.897, 4093.846, 4215.897, 16162, 0, []
1631386316.6782, 10, 0, 4313.846, 4283.077, 4146.667, 4090.769, 4223.59, 450, 0, []
1631386316.6859, 11, 0, 4310.256, 4262.051, 4252.821, 4102.051, 4223.59, 16210, 0, []
1631386316.6938, 12, 0, 4285.128, 4263.077, 4109.744, 4104.615, 4201.538, 450, 0, []
1631386316.7016, 13, 0, 4252.308, 4277.949, 4117.436, 4093.333, 4178.974, 450, 0, []
1631386316.7095, 14, 0, 4230.256, 4251.282, 4228.718, 4077.949, 4163.077, 450, 0, []
1631386316.7173, 15, 0, 4227.692, 4230.256, 4158.974, 4067.692, 4156.41, 16210, 0, []
1631386316.7252, 16, 0, 4233.333, 4242.051, 4256.923, 4075.897, 4162.051, 0, 0, []
1631386316.7331, 17, 0, 4232.308, 4241.026, 4178.974, 4088.205, 4166.154, 0, 0, []
1631386316.7411, 18, 0, 4224.615, 4240, 4145.641, 4088.718, 4164.615, 0, 0, []
1631386316.749, 19, 0, 4208.718, 4258.974, 4170.256, 4082.051, 4158.974, 0, 0, []
1631386316.757, 20, 0, 4196.923, 4261.538, 4074.872, 4081.026, 4144.103, 0, 0, []
1631386316.7648, 21, 0, 4192.308, 4249.744, 4198.974, 4088.718, 4133.333, 0, 0, []
1631386316.7728, 22, 0, 4180.513, 4246.154, 4134.359, 4082.051, 4128.205, 0, 0, []
1631386316.7807, 23, 0, 4174.359, 4242.564, 4128.718, 4068.205, 4122.564, 0, 0, []
1631386316.7887, 24, 0, 4191.795, 4245.641, 4241.538, 4078.462, 4132.308, 0, 0, []
1631386316.7966, 25, 0, 4198.462, 4255.385, 4130.256, 4091.282, 4151.282, 0, 0, []
1631386316.8045, 26, 0, 4191.795, 4252.821, 4220, 4085.128, 4155.385, 0, 0, []
1631386316.8124, 27, 0, 4201.026, 4253.846, 4208.718, 4088.718, 4153.846, 0, 0, []
1631386316.8202, 28, 0, 4201.026, 4248.718, 4192.821, 4098.974, 4146.154, 0, 0, []
1631386316.8281, 29, 0, 4181.026, 4230.769, 4248.718, 4086.667, 4125.128, 0, 0, []
1631386316.8359, 30, 0, 4166.667, 4228.718, 4073.846, 4068.205, 4118.462, 0, 0, []
1631386316.8437, 31, 0, 4177.949, 4244.103, 4149.231, 4071.795, 4140, 0, 0, []
1631386316.8515, 32, 0, 4192.308, 4248.718, 4176.41, 4086.154, 4160, 0, 0, []
1631386316.8594, 33, 0, 4191.282, 4244.103, 4148.718, 4093.846, 4158.462, 0, 0, []
1631386316.8672, 34, 0, 4191.795, 4246.667, 4228.205, 4097.436, 4156.41, 0, 0, []
1631386316.8751, 35, 0, 4197.436, 4253.333, 4083.59, 4102.051, 4162.051, 0, 0, []
1631386316.8829, 36, 0, 4190.769, 4256.41, 4175.897, 4100, 4153.846, 0, 0, []
1631386316.8908, 37, 0, 4176.41, 4254.872, 4241.026, 4089.744, 4137.949, 0, 0, []
1631386316.8987, 38, 0, 4178.462, 4249.744, 4186.154, 4086.154, 4140.513, 0, 0, []
1631386316.9067, 39, 0, 4185.641, 4243.077, 4259.487, 4092.308, 4152.308, 0, 0, []
1631386316.9146, 40, 0, 4184.615, 4243.077, 4101.538, 4099.487, 4155.897, 0, 0, []
1631386316.9226, 41, 0, 4186.667, 4241.026, 4126.667, 4098.974, 4154.872, 0, 0, []
1631386316.9304, 42, 0, 4180, 4241.026, 4186.667, 4091.282, 4144.103, 0, 0, []
1631386316.9384, 43, 0, 4172.308, 4252.821, 4150.256, 4100.513, 4137.436, 0, 0, []
1631386316.9463, 44, 0, 4171.795, 4257.436, 4246.154, 4114.359, 4140.513, 0, 0, []
1631386316.9543, 45, 0, 4157.949, 4248.718, 4091.795, 4101.538, 4140, 0, 0, []
1631386316.9622, 46, 0, 4151.795, 4247.692, 4129.744, 4089.231, 4137.949, 0, 0, []
1631386316.9699, 47, 0, 4179.487, 4254.359, 4243.59, 4097.949, 4153.846, 0, 0, []
1631386316.9778, 48, 0, 4202.564, 4250.769, 4167.179, 4105.641, 4165.641, 0, 0, []
1631386316.9856, 49, 0, 4204.103, 4243.077, 4252.308, 4116.923, 4169.231, 0, 0, []
1631386316.9935, 50, 0, 4199.487, 4242.051, 4157.436, 4126.667, 4176.41, 0, 0, []
1631386317.0013, 51, 0, 4189.744, 4236.923, 4144.103, 4112.821, 4163.077, 0, 0, []
1631386317.0091, 52, 0, 4174.359, 4238.974, 4185.641, 4098.462, 4137.949, 0, 0, []
1631386317.0169, 53, 0, 4164.103, 4245.641, 4097.949, 4098.462, 4130.769, 0, 0, []
1631386317.0248, 54, 0, 4174.872, 4237.436, 4217.436, 4099.487, 4147.179, 0, 0, []
1631386317.0326, 55, 0, 4206.154, 4232.308, 4151.282, 4115.385, 4177.949, 0, 0, []
1631386317.0405, 56, 0, 4226.667, 4242.564, 4150.256, 4146.154, 4197.436, 0, 0, []
1631386317.0482, 57, 0, 4215.385, 4248.718, 4246.154, 4150.769, 4186.154, 0, 0, []
1631386317.0562, 58, 0, 4192.821, 4243.59, 4144.615, 4125.128, 4163.59, 0, 0, []
1631386317.0641, 59, 0, 4178.974, 4234.872, 4238.462, 4104.615, 4146.154, 0, 0, []
1631386317.0721, 60, 0, 4168.205, 4234.872, 4192.821, 4089.231, 4128.718, 0, 0, []
1631386317.08, 61, 0, 4161.538, 4240, 4181.026, 4082.051, 4122.564, 0, 0, []
1631386317.0879, 62, 0, 4162.564, 4240.513, 4251.282, 4080, 4125.128, 0, 0, []
1631386317.0958, 63, 0, 4175.385, 4228.718, 4074.872, 4084.615, 4139.487, 0, 0, []
1631386317.1038, 64, 0, 4209.231, 4226.667, 4152.821, 4108.718, 4172.308, 450, 0, []
1631386317.1117, 65, 0, 4227.179, 4238.462, 4180.513, 4125.128, 4192.308, 450, 0, []
1631386317.1197, 66, 0, 4210.769, 4238.974, 4154.359, 4117.949, 4172.308, 16185, 0, []
1631386317.1275, 67, 0, 4194.359, 4229.744, 4225.128, 4103.59, 4149.231, 450, 0, []
1631386317.1353, 68, 0, 4192.308, 4230.769, 4081.538, 4090.769, 4153.846, 16181, 0, []
1631386317.1432, 69, 0, 4192.821, 4239.487, 4174.359, 4084.615, 4162.051, 450, 0, []
1631386317.151, 70, 0, 4207.179, 4236.41, 4242.051, 4091.795, 4180, 217, 0, []
1631386317.1589, 71, 0, 4253.846, 4232.308, 4192.821, 4106.667, 4224.615, 450, 0, []
1631386317.1667, 72, 0, 4301.538, 4239.487, 4247.179, 4117.436, 4267.179, 450, 0, []
1631386317.1745, 73, 0, 4323.59, 4238.462, 4120.513, 4115.897, 4284.615, 16158, 0, []
1631386317.1823, 74, 0, 4343.59, 4234.872, 4185.128, 4108.205, 4292.308, 450, 0, []
1631386317.1902, 75, 0, 4369.744, 4247.692, 4208.718, 4102.051, 4307.692, 16209, 0, []
1631386317.198, 76, 0, 4391.795, 4258.462, 4154.872, 4097.436, 4326.667, 450, 0, []
1631386317.206, 77, 0, 4413.846, 4242.051, 4263.59, 4100, 4333.846, 450, 0, []
1631386317.2138, 78, 0, 4426.154, 4233.846, 4080, 4098.974, 4338.462, 450, 0, []
1631386317.2218, 79, 0, 4417.436, 4242.051, 4098.462, 4093.846, 4350.256, 16209, 0, []
1631386317.2297, 80, 0, 4402.564, 4231.282, 4226.154, 4097.436, 4343.077, 450, 0, []
1631386317.2377, 81, 0, 4389.231, 4225.641, 4145.641, 4108.205, 4320.513, 450, 0, []
1631386317.2456, 82, 0, 4363.077, 4241.026, 4220.513, 4110.769, 4310.256, 450, 0, []
1631386317.2535, 83, 0, 4325.128, 4248.718, 4145.641, 4098.974, 4289.744, 16209, 0, []
1631386317.2614, 84, 0, 4302.051, 4247.692, 4166.667, 4095.385, 4254.872, 450, 0, []
1631386317.2694, 85, 0, 4287.692, 4251.282, 4205.128, 4095.897, 4242.564, 450, 0, []
1631386317.2773, 86, 0, 4260, 4245.641, 4105.641, 4075.897, 4233.333, 450, 0, []
1631386317.2852, 87, 0, 4239.487, 4239.487, 4233.846, 4064.103, 4208.205, 16209, 0, []
1631386317.293, 88, 0, 4242.051, 4250.769, 4165.128, 4096.41, 4211.282, 450, 0, []
1631386317.3009, 89, 0, 4250.256, 4259.487, 4140, 4131.282, 4232.308, 450, 0, []
1631386317.3088, 90, 0, 4245.641, 4264.103, 4191.795, 4138.974, 4227.692, 450, 0, []
1631386317.3168, 91, 0, 4245.128, 4274.359, 4086.667, 4146.667, 4219.487, 16209, 0, []
1631386317.3247, 92, 0, 4250.769, 4267.179, 4211.282, 4153.846, 4221.026, 450, 0, []
1631386317.3324, 93, 0, 4240.513, 4243.077, 4184.615, 4137.436, 4208.205, 450, 0, []
1631386317.3403, 94, 0, 4228.205, 4235.897, 4158.974, 4121.538, 4201.026, 450, 0, []
1631386317.3481, 95, 0, 4228.718, 4247.179, 4214.872, 4120.513, 4210.769, 16209, 0, []
1631386317.356, 96, 0, 4223.077, 4251.282, 4095.385, 4115.897, 4209.231, 450, 0, []
1631386317.3638, 97, 0, 4224.615, 4250.769, 4213.333, 4123.077, 4201.538, 450, 0, []
1631386317.3717, 98, 0, 4238.462, 4256.923, 4203.59, 4142.564, 4206.154, 450, 0, []
1631386317.3796, 99, 0, 4229.231, 4250.769, 4166.154, 4143.077, 4203.59, 16209, 0, []
1631386317.3876, 100, 0, 4204.615, 4242.051, 4268.718, 4129.231, 4186.667, 450, 0, []
1631386317.3955, 101, 0, 4199.487, 4252.308, 4129.744, 4126.154, 4182.051, 450, 0, []
1631386317.4035, 102, 0, 4206.154, 4249.231, 4190.769, 4130.256, 4188.205, 450, 0, []
1631386317.4114, 103, 0, 4206.154, 4231.795, 4229.231, 4120, 4185.128, 16209, 0, []
1631386317.4193, 104, 0, 4212.308, 4237.949, 4207.692, 4113.846, 4188.718, 450, 0, []
1631386317.4272, 105, 0, 4220, 4252.308, 4278.974, 4125.128, 4194.872, 450, 0, []
1631386317.4352, 106, 0, 4209.744, 4244.103, 4093.846, 4128.205, 4192.308, 450, 0, []
1631386317.4431, 107, 0, 4208.205, 4237.436, 4135.897, 4122.564, 4188.718, 16209, 0, []
1631386317.4509, 108, 0, 4217.949, 4249.231, 4205.128, 4117.436, 4190.769, 450, 0, []
1631386317.4587, 109, 0, 4215.897, 4255.897, 4175.385, 4121.538, 4188.718, 450, 0, []
1631386317.4665, 110, 0, 4210.769, 4245.128, 4246.154, 4130.769, 4182.051, 450, 0, []
1631386317.4744, 111, 0, 4208.205, 4235.897, 4082.564, 4132.821, 4182.051, 16209, 0, []
1631386317.4822, 112, 0, 4202.564, 4243.59, 4142.051, 4128.718, 4180, 450, 0, []
1631386317.4901, 113, 0, 4196.41, 4247.179, 4232.308, 4123.59, 4175.897, 450, 0, []
1631386317.4978, 114, 0, 4197.949, 4248.718, 4164.615, 4123.59, 4181.538, 450, 0, []
1631386317.5057, 115, 0, 4194.359, 4250.256, 4256.923, 4113.333, 4180, 16209, 0, []
1631386317.5135, 116, 0, 4186.154, 4246.154, 4147.179, 4096.923, 4162.564, 450, 0, []
1631386317.5215, 117, 0, 4194.359, 4247.179, 4154.872, 4106.667, 4156.41, 450, 0, []
1631386317.5294, 118, 0, 4200.513, 4246.154, 4198.974, 4131.282, 4166.154, 450, 0, []
1631386317.5373, 119, 0, 4191.795, 4239.487, 4107.179, 4131.282, 4168.205, 16209, 0, []
1631386317.5452, 120, 0, 4183.59, 4232.308, 4220, 4112.821, 4162.051, 450, 0, []
1631386317.5532, 121, 0, 4190.256, 4235.897, 4137.436, 4109.744, 4165.641, 450, 0, []
1631386317.5611, 122, 0, 4210.769, 4248.718, 4140, 4133.846, 4178.462, 450, 0, []
1631386317.5691, 123, 0, 4221.026, 4257.436, 4229.744, 4147.692, 4186.154, 16209, 0, []
1631386317.5769, 124, 0, 4209.744, 4252.821, 4141.026, 4128.205, 4181.538, 450, 0, []
1631386317.5849, 125, 0, 4200.513, 4241.538, 4240, 4114.872, 4170.256, 450, 0, []
1631386317.5928, 126, 0, 4197.949, 4240.513, 4166.154, 4119.487, 4162.051, 450, 0, []
1631386317.6006, 127, 0, 4194.872, 4237.436, 4161.026, 4115.385, 4162.051, 16209, 0, []
1631386317.6085, 128, 0, 4196.41, 4230.256, 4274.359, 4108.718, 4163.077, 450, 0, []
1631386317.6162, 0, 0, 4198.974, 4230.769, 4145.641, 4120, 4163.59, 450, 0, []
1631386317.6241, 1, 0, 4202.051, 4239.487, 4212.308, 4135.385, 4167.179, 450, 0, []
1631386317.6319, 2, 0, 4209.231, 4252.821, 4194.872, 4136.41, 4178.462, 16174, 0, []
1631386317.6398, 3, 0, 4205.128, 4250.256, 4173.333, 4125.641, 4172.821, 450, 0, []
1631386317.6476, 4, 0, 4204.615, 4242.051, 4224.103, 4122.051, 4166.667, 16177, 0, []
1631386317.6555, 5, 0, 4216.41, 4251.282, 4066.667, 4124.103, 4181.538, 450, 0, []
1631386317.6632, 6, 0, 4210.769, 4251.795, 4162.564, 4113.846, 4181.026, 197, 0, []
1631386317.6712, 7, 0, 4197.436, 4244.615, 4195.897, 4115.897, 4173.333, 450, 0, []
1631386317.6791, 8, 0, 4203.077, 4257.436, 4162.564, 4133.333, 4183.077, 450, 0, []
1631386317.6871, 9, 0, 4206.667, 4263.077, 4245.128, 4133.333, 4187.692, 16154, 0, []
1631386317.695, 10, 0, 4197.949, 4251.282, 4106.667, 4127.692, 4175.385, 450, 0, []
1631386317.7029, 11, 0, 4193.333, 4241.538, 4176.923, 4133.333, 4169.744, 16213, 0, []
1631386317.7108, 12, 0, 4192.821, 4227.179, 4224.103, 4122.051, 4172.821, 450, 0, []
1631386317.7188, 13, 0, 4193.333, 4220, 4180.513, 4102.051, 4174.359, 450, 0, []
1631386317.7267, 14, 0, 4196.41, 4232.308, 4265.128, 4107.179, 4172.821, 450, 0, []
1631386317.7347, 15, 0, 4199.487, 4246.667, 4097.949, 4117.436, 4177.436, 16213, 0, []
1631386317.7425, 16, 0, 4206.667, 4251.795, 4123.077, 4120.513, 4186.154, 0, 0, []
1631386317.7503, 17, 0, 4203.077, 4238.974, 4205.128, 4112.821, 4172.821, 0, 0, []
1631386317.7582, 18, 0, 4195.897, 4217.436, 4167.692, 4106.667, 4160.513, 0, 0, []
1631386317.766, 19, 0, 4210.769, 4220.513, 4251.282, 4115.385, 4174.359, 0, 0, []
1631386317.7739, 20, 0, 4214.872, 4238.462, 4108.718, 4117.949, 4184.103, 0, 0, []
1631386317.7816, 21, 0, 4185.641, 4232.821, 4150.256, 4113.846, 4167.692, 0, 0, []
1631386317.7895, 22, 0, 4168.205, 4222.564, 4239.487, 4108.718, 4153.333, 0, 0, []
1631386317.7973, 23, 0, 4175.897, 4224.615, 4153.333, 4099.487, 4151.282, 0, 0, []
1631386317.8052, 24, 0, 4184.103, 4216.923, 4246.667, 4097.436, 4143.59, 0, 0, []
1631386317.813, 25, 0, 4188.718, 4221.026, 4142.051, 4103.59, 4143.59, 0, 0, []
1631386317.8208, 26, 0, 4186.667, 4235.385, 4124.615, 4094.359, 4138.462, 0, 0, []
1631386317.8286, 27, 0, 4175.385, 4220, 4197.436, 4084.103, 4123.077, 0, 0, []
1631386317.8366, 28, 0, 4178.462, 4198.974, 4137.436, 4094.872, 4128.718, 0, 0, []
1631386317.8445, 29, 0, 4196.923, 4204.615, 4245.128, 4107.179, 4149.744, 0, 0, []
1631386317.8525, 30, 0, 4198.974, 4207.179, 4151.795, 4109.744, 4151.282, 0, 0, []
1631386317.8603, 31, 0, 4191.282, 4196.41, 4165.128, 4112.821, 4141.538, 0, 0, []
1631386317.8683, 32, 0, 4190.769, 4196.41, 4289.231, 4104.615, 4143.077, 0, 0, []
1631386317.8762, 33, 0, 4180, 4189.231, 4149.231, 4087.179, 4135.897, 0, 0, []
1631386317.8842, 34, 0, 4171.795, 4174.872, 4209.231, 4088.718, 4125.128, 0, 0, []
1631386317.8921, 35, 0, 4180, 4186.667, 4189.231, 4102.564, 4136.923, 0, 0, []
1631386317.9001, 36, 0, 4183.59, 4195.897, 4160.513, 4104.103, 4152.308, 0, 0, []
1631386317.9079, 37, 0, 4170.769, 4181.538, 4210.769, 4096.41, 4148.205, 0, 0, []
1631386317.9157, 38, 0, 4166.154, 4182.564, 4082.051, 4092.821, 4141.538, 0, 0, []
1631386317.9236, 39, 0, 4181.538, 4194.359, 4202.051, 4105.128, 4148.718, 0, 0, []
1631386317.9314, 40, 0, 4183.077, 4190.769, 4230.256, 4117.436, 4155.385, 0, 0, []
1631386317.9393, 41, 0, 4164.615, 4187.179, 4206.154, 4115.897, 4139.487, 0, 0, []
1631386317.947, 42, 0, 4163.077, 4196.923, 4283.077, 4111.795, 4127.692, 0, 0, []
1631386317.9549, 43, 0, 4180.513, 4203.077, 4109.231, 4118.974, 4147.179, 0, 0, []
1631386317.9627, 44, 0, 4191.795, 4199.487, 4157.436, 4132.821, 4169.231, 0, 0, []
1631386317.9706, 45, 0, 4195.897, 4194.872, 4197.949, 4133.846, 4172.821, 0, 0, []
1631386317.9784, 46, 0, 4200, 4195.385, 4165.128, 4125.128, 4164.615, 0, 0, []
1631386317.9863, 47, 0, 4187.692, 4199.487, 4240, 4110.769, 4147.179, 0, 0, []
1631386317.9942, 48, 0, 4158.462, 4202.564, 4086.154, 4092.821, 4124.103, 0, 0, []
1631386318.0022, 49, 0, 4146.154, 4201.538, 4157.436, 4095.385, 4123.077, 0, 0, []
1631386318.0101, 50, 0, 4150.769, 4194.872, 4232.821, 4111.795, 4140, 0, 0, []
1631386318.0181, 51, 0, 4150.769, 4179.487, 4172.308, 4112.308, 4141.026, 0, 0, []
1631386318.0259, 52, 0, 4146.667, 4176.41, 4251.795, 4107.692, 4138.462, 0, 0, []
1631386318.0339, 53, 0, 4144.615, 4187.179, 4098.462, 4118.974, 4143.59, 0, 0, []
1631386318.0418, 54, 0, 4135.385, 4176.923, 4127.179, 4126.667, 4126.154, 0, 0, []
1631386318.0498, 55, 0, 4120.513, 4169.744, 4224.103, 4118.462, 4098.974, 0, 0, []
1631386318.0577, 56, 0, 4112.308, 4188.205, 4155.897, 4106.667, 4094.359, 0, 0, []
1631386318.0654, 57, 0, 4108.205, 4188.205, 4248.205, 4095.897, 4092.308, 0, 0, []
1631386318.0733, 58, 0, 4116.923, 4188.205, 4147.692, 4094.359, 4097.436, 0, 0, []
1631386318.0811, 59, 0, 4141.026, 4218.974, 4147.179, 4108.205, 4119.487, 0, 0, []
1631386318.089, 60, 0, 4155.897, 4228.718, 4205.128, 4114.872, 4130.769, 0, 0, []
1631386318.0968, 61, 0, 4151.795, 4214.872, 4145.641, 4121.538, 4131.282, 0, 0, []
1631386318.1046, 62, 0, 4148.205, 4229.231, 4268.718, 4142.564, 4137.949, 0, 0, []
1631386318.1124, 63, 0, 4139.487, 4242.051, 4156.923, 4142.564, 4130.769, 0, 0, []
1631386318.1203, 64, 0, 4120, 4234.359, 4150.256, 4117.436, 4105.641, 450, 0, []
1631386318.1281, 65, 0, 4121.026, 4246.667, 4229.744, 4106.667, 4100.513, 450, 0, []
1631386318.136, 66, 0, 4150.769, 4278.462, 4092.308, 4109.231, 4117.436, 16171, 0, []
1631386318.1438, 67, 0, 4165.641, 4283.59, 4193.846, 4106.154, 4120, 450, 0, []
1631386318.1517, 68, 0, 4148.718, 4265.641, 4165.641, 4100, 4110.256, 16178, 0, []
1631386318.1596, 69, 0, 4139.487, 4251.282, 4178.974, 4102.051, 4107.692, 450, 0, []
1631386318.1676, 70, 0, 4141.026, 4249.231, 4288.205, 4111.282, 4106.667, 218, 0, []
1631386318.1755, 71, 0, 4133.846, 4254.359, 4145.128, 4118.462, 4106.154, 450, 0, []
1631386318.1835, 72, 0, 4138.974, 4257.436, 4207.179, 4123.077, 4114.872, 450, 0, []
1631386318.1913, 73, 0, 4151.795, 4249.744, 4188.718, 4121.538, 4126.154, 16169, 0, []
1631386318.1993, 74, 0, 4152.821, 4240.513, 4177.436, 4113.846, 4131.282, 450, 0, []
1631386318.2072, 75, 0, 4155.385, 4248.205, 4242.564, 4111.282, 4136.41, 16189, 0, []
1631386318.215, 76, 0, 4155.385, 4255.385, 4083.59, 4112.821, 4142.051, 450, 0, []
1631386318.2229, 77, 0, 4142.051, 4237.949, 4199.487, 4109.231, 4137.436, 450, 0, []
1631386318.2306, 78, 0, 4145.128, 4232.308, 4244.103, 4114.359, 4135.385, 450, 0, []
1631386318.2385, 79, 0, 4164.615, 4254.359, 4202.051, 4133.333, 4150.256, 16189, 0, []
1631386318.2465, 80, 0, 4169.231, 4264.103, 4270.256, 4140.513, 4161.538, 450, 0, []
1631386318.2544, 81, 0, 4161.026, 4249.231, 4097.436, 4134.359, 4160, 450, 0, []
1631386318.2622, 82, 0, 4152.821, 4241.538, 4154.872, 4131.795, 4149.231, 450, 0, []
1631386318.27, 83, 0, 4144.103, 4241.538, 4209.231, 4123.077, 4140.513, 16189, 0, []
1631386318.2778, 84, 0, 4146.154, 4234.872, 4166.154, 4112.308, 4144.615, 450, 0, []
1631386318.2857, 85, 0, 4163.59, 4226.667, 4276.923, 4118.462, 4155.385, 450, 0, []
1631386318.2936, 86, 0, 4164.615, 4230.769, 4159.487, 4124.103, 4155.385, 450, 0, []
1631386318.3016, 87, 0, 4154.872, 4237.436, 4180.513, 4124.103, 4149.231, 16189, 0, []
1631386318.3095, 88, 0, 4162.051, 4237.949, 4207.179, 4129.231, 4153.333, 450, 0, []
1631386318.3174, 89, 0, 4168.205, 4237.949, 4154.872, 4128.718, 4152.821, 450, 0, []
1631386318.3253, 90, 0, 4158.462, 4235.385, 4258.974, 4108.205, 4139.487, 450, 0, []
1631386318.3333, 91, 0, 4152.308, 4235.385, 4109.744, 4093.333, 4133.333, 16189, 0, []
1631386318.3412, 92, 0, 4165.641, 4241.538, 4135.385, 4106.667, 4143.59, 450, 0, []
1631386318.3491, 93, 0, 4173.333, 4247.179, 4243.59, 4123.077, 4153.333, 450, 0, []
1631386318.357, 94, 0, 4170.256, 4255.385, 4170.256, 4122.564, 4150.769, 450, 0, []
1631386318.3648, 95, 0, 4170.256, 4258.462, 4266.667, 4114.359, 4147.179, 16189, 0, []
1631386318.3727, 96, 0, 4176.41, 4256.923, 4180.513, 4114.872, 4162.564, 450, 0, []
1631386318.3805, 97, 0, 4185.641, 4254.359, 4155.385, 4130.256, 4181.026, 450, 0, []
1631386318.3884, 98, 0, 4177.949, 4246.667, 4192.308, 4132.308, 4169.744, 450, 0, []
1631386318.3961, 99, 0, 4155.385, 4227.692, 4099.487, 4105.641, 4147.692, 16189, 0, []
1631386318.404, 100, 0, 4157.436, 4227.692, 4218.462, 4095.897, 4147.179, 450, 0, []
1631386318.4118, 101, 0, 4177.436, 4249.231, 4163.077, 4112.308, 4159.487, 450, 0, []
1631386318.4197, 102, 0, 4176.923, 4250.256, 4157.949, 4112.821, 4164.615, 450, 0, []
1631386318.4275, 103, 0, 4165.128, 4240.513, 4263.077, 4102.051, 4162.564, 16189, 0, []
1631386318.4353, 104, 0, 4167.179, 4255.385, 4161.026, 4113.333, 4167.179, 450, 0, []
1631386318.4431, 105, 0, 4176.41, 4265.641, 4237.949, 4131.282, 4174.359, 450, 0, []
1631386318.4511, 106, 0, 4177.436, 4251.282, 4196.923, 4124.103, 4177.436, 450, 0, []
1631386318.459, 107, 0, 4171.795, 4244.103, 4158.462, 4110.256, 4175.897, 16189, 0, []
1631386318.467, 108, 0, 4173.846, 4249.744, 4212.821, 4113.333, 4175.385, 450, 0, []
1631386318.4748, 109, 0, 4178.462, 4250.769, 4085.641, 4120.513, 4177.949, 450, 0, []
1631386318.4828, 110, 0, 4176.923, 4244.615, 4204.615, 4123.077, 4180.513, 450, 0, []
1631386318.4907, 111, 0, 4176.923, 4240, 4229.231, 4118.974, 4186.667, 16189, 0, []
1631386318.4987, 112, 0, 4175.385, 4238.462, 4190.256, 4109.744, 4182.564, 450, 0, []
1631386318.5066, 113, 0, 4163.077, 4237.436, 4280, 4105.128, 4169.231, 450, 0, []
1631386318.5145, 114, 0, 4160, 4243.59, 4129.231, 4108.718, 4171.795, 450, 0, []
1631386318.5224, 115, 0, 4176.41, 4254.359, 4167.179, 4117.436, 4184.103, 16189, 0, []
1631386318.5304, 116, 0, 4177.436, 4248.205, 4208.718, 4116.41, 4176.923, 450, 0, []
1631386318.5383, 117, 0, 4164.103, 4230.256, 4178.974, 4105.128, 4159.487, 450, 0, []
1631386318.5461, 118, 0, 4163.077, 4228.718, 4245.128, 4098.462, 4160.513, 450, 0, []
1631386318.5539, 119, 0, 4168.718, 4235.897, 4097.436, 4102.051, 4170.256, 16189, 0, []
1631386318.5617, 120, 0, 4172.308, 4231.795, 4163.077, 4110.769, 4178.974, 450, 0, []
1631386318.5696, 121, 0, 4167.692, 4224.615, 4226.667, 4113.846, 4187.179, 450, 0, []
1631386318.5774, 122, 0, 4165.128, 4229.744, 4164.103, 4119.487, 4192.308, 450, 0, []
1631386318.5853, 123, 0, 4175.897, 4240.513, 4264.103, 4128.718, 4197.949, 16189, 0, []
1631386318.593, 124, 0, 4169.744, 4240, 4137.436, 4120, 4189.231, 450, 0, []
1631386318.601, 125, 0, 4153.333, 4233.846, 4148.718, 4103.59, 4172.308, 450, 0, []
1631386318.6089, 126, 0, 4163.077, 4240, 4222.051, 4104.615, 4181.026, 450, 0, []
1631386318.6169, 127, 0, 4174.359, 4242.564, 4168.718, 4109.231, 4192.821, 16189, 0, []
1631386318.6248, 128, 0, 4164.103, 4230.256, 4256.41, 4098.462, 4177.436, 450, 0, []
1631386318.6327, 0, 0, 4163.077, 4228.205, 4134.872, 4098.974, 4176.923, 450, 0, []
1631386318.6406, 1, 0, 4165.128, 4229.744, 4152.308, 4112.308, 4188.718, 450, 0, []
1631386318.6486, 2, 0, 4148.718, 4216.41, 4229.744, 4104.103, 4176.41, 16175, 0, []
1631386318.6565, 3, 0, 4142.051, 4218.974, 4113.846, 4089.231, 4162.564, 450, 0, []
1631386318.6645, 4, 0, 4155.385, 4227.179, 4218.974, 4093.846, 4169.744, 16174, 0, []
1631386318.6724, 5, 0, 4161.026, 4214.359, 4174.872, 4090.769, 4179.487, 450, 0, []
1631386318.6801, 6, 0, 4164.615, 4200, 4165.641, 4082.051, 4180.513, 226, 0, []
1631386318.688, 7, 0, 4180.513, 4209.744, 4247.692, 4093.333, 4187.692, 450, 0, []
1631386318.6958, 8, 0, 4174.872, 4221.026, 4157.949, 4109.744, 4189.744, 450, 0, []
1631386318.7037, 9, 0, 4145.128, 4212.308, 4250.256, 4105.641, 4168.205, 16171, 0, []
1631386318.7115, 10, 0, 4140.513, 4222.564, 4201.538, 4106.667, 4166.667, 450, 0, []
1631386318.7193, 11, 0, 4170.769, 4263.077, 4166.154, 4129.231, 4206.667, 16192, 0, []
1631386318.7271, 12, 0, 4189.231, 4281.538, 4212.821, 4133.846, 4226.667, 450, 0, []
1631386318.7351, 13, 0, 4177.949, 4255.897, 4077.436, 4105.641, 4204.103, 450, 0, []
1631386318.743, 14, 0, 4161.026, 4223.59, 4188.205, 4085.641, 4180.513, 450, 0, []
1631386318.7509, 15, 0, 4148.205, 4218.462, 4201.538, 4082.564, 4168.205, 16192, 0, []
1631386318.7586, 16, 0, 4148.205, 4226.154, 4180, 4084.103, 4171.282, 0, 0, []
1631386318.7666, 17, 0, 4157.436, 4228.718, 4287.692, 4101.538, 4190.769, 0, 0, []
1631386318.7745, 18, 0, 4163.077, 4226.154, 4141.026, 4119.487, 4207.692, 0, 0, []
1631386318.7825, 19, 0, 4179.487, 4224.615, 4170.256, 4121.026, 4213.333, 0, 0, []
1631386318.7904, 20, 0, 4186.667, 4223.077, 4198.462, 4117.949, 4210.769, 0, 0, []
1631386318.7983, 21, 0, 4168.718, 4220, 4174.872, 4120.513, 4202.051, 0, 0, []
1631386318.8062, 22, 0, 4157.436, 4214.872, 4244.103, 4122.051, 4197.949, 0, 0, []
1631386318.8142, 23, 0, 4163.59, 4216.923, 4100.513, 4117.949, 4201.026, 0, 0, []
1631386318.8221, 24, 0, 4158.462, 4224.615, 4177.436, 4116.923, 4201.026, 0, 0, []
1631386318.8301, 25, 0, 4136.41, 4226.667, 4231.795, 4115.897, 4192.821, 0, 0, []
1631386318.8379, 26, 0, 4121.538, 4221.026, 4158.462, 4104.615, 4181.026, 0, 0, []
1631386318.8457, 27, 0, 4130.769, 4224.615, 4241.026, 4096.923, 4177.949, 0, 0, []
1631386318.8536, 28, 0, 4148.718, 4235.897, 4100.513, 4107.179, 4191.795, 0, 0, []
1631386318.8614, 29, 0, 4165.641, 4232.308, 4125.641, 4124.103, 4206.667, 0, 0, []
1631386318.8693, 30, 0, 4184.103, 4231.795, 4225.641, 4133.846, 4215.385, 0, 0, []
1631386318.877, 31, 0, 4192.821, 4240.513, 4186.154, 4134.359, 4217.949, 0, 0, []
1631386318.8849, 32, 0, 4191.282, 4229.231, 4258.462, 4131.795, 4213.846, 0, 0, []
1631386318.8927, 33, 0, 4192.308, 4215.897, 4135.897, 4132.821, 4216.41, 0, 0, []
1631386318.9006, 34, 0, 4195.385, 4228.718, 4173.333, 4142.564, 4225.641, 0, 0, []
1631386318.9084, 35, 0, 4194.872, 4241.538, 4244.615, 4144.615, 4234.359, 0, 0, []
1631386318.9164, 36, 0, 4194.872, 4241.538, 4128.718, 4132.821, 4231.795, 0, 0, []
1631386318.9242, 37, 0, 4185.641, 4245.128, 4235.897, 4124.103, 4215.897, 0, 0, []
1631386318.9322, 38, 0, 4166.667, 4243.077, 4176.41, 4120, 4202.564, 0, 0, []
1631386318.9401, 39, 0, 4166.154, 4232.308, 4146.154, 4121.538, 4205.641, 0, 0, []
1631386318.9481, 40, 0, 4180, 4230.769, 4200.513, 4130.769, 4210.256, 0, 0, []
1631386318.956, 41, 0, 4184.615, 4232.308, 4120, 4141.538, 4208.718, 0, 0, []
1631386318.9639, 42, 0, 4174.872, 4223.077, 4241.538, 4136.41, 4201.026, 0, 0, []
1631386318.9718, 43, 0, 4160.513, 4214.872, 4189.744, 4117.436, 4192.308, 0, 0, []
1631386318.9798, 44, 0, 4156.923, 4214.359, 4166.154, 4111.282, 4190.256, 0, 0, []
1631386318.9877, 45, 0, 4159.487, 4218.462, 4260, 4114.872, 4189.744, 0, 0, []
1631386318.9955, 46, 0, 4153.846, 4226.154, 4138.462, 4105.641, 4187.179, 0, 0, []
1631386319.0033, 47, 0, 4148.718, 4253.846, 4207.692, 4100.513, 4186.667, 0, 0, []
1631386319.0111, 48, 0, 4153.333, 4284.615, 4185.641, 4110.256, 4196.923, 0, 0, []
1631386319.019, 49, 0, 4161.538, 4288.205, 4155.385, 4115.385, 4203.59, 0, 0, []
1631386319.0268, 50, 0, 4156.41, 4271.795, 4225.641, 4107.179, 4190.769, 0, 0, []
1631386319.0347, 51, 0, 4148.205, 4270.769, 4089.231, 4102.051, 4182.564, 0, 0, []
1631386319.0424, 52, 0, 4157.949, 4275.385, 4184.103, 4111.282, 4194.359, 0, 0, []
1631386319.0503, 53, 0, 4168.718, 4249.744, 4212.821, 4114.872, 4201.026, 0, 0, []
1631386319.0581, 54, 0, 4166.667, 4283.077, 4164.103, 4105.128, 4194.359, 0, 0, []
1631386319.0661, 55, 0, 4175.897, 4370.256, 4269.231, 4108.205, 4195.897, 0, 0, []
1631386319.074, 56, 0, 4193.846, 4426.667, 4149.744, 4125.641, 4206.154, 0, 0, []
1631386319.0819, 57, 0, 4191.795, 4727.179, 4179.487, 4131.282, 4209.231, 0, 0, []
1631386319.0898, 58, 0, 4175.897, 5314.359, 4206.667, 4121.538, 4200, 0, 0, []
1631386319.0978, 59, 0, 4169.744, 5537.436, 4164.615, 4115.897, 4193.846, 0, 0, []
1631386319.1057, 60, 0, 4169.744, 5197.949, 4254.359, 4120.513, 4193.846, 0, 0, []
1631386319.1137, 61, 0, 4169.231, 4838.462, 4112.308, 4120.513, 4193.846, 0, 0, []
1631386319.1215, 62, 0, 4168.205, 4725.128, 4143.077, 4114.359, 4193.333, 0, 0, []
1631386319.1295, 63, 0, 4168.205, 4867.179, 4208.718, 4114.359, 4193.333, 0, 0, []
1631386319.1374, 64, 0, 4164.103, 5079.487, 4144.615, 4112.308, 4191.795, 450, 0, []
1631386319.1452, 65, 0, 4160, 5335.385, 4236.41, 4103.59, 4188.205, 450, 0, []
1631386319.1531, 66, 0, 4157.436, 6090.769, 4124.103, 4103.077, 4183.077, 16175, 0, []
1631386319.1609, 67, 0, 4160.513, 7114.872, 4136.41, 4111.282, 4173.333, 450, 0, []
1631386319.1687, 68, 0, 4174.359, 7600.513, 4197.436, 4107.692, 4186.667, 16096, 0, []
1631386319.1765, 69, 0, 4194.872, 7647.692, 4142.564, 4095.897, 4216.41, 450, 0, []
1631386319.1844, 70, 0, 4228.205, 7770.769, 4265.641, 4098.462, 4231.795, 203, 0, []
1631386319.1922, 71, 0, 4284.103, 7853.333, 4163.077, 4112.308, 4269.231, 450, 0, []
1631386319.2002, 72, 0, 4341.538, 7804.103, 4153.846, 4116.923, 4318.462, 450, 0, []
1631386319.208, 73, 0, 4385.128, 7783.077, 4226.667, 4111.282, 4343.59, 16165, 0, []
1631386319.2159, 74, 0, 4422.564, 7775.897, 4116.923, 4112.821, 4375.897, 450, 0, []
1631386319.2237, 75, 0, 4447.692, 7773.333, 4220.513, 4117.949, 4407.692, 16201, 0, []
1631386319.2317, 76, 0, 4443.59, 7771.795, 4183.59, 4110.769, 4396.41, 450, 0, []
1631386319.2396, 77, 0, 4430.769, 7770.256, 4162.051, 4109.744, 4375.385, 450, 0, []
1631386319.2475, 78, 0, 4423.077, 7770.256, 4226.667, 4120, 4373.846, 450, 0, []
1631386319.2554, 79, 0, 4406.667, 7768.718, 4125.128, 4124.615, 4362.564, 16201, 0, []
1631386319.2634, 80, 0, 4389.231, 7770.769, 4243.077, 4128.718, 4343.077, 450, 0, []
1631386319.2713, 81, 0, 4381.026, 7770.769, 4214.359, 4134.872, 4335.897, 450, 0, []
1631386319.2793, 82, 0, 4373.333, 7770.256, 4169.744, 4140, 4332.308, 450, 0, []
1631386319.2871, 83, 0, 4358.974, 7770.256, 4267.692, 4137.436, 4324.615, 16201, 0, []
1631386319.295, 84, 0, 4350.256, 7770.256, 4152.821, 4134.359, 4323.077, 450, 0, []
1631386319.3029, 85, 0, 4351.795, 7770.256, 4214.872, 4142.051, 4318.462, 450, 0, []
1631386319.3107, 86, 0, 4334.359, 7770.256, 4203.077, 4141.538, 4297.949, 450, 0, []
1631386319.3186, 87, 0, 4308.205, 7770.256, 4170.256, 4122.564, 4276.41, 16201, 0, []
1631386319.3263, 88, 0, 4311.795, 7770.256, 4253.846, 4106.667, 4274.359, 450, 0, []
1631386319.3342, 89, 0, 4317.436, 7770.256, 4081.026, 4106.154, 4275.385, 450, 0, []
1631386319.342, 90, 0, 4300, 7770.256, 4130.769, 4113.846, 4263.077, 450, 0, []
1631386319.3499, 91, 0, 4297.436, 7770.256, 4183.077, 4123.59, 4257.949, 16201, 0, []
1631386319.3577, 92, 0, 4309.231, 7770.256, 4144.615, 4125.128, 4263.077, 450, 0, []
1631386319.3655, 93, 0, 4304.103, 7770.256, 4227.692, 4121.538, 4262.051, 450, 0, []
1631386319.3733, 94, 0, 4290.769, 7770.256, 4077.949, 4115.385, 4254.872, 450, 0, []
1631386319.3813, 95, 0, 4286.154, 7770.256, 4109.744, 4106.154, 4243.077, 16201, 0, []
1631386319.3892, 96, 0, 4279.487, 7770.256, 4174.359, 4097.949, 4231.795, 450, 0, []
1631386319.3972, 97, 0, 4273.846, 7770.256, 4146.667, 4102.051, 4221.538, 450, 0, []
1631386319.4051, 98, 0, 4275.385, 7770.256, 4240, 4112.308, 4212.308, 450, 0, []
1631386319.413, 99, 0, 4271.282, 7770.256, 4111.795, 4117.949, 4212.821, 16201, 0, []
1631386319.4209, 100, 0, 4269.231, 7770.256, 4149.231, 4125.641, 4226.154, 450, 0, []
1631386319.4289, 101, 0, 4269.744, 7770.256, 4203.59, 4128.718, 4231.795, 450, 0, []
1631386319.4368, 102, 0, 4256.923, 7770.256, 4143.59, 4121.026, 4211.795, 450, 0, []
1631386319.4448, 103, 0, 4247.692, 7770.256, 4264.103, 4117.436, 4191.795, 16201, 0, []
1631386319.4526, 104, 0, 4256.41, 7770.256, 4157.949, 4120, 4201.538, 450, 0, []
1631386319.4604, 105, 0, 4271.282, 7770.256, 4176.41, 4122.564, 4214.359, 450, 0, []
1631386319.4683, 106, 0, 4278.462, 7770.256, 4220.513, 4125.641, 4213.846, 450, 0, []
1631386319.4761, 107, 0, 4282.051, 7770.256, 4117.436, 4132.308, 4220, 16201, 0, []
1631386319.484, 108, 0, 4273.846, 7770.256, 4255.897, 4132.821, 4215.385, 450, 0, []
1631386319.4917, 109, 0, 4252.821, 7770.256, 4162.051, 4114.359, 4192.821, 450, 0, []
1631386319.4996, 110, 0, 4249.231, 7770.256, 4146.154, 4110.256, 4189.231, 450, 0, []
1631386319.5074, 111, 0, 4248.205, 7770.256, 4244.615, 4116.923, 4188.718, 16201, 0, []
1631386319.5153, 112, 0, 4239.487, 7770.256, 4101.538, 4100, 4168.205, 450, 0, []
1631386319.5231, 113, 0, 4261.026, 7770.256, 4189.744, 4098.462, 4176.41, 450, 0, []
1631386319.5309, 114, 0, 4285.641, 7770.256, 4185.641, 4116.41, 4208.205, 450, 0, []
1631386319.5387, 115, 0, 4279.487, 7770.256, 4166.667, 4118.974, 4209.744, 16201, 0, []
1631386319.5467, 116, 0, 4282.564, 7770.256, 4232.821, 4129.744, 4204.103, 450, 0, []
1631386319.5546, 117, 0, 4292.308, 7770.256, 4078.462, 4140, 4207.179, 450, 0, []
1631386319.5626, 118, 0, 4281.026, 7770.256, 4147.692, 4120.513, 4194.359, 450, 0, []
1631386319.5704, 119, 0, 4292.821, 7770.256, 4181.538, 4124.103, 4208.718, 16201, 0, []
1631386319.5784, 120, 0, 4324.615, 7770.256, 4170.769, 4144.103, 4245.128, 450, 0, []
1631386319.5863, 121, 0, 4329.231, 7770.256, 4230.769, 4120.513, 4238.462, 450, 0, []
1631386319.5943, 122, 0, 4334.872, 7770.256, 4086.154, 4112.308, 4229.231, 450, 0, []
1631386319.6022, 123, 0, 4357.436, 7770.256, 4165.641, 4150.256, 4251.795, 16201, 0, []
1631386319.6101, 124, 0, 4370.256, 7770.256, 4209.231, 4158.974, 4256.923, 450, 0, []
1631386319.618, 125, 0, 4396.923, 7770.256, 4173.333, 4140, 4255.897, 450, 0, []
1631386319.6258, 126, 0, 4455.385, 7770.256, 4258.462, 4142.564, 4292.308, 450, 0, []
1631386319.6337, 127, 0, 4495.897, 7770.256, 4141.538, 4148.718, 4325.641, 16201, 0, []
1631386319.6415, 128, 0, 4498.462, 7770.256, 4198.462, 4134.359, 4324.103, 450, 0, []
1631386319.6494, 0, 0, 4482.051, 7770.256, 4220.513, 4109.744, 4312.308, 450, 0, []
1631386319.6571, 1, 0, 4463.59, 7770.256, 4131.282, 4089.231, 4300, 450, 0, []
1631386319.665, 2, 0, 4466.154, 7770.256, 4215.385, 4095.385, 4296.923, 16179, 0, []
1631386319.6728, 3, 0, 4483.077, 7770.256, 4115.385, 4127.179, 4314.872, 450, 0, []
1631386319.6807, 4, 0, 4483.59, 7770.256, 4167.692, 4161.538, 4322.051, 49, 0, []
1631386319.6885, 5, 0, 4466.154, 7770.256, 4241.538, 4166.667, 4302.051, 450, 0, []
1631386319.6964, 6, 0, 4445.641, 7770.256, 4167.179, 4148.718, 4285.128, 215, 0, []
1631386319.7043, 7, 0, 4419.487, 7770.256, 4258.462, 4136.41, 4270.769, 450, 0, []
1631386319.7123, 8, 0, 4387.179, 7770.256, 4151.795, 4117.949, 4242.051, 450, 0, []
1631386319.7202, 9, 0, 4370.256, 7770.256, 4132.821, 4099.487, 4226.667, 16139, 0, []
1631386319.7282, 10, 0, 4362.051, 7770.256, 4200.513, 4104.615, 4231.282, 450, 0, []
1631386319.736, 11, 0, 4345.641, 7770.256, 4144.615, 4116.923, 4221.538, 16212, 0, []
1631386319.744, 12, 0, 4330.769, 7770.256, 4248.205, 4114.872, 4192.308, 450, 0, []
1631386319.7519, 13, 0, 4316.923, 7770.256, 4172.821, 4110.256, 4174.359, 450, 0, []
1631386319.7599, 14, 0, 4301.538, 7770.256, 4157.436, 4112.821, 4168.205, 450, 0, []
1631386319.7678, 15, 0, 4291.282, 7770.256, 4232.308, 4111.282, 4164.615, 16212, 0, []
1631386319.7755, 16, 0, 4290.256, 7770.256, 4134.359, 4112.821, 4167.179, 0, 0, []
1631386319.7834, 17, 0, 4289.744, 7770.769, 4212.821, 4109.744, 4167.179, 0, 0, []
1631386319.7912, 18, 0, 4287.179, 7781.026, 4185.641, 4096.41, 4166.154, 0, 0, []
1631386319.7991, 19, 0, 4293.333, 7830.769, 4175.385, 4109.744, 4172.821, 0, 0, []
1631386319.8069, 20, 0, 4288.718, 7864.103, 4226.154, 4127.692, 4164.615, 0, 0, []
1631386319.8147, 21, 0, 4252.821, 7824.615, 4067.692, 4106.667, 4133.846, 0, 0, []
1631386319.8225, 22, 0, 4232.308, 7888.718, 4150.256, 4093.333, 4121.026, 0, 0, []
1631386319.8304, 23, 0, 4251.795, 7807.179, 4177.949, 4117.436, 4149.744, 0, 0, []
1631386319.8382, 24, 0, 4268.718, 6963.077, 4157.436, 4133.333, 4161.026, 0, 0, []
1631386319.8462, 25, 0, 4267.692, 5703.077, 4257.436, 4122.051, 4131.282, 0, 0, []
1631386319.854, 26, 0, 4271.282, 4885.128, 4123.59, 4114.872, 4124.615, 0, 0, []
1631386319.862, 27, 0, 4273.846, 4412.821, 4155.385, 4111.282, 4137.436, 0, 0, []
1631386319.8699, 28, 0, 4261.538, 3886.667, 4198.974, 4106.154, 4124.103, 0, 0, []
1631386319.8779, 29, 0, 4249.231, 3463.59, 4189.231, 4113.846, 4115.385, 0, 0, []
1631386319.8858, 30, 0, 4247.692, 3173.846, 4247.179, 4122.051, 4127.179, 0, 0, []
1631386319.8938, 31, 0, 4248.718, 2879.487, 4082.564, 4120.513, 4135.897, 0, 0, []
1631386319.9016, 32, 0, 4238.462, 2625.128, 4145.641, 4112.821, 4126.667, 0, 0, []
1631386319.9096, 33, 0, 4215.385, 2396.41, 4210.256, 4097.436, 4106.154, 0, 0, []
1631386319.9175, 34, 0, 4206.154, 2185.641, 4167.179, 4087.692, 4100.513, 0, 0, []
1631386319.9253, 35, 0, 4213.333, 2005.641, 4276.41, 4091.282, 4114.872, 0, 0, []
1631386319.9332, 36, 0, 4222.564, 1830.769, 4144.615, 4101.026, 4127.692, 0, 0, []
1631386319.9409, 37, 0, 4233.846, 1652.821, 4140, 4117.436, 4130.256, 0, 0, []
1631386319.9488, 38, 0, 4234.359, 1484.103, 4198.462, 4127.179, 4130.256, 0, 0, []
1631386319.9566, 39, 0, 4217.436, 1333.333, 4162.051, 4113.333, 4122.564, 0, 0, []
1631386319.9645, 40, 0, 4203.59, 1216.41, 4276.41, 4101.538, 4118.462, 0, 0, []
1631386319.9723, 41, 0, 4198.462, 1136.923, 4144.615, 4097.436, 4117.436, 0, 0, []
1631386319.9801, 42, 0, 4202.051, 1069.231, 4124.103, 4089.231, 4101.026, 0, 0, []
1631386319.9879, 43, 0, 4221.026, 1012.308, 4216.923, 4094.872, 4106.667, 0, 0, []
1631386319.9958, 44, 0, 4234.359, 965.641, 4180.513, 4109.744, 4131.282, 0, 0, []
1631386320.0036, 45, 0, 4220, 924.615, 4265.128, 4104.615, 4125.641, 0, 0, []
1631386320.0116, 46, 0, 4201.538, 886.154, 4137.436, 4101.538, 4110.769, 0, 0, []
1631386320.0194, 47, 0, 4195.385, 846.667, 4153.333, 4113.333, 4108.718, 0, 0, []
1631386320.0274, 48, 0, 4187.179, 822.564, 4250.769, 4106.154, 4105.128, 0, 0, []
1631386320.0353, 49, 0, 4181.538, 813.846, 4108.205, 4089.744, 4107.692, 0, 0, []
1631386320.0433, 50, 0, 4194.872, 811.795, 4175.897, 4102.564, 4119.487, 0, 0, []
1631386320.0512, 51, 0, 4209.231, 816.923, 4158.462, 4120, 4113.846, 0, 0, []
1631386320.0591, 52, 0, 4211.282, 816.41, 4195.385, 4121.538, 4106.154, 0, 0, []
1631386320.067, 53, 0, 4212.821, 815.385, 4258.462, 4117.949, 4127.692, 0, 0, []
1631386320.0748, 54, 0, 4211.795, 817.949, 4087.692, 4112.821, 4144.103, 0, 0, []
1631386320.0827, 55, 0, 4208.718, 818.462, 4193.333, 4118.974, 4136.41, 0, 0, []
1631386320.0905, 56, 0, 4201.026, 818.462, 4230.769, 4120.513, 4121.538, 0, 0, []
1631386320.0983, 57, 0, 4186.667, 818.462, 4202.564, 4105.641, 4105.128, 0, 0, []
1631386320.1061, 58, 0, 4178.462, 818.462, 4233.333, 4099.487, 4101.538, 0, 0, []
1631386320.114, 59, 0, 4177.436, 818.462, 4082.051, 4104.103, 4112.308, 0, 0, []
1631386320.1218, 60, 0, 4184.103, 818.462, 4193.333, 4103.077, 4117.436, 0, 0, []
1631386320.1297, 61, 0, 4193.846, 818.462, 4215.897, 4109.744, 4123.077, 0, 0, []
1631386320.1375, 62, 0, 4199.487, 818.462, 4143.077, 4122.564, 4140, 0, 0, []
1631386320.1453, 63, 0, 4191.795, 818.462, 4241.538, 4118.974, 4134.872, 0, 0, []
1631386320.1531, 64, 0, 4174.872, 818.462, 4122.051, 4112.308, 4115.897, 450, 0, []
1631386320.1611, 65, 0, 4172.308, 818.462, 4160, 4114.872, 4112.821, 450, 0, []
1631386320.169, 66, 0, 4176.923, 818.462, 4194.359, 4102.564, 4111.282, 16182, 0, []
1631386320.177, 67, 0, 4173.846, 818.462, 4161.538, 4084.103, 4109.231, 450, 0, []
1631386320.1848, 68, 0, 4184.103, 818.462, 4269.231, 4092.308, 4125.128, 282, 0, []
1631386320.1928, 69, 0, 4202.564, 818.462, 4115.897, 4105.641, 4144.103, 450, 0, []
1631386320.2007, 70, 0, 4198.974, 818.462, 4126.667, 4106.154, 4142.051, 235, 0, []
1631386320.2087, 71, 0, 4185.641, 818.462, 4208.205, 4104.103, 4129.744, 450, 0, []
1631386320.2166, 72, 0, 4179.487, 818.462, 4167.179, 4098.462, 4125.641, 450, 0, []
1631386320.2245, 73, 0, 4180, 818.462, 4233.333, 4096.923, 4133.333, 16136, 0, []
1631386320.2324, 74, 0, 4190.769, 818.462, 4103.59, 4098.974, 4144.103, 450, 0, []
1631386320.2402, 75, 0, 4195.385, 818.462, 4140.513, 4084.615, 4138.462, 16213, 0, []
1631386320.2481, 76, 0, 4182.564, 818.462, 4194.872, 4072.308, 4127.179, 450, 0, []
1631386320.2559, 77, 0, 4170.256, 818.462, 4110.256, 4087.692, 4124.103, 450, 0, []
1631386320.2637, 78, 0, 4165.128, 818.462, 4252.821, 4100, 4118.974, 450, 0, []
1631386320.2715, 79, 0, 4165.641, 818.462, 4170.256, 4098.974, 4125.128, 16213, 0, []
1631386320.2794, 80, 0, 4174.359, 818.462, 4136.41, 4107.692, 4146.154, 450, 0, []
1631386320.2873, 81, 0, 4175.897, 818.462, 4221.026, 4110.769, 4146.667, 450, 0, []
1631386320.2952, 82, 0, 4166.667, 818.462, 4163.59, 4097.949, 4123.59, 450, 0, []
1631386320.3031, 83, 0, 4158.974, 818.462, 4247.179, 4093.846, 4115.897, 16213, 0, []
1631386320.311, 84, 0, 4155.385, 818.462, 4156.923, 4098.462, 4124.615, 450, 0, []
1631386320.3188, 85, 0, 4151.795, 818.462, 4168.205, 4097.436, 4115.897, 450, 0, []
1631386320.3268, 86, 0, 4136.923, 818.462, 4240.513, 4084.103, 4098.462, 450, 0, []
1631386320.3347, 87, 0, 4134.872, 818.462, 4070.256, 4077.949, 4108.718, 16213, 0, []
1631386320.3426, 88, 0, 4170.769, 818.462, 4190.769, 4103.077, 4142.564, 450, 0, []
1631386320.3505, 89, 0, 4195.897, 818.462, 4223.077, 4127.179, 4163.077, 450, 0, []
1631386320.3585, 90, 0, 4189.231, 818.462, 4175.897, 4134.872, 4162.051, 450, 0, []
1631386320.3664, 91, 0, 4177.949, 818.462, 4222.564, 4142.051, 4150.256, 16213, 0, []
1631386320.3744, 92, 0, 4164.615, 818.462, 4096.41, 4137.436, 4134.872, 450, 0, []
1631386320.3822, 93, 0, 4148.718, 818.462, 4187.179, 4110.769, 4114.872, 450, 0, []
1631386320.39, 94, 0, 4133.333, 818.462, 4200, 4076.41, 4095.385, 450, 0, []
1631386320.3979, 95, 0, 4114.359, 818.462, 4164.103, 4056.41, 4085.128, 16213, 0, []
1631386320.4057, 96, 0, 4104.103, 818.462, 4232.308, 4055.897, 4084.615, 450, 0, []
1631386320.4136, 97, 0, 4122.564, 818.462, 4086.154, 4073.846, 4096.923, 450, 0, []
1631386320.4214, 98, 0, 4144.615, 818.462, 4183.59, 4096.923, 4112.308, 450, 0, []
1631386320.4292, 99, 0, 4138.462, 818.462, 4232.821, 4104.103, 4113.333, 16213, 0, []
1631386320.437, 100, 0, 4123.59, 818.462, 4168.718, 4102.051, 4102.051, 450, 0, []
1631386320.4449, 101, 0, 4116.923, 818.462, 4274.359, 4092.821, 4098.462, 450, 0, []
1631386320.4527, 102, 0, 4098.974, 818.462, 4118.974, 4069.744, 4095.897, 450, 0, []
1631386320.4606, 103, 0, 4088.205, 818.462, 4113.846, 4061.538, 4089.744, 16213, 0, []
1631386320.4683, 104, 0, 4127.179, 818.462, 4208.205, 4097.436, 4116.923, 450, 0, []
1631386320.4763, 105, 0, 4174.872, 818.462, 4194.872, 4129.744, 4163.077, 450, 0, []
1631386320.4842, 106, 0, 4167.692, 818.462, 4237.949, 4110.256, 4160, 450, 0, []
1631386320.4922, 107, 0, 4134.359, 818.462, 4089.231, 4085.128, 4126.154, 16213, 0, []
1631386320.5001, 108, 0, 4122.564, 818.462, 4153.846, 4099.487, 4116.923, 450, 0, []
1631386320.508, 109, 0, 4109.744, 818.462, 4215.385, 4109.744, 4106.154, 450, 0, []
1631386320.5159, 110, 0, 4088.718, 818.462, 4133.333, 4094.872, 4078.974, 450, 0, []
1631386320.5239, 111, 0, 4083.59, 818.462, 4270.256, 4086.667, 4071.795, 16213, 0, []
1631386320.5318, 112, 0, 4095.385, 818.462, 4157.436, 4088.718, 4088.205, 450, 0, []
1631386320.5396, 113, 0, 4120.513, 818.462, 4138.974, 4100.513, 4102.051, 450, 0, []
1631386320.5474, 114, 0, 4132.821, 818.462, 4231.282, 4109.231, 4109.231, 450, 0, []
1631386320.5552, 115, 0, 4113.333, 818.462, 4122.051, 4097.436, 4104.615, 16213, 0, []
1631386320.5631, 116, 0, 4097.436, 818.462, 4202.051, 4084.103, 4091.795, 450, 0, []
1631386320.5709, 117, 0, 4115.897, 818.462, 4155.385, 4096.41, 4102.564, 450, 0, []
1631386320.5788, 118, 0, 4134.359, 818.462, 4140, 4114.359, 4131.282, 450, 0, []
1631386320.5865, 119, 0, 4129.744, 818.462, 4208.718, 4106.667, 4128.205, 16213, 0, []
1631386320.5944, 120, 0, 4116.41, 818.462, 4133.846, 4092.308, 4103.077, 450, 0, []
1631386320.6022, 121, 0, 4107.692, 818.462, 4232.308, 4088.205, 4102.564, 450, 0, []
1631386320.6101, 122, 0, 4109.231, 818.462, 4171.282, 4095.385, 4122.564, 450, 0, []
1631386320.6179, 123, 0, 4120, 818.462, 4184.615, 4107.179, 4126.154, 16213, 0, []
1631386320.6257, 124, 0, 4123.077, 818.462, 4268.205, 4104.615, 4119.487, 450, 0, []
1631386320.6335, 125, 0, 4104.103, 818.462, 4069.744, 4087.692, 4111.282, 450, 0, []
1631386320.6415, 126, 0, 4099.487, 818.462, 4175.385, 4089.231, 4104.615, 450, 0, []
1631386320.6494, 127, 0, 4125.641, 818.462, 4236.41, 4109.231, 4126.154, 16213, 0, []
1631386320.6574, 128, 0, 4146.154, 818.462, 4171.282, 4108.718, 4150.256, 450, 0, []
1631386320.6653, 0, 0, 4141.538, 818.462, 4236.923, 4093.846, 4143.59, 450, 0, []
1631386320.6732, 1, 0, 4128.718, 818.462, 4122.051, 4089.744, 4135.385, 450, 0, []
1631386320.6811, 2, 0, 4122.564, 818.462, 4167.692, 4089.744, 4130.769, 16171, 0, []
1631386320.6891, 3, 0, 4118.462, 818.462, 4188.205, 4091.282, 4123.59, 450, 0, []
1631386320.697, 4, 0, 4114.872, 818.462, 4182.564, 4094.872, 4127.179, 13, 0, []
1631386320.705, 5, 0, 4124.615, 818.462, 4263.077, 4097.436, 4135.385, 450, 0, []
1631386320.7128, 6, 0, 4154.359, 818.462, 4091.282, 4101.026, 4150.256, 174, 0, []
1631386320.7206, 7, 0, 4184.615, 818.462, 4157.436, 4106.667, 4173.846, 450, 0, []
1631386320.7285, 8, 0, 4224.103, 818.462, 4232.821, 4111.795, 4207.179, 450, 0, []
1631386320.7363, 9, 0, 4276.923, 818.462, 4175.385, 4117.436, 4245.641, 16164, 0, []
1631386320.7442, 10, 0, 4312.821, 818.462, 4248.205, 4119.487, 4268.718, 450, 0, []
1631386320.7519, 11, 0, 4323.077, 818.462, 4085.128, 4114.872, 4277.949, 16210, 0, []
1631386320.7598, 12, 0, 4336.41, 818.462, 4128.205, 4123.077, 4293.846, 450, 0, []
1631386320.7676, 13, 0, 4351.282, 818.462, 4237.949, 4135.897, 4310.256, 450, 0, []
1631386320.7755, 14, 0, 4337.436, 818.462, 4160.513, 4126.667, 4298.974, 450, 0, []
1631386320.7833, 15, 0, 4308.718, 818.462, 4256.41, 4112.821, 4276.923, 16210, 0, []
1631386320.7912, 16, 0, 4287.692, 817.949, 4154.872, 4118.462, 4265.641, 0, 0, []
1631386320.7991, 17, 0, 4272.821, 817.436, 4135.897, 4132.821, 4253.333, 0, 0, []
1631386320.8071, 18, 0, 4252.308, 818.462, 4209.744, 4127.692, 4227.692, 0, 0, []
1631386320.815, 19, 0, 4234.872, 817.436, 4169.744, 4119.487, 4210.769, 0, 0, []
1631386320.823, 20, 0, 4234.359, 816.41, 4273.333, 4132.308, 4221.538, 0, 0, []
1631386320.8308, 21, 0, 4221.538, 825.128, 4151.282, 4137.436, 4223.077, 0, 0, []
1631386320.8388, 22, 0, 4190.769, 834.359, 4158.974, 4118.974, 4188.205, 0, 0, []
1631386320.8467, 23, 0, 4176.923, 834.359, 4264.103, 4106.667, 4166.667, 0, 0, []
1631386320.8547, 24, 0, 4180, 840.513, 4116.41, 4109.231, 4180, 0, 0, []
1631386320.8626, 25, 0, 4173.333, 855.897, 4173.846, 4117.436, 4183.077, 0, 0, []
1631386320.8703, 26, 0, 4158.462, 862.564, 4162.564, 4120.513, 4164.615, 0, 0, []
1631386320.8782, 27, 0, 4152.821, 866.667, 4188.205, 4115.897, 4152.308, 0, 0, []
1631386320.886, 28, 0, 4147.692, 874.872, 4236.923, 4113.333, 4153.846, 0, 0, []
1631386320.8939, 29, 0, 4134.872, 884.103, 4072.308, 4117.436, 4154.359, 0, 0, []
1631386320.9017, 30, 0, 4140, 894.359, 4205.641, 4131.795, 4152.308, 0, 0, []
1631386320.9096, 31, 0, 4158.462, 905.128, 4243.59, 4134.359, 4157.436, 0, 0, []
1631386320.9173, 32, 0, 4157.949, 913.846, 4181.026, 4115.897, 4155.897, 0, 0, []
1631386320.9252, 33, 0, 4137.436, 917.436, 4221.026, 4107.692, 4136.41, 0, 0, []
1631386320.933, 34, 0, 4116.923, 925.128, 4089.231, 4112.821, 4117.436, 0, 0, []
1631386320.941, 35, 0, 4113.333, 935.897, 4181.538, 4113.846, 4110.256, 0, 0, []
1631386320.9489, 36, 0, 4108.718, 941.026, 4200.513, 4107.179, 4106.667, 0, 0, []
1631386320.9568, 37, 0, 4101.538, 947.692, 4148.205, 4102.051, 4113.333, 0, 0, []
1631386320.9647, 38, 0, 4106.667, 962.051, 4243.59, 4102.051, 4124.615, 0, 0, []
1631386320.9727, 39, 0, 4107.692, 970.256, 4105.128, 4105.128, 4117.436, 0, 0, []
1631386320.9806, 40, 0, 4095.385, 972.308, 4142.051, 4106.154, 4109.744, 0, 0, []
1631386320.9886, 41, 0, 4100, 989.744, 4205.128, 4108.718, 4124.615, 0, 0, []
1631386320.9964, 42, 0, 4120, 1003.59, 4188.718, 4119.487, 4127.692, 0, 0, []
1631386321.0044, 43, 0, 4114.359, 997.949, 4254.872, 4111.795, 4107.179, 0, 0, []
1631386321.0123, 44, 0, 4097.436, 1009.231, 4077.949, 4099.487, 4103.077, 0, 0, []
1631386321.0201, 45, 0, 4103.59, 1038.462, 4136.41, 4120.513, 4110.769, 0, 0, []
1631386321.028, 46, 0, 4107.692, 1047.179, 4230.256, 4128.205, 4106.667, 0, 0, []
1631386321.0359, 47, 0, 4110.769, 1050.769, 4152.821, 4108.718, 4112.308, 0, 0, []
1631386321.0438, 48, 0, 4126.667, 1066.154, 4233.846, 4108.718, 4125.128, 0, 0, []
1631386321.0516, 49, 0, 4119.487, 1071.282, 4115.385, 4122.051, 4119.487, 0, 0, []
1631386321.0595, 50, 0, 4093.333, 1080.513, 4131.795, 4123.59, 4108.205, 0, 0, []
1631386321.0673, 51, 0, 4091.795, 1105.128, 4198.974, 4126.154, 4104.103, 0, 0, []
1631386321.0751, 52, 0, 4098.462, 1113.333, 4118.462, 4129.744, 4101.538, 0, 0, []
1631386321.0829, 53, 0, 4098.462, 1119.487, 4255.897, 4131.282, 4104.103, 0, 0, []
1631386321.0909, 54, 0, 4112.308, 1152.308, 4175.897, 4134.872, 4115.897, 0, 0, []
1631386321.0988, 55, 0, 4121.538, 1176.923, 4126.154, 4126.154, 4123.077, 0, 0, []
1631386321.1068, 56, 0, 4116.923, 1181.026, 4209.744, 4120.513, 4123.59, 0, 0, []
1631386321.1146, 57, 0, 4120, 1196.923, 4166.154, 4133.333, 4121.538, 0, 0, []
1631386321.1226, 58, 0, 4118.462, 1207.692, 4249.231, 4134.359, 4114.872, 0, 0, []
1631386321.1305, 59, 0, 4100, 1209.744, 4151.282, 4118.462, 4106.667, 0, 0, []
1631386321.1385, 60, 0, 4098.974, 1227.179, 4165.128, 4113.333, 4101.026, 0, 0, []
1631386321.1464, 61, 0, 4115.385, 1246.667, 4254.872, 4110.769, 4100.513, 0, 0, []
1631386321.1543, 62, 0, 4126.154, 1265.128, 4080, 4106.154, 4118.974, 0, 0, []
1631386321.1622, 63, 0, 4137.949, 1288.205, 4187.692, 4119.487, 4136.41, 0, 0, []
1631386321.17, 64, 0, 4144.103, 1307.179, 4227.179, 4121.538, 4133.846, 450, 0, []
1631386321.1779, 65, 0, 4139.487, 1334.359, 4181.026, 4107.179, 4131.282, 450, 0, []
1631386321.1857, 66, 0, 4130.769, 1355.897, 4222.564, 4113.846, 4127.179, 16173, 0, []
1631386321.1936, 67, 0, 4108.205, 1350.256, 4090.769, 4117.949, 4110.769, 450, 0, []
1631386321.2013, 68, 0, 4082.051, 1358.462, 4171.282, 4092.821, 4090.256, 16197, 0, []
1631386321.2092, 69, 0, 4080, 1397.949, 4185.641, 4080.513, 4080.513, 450, 0, []
1631386321.217, 70, 0, 4101.538, 1427.179, 4168.205, 4105.128, 4092.821, 219, 0, []
1631386321.2249, 71, 0, 4122.564, 1442.564, 4248.718, 4121.026, 4116.923, 450, 0, []
1631386321.2327, 72, 0, 4135.897, 1474.872, 4083.59, 4120.513, 4129.744, 450, 0, []
1631386321.2405, 73, 0, 4140.513, 1511.282, 4159.487, 4125.128, 4126.154, 16161, 0, []
1631386321.2483, 74, 0, 4135.385, 1540.513, 4231.795, 4125.128, 4124.103, 450, 0, []
1631386321.2563, 75, 0, 4136.41, 1569.744, 4187.179, 4123.077, 4122.051, 16207, 0, []
1631386321.2642, 76, 0, 4144.103, 1589.231, 4261.026, 4126.667, 4121.538, 450, 0, []
1631386321.2722, 77, 0, 4138.462, 1609.231, 4103.59, 4121.026, 4124.615, 450, 0, []
1631386321.28, 78, 0, 4126.667, 1627.179, 4143.077, 4110.769, 4117.949, 450, 0, []
1631386321.2879, 79, 0, 4126.154, 1638.462, 4212.308, 4105.128, 4113.846, 16207, 0, []
1631386321.2958, 80, 0, 4122.564, 1660, 4152.821, 4105.641, 4116.923, 450, 0, []
1631386321.3036, 81, 0, 4113.333, 1678.974, 4246.154, 4111.282, 4104.103, 450, 0, []
1631386321.3116, 82, 0, 4118.462, 1687.179, 4102.051, 4115.897, 4095.897, 450, 0, []
1631386321.3194, 83, 0, 4137.949, 1711.795, 4117.436, 4117.949, 4116.923, 16207, 0, []
1631386321.3273, 84, 0, 4154.872, 1753.846, 4234.872, 4126.154, 4140, 450, 0, []
1631386321.3351, 85, 0, 4148.205, 1778.974, 4170.769, 4120.513, 4133.333, 450, 0, []
1631386321.343, 86, 0, 4133.333, 1789.231, 4216.923, 4101.026, 4116.923, 450, 0, []
1631386321.3508, 87, 0, 4140, 1802.051, 4103.59, 4095.897, 4120.513, 16207, 0, []
1631386321.3586, 88, 0, 4161.538, 1826.154, 4151.282, 4114.872, 4133.846, 450, 0, []
1631386321.3664, 89, 0, 4160.513, 1852.821, 4236.923, 4130.256, 4138.974, 450, 0, []
1631386321.3743, 90, 0, 4138.462, 1863.59, 4107.692, 4126.667, 4136.923, 450, 0, []
1631386321.3821, 91, 0, 4142.051, 1878.974, 4192.308, 4125.641, 4135.385, 16207, 0, []
1631386321.39, 92, 0, 4156.41, 1901.538, 4145.128, 4125.128, 4131.795, 450, 0, []
1631386321.3977, 93, 0, 4141.026, 1903.077, 4153.846, 4108.205, 4117.949, 450, 0, []
1631386321.4057, 94, 0, 4118.974, 1911.282, 4218.974, 4098.462, 4112.821, 450, 0, []
1631386321.4136, 95, 0, 4126.154, 1941.538, 4080, 4110.769, 4125.641, 16207, 0, []
1631386321.4216, 96, 0, 4148.718, 1965.128, 4205.128, 4118.462, 4130.769, 450, 0, []
1631386321.4295, 97, 0, 4158.462, 1981.026, 4214.872, 4110.769, 4123.59, 450, 0, []
1631386321.4375, 98, 0, 4159.487, 2008.205, 4164.615, 4118.462, 4128.205, 450, 0, []
1631386321.4453, 99, 0, 4161.026, 2032.821, 4209.231, 4135.385, 4138.974, 16207, 0, []
1631386321.4533, 100, 0, 4161.538, 2050.769, 4086.154, 4129.231, 4146.667, 450, 0, []
1631386321.4612, 101, 0, 4165.641, 2068.205, 4201.026, 4120.513, 4145.128, 450, 0, []
1631386321.4692, 102, 0, 4170.769, 2084.103, 4215.897, 4127.692, 4136.41, 450, 0, []
1631386321.4771, 103, 0, 4166.154, 2096.41, 4158.974, 4125.641, 4129.744, 16207, 0, []
1631386321.485, 104, 0, 4143.077, 2094.872, 4236.923, 4105.128, 4114.359, 450, 0, []
1631386321.4929, 105, 0, 4124.103, 2100, 4103.077, 4095.385, 4102.051, 450, 0, []
1631386321.5007, 106, 0, 4137.436, 2128.718, 4168.205, 4112.821, 4120.513, 450, 0, []
1631386321.5086, 107, 0, 4153.333, 2151.282, 4189.744, 4123.59, 4142.051, 16207, 0, []
1631386321.5164, 108, 0, 4149.744, 2147.179, 4144.615, 4119.487, 4132.821, 450, 0, []
1631386321.5242, 109, 0, 4144.615, 2134.359, 4263.077, 4118.974, 4118.974, 450, 0, []
1631386321.532, 110, 0, 4150.256, 2119.487, 4124.615, 4123.59, 4123.59, 450, 0, []
1631386321.5399, 111, 0, 4158.974, 2122.051, 4142.051, 4129.231, 4130.769, 16207, 0, []
1631386321.5477, 112, 0, 4153.846, 2206.154, 4192.821, 4129.231, 4133.333, 450, 0, []
1631386321.5556, 113, 0, 4133.846, 2188.205, 4153.846, 4116.923, 4121.538, 450, 0, []
1631386321.5633, 114, 0, 4127.692, 2152.821, 4252.308, 4104.615, 4101.026, 450, 0, []
1631386321.5713, 115, 0, 4149.744, 2585.641, 4104.103, 4113.846, 4107.179, 16207, 0, []
1631386321.5792, 116, 0, 4164.103, 3111.282, 4123.077, 4129.744, 4122.051, 450, 0, []
1631386321.5872, 117, 0, 4154.872, 3092.308, 4214.872, 4127.692, 4120, 450, 0, []
1631386321.5951, 118, 0, 4160, 2978.974, 4161.538, 4121.538, 4124.103, 450, 0, []
1631386321.603, 119, 0, 4169.744, 3112.308, 4252.821, 4125.128, 4136.923, 16207, 0, []
1631386321.6109, 120, 0, 4156.41, 3013.333, 4131.282, 4126.154, 4133.333, 450, 0, []
1631386321.6189, 121, 0, 4148.718, 2744.615, 4138.462, 4121.026, 4123.59, 450, 0, []
1631386321.6268, 122, 0, 4163.59, 2692.821, 4235.897, 4115.897, 4122.564, 450, 0, []
1631386321.6348, 123, 0, 4168.205, 2773.333, 4166.154, 4114.872, 4117.436, 16207, 0, []
1631386321.6426, 124, 0, 4161.026, 3008.718, 4256.41, 4116.923, 4117.436, 450, 0, []
1631386321.6504, 125, 0, 4163.077, 3500.513, 4160, 4114.872, 4130.769, 450, 0, []
1631386321.6583, 126, 0, 4165.128, 4324.103, 4130.769, 4111.795, 4134.359, 450, 0, []
1631386321.6661, 127, 0, 4155.897, 5205.641, 4183.59, 4112.308, 4121.026, 16207, 0, []
1631386321.674, 128, 0, 4146.667, 5272.821, 4083.077, 4118.974, 4115.385, 450, 0, []
1631386321.6818, 0, 0, 4142.564, 4602.051, 4209.744, 4127.179, 4119.487, 450, 0, []
1631386321.6896, 1, 0, 4148.205, 4864.103, 4169.231, 4120, 4118.974, 450, 0, []
1631386321.6974, 2, 0, 4166.154, 6479.487, 4143.59, 4107.692, 4122.051, 16169, 0, []
1631386321.7053, 3, 0, 4176.41, 7740, 4211.282, 4109.744, 4132.308, 450, 0, []
1631386321.7131, 4, 0, 4169.231, 7878.974, 4048.718, 4119.487, 4134.872, 239, 0, []
1631386321.7211, 5, 0, 4172.821, 7774.872, 4147.692, 4128.718, 4132.821, 450, 0, []
1631386321.7289, 6, 0, 4184.103, 7870.769, 4190.256, 4137.436, 4138.462, 184, 0, []
1631386321.7369, 7, 0, 4190.256, 7870.769, 4161.026, 4145.128, 4145.128, 450, 0, []
1631386321.7448, 8, 0, 4198.462, 7784.103, 4237.436, 4142.564, 4140.513, 450, 0, []
1631386321.7528, 9, 0, 4194.359, 7769.231, 4123.59, 4126.154, 4128.718, 16148, 0, []
1631386321.7607, 10, 0, 4193.846, 7771.795, 4186.667, 4118.462, 4130.256, 450, 0, []
1631386321.7686, 11, 0, 4218.974, 7769.744, 4169.744, 4128.205, 4150.256, 16233, 0, []
1631386321.7765, 12, 0, 4234.872, 7768.718, 4118.462, 4135.385, 4161.538, 450, 0, []
1631386321.7845, 13, 0, 4215.897, 7770.769, 4212.308, 4129.231, 4151.795, 450, 0, []
1631386321.7924, 14, 0, 4194.872, 7770.769, 4035.385, 4118.462, 4141.026, 450, 0, []
1631386321.8002, 15, 0, 4200, 7770.256, 4083.59, 4122.564, 4138.462, 16233, 0, []
1631386321.808, 16, 0, 4220.513, 7770.256, 4194.872, 4145.128, 4151.795, 0, 0, []
1631386321.8158, 17, 0, 4231.282, 7770.256, 4171.282, 4154.872, 4165.128, 0, 0, []
1631386321.8237, 18, 0, 4225.128, 7770.256, 4256.923, 4140.513, 4156.41, 0, 0, []
1631386321.8315, 19, 0, 4230.256, 7770.256, 4138.974, 4140.513, 4154.872, 0, 0, []
1631386321.8394, 20, 0, 4255.385, 7770.256, 4177.949, 4158.974, 4166.154, 0, 0, []
1631386321.8471, 21, 0, 4259.487, 7770.256, 4224.615, 4158.462, 4163.59, 0, 0, []
1631386321.855, 22, 0, 4245.641, 7770.256, 4149.744, 4141.538, 4154.359, 0, 0, []
1631386321.8628, 23, 0, 4248.718, 7770.256, 4248.718, 4136.41, 4147.692, 0, 0, []
1631386321.8708, 24, 0, 4256.41, 7770.256, 4127.692, 4140, 4145.128, 0, 0, []
1631386321.8787, 25, 0, 4260, 7770.256, 4144.615, 4148.205, 4152.308, 0, 0, []
1631386321.8866, 26, 0, 4273.846, 7770.256, 4224.103, 4155.897, 4167.692, 0, 0, []
1631386321.8945, 27, 0, 4284.103, 7770.256, 4125.128, 4148.205, 4170.769, 0, 0, []
1631386321.9025, 28, 0, 4276.41, 7770.256, 4214.872, 4134.359, 4165.128, 0, 0, []
1631386321.9104, 29, 0, 4270.256, 7770.256, 4134.359, 4126.154, 4165.641, 0, 0, []
1631386321.9184, 30, 0, 4289.231, 7770.256, 4136.923, 4129.231, 4169.231, 0, 0, []
1631386321.9262, 31, 0, 4328.718, 7770.256, 4208.718, 4138.974, 4190.256, 0, 0, []
1631386321.9342, 32, 0, 4363.59, 7770.256, 4080, 4129.231, 4223.077, 0, 0, []
1631386321.9421, 33, 0, 4396.923, 7770.256, 4193.333, 4108.718, 4242.564, 0, 0, []
1631386321.9499, 34, 0, 4457.949, 7770.256, 4186.154, 4115.385, 4272.821, 0, 0, []
1631386321.9578, 35, 0, 4527.179, 7770.256, 4170.769, 4140, 4321.026, 0, 0, []
1631386321.9656, 36, 0, 4553.333, 7770.256, 4236.41, 4148.718, 4343.59, 0, 0, []
1631386321.9734, 37, 0, 4542.564, 7770.256, 4100, 4156.923, 4346.154, 0, 0, []
1631386321.9812, 38, 0, 4530.256, 7770.256, 4173.846, 4166.667, 4348.205, 0, 0, []
1631386321.9891, 39, 0, 4512.821, 7770.256, 4174.359, 4148.205, 4332.308, 0, 0, []
1631386321.9969, 40, 0, 4485.641, 7770.256, 4173.846, 4124.615, 4303.59, 0, 0, []
1631386322.0048, 41, 0, 4464.103, 7770.256, 4252.308, 4128.718, 4288.205, 0, 0, []
1631386322.0125, 42, 0, 4446.154, 7770.256, 4114.359, 4146.154, 4283.077, 0, 0, []
1631386322.0204, 43, 0, 4435.897, 7770.256, 4229.231, 4162.564, 4277.436, 0, 0, []
1631386322.0282, 44, 0, 4425.641, 7770.256, 4251.282, 4168.718, 4273.333, 0, 0, []
1631386322.0362, 45, 0, 4410.256, 7770.256, 4175.385, 4173.333, 4267.179, 0, 0, []
1631386322.0441, 46, 0, 4393.333, 7770.256, 4240.513, 4174.872, 4254.359, 0, 0, []
1631386322.052, 47, 0, 4373.333, 7770.256, 4072.821, 4157.436, 4239.487, 0, 0, []
1631386322.0599, 48, 0, 4360.513, 7770.256, 4112.821, 4140.513, 4239.487, 0, 0, []
1631386322.0679, 49, 0, 4360, 7770.256, 4173.333, 4143.077, 4246.667, 0, 0, []
1631386322.0758, 50, 0, 4362.564, 7770.256, 4137.949, 4156.923, 4240, 0, 0, []
1631386322.0838, 51, 0, 4346.667, 7770.256, 4224.615, 4164.103, 4215.897, 0, 0, []
1631386322.0916, 52, 0, 4321.026, 7770.256, 4061.538, 4156.41, 4194.872, 0, 0, []
1631386322.0996, 53, 0, 4320.513, 7770.256, 4089.231, 4148.718, 4194.872, 0, 0, []
1631386322.1075, 54, 0, 4330.256, 7770.256, 4193.333, 4147.692, 4198.462, 0, 0, []
1631386322.1153, 55, 0, 4321.026, 7770.256, 4161.026, 4144.615, 4191.795, 0, 0, []
1631386322.1232, 56, 0, 4313.333, 7770.256, 4238.462, 4135.897, 4187.179, 0, 0, []
1631386322.1309, 57, 0, 4328.205, 7770.256, 4100.513, 4135.897, 4198.462, 0, 0, []
1631386322.1388, 58, 0, 4338.462, 7770.256, 4124.103, 4152.308, 4209.744, 0, 0, []
1631386322.1466, 59, 0, 4324.103, 7770.256, 4215.385, 4157.436, 4200, 0, 0, []
1631386322.1545, 60, 0, 4307.179, 7770.256, 4146.667, 4137.949, 4175.385, 0, 0, []
1631386322.1623, 61, 0, 4302.051, 7770.256, 4240, 4117.436, 4163.077, 0, 0, []
1631386322.1701, 62, 0, 4297.949, 7770.256, 4152.308, 4118.462, 4171.795, 0, 0, []
1631386322.1779, 63, 0, 4294.872, 7770.256, 4160, 4132.821, 4174.359, 0, 0, []
1631386322.1859, 64, 0, 4301.026, 7770.256, 4215.385, 4138.462, 4164.615, 450, 0, []
1631386322.1938, 65, 0, 4307.692, 7770.256, 4106.154, 4138.462, 4162.564, 450, 0, []
1631386322.2018, 66, 0, 4304.103, 7770.769, 4231.795, 4145.128, 4166.667, 16175, 0, []
1631386322.2097, 67, 0, 4290.256, 7777.949, 4188.205, 4137.949, 4160.513, 450, 0, []
1631386322.2176, 68, 0, 4278.462, 7828.205, 4169.744, 4120.513, 4140.513, 41, 0, []
1631386322.2255, 69, 0, 4282.051, 7879.487, 4222.564, 4121.538, 4134.359, 450, 0, []
1631386322.2335, 70, 0, 4289.231, 7825.641, 4068.205, 4129.744, 4148.205, 194, 0, []
1631386322.2414, 71, 0, 4289.744, 7880.513, 4171.282, 4125.641, 4150.769, 450, 0, []
1631386322.2494, 72, 0, 4290.769, 7882.051, 4163.59, 4127.692, 4152.821, 450, 0, []
1631386322.2572, 73, 0, 4302.051, 7049.744, 4139.487, 4142.564, 4164.103, 16140, 0, []
1631386322.2651, 74, 0, 4311.795, 5624.615, 4254.359, 4146.667, 4155.897, 450, 0, []
1631386322.273, 75, 0, 4299.487, 4682.051, 4121.538, 4126.154, 4134.872, 16225, 0, []
1631386322.2808, 76, 0, 4282.051, 4234.872, 4175.897, 4105.128, 4128.718, 450, 0, []
1631386322.2887, 77, 0, 4290.256, 3734.359, 4215.897, 4114.872, 4138.462, 450, 0, []
1631386322.2964, 78, 0, 4301.026, 3304.615, 4210.256, 4136.41, 4137.949, 450, 0, []
1631386322.3043, 79, 0, 4273.846, 3029.744, 4252.821, 4124.103, 4119.487, 16225, 0, []
1631386322.3121, 80, 0, 4250.256, 2742.051, 4065.128, 4110.256, 4108.205, 450, 0, []
1631386322.32, 81, 0, 4268.205, 2504.615, 4140, 4124.615, 4122.564, 450, 0, []
1631386322.3278, 82, 0, 4281.026, 2310.769, 4194.872, 4128.718, 4143.077, 450, 0, []
1631386322.3357, 83, 0, 4271.282, 2105.128, 4154.359, 4118.974, 4144.615, 16225, 0, []
1631386322.3436, 84, 0, 4267.692, 1904.615, 4266.667, 4126.667, 4139.487, 450, 0, []
1631386322.3516, 85, 0, 4272.821, 1733.846, 4138.974, 4129.231, 4141.026, 450, 0, []
1631386322.3595, 86, 0, 4281.538, 1586.667, 4164.103, 4121.026, 4145.128, 450, 0, []
1631386322.3675, 87, 0, 4290.256, 1432.821, 4211.282, 4123.077, 4145.128, 16225, 0, []
1631386322.3753, 88, 0, 4284.615, 1288.718, 4168.205, 4124.615, 4136.923, 450, 0, []
1631386322.3833, 89, 0, 4278.974, 1195.897, 4265.641, 4125.128, 4137.436, 450, 0, []
1631386322.3912, 90, 0, 4291.282, 1138.462, 4133.846, 4134.359, 4157.436, 450, 0, []
1631386322.3992, 91, 0, 4298.462, 1074.359, 4155.897, 4136.41, 4162.564, 16225, 0, []
1631386322.4071, 92, 0, 4272.821, 1014.359, 4222.564, 4125.128, 4133.333, 450, 0, []
1631386322.415, 93, 0, 4245.128, 968.205, 4148.205, 4122.051, 4115.385, 450, 0, []
1631386322.4229, 94, 0, 4250.769, 925.128, 4261.026, 4128.205, 4129.744, 450, 0, []
1631386322.4307, 95, 0, 4267.179, 889.231, 4171.282, 4129.744, 4149.231, 16225, 0, []
1631386322.4386, 96, 0, 4274.359, 860.513, 4156.923, 4135.385, 4164.615, 450, 0, []
1631386322.4464, 97, 0, 4284.615, 835.897, 4215.897, 4145.641, 4178.462, 450, 0, []
1631386322.4543, 98, 0, 4295.385, 815.385, 4138.974, 4147.692, 4183.59, 450, 0, []
1631386322.462, 99, 0, 4286.154, 809.744, 4274.359, 4138.462, 4170.769, 16225, 0, []
1631386322.47, 100, 0, 4265.128, 814.872, 4211.282, 4132.308, 4162.564, 450, 0, []
1631386322.4779, 101, 0, 4261.538, 816.41, 4152.821, 4142.564, 4172.308, 450, 0, []
1631386322.4859, 102, 0, 4274.872, 815.897, 4201.538, 4152.821, 4181.026, 450, 0, []
1631386322.4938, 103, 0, 4278.462, 816.41, 4116.41, 4151.282, 4180, 16225, 0, []
1631386322.5017, 104, 0, 4261.026, 816.923, 4258.462, 4139.487, 4163.077, 450, 0, []
1631386322.5096, 105, 0, 4240, 816.923, 4222.051, 4120.513, 4145.128, 450, 0, []
1631386322.5176, 106, 0, 4247.179, 816.923, 4156.923, 4122.051, 4147.179, 450, 0, []
1631386322.5255, 107, 0, 4267.692, 816.41, 4220, 4142.051, 4156.41, 16225, 0, []
1631386322.5335, 108, 0, 4253.846, 816.923, 4097.436, 4138.974, 4149.231, 450, 0, []
1631386322.5413, 109, 0, 4231.795, 816.923, 4204.103, 4125.641, 4134.872, 450, 0, []
1631386322.5493, 110, 0, 4238.974, 816.923, 4218.462, 4134.359, 4140.513, 450, 0, []
1631386322.5572, 111, 0, 4248.205, 816.923, 4174.359, 4136.41, 4147.179, 16225, 0, []
1631386322.5652, 112, 0, 4241.026, 816.923, 4240, 4128.205, 4146.154, 450, 0, []
1631386322.5731, 113, 0, 4244.103, 816.923, 4105.641, 4140, 4156.923, 450, 0, []
1631386322.5808, 114, 0, 4251.282, 816.923, 4194.359, 4152.821, 4161.538, 450, 0, []
1631386322.5887, 115, 0, 4243.077, 816.923, 4214.359, 4146.154, 4155.385, 16225, 0, []
1631386322.5965, 116, 0, 4248.205, 816.923, 4157.436, 4150.769, 4162.564, 450, 0, []
1631386322.6044, 117, 0, 4251.795, 816.923, 4258.974, 4154.872, 4167.179, 450, 0, []
1631386322.6122, 118, 0, 4228.205, 816.923, 4125.128, 4130.769, 4152.308, 450, 0, []
1631386322.62, 119, 0, 4224.615, 816.923, 4168.205, 4122.564, 4147.179, 16225, 0, []
1631386322.6278, 120, 0, 4257.436, 816.923, 4220, 4144.615, 4163.077, 450, 0, []
1631386322.6357, 121, 0, 4270.256, 816.923, 4167.692, 4161.026, 4170.256, 450, 0, []
1631386322.6435, 122, 0, 4251.795, 816.923, 4267.179, 4161.538, 4172.308, 450, 0, []
1631386322.6515, 123, 0, 4244.615, 816.923, 4133.846, 4153.846, 4174.359, 16225, 0, []
1631386322.6593, 124, 0, 4247.179, 816.923, 4152.308, 4139.487, 4161.538, 450, 0, []
1631386322.6673, 125, 0, 4244.103, 816.923, 4224.615, 4129.744, 4150.256, 450, 0, []
1631386322.6752, 126, 0, 4245.128, 816.923, 4159.487, 4135.897, 4156.923, 450, 0, []
1631386322.6832, 127, 0, 4251.282, 816.923, 4269.744, 4150.256, 4170.256, 16225, 0, []
1631386322.6911, 128, 0, 4245.641, 816.923, 4169.231, 4154.359, 4170.256, 450, 0, []
1631386322.6991, 0, 0, 4240, 816.923, 4156.923, 4143.077, 4157.436, 450, 0, []
1631386322.7069, 1, 0, 4229.231, 816.923, 4228.718, 4130.256, 4139.487, 450, 0, []
1631386322.7149, 2, 0, 4211.282, 816.923, 4161.538, 4128.205, 4132.308, 16189, 0, []
1631386322.7228, 3, 0, 4225.128, 816.923, 4269.231, 4136.923, 4149.231, 450, 0, []
1631386322.7306, 4, 0, 4255.385, 816.923, 4173.846, 4135.897, 4163.077, 187, 0, []
1631386322.7385, 5, 0, 4272.308, 816.923, 4152.821, 4135.897, 4168.718, 450, 0, []
1631386322.7462, 6, 0, 4278.462, 816.923, 4256.923, 4151.795, 4166.667, 243, 0, []
1631386322.7541, 7, 0, 4257.949, 816.923, 4168.205, 4151.795, 4141.538, 450, 0, []
1631386322.7619, 8, 0, 4216.923, 816.923, 4236.923, 4118.462, 4110.256, 450, 0, []
1631386322.7698, 9, 0, 4212.821, 816.923, 4171.795, 4102.564, 4115.385, 16161, 0, []
1631386322.7776, 10, 0, 4245.641, 816.923, 4182.564, 4128.718, 4137.949, 450, 0, []
1631386322.7854, 11, 0, 4252.821, 816.923, 4280, 4131.282, 4134.359, 16197, 0, []
1631386322.7932, 12, 0, 4238.462, 816.923, 4102.051, 4103.59, 4128.718, 450, 0, []
1631386322.8012, 13, 0, 4241.026, 816.923, 4164.615, 4106.154, 4137.436, 450, 0, []
1631386322.8091, 14, 0, 4250.256, 816.923, 4209.231, 4134.359, 4145.641, 450, 0, []
1631386322.8171, 15, 0, 4245.641, 816.923, 4213.333, 4146.667, 4145.641, 16197, 0, []
1631386322.8249, 16, 0, 4229.231, 816.923, 4254.359, 4130.769, 4129.744, 0, 0, []
1631386322.8329, 17, 0, 4210.256, 816.923, 4063.59, 4105.128, 4112.308, 0, 0, []
1631386322.8408, 18, 0, 4204.615, 816.923, 4171.795, 4097.949, 4110.769, 0, 0, []
1631386322.8488, 19, 0, 4211.282, 816.923, 4269.744, 4110.769, 4121.026, 0, 0, []
1631386322.8567, 20, 0, 4216.923, 816.923, 4219.487, 4115.385, 4128.205, 0, 0, []
1631386322.8646, 21, 0, 4222.564, 816.923, 4246.154, 4110.256, 4140.513, 0, 0, []
1631386322.8725, 22, 0, 4231.282, 816.923, 4091.795, 4121.026, 4157.436, 0, 0, []
1631386322.8803, 23, 0, 4233.333, 816.923, 4185.641, 4153.846, 4155.385, 0, 0, []
1631386322.8882, 24, 0, 4220.513, 816.923, 4244.103, 4165.128, 4137.949, 0, 0, []
1631386322.896, 25, 0, 4202.564, 816.923, 4156.41, 4132.821, 4124.615, 0, 0, []
1631386322.9038, 26, 0, 4198.974, 816.923, 4252.821, 4107.179, 4125.641, 0, 0, []
1631386322.9116, 27, 0, 4210.256, 816.923, 4127.179, 4109.744, 4142.051, 0, 0, []
1631386322.9195, 28, 0, 4221.026, 816.923, 4142.051, 4114.359, 4152.308, 0, 0, []
1631386322.9273, 29, 0, 4225.128, 816.923, 4214.872, 4119.487, 4151.282, 0, 0, []
1631386322.9352, 30, 0, 4221.026, 816.923, 4165.641, 4130.256, 4153.846, 0, 0, []
1631386322.9429, 31, 0, 4214.872, 816.923, 4272.308, 4135.385, 4156.41, 0, 0, []
1631386322.9508, 32, 0, 4209.744, 816.923, 4149.231, 4138.974, 4148.718, 0, 0, []
1631386322.9586, 33, 0, 4201.026, 816.923, 4140, 4143.077, 4137.436, 0, 0, []
1631386322.9666, 34, 0, 4208.718, 816.923, 4223.077, 4140, 4146.667, 0, 0, []
1631386322.9745, 35, 0, 4230.256, 816.923, 4182.564, 4137.436, 4168.205, 0, 0, []
1631386322.9825, 36, 0, 4225.641, 816.923, 4281.026, 4127.179, 4160.513, 0, 0, []
1631386322.9903, 37, 0, 4202.051, 816.923, 4156.41, 4107.179, 4133.846, 0, 0, []
1631386322.9983, 38, 0, 4203.59, 816.923, 4168.205, 4103.59, 4126.667, 0, 0, []
1631386323.0062, 39, 0, 4213.846, 816.923, 4258.974, 4114.872, 4135.385, 0, 0, []
1631386323.0142, 40, 0, 4215.897, 816.923, 4127.179, 4129.744, 4151.282, 0, 0, []
1631386323.0221, 41, 0, 4227.692, 816.41, 4200, 4151.282, 4171.282, 0, 0, []
1631386323.0299, 42, 0, 4232.821, 816.41, 4165.641, 4161.026, 4181.026, 0, 0, []
1631386323.0378, 43, 0, 4225.641, 816.923, 4196.41, 4147.179, 4170.769, 0, 0, []
1631386323.0456, 44, 0, 4215.897, 815.385, 4254.872, 4124.103, 4151.795, 0, 0, []
1631386323.0535, 45, 0, 4202.564, 816.923, 4080, 4102.564, 4135.897, 0, 0, []
1631386323.0613, 46, 0, 4203.59, 818.974, 4180, 4108.718, 4137.436, 0, 0, []
1631386323.0691, 47, 0, 4216.923, 818.974, 4207.179, 4138.462, 4151.795, 0, 0, []
1631386323.0769, 48, 0, 4213.333, 824.103, 4195.897, 4148.718, 4153.333, 0, 0, []
1631386323.0848, 49, 0, 4204.103, 830.769, 4237.949, 4134.359, 4144.615, 0, 0, []
1631386323.0926, 50, 0, 4209.231, 834.872, 4068.205, 4133.846, 4153.846, 0, 0, []
1631386323.1005, 51, 0, 4212.821, 843.077, 4184.615, 4142.051, 4166.667, 0, 0, []
1631386323.1082, 52, 0, 4208.205, 853.846, 4265.641, 4137.436, 4162.051, 0, 0, []
1631386323.1161, 53, 0, 4203.077, 862.051, 4214.359, 4139.487, 4153.333, 0, 0, []
1631386323.1239, 54, 0, 4201.026, 875.385, 4239.487, 4147.692, 4155.897, 0, 0, []
1631386323.1319, 55, 0, 4198.974, 897.949, 4095.385, 4133.846, 4157.436, 0, 0, []
1631386323.1398, 56, 0, 4184.615, 908.718, 4198.462, 4109.744, 4138.462, 0, 0, []
1631386323.1477, 57, 0, 4170.769, 909.744, 4247.179, 4103.59, 4120.513, 0, 0, []
1631386323.1556, 58, 0, 4181.026, 923.077, 4162.051, 4111.282, 4128.718, 0, 0, []
1631386323.1636, 59, 0, 4191.282, 938.974, 4251.795, 4110.256, 4140.513, 0, 0, []
1631386323.1715, 60, 0, 4180, 947.692, 4123.59, 4103.59, 4140, 0, 0, []
1631386323.1795, 61, 0, 4184.615, 950.769, 4147.179, 4115.385, 4142.051, 0, 0, []
1631386323.1873, 62, 0, 4202.051, 953.846, 4209.744, 4123.59, 4146.154, 0, 0, []
1631386323.1951, 63, 0, 4199.487, 964.103, 4166.667, 4109.744, 4137.436, 0, 0, []
1631386323.203, 64, 0, 4183.077, 980, 4290.769, 4109.231, 4132.821, 450, 0, []
1631386323.2108, 65, 0, 4168.718, 994.872, 4163.077, 4115.897, 4140, 450, 0, []
1631386323.2187, 66, 0, 4167.692, 1004.103, 4147.179, 4110.769, 4134.872, 16204, 0, []
1631386323.2265, 67, 0, 4179.487, 1011.282, 4231.795, 4120, 4136.923, 450, 0, []
1631386323.2343, 68, 0, 4191.282, 1028.205, 4178.462, 4134.872, 4163.59, 134, 0, []
1631386323.2421, 69, 0, 4188.205, 1046.154, 4252.308, 4129.231, 4172.308, 450, 0, []
1631386323.25, 70, 0, 4179.487, 1046.154, 4133.333, 4125.641, 4161.026, 16111, 0, []
1631386323.2578, 71, 0, 4186.154, 1048.718, 4168.718, 4137.436, 4166.154, 450, 0, []
1631386323.2657, 72, 0, 4187.179, 1070.769, 4262.564, 4127.179, 4176.923, 450, 0, []
1631386323.2734, 73, 0, 4173.333, 1095.385, 4120.513, 4109.744, 4173.333, 16144, 0, []
1631386323.2814, 74, 0, 4167.692, 1110.256, 4189.231, 4117.949, 4162.051, 450, 0, []
1631386323.2893, 75, 0, 4165.641, 1109.231, 4156.41, 4116.923, 4145.128, 16189, 0, []
1631386323.2972, 76, 0, 4163.077, 1113.333, 4185.641, 4101.538, 4138.462, 450, 0, []
1631386323.3051, 77, 0, 4181.026, 1139.487, 4250.256, 4105.128, 4156.41, 450, 0, []
1631386323.313, 78, 0, 4182.051, 1155.897, 4091.282, 4106.154, 4157.436, 450, 0, []
1631386323.321, 79, 0, 4155.897, 1151.282, 4190.769, 4096.41, 4132.821, 16189, 0, []
1631386323.3289, 80, 0, 4158.462, 1163.59, 4209.744, 4107.179, 4141.026, 450, 0, []
1631386323.3368, 81, 0, 4181.026, 1189.744, 4192.821, 4123.077, 4169.744, 450, 0, []
1631386323.3447, 82, 0, 4174.872, 1194.872, 4236.41, 4108.205, 4162.564, 450, 0, []
1631386323.3525, 83, 0, 4162.051, 1203.077, 4083.59, 4091.282, 4152.308, 16189, 0, []
1631386323.3603, 84, 0, 4174.359, 1226.154, 4199.487, 4103.077, 4170.769, 450, 0, []
1631386323.3682, 85, 0, 4172.308, 1230.256, 4242.051, 4104.103, 4165.128, 450, 0, []
1631386323.376, 86, 0, 4153.846, 1229.231, 4182.051, 4092.821, 4146.154, 450, 0, []
1631386323.3839, 87, 0, 4160, 1257.949, 4237.436, 4110.769, 4167.692, 16189, 0, []
1631386323.3916, 88, 0, 4177.949, 1290.256, 4112.821, 4134.872, 4195.897, 450, 0, []
1631386323.3996, 89, 0, 4177.949, 1291.282, 4203.077, 4133.333, 4186.154, 450, 0, []
1631386323.4075, 90, 0, 4166.154, 1290.256, 4220.513, 4122.051, 4169.231, 450, 0, []
1631386323.4154, 91, 0, 4168.205, 1318.462, 4145.128, 4113.333, 4172.821, 16189, 0, []
1631386323.4232, 92, 0, 4172.308, 1343.59, 4256.41, 4102.051, 4174.872, 450, 0, []
1631386323.4311, 93, 0, 4163.59, 1355.897, 4128.718, 4094.872, 4160.513, 450, 0, []
1631386323.439, 94, 0, 4166.667, 1378.462, 4148.718, 4102.051, 4153.846, 450, 0, []
1631386323.447, 95, 0, 4193.333, 1411.795, 4202.051, 4122.564, 4173.333, 16189, 0, []
1631386323.4549, 96, 0, 4211.282, 1434.872, 4162.051, 4141.026, 4193.846, 450, 0, []
1631386323.4629, 97, 0, 4195.897, 1442.564, 4276.41, 4137.436, 4185.641, 450, 0, []
1631386323.4708, 98, 0, 4170.256, 1452.821, 4141.026, 4115.385, 4168.718, 450, 0, []
1631386323.4787, 99, 0, 4167.179, 1475.897, 4137.949, 4104.615, 4165.641, 16189, 0, []
1631386323.4866, 100, 0, 4175.897, 1509.744, 4225.128, 4104.103, 4170.769, 450, 0, []
1631386323.4946, 101, 0, 4165.128, 1532.308, 4178.974, 4097.436, 4163.59, 450, 0, []
1631386323.5025, 102, 0, 4152.821, 1544.103, 4240.513, 4098.462, 4148.205, 450, 0, []
1631386323.5103, 103, 0, 4170.769, 1566.154, 4108.205, 4122.051, 4162.051, 16189, 0, []
1631386323.5181, 104, 0, 4192.308, 1586.154, 4167.179, 4142.051, 4193.846, 450, 0, []
1631386323.5259, 105, 0, 4185.128, 1600, 4271.795, 4127.692, 4195.897, 450, 0, []
1631386323.5338, 106, 0, 4171.795, 1629.231, 4133.333, 4108.718, 4178.462, 450, 0, []
1631386323.5416, 107, 0, 4166.154, 1654.359, 4199.487, 4107.179, 4168.205, 16189, 0, []
1631386323.5495, 108, 0, 4161.026, 1664.103, 4149.231, 4104.615, 4165.128, 450, 0, []
1631386323.5572, 109, 0, 4172.308, 1686.667, 4178.974, 4114.359, 4176.41, 450, 0, []
1631386323.5652, 110, 0, 4192.821, 1719.487, 4254.872, 4138.462, 4197.436, 450, 0, []
1631386323.5731, 111, 0, 4185.128, 1730.256, 4104.615, 4135.385, 4192.308, 16189, 0, []
1631386323.5811, 112, 0, 4170.256, 1736.41, 4189.744, 4114.359, 4174.359, 450, 0, []
1631386323.589, 113, 0, 4187.692, 1775.385, 4197.436, 4122.564, 4189.231, 450, 0, []
1631386323.5969, 114, 0, 4190.769, 1809.744, 4202.051, 4132.308, 4192.308, 450, 0, []
1631386323.6048, 115, 0, 4157.436, 1818.462, 4241.026, 4113.846, 4157.436, 16189, 0, []
1631386323.6128, 116, 0, 4147.179, 1844.103, 4072.821, 4111.282, 4150.256, 450, 0, []
1631386323.6207, 117, 0, 4160, 1873.333, 4191.282, 4126.667, 4168.718, 450, 0, []
1631386323.6287, 118, 0, 4160, 1877.949, 4253.846, 4127.692, 4166.667, 450, 0, []
1631386323.6365, 119, 0, 4169.231, 1884.615, 4215.385, 4134.872, 4173.333, 16189, 0, []
1631386323.6445, 120, 0, 4189.744, 1917.949, 4234.872, 4146.667, 4210.256, 450, 0, []
1631386323.6524, 121, 0, 4187.692, 1953.333, 4073.846, 4133.846, 4223.077, 450, 0, []
1631386323.6602, 122, 0, 4182.051, 1970.256, 4189.744, 4130.256, 4208.205, 450, 0, []
1631386323.6681, 123, 0, 4185.641, 1989.231, 4258.974, 4144.103, 4197.949, 16189, 0, []
1631386323.6758, 124, 0, 4180, 2011.795, 4202.051, 4136.923, 4187.179, 450, 0, []
1631386323.6837, 125, 0, 4185.641, 2023.077, 4254.872, 4132.308, 4190.769, 450, 0, []
1631386323.6915, 126, 0, 4197.436, 2034.872, 4103.59, 4152.308, 4209.231, 450, 0, []
1631386323.6994, 127, 0, 4187.179, 2057.949, 4175.385, 4164.103, 4205.128, 16189, 0, []
1631386323.7072, 128, 0, 4173.333, 2082.564, 4242.051, 4153.846, 4181.538, 450, 0, []
1631386323.715, 0, 0, 4171.795, 2107.692, 4176.923, 4140.513, 4166.667, 450, 0, []
1631386323.7228, 1, 0, 4170.769, 2128.205, 4260, 4130.256, 4164.103, 450, 0, []
1631386323.7307, 2, 0, 4169.231, 2140.513, 4125.128, 4129.231, 4176.41, 16184, 0, []
1631386323.7385, 3, 0, 4174.872, 2156.923, 4151.795, 4137.436, 4193.333, 450, 0, []
1631386323.7465, 4, 0, 4177.949, 2176.41, 4225.641, 4134.872, 4190.769, 255, 0, []
1631386323.7544, 5, 0, 4184.103, 2188.205, 4163.077, 4139.487, 4189.744, 450, 0, []
1631386323.7623, 6, 0, 4191.282, 2208.205, 4267.692, 4153.333, 4198.462, 313, 0, []
1631386323.7702, 7, 0, 4190.256, 2241.538, 4157.949, 4148.205, 4208.205, 450, 0, []
1631386323.7782, 8, 0, 4200, 2267.179, 4150.256, 4140, 4223.59, 450, 0, []
1631386323.7861, 9, 0, 4209.744, 2282.564, 4218.462, 4137.949, 4231.795, 16142, 0, []
1631386323.7941, 10, 0, 4195.897, 2297.436, 4139.487, 4124.615, 4222.564, 450, 0, []
1631386323.8019, 11, 0, 4176.923, 2308.205, 4258.974, 4116.41, 4203.077, 16204, 0, []
1631386323.8099, 12, 0, 4166.154, 2326.667, 4187.179, 4124.103, 4187.692, 450, 0, []
1631386323.8178, 13, 0, 4169.231, 2354.359, 4146.667, 4132.308, 4189.231, 450, 0, []
1631386323.8256, 14, 0, 4189.744, 2371.282, 4198.462, 4145.128, 4205.128, 450, 0, []
1631386323.8335, 15, 0, 4194.359, 2381.538, 4112.821, 4150.769, 4206.667, 16204, 0, []
1631386323.8412, 16, 0, 4173.846, 2395.385, 4235.385, 4130.256, 4191.282, 0, 0, []
1631386323.8491, 17, 0, 4173.846, 2411.282, 4196.923, 4114.872, 4197.436, 0, 0, []
1631386323.8569, 18, 0, 4197.436, 2435.897, 4190.256, 4128.718, 4216.923, 0, 0, []
1631386323.8648, 19, 0, 4204.615, 2458.462, 4253.846, 4131.282, 4212.308, 0, 0, []
1631386323.8726, 20, 0, 4201.538, 2473.846, 4075.897, 4121.026, 4206.154, 0, 0, []
1631386323.8804, 21, 0, 4224.615, 2493.846, 4172.821, 4132.821, 4230.769, 0, 0, []
1631386323.8882, 22, 0, 4274.872, 2519.487, 4223.077, 4144.615, 4272.821, 0, 0, []
1631386323.8962, 23, 0, 4331.795, 2540.513, 4189.231, 4132.821, 4312.308, 0, 0, []
1631386323.9041, 24, 0, 4382.564, 2556.41, 4250.256, 4130.256, 4354.872, 0, 0, []
1631386323.9121, 25, 0, 4415.385, 2569.231, 4138.974, 4136.923, 4383.077, 0, 0, []
1631386323.9199, 26, 0, 4422.564, 2576.923, 4222.051, 4127.179, 4384.615, 0, 0, []
1631386323.9279, 27, 0, 4416.923, 2589.744, 4232.308, 4125.128, 4387.179, 0, 0, []
1631386323.9358, 28, 0, 4412.308, 2612.821, 4187.179, 4135.897, 4391.795, 0, 0, []
1631386323.9438, 29, 0, 4400.513, 2642.564, 4264.615, 4127.692, 4383.59, 0, 0, []
1631386323.9517, 30, 0, 4381.538, 2670.769, 4113.333, 4114.872, 4371.282, 0, 0, []
1631386323.9596, 31, 0, 4360.513, 2687.692, 4189.231, 4120, 4355.897, 0, 0, []
1631386323.9675, 32, 0, 4346.154, 2706.667, 4259.487, 4127.692, 4345.128, 0, 0, []
1631386323.9753, 33, 0, 4343.077, 2720.513, 4187.692, 4133.846, 4345.641, 0, 0, []
1631386323.9832, 34, 0, 4330.769, 2729.744, 4270.769, 4139.487, 4332.821, 0, 0, []
1631386323.991, 35, 0, 4292.821, 2748.205, 4141.026, 4125.128, 4302.051, 0, 0, []
1631386323.9989, 36, 0, 4272.821, 2762.564, 4167.692, 4118.974, 4286.154, 0, 0, []
1631386324.0066, 37, 0, 4285.641, 2780, 4222.564, 4131.795, 4288.205, 0, 0, []
1631386324.0145, 38, 0, 4282.051, 2802.564, 4161.538, 4129.744, 4284.103, 0, 0, []
1631386324.0223, 39, 0, 4263.077, 2808.205, 4261.538, 4125.641, 4270.769, 0, 0, []
1631386324.0302, 40, 0, 4254.872, 2816.41, 4111.795, 4128.718, 4267.692, 0, 0, []
1631386324.038, 41, 0, 4247.179, 2843.077, 4132.821, 4118.974, 4263.59, 0, 0, []
1631386324.0459, 42, 0, 4233.333, 2863.59, 4269.744, 4107.692, 4243.077, 0, 0, []
1631386324.0538, 43, 0, 4226.154, 2879.487, 4203.077, 4111.795, 4231.795, 0, 0, []
1631386324.0618, 44, 0, 4231.282, 2902.564, 4277.949, 4121.026, 4240.513, 0, 0, []
1631386324.0697, 45, 0, 4228.718, 2916.41, 4182.051, 4126.667, 4243.077, 0, 0, []
1631386324.0777, 46, 0, 4220.513, 2926.667, 4155.897, 4130.256, 4232.308, 0, 0, []
1631386324.0855, 47, 0, 4216.41, 2938.462, 4187.692, 4124.615, 4225.128, 0, 0, []
1631386324.0935, 48, 0, 4209.744, 2950.769, 4090.769, 4120.513, 4221.026, 0, 0, []
1631386324.1014, 49, 0, 4207.179, 2972.821, 4222.564, 4125.641, 4219.487, 0, 0, []
1631386324.1094, 50, 0, 4206.667, 2991.282, 4171.795, 4126.667, 4220, 0, 0, []
1631386324.1173, 51, 0, 4205.641, 2997.949, 4173.333, 4126.667, 4220.513, 0, 0, []
1631386324.1252, 52, 0, 4214.872, 3011.282, 4287.692, 4131.795, 4228.718, 0, 0, []
1631386324.1331, 53, 0, 4229.231, 3037.436, 4148.205, 4138.462, 4239.487, 0, 0, []
1631386324.1409, 54, 0, 4224.615, 3068.205, 4209.231, 4144.103, 4234.359, 0, 0, []
1631386324.1488, 55, 0, 4194.872, 3084.615, 4206.667, 4122.564, 4211.282, 0, 0, []
1631386324.1566, 56, 0, 4177.949, 3062.564, 4182.564, 4092.821, 4194.359, 0, 0, []
1631386324.1644, 57, 0, 4192.821, 3038.974, 4234.359, 4101.026, 4203.077, 0, 0, []
1631386324.1722, 58, 0, 4205.128, 3022.051, 4092.821, 4122.564, 4216.923, 0, 0, []
1631386324.1801, 59, 0, 4206.154, 3038.974, 4214.872, 4125.128, 4214.359, 0, 0, []
1631386324.1879, 60, 0, 4207.692, 3121.538, 4259.487, 4117.949, 4208.205, 0, 0, []
1631386324.1958, 61, 0, 4209.744, 3145.128, 4207.179, 4122.051, 4205.641, 0, 0, []
1631386324.2035, 62, 0, 4202.051, 3518.974, 4266.667, 4129.744, 4200.513, 0, 0, []
1631386324.2114, 63, 0, 4190.256, 4694.359, 4084.615, 4124.103, 4201.538, 0, 0, []
1631386324.2192, 64, 0, 4186.667, 5849.744, 4129.231, 4115.385, 4205.641, 450, 0, []
1631386324.2272, 65, 0, 4192.821, 6338.974, 4225.641, 4120.513, 4203.59, 450, 0, []
1631386324.2351, 66, 0, 4195.385, 6823.59, 4210.769, 4128.718, 4199.487, 16175, 0, []
1631386324.2431, 67, 0, 4191.282, 7445.641, 4243.59, 4118.462, 4196.923, 450, 0, []
1631386324.2509, 68, 0, 4192.308, 7628.718, 4062.051, 4106.667, 4204.615, 16074, 0, []
1631386324.2589, 69, 0, 4194.872, 7558.462, 4138.974, 4113.333, 4209.231, 450, 0, []
1631386324.2668, 70, 0, 4194.872, 7621.538, 4238.974, 4125.641, 4198.462, 236, 0, []
1631386324.2748, 71, 0, 4194.359, 7720, 4187.692, 4125.641, 4187.179, 450, 0, []
1631386324.2827, 72, 0, 4192.308, 7783.077, 4265.641, 4116.923, 4182.564, 450, 0, []
1631386324.2905, 73, 0, 4195.897, 7795.385, 4093.846, 4111.282, 4184.103, 16159, 0, []
1631386324.2984, 74, 0, 4202.051, 7769.744, 4090.256, 4114.872, 4191.795, 450, 0, []
1631386324.3062, 75, 0, 4195.385, 7775.897, 4195.897, 4118.462, 4202.564, 16213, 0, []
1631386324.3142, 76, 0, 4175.897, 7780.513, 4144.615, 4110.769, 4196.41, 450, 0, []
1631386324.3221, 77, 0, 4167.179, 7769.231, 4243.59, 4106.154, 4176.923, 450, 0, []
1631386324.3299, 78, 0, 4178.462, 7770.256, 4136.923, 4125.128, 4182.564, 450, 0, []
1631386324.3377, 79, 0, 4190.769, 7769.231, 4126.667, 4140.513, 4197.949, 16213, 0, []
1631386324.3456, 80, 0, 4173.333, 7769.231, 4235.897, 4118.462, 4178.462, 450, 0, []
1631386324.3534, 81, 0, 4148.718, 7770.256, 4180, 4093.333, 4151.282, 450, 0, []
1631386324.3614, 82, 0, 4158.462, 7770.256, 4259.487, 4109.744, 4171.795, 450, 0, []
1631386324.3692, 83, 0, 4173.846, 7770.769, 4160, 4130.769, 4207.692, 16213, 0, []
1631386324.3771, 84, 0, 4171.795, 7770.256, 4159.487, 4128.718, 4200.513, 450, 0, []
1631386324.3849, 85, 0, 4169.744, 7770.769, 4252.821, 4131.795, 4181.026, 450, 0, []
1631386324.3929, 86, 0, 4169.744, 7770.256, 4103.59, 4140, 4185.128, 450, 0, []
1631386324.4008, 87, 0, 4172.308, 7770.256, 4191.282, 4131.282, 4182.051, 16213, 0, []
1631386324.4087, 88, 0, 4176.923, 7770.256, 4217.436, 4121.538, 4172.308, 450, 0, []
1631386324.4166, 89, 0, 4170.769, 7770.256, 4217.436, 4128.718, 4182.051, 450, 0, []
1631386324.4246, 90, 0, 4164.103, 7770.256, 4232.821, 4128.718, 4193.333, 450, 0, []
1631386324.4325, 91, 0, 4172.821, 7770.256, 4026.667, 4117.949, 4194.872, 16213, 0, []
1631386324.4403, 92, 0, 4187.179, 7770.256, 4141.026, 4120.513, 4196.923, 450, 0, []
1631386324.4481, 93, 0, 4192.308, 7770.256, 4222.564, 4129.744, 4196.41, 450, 0, []
1631386324.4559, 94, 0, 4184.103, 7770.256, 4201.538, 4134.359, 4185.128, 450, 0, []
1631386324.4638, 95, 0, 4181.538, 7770.256, 4263.59, 4146.667, 4183.077, 16213, 0, []
1631386324.4716, 96, 0, 4189.231, 7770.256, 4116.41, 4157.949, 4192.821, 450, 0, []
1631386324.4795, 97, 0, 4187.692, 7770.256, 4181.538, 4142.051, 4195.897, 450, 0, []
1631386324.4872, 98, 0, 4177.436, 7770.256, 4202.564, 4113.846, 4203.077, 450, 0, []
1631386324.4951, 99, 0, 4176.41, 7770.256, 4141.538, 4114.359, 4210.256, 16213, 0, []
1631386324.5029, 100, 0, 4185.128, 7770.256, 4246.667, 4142.051, 4206.154, 450, 0, []
1631386324.5109, 101, 0, 4188.205, 7770.256, 4149.744, 4157.436, 4201.026, 450, 0, []
1631386324.5188, 102, 0, 4184.103, 7770.256, 4208.718, 4146.154, 4190.256, 450, 0, []
1631386324.5268, 103, 0, 4175.385, 7770.256, 4235.385, 4127.179, 4168.718, 16213, 0, []
1631386324.5346, 104, 0, 4177.949, 7770.256, 4148.205, 4122.564, 4167.692, 450, 0, []
1631386324.5426, 105, 0, 4193.846, 7770.256, 4228.205, 4116.923, 4189.744, 450, 0, []
1631386324.5505, 106, 0, 4198.462, 7770.256, 4091.795, 4095.385, 4198.974, 450, 0, []
1631386324.5585, 107, 0, 4202.051, 7770.256, 4127.179, 4108.205, 4205.641, 16213, 0, []
1631386324.5664, 108, 0, 4209.231, 7770.256, 4220.513, 4149.231, 4221.538, 450, 0, []
1631386324.5743, 109, 0, 4216.923, 7770.256, 4153.333, 4166.154, 4223.59, 450, 0, []
1631386324.5822, 110, 0, 4223.59, 7770.256, 4256.41, 4168.718, 4209.744, 450, 0, []
1631386324.5902, 111, 0, 4213.846, 7770.256, 4166.667, 4166.154, 4204.103, 16213, 0, []
1631386324.5981, 112, 0, 4208.205, 7770.256, 4174.872, 4155.385, 4207.179, 450, 0, []
1631386324.6059, 113, 0, 4222.051, 7770.256, 4235.897, 4142.051, 4204.103, 450, 0, []
1631386324.6137, 114, 0, 4228.718, 7770.256, 4130.256, 4116.923, 4202.051, 450, 0, []
1631386324.6215, 115, 0, 4225.641, 7770.256, 4230.769, 4097.436, 4203.59, 16213, 0, []
1631386324.6294, 116, 0, 4247.179, 7770.256, 4170.769, 4115.897, 4222.051, 450, 0, []
1631386324.6372, 117, 0, 4290.769, 7770.256, 4173.846, 4152.821, 4256.923, 450, 0, []
1631386324.6451, 118, 0, 4338.462, 7770.256, 4240, 4168.205, 4287.179, 450, 0, []
1631386324.6528, 119, 0, 4382.051, 7770.256, 4099.487, 4163.59, 4311.282, 16213, 0, []
1631386324.6607, 120, 0, 4420, 7770.256, 4213.333, 4147.692, 4335.385, 450, 0, []
1631386324.6685, 121, 0, 4457.436, 7770.256, 4212.821, 4133.333, 4358.462, 450, 0, []
1631386324.6765, 122, 0, 4490.256, 7770.256, 4193.333, 4140.513, 4376.923, 450, 0, []
1631386324.6844, 123, 0, 4490.256, 7770.256, 4264.615, 4145.641, 4384.615, 16213, 0, []
1631386324.6923, 124, 0, 4460, 7770.256, 4110.256, 4133.846, 4371.795, 450, 0, []
1631386324.7002, 125, 0, 4434.359, 7770.256, 4160.513, 4122.051, 4349.231, 450, 0, []
1631386324.7082, 126, 0, 4418.974, 7770.256, 4173.333, 4112.308, 4334.359, 450, 0, []
1631386324.7161, 127, 0, 4402.564, 7770.256, 4174.872, 4103.59, 4326.154, 16213, 0, []
1631386324.7241, 128, 0, 4391.282, 7770.256, 4244.615, 4106.154, 4314.872, 450, 0, []
1631386324.7319, 0, 0, 4393.333, 7770.256, 4087.692, 4120, 4301.538, 450, 0, []
1631386324.7399, 1, 0, 4396.41, 7770.256, 4180, 4127.692, 4290.769, 450, 0, []
1631386324.7478, 2, 0, 4375.385, 7770.256, 4242.051, 4126.667, 4279.487, 16167, 0, []
1631386324.7556, 3, 0, 4355.385, 7770.256, 4214.872, 4134.359, 4269.231, 450, 0, []
1631386324.7635, 4, 0, 4360.513, 7770.256, 4277.949, 4148.718, 4265.128, 46, 0, []
1631386324.7713, 5, 0, 4358.462, 7770.256, 4111.795, 4147.692, 4258.462, 450, 0, []
1631386324.7791, 6, 0, 4346.154, 7770.256, 4179.487, 4137.949, 4249.231, 209, 0, []
1631386324.7869, 7, 0, 4346.667, 7770.256, 4254.359, 4139.487, 4255.385, 450, 0, []
1631386324.7948, 8, 0, 4351.282, 7770.256, 4197.949, 4152.821, 4268.718, 450, 0, []
1631386324.8026, 9, 0, 4348.718, 7770.256, 4287.692, 4160, 4261.026, 16158, 0, []
1631386324.8105, 10, 0, 4333.333, 7770.256, 4148.718, 4149.744, 4238.974, 450, 0, []
1631386324.8182, 11, 0, 4316.41, 7770.256, 4174.872, 4147.692, 4229.231, 16216, 0, []
1631386324.8262, 12, 0, 4314.359, 7770.256, 4250.769, 4161.538, 4233.333, 450, 0, []
1631386324.8341, 13, 0, 4312.821, 7770.256, 4170.769, 4156.923, 4224.103, 450, 0, []
1631386324.8421, 14, 0, 4300.513, 7770.256, 4263.59, 4141.538, 4213.333, 450, 0, []
1631386324.85, 15, 0, 4290.256, 7770.256, 4167.692, 4130.256, 4216.923, 16216, 0, []
1631386324.8579, 16, 0, 4293.846, 7770.256, 4175.897, 4121.026, 4214.359, 0, 0, []
1631386324.8658, 17, 0, 4302.564, 7770.256, 4233.846, 4120.513, 4213.333, 0, 0, []
1631386324.8738, 18, 0, 4299.487, 7770.256, 4136.923, 4120, 4214.359, 0, 0, []
1631386324.8817, 19, 0, 4282.051, 7770.769, 4243.077, 4115.897, 4202.564, 0, 0, []
1631386324.8897, 20, 0, 4270.769, 7777.436, 4177.436, 4122.564, 4204.103, 0, 0, []
1631386324.8975, 21, 0, 4275.897, 7816.923, 4178.974, 4141.538, 4220, 0, 0, []
1631386324.9053, 22, 0, 4283.077, 7854.872, 4233.846, 4148.718, 4220, 0, 0, []
1631386324.9132, 23, 0, 4273.333, 7821.026, 4098.974, 4141.538, 4203.59, 0, 0, []
1631386324.921, 24, 0, 4253.333, 7864.615, 4215.897, 4133.333, 4187.692, 0, 0, []
1631386324.9289, 25, 0, 4242.051, 7841.026, 4186.154, 4125.641, 4181.026, 0, 0, []
1631386324.9366, 26, 0, 4253.333, 7180, 4148.205, 4124.103, 4182.564, 0, 0, []
1631386324.9445, 27, 0, 4274.359, 6066.154, 4259.487, 4131.282, 4187.179, 0, 0, []
1631386324.9523, 28, 0, 4278.462, 5273.846, 4171.282, 4133.846, 4194.359, 0, 0, []
1631386324.9602, 29, 0, 4264.615, 4831.282, 4235.385, 4127.179, 4192.821, 0, 0, []
1631386324.968, 30, 0, 4262.051, 4373.846, 4222.051, 4127.179, 4183.59, 0, 0, []
1631386324.9759, 31, 0, 4269.744, 3981.026, 4215.897, 4132.821, 4185.641, 0, 0, []
1631386324.9838, 32, 0, 4257.436, 3703.59, 4292.308, 4126.154, 4180.513, 0, 0, []
1631386324.9918, 33, 0, 4237.949, 3435.897, 4135.897, 4121.026, 4164.103, 0, 0, []
1631386324.9997, 34, 0, 4242.051, 3203.59, 4213.333, 4134.872, 4164.103, 0, 0, []
1631386325.0077, 35, 0, 4241.538, 2984.103, 4243.59, 4141.026, 4167.179, 0, 0, []
1631386325.0155, 36, 0, 4230.256, 2773.846, 4209.231, 4137.949, 4161.538, 0, 0, []
1631386325.0235, 37, 0, 4231.795, 2599.487, 4277.949, 4134.359, 4163.077, 0, 0, []
1631386325.0314, 38, 0, 4230.256, 2441.026, 4095.385, 4114.872, 4160, 0, 0, []
1631386325.0394, 39, 0, 4217.436, 2281.538, 4157.436, 4097.436, 4149.231, 0, 0, []
1631386325.0473, 40, 0, 4212.821, 2128.205, 4238.462, 4106.667, 4151.282, 0, 0, []
1631386325.0551, 41, 0, 4224.615, 1998.462, 4189.231, 4121.538, 4161.026, 0, 0, []
1631386325.0629, 42, 0, 4233.846, 1878.974, 4274.872, 4133.846, 4166.154, 0, 0, []
1631386325.0707, 43, 0, 4229.744, 1761.026, 4133.333, 4148.205, 4171.795, 0, 0, []
1631386325.0786, 44, 0, 4236.41, 1645.128, 4153.333, 4145.128, 4171.795, 0, 0, []
1631386325.0864, 45, 0, 4249.744, 1544.615, 4215.897, 4128.205, 4169.231, 0, 0, []
1631386325.0943, 46, 0, 4250.256, 1465.128, 4175.385, 4128.718, 4173.846, 0, 0, []
1631386325.102, 47, 0, 4248.205, 1387.692, 4284.615, 4132.821, 4178.462, 0, 0, []
1631386325.11, 48, 0, 4249.744, 1307.179, 4157.436, 4117.949, 4173.846, 0, 0, []
1631386325.1179, 49, 0, 4221.026, 1230.256, 4157.949, 4095.897, 4151.795, 0, 0, []
1631386325.1259, 50, 0, 4169.744, 1167.179, 4220.513, 4073.333, 4116.923, 0, 0, []
1631386325.1338, 51, 0, 4170.769, 1128.205, 4152.308, 4081.026, 4111.795, 0, 0, []
1631386325.1417, 52, 0, 4218.462, 1110.769, 4290.769, 4124.615, 4153.333, 0, 0, []
1631386325.1496, 53, 0, 4240, 1083.59, 4204.615, 4146.154, 4191.282, 0, 0, []
1631386325.1576, 54, 0, 4232.308, 1040, 4158.462, 4139.487, 4193.333, 0, 0, []
1631386325.1655, 55, 0, 4232.308, 1013.333, 4225.128, 4143.077, 4182.051, 0, 0, []
1631386325.1735, 56, 0, 4233.846, 994.872, 4160.513, 4145.128, 4177.436, 0, 0, []
1631386325.1813, 57, 0, 4218.974, 972.308, 4290.769, 4119.487, 4165.128, 0, 0, []
1631386325.1893, 58, 0, 4196.41, 955.897, 4217.949, 4093.333, 4148.205, 0, 0, []
1631386325.1972, 59, 0, 4177.949, 937.436, 4152.308, 4094.872, 4138.974, 0, 0, []
1631386325.205, 60, 0, 4171.795, 913.333, 4225.128, 4109.744, 4132.821, 0, 0, []
1631386325.2129, 61, 0, 4185.641, 895.385, 4143.59, 4125.128, 4138.462, 0, 0, []
1631386325.2206, 62, 0, 4207.692, 887.692, 4253.333, 4144.615, 4161.538, 0, 0, []
1631386325.2285, 63, 0, 4207.179, 884.615, 4206.667, 4150.769, 4178.462, 0, 0, []
1631386325.2363, 64, 0, 4189.231, 875.897, 4162.051, 4131.282, 4170.769, 450, 0, []
1631386325.2442, 65, 0, 4191.282, 863.077, 4267.179, 4116.923, 4166.667, 450, 0, []
1631386325.252, 66, 0, 4198.462, 848.205, 4143.59, 4115.385, 4174.872, 16175, 0, []
1631386325.2598, 67, 0, 4189.231, 835.897, 4197.949, 4110.769, 4165.641, 450, 0, []
1631386325.2676, 68, 0, 4180, 834.872, 4192.821, 4108.205, 4150.769, 16225, 0, []
1631386325.2755, 69, 0, 4182.051, 834.872, 4182.051, 4123.077, 4160.513, 450, 0, []
1631386325.2833, 70, 0, 4184.615, 826.154, 4294.359, 4132.821, 4168.205, 171, 0, []
1631386325.2912, 71, 0, 4174.872, 818.974, 4124.103, 4118.462, 4151.282, 450, 0, []
1631386325.2991, 72, 0, 4170.769, 820.513, 4154.872, 4113.846, 4143.59, 450, 0, []
1631386325.307, 73, 0, 4176.41, 822.564, 4231.282, 4122.564, 4155.385, 16175, 0, []
1631386325.315, 74, 0, 4167.179, 819.487, 4227.179, 4118.462, 4155.385, 450, 0, []
1631386325.3229, 75, 0, 4149.744, 817.436, 4272.821, 4112.821, 4147.179, 16209, 0, []
1631386325.3308, 76, 0, 4147.179, 818.462, 4091.795, 4111.282, 4152.308, 450, 0, []
1631386325.3388, 77, 0, 4153.846, 817.436, 4178.462, 4112.308, 4154.872, 450, 0, []
1631386325.3466, 78, 0, 4160, 816.923, 4256.41, 4125.128, 4155.385, 450, 0, []
1631386325.3546, 79, 0, 4163.59, 816.923, 4159.487, 4140.513, 4163.077, 16209, 0, []
1631386325.3625, 80, 0, 4154.872, 817.436, 4281.538, 4139.487, 4165.641, 450, 0, []
1631386325.3703, 81, 0, 4150.769, 817.949, 4175.897, 4126.154, 4162.051, 450, 0, []
1631386325.3782, 82, 0, 4172.821, 817.436, 4148.718, 4115.897, 4158.974, 450, 0, []
1631386325.3859, 83, 0, 4183.59, 817.436, 4224.103, 4100, 4158.974, 16209, 0, []
1631386325.3938, 84, 0, 4160, 817.436, 4184.615, 4077.436, 4153.846, 450, 0, []
1631386325.4016, 85, 0, 4136.41, 817.436, 4256.41, 4082.051, 4145.128, 450, 0, []
1631386325.4095, 86, 0, 4133.333, 817.436, 4130.256, 4110.256, 4148.205, 450, 0, []
1631386325.4173, 87, 0, 4137.436, 817.436, 4161.538, 4123.077, 4152.821, 16209, 0, []
1631386325.4251, 88, 0, 4137.949, 817.436, 4244.615, 4123.59, 4153.333, 450, 0, []
1631386325.4329, 89, 0, 4133.333, 817.436, 4114.359, 4127.692, 4152.308, 450, 0, []
1631386325.4409, 90, 0, 4133.846, 817.436, 4217.949, 4124.615, 4144.103, 450, 0, []
1631386325.4488, 91, 0, 4140, 817.436, 4178.974, 4119.487, 4143.59, 16209, 0, []
1631386325.4568, 92, 0, 4138.462, 817.436, 4163.077, 4120, 4151.795, 450, 0, []
1631386325.4646, 93, 0, 4136.923, 817.949, 4227.179, 4119.487, 4154.872, 450, 0, []
1631386325.4726, 94, 0, 4141.538, 817.436, 4110.256, 4126.667, 4158.974, 450, 0, []
1631386325.4805, 95, 0, 4150.769, 816.41, 4231.795, 4145.128, 4166.667, 16209, 0, []
1631386325.4885, 96, 0, 4164.615, 818.462, 4232.821, 4154.359, 4163.59, 450, 0, []
1631386325.4964, 97, 0, 4167.692, 822.564, 4180.513, 4151.282, 4147.179, 450, 0, []
1631386325.5043, 98, 0, 4149.231, 819.487, 4232.308, 4148.205, 4127.179, 450, 0, []
1631386325.5122, 99, 0, 4133.846, 818.974, 4123.077, 4146.154, 4123.077, 16209, 0, []
1631386325.5202, 100, 0, 4137.436, 830.769, 4214.872, 4137.949, 4131.795, 450, 0, []
1631386325.5281, 101, 0, 4131.795, 838.462, 4201.026, 4119.487, 4124.615, 450, 0, []
1631386325.5359, 102, 0, 4109.231, 834.359, 4175.385, 4107.692, 4100, 450, 0, []
1631386325.5438, 103, 0, 4105.641, 830.769, 4277.436, 4117.949, 4086.667, 16209, 0, []
1631386325.5515, 104, 0, 4125.641, 836.41, 4117.436, 4134.872, 4093.846, 450, 0, []
1631386325.5594, 105, 0, 4132.821, 844.103, 4176.41, 4129.744, 4111.282, 450, 0, []
1631386325.5672, 106, 0, 4122.564, 847.179, 4239.487, 4110.769, 4125.128, 450, 0, []
1631386325.5751, 107, 0, 4134.872, 854.359, 4204.615, 4117.949, 4125.128, 16209, 0, []
1631386325.5829, 108, 0, 4148.718, 865.128, 4270.769, 4128.205, 4125.128, 450, 0, []
1631386325.5908, 109, 0, 4130.256, 870.769, 4107.692, 4110.256, 4126.667, 450, 0, []
1631386325.5987, 110, 0, 4118.974, 870.256, 4155.897, 4103.077, 4119.487, 450, 0, []
1631386325.6066, 111, 0, 4123.077, 874.359, 4236.41, 4109.231, 4107.179, 16209, 0, []
1631386325.6144, 112, 0, 4120, 884.615, 4186.154, 4108.205, 4109.231, 450, 0, []
1631386325.6224, 113, 0, 4124.615, 893.333, 4246.154, 4120.513, 4124.615, 450, 0, []
1631386325.6302, 114, 0, 4121.538, 897.436, 4101.538, 4137.436, 4124.103, 450, 0, []
1631386325.6382, 115, 0, 4103.59, 908.205, 4161.538, 4135.897, 4112.308, 16209, 0, []
1631386325.6461, 116, 0, 4112.821, 926.667, 4243.077, 4126.667, 4117.949, 450, 0, []
1631386325.6541, 117, 0, 4143.59, 932.308, 4153.333, 4111.282, 4128.718, 450, 0, []
1631386325.662, 118, 0, 4144.103, 928.718, 4276.41, 4085.128, 4117.949, 450, 0, []
1631386325.6698, 119, 0, 4133.846, 940.513, 4177.949, 4075.385, 4106.154, 16209, 0, []
1631386325.6777, 120, 0, 4144.103, 954.359, 4154.872, 4100.513, 4109.231, 450, 0, []
1631386325.6855, 121, 0, 4145.641, 956.923, 4247.692, 4123.59, 4112.821, 450, 0, []
1631386325.6934, 122, 0, 4127.692, 967.692, 4176.41, 4116.923, 4107.692, 450, 0, []
1631386325.7012, 123, 0, 4118.974, 986.154, 4239.487, 4102.051, 4099.487, 16209, 0, []
1631386325.709, 124, 0, 4120.513, 985.641, 4151.282, 4093.846, 4103.077, 450, 0, []
1631386325.7168, 125, 0, 4119.487, 983.59, 4171.282, 4086.667, 4108.718, 450, 0, []
1631386325.7247, 126, 0, 4123.077, 1001.538, 4246.154, 4092.821, 4109.744, 450, 0, []
1631386325.7325, 127, 0, 4121.026, 1019.487, 4108.205, 4104.103, 4112.308, 16209, 0, []
1631386325.7404, 128, 0, 4104.615, 1023.59, 4234.872, 4096.41, 4103.077, 450, 0, []
1631386325.7481, 0, 0, 4101.026, 1033.846, 4225.128, 4091.795, 4096.41, 450, 0, []
1631386325.7561, 1, 0, 4118.462, 1051.282, 4168.718, 4106.667, 4112.821, 450, 0, []
1631386325.764, 2, 0, 4130.256, 1061.538, 4244.103, 4110.769, 4126.667, 16175, 0, []
1631386325.772, 3, 0, 4134.359, 1070.256, 4154.359, 4105.641, 4128.205, 450, 0, []
1631386325.7799, 4, 0, 4144.103, 1082.564, 4217.949, 4113.846, 4140, 262, 0, []
1631386325.7879, 5, 0, 4140.513, 1096.923, 4191.282, 4110.769, 4138.462, 450, 0, []
1631386325.7957, 6, 0, 4131.282, 1112.308, 4206.154, 4103.077, 4123.59, 175, 0, []
1631386325.8037, 7, 0, 4138.974, 1123.077, 4277.949, 4116.41, 4132.308, 450, 0, []
1631386325.8116, 8, 0, 4143.59, 1134.872, 4073.846, 4126.154, 4142.051, 450, 0, []
1631386325.8196, 9, 0, 4132.821, 1148.718, 4182.051, 4123.59, 4130.256, 16169, 0, []
1631386325.8275, 10, 0, 4121.538, 1158.974, 4265.641, 4127.179, 4123.59, 450, 0, []
1631386325.8352, 11, 0, 4122.051, 1168.205, 4197.436, 4126.667, 4127.179, 16213, 0, []
1631386325.8431, 12, 0, 4123.077, 1182.564, 4269.231, 4115.385, 4123.077, 450, 0, []
1631386325.8509, 13, 0, 4120, 1208.205, 4131.282, 4106.667, 4128.718, 450, 0, []
1631386325.8588, 14, 0, 4122.051, 1232.821, 4158.974, 4108.205, 4133.333, 450, 0, []
1631386325.8666, 15, 0, 4113.846, 1235.897, 4207.179, 4103.077, 4121.026, 16213, 0, []
1631386325.8744, 16, 0, 4100.513, 1240, 4172.821, 4094.359, 4119.487, 0, 0, []
1631386325.8822, 17, 0, 4114.359, 1262.051, 4263.59, 4102.564, 4134.872, 0, 0, []
1631386325.8901, 18, 0, 4138.974, 1277.949, 4108.205, 4118.462, 4146.667, 0, 0, []
1631386325.8979, 19, 0, 4138.462, 1296.923, 4144.103, 4124.615, 4149.744, 0, 0, []
1631386325.9059, 20, 0, 4130.769, 1328.205, 4256.41, 4126.667, 4151.282, 0, 0, []
1631386325.9137, 21, 0, 4137.949, 1349.231, 4195.385, 4129.744, 4157.436, 0, 0, []
1631386325.9217, 22, 0, 4153.846, 1365.128, 4239.487, 4130.256, 4164.103, 0, 0, []
1631386325.9296, 23, 0, 4150.256, 1388.205, 4107.692, 4122.564, 4157.949, 0, 0, []
1631386325.9376, 24, 0, 4125.128, 1401.026, 4148.718, 4112.308, 4137.949, 0, 0, []
1631386325.9455, 25, 0, 4124.103, 1417.949, 4221.026, 4112.308, 4137.949, 0, 0, []
1631386325.9534, 26, 0, 4138.974, 1448.205, 4115.385, 4117.949, 4151.282, 0, 0, []
1631386325.9613, 27, 0, 4126.154, 1466.154, 4249.231, 4114.872, 4138.462, 0, 0, []
1631386325.9693, 28, 0, 4114.872, 1480, 4189.744, 4113.333, 4125.641, 0, 0, []
1631386325.9772, 29, 0, 4129.744, 1492.308, 4133.846, 4117.436, 4138.974, 0, 0, []
1631386325.985, 30, 0, 4135.897, 1506.667, 4195.385, 4115.385, 4142.564, 0, 0, []
1631386325.9928, 31, 0, 4136.41, 1544.103, 4144.615, 4116.923, 4135.385, 0, 0, []
1631386326.0006, 32, 0, 4145.128, 1569.744, 4249.231, 4116.41, 4141.026, 0, 0, []
1631386326.0085, 33, 0, 4138.974, 1569.744, 4162.051, 4093.333, 4141.538, 0, 0, []
1631386326.0163, 34, 0, 4128.718, 1584.103, 4166.154, 4080.513, 4124.103, 0, 0, []
1631386326.0242, 35, 0, 4139.487, 1609.744, 4273.333, 4104.103, 4128.718, 0, 0, []
1631386326.0319, 36, 0, 4157.436, 1628.205, 4103.077, 4130.256, 4153.333, 0, 0, []
1631386326.0398, 37, 0, 4165.128, 1654.872, 4175.897, 4136.923, 4151.795, 0, 0, []
1631386326.0476, 38, 0, 4150.256, 1683.077, 4212.308, 4121.026, 4128.718, 0, 0, []
1631386326.0555, 39, 0, 4134.359, 1702.564, 4203.077, 4097.436, 4119.487, 0, 0, []
1631386326.0633, 40, 0, 4140, 1720, 4243.59, 4091.282, 4125.128, 0, 0, []
1631386326.0713, 41, 0, 4142.051, 1725.641, 4078.974, 4090.769, 4127.692, 0, 0, []
1631386326.0791, 42, 0, 4130.769, 1729.231, 4190.769, 4087.692, 4120, 0, 0, []
1631386326.0871, 43, 0, 4118.974, 1743.59, 4233.846, 4085.128, 4108.718, 0, 0, []
1631386326.095, 44, 0, 4119.487, 1757.949, 4169.231, 4087.179, 4102.051, 0, 0, []
