Timestamp, COUNTER, INTERPOLATED, AF3, T7, Pz, T8, AF4, RAW_CQ, MARKER_HARDWARE, MARKERS
1628616511.5475, 121, 0, 4185.641, 4231.282, 4075.385, 4134.359, 4138.974, 450, 0, []
1628616511.5554, 122, 0, 4189.231, 4252.821, 4074.872, 4140.513, 4152.308, 450, 0, []
1628616511.5632, 123, 0, 4188.205, 4245.128, 4053.333, 4140, 4163.077, 16187, 0, []
1628616511.5711, 124, 0, 4182.051, 4223.077, 4073.846, 4142.564, 4151.795, 450, 0, []
1628616511.5788, 125, 0, 4187.179, 4250.256, 4050.769, 4155.385, 4150.769, 450, 0, []
1628616511.5868, 126, 0, 4199.487, 4262.051, 4079.487, 4176.923, 4172.821, 450, 0, []
1628616511.5947, 127, 0, 4201.538, 4235.385, 4097.436, 4174.359, 4178.462, 16187, 0, []
1628616511.6027, 128, 0, 4191.282, 4237.436, 4065.641, 4158.462, 4161.026, 450, 0, []
1628616511.6106, 0, 0, 4188.205, 4247.692, 4089.231, 4166.667, 4162.564, 450, 0, []
1628616511.6185, 1, 0, 4197.436, 4238.974, 4075.385, 4164.103, 4176.923, 450, 0, []
1628616511.6264, 2, 0, 4203.59, 4240, 4075.385, 4155.385, 4174.359, 16192, 0, []
1628616511.6344, 3, 0, 4190.769, 4241.538, 4085.641, 4154.872, 4155.897, 450, 0, []
1628616511.6423, 4, 0, 4180, 4226.667, 4060, 4151.282, 4142.564, 16129, 0, []
1628616511.6503, 5, 0, 4188.718, 4233.846, 4082.564, 4151.795, 4146.667, 450, 0, []
1628616511.6581, 6, 0, 4191.282, 4241.538, 4091.282, 4148.205, 4149.744, 16071, 0, []
1628616511.6659, 7, 0, 4184.615, 4213.333, 4083.077, 4142.564, 4143.077, 450, 0, []
1628616511.6738, 8, 0, 4183.077, 4203.59, 4076.41, 4135.897, 4142.051, 450, 0, []
1628616511.6816, 9, 0, 4183.59, 4228.205, 4069.231, 4131.282, 4149.744, 16123, 0, []
1628616511.6895, 10, 0, 4178.974, 4231.795, 4091.795, 4137.436, 4157.436, 450, 0, []
1628616511.6972, 11, 0, 4173.846, 4213.333, 4069.231, 4130.256, 4153.333, 16204, 0, []
1628616511.7051, 12, 0, 4179.487, 4226.154, 4069.744, 4127.179, 4152.308, 450, 0, []
1628616511.7129, 13, 0, 4187.692, 4240, 4092.308, 4145.128, 4162.564, 450, 0, []
1628616511.7208, 14, 0, 4184.615, 4213.846, 4062.051, 4150.769, 4167.692, 450, 0, []
1628616511.7286, 15, 0, 4184.103, 4206.667, 4073.333, 4146.667, 4163.077, 16204, 0, []
1628616511.7365, 16, 0, 4185.641, 4222.564, 4064.615, 4134.872, 4151.795, 0, 0, []
1628616511.7444, 17, 0, 4184.103, 4202.051, 4055.897, 4129.744, 4146.154, 0, 0, []
1628616511.7523, 18, 0, 4188.718, 4190.769, 4076.923, 4144.615, 4155.897, 0, 0, []
1628616511.7602, 19, 0, 4195.385, 4230.256, 4057.436, 4150.769, 4165.641, 0, 0, []
1628616511.768, 20, 0, 4193.333, 4243.077, 4076.923, 4147.692, 4157.949, 0, 0, []
1628616511.7759, 21, 0, 4185.128, 4209.231, 4066.154, 4143.59, 4145.128, 0, 0, []
1628616511.7838, 22, 0, 4181.026, 4213.333, 4047.179, 4144.103, 4148.205, 0, 0, []
1628616511.7917, 23, 0, 4196.41, 4245.641, 4087.179, 4150.769, 4168.718, 0, 0, []
1628616511.7997, 24, 0, 4207.692, 4232.821, 4083.59, 4152.308, 4179.487, 0, 0, []
1628616511.8076, 25, 0, 4186.667, 4201.538, 4090.769, 4153.333, 4162.564, 0, 0, []
1628616511.8155, 26, 0, 4163.59, 4207.179, 4076.923, 4141.538, 4142.051, 0, 0, []
1628616511.8234, 27, 0, 4156.41, 4216.923, 4067.179, 4128.205, 4132.821, 0, 0, []
1628616511.8312, 28, 0, 4159.487, 4213.846, 4086.667, 4135.385, 4138.974, 0, 0, []
1628616511.8391, 29, 0, 4173.333, 4225.128, 4032.821, 4141.538, 4155.385, 0, 0, []
1628616511.8469, 30, 0, 4180, 4230.256, 4051.795, 4143.59, 4154.872, 0, 0, []
1628616511.8547, 31, 0, 4169.744, 4212.308, 4112.821, 4142.051, 4144.103, 0, 0, []
1628616511.8625, 32, 0, 4165.641, 4216.41, 4102.051, 4149.231, 4151.282, 0, 0, []
1628616511.8704, 33, 0, 4175.897, 4235.897, 4094.359, 4176.923, 4165.128, 0, 0, []
1628616511.8782, 34, 0, 4177.949, 4221.026, 4079.487, 4189.231, 4160, 0, 0, []
1628616511.8861, 35, 0, 4172.821, 4203.077, 4106.667, 4191.795, 4152.821, 0, 0, []
1628616511.8939, 36, 0, 4175.897, 4225.128, 4089.744, 4176.923, 4157.949, 0, 0, []
1628616511.9018, 37, 0, 4177.436, 4241.026, 4032.308, 4148.205, 4161.026, 0, 0, []
1628616511.9097, 38, 0, 4172.308, 4226.667, 4077.436, 4136.923, 4157.949, 0, 0, []
1628616511.9177, 39, 0, 4171.795, 4222.051, 4102.051, 4128.205, 4151.282, 0, 0, []
1628616511.9256, 40, 0, 4180.513, 4225.641, 4098.462, 4132.308, 4151.795, 0, 0, []
1628616511.9336, 41, 0, 4188.718, 4234.359, 4101.538, 4155.897, 4162.051, 0, 0, []
1628616511.9414, 42, 0, 4188.205, 4247.179, 4107.692, 4177.436, 4170.769, 0, 0, []
1628616511.9494, 43, 0, 4187.692, 4236.923, 4138.462, 4190.769, 4179.487, 0, 0, []
1628616511.9573, 44, 0, 4198.462, 4223.59, 4081.538, 4182.564, 4190.769, 0, 0, []
1628616511.9653, 45, 0, 4200, 4231.282, 4072.308, 4171.795, 4184.615, 0, 0, []
1628616511.9732, 46, 0, 4177.436, 4228.718, 4138.974, 4162.564, 4156.923, 0, 0, []
1628616511.9809, 47, 0, 4165.641, 4207.692, 4116.41, 4138.974, 4137.436, 0, 0, []
1628616511.9888, 48, 0, 4184.615, 4220.513, 4093.333, 4125.641, 4140, 0, 0, []
1628616511.9966, 49, 0, 4200.513, 4249.231, 4093.333, 4128.205, 4143.59, 0, 0, []
1628616512.0045, 50, 0, 4197.436, 4248.205, 4106.667, 4142.051, 4138.462, 0, 0, []
1628616512.0123, 51, 0, 4191.795, 4248.718, 4111.795, 4154.872, 4138.462, 0, 0, []
1628616512.0201, 52, 0, 4178.974, 4254.872, 4075.897, 4150.769, 4134.872, 0, 0, []
1628616512.0279, 53, 0, 4168.718, 4241.026, 4089.231, 4147.692, 4122.051, 0, 0, []
1628616512.0358, 54, 0, 4170.769, 4229.744, 4085.128, 4136.923, 4112.821, 0, 0, []
1628616512.0436, 55, 0, 4173.333, 4239.487, 4087.179, 4130.256, 4123.59, 0, 0, []
1628616512.0516, 56, 0, 4180.513, 4243.077, 4128.205, 4147.692, 4146.154, 0, 0, []
1628616512.0594, 57, 0, 4188.718, 4234.359, 4100.513, 4152.308, 4154.872, 0, 0, []
1628616512.0674, 58, 0, 4190.769, 4237.436, 4096.41, 4150.256, 4156.923, 0, 0, []
1628616512.0753, 59, 0, 4186.154, 4243.59, 4103.077, 4155.897, 4156.923, 0, 0, []
1628616512.0833, 60, 0, 4182.051, 4242.051, 4096.41, 4161.538, 4151.282, 0, 0, []
1628616512.0912, 61, 0, 4178.974, 4253.846, 4112.821, 4166.154, 4150.256, 0, 0, []
1628616512.0991, 62, 0, 4169.744, 4261.026, 4079.487, 4157.949, 4150.256, 0, 0, []
1628616512.107, 63, 0, 4166.154, 4235.897, 4085.641, 4154.359, 4140.513, 0, 0, []
1628616512.115, 64, 0, 4178.974, 4222.051, 4092.821, 4155.897, 4136.41, 450, 0, []
1628616512.1229, 65, 0, 4195.385, 4236.923, 4073.333, 4155.385, 4146.667, 450, 0, []
1628616512.1308, 66, 0, 4204.615, 4246.667, 4100.513, 4159.487, 4156.41, 16195, 0, []
1628616512.1386, 67, 0, 4207.179, 4265.128, 4093.333, 4157.436, 4162.564, 450, 0, []
1628616512.1466, 68, 0, 4206.667, 4282.564, 4104.615, 4164.615, 4165.128, 16135, 0, []
1628616512.1545, 69, 0, 4205.128, 4250.769, 4100, 4167.179, 4163.077, 450, 0, []
1628616512.1623, 70, 0, 4210.769, 4231.282, 4064.103, 4159.487, 4165.641, 16074, 0, []
1628616512.1702, 71, 0, 4222.051, 4253.846, 4100, 4165.641, 4173.333, 450, 0, []
1628616512.1779, 72, 0, 4218.462, 4246.154, 4092.308, 4167.692, 4167.692, 450, 0, []
1628616512.1858, 73, 0, 4199.487, 4231.282, 4085.641, 4156.923, 4151.282, 16125, 0, []
1628616512.1936, 74, 0, 4197.436, 4242.051, 4092.308, 4143.077, 4143.077, 450, 0, []
1628616512.2016, 75, 0, 4207.692, 4237.949, 4063.077, 4139.487, 4146.154, 16188, 0, []
1628616512.2095, 76, 0, 4211.282, 4223.077, 4086.154, 4155.385, 4157.436, 450, 0, []
1628616512.2174, 77, 0, 4209.231, 4227.179, 4080.513, 4155.897, 4163.077, 450, 0, []
1628616512.2253, 78, 0, 4206.154, 4240, 4075.385, 4147.692, 4157.949, 450, 0, []
1628616512.2333, 79, 0, 4203.077, 4241.538, 4089.231, 4147.692, 4153.333, 16188, 0, []
1628616512.2412, 80, 0, 4198.462, 4231.795, 4069.231, 4141.538, 4153.333, 450, 0, []
1628616512.2492, 81, 0, 4191.795, 4244.615, 4084.615, 4133.333, 4152.821, 450, 0, []
1628616512.257, 82, 0, 4189.231, 4275.385, 4071.282, 4126.667, 4152.308, 450, 0, []
1628616512.265, 83, 0, 4198.462, 4261.026, 4082.051, 4138.974, 4156.923, 16188, 0, []
1628616512.2729, 84, 0, 4205.128, 4230.256, 4114.359, 4152.821, 4160, 450, 0, []
1628616512.2809, 85, 0, 4196.923, 4228.205, 4069.231, 4140, 4158.974, 450, 0, []
1628616512.2888, 86, 0, 4187.179, 4228.718, 4076.41, 4141.026, 4158.974, 450, 0, []
1628616512.2965, 87, 0, 4181.026, 4237.949, 4091.282, 4149.231, 4154.359, 16188, 0, []
1628616512.3044, 88, 0, 4181.026, 4255.385, 4078.462, 4141.538, 4145.128, 450, 0, []
1628616512.3122, 89, 0, 4185.641, 4240, 4083.077, 4137.949, 4142.564, 450, 0, []
1628616512.3201, 90, 0, 4189.231, 4219.487, 4060, 4137.436, 4146.667, 450, 0, []
1628616512.3279, 91, 0, 4198.974, 4252.308, 4087.179, 4146.667, 4155.385, 16188, 0, []
1628616512.3357, 92, 0, 4212.821, 4275.385, 4088.205, 4153.846, 4162.564, 450, 0, []
1628616512.3435, 93, 0, 4205.641, 4240.513, 4058.462, 4143.077, 4150.769, 450, 0, []
1628616512.3515, 94, 0, 4186.667, 4218.974, 4075.385, 4136.41, 4137.436, 450, 0, []
1628616512.3594, 95, 0, 4188.718, 4232.821, 4061.538, 4137.949, 4141.538, 16188, 0, []
1628616512.3674, 96, 0, 4206.154, 4245.128, 4077.949, 4143.59, 4155.897, 450, 0, []
1628616512.3752, 97, 0, 4208.718, 4234.872, 4078.462, 4139.487, 4157.949, 450, 0, []
1628616512.3832, 98, 0, 4196.41, 4212.308, 4055.385, 4128.205, 4138.974, 450, 0, []
1628616512.3911, 99, 0, 4201.538, 4225.641, 4085.641, 4133.846, 4137.949, 16188, 0, []
1628616512.3991, 100, 0, 4218.462, 4256.923, 4076.923, 4142.051, 4160.513, 450, 0, []
1628616512.407, 101, 0, 4210.256, 4236.923, 4082.564, 4142.051, 4160, 450, 0, []
1628616512.4149, 102, 0, 4194.359, 4209.744, 4059.487, 4126.667, 4145.128, 450, 0, []
1628616512.4228, 103, 0, 4202.051, 4230.769, 4020.513, 4124.615, 4153.333, 16188, 0, []
1628616512.4308, 104, 0, 4211.282, 4242.051, 4090.256, 4149.231, 4173.333, 450, 0, []
1628616512.4387, 105, 0, 4203.077, 4237.436, 4108.205, 4144.103, 4174.359, 450, 0, []
1628616512.4465, 106, 0, 4204.615, 4253.333, 4087.179, 4136.923, 4173.846, 450, 0, []
1628616512.4543, 107, 0, 4201.538, 4262.564, 4086.667, 4149.744, 4174.359, 16188, 0, []
1628616512.4621, 108, 0, 4182.564, 4248.205, 4066.154, 4145.641, 4160, 450, 0, []
1628616512.47, 109, 0, 4189.744, 4236.923, 4079.487, 4141.538, 4155.385, 450, 0, []
1628616512.4778, 110, 0, 4216.41, 4238.974, 4074.359, 4139.487, 4165.641, 450, 0, []
1628616512.4857, 111, 0, 4224.615, 4247.692, 4080.513, 4134.872, 4165.641, 16188, 0, []
1628616512.4934, 112, 0, 4234.359, 4268.205, 4082.564, 4133.333, 4166.154, 450, 0, []
1628616512.5013, 113, 0, 4242.564, 4276.923, 4063.077, 4128.718, 4163.59, 450, 0, []
1628616512.5091, 114, 0, 4224.615, 4247.692, 4086.154, 4118.462, 4133.333, 450, 0, []
1628616512.5171, 115, 0, 4226.154, 4229.744, 4033.333, 4106.667, 4118.974, 16188, 0, []
1628616512.525, 116, 0, 4247.692, 4251.282, 4016.41, 4112.308, 4135.897, 450, 0, []
1628616512.5329, 117, 0, 4242.564, 4269.744, 4102.051, 4127.179, 4133.333, 450, 0, []
1628616512.5408, 118, 0, 4230.769, 4263.077, 4111.282, 4132.308, 4124.103, 450, 0, []
1628616512.5488, 119, 0, 4239.487, 4254.872, 4092.821, 4135.897, 4141.538, 16188, 0, []
1628616512.5567, 120, 0, 4240.513, 4249.744, 4062.564, 4129.744, 4147.692, 450, 0, []
1628616512.5647, 121, 0, 4215.385, 4244.103, 4055.897, 4116.41, 4120.513, 450, 0, []
1628616512.5725, 122, 0, 4199.487, 4237.949, 4052.821, 4101.538, 4100, 450, 0, []
1628616512.5805, 123, 0, 4204.615, 4233.333, 3999.487, 4092.821, 4105.128, 16188, 0, []
1628616512.5884, 124, 0, 4221.538, 4247.692, 4056.923, 4122.564, 4127.692, 450, 0, []
1628616512.5962, 125, 0, 4223.077, 4256.923, 4112.308, 4137.949, 4133.333, 450, 0, []
1628616512.6041, 126, 0, 4197.949, 4237.436, 4078.462, 4112.821, 4107.179, 450, 0, []
1628616512.6118, 127, 0, 4183.59, 4222.051, 4055.897, 4104.103, 4088.205, 16188, 0, []
1628616512.6197, 128, 0, 4184.615, 4227.692, 4017.949, 4104.615, 4089.231, 450, 0, []
1628616512.6275, 0, 0, 4178.974, 4217.949, 4048.205, 4106.667, 4094.359, 450, 0, []
1628616512.6354, 1, 0, 4168.205, 4211.282, 4090.769, 4110.256, 4092.821, 450, 0, []
1628616512.6432, 2, 0, 4169.231, 4222.051, 4076.923, 4109.231, 4088.718, 16182, 0, []
1628616512.651, 3, 0, 4175.385, 4207.179, 4074.359, 4106.667, 4094.359, 450, 0, []
1628616512.6588, 4, 0, 4174.872, 4185.641, 4061.538, 4101.538, 4110.769, 16136, 0, []
1628616512.6668, 5, 0, 4183.59, 4194.872, 4091.282, 4120.513, 4122.051, 450, 0, []
1628616512.6747, 6, 0, 4190.769, 4206.154, 4076.41, 4130.256, 4114.872, 16079, 0, []
1628616512.6827, 7, 0, 4183.077, 4208.718, 4023.077, 4107.692, 4104.615, 450, 0, []
1628616512.6906, 8, 0, 4187.179, 4218.462, 4075.897, 4105.641, 4111.795, 450, 0, []
1628616512.6985, 9, 0, 4201.538, 4209.231, 4095.385, 4116.41, 4119.487, 16131, 0, []
1628616512.7064, 10, 0, 4197.949, 4200, 4075.897, 4115.385, 4111.795, 450, 0, []
1628616512.7144, 11, 0, 4188.205, 4223.59, 4060.513, 4111.795, 4103.59, 16201, 0, []
1628616512.7223, 12, 0, 4182.564, 4222.051, 4038.462, 4106.667, 4095.897, 450, 0, []
1628616512.7303, 13, 0, 4180.513, 4200, 4062.051, 4100.513, 4094.872, 450, 0, []
1628616512.7381, 14, 0, 4183.077, 4212.821, 4061.538, 4101.538, 4100, 450, 0, []
1628616512.746, 15, 0, 4186.154, 4223.077, 4084.103, 4121.026, 4106.154, 16201, 0, []
1628616512.7539, 16, 0, 4191.795, 4219.487, 4098.462, 4130.256, 4121.026, 0, 0, []
1628616512.7617, 17, 0, 4195.897, 4226.667, 4076.923, 4126.154, 4133.333, 0, 0, []
1628616512.7696, 18, 0, 4178.974, 4212.308, 4081.026, 4119.487, 4116.923, 0, 0, []
1628616512.7773, 19, 0, 4158.974, 4197.949, 4035.385, 4103.077, 4093.333, 0, 0, []
1628616512.7852, 20, 0, 4171.795, 4222.564, 4050.769, 4113.846, 4102.564, 0, 0, []
1628616512.793, 21, 0, 4187.179, 4232.308, 4084.615, 4127.692, 4112.821, 0, 0, []
1628616512.8009, 22, 0, 4180.513, 4195.385, 4047.179, 4110.769, 4111.795, 0, 0, []
1628616512.8087, 23, 0, 4184.615, 4187.692, 4074.872, 4113.333, 4121.538, 0, 0, []
1628616512.8165, 24, 0, 4197.949, 4216.923, 4073.846, 4120.513, 4125.128, 0, 0, []
1628616512.8243, 25, 0, 4196.923, 4225.128, 4058.974, 4113.333, 4118.974, 0, 0, []
1628616512.8323, 26, 0, 4196.923, 4218.974, 4075.897, 4117.436, 4123.077, 0, 0, []
1628616512.8402, 27, 0, 4202.564, 4205.128, 4057.436, 4126.154, 4126.667, 0, 0, []
1628616512.8482, 28, 0, 4187.179, 4180, 4068.205, 4123.59, 4113.846, 0, 0, []
1628616512.856, 29, 0, 4166.154, 4182.051, 4048.205, 4102.564, 4105.128, 0, 0, []
1628616512.864, 30, 0, 4182.564, 4205.641, 4052.308, 4104.103, 4121.538, 0, 0, []
1628616512.8719, 31, 0, 4210.769, 4211.282, 4097.436, 4131.282, 4146.667, 0, 0, []
1628616512.8799, 32, 0, 4200.513, 4210.256, 4059.487, 4128.718, 4143.077, 0, 0, []
1628616512.8878, 33, 0, 4173.846, 4212.821, 4060, 4112.308, 4120, 0, 0, []
1628616512.8957, 34, 0, 4165.128, 4187.692, 4089.744, 4106.154, 4111.282, 0, 0, []
1628616512.9036, 35, 0, 4171.282, 4166.154, 4077.949, 4113.333, 4120, 0, 0, []
1628616512.9114, 36, 0, 4184.103, 4197.949, 4071.282, 4132.308, 4133.333, 0, 0, []
1628616512.9193, 37, 0, 4193.333, 4233.333, 4060, 4137.436, 4138.462, 0, 0, []
1628616512.9271, 38, 0, 4193.846, 4229.744, 4083.077, 4131.282, 4132.308, 0, 0, []
1628616512.9349, 39, 0, 4201.538, 4217.436, 4054.359, 4126.154, 4136.41, 0, 0, []
1628616512.9427, 40, 0, 4221.026, 4213.846, 4016.923, 4129.744, 4161.026, 0, 0, []
1628616512.9506, 41, 0, 4250.769, 4194.872, 4073.846, 4142.564, 4191.795, 0, 0, []
1628616512.9584, 42, 0, 4281.026, 4173.846, 4088.205, 4140.513, 4210.769, 0, 0, []
1628616512.9663, 43, 0, 4312.821, 4194.359, 4079.487, 4140, 4233.846, 0, 0, []
1628616512.974, 44, 0, 4345.128, 4210.769, 4075.385, 4147.179, 4266.154, 0, 0, []
1628616512.982, 45, 0, 4358.974, 4188.718, 4067.692, 4145.641, 4276.923, 0, 0, []
1628616512.9899, 46, 0, 4368.718, 4186.667, 4084.615, 4143.59, 4277.949, 0, 0, []
1628616512.9979, 47, 0, 4390.769, 4211.282, 4061.026, 4143.077, 4296.923, 0, 0, []
1628616513.0058, 48, 0, 4393.333, 4202.051, 4069.231, 4151.282, 4309.231, 0, 0, []
1628616513.0137, 49, 0, 4362.564, 4172.308, 4079.487, 4147.179, 4289.744, 0, 0, []
1628616513.0216, 50, 0, 4345.128, 4193.333, 4073.333, 4136.923, 4273.846, 0, 0, []
1628616513.0296, 51, 0, 4353.846, 4253.333, 4103.077, 4145.128, 4286.154, 0, 0, []
1628616513.0375, 52, 0, 4354.872, 4279.487, 4092.821, 4154.872, 4296.41, 0, 0, []
1628616513.0455, 53, 0, 4352.821, 4276.923, 4117.949, 4170.769, 4289.744, 0, 0, []
1628616513.0533, 54, 0, 4351.282, 4283.59, 4092.308, 4171.795, 4274.872, 0, 0, []
1628616513.0611, 55, 0, 4335.897, 4272.308, 4051.282, 4163.077, 4260, 0, 0, []
1628616513.069, 56, 0, 4318.974, 4274.359, 4118.974, 4178.462, 4252.308, 0, 0, []
1628616513.0768, 57, 0, 4310.769, 4305.641, 4071.282, 4178.462, 4243.077, 0, 0, []
1628616513.0847, 58, 0, 4294.359, 4293.846, 4087.692, 4180, 4226.154, 0, 0, []
1628616513.0924, 59, 0, 4280.513, 4275.385, 4142.564, 4186.667, 4224.615, 0, 0, []
1628616513.1003, 60, 0, 4278.974, 4291.795, 4073.846, 4174.359, 4239.487, 0, 0, []
1628616513.1081, 61, 0, 4273.846, 4287.692, 4104.103, 4181.026, 4239.487, 0, 0, []
1628616513.116, 62, 0, 4258.974, 4273.333, 4098.462, 4185.641, 4220, 0, 0, []
1628616513.1238, 63, 0, 4250.256, 4280.513, 4084.615, 4185.641, 4212.308, 0, 0, []
1628616513.1316, 64, 0, 4246.154, 4265.128, 4116.923, 4184.615, 4214.359, 450, 0, []
1628616513.1394, 65, 0, 4234.359, 4258.974, 4083.59, 4170.769, 4202.564, 450, 0, []
1628616513.1474, 66, 0, 4229.744, 4294.359, 4094.872, 4172.308, 4195.897, 16190, 0, []
1628616513.1553, 67, 0, 4237.949, 4287.179, 4097.949, 4178.462, 4206.154, 450, 0, []
1628616513.1633, 68, 0, 4251.282, 4271.282, 4109.744, 4193.846, 4225.128, 16152, 0, []
1628616513.1711, 69, 0, 4265.641, 4317.436, 4137.436, 4214.359, 4243.077, 450, 0, []
1628616513.1791, 70, 0, 4266.154, 4330.256, 4121.026, 4212.308, 4240.513, 16081, 0, []
1628616513.187, 71, 0, 4243.59, 4284.103, 4113.846, 4192.308, 4216.41, 450, 0, []
1628616513.195, 72, 0, 4214.359, 4271.282, 4083.077, 4170.256, 4195.385, 450, 0, []
1628616513.2029, 73, 0, 4199.487, 4265.641, 4070.256, 4167.179, 4185.641, 16136, 0, []
1628616513.2108, 74, 0, 4193.333, 4241.026, 4075.897, 4168.718, 4170.256, 450, 0, []
1628616513.2187, 75, 0, 4203.077, 4260, 4069.744, 4177.436, 4172.821, 16187, 0, []
1628616513.2265, 76, 0, 4228.718, 4291.282, 4110.256, 4207.179, 4202.051, 450, 0, []
1628616513.2344, 77, 0, 4236.923, 4267.692, 4104.103, 4209.744, 4204.103, 450, 0, []
1628616513.2422, 78, 0, 4229.744, 4256.41, 4073.846, 4190.256, 4184.615, 450, 0, []
1628616513.25, 79, 0, 4230.769, 4288.205, 4086.154, 4188.205, 4193.846, 16187, 0, []
1628616513.2578, 80, 0, 4228.205, 4291.795, 4075.385, 4187.692, 4203.59, 450, 0, []
1628616513.2657, 81, 0, 4218.974, 4277.436, 4077.949, 4186.667, 4189.744, 450, 0, []
1628616513.2735, 82, 0, 4221.538, 4296.41, 4082.051, 4191.282, 4186.154, 450, 0, []
1628616513.2814, 83, 0, 4225.641, 4304.615, 4095.385, 4197.436, 4193.846, 16187, 0, []
1628616513.2891, 84, 0, 4214.872, 4273.333, 4109.231, 4193.333, 4185.128, 450, 0, []
1628616513.2971, 85, 0, 4203.59, 4282.564, 4066.667, 4180, 4171.795, 450, 0, []
1628616513.305, 86, 0, 4204.103, 4315.897, 4071.795, 4177.436, 4166.154, 450, 0, []
1628616513.313, 87, 0, 4202.051, 4290.769, 4085.641, 4175.385, 4161.026, 16187, 0, []
1628616513.3209, 88, 0, 4183.59, 4256.923, 4055.897, 4164.615, 4148.205, 450, 0, []
1628616513.3288, 89, 0, 4170.769, 4271.795, 4063.077, 4158.462, 4130.769, 450, 0, []
1628616513.3367, 90, 0, 4188.205, 4288.205, 4076.41, 4169.231, 4137.436, 450, 0, []
1628616513.3447, 91, 0, 4212.821, 4271.795, 4089.744, 4188.718, 4164.615, 16187, 0, []
1628616513.3526, 92, 0, 4218.462, 4267.179, 4083.59, 4179.487, 4171.282, 450, 0, []
1628616513.3606, 93, 0, 4214.872, 4275.385, 4078.462, 4164.103, 4164.615, 450, 0, []
1628616513.3684, 94, 0, 4217.436, 4284.615, 4107.179, 4180.513, 4175.897, 450, 0, []
1628616513.3762, 95, 0, 4225.128, 4298.974, 4095.897, 4192.821, 4188.718, 16187, 0, []
1628616513.3841, 96, 0, 4229.744, 4293.333, 4087.179, 4187.179, 4187.692, 450, 0, []
1628616513.3919, 97, 0, 4220.513, 4283.077, 4087.692, 4183.077, 4184.615, 450, 0, []
1628616513.3998, 98, 0, 4211.282, 4283.077, 4083.59, 4186.154, 4186.154, 450, 0, []
1628616513.4075, 99, 0, 4223.077, 4281.026, 4110.769, 4196.41, 4195.897, 16187, 0, []
1628616513.4154, 100, 0, 4233.846, 4296.923, 4098.462, 4197.436, 4204.103, 450, 0, []
1628616513.4232, 101, 0, 4222.564, 4318.462, 4088.718, 4188.205, 4195.385, 450, 0, []
1628616513.4311, 102, 0, 4196.923, 4282.564, 4089.231, 4164.103, 4164.103, 450, 0, []
1628616513.4389, 103, 0, 4177.436, 4238.974, 4061.026, 4146.667, 4147.179, 16187, 0, []
1628616513.4469, 104, 0, 4186.667, 4264.103, 4075.897, 4169.231, 4166.667, 450, 0, []
1628616513.4547, 105, 0, 4196.923, 4281.026, 4085.641, 4193.846, 4180.513, 450, 0, []
1628616513.4627, 106, 0, 4189.744, 4271.795, 4085.641, 4194.359, 4171.795, 450, 0, []
1628616513.4706, 107, 0, 4188.718, 4302.051, 4103.077, 4192.821, 4172.821, 16187, 0, []
1628616513.4786, 108, 0, 4203.077, 4323.59, 4098.462, 4196.41, 4189.231, 450, 0, []
1628616513.4865, 109, 0, 4212.308, 4311.282, 4102.564, 4198.462, 4198.462, 450, 0, []
1628616513.4944, 110, 0, 4216.923, 4323.59, 4099.487, 4203.077, 4206.667, 450, 0, []
1628616513.5023, 111, 0, 4221.538, 4345.641, 4098.462, 4208.205, 4210.769, 16187, 0, []
1628616513.5103, 112, 0, 4216.923, 4331.795, 4105.641, 4205.128, 4202.564, 450, 0, []
1628616513.5182, 113, 0, 4207.692, 4300.513, 4081.538, 4190.256, 4193.846, 450, 0, []
1628616513.526, 114, 0, 4201.026, 4291.282, 4084.103, 4174.359, 4184.103, 450, 0, []
1628616513.5338, 115, 0, 4203.59, 4308.205, 4089.744, 4175.897, 4179.487, 16187, 0, []
1628616513.5416, 116, 0, 4209.744, 4332.308, 4084.103, 4191.282, 4184.615, 450, 0, []
1628616513.5495, 117, 0, 4203.077, 4343.077, 4095.897, 4187.692, 4184.615, 450, 0, []
1628616513.5573, 118, 0, 4190.256, 4333.333, 4087.692, 4168.205, 4172.308, 450, 0, []
1628616513.5652, 119, 0, 4186.154, 4324.103, 4097.949, 4173.333, 4162.564, 16187, 0, []
1628616513.5729, 120, 0, 4190.769, 4335.897, 4100, 4189.744, 4167.179, 450, 0, []
1628616513.5808, 121, 0, 4194.359, 4356.41, 4082.564, 4189.231, 4173.846, 450, 0, []
1628616513.5886, 122, 0, 4181.538, 4335.897, 4090.769, 4174.872, 4155.897, 450, 0, []
1628616513.5965, 123, 0, 4166.667, 4303.59, 4080, 4160, 4134.872, 16187, 0, []
1628616513.6043, 124, 0, 4171.282, 4323.077, 4091.282, 4163.59, 4139.487, 450, 0, []
1628616513.6122, 125, 0, 4186.667, 4347.692, 4110.769, 4161.538, 4154.359, 450, 0, []
1628616513.6201, 126, 0, 4198.462, 4330.256, 4104.103, 4155.385, 4165.641, 450, 0, []
1628616513.6281, 127, 0, 4200.513, 4315.897, 4113.846, 4168.205, 4174.872, 16187, 0, []
1628616513.636, 128, 0, 4201.026, 4335.897, 4107.692, 4177.436, 4184.103, 450, 0, []
1628616513.644, 0, 0, 4204.615, 4340.513, 4108.205, 4175.897, 4186.154, 450, 0, []
1628616513.6518, 1, 0, 4192.821, 4313.333, 4099.487, 4171.282, 4169.231, 450, 0, []
1628616513.6598, 2, 0, 4172.821, 4296.923, 4068.718, 4166.154, 4151.795, 16180, 0, []
1628616513.6677, 3, 0, 4172.821, 4310.769, 4088.718, 4170.256, 4156.923, 450, 0, []
1628616513.6755, 4, 0, 4186.154, 4322.564, 4097.436, 4180.513, 4171.795, 16138, 0, []
1628616513.6834, 5, 0, 4189.744, 4305.641, 4094.359, 4182.051, 4177.436, 450, 0, []
1628616513.6911, 6, 0, 4194.872, 4277.949, 4109.231, 4176.923, 4177.436, 16074, 0, []
1628616513.699, 7, 0, 4200.513, 4274.872, 4091.795, 4166.667, 4173.846, 450, 0, []
1628616513.7068, 8, 0, 4195.897, 4284.103, 4079.487, 4154.359, 4168.205, 450, 0, []
1628616513.7147, 9, 0, 4206.667, 4266.667, 4069.231, 4150.769, 4175.385, 16135, 0, []
1628616513.7225, 10, 0, 4255.897, 4267.179, 4075.897, 4165.641, 4215.385, 450, 0, []
1628616513.7303, 11, 0, 4316.923, 4302.051, 4104.615, 4186.154, 4275.385, 16202, 0, []
1628616513.7382, 12, 0, 4347.692, 4307.179, 4099.487, 4186.667, 4305.128, 450, 0, []
1628616513.7462, 13, 0, 4351.282, 4290.256, 4096.923, 4174.359, 4298.462, 450, 0, []
1628616513.754, 14, 0, 4358.974, 4302.564, 4087.692, 4160.513, 4303.59, 450, 0, []
1628616513.762, 15, 0, 4368.205, 4309.744, 4086.154, 4162.051, 4310.256, 16202, 0, []
1628616513.7698, 16, 0, 4353.333, 4286.154, 4092.821, 4170.256, 4286.154, 0, 0, []
1628616513.7778, 17, 0, 4323.59, 4272.308, 4063.59, 4167.692, 4260.513, 0, 0, []
1628616513.7857, 18, 0, 4311.282, 4285.641, 4087.692, 4173.333, 4263.59, 0, 0, []
1628616513.7937, 19, 0, 4306.667, 4318.974, 4117.949, 4179.487, 4266.154, 0, 0, []
1628616513.8016, 20, 0, 4282.564, 4327.692, 4089.231, 4167.692, 4246.154, 0, 0, []
1628616513.8095, 21, 0, 4257.436, 4304.615, 4082.051, 4155.897, 4224.615, 0, 0, []
1628616513.8174, 22, 0, 4252.308, 4288.205, 4080.513, 4158.974, 4216.923, 0, 0, []
1628616513.8254, 23, 0, 4243.59, 4281.538, 4081.538, 4169.744, 4212.821, 0, 0, []
1628616513.8333, 24, 0, 4232.821, 4279.487, 4083.077, 4174.359, 4213.846, 0, 0, []
1628616513.8411, 25, 0, 4222.564, 4267.692, 4082.564, 4166.154, 4207.179, 0, 0, []
1628616513.8489, 26, 0, 4195.385, 4258.462, 4092.821, 4147.692, 4173.846, 0, 0, []
1628616513.8567, 27, 0, 4190.769, 4289.231, 4091.795, 4149.744, 4159.487, 0, 0, []
1628616513.8646, 28, 0, 4222.051, 4307.692, 4117.949, 4178.462, 4190.769, 0, 0, []
1628616513.8724, 29, 0, 4241.026, 4296.41, 4129.744, 4196.923, 4219.487, 0, 0, []
1628616513.8803, 30, 0, 4243.077, 4323.59, 4107.179, 4202.564, 4221.026, 0, 0, []
1628616513.888, 31, 0, 4239.487, 4345.128, 4112.308, 4201.538, 4207.692, 0, 0, []
1628616513.8959, 32, 0, 4216.41, 4309.744, 4089.231, 4176.41, 4186.667, 0, 0, []
1628616513.9037, 33, 0, 4196.41, 4302.051, 4073.333, 4153.333, 4164.103, 0, 0, []
1628616513.9117, 34, 0, 4199.487, 4323.59, 4080.513, 4150.769, 4154.359, 0, 0, []
1628616513.9196, 35, 0, 4191.795, 4301.026, 4065.641, 4145.641, 4157.949, 0, 0, []
1628616513.9275, 36, 0, 4171.282, 4267.692, 4070.769, 4140, 4153.333, 0, 0, []
1628616513.9354, 37, 0, 4169.744, 4272.308, 4060, 4142.564, 4132.308, 0, 0, []
1628616513.9434, 38, 0, 4188.205, 4298.462, 4070.769, 4156.923, 4131.282, 0, 0, []
1628616513.9513, 39, 0, 4194.872, 4310.769, 4092.821, 4172.821, 4156.41, 0, 0, []
1628616513.9593, 40, 0, 4195.385, 4304.615, 4077.949, 4169.231, 4171.282, 0, 0, []
1628616513.9671, 41, 0, 4221.026, 4313.846, 4104.615, 4164.103, 4177.949, 0, 0, []
1628616513.9751, 42, 0, 4234.872, 4314.359, 4111.282, 4163.59, 4181.538, 0, 0, []
1628616513.983, 43, 0, 4248.718, 4308.718, 4093.846, 4164.615, 4188.205, 0, 0, []
1628616513.9908, 44, 0, 4247.179, 4316.41, 4089.744, 4162.051, 4192.308, 0, 0, []
1628616513.9987, 45, 0, 4234.359, 4304.103, 4076.41, 4165.128, 4195.897, 0, 0, []
1628616514.0064, 46, 0, 4303.077, 4303.59, 4105.128, 4190.256, 4239.487, 0, 0, []
1628616514.0143, 47, 0, 4350.769, 4337.436, 4099.487, 4188.718, 4267.179, 0, 0, []
1628616514.0221, 48, 0, 4278.974, 4322.564, 4061.538, 4151.282, 4228.205, 0, 0, []
1628616514.03, 49, 0, 4249.231, 4283.077, 4067.692, 4137.949, 4220, 0, 0, []
1628616514.0378, 50, 0, 4333.846, 4315.385, 4078.974, 4159.487, 4288.205, 0, 0, []
1628616514.0457, 51, 0, 4369.744, 4344.103, 4089.231, 4173.333, 4325.128, 0, 0, []
1628616514.0536, 52, 0, 4356.923, 4300.513, 4080, 4165.641, 4312.821, 0, 0, []
1628616514.0616, 53, 0, 4383.59, 4268.718, 4077.436, 4159.487, 4316.41, 0, 0, []
1628616514.0695, 54, 0, 4385.641, 4286.154, 4079.487, 4149.744, 4316.41, 0, 0, []
1628616514.0775, 55, 0, 4366.667, 4300.513, 4063.59, 4144.615, 4308.205, 0, 0, []
1628616514.0853, 56, 0, 4355.385, 4290.256, 4084.103, 4160.513, 4297.436, 0, 0, []
1628616514.0933, 57, 0, 4341.026, 4276.41, 4072.308, 4165.641, 4277.949, 0, 0, []
1628616514.1012, 58, 0, 4317.436, 4269.231, 4055.385, 4158.462, 4266.154, 0, 0, []
1628616514.1092, 59, 0, 4288.205, 4260.513, 4069.231, 4148.205, 4250.769, 0, 0, []
1628616514.1171, 60, 0, 4276.923, 4255.385, 4052.308, 4143.077, 4237.436, 0, 0, []
1628616514.125, 61, 0, 4281.026, 4273.333, 4090.769, 4174.359, 4251.795, 0, 0, []
1628616514.1329, 62, 0, 4275.385, 4293.846, 4111.282, 4197.949, 4260, 0, 0, []
1628616514.1407, 63, 0, 4240, 4283.59, 4061.538, 4173.846, 4222.051, 0, 0, []
1628616514.1486, 64, 0, 4221.026, 4269.744, 4067.179, 4167.179, 4195.385, 450, 0, []
1628616514.1564, 65, 0, 4233.333, 4282.051, 4082.051, 4193.846, 4212.821, 450, 0, []
1628616514.1643, 66, 0, 4217.436, 4285.128, 4072.308, 4192.821, 4204.615, 16219, 0, []
1628616514.1722, 67, 0, 4182.051, 4269.231, 4054.359, 4157.436, 4164.103, 450, 0, []
1628616514.1802, 68, 0, 4174.359, 4270.769, 4046.667, 4145.641, 4145.641, 16149, 0, []
1628616514.1881, 69, 0, 4193.333, 4307.692, 4086.667, 4174.359, 4163.59, 450, 0, []
1628616514.1961, 70, 0, 4202.051, 4356.923, 4101.538, 4198.974, 4181.026, 300, 0, []
1628616514.204, 71, 0, 4189.231, 4364.103, 4098.974, 4206.154, 4176.41, 450, 0, []
1628616514.2119, 72, 0, 4172.308, 4341.026, 4090.256, 4192.308, 4151.795, 450, 0, []
1628616514.2198, 73, 0, 4161.538, 4339.487, 4075.385, 4175.897, 4131.795, 16133, 0, []
1628616514.2278, 74, 0, 4164.103, 4355.385, 4101.026, 4186.667, 4141.026, 450, 0, []
1628616514.2357, 75, 0, 4171.795, 4356.41, 4108.205, 4190.769, 4158.462, 16131, 0, []
1628616514.2437, 76, 0, 4152.308, 4334.359, 4094.359, 4167.179, 4148.205, 450, 0, []
1628616514.2515, 77, 0, 4115.897, 4309.231, 4077.949, 4143.59, 4120, 450, 0, []
1628616514.2595, 78, 0, 4118.462, 4316.41, 4069.744, 4161.026, 4125.641, 450, 0, []
1628616514.2675, 79, 0, 4138.462, 4351.282, 4105.128, 4187.179, 4148.718, 16131, 0, []
1628616514.2754, 80, 0, 4144.103, 4368.205, 4113.333, 4186.667, 4154.359, 450, 0, []
1628616514.2833, 81, 0, 4161.026, 4355.385, 4115.897, 4194.872, 4164.615, 450, 0, []
1628616514.291, 82, 0, 4166.154, 4332.821, 4117.436, 4196.923, 4165.641, 450, 0, []
1628616514.2989, 83, 0, 4151.795, 4340, 4086.667, 4188.718, 4151.282, 16131, 0, []
1628616514.3067, 84, 0, 4157.436, 4357.949, 4097.949, 4202.051, 4152.308, 450, 0, []
1628616514.3147, 85, 0, 4168.205, 4331.795, 4096.41, 4206.667, 4156.923, 450, 0, []
1628616514.3226, 86, 0, 4154.359, 4315.385, 4080, 4190.769, 4140.513, 450, 0, []
1628616514.3304, 87, 0, 4149.744, 4348.718, 4107.692, 4193.333, 4137.949, 16131, 0, []
1628616514.3382, 88, 0, 4153.333, 4345.128, 4106.154, 4203.59, 4152.308, 450, 0, []
1628616514.3461, 89, 0, 4137.949, 4313.333, 4093.846, 4190.256, 4146.154, 450, 0, []
1628616514.3539, 90, 0, 4125.128, 4312.308, 4087.179, 4171.795, 4134.872, 450, 0, []
1628616514.3619, 91, 0, 4129.744, 4301.538, 4085.128, 4180.513, 4141.026, 16131, 0, []
1628616514.3697, 92, 0, 4133.333, 4290.256, 4102.051, 4200.513, 4148.205, 450, 0, []
1628616514.3777, 93, 0, 4130.256, 4299.487, 4092.308, 4200, 4144.103, 450, 0, []
1628616514.3856, 94, 0, 4115.897, 4282.051, 4080, 4175.897, 4123.077, 450, 0, []
1628616514.3936, 95, 0, 4099.487, 4274.359, 4063.077, 4157.436, 4104.103, 16131, 0, []
1628616514.4015, 96, 0, 4098.462, 4318.462, 4054.359, 4160, 4107.179, 450, 0, []
1628616514.4094, 97, 0, 4117.949, 4342.051, 4094.872, 4177.436, 4127.692, 450, 0, []
1628616514.4173, 98, 0, 4129.231, 4316.41, 4102.564, 4190.256, 4141.026, 450, 0, []
1628616514.4253, 99, 0, 4100.513, 4290.256, 4081.026, 4173.846, 4116.41, 16131, 0, []
1628616514.4332, 100, 0, 4084.615, 4291.795, 4078.462, 4161.538, 4104.103, 450, 0, []
1628616514.441, 101, 0, 4114.872, 4322.051, 4094.359, 4185.128, 4137.949, 450, 0, []
1628616514.4488, 102, 0, 4136.41, 4342.564, 4110.256, 4194.359, 4146.667, 450, 0, []
1628616514.4566, 103, 0, 4130.256, 4326.154, 4073.846, 4175.897, 4127.179, 16131, 0, []
1628616514.4646, 104, 0, 4130.769, 4314.359, 4064.103, 4175.385, 4127.692, 450, 0, []
1628616514.4725, 105, 0, 4129.231, 4316.923, 4084.103, 4175.385, 4121.026, 450, 0, []
1628616514.4804, 106, 0, 4111.795, 4298.974, 4062.564, 4152.308, 4098.462, 450, 0, []
1628616514.4881, 107, 0, 4106.154, 4289.744, 4062.051, 4145.128, 4104.103, 16131, 0, []
1628616514.496, 108, 0, 4095.385, 4300.513, 4054.359, 4138.462, 4101.026, 450, 0, []
1628616514.5038, 109, 0, 4066.154, 4283.077, 4043.59, 4117.436, 4067.692, 450, 0, []
1628616514.5117, 110, 0, 4084.615, 4280, 4079.487, 4133.333, 4083.077, 450, 0, []
1628616514.5195, 111, 0, 4143.59, 4319.487, 4099.487, 4178.974, 4140.513, 16131, 0, []
1628616514.5273, 112, 0, 4148.718, 4324.103, 4085.128, 4169.744, 4141.538, 450, 0, []
1628616514.5351, 113, 0, 4121.538, 4294.359, 4060, 4126.667, 4112.308, 450, 0, []
1628616514.5431, 114, 0, 4143.59, 4287.692, 4076.41, 4134.359, 4135.385, 450, 0, []
1628616514.551, 115, 0, 4189.231, 4289.744, 4098.974, 4163.59, 4186.154, 16131, 0, []
1628616514.559, 116, 0, 4235.385, 4303.077, 4077.949, 4167.179, 4230.769, 450, 0, []
1628616514.5668, 117, 0, 4295.897, 4318.974, 4088.718, 4164.103, 4278.462, 450, 0, []
1628616514.5748, 118, 0, 4329.231, 4289.744, 4085.641, 4151.795, 4303.59, 450, 0, []
1628616514.5827, 119, 0, 4335.897, 4265.128, 4069.744, 4144.103, 4304.615, 16131, 0, []
1628616514.5906, 120, 0, 4357.436, 4294.359, 4090.256, 4155.897, 4314.872, 450, 0, []
1628616514.5985, 121, 0, 4365.641, 4295.897, 4082.051, 4153.846, 4320, 450, 0, []
1628616514.6062, 122, 0, 4346.667, 4266.154, 4081.538, 4147.179, 4310.769, 450, 0, []
1628616514.6141, 123, 0, 4317.436, 4263.077, 4075.385, 4141.538, 4288.718, 16131, 0, []
1628616514.6219, 124, 0, 4298.462, 4263.59, 4062.564, 4137.949, 4271.795, 450, 0, []
1628616514.6298, 125, 0, 4296.41, 4276.41, 4089.744, 4154.872, 4276.41, 450, 0, []
1628616514.6376, 126, 0, 4278.462, 4293.333, 4082.051, 4161.538, 4265.128, 450, 0, []
1628616514.6455, 127, 0, 4244.615, 4277.436, 4068.205, 4147.179, 4231.795, 16131, 0, []
1628616514.6534, 128, 0, 4237.949, 4274.872, 4085.128, 4151.282, 4224.103, 450, 0, []
1628616514.6613, 0, 0, 4242.051, 4283.59, 4096.923, 4167.179, 4232.308, 450, 0, []
1628616514.6691, 1, 0, 4212.308, 4258.462, 4098.462, 4156.41, 4212.821, 450, 0, []
1628616514.6771, 2, 0, 4176.41, 4241.026, 4071.282, 4135.385, 4185.641, 16197, 0, []
1628616514.6849, 3, 0, 4176.41, 4258.462, 4083.077, 4137.436, 4177.949, 450, 0, []
1628616514.6929, 4, 0, 4197.436, 4251.795, 4108.718, 4155.897, 4193.333, 16151, 0, []
1628616514.7009, 5, 0, 4197.436, 4237.949, 4099.487, 4165.128, 4206.667, 450, 0, []
1628616514.7088, 6, 0, 4170.256, 4258.462, 4101.538, 4146.667, 4182.051, 324, 0, []
1628616514.7168, 7, 0, 4163.077, 4262.564, 4084.615, 4134.872, 4163.077, 450, 0, []
1628616514.7246, 8, 0, 4185.128, 4247.179, 4088.718, 4161.026, 4183.077, 450, 0, []
1628616514.7325, 9, 0, 4188.718, 4247.692, 4100.513, 4177.436, 4184.103, 16132, 0, []
1628616514.7404, 10, 0, 4164.103, 4245.641, 4076.923, 4159.487, 4156.41, 450, 0, []
1628616514.7484, 11, 0, 4142.564, 4232.308, 4085.128, 4145.641, 4145.641, 16162, 0, []
1628616514.7564, 12, 0, 4134.872, 4240, 4086.154, 4137.949, 4148.718, 450, 0, []
1628616514.7642, 13, 0, 4120.513, 4248.718, 4076.923, 4112.821, 4127.692, 450, 0, []
1628616514.7721, 14, 0, 4100, 4226.667, 4059.487, 4090.256, 4100.513, 450, 0, []
1628616514.7801, 15, 0, 4108.718, 4233.333, 4047.179, 4112.821, 4113.846, 16162, 0, []
1628616514.788, 16, 0, 4128.718, 4273.333, 4092.308, 4147.692, 4133.846, 0, 0, []
1628616514.796, 17, 0, 4128.205, 4275.385, 4092.308, 4150.256, 4128.718, 0, 0, []
1628616514.8038, 18, 0, 4126.154, 4251.795, 4071.282, 4146.154, 4118.974, 0, 0, []
1628616514.8118, 19, 0, 4130.769, 4266.154, 4097.436, 4148.205, 4117.436, 0, 0, []
1628616514.8197, 20, 0, 4140.513, 4289.744, 4108.205, 4152.821, 4137.949, 0, 0, []
1628616514.8277, 21, 0, 4143.59, 4278.462, 4117.949, 4153.846, 4154.359, 0, 0, []
1628616514.8356, 22, 0, 4118.974, 4274.872, 4114.359, 4130.256, 4130.769, 0, 0, []
1628616514.8435, 23, 0, 4095.385, 4285.641, 4104.615, 4113.846, 4109.231, 0, 0, []
1628616514.8515, 24, 0, 4104.103, 4254.872, 4110.256, 4141.026, 4125.641, 0, 0, []
1628616514.8594, 25, 0, 4105.128, 4221.026, 4086.154, 4163.59, 4133.846, 0, 0, []
1628616514.8674, 26, 0, 4077.436, 4240.513, 4063.077, 4150.769, 4122.051, 0, 0, []
1628616514.8753, 27, 0, 4048.718, 4247.692, 4046.667, 4132.308, 4107.179, 0, 0, []
1628616514.8832, 28, 0, 4035.385, 4219.487, 4057.436, 4134.872, 4100, 0, 0, []
1628616514.8911, 29, 0, 4048.718, 4222.564, 4092.821, 4153.333, 4123.59, 0, 0, []
1628616514.8991, 30, 0, 4069.231, 4246.667, 4079.487, 4153.333, 4142.564, 0, 0, []
1628616514.907, 31, 0, 4069.744, 4246.154, 4079.487, 4140.513, 4129.744, 0, 0, []
1628616514.915, 32, 0, 4066.667, 4230.769, 4089.231, 4141.026, 4122.051, 0, 0, []
1628616514.9228, 33, 0, 4064.615, 4230.256, 4075.897, 4144.615, 4127.692, 0, 0, []
1628616514.9308, 34, 0, 4045.641, 4242.051, 4072.821, 4133.846, 4117.949, 0, 0, []
1628616514.9387, 35, 0, 4028.205, 4221.026, 4053.333, 4126.154, 4100.513, 0, 0, []
1628616514.9467, 36, 0, 4047.692, 4189.231, 4065.641, 4146.667, 4111.282, 0, 0, []
1628616514.9546, 37, 0, 4088.205, 4218.462, 4086.667, 4171.795, 4146.667, 0, 0, []
1628616514.9625, 38, 0, 4095.385, 4237.436, 4076.41, 4171.795, 4157.436, 0, 0, []
1628616514.9704, 39, 0, 4077.436, 4211.795, 4082.564, 4157.949, 4140.513, 0, 0, []
1628616514.9784, 40, 0, 4072.821, 4223.59, 4070.769, 4141.538, 4136.41, 0, 0, []
1628616514.9863, 41, 0, 4063.59, 4243.59, 4064.615, 4128.205, 4129.231, 0, 0, []
1628616514.9943, 42, 0, 4045.128, 4221.026, 4066.667, 4124.615, 4106.154, 0, 0, []
1628616515.0022, 43, 0, 4047.179, 4214.872, 4050.769, 4137.949, 4102.051, 0, 0, []
1628616515.0101, 44, 0, 4064.103, 4224.103, 4065.128, 4157.949, 4112.308, 0, 0, []
1628616515.0181, 45, 0, 4075.897, 4202.564, 4069.744, 4165.128, 4122.051, 0, 0, []
1628616515.026, 46, 0, 4078.462, 4188.205, 4072.308, 4157.436, 4135.385, 0, 0, []
1628616515.034, 47, 0, 4073.846, 4204.103, 4074.359, 4136.41, 4137.949, 0, 0, []
1628616515.0419, 48, 0, 4068.205, 4226.667, 4052.821, 4120.513, 4126.154, 0, 0, []
1628616515.0498, 49, 0, 4057.949, 4228.205, 4057.949, 4118.974, 4113.846, 0, 0, []
1628616515.0577, 50, 0, 4050.256, 4195.897, 4041.538, 4109.744, 4105.641, 0, 0, []
1628616515.0657, 51, 0, 4061.538, 4172.821, 4034.359, 4105.128, 4104.615, 0, 0, []
1628616515.0736, 52, 0, 4063.077, 4183.59, 4065.128, 4110.769, 4104.103, 0, 0, []
1628616515.0816, 53, 0, 4048.718, 4190.769, 4071.282, 4117.949, 4103.077, 0, 0, []
1628616515.0894, 54, 0, 4049.231, 4176.41, 4077.949, 4126.667, 4110.769, 0, 0, []
1628616515.0974, 55, 0, 4049.744, 4162.051, 4052.308, 4118.974, 4107.692, 0, 0, []
1628616515.1053, 56, 0, 4035.385, 4167.179, 4026.154, 4088.205, 4082.564, 0, 0, []
1628616515.1133, 57, 0, 4033.333, 4185.641, 4049.231, 4070.256, 4080, 0, 0, []
1628616515.1212, 58, 0, 4048.718, 4187.692, 4063.59, 4091.795, 4112.308, 0, 0, []
1628616515.1291, 59, 0, 4063.59, 4181.026, 4076.923, 4122.564, 4134.872, 0, 0, []
1628616515.137, 60, 0, 4075.385, 4191.795, 4071.795, 4136.923, 4137.436, 0, 0, []
1628616515.145, 61, 0, 4080, 4203.077, 4061.538, 4144.615, 4137.436, 0, 0, []
1628616515.153, 62, 0, 4075.897, 4197.949, 4064.615, 4144.103, 4135.385, 0, 0, []
1628616515.1609, 63, 0, 4071.282, 4203.077, 4042.564, 4131.795, 4134.359, 0, 0, []
1628616515.1688, 64, 0, 4077.949, 4223.59, 4056.923, 4129.231, 4136.923, 450, 0, []
1628616515.1767, 65, 0, 4102.564, 4227.692, 4078.462, 4134.359, 4146.154, 450, 0, []
1628616515.1847, 66, 0, 4125.641, 4213.333, 4065.641, 4131.795, 4157.949, 16204, 0, []
1628616515.1926, 67, 0, 4146.154, 4211.282, 4071.795, 4133.333, 4175.897, 450, 0, []
1628616515.2006, 68, 0, 4193.846, 4231.282, 4067.692, 4146.154, 4213.846, 16142, 0, []
1628616515.2084, 69, 0, 4253.333, 4234.872, 4070.256, 4165.128, 4260, 450, 0, []
1628616515.2164, 70, 0, 4290.256, 4220, 4074.872, 4175.897, 4294.359, 16065, 0, []
1628616515.2243, 71, 0, 4322.051, 4225.128, 4064.615, 4170.256, 4326.667, 450, 0, []
1628616515.2323, 72, 0, 4365.641, 4228.205, 4081.026, 4164.615, 4355.897, 450, 0, []
1628616515.2402, 73, 0, 4379.487, 4204.103, 4072.821, 4164.615, 4367.179, 16147, 0, []
1628616515.2481, 74, 0, 4355.897, 4186.667, 4059.487, 4160, 4362.051, 450, 0, []
1628616515.256, 75, 0, 4335.897, 4186.667, 4063.59, 4153.333, 4345.128, 16185, 0, []
1628616515.264, 76, 0, 4333.846, 4186.154, 4058.974, 4158.462, 4331.795, 450, 0, []
1628616515.2719, 77, 0, 4327.179, 4199.487, 4068.718, 4166.667, 4327.692, 450, 0, []
1628616515.2799, 78, 0, 4308.718, 4225.128, 4057.949, 4158.974, 4316.41, 450, 0, []
1628616515.2877, 79, 0, 4292.308, 4217.949, 4057.949, 4144.103, 4300.513, 16185, 0, []
1628616515.2957, 80, 0, 4276.923, 4183.077, 4063.59, 4133.333, 4285.128, 450, 0, []
1628616515.3037, 81, 0, 4263.077, 4173.333, 4035.897, 4128.205, 4266.667, 450, 0, []
1628616515.3116, 82, 0, 4263.59, 4201.538, 4046.154, 4136.41, 4253.846, 450, 0, []
1628616515.3196, 83, 0, 4263.077, 4205.128, 4047.692, 4145.641, 4249.744, 16185, 0, []
1628616515.3274, 84, 0, 4244.103, 4178.462, 4037.949, 4149.231, 4239.487, 450, 0, []
1628616515.3354, 85, 0, 4222.564, 4180, 4057.949, 4147.179, 4220, 450, 0, []
1628616515.3433, 86, 0, 4214.872, 4185.641, 4051.282, 4137.949, 4204.103, 450, 0, []
1628616515.3513, 87, 0, 4213.333, 4169.231, 4053.846, 4134.872, 4197.436, 16185, 0, []
1628616515.3592, 88, 0, 4211.795, 4169.744, 4065.641, 4145.128, 4198.974, 450, 0, []
1628616515.3671, 89, 0, 4212.308, 4187.692, 4073.333, 4163.077, 4203.59, 450, 0, []
1628616515.375, 90, 0, 4214.872, 4189.744, 4076.41, 4168.205, 4206.667, 450, 0, []
1628616515.383, 91, 0, 4215.385, 4176.41, 4055.385, 4152.821, 4204.615, 16185, 0, []
1628616515.3909, 92, 0, 4214.872, 4185.641, 4064.103, 4151.795, 4201.538, 450, 0, []
1628616515.3989, 93, 0, 4218.462, 4208.718, 4065.641, 4158.462, 4199.487, 450, 0, []
1628616515.4067, 94, 0, 4215.385, 4198.974, 4061.026, 4144.103, 4194.872, 450, 0, []
1628616515.4147, 95, 0, 4202.051, 4190.769, 4074.359, 4134.359, 4188.718, 16185, 0, []
1628616515.4226, 96, 0, 4200, 4216.41, 4056.923, 4145.128, 4186.667, 450, 0, []
1628616515.4306, 97, 0, 4205.641, 4211.795, 4057.949, 4148.205, 4183.59, 450, 0, []
1628616515.4385, 98, 0, 4203.077, 4182.051, 4047.692, 4144.615, 4180, 450, 0, []
1628616515.4462, 99, 0, 4201.026, 4187.692, 4034.359, 4155.385, 4176.41, 16185, 0, []
1628616515.4541, 100, 0, 4199.487, 4193.846, 4050.256, 4153.333, 4168.718, 450, 0, []
1628616515.4619, 101, 0, 4185.641, 4193.333, 4028.205, 4139.487, 4166.667, 450, 0, []
1628616515.4699, 102, 0, 4172.821, 4199.487, 4034.872, 4149.231, 4171.282, 450, 0, []
1628616515.4778, 103, 0, 4172.308, 4182.564, 4053.846, 4151.282, 4164.103, 16185, 0, []
1628616515.4857, 104, 0, 4174.872, 4173.333, 4036.41, 4143.077, 4156.41, 450, 0, []
1628616515.4936, 105, 0, 4176.923, 4183.59, 4048.205, 4153.846, 4156.923, 450, 0, []
1628616515.5016, 106, 0, 4183.59, 4180.513, 4056.41, 4161.538, 4161.538, 450, 0, []
1628616515.5095, 107, 0, 4189.231, 4184.615, 4054.359, 4155.897, 4166.667, 16185, 0, []
1628616515.5175, 108, 0, 4180.513, 4191.795, 4045.641, 4148.718, 4159.487, 450, 0, []
1628616515.5253, 109, 0, 4164.615, 4178.974, 4033.333, 4147.179, 4137.436, 450, 0, []
1628616515.5333, 110, 0, 4158.462, 4179.487, 4047.692, 4148.205, 4122.564, 450, 0, []
1628616515.5412, 111, 0, 4158.974, 4191.282, 4035.897, 4142.051, 4122.564, 16185, 0, []
1628616515.5492, 112, 0, 4153.846, 4184.615, 4028.718, 4139.487, 4126.667, 450, 0, []
1628616515.5571, 113, 0, 4150.769, 4182.564, 4041.538, 4140.513, 4124.103, 450, 0, []
1628616515.565, 114, 0, 4156.923, 4188.205, 4037.436, 4144.615, 4128.205, 450, 0, []
1628616515.5729, 115, 0, 4155.897, 4181.026, 4051.795, 4150.256, 4140, 16185, 0, []
1628616515.5807, 116, 0, 4146.154, 4170.769, 4046.667, 4145.128, 4145.641, 450, 0, []
1628616515.5886, 117, 0, 4149.231, 4165.641, 4042.564, 4143.077, 4144.103, 450, 0, []
1628616515.5964, 118, 0, 4151.282, 4172.821, 4058.462, 4151.795, 4138.974, 450, 0, []
1628616515.6042, 119, 0, 4142.051, 4166.154, 4048.205, 4154.872, 4136.923, 16185, 0, []
1628616515.612, 120, 0, 4152.308, 4140, 4054.872, 4151.282, 4143.077, 450, 0, []
1628616515.62, 121, 0, 4168.205, 4141.026, 4050.256, 4144.615, 4145.641, 450, 0, []
1628616515.6279, 122, 0, 4160.513, 4157.436, 4037.949, 4141.026, 4138.974, 450, 0, []
1628616515.6359, 123, 0, 4153.846, 4149.231, 4050.256, 4149.231, 4130.769, 16185, 0, []
1628616515.6437, 124, 0, 4162.564, 4137.949, 4052.821, 4161.026, 4129.231, 450, 0, []
1628616515.6517, 125, 0, 4158.974, 4148.205, 4058.974, 4147.692, 4121.538, 450, 0, []
1628616515.6596, 126, 0, 4147.179, 4156.923, 4046.154, 4128.718, 4120.513, 450, 0, []
1628616515.6676, 127, 0, 4151.282, 4147.179, 4048.205, 4143.077, 4135.897, 16185, 0, []
1628616515.6755, 128, 0, 4157.436, 4130.256, 4083.077, 4156.923, 4138.462, 450, 0, []
1628616515.6834, 0, 0, 4154.359, 4125.641, 4067.692, 4136.923, 4124.103, 450, 0, []
1628616515.6913, 1, 0, 4154.359, 4149.231, 4056.923, 4128.718, 4116.41, 450, 0, []
1628616515.6993, 2, 0, 4165.128, 4166.667, 4058.974, 4152.308, 4127.179, 16197, 0, []
1628616515.7072, 3, 0, 4164.103, 4146.667, 4051.795, 4160, 4132.308, 450, 0, []
1628616515.7152, 4, 0, 4153.846, 4131.795, 4069.744, 4144.103, 4117.949, 16127, 0, []
1628616515.723, 5, 0, 4164.615, 4146.154, 4067.179, 4137.436, 4110.769, 450, 0, []
1628616515.7308, 6, 0, 4169.231, 4163.59, 4063.59, 4144.615, 4117.436, 16078, 0, []
1628616515.7387, 7, 0, 4147.692, 4170.769, 4063.59, 4144.103, 4118.974, 450, 0, []
1628616515.7466, 8, 0, 4134.359, 4169.744, 4054.872, 4138.462, 4111.795, 450, 0, []
1628616515.7545, 9, 0, 4132.308, 4151.795, 4062.564, 4137.436, 4102.051, 16132, 0, []
1628616515.7624, 10, 0, 4133.333, 4130.769, 4057.436, 4146.667, 4102.051, 450, 0, []
1628616515.7703, 11, 0, 4155.897, 4138.974, 4075.385, 4168.205, 4123.077, 16201, 0, []
1628616515.7781, 12, 0, 4174.359, 4163.59, 4086.154, 4168.205, 4134.872, 450, 0, []
1628616515.7861, 13, 0, 4169.744, 4169.744, 4068.205, 4158.974, 4130.256, 450, 0, []
1628616515.794, 14, 0, 4165.641, 4143.077, 4070.769, 4165.128, 4129.744, 450, 0, []
1628616515.8019, 15, 0, 4159.487, 4127.179, 4048.718, 4156.41, 4123.59, 16201, 0, []
1628616515.8098, 16, 0, 4150.256, 4143.59, 4044.615, 4139.487, 4115.385, 0, 0, []
1628616515.8178, 17, 0, 4155.385, 4143.077, 4064.103, 4137.436, 4121.538, 0, 0, []
1628616515.8257, 18, 0, 4166.667, 4116.41, 4058.974, 4141.026, 4128.205, 0, 0, []
1628616515.8337, 19, 0, 4166.154, 4118.974, 4069.744, 4135.385, 4124.615, 0, 0, []
1628616515.8415, 20, 0, 4158.974, 4136.41, 4051.795, 4128.718, 4126.154, 0, 0, []
1628616515.8495, 21, 0, 4148.718, 4113.333, 4037.949, 4135.897, 4127.692, 0, 0, []
1628616515.8574, 22, 0, 4144.103, 4103.077, 4060.513, 4142.051, 4123.077, 0, 0, []
1628616515.8654, 23, 0, 4158.974, 4125.128, 4057.436, 4137.436, 4125.128, 0, 0, []
1628616515.8733, 24, 0, 4171.795, 4109.744, 4068.205, 4142.051, 4130.256, 0, 0, []
1628616515.881, 25, 0, 4168.205, 4088.718, 4070.769, 4149.744, 4135.385, 0, 0, []
1628616515.8889, 26, 0, 4175.385, 4112.821, 4065.641, 4145.641, 4143.077, 0, 0, []
1628616515.8967, 27, 0, 4207.692, 4131.282, 4080.513, 4144.615, 4160, 0, 0, []
1628616515.9046, 28, 0, 4224.103, 4114.359, 4067.179, 4134.359, 4173.846, 0, 0, []
1628616515.9124, 29, 0, 4218.462, 4115.385, 4054.359, 4108.205, 4172.308, 0, 0, []
1628616515.9203, 30, 0, 4229.744, 4138.462, 4045.128, 4101.026, 4173.846, 0, 0, []
1628616515.928, 31, 0, 4245.641, 4133.333, 4044.103, 4103.59, 4172.821, 0, 0, []
1628616515.936, 32, 0, 4246.667, 4123.077, 4058.974, 4088.718, 4166.154, 0, 0, []
1628616515.9439, 33, 0, 4251.282, 4141.026, 4062.564, 4096.923, 4181.538, 0, 0, []
1628616515.9519, 34, 0, 4252.821, 4151.795, 4084.103, 4125.128, 4195.385, 0, 0, []
1628616515.9598, 35, 0, 4235.385, 4143.077, 4077.949, 4109.744, 4174.359, 0, 0, []
1628616515.9677, 36, 0, 4227.692, 4148.205, 4062.051, 4097.436, 4164.103, 0, 0, []
1628616515.9756, 37, 0, 4239.487, 4146.667, 4085.128, 4124.615, 4177.436, 0, 0, []
1628616515.9836, 38, 0, 4238.462, 4135.385, 4080.513, 4130.769, 4174.872, 0, 0, []
1628616515.9915, 39, 0, 4228.205, 4157.436, 4088.205, 4128.718, 4175.385, 0, 0, []
1628616515.9995, 40, 0, 4232.308, 4161.538, 4107.692, 4141.538, 4188.718, 0, 0, []
1628616516.0073, 41, 0, 4234.872, 4141.538, 4098.974, 4143.077, 4182.564, 0, 0, []
1628616516.0153, 42, 0, 4222.564, 4153.333, 4097.436, 4138.462, 4167.692, 0, 0, []
1628616516.0232, 43, 0, 4202.051, 4152.821, 4080.513, 4136.41, 4157.949, 0, 0, []
1628616516.031, 44, 0, 4180.513, 4134.872, 4070.256, 4119.487, 4132.308, 0, 0, []
1628616516.0389, 45, 0, 4187.179, 4154.359, 4076.41, 4111.282, 4120.513, 0, 0, []
1628616516.0466, 46, 0, 4227.692, 4180.513, 4091.795, 4138.974, 4153.846, 0, 0, []
1628616516.0545, 47, 0, 4240.513, 4189.744, 4110.769, 4148.205, 4164.103, 0, 0, []
1628616516.0623, 48, 0, 4207.179, 4189.231, 4075.385, 4123.59, 4134.359, 0, 0, []
1628616516.0702, 49, 0, 4182.051, 4160.513, 4059.487, 4120, 4119.487, 0, 0, []
1628616516.078, 50, 0, 4180.513, 4148.205, 4073.333, 4120.513, 4111.282, 0, 0, []
1628616516.0859, 51, 0, 4182.564, 4171.795, 4061.538, 4113.846, 4104.103, 0, 0, []
1628616516.0938, 52, 0, 4195.385, 4175.385, 4084.615, 4133.846, 4133.846, 0, 0, []
1628616516.1018, 53, 0, 4204.615, 4170.256, 4092.821, 4144.615, 4160.513, 0, 0, []
1628616516.1097, 54, 0, 4196.41, 4170.256, 4078.974, 4123.077, 4143.077, 0, 0, []
1628616516.1177, 55, 0, 4193.333, 4156.923, 4088.205, 4115.897, 4136.41, 0, 0, []
1628616516.1255, 56, 0, 4202.564, 4162.051, 4091.795, 4133.846, 4158.974, 0, 0, []
1628616516.1335, 57, 0, 4205.128, 4189.231, 4096.923, 4144.615, 4165.128, 0, 0, []
1628616516.1414, 58, 0, 4200, 4190.769, 4078.462, 4137.949, 4157.949, 0, 0, []
1628616516.1494, 59, 0, 4200.513, 4178.462, 4074.872, 4130.769, 4154.872, 0, 0, []
1628616516.1573, 60, 0, 4215.385, 4185.128, 4093.846, 4125.641, 4158.462, 0, 0, []
1628616516.1652, 61, 0, 4233.333, 4198.974, 4076.41, 4125.128, 4171.795, 0, 0, []
1628616516.1731, 62, 0, 4246.154, 4194.359, 4079.487, 4131.282, 4191.282, 0, 0, []
1628616516.1809, 63, 0, 4270.256, 4186.667, 4093.333, 4140, 4211.282, 0, 0, []
1628616516.1888, 64, 0, 4294.359, 4192.821, 4096.41, 4150.769, 4229.744, 450, 0, []
1628616516.1966, 65, 0, 4303.59, 4203.59, 4100, 4147.179, 4241.026, 450, 0, []
1628616516.2044, 66, 0, 4323.59, 4213.846, 4089.231, 4142.564, 4260.513, 16175, 0, []
1628616516.2122, 67, 0, 4348.718, 4231.282, 4104.103, 4153.333, 4280.513, 450, 0, []
1628616516.2201, 68, 0, 4345.128, 4238.462, 4099.487, 4147.692, 4277.436, 16112, 0, []
1628616516.2279, 69, 0, 4308.718, 4213.846, 4068.718, 4114.359, 4249.231, 450, 0, []
1628616516.2358, 70, 0, 4277.949, 4195.385, 4073.846, 4100, 4223.59, 16087, 0, []
1628616516.2435, 71, 0, 4288.205, 4207.692, 4081.538, 4135.897, 4232.821, 450, 0, []
1628616516.2515, 72, 0, 4293.846, 4224.103, 4097.949, 4165.641, 4238.462, 450, 0, []
1628616516.2594, 73, 0, 4245.641, 4223.59, 4094.359, 4154.359, 4195.385, 16135, 0, []
1628616516.2674, 74, 0, 4198.462, 4213.333, 4071.282, 4136.923, 4149.231, 450, 0, []
1628616516.2753, 75, 0, 4204.103, 4213.333, 4080.513, 4126.667, 4149.744, 16233, 0, []
1628616516.2832, 76, 0, 4219.487, 4218.974, 4074.359, 4118.462, 4169.231, 450, 0, []
1628616516.2911, 77, 0, 4212.821, 4228.205, 4080, 4121.538, 4171.795, 450, 0, []
1628616516.2991, 78, 0, 4203.077, 4238.974, 4094.872, 4131.282, 4163.077, 450, 0, []
1628616516.307, 79, 0, 4192.821, 4224.103, 4088.718, 4142.564, 4158.462, 16233, 0, []
1628616516.315, 80, 0, 4175.385, 4191.282, 4091.282, 4152.821, 4149.744, 450, 0, []
1628616516.3228, 81, 0, 4165.641, 4188.205, 4069.231, 4148.718, 4132.821, 450, 0, []
1628616516.3308, 82, 0, 4170.256, 4202.051, 4068.718, 4147.692, 4126.154, 450, 0, []
1628616516.3387, 83, 0, 4164.615, 4181.026, 4081.026, 4138.974, 4117.949, 16233, 0, []
1628616516.3465, 84, 0, 4150.256, 4161.026, 4060, 4113.846, 4100.513, 450, 0, []
1628616516.3544, 85, 0, 4153.846, 4184.615, 4068.205, 4107.692, 4095.385, 450, 0, []
1628616516.3621, 86, 0, 4167.179, 4199.487, 4073.333, 4117.436, 4105.641, 450, 0, []
1628616516.37, 87, 0, 4169.744, 4191.282, 4069.231, 4119.487, 4114.872, 16233, 0, []
1628616516.3778, 88, 0, 4146.667, 4190.769, 4061.538, 4109.231, 4101.026, 450, 0, []
1628616516.3857, 89, 0, 4117.949, 4170.769, 4041.026, 4110.256, 4079.487, 450, 0, []
1628616516.3935, 90, 0, 4135.385, 4153.846, 4070.769, 4134.359, 4095.385, 450, 0, []
1628616516.4014, 91, 0, 4173.333, 4182.051, 4083.077, 4149.744, 4128.718, 16233, 0, []
1628616516.4093, 92, 0, 4177.436, 4213.333, 4076.923, 4146.154, 4131.282, 450, 0, []
1628616516.4173, 93, 0, 4167.179, 4208.718, 4093.846, 4138.974, 4118.462, 450, 0, []
1628616516.4252, 94, 0, 4165.641, 4182.051, 4074.872, 4131.795, 4107.179, 450, 0, []
1628616516.4332, 95, 0, 4161.538, 4173.846, 4062.564, 4129.231, 4095.385, 16233, 0, []
1628616516.441, 96, 0, 4150.256, 4190.769, 4063.59, 4128.205, 4087.692, 450, 0, []
1628616516.449, 97, 0, 4142.564, 4185.128, 4055.385, 4120, 4088.205, 450, 0, []
1628616516.4569, 98, 0, 4148.205, 4171.282, 4047.692, 4111.282, 4099.487, 450, 0, []
1628616516.4649, 99, 0, 4159.487, 4193.846, 4046.667, 4121.026, 4114.872, 16233, 0, []
1628616516.4728, 100, 0, 4154.359, 4202.564, 4065.641, 4132.821, 4111.282, 450, 0, []
1628616516.4807, 101, 0, 4145.128, 4177.436, 4048.718, 4129.744, 4102.051, 450, 0, []
1628616516.4886, 102, 0, 4158.462, 4187.179, 4045.641, 4129.231, 4107.692, 450, 0, []
1628616516.4964, 103, 0, 4173.333, 4218.462, 4084.615, 4136.41, 4109.231, 16233, 0, []
1628616516.5043, 104, 0, 4163.077, 4196.41, 4062.051, 4132.308, 4100.513, 450, 0, []
1628616516.5121, 105, 0, 4149.744, 4165.641, 4042.051, 4114.359, 4093.333, 450, 0, []
1628616516.5199, 106, 0, 4164.103, 4189.231, 4061.026, 4106.667, 4103.59, 450, 0, []
1628616516.5277, 107, 0, 4186.154, 4207.179, 4064.615, 4116.923, 4125.641, 16233, 0, []
1628616516.5356, 108, 0, 4200, 4180.513, 4062.051, 4121.026, 4141.026, 450, 0, []
1628616516.5434, 109, 0, 4231.282, 4182.051, 4048.718, 4125.128, 4167.179, 450, 0, []
1628616516.5514, 110, 0, 4263.077, 4205.128, 4056.41, 4133.846, 4194.872, 450, 0, []
1628616516.5592, 111, 0, 4287.692, 4196.41, 4060.513, 4115.897, 4212.308, 16233, 0, []
1628616516.5672, 112, 0, 4330.256, 4195.385, 4053.333, 4108.205, 4243.077, 450, 0, []
1628616516.5751, 113, 0, 4369.744, 4204.103, 4065.128, 4130.256, 4272.821, 450, 0, []
1628616516.5831, 114, 0, 4378.974, 4186.667, 4046.667, 4127.179, 4272.821, 450, 0, []
1628616516.591, 115, 0, 4372.308, 4180, 4047.179, 4120, 4267.179, 16233, 0, []
1628616516.5989, 116, 0, 4355.897, 4188.718, 4066.154, 4129.231, 4263.59, 450, 0, []
1628616516.6068, 117, 0, 4342.051, 4177.949, 4051.282, 4128.718, 4255.897, 450, 0, []
1628616516.6148, 118, 0, 4341.538, 4187.692, 4062.051, 4125.641, 4254.359, 450, 0, []
1628616516.6227, 119, 0, 4319.487, 4202.564, 4055.897, 4127.692, 4235.897, 16233, 0, []
1628616516.6305, 120, 0, 4280.513, 4176.923, 4038.974, 4122.564, 4195.897, 450, 0, []
1628616516.6383, 121, 0, 4265.128, 4168.718, 4051.795, 4123.077, 4183.077, 450, 0, []
1628616516.6461, 122, 0, 4262.564, 4187.179, 4047.179, 4125.128, 4194.872, 450, 0, []
1628616516.654, 123, 0, 4242.564, 4166.154, 4047.179, 4113.846, 4176.923, 16233, 0, []
1628616516.6618, 124, 0, 4216.923, 4146.154, 4050.769, 4116.923, 4149.231, 450, 0, []
1628616516.6697, 125, 0, 4208.718, 4172.308, 4054.872, 4125.641, 4148.205, 450, 0, []
1628616516.6774, 126, 0, 4214.872, 4176.923, 4055.385, 4117.436, 4152.308, 450, 0, []
1628616516.6853, 127, 0, 4216.41, 4156.923, 4043.59, 4119.487, 4147.692, 16233, 0, []
1628616516.6931, 128, 0, 4205.128, 4162.564, 4069.231, 4134.359, 4139.487, 450, 0, []
1628616516.701, 0, 0, 4200.513, 4168.718, 4077.949, 4130.256, 4137.949, 450, 0, []
1628616516.7088, 1, 0, 4202.051, 4167.179, 4067.179, 4132.821, 4141.538, 450, 0, []
1628616516.7168, 2, 0, 4187.179, 4175.385, 4068.718, 4138.974, 4132.308, 16192, 0, []
1628616516.7246, 3, 0, 4170.769, 4167.179, 4050.256, 4118.974, 4109.231, 450, 0, []
1628616516.7325, 4, 0, 4163.077, 4156.923, 4057.949, 4108.205, 4097.949, 16131, 0, []
1628616516.7404, 5, 0, 4157.436, 4171.282, 4065.128, 4117.436, 4106.154, 450, 0, []
1628616516.7483, 6, 0, 4152.821, 4164.615, 4060.513, 4113.333, 4109.744, 16065, 0, []
1628616516.7563, 7, 0, 4146.154, 4141.538, 4072.308, 4100.513, 4100.513, 450, 0, []
1628616516.7642, 8, 0, 4142.051, 4156.41, 4058.974, 4110.769, 4099.487, 450, 0, []
1628616516.7721, 9, 0, 4162.051, 4177.436, 4083.59, 4149.744, 4125.641, 16146, 0, []
1628616516.7801, 10, 0, 4177.949, 4166.154, 4106.154, 4165.128, 4138.462, 450, 0, []
1628616516.788, 11, 0, 4151.795, 4157.949, 4070.256, 4135.385, 4104.615, 16185, 0, []
1628616516.7958, 12, 0, 4136.41, 4157.436, 4063.59, 4113.846, 4083.59, 450, 0, []
1628616516.8036, 13, 0, 4165.128, 4154.359, 4071.282, 4135.897, 4109.744, 450, 0, []
1628616516.8114, 14, 0, 4173.846, 4155.897, 4069.231, 4143.59, 4116.923, 450, 0, []
1628616516.8193, 15, 0, 4144.103, 4138.974, 4049.744, 4112.821, 4088.205, 16185, 0, []
1628616516.8271, 16, 0, 4127.692, 4100.513, 4032.308, 4102.051, 4078.974, 0, 0, []
1628616516.835, 17, 0, 4150.256, 4103.59, 4064.615, 4123.077, 4100, 0, 0, []
1628616516.8427, 18, 0, 4182.564, 4151.795, 4088.718, 4151.795, 4127.692, 0, 0, []
1628616516.8506, 19, 0, 4187.179, 4164.615, 4094.359, 4164.103, 4136.923, 0, 0, []
1628616516.8584, 20, 0, 4173.333, 4141.538, 4091.282, 4151.795, 4125.641, 0, 0, []
1628616516.8664, 21, 0, 4162.051, 4136.41, 4081.026, 4150.769, 4116.923, 0, 0, []
1628616516.8743, 22, 0, 4135.897, 4125.128, 4074.872, 4147.179, 4094.359, 0, 0, []
1628616516.8822, 23, 0, 4108.718, 4082.564, 4040.513, 4121.026, 4060.513, 0, 0, []
1628616516.8901, 24, 0, 4133.333, 4080, 4055.385, 4132.308, 4077.949, 0, 0, []
1628616516.8981, 25, 0, 4170.256, 4131.795, 4096.41, 4160, 4117.949, 0, 0, []
1628616516.906, 26, 0, 4153.333, 4137.436, 4064.615, 4126.667, 4098.462, 0, 0, []
1628616516.914, 27, 0, 4138.462, 4094.872, 4054.872, 4108.718, 4076.41, 0, 0, []
1628616516.9218, 28, 0, 4157.949, 4103.59, 4074.359, 4143.59, 4101.538, 0, 0, []
1628616516.9298, 29, 0, 4162.051, 4140, 4075.897, 4140.513, 4109.231, 0, 0, []
1628616516.9377, 30, 0, 4149.744, 4116.923, 4069.744, 4117.436, 4095.385, 0, 0, []
1628616516.9457, 31, 0, 4148.205, 4094.359, 4057.436, 4131.282, 4101.026, 0, 0, []
1628616516.9536, 32, 0, 4154.872, 4128.205, 4080.513, 4147.179, 4112.308, 0, 0, []
1628616516.9613, 33, 0, 4157.436, 4136.41, 4083.077, 4134.359, 4108.718, 0, 0, []
1628616516.9692, 34, 0, 4150.769, 4097.949, 4061.538, 4116.923, 4095.385, 0, 0, []
1628616516.977, 35, 0, 4147.692, 4105.128, 4064.615, 4112.308, 4088.718, 0, 0, []
1628616516.9849, 36, 0, 4152.308, 4138.974, 4065.641, 4121.538, 4091.282, 0, 0, []
1628616516.9927, 37, 0, 4145.128, 4118.974, 4082.564, 4131.795, 4083.077, 0, 0, []
1628616517.0005, 38, 0, 4133.333, 4095.897, 4078.974, 4127.692, 4073.333, 0, 0, []
1628616517.0083, 39, 0, 4142.564, 4119.487, 4069.744, 4134.872, 4090.256, 0, 0, []
1628616517.0163, 40, 0, 4141.538, 4121.538, 4071.795, 4133.333, 4094.359, 0, 0, []
1628616517.0242, 41, 0, 4124.103, 4073.333, 4049.231, 4113.846, 4081.026, 0, 0, []
1628616517.0322, 42, 0, 4136.923, 4060, 4069.744, 4128.718, 4100, 0, 0, []
1628616517.04, 43, 0, 4155.897, 4099.487, 4088.205, 4146.154, 4112.308, 0, 0, []
1628616517.048, 44, 0, 4147.179, 4113.846, 4068.205, 4142.564, 4092.821, 0, 0, []
1628616517.0559, 45, 0, 4131.795, 4082.564, 4060.513, 4140.513, 4080, 0, 0, []
1628616517.0639, 46, 0, 4132.308, 4055.385, 4047.692, 4135.897, 4085.641, 0, 0, []
1628616517.0718, 47, 0, 4153.846, 4076.923, 4074.872, 4142.564, 4108.205, 0, 0, []
1628616517.0797, 48, 0, 4166.154, 4107.692, 4095.897, 4154.359, 4125.641, 0, 0, []
1628616517.0876, 49, 0, 4140.513, 4090.256, 4056.923, 4128.718, 4102.051, 0, 0, []
1628616517.0956, 50, 0, 4131.795, 4072.308, 4062.051, 4112.821, 4085.128, 0, 0, []
1628616517.1035, 51, 0, 4163.59, 4097.949, 4085.641, 4154.872, 4122.051, 0, 0, []
1628616517.1113, 52, 0, 4166.667, 4118.462, 4087.179, 4177.949, 4138.462, 0, 0, []
1628616517.1191, 53, 0, 4142.051, 4111.795, 4080.513, 4150.256, 4109.744, 0, 0, []
1628616517.1269, 54, 0, 4142.051, 4099.487, 4067.179, 4132.821, 4096.41, 0, 0, []
1628616517.1348, 55, 0, 4150.256, 4086.667, 4071.795, 4127.179, 4100.513, 0, 0, []
1628616517.1426, 56, 0, 4151.282, 4076.41, 4052.308, 4112.308, 4106.154, 0, 0, []
1628616517.1505, 57, 0, 4171.795, 4084.615, 4041.538, 4107.179, 4122.564, 0, 0, []
1628616517.1582, 58, 0, 4219.487, 4111.282, 4068.205, 4122.051, 4157.949, 0, 0, []
1628616517.1661, 59, 0, 4277.949, 4140.513, 4083.077, 4152.821, 4214.872, 0, 0, []
1628616517.1739, 60, 0, 4322.564, 4145.641, 4091.795, 4172.308, 4258.974, 0, 0, []
1628616517.1819, 61, 0, 4353.333, 4126.667, 4080.513, 4162.564, 4276.41, 0, 0, []
1628616517.1898, 62, 0, 4379.487, 4121.538, 4087.179, 4160.513, 4294.872, 0, 0, []
1628616517.1977, 63, 0, 4373.333, 4132.821, 4101.026, 4164.103, 4304.103, 0, 0, []
1628616517.2056, 64, 0, 4353.846, 4122.051, 4084.103, 4152.308, 4292.821, 450, 0, []
1628616517.2136, 65, 0, 4346.667, 4113.846, 4091.282, 4141.026, 4277.436, 450, 0, []
1628616517.2215, 66, 0, 4323.59, 4135.897, 4087.692, 4135.897, 4252.821, 16190, 0, []
1628616517.2295, 67, 0, 4297.436, 4144.615, 4081.538, 4148.205, 4234.872, 450, 0, []
1628616517.2373, 68, 0, 4294.359, 4132.821, 4099.487, 4164.103, 4230.256, 16138, 0, []
1628616517.2453, 69, 0, 4277.949, 4141.538, 4085.128, 4155.385, 4210.769, 450, 0, []
1628616517.2532, 70, 0, 4247.179, 4154.359, 4081.538, 4142.051, 4182.564, 16059, 0, []
1628616517.261, 71, 0, 4242.564, 4138.974, 4085.641, 4140.513, 4174.872, 450, 0, []
1628616517.2689, 72, 0, 4243.077, 4131.282, 4080.513, 4140, 4170.769, 450, 0, []
1628616517.2766, 73, 0, 4213.333, 4146.154, 4076.923, 4129.744, 4150.769, 16116, 0, []
1628616517.2845, 74, 0, 4177.949, 4143.59, 4048.205, 4116.923, 4130.769, 450, 0, []
1628616517.2923, 75, 0, 4168.205, 4128.718, 4056.923, 4121.026, 4122.051, 16196, 0, []
1628616517.3002, 76, 0, 4177.436, 4144.103, 4077.436, 4134.359, 4124.615, 450, 0, []
1628616517.308, 77, 0, 4174.359, 4165.128, 4066.667, 4130.769, 4121.026, 450, 0, []
1628616517.3158, 78, 0, 4160, 4140.513, 4069.231, 4118.974, 4103.59, 450, 0, []
1628616517.3236, 79, 0, 4160.513, 4115.385, 4068.205, 4128.205, 4105.641, 16196, 0, []
1628616517.3316, 80, 0, 4172.308, 4148.718, 4084.103, 4151.282, 4129.231, 450, 0, []
1628616517.3395, 81, 0, 4174.872, 4172.308, 4088.205, 4158.974, 4133.333, 450, 0, []
1628616517.3475, 82, 0, 4162.051, 4135.897, 4065.128, 4150.769, 4111.795, 450, 0, []
1628616517.3553, 83, 0, 4147.692, 4127.692, 4068.718, 4140, 4096.41, 16196, 0, []
1628616517.3633, 84, 0, 4154.872, 4163.077, 4056.41, 4138.974, 4109.231, 450, 0, []
1628616517.3712, 85, 0, 4172.821, 4153.333, 4059.487, 4143.59, 4118.462, 450, 0, []
1628616517.3792, 86, 0, 4158.462, 4126.667, 4073.846, 4130.769, 4097.949, 450, 0, []
1628616517.3871, 87, 0, 4121.538, 4125.641, 4050.769, 4105.641, 4074.359, 16196, 0, []
1628616517.395, 88, 0, 4113.846, 4115.385, 4046.667, 4106.154, 4078.974, 450, 0, []
1628616517.4029, 89, 0, 4137.436, 4106.667, 4047.692, 4137.436, 4106.667, 450, 0, []
1628616517.4109, 90, 0, 4144.615, 4114.359, 4054.872, 4154.872, 4114.872, 450, 0, []
1628616517.4188, 91, 0, 4129.231, 4103.59, 4056.923, 4132.821, 4095.385, 16196, 0, []
1628616517.4266, 92, 0, 4128.205, 4112.821, 4044.103, 4117.436, 4088.718, 450, 0, []
1628616517.4344, 93, 0, 4143.077, 4144.103, 4063.59, 4136.41, 4102.051, 450, 0, []
1628616517.4422, 94, 0, 4144.103, 4121.538, 4057.949, 4147.692, 4097.949, 450, 0, []
1628616517.4501, 95, 0, 4132.821, 4090.256, 4043.59, 4134.359, 4080.513, 16196, 0, []
1628616517.4579, 96, 0, 4123.077, 4106.667, 4042.564, 4110.256, 4068.718, 450, 0, []
1628616517.4658, 97, 0, 4120, 4112.821, 4028.205, 4100.513, 4070.769, 450, 0, []
1628616517.4736, 98, 0, 4121.538, 4081.026, 4053.333, 4114.872, 4085.128, 450, 0, []
1628616517.4814, 99, 0, 4116.41, 4070.256, 4066.154, 4118.462, 4085.641, 16196, 0, []
1628616517.4892, 100, 0, 4113.846, 4095.897, 4055.897, 4114.359, 4075.385, 450, 0, []
1628616517.4972, 101, 0, 4131.795, 4102.564, 4069.744, 4123.59, 4084.615, 450, 0, []
1628616517.5051, 102, 0, 4138.974, 4079.487, 4058.462, 4130.256, 4092.308, 450, 0, []
1628616517.5131, 103, 0, 4122.051, 4065.128, 4045.128, 4125.128, 4079.487, 16196, 0, []
1628616517.5209, 104, 0, 4123.077, 4091.795, 4046.667, 4129.231, 4080.513, 450, 0, []
1628616517.5289, 105, 0, 4144.615, 4130.769, 4061.026, 4141.538, 4098.974, 450, 0, []
1628616517.5368, 106, 0, 4150.256, 4129.744, 4068.205, 4135.897, 4106.667, 450, 0, []
1628616517.5448, 107, 0, 4144.615, 4101.026, 4037.949, 4124.615, 4103.077, 16196, 0, []
1628616517.5527, 108, 0, 4135.897, 4103.077, 4051.795, 4129.231, 4095.897, 450, 0, []
1628616517.5606, 109, 0, 4122.051, 4112.308, 4071.282, 4129.744, 4086.154, 450, 0, []
1628616517.5685, 110, 0, 4121.538, 4096.923, 4059.487, 4123.59, 4087.692, 450, 0, []
1628616517.5763, 111, 0, 4129.231, 4108.205, 4064.103, 4122.051, 4088.718, 16196, 0, []
1628616517.5842, 112, 0, 4131.795, 4118.974, 4056.41, 4124.615, 4087.692, 450, 0, []
1628616517.592, 113, 0, 4141.538, 4106.154, 4069.744, 4126.667, 4103.59, 450, 0, []
1628616517.5998, 114, 0, 4145.641, 4127.692, 4073.846, 4116.41, 4109.231, 450, 0, []
1628616517.6076, 115, 0, 4133.846, 4144.103, 4041.538, 4111.282, 4091.282, 16196, 0, []
1628616517.6155, 116, 0, 4136.41, 4122.051, 4043.077, 4125.128, 4088.718, 450, 0, []
1628616517.6233, 117, 0, 4154.872, 4135.897, 4038.974, 4125.641, 4104.615, 450, 0, []
1628616517.6312, 118, 0, 4170.256, 4173.333, 4040, 4115.897, 4117.436, 450, 0, []
1628616517.6389, 119, 0, 4189.231, 4153.846, 4053.333, 4114.872, 4138.462, 16196, 0, []
1628616517.6469, 120, 0, 4229.231, 4124.615, 4052.308, 4115.385, 4179.487, 450, 0, []
1628616517.6548, 121, 0, 4287.692, 4156.41, 4074.359, 4126.667, 4226.154, 450, 0, []
1628616517.6628, 122, 0, 4336.923, 4190.256, 4078.462, 4148.205, 4264.103, 450, 0, []
1628616517.6707, 123, 0, 4346.667, 4163.077, 4069.744, 4146.667, 4273.846, 16196, 0, []
1628616517.6786, 124, 0, 4338.974, 4129.231, 4061.026, 4123.59, 4271.795, 450, 0, []
1628616517.6865, 125, 0, 4356.41, 4142.564, 4053.333, 4129.744, 4292.308, 450, 0, []
1628616517.6945, 126, 0, 4369.744, 4154.872, 4079.487, 4153.846, 4305.128, 450, 0, []
1628616517.7024, 127, 0, 4348.205, 4161.026, 4076.923, 4145.128, 4290.256, 16196, 0, []
1628616517.7104, 128, 0, 4332.308, 4170.769, 4071.282, 4133.333, 4282.051, 450, 0, []
1628616517.7182, 0, 0, 4331.795, 4153.333, 4077.949, 4144.103, 4278.462, 450, 0, []
1628616517.726, 1, 0, 4303.59, 4130.256, 4047.692, 4140.513, 4245.128, 450, 0, []
1628616517.7339, 2, 0, 4266.154, 4133.333, 4050.256, 4121.538, 4212.821, 16171, 0, []
1628616517.7417, 3, 0, 4261.538, 4145.641, 4065.128, 4123.59, 4211.795, 450, 0, []
1628616517.7496, 4, 0, 4260, 4151.282, 4063.59, 4143.077, 4208.205, 16126, 0, []
1628616517.7573, 5, 0, 4249.231, 4156.41, 4070.769, 4145.641, 4193.333, 450, 0, []
1628616517.7652, 6, 0, 4245.128, 4155.385, 4064.103, 4140.513, 4191.795, 16097, 0, []
1628616517.773, 7, 0, 4230.769, 4151.282, 4070.256, 4138.974, 4184.103, 450, 0, []
1628616517.7809, 8, 0, 4201.026, 4141.026, 4057.436, 4129.744, 4154.872, 450, 0, []
1628616517.7887, 9, 0, 4186.154, 4124.103, 4043.077, 4123.59, 4133.846, 16100, 0, []
1628616517.7966, 10, 0, 4182.564, 4140, 4062.564, 4129.231, 4136.923, 450, 0, []
1628616517.8045, 11, 0, 4171.795, 4159.487, 4058.974, 4128.205, 4136.923, 16186, 0, []
1628616517.8125, 12, 0, 4158.974, 4134.359, 4064.103, 4116.923, 4120.513, 450, 0, []
1628616517.8204, 13, 0, 4164.615, 4121.026, 4078.974, 4125.128, 4125.641, 450, 0, []
1628616517.8284, 14, 0, 4181.538, 4154.872, 4082.051, 4152.821, 4147.692, 450, 0, []
1628616517.8362, 15, 0, 4168.205, 4158.974, 4078.462, 4145.128, 4134.359, 16186, 0, []
1628616517.8442, 16, 0, 4147.692, 4140.513, 4058.462, 4121.538, 4114.359, 0, 0, []
1628616517.8521, 17, 0, 4159.487, 4169.231, 4074.359, 4131.282, 4123.077, 0, 0, []
1628616517.8601, 18, 0, 4163.077, 4174.872, 4073.846, 4140.513, 4118.974, 0, 0, []
1628616517.868, 19, 0, 4146.667, 4145.641, 4054.872, 4138.974, 4108.205, 0, 0, []
1628616517.8757, 20, 0, 4146.667, 4178.974, 4089.231, 4149.744, 4115.385, 0, 0, []
1628616517.8836, 21, 0, 4155.897, 4217.436, 4095.897, 4148.205, 4110.256, 0, 0, []
1628616517.8914, 22, 0, 4153.846, 4185.641, 4085.128, 4137.436, 4100, 0, 0, []
1628616517.8993, 23, 0, 4142.564, 4162.051, 4082.564, 4131.795, 4096.923, 0, 0, []
1628616517.9071, 24, 0, 4121.538, 4163.59, 4058.974, 4121.538, 4086.154, 0, 0, []
1628616517.9149, 25, 0, 4116.41, 4160.513, 4066.154, 4124.615, 4088.718, 0, 0, []
1628616517.9227, 26, 0, 4131.795, 4172.821, 4081.026, 4144.103, 4104.615, 0, 0, []
1628616517.9306, 27, 0, 4132.308, 4176.41, 4089.231, 4147.692, 4099.487, 0, 0, []
1628616517.9384, 28, 0, 4129.744, 4161.026, 4085.128, 4136.41, 4092.308, 0, 0, []
1628616517.9463, 29, 0, 4148.205, 4165.128, 4068.718, 4138.462, 4107.692, 0, 0, []
1628616517.954, 30, 0, 4160, 4184.103, 4086.667, 4147.692, 4110.256, 0, 0, []
1628616517.962, 31, 0, 4143.077, 4187.692, 4082.564, 4131.795, 4094.359, 0, 0, []
1628616517.9699, 32, 0, 4132.821, 4182.564, 4072.821, 4120.513, 4091.282, 0, 0, []
1628616517.9779, 33, 0, 4150.256, 4172.308, 4092.821, 4136.41, 4102.564, 0, 0, []
1628616517.9858, 34, 0, 4151.282, 4166.667, 4087.692, 4136.41, 4103.59, 0, 0, []
1628616517.9937, 35, 0, 4132.821, 4166.667, 4081.538, 4116.41, 4098.462, 0, 0, []
1628616518.0016, 36, 0, 4137.949, 4158.974, 4064.103, 4117.436, 4107.692, 0, 0, []
1628616518.0096, 37, 0, 4144.615, 4146.667, 4057.949, 4134.872, 4110.769, 0, 0, []
1628616518.0175, 38, 0, 4124.103, 4133.333, 4070.256, 4131.795, 4087.692, 0, 0, []
1628616518.0253, 39, 0, 4113.333, 4124.615, 4062.564, 4127.179, 4072.308, 0, 0, []
1628616518.0331, 40, 0, 4129.231, 4112.821, 4083.59, 4139.487, 4082.564, 0, 0, []
1628616518.0409, 41, 0, 4139.487, 4104.103, 4094.359, 4137.949, 4090.769, 0, 0, []
1628616518.0488, 42, 0, 4148.205, 4116.923, 4084.615, 4135.385, 4097.436, 0, 0, []
1628616518.0566, 43, 0, 4155.385, 4125.128, 4089.744, 4144.103, 4102.564, 0, 0, []
1628616518.0645, 44, 0, 4141.026, 4107.692, 4072.308, 4141.026, 4088.718, 0, 0, []
1628616518.0722, 45, 0, 4127.179, 4108.205, 4070.256, 4138.462, 4082.051, 0, 0, []
1628616518.0801, 46, 0, 4139.487, 4130.769, 4077.949, 4150.769, 4107.179, 0, 0, []
1628616518.0879, 47, 0, 4156.41, 4148.205, 4082.051, 4165.641, 4131.795, 0, 0, []
1628616518.0958, 48, 0, 4157.436, 4162.564, 4097.436, 4168.205, 4124.615, 0, 0, []
1628616518.1036, 49, 0, 4151.282, 4163.077, 4085.128, 4166.667, 4111.795, 0, 0, []
1628616518.1115, 50, 0, 4145.128, 4153.846, 4087.692, 4166.667, 4106.667, 0, 0, []
1628616518.1194, 51, 0, 4147.692, 4148.718, 4095.385, 4162.051, 4107.692, 0, 0, []
1628616518.1274, 52, 0, 4159.487, 4148.205, 4088.205, 4162.051, 4112.308, 0, 0, []
1628616518.1353, 53, 0, 4155.897, 4155.385, 4099.487, 4157.949, 4109.231, 0, 0, []
1628616518.1433, 54, 0, 4145.641, 4169.231, 4087.179, 4148.718, 4102.051, 0, 0, []
1628616518.1511, 55, 0, 4155.897, 4167.179, 4085.641, 4153.333, 4107.179, 0, 0, []
1628616518.1591, 56, 0, 4170.769, 4149.744, 4089.744, 4161.538, 4120.513, 0, 0, []
1628616518.167, 57, 0, 4168.205, 4137.436, 4071.282, 4154.359, 4121.538, 0, 0, []
1628616518.175, 58, 0, 4165.641, 4134.359, 4083.077, 4143.077, 4114.359, 0, 0, []
1628616518.1829, 59, 0, 4184.103, 4149.231, 4083.077, 4144.103, 4122.051, 0, 0, []
1628616518.1906, 60, 0, 4217.949, 4152.821, 4079.487, 4150.256, 4148.718, 0, 0, []
1628616518.1985, 61, 0, 4251.282, 4137.949, 4082.051, 4144.103, 4182.564, 0, 0, []
1628616518.2063, 62, 0, 4282.051, 4148.718, 4060.513, 4134.359, 4211.282, 0, 0, []
1628616518.2142, 63, 0, 4331.282, 4172.308, 4070.769, 4143.59, 4244.615, 0, 0, []
1628616518.222, 64, 0, 4393.333, 4172.308, 4086.667, 4161.538, 4294.872, 450, 0, []
1628616518.2299, 65, 0, 4423.59, 4172.821, 4096.41, 4171.282, 4336.41, 450, 0, []
1628616518.2376, 66, 0, 4410.256, 4193.846, 4097.949, 4161.538, 4328.205, 16174, 0, []
1628616518.2455, 67, 0, 4384.615, 4193.333, 4075.385, 4141.026, 4301.026, 450, 0, []
1628616518.2533, 68, 0, 4379.487, 4167.179, 4094.359, 4141.026, 4305.128, 16136, 0, []
1628616518.2613, 69, 0, 4375.897, 4168.205, 4101.538, 4152.821, 4301.538, 450, 0, []
1628616518.2692, 70, 0, 4340.513, 4186.667, 4073.333, 4146.154, 4253.846, 16069, 0, []
1628616518.2771, 71, 0, 4306.154, 4184.103, 4070.769, 4136.41, 4221.026, 450, 0, []
1628616518.285, 72, 0, 4304.103, 4182.051, 4078.462, 4148.205, 4232.821, 450, 0, []
1628616518.293, 73, 0, 4300.513, 4204.103, 4097.436, 4161.026, 4234.872, 16104, 0, []
1628616518.3009, 74, 0, 4286.154, 4214.872, 4095.385, 4160, 4215.385, 450, 0, []
1628616518.3089, 75, 0, 4269.231, 4189.231, 4083.59, 4159.487, 4203.59, 16166, 0, []
1628616518.3167, 76, 0, 4233.333, 4164.615, 4078.974, 4149.231, 4181.538, 450, 0, []
1628616518.3247, 77, 0, 4217.436, 4169.231, 4065.128, 4141.538, 4166.667, 450, 0, []
1628616518.3326, 78, 0, 4242.564, 4190.256, 4091.795, 4160, 4187.692, 450, 0, []
1628616518.3404, 79, 0, 4245.641, 4181.026, 4097.949, 4163.077, 4196.923, 16166, 0, []
1628616518.3483, 80, 0, 4218.462, 4147.179, 4076.41, 4146.154, 4174.359, 450, 0, []
1628616518.356, 81, 0, 4206.154, 4160.513, 4092.821, 4147.179, 4160, 450, 0, []
1628616518.3639, 82, 0, 4204.103, 4189.744, 4088.205, 4152.821, 4156.923, 450, 0, []
1628616518.3717, 83, 0, 4200, 4184.103, 4090.769, 4149.231, 4148.718, 16166, 0, []
1628616518.3797, 84, 0, 4197.949, 4192.308, 4099.487, 4145.128, 4143.59, 450, 0, []
1628616518.3876, 85, 0, 4187.179, 4208.205, 4084.103, 4140.513, 4140, 450, 0, []
1628616518.3954, 86, 0, 4180, 4181.026, 4087.692, 4136.923, 4133.846, 450, 0, []
1628616518.4032, 87, 0, 4193.846, 4167.692, 4082.051, 4147.179, 4145.128, 16166, 0, []
1628616518.4111, 88, 0, 4208.205, 4204.615, 4088.718, 4159.487, 4155.897, 450, 0, []
1628616518.4189, 89, 0, 4201.026, 4209.231, 4098.974, 4148.205, 4143.077, 450, 0, []
1628616518.4269, 90, 0, 4178.974, 4183.59, 4090.256, 4136.923, 4125.128, 450, 0, []
1628616518.4347, 91, 0, 4164.103, 4187.692, 4098.462, 4141.026, 4120, 16166, 0, []
1628616518.4427, 92, 0, 4164.103, 4208.205, 4080.513, 4138.974, 4123.59, 450, 0, []
1628616518.4506, 93, 0, 4167.179, 4198.974, 4070.256, 4134.872, 4127.179, 450, 0, []
1628616518.4586, 94, 0, 4174.872, 4176.41, 4083.59, 4139.487, 4133.846, 450, 0, []
1628616518.4665, 95, 0, 4190.256, 4190.769, 4090.769, 4155.385, 4148.205, 16166, 0, []
1628616518.4744, 96, 0, 4187.692, 4215.897, 4115.897, 4167.692, 4155.385, 450, 0, []
1628616518.4823, 97, 0, 4167.692, 4193.846, 4101.538, 4162.051, 4143.077, 450, 0, []
1628616518.4903, 98, 0, 4170.256, 4166.154, 4081.538, 4162.564, 4137.436, 450, 0, []
1628616518.4982, 99, 0, 4187.179, 4200, 4093.333, 4171.282, 4146.667, 16166, 0, []
1628616518.506, 100, 0, 4173.333, 4212.308, 4075.897, 4156.41, 4134.872, 450, 0, []
1628616518.5138, 101, 0, 4151.282, 4164.615, 4072.308, 4135.897, 4108.718, 450, 0, []
1628616518.5216, 102, 0, 4166.154, 4170.769, 4082.564, 4147.692, 4119.487, 450, 0, []
1628616518.5295, 103, 0, 4186.154, 4212.308, 4098.974, 4170.256, 4143.077, 16166, 0, []
1628616518.5373, 104, 0, 4173.333, 4186.154, 4106.154, 4164.615, 4129.744, 450, 0, []
1628616518.5452, 105, 0, 4160.513, 4158.462, 4082.564, 4148.718, 4115.385, 450, 0, []
1628616518.5529, 106, 0, 4175.385, 4187.692, 4094.872, 4155.897, 4139.487, 450, 0, []
1628616518.5608, 107, 0, 4186.154, 4180, 4105.641, 4159.487, 4159.487, 16166, 0, []
1628616518.5686, 108, 0, 4173.333, 4145.641, 4102.564, 4152.821, 4147.692, 450, 0, []
1628616518.5766, 109, 0, 4164.103, 4167.692, 4114.359, 4158.462, 4139.487, 450, 0, []
1628616518.5845, 110, 0, 4169.231, 4178.462, 4100, 4169.231, 4141.026, 450, 0, []
1628616518.5924, 111, 0, 4168.718, 4151.795, 4101.026, 4176.923, 4140.513, 16166, 0, []
1628616518.6003, 112, 0, 4154.872, 4167.692, 4099.487, 4181.026, 4133.333, 450, 0, []
1628616518.6083, 113, 0, 4149.744, 4190.256, 4084.615, 4172.308, 4121.538, 450, 0, []
1628616518.6162, 114, 0, 4150.769, 4167.179, 4087.179, 4146.667, 4109.231, 450, 0, []
1628616518.6242, 115, 0, 4149.744, 4154.359, 4071.795, 4133.846, 4104.103, 16166, 0, []
1628616518.632, 116, 0, 4160.513, 4164.615, 4082.051, 4153.846, 4111.282, 450, 0, []
1628616518.64, 117, 0, 4167.692, 4165.641, 4087.179, 4163.59, 4116.923, 450, 0, []
1628616518.6479, 118, 0, 4162.564, 4164.103, 4067.692, 4156.923, 4125.128, 450, 0, []
1628616518.6557, 119, 0, 4171.282, 4156.41, 4086.667, 4160.513, 4135.385, 16166, 0, []
1628616518.6636, 120, 0, 4189.744, 4145.128, 4090.256, 4165.641, 4142.564, 450, 0, []
1628616518.6713, 121, 0, 4181.538, 4165.128, 4087.692, 4154.359, 4147.179, 450, 0, []
1628616518.6792, 122, 0, 4169.231, 4187.692, 4087.179, 4142.564, 4152.821, 450, 0, []
1628616518.687, 123, 0, 4181.026, 4167.692, 4074.872, 4152.308, 4159.487, 16166, 0, []
1628616518.6949, 124, 0, 4183.59, 4161.026, 4091.795, 4167.179, 4157.436, 450, 0, []
1628616518.7027, 125, 0, 4176.923, 4173.333, 4106.667, 4175.897, 4156.923, 450, 0, []
1628616518.7105, 126, 0, 4184.103, 4158.974, 4120, 4183.59, 4159.487, 450, 0, []
1628616518.7183, 127, 0, 4183.077, 4146.667, 4114.359, 4175.385, 4151.795, 16166, 0, []
1628616518.7263, 128, 0, 4166.667, 4152.821, 4087.692, 4161.026, 4140.513, 450, 0, []
1628616518.7342, 0, 0, 4162.051, 4147.179, 4093.846, 4157.949, 4136.41, 450, 0, []
1628616518.7421, 1, 0, 4168.718, 4148.718, 4087.179, 4156.923, 4137.949, 450, 0, []
1628616518.7499, 2, 0, 4170.256, 4174.872, 4086.667, 4157.949, 4140, 16190, 0, []
1628616518.7578, 3, 0, 4173.846, 4177.949, 4096.923, 4154.359, 4138.974, 450, 0, []
1628616518.7656, 4, 0, 4171.795, 4149.231, 4070.256, 4137.436, 4128.718, 16132, 0, []
1628616518.7736, 5, 0, 4168.718, 4136.41, 4071.282, 4130.256, 4123.077, 450, 0, []
1628616518.7815, 6, 0, 4181.538, 4152.308, 4086.154, 4148.205, 4135.385, 16066, 0, []
1628616518.7894, 7, 0, 4193.333, 4166.154, 4097.436, 4165.128, 4147.179, 450, 0, []
1628616518.7973, 8, 0, 4180.513, 4163.077, 4107.179, 4153.846, 4139.487, 450, 0, []
1628616518.8053, 9, 0, 4160.513, 4168.205, 4085.641, 4142.564, 4123.59, 16115, 0, []
1628616518.8132, 10, 0, 4153.333, 4174.359, 4090.256, 4149.744, 4112.308, 450, 0, []
1628616518.821, 11, 0, 4153.333, 4144.615, 4094.872, 4152.308, 4115.385, 16193, 0, []
1628616518.8288, 12, 0, 4155.385, 4130.769, 4093.846, 4155.385, 4133.333, 450, 0, []
1628616518.8366, 13, 0, 4157.436, 4158.462, 4107.692, 4162.564, 4144.103, 450, 0, []
1628616518.8445, 14, 0, 4155.897, 4155.385, 4082.564, 4152.821, 4136.923, 450, 0, []
1628616518.8523, 15, 0, 4162.051, 4136.923, 4081.538, 4148.718, 4137.949, 16193, 0, []
1628616518.8602, 16, 0, 4189.231, 4154.359, 4112.308, 4176.41, 4164.103, 0, 0, []
1628616518.8679, 17, 0, 4209.744, 4162.564, 4126.154, 4198.974, 4183.077, 0, 0, []
1628616518.8758, 18, 0, 4200, 4148.205, 4120.513, 4188.205, 4170.769, 0, 0, []
1628616518.8836, 19, 0, 4185.128, 4165.641, 4092.308, 4170.769, 4154.359, 0, 0, []
1628616518.8916, 20, 0, 4185.641, 4168.205, 4104.103, 4166.667, 4154.359, 0, 0, []
1628616518.8995, 21, 0, 4189.231, 4139.487, 4110.769, 4157.949, 4157.949, 0, 0, []
1628616518.9074, 22, 0, 4182.051, 4149.744, 4089.231, 4156.923, 4154.359, 0, 0, []
1628616518.9153, 23, 0, 4182.051, 4161.538, 4103.077, 4173.846, 4153.846, 0, 0, []
1628616518.9233, 24, 0, 4196.41, 4140, 4093.846, 4180.513, 4155.385, 0, 0, []
1628616518.9312, 25, 0, 4194.359, 4124.615, 4076.41, 4171.795, 4146.154, 0, 0, []
1628616518.9392, 26, 0, 4174.359, 4126.154, 4075.385, 4157.949, 4128.718, 0, 0, []
1628616518.9471, 27, 0, 4163.59, 4129.744, 4075.385, 4146.667, 4124.615, 0, 0, []
1628616518.955, 28, 0, 4167.179, 4131.795, 4094.359, 4147.692, 4131.795, 0, 0, []
1628616518.9629, 29, 0, 4175.385, 4134.872, 4092.821, 4158.974, 4142.051, 0, 0, []
1628616518.9709, 30, 0, 4181.026, 4147.179, 4100.513, 4165.128, 4149.744, 0, 0, []
1628616518.9788, 31, 0, 4180.513, 4162.564, 4108.718, 4165.641, 4153.846, 0, 0, []
1628616518.9866, 32, 0, 4176.41, 4163.077, 4091.282, 4174.359, 4151.282, 0, 0, []
1628616518.9944, 33, 0, 4169.231, 4162.564, 4098.974, 4174.359, 4135.897, 0, 0, []
1628616519.0022, 34, 0, 4167.179, 4160.513, 4096.923, 4163.077, 4130.769, 0, 0, []
1628616519.0101, 35, 0, 4170.769, 4156.923, 4098.974, 4162.051, 4140.513, 0, 0, []
1628616519.0179, 36, 0, 4161.538, 4174.872, 4110.769, 4164.103, 4129.744, 0, 0, []
1628616519.0258, 37, 0, 4148.205, 4193.333, 4091.282, 4164.103, 4104.615, 0, 0, []
1628616519.0335, 38, 0, 4149.744, 4172.308, 4084.103, 4164.103, 4090.769, 0, 0, []
1628616519.0415, 39, 0, 4157.949, 4132.821, 4079.487, 4159.487, 4086.667, 0, 0, []
1628616519.0494, 40, 0, 4178.974, 4143.59, 4100, 4170.256, 4095.897, 0, 0, []
1628616519.0574, 41, 0, 4205.641, 4175.385, 4127.692, 4178.974, 4110.256, 0, 0, []
1628616519.0653, 42, 0, 4207.692, 4157.436, 4103.59, 4161.538, 4106.667, 0, 0, []
1628616519.0732, 43, 0, 4191.282, 4137.436, 4093.333, 4144.103, 4095.385, 0, 0, []
1628616519.0811, 44, 0, 4164.615, 4156.41, 4073.333, 4127.692, 4077.436, 0, 0, []
1628616519.0891, 45, 0, 4143.077, 4156.923, 4057.949, 4121.538, 4061.026, 0, 0, []
1628616519.097, 46, 0, 4154.359, 4135.385, 4093.333, 4143.077, 4074.359, 0, 0, []
1628616519.105, 47, 0, 4170.769, 4137.949, 4101.538, 4155.385, 4094.872, 0, 0, []
1628616519.1128, 48, 0, 4165.641, 4152.308, 4104.615, 4145.128, 4094.872, 0, 0, []
1628616519.1206, 49, 0, 4163.59, 4180, 4107.179, 4145.128, 4091.282, 0, 0, []
1628616519.1285, 50, 0, 4164.615, 4194.359, 4091.795, 4147.692, 4085.641, 0, 0, []
1628616519.1363, 51, 0, 4157.949, 4175.897, 4090.769, 4126.667, 4068.205, 0, 0, []
1628616519.1442, 52, 0, 4161.538, 4175.385, 4087.692, 4113.846, 4067.692, 0, 0, []
1628616519.1519, 53, 0, 4178.974, 4196.41, 4105.641, 4138.462, 4090.256, 0, 0, []
1628616519.1598, 54, 0, 4188.205, 4202.564, 4110.256, 4161.026, 4100.513, 0, 0, []
1628616519.1676, 55, 0, 4181.026, 4185.128, 4091.282, 4151.795, 4092.821, 0, 0, []
1628616519.1755, 56, 0, 4172.821, 4173.333, 4095.385, 4131.795, 4085.641, 0, 0, []
1628616519.1833, 57, 0, 4172.308, 4191.795, 4075.385, 4120, 4083.59, 0, 0, []
1628616519.1912, 58, 0, 4172.308, 4214.872, 4072.821, 4122.051, 4079.487, 0, 0, []
1628616519.1991, 59, 0, 4177.949, 4206.154, 4098.974, 4134.359, 4085.128, 0, 0, []
1628616519.2071, 60, 0, 4185.641, 4183.077, 4101.538, 4142.051, 4102.051, 0, 0, []
1628616519.215, 61, 0, 4183.077, 4185.641, 4093.846, 4135.897, 4106.667, 0, 0, []
1628616519.223, 62, 0, 4181.026, 4192.308, 4069.231, 4129.744, 4107.179, 0, 0, []
1628616519.2308, 63, 0, 4184.103, 4198.462, 4081.538, 4137.949, 4108.718, 0, 0, []
1628616519.2388, 64, 0, 4170.769, 4213.333, 4100, 4140.513, 4097.436, 450, 0, []
1628616519.2467, 65, 0, 4151.282, 4214.359, 4075.385, 4131.282, 4082.051, 450, 0, []
1628616519.2547, 66, 0, 4154.872, 4210.256, 4077.949, 4130.256, 4079.487, 16182, 0, []
1628616519.2626, 67, 0, 4169.744, 4212.821, 4074.359, 4142.564, 4092.308, 450, 0, []
1628616519.2705, 68, 0, 4173.333, 4215.385, 4074.872, 4152.821, 4101.538, 16133, 0, []
1628616519.2784, 69, 0, 4166.667, 4214.872, 4087.179, 4140, 4089.744, 450, 0, []
1628616519.2862, 70, 0, 4166.667, 4219.487, 4075.897, 4124.615, 4078.462, 16063, 0, []
1628616519.2941, 71, 0, 4171.282, 4219.487, 4084.103, 4132.308, 4088.718, 450, 0, []
1628616519.3019, 72, 0, 4162.564, 4207.692, 4078.462, 4139.487, 4089.744, 450, 0, []
1628616519.3097, 73, 0, 4158.462, 4210.769, 4075.385, 4140, 4079.487, 16119, 0, []
1628616519.3175, 74, 0, 4176.41, 4225.128, 4098.462, 4144.615, 4093.333, 450, 0, []
1628616519.3254, 75, 0, 4188.718, 4219.487, 4096.41, 4146.667, 4108.718, 16195, 0, []
1628616519.3332, 76, 0, 4174.359, 4195.385, 4097.949, 4136.41, 4097.949, 450, 0, []
1628616519.3412, 77, 0, 4165.128, 4195.897, 4089.231, 4123.59, 4093.333, 450, 0, []
1628616519.349, 78, 0, 4178.462, 4227.692, 4083.077, 4121.538, 4111.795, 450, 0, []
1628616519.357, 79, 0, 4183.59, 4237.949, 4092.308, 4126.667, 4117.949, 16195, 0, []
1628616519.3649, 80, 0, 4172.308, 4209.744, 4072.308, 4133.333, 4109.231, 450, 0, []
1628616519.3729, 81, 0, 4167.692, 4202.564, 4075.385, 4136.923, 4110.256, 450, 0, []
1628616519.3808, 82, 0, 4180, 4230.256, 4083.59, 4136.41, 4124.615, 450, 0, []
1628616519.3887, 83, 0, 4196.923, 4224.615, 4075.897, 4146.154, 4139.487, 16195, 0, []
1628616519.3966, 84, 0, 4203.077, 4194.359, 4087.179, 4157.436, 4141.538, 450, 0, []
1628616519.4046, 85, 0, 4200.513, 4206.667, 4080, 4150.256, 4133.846, 450, 0, []
1628616519.4125, 86, 0, 4198.974, 4228.205, 4084.103, 4136.923, 4127.692, 450, 0, []
1628616519.4203, 87, 0, 4200, 4208.718, 4091.795, 4130.256, 4127.179, 16195, 0, []
1628616519.4281, 88, 0, 4196.923, 4192.821, 4080, 4133.333, 4123.077, 450, 0, []
1628616519.4359, 89, 0, 4183.077, 4209.231, 4077.436, 4135.897, 4108.718, 450, 0, []
1628616519.4438, 90, 0, 4172.821, 4238.462, 4065.128, 4132.821, 4102.564, 450, 0, []
1628616519.4516, 91, 0, 4175.385, 4236.41, 4076.923, 4134.872, 4106.667, 16195, 0, []
1628616519.4595, 92, 0, 4182.564, 4208.718, 4076.41, 4134.872, 4108.718, 450, 0, []
1628616519.4672, 93, 0, 4183.59, 4204.615, 4054.359, 4128.205, 4108.718, 450, 0, []
1628616519.4751, 94, 0, 4178.462, 4204.103, 4074.359, 4121.026, 4111.282, 450, 0, []
1628616519.4829, 95, 0, 4180, 4192.821, 4078.462, 4118.974, 4121.026, 16195, 0, []
1628616519.4909, 96, 0, 4197.436, 4218.974, 4083.077, 4132.308, 4138.974, 450, 0, []
1628616519.4988, 97, 0, 4205.128, 4245.641, 4093.333, 4142.051, 4143.077, 450, 0, []
1628616519.5067, 98, 0, 4190.256, 4210.256, 4077.436, 4130.769, 4130.256, 450, 0, []
1628616519.5146, 99, 0, 4179.487, 4180.513, 4086.667, 4123.077, 4129.744, 16195, 0, []
1628616519.5226, 100, 0, 4186.154, 4184.103, 4088.205, 4137.436, 4141.538, 450, 0, []
1628616519.5305, 101, 0, 4185.128, 4171.282, 4080, 4148.205, 4137.436, 450, 0, []
1628616519.5385, 102, 0, 4180, 4166.154, 4083.59, 4146.154, 4130.769, 450, 0, []
1628616519.5463, 103, 0, 4184.103, 4181.026, 4083.59, 4149.231, 4139.487, 16195, 0, []
1628616519.5543, 104, 0, 4185.128, 4178.974, 4095.897, 4151.282, 4142.564, 450, 0, []
1628616519.5622, 105, 0, 4182.051, 4163.077, 4079.487, 4146.154, 4142.564, 450, 0, []
1628616519.5701, 106, 0, 4190.769, 4166.667, 4071.795, 4150.256, 4152.821, 450, 0, []
1628616519.578, 107, 0, 4204.103, 4191.795, 4088.718, 4158.462, 4156.923, 16195, 0, []
1628616519.5857, 108, 0, 4202.051, 4193.333, 4080.513, 4156.41, 4154.872, 450, 0, []
1628616519.5936, 109, 0, 4194.359, 4160, 4086.154, 4152.821, 4153.333, 450, 0, []
1628616519.6014, 110, 0, 4194.359, 4169.231, 4078.974, 4143.077, 4141.026, 450, 0, []
1628616519.6093, 111, 0, 4202.564, 4214.872, 4079.487, 4147.692, 4140, 16195, 0, []
1628616519.6171, 112, 0, 4210.769, 4213.333, 4106.154, 4165.128, 4159.487, 450, 0, []
1628616519.6249, 113, 0, 4205.128, 4207.692, 4086.154, 4161.538, 4158.974, 450, 0, []
1628616519.6327, 114, 0, 4189.231, 4230.256, 4074.359, 4146.154, 4137.436, 450, 0, []
1628616519.6407, 115, 0, 4183.59, 4220.513, 4081.026, 4140, 4133.846, 16195, 0, []
1628616519.6486, 116, 0, 4190.256, 4202.051, 4083.077, 4145.641, 4144.103, 450, 0, []
1628616519.6566, 117, 0, 4185.641, 4202.051, 4080.513, 4142.051, 4130.256, 450, 0, []
1628616519.6644, 118, 0, 4171.795, 4182.564, 4057.436, 4124.615, 4108.718, 450, 0, []
1628616519.6724, 119, 0, 4184.615, 4191.795, 4078.974, 4125.128, 4124.615, 16195, 0, []
1628616519.6803, 120, 0, 4216.41, 4235.897, 4097.436, 4147.692, 4157.436, 450, 0, []
1628616519.6883, 121, 0, 4221.538, 4234.872, 4077.949, 4160.513, 4163.077, 450, 0, []
1628616519.6962, 122, 0, 4203.59, 4207.179, 4086.667, 4153.846, 4146.154, 450, 0, []
1628616519.7041, 123, 0, 4200, 4195.897, 4080.513, 4142.051, 4137.949, 16195, 0, []
1628616519.712, 124, 0, 4203.077, 4188.205, 4070.769, 4131.282, 4134.872, 450, 0, []
1628616519.72, 125, 0, 4197.949, 4187.692, 4069.231, 4123.077, 4129.744, 450, 0, []
1628616519.7279, 126, 0, 4191.282, 4181.538, 4061.538, 4123.077, 4129.231, 450, 0, []
1628616519.7357, 127, 0, 4185.128, 4181.026, 4078.462, 4123.59, 4128.718, 16195, 0, []
1628616519.7436, 128, 0, 4185.641, 4200, 4084.103, 4129.231, 4131.795, 450, 0, []
1628616519.7514, 0, 0, 4192.308, 4196.923, 4092.308, 4142.564, 4137.949, 450, 0, []
1628616519.7593, 1, 0, 4188.205, 4180, 4093.333, 4134.359, 4140, 450, 0, []
1628616519.7673, 2, 0, 4184.103, 4184.103, 4075.897, 4119.487, 4140, 16196, 0, []
1628616519.7753, 3, 0, 4195.897, 4183.077, 4096.41, 4127.179, 4141.538, 450, 0, []
1628616519.7832, 4, 0, 4198.974, 4184.103, 4096.41, 4132.821, 4134.872, 16143, 0, []
1628616519.791, 5, 0, 4183.59, 4197.436, 4083.59, 4128.718, 4127.179, 450, 0, []
1628616519.7988, 6, 0, 4181.026, 4192.821, 4085.641, 4130.769, 4136.923, 16064, 0, []
1628616519.8067, 7, 0, 4189.231, 4186.667, 4069.231, 4133.333, 4146.154, 450, 0, []
1628616519.8145, 8, 0, 4185.641, 4193.846, 4071.795, 4133.333, 4140.513, 450, 0, []
1628616519.8225, 9, 0, 4188.205, 4188.718, 4075.897, 4133.333, 4139.487, 16118, 0, []
1628616519.8303, 10, 0, 4197.949, 4177.949, 4081.538, 4129.231, 4140.513, 450, 0, []
1628616519.8383, 11, 0, 4200, 4185.128, 4089.231, 4125.641, 4137.949, 16174, 0, []
1628616519.8462, 12, 0, 4195.385, 4188.718, 4078.462, 4132.821, 4142.051, 450, 0, []
1628616519.8542, 13, 0, 4191.795, 4181.538, 4094.872, 4143.59, 4143.077, 450, 0, []
1628616519.8621, 14, 0, 4194.359, 4190.769, 4089.231, 4140.513, 4140.513, 450, 0, []
1628616519.87, 15, 0, 4202.564, 4214.359, 4073.333, 4131.282, 4147.692, 16174, 0, []
1628616519.8779, 16, 0, 4202.051, 4217.949, 4085.641, 4122.051, 4149.744, 0, 0, []
1628616519.8858, 17, 0, 4197.949, 4186.667, 4076.923, 4127.692, 4145.641, 0, 0, []
1628616519.8937, 18, 0, 4201.026, 4172.308, 4082.051, 4145.128, 4148.205, 0, 0, []
1628616519.9015, 19, 0, 4196.41, 4199.487, 4079.487, 4145.128, 4148.205, 0, 0, []
1628616519.9093, 20, 0, 4185.128, 4197.436, 4066.667, 4132.308, 4134.359, 0, 0, []
1628616519.9171, 21, 0, 4181.026, 4165.128, 4077.436, 4126.667, 4123.077, 0, 0, []
1628616519.925, 22, 0, 4181.538, 4168.718, 4066.154, 4131.795, 4125.641, 0, 0, []
1628616519.9328, 23, 0, 4186.154, 4187.179, 4077.436, 4138.974, 4132.821, 0, 0, []
1628616519.9408, 24, 0, 4195.897, 4177.436, 4096.41, 4143.077, 4143.077, 0, 0, []
1628616519.9486, 25, 0, 4203.59, 4177.949, 4096.923, 4151.795, 4162.051, 0, 0, []
1628616519.9565, 26, 0, 4202.564, 4190.256, 4112.821, 4153.846, 4170.769, 0, 0, []
1628616519.9643, 27, 0, 4198.462, 4178.974, 4109.231, 4146.154, 4162.051, 0, 0, []
1628616519.9723, 28, 0, 4201.026, 4187.692, 4115.385, 4152.308, 4162.051, 0, 0, []
1628616519.9802, 29, 0, 4210.769, 4207.179, 4125.128, 4162.564, 4172.821, 0, 0, []
1628616519.9881, 30, 0, 4210.769, 4190.769, 4114.872, 4159.487, 4175.897, 0, 0, []
1628616519.996, 31, 0, 4203.077, 4184.615, 4115.385, 4156.41, 4170.769, 0, 0, []
1628616520.004, 32, 0, 4197.949, 4201.538, 4095.897, 4152.308, 4161.026, 0, 0, []
1628616520.0119, 33, 0, 4197.949, 4196.41, 4095.385, 4151.795, 4153.846, 0, 0, []
1628616520.0199, 34, 0, 4198.462, 4183.077, 4109.231, 4154.359, 4156.923, 0, 0, []
1628616520.0277, 35, 0, 4198.462, 4183.077, 4104.103, 4154.872, 4158.462, 0, 0, []
1628616520.0357, 36, 0, 4192.821, 4181.538, 4113.846, 4150.769, 4149.744, 0, 0, []
1628616520.0436, 37, 0, 4190.256, 4192.821, 4085.641, 4144.103, 4148.718, 0, 0, []
1628616520.0514, 38, 0, 4197.436, 4207.692, 4074.872, 4142.564, 4154.872, 0, 0, []
1628616520.0593, 39, 0, 4196.923, 4201.026, 4106.667, 4140, 4147.179, 0, 0, []
1628616520.067, 40, 0, 4199.487, 4210.769, 4105.128, 4140, 4146.667, 0, 0, []
1628616520.0749, 41, 0, 4212.821, 4216.41, 4103.077, 4151.282, 4161.026, 0, 0, []
1628616520.0827, 42, 0, 4218.462, 4195.385, 4096.923, 4156.923, 4163.59, 0, 0, []
1628616520.0906, 43, 0, 4214.359, 4207.179, 4089.744, 4149.231, 4153.333, 0, 0, []
1628616520.0984, 44, 0, 4208.718, 4235.385, 4096.923, 4144.615, 4146.154, 0, 0, []
1628616520.1062, 45, 0, 4205.128, 4221.026, 4090.769, 4151.795, 4147.179, 0, 0, []
1628616520.114, 46, 0, 4206.667, 4203.077, 4094.872, 4154.872, 4148.718, 0, 0, []
1628616520.1219, 47, 0, 4216.41, 4221.538, 4086.667, 4153.846, 4155.897, 0, 0, []
1628616520.1297, 48, 0, 4221.026, 4242.564, 4088.205, 4157.949, 4157.436, 0, 0, []
1628616520.1377, 49, 0, 4208.718, 4233.333, 4095.385, 4149.231, 4142.564, 0, 0, []
1628616520.1455, 50, 0, 4188.205, 4206.154, 4067.692, 4126.154, 4128.205, 0, 0, []
1628616520.1535, 51, 0, 4189.744, 4217.949, 4087.692, 4132.308, 4134.872, 0, 0, []
1628616520.1614, 52, 0, 4213.846, 4254.872, 4106.667, 4156.41, 4154.872, 0, 0, []
1628616520.1694, 53, 0, 4211.795, 4234.872, 4078.974, 4149.744, 4153.333, 0, 0, []
1628616520.1773, 54, 0, 4198.462, 4202.564, 4080.513, 4134.872, 4146.154, 0, 0, []
1628616520.1852, 55, 0, 4208.718, 4233.846, 4086.667, 4145.641, 4157.949, 0, 0, []
1628616520.1931, 56, 0, 4213.333, 4259.487, 4092.821, 4152.308, 4158.974, 0, 0, []
1628616520.2011, 57, 0, 4195.897, 4231.795, 4078.462, 4133.333, 4135.385, 0, 0, []
1628616520.209, 58, 0, 4194.359, 4202.564, 4072.308, 4134.872, 4136.41, 0, 0, []
1628616520.2168, 59, 0, 4209.744, 4204.615, 4105.641, 4156.41, 4164.615, 0, 0, []
1628616520.2246, 60, 0, 4206.154, 4224.103, 4094.872, 4151.795, 4164.615, 0, 0, []
1628616520.2324, 61, 0, 4196.41, 4238.462, 4081.026, 4132.308, 4147.179, 0, 0, []
1628616520.2403, 62, 0, 4198.974, 4229.744, 4086.667, 4126.667, 4154.359, 0, 0, []
1628616520.2481, 63, 0, 4200.513, 4211.795, 4084.615, 4137.949, 4171.282, 0, 0, []
1628616520.256, 64, 0, 4196.41, 4220, 4097.949, 4144.615, 4173.333, 450, 0, []
1628616520.2637, 65, 0, 4206.667, 4241.538, 4094.872, 4146.154, 4177.436, 450, 0, []
1628616520.2717, 66, 0, 4231.795, 4248.205, 4102.051, 4156.923, 4193.333, 16186, 0, []
1628616520.2796, 67, 0, 4244.103, 4246.154, 4113.846, 4155.385, 4198.974, 450, 0, []
1628616520.2876, 68, 0, 4248.718, 4256.923, 4102.051, 4152.821, 4203.59, 16126, 0, []
1628616520.2955, 69, 0, 4263.59, 4268.718, 4100, 4159.487, 4223.077, 450, 0, []
1628616520.3034, 70, 0, 4294.872, 4265.128, 4081.026, 4150.769, 4253.846, 16062, 0, []
1628616520.3113, 71, 0, 4339.487, 4266.667, 4084.615, 4150.769, 4293.333, 450, 0, []
1628616520.3193, 72, 0, 4381.026, 4266.154, 4107.692, 4170.256, 4328.718, 450, 0, []
1628616520.3272, 73, 0, 4396.923, 4243.077, 4098.974, 4174.872, 4348.718, 16102, 0, []
1628616520.3352, 74, 0, 4387.179, 4229.744, 4101.538, 4170.256, 4353.846, 450, 0, []
1628616520.343, 75, 0, 4365.128, 4249.231, 4091.282, 4170.256, 4347.692, 16194, 0, []
1628616520.3508, 76, 0, 4349.744, 4261.538, 4086.154, 4166.154, 4342.051, 450, 0, []
1628616520.3587, 77, 0, 4343.077, 4256.41, 4102.564, 4163.077, 4342.564, 450, 0, []
1628616520.3665, 78, 0, 4331.795, 4257.949, 4093.333, 4170.769, 4330.256, 450, 0, []
1628616520.3744, 79, 0, 4323.077, 4264.103, 4106.154, 4185.641, 4311.795, 16194, 0, []
1628616520.3821, 80, 0, 4317.949, 4269.744, 4114.359, 4190.769, 4308.205, 450, 0, []
1628616520.39, 81, 0, 4296.41, 4278.974, 4106.154, 4178.974, 4296.923, 450, 0, []
1628616520.3978, 82, 0, 4278.462, 4285.128, 4099.487, 4166.154, 4278.462, 450, 0, []
1628616520.4057, 83, 0, 4277.949, 4281.026, 4078.462, 4172.308, 4276.923, 16194, 0, []
1628616520.4135, 84, 0, 4264.615, 4275.897, 4101.538, 4176.41, 4270.256, 450, 0, []
1628616520.4213, 85, 0, 4243.077, 4284.103, 4121.026, 4168.205, 4253.333, 450, 0, []
1628616520.4291, 86, 0, 4244.103, 4287.692, 4111.282, 4172.821, 4255.385, 450, 0, []
1628616520.4371, 87, 0, 4251.282, 4266.667, 4121.026, 4182.564, 4263.077, 16194, 0, []
1628616520.445, 88, 0, 4241.538, 4262.051, 4117.436, 4181.026, 4254.359, 450, 0, []
1628616520.453, 89, 0, 4221.026, 4285.128, 4115.897, 4173.846, 4235.897, 450, 0, []
1628616520.4608, 90, 0, 4205.641, 4281.538, 4106.154, 4164.103, 4214.872, 450, 0, []
1628616520.4688, 91, 0, 4197.436, 4265.641, 4094.359, 4154.872, 4200, 16194, 0, []
1628616520.4767, 92, 0, 4206.667, 4277.436, 4107.692, 4154.872, 4205.641, 450, 0, []
1628616520.4847, 93, 0, 4223.59, 4275.897, 4100, 4161.026, 4221.026, 450, 0, []
1628616520.4926, 94, 0, 4226.667, 4261.538, 4104.103, 4164.103, 4222.051, 450, 0, []
1628616520.5006, 95, 0, 4213.846, 4290.769, 4106.154, 4162.051, 4210.256, 16194, 0, []
1628616520.5084, 96, 0, 4201.538, 4305.128, 4089.744, 4162.051, 4202.051, 450, 0, []
1628616520.5162, 97, 0, 4197.949, 4270.256, 4101.538, 4167.692, 4196.923, 450, 0, []
1628616520.5241, 98, 0, 4208.205, 4277.949, 4101.538, 4172.308, 4202.564, 450, 0, []
1628616520.5319, 99, 0, 4230.256, 4315.385, 4115.897, 4179.487, 4223.077, 16194, 0, []
1628616520.5398, 100, 0, 4240.513, 4291.282, 4129.744, 4182.051, 4231.795, 450, 0, []
1628616520.5475, 101, 0, 4230.256, 4259.487, 4108.718, 4178.974, 4220, 450, 0, []
1628616520.5554, 102, 0, 4216.923, 4289.744, 4107.179, 4179.487, 4202.051, 450, 0, []
1628616520.5632, 103, 0, 4204.615, 4298.462, 4091.282, 4170.256, 4183.077, 16194, 0, []
1628616520.5711, 104, 0, 4196.923, 4255.897, 4091.282, 4154.872, 4173.846, 450, 0, []
1628616520.5789, 105, 0, 4198.462, 4248.718, 4102.051, 4154.872, 4183.59, 450, 0, []
1628616520.5867, 106, 0, 4201.026, 4280.513, 4082.564, 4167.179, 4188.718, 450, 0, []
1628616520.5945, 107, 0, 4198.974, 4279.487, 4098.974, 4168.718, 4184.615, 16194, 0, []
1628616520.6025, 108, 0, 4205.128, 4256.41, 4113.846, 4165.128, 4192.821, 450, 0, []
1628616520.6104, 109, 0, 4221.026, 4263.077, 4118.462, 4178.462, 4206.667, 450, 0, []
1628616520.6184, 110, 0, 4219.487, 4290.769, 4119.487, 4183.077, 4202.564, 450, 0, []
1628616520.6262, 111, 0, 4196.923, 4295.897, 4092.308, 4171.795, 4188.718, 16194, 0, []
1628616520.6342, 112, 0, 4186.667, 4260.513, 4098.974, 4170.256, 4186.667, 450, 0, []
1628616520.6421, 113, 0, 4189.744, 4241.026, 4100.513, 4164.615, 4182.051, 450, 0, []
1628616520.6501, 114, 0, 4186.667, 4270.769, 4095.897, 4152.308, 4174.359, 450, 0, []
1628616520.658, 115, 0, 4200, 4283.077, 4123.59, 4162.564, 4188.205, 16194, 0, []
1628616520.6657, 116, 0, 4228.205, 4270.769, 4131.282, 4182.564, 4212.821, 450, 0, []
1628616520.6736, 117, 0, 4227.179, 4285.128, 4124.615, 4183.59, 4210.256, 450, 0, []
1628616520.6814, 118, 0, 4201.538, 4288.718, 4104.103, 4168.205, 4192.308, 450, 0, []
1628616520.6893, 119, 0, 4189.231, 4255.897, 4093.846, 4165.128, 4184.615, 16194, 0, []
1628616520.6971, 120, 0, 4181.538, 4251.282, 4098.974, 4164.103, 4175.897, 450, 0, []
1628616520.7049, 121, 0, 4164.103, 4272.821, 4077.949, 4149.744, 4161.538, 450, 0, []
1628616520.7127, 122, 0, 4171.282, 4263.077, 4099.487, 4151.795, 4169.744, 450, 0, []
1628616520.7206, 123, 0, 4207.179, 4244.103, 4126.154, 4157.949, 4200, 16194, 0, []
1628616520.7284, 124, 0, 4217.949, 4247.692, 4115.897, 4148.718, 4219.487, 450, 0, []
1628616520.7363, 125, 0, 4202.564, 4249.744, 4113.846, 4142.564, 4216.41, 450, 0, []
1628616520.744, 126, 0, 4196.41, 4222.051, 4087.692, 4144.103, 4203.077, 450, 0, []
1628616520.7519, 127, 0, 4195.385, 4204.103, 4078.462, 4142.051, 4192.821, 16194, 0, []
1628616520.7599, 128, 0, 4183.077, 4235.385, 4083.59, 4141.026, 4190.256, 450, 0, []
1628616520.7679, 0, 0, 4183.077, 4257.949, 4082.564, 4154.359, 4197.436, 450, 0, []
1628616520.7758, 1, 0, 4206.154, 4257.436, 4111.282, 4174.872, 4212.308, 450, 0, []
1628616520.7837, 2, 0, 4218.462, 4258.974, 4112.308, 4180, 4221.026, 16127, 0, []
1628616520.7916, 3, 0, 4205.641, 4244.103, 4105.641, 4166.154, 4211.795, 450, 0, []
1628616520.7996, 4, 0, 4195.897, 4231.282, 4110.769, 4152.821, 4197.436, 324, 0, []
1628616520.8075, 5, 0, 4207.179, 4242.051, 4108.718, 4161.538, 4202.564, 450, 0, []
1628616520.8155, 6, 0, 4218.462, 4247.692, 4120, 4172.308, 4210.256, 16119, 0, []
1628616520.8233, 7, 0, 4215.385, 4251.282, 4107.179, 4167.179, 4207.179, 450, 0, []
1628616520.8311, 8, 0, 4204.103, 4265.128, 4101.538, 4163.59, 4203.077, 450, 0, []
1628616520.839, 9, 0, 4180.513, 4240.513, 4104.103, 4158.974, 4186.154, 16098, 0, []
1628616520.8468, 10, 0, 4164.615, 4202.051, 4090.256, 4154.872, 4164.103, 450, 0, []
1628616520.8547, 11, 0, 4176.41, 4215.897, 4105.641, 4164.615, 4168.718, 16303, 0, []
1628616520.8624, 12, 0, 4186.667, 4242.564, 4102.051, 4172.821, 4181.538, 450, 0, []
1628616520.8703, 13, 0, 4174.872, 4243.077, 4087.692, 4164.103, 4171.282, 450, 0, []
1628616520.8781, 14, 0, 4169.231, 4225.128, 4087.179, 4146.154, 4157.949, 450, 0, []
1628616520.886, 15, 0, 4185.128, 4224.103, 4077.436, 4146.667, 4168.205, 16303, 0, []
1628616520.8938, 16, 0, 4211.282, 4270.769, 4097.949, 4167.692, 4191.282, 0, 0, []
1628616520.9017, 17, 0, 4231.282, 4296.41, 4104.103, 4180, 4210.769, 0, 0, []
1628616520.9096, 18, 0, 4223.077, 4263.59, 4090.256, 4173.333, 4212.308, 0, 0, []
1628616520.9176, 19, 0, 4199.487, 4256.923, 4093.846, 4160, 4195.897, 0, 0, []
1628616520.9255, 20, 0, 4195.385, 4291.795, 4090.256, 4158.974, 4184.615, 0, 0, []
1628616520.9335, 21, 0, 4202.051, 4288.205, 4103.077, 4162.051, 4177.436, 0, 0, []
1628616520.9413, 22, 0, 4208.205, 4277.949, 4105.641, 4161.538, 4180, 0, 0, []
1628616520.9493, 23, 0, 4217.949, 4312.821, 4105.641, 4170.256, 4197.436, 0, 0, []
1628616520.9572, 24, 0, 4218.974, 4325.641, 4118.974, 4180, 4199.487, 0, 0, []
1628616520.9652, 25, 0, 4208.718, 4289.744, 4096.923, 4180, 4186.154, 0, 0, []
1628616520.9731, 26, 0, 4201.538, 4271.282, 4094.872, 4177.436, 4185.641, 0, 0, []
1628616520.9808, 27, 0, 4195.385, 4297.436, 4093.333, 4166.667, 4180.513, 0, 0, []
1628616520.9887, 28, 0, 4193.846, 4313.333, 4082.564, 4157.436, 4167.179, 0, 0, []
1628616520.9965, 29, 0, 4199.487, 4294.359, 4111.282, 4168.205, 4174.359, 0, 0, []
1628616521.0044, 30, 0, 4202.051, 4302.051, 4116.41, 4180.513, 4187.179, 0, 0, []
1628616521.0122, 31, 0, 4200, 4325.641, 4121.538, 4184.103, 4181.026, 0, 0, []
1628616521.02, 32, 0, 4201.538, 4320.513, 4133.333, 4189.744, 4180.513, 0, 0, []
1628616521.0278, 33, 0, 4205.128, 4313.333, 4128.205, 4191.282, 4191.282, 0, 0, []
1628616521.0357, 34, 0, 4197.436, 4314.359, 4129.231, 4179.487, 4185.128, 0, 0, []
1628616521.0435, 35, 0, 4191.282, 4324.103, 4114.872, 4171.795, 4170.256, 0, 0, []
1628616521.0514, 36, 0, 4195.385, 4342.564, 4123.077, 4182.051, 4170.256, 0, 0, []
1628616521.0591, 37, 0, 4191.282, 4347.692, 4120.513, 4183.59, 4170.769, 0, 0, []
1628616521.0671, 38, 0, 4177.949, 4322.051, 4094.359, 4176.923, 4165.128, 0, 0, []
1628616521.075, 39, 0, 4180, 4313.846, 4119.487, 4178.974, 4170.769, 0, 0, []
1628616521.083, 40, 0, 4195.385, 4322.051, 4130.256, 4181.026, 4185.128, 0, 0, []
1628616521.0909, 41, 0, 4205.641, 4311.795, 4122.051, 4183.077, 4189.744, 0, 0, []
1628616521.0988, 42, 0, 4203.077, 4310.256, 4120, 4177.436, 4182.051, 0, 0, []
1628616521.1067, 43, 0, 4191.795, 4310.769, 4102.051, 4166.154, 4176.41, 0, 0, []
1628616521.1147, 44, 0, 4191.795, 4320, 4117.436, 4171.795, 4184.103, 0, 0, []
1628616521.1226, 45, 0, 4203.59, 4333.333, 4127.179, 4182.051, 4192.308, 0, 0, []
1628616521.1304, 46, 0, 4199.487, 4319.487, 4116.923, 4172.821, 4187.692, 0, 0, []
1628616521.1382, 47, 0, 4193.846, 4303.59, 4106.154, 4167.179, 4189.231, 0, 0, []
1628616521.1462, 48, 0, 4207.179, 4295.897, 4095.385, 4183.59, 4201.026, 0, 0, []
1628616521.1541, 49, 0, 4207.692, 4287.179, 4111.282, 4188.718, 4192.821, 0, 0, []
1628616521.1619, 50, 0, 4184.615, 4289.744, 4097.436, 4171.282, 4168.205, 0, 0, []
1628616521.1698, 51, 0, 4176.41, 4305.641, 4089.744, 4169.744, 4162.051, 0, 0, []
1628616521.1775, 52, 0, 4190.256, 4298.974, 4114.359, 4181.538, 4175.897, 0, 0, []
1628616521.1854, 53, 0, 4198.462, 4290.769, 4107.692, 4178.462, 4186.667, 0, 0, []
1628616521.1932, 54, 0, 4196.41, 4293.333, 4109.231, 4169.744, 4184.615, 0, 0, []
1628616521.2012, 55, 0, 4197.949, 4268.205, 4095.385, 4167.692, 4181.026, 0, 0, []
1628616521.2091, 56, 0, 4208.718, 4256.923, 4085.641, 4176.923, 4186.667, 0, 0, []
1628616521.2171, 57, 0, 4214.872, 4291.795, 4117.436, 4184.615, 4190.256, 0, 0, []
1628616521.2249, 58, 0, 4208.205, 4310.769, 4109.744, 4172.821, 4183.077, 0, 0, []
1628616521.2329, 59, 0, 4197.436, 4277.436, 4089.744, 4156.923, 4172.308, 0, 0, []
1628616521.2408, 60, 0, 4183.077, 4247.179, 4075.897, 4148.205, 4156.41, 0, 0, []
1628616521.2488, 61, 0, 4183.077, 4282.051, 4076.923, 4153.846, 4160.513, 0, 0, []
1628616521.2567, 62, 0, 4201.026, 4329.744, 4109.744, 4172.821, 4184.615, 0, 0, []
1628616521.2646, 63, 0, 4206.154, 4313.846, 4109.231, 4181.026, 4189.744, 0, 0, []
1628616521.2725, 64, 0, 4193.846, 4283.077, 4107.179, 4171.795, 4173.333, 450, 0, []
1628616521.2803, 65, 0, 4200, 4323.077, 4113.333, 4169.231, 4177.436, 450, 0, []
1628616521.2882, 66, 0, 4218.974, 4357.436, 4107.179, 4176.41, 4204.103, 16139, 0, []
1628616521.296, 67, 0, 4221.026, 4319.487, 4106.667, 4165.128, 4203.59, 450, 0, []
1628616521.3038, 68, 0, 4205.641, 4306.154, 4086.667, 4139.487, 4176.923, 16092, 0, []
1628616521.3116, 69, 0, 4197.949, 4333.846, 4102.564, 4140.513, 4168.718, 450, 0, []
1628616521.3195, 70, 0, 4210.769, 4335.385, 4128.205, 4158.462, 4185.641, 16134, 0, []
1628616521.3273, 71, 0, 4216.923, 4329.231, 4112.308, 4163.077, 4191.282, 450, 0, []
1628616521.3352, 72, 0, 4211.795, 4347.692, 4111.282, 4161.538, 4184.615, 450, 0, []
1628616521.3429, 73, 0, 4212.308, 4345.641, 4095.897, 4157.436, 4186.667, 16100, 0, []
1628616521.3509, 74, 0, 4211.282, 4330.769, 4089.744, 4153.846, 4182.051, 450, 0, []
1628616521.3588, 75, 0, 4203.077, 4343.077, 4098.974, 4147.692, 4167.692, 16325, 0, []
1628616521.3667, 76, 0, 4195.385, 4343.59, 4093.333, 4139.487, 4163.077, 450, 0, []
1628616521.3745, 77, 0, 4193.846, 4338.462, 4102.564, 4140.513, 4166.154, 450, 0, []
1628616521.3824, 78, 0, 4197.949, 4358.462, 4090.769, 4148.718, 4169.231, 450, 0, []
1628616521.3903, 79, 0, 4204.103, 4368.205, 4087.179, 4158.974, 4180, 16325, 0, []
1628616521.3983, 80, 0, 4204.615, 4348.718, 4093.333, 4154.872, 4184.615, 450, 0, []
1628616521.4062, 81, 0, 4200, 4334.359, 4080.513, 4149.231, 4174.872, 450, 0, []
1628616521.4142, 82, 0, 4191.795, 4320.513, 4100, 4150.256, 4167.692, 450, 0, []
1628616521.422, 83, 0, 4181.538, 4308.718, 4091.282, 4147.179, 4167.692, 16325, 0, []
1628616521.43, 84, 0, 4180.513, 4334.359, 4066.667, 4149.231, 4170.256, 450, 0, []
1628616521.4379, 85, 0, 4184.615, 4358.974, 4082.051, 4148.718, 4164.615, 450, 0, []
1628616521.4457, 86, 0, 4183.59, 4334.872, 4085.128, 4142.051, 4154.359, 450, 0, []
1628616521.4536, 87, 0, 4183.59, 4302.051, 4088.205, 4148.205, 4154.872, 16325, 0, []
1628616521.4613, 88, 0, 4192.308, 4318.974, 4091.795, 4159.487, 4168.718, 450, 0, []
1628616521.4692, 89, 0, 4200.513, 4346.667, 4097.949, 4159.487, 4173.333, 450, 0, []
1628616521.477, 90, 0, 4198.462, 4330.256, 4097.436, 4150.769, 4166.154, 450, 0, []
1628616521.4849, 91, 0, 4194.872, 4316.41, 4072.308, 4146.154, 4166.667, 16325, 0, []
1628616521.4927, 92, 0, 4200.513, 4344.103, 4094.359, 4153.846, 4173.333, 450, 0, []
1628616521.5005, 93, 0, 4205.128, 4357.436, 4115.385, 4160, 4175.385, 450, 0, []
1628616521.5083, 94, 0, 4195.385, 4333.846, 4092.308, 4146.667, 4171.282, 450, 0, []
1628616521.5162, 95, 0, 4184.615, 4327.179, 4088.205, 4134.359, 4165.128, 16325, 0, []
1628616521.524, 96, 0, 4190.256, 4340.513, 4087.692, 4143.59, 4163.077, 450, 0, []
1628616521.532, 97, 0, 4191.795, 4339.487, 4094.359, 4151.282, 4158.462, 450, 0, []
1628616521.5398, 98, 0, 4180, 4329.744, 4085.128, 4140, 4149.231, 450, 0, []
1628616521.5478, 99, 0, 4188.718, 4326.154, 4084.103, 4141.026, 4154.872, 16325, 0, []
1628616521.5557, 100, 0, 4207.692, 4335.385, 4114.872, 4157.949, 4169.744, 450, 0, []
1628616521.5637, 101, 0, 4204.103, 4346.667, 4095.897, 4163.077, 4171.795, 450, 0, []
1628616521.5716, 102, 0, 4206.667, 4353.846, 4096.41, 4170.769, 4175.897, 450, 0, []
1628616521.5795, 103, 0, 4223.59, 4344.615, 4119.487, 4179.487, 4189.744, 16325, 0, []
1628616521.5874, 104, 0, 4217.949, 4314.359, 4094.359, 4166.667, 4186.154, 450, 0, []
1628616521.5954, 105, 0, 4193.333, 4305.641, 4078.462, 4143.077, 4161.538, 450, 0, []
1628616521.6033, 106, 0, 4192.821, 4331.282, 4077.949, 4141.538, 4155.897, 450, 0, []
1628616521.6111, 107, 0, 4222.564, 4347.692, 4103.077, 4164.615, 4180.513, 16325, 0, []
1628616521.6189, 108, 0, 4238.974, 4337.436, 4118.462, 4173.333, 4196.41, 450, 0, []
1628616521.6267, 109, 0, 4217.949, 4331.795, 4091.795, 4162.564, 4178.974, 450, 0, []
1628616521.6346, 110, 0, 4193.846, 4338.462, 4091.282, 4157.949, 4156.923, 450, 0, []
1628616521.6424, 111, 0, 4203.59, 4341.538, 4090.769, 4161.538, 4166.667, 16325, 0, []
1628616521.6503, 112, 0, 4221.026, 4342.564, 4087.179, 4164.103, 4186.667, 450, 0, []
1628616521.658, 113, 0, 4226.154, 4342.564, 4087.179, 4156.41, 4189.231, 450, 0, []
1628616521.6659, 114, 0, 4251.795, 4339.487, 4080, 4151.795, 4201.538, 450, 0, []
1628616521.6737, 115, 0, 4297.436, 4351.282, 4106.154, 4160, 4241.538, 16325, 0, []
1628616521.6817, 116, 0, 4337.949, 4368.718, 4112.308, 4161.538, 4284.103, 450, 0, []
1628616521.6896, 117, 0, 4389.231, 4363.077, 4111.282, 4162.564, 4324.615, 450, 0, []
1628616521.6975, 118, 0, 4430.256, 4358.462, 4118.974, 4165.128, 4351.282, 450, 0, []
1628616521.7054, 119, 0, 4411.282, 4361.538, 4085.128, 4144.103, 4334.872, 16325, 0, []
1628616521.7134, 120, 0, 4385.128, 4361.538, 4085.128, 4136.923, 4313.846, 450, 0, []
1628616521.7213, 121, 0, 4391.282, 4351.282, 4108.205, 4160.513, 4319.487, 450, 0, []
1628616521.7293, 122, 0, 4376.923, 4351.795, 4108.718, 4163.59, 4312.821, 450, 0, []
1628616521.7371, 123, 0, 4345.641, 4370.256, 4106.667, 4155.385, 4287.692, 16325, 0, []
1628616521.745, 124, 0, 4348.205, 4368.718, 4101.026, 4176.923, 4286.667, 450, 0, []
1628616521.7529, 125, 0, 4350.769, 4346.154, 4120.513, 4189.744, 4287.692, 450, 0, []
1628616521.7609, 126, 0, 4320.513, 4341.026, 4110.256, 4159.487, 4258.462, 450, 0, []
1628616521.7688, 127, 0, 4295.897, 4349.744, 4082.564, 4146.667, 4233.846, 16325, 0, []
1628616521.7765, 128, 0, 4280.513, 4338.462, 4085.641, 4155.897, 4223.59, 450, 0, []
1628616521.7844, 0, 0, 4261.026, 4307.179, 4071.795, 4147.692, 4212.821, 450, 0, []
1628616521.7922, 1, 0, 4258.974, 4288.718, 4091.282, 4153.333, 4216.41, 450, 0, []
1628616521.8001, 2, 0, 4264.615, 4317.436, 4120, 4174.359, 4225.128, 16180, 0, []
1628616521.8079, 3, 0, 4242.051, 4343.59, 4105.128, 4167.179, 4207.692, 450, 0, []
1628616521.8157, 4, 0, 4210.256, 4296.41, 4095.385, 4141.538, 4177.436, 16141, 0, []
1628616521.8235, 5, 0, 4208.205, 4270.256, 4089.744, 4144.615, 4177.436, 450, 0, []
1628616521.8314, 6, 0, 4221.026, 4313.333, 4105.641, 4166.154, 4195.385, 16097, 0, []
1628616521.8392, 7, 0, 4225.641, 4328.718, 4106.667, 4163.59, 4203.59, 450, 0, []
1628616521.8472, 8, 0, 4223.59, 4305.128, 4089.744, 4151.795, 4195.385, 450, 0, []
1628616521.855, 9, 0, 4212.821, 4280, 4102.051, 4144.615, 4180.513, 16184, 0, []
1628616521.863, 10, 0, 4203.077, 4255.897, 4086.667, 4132.821, 4171.795, 450, 0, []
1628616521.8709, 11, 0, 4199.487, 4262.564, 4085.128, 4129.231, 4168.718, 16205, 0, []
1628616521.8789, 12, 0, 4196.923, 4297.949, 4103.59, 4144.615, 4171.795, 450, 0, []
1628616521.8868, 13, 0, 4206.667, 4296.923, 4095.385, 4164.615, 4185.128, 450, 0, []
1628616521.8947, 14, 0, 4225.641, 4278.974, 4100.513, 4176.41, 4197.436, 450, 0, []
1628616521.9026, 15, 0, 4225.641, 4288.205, 4084.615, 4175.385, 4197.949, 16205, 0, []
1628616521.9106, 16, 0, 4207.179, 4288.205, 4083.077, 4165.641, 4184.615, 0, 0, []
1628616521.9185, 17, 0, 4194.872, 4275.897, 4098.974, 4149.231, 4162.051, 0, 0, []
1628616521.9263, 18, 0, 4188.718, 4268.718, 4076.41, 4141.026, 4153.333, 0, 0, []
1628616521.9341, 19, 0, 4178.974, 4261.538, 4076.41, 4151.282, 4155.385, 0, 0, []
1628616521.9419, 20, 0, 4181.538, 4261.026, 4089.744, 4161.026, 4155.385, 0, 0, []
1628616521.9498, 21, 0, 4184.615, 4260.513, 4096.41, 4152.821, 4154.359, 0, 0, []
1628616521.9576, 22, 0, 4170.769, 4263.59, 4097.949, 4135.385, 4145.641, 0, 0, []
1628616521.9655, 23, 0, 4172.308, 4293.333, 4097.436, 4142.051, 4144.103, 0, 0, []
1628616521.9733, 24, 0, 4193.846, 4332.308, 4122.564, 4167.179, 4163.077, 0, 0, []
1628616521.9811, 25, 0, 4196.923, 4331.795, 4107.179, 4172.308, 4172.308, 0, 0, []
1628616521.9889, 26, 0, 4182.564, 4315.385, 4078.462, 4156.41, 4157.436, 0, 0, []
1628616521.9969, 27, 0, 4177.949, 4325.128, 4088.718, 4140.513, 4145.641, 0, 0, []
1628616522.0048, 28, 0, 4185.128, 4340, 4094.359, 4145.128, 4154.872, 0, 0, []
1628616522.0128, 29, 0, 4195.385, 4336.41, 4115.897, 4164.615, 4165.641, 0, 0, []
1628616522.0206, 30, 0, 4197.436, 4331.282, 4117.949, 4166.154, 4163.077, 0, 0, []
1628616522.0286, 31, 0, 4191.795, 4350.256, 4107.692, 4158.974, 4159.487, 0, 0, []
1628616522.0365, 32, 0, 4195.385, 4344.103, 4125.128, 4162.564, 4164.615, 0, 0, []
1628616522.0445, 33, 0, 4192.308, 4308.205, 4106.667, 4159.487, 4157.949, 0, 0, []
1628616522.0524, 34, 0, 4170.769, 4312.821, 4083.59, 4141.538, 4134.872, 0, 0, []
1628616522.0603, 35, 0, 4171.282, 4327.692, 4086.154, 4135.385, 4132.821, 0, 0, []
1628616522.0682, 36, 0, 4204.615, 4320.513, 4106.667, 4163.077, 4162.051, 0, 0, []
1628616522.076, 37, 0, 4225.641, 4333.333, 4141.538, 4189.231, 4181.538, 0, 0, []
1628616522.0839, 38, 0, 4207.179, 4331.282, 4128.205, 4181.538, 4170.769, 0, 0, []
1628616522.0917, 39, 0, 4175.385, 4290.256, 4112.821, 4161.026, 4143.59, 0, 0, []
1628616522.0995, 40, 0, 4164.615, 4287.179, 4106.667, 4149.231, 4130.256, 0, 0, []
1628616522.1073, 41, 0, 4169.744, 4314.872, 4101.026, 4145.641, 4136.923, 0, 0, []
1628616522.1152, 42, 0, 4169.744, 4302.564, 4122.564, 4146.667, 4143.077, 0, 0, []
1628616522.123, 43, 0, 4166.667, 4275.385, 4107.692, 4144.615, 4143.077, 0, 0, []
1628616522.1309, 44, 0, 4173.333, 4277.949, 4101.026, 4143.077, 4147.179, 0, 0, []
1628616522.1386, 45, 0, 4177.436, 4281.538, 4114.359, 4137.436, 4148.205, 0, 0, []
1628616522.1466, 46, 0, 4170.256, 4251.795, 4098.974, 4130.769, 4140, 0, 0, []
1628616522.1545, 47, 0, 4170.769, 4241.026, 4100.513, 4143.59, 4137.436, 0, 0, []
1628616522.1625, 48, 0, 4181.538, 4274.359, 4091.282, 4161.026, 4144.103, 0, 0, []
1628616522.1704, 49, 0, 4184.103, 4277.949, 4092.821, 4161.538, 4148.718, 0, 0, []
1628616522.1783, 50, 0, 4182.051, 4253.333, 4116.923, 4152.821, 4150.769, 0, 0, []
1628616522.1862, 51, 0, 4185.128, 4260.513, 4114.359, 4149.231, 4155.385, 0, 0, []
1628616522.1942, 52, 0, 4186.154, 4269.231, 4115.897, 4158.974, 4156.923, 0, 0, []
1628616522.2021, 53, 0, 4184.615, 4257.949, 4102.564, 4158.462, 4154.872, 0, 0, []
1628616522.2101, 54, 0, 4185.128, 4263.077, 4095.385, 4150.769, 4152.821, 0, 0, []
1628616522.2179, 55, 0, 4180.513, 4271.795, 4107.692, 4150.256, 4146.667, 0, 0, []
1628616522.2257, 56, 0, 4172.821, 4269.231, 4104.615, 4149.744, 4136.923, 0, 0, []
1628616522.2336, 57, 0, 4165.641, 4253.846, 4107.692, 4144.103, 4127.179, 0, 0, []
1628616522.2414, 58, 0, 4155.385, 4232.308, 4083.077, 4140, 4120.513, 0, 0, []
1628616522.2493, 59, 0, 4155.897, 4237.436, 4074.872, 4148.205, 4126.667, 0, 0, []
1628616522.257, 60, 0, 4167.692, 4254.359, 4099.487, 4148.718, 4139.487, 0, 0, []
1628616522.2649, 61, 0, 4172.308, 4256.923, 4085.641, 4144.615, 4143.077, 0, 0, []
1628616522.2727, 62, 0, 4174.359, 4247.179, 4099.487, 4150.256, 4144.103, 0, 0, []
1628616522.2806, 63, 0, 4185.641, 4252.821, 4124.103, 4153.333, 4154.872, 0, 0, []
1628616522.2884, 64, 0, 4188.718, 4268.718, 4117.436, 4151.795, 4163.59, 450, 0, []
1628616522.2962, 65, 0, 4175.897, 4262.051, 4109.231, 4146.154, 4152.821, 450, 0, []
1628616522.304, 66, 0, 4165.641, 4242.564, 4085.641, 4140, 4138.462, 16194, 0, []
1628616522.312, 67, 0, 4167.179, 4258.462, 4094.359, 4146.154, 4143.077, 450, 0, []
1628616522.3199, 68, 0, 4169.744, 4274.359, 4108.718, 4153.846, 4150.769, 16154, 0, []
1628616522.3279, 69, 0, 4161.538, 4237.436, 4095.385, 4152.308, 4143.077, 450, 0, []
1628616522.3357, 70, 0, 4150.256, 4229.744, 4094.872, 4153.333, 4132.308, 16083, 0, []
1628616522.3437, 71, 0, 4149.744, 4257.949, 4086.154, 4158.462, 4136.923, 450, 0, []
1628616522.3516, 72, 0, 4163.59, 4246.667, 4091.282, 4157.436, 4149.231, 450, 0, []
1628616522.3596, 73, 0, 4177.949, 4240.513, 4093.846, 4146.667, 4150.256, 16161, 0, []
1628616522.3675, 74, 0, 4175.385, 4275.385, 4075.385, 4134.359, 4139.487, 450, 0, []
1628616522.3753, 75, 0, 4159.487, 4275.897, 4074.872, 4130.256, 4128.205, 16186, 0, []
1628616522.3832, 76, 0, 4151.282, 4243.077, 4065.128, 4137.949, 4124.103, 450, 0, []
1628616522.391, 77, 0, 4157.436, 4251.795, 4074.872, 4156.41, 4125.641, 450, 0, []
1628616522.3989, 78, 0, 4167.179, 4276.923, 4091.282, 4163.077, 4131.282, 450, 0, []
1628616522.4067, 79, 0, 4172.821, 4282.564, 4084.615, 4153.333, 4140, 16186, 0, []
1628616522.4145, 80, 0, 4164.103, 4276.41, 4088.718, 4145.128, 4135.897, 450, 0, []
1628616522.4223, 81, 0, 4151.282, 4273.333, 4077.436, 4143.077, 4124.615, 450, 0, []
1628616522.4302, 82, 0, 4153.333, 4277.949, 4075.385, 4144.103, 4116.41, 450, 0, []
1628616522.438, 83, 0, 4155.897, 4273.333, 4071.282, 4139.487, 4106.154, 16186, 0, []
1628616522.4459, 84, 0, 4149.231, 4261.026, 4048.205, 4136.923, 4105.641, 450, 0, []
1628616522.4536, 85, 0, 4158.462, 4268.718, 4078.462, 4152.308, 4129.744, 450, 0, []
1628616522.4616, 86, 0, 4184.103, 4288.205, 4097.949, 4172.308, 4154.872, 450, 0, []
1628616522.4695, 87, 0, 4191.795, 4276.923, 4087.179, 4170.769, 4146.154, 16186, 0, []
1628616522.4775, 88, 0, 4182.564, 4262.564, 4091.282, 4155.897, 4131.795, 450, 0, []
1628616522.4854, 89, 0, 4185.128, 4285.128, 4088.718, 4166.667, 4146.154, 450, 0, []
1628616522.4933, 90, 0, 4199.487, 4314.872, 4100, 4187.692, 4159.487, 450, 0, []
1628616522.5012, 91, 0, 4202.564, 4306.667, 4091.282, 4175.385, 4154.872, 16186, 0, []
1628616522.5092, 92, 0, 4192.821, 4279.487, 4082.051, 4158.974, 4152.821, 450, 0, []
1628616522.5171, 93, 0, 4190.256, 4287.179, 4100.513, 4164.615, 4156.41, 450, 0, []
1628616522.5251, 94, 0, 4185.641, 4315.385, 4089.744, 4160, 4147.692, 450, 0, []
1628616522.5329, 95, 0, 4170.769, 4307.692, 4087.179, 4140.513, 4133.333, 16186, 0, []
1628616522.5407, 96, 0, 4164.103, 4272.308, 4082.564, 4131.282, 4132.308, 450, 0, []
1628616522.5486, 97, 0, 4162.051, 4260.513, 4074.872, 4130.769, 4133.333, 450, 0, []
1628616522.5564, 98, 0, 4148.205, 4260, 4078.974, 4120.513, 4122.564, 450, 0, []
1628616522.5643, 99, 0, 4151.795, 4248.718, 4068.205, 4117.436, 4125.128, 16186, 0, []
1628616522.572, 100, 0, 4186.154, 4266.667, 4106.154, 4152.308, 4164.103, 450, 0, []
1628616522.5799, 101, 0, 4207.179, 4300, 4131.282, 4182.564, 4193.333, 450, 0, []
1628616522.5877, 102, 0, 4202.051, 4287.692, 4102.564, 4172.308, 4182.051, 450, 0, []
1628616522.5956, 103, 0, 4204.103, 4273.333, 4107.179, 4159.487, 4175.385, 16186, 0, []
1628616522.6034, 104, 0, 4205.641, 4278.974, 4108.205, 4160.513, 4182.564, 450, 0, []
1628616522.6113, 105, 0, 4187.179, 4264.103, 4107.179, 4159.487, 4173.333, 450, 0, []
1628616522.6192, 106, 0, 4170.256, 4250.769, 4098.974, 4149.231, 4155.385, 450, 0, []
1628616522.6272, 107, 0, 4159.487, 4241.538, 4078.974, 4146.154, 4143.077, 16186, 0, []
1628616522.6351, 108, 0, 4157.436, 4227.179, 4092.308, 4150.769, 4139.487, 450, 0, []
1628616522.6431, 109, 0, 4175.897, 4249.744, 4094.872, 4154.359, 4154.872, 450, 0, []
1628616522.6509, 110, 0, 4192.308, 4276.923, 4094.872, 4158.974, 4170.769, 450, 0, []
1628616522.6589, 111, 0, 4183.077, 4248.205, 4094.872, 4153.333, 4164.615, 16186, 0, []
1628616522.6668, 112, 0, 4169.744, 4225.641, 4080, 4138.462, 4151.795, 450, 0, []
1628616522.6748, 113, 0, 4151.282, 4249.744, 4080, 4129.744, 4130.256, 450, 0, []
1628616522.6827, 114, 0, 4144.615, 4264.103, 4072.821, 4145.641, 4118.974, 450, 0, []
1628616522.6905, 115, 0, 4180, 4269.744, 4089.744, 4171.795, 4152.821, 16186, 0, []
1628616522.6983, 116, 0, 4206.154, 4281.538, 4103.59, 4164.615, 4176.923, 450, 0, []
1628616522.7061, 117, 0, 4188.205, 4274.872, 4080, 4140.513, 4148.205, 450, 0, []
1628616522.714, 118, 0, 4165.128, 4248.718, 4083.077, 4129.744, 4114.359, 450, 0, []
1628616522.7218, 119, 0, 4165.128, 4246.154, 4084.103, 4131.795, 4120.513, 16186, 0, []
1628616522.7297, 120, 0, 4178.974, 4266.154, 4095.897, 4149.231, 4147.692, 450, 0, []
1628616522.7375, 121, 0, 4191.282, 4272.821, 4114.359, 4164.103, 4159.487, 450, 0, []
1628616522.7454, 122, 0, 4189.744, 4267.179, 4093.846, 4156.41, 4147.179, 450, 0, []
1628616522.7533, 123, 0, 4182.564, 4255.897, 4107.692, 4145.641, 4133.333, 16186, 0, []
1628616522.7613, 124, 0, 4185.128, 4248.205, 4123.077, 4142.051, 4136.41, 450, 0, []
1628616522.7691, 125, 0, 4186.667, 4250.769, 4109.231, 4143.077, 4142.564, 450, 0, []
1628616522.777, 126, 0, 4187.179, 4261.538, 4097.949, 4146.667, 4142.564, 450, 0, []
1628616522.7849, 127, 0, 4180, 4263.59, 4082.051, 4142.564, 4132.821, 16186, 0, []
1628616522.7929, 128, 0, 4168.718, 4260.513, 4099.487, 4143.077, 4125.128, 450, 0, []
1628616522.8008, 0, 0, 4175.385, 4267.179, 4103.077, 4154.872, 4130.769, 450, 0, []
