Timestamp, COUNTER, INTERPOLATED, AF3, T7, Pz, T8, AF4, RAW_CQ, MARKER_HARDWARE, MARKERS
1632390662.6018, 121, 0, 4181.538, 4091.282, 4094.872, 4226.154, 4185.641, 450, 0, []
1632390662.6097, 122, 0, 4177.436, 4106.154, 4098.974, 4226.667, 4187.179, 450, 0, []
1632390662.6177, 123, 0, 4182.564, 4111.282, 4098.462, 4230.769, 4199.487, 16207, 0, []
1632390662.6256, 124, 0, 4183.077, 4088.718, 4085.128, 4235.897, 4201.538, 450, 0, []
1632390662.6334, 125, 0, 4186.667, 4057.949, 4078.974, 4233.333, 4189.231, 450, 0, []
1632390662.6413, 126, 0, 4192.308, 4058.462, 4080.513, 4223.077, 4183.077, 450, 0, []
1632390662.6493, 127, 0, 4188.205, 4068.205, 4081.026, 4210.256, 4180, 16207, 0, []
1632390662.6572, 128, 0, 4178.974, 4066.154, 4060, 4201.538, 4163.59, 450, 0, []
1632390662.665, 0, 0, 4182.564, 4084.615, 4053.846, 4211.795, 4149.744, 450, 0, []
1632390662.6728, 1, 0, 4195.897, 4108.718, 4069.231, 4226.154, 4152.821, 450, 0, []
1632390662.6806, 2, 0, 4183.59, 4094.359, 4062.051, 4208.205, 4149.231, 16173, 0, []
1632390662.6885, 3, 0, 4160.513, 4071.795, 4063.077, 4181.538, 4141.538, 450, 0, []
1632390662.6963, 4, 0, 4162.564, 4088.718, 4086.667, 4186.154, 4154.872, 16155, 0, []
1632390662.7042, 5, 0, 4168.205, 4107.179, 4097.436, 4206.667, 4172.308, 450, 0, []
1632390662.712, 6, 0, 4158.974, 4095.897, 4091.282, 4218.462, 4171.282, 16156, 0, []
1632390662.7199, 7, 0, 4155.897, 4098.462, 4084.103, 4218.462, 4165.641, 450, 0, []
1632390662.7278, 8, 0, 4169.744, 4134.872, 4088.205, 4219.487, 4171.282, 450, 0, []
1632390662.7358, 9, 0, 4182.564, 4163.077, 4084.103, 4223.077, 4174.872, 16146, 0, []
1632390662.7437, 10, 0, 4187.179, 4151.795, 4074.872, 4217.949, 4169.231, 450, 0, []
1632390662.7517, 11, 0, 4186.667, 4135.897, 4073.846, 4218.974, 4159.487, 16197, 0, []
1632390662.7595, 12, 0, 4180, 4136.41, 4060.513, 4224.103, 4152.821, 450, 0, []
1632390662.7675, 13, 0, 4176.41, 4141.538, 4061.026, 4214.359, 4150.256, 450, 0, []
1632390662.7754, 14, 0, 4174.872, 4163.077, 4073.333, 4202.564, 4151.795, 450, 0, []
1632390662.7834, 15, 0, 4163.077, 4178.974, 4077.436, 4208.718, 4154.872, 16197, 0, []
1632390662.7913, 16, 0, 4146.667, 4160, 4084.103, 4208.718, 4155.897, 0, 0, []
1632390662.799, 17, 0, 4137.949, 4137.436, 4077.949, 4186.154, 4153.333, 0, 0, []
1632390662.8069, 18, 0, 4146.154, 4138.974, 4073.846, 4168.718, 4154.872, 0, 0, []
1632390662.8147, 19, 0, 4169.231, 4134.872, 4073.846, 4168.205, 4167.179, 0, 0, []
1632390662.8226, 20, 0, 4181.026, 4111.282, 4065.641, 4177.436, 4166.154, 0, 0, []
1632390662.8304, 21, 0, 4171.795, 4122.051, 4063.59, 4191.282, 4143.077, 0, 0, []
1632390662.8383, 22, 0, 4165.128, 4170.256, 4051.795, 4204.103, 4127.179, 0, 0, []
1632390662.846, 23, 0, 4173.333, 4178.974, 4043.077, 4222.564, 4131.282, 0, 0, []
1632390662.8539, 24, 0, 4180, 4132.308, 4049.744, 4231.282, 4145.128, 0, 0, []
1632390662.8617, 25, 0, 4176.923, 4094.359, 4060.513, 4213.333, 4157.949, 0, 0, []
1632390662.8696, 26, 0, 4169.744, 4088.205, 4072.821, 4192.308, 4163.077, 0, 0, []
1632390662.8774, 27, 0, 4156.41, 4080, 4069.231, 4180, 4164.103, 0, 0, []
1632390662.8853, 28, 0, 4148.718, 4068.205, 4072.308, 4175.385, 4166.154, 0, 0, []
1632390662.8932, 29, 0, 4153.846, 4058.974, 4078.462, 4172.821, 4163.59, 0, 0, []
1632390662.9012, 30, 0, 4153.846, 4055.385, 4062.564, 4167.179, 4151.282, 0, 0, []
1632390662.9091, 31, 0, 4156.41, 4086.667, 4050.256, 4181.538, 4144.103, 0, 0, []
1632390662.9171, 32, 0, 4167.179, 4128.718, 4042.564, 4217.436, 4138.462, 0, 0, []
1632390662.925, 33, 0, 4174.872, 4119.487, 4043.59, 4234.359, 4132.308, 0, 0, []
1632390662.9329, 34, 0, 4178.462, 4104.615, 4048.205, 4208.718, 4146.667, 0, 0, []
1632390662.9408, 35, 0, 4174.359, 4157.949, 4054.872, 4182.564, 4167.179, 0, 0, []
1632390662.9487, 36, 0, 4172.821, 4206.154, 4078.462, 4190.769, 4174.872, 0, 0, []
1632390662.9566, 37, 0, 4178.462, 4183.077, 4075.385, 4189.231, 4171.282, 0, 0, []
1632390662.9644, 38, 0, 4168.205, 4146.154, 4049.231, 4165.641, 4154.359, 0, 0, []
1632390662.9722, 39, 0, 4149.744, 4129.231, 4049.744, 4168.205, 4143.077, 0, 0, []
1632390662.98, 40, 0, 4152.821, 4115.385, 4057.949, 4186.667, 4147.179, 0, 0, []
1632390662.9879, 41, 0, 4164.103, 4102.564, 4052.821, 4182.564, 4147.179, 0, 0, []
1632390662.9957, 42, 0, 4161.026, 4098.462, 4037.436, 4168.205, 4141.026, 0, 0, []
1632390663.0036, 43, 0, 4164.615, 4098.462, 4033.333, 4176.41, 4142.564, 0, 0, []
1632390663.0114, 44, 0, 4176.41, 4105.128, 4042.051, 4196.923, 4140.513, 0, 0, []
1632390663.0192, 45, 0, 4173.846, 4122.051, 4035.897, 4203.077, 4129.231, 0, 0, []
1632390663.027, 46, 0, 4163.59, 4141.538, 4033.333, 4191.282, 4124.615, 0, 0, []
1632390663.0349, 47, 0, 4158.462, 4169.744, 4032.821, 4168.205, 4126.154, 0, 0, []
1632390663.0427, 48, 0, 4157.436, 4203.59, 4037.949, 4157.436, 4138.974, 0, 0, []
1632390663.0507, 49, 0, 4160, 4203.077, 4065.128, 4170.769, 4156.923, 0, 0, []
1632390663.0585, 50, 0, 4157.949, 4177.436, 4070.769, 4174.872, 4154.872, 0, 0, []
1632390663.0665, 51, 0, 4161.026, 4160.513, 4058.974, 4178.462, 4153.333, 0, 0, []
1632390663.0744, 52, 0, 4182.051, 4151.795, 4059.487, 4205.128, 4173.333, 0, 0, []
1632390663.0824, 53, 0, 4197.436, 4153.333, 4071.282, 4222.051, 4187.179, 0, 0, []
1632390663.0903, 54, 0, 4190.256, 4186.154, 4080, 4211.282, 4172.821, 0, 0, []
1632390663.0982, 55, 0, 4174.359, 4224.615, 4061.026, 4192.821, 4147.692, 0, 0, []
1632390663.1061, 56, 0, 4171.795, 4218.974, 4047.179, 4190.256, 4137.949, 0, 0, []
1632390663.1141, 57, 0, 4177.949, 4202.051, 4053.846, 4201.538, 4140.513, 0, 0, []
1632390663.122, 58, 0, 4180.513, 4212.308, 4064.615, 4206.154, 4145.128, 0, 0, []
1632390663.1298, 59, 0, 4187.179, 4210.256, 4082.051, 4202.564, 4152.308, 0, 0, []
1632390663.1377, 60, 0, 4187.179, 4182.564, 4079.487, 4195.385, 4158.974, 0, 0, []
1632390663.1454, 61, 0, 4164.103, 4185.128, 4068.205, 4187.692, 4155.385, 0, 0, []
1632390663.1533, 62, 0, 4145.641, 4228.205, 4070.769, 4182.564, 4148.205, 0, 0, []
1632390663.1611, 63, 0, 4157.436, 4250.256, 4075.897, 4191.282, 4150.256, 0, 0, []
1632390663.169, 64, 0, 4174.359, 4226.667, 4081.026, 4210.256, 4155.385, 450, 0, []
1632390663.1768, 65, 0, 4174.359, 4200, 4072.308, 4209.231, 4159.487, 450, 0, []
1632390663.1847, 66, 0, 4182.564, 4197.436, 4075.385, 4203.59, 4170.256, 16178, 0, []
1632390663.1926, 67, 0, 4196.41, 4194.872, 4086.667, 4216.41, 4175.385, 450, 0, []
1632390663.2006, 68, 0, 4183.077, 4204.103, 4069.744, 4215.897, 4152.308, 16150, 0, []
1632390663.2085, 69, 0, 4169.744, 4258.974, 4060, 4209.744, 4129.231, 450, 0, []
1632390663.2165, 70, 0, 4181.026, 4315.385, 4065.641, 4223.077, 4136.923, 16142, 0, []
1632390663.2244, 71, 0, 4182.564, 4307.692, 4065.128, 4224.103, 4142.564, 450, 0, []
1632390663.2323, 72, 0, 4181.538, 4277.949, 4067.692, 4209.231, 4133.846, 450, 0, []
1632390663.2402, 73, 0, 4191.282, 4283.077, 4072.821, 4212.308, 4140.513, 16149, 0, []
1632390663.2482, 74, 0, 4186.667, 4311.795, 4077.949, 4218.462, 4157.436, 450, 0, []
1632390663.2561, 75, 0, 4172.821, 4330.769, 4066.667, 4209.231, 4160.513, 16200, 0, []
1632390663.2641, 76, 0, 4164.615, 4309.744, 4061.538, 4205.641, 4151.282, 450, 0, []
1632390663.2719, 77, 0, 4147.179, 4275.385, 4071.282, 4203.59, 4143.077, 450, 0, []
1632390663.2797, 78, 0, 4134.359, 4292.821, 4067.179, 4194.872, 4140.513, 450, 0, []
1632390663.2876, 79, 0, 4150.256, 4337.949, 4076.923, 4204.103, 4147.179, 16200, 0, []
1632390663.2954, 80, 0, 4160, 4329.744, 4078.462, 4211.282, 4145.128, 450, 0, []
1632390663.3033, 81, 0, 4151.282, 4285.128, 4052.308, 4201.538, 4132.308, 450, 0, []
1632390663.3111, 82, 0, 4161.026, 4260.513, 4042.564, 4212.821, 4134.359, 450, 0, []
1632390663.3189, 83, 0, 4170.256, 4243.59, 4040.513, 4231.795, 4136.923, 16200, 0, []
1632390663.3267, 84, 0, 4163.077, 4226.667, 4038.974, 4226.154, 4126.154, 450, 0, []
1632390663.3347, 85, 0, 4161.538, 4219.487, 4042.564, 4200.513, 4116.41, 450, 0, []
1632390663.3426, 86, 0, 4168.205, 4238.462, 4062.051, 4178.462, 4120, 450, 0, []
1632390663.3506, 87, 0, 4163.077, 4283.077, 4071.282, 4168.205, 4125.641, 16200, 0, []
1632390663.3584, 88, 0, 4140, 4297.949, 4043.59, 4161.026, 4118.974, 450, 0, []
1632390663.3664, 89, 0, 4133.846, 4274.872, 4047.179, 4180, 4123.59, 450, 0, []
1632390663.3743, 90, 0, 4147.692, 4284.103, 4078.462, 4225.641, 4146.667, 450, 0, []
1632390663.3823, 91, 0, 4148.718, 4308.718, 4082.564, 4245.641, 4160, 16200, 0, []
1632390663.3902, 92, 0, 4147.179, 4266.154, 4075.385, 4226.154, 4156.923, 450, 0, []
1632390663.3982, 93, 0, 4157.949, 4242.051, 4064.103, 4214.359, 4150.769, 450, 0, []
1632390663.406, 94, 0, 4160, 4304.615, 4057.949, 4227.692, 4140, 450, 0, []
1632390663.4138, 95, 0, 4157.436, 4353.333, 4060, 4229.744, 4130.769, 16200, 0, []
1632390663.4217, 96, 0, 4174.359, 4341.538, 4071.795, 4226.154, 4133.333, 450, 0, []
1632390663.4295, 97, 0, 4189.744, 4336.923, 4087.179, 4240.513, 4134.359, 450, 0, []
1632390663.4374, 98, 0, 4171.282, 4341.026, 4063.59, 4228.718, 4127.179, 450, 0, []
1632390663.4451, 99, 0, 4152.308, 4321.538, 4042.564, 4194.872, 4130.769, 16200, 0, []
1632390663.453, 100, 0, 4158.462, 4305.128, 4060, 4188.718, 4145.641, 450, 0, []
1632390663.4608, 101, 0, 4166.154, 4298.462, 4075.897, 4199.487, 4162.564, 450, 0, []
1632390663.4687, 102, 0, 4171.282, 4282.564, 4091.795, 4212.308, 4181.538, 450, 0, []
1632390663.4765, 103, 0, 4170.256, 4238.462, 4097.436, 4225.128, 4183.077, 16200, 0, []
1632390663.4843, 104, 0, 4162.564, 4186.154, 4088.205, 4231.282, 4168.718, 450, 0, []
1632390663.4921, 105, 0, 4163.59, 4190.256, 4082.051, 4228.205, 4165.641, 450, 0, []
1632390663.5, 106, 0, 4165.641, 4220.513, 4072.821, 4227.179, 4158.974, 450, 0, []
1632390663.5078, 107, 0, 4163.59, 4205.641, 4065.128, 4226.154, 4135.897, 16200, 0, []
1632390663.5158, 108, 0, 4161.026, 4190.769, 4050.256, 4217.436, 4122.564, 450, 0, []
1632390663.5237, 109, 0, 4155.897, 4207.179, 4043.59, 4208.718, 4122.051, 450, 0, []
1632390663.5316, 110, 0, 4158.462, 4207.179, 4054.359, 4210.256, 4128.205, 450, 0, []
1632390663.5395, 111, 0, 4174.359, 4210.256, 4062.564, 4214.359, 4149.744, 16200, 0, []
1632390663.5475, 112, 0, 4163.077, 4231.282, 4068.205, 4207.692, 4155.897, 450, 0, []
1632390663.5554, 113, 0, 4138.462, 4237.436, 4072.821, 4209.231, 4143.077, 450, 0, []
1632390663.5634, 114, 0, 4155.897, 4234.359, 4087.692, 4229.744, 4160.513, 450, 0, []
1632390663.5712, 115, 0, 4184.103, 4242.051, 4098.462, 4235.897, 4186.667, 16200, 0, []
1632390663.579, 116, 0, 4171.282, 4246.667, 4068.718, 4206.154, 4168.718, 450, 0, []
1632390663.5869, 117, 0, 4149.744, 4244.103, 4045.641, 4188.205, 4143.077, 450, 0, []
1632390663.5947, 118, 0, 4158.462, 4252.821, 4057.949, 4210.256, 4150.769, 450, 0, []
1632390663.6026, 119, 0, 4176.923, 4265.641, 4068.205, 4222.564, 4155.385, 16200, 0, []
1632390663.6104, 120, 0, 4187.179, 4285.641, 4067.692, 4217.436, 4143.077, 450, 0, []
1632390663.6182, 121, 0, 4195.897, 4307.179, 4066.667, 4234.359, 4143.59, 450, 0, []
1632390663.626, 122, 0, 4182.051, 4287.179, 4058.974, 4231.282, 4135.897, 450, 0, []
1632390663.6339, 123, 0, 4142.051, 4252.308, 4034.872, 4170.256, 4111.282, 16200, 0, []
1632390663.6418, 124, 0, 4145.641, 4289.744, 4052.821, 4163.59, 4137.949, 450, 0, []
1632390663.6496, 125, 0, 4191.795, 4345.641, 4113.846, 4234.872, 4194.359, 450, 0, []
1632390663.6573, 126, 0, 4182.051, 4329.231, 4117.949, 4247.179, 4180.513, 450, 0, []
1632390663.6653, 127, 0, 4138.462, 4302.564, 4088.718, 4214.872, 4139.487, 16200, 0, []
1632390663.6732, 128, 0, 4142.051, 4301.026, 4086.667, 4228.205, 4150.769, 450, 0, []
1632390663.6812, 0, 0, 4149.744, 4273.846, 4077.436, 4231.795, 4160, 450, 0, []
1632390663.6891, 1, 0, 4142.564, 4263.077, 4052.821, 4199.487, 4134.872, 450, 0, []
1632390663.697, 2, 0, 4160.513, 4285.128, 4036.923, 4180, 4125.128, 16201, 0, []
1632390663.7049, 3, 0, 4206.154, 4293.333, 4054.872, 4183.077, 4149.744, 450, 0, []
1632390663.7129, 4, 0, 4268.718, 4314.359, 4090.769, 4208.205, 4201.538, 16133, 0, []
1632390663.7208, 5, 0, 4313.846, 4330.256, 4090.256, 4228.205, 4244.615, 450, 0, []
1632390663.7288, 6, 0, 4331.282, 4286.154, 4075.897, 4220.513, 4261.538, 16150, 0, []
1632390663.7367, 7, 0, 4359.487, 4253.333, 4078.974, 4212.308, 4294.359, 450, 0, []
1632390663.7444, 8, 0, 4391.795, 4269.231, 4083.59, 4212.308, 4333.846, 450, 0, []
1632390663.7523, 9, 0, 4391.282, 4266.667, 4069.744, 4182.564, 4325.641, 16177, 0, []
1632390663.7601, 10, 0, 4395.897, 4273.333, 4062.564, 4148.718, 4312.308, 450, 0, []
1632390663.768, 11, 0, 4430.769, 4302.564, 4086.154, 4162.051, 4343.59, 16195, 0, []
1632390663.7758, 12, 0, 4437.949, 4294.872, 4078.462, 4172.308, 4338.462, 450, 0, []
1632390663.7836, 13, 0, 4421.538, 4285.641, 4055.897, 4172.821, 4289.744, 450, 0, []
1632390663.7914, 14, 0, 4415.897, 4300, 4061.538, 4192.308, 4272.821, 450, 0, []
1632390663.7994, 15, 0, 4400, 4295.385, 4056.923, 4196.41, 4271.795, 16195, 0, []
1632390663.8073, 16, 0, 4371.795, 4262.051, 4052.821, 4173.333, 4248.205, 0, 0, []
1632390663.8152, 17, 0, 4350.256, 4243.59, 4056.41, 4157.436, 4223.077, 0, 0, []
1632390663.823, 18, 0, 4349.744, 4267.692, 4070.256, 4165.641, 4222.564, 0, 0, []
1632390663.8309, 19, 0, 4361.026, 4311.795, 4104.103, 4182.564, 4234.872, 0, 0, []
1632390663.8388, 20, 0, 4353.333, 4336.41, 4104.103, 4184.615, 4227.692, 0, 0, []
1632390663.8468, 21, 0, 4323.077, 4338.462, 4076.41, 4163.59, 4194.872, 0, 0, []
1632390663.8547, 22, 0, 4321.026, 4336.923, 4075.385, 4158.462, 4187.179, 0, 0, []
1632390663.8627, 23, 0, 4349.231, 4327.179, 4093.846, 4183.59, 4202.564, 0, 0, []
1632390663.8705, 24, 0, 4361.026, 4334.359, 4103.077, 4195.897, 4195.897, 0, 0, []
1632390663.8785, 25, 0, 4358.462, 4357.436, 4101.026, 4192.308, 4184.615, 0, 0, []
1632390663.8864, 26, 0, 4353.846, 4352.308, 4099.487, 4192.308, 4181.026, 0, 0, []
1632390663.8942, 27, 0, 4333.846, 4324.615, 4084.103, 4185.641, 4167.179, 0, 0, []
1632390663.9021, 28, 0, 4308.205, 4307.179, 4074.359, 4173.846, 4154.359, 0, 0, []
1632390663.9099, 29, 0, 4296.923, 4303.077, 4083.59, 4169.231, 4151.282, 0, 0, []
1632390663.9177, 30, 0, 4295.385, 4305.641, 4080, 4174.359, 4155.385, 0, 0, []
1632390663.9255, 31, 0, 4294.359, 4304.615, 4090.769, 4195.385, 4164.615, 0, 0, []
1632390663.9334, 32, 0, 4286.667, 4293.846, 4096.41, 4212.308, 4160.513, 0, 0, []
1632390663.9412, 33, 0, 4283.59, 4305.128, 4083.59, 4205.128, 4153.846, 0, 0, []
1632390663.9491, 34, 0, 4307.179, 4349.744, 4109.231, 4212.308, 4181.026, 0, 0, []
1632390663.9568, 35, 0, 4326.667, 4374.872, 4144.103, 4239.487, 4219.487, 0, 0, []
1632390663.9647, 36, 0, 4317.949, 4347.692, 4151.282, 4247.692, 4227.692, 0, 0, []
1632390663.9725, 37, 0, 4308.205, 4351.795, 4149.744, 4240, 4225.641, 0, 0, []
1632390663.9805, 38, 0, 4308.718, 4428.205, 4158.462, 4250.256, 4230.256, 0, 0, []
1632390663.9884, 39, 0, 4310.256, 4472.308, 4174.872, 4267.179, 4234.872, 0, 0, []
1632390663.9963, 40, 0, 4312.308, 4455.385, 4186.667, 4265.641, 4243.59, 0, 0, []
1632390664.0042, 41, 0, 4301.026, 4450.256, 4199.487, 4260.513, 4239.487, 0, 0, []
1632390664.0122, 42, 0, 4283.077, 4445.641, 4196.41, 4254.359, 4216.923, 0, 0, []
1632390664.0201, 43, 0, 4303.59, 4474.872, 4182.564, 4251.795, 4222.051, 0, 0, []
1632390664.0281, 44, 0, 4348.205, 4638.974, 4188.205, 4269.231, 4255.897, 0, 0, []
1632390664.036, 45, 0, 4366.667, 4764.103, 4185.641, 4291.795, 4263.077, 0, 0, []
1632390664.0437, 46, 0, 4365.641, 4661.538, 4174.872, 4296.923, 4241.538, 0, 0, []
1632390664.0516, 47, 0, 4366.154, 4509.744, 4178.462, 4293.846, 4231.795, 0, 0, []
1632390664.0594, 48, 0, 4350.769, 4445.128, 4173.333, 4291.282, 4236.41, 0, 0, []
1632390664.0673, 49, 0, 4331.795, 4398.462, 4173.846, 4281.026, 4239.487, 0, 0, []
1632390664.0751, 50, 0, 4331.795, 4385.128, 4181.026, 4270.769, 4238.974, 0, 0, []
1632390664.0829, 51, 0, 4335.897, 4403.077, 4202.051, 4285.128, 4255.385, 0, 0, []
1632390664.0907, 52, 0, 4347.179, 4375.385, 4244.615, 4321.026, 4287.692, 0, 0, []
1632390664.0986, 53, 0, 4359.487, 4360, 4257.436, 4335.385, 4298.974, 0, 0, []
1632390664.1064, 54, 0, 4355.385, 4441.026, 4241.538, 4320.513, 4288.205, 0, 0, []
1632390664.1143, 55, 0, 4356.41, 4540.513, 4233.846, 4313.333, 4281.538, 0, 0, []
1632390664.1221, 56, 0, 4370.256, 4533.333, 4231.795, 4328.205, 4268.718, 0, 0, []
1632390664.1299, 57, 0, 4368.205, 4474.359, 4218.974, 4335.897, 4250.256, 0, 0, []
1632390664.1377, 58, 0, 4361.026, 4522.051, 4207.179, 4327.179, 4262.051, 0, 0, []
1632390664.1457, 59, 0, 4363.59, 4592.308, 4210.256, 4324.103, 4284.103, 0, 0, []
1632390664.1536, 60, 0, 4348.718, 4551.282, 4192.308, 4317.949, 4269.744, 0, 0, []
1632390664.1616, 61, 0, 4318.462, 4517.436, 4174.872, 4304.615, 4249.744, 0, 0, []
1632390664.1694, 62, 0, 4302.564, 4570.256, 4185.641, 4292.821, 4251.282, 0, 0, []
1632390664.1774, 63, 0, 4310.769, 4646.154, 4188.205, 4288.718, 4258.974, 0, 0, []
1632390664.1853, 64, 0, 4338.462, 4671.282, 4198.462, 4304.103, 4273.333, 450, 0, []
1632390664.1933, 65, 0, 4352.308, 4616.923, 4204.103, 4311.282, 4272.821, 450, 0, []
1632390664.2012, 66, 0, 4348.718, 4562.051, 4185.128, 4303.077, 4251.795, 16239, 0, []
1632390664.209, 67, 0, 4360.513, 4578.462, 4185.641, 4327.179, 4249.744, 450, 0, []
1632390664.2168, 68, 0, 4361.026, 4618.462, 4193.333, 4356.41, 4268.205, 16136, 0, []
1632390664.2246, 69, 0, 4345.641, 4635.385, 4188.205, 4337.949, 4279.487, 450, 0, []
1632390664.2325, 70, 0, 4341.538, 4641.026, 4181.026, 4311.282, 4278.462, 16134, 0, []
1632390664.2403, 71, 0, 4329.231, 4631.282, 4178.974, 4303.59, 4262.051, 450, 0, []
1632390664.2482, 72, 0, 4318.974, 4629.231, 4189.231, 4296.923, 4254.872, 450, 0, []
1632390664.2559, 73, 0, 4345.128, 4636.923, 4190.256, 4297.436, 4277.949, 16185, 0, []
1632390664.2638, 74, 0, 4373.846, 4620, 4183.59, 4308.718, 4278.974, 450, 0, []
1632390664.2716, 75, 0, 4370.769, 4602.051, 4175.897, 4316.41, 4247.692, 16190, 0, []
1632390664.2795, 76, 0, 4345.128, 4614.872, 4155.897, 4309.231, 4230.769, 450, 0, []
1632390664.2873, 77, 0, 4324.103, 4624.615, 4158.462, 4304.103, 4238.974, 450, 0, []
1632390664.2952, 78, 0, 4332.821, 4582.051, 4185.128, 4320.513, 4265.641, 450, 0, []
1632390664.3031, 79, 0, 4335.897, 4509.744, 4192.308, 4331.282, 4270.769, 16190, 0, []
1632390664.3111, 80, 0, 4316.923, 4471.795, 4182.051, 4317.436, 4251.282, 450, 0, []
1632390664.319, 81, 0, 4321.026, 4480, 4177.436, 4300, 4254.359, 450, 0, []
1632390664.327, 82, 0, 4334.359, 4488.718, 4172.308, 4288.718, 4262.051, 450, 0, []
1632390664.3349, 83, 0, 4326.154, 4485.128, 4155.897, 4282.564, 4240.513, 16190, 0, []
1632390664.3428, 84, 0, 4322.051, 4496.923, 4150.256, 4284.103, 4222.051, 450, 0, []
1632390664.3507, 85, 0, 4336.923, 4535.897, 4158.974, 4300.513, 4232.308, 450, 0, []
1632390664.3587, 86, 0, 4341.538, 4545.128, 4151.282, 4307.692, 4240.513, 450, 0, []
1632390664.3666, 87, 0, 4327.179, 4497.436, 4145.128, 4290.256, 4238.974, 16190, 0, []
1632390664.3744, 88, 0, 4322.051, 4460, 4150.256, 4288.205, 4252.308, 450, 0, []
1632390664.3822, 89, 0, 4324.615, 4452.821, 4165.128, 4311.795, 4267.692, 450, 0, []
1632390664.39, 90, 0, 4306.667, 4460, 4168.205, 4305.128, 4251.282, 450, 0, []
1632390664.398, 91, 0, 4289.744, 4477.436, 4147.179, 4275.897, 4229.744, 16190, 0, []
1632390664.4059, 92, 0, 4311.795, 4466.154, 4153.846, 4284.103, 4247.179, 450, 0, []
1632390664.4138, 93, 0, 4324.103, 4438.974, 4157.436, 4286.154, 4249.231, 450, 0, []
1632390664.4216, 94, 0, 4297.436, 4459.487, 4136.923, 4266.667, 4210.769, 450, 0, []
1632390664.4294, 95, 0, 4306.154, 4478.974, 4148.718, 4297.436, 4212.821, 16190, 0, []
1632390664.4372, 96, 0, 4341.538, 4455.385, 4152.308, 4330.256, 4238.974, 450, 0, []
1632390664.4452, 97, 0, 4338.462, 4469.744, 4136.923, 4308.718, 4234.359, 450, 0, []
1632390664.4531, 98, 0, 4318.462, 4556.41, 4143.077, 4292.308, 4233.846, 450, 0, []
1632390664.4611, 99, 0, 4314.359, 4622.051, 4156.41, 4302.564, 4251.282, 16190, 0, []
1632390664.4689, 100, 0, 4307.692, 4598.974, 4165.641, 4302.564, 4252.308, 450, 0, []
1632390664.4769, 101, 0, 4286.154, 4563.59, 4157.436, 4286.667, 4231.795, 450, 0, []
1632390664.4848, 102, 0, 4261.538, 4600, 4130.256, 4253.846, 4205.128, 450, 0, []
1632390664.4928, 103, 0, 4252.821, 4651.795, 4110.256, 4229.744, 4193.333, 16190, 0, []
1632390664.5007, 104, 0, 4267.179, 4646.667, 4115.385, 4247.692, 4206.154, 450, 0, []
1632390664.5086, 105, 0, 4281.026, 4723.59, 4131.795, 4269.231, 4213.846, 450, 0, []
1632390664.5164, 106, 0, 4278.462, 4947.179, 4122.051, 4260, 4195.897, 450, 0, []
1632390664.5242, 107, 0, 4280.513, 5114.872, 4106.667, 4257.949, 4177.949, 16190, 0, []
1632390664.5321, 108, 0, 4289.231, 5131.282, 4102.564, 4273.333, 4180.513, 450, 0, []
1632390664.5399, 109, 0, 4282.051, 5072.821, 4093.846, 4276.41, 4185.128, 450, 0, []
1632390664.5478, 110, 0, 4270.256, 5022.564, 4098.462, 4269.231, 4186.667, 450, 0, []
1632390664.5555, 111, 0, 4275.897, 4989.231, 4098.974, 4270.256, 4204.103, 16190, 0, []
1632390664.5635, 112, 0, 4272.308, 4957.949, 4090.256, 4272.308, 4213.846, 450, 0, []
1632390664.5714, 113, 0, 4243.077, 4910.769, 4082.051, 4255.897, 4192.308, 450, 0, []
1632390664.5794, 114, 0, 4221.026, 4884.103, 4073.846, 4236.41, 4173.846, 450, 0, []
1632390664.5873, 115, 0, 4235.897, 4882.564, 4098.974, 4253.846, 4193.333, 16190, 0, []
1632390664.5952, 116, 0, 4261.026, 4774.872, 4130.769, 4278.974, 4217.949, 450, 0, []
1632390664.6031, 117, 0, 4253.333, 4576.41, 4135.897, 4265.641, 4205.641, 450, 0, []
1632390664.6111, 118, 0, 4226.667, 4439.487, 4115.385, 4241.538, 4178.974, 450, 0, []
1632390664.619, 119, 0, 4218.462, 4399.487, 4092.821, 4242.051, 4188.205, 16190, 0, []
1632390664.6269, 120, 0, 4224.103, 4358.974, 4105.641, 4258.462, 4213.846, 450, 0, []
1632390664.6348, 121, 0, 4181.538, 4275.385, 4076.923, 4236.41, 4178.974, 450, 0, []
1632390664.6426, 122, 0, 4126.667, 4212.821, 4026.667, 4201.538, 4132.308, 450, 0, []
1632390664.6505, 123, 0, 4156.923, 4221.538, 4084.615, 4252.821, 4182.564, 16190, 0, []
1632390664.6584, 124, 0, 4209.744, 4238.974, 4154.872, 4333.333, 4246.154, 450, 0, []
1632390664.6664, 125, 0, 4182.051, 4184.615, 4121.026, 4322.051, 4210.769, 450, 0, []
1632390664.6743, 126, 0, 4133.333, 4141.026, 4068.718, 4274.872, 4153.333, 450, 0, []
1632390664.6821, 127, 0, 4133.846, 4149.231, 4069.744, 4276.923, 4145.128, 16190, 0, []
1632390664.6899, 128, 0, 4132.821, 4126.667, 4067.179, 4268.718, 4123.59, 450, 0, []
1632390664.6978, 0, 0, 4120, 4091.795, 4060.513, 4236.41, 4101.538, 450, 0, []
1632390664.7056, 1, 0, 4121.026, 4086.667, 4080, 4225.128, 4116.41, 450, 0, []
1632390664.7135, 2, 0, 4111.795, 4083.59, 4081.026, 4224.615, 4126.667, 16167, 0, []
1632390664.7213, 3, 0, 4109.744, 4071.282, 4085.128, 4236.923, 4135.897, 450, 0, []
1632390664.7291, 4, 0, 4120.513, 4061.538, 4110.769, 4260, 4151.795, 16108, 0, []
1632390664.7369, 5, 0, 4116.923, 4057.436, 4098.462, 4258.462, 4141.026, 450, 0, []
1632390664.7449, 6, 0, 4109.744, 4055.897, 4069.231, 4243.077, 4118.974, 16202, 0, []
1632390664.7528, 7, 0, 4129.744, 4049.744, 4069.231, 4255.897, 4129.231, 450, 0, []
1632390664.7608, 8, 0, 4142.564, 4035.897, 4077.949, 4269.231, 4138.462, 450, 0, []
1632390664.7686, 9, 0, 4126.154, 4022.564, 4078.462, 4252.821, 4125.641, 16171, 0, []
1632390664.7766, 10, 0, 4118.974, 4023.59, 4075.385, 4239.487, 4128.718, 450, 0, []
1632390664.7845, 11, 0, 4114.872, 4013.846, 4084.615, 4248.205, 4142.051, 16239, 0, []
1632390664.7925, 12, 0, 4101.538, 3980.513, 4092.308, 4256.923, 4133.333, 450, 0, []
1632390664.8004, 13, 0, 4103.077, 3969.744, 4084.103, 4257.949, 4124.615, 450, 0, []
1632390664.8084, 14, 0, 4118.462, 3980, 4088.205, 4264.103, 4138.974, 450, 0, []
1632390664.8162, 15, 0, 4120, 3996.923, 4085.128, 4262.564, 4143.077, 16239, 0, []
1632390664.8241, 16, 0, 4123.59, 4069.231, 4078.974, 4262.051, 4131.795, 0, 0, []
1632390664.832, 17, 0, 4149.231, 4155.897, 4093.846, 4272.821, 4138.974, 0, 0, []
1632390664.8398, 18, 0, 4151.795, 4294.872, 4092.821, 4258.462, 4142.564, 0, 0, []
1632390664.8477, 19, 0, 4126.667, 4534.359, 4081.538, 4233.333, 4126.667, 0, 0, []
1632390664.8554, 20, 0, 4123.59, 4622.051, 4085.128, 4237.949, 4137.949, 0, 0, []
1632390664.8633, 21, 0, 4124.103, 4560.513, 4081.538, 4240.513, 4157.436, 0, 0, []
1632390664.8711, 22, 0, 4107.692, 4674.872, 4065.641, 4227.692, 4147.179, 0, 0, []
1632390664.879, 23, 0, 4103.59, 4800.513, 4061.026, 4238.462, 4146.667, 0, 0, []
1632390664.8868, 24, 0, 4126.154, 4681.538, 4083.077, 4258.462, 4170.256, 0, 0, []
1632390664.8946, 25, 0, 4148.718, 4578.974, 4089.231, 4251.282, 4181.026, 0, 0, []
1632390664.9024, 26, 0, 4152.821, 4615.897, 4078.462, 4244.615, 4170.769, 0, 0, []
1632390664.9104, 27, 0, 4149.231, 4624.615, 4077.436, 4253.333, 4163.59, 0, 0, []
1632390664.9183, 28, 0, 4141.538, 4601.026, 4070.769, 4244.103, 4154.872, 0, 0, []
1632390664.9263, 29, 0, 4134.359, 4625.128, 4072.308, 4232.821, 4138.974, 0, 0, []
1632390664.9342, 30, 0, 4125.641, 4690.769, 4072.308, 4246.154, 4123.59, 0, 0, []
1632390664.9421, 31, 0, 4116.923, 4761.026, 4057.949, 4246.154, 4107.692, 0, 0, []
1632390664.95, 32, 0, 4124.103, 4794.872, 4063.59, 4228.718, 4113.846, 0, 0, []
1632390664.958, 33, 0, 4129.231, 4812.821, 4071.282, 4224.615, 4131.282, 0, 0, []
1632390664.9659, 34, 0, 4099.487, 4871.282, 4051.282, 4200, 4112.821, 0, 0, []
1632390664.9739, 35, 0, 4092.308, 5001.026, 4033.333, 4170.256, 4098.462, 0, 0, []
1632390664.9817, 36, 0, 4153.333, 5075.897, 4057.436, 4191.795, 4146.154, 0, 0, []
1632390664.9895, 37, 0, 4203.077, 4990.256, 4085.128, 4210.769, 4188.205, 0, 0, []
1632390664.9974, 38, 0, 4209.231, 4906.667, 4078.462, 4189.231, 4191.282, 0, 0, []
1632390665.0052, 39, 0, 4226.667, 4873.333, 4083.077, 4184.103, 4202.564, 0, 0, []
1632390665.0131, 40, 0, 4245.641, 4806.154, 4082.051, 4188.205, 4211.282, 0, 0, []
1632390665.0209, 41, 0, 4246.154, 4804.103, 4061.538, 4174.359, 4206.667, 0, 0, []
1632390665.0287, 42, 0, 4262.564, 4845.641, 4078.974, 4186.667, 4213.333, 0, 0, []
1632390665.0365, 43, 0, 4273.846, 4825.128, 4087.692, 4200.513, 4211.282, 0, 0, []
1632390665.0445, 44, 0, 4250.769, 4869.744, 4067.179, 4178.462, 4192.821, 0, 0, []
1632390665.0524, 45, 0, 4235.385, 4984.103, 4060, 4170.256, 4187.179, 0, 0, []
1632390665.0604, 46, 0, 4235.385, 4975.897, 4054.359, 4171.282, 4172.308, 0, 0, []
1632390665.0682, 47, 0, 4228.718, 4901.026, 4053.333, 4160.513, 4151.795, 0, 0, []
1632390665.0762, 48, 0, 4218.974, 4899.487, 4061.538, 4154.872, 4147.692, 0, 0, []
1632390665.0841, 49, 0, 4210.256, 4885.128, 4071.795, 4156.41, 4141.026, 0, 0, []
1632390665.0921, 50, 0, 4204.103, 4807.179, 4068.205, 4161.538, 4134.872, 0, 0, []
1632390665.1, 51, 0, 4199.487, 4848.718, 4050.256, 4162.051, 4137.949, 0, 0, []
1632390665.108, 52, 0, 4202.051, 4997.436, 4054.359, 4156.41, 4142.564, 0, 0, []
1632390665.1158, 53, 0, 4202.564, 4981.026, 4057.436, 4144.615, 4142.564, 0, 0, []
1632390665.1238, 54, 0, 4192.308, 4830.256, 4058.974, 4142.051, 4139.487, 0, 0, []
1632390665.1317, 55, 0, 4196.923, 4854.872, 4080, 4160.513, 4150.256, 0, 0, []
1632390665.1395, 56, 0, 4208.718, 5032.308, 4077.436, 4178.462, 4162.564, 0, 0, []
1632390665.1474, 57, 0, 4199.487, 5176.41, 4048.205, 4171.795, 4151.282, 0, 0, []
1632390665.1551, 58, 0, 4200, 5340.513, 4029.231, 4155.385, 4143.077, 0, 0, []
1632390665.163, 59, 0, 4218.462, 5346.667, 4042.564, 4165.641, 4154.359, 0, 0, []
1632390665.1708, 60, 0, 4211.795, 5081.538, 4058.462, 4180.513, 4147.179, 0, 0, []
1632390665.1787, 61, 0, 4202.051, 5007.179, 4054.359, 4185.641, 4135.385, 0, 0, []
1632390665.1865, 62, 0, 4223.077, 5213.333, 4067.179, 4198.462, 4147.179, 0, 0, []
1632390665.1943, 63, 0, 4226.667, 5333.846, 4069.744, 4187.179, 4143.59, 0, 0, []
1632390665.2021, 64, 0, 4208.718, 5399.487, 4045.641, 4157.436, 4127.179, 450, 0, []
1632390665.21, 65, 0, 4216.41, 5449.744, 4037.949, 4166.667, 4133.333, 450, 0, []
1632390665.2178, 66, 0, 4223.077, 5278.974, 4041.538, 4196.923, 4141.538, 16095, 0, []
1632390665.2258, 67, 0, 4208.205, 5088.205, 4048.718, 4208.718, 4136.923, 450, 0, []
1632390665.2337, 68, 0, 4206.154, 5153.846, 4048.205, 4209.231, 4134.872, 16116, 0, []
1632390665.2416, 69, 0, 4225.128, 5241.538, 4057.436, 4218.974, 4145.128, 450, 0, []
1632390665.2495, 70, 0, 4241.538, 5162.051, 4083.077, 4225.641, 4163.59, 322, 0, []
1632390665.2575, 71, 0, 4234.359, 5210.769, 4072.308, 4197.949, 4166.154, 450, 0, []
1632390665.2654, 72, 0, 4206.667, 5384.103, 4044.103, 4154.359, 4142.051, 450, 0, []
1632390665.2734, 73, 0, 4185.641, 5280, 4031.282, 4144.103, 4121.538, 16085, 0, []
1632390665.2812, 74, 0, 4180, 4972.308, 4024.103, 4166.154, 4117.436, 450, 0, []
1632390665.2892, 75, 0, 4186.154, 4910.769, 4032.308, 4195.385, 4123.077, 16186, 0, []
1632390665.2971, 76, 0, 4194.359, 5091.795, 4044.103, 4218.462, 4137.949, 450, 0, []
1632390665.3049, 77, 0, 4184.103, 5133.333, 4036.923, 4208.718, 4140.513, 450, 0, []
1632390665.3128, 78, 0, 4162.051, 5116.41, 4011.282, 4164.615, 4117.949, 450, 0, []
1632390665.3206, 79, 0, 4160.513, 5274.872, 4007.179, 4141.026, 4104.103, 16186, 0, []
1632390665.3284, 80, 0, 4171.282, 5377.436, 4037.949, 4149.744, 4110.769, 450, 0, []
1632390665.3362, 81, 0, 4176.923, 5248.205, 4054.359, 4157.436, 4118.462, 450, 0, []
1632390665.3441, 82, 0, 4190.256, 5076.41, 4058.462, 4165.641, 4122.564, 450, 0, []
1632390665.3519, 83, 0, 4191.282, 5011.795, 4056.923, 4177.436, 4122.051, 16186, 0, []
1632390665.3598, 84, 0, 4171.282, 5079.487, 4039.487, 4181.538, 4116.41, 450, 0, []
1632390665.3675, 85, 0, 4168.718, 5234.359, 4034.359, 4194.872, 4118.974, 450, 0, []
1632390665.3755, 86, 0, 4182.564, 5315.897, 4037.949, 4209.231, 4130.769, 450, 0, []
1632390665.3834, 87, 0, 4182.564, 5439.487, 4041.538, 4203.077, 4132.308, 16186, 0, []
1632390665.3914, 88, 0, 4186.154, 5669.744, 4057.436, 4204.103, 4135.897, 450, 0, []
1632390665.3993, 89, 0, 4187.692, 5556.923, 4063.59, 4216.923, 4144.103, 450, 0, []
1632390665.4073, 90, 0, 4158.974, 5131.795, 4050.256, 4212.821, 4125.128, 450, 0, []
1632390665.4151, 91, 0, 4149.744, 4936.41, 4034.872, 4204.103, 4112.821, 16186, 0, []
1632390665.4231, 92, 0, 4185.641, 5025.641, 4041.026, 4213.846, 4140.513, 450, 0, []
1632390665.431, 93, 0, 4215.385, 5109.744, 4053.333, 4229.744, 4169.744, 450, 0, []
1632390665.439, 94, 0, 4197.949, 4967.692, 4037.436, 4222.051, 4157.436, 450, 0, []
1632390665.4469, 95, 0, 4172.308, 4846.667, 4029.231, 4195.385, 4128.718, 16186, 0, []
1632390665.4546, 96, 0, 4176.923, 5115.385, 4037.949, 4179.487, 4126.154, 450, 0, []
1632390665.4625, 97, 0, 4182.051, 5332.821, 4044.615, 4179.487, 4137.436, 450, 0, []
1632390665.4703, 98, 0, 4174.872, 5172.308, 4053.846, 4180.513, 4137.436, 450, 0, []
1632390665.4782, 99, 0, 4164.103, 5131.282, 4041.538, 4174.359, 4124.615, 16186, 0, []
1632390665.486, 100, 0, 4148.718, 5302.564, 4022.051, 4168.718, 4112.821, 450, 0, []
1632390665.4938, 101, 0, 4146.667, 5227.692, 4014.359, 4175.385, 4105.128, 450, 0, []
1632390665.5016, 102, 0, 4142.564, 5035.385, 4001.538, 4181.538, 4090.769, 450, 0, []
1632390665.5095, 103, 0, 4126.154, 5012.821, 3994.872, 4184.103, 4083.077, 16186, 0, []
1632390665.5173, 104, 0, 4137.436, 4971.795, 4004.103, 4202.051, 4106.154, 450, 0, []
1632390665.5253, 105, 0, 4168.205, 4864.103, 4020, 4205.128, 4126.154, 450, 0, []
1632390665.5332, 106, 0, 4172.308, 4814.359, 4019.487, 4185.641, 4120, 450, 0, []
1632390665.5411, 107, 0, 4166.667, 4790.769, 4015.385, 4187.692, 4113.333, 16186, 0, []
1632390665.549, 108, 0, 4162.051, 4723.59, 4020, 4193.333, 4105.128, 450, 0, []
1632390665.557, 109, 0, 4134.872, 4674.872, 4001.026, 4167.179, 4088.718, 450, 0, []
1632390665.5649, 110, 0, 4137.436, 4708.718, 4012.308, 4165.641, 4107.692, 450, 0, []
1632390665.5729, 111, 0, 4172.821, 4792.308, 4050.256, 4192.821, 4146.667, 16186, 0, []
1632390665.5807, 112, 0, 4162.564, 4789.744, 4035.385, 4183.077, 4143.077, 450, 0, []
1632390665.5887, 113, 0, 4134.359, 4667.179, 4013.333, 4166.667, 4131.795, 450, 0, []
1632390665.5966, 114, 0, 4142.051, 4734.359, 4018.974, 4173.846, 4143.077, 450, 0, []
1632390665.6046, 115, 0, 4150.769, 4992.821, 4029.744, 4180, 4137.949, 16186, 0, []
1632390665.6125, 116, 0, 4138.462, 5013.846, 4037.436, 4184.615, 4126.154, 450, 0, []
1632390665.6203, 117, 0, 4142.051, 4814.872, 4050.256, 4198.974, 4142.564, 450, 0, []
1632390665.6281, 118, 0, 4157.949, 4734.872, 4054.359, 4207.692, 4154.872, 450, 0, []
1632390665.6359, 119, 0, 4154.359, 4859.487, 4028.718, 4202.051, 4137.436, 16186, 0, []
1632390665.6438, 120, 0, 4152.308, 5038.974, 4020.513, 4198.974, 4133.333, 450, 0, []
1632390665.6517, 121, 0, 4161.538, 5105.641, 4025.641, 4196.41, 4146.154, 450, 0, []
1632390665.6596, 122, 0, 4156.923, 5101.538, 4007.692, 4176.923, 4134.872, 450, 0, []
1632390665.6673, 123, 0, 4155.897, 5112.308, 4015.897, 4167.692, 4122.051, 16186, 0, []
1632390665.6752, 124, 0, 4172.821, 5081.026, 4039.487, 4178.974, 4138.974, 450, 0, []
1632390665.683, 125, 0, 4170.769, 4976.923, 4038.462, 4186.667, 4147.179, 450, 0, []
1632390665.691, 126, 0, 4144.615, 4864.103, 4017.436, 4178.974, 4124.615, 450, 0, []
1632390665.6989, 127, 0, 4135.385, 4817.436, 3995.385, 4176.41, 4104.615, 16186, 0, []
1632390665.7069, 128, 0, 4147.179, 4886.667, 4003.59, 4198.462, 4106.154, 450, 0, []
1632390665.7147, 0, 0, 4155.385, 4952.821, 4014.872, 4218.974, 4111.795, 450, 0, []
1632390665.7227, 1, 0, 4154.872, 4856.41, 4006.154, 4205.641, 4109.231, 450, 0, []
1632390665.7306, 2, 0, 4161.026, 4742.051, 4015.897, 4188.718, 4113.333, 16309, 0, []
1632390665.7386, 3, 0, 4157.949, 4701.538, 4027.692, 4177.949, 4125.128, 450, 0, []
1632390665.7465, 4, 0, 4127.692, 4635.897, 4017.949, 4156.41, 4121.026, 16066, 0, []
1632390665.7544, 5, 0, 4112.308, 4669.231, 4010.256, 4146.667, 4111.795, 450, 0, []
1632390665.7623, 6, 0, 4125.641, 4773.846, 4029.744, 4165.128, 4120.513, 16100, 0, []
1632390665.7701, 7, 0, 4134.872, 4783.077, 4046.154, 4178.974, 4134.872, 450, 0, []
1632390665.778, 8, 0, 4134.359, 4803.077, 4023.077, 4180, 4140, 450, 0, []
1632390665.7858, 9, 0, 4139.487, 4894.872, 4005.128, 4186.667, 4135.385, 16335, 0, []
1632390665.7936, 10, 0, 4145.128, 4909.744, 4009.744, 4189.231, 4131.282, 450, 0, []
1632390665.8014, 11, 0, 4136.923, 4907.179, 4009.744, 4182.564, 4124.615, 16105, 0, []
1632390665.8093, 12, 0, 4124.103, 5101.026, 4008.205, 4177.436, 4109.231, 450, 0, []
1632390665.8171, 13, 0, 4127.179, 5256.923, 4002.051, 4180, 4097.949, 450, 0, []
1632390665.825, 14, 0, 4132.821, 5149.231, 3992.308, 4175.385, 4090.256, 450, 0, []
1632390665.8328, 15, 0, 4124.615, 5203.59, 3980.513, 4161.538, 4079.487, 16105, 0, []
1632390665.8407, 16, 0, 4134.359, 5649.744, 3988.718, 4167.179, 4094.359, 0, 0, []
1632390665.8486, 17, 0, 4168.718, 5985.128, 4021.538, 4196.923, 4123.077, 0, 0, []
1632390665.8566, 18, 0, 4178.974, 5951.795, 4019.487, 4218.462, 4128.205, 0, 0, []
1632390665.8645, 19, 0, 4161.026, 5909.744, 4001.026, 4210.256, 4122.564, 0, 0, []
1632390665.8725, 20, 0, 4143.59, 5775.897, 4003.077, 4192.821, 4121.026, 0, 0, []
1632390665.8803, 21, 0, 4134.872, 5241.538, 3995.897, 4182.564, 4107.692, 0, 0, []
1632390665.8883, 22, 0, 4144.615, 4683.077, 3993.846, 4176.41, 4102.564, 0, 0, []
1632390665.8962, 23, 0, 4156.923, 4462.564, 4008.718, 4168.718, 4116.41, 0, 0, []
1632390665.904, 24, 0, 4149.231, 4354.872, 4022.051, 4159.487, 4119.487, 0, 0, []
1632390665.9119, 25, 0, 4136.923, 4202.564, 4026.154, 4152.308, 4114.872, 0, 0, []
1632390665.9197, 26, 0, 4126.667, 4127.179, 4027.692, 4149.231, 4115.385, 0, 0, []
1632390665.9275, 27, 0, 4116.41, 4085.128, 4029.231, 4156.923, 4109.231, 0, 0, []
1632390665.9353, 28, 0, 4121.538, 3994.359, 4012.308, 4162.051, 4105.641, 0, 0, []
1632390665.9432, 29, 0, 4129.744, 3923.077, 4001.026, 4163.59, 4111.795, 0, 0, []
1632390665.951, 30, 0, 4126.667, 3876.41, 4009.231, 4176.923, 4106.667, 0, 0, []
1632390665.9589, 31, 0, 4128.205, 3830.769, 4007.692, 4174.359, 4090.256, 0, 0, []
1632390665.9666, 32, 0, 4121.538, 3790.769, 4010.769, 4145.128, 4086.667, 0, 0, []
1632390665.9745, 33, 0, 4101.026, 3751.795, 4012.821, 4128.718, 4089.231, 0, 0, []
1632390665.9823, 34, 0, 4103.59, 3713.333, 4018.974, 4143.077, 4095.385, 0, 0, []
1632390665.9902, 35, 0, 4135.897, 3694.359, 4037.949, 4168.205, 4115.385, 0, 0, []
1632390665.998, 36, 0, 4156.41, 3684.103, 4028.205, 4183.59, 4126.667, 0, 0, []
1632390666.0059, 37, 0, 4166.667, 3649.744, 4020.513, 4198.974, 4120.513, 0, 0, []
1632390666.0138, 38, 0, 4161.026, 3620, 4023.59, 4189.231, 4116.923, 0, 0, []
1632390666.0218, 39, 0, 4126.154, 3624.615, 4013.846, 4150.769, 4109.744, 0, 0, []
1632390666.0297, 40, 0, 4111.282, 3665.641, 4020, 4149.744, 4109.744, 0, 0, []
1632390666.0377, 41, 0, 4128.205, 3746.154, 4037.436, 4180.513, 4129.231, 0, 0, []
1632390666.0456, 42, 0, 4142.051, 3810.256, 4045.128, 4190.256, 4135.897, 0, 0, []
1632390666.0535, 43, 0, 4136.41, 3808.718, 4020, 4169.231, 4106.154, 0, 0, []
1632390666.0614, 44, 0, 4127.692, 3793.333, 4004.103, 4154.359, 4088.718, 0, 0, []
1632390666.0692, 45, 0, 4134.359, 3819.487, 4034.359, 4161.538, 4106.154, 0, 0, []
1632390666.0771, 46, 0, 4138.462, 3880.513, 4059.487, 4172.308, 4113.846, 0, 0, []
1632390666.0849, 47, 0, 4128.205, 3936.923, 4064.615, 4181.026, 4115.897, 0, 0, []
1632390666.0927, 48, 0, 4130.256, 3976.923, 4064.103, 4192.308, 4138.974, 0, 0, []
1632390666.1005, 49, 0, 4143.077, 3956.41, 4046.154, 4190.256, 4150.769, 0, 0, []
1632390666.1084, 50, 0, 4130.256, 3876.41, 4027.179, 4168.718, 4127.692, 0, 0, []
1632390666.1162, 51, 0, 4123.59, 3971.282, 4027.179, 4175.897, 4116.41, 0, 0, []
1632390666.1241, 52, 0, 4148.205, 4247.179, 4041.538, 4209.744, 4126.667, 0, 0, []
1632390666.1319, 53, 0, 4155.385, 4357.949, 4039.487, 4212.308, 4124.103, 0, 0, []
1632390666.1397, 54, 0, 4136.923, 4304.103, 4025.128, 4188.205, 4115.385, 0, 0, []
1632390666.1475, 55, 0, 4132.308, 4355.897, 4033.333, 4176.923, 4118.974, 0, 0, []
1632390666.1555, 56, 0, 4133.333, 4436.41, 4038.462, 4170.769, 4122.051, 0, 0, []
1632390666.1634, 57, 0, 4114.872, 4360.513, 4032.308, 4158.462, 4108.718, 0, 0, []
1632390666.1714, 58, 0, 4109.231, 4210.256, 4039.487, 4169.744, 4110.769, 0, 0, []
1632390666.1792, 59, 0, 4128.718, 4073.846, 4046.154, 4194.872, 4133.846, 0, 0, []
1632390666.1872, 60, 0, 4144.103, 4025.128, 4049.744, 4203.077, 4139.487, 0, 0, []
1632390666.1951, 61, 0, 4140, 4109.231, 4034.872, 4206.667, 4120, 0, 0, []
1632390666.2031, 62, 0, 4123.59, 4184.615, 4017.949, 4208.205, 4098.462, 0, 0, []
1632390666.211, 63, 0, 4115.385, 4169.744, 4018.974, 4186.667, 4094.872, 0, 0, []
1632390666.2188, 64, 0, 4115.897, 4103.59, 4022.051, 4166.154, 4110.256, 450, 0, []
1632390666.2266, 65, 0, 4122.564, 4144.615, 4050.256, 4184.615, 4131.282, 450, 0, []
1632390666.2346, 66, 0, 4131.795, 4382.051, 4080.513, 4209.231, 4150.256, 16221, 0, []
1632390666.2425, 67, 0, 4135.897, 4592.308, 4077.436, 4205.128, 4154.872, 450, 0, []
1632390666.2503, 68, 0, 4133.333, 4547.179, 4054.359, 4200, 4136.41, 16151, 0, []
1632390666.2582, 69, 0, 4130.769, 4324.615, 4032.821, 4193.846, 4117.949, 450, 0, []
1632390666.2659, 70, 0, 4135.897, 4130.769, 4036.41, 4180, 4111.795, 16128, 0, []
1632390666.2738, 71, 0, 4146.667, 4077.949, 4043.077, 4176.41, 4108.718, 450, 0, []
1632390666.2816, 72, 0, 4140.513, 4158.462, 4028.718, 4172.308, 4112.821, 450, 0, []
1632390666.2895, 73, 0, 4120.513, 4180.513, 4018.462, 4161.026, 4122.564, 16182, 0, []
1632390666.2973, 74, 0, 4118.974, 4168.205, 4025.641, 4165.641, 4127.179, 450, 0, []
1632390666.3052, 75, 0, 4127.179, 4405.128, 4048.205, 4184.615, 4127.179, 16178, 0, []
1632390666.3131, 76, 0, 4121.026, 4668.205, 4044.103, 4185.641, 4123.59, 450, 0, []
1632390666.3211, 77, 0, 4114.359, 4588.718, 4021.026, 4174.872, 4121.026, 450, 0, []
1632390666.329, 78, 0, 4122.564, 4358.462, 4023.077, 4168.718, 4123.077, 450, 0, []
1632390666.337, 79, 0, 4136.923, 4250.769, 4024.615, 4167.692, 4122.564, 16178, 0, []
1632390666.3449, 80, 0, 4153.846, 4210.256, 4024.103, 4183.59, 4123.077, 450, 0, []
1632390666.3528, 81, 0, 4161.538, 4232.308, 4031.282, 4201.026, 4118.974, 450, 0, []
1632390666.3607, 82, 0, 4152.308, 4259.487, 4041.538, 4193.846, 4112.821, 450, 0, []
1632390666.3687, 83, 0, 4140, 4149.231, 4049.231, 4167.179, 4120, 16178, 0, []
1632390666.3766, 84, 0, 4123.077, 4118.462, 4034.872, 4148.205, 4122.564, 450, 0, []
1632390666.3846, 85, 0, 4113.846, 4274.359, 4036.923, 4167.179, 4117.949, 450, 0, []
1632390666.3924, 86, 0, 4130.256, 4351.795, 4057.436, 4205.128, 4132.308, 450, 0, []
1632390666.4002, 87, 0, 4145.641, 4302.051, 4048.718, 4214.872, 4143.077, 16178, 0, []
1632390666.4081, 88, 0, 4141.026, 4310.769, 4029.231, 4197.949, 4129.231, 450, 0, []
1632390666.4159, 89, 0, 4140.513, 4324.103, 4020, 4190.256, 4118.462, 450, 0, []
1632390666.4238, 90, 0, 4160.513, 4262.051, 4031.282, 4207.692, 4121.538, 450, 0, []
1632390666.4316, 91, 0, 4176.923, 4274.872, 4051.282, 4226.154, 4128.718, 16178, 0, []
1632390666.4394, 92, 0, 4175.385, 4395.385, 4059.487, 4223.59, 4138.462, 450, 0, []
1632390666.4472, 93, 0, 4161.026, 4426.154, 4060.513, 4204.615, 4137.436, 450, 0, []
1632390666.4552, 94, 0, 4137.436, 4331.282, 4046.154, 4181.026, 4124.615, 450, 0, []
1632390666.4631, 95, 0, 4122.051, 4324.615, 4045.641, 4175.897, 4124.615, 16178, 0, []
1632390666.4711, 96, 0, 4123.59, 4336.41, 4060, 4192.308, 4128.205, 450, 0, []
1632390666.4789, 97, 0, 4128.205, 4230.769, 4048.205, 4203.077, 4122.564, 450, 0, []
1632390666.4869, 98, 0, 4138.974, 4325.128, 4036.41, 4201.026, 4128.718, 450, 0, []
1632390666.4948, 99, 0, 4154.359, 4588.205, 4035.897, 4201.026, 4144.103, 16178, 0, []
1632390666.5028, 100, 0, 4157.436, 4648.718, 4041.026, 4208.718, 4142.051, 450, 0, []
1632390666.5107, 101, 0, 4157.436, 4841.026, 4050.769, 4224.615, 4129.744, 450, 0, []
1632390666.5187, 102, 0, 4155.897, 5480.513, 4045.641, 4232.308, 4129.231, 450, 0, []
1632390666.5265, 103, 0, 4138.974, 6011.795, 4035.897, 4213.846, 4122.051, 16178, 0, []
1632390666.5343, 104, 0, 4128.205, 6126.667, 4030.256, 4195.897, 4111.795, 450, 0, []
1632390666.5422, 105, 0, 4135.897, 6155.897, 4030.769, 4201.538, 4115.385, 450, 0, []
1632390666.55, 106, 0, 4138.974, 6263.077, 4034.872, 4203.59, 4120, 450, 0, []
1632390666.5579, 107, 0, 4136.41, 6350.256, 4036.923, 4200.513, 4126.154, 16178, 0, []
1632390666.5656, 108, 0, 4135.897, 6414.359, 4046.667, 4211.795, 4133.846, 450, 0, []
1632390666.5735, 109, 0, 4137.436, 6570.256, 4048.205, 4227.692, 4132.821, 450, 0, []
1632390666.5813, 110, 0, 4142.051, 6722.051, 4046.667, 4230.256, 4136.41, 450, 0, []
1632390666.5892, 111, 0, 4151.282, 6717.436, 4063.077, 4229.231, 4152.308, 16178, 0, []
1632390666.597, 112, 0, 4145.128, 6656.923, 4052.308, 4217.436, 4147.692, 450, 0, []
1632390666.6048, 113, 0, 4135.897, 6650.769, 4028.718, 4200, 4125.641, 450, 0, []
1632390666.6126, 114, 0, 4160.513, 6690.769, 4042.564, 4215.897, 4134.872, 450, 0, []
1632390666.6206, 115, 0, 4186.667, 6760, 4055.385, 4243.59, 4150.256, 16178, 0, []
1632390666.6285, 116, 0, 4170.769, 6806.667, 4038.462, 4236.923, 4128.718, 450, 0, []
1632390666.6364, 117, 0, 4162.051, 6792.308, 4025.641, 4215.897, 4123.077, 450, 0, []
1632390666.6443, 118, 0, 4178.462, 6787.179, 4052.821, 4221.538, 4152.821, 450, 0, []
1632390666.6522, 119, 0, 4166.154, 6827.179, 4068.718, 4232.308, 4155.897, 16178, 0, []
1632390666.6601, 120, 0, 4131.795, 6827.179, 4044.103, 4215.385, 4129.744, 450, 0, []
1632390666.6681, 121, 0, 4139.487, 6804.103, 4041.026, 4202.564, 4134.872, 450, 0, []
1632390666.676, 122, 0, 4175.897, 6905.128, 4053.333, 4220, 4154.872, 450, 0, []
1632390666.684, 123, 0, 4185.641, 7064.615, 4057.436, 4242.564, 4148.718, 16178, 0, []
1632390666.6918, 124, 0, 4180, 7054.872, 4054.872, 4244.103, 4147.179, 450, 0, []
1632390666.6996, 125, 0, 4184.615, 7023.59, 4059.487, 4240.513, 4168.718, 450, 0, []
1632390666.7075, 126, 0, 4176.923, 7068.718, 4076.41, 4240, 4172.821, 450, 0, []
1632390666.7153, 127, 0, 4152.821, 7050.769, 4063.077, 4218.974, 4150.256, 16178, 0, []
1632390666.7232, 128, 0, 4149.744, 7155.897, 4044.103, 4196.41, 4134.872, 450, 0, []
1632390666.731, 0, 0, 4180, 6995.385, 4062.051, 4215.385, 4143.59, 450, 0, []
1632390666.7388, 1, 0, 4201.026, 6012.821, 4077.949, 4246.154, 4154.872, 450, 0, []
1632390666.7466, 2, 0, 4197.436, 4986.154, 4073.333, 4244.615, 4152.821, 16201, 0, []
1632390666.7546, 3, 0, 4196.923, 4682.564, 4062.564, 4236.41, 4151.282, 450, 0, []
1632390666.7625, 4, 0, 4203.59, 4580.513, 4069.744, 4245.641, 4161.026, 16111, 0, []
1632390666.7705, 5, 0, 4199.487, 4300, 4076.923, 4244.103, 4167.179, 450, 0, []
1632390666.7783, 6, 0, 4184.103, 4153.846, 4058.974, 4222.051, 4161.026, 16131, 0, []
1632390666.7863, 7, 0, 4173.333, 4106.154, 4057.949, 4212.308, 4154.359, 450, 0, []
1632390666.7942, 8, 0, 4169.744, 4001.026, 4072.821, 4218.974, 4155.897, 450, 0, []
1632390666.8022, 9, 0, 4166.667, 3903.59, 4079.487, 4224.615, 4168.205, 16161, 0, []
1632390666.8101, 10, 0, 4167.692, 3805.128, 4079.487, 4221.026, 4170.769, 450, 0, []
1632390666.8181, 11, 0, 4167.179, 3718.462, 4068.718, 4196.923, 4154.872, 16192, 0, []
1632390666.8259, 12, 0, 4173.333, 3651.282, 4065.641, 4184.615, 4151.795, 450, 0, []
1632390666.8339, 13, 0, 4176.41, 3602.564, 4046.667, 4203.077, 4152.821, 450, 0, []
1632390666.8418, 14, 0, 4165.641, 3542.564, 4027.179, 4214.359, 4131.795, 450, 0, []
1632390666.8496, 15, 0, 4172.308, 3478.462, 4056.41, 4214.359, 4136.41, 16192, 0, []
1632390666.8575, 16, 0, 4188.718, 3438.974, 4078.462, 4216.41, 4173.333, 0, 0, []
1632390666.8652, 17, 0, 4178.974, 3394.872, 4073.333, 4219.487, 4185.128, 0, 0, []
1632390666.8731, 18, 0, 4168.718, 3346.154, 4074.872, 4228.205, 4182.564, 0, 0, []
1632390666.8809, 19, 0, 4182.051, 3306.154, 4076.923, 4231.282, 4187.692, 0, 0, []
1632390666.8888, 20, 0, 4187.692, 3272.821, 4067.179, 4216.41, 4176.923, 0, 0, []
1632390666.8966, 21, 0, 4187.692, 3252.308, 4058.462, 4216.923, 4157.949, 0, 0, []
1632390666.9044, 22, 0, 4193.846, 3223.077, 4070.769, 4236.923, 4152.821, 0, 0, []
1632390666.9122, 23, 0, 4184.103, 3185.128, 4073.333, 4225.641, 4155.897, 0, 0, []
1632390666.9201, 24, 0, 4166.667, 3167.179, 4057.436, 4201.026, 4163.077, 0, 0, []
1632390666.9279, 25, 0, 4166.154, 3143.077, 4060, 4211.282, 4170.256, 0, 0, []
1632390666.9359, 26, 0, 4167.179, 3090.769, 4061.026, 4216.923, 4171.795, 0, 0, []
1632390666.9438, 27, 0, 4165.128, 3061.538, 4052.308, 4201.538, 4165.128, 0, 0, []
1632390666.9517, 28, 0, 4178.462, 3064.615, 4052.308, 4205.641, 4154.872, 0, 0, []
1632390666.9596, 29, 0, 4188.205, 3032.308, 4058.462, 4214.359, 4155.897, 0, 0, []
1632390666.9676, 30, 0, 4177.949, 2987.692, 4072.821, 4204.615, 4166.154, 0, 0, []
1632390666.9755, 31, 0, 4167.692, 2983.59, 4075.385, 4204.103, 4172.821, 0, 0, []
1632390666.9835, 32, 0, 4173.846, 2989.231, 4071.282, 4210.256, 4177.436, 0, 0, []
1632390666.9913, 33, 0, 4185.641, 2985.128, 4068.718, 4210.256, 4175.897, 0, 0, []
1632390666.9991, 34, 0, 4188.718, 2977.436, 4063.59, 4218.462, 4163.59, 0, 0, []
1632390667.007, 35, 0, 4189.231, 2963.077, 4081.026, 4226.667, 4168.205, 0, 0, []
1632390667.0148, 36, 0, 4186.667, 2950.256, 4091.795, 4214.872, 4188.205, 0, 0, []
1632390667.0227, 37, 0, 4169.744, 2930.256, 4083.077, 4203.59, 4184.103, 0, 0, []
1632390667.0305, 38, 0, 4166.154, 2894.872, 4090.256, 4210.769, 4181.026, 0, 0, []
1632390667.0383, 39, 0, 4184.615, 2876.923, 4088.718, 4215.385, 4195.897, 0, 0, []
1632390667.0461, 40, 0, 4196.923, 2877.436, 4075.385, 4220, 4189.744, 0, 0, []
1632390667.0541, 41, 0, 4202.564, 2868.205, 4073.333, 4233.846, 4177.436, 0, 0, []
1632390667.062, 42, 0, 4204.103, 2874.872, 4080.513, 4224.615, 4191.282, 0, 0, []
1632390667.07, 43, 0, 4193.846, 2887.692, 4082.564, 4197.436, 4202.051, 0, 0, []
1632390667.0778, 44, 0, 4183.59, 2862.564, 4083.59, 4202.564, 4191.795, 0, 0, []
1632390667.0858, 45, 0, 4181.538, 2831.282, 4095.897, 4224.103, 4186.667, 0, 0, []
1632390667.0937, 46, 0, 4179.487, 2828.718, 4080, 4212.308, 4187.179, 0, 0, []
1632390667.1017, 47, 0, 4186.154, 2829.231, 4062.564, 4206.154, 4182.051, 0, 0, []
1632390667.1096, 48, 0, 4200.513, 2824.615, 4083.59, 4228.718, 4186.154, 0, 0, []
1632390667.1175, 49, 0, 4187.179, 2819.487, 4087.179, 4212.821, 4184.615, 0, 0, []
1632390667.1254, 50, 0, 4156.923, 2816.41, 4083.59, 4182.564, 4169.744, 0, 0, []
1632390667.1334, 51, 0, 4159.487, 2820.513, 4093.846, 4198.462, 4175.385, 0, 0, []
1632390667.1413, 52, 0, 4166.154, 2808.718, 4076.923, 4214.359, 4171.282, 0, 0, []
1632390667.1491, 53, 0, 4153.333, 2782.564, 4062.051, 4201.026, 4140, 0, 0, []
1632390667.157, 54, 0, 4161.538, 2796.923, 4082.564, 4197.436, 4143.077, 0, 0, []
1632390667.1647, 55, 0, 4170.769, 2816.41, 4101.538, 4200.513, 4173.846, 0, 0, []
1632390667.1726, 56, 0, 4149.744, 2772.821, 4085.128, 4185.128, 4171.282, 0, 0, []
1632390667.1804, 57, 0, 4148.205, 2742.564, 4075.897, 4184.615, 4165.641, 0, 0, []
1632390667.1883, 58, 0, 4172.821, 2775.897, 4091.795, 4205.641, 4169.744, 0, 0, []
1632390667.1961, 59, 0, 4173.333, 2801.538, 4091.282, 4204.103, 4153.333, 0, 0, []
1632390667.2039, 60, 0, 4167.692, 2791.795, 4088.718, 4185.641, 4154.359, 0, 0, []
1632390667.2117, 61, 0, 4167.179, 2773.846, 4087.692, 4186.667, 4173.846, 0, 0, []
1632390667.2196, 62, 0, 4157.436, 2769.231, 4081.538, 4197.949, 4169.231, 0, 0, []
1632390667.2274, 63, 0, 4162.564, 2777.436, 4091.282, 4201.026, 4164.615, 0, 0, []
1632390667.2354, 64, 0, 4183.077, 2790.256, 4084.615, 4215.897, 4174.359, 450, 0, []
1632390667.2433, 65, 0, 4184.103, 2779.487, 4070.769, 4233.846, 4168.718, 450, 0, []
1632390667.2512, 66, 0, 4170.769, 2758.974, 4081.026, 4220.513, 4165.641, 16151, 0, []
1632390667.2591, 67, 0, 4164.103, 2771.282, 4100.513, 4210.769, 4187.692, 450, 0, []
1632390667.2671, 68, 0, 4168.718, 2786.154, 4115.385, 4232.821, 4203.077, 16179, 0, []
1632390667.275, 69, 0, 4181.026, 2770.769, 4100.513, 4230.256, 4195.897, 450, 0, []
1632390667.283, 70, 0, 4180.513, 2764.615, 4073.846, 4198.462, 4168.205, 16139, 0, []
1632390667.2908, 71, 0, 4174.359, 2788.718, 4071.795, 4194.359, 4149.744, 450, 0, []
1632390667.2988, 72, 0, 4172.821, 2804.103, 4072.821, 4197.949, 4163.077, 450, 0, []
1632390667.3067, 73, 0, 4171.282, 2804.615, 4087.692, 4193.333, 4183.077, 16138, 0, []
1632390667.3145, 74, 0, 4176.923, 2803.077, 4100, 4209.744, 4192.821, 450, 0, []
1632390667.3224, 75, 0, 4187.179, 2786.667, 4084.103, 4205.641, 4189.231, 16209, 0, []
1632390667.3302, 76, 0, 4199.487, 2782.564, 4077.949, 4182.051, 4176.923, 450, 0, []
1632390667.338, 77, 0, 4219.487, 2824.615, 4091.282, 4195.385, 4189.231, 450, 0, []
1632390667.3458, 78, 0, 4234.872, 2885.128, 4096.923, 4210.769, 4231.282, 450, 0, []
1632390667.3537, 79, 0, 4246.667, 2862.564, 4089.231, 4193.333, 4281.026, 16209, 0, []
1632390667.3615, 80, 0, 4265.128, 3002.051, 4095.897, 4189.744, 4326.667, 450, 0, []
1632390667.3694, 81, 0, 4284.615, 3602.051, 4098.974, 4205.641, 4364.615, 450, 0, []
1632390667.3771, 82, 0, 4295.385, 4067.179, 4069.231, 4191.282, 4377.436, 450, 0, []
1632390667.3851, 83, 0, 4302.051, 3942.051, 4070.769, 4184.615, 4386.154, 16209, 0, []
1632390667.393, 84, 0, 4302.564, 3807.692, 4096.923, 4210.256, 4400, 450, 0, []
1632390667.401, 85, 0, 4276.923, 3958.974, 4101.026, 4223.077, 4384.615, 450, 0, []
1632390667.4089, 86, 0, 4231.282, 4038.974, 4104.615, 4221.538, 4346.667, 450, 0, []
1632390667.4168, 87, 0, 4181.026, 4063.077, 4099.487, 4221.538, 4310.769, 16209, 0, []
1632390667.4247, 88, 0, 4145.641, 4168.205, 4097.949, 4239.487, 4282.051, 450, 0, []
1632390667.4327, 89, 0, 4114.359, 4175.385, 4090.256, 4246.667, 4247.179, 450, 0, []
1632390667.4406, 90, 0, 4075.897, 4172.308, 4060, 4226.667, 4204.103, 450, 0, []
1632390667.4486, 91, 0, 4073.846, 4238.462, 4054.359, 4235.897, 4178.974, 16209, 0, []
1632390667.4565, 92, 0, 4090.769, 4221.026, 4057.949, 4253.333, 4165.641, 450, 0, []
1632390667.4644, 93, 0, 4082.051, 4154.359, 4048.718, 4226.154, 4154.872, 450, 0, []
1632390667.4723, 94, 0, 4054.872, 4203.59, 4032.308, 4189.231, 4142.564, 450, 0, []
1632390667.4801, 95, 0, 4047.179, 4306.154, 4035.897, 4191.282, 4136.41, 16209, 0, []
1632390667.488, 96, 0, 4057.949, 4146.154, 4049.744, 4201.538, 4145.641, 450, 0, []
1632390667.4958, 97, 0, 4053.846, 3867.179, 4024.103, 4192.821, 4137.436, 450, 0, []
1632390667.5036, 98, 0, 4041.538, 3914.872, 4009.231, 4183.59, 4104.615, 450, 0, []
1632390667.5114, 99, 0, 4044.615, 4168.205, 4027.179, 4184.103, 4105.128, 16209, 0, []
1632390667.5193, 100, 0, 4053.333, 4138.462, 4031.795, 4195.385, 4140.513, 450, 0, []
1632390667.5271, 101, 0, 4046.154, 3890.256, 4033.333, 4202.051, 4146.667, 450, 0, []
1632390667.5351, 102, 0, 4047.692, 4065.128, 4036.41, 4196.923, 4132.308, 450, 0, []
1632390667.543, 103, 0, 4060.513, 4416.923, 4032.308, 4198.462, 4118.974, 16209, 0, []
1632390667.5509, 104, 0, 4055.897, 4535.385, 4025.128, 4202.051, 4093.846, 450, 0, []
1632390667.5588, 105, 0, 4050.256, 4995.897, 4015.385, 4187.179, 4089.231, 450, 0, []
1632390667.5668, 106, 0, 4046.154, 5594.359, 4015.897, 4166.154, 4103.59, 450, 0, []
1632390667.5747, 107, 0, 4021.026, 5531.282, 4014.359, 4166.667, 4096.923, 16209, 0, []
1632390667.5827, 108, 0, 4006.154, 5196.41, 4015.897, 4174.872, 4085.128, 450, 0, []
1632390667.5905, 109, 0, 4027.692, 5155.385, 4017.949, 4169.744, 4089.744, 450, 0, []
1632390667.5985, 110, 0, 4052.308, 5125.128, 4011.795, 4164.615, 4094.359, 450, 0, []
1632390667.6064, 111, 0, 4069.744, 5178.462, 4026.154, 4178.462, 4098.462, 16209, 0, []
1632390667.6142, 112, 0, 4067.692, 5345.128, 4018.974, 4176.923, 4085.128, 450, 0, []
1632390667.6221, 113, 0, 4035.897, 5202.564, 3995.385, 4149.231, 4047.692, 450, 0, []
1632390667.6299, 114, 0, 4039.487, 5113.333, 4027.179, 4162.051, 4064.103, 450, 0, []
1632390667.6377, 115, 0, 4075.385, 5360.513, 4065.128, 4202.564, 4122.051, 16209, 0, []
1632390667.6456, 116, 0, 4071.795, 5522.564, 4060, 4209.744, 4118.974, 450, 0, []
1632390667.6535, 117, 0, 4050.769, 5452.308, 4043.59, 4204.615, 4097.436, 450, 0, []
1632390667.6613, 118, 0, 4055.897, 5312.308, 4058.462, 4208.718, 4118.462, 450, 0, []
1632390667.6693, 119, 0, 4061.538, 5189.231, 4068.718, 4200.513, 4125.128, 16209, 0, []
1632390667.6771, 120, 0, 4060, 5194.872, 4038.974, 4180, 4106.154, 450, 0, []
1632390667.6851, 121, 0, 4060, 5372.308, 4031.795, 4167.692, 4091.282, 450, 0, []
1632390667.693, 122, 0, 4050.769, 5509.231, 4035.385, 4163.59, 4072.821, 450, 0, []
1632390667.701, 123, 0, 4068.718, 5558.974, 4045.641, 4194.359, 4085.128, 16209, 0, []
1632390667.7089, 124, 0, 4100, 5615.385, 4067.692, 4236.41, 4111.282, 450, 0, []
1632390667.7168, 125, 0, 4071.795, 5581.538, 4035.385, 4210.256, 4081.026, 450, 0, []
1632390667.7247, 126, 0, 4040.513, 5531.795, 4011.795, 4165.641, 4061.538, 450, 0, []
1632390667.7327, 127, 0, 4063.59, 5640.513, 4041.026, 4172.308, 4106.667, 16209, 0, []
1632390667.7406, 128, 0, 4090.256, 5727.179, 4057.436, 4190.769, 4132.308, 450, 0, []
1632390667.7486, 0, 0, 4082.051, 5736.41, 4051.282, 4185.641, 4113.333, 450, 0, []
1632390667.7565, 1, 0, 4070.769, 5903.077, 4053.846, 4180, 4117.949, 450, 0, []
1632390667.7642, 2, 0, 4069.744, 6133.333, 4064.103, 4183.077, 4129.744, 16147, 0, []
1632390667.7721, 3, 0, 4044.103, 6191.282, 4041.538, 4167.692, 4093.333, 450, 0, []
1632390667.7799, 4, 0, 4015.897, 6208.718, 4025.128, 4163.59, 4062.051, 16081, 0, []
1632390667.7878, 5, 0, 4030.256, 6322.051, 4058.974, 4192.308, 4089.744, 450, 0, []
1632390667.7956, 6, 0, 4053.846, 6362.564, 4069.744, 4204.103, 4113.333, 16235, 0, []
1632390667.8034, 7, 0, 4055.897, 6299.487, 4050.256, 4197.949, 4101.538, 450, 0, []
1632390667.8112, 8, 0, 4071.282, 6304.615, 4067.692, 4217.949, 4115.385, 450, 0, []
1632390667.8191, 9, 0, 4085.128, 6351.282, 4085.641, 4225.128, 4135.897, 16081, 0, []
1632390667.8269, 10, 0, 4068.718, 6360, 4066.154, 4202.051, 4112.308, 450, 0, []
1632390667.8349, 11, 0, 4057.949, 6382.564, 4052.308, 4193.846, 4091.282, 16362, 0, []
1632390667.8428, 12, 0, 4046.667, 6394.872, 4060, 4187.692, 4087.179, 450, 0, []
1632390667.8507, 13, 0, 4028.205, 6373.846, 4062.051, 4169.231, 4071.282, 450, 0, []
1632390667.8586, 14, 0, 4047.692, 6424.103, 4054.872, 4176.41, 4077.949, 450, 0, []
1632390667.8666, 15, 0, 4085.641, 6396.41, 4071.795, 4208.718, 4116.41, 16362, 0, []
1632390667.8745, 16, 0, 4081.026, 6149.744, 4085.641, 4213.333, 4120.513, 0, 0, []
1632390667.8825, 17, 0, 4063.59, 5930.256, 4069.231, 4197.436, 4101.538, 0, 0, []
1632390667.8903, 18, 0, 4092.821, 5875.385, 4081.538, 4209.744, 4128.718, 0, 0, []
1632390667.8983, 19, 0, 4109.231, 5852.821, 4092.308, 4219.487, 4151.282, 0, 0, []
1632390667.9062, 20, 0, 4082.564, 5775.897, 4067.692, 4202.051, 4129.231, 0, 0, []
1632390667.9142, 21, 0, 4100, 5668.205, 4071.282, 4205.641, 4133.333, 0, 0, []
1632390667.9221, 22, 0, 4130.769, 5541.538, 4086.154, 4218.462, 4155.897, 0, 0, []
1632390667.9299, 23, 0, 4117.436, 5476.923, 4078.974, 4212.308, 4149.744, 0, 0, []
1632390667.9377, 24, 0, 4108.205, 5589.231, 4068.718, 4209.231, 4136.923, 0, 0, []
1632390667.9455, 25, 0, 4105.128, 5754.359, 4061.026, 4206.667, 4126.667, 0, 0, []
1632390667.9534, 26, 0, 4102.051, 5666.154, 4061.026, 4207.692, 4132.821, 0, 0, []
1632390667.9612, 27, 0, 4121.538, 5461.538, 4077.949, 4225.128, 4155.897, 0, 0, []
1632390667.9691, 28, 0, 4114.872, 5529.231, 4080, 4220, 4137.436, 0, 0, []
1632390667.9768, 29, 0, 4080, 5697.949, 4055.385, 4188.718, 4096.923, 0, 0, []
1632390667.9848, 30, 0, 4094.872, 5705.641, 4066.154, 4190.256, 4120.513, 0, 0, []
1632390667.9927, 31, 0, 4120, 5728.718, 4070.256, 4203.077, 4148.205, 0, 0, []
1632390668.0006, 32, 0, 4094.872, 5816.923, 4034.359, 4184.615, 4116.923, 0, 0, []
1632390668.0086, 33, 0, 4089.744, 5807.692, 4045.641, 4186.667, 4106.667, 0, 0, []
1632390668.0165, 34, 0, 4117.436, 5785.641, 4072.821, 4207.179, 4132.821, 0, 0, []
1632390668.0244, 35, 0, 4114.359, 5874.359, 4058.462, 4193.846, 4127.692, 0, 0, []
1632390668.0323, 36, 0, 4103.077, 5868.205, 4049.231, 4177.436, 4112.821, 0, 0, []
1632390668.0403, 37, 0, 4130.256, 5655.385, 4073.333, 4203.59, 4142.051, 0, 0, []
1632390668.0482, 38, 0, 4139.487, 5495.897, 4087.179, 4220.513, 4157.436, 0, 0, []
1632390668.0562, 39, 0, 4101.026, 5551.795, 4057.436, 4186.667, 4118.462, 0, 0, []
1632390668.064, 40, 0, 4089.231, 5675.897, 4047.179, 4178.462, 4107.179, 0, 0, []
1632390668.072, 41, 0, 4121.538, 5755.385, 4073.333, 4222.051, 4149.231, 0, 0, []
1632390668.0799, 42, 0, 4135.385, 5779.487, 4077.949, 4243.077, 4160.513, 0, 0, []
1632390668.0879, 43, 0, 4125.641, 5732.308, 4074.872, 4227.692, 4137.436, 0, 0, []
1632390668.0958, 44, 0, 4124.103, 5700.513, 4068.205, 4211.795, 4135.385, 0, 0, []
1632390668.1038, 45, 0, 4110.769, 5726.667, 4056.923, 4195.385, 4130.769, 0, 0, []
1632390668.1116, 46, 0, 4088.205, 5711.795, 4054.872, 4175.385, 4110.256, 0, 0, []
1632390668.1196, 47, 0, 4094.872, 5704.615, 4060.513, 4184.103, 4110.256, 0, 0, []
1632390668.1275, 48, 0, 4110.256, 5761.026, 4068.205, 4206.154, 4112.308, 0, 0, []
1632390668.1355, 49, 0, 4107.179, 5777.949, 4056.41, 4194.872, 4096.923, 0, 0, []
1632390668.1435, 50, 0, 4118.974, 5742.564, 4058.462, 4184.103, 4109.231, 0, 0, []
1632390668.1513, 51, 0, 4149.231, 5739.487, 4080, 4196.923, 4143.59, 0, 0, []
1632390668.1592, 52, 0, 4173.846, 5748.718, 4077.436, 4200, 4160.513, 0, 0, []
1632390668.1672, 53, 0, 4206.667, 5714.872, 4075.385, 4190.256, 4174.872, 0, 0, []
1632390668.1752, 54, 0, 4243.59, 5696.41, 4067.692, 4180, 4187.692, 0, 0, []
1632390668.1831, 55, 0, 4262.564, 5721.026, 4060.513, 4181.538, 4190.256, 0, 0, []
1632390668.1911, 56, 0, 4268.205, 5681.538, 4075.385, 4191.795, 4185.128, 0, 0, []
1632390668.1989, 57, 0, 4265.128, 5583.077, 4058.974, 4178.974, 4165.641, 0, 0, []
1632390668.2069, 58, 0, 4261.026, 5568.718, 4039.487, 4166.154, 4155.897, 0, 0, []
1632390668.2148, 59, 0, 4272.308, 5638.462, 4060.513, 4187.692, 4184.103, 0, 0, []
1632390668.2228, 60, 0, 4279.487, 5638.974, 4076.923, 4201.538, 4208.718, 0, 0, []
1632390668.2307, 61, 0, 4267.179, 5581.538, 4078.462, 4191.795, 4204.103, 0, 0, []
1632390668.2386, 62, 0, 4246.667, 5576.923, 4082.051, 4197.436, 4197.949, 0, 0, []
1632390668.2465, 63, 0, 4225.128, 5586.667, 4092.821, 4204.615, 4183.59, 0, 0, []
1632390668.2545, 64, 0, 4216.923, 5563.077, 4093.333, 4192.308, 4167.179, 450, 0, []
1632390668.2624, 65, 0, 4223.59, 5553.846, 4089.744, 4180.513, 4173.846, 450, 0, []
1632390668.2704, 66, 0, 4220, 5559.487, 4094.359, 4176.41, 4170.256, 220, 0, []
1632390668.2784, 67, 0, 4211.795, 5556.923, 4086.154, 4177.949, 4152.821, 450, 0, []
1632390668.2862, 68, 0, 4214.872, 5561.538, 4085.128, 4184.103, 4151.282, 292, 0, []
1632390668.2941, 69, 0, 4204.103, 5567.179, 4086.154, 4173.333, 4140.513, 450, 0, []
1632390668.3021, 70, 0, 4190.769, 5571.282, 4081.026, 4156.41, 4125.641, 62, 0, []
1632390668.3101, 71, 0, 4210.769, 5569.744, 4099.487, 4170.256, 4143.077, 450, 0, []
1632390668.318, 72, 0, 4229.231, 5505.641, 4096.923, 4183.59, 4159.487, 450, 0, []
1632390668.3259, 73, 0, 4230.256, 5414.359, 4074.872, 4170.769, 4151.795, 318, 0, []
1632390668.3338, 74, 0, 4240.513, 5403.077, 4076.41, 4168.718, 4146.667, 450, 0, []
1632390668.3418, 75, 0, 4240.513, 5435.897, 4080.513, 4186.667, 4147.179, 73, 0, []
1632390668.3497, 76, 0, 4225.641, 5432.821, 4085.641, 4206.154, 4145.641, 450, 0, []
1632390668.3577, 77, 0, 4234.359, 5425.641, 4086.154, 4218.974, 4152.308, 450, 0, []
1632390668.3656, 78, 0, 4247.692, 5430.256, 4082.051, 4214.872, 4162.564, 450, 0, []
1632390668.3735, 79, 0, 4235.385, 5404.615, 4089.744, 4199.487, 4169.744, 73, 0, []
1632390668.3815, 80, 0, 4233.333, 5353.333, 4092.821, 4191.282, 4178.974, 450, 0, []
1632390668.3894, 81, 0, 4252.308, 5342.051, 4094.872, 4192.821, 4187.692, 450, 0, []
1632390668.3973, 82, 0, 4248.205, 5378.974, 4095.385, 4186.154, 4187.692, 450, 0, []
1632390668.4053, 83, 0, 4212.821, 5377.436, 4098.974, 4175.897, 4168.205, 73, 0, []
1632390668.4131, 84, 0, 4193.846, 5328.205, 4105.641, 4182.564, 4154.359, 450, 0, []
1632390668.4211, 85, 0, 4198.974, 5347.692, 4098.462, 4196.41, 4162.564, 450, 0, []
1632390668.4291, 86, 0, 4197.436, 5393.333, 4100.513, 4203.077, 4167.692, 450, 0, []
1632390668.437, 87, 0, 4204.103, 5373.333, 4107.692, 4208.205, 4176.41, 73, 0, []
1632390668.4449, 88, 0, 4215.385, 5344.103, 4096.923, 4206.667, 4180.513, 450, 0, []
1632390668.4529, 89, 0, 4211.795, 5342.564, 4093.333, 4192.308, 4166.667, 450, 0, []
1632390668.4608, 90, 0, 4232.308, 5352.821, 4106.154, 4197.436, 4176.41, 450, 0, []
1632390668.4687, 91, 0, 4274.359, 5338.462, 4118.462, 4227.179, 4201.026, 73, 0, []
1632390668.4767, 92, 0, 4274.359, 5299.487, 4098.462, 4233.333, 4190.769, 450, 0, []
1632390668.4846, 93, 0, 4252.308, 5292.308, 4081.538, 4230.769, 4173.846, 450, 0, []
1632390668.4926, 94, 0, 4264.103, 5333.333, 4101.538, 4242.051, 4184.615, 450, 0, []
1632390668.5004, 95, 0, 4273.333, 5358.462, 4101.538, 4233.333, 4190.256, 73, 0, []
1632390668.5084, 96, 0, 4247.179, 5322.051, 4087.692, 4210.769, 4185.641, 450, 0, []
1632390668.5163, 97, 0, 4233.846, 5299.487, 4092.308, 4198.974, 4185.128, 450, 0, []
1632390668.5243, 98, 0, 4240.513, 5297.436, 4097.436, 4196.41, 4184.103, 450, 0, []
1632390668.5322, 99, 0, 4239.487, 5271.282, 4096.41, 4205.128, 4183.077, 73, 0, []
1632390668.5402, 100, 0, 4238.974, 5253.846, 4088.205, 4215.385, 4185.128, 450, 0, []
1632390668.548, 101, 0, 4238.462, 5224.615, 4100, 4213.846, 4183.077, 450, 0, []
1632390668.556, 102, 0, 4233.333, 5182.564, 4119.487, 4216.923, 4179.487, 450, 0, []
1632390668.5639, 103, 0, 4222.051, 5191.795, 4105.128, 4211.282, 4168.718, 73, 0, []
1632390668.5719, 104, 0, 4219.487, 5217.436, 4092.308, 4190.256, 4160.513, 450, 0, []
1632390668.5799, 105, 0, 4246.154, 5200, 4106.667, 4201.026, 4184.103, 450, 0, []
1632390668.5878, 106, 0, 4270.256, 5180.513, 4124.615, 4236.923, 4203.077, 450, 0, []
1632390668.5957, 107, 0, 4262.051, 5172.821, 4116.41, 4247.692, 4180.513, 73, 0, []
1632390668.6037, 108, 0, 4251.795, 5131.282, 4086.154, 4239.487, 4165.128, 450, 0, []
1632390668.6116, 109, 0, 4265.128, 5123.59, 4084.103, 4244.615, 4184.103, 450, 0, []
1632390668.6195, 110, 0, 4269.744, 5095.385, 4085.641, 4250.256, 4194.359, 450, 0, []
1632390668.6274, 111, 0, 4254.359, 4921.026, 4080, 4241.538, 4182.051, 73, 0, []
1632390668.6353, 112, 0, 4251.795, 4815.385, 4086.154, 4240.513, 4180.513, 450, 0, []
1632390668.6431, 113, 0, 4248.205, 4933.333, 4074.359, 4234.872, 4181.538, 450, 0, []
1632390668.651, 114, 0, 4225.641, 5033.846, 4052.821, 4210.256, 4171.282, 450, 0, []
1632390668.6589, 115, 0, 4219.487, 4970.769, 4047.179, 4198.974, 4168.718, 73, 0, []
1632390668.6669, 116, 0, 4235.385, 4922.564, 4072.308, 4219.487, 4181.538, 450, 0, []
1632390668.6748, 117, 0, 4239.487, 4950.256, 4096.923, 4230.256, 4191.282, 450, 0, []
1632390668.6828, 118, 0, 4224.615, 4930.256, 4076.923, 4207.692, 4185.128, 450, 0, []
1632390668.6906, 119, 0, 4218.974, 4885.641, 4061.538, 4195.897, 4173.333, 73, 0, []
1632390668.6986, 120, 0, 4230.256, 4885.128, 4065.641, 4209.744, 4177.949, 450, 0, []
1632390668.7066, 121, 0, 4240, 4908.718, 4073.846, 4222.051, 4196.41, 450, 0, []
1632390668.7145, 122, 0, 4241.538, 4915.897, 4080, 4223.59, 4201.538, 450, 0, []
1632390668.7224, 123, 0, 4231.795, 4907.179, 4065.128, 4208.205, 4184.615, 73, 0, []
1632390668.7304, 124, 0, 4229.231, 4889.231, 4067.179, 4202.051, 4174.872, 450, 0, []
1632390668.7382, 125, 0, 4233.846, 4861.538, 4086.667, 4223.59, 4187.692, 450, 0, []
1632390668.7461, 126, 0, 4232.308, 4844.103, 4093.846, 4231.795, 4196.923, 450, 0, []
1632390668.7541, 127, 0, 4233.333, 4846.667, 4102.564, 4222.564, 4192.821, 73, 0, []
1632390668.7621, 128, 0, 4232.308, 4849.744, 4103.59, 4227.692, 4190.256, 450, 0, []
1632390668.77, 0, 0, 4230.769, 4853.333, 4108.205, 4244.103, 4195.385, 450, 0, []
1632390668.7779, 1, 0, 4226.667, 4901.538, 4106.667, 4239.487, 4193.846, 450, 0, []
1632390668.7859, 2, 0, 4206.667, 4887.179, 4088.205, 4213.333, 4176.923, 16138, 0, []
1632390668.7938, 3, 0, 4200, 4757.436, 4090.256, 4207.179, 4173.333, 450, 0, []
1632390668.8018, 4, 0, 4224.103, 4729.744, 4098.974, 4232.308, 4190.256, 326, 0, []
1632390668.8098, 5, 0, 4230.769, 4832.821, 4103.59, 4253.333, 4198.974, 450, 0, []
1632390668.8177, 6, 0, 4218.462, 4857.949, 4112.821, 4258.462, 4200.513, 16281, 0, []
1632390668.8255, 7, 0, 4225.128, 4847.692, 4120, 4263.077, 4205.128, 450, 0, []
1632390668.8335, 8, 1, 4224.33, 4739.544, 4115.556, 4259.487, 4204.729, 450, 0, []
1632390668.8414, 9, 1, 4223.533, 4631.396, 4111.111, 4255.897, 4204.33, 318, 0, []
1632390668.8493, 10, 1, 4222.735, 4523.248, 4106.667, 4252.308, 4203.932, 450, 0, []
1632390668.8572, 11, 1, 4221.937, 4415.1, 4102.222, 4248.718, 4203.533, 73, 0, []
1632390668.8651, 12, 1, 4221.14, 4306.952, 4097.778, 4245.128, 4203.134, 450, 0, []
1632390668.8729, 13, 1, 4220.342, 4198.803, 4093.333, 4241.538, 4202.735, 450, 0, []
1632390668.8808, 14, 1, 4219.544, 4090.655, 4088.889, 4237.949, 4202.336, 450, 0, []
1632390668.8887, 15, 1, 4218.746, 3982.507, 4084.444, 4234.359, 4201.937, 73, 0, []
1632390668.8966, 16, 0, 4217.949, 3874.359, 4080, 4230.769, 4201.538, 0, 0, []
1632390668.9044, 17, 0, 4246.667, 3150.256, 4108.205, 4261.538, 4228.718, 0, 0, []
1632390668.9124, 18, 0, 4255.897, 2954.872, 4104.615, 4257.949, 4230.769, 0, 0, []
1632390668.9203, 19, 1, 4255.271, 2862.963, 4102.906, 4251.453, 4228.547, 0, 0, []
1632390668.9282, 20, 1, 4254.644, 2771.054, 4101.197, 4244.957, 4226.325, 0, 0, []
1632390668.9361, 21, 1, 4254.017, 2679.145, 4099.487, 4238.462, 4224.103, 0, 0, []
1632390668.944, 22, 1, 4253.39, 2587.236, 4097.778, 4231.966, 4221.88, 0, 0, []
1632390668.9519, 23, 1, 4252.764, 2495.328, 4096.068, 4225.47, 4219.658, 0, 0, []
1632390668.9598, 24, 1, 4252.137, 2403.419, 4094.359, 4218.974, 4217.436, 0, 0, []
1632390668.9676, 25, 1, 4251.51, 2311.51, 4092.65, 4212.479, 4215.214, 0, 0, []
1632390668.9755, 26, 1, 4250.883, 2219.601, 4090.94, 4205.983, 4212.991, 0, 0, []
1632390668.9834, 27, 0, 4250.256, 2127.692, 4089.231, 4199.487, 4210.769, 0, 0, []
1632390675.7211, 97, 0, 4140.513, 3138.462, 4069.744, 4164.615, 4137.436, 450, 0, []
1632390675.729, 98, 0, 4153.333, 3144.103, 4075.897, 4192.308, 4152.308, 450, 0, []
1632390675.7369, 99, 0, 4151.282, 3136.923, 4053.846, 4173.846, 4143.59, 16224, 0, []
1632390675.7446, 100, 0, 4156.41, 3161.026, 4049.744, 4170.256, 4131.282, 450, 0, []
1632390675.7525, 101, 0, 4185.128, 3201.026, 4069.744, 4198.974, 4137.949, 450, 0, []
1632390675.7603, 102, 0, 4196.923, 3197.949, 4070.256, 4192.821, 4150.256, 450, 0, []
1632390675.7682, 103, 0, 4172.308, 3182.564, 4048.205, 4155.385, 4143.59, 16224, 0, []
1632390675.776, 104, 0, 4147.179, 3189.231, 4046.154, 4154.359, 4132.821, 450, 0, []
1632390675.7838, 105, 0, 4147.692, 3189.231, 4047.692, 4176.923, 4133.846, 450, 0, []
1632390675.7916, 106, 0, 4159.487, 3203.077, 4049.231, 4178.974, 4136.41, 450, 0, []
1632390675.7995, 107, 0, 4158.974, 3230.769, 4041.538, 4173.333, 4124.103, 16224, 0, []
1632390675.8073, 108, 0, 4162.051, 3223.077, 4047.692, 4183.59, 4115.897, 450, 0, []
1632390675.8152, 109, 0, 4177.949, 3223.59, 4063.59, 4183.59, 4131.795, 450, 0, []
1632390675.8229, 110, 0, 4162.564, 3255.897, 4056.923, 4170.769, 4142.051, 450, 0, []
1632390675.8308, 111, 0, 4128.718, 3250.769, 4062.051, 4186.154, 4134.359, 16224, 0, []
1632390675.8386, 112, 0, 4128.205, 3223.59, 4063.59, 4196.41, 4123.59, 450, 0, []
1632390675.8465, 113, 0, 4148.718, 3244.615, 4048.718, 4177.949, 4117.949, 450, 0, []
1632390675.8543, 114, 0, 4164.615, 3285.128, 4045.641, 4180, 4119.487, 450, 0, []
1632390675.8621, 115, 0, 4174.359, 3288.205, 4053.846, 4191.282, 4122.564, 16224, 0, []
1632390675.8699, 116, 0, 4169.744, 3277.949, 4062.051, 4166.154, 4118.462, 450, 0, []
1632390675.8778, 117, 0, 4157.949, 3287.692, 4054.359, 4145.128, 4124.103, 450, 0, []
1632390675.8856, 118, 0, 4165.128, 3302.051, 4072.308, 4172.308, 4143.077, 450, 0, []
1632390675.8936, 119, 0, 4173.846, 3299.487, 4080.513, 4183.59, 4142.564, 16224, 0, []
1632390675.9014, 120, 0, 4164.615, 3295.385, 4047.179, 4157.436, 4133.846, 450, 0, []
1632390675.9093, 121, 0, 4165.641, 3304.103, 4053.333, 4155.897, 4135.897, 450, 0, []
1632390675.9172, 122, 0, 4176.41, 3333.846, 4056.923, 4170.769, 4127.692, 450, 0, []
1632390675.925, 123, 0, 4191.795, 3363.077, 4049.231, 4174.872, 4131.795, 16224, 0, []
1632390675.9329, 124, 0, 4197.949, 3362.564, 4063.59, 4172.821, 4151.282, 450, 0, []
1632390675.9406, 125, 0, 4186.667, 3368.205, 4063.077, 4170.256, 4155.385, 450, 0, []
1632390675.9485, 126, 0, 4184.103, 3383.59, 4076.923, 4184.615, 4161.538, 450, 0, []
1632390675.9563, 127, 0, 4183.59, 3381.026, 4086.667, 4196.923, 4170.256, 16224, 0, []
1632390675.9642, 128, 0, 4188.205, 3409.744, 4084.615, 4188.205, 4169.744, 450, 0, []
1632390675.972, 0, 0, 4213.333, 3483.077, 4094.359, 4192.308, 4184.103, 450, 0, []
1632390675.9798, 1, 0, 4215.385, 3510.256, 4079.487, 4194.872, 4189.231, 450, 0, []
1632390675.9876, 2, 0, 4193.846, 3507.179, 4061.538, 4189.744, 4167.692, 16163, 0, []
1632390675.9955, 3, 0, 4206.667, 3562.051, 4072.308, 4218.462, 4173.333, 450, 0, []
1632390676.0033, 4, 0, 4220.513, 3617.436, 4076.41, 4238.974, 4183.077, 16171, 0, []
1632390676.0112, 5, 0, 4204.615, 3636.41, 4064.615, 4211.282, 4156.923, 450, 0, []
1632390676.0189, 6, 0, 4208.718, 3710.769, 4071.282, 4200.513, 4150.769, 16129, 0, []
1632390676.0268, 7, 0, 4238.974, 3824.103, 4101.538, 4225.641, 4183.077, 450, 0, []
1632390676.0346, 8, 0, 4240, 3828.205, 4098.462, 4215.385, 4188.205, 450, 0, []
1632390676.0425, 9, 0, 4218.462, 3734.872, 4075.897, 4186.667, 4167.179, 16131, 0, []
1632390676.0503, 10, 0, 4229.744, 3739.487, 4089.231, 4200, 4183.077, 450, 0, []
1632390676.0582, 11, 0, 4251.795, 3871.282, 4095.897, 4218.462, 4208.718, 16182, 0, []
1632390676.0661, 12, 0, 4244.103, 3928.718, 4088.718, 4216.41, 4196.41, 450, 0, []
1632390676.0741, 13, 0, 4225.128, 3938.462, 4097.436, 4215.897, 4178.974, 450, 0, []
1632390676.082, 14, 0, 4223.077, 4248.718, 4106.667, 4210.256, 4188.718, 450, 0, []
1632390676.0898, 15, 0, 4225.641, 4674.872, 4098.462, 4191.795, 4189.231, 16182, 0, []
1632390676.0976, 16, 0, 4225.128, 4852.308, 4078.974, 4188.718, 4172.821, 0, 0, []
1632390676.1054, 17, 0, 4235.385, 4943.59, 4083.59, 4206.667, 4169.231, 0, 0, []
1632390676.1133, 18, 0, 4229.231, 5137.436, 4090.256, 4201.538, 4160.513, 0, 0, []
1632390676.1211, 19, 0, 4216.41, 5278.462, 4077.436, 4184.615, 4149.231, 0, 0, []
1632390676.129, 20, 0, 4229.231, 5163.59, 4073.333, 4196.923, 4158.462, 0, 0, []
1632390676.1367, 21, 0, 4234.872, 4980.513, 4068.718, 4213.846, 4169.231, 0, 0, []
1632390676.1446, 22, 0, 4223.077, 5177.436, 4070.256, 4214.359, 4170.769, 0, 0, []
1632390676.1524, 23, 0, 4225.641, 5586.667, 4092.821, 4224.615, 4182.564, 0, 0, []
1632390676.1603, 24, 0, 4229.231, 5742.051, 4104.615, 4237.949, 4194.872, 0, 0, []
1632390676.1681, 25, 0, 4207.179, 5701.538, 4097.436, 4221.026, 4183.077, 0, 0, []
1632390676.1759, 26, 0, 4187.179, 5507.179, 4087.692, 4191.795, 4170.256, 0, 0, []
1632390676.1837, 27, 0, 4187.692, 5210.256, 4100.513, 4193.333, 4174.359, 0, 0, []
1632390676.1916, 28, 0, 4182.051, 5153.846, 4107.179, 4196.41, 4167.692, 0, 0, []
1632390676.1994, 29, 0, 4172.821, 5234.872, 4086.667, 4182.564, 4157.436, 0, 0, []
1632390676.2074, 30, 0, 4187.692, 5454.359, 4086.154, 4188.205, 4172.308, 0, 0, []
1632390676.2152, 31, 0, 4215.385, 6024.103, 4094.872, 4208.718, 4189.744, 0, 0, []
1632390676.2232, 32, 0, 4214.872, 6444.103, 4090.256, 4219.487, 4169.231, 0, 0, []
1632390676.2311, 33, 0, 4198.462, 6393.846, 4083.077, 4224.103, 4141.538, 0, 0, []
1632390676.2391, 34, 0, 4211.282, 6484.615, 4081.538, 4231.282, 4157.949, 0, 0, []
1632390676.247, 35, 0, 4225.128, 6730.256, 4092.821, 4239.487, 4190.256, 0, 0, []
1632390676.2547, 36, 0, 4217.436, 6696.41, 4094.359, 4236.41, 4191.795, 0, 0, []
1632390676.2626, 37, 0, 4220.513, 6722.051, 4077.436, 4220.513, 4166.667, 0, 0, []
1632390676.2704, 38, 0, 4233.333, 7000, 4067.179, 4216.41, 4156.41, 0, 0, []
1632390676.2783, 39, 0, 4230.256, 7129.744, 4068.205, 4226.667, 4171.282, 0, 0, []
1632390676.2861, 40, 0, 4226.154, 7011.795, 4089.231, 4225.641, 4188.718, 0, 0, []
1632390676.2939, 41, 0, 4233.333, 6824.615, 4099.487, 4215.897, 4194.872, 0, 0, []
1632390676.3017, 42, 0, 4231.795, 6363.59, 4071.282, 4214.872, 4177.436, 0, 0, []
1632390676.3096, 43, 0, 4228.718, 5665.641, 4045.641, 4215.897, 4152.821, 0, 0, []
1632390676.3174, 44, 0, 4238.974, 5220, 4042.051, 4218.462, 4147.179, 0, 0, []
1632390676.3253, 45, 0, 4248.718, 5068.718, 4051.282, 4235.385, 4162.051, 0, 0, []
1632390676.333, 46, 0, 4235.897, 4973.333, 4046.667, 4235.897, 4165.641, 0, 0, []
1632390676.3409, 47, 0, 4213.846, 4873.846, 4014.872, 4195.385, 4158.974, 0, 0, []
1632390676.3487, 48, 0, 4237.949, 4776.923, 4013.846, 4183.077, 4197.949, 0, 0, []
1632390676.3567, 49, 0, 4303.59, 4720, 4063.077, 4232.308, 4282.051, 0, 0, []
1632390676.3646, 50, 0, 4344.103, 4709.231, 4105.641, 4254.872, 4342.564, 0, 0, []
1632390676.3725, 51, 0, 4364.103, 4659.487, 4098.462, 4225.641, 4364.103, 0, 0, []
1632390676.3804, 52, 0, 4411.795, 4566.667, 4076.923, 4228.205, 4399.487, 0, 0, []
1632390676.3884, 53, 0, 4455.385, 4496.923, 4082.051, 4268.205, 4445.641, 0, 0, []
1632390676.3963, 54, 0, 4455.897, 4433.846, 4097.436, 4278.974, 4480, 0, 0, []
1632390676.4043, 55, 0, 4438.974, 4372.821, 4114.872, 4267.692, 4506.154, 0, 0, []
1632390676.4122, 56, 0, 4412.308, 4394.359, 4117.436, 4265.128, 4508.205, 0, 0, []
1632390676.4199, 57, 0, 4383.59, 4530.256, 4097.436, 4262.051, 4484.103, 0, 0, []
1632390676.4278, 58, 0, 4376.923, 4630.256, 4095.897, 4265.641, 4466.154, 0, 0, []
1632390676.4356, 59, 0, 4358.974, 4531.795, 4090.769, 4274.872, 4458.462, 0, 0, []
1632390676.4435, 60, 0, 4309.744, 4382.051, 4072.821, 4259.487, 4435.385, 0, 0, []
1632390676.4513, 61, 0, 4274.359, 4501.538, 4073.333, 4243.59, 4409.744, 0, 0, []
1632390676.4591, 62, 0, 4267.179, 4671.282, 4084.103, 4255.897, 4397.949, 0, 0, []
1632390676.4669, 63, 0, 4249.744, 4836.41, 4094.872, 4264.103, 4381.026, 0, 0, []
1632390676.4748, 64, 0, 4225.128, 5370.769, 4092.308, 4249.744, 4357.436, 450, 0, []
1632390676.4826, 65, 0, 4218.974, 5846.154, 4075.385, 4229.231, 4338.974, 450, 0, []
1632390676.4905, 66, 0, 4214.872, 5830.769, 4062.564, 4217.949, 4312.821, 16172, 0, []
1632390676.4982, 67, 0, 4207.179, 5986.154, 4059.487, 4229.231, 4275.385, 450, 0, []
1632390676.5062, 68, 0, 4208.718, 6481.538, 4064.615, 4253.846, 4257.436, 16126, 0, []
1632390676.5141, 69, 0, 4203.077, 6390.769, 4057.949, 4253.846, 4260, 450, 0, []
1632390676.5221, 70, 0, 4186.154, 5724.103, 4047.692, 4223.59, 4253.333, 16100, 0, []
1632390676.53, 71, 0, 4184.103, 5289.231, 4054.872, 4206.154, 4244.103, 450, 0, []
1632390676.5379, 72, 0, 4186.154, 5002.051, 4058.462, 4211.282, 4242.051, 450, 0, []
1632390676.5458, 73, 0, 4175.385, 4921.026, 4064.103, 4221.026, 4238.462, 16143, 0, []
1632390676.5538, 74, 0, 4161.026, 5671.282, 4072.821, 4216.923, 4218.974, 450, 0, []
1632390676.5617, 75, 0, 4142.051, 6632.308, 4052.308, 4186.154, 4182.051, 16167, 0, []
1632390676.5695, 76, 0, 4125.641, 6654.872, 4011.795, 4156.41, 4151.795, 450, 0, []
1632390676.5773, 77, 0, 4130.256, 6330.256, 4005.641, 4164.103, 4145.641, 450, 0, []
1632390676.5851, 78, 0, 4143.59, 6527.692, 4041.538, 4187.692, 4136.923, 450, 0, []
1632390676.593, 79, 0, 4138.462, 6650.769, 4040, 4192.308, 4112.821, 16167, 0, []
1632390676.6008, 80, 0, 4125.641, 6443.077, 4005.128, 4190.256, 4102.564, 450, 0, []
1632390676.6087, 81, 0, 4115.897, 6837.436, 3998.462, 4177.436, 4103.077, 450, 0, []
1632390676.6164, 82, 0, 4096.923, 7493.846, 3991.282, 4147.692, 4086.667, 450, 0, []
1632390676.6243, 83, 0, 4085.641, 6913.846, 4006.154, 4149.744, 4091.282, 16167, 0, []
1632390676.6321, 84, 0, 4099.487, 5513.333, 4043.59, 4187.692, 4130.769, 450, 0, []
1632390676.64, 85, 0, 4110.769, 4870.769, 4045.128, 4196.923, 4143.077, 450, 0, []
1632390676.6479, 86, 0, 4097.949, 4820.513, 4027.692, 4169.744, 4109.231, 450, 0, []
1632390676.6557, 87, 0, 4076.41, 4541.026, 4016.41, 4152.308, 4076.41, 16167, 0, []
1632390676.6635, 88, 0, 4063.077, 4317.949, 4004.615, 4155.385, 4051.795, 450, 0, []
1632390676.6715, 89, 0, 4055.897, 4296.41, 3993.846, 4150.256, 4028.718, 450, 0, []
1632390676.6794, 90, 0, 4060, 4220, 3998.462, 4126.667, 4027.179, 450, 0, []
1632390676.6874, 91, 0, 4057.436, 4145.128, 4010.256, 4115.385, 4034.359, 16167, 0, []
1632390676.6952, 92, 0, 4036.41, 4061.026, 4001.026, 4124.615, 4027.179, 450, 0, []
1632390676.7032, 93, 0, 4035.385, 3966.667, 4003.077, 4137.949, 4031.795, 450, 0, []
1632390676.7111, 94, 0, 4057.949, 3921.026, 4016.923, 4155.385, 4046.667, 450, 0, []
1632390676.7189, 95, 0, 4063.077, 3878.462, 4008.205, 4163.59, 4038.462, 16167, 0, []
1632390676.7268, 96, 0, 4062.051, 3840, 4007.692, 4157.949, 4030.256, 450, 0, []
1632390676.7345, 97, 0, 4062.051, 3820, 4023.59, 4153.846, 4046.154, 450, 0, []
1632390676.7424, 98, 0, 4046.154, 3770.256, 4020.513, 4155.897, 4051.282, 450, 0, []
1632390676.7502, 99, 0, 4036.923, 3710.256, 4003.077, 4166.154, 4042.564, 16167, 0, []
1632390676.7581, 100, 0, 4053.846, 3687.692, 3995.897, 4182.051, 4042.051, 450, 0, []
1632390676.7659, 101, 0, 4072.308, 3668.205, 4012.821, 4187.692, 4042.051, 450, 0, []
1632390676.7737, 102, 0, 4072.821, 3640, 4025.641, 4172.308, 4043.59, 450, 0, []
1632390676.7815, 103, 0, 4062.051, 3620, 4031.795, 4157.949, 4057.436, 16167, 0, []
1632390676.7894, 104, 0, 4056.41, 3589.231, 4047.692, 4164.615, 4071.282, 450, 0, []
1632390676.7972, 105, 0, 4060, 3548.205, 4032.821, 4171.795, 4069.744, 450, 0, []
1632390676.8052, 106, 0, 4072.308, 3528.718, 4009.744, 4180, 4063.077, 450, 0, []
1632390676.813, 107, 0, 4085.641, 3529.231, 4017.436, 4195.897, 4068.205, 16167, 0, []
1632390676.821, 108, 0, 4082.051, 3517.949, 4028.205, 4189.231, 4075.385, 450, 0, []
1632390676.8289, 109, 0, 4062.051, 3485.641, 4028.205, 4167.179, 4073.333, 450, 0, []
1632390676.8369, 110, 0, 4065.128, 3444.615, 4029.231, 4165.641, 4083.077, 450, 0, []
1632390676.8448, 111, 0, 4105.641, 3442.051, 4040.513, 4181.538, 4113.846, 16167, 0, []
1632390676.8527, 112, 0, 4142.051, 3462.051, 4036.41, 4191.282, 4138.462, 450, 0, []
1632390676.8606, 113, 0, 4161.026, 3434.872, 4019.487, 4192.308, 4157.436, 450, 0, []
1632390676.8685, 114, 0, 4189.744, 3402.564, 4024.615, 4195.897, 4198.462, 450, 0, []
1632390676.8764, 115, 0, 4232.821, 3413.333, 4044.615, 4199.487, 4251.282, 16167, 0, []
1632390676.8842, 116, 0, 4250.769, 3409.231, 4060.513, 4199.487, 4281.026, 450, 0, []
1632390676.892, 117, 0, 4225.128, 3373.846, 4050.769, 4187.179, 4282.051, 450, 0, []
1632390676.8998, 118, 0, 4194.359, 3370.769, 4036.923, 4174.872, 4280.513, 450, 0, []
1632390676.9077, 119, 0, 4165.128, 3387.692, 4049.231, 4180, 4273.333, 16167, 0, []
1632390676.9155, 120, 0, 4127.179, 3357.436, 4055.897, 4194.872, 4250.256, 450, 0, []
1632390676.9234, 121, 0, 4105.641, 3314.872, 4057.949, 4205.128, 4226.667, 450, 0, []
1632390676.9311, 122, 0, 4098.462, 3310.769, 4056.923, 4203.077, 4204.615, 450, 0, []
1632390676.939, 123, 0, 4095.385, 3321.026, 4043.59, 4202.051, 4178.462, 16167, 0, []
1632390676.9468, 124, 0, 4095.897, 3321.026, 4049.231, 4206.667, 4167.179, 450, 0, []
1632390676.9548, 125, 0, 4082.564, 3320, 4064.103, 4199.487, 4168.205, 450, 0, []
1632390676.9627, 126, 0, 4052.821, 3314.872, 4069.744, 4185.641, 4157.949, 450, 0, []
1632390676.9705, 127, 0, 4034.359, 3300.513, 4064.615, 4192.821, 4142.051, 16167, 0, []
1632390676.9783, 128, 0, 4042.051, 3287.179, 4050.256, 4217.949, 4126.154, 450, 0, []
1632390676.9863, 0, 0, 4047.179, 3291.795, 4046.154, 4220.513, 4112.821, 450, 0, []
1632390676.9942, 1, 0, 4030.769, 3305.128, 4055.897, 4202.051, 4112.308, 450, 0, []
1632390677.0022, 2, 0, 4014.359, 3297.949, 4072.821, 4193.846, 4116.923, 16175, 0, []
1632390677.01, 3, 0, 4017.436, 3277.949, 4071.282, 4193.333, 4105.128, 450, 0, []
1632390677.018, 4, 0, 4027.692, 3294.359, 4048.718, 4178.974, 4081.538, 16174, 0, []
1632390677.0259, 5, 0, 4021.538, 3313.333, 4060.513, 4168.205, 4070.256, 450, 0, []
1632390677.0338, 6, 0, 4003.59, 3285.128, 4089.231, 4171.282, 4078.974, 16131, 0, []
1632390677.0417, 7, 0, 3994.872, 3256.923, 4068.205, 4174.359, 4077.949, 450, 0, []
1632390677.0494, 8, 0, 4013.846, 3266.667, 4024.103, 4174.359, 4061.026, 450, 0, []
1632390677.0573, 9, 0, 4033.846, 3273.846, 4017.436, 4165.128, 4056.41, 16155, 0, []
1632390677.0651, 10, 0, 4011.282, 3254.359, 4043.077, 4155.385, 4061.026, 450, 0, []
1632390677.073, 11, 0, 3980, 3240, 4032.821, 4153.846, 4047.179, 16188, 0, []
1632390677.0808, 12, 0, 3986.154, 3242.564, 4004.103, 4148.718, 4021.026, 450, 0, []
1632390677.0887, 13, 0, 3992.821, 3254.359, 4014.872, 4145.641, 4017.436, 450, 0, []
1632390677.0964, 14, 0, 3980, 3248.205, 4032.308, 4150.256, 4038.462, 450, 0, []
1632390677.1043, 15, 0, 3981.026, 3220, 4020, 4148.718, 4029.744, 16188, 0, []
1632390677.1121, 16, 0, 3963.59, 3213.333, 3983.59, 4115.897, 3986.667, 0, 0, []
1632390677.1201, 17, 0, 3920, 3198.974, 3956.41, 4071.282, 3966.154, 0, 0, []
1632390677.128, 18, 0, 3913.333, 3149.744, 3950.256, 4065.641, 3960.513, 0, 0, []
1632390677.1359, 19, 0, 3915.897, 3137.436, 3942.051, 4078.462, 3934.872, 0, 0, []
1632390677.1438, 20, 0, 3882.564, 3164.615, 3932.821, 4068.205, 3913.333, 0, 0, []
1632390677.1518, 21, 0, 3864.103, 3151.282, 3920.513, 4042.564, 3919.487, 0, 0, []
1632390677.1597, 22, 0, 3882.564, 3131.282, 3912.821, 4041.026, 3931.282, 0, 0, []
1632390677.1677, 23, 0, 3895.897, 3162.564, 3929.231, 4062.564, 3930.769, 0, 0, []
1632390677.1755, 24, 0, 3894.359, 3180, 3935.897, 4061.026, 3925.641, 0, 0, []
1632390677.1835, 25, 0, 3880, 3157.949, 3911.795, 4040, 3917.436, 0, 0, []
1632390677.1914, 26, 0, 3863.59, 3149.231, 3896.41, 4039.487, 3911.795, 0, 0, []
1632390677.1992, 27, 0, 3874.872, 3154.872, 3899.487, 4047.179, 3915.897, 0, 0, []
1632390677.2071, 28, 0, 3887.692, 3144.615, 3896.923, 4031.795, 3920.513, 0, 0, []
1632390677.2148, 29, 0, 3882.051, 3135.385, 3890.256, 4016.41, 3910.769, 0, 0, []
1632390677.2227, 30, 0, 3881.026, 3167.692, 3900.513, 4024.615, 3892.821, 0, 0, []
1632390677.2305, 31, 0, 3875.385, 3235.385, 3906.667, 4032.308, 3897.436, 0, 0, []
1632390677.2384, 32, 0, 3864.615, 3291.282, 3886.667, 4022.564, 3907.179, 0, 0, []
1632390677.2462, 33, 0, 3869.231, 3277.949, 3883.077, 4008.718, 3902.051, 0, 0, []
1632390677.254, 34, 0, 3870.769, 3240.513, 3895.385, 4006.667, 3896.923, 0, 0, []
1632390677.2618, 35, 0, 3867.179, 3322.564, 3906.667, 4014.872, 3890.256, 0, 0, []
1632390677.2698, 36, 0, 3860.513, 3466.154, 3908.718, 4015.897, 3874.872, 0, 0, []
1632390677.2777, 37, 0, 3845.128, 3508.718, 3885.128, 4002.564, 3857.436, 0, 0, []
1632390677.2857, 38, 0, 3834.872, 3504.103, 3877.436, 3991.282, 3858.974, 0, 0, []
1632390677.2935, 39, 0, 3845.128, 3530.256, 3880, 3988.718, 3868.718, 0, 0, []
1632390677.3015, 40, 0, 3860, 3556.41, 3875.385, 3985.641, 3876.41, 0, 0, []
1632390677.3094, 41, 0, 3863.077, 3693.333, 3881.538, 3989.231, 3882.051, 0, 0, []
1632390677.3174, 42, 0, 3858.462, 3893.333, 3880, 3996.923, 3866.667, 0, 0, []
1632390677.3253, 43, 0, 3845.128, 3774.872, 3871.795, 3995.897, 3855.897, 0, 0, []
1632390677.3332, 44, 0, 3846.154, 3534.359, 3861.538, 3995.385, 3872.308, 0, 0, []
1632390677.3411, 45, 0, 3873.333, 3749.231, 3864.103, 4008.205, 3882.564, 0, 0, []
1632390677.3491, 46, 0, 3877.949, 4154.359, 3881.538, 4022.564, 3871.795, 0, 0, []
1632390677.357, 47, 0, 3860, 4149.231, 3872.308, 4022.051, 3876.923, 0, 0, []
1632390677.3648, 48, 0, 3868.718, 3898.462, 3863.59, 4026.154, 3896.923, 0, 0, []
1632390677.3726, 49, 0, 3885.641, 4078.974, 3876.923, 4036.923, 3891.795, 0, 0, []
1632390677.3804, 50, 0, 3868.205, 4795.897, 3889.231, 4034.872, 3882.564, 0, 0, []
1632390677.3883, 51, 0, 3857.436, 5417.949, 3872.821, 4028.718, 3878.974, 0, 0, []
1632390677.3961, 52, 0, 3873.333, 5477.949, 3850.769, 4022.051, 3864.103, 0, 0, []
1632390677.404, 53, 0, 3880, 5355.385, 3877.436, 4019.487, 3870.256, 0, 0, []
1632390677.4117, 54, 0, 3873.333, 5378.974, 3903.59, 4021.538, 3897.436, 0, 0, []
1632390677.4196, 55, 0, 3868.205, 5508.205, 3879.487, 4027.179, 3886.154, 0, 0, []
1632390677.4274, 56, 0, 3873.846, 5860, 3858.974, 4034.872, 3862.564, 0, 0, []
1632390677.4353, 57, 0, 3882.051, 5956.923, 3867.179, 4027.179, 3881.026, 0, 0, []
1632390677.4431, 58, 0, 3876.923, 5381.538, 3882.564, 4017.436, 3910.769, 0, 0, []
1632390677.451, 59, 0, 3880.513, 5072.308, 3888.205, 4034.359, 3911.795, 0, 0, []
1632390677.4589, 60, 0, 3901.538, 5510.769, 3884.615, 4048.718, 3898.462, 0, 0, []
1632390677.4669, 61, 0, 3897.436, 5758.974, 3892.308, 4031.282, 3892.308, 0, 0, []
1632390677.4748, 62, 0, 3874.359, 5576.41, 3900, 4016.41, 3898.462, 0, 0, []
1632390677.4828, 63, 0, 3869.744, 5534.359, 3893.333, 4029.231, 3898.462, 0, 0, []
1632390677.4906, 64, 0, 3882.051, 5700, 3884.103, 4041.538, 3884.615, 450, 0, []
1632390677.4986, 65, 0, 3893.846, 5751.282, 3890.256, 4031.282, 3889.231, 450, 0, []
1632390677.5065, 66, 0, 3896.923, 5432.308, 3913.333, 4025.641, 3911.282, 16167, 0, []
1632390677.5144, 67, 0, 3901.026, 5250.769, 3921.026, 4036.923, 3917.436, 450, 0, []
1632390677.5223, 68, 0, 3923.59, 5525.128, 3926.667, 4061.026, 3918.462, 16127, 0, []
1632390677.53, 69, 0, 3951.282, 5544.103, 3938.462, 4085.641, 3932.308, 450, 0, []
1632390677.5379, 70, 0, 3956.41, 5327.692, 3933.846, 4078.462, 3944.615, 16187, 0, []
1632390677.5457, 71, 0, 3964.615, 5690.769, 3944.103, 4067.179, 3966.154, 450, 0, []
1632390677.5536, 72, 0, 3988.718, 6251.282, 3958.974, 4089.231, 4000.513, 450, 0, []
1632390677.5614, 73, 0, 4004.615, 6413.846, 3958.974, 4119.487, 4017.949, 16136, 0, []
1632390677.5692, 74, 0, 4016.41, 6544.103, 3969.231, 4131.282, 4029.231, 450, 0, []
1632390677.577, 75, 0, 4027.179, 6383.59, 3981.026, 4129.231, 4043.077, 16238, 0, []
1632390677.585, 76, 0, 4027.692, 5967.179, 3982.564, 4136.923, 4047.179, 450, 0, []
1632390677.5929, 77, 0, 4015.385, 6059.487, 3971.282, 4145.128, 4037.436, 450, 0, []
1632390677.6009, 78, 0, 4011.795, 6443.59, 3965.128, 4135.385, 4033.846, 450, 0, []
1632390677.6087, 79, 0, 4028.718, 6593.333, 3975.897, 4124.615, 4046.667, 16238, 0, []
1632390677.6167, 80, 0, 4042.051, 6649.744, 3978.462, 4129.744, 4056.923, 450, 0, []
1632390677.6246, 81, 0, 4036.923, 6742.564, 3971.795, 4131.282, 4048.205, 450, 0, []
1632390677.6325, 82, 0, 4023.077, 6664.103, 3968.205, 4114.359, 4030.256, 450, 0, []
1632390677.6404, 83, 0, 4027.692, 6567.179, 3975.385, 4122.051, 4033.846, 16238, 0, []
1632390677.6482, 84, 0, 4044.103, 6604.615, 3984.103, 4137.949, 4048.718, 450, 0, []
1632390677.6561, 85, 0, 4052.821, 6708.718, 3978.462, 4124.103, 4051.282, 450, 0, []
1632390677.6639, 86, 0, 4049.231, 6853.333, 3973.846, 4105.128, 4042.564, 450, 0, []
1632390677.6719, 87, 0, 4040.513, 6771.282, 3968.718, 4100, 4036.923, 16238, 0, []
1632390677.6798, 88, 0, 4045.128, 6537.949, 3962.564, 4108.718, 4044.103, 450, 0, []
1632390677.6876, 89, 0, 4048.205, 6549.231, 3962.564, 4105.128, 4041.026, 450, 0, []
1632390677.6954, 90, 0, 4037.949, 6648.205, 3960.513, 4086.667, 4026.667, 450, 0, []
1632390677.7033, 91, 0, 4030.256, 6397.949, 3968.718, 4087.692, 4023.077, 16238, 0, []
1632390677.7111, 92, 0, 4029.744, 5977.436, 3974.359, 4098.462, 4021.026, 450, 0, []
1632390677.719, 93, 0, 4027.179, 5851.282, 3969.231, 4096.41, 4008.718, 450, 0, []
1632390677.7267, 94, 0, 4024.615, 5951.795, 3970.256, 4102.564, 4006.667, 450, 0, []
1632390677.7347, 95, 0, 4020.513, 6114.359, 3967.692, 4116.923, 4012.308, 16238, 0, []
1632390677.7426, 96, 0, 4020, 6344.103, 3974.359, 4110.769, 4006.154, 450, 0, []
1632390677.7506, 97, 0, 4028.205, 6373.846, 3987.179, 4101.026, 4005.128, 450, 0, []
1632390677.7585, 98, 0, 4031.795, 6072.821, 3974.872, 4097.949, 4013.846, 450, 0, []
1632390677.7664, 99, 0, 4032.308, 5861.026, 3962.564, 4098.974, 4021.026, 16238, 0, []
1632390677.7743, 100, 0, 4047.179, 5921.538, 3965.128, 4101.538, 4033.333, 450, 0, []
1632390677.7823, 101, 0, 4068.718, 5922.564, 3976.41, 4107.179, 4047.179, 450, 0, []
1632390677.7902, 102, 0, 4081.538, 5774.359, 3988.205, 4116.41, 4052.308, 450, 0, []
1632390677.7982, 103, 0, 4091.795, 5834.872, 3992.308, 4124.615, 4062.564, 16238, 0, []
1632390677.806, 104, 0, 4097.436, 6004.615, 4008.718, 4135.897, 4077.949, 450, 0, []
1632390677.814, 105, 0, 4092.821, 5894.359, 4020, 4134.359, 4077.949, 450, 0, []
1632390677.8219, 106, 0, 4089.231, 5738.462, 4011.282, 4121.026, 4070.256, 450, 0, []
1632390677.8297, 107, 0, 4096.41, 5820.513, 4006.154, 4124.103, 4076.41, 16238, 0, []
1632390677.8376, 108, 0, 4108.718, 5961.026, 4003.59, 4128.718, 4085.641, 450, 0, []
1632390677.8454, 109, 0, 4115.385, 5986.154, 4004.103, 4112.821, 4080, 450, 0, []
1632390677.8532, 110, 0, 4112.308, 6066.667, 4005.128, 4108.718, 4072.308, 450, 0, []
1632390677.861, 111, 0, 4113.333, 6129.231, 4013.846, 4132.308, 4078.974, 16238, 0, []
1632390677.8689, 112, 0, 4125.128, 5969.231, 4030.769, 4157.949, 4102.051, 450, 0, []
1632390677.8767, 113, 0, 4135.385, 5820.513, 4030.769, 4169.744, 4122.051, 450, 0, []
1632390677.8846, 114, 0, 4141.026, 5796.41, 4036.41, 4176.41, 4124.615, 450, 0, []
1632390677.8923, 115, 0, 4136.41, 5728.718, 4042.564, 4178.462, 4114.872, 16238, 0, []
1632390677.9002, 116, 0, 4124.103, 5548.205, 4031.795, 4175.385, 4108.718, 450, 0, []
1632390677.908, 117, 0, 4121.538, 5349.231, 4020, 4172.821, 4114.872, 450, 0, []
1632390677.916, 118, 0, 4131.282, 5246.667, 4015.897, 4168.205, 4117.436, 450, 0, []
1632390677.9239, 119, 0, 4132.821, 5404.615, 4025.641, 4158.462, 4111.795, 16238, 0, []
1632390677.9318, 120, 0, 4123.077, 5550.256, 4031.795, 4152.308, 4105.128, 450, 0, []
1632390677.9397, 121, 0, 4122.564, 5333.333, 4028.205, 4157.949, 4101.538, 450, 0, []
1632390677.9477, 122, 0, 4125.641, 5303.077, 4024.615, 4163.077, 4101.026, 450, 0, []
1632390677.9556, 123, 0, 4122.051, 5693.333, 4014.872, 4157.949, 4100.513, 16238, 0, []
1632390677.9636, 124, 0, 4126.154, 5754.872, 4010.256, 4158.462, 4105.128, 450, 0, []
1632390677.9714, 125, 0, 4141.026, 5405.641, 4015.385, 4161.538, 4121.538, 450, 0, []
1632390677.9794, 126, 0, 4150.256, 5582.051, 4028.205, 4165.128, 4142.564, 450, 0, []
1632390677.9873, 127, 0, 4149.744, 6104.615, 4047.179, 4178.462, 4154.872, 16238, 0, []
1632390677.9951, 128, 0, 4172.308, 6055.897, 4054.872, 4191.282, 4173.846, 450, 0, []
1632390678.003, 0, 0, 4221.026, 5692.821, 4063.077, 4205.641, 4221.538, 450, 0, []
1632390678.0107, 1, 0, 4263.077, 5578.974, 4073.333, 4212.308, 4278.462, 450, 0, []
1632390678.0186, 2, 0, 4298.462, 5545.641, 4064.615, 4192.821, 4313.846, 16202, 0, []
1632390678.0264, 3, 0, 4343.59, 5422.564, 4049.744, 4188.205, 4331.282, 450, 0, []
1632390678.0343, 4, 0, 4378.974, 5417.949, 4041.538, 4216.923, 4356.41, 226, 0, []
1632390678.0421, 5, 0, 4375.385, 5453.846, 4062.051, 4235.897, 4384.103, 450, 0, []
1632390678.0499, 6, 0, 4348.718, 5272.308, 4082.564, 4222.051, 4385.128, 16265, 0, []
1632390678.0577, 7, 0, 4336.41, 5156.923, 4073.846, 4203.59, 4365.128, 450, 0, []
1632390678.0657, 8, 0, 4336.923, 5548.205, 4071.795, 4204.615, 4334.359, 450, 0, []
1632390678.0736, 9, 0, 4318.462, 6129.231, 4060.513, 4208.718, 4291.795, 16341, 0, []
1632390678.0816, 10, 0, 4297.949, 6228.718, 4043.59, 4206.667, 4272.821, 450, 0, []
1632390678.0894, 11, 0, 4293.846, 6148.205, 4060, 4211.795, 4288.718, 16209, 0, []
1632390678.0974, 12, 0, 4280, 6411.282, 4065.641, 4214.359, 4287.179, 450, 0, []
1632390678.1053, 13, 0, 4261.538, 6643.077, 4044.615, 4202.564, 4261.026, 450, 0, []
1632390678.1133, 14, 0, 4251.282, 6169.231, 4030.256, 4181.538, 4234.359, 450, 0, []
1632390678.1212, 15, 0, 4241.538, 5308.205, 4029.744, 4174.872, 4207.179, 16209, 0, []
1632390678.1291, 16, 0, 4235.897, 5227.692, 4024.103, 4186.667, 4187.179, 0, 0, []
1632390678.137, 17, 0, 4229.744, 5637.949, 4006.667, 4190.256, 4174.872, 0, 0, []
1632390678.1448, 18, 0, 4213.846, 5267.692, 4007.692, 4177.949, 4161.026, 0, 0, []
1632390678.1527, 19, 0, 4192.308, 4446.154, 4006.667, 4165.128, 4146.154, 0, 0, []
1632390678.1605, 20, 0, 4183.59, 4249.231, 3991.795, 4163.59, 4134.359, 0, 0, []
1632390678.1683, 21, 0, 4180.513, 4763.077, 3992.308, 4163.077, 4125.128, 0, 0, []
1632390678.1761, 22, 0, 4166.154, 5590.256, 3990.256, 4157.436, 4109.231, 0, 0, []
1632390678.184, 23, 0, 4147.692, 6322.051, 3983.077, 4157.949, 4088.718, 0, 0, []
1632390678.1918, 24, 0, 4133.846, 6575.897, 3992.308, 4151.795, 4078.462, 0, 0, []
1632390678.1998, 25, 0, 4126.667, 6583.59, 4012.821, 4137.949, 4078.974, 0, 0, []
1632390678.2076, 26, 0, 4121.026, 6727.692, 4010.256, 4128.718, 4075.897, 0, 0, []
1632390678.2155, 27, 0, 4116.41, 6906.667, 3992.821, 4130.256, 4075.385, 0, 0, []
1632390678.2233, 28, 0, 4110.769, 6959.487, 3991.795, 4132.308, 4075.385, 0, 0, []
1632390678.2313, 29, 0, 4106.154, 6969.744, 3985.128, 4121.538, 4064.103, 0, 0, []
1632390678.2392, 30, 0, 4112.308, 7086.154, 3977.949, 4111.282, 4051.795, 0, 0, []
1632390678.2471, 31, 0, 4120.513, 7052.821, 3993.333, 4124.615, 4045.641, 0, 0, []
1632390678.255, 32, 0, 4122.051, 6811.795, 3994.359, 4145.128, 4036.41, 0, 0, []
1632390678.263, 33, 0, 4115.385, 6818.462, 3973.333, 4142.564, 4017.949, 0, 0, []
1632390678.2709, 34, 0, 4107.179, 6995.897, 3965.128, 4129.744, 4004.103, 0, 0, []
1632390678.2789, 35, 0, 4103.077, 6894.872, 3969.744, 4134.872, 4010.256, 0, 0, []
1632390678.2867, 36, 0, 4099.487, 6725.128, 3970.769, 4142.564, 4018.974, 0, 0, []
1632390678.2945, 37, 0, 4104.103, 6873.333, 3965.641, 4135.385, 4021.538, 0, 0, []
1632390678.3024, 38, 0, 4115.385, 6924.615, 3976.41, 4130.256, 4031.795, 0, 0, []
1632390678.3102, 39, 0, 4110.769, 6578.462, 3989.231, 4137.436, 4047.179, 0, 0, []
1632390678.3181, 40, 0, 4103.59, 6242.051, 3991.795, 4146.154, 4052.821, 0, 0, []
1632390678.3258, 41, 0, 4114.872, 6151.795, 4012.308, 4158.462, 4060.513, 0, 0, []
1632390678.3337, 42, 0, 4122.051, 6149.231, 4022.564, 4164.103, 4071.795, 0, 0, []
1632390678.3415, 43, 0, 4116.41, 6080, 4016.41, 4154.872, 4069.231, 0, 0, []
1632390678.3494, 44, 0, 4115.897, 6132.308, 4024.103, 4149.744, 4064.103, 0, 0, []
1632390678.3572, 45, 0, 4126.154, 6450.769, 4022.051, 4149.744, 4076.41, 0, 0, []
1632390678.365, 46, 0, 4140, 6876.41, 4015.897, 4153.846, 4089.231, 0, 0, []
1632390678.3728, 47, 0, 4152.821, 7160.513, 4018.462, 4174.359, 4082.564, 0, 0, []
1632390678.3808, 48, 0, 4156.41, 6695.385, 4014.872, 4193.333, 4073.846, 0, 0, []
1632390678.3887, 49, 0, 4160.513, 5414.872, 4009.231, 4191.282, 4077.436, 0, 0, []
1632390678.3967, 50, 0, 4169.231, 4413.333, 4012.308, 4175.385, 4085.641, 0, 0, []
1632390678.4045, 51, 0, 4172.308, 4189.231, 4022.051, 4161.538, 4095.385, 0, 0, []
1632390678.4125, 52, 0, 4171.282, 3997.949, 4018.462, 4153.846, 4107.179, 0, 0, []
1632390678.4204, 53, 0, 4165.128, 3677.949, 4022.564, 4154.359, 4112.308, 0, 0, []
1632390678.4284, 54, 0, 4153.846, 3583.077, 4046.667, 4158.974, 4107.692, 0, 0, []
1632390678.4363, 55, 0, 4155.897, 3483.59, 4047.692, 4164.615, 4113.333, 0, 0, []
1632390678.4442, 56, 0, 4173.846, 3330.256, 4033.846, 4174.359, 4135.897, 0, 0, []
1632390678.4521, 57, 0, 4176.923, 3247.692, 4020, 4178.974, 4134.359, 0, 0, []
1632390678.4599, 58, 0, 4174.359, 3161.538, 4018.462, 4180, 4107.692, 0, 0, []
1632390678.4678, 59, 0, 4184.103, 3078.974, 4036.41, 4181.538, 4103.59, 0, 0, []
1632390678.4756, 60, 0, 4185.128, 3015.897, 4039.487, 4167.179, 4118.462, 0, 0, []
1632390678.4834, 61, 0, 4170.256, 2966.667, 4036.923, 4153.333, 4119.487, 0, 0, []
1632390678.4912, 62, 0, 4165.128, 2901.026, 4047.692, 4169.231, 4128.718, 0, 0, []
1632390678.4991, 63, 0, 4174.359, 2811.282, 4051.282, 4180, 4148.718, 0, 0, []
1632390678.5069, 64, 0, 4180.513, 2751.282, 4036.923, 4170.769, 4143.077, 450, 0, []
1632390678.5148, 65, 0, 4181.026, 2729.744, 4024.103, 4180, 4122.051, 450, 0, []
1632390678.5225, 66, 0, 4188.205, 2703.59, 4046.154, 4199.487, 4121.026, 16164, 0, []
1632390678.5305, 67, 0, 4191.282, 2657.949, 4069.744, 4186.154, 4133.846, 450, 0, []
1632390678.5384, 68, 0, 4176.923, 2608.718, 4059.487, 4163.59, 4136.41, 16171, 0, []
1632390678.5464, 69, 0, 4164.615, 2561.026, 4051.795, 4173.846, 4135.385, 450, 0, []
1632390678.5543, 70, 0, 4173.846, 2521.538, 4050.769, 4179.487, 4138.462, 16155, 0, []
1632390678.5622, 71, 0, 4189.231, 2510.256, 4043.59, 4174.872, 4134.872, 450, 0, []
1632390678.5701, 72, 0, 4195.897, 2501.026, 4047.692, 4189.744, 4133.333, 450, 0, []
1632390678.5781, 73, 0, 4191.282, 2469.231, 4060, 4194.359, 4142.564, 16158, 0, []
1632390678.586, 74, 0, 4181.538, 2443.077, 4074.359, 4180.513, 4152.308, 450, 0, []
1632390678.594, 75, 0, 4184.615, 2422.564, 4084.103, 4188.205, 4164.615, 16194, 0, []
1632390678.6019, 76, 0, 4201.538, 2391.282, 4090.256, 4216.41, 4185.128, 450, 0, []
1632390678.6096, 77, 0, 4210.256, 2368.718, 4084.615, 4225.641, 4193.846, 450, 0, []
1632390678.6175, 78, 0, 4210.769, 2364.615, 4074.872, 4221.538, 4177.436, 450, 0, []
1632390678.6253, 79, 0, 4217.436, 2349.744, 4083.077, 4226.154, 4166.154, 16194, 0, []
1632390678.6332, 80, 0, 4216.41, 2332.308, 4080, 4218.974, 4174.872, 450, 0, []
1632390678.641, 81, 0, 4201.026, 2321.026, 4073.333, 4203.077, 4181.538, 450, 0, []
1632390678.6488, 82, 0, 4192.308, 2298.974, 4080, 4204.103, 4175.385, 450, 0, []
1632390678.6566, 83, 0, 4193.846, 2288.205, 4081.538, 4212.821, 4168.205, 16194, 0, []
1632390678.6646, 84, 0, 4192.308, 2285.641, 4077.949, 4217.949, 4170.256, 450, 0, []
1632390678.6725, 85, 0, 4188.718, 2265.641, 4066.154, 4222.564, 4163.59, 450, 0, []
1632390678.6804, 86, 0, 4194.872, 2249.744, 4063.077, 4223.59, 4149.231, 450, 0, []
1632390678.6881, 87, 0, 4195.385, 2252.821, 4074.872, 4205.641, 4157.436, 16194, 0, []
1632390678.6961, 88, 0, 4192.821, 2241.538, 4077.436, 4186.154, 4182.564, 450, 0, []
1632390678.704, 89, 0, 4224.615, 2213.846, 4089.744, 4205.128, 4218.974, 450, 0, []
1632390678.712, 90, 0, 4286.667, 2205.641, 4103.077, 4234.359, 4274.872, 450, 0, []
1632390678.7199, 91, 0, 4338.974, 2216.923, 4096.41, 4233.846, 4328.205, 16194, 0, []
1632390678.7278, 92, 0, 4369.744, 2220.513, 4096.41, 4228.205, 4355.897, 450, 0, []
1632390678.7357, 93, 0, 4386.154, 2209.231, 4102.051, 4236.41, 4368.718, 450, 0, []
1632390678.7437, 94, 0, 4386.667, 2203.59, 4101.538, 4236.41, 4373.846, 450, 0, []
1632390678.7516, 95, 0, 4376.923, 2208.205, 4101.538, 4227.179, 4364.615, 16194, 0, []
1632390678.7594, 96, 0, 4362.051, 2206.154, 4109.744, 4228.205, 4348.205, 450, 0, []
1632390678.7672, 97, 0, 4344.103, 2209.231, 4117.949, 4243.077, 4331.795, 450, 0, []
1632390678.775, 98, 0, 4333.846, 2226.154, 4105.641, 4253.846, 4318.974, 450, 0, []
1632390678.7829, 99, 0, 4327.692, 2228.718, 4098.462, 4256.41, 4304.615, 16194, 0, []
1632390678.7907, 100, 0, 4311.282, 2202.564, 4101.538, 4254.872, 4282.564, 450, 0, []
1632390678.7986, 101, 0, 4300, 2190.256, 4101.026, 4247.692, 4272.821, 450, 0, []
1632390678.8063, 102, 0, 4297.949, 2203.59, 4106.667, 4242.051, 4275.385, 450, 0, []
1632390678.8142, 103, 0, 4277.949, 2210.256, 4105.641, 4227.179, 4266.667, 16194, 0, []
1632390678.822, 104, 0, 4252.821, 2208.718, 4110.256, 4214.359, 4259.487, 450, 0, []
1632390678.83, 105, 0, 4244.103, 2202.051, 4124.103, 4230.769, 4259.487, 450, 0, []
1632390678.8379, 106, 0, 4243.077, 2174.359, 4122.564, 4256.41, 4253.333, 450, 0, []
1632390678.8458, 107, 0, 4239.487, 2166.154, 4122.564, 4260.513, 4248.718, 16194, 0, []
1632390678.8537, 108, 0, 4241.538, 2209.231, 4120, 4254.359, 4245.641, 450, 0, []
1632390678.8617, 109, 0, 4255.897, 2223.59, 4114.359, 4257.436, 4229.231, 450, 0, []
1632390678.8696, 110, 0, 4265.128, 2204.615, 4123.59, 4260, 4214.872, 450, 0, []
1632390678.8776, 111, 0, 4256.41, 2222.051, 4137.436, 4250.256, 4214.872, 16194, 0, []
1632390678.8854, 112, 0, 4238.462, 2244.103, 4153.333, 4232.821, 4221.538, 450, 0, []
1632390678.8934, 113, 0, 4217.949, 2228.718, 4147.692, 4224.103, 4223.59, 450, 0, []
1632390678.9013, 114, 0, 4208.718, 2210.769, 4128.205, 4237.949, 4225.641, 450, 0, []
1632390678.9091, 115, 0, 4226.154, 2224.103, 4133.333, 4257.949, 4240, 16194, 0, []
1632390678.917, 116, 0, 4245.128, 2248.205, 4138.462, 4260.513, 4246.667, 450, 0, []
1632390678.9247, 117, 0, 4235.897, 2258.462, 4124.615, 4256.923, 4221.538, 450, 0, []
1632390678.9326, 118, 0, 4235.897, 2247.692, 4112.821, 4254.359, 4203.077, 450, 0, []
1632390678.9404, 119, 0, 4261.026, 2249.744, 4126.154, 4248.205, 4233.846, 16194, 0, []
1632390678.9483, 120, 0, 4267.179, 2274.359, 4144.103, 4233.846, 4263.077, 450, 0, []
1632390678.9561, 121, 0, 4248.205, 2280.513, 4142.564, 4223.59, 4255.385, 450, 0, []
1632390678.9639, 122, 0, 4222.564, 2267.692, 4143.59, 4231.795, 4246.154, 450, 0, []
1632390678.9717, 123, 0, 4204.103, 2264.615, 4144.615, 4246.667, 4245.128, 16194, 0, []
1632390678.9797, 124, 0, 4238.974, 2273.846, 4141.538, 4257.949, 4252.308, 450, 0, []
1632390678.9876, 125, 0, 4274.359, 2280, 4138.462, 4273.846, 4254.872, 450, 0, []
1632390678.9956, 126, 0, 4246.154, 2293.846, 4122.051, 4274.872, 4233.333, 450, 0, []
1632390679.0034, 127, 0, 4222.051, 2311.795, 4117.436, 4257.949, 4208.205, 16194, 0, []
1632390679.0114, 128, 0, 4234.359, 2317.949, 4131.795, 4245.128, 4210.769, 450, 0, []
1632390679.0193, 0, 0, 4222.564, 2315.897, 4142.051, 4231.795, 4218.462, 450, 0, []
1632390679.0273, 1, 0, 4198.462, 2325.128, 4147.179, 4227.692, 4213.333, 450, 0, []
1632390679.0352, 2, 0, 4211.795, 2344.103, 4147.179, 4251.282, 4221.026, 16200, 0, []
1632390679.0431, 3, 0, 4228.718, 2337.436, 4148.718, 4268.718, 4234.359, 450, 0, []
1632390679.051, 4, 0, 4232.308, 2325.641, 4141.026, 4262.051, 4233.333, 16184, 0, []
1632390679.0588, 5, 0, 4236.41, 2356.923, 4126.667, 4261.538, 4217.949, 450, 0, []
1632390679.0667, 6, 0, 4232.308, 2417.436, 4126.667, 4271.795, 4197.949, 16124, 0, []
1632390679.0745, 7, 0, 4230.769, 2495.385, 4127.179, 4264.103, 4196.923, 450, 0, []
1632390679.0823, 8, 0, 4235.897, 2525.128, 4127.179, 4247.179, 4213.333, 450, 0, []
1632390679.0901, 9, 0, 4234.359, 2566.667, 4130.769, 4243.077, 4225.641, 16166, 0, []
1632390679.098, 10, 0, 4222.051, 2687.179, 4131.795, 4243.59, 4226.154, 450, 0, []
1632390679.1058, 11, 0, 4223.077, 2830.256, 4140, 4254.359, 4232.308, 16193, 0, []
1632390679.1137, 12, 0, 4240, 3288.718, 4142.564, 4274.872, 4244.103, 450, 0, []
1632390679.1214, 13, 0, 4238.974, 3969.744, 4143.077, 4281.026, 4245.128, 450, 0, []
1632390679.1294, 14, 0, 4226.667, 4291.282, 4141.026, 4270.769, 4228.205, 450, 0, []
1632390679.1373, 15, 0, 4226.667, 4313.333, 4136.923, 4267.692, 4213.333, 16193, 0, []
1632390679.1452, 16, 0, 4228.205, 4420.513, 4141.026, 4277.949, 4217.949, 0, 0, []
1632390679.153, 17, 0, 4215.897, 4403.077, 4130.256, 4268.718, 4214.359, 0, 0, []
1632390679.1609, 18, 0, 4211.795, 4208.718, 4120.513, 4258.462, 4200.513, 0, 0, []
1632390679.1688, 19, 0, 4215.897, 4259.487, 4125.641, 4264.615, 4195.897, 0, 0, []
1632390679.1768, 20, 0, 4208.718, 4412.308, 4120, 4257.436, 4192.821, 0, 0, []
1632390679.1847, 21, 0, 4200, 4504.103, 4115.385, 4242.051, 4183.077, 0, 0, []
1632390679.1927, 22, 0, 4196.41, 4702.564, 4110.256, 4228.205, 4178.462, 0, 0, []
1632390679.2005, 23, 0, 4196.923, 4805.128, 4107.692, 4225.641, 4183.59, 0, 0, []
1632390679.2085, 24, 0, 4202.564, 4731.795, 4118.974, 4241.026, 4187.179, 0, 0, []
1632390679.2164, 25, 0, 4208.205, 4865.128, 4115.897, 4245.128, 4185.641, 0, 0, []
1632390679.2242, 26, 0, 4209.231, 5169.744, 4107.179, 4232.821, 4184.615, 0, 0, []
1632390679.2321, 27, 0, 4219.487, 5361.026, 4109.744, 4237.949, 4186.667, 0, 0, []
1632390679.2398, 28, 0, 4243.077, 5735.385, 4117.436, 4268.205, 4185.641, 0, 0, []
1632390679.2477, 29, 0, 4253.846, 6205.128, 4124.103, 4283.59, 4186.667, 0, 0, []
1632390679.2555, 30, 0, 4243.077, 6265.641, 4118.462, 4271.795, 4188.205, 0, 0, []
1632390679.2634, 31, 0, 4229.744, 6243.077, 4117.436, 4266.154, 4189.744, 0, 0, []
1632390679.2712, 32, 0, 4227.692, 6468.205, 4125.128, 4267.692, 4199.487, 0, 0, []
1632390679.279, 33, 0, 4237.949, 6589.231, 4126.667, 4263.077, 4196.923, 0, 0, []
1632390679.2868, 34, 0, 4251.282, 6591.282, 4117.949, 4265.128, 4178.462, 0, 0, []
1632390679.2947, 35, 0, 4251.795, 6717.949, 4108.205, 4272.821, 4176.41, 0, 0, []
1632390679.3025, 36, 0, 4235.897, 6707.179, 4119.487, 4272.821, 4184.615, 0, 0, []
1632390679.3105, 37, 0, 4227.179, 6543.077, 4138.462, 4264.615, 4190.769, 0, 0, []
1632390679.3184, 38, 0, 4244.615, 6635.385, 4139.487, 4255.385, 4197.949, 0, 0, []
1632390679.3263, 39, 0, 4261.026, 6694.359, 4126.667, 4258.974, 4189.744, 0, 0, []
1632390679.3342, 40, 0, 4254.872, 6520, 4111.282, 4276.923, 4175.897, 0, 0, []
1632390679.3422, 41, 0, 4247.692, 6538.462, 4116.41, 4292.308, 4195.897, 0, 0, []
1632390679.3501, 42, 0, 4251.795, 6722.051, 4133.846, 4289.744, 4224.615, 0, 0, []
1632390679.3581, 43, 0, 4255.897, 6811.282, 4136.41, 4276.923, 4215.897, 0, 0, []
1632390679.3659, 44, 0, 4259.487, 6793.333, 4125.641, 4275.897, 4195.385, 0, 0, []
1632390679.3738, 45, 0, 4255.897, 6640.513, 4112.821, 4282.051, 4193.846, 0, 0, []
1632390679.3817, 46, 0, 4249.744, 6720.513, 4127.179, 4275.897, 4207.692, 0, 0, []
1632390679.3895, 47, 0, 4256.41, 6912.308, 4141.538, 4266.154, 4218.974, 0, 0, []
1632390679.3974, 48, 0, 4269.744, 6136.923, 4122.051, 4275.385, 4214.872, 0, 0, []
1632390679.4051, 49, 0, 4273.846, 4833.333, 4114.872, 4291.795, 4204.615, 0, 0, []
1632390679.413, 50, 0, 4269.744, 4351.282, 4117.949, 4288.205, 4193.846, 0, 0, []
1632390679.4208, 51, 0, 4265.641, 4289.231, 4112.308, 4277.436, 4187.179, 0, 0, []
1632390679.4287, 52, 0, 4264.103, 3996.923, 4113.846, 4274.872, 4191.282, 0, 0, []
1632390679.4365, 53, 0, 4262.051, 3789.744, 4113.846, 4270.769, 4197.949, 0, 0, []
1632390679.4444, 54, 0, 4261.538, 3726.667, 4112.821, 4266.154, 4202.051, 0, 0, []
1632390679.4523, 55, 0, 4263.59, 3629.744, 4112.821, 4267.179, 4208.205, 0, 0, []
1632390679.4603, 56, 0, 4272.821, 3561.026, 4115.897, 4275.385, 4217.949, 0, 0, []
1632390679.4682, 57, 0, 4287.179, 3477.436, 4121.026, 4288.718, 4229.231, 0, 0, []
1632390679.4762, 58, 0, 4305.128, 3395.897, 4122.051, 4297.436, 4252.308, 0, 0, []
1632390679.484, 59, 0, 4328.718, 3348.205, 4135.897, 4302.051, 4289.744, 0, 0, []
1632390679.492, 60, 0, 4358.462, 3285.641, 4148.718, 4304.103, 4333.846, 0, 0, []
1632390679.4999, 61, 0, 4391.795, 3206.154, 4152.308, 4303.077, 4375.897, 0, 0, []
1632390679.5079, 62, 0, 4413.846, 3155.385, 4155.897, 4298.974, 4402.564, 0, 0, []
1632390679.5158, 63, 0, 4413.333, 3137.436, 4153.846, 4285.128, 4416.923, 0, 0, []
1632390679.5237, 64, 0, 4417.436, 3111.795, 4164.615, 4272.821, 4431.795, 450, 0, []
1632390679.5316, 65, 0, 4435.385, 3073.846, 4169.744, 4277.436, 4441.026, 450, 0, []
1632390679.5394, 66, 0, 4442.564, 3039.487, 4159.487, 4291.795, 4428.205, 16172, 0, []
1632390679.5473, 67, 0, 4438.462, 3011.795, 4161.026, 4306.667, 4413.333, 450, 0, []
1632390679.5551, 68, 0, 4433.846, 2985.128, 4163.077, 4312.821, 4414.872, 16170, 0, []
1632390679.5629, 69, 0, 4421.538, 2955.385, 4162.564, 4309.231, 4411.795, 450, 0, []
1632390679.5707, 70, 0, 4402.564, 2929.231, 4168.718, 4304.103, 4400.513, 16156, 0, []
1632390679.5786, 71, 0, 4385.641, 2899.487, 4176.923, 4300.513, 4392.308, 450, 0, []
1632390679.5864, 72, 0, 4363.077, 2860.513, 4174.359, 4292.308, 4373.333, 450, 0, []
1632390679.5943, 73, 0, 4339.487, 2826.154, 4157.949, 4283.077, 4347.692, 16144, 0, []
1632390679.602, 74, 0, 4330.256, 2812.308, 4159.487, 4288.718, 4339.487, 450, 0, []
1632390679.6099, 75, 0, 4317.436, 2803.59, 4166.154, 4293.333, 4332.308, 16178, 0, []
1632390679.6177, 76, 0, 4297.436, 2778.462, 4152.821, 4284.103, 4316.923, 450, 0, []
1632390679.6257, 77, 0, 4290.769, 2753.846, 4147.179, 4279.487, 4307.692, 450, 0, []
1632390679.6336, 78, 0, 4296.41, 2749.231, 4154.359, 4279.487, 4301.538, 450, 0, []
1632390679.6415, 79, 0, 4292.821, 2738.462, 4163.077, 4278.462, 4296.41, 16178, 0, []
1632390679.6494, 80, 0, 4278.462, 2708.718, 4158.974, 4273.846, 4291.282, 450, 0, []
1632390679.6574, 81, 0, 4276.923, 2698.974, 4142.564, 4262.564, 4281.026, 450, 0, []
1632390679.6653, 82, 0, 4285.128, 2714.359, 4143.59, 4264.103, 4273.846, 450, 0, []
1632390679.6733, 83, 0, 4276.923, 2714.872, 4146.667, 4273.846, 4265.128, 16178, 0, []
1632390679.6811, 84, 0, 4263.077, 2698.974, 4142.564, 4274.872, 4245.641, 450, 0, []
1632390679.6889, 85, 0, 4267.179, 2690.769, 4134.359, 4271.795, 4231.795, 450, 0, []
1632390679.6968, 86, 0, 4278.462, 2686.667, 4120.513, 4275.385, 4232.821, 450, 0, []
1632390679.7047, 87, 0, 4280, 2679.487, 4133.333, 4277.436, 4235.385, 16178, 0, []
1632390679.7126, 88, 0, 4266.667, 2670.256, 4141.026, 4262.564, 4228.718, 450, 0, []
1632390679.7203, 89, 0, 4245.641, 2654.872, 4123.59, 4241.538, 4221.026, 450, 0, []
1632390679.7282, 90, 0, 4237.949, 2649.231, 4126.667, 4234.872, 4226.154, 450, 0, []
1632390679.736, 91, 0, 4240.513, 2663.59, 4144.615, 4237.949, 4235.897, 16178, 0, []
1632390679.7439, 92, 0, 4241.538, 2668.205, 4146.154, 4241.538, 4237.436, 450, 0, []
1632390679.7517, 93, 0, 4238.462, 2641.538, 4136.923, 4246.154, 4234.359, 450, 0, []
1632390679.7596, 94, 0, 4234.872, 2624.103, 4136.923, 4249.231, 4231.795, 450, 0, []
1632390679.7675, 95, 0, 4235.897, 2644.103, 4138.974, 4253.333, 4228.718, 16178, 0, []
1632390679.7755, 96, 0, 4245.128, 2661.026, 4128.718, 4263.077, 4224.615, 450, 0, []
1632390679.7834, 97, 0, 4251.282, 2655.385, 4125.641, 4271.282, 4215.897, 450, 0, []
1632390679.7914, 98, 0, 4248.205, 2653.846, 4124.103, 4268.205, 4200.513, 450, 0, []
1632390679.7992, 99, 0, 4246.154, 2654.872, 4123.077, 4265.128, 4193.333, 16178, 0, []
1632390679.8072, 100, 0, 4240, 2651.795, 4132.308, 4257.949, 4204.103, 450, 0, []
1632390679.8151, 101, 0, 4221.538, 2655.385, 4130.256, 4238.462, 4215.385, 450, 0, []
1632390679.8231, 102, 0, 4216.923, 2657.436, 4136.41, 4236.41, 4221.538, 450, 0, []
1632390679.831, 103, 0, 4226.154, 2657.436, 4157.949, 4264.615, 4233.333, 16178, 0, []
1632390679.8389, 104, 0, 4223.077, 2655.385, 4156.923, 4276.923, 4236.923, 450, 0, []
1632390679.8468, 105, 0, 4215.897, 2641.538, 4136.923, 4260, 4225.641, 450, 0, []
1632390679.8546, 106, 0, 4226.154, 2645.641, 4117.949, 4250.769, 4218.974, 450, 0, []
1632390679.8625, 107, 0, 4240.513, 2677.949, 4117.436, 4257.436, 4215.897, 16178, 0, []
1632390679.8703, 108, 0, 4240.513, 2692.308, 4117.436, 4265.641, 4203.59, 450, 0, []
1632390679.8781, 109, 0, 4230.769, 2665.128, 4106.667, 4268.718, 4190.256, 450, 0, []
1632390679.8859, 110, 0, 4219.487, 2649.231, 4105.128, 4258.974, 4188.205, 450, 0, []
1632390679.8938, 111, 0, 4211.282, 2676.41, 4113.333, 4236.923, 4197.436, 16178, 0, []
1632390679.9016, 112, 0, 4201.538, 2693.846, 4124.103, 4234.872, 4201.026, 450, 0, []
1632390679.9096, 113, 0, 4194.359, 2668.718, 4126.667, 4247.692, 4199.487, 450, 0, []
1632390679.9174, 114, 0, 4209.744, 2652.308, 4113.846, 4241.538, 4204.615, 450, 0, []
1632390679.9253, 115, 0, 4220, 2668.205, 4096.923, 4231.282, 4205.128, 16178, 0, []
1632390679.9331, 116, 0, 4214.359, 2687.179, 4083.077, 4236.41, 4193.846, 450, 0, []
1632390679.9411, 117, 0, 4226.154, 2695.897, 4090.769, 4251.282, 4183.59, 450, 0, []
1632390679.949, 118, 0, 4238.462, 2702.564, 4109.744, 4257.436, 4189.231, 450, 0, []
1632390679.9569, 119, 0, 4228.718, 2710.256, 4119.487, 4250.256, 4210.256, 16178, 0, []
1632390679.9648, 120, 0, 4220.513, 2718.462, 4137.436, 4243.59, 4224.103, 450, 0, []
1632390679.9728, 121, 0, 4215.385, 2727.179, 4145.641, 4237.949, 4209.744, 450, 0, []
1632390679.9807, 122, 0, 4198.974, 2735.385, 4128.205, 4228.718, 4187.692, 450, 0, []
1632390679.9887, 123, 0, 4193.846, 2728.718, 4114.872, 4231.795, 4186.154, 16178, 0, []
1632390679.9965, 124, 0, 4210.769, 2723.59, 4119.487, 4245.641, 4196.923, 450, 0, []
1632390680.0043, 125, 0, 4234.872, 2752.821, 4131.795, 4254.872, 4206.154, 450, 0, []
1632390680.0122, 126, 0, 4242.051, 2768.205, 4115.897, 4258.974, 4203.59, 450, 0, []
1632390680.02, 127, 0, 4237.949, 2744.103, 4103.077, 4262.564, 4193.333, 16178, 0, []
1632390680.0279, 128, 0, 4244.103, 2750.769, 4129.744, 4258.974, 4199.487, 450, 0, []
1632390680.0356, 0, 0, 4243.077, 2786.667, 4146.667, 4240.513, 4211.795, 450, 0, []
1632390680.0435, 1, 0, 4227.179, 2801.538, 4148.205, 4220.513, 4211.795, 450, 0, []
1632390680.0513, 2, 0, 4204.103, 2772.821, 4141.026, 4213.846, 4205.128, 16192, 0, []
1632390680.0592, 3, 0, 4193.333, 2783.59, 4129.744, 4238.462, 4199.487, 450, 0, []
1632390680.067, 4, 0, 4204.103, 2933.846, 4132.821, 4271.282, 4199.487, 16197, 0, []
1632390680.0749, 5, 0, 4215.385, 3150.769, 4129.231, 4271.282, 4199.487, 450, 0, []
1632390680.0826, 6, 0, 4214.359, 3343.077, 4116.41, 4257.949, 4190.769, 16134, 0, []
1632390680.0906, 7, 0, 4211.795, 3490.769, 4106.154, 4251.282, 4173.846, 450, 0, []
1632390680.0985, 8, 0, 4218.974, 3475.897, 4104.615, 4235.385, 4164.615, 450, 0, []
1632390680.1065, 9, 0, 4226.667, 3273.333, 4114.359, 4211.282, 4172.308, 16156, 0, []
1632390680.1144, 10, 0, 4220.513, 3130.256, 4114.359, 4188.205, 4182.564, 450, 0, []
1632390680.1223, 11, 0, 4200, 3112.308, 4118.974, 4185.128, 4185.641, 16177, 0, []
1632390680.1302, 12, 0, 4186.154, 3099.487, 4126.667, 4215.897, 4187.179, 450, 0, []
1632390680.1382, 13, 0, 4178.974, 3231.795, 4120.513, 4246.667, 4183.59, 450, 0, []
1632390680.1461, 14, 0, 4171.282, 3427.179, 4110.256, 4254.359, 4174.872, 450, 0, []
1632390680.1541, 15, 0, 4176.923, 3470.256, 4097.436, 4245.641, 4171.795, 16177, 0, []
1632390680.1619, 16, 0, 4180, 3642.051, 4088.205, 4235.897, 4166.154, 0, 0, []
1632390680.1698, 17, 0, 4171.795, 4285.641, 4094.359, 4246.667, 4151.795, 0, 0, []
1632390680.1777, 18, 0, 4184.103, 5123.077, 4109.231, 4265.128, 4155.897, 0, 0, []
1632390680.1855, 19, 0, 4192.308, 5689.744, 4117.949, 4270.256, 4173.846, 0, 0, []
1632390680.1934, 20, 0, 4166.667, 6009.744, 4112.821, 4271.795, 4168.205, 0, 0, []
1632390680.2011, 21, 0, 4157.949, 6294.359, 4123.077, 4274.359, 4157.436, 0, 0, []
1632390680.209, 22, 0, 4182.051, 6530.769, 4137.436, 4262.564, 4171.282, 0, 0, []
1632390680.2168, 23, 0, 4198.974, 6625.128, 4124.103, 4255.897, 4172.308, 0, 0, []
1632390680.2247, 24, 0, 4203.077, 6675.897, 4113.846, 4268.205, 4154.359, 0, 0, []
1632390680.2325, 25, 0, 4204.103, 6798.462, 4109.744, 4264.615, 4162.051, 0, 0, []
1632390680.2404, 26, 0, 4192.821, 6863.59, 4112.821, 4253.333, 4180.513, 0, 0, []
1632390680.2483, 27, 0, 4158.974, 6881.538, 4126.154, 4255.897, 4162.051, 0, 0, []
1632390680.2563, 28, 0, 4132.821, 7076.41, 4114.872, 4243.59, 4130.769, 0, 0, []
1632390680.2642, 29, 0, 4142.051, 7063.59, 4093.846, 4224.615, 4122.564, 0, 0, []
1632390680.2722, 30, 0, 4154.872, 6543.59, 4084.615, 4228.718, 4106.154, 0, 0, []
1632390680.28, 31, 0, 4143.59, 6354.872, 4083.077, 4241.026, 4079.487, 0, 0, []
1632390680.288, 32, 0, 4132.821, 6787.179, 4080, 4243.077, 4083.59, 0, 0, []
1632390680.2959, 33, 0, 4142.564, 7038.974, 4077.949, 4244.615, 4113.846, 0, 0, []
1632390680.3039, 34, 0, 4144.103, 7027.179, 4095.385, 4255.897, 4128.205, 0, 0, []
1632390680.3118, 35, 0, 4122.051, 7168.205, 4101.026, 4251.282, 4113.846, 0, 0, []
1632390680.3195, 36, 0, 4116.923, 7285.128, 4097.949, 4232.308, 4104.103, 0, 0, []
1632390680.3274, 37, 0, 4144.103, 7310.769, 4109.231, 4235.897, 4108.718, 0, 0, []
1632390680.3352, 38, 0, 4154.359, 7312.308, 4095.897, 4253.333, 4100.513, 0, 0, []
1632390680.3431, 39, 0, 4140.513, 7099.487, 4078.462, 4253.846, 4091.795, 0, 0, []
1632390680.3509, 40, 0, 4141.538, 7128.205, 4105.128, 4254.872, 4112.821, 0, 0, []
1632390680.3587, 41, 0, 4147.692, 7416.923, 4131.795, 4267.179, 4131.795, 0, 0, []
1632390680.3665, 42, 0, 4137.949, 6858.974, 4116.923, 4261.026, 4123.077, 0, 0, []
1632390680.3744, 43, 0, 4129.744, 5555.897, 4098.974, 4244.103, 4117.436, 0, 0, []
1632390680.3822, 44, 0, 4132.308, 4811.282, 4112.821, 4240, 4123.59, 0, 0, []
1632390680.3901, 45, 0, 4129.744, 4697.949, 4118.462, 4241.026, 4124.103, 0, 0, []
1632390680.3978, 46, 0, 4122.051, 4455.897, 4113.333, 4243.077, 4122.564, 0, 0, []
1632390680.4058, 47, 0, 4121.026, 4185.128, 4123.077, 4248.205, 4121.026, 0, 0, []
1632390680.4137, 48, 0, 4124.103, 4129.744, 4124.615, 4250.256, 4118.974, 0, 0, []
1632390680.4217, 49, 0, 4124.615, 4047.692, 4127.179, 4251.795, 4130.769, 0, 0, []
1632390680.4296, 50, 0, 4124.103, 3928.205, 4130.769, 4254.872, 4146.667, 0, 0, []
1632390680.4375, 51, 0, 4141.026, 3846.154, 4129.744, 4258.974, 4153.333, 0, 0, []
1632390680.4454, 52, 0, 4165.128, 3778.974, 4138.974, 4265.641, 4166.667, 0, 0, []
1632390680.4534, 53, 0, 4159.487, 3717.949, 4126.667, 4260.513, 4168.205, 0, 0, []
1632390680.4613, 54, 0, 4141.538, 3652.821, 4102.051, 4251.282, 4135.897, 0, 0, []
1632390680.4692, 55, 0, 4144.103, 3597.436, 4095.897, 4252.308, 4115.897, 0, 0, []
1632390680.477, 56, 0, 4157.949, 3538.462, 4097.949, 4246.667, 4138.974, 0, 0, []
1632390680.4848, 57, 0, 4158.462, 3488.205, 4106.154, 4237.949, 4160.513, 0, 0, []
1632390680.4927, 58, 0, 4148.205, 3459.487, 4105.641, 4235.897, 4154.359, 0, 0, []
1632390680.5005, 59, 0, 4138.974, 3431.282, 4107.692, 4245.641, 4153.333, 0, 0, []
1632390680.5084, 60, 0, 4137.436, 3376.923, 4118.462, 4261.026, 4157.949, 0, 0, []
1632390680.5161, 61, 0, 4140, 3321.026, 4104.103, 4252.821, 4146.667, 0, 0, []
1632390680.524, 62, 0, 4139.487, 3304.615, 4082.051, 4234.872, 4135.385, 0, 0, []
1632390680.5318, 63, 0, 4146.154, 3308.205, 4073.846, 4242.564, 4133.846, 0, 0, []
1632390680.5397, 64, 0, 4160, 3278.462, 4074.872, 4256.41, 4125.128, 450, 0, []
1632390680.5475, 65, 0, 4170.256, 3238.974, 4085.641, 4255.897, 4128.205, 450, 0, []
1632390680.5554, 66, 0, 4178.462, 3220.513, 4103.077, 4248.718, 4161.538, 16151, 0, []
1632390680.5633, 67, 0, 4173.846, 3196.41, 4116.41, 4243.077, 4180.513, 450, 0, []
1632390680.5713, 68, 0, 4145.641, 3169.744, 4104.103, 4237.436, 4159.487, 16104, 0, []
1632390680.5792, 69, 0, 4132.821, 3152.821, 4095.897, 4243.59, 4150.256, 450, 0, []
1632390680.5872, 70, 0, 4148.718, 3121.026, 4103.077, 4255.385, 4168.205, 16188, 0, []
