Timestamp, COUNTER, INTERPOLATED, AF3, T7, Pz, T8, AF4, RAW_CQ, MARKER_HARDWARE, MARKERS
1632651318.0687, 17, 0, 4344.615, 5325.641, 4208.718, 4313.846, 4356.41, 0, 0, []
1632651318.0766, 18, 0, 4353.846, 5213.333, 4202.051, 4331.282, 4348.205, 0, 0, []
1632651318.0846, 19, 0, 4372.308, 5221.538, 4211.795, 4353.333, 4363.077, 0, 0, []
1632651318.0925, 20, 0, 4365.128, 5219.487, 4242.564, 4349.231, 4389.231, 0, 0, []
1632651318.1005, 21, 0, 4378.974, 5262.564, 4257.436, 4360.513, 4388.205, 0, 0, []
1632651318.1084, 22, 0, 4404.615, 5341.026, 4225.128, 4373.333, 4370.256, 0, 0, []
1632651318.1161, 23, 0, 4394.872, 5279.487, 4260.513, 4363.59, 4379.487, 0, 0, []
1632651318.124, 24, 0, 4373.333, 5209.231, 4262.051, 4341.026, 4389.231, 0, 0, []
1632651318.1318, 25, 0, 4369.744, 5333.333, 4217.436, 4336.41, 4357.436, 0, 0, []
1632651318.1397, 26, 0, 4363.59, 5501.538, 4218.974, 4337.949, 4335.897, 0, 0, []
1632651318.1475, 27, 0, 4352.308, 5491.795, 4204.103, 4327.692, 4348.205, 0, 0, []
1632651318.1553, 28, 0, 4361.538, 5230.256, 4224.615, 4344.103, 4349.744, 0, 0, []
1632651318.1631, 29, 0, 4367.692, 4984.615, 4224.103, 4346.667, 4333.846, 0, 0, []
1632651318.171, 30, 0, 4358.462, 5010.256, 4227.692, 4330.256, 4342.564, 0, 0, []
1632651318.1788, 31, 0, 4371.795, 5123.59, 4267.692, 4354.872, 4372.821, 0, 0, []
1632651318.1867, 32, 0, 4388.718, 5089.744, 4225.641, 4364.615, 4364.615, 0, 0, []
1632651318.1945, 33, 0, 4380.513, 5045.641, 4241.026, 4343.077, 4354.359, 0, 0, []
1632651318.2024, 34, 0, 4367.692, 5094.872, 4270.256, 4353.333, 4369.744, 0, 0, []
1632651318.2103, 35, 0, 4369.744, 5152.308, 4234.872, 4373.333, 4354.359, 0, 0, []
1632651318.2183, 36, 0, 4378.974, 5264.615, 4251.795, 4369.744, 4340, 0, 0, []
1632651318.2262, 37, 0, 4371.282, 5367.179, 4245.128, 4364.103, 4348.718, 0, 0, []
1632651318.2342, 38, 0, 4375.385, 5520, 4253.333, 4382.051, 4357.949, 0, 0, []
1632651318.242, 39, 0, 4403.59, 5594.359, 4262.051, 4399.487, 4363.077, 0, 0, []
1632651318.25, 40, 0, 4402.051, 5136.923, 4242.564, 4386.154, 4362.051, 0, 0, []
1632651318.2579, 41, 0, 4381.026, 4449.744, 4268.718, 4373.333, 4364.615, 0, 0, []
1632651318.2659, 42, 0, 4387.179, 4224.103, 4250.769, 4368.718, 4363.077, 0, 0, []
1632651318.2738, 43, 0, 4403.59, 4248.205, 4243.077, 4360.513, 4365.128, 0, 0, []
1632651318.2816, 44, 0, 4402.564, 4117.949, 4244.103, 4362.564, 4363.59, 0, 0, []
1632651318.2894, 45, 0, 4384.103, 4171.795, 4216.923, 4365.128, 4344.615, 0, 0, []
1632651318.2974, 46, 0, 4374.872, 4561.538, 4251.282, 4370.256, 4352.821, 0, 0, []
1632651318.3053, 47, 0, 4384.615, 4987.179, 4238.462, 4380, 4371.795, 0, 0, []
1632651318.3131, 48, 0, 4391.795, 5230.256, 4215.385, 4381.538, 4356.41, 0, 0, []
1632651318.321, 49, 0, 4373.333, 5226.667, 4238.974, 4361.026, 4339.487, 0, 0, []
1632651318.3287, 50, 0, 4350.769, 5188.718, 4218.462, 4339.487, 4335.385, 0, 0, []
1632651318.3367, 51, 0, 4367.692, 5270.256, 4224.103, 4351.795, 4327.692, 0, 0, []
1632651318.3446, 52, 0, 4370.769, 5299.487, 4237.436, 4358.974, 4320.513, 0, 0, []
1632651318.3526, 53, 0, 4342.051, 5211.282, 4230.256, 4347.179, 4319.487, 0, 0, []
1632651318.3605, 54, 0, 4342.564, 5285.128, 4214.872, 4337.436, 4303.077, 0, 0, []
1632651318.3685, 55, 0, 4344.615, 5308.718, 4194.359, 4326.667, 4281.026, 0, 0, []
1632651318.3763, 56, 0, 4321.538, 4927.692, 4225.641, 4329.744, 4282.051, 0, 0, []
1632651318.3843, 57, 0, 4315.897, 4609.231, 4210.256, 4321.538, 4286.667, 0, 0, []
1632651318.3922, 58, 0, 4337.949, 4726.154, 4202.051, 4307.692, 4292.308, 0, 0, []
1632651318.4002, 59, 0, 4353.333, 4896.923, 4235.897, 4335.385, 4300.513, 0, 0, []
1632651318.4081, 60, 0, 4342.051, 4894.872, 4202.564, 4347.692, 4287.179, 0, 0, []
1632651318.416, 61, 0, 4322.051, 4910.769, 4204.103, 4317.949, 4279.487, 0, 0, []
1632651318.4239, 62, 0, 4312.821, 5051.795, 4187.692, 4305.641, 4274.359, 0, 0, []
1632651318.4317, 63, 0, 4317.949, 5192.308, 4158.974, 4318.462, 4261.026, 0, 0, []
1632651318.4396, 64, 0, 4323.077, 5044.615, 4195.897, 4328.718, 4278.462, 450, 0, []
1632651318.4474, 65, 0, 4321.026, 4606.667, 4190.256, 4327.179, 4289.231, 450, 0, []
1632651318.4553, 66, 0, 4323.077, 4372.821, 4214.359, 4334.872, 4274.359, 16193, 0, []
1632651318.463, 67, 0, 4312.821, 4465.128, 4218.462, 4335.897, 4263.59, 450, 0, []
1632651318.4709, 68, 0, 4282.564, 4517.436, 4166.154, 4312.308, 4248.205, 16111, 0, []
1632651318.4787, 69, 0, 4262.564, 4503.077, 4167.692, 4291.282, 4230.256, 450, 0, []
1632651318.4866, 70, 0, 4266.667, 4684.615, 4166.667, 4289.744, 4228.718, 16109, 0, []
1632651318.4944, 71, 0, 4288.718, 4934.359, 4186.667, 4308.205, 4241.026, 450, 0, []
1632651318.5022, 72, 0, 4301.538, 5044.103, 4197.949, 4315.897, 4243.077, 450, 0, []
1632651318.51, 73, 0, 4287.692, 5130.769, 4170.769, 4298.974, 4236.923, 16144, 0, []
1632651318.518, 74, 0, 4275.897, 5050.769, 4170.769, 4278.462, 4236.41, 450, 0, []
1632651318.5259, 75, 0, 4276.41, 4669.231, 4142.051, 4269.231, 4231.282, 16185, 0, []
1632651318.5339, 76, 0, 4289.744, 4366.154, 4150.769, 4288.718, 4237.436, 450, 0, []
1632651318.5418, 77, 0, 4294.359, 4218.462, 4180, 4303.077, 4248.205, 450, 0, []
1632651318.5497, 78, 0, 4274.872, 3944.615, 4161.538, 4291.282, 4226.667, 450, 0, []
1632651318.5576, 79, 0, 4264.103, 3706.667, 4176.41, 4282.051, 4209.231, 16185, 0, []
1632651318.5656, 80, 0, 4260.513, 3674.359, 4153.846, 4267.179, 4213.846, 450, 0, []
1632651318.5735, 81, 0, 4260.513, 3654.872, 4144.615, 4256.923, 4214.872, 450, 0, []
1632651318.5813, 82, 0, 4270.769, 3623.077, 4162.051, 4264.103, 4218.974, 450, 0, []
1632651318.5892, 83, 0, 4253.846, 3573.846, 4127.179, 4252.308, 4208.718, 16185, 0, []
1632651318.5969, 84, 0, 4222.564, 3629.744, 4132.821, 4236.923, 4175.385, 450, 0, []
1632651318.6048, 85, 0, 4203.59, 4024.103, 4106.667, 4224.615, 4149.231, 450, 0, []
1632651318.6126, 86, 0, 4209.231, 4367.692, 4100.513, 4221.026, 4157.436, 450, 0, []
1632651318.6205, 87, 0, 4218.462, 4399.487, 4134.359, 4235.897, 4169.231, 16185, 0, []
1632651318.6283, 88, 0, 4207.179, 4439.487, 4098.462, 4232.308, 4156.41, 450, 0, []
1632651318.6361, 89, 0, 4208.718, 4539.487, 4113.333, 4232.821, 4157.949, 450, 0, []
1632651318.6439, 90, 0, 4224.103, 4607.692, 4127.179, 4243.077, 4166.667, 450, 0, []
1632651318.6519, 91, 0, 4227.179, 4734.359, 4116.41, 4238.974, 4163.077, 16185, 0, []
1632651318.6598, 92, 0, 4222.564, 4797.436, 4130.256, 4235.385, 4162.051, 450, 0, []
1632651318.6678, 93, 0, 4214.359, 4638.462, 4106.667, 4235.897, 4152.308, 450, 0, []
1632651318.6757, 94, 0, 4224.615, 4508.718, 4118.462, 4243.59, 4162.564, 450, 0, []
1632651318.6836, 95, 0, 4233.333, 4518.974, 4122.564, 4251.795, 4191.795, 16185, 0, []
1632651318.6915, 96, 0, 4214.872, 4476.923, 4107.179, 4250.769, 4186.154, 450, 0, []
1632651318.6995, 97, 0, 4207.692, 4458.462, 4129.744, 4244.615, 4172.308, 450, 0, []
1632651318.7074, 98, 0, 4217.436, 4524.103, 4125.641, 4243.077, 4172.821, 450, 0, []
1632651318.7154, 99, 0, 4209.231, 4548.718, 4132.308, 4249.231, 4164.615, 16185, 0, []
1632651318.7232, 100, 0, 4196.41, 4486.667, 4117.949, 4236.41, 4149.231, 450, 0, []
1632651318.731, 101, 0, 4208.205, 4459.487, 4103.077, 4223.077, 4147.179, 450, 0, []
1632651318.7389, 102, 0, 4214.359, 4587.179, 4130.256, 4233.846, 4157.949, 450, 0, []
1632651318.7467, 103, 0, 4186.667, 4731.282, 4082.051, 4224.615, 4138.462, 16185, 0, []
1632651318.7546, 104, 0, 4163.077, 4823.59, 4072.821, 4205.641, 4112.308, 450, 0, []
1632651318.7624, 105, 0, 4157.949, 4785.641, 4086.667, 4209.231, 4109.231, 450, 0, []
1632651318.7702, 106, 0, 4162.564, 4467.692, 4057.949, 4208.205, 4112.821, 450, 0, []
1632651318.778, 107, 0, 4185.641, 4287.179, 4096.41, 4215.385, 4126.667, 16185, 0, []
1632651318.7859, 108, 0, 4202.051, 4548.205, 4111.282, 4237.949, 4140.513, 450, 0, []
1632651318.7937, 109, 0, 4187.692, 4569.744, 4120, 4245.641, 4137.436, 450, 0, []
1632651318.8016, 110, 0, 4169.744, 4130.256, 4136.923, 4238.462, 4128.205, 450, 0, []
1632651318.8093, 111, 0, 4163.077, 3981.538, 4119.487, 4224.103, 4126.154, 16185, 0, []
1632651318.8172, 112, 0, 4158.462, 4227.179, 4122.051, 4205.128, 4123.59, 450, 0, []
1632651318.825, 113, 0, 4139.487, 4338.462, 4077.949, 4185.641, 4105.641, 450, 0, []
1632651318.833, 114, 0, 4133.333, 4286.667, 4072.821, 4186.154, 4100, 450, 0, []
1632651318.8409, 115, 0, 4150.256, 4203.59, 4108.205, 4205.641, 4108.205, 16185, 0, []
1632651318.8489, 116, 0, 4138.974, 4145.641, 4080.513, 4202.051, 4096.923, 450, 0, []
1632651318.8567, 117, 0, 4128.718, 4256.41, 4083.077, 4192.308, 4092.308, 450, 0, []
1632651318.8647, 118, 0, 4150.769, 4491.282, 4077.949, 4194.872, 4110.256, 450, 0, []
1632651318.8726, 119, 0, 4158.974, 4665.641, 4084.615, 4203.59, 4115.385, 16185, 0, []
1632651318.8806, 120, 0, 4129.744, 4682.564, 4103.59, 4210.256, 4102.051, 450, 0, []
1632651318.8885, 121, 0, 4107.179, 4664.103, 4069.744, 4201.538, 4086.667, 450, 0, []
1632651318.8963, 122, 0, 4128.718, 4789.231, 4087.692, 4215.385, 4089.231, 450, 0, []
1632651318.9042, 123, 0, 4137.949, 4884.615, 4090.769, 4223.59, 4091.795, 16185, 0, []
1632651318.912, 124, 0, 4130.256, 4658.974, 4080.513, 4217.436, 4088.205, 450, 0, []
1632651318.92, 125, 0, 4129.744, 4233.333, 4095.897, 4219.487, 4100.513, 450, 0, []
1632651318.9279, 126, 0, 4115.897, 4001.026, 4064.615, 4199.487, 4096.923, 450, 0, []
1632651318.9358, 127, 0, 4116.923, 4187.179, 4085.128, 4197.949, 4086.667, 16185, 0, []
1632651318.9435, 128, 0, 4138.462, 4589.744, 4098.974, 4225.641, 4092.308, 450, 0, []
1632651318.9514, 0, 0, 4143.077, 4567.692, 4089.231, 4227.692, 4093.846, 450, 0, []
1632651318.9592, 1, 0, 4135.385, 4067.179, 4108.205, 4206.667, 4102.564, 450, 0, []
1632651318.9671, 2, 0, 4124.103, 3953.333, 4069.744, 4181.026, 4094.872, 16207, 0, []
1632651318.9749, 3, 0, 4112.821, 4258.462, 4064.103, 4168.718, 4066.667, 450, 0, []
1632651318.9828, 4, 0, 4117.949, 4276.923, 4078.974, 4177.436, 4064.103, 16141, 0, []
1632651318.9907, 5, 0, 4136.41, 4333.846, 4075.897, 4193.846, 4086.667, 450, 0, []
1632651318.9987, 6, 0, 4125.128, 4732.821, 4081.538, 4185.641, 4081.538, 16097, 0, []
1632651319.0066, 7, 0, 4085.128, 4629.744, 4041.026, 4145.641, 4046.154, 450, 0, []
1632651319.0146, 8, 0, 4083.077, 3995.897, 4060, 4140.513, 4044.103, 450, 0, []
1632651319.0225, 9, 0, 4113.333, 4008.205, 4078.974, 4168.718, 4076.923, 16152, 0, []
1632651319.0304, 10, 0, 4116.923, 4557.949, 4046.154, 4165.641, 4089.744, 450, 0, []
1632651319.0383, 11, 0, 4106.667, 4471.282, 4065.128, 4164.103, 4073.333, 16185, 0, []
1632651319.0461, 12, 0, 4102.564, 3973.333, 4046.154, 4175.897, 4051.795, 450, 0, []
1632651319.054, 13, 0, 4084.103, 3863.59, 4031.795, 4160, 4043.59, 450, 0, []
1632651319.0618, 14, 0, 4066.667, 3916.41, 4036.923, 4147.179, 4032.821, 450, 0, []
1632651319.0696, 15, 0, 4074.872, 3892.821, 4035.385, 4167.692, 4035.897, 16185, 0, []
1632651319.0776, 16, 0, 4094.359, 4035.385, 4083.077, 4188.205, 4069.231, 0, 0, []
1632651319.0855, 17, 0, 4113.846, 4191.795, 4077.949, 4204.103, 4089.744, 0, 0, []
1632651319.0933, 18, 0, 4133.846, 4177.949, 4092.308, 4222.564, 4101.538, 0, 0, []
1632651319.1012, 19, 0, 4146.154, 4267.179, 4134.872, 4228.205, 4125.641, 0, 0, []
1632651319.109, 20, 0, 4170.256, 4527.179, 4133.846, 4254.872, 4150.256, 0, 0, []
1632651319.1168, 21, 0, 4215.897, 4586.667, 4183.077, 4314.359, 4193.846, 0, 0, []
1632651319.1246, 22, 0, 4256.41, 4527.692, 4202.051, 4338.462, 4237.436, 0, 0, []
1632651319.1326, 23, 0, 4301.026, 4701.538, 4232.308, 4364.615, 4274.872, 0, 0, []
1632651319.1405, 24, 0, 4341.026, 4731.795, 4284.615, 4418.462, 4310.769, 0, 0, []
1632651319.1485, 25, 0, 4357.436, 4375.897, 4266.667, 4428.718, 4329.231, 0, 0, []
1632651319.1563, 26, 0, 4380, 4077.949, 4304.103, 4436.923, 4362.564, 0, 0, []
1632651319.1643, 27, 0, 4388.205, 4074.872, 4321.026, 4461.538, 4375.385, 0, 0, []
1632651319.1722, 28, 0, 4370.769, 4411.795, 4305.128, 4456.41, 4348.718, 0, 0, []
1632651319.1802, 29, 0, 4365.641, 4826.667, 4334.359, 4444.103, 4358.462, 0, 0, []
1632651319.1881, 30, 0, 4367.179, 4556.41, 4321.026, 4447.692, 4370.256, 0, 0, []
1632651319.1959, 31, 0, 4364.103, 3780.513, 4316.923, 4447.692, 4343.077, 0, 0, []
1632651319.2037, 32, 0, 4366.154, 3694.872, 4307.179, 4423.59, 4337.949, 0, 0, []
1632651319.2115, 33, 0, 4381.538, 4196.923, 4305.128, 4431.795, 4358.974, 0, 0, []
1632651319.2194, 34, 0, 4381.538, 4376.923, 4331.795, 4470.769, 4360.513, 0, 0, []
1632651319.2272, 35, 0, 4363.077, 4229.744, 4305.641, 4468.718, 4360.513, 0, 0, []
1632651319.2351, 36, 0, 4377.436, 4183.59, 4313.846, 4455.385, 4370.256, 0, 0, []
1632651319.2428, 37, 0, 4373.846, 4436.41, 4298.462, 4432.821, 4340.513, 0, 0, []
1632651319.2507, 38, 0, 4305.128, 4716.41, 4245.641, 4386.154, 4276.41, 0, 0, []
1632651319.2585, 39, 0, 4253.333, 4655.385, 4233.846, 4352.308, 4241.026, 0, 0, []
1632651319.2664, 40, 0, 4254.359, 4547.692, 4195.897, 4328.205, 4230.769, 0, 0, []
1632651319.2742, 41, 0, 4254.872, 4605.128, 4204.615, 4316.41, 4226.667, 0, 0, []
1632651319.2821, 42, 0, 4231.282, 4333.333, 4191.795, 4320.513, 4213.846, 0, 0, []
1632651319.2898, 43, 0, 4200.513, 3936.923, 4144.615, 4312.821, 4191.282, 0, 0, []
1632651319.2978, 44, 0, 4190.256, 4165.641, 4170.769, 4300, 4176.41, 0, 0, []
1632651319.3057, 45, 0, 4182.564, 4487.692, 4145.641, 4281.538, 4151.282, 0, 0, []
1632651319.3137, 46, 0, 4156.41, 4300.513, 4127.179, 4254.872, 4128.718, 0, 0, []
1632651319.3216, 47, 0, 4144.615, 4153.333, 4138.974, 4248.205, 4122.051, 0, 0, []
1632651319.3295, 48, 0, 4138.462, 4257.949, 4124.103, 4233.333, 4110.256, 0, 0, []
1632651319.3374, 49, 0, 4125.128, 4247.179, 4140, 4209.744, 4107.179, 0, 0, []
1632651319.3454, 50, 0, 4121.026, 4210.769, 4114.872, 4205.641, 4105.641, 0, 0, []
1632651319.3533, 51, 0, 4129.744, 4303.59, 4114.872, 4215.385, 4102.051, 0, 0, []
1632651319.3611, 52, 0, 4136.41, 4395.385, 4137.949, 4223.59, 4103.59, 0, 0, []
1632651319.369, 53, 0, 4113.333, 4460, 4093.846, 4201.538, 4090.769, 0, 0, []
1632651319.3767, 54, 0, 4089.744, 4425.128, 4076.41, 4158.974, 4068.718, 0, 0, []
1632651319.3846, 55, 0, 4079.487, 4115.385, 4052.821, 4128.718, 4041.026, 0, 0, []
1632651319.3924, 56, 0, 4076.41, 3739.487, 4048.718, 4137.436, 4032.308, 0, 0, []
1632651319.4003, 57, 0, 4085.641, 3857.949, 4072.308, 4160.513, 4060.513, 0, 0, []
1632651319.4081, 58, 0, 4101.538, 4276.923, 4048.205, 4175.385, 4066.667, 0, 0, []
1632651319.4159, 59, 0, 4106.667, 4224.103, 4064.103, 4193.846, 4056.41, 0, 0, []
1632651319.4237, 60, 0, 4096.41, 3920.513, 4067.692, 4174.872, 4068.718, 0, 0, []
1632651319.4316, 61, 0, 4112.821, 4046.667, 4065.128, 4159.487, 4091.282, 0, 0, []
1632651319.4394, 62, 0, 4144.103, 4367.179, 4090.256, 4190.256, 4103.59, 0, 0, []
1632651319.4474, 63, 0, 4143.077, 4497.949, 4068.205, 4182.051, 4081.538, 0, 0, []
1632651319.4553, 64, 0, 4126.667, 4554.359, 4060, 4134.359, 4060.513, 450, 0, []
1632651319.4632, 65, 0, 4108.718, 4584.615, 4029.744, 4114.359, 4060, 450, 0, []
1632651319.4711, 66, 0, 4096.41, 4633.846, 4021.538, 4129.744, 4044.615, 16166, 0, []
1632651319.4791, 67, 0, 4083.077, 4653.846, 4035.385, 4140, 4017.436, 450, 0, []
1632651319.487, 68, 0, 4043.59, 4231.282, 3974.872, 4110.256, 4007.692, 16135, 0, []
1632651319.495, 69, 0, 4023.077, 3600.513, 3989.231, 4078.462, 4008.718, 450, 0, []
1632651319.5028, 70, 0, 4042.564, 3434.359, 4001.538, 4084.615, 3995.385, 16089, 0, []
1632651319.5108, 71, 0, 4045.128, 3630.769, 3972.821, 4099.487, 3985.641, 450, 0, []
1632651319.5187, 72, 0, 4027.692, 3819.487, 3999.487, 4083.59, 3989.231, 450, 0, []
1632651319.5265, 73, 0, 4022.051, 4039.487, 3985.641, 4055.385, 3981.026, 16118, 0, []
1632651319.5344, 74, 0, 4036.923, 4129.744, 3993.846, 4067.179, 3975.385, 450, 0, []
1632651319.5422, 75, 0, 4040.513, 3820, 3986.667, 4085.128, 3979.487, 16190, 0, []
1632651319.55, 76, 0, 4009.231, 3649.231, 3946.667, 4052.821, 3982.051, 450, 0, []
1632651319.5578, 77, 0, 3998.462, 4041.538, 3966.667, 4035.385, 3986.667, 450, 0, []
1632651319.5657, 78, 0, 4022.051, 4363.59, 3957.949, 4066.667, 3972.821, 450, 0, []
1632651319.5735, 79, 0, 4017.436, 4303.077, 3952.821, 4090.256, 3948.718, 16190, 0, []
1632651319.5814, 80, 0, 3986.667, 4254.359, 3956.41, 4071.282, 3947.692, 450, 0, []
1632651319.5891, 81, 0, 3985.128, 4092.308, 3950.256, 4045.128, 3959.487, 450, 0, []
1632651319.5971, 82, 0, 4004.103, 3717.949, 3990.256, 4052.308, 3963.59, 450, 0, []
1632651319.605, 83, 0, 3998.462, 3623.077, 3975.385, 4061.538, 3954.872, 16190, 0, []
1632651319.613, 84, 0, 3994.872, 3735.385, 3972.308, 4075.897, 3960.513, 450, 0, []
1632651319.6209, 85, 0, 3993.846, 3728.205, 3993.333, 4087.692, 3972.308, 450, 0, []
1632651319.6289, 86, 0, 3974.872, 3792.308, 3967.692, 4068.205, 3960, 450, 0, []
1632651319.6367, 87, 0, 3984.615, 4031.282, 3984.103, 4063.59, 3956.41, 16190, 0, []
1632651319.6447, 88, 0, 4006.154, 4285.128, 3973.846, 4081.026, 3956.41, 450, 0, []
1632651319.6526, 89, 0, 3981.026, 4375.385, 3943.077, 4069.744, 3940, 450, 0, []
1632651319.6606, 90, 0, 3939.487, 4344.615, 3928.205, 4037.436, 3926.667, 450, 0, []
1632651319.6685, 91, 0, 3942.564, 4486.154, 3908.205, 4033.846, 3917.949, 16190, 0, []
1632651319.6763, 92, 0, 3978.974, 4482.051, 3949.231, 4057.949, 3918.462, 450, 0, []
1632651319.6841, 93, 0, 3987.692, 3918.462, 3947.179, 4046.154, 3925.128, 450, 0, []
1632651319.6919, 94, 0, 3971.282, 3356.41, 3932.821, 4025.641, 3930.769, 450, 0, []
1632651319.6998, 95, 0, 3947.179, 3214.359, 3945.641, 4033.333, 3925.641, 16190, 0, []
1632651319.7076, 96, 0, 3920, 3284.103, 3907.692, 4028.718, 3908.205, 450, 0, []
1632651319.7155, 97, 0, 3941.538, 3589.231, 3926.667, 4041.538, 3920, 450, 0, []
1632651319.7232, 98, 0, 3981.026, 4093.846, 3934.359, 4068.205, 3931.282, 450, 0, []
1632651319.7311, 99, 0, 3967.692, 4428.718, 3914.359, 4047.692, 3903.077, 16190, 0, []
1632651319.7389, 100, 0, 3942.051, 4252.308, 3932.821, 4017.949, 3889.231, 450, 0, []
1632651319.7468, 101, 0, 3933.333, 3635.385, 3920.513, 4005.641, 3905.128, 450, 0, []
1632651319.7546, 102, 0, 3918.974, 3121.026, 3938.462, 3994.872, 3912.308, 450, 0, []
1632651319.7626, 103, 0, 3906.154, 3044.615, 3919.487, 3992.821, 3901.538, 16190, 0, []
1632651319.7704, 104, 0, 3907.692, 3013.333, 3889.744, 4017.436, 3889.231, 450, 0, []
1632651319.7784, 105, 0, 3902.051, 2862.564, 3923.077, 4036.923, 3875.897, 450, 0, []
1632651319.7863, 106, 0, 3906.667, 2878.462, 3913.846, 4039.487, 3870.256, 450, 0, []
1632651319.7943, 107, 0, 3932.308, 2896.923, 3924.103, 4042.051, 3882.051, 16190, 0, []
1632651319.8022, 108, 0, 3930.256, 2828.718, 3927.692, 4037.949, 3886.667, 450, 0, []
1632651319.8101, 109, 0, 3924.615, 3009.231, 3915.385, 4051.282, 3898.974, 450, 0, []
1632651319.818, 110, 0, 3934.359, 3437.949, 3936.41, 4070.256, 3915.897, 450, 0, []
1632651319.826, 111, 0, 3914.359, 3779.487, 3897.436, 4042.051, 3896.41, 16190, 0, []
1632651319.8339, 112, 0, 3908.718, 3845.641, 3911.282, 4040, 3906.154, 450, 0, []
1632651319.8417, 113, 0, 3946.667, 3815.897, 3973.333, 4080, 3951.795, 450, 0, []
1632651319.8496, 114, 0, 3962.051, 3908.205, 3956.923, 4072.821, 3937.949, 450, 0, []
1632651319.8573, 115, 0, 3958.462, 4116.41, 3939.487, 4053.846, 3906.154, 16190, 0, []
1632651319.8652, 116, 0, 3963.077, 4255.897, 3926.667, 4057.949, 3926.154, 450, 0, []
1632651319.873, 117, 0, 3961.538, 4216.41, 3954.359, 4053.846, 3952.821, 450, 0, []
1632651319.8809, 118, 0, 3977.436, 4138.974, 3973.846, 4060.513, 3961.026, 450, 0, []
1632651319.8887, 119, 0, 4012.821, 4138.974, 3945.641, 4095.897, 3964.103, 16190, 0, []
1632651319.8966, 120, 0, 4027.692, 4173.333, 3973.333, 4117.949, 3986.154, 450, 0, []
1632651319.9045, 121, 0, 4015.897, 4183.077, 3957.949, 4090.769, 4007.179, 450, 0, []
1632651319.9125, 122, 0, 4014.359, 4268.718, 3946.154, 4077.436, 3995.385, 450, 0, []
1632651319.9204, 123, 0, 4025.128, 4360.513, 3969.231, 4098.974, 3981.026, 16190, 0, []
1632651319.9284, 124, 0, 4014.872, 4072.821, 3947.179, 4088.718, 3993.846, 450, 0, []
1632651319.9363, 125, 0, 4020.513, 3630.256, 3981.538, 4074.359, 4022.051, 450, 0, []
1632651319.9442, 126, 0, 4040, 3563.59, 3991.282, 4094.359, 4018.974, 450, 0, []
1632651319.9521, 127, 0, 4035.385, 3643.59, 3978.462, 4113.333, 3989.231, 16190, 0, []
1632651319.9601, 128, 0, 4040, 3685.128, 4008.718, 4117.436, 4009.231, 450, 0, []
1632651319.968, 0, 0, 4064.103, 3835.385, 4026.154, 4126.154, 4056.41, 450, 0, []
1632651319.976, 1, 0, 4079.487, 3887.179, 4062.564, 4143.59, 4056.923, 450, 0, []
1632651319.9838, 2, 0, 4070.256, 3867.692, 4026.154, 4136.41, 4029.231, 16161, 0, []
1632651319.9916, 3, 0, 4054.872, 3969.231, 3995.897, 4110.769, 4035.897, 450, 0, []
1632651319.9995, 4, 0, 4064.615, 4018.462, 4045.128, 4113.846, 4055.897, 16139, 0, []
1632651320.0073, 5, 0, 4085.128, 4118.974, 4020.513, 4141.538, 4046.154, 450, 0, []
1632651320.0152, 6, 0, 4082.564, 4396.41, 4015.897, 4152.821, 4049.231, 16119, 0, []
1632651320.023, 7, 0, 4071.282, 4516.41, 4033.333, 4134.872, 4066.667, 450, 0, []
1632651320.0308, 8, 0, 4087.692, 4455.897, 4013.846, 4134.872, 4066.154, 450, 0, []
1632651320.0386, 9, 0, 4095.897, 4486.667, 4015.385, 4156.923, 4061.026, 16135, 0, []
1632651320.0465, 10, 0, 4077.436, 4454.359, 4011.282, 4146.667, 4058.974, 450, 0, []
1632651320.0543, 11, 0, 4082.051, 4399.487, 4035.385, 4140, 4075.897, 16195, 0, []
1632651320.0622, 12, 0, 4086.154, 4560.513, 4024.103, 4152.308, 4082.051, 450, 0, []
1632651320.0699, 13, 0, 4067.179, 4668.205, 3994.872, 4145.641, 4047.692, 450, 0, []
1632651320.0779, 14, 0, 4068.718, 4499.487, 4023.077, 4138.462, 4045.641, 450, 0, []
1632651320.0858, 15, 0, 4072.308, 4473.846, 4008.205, 4135.897, 4077.949, 16195, 0, []
1632651320.0938, 16, 0, 4074.872, 4806.154, 4013.333, 4143.077, 4075.385, 0, 0, []
1632651320.1017, 17, 0, 4092.821, 5052.821, 4022.564, 4155.385, 4053.846, 0, 0, []
1632651320.1097, 18, 0, 4101.026, 5103.59, 4003.077, 4146.667, 4056.41, 0, 0, []
1632651320.1175, 19, 0, 4086.154, 5152.821, 4022.051, 4130.769, 4069.231, 0, 0, []
1632651320.1255, 20, 0, 4063.59, 5307.179, 3987.692, 4120.513, 4053.846, 0, 0, []
1632651320.1334, 21, 0, 4070.769, 5632.821, 4001.538, 4137.949, 4048.205, 0, 0, []
1632651320.1412, 22, 0, 4103.59, 5765.128, 4054.359, 4167.179, 4071.282, 0, 0, []
1632651320.1491, 23, 0, 4113.333, 5502.051, 4037.436, 4168.205, 4077.436, 0, 0, []
1632651320.1568, 24, 0, 4103.077, 5427.692, 4049.744, 4160.513, 4075.897, 0, 0, []
1632651320.1647, 25, 0, 4100.513, 5736.923, 4042.564, 4160.513, 4075.385, 0, 0, []
1632651320.1725, 26, 0, 4094.359, 5722.564, 4045.641, 4148.205, 4070.769, 0, 0, []
1632651320.1804, 27, 0, 4081.026, 5586.154, 4045.641, 4126.667, 4063.077, 0, 0, []
1632651320.1882, 28, 0, 4085.128, 5985.128, 4008.205, 4130.769, 4066.154, 0, 0, []
1632651320.1961, 29, 0, 4112.308, 6215.385, 4047.692, 4158.974, 4090.769, 0, 0, []
1632651320.2038, 30, 0, 4132.308, 6001.026, 4054.872, 4164.615, 4105.128, 0, 0, []
1632651320.2118, 31, 0, 4134.359, 5896.41, 4040, 4161.026, 4108.718, 0, 0, []
1632651320.2197, 32, 0, 4133.333, 5796.923, 4066.667, 4178.974, 4111.282, 0, 0, []
1632651320.2277, 33, 0, 4124.615, 5649.744, 4050.769, 4183.077, 4099.487, 0, 0, []
1632651320.2356, 34, 0, 4108.205, 5874.872, 4053.333, 4166.154, 4090.769, 0, 0, []
1632651320.2435, 35, 0, 4096.923, 6219.487, 4040.513, 4154.872, 4085.128, 0, 0, []
1632651320.2514, 36, 0, 4103.077, 6149.231, 4041.538, 4157.949, 4080.513, 0, 0, []
1632651320.2594, 37, 0, 4111.795, 5798.974, 4063.59, 4163.077, 4086.667, 0, 0, []
1632651320.2673, 38, 0, 4104.103, 5662.051, 4029.231, 4157.949, 4083.59, 0, 0, []
1632651320.2753, 39, 0, 4106.667, 5771.795, 4040.513, 4157.436, 4074.872, 0, 0, []
1632651320.2832, 40, 0, 4097.949, 5662.564, 4025.641, 4141.026, 4073.333, 0, 0, []
1632651320.2909, 41, 0, 4084.103, 5266.667, 4006.667, 4135.897, 4072.308, 0, 0, []
1632651320.2988, 42, 0, 4099.487, 5225.641, 4058.974, 4175.897, 4076.41, 0, 0, []
1632651320.3066, 43, 0, 4091.795, 5712.821, 4030.256, 4176.41, 4064.103, 0, 0, []
1632651320.3145, 44, 0, 4067.179, 5920, 4011.282, 4142.051, 4048.718, 0, 0, []
1632651320.3223, 45, 0, 4077.436, 5583.59, 4027.179, 4144.103, 4050.769, 0, 0, []
1632651320.3301, 46, 0, 4093.333, 5395.897, 4028.205, 4165.128, 4052.821, 0, 0, []
1632651320.3379, 47, 0, 4105.641, 5648.718, 4066.667, 4177.949, 4065.128, 0, 0, []
1632651320.3458, 48, 0, 4110.256, 5781.026, 4061.026, 4164.615, 4067.179, 0, 0, []
1632651320.3536, 49, 0, 4090.769, 5628.718, 4052.821, 4142.051, 4052.821, 0, 0, []
1632651320.3616, 50, 0, 4086.154, 5589.744, 4049.744, 4150.769, 4060.513, 0, 0, []
1632651320.3695, 51, 0, 4094.359, 5462.564, 4030.769, 4162.051, 4068.205, 0, 0, []
1632651320.3774, 52, 0, 4079.487, 5283.59, 4040, 4148.718, 4060.513, 0, 0, []
1632651320.3853, 53, 0, 4067.179, 5357.436, 4005.641, 4136.41, 4062.564, 0, 0, []
1632651320.3933, 54, 0, 4075.897, 5695.385, 4005.641, 4136.41, 4069.744, 0, 0, []
1632651320.4012, 55, 0, 4068.718, 6114.872, 4017.949, 4127.692, 4052.821, 0, 0, []
1632651320.4092, 56, 0, 4056.923, 6152.821, 3984.103, 4113.846, 4040, 0, 0, []
1632651320.417, 57, 0, 4082.051, 5627.692, 4006.667, 4123.077, 4061.538, 0, 0, []
1632651320.425, 58, 0, 4088.205, 4968.718, 3996.923, 4120, 4065.128, 0, 0, []
1632651320.4329, 59, 0, 4069.744, 4698.974, 3989.231, 4103.59, 4036.923, 0, 0, []
1632651320.4409, 60, 0, 4071.795, 4717.436, 3997.436, 4097.436, 4029.744, 0, 0, []
1632651320.4488, 61, 0, 4067.692, 4578.462, 3967.692, 4086.667, 4035.897, 0, 0, []
1632651320.4566, 62, 0, 4064.615, 4259.487, 4001.026, 4105.641, 4024.103, 0, 0, []
1632651320.4644, 63, 0, 4072.821, 4090.256, 4012.821, 4134.872, 4019.487, 0, 0, []
1632651320.4722, 64, 0, 4082.051, 4065.128, 4011.282, 4135.897, 4047.692, 450, 0, []
1632651320.4801, 65, 0, 4077.949, 4083.077, 4032.308, 4139.487, 4056.923, 450, 0, []
1632651320.4879, 66, 0, 4056.923, 4285.128, 4014.872, 4141.026, 4025.128, 16169, 0, []
1632651320.4958, 67, 0, 4043.077, 4483.59, 4015.897, 4111.795, 4015.385, 450, 0, []
1632651320.5035, 68, 0, 4034.359, 4469.744, 3970.256, 4075.385, 4004.103, 16118, 0, []
1632651320.5114, 69, 0, 4024.615, 4436.41, 3958.462, 4082.051, 3986.154, 450, 0, []
1632651320.5192, 70, 0, 4024.615, 4597.436, 4009.231, 4103.077, 4002.051, 16146, 0, []
1632651320.5271, 71, 0, 4033.333, 4933.846, 3982.564, 4093.846, 4004.615, 450, 0, []
1632651320.5349, 72, 0, 4039.487, 5295.385, 3997.949, 4092.308, 3992.308, 450, 0, []
1632651320.5429, 73, 0, 4038.974, 5487.692, 4013.846, 4112.821, 3992.821, 16125, 0, []
1632651320.5507, 74, 0, 4049.231, 5388.718, 4003.59, 4122.564, 4005.128, 450, 0, []
1632651320.5587, 75, 0, 4065.128, 5033.846, 4024.615, 4110.256, 4028.205, 16198, 0, []
1632651320.5666, 76, 0, 4060.513, 4569.231, 3987.179, 4090.769, 4023.077, 450, 0, []
1632651320.5746, 77, 0, 4049.744, 4505.641, 3993.846, 4094.872, 4003.077, 450, 0, []
1632651320.5825, 78, 0, 4053.846, 5032.821, 4018.974, 4109.744, 4010.769, 450, 0, []
1632651320.5904, 79, 0, 4054.359, 5473.846, 4001.026, 4106.667, 4016.923, 16198, 0, []
1632651320.5983, 80, 0, 4053.846, 5431.282, 4011.795, 4100, 4012.821, 450, 0, []
1632651320.6063, 81, 0, 4063.077, 4970.256, 4002.564, 4100, 4027.179, 450, 0, []
1632651320.6142, 82, 0, 4068.205, 4637.949, 4016.41, 4105.128, 4040.513, 450, 0, []
1632651320.622, 83, 0, 4064.103, 5029.744, 4020, 4108.205, 4028.718, 16198, 0, []
1632651320.6299, 84, 0, 4070.256, 5382.051, 4006.667, 4115.385, 4031.282, 450, 0, []
1632651320.6376, 85, 0, 4089.744, 5020, 4032.308, 4138.974, 4061.538, 450, 0, []
1632651320.6455, 86, 0, 4089.744, 4902.051, 4007.692, 4137.949, 4069.744, 450, 0, []
1632651320.6533, 87, 0, 4083.59, 5279.487, 4008.718, 4131.795, 4057.436, 16198, 0, []
1632651320.6612, 88, 0, 4075.897, 5411.282, 4020, 4133.333, 4050.769, 450, 0, []
1632651320.669, 89, 0, 4052.821, 5368.205, 3991.282, 4116.923, 4034.359, 450, 0, []
1632651320.6768, 90, 0, 4051.282, 5198.974, 4020, 4123.077, 4030.256, 450, 0, []
1632651320.6846, 91, 0, 4065.128, 5047.692, 4018.462, 4142.564, 4047.692, 16198, 0, []
1632651320.6926, 92, 0, 4073.333, 5215.897, 4016.923, 4155.385, 4055.897, 450, 0, []
1632651320.7005, 93, 0, 4072.821, 5347.179, 4031.282, 4161.026, 4051.282, 450, 0, []
1632651320.7085, 94, 0, 4070.256, 5221.026, 4005.128, 4151.282, 4045.641, 450, 0, []
1632651320.7164, 95, 0, 4073.333, 5059.487, 4028.205, 4155.385, 4054.872, 16198, 0, []
1632651320.7243, 96, 0, 4058.974, 4809.744, 4017.949, 4152.821, 4048.718, 450, 0, []
1632651320.7322, 97, 0, 4056.923, 4651.282, 4007.692, 4150.769, 4037.436, 450, 0, []
1632651320.7402, 98, 0, 4094.359, 5035.897, 4040, 4160.513, 4053.333, 450, 0, []
1632651320.7481, 99, 0, 4109.231, 5486.154, 4016.41, 4152.821, 4050.769, 16198, 0, []
1632651320.7559, 100, 0, 4084.615, 5379.487, 4016.41, 4139.487, 4044.103, 450, 0, []
1632651320.7637, 101, 0, 4076.923, 4925.641, 4012.308, 4138.462, 4060.513, 450, 0, []
1632651320.7715, 102, 0, 4101.026, 4848.205, 4023.59, 4149.231, 4079.487, 450, 0, []
1632651320.7794, 103, 0, 4106.154, 5082.564, 4038.462, 4160.513, 4076.923, 16198, 0, []
1632651320.7872, 104, 0, 4084.103, 4974.359, 3982.564, 4155.897, 4054.872, 450, 0, []
1632651320.7951, 105, 0, 4092.308, 4851.282, 4013.333, 4154.872, 4055.897, 450, 0, []
1632651320.8029, 106, 0, 4113.846, 4856.923, 4035.897, 4154.359, 4060, 450, 0, []
1632651320.8107, 107, 0, 4106.667, 4548.718, 4008.718, 4150.256, 4063.077, 16198, 0, []
1632651320.8185, 108, 0, 4108.205, 4319.487, 4038.462, 4170.769, 4092.308, 450, 0, []
1632651320.8264, 109, 0, 4120, 4648.205, 4034.359, 4186.667, 4107.692, 450, 0, []
1632651320.8342, 110, 0, 4113.846, 4832.821, 4037.949, 4171.282, 4087.179, 450, 0, []
1632651320.8422, 111, 0, 4095.897, 4406.667, 4034.359, 4161.026, 4069.231, 16198, 0, []
1632651320.85, 112, 0, 4089.744, 4295.385, 4030.769, 4171.282, 4078.462, 450, 0, []
1632651320.858, 113, 0, 4112.308, 4641.026, 4075.385, 4190.256, 4097.436, 450, 0, []
1632651320.8659, 114, 0, 4136.41, 4782.051, 4071.282, 4193.333, 4107.692, 450, 0, []
1632651320.8739, 115, 0, 4127.692, 4652.821, 4055.385, 4174.359, 4101.026, 16198, 0, []
1632651320.8818, 116, 0, 4101.026, 4445.128, 4035.385, 4155.897, 4087.692, 450, 0, []
1632651320.8898, 117, 0, 4104.615, 4555.385, 4031.795, 4158.974, 4083.077, 450, 0, []
1632651320.8976, 118, 0, 4129.231, 4872.821, 4074.359, 4186.667, 4085.128, 450, 0, []
1632651320.9055, 119, 0, 4139.487, 4731.282, 4058.462, 4203.077, 4094.359, 16198, 0, []
1632651320.9134, 120, 0, 4155.897, 4493.846, 4061.538, 4211.795, 4118.462, 450, 0, []
1632651320.9214, 121, 0, 4167.179, 4775.897, 4071.282, 4209.744, 4132.308, 450, 0, []
1632651320.9293, 122, 0, 4149.231, 4956.41, 4045.128, 4195.385, 4106.667, 450, 0, []
1632651320.937, 123, 0, 4144.615, 4692.308, 4082.564, 4205.128, 4108.718, 16198, 0, []
1632651320.9449, 124, 0, 4157.436, 4456.923, 4070.769, 4211.282, 4138.974, 450, 0, []
1632651320.9527, 125, 0, 4151.282, 4353.333, 4051.282, 4210.769, 4133.846, 450, 0, []
1632651320.9606, 126, 0, 4142.564, 4652.821, 4064.103, 4226.154, 4115.897, 450, 0, []
1632651320.9684, 127, 0, 4148.718, 5193.846, 4037.436, 4222.051, 4113.333, 16198, 0, []
1632651320.9763, 128, 0, 4145.128, 5103.077, 4050.769, 4202.051, 4118.974, 450, 0, []
1632651320.984, 0, 0, 4120, 4560.513, 4040, 4197.949, 4092.308, 450, 0, []
1632651320.9919, 1, 0, 4103.59, 4228.718, 4031.282, 4193.846, 4063.077, 450, 0, []
1632651320.9997, 2, 0, 4111.282, 4132.821, 4050.769, 4171.795, 4071.282, 16173, 0, []
1632651321.0077, 3, 0, 4115.897, 4077.949, 4034.872, 4167.692, 4085.128, 450, 0, []
1632651321.0156, 4, 0, 4127.179, 4029.231, 4071.795, 4207.179, 4097.949, 16081, 0, []
1632651321.0235, 5, 0, 4146.154, 4042.564, 4071.282, 4234.872, 4114.872, 450, 0, []
1632651321.0314, 6, 0, 4152.821, 4074.872, 4055.897, 4224.103, 4131.795, 16113, 0, []
1632651321.0394, 7, 0, 4152.308, 4016.41, 4070.769, 4213.846, 4129.231, 450, 0, []
1632651321.0473, 8, 0, 4143.59, 3853.333, 4032.308, 4206.154, 4109.231, 450, 0, []
1632651321.0553, 9, 0, 4131.282, 3692.821, 4044.615, 4190.769, 4100, 16140, 0, []
1632651321.0632, 10, 0, 4120, 3595.897, 4045.128, 4176.41, 4081.026, 450, 0, []
1632651321.0711, 11, 0, 4118.974, 3537.949, 4027.692, 4178.462, 4072.821, 16184, 0, []
1632651321.079, 12, 0, 4122.564, 3631.282, 4051.795, 4177.436, 4096.923, 450, 0, []
1632651321.0868, 13, 0, 4118.462, 3888.718, 4028.718, 4171.795, 4105.641, 450, 0, []
1632651321.0947, 14, 0, 4127.692, 4102.564, 4048.205, 4203.59, 4103.59, 450, 0, []
1632651321.1025, 15, 0, 4137.949, 4330.769, 4068.205, 4230.769, 4115.897, 16184, 0, []
1632651321.1103, 16, 0, 4126.154, 4653.846, 4050.769, 4221.538, 4116.41, 0, 0, []
1632651321.1181, 17, 0, 4118.462, 4750.256, 4059.487, 4206.667, 4107.692, 0, 0, []
1632651321.126, 18, 0, 4124.103, 4536.923, 4037.949, 4171.282, 4101.538, 0, 0, []
1632651321.1338, 19, 0, 4130.256, 4512.821, 4050.769, 4157.949, 4096.923, 0, 0, []
1632651321.1417, 20, 0, 4141.026, 4569.231, 4057.949, 4191.795, 4113.846, 0, 0, []
1632651321.1495, 21, 0, 4156.923, 4365.128, 4043.077, 4210.769, 4138.974, 0, 0, []
1632651321.1574, 22, 0, 4174.359, 4174.872, 4083.59, 4214.872, 4151.282, 0, 0, []
1632651321.1653, 23, 0, 4174.359, 4058.462, 4083.077, 4221.538, 4151.795, 0, 0, []
1632651321.1733, 24, 0, 4169.231, 4110.256, 4083.077, 4222.051, 4148.718, 0, 0, []
1632651321.1812, 25, 0, 4172.821, 4417.436, 4097.949, 4210.769, 4144.615, 0, 0, []
1632651321.1892, 26, 0, 4175.897, 4446.154, 4084.103, 4196.923, 4128.718, 0, 0, []
1632651321.197, 27, 0, 4170.256, 4130.769, 4092.308, 4197.436, 4125.641, 0, 0, []
1632651321.205, 28, 0, 4165.641, 4150.769, 4069.231, 4208.205, 4142.051, 0, 0, []
1632651321.2129, 29, 0, 4182.051, 4514.872, 4080.513, 4225.128, 4161.026, 0, 0, []
1632651321.2207, 30, 0, 4198.974, 4718.974, 4097.436, 4233.846, 4169.744, 0, 0, []
1632651321.2286, 31, 0, 4187.692, 4615.385, 4061.026, 4226.154, 4162.051, 0, 0, []
1632651321.2364, 32, 0, 4173.333, 4471.282, 4081.538, 4210.256, 4155.897, 0, 0, []
1632651321.2442, 33, 0, 4171.795, 4710.256, 4065.641, 4187.179, 4146.154, 0, 0, []
1632651321.252, 34, 0, 4170.256, 4956.41, 4046.667, 4184.103, 4132.821, 0, 0, []
1632651321.2599, 35, 0, 4154.872, 4698.974, 4062.564, 4194.359, 4119.487, 0, 0, []
1632651321.2677, 36, 0, 4148.205, 4548.205, 4034.872, 4185.641, 4108.205, 0, 0, []
1632651321.2756, 37, 0, 4164.103, 4581.538, 4051.795, 4188.205, 4117.949, 0, 0, []
1632651321.2833, 38, 0, 4159.487, 4205.641, 4053.333, 4193.846, 4121.026, 0, 0, []
1632651321.2912, 39, 0, 4151.282, 4033.846, 4054.872, 4189.231, 4111.795, 0, 0, []
1632651321.299, 40, 0, 4169.744, 4547.692, 4082.564, 4195.385, 4121.026, 0, 0, []
1632651321.307, 41, 0, 4176.41, 4633.333, 4051.795, 4193.846, 4126.667, 0, 0, []
1632651321.3149, 42, 0, 4171.282, 4107.692, 4065.128, 4194.872, 4132.308, 0, 0, []
1632651321.3229, 43, 0, 4164.103, 4104.103, 4071.282, 4200.513, 4141.538, 0, 0, []
1632651321.3307, 44, 0, 4153.846, 4318.462, 4056.41, 4205.128, 4131.282, 0, 0, []
1632651321.3387, 45, 0, 4162.051, 4048.205, 4085.641, 4217.949, 4126.667, 0, 0, []
1632651321.3466, 46, 0, 4172.308, 3897.436, 4065.641, 4215.897, 4123.077, 0, 0, []
1632651321.3546, 47, 0, 4158.462, 4167.692, 4058.974, 4200, 4116.41, 0, 0, []
1632651321.3625, 48, 0, 4144.103, 4474.359, 4048.205, 4198.974, 4114.359, 0, 0, []
1632651321.3704, 49, 0, 4142.564, 4573.846, 4031.282, 4202.564, 4115.385, 0, 0, []
1632651321.3783, 50, 0, 4144.615, 4481.538, 4058.974, 4194.872, 4115.897, 0, 0, []
1632651321.3861, 51, 0, 4133.333, 4305.641, 4033.846, 4189.231, 4100, 0, 0, []
1632651321.394, 52, 0, 4129.744, 4098.462, 4059.487, 4206.154, 4108.718, 0, 0, []
1632651321.4018, 53, 0, 4145.641, 3882.051, 4089.744, 4212.821, 4132.821, 0, 0, []
1632651321.4097, 54, 0, 4136.41, 3711.282, 4053.846, 4196.923, 4118.462, 0, 0, []
1632651321.4174, 55, 0, 4104.103, 3623.077, 4064.615, 4198.974, 4091.795, 0, 0, []
1632651321.4253, 56, 0, 4085.641, 4090.256, 4061.026, 4211.282, 4081.026, 0, 0, []
1632651321.4331, 57, 0, 4076.41, 4592.821, 4066.667, 4224.615, 4072.821, 0, 0, []
1632651321.441, 58, 0, 4037.949, 3824.615, 4057.436, 4218.462, 4049.231, 0, 0, []
1632651321.4488, 59, 0, 3993.333, 2637.949, 4037.436, 4187.692, 4027.692, 0, 0, []
1632651321.4566, 60, 0, 3988.718, 2307.179, 4077.949, 4193.846, 4020.513, 0, 0, []
1632651321.4644, 61, 0, 3983.077, 2342.051, 4045.128, 4211.795, 3997.436, 0, 0, []
1632651321.4724, 62, 0, 3967.692, 2605.641, 4023.59, 4207.179, 3970.769, 0, 0, []
1632651321.4803, 63, 0, 3964.103, 3075.897, 4040.513, 4203.59, 3966.667, 0, 0, []
1632651321.4883, 64, 0, 3956.923, 2983.59, 4028.205, 4193.846, 3979.487, 450, 0, []
1632651321.4962, 65, 0, 3965.641, 3152.308, 4069.744, 4188.718, 3993.846, 450, 0, []
1632651321.5041, 66, 0, 3982.564, 4268.205, 4060.513, 4204.103, 3974.359, 16159, 0, []
1632651321.512, 67, 0, 3979.487, 5064.103, 4042.051, 4220.513, 3953.333, 450, 0, []
1632651321.52, 68, 0, 3974.872, 5031.282, 4072.821, 4208.205, 3972.308, 16144, 0, []
1632651321.5279, 69, 0, 3972.821, 4552.308, 4060.513, 4185.128, 3971.282, 450, 0, []
1632651321.5359, 70, 0, 3970.769, 3708.718, 4054.872, 4191.795, 3942.051, 16119, 0, []
1632651321.5437, 71, 0, 3964.615, 2716.41, 4037.949, 4206.154, 3940.513, 450, 0, []
1632651321.5515, 72, 0, 3946.667, 2238.462, 4044.615, 4205.128, 3943.59, 450, 0, []
1632651321.5594, 73, 0, 3924.103, 2771.282, 4064.103, 4195.897, 3924.615, 16128, 0, []
1632651321.5672, 74, 0, 3911.795, 3752.821, 4035.897, 4175.385, 3913.846, 450, 0, []
1632651321.5751, 75, 0, 3917.949, 4155.897, 4056.923, 4166.154, 3916.923, 16188, 0, []
1632651321.5829, 76, 0, 3926.667, 4010.256, 4038.462, 4172.308, 3909.231, 450, 0, []
1632651321.5907, 77, 0, 3934.359, 4023.59, 4010.256, 4174.872, 3914.359, 450, 0, []
1632651321.5985, 78, 0, 3940.513, 4189.231, 4055.385, 4172.308, 3944.103, 450, 0, []
1632651321.6065, 79, 0, 3933.333, 4268.205, 4046.667, 4162.564, 3946.154, 16188, 0, []
1632651321.6144, 80, 0, 3947.179, 4119.487, 4054.872, 4178.462, 3939.487, 450, 0, []
1632651321.6224, 81, 0, 3978.974, 3681.026, 4064.103, 4208.718, 3959.487, 450, 0, []
1632651321.6303, 82, 0, 3974.872, 3556.41, 4050.256, 4197.949, 3972.821, 450, 0, []
1632651321.6382, 83, 0, 3955.897, 4048.205, 4069.231, 4175.385, 3970.769, 16188, 0, []
1632651321.6461, 84, 0, 3977.436, 4342.051, 4055.897, 4189.231, 3968.205, 450, 0, []
1632651321.6541, 85, 0, 4002.564, 4145.641, 4075.385, 4211.795, 3969.231, 450, 0, []
1632651321.662, 86, 0, 3968.205, 4117.436, 4071.282, 4195.385, 3958.462, 450, 0, []
1632651321.67, 87, 0, 3935.385, 4165.128, 4046.154, 4176.41, 3950.256, 16188, 0, []
1632651321.6778, 88, 0, 3964.103, 3955.385, 4078.974, 4184.103, 3957.949, 450, 0, []
1632651321.6858, 89, 0, 3980.513, 4041.026, 4056.41, 4180, 3949.744, 450, 0, []
1632651321.6937, 90, 0, 3963.077, 4263.077, 4070.256, 4179.487, 3955.897, 450, 0, []
1632651321.7015, 91, 0, 3969.744, 4026.667, 4105.641, 4190.256, 3989.744, 16188, 0, []
1632651321.7094, 92, 0, 3995.385, 3967.692, 4082.051, 4197.436, 3985.641, 450, 0, []
1632651321.7172, 93, 0, 4000, 4197.436, 4096.923, 4216.923, 3966.154, 450, 0, []
1632651321.725, 94, 0, 3984.103, 4076.41, 4092.308, 4224.615, 3985.128, 450, 0, []
1632651321.7328, 95, 0, 3981.026, 4184.103, 4082.051, 4210.769, 3994.872, 16188, 0, []
1632651321.7407, 96, 0, 3996.923, 4648.718, 4082.564, 4215.897, 3976.41, 450, 0, []
1632651321.7485, 97, 0, 4002.564, 4369.744, 4078.974, 4221.538, 3989.231, 450, 0, []
1632651321.7565, 98, 0, 4002.564, 3746.667, 4113.333, 4207.179, 4020, 450, 0, []
1632651321.7643, 99, 0, 4016.923, 4024.103, 4088.718, 4203.077, 4008.205, 16188, 0, []
1632651321.7723, 100, 0, 4023.077, 4468.205, 4067.179, 4214.872, 3992.821, 450, 0, []
1632651321.7802, 101, 0, 3993.846, 4085.641, 4073.333, 4198.974, 3993.333, 450, 0, []
1632651321.7882, 102, 0, 3982.051, 3700, 4054.359, 4175.385, 3982.051, 450, 0, []
1632651321.7961, 103, 0, 4019.487, 4003.59, 4094.359, 4204.103, 3997.436, 16188, 0, []
1632651321.8041, 104, 0, 4029.231, 4130.256, 4084.615, 4207.179, 4020, 450, 0, []
1632651321.8119, 105, 0, 4004.103, 3880.513, 4052.308, 4166.154, 3994.359, 450, 0, []
1632651321.8199, 106, 0, 4008.205, 4138.974, 4063.077, 4175.385, 3971.282, 450, 0, []
1632651321.8278, 107, 0, 4020.513, 4530.256, 4041.026, 4190.769, 3992.821, 16188, 0, []
1632651321.8358, 108, 0, 4042.564, 4272.308, 4068.718, 4171.282, 4036.41, 450, 0, []
1632651321.8437, 109, 0, 4093.333, 3873.846, 4067.692, 4169.231, 4077.436, 450, 0, []
1632651321.8514, 110, 0, 4133.333, 3806.667, 4067.692, 4197.949, 4131.282, 450, 0, []
1632651321.8593, 111, 0, 4160, 3769.744, 4107.179, 4211.795, 4182.051, 16188, 0, []
1632651321.8671, 112, 0, 4176.923, 3733.846, 4050.256, 4175.385, 4179.487, 450, 0, []
1632651321.875, 113, 0, 4178.974, 3790.769, 4037.949, 4144.103, 4160, 450, 0, []
1632651321.8828, 114, 0, 4178.974, 3837.949, 4064.615, 4170.256, 4152.821, 450, 0, []
1632651321.8907, 115, 0, 4171.282, 3911.795, 4067.179, 4198.462, 4137.949, 16188, 0, []
1632651321.8984, 116, 0, 4144.615, 3977.436, 4073.333, 4175.385, 4120.513, 450, 0, []
1632651321.9063, 117, 0, 4114.872, 3891.795, 4027.692, 4150.769, 4089.744, 450, 0, []
1632651321.9141, 118, 0, 4115.897, 3723.077, 4049.744, 4177.436, 4072.821, 450, 0, []
1632651321.922, 119, 0, 4118.974, 3662.564, 4074.359, 4181.538, 4084.103, 16188, 0, []
1632651321.9298, 120, 0, 4110.256, 3637.949, 4044.103, 4162.051, 4073.333, 450, 0, []
1632651321.9377, 121, 0, 4105.128, 3546.154, 4058.462, 4173.333, 4055.385, 450, 0, []
1632651321.9456, 122, 0, 4077.436, 3424.615, 4050.769, 4150.769, 4049.744, 450, 0, []
1632651321.9536, 123, 0, 4062.051, 3303.59, 4063.077, 4131.795, 4035.897, 16188, 0, []
1632651321.9615, 124, 0, 4073.333, 3240, 4061.026, 4169.744, 4022.051, 450, 0, []
1632651321.9695, 125, 0, 4058.974, 3239.487, 4027.692, 4178.974, 4025.641, 450, 0, []
1632651321.9774, 126, 0, 4038.974, 3285.641, 4061.538, 4162.051, 4029.231, 450, 0, []
1632651321.9853, 127, 0, 4045.128, 3342.564, 4053.333, 4173.333, 4007.692, 16188, 0, []
1632651321.9932, 128, 0, 4049.231, 3508.718, 4045.641, 4190.256, 3994.872, 450, 0, []
1632651322.001, 0, 0, 4038.462, 3657.436, 4076.41, 4183.077, 4010.769, 450, 0, []
1632651322.0089, 1, 0, 4027.179, 3731.282, 4065.641, 4161.026, 4006.154, 450, 0, []
1632651322.0167, 2, 0, 4026.667, 3823.59, 4067.179, 4146.154, 3976.41, 16151, 0, []
1632651322.0245, 3, 0, 4028.205, 3752.308, 4059.487, 4145.641, 3972.308, 450, 0, []
1632651322.0323, 4, 0, 4016.41, 3547.692, 4061.538, 4148.718, 4001.026, 16152, 0, []
1632651322.0402, 5, 0, 4008.718, 3490.256, 4066.154, 4138.974, 4008.718, 450, 0, []
1632651322.048, 6, 0, 4034.359, 3497.436, 4040.513, 4143.59, 3989.744, 16113, 0, []
1632651322.0559, 7, 0, 4062.051, 3498.974, 4065.641, 4183.077, 4003.59, 450, 0, []
1632651322.0637, 8, 0, 4045.128, 3679.487, 4063.59, 4185.128, 4020.513, 450, 0, []
1632651322.0715, 9, 0, 4031.795, 3697.436, 4056.41, 4148.718, 4001.538, 16143, 0, []
1632651322.0793, 10, 0, 4054.359, 3363.077, 4064.615, 4165.128, 3998.974, 450, 0, []
1632651322.0873, 11, 0, 4059.487, 3155.897, 4035.385, 4198.462, 4026.154, 16175, 0, []
1632651322.0952, 12, 0, 4044.103, 3154.872, 4071.795, 4175.897, 4041.026, 450, 0, []
1632651322.1032, 13, 0, 4038.974, 3173.333, 4066.154, 4143.59, 4022.051, 450, 0, []
1632651322.111, 14, 0, 4055.897, 3252.821, 4035.897, 4168.718, 4017.949, 450, 0, []
1632651322.119, 15, 0, 4081.026, 3345.641, 4070.769, 4202.051, 4050.769, 16175, 0, []
1632651322.1269, 16, 0, 4067.692, 3366.667, 4060.513, 4175.385, 4056.41, 0, 0, []
1632651322.1349, 17, 0, 4052.821, 3411.282, 4077.949, 4168.205, 4042.051, 0, 0, []
1632651322.1428, 18, 0, 4067.179, 3435.385, 4084.103, 4197.436, 4044.103, 0, 0, []
1632651322.1508, 19, 0, 4067.179, 3336.41, 4071.795, 4190.769, 4054.872, 0, 0, []
1632651322.1586, 20, 0, 4050.256, 3326.667, 4093.846, 4168.205, 4054.359, 0, 0, []
1632651322.1665, 21, 0, 4057.436, 3748.718, 4060.513, 4169.231, 4030.769, 0, 0, []
1632651322.1744, 22, 0, 4081.538, 4053.333, 4066.154, 4189.744, 4034.872, 0, 0, []
1632651322.1822, 23, 0, 4067.179, 3596.923, 4083.077, 4187.692, 4053.333, 0, 0, []
1632651322.1901, 24, 0, 4058.462, 3445.641, 4067.179, 4189.744, 4042.051, 0, 0, []
1632651322.1978, 25, 0, 4084.615, 4035.897, 4075.385, 4213.846, 4041.538, 0, 0, []
1632651322.2057, 26, 0, 4075.385, 4189.744, 4052.308, 4195.385, 4053.846, 0, 0, []
1632651322.2135, 27, 0, 4057.949, 3812.821, 4068.718, 4170.256, 4050.256, 0, 0, []
1632651322.2214, 28, 0, 4070.256, 3767.692, 4070.769, 4180.513, 4035.897, 0, 0, []
1632651322.2292, 29, 0, 4066.667, 3981.538, 4043.59, 4178.974, 4035.897, 0, 0, []
1632651322.2371, 30, 0, 4068.205, 4013.846, 4091.795, 4177.949, 4058.462, 0, 0, []
1632651322.2448, 31, 0, 4090.769, 3846.667, 4080, 4195.385, 4063.59, 0, 0, []
1632651322.2528, 32, 0, 4082.564, 3689.231, 4066.154, 4198.974, 4049.744, 0, 0, []
1632651322.2607, 33, 0, 4070.769, 3836.41, 4085.641, 4183.077, 4054.359, 0, 0, []
1632651322.2687, 34, 0, 4093.846, 4002.051, 4055.385, 4177.436, 4058.974, 0, 0, []
1632651322.2766, 35, 0, 4115.385, 3889.744, 4075.897, 4190.769, 4059.487, 0, 0, []
1632651322.2845, 36, 0, 4111.795, 3893.846, 4088.718, 4187.692, 4068.205, 0, 0, []
1632651322.2924, 37, 0, 4106.667, 3915.385, 4085.641, 4185.128, 4066.667, 0, 0, []
1632651322.3004, 38, 0, 4105.128, 3792.308, 4082.051, 4190.256, 4060.513, 0, 0, []
1632651322.3083, 39, 0, 4102.051, 3913.333, 4060.513, 4176.923, 4068.718, 0, 0, []
1632651322.3163, 40, 0, 4106.154, 4273.846, 4090.256, 4181.026, 4075.897, 0, 0, []
1632651322.3242, 41, 0, 4110.769, 4194.359, 4084.103, 4198.462, 4071.282, 0, 0, []
1632651322.3319, 42, 0, 4118.974, 3831.282, 4080.513, 4192.308, 4079.487, 0, 0, []
1632651322.3398, 43, 0, 4116.923, 3947.179, 4085.128, 4169.744, 4084.615, 0, 0, []
1632651322.3476, 44, 0, 4093.333, 4213.846, 4046.154, 4145.128, 4062.051, 0, 0, []
1632651322.3555, 45, 0, 4096.923, 4017.436, 4080, 4153.333, 4056.923, 0, 0, []
1632651322.3633, 46, 0, 4123.59, 3753.846, 4082.051, 4184.615, 4086.154, 0, 0, []
1632651322.3711, 47, 0, 4122.564, 3902.051, 4062.051, 4192.308, 4105.641, 0, 0, []
1632651322.3789, 48, 0, 4111.795, 4113.846, 4094.359, 4194.872, 4093.846, 0, 0, []
1632651322.3868, 49, 0, 4114.359, 4064.103, 4080.513, 4200.513, 4081.026, 0, 0, []
1632651322.3946, 50, 0, 4113.846, 3873.846, 4091.282, 4190.256, 4089.744, 0, 0, []
1632651322.4026, 51, 0, 4105.128, 3946.667, 4085.128, 4179.487, 4084.615, 0, 0, []
1632651322.4105, 52, 0, 4101.538, 4224.103, 4072.308, 4192.821, 4074.872, 0, 0, []
1632651322.4184, 53, 0, 4101.026, 3994.872, 4098.974, 4198.974, 4087.179, 0, 0, []
1632651322.4263, 54, 0, 4086.154, 3431.282, 4051.795, 4170.769, 4061.538, 0, 0, []
1632651322.4343, 55, 0, 4075.897, 3199.487, 4055.897, 4164.103, 4040, 0, 0, []
1632651322.4422, 56, 0, 4071.795, 3476.923, 4075.897, 4164.615, 4064.103, 0, 0, []
1632651322.4502, 57, 0, 4084.103, 3883.077, 4042.051, 4147.692, 4058.974, 0, 0, []
1632651322.458, 58, 0, 4131.282, 3829.231, 4061.026, 4145.641, 4063.59, 0, 0, []
1632651322.466, 59, 0, 4167.179, 3377.949, 4056.923, 4139.487, 4105.641, 0, 0, []
1632651322.4739, 60, 0, 4185.128, 3009.231, 4055.897, 4137.949, 4121.538, 0, 0, []
1632651322.4817, 61, 0, 4214.359, 2945.641, 4072.821, 4152.308, 4121.538, 0, 0, []
1632651322.4896, 62, 0, 4247.179, 3074.359, 4070.256, 4149.744, 4137.949, 0, 0, []
1632651322.4974, 63, 0, 4268.205, 3237.949, 4083.59, 4143.59, 4167.692, 0, 0, []
1632651322.5052, 64, 0, 4288.205, 3366.667, 4066.154, 4147.179, 4197.436, 450, 0, []
1632651322.513, 65, 0, 4321.538, 3540.513, 4082.564, 4144.615, 4227.692, 450, 0, []
1632651322.5209, 66, 0, 4344.615, 3662.564, 4088.718, 4136.923, 4238.462, 16167, 0, []
1632651322.5287, 67, 0, 4348.205, 3712.308, 4060.513, 4144.615, 4235.897, 450, 0, []
1632651322.5367, 68, 0, 4344.615, 3960, 4092.308, 4158.462, 4241.026, 16100, 0, []
1632651322.5445, 69, 0, 4335.385, 4193.846, 4074.872, 4153.846, 4234.359, 450, 0, []
1632651322.5525, 70, 0, 4324.615, 4124.615, 4065.128, 4156.41, 4226.154, 16129, 0, []
1632651322.5604, 71, 0, 4321.026, 4064.103, 4085.641, 4164.615, 4228.718, 450, 0, []
1632651322.5684, 72, 0, 4321.026, 4069.744, 4064.103, 4147.692, 4232.821, 450, 0, []
1632651322.5763, 73, 0, 4312.308, 3793.846, 4083.59, 4137.949, 4226.154, 16116, 0, []
1632651322.5843, 74, 0, 4283.077, 3482.051, 4068.205, 4139.487, 4202.564, 450, 0, []
1632651322.5921, 75, 0, 4257.436, 3445.128, 4057.949, 4142.564, 4188.718, 16187, 0, []
1632651322.6001, 76, 0, 4249.744, 3209.231, 4074.359, 4153.333, 4182.564, 450, 0, []
1632651322.608, 77, 0, 4228.718, 2506.667, 4050.256, 4145.641, 4165.641, 450, 0, []
1632651322.616, 78, 0, 4213.333, 2030.256, 4076.923, 4129.231, 4157.436, 450, 0, []
1632651322.6239, 79, 0, 4212.308, 1997.949, 4069.231, 4128.718, 4139.487, 16187, 0, []
1632651322.6316, 80, 0, 4198.462, 1849.231, 4061.026, 4128.718, 4128.718, 450, 0, []
1632651322.6395, 81, 0, 4186.154, 1824.615, 4097.949, 4123.077, 4145.128, 450, 0, []
1632651322.6473, 82, 0, 4191.795, 2012.821, 4066.667, 4129.744, 4132.821, 450, 0, []
1632651322.6552, 83, 0, 4210.769, 1861.538, 4073.333, 4160, 4129.231, 16187, 0, []
1632651322.663, 84, 0, 4202.564, 2261.538, 4081.026, 4162.051, 4151.795, 450, 0, []
1632651322.6709, 85, 0, 4174.359, 3591.282, 4060.513, 4141.026, 4121.538, 450, 0, []
1632651322.6786, 86, 0, 4186.154, 4035.385, 4088.205, 4147.692, 4105.128, 450, 0, []
1632651322.6865, 87, 0, 4206.667, 3288.205, 4073.846, 4148.718, 4143.077, 16187, 0, []
1632651322.6943, 88, 0, 4198.462, 3075.385, 4068.205, 4148.718, 4151.282, 450, 0, []
1632651322.7022, 89, 0, 4200, 3269.744, 4089.231, 4169.744, 4142.564, 450, 0, []
1632651322.71, 90, 0, 4213.333, 2981.026, 4103.077, 4179.487, 4154.872, 450, 0, []
1632651322.7179, 91, 0, 4202.051, 3376.41, 4109.231, 4168.205, 4151.282, 16187, 0, []
1632651322.7258, 92, 0, 4190.769, 4329.744, 4073.846, 4162.051, 4137.949, 450, 0, []
1632651322.7338, 93, 0, 4203.59, 4029.744, 4094.872, 4175.897, 4152.821, 450, 0, []
1632651322.7417, 94, 0, 4203.077, 2975.897, 4100.513, 4177.949, 4155.385, 450, 0, []
1632651322.7497, 95, 0, 4190.256, 2816.41, 4064.103, 4164.615, 4126.154, 16187, 0, []
1632651322.7576, 96, 0, 4183.077, 3221.026, 4088.718, 4164.615, 4121.026, 450, 0, []
1632651322.7655, 97, 0, 4167.179, 3221.538, 4074.359, 4166.154, 4133.846, 450, 0, []
1632651322.7734, 98, 0, 4180, 3102.564, 4091.282, 4187.692, 4144.103, 450, 0, []
1632651322.7814, 99, 0, 4212.821, 3030.769, 4108.205, 4205.641, 4160, 16187, 0, []
1632651322.7893, 100, 0, 4196.923, 3098.462, 4054.872, 4170.769, 4160.513, 450, 0, []
1632651322.7971, 101, 0, 4157.949, 3659.487, 4057.436, 4139.487, 4132.821, 450, 0, []
1632651322.8049, 102, 0, 4144.615, 3994.359, 4043.077, 4133.846, 4101.538, 450, 0, []
1632651322.8127, 103, 0, 4155.897, 3628.718, 4055.385, 4125.128, 4103.077, 16187, 0, []
1632651322.8206, 104, 0, 4171.282, 3485.641, 4103.077, 4137.436, 4131.795, 450, 0, []
1632651322.8284, 105, 0, 4166.667, 3929.231, 4090.256, 4154.872, 4138.462, 450, 0, []
1632651322.8363, 106, 0, 4158.462, 4190.769, 4098.974, 4154.359, 4122.051, 450, 0, []
1632651322.8441, 107, 0, 4162.051, 4227.692, 4088.205, 4163.59, 4105.641, 16187, 0, []
1632651322.852, 108, 0, 4166.154, 4323.077, 4077.436, 4189.231, 4099.487, 450, 0, []
1632651322.8599, 109, 0, 4159.487, 4336.41, 4070.769, 4173.333, 4094.872, 450, 0, []
1632651322.8679, 110, 0, 4142.051, 4420.513, 4024.103, 4122.564, 4073.846, 450, 0, []
1632651322.8758, 111, 0, 4143.077, 4457.949, 4047.692, 4124.615, 4078.462, 16187, 0, []
1632651322.8838, 112, 0, 4156.41, 4220.513, 4068.205, 4150.256, 4096.923, 450, 0, []
1632651322.8916, 113, 0, 4166.154, 4132.821, 4072.308, 4150.256, 4092.821, 450, 0, []
1632651322.8995, 114, 0, 4174.872, 4323.59, 4095.385, 4153.846, 4106.154, 450, 0, []
1632651322.9074, 115, 0, 4173.846, 4273.333, 4069.231, 4161.026, 4123.59, 16187, 0, []
1632651322.9152, 116, 0, 4169.231, 3982.564, 4090.256, 4175.385, 4126.667, 450, 0, []
1632651322.9232, 117, 0, 4156.41, 3917.436, 4088.718, 4174.872, 4111.282, 450, 0, []
1632651322.9311, 118, 0, 4143.59, 4086.667, 4058.462, 4152.821, 4083.077, 450, 0, []
1632651322.9389, 119, 0, 4146.667, 4296.923, 4078.974, 4142.051, 4082.564, 16187, 0, []
1632651322.9467, 120, 0, 4136.923, 4490.769, 4053.333, 4135.385, 4089.231, 450, 0, []
1632651322.9546, 121, 0, 4116.41, 4536.41, 4058.462, 4125.128, 4069.231, 450, 0, []
1632651322.9624, 122, 0, 4124.103, 4225.641, 4069.231, 4118.974, 4061.026, 450, 0, []
1632651322.9703, 123, 0, 4142.564, 3962.564, 4057.436, 4125.128, 4085.128, 16187, 0, []
1632651322.978, 124, 0, 4138.462, 4211.282, 4082.051, 4146.667, 4093.333, 450, 0, []
1632651322.9859, 125, 0, 4120, 4272.821, 4062.051, 4150.769, 4073.333, 450, 0, []
1632651322.9937, 126, 0, 4131.282, 3846.154, 4076.923, 4148.205, 4085.641, 450, 0, []
1632651323.0016, 127, 0, 4160.513, 3826.667, 4088.205, 4149.744, 4114.359, 16187, 0, []
1632651323.0094, 128, 0, 4171.282, 4206.154, 4065.641, 4144.103, 4115.897, 450, 0, []
1632651323.0174, 0, 0, 4168.205, 4101.026, 4086.667, 4153.846, 4116.41, 450, 0, []
1632651323.0252, 1, 0, 4167.692, 3894.872, 4068.718, 4173.333, 4117.949, 450, 0, []
1632651323.0332, 2, 0, 4186.154, 4248.205, 4095.897, 4194.359, 4128.205, 16184, 0, []
1632651323.0411, 3, 0, 4191.795, 4640.513, 4115.897, 4193.333, 4134.359, 450, 0, []
1632651323.0491, 4, 0, 4178.974, 4560.513, 4068.718, 4168.205, 4115.385, 16106, 0, []
1632651323.057, 5, 0, 4182.051, 4087.179, 4089.744, 4169.744, 4126.667, 450, 0, []
1632651323.0649, 6, 0, 4177.436, 3679.487, 4074.359, 4172.308, 4143.59, 16119, 0, []
1632651323.0728, 7, 0, 4165.128, 3563.59, 4052.821, 4153.333, 4118.462, 450, 0, []
1632651323.0808, 8, 0, 4180, 3536.41, 4075.385, 4146.667, 4110.769, 450, 0, []
1632651323.0887, 9, 0, 4187.692, 3510.769, 4065.641, 4157.436, 4134.359, 16149, 0, []
1632651323.0965, 10, 0, 4167.179, 3502.051, 4070.769, 4166.667, 4128.718, 450, 0, []
1632651323.1044, 11, 0, 4158.462, 3518.462, 4050.256, 4164.103, 4104.615, 16180, 0, []
1632651323.1121, 12, 0, 4169.744, 3485.641, 4052.308, 4164.103, 4114.872, 450, 0, []
1632651323.12, 13, 0, 4171.795, 3383.59, 4073.333, 4172.308, 4128.718, 450, 0, []
1632651323.1278, 14, 0, 4171.282, 3255.897, 4061.538, 4179.487, 4131.282, 450, 0, []
1632651323.1357, 15, 0, 4204.615, 3153.846, 4112.308, 4197.949, 4167.179, 16180, 0, []
1632651323.1435, 16, 0, 4227.179, 3127.179, 4112.308, 4206.667, 4186.667, 0, 0, []
1632651323.1514, 17, 0, 4195.385, 3178.462, 4081.026, 4187.692, 4154.359, 0, 0, []
1632651323.1593, 18, 0, 4183.077, 3212.821, 4100, 4183.077, 4136.923, 0, 0, []
1632651323.1673, 19, 0, 4221.538, 3076.923, 4080, 4197.436, 4163.077, 0, 0, []
1632651323.1752, 20, 0, 4252.308, 3047.692, 4090.769, 4207.692, 4201.026, 0, 0, []
1632651323.1832, 21, 0, 4241.026, 3294.872, 4081.538, 4198.974, 4202.564, 0, 0, []
1632651323.1911, 22, 0, 4212.308, 3423.59, 4061.026, 4185.641, 4180.513, 0, 0, []
1632651323.199, 23, 0, 4202.564, 3300, 4086.154, 4189.231, 4179.487, 0, 0, []
1632651323.2069, 24, 0, 4217.436, 3155.385, 4074.872, 4186.154, 4192.308, 0, 0, []
1632651323.2149, 25, 0, 4240, 3263.077, 4102.564, 4189.231, 4207.692, 0, 0, []
1632651323.2228, 26, 0, 4223.077, 3500, 4098.462, 4192.821, 4191.795, 0, 0, []
1632651323.2308, 27, 0, 4190.256, 3356.923, 4066.154, 4180.513, 4167.179, 0, 0, []
1632651323.2386, 28, 0, 4207.692, 2970.769, 4104.103, 4175.897, 4190.256, 0, 0, []
1632651323.2464, 29, 0, 4233.846, 2867.692, 4095.385, 4178.974, 4205.128, 0, 0, []
1632651323.2543, 30, 0, 4227.179, 2876.41, 4108.205, 4196.923, 4197.949, 0, 0, []
1632651323.2621, 31, 0, 4220.513, 2761.026, 4128.205, 4209.744, 4201.538, 0, 0, []
1632651323.27, 32, 0, 4228.205, 2783.59, 4100, 4196.41, 4201.026, 0, 0, []
1632651323.2778, 33, 0, 4224.103, 2875.385, 4102.051, 4184.615, 4200, 0, 0, []
1632651323.2856, 34, 0, 4202.051, 2771.795, 4066.667, 4185.641, 4181.026, 0, 0, []
1632651323.2934, 35, 0, 4191.282, 2684.615, 4053.846, 4174.359, 4156.41, 0, 0, []
1632651323.3013, 36, 0, 4186.667, 2776.923, 4066.154, 4144.615, 4164.615, 0, 0, []
1632651323.3091, 37, 0, 4192.821, 2726.154, 4054.359, 4155.897, 4174.359, 0, 0, []
1632651323.317, 38, 0, 4212.821, 2532.821, 4078.974, 4195.897, 4173.846, 0, 0, []
1632651323.3247, 39, 0, 4198.974, 2675.897, 4067.179, 4180.513, 4178.974, 0, 0, []
1632651323.3327, 40, 0, 4182.051, 3039.487, 4065.641, 4168.205, 4176.41, 0, 0, []
1632651323.3406, 41, 0, 4209.744, 3041.026, 4085.641, 4204.615, 4183.077, 0, 0, []
1632651323.3486, 42, 0, 4223.59, 2839.487, 4072.308, 4208.205, 4197.436, 0, 0, []
1632651323.3565, 43, 0, 4198.974, 2906.667, 4092.308, 4190.769, 4190.256, 0, 0, []
1632651323.3645, 44, 0, 4179.487, 3198.974, 4079.487, 4186.154, 4165.641, 0, 0, []
1632651323.3723, 45, 0, 4194.872, 3392.308, 4090.256, 4188.205, 4162.564, 0, 0, []
1632651323.3803, 46, 0, 4214.872, 3297.949, 4103.59, 4191.795, 4188.205, 0, 0, []
1632651323.3882, 47, 0, 4193.333, 3125.128, 4047.179, 4170.769, 4190.769, 0, 0, []
1632651323.396, 48, 0, 4167.179, 3079.487, 4069.744, 4161.538, 4163.59, 0, 0, []
1632651323.4039, 49, 0, 4174.359, 3113.846, 4084.615, 4178.462, 4156.41, 0, 0, []
1632651323.4116, 50, 0, 4186.667, 3171.282, 4073.846, 4175.897, 4181.026, 0, 0, []
1632651323.4195, 51, 0, 4177.436, 3150.769, 4088.205, 4169.744, 4184.615, 0, 0, []
1632651323.4273, 52, 0, 4161.026, 3090.256, 4072.821, 4182.564, 4163.077, 0, 0, []
1632651323.4352, 53, 0, 4167.179, 3133.846, 4095.385, 4189.231, 4170.256, 0, 0, []
1632651323.443, 54, 0, 4168.718, 3187.179, 4064.103, 4168.718, 4174.359, 0, 0, []
1632651323.4509, 55, 0, 4151.795, 3001.538, 4041.026, 4153.333, 4162.051, 0, 0, []
1632651323.4586, 56, 0, 4160.513, 2821.538, 4101.026, 4169.744, 4172.308, 0, 0, []
1632651323.4665, 57, 0, 4189.744, 3055.897, 4084.103, 4190.769, 4188.718, 0, 0, []
1632651323.4743, 58, 0, 4181.026, 3345.641, 4077.436, 4191.795, 4187.692, 0, 0, []
1632651323.4823, 59, 0, 4156.923, 3177.436, 4087.179, 4173.333, 4164.615, 0, 0, []
1632651323.4902, 60, 0, 4166.154, 2835.385, 4073.333, 4168.205, 4154.359, 0, 0, []
1632651323.4981, 61, 0, 4173.333, 2847.179, 4091.282, 4175.385, 4172.308, 0, 0, []
1632651323.506, 62, 0, 4167.692, 3052.308, 4075.385, 4173.846, 4166.667, 0, 0, []
1632651323.514, 63, 0, 4184.103, 3148.205, 4083.59, 4184.615, 4166.154, 0, 0, []
1632651323.5219, 64, 0, 4181.538, 3220, 4078.462, 4178.974, 4181.026, 450, 0, []
1632651323.5299, 65, 0, 4162.564, 3198.462, 4045.128, 4161.026, 4165.128, 450, 0, []
1632651323.5378, 66, 0, 4175.897, 3047.692, 4062.051, 4165.641, 4161.538, 16174, 0, []
1632651323.5457, 67, 0, 4175.385, 2893.333, 4047.179, 4161.538, 4185.128, 450, 0, []
1632651323.5536, 68, 0, 4158.462, 2847.692, 4058.462, 4164.103, 4171.795, 16171, 0, []
1632651323.5614, 69, 0, 4163.59, 2948.205, 4062.051, 4175.385, 4148.718, 450, 0, []
1632651323.5693, 70, 0, 4169.231, 3026.154, 4036.923, 4161.538, 4165.128, 16113, 0, []
1632651323.5771, 71, 0, 4172.821, 3027.692, 4081.026, 4170.256, 4175.385, 450, 0, []
1632651323.5849, 72, 0, 4177.436, 3068.205, 4072.308, 4194.872, 4169.231, 450, 0, []
1632651323.5927, 73, 0, 4167.179, 3098.974, 4066.154, 4186.154, 4178.462, 16135, 0, []
1632651323.6006, 74, 0, 4156.41, 3096.41, 4090.769, 4182.051, 4169.231, 450, 0, []
1632651323.6084, 75, 0, 4156.923, 3034.359, 4074.359, 4185.641, 4152.821, 16186, 0, []
1632651323.6163, 76, 0, 4160.513, 2833.333, 4095.385, 4175.897, 4175.897, 450, 0, []
1632651323.6241, 77, 0, 4158.462, 2746.154, 4089.744, 4187.179, 4176.923, 450, 0, []
1632651323.6319, 78, 0, 4156.41, 2942.564, 4089.744, 4214.872, 4161.026, 450, 0, []
1632651323.6397, 79, 0, 4155.385, 3081.538, 4104.103, 4202.564, 4173.846, 16186, 0, []
1632651323.6477, 80, 0, 4151.795, 2955.897, 4066.667, 4176.41, 4157.949, 450, 0, []
1632651323.6556, 81, 0, 4157.436, 2887.692, 4083.077, 4190.769, 4145.641, 450, 0, []
1632651323.6636, 82, 0, 4149.744, 3003.077, 4079.487, 4183.077, 4164.103, 450, 0, []
1632651323.6714, 83, 0, 4144.615, 2897.436, 4076.41, 4172.308, 4151.795, 16186, 0, []
1632651323.6794, 84, 0, 4173.846, 2623.59, 4122.051, 4209.744, 4155.385, 450, 0, []
1632651323.6873, 85, 0, 4185.641, 2716.41, 4112.308, 4216.41, 4191.282, 450, 0, []
1632651323.6953, 86, 0, 4177.949, 3066.667, 4120.513, 4209.231, 4200.513, 450, 0, []
1632651323.7032, 87, 0, 4182.051, 3182.564, 4122.051, 4232.308, 4191.795, 16186, 0, []
1632651323.711, 88, 0, 4186.667, 3151.282, 4114.872, 4228.205, 4192.308, 450, 0, []
1632651323.7188, 89, 0, 4180.513, 3131.282, 4121.026, 4196.41, 4190.256, 450, 0, []
1632651323.7266, 90, 0, 4163.59, 3050.256, 4091.795, 4197.436, 4182.564, 450, 0, []
1632651323.7345, 91, 0, 4165.641, 3074.359, 4123.59, 4239.487, 4186.667, 16186, 0, []
1632651323.7423, 92, 0, 4171.282, 3136.41, 4110.769, 4241.026, 4182.564, 450, 0, []
1632651323.7502, 93, 0, 4151.795, 3231.282, 4061.026, 4195.897, 4163.59, 450, 0, []
1632651323.7579, 94, 0, 4140.513, 3534.872, 4094.359, 4196.923, 4153.846, 450, 0, []
1632651323.7658, 95, 0, 4144.615, 3663.59, 4087.692, 4215.897, 4153.333, 16186, 0, []
1632651323.7736, 96, 0, 4146.667, 3620.513, 4084.615, 4205.128, 4164.615, 450, 0, []
1632651323.7816, 97, 0, 4146.154, 3788.205, 4080.513, 4196.923, 4167.692, 450, 0, []
1632651323.7895, 98, 0, 4147.179, 3742.564, 4071.282, 4203.59, 4166.154, 450, 0, []
1632651323.7975, 99, 0, 4154.359, 3366.154, 4103.077, 4200, 4177.949, 16186, 0, []
1632651323.8053, 100, 0, 4169.744, 3340.513, 4074.359, 4181.538, 4181.538, 450, 0, []
1632651323.8133, 101, 0, 4185.641, 3497.949, 4088.718, 4189.744, 4187.692, 450, 0, []
1632651323.8212, 102, 0, 4185.641, 3356.923, 4118.974, 4215.385, 4195.897, 450, 0, []
1632651323.8292, 103, 0, 4175.385, 3297.436, 4094.872, 4217.949, 4188.718, 16186, 0, []
1632651323.8371, 104, 0, 4176.41, 3370.256, 4103.59, 4202.051, 4188.205, 450, 0, []
1632651323.845, 105, 0, 4179.487, 3263.077, 4072.308, 4195.897, 4191.282, 450, 0, []
1632651323.8529, 106, 0, 4180, 3244.103, 4084.615, 4212.308, 4192.821, 450, 0, []
1632651323.8608, 107, 0, 4196.41, 3382.564, 4141.026, 4229.744, 4203.59, 16186, 0, []
1632651323.8687, 108, 0, 4208.205, 3357.436, 4128.205, 4228.205, 4210.256, 450, 0, []
1632651323.8765, 109, 0, 4190.769, 3307.692, 4123.59, 4216.41, 4198.462, 450, 0, []
1632651323.8844, 110, 0, 4167.179, 3355.897, 4098.974, 4208.718, 4176.923, 450, 0, []
1632651323.8921, 111, 0, 4165.128, 3343.077, 4102.051, 4214.872, 4178.462, 16186, 0, []
1632651323.9, 112, 0, 4157.949, 3248.718, 4108.718, 4196.923, 4178.462, 450, 0, []
1632651323.9079, 113, 0, 4123.59, 3227.692, 4042.051, 4154.872, 4136.923, 450, 0, []
1632651323.9158, 114, 0, 4100, 3458.974, 4044.615, 4156.923, 4112.308, 450, 0, []
1632651323.9238, 115, 0, 4096.923, 3675.897, 4053.846, 4159.487, 4117.949, 16186, 0, []
1632651323.9317, 116, 0, 4108.205, 3502.564, 4040, 4147.179, 4118.974, 450, 0, []
1632651323.9396, 117, 0, 4122.051, 3222.051, 4045.641, 4171.795, 4130.256, 450, 0, []
1632651323.9476, 118, 0, 4116.41, 3381.026, 4024.615, 4181.538, 4128.718, 450, 0, []
1632651323.9555, 119, 0, 4110.256, 3793.333, 4043.59, 4167.692, 4113.846, 16186, 0, []
1632651323.9635, 120, 0, 4087.692, 3857.949, 4030.256, 4153.333, 4106.154, 450, 0, []
1632651323.9714, 121, 0, 4064.103, 3641.026, 4009.231, 4133.846, 4085.128, 450, 0, []
1632651323.9793, 122, 0, 4077.436, 3574.872, 4027.179, 4139.487, 4075.897, 450, 0, []
1632651323.9872, 123, 0, 4092.308, 3643.077, 4012.308, 4157.436, 4101.026, 16186, 0, []
1632651323.9952, 124, 0, 4098.462, 3529.744, 4044.615, 4154.872, 4125.641, 450, 0, []
1632651324.0031, 125, 0, 4099.487, 3345.128, 4041.538, 4145.641, 4110.769, 450, 0, []
1632651324.0109, 126, 0, 4080, 3335.385, 4016.41, 4145.641, 4097.949, 450, 0, []
1632651324.0188, 127, 0, 4059.487, 3479.487, 4048.718, 4132.308, 4105.641, 16186, 0, []
1632651324.0265, 128, 0, 4066.154, 3658.462, 4022.051, 4116.41, 4086.154, 450, 0, []
1632651324.0344, 0, 0, 4082.564, 3732.821, 4023.077, 4134.872, 4078.462, 450, 0, []
1632651324.0422, 1, 0, 4072.821, 3852.308, 4034.872, 4135.897, 4091.282, 450, 0, []
1632651324.0501, 2, 0, 4069.231, 3914.359, 4020, 4117.436, 4082.051, 16172, 0, []
1632651324.0579, 3, 0, 4090.256, 3590.769, 4042.051, 4135.897, 4089.231, 450, 0, []
1632651324.0657, 4, 0, 4090.256, 3298.462, 4025.128, 4149.744, 4113.846, 16179, 0, []
1632651324.0735, 5, 0, 4082.564, 3475.385, 4038.462, 4146.154, 4108.205, 450, 0, []
1632651324.0814, 6, 0, 4087.692, 3692.308, 4043.077, 4149.744, 4088.718, 16119, 0, []
1632651324.0892, 7, 0, 4072.308, 3673.846, 4013.846, 4142.051, 4093.846, 450, 0, []
1632651324.0972, 8, 0, 4053.846, 3725.128, 4042.564, 4125.641, 4103.59, 450, 0, []
1632651324.1051, 9, 0, 4055.385, 3981.538, 4014.359, 4125.641, 4085.128, 16136, 0, []
1632651324.113, 10, 0, 4060.513, 3995.385, 4011.282, 4143.59, 4081.538, 450, 0, []
1632651324.1209, 11, 0, 4068.205, 3692.821, 4045.128, 4145.128, 4108.718, 16184, 0, []
1632651324.1289, 12, 0, 4077.436, 3723.077, 4014.872, 4140.513, 4111.795, 450, 0, []
1632651324.1368, 13, 0, 4087.179, 3931.795, 4038.462, 4148.205, 4111.282, 450, 0, []
1632651324.1448, 14, 0, 4100.513, 3683.077, 4053.846, 4129.744, 4131.795, 450, 0, []
1632651324.1526, 15, 0, 4111.282, 3477.949, 4033.846, 4124.103, 4134.359, 16184, 0, []
1632651324.1606, 16, 0, 4101.026, 3896.923, 4026.154, 4158.462, 4109.744, 0, 0, []
1632651324.1685, 17, 0, 4088.205, 4139.487, 4017.949, 4161.026, 4085.641, 0, 0, []
1632651324.1765, 18, 0, 4099.487, 3736.41, 4041.538, 4147.179, 4094.359, 0, 0, []
1632651324.1844, 19, 0, 4104.615, 3512.308, 4024.103, 4160, 4118.462, 0, 0, []
1632651324.1922, 20, 0, 4098.974, 3860.513, 4026.154, 4165.641, 4113.333, 0, 0, []
1632651324.2, 21, 0, 4102.051, 4199.487, 4040.513, 4150.769, 4101.026, 0, 0, []
1632651324.2078, 22, 0, 4094.359, 4024.615, 4004.103, 4127.179, 4111.282, 0, 0, []
1632651324.2157, 23, 0, 4092.308, 3744.103, 4038.974, 4128.718, 4108.205, 0, 0, []
1632651324.2235, 24, 0, 4107.179, 3769.231, 4035.385, 4149.231, 4091.795, 0, 0, []
1632651324.2314, 25, 0, 4101.538, 3888.718, 4003.077, 4142.564, 4097.949, 0, 0, []
1632651324.2391, 26, 0, 4088.718, 3769.744, 4027.692, 4134.359, 4096.41, 0, 0, []
1632651324.247, 27, 0, 4091.795, 3554.359, 4012.821, 4141.538, 4085.641, 0, 0, []
1632651324.2548, 28, 0, 4094.359, 3601.538, 4028.718, 4143.59, 4115.897, 0, 0, []
1632651324.2628, 29, 0, 4091.282, 3672.821, 4026.154, 4141.026, 4128.205, 0, 0, []
1632651324.2707, 30, 0, 4090.769, 3702.564, 4004.103, 4145.128, 4104.103, 0, 0, []
1632651324.2786, 31, 0, 4089.231, 3793.333, 4032.821, 4147.692, 4107.692, 0, 0, []
1632651324.2865, 32, 0, 4095.385, 3606.667, 4019.487, 4145.641, 4106.154, 0, 0, []
1632651324.2945, 33, 0, 4103.59, 3289.231, 4026.154, 4147.179, 4102.051, 0, 0, []
1632651324.3024, 34, 0, 4076.923, 3471.795, 4019.487, 4126.667, 4103.077, 0, 0, []
1632651324.3104, 35, 0, 4066.667, 3787.692, 4000, 4120, 4082.051, 0, 0, []
1632651324.3183, 36, 0, 4098.462, 3633.846, 4033.333, 4152.308, 4084.615, 0, 0, []
1632651324.326, 37, 0, 4093.846, 3476.41, 4017.949, 4156.41, 4108.205, 0, 0, []
1632651324.3339, 38, 0, 4089.744, 3565.128, 4034.872, 4159.487, 4114.872, 0, 0, []
1632651324.3417, 39, 0, 4114.359, 3549.231, 4052.308, 4176.923, 4111.795, 0, 0, []
1632651324.3496, 40, 0, 4097.436, 3419.487, 4015.897, 4151.282, 4107.179, 0, 0, []
1632651324.3574, 41, 0, 4082.051, 3366.154, 4028.205, 4125.128, 4109.744, 0, 0, []
1632651324.3652, 42, 0, 4106.154, 3378.974, 4013.846, 4145.128, 4114.872, 0, 0, []
1632651324.373, 43, 0, 4110.256, 3393.846, 4028.718, 4177.436, 4124.103, 0, 0, []
1632651324.3809, 44, 0, 4106.154, 3551.795, 4057.949, 4176.923, 4137.436, 0, 0, []
1632651324.3887, 45, 0, 4125.641, 3753.846, 4023.077, 4160.513, 4141.538, 0, 0, []
1632651324.3967, 46, 0, 4134.359, 3865.128, 4040, 4166.667, 4142.051, 0, 0, []
1632651324.4046, 47, 0, 4134.359, 3992.308, 4052.821, 4181.538, 4145.641, 0, 0, []
1632651324.4125, 48, 0, 4154.359, 4112.308, 4073.846, 4187.692, 4161.538, 0, 0, []
1632651324.4204, 49, 0, 4172.308, 4105.128, 4091.795, 4189.231, 4183.59, 0, 0, []
1632651324.4284, 50, 0, 4169.744, 3936.41, 4052.308, 4184.103, 4188.718, 0, 0, []
1632651324.4363, 51, 0, 4168.205, 3767.179, 4063.077, 4182.564, 4183.077, 0, 0, []
1632651324.4443, 52, 0, 4151.282, 3843.077, 4046.154, 4178.974, 4163.59, 0, 0, []
1632651324.4522, 53, 0, 4126.154, 4009.744, 4030.769, 4176.41, 4146.154, 0, 0, []
1632651324.4601, 54, 0, 4138.974, 3900, 4056.923, 4180.513, 4155.897, 0, 0, []
1632651324.468, 55, 0, 4149.744, 3647.179, 4031.795, 4151.282, 4157.949, 0, 0, []
1632651324.476, 56, 0, 4143.077, 3573.333, 4048.205, 4126.154, 4150.769, 0, 0, []
1632651324.4839, 57, 0, 4156.41, 3680.513, 4063.59, 4138.462, 4167.692, 0, 0, []
1632651324.4917, 58, 0, 4192.821, 3890.769, 4070.769, 4148.718, 4204.615, 0, 0, []
1632651324.4995, 59, 0, 4236.41, 3938.974, 4088.718, 4160, 4250.256, 0, 0, []
1632651324.5073, 60, 0, 4264.615, 3737.949, 4055.385, 4177.949, 4278.974, 0, 0, []
1632651324.5152, 61, 0, 4284.615, 3691.795, 4066.667, 4195.897, 4295.897, 0, 0, []
1632651324.523, 62, 0, 4303.077, 3829.744, 4054.359, 4195.897, 4312.821, 0, 0, []
1632651324.5309, 63, 0, 4318.462, 3771.795, 4036.923, 4193.333, 4329.231, 0, 0, []
1632651324.5387, 64, 0, 4335.385, 3691.282, 4078.974, 4201.538, 4344.615, 450, 0, []
1632651324.5465, 65, 0, 4354.872, 3864.615, 4090.769, 4196.923, 4372.308, 450, 0, []
1632651324.5543, 66, 0, 4385.128, 3973.846, 4138.462, 4205.128, 4421.538, 16171, 0, []
1632651324.5622, 67, 0, 4392.821, 3808.718, 4148.718, 4220, 4426.667, 450, 0, []
1632651324.57, 68, 0, 4368.205, 3697.949, 4114.359, 4225.641, 4381.538, 16154, 0, []
1632651324.578, 69, 0, 4345.641, 3732.821, 4127.692, 4235.897, 4362.051, 450, 0, []
1632651324.5858, 70, 0, 4324.103, 3610.256, 4085.641, 4229.231, 4356.923, 16090, 0, []
1632651324.5938, 71, 0, 4311.282, 3443.077, 4053.846, 4218.974, 4344.615, 450, 0, []
1632651324.6017, 72, 0, 4328.205, 3447.179, 4061.026, 4217.436, 4356.41, 450, 0, []
1632651324.6097, 73, 0, 4363.077, 3429.231, 4091.795, 4222.564, 4392.308, 16151, 0, []
1632651324.6176, 74, 0, 4392.821, 3309.231, 4166.667, 4242.051, 4416.41, 450, 0, []
1632651324.6256, 75, 0, 4391.282, 3226.154, 4157.949, 4247.692, 4431.282, 16171, 0, []
1632651324.6334, 76, 0, 4386.667, 3262.564, 4148.718, 4242.051, 4439.487, 450, 0, []
1632651324.6414, 77, 0, 4383.59, 3420.513, 4145.641, 4233.846, 4421.538, 450, 0, []
1632651324.6493, 78, 0, 4363.077, 3571.795, 4085.641, 4218.974, 4384.103, 450, 0, []
1632651324.6571, 79, 0, 4354.872, 3576.41, 4087.179, 4219.487, 4372.821, 16171, 0, []
1632651324.665, 80, 0, 4348.718, 3534.872, 4078.974, 4225.641, 4377.436, 450, 0, []
1632651324.6727, 81, 0, 4330.256, 3561.538, 4074.359, 4219.487, 4363.59, 450, 0, []
1632651324.6806, 82, 0, 4317.436, 3590.256, 4095.385, 4210.769, 4352.308, 450, 0, []
1632651324.6884, 83, 0, 4320, 3598.462, 4081.538, 4202.051, 4349.231, 16171, 0, []
1632651324.6963, 84, 0, 4326.667, 3662.564, 4105.641, 4200.513, 4355.897, 450, 0, []
1632651324.7041, 85, 0, 4314.872, 3847.179, 4089.744, 4205.641, 4343.077, 450, 0, []
1632651324.7121, 86, 0, 4301.026, 4004.103, 4084.615, 4220, 4316.923, 450, 0, []
1632651324.7199, 87, 0, 4300.513, 3933.333, 4118.462, 4225.128, 4316.41, 16171, 0, []
1632651324.7279, 88, 0, 4302.564, 3784.615, 4099.487, 4211.282, 4312.308, 450, 0, []
1632651324.7358, 89, 0, 4298.462, 3704.615, 4130.769, 4224.615, 4307.692, 450, 0, []
1632651324.7438, 90, 0, 4288.718, 3639.487, 4132.821, 4242.051, 4303.59, 450, 0, []
1632651324.7517, 91, 0, 4276.41, 3602.564, 4107.179, 4229.744, 4287.692, 16171, 0, []
1632651324.7596, 92, 0, 4260, 3617.949, 4113.333, 4222.051, 4274.872, 450, 0, []
1632651324.7675, 93, 0, 4238.974, 3604.615, 4075.897, 4217.949, 4256.41, 450, 0, []
1632651324.7755, 94, 0, 4231.795, 3601.538, 4092.821, 4216.41, 4245.128, 450, 0, []
1632651324.7834, 95, 0, 4222.051, 3855.897, 4094.359, 4216.41, 4238.462, 16171, 0, []
1632651324.7912, 96, 0, 4202.051, 4193.333, 4074.872, 4205.641, 4225.641, 450, 0, []
1632651324.7991, 97, 0, 4197.949, 4112.821, 4100, 4196.923, 4211.795, 450, 0, []
1632651324.8068, 98, 0, 4195.897, 4025.128, 4087.179, 4198.462, 4202.051, 450, 0, []
1632651324.8147, 99, 0, 4191.282, 4488.718, 4097.436, 4210.769, 4202.564, 16171, 0, []
1632651324.8225, 100, 0, 4183.077, 4771.795, 4081.026, 4206.667, 4195.385, 450, 0, []
1632651324.8304, 101, 0, 4165.128, 4546.154, 4051.282, 4191.282, 4176.923, 450, 0, []
1632651324.8382, 102, 0, 4155.385, 4516.923, 4085.128, 4190.256, 4171.795, 450, 0, []
1632651324.846, 103, 0, 4159.487, 4556.41, 4067.179, 4177.436, 4176.923, 16171, 0, []
1632651324.8538, 104, 0, 4153.333, 4234.359, 4065.641, 4164.103, 4175.385, 450, 0, []
1632651324.8617, 105, 0, 4126.667, 3918.974, 4074.872, 4171.795, 4161.026, 450, 0, []
1632651324.8695, 106, 0, 4131.282, 3885.128, 4057.436, 4190.256, 4153.333, 450, 0, []
1632651324.8774, 107, 0, 4166.154, 4061.026, 4091.795, 4204.103, 4174.359, 16171, 0, []
1632651324.8852, 108, 0, 4165.641, 4185.641, 4090.769, 4189.744, 4174.359, 450, 0, []
1632651324.893, 109, 0, 4130.256, 4053.333, 4074.359, 4170.769, 4147.179, 450, 0, []
1632651324.9009, 110, 0, 4105.128, 3903.59, 4057.436, 4168.205, 4129.231, 450, 0, []
1632651324.9088, 111, 0, 4115.897, 4055.385, 4051.795, 4181.026, 4122.051, 16171, 0, []
1632651324.9167, 112, 0, 4142.564, 4583.59, 4105.128, 4199.487, 4133.333, 450, 0, []
1632651324.9245, 113, 0, 4139.487, 4910.256, 4074.872, 4196.41, 4133.846, 450, 0, []
1632651324.9324, 114, 0, 4128.205, 4312.821, 4068.205, 4186.667, 4134.359, 450, 0, []
1632651324.9403, 115, 0, 4148.718, 3325.641, 4121.026, 4196.923, 4165.128, 16171, 0, []
1632651324.9482, 116, 0, 4153.846, 3165.641, 4098.462, 4206.154, 4172.308, 450, 0, []
1632651324.9562, 117, 0, 4134.359, 3669.744, 4100.513, 4198.462, 4148.718, 450, 0, []
1632651324.9641, 118, 0, 4130.256, 3950.769, 4089.744, 4177.436, 4132.308, 450, 0, []
1632651324.9719, 119, 0, 4126.667, 4241.026, 4074.872, 4164.615, 4129.231, 16171, 0, []
1632651324.9797, 120, 0, 4125.641, 4896.41, 4078.462, 4177.949, 4136.41, 450, 0, []
1632651324.9875, 121, 0, 4130.769, 5362.564, 4057.436, 4184.103, 4146.667, 450, 0, []
1632651324.9954, 122, 0, 4134.359, 5263.077, 4084.103, 4184.615, 4152.308, 450, 0, []
1632651325.0032, 123, 0, 4133.333, 5171.795, 4071.282, 4193.333, 4152.308, 16171, 0, []
1632651325.0111, 124, 0, 4133.846, 5201.538, 4062.051, 4195.385, 4150.256, 450, 0, []
1632651325.0188, 125, 0, 4128.718, 4603.59, 4084.615, 4188.718, 4141.538, 450, 0, []
1632651325.0268, 126, 0, 4112.308, 3652.308, 4061.538, 4174.359, 4137.436, 450, 0, []
1632651325.0347, 127, 0, 4121.026, 3202.051, 4089.231, 4176.41, 4141.538, 16171, 0, []
1632651325.0427, 128, 0, 4141.538, 3218.974, 4090.256, 4188.205, 4149.231, 450, 0, []
1632651325.0506, 0, 0, 4150.769, 3152.821, 4070.256, 4199.487, 4164.103, 450, 0, []
1632651325.0586, 1, 0, 4157.436, 3007.692, 4102.051, 4218.974, 4165.641, 450, 0, []
1632651325.0664, 2, 0, 4147.692, 3195.385, 4084.615, 4214.359, 4146.667, 16196, 0, []
1632651325.0744, 3, 0, 4135.385, 3595.897, 4081.026, 4196.41, 4141.026, 450, 0, []
1632651325.0823, 4, 0, 4128.718, 3773.333, 4066.154, 4185.128, 4145.641, 16108, 0, []
1632651325.0903, 5, 0, 4118.462, 3700, 4040.513, 4167.179, 4135.897, 450, 0, []
1632651325.0982, 6, 0, 4117.436, 3759.487, 4070.256, 4166.154, 4125.128, 16105, 0, []
1632651325.1059, 7, 0, 4116.923, 4051.282, 4049.744, 4165.128, 4113.846, 450, 0, []
1632651325.1138, 8, 0, 4111.282, 4227.179, 4042.051, 4144.615, 4112.308, 450, 0, []
1632651325.1216, 9, 0, 4094.359, 4120.513, 4026.667, 4123.077, 4107.179, 16141, 0, []
1632651325.1295, 10, 0, 4074.872, 4053.846, 4000.513, 4128.205, 4088.205, 450, 0, []
1632651325.1373, 11, 0, 4083.077, 4225.641, 4049.744, 4160.513, 4088.718, 16205, 0, []
1632651325.1452, 12, 0, 4097.436, 4160, 4033.846, 4164.615, 4096.923, 450, 0, []
1632651325.1529, 13, 0, 4093.846, 3810.256, 4016.923, 4145.128, 4098.462, 450, 0, []
1632651325.1608, 14, 0, 4086.154, 3683.077, 4029.231, 4145.641, 4089.231, 450, 0, []
1632651325.1686, 15, 0, 4086.154, 3685.128, 4012.821, 4160.513, 4082.564, 16205, 0, []
1632651325.1765, 16, 0, 4096.923, 3635.897, 4044.615, 4173.333, 4106.667, 0, 0, []
1632651325.1843, 17, 0, 4106.154, 3728.205, 4037.949, 4176.923, 4120, 0, 0, []
1632651325.1922, 18, 0, 4108.205, 3901.026, 4033.846, 4175.385, 4109.744, 0, 0, []
1632651325.2001, 19, 0, 4111.282, 3908.718, 4054.359, 4167.179, 4113.333, 0, 0, []
1632651325.2081, 20, 0, 4116.41, 3844.103, 4032.821, 4166.667, 4115.385, 0, 0, []
1632651325.216, 21, 0, 4108.205, 3825.641, 4046.154, 4178.462, 4106.154, 0, 0, []
1632651325.224, 22, 0, 4101.026, 3728.205, 4041.538, 4181.026, 4098.974, 0, 0, []
1632651325.2319, 23, 0, 4104.615, 3715.385, 4038.462, 4178.462, 4098.974, 0, 0, []
1632651325.2398, 24, 0, 4085.641, 4037.436, 4040, 4164.615, 4091.282, 0, 0, []
1632651325.2477, 25, 0, 4062.564, 4211.282, 3995.385, 4137.949, 4055.897, 0, 0, []
1632651325.2557, 26, 0, 4076.923, 3746.154, 4011.795, 4135.385, 4053.333, 0, 0, []
1632651325.2636, 27, 0, 4086.154, 3206.154, 4022.051, 4140.513, 4094.872, 0, 0, []
1632651325.2716, 28, 0, 4077.949, 3084.615, 4026.154, 4141.538, 4096.923, 0, 0, []
1632651325.2794, 29, 0, 4091.795, 3033.846, 4048.205, 4155.897, 4083.077, 0, 0, []
1632651325.2872, 30, 0, 4101.026, 2923.59, 4027.692, 4163.59, 4114.872, 0, 0, []
1632651325.2952, 31, 0, 4088.205, 2845.128, 4054.872, 4160, 4133.846, 0, 0, []
1632651325.3031, 32, 0, 4081.026, 2721.538, 4044.615, 4148.205, 4100.513, 0, 0, []
1632651325.3111, 33, 0, 4085.128, 2666.154, 4009.231, 4141.026, 4090.769, 0, 0, []
1632651325.319, 34, 0, 4084.615, 2728.205, 4035.897, 4149.744, 4114.872, 0, 0, []
1632651325.3269, 35, 0, 4079.487, 2731.795, 4024.103, 4144.615, 4106.667, 0, 0, []
1632651325.3348, 36, 0, 4097.436, 2714.872, 4040, 4154.872, 4094.359, 0, 0, []
1632651325.3428, 37, 0, 4111.795, 3057.949, 4048.718, 4181.026, 4107.179, 0, 0, []
1632651325.3508, 38, 0, 4111.795, 3607.179, 4041.026, 4183.077, 4118.462, 0, 0, []
1632651325.3587, 39, 0, 4124.615, 3818.462, 4072.821, 4183.077, 4142.564, 0, 0, []
1632651325.3666, 40, 0, 4127.692, 3920, 4043.077, 4172.821, 4157.949, 0, 0, []
1632651325.3745, 41, 0, 4133.333, 4082.051, 4051.795, 4167.692, 4160, 0, 0, []
1632651325.3825, 42, 0, 4149.231, 3992.308, 4064.103, 4180, 4165.128, 0, 0, []
1632651325.3904, 43, 0, 4151.795, 3825.128, 4031.282, 4177.436, 4159.487, 0, 0, []
1632651325.3984, 44, 0, 4166.154, 3907.692, 4055.385, 4170.256, 4174.872, 0, 0, []
1632651325.4063, 45, 0, 4200, 4107.692, 4048.205, 4175.385, 4214.872, 0, 0, []
1632651325.4142, 46, 0, 4220, 4280.513, 4054.359, 4188.205, 4241.538, 0, 0, []
1632651325.4221, 47, 0, 4244.615, 4322.564, 4063.59, 4194.359, 4258.974, 0, 0, []
1632651325.4301, 48, 0, 4297.436, 4101.538, 4046.667, 4200, 4296.923, 0, 0, []
1632651325.438, 49, 0, 4333.846, 3963.077, 4083.077, 4212.308, 4339.487, 0, 0, []
1632651325.446, 50, 0, 4322.564, 3935.385, 4076.923, 4198.462, 4328.718, 0, 0, []
1632651325.4539, 51, 0, 4308.205, 3730.256, 4087.692, 4184.615, 4302.051, 0, 0, []
1632651325.4618, 52, 0, 4302.051, 3699.487, 4116.923, 4202.564, 4293.846, 0, 0, []
1632651325.4697, 53, 0, 4266.667, 3971.282, 4076.923, 4205.128, 4261.026, 0, 0, []
1632651325.4777, 54, 0, 4227.692, 4145.128, 4072.308, 4175.385, 4226.154, 0, 0, []
1632651325.4856, 55, 0, 4224.103, 4112.821, 4065.641, 4156.923, 4223.59, 0, 0, []
1632651325.4936, 56, 0, 4232.821, 4128.205, 4077.949, 4169.744, 4235.385, 0, 0, []
1632651325.5015, 57, 0, 4228.718, 4176.41, 4097.436, 4186.154, 4235.385, 0, 0, []
1632651325.5094, 58, 0, 4192.821, 4085.128, 4049.744, 4178.462, 4215.385, 0, 0, []
1632651325.5174, 59, 0, 4154.359, 4133.333, 4041.538, 4169.231, 4184.103, 0, 0, []
1632651325.5253, 60, 0, 4147.179, 4371.282, 4035.385, 4180.513, 4165.641, 0, 0, []
1632651325.5333, 61, 0, 4149.744, 4362.564, 4049.231, 4186.154, 4168.205, 0, 0, []
1632651325.5412, 62, 0, 4136.41, 4095.897, 4073.333, 4162.564, 4155.897, 0, 0, []
1632651325.5491, 63, 0, 4129.231, 4010.769, 4031.282, 4137.436, 4134.872, 0, 0, []
1632651325.557, 64, 0, 4143.077, 4062.564, 4054.872, 4151.795, 4143.59, 450, 0, []
1632651325.565, 65, 0, 4132.821, 3982.051, 4064.103, 4173.846, 4142.564, 450, 0, []
1632651325.5729, 66, 0, 4108.718, 3929.231, 4056.41, 4179.487, 4127.179, 16184, 0, []
1632651325.5809, 67, 0, 4116.41, 3978.462, 4089.231, 4189.231, 4133.846, 450, 0, []
1632651325.5888, 68, 0, 4110.769, 3946.667, 4043.077, 4169.744, 4121.026, 16131, 0, []
1632651325.5967, 69, 0, 4085.128, 3936.923, 4035.897, 4144.103, 4096.923, 450, 0, []
1632651325.6046, 70, 0, 4088.718, 4166.667, 4057.436, 4153.846, 4098.462, 16124, 0, []
1632651325.6126, 71, 0, 4107.692, 4421.538, 4059.487, 4173.333, 4105.641, 450, 0, []
1632651325.6205, 72, 0, 4106.667, 4317.436, 4081.538, 4175.385, 4114.872, 450, 0, []
1632651325.6285, 73, 0, 4096.41, 4123.59, 4052.821, 4173.846, 4118.462, 16116, 0, []
1632651325.6363, 74, 0, 4101.026, 4293.333, 4075.897, 4202.564, 4112.821, 450, 0, []
1632651325.6443, 75, 0, 4106.154, 4413.846, 4100, 4218.462, 4107.179, 16213, 0, []
1632651325.6523, 76, 0, 4112.821, 4141.026, 4073.846, 4197.949, 4116.41, 450, 0, []
1632651325.6602, 77, 0, 4137.436, 4013.333, 4091.282, 4197.436, 4141.538, 450, 0, []
1632651325.6682, 78, 0, 4141.026, 4217.436, 4071.282, 4207.692, 4148.205, 450, 0, []
1632651325.6761, 79, 0, 4122.051, 4339.487, 4071.795, 4208.205, 4134.359, 16213, 0, []
1632651325.684, 80, 0, 4118.462, 4229.744, 4089.231, 4201.026, 4125.128, 450, 0, []
1632651325.6919, 81, 0, 4116.41, 4048.205, 4066.667, 4188.205, 4121.026, 450, 0, []
1632651325.6999, 82, 0, 4112.308, 4069.744, 4082.051, 4194.359, 4120, 450, 0, []
1632651325.7078, 83, 0, 4109.744, 4303.59, 4065.641, 4193.846, 4110.769, 16213, 0, []
1632651325.7158, 84, 0, 4105.641, 4323.077, 4064.103, 4179.487, 4100.513, 450, 0, []
1632651325.7237, 85, 0, 4111.282, 4087.692, 4085.128, 4184.615, 4114.872, 450, 0, []
1632651325.7316, 86, 0, 4117.436, 4006.154, 4059.487, 4189.744, 4129.231, 450, 0, []
1632651325.7395, 87, 0, 4121.026, 4080, 4068.205, 4187.179, 4128.718, 16213, 0, []
1632651325.7475, 88, 0, 4126.154, 4132.821, 4065.128, 4194.359, 4127.692, 450, 0, []
1632651325.7554, 89, 0, 4135.385, 4206.667, 4081.026, 4201.026, 4134.359, 450, 0, []
1632651325.7634, 90, 0, 4145.641, 4093.333, 4099.487, 4201.538, 4140, 450, 0, []
1632651325.7712, 91, 0, 4150.256, 3737.949, 4068.205, 4193.846, 4140, 16213, 0, []
1632651325.7792, 92, 0, 4157.949, 3701.538, 4089.744, 4186.154, 4149.744, 450, 0, []
1632651325.7871, 93, 0, 4153.333, 4108.718, 4073.846, 4181.026, 4156.923, 450, 0, []
1632651325.7951, 94, 0, 4148.718, 4326.667, 4072.308, 4199.487, 4146.667, 450, 0, []
1632651325.803, 95, 0, 4153.846, 4220, 4102.564, 4228.718, 4141.538, 16213, 0, []
1632651325.811, 96, 0, 4151.795, 4286.154, 4070.769, 4230.769, 4147.692, 450, 0, []
1632651325.8189, 97, 0, 4162.564, 4398.974, 4108.205, 4240, 4160, 450, 0, []
1632651325.8268, 98, 0, 4157.949, 4218.462, 4116.41, 4242.564, 4155.897, 450, 0, []
1632651325.8348, 99, 0, 4130.769, 4045.128, 4075.897, 4221.538, 4129.231, 16213, 0, []
1632651325.8427, 100, 0, 4131.282, 4058.974, 4092.821, 4215.897, 4130.769, 450, 0, []
1632651325.8507, 101, 0, 4154.872, 4050.769, 4086.667, 4207.179, 4160, 450, 0, []
1632651325.8585, 102, 0, 4159.487, 4012.821, 4094.359, 4194.359, 4164.103, 450, 0, []
1632651325.8665, 103, 0, 4128.205, 4150.256, 4084.615, 4189.744, 4126.154, 16213, 0, []
1632651325.8744, 104, 0, 4105.641, 4506.667, 4056.41, 4194.359, 4094.359, 450, 0, []
1632651325.8824, 105, 0, 4122.051, 4803.59, 4074.359, 4201.026, 4108.205, 450, 0, []
1632651325.8903, 106, 0, 4136.923, 4714.359, 4064.615, 4197.436, 4117.949, 450, 0, []
1632651325.8982, 107, 0, 4125.128, 4534.359, 4073.333, 4185.128, 4116.41, 16213, 0, []
1632651325.906, 108, 0, 4123.077, 4621.026, 4081.538, 4179.487, 4130.256, 450, 0, []
1632651325.914, 109, 0, 4133.846, 4711.282, 4067.179, 4192.308, 4138.974, 450, 0, []
1632651325.9219, 110, 0, 4126.154, 4607.692, 4074.872, 4189.744, 4124.615, 450, 0, []
1632651325.9299, 111, 0, 4112.308, 4421.026, 4035.385, 4166.154, 4101.538, 16213, 0, []
1632651325.9378, 112, 0, 4116.41, 4221.538, 4058.974, 4180.513, 4110.256, 450, 0, []
1632651325.9458, 113, 0, 4126.667, 4237.949, 4095.897, 4217.949, 4134.359, 450, 0, []
1632651325.9537, 114, 0, 4142.564, 4537.436, 4079.487, 4229.231, 4151.795, 450, 0, []
1632651325.9616, 115, 0, 4172.821, 4618.462, 4116.923, 4238.974, 4172.308, 16213, 0, []
1632651325.9696, 116, 0, 4173.333, 4430.256, 4103.077, 4231.282, 4167.179, 450, 0, []
1632651325.9775, 117, 0, 4153.333, 4486.667, 4097.436, 4216.41, 4151.282, 450, 0, []
1632651325.9855, 118, 0, 4155.385, 4747.179, 4110.769, 4228.718, 4161.026, 450, 0, []
1632651325.9933, 119, 0, 4160.513, 4756.923, 4082.564, 4224.103, 4167.179, 16213, 0, []
1632651326.0013, 120, 0, 4172.308, 4534.359, 4116.923, 4210.256, 4180.513, 450, 0, []
1632651326.0092, 121, 0, 4184.615, 4470.256, 4111.282, 4216.923, 4201.026, 450, 0, []
1632651326.0172, 122, 0, 4174.359, 4723.077, 4090.256, 4226.154, 4194.359, 450, 0, []
1632651326.0251, 123, 0, 4153.846, 5053.333, 4097.949, 4222.051, 4174.872, 16213, 0, []
1632651326.0331, 124, 0, 4147.179, 5274.359, 4077.436, 4208.205, 4161.538, 450, 0, []
1632651326.0409, 125, 0, 4165.128, 5416.923, 4109.231, 4215.897, 4163.59, 450, 0, []
1632651326.0489, 126, 0, 4164.103, 5169.744, 4101.538, 4220, 4154.359, 450, 0, []
1632651326.0568, 127, 0, 4132.821, 4724.615, 4065.128, 4193.846, 4121.026, 16213, 0, []
1632651326.0648, 128, 0, 4116.41, 4843.59, 4072.821, 4175.385, 4107.692, 450, 0, []
1632651326.0727, 0, 0, 4121.538, 5321.026, 4061.026, 4174.872, 4111.282, 450, 0, []
1632651326.0807, 1, 0, 4123.59, 5388.205, 4078.974, 4173.846, 4116.41, 450, 0, []
1632651326.0885, 2, 0, 4124.103, 5109.744, 4068.205, 4170.769, 4116.923, 16177, 0, []
1632651326.0963, 3, 0, 4135.385, 5112.308, 4058.974, 4183.077, 4126.667, 450, 0, []
1632651326.1042, 4, 0, 4151.282, 5314.872, 4087.692, 4204.103, 4143.077, 16149, 0, []
1632651326.112, 5, 0, 4152.308, 5201.538, 4058.974, 4194.872, 4139.487, 450, 0, []
1632651326.1199, 6, 0, 4150.256, 4813.333, 4067.692, 4190.769, 4132.308, 16146, 0, []
1632651326.1276, 7, 0, 4151.282, 4848.205, 4076.923, 4200.513, 4135.897, 450, 0, []
1632651326.1356, 8, 0, 4160, 5192.308, 4069.744, 4206.667, 4143.077, 450, 0, []
1632651326.1435, 9, 0, 4167.692, 4792.308, 4092.821, 4204.103, 4153.333, 16083, 0, []
1632651326.1515, 10, 0, 4147.179, 3910.256, 4055.385, 4176.923, 4144.615, 450, 0, []
1632651326.1594, 11, 0, 4129.231, 3493.333, 4052.821, 4166.154, 4118.462, 16243, 0, []
1632651326.1674, 12, 0, 4143.59, 3507.692, 4070.256, 4180, 4114.359, 450, 0, []
1632651326.1752, 13, 0, 4174.872, 3463.077, 4087.179, 4202.051, 4151.795, 450, 0, []
1632651326.1832, 14, 0, 4189.744, 3381.538, 4129.744, 4220.513, 4184.103, 450, 0, []
1632651326.1911, 15, 0, 4166.154, 3618.974, 4079.487, 4202.564, 4164.615, 16243, 0, []
1632651326.1991, 16, 0, 4152.821, 4072.821, 4071.282, 4197.949, 4144.103, 0, 0, []
1632651326.207, 17, 0, 4155.897, 4358.462, 4091.795, 4214.359, 4141.026, 0, 0, []
1632651326.215, 18, 0, 4145.641, 4432.821, 4061.538, 4209.744, 4125.128, 0, 0, []
1632651326.2228, 19, 0, 4149.744, 4418.974, 4096.41, 4211.795, 4133.333, 0, 0, []
1632651326.2308, 20, 0, 4161.538, 4278.974, 4098.974, 4216.923, 4143.077, 0, 0, []
1632651326.2387, 21, 0, 4151.282, 4013.846, 4096.923, 4199.487, 4130.256, 0, 0, []
1632651326.2465, 22, 0, 4150.256, 3950.769, 4105.128, 4194.359, 4134.359, 0, 0, []
1632651326.2544, 23, 0, 4158.462, 4214.359, 4066.667, 4198.974, 4147.179, 0, 0, []
1632651326.2621, 24, 0, 4138.974, 4257.436, 4075.897, 4176.41, 4134.359, 0, 0, []
1632651326.2701, 25, 0, 4125.641, 3771.282, 4064.615, 4169.744, 4108.718, 0, 0, []
1632651326.278, 26, 0, 4146.667, 3333.846, 4063.077, 4203.077, 4125.128, 0, 0, []
1632651326.286, 27, 0, 4143.077, 3343.077, 4075.385, 4202.051, 4148.205, 0, 0, []
1632651326.2939, 28, 0, 4108.718, 3381.538, 4040, 4163.077, 4105.128, 0, 0, []
1632651326.3019, 29, 0, 4112.821, 3486.154, 4060, 4170.256, 4078.974, 0, 0, []
1632651326.3097, 30, 0, 4128.205, 3810.769, 4064.615, 4187.692, 4111.282, 0, 0, []
1632651326.3177, 31, 0, 4116.923, 3841.026, 4057.436, 4173.333, 4110.769, 0, 0, []
1632651326.3256, 32, 0, 4117.436, 3702.051, 4069.744, 4172.308, 4086.154, 0, 0, []
1632651326.3336, 33, 0, 4130.769, 3769.231, 4046.667, 4172.308, 4101.538, 0, 0, []
1632651326.3415, 34, 0, 4133.846, 3908.718, 4068.718, 4163.59, 4126.667, 0, 0, []
1632651326.3495, 35, 0, 4125.128, 4168.718, 4057.436, 4164.615, 4112.308, 0, 0, []
1632651326.3573, 36, 0, 4133.333, 4484.103, 4050.769, 4182.051, 4103.077, 0, 0, []
1632651326.3653, 37, 0, 4161.538, 4567.692, 4101.026, 4204.615, 4121.538, 0, 0, []
1632651326.3732, 38, 0, 4160, 4614.872, 4080, 4204.103, 4117.949, 0, 0, []
1632651326.381, 39, 0, 4137.949, 4787.692, 4076.923, 4186.667, 4112.308, 0, 0, []
1632651326.3889, 40, 0, 4143.59, 4709.744, 4080.513, 4182.051, 4134.359, 0, 0, []
1632651326.3966, 41, 0, 4163.077, 4557.949, 4080, 4197.436, 4155.385, 0, 0, []
1632651326.4045, 42, 0, 4162.051, 4656.923, 4096.41, 4211.282, 4151.795, 0, 0, []
1632651326.4123, 43, 0, 4140, 4421.538, 4050.256, 4187.179, 4135.897, 0, 0, []
1632651326.4203, 44, 0, 4137.949, 3773.333, 4075.385, 4171.795, 4143.077, 0, 0, []
1632651326.4282, 45, 0, 4151.795, 3560, 4102.564, 4200, 4145.641, 0, 0, []
1632651326.4362, 46, 0, 4137.949, 3716.923, 4071.282, 4211.795, 4127.179, 0, 0, []
1632651326.444, 47, 0, 4127.179, 3729.231, 4082.051, 4188.718, 4121.026, 0, 0, []
1632651326.4519, 48, 0, 4136.41, 3944.103, 4056.923, 4168.718, 4123.59, 0, 0, []
1632651326.4597, 49, 0, 4144.103, 4535.897, 4065.641, 4185.128, 4125.641, 0, 0, []
1632651326.4677, 50, 0, 4151.282, 4898.462, 4089.744, 4195.897, 4134.359, 0, 0, []
1632651326.4756, 51, 0, 4148.718, 4783.077, 4062.564, 4170.769, 4129.744, 0, 0, []
1632651326.4836, 52, 0, 4133.333, 4601.026, 4072.308, 4162.051, 4122.051, 0, 0, []
1632651326.4914, 53, 0, 4127.692, 4578.462, 4072.821, 4170.256, 4125.128, 0, 0, []
1632651326.4994, 54, 0, 4138.974, 4607.179, 4083.077, 4178.462, 4114.359, 0, 0, []
1632651326.5073, 55, 0, 4131.282, 4460.513, 4089.231, 4185.128, 4097.436, 0, 0, []
1632651326.5153, 56, 0, 4137.436, 4016.923, 4078.462, 4194.359, 4113.333, 0, 0, []
1632651326.5232, 57, 0, 4172.821, 3538.462, 4111.795, 4203.077, 4152.308, 0, 0, []
1632651326.5311, 58, 0, 4160.513, 3376.923, 4081.026, 4181.026, 4152.308, 0, 0, []
1632651326.539, 59, 0, 4133.846, 3451.795, 4063.077, 4173.333, 4123.59, 0, 0, []
1632651326.5468, 60, 0, 4147.179, 3318.462, 4092.308, 4185.128, 4124.103, 0, 0, []
1632651326.5547, 61, 0, 4160, 3074.872, 4070.769, 4171.282, 4140, 0, 0, []
1632651326.5625, 62, 0, 4167.179, 3102.051, 4080, 4172.308, 4156.923, 0, 0, []
1632651326.5705, 63, 0, 4167.692, 3167.692, 4064.615, 4189.231, 4152.308, 0, 0, []
1632651326.5783, 64, 0, 4153.333, 3135.897, 4058.974, 4183.077, 4130.769, 450, 0, []
1632651326.5863, 65, 0, 4153.846, 3256.923, 4076.41, 4173.846, 4136.923, 450, 0, []
1632651326.5942, 66, 0, 4156.41, 3531.282, 4040.513, 4172.308, 4144.103, 16164, 0, []
1632651326.6022, 67, 0, 4150.256, 3777.436, 4075.385, 4179.487, 4134.359, 450, 0, []
1632651326.6101, 68, 0, 4152.308, 4053.333, 4095.385, 4193.846, 4123.077, 16133, 0, []
1632651326.6181, 69, 0, 4168.718, 4308.205, 4090.256, 4201.026, 4130.769, 450, 0, []
1632651326.6259, 70, 0, 4188.718, 4212.821, 4117.949, 4194.359, 4151.795, 16140, 0, []
1632651326.6339, 71, 0, 4188.205, 4087.179, 4086.154, 4182.564, 4146.154, 450, 0, []
1632651326.6418, 72, 0, 4173.333, 4380, 4092.821, 4190.769, 4137.436, 450, 0, []
1632651326.6498, 73, 0, 4176.923, 4386.154, 4100.513, 4209.231, 4152.308, 16110, 0, []
1632651326.6577, 74, 0, 4180, 3907.179, 4075.897, 4206.667, 4158.974, 450, 0, []
1632651326.6656, 75, 0, 4153.333, 4051.282, 4075.897, 4186.154, 4132.821, 16198, 0, []
1632651326.6735, 76, 0, 4135.897, 4788.205, 4050.256, 4174.872, 4113.846, 450, 0, []
1632651326.6813, 77, 0, 4149.744, 4980, 4070.769, 4185.128, 4126.667, 450, 0, []
1632651326.6892, 78, 0, 4149.744, 4863.077, 4070.769, 4172.821, 4127.179, 450, 0, []
1632651326.697, 79, 0, 4145.128, 5120, 4044.615, 4159.487, 4118.462, 16198, 0, []
1632651326.7049, 80, 0, 4167.179, 5185.128, 4079.487, 4188.205, 4134.872, 450, 0, []
1632651326.7126, 81, 0, 4170.256, 4786.667, 4060, 4197.436, 4137.949, 450, 0, []
1632651326.7205, 82, 0, 4153.333, 4465.128, 4063.077, 4184.615, 4125.641, 450, 0, []
1632651326.7283, 83, 0, 4160, 4525.641, 4078.462, 4194.872, 4130.769, 16198, 0, []
1632651326.7362, 84, 0, 4166.667, 4862.051, 4061.026, 4197.436, 4136.41, 450, 0, []
1632651326.744, 85, 0, 4160.513, 5141.026, 4084.615, 4190.256, 4133.846, 450, 0, []
1632651326.752, 86, 0, 4162.051, 5036.923, 4070.769, 4190.769, 4143.077, 450, 0, []
1632651326.7598, 87, 0, 4183.59, 4749.744, 4091.795, 4206.667, 4166.667, 16198, 0, []
1632651326.7678, 88, 0, 4194.359, 4816.41, 4122.051, 4213.846, 4177.436, 450, 0, []
1632651326.7757, 89, 0, 4188.718, 4917.436, 4096.41, 4207.692, 4167.692, 450, 0, []
1632651326.7837, 90, 0, 4186.154, 4597.436, 4118.462, 4217.436, 4170.256, 450, 0, []
1632651326.7916, 91, 0, 4171.282, 4171.282, 4104.615, 4215.897, 4156.41, 16198, 0, []
1632651326.7995, 92, 0, 4168.718, 3836.923, 4101.538, 4216.41, 4144.103, 450, 0, []
1632651326.8074, 93, 0, 4199.487, 3545.128, 4134.359, 4240, 4171.282, 450, 0, []
1632651326.8154, 94, 0, 4207.692, 3367.179, 4109.231, 4225.641, 4174.359, 450, 0, []
1632651326.8233, 95, 0, 4184.615, 3293.333, 4097.949, 4187.179, 4155.897, 16198, 0, []
1632651326.8311, 96, 0, 4165.641, 3199.487, 4067.692, 4188.718, 4152.821, 450, 0, []
1632651326.839, 97, 0, 4161.538, 3204.615, 4068.718, 4214.359, 4140, 450, 0, []
1632651326.8467, 98, 0, 4170.256, 3277.949, 4099.487, 4215.385, 4134.359, 450, 0, []
1632651326.8546, 99, 0, 4189.231, 3228.205, 4076.923, 4211.282, 4156.41, 16198, 0, []
1632651326.8624, 100, 0, 4202.051, 3424.615, 4113.846, 4230.256, 4184.103, 450, 0, []
1632651326.8703, 101, 0, 4194.359, 3870.769, 4116.923, 4231.282, 4177.949, 450, 0, []
1632651326.8781, 102, 0, 4191.795, 3906.667, 4098.974, 4224.615, 4169.744, 450, 0, []
1632651326.8859, 103, 0, 4200, 3730.769, 4125.128, 4233.333, 4174.872, 16198, 0, []
1632651326.8939, 104, 0, 4191.282, 4009.744, 4092.308, 4226.154, 4165.128, 450, 0, []
1632651326.9019, 105, 0, 4195.385, 4349.744, 4103.59, 4228.205, 4170.769, 450, 0, []
1632651326.9098, 106, 0, 4217.436, 4351.282, 4119.487, 4250.256, 4194.359, 450, 0, []
1632651326.9178, 107, 0, 4218.974, 4366.667, 4122.564, 4253.846, 4199.487, 16198, 0, []
1632651326.9257, 108, 0, 4208.205, 4355.897, 4148.205, 4240.513, 4188.718, 450, 0, []
1632651326.9336, 109, 0, 4194.872, 4221.026, 4102.051, 4220, 4172.308, 450, 0, []
1632651326.9415, 110, 0, 4190.769, 4175.385, 4097.436, 4210.769, 4168.205, 450, 0, []
1632651326.9495, 111, 0, 4200.513, 4197.436, 4107.692, 4212.821, 4175.385, 16198, 0, []
1632651326.9574, 112, 0, 4203.077, 4128.205, 4092.308, 4215.897, 4166.667, 450, 0, []
1632651326.9654, 113, 0, 4188.205, 4083.59, 4105.641, 4213.333, 4142.564, 450, 0, []
1632651326.9733, 114, 0, 4173.846, 4388.718, 4080.513, 4203.077, 4124.103, 450, 0, []
1632651326.981, 115, 0, 4175.897, 4548.205, 4101.026, 4202.051, 4137.949, 16198, 0, []
1632651326.9889, 116, 0, 4184.615, 4076.923, 4109.231, 4211.282, 4163.59, 450, 0, []
1632651326.9967, 117, 0, 4195.897, 3845.128, 4077.436, 4219.487, 4180.513, 450, 0, []
1632651327.0046, 118, 0, 4217.949, 4298.974, 4113.333, 4226.667, 4204.615, 450, 0, []
1632651327.0124, 119, 0, 4225.641, 4464.103, 4115.385, 4224.103, 4207.179, 16198, 0, []
1632651327.0202, 120, 0, 4222.564, 4148.205, 4123.077, 4233.846, 4197.949, 450, 0, []
1632651327.028, 121, 0, 4233.846, 4243.59, 4150.769, 4253.846, 4202.564, 450, 0, []
1632651327.036, 122, 0, 4229.231, 4548.718, 4123.077, 4247.692, 4185.128, 450, 0, []
1632651327.0439, 123, 0, 4210.769, 4352.308, 4119.487, 4228.205, 4164.615, 16198, 0, []
1632651327.0518, 124, 0, 4211.795, 3965.128, 4107.692, 4225.128, 4174.872, 450, 0, []
1632651327.0596, 125, 0, 4213.846, 3939.487, 4113.333, 4230.769, 4190.769, 450, 0, []
1632651327.0675, 126, 0, 4206.154, 4049.231, 4123.59, 4240, 4191.282, 450, 0, []
1632651327.0754, 127, 0, 4204.103, 4072.821, 4107.179, 4236.923, 4194.872, 16198, 0, []
1632651327.0834, 128, 0, 4213.846, 4282.564, 4137.436, 4229.231, 4197.436, 450, 0, []
1632651327.0913, 0, 0, 4198.974, 4428.205, 4104.103, 4210.769, 4173.333, 450, 0, []
1632651327.0993, 1, 0, 4184.103, 4276.41, 4081.538, 4203.077, 4151.795, 450, 0, []
1632651327.1072, 2, 0, 4192.821, 4201.538, 4108.205, 4218.974, 4165.641, 16165, 0, []
1632651327.1151, 3, 0, 4198.974, 4189.744, 4083.59, 4224.103, 4181.026, 450, 0, []
1632651327.123, 4, 0, 4204.615, 4063.077, 4118.462, 4230.769, 4184.615, 16154, 0, []
1632651327.131, 5, 0, 4199.487, 4013.846, 4112.821, 4228.718, 4165.128, 450, 0, []
1632651327.1389, 6, 0, 4187.179, 3989.231, 4087.179, 4219.487, 4147.692, 16182, 0, []
1632651327.1467, 7, 0, 4196.923, 4062.051, 4111.795, 4234.359, 4160.513, 450, 0, []
1632651327.1545, 8, 0, 4197.949, 4471.795, 4074.359, 4232.308, 4165.128, 450, 0, []
1632651327.1623, 9, 0, 4174.872, 4703.077, 4066.154, 4200.513, 4143.077, 16103, 0, []
1632651327.1702, 10, 0, 4153.333, 4676.41, 4052.821, 4174.872, 4124.615, 450, 0, []
1632651327.178, 11, 0, 4155.897, 4905.641, 4033.333, 4177.949, 4122.051, 16180, 0, []
1632651327.1859, 12, 0, 4169.744, 4953.846, 4069.744, 4192.821, 4135.385, 450, 0, []
1632651327.1937, 13, 0, 4173.333, 4609.231, 4059.487, 4195.385, 4149.744, 450, 0, []
1632651327.2016, 14, 0, 4176.41, 4506.154, 4062.051, 4205.641, 4162.051, 450, 0, []
1632651327.2095, 15, 0, 4201.538, 4508.718, 4071.282, 4227.692, 4183.077, 16180, 0, []
1632651327.2175, 16, 0, 4238.462, 4389.744, 4071.795, 4220, 4217.436, 0, 0, []
1632651327.2254, 17, 0, 4265.641, 4580.513, 4096.41, 4187.692, 4253.333, 0, 0, []
1632651327.2334, 18, 0, 4296.923, 4809.744, 4085.128, 4186.154, 4272.308, 0, 0, []
1632651327.2413, 19, 0, 4336.41, 4749.231, 4108.718, 4218.974, 4296.923, 0, 0, []
1632651327.2492, 20, 0, 4351.282, 4829.231, 4088.205, 4224.615, 4319.487, 0, 0, []
1632651327.2571, 21, 0, 4349.231, 4899.487, 4032.308, 4205.128, 4307.179, 0, 0, []
1632651327.2651, 22, 0, 4352.821, 4686.667, 4080.513, 4212.821, 4300.513, 0, 0, []
1632651327.273, 23, 0, 4341.538, 4628.205, 4081.538, 4223.59, 4290.769, 0, 0, []
1632651327.2808, 24, 0, 4309.231, 4727.692, 4061.538, 4205.641, 4258.462, 0, 0, []
1632651327.2886, 25, 0, 4293.846, 4756.41, 4078.974, 4183.077, 4246.154, 0, 0, []
1632651327.2964, 26, 0, 4302.564, 4750.256, 4096.41, 4186.667, 4258.462, 0, 0, []
1632651327.3043, 27, 0, 4303.59, 4712.821, 4134.359, 4207.179, 4263.077, 0, 0, []
1632651327.3121, 28, 0, 4275.897, 4508.205, 4089.744, 4193.846, 4241.538, 0, 0, []
1632651327.32, 29, 0, 4263.077, 4121.026, 4076.41, 4194.872, 4234.359, 0, 0, []
1632651327.3278, 30, 0, 4260, 3846.667, 4096.923, 4228.718, 4229.744, 0, 0, []
1632651327.3356, 31, 0, 4226.667, 3848.718, 4062.051, 4227.179, 4202.051, 0, 0, []
1632651327.3434, 32, 0, 4213.846, 4034.359, 4086.667, 4215.385, 4195.897, 0, 0, []
1632651327.3513, 33, 0, 4212.308, 4337.949, 4076.923, 4202.564, 4194.359, 0, 0, []
1632651327.3591, 34, 0, 4191.282, 4541.026, 4060, 4178.974, 4169.231, 0, 0, []
1632651327.3671, 35, 0, 4191.282, 4211.795, 4088.718, 4176.923, 4164.103, 0, 0, []
1632651327.375, 36, 0, 4204.615, 3602.051, 4079.487, 4185.641, 4177.949, 0, 0, []
1632651327.3829, 37, 0, 4213.333, 3368.718, 4097.949, 4201.538, 4187.179, 0, 0, []
1632651327.3908, 38, 0, 4211.795, 3313.846, 4100.513, 4210.769, 4189.744, 0, 0, []
1632651327.3988, 39, 0, 4202.051, 3150.769, 4110.256, 4211.282, 4184.103, 0, 0, []
1632651327.4067, 40, 0, 4194.872, 3150.256, 4129.231, 4215.385, 4179.487, 0, 0, []
1632651327.4147, 41, 0, 4181.026, 3249.231, 4081.538, 4207.692, 4174.872, 0, 0, []
1632651327.4225, 42, 0, 4174.359, 3393.846, 4085.128, 4200.513, 4160.513, 0, 0, []
1632651327.4305, 43, 0, 4164.103, 3888.718, 4088.718, 4195.897, 4128.205, 0, 0, []
1632651327.4384, 44, 0, 4142.051, 4278.974, 4070.256, 4184.615, 4103.59, 0, 0, []
1632651327.4462, 45, 0, 4137.436, 4133.333, 4085.641, 4173.333, 4118.974, 0, 0, []
1632651327.4541, 46, 0, 4144.103, 4057.436, 4056.923, 4162.051, 4129.744, 0, 0, []
1632651327.4619, 47, 0, 4140.513, 4282.051, 4064.615, 4167.179, 4124.103, 0, 0, []
1632651327.4697, 48, 0, 4134.872, 4398.462, 4071.795, 4174.359, 4121.538, 0, 0, []
1632651327.4775, 49, 0, 4136.41, 4530.769, 4049.744, 4164.615, 4115.897, 0, 0, []
1632651327.4854, 50, 0, 4136.41, 4677.949, 4073.846, 4170.256, 4111.282, 0, 0, []
1632651327.4932, 51, 0, 4146.667, 4468.718, 4071.282, 4204.103, 4118.462, 0, 0, []
1632651327.5011, 52, 0, 4163.077, 4244.103, 4104.615, 4223.59, 4149.231, 0, 0, []
1632651327.5089, 53, 0, 4161.538, 4264.103, 4107.692, 4206.154, 4155.385, 0, 0, []
1632651327.5168, 54, 0, 4155.385, 4321.538, 4072.308, 4196.41, 4134.872, 0, 0, []
1632651327.5247, 55, 0, 4165.641, 4378.462, 4101.026, 4213.333, 4142.051, 0, 0, []
1632651327.5327, 56, 0, 4159.487, 4396.41, 4074.872, 4208.205, 4151.282, 0, 0, []
1632651327.5406, 57, 0, 4145.128, 4323.077, 4070.256, 4200, 4142.051, 0, 0, []
1632651327.5486, 58, 0, 4135.897, 4240, 4076.923, 4204.615, 4130.769, 0, 0, []
1632651327.5564, 59, 0, 4120, 4207.179, 4050.256, 4192.821, 4121.538, 0, 0, []
1632651327.5644, 60, 0, 4128.718, 4142.051, 4097.949, 4193.846, 4123.59, 0, 0, []
1632651327.5723, 61, 0, 4143.59, 3958.462, 4096.41, 4196.923, 4130.256, 0, 0, []
1632651327.5803, 62, 0, 4148.205, 3785.641, 4081.026, 4196.923, 4140, 0, 0, []
1632651327.5882, 63, 0, 4156.41, 3832.821, 4091.282, 4209.231, 4156.923, 0, 0, []
1632651327.5961, 64, 0, 4150.256, 4005.641, 4063.077, 4205.641, 4150.256, 450, 0, []
1632651327.6039, 65, 0, 4140.513, 4071.795, 4075.385, 4199.487, 4132.308, 450, 0, []
1632651327.6117, 66, 0, 4137.436, 4107.179, 4073.846, 4202.051, 4133.846, 16170, 0, []
1632651327.6196, 67, 0, 4139.487, 4265.641, 4075.385, 4206.154, 4136.923, 450, 0, []
1632651327.6274, 68, 0, 4146.154, 4530.256, 4098.462, 4215.897, 4137.436, 16140, 0, []
1632651327.6353, 69, 0, 4157.949, 4632.821, 4087.692, 4222.564, 4142.564, 450, 0, []
1632651327.6431, 70, 0, 4163.59, 4457.436, 4110.256, 4216.923, 4158.974, 16113, 0, []
1632651327.6509, 71, 0, 4156.923, 4290.769, 4090.256, 4203.59, 4162.051, 450, 0, []
1632651327.6587, 72, 0, 4147.179, 4311.795, 4068.718, 4200, 4148.205, 450, 0, []
1632651327.6666, 73, 0, 4135.897, 4605.128, 4077.949, 4203.59, 4132.821, 16161, 0, []
1632651327.6744, 74, 0, 4124.103, 4927.692, 4037.949, 4207.179, 4124.103, 450, 0, []
1632651327.6824, 75, 0, 4118.974, 4864.615, 4064.103, 4212.821, 4124.615, 16170, 0, []
1632651327.6902, 76, 0, 4118.462, 4570.256, 4075.897, 4211.795, 4116.41, 450, 0, []
1632651327.6982, 77, 0, 4131.282, 4402.051, 4069.231, 4211.282, 4129.744, 450, 0, []
1632651327.7061, 78, 0, 4161.026, 4370.256, 4114.359, 4225.128, 4166.667, 450, 0, []
1632651327.7141, 79, 0, 4165.128, 4313.846, 4094.359, 4218.462, 4162.564, 16170, 0, []
1632651327.722, 80, 0, 4153.333, 4332.821, 4091.282, 4206.154, 4144.103, 450, 0, []
1632651327.73, 81, 0, 4154.359, 4512.821, 4094.872, 4204.103, 4149.744, 450, 0, []
1632651327.7378, 82, 0, 4156.923, 4612.308, 4082.564, 4202.051, 4144.615, 450, 0, []
1632651327.7458, 83, 0, 4151.795, 4462.051, 4093.846, 4207.179, 4133.846, 16170, 0, []
1632651327.7537, 84, 0, 4149.231, 4350.256, 4067.692, 4206.667, 4144.103, 450, 0, []
1632651327.7615, 85, 0, 4160, 4470.769, 4095.385, 4217.436, 4160.513, 450, 0, []
1632651327.7694, 86, 0, 4166.667, 4478.974, 4102.564, 4235.385, 4163.077, 450, 0, []
1632651327.7772, 87, 0, 4173.846, 4281.538, 4076.41, 4246.154, 4161.538, 16170, 0, []
1632651327.785, 88, 0, 4196.41, 4236.41, 4122.051, 4258.974, 4169.231, 450, 0, []
1632651327.7928, 89, 0, 4195.897, 4422.564, 4106.154, 4248.718, 4160, 450, 0, []
1632651327.8007, 90, 0, 4183.077, 4503.077, 4107.692, 4236.41, 4149.744, 450, 0, []
1632651327.8085, 91, 0, 4188.718, 4427.692, 4138.974, 4247.692, 4162.051, 16170, 0, []
1632651327.8165, 92, 0, 4194.872, 4430.769, 4123.077, 4248.205, 4170.769, 450, 0, []
1632651327.8243, 93, 0, 4189.231, 4383.59, 4129.231, 4227.179, 4165.641, 450, 0, []
1632651327.8323, 94, 0, 4178.462, 4358.462, 4098.974, 4221.538, 4151.795, 450, 0, []
1632651327.8402, 95, 0, 4179.487, 4606.154, 4096.41, 4244.103, 4151.282, 16170, 0, []
1632651327.8482, 96, 0, 4180, 4754.872, 4108.205, 4240.513, 4146.667, 450, 0, []
1632651327.8561, 97, 0, 4181.026, 4575.897, 4084.103, 4222.051, 4134.359, 450, 0, []
1632651327.8641, 98, 0, 4204.103, 4481.538, 4128.205, 4243.077, 4160, 450, 0, []
1632651327.8719, 99, 0, 4204.615, 4494.359, 4125.128, 4251.282, 4169.744, 16170, 0, []
1632651327.8799, 100, 0, 4176.41, 4362.564, 4092.308, 4220.513, 4140, 450, 0, []
1632651327.8878, 101, 0, 4175.897, 4282.564, 4093.333, 4211.282, 4143.59, 450, 0, []
1632651327.8957, 102, 0, 4176.923, 4392.308, 4067.179, 4206.667, 4150.256, 450, 0, []
1632651327.9036, 103, 0, 4155.385, 4400.513, 4075.897, 4190.256, 4124.615, 16170, 0, []
1632651327.9115, 104, 0, 4153.846, 4112.308, 4057.949, 4180.513, 4121.026, 450, 0, []
1632651327.9194, 105, 0, 4169.744, 3773.846, 4051.282, 4184.103, 4131.795, 450, 0, []
1632651327.9272, 106, 0, 4169.744, 3941.538, 4082.564, 4195.385, 4118.974, 450, 0, []
1632651327.9351, 107, 0, 4168.718, 4575.385, 4064.615, 4210.256, 4111.795, 16170, 0, []
1632651327.9429, 108, 0, 4187.179, 4849.231, 4094.872, 4230.769, 4136.41, 450, 0, []
1632651327.9508, 109, 0, 4202.564, 4617.949, 4103.59, 4238.974, 4155.897, 450, 0, []
1632651327.9585, 110, 0, 4198.974, 4583.59, 4090.256, 4238.462, 4153.846, 450, 0, []
1632651327.9664, 111, 0, 4200.513, 4735.897, 4112.821, 4252.308, 4163.59, 16170, 0, []
1632651327.9742, 112, 0, 4202.051, 4495.897, 4093.333, 4250.769, 4175.385, 450, 0, []
1632651327.9821, 113, 0, 4203.077, 3998.974, 4111.795, 4241.026, 4173.846, 450, 0, []
1632651327.9899, 114, 0, 4201.538, 3794.872, 4110.769, 4237.436, 4168.718, 450, 0, []
1632651327.9979, 115, 0, 4198.974, 3925.128, 4095.897, 4233.846, 4162.564, 16170, 0, []
1632651328.0057, 116, 0, 4196.41, 4019.487, 4128.718, 4227.179, 4158.974, 450, 0, []
1632651328.0137, 117, 0, 4181.026, 3901.538, 4093.333, 4212.308, 4144.103, 450, 0, []
1632651328.0216, 118, 0, 4185.641, 3997.436, 4103.077, 4225.128, 4147.692, 450, 0, []
1632651328.0296, 119, 0, 4201.026, 4410.256, 4118.974, 4244.103, 4158.462, 16170, 0, []
1632651328.0375, 120, 0, 4187.692, 4528.718, 4074.359, 4222.564, 4148.718, 450, 0, []
1632651328.0454, 121, 0, 4182.564, 4334.872, 4091.282, 4211.795, 4151.282, 450, 0, []
1632651328.0533, 122, 0, 4194.872, 4128.718, 4093.846, 4228.205, 4158.462, 450, 0, []
1632651328.0611, 123, 0, 4196.923, 3784.615, 4104.615, 4241.026, 4166.154, 16170, 0, []
1632651328.069, 124, 0, 4187.179, 3435.385, 4112.308, 4235.897, 4170.256, 450, 0, []
1632651328.0768, 125, 0, 4185.128, 3363.077, 4092.308, 4218.974, 4165.128, 450, 0, []
1632651328.0847, 126, 0, 4196.41, 3445.128, 4115.897, 4219.487, 4176.41, 450, 0, []
1632651328.0924, 127, 0, 4206.154, 3629.231, 4101.538, 4234.872, 4194.872, 16170, 0, []
1632651328.1003, 128, 0, 4215.385, 3942.564, 4101.538, 4238.974, 4202.051, 450, 0, []
1632651328.1081, 0, 0, 4211.795, 4189.231, 4104.103, 4218.974, 4195.385, 450, 0, []
1632651328.116, 1, 0, 4200.513, 4342.051, 4079.487, 4212.308, 4177.949, 450, 0, []
1632651328.1238, 2, 0, 4209.744, 4360.513, 4121.026, 4233.333, 4184.615, 16155, 0, []
1632651328.1317, 3, 0, 4210.769, 4296.41, 4103.59, 4227.692, 4192.821, 450, 0, []
1632651328.1394, 4, 0, 4178.462, 4426.154, 4071.795, 4200.513, 4161.538, 16141, 0, []
1632651328.1474, 5, 0, 4171.795, 4495.385, 4096.41, 4203.077, 4152.308, 450, 0, []
1632651328.1553, 6, 0, 4195.385, 4326.154, 4093.846, 4221.538, 4190.256, 16103, 0, []
1632651328.1633, 7, 0, 4201.538, 4339.487, 4105.128, 4236.41, 4207.692, 450, 0, []
1632651328.1712, 8, 0, 4190.769, 4425.641, 4080, 4233.846, 4189.744, 450, 0, []
1632651328.1791, 9, 0, 4195.897, 4268.205, 4089.231, 4233.846, 4191.282, 16142, 0, []
1632651328.187, 10, 0, 4215.897, 4223.59, 4129.231, 4255.897, 4216.923, 450, 0, []
1632651328.195, 11, 0, 4217.949, 4356.41, 4088.718, 4262.564, 4211.282, 16156, 0, []
1632651328.2029, 12, 0, 4199.487, 4295.897, 4103.077, 4245.641, 4194.359, 450, 0, []
1632651328.2109, 13, 0, 4181.026, 4193.846, 4102.564, 4231.282, 4189.744, 450, 0, []
1632651328.2188, 14, 0, 4174.872, 4188.205, 4078.974, 4233.333, 4181.538, 450, 0, []
1632651328.2265, 15, 0, 4170.256, 4165.641, 4094.872, 4233.333, 4168.205, 16156, 0, []
1632651328.2344, 16, 0, 4156.41, 4234.359, 4066.667, 4209.744, 4162.051, 0, 0, []
1632651328.2422, 17, 0, 4167.179, 4360, 4090.769, 4216.923, 4172.308, 0, 0, []
1632651328.2501, 18, 0, 4181.026, 4358.974, 4117.949, 4240.513, 4181.026, 0, 0, []
1632651328.2579, 19, 0, 4175.897, 4320, 4108.718, 4232.821, 4174.872, 0, 0, []
1632651328.2658, 20, 0, 4166.154, 4386.667, 4121.026, 4223.59, 4163.59, 0, 0, []
1632651328.2735, 21, 0, 4164.615, 4398.974, 4088.205, 4214.872, 4153.333, 0, 0, []
1632651328.2814, 22, 0, 4177.436, 4144.615, 4092.821, 4200, 4161.026, 0, 0, []
1632651328.2892, 23, 0, 4172.308, 4004.615, 4096.41, 4193.846, 4154.359, 0, 0, []
1632651328.2971, 24, 0, 4165.641, 4215.385, 4084.103, 4209.231, 4136.923, 0, 0, []
1632651328.3049, 25, 0, 4186.154, 4346.667, 4121.026, 4230.769, 4153.846, 0, 0, []
1632651328.3128, 26, 0, 4190.769, 4173.333, 4100, 4228.205, 4167.179, 0, 0, []
1632651328.3207, 27, 0, 4183.077, 4081.538, 4103.077, 4227.692, 4169.744, 0, 0, []
1632651328.3287, 28, 0, 4187.692, 4334.872, 4115.385, 4236.923, 4186.154, 0, 0, []
1632651328.3366, 29, 0, 4193.846, 4620.513, 4099.487, 4236.923, 4192.821, 0, 0, []
1632651328.3446, 30, 0, 4205.641, 4595.385, 4143.077, 4245.641, 4196.923, 0, 0, []
1632651328.3525, 31, 0, 4209.231, 4502.051, 4132.308, 4247.179, 4196.41, 0, 0, []
1632651328.3604, 32, 0, 4200.513, 4539.487, 4126.667, 4241.538, 4183.077, 0, 0, []
1632651328.3683, 33, 0, 4196.923, 4421.026, 4143.077, 4247.692, 4171.282, 0, 0, []
1632651328.3762, 34, 0, 4197.949, 4200.513, 4121.026, 4253.846, 4175.385, 0, 0, []
1632651328.3841, 35, 0, 4210.256, 4220, 4153.333, 4256.41, 4192.821, 0, 0, []
1632651328.3919, 36, 0, 4217.436, 4288.718, 4144.615, 4250.256, 4193.846, 0, 0, []
1632651328.3998, 37, 0, 4208.205, 4312.821, 4135.897, 4247.179, 4189.231, 0, 0, []
1632651328.4075, 38, 0, 4212.308, 4466.154, 4158.974, 4260.513, 4210.256, 0, 0, []
1632651328.4154, 39, 0, 4222.564, 4520.513, 4142.051, 4262.564, 4223.077, 0, 0, []
1632651328.4232, 40, 0, 4224.615, 4358.462, 4161.538, 4254.872, 4214.872, 0, 0, []
1632651328.4311, 41, 0, 4212.308, 4234.359, 4132.821, 4241.538, 4197.436, 0, 0, []
1632651328.4389, 42, 0, 4190.769, 4187.692, 4101.538, 4238.974, 4175.385, 0, 0, []
1632651328.4467, 43, 0, 4180, 4202.051, 4123.077, 4248.718, 4162.564, 0, 0, []
1632651328.4545, 44, 0, 4184.615, 4223.077, 4101.026, 4248.205, 4166.667, 0, 0, []
1632651328.4625, 45, 0, 4199.487, 4199.487, 4121.538, 4249.231, 4189.231, 0, 0, []
1632651328.4704, 46, 0, 4208.205, 4212.308, 4129.231, 4249.744, 4201.538, 0, 0, []
1632651328.4784, 47, 0, 4195.897, 4234.359, 4125.128, 4235.385, 4195.385, 0, 0, []
1632651328.4863, 48, 0, 4181.538, 4183.077, 4138.462, 4226.667, 4191.282, 0, 0, []
1632651328.4942, 49, 0, 4189.231, 4207.692, 4111.282, 4238.462, 4195.897, 0, 0, []
1632651328.5021, 50, 0, 4202.564, 4454.872, 4135.385, 4254.359, 4203.59, 0, 0, []
1632651328.5101, 51, 0, 4196.41, 4845.641, 4135.385, 4241.538, 4194.359, 0, 0, []
1632651328.518, 52, 0, 4205.641, 5031.282, 4128.718, 4247.692, 4196.923, 0, 0, []
1632651328.526, 53, 0, 4235.897, 4838.974, 4171.795, 4286.667, 4215.385, 0, 0, []
1632651328.5339, 54, 0, 4214.359, 4737.436, 4128.718, 4269.744, 4196.923, 0, 0, []
1632651328.5416, 55, 0, 4170.256, 5025.128, 4110.256, 4229.231, 4166.154, 0, 0, []
1632651328.5495, 56, 0, 4162.564, 5300.513, 4121.538, 4232.308, 4168.718, 0, 0, []
1632651328.5573, 57, 0, 4160, 5364.103, 4102.564, 4231.282, 4160.513, 0, 0, []
1632651328.5652, 58, 0, 4153.333, 5343.077, 4122.051, 4217.949, 4147.179, 0, 0, []
1632651328.573, 59, 0, 4164.615, 5188.718, 4111.795, 4230.769, 4162.051, 0, 0, []
1632651328.5808, 60, 0, 4183.077, 4876.41, 4122.564, 4250.769, 4179.487, 0, 0, []
1632651328.5886, 61, 0, 4187.179, 4590.769, 4126.667, 4247.179, 4186.154, 0, 0, []
1632651328.5966, 62, 0, 4178.462, 4516.41, 4096.923, 4236.41, 4184.103, 0, 0, []
1632651328.6045, 63, 0, 4172.308, 4602.564, 4114.872, 4237.949, 4173.333, 0, 0, []
1632651328.6125, 64, 0, 4164.103, 4636.923, 4088.718, 4224.103, 4160, 450, 0, []
1632651328.6204, 65, 0, 4164.615, 4520.513, 4087.692, 4211.282, 4163.59, 450, 0, []
1632651328.6283, 66, 0, 4172.308, 4177.436, 4102.051, 4212.308, 4179.487, 16186, 0, []
1632651328.6362, 67, 0, 4177.949, 3691.795, 4076.923, 4206.667, 4178.974, 450, 0, []
1632651328.6442, 68, 0, 4196.41, 3411.795, 4110.256, 4224.103, 4191.795, 16119, 0, []
1632651328.6521, 69, 0, 4206.154, 3419.487, 4103.59, 4237.949, 4201.026, 450, 0, []
1632651328.6601, 70, 0, 4203.077, 3416.923, 4109.231, 4237.949, 4194.872, 16082, 0, []
1632651328.6679, 71, 0, 4208.205, 3317.436, 4129.744, 4245.128, 4196.923, 450, 0, []
1632651328.6759, 72, 0, 4222.564, 3414.359, 4096.41, 4243.59, 4211.282, 450, 0, []
1632651328.6838, 73, 0, 4258.974, 3852.308, 4135.385, 4251.282, 4235.897, 16172, 0, []
1632651328.6916, 74, 0, 4292.821, 4320.513, 4135.897, 4249.231, 4263.59, 450, 0, []
1632651328.6995, 75, 0, 4326.667, 4471.282, 4105.641, 4236.923, 4300, 16175, 0, []
1632651328.7073, 76, 0, 4389.744, 4422.051, 4136.923, 4253.846, 4338.462, 450, 0, []
1632651328.7151, 77, 0, 4416.41, 4496.41, 4131.282, 4257.949, 4335.385, 450, 0, []
1632651328.7229, 78, 0, 4386.154, 4667.692, 4125.641, 4236.41, 4315.897, 450, 0, []
1632651328.7308, 79, 0, 4380, 4494.872, 4121.026, 4245.128, 4315.385, 16175, 0, []
1632651328.7386, 80, 0, 4395.897, 3854.359, 4149.231, 4274.359, 4319.487, 450, 0, []
1632651328.7465, 81, 0, 4370.256, 3377.436, 4171.795, 4267.179, 4300.513, 450, 0, []
1632651328.7543, 82, 0, 4324.615, 3333.846, 4123.59, 4241.026, 4267.692, 450, 0, []
1632651328.7621, 83, 0, 4314.359, 3315.897, 4155.897, 4251.795, 4264.615, 16175, 0, []
1632651328.7699, 84, 0, 4316.41, 3322.051, 4178.974, 4265.641, 4276.41, 450, 0, []
1632651328.7779, 85, 0, 4302.564, 3566.667, 4138.974, 4254.359, 4266.154, 450, 0, []
1632651328.7858, 86, 0, 4286.667, 3896.923, 4141.026, 4241.538, 4249.231, 450, 0, []
1632651328.7938, 87, 0, 4275.385, 4211.795, 4122.564, 4232.308, 4231.795, 16175, 0, []
1632651328.8016, 88, 0, 4275.897, 4404.103, 4135.385, 4236.923, 4223.077, 450, 0, []
1632651328.8096, 89, 0, 4264.615, 4195.385, 4129.231, 4233.333, 4218.462, 450, 0, []
1632651328.8175, 90, 0, 4251.795, 3790.256, 4117.949, 4224.103, 4208.205, 450, 0, []
1632651328.8255, 91, 0, 4255.897, 3770.769, 4162.564, 4240.513, 4214.872, 16175, 0, []
1632651328.8334, 92, 0, 4243.59, 3948.205, 4132.821, 4250.256, 4213.333, 450, 0, []
1632651328.8412, 93, 0, 4233.333, 3715.385, 4140.513, 4240.513, 4202.564, 450, 0, []
1632651328.849, 94, 0, 4242.564, 3553.846, 4151.282, 4234.872, 4209.231, 450, 0, []
1632651328.8568, 95, 0, 4245.641, 4110.256, 4109.231, 4237.436, 4210.256, 16175, 0, []
1632651328.8647, 96, 0, 4226.667, 4707.179, 4125.128, 4233.846, 4191.795, 450, 0, []
1632651328.8725, 97, 0, 4197.949, 4767.179, 4091.795, 4215.385, 4164.615, 450, 0, []
1632651328.8804, 98, 0, 4201.538, 4676.923, 4096.923, 4220, 4169.744, 450, 0, []
1632651328.8882, 99, 0, 4223.077, 4476.923, 4147.179, 4245.128, 4196.41, 16175, 0, []
1632651328.896, 100, 0, 4210.769, 3969.744, 4133.333, 4241.538, 4191.282, 450, 0, []
1632651328.9039, 101, 0, 4198.462, 3567.692, 4140, 4228.718, 4178.462, 450, 0, []
1632651328.9117, 102, 0, 4208.718, 3500.513, 4135.385, 4227.692, 4186.154, 450, 0, []
1632651328.9195, 103, 0, 4215.897, 3637.436, 4147.179, 4245.128, 4194.872, 16175, 0, []
1632651328.9275, 104, 0, 4216.41, 4008.718, 4158.974, 4261.538, 4187.179, 450, 0, []
1632651328.9353, 105, 0, 4225.641, 4524.103, 4144.103, 4261.538, 4183.077, 450, 0, []
1632651328.9433, 106, 0, 4238.462, 4656.923, 4184.615, 4266.154, 4202.051, 450, 0, []
1632651328.9512, 107, 0, 4220, 4160.513, 4154.359, 4259.487, 4199.487, 16175, 0, []
1632651328.9592, 108, 0, 4183.59, 3562.564, 4114.359, 4225.641, 4172.308, 450, 0, []
1632651328.9671, 109, 0, 4189.744, 3399.487, 4144.103, 4220.513, 4176.41, 450, 0, []
1632651328.9751, 110, 0, 4220.513, 3482.051, 4142.051, 4249.231, 4197.436, 450, 0, []
1632651328.9829, 111, 0, 4225.128, 3439.487, 4156.923, 4254.872, 4200, 16175, 0, []
1632651328.9909, 112, 0, 4206.667, 3398.974, 4132.821, 4224.615, 4184.615, 450, 0, []
1632651328.9988, 113, 0, 4196.923, 3736.41, 4107.692, 4220, 4173.333, 450, 0, []
1632651329.0066, 114, 0, 4189.744, 4240.513, 4130.769, 4233.333, 4171.282, 450, 0, []
1632651329.0145, 115, 0, 4186.667, 4177.949, 4115.385, 4225.128, 4168.205, 16175, 0, []
1632651329.0223, 116, 0, 4208.718, 3563.59, 4143.077, 4235.897, 4185.641, 450, 0, []
1632651329.0301, 117, 0, 4226.154, 3322.051, 4145.128, 4256.923, 4205.128, 450, 0, []
1632651329.0379, 118, 0, 4207.692, 3835.897, 4113.333, 4238.974, 4192.821, 450, 0, []
1632651329.0458, 119, 0, 4192.308, 4385.128, 4119.487, 4222.051, 4177.436, 16175, 0, []
1632651329.0536, 120, 0, 4188.205, 4271.795, 4090.769, 4220, 4172.308, 450, 0, []
1632651329.0616, 121, 0, 4187.692, 4253.846, 4106.154, 4220, 4172.821, 450, 0, []
1632651329.0694, 122, 0, 4190.256, 4905.128, 4112.821, 4218.974, 4173.333, 450, 0, []
1632651329.0774, 123, 0, 4189.231, 4873.846, 4089.231, 4215.385, 4167.692, 16175, 0, []
1632651329.0853, 124, 0, 4192.821, 4054.872, 4119.487, 4214.359, 4172.821, 450, 0, []
1632651329.0933, 125, 0, 4205.641, 4129.231, 4105.641, 4212.821, 4178.974, 450, 0, []
1632651329.1012, 126, 0, 4209.744, 4862.051, 4111.795, 4214.872, 4176.923, 450, 0, []
1632651329.1092, 127, 0, 4194.359, 4986.667, 4107.179, 4216.41, 4166.667, 16175, 0, []
1632651329.117, 128, 0, 4186.154, 4825.128, 4089.744, 4222.564, 4162.051, 450, 0, []
1632651329.125, 0, 0, 4203.59, 4803.59, 4134.359, 4247.179, 4178.974, 450, 0, []
1632651329.1329, 1, 0, 4197.949, 4505.128, 4104.615, 4244.103, 4174.872, 450, 0, []
1632651329.1409, 2, 0, 4183.077, 4118.462, 4098.974, 4227.692, 4152.821, 16217, 0, []
1632651329.1488, 3, 0, 4189.744, 4101.538, 4125.641, 4234.359, 4154.359, 450, 0, []
1632651329.1566, 4, 0, 4193.846, 4345.641, 4096.923, 4236.41, 4161.538, 16098, 0, []
1632651329.1644, 5, 0, 4195.385, 4677.949, 4120.513, 4232.308, 4160.513, 450, 0, []
1632651329.1722, 6, 0, 4194.872, 4959.487, 4122.564, 4228.205, 4149.231, 16116, 0, []
1632651329.1801, 7, 0, 4196.41, 5144.103, 4123.077, 4237.949, 4147.692, 450, 0, []
1632651329.1879, 8, 0, 4191.282, 5146.667, 4134.359, 4246.667, 4152.821, 450, 0, []
1632651329.1958, 9, 0, 4173.846, 4844.615, 4112.308, 4229.744, 4143.59, 16103, 0, []
1632651329.2035, 10, 0, 4176.41, 4292.308, 4135.385, 4236.41, 4142.564, 450, 0, []
1632651329.2114, 11, 0, 4182.051, 4005.641, 4129.231, 4253.333, 4145.641, 16256, 0, []
1632651329.2192, 12, 0, 4173.846, 4439.487, 4129.231, 4246.667, 4139.487, 450, 0, []
1632651329.2271, 13, 0, 4167.692, 5065.128, 4145.128, 4234.359, 4128.205, 450, 0, []
1632651329.2349, 14, 0, 4165.128, 5082.051, 4097.949, 4227.179, 4114.359, 450, 0, []
1632651329.2429, 15, 0, 4163.59, 4706.154, 4100.513, 4227.179, 4118.974, 16256, 0, []
1632651329.2507, 16, 0, 4164.615, 4445.128, 4100.513, 4231.795, 4133.333, 0, 0, []
1632651329.2587, 17, 0, 4160.513, 4127.692, 4107.179, 4226.667, 4135.385, 0, 0, []
1632651329.2666, 18, 0, 4155.897, 3643.077, 4111.795, 4207.179, 4133.333, 0, 0, []
1632651329.2746, 19, 0, 4158.974, 3469.744, 4052.821, 4198.974, 4140, 0, 0, []
1632651329.2825, 20, 0, 4162.051, 3611.282, 4085.128, 4213.333, 4144.615, 0, 0, []
1632651329.2904, 21, 0, 4148.205, 3673.846, 4096.923, 4205.128, 4124.615, 0, 0, []
1632651329.2983, 22, 0, 4142.051, 3745.128, 4070.769, 4197.949, 4115.385, 0, 0, []
1632651329.3061, 23, 0, 4162.051, 4042.564, 4120, 4235.385, 4145.128, 0, 0, []
1632651329.314, 24, 0, 4168.718, 4392.821, 4116.41, 4249.231, 4151.282, 0, 0, []
1632651329.3218, 25, 0, 4164.103, 4493.333, 4111.282, 4235.385, 4128.205, 0, 0, []
