Timestamp, COUNTER, INTERPOLATED, AF3, T7, Pz, T8, AF4, RAW_CQ, MARKER_HARDWARE, MARKERS
1632641556.6751, 22, 0, 4237.949, 4220, 4220.513, 4223.59, 4246.154, 0, 0, []
1632641556.683, 23, 0, 4213.846, 4210.256, 4154.872, 4200.513, 4210.256, 0, 0, []
1632641556.691, 24, 0, 4181.026, 4043.077, 4165.641, 4189.744, 4177.949, 0, 0, []
1632641556.6989, 25, 0, 4180.513, 4069.231, 4144.103, 4206.154, 4180.513, 0, 0, []
1632641556.7068, 26, 0, 4196.41, 4225.641, 4110.769, 4224.615, 4181.538, 0, 0, []
1632641556.7147, 27, 0, 4207.692, 4281.026, 4185.128, 4240.513, 4172.821, 0, 0, []
1632641556.7227, 28, 0, 4208.718, 4362.564, 4123.59, 4235.385, 4171.282, 0, 0, []
1632641556.7306, 29, 0, 4217.436, 4496.923, 4142.051, 4238.462, 4185.641, 0, 0, []
1632641556.7384, 30, 0, 4230.769, 4435.897, 4167.692, 4248.205, 4207.179, 0, 0, []
1632641556.7462, 31, 0, 4210.769, 4353.846, 4140.513, 4231.795, 4206.667, 0, 0, []
1632641556.754, 32, 0, 4181.538, 4467.692, 4204.103, 4212.308, 4188.205, 0, 0, []
1632641556.7619, 33, 0, 4200.513, 4476.41, 4164.615, 4205.128, 4186.154, 0, 0, []
1632641556.7697, 34, 0, 4231.795, 4376.41, 4190.769, 4217.949, 4191.795, 0, 0, []
1632641556.7776, 35, 0, 4231.282, 4440.513, 4193.333, 4234.872, 4188.205, 0, 0, []
1632641556.7853, 36, 0, 4228.718, 4525.641, 4121.026, 4244.615, 4204.615, 0, 0, []
1632641556.7932, 37, 0, 4234.359, 4489.744, 4182.051, 4255.385, 4232.308, 0, 0, []
1632641556.801, 38, 0, 4227.179, 4449.231, 4148.205, 4245.128, 4225.641, 0, 0, []
1632641556.8089, 39, 0, 4218.974, 4496.41, 4152.821, 4229.744, 4204.615, 0, 0, []
1632641556.8167, 40, 0, 4213.846, 4548.718, 4174.872, 4219.487, 4193.333, 0, 0, []
1632641556.8246, 41, 0, 4191.795, 4413.333, 4103.59, 4204.103, 4161.026, 0, 0, []
1632641556.8325, 42, 0, 4181.026, 4283.59, 4151.282, 4208.718, 4134.872, 0, 0, []
1632641556.8405, 43, 0, 4201.026, 4460, 4132.821, 4227.179, 4163.59, 0, 0, []
1632641556.8484, 44, 0, 4227.179, 4597.436, 4150.769, 4259.487, 4222.564, 0, 0, []
1632641556.8564, 45, 0, 4240.513, 4484.615, 4203.077, 4279.487, 4257.436, 0, 0, []
1632641556.8642, 46, 0, 4253.846, 4482.051, 4156.923, 4253.846, 4260, 0, 0, []
1632641556.8722, 47, 0, 4297.949, 4588.205, 4209.231, 4245.641, 4270.256, 0, 0, []
1632641556.8801, 48, 0, 4348.205, 4581.026, 4163.59, 4256.41, 4306.667, 0, 0, []
1632641556.8881, 49, 0, 4366.154, 4557.949, 4143.59, 4241.538, 4343.59, 0, 0, []
1632641556.896, 50, 0, 4384.615, 4627.179, 4201.538, 4221.026, 4351.795, 0, 0, []
1632641556.9039, 51, 0, 4430.256, 4665.128, 4146.154, 4233.846, 4362.564, 0, 0, []
1632641556.9118, 52, 0, 4479.487, 4617.436, 4219.487, 4281.538, 4412.821, 0, 0, []
1632641556.9196, 53, 0, 4520.513, 4584.615, 4245.128, 4315.385, 4462.564, 0, 0, []
1632641556.9275, 54, 0, 4566.154, 4591.282, 4246.667, 4343.59, 4488.205, 0, 0, []
1632641556.9353, 55, 0, 4608.205, 4618.974, 4322.051, 4391.795, 4514.872, 0, 0, []
1632641556.9431, 56, 0, 4625.641, 4666.667, 4277.436, 4425.641, 4534.872, 0, 0, []
1632641556.9509, 57, 0, 4613.846, 4721.026, 4313.846, 4431.795, 4514.872, 0, 0, []
1632641556.9588, 58, 0, 4597.436, 4742.564, 4305.641, 4418.974, 4474.872, 0, 0, []
1632641556.9666, 59, 0, 4588.718, 4744.103, 4272.308, 4425.128, 4461.026, 0, 0, []
1632641556.9745, 60, 0, 4573.846, 4733.846, 4331.795, 4447.179, 4453.846, 0, 0, []
1632641556.9823, 61, 0, 4554.872, 4767.692, 4271.282, 4447.179, 4431.282, 0, 0, []
1632641556.9902, 62, 0, 4538.462, 4812.308, 4300.513, 4446.154, 4414.872, 0, 0, []
1632641556.9981, 63, 0, 4530.769, 4709.744, 4312.821, 4443.077, 4416.41, 0, 0, []
1632641557.0061, 64, 0, 4535.897, 4574.872, 4288.718, 4443.59, 4414.359, 450, 0, []
1632641557.014, 65, 0, 4525.128, 4541.026, 4336.41, 4449.744, 4380.513, 450, 0, []
1632641557.022, 66, 0, 4481.026, 4505.128, 4267.692, 4425.641, 4335.385, 16159, 0, []
1632641557.0298, 67, 0, 4462.564, 4468.205, 4321.538, 4415.385, 4321.538, 450, 0, []
1632641557.0378, 68, 0, 4480, 4521.538, 4327.179, 4437.436, 4340.513, 16071, 0, []
1632641557.0457, 69, 0, 4493.333, 4531.282, 4268.205, 4461.026, 4364.103, 450, 0, []
1632641557.0536, 70, 0, 4503.59, 4429.231, 4365.641, 4481.026, 4382.564, 208, 0, []
1632641557.0615, 71, 0, 4508.205, 4468.205, 4298.974, 4472.308, 4395.385, 450, 0, []
1632641557.0692, 72, 0, 4501.026, 4669.744, 4290.769, 4471.282, 4396.923, 450, 0, []
1632641557.0771, 73, 0, 4518.462, 4728.718, 4353.333, 4503.59, 4423.077, 16096, 0, []
1632641557.0849, 74, 0, 4545.641, 4626.154, 4318.462, 4523.077, 4454.872, 450, 0, []
1632641557.0928, 75, 0, 4537.436, 4635.385, 4364.103, 4523.59, 4450.769, 16203, 0, []
1632641557.1006, 76, 0, 4535.897, 4758.974, 4324.615, 4535.897, 4461.026, 450, 0, []
1632641557.1084, 77, 0, 4562.051, 4742.564, 4342.051, 4573.333, 4500.513, 450, 0, []
1632641557.1162, 78, 0, 4572.821, 4660, 4387.692, 4583.077, 4507.179, 450, 0, []
1632641557.1241, 79, 0, 4573.846, 4702.051, 4328.205, 4570.256, 4500.513, 16203, 0, []
1632641557.1319, 80, 0, 4586.667, 4736.41, 4402.564, 4594.359, 4520, 450, 0, []
1632641557.1399, 81, 0, 4601.538, 4623.077, 4396.41, 4610.256, 4540.513, 450, 0, []
1632641557.1477, 82, 0, 4607.179, 4493.846, 4373.333, 4597.436, 4547.179, 450, 0, []
1632641557.1557, 83, 0, 4602.051, 4553.333, 4402.564, 4584.615, 4538.974, 16203, 0, []
1632641557.1636, 84, 0, 4586.667, 4648.718, 4339.487, 4578.462, 4513.333, 450, 0, []
1632641557.1716, 85, 0, 4588.718, 4629.231, 4403.59, 4595.385, 4516.923, 450, 0, []
1632641557.1795, 86, 0, 4602.564, 4676.41, 4392.308, 4613.846, 4537.436, 450, 0, []
1632641557.1874, 87, 0, 4589.744, 4770.769, 4358.974, 4611.795, 4528.718, 16203, 0, []
1632641557.1953, 88, 0, 4572.821, 4725.641, 4416.41, 4602.564, 4512.308, 450, 0, []
1632641557.2033, 89, 0, 4577.436, 4663.077, 4364.103, 4599.487, 4528.205, 450, 0, []
1632641557.2112, 90, 0, 4598.462, 4744.103, 4408.205, 4606.667, 4551.795, 450, 0, []
1632641557.219, 91, 0, 4615.897, 4778.974, 4413.846, 4605.128, 4554.872, 16203, 0, []
1632641557.2268, 92, 0, 4631.795, 4710.256, 4407.692, 4637.436, 4571.282, 450, 0, []
1632641557.2346, 93, 0, 4649.744, 4708.205, 4484.615, 4691.282, 4599.487, 450, 0, []
1632641557.2425, 94, 0, 4632.821, 4754.359, 4393.846, 4678.974, 4593.846, 450, 0, []
1632641557.2503, 95, 0, 4605.128, 4715.897, 4392.821, 4658.462, 4570.769, 16203, 0, []
1632641557.2582, 96, 0, 4623.077, 4627.692, 4428.718, 4683.59, 4588.718, 450, 0, []
1632641557.2659, 97, 0, 4658.462, 4675.385, 4415.385, 4706.667, 4626.667, 450, 0, []
1632641557.2738, 98, 0, 4651.795, 4817.436, 4461.538, 4689.231, 4626.154, 450, 0, []
1632641557.2816, 99, 0, 4622.564, 4854.359, 4403.59, 4669.744, 4609.744, 16203, 0, []
1632641557.2895, 100, 0, 4627.692, 4820, 4451.795, 4689.744, 4603.59, 450, 0, []
1632641557.2973, 101, 0, 4644.103, 4843.077, 4476.41, 4691.282, 4615.385, 450, 0, []
1632641557.3052, 102, 0, 4650.256, 4883.59, 4413.846, 4672.308, 4636.41, 450, 0, []
1632641557.3131, 103, 0, 4645.128, 4850.769, 4477.949, 4666.667, 4639.487, 16203, 0, []
1632641557.3211, 104, 0, 4636.41, 4791.282, 4435.385, 4674.359, 4632.308, 450, 0, []
1632641557.329, 105, 0, 4656.41, 4834.872, 4453.333, 4710.256, 4639.487, 450, 0, []
1632641557.337, 106, 0, 4677.436, 4947.179, 4487.692, 4729.231, 4663.59, 450, 0, []
1632641557.3449, 107, 0, 4667.692, 5021.026, 4416.923, 4708.205, 4672.821, 16203, 0, []
1632641557.3527, 108, 0, 4669.744, 5010.769, 4484.615, 4713.846, 4667.179, 450, 0, []
1632641557.3606, 109, 0, 4683.077, 4947.179, 4465.641, 4729.231, 4671.795, 450, 0, []
1632641557.3684, 110, 0, 4668.205, 4962.564, 4460, 4720.513, 4680, 450, 0, []
1632641557.3764, 111, 0, 4674.872, 5052.821, 4510.256, 4724.615, 4677.949, 16203, 0, []
1632641557.3843, 112, 0, 4693.333, 5035.385, 4461.026, 4726.667, 4678.974, 450, 0, []
1632641557.3921, 113, 0, 4668.718, 4937.949, 4494.872, 4722.051, 4678.974, 450, 0, []
1632641557.3999, 114, 0, 4640.513, 4927.692, 4449.744, 4714.872, 4644.103, 450, 0, []
1632641557.4078, 115, 0, 4651.795, 4957.949, 4453.333, 4710.256, 4637.436, 16203, 0, []
1632641557.4156, 116, 0, 4722.564, 5033.846, 4519.487, 4746.667, 4725.128, 450, 0, []
1632641557.4235, 117, 0, 4805.641, 5058.462, 4448.718, 4777.949, 4796.923, 450, 0, []
1632641557.4312, 118, 0, 4831.795, 4934.359, 4491.795, 4747.692, 4809.744, 450, 0, []
1632641557.4392, 119, 0, 4851.282, 4953.333, 4477.436, 4713.333, 4873.846, 16203, 0, []
1632641557.4471, 120, 0, 4909.744, 5089.231, 4471.795, 4741.026, 4961.026, 450, 0, []
1632641557.4551, 121, 0, 4950.256, 5047.179, 4543.077, 4786.667, 4974.872, 450, 0, []
1632641557.463, 122, 0, 4950.256, 5005.128, 4464.103, 4786.154, 4961.538, 450, 0, []
1632641557.4709, 123, 0, 4958.974, 5044.615, 4506.667, 4770.256, 4967.179, 16203, 0, []
1632641557.4788, 124, 0, 4969.744, 4975.897, 4508.718, 4761.538, 4961.538, 450, 0, []
1632641557.4868, 125, 0, 4970.769, 4922.051, 4473.333, 4761.538, 4961.538, 450, 0, []
1632641557.4947, 126, 0, 4975.385, 4874.359, 4537.949, 4746.667, 4988.205, 450, 0, []
1632641557.5027, 127, 0, 4955.385, 4749.744, 4445.128, 4695.385, 4991.282, 16203, 0, []
1632641557.5105, 128, 0, 4946.154, 4783.59, 4483.077, 4709.744, 4988.718, 450, 0, []
1632641557.5185, 0, 0, 4978.974, 4997.436, 4536.923, 4784.103, 5019.487, 450, 0, []
1632641557.5264, 1, 0, 4990.769, 5008.718, 4495.385, 4809.231, 5027.179, 450, 0, []
1632641557.5342, 2, 0, 4984.615, 4864.103, 4568.718, 4814.359, 5006.667, 16155, 0, []
1632641557.5421, 3, 0, 5000, 4956.923, 4529.744, 4842.564, 5013.846, 450, 0, []
1632641557.5498, 4, 0, 5000, 5107.692, 4565.641, 4856.923, 5012.821, 16062, 0, []
1632641557.5577, 5, 0, 4992.308, 5071.795, 4609.744, 4862.051, 5005.128, 450, 0, []
1632641557.5655, 6, 0, 5026.667, 5134.872, 4574.359, 4914.872, 5045.641, 189, 0, []
1632641557.5734, 7, 0, 5084.103, 5389.744, 4669.231, 4995.897, 5105.128, 450, 0, []
1632641557.5812, 8, 0, 5130.256, 5432.308, 4658.462, 5048.205, 5152.821, 450, 0, []
1632641557.589, 9, 0, 5172.821, 5260, 4693.333, 5090.769, 5194.872, 16103, 0, []
1632641557.5968, 10, 0, 5211.795, 5302.051, 4734.872, 5124.103, 5233.333, 450, 0, []
1632641557.6048, 11, 0, 5235.897, 5513.333, 4719.487, 5146.667, 5295.897, 16189, 0, []
1632641557.6127, 12, 0, 5295.385, 5624.103, 4826.667, 5201.026, 5382.051, 450, 0, []
1632641557.6207, 13, 0, 5373.333, 5558.462, 4788.718, 5272.308, 5427.179, 450, 0, []
1632641557.6285, 14, 0, 5386.154, 5550.256, 4810.256, 5308.718, 5440, 450, 0, []
1632641557.6365, 15, 0, 5382.051, 5734.359, 4883.077, 5307.179, 5478.974, 16189, 0, []
1632641557.6444, 16, 0, 5420, 5779.487, 4836.41, 5331.795, 5513.846, 0, 0, []
1632641557.6524, 17, 0, 5454.872, 5646.154, 4885.641, 5383.59, 5513.846, 0, 0, []
1632641557.6603, 18, 0, 5457.436, 5650.769, 4828.205, 5383.077, 5508.205, 0, 0, []
1632641557.6682, 19, 0, 5453.333, 5708.718, 4833.846, 5366.154, 5520, 0, 0, []
1632641557.6761, 20, 0, 5463.077, 5632.308, 4916.41, 5391.795, 5545.641, 0, 0, []
1632641557.6839, 21, 0, 5482.051, 5615.897, 4860, 5420, 5561.538, 0, 0, []
1632641557.6918, 22, 0, 5510.769, 5725.128, 4911.795, 5437.949, 5564.615, 0, 0, []
1632641557.6996, 23, 0, 5527.179, 5745.128, 4894.872, 5452.308, 5582.051, 0, 0, []
1632641557.7075, 24, 0, 5518.974, 5637.949, 4896.923, 5448.718, 5605.641, 0, 0, []
1632641557.7152, 25, 0, 5519.487, 5536.923, 4956.923, 5452.821, 5625.641, 0, 0, []
1632641557.7231, 26, 0, 5551.795, 5540.513, 4885.641, 5478.974, 5664.615, 0, 0, []
1632641557.7309, 27, 0, 5587.179, 5612.308, 4966.154, 5510.769, 5683.59, 0, 0, []
1632641557.7388, 28, 0, 5584.103, 5676.41, 4985.128, 5511.282, 5664.103, 0, 0, []
1632641557.7466, 29, 0, 5589.231, 5717.436, 4949.744, 5517.949, 5668.205, 0, 0, []
1632641557.7544, 30, 0, 5634.359, 5686.667, 5003.59, 5552.308, 5684.615, 0, 0, []
1632641557.7622, 31, 0, 5633.333, 5609.744, 4921.026, 5556.41, 5675.385, 0, 0, []
1632641557.7702, 32, 0, 5605.128, 5653.846, 4968.205, 5556.923, 5664.615, 0, 0, []
1632641557.7781, 33, 0, 5599.487, 5736.41, 5024.103, 5568.718, 5680.513, 0, 0, []
1632641557.7861, 34, 0, 5597.949, 5727.179, 4994.359, 5558.974, 5686.154, 0, 0, []
1632641557.7939, 35, 0, 5592.308, 5727.692, 4988.205, 5555.897, 5688.718, 0, 0, []
1632641557.8019, 36, 0, 5578.462, 5744.615, 4869.744, 5551.282, 5685.641, 0, 0, []
1632641557.8098, 37, 0, 5577.949, 5703.077, 4945.641, 5564.103, 5673.333, 0, 0, []
1632641557.8178, 38, 0, 5611.282, 5673.333, 5044.615, 5593.333, 5680, 0, 0, []
1632641557.8257, 39, 0, 5623.59, 5715.385, 4987.179, 5598.974, 5692.821, 0, 0, []
1632641557.8334, 40, 0, 5621.026, 5722.564, 4980.513, 5600, 5699.487, 0, 0, []
1632641557.8413, 41, 0, 5627.179, 5713.846, 4885.641, 5581.538, 5695.897, 0, 0, []
1632641557.8491, 42, 0, 5613.333, 5704.103, 4921.538, 5542.051, 5675.897, 0, 0, []
1632641557.857, 43, 0, 5592.308, 5619.487, 4995.385, 5521.026, 5668.718, 0, 0, []
1632641557.8648, 44, 0, 5578.462, 5603.077, 4958.974, 5509.744, 5651.282, 0, 0, []
1632641557.8726, 45, 0, 5562.564, 5646.667, 4975.897, 5513.846, 5641.538, 0, 0, []
1632641557.8804, 46, 0, 5560, 5568.205, 4877.436, 5526.154, 5656.923, 0, 0, []
1632641557.8883, 47, 0, 5538.974, 5466.154, 4916.923, 5525.641, 5634.359, 0, 0, []
1632641557.8961, 48, 0, 5483.59, 5559.487, 4998.974, 5496.923, 5563.59, 0, 0, []
1632641557.9041, 49, 0, 5465.641, 5669.231, 4912.821, 5475.897, 5510.256, 0, 0, []
1632641557.9119, 50, 0, 5472.821, 5581.538, 4934.359, 5456.923, 5505.641, 0, 0, []
1632641557.9199, 51, 0, 5404.103, 5491.282, 4855.385, 5393.333, 5497.949, 0, 0, []
1632641557.9278, 52, 0, 5351.795, 5498.462, 4845.641, 5356.923, 5438.974, 0, 0, []
1632641557.9358, 53, 0, 5358.974, 5456.41, 4918.974, 5357.436, 5388.205, 0, 0, []
1632641557.9437, 54, 0, 5309.231, 5351.795, 4827.692, 5316.923, 5376.41, 0, 0, []
1632641557.9516, 55, 0, 5234.359, 5340, 4842.564, 5263.59, 5356.923, 0, 0, []
1632641557.9595, 56, 0, 5215.385, 5338.462, 4793.846, 5233.846, 5291.282, 0, 0, []
1632641557.9675, 57, 0, 5209.231, 5240, 4771.282, 5222.051, 5230.769, 0, 0, []
1632641557.9754, 58, 0, 5189.744, 5232.821, 4817.436, 5224.615, 5217.949, 0, 0, []
1632641557.9834, 59, 0, 5165.641, 5227.179, 4711.795, 5210.769, 5207.179, 0, 0, []
1632641557.9912, 60, 0, 5135.897, 5153.846, 4762.051, 5181.538, 5165.641, 0, 0, []
1632641557.999, 61, 0, 5104.103, 5115.385, 4773.333, 5151.795, 5127.692, 0, 0, []
1632641558.0069, 62, 0, 5088.718, 5011.282, 4731.282, 5137.949, 5124.615, 0, 0, []
1632641558.0147, 63, 0, 5096.41, 4892.821, 4765.128, 5143.59, 5140, 0, 0, []
1632641558.0226, 64, 0, 5090.769, 4930.256, 4678.462, 5133.333, 5136.923, 450, 0, []
1632641558.0303, 65, 0, 5063.59, 4933.333, 4738.974, 5123.077, 5112.308, 450, 0, []
1632641558.0382, 66, 0, 5053.846, 4811.282, 4781.538, 5128.718, 5096.41, 16128, 0, []
1632641558.046, 67, 0, 5056.923, 4851.795, 4736.923, 5125.641, 5084.615, 450, 0, []
1632641558.0539, 68, 0, 5047.692, 4940.513, 4761.538, 5117.436, 5073.846, 16062, 0, []
1632641558.0617, 69, 0, 5031.795, 4873.333, 4661.026, 5104.103, 5068.718, 450, 0, []
1632641558.0697, 70, 0, 5021.538, 4842.051, 4705.641, 5089.744, 5040, 141, 0, []
1632641558.0775, 71, 0, 5007.692, 4824.615, 4763.077, 5066.154, 4990.769, 450, 0, []
1632641558.0855, 72, 0, 4982.564, 4802.564, 4701.538, 5036.923, 4970.256, 450, 0, []
1632641558.0934, 73, 0, 4971.795, 4934.872, 4723.59, 5027.692, 4973.333, 16101, 0, []
1632641558.1014, 74, 0, 4972.308, 4903.077, 4633.846, 5025.641, 4951.795, 450, 0, []
1632641558.1093, 75, 0, 4960.513, 4681.538, 4666.667, 5014.872, 4927.692, 16193, 0, []
1632641558.1172, 76, 0, 4938.974, 4718.462, 4740, 4985.128, 4926.667, 450, 0, []
1632641558.1251, 77, 0, 4910.769, 4855.385, 4675.897, 4949.231, 4914.872, 450, 0, []
1632641558.1331, 78, 0, 4884.103, 4783.59, 4690.769, 4951.795, 4900, 450, 0, []
1632641558.141, 79, 0, 4874.359, 4676.923, 4607.179, 4968.718, 4892.308, 16193, 0, []
1632641558.1488, 80, 0, 4872.308, 4720, 4632.821, 4969.744, 4861.026, 450, 0, []
1632641558.1566, 81, 0, 4861.026, 4774.872, 4711.282, 4951.282, 4812.308, 450, 0, []
1632641558.1644, 82, 0, 4843.077, 4707.179, 4630.256, 4912.308, 4795.897, 450, 0, []
1632641558.1723, 83, 0, 4830.256, 4597.949, 4661.026, 4898.974, 4818.462, 16193, 0, []
1632641558.1801, 84, 0, 4820, 4652.821, 4617.436, 4907.692, 4823.59, 450, 0, []
1632641558.188, 85, 0, 4822.564, 4751.282, 4615.897, 4909.231, 4786.667, 450, 0, []
1632641558.1957, 86, 0, 4824.615, 4623.59, 4681.538, 4878.974, 4751.282, 450, 0, []
1632641558.2036, 87, 0, 4782.051, 4590.769, 4600.513, 4829.744, 4742.051, 16193, 0, []
1632641558.2114, 88, 0, 4754.359, 4678.462, 4632.308, 4833.333, 4741.026, 450, 0, []
1632641558.2194, 89, 0, 4773.333, 4585.641, 4610.256, 4861.026, 4723.59, 450, 0, []
1632641558.2273, 90, 0, 4770.256, 4548.205, 4595.897, 4853.333, 4723.077, 450, 0, []
1632641558.2352, 91, 0, 4741.538, 4771.282, 4634.359, 4836.923, 4752.821, 16193, 0, []
1632641558.2431, 92, 0, 4744.103, 4903.59, 4545.128, 4838.974, 4744.615, 450, 0, []
1632641558.2511, 93, 0, 4766.154, 4701.538, 4616.923, 4842.051, 4721.026, 450, 0, []
1632641558.259, 94, 0, 4736.41, 4589.231, 4617.436, 4813.333, 4729.231, 450, 0, []
1632641558.267, 95, 0, 4691.282, 4757.949, 4560, 4791.795, 4701.538, 16193, 0, []
1632641558.2748, 96, 0, 4686.667, 4844.103, 4595.385, 4785.128, 4651.282, 450, 0, []
1632641558.2828, 97, 0, 4683.077, 4810.769, 4520, 4772.308, 4653.333, 450, 0, []
1632641558.2907, 98, 0, 4664.615, 4829.744, 4577.436, 4774.359, 4651.282, 450, 0, []
1632641558.2985, 99, 0, 4646.667, 4722.564, 4590.769, 4754.872, 4612.821, 16193, 0, []
1632641558.3064, 100, 0, 4652.308, 4451.282, 4552.308, 4735.385, 4613.333, 450, 0, []
1632641558.3141, 101, 0, 4655.897, 4486.667, 4590.256, 4753.333, 4629.231, 450, 0, []
1632641558.322, 102, 0, 4623.077, 4772.308, 4478.462, 4740.513, 4591.282, 450, 0, []
1632641558.3298, 103, 0, 4596.41, 4827.692, 4527.179, 4710.769, 4558.462, 16193, 0, []
1632641558.3377, 104, 0, 4584.103, 4743.077, 4574.872, 4697.949, 4554.872, 450, 0, []
1632641558.3456, 105, 0, 4550.256, 4822.051, 4509.231, 4668.718, 4526.667, 450, 0, []
1632641558.3535, 106, 0, 4523.59, 4900.513, 4531.795, 4641.026, 4490.256, 450, 0, []
1632641558.3613, 107, 0, 4509.231, 4786.154, 4424.615, 4608.205, 4459.487, 16193, 0, []
1632641558.3693, 108, 0, 4482.564, 4717.436, 4436.923, 4565.641, 4424.615, 450, 0, []
1632641558.3772, 109, 0, 4459.487, 4845.641, 4473.333, 4537.949, 4404.103, 450, 0, []
1632641558.3852, 110, 0, 4433.846, 4872.308, 4401.026, 4512.308, 4386.154, 450, 0, []
1632641558.3931, 111, 0, 4411.795, 4707.692, 4452.308, 4510.769, 4352.821, 16193, 0, []
1632641558.401, 112, 0, 4401.026, 4717.949, 4384.103, 4516.41, 4331.282, 450, 0, []
1632641558.4089, 113, 0, 4381.026, 4912.308, 4397.949, 4492.821, 4327.179, 450, 0, []
1632641558.4169, 114, 0, 4360.513, 4920, 4458.974, 4475.897, 4313.333, 450, 0, []
1632641558.4248, 115, 0, 4353.333, 4770.256, 4388.718, 4487.179, 4305.128, 16193, 0, []
1632641558.4328, 116, 0, 4342.564, 4694.359, 4431.795, 4478.462, 4295.385, 450, 0, []
1632641558.4406, 117, 0, 4319.487, 4749.744, 4363.59, 4429.744, 4263.077, 450, 0, []
1632641558.4484, 118, 0, 4308.718, 4819.487, 4354.359, 4423.59, 4245.641, 450, 0, []
1632641558.4563, 119, 0, 4302.051, 4668.205, 4415.897, 4435.385, 4247.179, 16193, 0, []
1632641558.4641, 120, 0, 4275.897, 4486.667, 4329.231, 4391.282, 4217.436, 450, 0, []
1632641558.472, 121, 0, 4254.359, 4608.718, 4372.821, 4358.462, 4174.359, 450, 0, []
1632641558.4797, 122, 0, 4236.923, 4714.359, 4330.256, 4354.872, 4157.436, 450, 0, []
1632641558.4876, 123, 0, 4204.103, 4623.59, 4295.385, 4345.128, 4144.615, 16193, 0, []
1632641558.4954, 124, 0, 4183.59, 4650.256, 4345.641, 4331.795, 4135.385, 450, 0, []
1632641558.5033, 125, 0, 4191.795, 4712.821, 4264.103, 4315.385, 4146.667, 450, 0, []
1632641558.5111, 126, 0, 4186.667, 4596.41, 4313.846, 4294.872, 4147.692, 450, 0, []
1632641558.5189, 127, 0, 4154.359, 4546.667, 4281.026, 4260, 4106.154, 16193, 0, []
1632641558.5267, 128, 0, 4149.744, 4562.564, 4242.564, 4257.436, 4072.821, 450, 0, []
1632641558.5347, 0, 0, 4170.769, 4474.872, 4323.59, 4293.333, 4092.308, 450, 0, []
1632641558.5426, 1, 0, 4147.179, 4508.718, 4234.359, 4270.769, 4094.359, 450, 0, []
1632641558.5506, 2, 0, 4099.487, 4579.487, 4248.205, 4212.821, 4050.769, 16177, 0, []
1632641558.5584, 3, 0, 4070.769, 4390.256, 4241.538, 4185.641, 4022.051, 450, 0, []
1632641558.5664, 4, 0, 4044.103, 4135.897, 4196.41, 4170.256, 4004.615, 16086, 0, []
1632641558.5743, 5, 0, 4029.744, 4190.256, 4240.513, 4154.872, 3984.103, 450, 0, []
1632641558.5823, 6, 0, 4032.308, 4347.692, 4138.462, 4147.179, 3975.385, 156, 0, []
1632641558.5902, 7, 0, 4015.897, 4355.897, 4176.41, 4136.923, 3953.333, 450, 0, []
1632641558.5981, 8, 0, 3996.923, 4319.487, 4212.308, 4124.615, 3922.564, 450, 0, []
1632641558.606, 9, 0, 4008.718, 4257.949, 4165.641, 4134.872, 3922.564, 16141, 0, []
1632641558.6138, 10, 0, 4021.026, 4185.641, 4226.154, 4140, 3923.077, 450, 0, []
1632641558.6217, 11, 0, 4001.538, 4136.41, 4147.692, 4112.308, 3892.308, 16174, 0, []
1632641558.6295, 12, 0, 3984.103, 4146.154, 4172.821, 4096.923, 3883.59, 450, 0, []
1632641558.6373, 13, 0, 3975.385, 4182.564, 4198.462, 4076.923, 3897.949, 450, 0, []
1632641558.6451, 14, 0, 3943.077, 4165.641, 4120, 4043.59, 3865.641, 450, 0, []
1632641558.653, 15, 0, 3915.897, 4120, 4188.718, 4045.641, 3832.308, 16174, 0, []
1632641558.6608, 16, 0, 3917.436, 4189.231, 4122.051, 4042.564, 3837.949, 0, 0, []
1632641558.6687, 17, 0, 3922.051, 4251.795, 4114.359, 4023.59, 3830.256, 0, 0, []
1632641558.6764, 18, 0, 3902.051, 4049.231, 4155.385, 4009.744, 3792.821, 0, 0, []
1632641558.6844, 19, 0, 3860, 3899.487, 4083.077, 3987.179, 3766.667, 0, 0, []
1632641558.6923, 20, 0, 3842.564, 4018.462, 4147.692, 3982.051, 3772.821, 0, 0, []
1632641558.7003, 21, 0, 3850.256, 4099.487, 4095.897, 3978.462, 3764.615, 0, 0, []
1632641558.7082, 22, 0, 3847.179, 4093.333, 4078.974, 3954.359, 3735.897, 0, 0, []
1632641558.7161, 23, 0, 3818.462, 4164.615, 4119.487, 3933.333, 3729.744, 0, 0, []
1632641558.724, 24, 0, 3797.949, 4128.718, 4034.872, 3923.59, 3733.846, 0, 0, []
1632641558.732, 25, 0, 3814.872, 4066.667, 4094.359, 3926.154, 3714.872, 0, 0, []
1632641558.7399, 26, 0, 3798.462, 4196.41, 4048.718, 3900.513, 3680, 0, 0, []
1632641558.7479, 27, 0, 3751.795, 4204.615, 4012.821, 3869.231, 3662.051, 0, 0, []
1632641558.7558, 28, 0, 3768.718, 4011.795, 4083.59, 3879.487, 3664.615, 0, 0, []
1632641558.7635, 29, 0, 3791.795, 3944.615, 4017.436, 3881.026, 3660.513, 0, 0, []
1632641558.7714, 30, 0, 3756.41, 4029.231, 4051.282, 3864.103, 3647.692, 0, 0, []
1632641558.7792, 31, 0, 3725.128, 3978.462, 4006.154, 3848.718, 3632.821, 0, 0, []
1632641558.7871, 32, 0, 3724.103, 3848.718, 3984.103, 3844.103, 3612.821, 0, 0, []
1632641558.7949, 33, 0, 3715.385, 3886.667, 4064.103, 3846.667, 3583.59, 0, 0, []
1632641558.8027, 34, 0, 3686.667, 3967.179, 3969.744, 3832.308, 3566.154, 0, 0, []
1632641558.8105, 35, 0, 3680.513, 3906.667, 4010.769, 3835.385, 3581.026, 0, 0, []
1632641558.8184, 36, 0, 3693.846, 3826.154, 4018.462, 3836.923, 3592.821, 0, 0, []
1632641558.8262, 37, 0, 3692.308, 3973.846, 3958.974, 3808.205, 3574.872, 0, 0, []
1632641558.8342, 38, 0, 3687.692, 4117.436, 4009.744, 3792.821, 3564.615, 0, 0, []
1632641558.842, 39, 0, 3684.615, 3937.436, 3940, 3797.949, 3564.103, 0, 0, []
1632641558.85, 40, 0, 3674.359, 3687.692, 3991.795, 3799.487, 3550.769, 0, 0, []
1632641558.8579, 41, 0, 3653.846, 3785.641, 4005.641, 3789.744, 3545.128, 0, 0, []
1632641558.8659, 42, 0, 3643.59, 3938.974, 3946.667, 3786.667, 3546.154, 0, 0, []
1632641558.8738, 43, 0, 3633.846, 3777.949, 4016.923, 3783.59, 3528.718, 0, 0, []
1632641558.8817, 44, 0, 3606.667, 3735.897, 3928.205, 3754.359, 3505.128, 0, 0, []
1632641558.8896, 45, 0, 3593.846, 3927.179, 3935.897, 3738.462, 3492.821, 0, 0, []
1632641558.8976, 46, 0, 3592.308, 3928.205, 3961.538, 3735.897, 3480, 0, 0, []
1632641558.9055, 47, 0, 3595.897, 3761.026, 3904.103, 3730.769, 3476.41, 0, 0, []
1632641558.9133, 48, 0, 3607.179, 3700.513, 3987.692, 3732.821, 3492.308, 0, 0, []
1632641558.9211, 49, 0, 3589.231, 3726.154, 3916.923, 3714.359, 3478.974, 0, 0, []
1632641558.9289, 50, 0, 3551.282, 3705.128, 3905.128, 3692.821, 3447.179, 0, 0, []
1632641558.9368, 51, 0, 3547.179, 3708.205, 3936.923, 3685.641, 3448.718, 0, 0, []
1632641558.9446, 52, 0, 3565.641, 3762.051, 3873.846, 3679.487, 3461.026, 0, 0, []
1632641558.9525, 53, 0, 3566.154, 3730.769, 3950.256, 3680, 3456.923, 0, 0, []
1632641558.9602, 54, 0, 3547.692, 3660.513, 3887.692, 3668.718, 3435.385, 0, 0, []
1632641558.9681, 55, 0, 3531.795, 3728.205, 3869.744, 3655.897, 3418.462, 0, 0, []
1632641558.9759, 56, 0, 3530.769, 3800, 3922.564, 3650.256, 3420.513, 0, 0, []
1632641558.9839, 57, 0, 3526.154, 3729.231, 3829.744, 3642.051, 3410.256, 0, 0, []
1632641558.9918, 58, 0, 3519.487, 3650.256, 3881.026, 3642.564, 3392.821, 0, 0, []
1632641558.9997, 59, 0, 3526.667, 3613.333, 3867.179, 3635.385, 3403.59, 0, 0, []
1632641559.0076, 60, 0, 3524.615, 3649.744, 3843.59, 3628.205, 3414.359, 0, 0, []
1632641559.0156, 61, 0, 3503.59, 3724.615, 3876.41, 3630.256, 3388.718, 0, 0, []
1632641559.0235, 62, 0, 3492.308, 3797.436, 3814.359, 3616.923, 3361.026, 0, 0, []
1632641559.0315, 63, 0, 3508.718, 3941.538, 3894.872, 3623.59, 3381.538, 0, 0, []
1632641559.0393, 64, 0, 3520, 3980.513, 3859.487, 3635.385, 3419.487, 450, 0, []
1632641559.0473, 65, 0, 3504.103, 3783.077, 3808.205, 3612.821, 3406.154, 450, 0, []
1632641559.0552, 66, 0, 3482.564, 3646.154, 3878.462, 3595.897, 3364.615, 16197, 0, []
1632641559.0632, 67, 0, 3471.795, 3667.692, 3805.641, 3595.897, 3359.487, 450, 0, []
1632641559.0711, 68, 0, 3483.077, 3614.359, 3853.846, 3606.154, 3379.487, 16078, 0, []
1632641559.0788, 69, 0, 3492.821, 3597.949, 3851.282, 3606.667, 3383.59, 450, 0, []
1632641559.0867, 70, 0, 3478.974, 3744.103, 3810.769, 3595.385, 3367.179, 168, 0, []
1632641559.0945, 71, 0, 3473.333, 3763.077, 3878.462, 3591.282, 3364.103, 450, 0, []
1632641559.1024, 72, 0, 3471.795, 3563.077, 3791.282, 3567.692, 3373.333, 450, 0, []
1632641559.1102, 73, 0, 3482.051, 3500, 3828.718, 3561.026, 3375.385, 16148, 0, []
1632641559.1181, 74, 0, 3516.41, 3616.923, 3854.872, 3579.487, 3380, 450, 0, []
1632641559.1258, 75, 0, 3533.846, 3645.128, 3811.795, 3572.308, 3381.538, 16197, 0, []
1632641559.1337, 76, 0, 3522.051, 3561.538, 3886.667, 3565.641, 3360.513, 450, 0, []
1632641559.1415, 77, 0, 3498.462, 3480.513, 3802.564, 3566.667, 3340, 450, 0, []
1632641559.1495, 78, 0, 3483.077, 3447.179, 3805.641, 3555.385, 3333.333, 450, 0, []
1632641559.1574, 79, 0, 3474.359, 3535.385, 3824.103, 3541.538, 3311.282, 16197, 0, []
1632641559.1653, 80, 0, 3460.513, 3680.513, 3774.872, 3541.538, 3305.641, 450, 0, []
1632641559.1732, 81, 0, 3462.564, 3635.385, 3861.026, 3546.154, 3331.282, 450, 0, []
1632641559.1812, 82, 0, 3481.538, 3480.513, 3794.872, 3545.641, 3336.41, 450, 0, []
1632641559.1891, 83, 0, 3480, 3498.974, 3800, 3549.744, 3331.795, 16197, 0, []
1632641559.1971, 84, 0, 3465.641, 3680, 3844.615, 3534.359, 3337.949, 450, 0, []
1632641559.2049, 85, 0, 3475.897, 3728.205, 3781.538, 3534.359, 3341.538, 450, 0, []
1632641559.2129, 86, 0, 3493.846, 3553.333, 3869.744, 3578.974, 3350.769, 450, 0, []
1632641559.2208, 87, 0, 3503.077, 3565.641, 3837.949, 3594.872, 3361.026, 16197, 0, []
1632641559.2286, 88, 0, 3505.641, 3796.923, 3818.974, 3582.564, 3360.513, 450, 0, []
1632641559.2365, 89, 0, 3486.154, 3774.359, 3834.359, 3566.667, 3356.923, 450, 0, []
1632641559.2442, 90, 0, 3477.949, 3562.051, 3747.179, 3557.949, 3350.769, 450, 0, []
1632641559.2521, 91, 0, 3520.513, 3552.821, 3838.462, 3593.846, 3374.359, 16197, 0, []
1632641559.2599, 92, 0, 3543.077, 3588.205, 3827.692, 3612.821, 3411.282, 450, 0, []
1632641559.2678, 93, 0, 3520, 3512.308, 3794.872, 3595.897, 3406.667, 450, 0, []
1632641559.2756, 94, 0, 3500, 3511.282, 3829.231, 3590.769, 3377.436, 450, 0, []
1632641559.2834, 95, 0, 3489.231, 3497.949, 3766.154, 3578.974, 3358.462, 16197, 0, []
1632641559.2912, 96, 0, 3505.128, 3390.769, 3830.769, 3576.41, 3375.385, 450, 0, []
1632641559.2991, 97, 0, 3526.667, 3330.256, 3814.872, 3592.308, 3410.769, 450, 0, []
1632641559.3069, 98, 0, 3522.564, 3285.128, 3818.462, 3611.282, 3411.282, 450, 0, []
1632641559.3149, 99, 0, 3532.308, 3325.641, 3874.872, 3620.513, 3404.615, 16197, 0, []
1632641559.3227, 100, 0, 3551.282, 3504.615, 3775.897, 3603.59, 3426.154, 450, 0, []
1632641559.3307, 101, 0, 3553.846, 3517.436, 3824.615, 3602.564, 3440.513, 450, 0, []
1632641559.3386, 102, 0, 3555.897, 3386.667, 3831.282, 3627.692, 3434.872, 450, 0, []
1632641559.3465, 103, 0, 3558.462, 3400.513, 3807.179, 3638.974, 3428.205, 16197, 0, []
1632641559.3545, 104, 0, 3547.692, 3426.667, 3862.051, 3625.128, 3423.59, 450, 0, []
1632641559.3624, 105, 0, 3536.923, 3381.026, 3775.385, 3604.615, 3430.256, 450, 0, []
1632641559.3703, 106, 0, 3548.205, 3443.59, 3823.077, 3613.846, 3446.667, 450, 0, []
1632641559.3783, 107, 0, 3569.744, 3580.513, 3855.897, 3645.641, 3454.872, 16197, 0, []
1632641559.3862, 108, 0, 3578.974, 3627.179, 3817.949, 3666.154, 3454.359, 450, 0, []
1632641559.394, 109, 0, 3578.974, 3587.179, 3884.615, 3662.051, 3463.59, 450, 0, []
1632641559.4018, 110, 0, 3582.564, 3529.231, 3806.154, 3637.949, 3476.923, 450, 0, []
1632641559.4096, 111, 0, 3583.59, 3565.128, 3816.41, 3631.282, 3480, 16197, 0, []
1632641559.4175, 112, 0, 3575.385, 3708.205, 3842.051, 3636.923, 3472.308, 450, 0, []
1632641559.4253, 113, 0, 3578.974, 3750.256, 3785.641, 3634.872, 3463.59, 450, 0, []
1632641559.4332, 114, 0, 3600, 3622.051, 3855.385, 3645.128, 3467.692, 450, 0, []
1632641559.441, 115, 0, 3615.897, 3543.077, 3802.051, 3658.974, 3484.103, 16197, 0, []
1632641559.4489, 116, 0, 3620.513, 3587.179, 3817.436, 3664.615, 3510.769, 450, 0, []
1632641559.4568, 117, 0, 3621.026, 3602.564, 3857.949, 3664.615, 3524.103, 450, 0, []
1632641559.4648, 118, 0, 3612.308, 3597.436, 3783.077, 3657.436, 3513.333, 450, 0, []
1632641559.4727, 119, 0, 3610.256, 3701.026, 3845.641, 3658.462, 3502.051, 16197, 0, []
1632641559.4807, 120, 0, 3613.846, 3807.692, 3803.077, 3655.385, 3497.436, 450, 0, []
1632641559.4885, 121, 0, 3616.923, 3890.769, 3801.538, 3657.436, 3504.615, 450, 0, []
1632641559.4965, 122, 0, 3627.179, 3929.744, 3857.949, 3666.154, 3516.41, 450, 0, []
1632641559.5044, 123, 0, 3633.333, 3769.744, 3797.436, 3657.436, 3519.487, 16197, 0, []
1632641559.5124, 124, 0, 3638.462, 3677.949, 3870.256, 3659.487, 3529.744, 450, 0, []
1632641559.5203, 125, 0, 3647.179, 3827.692, 3830.769, 3667.692, 3553.846, 450, 0, []
1632641559.5281, 126, 0, 3652.308, 3843.59, 3807.179, 3665.128, 3561.538, 450, 0, []
1632641559.536, 127, 0, 3655.897, 3725.641, 3875.897, 3666.154, 3552.308, 16197, 0, []
1632641559.5438, 128, 0, 3659.487, 3768.205, 3798.974, 3670.769, 3564.615, 450, 0, []
1632641559.5517, 0, 0, 3668.718, 3835.897, 3855.897, 3683.077, 3589.231, 450, 0, []
1632641559.5595, 1, 0, 3658.462, 3822.051, 3838.462, 3677.949, 3580, 450, 0, []
1632641559.5673, 2, 0, 3642.564, 3824.615, 3804.615, 3680, 3561.538, 16221, 0, []
1632641559.5751, 3, 0, 3667.692, 3788.205, 3889.744, 3715.385, 3580, 450, 0, []
1632641559.583, 4, 0, 3687.179, 3800, 3814.359, 3725.641, 3602.564, 16089, 0, []
1632641559.5908, 5, 0, 3670.769, 3869.231, 3847.179, 3713.333, 3596.923, 450, 0, []
1632641559.5987, 6, 0, 3658.974, 3893.333, 3857.436, 3706.154, 3594.359, 214, 0, []
1632641559.6064, 7, 0, 3664.615, 3956.923, 3830.256, 3709.231, 3601.026, 450, 0, []
1632641559.6143, 8, 0, 3674.359, 3973.846, 3901.538, 3722.051, 3598.974, 450, 0, []
1632641559.6221, 9, 0, 3686.667, 3949.231, 3822.564, 3722.051, 3601.026, 16126, 0, []
1632641559.6301, 10, 0, 3700.513, 3992.308, 3850.769, 3731.282, 3620, 450, 0, []
1632641559.638, 11, 0, 3701.538, 3967.179, 3860, 3742.564, 3632.821, 16243, 0, []
1632641559.6459, 12, 0, 3697.436, 3871.282, 3807.179, 3735.897, 3625.128, 450, 0, []
1632641559.6538, 13, 0, 3708.718, 3855.897, 3892.308, 3747.692, 3630.769, 450, 0, []
1632641559.6618, 14, 0, 3712.821, 3838.974, 3838.974, 3756.41, 3644.615, 450, 0, []
1632641559.6697, 15, 0, 3697.949, 3779.487, 3860, 3741.538, 3631.282, 16243, 0, []
1632641559.6777, 16, 0, 3703.077, 3818.462, 3886.154, 3736.923, 3620, 0, 0, []
1632641559.6855, 17, 0, 3722.564, 4002.564, 3833.333, 3747.179, 3637.949, 0, 0, []
1632641559.6935, 18, 0, 3721.026, 4145.641, 3903.077, 3748.205, 3650.256, 0, 0, []
1632641559.7014, 19, 0, 3709.231, 3992.821, 3835.897, 3731.795, 3636.41, 0, 0, []
1632641559.7092, 20, 0, 3718.974, 3809.231, 3857.436, 3750.769, 3638.974, 0, 0, []
1632641559.7171, 21, 0, 3737.949, 3922.564, 3910.256, 3783.59, 3655.385, 0, 0, []
1632641559.7248, 22, 0, 3734.872, 3896.923, 3833.846, 3771.282, 3663.077, 0, 0, []
1632641559.7327, 23, 0, 3737.436, 3683.077, 3905.641, 3764.103, 3681.538, 0, 0, []
1632641559.7405, 24, 0, 3752.308, 3779.487, 3873.333, 3771.282, 3691.795, 0, 0, []
1632641559.7484, 25, 0, 3752.308, 3922.051, 3871.795, 3771.795, 3677.436, 0, 0, []
1632641559.7562, 26, 0, 3752.308, 3816.923, 3919.487, 3775.897, 3680, 0, 0, []
1632641559.7641, 27, 0, 3755.385, 3878.462, 3840.513, 3770.769, 3698.462, 0, 0, []
1632641559.772, 28, 0, 3764.615, 4048.718, 3907.692, 3777.949, 3715.897, 0, 0, []
1632641559.78, 29, 0, 3769.744, 3986.154, 3877.949, 3788.205, 3719.487, 0, 0, []
1632641559.7879, 30, 0, 3757.949, 3980.513, 3847.692, 3782.051, 3697.949, 0, 0, []
1632641559.7959, 31, 0, 3759.487, 4133.846, 3901.538, 3778.974, 3700.513, 0, 0, []
1632641559.8038, 32, 0, 3770.769, 4067.692, 3835.385, 3783.077, 3717.436, 0, 0, []
1632641559.8117, 33, 0, 3767.179, 3891.795, 3909.231, 3794.359, 3701.026, 0, 0, []
1632641559.8196, 34, 0, 3764.615, 3969.231, 3889.744, 3802.051, 3695.897, 0, 0, []
1632641559.8276, 35, 0, 3783.077, 4012.821, 3843.077, 3811.795, 3712.308, 0, 0, []
1632641559.8355, 36, 0, 3781.026, 3925.641, 3914.872, 3810.256, 3706.667, 0, 0, []
1632641559.8435, 37, 0, 3756.41, 4035.385, 3843.077, 3793.333, 3705.128, 0, 0, []
1632641559.8513, 38, 0, 3785.128, 4067.692, 3893.333, 3811.282, 3734.359, 0, 0, []
1632641559.8591, 39, 0, 3813.333, 3926.154, 3907.179, 3816.41, 3752.308, 0, 0, []
1632641559.867, 40, 0, 3787.692, 3981.026, 3863.59, 3792.308, 3747.179, 0, 0, []
1632641559.8748, 41, 0, 3788.205, 4011.795, 3917.436, 3801.026, 3730.256, 0, 0, []
1632641559.8827, 42, 0, 3808.205, 3836.41, 3854.359, 3816.41, 3717.949, 0, 0, []
1632641559.8904, 43, 0, 3807.692, 3887.179, 3913.846, 3829.231, 3748.205, 0, 0, []
1632641559.8983, 44, 0, 3811.795, 4066.667, 3915.385, 3848.205, 3772.308, 0, 0, []
1632641559.9061, 45, 0, 3816.41, 4005.641, 3839.487, 3848.205, 3756.923, 0, 0, []
1632641559.914, 46, 0, 3808.718, 3928.718, 3913.333, 3833.333, 3769.231, 0, 0, []
1632641559.9218, 47, 0, 3806.154, 3841.026, 3851.282, 3816.41, 3785.641, 0, 0, []
1632641559.9296, 48, 0, 3811.282, 3655.385, 3885.128, 3818.974, 3761.538, 0, 0, []
1632641559.9374, 49, 0, 3804.615, 3663.077, 3923.59, 3829.231, 3755.385, 0, 0, []
1632641559.9454, 50, 0, 3804.615, 3843.077, 3863.59, 3836.41, 3774.359, 0, 0, []
1632641559.9533, 51, 0, 3828.205, 3941.538, 3949.231, 3848.205, 3775.897, 0, 0, []
1632641559.9613, 52, 0, 3819.487, 3981.538, 3900.513, 3834.872, 3765.641, 0, 0, []
1632641559.9691, 53, 0, 3797.436, 3941.538, 3899.487, 3830.769, 3767.179, 0, 0, []
1632641559.9771, 54, 0, 3820.513, 3823.59, 3938.462, 3850.256, 3766.154, 0, 0, []
1632641559.985, 55, 0, 3832.308, 3882.051, 3882.564, 3844.615, 3753.846, 0, 0, []
1632641559.993, 56, 0, 3817.436, 3932.821, 3953.333, 3842.564, 3762.051, 0, 0, []
1632641560.0009, 57, 0, 3835.897, 3864.615, 3901.538, 3857.436, 3785.128, 0, 0, []
1632641560.0086, 58, 0, 3866.667, 3994.359, 3916.41, 3868.205, 3793.846, 0, 0, []
1632641560.0165, 59, 0, 3851.795, 4040, 3975.385, 3865.128, 3804.615, 0, 0, []
1632641560.0243, 60, 0, 3833.846, 3820.513, 3874.872, 3859.487, 3815.897, 0, 0, []
1632641560.0322, 61, 0, 3851.282, 3802.564, 3932.821, 3863.59, 3801.538, 0, 0, []
1632641560.04, 62, 0, 3842.051, 3950.769, 3908.205, 3847.692, 3781.026, 0, 0, []
1632641560.0478, 63, 0, 3815.897, 3951.282, 3883.59, 3847.692, 3785.641, 0, 0, []
1632641560.0556, 64, 0, 3831.282, 4010.769, 3938.462, 3878.462, 3781.026, 450, 0, []
1632641560.0635, 65, 0, 3848.718, 4111.282, 3866.667, 3868.205, 3767.692, 450, 0, []
1632641560.0713, 66, 0, 3838.462, 4062.564, 3928.718, 3852.821, 3786.154, 16188, 0, []
1632641560.0793, 67, 0, 3842.051, 4041.538, 3906.667, 3871.795, 3800.513, 450, 0, []
1632641560.0871, 68, 0, 3858.462, 4065.128, 3883.077, 3885.641, 3793.333, 16067, 0, []
1632641560.0951, 69, 0, 3854.359, 3986.154, 3963.077, 3883.077, 3810.256, 450, 0, []
1632641560.103, 70, 0, 3846.154, 3847.692, 3871.282, 3872.308, 3825.641, 187, 0, []
1632641560.111, 71, 0, 3863.59, 3840, 3911.795, 3873.333, 3802.051, 450, 0, []
1632641560.1189, 72, 0, 3873.846, 3950.769, 3921.026, 3874.359, 3798.974, 450, 0, []
1632641560.1268, 73, 0, 3860.513, 3824.103, 3898.974, 3874.359, 3823.077, 16142, 0, []
1632641560.1347, 74, 0, 3862.051, 3650.256, 4000.513, 3890.256, 3811.282, 450, 0, []
1632641560.1427, 75, 0, 3867.692, 3855.897, 3900, 3895.385, 3792.821, 16174, 0, []
1632641560.1506, 76, 0, 3865.641, 3991.282, 3920.513, 3901.538, 3822.564, 450, 0, []
1632641560.1584, 77, 0, 3869.231, 3871.282, 3958.462, 3903.59, 3857.949, 450, 0, []
1632641560.1663, 78, 0, 3871.795, 3900.513, 3886.667, 3895.897, 3844.615, 450, 0, []
1632641560.174, 79, 0, 3881.026, 3960, 3971.282, 3905.641, 3823.59, 16174, 0, []
1632641560.1819, 80, 0, 3881.538, 3870.256, 3916.923, 3899.487, 3838.974, 450, 0, []
1632641560.1897, 81, 0, 3871.795, 3909.744, 3911.282, 3888.718, 3869.231, 450, 0, []
1632641560.1976, 82, 0, 3876.41, 4034.872, 3935.897, 3897.949, 3873.846, 450, 0, []
1632641560.2054, 83, 0, 3884.615, 3977.436, 3886.154, 3903.077, 3850.769, 16174, 0, []
1632641560.2132, 84, 0, 3887.179, 3935.385, 3970.769, 3910.256, 3851.282, 450, 0, []
1632641560.221, 85, 0, 3886.154, 4004.103, 3913.846, 3920.513, 3880, 450, 0, []
1632641560.229, 86, 0, 3889.744, 4044.103, 3922.051, 3928.718, 3891.282, 450, 0, []
1632641560.2369, 87, 0, 3902.564, 3969.231, 3960, 3927.179, 3876.41, 16174, 0, []
1632641560.2449, 88, 0, 3907.179, 3849.744, 3893.846, 3913.846, 3862.051, 450, 0, []
1632641560.2527, 89, 0, 3895.897, 3874.359, 3980.513, 3910.769, 3871.795, 450, 0, []
1632641560.2607, 90, 0, 3884.103, 3918.974, 3931.795, 3909.231, 3885.641, 450, 0, []
1632641560.2686, 91, 0, 3889.231, 3874.872, 3943.59, 3920.513, 3878.462, 16174, 0, []
1632641560.2766, 92, 0, 3910.256, 3918.974, 4003.077, 3933.333, 3860.513, 450, 0, []
1632641560.2845, 93, 0, 3917.949, 4039.487, 3888.718, 3914.872, 3856.923, 450, 0, []
1632641560.2924, 94, 0, 3912.308, 4089.744, 3954.872, 3911.795, 3883.077, 450, 0, []
1632641560.3003, 95, 0, 3900.513, 4056.923, 3930.769, 3927.179, 3901.026, 16174, 0, []
1632641560.3083, 96, 0, 3905.128, 3792.308, 3901.026, 3944.615, 3885.128, 450, 0, []
1632641560.3162, 97, 0, 3926.667, 3272.308, 3977.949, 3951.282, 3879.487, 450, 0, []
1632641560.324, 98, 0, 3918.462, 2916.41, 3913.333, 3928.205, 3886.154, 450, 0, []
1632641560.3318, 99, 0, 3908.718, 2854.359, 3967.692, 3932.308, 3892.308, 16174, 0, []
1632641560.3396, 100, 0, 3923.59, 2816.41, 3947.692, 3943.077, 3891.795, 450, 0, []
1632641560.3475, 101, 0, 3920.513, 2872.308, 3925.641, 3924.615, 3873.846, 450, 0, []
1632641560.3555, 102, 0, 3896.41, 3251.282, 3973.333, 3910.769, 3872.821, 450, 0, []
1632641560.3634, 103, 0, 3895.897, 3737.436, 3895.385, 3917.949, 3901.538, 16174, 0, []
1632641560.3711, 104, 0, 3928.718, 3821.026, 3971.795, 3946.154, 3918.974, 450, 0, []
1632641560.379, 105, 0, 3936.923, 3561.026, 3952.308, 3951.795, 3903.077, 450, 0, []
1632641560.3868, 106, 0, 3913.333, 3570.256, 3912.821, 3940.513, 3895.385, 450, 0, []
1632641560.3948, 107, 0, 3910.769, 3818.974, 4002.051, 3952.821, 3920, 16174, 0, []
1632641560.4027, 108, 0, 3919.487, 3770.256, 3921.538, 3961.026, 3926.154, 450, 0, []
1632641560.4106, 109, 0, 3919.487, 3614.359, 3955.385, 3947.179, 3903.077, 450, 0, []
1632641560.4185, 110, 0, 3920.513, 3844.615, 3967.179, 3928.205, 3895.385, 450, 0, []
1632641560.4265, 111, 0, 3914.872, 4147.179, 3928.205, 3933.333, 3902.051, 16174, 0, []
1632641560.4344, 112, 0, 3893.846, 4160.513, 3993.846, 3940, 3892.821, 450, 0, []
1632641560.4424, 113, 0, 3885.128, 4193.846, 3897.436, 3921.026, 3887.692, 450, 0, []
1632641560.4502, 114, 0, 3918.462, 4310.256, 3938.462, 3939.487, 3906.154, 450, 0, []
1632641560.4582, 115, 0, 3943.59, 4267.179, 3992.821, 3965.641, 3905.128, 16174, 0, []
1632641560.4661, 116, 0, 3915.385, 4184.103, 3934.872, 3938.462, 3879.487, 450, 0, []
1632641560.4739, 117, 0, 3889.744, 4192.308, 3991.795, 3925.128, 3882.051, 450, 0, []
1632641560.4818, 118, 0, 3896.41, 4158.462, 3903.59, 3944.615, 3909.231, 450, 0, []
1632641560.4895, 119, 0, 3915.897, 4118.974, 3922.051, 3958.974, 3916.41, 16174, 0, []
1632641560.4974, 120, 0, 3935.385, 4169.231, 3982.051, 3960, 3899.487, 450, 0, []
1632641560.5052, 121, 0, 3946.154, 4173.846, 3920.513, 3955.385, 3904.615, 450, 0, []
1632641560.5131, 122, 0, 3948.718, 4141.538, 3998.462, 3957.436, 3931.795, 450, 0, []
1632641560.5209, 123, 0, 3934.872, 4173.333, 3937.949, 3952.308, 3935.385, 16174, 0, []
1632641560.5288, 124, 0, 3926.154, 4206.667, 3927.692, 3953.333, 3924.615, 450, 0, []
1632641560.5365, 125, 0, 3941.026, 4245.128, 3981.538, 3966.154, 3934.359, 450, 0, []
1632641560.5444, 126, 0, 3947.179, 4244.615, 3913.333, 3971.282, 3933.846, 450, 0, []
1632641560.5522, 127, 0, 3947.179, 4048.718, 3987.692, 3984.103, 3916.923, 16174, 0, []
1632641560.5602, 128, 0, 3956.41, 3877.949, 3945.128, 3974.359, 3920, 450, 0, []
1632641560.5681, 0, 0, 3959.487, 3998.974, 3933.846, 3957.949, 3932.821, 450, 0, []
1632641560.576, 1, 0, 3947.692, 4152.308, 3992.308, 3973.333, 3936.41, 450, 0, []
1632641560.5839, 2, 0, 3941.538, 4165.128, 3898.974, 3973.846, 3939.487, 16164, 0, []
1632641560.5919, 3, 0, 3956.41, 4130.256, 3963.077, 3962.564, 3934.359, 450, 0, []
1632641560.5998, 4, 0, 3963.077, 4049.744, 3947.692, 3962.564, 3914.872, 16103, 0, []
1632641560.6078, 5, 0, 3953.846, 4040, 3918.974, 3965.641, 3910.256, 450, 0, []
1632641560.6156, 6, 0, 3952.308, 4087.179, 3991.795, 3961.538, 3931.795, 173, 0, []
1632641560.6235, 7, 0, 3945.128, 3964.615, 3921.026, 3957.436, 3935.897, 450, 0, []
1632641560.6314, 8, 0, 3938.974, 3855.897, 3968.205, 3974.872, 3929.231, 450, 0, []
1632641560.6392, 9, 0, 3952.821, 3979.487, 3945.641, 3974.872, 3941.026, 16132, 0, []
1632641560.6471, 10, 0, 3966.154, 4093.846, 3919.487, 3973.846, 3947.692, 450, 0, []
1632641560.6548, 11, 0, 3966.667, 4114.872, 4007.692, 3993.846, 3932.821, 16175, 0, []
1632641560.6627, 12, 0, 3967.179, 4132.821, 3917.436, 3984.103, 3930.769, 450, 0, []
1632641560.6705, 13, 0, 3967.692, 4089.231, 3963.077, 3976.41, 3945.128, 450, 0, []
1632641560.6784, 14, 0, 3953.846, 4046.667, 3985.128, 3983.59, 3948.718, 450, 0, []
1632641560.6862, 15, 0, 3949.744, 4032.821, 3929.231, 3981.538, 3954.872, 16175, 0, []
1632641560.694, 16, 0, 3974.359, 4012.821, 4000.513, 3992.308, 3974.872, 0, 0, []
1632641560.7018, 17, 0, 3986.154, 4076.41, 3924.103, 4000.513, 3971.795, 0, 0, []
1632641560.7098, 18, 0, 3981.538, 4172.821, 3947.692, 3997.436, 3951.795, 0, 0, []
1632641560.7177, 19, 0, 3977.949, 4174.872, 3977.949, 3988.205, 3943.077, 0, 0, []
1632641560.7257, 20, 0, 3965.641, 4092.821, 3929.231, 3971.795, 3938.462, 0, 0, []
1632641560.7335, 21, 0, 3956.923, 4008.205, 4008.205, 3973.333, 3950.256, 0, 0, []
1632641560.7415, 22, 0, 3957.436, 4056.41, 3938.462, 3985.641, 3973.846, 0, 0, []
1632641560.7494, 23, 0, 3964.103, 4169.231, 3956.923, 3994.872, 3973.846, 0, 0, []
1632641560.7574, 24, 0, 3978.462, 4174.872, 4002.564, 3994.872, 3965.128, 0, 0, []
1632641560.7653, 25, 0, 3980, 4086.667, 3929.231, 3995.385, 3954.872, 0, 0, []
1632641560.7732, 26, 0, 3976.41, 4017.436, 4002.564, 4004.103, 3940, 0, 0, []
1632641560.7811, 27, 0, 3980.513, 4021.538, 3951.282, 3986.667, 3940, 0, 0, []
1632641560.7889, 28, 0, 3978.974, 4105.128, 3954.872, 3978.462, 3953.846, 0, 0, []
1632641560.7968, 29, 0, 3967.692, 4120, 4004.615, 3988.718, 3966.154, 0, 0, []
1632641560.8046, 30, 0, 3957.949, 4031.282, 3917.949, 3978.462, 3965.641, 0, 0, []
1632641560.8124, 31, 0, 3954.872, 3962.564, 3978.462, 3969.231, 3945.128, 0, 0, []
1632641560.8202, 32, 0, 3960, 3877.949, 3938.974, 3968.205, 3934.872, 0, 0, []
1632641560.8281, 33, 0, 4001.026, 3860, 3948.718, 4001.538, 3978.462, 0, 0, []
1632641560.8359, 34, 0, 4051.282, 4014.872, 4027.692, 4046.667, 4028.718, 0, 0, []
1632641560.8438, 35, 0, 4043.077, 4076.923, 3933.846, 4034.359, 4018.974, 0, 0, []
1632641560.8516, 36, 0, 4024.615, 4017.436, 3992.308, 4010.256, 4010.256, 0, 0, []
1632641560.8595, 37, 0, 4036.41, 4037.949, 3982.051, 4017.949, 4032.821, 0, 0, []
1632641560.8674, 38, 0, 4028.718, 4037.949, 3961.026, 4027.179, 4029.744, 0, 0, []
1632641560.8754, 39, 0, 4004.103, 4018.462, 4027.179, 4023.077, 4014.872, 0, 0, []
1632641560.8833, 40, 0, 3998.974, 4011.795, 3944.103, 4016.923, 4018.974, 0, 0, []
1632641560.8913, 41, 0, 4011.795, 3880.513, 3984.615, 4025.641, 4023.59, 0, 0, []
1632641560.8991, 42, 0, 4004.615, 3811.795, 3958.974, 4022.564, 4017.436, 0, 0, []
1632641560.9071, 43, 0, 3981.538, 3920.513, 3925.641, 4003.077, 3995.897, 0, 0, []
1632641560.915, 44, 0, 3994.359, 3979.487, 4016.923, 4016.923, 3983.077, 0, 0, []
1632641560.923, 45, 0, 4024.103, 3985.641, 3939.487, 4045.641, 4002.051, 0, 0, []
1632641560.9309, 46, 0, 4024.103, 4014.872, 3987.692, 4043.077, 4020.513, 0, 0, []
1632641560.9386, 47, 0, 4010.256, 3900, 4009.231, 4015.385, 4006.154, 0, 0, []
1632641560.9465, 48, 0, 4011.282, 3703.077, 3957.436, 4016.41, 3997.436, 0, 0, []
1632641560.9543, 49, 0, 4014.872, 3714.872, 4031.795, 4040, 4020.513, 0, 0, []
1632641560.9622, 50, 0, 3994.359, 3870.769, 3957.949, 4022.564, 4017.949, 0, 0, []
1632641560.97, 51, 0, 3988.205, 3873.846, 3987.692, 4012.821, 3993.333, 0, 0, []
1632641560.9778, 52, 0, 4010.256, 3797.949, 4018.462, 4035.897, 4003.077, 0, 0, []
1632641560.9856, 53, 0, 4018.974, 3821.026, 3963.077, 4034.872, 4017.436, 0, 0, []
1632641560.9935, 54, 0, 4023.59, 3798.974, 4040, 4031.282, 4002.051, 0, 0, []
1632641561.0013, 55, 0, 4024.103, 3757.949, 3963.59, 4029.744, 3980, 0, 0, []
1632641561.0092, 56, 0, 4017.949, 3867.692, 3974.359, 4029.744, 3993.846, 0, 0, []
1632641561.0169, 57, 0, 4016.923, 3855.897, 4015.897, 4034.359, 4017.949, 0, 0, []
1632641561.0249, 58, 0, 4017.949, 3636.923, 3953.333, 4034.872, 4020.513, 0, 0, []
1632641561.0328, 59, 0, 4032.821, 3656.41, 4037.436, 4055.385, 4038.462, 0, 0, []
1632641561.0408, 60, 0, 4047.179, 3836.41, 3973.846, 4068.718, 4065.641, 0, 0, []
1632641561.0487, 61, 0, 4044.615, 3767.692, 3975.385, 4067.179, 4069.231, 0, 0, []
1632641561.0566, 62, 0, 4037.436, 3666.154, 4044.615, 4065.641, 4068.205, 0, 0, []
1632641561.0645, 63, 0, 4034.872, 3798.974, 3961.538, 4062.564, 4069.744, 0, 0, []
1632641561.0725, 64, 0, 4035.385, 3882.051, 4011.282, 4059.487, 4058.462, 450, 0, []
1632641561.0804, 65, 0, 4029.744, 3798.462, 3964.103, 4036.923, 4052.308, 450, 0, []
1632641561.0882, 66, 0, 4026.154, 3797.949, 3954.872, 4032.308, 4048.718, 16181, 0, []
1632641561.096, 67, 0, 4036.923, 3861.538, 4024.615, 4057.949, 4037.436, 450, 0, []
1632641561.1038, 68, 0, 4049.231, 3851.795, 3950.256, 4063.59, 4046.667, 16103, 0, []
1632641561.1117, 69, 0, 4056.923, 3814.359, 4016.41, 4068.205, 4056.923, 450, 0, []
1632641561.1195, 70, 0, 4063.59, 3803.077, 3999.487, 4079.487, 4043.59, 179, 0, []
1632641561.1274, 71, 0, 4067.692, 3794.872, 3980.513, 4072.821, 4044.103, 450, 0, []
1632641561.1351, 72, 0, 4058.462, 3806.667, 4037.949, 4057.436, 4050.256, 450, 0, []
1632641561.143, 73, 0, 4034.872, 3818.462, 3944.103, 4043.59, 4025.641, 16118, 0, []
1632641561.1508, 74, 0, 4030.256, 3798.462, 4011.282, 4045.128, 4024.615, 450, 0, []
1632641561.1587, 75, 0, 4042.564, 3780, 4015.385, 4042.051, 4059.487, 16198, 0, []
1632641561.1665, 76, 0, 4051.282, 3796.41, 3978.462, 4050.256, 4074.872, 450, 0, []
1632641561.1744, 77, 0, 4059.487, 3824.103, 4053.846, 4078.974, 4080, 450, 0, []
1632641561.1823, 78, 0, 4052.821, 3796.41, 3965.641, 4067.692, 4076.41, 450, 0, []
1632641561.1903, 79, 0, 4044.103, 3790.769, 3998.974, 4058.462, 4060.513, 16198, 0, []
1632641561.1982, 80, 0, 4057.436, 3864.103, 4020, 4078.462, 4066.154, 450, 0, []
1632641561.2062, 81, 0, 4075.385, 3930.769, 3992.821, 4087.179, 4089.744, 450, 0, []
1632641561.2141, 82, 0, 4075.385, 3934.359, 4061.026, 4074.872, 4089.744, 450, 0, []
1632641561.222, 83, 0, 4065.641, 3949.231, 3954.872, 4054.359, 4072.821, 16198, 0, []
1632641561.2299, 84, 0, 4073.846, 4028.718, 3988.718, 4072.821, 4076.923, 450, 0, []
1632641561.2379, 85, 0, 4086.667, 3925.641, 4041.538, 4098.462, 4089.744, 450, 0, []
1632641561.2458, 86, 0, 4079.487, 3735.385, 3987.179, 4090.769, 4085.128, 450, 0, []
1632641561.2536, 87, 0, 4071.795, 3833.846, 4049.744, 4090.256, 4082.564, 16198, 0, []
1632641561.2614, 88, 0, 4069.744, 3970.769, 3968.718, 4091.282, 4092.308, 450, 0, []
1632641561.2692, 89, 0, 4076.41, 3845.128, 3993.333, 4091.795, 4096.41, 450, 0, []
1632641561.2771, 90, 0, 4095.897, 3831.282, 4063.59, 4104.103, 4094.359, 450, 0, []
1632641561.2849, 91, 0, 4106.667, 3963.59, 4016.41, 4107.179, 4097.436, 16198, 0, []
1632641561.2928, 92, 0, 4093.846, 3880, 4073.333, 4093.846, 4093.846, 450, 0, []
1632641561.3005, 93, 0, 4060, 3853.846, 3979.487, 4067.179, 4072.821, 450, 0, []
1632641561.3084, 94, 0, 4044.103, 3972.821, 3980.513, 4064.615, 4058.974, 450, 0, []
1632641561.3162, 95, 0, 4070.256, 3984.615, 4058.974, 4090.256, 4073.846, 16198, 0, []
1632641561.3241, 96, 0, 4096.923, 3990.256, 3993.333, 4104.615, 4089.231, 450, 0, []
1632641561.3319, 97, 0, 4101.026, 3988.718, 4061.538, 4108.718, 4091.795, 450, 0, []
1632641561.3397, 98, 0, 4090.769, 3934.872, 4009.231, 4090.769, 4086.154, 450, 0, []
1632641561.3477, 99, 0, 4083.59, 3957.949, 3995.897, 4083.59, 4077.949, 16198, 0, []
1632641561.3557, 100, 0, 4089.744, 4015.897, 4069.231, 4109.231, 4076.923, 450, 0, []
1632641561.3636, 101, 0, 4092.821, 3965.641, 3983.077, 4111.795, 4077.436, 450, 0, []
1632641561.3716, 102, 0, 4098.974, 3953.333, 4039.487, 4101.538, 4091.282, 450, 0, []
1632641561.3794, 103, 0, 4109.744, 4006.667, 4029.744, 4103.59, 4108.718, 16198, 0, []
1632641561.3874, 104, 0, 4105.128, 4021.538, 4012.821, 4104.615, 4099.487, 450, 0, []
1632641561.3953, 105, 0, 4089.744, 4044.103, 4053.846, 4089.744, 4073.333, 450, 0, []
1632641561.4033, 106, 0, 4076.923, 4040, 3957.949, 4069.231, 4058.462, 450, 0, []
1632641561.4112, 107, 0, 4091.795, 4026.667, 4083.59, 4088.718, 4074.359, 16198, 0, []
1632641561.4189, 108, 0, 4113.846, 4059.487, 4109.744, 4117.436, 4093.333, 450, 0, []
1632641561.4268, 109, 0, 4094.359, 4062.564, 4004.103, 4109.744, 4081.026, 450, 0, []
1632641561.4346, 110, 0, 4075.385, 4003.59, 4061.026, 4100.513, 4064.615, 450, 0, []
1632641561.4425, 111, 0, 4093.333, 3955.897, 3986.667, 4105.641, 4083.59, 16198, 0, []
1632641561.4503, 112, 0, 4117.949, 3990.769, 4020, 4121.026, 4117.436, 450, 0, []
1632641561.4581, 113, 0, 4122.564, 4052.308, 4051.795, 4122.564, 4123.077, 450, 0, []
1632641561.4659, 114, 0, 4114.872, 4082.564, 4007.179, 4111.795, 4108.718, 450, 0, []
1632641561.4739, 115, 0, 4114.359, 4064.615, 4066.667, 4118.462, 4106.667, 16198, 0, []
1632641561.4818, 116, 0, 4111.795, 3976.41, 3978.974, 4115.897, 4105.641, 450, 0, []
1632641561.4898, 117, 0, 4108.205, 3860, 4007.692, 4107.179, 4098.974, 450, 0, []
1632641561.4976, 118, 0, 4103.077, 3808.205, 4044.615, 4097.436, 4096.41, 450, 0, []
1632641561.5056, 119, 0, 4103.077, 3788.718, 4011.282, 4095.385, 4096.41, 16198, 0, []
1632641561.5135, 120, 0, 4110.769, 3782.051, 4066.154, 4106.154, 4101.026, 450, 0, []
1632641561.5215, 121, 0, 4102.051, 3875.385, 3985.641, 4089.744, 4111.795, 450, 0, []
1632641561.5294, 122, 0, 4092.308, 3992.308, 4035.897, 4084.103, 4115.385, 450, 0, []
1632641561.5373, 123, 0, 4092.308, 4072.821, 4067.179, 4105.641, 4108.205, 16198, 0, []
1632641561.5452, 124, 0, 4090.769, 4108.205, 4009.231, 4117.949, 4106.154, 450, 0, []
1632641561.5531, 125, 0, 4096.41, 3991.795, 4087.692, 4122.051, 4114.872, 450, 0, []
1632641561.561, 126, 0, 4101.026, 3925.128, 4002.564, 4113.333, 4122.051, 450, 0, []
1632641561.5688, 127, 0, 4107.692, 4038.462, 4020.513, 4120.513, 4130.256, 16198, 0, []
1632641561.5767, 128, 0, 4114.872, 4015.897, 4081.538, 4130.256, 4133.333, 450, 0, []
1632641561.5844, 0, 0, 4110.256, 3876.41, 3996.41, 4112.821, 4125.128, 450, 0, []
1632641561.5923, 1, 0, 4106.154, 3973.333, 4068.718, 4108.205, 4116.41, 450, 0, []
1632641561.6001, 2, 0, 4110.256, 4110.256, 4035.897, 4118.974, 4115.385, 271, 0, []
1632641561.608, 3, 0, 4137.949, 4050.769, 4029.744, 4134.359, 4135.385, 450, 0, []
1632641561.6158, 4, 0, 4160, 4061.026, 4085.641, 4141.538, 4160.513, 234, 0, []
1632641561.6236, 5, 0, 4140.513, 4116.41, 3999.487, 4126.154, 4152.821, 450, 0, []
1632641561.6314, 6, 0, 4130.256, 4030.769, 4062.564, 4128.718, 4136.923, 264, 0, []
1632641561.6394, 7, 0, 4143.077, 3920.513, 4042.051, 4143.59, 4148.718, 450, 0, []
1632641561.6473, 8, 0, 4140, 3955.897, 4015.897, 4152.821, 4154.359, 450, 0, []
1632641561.6553, 9, 0, 4136.923, 4056.923, 4077.949, 4155.385, 4144.103, 210, 0, []
1632641561.6631, 10, 0, 4131.282, 4094.872, 4000, 4135.385, 4133.333, 450, 0, []
1632641561.6711, 11, 0, 4117.949, 4095.897, 4048.718, 4126.154, 4121.538, 16377, 0, []
1632641561.679, 12, 0, 4109.231, 4050.769, 4040, 4128.718, 4121.538, 450, 0, []
1632641561.687, 13, 0, 4101.026, 4070.769, 4018.462, 4118.974, 4120, 450, 0, []
1632641561.6949, 14, 0, 4108.205, 4158.462, 4073.846, 4125.128, 4123.077, 450, 0, []
1632641561.7028, 15, 0, 4126.154, 4061.026, 4004.103, 4144.615, 4146.154, 16377, 0, []
1632641561.7107, 16, 0, 4135.385, 3904.615, 4074.359, 4154.359, 4163.59, 0, 0, []
1632641561.7185, 17, 0, 4131.795, 3958.462, 4058.974, 4147.179, 4156.923, 0, 0, []
1632641561.7264, 18, 0, 4124.103, 4000.513, 3994.872, 4144.615, 4149.231, 0, 0, []
1632641561.7342, 19, 0, 4116.923, 3885.641, 4064.103, 4145.128, 4148.205, 0, 0, []
1632641561.742, 20, 0, 4112.308, 3945.128, 4000, 4132.821, 4141.538, 0, 0, []
1632641561.7498, 21, 0, 4118.974, 4127.179, 4044.103, 4144.615, 4146.154, 0, 0, []
1632641561.7577, 22, 0, 4122.051, 4123.077, 4056.923, 4150.769, 4150.769, 0, 0, []
1632641561.7655, 23, 0, 4117.949, 4030.256, 4005.128, 4133.333, 4146.154, 0, 0, []
1632641561.7734, 24, 0, 4128.718, 4017.949, 4085.128, 4140.513, 4156.41, 0, 0, []
1632641561.7811, 25, 0, 4145.641, 4091.282, 4028.718, 4143.59, 4169.231, 0, 0, []
1632641561.789, 26, 0, 4143.59, 4117.436, 4046.154, 4130.769, 4155.385, 0, 0, []
1632641561.7968, 27, 0, 4127.179, 4064.615, 4057.949, 4130.256, 4134.359, 0, 0, []
1632641561.8048, 28, 0, 4138.462, 4034.359, 3997.436, 4146.154, 4138.974, 0, 0, []
1632641561.8127, 29, 0, 4164.615, 4057.949, 4092.821, 4162.564, 4150.769, 0, 0, []
1632641561.8206, 30, 0, 4162.051, 4121.538, 4040.513, 4152.821, 4153.846, 0, 0, []
1632641561.8285, 31, 0, 4146.667, 4201.538, 4034.872, 4144.103, 4150.256, 0, 0, []
1632641561.8365, 32, 0, 4140, 4219.487, 4076.923, 4146.154, 4145.641, 0, 0, []
1632641561.8444, 33, 0, 4134.359, 4136.923, 4006.154, 4138.974, 4157.949, 0, 0, []
1632641561.8524, 34, 0, 4137.436, 4055.385, 4083.077, 4147.692, 4174.872, 0, 0, []
1632641561.8602, 35, 0, 4145.128, 4066.667, 4051.795, 4157.436, 4169.231, 0, 0, []
1632641561.8682, 36, 0, 4140.513, 4139.487, 4039.487, 4156.923, 4162.051, 0, 0, []
1632641561.8761, 37, 0, 4140.513, 4190.769, 4091.795, 4149.231, 4167.692, 0, 0, []
1632641561.8839, 38, 0, 4142.564, 4179.487, 4006.154, 4120.513, 4154.872, 0, 0, []
1632641561.8918, 39, 0, 4144.103, 4081.538, 4065.641, 4109.231, 4140.513, 0, 0, []
1632641561.8996, 40, 0, 4147.692, 3968.205, 4048.205, 4116.41, 4138.462, 0, 0, []
1632641561.9074, 41, 0, 4150.769, 3939.487, 4020.513, 4124.103, 4133.333, 0, 0, []
1632641561.9152, 42, 0, 4161.538, 3898.462, 4082.051, 4134.872, 4146.154, 0, 0, []
1632641561.9231, 43, 0, 4162.051, 3810.769, 4006.154, 4137.949, 4153.333, 0, 0, []
1632641561.9309, 44, 0, 4160, 3783.077, 4068.718, 4155.897, 4138.462, 0, 0, []
1632641561.9389, 45, 0, 4165.128, 3825.128, 4067.179, 4172.308, 4145.641, 0, 0, []
1632641561.9467, 46, 0, 4156.923, 3825.641, 4023.59, 4157.949, 4155.385, 0, 0, []
1632641561.9547, 47, 0, 4155.385, 3853.333, 4092.308, 4147.692, 4152.308, 0, 0, []
1632641561.9626, 48, 0, 4164.103, 4007.179, 4023.59, 4155.897, 4161.026, 0, 0, []
1632641561.9706, 49, 0, 4170.769, 4077.436, 4078.462, 4178.462, 4183.59, 0, 0, []
1632641561.9785, 50, 0, 4164.103, 3959.487, 4092.821, 4174.359, 4182.051, 0, 0, []
1632641561.9864, 51, 0, 4136.923, 3895.385, 4030.256, 4136.923, 4145.128, 0, 0, []
1632641561.9943, 52, 0, 4119.487, 3977.436, 4093.846, 4121.026, 4124.103, 0, 0, []
1632641562.0023, 53, 0, 4135.385, 4086.154, 4031.282, 4130.769, 4141.026, 0, 0, []
1632641562.0102, 54, 0, 4163.59, 4205.128, 4076.923, 4150.256, 4161.538, 0, 0, []
1632641562.0182, 55, 0, 4161.538, 4266.154, 4091.282, 4149.231, 4150.769, 0, 0, []
1632641562.026, 56, 0, 4145.641, 4203.077, 4013.846, 4139.487, 4124.615, 0, 0, []
1632641562.034, 57, 0, 4150.769, 4160, 4108.718, 4153.846, 4120.513, 0, 0, []
1632641562.0419, 58, 0, 4148.718, 4176.41, 4057.949, 4147.179, 4127.692, 0, 0, []
1632641562.0497, 59, 0, 4141.538, 4150.256, 4055.385, 4139.487, 4130.256, 0, 0, []
1632641562.0576, 60, 0, 4149.744, 4078.974, 4087.692, 4154.359, 4138.974, 0, 0, []
1632641562.0653, 61, 0, 4156.923, 4048.205, 4028.205, 4161.026, 4157.949, 0, 0, []
1632641562.0732, 62, 0, 4163.077, 4131.282, 4107.179, 4165.128, 4167.692, 0, 0, []
1632641562.081, 63, 0, 4162.564, 4192.308, 4045.641, 4158.974, 4162.051, 0, 0, []
1632641562.089, 64, 0, 4144.103, 4111.795, 4062.564, 4151.282, 4152.821, 450, 0, []
1632641562.0969, 65, 0, 4140, 4053.846, 4152.821, 4156.41, 4148.205, 450, 0, []
1632641562.1048, 66, 0, 4152.821, 4009.231, 4044.615, 4151.282, 4151.795, 16166, 0, []
1632641562.1127, 67, 0, 4158.462, 3994.359, 4084.615, 4150.769, 4160.513, 450, 0, []
1632641562.1207, 68, 0, 4157.949, 4115.385, 4056.41, 4154.359, 4151.282, 303, 0, []
1632641562.1286, 69, 0, 4159.487, 4068.718, 4026.154, 4153.333, 4126.667, 450, 0, []
1632641562.1366, 70, 0, 4166.154, 3864.103, 4104.615, 4161.538, 4137.949, 199, 0, []
1632641562.1444, 71, 0, 4174.872, 3923.59, 4040, 4176.41, 4171.795, 450, 0, []
1632641562.1524, 72, 0, 4190.769, 4132.821, 4092.308, 4195.385, 4184.103, 450, 0, []
1632641562.1603, 73, 0, 4174.359, 4173.846, 4058.462, 4176.41, 4174.872, 16090, 0, []
1632641562.1682, 74, 0, 4143.077, 4160, 4022.564, 4152.308, 4172.308, 450, 0, []
1632641562.1761, 75, 0, 4162.564, 4128.718, 4106.667, 4169.744, 4182.564, 16224, 0, []
1632641562.1838, 76, 0, 4167.179, 4073.846, 4020, 4161.026, 4173.333, 450, 0, []
1632641562.1917, 77, 0, 4144.103, 4084.103, 4069.231, 4136.923, 4165.128, 450, 0, []
1632641562.1995, 78, 0, 4165.128, 4080.513, 4092.308, 4150.769, 4178.974, 450, 0, []
1632641562.2074, 79, 0, 4195.897, 4099.487, 4070.769, 4175.385, 4177.949, 16224, 0, []
1632641562.2152, 80, 0, 4177.436, 4042.051, 4122.564, 4170.769, 4153.333, 450, 0, []
1632641562.223, 81, 0, 4156.923, 3840, 4015.897, 4156.41, 4135.897, 450, 0, []
1632641562.2308, 82, 0, 4167.179, 3884.615, 4058.974, 4172.821, 4133.846, 450, 0, []
1632641562.2387, 83, 0, 4161.026, 4109.231, 4070.256, 4180.513, 4138.462, 16224, 0, []
1632641562.2465, 84, 0, 4150.256, 4055.897, 4017.436, 4166.667, 4151.282, 450, 0, []
1632641562.2544, 85, 0, 4168.718, 3959.487, 4083.59, 4173.333, 4163.077, 450, 0, []
1632641562.2622, 86, 0, 4171.795, 4132.821, 4006.667, 4177.436, 4169.231, 450, 0, []
1632641562.2701, 87, 0, 4156.41, 4200, 4063.59, 4185.128, 4182.051, 16224, 0, []
1632641562.278, 88, 0, 4160.513, 3942.564, 4101.538, 4188.205, 4181.026, 450, 0, []
1632641562.286, 89, 0, 4158.462, 3869.744, 4027.179, 4163.077, 4158.462, 450, 0, []
1632641562.2939, 90, 0, 4145.641, 4143.077, 4093.846, 4152.821, 4149.231, 450, 0, []
1632641562.3019, 91, 0, 4155.897, 4041.026, 4024.103, 4159.487, 4156.923, 16224, 0, []
1632641562.3097, 92, 0, 4180.513, 3626.154, 4048.718, 4163.077, 4166.154, 450, 0, []
1632641562.3177, 93, 0, 4184.615, 3639.487, 4094.872, 4164.615, 4170.256, 450, 0, []
1632641562.3256, 94, 0, 4174.359, 3660, 4034.359, 4171.282, 4162.051, 450, 0, []
1632641562.3336, 95, 0, 4177.949, 3298.974, 4116.923, 4188.205, 4163.077, 16224, 0, []
1632641562.3415, 96, 0, 4177.436, 3262.051, 4048.718, 4185.128, 4176.923, 450, 0, []
1632641562.3494, 97, 0, 4180, 3648.718, 4047.692, 4194.359, 4181.538, 450, 0, []
1632641562.3573, 98, 0, 4185.641, 3865.641, 4111.795, 4212.308, 4178.974, 450, 0, []
1632641562.3651, 99, 0, 4164.103, 3952.821, 4036.41, 4191.282, 4173.333, 16224, 0, []
1632641562.373, 100, 0, 4153.846, 4051.795, 4094.359, 4180, 4170.769, 450, 0, []
1632641562.3808, 101, 0, 4175.385, 4171.282, 4045.128, 4188.718, 4189.744, 450, 0, []
1632641562.3886, 102, 0, 4177.436, 4278.462, 4042.051, 4194.872, 4207.179, 450, 0, []
1632641562.3964, 103, 0, 4164.615, 4233.846, 4114.872, 4201.538, 4201.026, 16224, 0, []
1632641562.4043, 104, 0, 4174.872, 4268.205, 4043.077, 4196.923, 4190.769, 450, 0, []
1632641562.4121, 105, 0, 4190.769, 4451.795, 4112.821, 4194.872, 4187.179, 450, 0, []
1632641562.4201, 106, 0, 4182.564, 4408.205, 4082.564, 4192.821, 4176.923, 450, 0, []
1632641562.4279, 107, 0, 4167.692, 4269.231, 4050.256, 4192.308, 4154.359, 16224, 0, []
1632641562.4359, 108, 0, 4170.256, 4287.692, 4111.795, 4200, 4148.205, 450, 0, []
1632641562.4438, 109, 0, 4171.282, 4284.615, 4026.667, 4196.923, 4166.154, 450, 0, []
1632641562.4518, 110, 0, 4168.718, 4234.872, 4086.667, 4195.897, 4177.949, 450, 0, []
1632641562.4597, 111, 0, 4167.179, 4294.872, 4080.513, 4192.308, 4171.795, 16224, 0, []
1632641562.4676, 112, 0, 4164.615, 4351.795, 4051.795, 4184.615, 4166.154, 450, 0, []
1632641562.4755, 113, 0, 4161.538, 4266.667, 4123.59, 4181.538, 4156.41, 450, 0, []
1632641562.4833, 114, 0, 4157.436, 4197.436, 4024.103, 4165.128, 4134.359, 450, 0, []
1632641562.4912, 115, 0, 4179.487, 4300, 4080, 4184.615, 4144.103, 16224, 0, []
1632641562.499, 116, 0, 4195.385, 4423.077, 4108.718, 4212.821, 4169.744, 450, 0, []
1632641562.5068, 117, 0, 4171.282, 4314.359, 4048.718, 4191.282, 4159.487, 450, 0, []
1632641562.5146, 118, 0, 4166.154, 4143.077, 4100.513, 4183.077, 4155.385, 450, 0, []
1632641562.5225, 119, 0, 4178.462, 4231.282, 4018.974, 4202.564, 4178.974, 16224, 0, []
1632641562.5303, 120, 0, 4163.077, 4357.436, 4069.744, 4207.179, 4186.667, 450, 0, []
1632641562.5382, 121, 0, 4148.718, 4340, 4109.744, 4189.744, 4166.154, 450, 0, []
1632641562.5459, 122, 0, 4169.231, 4293.846, 4062.051, 4187.179, 4167.692, 450, 0, []
1632641562.5539, 123, 0, 4189.744, 4268.718, 4132.308, 4199.487, 4194.359, 16224, 0, []
1632641562.5618, 124, 0, 4181.026, 4244.103, 4036.41, 4193.333, 4189.231, 450, 0, []
1632641562.5698, 125, 0, 4175.897, 4235.385, 4060, 4202.051, 4167.692, 450, 0, []
1632641562.5777, 126, 0, 4177.949, 4270.256, 4121.538, 4216.41, 4176.41, 450, 0, []
1632641562.5856, 127, 0, 4174.359, 4251.282, 4059.487, 4213.333, 4200, 16224, 0, []
1632641562.5935, 128, 0, 4188.718, 4103.077, 4131.795, 4224.103, 4210.769, 450, 0, []
1632641562.6015, 0, 0, 4184.103, 3964.103, 4064.103, 4215.385, 4202.051, 450, 0, []
1632641562.6094, 1, 0, 4151.795, 4050.769, 4074.872, 4197.436, 4188.205, 450, 0, []
1632641562.6174, 2, 0, 4151.282, 4227.179, 4145.641, 4203.077, 4188.205, 16195, 0, []
1632641562.6253, 3, 0, 4171.795, 4160.513, 4073.846, 4198.974, 4191.795, 450, 0, []
1632641562.633, 4, 0, 4183.59, 4081.026, 4133.846, 4184.615, 4194.872, 315, 0, []
1632641562.6409, 5, 0, 4179.487, 4256.923, 4071.795, 4173.333, 4189.231, 450, 0, []
1632641562.6487, 6, 0, 4171.795, 4388.718, 4064.103, 4188.205, 4168.718, 94, 0, []
1632641562.6566, 7, 0, 4179.487, 4288.718, 4143.59, 4207.179, 4174.872, 450, 0, []
1632641562.6644, 8, 0, 4176.41, 4201.538, 4054.872, 4184.615, 4198.462, 450, 0, []
1632641562.6722, 9, 0, 4166.667, 4291.282, 4098.974, 4175.385, 4189.744, 16116, 0, []
1632641562.68, 10, 0, 4172.308, 4455.897, 4078.462, 4190.769, 4179.487, 450, 0, []
1632641562.6879, 11, 0, 4174.872, 4537.436, 4066.154, 4191.795, 4192.308, 16181, 0, []
1632641562.6957, 12, 0, 4167.179, 4500.513, 4114.359, 4183.59, 4195.385, 450, 0, []
1632641562.7036, 13, 0, 4182.051, 4458.462, 4031.282, 4184.615, 4187.179, 450, 0, []
1632641562.7113, 14, 0, 4216.41, 4465.641, 4120, 4208.718, 4193.846, 450, 0, []
1632641562.7193, 15, 0, 4214.872, 4482.564, 4108.718, 4218.462, 4205.128, 16181, 0, []
1632641562.7272, 16, 0, 4192.308, 4513.846, 4054.359, 4207.179, 4204.615, 0, 0, []
1632641562.7352, 17, 0, 4188.205, 4514.872, 4118.462, 4194.359, 4203.077, 0, 0, []
1632641562.7431, 18, 0, 4177.436, 4471.795, 4027.692, 4182.051, 4200, 0, 0, []
1632641562.751, 19, 0, 4168.718, 4441.026, 4086.154, 4197.949, 4200, 0, 0, []
1632641562.7589, 20, 0, 4173.846, 4430.769, 4106.667, 4202.051, 4191.282, 0, 0, []
1632641562.7669, 21, 0, 4181.538, 4467.692, 4058.462, 4180.513, 4174.359, 0, 0, []
1632641562.7748, 22, 0, 4190.769, 4481.538, 4130.256, 4179.487, 4172.308, 0, 0, []
1632641562.7828, 23, 0, 4183.077, 4334.872, 4033.333, 4183.077, 4169.744, 0, 0, []
1632641562.7906, 24, 0, 4170.769, 4209.231, 4063.59, 4189.744, 4158.462, 0, 0, []
1632641562.7984, 25, 0, 4165.128, 4243.077, 4109.231, 4191.795, 4155.385, 0, 0, []
1632641562.8063, 26, 0, 4163.077, 4234.872, 4061.538, 4181.026, 4165.128, 0, 0, []
1632641562.8141, 27, 0, 4172.308, 4154.872, 4117.436, 4186.154, 4189.744, 0, 0, []
1632641562.822, 28, 0, 4177.436, 4184.615, 4031.282, 4194.872, 4208.718, 0, 0, []
1632641562.8297, 29, 0, 4172.821, 4234.359, 4072.821, 4192.821, 4204.103, 0, 0, []
1632641562.8376, 30, 0, 4177.949, 4229.744, 4131.282, 4190.256, 4199.487, 0, 0, []
1632641562.8454, 31, 0, 4195.897, 4256.41, 4069.231, 4203.077, 4205.128, 0, 0, []
1632641562.8533, 32, 0, 4213.846, 4245.641, 4141.026, 4228.718, 4209.231, 0, 0, []
1632641562.8611, 33, 0, 4208.205, 4224.615, 4056.923, 4223.077, 4209.231, 0, 0, []
1632641562.869, 34, 0, 4184.615, 4237.949, 4053.846, 4210.769, 4205.641, 0, 0, []
1632641562.8769, 35, 0, 4167.179, 4213.333, 4118.462, 4204.615, 4200.513, 0, 0, []
1632641562.8849, 36, 0, 4154.359, 4214.872, 4043.59, 4178.974, 4192.821, 0, 0, []
1632641562.8928, 37, 0, 4151.795, 4236.41, 4110.769, 4177.949, 4191.795, 0, 0, []
1632641562.9008, 38, 0, 4154.872, 4171.795, 4060.513, 4180.513, 4187.692, 0, 0, []
1632641562.9086, 39, 0, 4150.769, 4158.462, 4048.718, 4160.513, 4173.333, 0, 0, []
1632641562.9166, 40, 0, 4153.333, 4282.051, 4117.436, 4158.974, 4163.077, 0, 0, []
1632641562.9245, 41, 0, 4168.718, 4318.974, 4041.026, 4180, 4160, 0, 0, []
1632641562.9325, 42, 0, 4187.692, 4277.949, 4112.308, 4206.667, 4167.179, 0, 0, []
1632641562.9404, 43, 0, 4182.051, 4275.385, 4085.641, 4201.538, 4175.385, 0, 0, []
1632641562.9483, 44, 0, 4163.077, 4205.128, 4058.974, 4186.154, 4173.333, 0, 0, []
1632641562.9562, 45, 0, 4170.256, 4111.282, 4123.59, 4196.41, 4182.051, 0, 0, []
1632641562.964, 46, 0, 4178.974, 4148.718, 4037.436, 4207.179, 4201.538, 0, 0, []
1632641562.9719, 47, 0, 4167.179, 4267.179, 4098.974, 4216.923, 4209.744, 0, 0, []
1632641562.9797, 48, 0, 4155.897, 4310.769, 4097.949, 4204.103, 4195.897, 0, 0, []
1632641562.9876, 49, 0, 4159.487, 4301.026, 4062.051, 4166.667, 4179.487, 0, 0, []
1632641562.9953, 50, 0, 4171.282, 4280, 4110.256, 4159.487, 4181.538, 0, 0, []
1632641563.0032, 51, 0, 4185.128, 4218.462, 4021.026, 4187.692, 4189.744, 0, 0, []
1632641563.011, 52, 0, 4204.615, 4188.205, 4101.026, 4215.897, 4188.205, 0, 0, []
1632641563.0189, 53, 0, 4196.923, 4284.103, 4119.487, 4203.077, 4184.103, 0, 0, []
1632641563.0267, 54, 0, 4176.923, 4332.308, 4060, 4191.795, 4196.923, 0, 0, []
1632641563.0345, 55, 0, 4192.308, 4213.846, 4126.667, 4221.026, 4224.615, 0, 0, []
1632641563.0423, 56, 0, 4194.872, 4106.667, 4036.923, 4215.385, 4227.179, 0, 0, []
1632641563.0503, 57, 0, 4163.077, 4080.513, 4069.744, 4187.179, 4201.026, 0, 0, []
1632641563.0582, 58, 0, 4162.564, 4044.103, 4120, 4196.923, 4192.308, 0, 0, []
1632641563.0662, 59, 0, 4194.872, 3975.385, 4097.436, 4221.026, 4210.256, 0, 0, []
1632641563.074, 60, 0, 4207.692, 3936.923, 4167.692, 4228.718, 4216.41, 0, 0, []
1632641563.082, 61, 0, 4186.154, 3980, 4059.487, 4210.769, 4194.872, 0, 0, []
1632641563.0899, 62, 0, 4172.821, 3996.41, 4082.564, 4210.769, 4177.436, 0, 0, []
1632641563.0979, 63, 0, 4184.103, 3962.051, 4144.103, 4225.128, 4190.256, 0, 0, []
1632641563.1058, 64, 0, 4182.564, 3988.718, 4068.718, 4209.231, 4207.179, 450, 0, []
1632641563.1136, 65, 0, 4177.949, 4015.897, 4123.077, 4199.487, 4209.744, 450, 0, []
1632641563.1215, 66, 0, 4184.615, 3915.897, 4060, 4210.769, 4215.897, 16167, 0, []
1632641563.1293, 67, 0, 4182.564, 3910.769, 4081.026, 4221.538, 4218.974, 450, 0, []
1632641563.1372, 68, 0, 4177.949, 4088.205, 4144.103, 4217.949, 4215.897, 16062, 0, []
1632641563.145, 69, 0, 4186.154, 4201.538, 4076.923, 4204.103, 4220.513, 450, 0, []
1632641563.1528, 70, 0, 4194.359, 4278.462, 4140, 4203.59, 4222.051, 138, 0, []
1632641563.1606, 71, 0, 4187.179, 4337.949, 4063.59, 4196.41, 4204.615, 450, 0, []
1632641563.1685, 72, 0, 4189.231, 4267.179, 4061.026, 4200.513, 4184.615, 450, 0, []
1632641563.1763, 73, 0, 4197.949, 4250.256, 4153.846, 4219.487, 4184.103, 16134, 0, []
1632641563.1842, 74, 0, 4184.103, 4321.538, 4063.077, 4211.282, 4192.821, 450, 0, []
1632641563.1919, 75, 0, 4184.103, 4234.872, 4114.359, 4211.282, 4207.179, 16179, 0, []
1632641563.1999, 76, 0, 4196.41, 4147.692, 4108.718, 4220, 4212.821, 450, 0, []
1632641563.2078, 77, 0, 4179.487, 4327.179, 4099.487, 4216.41, 4200.513, 450, 0, []
1632641563.2158, 78, 0, 4154.872, 4358.974, 4137.436, 4204.615, 4183.077, 450, 0, []
1632641563.2237, 79, 0, 4152.821, 4034.872, 4028.205, 4186.667, 4172.308, 16179, 0, []
1632641563.2316, 80, 0, 4170.769, 3811.282, 4104.103, 4188.718, 4183.59, 450, 0, []
1632641563.2395, 81, 0, 4183.077, 3915.897, 4120, 4200, 4194.359, 450, 0, []
1632641563.2475, 82, 0, 4175.897, 4074.359, 4080.513, 4201.026, 4164.615, 450, 0, []
1632641563.2554, 83, 0, 4160.513, 4108.718, 4112.821, 4193.846, 4135.385, 16179, 0, []
1632641563.2632, 84, 0, 4152.821, 4102.564, 4011.282, 4183.59, 4150.256, 450, 0, []
1632641563.271, 85, 0, 4165.128, 4121.538, 4081.538, 4199.487, 4170.256, 450, 0, []
1632641563.2788, 86, 0, 4169.744, 4258.974, 4097.436, 4206.667, 4173.333, 450, 0, []
1632641563.2867, 87, 0, 4163.077, 4379.487, 4054.872, 4203.59, 4195.385, 16179, 0, []
1632641563.2945, 88, 0, 4170.256, 4256.41, 4134.872, 4217.949, 4221.538, 450, 0, []
1632641563.3024, 89, 0, 4178.974, 4193.333, 4075.897, 4212.308, 4207.692, 450, 0, []
1632641563.3102, 90, 0, 4180.513, 4428.205, 4107.179, 4198.974, 4191.795, 450, 0, []
1632641563.318, 91, 0, 4181.026, 4418.462, 4100.513, 4198.974, 4194.359, 16179, 0, []
1632641563.3258, 92, 0, 4185.641, 3997.436, 4076.923, 4203.59, 4176.41, 450, 0, []
1632641563.3337, 93, 0, 4193.846, 3905.641, 4144.103, 4205.641, 4156.923, 450, 0, []
1632641563.3415, 94, 0, 4180, 4183.077, 4045.128, 4187.179, 4161.538, 450, 0, []
1632641563.3495, 95, 0, 4167.179, 4269.744, 4098.462, 4191.282, 4176.923, 16179, 0, []
1632641563.3573, 96, 0, 4176.923, 4235.385, 4134.359, 4208.205, 4183.59, 450, 0, []
1632641563.3653, 97, 0, 4167.179, 4259.487, 4061.538, 4200, 4164.103, 450, 0, []
1632641563.3732, 98, 0, 4147.179, 4266.667, 4119.487, 4185.641, 4143.077, 450, 0, []
1632641563.3812, 99, 0, 4165.128, 4311.795, 4059.487, 4185.128, 4149.744, 16179, 0, []
1632641563.3891, 100, 0, 4198.462, 4369.744, 4099.487, 4202.564, 4167.692, 450, 0, []
1632641563.397, 101, 0, 4201.538, 4361.026, 4142.564, 4210.256, 4165.641, 450, 0, []
1632641563.4049, 102, 0, 4187.692, 4373.846, 4054.872, 4194.359, 4141.538, 450, 0, []
1632641563.4129, 103, 0, 4183.59, 4249.231, 4121.538, 4185.641, 4126.154, 16179, 0, []
1632641563.4208, 104, 0, 4171.795, 4098.974, 4076.41, 4171.282, 4128.718, 450, 0, []
1632641563.4286, 105, 0, 4157.949, 4348.205, 4068.205, 4153.846, 4132.821, 450, 0, []
1632641563.4364, 106, 0, 4158.974, 4550.256, 4118.974, 4151.282, 4134.359, 450, 0, []
1632641563.4442, 107, 0, 4165.641, 4343.59, 4052.821, 4160.513, 4143.59, 16179, 0, []
1632641563.4521, 108, 0, 4178.974, 4287.692, 4145.641, 4185.641, 4163.59, 450, 0, []
1632641563.4599, 109, 0, 4183.59, 4459.487, 4118.462, 4190.256, 4162.051, 450, 0, []
1632641563.4678, 110, 0, 4179.487, 4367.692, 4075.385, 4178.462, 4142.564, 450, 0, []
1632641563.4755, 111, 0, 4178.974, 4213.846, 4134.359, 4180, 4133.333, 16179, 0, []
1632641563.4834, 112, 0, 4169.744, 4335.385, 4054.359, 4178.462, 4131.795, 450, 0, []
1632641563.4912, 113, 0, 4168.205, 4539.487, 4108.718, 4189.231, 4139.487, 450, 0, []
1632641563.4991, 114, 0, 4175.385, 4614.872, 4106.154, 4193.846, 4153.846, 450, 0, []
1632641563.5069, 115, 0, 4173.846, 4510.769, 4078.974, 4196.923, 4171.282, 16179, 0, []
1632641563.5148, 116, 0, 4168.205, 4447.179, 4144.615, 4206.154, 4174.872, 450, 0, []
1632641563.5227, 117, 0, 4150.769, 4420.513, 4054.359, 4173.333, 4148.205, 450, 0, []
1632641563.5307, 118, 0, 4144.615, 4305.641, 4093.846, 4146.154, 4134.872, 450, 0, []
1632641563.5386, 119, 0, 4173.333, 4409.744, 4109.744, 4168.718, 4157.436, 16179, 0, []
1632641563.5466, 120, 0, 4193.846, 4677.949, 4078.462, 4192.821, 4156.41, 450, 0, []
1632641563.5544, 121, 0, 4184.103, 4672.308, 4142.564, 4191.795, 4134.872, 450, 0, []
1632641563.5624, 122, 0, 4172.821, 4478.974, 4055.897, 4176.923, 4147.179, 450, 0, []
1632641563.5703, 123, 0, 4177.436, 4460, 4090.256, 4186.667, 4169.744, 16179, 0, []
1632641563.5783, 124, 0, 4181.538, 4554.359, 4117.436, 4201.026, 4172.308, 450, 0, []
1632641563.5862, 125, 0, 4175.385, 4597.949, 4070.256, 4185.641, 4176.41, 450, 0, []
1632641563.5939, 126, 0, 4173.846, 4536.41, 4145.641, 4174.359, 4176.923, 450, 0, []
1632641563.6018, 127, 0, 4183.59, 4399.487, 4084.103, 4183.077, 4164.615, 16179, 0, []
1632641563.6096, 128, 0, 4200.513, 4442.564, 4114.359, 4205.641, 4162.051, 450, 0, []
1632641563.6175, 0, 0, 4206.154, 4544.615, 4138.462, 4218.462, 4173.333, 450, 0, []
1632641563.6253, 1, 0, 4194.359, 4489.231, 4053.333, 4205.128, 4185.128, 450, 0, []
1632641563.6331, 2, 0, 4189.231, 4449.231, 4126.667, 4200.513, 4190.769, 16173, 0, []
1632641563.6409, 3, 0, 4185.641, 4454.359, 4075.897, 4196.41, 4182.051, 450, 0, []
1632641563.6488, 4, 0, 4175.385, 4307.692, 4084.615, 4191.282, 4178.462, 16140, 0, []
1632641563.6566, 5, 0, 4166.667, 4101.538, 4135.385, 4183.077, 4175.385, 450, 0, []
1632641563.6646, 6, 0, 4168.718, 4115.385, 4058.974, 4168.205, 4163.077, 195, 0, []
1632641563.6725, 7, 0, 4189.231, 4073.333, 4136.41, 4183.59, 4170.769, 450, 0, []
1632641563.6804, 8, 0, 4199.487, 3715.385, 4102.564, 4203.077, 4174.359, 450, 0, []
1632641563.6883, 9, 0, 4189.744, 3349.744, 4085.641, 4202.564, 4149.231, 16092, 0, []
1632641563.6963, 10, 0, 4190.256, 3228.205, 4144.615, 4201.538, 4150.769, 450, 0, []
1632641563.7042, 11, 0, 4198.974, 3208.205, 4077.436, 4201.538, 4166.154, 16186, 0, []
1632641563.7122, 12, 0, 4196.923, 3153.846, 4131.282, 4202.564, 4150.769, 450, 0, []
1632641563.72, 13, 0, 4187.692, 3355.385, 4087.692, 4193.333, 4144.103, 450, 0, []
1632641563.728, 14, 0, 4185.641, 3883.59, 4081.026, 4185.128, 4153.333, 450, 0, []
1632641563.7359, 15, 0, 4183.077, 4171.795, 4172.821, 4180.513, 4148.205, 16186, 0, []
1632641563.7437, 16, 0, 4168.205, 4000, 4059.487, 4172.821, 4149.744, 0, 0, []
1632641563.7516, 17, 0, 4168.205, 3968.205, 4108.718, 4190.769, 4169.744, 0, 0, []
1632641563.7593, 18, 0, 4181.026, 4103.59, 4139.487, 4199.487, 4169.231, 0, 0, []
1632641563.7672, 19, 0, 4173.333, 3892.308, 4084.103, 4171.282, 4144.615, 0, 0, []
1632641563.775, 20, 0, 4170.256, 3808.718, 4140.513, 4168.205, 4141.026, 0, 0, []
1632641563.7829, 21, 0, 4185.128, 4208.718, 4068.205, 4191.795, 4142.051, 0, 0, []
1632641563.7907, 22, 0, 4203.59, 4461.026, 4116.923, 4210.256, 4133.333, 0, 0, []
1632641563.7986, 23, 0, 4209.231, 4378.974, 4131.795, 4212.308, 4147.692, 0, 0, []
1632641563.8065, 24, 0, 4197.436, 4378.974, 4069.744, 4212.821, 4183.59, 0, 0, []
1632641563.8145, 25, 0, 4182.564, 4494.872, 4125.128, 4207.179, 4192.308, 0, 0, []
1632641563.8224, 26, 0, 4162.564, 4489.231, 4023.59, 4171.282, 4161.538, 0, 0, []
1632641563.8304, 27, 0, 4168.205, 4420, 4079.487, 4177.436, 4161.026, 0, 0, []
1632641563.8382, 28, 0, 4203.077, 4395.897, 4151.795, 4216.41, 4193.846, 0, 0, []
1632641563.8462, 29, 0, 4207.179, 4354.359, 4080, 4210.769, 4174.359, 0, 0, []
1632641563.8541, 30, 0, 4186.154, 4392.308, 4122.051, 4194.359, 4123.077, 0, 0, []
1632641563.8621, 31, 0, 4182.051, 4511.282, 4046.154, 4190.256, 4124.103, 0, 0, []
1632641563.87, 32, 0, 4194.872, 4410.769, 4083.077, 4197.436, 4159.487, 0, 0, []
1632641563.8779, 33, 0, 4193.333, 4188.205, 4133.846, 4200, 4168.718, 0, 0, []
1632641563.8858, 34, 0, 4170.769, 4274.872, 4071.282, 4189.231, 4153.333, 0, 0, []
1632641563.8936, 35, 0, 4162.564, 4500.513, 4128.205, 4192.308, 4144.103, 0, 0, []
1632641563.9015, 36, 0, 4174.872, 4474.872, 4051.795, 4189.231, 4145.128, 0, 0, []
1632641563.9093, 37, 0, 4182.051, 4338.462, 4078.974, 4176.923, 4142.564, 0, 0, []
1632641563.9171, 38, 0, 4174.359, 4354.872, 4134.359, 4169.744, 4126.154, 0, 0, []
1632641563.9249, 39, 0, 4167.692, 4523.077, 4055.385, 4174.872, 4108.205, 0, 0, []
1632641563.9328, 40, 0, 4185.641, 4590.769, 4134.872, 4195.897, 4113.846, 0, 0, []
1632641563.9406, 41, 0, 4193.333, 4493.846, 4080, 4188.205, 4126.154, 0, 0, []
1632641563.9485, 42, 0, 4177.949, 4438.462, 4068.718, 4177.436, 4131.795, 0, 0, []
1632641563.9562, 43, 0, 4179.487, 4406.667, 4147.179, 4197.949, 4151.282, 0, 0, []
1632641563.9642, 44, 0, 4179.487, 4288.205, 4070.256, 4188.718, 4156.923, 0, 0, []
1632641563.9721, 45, 0, 4162.051, 4171.282, 4112.821, 4163.077, 4142.051, 0, 0, []
1632641563.9801, 46, 0, 4155.897, 4256.923, 4080, 4166.667, 4132.821, 0, 0, []
1632641563.988, 47, 0, 4164.103, 4515.897, 4072.821, 4180.513, 4123.59, 0, 0, []
1632641563.9959, 48, 0, 4163.59, 4672.308, 4128.205, 4173.846, 4115.897, 0, 0, []
1632641564.0038, 49, 0, 4150.769, 4692.308, 4034.872, 4168.205, 4123.077, 0, 0, []
1632641564.0118, 50, 0, 4167.179, 4643.59, 4110.256, 4195.897, 4134.872, 0, 0, []
1632641564.0197, 51, 0, 4196.41, 4504.615, 4114.872, 4203.077, 4147.692, 0, 0, []
1632641564.0277, 52, 0, 4195.897, 4418.462, 4085.641, 4188.205, 4164.615, 0, 0, []
1632641564.0356, 53, 0, 4189.231, 4417.436, 4149.231, 4196.41, 4170.256, 0, 0, []
1632641564.0433, 54, 0, 4193.333, 4326.154, 4056.923, 4191.282, 4152.308, 0, 0, []
1632641564.0512, 55, 0, 4197.949, 4212.821, 4109.744, 4187.179, 4149.231, 0, 0, []
1632641564.059, 56, 0, 4195.385, 4175.897, 4124.103, 4198.974, 4160, 0, 0, []
1632641564.0669, 57, 0, 4192.308, 4165.128, 4078.974, 4205.128, 4147.692, 0, 0, []
1632641564.0747, 58, 0, 4190.769, 4246.667, 4136.923, 4203.59, 4129.744, 0, 0, []
1632641564.0825, 59, 0, 4184.615, 4250.769, 4040.513, 4190.769, 4135.385, 0, 0, []
1632641564.0903, 60, 0, 4188.205, 4066.154, 4088.718, 4189.744, 4150.256, 0, 0, []
1632641564.0982, 61, 0, 4195.385, 4158.462, 4128.205, 4194.359, 4157.436, 0, 0, []
1632641564.106, 62, 0, 4178.462, 4430.256, 4074.872, 4189.231, 4150.256, 0, 0, []
1632641564.1139, 63, 0, 4152.308, 4355.385, 4138.462, 4185.128, 4132.821, 0, 0, []
1632641564.1216, 64, 0, 4152.821, 4241.538, 4055.385, 4174.359, 4134.872, 450, 0, []
1632641564.1296, 65, 0, 4169.744, 4366.154, 4089.744, 4176.41, 4158.462, 450, 0, []
1632641564.1375, 66, 0, 4162.564, 4311.282, 4131.282, 4177.436, 4145.128, 16156, 0, []
1632641564.1455, 67, 0, 4146.154, 4172.821, 4054.872, 4156.41, 4109.231, 450, 0, []
1632641564.1534, 68, 0, 4151.282, 4304.103, 4116.923, 4146.667, 4107.692, 16109, 0, []
1632641564.1613, 69, 0, 4156.41, 4380.513, 4041.538, 4151.795, 4118.974, 450, 0, []
1632641564.1692, 70, 0, 4173.333, 4245.641, 4070.769, 4181.026, 4125.641, 174, 0, []
1632641564.1772, 71, 0, 4201.026, 4130.256, 4163.077, 4214.359, 4145.641, 450, 0, []
1632641564.1851, 72, 0, 4190.256, 4095.385, 4087.179, 4204.103, 4150.256, 450, 0, []
1632641564.1931, 73, 0, 4167.179, 4143.59, 4131.282, 4186.154, 4140, 16086, 0, []
1632641564.2009, 74, 0, 4157.949, 4132.308, 4074.359, 4176.41, 4138.974, 450, 0, []
1632641564.2087, 75, 0, 4149.744, 3946.667, 4068.718, 4174.359, 4136.923, 16200, 0, []
1632641564.2166, 76, 0, 4152.308, 3900, 4129.744, 4177.436, 4139.487, 450, 0, []
1632641564.2244, 77, 0, 4158.462, 4075.897, 4057.436, 4173.846, 4146.667, 450, 0, []
1632641564.2323, 78, 0, 4170.256, 4074.872, 4133.333, 4187.179, 4160, 450, 0, []
1632641564.24, 79, 0, 4183.077, 3981.538, 4101.026, 4192.821, 4172.821, 16200, 0, []
1632641564.2479, 80, 0, 4188.718, 4082.564, 4081.538, 4179.487, 4169.231, 450, 0, []
1632641564.2557, 81, 0, 4189.744, 4157.436, 4141.538, 4174.872, 4157.949, 450, 0, []
1632641564.2636, 82, 0, 4187.179, 4134.359, 4041.538, 4175.897, 4145.128, 450, 0, []
1632641564.2714, 83, 0, 4190.256, 4251.795, 4101.026, 4186.154, 4136.923, 16200, 0, []
1632641564.2792, 84, 0, 4176.41, 4325.128, 4092.821, 4179.487, 4128.718, 450, 0, []
1632641564.287, 85, 0, 4161.026, 4117.436, 4058.974, 4169.744, 4128.205, 450, 0, []
1632641564.295, 86, 0, 4178.974, 3948.718, 4136.41, 4193.846, 4148.205, 450, 0, []
1632641564.3029, 87, 0, 4193.333, 4005.128, 4059.487, 4211.795, 4171.282, 16200, 0, []
1632641564.3109, 88, 0, 4180, 4162.564, 4107.179, 4210.769, 4180, 450, 0, []
1632641564.3187, 89, 0, 4166.154, 4271.282, 4108.205, 4191.795, 4162.051, 450, 0, []
1632641564.3267, 90, 0, 4165.641, 4109.231, 4070.256, 4167.179, 4141.538, 450, 0, []
1632641564.3346, 91, 0, 4170.769, 3831.282, 4143.077, 4166.154, 4140, 16200, 0, []
1632641564.3425, 92, 0, 4171.282, 3884.103, 4048.718, 4167.179, 4135.897, 450, 0, []
1632641564.3504, 93, 0, 4172.308, 4186.154, 4091.282, 4175.897, 4122.564, 450, 0, []
1632641564.3583, 94, 0, 4176.41, 4324.615, 4128.205, 4189.231, 4129.744, 450, 0, []
1632641564.366, 95, 0, 4181.026, 4262.051, 4076.923, 4196.41, 4156.41, 16200, 0, []
1632641564.3738, 96, 0, 4185.128, 4103.59, 4138.974, 4204.615, 4168.718, 450, 0, []
1632641564.3817, 97, 0, 4176.41, 3988.205, 4046.667, 4190.769, 4160, 450, 0, []
1632641564.3895, 98, 0, 4163.077, 4098.974, 4072.821, 4181.538, 4152.821, 450, 0, []
1632641564.3974, 99, 0, 4174.359, 4266.667, 4133.846, 4199.487, 4164.615, 16200, 0, []
1632641564.4051, 100, 0, 4196.41, 4229.231, 4090.769, 4203.077, 4184.103, 450, 0, []
1632641564.413, 101, 0, 4204.103, 4174.359, 4157.949, 4190.769, 4185.128, 450, 0, []
1632641564.4208, 102, 0, 4197.436, 4186.154, 4068.718, 4179.487, 4165.128, 450, 0, []
1632641564.4287, 103, 0, 4202.564, 4063.077, 4086.154, 4192.821, 4150.256, 16200, 0, []
1632641564.4365, 104, 0, 4205.128, 3937.949, 4156.923, 4208.205, 4151.795, 450, 0, []
1632641564.4444, 105, 0, 4186.667, 4031.795, 4076.41, 4198.462, 4153.333, 450, 0, []
1632641564.4523, 106, 0, 4186.667, 4164.615, 4141.538, 4207.692, 4157.949, 450, 0, []
1632641564.4603, 107, 0, 4181.026, 4138.974, 4082.051, 4205.128, 4155.385, 16200, 0, []
1632641564.4682, 108, 0, 4151.282, 4110.256, 4060.513, 4189.744, 4134.359, 450, 0, []
1632641564.4762, 109, 0, 4158.462, 4148.205, 4134.359, 4198.974, 4131.282, 450, 0, []
1632641564.484, 110, 0, 4193.333, 4133.846, 4078.462, 4204.615, 4154.359, 450, 0, []
1632641564.492, 111, 0, 4208.205, 4196.41, 4147.692, 4207.179, 4171.795, 16200, 0, []
1632641564.4999, 112, 0, 4212.308, 4335.385, 4109.744, 4214.872, 4168.205, 450, 0, []
1632641564.5079, 113, 0, 4212.308, 4284.103, 4090.769, 4226.154, 4154.872, 450, 0, []
1632641564.5158, 114, 0, 4210.769, 4209.744, 4156.41, 4240.513, 4169.231, 450, 0, []
1632641564.5235, 115, 0, 4216.923, 4253.333, 4074.872, 4241.538, 4203.077, 16200, 0, []
1632641564.5314, 116, 0, 4216.41, 3968.205, 4145.128, 4231.795, 4202.564, 450, 0, []
1632641564.5392, 117, 0, 4193.846, 3507.179, 4125.128, 4201.538, 4164.103, 450, 0, []
1632641564.5471, 118, 0, 4173.333, 3423.59, 4078.974, 4184.615, 4143.59, 450, 0, []
1632641564.5549, 119, 0, 4177.949, 3565.641, 4145.641, 4191.282, 4155.897, 16200, 0, []
1632641564.5627, 120, 0, 4186.667, 3752.821, 4057.949, 4181.538, 4161.026, 450, 0, []
1632641564.5705, 121, 0, 4190.256, 3991.282, 4114.872, 4176.923, 4161.538, 450, 0, []
1632641564.5785, 122, 0, 4192.308, 4156.923, 4133.333, 4188.718, 4167.179, 450, 0, []
1632641564.5864, 123, 0, 4196.923, 4243.59, 4095.897, 4208.718, 4158.974, 16200, 0, []
1632641564.5943, 124, 0, 4208.718, 4333.846, 4145.641, 4226.667, 4152.308, 450, 0, []
1632641564.602, 125, 0, 4205.641, 4366.154, 4036.41, 4215.385, 4164.103, 450, 0, []
1632641564.61, 126, 0, 4203.59, 4290.769, 4087.692, 4215.385, 4182.564, 450, 0, []
1632641564.6179, 127, 0, 4200.513, 4248.205, 4127.179, 4208.718, 4179.487, 16200, 0, []
1632641564.6259, 128, 0, 4178.974, 4274.872, 4081.026, 4181.026, 4160, 450, 0, []
1632641564.6338, 0, 0, 4182.564, 4264.103, 4165.128, 4194.359, 4168.718, 450, 0, []
1632641564.6417, 1, 0, 4214.872, 4304.615, 4080.513, 4218.974, 4191.795, 450, 0, []
1632641564.6496, 2, 0, 4231.282, 4498.462, 4104.103, 4227.179, 4188.718, 16178, 0, []
1632641564.6576, 3, 0, 4214.359, 4527.179, 4160, 4227.692, 4171.795, 450, 0, []
1632641564.6655, 4, 0, 4204.615, 4362.051, 4094.359, 4217.949, 4169.744, 16066, 0, []
1632641564.6735, 5, 0, 4215.385, 4370.769, 4137.949, 4213.333, 4183.077, 450, 0, []
1632641564.6813, 6, 0, 4208.718, 4408.205, 4057.949, 4211.795, 4190.256, 180, 0, []
1632641564.6891, 7, 0, 4191.282, 4318.462, 4092.308, 4206.154, 4183.59, 450, 0, []
1632641564.697, 8, 0, 4189.744, 4374.872, 4157.436, 4193.333, 4164.615, 450, 0, []
1632641564.7048, 9, 0, 4193.333, 4541.026, 4073.333, 4190.769, 4142.564, 16116, 0, []
1632641564.7127, 10, 0, 4200, 4526.667, 4144.103, 4214.872, 4139.487, 450, 0, []
1632641564.7205, 11, 0, 4203.59, 4529.744, 4087.179, 4219.487, 4157.436, 16215, 0, []
1632641564.7283, 12, 0, 4196.923, 4664.103, 4080, 4213.846, 4177.436, 450, 0, []
1632641564.7361, 13, 0, 4192.308, 4651.795, 4165.128, 4223.077, 4189.231, 450, 0, []
1632641564.744, 14, 0, 4184.103, 4510.769, 4084.615, 4212.821, 4186.667, 450, 0, []
1632641564.7518, 15, 0, 4183.59, 4435.897, 4130.769, 4202.564, 4180.513, 16215, 0, []
1632641564.7598, 16, 0, 4198.462, 4420, 4102.051, 4202.564, 4178.462, 0, 0, []
1632641564.7676, 17, 0, 4203.077, 4397.436, 4091.282, 4212.308, 4165.128, 0, 0, []
1632641564.7756, 18, 0, 4199.487, 4385.128, 4149.744, 4227.179, 4152.821, 0, 0, []
1632641564.7835, 19, 0, 4191.795, 4387.692, 4061.538, 4213.846, 4157.436, 0, 0, []
1632641564.7915, 20, 0, 4188.205, 4414.359, 4121.026, 4205.128, 4166.154, 0, 0, []
1632641564.7994, 21, 0, 4191.795, 4434.872, 4115.385, 4210.769, 4169.231, 0, 0, []
1632641564.8073, 22, 0, 4189.231, 4404.615, 4107.179, 4205.128, 4170.769, 0, 0, []
1632641564.8152, 23, 0, 4181.026, 4402.051, 4157.949, 4189.744, 4167.692, 0, 0, []
1632641564.8232, 24, 0, 4186.154, 4478.974, 4052.821, 4185.641, 4152.308, 0, 0, []
1632641564.8311, 25, 0, 4205.128, 4573.333, 4124.615, 4207.692, 4139.487, 0, 0, []
1632641564.8389, 26, 0, 4202.051, 4508.718, 4137.949, 4211.282, 4139.487, 0, 0, []
1632641564.8467, 27, 0, 4203.59, 4343.59, 4098.974, 4211.282, 4171.282, 0, 0, []
1632641564.8545, 28, 0, 4231.795, 4387.179, 4165.641, 4232.821, 4215.897, 0, 0, []
1632641564.8624, 29, 0, 4215.385, 4484.615, 4064.615, 4214.359, 4203.59, 0, 0, []
1632641564.8702, 30, 0, 4165.128, 4422.051, 4095.385, 4175.897, 4155.897, 0, 0, []
1632641564.8781, 31, 0, 4160, 4457.949, 4131.795, 4170.256, 4147.179, 0, 0, []
1632641564.8858, 32, 0, 4200.513, 4524.615, 4099.487, 4193.846, 4168.718, 0, 0, []
1632641564.8938, 33, 0, 4225.641, 4435.385, 4151.282, 4216.41, 4173.333, 0, 0, []
1632641564.9017, 34, 0, 4202.564, 4418.974, 4078.974, 4207.179, 4151.795, 0, 0, []
1632641564.9097, 35, 0, 4184.615, 4545.128, 4116.41, 4208.205, 4140, 0, 0, []
1632641564.9176, 36, 0, 4192.821, 4556.923, 4117.949, 4216.41, 4152.308, 0, 0, []
1632641564.9255, 37, 0, 4184.615, 4375.385, 4062.051, 4199.487, 4156.41, 0, 0, []
1632641564.9334, 38, 0, 4174.359, 4245.128, 4146.154, 4204.615, 4155.897, 0, 0, []
1632641564.9414, 39, 0, 4180, 4339.487, 4093.333, 4224.103, 4170.769, 0, 0, []
1632641564.9493, 40, 0, 4178.974, 4502.564, 4129.231, 4233.333, 4183.59, 0, 0, []
1632641564.9573, 41, 0, 4181.026, 4475.385, 4151.282, 4232.308, 4181.026, 0, 0, []
1632641564.9651, 42, 0, 4194.872, 4382.564, 4077.436, 4214.359, 4174.359, 0, 0, []
1632641564.9731, 43, 0, 4206.667, 4486.154, 4164.103, 4209.744, 4175.897, 0, 0, []
1632641564.981, 44, 0, 4202.051, 4622.564, 4112.821, 4216.41, 4170.769, 0, 0, []
1632641564.9888, 45, 0, 4188.205, 4573.846, 4108.718, 4222.051, 4148.205, 0, 0, []
1632641564.9967, 46, 0, 4188.718, 4527.692, 4158.974, 4226.667, 4144.615, 0, 0, []
1632641565.0044, 47, 0, 4205.641, 4557.436, 4076.41, 4226.154, 4175.897, 0, 0, []
1632641565.0123, 48, 0, 4212.308, 4464.103, 4133.846, 4225.128, 4191.795, 0, 0, []
1632641565.0201, 49, 0, 4190.769, 4395.385, 4103.077, 4207.179, 4173.333, 0, 0, []
1632641565.028, 50, 0, 4176.41, 4461.538, 4102.051, 4202.564, 4168.718, 0, 0, []
1632641565.0358, 51, 0, 4194.872, 4469.744, 4181.538, 4221.538, 4187.692, 0, 0, []
1632641565.0436, 52, 0, 4209.744, 4423.077, 4106.154, 4224.615, 4184.103, 0, 0, []
1632641565.0514, 53, 0, 4205.641, 4388.718, 4160, 4218.462, 4157.949, 0, 0, []
1632641565.0593, 54, 0, 4188.718, 4312.821, 4130.256, 4208.718, 4143.59, 0, 0, []
1632641565.0671, 55, 0, 4184.103, 4251.282, 4086.154, 4213.333, 4150.256, 0, 0, []
1632641565.0751, 56, 0, 4195.385, 4251.282, 4158.974, 4223.077, 4165.641, 0, 0, []
1632641565.083, 57, 0, 4180.513, 4271.795, 4078.974, 4201.026, 4163.59, 0, 0, []
1632641565.0909, 58, 0, 4164.103, 4289.231, 4120.513, 4190.769, 4149.231, 0, 0, []
1632641565.0988, 59, 0, 4171.795, 4257.949, 4135.385, 4198.974, 4146.667, 0, 0, []
1632641565.1068, 60, 0, 4171.795, 4229.231, 4099.487, 4204.615, 4158.462, 0, 0, []
1632641565.1147, 61, 0, 4168.718, 4311.282, 4162.564, 4210.769, 4176.41, 0, 0, []
1632641565.1227, 62, 0, 4175.385, 4401.538, 4088.718, 4190.769, 4174.359, 0, 0, []
1632641565.1305, 63, 0, 4186.154, 4415.385, 4132.821, 4174.872, 4161.538, 0, 0, []
1632641565.1385, 64, 0, 4198.974, 4384.103, 4146.667, 4192.308, 4168.205, 450, 0, []
1632641565.1464, 65, 0, 4206.154, 4353.333, 4086.154, 4214.359, 4177.436, 450, 0, []
1632641565.1542, 66, 0, 4212.821, 4265.641, 4163.077, 4228.205, 4177.949, 16204, 0, []
1632641565.1621, 67, 0, 4208.718, 3944.103, 4088.718, 4217.436, 4175.385, 450, 0, []
1632641565.1698, 68, 0, 4203.59, 3521.026, 4104.103, 4207.179, 4173.846, 16060, 0, []
1632641565.1777, 69, 0, 4207.179, 3270.769, 4145.128, 4212.821, 4182.051, 450, 0, []
1632641565.1855, 70, 0, 4187.692, 3093.846, 4071.282, 4200.513, 4173.846, 171, 0, []
1632641565.1934, 71, 0, 4162.564, 2946.154, 4138.974, 4184.103, 4147.179, 450, 0, []
1632641565.2012, 72, 0, 4168.718, 2942.564, 4103.59, 4193.333, 4143.59, 450, 0, []
1632641565.209, 73, 0, 4195.385, 2976.923, 4127.179, 4222.564, 4168.718, 16162, 0, []
1632641565.2168, 74, 0, 4196.923, 3134.359, 4155.385, 4217.949, 4169.744, 450, 0, []
1632641565.2248, 75, 0, 4180.513, 3589.231, 4068.718, 4194.872, 4158.974, 16182, 0, []
1632641565.2327, 76, 0, 4185.641, 3906.667, 4162.564, 4215.385, 4173.846, 450, 0, []
1632641565.2407, 77, 0, 4190.769, 3944.103, 4115.385, 4215.897, 4178.974, 450, 0, []
1632641565.2485, 78, 0, 4176.923, 4117.949, 4111.795, 4184.103, 4160.513, 450, 0, []
1632641565.2565, 79, 0, 4170.769, 4310.769, 4214.872, 4185.641, 4145.128, 16182, 0, []
1632641565.2644, 80, 0, 4185.128, 4332.308, 4103.59, 4200, 4134.872, 450, 0, []
1632641565.2724, 81, 0, 4194.872, 4416.41, 4131.282, 4200, 4129.231, 450, 0, []
1632641565.2803, 82, 0, 4182.564, 4553.846, 4118.462, 4188.718, 4130.769, 450, 0, []
1632641565.2882, 83, 0, 4172.308, 4598.462, 4078.462, 4186.154, 4130.256, 16182, 0, []
1632641565.2961, 84, 0, 4168.718, 4564.103, 4145.128, 4192.821, 4130.769, 450, 0, []
1632641565.3039, 85, 0, 4153.846, 4427.692, 4068.718, 4185.641, 4138.462, 450, 0, []
1632641565.3118, 86, 0, 4158.974, 4281.538, 4128.718, 4197.949, 4158.974, 450, 0, []
1632641565.3196, 87, 0, 4185.641, 4218.462, 4147.179, 4210.769, 4178.462, 16182, 0, []
1632641565.3274, 88, 0, 4185.128, 4178.974, 4113.846, 4193.333, 4177.436, 450, 0, []
1632641565.3352, 89, 0, 4181.026, 4192.308, 4165.128, 4191.795, 4170.256, 450, 0, []
1632641565.3431, 90, 0, 4185.128, 4256.923, 4057.436, 4194.872, 4154.872, 450, 0, []
1632641565.351, 91, 0, 4176.41, 4254.872, 4108.205, 4192.821, 4124.103, 16182, 0, []
1632641565.3589, 92, 0, 4173.846, 4247.692, 4152.821, 4195.385, 4128.205, 450, 0, []
1632641565.3667, 93, 0, 4186.154, 4283.59, 4111.282, 4204.103, 4162.564, 450, 0, []
1632641565.3746, 94, 0, 4189.744, 4254.359, 4143.59, 4214.359, 4171.795, 450, 0, []
1632641565.3825, 95, 0, 4177.949, 4201.026, 4043.59, 4208.718, 4167.692, 16182, 0, []
1632641565.3904, 96, 0, 4180.513, 4198.462, 4109.231, 4218.462, 4180.513, 450, 0, []
1632641565.3984, 97, 0, 4191.282, 4166.154, 4154.359, 4222.051, 4182.564, 450, 0, []
1632641565.4064, 98, 0, 4184.615, 4158.462, 4101.026, 4191.282, 4168.205, 450, 0, []
1632641565.4142, 99, 0, 4189.231, 4252.308, 4173.846, 4184.103, 4172.308, 16182, 0, []
1632641565.4222, 100, 0, 4195.897, 4231.282, 4078.974, 4197.949, 4167.179, 450, 0, []
1632641565.4301, 101, 0, 4188.718, 4097.949, 4103.077, 4206.154, 4137.436, 450, 0, []
1632641565.4381, 102, 0, 4185.128, 4170.256, 4155.385, 4207.179, 4131.282, 450, 0, []
1632641565.446, 103, 0, 4190.256, 4306.154, 4083.077, 4210.769, 4153.846, 16182, 0, []
1632641565.4538, 104, 0, 4203.077, 4289.744, 4140.513, 4221.026, 4167.692, 450, 0, []
1632641565.4617, 105, 0, 4192.308, 4201.026, 4060.513, 4205.128, 4153.333, 450, 0, []
1632641565.4695, 106, 0, 4166.154, 4142.051, 4078.462, 4193.846, 4137.949, 450, 0, []
1632641565.4774, 107, 0, 4155.897, 4186.667, 4150.256, 4187.692, 4131.282, 16182, 0, []
1632641565.4852, 108, 0, 4155.385, 4204.103, 4082.051, 4164.103, 4118.462, 450, 0, []
1632641565.493, 109, 0, 4170.256, 4115.897, 4145.128, 4173.333, 4130.769, 450, 0, []
1632641565.5008, 110, 0, 4182.051, 4222.051, 4081.538, 4186.667, 4142.564, 450, 0, []
1632641565.5087, 111, 0, 4175.897, 4459.487, 4077.949, 4176.41, 4124.615, 16182, 0, []
1632641565.5165, 112, 0, 4182.051, 4430.256, 4148.205, 4180.513, 4134.872, 450, 0, []
1632641565.5244, 113, 0, 4201.026, 4319.487, 4071.795, 4204.103, 4163.077, 450, 0, []
1632641565.5321, 114, 0, 4213.846, 4385.128, 4134.872, 4228.205, 4155.897, 450, 0, []
1632641565.5401, 115, 0, 4210.769, 4395.897, 4106.667, 4227.692, 4156.41, 16182, 0, []
1632641565.548, 116, 0, 4208.205, 4263.59, 4101.026, 4226.154, 4193.846, 450, 0, []
1632641565.556, 117, 0, 4206.667, 4221.026, 4156.41, 4223.077, 4205.641, 450, 0, []
1632641565.5639, 118, 0, 4186.154, 4386.154, 4061.026, 4205.641, 4175.385, 450, 0, []
1632641565.5718, 119, 0, 4172.821, 4536.923, 4135.897, 4208.718, 4161.538, 16182, 0, []
1632641565.5797, 120, 0, 4177.436, 4515.385, 4133.333, 4206.154, 4163.077, 450, 0, []
1632641565.5877, 121, 0, 4189.744, 4470.769, 4104.103, 4192.821, 4160, 450, 0, []
1632641565.5956, 122, 0, 4197.949, 4486.667, 4150.769, 4203.077, 4160.513, 450, 0, []
1632641565.6036, 123, 0, 4201.026, 4505.128, 4043.59, 4217.949, 4162.564, 16182, 0, []
1632641565.6114, 124, 0, 4221.538, 4549.231, 4121.538, 4235.385, 4172.308, 450, 0, []
1632641565.6192, 125, 0, 4227.692, 4578.974, 4148.205, 4236.923, 4190.769, 450, 0, []
1632641565.6271, 126, 0, 4198.462, 4494.359, 4084.615, 4220.513, 4194.359, 450, 0, []
1632641565.6349, 127, 0, 4191.282, 4336.923, 4142.051, 4214.872, 4185.641, 16182, 0, []
1632641565.6428, 128, 0, 4197.949, 4264.103, 4056.923, 4198.974, 4177.949, 450, 0, []
1632641565.6505, 0, 0, 4187.179, 4372.308, 4103.077, 4181.538, 4172.308, 450, 0, []
1632641565.6584, 1, 0, 4185.641, 4482.051, 4147.179, 4186.667, 4166.667, 450, 0, []
1632641565.6662, 2, 0, 4195.897, 4439.487, 4102.051, 4204.103, 4151.795, 16184, 0, []
1632641565.6742, 3, 0, 4198.462, 4412.821, 4152.308, 4215.897, 4136.923, 450, 0, []
1632641565.6821, 4, 0, 4188.205, 4451.795, 4050.769, 4202.051, 4138.462, 16081, 0, []
1632641565.69, 5, 0, 4178.462, 4470.769, 4086.154, 4204.615, 4149.231, 450, 0, []
1632641565.6979, 6, 0, 4167.179, 4562.564, 4145.128, 4214.359, 4154.872, 159, 0, []
1632641565.7059, 7, 0, 4161.538, 4675.385, 4093.846, 4202.564, 4158.974, 450, 0, []
1632641565.7138, 8, 0, 4171.282, 4571.795, 4155.897, 4207.692, 4168.205, 450, 0, []
1632641565.7218, 9, 0, 4168.718, 4345.641, 4055.897, 4198.462, 4154.872, 16123, 0, []
1632641565.7296, 10, 0, 4160, 4231.282, 4071.282, 4174.872, 4137.436, 450, 0, []
1632641565.7376, 11, 0, 4178.974, 4255.897, 4160.513, 4186.667, 4151.795, 16194, 0, []
1632641565.7455, 12, 0, 4217.436, 4189.231, 4109.231, 4216.41, 4174.872, 450, 0, []
1632641565.7535, 13, 0, 4226.154, 3804.615, 4178.462, 4222.564, 4173.846, 450, 0, []
1632641565.7614, 14, 0, 4199.487, 3460.513, 4101.026, 4200, 4159.487, 450, 0, []
1632641565.7692, 15, 0, 4197.436, 3619.487, 4100, 4209.231, 4156.923, 16194, 0, []
1632641565.777, 16, 0, 4213.846, 3951.282, 4196.923, 4230.769, 4160, 0, 0, []
1632641565.7848, 17, 0, 4187.692, 4129.231, 4090.256, 4202.564, 4151.282, 0, 0, []
1632641565.7927, 18, 0, 4166.667, 4378.974, 4116.41, 4194.359, 4147.692, 0, 0, []
1632641565.8005, 19, 0, 4184.103, 4591.795, 4099.487, 4212.821, 4162.564, 0, 0, []
1632641565.8084, 20, 0, 4182.051, 4551.795, 4095.897, 4208.205, 4173.846, 0, 0, []
1632641565.8161, 21, 0, 4181.026, 4480, 4157.949, 4212.821, 4180, 0, 0, []
1632641565.824, 22, 0, 4198.974, 4494.872, 4064.103, 4219.487, 4181.026, 0, 0, []
1632641565.8318, 23, 0, 4193.333, 4502.564, 4123.077, 4205.128, 4161.026, 0, 0, []
1632641565.8398, 24, 0, 4182.051, 4473.333, 4134.872, 4188.718, 4140.513, 0, 0, []
1632641565.8477, 25, 0, 4198.462, 4376.41, 4123.077, 4203.077, 4141.026, 0, 0, []
1632641565.8556, 26, 0, 4213.846, 4276.41, 4152.308, 4221.538, 4160.513, 0, 0, []
1632641565.8635, 27, 0, 4203.59, 4353.846, 4035.897, 4211.795, 4176.41, 0, 0, []
1632641565.8715, 28, 0, 4197.436, 4572.308, 4112.308, 4213.846, 4175.385, 0, 0, []
1632641565.8794, 29, 0, 4191.795, 4630.769, 4133.333, 4213.333, 4168.205, 0, 0, []
1632641565.8874, 30, 0, 4180, 4483.077, 4094.872, 4205.641, 4170.769, 0, 0, []
1632641565.8952, 31, 0, 4181.026, 4475.897, 4160, 4213.846, 4174.872, 0, 0, []
1632641565.9032, 32, 0, 4186.154, 4663.077, 4062.564, 4207.179, 4163.077, 0, 0, []
1632641565.9111, 33, 0, 4191.282, 4706.667, 4115.897, 4196.41, 4147.692, 0, 0, []
1632641565.9189, 34, 0, 4191.282, 4527.179, 4155.385, 4199.487, 4145.641, 0, 0, []
1632641565.9268, 35, 0, 4187.692, 4366.667, 4101.026, 4207.692, 4146.667, 0, 0, []
1632641565.9345, 36, 0, 4196.923, 4309.744, 4153.846, 4216.923, 4146.154, 0, 0, []
1632641565.9424, 37, 0, 4191.282, 4286.667, 4051.282, 4201.026, 4143.59, 0, 0, []
1632641565.9502, 38, 0, 4175.385, 4268.205, 4083.59, 4189.744, 4143.59, 0, 0, []
1632641565.9581, 39, 0, 4177.436, 4271.282, 4147.692, 4195.385, 4155.385, 0, 0, []
1632641565.9659, 40, 0, 4178.462, 4326.667, 4099.487, 4194.359, 4157.436, 0, 0, []
1632641565.9738, 41, 0, 4184.103, 4389.231, 4159.487, 4201.026, 4156.923, 0, 0, []
1632641565.9817, 42, 0, 4191.795, 4386.667, 4062.564, 4205.641, 4154.359, 0, 0, []
1632641565.9897, 43, 0, 4192.308, 4294.359, 4082.564, 4207.692, 4147.179, 0, 0, []
1632641565.9976, 44, 0, 4189.231, 4308.718, 4161.026, 4203.59, 4146.154, 0, 0, []
1632641566.0056, 45, 0, 4187.179, 4490.769, 4086.667, 4203.59, 4136.41, 0, 0, []
1632641566.0134, 46, 0, 4198.462, 4566.667, 4153.846, 4228.718, 4130.256, 0, 0, []
1632641566.0214, 47, 0, 4193.333, 4529.231, 4088.718, 4224.615, 4133.846, 0, 0, []
1632641566.0293, 48, 0, 4173.333, 4480.513, 4075.897, 4200.513, 4136.41, 0, 0, []
1632641566.0373, 49, 0, 4166.154, 4381.026, 4156.923, 4195.897, 4134.872, 0, 0, []
1632641566.0452, 50, 0, 4157.949, 4323.077, 4077.949, 4190.769, 4128.718, 0, 0, []
1632641566.0531, 51, 0, 4143.59, 4298.974, 4130.769, 4191.795, 4116.923, 0, 0, []
1632641566.061, 52, 0, 4142.051, 4170.769, 4099.487, 4194.359, 4111.795, 0, 0, []
1632641566.0688, 53, 0, 4153.333, 4127.692, 4090.769, 4197.949, 4127.692, 0, 0, []
1632641566.0767, 54, 0, 4154.359, 4241.538, 4150.769, 4202.564, 4129.231, 0, 0, []
1632641566.0845, 55, 0, 4155.897, 4273.846, 4046.667, 4193.846, 4115.897, 0, 0, []
1632641566.0923, 56, 0, 4174.359, 4235.897, 4117.436, 4191.795, 4132.308, 0, 0, []
1632641566.1001, 57, 0, 4183.077, 4216.41, 4133.846, 4189.231, 4147.179, 0, 0, []
1632641566.108, 58, 0, 4185.641, 4208.718, 4112.821, 4190.769, 4133.846, 0, 0, []
1632641566.1158, 59, 0, 4198.974, 4306.154, 4142.051, 4209.231, 4137.949, 0, 0, []
1632641566.1237, 60, 0, 4180.513, 4393.333, 4009.231, 4198.974, 4131.795, 0, 0, []
1632641566.1315, 61, 0, 4157.949, 4365.128, 4080.513, 4188.205, 4104.615, 0, 0, []
1632641566.1393, 62, 0, 4176.41, 4382.564, 4138.974, 4199.487, 4121.026, 0, 0, []
1632641566.1471, 63, 0, 4187.179, 4401.026, 4113.333, 4204.103, 4157.436, 0, 0, []
1632641566.1551, 64, 0, 4174.359, 4406.667, 4144.103, 4198.462, 4157.949, 450, 0, []
1632641566.163, 65, 0, 4156.41, 4351.795, 4036.41, 4184.103, 4141.026, 450, 0, []
1632641566.171, 66, 0, 4148.205, 3941.538, 4101.026, 4182.051, 4129.231, 16173, 0, []
1632641566.1788, 67, 0, 4155.897, 3408.205, 4147.179, 4182.564, 4126.154, 450, 0, []
1632641566.1868, 68, 0, 4172.308, 3203.077, 4115.897, 4181.538, 4148.718, 16102, 0, []
1632641566.1947, 69, 0, 4182.564, 3158.974, 4178.974, 4199.487, 4169.231, 450, 0, []
1632641566.2027, 70, 0, 4182.051, 3064.103, 4062.564, 4202.564, 4162.051, 166, 0, []
1632641566.2106, 71, 0, 4187.692, 2949.744, 4088.718, 4204.615, 4160.513, 450, 0, []
1632641566.2183, 72, 0, 4188.718, 2991.282, 4152.821, 4204.103, 4159.487, 450, 0, []
1632641566.2262, 73, 0, 4176.41, 3498.462, 4096.41, 4185.128, 4142.564, 16104, 0, []
1632641566.234, 74, 0, 4171.795, 4071.795, 4136.41, 4184.615, 4133.846, 450, 0, []
1632641566.2419, 75, 0, 4185.128, 4130.769, 4074.359, 4200.513, 4140, 16238, 0, []
1632641566.2497, 76, 0, 4204.103, 4098.462, 4114.359, 4207.692, 4149.744, 450, 0, []
1632641566.2575, 77, 0, 4202.051, 4241.026, 4137.436, 4196.41, 4153.333, 450, 0, []
1632641566.2653, 78, 0, 4196.41, 4190.256, 4081.026, 4204.615, 4145.641, 450, 0, []
1632641566.2732, 79, 0, 4208.205, 4040, 4162.051, 4232.821, 4138.974, 16238, 0, []
1632641566.281, 80, 0, 4200, 4109.744, 4089.231, 4223.59, 4146.667, 450, 0, []
1632641566.289, 81, 0, 4188.718, 4315.385, 4109.231, 4217.949, 4162.051, 450, 0, []
1632641566.2968, 82, 0, 4200, 4410.769, 4157.949, 4229.744, 4176.41, 450, 0, []
1632641566.3048, 83, 0, 4193.846, 4264.615, 4076.41, 4214.872, 4177.949, 16238, 0, []
1632641566.3127, 84, 0, 4169.231, 4175.385, 4156.923, 4212.821, 4175.897, 450, 0, []
1632641566.3207, 85, 0, 4163.077, 4360, 4110.256, 4213.333, 4170.256, 450, 0, []
1632641566.3286, 86, 0, 4171.282, 4432.308, 4084.103, 4188.205, 4152.821, 450, 0, []
1632641566.3364, 87, 0, 4183.077, 4264.103, 4144.103, 4177.949, 4139.487, 16238, 0, []
1632641566.3444, 88, 0, 4213.846, 4180, 4075.897, 4200.513, 4142.051, 450, 0, []
1632641566.3524, 89, 0, 4236.923, 4192.821, 4134.872, 4214.359, 4133.333, 450, 0, []
1632641566.3603, 90, 0, 4211.282, 4269.744, 4113.846, 4188.718, 4103.077, 450, 0, []
1632641566.3683, 91, 0, 4192.821, 4447.692, 4086.667, 4184.103, 4102.564, 16238, 0, []
1632641566.3761, 92, 0, 4210.769, 4492.821, 4143.077, 4209.231, 4133.846, 450, 0, []
1632641566.3839, 93, 0, 4198.974, 4347.179, 4070.256, 4196.923, 4135.385, 450, 0, []
1632641566.3918, 94, 0, 4174.359, 4275.897, 4130.769, 4193.333, 4120, 450, 0, []
1632641566.3996, 95, 0, 4175.385, 4252.308, 4124.103, 4198.974, 4112.308, 16238, 0, []
1632641566.4075, 96, 0, 4163.59, 4136.923, 4081.538, 4168.205, 4096.41, 450, 0, []
1632641566.4152, 97, 0, 4157.949, 4167.179, 4162.051, 4153.846, 4089.744, 450, 0, []
1632641566.4231, 98, 0, 4171.282, 4372.821, 4095.897, 4162.051, 4091.282, 450, 0, []
1632641566.4309, 99, 0, 4180, 4432.308, 4128.718, 4171.282, 4088.205, 16238, 0, []
1632641566.4389, 100, 0, 4200, 4318.462, 4149.744, 4194.872, 4115.897, 450, 0, []
1632641566.4468, 101, 0, 4215.897, 4232.308, 4103.59, 4222.051, 4137.949, 450, 0, []
1632641566.4547, 102, 0, 4206.667, 4253.333, 4154.872, 4225.128, 4124.615, 450, 0, []
1632641566.4626, 103, 0, 4194.359, 4336.923, 4076.41, 4207.179, 4126.667, 16238, 0, []
1632641566.4706, 104, 0, 4192.821, 4353.846, 4118.974, 4209.231, 4144.615, 450, 0, []
1632641566.4785, 105, 0, 4181.538, 4261.026, 4155.385, 4205.128, 4135.385, 450, 0, []
1632641566.4865, 106, 0, 4158.974, 4198.974, 4082.051, 4180, 4111.795, 450, 0, []
1632641566.4944, 107, 0, 4155.897, 4234.872, 4144.103, 4174.872, 4108.205, 16238, 0, []
1632641566.5023, 108, 0, 4169.231, 4295.897, 4087.692, 4179.487, 4119.487, 450, 0, []
1632641566.5102, 109, 0, 4184.103, 4302.564, 4103.077, 4179.487, 4129.744, 450, 0, []
1632641566.5182, 110, 0, 4180, 4301.538, 4137.949, 4169.231, 4118.974, 450, 0, []
1632641566.5261, 111, 0, 4163.59, 4380, 4065.128, 4158.974, 4085.641, 16238, 0, []
1632641566.5339, 112, 0, 4171.795, 4407.179, 4151.282, 4175.385, 4077.949, 450, 0, []
1632641566.5417, 113, 0, 4190.256, 4336.41, 4110.256, 4188.718, 4104.103, 450, 0, []
1632641566.5495, 114, 0, 4189.231, 4280, 4091.282, 4184.103, 4113.333, 450, 0, []
1632641566.5574, 115, 0, 4183.59, 4186.154, 4145.641, 4182.051, 4100, 16238, 0, []
1632641566.5652, 116, 0, 4187.179, 4123.59, 4079.487, 4185.128, 4107.179, 450, 0, []
1632641566.5731, 117, 0, 4195.897, 4270.256, 4142.564, 4200.513, 4133.333, 450, 0, []
1632641566.5808, 118, 0, 4188.718, 4316.923, 4111.795, 4195.385, 4143.59, 450, 0, []
1632641566.5887, 119, 0, 4180, 4158.462, 4098.462, 4185.641, 4146.667, 16238, 0, []
1632641566.5965, 120, 0, 4191.282, 4269.231, 4170.256, 4199.487, 4154.872, 450, 0, []
1632641566.6044, 121, 0, 4185.641, 4541.026, 4090.769, 4184.615, 4146.154, 450, 0, []
1632641566.6122, 122, 0, 4176.41, 4515.897, 4134.872, 4165.641, 4138.462, 450, 0, []
1632641566.6201, 123, 0, 4195.385, 4449.231, 4117.436, 4180, 4142.564, 16238, 0, []
1632641566.628, 124, 0, 4206.667, 4545.641, 4090.256, 4204.103, 4125.128, 450, 0, []
1632641566.636, 125, 0, 4194.359, 4496.923, 4153.846, 4210.769, 4111.795, 450, 0, []
1632641566.6439, 126, 0, 4181.538, 4367.692, 4070.256, 4189.744, 4128.205, 450, 0, []
1632641566.6519, 127, 0, 4189.744, 4517.949, 4122.564, 4183.59, 4142.051, 16238, 0, []
1632641566.6597, 128, 0, 4189.231, 4674.872, 4126.667, 4186.667, 4134.359, 450, 0, []
1632641566.6677, 0, 0, 4161.026, 4533.846, 4075.897, 4181.026, 4126.667, 450, 0, []
1632641566.6756, 1, 0, 4145.128, 4438.974, 4148.205, 4173.846, 4126.154, 450, 0, []
1632641566.6836, 2, 0, 4154.872, 4549.744, 4091.795, 4157.949, 4117.436, 16167, 0, []
1632641566.6915, 3, 0, 4174.359, 4597.949, 4136.923, 4163.59, 4114.359, 450, 0, []
1632641566.6992, 4, 0, 4173.846, 4577.949, 4135.385, 4175.385, 4107.692, 16104, 0, []
1632641566.7071, 5, 0, 4155.897, 4614.359, 4063.59, 4172.821, 4083.077, 450, 0, []
1632641566.7149, 6, 0, 4163.077, 4650.256, 4149.744, 4187.692, 4081.538, 205, 0, []
1632641566.7228, 7, 0, 4183.59, 4640.513, 4106.154, 4201.538, 4106.667, 450, 0, []
1632641566.7306, 8, 0, 4184.103, 4617.949, 4123.59, 4203.077, 4118.974, 450, 0, []
1632641566.7384, 9, 0, 4167.179, 4580.513, 4144.103, 4192.821, 4114.359, 16090, 0, []
1632641566.7462, 10, 0, 4155.385, 4496.41, 4086.154, 4183.59, 4117.949, 450, 0, []
1632641566.7541, 11, 0, 4161.026, 4485.641, 4156.41, 4196.41, 4132.821, 16235, 0, []
1632641566.7619, 12, 0, 4167.179, 4602.564, 4107.179, 4196.923, 4131.282, 450, 0, []
1632641566.7699, 13, 0, 4160.513, 4670.256, 4120, 4179.487, 4113.846, 450, 0, []
1632641566.7777, 14, 0, 4150.256, 4738.462, 4149.231, 4170.769, 4100, 450, 0, []
1632641566.7857, 15, 0, 4155.385, 4833.333, 4079.487, 4184.103, 4095.897, 16235, 0, []
1632641566.7936, 16, 0, 4168.205, 4760, 4155.385, 4203.59, 4098.462, 0, 0, []
1632641566.8016, 17, 0, 4165.128, 4606.667, 4109.231, 4195.897, 4104.103, 0, 0, []
1632641566.8095, 18, 0, 4174.872, 4592.308, 4109.231, 4206.667, 4126.154, 0, 0, []
1632641566.8175, 19, 0, 4192.821, 4605.641, 4169.231, 4229.231, 4146.667, 0, 0, []
1632641566.8253, 20, 0, 4171.282, 4555.897, 4083.077, 4206.154, 4135.385, 0, 0, []
1632641566.8333, 21, 0, 4142.051, 4593.846, 4141.026, 4186.667, 4114.359, 0, 0, []
1632641566.8412, 22, 0, 4145.641, 4722.564, 4121.026, 4188.205, 4105.128, 0, 0, []
1632641566.849, 23, 0, 4152.308, 4770.256, 4095.897, 4176.41, 4105.128, 0, 0, []
1632641566.8569, 24, 0, 4155.897, 4599.487, 4148.718, 4172.308, 4108.718, 0, 0, []
1632641566.8646, 25, 0, 4166.667, 4462.564, 4072.821, 4182.051, 4103.59, 0, 0, []
1632641566.8725, 26, 0, 4170.769, 4612.821, 4130.256, 4190.769, 4091.282, 0, 0, []
1632641566.8803, 27, 0, 4164.103, 4697.949, 4118.462, 4189.744, 4096.923, 0, 0, []
1632641566.8882, 28, 0, 4169.231, 4601.538, 4076.41, 4190.769, 4119.487, 0, 0, []
1632641566.896, 29, 0, 4169.744, 4610.256, 4122.564, 4189.231, 4120, 0, 0, []
1632641566.9038, 30, 0, 4141.538, 4598.462, 4039.487, 4162.564, 4096.923, 0, 0, []
1632641566.9116, 31, 0, 4136.41, 4429.231, 4099.487, 4169.744, 4101.538, 0, 0, []
1632641566.9195, 32, 0, 4161.026, 4369.231, 4109.744, 4191.795, 4126.154, 0, 0, []
1632641566.9273, 33, 0, 4151.282, 4489.231, 4044.103, 4166.154, 4111.795, 0, 0, []
1632641566.9353, 34, 0, 4145.641, 4545.128, 4118.974, 4156.41, 4102.564, 0, 0, []
1632641566.9431, 35, 0, 4190.256, 4501.026, 4100, 4183.077, 4146.667, 0, 0, []
1632641566.9511, 36, 0, 4234.359, 4401.026, 4148.205, 4202.564, 4184.103, 0, 0, []
1632641566.959, 37, 0, 4242.051, 4265.641, 4126.154, 4195.385, 4186.154, 0, 0, []
1632641566.967, 38, 0, 4250.769, 4209.231, 4053.333, 4191.795, 4201.538, 0, 0, []
1632641566.9749, 39, 0, 4267.179, 4195.897, 4133.846, 4200.513, 4227.179, 0, 0, []
1632641566.9828, 40, 0, 4243.077, 4160, 4066.667, 4178.974, 4207.692, 0, 0, []
1632641566.9907, 41, 0, 4204.615, 4135.385, 4081.538, 4166.154, 4169.744, 0, 0, []
1632641566.9987, 42, 0, 4200, 4220, 4115.385, 4176.41, 4163.59, 0, 0, []
1632641567.0066, 43, 0, 4206.667, 4312.821, 4054.359, 4168.205, 4165.641, 0, 0, []
1632641567.0144, 44, 0, 4203.59, 4322.051, 4137.436, 4159.487, 4151.282, 0, 0, []
1632641567.0222, 45, 0, 4196.41, 4342.564, 4100, 4164.615, 4135.897, 0, 0, []
1632641567.03, 46, 0, 4198.462, 4145.128, 4104.615, 4174.359, 4130.769, 0, 0, []
1632641567.0379, 47, 0, 4201.026, 3622.051, 4129.231, 4167.692, 4128.718, 0, 0, []
1632641567.0457, 48, 0, 4194.872, 3204.103, 4061.538, 4162.051, 4127.692, 0, 0, []
1632641567.0536, 49, 0, 4193.333, 3129.744, 4151.282, 4183.59, 4125.128, 0, 0, []
1632641567.0613, 50, 0, 4186.667, 3116.41, 4110.256, 4183.59, 4122.051, 0, 0, []
1632641567.0692, 51, 0, 4185.128, 2999.487, 4093.846, 4170.769, 4127.692, 0, 0, []
1632641567.077, 52, 0, 4193.333, 3076.41, 4150.256, 4176.41, 4138.462, 0, 0, []
1632641567.085, 53, 0, 4191.795, 3497.436, 4077.949, 4179.487, 4142.564, 0, 0, []
1632641567.0929, 54, 0, 4206.667, 3878.974, 4141.026, 4189.744, 4155.897, 0, 0, []
1632641567.1008, 55, 0, 4234.872, 3850.769, 4115.897, 4194.872, 4187.692, 0, 0, []
1632641567.1087, 56, 0, 4248.718, 3715.385, 4090.256, 4185.128, 4218.974, 0, 0, []
1632641567.1167, 57, 0, 4274.872, 3802.051, 4148.205, 4195.385, 4267.179, 0, 0, []
1632641567.1246, 58, 0, 4331.795, 3930.769, 4093.333, 4224.103, 4329.744, 0, 0, []
1632641567.1326, 59, 0, 4384.103, 3991.795, 4177.436, 4241.026, 4363.077, 0, 0, []
1632641567.1404, 60, 0, 4405.128, 4024.615, 4160, 4233.333, 4370.256, 0, 0, []
1632641567.1483, 61, 0, 4407.179, 3990.769, 4108.205, 4240.513, 4389.744, 0, 0, []
1632641567.1562, 62, 0, 4416.41, 3991.795, 4194.872, 4265.128, 4424.103, 0, 0, []
1632641567.164, 63, 0, 4424.615, 4089.744, 4143.077, 4260, 4423.59, 0, 0, []
1632641567.1719, 64, 0, 4415.897, 4146.154, 4172.821, 4257.949, 4392.821, 450, 0, []
1632641567.1797, 65, 0, 4394.872, 4180.513, 4153.846, 4262.051, 4384.103, 450, 0, []
1632641567.1875, 66, 0, 4362.564, 4233.846, 4107.179, 4239.487, 4387.692, 16212, 0, []
1632641567.1953, 67, 0, 4336.923, 4251.795, 4185.128, 4232.821, 4367.692, 450, 0, []
1632641567.2032, 68, 0, 4332.308, 4213.333, 4121.026, 4251.282, 4337.436, 16097, 0, []
1632641567.211, 69, 0, 4323.59, 4040.513, 4150.256, 4256.41, 4313.846, 450, 0, []
1632641567.2189, 70, 0, 4302.564, 3897.949, 4158.974, 4240.513, 4305.128, 193, 0, []
1632641567.2266, 71, 0, 4299.487, 3941.538, 4122.564, 4252.821, 4322.051, 450, 0, []
1632641567.2345, 72, 0, 4302.564, 4000, 4214.359, 4279.487, 4325.128, 450, 0, []
1632641567.2423, 73, 0, 4283.59, 4011.795, 4138.462, 4266.154, 4282.051, 16109, 0, []
1632641567.2503, 74, 0, 4268.718, 4067.692, 4141.026, 4256.923, 4243.077, 450, 0, []
1632641567.2582, 75, 0, 4262.564, 4069.231, 4165.641, 4261.026, 4246.667, 16167, 0, []
1632641567.2661, 76, 0, 4254.872, 4025.128, 4112.821, 4257.436, 4271.282, 450, 0, []
1632641567.274, 77, 0, 4272.821, 4084.615, 4203.59, 4280, 4296.41, 450, 0, []
1632641567.282, 78, 0, 4278.974, 4100.513, 4151.795, 4285.128, 4291.282, 450, 0, []
1632641567.2899, 79, 0, 4249.231, 4122.564, 4151.282, 4256.923, 4254.872, 16167, 0, []
1632641567.2979, 80, 0, 4244.103, 4263.077, 4190.256, 4249.744, 4234.359, 450, 0, []
1632641567.3057, 81, 0, 4252.821, 4290.256, 4111.282, 4255.897, 4225.641, 450, 0, []
1632641567.3137, 82, 0, 4245.128, 4202.564, 4176.923, 4257.949, 4217.949, 450, 0, []
1632641567.3216, 83, 0, 4234.872, 4156.41, 4138.974, 4248.718, 4224.103, 16167, 0, []
1632641567.3294, 84, 0, 4220.513, 4096.923, 4129.744, 4243.59, 4224.615, 450, 0, []
1632641567.3373, 85, 0, 4210.256, 4017.436, 4181.538, 4246.154, 4221.538, 450, 0, []
1632641567.3451, 86, 0, 4225.641, 4088.718, 4114.359, 4241.026, 4236.923, 450, 0, []
1632641567.353, 87, 0, 4252.308, 4277.436, 4195.385, 4259.487, 4253.333, 16167, 0, []
1632641567.3609, 88, 0, 4249.744, 4331.795, 4167.692, 4277.949, 4241.026, 450, 0, []
1632641567.3687, 89, 0, 4233.846, 4253.333, 4130.256, 4272.821, 4222.051, 450, 0, []
1632641567.3765, 90, 0, 4232.308, 4187.179, 4191.282, 4269.231, 4222.564, 450, 0, []
1632641567.3843, 91, 0, 4229.744, 4197.949, 4121.538, 4265.641, 4239.487, 16167, 0, []
1632641567.3921, 92, 0, 4228.205, 4258.974, 4176.923, 4270.769, 4253.333, 450, 0, []
1632641567.4001, 93, 0, 4223.59, 4212.821, 4155.897, 4256.923, 4241.538, 450, 0, []
1632641567.408, 94, 0, 4216.923, 4115.897, 4115.897, 4229.744, 4230.769, 450, 0, []
1632641567.416, 95, 0, 4226.667, 4150.769, 4199.487, 4235.385, 4242.564, 16167, 0, []
1632641567.4238, 96, 0, 4226.154, 4204.615, 4130.256, 4243.59, 4217.949, 450, 0, []
1632641567.4318, 97, 0, 4214.872, 4196.41, 4164.103, 4241.538, 4173.846, 450, 0, []
1632641567.4397, 98, 0, 4212.821, 4226.667, 4165.641, 4245.128, 4184.615, 450, 0, []
1632641567.4477, 99, 0, 4217.949, 4245.641, 4116.923, 4251.282, 4221.026, 16167, 0, []
1632641567.4556, 100, 0, 4237.949, 4213.846, 4180, 4263.59, 4241.026, 450, 0, []
1632641567.4635, 101, 0, 4236.41, 4213.333, 4108.205, 4253.333, 4245.128, 450, 0, []
1632641567.4714, 102, 0, 4200.513, 4226.154, 4143.59, 4241.538, 4233.846, 450, 0, []
1632641567.4792, 103, 0, 4193.846, 4213.846, 4164.615, 4249.231, 4218.462, 16167, 0, []
1632641567.4871, 104, 0, 4230.256, 4158.974, 4125.641, 4257.436, 4225.128, 450, 0, []
1632641567.4949, 105, 0, 4237.949, 4108.205, 4214.872, 4254.359, 4231.795, 450, 0, []
1632641567.5027, 106, 0, 4202.051, 4205.128, 4125.641, 4234.359, 4201.538, 450, 0, []
1632641567.5105, 107, 0, 4190.769, 4343.077, 4122.564, 4236.923, 4181.026, 16167, 0, []
1632641567.5184, 108, 0, 4206.667, 4311.795, 4175.385, 4251.795, 4206.667, 450, 0, []
1632641567.5262, 109, 0, 4209.231, 4182.051, 4126.154, 4253.846, 4230.769, 450, 0, []
1632641567.5341, 110, 0, 4206.154, 4124.615, 4189.231, 4255.897, 4229.231, 450, 0, []
1632641567.5419, 111, 0, 4208.205, 4153.333, 4130.769, 4240.513, 4223.077, 16167, 0, []
1632641567.5498, 112, 0, 4218.974, 4112.821, 4138.462, 4232.821, 4229.744, 450, 0, []
1632641567.5577, 113, 0, 4224.103, 4069.744, 4175.897, 4240, 4232.821, 450, 0, []
1632641567.5657, 114, 0, 4216.923, 4170.769, 4096.41, 4243.59, 4213.333, 450, 0, []
1632641567.5736, 115, 0, 4222.051, 4253.846, 4171.795, 4258.462, 4200, 16167, 0, []
1632641567.5816, 116, 0, 4220.513, 4217.949, 4133.846, 4251.282, 4210.256, 450, 0, []
1632641567.5894, 117, 0, 4199.487, 4188.205, 4124.615, 4238.974, 4214.359, 450, 0, []
1632641567.5974, 118, 0, 4208.718, 4222.564, 4190.769, 4255.897, 4225.128, 450, 0, []
1632641567.6053, 119, 0, 4230.769, 4294.872, 4117.949, 4254.872, 4243.077, 16167, 0, []
1632641567.6132, 120, 0, 4221.538, 4356.41, 4175.897, 4229.231, 4233.846, 450, 0, []
1632641567.6211, 121, 0, 4202.051, 4407.692, 4151.282, 4220, 4207.179, 450, 0, []
1632641567.6288, 122, 0, 4213.846, 4486.667, 4135.897, 4249.744, 4198.462, 450, 0, []
1632641567.6367, 123, 0, 4239.487, 4479.487, 4202.564, 4274.872, 4209.744, 16167, 0, []
1632641567.6445, 124, 0, 4233.333, 4382.564, 4123.077, 4250.769, 4219.487, 450, 0, []
1632641567.6524, 125, 0, 4217.949, 4407.179, 4172.821, 4246.667, 4226.667, 450, 0, []
1632641567.6602, 126, 0, 4218.462, 4425.128, 4148.718, 4266.667, 4234.359, 450, 0, []
1632641567.668, 127, 0, 4210.769, 4320.513, 4106.154, 4250.769, 4235.385, 16167, 0, []
1632641567.6758, 128, 0, 4199.487, 4338.974, 4183.077, 4228.205, 4225.128, 450, 0, []
1632641567.6837, 0, 0, 4210.256, 4454.872, 4115.385, 4240, 4211.795, 450, 0, []
1632641567.6915, 1, 0, 4230.256, 4472.308, 4167.692, 4267.179, 4205.641, 450, 0, []
1632641567.6995, 2, 0, 4219.487, 4455.385, 4165.128, 4261.026, 4200.513, 16192, 0, []
1632641567.7073, 3, 0, 4197.436, 4442.564, 4092.308, 4239.487, 4201.026, 450, 0, []
1632641567.7153, 4, 0, 4212.308, 4453.846, 4164.615, 4246.154, 4221.026, 16059, 0, []
1632641567.7232, 5, 0, 4229.744, 4505.128, 4124.103, 4248.205, 4240, 450, 0, []
1632641567.7312, 6, 0, 4225.128, 4532.821, 4169.744, 4243.077, 4238.462, 233, 0, []
1632641567.7391, 7, 0, 4225.641, 4553.333, 4176.923, 4245.641, 4226.154, 450, 0, []
1632641567.747, 8, 0, 4227.692, 4545.128, 4117.949, 4254.359, 4207.692, 450, 0, []
1632641567.7549, 9, 0, 4232.821, 4484.615, 4198.974, 4274.359, 4204.103, 16116, 0, []
1632641567.7629, 10, 0, 4242.051, 4415.897, 4135.385, 4277.436, 4231.795, 450, 0, []
1632641567.7708, 11, 0, 4233.333, 4392.821, 4159.487, 4270.769, 4251.795, 16174, 0, []
1632641567.7786, 12, 0, 4213.846, 4426.154, 4187.179, 4260.513, 4229.744, 450, 0, []
1632641567.7864, 13, 0, 4210.256, 4482.564, 4111.282, 4246.154, 4194.872, 450, 0, []
1632641567.7942, 14, 0, 4227.692, 4514.359, 4190.256, 4256.41, 4195.897, 450, 0, []
1632641567.8021, 15, 0, 4235.897, 4518.462, 4134.872, 4253.333, 4217.949, 16174, 0, []
1632641567.8099, 16, 0, 4226.154, 4502.051, 4133.846, 4248.718, 4220, 0, 0, []
1632641567.8178, 17, 0, 4218.462, 4469.744, 4187.692, 4263.077, 4214.872, 0, 0, []
1632641567.8255, 18, 0, 4219.487, 4516.923, 4129.744, 4255.385, 4220.513, 0, 0, []
1632641567.8334, 19, 0, 4226.154, 4561.538, 4193.846, 4241.538, 4219.487, 0, 0, []
1632641567.8412, 20, 0, 4221.538, 4572.308, 4136.923, 4245.128, 4200.513, 0, 0, []
1632641567.8491, 21, 0, 4207.692, 4593.333, 4121.026, 4250.769, 4182.051, 0, 0, []
1632641567.8569, 22, 0, 4193.846, 4497.949, 4162.564, 4237.436, 4176.41, 0, 0, []
1632641567.8649, 23, 0, 4184.615, 4424.103, 4088.205, 4223.59, 4190.769, 0, 0, []
1632641567.8727, 24, 0, 4180, 4484.615, 4162.564, 4228.205, 4200, 0, 0, []
1632641567.8807, 25, 0, 4163.59, 4496.41, 4121.026, 4211.795, 4168.205, 0, 0, []
1632641567.8886, 26, 0, 4176.923, 4468.718, 4113.333, 4206.667, 4160.513, 0, 0, []
1632641567.8966, 27, 0, 4220.513, 4537.436, 4208.718, 4235.897, 4205.128, 0, 0, []
1632641567.9045, 28, 0, 4217.949, 4602.051, 4122.051, 4244.103, 4205.128, 0, 0, []
1632641567.9124, 29, 0, 4198.974, 4526.154, 4165.128, 4240.513, 4171.795, 0, 0, []
1632641567.9203, 30, 0, 4202.564, 4403.59, 4149.744, 4234.359, 4184.615, 0, 0, []
1632641567.9283, 31, 0, 4191.795, 4358.462, 4112.308, 4234.359, 4206.667, 0, 0, []
1632641567.9362, 32, 0, 4184.103, 4399.487, 4193.846, 4244.103, 4203.59, 0, 0, []
1632641567.944, 33, 0, 4184.103, 4309.744, 4116.41, 4221.026, 4190.769, 0, 0, []
