Timestamp, COUNTER, INTERPOLATED, AF3, T7, Pz, T8, AF4, RAW_CQ, MARKER_HARDWARE, MARKERS
1630238286.3229, 16, 0, 4213.333, 4417.436, 4070.256, 4148.205, 4181.026, 0, 0, []
1630238286.3308, 17, 0, 4203.077, 4405.128, 4080, 4149.231, 4186.667, 0, 0, []
1630238286.3386, 18, 0, 4214.359, 4401.538, 4084.615, 4163.59, 4188.718, 0, 0, []
1630238286.3464, 19, 0, 4218.974, 4409.231, 4074.359, 4160.513, 4183.077, 0, 0, []
1630238286.3542, 20, 0, 4190.256, 4420.513, 4092.308, 4157.436, 4185.128, 0, 0, []
1630238286.3621, 21, 0, 4172.821, 4414.872, 4072.308, 4152.308, 4187.179, 0, 0, []
1630238286.3699, 22, 0, 4188.718, 4394.872, 4062.051, 4160.513, 4170.256, 0, 0, []
1630238286.3779, 23, 0, 4191.282, 4400.513, 4072.308, 4156.923, 4152.308, 0, 0, []
1630238286.3857, 24, 0, 4176.923, 4422.051, 4072.308, 4140, 4158.974, 0, 0, []
1630238286.3937, 25, 0, 4183.59, 4415.897, 4085.128, 4153.333, 4165.641, 0, 0, []
1630238286.4016, 26, 0, 4193.846, 4395.385, 4068.718, 4164.103, 4150.256, 0, 0, []
1630238286.4096, 27, 0, 4174.359, 4397.436, 4068.205, 4157.436, 4132.821, 0, 0, []
1630238286.4175, 28, 0, 4165.641, 4421.538, 4083.077, 4156.41, 4127.692, 0, 0, []
1630238286.4255, 29, 0, 4171.795, 4421.538, 4066.154, 4158.462, 4114.872, 0, 0, []
1630238286.4333, 30, 0, 4155.897, 4388.718, 4068.205, 4156.41, 4099.487, 0, 0, []
1630238286.4413, 31, 0, 4134.872, 4381.538, 4063.59, 4141.538, 4092.821, 0, 0, []
1630238286.4492, 32, 0, 4135.385, 4401.538, 4061.538, 4145.641, 4077.436, 0, 0, []
1630238286.4571, 33, 0, 4140.513, 4404.103, 4074.359, 4153.846, 4074.359, 0, 0, []
1630238286.465, 34, 0, 4138.974, 4404.103, 4067.179, 4141.538, 4089.744, 0, 0, []
1630238286.4728, 35, 0, 4134.359, 4400.513, 4077.949, 4148.205, 4077.436, 0, 0, []
1630238286.4807, 36, 0, 4127.179, 4382.564, 4075.385, 4146.667, 4062.051, 0, 0, []
1630238286.4887, 37, 0, 4130.769, 4385.128, 4077.436, 4140, 4086.667, 0, 0, []
1630238286.4966, 38, 0, 4137.949, 4400, 4084.615, 4157.436, 4091.282, 0, 0, []
1630238286.5044, 39, 0, 4131.795, 4374.872, 4066.667, 4160.513, 4078.974, 0, 0, []
1630238286.5123, 40, 0, 4138.462, 4359.487, 4088.718, 4165.128, 4108.205, 0, 0, []
1630238286.5202, 41, 0, 4163.59, 4391.795, 4084.103, 4172.821, 4122.051, 0, 0, []
1630238286.5282, 42, 0, 4169.231, 4404.615, 4057.436, 4162.051, 4104.615, 0, 0, []
1630238286.5361, 43, 0, 4163.59, 4392.308, 4081.538, 4160, 4120.513, 0, 0, []
1630238286.5441, 44, 0, 4170.256, 4396.923, 4084.103, 4171.282, 4136.41, 0, 0, []
1630238286.5519, 45, 0, 4168.718, 4395.385, 4074.872, 4172.308, 4112.821, 0, 0, []
1630238286.5599, 46, 0, 4149.744, 4378.974, 4072.308, 4161.026, 4104.615, 0, 0, []
1630238286.5678, 47, 0, 4148.205, 4383.077, 4076.923, 4173.846, 4121.026, 0, 0, []
1630238286.5758, 48, 0, 4172.308, 4399.487, 4099.487, 4202.051, 4119.487, 0, 0, []
1630238286.5837, 49, 0, 4172.821, 4390.256, 4088.718, 4187.692, 4111.795, 0, 0, []
1630238286.5914, 50, 0, 4152.308, 4361.026, 4079.487, 4165.128, 4110.769, 0, 0, []
1630238286.5994, 51, 0, 4157.949, 4351.795, 4076.923, 4164.615, 4098.462, 0, 0, []
1630238286.6073, 52, 0, 4165.641, 4365.128, 4074.872, 4165.641, 4094.872, 0, 0, []
1630238286.6152, 53, 0, 4157.949, 4375.385, 4090.256, 4168.205, 4111.795, 0, 0, []
1630238286.623, 54, 0, 4164.103, 4385.641, 4066.667, 4163.077, 4105.128, 0, 0, []
1630238286.6308, 55, 0, 4166.667, 4390.256, 4060, 4161.538, 4091.795, 0, 0, []
1630238286.6386, 56, 0, 4150.256, 4378.462, 4075.385, 4160.513, 4103.077, 0, 0, []
1630238286.6465, 57, 0, 4151.795, 4380.513, 4059.487, 4163.077, 4104.103, 0, 0, []
1630238286.6543, 58, 0, 4154.359, 4381.538, 4055.897, 4170.769, 4092.821, 0, 0, []
1630238286.6622, 59, 0, 4127.692, 4350.769, 4050.769, 4157.436, 4087.692, 0, 0, []
1630238286.6699, 60, 0, 4118.462, 4331.282, 4050.769, 4158.974, 4071.795, 0, 0, []
1630238286.6779, 61, 0, 4136.41, 4347.179, 4053.333, 4168.205, 4074.872, 0, 0, []
1630238286.6858, 62, 0, 4143.077, 4352.821, 4053.846, 4165.128, 4106.154, 0, 0, []
1630238286.6938, 63, 0, 4137.436, 4335.385, 4062.051, 4169.744, 4098.462, 0, 0, []
1630238286.7017, 64, 0, 4133.846, 4340, 4031.795, 4151.282, 4076.923, 450, 0, []
1630238286.7096, 65, 0, 4141.026, 4349.744, 4040.513, 4141.026, 4103.59, 450, 0, []
1630238286.7175, 66, 0, 4147.179, 4328.205, 4077.436, 4157.949, 4109.744, 16196, 0, []
1630238286.7255, 67, 0, 4136.923, 4314.872, 4057.949, 4152.308, 4082.051, 450, 0, []
1630238286.7334, 68, 0, 4129.744, 4338.974, 4057.436, 4146.154, 4083.077, 16090, 0, []
1630238286.7412, 69, 0, 4143.077, 4349.231, 4059.487, 4152.308, 4088.205, 450, 0, []
1630238286.749, 70, 0, 4142.051, 4332.821, 4054.872, 4153.846, 4076.41, 16072, 0, []
1630238286.7568, 71, 0, 4134.359, 4348.718, 4065.128, 4159.487, 4082.051, 450, 0, []
1630238286.7647, 72, 0, 4141.538, 4343.077, 4045.128, 4151.795, 4076.923, 450, 0, []
1630238286.7725, 73, 0, 4134.359, 4303.59, 4044.103, 4137.949, 4056.41, 16062, 0, []
1630238286.7804, 74, 0, 4133.846, 4309.744, 4068.205, 4153.846, 4076.923, 450, 0, []
1630238286.7882, 75, 0, 4160.513, 4326.667, 4089.744, 4181.026, 4100.513, 16150, 0, []
1630238286.796, 76, 0, 4157.436, 4307.692, 4095.385, 4166.154, 4088.205, 450, 0, []
1630238286.8038, 77, 0, 4133.846, 4312.308, 4069.231, 4135.385, 4086.154, 450, 0, []
1630238286.8117, 78, 0, 4138.974, 4352.821, 4067.179, 4147.179, 4088.205, 450, 0, []
1630238286.8195, 79, 0, 4148.718, 4353.846, 4070.769, 4157.949, 4089.744, 16150, 0, []
1630238286.8275, 80, 0, 4151.282, 4325.128, 4072.308, 4153.333, 4110.769, 450, 0, []
1630238286.8353, 81, 0, 4170.256, 4340.513, 4092.308, 4171.282, 4114.872, 450, 0, []
1630238286.8433, 82, 0, 4173.333, 4359.487, 4081.538, 4175.385, 4096.41, 450, 0, []
1630238286.8512, 83, 0, 4145.128, 4321.026, 4087.179, 4159.487, 4089.231, 16150, 0, []
1630238286.8592, 84, 0, 4131.795, 4296.923, 4085.128, 4147.692, 4078.974, 450, 0, []
1630238286.8671, 85, 0, 4137.436, 4330.769, 4060, 4143.59, 4072.308, 450, 0, []
1630238286.875, 86, 0, 4141.026, 4329.744, 4074.359, 4150.769, 4092.308, 450, 0, []
1630238286.8829, 87, 0, 4147.692, 4288.718, 4060, 4150.256, 4094.872, 16150, 0, []
1630238286.8909, 88, 0, 4156.41, 4296.41, 4046.154, 4146.667, 4077.436, 450, 0, []
1630238286.8988, 89, 0, 4155.385, 4315.385, 4069.231, 4151.795, 4093.333, 450, 0, []
1630238286.9066, 90, 0, 4154.359, 4304.103, 4068.718, 4160, 4111.282, 450, 0, []
1630238286.9144, 91, 0, 4156.41, 4313.846, 4062.564, 4164.103, 4093.333, 16150, 0, []
1630238286.9222, 92, 0, 4141.538, 4313.333, 4050.769, 4145.128, 4073.333, 450, 0, []
1630238286.9301, 93, 0, 4130.769, 4283.59, 4051.282, 4137.436, 4071.282, 450, 0, []
1630238286.9379, 94, 0, 4140.513, 4287.179, 4057.949, 4137.436, 4070.256, 450, 0, []
1630238286.9458, 95, 0, 4133.333, 4303.077, 4049.744, 4126.154, 4063.077, 16150, 0, []
1630238286.9535, 96, 0, 4121.026, 4282.564, 4054.359, 4136.923, 4061.538, 450, 0, []
1630238286.9614, 97, 0, 4136.41, 4280, 4041.538, 4141.538, 4069.744, 450, 0, []
1630238286.9692, 98, 0, 4144.615, 4306.667, 4043.59, 4135.897, 4079.487, 450, 0, []
1630238286.9772, 99, 0, 4134.872, 4301.538, 4053.333, 4147.179, 4080, 16150, 0, []
1630238286.9851, 100, 0, 4136.923, 4284.615, 4030.769, 4140, 4073.846, 450, 0, []
1630238286.993, 101, 0, 4137.436, 4293.333, 4034.359, 4124.615, 4072.821, 450, 0, []
1630238287.0009, 102, 0, 4141.538, 4301.538, 4033.846, 4131.282, 4076.41, 450, 0, []
1630238287.0089, 103, 0, 4158.974, 4287.692, 4041.538, 4140.513, 4078.974, 16150, 0, []
1630238287.0168, 104, 0, 4150.769, 4273.846, 4071.282, 4137.436, 4080, 450, 0, []
1630238287.0248, 105, 0, 4135.385, 4288.205, 4053.333, 4140, 4077.436, 450, 0, []
1630238287.0326, 106, 0, 4139.487, 4309.231, 4051.282, 4143.59, 4066.667, 450, 0, []
1630238287.0406, 107, 0, 4122.051, 4293.846, 4050.769, 4121.538, 4051.795, 16150, 0, []
1630238287.0485, 108, 0, 4102.051, 4266.154, 4032.308, 4114.872, 4046.667, 450, 0, []
1630238287.0564, 109, 0, 4126.154, 4284.615, 4051.282, 4137.949, 4065.128, 450, 0, []
1630238287.0643, 110, 0, 4153.333, 4304.615, 4057.949, 4147.692, 4092.308, 450, 0, []
1630238287.072, 111, 0, 4144.615, 4280.513, 4051.795, 4159.487, 4095.385, 16150, 0, []
1630238287.0799, 112, 0, 4135.897, 4273.333, 4040.513, 4156.923, 4083.077, 450, 0, []
1630238287.0877, 113, 0, 4143.59, 4285.641, 4039.487, 4141.026, 4084.103, 450, 0, []
1630238287.0956, 114, 0, 4154.872, 4280.513, 4053.846, 4157.949, 4092.821, 450, 0, []
1630238287.1034, 115, 0, 4157.436, 4276.923, 4036.923, 4160.513, 4094.359, 16150, 0, []
1630238287.1113, 116, 0, 4144.615, 4262.564, 4038.974, 4138.974, 4087.692, 450, 0, []
1630238287.119, 117, 0, 4156.41, 4257.436, 4053.333, 4148.205, 4090.769, 450, 0, []
1630238287.127, 118, 0, 4190.256, 4289.231, 4058.974, 4165.128, 4116.41, 450, 0, []
1630238287.1349, 119, 0, 4187.692, 4289.231, 4074.872, 4162.564, 4131.282, 16150, 0, []
1630238287.1428, 120, 0, 4174.359, 4269.744, 4054.872, 4162.564, 4117.949, 450, 0, []
1630238287.1506, 121, 0, 4189.231, 4273.333, 4066.154, 4175.385, 4121.026, 450, 0, []
1630238287.1585, 122, 0, 4200.513, 4271.282, 4104.103, 4182.051, 4149.231, 450, 0, []
1630238287.1664, 123, 0, 4188.718, 4265.641, 4088.718, 4176.923, 4147.179, 16150, 0, []
1630238287.1744, 124, 0, 4175.385, 4274.359, 4083.077, 4165.128, 4125.128, 450, 0, []
1630238287.1823, 125, 0, 4169.231, 4259.487, 4084.103, 4147.179, 4125.641, 450, 0, []
1630238287.1903, 126, 0, 4169.231, 4240, 4083.59, 4155.897, 4125.641, 450, 0, []
1630238287.1981, 127, 0, 4174.359, 4246.667, 4087.692, 4162.051, 4125.641, 16150, 0, []
1630238287.2061, 128, 0, 4173.333, 4240.513, 4077.436, 4141.026, 4136.41, 450, 0, []
1630238287.214, 0, 0, 4168.718, 4221.026, 4087.692, 4151.282, 4123.59, 450, 0, []
1630238287.2218, 1, 0, 4169.231, 4205.128, 4082.564, 4159.487, 4113.333, 450, 0, []
1630238287.2297, 2, 0, 4177.949, 4192.821, 4088.205, 4152.308, 4144.615, 16196, 0, []
1630238287.2374, 3, 0, 4189.231, 4192.308, 4108.205, 4169.744, 4157.436, 450, 0, []
1630238287.2453, 4, 0, 4187.179, 4197.436, 4082.051, 4168.205, 4138.974, 16093, 0, []
1630238287.2531, 5, 0, 4179.487, 4192.821, 4092.821, 4158.462, 4140.513, 450, 0, []
1630238287.261, 6, 0, 4176.41, 4183.077, 4104.615, 4164.615, 4138.462, 16082, 0, []
1630238287.2688, 7, 0, 4173.333, 4188.718, 4088.718, 4154.872, 4125.641, 450, 0, []
1630238287.2766, 8, 0, 4168.718, 4195.385, 4097.436, 4141.026, 4132.308, 450, 0, []
1630238287.2844, 9, 0, 4169.744, 4190.769, 4073.333, 4134.359, 4126.154, 16057, 0, []
1630238287.2924, 10, 0, 4174.872, 4180.513, 4071.282, 4140, 4114.359, 450, 0, []
1630238287.3003, 11, 0, 4188.718, 4168.205, 4098.974, 4158.974, 4137.436, 16184, 0, []
1630238287.3083, 12, 0, 4198.462, 4162.564, 4092.308, 4178.974, 4147.692, 450, 0, []
1630238287.3161, 13, 0, 4187.692, 4181.026, 4082.051, 4176.923, 4126.667, 450, 0, []
1630238287.3241, 14, 0, 4177.949, 4190.256, 4063.077, 4150.769, 4123.077, 450, 0, []
1630238287.332, 15, 0, 4177.949, 4176.41, 4066.667, 4158.462, 4120, 16184, 0, []
1630238287.34, 16, 0, 4170.769, 4176.923, 4066.667, 4167.692, 4112.308, 0, 0, []
1630238287.3479, 17, 0, 4161.026, 4185.128, 4056.923, 4148.205, 4121.026, 0, 0, []
1630238287.3558, 18, 0, 4166.154, 4174.872, 4072.821, 4159.487, 4115.897, 0, 0, []
1630238287.3637, 19, 0, 4177.436, 4165.641, 4064.615, 4173.846, 4114.872, 0, 0, []
1630238287.3715, 20, 0, 4180.513, 4184.103, 4088.718, 4177.949, 4144.615, 0, 0, []
1630238287.3794, 21, 0, 4188.718, 4217.436, 4107.692, 4183.077, 4150.256, 0, 0, []
1630238287.3872, 22, 0, 4184.103, 4220.513, 4071.282, 4161.538, 4121.026, 0, 0, []
1630238287.395, 23, 0, 4161.538, 4191.282, 4073.846, 4145.641, 4111.795, 0, 0, []
1630238287.4028, 24, 0, 4157.436, 4184.103, 4063.077, 4149.744, 4111.282, 0, 0, []
1630238287.4107, 25, 0, 4164.615, 4190.256, 4049.231, 4152.308, 4106.154, 0, 0, []
1630238287.4185, 26, 0, 4170.256, 4180, 4067.179, 4158.462, 4127.179, 0, 0, []
1630238287.4264, 27, 0, 4187.179, 4187.179, 4066.667, 4170.256, 4142.051, 0, 0, []
1630238287.4341, 28, 0, 4194.872, 4201.538, 4078.462, 4174.872, 4135.385, 0, 0, []
1630238287.4421, 29, 0, 4181.538, 4201.538, 4067.179, 4164.615, 4142.051, 0, 0, []
1630238287.45, 30, 0, 4166.154, 4201.026, 4049.744, 4165.128, 4135.385, 0, 0, []
1630238287.4579, 31, 0, 4158.974, 4185.128, 4051.282, 4159.487, 4115.385, 0, 0, []
1630238287.4658, 32, 0, 4161.538, 4162.564, 4049.744, 4152.308, 4126.667, 0, 0, []
1630238287.4737, 33, 0, 4175.385, 4168.718, 4079.487, 4184.615, 4140, 0, 0, []
1630238287.4814, 34, 0, 4180, 4176.923, 4071.282, 4182.564, 4134.359, 0, 0, []
1630238287.4894, 35, 0, 4167.179, 4169.744, 4061.026, 4156.41, 4140, 0, 0, []
1630238287.4973, 36, 0, 4173.333, 4172.821, 4082.051, 4173.846, 4146.667, 0, 0, []
1630238287.5053, 37, 0, 4190.256, 4141.026, 4068.718, 4174.872, 4143.59, 0, 0, []
1630238287.5132, 38, 0, 4179.487, 4092.308, 4083.077, 4168.205, 4149.744, 0, 0, []
1630238287.5211, 39, 0, 4162.051, 4109.231, 4081.026, 4173.333, 4143.077, 0, 0, []
1630238287.529, 40, 0, 4164.103, 4112.308, 4065.641, 4160.513, 4111.282, 0, 0, []
1630238287.5368, 41, 0, 4171.795, 4056.923, 4089.231, 4157.436, 4110.256, 0, 0, []
1630238287.5447, 42, 0, 4177.436, 4032.821, 4075.897, 4167.692, 4135.385, 0, 0, []
1630238287.5525, 43, 0, 4188.205, 4026.667, 4077.436, 4178.974, 4141.538, 0, 0, []
1630238287.5603, 44, 0, 4186.667, 3994.872, 4087.179, 4180, 4145.641, 0, 0, []
1630238287.5681, 45, 0, 4180.513, 3970.769, 4081.026, 4176.41, 4153.333, 0, 0, []
1630238287.576, 46, 0, 4186.667, 3962.564, 4098.974, 4175.385, 4143.59, 0, 0, []
1630238287.5838, 47, 0, 4173.846, 3960.513, 4087.692, 4161.538, 4132.308, 0, 0, []
1630238287.5917, 48, 0, 4157.949, 3988.718, 4089.231, 4167.179, 4130.256, 0, 0, []
1630238287.5994, 49, 0, 4176.41, 4005.128, 4092.821, 4176.923, 4128.718, 0, 0, []
1630238287.6074, 50, 0, 4185.128, 3985.641, 4084.615, 4172.308, 4132.308, 0, 0, []
1630238287.6153, 51, 0, 4166.667, 3987.179, 4097.436, 4181.538, 4134.359, 0, 0, []
1630238287.6233, 52, 0, 4171.795, 3993.846, 4082.051, 4175.897, 4128.205, 0, 0, []
1630238287.6312, 53, 0, 4183.59, 3983.077, 4101.026, 4176.41, 4137.949, 0, 0, []
1630238287.6391, 54, 0, 4178.974, 3992.308, 4108.718, 4185.641, 4151.282, 0, 0, []
1630238287.647, 55, 0, 4178.974, 4006.154, 4078.974, 4176.41, 4140.513, 0, 0, []
1630238287.655, 56, 0, 4162.564, 3986.667, 4096.41, 4178.462, 4120.513, 0, 0, []
1630238287.6629, 57, 0, 4143.59, 3982.564, 4081.538, 4179.487, 4115.385, 0, 0, []
1630238287.6709, 58, 0, 4161.026, 4010.769, 4082.051, 4177.436, 4123.077, 0, 0, []
1630238287.6787, 59, 0, 4172.308, 4017.436, 4113.846, 4176.923, 4136.923, 0, 0, []
1630238287.6865, 60, 0, 4172.308, 4007.179, 4105.641, 4181.026, 4148.205, 0, 0, []
1630238287.6944, 61, 0, 4202.564, 4016.41, 4123.59, 4207.179, 4164.103, 0, 0, []
1630238287.7022, 62, 0, 4221.026, 4025.128, 4124.103, 4218.462, 4190.256, 0, 0, []
1630238287.7101, 63, 0, 4202.564, 4003.59, 4114.872, 4218.462, 4191.282, 0, 0, []
1630238287.7178, 64, 0, 4188.205, 3989.744, 4107.692, 4204.615, 4155.385, 450, 0, []
1630238287.7257, 65, 0, 4171.795, 4009.231, 4071.282, 4169.744, 4127.179, 450, 0, []
1630238287.7335, 66, 0, 4158.974, 4030.769, 4074.872, 4174.359, 4126.667, 16193, 0, []
1630238287.7414, 67, 0, 4171.795, 4016.923, 4073.333, 4175.385, 4130.256, 450, 0, []
1630238287.7492, 68, 0, 4168.718, 3993.333, 4075.897, 4157.949, 4122.564, 16095, 0, []
1630238287.7571, 69, 0, 4149.744, 3999.487, 4082.564, 4171.795, 4115.385, 450, 0, []
1630238287.765, 70, 0, 4161.026, 4003.077, 4064.103, 4189.231, 4127.179, 16087, 0, []
1630238287.773, 71, 0, 4185.128, 3995.385, 4106.667, 4214.872, 4162.564, 450, 0, []
1630238287.7809, 72, 0, 4200, 4009.231, 4111.282, 4224.615, 4181.538, 450, 0, []
1630238287.7889, 73, 0, 4204.103, 4020, 4080, 4200.513, 4166.154, 326, 0, []
1630238287.7967, 74, 0, 4188.205, 4016.41, 4094.872, 4186.667, 4154.872, 450, 0, []
1630238287.8047, 75, 0, 4175.385, 4028.205, 4078.462, 4182.051, 4156.923, 16190, 0, []
1630238287.8126, 76, 0, 4191.795, 4031.282, 4088.718, 4189.744, 4168.718, 450, 0, []
1630238287.8206, 77, 0, 4198.462, 4014.359, 4102.051, 4195.385, 4183.077, 450, 0, []
1630238287.8285, 78, 0, 4182.051, 4003.59, 4083.077, 4193.333, 4173.846, 450, 0, []
1630238287.8365, 79, 0, 4175.385, 3997.436, 4080.513, 4191.282, 4154.359, 16190, 0, []
1630238287.8443, 80, 0, 4182.051, 4005.128, 4064.615, 4175.897, 4167.179, 450, 0, []
1630238287.8521, 81, 0, 4208.718, 4018.462, 4076.41, 4178.974, 4207.179, 450, 0, []
1630238287.86, 82, 0, 4273.333, 4010.256, 4071.282, 4177.949, 4252.821, 450, 0, []
1630238287.8678, 83, 0, 4333.846, 4007.692, 4052.308, 4166.667, 4290.256, 16190, 0, []
1630238287.8757, 84, 0, 4365.641, 4024.615, 4075.897, 4165.641, 4325.128, 450, 0, []
1630238287.8834, 85, 0, 4418.462, 4027.692, 4075.897, 4156.41, 4385.641, 450, 0, []
1630238287.8913, 86, 0, 4468.718, 4026.667, 4094.359, 4170.769, 4444.615, 450, 0, []
1630238287.8991, 87, 0, 4479.487, 4041.538, 4090.769, 4180.513, 4462.564, 16190, 0, []
1630238287.9071, 88, 0, 4481.026, 4038.462, 4058.462, 4160, 4451.795, 450, 0, []
1630238287.915, 89, 0, 4487.692, 4039.487, 4084.615, 4158.974, 4438.974, 450, 0, []
1630238287.9229, 90, 0, 4484.615, 4064.103, 4084.615, 4161.538, 4429.744, 450, 0, []
1630238287.9308, 91, 0, 4473.333, 4059.487, 4089.744, 4172.821, 4416.923, 16190, 0, []
1630238287.9388, 92, 0, 4464.615, 4038.974, 4097.949, 4184.103, 4397.949, 450, 0, []
1630238287.9467, 93, 0, 4451.795, 4058.462, 4078.462, 4173.846, 4381.538, 450, 0, []
1630238287.9547, 94, 0, 4455.385, 4091.795, 4104.615, 4182.051, 4389.744, 450, 0, []
1630238287.9625, 95, 0, 4466.667, 4094.359, 4103.077, 4182.051, 4401.026, 16190, 0, []
1630238287.9705, 96, 0, 4455.385, 4068.718, 4100, 4171.282, 4386.667, 450, 0, []
1630238287.9784, 97, 0, 4449.744, 4060.513, 4104.103, 4173.846, 4377.949, 450, 0, []
1630238287.9864, 98, 0, 4460, 4080.513, 4070.769, 4163.077, 4383.077, 450, 0, []
1630238287.9943, 99, 0, 4467.179, 4085.641, 4085.128, 4151.795, 4390.769, 16190, 0, []
1630238288.002, 100, 0, 4482.051, 4065.128, 4093.846, 4146.154, 4412.308, 450, 0, []
1630238288.0099, 101, 0, 4509.744, 4072.821, 4103.077, 4155.385, 4446.154, 450, 0, []
1630238288.0177, 102, 0, 4531.282, 4106.667, 4119.487, 4172.821, 4470.256, 450, 0, []
1630238288.0256, 103, 0, 4542.564, 4106.667, 4099.487, 4175.897, 4477.949, 16190, 0, []
1630238288.0334, 104, 0, 4542.051, 4109.744, 4118.974, 4183.077, 4481.026, 450, 0, []
1630238288.0412, 105, 0, 4532.821, 4130.256, 4112.308, 4176.41, 4481.026, 450, 0, []
1630238288.049, 106, 0, 4532.308, 4124.615, 4097.436, 4176.41, 4483.077, 450, 0, []
1630238288.057, 107, 0, 4534.359, 4126.667, 4113.846, 4183.59, 4480, 16190, 0, []
1630238288.0649, 108, 0, 4516.41, 4157.949, 4085.641, 4160.513, 4455.897, 450, 0, []
1630238288.0728, 109, 0, 4491.795, 4163.077, 4097.949, 4159.487, 4442.051, 450, 0, []
1630238288.0805, 110, 0, 4476.41, 4135.385, 4110.256, 4167.179, 4447.692, 450, 0, []
1630238288.0885, 111, 0, 4456.41, 4132.821, 4094.359, 4157.949, 4435.385, 16190, 0, []
1630238288.0964, 112, 0, 4435.385, 4148.205, 4110.256, 4158.974, 4416.923, 450, 0, []
1630238288.1044, 113, 0, 4431.795, 4166.154, 4100.513, 4147.692, 4417.436, 450, 0, []
1630238288.1123, 114, 0, 4416.41, 4194.359, 4098.974, 4150.256, 4393.333, 450, 0, []
1630238288.1202, 115, 0, 4390.769, 4203.59, 4089.744, 4171.795, 4358.974, 16190, 0, []
1630238288.1281, 116, 0, 4387.179, 4185.128, 4089.231, 4184.615, 4358.462, 450, 0, []
1630238288.1361, 117, 0, 4387.179, 4194.359, 4127.179, 4194.872, 4352.308, 450, 0, []
1630238288.144, 118, 0, 4354.872, 4226.667, 4100.513, 4181.026, 4309.744, 450, 0, []
1630238288.1518, 119, 0, 4309.231, 4213.333, 4089.744, 4168.718, 4274.872, 16190, 0, []
1630238288.1596, 120, 0, 4293.846, 4193.333, 4103.59, 4167.179, 4276.923, 450, 0, []
1630238288.1674, 121, 0, 4296.41, 4230.769, 4102.564, 4175.897, 4284.615, 450, 0, []
1630238288.1753, 122, 0, 4282.051, 4264.615, 4114.872, 4192.821, 4261.538, 450, 0, []
1630238288.1831, 123, 0, 4247.692, 4251.282, 4078.462, 4168.718, 4208.718, 16190, 0, []
1630238288.191, 124, 0, 4220.513, 4250.256, 4090.769, 4157.949, 4181.026, 450, 0, []
1630238288.1988, 125, 0, 4191.795, 4251.282, 4111.795, 4169.744, 4176.923, 450, 0, []
1630238288.2066, 126, 0, 4165.641, 4246.154, 4073.846, 4165.128, 4153.333, 450, 0, []
1630238288.2144, 127, 0, 4188.718, 4288.205, 4107.179, 4185.128, 4156.923, 16190, 0, []
1630238288.2223, 128, 0, 4214.359, 4325.128, 4130.769, 4201.538, 4194.872, 450, 0, []
1630238288.2301, 0, 0, 4190.769, 4310.256, 4121.026, 4198.462, 4189.744, 450, 0, []
1630238288.2381, 1, 0, 4169.744, 4309.231, 4107.179, 4186.154, 4144.615, 450, 0, []
1630238288.2459, 2, 0, 4177.436, 4324.615, 4098.974, 4168.718, 4142.051, 16193, 0, []
1630238288.2539, 3, 0, 4161.538, 4312.821, 4133.846, 4171.282, 4149.231, 450, 0, []
1630238288.2618, 4, 0, 4126.667, 4298.974, 4100.513, 4164.615, 4102.051, 16113, 0, []
1630238288.2698, 5, 0, 4109.744, 4300.513, 4070.256, 4157.436, 4063.59, 450, 0, []
1630238288.2777, 6, 0, 4109.231, 4316.923, 4092.821, 4168.205, 4076.923, 16075, 0, []
1630238288.2856, 7, 0, 4116.923, 4340, 4080.513, 4175.385, 4084.615, 450, 0, []
1630238288.2935, 8, 0, 4095.897, 4331.282, 4069.744, 4164.615, 4052.821, 450, 0, []
1630238288.3015, 9, 0, 4069.744, 4314.359, 4049.231, 4131.795, 4035.897, 16057, 0, []
1630238288.3094, 10, 0, 4066.667, 4316.923, 4063.077, 4122.564, 4032.308, 450, 0, []
1630238288.3172, 11, 0, 4055.385, 4321.538, 4088.718, 4146.154, 4020.513, 16172, 0, []
1630238288.325, 12, 0, 4049.231, 4335.385, 4065.128, 4162.564, 4030.769, 450, 0, []
1630238288.3328, 13, 0, 4073.333, 4344.103, 4094.359, 4179.487, 4057.436, 450, 0, []
1630238288.3407, 14, 0, 4106.154, 4340, 4116.41, 4185.128, 4081.026, 450, 0, []
1630238288.3485, 15, 0, 4122.051, 4358.462, 4111.282, 4189.231, 4094.872, 16172, 0, []
1630238288.3564, 16, 0, 4130.769, 4387.179, 4112.821, 4176.923, 4103.077, 0, 0, []
1630238288.3641, 17, 0, 4143.077, 4369.744, 4074.359, 4133.846, 4119.487, 0, 0, []
1630238288.3721, 18, 0, 4187.179, 4329.231, 4083.59, 4149.231, 4162.564, 0, 0, []
1630238288.38, 19, 0, 4257.949, 4335.897, 4084.615, 4180, 4215.897, 0, 0, []
1630238288.388, 20, 0, 4278.462, 4363.59, 4054.872, 4157.436, 4238.974, 0, 0, []
1630238288.3959, 21, 0, 4280, 4366.154, 4061.026, 4148.205, 4254.359, 0, 0, []
1630238288.4038, 22, 0, 4322.051, 4359.487, 4052.308, 4160, 4289.231, 0, 0, []
1630238288.4117, 23, 0, 4356.41, 4363.077, 4078.974, 4173.846, 4309.744, 0, 0, []
1630238288.4197, 24, 0, 4351.795, 4389.231, 4084.103, 4169.744, 4294.359, 0, 0, []
1630238288.4276, 25, 0, 4323.59, 4413.846, 4064.103, 4158.974, 4270.256, 0, 0, []
1630238288.4356, 26, 0, 4288.205, 4393.846, 4083.59, 4163.077, 4254.359, 0, 0, []
1630238288.4434, 27, 0, 4263.077, 4370.256, 4074.872, 4161.026, 4233.333, 0, 0, []
1630238288.4513, 28, 0, 4250.256, 4396.923, 4081.026, 4163.59, 4195.385, 0, 0, []
1630238288.4592, 29, 0, 4232.821, 4413.846, 4074.872, 4151.795, 4164.103, 0, 0, []
1630238288.4671, 30, 0, 4218.462, 4403.59, 4073.333, 4150.769, 4175.897, 0, 0, []
1630238288.4751, 31, 0, 4217.436, 4418.462, 4115.385, 4180, 4189.744, 0, 0, []
1630238288.4828, 32, 0, 4209.231, 4427.692, 4080.513, 4165.128, 4155.385, 0, 0, []
1630238288.4907, 33, 0, 4189.231, 4418.462, 4068.205, 4151.795, 4129.231, 0, 0, []
1630238288.4985, 34, 0, 4161.026, 4421.538, 4087.179, 4163.077, 4132.308, 0, 0, []
1630238288.5064, 35, 0, 4134.359, 4411.282, 4057.436, 4151.282, 4100.513, 0, 0, []
1630238288.5142, 36, 0, 4128.718, 4393.333, 4060.513, 4143.59, 4073.333, 0, 0, []
1630238288.5221, 37, 0, 4122.564, 4400.513, 4050.769, 4133.846, 4082.051, 0, 0, []
1630238288.5298, 38, 0, 4098.462, 4405.641, 4052.308, 4130.769, 4062.051, 0, 0, []
1630238288.5377, 39, 0, 4094.872, 4416.41, 4077.436, 4150.769, 4054.359, 0, 0, []
1630238288.5455, 40, 0, 4116.923, 4426.154, 4073.846, 4160, 4091.795, 0, 0, []
1630238288.5535, 41, 0, 4118.462, 4398.462, 4084.615, 4155.897, 4089.231, 0, 0, []
1630238288.5614, 42, 0, 4105.128, 4384.615, 4063.59, 4141.026, 4067.179, 0, 0, []
1630238288.5693, 43, 0, 4126.154, 4404.615, 4064.615, 4148.205, 4106.667, 0, 0, []
1630238288.5772, 44, 0, 4176.923, 4414.872, 4094.359, 4168.718, 4160, 0, 0, []
1630238288.5852, 45, 0, 4218.462, 4396.923, 4079.487, 4154.359, 4178.462, 0, 0, []
1630238288.5931, 46, 0, 4255.385, 4388.205, 4092.821, 4151.282, 4216.41, 0, 0, []
1630238288.601, 47, 0, 4291.795, 4406.667, 4090.769, 4165.641, 4265.641, 0, 0, []
1630238288.6088, 48, 0, 4307.179, 4416.923, 4079.487, 4173.846, 4270.256, 0, 0, []
1630238288.6166, 49, 0, 4314.359, 4409.744, 4092.308, 4174.359, 4264.615, 0, 0, []
1630238288.6245, 50, 0, 4314.359, 4400.513, 4072.821, 4148.205, 4277.436, 0, 0, []
1630238288.6323, 51, 0, 4290.256, 4412.821, 4076.923, 4137.949, 4276.41, 0, 0, []
1630238288.6402, 52, 0, 4272.821, 4423.077, 4076.923, 4154.872, 4256.41, 0, 0, []
1630238288.6479, 53, 0, 4262.564, 4405.641, 4071.282, 4158.974, 4227.692, 0, 0, []
1630238288.6558, 54, 0, 4238.974, 4396.923, 4086.154, 4146.667, 4198.974, 0, 0, []
1630238288.6636, 55, 0, 4217.436, 4418.974, 4071.795, 4141.026, 4195.897, 0, 0, []
1630238288.6715, 56, 0, 4205.128, 4415.385, 4088.205, 4165.128, 4199.487, 0, 0, []
1630238288.6793, 57, 0, 4191.282, 4380.513, 4088.205, 4169.231, 4168.205, 0, 0, []
1630238288.6872, 58, 0, 4166.154, 4390.256, 4078.974, 4147.692, 4131.795, 0, 0, []
1630238288.6951, 59, 0, 4144.615, 4417.949, 4105.128, 4145.641, 4129.744, 0, 0, []
1630238288.7031, 60, 0, 4132.821, 4416.923, 4075.897, 4144.103, 4115.385, 0, 0, []
1630238288.711, 61, 0, 4108.205, 4425.641, 4068.205, 4143.59, 4078.462, 0, 0, []
1630238288.719, 62, 0, 4081.538, 4435.385, 4074.872, 4134.872, 4062.051, 0, 0, []
1630238288.7268, 63, 0, 4080, 4417.949, 4073.333, 4133.846, 4062.564, 0, 0, []
1630238288.7348, 64, 0, 4084.103, 4409.231, 4106.667, 4162.564, 4063.59, 450, 0, []
1630238288.7427, 65, 0, 4069.744, 4420.513, 4090.256, 4162.051, 4058.462, 450, 0, []
1630238288.7507, 66, 0, 4054.359, 4412.821, 4082.051, 4150.256, 4044.615, 16184, 0, []
1630238288.7586, 67, 0, 4042.564, 4394.872, 4081.026, 4154.359, 4026.154, 450, 0, []
1630238288.7664, 68, 0, 4027.179, 4387.179, 4051.795, 4150.769, 4003.077, 16095, 0, []
1630238288.7743, 69, 0, 4019.487, 4393.333, 4063.077, 4155.385, 3988.205, 450, 0, []
1630238288.7821, 70, 0, 4028.205, 4409.231, 4055.385, 4155.385, 3995.897, 16072, 0, []
1630238288.79, 71, 0, 4029.744, 4408.205, 4055.897, 4151.282, 3997.949, 450, 0, []
1630238288.7978, 72, 0, 4020, 4401.538, 4066.154, 4147.179, 3985.128, 450, 0, []
1630238288.8056, 73, 0, 4016.923, 4410.769, 4049.231, 4139.487, 3983.59, 16058, 0, []
1630238288.8134, 74, 0, 4009.744, 4408.205, 4069.744, 4150.256, 3980.513, 450, 0, []
1630238288.8213, 75, 0, 4000, 4394.872, 4065.641, 4148.718, 3969.744, 16193, 0, []
1630238288.8291, 76, 0, 4006.667, 4387.179, 4064.615, 4141.538, 3978.462, 450, 0, []
1630238288.837, 77, 0, 4014.872, 4385.641, 4084.103, 4147.692, 3978.974, 450, 0, []
1630238288.8447, 78, 0, 4003.077, 4386.154, 4062.564, 4133.333, 3957.436, 450, 0, []
1630238288.8526, 79, 0, 3995.897, 4387.179, 4071.282, 4129.231, 3959.487, 16193, 0, []
1630238288.8604, 80, 0, 4008.205, 4394.872, 4071.795, 4140, 3972.821, 450, 0, []
1630238288.8684, 81, 0, 4002.564, 4403.077, 4063.077, 4144.103, 3963.59, 450, 0, []
1630238288.8763, 82, 0, 3981.538, 4381.026, 4071.282, 4144.615, 3947.179, 450, 0, []
1630238288.8843, 83, 0, 3975.385, 4347.692, 4060.513, 4135.897, 3948.205, 16193, 0, []
1630238288.8921, 84, 0, 3988.205, 4357.436, 4083.077, 4144.615, 3952.308, 450, 0, []
1630238288.9001, 85, 0, 3990.256, 4378.974, 4078.974, 4143.077, 3946.667, 450, 0, []
1630238288.908, 86, 0, 3977.436, 4358.974, 4061.538, 4137.949, 3937.949, 450, 0, []
1630238288.916, 87, 0, 3977.436, 4337.949, 4078.462, 4155.897, 3935.385, 16193, 0, []
1630238288.9239, 88, 0, 3980, 4357.949, 4074.359, 4155.897, 3937.949, 450, 0, []
1630238288.9316, 89, 0, 3978.974, 4366.154, 4090.256, 4160.513, 3935.385, 450, 0, []
1630238288.9395, 90, 0, 3980.513, 4350.256, 4086.154, 4157.949, 3940.513, 450, 0, []
1630238288.9473, 91, 0, 3965.128, 4352.821, 4057.949, 4131.795, 3930.769, 16193, 0, []
1630238288.9552, 92, 0, 3943.077, 4346.154, 4056.923, 4118.462, 3901.538, 450, 0, []
1630238288.963, 93, 0, 3945.641, 4320.513, 4044.103, 4116.41, 3893.846, 450, 0, []
1630238288.9708, 94, 0, 3957.949, 4313.846, 4061.538, 4122.564, 3910.256, 450, 0, []
1630238288.9786, 95, 0, 3954.359, 4325.128, 4061.026, 4120.513, 3917.436, 16193, 0, []
1630238288.9865, 96, 0, 3948.205, 4333.333, 4046.667, 4118.462, 3906.154, 450, 0, []
1630238288.9943, 97, 0, 3959.487, 4330.769, 4068.718, 4135.897, 3904.103, 450, 0, []
1630238289.0022, 98, 0, 3969.744, 4318.974, 4051.282, 4128.718, 3912.821, 450, 0, []
1630238289.0099, 99, 0, 3962.564, 4316.923, 4061.026, 4122.051, 3910.256, 16193, 0, []
1630238289.0179, 100, 0, 3964.103, 4333.333, 4084.615, 4134.359, 3905.128, 450, 0, []
1630238289.0258, 101, 0, 3972.308, 4335.385, 4065.641, 4135.897, 3906.667, 450, 0, []
1630238289.0338, 102, 0, 3967.179, 4328.718, 4069.231, 4140.513, 3906.154, 450, 0, []
1630238289.0417, 103, 0, 3955.897, 4325.128, 4057.949, 4138.974, 3894.872, 16193, 0, []
1630238289.0496, 104, 0, 3954.872, 4316.923, 4056.923, 4140, 3881.538, 450, 0, []
1630238289.0575, 105, 0, 3955.897, 4316.923, 4057.949, 4141.538, 3878.974, 450, 0, []
1630238289.0655, 106, 0, 3954.359, 4315.385, 4047.179, 4135.897, 3885.128, 450, 0, []
1630238289.0734, 107, 0, 3955.897, 4309.744, 4066.667, 4138.462, 3888.205, 16193, 0, []
1630238289.0814, 108, 0, 3953.333, 4311.282, 4040, 4120.513, 3876.923, 450, 0, []
1630238289.0892, 109, 0, 3950.256, 4307.692, 4032.308, 4115.897, 3874.359, 450, 0, []
1630238289.097, 110, 0, 3953.846, 4314.872, 4049.744, 4129.231, 3888.205, 450, 0, []
1630238289.1049, 111, 0, 3963.59, 4333.846, 4036.41, 4124.615, 3897.436, 16193, 0, []
1630238289.1127, 112, 0, 3977.436, 4323.077, 4064.103, 4135.897, 3907.179, 450, 0, []
1630238289.1206, 113, 0, 3977.436, 4292.821, 4070.769, 4140.513, 3912.821, 450, 0, []
1630238289.1283, 114, 0, 3970.769, 4297.436, 4071.795, 4135.385, 3913.846, 450, 0, []
1630238289.1362, 115, 0, 3979.487, 4325.128, 4098.462, 4138.974, 3925.128, 16193, 0, []
1630238289.144, 116, 0, 3989.231, 4318.974, 4100.513, 4141.538, 3928.718, 450, 0, []
1630238289.1519, 117, 0, 3978.974, 4272.821, 4109.744, 4149.231, 3908.205, 450, 0, []
1630238289.1597, 118, 0, 3965.641, 4250.256, 4088.205, 4136.923, 3895.385, 450, 0, []
1630238289.1676, 119, 0, 3967.179, 4264.103, 4075.385, 4130.769, 3905.641, 16193, 0, []
1630238289.1755, 120, 0, 3972.308, 4271.795, 4088.205, 4142.051, 3914.872, 450, 0, []
1630238289.1835, 121, 0, 3978.462, 4270.256, 4071.795, 4132.821, 3917.436, 450, 0, []
1630238289.1914, 122, 0, 3991.795, 4275.385, 4081.538, 4136.923, 3935.385, 450, 0, []
1630238289.1994, 123, 0, 4005.641, 4275.385, 4080, 4146.154, 3960, 16193, 0, []
1630238289.2072, 124, 0, 4010.769, 4260, 4083.59, 4142.051, 3963.077, 450, 0, []
1630238289.2152, 125, 0, 4009.744, 4238.462, 4103.077, 4144.103, 3949.744, 450, 0, []
1630238289.2231, 126, 0, 4006.154, 4231.282, 4083.077, 4143.077, 3946.154, 450, 0, []
1630238289.2311, 127, 0, 4001.026, 4261.538, 4096.923, 4152.308, 3955.897, 16193, 0, []
1630238289.239, 128, 0, 4003.077, 4279.487, 4094.872, 4150.769, 3957.949, 450, 0, []
1630238289.2468, 0, 0, 4011.282, 4244.103, 4076.923, 4137.949, 3962.564, 450, 0, []
1630238289.2546, 1, 0, 4022.051, 4246.667, 4093.846, 4147.179, 3974.872, 450, 0, []
1630238289.2624, 2, 0, 4027.692, 4276.923, 4084.615, 4153.333, 3976.923, 16184, 0, []
1630238289.2703, 3, 0, 4023.59, 4237.436, 4098.462, 4161.538, 3973.846, 450, 0, []
1630238289.2781, 4, 0, 4020.513, 4214.359, 4107.692, 4162.051, 3972.821, 16101, 0, []
1630238289.286, 5, 0, 4022.564, 4260.513, 4091.282, 4150.769, 3976.41, 450, 0, []
1630238289.2937, 6, 0, 4031.282, 4260.513, 4099.487, 4147.692, 3984.103, 16082, 0, []
1630238289.3017, 7, 0, 4029.231, 4210.769, 4084.103, 4131.282, 3978.462, 450, 0, []
1630238289.3096, 8, 0, 4017.436, 4218.462, 4085.128, 4133.846, 3955.897, 450, 0, []
1630238289.3176, 9, 0, 4025.641, 4260, 4093.846, 4154.359, 3957.436, 16057, 0, []
1630238289.3255, 10, 0, 4035.385, 4251.282, 4073.846, 4151.282, 3971.282, 450, 0, []
1630238289.3334, 11, 0, 4018.974, 4228.205, 4072.308, 4141.026, 3953.333, 16193, 0, []
1630238289.3413, 12, 0, 4018.974, 4237.949, 4068.205, 4134.872, 3960, 450, 0, []
1630238289.3493, 13, 0, 4064.103, 4247.179, 4081.538, 4140.513, 4018.462, 450, 0, []
1630238289.3572, 14, 0, 4106.667, 4247.692, 4080, 4144.103, 4064.615, 450, 0, []
1630238289.3652, 15, 0, 4129.231, 4259.487, 4053.846, 4145.128, 4101.026, 16193, 0, []
1630238289.373, 16, 0, 4154.359, 4263.077, 4081.538, 4163.077, 4152.821, 0, 0, []
1630238289.381, 17, 0, 4169.744, 4247.179, 4084.103, 4166.667, 4162.564, 0, 0, []
1630238289.3889, 18, 0, 4160, 4244.103, 4067.179, 4160, 4137.949, 0, 0, []
1630238289.3969, 19, 0, 4147.179, 4250.769, 4079.487, 4161.538, 4138.974, 0, 0, []
1630238289.4048, 20, 0, 4136.41, 4247.179, 4076.41, 4158.974, 4122.564, 0, 0, []
1630238289.4125, 21, 0, 4113.846, 4237.949, 4085.128, 4160.513, 4086.154, 0, 0, []
1630238289.4204, 22, 0, 4105.641, 4227.179, 4077.949, 4156.923, 4088.718, 0, 0, []
1630238289.4282, 23, 0, 4120.513, 4207.179, 4068.205, 4156.41, 4100, 0, 0, []
1630238289.4361, 24, 0, 4117.949, 4209.231, 4085.128, 4164.615, 4097.436, 0, 0, []
1630238289.4439, 25, 0, 4107.692, 4252.308, 4078.974, 4157.436, 4102.051, 0, 0, []
1630238289.4517, 26, 0, 4114.872, 4263.59, 4083.077, 4148.205, 4098.462, 0, 0, []
1630238289.4595, 27, 0, 4114.872, 4218.974, 4089.231, 4150.256, 4089.231, 0, 0, []
1630238289.4674, 28, 0, 4100.513, 4216.41, 4091.795, 4166.154, 4088.205, 0, 0, []
1630238289.4753, 29, 0, 4103.077, 4249.231, 4104.103, 4169.231, 4092.821, 0, 0, []
1630238289.4833, 30, 0, 4117.436, 4234.872, 4095.897, 4151.795, 4105.641, 0, 0, []
1630238289.4912, 31, 0, 4123.077, 4226.154, 4100, 4166.667, 4107.179, 0, 0, []
1630238289.4991, 32, 0, 4117.436, 4251.795, 4089.231, 4178.974, 4091.795, 0, 0, []
1630238289.507, 33, 0, 4108.718, 4225.128, 4078.462, 4160.513, 4087.692, 0, 0, []
1630238289.515, 34, 0, 4113.846, 4182.051, 4105.641, 4161.026, 4089.744, 0, 0, []
1630238289.5229, 35, 0, 4113.333, 4215.897, 4102.051, 4167.179, 4083.077, 0, 0, []
1630238289.5308, 36, 0, 4108.205, 4258.462, 4093.846, 4165.641, 4084.615, 0, 0, []
1630238289.5387, 37, 0, 4122.051, 4227.179, 4086.154, 4164.615, 4095.897, 0, 0, []
1630238289.5465, 38, 0, 4124.103, 4206.154, 4076.41, 4161.026, 4092.308, 0, 0, []
1630238289.5544, 39, 0, 4105.128, 4235.897, 4084.615, 4158.974, 4074.872, 0, 0, []
1630238289.5622, 40, 0, 4110.769, 4227.179, 4073.846, 4147.692, 4074.359, 0, 0, []
1630238289.5701, 41, 0, 4133.846, 4204.103, 4094.359, 4156.923, 4098.462, 0, 0, []
1630238289.5778, 42, 0, 4144.103, 4238.974, 4103.077, 4180, 4116.41, 0, 0, []
1630238289.5857, 43, 0, 4142.564, 4250.769, 4082.051, 4177.949, 4111.795, 0, 0, []
1630238289.5935, 44, 0, 4128.205, 4207.179, 4110.769, 4176.923, 4101.026, 0, 0, []
1630238289.6014, 45, 0, 4120.513, 4216.923, 4102.564, 4174.359, 4090.256, 0, 0, []
1630238289.6092, 46, 0, 4120.513, 4256.923, 4078.462, 4161.538, 4073.846, 0, 0, []
1630238289.617, 47, 0, 4093.846, 4239.487, 4086.154, 4151.795, 4041.538, 0, 0, []
1630238289.6248, 48, 0, 4049.744, 4212.821, 4073.333, 4144.103, 3994.872, 0, 0, []
1630238289.6328, 49, 0, 4023.077, 4221.538, 4068.718, 4148.718, 3964.103, 0, 0, []
1630238289.6407, 50, 0, 4026.154, 4224.103, 4068.205, 4156.41, 3969.744, 0, 0, []
1630238289.6487, 51, 0, 4046.667, 4210.256, 4078.462, 4161.026, 3997.436, 0, 0, []
1630238289.6565, 52, 0, 4065.128, 4218.974, 4080.513, 4160, 4018.974, 0, 0, []
1630238289.6645, 53, 0, 4066.154, 4232.308, 4065.641, 4164.615, 4014.872, 0, 0, []
1630238289.6724, 54, 0, 4053.846, 4215.385, 4090.769, 4184.103, 4003.59, 0, 0, []
1630238289.6804, 55, 0, 4047.692, 4193.846, 4085.641, 4173.846, 4008.205, 0, 0, []
1630238289.6883, 56, 0, 4058.974, 4198.462, 4064.615, 4156.41, 4020, 0, 0, []
1630238289.6962, 57, 0, 4077.949, 4215.385, 4081.026, 4165.641, 4028.718, 0, 0, []
1630238289.7041, 58, 0, 4080.513, 4217.949, 4081.026, 4171.795, 4030.769, 0, 0, []
1630238289.7121, 59, 0, 4064.103, 4210.256, 4086.154, 4177.436, 4022.564, 0, 0, []
1630238289.72, 60, 0, 4059.487, 4214.872, 4094.359, 4172.821, 4017.949, 0, 0, []
1630238289.7278, 61, 0, 4070.256, 4226.667, 4096.41, 4164.103, 4023.59, 0, 0, []
1630238289.7356, 62, 0, 4076.923, 4212.821, 4094.872, 4173.333, 4029.744, 0, 0, []
1630238289.7434, 63, 0, 4075.897, 4196.41, 4075.385, 4176.923, 4033.333, 0, 0, []
1630238289.7513, 64, 0, 4076.41, 4216.923, 4093.846, 4173.846, 4037.436, 450, 0, []
1630238289.7591, 65, 0, 4075.385, 4220.513, 4102.564, 4172.821, 4040, 450, 0, []
1630238289.767, 66, 0, 4069.744, 4192.308, 4092.821, 4171.795, 4035.897, 16190, 0, []
1630238289.7747, 67, 0, 4073.333, 4205.641, 4108.718, 4175.385, 4040, 450, 0, []
1630238289.7826, 68, 0, 4083.59, 4233.846, 4087.692, 4175.385, 4051.282, 16096, 0, []
1630238289.7904, 69, 0, 4082.051, 4221.026, 4081.538, 4179.487, 4053.846, 450, 0, []
1630238289.7984, 70, 0, 4082.051, 4216.41, 4095.385, 4172.821, 4049.231, 16079, 0, []
1630238289.8063, 71, 0, 4091.795, 4217.949, 4092.308, 4165.641, 4044.615, 450, 0, []
1630238289.8142, 72, 0, 4093.333, 4197.949, 4096.923, 4182.051, 4043.59, 450, 0, []
1630238289.8221, 73, 0, 4091.282, 4210.256, 4080.513, 4180, 4049.231, 16058, 0, []
1630238289.8301, 74, 0, 4097.949, 4235.385, 4083.59, 4166.667, 4053.846, 450, 0, []
1630238289.838, 75, 0, 4095.385, 4212.308, 4089.231, 4156.41, 4051.795, 16204, 0, []
1630238289.846, 76, 0, 4086.667, 4201.538, 4069.231, 4149.231, 4052.308, 450, 0, []
1630238289.8539, 77, 0, 4101.026, 4213.846, 4075.897, 4155.385, 4065.641, 450, 0, []
1630238289.8618, 78, 0, 4119.487, 4206.154, 4080.513, 4152.821, 4078.974, 450, 0, []
1630238289.8697, 79, 0, 4110.256, 4205.641, 4092.821, 4159.487, 4068.718, 16204, 0, []
1630238289.8775, 80, 0, 4090.256, 4216.41, 4089.231, 4166.154, 4053.846, 450, 0, []
1630238289.8854, 81, 0, 4091.282, 4229.231, 4058.974, 4154.359, 4068.718, 450, 0, []
1630238289.8931, 82, 0, 4127.179, 4235.385, 4076.923, 4160.513, 4101.026, 450, 0, []
1630238289.901, 83, 0, 4145.641, 4217.436, 4081.026, 4161.538, 4106.667, 16204, 0, []
1630238289.9088, 84, 0, 4123.077, 4213.333, 4071.795, 4155.897, 4090.769, 450, 0, []
1630238289.9168, 85, 0, 4126.154, 4233.846, 4091.795, 4169.744, 4093.846, 450, 0, []
1630238289.9247, 86, 0, 4151.795, 4203.077, 4108.718, 4189.231, 4113.846, 450, 0, []
1630238289.9326, 87, 0, 4151.282, 4164.615, 4122.564, 4209.231, 4118.974, 16204, 0, []
1630238289.9405, 88, 0, 4145.128, 4201.538, 4102.564, 4204.103, 4118.974, 450, 0, []
1630238289.9484, 89, 0, 4132.821, 4232.308, 4089.744, 4186.667, 4117.436, 450, 0, []
1630238289.9564, 90, 0, 4117.436, 4236.923, 4094.359, 4186.667, 4089.744, 450, 0, []
1630238289.9643, 91, 0, 4142.564, 4249.744, 4086.667, 4183.077, 4081.538, 16204, 0, []
1630238289.9723, 92, 0, 4181.538, 4240.513, 4118.974, 4172.308, 4118.462, 450, 0, []
1630238289.9801, 93, 0, 4189.231, 4236.923, 4116.923, 4148.718, 4130.256, 450, 0, []
1630238289.9881, 94, 0, 4182.051, 4244.615, 4085.128, 4137.949, 4106.667, 450, 0, []
1630238289.996, 95, 0, 4172.308, 4240, 4094.359, 4159.487, 4105.128, 16204, 0, []
1630238290.004, 96, 0, 4164.103, 4234.872, 4095.385, 4180.513, 4112.821, 450, 0, []
1630238290.0119, 97, 0, 4167.179, 4226.667, 4101.026, 4198.462, 4095.897, 450, 0, []
1630238290.0198, 98, 0, 4156.41, 4206.667, 4083.077, 4190.769, 4081.026, 450, 0, []
1630238290.0277, 99, 0, 4143.59, 4210.256, 4060.513, 4168.205, 4088.718, 16204, 0, []
1630238290.0357, 100, 0, 4174.872, 4249.744, 4088.205, 4183.59, 4105.128, 450, 0, []
1630238290.0436, 101, 0, 4204.615, 4269.231, 4098.462, 4198.462, 4117.949, 450, 0, []
1630238290.0516, 102, 0, 4180, 4242.051, 4095.897, 4198.462, 4124.615, 450, 0, []
1630238290.0594, 103, 0, 4157.949, 4224.615, 4082.564, 4201.538, 4122.564, 16204, 0, []
1630238290.0674, 104, 0, 4178.462, 4251.795, 4084.103, 4196.923, 4118.974, 450, 0, []
1630238290.0753, 105, 0, 4186.154, 4257.949, 4110.769, 4182.051, 4125.641, 450, 0, []
1630238290.0833, 106, 0, 4170.769, 4228.718, 4091.282, 4164.615, 4126.667, 450, 0, []
1630238290.0912, 107, 0, 4172.308, 4238.974, 4088.205, 4158.974, 4108.205, 16204, 0, []
1630238290.0991, 108, 0, 4164.615, 4260.513, 4098.974, 4145.641, 4093.333, 450, 0, []
1630238290.1071, 109, 0, 4152.308, 4245.641, 4086.154, 4138.462, 4095.897, 450, 0, []
1630238290.115, 110, 0, 4168.205, 4236.41, 4097.436, 4164.103, 4101.538, 450, 0, []
1630238290.123, 111, 0, 4162.564, 4247.692, 4082.564, 4160, 4091.282, 16204, 0, []
1630238290.1309, 112, 0, 4159.487, 4263.59, 4085.641, 4157.436, 4106.667, 450, 0, []
1630238290.1388, 113, 0, 4236.41, 4292.308, 4132.308, 4218.974, 4177.949, 450, 0, []
1630238290.1467, 114, 0, 4283.077, 4313.846, 4144.615, 4248.205, 4212.821, 450, 0, []
1630238290.1547, 115, 0, 4217.436, 4309.744, 4126.667, 4205.641, 4169.231, 16204, 0, []
1630238290.1626, 116, 0, 4177.949, 4275.385, 4089.744, 4166.154, 4129.744, 450, 0, []
1630238290.1706, 117, 0, 4213.333, 4263.59, 4100, 4181.538, 4133.333, 450, 0, []
1630238290.1784, 118, 0, 4218.462, 4317.436, 4131.282, 4198.974, 4142.564, 450, 0, []
1630238290.1864, 119, 0, 4188.205, 4343.077, 4116.41, 4184.103, 4147.179, 16204, 0, []
1630238290.1943, 120, 0, 4196.923, 4310.769, 4127.179, 4208.718, 4160, 450, 0, []
1630238290.2023, 121, 0, 4196.41, 4298.462, 4134.359, 4228.205, 4158.974, 450, 0, []
1630238290.2102, 122, 0, 4147.692, 4285.641, 4123.59, 4211.282, 4148.718, 450, 0, []
1630238290.2181, 123, 0, 4133.846, 4266.154, 4123.59, 4220.513, 4162.051, 16204, 0, []
1630238290.226, 124, 0, 4155.897, 4243.077, 4126.154, 4243.077, 4181.026, 450, 0, []
1630238290.234, 125, 0, 4133.846, 4156.923, 4141.538, 4244.615, 4169.744, 450, 0, []
1630238290.2419, 126, 0, 4091.282, 4054.359, 4111.795, 4222.051, 4131.795, 450, 0, []
1630238290.2499, 127, 0, 4082.564, 4033.846, 4088.205, 4201.026, 4112.308, 16204, 0, []
1630238290.2578, 128, 0, 4101.538, 4049.231, 4120, 4206.667, 4134.359, 450, 0, []
1630238290.2657, 0, 0, 4122.051, 4042.051, 4126.667, 4217.949, 4143.59, 450, 0, []
1630238290.2737, 1, 0, 4138.974, 4054.872, 4134.872, 4222.564, 4141.026, 450, 0, []
1630238290.2816, 2, 0, 4157.436, 4079.487, 4146.667, 4228.718, 4166.154, 16194, 0, []
1630238290.2896, 3, 0, 4156.41, 4082.564, 4132.821, 4230.256, 4165.128, 450, 0, []
1630238290.2974, 4, 0, 4145.641, 4070.256, 4132.821, 4228.205, 4145.641, 16086, 0, []
1630238290.3054, 5, 0, 4164.615, 4056.41, 4151.795, 4237.436, 4177.436, 450, 0, []
1630238290.3133, 6, 0, 4167.179, 4066.667, 4153.846, 4240.513, 4175.897, 16079, 0, []
1630238290.3213, 7, 0, 4131.795, 4065.128, 4112.308, 4208.205, 4126.154, 450, 0, []
1630238290.3292, 8, 0, 4134.872, 4046.154, 4125.641, 4208.205, 4149.231, 450, 0, []
1630238290.3372, 9, 0, 4163.077, 4060.513, 4168.718, 4245.128, 4177.949, 16060, 0, []
1630238290.345, 10, 0, 4156.41, 4086.667, 4130.769, 4219.487, 4142.564, 450, 0, []
1630238290.353, 11, 0, 4149.231, 4061.538, 4130.769, 4200.513, 4137.949, 16203, 0, []
1630238290.3609, 12, 0, 4174.872, 4045.128, 4158.974, 4241.026, 4168.205, 450, 0, []
1630238290.3689, 13, 0, 4201.026, 4080, 4150.769, 4260.513, 4177.436, 450, 0, []
1630238290.3768, 14, 0, 4189.231, 4083.077, 4168.718, 4254.359, 4179.487, 450, 0, []
1630238290.3847, 15, 0, 4176.923, 4071.282, 4172.821, 4250.769, 4183.59, 16203, 0, []
1630238290.3927, 16, 0, 4177.436, 4077.949, 4158.974, 4239.487, 4156.923, 0, 0, []
1630238290.4006, 17, 0, 4146.667, 4065.128, 4141.538, 4214.359, 4120, 0, 0, []
1630238290.4086, 18, 0, 4133.333, 4075.385, 4146.154, 4211.282, 4129.231, 0, 0, []
1630238290.4165, 19, 0, 4152.821, 4110.256, 4183.077, 4231.795, 4143.077, 0, 0, []
1630238290.4244, 20, 0, 4119.487, 4095.385, 4161.538, 4203.59, 4098.974, 0, 0, []
1630238290.4323, 21, 0, 4110.769, 4089.231, 4164.103, 4211.795, 4096.41, 0, 0, []
1630238290.4403, 22, 0, 4234.359, 4172.308, 4240.513, 4318.462, 4202.564, 0, 0, []
1630238290.4482, 23, 0, 4311.282, 4224.615, 4276.41, 4358.462, 4262.051, 0, 0, []
1630238290.4561, 24, 0, 4251.282, 4183.59, 4268.718, 4307.692, 4224.615, 0, 0, []
1630238290.4639, 25, 0, 4209.744, 4164.615, 4230.256, 4273.333, 4193.846, 0, 0, []
1630238290.4719, 26, 0, 4240, 4207.692, 4220, 4291.282, 4195.897, 0, 0, []
1630238290.4798, 27, 0, 4287.692, 4225.128, 4262.051, 4326.154, 4227.692, 0, 0, []
1630238290.4878, 28, 0, 4240.513, 4157.436, 4236.41, 4281.538, 4203.077, 0, 0, []
1630238290.4957, 29, 0, 4120, 4098.974, 4156.923, 4190.769, 4091.282, 0, 0, []
1630238290.5036, 30, 0, 4144.615, 4149.231, 4160.513, 4204.615, 4090.769, 0, 0, []
1630238290.5115, 31, 0, 4286.667, 4223.59, 4262.564, 4304.103, 4226.667, 0, 0, []
1630238290.5195, 32, 0, 4278.462, 4203.59, 4263.59, 4302.051, 4243.59, 0, 0, []
1630238290.5274, 33, 0, 4176.41, 4143.077, 4163.077, 4211.282, 4135.897, 0, 0, []
1630238290.5354, 34, 0, 4192.821, 4137.949, 4166.154, 4213.846, 4125.128, 0, 0, []
1630238290.5432, 35, 0, 4228.718, 4156.923, 4191.282, 4244.103, 4169.744, 0, 0, []
1630238290.5512, 36, 0, 4203.59, 4162.564, 4185.641, 4233.333, 4158.974, 0, 0, []
1630238290.5592, 37, 0, 4219.487, 4175.897, 4213.333, 4253.333, 4151.795, 0, 0, []
1630238290.5671, 38, 0, 4259.487, 4178.462, 4220, 4260.513, 4170.256, 0, 0, []
1630238290.575, 39, 0, 4262.051, 4158.974, 4228.718, 4254.359, 4193.333, 0, 0, []
1630238290.5829, 40, 0, 4273.333, 4187.179, 4246.667, 4274.872, 4229.231, 0, 0, []
1630238290.5909, 41, 0, 4308.205, 4234.872, 4252.821, 4292.308, 4247.179, 0, 0, []
1630238290.5988, 42, 0, 4271.282, 4193.333, 4214.872, 4254.359, 4189.744, 0, 0, []
1630238290.6068, 43, 0, 4181.026, 4131.282, 4143.077, 4187.692, 4117.949, 0, 0, []
1630238290.6147, 44, 0, 4185.128, 4148.205, 4177.436, 4208.718, 4132.821, 0, 0, []
1630238290.6226, 45, 0, 4254.359, 4180, 4231.795, 4254.359, 4167.692, 0, 0, []
1630238290.6305, 46, 0, 4272.308, 4182.051, 4226.667, 4246.154, 4168.718, 0, 0, []
1630238290.6385, 47, 0, 4284.615, 4189.744, 4261.538, 4281.026, 4209.744, 0, 0, []
1630238290.6464, 48, 0, 4294.359, 4170.769, 4263.59, 4297.949, 4233.846, 0, 0, []
1630238290.6544, 49, 0, 4266.667, 4141.538, 4224.615, 4249.744, 4182.564, 0, 0, []
1630238290.6622, 50, 0, 4298.462, 4173.333, 4245.641, 4270.769, 4193.333, 0, 0, []
1630238290.6702, 51, 0, 4347.692, 4188.718, 4283.59, 4317.436, 4246.154, 0, 0, []
1630238290.6781, 52, 0, 4330.256, 4164.615, 4278.974, 4301.026, 4244.103, 0, 0, []
1630238290.6861, 53, 0, 4363.077, 4196.923, 4282.051, 4309.744, 4287.179, 0, 0, []
1630238290.694, 54, 0, 4442.051, 4257.436, 4333.846, 4368.718, 4372.308, 0, 0, []
1630238290.7017, 55, 0, 4451.795, 4270.769, 4352.821, 4385.128, 4382.051, 0, 0, []
1630238290.7096, 56, 0, 4451.795, 4271.282, 4357.949, 4376.41, 4365.128, 0, 0, []
1630238290.7174, 57, 0, 4544.615, 4339.487, 4451.795, 4453.846, 4448.205, 0, 0, []
1630238290.7254, 58, 0, 4632.821, 4420.513, 4509.744, 4512.821, 4546.154, 0, 0, []
1630238290.7333, 59, 0, 4603.59, 4402.051, 4471.795, 4462.564, 4508.205, 0, 0, []
1630238290.7413, 60, 0, 4578.974, 4356.41, 4452.308, 4436.923, 4458.974, 0, 0, []
1630238290.7491, 61, 0, 4641.538, 4397.949, 4487.179, 4485.128, 4518.974, 0, 0, []
1630238290.7571, 62, 0, 4707.692, 4449.744, 4558.462, 4543.59, 4610.256, 0, 0, []
1630238290.765, 63, 0, 4789.744, 4462.564, 4632.308, 4612.821, 4711.795, 0, 0, []
1630238290.773, 64, 0, 4848.205, 4465.128, 4653.333, 4651.282, 4760.513, 450, 0, []
1630238290.7809, 65, 0, 4756.41, 4429.231, 4570.256, 4568.205, 4661.026, 450, 0, []
1630238290.7888, 66, 0, 4684.103, 4400, 4531.795, 4505.641, 4609.744, 16189, 0, []
1630238290.7967, 67, 0, 4752.308, 4433.333, 4613.333, 4566.154, 4681.538, 450, 0, []
1630238290.8047, 68, 0, 4773.333, 4468.718, 4609.231, 4570.769, 4673.333, 16086, 0, []
1630238290.8126, 69, 0, 4768.205, 4467.692, 4597.949, 4571.282, 4677.436, 450, 0, []
1630238290.8206, 70, 0, 4837.436, 4470.256, 4675.385, 4641.026, 4769.231, 16080, 0, []
1630238290.8284, 71, 0, 4874.872, 4494.872, 4703.077, 4639.487, 4791.795, 450, 0, []
1630238290.8362, 72, 0, 4830.256, 4491.795, 4694.872, 4594.872, 4753.333, 450, 0, []
1630238290.8441, 73, 0, 4758.974, 4436.41, 4650.256, 4534.872, 4696.41, 322, 0, []
1630238290.8519, 74, 0, 4736.923, 4407.692, 4605.641, 4497.436, 4652.308, 450, 0, []
1630238290.8598, 75, 0, 4749.231, 4397.436, 4614.359, 4532.821, 4662.051, 16198, 0, []
1630238290.8675, 76, 0, 4704.615, 4338.974, 4584.103, 4503.59, 4644.103, 450, 0, []
1630238290.8755, 77, 0, 4672.308, 4317.949, 4572.308, 4464.103, 4601.538, 450, 0, []
1630238290.8834, 78, 0, 4705.641, 4326.667, 4600, 4510.769, 4609.231, 450, 0, []
1630238290.8914, 79, 0, 4692.308, 4282.051, 4582.564, 4524.103, 4608.205, 16198, 0, []
1630238290.8993, 80, 0, 4657.436, 4269.744, 4569.744, 4494.872, 4595.385, 450, 0, []
1630238290.9072, 81, 0, 4665.128, 4285.641, 4568.718, 4479.487, 4609.231, 450, 0, []
1630238290.9151, 82, 0, 4652.821, 4244.103, 4556.41, 4473.846, 4585.641, 450, 0, []
1630238290.9231, 83, 0, 4649.231, 4221.538, 4547.179, 4483.59, 4562.564, 16198, 0, []
1630238290.931, 84, 0, 4654.359, 4240, 4517.949, 4477.436, 4565.128, 450, 0, []
1630238290.939, 85, 0, 4581.538, 4211.795, 4459.487, 4429.744, 4515.897, 450, 0, []
1630238290.9468, 86, 0, 4501.026, 4147.179, 4402.564, 4381.538, 4450.769, 450, 0, []
1630238290.9548, 87, 0, 4485.128, 4127.692, 4390.256, 4372.821, 4428.205, 16198, 0, []
1630238290.9627, 88, 0, 4463.077, 4127.692, 4372.308, 4357.949, 4400.513, 450, 0, []
1630238290.9707, 89, 0, 4411.282, 4074.359, 4322.564, 4321.026, 4346.667, 450, 0, []
1630238290.9786, 90, 0, 4382.051, 4018.974, 4310.769, 4316.923, 4318.462, 450, 0, []
1630238290.9864, 91, 0, 4373.846, 4026.667, 4296.41, 4305.128, 4317.949, 16198, 0, []
1630238290.9943, 92, 0, 4365.641, 4031.795, 4283.077, 4286.667, 4324.103, 450, 0, []
1630238291.0021, 93, 0, 4333.846, 3978.462, 4272.308, 4278.462, 4309.231, 450, 0, []
1630238291.01, 94, 0, 4282.564, 3925.128, 4219.487, 4249.231, 4261.538, 450, 0, []
1630238291.0178, 95, 0, 4260, 3925.641, 4192.821, 4228.718, 4220, 16198, 0, []
1630238291.0256, 96, 0, 4250.769, 3938.462, 4186.667, 4209.231, 4201.026, 450, 0, []
1630238291.0334, 97, 0, 4212.308, 3896.923, 4179.487, 4192.821, 4181.538, 450, 0, []
1630238291.0414, 98, 0, 4177.436, 3850.256, 4168.718, 4192.821, 4158.974, 450, 0, []
1630238291.0493, 99, 0, 4172.308, 3865.641, 4135.385, 4181.026, 4148.718, 16198, 0, []
1630238291.0573, 100, 0, 4178.462, 3872.308, 4144.103, 4180.513, 4169.231, 450, 0, []
1630238291.0651, 101, 0, 4197.436, 3833.333, 4154.872, 4189.744, 4201.538, 450, 0, []
1630238291.0731, 102, 0, 4227.692, 3826.667, 4133.333, 4193.333, 4211.282, 450, 0, []
1630238291.081, 103, 0, 4249.744, 3834.359, 4136.923, 4186.154, 4217.436, 16198, 0, []
1630238291.089, 104, 0, 4271.282, 3820.513, 4129.744, 4174.359, 4254.359, 450, 0, []
1630238291.0969, 105, 0, 4316.41, 3833.846, 4109.744, 4188.205, 4305.641, 450, 0, []
1630238291.1049, 106, 0, 4363.59, 3857.436, 4089.744, 4180, 4327.692, 450, 0, []
1630238291.1127, 107, 0, 4372.821, 3839.487, 4076.41, 4135.385, 4315.385, 16198, 0, []
1630238291.1207, 108, 0, 4358.462, 3817.949, 4100, 4121.026, 4310.769, 450, 0, []
1630238291.1286, 109, 0, 4355.385, 3826.667, 4116.923, 4142.564, 4336.41, 450, 0, []
1630238291.1364, 110, 0, 4351.282, 3828.718, 4131.282, 4184.615, 4351.795, 450, 0, []
1630238291.1443, 111, 0, 4334.359, 3836.923, 4129.744, 4204.103, 4335.897, 16198, 0, []
1630238291.152, 112, 0, 4329.231, 3868.718, 4109.231, 4192.821, 4322.051, 450, 0, []
1630238291.1599, 113, 0, 4324.103, 3871.795, 4118.974, 4185.641, 4322.564, 450, 0, []
1630238291.1677, 114, 0, 4300.513, 3844.103, 4121.538, 4173.846, 4329.231, 450, 0, []
1630238291.1756, 115, 0, 4275.897, 3844.103, 4114.359, 4166.667, 4328.718, 16198, 0, []
1630238291.1834, 116, 0, 4272.308, 3868.205, 4098.462, 4170.256, 4315.897, 450, 0, []
1630238291.1913, 117, 0, 4286.154, 3874.359, 4083.59, 4184.615, 4309.231, 450, 0, []
1630238291.1992, 118, 0, 4282.564, 3882.051, 4109.744, 4192.308, 4308.718, 450, 0, []
1630238291.2072, 119, 0, 4251.282, 3882.051, 4120, 4171.795, 4301.026, 16198, 0, []
1630238291.2151, 120, 0, 4239.487, 3860, 4120.513, 4183.59, 4296.923, 450, 0, []
1630238291.2231, 121, 0, 4251.795, 3865.128, 4111.795, 4199.487, 4295.385, 450, 0, []
1630238291.2309, 122, 0, 4242.051, 3878.974, 4076.41, 4173.846, 4290.256, 450, 0, []
1630238291.2389, 123, 0, 4226.154, 3856.41, 4083.077, 4182.051, 4300, 16198, 0, []
1630238291.2468, 124, 0, 4232.821, 3846.154, 4082.051, 4200, 4303.59, 450, 0, []
1630238291.2548, 125, 0, 4222.564, 3861.026, 4063.59, 4176.923, 4275.897, 450, 0, []
1630238291.2627, 126, 0, 4183.077, 3855.897, 4057.436, 4150.769, 4249.231, 450, 0, []
1630238291.2706, 127, 0, 4165.128, 3850.769, 4032.308, 4147.692, 4242.564, 16198, 0, []
1630238291.2785, 128, 0, 4168.205, 3864.615, 4036.923, 4154.359, 4235.897, 450, 0, []
1630238291.2863, 0, 0, 4151.795, 3852.821, 4045.128, 4145.128, 4220.513, 450, 0, []
1630238291.2942, 1, 0, 4132.821, 3837.436, 4035.385, 4148.718, 4205.641, 450, 0, []
1630238291.302, 2, 0, 4144.103, 3869.231, 4047.692, 4156.923, 4214.872, 16196, 0, []
1630238291.3098, 3, 0, 4162.051, 3889.744, 4058.462, 4156.923, 4243.077, 450, 0, []
1630238291.3176, 4, 0, 4156.41, 3863.077, 4067.179, 4172.821, 4237.949, 16088, 0, []
1630238291.3255, 5, 0, 4138.974, 3846.667, 4052.821, 4155.897, 4213.846, 450, 0, []
1630238291.3333, 6, 0, 4138.974, 3858.462, 4049.231, 4140.513, 4226.667, 16079, 0, []
1630238291.3413, 7, 0, 4158.462, 3862.051, 4061.026, 4170.769, 4243.077, 450, 0, []
1630238291.3491, 8, 0, 4157.949, 3851.282, 4027.179, 4166.154, 4233.333, 450, 0, []
1630238291.3571, 9, 0, 4135.897, 3862.564, 4023.077, 4140.513, 4227.179, 16060, 0, []
1630238291.365, 10, 0, 4143.59, 3880, 4038.462, 4147.179, 4225.128, 450, 0, []
1630238291.373, 11, 0, 4155.897, 3873.333, 4034.359, 4166.154, 4224.615, 16194, 0, []
1630238291.3809, 12, 0, 4142.564, 3884.103, 4037.436, 4165.128, 4234.359, 450, 0, []
1630238291.3888, 13, 0, 4144.103, 3921.538, 4022.564, 4156.923, 4228.205, 450, 0, []
1630238291.3967, 14, 0, 4154.359, 3936.923, 4027.692, 4163.077, 4224.103, 450, 0, []
1630238291.4047, 15, 0, 4142.564, 3910.256, 4026.154, 4151.282, 4231.795, 16194, 0, []
1630238291.4126, 16, 0, 4134.872, 3887.692, 4007.179, 4138.974, 4218.974, 0, 0, []
1630238291.4206, 17, 0, 4135.385, 3901.026, 4012.308, 4151.795, 4204.103, 0, 0, []
1630238291.4284, 18, 0, 4129.231, 3919.487, 3996.923, 4149.744, 4211.795, 0, 0, []
1630238291.4363, 19, 0, 4132.308, 3917.436, 4006.154, 4149.744, 4216.923, 0, 0, []
1630238291.4442, 20, 0, 4138.462, 3914.872, 4026.667, 4163.077, 4215.385, 0, 0, []
1630238291.452, 21, 0, 4142.051, 3941.538, 4009.231, 4170.256, 4216.41, 0, 0, []
1630238291.4599, 22, 0, 4149.744, 3947.692, 4014.359, 4168.718, 4220, 0, 0, []
1630238291.4678, 23, 0, 4145.128, 3927.692, 4023.59, 4157.949, 4226.154, 0, 0, []
1630238291.4757, 24, 0, 4133.333, 3942.051, 4014.872, 4162.051, 4220, 0, 0, []
1630238291.4837, 25, 0, 4134.872, 3954.872, 3996.41, 4156.41, 4213.333, 0, 0, []
1630238291.4916, 26, 0, 4140, 3931.282, 3996.923, 4148.718, 4227.692, 0, 0, []
1630238291.4995, 27, 0, 4140, 3940.513, 4034.872, 4170.769, 4222.051, 0, 0, []
1630238291.5075, 28, 0, 4138.462, 3983.077, 4022.564, 4162.564, 4202.564, 0, 0, []
1630238291.5153, 29, 0, 4138.462, 3976.41, 4003.077, 4149.231, 4216.41, 0, 0, []
1630238291.5233, 30, 0, 4142.564, 3962.564, 4016.923, 4170.256, 4220, 0, 0, []
1630238291.5312, 31, 0, 4140.513, 3990.769, 4008.718, 4165.641, 4199.487, 0, 0, []
1630238291.5392, 32, 0, 4141.026, 4005.128, 4018.974, 4154.872, 4211.795, 0, 0, []
1630238291.5471, 33, 0, 4158.462, 4014.872, 4021.026, 4168.205, 4231.795, 0, 0, []
1630238291.555, 34, 0, 4171.282, 4045.128, 4020, 4178.974, 4229.744, 0, 0, []
1630238291.5629, 35, 0, 4166.667, 4085.128, 4032.821, 4179.487, 4236.41, 0, 0, []
1630238291.5709, 36, 0, 4167.179, 4129.744, 4013.333, 4177.949, 4234.359, 0, 0, []
1630238291.5788, 37, 0, 4170.256, 4150.769, 4012.821, 4168.205, 4218.462, 0, 0, []
1630238291.5866, 38, 0, 4165.128, 4154.359, 4018.974, 4151.795, 4225.128, 0, 0, []
1630238291.5944, 39, 0, 4166.667, 4174.359, 4015.385, 4162.051, 4229.744, 0, 0, []
1630238291.6022, 40, 0, 4168.205, 4181.026, 4014.872, 4164.103, 4211.795, 0, 0, []
1630238291.6101, 41, 0, 4162.051, 4173.846, 3997.949, 4140, 4216.923, 0, 0, []
1630238291.6179, 42, 0, 4174.872, 4208.205, 4010.769, 4155.385, 4243.077, 0, 0, []
1630238291.6259, 43, 0, 4208.718, 4245.641, 4016.41, 4173.846, 4257.436, 0, 0, []
1630238291.6337, 44, 0, 4229.231, 4233.333, 4010.256, 4156.41, 4277.949, 0, 0, []
1630238291.6416, 45, 0, 4249.231, 4225.128, 4028.718, 4162.564, 4324.103, 0, 0, []
1630238291.6494, 46, 0, 4301.538, 4237.949, 4021.026, 4188.205, 4375.385, 0, 0, []
1630238291.6574, 47, 0, 4352.308, 4245.128, 4020.513, 4189.231, 4403.59, 0, 0, []
1630238291.6653, 48, 0, 4381.538, 4258.462, 4022.564, 4174.359, 4420.513, 0, 0, []
1630238291.6732, 49, 0, 4400, 4267.179, 4011.795, 4174.872, 4453.333, 0, 0, []
1630238291.6811, 50, 0, 4393.333, 4244.615, 4012.821, 4173.333, 4471.282, 0, 0, []
1630238291.6891, 51, 0, 4368.205, 4232.821, 3981.538, 4152.308, 4449.744, 0, 0, []
1630238291.697, 52, 0, 4343.077, 4246.154, 3960, 4149.744, 4410.256, 0, 0, []
1630238291.705, 53, 0, 4316.923, 4250.769, 3952.308, 4145.641, 4371.795, 0, 0, []
1630238291.7128, 54, 0, 4292.821, 4246.154, 3946.154, 4119.487, 4330.256, 0, 0, []
1630238291.7208, 55, 0, 4270.769, 4241.026, 3964.615, 4116.923, 4304.103, 0, 0, []
1630238291.7287, 56, 0, 4246.154, 4251.795, 3950.769, 4127.692, 4308.205, 0, 0, []
1630238291.7365, 57, 0, 4231.282, 4271.795, 3949.231, 4135.897, 4299.487, 0, 0, []
1630238291.7444, 58, 0, 4227.179, 4253.333, 3962.564, 4143.077, 4262.564, 0, 0, []
1630238291.7521, 59, 0, 4215.385, 4230.256, 3955.897, 4137.436, 4247.692, 0, 0, []
1630238291.76, 60, 0, 4210.256, 4261.026, 3977.436, 4138.462, 4262.051, 0, 0, []
1630238291.7678, 61, 0, 4216.923, 4280, 3967.179, 4138.974, 4250.769, 0, 0, []
1630238291.7757, 62, 0, 4210.256, 4262.051, 3946.667, 4128.718, 4216.923, 0, 0, []
1630238291.7835, 63, 0, 4192.308, 4262.564, 3961.538, 4124.615, 4209.744, 0, 0, []
1630238291.7913, 64, 0, 4191.282, 4269.231, 3971.795, 4135.385, 4218.462, 450, 0, []
1630238291.7991, 65, 0, 4206.667, 4270.256, 3989.744, 4156.923, 4213.333, 450, 0, []
1630238291.8071, 66, 0, 4202.564, 4276.41, 3979.487, 4152.308, 4211.795, 16194, 0, []
1630238291.815, 67, 0, 4182.564, 4262.564, 3969.231, 4150.769, 4214.872, 450, 0, []
1630238291.823, 68, 0, 4185.128, 4245.641, 3974.872, 4167.179, 4205.128, 16083, 0, []
1630238291.8309, 69, 0, 4195.385, 4260, 3960.513, 4155.897, 4193.846, 450, 0, []
1630238291.8388, 70, 0, 4178.974, 4284.615, 3976.41, 4152.308, 4192.821, 16074, 0, []
1630238291.8467, 71, 0, 4167.179, 4302.564, 3978.974, 4155.897, 4181.538, 450, 0, []
1630238291.8547, 72, 0, 4170.256, 4293.846, 3961.026, 4131.795, 4157.436, 450, 0, []
1630238291.8626, 73, 0, 4166.667, 4265.641, 3966.154, 4125.641, 4154.872, 16059, 0, []
1630238291.8706, 74, 0, 4173.333, 4269.231, 3968.718, 4153.846, 4174.359, 450, 0, []
1630238291.8784, 75, 0, 4181.538, 4297.949, 3995.897, 4164.103, 4170.256, 16192, 0, []
1630238291.8864, 76, 0, 4159.487, 4303.077, 3996.41, 4133.333, 4146.154, 450, 0, []
1630238291.8943, 77, 0, 4145.641, 4293.846, 3968.718, 4121.538, 4139.487, 450, 0, []
1630238291.9021, 78, 0, 4163.077, 4294.359, 3969.231, 4135.897, 4141.538, 450, 0, []
1630238291.91, 79, 0, 4152.308, 4283.077, 3955.385, 4125.128, 4131.282, 16192, 0, []
1630238291.9177, 80, 0, 4127.179, 4270.256, 3955.897, 4117.949, 4126.667, 450, 0, []
1630238291.9256, 81, 0, 4145.641, 4274.359, 3965.641, 4124.103, 4130.256, 450, 0, []
1630238291.9334, 82, 0, 4158.462, 4264.615, 3964.103, 4129.231, 4129.231, 450, 0, []
1630238291.9414, 83, 0, 4140, 4241.538, 3972.821, 4132.821, 4121.538, 16192, 0, []
1630238291.9493, 84, 0, 4133.846, 4231.282, 3967.692, 4116.923, 4111.795, 450, 0, []
1630238291.9572, 85, 0, 4138.974, 4244.103, 3980.513, 4122.051, 4115.897, 450, 0, []
1630238291.9651, 86, 0, 4145.128, 4264.615, 3973.846, 4146.667, 4134.872, 450, 0, []
1630238291.9731, 87, 0, 4156.923, 4263.59, 3947.692, 4143.59, 4139.487, 16192, 0, []
1630238291.981, 88, 0, 4153.333, 4249.744, 3973.846, 4142.051, 4137.949, 450, 0, []
1630238291.989, 89, 0, 4147.179, 4253.846, 3977.436, 4148.205, 4140, 450, 0, []
1630238291.9968, 90, 0, 4154.872, 4266.154, 3970.769, 4143.59, 4128.718, 450, 0, []
1630238292.0048, 91, 0, 4145.641, 4251.282, 3976.41, 4139.487, 4116.923, 16192, 0, []
1630238292.0127, 92, 0, 4128.718, 4234.359, 3955.385, 4141.538, 4105.128, 450, 0, []
1630238292.0207, 93, 0, 4127.179, 4230.769, 3958.974, 4138.462, 4089.231, 450, 0, []
1630238292.0286, 94, 0, 4130.256, 4223.59, 3972.308, 4132.308, 4096.41, 450, 0, []
1630238292.0365, 95, 0, 4128.205, 4223.59, 3977.949, 4148.205, 4104.103, 16192, 0, []
1630238292.0444, 96, 0, 4125.128, 4225.641, 3965.128, 4150.769, 4094.872, 450, 0, []
1630238292.0522, 97, 0, 4131.282, 4229.231, 3951.795, 4138.974, 4108.718, 450, 0, []
1630238292.0601, 98, 0, 4143.59, 4251.282, 3978.974, 4157.436, 4122.051, 450, 0, []
1630238292.0679, 99, 0, 4138.462, 4257.949, 3972.821, 4157.436, 4107.179, 16192, 0, []
1630238292.0757, 100, 0, 4121.538, 4228.205, 3966.667, 4140.513, 4100, 450, 0, []
1630238292.0835, 101, 0, 4125.128, 4235.385, 3979.487, 4144.615, 4097.436, 450, 0, []
1630238292.0914, 102, 0, 4138.462, 4269.231, 3964.103, 4140.513, 4095.385, 450, 0, []
1630238292.0992, 103, 0, 4137.436, 4244.103, 3976.41, 4136.923, 4108.718, 16192, 0, []
1630238292.1071, 104, 0, 4136.923, 4234.359, 3985.128, 4146.667, 4106.154, 450, 0, []
1630238292.1148, 105, 0, 4143.077, 4271.795, 3984.103, 4153.846, 4102.564, 450, 0, []
1630238292.1228, 106, 0, 4147.692, 4267.179, 3991.282, 4152.821, 4125.128, 450, 0, []
1630238292.1307, 107, 0, 4142.564, 4223.077, 3965.641, 4142.564, 4115.897, 16192, 0, []
1630238292.1387, 108, 0, 4131.795, 4224.615, 3968.718, 4145.641, 4092.821, 450, 0, []
1630238292.1466, 109, 0, 4141.026, 4253.846, 3984.103, 4159.487, 4116.923, 450, 0, []
1630238292.1545, 110, 0, 4160.513, 4244.615, 3981.538, 4162.564, 4135.385, 450, 0, []
1630238292.1624, 111, 0, 4152.821, 4231.795, 3983.077, 4151.282, 4118.974, 16192, 0, []
1630238292.1704, 112, 0, 4144.103, 4242.051, 3965.128, 4139.487, 4120.513, 450, 0, []
1630238292.1783, 113, 0, 4152.821, 4237.436, 3972.308, 4147.179, 4126.154, 450, 0, []
1630238292.1863, 114, 0, 4143.59, 4224.615, 3976.41, 4139.487, 4112.821, 450, 0, []
1630238292.1942, 115, 0, 4128.205, 4227.179, 3957.949, 4123.59, 4106.154, 16192, 0, []
1630238292.2019, 116, 0, 4138.974, 4226.667, 3965.641, 4137.949, 4103.59, 450, 0, []
1630238292.2098, 117, 0, 4134.872, 4216.923, 3964.615, 4146.154, 4095.897, 450, 0, []
1630238292.2176, 118, 0, 4117.436, 4206.154, 3972.821, 4148.718, 4092.308, 450, 0, []
1630238292.2255, 119, 0, 4129.231, 4202.051, 3982.051, 4151.282, 4102.051, 16192, 0, []
1630238292.2333, 120, 0, 4143.59, 4217.949, 3981.538, 4148.205, 4112.308, 450, 0, []
1630238292.2411, 121, 0, 4132.821, 4226.154, 3986.154, 4152.821, 4100, 450, 0, []
1630238292.2489, 122, 0, 4123.077, 4222.564, 3961.538, 4146.154, 4083.077, 450, 0, []
1630238292.2568, 123, 0, 4131.282, 4227.692, 3972.308, 4144.103, 4092.821, 16192, 0, []
1630238292.2646, 124, 0, 4149.231, 4219.487, 3990.769, 4154.872, 4102.564, 450, 0, []
1630238292.2726, 125, 0, 4155.897, 4220.513, 3972.821, 4147.692, 4107.179, 450, 0, []
1630238292.2804, 126, 0, 4148.718, 4233.846, 3992.821, 4143.077, 4130.769, 450, 0, []
1630238292.2884, 127, 0, 4157.436, 4218.462, 3987.692, 4145.128, 4136.923, 16192, 0, []
1630238292.2963, 128, 0, 4185.641, 4196.923, 3971.282, 4142.564, 4133.846, 450, 0, []
1630238292.3043, 0, 0, 4206.154, 4210.769, 3994.872, 4150.769, 4176.41, 450, 0, []
1630238292.3122, 1, 0, 4225.128, 4221.538, 3996.923, 4161.538, 4224.103, 450, 0, []
1630238292.3201, 2, 0, 4271.795, 4219.487, 3987.179, 4162.051, 4242.564, 16190, 0, []
1630238292.328, 3, 0, 4331.282, 4228.718, 3980.513, 4151.282, 4282.564, 450, 0, []
1630238292.336, 4, 0, 4355.897, 4229.744, 3989.744, 4145.128, 4327.692, 16093, 0, []
1630238292.3439, 5, 0, 4348.205, 4225.128, 3985.641, 4144.615, 4329.744, 450, 0, []
1630238292.3517, 6, 0, 4349.231, 4216.923, 3967.692, 4149.231, 4327.179, 283, 0, []
1630238292.3595, 7, 0, 4354.359, 4215.897, 3995.897, 4161.538, 4336.923, 450, 0, []
1630238292.3673, 8, 0, 4337.949, 4232.821, 3995.897, 4152.308, 4308.205, 450, 0, []
1630238292.3752, 9, 0, 4310.256, 4233.846, 3979.487, 4141.538, 4264.103, 288, 0, []
1630238292.383, 10, 0, 4283.077, 4227.692, 4003.59, 4141.026, 4257.436, 450, 0, []
1630238292.3909, 11, 0, 4260.513, 4230.256, 4003.59, 4129.744, 4255.385, 16200, 0, []
1630238292.3986, 12, 0, 4254.359, 4233.846, 3996.923, 4135.385, 4228.718, 450, 0, []
1630238292.4065, 13, 0, 4256.923, 4224.103, 3980, 4137.436, 4212.308, 450, 0, []
1630238292.4143, 14, 0, 4241.538, 4216.923, 3971.282, 4125.128, 4211.282, 450, 0, []
1630238292.4222, 15, 0, 4227.179, 4217.436, 3989.744, 4135.385, 4205.641, 16200, 0, []
1630238292.43, 16, 0, 4233.846, 4212.821, 3977.436, 4143.59, 4194.872, 0, 0, []
1630238292.4379, 17, 0, 4238.462, 4218.462, 3989.744, 4140.513, 4182.564, 0, 0, []
1630238292.4458, 18, 0, 4227.692, 4222.564, 4012.308, 4142.051, 4182.564, 0, 0, []
1630238292.4537, 19, 0, 4218.462, 4204.615, 4008.205, 4149.744, 4188.718, 0, 0, []
1630238292.4616, 20, 0, 4231.795, 4196.41, 4015.897, 4158.462, 4180.513, 0, 0, []
1630238292.4695, 21, 0, 4244.103, 4210.256, 4008.205, 4145.128, 4173.846, 0, 0, []
1630238292.4773, 22, 0, 4213.846, 4201.538, 3997.949, 4132.821, 4170.256, 0, 0, []
1630238292.4851, 23, 0, 4180, 4181.026, 3975.385, 4129.744, 4152.821, 0, 0, []
1630238292.4931, 24, 0, 4185.641, 4194.359, 3957.436, 4125.641, 4129.744, 0, 0, []
1630238292.501, 25, 0, 4191.282, 4207.179, 3986.154, 4131.282, 4133.846, 0, 0, []
1630238292.5089, 26, 0, 4185.641, 4171.282, 3997.949, 4126.154, 4152.308, 0, 0, []
1630238292.5167, 27, 0, 4200, 4147.179, 4007.692, 4132.821, 4146.667, 0, 0, []
1630238292.5245, 28, 0, 4217.436, 4158.974, 4012.821, 4160.513, 4143.077, 0, 0, []
1630238292.5323, 29, 0, 4213.333, 4133.846, 4003.077, 4177.436, 4167.179, 0, 0, []
1630238292.5402, 30, 0, 4216.923, 4094.872, 4025.128, 4184.615, 4177.949, 0, 0, []
1630238292.548, 31, 0, 4222.051, 4115.897, 4024.615, 4169.231, 4158.974, 0, 0, []
1630238292.5559, 32, 0, 4201.026, 4148.205, 4016.41, 4146.667, 4148.718, 0, 0, []
1630238292.5636, 33, 0, 4183.077, 4138.974, 4011.795, 4132.308, 4145.128, 0, 0, []
1630238292.5715, 34, 0, 4196.923, 4145.641, 3995.385, 4120.513, 4130.256, 0, 0, []
1630238292.5793, 35, 0, 4215.897, 4156.923, 4022.564, 4122.051, 4138.462, 0, 0, []
1630238292.5873, 36, 0, 4207.692, 4130.769, 4038.462, 4132.308, 4163.077, 0, 0, []
1630238292.5952, 37, 0, 4195.385, 4117.949, 4034.359, 4151.795, 4156.41, 0, 0, []
1630238292.6031, 38, 0, 4195.385, 4124.103, 4043.077, 4161.026, 4134.359, 0, 0, []
1630238292.611, 39, 0, 4172.308, 4105.128, 4034.872, 4139.487, 4126.154, 0, 0, []
1630238292.619, 40, 0, 4134.872, 4073.846, 4028.718, 4131.795, 4104.615, 0, 0, []
1630238292.6269, 41, 0, 4136.41, 4066.667, 4012.308, 4145.128, 4083.077, 0, 0, []
1630238292.6349, 42, 0, 4161.026, 4067.179, 4024.103, 4165.128, 4109.231, 0, 0, []
1630238292.6427, 43, 0, 4175.897, 4051.282, 4055.897, 4184.615, 4150.256, 0, 0, []
1630238292.6507, 44, 0, 4195.897, 4044.615, 4041.026, 4182.051, 4158.462, 0, 0, []
1630238292.6586, 45, 0, 4208.718, 4053.846, 4047.179, 4171.795, 4153.846, 0, 0, []
1630238292.6666, 46, 0, 4201.026, 4049.231, 4050.769, 4169.231, 4156.923, 0, 0, []
1630238292.6745, 47, 0, 4208.718, 4024.615, 4032.308, 4183.077, 4162.564, 0, 0, []
1630238292.6822, 48, 0, 4229.744, 4013.333, 4035.897, 4188.205, 4168.205, 0, 0, []
1630238292.6901, 49, 0, 4209.744, 4026.667, 4020.513, 4167.179, 4162.564, 0, 0, []
1630238292.6979, 50, 0, 4179.487, 4040, 4010.769, 4168.205, 4144.615, 0, 0, []
1630238292.7058, 51, 0, 4186.667, 4038.462, 4001.026, 4166.667, 4126.154, 0, 0, []
1630238292.7136, 52, 0, 4186.667, 4031.282, 3996.923, 4144.615, 4129.231, 0, 0, []
1630238292.7215, 53, 0, 4168.205, 4035.897, 4016.923, 4151.282, 4141.538, 0, 0, []
1630238292.7294, 54, 0, 4182.051, 4042.564, 4009.744, 4169.231, 4138.462, 0, 0, []
1630238292.7373, 55, 0, 4211.282, 4035.897, 4029.744, 4171.282, 4144.615, 0, 0, []
1630238292.7451, 56, 0, 4205.641, 4019.487, 4053.846, 4166.667, 4168.205, 0, 0, []
1630238292.7531, 57, 0, 4184.615, 4015.385, 4030.769, 4166.667, 4158.462, 0, 0, []
1630238292.7609, 58, 0, 4176.923, 4024.103, 4032.821, 4168.718, 4127.179, 0, 0, []
1630238292.7689, 59, 0, 4170.256, 4025.641, 4035.897, 4154.359, 4131.282, 0, 0, []
1630238292.7768, 60, 0, 4161.538, 4027.179, 4026.667, 4143.077, 4130.769, 0, 0, []
1630238292.7848, 61, 0, 4163.077, 4034.872, 4019.487, 4141.538, 4111.282, 0, 0, []
1630238292.7927, 62, 0, 4165.641, 4033.846, 4026.667, 4145.641, 4122.564, 0, 0, []
1630238292.8006, 63, 0, 4168.718, 4044.103, 4044.615, 4160.513, 4143.077, 0, 0, []
1630238292.8085, 64, 0, 4188.205, 4063.59, 4032.308, 4163.59, 4140, 450, 0, []
1630238292.8164, 65, 0, 4200, 4043.077, 4047.692, 4161.538, 4137.436, 450, 0, []
1630238292.8243, 66, 0, 4194.359, 4020.513, 4061.026, 4164.615, 4138.974, 16194, 0, []
1630238292.8321, 67, 0, 4194.359, 4047.179, 4027.692, 4155.385, 4124.615, 450, 0, []
1630238292.8399, 68, 0, 4189.744, 4064.103, 4031.282, 4146.667, 4118.462, 16095, 0, []
1630238292.8477, 69, 0, 4187.179, 4062.564, 4042.564, 4153.846, 4142.564, 450, 0, []
1630238292.8556, 70, 0, 4212.821, 4093.333, 4062.051, 4183.077, 4164.615, 16065, 0, []
1630238292.8634, 71, 0, 4230.769, 4108.205, 4083.59, 4193.846, 4155.897, 450, 0, []
1630238292.8713, 72, 0, 4202.051, 4069.744, 4062.051, 4169.231, 4139.487, 450, 0, []
1630238292.8791, 73, 0, 4181.026, 4041.538, 4058.974, 4170.769, 4133.846, 16057, 0, []
1630238292.8869, 74, 0, 4198.462, 4055.897, 4057.949, 4186.667, 4129.744, 450, 0, []
1630238292.8947, 75, 0, 4197.436, 4075.385, 4052.821, 4180, 4131.795, 16202, 0, []
1630238292.9027, 76, 0, 4177.949, 4083.077, 4055.897, 4174.359, 4138.974, 450, 0, []
1630238292.9106, 77, 0, 4186.667, 4076.41, 4044.103, 4175.897, 4135.897, 450, 0, []
1630238292.9186, 78, 0, 4201.538, 4056.41, 4063.077, 4187.692, 4140, 450, 0, []
1630238292.9264, 79, 0, 4196.923, 4054.359, 4066.667, 4191.282, 4157.949, 16202, 0, []
1630238292.9344, 80, 0, 4197.436, 4075.897, 4054.359, 4181.538, 4154.872, 450, 0, []
1630238292.9423, 81, 0, 4204.103, 4088.718, 4062.051, 4168.718, 4142.051, 450, 0, []
1630238292.9503, 82, 0, 4199.487, 4087.179, 4046.667, 4155.897, 4153.846, 450, 0, []
1630238292.9582, 83, 0, 4207.692, 4100, 4048.205, 4165.128, 4159.487, 16202, 0, []
1630238292.9659, 84, 0, 4215.385, 4103.077, 4045.641, 4162.564, 4141.026, 450, 0, []
1630238292.9738, 85, 0, 4209.744, 4089.231, 4034.872, 4151.282, 4146.667, 450, 0, []
1630238292.9818, 86, 0, 4223.077, 4102.564, 4058.974, 4175.897, 4175.385, 450, 0, []
1630238292.9897, 87, 0, 4240.513, 4115.385, 4049.744, 4184.615, 4173.846, 16202, 0, []
1630238292.9975, 88, 0, 4235.385, 4110.256, 4038.462, 4168.205, 4163.077, 450, 0, []
1630238293.0053, 89, 0, 4230.256, 4113.333, 4045.128, 4170.256, 4176.41, 450, 0, []
1630238293.0131, 90, 0, 4236.923, 4127.692, 4035.385, 4185.641, 4184.615, 450, 0, []
1630238293.021, 91, 0, 4227.692, 4118.462, 4034.359, 4184.615, 4161.538, 16202, 0, []
1630238293.0288, 92, 0, 4211.795, 4106.154, 4037.436, 4167.179, 4148.205, 450, 0, []
1630238293.0368, 93, 0, 4223.59, 4121.026, 4069.744, 4184.615, 4165.641, 450, 0, []
1630238293.0446, 94, 0, 4232.308, 4135.385, 4075.385, 4200.513, 4158.462, 450, 0, []
1630238293.0526, 95, 0, 4208.718, 4132.821, 4048.205, 4170.256, 4131.282, 16202, 0, []
1630238293.0605, 96, 0, 4189.744, 4121.026, 4064.615, 4167.692, 4140, 450, 0, []
1630238293.0685, 97, 0, 4190.256, 4121.026, 4057.949, 4186.154, 4143.59, 450, 0, []
1630238293.0764, 98, 0, 4177.436, 4114.872, 4048.205, 4173.333, 4117.436, 450, 0, []
1630238293.0843, 99, 0, 4169.231, 4108.205, 4062.051, 4164.103, 4123.077, 16202, 0, []
1630238293.0922, 100, 0, 4184.103, 4118.462, 4046.667, 4182.564, 4147.179, 450, 0, []
1630238293.1002, 101, 0, 4179.487, 4112.308, 4040, 4177.436, 4138.462, 450, 0, []
1630238293.1081, 102, 0, 4161.026, 4105.128, 4036.923, 4151.282, 4134.872, 450, 0, []
1630238293.1161, 103, 0, 4169.231, 4125.128, 4043.077, 4172.308, 4140.513, 16202, 0, []
1630238293.1239, 104, 0, 4184.103, 4132.308, 4055.897, 4187.179, 4135.897, 450, 0, []
1630238293.1317, 105, 0, 4178.462, 4104.615, 4051.282, 4163.077, 4143.59, 450, 0, []
1630238293.1396, 106, 0, 4160, 4104.103, 4048.205, 4163.59, 4136.41, 450, 0, []
1630238293.1474, 107, 0, 4158.462, 4131.282, 4023.59, 4160.513, 4114.359, 16202, 0, []
1630238293.1553, 108, 0, 4167.179, 4118.974, 4023.59, 4145.641, 4117.949, 450, 0, []
1630238293.163, 109, 0, 4159.487, 4095.385, 4034.872, 4154.872, 4110.256, 450, 0, []
1630238293.1709, 110, 0, 4156.41, 4112.821, 4010.256, 4157.436, 4096.923, 450, 0, []
1630238293.1787, 111, 0, 4168.205, 4127.692, 4028.718, 4160.513, 4115.897, 16202, 0, []
1630238293.1866, 112, 0, 4166.154, 4112.821, 4037.949, 4167.692, 4116.41, 450, 0, []
1630238293.1944, 113, 0, 4150.256, 4109.744, 4021.538, 4160, 4102.051, 450, 0, []
1630238293.2022, 114, 0, 4154.359, 4118.974, 4040, 4154.872, 4120, 450, 0, []
1630238293.21, 115, 0, 4167.179, 4126.154, 4040, 4156.41, 4121.538, 16202, 0, []
1630238293.218, 116, 0, 4160, 4118.462, 4036.923, 4161.026, 4103.59, 450, 0, []
1630238293.2259, 117, 0, 4157.949, 4108.205, 4031.795, 4162.564, 4121.026, 450, 0, []
1630238293.2339, 118, 0, 4168.718, 4125.641, 4029.231, 4167.692, 4127.179, 450, 0, []
1630238293.2418, 119, 0, 4169.231, 4141.538, 4046.667, 4178.462, 4114.359, 16202, 0, []
1630238293.2497, 120, 0, 4171.282, 4121.538, 4034.359, 4173.846, 4130.769, 450, 0, []
1630238293.2576, 121, 0, 4188.205, 4118.974, 4039.487, 4169.231, 4138.974, 450, 0, []
1630238293.2656, 122, 0, 4196.41, 4152.308, 4056.41, 4161.538, 4139.487, 450, 0, []
1630238293.2735, 123, 0, 4182.564, 4147.179, 4049.231, 4152.821, 4151.795, 16202, 0, []
1630238293.2815, 124, 0, 4182.051, 4130.769, 4046.154, 4163.59, 4146.667, 450, 0, []
1630238293.2893, 125, 0, 4188.205, 4135.385, 4041.026, 4161.026, 4137.949, 450, 0, []
1630238293.2971, 126, 0, 4182.051, 4123.59, 4065.641, 4158.462, 4151.795, 450, 0, []
1630238293.305, 127, 0, 4194.359, 4128.205, 4077.436, 4173.333, 4160, 16202, 0, []
1630238293.3128, 128, 0, 4211.282, 4156.41, 4052.308, 4176.41, 4148.718, 450, 0, []
1630238293.3207, 0, 0, 4187.692, 4151.282, 4051.795, 4166.667, 4145.641, 450, 0, []
1630238293.3284, 1, 0, 4161.538, 4125.641, 4036.923, 4148.205, 4144.103, 450, 0, []
1630238293.3363, 2, 0, 4176.41, 4138.462, 4031.795, 4153.333, 4132.308, 16185, 0, []
1630238293.3441, 3, 0, 4191.282, 4169.744, 4046.154, 4174.872, 4142.051, 450, 0, []
1630238293.3521, 4, 0, 4177.949, 4155.385, 4029.231, 4170.256, 4158.462, 16095, 0, []
1630238293.36, 5, 0, 4159.487, 4120.513, 4020, 4151.795, 4136.923, 450, 0, []
1630238293.3679, 6, 0, 4144.103, 4120, 4009.744, 4136.41, 4111.282, 16074, 0, []
1630238293.3758, 7, 0, 4139.487, 4127.179, 4013.846, 4133.333, 4118.462, 450, 0, []
1630238293.3838, 8, 0, 4166.667, 4133.846, 4032.308, 4147.692, 4127.692, 450, 0, []
1630238293.3917, 9, 0, 4183.077, 4155.385, 4028.205, 4154.359, 4128.718, 16058, 0, []
1630238293.3997, 10, 0, 4166.667, 4172.308, 4045.128, 4166.667, 4144.103, 450, 0, []
1630238293.4075, 11, 0, 4177.436, 4176.923, 4055.897, 4190.769, 4158.462, 16189, 0, []
1630238293.4155, 12, 0, 4201.026, 4191.282, 4063.077, 4194.872, 4154.872, 450, 0, []
1630238293.4234, 13, 0, 4198.974, 4217.436, 4088.205, 4182.564, 4168.205, 450, 0, []
1630238293.4314, 14, 0, 4205.128, 4228.718, 4091.282, 4188.718, 4197.436, 450, 0, []
1630238293.4393, 15, 0, 4232.821, 4224.615, 4102.564, 4211.795, 4197.949, 16189, 0, []
1630238293.447, 16, 0, 4238.974, 4223.59, 4098.974, 4205.128, 4184.103, 0, 0, []
1630238293.4549, 17, 0, 4225.128, 4226.667, 4096.41, 4192.821, 4200, 0, 0, []
1630238293.4628, 18, 0, 4231.795, 4231.795, 4117.949, 4209.744, 4223.59, 0, 0, []
1630238293.4707, 19, 0, 4258.974, 4245.128, 4121.026, 4225.641, 4222.051, 0, 0, []
1630238293.4786, 20, 0, 4272.821, 4256.923, 4134.872, 4232.821, 4217.436, 0, 0, []
1630238293.4863, 21, 0, 4243.077, 4253.846, 4120.513, 4204.615, 4212.821, 0, 0, []
1630238293.4941, 22, 0, 4216.41, 4251.282, 4097.949, 4178.974, 4202.051, 0, 0, []
1630238293.502, 23, 0, 4235.385, 4256.923, 4116.923, 4202.051, 4194.872, 0, 0, []
1630238293.5098, 24, 0, 4245.641, 4267.692, 4105.641, 4207.179, 4186.667, 0, 0, []
1630238293.5178, 25, 0, 4222.051, 4284.103, 4101.538, 4189.744, 4185.641, 0, 0, []
1630238293.5256, 26, 0, 4212.308, 4283.59, 4101.026, 4186.667, 4194.359, 0, 0, []
1630238293.5336, 27, 0, 4224.615, 4278.974, 4081.026, 4190.769, 4188.718, 0, 0, []
1630238293.5415, 28, 0, 4225.641, 4278.462, 4096.41, 4192.308, 4185.641, 0, 0, []
1630238293.5495, 29, 0, 4197.949, 4253.333, 4092.308, 4174.359, 4189.744, 0, 0, []
1630238293.5574, 30, 0, 4156.41, 4237.949, 4069.744, 4156.41, 4153.846, 0, 0, []
1630238293.5653, 31, 0, 4136.923, 4246.667, 4054.359, 4149.231, 4105.641, 0, 0, []
1630238293.5732, 32, 0, 4130.256, 4237.436, 4043.59, 4144.103, 4099.487, 0, 0, []
1630238293.5812, 33, 0, 4130.256, 4220.513, 4052.821, 4153.846, 4109.231, 0, 0, []
1630238293.5891, 34, 0, 4151.795, 4235.897, 4049.744, 4168.205, 4113.333, 0, 0, []
1630238293.5969, 35, 0, 4155.385, 4262.564, 4058.974, 4172.821, 4121.538, 0, 0, []
1630238293.6048, 36, 0, 4133.333, 4265.128, 4059.487, 4161.026, 4121.538, 0, 0, []
1630238293.6125, 37, 0, 4132.308, 4245.641, 4036.41, 4154.359, 4108.205, 0, 0, []
1630238293.6204, 38, 0, 4145.128, 4232.308, 4047.179, 4169.231, 4110.769, 0, 0, []
1630238293.6282, 39, 0, 4141.026, 4241.538, 4040, 4164.103, 4116.923, 0, 0, []
1630238293.6361, 40, 0, 4132.308, 4241.026, 4036.41, 4150.769, 4094.872, 0, 0, []
1630238293.6439, 41, 0, 4122.564, 4243.59, 4042.051, 4146.154, 4083.59, 0, 0, []
1630238293.6517, 42, 0, 4123.077, 4261.538, 4029.231, 4144.103, 4110.256, 0, 0, []
1630238293.6595, 43, 0, 4130.769, 4243.077, 4042.051, 4149.231, 4105.128, 0, 0, []
1630238293.6675, 44, 0, 4106.667, 4206.667, 4026.154, 4126.154, 4062.051, 0, 0, []
1630238293.6754, 45, 0, 4094.872, 4224.103, 4013.333, 4118.974, 4061.538, 0, 0, []
1630238293.6834, 46, 0, 4127.179, 4270.256, 4043.59, 4161.538, 4093.333, 0, 0, []
1630238293.6912, 47, 0, 4125.128, 4283.077, 4044.615, 4174.359, 4093.846, 0, 0, []
1630238293.6992, 48, 0, 4096.923, 4261.026, 4033.846, 4150.769, 4076.41, 0, 0, []
1630238293.7071, 49, 0, 4109.231, 4231.795, 4030.769, 4134.872, 4069.744, 0, 0, []
1630238293.7151, 50, 0, 4121.026, 4235.897, 4052.308, 4143.59, 4076.923, 0, 0, []
1630238293.723, 51, 0, 4118.974, 4265.128, 4074.872, 4166.667, 4097.949, 0, 0, []
1630238293.7309, 52, 0, 4134.359, 4272.308, 4055.897, 4168.205, 4101.538, 0, 0, []
1630238293.7388, 53, 0, 4120.513, 4261.026, 4059.487, 4155.385, 4075.385, 0, 0, []
1630238293.7466, 54, 0, 4101.538, 4265.128, 4067.692, 4156.923, 4073.846, 0, 0, []
1630238293.7545, 55, 0, 4135.897, 4271.282, 4062.564, 4162.564, 4102.564, 0, 0, []
1630238293.7623, 56, 0, 4153.333, 4274.872, 4067.692, 4159.487, 4108.718, 0, 0, []
1630238293.7701, 57, 0, 4122.564, 4281.026, 4049.231, 4157.436, 4088.205, 0, 0, []
1630238293.7779, 58, 0, 4116.41, 4265.128, 4056.41, 4160, 4080.513, 0, 0, []
1630238293.7858, 59, 0, 4124.103, 4256.41, 4067.692, 4150.256, 4092.308, 0, 0, []
1630238293.7936, 60, 0, 4107.692, 4277.436, 4051.282, 4138.974, 4087.179, 0, 0, []
1630238293.8015, 61, 0, 4113.333, 4278.462, 4071.282, 4150.256, 4082.564, 0, 0, []
1630238293.8092, 62, 0, 4127.179, 4246.154, 4079.487, 4154.359, 4099.487, 0, 0, []
1630238293.8172, 63, 0, 4124.615, 4249.231, 4070.769, 4151.282, 4102.051, 0, 0, []
1630238293.8251, 64, 0, 4135.897, 4272.821, 4063.59, 4149.231, 4085.641, 450, 0, []
1630238293.8331, 65, 0, 4134.872, 4268.205, 4059.487, 4148.718, 4084.103, 450, 0, []
1630238293.841, 66, 0, 4110.769, 4260, 4063.59, 4153.333, 4088.718, 16186, 0, []
1630238293.8489, 67, 0, 4110.256, 4243.59, 4035.897, 4140, 4072.821, 450, 0, []
1630238293.8568, 68, 0, 4131.795, 4235.897, 4051.282, 4149.231, 4084.103, 16090, 0, []
1630238293.8648, 69, 0, 4149.231, 4268.718, 4086.154, 4176.923, 4125.128, 450, 0, []
1630238293.8727, 70, 0, 4165.128, 4305.641, 4071.795, 4170.769, 4125.641, 16072, 0, []
1630238293.8807, 71, 0, 4155.385, 4286.154, 4073.333, 4160.513, 4106.154, 450, 0, []
1630238293.8885, 72, 0, 4135.385, 4243.077, 4064.615, 4157.436, 4116.923, 450, 0, []
1630238293.8965, 73, 0, 4166.154, 4249.744, 4055.897, 4166.154, 4142.564, 16058, 0, []
1630238293.9044, 74, 0, 4197.949, 4285.128, 4075.385, 4175.385, 4154.359, 450, 0, []
1630238293.9122, 75, 0, 4174.872, 4294.359, 4078.974, 4178.974, 4160, 16195, 0, []
1630238293.9201, 76, 0, 4158.974, 4279.487, 4073.333, 4186.154, 4153.333, 450, 0, []
1630238293.9279, 77, 0, 4170.769, 4268.205, 4053.846, 4165.128, 4140.513, 450, 0, []
1630238293.9357, 78, 0, 4162.051, 4263.077, 4063.077, 4155.897, 4147.179, 450, 0, []
1630238293.9435, 79, 0, 4162.051, 4265.641, 4080.513, 4182.051, 4162.564, 16195, 0, []
1630238293.9514, 80, 0, 4187.179, 4277.436, 4062.051, 4190.769, 4168.718, 450, 0, []
1630238293.9592, 81, 0, 4190.256, 4292.308, 4073.846, 4186.154, 4181.538, 450, 0, []
1630238293.9671, 82, 0, 4201.538, 4300, 4070.256, 4184.103, 4216.41, 450, 0, []
1630238293.9748, 83, 0, 4278.462, 4282.564, 4056.923, 4185.641, 4262.564, 16195, 0, []
1630238293.9828, 84, 0, 4374.359, 4278.462, 4077.949, 4188.718, 4315.897, 450, 0, []
1630238293.9907, 85, 0, 4430.769, 4306.154, 4068.718, 4173.846, 4364.615, 450, 0, []
1630238293.9987, 86, 0, 4465.128, 4316.923, 4059.487, 4162.051, 4391.795, 450, 0, []
1630238294.0066, 87, 0, 4501.026, 4316.923, 4057.949, 4157.949, 4402.051, 16195, 0, []
1630238294.0145, 88, 0, 4517.436, 4314.359, 4060.513, 4151.795, 4406.667, 450, 0, []
1630238294.0224, 89, 0, 4512.308, 4305.641, 4082.564, 4154.359, 4404.615, 450, 0, []
1630238294.0304, 90, 0, 4492.821, 4326.154, 4076.923, 4155.385, 4385.641, 450, 0, []
1630238294.0383, 91, 0, 4466.154, 4342.564, 4074.872, 4154.359, 4364.103, 16195, 0, []
1630238294.0463, 92, 0, 4449.231, 4311.282, 4084.103, 4160, 4361.026, 450, 0, []
1630238294.0541, 93, 0, 4433.846, 4305.641, 4091.795, 4169.744, 4358.462, 450, 0, []
1630238294.062, 94, 0, 4395.897, 4333.846, 4093.846, 4172.821, 4326.667, 450, 0, []
1630238294.0699, 95, 0, 4352.308, 4315.897, 4054.872, 4162.051, 4281.538, 16195, 0, []
1630238294.0777, 96, 0, 4336.923, 4297.436, 4052.308, 4166.154, 4263.077, 450, 0, []
1630238294.0856, 97, 0, 4336.41, 4329.231, 4074.872, 4175.385, 4261.026, 450, 0, []
1630238294.0933, 98, 0, 4329.744, 4346.154, 4076.41, 4173.846, 4250.769, 450, 0, []
1630238294.1012, 99, 0, 4308.205, 4335.897, 4084.615, 4163.077, 4238.462, 16195, 0, []
1630238294.109, 100, 0, 4278.462, 4330.769, 4062.051, 4136.41, 4235.385, 450, 0, []
1630238294.117, 101, 0, 4271.795, 4316.923, 4060, 4141.538, 4234.872, 450, 0, []
1630238294.1249, 102, 0, 4279.487, 4318.462, 4082.564, 4168.718, 4218.462, 450, 0, []
1630238294.1327, 103, 0, 4267.692, 4337.949, 4081.026, 4167.179, 4198.974, 16195, 0, []
1630238294.1405, 104, 0, 4243.077, 4318.974, 4089.744, 4162.051, 4196.41, 450, 0, []
1630238294.1485, 105, 0, 4227.179, 4295.897, 4073.846, 4157.436, 4191.795, 450, 0, []
1630238294.1564, 106, 0, 4228.205, 4310.256, 4064.103, 4157.949, 4172.821, 450, 0, []
1630238294.1644, 107, 0, 4234.872, 4321.026, 4079.487, 4159.487, 4165.641, 16195, 0, []
1630238294.1722, 108, 0, 4218.462, 4320.513, 4065.641, 4140.513, 4168.718, 450, 0, []
1630238294.1802, 109, 0, 4193.846, 4330.256, 4060, 4131.795, 4158.974, 450, 0, []
1630238294.1881, 110, 0, 4196.923, 4322.051, 4052.308, 4142.051, 4141.538, 450, 0, []
1630238294.196, 111, 0, 4208.205, 4303.077, 4060, 4152.821, 4143.077, 16195, 0, []
1630238294.2039, 112, 0, 4201.538, 4315.385, 4083.077, 4160, 4158.462, 450, 0, []
1630238294.2116, 113, 0, 4198.462, 4334.872, 4068.718, 4158.462, 4152.821, 450, 0, []
1630238294.2195, 114, 0, 4207.692, 4341.026, 4074.872, 4163.59, 4134.359, 450, 0, []
1630238294.2273, 115, 0, 4197.949, 4329.744, 4074.872, 4157.949, 4134.872, 16195, 0, []
1630238294.2352, 116, 0, 4168.205, 4304.103, 4049.231, 4141.538, 4132.308, 450, 0, []
1630238294.243, 117, 0, 4163.077, 4303.59, 4052.308, 4138.974, 4107.179, 450, 0, []
1630238294.2508, 118, 0, 4181.538, 4324.615, 4072.308, 4147.692, 4108.205, 450, 0, []
1630238294.2586, 119, 0, 4183.077, 4329.231, 4093.333, 4161.538, 4133.846, 16195, 0, []
1630238294.2665, 120, 0, 4173.333, 4325.128, 4062.051, 4154.359, 4122.051, 450, 0, []
1630238294.2743, 121, 0, 4161.026, 4330.256, 4043.077, 4140.513, 4096.923, 450, 0, []
1630238294.2822, 122, 0, 4149.744, 4310.256, 4069.231, 4145.641, 4108.205, 450, 0, []
1630238294.29, 123, 0, 4164.615, 4293.333, 4047.179, 4145.128, 4128.205, 16195, 0, []
1630238294.2979, 124, 0, 4196.923, 4317.949, 4045.641, 4151.282, 4152.308, 450, 0, []
1630238294.3058, 125, 0, 4216.41, 4323.59, 4069.231, 4162.564, 4200.513, 450, 0, []
1630238294.3138, 126, 0, 4219.487, 4316.923, 4053.333, 4158.462, 4218.462, 450, 0, []
1630238294.3217, 127, 0, 4205.641, 4322.051, 4041.026, 4140.513, 4183.59, 16195, 0, []
1630238294.3297, 128, 0, 4184.615, 4310.769, 4041.026, 4139.487, 4170.769, 450, 0, []
1630238294.3375, 0, 0, 4176.923, 4294.872, 4057.949, 4167.692, 4177.949, 450, 0, []
1630238294.3455, 1, 0, 4165.641, 4303.077, 4051.795, 4160.513, 4152.308, 450, 0, []
1630238294.3534, 2, 0, 4150.769, 4320, 4042.051, 4139.487, 4134.872, 16192, 0, []
1630238294.3612, 3, 0, 4163.077, 4334.359, 4068.205, 4163.077, 4150.769, 450, 0, []
1630238294.3691, 4, 0, 4178.462, 4334.359, 4059.487, 4166.154, 4148.718, 16123, 0, []
1630238294.3768, 5, 0, 4150.769, 4309.231, 4044.615, 4134.872, 4122.564, 450, 0, []
1630238294.3847, 6, 0, 4126.667, 4301.538, 4041.538, 4130.769, 4118.462, 16075, 0, []
1630238294.3925, 7, 0, 4148.718, 4310.769, 4039.487, 4151.282, 4129.744, 450, 0, []
1630238294.4004, 8, 0, 4164.103, 4312.821, 4069.744, 4161.538, 4135.385, 450, 0, []
1630238294.4082, 9, 0, 4154.872, 4321.538, 4070.256, 4154.359, 4145.128, 16065, 0, []
1630238294.4161, 10, 0, 4151.282, 4319.487, 4061.538, 4154.359, 4135.897, 450, 0, []
1630238294.424, 11, 0, 4147.179, 4319.487, 4082.051, 4147.692, 4116.41, 16189, 0, []
1630238294.432, 12, 0, 4131.795, 4332.821, 4075.897, 4129.231, 4118.974, 450, 0, []
1630238294.4399, 13, 0, 4123.59, 4330.769, 4057.436, 4134.872, 4112.821, 450, 0, []
1630238294.4478, 14, 0, 4122.051, 4317.949, 4035.385, 4141.026, 4090.769, 450, 0, []
1630238294.4556, 15, 0, 4121.026, 4311.795, 4048.205, 4146.667, 4097.949, 16189, 0, []
1630238294.4635, 16, 0, 4143.077, 4318.974, 4078.974, 4169.231, 4127.692, 0, 0, []
1630238294.4714, 17, 0, 4173.846, 4329.231, 4074.872, 4175.385, 4141.538, 0, 0, []
1630238294.4794, 18, 0, 4164.615, 4328.205, 4085.128, 4166.667, 4140, 0, 0, []
1630238294.4874, 19, 0, 4133.333, 4336.41, 4067.692, 4156.923, 4123.59, 0, 0, []
1630238294.4952, 20, 0, 4128.205, 4338.462, 4047.179, 4149.744, 4100.513, 0, 0, []
1630238294.5031, 21, 0, 4135.897, 4320.513, 4070.769, 4149.744, 4109.231, 0, 0, []
1630238294.5111, 22, 0, 4144.615, 4327.179, 4069.231, 4155.897, 4135.897, 0, 0, []
1630238294.519, 23, 0, 4151.795, 4352.821, 4064.615, 4162.564, 4126.154, 0, 0, []
1630238294.5268, 24, 0, 4140, 4333.333, 4060, 4146.667, 4108.718, 0, 0, []
1630238294.5346, 25, 0, 4127.692, 4289.744, 4061.538, 4139.487, 4117.436, 0, 0, []
1630238294.5424, 26, 0, 4133.846, 4289.744, 4062.564, 4150.256, 4110.256, 0, 0, []
1630238294.5503, 27, 0, 4134.359, 4324.615, 4031.795, 4136.923, 4093.846, 0, 0, []
1630238294.5581, 28, 0, 4119.487, 4341.026, 4040, 4131.795, 4101.538, 0, 0, []
1630238294.566, 29, 0, 4110.256, 4317.436, 4040.513, 4139.487, 4091.795, 0, 0, []
1630238294.5737, 30, 0, 4110.769, 4300.513, 4025.128, 4130.769, 4070.769, 0, 0, []
1630238294.5816, 31, 0, 4120, 4328.205, 4056.923, 4137.949, 4088.718, 0, 0, []
1630238294.5894, 32, 0, 4133.846, 4352.821, 4055.385, 4153.846, 4104.615, 0, 0, []
1630238294.5973, 33, 0, 4135.385, 4345.641, 4047.179, 4153.846, 4094.872, 0, 0, []
1630238294.6051, 34, 0, 4124.103, 4325.641, 4058.974, 4147.179, 4088.205, 0, 0, []
1630238294.613, 35, 0, 4117.949, 4316.923, 4051.282, 4151.282, 4079.487, 0, 0, []
1630238294.6209, 36, 0, 4123.077, 4341.538, 4056.923, 4159.487, 4087.179, 0, 0, []
1630238294.6289, 37, 0, 4121.538, 4349.231, 4053.333, 4150.256, 4106.667, 0, 0, []
1630238294.6368, 38, 0, 4120, 4323.077, 4046.154, 4149.744, 4094.872, 0, 0, []
1630238294.6448, 39, 0, 4140, 4329.744, 4055.385, 4154.359, 4092.821, 0, 0, []
1630238294.6527, 40, 0, 4148.205, 4359.487, 4068.718, 4150.256, 4120, 0, 0, []
1630238294.6606, 41, 0, 4133.846, 4350.256, 4065.641, 4157.436, 4107.692, 0, 0, []
1630238294.6685, 42, 0, 4134.359, 4332.821, 4035.385, 4158.974, 4077.436, 0, 0, []
1630238294.6763, 43, 0, 4137.436, 4342.051, 4058.462, 4158.462, 4091.282, 0, 0, []
1630238294.6842, 44, 0, 4132.308, 4335.385, 4087.692, 4160.513, 4106.154, 0, 0, []
1630238294.692, 45, 0, 4159.487, 4331.795, 4064.615, 4152.821, 4110.256, 0, 0, []
1630238294.6998, 46, 0, 4202.564, 4346.667, 4071.282, 4150.769, 4143.59, 0, 0, []
1630238294.7076, 47, 0, 4211.795, 4351.282, 4071.795, 4156.923, 4186.667, 0, 0, []
1630238294.7155, 48, 0, 4201.026, 4344.615, 4064.615, 4166.667, 4191.282, 0, 0, []
1630238294.7233, 49, 0, 4205.128, 4342.051, 4070.769, 4170.256, 4160.513, 0, 0, []
1630238294.7312, 50, 0, 4204.615, 4354.359, 4060, 4162.051, 4146.154, 0, 0, []
1630238294.7389, 51, 0, 4187.692, 4360, 4079.487, 4160.513, 4156.41, 0, 0, []
1630238294.7468, 52, 0, 4182.564, 4346.154, 4079.487, 4162.564, 4153.846, 0, 0, []
1630238294.7546, 53, 0, 4188.205, 4332.821, 4063.077, 4161.538, 4137.436, 0, 0, []
1630238294.7626, 54, 0, 4185.641, 4340, 4083.59, 4164.615, 4147.692, 0, 0, []
1630238294.7705, 55, 0, 4186.154, 4360, 4086.154, 4172.308, 4177.949, 0, 0, []
1630238294.7784, 56, 0, 4203.59, 4363.59, 4084.615, 4188.718, 4180.513, 0, 0, []
1630238294.7863, 57, 0, 4205.641, 4346.667, 4077.949, 4177.949, 4157.949, 0, 0, []
1630238294.7943, 58, 0, 4188.718, 4342.051, 4085.128, 4164.615, 4153.846, 0, 0, []
1630238294.8022, 59, 0, 4195.897, 4362.564, 4117.436, 4192.821, 4177.436, 0, 0, []
1630238294.8102, 60, 0, 4215.897, 4369.231, 4100.513, 4197.949, 4175.897, 0, 0, []
1630238294.818, 61, 0, 4203.59, 4355.897, 4083.59, 4165.128, 4150.256, 0, 0, []
1630238294.826, 62, 0, 4173.846, 4350.256, 4080, 4153.846, 4149.744, 0, 0, []
1630238294.8339, 63, 0, 4170.769, 4352.308, 4076.923, 4182.051, 4157.949, 0, 0, []
1630238294.8417, 64, 0, 4199.487, 4361.538, 4103.59, 4207.692, 4152.821, 450, 0, []
1630238294.8496, 65, 0, 4214.872, 4380.513, 4110.769, 4189.744, 4159.487, 450, 0, []
1630238294.8573, 66, 0, 4184.615, 4370.256, 4096.923, 4167.179, 4154.359, 16194, 0, []
1630238294.8652, 67, 0, 4164.103, 4350.769, 4071.282, 4171.282, 4135.385, 450, 0, []
1630238294.873, 68, 0, 4191.795, 4370.769, 4074.872, 4187.692, 4148.718, 16116, 0, []
1630238294.8809, 69, 0, 4207.692, 4386.154, 4110.769, 4193.333, 4170.769, 450, 0, []
1630238294.8887, 70, 0, 4202.051, 4367.692, 4101.538, 4189.231, 4179.487, 16082, 0, []
1630238294.8965, 71, 0, 4225.641, 4383.077, 4113.333, 4219.487, 4200.513, 450, 0, []
1630238294.9043, 72, 0, 4248.205, 4419.487, 4119.487, 4232.308, 4202.051, 450, 0, []
1630238294.9122, 73, 0, 4220, 4390.256, 4078.974, 4188.718, 4170.769, 16063, 0, []
1630238294.92, 74, 0, 4186.667, 4355.385, 4086.154, 4174.359, 4163.59, 450, 0, []
1630238294.928, 75, 0, 4192.821, 4377.949, 4089.231, 4187.179, 4164.615, 16203, 0, []
1630238294.9358, 76, 0, 4202.051, 4386.154, 4084.103, 4187.692, 4146.154, 450, 0, []
1630238294.9438, 77, 0, 4188.718, 4362.564, 4092.308, 4191.795, 4155.385, 450, 0, []
1630238294.9517, 78, 0, 4181.538, 4350.256, 4078.974, 4194.359, 4172.821, 450, 0, []
1630238294.9597, 79, 0, 4187.692, 4364.615, 4076.41, 4187.179, 4147.692, 16203, 0, []
1630238294.9676, 80, 0, 4180.513, 4380, 4073.846, 4170.256, 4133.846, 450, 0, []
1630238294.9756, 81, 0, 4174.872, 4380.513, 4088.205, 4179.487, 4160, 450, 0, []
1630238294.9834, 82, 0, 4186.154, 4388.718, 4100, 4200.513, 4164.103, 450, 0, []
1630238294.9914, 83, 0, 4181.538, 4387.179, 4074.872, 4183.077, 4134.872, 16203, 0, []
1630238294.9993, 84, 0, 4164.103, 4369.744, 4085.641, 4175.897, 4129.744, 450, 0, []
1630238295.0071, 85, 0, 4176.923, 4375.385, 4098.462, 4193.333, 4153.333, 450, 0, []
1630238295.015, 86, 0, 4182.564, 4389.231, 4083.59, 4189.231, 4138.462, 450, 0, []
1630238295.0227, 87, 0, 4148.718, 4373.846, 4074.359, 4162.564, 4105.128, 16203, 0, []
1630238295.0306, 88, 0, 4139.487, 4348.718, 4064.103, 4156.923, 4116.41, 450, 0, []
1630238295.0384, 89, 0, 4169.744, 4349.231, 4084.615, 4186.154, 4138.974, 450, 0, []
1630238295.0463, 90, 0, 4174.872, 4368.718, 4102.051, 4194.872, 4136.41, 450, 0, []
1630238295.0541, 91, 0, 4162.051, 4371.795, 4100.513, 4184.103, 4137.949, 16203, 0, []
1630238295.0619, 92, 0, 4189.231, 4360, 4099.487, 4186.667, 4157.436, 450, 0, []
1630238295.0697, 93, 0, 4231.282, 4358.974, 4075.897, 4180.513, 4166.667, 450, 0, []
1630238295.0777, 94, 0, 4242.564, 4369.231, 4084.615, 4168.205, 4178.462, 450, 0, []
1630238295.0856, 95, 0, 4250.256, 4375.385, 4092.308, 4171.282, 4203.077, 16203, 0, []
1630238295.0936, 96, 0, 4253.333, 4366.667, 4075.385, 4175.897, 4199.487, 450, 0, []
1630238295.1014, 97, 0, 4226.154, 4355.897, 4071.282, 4151.795, 4153.333, 450, 0, []
1630238295.1094, 98, 0, 4194.872, 4352.821, 4057.949, 4124.615, 4126.667, 450, 0, []
1630238295.1173, 99, 0, 4193.333, 4348.718, 4070.256, 4147.179, 4143.077, 16203, 0, []
1630238295.1253, 100, 0, 4203.077, 4349.744, 4067.179, 4165.128, 4138.974, 450, 0, []
1630238295.1332, 101, 0, 4201.026, 4363.59, 4052.821, 4145.641, 4119.487, 450, 0, []
1630238295.1411, 102, 0, 4189.231, 4363.077, 4089.231, 4151.795, 4135.897, 450, 0, []
1630238295.149, 103, 0, 4173.333, 4350.769, 4083.59, 4166.667, 4144.103, 16203, 0, []
1630238295.1568, 104, 0, 4168.718, 4353.846, 4063.59, 4159.487, 4115.897, 450, 0, []
1630238295.1647, 105, 0, 4168.718, 4342.051, 4073.846, 4140.513, 4105.641, 450, 0, []
1630238295.1725, 106, 0, 4154.872, 4316.41, 4076.41, 4125.128, 4108.205, 450, 0, []
1630238295.1803, 107, 0, 4148.205, 4320.513, 4089.744, 4135.385, 4089.744, 16203, 0, []
1630238295.1881, 108, 0, 4151.795, 4332.308, 4091.282, 4142.051, 4092.308, 450, 0, []
1630238295.196, 109, 0, 4153.846, 4337.949, 4094.359, 4141.538, 4112.821, 450, 0, []
1630238295.2038, 110, 0, 4169.744, 4364.103, 4092.821, 4155.385, 4111.282, 450, 0, []
1630238295.2118, 111, 0, 4177.949, 4387.692, 4072.308, 4166.154, 4107.692, 16203, 0, []
1630238295.2196, 112, 0, 4155.897, 4368.205, 4076.41, 4160.513, 4107.179, 450, 0, []
1630238295.2276, 113, 0, 4152.821, 4340.513, 4065.641, 4145.128, 4093.333, 450, 0, []
1630238295.2355, 114, 0, 4169.744, 4331.282, 4067.179, 4139.487, 4093.333, 450, 0, []
1630238295.2435, 115, 0, 4153.333, 4329.744, 4076.923, 4136.41, 4100, 16203, 0, []
1630238295.2514, 116, 0, 4130.769, 4338.974, 4051.282, 4131.795, 4077.436, 450, 0, []
1630238295.2593, 117, 0, 4136.41, 4342.051, 4056.923, 4136.41, 4067.692, 450, 0, []
1630238295.2672, 118, 0, 4140.513, 4338.462, 4063.077, 4136.41, 4089.744, 450, 0, []
1630238295.2752, 119, 0, 4140.513, 4353.846, 4061.538, 4152.821, 4090.256, 16203, 0, []
1630238295.2831, 120, 0, 4155.385, 4358.974, 4083.59, 4165.128, 4092.308, 450, 0, []
1630238295.2911, 121, 0, 4163.59, 4336.41, 4088.718, 4151.795, 4124.615, 450, 0, []
1630238295.2989, 122, 0, 4159.487, 4348.205, 4089.231, 4160.513, 4123.077, 450, 0, []
1630238295.3069, 123, 0, 4152.308, 4372.821, 4071.795, 4157.949, 4088.205, 16203, 0, []
1630238295.3148, 124, 0, 4129.231, 4336.923, 4063.59, 4131.282, 4075.897, 450, 0, []
1630238295.3226, 125, 0, 4115.385, 4327.692, 4071.795, 4137.949, 4072.308, 450, 0, []
1630238295.3305, 126, 0, 4150.256, 4375.385, 4064.615, 4157.949, 4084.103, 450, 0, []
1630238295.3383, 127, 0, 4189.231, 4380.513, 4103.59, 4171.282, 4122.051, 16203, 0, []
1630238295.3461, 128, 0, 4185.128, 4351.795, 4120.513, 4174.872, 4129.231, 450, 0, []
1630238295.3539, 0, 0, 4160, 4357.949, 4093.846, 4161.026, 4097.949, 450, 0, []
1630238295.3618, 1, 0, 4133.846, 4369.231, 4093.333, 4150.256, 4082.564, 450, 0, []
1630238295.3696, 2, 0, 4120, 4347.179, 4064.103, 4147.692, 4080, 16196, 0, []
1630238295.3776, 3, 0, 4136.41, 4331.795, 4063.077, 4159.487, 4081.538, 450, 0, []
1630238295.3854, 4, 0, 4158.974, 4344.615, 4106.667, 4172.308, 4109.231, 16097, 0, []
1630238295.3934, 5, 0, 4161.538, 4365.641, 4121.538, 4168.718, 4123.59, 450, 0, []
1630238295.4013, 6, 0, 4160.513, 4360, 4109.744, 4157.436, 4104.103, 16082, 0, []
1630238295.4093, 7, 0, 4165.128, 4327.179, 4081.538, 4143.59, 4107.179, 450, 0, []
1630238295.4172, 8, 0, 4167.692, 4322.051, 4088.205, 4155.385, 4133.333, 450, 0, []
1630238295.4251, 9, 0, 4174.872, 4357.436, 4090.769, 4173.846, 4126.667, 16063, 0, []
1630238295.433, 10, 0, 4170.769, 4365.641, 4067.179, 4164.103, 4098.462, 450, 0, []
1630238295.441, 11, 0, 4150.769, 4326.667, 4080.513, 4163.59, 4095.385, 16204, 0, []
1630238295.4489, 12, 0, 4150.256, 4324.103, 4081.026, 4176.41, 4109.744, 450, 0, []
1630238295.4567, 13, 0, 4169.744, 4354.872, 4078.974, 4173.846, 4117.436, 450, 0, []
1630238295.4645, 14, 0, 4180.513, 4336.41, 4092.308, 4163.077, 4130.256, 450, 0, []
1630238295.4724, 15, 0, 4187.179, 4308.718, 4090.769, 4163.59, 4153.333, 16204, 0, []
1630238295.4804, 16, 0, 4222.051, 4338.974, 4092.308, 4164.103, 4179.487, 0, 0, []
1630238295.4882, 17, 0, 4283.077, 4361.538, 4076.41, 4149.231, 4217.949, 0, 0, []
1630238295.4961, 18, 0, 4338.462, 4339.487, 4081.026, 4150.769, 4277.436, 0, 0, []
1630238295.5038, 19, 0, 4388.205, 4325.128, 4099.487, 4161.026, 4349.231, 0, 0, []
1630238295.5117, 20, 0, 4446.154, 4334.872, 4086.154, 4159.487, 4410.256, 0, 0, []
1630238295.5195, 21, 0, 4496.41, 4352.308, 4093.846, 4172.308, 4448.718, 0, 0, []
1630238295.5274, 22, 0, 4511.282, 4347.692, 4094.359, 4171.282, 4458.974, 0, 0, []
1630238295.5352, 23, 0, 4492.308, 4335.385, 4098.974, 4154.359, 4443.59, 0, 0, []
1630238295.5431, 24, 0, 4468.205, 4350.769, 4125.641, 4160.513, 4424.103, 0, 0, []
1630238295.551, 25, 0, 4444.103, 4370.769, 4114.872, 4170.256, 4406.154, 0, 0, []
1630238295.559, 26, 0, 4420, 4366.667, 4114.359, 4182.051, 4385.641, 0, 0, []
1630238295.5669, 27, 0, 4405.641, 4349.744, 4108.718, 4186.667, 4367.179, 0, 0, []
1630238295.5749, 28, 0, 4383.077, 4343.59, 4088.205, 4175.385, 4336.41, 0, 0, []
1630238295.5827, 29, 0, 4343.59, 4352.821, 4092.308, 4168.205, 4289.744, 0, 0, []
1630238295.5907, 30, 0, 4314.872, 4360, 4091.795, 4158.974, 4263.077, 0, 0, []
1630238295.5986, 31, 0, 4289.744, 4353.333, 4098.974, 4152.821, 4257.436, 0, 0, []
1630238295.6065, 32, 0, 4265.641, 4353.333, 4091.795, 4154.359, 4252.821, 0, 0, []
1630238295.6144, 33, 0, 4265.641, 4353.846, 4087.179, 4168.205, 4241.538, 0, 0, []
1630238295.6221, 34, 0, 4266.667, 4333.846, 4102.564, 4172.308, 4219.487, 0, 0, []
1630238295.63, 35, 0, 4251.282, 4348.205, 4097.949, 4156.41, 4215.385, 0, 0, []
1630238295.6378, 36, 0, 4236.41, 4383.077, 4112.821, 4169.744, 4229.231, 0, 0, []
1630238295.6457, 37, 0, 4223.077, 4369.744, 4103.59, 4175.385, 4203.077, 0, 0, []
1630238295.6535, 38, 0, 4210.769, 4357.949, 4080, 4157.436, 4161.538, 0, 0, []
1630238295.6613, 39, 0, 4216.41, 4382.564, 4123.59, 4175.385, 4185.128, 0, 0, []
1630238295.6691, 40, 0, 4222.051, 4385.128, 4138.462, 4194.872, 4221.538, 0, 0, []
1630238295.677, 41, 0, 4205.641, 4367.179, 4112.821, 4184.103, 4185.641, 0, 0, []
1630238295.6848, 42, 0, 4190.769, 4359.487, 4099.487, 4169.231, 4146.667, 0, 0, []
1630238295.6928, 43, 0, 4181.026, 4351.282, 4100, 4176.41, 4160, 0, 0, []
1630238295.7007, 44, 0, 4175.385, 4357.436, 4105.641, 4191.795, 4170.256, 0, 0, []
1630238295.7086, 45, 0, 4173.846, 4363.077, 4074.872, 4176.923, 4142.051, 0, 0, []
1630238295.7165, 46, 0, 4166.667, 4360, 4081.026, 4171.795, 4129.231, 0, 0, []
1630238295.7245, 47, 0, 4169.744, 4378.462, 4110.769, 4199.487, 4149.231, 0, 0, []
1630238295.7324, 48, 0, 4182.051, 4375.385, 4092.821, 4204.615, 4143.59, 0, 0, []
1630238295.7404, 49, 0, 4170.769, 4344.615, 4094.359, 4181.026, 4121.026, 0, 0, []
1630238295.7482, 50, 0, 4144.615, 4373.333, 4101.538, 4171.795, 4127.692, 0, 0, []
1630238295.7562, 51, 0, 4154.872, 4412.308, 4105.641, 4189.744, 4142.051, 0, 0, []
1630238295.7641, 52, 0, 4181.538, 4378.974, 4111.282, 4194.359, 4139.487, 0, 0, []
1630238295.7719, 53, 0, 4169.744, 4372.308, 4100, 4177.949, 4140, 0, 0, []
1630238295.7798, 54, 0, 4147.179, 4397.949, 4099.487, 4175.385, 4136.41, 0, 0, []
1630238295.7875, 55, 0, 4155.385, 4374.872, 4086.154, 4178.462, 4117.436, 0, 0, []
1630238295.7954, 56, 0, 4175.385, 4356.41, 4106.154, 4182.051, 4132.308, 0, 0, []
1630238295.8032, 57, 0, 4174.359, 4371.795, 4137.949, 4185.641, 4158.974, 0, 0, []
1630238295.8111, 58, 0, 4167.692, 4380.513, 4107.179, 4184.615, 4140.513, 0, 0, []
1630238295.8189, 59, 0, 4169.744, 4381.538, 4112.308, 4186.154, 4122.051, 0, 0, []
1630238295.8268, 60, 0, 4153.846, 4368.718, 4122.051, 4172.308, 4129.231, 0, 0, []
1630238295.8347, 61, 0, 4130.769, 4336.923, 4096.41, 4166.154, 4115.385, 0, 0, []
1630238295.8427, 62, 0, 4133.846, 4344.615, 4097.436, 4180, 4102.564, 0, 0, []
1630238295.8506, 63, 0, 4143.077, 4365.641, 4100.513, 4175.897, 4118.974, 0, 0, []
1630238295.8586, 64, 0, 4141.538, 4349.231, 4109.744, 4176.923, 4116.923, 450, 0, []
1630238295.8664, 65, 0, 4141.538, 4350.769, 4110.256, 4181.538, 4109.231, 450, 0, []
1630238295.8744, 66, 0, 4137.949, 4353.333, 4111.795, 4175.897, 4120.513, 16196, 0, []
1630238295.8823, 67, 0, 4134.872, 4344.615, 4119.487, 4184.615, 4114.872, 450, 0, []
1630238295.8903, 68, 0, 4146.667, 4360.513, 4107.692, 4187.179, 4110.769, 16079, 0, []
1630238295.8982, 69, 0, 4154.359, 4378.462, 4130.256, 4194.872, 4134.872, 450, 0, []
1630238295.9061, 70, 0, 4155.897, 4373.846, 4133.846, 4210.769, 4147.179, 16073, 0, []
1630238295.914, 71, 0, 4155.897, 4354.359, 4103.59, 4204.615, 4125.641, 450, 0, []
1630238295.922, 72, 0, 4132.308, 4328.718, 4100.513, 4186.154, 4105.641, 450, 0, []
1630238295.9299, 73, 0, 4120.513, 4317.949, 4086.154, 4180, 4111.795, 320, 0, []
1630238295.9377, 74, 0, 4148.718, 4345.128, 4098.462, 4192.308, 4122.564, 450, 0, []
1630238295.9455, 75, 0, 4160, 4348.718, 4121.026, 4188.718, 4126.154, 16207, 0, []
1630238295.9533, 76, 0, 4138.974, 4331.795, 4103.59, 4177.949, 4128.205, 450, 0, []
1630238295.9612, 77, 0, 4133.846, 4347.179, 4092.308, 4185.641, 4121.026, 450, 0, []
1630238295.969, 78, 0, 4141.538, 4357.949, 4080, 4174.359, 4114.872, 450, 0, []
1630238295.9769, 79, 0, 4138.462, 4338.462, 4088.205, 4164.615, 4121.538, 16207, 0, []
1630238295.9846, 80, 0, 4136.41, 4332.308, 4094.359, 4175.897, 4120, 450, 0, []
1630238295.9925, 81, 0, 4149.231, 4348.205, 4087.179, 4182.564, 4125.128, 450, 0, []
1630238296.0003, 82, 0, 4160, 4349.744, 4110.769, 4190.256, 4146.154, 450, 0, []
1630238296.0082, 83, 0, 4147.179, 4357.436, 4087.692, 4173.846, 4125.128, 16207, 0, []
1630238296.016, 84, 0, 4138.462, 4361.026, 4071.282, 4157.949, 4099.487, 450, 0, []
1630238296.0239, 85, 0, 4154.872, 4346.154, 4107.692, 4183.59, 4141.538, 450, 0, []
1630238296.0318, 86, 0, 4157.949, 4353.333, 4095.897, 4195.385, 4157.949, 450, 0, []
1630238296.0398, 87, 0, 4142.564, 4371.795, 4078.462, 4172.821, 4111.282, 16207, 0, []
1630238296.0477, 88, 0, 4127.692, 4348.205, 4075.385, 4159.487, 4101.026, 450, 0, []
1630238296.0557, 89, 0, 4124.615, 4317.436, 4070.256, 4169.231, 4130.256, 450, 0, []
1630238296.0636, 90, 0, 4133.846, 4333.846, 4076.923, 4172.821, 4124.615, 450, 0, []
1630238296.0715, 91, 0, 4128.718, 4365.128, 4085.128, 4170.256, 4103.077, 16207, 0, []
1630238296.0794, 92, 0, 4115.897, 4368.718, 4096.923, 4176.923, 4111.282, 450, 0, []
1630238296.0872, 93, 0, 4128.718, 4335.897, 4080.513, 4174.872, 4120, 450, 0, []
1630238296.0951, 94, 0, 4129.231, 4311.795, 4074.872, 4175.897, 4115.897, 450, 0, []
1630238296.1029, 95, 0, 4109.744, 4333.846, 4087.692, 4189.231, 4117.949, 16207, 0, []
1630238296.1107, 96, 0, 4111.795, 4344.615, 4074.359, 4193.846, 4120.513, 450, 0, []
1630238296.1185, 97, 0, 4103.077, 4307.179, 4083.077, 4192.821, 4107.179, 450, 0, []
1630238296.1264, 98, 0, 4090.256, 4295.897, 4081.538, 4186.154, 4097.949, 450, 0, []
1630238296.1342, 99, 0, 4106.154, 4327.179, 4076.41, 4184.103, 4099.487, 16207, 0, []
1630238296.1421, 100, 0, 4103.59, 4335.385, 4103.077, 4185.641, 4096.41, 450, 0, []
1630238296.1498, 101, 0, 4091.282, 4329.744, 4091.795, 4176.923, 4103.59, 450, 0, []
1630238296.1578, 102, 0, 4100.513, 4325.128, 4090.769, 4179.487, 4110.769, 450, 0, []
1630238296.1657, 103, 0, 4093.846, 4314.359, 4095.385, 4176.923, 4103.077, 16207, 0, []
1630238296.1737, 104, 0, 4074.872, 4314.872, 4076.923, 4164.615, 4092.308, 450, 0, []
1630238296.1816, 105, 0, 4084.103, 4330.256, 4084.103, 4167.692, 4092.308, 450, 0, []
1630238296.1895, 106, 0, 4086.667, 4315.385, 4086.154, 4165.128, 4090.769, 450, 0, []
1630238296.1974, 107, 0, 4066.154, 4288.718, 4088.718, 4167.179, 4072.308, 16207, 0, []
1630238296.2054, 108, 0, 4073.333, 4306.154, 4087.692, 4174.872, 4073.846, 450, 0, []
1630238296.2133, 109, 0, 4103.59, 4331.282, 4091.795, 4180, 4105.641, 450, 0, []
1630238296.2213, 110, 0, 4111.795, 4329.231, 4115.385, 4193.333, 4108.205, 450, 0, []
1630238296.2291, 111, 0, 4101.538, 4322.051, 4093.846, 4181.538, 4086.667, 16207, 0, []
1630238296.2369, 112, 0, 4097.949, 4326.154, 4089.231, 4176.923, 4096.41, 450, 0, []
1630238296.2448, 113, 0, 4107.692, 4331.282, 4102.051, 4203.59, 4111.795, 450, 0, []
1630238296.2526, 114, 0, 4115.897, 4329.231, 4085.128, 4201.026, 4111.282, 450, 0, []
1630238296.2605, 115, 0, 4119.487, 4322.564, 4101.026, 4187.692, 4124.615, 16207, 0, []
1630238296.2682, 116, 0, 4120, 4327.179, 4101.026, 4192.821, 4122.564, 450, 0, []
1630238296.2761, 117, 0, 4106.667, 4341.026, 4087.692, 4186.667, 4091.795, 450, 0, []
1630238296.2839, 118, 0, 4097.436, 4342.564, 4101.026, 4180.513, 4095.385, 450, 0, []
1630238296.2919, 119, 0, 4114.872, 4344.615, 4100.513, 4201.538, 4114.359, 16207, 0, []
1630238296.2999, 120, 0, 4130.256, 4343.59, 4104.103, 4209.744, 4108.718, 450, 0, []
1630238296.3077, 121, 0, 4119.487, 4326.667, 4099.487, 4185.641, 4109.744, 450, 0, []
1630238296.3157, 122, 0, 4108.205, 4309.231, 4101.026, 4183.077, 4111.795, 450, 0, []
1630238296.3236, 123, 0, 4122.564, 4308.205, 4114.872, 4186.667, 4109.744, 16207, 0, []
1630238296.3316, 124, 0, 4132.821, 4318.462, 4108.718, 4171.795, 4123.077, 450, 0, []
1630238296.3395, 125, 0, 4120, 4333.333, 4110.256, 4184.103, 4121.026, 450, 0, []
1630238296.3474, 126, 0, 4110.769, 4341.026, 4097.436, 4190.769, 4107.692, 450, 0, []
1630238296.3553, 127, 0, 4120, 4326.667, 4098.974, 4183.077, 4119.487, 16207, 0, []
1630238296.3633, 128, 0, 4127.692, 4316.923, 4110.256, 4195.385, 4124.103, 450, 0, []
1630238296.3712, 0, 0, 4113.846, 4318.974, 4081.538, 4187.179, 4109.231, 450, 0, []
1630238296.3792, 1, 0, 4099.487, 4309.231, 4085.641, 4167.692, 4109.744, 450, 0, []
1630238296.387, 2, 0, 4115.385, 4303.59, 4087.179, 4172.308, 4118.974, 16195, 0, []
1630238296.395, 3, 0, 4131.795, 4308.718, 4078.462, 4175.385, 4122.051, 450, 0, []
1630238296.4029, 4, 0, 4118.462, 4305.128, 4105.641, 4173.333, 4127.692, 16082, 0, []
1630238296.4109, 5, 0, 4110.256, 4303.077, 4093.333, 4183.59, 4122.051, 450, 0, []
1630238296.4188, 6, 0, 4119.487, 4300.513, 4082.051, 4189.744, 4114.359, 16077, 0, []
1630238296.4268, 7, 0, 4117.436, 4286.667, 4088.718, 4168.718, 4122.564, 450, 0, []
1630238296.4346, 8, 0, 4113.333, 4293.846, 4081.538, 4164.103, 4122.051, 450, 0, []
1630238296.4426, 9, 0, 4119.487, 4304.615, 4086.667, 4182.051, 4112.308, 323, 0, []
1630238296.4505, 10, 0, 4114.872, 4277.949, 4082.051, 4177.436, 4113.333, 450, 0, []
1630238296.4584, 11, 0, 4121.026, 4283.077, 4094.872, 4187.692, 4127.692, 16195, 0, []
1630238296.4664, 12, 0, 4145.128, 4333.846, 4104.615, 4198.974, 4138.462, 450, 0, []
1630238296.4742, 13, 0, 4144.103, 4323.59, 4095.385, 4184.103, 4136.923, 450, 0, []
1630238296.4822, 14, 0, 4147.179, 4287.692, 4106.667, 4194.359, 4145.128, 450, 0, []
1630238296.4901, 15, 0, 4176.923, 4309.231, 4104.103, 4210.256, 4162.564, 16195, 0, []
1630238296.4981, 16, 0, 4162.564, 4325.128, 4109.744, 4202.051, 4153.333, 0, 0, []
1630238296.506, 17, 0, 4126.667, 4308.718, 4103.59, 4185.128, 4129.744, 0, 0, []
1630238296.5139, 18, 0, 4143.077, 4303.077, 4083.077, 4176.41, 4129.744, 0, 0, []
1630238296.5218, 19, 0, 4163.59, 4308.718, 4109.744, 4183.077, 4142.564, 0, 0, []
1630238296.5298, 20, 0, 4152.821, 4308.718, 4114.359, 4190.256, 4145.128, 0, 0, []
1630238296.5377, 21, 0, 4148.718, 4311.795, 4103.59, 4196.41, 4129.744, 0, 0, []
1630238296.5457, 22, 0, 4145.641, 4323.59, 4108.205, 4196.923, 4120.513, 0, 0, []
1630238296.5535, 23, 0, 4135.897, 4308.205, 4103.077, 4196.923, 4138.974, 0, 0, []
1630238296.5615, 24, 0, 4139.487, 4278.462, 4113.333, 4207.179, 4140, 0, 0, []
1630238296.5694, 25, 0, 4143.077, 4284.615, 4098.974, 4192.821, 4125.128, 0, 0, []
1630238296.5774, 26, 0, 4140.513, 4305.641, 4091.795, 4181.026, 4134.872, 0, 0, []
1630238296.5853, 27, 0, 4148.205, 4295.897, 4106.154, 4191.795, 4138.462, 0, 0, []
1630238296.5932, 28, 0, 4153.846, 4282.564, 4094.359, 4178.974, 4127.692, 0, 0, []
1630238296.6011, 29, 0, 4146.667, 4263.59, 4105.641, 4173.333, 4135.385, 0, 0, []
1630238296.6091, 30, 0, 4144.103, 4250.256, 4105.128, 4192.821, 4133.333, 0, 0, []
1630238296.6171, 31, 0, 4152.308, 4284.103, 4102.051, 4201.026, 4128.718, 0, 0, []
1630238296.625, 32, 0, 4157.949, 4288.718, 4111.795, 4195.897, 4152.821, 0, 0, []
1630238296.6329, 33, 0, 4154.872, 4253.333, 4086.667, 4200, 4163.077, 0, 0, []
1630238296.6408, 34, 0, 4152.821, 4267.179, 4096.41, 4208.718, 4148.718, 0, 0, []
1630238296.6488, 35, 0, 4151.282, 4281.026, 4111.282, 4197.436, 4144.103, 0, 0, []
1630238296.6567, 36, 0, 4154.359, 4248.205, 4093.846, 4191.795, 4143.59, 0, 0, []
1630238296.6647, 37, 0, 4169.744, 4241.538, 4100, 4202.051, 4157.436, 0, 0, []
1630238296.6725, 38, 0, 4173.846, 4268.718, 4102.051, 4205.128, 4175.897, 0, 0, []
1630238296.6805, 39, 0, 4161.538, 4275.385, 4101.538, 4215.385, 4155.897, 0, 0, []
1630238296.6884, 40, 0, 4163.077, 4258.462, 4096.41, 4211.795, 4142.564, 0, 0, []
1630238296.6964, 41, 0, 4167.179, 4251.282, 4089.744, 4193.846, 4159.487, 0, 0, []
1630238296.7043, 42, 0, 4154.359, 4258.462, 4091.282, 4197.949, 4147.179, 0, 0, []
1630238296.7122, 43, 0, 4149.744, 4254.359, 4085.128, 4198.462, 4124.615, 0, 0, []
1630238296.7201, 44, 0, 4155.385, 4244.615, 4112.308, 4191.282, 4137.949, 0, 0, []
1630238296.7281, 45, 0, 4153.846, 4246.154, 4107.692, 4191.795, 4145.641, 0, 0, []
1630238296.736, 46, 0, 4155.897, 4233.333, 4077.949, 4190.256, 4141.026, 0, 0, []
1630238296.744, 47, 0, 4159.487, 4226.154, 4102.051, 4199.487, 4154.359, 0, 0, []
1630238296.7518, 48, 0, 4152.821, 4255.897, 4090.256, 4200.513, 4148.205, 0, 0, []
1630238296.7598, 49, 0, 4156.923, 4256.923, 4075.385, 4191.795, 4132.821, 0, 0, []
1630238296.7677, 50, 0, 4170.769, 4247.692, 4101.538, 4200, 4161.026, 0, 0, []
1630238296.7757, 51, 0, 4173.333, 4261.538, 4108.205, 4210.769, 4183.077, 0, 0, []
1630238296.7837, 52, 0, 4171.282, 4253.846, 4111.795, 4203.077, 4155.897, 0, 0, []
1630238296.7916, 53, 0, 4167.179, 4233.846, 4100, 4182.564, 4145.641, 0, 0, []
1630238296.7995, 54, 0, 4157.949, 4232.308, 4089.231, 4187.179, 4166.154, 0, 0, []
1630238296.8074, 55, 0, 4166.154, 4232.821, 4078.462, 4202.564, 4160.513, 0, 0, []
1630238296.8154, 56, 0, 4183.077, 4231.282, 4072.308, 4195.385, 4150.256, 0, 0, []
1630238296.8233, 57, 0, 4177.436, 4237.949, 4103.59, 4199.487, 4165.641, 0, 0, []
1630238296.8313, 58, 0, 4177.949, 4237.949, 4098.974, 4216.923, 4177.949, 0, 0, []
1630238296.8391, 59, 0, 4198.462, 4250.769, 4092.821, 4226.667, 4175.897, 0, 0, []
1630238296.8471, 60, 0, 4193.846, 4262.051, 4107.692, 4211.282, 4182.564, 0, 0, []
1630238296.855, 61, 0, 4169.231, 4229.744, 4084.103, 4191.795, 4178.974, 0, 0, []
1630238296.863, 62, 0, 4171.282, 4215.385, 4082.051, 4202.564, 4152.821, 0, 0, []
1630238296.8709, 63, 0, 4191.795, 4242.051, 4094.872, 4198.974, 4153.846, 0, 0, []
1630238296.8788, 64, 0, 4182.051, 4248.718, 4098.974, 4188.205, 4173.846, 450, 0, []
1630238296.8867, 65, 0, 4161.026, 4241.026, 4097.949, 4194.872, 4162.051, 450, 0, []
1630238296.8947, 66, 0, 4166.154, 4252.308, 4081.026, 4186.154, 4138.462, 16195, 0, []
1630238296.9026, 67, 0, 4173.846, 4234.872, 4095.385, 4178.462, 4146.667, 450, 0, []
1630238296.9106, 68, 0, 4169.231, 4208.205, 4097.949, 4184.615, 4159.487, 16083, 0, []
1630238296.9185, 69, 0, 4167.179, 4221.538, 4079.487, 4187.692, 4140.513, 450, 0, []
1630238296.9264, 70, 0, 4163.077, 4226.154, 4081.538, 4176.41, 4131.282, 16079, 0, []
1630238296.9344, 71, 0, 4151.795, 4205.128, 4073.846, 4168.205, 4146.154, 450, 0, []
1630238296.9423, 72, 0, 4156.923, 4203.59, 4075.385, 4184.103, 4144.615, 450, 0, []
1630238296.9503, 73, 0, 4163.59, 4216.923, 4067.179, 4176.923, 4133.333, 326, 0, []
1630238296.9581, 74, 0, 4149.231, 4210.769, 4061.538, 4153.333, 4136.41, 450, 0, []
1630238296.9661, 75, 0, 4146.667, 4209.744, 4078.462, 4167.179, 4137.436, 16194, 0, []
1630238296.974, 76, 0, 4158.974, 4208.718, 4063.59, 4175.385, 4131.795, 450, 0, []
1630238296.982, 77, 0, 4153.846, 4182.564, 4070.769, 4167.179, 4139.487, 450, 0, []
1630238296.9899, 78, 0, 4151.795, 4194.872, 4081.538, 4174.359, 4148.205, 450, 0, []
1630238296.9978, 79, 0, 4165.128, 4230.256, 4063.077, 4176.923, 4143.077, 16194, 0, []
1630238297.0057, 80, 0, 4161.026, 4208.718, 4076.41, 4166.667, 4140, 450, 0, []
1630238297.0137, 81, 0, 4151.795, 4174.359, 4075.385, 4154.872, 4141.026, 450, 0, []
1630238297.0216, 82, 0, 4161.538, 4202.051, 4071.282, 4155.385, 4130.769, 450, 0, []
1630238297.0296, 83, 0, 4173.846, 4216.41, 4079.487, 4157.436, 4133.333, 16194, 0, []
1630238297.0374, 84, 0, 4171.795, 4198.462, 4076.923, 4165.641, 4150.769, 450, 0, []
1630238297.0454, 85, 0, 4167.179, 4224.103, 4085.128, 4181.538, 4148.205, 450, 0, []
1630238297.0533, 86, 0, 4161.538, 4230.769, 4074.359, 4174.359, 4141.026, 450, 0, []
1630238297.0613, 87, 0, 4151.795, 4198.974, 4077.949, 4170.769, 4147.692, 16194, 0, []
1630238297.0692, 88, 0, 4158.974, 4206.667, 4081.538, 4180, 4146.667, 450, 0, []
1630238297.0769, 89, 0, 4173.333, 4229.744, 4064.103, 4172.821, 4138.462, 450, 0, []
1630238297.0849, 90, 0, 4176.41, 4219.487, 4086.667, 4174.872, 4153.846, 450, 0, []
1630238297.0928, 91, 0, 4179.487, 4211.282, 4078.462, 4180.513, 4170.769, 16194, 0, []
1630238297.1008, 92, 0, 4179.487, 4220.513, 4061.026, 4180, 4155.385, 450, 0, []
1630238297.1087, 93, 0, 4178.462, 4216.41, 4090.769, 4183.59, 4152.308, 450, 0, []
1630238297.1166, 94, 0, 4182.051, 4215.385, 4087.692, 4177.436, 4164.615, 450, 0, []
1630238297.1245, 95, 0, 4180, 4223.077, 4060.513, 4162.051, 4145.128, 16194, 0, []
1630238297.1325, 96, 0, 4174.872, 4219.487, 4040.513, 4146.667, 4122.051, 450, 0, []
1630238297.1404, 97, 0, 4169.744, 4211.795, 4057.436, 4153.333, 4138.974, 450, 0, []
1630238297.1484, 98, 0, 4175.897, 4217.949, 4076.923, 4171.282, 4152.821, 450, 0, []
1630238297.1562, 99, 0, 4194.872, 4229.231, 4063.59, 4171.795, 4137.949, 16194, 0, []
1630238297.1642, 100, 0, 4192.821, 4216.41, 4077.436, 4170.256, 4133.846, 450, 0, []
1630238297.1721, 101, 0, 4158.974, 4212.821, 4068.205, 4165.128, 4127.692, 450, 0, []
1630238297.1801, 102, 0, 4151.795, 4233.846, 4047.692, 4154.359, 4102.564, 450, 0, []
1630238297.188, 103, 0, 4176.41, 4222.564, 4078.974, 4149.231, 4106.154, 16194, 0, []
1630238297.196, 104, 0, 4175.897, 4190.256, 4083.077, 4154.359, 4136.41, 450, 0, []
1630238297.2038, 105, 0, 4169.231, 4205.641, 4075.897, 4169.231, 4140.513, 450, 0, []
1630238297.2118, 106, 0, 4176.923, 4215.897, 4076.923, 4156.41, 4121.026, 450, 0, []
1630238297.2197, 107, 0, 4164.615, 4181.538, 4079.487, 4140.513, 4114.872, 16194, 0, []
1630238297.2275, 108, 0, 4150.769, 4182.564, 4091.282, 4161.538, 4116.41, 450, 0, []
1630238297.2354, 109, 0, 4159.487, 4219.487, 4077.436, 4165.641, 4105.641, 450, 0, []
1630238297.2431, 110, 0, 4156.41, 4213.846, 4084.103, 4153.846, 4105.128, 450, 0, []
1630238297.2511, 111, 0, 4142.051, 4176.41, 4082.564, 4158.462, 4107.179, 16194, 0, []
1630238297.259, 112, 0, 4146.667, 4171.795, 4058.974, 4157.436, 4088.718, 450, 0, []
1630238297.267, 113, 0, 4155.385, 4185.641, 4076.923, 4154.872, 4092.821, 450, 0, []
1630238297.2749, 114, 0, 4160, 4190.256, 4082.051, 4165.128, 4132.821, 450, 0, []
1630238297.2828, 115, 0, 4168.205, 4185.128, 4072.821, 4173.846, 4133.333, 16194, 0, []
1630238297.2907, 116, 0, 4168.205, 4182.051, 4068.718, 4162.051, 4104.103, 450, 0, []
1630238297.2987, 117, 0, 4166.154, 4194.359, 4072.308, 4157.436, 4116.923, 450, 0, []
1630238297.3066, 118, 0, 4180, 4204.615, 4090.256, 4176.923, 4142.051, 450, 0, []
1630238297.3146, 119, 0, 4189.744, 4201.538, 4060, 4172.308, 4140, 16194, 0, []
1630238297.3224, 120, 0, 4191.795, 4202.051, 4053.846, 4167.179, 4154.359, 450, 0, []
1630238297.3304, 121, 0, 4224.615, 4209.231, 4083.59, 4190.769, 4203.59, 450, 0, []
1630238297.3383, 122, 0, 4297.436, 4206.154, 4080.513, 4197.949, 4260.513, 450, 0, []
1630238297.3463, 123, 0, 4382.051, 4198.974, 4089.231, 4183.59, 4322.051, 16194, 0, []
1630238297.3542, 124, 0, 4451.795, 4213.333, 4085.641, 4170.256, 4380, 450, 0, []
1630238297.3619, 125, 0, 4498.462, 4228.718, 4078.974, 4173.846, 4417.949, 450, 0, []
1630238297.3698, 126, 0, 4526.667, 4222.051, 4082.564, 4180.513, 4436.41, 450, 0, []
1630238297.3776, 127, 0, 4541.538, 4210.769, 4068.718, 4171.282, 4443.59, 16194, 0, []
1630238297.3855, 128, 0, 4549.231, 4211.282, 4083.59, 4177.949, 4442.051, 450, 0, []
1630238297.3933, 0, 0, 4548.205, 4224.103, 4096.41, 4184.615, 4436.41, 450, 0, []
1630238297.4012, 1, 0, 4535.385, 4233.333, 4097.436, 4178.462, 4428.718, 450, 0, []
1630238297.4091, 2, 0, 4509.744, 4228.718, 4093.846, 4168.718, 4409.231, 16201, 0, []
1630238297.4171, 3, 0, 4480, 4207.179, 4067.692, 4153.333, 4377.949, 450, 0, []
1630238297.425, 4, 0, 4457.436, 4179.487, 4077.436, 4155.385, 4361.026, 16103, 0, []
1630238297.433, 5, 0, 4444.103, 4179.487, 4087.692, 4164.103, 4375.897, 450, 0, []
1630238297.4408, 6, 0, 4427.692, 4191.282, 4087.179, 4156.41, 4384.103, 16078, 0, []
1630238297.4488, 7, 0, 4405.641, 4202.051, 4104.103, 4148.718, 4363.59, 450, 0, []
1630238297.4567, 8, 0, 4388.718, 4213.333, 4101.538, 4159.487, 4344.103, 450, 0, []
1630238297.4647, 9, 0, 4375.897, 4209.744, 4114.872, 4183.077, 4333.333, 16080, 0, []
1630238297.4726, 10, 0, 4353.333, 4189.231, 4108.718, 4177.436, 4301.026, 450, 0, []
1630238297.4805, 11, 0, 4325.128, 4176.41, 4081.026, 4158.974, 4260.513, 16192, 0, []
1630238297.4884, 12, 0, 4312.308, 4187.692, 4099.487, 4161.026, 4253.333, 450, 0, []
1630238297.4962, 13, 0, 4307.179, 4212.308, 4109.744, 4164.103, 4264.615, 450, 0, []
1630238297.5041, 14, 0, 4292.821, 4225.128, 4115.897, 4181.538, 4259.487, 450, 0, []
1630238297.5119, 15, 0, 4285.641, 4201.538, 4116.923, 4200.513, 4240.513, 16192, 0, []
1630238297.5197, 16, 0, 4282.051, 4175.385, 4111.795, 4191.282, 4222.051, 0, 0, []
1630238297.5275, 17, 0, 4259.487, 4183.59, 4116.923, 4174.872, 4206.667, 0, 0, []
1630238297.5354, 18, 0, 4238.462, 4191.795, 4093.846, 4171.795, 4200.513, 0, 0, []
1630238297.5432, 19, 0, 4242.564, 4178.462, 4096.41, 4188.205, 4198.462, 0, 0, []
1630238297.5511, 20, 0, 4244.615, 4176.923, 4112.821, 4191.282, 4186.154, 0, 0, []
1630238297.5589, 21, 0, 4227.692, 4202.564, 4104.615, 4169.231, 4180.513, 0, 0, []
1630238297.5668, 22, 0, 4217.949, 4203.59, 4107.692, 4167.692, 4183.59, 0, 0, []
1630238297.5747, 23, 0, 4217.949, 4169.744, 4080.513, 4175.385, 4170.256, 0, 0, []
1630238297.5827, 24, 0, 4216.923, 4175.385, 4077.436, 4176.923, 4162.564, 0, 0, []
1630238297.5906, 25, 0, 4217.949, 4205.128, 4106.667, 4183.59, 4184.615, 0, 0, []
1630238297.5986, 26, 0, 4220.513, 4193.846, 4095.897, 4184.103, 4189.231, 0, 0, []
