Timestamp, COUNTER, INTERPOLATED, AF3, T7, Pz, T8, AF4, RAW_CQ, MARKER_HARDWARE, MARKERS
1631431789.7711, 103, 0, 4185.641, 4568.205, 4081.538, 4125.641, 4137.436, 16201, 0, []
1631431789.779, 104, 0, 4192.821, 4593.846, 4102.051, 4128.205, 4135.385, 450, 0, []
1631431789.7867, 105, 0, 4190.256, 4572.308, 4080, 4125.641, 4145.128, 450, 0, []
1631431789.7946, 106, 0, 4201.026, 4561.026, 4090.256, 4136.41, 4171.795, 450, 0, []
1631431789.8024, 107, 0, 4223.077, 4574.872, 4104.103, 4162.564, 4192.308, 16201, 0, []
1631431789.8103, 108, 0, 4231.282, 4575.385, 4094.872, 4171.282, 4183.59, 450, 0, []
1631431789.8181, 109, 0, 4212.821, 4571.795, 4097.949, 4149.231, 4164.103, 450, 0, []
1631431789.8259, 110, 0, 4188.718, 4573.333, 4068.718, 4128.205, 4153.846, 450, 0, []
1631431789.8337, 111, 0, 4194.359, 4565.641, 4083.59, 4132.821, 4154.359, 16201, 0, []
1631431789.8416, 112, 0, 4223.077, 4568.205, 4104.103, 4142.564, 4165.641, 450, 0, []
1631431789.8494, 113, 0, 4225.128, 4578.462, 4083.077, 4136.923, 4168.718, 450, 0, []
1631431789.8573, 114, 0, 4196.41, 4564.103, 4080.513, 4130.256, 4160.513, 450, 0, []
1631431789.8651, 115, 0, 4181.026, 4558.462, 4063.077, 4132.821, 4147.692, 16201, 0, []
1631431789.8728, 116, 0, 4188.718, 4576.41, 4073.333, 4138.462, 4133.846, 450, 0, []
1631431789.8807, 117, 0, 4196.41, 4575.385, 4077.949, 4135.897, 4132.308, 450, 0, []
1631431789.8885, 118, 0, 4186.667, 4562.051, 4065.641, 4120.513, 4135.385, 450, 0, []
1631431789.8964, 119, 0, 4181.026, 4568.718, 4098.462, 4120, 4140, 16201, 0, []
1631431789.9042, 120, 0, 4195.385, 4578.462, 4085.641, 4132.308, 4150.256, 450, 0, []
1631431789.912, 121, 0, 4198.462, 4569.744, 4077.949, 4126.667, 4136.923, 450, 0, []
1631431789.9198, 122, 0, 4189.744, 4581.026, 4094.872, 4114.359, 4113.846, 450, 0, []
1631431789.9277, 123, 0, 4191.795, 4623.077, 4076.923, 4109.744, 4130.769, 16201, 0, []
1631431789.9355, 124, 0, 4198.974, 4627.692, 4078.974, 4114.872, 4171.282, 450, 0, []
1631431789.9434, 125, 0, 4209.744, 4598.974, 4067.179, 4130.256, 4188.718, 450, 0, []
1631431789.9511, 126, 0, 4219.487, 4604.615, 4077.436, 4135.385, 4186.667, 450, 0, []
1631431789.959, 127, 0, 4210.256, 4620, 4094.872, 4113.846, 4178.462, 16201, 0, []
1631431789.9668, 128, 0, 4191.282, 4620.513, 4075.385, 4111.795, 4178.974, 450, 0, []
1631431789.9747, 0, 0, 4195.897, 4648.718, 4093.333, 4142.564, 4186.154, 450, 0, []
1631431789.9825, 1, 0, 4206.667, 4672.308, 4078.462, 4144.103, 4170.256, 450, 0, []
1631431789.9903, 2, 0, 4201.538, 4637.436, 4062.564, 4120, 4150.256, 16187, 0, []
1631431789.9981, 3, 0, 4193.333, 4605.641, 4086.154, 4115.385, 4155.897, 450, 0, []
1631431790.006, 4, 0, 4182.564, 4599.487, 4072.308, 4120, 4158.974, 16138, 0, []
1631431790.0138, 5, 0, 4178.974, 4592.821, 4078.462, 4124.615, 4147.179, 450, 0, []
1631431790.0216, 6, 0, 4194.872, 4610.256, 4081.026, 4129.744, 4144.103, 277, 0, []
1631431790.0294, 7, 0, 4206.154, 4628.205, 4076.923, 4126.667, 4152.821, 450, 0, []
1631431790.0372, 8, 0, 4192.821, 4601.026, 4086.667, 4125.641, 4151.282, 450, 0, []
1631431790.0451, 9, 0, 4180.513, 4578.462, 4064.103, 4136.41, 4140, 16162, 0, []
1631431790.0529, 10, 0, 4193.333, 4602.051, 4076.41, 4142.564, 4134.359, 450, 0, []
1631431790.0608, 11, 0, 4195.385, 4613.333, 4073.333, 4128.718, 4128.718, 16202, 0, []
1631431790.0685, 12, 0, 4172.821, 4610.256, 4054.359, 4106.154, 4117.949, 450, 0, []
1631431790.0764, 13, 0, 4171.282, 4686.154, 4082.564, 4111.282, 4127.692, 450, 0, []
1631431790.0842, 14, 0, 4189.744, 4827.179, 4079.487, 4133.333, 4141.538, 450, 0, []
1631431790.0921, 15, 0, 4188.205, 4909.231, 4086.154, 4133.846, 4126.667, 16202, 0, []
1631431790.0999, 16, 0, 4181.026, 4912.821, 4091.282, 4120.513, 4115.385, 0, 0, []
1631431790.1077, 17, 0, 4184.103, 4942.564, 4074.359, 4114.872, 4129.231, 0, 0, []
1631431790.1155, 18, 0, 4180, 5018.974, 4085.641, 4114.872, 4134.359, 0, 0, []
1631431790.1234, 19, 0, 4177.949, 5097.949, 4078.974, 4117.949, 4126.154, 0, 0, []
1631431790.1312, 20, 0, 4185.641, 5185.128, 4082.051, 4116.923, 4118.462, 0, 0, []
1631431790.1391, 21, 0, 4187.179, 5274.359, 4073.333, 4108.205, 4112.821, 0, 0, []
1631431790.1469, 22, 0, 4186.154, 5482.564, 4056.41, 4103.59, 4121.026, 0, 0, []
1631431790.1547, 23, 0, 4186.154, 5934.359, 4085.641, 4102.051, 4139.487, 0, 0, []
1631431790.1625, 24, 0, 4182.051, 6326.154, 4075.897, 4096.923, 4140.513, 0, 0, []
1631431790.1704, 25, 0, 4188.205, 6445.128, 4077.436, 4112.821, 4130.256, 0, 0, []
1631431790.1782, 26, 0, 4201.026, 6531.282, 4096.923, 4138.974, 4137.436, 0, 0, []
1631431790.1861, 27, 0, 4195.897, 6704.615, 4080, 4142.051, 4141.538, 0, 0, []
1631431790.1938, 28, 0, 4186.154, 6880.513, 4089.231, 4129.744, 4128.718, 0, 0, []
1631431790.2016, 29, 0, 4189.231, 7083.077, 4076.41, 4123.59, 4119.487, 0, 0, []
1631431790.2095, 30, 0, 4190.256, 7336.41, 4070.769, 4124.615, 4119.487, 0, 0, []
1631431790.2173, 31, 0, 4188.205, 7536.41, 4080, 4124.615, 4120.513, 0, 0, []
1631431790.2252, 32, 0, 4190.769, 7658.462, 4056.41, 4123.077, 4118.974, 0, 0, []
1631431790.2329, 33, 0, 4183.077, 7741.538, 4067.179, 4110.769, 4108.205, 0, 0, []
1631431790.2408, 34, 0, 4184.103, 7793.333, 4069.744, 4098.974, 4108.718, 0, 0, []
1631431790.2486, 35, 0, 4209.744, 7800.513, 4077.949, 4113.333, 4136.41, 0, 0, []
1631431790.2565, 36, 0, 4221.026, 7774.359, 4092.308, 4125.641, 4148.718, 0, 0, []
1631431790.2643, 37, 0, 4208.205, 7775.897, 4060, 4112.821, 4124.615, 0, 0, []
1631431790.272, 38, 0, 4198.974, 7775.897, 4072.821, 4103.59, 4103.077, 0, 0, []
1631431790.2799, 39, 0, 4205.641, 7768.718, 4084.615, 4116.41, 4105.641, 0, 0, []
1631431790.2877, 40, 0, 4212.308, 7771.282, 4072.821, 4127.179, 4111.282, 0, 0, []
1631431790.2956, 41, 0, 4218.462, 7769.231, 4078.462, 4123.077, 4111.795, 0, 0, []
1631431790.3034, 42, 0, 4222.051, 7769.231, 4064.615, 4120.513, 4109.231, 0, 0, []
1631431790.3112, 43, 0, 4219.487, 7770.256, 4081.026, 4121.026, 4104.103, 0, 0, []
1631431790.319, 44, 0, 4217.436, 7770.256, 4074.359, 4110.769, 4102.051, 0, 0, []
1631431790.3268, 45, 0, 4217.436, 7770.256, 4052.308, 4100.513, 4104.103, 0, 0, []
1631431790.3347, 46, 0, 4215.385, 7770.256, 4074.359, 4114.359, 4109.744, 0, 0, []
1631431790.3425, 47, 0, 4215.385, 7770.256, 4061.538, 4126.154, 4120.513, 0, 0, []
1631431790.3503, 48, 0, 4227.179, 7770.256, 4072.308, 4118.974, 4136.923, 0, 0, []
1631431790.3581, 49, 0, 4232.821, 7770.256, 4083.077, 4115.897, 4141.538, 0, 0, []
1631431790.366, 50, 0, 4218.462, 7770.256, 4067.179, 4115.897, 4120.513, 0, 0, []
1631431790.3738, 51, 0, 4216.41, 7770.256, 4084.103, 4112.821, 4103.077, 0, 0, []
1631431790.3817, 52, 0, 4231.282, 7770.256, 4070.256, 4115.385, 4110.769, 0, 0, []
1631431790.3894, 53, 0, 4239.487, 7770.256, 4072.821, 4122.564, 4122.051, 0, 0, []
1631431790.3973, 54, 0, 4241.538, 7770.256, 4078.462, 4127.179, 4122.564, 0, 0, []
1631431790.4051, 55, 0, 4250.769, 7770.256, 4061.538, 4135.897, 4126.667, 0, 0, []
1631431790.413, 56, 0, 4247.692, 7770.256, 4083.077, 4142.564, 4133.333, 0, 0, []
1631431790.4208, 57, 0, 4237.436, 7770.256, 4074.359, 4136.923, 4142.564, 0, 0, []
1631431790.4286, 58, 0, 4240.513, 7770.256, 4074.872, 4125.128, 4151.795, 0, 0, []
1631431790.4364, 59, 0, 4244.615, 7770.256, 4085.641, 4112.821, 4141.026, 0, 0, []
1631431790.4443, 60, 0, 4244.615, 7770.256, 4065.641, 4110.769, 4122.051, 0, 0, []
1631431790.4521, 61, 0, 4247.179, 7770.256, 4081.026, 4121.026, 4120.513, 0, 0, []
1631431790.46, 62, 0, 4248.205, 7770.256, 4065.641, 4124.615, 4120, 0, 0, []
1631431790.4678, 63, 0, 4245.641, 7770.256, 4056.41, 4118.974, 4111.282, 0, 0, []
1631431790.4756, 64, 0, 4248.205, 7770.256, 4077.436, 4120, 4113.333, 450, 0, []
1631431790.4835, 65, 0, 4245.641, 7770.256, 4061.026, 4127.692, 4123.077, 450, 0, []
1631431790.4914, 66, 0, 4233.333, 7770.256, 4073.333, 4129.231, 4129.231, 16185, 0, []
1631431790.4993, 67, 0, 4228.205, 7770.256, 4066.154, 4112.308, 4124.103, 450, 0, []
1631431790.5071, 68, 0, 4226.154, 7770.256, 4054.359, 4087.179, 4111.795, 16058, 0, []
1631431790.5148, 69, 0, 4229.231, 7770.256, 4072.821, 4094.359, 4115.385, 450, 0, []
1631431790.5227, 70, 0, 4241.538, 7770.256, 4067.692, 4122.564, 4126.154, 274, 0, []
1631431790.5306, 71, 0, 4247.692, 7770.256, 4082.564, 4125.641, 4118.462, 450, 0, []
1631431790.5384, 72, 0, 4244.615, 7770.256, 4067.179, 4109.231, 4107.179, 450, 0, []
1631431790.5463, 73, 0, 4253.846, 7770.256, 4058.974, 4115.897, 4114.872, 16162, 0, []
1631431790.554, 74, 0, 4263.077, 7770.256, 4090.769, 4135.897, 4128.718, 450, 0, []
1631431790.5619, 75, 0, 4254.359, 7770.256, 4069.744, 4134.872, 4135.897, 16196, 0, []
1631431790.5697, 76, 0, 4241.026, 7770.256, 4072.308, 4117.949, 4128.718, 450, 0, []
1631431790.5776, 77, 0, 4242.051, 7770.256, 4077.949, 4104.103, 4119.487, 450, 0, []
1631431790.5854, 78, 0, 4262.564, 7770.256, 4069.744, 4112.308, 4131.795, 450, 0, []
1631431790.5932, 79, 0, 4264.103, 7770.256, 4092.308, 4128.718, 4128.205, 16196, 0, []
1631431790.601, 80, 0, 4237.949, 7770.256, 4068.205, 4114.872, 4091.282, 450, 0, []
1631431790.6089, 81, 0, 4245.641, 7770.256, 4062.564, 4104.615, 4087.692, 450, 0, []
1631431790.6167, 82, 0, 4294.872, 7770.256, 4077.949, 4130.256, 4124.103, 450, 0, []
1631431790.6245, 83, 0, 4306.154, 7770.256, 4065.641, 4138.462, 4131.282, 16196, 0, []
1631431790.6323, 84, 0, 4286.154, 7770.256, 4073.846, 4115.385, 4126.154, 450, 0, []
1631431790.6402, 85, 0, 4294.872, 7770.256, 4067.179, 4111.795, 4140.513, 450, 0, []
1631431790.648, 86, 0, 4301.026, 7770.256, 4078.462, 4125.128, 4131.282, 450, 0, []
1631431790.6558, 87, 0, 4281.538, 7770.256, 4078.462, 4124.615, 4101.538, 16196, 0, []
1631431790.6637, 88, 0, 4274.872, 7770.256, 4060.513, 4119.487, 4098.462, 450, 0, []
1631431790.6714, 89, 0, 4286.667, 7770.256, 4088.718, 4123.59, 4109.744, 450, 0, []
1631431790.6793, 90, 0, 4283.59, 7770.256, 4076.923, 4133.846, 4105.641, 450, 0, []
1631431790.6871, 91, 0, 4270.769, 7770.256, 4075.385, 4137.949, 4108.718, 16196, 0, []
1631431790.695, 92, 0, 4283.59, 7770.256, 4100.513, 4140.513, 4135.897, 450, 0, []
1631431790.7028, 93, 0, 4299.487, 7770.256, 4089.744, 4140.513, 4142.564, 450, 0, []
1631431790.7106, 94, 0, 4289.231, 7770.256, 4091.795, 4125.641, 4112.821, 450, 0, []
1631431790.7184, 95, 0, 4286.154, 7770.256, 4077.949, 4121.026, 4106.154, 16196, 0, []
1631431790.7263, 96, 0, 4298.974, 7770.256, 4088.205, 4134.359, 4126.154, 450, 0, []
1631431790.7341, 97, 0, 4285.641, 7770.256, 4100, 4133.846, 4114.872, 450, 0, []
1631431790.742, 98, 0, 4255.385, 7770.256, 4065.641, 4116.41, 4091.282, 450, 0, []
1631431790.7497, 99, 0, 4258.974, 7770.256, 4082.564, 4116.41, 4104.615, 16196, 0, []
1631431790.7576, 100, 0, 4284.615, 7770.256, 4088.718, 4131.282, 4127.692, 450, 0, []
1631431790.7654, 101, 0, 4293.846, 7770.256, 4082.564, 4142.051, 4127.692, 450, 0, []
1631431790.7733, 102, 0, 4293.846, 7770.256, 4091.282, 4142.564, 4117.436, 450, 0, []
1631431790.7811, 103, 0, 4294.872, 7770.256, 4062.051, 4128.718, 4106.154, 16196, 0, []
1631431790.7889, 104, 0, 4291.795, 7770.256, 4075.385, 4127.692, 4108.205, 450, 0, []
1631431790.7967, 105, 0, 4302.564, 7770.256, 4092.308, 4148.718, 4140, 450, 0, []
1631431790.8045, 106, 0, 4312.821, 7770.256, 4086.667, 4152.308, 4157.436, 450, 0, []
1631431790.8124, 107, 0, 4290.256, 7770.256, 4084.615, 4122.051, 4119.487, 16196, 0, []
1631431790.8202, 108, 0, 4273.333, 7770.256, 4063.59, 4114.872, 4093.333, 450, 0, []
1631431790.8281, 109, 0, 4286.667, 7770.769, 4084.615, 4142.051, 4109.744, 450, 0, []
1631431790.8358, 110, 0, 4295.897, 7771.795, 4077.949, 4145.128, 4118.974, 450, 0, []
1631431790.8437, 111, 0, 4299.487, 7771.795, 4058.974, 4132.308, 4120, 16196, 0, []
1631431790.8515, 112, 0, 4305.128, 7766.154, 4092.308, 4142.051, 4131.795, 450, 0, []
1631431790.8594, 113, 0, 4312.821, 7771.282, 4080, 4157.436, 4151.795, 450, 0, []
1631431790.8672, 114, 0, 4323.077, 7776.923, 4077.949, 4154.359, 4165.128, 450, 0, []
1631431790.875, 115, 0, 4322.051, 7744.103, 4083.59, 4140, 4155.897, 16196, 0, []
1631431790.8828, 116, 0, 4310.256, 7712.821, 4069.744, 4129.744, 4131.795, 450, 0, []
1631431790.8907, 117, 0, 4321.026, 7748.205, 4092.821, 4142.051, 4132.308, 450, 0, []
1631431790.8985, 118, 0, 4333.846, 7753.846, 4088.205, 4167.692, 4149.231, 450, 0, []
1631431790.9064, 119, 0, 4317.436, 7681.026, 4097.436, 4171.795, 4152.308, 16196, 0, []
1631431790.9141, 120, 0, 4304.615, 7668.718, 4103.077, 4159.487, 4154.872, 450, 0, []
1631431790.922, 121, 0, 4312.308, 7703.077, 4081.538, 4152.821, 4158.462, 450, 0, []
1631431790.9298, 122, 0, 4309.231, 7627.179, 4104.615, 4146.154, 4152.308, 450, 0, []
1631431790.9377, 123, 0, 4292.308, 7533.846, 4092.308, 4133.333, 4135.385, 16196, 0, []
1631431790.9455, 124, 0, 4297.436, 7585.128, 4090.769, 4142.564, 4132.821, 450, 0, []
1631431790.9532, 125, 0, 4317.436, 7571.282, 4110.256, 4163.077, 4148.718, 450, 0, []
1631431790.9611, 126, 0, 4325.641, 7442.564, 4094.872, 4169.744, 4158.462, 450, 0, []
1631431790.9689, 127, 0, 4341.026, 7424.103, 4114.359, 4180, 4172.308, 16196, 0, []
1631431790.9768, 128, 0, 4354.359, 7400.513, 4112.308, 4181.026, 4192.821, 450, 0, []
1631431790.9846, 0, 0, 4335.385, 7361.538, 4103.59, 4156.923, 4186.667, 450, 0, []
1631431790.9924, 1, 0, 4314.359, 7540.513, 4112.821, 4146.667, 4159.487, 450, 0, []
1631431791.0002, 2, 0, 4310.256, 7755.897, 4094.872, 4157.949, 4143.077, 16193, 0, []
1631431791.0081, 3, 0, 4304.615, 7736.41, 4108.205, 4155.385, 4138.462, 450, 0, []
1631431791.0159, 4, 0, 4305.641, 7707.692, 4105.128, 4145.641, 4137.949, 44, 0, []
1631431791.0238, 5, 0, 4311.282, 7780.513, 4095.897, 4149.231, 4138.462, 450, 0, []
1631431791.0315, 6, 0, 4308.205, 7787.692, 4108.718, 4158.974, 4144.615, 270, 0, []
1631431791.0394, 7, 0, 4304.615, 7771.282, 4094.872, 4155.897, 4155.385, 450, 0, []
1631431791.0472, 8, 0, 4302.564, 7769.231, 4106.667, 4141.026, 4158.462, 450, 0, []
1631431791.0551, 9, 0, 4308.718, 7764.103, 4095.385, 4139.487, 4152.821, 16162, 0, []
1631431791.0629, 10, 0, 4318.974, 7771.795, 4080.513, 4151.795, 4145.641, 450, 0, []
1631431791.0707, 11, 0, 4316.923, 7760, 4100.513, 4148.205, 4142.051, 16184, 0, []
1631431791.0785, 12, 0, 4320, 7717.949, 4084.103, 4142.051, 4152.308, 450, 0, []
1631431791.0864, 13, 0, 4331.282, 7715.385, 4105.128, 4164.615, 4173.333, 450, 0, []
1631431791.0942, 14, 0, 4335.385, 7722.564, 4123.59, 4183.59, 4191.282, 450, 0, []
1631431791.102, 15, 0, 4334.872, 7655.897, 4114.359, 4174.359, 4201.538, 16184, 0, []
1631431791.1099, 16, 0, 4335.897, 7603.077, 4125.641, 4166.667, 4195.385, 0, 0, []
1631431791.1176, 17, 0, 4327.692, 7685.641, 4099.487, 4165.641, 4172.308, 0, 0, []
1631431791.1255, 18, 0, 4315.385, 7690.769, 4097.436, 4159.487, 4154.359, 0, 0, []
1631431791.1333, 19, 0, 4312.821, 7398.462, 4100.513, 4150.769, 4156.923, 0, 0, []
1631431791.1412, 20, 0, 4321.026, 6985.641, 4089.231, 4152.821, 4173.846, 0, 0, []
1631431791.149, 21, 0, 4334.872, 6614.359, 4112.821, 4166.154, 4189.231, 0, 0, []
1631431791.1568, 22, 0, 4333.333, 6476.923, 4094.359, 4171.795, 4184.103, 0, 0, []
1631431791.1646, 23, 0, 4323.077, 6892.821, 4100, 4169.231, 4175.385, 0, 0, []
1631431791.1725, 24, 0, 4329.744, 7577.949, 4121.026, 4174.872, 4193.333, 0, 0, []
1631431791.1803, 25, 0, 4339.487, 7854.359, 4091.795, 4169.744, 4202.564, 0, 0, []
1631431791.1882, 26, 0, 4344.103, 7777.436, 4089.231, 4150.769, 4187.692, 0, 0, []
1631431791.1959, 27, 0, 4356.41, 7785.128, 4087.179, 4163.59, 4189.231, 0, 0, []
1631431791.2038, 28, 0, 4362.051, 7822.564, 4102.051, 4194.359, 4204.615, 0, 0, []
1631431791.2116, 29, 0, 4352.308, 7787.692, 4110.769, 4191.795, 4205.641, 0, 0, []
1631431791.2195, 30, 0, 4350.769, 7768.205, 4094.872, 4178.974, 4201.538, 0, 0, []
1631431791.2273, 31, 0, 4366.667, 7770.769, 4119.487, 4184.615, 4201.026, 0, 0, []
1631431791.2351, 32, 0, 4378.462, 7769.231, 4102.051, 4187.692, 4200, 0, 0, []
1631431791.2429, 33, 0, 4361.538, 7769.231, 4084.615, 4175.897, 4200.513, 0, 0, []
1631431791.2508, 34, 0, 4344.103, 7770.769, 4102.564, 4168.718, 4201.538, 0, 0, []
1631431791.2586, 35, 0, 4362.564, 7770.256, 4097.436, 4181.026, 4211.282, 0, 0, []
1631431791.2664, 36, 0, 4387.179, 7770.256, 4121.538, 4194.359, 4216.923, 0, 0, []
1631431791.2742, 37, 0, 4377.436, 7770.256, 4113.333, 4188.205, 4204.103, 0, 0, []
1631431791.282, 38, 0, 4353.846, 7770.256, 4093.846, 4172.308, 4200, 0, 0, []
1631431791.2899, 39, 0, 4349.744, 7770.256, 4108.718, 4167.692, 4206.154, 0, 0, []
1631431791.2977, 40, 0, 4356.923, 7770.256, 4094.872, 4167.179, 4194.359, 0, 0, []
1631431791.3056, 41, 0, 4351.282, 7770.256, 4090.256, 4157.949, 4169.744, 0, 0, []
1631431791.3133, 42, 0, 4347.179, 7770.256, 4068.205, 4151.282, 4180.513, 0, 0, []
1631431791.3212, 43, 0, 4373.846, 7770.256, 4066.154, 4160, 4229.231, 0, 0, []
1631431791.329, 44, 0, 4426.667, 7770.256, 4105.128, 4173.333, 4269.231, 0, 0, []
1631431791.3369, 45, 0, 4487.179, 7770.256, 4094.872, 4180.513, 4306.667, 0, 0, []
1631431791.3447, 46, 0, 4542.564, 7770.256, 4109.231, 4181.538, 4366.667, 0, 0, []
1631431791.3525, 47, 0, 4590.769, 7770.256, 4114.872, 4187.179, 4425.128, 0, 0, []
1631431791.3603, 48, 0, 4632.821, 7770.256, 4095.897, 4196.41, 4459.487, 0, 0, []
1631431791.3682, 49, 0, 4648.718, 7770.256, 4109.231, 4193.846, 4468.205, 0, 0, []
1631431791.376, 50, 0, 4628.718, 7770.256, 4097.436, 4188.205, 4454.872, 0, 0, []
1631431791.3839, 51, 0, 4614.872, 7770.256, 4116.923, 4202.051, 4438.974, 0, 0, []
1631431791.3917, 52, 0, 4607.179, 7770.256, 4126.154, 4208.718, 4427.692, 0, 0, []
1631431791.3995, 53, 0, 4569.744, 7770.256, 4104.615, 4188.205, 4398.462, 0, 0, []
1631431791.4073, 54, 0, 4535.897, 7770.256, 4118.462, 4185.641, 4361.538, 0, 0, []
1631431791.4152, 55, 0, 4522.051, 7770.256, 4097.436, 4189.231, 4345.641, 0, 0, []
1631431791.423, 56, 0, 4495.897, 7770.256, 4096.41, 4171.795, 4338.462, 0, 0, []
1631431791.4308, 57, 0, 4469.231, 7770.256, 4108.205, 4176.41, 4320.513, 0, 0, []
1631431791.4386, 58, 0, 4463.59, 7770.256, 4097.436, 4196.923, 4304.103, 0, 0, []
1631431791.4464, 59, 0, 4453.333, 7770.256, 4129.231, 4193.846, 4305.128, 0, 0, []
1631431791.4543, 60, 0, 4443.077, 7770.256, 4128.718, 4183.59, 4305.641, 0, 0, []
1631431791.4621, 61, 0, 4442.051, 7770.256, 4117.949, 4190.769, 4282.051, 0, 0, []
1631431791.47, 62, 0, 4429.231, 7770.256, 4110.769, 4191.795, 4263.59, 0, 0, []
1631431791.4778, 63, 0, 4414.359, 7770.256, 4096.41, 4186.154, 4267.179, 0, 0, []
1631431791.4857, 64, 0, 4413.333, 7770.256, 4127.179, 4185.128, 4256.923, 450, 0, []
1631431791.4935, 65, 0, 4408.718, 7770.256, 4114.872, 4182.564, 4231.795, 450, 0, []
1631431791.5014, 66, 0, 4393.333, 7770.769, 4102.051, 4186.154, 4234.359, 16190, 0, []
1631431791.5092, 67, 0, 4390.769, 7771.795, 4113.846, 4186.667, 4259.487, 450, 0, []
1631431791.517, 68, 0, 4402.564, 7772.308, 4096.923, 4179.487, 4254.359, 0, 0, []
1631431791.5248, 69, 0, 4392.308, 7771.795, 4116.923, 4183.077, 4225.641, 450, 0, []
1631431791.5327, 70, 0, 4361.026, 7774.359, 4112.821, 4186.154, 4219.487, 271, 0, []
1631431791.5405, 71, 0, 4358.462, 7773.333, 4109.231, 4184.615, 4232.821, 450, 0, []
1631431791.5484, 72, 0, 4382.051, 7754.359, 4125.641, 4187.179, 4237.436, 450, 0, []
1631431791.5561, 73, 0, 4390.256, 7726.154, 4098.974, 4196.41, 4232.308, 16169, 0, []
1631431791.5639, 74, 0, 4375.897, 7705.641, 4111.282, 4194.359, 4231.795, 450, 0, []
1631431791.5718, 75, 0, 4353.846, 7686.667, 4105.641, 4173.846, 4222.051, 16189, 0, []
1631431791.5796, 76, 0, 4344.615, 7660, 4090.769, 4169.231, 4202.564, 450, 0, []
1631431791.5875, 77, 0, 4351.795, 7625.641, 4109.744, 4186.154, 4198.974, 450, 0, []
1631431791.5952, 78, 0, 4349.744, 7590.769, 4082.564, 4177.949, 4195.897, 450, 0, []
1631431791.6031, 79, 0, 4337.436, 7558.974, 4086.154, 4162.564, 4184.615, 16189, 0, []
1631431791.6109, 80, 0, 4327.692, 7522.051, 4091.282, 4168.205, 4178.974, 450, 0, []
1631431791.6188, 81, 0, 4306.667, 7471.282, 4075.897, 4153.333, 4171.282, 450, 0, []
1631431791.6266, 82, 0, 4302.564, 7418.974, 4095.385, 4132.308, 4172.308, 450, 0, []
1631431791.6344, 83, 0, 4329.744, 7378.462, 4091.795, 4155.385, 4189.231, 16189, 0, []
1631431791.6422, 84, 0, 4335.897, 7327.692, 4102.051, 4178.462, 4188.205, 450, 0, []
1631431791.6501, 85, 0, 4323.077, 7263.077, 4098.974, 4169.231, 4169.744, 450, 0, []
1631431791.6579, 86, 0, 4329.744, 7201.538, 4082.564, 4167.179, 4168.718, 450, 0, []
1631431791.6658, 87, 0, 4339.487, 7138.974, 4107.179, 4181.538, 4173.846, 16189, 0, []
1631431791.6735, 88, 0, 4330.256, 7062.564, 4101.538, 4183.077, 4169.231, 450, 0, []
1631431791.6814, 89, 0, 4318.462, 6974.359, 4104.615, 4177.949, 4166.154, 450, 0, []
1631431791.6892, 90, 0, 4315.385, 6898.974, 4101.538, 4179.487, 4168.205, 450, 0, []
1631431791.6971, 91, 0, 4308.718, 6855.385, 4086.154, 4172.308, 4167.692, 16189, 0, []
1631431791.7049, 92, 0, 4301.026, 6824.615, 4110.256, 4160.513, 4167.179, 450, 0, []
1631431791.7127, 93, 0, 4304.615, 6796.41, 4097.949, 4160.513, 4169.744, 450, 0, []
1631431791.7205, 94, 0, 4314.872, 6781.026, 4106.667, 4165.128, 4170.769, 450, 0, []
1631431791.7283, 95, 0, 4322.051, 6741.538, 4125.641, 4169.744, 4171.282, 16189, 0, []
1631431791.7362, 96, 0, 4321.026, 6642.051, 4105.641, 4177.436, 4171.282, 450, 0, []
1631431791.744, 97, 0, 4314.872, 6535.385, 4121.026, 4174.872, 4165.641, 450, 0, []
1631431791.7519, 98, 0, 4323.59, 6483.59, 4118.974, 4169.231, 4163.59, 450, 0, []
1631431791.7596, 99, 0, 4339.487, 6452.821, 4119.487, 4183.59, 4176.923, 16189, 0, []
1631431791.7675, 100, 0, 4334.872, 6403.077, 4127.692, 4190.256, 4184.103, 450, 0, []
1631431791.7753, 101, 0, 4316.923, 6344.103, 4100, 4172.821, 4166.154, 450, 0, []
1631431791.7832, 102, 0, 4315.385, 6287.692, 4111.282, 4165.128, 4153.846, 450, 0, []
1631431791.791, 103, 0, 4337.949, 6240.513, 4109.744, 4172.821, 4174.359, 16189, 0, []
1631431791.7988, 104, 0, 4366.154, 6196.41, 4100.513, 4177.436, 4201.538, 450, 0, []
1631431791.8066, 105, 0, 4396.923, 6126.667, 4107.692, 4184.615, 4227.179, 450, 0, []
1631431791.8145, 106, 0, 4441.538, 6037.949, 4090.256, 4181.026, 4269.231, 450, 0, []
1631431791.8223, 107, 0, 4489.744, 5979.487, 4105.641, 4172.308, 4315.897, 16189, 0, []
1631431791.8302, 108, 0, 4537.949, 5962.051, 4111.282, 4185.641, 4369.231, 450, 0, []
1631431791.8379, 109, 0, 4576.923, 5941.026, 4111.282, 4200, 4421.026, 450, 0, []
1631431791.8458, 110, 0, 4582.051, 5896.923, 4120, 4184.615, 4420.513, 450, 0, []
1631431791.8536, 111, 0, 4580.513, 5873.333, 4098.974, 4186.154, 4398.974, 16189, 0, []
1631431791.8614, 112, 0, 4596.41, 5860, 4131.282, 4223.077, 4420, 450, 0, []
1631431791.8693, 113, 0, 4578.974, 5796.923, 4141.538, 4221.538, 4430.769, 450, 0, []
1631431791.877, 114, 0, 4533.333, 5729.744, 4114.872, 4181.026, 4395.897, 450, 0, []
1631431791.8849, 115, 0, 4522.051, 5716.41, 4134.359, 4171.795, 4374.872, 16189, 0, []
1631431791.8927, 116, 0, 4514.359, 5707.179, 4126.154, 4182.564, 4363.59, 450, 0, []
1631431791.9006, 117, 0, 4487.179, 5658.462, 4122.564, 4180.513, 4341.538, 450, 0, []
1631431791.9084, 118, 0, 4473.333, 5601.026, 4123.59, 4182.051, 4329.744, 450, 0, []
1631431791.9162, 119, 0, 4451.795, 5551.795, 4108.205, 4187.692, 4308.718, 16189, 0, []
1631431791.924, 120, 0, 4417.436, 5510.256, 4120.513, 4186.667, 4276.41, 450, 0, []
1631431791.9319, 121, 0, 4403.59, 5466.667, 4108.718, 4196.923, 4269.744, 450, 0, []
1631431791.9397, 122, 0, 4397.436, 5403.077, 4115.385, 4206.667, 4274.359, 450, 0, []
1631431791.9476, 123, 0, 4377.949, 5333.846, 4116.41, 4191.795, 4263.59, 16189, 0, []
1631431791.9553, 124, 0, 4355.385, 5278.974, 4091.282, 4167.692, 4241.026, 450, 0, []
1631431791.9632, 125, 0, 4347.692, 5261.538, 4111.282, 4161.538, 4222.564, 450, 0, []
1631431791.971, 126, 0, 4355.385, 5247.179, 4110.769, 4168.205, 4220, 450, 0, []
1631431791.9789, 127, 0, 4351.795, 5189.231, 4107.692, 4170.256, 4215.897, 16189, 0, []
1631431791.9867, 128, 0, 4335.897, 5143.59, 4123.077, 4175.897, 4201.538, 450, 0, []
1631431791.9945, 0, 0, 4334.359, 5132.308, 4124.103, 4186.667, 4201.026, 450, 0, []
1631431792.0023, 1, 0, 4326.154, 5070.256, 4133.333, 4174.359, 4200, 450, 0, []
1631431792.0102, 2, 0, 4299.487, 4980.513, 4107.692, 4149.744, 4185.641, 16207, 0, []
1631431792.018, 3, 0, 4291.282, 4946.667, 4099.487, 4150.769, 4187.179, 450, 0, []
1631431792.0259, 4, 0, 4290.256, 4915.385, 4110.769, 4160, 4194.872, 102, 0, []
1631431792.0337, 5, 0, 4273.333, 4849.231, 4081.026, 4155.385, 4175.897, 450, 0, []
1631431792.0414, 6, 0, 4269.744, 4809.744, 4080.513, 4152.308, 4154.359, 272, 0, []
1631431792.0493, 7, 0, 4289.231, 4824.615, 4082.564, 4157.436, 4160, 450, 0, []
1631431792.0571, 8, 0, 4297.436, 4886.154, 4084.615, 4161.026, 4171.282, 450, 0, []
1631431792.065, 9, 0, 4290.256, 4798.462, 4104.615, 4151.795, 4168.205, 16174, 0, []
1631431792.0728, 10, 0, 4283.59, 4648.205, 4099.487, 4135.385, 4166.667, 450, 0, []
1631431792.0806, 11, 0, 4276.923, 4851.282, 4109.231, 4138.462, 4173.333, 16185, 0, []
1631431792.0884, 12, 0, 4282.564, 4315.385, 4091.795, 4163.077, 4174.872, 450, 0, []
1631431792.0963, 13, 0, 4294.872, 2285.128, 4084.615, 4174.872, 4171.795, 450, 0, []
1631431792.1041, 14, 0, 4282.051, 663.59, 4115.897, 4159.487, 4168.205, 450, 0, []
1631431792.112, 15, 0, 4260, 632.821, 4089.744, 4143.077, 4158.974, 16185, 0, []
1631431792.1197, 16, 0, 4252.821, 839.487, 4088.205, 4132.821, 4149.744, 0, 0, []
1631431792.1276, 17, 0, 4235.385, 656.923, 4094.359, 4117.436, 4132.821, 0, 0, []
1631431792.1354, 18, 0, 4217.436, 701.538, 4081.026, 4110.769, 4109.231, 0, 0, []
1631431792.1433, 19, 0, 4228.718, 819.487, 4108.205, 4122.564, 4114.359, 0, 0, []
1631431792.1511, 20, 0, 4241.026, 810.769, 4102.051, 4129.231, 4135.897, 0, 0, []
1631431792.1589, 21, 0, 4231.282, 821.026, 4097.436, 4122.564, 4132.821, 0, 0, []
1631431792.1667, 22, 0, 4222.564, 815.385, 4096.923, 4125.128, 4116.923, 0, 0, []
1631431792.1745, 23, 0, 4214.359, 817.949, 4080.513, 4132.308, 4112.308, 0, 0, []
1631431792.1824, 24, 0, 4191.795, 817.436, 4080.513, 4125.128, 4103.59, 0, 0, []
1631431792.1902, 25, 0, 4171.795, 817.949, 4057.436, 4103.59, 4085.128, 0, 0, []
1631431792.198, 26, 0, 4173.333, 818.462, 4073.846, 4095.897, 4081.538, 0, 0, []
1631431792.2058, 27, 0, 4183.077, 816.41, 4086.154, 4104.103, 4086.667, 0, 0, []
1631431792.2137, 28, 0, 4175.897, 817.436, 4054.359, 4098.462, 4086.154, 0, 0, []
1631431792.2215, 29, 0, 4166.667, 817.436, 4070.256, 4090.769, 4082.564, 0, 0, []
1631431792.2294, 30, 0, 4169.744, 817.949, 4071.795, 4092.308, 4086.667, 0, 0, []
1631431792.2371, 31, 0, 4169.231, 817.436, 4069.231, 4096.923, 4089.231, 0, 0, []
1631431792.245, 32, 0, 4167.692, 817.436, 4076.41, 4103.077, 4084.615, 0, 0, []
1631431792.2528, 33, 0, 4170.769, 817.436, 4063.077, 4110.256, 4089.231, 0, 0, []
1631431792.2607, 34, 0, 4167.179, 817.436, 4075.385, 4107.692, 4096.41, 0, 0, []
1631431792.2685, 35, 0, 4163.59, 817.436, 4065.641, 4101.538, 4098.974, 0, 0, []
1631431792.2763, 36, 0, 4168.205, 817.436, 4068.718, 4108.718, 4105.128, 0, 0, []
1631431792.2841, 37, 0, 4165.641, 817.436, 4081.026, 4113.333, 4110.256, 0, 0, []
1631431792.292, 38, 0, 4145.128, 817.436, 4055.385, 4107.692, 4097.949, 0, 0, []
1631431792.2998, 39, 0, 4135.385, 817.436, 4069.744, 4105.128, 4086.154, 0, 0, []
1631431792.3077, 40, 0, 4148.718, 817.436, 4068.205, 4106.154, 4095.897, 0, 0, []
1631431792.3154, 41, 0, 4154.872, 817.436, 4060.513, 4108.718, 4105.128, 0, 0, []
1631431792.3232, 42, 0, 4151.282, 817.436, 4087.179, 4124.103, 4105.641, 0, 0, []
1631431792.3311, 43, 0, 4153.333, 817.436, 4077.436, 4143.077, 4108.718, 0, 0, []
1631431792.3389, 44, 0, 4145.128, 817.436, 4079.487, 4136.923, 4106.667, 0, 0, []
1631431792.3468, 45, 0, 4131.282, 817.436, 4079.487, 4121.538, 4095.385, 0, 0, []
1631431792.3546, 46, 0, 4131.282, 817.436, 4072.821, 4122.564, 4091.795, 0, 0, []
1631431792.3624, 47, 0, 4133.846, 817.436, 4084.103, 4130.256, 4095.897, 0, 0, []
1631431792.3702, 48, 0, 4134.872, 817.436, 4071.795, 4126.667, 4104.103, 0, 0, []
1631431792.3781, 49, 0, 4134.359, 817.436, 4081.538, 4110.256, 4103.59, 0, 0, []
1631431792.3859, 50, 0, 4123.59, 817.436, 4078.462, 4100.513, 4093.846, 0, 0, []
1631431792.3938, 51, 0, 4126.154, 817.436, 4076.923, 4120.513, 4103.077, 0, 0, []
1631431792.4015, 52, 0, 4137.949, 817.436, 4106.667, 4133.333, 4112.821, 0, 0, []
1631431792.4094, 53, 0, 4118.974, 817.436, 4068.718, 4109.231, 4085.641, 0, 0, []
1631431792.4172, 54, 0, 4100.513, 817.436, 4060.513, 4103.077, 4075.897, 0, 0, []
1631431792.4251, 55, 0, 4117.949, 817.436, 4084.615, 4128.718, 4107.179, 0, 0, []
1631431792.4329, 56, 0, 4127.692, 817.436, 4067.692, 4132.308, 4114.872, 0, 0, []
1631431792.4407, 57, 0, 4119.487, 817.436, 4075.385, 4120, 4102.564, 0, 0, []
1631431792.4485, 58, 0, 4124.103, 817.436, 4074.359, 4116.923, 4109.744, 0, 0, []
1631431792.4564, 59, 0, 4124.103, 817.436, 4075.897, 4112.308, 4112.308, 0, 0, []
1631431792.4642, 60, 0, 4107.179, 817.436, 4072.821, 4098.974, 4093.846, 0, 0, []
1631431792.4721, 61, 0, 4097.436, 817.436, 4062.564, 4096.923, 4082.564, 0, 0, []
1631431792.4799, 62, 0, 4091.795, 817.436, 4081.026, 4104.103, 4087.692, 0, 0, []
1631431792.4877, 63, 0, 4093.333, 817.436, 4062.564, 4108.718, 4095.385, 0, 0, []
1631431792.4955, 64, 0, 4098.974, 817.436, 4064.103, 4108.718, 4095.897, 450, 0, []
1631431792.5034, 65, 0, 4096.923, 817.436, 4075.897, 4103.59, 4090.256, 450, 0, []
1631431792.5113, 66, 0, 4094.359, 817.436, 4058.974, 4105.641, 4093.846, 16213, 0, []
1631431792.519, 67, 0, 4090.769, 817.436, 4087.179, 4111.282, 4096.923, 450, 0, []
1631431792.5269, 68, 0, 4080.513, 817.436, 4077.949, 4111.282, 4088.205, 225, 0, []
1631431792.5347, 69, 0, 4073.846, 817.436, 4056.41, 4108.205, 4077.949, 450, 0, []
1631431792.5426, 70, 0, 4074.872, 817.436, 4070.256, 4106.667, 4072.308, 277, 0, []
1631431792.5504, 71, 0, 4071.795, 817.436, 4057.949, 4109.231, 4071.282, 450, 0, []
1631431792.5582, 72, 0, 4075.385, 817.436, 4069.231, 4117.949, 4077.436, 450, 0, []
1631431792.566, 73, 0, 4086.667, 817.436, 4070.256, 4130.256, 4090.256, 16175, 0, []
1631431792.5739, 74, 0, 4083.59, 817.436, 4061.026, 4127.692, 4092.308, 450, 0, []
1631431792.5817, 75, 0, 4077.436, 817.436, 4072.308, 4110.769, 4083.59, 16210, 0, []
1631431792.5896, 76, 0, 4080, 817.436, 4061.538, 4098.462, 4080, 450, 0, []
1631431792.5973, 77, 0, 4077.436, 817.436, 4081.538, 4102.051, 4085.128, 450, 0, []
1631431792.6052, 78, 0, 4069.744, 817.436, 4079.487, 4116.41, 4091.282, 450, 0, []
1631431792.613, 79, 0, 4067.179, 817.436, 4058.462, 4123.077, 4090.769, 16210, 0, []
1631431792.6209, 80, 0, 4072.308, 817.436, 4068.205, 4122.051, 4089.744, 450, 0, []
1631431792.6287, 81, 0, 4081.538, 817.436, 4050.769, 4121.538, 4092.308, 450, 0, []
1631431792.6364, 82, 0, 4079.487, 817.436, 4063.077, 4119.487, 4088.718, 450, 0, []
1631431792.6443, 83, 0, 4072.821, 817.436, 4068.205, 4121.538, 4088.205, 16210, 0, []
1631431792.6521, 84, 0, 4075.897, 817.436, 4054.359, 4122.051, 4091.282, 450, 0, []
1631431792.66, 85, 0, 4068.718, 817.436, 4082.051, 4114.359, 4082.051, 450, 0, []
1631431792.6678, 86, 0, 4048.718, 817.436, 4078.462, 4112.308, 4071.282, 450, 0, []
1631431792.6757, 87, 0, 4056.923, 817.436, 4085.128, 4122.051, 4081.026, 16210, 0, []
1631431792.6834, 88, 0, 4083.59, 817.436, 4087.692, 4128.205, 4100, 450, 0, []
1631431792.6913, 89, 0, 4076.923, 817.436, 4063.59, 4120.513, 4100, 450, 0, []
1631431792.6991, 90, 0, 4054.872, 817.436, 4071.282, 4107.692, 4085.641, 450, 0, []
1631431792.707, 91, 0, 4064.615, 817.436, 4057.436, 4106.154, 4080.513, 16210, 0, []
1631431792.7148, 92, 0, 4074.359, 817.436, 4062.564, 4119.487, 4087.179, 450, 0, []
1631431792.7226, 93, 0, 4065.128, 817.436, 4070.256, 4129.744, 4092.821, 450, 0, []
1631431792.7304, 94, 0, 4067.692, 817.436, 4054.359, 4127.179, 4093.846, 450, 0, []
1631431792.7383, 95, 0, 4074.872, 817.436, 4081.538, 4124.103, 4094.359, 16210, 0, []
1631431792.7461, 96, 0, 4066.154, 817.436, 4072.821, 4121.026, 4085.641, 450, 0, []
1631431792.754, 97, 0, 4063.59, 817.436, 4062.564, 4118.974, 4076.41, 450, 0, []
1631431792.7617, 98, 0, 4077.949, 817.436, 4078.974, 4125.641, 4086.667, 450, 0, []
1631431792.7696, 99, 0, 4072.821, 817.436, 4056.923, 4121.026, 4087.692, 16210, 0, []
1631431792.7774, 100, 0, 4050.256, 817.436, 4056.923, 4102.051, 4065.641, 450, 0, []
1631431792.7852, 101, 0, 4050.769, 817.436, 4066.154, 4111.282, 4070.769, 450, 0, []
1631431792.7931, 102, 0, 4066.154, 817.436, 4082.564, 4142.051, 4096.923, 450, 0, []
1631431792.8009, 103, 0, 4060.513, 817.436, 4086.154, 4140, 4094.872, 16210, 0, []
1631431792.8087, 104, 0, 4049.231, 817.436, 4057.949, 4122.051, 4081.538, 450, 0, []
1631431792.8165, 105, 0, 4051.795, 817.436, 4080, 4125.128, 4084.615, 450, 0, []
1631431792.8244, 106, 0, 4048.205, 817.436, 4082.051, 4124.615, 4087.179, 450, 0, []
1631431792.8322, 107, 0, 4044.615, 817.436, 4076.923, 4116.923, 4083.59, 16210, 0, []
1631431792.84, 108, 0, 4062.051, 817.436, 4103.59, 4130.256, 4089.744, 450, 0, []
1631431792.8478, 109, 0, 4078.974, 817.436, 4089.231, 4146.667, 4100, 450, 0, []
1631431792.8557, 110, 0, 4073.846, 817.436, 4089.231, 4141.538, 4100, 450, 0, []
1631431792.8635, 111, 0, 4073.333, 817.436, 4082.051, 4137.436, 4101.538, 16210, 0, []
1631431792.8714, 112, 0, 4084.103, 817.436, 4075.385, 4140.513, 4109.231, 450, 0, []
1631431792.8791, 113, 0, 4085.128, 817.436, 4096.41, 4141.538, 4111.795, 450, 0, []
1631431792.887, 114, 0, 4081.538, 817.436, 4074.359, 4135.897, 4109.744, 450, 0, []
1631431792.8948, 115, 0, 4081.026, 817.436, 4077.436, 4126.667, 4110.256, 16210, 0, []
1631431792.9027, 116, 0, 4080.513, 817.436, 4083.59, 4121.538, 4111.282, 450, 0, []
1631431792.9105, 117, 0, 4078.462, 817.436, 4073.846, 4126.154, 4109.744, 450, 0, []
1631431792.9183, 118, 0, 4081.538, 817.436, 4086.667, 4127.692, 4108.718, 450, 0, []
1631431792.9261, 119, 0, 4084.615, 817.436, 4059.487, 4120.513, 4110.256, 16210, 0, []
1631431792.934, 120, 0, 4088.205, 817.436, 4065.641, 4123.59, 4118.462, 450, 0, []
1631431792.9418, 121, 0, 4094.872, 817.436, 4093.846, 4138.462, 4124.103, 450, 0, []
1631431792.9496, 122, 0, 4083.077, 817.436, 4084.103, 4142.564, 4113.333, 450, 0, []
1631431792.9575, 123, 0, 4072.821, 817.436, 4091.282, 4140.513, 4104.103, 16210, 0, []
1631431792.9652, 124, 0, 4083.59, 817.436, 4076.923, 4143.077, 4113.846, 450, 0, []
1631431792.9731, 125, 0, 4096.923, 817.436, 4081.538, 4145.128, 4132.308, 450, 0, []
1631431792.9809, 126, 0, 4100, 817.436, 4092.308, 4140, 4137.436, 450, 0, []
1631431792.9888, 127, 0, 4090.769, 817.436, 4073.333, 4129.744, 4120, 16210, 0, []
1631431792.9966, 128, 0, 4070.256, 817.436, 4083.077, 4128.718, 4099.487, 450, 0, []
1631431793.0044, 0, 0, 4051.282, 817.436, 4066.154, 4134.872, 4088.205, 450, 0, []
1631431793.0122, 1, 0, 4057.436, 817.436, 4072.821, 4140.513, 4093.333, 450, 0, []
1631431793.0201, 2, 0, 4073.846, 817.436, 4097.436, 4149.231, 4111.282, 16227, 0, []
1631431793.0279, 3, 0, 4075.385, 817.436, 4075.385, 4151.282, 4118.462, 450, 0, []
1631431793.0358, 4, 0, 4080.513, 817.436, 4090.256, 4146.667, 4124.103, 0, 0, []
1631431793.0435, 5, 0, 4091.282, 817.436, 4091.282, 4140, 4135.385, 450, 0, []
1631431793.0514, 6, 0, 4089.231, 817.436, 4083.077, 4129.744, 4134.359, 241, 0, []
1631431793.0592, 7, 0, 4077.949, 817.436, 4083.59, 4105.641, 4117.436, 450, 0, []
1631431793.0671, 8, 0, 4075.897, 817.436, 4057.436, 4100, 4113.846, 450, 0, []
1631431793.0749, 9, 0, 4079.487, 817.436, 4080.513, 4135.897, 4131.795, 16181, 0, []
1631431793.0827, 10, 0, 4078.974, 817.436, 4083.077, 4164.103, 4142.564, 450, 0, []
1631431793.0905, 11, 0, 4066.154, 817.436, 4056.41, 4149.231, 4122.564, 16212, 0, []
1631431793.0983, 12, 0, 4047.179, 817.436, 4065.641, 4127.179, 4094.872, 450, 0, []
1631431793.1062, 13, 0, 4048.718, 817.436, 4067.692, 4133.846, 4096.41, 450, 0, []
1631431793.114, 14, 0, 4060, 817.436, 4088.718, 4142.564, 4106.154, 450, 0, []
1631431793.1218, 15, 0, 4063.077, 817.436, 4082.051, 4134.872, 4105.641, 16212, 0, []
1631431793.1296, 16, 0, 4059.487, 817.436, 4062.051, 4126.667, 4103.077, 0, 0, []
1631431793.1375, 17, 0, 4053.333, 817.436, 4077.436, 4128.205, 4098.974, 0, 0, []
1631431793.1453, 18, 0, 4053.333, 817.436, 4073.333, 4135.897, 4099.487, 0, 0, []
1631431793.1532, 19, 0, 4057.436, 817.436, 4092.821, 4144.103, 4108.205, 0, 0, []
1631431793.1609, 20, 0, 4063.077, 817.436, 4094.872, 4155.385, 4121.026, 0, 0, []
1631431793.1688, 21, 0, 4065.128, 817.436, 4074.359, 4153.846, 4121.538, 0, 0, []
1631431793.1766, 22, 0, 4061.026, 817.436, 4087.179, 4130.769, 4111.282, 0, 0, []
1631431793.1845, 23, 0, 4066.154, 817.436, 4070.256, 4118.462, 4111.282, 0, 0, []
1631431793.1923, 24, 0, 4069.231, 817.436, 4076.41, 4125.128, 4111.795, 0, 0, []
1631431793.2001, 25, 0, 4058.462, 817.436, 4081.026, 4121.538, 4094.872, 0, 0, []
1631431793.2079, 26, 0, 4050.769, 817.436, 4059.487, 4108.718, 4080.513, 0, 0, []
1631431793.2158, 27, 0, 4068.205, 817.436, 4084.103, 4124.615, 4101.538, 0, 0, []
1631431793.2236, 28, 0, 4091.795, 817.436, 4086.667, 4153.846, 4135.897, 0, 0, []
1631431793.2315, 29, 0, 4092.308, 817.436, 4086.667, 4150.256, 4135.385, 0, 0, []
1631431793.2392, 30, 0, 4080, 817.436, 4082.051, 4131.795, 4118.462, 0, 0, []
1631431793.247, 31, 0, 4080, 817.436, 4061.538, 4130.256, 4126.667, 0, 0, []
1631431793.2549, 32, 0, 4090.769, 817.436, 4083.59, 4132.308, 4140.513, 0, 0, []
1631431793.2627, 33, 0, 4092.308, 817.436, 4074.359, 4126.154, 4131.282, 0, 0, []
1631431793.2706, 34, 0, 4089.744, 816.923, 4082.564, 4135.897, 4131.795, 0, 0, []
1631431793.2784, 35, 0, 4096.923, 816.923, 4107.179, 4154.872, 4150.769, 0, 0, []
1631431793.2862, 36, 0, 4092.821, 817.436, 4085.641, 4149.231, 4146.667, 0, 0, []
1631431793.294, 37, 0, 4082.564, 815.385, 4098.462, 4141.538, 4127.692, 0, 0, []
1631431793.3019, 38, 0, 4089.231, 817.436, 4090.769, 4144.615, 4131.282, 0, 0, []
1631431793.3097, 39, 0, 4111.282, 826.154, 4074.359, 4143.077, 4154.359, 0, 0, []
1631431793.3176, 40, 0, 4142.051, 833.846, 4089.744, 4135.897, 4175.897, 0, 0, []
1631431793.3253, 41, 0, 4170.769, 841.538, 4069.744, 4125.641, 4198.462, 0, 0, []
1631431793.3332, 42, 0, 4193.846, 847.692, 4071.795, 4117.949, 4225.128, 0, 0, []
1631431793.341, 43, 0, 4226.667, 862.051, 4094.359, 4134.872, 4254.872, 0, 0, []
1631431793.3489, 44, 0, 4240, 882.564, 4114.872, 4161.026, 4265.641, 0, 0, []
1631431793.3567, 45, 0, 4202.051, 889.231, 4109.231, 4149.231, 4230.256, 0, 0, []
1631431793.3645, 46, 0, 4158.974, 897.436, 4073.333, 4127.179, 4191.282, 0, 0, []
1631431793.3723, 47, 0, 4147.692, 915.897, 4095.897, 4126.154, 4181.538, 0, 0, []
1631431793.3802, 48, 0, 4146.154, 929.231, 4089.744, 4120.513, 4174.359, 0, 0, []
1631431793.388, 49, 0, 4149.744, 942.564, 4069.231, 4124.615, 4164.615, 0, 0, []
1631431793.3959, 50, 0, 4151.795, 969.231, 4100.513, 4137.436, 4169.744, 0, 0, []
1631431793.4036, 51, 0, 4142.051, 987.692, 4090.769, 4131.282, 4169.744, 0, 0, []
1631431793.4115, 52, 0, 4132.308, 995.897, 4092.308, 4115.385, 4155.897, 0, 0, []
1631431793.4193, 53, 0, 4127.179, 1011.795, 4097.949, 4112.821, 4151.795, 0, 0, []
1631431793.4271, 54, 0, 4119.487, 1026.154, 4085.128, 4113.333, 4151.795, 0, 0, []
1631431793.435, 55, 0, 4119.487, 1032.821, 4103.077, 4116.923, 4148.205, 0, 0, []
1631431793.4427, 56, 0, 4129.744, 1049.744, 4099.487, 4128.205, 4155.897, 0, 0, []
1631431793.4506, 57, 0, 4141.538, 1082.051, 4113.333, 4145.128, 4178.462, 0, 0, []
1631431793.4584, 58, 0, 4151.282, 1104.103, 4116.41, 4156.923, 4186.154, 0, 0, []
1631431793.4663, 59, 0, 4145.641, 1115.385, 4084.103, 4143.59, 4171.795, 0, 0, []
1631431793.4742, 60, 0, 4133.333, 1133.846, 4091.282, 4128.718, 4164.103, 0, 0, []
1631431793.482, 61, 0, 4134.359, 1152.821, 4081.026, 4135.385, 4172.308, 0, 0, []
1631431793.4898, 62, 0, 4138.462, 1164.103, 4083.59, 4137.949, 4171.795, 0, 0, []
1631431793.4976, 63, 0, 4133.846, 1183.59, 4098.462, 4135.897, 4161.026, 0, 0, []
1631431793.5055, 64, 0, 4127.692, 1207.179, 4083.59, 4135.897, 4150.769, 450, 0, []
1631431793.5134, 65, 0, 4123.077, 1209.231, 4091.282, 4118.462, 4136.923, 450, 0, []
1631431793.5211, 66, 0, 4113.333, 1210.769, 4074.872, 4107.692, 4130.256, 16216, 0, []
1631431793.529, 67, 0, 4108.205, 1233.846, 4074.872, 4115.897, 4130.256, 450, 0, []
1631431793.5368, 68, 0, 4119.487, 1265.641, 4091.282, 4117.949, 4135.897, 286, 0, []
1631431793.5447, 69, 0, 4141.538, 1294.359, 4077.949, 4124.103, 4156.41, 450, 0, []
1631431793.5525, 70, 0, 4151.795, 1322.051, 4092.308, 4131.795, 4177.949, 285, 0, []
1631431793.5602, 71, 0, 4161.538, 1354.359, 4078.462, 4130.256, 4188.205, 450, 0, []
1631431793.5681, 72, 0, 4187.692, 1387.179, 4077.436, 4134.359, 4194.872, 450, 0, []
1631431793.5759, 73, 0, 4214.359, 1420.513, 4103.077, 4137.436, 4216.923, 16155, 0, []
1631431793.5838, 74, 0, 4236.923, 1448.718, 4079.487, 4119.487, 4250.256, 450, 0, []
1631431793.5916, 75, 0, 4268.718, 1465.641, 4089.744, 4105.641, 4291.282, 16213, 0, []
1631431793.5995, 76, 0, 4302.051, 1494.872, 4102.564, 4115.897, 4337.436, 450, 0, []
1631431793.6072, 77, 0, 4337.949, 1532.308, 4107.692, 4145.641, 4382.051, 450, 0, []
1631431793.6151, 78, 0, 4377.949, 1549.744, 4118.974, 4176.41, 4408.718, 450, 0, []
1631431793.6229, 79, 0, 4378.974, 1568.205, 4087.179, 4169.231, 4406.154, 16213, 0, []
1631431793.6308, 80, 0, 4341.026, 1610.769, 4099.487, 4152.308, 4392.821, 450, 0, []
1631431793.6386, 81, 0, 4314.359, 1640.513, 4106.667, 4158.462, 4375.385, 450, 0, []
1631431793.6464, 82, 0, 4289.231, 1647.692, 4082.051, 4145.641, 4347.692, 450, 0, []
1631431793.6542, 83, 0, 4241.026, 1663.59, 4083.077, 4121.538, 4317.436, 16213, 0, []
1631431793.6621, 84, 0, 4205.641, 1689.231, 4068.205, 4136.923, 4296.41, 450, 0, []
1631431793.6699, 85, 0, 4196.923, 1709.231, 4084.103, 4157.436, 4288.718, 450, 0, []
1631431793.6778, 86, 0, 4189.744, 1732.308, 4093.333, 4151.282, 4281.538, 450, 0, []
1631431793.6855, 87, 0, 4178.974, 1772.308, 4086.154, 4156.41, 4261.538, 16213, 0, []
1631431793.6934, 88, 0, 4166.154, 1812.308, 4104.103, 4174.359, 4243.077, 450, 0, []
1631431793.7012, 89, 0, 4149.231, 1844.103, 4086.667, 4169.231, 4232.821, 450, 0, []
1631431793.7091, 90, 0, 4128.205, 1873.846, 4094.872, 4151.795, 4216.923, 450, 0, []
1631431793.7169, 91, 0, 4115.385, 1895.385, 4103.59, 4151.795, 4197.436, 16213, 0, []
1631431793.7246, 92, 0, 4107.179, 1902.051, 4081.026, 4160, 4185.128, 450, 0, []
1631431793.7325, 93, 0, 4096.923, 1906.154, 4099.487, 4158.974, 4177.436, 450, 0, []
1631431793.7403, 94, 0, 4095.897, 1934.872, 4103.077, 4154.872, 4171.282, 450, 0, []
1631431793.7482, 95, 0, 4091.795, 1979.487, 4102.564, 4150.256, 4166.667, 16213, 0, []
1631431793.756, 96, 0, 4083.59, 2013.333, 4088.718, 4144.103, 4163.077, 450, 0, []
1631431793.7638, 97, 0, 4092.308, 2023.077, 4068.205, 4147.179, 4170.769, 450, 0, []
1631431793.7716, 98, 0, 4103.077, 2033.846, 4096.41, 4160, 4177.436, 450, 0, []
1631431793.7795, 99, 0, 4081.026, 2056.41, 4077.949, 4151.282, 4155.897, 16213, 0, []
1631431793.7873, 100, 0, 4060.513, 2064.615, 4063.59, 4133.846, 4128.205, 450, 0, []
1631431793.7952, 101, 0, 4076.41, 2067.179, 4087.179, 4138.462, 4140.513, 450, 0, []
1631431793.8029, 102, 0, 4087.179, 2100.513, 4073.333, 4146.667, 4162.051, 450, 0, []
1631431793.8108, 103, 0, 4070.769, 2149.744, 4072.308, 4143.59, 4138.462, 16213, 0, []
1631431793.8186, 104, 0, 4051.795, 2166.667, 4061.026, 4136.923, 4110.256, 450, 0, []
1631431793.8265, 105, 0, 4042.051, 2175.385, 4058.462, 4130.769, 4106.667, 450, 0, []
1631431793.8343, 106, 0, 4038.974, 2209.744, 4070.769, 4123.077, 4108.718, 450, 0, []
1631431793.8421, 107, 0, 4050.256, 2236.923, 4058.462, 4123.59, 4116.923, 16213, 0, []
1631431793.8499, 108, 0, 4060.513, 2252.308, 4083.59, 4127.692, 4123.077, 450, 0, []
1631431793.8578, 109, 0, 4044.103, 2274.872, 4075.385, 4121.538, 4109.744, 450, 0, []
1631431793.8656, 110, 0, 4037.949, 2292.821, 4060, 4123.59, 4106.154, 450, 0, []
1631431793.8734, 111, 0, 4064.103, 2308.205, 4091.282, 4139.487, 4126.154, 16213, 0, []
1631431793.8812, 112, 0, 4070.256, 2335.385, 4078.974, 4143.077, 4130.769, 450, 0, []
1631431793.889, 113, 0, 4056.41, 2356.923, 4080.513, 4134.872, 4121.538, 450, 0, []
1631431793.8969, 114, 0, 4062.051, 2374.359, 4090.256, 4139.487, 4127.692, 450, 0, []
1631431793.9047, 115, 0, 4059.487, 2403.077, 4085.128, 4146.154, 4128.205, 16213, 0, []
1631431793.9126, 116, 0, 4034.872, 2424.615, 4088.205, 4135.385, 4103.077, 450, 0, []
1631431793.9204, 117, 0, 4033.333, 2439.487, 4062.051, 4122.051, 4091.795, 450, 0, []
1631431793.9282, 118, 0, 4044.615, 2463.077, 4072.821, 4118.974, 4101.026, 450, 0, []
1631431793.936, 119, 0, 4038.462, 2488.205, 4072.308, 4120, 4101.538, 16213, 0, []
1631431793.9439, 120, 0, 4036.923, 2500.513, 4050.769, 4123.59, 4096.41, 450, 0, []
1631431793.9517, 121, 0, 4054.872, 2515.897, 4081.538, 4133.333, 4111.282, 450, 0, []
1631431793.9596, 122, 0, 4077.436, 2552.821, 4083.59, 4154.359, 4136.41, 450, 0, []
1631431793.9673, 123, 0, 4081.026, 2581.538, 4086.667, 4164.103, 4134.359, 16213, 0, []
1631431793.9752, 124, 0, 4063.077, 2600.513, 4094.872, 4160.513, 4120, 450, 0, []
1631431793.983, 125, 0, 4046.154, 2615.385, 4084.615, 4160.513, 4111.282, 450, 0, []
1631431793.9909, 126, 0, 4043.077, 2621.026, 4096.41, 4152.308, 4108.205, 450, 0, []
1631431793.9987, 127, 0, 4051.282, 2646.667, 4080, 4138.974, 4108.205, 16213, 0, []
1631431794.0065, 128, 0, 4050.769, 2679.487, 4085.641, 4139.487, 4110.256, 450, 0, []
1631431794.0143, 0, 0, 4044.615, 2686.667, 4090.256, 4144.103, 4105.641, 450, 0, []
1631431794.0221, 1, 0, 4054.872, 2694.872, 4073.846, 4143.077, 4109.231, 450, 0, []
1631431794.03, 2, 0, 4073.333, 2723.59, 4101.026, 4161.026, 4130.256, 16192, 0, []
1631431794.0378, 3, 0, 4074.359, 2745.641, 4087.692, 4173.333, 4134.359, 450, 0, []
1631431794.0456, 4, 0, 4056.41, 2765.128, 4073.333, 4152.308, 4117.949, 309, 0, []
1631431794.0534, 5, 0, 4045.128, 2793.333, 4081.538, 4134.872, 4106.667, 450, 0, []
1631431794.0613, 6, 0, 4043.077, 2797.949, 4062.051, 4132.821, 4109.231, 278, 0, []
1631431794.0691, 7, 0, 4053.846, 2804.103, 4092.821, 4140, 4123.59, 450, 0, []
1631431794.077, 8, 0, 4072.308, 2836.41, 4105.128, 4150.256, 4133.333, 450, 0, []
1631431794.0847, 9, 0, 4071.282, 2849.231, 4089.231, 4155.385, 4127.692, 16158, 0, []
1631431794.0926, 10, 0, 4061.538, 2858.974, 4088.718, 4154.359, 4118.462, 450, 0, []
1631431794.1004, 11, 0, 4056.923, 2888.205, 4067.179, 4142.564, 4117.436, 16195, 0, []
1631431794.1083, 12, 0, 4055.897, 2898.462, 4073.333, 4129.231, 4116.923, 450, 0, []
1631431794.1161, 13, 0, 4059.487, 2896.923, 4071.282, 4132.821, 4121.026, 450, 0, []
1631431794.1239, 14, 0, 4059.487, 2915.897, 4068.718, 4143.59, 4120.513, 450, 0, []
1631431794.1317, 15, 0, 4060, 2952.821, 4087.692, 4146.154, 4110.769, 16195, 0, []
1631431794.1396, 16, 0, 4063.59, 2974.359, 4073.846, 4147.692, 4113.846, 0, 0, []
1631431794.1474, 17, 0, 4061.026, 2981.026, 4081.026, 4141.026, 4118.462, 0, 0, []
1631431794.1553, 18, 0, 4061.538, 3003.59, 4078.974, 4130.256, 4121.026, 0, 0, []
1631431794.163, 19, 0, 4072.821, 3031.795, 4075.385, 4140, 4132.821, 0, 0, []
1631431794.1709, 20, 0, 4065.128, 3035.385, 4086.667, 4144.103, 4121.026, 0, 0, []
1631431794.1787, 21, 0, 4050.256, 3040.513, 4063.59, 4131.795, 4101.538, 0, 0, []
1631431794.1865, 22, 0, 4069.744, 3074.872, 4091.282, 4146.154, 4121.026, 0, 0, []
1631431794.1944, 23, 0, 4090.769, 3094.359, 4110.256, 4165.128, 4145.128, 0, 0, []
1631431794.2022, 24, 0, 4077.949, 3085.128, 4080.513, 4151.795, 4130.256, 0, 0, []
1631431794.21, 25, 0, 4060, 3100.513, 4083.077, 4135.385, 4108.718, 0, 0, []
1631431794.2178, 26, 0, 4060, 3138.462, 4076.41, 4137.949, 4112.821, 0, 0, []
1631431794.2257, 27, 0, 4072.308, 3144.103, 4093.846, 4143.59, 4122.564, 0, 0, []
1631431794.2335, 28, 0, 4071.282, 3130.769, 4096.41, 4136.923, 4115.385, 0, 0, []
1631431794.2414, 29, 0, 4057.949, 3162.564, 4061.538, 4130.256, 4107.179, 0, 0, []
1631431794.2491, 30, 0, 4075.385, 3219.487, 4084.615, 4145.641, 4124.103, 0, 0, []
1631431794.257, 31, 0, 4107.179, 3230.256, 4088.718, 4166.154, 4147.692, 0, 0, []
1631431794.2648, 32, 0, 4105.641, 3211.795, 4082.051, 4157.949, 4147.692, 0, 0, []
1631431794.2727, 33, 0, 4088.718, 3223.077, 4081.026, 4140, 4131.795, 0, 0, []
1631431794.2805, 34, 0, 4075.385, 3250.256, 4064.103, 4135.385, 4110.256, 0, 0, []
1631431794.2883, 35, 0, 4065.641, 3256.41, 4085.641, 4139.487, 4105.641, 0, 0, []
1631431794.2961, 36, 0, 4079.487, 3266.154, 4084.615, 4144.615, 4123.59, 0, 0, []
1631431794.304, 37, 0, 4095.897, 3300, 4087.179, 4144.615, 4131.282, 0, 0, []
1631431794.3118, 38, 0, 4076.923, 3316.923, 4085.128, 4138.974, 4115.385, 0, 0, []
1631431794.3197, 39, 0, 4063.077, 3316.41, 4049.744, 4129.231, 4107.692, 0, 0, []
1631431794.3274, 40, 0, 4087.692, 3331.282, 4072.308, 4128.718, 4125.128, 0, 0, []
1631431794.3354, 41, 0, 4101.026, 3347.692, 4080.513, 4143.59, 4129.231, 0, 0, []
1631431794.3433, 42, 0, 4087.179, 3357.949, 4080, 4153.846, 4116.41, 0, 0, []
1631431794.3513, 43, 0, 4089.744, 3379.487, 4101.538, 4152.821, 4126.154, 0, 0, []
1631431794.3592, 44, 0, 4101.026, 3400, 4084.615, 4140.513, 4134.872, 0, 0, []
1631431794.3669, 45, 0, 4090.769, 3409.231, 4083.077, 4130.256, 4119.487, 0, 0, []
1631431794.3748, 46, 0, 4088.205, 3427.692, 4070.256, 4133.846, 4114.872, 0, 0, []
1631431794.3826, 47, 0, 4102.564, 3445.641, 4066.667, 4137.436, 4127.179, 0, 0, []
1631431794.3905, 48, 0, 4098.974, 3450.256, 4087.692, 4132.308, 4127.179, 0, 0, []
1631431794.3983, 49, 0, 4084.615, 3452.308, 4063.59, 4131.282, 4107.692, 0, 0, []
1631431794.4061, 50, 0, 4083.59, 3454.359, 4070.256, 4124.615, 4096.923, 0, 0, []
1631431794.4139, 51, 0, 4110.256, 3472.821, 4085.641, 4123.077, 4131.282, 0, 0, []
1631431794.4218, 52, 0, 4151.282, 3497.436, 4089.231, 4148.205, 4176.923, 0, 0, []
1631431794.4296, 53, 0, 4172.821, 3510.769, 4100, 4150.769, 4190.769, 0, 0, []
1631431794.4375, 54, 0, 4196.41, 3530.256, 4075.897, 4133.333, 4220, 0, 0, []
1631431794.4452, 55, 0, 4263.077, 3550.769, 4092.821, 4152.821, 4287.179, 0, 0, []
1631431794.4531, 56, 0, 4336.923, 3562.051, 4101.538, 4176.41, 4340, 0, 0, []
1631431794.461, 57, 0, 4376.41, 3587.179, 4081.538, 4166.667, 4369.744, 0, 0, []
1631431794.4689, 58, 0, 4396.923, 3607.692, 4104.103, 4160, 4400.513, 0, 0, []
1631431794.4768, 59, 0, 4399.487, 3603.077, 4101.538, 4168.718, 4414.872, 0, 0, []
1631431794.4845, 60, 0, 4371.795, 3604.615, 4103.077, 4171.282, 4395.385, 0, 0, []
1631431794.4925, 61, 0, 4332.308, 3611.795, 4100.513, 4167.179, 4360.513, 0, 0, []
1631431794.5004, 62, 0, 4299.487, 3623.077, 4089.744, 4175.897, 4328.718, 0, 0, []
1631431794.5083, 63, 0, 4267.179, 3643.59, 4119.487, 4191.795, 4305.128, 0, 0, []
1631431794.5163, 64, 0, 4204.615, 3647.692, 4094.872, 4182.564, 4268.205, 450, 0, []
1631431794.5241, 65, 0, 4137.949, 3651.282, 4075.385, 4168.205, 4210.769, 450, 0, []
1631431794.5319, 66, 0, 4098.974, 3674.359, 4089.231, 4169.231, 4158.462, 16195, 0, []
1631431794.5398, 67, 0, 4052.821, 3671.795, 4071.795, 4154.872, 4108.205, 450, 0, []
1631431794.5476, 68, 0, 4009.231, 3664.103, 4083.077, 4133.846, 4055.385, 16143, 0, []
1631431794.5555, 69, 0, 4007.692, 3694.872, 4088.718, 4137.436, 4042.051, 450, 0, []
1631431794.5633, 70, 0, 4006.667, 3700.513, 4091.795, 4143.077, 4053.333, 274, 0, []
1631431794.5711, 71, 0, 3985.128, 3682.564, 4090.256, 4136.923, 4043.59, 450, 0, []
1631431794.5789, 72, 0, 3987.179, 3709.231, 4073.846, 4150.769, 4037.436, 450, 0, []
1631431794.5868, 73, 0, 3999.487, 3745.128, 4098.462, 4162.051, 4041.026, 16166, 0, []
1631431794.5946, 74, 0, 3984.103, 3743.59, 4080, 4142.564, 4024.103, 450, 0, []
1631431794.6025, 75, 0, 3966.154, 3748.205, 4063.59, 4124.103, 4004.615, 16196, 0, []
1631431794.6102, 76, 0, 3973.333, 3773.846, 4092.821, 4125.128, 4016.41, 450, 0, []
1631431794.6181, 77, 0, 3985.641, 3772.308, 4085.641, 4122.051, 4022.564, 450, 0, []
1631431794.6259, 78, 0, 3977.436, 3761.538, 4093.333, 4114.359, 4004.103, 450, 0, []
1631431794.6338, 79, 0, 3960.513, 3783.077, 4081.538, 4123.077, 3991.282, 16196, 0, []
1631431794.6416, 80, 0, 3963.59, 3809.231, 4060, 4143.59, 3994.872, 450, 0, []
1631431794.6495, 81, 0, 3982.564, 3816.41, 4070.256, 4157.949, 4011.795, 450, 0, []
1631431794.6574, 82, 0, 3990.256, 3816.41, 4053.333, 4151.795, 4022.564, 450, 0, []
1631431794.6654, 83, 0, 3983.59, 3812.308, 4053.846, 4123.59, 4016.41, 16196, 0, []
1631431794.6733, 84, 0, 3995.897, 3821.026, 4054.359, 4112.308, 4018.462, 450, 0, []
1631431794.6812, 85, 0, 4012.821, 3850.769, 4061.026, 4117.436, 4026.667, 450, 0, []
1631431794.689, 86, 0, 3998.974, 3872.821, 4089.744, 4122.564, 4025.641, 450, 0, []
1631431794.6968, 87, 0, 3990.256, 3876.923, 4072.821, 4136.923, 4023.59, 16196, 0, []
1631431794.7047, 88, 0, 3998.974, 3879.487, 4074.872, 4145.641, 4025.128, 450, 0, []
1631431794.7125, 89, 0, 3993.846, 3881.026, 4065.641, 4135.385, 4014.872, 450, 0, []
1631431794.7204, 90, 0, 3993.333, 3884.615, 4051.795, 4133.846, 4014.872, 450, 0, []
1631431794.7281, 91, 0, 4009.231, 3893.846, 4088.205, 4147.179, 4031.795, 16196, 0, []
1631431794.736, 92, 0, 4008.718, 3918.974, 4076.923, 4141.026, 4026.154, 450, 0, []
1631431794.7438, 93, 0, 3991.282, 3937.436, 4066.667, 4117.949, 4006.154, 450, 0, []
1631431794.7517, 94, 0, 3986.667, 3923.59, 4067.179, 4106.667, 4006.667, 450, 0, []
1631431794.7595, 95, 0, 3993.846, 3913.846, 4060, 4107.179, 4026.667, 16196, 0, []
1631431794.7673, 96, 0, 4011.282, 3943.077, 4089.744, 4135.385, 4049.744, 450, 0, []
1631431794.7751, 97, 0, 4029.744, 3976.923, 4082.051, 4174.872, 4064.615, 450, 0, []
1631431794.783, 98, 0, 4026.667, 3973.846, 4076.923, 4168.205, 4070.769, 450, 0, []
1631431794.7908, 99, 0, 4024.103, 3963.077, 4082.564, 4141.538, 4071.282, 16196, 0, []
1631431794.7988, 100, 0, 4034.872, 3970.256, 4067.179, 4146.154, 4066.667, 450, 0, []
1631431794.8066, 101, 0, 4027.179, 3976.923, 4079.487, 4146.667, 4053.333, 450, 0, []
1631431794.8146, 102, 0, 4010.769, 3982.051, 4059.487, 4126.667, 4046.154, 450, 0, []
1631431794.8225, 103, 0, 4021.538, 3994.872, 4057.436, 4129.744, 4059.487, 16196, 0, []
1631431794.8305, 104, 0, 4037.949, 4006.154, 4080.513, 4149.231, 4069.231, 450, 0, []
1631431794.8384, 105, 0, 4030.256, 4009.744, 4066.154, 4149.231, 4056.41, 450, 0, []
1631431794.8461, 106, 0, 4019.487, 4023.077, 4081.026, 4143.59, 4048.205, 450, 0, []
1631431794.854, 107, 0, 4019.487, 4030.256, 4066.667, 4142.051, 4054.872, 16196, 0, []
1631431794.8618, 108, 0, 4019.487, 4019.487, 4048.205, 4132.308, 4055.385, 450, 0, []
1631431794.8697, 109, 0, 4027.692, 4034.872, 4073.846, 4125.641, 4057.436, 450, 0, []
1631431794.8775, 110, 0, 4036.923, 4061.026, 4063.59, 4126.154, 4064.103, 450, 0, []
1631431794.8854, 111, 0, 4032.308, 4063.077, 4058.974, 4113.333, 4060.513, 16196, 0, []
1631431794.8931, 112, 0, 4038.974, 4072.308, 4061.026, 4111.282, 4071.795, 450, 0, []
1631431794.901, 113, 0, 4062.564, 4097.949, 4078.462, 4145.128, 4092.308, 450, 0, []
1631431794.9088, 114, 0, 4059.487, 4098.974, 4086.154, 4157.436, 4084.103, 450, 0, []
1631431794.9167, 115, 0, 4044.615, 4085.641, 4048.718, 4132.821, 4073.333, 16196, 0, []
1631431794.9245, 116, 0, 4054.872, 4091.282, 4073.333, 4138.462, 4081.026, 450, 0, []
1631431794.9323, 117, 0, 4056.923, 4109.231, 4090.769, 4160, 4081.538, 450, 0, []
1631431794.9401, 118, 0, 4044.615, 4118.462, 4068.205, 4152.821, 4076.923, 450, 0, []
1631431794.948, 119, 0, 4054.359, 4119.487, 4076.41, 4135.897, 4075.385, 16196, 0, []
1631431794.9558, 120, 0, 4053.846, 4127.179, 4058.974, 4123.077, 4069.231, 450, 0, []
1631431794.9637, 121, 0, 4031.795, 4140, 4063.59, 4117.436, 4060, 450, 0, []
1631431794.9714, 122, 0, 4038.462, 4150.769, 4070.256, 4121.538, 4062.564, 450, 0, []
1631431794.9794, 123, 0, 4065.128, 4150.256, 4065.128, 4133.333, 4084.103, 16196, 0, []
1631431794.9873, 124, 0, 4073.333, 4150.256, 4082.051, 4144.615, 4089.744, 450, 0, []
1631431794.9953, 125, 0, 4062.051, 4170.256, 4056.41, 4134.872, 4070.256, 450, 0, []
1631431795.0032, 126, 0, 4060.513, 4189.744, 4066.667, 4135.897, 4078.462, 450, 0, []
1631431795.0111, 127, 0, 4076.41, 4187.692, 4092.308, 4164.615, 4096.41, 16196, 0, []
1631431795.019, 128, 0, 4073.846, 4178.974, 4071.282, 4157.949, 4083.077, 450, 0, []
1631431795.0268, 0, 0, 4057.949, 4192.308, 4071.795, 4132.821, 4080, 450, 0, []
1631431795.0347, 1, 0, 4063.077, 4209.231, 4057.949, 4149.744, 4090.256, 450, 0, []
1631431795.0427, 2, 0, 4065.641, 4194.872, 4060.513, 4158.462, 4078.462, 16196, 0, []
1631431795.0505, 3, 0, 4050.769, 4174.872, 4065.641, 4135.385, 4072.821, 450, 0, []
1631431795.0583, 4, 0, 4052.308, 4196.923, 4048.718, 4140, 4075.385, 16149, 0, []
1631431795.0662, 5, 0, 4064.615, 4237.436, 4076.41, 4157.949, 4074.359, 450, 0, []
1631431795.074, 6, 0, 4067.692, 4236.41, 4078.974, 4153.846, 4085.128, 278, 0, []
1631431795.0819, 7, 0, 4063.077, 4220.513, 4070.769, 4147.692, 4076.41, 450, 0, []
1631431795.0896, 8, 0, 4064.615, 4242.051, 4081.538, 4147.179, 4070.256, 450, 0, []
1631431795.0975, 9, 0, 4080.513, 4255.385, 4073.333, 4154.359, 4102.051, 16161, 0, []
1631431795.1053, 10, 0, 4081.538, 4244.103, 4078.462, 4156.41, 4097.949, 450, 0, []
1631431795.1133, 11, 0, 4061.538, 4251.795, 4057.949, 4140.513, 4059.487, 16204, 0, []
1631431795.1212, 12, 0, 4066.667, 4266.154, 4064.615, 4143.59, 4080, 450, 0, []
1631431795.1291, 13, 0, 4096.923, 4270.256, 4097.436, 4175.385, 4112.821, 450, 0, []
1631431795.137, 14, 0, 4096.923, 4285.641, 4075.385, 4174.359, 4099.487, 450, 0, []
1631431795.145, 15, 0, 4078.462, 4289.231, 4078.974, 4149.744, 4095.897, 16204, 0, []
1631431795.1529, 16, 0, 4088.205, 4278.462, 4076.923, 4154.872, 4106.154, 0, 0, []
1631431795.1609, 17, 0, 4099.487, 4297.436, 4075.897, 4163.59, 4102.564, 0, 0, []
1631431795.1687, 18, 0, 4084.103, 4317.436, 4097.949, 4156.41, 4104.103, 0, 0, []
1631431795.1765, 19, 0, 4081.538, 4308.205, 4074.872, 4161.538, 4107.179, 0, 0, []
1631431795.1844, 20, 0, 4103.59, 4316.41, 4089.744, 4180.513, 4107.179, 0, 0, []
1631431795.1922, 21, 0, 4106.667, 4337.436, 4100.513, 4181.538, 4119.487, 0, 0, []
1631431795.2001, 22, 0, 4105.641, 4326.667, 4085.641, 4174.872, 4130.769, 0, 0, []
1631431795.2079, 23, 0, 4118.462, 4312.821, 4096.923, 4172.821, 4118.462, 0, 0, []
1631431795.2157, 24, 0, 4111.795, 4327.692, 4080, 4157.949, 4105.128, 0, 0, []
1631431795.2235, 25, 0, 4101.026, 4324.615, 4086.667, 4151.795, 4111.282, 0, 0, []
1631431795.2314, 26, 0, 4119.487, 4320.513, 4096.923, 4173.846, 4119.487, 0, 0, []
1631431795.2392, 27, 0, 4134.872, 4355.897, 4095.385, 4187.692, 4126.154, 0, 0, []
1631431795.2471, 28, 0, 4118.462, 4375.897, 4108.718, 4172.308, 4131.282, 0, 0, []
1631431795.2548, 29, 0, 4112.308, 4362.051, 4076.923, 4164.615, 4124.103, 0, 0, []
1631431795.2628, 30, 0, 4133.333, 4368.718, 4088.205, 4173.846, 4123.077, 0, 0, []
1631431795.2707, 31, 0, 4138.974, 4391.282, 4111.282, 4174.872, 4142.051, 0, 0, []
1631431795.2787, 32, 0, 4125.128, 4379.487, 4088.718, 4171.282, 4146.667, 0, 0, []
1631431795.2866, 33, 0, 4128.718, 4371.282, 4097.436, 4172.308, 4130.769, 0, 0, []
1631431795.2945, 34, 0, 4146.154, 4393.846, 4089.231, 4169.231, 4135.897, 0, 0, []
1631431795.3024, 35, 0, 4140, 4403.077, 4088.205, 4166.667, 4144.615, 0, 0, []
1631431795.3104, 36, 0, 4134.359, 4388.718, 4095.385, 4171.282, 4131.282, 0, 0, []
1631431795.3183, 37, 0, 4140.513, 4384.103, 4074.872, 4160, 4116.41, 0, 0, []
1631431795.3263, 38, 0, 4129.744, 4404.615, 4088.718, 4146.667, 4117.436, 0, 0, []
1631431795.3341, 39, 0, 4128.718, 4411.795, 4088.718, 4162.051, 4123.59, 0, 0, []
1631431795.3419, 40, 0, 4135.385, 4413.846, 4087.179, 4170.769, 4109.744, 0, 0, []
1631431795.3498, 41, 0, 4128.205, 4429.744, 4092.308, 4153.846, 4106.154, 0, 0, []
1631431795.3576, 42, 0, 4123.077, 4433.846, 4071.282, 4148.718, 4131.795, 0, 0, []
1631431795.3655, 43, 0, 4135.897, 4430.256, 4085.641, 4159.487, 4141.026, 0, 0, []
1631431795.3732, 44, 0, 4151.282, 4444.615, 4089.744, 4156.41, 4132.821, 0, 0, []
1631431795.3811, 45, 0, 4144.103, 4449.744, 4086.667, 4145.641, 4141.026, 0, 0, []
1631431795.3889, 46, 0, 4141.026, 4432.821, 4094.359, 4153.333, 4149.231, 0, 0, []
1631431795.3968, 47, 0, 4161.538, 4445.128, 4083.59, 4174.359, 4142.564, 0, 0, []
1631431795.4046, 48, 0, 4168.205, 4456.41, 4102.564, 4168.718, 4143.077, 0, 0, []
1631431795.4125, 49, 0, 4147.692, 4446.667, 4095.897, 4148.205, 4152.821, 0, 0, []
1631431795.4204, 50, 0, 4153.333, 4460, 4099.487, 4170.769, 4166.667, 0, 0, []
1631431795.4284, 51, 0, 4179.487, 4471.795, 4124.615, 4197.949, 4164.615, 0, 0, []
1631431795.4363, 52, 0, 4164.103, 4461.538, 4084.103, 4162.051, 4142.051, 0, 0, []
1631431795.4443, 53, 0, 4133.846, 4460, 4080, 4125.641, 4131.282, 0, 0, []
1631431795.4521, 54, 0, 4132.308, 4462.051, 4086.667, 4143.077, 4134.872, 0, 0, []
1631431795.4601, 55, 0, 4150.256, 4461.026, 4081.026, 4162.564, 4131.795, 0, 0, []
1631431795.468, 56, 0, 4157.949, 4483.077, 4108.718, 4154.872, 4138.974, 0, 0, []
1631431795.476, 57, 0, 4153.333, 4497.436, 4091.795, 4156.923, 4158.974, 0, 0, []
1631431795.4839, 58, 0, 4158.974, 4488.205, 4083.077, 4171.282, 4161.538, 0, 0, []
1631431795.4916, 59, 0, 4165.128, 4494.359, 4080.513, 4166.667, 4152.821, 0, 0, []
1631431795.4995, 60, 0, 4157.436, 4491.282, 4073.846, 4144.103, 4153.846, 0, 0, []
1631431795.5073, 61, 0, 4151.795, 4473.846, 4095.385, 4136.41, 4157.436, 0, 0, []
1631431795.5152, 62, 0, 4154.872, 4486.154, 4072.308, 4134.359, 4143.077, 0, 0, []
1631431795.523, 63, 0, 4154.872, 4510.256, 4083.077, 4123.59, 4128.205, 0, 0, []
1631431795.5308, 64, 0, 4156.41, 4509.744, 4105.128, 4129.231, 4142.564, 450, 0, []
1631431795.5386, 65, 0, 4152.308, 4506.667, 4077.436, 4148.205, 4145.128, 450, 0, []
1631431795.5465, 66, 0, 4141.538, 4506.154, 4085.128, 4154.872, 4118.974, 16195, 0, []
1631431795.5543, 67, 0, 4152.821, 4495.385, 4084.103, 4151.795, 4125.641, 450, 0, []
1631431795.5622, 68, 0, 4183.59, 4496.41, 4096.41, 4146.154, 4173.333, 16148, 0, []
1631431795.57, 69, 0, 4206.667, 4507.179, 4100.513, 4140.513, 4201.538, 450, 0, []
1631431795.5778, 70, 0, 4214.359, 4521.538, 4081.538, 4139.487, 4191.795, 227, 0, []
1631431795.5856, 71, 0, 4200, 4533.333, 4106.154, 4132.821, 4170.256, 450, 0, []
1631431795.5936, 72, 0, 4179.487, 4526.154, 4081.538, 4121.538, 4167.179, 450, 0, []
1631431795.6015, 73, 0, 4184.103, 4509.231, 4067.179, 4131.282, 4181.026, 16162, 0, []
1631431795.6095, 74, 0, 4203.59, 4506.154, 4086.667, 4143.59, 4177.949, 450, 0, []
1631431795.6173, 75, 0, 4207.179, 4517.436, 4071.795, 4131.795, 4167.179, 16204, 0, []
1631431795.6253, 76, 0, 4192.821, 4522.564, 4086.154, 4117.436, 4176.41, 450, 0, []
1631431795.6332, 77, 0, 4192.821, 4524.615, 4081.026, 4125.128, 4186.154, 450, 0, []
1631431795.6412, 78, 0, 4217.436, 4534.359, 4092.821, 4146.667, 4186.667, 450, 0, []
1631431795.6491, 79, 0, 4223.077, 4547.179, 4109.231, 4145.641, 4181.026, 16204, 0, []
1631431795.6568, 80, 0, 4193.333, 4551.282, 4069.744, 4117.436, 4167.692, 450, 0, []
1631431795.6647, 81, 0, 4187.692, 4542.564, 4089.231, 4119.487, 4171.282, 450, 0, []
1631431795.6725, 82, 0, 4216.923, 4538.974, 4099.487, 4150.769, 4190.769, 450, 0, []
1631431795.6804, 83, 0, 4223.077, 4531.282, 4080, 4151.795, 4188.718, 16204, 0, []
1631431795.6882, 84, 0, 4214.359, 4531.282, 4089.744, 4127.692, 4177.436, 450, 0, []
1631431795.696, 85, 0, 4215.385, 4550.256, 4082.564, 4117.949, 4181.026, 450, 0, []
1631431795.7038, 86, 0, 4214.872, 4557.436, 4101.026, 4128.718, 4185.128, 450, 0, []
1631431795.7117, 87, 0, 4222.051, 4560.513, 4089.231, 4142.564, 4185.128, 16204, 0, []
1631431795.7195, 88, 0, 4231.282, 4568.205, 4068.718, 4136.41, 4178.974, 450, 0, []
1631431795.7274, 89, 0, 4217.949, 4561.538, 4093.333, 4110.256, 4171.795, 450, 0, []
1631431795.7351, 90, 0, 4206.154, 4555.385, 4087.692, 4106.667, 4187.179, 450, 0, []
1631431795.7431, 91, 0, 4224.103, 4573.333, 4099.487, 4130.769, 4206.154, 16204, 0, []
1631431795.751, 92, 0, 4245.641, 4593.333, 4093.846, 4146.154, 4203.59, 450, 0, []
1631431795.759, 93, 0, 4250.256, 4587.179, 4073.333, 4148.205, 4203.077, 450, 0, []
1631431795.7669, 94, 0, 4245.641, 4568.205, 4091.795, 4143.59, 4215.385, 450, 0, []
1631431795.7748, 95, 0, 4246.667, 4557.949, 4066.154, 4135.897, 4226.154, 16204, 0, []
1631431795.7827, 96, 0, 4273.333, 4560, 4060, 4132.821, 4243.077, 450, 0, []
1631431795.7907, 97, 0, 4330.256, 4563.077, 4073.846, 4141.538, 4283.59, 450, 0, []
1631431795.7986, 98, 0, 4371.795, 4567.692, 4068.205, 4143.077, 4318.974, 450, 0, []
1631431795.8065, 99, 0, 4366.154, 4578.462, 4081.026, 4121.026, 4317.436, 16204, 0, []
1631431795.8143, 100, 0, 4363.077, 4588.205, 4072.308, 4115.385, 4319.487, 450, 0, []
1631431795.8221, 101, 0, 4384.615, 4607.179, 4101.538, 4148.205, 4347.179, 450, 0, []
1631431795.83, 102, 0, 4388.718, 4620.513, 4126.154, 4167.179, 4360, 450, 0, []
1631431795.8378, 103, 0, 4361.538, 4602.564, 4094.872, 4150.256, 4336.41, 16204, 0, []
1631431795.8457, 104, 0, 4333.846, 4585.128, 4097.436, 4147.179, 4306.154, 450, 0, []
1631431795.8534, 105, 0, 4325.128, 4586.154, 4091.795, 4159.487, 4285.641, 450, 0, []
1631431795.8613, 106, 0, 4313.333, 4575.385, 4089.744, 4143.59, 4259.487, 450, 0, []
1631431795.8691, 107, 0, 4290.769, 4564.103, 4086.154, 4117.949, 4231.282, 16204, 0, []
1631431795.877, 108, 0, 4275.385, 4583.077, 4062.564, 4123.59, 4216.41, 450, 0, []
1631431795.8848, 109, 0, 4271.282, 4598.974, 4087.692, 4137.949, 4215.897, 450, 0, []
1631431795.8928, 110, 0, 4262.564, 4600, 4088.718, 4137.949, 4221.026, 450, 0, []
1631431795.9006, 111, 0, 4254.872, 4605.128, 4092.821, 4144.103, 4222.564, 16204, 0, []
1631431795.9086, 112, 0, 4262.051, 4594.872, 4112.308, 4156.923, 4220, 450, 0, []
1631431795.9165, 113, 0, 4270.256, 4571.282, 4082.564, 4152.821, 4212.308, 450, 0, []
1631431795.9245, 114, 0, 4267.179, 4570.769, 4092.821, 4144.103, 4202.564, 450, 0, []
1631431795.9324, 115, 0, 4264.615, 4581.538, 4103.077, 4142.564, 4202.564, 16204, 0, []
1631431795.9403, 116, 0, 4262.051, 4571.282, 4092.308, 4137.436, 4210.256, 450, 0, []
1631431795.9482, 117, 0, 4250.256, 4569.231, 4090.256, 4138.462, 4208.205, 450, 0, []
1631431795.9562, 118, 0, 4246.154, 4573.333, 4072.308, 4151.795, 4200, 450, 0, []
1631431795.9641, 119, 0, 4259.487, 4559.487, 4089.744, 4161.026, 4196.923, 16204, 0, []
1631431795.9719, 120, 0, 4260, 4552.308, 4086.154, 4149.231, 4190.769, 450, 0, []
1631431795.9797, 121, 0, 4242.564, 4550.769, 4077.949, 4137.949, 4187.179, 450, 0, []
1631431795.9875, 122, 0, 4244.103, 4548.718, 4103.59, 4156.923, 4205.641, 450, 0, []
1631431795.9954, 123, 0, 4261.538, 4552.308, 4091.282, 4176.41, 4221.026, 16204, 0, []
1631431796.0032, 124, 0, 4271.795, 4544.103, 4097.949, 4169.744, 4212.308, 450, 0, []
1631431796.0111, 125, 0, 4267.179, 4527.179, 4094.359, 4159.487, 4199.487, 450, 0, []
1631431796.0188, 126, 0, 4253.846, 4526.154, 4076.923, 4151.282, 4195.897, 450, 0, []
1631431796.0267, 127, 0, 4245.128, 4527.179, 4098.974, 4143.59, 4203.59, 16204, 0, []
1631431796.0345, 128, 0, 4248.205, 4517.949, 4087.179, 4152.308, 4206.667, 450, 0, []
1631431796.0425, 0, 0, 4258.462, 4524.103, 4094.872, 4162.564, 4202.051, 450, 0, []
1631431796.0504, 1, 0, 4264.103, 4540.513, 4103.077, 4156.41, 4198.974, 450, 0, []
1631431796.0583, 2, 0, 4264.615, 4536.923, 4082.564, 4152.308, 4199.487, 16193, 0, []
1631431796.0662, 3, 0, 4265.641, 4532.308, 4093.846, 4156.923, 4207.179, 450, 0, []
1631431796.0742, 4, 0, 4255.897, 4543.59, 4074.872, 4151.795, 4207.692, 16138, 0, []
1631431796.0821, 5, 0, 4224.103, 4529.744, 4057.949, 4132.821, 4184.103, 450, 0, []
1631431796.0901, 6, 0, 4220.513, 4508.205, 4061.538, 4132.308, 4174.872, 253, 0, []
1631431796.0979, 7, 0, 4266.154, 4526.667, 4080.513, 4166.667, 4207.692, 450, 0, []
1631431796.1059, 8, 0, 4287.179, 4546.667, 4120.513, 4190.769, 4235.385, 450, 0, []
1631431796.1138, 9, 0, 4268.718, 4538.974, 4102.564, 4173.846, 4231.282, 16167, 0, []
1631431796.1216, 10, 0, 4256.41, 4541.026, 4104.103, 4165.128, 4222.051, 450, 0, []
1631431796.1295, 11, 0, 4249.231, 4552.308, 4110.769, 4176.41, 4210.256, 16198, 0, []
1631431796.1372, 12, 0, 4239.487, 4542.051, 4073.846, 4170.769, 4193.846, 450, 0, []
1631431796.1451, 13, 0, 4240, 4533.333, 4090.769, 4154.359, 4184.103, 450, 0, []
1631431796.1529, 14, 0, 4237.436, 4547.179, 4093.846, 4141.538, 4182.051, 450, 0, []
1631431796.1608, 15, 0, 4227.692, 4563.077, 4095.897, 4142.051, 4191.282, 16198, 0, []
1631431796.1686, 16, 0, 4235.385, 4566.667, 4118.462, 4160.513, 4204.103, 0, 0, []
1631431796.1764, 17, 0, 4247.179, 4557.949, 4096.41, 4162.051, 4196.41, 0, 0, []
1631431796.1842, 18, 0, 4242.564, 4544.615, 4102.564, 4141.538, 4178.462, 0, 0, []
1631431796.1922, 19, 0, 4238.462, 4551.795, 4104.103, 4140, 4187.179, 0, 0, []
1631431796.2001, 20, 0, 4244.615, 4566.667, 4105.128, 4156.41, 4210.256, 0, 0, []
1631431796.2081, 21, 0, 4249.231, 4561.538, 4120.513, 4166.667, 4213.846, 0, 0, []
1631431796.2159, 22, 0, 4244.103, 4554.359, 4093.333, 4166.154, 4200.513, 0, 0, []
1631431796.2239, 23, 0, 4233.846, 4564.103, 4103.077, 4151.282, 4176.923, 0, 0, []
1631431796.2318, 24, 0, 4227.692, 4570.256, 4108.718, 4133.846, 4171.282, 0, 0, []
1631431796.2398, 25, 0, 4214.359, 4552.821, 4077.436, 4126.667, 4183.59, 0, 0, []
1631431796.2477, 26, 0, 4197.436, 4537.436, 4092.821, 4122.564, 4172.308, 0, 0, []
1631431796.2557, 27, 0, 4203.59, 4549.231, 4074.359, 4128.718, 4155.897, 0, 0, []
1631431796.2635, 28, 0, 4227.692, 4568.205, 4035.897, 4148.205, 4170.769, 0, 0, []
1631431796.2714, 29, 0, 4237.949, 4570.256, 4116.923, 4153.846, 4192.821, 0, 0, []
1631431796.2793, 30, 0, 4228.718, 4572.821, 4142.564, 4149.744, 4191.795, 0, 0, []
1631431796.2871, 31, 0, 4225.128, 4574.872, 4067.179, 4151.795, 4187.692, 0, 0, []
1631431796.295, 32, 0, 4232.308, 4565.641, 4081.026, 4153.846, 4187.179, 0, 0, []
1631431796.3027, 33, 0, 4236.923, 4574.359, 4114.872, 4156.41, 4182.051, 0, 0, []
1631431796.3106, 34, 0, 4239.487, 4591.282, 4095.385, 4158.462, 4190.256, 0, 0, []
1631431796.3184, 35, 0, 4245.128, 4587.692, 4095.897, 4155.897, 4210.256, 0, 0, []
1631431796.3263, 36, 0, 4250.769, 4586.154, 4116.923, 4160, 4214.872, 0, 0, []
1631431796.3341, 37, 0, 4250.256, 4592.308, 4101.026, 4171.795, 4206.667, 0, 0, []
1631431796.3419, 38, 0, 4246.154, 4576.923, 4101.538, 4168.718, 4199.487, 0, 0, []
1631431796.3497, 39, 0, 4248.205, 4568.718, 4106.154, 4154.872, 4193.846, 0, 0, []
1631431796.3577, 40, 0, 4247.179, 4581.026, 4092.308, 4140.513, 4192.821, 0, 0, []
1631431796.3656, 41, 0, 4233.846, 4587.179, 4123.077, 4133.846, 4199.487, 0, 0, []
1631431796.3736, 42, 0, 4239.487, 4583.59, 4095.385, 4153.846, 4206.154, 0, 0, []
1631431796.3814, 43, 0, 4258.974, 4577.436, 4088.718, 4170.769, 4200.513, 0, 0, []
1631431796.3894, 44, 0, 4253.333, 4580, 4123.077, 4157.436, 4186.667, 0, 0, []
1631431796.3973, 45, 0, 4246.154, 4592.308, 4095.385, 4147.692, 4182.564, 0, 0, []
1631431796.4053, 46, 0, 4261.026, 4585.641, 4113.333, 4155.897, 4193.846, 0, 0, []
1631431796.4132, 47, 0, 4258.974, 4556.923, 4107.692, 4154.359, 4193.846, 0, 0, []
1631431796.4211, 48, 0, 4240, 4550.769, 4078.974, 4146.154, 4176.923, 0, 0, []
1631431796.429, 49, 0, 4246.154, 4574.872, 4115.897, 4152.821, 4169.744, 0, 0, []
1631431796.4368, 50, 0, 4260.513, 4577.949, 4108.718, 4155.385, 4169.231, 0, 0, []
1631431796.4447, 51, 0, 4249.744, 4561.026, 4094.872, 4143.077, 4168.718, 0, 0, []
1631431796.4526, 52, 0, 4232.821, 4560.513, 4111.282, 4137.949, 4170.769, 0, 0, []
1631431796.4604, 53, 0, 4236.923, 4564.615, 4102.564, 4149.231, 4167.179, 0, 0, []
1631431796.4683, 54, 0, 4248.718, 4555.385, 4087.179, 4159.487, 4160.513, 0, 0, []
1631431796.4763, 55, 0, 4241.026, 4548.718, 4073.333, 4151.282, 4152.308, 0, 0, []
1631431796.4841, 56, 0, 4230.769, 4553.846, 4106.154, 4135.897, 4150.769, 0, 0, []
1631431796.492, 57, 0, 4235.385, 4562.564, 4113.846, 4134.359, 4160, 0, 0, []
1631431796.4997, 58, 0, 4235.385, 4553.333, 4085.641, 4145.641, 4162.564, 0, 0, []
1631431796.5077, 59, 0, 4232.821, 4532.821, 4107.179, 4149.231, 4150.256, 0, 0, []
1631431796.5156, 60, 0, 4235.385, 4538.974, 4093.846, 4133.333, 4136.41, 0, 0, []
1631431796.5236, 61, 0, 4229.744, 4556.923, 4088.205, 4121.538, 4138.974, 0, 0, []
1631431796.5315, 62, 0, 4223.077, 4544.103, 4102.564, 4128.718, 4154.872, 0, 0, []
1631431796.5394, 63, 0, 4225.128, 4527.179, 4080, 4130.256, 4158.462, 0, 0, []
1631431796.5473, 64, 0, 4230.769, 4532.821, 4094.359, 4124.103, 4146.154, 450, 0, []
1631431796.5553, 65, 0, 4233.846, 4545.128, 4093.846, 4129.231, 4144.103, 450, 0, []
1631431796.5632, 66, 0, 4233.333, 4540, 4092.308, 4129.744, 4147.692, 16189, 0, []
1631431796.5712, 67, 0, 4229.231, 4523.077, 4105.641, 4109.231, 4142.051, 450, 0, []
1631431796.579, 68, 0, 4225.641, 4521.026, 4086.667, 4100, 4140.513, 16141, 0, []
1631431796.5868, 69, 0, 4235.897, 4527.692, 4097.436, 4120, 4150.769, 450, 0, []
1631431796.5947, 70, 0, 4254.359, 4528.718, 4093.846, 4131.282, 4154.872, 277, 0, []
1631431796.6025, 71, 0, 4258.974, 4531.795, 4081.538, 4120, 4150.256, 450, 0, []
1631431796.6104, 72, 0, 4269.744, 4540.513, 4085.128, 4109.744, 4168.718, 450, 0, []
1631431796.6182, 73, 0, 4305.641, 4542.564, 4071.282, 4108.205, 4212.308, 16167, 0, []
1631431796.626, 74, 0, 4329.231, 4528.205, 4083.59, 4101.538, 4234.872, 450, 0, []
1631431796.6338, 75, 0, 4338.974, 4511.795, 4068.205, 4095.897, 4237.949, 16198, 0, []
1631431796.6417, 76, 0, 4370.769, 4520, 4074.359, 4117.949, 4262.564, 450, 0, []
1631431796.6495, 77, 0, 4391.795, 4536.923, 4105.128, 4144.615, 4283.077, 450, 0, []
1631431796.6575, 78, 0, 4369.744, 4525.128, 4061.026, 4130.256, 4259.487, 450, 0, []
1631431796.6653, 79, 0, 4336.41, 4513.333, 4065.641, 4102.051, 4233.333, 16198, 0, []
1631431796.6733, 80, 0, 4320.513, 4530.769, 4083.077, 4096.923, 4238.462, 450, 0, []
1631431796.6812, 81, 0, 4311.282, 4543.077, 4069.231, 4104.103, 4240.513, 450, 0, []
1631431796.6892, 82, 0, 4295.897, 4525.641, 4081.026, 4108.205, 4218.974, 450, 0, []
1631431796.6971, 83, 0, 4282.564, 4506.154, 4063.59, 4103.59, 4189.744, 16198, 0, []
1631431796.705, 84, 0, 4272.821, 4514.359, 4072.821, 4101.026, 4171.795, 450, 0, []
1631431796.7129, 85, 0, 4257.949, 4530.769, 4085.641, 4109.231, 4165.641, 450, 0, []
1631431796.7209, 86, 0, 4243.59, 4523.59, 4091.282, 4118.974, 4164.615, 450, 0, []
1631431796.7288, 87, 0, 4243.077, 4518.974, 4122.564, 4126.667, 4170.769, 16198, 0, []
1631431796.7368, 88, 0, 4251.795, 4528.205, 4097.436, 4135.385, 4173.846, 450, 0, []
1631431796.7446, 89, 0, 4247.179, 4525.641, 4093.333, 4134.359, 4152.821, 450, 0, []
1631431796.7524, 90, 0, 4225.641, 4519.487, 4102.051, 4118.462, 4124.615, 450, 0, []
1631431796.7603, 91, 0, 4220, 4534.359, 4098.974, 4114.872, 4133.333, 16198, 0, []
1631431796.7681, 92, 0, 4229.231, 4545.641, 4125.641, 4133.333, 4157.436, 450, 0, []
1631431796.776, 93, 0, 4224.103, 4534.872, 4102.051, 4143.077, 4148.205, 450, 0, []
1631431796.7837, 94, 0, 4218.974, 4536.923, 4102.051, 4135.897, 4130.256, 450, 0, []
1631431796.7916, 95, 0, 4233.333, 4560, 4120, 4135.385, 4133.846, 16198, 0, []
1631431796.7994, 96, 0, 4234.872, 4565.128, 4098.462, 4137.949, 4140.513, 450, 0, []
1631431796.8073, 97, 0, 4214.872, 4540, 4111.795, 4128.205, 4141.026, 450, 0, []
1631431796.8151, 98, 0, 4209.231, 4525.641, 4096.923, 4122.051, 4138.974, 450, 0, []
1631431796.823, 99, 0, 4213.846, 4546.154, 4084.615, 4125.641, 4123.077, 16198, 0, []
1631431796.8309, 100, 0, 4217.436, 4560.513, 4091.282, 4121.538, 4115.385, 450, 0, []
1631431796.8389, 101, 0, 4218.974, 4533.846, 4076.923, 4119.487, 4132.308, 450, 0, []
1631431796.8468, 102, 0, 4212.308, 4514.872, 4105.128, 4131.795, 4144.103, 450, 0, []
1631431796.8548, 103, 0, 4207.179, 4536.923, 4092.821, 4142.051, 4135.385, 16198, 0, []
1631431796.8626, 104, 0, 4215.897, 4541.026, 4078.974, 4138.462, 4121.026, 450, 0, []
1631431796.8706, 105, 0, 4219.487, 4516.41, 4095.385, 4129.744, 4120.513, 450, 0, []
1631431796.8785, 106, 0, 4203.59, 4525.128, 4068.718, 4118.462, 4128.718, 450, 0, []
1631431796.8864, 107, 0, 4204.615, 4541.538, 4085.128, 4122.051, 4136.923, 16198, 0, []
1631431796.8943, 108, 0, 4225.128, 4525.641, 4087.179, 4135.897, 4142.051, 450, 0, []
1631431796.902, 109, 0, 4220.513, 4523.077, 4072.821, 4127.179, 4133.846, 450, 0, []
1631431796.9099, 110, 0, 4208.718, 4555.897, 4093.333, 4116.41, 4130.256, 450, 0, []
1631431796.9177, 111, 0, 4222.051, 4566.154, 4082.051, 4131.795, 4149.231, 16198, 0, []
1631431796.9256, 112, 0, 4234.359, 4547.692, 4094.359, 4149.231, 4163.59, 450, 0, []
1631431796.9334, 113, 0, 4228.205, 4557.436, 4086.667, 4142.051, 4149.744, 450, 0, []
1631431796.9413, 114, 0, 4220, 4575.897, 4081.026, 4126.667, 4133.846, 450, 0, []
1631431796.949, 115, 0, 4218.462, 4564.615, 4113.333, 4132.821, 4141.026, 16198, 0, []
1631431796.9569, 116, 0, 4219.487, 4553.846, 4088.718, 4153.333, 4152.308, 450, 0, []
1631431796.9647, 117, 0, 4211.282, 4552.308, 4085.128, 4152.308, 4139.487, 450, 0, []
1631431796.9727, 118, 0, 4200, 4553.846, 4083.077, 4126.667, 4107.179, 450, 0, []
1631431796.9806, 119, 0, 4195.385, 4572.821, 4073.846, 4109.744, 4103.077, 16198, 0, []
1631431796.9885, 120, 0, 4200, 4584.615, 4098.974, 4111.282, 4132.821, 450, 0, []
1631431796.9964, 121, 0, 4211.795, 4566.667, 4081.026, 4123.59, 4148.718, 450, 0, []
1631431797.0044, 122, 0, 4218.974, 4561.538, 4088.718, 4143.59, 4136.923, 450, 0, []
1631431797.0123, 123, 0, 4212.308, 4572.308, 4090.769, 4151.282, 4118.974, 16198, 0, []
1631431797.0203, 124, 0, 4197.436, 4562.051, 4067.179, 4128.718, 4105.641, 450, 0, []
1631431797.0281, 125, 0, 4192.821, 4549.231, 4089.744, 4110.256, 4109.744, 450, 0, []
1631431797.0361, 126, 0, 4208.718, 4556.923, 4082.051, 4122.051, 4130.769, 450, 0, []
1631431797.044, 127, 0, 4228.718, 4572.308, 4094.359, 4143.077, 4136.923, 16198, 0, []
1631431797.0518, 128, 0, 4225.641, 4577.436, 4102.051, 4145.641, 4128.718, 450, 0, []
1631431797.0597, 0, 0, 4201.538, 4558.974, 4067.692, 4127.179, 4121.538, 450, 0, []
1631431797.0674, 1, 0, 4193.333, 4535.385, 4086.667, 4121.538, 4123.077, 450, 0, []
1631431797.0753, 2, 0, 4212.308, 4540.513, 4094.872, 4143.59, 4140.513, 16186, 0, []
1631431797.0831, 3, 0, 4228.718, 4569.744, 4108.718, 4161.026, 4151.282, 450, 0, []
1631431797.091, 4, 0, 4226.667, 4581.538, 4114.872, 4146.667, 4139.487, 16140, 0, []
1631431797.0988, 5, 0, 4213.846, 4560, 4088.718, 4125.128, 4130.769, 450, 0, []
1631431797.1066, 6, 0, 4202.051, 4535.897, 4112.821, 4135.385, 4141.538, 280, 0, []
1631431797.1144, 7, 0, 4203.077, 4543.59, 4096.41, 4157.949, 4142.564, 450, 0, []
1631431797.1224, 8, 0, 4206.667, 4553.846, 4081.026, 4158.462, 4126.154, 450, 0, []
1631431797.1303, 9, 0, 4196.923, 4545.641, 4091.795, 4139.487, 4116.923, 16162, 0, []
1631431797.1383, 10, 0, 4178.462, 4542.051, 4061.538, 4127.179, 4120, 450, 0, []
1631431797.1461, 11, 0, 4178.974, 4538.462, 4081.026, 4132.308, 4127.179, 16201, 0, []
1631431797.1541, 12, 0, 4187.179, 4533.846, 4081.026, 4127.692, 4117.436, 450, 0, []
1631431797.162, 13, 0, 4184.615, 4551.282, 4070.256, 4115.897, 4106.667, 450, 0, []
1631431797.17, 14, 0, 4181.538, 4561.026, 4096.923, 4126.154, 4116.923, 450, 0, []
1631431797.1779, 15, 0, 4183.59, 4540.513, 4087.179, 4147.179, 4130.769, 16201, 0, []
1631431797.1858, 16, 0, 4188.718, 4535.897, 4093.333, 4149.744, 4122.051, 0, 0, []
1631431797.1937, 17, 0, 4198.462, 4564.615, 4083.59, 4139.487, 4111.795, 0, 0, []
1631431797.2015, 18, 0, 4214.872, 4587.692, 4085.641, 4146.154, 4133.333, 0, 0, []
1631431797.2094, 19, 0, 4227.692, 4581.538, 4121.026, 4164.615, 4163.59, 0, 0, []
1631431797.2172, 20, 0, 4226.667, 4566.154, 4090.256, 4165.641, 4158.974, 0, 0, []
1631431797.225, 21, 0, 4207.692, 4575.897, 4086.154, 4149.744, 4123.59, 0, 0, []
1631431797.2328, 22, 0, 4186.154, 4586.667, 4090.769, 4134.872, 4109.231, 0, 0, []
1631431797.2407, 23, 0, 4186.154, 4579.487, 4075.385, 4140, 4129.231, 0, 0, []
1631431797.2485, 24, 0, 4196.41, 4581.538, 4098.974, 4153.846, 4137.436, 0, 0, []
1631431797.2564, 25, 0, 4203.077, 4591.795, 4088.205, 4154.359, 4122.564, 0, 0, []
1631431797.2641, 26, 0, 4207.179, 4585.128, 4103.59, 4151.282, 4119.487, 0, 0, []
1631431797.272, 27, 0, 4208.205, 4581.538, 4120.513, 4151.282, 4138.974, 0, 0, []
1631431797.2798, 28, 0, 4208.718, 4586.154, 4093.846, 4155.897, 4153.846, 0, 0, []
1631431797.2878, 29, 0, 4214.872, 4580, 4102.051, 4170.256, 4155.897, 0, 0, []
1631431797.2957, 30, 0, 4220.513, 4584.615, 4088.718, 4182.564, 4149.231, 0, 0, []
1631431797.3037, 31, 0, 4217.949, 4590.769, 4100, 4177.436, 4146.154, 0, 0, []
1631431797.3115, 32, 0, 4224.103, 4588.718, 4119.487, 4168.718, 4164.615, 0, 0, []
1631431797.3195, 33, 0, 4229.744, 4600, 4099.487, 4171.282, 4177.436, 0, 0, []
1631431797.3274, 34, 0, 4223.59, 4602.564, 4108.205, 4167.692, 4156.923, 0, 0, []
1631431797.3354, 35, 0, 4230.769, 4593.846, 4093.333, 4165.641, 4137.949, 0, 0, []
1631431797.3433, 36, 0, 4234.359, 4597.949, 4093.333, 4171.282, 4146.154, 0, 0, []
1631431797.351, 37, 0, 4209.231, 4602.051, 4100, 4167.692, 4153.333, 0, 0, []
1631431797.3589, 38, 0, 4201.538, 4595.897, 4081.538, 4168.205, 4152.308, 0, 0, []
1631431797.3669, 39, 0, 4233.333, 4594.359, 4120, 4190.769, 4155.897, 0, 0, []
1631431797.3748, 40, 0, 4245.641, 4606.667, 4119.487, 4190.256, 4158.462, 0, 0, []
1631431797.3826, 41, 0, 4218.462, 4621.026, 4105.128, 4157.436, 4155.385, 0, 0, []
1631431797.3904, 42, 0, 4209.744, 4620.513, 4123.59, 4157.436, 4159.487, 0, 0, []
1631431797.3982, 43, 0, 4227.179, 4603.077, 4104.615, 4184.615, 4165.128, 0, 0, []
1631431797.4061, 44, 0, 4231.795, 4605.641, 4114.872, 4189.231, 4151.795, 0, 0, []
1631431797.4139, 45, 0, 4223.077, 4618.974, 4109.231, 4183.077, 4143.077, 0, 0, []
1631431797.4218, 46, 0, 4213.333, 4605.641, 4101.026, 4186.667, 4148.718, 0, 0, []
1631431797.4295, 47, 0, 4214.359, 4595.385, 4112.821, 4186.667, 4153.846, 0, 0, []
1631431797.4375, 48, 0, 4232.308, 4603.59, 4083.077, 4180, 4162.564, 0, 0, []
1631431797.4454, 49, 0, 4248.718, 4603.077, 4109.231, 4185.641, 4172.308, 0, 0, []
1631431797.4533, 50, 0, 4241.538, 4600.513, 4129.744, 4187.692, 4170.256, 0, 0, []
1631431797.4612, 51, 0, 4227.179, 4608.718, 4116.923, 4176.923, 4162.564, 0, 0, []
1631431797.469, 52, 0, 4229.231, 4628.718, 4126.667, 4184.615, 4170.256, 0, 0, []
1631431797.477, 53, 0, 4233.846, 4644.615, 4103.59, 4205.641, 4176.41, 0, 0, []
1631431797.485, 54, 0, 4223.077, 4623.077, 4109.231, 4199.487, 4157.949, 0, 0, []
1631431797.4929, 55, 0, 4226.667, 4597.436, 4115.897, 4183.077, 4148.718, 0, 0, []
1631431797.5009, 56, 0, 4252.308, 4625.128, 4121.026, 4194.359, 4179.487, 0, 0, []
1631431797.5087, 57, 0, 4247.692, 4652.308, 4146.154, 4206.154, 4197.949, 0, 0, []
1631431797.5167, 58, 0, 4218.974, 4626.154, 4100.513, 4194.359, 4168.205, 0, 0, []
1631431797.5246, 59, 0, 4214.359, 4610.769, 4088.205, 4185.128, 4143.077, 0, 0, []
1631431797.5324, 60, 0, 4229.744, 4628.718, 4103.077, 4188.205, 4152.821, 0, 0, []
1631431797.5403, 61, 0, 4225.641, 4621.026, 4095.897, 4186.667, 4163.59, 0, 0, []
1631431797.548, 62, 0, 4214.872, 4602.051, 4118.974, 4181.538, 4164.103, 0, 0, []
1631431797.5559, 63, 0, 4230.769, 4620.513, 4106.667, 4188.205, 4174.872, 0, 0, []
1631431797.5637, 64, 0, 4249.231, 4640.513, 4118.974, 4200.513, 4178.974, 450, 0, []
1631431797.5716, 65, 0, 4248.718, 4632.821, 4136.923, 4201.026, 4169.744, 450, 0, []
1631431797.5794, 66, 0, 4244.103, 4637.436, 4107.179, 4196.41, 4175.385, 16186, 0, []
1631431797.5872, 67, 0, 4246.154, 4649.231, 4122.564, 4198.974, 4193.846, 450, 0, []
1631431797.595, 68, 0, 4235.897, 4638.974, 4111.795, 4198.462, 4185.641, 16140, 0, []
1631431797.603, 69, 0, 4222.564, 4621.538, 4100, 4195.897, 4155.897, 450, 0, []
1631431797.6109, 70, 0, 4234.359, 4621.026, 4115.385, 4203.077, 4154.872, 276, 0, []
1631431797.6189, 71, 0, 4241.026, 4631.282, 4103.59, 4199.487, 4169.231, 450, 0, []
1631431797.6267, 72, 0, 4231.282, 4624.615, 4119.487, 4180.513, 4169.744, 450, 0, []
1631431797.6347, 73, 0, 4233.333, 4615.385, 4100.513, 4175.897, 4167.692, 16163, 0, []
1631431797.6426, 74, 0, 4250.769, 4631.282, 4100, 4188.205, 4166.667, 450, 0, []
1631431797.6506, 75, 0, 4252.821, 4645.128, 4133.846, 4187.179, 4168.718, 16200, 0, []
1631431797.6585, 76, 0, 4234.872, 4631.282, 4114.872, 4177.949, 4175.897, 450, 0, []
1631431797.6665, 77, 0, 4229.744, 4621.538, 4124.103, 4185.128, 4174.359, 450, 0, []
1631431797.6743, 78, 0, 4237.436, 4625.641, 4109.744, 4190.769, 4159.487, 450, 0, []
1631431797.6821, 79, 0, 4235.897, 4606.667, 4096.41, 4183.077, 4150.769, 16200, 0, []
1631431797.69, 80, 0, 4230.769, 4595.385, 4122.051, 4173.846, 4157.436, 450, 0, []
1631431797.6978, 81, 0, 4225.128, 4611.282, 4097.436, 4163.077, 4161.026, 450, 0, []
1631431797.7057, 82, 0, 4202.564, 4604.615, 4090.256, 4148.718, 4140.513, 450, 0, []
1631431797.7134, 83, 0, 4183.59, 4585.128, 4083.59, 4143.59, 4112.821, 16200, 0, []
1631431797.7213, 84, 0, 4195.385, 4594.872, 4095.385, 4150.769, 4116.923, 450, 0, []
1631431797.7291, 85, 0, 4200, 4598.462, 4134.359, 4162.051, 4138.462, 450, 0, []
1631431797.737, 86, 0, 4200.513, 4581.538, 4107.692, 4178.462, 4149.231, 450, 0, []
1631431797.7448, 87, 0, 4226.667, 4594.872, 4115.385, 4191.282, 4155.897, 16200, 0, []
1631431797.7527, 88, 0, 4234.872, 4613.333, 4122.051, 4173.333, 4160.513, 450, 0, []
1631431797.7606, 89, 0, 4204.103, 4586.667, 4093.333, 4147.179, 4154.872, 450, 0, []
1631431797.7686, 90, 0, 4198.974, 4571.282, 4107.179, 4158.974, 4148.205, 450, 0, []
1631431797.7765, 91, 0, 4222.051, 4606.667, 4095.897, 4174.872, 4141.026, 16200, 0, []
1631431797.7845, 92, 0, 4210.769, 4623.077, 4107.179, 4161.538, 4136.923, 450, 0, []
1631431797.7923, 93, 0, 4193.846, 4598.462, 4116.41, 4155.385, 4144.615, 450, 0, []
1631431797.8003, 94, 0, 4207.179, 4587.179, 4092.821, 4171.282, 4146.154, 450, 0, []
1631431797.8082, 95, 0, 4219.487, 4603.59, 4112.821, 4177.949, 4139.487, 16200, 0, []
1631431797.816, 96, 0, 4211.795, 4605.128, 4104.103, 4165.128, 4138.974, 450, 0, []
1631431797.8239, 97, 0, 4196.41, 4588.718, 4101.026, 4152.821, 4138.462, 450, 0, []
1631431797.8316, 98, 0, 4196.41, 4591.795, 4102.564, 4157.949, 4137.949, 450, 0, []
1631431797.8395, 99, 0, 4211.282, 4598.974, 4085.128, 4168.718, 4136.41, 16200, 0, []
1631431797.8473, 100, 0, 4212.821, 4578.974, 4111.795, 4163.59, 4135.897, 450, 0, []
1631431797.8552, 101, 0, 4193.333, 4567.179, 4097.949, 4149.744, 4140, 450, 0, []
1631431797.863, 102, 0, 4180.513, 4579.487, 4090.256, 4146.667, 4138.462, 450, 0, []
1631431797.8708, 103, 0, 4183.077, 4576.923, 4102.564, 4142.564, 4123.077, 16200, 0, []
1631431797.8786, 104, 0, 4186.154, 4574.872, 4082.564, 4128.205, 4115.385, 450, 0, []
1631431797.8865, 105, 0, 4187.179, 4590.256, 4105.641, 4126.667, 4130.769, 450, 0, []
1631431797.8943, 106, 0, 4190.256, 4584.103, 4096.923, 4144.615, 4144.615, 450, 0, []
1631431797.9023, 107, 0, 4195.385, 4569.744, 4089.744, 4155.385, 4133.846, 16200, 0, []
1631431797.9101, 108, 0, 4194.872, 4579.487, 4113.846, 4146.154, 4118.462, 450, 0, []
1631431797.918, 109, 0, 4182.051, 4576.923, 4091.795, 4138.462, 4123.59, 450, 0, []
1631431797.9258, 110, 0, 4183.077, 4564.615, 4106.667, 4150.769, 4138.974, 450, 0, []
1631431797.9338, 111, 0, 4206.154, 4582.051, 4111.795, 4170.256, 4143.077, 16200, 0, []
1631431797.9417, 112, 0, 4205.641, 4581.538, 4097.436, 4162.051, 4128.205, 450, 0, []
1631431797.9496, 113, 0, 4177.949, 4565.128, 4109.231, 4136.41, 4118.974, 450, 0, []
1631431797.9575, 114, 0, 4182.564, 4579.487, 4098.462, 4145.128, 4138.974, 450, 0, []
1631431797.9655, 115, 0, 4218.462, 4585.128, 4118.974, 4181.538, 4161.538, 16200, 0, []
1631431797.9734, 116, 0, 4229.744, 4573.846, 4114.872, 4183.077, 4154.872, 450, 0, []
1631431797.9814, 117, 0, 4212.308, 4577.436, 4097.436, 4150.769, 4138.462, 450, 0, []
1631431797.9893, 118, 0, 4198.462, 4580, 4113.333, 4142.051, 4139.487, 450, 0, []
1631431797.997, 119, 0, 4199.487, 4566.154, 4090.256, 4153.846, 4145.128, 16200, 0, []
1631431798.0049, 120, 0, 4208.718, 4564.615, 4105.641, 4155.897, 4138.974, 450, 0, []
1631431798.0127, 121, 0, 4209.744, 4570.769, 4110.256, 4147.692, 4134.359, 450, 0, []
1631431798.0206, 122, 0, 4197.949, 4571.282, 4093.333, 4146.154, 4144.615, 450, 0, []
1631431798.0284, 123, 0, 4197.949, 4574.359, 4124.615, 4162.051, 4160, 16200, 0, []
1631431798.0362, 124, 0, 4213.333, 4571.282, 4102.051, 4169.231, 4154.359, 450, 0, []
1631431798.044, 125, 0, 4215.385, 4575.897, 4095.385, 4156.923, 4141.538, 450, 0, []
1631431798.0519, 126, 0, 4195.897, 4592.308, 4104.615, 4139.487, 4147.692, 450, 0, []
1631431798.0597, 127, 0, 4180, 4591.282, 4090.256, 4137.436, 4150.769, 16200, 0, []
1631431798.0677, 128, 0, 4185.128, 4567.179, 4108.205, 4146.154, 4128.205, 450, 0, []
1631431798.0755, 0, 0, 4192.821, 4555.897, 4085.641, 4137.436, 4120, 450, 0, []
1631431798.0835, 1, 0, 4185.641, 4575.385, 4085.641, 4128.718, 4142.564, 450, 0, []
1631431798.0914, 2, 0, 4181.538, 4586.154, 4104.615, 4135.897, 4151.282, 16184, 0, []
1631431798.0994, 3, 0, 4195.897, 4573.846, 4093.846, 4143.077, 4137.949, 450, 0, []
1631431798.1073, 4, 0, 4208.205, 4564.615, 4118.462, 4143.077, 4138.974, 16140, 0, []
1631431798.1152, 5, 0, 4196.923, 4574.359, 4101.026, 4133.333, 4148.718, 450, 0, []
1631431798.1231, 6, 0, 4184.103, 4574.872, 4087.692, 4127.692, 4143.077, 272, 0, []
1631431798.1311, 7, 0, 4194.872, 4555.385, 4095.385, 4136.923, 4136.923, 450, 0, []
1631431798.139, 8, 0, 4208.205, 4558.974, 4078.462, 4135.385, 4139.487, 450, 0, []
1631431798.1468, 9, 0, 4195.897, 4577.436, 4107.692, 4114.872, 4139.487, 16164, 0, []
1631431798.1546, 10, 0, 4180, 4565.641, 4102.051, 4116.923, 4137.949, 450, 0, []
1631431798.1624, 11, 0, 4185.128, 4548.718, 4094.359, 4142.564, 4136.41, 16200, 0, []
1631431798.1703, 12, 0, 4205.128, 4568.718, 4119.487, 4157.436, 4144.103, 450, 0, []
1631431798.1781, 13, 0, 4207.692, 4588.718, 4095.897, 4149.744, 4157.436, 450, 0, []
1631431798.186, 14, 0, 4177.949, 4557.949, 4093.846, 4126.154, 4148.718, 450, 0, []
1631431798.1937, 15, 0, 4168.718, 4532.821, 4091.795, 4120.513, 4132.821, 16200, 0, []
1631431798.2016, 16, 0, 4201.026, 4555.897, 4097.949, 4143.077, 4144.615, 0, 0, []
1631431798.2094, 17, 0, 4211.795, 4580.513, 4106.154, 4143.077, 4153.333, 0, 0, []
1631431798.2174, 18, 0, 4184.103, 4575.897, 4064.615, 4125.128, 4140, 0, 0, []
1631431798.2253, 19, 0, 4179.487, 4558.462, 4082.051, 4146.667, 4141.538, 0, 0, []
1631431798.2332, 20, 0, 4201.538, 4557.949, 4093.333, 4176.41, 4154.359, 0, 0, []
1631431798.2411, 21, 0, 4206.154, 4555.897, 4075.385, 4167.179, 4155.897, 0, 0, []
1631431798.2491, 22, 0, 4197.436, 4535.385, 4096.41, 4148.205, 4159.487, 0, 0, []
1631431798.257, 23, 0, 4194.359, 4523.59, 4090.256, 4142.564, 4164.615, 0, 0, []
1631431798.265, 24, 0, 4195.897, 4541.026, 4106.667, 4142.564, 4157.436, 0, 0, []
1631431798.2728, 25, 0, 4201.026, 4573.333, 4106.154, 4142.564, 4147.692, 0, 0, []
1631431798.2808, 26, 0, 4203.077, 4588.205, 4086.154, 4140, 4143.59, 0, 0, []
1631431798.2887, 27, 0, 4196.41, 4579.487, 4109.744, 4143.59, 4149.744, 0, 0, []
1631431798.2965, 28, 0, 4193.333, 4564.103, 4091.282, 4152.821, 4157.436, 0, 0, []
1631431798.3044, 29, 0, 4194.359, 4550.769, 4093.333, 4148.718, 4144.615, 0, 0, []
1631431798.3121, 30, 0, 4187.692, 4535.897, 4103.59, 4135.897, 4134.872, 0, 0, []
1631431798.32, 31, 0, 4170.769, 4530.769, 4089.744, 4130.769, 4145.128, 0, 0, []
1631431798.3278, 32, 0, 4162.564, 4532.821, 4109.744, 4131.282, 4144.103, 0, 0, []
1631431798.3357, 33, 0, 4176.923, 4528.718, 4089.744, 4132.821, 4128.718, 0, 0, []
1631431798.3435, 34, 0, 4189.744, 4536.41, 4088.718, 4132.308, 4130.256, 0, 0, []
1631431798.3514, 35, 0, 4175.897, 4547.692, 4094.359, 4126.667, 4143.59, 0, 0, []
1631431798.3591, 36, 0, 4156.923, 4537.436, 4061.538, 4125.641, 4132.308, 0, 0, []
1631431798.3671, 37, 0, 4162.051, 4530.256, 4085.641, 4133.846, 4113.846, 0, 0, []
1631431798.375, 38, 0, 4175.897, 4528.718, 4091.795, 4134.359, 4125.128, 0, 0, []
1631431798.383, 39, 0, 4170.769, 4518.462, 4094.872, 4131.795, 4141.538, 0, 0, []
1631431798.3909, 40, 0, 4169.231, 4526.154, 4106.154, 4145.128, 4140, 0, 0, []
1631431798.3988, 41, 0, 4180.513, 4546.667, 4083.59, 4155.897, 4133.846, 0, 0, []
1631431798.4067, 42, 0, 4176.923, 4550.256, 4103.59, 4145.128, 4137.949, 0, 0, []
1631431798.4147, 43, 0, 4162.564, 4536.923, 4097.949, 4137.949, 4142.051, 0, 0, []
1631431798.4226, 44, 0, 4158.462, 4524.615, 4085.128, 4142.051, 4133.333, 0, 0, []
1631431798.4306, 45, 0, 4176.923, 4544.103, 4101.538, 4144.615, 4133.846, 0, 0, []
1631431798.4384, 46, 0, 4197.436, 4569.744, 4093.333, 4144.103, 4161.026, 0, 0, []
1631431798.4462, 47, 0, 4187.692, 4545.128, 4110.256, 4143.077, 4171.795, 0, 0, []
1631431798.4541, 48, 0, 4177.949, 4516.923, 4091.795, 4147.179, 4155.897, 0, 0, []
1631431798.462, 49, 0, 4195.385, 4534.872, 4078.974, 4153.333, 4152.821, 0, 0, []
1631431798.4699, 50, 0, 4195.385, 4533.333, 4098.462, 4134.359, 4154.872, 0, 0, []
1631431798.4778, 51, 0, 4165.128, 4508.205, 4064.615, 4116.923, 4142.564, 0, 0, []
1631431798.4857, 52, 0, 4161.538, 4514.359, 4077.949, 4137.436, 4129.231, 0, 0, []
1631431798.4935, 53, 0, 4175.897, 4525.128, 4091.282, 4143.077, 4124.103, 0, 0, []
1631431798.5014, 54, 0, 4165.641, 4514.359, 4079.487, 4120.513, 4129.744, 0, 0, []
1631431798.5092, 55, 0, 4165.641, 4517.949, 4098.462, 4130.256, 4144.103, 0, 0, []
1631431798.517, 56, 0, 4184.103, 4531.795, 4076.923, 4146.154, 4135.385, 0, 0, []
1631431798.5248, 57, 0, 4182.051, 4520.513, 4083.077, 4129.231, 4113.846, 0, 0, []
1631431798.5328, 58, 0, 4170.769, 4510.769, 4090.256, 4121.026, 4128.718, 0, 0, []
1631431798.5407, 59, 0, 4178.974, 4518.974, 4077.436, 4140.513, 4153.846, 0, 0, []
1631431798.5487, 60, 0, 4192.821, 4520.513, 4097.949, 4147.692, 4146.154, 0, 0, []
1631431798.5565, 61, 0, 4188.718, 4513.846, 4074.872, 4118.974, 4128.718, 0, 0, []
1631431798.5645, 62, 0, 4179.487, 4509.231, 4083.59, 4101.026, 4134.359, 0, 0, []
1631431798.5724, 63, 0, 4185.128, 4519.487, 4101.026, 4127.179, 4147.692, 0, 0, []
1631431798.5804, 64, 0, 4189.744, 4532.821, 4073.333, 4139.487, 4138.462, 450, 0, []
1631431798.5883, 65, 0, 4181.026, 4523.59, 4085.641, 4122.051, 4124.103, 450, 0, []
1631431798.5962, 66, 0, 4183.59, 4518.462, 4083.077, 4132.821, 4146.154, 16186, 0, []
1631431798.6041, 67, 0, 4212.308, 4526.667, 4097.949, 4169.744, 4185.128, 450, 0, []
1631431798.6119, 68, 0, 4226.667, 4529.231, 4099.487, 4170.769, 4178.974, 16140, 0, []
1631431798.6198, 69, 0, 4209.231, 4536.923, 4062.564, 4134.359, 4145.641, 450, 0, []
1631431798.6276, 70, 0, 4193.333, 4549.231, 4089.231, 4122.051, 4146.667, 278, 0, []
1631431798.6354, 71, 0, 4201.538, 4541.026, 4086.667, 4141.026, 4162.051, 450, 0, []
1631431798.6432, 72, 0, 4211.795, 4531.795, 4077.436, 4148.718, 4154.872, 450, 0, []
1631431798.6511, 73, 0, 4209.744, 4536.923, 4087.179, 4141.538, 4145.641, 16166, 0, []
1631431798.6589, 74, 0, 4197.436, 4533.846, 4066.667, 4138.974, 4146.154, 450, 0, []
1631431798.6668, 75, 0, 4190.256, 4529.744, 4089.744, 4146.667, 4153.333, 16200, 0, []
1631431798.6745, 76, 0, 4197.436, 4534.872, 4088.205, 4155.385, 4157.436, 450, 0, []
1631431798.6825, 77, 0, 4198.974, 4544.103, 4081.538, 4152.308, 4145.641, 450, 0, []
1631431798.6904, 78, 0, 4198.462, 4563.077, 4097.436, 4134.872, 4142.051, 450, 0, []
1631431798.6984, 79, 0, 4214.872, 4571.795, 4087.179, 4128.205, 4166.667, 16200, 0, []
1631431798.7063, 80, 0, 4230.769, 4557.949, 4101.538, 4141.026, 4179.487, 450, 0, []
1631431798.7143, 81, 0, 4234.872, 4554.359, 4077.436, 4143.077, 4167.179, 450, 0, []
1631431798.7221, 82, 0, 4233.846, 4560, 4069.231, 4138.462, 4168.718, 450, 0, []
1631431798.7301, 83, 0, 4224.103, 4563.077, 4107.692, 4141.026, 4185.128, 16200, 0, []
1631431798.738, 84, 0, 4211.282, 4565.641, 4085.641, 4145.128, 4179.487, 450, 0, []
1631431798.746, 85, 0, 4214.872, 4556.41, 4082.564, 4148.205, 4160.513, 450, 0, []
1631431798.7539, 86, 0, 4220, 4558.974, 4081.538, 4149.231, 4157.949, 450, 0, []
1631431798.7618, 87, 0, 4215.897, 4575.385, 4082.564, 4149.744, 4167.692, 16200, 0, []
1631431798.7697, 88, 0, 4216.41, 4565.128, 4109.231, 4152.308, 4174.359, 450, 0, []
1631431798.7775, 89, 0, 4220, 4545.128, 4086.667, 4146.667, 4174.872, 450, 0, []
1631431798.7854, 90, 0, 4220.513, 4561.538, 4100.513, 4137.436, 4164.103, 450, 0, []
1631431798.7932, 91, 0, 4224.615, 4587.179, 4106.667, 4133.846, 4154.872, 16200, 0, []
1631431798.801, 92, 0, 4219.487, 4577.949, 4073.846, 4128.205, 4160.513, 450, 0, []
1631431798.8088, 93, 0, 4203.59, 4560.513, 4089.744, 4125.128, 4163.59, 450, 0, []
1631431798.8167, 94, 0, 4207.179, 4554.359, 4079.487, 4131.282, 4153.846, 450, 0, []
1631431798.8245, 95, 0, 4213.846, 4551.282, 4084.615, 4133.333, 4148.205, 16200, 0, []
1631431798.8325, 96, 0, 4203.077, 4549.744, 4090.769, 4120, 4154.872, 450, 0, []
1631431798.8403, 97, 0, 4197.949, 4569.744, 4074.872, 4120.513, 4165.641, 450, 0, []
1631431798.8483, 98, 0, 4214.872, 4590.256, 4102.051, 4146.154, 4173.846, 450, 0, []
1631431798.8562, 99, 0, 4233.333, 4580.513, 4089.744, 4158.462, 4172.821, 16200, 0, []
1631431798.8642, 100, 0, 4225.641, 4587.179, 4089.231, 4144.103, 4164.103, 450, 0, []
1631431798.8721, 101, 0, 4209.231, 4646.667, 4100, 4129.744, 4169.231, 450, 0, []
1631431798.88, 102, 0, 4208.718, 4671.795, 4079.487, 4134.872, 4182.051, 450, 0, []
1631431798.8879, 103, 0, 4220, 4642.051, 4102.564, 4153.333, 4180, 16200, 0, []
1631431798.8959, 104, 0, 4222.051, 4654.359, 4093.846, 4168.718, 4169.744, 450, 0, []
1631431798.9038, 105, 0, 4212.308, 4672.821, 4095.897, 4163.077, 4164.615, 450, 0, []
1631431798.9116, 106, 0, 4203.59, 4625.128, 4108.205, 4147.179, 4161.538, 450, 0, []
1631431798.9194, 107, 0, 4195.385, 4591.282, 4075.385, 4150.256, 4156.923, 16200, 0, []
1631431798.9272, 108, 0, 4198.462, 4607.179, 4091.282, 4161.026, 4149.744, 450, 0, []
1631431798.9351, 109, 0, 4205.128, 4623.59, 4085.128, 4147.179, 4143.077, 450, 0, []
1631431798.9429, 110, 0, 4198.974, 4642.564, 4076.923, 4128.718, 4150.256, 450, 0, []
1631431798.9508, 111, 0, 4187.692, 4661.538, 4093.846, 4133.846, 4159.487, 16200, 0, []
1631431798.9585, 112, 0, 4193.846, 4671.795, 4067.692, 4142.051, 4151.795, 450, 0, []
1631431798.9664, 113, 0, 4208.718, 4682.051, 4077.949, 4144.615, 4145.641, 450, 0, []
1631431798.9742, 114, 0, 4208.205, 4689.744, 4072.308, 4138.462, 4152.821, 450, 0, []
1631431798.9821, 115, 0, 4204.615, 4701.026, 4074.872, 4132.821, 4165.128, 16200, 0, []
1631431798.9899, 116, 0, 4213.333, 4729.231, 4107.692, 4147.692, 4175.897, 450, 0, []
1631431798.9978, 117, 0, 4213.846, 4777.949, 4075.385, 4154.872, 4161.538, 450, 0, []
1631431799.0057, 118, 0, 4198.462, 4765.128, 4073.846, 4131.795, 4135.897, 450, 0, []
1631431799.0137, 119, 0, 4187.179, 4786.667, 4077.436, 4109.744, 4141.538, 16200, 0, []
1631431799.0216, 120, 0, 4186.667, 5062.564, 4070.769, 4119.487, 4155.385, 450, 0, []
1631431799.0296, 121, 0, 4195.897, 5325.128, 4096.41, 4143.077, 4148.205, 450, 0, []
1631431799.0374, 122, 0, 4209.231, 5224.103, 4087.179, 4157.949, 4145.641, 450, 0, []
1631431799.0454, 123, 0, 4204.103, 5042.564, 4093.333, 4152.821, 4138.462, 16200, 0, []
1631431799.0533, 124, 0, 4184.615, 5056.41, 4083.59, 4134.872, 4122.051, 450, 0, []
1631431799.0613, 125, 0, 4183.59, 5078.462, 4076.923, 4138.462, 4135.385, 450, 0, []
1631431799.0692, 126, 0, 4198.462, 5056.923, 4114.872, 4158.462, 4160, 450, 0, []
1631431799.077, 127, 0, 4207.179, 5074.359, 4084.615, 4155.897, 4156.41, 16200, 0, []
1631431799.0848, 128, 0, 4213.333, 5111.282, 4076.41, 4140.513, 4145.641, 450, 0, []
1631431799.0926, 0, 0, 4218.462, 5242.051, 4094.872, 4139.487, 4146.154, 450, 0, []
1631431799.1005, 1, 0, 4212.308, 5433.846, 4084.615, 4143.077, 4146.667, 450, 0, []
1631431799.1083, 2, 0, 4204.103, 5505.128, 4105.641, 4139.487, 4153.333, 16187, 0, []
1631431799.1162, 3, 0, 4193.846, 5488.718, 4084.103, 4130.256, 4153.846, 450, 0, []
1631431799.1239, 4, 0, 4178.462, 5578.974, 4075.897, 4119.487, 4131.282, 16127, 0, []
1631431799.1318, 5, 0, 4184.103, 5743.077, 4094.359, 4129.231, 4125.128, 450, 0, []
1631431799.1396, 6, 0, 4206.667, 5925.128, 4084.103, 4147.179, 4145.641, 271, 0, []
1631431799.1476, 7, 0, 4214.872, 6191.795, 4103.59, 4146.667, 4153.333, 450, 0, []
1631431799.1555, 8, 0, 4210.769, 6237.949, 4083.077, 4131.282, 4144.103, 450, 0, []
1631431799.1634, 9, 0, 4200, 5966.154, 4064.615, 4118.462, 4129.744, 16166, 0, []
1631431799.1713, 10, 0, 4187.692, 5963.077, 4072.821, 4108.718, 4117.949, 450, 0, []
1631431799.1793, 11, 0, 4192.821, 6347.179, 4069.744, 4107.179, 4128.205, 16202, 0, []
1631431799.1872, 12, 0, 4206.667, 6580, 4098.974, 4115.897, 4154.872, 450, 0, []
1631431799.1952, 13, 0, 4209.744, 6600.513, 4074.872, 4120.513, 4168.718, 450, 0, []
1631431799.203, 14, 0, 4207.692, 6611.795, 4065.128, 4122.051, 4167.692, 450, 0, []
1631431799.211, 15, 0, 4204.103, 6530.256, 4090.256, 4120, 4161.538, 16202, 0, []
1631431799.2189, 16, 0, 4198.974, 6442.564, 4056.41, 4119.487, 4152.821, 0, 0, []
1631431799.2267, 17, 0, 4209.231, 6509.744, 4076.41, 4135.385, 4152.308, 0, 0, []
1631431799.2346, 18, 0, 4223.59, 6586.154, 4091.795, 4151.282, 4156.923, 0, 0, []
1631431799.2425, 19, 0, 4220, 6707.179, 4076.923, 4145.641, 4151.795, 0, 0, []
1631431799.2504, 20, 0, 4224.615, 7100, 4089.744, 4137.436, 4153.333, 0, 0, []
1631431799.2582, 21, 0, 4236.41, 7582.051, 4070.256, 4141.026, 4164.103, 0, 0, []
1631431799.2661, 22, 0, 4226.667, 7783.59, 4078.462, 4145.128, 4168.205, 0, 0, []
1631431799.2739, 23, 0, 4212.821, 7789.744, 4073.846, 4146.667, 4169.231, 0, 0, []
1631431799.2817, 24, 0, 4214.872, 7806.154, 4065.128, 4144.103, 4175.897, 0, 0, []
1631431799.2895, 25, 0, 4219.487, 7806.667, 4096.41, 4140, 4177.949, 0, 0, []
1631431799.2974, 26, 0, 4226.667, 7782.564, 4080, 4137.949, 4169.231, 0, 0, []
1631431799.3052, 27, 0, 4239.487, 7775.897, 4089.231, 4138.974, 4164.615, 0, 0, []
1631431799.3132, 28, 0, 4247.692, 7769.744, 4098.462, 4147.179, 4168.205, 0, 0, []
1631431799.321, 29, 0, 4248.718, 7769.744, 4083.077, 4153.333, 4170.256, 0, 0, []
1631431799.329, 30, 0, 4248.718, 7770.769, 4093.846, 4148.205, 4164.103, 0, 0, []
1631431799.3369, 31, 0, 4235.897, 7769.744, 4060, 4132.308, 4146.154, 0, 0, []
1631431799.3449, 32, 0, 4220, 7770.769, 4067.692, 4121.538, 4138.462, 0, 0, []
1631431799.3528, 33, 0, 4238.974, 7770.256, 4094.359, 4126.667, 4167.692, 0, 0, []
1631431799.3607, 34, 0, 4271.282, 7770.256, 4083.59, 4135.897, 4196.923, 0, 0, []
1631431799.3686, 35, 0, 4267.692, 7770.256, 4098.462, 4137.436, 4180, 0, 0, []
1631431799.3766, 36, 0, 4257.436, 7770.256, 4081.538, 4137.949, 4160.513, 0, 0, []
1631431799.3845, 37, 0, 4272.308, 7770.256, 4090.256, 4143.59, 4172.308, 0, 0, []
1631431799.3923, 38, 0, 4286.667, 7770.256, 4100, 4154.872, 4178.462, 0, 0, []
1631431799.4002, 39, 0, 4288.718, 7770.256, 4074.359, 4165.128, 4187.692, 0, 0, []
1631431799.4079, 40, 0, 4309.231, 7770.256, 4101.538, 4164.103, 4228.205, 0, 0, []
1631431799.4158, 41, 0, 4373.333, 7770.256, 4097.949, 4151.795, 4278.462, 0, 0, []
1631431799.4236, 42, 0, 4451.795, 7770.256, 4090.256, 4152.821, 4327.692, 0, 0, []
1631431799.4315, 43, 0, 4497.949, 7770.256, 4093.333, 4167.179, 4377.436, 0, 0, []
1631431799.4393, 44, 0, 4518.462, 7770.256, 4068.205, 4165.641, 4400.513, 0, 0, []
1631431799.4471, 45, 0, 4529.744, 7770.256, 4087.179, 4150.256, 4403.077, 0, 0, []
1631431799.455, 46, 0, 4518.974, 7770.256, 4073.333, 4143.59, 4410.256, 0, 0, []
1631431799.4629, 47, 0, 4507.692, 7770.256, 4065.128, 4155.897, 4395.897, 0, 0, []
1631431799.4708, 48, 0, 4511.282, 7770.256, 4094.872, 4164.103, 4375.385, 0, 0, []
1631431799.4787, 49, 0, 4504.615, 7770.256, 4086.154, 4161.026, 4377.436, 0, 0, []
1631431799.4864, 50, 0, 4489.231, 7770.256, 4111.795, 4177.949, 4367.179, 0, 0, []
1631431799.4944, 51, 0, 4476.41, 7770.256, 4112.821, 4190.256, 4338.462, 0, 0, []
1631431799.5023, 52, 0, 4443.59, 7770.256, 4100.513, 4162.051, 4321.026, 0, 0, []
1631431799.5103, 53, 0, 4413.846, 7770.256, 4113.333, 4136.41, 4301.026, 0, 0, []
1631431799.5182, 54, 0, 4404.103, 7770.256, 4089.744, 4150.769, 4267.179, 0, 0, []
1631431799.5261, 55, 0, 4380.513, 7770.256, 4102.051, 4163.59, 4244.103, 0, 0, []
1631431799.534, 56, 0, 4352.308, 7770.256, 4093.333, 4149.744, 4230.256, 0, 0, []
1631431799.542, 57, 0, 4349.231, 7770.256, 4078.462, 4147.692, 4215.897, 0, 0, []
1631431799.5499, 58, 0, 4356.41, 7770.256, 4111.282, 4165.128, 4209.744, 0, 0, []
1631431799.5577, 59, 0, 4349.744, 7770.256, 4093.846, 4168.205, 4201.538, 0, 0, []
1631431799.5655, 60, 0, 4326.667, 7770.256, 4090.256, 4153.846, 4190.769, 0, 0, []
1631431799.5733, 61, 0, 4318.974, 7770.256, 4095.897, 4150.769, 4195.385, 0, 0, []
1631431799.5812, 62, 0, 4337.949, 7770.256, 4096.41, 4169.231, 4203.59, 0, 0, []
1631431799.589, 63, 0, 4353.846, 7770.256, 4123.077, 4185.128, 4202.564, 0, 0, []
1631431799.5969, 64, 0, 4350.769, 7770.256, 4092.821, 4188.205, 4200, 450, 0, []
1631431799.6046, 65, 0, 4340.513, 7770.256, 4088.205, 4182.051, 4199.487, 450, 0, []
1631431799.6126, 66, 0, 4326.667, 7770.256, 4099.487, 4168.718, 4198.462, 16186, 0, []
1631431799.6205, 67, 0, 4308.205, 7770.256, 4082.051, 4147.692, 4181.026, 450, 0, []
1631431799.6285, 68, 0, 4304.615, 7770.256, 4098.974, 4136.41, 4152.308, 204, 0, []
1631431799.6364, 69, 0, 4318.462, 7770.256, 4086.154, 4148.205, 4146.154, 450, 0, []
1631431799.6443, 70, 0, 4324.615, 7770.256, 4097.949, 4171.795, 4163.077, 271, 0, []
1631431799.6522, 71, 0, 4316.41, 7770.256, 4105.641, 4181.026, 4167.179, 450, 0, []
1631431799.6602, 72, 0, 4303.59, 7770.256, 4069.231, 4163.59, 4154.872, 450, 0, []
1631431799.6681, 73, 0, 4300, 7770.256, 4091.282, 4149.744, 4148.718, 16169, 0, []
1631431799.6761, 74, 0, 4310.256, 7770.256, 4088.718, 4158.974, 4151.795, 450, 0, []
1631431799.6839, 75, 0, 4329.231, 7770.256, 4086.154, 4167.692, 4163.59, 16201, 0, []
1631431799.6917, 76, 0, 4335.385, 7770.256, 4100, 4167.692, 4170.769, 450, 0, []
1631431799.6996, 77, 0, 4309.231, 7770.256, 4072.308, 4157.949, 4156.923, 450, 0, []
1631431799.7074, 78, 0, 4291.795, 7770.256, 4085.128, 4143.077, 4151.282, 450, 0, []
1631431799.7153, 79, 0, 4311.282, 7770.256, 4084.615, 4140, 4165.641, 16201, 0, []
1631431799.723, 80, 0, 4328.718, 7770.256, 4082.051, 4151.282, 4163.077, 450, 0, []
1631431799.7309, 81, 0, 4325.128, 7770.256, 4088.205, 4153.846, 4151.282, 450, 0, []
1631431799.7387, 82, 0, 4321.026, 7770.256, 4057.436, 4147.179, 4150.769, 450, 0, []
1631431799.7466, 83, 0, 4321.026, 7770.256, 4084.103, 4151.282, 4151.282, 16201, 0, []
1631431799.7544, 84, 0, 4317.436, 7770.256, 4093.846, 4157.949, 4161.026, 450, 0, []
1631431799.7623, 85, 0, 4311.795, 7770.256, 4078.974, 4152.308, 4166.154, 450, 0, []
1631431799.77, 86, 0, 4304.615, 7770.256, 4083.59, 4146.667, 4147.692, 450, 0, []
1631431799.778, 87, 0, 4314.359, 7770.256, 4067.179, 4157.949, 4141.538, 16201, 0, []
1631431799.7859, 88, 0, 4331.795, 7770.256, 4099.487, 4181.538, 4155.897, 450, 0, []
1631431799.7939, 89, 0, 4325.641, 7770.256, 4098.462, 4195.897, 4160.513, 450, 0, []
1631431799.8018, 90, 0, 4309.231, 7770.256, 4076.923, 4183.59, 4164.615, 450, 0, []
1631431799.8097, 91, 0, 4297.949, 7770.256, 4098.462, 4154.872, 4165.128, 16201, 0, []
1631431799.8176, 92, 0, 4282.564, 7770.256, 4071.282, 4138.974, 4135.385, 450, 0, []
1631431799.8256, 93, 0, 4278.462, 7770.256, 4076.923, 4151.795, 4112.821, 450, 0, []
1631431799.8335, 94, 0, 4296.923, 7770.256, 4092.821, 4167.692, 4129.231, 450, 0, []
1631431799.8413, 95, 0, 4306.154, 7770.256, 4088.718, 4169.231, 4141.026, 16201, 0, []
1631431799.8491, 96, 0, 4297.436, 7770.256, 4105.128, 4171.795, 4134.359, 450, 0, []
1631431799.8569, 97, 0, 4292.308, 7770.256, 4072.308, 4171.282, 4137.436, 450, 0, []
1631431799.8648, 98, 0, 4290.769, 7770.256, 4080, 4157.436, 4148.718, 450, 0, []
1631431799.8726, 99, 0, 4296.41, 7770.256, 4102.564, 4145.641, 4147.179, 16201, 0, []
1631431799.8805, 100, 0, 4312.308, 7770.256, 4088.718, 4155.897, 4141.026, 450, 0, []
1631431799.8882, 101, 0, 4320, 7770.256, 4107.179, 4165.641, 4139.487, 450, 0, []
1631431799.8961, 102, 0, 4315.897, 7770.256, 4081.538, 4154.872, 4139.487, 450, 0, []
1631431799.9039, 103, 0, 4310.769, 7770.256, 4076.41, 4147.692, 4140, 16201, 0, []
1631431799.9118, 104, 0, 4309.231, 7770.256, 4095.385, 4154.359, 4144.615, 450, 0, []
1631431799.9196, 105, 0, 4304.615, 7770.256, 4084.103, 4154.359, 4152.821, 450, 0, []
1631431799.9275, 106, 0, 4298.462, 7770.256, 4106.667, 4144.103, 4153.333, 450, 0, []
1631431799.9354, 107, 0, 4299.487, 7770.256, 4092.308, 4137.436, 4143.077, 16201, 0, []
1631431799.9434, 108, 0, 4301.026, 7770.256, 4085.128, 4136.923, 4131.795, 450, 0, []
1631431799.9513, 109, 0, 4309.231, 7770.256, 4097.436, 4142.564, 4131.282, 450, 0, []
1631431799.9593, 110, 0, 4325.128, 7770.256, 4081.538, 4153.846, 4137.949, 450, 0, []
1631431799.9671, 111, 0, 4323.59, 7771.282, 4103.077, 4160.513, 4141.026, 16201, 0, []
1631431799.9751, 112, 0, 4301.026, 7792.308, 4080.513, 4156.41, 4135.897, 450, 0, []
1631431799.983, 113, 0, 4292.821, 7877.436, 4065.641, 4148.205, 4134.872, 450, 0, []
1631431799.991, 114, 0, 4300, 7890.769, 4096.923, 4143.077, 4144.103, 450, 0, []
1631431799.9989, 115, 0, 4298.974, 7822.564, 4086.154, 4136.41, 4140, 16201, 0, []
1631431800.0066, 116, 0, 4296.923, 7970.256, 4095.897, 4128.205, 4120, 450, 0, []
1631431800.0145, 117, 0, 4308.718, 7694.359, 4095.385, 4127.179, 4120.513, 450, 0, []
1631431800.0223, 118, 0, 4318.462, 6225.641, 4107.692, 4143.59, 4138.974, 450, 0, []
1631431800.0302, 119, 0, 4309.744, 4558.462, 4121.026, 4151.795, 4131.282, 16201, 0, []
1631431800.038, 120, 0, 4295.897, 3774.359, 4073.333, 4136.41, 4116.923, 450, 0, []
1631431800.0458, 121, 0, 4283.59, 3328.205, 4087.692, 4131.282, 4121.026, 450, 0, []
1631431800.0536, 122, 0, 4281.538, 2767.179, 4094.359, 4143.59, 4115.897, 450, 0, []
1631431800.0615, 123, 0, 4287.179, 2400.513, 4066.667, 4139.487, 4107.692, 16201, 0, []
1631431800.0693, 124, 0, 4282.564, 2136.41, 4091.282, 4133.846, 4120, 450, 0, []
1631431800.0773, 125, 0, 4282.564, 1865.641, 4094.872, 4158.462, 4137.436, 450, 0, []
1631431800.0851, 126, 0, 4299.487, 1666.154, 4102.564, 4181.026, 4144.615, 450, 0, []
1631431800.0931, 127, 0, 4306.667, 1434.359, 4094.359, 4180, 4152.308, 16201, 0, []
1631431800.101, 128, 0, 4290.769, 1222.564, 4072.308, 4170.769, 4145.641, 450, 0, []
1631431800.109, 0, 0, 4284.615, 1115.897, 4092.308, 4160, 4137.436, 450, 0, []
1631431800.1169, 1, 0, 4287.692, 1037.436, 4074.872, 4151.795, 4145.641, 450, 0, []
1631431800.1249, 2, 0, 4276.923, 938.462, 4079.487, 4144.103, 4135.385, 16198, 0, []
1631431800.1327, 3, 0, 4272.308, 876.923, 4094.359, 4134.872, 4125.128, 450, 0, []
1631431800.1407, 4, 0, 4279.487, 844.615, 4081.538, 4133.846, 4137.949, 227, 0, []
1631431800.1486, 5, 0, 4274.872, 813.333, 4100, 4140.513, 4144.615, 450, 0, []
1631431800.1564, 6, 0, 4267.692, 804.103, 4086.667, 4146.154, 4136.923, 276, 0, []
1631431800.1643, 7, 0, 4273.333, 809.744, 4093.846, 4157.949, 4138.462, 450, 0, []
1631431800.172, 8, 0, 4270.769, 813.333, 4094.872, 4161.026, 4144.615, 450, 0, []
1631431800.1799, 9, 0, 4264.615, 812.308, 4055.385, 4137.436, 4138.462, 16166, 0, []
1631431800.1877, 10, 0, 4273.846, 814.359, 4080, 4124.615, 4138.462, 450, 0, []
1631431800.1956, 11, 0, 4273.846, 815.897, 4079.487, 4132.821, 4141.538, 16188, 0, []
1631431800.2034, 12, 0, 4262.564, 815.897, 4069.744, 4134.359, 4136.923, 450, 0, []
1631431800.2112, 13, 0, 4271.795, 816.923, 4080.513, 4129.744, 4146.154, 450, 0, []
1631431800.219, 14, 0, 4285.128, 816.41, 4073.333, 4135.385, 4163.59, 450, 0, []
1631431800.2269, 15, 0, 4273.846, 816.41, 4098.974, 4141.538, 4162.051, 16188, 0, []
1631431800.2347, 16, 0, 4263.59, 816.41, 4085.128, 4137.436, 4152.308, 0, 0, []
1631431800.2427, 17, 0, 4269.744, 816.41, 4079.487, 4137.949, 4153.333, 0, 0, []
1631431800.2505, 18, 0, 4270.256, 816.41, 4102.051, 4142.051, 4156.41, 0, 0, []
1631431800.2585, 19, 0, 4263.59, 816.41, 4080.513, 4134.359, 4152.821, 0, 0, []
1631431800.2664, 20, 0, 4257.949, 816.41, 4093.333, 4127.692, 4147.179, 0, 0, []
1631431800.2744, 21, 0, 4255.385, 816.41, 4085.128, 4134.872, 4145.128, 0, 0, []
1631431800.2823, 22, 0, 4252.308, 816.41, 4074.872, 4144.103, 4148.718, 0, 0, []
1631431800.2902, 23, 0, 4252.821, 816.41, 4094.872, 4133.846, 4155.385, 0, 0, []
1631431800.2981, 24, 0, 4259.487, 816.41, 4073.846, 4118.462, 4155.385, 0, 0, []
1631431800.3061, 25, 0, 4261.538, 816.41, 4095.385, 4126.667, 4155.385, 0, 0, []
1631431800.314, 26, 0, 4258.974, 816.41, 4107.692, 4143.59, 4165.128, 0, 0, []
1631431800.3219, 27, 0, 4251.282, 816.41, 4089.231, 4141.026, 4165.641, 0, 0, []
1631431800.3297, 28, 0, 4248.205, 816.41, 4105.128, 4133.333, 4158.974, 0, 0, []
1631431800.3375, 29, 0, 4253.846, 816.41, 4089.744, 4137.949, 4163.077, 0, 0, []
1631431800.3454, 30, 0, 4253.846, 816.41, 4093.846, 4143.077, 4170.256, 0, 0, []
1631431800.3532, 31, 0, 4247.179, 816.41, 4087.692, 4145.128, 4167.179, 0, 0, []
1631431800.3611, 32, 0, 4243.59, 816.41, 4071.795, 4149.744, 4161.538, 0, 0, []
1631431800.3688, 33, 0, 4250.256, 816.41, 4100.513, 4155.897, 4169.231, 0, 0, []
1631431800.3767, 34, 0, 4256.41, 816.41, 4089.231, 4153.333, 4172.308, 0, 0, []
1631431800.3845, 35, 0, 4247.692, 816.41, 4097.949, 4142.051, 4163.59, 0, 0, []
1631431800.3925, 36, 0, 4237.436, 816.41, 4103.59, 4142.051, 4159.487, 0, 0, []
1631431800.4004, 37, 0, 4242.051, 816.41, 4084.615, 4147.179, 4162.051, 0, 0, []
1631431800.4083, 38, 0, 4242.564, 816.41, 4111.282, 4145.128, 4159.487, 0, 0, []
1631431800.4162, 39, 0, 4225.128, 816.41, 4088.718, 4134.359, 4149.231, 0, 0, []
1631431800.4242, 40, 0, 4210.769, 816.41, 4076.41, 4123.077, 4141.538, 0, 0, []
1631431800.4321, 41, 0, 4213.333, 816.41, 4085.128, 4126.667, 4135.385, 0, 0, []
1631431800.4401, 42, 0, 4221.538, 816.41, 4071.795, 4138.462, 4145.641, 0, 0, []
1631431800.448, 43, 0, 4226.667, 816.41, 4098.974, 4142.564, 4169.231, 0, 0, []
1631431800.4559, 44, 0, 4235.897, 816.41, 4093.333, 4140, 4176.923, 0, 0, []
1631431800.4638, 45, 0, 4233.333, 816.41, 4084.103, 4144.103, 4168.718, 0, 0, []
1631431800.4717, 46, 0, 4216.923, 816.41, 4082.564, 4141.026, 4155.897, 0, 0, []
1631431800.4796, 47, 0, 4217.949, 816.41, 4060.513, 4124.615, 4164.103, 0, 0, []
1631431800.4875, 48, 0, 4233.333, 816.41, 4092.821, 4123.59, 4178.974, 0, 0, []
1631431800.4954, 49, 0, 4230.769, 816.41, 4083.077, 4129.744, 4171.795, 0, 0, []
1631431800.5034, 50, 0, 4210.256, 816.41, 4061.026, 4122.564, 4160, 0, 0, []
1631431800.5113, 51, 0, 4212.821, 816.41, 4084.615, 4123.077, 4168.718, 0, 0, []
1631431800.5192, 52, 0, 4231.795, 816.41, 4071.795, 4125.128, 4189.744, 0, 0, []
1631431800.5271, 53, 0, 4265.641, 816.41, 4091.282, 4133.333, 4224.615, 0, 0, []
1631431800.5348, 54, 0, 4316.41, 816.41, 4101.026, 4160.513, 4275.385, 0, 0, []
1631431800.5428, 55, 0, 4334.359, 816.41, 4081.538, 4164.615, 4291.795, 0, 0, []
1631431800.5507, 56, 0, 4348.718, 816.41, 4090.769, 4152.821, 4297.949, 0, 0, []
1631431800.5587, 57, 0, 4395.385, 816.41, 4081.026, 4164.103, 4328.205, 0, 0, []
1631431800.5666, 58, 0, 4425.128, 816.41, 4102.564, 4173.333, 4353.333, 0, 0, []
1631431800.5745, 59, 0, 4405.128, 816.41, 4091.795, 4152.821, 4344.103, 0, 0, []
1631431800.5824, 60, 0, 4370.769, 816.41, 4068.718, 4140.513, 4308.718, 0, 0, []
1631431800.5904, 61, 0, 4350.256, 816.41, 4095.897, 4143.59, 4293.846, 0, 0, []
1631431800.5983, 62, 0, 4340.513, 816.41, 4086.667, 4140.513, 4296.923, 0, 0, []
1631431800.6061, 63, 0, 4333.846, 816.41, 4108.718, 4145.641, 4286.667, 0, 0, []
1631431800.6139, 64, 0, 4313.846, 816.41, 4113.846, 4157.949, 4268.205, 450, 0, []
1631431800.6217, 65, 0, 4290.769, 816.41, 4092.308, 4169.231, 4253.333, 450, 0, []
1631431800.6297, 66, 0, 4269.744, 816.41, 4117.949, 4164.615, 4230.769, 16193, 0, []
1631431800.6376, 67, 0, 4250.769, 816.41, 4102.564, 4150.769, 4206.154, 450, 0, []
1631431800.6455, 68, 0, 4243.59, 816.41, 4102.051, 4150.769, 4198.462, 36, 0, []
1631431800.6532, 69, 0, 4234.872, 816.41, 4095.385, 4149.231, 4188.205, 450, 0, []
1631431800.6611, 70, 0, 4213.333, 816.41, 4066.667, 4133.846, 4163.077, 16083, 0, []
1631431800.6689, 71, 0, 4195.385, 816.41, 4088.718, 4130.256, 4145.641, 450, 0, []
1631431800.6768, 72, 0, 4192.308, 816.41, 4081.538, 4144.103, 4147.179, 450, 0, []
1631431800.6846, 73, 0, 4181.538, 816.41, 4086.154, 4143.59, 4145.128, 16169, 0, []
1631431800.6924, 74, 0, 4161.026, 816.41, 4091.795, 4131.795, 4133.333, 450, 0, []
1631431800.7002, 75, 0, 4147.179, 816.41, 4065.128, 4129.744, 4127.692, 16189, 0, []
1631431800.7082, 76, 0, 4140, 816.41, 4081.026, 4124.103, 4117.436, 450, 0, []
1631431800.7161, 77, 0, 4135.897, 816.41, 4069.744, 4124.615, 4109.231, 450, 0, []
1631431800.7241, 78, 0, 4138.462, 816.41, 4070.256, 4134.359, 4118.974, 450, 0, []
1631431800.7319, 79, 0, 4138.462, 816.41, 4081.026, 4125.641, 4120.513, 16189, 0, []
1631431800.7399, 80, 0, 4137.949, 816.41, 4058.462, 4122.051, 4119.487, 450, 0, []
1631431800.7478, 81, 0, 4140, 816.41, 4085.641, 4137.436, 4127.692, 450, 0, []
1631431800.7558, 82, 0, 4133.846, 816.41, 4081.026, 4135.385, 4122.564, 450, 0, []
1631431800.7637, 83, 0, 4132.821, 816.41, 4065.641, 4128.205, 4116.923, 16189, 0, []
1631431800.7714, 84, 0, 4137.436, 816.41, 4075.385, 4133.333, 4122.564, 450, 0, []
1631431800.7793, 85, 0, 4129.744, 816.41, 4049.744, 4126.154, 4117.436, 450, 0, []
1631431800.7871, 86, 0, 4114.872, 816.41, 4063.077, 4111.795, 4098.462, 450, 0, []
1631431800.795, 87, 0, 4116.923, 816.41, 4053.846, 4111.795, 4100, 16189, 0, []
1631431800.8028, 88, 0, 4125.128, 816.41, 4042.051, 4119.487, 4112.821, 450, 0, []
1631431800.8107, 89, 0, 4117.949, 816.41, 4078.462, 4125.641, 4106.154, 450, 0, []
1631431800.8184, 90, 0, 4119.487, 816.41, 4067.692, 4123.077, 4095.897, 450, 0, []
1631431800.8263, 91, 0, 4138.462, 816.41, 4067.692, 4120.513, 4104.615, 16189, 0, []
1631431800.8341, 92, 0, 4147.179, 816.41, 4061.026, 4124.615, 4111.282, 450, 0, []
1631431800.842, 93, 0, 4138.462, 816.41, 4056.923, 4126.667, 4107.692, 450, 0, []
1631431800.8498, 94, 0, 4136.41, 816.41, 4086.667, 4126.154, 4111.795, 450, 0, []
1631431800.8577, 95, 0, 4127.179, 816.41, 4054.359, 4116.41, 4106.667, 16189, 0, []
1631431800.8656, 96, 0, 4107.692, 816.41, 4055.385, 4106.154, 4085.128, 450, 0, []
1631431800.8736, 97, 0, 4106.667, 816.41, 4073.333, 4108.718, 4084.615, 450, 0, []
1631431800.8815, 98, 0, 4106.154, 816.41, 4057.949, 4105.641, 4090.769, 450, 0, []
1631431800.8895, 99, 0, 4101.538, 816.41, 4071.795, 4101.538, 4089.744, 16189, 0, []
1631431800.8973, 100, 0, 4110.769, 816.41, 4060.513, 4106.667, 4098.462, 450, 0, []
1631431800.9053, 101, 0, 4115.897, 816.41, 4069.744, 4107.179, 4106.154, 450, 0, []
1631431800.9132, 102, 0, 4109.231, 816.41, 4070.256, 4100, 4096.923, 450, 0, []
1631431800.9212, 103, 0, 4108.718, 816.41, 4046.154, 4100, 4091.795, 16189, 0, []
1631431800.9291, 104, 0, 4111.795, 816.41, 4068.205, 4105.641, 4095.385, 450, 0, []
1631431800.9368, 105, 0, 4105.641, 816.41, 4055.897, 4104.615, 4091.795, 450, 0, []
1631431800.9447, 106, 0, 4103.59, 816.41, 4061.538, 4098.974, 4088.205, 450, 0, []
1631431800.9525, 107, 0, 4110.769, 816.41, 4070.256, 4097.436, 4094.359, 16189, 0, []
1631431800.9604, 108, 0, 4108.205, 816.41, 4037.949, 4095.897, 4091.282, 450, 0, []
1631431800.9682, 109, 0, 4102.564, 816.41, 4065.128, 4102.564, 4092.821, 450, 0, []
1631431800.976, 110, 0, 4116.923, 815.897, 4070.256, 4116.923, 4112.821, 450, 0, []
1631431800.9838, 111, 0, 4127.179, 815.897, 4065.128, 4117.436, 4122.564, 16189, 0, []
1631431800.9917, 112, 0, 4116.923, 818.974, 4069.231, 4103.59, 4111.795, 450, 0, []
1631431800.9995, 113, 0, 4116.923, 819.487, 4050.769, 4099.487, 4113.846, 450, 0, []
1631431801.0075, 114, 0, 4134.359, 815.897, 4083.077, 4108.718, 4133.846, 450, 0, []
1631431801.0153, 115, 0, 4149.231, 821.538, 4082.564, 4110.256, 4152.821, 16189, 0, []
1631431801.0233, 116, 0, 4152.308, 830.256, 4063.59, 4102.051, 4157.436, 450, 0, []
