Timestamp, COUNTER, INTERPOLATED, AF3, T7, Pz, T8, AF4, RAW_CQ, MARKER_HARDWARE, MARKERS
1627801663.9784, 71, 0, 4143.077, 4427.692, 4164.615, 4178.462, 4131.282, 450, 0, []
1627801663.9863, 72, 0, 4141.026, 4417.949, 4178.974, 4173.846, 4135.897, 450, 0, []
1627801663.994, 73, 0, 4140.513, 4441.538, 4176.41, 4172.821, 4136.923, 16164, 0, []
1627801664.0019, 74, 0, 4144.615, 4448.718, 4169.231, 4174.359, 4131.795, 450, 0, []
1627801664.0097, 75, 0, 4138.974, 4441.538, 4162.564, 4173.333, 4127.692, 16197, 0, []
1627801664.0176, 76, 0, 4144.103, 4463.077, 4162.564, 4183.59, 4139.487, 450, 0, []
1627801664.0254, 77, 0, 4155.385, 4477.949, 4177.436, 4189.744, 4147.179, 450, 0, []
1627801664.0333, 78, 0, 4153.846, 4480, 4170.769, 4178.974, 4138.462, 450, 0, []
1627801664.0412, 79, 0, 4160.513, 4498.974, 4185.128, 4184.103, 4141.026, 16197, 0, []
1627801664.0492, 80, 0, 4170.256, 4516.41, 4199.487, 4196.41, 4147.692, 450, 0, []
1627801664.0571, 81, 0, 4157.436, 4508.718, 4174.359, 4185.128, 4136.923, 450, 0, []
1627801664.0651, 82, 0, 4145.128, 4509.231, 4178.462, 4174.359, 4122.564, 450, 0, []
1627801664.0729, 83, 0, 4154.359, 4533.846, 4191.795, 4182.564, 4124.103, 16197, 0, []
1627801664.0809, 84, 0, 4154.359, 4560, 4180, 4180, 4126.667, 450, 0, []
1627801664.0888, 85, 0, 4135.897, 4558.974, 4159.487, 4162.051, 4113.846, 450, 0, []
1627801664.0968, 86, 0, 4133.333, 4533.846, 4154.359, 4162.051, 4109.231, 450, 0, []
1627801664.1047, 87, 0, 4146.667, 4543.59, 4180, 4175.897, 4122.051, 16197, 0, []
1627801664.1126, 88, 0, 4154.359, 4566.667, 4177.949, 4177.436, 4125.128, 450, 0, []
1627801664.1205, 89, 0, 4150.256, 4563.59, 4166.667, 4162.051, 4110.256, 450, 0, []
1627801664.1283, 90, 0, 4150.256, 4560.513, 4174.359, 4150.769, 4108.718, 450, 0, []
1627801664.1362, 91, 0, 4153.846, 4555.385, 4164.103, 4154.359, 4121.026, 16197, 0, []
1627801664.144, 92, 0, 4162.051, 4566.667, 4168.205, 4166.667, 4128.205, 450, 0, []
1627801664.1518, 93, 0, 4178.462, 4594.872, 4175.385, 4179.487, 4136.923, 450, 0, []
1627801664.1596, 94, 0, 4185.128, 4596.923, 4172.821, 4181.026, 4140, 450, 0, []
1627801664.1675, 95, 0, 4174.359, 4586.154, 4172.821, 4173.846, 4132.821, 16197, 0, []
1627801664.1753, 96, 0, 4174.359, 4586.154, 4162.564, 4175.385, 4136.41, 450, 0, []
1627801664.1832, 97, 0, 4197.436, 4580.513, 4174.359, 4193.333, 4165.128, 450, 0, []
1627801664.1909, 98, 0, 4227.692, 4594.872, 4178.974, 4203.077, 4198.974, 450, 0, []
1627801664.1989, 99, 0, 4267.179, 4631.795, 4168.205, 4198.462, 4233.333, 16197, 0, []
1627801664.2068, 100, 0, 4330.769, 4622.564, 4181.026, 4200.513, 4281.026, 450, 0, []
1627801664.2148, 101, 0, 4398.462, 4603.077, 4185.128, 4201.538, 4336.41, 450, 0, []
1627801664.2227, 102, 0, 4438.462, 4632.308, 4185.128, 4195.897, 4380, 450, 0, []
1627801664.2306, 103, 0, 4456.923, 4644.103, 4177.949, 4190.769, 4400, 16197, 0, []
1627801664.2385, 104, 0, 4468.205, 4605.641, 4170.256, 4186.667, 4405.641, 450, 0, []
1627801664.2465, 105, 0, 4460, 4586.154, 4184.103, 4187.179, 4402.564, 450, 0, []
1627801664.2544, 106, 0, 4436.41, 4613.846, 4184.615, 4190.256, 4387.692, 450, 0, []
1627801664.2624, 107, 0, 4423.59, 4626.667, 4192.821, 4193.333, 4374.872, 16197, 0, []
1627801664.2702, 108, 0, 4416.923, 4610.256, 4202.051, 4198.462, 4372.821, 450, 0, []
1627801664.278, 109, 0, 4399.487, 4601.538, 4196.923, 4207.692, 4366.154, 450, 0, []
1627801664.2859, 110, 0, 4370.256, 4592.308, 4201.026, 4203.077, 4338.974, 450, 0, []
1627801664.2937, 111, 0, 4342.564, 4582.564, 4184.103, 4187.179, 4307.692, 16197, 0, []
1627801664.3016, 112, 0, 4328.205, 4584.615, 4178.462, 4186.667, 4291.795, 450, 0, []
1627801664.3094, 113, 0, 4316.41, 4588.718, 4183.59, 4191.795, 4285.641, 450, 0, []
1627801664.3172, 114, 0, 4301.026, 4580, 4172.308, 4183.077, 4275.385, 450, 0, []
1627801664.325, 115, 0, 4295.897, 4566.154, 4185.128, 4183.59, 4263.077, 16197, 0, []
1627801664.3329, 116, 0, 4301.538, 4562.051, 4186.667, 4199.487, 4263.59, 450, 0, []
1627801664.3407, 117, 0, 4295.897, 4573.846, 4173.846, 4198.974, 4263.077, 450, 0, []
1627801664.3487, 118, 0, 4277.436, 4563.59, 4168.718, 4181.026, 4246.154, 450, 0, []
1627801664.3565, 119, 0, 4274.359, 4535.385, 4163.59, 4181.026, 4241.026, 16197, 0, []
1627801664.3645, 120, 0, 4286.154, 4538.974, 4180, 4199.487, 4255.897, 450, 0, []
1627801664.3724, 121, 0, 4293.333, 4552.821, 4175.897, 4204.103, 4263.077, 450, 0, []
1627801664.3804, 122, 0, 4298.462, 4551.795, 4160.513, 4190.256, 4258.974, 450, 0, []
1627801664.3883, 123, 0, 4314.872, 4535.897, 4163.59, 4178.462, 4271.282, 16197, 0, []
1627801664.3962, 124, 0, 4364.103, 4519.487, 4160, 4183.59, 4313.846, 450, 0, []
1627801664.4041, 125, 0, 4440.513, 4526.154, 4175.385, 4198.974, 4377.436, 450, 0, []
1627801664.4121, 126, 0, 4497.436, 4531.282, 4182.564, 4205.128, 4425.128, 450, 0, []
1627801664.42, 127, 0, 4508.205, 4507.179, 4164.103, 4195.385, 4434.359, 16197, 0, []
1627801664.428, 128, 0, 4514.359, 4486.667, 4165.641, 4191.282, 4436.923, 450, 0, []
1627801664.4358, 0, 0, 4534.872, 4475.385, 4173.846, 4202.051, 4452.821, 450, 0, []
1627801664.4436, 1, 0, 4533.846, 4454.872, 4185.641, 4206.667, 4456.923, 450, 0, []
1627801664.4515, 2, 0, 4508.718, 4463.077, 4182.564, 4202.051, 4434.872, 16182, 0, []
1627801664.4593, 3, 0, 4475.385, 4474.872, 4174.359, 4194.872, 4402.051, 450, 0, []
1627801664.4672, 4, 0, 4439.487, 4441.026, 4181.538, 4186.154, 4373.333, 16152, 0, []
1627801664.4749, 5, 0, 4405.641, 4420.513, 4174.872, 4183.077, 4352.308, 450, 0, []
1627801664.4828, 6, 0, 4379.487, 4429.231, 4178.974, 4185.641, 4333.846, 251, 0, []
1627801664.4908, 7, 0, 4358.462, 4414.872, 4184.615, 4182.564, 4313.846, 450, 0, []
1627801664.4988, 8, 0, 4344.103, 4415.897, 4186.667, 4187.692, 4298.974, 450, 0, []
1627801664.5067, 9, 0, 4327.692, 4437.949, 4196.923, 4202.051, 4283.077, 16158, 0, []
1627801664.5146, 10, 0, 4300, 4407.179, 4178.974, 4196.41, 4262.051, 450, 0, []
1627801664.5225, 11, 0, 4271.282, 4376.923, 4172.308, 4176.923, 4238.974, 16195, 0, []
1627801664.5305, 12, 0, 4249.744, 4393.846, 4182.564, 4174.359, 4216.923, 450, 0, []
1627801664.5384, 13, 0, 4233.333, 4376.41, 4174.872, 4181.538, 4201.026, 450, 0, []
1627801664.5464, 14, 0, 4223.59, 4332.821, 4179.487, 4185.128, 4190.256, 450, 0, []
1627801664.5542, 15, 0, 4227.692, 4345.641, 4183.59, 4199.487, 4192.821, 16195, 0, []
1627801664.5622, 16, 0, 4231.795, 4382.564, 4195.385, 4216.923, 4203.077, 0, 0, []
1627801664.5701, 17, 0, 4215.385, 4371.795, 4198.974, 4213.333, 4191.282, 0, 0, []
1627801664.5781, 18, 0, 4185.128, 4322.564, 4167.692, 4186.154, 4154.872, 0, 0, []
1627801664.586, 19, 0, 4170.769, 4308.205, 4166.667, 4172.821, 4134.359, 0, 0, []
1627801664.5937, 20, 0, 4174.359, 4330.256, 4182.564, 4182.051, 4139.487, 0, 0, []
1627801664.6016, 21, 0, 4167.179, 4317.949, 4181.026, 4183.59, 4136.923, 0, 0, []
1627801664.6094, 22, 0, 4150.769, 4292.308, 4171.795, 4176.41, 4124.103, 0, 0, []
1627801664.6173, 23, 0, 4146.154, 4304.103, 4155.385, 4175.897, 4118.974, 0, 0, []
1627801664.6251, 24, 0, 4151.282, 4313.333, 4165.641, 4182.051, 4122.051, 0, 0, []
1627801664.6329, 25, 0, 4153.846, 4298.974, 4171.282, 4185.128, 4130.769, 0, 0, []
1627801664.6407, 26, 0, 4152.308, 4314.359, 4169.744, 4184.615, 4135.385, 0, 0, []
1627801664.6486, 27, 0, 4154.872, 4329.231, 4183.59, 4187.179, 4136.41, 0, 0, []
1627801664.6564, 28, 0, 4158.974, 4315.385, 4181.538, 4190.769, 4138.462, 0, 0, []
1627801664.6643, 29, 0, 4159.487, 4316.41, 4183.077, 4189.744, 4139.487, 0, 0, []
1627801664.672, 30, 0, 4159.487, 4338.974, 4181.538, 4182.564, 4135.897, 0, 0, []
1627801664.68, 31, 0, 4153.333, 4339.487, 4176.923, 4178.462, 4125.641, 0, 0, []
1627801664.6879, 32, 0, 4135.385, 4309.231, 4184.615, 4177.949, 4109.231, 0, 0, []
1627801664.6959, 33, 0, 4131.795, 4301.026, 4181.026, 4179.487, 4106.154, 0, 0, []
1627801664.7038, 34, 0, 4152.308, 4331.795, 4189.744, 4187.179, 4123.077, 0, 0, []
1627801664.7117, 35, 0, 4157.436, 4353.333, 4190.256, 4191.795, 4129.231, 0, 0, []
1627801664.7196, 36, 0, 4145.641, 4346.154, 4183.59, 4195.897, 4118.462, 0, 0, []
1627801664.7276, 37, 0, 4150.256, 4350.256, 4192.308, 4203.59, 4121.538, 0, 0, []
1627801664.7355, 38, 0, 4156.923, 4366.154, 4177.436, 4196.41, 4133.333, 0, 0, []
1627801664.7435, 39, 0, 4143.59, 4357.949, 4171.282, 4186.154, 4126.154, 0, 0, []
1627801664.7513, 40, 0, 4130.769, 4350.256, 4169.744, 4180.513, 4108.205, 0, 0, []
1627801664.7591, 41, 0, 4133.333, 4373.333, 4163.077, 4179.487, 4108.205, 0, 0, []
1627801664.767, 42, 0, 4143.59, 4392.821, 4182.564, 4195.385, 4125.641, 0, 0, []
1627801664.7748, 43, 0, 4145.128, 4383.59, 4175.385, 4203.077, 4128.718, 0, 0, []
1627801664.7827, 44, 0, 4140.513, 4376.923, 4167.692, 4189.744, 4120.513, 0, 0, []
1627801664.7904, 45, 0, 4141.026, 4396.923, 4178.974, 4191.795, 4123.077, 0, 0, []
1627801664.7983, 46, 0, 4136.41, 4408.718, 4162.051, 4198.974, 4121.538, 0, 0, []
1627801664.8061, 47, 0, 4129.231, 4391.282, 4155.897, 4185.641, 4112.308, 0, 0, []
1627801664.814, 48, 0, 4140.513, 4403.077, 4171.282, 4186.154, 4118.974, 0, 0, []
1627801664.8218, 49, 0, 4157.436, 4429.744, 4182.051, 4204.615, 4129.231, 0, 0, []
1627801664.8297, 50, 0, 4154.359, 4416.41, 4178.462, 4204.615, 4124.615, 0, 0, []
1627801664.8376, 51, 0, 4151.282, 4408.718, 4172.308, 4197.949, 4126.154, 0, 0, []
1627801664.8456, 52, 0, 4150.769, 4433.846, 4177.949, 4195.897, 4128.205, 0, 0, []
1627801664.8535, 53, 0, 4141.538, 4436.41, 4160.513, 4188.205, 4113.846, 0, 0, []
1627801664.8615, 54, 0, 4132.308, 4407.692, 4156.923, 4182.051, 4104.615, 0, 0, []
1627801664.8693, 55, 0, 4136.41, 4418.974, 4184.615, 4183.077, 4107.692, 0, 0, []
1627801664.8773, 56, 0, 4151.795, 4463.077, 4187.179, 4189.744, 4111.795, 0, 0, []
1627801664.8852, 57, 0, 4150.769, 4449.744, 4180.513, 4191.282, 4107.179, 0, 0, []
1627801664.8932, 58, 0, 4133.846, 4410.256, 4166.154, 4180.513, 4097.949, 0, 0, []
1627801664.9011, 59, 0, 4138.974, 4424.615, 4170.256, 4178.974, 4101.026, 0, 0, []
1627801664.9088, 60, 0, 4154.359, 4444.615, 4188.205, 4189.231, 4111.282, 0, 0, []
1627801664.9167, 61, 0, 4149.744, 4436.41, 4169.231, 4189.231, 4113.333, 0, 0, []
1627801664.9245, 62, 0, 4147.179, 4431.282, 4164.615, 4189.231, 4115.897, 0, 0, []
1627801664.9324, 63, 0, 4156.923, 4430.769, 4173.333, 4189.744, 4124.103, 0, 0, []
1627801664.9402, 64, 0, 4151.795, 4437.949, 4166.667, 4178.462, 4122.051, 450, 0, []
1627801664.948, 65, 0, 4147.179, 4443.077, 4165.641, 4173.846, 4116.923, 450, 0, []
1627801664.9558, 66, 0, 4156.923, 4424.103, 4153.333, 4183.59, 4121.538, 16182, 0, []
1627801664.9637, 67, 0, 4162.564, 4419.487, 4159.487, 4186.154, 4122.051, 450, 0, []
1627801664.9715, 68, 0, 4162.564, 4439.487, 4176.41, 4181.026, 4119.487, 16154, 0, []
1627801664.9794, 69, 0, 4164.615, 4426.667, 4174.872, 4187.692, 4126.667, 450, 0, []
1627801664.9871, 70, 0, 4171.795, 4412.308, 4184.103, 4201.538, 4138.462, 255, 0, []
1627801664.9951, 71, 0, 4175.897, 4424.103, 4186.154, 4205.641, 4142.051, 450, 0, []
1627801665.003, 72, 0, 4172.821, 4427.179, 4186.667, 4201.026, 4139.487, 450, 0, []
1627801665.011, 73, 0, 4168.205, 4432.821, 4182.564, 4199.487, 4138.974, 16158, 0, []
1627801665.0189, 74, 0, 4170.769, 4439.487, 4169.231, 4202.564, 4135.385, 450, 0, []
1627801665.0268, 75, 0, 4174.872, 4433.333, 4177.436, 4202.564, 4124.615, 16195, 0, []
1627801665.0347, 76, 0, 4167.179, 4431.282, 4175.897, 4201.026, 4124.103, 450, 0, []
1627801665.0427, 77, 0, 4160, 4450.769, 4172.308, 4195.385, 4133.333, 450, 0, []
1627801665.0506, 78, 0, 4169.744, 4464.615, 4175.897, 4190.256, 4136.923, 450, 0, []
1627801665.0586, 79, 0, 4188.718, 4455.385, 4178.974, 4194.872, 4147.692, 16195, 0, []
1627801665.0665, 80, 0, 4184.103, 4451.795, 4192.308, 4204.103, 4151.282, 450, 0, []
1627801665.0742, 81, 0, 4160, 4464.615, 4176.923, 4199.487, 4134.359, 450, 0, []
1627801665.0821, 82, 0, 4157.436, 4487.179, 4167.179, 4187.692, 4130.769, 450, 0, []
1627801665.0899, 83, 0, 4167.692, 4494.359, 4178.462, 4189.744, 4146.667, 16195, 0, []
1627801665.0978, 84, 0, 4170.256, 4492.821, 4175.897, 4195.897, 4153.333, 450, 0, []
1627801665.1056, 85, 0, 4180, 4517.436, 4190.256, 4200.513, 4154.359, 450, 0, []
1627801665.1134, 86, 0, 4185.128, 4539.487, 4190.256, 4202.564, 4158.974, 450, 0, []
1627801665.1212, 87, 0, 4171.795, 4507.692, 4178.974, 4192.308, 4154.359, 16195, 0, []
1627801665.1292, 88, 0, 4166.154, 4476.41, 4185.128, 4183.59, 4152.308, 450, 0, []
1627801665.1371, 89, 0, 4171.282, 4513.846, 4177.436, 4185.641, 4154.359, 450, 0, []
1627801665.1451, 90, 0, 4170.256, 4538.974, 4181.538, 4186.667, 4152.821, 450, 0, []
1627801665.1529, 91, 0, 4166.667, 4508.718, 4181.538, 4181.538, 4147.179, 16195, 0, []
1627801665.1609, 92, 0, 4171.795, 4506.154, 4172.308, 4183.077, 4143.077, 450, 0, []
1627801665.1688, 93, 0, 4175.897, 4528.718, 4177.949, 4194.359, 4143.59, 450, 0, []
1627801665.1768, 94, 0, 4172.308, 4513.333, 4175.897, 4193.333, 4140.513, 450, 0, []
1627801665.1847, 95, 0, 4174.359, 4494.872, 4181.026, 4186.667, 4138.462, 16195, 0, []
1627801665.1926, 96, 0, 4181.538, 4509.231, 4175.897, 4195.385, 4148.205, 450, 0, []
1627801665.2005, 97, 0, 4182.051, 4511.282, 4169.231, 4199.487, 4153.846, 450, 0, []
1627801665.2085, 98, 0, 4177.949, 4501.538, 4189.231, 4194.359, 4152.821, 450, 0, []
1627801665.2164, 99, 0, 4190.256, 4512.308, 4188.718, 4204.615, 4162.564, 16195, 0, []
1627801665.2242, 100, 0, 4201.026, 4521.026, 4187.179, 4213.333, 4171.282, 450, 0, []
1627801665.232, 101, 0, 4201.538, 4528.718, 4190.256, 4204.103, 4168.205, 450, 0, []
1627801665.2398, 102, 0, 4203.59, 4527.692, 4178.974, 4198.462, 4167.179, 450, 0, []
1627801665.2477, 103, 0, 4196.923, 4499.487, 4179.487, 4197.949, 4166.667, 16195, 0, []
1627801665.2555, 104, 0, 4193.846, 4482.051, 4181.026, 4194.872, 4167.179, 450, 0, []
1627801665.2634, 105, 0, 4202.051, 4509.744, 4190.769, 4203.59, 4175.897, 450, 0, []
1627801665.2711, 106, 0, 4201.026, 4520, 4187.179, 4206.154, 4179.487, 450, 0, []
1627801665.279, 107, 0, 4193.846, 4468.718, 4165.128, 4187.179, 4165.128, 16195, 0, []
1627801665.2868, 108, 0, 4191.282, 4445.641, 4162.051, 4177.436, 4151.282, 450, 0, []
1627801665.2948, 109, 0, 4189.744, 4482.051, 4153.333, 4185.128, 4153.333, 450, 0, []
1627801665.3027, 110, 0, 4183.59, 4482.564, 4155.897, 4184.615, 4157.949, 450, 0, []
1627801665.3106, 111, 0, 4183.077, 4440.513, 4163.077, 4174.872, 4151.282, 16195, 0, []
1627801665.3185, 112, 0, 4189.231, 4432.821, 4147.179, 4179.487, 4155.385, 450, 0, []
1627801665.3265, 113, 0, 4197.436, 4451.282, 4154.359, 4190.769, 4170.256, 450, 0, []
1627801665.3344, 114, 0, 4203.59, 4452.308, 4165.641, 4188.205, 4172.821, 450, 0, []
1627801665.3424, 115, 0, 4203.077, 4458.462, 4169.744, 4185.641, 4170.256, 16195, 0, []
1627801665.3502, 116, 0, 4197.436, 4462.051, 4175.897, 4190.769, 4171.795, 450, 0, []
1627801665.3582, 117, 0, 4201.538, 4442.051, 4167.692, 4191.282, 4175.385, 450, 0, []
1627801665.3661, 118, 0, 4219.487, 4427.179, 4172.821, 4192.308, 4187.692, 450, 0, []
1627801665.3739, 119, 0, 4229.744, 4425.128, 4170.769, 4194.359, 4195.385, 16195, 0, []
1627801665.3818, 120, 0, 4237.949, 4430.769, 4167.179, 4191.795, 4203.59, 450, 0, []
1627801665.3895, 121, 0, 4274.359, 4428.205, 4177.436, 4193.846, 4235.897, 450, 0, []
1627801665.3974, 122, 0, 4331.282, 4407.179, 4173.333, 4194.359, 4285.641, 450, 0, []
1627801665.4052, 123, 0, 4394.872, 4409.744, 4183.077, 4192.821, 4340.513, 16195, 0, []
1627801665.4131, 124, 0, 4457.436, 4430.769, 4189.744, 4196.923, 4398.974, 450, 0, []
1627801665.4209, 125, 0, 4501.538, 4415.897, 4187.692, 4203.077, 4443.59, 450, 0, []
1627801665.4287, 126, 0, 4521.538, 4390.769, 4196.41, 4208.205, 4465.641, 450, 0, []
1627801665.4365, 127, 0, 4522.564, 4404.615, 4182.564, 4209.744, 4476.923, 16195, 0, []
1627801665.4444, 128, 0, 4507.179, 4420.513, 4183.077, 4206.667, 4470.256, 450, 0, []
1627801665.4522, 0, 0, 4476.41, 4405.641, 4187.692, 4198.462, 4442.051, 450, 0, []
1627801665.4602, 1, 0, 4448.205, 4390.769, 4181.538, 4201.026, 4414.872, 450, 0, []
1627801665.468, 2, 0, 4432.308, 4382.564, 4189.744, 4207.692, 4400, 16184, 0, []
1627801665.476, 3, 0, 4408.205, 4367.692, 4177.949, 4200.513, 4376.41, 450, 0, []
1627801665.4839, 4, 0, 4375.897, 4363.077, 4176.41, 4195.385, 4347.692, 16154, 0, []
1627801665.4918, 5, 0, 4357.436, 4367.692, 4189.231, 4208.205, 4337.436, 450, 0, []
1627801665.4998, 6, 0, 4344.103, 4357.436, 4183.59, 4214.872, 4326.667, 261, 0, []
1627801665.5077, 7, 0, 4321.026, 4335.385, 4177.436, 4201.538, 4297.949, 450, 0, []
1627801665.5156, 8, 0, 4304.615, 4344.615, 4174.359, 4194.359, 4280.513, 450, 0, []
1627801665.5234, 9, 0, 4299.487, 4371.795, 4195.897, 4202.564, 4281.026, 16158, 0, []
1627801665.5313, 10, 0, 4294.359, 4361.026, 4206.667, 4209.231, 4273.333, 450, 0, []
1627801665.5391, 11, 0, 4285.128, 4328.718, 4181.538, 4207.179, 4254.359, 16163, 0, []
1627801665.5469, 12, 0, 4261.026, 4331.282, 4176.923, 4199.487, 4235.897, 450, 0, []
1627801665.5547, 13, 0, 4237.949, 4359.487, 4180.513, 4194.872, 4224.103, 450, 0, []
1627801665.5626, 14, 0, 4238.974, 4356.923, 4185.128, 4204.103, 4221.026, 450, 0, []
1627801665.5704, 15, 0, 4240, 4329.744, 4188.205, 4212.821, 4221.026, 16163, 0, []
1627801665.5783, 16, 0, 4231.795, 4319.487, 4179.487, 4206.667, 4215.385, 0, 0, []
1627801665.586, 17, 0, 4228.205, 4336.923, 4182.564, 4198.462, 4206.154, 0, 0, []
1627801665.594, 18, 0, 4220, 4353.846, 4169.744, 4200, 4197.949, 0, 0, []
1627801665.6019, 19, 0, 4204.615, 4331.795, 4156.923, 4196.923, 4185.641, 0, 0, []
1627801665.6099, 20, 0, 4193.846, 4303.59, 4167.692, 4189.744, 4169.744, 0, 0, []
1627801665.6178, 21, 0, 4189.744, 4313.333, 4168.718, 4190.256, 4161.026, 0, 0, []
1627801665.6257, 22, 0, 4187.179, 4314.872, 4173.333, 4190.769, 4162.564, 0, 0, []
1627801665.6336, 23, 0, 4198.974, 4292.821, 4177.436, 4193.333, 4174.872, 0, 0, []
1627801665.6416, 24, 0, 4218.462, 4298.974, 4184.103, 4205.128, 4191.282, 0, 0, []
1627801665.6495, 25, 0, 4215.897, 4312.821, 4187.179, 4209.231, 4186.667, 0, 0, []
1627801665.6575, 26, 0, 4200.513, 4313.846, 4168.205, 4198.974, 4170.256, 0, 0, []
1627801665.6653, 27, 0, 4195.385, 4333.846, 4179.487, 4192.308, 4169.744, 0, 0, []
1627801665.6733, 28, 0, 4194.359, 4345.128, 4194.872, 4193.846, 4174.359, 0, 0, []
1627801665.6812, 29, 0, 4186.154, 4317.949, 4188.205, 4194.872, 4171.282, 0, 0, []
1627801665.689, 30, 0, 4186.154, 4298.462, 4189.231, 4194.872, 4170.769, 0, 0, []
1627801665.6969, 31, 0, 4199.487, 4312.308, 4180.513, 4204.103, 4181.538, 0, 0, []
1627801665.7046, 32, 0, 4204.615, 4324.103, 4190.256, 4218.462, 4191.282, 0, 0, []
1627801665.7125, 33, 0, 4192.308, 4302.051, 4200.513, 4214.359, 4180.513, 0, 0, []
1627801665.7203, 34, 0, 4175.385, 4267.692, 4181.538, 4190.256, 4157.949, 0, 0, []
1627801665.7282, 35, 0, 4162.564, 4259.487, 4172.821, 4168.205, 4143.077, 0, 0, []
1627801665.736, 36, 0, 4160.513, 4274.359, 4174.359, 4170.256, 4150.769, 0, 0, []
1627801665.7438, 37, 0, 4174.872, 4285.128, 4190.769, 4195.385, 4170.256, 0, 0, []
1627801665.7516, 38, 0, 4181.026, 4286.667, 4187.692, 4204.103, 4169.231, 0, 0, []
1627801665.7596, 39, 0, 4168.718, 4289.231, 4166.154, 4181.026, 4150.769, 0, 0, []
1627801665.7675, 40, 0, 4167.179, 4286.154, 4184.615, 4168.718, 4152.308, 0, 0, []
1627801665.7755, 41, 0, 4184.103, 4271.795, 4196.923, 4187.179, 4173.846, 0, 0, []
1627801665.7833, 42, 0, 4202.564, 4275.897, 4201.026, 4212.821, 4196.41, 0, 0, []
1627801665.7913, 43, 0, 4221.538, 4304.615, 4216.41, 4230.769, 4220, 0, 0, []
1627801665.7992, 44, 0, 4224.103, 4298.974, 4211.282, 4239.487, 4224.615, 0, 0, []
1627801665.8072, 45, 0, 4201.538, 4263.077, 4196.41, 4235.897, 4202.051, 0, 0, []
1627801665.8151, 46, 0, 4187.179, 4268.205, 4173.846, 4216.41, 4183.077, 0, 0, []
1627801665.8231, 47, 0, 4181.538, 4303.077, 4163.077, 4189.744, 4174.359, 0, 0, []
1627801665.8309, 48, 0, 4168.718, 4304.615, 4162.051, 4170.769, 4166.154, 0, 0, []
1627801665.8389, 49, 0, 4165.641, 4268.205, 4157.949, 4165.128, 4165.128, 0, 0, []
1627801665.8468, 50, 0, 4175.897, 4263.59, 4178.462, 4165.641, 4172.821, 0, 0, []
1627801665.8546, 51, 0, 4183.077, 4290.769, 4183.59, 4172.308, 4180, 0, 0, []
1627801665.8625, 52, 0, 4193.846, 4296.41, 4181.026, 4191.795, 4185.128, 0, 0, []
1627801665.8702, 53, 0, 4199.487, 4290.769, 4194.872, 4213.333, 4188.205, 0, 0, []
1627801665.8781, 54, 0, 4190.256, 4282.564, 4189.744, 4218.462, 4185.641, 0, 0, []
1627801665.8859, 55, 0, 4187.692, 4267.179, 4192.821, 4207.692, 4181.538, 0, 0, []
1627801665.8938, 56, 0, 4198.974, 4269.744, 4204.103, 4198.974, 4188.718, 0, 0, []
1627801665.9016, 57, 0, 4215.385, 4279.487, 4204.615, 4201.538, 4207.692, 0, 0, []
1627801665.9094, 58, 0, 4216.923, 4269.744, 4201.026, 4202.564, 4216.41, 0, 0, []
1627801665.9172, 59, 0, 4195.385, 4289.231, 4187.179, 4194.872, 4201.538, 0, 0, []
1627801665.9252, 60, 0, 4176.923, 4324.615, 4198.462, 4201.538, 4185.641, 0, 0, []
1627801665.9331, 61, 0, 4178.462, 4296.41, 4206.154, 4223.077, 4181.026, 0, 0, []
1627801665.9411, 62, 0, 4178.462, 4268.205, 4190.769, 4222.051, 4173.333, 0, 0, []
1627801665.9489, 63, 0, 4173.846, 4304.103, 4194.359, 4205.128, 4171.795, 0, 0, []
1627801665.9569, 64, 0, 4184.103, 4329.231, 4198.462, 4206.154, 4184.615, 450, 0, []
1627801665.9648, 65, 0, 4196.41, 4314.872, 4210.256, 4218.462, 4198.974, 450, 0, []
1627801665.9728, 66, 0, 4200.513, 4317.949, 4215.897, 4223.077, 4207.179, 16187, 0, []
1627801665.9807, 67, 0, 4207.179, 4329.231, 4201.538, 4225.641, 4215.385, 450, 0, []
1627801665.9886, 68, 0, 4214.359, 4300.513, 4203.077, 4228.205, 4218.974, 16154, 0, []
1627801665.9965, 69, 0, 4205.641, 4283.077, 4191.282, 4221.026, 4205.641, 450, 0, []
1627801666.0043, 70, 0, 4186.667, 4307.692, 4178.462, 4205.128, 4183.077, 256, 0, []
1627801666.0122, 71, 0, 4181.538, 4315.385, 4180.513, 4189.231, 4164.103, 450, 0, []
1627801666.02, 72, 0, 4185.128, 4316.41, 4177.949, 4177.436, 4152.308, 450, 0, []
1627801666.0278, 73, 0, 4184.103, 4330.256, 4188.205, 4172.821, 4151.795, 16158, 0, []
1627801666.0356, 74, 0, 4182.564, 4317.436, 4181.026, 4164.103, 4158.462, 450, 0, []
1627801666.0435, 75, 0, 4172.821, 4291.282, 4163.077, 4148.205, 4148.205, 16186, 0, []
1627801666.0513, 76, 0, 4162.051, 4302.051, 4168.718, 4154.872, 4133.846, 450, 0, []
1627801666.0592, 77, 0, 4167.692, 4318.462, 4175.897, 4177.436, 4141.026, 450, 0, []
1627801666.0669, 78, 0, 4168.205, 4307.179, 4176.923, 4174.872, 4141.538, 450, 0, []
1627801666.0749, 79, 0, 4165.128, 4301.026, 4163.59, 4170.769, 4137.436, 16186, 0, []
1627801666.0828, 80, 0, 4179.487, 4300, 4171.795, 4195.385, 4153.846, 450, 0, []
1627801666.0908, 81, 0, 4190.256, 4304.615, 4189.744, 4204.103, 4166.154, 450, 0, []
1627801666.0987, 82, 0, 4192.821, 4316.41, 4177.436, 4191.282, 4170.769, 450, 0, []
1627801666.1066, 83, 0, 4208.205, 4317.436, 4186.667, 4204.103, 4193.333, 16186, 0, []
1627801666.1145, 84, 0, 4216.41, 4311.282, 4197.949, 4221.538, 4204.615, 450, 0, []
1627801666.1225, 85, 0, 4206.667, 4304.615, 4193.846, 4215.897, 4191.795, 450, 0, []
1627801666.1304, 86, 0, 4195.897, 4289.744, 4197.949, 4208.718, 4178.974, 450, 0, []
1627801666.1384, 87, 0, 4189.744, 4293.333, 4180, 4207.179, 4170.769, 16186, 0, []
1627801666.1462, 88, 0, 4187.692, 4308.718, 4172.308, 4202.564, 4164.615, 450, 0, []
1627801666.154, 89, 0, 4192.308, 4296.41, 4177.436, 4198.462, 4170.256, 450, 0, []
1627801666.1619, 90, 0, 4196.923, 4284.615, 4182.564, 4201.538, 4178.974, 450, 0, []
1627801666.1697, 91, 0, 4194.359, 4283.59, 4188.205, 4201.538, 4172.821, 16186, 0, []
1627801666.1776, 92, 0, 4185.128, 4266.154, 4173.846, 4187.692, 4166.667, 450, 0, []
1627801666.1853, 93, 0, 4187.179, 4259.487, 4178.462, 4180, 4174.359, 450, 0, []
1627801666.1932, 94, 0, 4203.077, 4288.205, 4189.231, 4191.282, 4181.026, 450, 0, []
1627801666.201, 95, 0, 4201.026, 4307.179, 4184.103, 4205.128, 4174.872, 16186, 0, []
1627801666.2089, 96, 0, 4184.103, 4275.897, 4187.179, 4200.513, 4164.103, 450, 0, []
1627801666.2167, 97, 0, 4177.436, 4245.128, 4168.718, 4189.231, 4154.872, 450, 0, []
1627801666.2245, 98, 0, 4172.821, 4266.667, 4159.487, 4182.564, 4151.795, 450, 0, []
1627801666.2323, 99, 0, 4163.59, 4282.564, 4167.179, 4174.872, 4152.308, 16186, 0, []
1627801666.2403, 100, 0, 4164.615, 4244.103, 4177.436, 4175.385, 4150.256, 450, 0, []
1627801666.2482, 101, 0, 4179.487, 4246.154, 4199.487, 4194.359, 4155.385, 450, 0, []
1627801666.2562, 102, 0, 4190.256, 4286.667, 4189.744, 4209.744, 4172.308, 450, 0, []
1627801666.264, 103, 0, 4185.128, 4271.282, 4174.872, 4203.59, 4169.744, 16186, 0, []
1627801666.272, 104, 0, 4178.974, 4253.846, 4178.462, 4200.513, 4154.359, 450, 0, []
1627801666.2799, 105, 0, 4183.077, 4274.359, 4176.923, 4201.538, 4162.051, 450, 0, []
1627801666.2879, 106, 0, 4185.128, 4270.256, 4190.769, 4193.846, 4168.205, 450, 0, []
1627801666.2958, 107, 0, 4182.051, 4249.744, 4187.692, 4189.231, 4154.359, 16186, 0, []
1627801666.3037, 108, 0, 4184.615, 4264.103, 4177.436, 4188.205, 4156.41, 450, 0, []
1627801666.3116, 109, 0, 4192.308, 4276.923, 4185.128, 4188.205, 4170.769, 450, 0, []
1627801666.3194, 110, 0, 4203.59, 4267.179, 4185.128, 4190.256, 4171.282, 450, 0, []
1627801666.3273, 111, 0, 4208.205, 4265.128, 4186.154, 4196.41, 4173.846, 16186, 0, []
1627801666.3351, 112, 0, 4204.615, 4256.923, 4177.436, 4196.923, 4188.718, 450, 0, []
1627801666.3429, 113, 0, 4202.564, 4234.359, 4178.462, 4189.744, 4185.128, 450, 0, []
1627801666.3507, 114, 0, 4197.949, 4233.333, 4189.744, 4186.667, 4170.769, 450, 0, []
1627801666.3586, 115, 0, 4189.231, 4254.872, 4176.923, 4185.641, 4170.256, 16186, 0, []
1627801666.3664, 116, 0, 4181.026, 4241.538, 4174.359, 4178.974, 4169.231, 450, 0, []
1627801666.3743, 117, 0, 4171.795, 4221.538, 4168.205, 4167.692, 4158.974, 450, 0, []
1627801666.382, 118, 0, 4167.179, 4241.538, 4158.974, 4166.667, 4157.949, 450, 0, []
1627801666.39, 119, 0, 4169.231, 4258.462, 4165.128, 4180, 4167.692, 16186, 0, []
1627801666.3979, 120, 0, 4169.744, 4243.077, 4161.538, 4189.744, 4167.692, 450, 0, []
1627801666.4059, 121, 0, 4170.769, 4231.282, 4174.872, 4191.282, 4165.128, 450, 0, []
1627801666.4138, 122, 0, 4174.872, 4243.077, 4180, 4189.231, 4170.256, 450, 0, []
1627801666.4217, 123, 0, 4173.333, 4247.179, 4164.103, 4183.077, 4162.564, 16186, 0, []
1627801666.4296, 124, 0, 4160.513, 4233.846, 4161.538, 4171.795, 4147.179, 450, 0, []
1627801666.4376, 125, 0, 4155.385, 4217.436, 4152.821, 4163.59, 4148.205, 450, 0, []
1627801666.4455, 126, 0, 4170.256, 4201.538, 4165.641, 4166.667, 4155.385, 450, 0, []
1627801666.4535, 127, 0, 4181.538, 4203.59, 4180.513, 4177.949, 4152.821, 16186, 0, []
1627801666.4613, 128, 0, 4180.513, 4226.667, 4168.718, 4187.692, 4155.385, 450, 0, []
1627801666.4691, 0, 0, 4184.103, 4226.667, 4166.667, 4195.385, 4167.692, 450, 0, []
1627801666.477, 1, 0, 4186.154, 4204.615, 4160, 4199.487, 4171.795, 450, 0, []
1627801666.4848, 2, 0, 4181.538, 4225.641, 4156.923, 4195.897, 4163.077, 16185, 0, []
1627801666.4927, 3, 0, 4189.744, 4241.026, 4164.615, 4185.128, 4166.154, 450, 0, []
1627801666.5004, 4, 0, 4194.872, 4199.487, 4167.692, 4175.385, 4175.897, 16154, 0, []
1627801666.5083, 5, 0, 4189.744, 4182.564, 4175.897, 4174.872, 4174.872, 450, 0, []
1627801666.5161, 6, 0, 4234.872, 4202.051, 4168.718, 4183.59, 4205.641, 257, 0, []
1627801666.524, 7, 0, 4340.513, 4204.103, 4170.256, 4195.385, 4294.359, 450, 0, []
1627801666.5318, 8, 0, 4448.205, 4205.641, 4183.59, 4205.128, 4394.872, 450, 0, []
1627801666.5398, 9, 0, 4531.795, 4222.051, 4177.436, 4210.769, 4471.795, 16158, 0, []
1627801666.5476, 10, 0, 4585.128, 4224.103, 4181.026, 4204.103, 4523.077, 450, 0, []
1627801666.5556, 11, 0, 4602.564, 4215.897, 4181.538, 4194.359, 4545.128, 16188, 0, []
1627801666.5635, 12, 0, 4601.026, 4218.462, 4186.667, 4206.154, 4548.718, 450, 0, []
1627801666.5715, 13, 0, 4583.59, 4213.333, 4198.462, 4219.487, 4540.513, 450, 0, []
1627801666.5794, 14, 0, 4544.615, 4215.897, 4185.641, 4217.436, 4513.333, 450, 0, []
1627801666.5873, 15, 0, 4505.128, 4228.718, 4188.718, 4216.923, 4478.974, 16188, 0, []
1627801666.5952, 16, 0, 4480, 4223.077, 4199.487, 4220, 4452.821, 0, 0, []
1627801666.6032, 17, 0, 4454.872, 4203.59, 4199.487, 4218.462, 4429.744, 0, 0, []
1627801666.6111, 18, 0, 4413.846, 4196.41, 4188.718, 4208.205, 4393.333, 0, 0, []
1627801666.619, 19, 0, 4370.256, 4213.333, 4169.744, 4191.795, 4348.205, 0, 0, []
1627801666.6268, 20, 0, 4338.974, 4220, 4185.128, 4182.051, 4318.974, 0, 0, []
1627801666.6346, 21, 0, 4310.256, 4195.385, 4186.154, 4180, 4303.59, 0, 0, []
1627801666.6425, 22, 0, 4294.359, 4187.692, 4170.769, 4180.513, 4285.128, 0, 0, []
1627801666.6503, 23, 0, 4301.538, 4216.923, 4187.179, 4194.359, 4272.821, 0, 0, []
1627801666.6582, 24, 0, 4306.667, 4220.513, 4193.333, 4209.744, 4276.923, 0, 0, []
1627801666.6659, 25, 0, 4301.538, 4181.026, 4197.436, 4209.231, 4281.538, 0, 0, []
1627801666.6739, 26, 0, 4294.872, 4170.256, 4196.41, 4205.128, 4269.231, 0, 0, []
1627801666.6818, 27, 0, 4280.513, 4200.513, 4182.564, 4199.487, 4247.692, 0, 0, []
1627801666.6897, 28, 0, 4263.59, 4207.692, 4185.128, 4189.231, 4231.282, 0, 0, []
1627801666.6975, 29, 0, 4249.744, 4181.026, 4176.41, 4183.59, 4216.41, 0, 0, []
1627801666.7054, 30, 0, 4234.359, 4182.564, 4166.667, 4185.128, 4199.487, 0, 0, []
1627801666.7133, 31, 0, 4225.128, 4209.744, 4165.641, 4191.795, 4194.872, 0, 0, []
1627801666.7213, 32, 0, 4233.333, 4198.974, 4171.795, 4199.487, 4204.615, 0, 0, []
1627801666.7292, 33, 0, 4241.026, 4192.308, 4196.41, 4194.872, 4211.282, 0, 0, []
1627801666.7372, 34, 0, 4237.436, 4223.077, 4196.41, 4183.077, 4214.359, 0, 0, []
1627801666.745, 35, 0, 4232.821, 4213.333, 4192.821, 4182.564, 4213.846, 0, 0, []
1627801666.753, 36, 0, 4230.769, 4180.513, 4195.385, 4187.692, 4206.667, 0, 0, []
1627801666.7609, 37, 0, 4222.051, 4207.692, 4183.59, 4188.718, 4196.923, 0, 0, []
1627801666.7689, 38, 0, 4212.308, 4226.154, 4185.641, 4187.179, 4184.615, 0, 0, []
1627801666.7768, 39, 0, 4215.385, 4193.846, 4188.205, 4189.744, 4183.077, 0, 0, []
1627801666.7845, 40, 0, 4220.513, 4184.615, 4195.897, 4195.897, 4195.897, 0, 0, []
1627801666.7924, 41, 0, 4214.359, 4200, 4199.487, 4198.974, 4198.974, 0, 0, []
1627801666.8002, 42, 0, 4213.846, 4203.077, 4185.128, 4200, 4186.154, 0, 0, []
1627801666.8081, 43, 0, 4216.923, 4205.128, 4191.282, 4204.615, 4182.564, 0, 0, []
1627801666.8159, 44, 0, 4208.205, 4207.179, 4185.128, 4203.59, 4187.692, 0, 0, []
1627801666.8237, 45, 0, 4196.923, 4213.333, 4174.872, 4197.949, 4185.128, 0, 0, []
1627801666.8315, 46, 0, 4209.231, 4232.308, 4191.282, 4208.718, 4189.231, 0, 0, []
1627801666.8394, 47, 0, 4221.538, 4234.359, 4189.744, 4219.487, 4193.846, 0, 0, []
1627801666.8472, 48, 0, 4207.179, 4218.462, 4185.641, 4209.231, 4180.513, 0, 0, []
1627801666.8552, 49, 0, 4199.487, 4232.308, 4187.179, 4195.385, 4173.333, 0, 0, []
1627801666.863, 50, 0, 4203.59, 4262.051, 4190.769, 4200, 4182.564, 0, 0, []
1627801666.871, 51, 0, 4204.103, 4271.795, 4208.205, 4214.359, 4187.179, 0, 0, []
1627801666.8789, 52, 0, 4207.179, 4264.615, 4206.667, 4222.051, 4186.154, 0, 0, []
1627801666.8869, 53, 0, 4208.205, 4258.974, 4201.026, 4216.923, 4184.103, 0, 0, []
1627801666.8948, 54, 0, 4201.026, 4253.846, 4196.41, 4198.974, 4175.897, 0, 0, []
1627801666.9027, 55, 0, 4196.41, 4237.436, 4187.179, 4187.179, 4170.769, 0, 0, []
1627801666.9106, 56, 0, 4185.128, 4221.538, 4181.026, 4187.179, 4165.128, 0, 0, []
1627801666.9186, 57, 0, 4165.641, 4234.872, 4166.154, 4185.128, 4153.846, 0, 0, []
1627801666.9265, 58, 0, 4165.641, 4247.692, 4172.308, 4183.077, 4147.692, 0, 0, []
1627801666.9343, 59, 0, 4164.615, 4232.821, 4172.821, 4181.026, 4143.077, 0, 0, []
1627801666.9421, 60, 0, 4150.256, 4235.897, 4160, 4173.846, 4133.846, 0, 0, []
1627801666.9499, 61, 0, 4153.846, 4262.564, 4166.154, 4167.179, 4135.385, 0, 0, []
1627801666.9578, 62, 0, 4170.769, 4252.308, 4164.615, 4170.769, 4147.179, 0, 0, []
1627801666.9656, 63, 0, 4172.821, 4229.744, 4173.846, 4178.462, 4152.821, 0, 0, []
1627801666.9735, 64, 0, 4165.128, 4252.821, 4183.59, 4181.538, 4151.795, 450, 0, []
1627801666.9812, 65, 0, 4168.718, 4272.821, 4173.846, 4177.949, 4152.308, 450, 0, []
1627801666.9892, 66, 0, 4176.923, 4262.564, 4182.051, 4180.513, 4153.846, 16184, 0, []
1627801666.9971, 67, 0, 4183.077, 4262.564, 4186.154, 4192.821, 4153.846, 450, 0, []
1627801667.0051, 68, 0, 4185.641, 4259.487, 4189.231, 4197.436, 4160.513, 16155, 0, []
1627801667.013, 69, 0, 4180, 4243.59, 4185.128, 4190.769, 4171.282, 450, 0, []
1627801667.0209, 70, 0, 4170.769, 4248.718, 4157.436, 4187.692, 4165.641, 257, 0, []
1627801667.0288, 71, 0, 4164.103, 4267.692, 4159.487, 4182.051, 4152.308, 450, 0, []
1627801667.0368, 72, 0, 4174.359, 4262.564, 4169.744, 4171.282, 4158.974, 450, 0, []
1627801667.0447, 73, 0, 4183.077, 4238.462, 4167.179, 4171.795, 4172.821, 16158, 0, []
1627801667.0527, 74, 0, 4160.513, 4220.513, 4167.179, 4183.59, 4155.897, 450, 0, []
1627801667.0605, 75, 0, 4151.282, 4240, 4162.564, 4196.41, 4137.949, 16193, 0, []
1627801667.0685, 76, 0, 4190.256, 4264.615, 4174.359, 4200.513, 4155.897, 450, 0, []
1627801667.0764, 77, 0, 4227.692, 4252.821, 4167.179, 4186.154, 4181.538, 450, 0, []
1627801667.0842, 78, 0, 4242.564, 4246.154, 4151.795, 4166.154, 4186.667, 450, 0, []
1627801667.0921, 79, 0, 4271.795, 4264.103, 4169.231, 4165.128, 4194.359, 16193, 0, []
1627801667.0998, 80, 0, 4302.564, 4273.846, 4175.385, 4165.641, 4211.282, 450, 0, []
1627801667.1077, 81, 0, 4320, 4273.846, 4176.923, 4155.897, 4214.872, 450, 0, []
1627801667.1155, 82, 0, 4348.205, 4284.103, 4167.692, 4147.692, 4221.026, 450, 0, []
1627801667.1234, 83, 0, 4391.282, 4283.077, 4152.821, 4141.538, 4252.308, 16193, 0, []
1627801667.1312, 84, 0, 4444.103, 4265.128, 4157.949, 4134.872, 4290.769, 450, 0, []
1627801667.139, 85, 0, 4501.538, 4263.077, 4165.128, 4133.333, 4323.077, 450, 0, []
1627801667.1468, 86, 0, 4551.282, 4294.872, 4185.128, 4146.154, 4359.487, 450, 0, []
1627801667.1547, 87, 0, 4571.795, 4320, 4181.538, 4161.026, 4384.615, 16193, 0, []
1627801667.1625, 88, 0, 4551.795, 4284.103, 4164.615, 4160.513, 4374.359, 450, 0, []
1627801667.1705, 89, 0, 4506.667, 4254.872, 4172.308, 4151.282, 4343.59, 450, 0, []
1627801667.1783, 90, 0, 4474.359, 4281.026, 4168.205, 4152.308, 4319.487, 450, 0, []
1627801667.1863, 91, 0, 4447.179, 4289.231, 4172.308, 4157.436, 4298.462, 16193, 0, []
1627801667.1942, 92, 0, 4397.436, 4262.564, 4176.41, 4154.359, 4271.282, 450, 0, []
1627801667.2022, 93, 0, 4353.333, 4247.179, 4167.179, 4157.949, 4247.179, 450, 0, []
1627801667.2101, 94, 0, 4337.949, 4243.077, 4178.462, 4171.795, 4230.769, 450, 0, []
1627801667.218, 95, 0, 4324.103, 4243.59, 4178.974, 4175.897, 4219.487, 16193, 0, []
1627801667.2259, 96, 0, 4299.487, 4267.692, 4174.872, 4167.179, 4211.795, 450, 0, []
1627801667.2339, 97, 0, 4283.077, 4288.205, 4174.359, 4161.026, 4203.077, 450, 0, []
1627801667.2418, 98, 0, 4266.154, 4266.667, 4158.462, 4158.462, 4188.205, 450, 0, []
1627801667.2496, 99, 0, 4240, 4243.077, 4157.436, 4154.359, 4171.282, 16193, 0, []
1627801667.2574, 100, 0, 4222.051, 4245.128, 4158.462, 4151.282, 4158.462, 450, 0, []
1627801667.2652, 101, 0, 4209.744, 4242.564, 4162.564, 4149.744, 4142.564, 450, 0, []
1627801667.2731, 102, 0, 4203.077, 4238.974, 4181.538, 4155.897, 4135.897, 450, 0, []
1627801667.2809, 103, 0, 4204.103, 4250.256, 4182.051, 4159.487, 4134.872, 16193, 0, []
1627801667.2888, 104, 0, 4189.231, 4244.103, 4171.795, 4145.641, 4117.436, 450, 0, []
1627801667.2966, 105, 0, 4167.692, 4219.487, 4157.949, 4135.385, 4107.179, 450, 0, []
1627801667.3044, 106, 0, 4173.333, 4226.154, 4165.128, 4147.692, 4130.769, 450, 0, []
1627801667.3122, 107, 0, 4181.026, 4256.923, 4176.41, 4158.462, 4140.513, 16193, 0, []
1627801667.3202, 108, 0, 4162.564, 4264.615, 4158.462, 4150.256, 4115.385, 450, 0, []
1627801667.3281, 109, 0, 4152.821, 4260, 4164.103, 4146.154, 4109.744, 450, 0, []
1627801667.3361, 110, 0, 4151.795, 4244.103, 4163.59, 4150.256, 4122.051, 450, 0, []
1627801667.3439, 111, 0, 4142.564, 4224.103, 4154.359, 4149.744, 4118.462, 16193, 0, []
1627801667.3519, 112, 0, 4151.282, 4238.462, 4176.923, 4157.436, 4128.205, 450, 0, []
1627801667.3598, 113, 0, 4172.308, 4253.846, 4184.615, 4169.231, 4150.256, 450, 0, []
1627801667.3678, 114, 0, 4172.308, 4237.949, 4180, 4174.359, 4147.179, 450, 0, []
1627801667.3757, 115, 0, 4161.026, 4229.744, 4170.769, 4174.359, 4136.41, 16193, 0, []
1627801667.3836, 116, 0, 4150.256, 4250.769, 4163.59, 4161.026, 4135.385, 450, 0, []
1627801667.3915, 117, 0, 4135.897, 4251.795, 4172.821, 4144.615, 4124.103, 450, 0, []
1627801667.3993, 118, 0, 4133.846, 4237.436, 4166.667, 4154.872, 4116.41, 450, 0, []
1627801667.4072, 119, 0, 4141.538, 4248.205, 4162.564, 4172.821, 4125.128, 16193, 0, []
1627801667.415, 120, 0, 4135.897, 4261.538, 4158.462, 4161.026, 4118.462, 450, 0, []
1627801667.4228, 121, 0, 4131.795, 4249.744, 4155.385, 4148.205, 4108.205, 450, 0, []
1627801667.4306, 122, 0, 4130.769, 4230.769, 4167.692, 4153.333, 4116.41, 450, 0, []
1627801667.4385, 123, 0, 4123.59, 4242.051, 4160.513, 4150.769, 4117.436, 16193, 0, []
1627801667.4463, 124, 0, 4119.487, 4247.179, 4160, 4148.205, 4104.615, 450, 0, []
1627801667.4542, 125, 0, 4121.538, 4217.436, 4167.179, 4158.974, 4101.026, 450, 0, []
1627801667.4619, 126, 0, 4122.564, 4213.333, 4162.051, 4170.256, 4112.308, 450, 0, []
1627801667.4699, 127, 0, 4126.154, 4248.205, 4170.769, 4171.282, 4121.538, 16193, 0, []
1627801667.4778, 128, 0, 4129.231, 4254.872, 4160, 4165.641, 4119.487, 450, 0, []
1627801667.4858, 0, 0, 4114.359, 4211.282, 4151.282, 4161.538, 4103.077, 450, 0, []
1627801667.4937, 1, 0, 4094.359, 4194.359, 4166.154, 4158.462, 4087.692, 450, 0, []
1627801667.5016, 2, 0, 4094.872, 4232.308, 4168.205, 4152.308, 4092.308, 16186, 0, []
1627801667.5095, 3, 0, 4109.231, 4243.59, 4170.769, 4152.821, 4102.564, 450, 0, []
1627801667.5175, 4, 0, 4110.256, 4215.385, 4167.179, 4160.513, 4104.615, 16155, 0, []
1627801667.5254, 5, 0, 4095.897, 4219.487, 4163.59, 4157.436, 4095.897, 450, 0, []
1627801667.5332, 6, 0, 4086.667, 4231.795, 4166.154, 4152.308, 4092.821, 257, 0, []
1627801667.541, 7, 0, 4090.769, 4205.128, 4159.487, 4162.564, 4100.513, 450, 0, []
1627801667.5489, 8, 0, 4100, 4201.026, 4169.744, 4176.923, 4108.205, 450, 0, []
1627801667.5568, 9, 0, 4103.077, 4233.846, 4166.154, 4170.256, 4107.179, 16158, 0, []
1627801667.5646, 10, 0, 4102.051, 4232.821, 4160, 4151.282, 4098.974, 450, 0, []
1627801667.5725, 11, 0, 4106.667, 4213.846, 4175.897, 4153.333, 4100, 16193, 0, []
1627801667.5802, 12, 0, 4109.231, 4207.692, 4168.718, 4169.744, 4109.744, 450, 0, []
1627801667.5881, 13, 0, 4104.615, 4192.821, 4165.128, 4172.821, 4111.282, 450, 0, []
1627801667.5959, 14, 0, 4102.564, 4183.077, 4164.103, 4166.154, 4101.026, 450, 0, []
1627801667.6038, 15, 0, 4105.641, 4192.308, 4162.564, 4167.692, 4096.41, 16193, 0, []
1627801667.6116, 16, 0, 4115.385, 4211.795, 4176.923, 4177.949, 4105.641, 0, 0, []
1627801667.6194, 17, 0, 4125.128, 4228.718, 4174.359, 4181.538, 4110.769, 0, 0, []
1627801667.6272, 18, 0, 4123.59, 4219.487, 4170.256, 4175.897, 4106.667, 0, 0, []
1627801667.6352, 19, 0, 4117.949, 4195.897, 4167.179, 4167.179, 4108.205, 0, 0, []
1627801667.6431, 20, 0, 4124.615, 4220, 4166.667, 4167.692, 4120, 0, 0, []
1627801667.6511, 21, 0, 4121.538, 4244.615, 4171.795, 4176.923, 4120, 0, 0, []
1627801667.6589, 22, 0, 4106.667, 4203.59, 4155.897, 4183.59, 4111.795, 0, 0, []
1627801667.6669, 23, 0, 4107.179, 4189.231, 4165.641, 4184.615, 4110.256, 0, 0, []
1627801667.6748, 24, 0, 4111.282, 4217.949, 4186.667, 4181.026, 4102.564, 0, 0, []
1627801667.6828, 25, 0, 4112.821, 4209.744, 4178.974, 4181.026, 4098.462, 0, 0, []
1627801667.6907, 26, 0, 4120, 4194.359, 4175.385, 4184.615, 4115.385, 0, 0, []
1627801667.6986, 27, 0, 4118.974, 4211.795, 4165.128, 4186.154, 4125.128, 0, 0, []
1627801667.7065, 28, 0, 4107.692, 4216.41, 4160, 4182.564, 4110.769, 0, 0, []
1627801667.7143, 29, 0, 4108.205, 4204.615, 4171.795, 4175.385, 4104.615, 0, 0, []
1627801667.7222, 30, 0, 4124.103, 4221.026, 4178.974, 4178.462, 4120.513, 0, 0, []
1627801667.73, 31, 0, 4132.821, 4249.231, 4184.615, 4187.692, 4136.41, 0, 0, []
1627801667.7378, 32, 0, 4126.154, 4247.179, 4174.872, 4186.667, 4136.41, 0, 0, []
1627801667.7456, 33, 0, 4115.385, 4226.154, 4173.333, 4174.872, 4123.077, 0, 0, []
1627801667.7535, 34, 0, 4113.846, 4237.949, 4178.462, 4168.718, 4113.846, 0, 0, []
1627801667.7613, 35, 0, 4126.154, 4256.41, 4182.564, 4181.538, 4129.744, 0, 0, []
1627801667.7693, 36, 0, 4140.513, 4250.256, 4205.128, 4196.923, 4141.538, 0, 0, []
1627801667.7771, 37, 0, 4135.897, 4254.359, 4191.282, 4188.205, 4128.718, 0, 0, []
1627801667.7851, 38, 0, 4117.436, 4270.256, 4168.718, 4169.231, 4118.462, 0, 0, []
1627801667.793, 39, 0, 4110.256, 4265.641, 4173.846, 4171.282, 4120.513, 0, 0, []
1627801667.801, 40, 0, 4119.487, 4254.872, 4165.128, 4182.564, 4125.128, 0, 0, []
1627801667.8089, 41, 0, 4133.333, 4257.949, 4174.872, 4190.256, 4138.462, 0, 0, []
1627801667.8168, 42, 0, 4149.231, 4254.872, 4188.718, 4198.974, 4154.872, 0, 0, []
1627801667.8247, 43, 0, 4151.282, 4245.128, 4178.974, 4198.462, 4151.282, 0, 0, []
1627801667.8327, 44, 0, 4140.513, 4246.154, 4171.795, 4182.564, 4146.667, 0, 0, []
1627801667.8406, 45, 0, 4152.821, 4256.41, 4164.615, 4175.897, 4165.128, 0, 0, []
1627801667.8486, 46, 0, 4189.231, 4263.59, 4174.359, 4182.564, 4189.744, 0, 0, []
1627801667.8564, 47, 0, 4233.846, 4270.769, 4179.487, 4185.128, 4229.744, 0, 0, []
1627801667.8642, 48, 0, 4308.718, 4277.949, 4180.513, 4190.769, 4301.538, 0, 0, []
1627801667.8721, 49, 0, 4408.205, 4279.487, 4201.026, 4205.641, 4373.846, 0, 0, []
1627801667.8799, 50, 0, 4489.231, 4289.744, 4201.026, 4209.231, 4427.179, 0, 0, []
1627801667.8878, 51, 0, 4528.205, 4302.051, 4186.667, 4187.692, 4455.897, 0, 0, []
1627801667.8955, 52, 0, 4533.846, 4278.974, 4166.154, 4163.077, 4448.718, 0, 0, []
1627801667.9034, 53, 0, 4527.692, 4244.103, 4157.949, 4164.103, 4431.282, 0, 0, []
1627801667.9112, 54, 0, 4523.59, 4255.897, 4181.538, 4185.128, 4434.359, 0, 0, []
1627801667.9191, 55, 0, 4509.744, 4271.795, 4186.154, 4193.333, 4432.821, 0, 0, []
1627801667.9269, 56, 0, 4482.564, 4267.692, 4194.359, 4193.333, 4410.769, 0, 0, []
1627801667.9347, 57, 0, 4458.974, 4287.179, 4208.718, 4211.282, 4396.923, 0, 0, []
1627801667.9425, 58, 0, 4430.256, 4298.462, 4195.897, 4220, 4381.026, 0, 0, []
1627801667.9505, 59, 0, 4391.282, 4269.744, 4193.333, 4209.231, 4350.256, 0, 0, []
1627801667.9584, 60, 0, 4348.205, 4254.359, 4185.641, 4196.41, 4314.359, 0, 0, []
1627801667.9664, 61, 0, 4299.487, 4264.103, 4178.462, 4180.513, 4275.897, 0, 0, []
1627801667.9742, 62, 0, 4269.231, 4253.333, 4185.128, 4180.513, 4253.333, 0, 0, []
1627801667.9822, 63, 0, 4262.051, 4230.769, 4182.051, 4196.41, 4247.692, 0, 0, []
1627801667.9901, 64, 0, 4247.179, 4227.179, 4181.538, 4197.949, 4232.308, 450, 0, []
1627801667.9981, 65, 0, 4223.077, 4239.487, 4170.769, 4184.103, 4214.872, 450, 0, []
1627801668.006, 66, 0, 4214.359, 4253.333, 4173.846, 4183.59, 4216.923, 16186, 0, []
1627801668.0139, 67, 0, 4211.795, 4262.051, 4187.692, 4193.846, 4216.923, 450, 0, []
1627801668.0218, 68, 0, 4201.026, 4251.795, 4178.974, 4200, 4200.513, 16159, 0, []
1627801668.0296, 69, 0, 4179.487, 4222.564, 4178.462, 4194.872, 4180.513, 450, 0, []
1627801668.0375, 70, 0, 4159.487, 4235.897, 4172.308, 4180.513, 4163.077, 260, 0, []
1627801668.0453, 71, 0, 4152.821, 4270.256, 4167.179, 4175.385, 4155.385, 450, 0, []
1627801668.0532, 72, 0, 4145.128, 4241.538, 4174.872, 4170.769, 4147.179, 450, 0, []
1627801668.0609, 73, 0, 4142.051, 4213.846, 4169.231, 4167.692, 4145.128, 16158, 0, []
1627801668.0689, 74, 0, 4158.462, 4250.256, 4177.436, 4181.026, 4162.051, 450, 0, []
1627801668.0768, 75, 0, 4162.051, 4248.205, 4176.923, 4193.846, 4166.154, 16147, 0, []
1627801668.0847, 76, 0, 4133.333, 4197.949, 4163.077, 4192.308, 4140.513, 450, 0, []
1627801668.0925, 77, 0, 4119.487, 4202.564, 4165.641, 4186.667, 4127.179, 450, 0, []
1627801668.1004, 78, 0, 4131.282, 4222.564, 4164.103, 4184.615, 4136.41, 450, 0, []
1627801668.1083, 79, 0, 4133.333, 4213.333, 4174.359, 4185.128, 4143.077, 16147, 0, []
1627801668.1163, 80, 0, 4131.282, 4225.641, 4181.026, 4184.615, 4140, 450, 0, []
1627801668.1242, 81, 0, 4136.923, 4236.923, 4179.487, 4184.615, 4137.436, 450, 0, []
1627801668.1322, 82, 0, 4143.077, 4221.026, 4190.769, 4193.846, 4146.667, 450, 0, []
1627801668.14, 83, 0, 4144.103, 4217.436, 4178.974, 4204.103, 4156.41, 16147, 0, []
1627801668.1479, 84, 0, 4141.026, 4225.641, 4178.462, 4205.641, 4149.231, 450, 0, []
1627801668.1558, 85, 0, 4137.436, 4224.103, 4192.821, 4202.564, 4139.487, 450, 0, []
1627801668.1638, 86, 0, 4131.795, 4227.692, 4182.051, 4196.923, 4138.974, 450, 0, []
1627801668.1717, 87, 0, 4125.128, 4223.59, 4173.846, 4188.718, 4141.026, 16147, 0, []
1627801668.1794, 88, 0, 4121.026, 4209.744, 4163.077, 4176.41, 4135.897, 450, 0, []
1627801668.1873, 89, 0, 4123.077, 4220.513, 4170.256, 4173.333, 4125.641, 450, 0, []
1627801668.1951, 90, 0, 4123.077, 4217.949, 4186.667, 4184.103, 4125.641, 450, 0, []
1627801668.203, 91, 0, 4117.436, 4202.564, 4175.897, 4188.205, 4132.308, 16147, 0, []
1627801668.2108, 92, 0, 4108.205, 4214.359, 4167.179, 4173.846, 4122.564, 450, 0, []
1627801668.2186, 93, 0, 4102.051, 4218.974, 4157.949, 4166.154, 4112.821, 450, 0, []
1627801668.2264, 94, 0, 4108.205, 4211.795, 4162.051, 4173.333, 4120.513, 450, 0, []
1627801668.2343, 95, 0, 4108.205, 4212.821, 4169.231, 4170.769, 4122.564, 16147, 0, []
1627801668.2421, 96, 0, 4102.564, 4211.795, 4161.538, 4167.179, 4118.462, 450, 0, []
1627801668.2501, 97, 0, 4111.282, 4226.667, 4176.41, 4182.051, 4126.667, 450, 0, []
1627801668.2579, 98, 0, 4113.846, 4243.077, 4169.231, 4189.231, 4126.154, 450, 0, []
1627801668.2659, 99, 0, 4104.103, 4217.949, 4157.436, 4183.59, 4116.923, 16147, 0, []
1627801668.2738, 100, 0, 4103.077, 4201.538, 4174.872, 4188.205, 4120.513, 450, 0, []
1627801668.2818, 101, 0, 4103.59, 4217.949, 4167.179, 4187.692, 4121.538, 450, 0, []
1627801668.2897, 102, 0, 4096.41, 4214.359, 4155.897, 4176.923, 4114.359, 450, 0, []
1627801668.2976, 103, 0, 4098.462, 4211.282, 4157.949, 4178.974, 4116.41, 16147, 0, []
1627801668.3055, 104, 0, 4112.821, 4220.513, 4171.282, 4189.744, 4128.718, 450, 0, []
1627801668.3135, 105, 0, 4120, 4220.513, 4182.051, 4190.256, 4134.872, 450, 0, []
1627801668.3214, 106, 0, 4117.436, 4225.128, 4163.077, 4181.026, 4137.949, 450, 0, []
1627801668.3292, 107, 0, 4110.769, 4225.128, 4157.436, 4176.41, 4136.923, 16147, 0, []
1627801668.337, 108, 0, 4109.744, 4216.41, 4163.59, 4180, 4130.769, 450, 0, []
1627801668.3448, 109, 0, 4121.538, 4217.436, 4171.282, 4190.256, 4131.795, 450, 0, []
1627801668.3527, 110, 0, 4125.128, 4214.359, 4181.026, 4197.949, 4132.821, 450, 0, []
1627801668.3605, 111, 0, 4121.026, 4215.385, 4161.538, 4196.923, 4135.385, 16147, 0, []
1627801668.3684, 112, 0, 4132.821, 4222.051, 4161.026, 4193.846, 4149.744, 450, 0, []
1627801668.3761, 113, 0, 4137.949, 4201.026, 4168.718, 4180, 4151.282, 450, 0, []
1627801668.384, 114, 0, 4116.923, 4189.231, 4153.333, 4156.923, 4131.795, 450, 0, []
1627801668.3918, 115, 0, 4107.692, 4212.821, 4157.949, 4154.359, 4124.615, 16147, 0, []
1627801668.3997, 116, 0, 4125.128, 4205.641, 4164.615, 4175.385, 4136.41, 450, 0, []
1627801668.4075, 117, 0, 4133.846, 4185.641, 4170.256, 4186.667, 4140, 450, 0, []
1627801668.4154, 118, 0, 4133.333, 4200.513, 4176.923, 4190.256, 4144.615, 450, 0, []
1627801668.4233, 119, 0, 4133.846, 4206.154, 4180, 4197.436, 4155.897, 16147, 0, []
1627801668.4313, 120, 0, 4126.667, 4180.513, 4181.026, 4185.641, 4151.282, 450, 0, []
1627801668.4392, 121, 0, 4116.923, 4173.333, 4159.487, 4173.846, 4141.026, 450, 0, []
1627801668.4472, 122, 0, 4103.077, 4200.513, 4158.974, 4184.103, 4131.282, 450, 0, []
1627801668.455, 123, 0, 4092.821, 4205.641, 4166.154, 4188.718, 4116.41, 16147, 0, []
1627801668.463, 124, 0, 4107.692, 4179.487, 4149.744, 4184.103, 4117.436, 450, 0, []
1627801668.4709, 125, 0, 4124.103, 4171.282, 4162.051, 4186.667, 4130.769, 450, 0, []
1627801668.4788, 126, 0, 4128.205, 4188.718, 4173.333, 4183.59, 4138.462, 450, 0, []
1627801668.4868, 127, 0, 4137.436, 4198.462, 4172.821, 4174.359, 4142.051, 16147, 0, []
1627801668.4945, 128, 0, 4146.154, 4197.949, 4181.026, 4177.949, 4143.077, 450, 0, []
1627801668.5024, 0, 0, 4143.077, 4189.231, 4174.359, 4187.179, 4141.026, 450, 0, []
1627801668.5102, 1, 0, 4140, 4180, 4173.333, 4188.205, 4137.436, 450, 0, []
1627801668.5181, 2, 0, 4133.846, 4188.718, 4170.256, 4186.667, 4126.667, 16186, 0, []
1627801668.5259, 3, 0, 4122.564, 4190.769, 4174.359, 4184.103, 4116.923, 450, 0, []
1627801668.5338, 4, 0, 4129.231, 4182.564, 4188.205, 4180.513, 4127.179, 16159, 0, []
1627801668.5417, 5, 0, 4152.821, 4178.462, 4177.949, 4183.59, 4146.667, 450, 0, []
1627801668.5496, 6, 0, 4152.308, 4173.333, 4180.513, 4189.744, 4147.179, 260, 0, []
1627801668.5574, 7, 0, 4131.795, 4173.333, 4182.564, 4186.667, 4131.795, 450, 0, []
1627801668.5654, 8, 0, 4126.154, 4172.821, 4169.744, 4183.077, 4124.615, 450, 0, []
1627801668.5732, 9, 0, 4132.308, 4157.436, 4172.821, 4190.769, 4128.205, 16158, 0, []
1627801668.5812, 10, 0, 4135.385, 4158.462, 4173.333, 4196.41, 4128.718, 450, 0, []
1627801668.5891, 11, 0, 4132.821, 4180, 4169.231, 4185.128, 4123.59, 16185, 0, []
1627801668.5971, 12, 0, 4140, 4183.59, 4162.564, 4182.051, 4129.744, 450, 0, []
1627801668.605, 13, 0, 4155.385, 4189.744, 4174.872, 4196.41, 4148.718, 450, 0, []
1627801668.6129, 14, 0, 4157.949, 4196.41, 4196.41, 4196.41, 4157.949, 450, 0, []
1627801668.6208, 15, 0, 4146.667, 4173.846, 4170.769, 4183.077, 4151.795, 16185, 0, []
1627801668.6286, 16, 0, 4138.462, 4166.154, 4161.538, 4183.077, 4137.949, 0, 0, []
1627801668.6365, 17, 0, 4135.385, 4194.872, 4178.974, 4184.615, 4132.308, 0, 0, []
1627801668.6443, 18, 0, 4137.949, 4211.282, 4181.026, 4185.128, 4140.513, 0, 0, []
1627801668.6521, 19, 0, 4156.923, 4195.897, 4190.256, 4197.436, 4154.359, 0, 0, []
1627801668.6599, 20, 0, 4171.795, 4199.487, 4183.59, 4195.897, 4161.026, 0, 0, []
1627801668.6678, 21, 0, 4169.231, 4224.615, 4185.641, 4183.59, 4158.462, 0, 0, []
1627801668.6756, 22, 0, 4157.436, 4236.923, 4190.256, 4186.667, 4149.744, 0, 0, []
1627801668.6835, 23, 0, 4141.026, 4236.41, 4166.667, 4183.077, 4134.872, 0, 0, []
1627801668.6912, 24, 0, 4138.974, 4228.205, 4165.641, 4173.846, 4125.128, 0, 0, []
1627801668.6991, 25, 0, 4150.769, 4223.59, 4167.179, 4180, 4133.333, 0, 0, []
1627801668.7069, 26, 0, 4153.333, 4229.744, 4169.744, 4185.128, 4146.154, 0, 0, []
1627801668.7149, 27, 0, 4148.205, 4240.513, 4180.513, 4180, 4148.718, 0, 0, []
1627801668.7228, 28, 0, 4152.308, 4256.41, 4171.795, 4177.949, 4148.205, 0, 0, []
1627801668.7307, 29, 0, 4162.564, 4266.667, 4166.667, 4175.897, 4150.256, 0, 0, []
1627801668.7386, 30, 0, 4166.667, 4254.872, 4161.026, 4175.385, 4152.308, 0, 0, []
1627801668.7466, 31, 0, 4165.128, 4237.949, 4165.128, 4185.128, 4152.821, 0, 0, []
1627801668.7545, 32, 0, 4163.077, 4253.846, 4170.256, 4197.436, 4151.795, 0, 0, []
1627801668.7625, 33, 0, 4162.051, 4279.487, 4157.436, 4201.026, 4149.231, 0, 0, []
1627801668.7703, 34, 0, 4168.205, 4278.974, 4173.333, 4199.487, 4157.949, 0, 0, []
1627801668.7783, 35, 0, 4186.154, 4261.026, 4190.256, 4202.051, 4183.077, 0, 0, []
1627801668.7862, 36, 0, 4195.385, 4260, 4182.564, 4200.513, 4192.821, 0, 0, []
1627801668.794, 37, 0, 4178.462, 4270.769, 4170.769, 4187.692, 4176.41, 0, 0, []
1627801668.8019, 38, 0, 4168.205, 4270.256, 4158.462, 4185.641, 4165.128, 0, 0, []
1627801668.8097, 39, 0, 4185.128, 4268.718, 4176.41, 4208.718, 4171.282, 0, 0, []
1627801668.8175, 40, 0, 4189.231, 4267.179, 4176.923, 4218.974, 4175.385, 0, 0, []
1627801668.8253, 41, 0, 4170.256, 4261.538, 4156.41, 4203.077, 4167.692, 0, 0, []
1627801668.8332, 42, 0, 4168.205, 4265.641, 4162.051, 4197.949, 4164.615, 0, 0, []
1627801668.841, 43, 0, 4183.59, 4253.846, 4165.128, 4202.564, 4175.897, 0, 0, []
1627801668.8489, 44, 0, 4193.333, 4233.333, 4174.872, 4196.923, 4188.205, 0, 0, []
1627801668.8566, 45, 0, 4197.436, 4257.436, 4178.462, 4191.795, 4190.256, 0, 0, []
1627801668.8646, 46, 0, 4195.385, 4284.615, 4175.385, 4195.897, 4189.231, 0, 0, []
1627801668.8725, 47, 0, 4185.128, 4252.821, 4191.795, 4189.231, 4183.59, 0, 0, []
1627801668.8805, 48, 0, 4182.564, 4244.615, 4183.077, 4180.513, 4176.923, 0, 0, []
1627801668.8884, 49, 0, 4192.308, 4281.026, 4166.154, 4189.744, 4181.538, 0, 0, []
1627801668.8963, 50, 0, 4195.897, 4270.769, 4160.513, 4200, 4188.718, 0, 0, []
1627801668.9042, 51, 0, 4197.436, 4243.59, 4161.026, 4200, 4188.718, 0, 0, []
1627801668.9122, 52, 0, 4192.821, 4266.667, 4172.821, 4194.359, 4186.154, 0, 0, []
1627801668.9201, 53, 0, 4188.718, 4291.282, 4165.641, 4193.333, 4185.128, 0, 0, []
1627801668.9281, 54, 0, 4195.385, 4275.385, 4171.282, 4202.051, 4185.641, 0, 0, []
1627801668.9359, 55, 0, 4201.026, 4255.385, 4187.179, 4201.026, 4186.667, 0, 0, []
1627801668.9439, 56, 0, 4211.282, 4257.949, 4177.949, 4193.846, 4195.897, 0, 0, []
1627801668.9518, 57, 0, 4215.385, 4264.103, 4182.051, 4210.256, 4201.538, 0, 0, []
1627801668.9596, 58, 0, 4201.538, 4253.846, 4181.538, 4229.744, 4191.282, 0, 0, []
1627801668.9675, 59, 0, 4190.256, 4253.846, 4171.795, 4223.59, 4182.051, 0, 0, []
1627801668.9752, 60, 0, 4187.692, 4269.744, 4166.667, 4217.436, 4179.487, 0, 0, []
1627801668.9831, 61, 0, 4176.923, 4261.026, 4156.923, 4210.769, 4169.231, 0, 0, []
1627801668.9909, 62, 0, 4170.256, 4251.282, 4161.026, 4191.795, 4163.077, 0, 0, []
1627801668.9988, 63, 0, 4183.59, 4266.667, 4159.487, 4186.667, 4175.385, 0, 0, []
1627801669.0066, 64, 0, 4196.41, 4272.308, 4165.128, 4201.538, 4186.667, 450, 0, []
1627801669.0145, 65, 0, 4201.026, 4263.59, 4183.59, 4206.154, 4187.179, 450, 0, []
1627801669.0224, 66, 0, 4189.744, 4246.154, 4171.795, 4191.795, 4181.026, 16186, 0, []
1627801669.0304, 67, 0, 4168.205, 4218.974, 4161.538, 4185.641, 4171.282, 450, 0, []
1627801669.0383, 68, 0, 4164.615, 4213.333, 4154.359, 4190.256, 4170.256, 16159, 0, []
1627801669.0463, 69, 0, 4175.385, 4237.949, 4156.41, 4189.744, 4177.436, 450, 0, []
1627801669.0541, 70, 0, 4188.205, 4254.872, 4183.077, 4192.308, 4184.615, 260, 0, []
1627801669.0621, 71, 0, 4204.615, 4252.821, 4189.231, 4203.59, 4195.897, 450, 0, []
1627801669.07, 72, 0, 4208.718, 4227.179, 4192.308, 4204.103, 4200.513, 450, 0, []
1627801669.078, 73, 0, 4197.949, 4210.256, 4191.282, 4197.949, 4193.333, 16158, 0, []
1627801669.0859, 74, 0, 4190.256, 4231.282, 4171.795, 4202.051, 4189.744, 450, 0, []
1627801669.0936, 75, 0, 4178.462, 4231.282, 4155.897, 4195.385, 4178.462, 16188, 0, []
1627801669.1015, 76, 0, 4166.667, 4203.59, 4143.59, 4178.974, 4159.487, 450, 0, []
1627801669.1093, 77, 0, 4173.333, 4210.256, 4162.564, 4186.667, 4164.103, 450, 0, []
1627801669.1172, 78, 0, 4187.692, 4220.513, 4182.051, 4200, 4185.128, 450, 0, []
1627801669.125, 79, 0, 4191.282, 4197.949, 4180, 4200.513, 4192.821, 16188, 0, []
1627801669.1328, 80, 0, 4188.718, 4202.564, 4184.615, 4201.026, 4189.744, 450, 0, []
1627801669.1406, 81, 0, 4190.256, 4217.436, 4173.846, 4200.513, 4189.231, 450, 0, []
1627801669.1485, 82, 0, 4196.923, 4211.795, 4177.436, 4203.59, 4194.872, 450, 0, []
1627801669.1563, 83, 0, 4208.718, 4227.692, 4187.179, 4218.974, 4203.59, 16188, 0, []
1627801669.1642, 84, 0, 4209.744, 4231.282, 4170.256, 4226.154, 4207.179, 450, 0, []
1627801669.1719, 85, 0, 4197.436, 4215.897, 4169.744, 4219.487, 4194.872, 450, 0, []
1627801669.1799, 86, 0, 4197.949, 4226.154, 4165.641, 4214.872, 4183.59, 450, 0, []
1627801669.1878, 87, 0, 4207.692, 4227.179, 4166.154, 4209.231, 4193.333, 16188, 0, []
1627801669.1958, 88, 0, 4203.59, 4203.59, 4177.949, 4206.154, 4203.59, 450, 0, []
1627801669.2037, 89, 0, 4194.359, 4214.872, 4173.846, 4207.179, 4192.308, 450, 0, []
1627801669.2116, 90, 0, 4207.179, 4237.949, 4183.077, 4213.846, 4190.256, 450, 0, []
1627801669.2195, 91, 0, 4221.026, 4226.154, 4176.923, 4217.949, 4203.077, 16188, 0, []
1627801669.2275, 92, 0, 4207.692, 4204.103, 4153.846, 4198.974, 4193.846, 450, 0, []
1627801669.2354, 93, 0, 4192.821, 4184.615, 4149.744, 4177.949, 4178.462, 450, 0, []
1627801669.2434, 94, 0, 4201.026, 4180, 4160, 4189.231, 4184.615, 450, 0, []
1627801669.2512, 95, 0, 4205.641, 4204.615, 4176.923, 4200, 4190.769, 16188, 0, []
1627801669.259, 96, 0, 4193.846, 4204.615, 4160.513, 4185.641, 4182.051, 450, 0, []
1627801669.2669, 97, 0, 4189.744, 4180, 4149.231, 4183.59, 4181.026, 450, 0, []
1627801669.2747, 98, 0, 4202.051, 4192.308, 4167.692, 4194.872, 4195.897, 450, 0, []
1627801669.2826, 99, 0, 4208.205, 4214.359, 4160.513, 4189.231, 4198.974, 16188, 0, []
1627801669.2903, 100, 0, 4191.282, 4198.974, 4153.846, 4175.385, 4183.59, 450, 0, []
1627801669.2982, 101, 0, 4177.949, 4179.487, 4156.923, 4175.385, 4178.462, 450, 0, []
1627801669.306, 102, 0, 4191.795, 4189.744, 4162.051, 4186.667, 4186.667, 450, 0, []
1627801669.314, 103, 0, 4203.59, 4209.744, 4172.308, 4190.256, 4188.718, 16188, 0, []
1627801669.3219, 104, 0, 4200.513, 4204.615, 4167.179, 4187.692, 4192.821, 450, 0, []
1627801669.3297, 105, 0, 4200, 4188.205, 4170.769, 4187.692, 4196.923, 450, 0, []
1627801669.3375, 106, 0, 4198.462, 4190.769, 4170.769, 4187.179, 4188.718, 450, 0, []
1627801669.3455, 107, 0, 4188.718, 4196.923, 4163.59, 4185.128, 4184.615, 16188, 0, []
1627801669.3534, 108, 0, 4181.026, 4181.026, 4172.821, 4178.974, 4185.128, 450, 0, []
1627801669.3614, 109, 0, 4191.282, 4172.821, 4164.615, 4175.897, 4188.718, 450, 0, []
1627801669.3692, 110, 0, 4209.744, 4185.641, 4170.769, 4191.282, 4200, 450, 0, []
1627801669.3772, 111, 0, 4214.359, 4201.538, 4188.205, 4201.026, 4205.128, 16188, 0, []
1627801669.3851, 112, 0, 4207.692, 4211.282, 4174.872, 4189.744, 4201.538, 450, 0, []
1627801669.3931, 113, 0, 4205.128, 4185.128, 4171.282, 4184.103, 4196.41, 450, 0, []
1627801669.401, 114, 0, 4203.077, 4161.538, 4171.282, 4188.718, 4189.231, 450, 0, []
1627801669.4088, 115, 0, 4196.923, 4187.179, 4173.846, 4184.615, 4186.667, 16188, 0, []
1627801669.4167, 116, 0, 4200.513, 4198.974, 4172.821, 4182.564, 4196.41, 450, 0, []
1627801669.4245, 117, 0, 4216.923, 4190.769, 4162.564, 4193.333, 4204.615, 450, 0, []
1627801669.4324, 118, 0, 4218.974, 4197.436, 4171.282, 4194.872, 4201.026, 450, 0, []
1627801669.4402, 119, 0, 4199.487, 4184.615, 4161.538, 4183.077, 4193.846, 16188, 0, []
1627801669.448, 120, 0, 4189.744, 4150.769, 4157.436, 4182.051, 4189.231, 450, 0, []
1627801669.4558, 121, 0, 4192.308, 4152.308, 4167.692, 4191.795, 4185.641, 450, 0, []
1627801669.4637, 122, 0, 4196.41, 4172.308, 4162.051, 4195.897, 4191.282, 450, 0, []
1627801669.4715, 123, 0, 4208.205, 4171.795, 4175.897, 4202.564, 4203.59, 16188, 0, []
1627801669.4794, 124, 0, 4213.333, 4164.615, 4175.897, 4213.333, 4207.179, 450, 0, []
1627801669.4872, 125, 0, 4207.692, 4153.846, 4166.154, 4211.282, 4201.026, 450, 0, []
1627801669.495, 126, 0, 4204.103, 4164.103, 4174.359, 4205.128, 4198.462, 450, 0, []
1627801669.503, 127, 0, 4206.154, 4171.795, 4170.769, 4198.974, 4203.59, 16188, 0, []
1627801669.5109, 128, 0, 4211.795, 4153.846, 4176.41, 4191.282, 4211.795, 450, 0, []
1627801669.5188, 0, 0, 4215.385, 4137.949, 4172.821, 4186.154, 4207.692, 450, 0, []
1627801669.5267, 1, 0, 4201.538, 4132.821, 4155.897, 4181.026, 4185.641, 450, 0, []
1627801669.5346, 2, 0, 4192.821, 4137.949, 4164.103, 4182.051, 4179.487, 16186, 0, []
1627801669.5426, 3, 0, 4202.051, 4138.462, 4167.692, 4189.231, 4191.282, 450, 0, []
1627801669.5505, 4, 0, 4197.949, 4121.538, 4162.564, 4182.564, 4185.641, 16159, 0, []
1627801669.5585, 5, 0, 4196.41, 4124.103, 4163.077, 4170.769, 4178.974, 450, 0, []
1627801669.5664, 6, 0, 4214.359, 4161.026, 4180, 4182.051, 4192.821, 257, 0, []
1627801669.5741, 7, 0, 4220.513, 4178.462, 4196.41, 4189.744, 4202.051, 450, 0, []
1627801669.582, 8, 0, 4210.769, 4170.256, 4177.949, 4173.846, 4193.846, 450, 0, []
1627801669.5898, 9, 0, 4212.308, 4172.308, 4171.795, 4167.692, 4190.769, 16158, 0, []
1627801669.5977, 10, 0, 4227.692, 4180.513, 4173.846, 4174.359, 4204.615, 450, 0, []
1627801669.6055, 11, 0, 4250.256, 4189.744, 4163.077, 4172.821, 4232.821, 16190, 0, []
1627801669.6133, 12, 0, 4297.436, 4190.769, 4169.744, 4170.769, 4274.872, 450, 0, []
1627801669.6211, 13, 0, 4373.333, 4182.564, 4168.718, 4176.41, 4330.769, 450, 0, []
1627801669.6291, 14, 0, 4453.846, 4213.333, 4177.436, 4183.077, 4394.872, 450, 0, []
1627801669.637, 15, 0, 4516.923, 4256.41, 4193.333, 4187.179, 4446.667, 16190, 0, []
1627801669.645, 16, 0, 4541.538, 4237.436, 4185.641, 4185.641, 4463.077, 0, 0, []
1627801669.6528, 17, 0, 4525.641, 4207.179, 4181.026, 4183.077, 4451.282, 0, 0, []
1627801669.6608, 18, 0, 4501.026, 4230.769, 4178.974, 4189.231, 4439.487, 0, 0, []
1627801669.6687, 19, 0, 4484.615, 4262.051, 4189.744, 4202.564, 4429.744, 0, 0, []
1627801669.6767, 20, 0, 4454.872, 4267.179, 4185.641, 4208.718, 4406.667, 0, 0, []
1627801669.6846, 21, 0, 4417.436, 4264.615, 4164.615, 4199.487, 4376.41, 0, 0, []
1627801669.6925, 22, 0, 4387.692, 4244.615, 4180, 4188.205, 4347.692, 0, 0, []
1627801669.7004, 23, 0, 4364.103, 4218.974, 4186.154, 4184.103, 4326.667, 0, 0, []
1627801669.7082, 24, 0, 4344.615, 4225.128, 4182.564, 4185.641, 4312.821, 0, 0, []
1627801669.7161, 25, 0, 4320.513, 4245.128, 4194.872, 4195.385, 4291.795, 0, 0, []
1627801669.7239, 26, 0, 4290.256, 4255.385, 4184.615, 4201.538, 4265.641, 0, 0, []
1627801669.7317, 27, 0, 4275.385, 4262.051, 4178.974, 4197.436, 4255.897, 0, 0, []
1627801669.7395, 28, 0, 4267.692, 4262.564, 4174.359, 4189.744, 4254.872, 0, 0, []
1627801669.7474, 29, 0, 4248.205, 4264.615, 4167.692, 4184.615, 4242.564, 0, 0, []
1627801669.7552, 30, 0, 4235.897, 4264.103, 4177.949, 4183.59, 4238.462, 0, 0, []
1627801669.7631, 31, 0, 4244.615, 4245.641, 4183.59, 4184.103, 4247.692, 0, 0, []
1627801669.7708, 32, 0, 4246.667, 4236.923, 4189.744, 4178.974, 4242.051, 0, 0, []
1627801669.7787, 33, 0, 4228.718, 4229.231, 4176.41, 4174.872, 4223.077, 0, 0, []
1627801669.7865, 34, 0, 4215.897, 4220.513, 4162.051, 4183.077, 4216.41, 0, 0, []
1627801669.7945, 35, 0, 4213.846, 4242.051, 4176.41, 4190.256, 4216.923, 0, 0, []
1627801669.8024, 36, 0, 4195.385, 4253.333, 4167.179, 4180, 4201.538, 0, 0, []
1627801669.8103, 37, 0, 4186.667, 4235.385, 4169.744, 4177.949, 4193.333, 0, 0, []
1627801669.8182, 38, 0, 4205.641, 4233.333, 4189.231, 4187.179, 4209.231, 0, 0, []
1627801669.8262, 39, 0, 4208.718, 4250.256, 4180.513, 4184.103, 4213.333, 0, 0, []
1627801669.8341, 40, 0, 4203.077, 4265.641, 4171.282, 4187.692, 4208.718, 0, 0, []
1627801669.8421, 41, 0, 4212.308, 4274.359, 4166.667, 4198.974, 4211.795, 0, 0, []
1627801669.8499, 42, 0, 4206.667, 4262.051, 4180.513, 4194.359, 4205.641, 0, 0, []
1627801669.8579, 43, 0, 4200, 4239.487, 4192.821, 4190.769, 4203.077, 0, 0, []
1627801669.8658, 44, 0, 4218.974, 4241.026, 4184.615, 4203.59, 4224.103, 0, 0, []
1627801669.8736, 45, 0, 4218.462, 4262.051, 4182.564, 4205.128, 4232.308, 0, 0, []
1627801669.8815, 46, 0, 4199.487, 4266.154, 4175.385, 4192.308, 4216.923, 0, 0, []
1627801669.8892, 47, 0, 4197.436, 4247.179, 4183.59, 4188.205, 4206.154, 0, 0, []
1627801669.8971, 48, 0, 4191.282, 4245.641, 4187.179, 4189.231, 4201.538, 0, 0, []
1627801669.9049, 49, 0, 4182.051, 4265.128, 4173.333, 4195.897, 4200.513, 0, 0, []
1627801669.9128, 50, 0, 4184.103, 4258.974, 4175.385, 4197.436, 4200.513, 0, 0, []
1627801669.9206, 51, 0, 4185.128, 4241.538, 4164.615, 4187.692, 4198.974, 0, 0, []
1627801669.9284, 52, 0, 4186.154, 4236.923, 4168.205, 4193.846, 4201.538, 0, 0, []
1627801669.9362, 53, 0, 4186.667, 4228.205, 4184.615, 4200.513, 4198.974, 0, 0, []
1627801669.9442, 54, 0, 4184.103, 4235.897, 4174.872, 4189.744, 4188.205, 0, 0, []
1627801669.9521, 55, 0, 4183.077, 4247.179, 4175.385, 4184.615, 4183.077, 0, 0, []
1627801669.9601, 56, 0, 4179.487, 4234.359, 4171.282, 4188.205, 4186.667, 0, 0, []
1627801669.9679, 57, 0, 4176.41, 4228.205, 4167.692, 4180.513, 4185.641, 0, 0, []
1627801669.9759, 58, 0, 4179.487, 4223.59, 4182.051, 4174.872, 4181.538, 0, 0, []
1627801669.9838, 59, 0, 4181.538, 4207.179, 4178.462, 4185.128, 4188.718, 0, 0, []
1627801669.9918, 60, 0, 4174.872, 4200, 4174.872, 4195.897, 4193.333, 0, 0, []
1627801669.9997, 61, 0, 4171.795, 4211.795, 4168.718, 4197.949, 4187.692, 0, 0, []
1627801670.0076, 62, 0, 4181.538, 4231.282, 4168.718, 4200, 4192.821, 0, 0, []
1627801670.0155, 63, 0, 4189.231, 4229.744, 4178.462, 4199.487, 4202.051, 0, 0, []
1627801670.0233, 64, 0, 4184.615, 4208.205, 4162.564, 4188.205, 4198.462, 450, 0, []
1627801670.0312, 65, 0, 4178.974, 4200.513, 4168.205, 4183.077, 4194.872, 450, 0, []
1627801670.039, 66, 0, 4180.513, 4213.333, 4181.538, 4192.821, 4193.846, 16184, 0, []
1627801670.0468, 67, 0, 4183.59, 4227.179, 4174.872, 4198.974, 4192.821, 450, 0, []
1627801670.0546, 68, 0, 4194.872, 4235.385, 4183.59, 4206.667, 4206.154, 16159, 0, []
1627801670.0625, 69, 0, 4204.615, 4232.821, 4187.179, 4223.077, 4221.538, 450, 0, []
1627801670.0703, 70, 0, 4204.103, 4233.333, 4187.179, 4224.103, 4223.59, 256, 0, []
1627801670.0782, 71, 0, 4220, 4247.692, 4187.692, 4214.359, 4229.231, 450, 0, []
1627801670.0859, 72, 0, 4242.564, 4237.436, 4184.615, 4213.333, 4240.513, 450, 0, []
1627801670.0939, 73, 0, 4231.282, 4225.641, 4179.487, 4199.487, 4231.282, 16157, 0, []
1627801670.1018, 74, 0, 4204.615, 4235.897, 4157.436, 4177.949, 4210.256, 450, 0, []
1627801670.1098, 75, 0, 4199.487, 4227.692, 4164.103, 4187.179, 4201.538, 16190, 0, []
1627801670.1177, 76, 0, 4194.359, 4223.59, 4176.41, 4205.641, 4196.923, 450, 0, []
1627801670.1256, 77, 0, 4181.538, 4241.026, 4160.513, 4201.026, 4185.641, 450, 0, []
1627801670.1335, 78, 0, 4178.974, 4228.718, 4165.128, 4198.974, 4183.077, 450, 0, []
1627801670.1415, 79, 0, 4185.128, 4206.667, 4164.103, 4201.026, 4187.692, 16190, 0, []
1627801670.1494, 80, 0, 4189.744, 4225.128, 4166.154, 4185.128, 4185.641, 450, 0, []
1627801670.1574, 81, 0, 4195.897, 4236.41, 4185.641, 4177.436, 4189.744, 450, 0, []
1627801670.1652, 82, 0, 4209.744, 4209.231, 4185.641, 4196.41, 4205.128, 450, 0, []
1627801670.173, 83, 0, 4215.385, 4196.923, 4185.641, 4208.718, 4207.692, 16190, 0, []
1627801670.1809, 84, 0, 4204.615, 4203.59, 4178.462, 4201.538, 4198.974, 450, 0, []
1627801670.1887, 85, 0, 4187.692, 4203.077, 4172.821, 4188.205, 4186.154, 450, 0, []
1627801670.1966, 86, 0, 4177.436, 4206.667, 4175.897, 4183.077, 4171.795, 450, 0, []
1627801670.2043, 87, 0, 4174.872, 4215.385, 4166.667, 4182.564, 4167.179, 16190, 0, []
1627801670.2122, 88, 0, 4177.949, 4216.923, 4167.692, 4176.41, 4170.769, 450, 0, []
1627801670.22, 89, 0, 4184.103, 4215.385, 4160.513, 4175.897, 4175.897, 450, 0, []
1627801670.2279, 90, 0, 4186.154, 4221.538, 4154.359, 4190.769, 4185.128, 450, 0, []
1627801670.2357, 91, 0, 4189.744, 4217.436, 4165.641, 4204.103, 4193.333, 16190, 0, []
1627801670.2435, 92, 0, 4193.846, 4196.923, 4161.026, 4206.154, 4192.821, 450, 0, []
1627801670.2513, 93, 0, 4183.077, 4185.641, 4162.564, 4195.385, 4173.846, 450, 0, []
1627801670.2593, 94, 0, 4166.154, 4183.59, 4162.564, 4172.821, 4152.308, 450, 0, []
1627801670.2672, 95, 0, 4162.051, 4183.077, 4170.256, 4163.077, 4155.897, 16190, 0, []
1627801670.2752, 96, 0, 4177.949, 4203.077, 4187.692, 4182.051, 4178.974, 450, 0, []
1627801670.2831, 97, 0, 4200.513, 4227.692, 4174.872, 4203.59, 4196.923, 450, 0, []
1627801670.291, 98, 0, 4201.538, 4204.103, 4173.846, 4203.59, 4202.051, 450, 0, []
1627801670.2989, 99, 0, 4186.667, 4177.436, 4182.051, 4190.769, 4198.974, 16190, 0, []
1627801670.3069, 100, 0, 4181.538, 4209.231, 4170.769, 4182.564, 4189.231, 450, 0, []
1627801670.3148, 101, 0, 4181.026, 4223.077, 4169.231, 4184.103, 4181.026, 450, 0, []
1627801670.3228, 102, 0, 4179.487, 4186.154, 4158.974, 4184.615, 4183.59, 450, 0, []
1627801670.3306, 103, 0, 4182.564, 4178.462, 4162.051, 4184.615, 4191.282, 16190, 0, []
1627801670.3384, 104, 0, 4186.667, 4205.128, 4175.385, 4195.385, 4194.359, 450, 0, []
1627801670.3463, 105, 0, 4186.667, 4204.615, 4175.385, 4199.487, 4188.205, 450, 0, []
1627801670.3541, 106, 0, 4193.846, 4188.205, 4184.615, 4194.872, 4190.769, 450, 0, []
1627801670.362, 107, 0, 4197.949, 4204.103, 4180, 4197.949, 4202.051, 16190, 0, []
1627801670.3697, 108, 0, 4191.282, 4223.077, 4176.923, 4201.538, 4197.436, 450, 0, []
1627801670.3776, 109, 0, 4185.641, 4203.59, 4164.103, 4192.821, 4182.564, 450, 0, []
1627801670.3854, 110, 0, 4181.026, 4184.615, 4139.487, 4178.974, 4179.487, 450, 0, []
1627801670.3933, 111, 0, 4182.564, 4199.487, 4160.513, 4180, 4184.103, 16190, 0, []
1627801670.4011, 112, 0, 4183.077, 4211.282, 4173.846, 4187.179, 4185.641, 450, 0, []
1627801670.409, 113, 0, 4169.744, 4190.256, 4169.231, 4186.667, 4183.077, 450, 0, []
1627801670.4169, 114, 0, 4167.179, 4180, 4172.308, 4184.615, 4182.564, 450, 0, []
1627801670.4249, 115, 0, 4186.154, 4194.872, 4167.692, 4186.154, 4188.205, 16190, 0, []
1627801670.4328, 116, 0, 4192.821, 4203.59, 4170.256, 4189.744, 4190.769, 450, 0, []
1627801670.4408, 117, 0, 4176.923, 4194.872, 4162.051, 4189.744, 4183.59, 450, 0, []
1627801670.4486, 118, 0, 4172.308, 4180.513, 4157.436, 4187.179, 4180, 450, 0, []
1627801670.4566, 119, 0, 4180, 4185.641, 4167.179, 4188.205, 4186.154, 16190, 0, []
1627801670.4645, 120, 0, 4182.564, 4184.615, 4164.615, 4191.282, 4191.282, 450, 0, []
1627801670.4725, 121, 0, 4182.051, 4169.231, 4174.359, 4190.256, 4195.385, 450, 0, []
1627801670.4804, 122, 0, 4184.615, 4168.205, 4178.974, 4189.744, 4198.462, 450, 0, []
1627801670.4882, 123, 0, 4182.051, 4182.051, 4179.487, 4195.897, 4197.436, 16190, 0, []
1627801670.496, 124, 0, 4171.282, 4191.282, 4180, 4191.795, 4190.769, 450, 0, []
1627801670.5038, 125, 0, 4167.692, 4181.026, 4159.487, 4173.846, 4175.897, 450, 0, []
1627801670.5117, 126, 0, 4167.179, 4179.487, 4158.974, 4168.205, 4161.538, 450, 0, []
1627801670.5195, 127, 0, 4166.667, 4200, 4168.718, 4186.154, 4164.103, 16190, 0, []
1627801670.5273, 128, 0, 4177.436, 4209.231, 4174.359, 4200, 4180.513, 450, 0, []
1627801670.5351, 0, 0, 4181.026, 4185.641, 4184.615, 4191.795, 4187.179, 450, 0, []
1627801670.543, 1, 0, 4170.256, 4186.667, 4173.846, 4183.59, 4181.026, 450, 0, []
1627801670.5508, 2, 0, 4168.718, 4229.744, 4174.359, 4187.692, 4184.103, 16207, 0, []
1627801670.5587, 3, 0, 4175.385, 4245.641, 4177.436, 4189.231, 4195.897, 450, 0, []
1627801670.5664, 4, 0, 4169.744, 4236.41, 4166.667, 4189.744, 4199.487, 16161, 0, []
1627801670.5743, 5, 0, 4169.744, 4221.538, 4172.308, 4197.949, 4202.051, 450, 0, []
1627801670.5821, 6, 0, 4187.179, 4221.538, 4174.872, 4209.744, 4216.41, 260, 0, []
1627801670.5901, 7, 0, 4194.872, 4252.308, 4181.026, 4212.308, 4224.103, 450, 0, []
1627801670.598, 8, 0, 4184.103, 4255.385, 4178.462, 4190.256, 4206.154, 450, 0, []
1627801670.6059, 9, 0, 4180, 4223.077, 4163.59, 4166.154, 4184.103, 16157, 0, []
1627801670.6138, 10, 0, 4188.205, 4243.077, 4175.897, 4173.333, 4183.59, 450, 0, []
1627801670.6218, 11, 0, 4185.641, 4286.667, 4175.897, 4190.256, 4188.205, 16194, 0, []
1627801670.6297, 12, 0, 4170.256, 4255.385, 4163.59, 4188.205, 4181.538, 450, 0, []
1627801670.6377, 13, 0, 4170.256, 4223.077, 4164.615, 4190.256, 4176.923, 450, 0, []
1627801670.6455, 14, 0, 4190.256, 4264.103, 4170.769, 4211.795, 4193.846, 450, 0, []
1627801670.6535, 15, 0, 4203.59, 4292.821, 4190.769, 4225.641, 4216.923, 16194, 0, []
1627801670.6614, 16, 0, 4202.051, 4259.487, 4183.077, 4208.205, 4218.974, 0, 0, []
1627801670.6692, 17, 0, 4201.538, 4228.205, 4165.641, 4180.513, 4206.154, 0, 0, []
1627801670.6771, 18, 0, 4197.949, 4241.026, 4163.59, 4167.179, 4198.974, 0, 0, []
1627801670.6848, 19, 0, 4190.256, 4266.667, 4152.821, 4166.667, 4202.051, 0, 0, []
1627801670.6927, 20, 0, 4187.179, 4270.769, 4163.077, 4176.923, 4203.077, 0, 0, []
1627801670.7005, 21, 0, 4187.179, 4268.718, 4169.231, 4190.769, 4196.41, 0, 0, []
1627801670.7084, 22, 0, 4183.59, 4262.564, 4165.128, 4201.026, 4193.333, 0, 0, []
1627801670.7162, 23, 0, 4180.513, 4245.128, 4169.744, 4212.821, 4200.513, 0, 0, []
1627801670.724, 24, 0, 4189.231, 4246.154, 4166.667, 4221.538, 4207.692, 0, 0, []
1627801670.7318, 25, 0, 4197.949, 4269.744, 4181.538, 4216.41, 4203.59, 0, 0, []
1627801670.7398, 26, 0, 4192.821, 4274.872, 4176.923, 4198.974, 4197.949, 0, 0, []
1627801670.7477, 27, 0, 4188.718, 4254.359, 4161.026, 4182.564, 4206.667, 0, 0, []
1627801670.7557, 28, 0, 4191.795, 4261.538, 4171.282, 4171.795, 4210.769, 0, 0, []
1627801670.7635, 29, 0, 4194.872, 4280, 4165.641, 4173.846, 4204.615, 0, 0, []
1627801670.7715, 30, 0, 4199.487, 4274.359, 4170.256, 4194.359, 4209.744, 0, 0, []
1627801670.7794, 31, 0, 4202.051, 4268.718, 4178.462, 4215.385, 4217.949, 0, 0, []
1627801670.7874, 32, 0, 4196.923, 4274.872, 4168.205, 4210.256, 4206.154, 0, 0, []
1627801670.7953, 33, 0, 4193.333, 4285.128, 4168.718, 4189.231, 4187.179, 0, 0, []
1627801670.8032, 34, 0, 4189.744, 4277.436, 4165.128, 4189.231, 4188.718, 0, 0, []
1627801670.8111, 35, 0, 4186.154, 4266.667, 4169.231, 4200, 4193.846, 0, 0, []
1627801670.8189, 36, 0, 4187.692, 4263.59, 4170.256, 4190.769, 4189.231, 0, 0, []
1627801670.8268, 37, 0, 4189.231, 4275.385, 4158.974, 4180, 4188.718, 0, 0, []
1627801670.8346, 38, 0, 4192.821, 4298.462, 4168.205, 4191.282, 4197.436, 0, 0, []
1627801670.8424, 39, 0, 4204.103, 4301.026, 4170.769, 4199.487, 4210.256, 0, 0, []
1627801670.8502, 40, 0, 4207.692, 4289.231, 4175.385, 4192.821, 4213.333, 0, 0, []
1627801670.8581, 41, 0, 4201.538, 4267.692, 4171.282, 4187.692, 4207.692, 0, 0, []
1627801670.8659, 42, 0, 4198.462, 4261.538, 4149.231, 4186.154, 4198.462, 0, 0, []
1627801670.8738, 43, 0, 4198.462, 4279.487, 4158.462, 4189.231, 4197.949, 0, 0, []
1627801670.8815, 44, 0, 4199.487, 4273.333, 4166.154, 4197.436, 4210.256, 0, 0, []
1627801670.8895, 45, 0, 4207.692, 4249.231, 4163.077, 4201.538, 4218.974, 0, 0, []
1627801670.8974, 46, 0, 4215.385, 4268.205, 4167.179, 4201.026, 4217.436, 0, 0, []
1627801670.9054, 47, 0, 4217.949, 4307.179, 4167.692, 4203.59, 4220, 0, 0, []
1627801670.9133, 48, 0, 4216.923, 4291.282, 4172.821, 4207.692, 4229.744, 0, 0, []
1627801670.9212, 49, 0, 4210.769, 4262.564, 4162.051, 4204.103, 4223.077, 0, 0, []
1627801670.9291, 50, 0, 4201.026, 4248.205, 4161.538, 4187.179, 4206.667, 0, 0, []
1627801670.9371, 51, 0, 4209.231, 4240.513, 4178.462, 4177.949, 4215.385, 0, 0, []
1627801670.945, 52, 0, 4240.513, 4261.026, 4172.308, 4189.744, 4245.128, 0, 0, []
1627801670.953, 53, 0, 4286.667, 4279.487, 4176.41, 4202.564, 4278.462, 0, 0, []
1627801670.9608, 54, 0, 4362.051, 4271.282, 4190.769, 4207.692, 4339.487, 0, 0, []
1627801670.9687, 55, 0, 4454.872, 4274.872, 4200, 4208.718, 4419.487, 0, 0, []
1627801670.9766, 56, 0, 4533.333, 4285.641, 4196.41, 4205.128, 4470.769, 0, 0, []
1627801670.9844, 57, 0, 4577.949, 4261.538, 4164.103, 4195.897, 4491.282, 0, 0, []
1627801670.9923, 58, 0, 4588.718, 4243.077, 4161.538, 4189.231, 4500, 0, 0, []
1627801671, 59, 0, 4585.128, 4257.949, 4172.308, 4185.128, 4493.846, 0, 0, []
1627801671.0079, 60, 0, 4568.205, 4251.795, 4168.718, 4181.026, 4475.897, 0, 0, []
1627801671.0157, 61, 0, 4529.231, 4243.59, 4171.795, 4180.513, 4460, 0, 0, []
1627801671.0236, 62, 0, 4487.692, 4261.538, 4169.744, 4182.564, 4438.462, 0, 0, []
1627801671.0314, 63, 0, 4463.077, 4253.333, 4180, 4188.718, 4411.282, 0, 0, []
1627801671.0394, 64, 0, 4440.513, 4229.744, 4182.051, 4196.923, 4394.872, 450, 0, []
1627801671.0472, 65, 0, 4410.256, 4237.436, 4171.282, 4198.462, 4376.923, 450, 0, []
1627801671.0552, 66, 0, 4369.231, 4238.974, 4170.256, 4188.205, 4340, 16193, 0, []
1627801671.0631, 67, 0, 4326.154, 4232.308, 4155.385, 4176.41, 4302.051, 450, 0, []
1627801671.0711, 68, 0, 4307.179, 4239.487, 4167.179, 4183.59, 4293.333, 16161, 0, []
1627801671.079, 69, 0, 4304.103, 4221.026, 4184.615, 4199.487, 4297.436, 450, 0, []
1627801671.0869, 70, 0, 4291.282, 4191.282, 4170.256, 4204.103, 4287.692, 237, 0, []
1627801671.0948, 71, 0, 4277.436, 4205.128, 4180.513, 4204.103, 4275.385, 450, 0, []
1627801671.1028, 72, 0, 4268.205, 4229.744, 4192.821, 4207.692, 4267.179, 450, 0, []
1627801671.1107, 73, 0, 4250.769, 4223.077, 4185.641, 4204.615, 4251.282, 16157, 0, []
1627801671.1187, 74, 0, 4232.308, 4223.077, 4175.385, 4194.359, 4228.205, 450, 0, []
1627801671.1265, 75, 0, 4219.487, 4234.359, 4168.718, 4187.179, 4212.821, 16194, 0, []
1627801671.1343, 76, 0, 4203.077, 4218.974, 4179.487, 4183.077, 4207.179, 450, 0, []
1627801671.1422, 77, 0, 4189.744, 4208.205, 4168.718, 4176.41, 4196.41, 450, 0, []
1627801671.15, 78, 0, 4183.59, 4217.949, 4162.051, 4172.821, 4189.744, 450, 0, []
1627801671.1579, 79, 0, 4174.359, 4205.128, 4172.821, 4176.923, 4193.333, 16194, 0, []
1627801671.1656, 80, 0, 4175.897, 4202.564, 4172.308, 4192.308, 4200, 450, 0, []
1627801671.1735, 81, 0, 4184.615, 4225.641, 4184.103, 4202.564, 4196.41, 450, 0, []
1627801671.1813, 82, 0, 4173.333, 4210.769, 4181.026, 4190.256, 4186.154, 450, 0, []
1627801671.1892, 83, 0, 4156.923, 4178.462, 4169.744, 4179.487, 4180.513, 16194, 0, []
1627801671.197, 84, 0, 4163.59, 4189.744, 4171.282, 4182.051, 4180.513, 450, 0, []
1627801671.2049, 85, 0, 4183.077, 4226.667, 4168.718, 4194.359, 4191.795, 450, 0, []
1627801671.2128, 86, 0, 4182.051, 4236.41, 4187.179, 4209.744, 4200.513, 450, 0, []
1627801671.2208, 87, 0, 4170.769, 4209.231, 4193.333, 4209.744, 4192.821, 16194, 0, []
1627801671.2287, 88, 0, 4168.205, 4201.538, 4183.077, 4196.41, 4184.103, 450, 0, []
1627801671.2367, 89, 0, 4166.154, 4232.308, 4183.077, 4190.256, 4181.026, 450, 0, []
1627801671.2445, 90, 0, 4162.564, 4241.026, 4174.359, 4187.179, 4181.538, 450, 0, []
1627801671.2525, 91, 0, 4167.179, 4224.615, 4182.051, 4183.59, 4182.564, 16194, 0, []
1627801671.2604, 92, 0, 4178.462, 4228.205, 4188.718, 4188.205, 4186.667, 450, 0, []
1627801671.2684, 93, 0, 4180.513, 4224.103, 4175.385, 4191.795, 4188.205, 450, 0, []
1627801671.2763, 94, 0, 4161.026, 4207.179, 4165.641, 4186.667, 4171.795, 450, 0, []
1627801671.284, 95, 0, 4129.744, 4196.923, 4151.795, 4177.949, 4144.103, 16194, 0, []
1627801671.2919, 96, 0, 4116.41, 4181.538, 4162.564, 4174.359, 4133.333, 450, 0, []
1627801671.2997, 97, 0, 4128.718, 4182.564, 4177.436, 4180.513, 4146.667, 450, 0, []
1627801671.3076, 98, 0, 4152.821, 4211.795, 4172.308, 4193.333, 4166.154, 450, 0, []
1627801671.3154, 99, 0, 4167.692, 4220.513, 4186.154, 4203.077, 4180.513, 16194, 0, []
1627801671.3232, 100, 0, 4154.359, 4191.282, 4180, 4196.923, 4170.256, 450, 0, []
1627801671.331, 101, 0, 4131.282, 4190.256, 4154.359, 4184.103, 4143.59, 450, 0, []
1627801671.3389, 102, 0, 4133.846, 4224.103, 4144.103, 4181.538, 4140.513, 450, 0, []
1627801671.3467, 103, 0, 4147.179, 4214.872, 4150.769, 4190.256, 4156.41, 16194, 0, []
1627801671.3547, 104, 0, 4140, 4175.385, 4168.718, 4185.128, 4157.436, 450, 0, []
1627801671.3625, 105, 0, 4136.923, 4193.333, 4166.154, 4167.692, 4156.923, 450, 0, []
1627801671.3705, 106, 0, 4164.615, 4243.59, 4179.487, 4172.821, 4177.436, 450, 0, []
1627801671.3784, 107, 0, 4194.359, 4232.821, 4203.077, 4199.487, 4201.026, 16194, 0, []
1627801671.3864, 108, 0, 4186.667, 4205.128, 4183.59, 4200.513, 4197.949, 450, 0, []
1627801671.3943, 109, 0, 4158.462, 4223.077, 4165.128, 4183.59, 4170.769, 450, 0, []
1627801671.4022, 110, 0, 4147.179, 4229.231, 4156.41, 4187.179, 4156.41, 450, 0, []
1627801671.4101, 111, 0, 4140.513, 4206.154, 4158.974, 4190.769, 4157.949, 16194, 0, []
1627801671.4181, 112, 0, 4131.282, 4197.436, 4158.974, 4175.385, 4146.154, 450, 0, []
1627801671.426, 113, 0, 4130.769, 4191.795, 4142.564, 4164.103, 4135.385, 450, 0, []
1627801671.4339, 114, 0, 4134.359, 4182.051, 4154.359, 4167.692, 4144.615, 450, 0, []
1627801671.4417, 115, 0, 4142.564, 4190.769, 4166.154, 4181.026, 4157.949, 16194, 0, []
1627801671.4495, 116, 0, 4153.846, 4186.154, 4173.846, 4192.308, 4160.513, 450, 0, []
1627801671.4574, 117, 0, 4158.462, 4180, 4192.821, 4199.487, 4165.128, 450, 0, []
1627801671.4652, 118, 0, 4157.949, 4202.564, 4177.436, 4197.436, 4167.179, 450, 0, []
1627801671.4731, 119, 0, 4153.846, 4203.59, 4166.154, 4184.615, 4157.436, 16194, 0, []
1627801671.4808, 120, 0, 4145.128, 4184.103, 4167.692, 4170.256, 4150.769, 450, 0, []
1627801671.4887, 121, 0, 4144.103, 4197.436, 4168.205, 4167.692, 4153.846, 450, 0, []
1627801671.4965, 122, 0, 4155.897, 4218.974, 4181.026, 4181.026, 4163.59, 450, 0, []
1627801671.5044, 123, 0, 4163.59, 4201.026, 4181.538, 4195.385, 4172.308, 16194, 0, []
1627801671.5122, 124, 0, 4166.154, 4193.333, 4190.256, 4205.128, 4182.564, 450, 0, []
1627801671.5201, 125, 0, 4169.744, 4228.718, 4191.795, 4207.179, 4194.872, 450, 0, []
1627801671.528, 126, 0, 4171.282, 4238.462, 4178.462, 4197.436, 4194.872, 450, 0, []
1627801671.536, 127, 0, 4168.718, 4212.308, 4177.949, 4186.154, 4182.564, 16194, 0, []
1627801671.5439, 128, 0, 4164.615, 4209.231, 4169.231, 4182.564, 4180, 450, 0, []
1627801671.5519, 0, 0, 4167.179, 4250.769, 4180.513, 4189.744, 4190.769, 450, 0, []
1627801671.5597, 1, 0, 4174.872, 4265.641, 4187.179, 4195.897, 4193.333, 450, 0, []
1627801671.5677, 2, 0, 4173.846, 4238.462, 4168.718, 4194.872, 4184.103, 16192, 0, []
1627801671.5756, 3, 0, 4167.179, 4230.769, 4169.231, 4196.41, 4174.359, 450, 0, []
1627801671.5836, 4, 0, 4167.179, 4244.615, 4166.667, 4200, 4170.256, 16159, 0, []
1627801671.5915, 5, 0, 4176.923, 4250.769, 4175.897, 4200, 4178.462, 450, 0, []
1627801671.5992, 6, 0, 4186.667, 4258.974, 4191.795, 4197.949, 4189.744, 256, 0, []
1627801671.6071, 7, 0, 4183.077, 4266.667, 4180.513, 4192.821, 4183.077, 450, 0, []
1627801671.6149, 8, 0, 4174.872, 4248.718, 4178.974, 4190.769, 4171.282, 450, 0, []
1627801671.6228, 9, 0, 4179.487, 4237.949, 4181.026, 4197.436, 4181.538, 16157, 0, []
1627801671.6306, 10, 0, 4185.128, 4260.513, 4180.513, 4205.641, 4196.923, 450, 0, []
1627801671.6384, 11, 0, 4184.615, 4274.872, 4180.513, 4212.821, 4202.051, 16194, 0, []
1627801671.6462, 12, 0, 4192.308, 4275.385, 4184.103, 4221.538, 4208.205, 450, 0, []
1627801671.6541, 13, 0, 4203.077, 4278.974, 4211.282, 4223.59, 4218.974, 450, 0, []
1627801671.6619, 14, 0, 4203.59, 4283.077, 4204.615, 4217.436, 4220.513, 450, 0, []
1627801671.6699, 15, 0, 4203.59, 4291.795, 4175.385, 4210.256, 4212.821, 16194, 0, []
1627801671.6777, 16, 0, 4200.513, 4292.308, 4167.692, 4201.538, 4202.051, 0, 0, []
1627801671.6857, 17, 0, 4190.256, 4273.846, 4161.026, 4193.846, 4192.308, 0, 0, []
1627801671.6936, 18, 0, 4183.59, 4270.769, 4174.872, 4194.872, 4193.846, 0, 0, []
1627801671.7016, 19, 0, 4183.077, 4280, 4181.026, 4198.974, 4201.026, 0, 0, []
1627801671.7095, 20, 0, 4189.231, 4267.692, 4174.872, 4197.949, 4201.538, 0, 0, []
1627801671.7174, 21, 0, 4201.026, 4263.59, 4186.154, 4203.59, 4206.154, 0, 0, []
1627801671.7253, 22, 0, 4209.231, 4289.744, 4188.718, 4223.59, 4218.974, 0, 0, []
1627801671.7333, 23, 0, 4200, 4296.41, 4189.231, 4236.41, 4219.487, 0, 0, []
1627801671.7412, 24, 0, 4188.205, 4286.154, 4173.333, 4222.051, 4207.692, 0, 0, []
1627801671.749, 25, 0, 4183.077, 4294.872, 4156.41, 4206.154, 4197.436, 0, 0, []
1627801671.7568, 26, 0, 4171.282, 4285.128, 4168.205, 4201.026, 4184.103, 0, 0, []
1627801671.7646, 27, 0, 4170.769, 4264.103, 4179.487, 4195.385, 4184.615, 0, 0, []
1627801671.7725, 28, 0, 4193.846, 4276.41, 4194.872, 4205.128, 4206.154, 0, 0, []
1627801671.7803, 29, 0, 4207.179, 4286.154, 4196.923, 4221.026, 4217.436, 0, 0, []
1627801671.7882, 30, 0, 4198.462, 4277.436, 4190.256, 4216.41, 4215.897, 0, 0, []
1627801671.796, 31, 0, 4196.923, 4287.179, 4196.923, 4201.538, 4220.513, 0, 0, []
1627801671.8038, 32, 0, 4209.231, 4295.385, 4180, 4199.487, 4230.256, 0, 0, []
1627801671.8116, 33, 0, 4229.744, 4278.462, 4176.41, 4204.103, 4246.667, 0, 0, []
1627801671.8196, 34, 0, 4269.744, 4275.385, 4183.59, 4202.564, 4276.41, 0, 0, []
1627801671.8275, 35, 0, 4330.256, 4282.051, 4172.821, 4201.538, 4317.436, 0, 0, []
1627801671.8355, 36, 0, 4403.59, 4268.205, 4189.231, 4204.103, 4371.282, 0, 0, []
1627801671.8433, 37, 0, 4477.949, 4278.974, 4200, 4204.615, 4429.744, 0, 0, []
1627801671.8513, 38, 0, 4535.385, 4294.872, 4195.385, 4196.923, 4470.256, 0, 0, []
1627801671.8592, 39, 0, 4562.051, 4270.769, 4189.744, 4191.795, 4486.154, 0, 0, []
1627801671.8672, 40, 0, 4562.564, 4259.487, 4176.923, 4196.41, 4489.231, 0, 0, []
1627801671.8751, 41, 0, 4541.538, 4287.179, 4188.205, 4206.667, 4478.974, 0, 0, []
1627801671.883, 42, 0, 4507.179, 4304.615, 4192.821, 4211.282, 4455.385, 0, 0, []
1627801671.8909, 43, 0, 4478.462, 4285.128, 4191.282, 4209.744, 4428.718, 0, 0, []
1627801671.8988, 44, 0, 4452.821, 4269.231, 4194.872, 4208.205, 4404.103, 0, 0, []
1627801671.9067, 45, 0, 4414.872, 4273.333, 4179.487, 4194.872, 4375.897, 0, 0, []
1627801671.9145, 46, 0, 4375.385, 4271.282, 4181.026, 4183.59, 4348.718, 0, 0, []
1627801671.9223, 47, 0, 4346.154, 4246.154, 4180, 4191.282, 4328.205, 0, 0, []
1627801671.9301, 48, 0, 4325.641, 4237.949, 4179.487, 4204.103, 4310.769, 0, 0, []
1627801671.938, 49, 0, 4303.59, 4263.59, 4191.795, 4204.103, 4291.282, 0, 0, []
1627801671.9458, 50, 0, 4270.256, 4267.692, 4173.333, 4193.333, 4265.128, 0, 0, []
1627801671.9537, 51, 0, 4244.615, 4246.154, 4163.59, 4182.564, 4246.667, 0, 0, []
1627801671.9614, 52, 0, 4244.615, 4233.333, 4173.333, 4180.513, 4244.103, 0, 0, []
1627801671.9693, 53, 0, 4244.103, 4223.077, 4177.949, 4186.154, 4241.026, 0, 0, []
1627801671.9771, 54, 0, 4223.077, 4227.692, 4178.974, 4187.179, 4227.692, 0, 0, []
1627801671.9851, 55, 0, 4206.667, 4245.128, 4170.769, 4189.744, 4218.974, 0, 0, []
1627801671.993, 56, 0, 4197.436, 4225.641, 4175.385, 4192.821, 4211.282, 0, 0, []
1627801672.0009, 57, 0, 4187.179, 4199.487, 4170.769, 4183.077, 4202.051, 0, 0, []
1627801672.0088, 58, 0, 4189.744, 4224.103, 4170.256, 4178.462, 4207.692, 0, 0, []
1627801672.0168, 59, 0, 4196.923, 4242.564, 4196.41, 4185.128, 4215.897, 0, 0, []
1627801672.0247, 60, 0, 4191.795, 4230.769, 4189.744, 4188.718, 4206.667, 0, 0, []
1627801672.0327, 61, 0, 4173.333, 4231.282, 4171.282, 4183.59, 4189.231, 0, 0, []
1627801672.0405, 62, 0, 4155.897, 4230.769, 4155.897, 4181.538, 4178.974, 0, 0, []
1627801672.0485, 63, 0, 4154.872, 4213.333, 4145.641, 4183.59, 4177.949, 0, 0, []
1627801672.0564, 64, 0, 4167.179, 4214.359, 4170.769, 4186.154, 4182.564, 450, 0, []
1627801672.0642, 65, 0, 4174.359, 4232.821, 4182.051, 4185.128, 4193.333, 450, 0, []
1627801672.0721, 66, 0, 4165.641, 4232.821, 4180.513, 4183.077, 4197.949, 16189, 0, []
1627801672.0798, 67, 0, 4165.641, 4226.667, 4180.513, 4190.256, 4197.436, 450, 0, []
1627801672.0877, 68, 0, 4173.846, 4233.333, 4177.436, 4195.385, 4195.897, 16159, 0, []
1627801672.0955, 69, 0, 4163.077, 4235.897, 4188.718, 4189.744, 4186.154, 450, 0, []
1627801672.1034, 70, 0, 4142.564, 4216.41, 4181.538, 4183.077, 4167.179, 263, 0, []
1627801672.1112, 71, 0, 4143.59, 4209.231, 4180, 4185.128, 4161.538, 450, 0, []
1627801672.119, 72, 0, 4154.872, 4226.667, 4188.718, 4187.179, 4181.026, 450, 0, []
1627801672.1268, 73, 0, 4153.333, 4218.974, 4171.282, 4181.026, 4190.769, 16157, 0, []
1627801672.1348, 74, 0, 4150.769, 4214.359, 4165.128, 4171.795, 4175.385, 450, 0, []
1627801672.1427, 75, 0, 4150.256, 4229.744, 4164.615, 4169.231, 4167.179, 16194, 0, []
1627801672.1507, 76, 0, 4141.026, 4213.333, 4167.179, 4176.923, 4168.718, 450, 0, []
1627801672.1585, 77, 0, 4134.872, 4195.897, 4176.923, 4185.128, 4165.128, 450, 0, []
1627801672.1665, 78, 0, 4150.769, 4219.487, 4181.538, 4195.385, 4173.846, 450, 0, []
1627801672.1744, 79, 0, 4165.128, 4220.513, 4198.462, 4201.026, 4186.154, 16194, 0, []
1627801672.1824, 80, 0, 4162.564, 4194.359, 4191.795, 4187.692, 4178.462, 450, 0, []
1627801672.1903, 81, 0, 4159.487, 4203.59, 4173.333, 4172.821, 4167.692, 450, 0, []
1627801672.1982, 82, 0, 4153.333, 4212.308, 4171.282, 4168.205, 4165.128, 450, 0, []
1627801672.2061, 83, 0, 4143.077, 4204.103, 4160.513, 4166.667, 4160.513, 16194, 0, []
1627801672.2139, 84, 0, 4149.744, 4226.154, 4174.872, 4175.897, 4167.179, 450, 0, []
1627801672.2218, 85, 0, 4162.564, 4242.564, 4183.077, 4189.744, 4180.513, 450, 0, []
1627801672.2296, 86, 0, 4157.436, 4222.051, 4167.692, 4188.718, 4176.41, 450, 0, []
1627801672.2374, 87, 0, 4149.231, 4212.308, 4175.897, 4187.179, 4162.051, 16194, 0, []
1627801672.2452, 88, 0, 4147.179, 4216.923, 4167.692, 4183.59, 4154.872, 450, 0, []
1627801672.2531, 89, 0, 4133.846, 4204.615, 4161.026, 4163.59, 4147.692, 450, 0, []
1627801672.2609, 90, 0, 4127.692, 4198.974, 4173.333, 4156.923, 4145.128, 450, 0, []
1627801672.2688, 91, 0, 4150.256, 4218.462, 4183.59, 4181.026, 4164.615, 16194, 0, []
1627801672.2765, 92, 0, 4180.513, 4221.026, 4192.821, 4204.103, 4189.231, 450, 0, []
1627801672.2845, 93, 0, 4180.513, 4198.462, 4176.923, 4203.077, 4191.795, 450, 0, []
1627801672.2924, 94, 0, 4163.077, 4207.179, 4173.846, 4197.436, 4181.538, 450, 0, []
1627801672.3004, 95, 0, 4167.179, 4225.128, 4177.949, 4197.436, 4182.564, 16194, 0, []
1627801672.3083, 96, 0, 4179.487, 4220.513, 4166.154, 4192.308, 4189.744, 450, 0, []
1627801672.3162, 97, 0, 4184.615, 4224.103, 4172.821, 4183.59, 4195.385, 450, 0, []
1627801672.3241, 98, 0, 4199.487, 4227.692, 4174.359, 4180.513, 4209.231, 450, 0, []
1627801672.3321, 99, 0, 4229.231, 4225.641, 4174.359, 4185.641, 4233.846, 16194, 0, []
1627801672.34, 100, 0, 4277.436, 4238.974, 4180.513, 4196.923, 4276.923, 450, 0, []
1627801672.348, 101, 0, 4341.538, 4243.077, 4180.513, 4206.667, 4332.821, 450, 0, []
1627801672.3558, 102, 0, 4409.231, 4234.872, 4187.692, 4202.564, 4381.538, 450, 0, []
1627801672.3638, 103, 0, 4478.974, 4248.718, 4179.487, 4189.231, 4423.077, 16194, 0, []
1627801672.3717, 104, 0, 4529.744, 4238.974, 4174.872, 4181.538, 4453.846, 450, 0, []
1627801672.3795, 105, 0, 4543.077, 4204.103, 4182.051, 4185.128, 4461.538, 450, 0, []
1627801672.3874, 106, 0, 4536.923, 4217.436, 4178.974, 4194.359, 4453.846, 450, 0, []
1627801672.3951, 107, 0, 4516.41, 4235.385, 4191.282, 4197.949, 4440, 16194, 0, []
1627801672.403, 108, 0, 4486.154, 4220.513, 4191.282, 4199.487, 4420.513, 450, 0, []
1627801672.4108, 109, 0, 4463.59, 4210.256, 4187.179, 4203.077, 4401.026, 450, 0, []
1627801672.4187, 110, 0, 4432.308, 4201.026, 4194.359, 4199.487, 4379.487, 450, 0, []
1627801672.4265, 111, 0, 4388.718, 4201.026, 4182.564, 4198.462, 4353.846, 16194, 0, []
1627801672.4343, 112, 0, 4357.436, 4225.641, 4183.077, 4205.128, 4331.282, 450, 0, []
1627801672.4421, 113, 0, 4330.256, 4234.872, 4189.231, 4199.487, 4309.744, 450, 0, []
1627801672.4501, 114, 0, 4300, 4223.077, 4190.769, 4187.179, 4291.282, 450, 0, []
1627801672.458, 115, 0, 4279.487, 4235.385, 4194.872, 4191.795, 4271.795, 16194, 0, []
1627801672.466, 116, 0, 4265.128, 4250.769, 4186.154, 4203.59, 4252.821, 450, 0, []
1627801672.4738, 117, 0, 4251.795, 4242.051, 4198.974, 4202.564, 4242.051, 450, 0, []
1627801672.4817, 118, 0, 4240, 4252.308, 4200.513, 4191.795, 4237.949, 450, 0, []
1627801672.4897, 119, 0, 4223.077, 4263.077, 4184.103, 4186.667, 4228.718, 16194, 0, []
1627801672.4977, 120, 0, 4202.564, 4250.769, 4193.846, 4185.641, 4211.282, 450, 0, []
1627801672.5056, 121, 0, 4195.385, 4259.487, 4191.282, 4182.051, 4198.462, 450, 0, []
1627801672.5135, 122, 0, 4199.487, 4285.641, 4195.385, 4188.718, 4202.051, 450, 0, []
1627801672.5214, 123, 0, 4197.436, 4283.59, 4203.077, 4201.538, 4206.667, 16194, 0, []
1627801672.5292, 124, 0, 4185.128, 4257.949, 4188.718, 4200.513, 4191.282, 450, 0, []
1627801672.5371, 125, 0, 4173.846, 4260, 4189.744, 4192.308, 4181.538, 450, 0, []
1627801672.5449, 126, 0, 4163.59, 4277.436, 4183.077, 4185.128, 4183.59, 450, 0, []
1627801672.5528, 127, 0, 4150.256, 4275.385, 4177.436, 4175.897, 4171.795, 16194, 0, []
1627801672.5605, 128, 0, 4146.667, 4267.692, 4181.026, 4182.051, 4162.051, 450, 0, []
1627801672.5684, 0, 0, 4154.872, 4278.462, 4184.103, 4200.513, 4169.231, 450, 0, []
1627801672.5762, 1, 0, 4157.436, 4305.641, 4196.923, 4206.667, 4174.359, 450, 0, []
1627801672.5841, 2, 0, 4155.385, 4311.795, 4188.205, 4205.128, 4171.795, 16189, 0, []
1627801672.5919, 3, 0, 4152.308, 4284.103, 4185.128, 4199.487, 4170.769, 450, 0, []
1627801672.5998, 4, 0, 4138.462, 4255.897, 4188.718, 4183.59, 4168.205, 16161, 0, []
1627801672.6077, 5, 0, 4130.256, 4268.205, 4176.41, 4175.385, 4168.205, 450, 0, []
1627801672.6157, 6, 0, 4138.974, 4290.256, 4179.487, 4185.641, 4164.615, 261, 0, []
1627801672.6236, 7, 0, 4136.923, 4277.949, 4174.872, 4188.205, 4154.359, 450, 0, []
1627801672.6316, 8, 0, 4127.692, 4273.333, 4171.282, 4183.077, 4153.333, 450, 0, []
1627801672.6394, 9, 0, 4134.359, 4288.718, 4178.462, 4190.769, 4160.513, 16158, 0, []
1627801672.6474, 10, 0, 4141.538, 4282.564, 4176.41, 4203.59, 4160, 450, 0, []
1627801672.6553, 11, 0, 4137.436, 4265.641, 4186.154, 4203.59, 4156.923, 16194, 0, []
1627801672.6633, 12, 0, 4132.308, 4257.949, 4175.385, 4189.231, 4152.821, 450, 0, []
1627801672.6712, 13, 0, 4128.205, 4265.128, 4161.538, 4176.923, 4144.103, 450, 0, []
1627801672.6789, 14, 0, 4126.154, 4272.821, 4182.564, 4181.026, 4145.128, 450, 0, []
1627801672.6868, 15, 0, 4128.205, 4270.256, 4184.103, 4184.103, 4156.41, 16194, 0, []
1627801672.6946, 16, 0, 4123.59, 4263.59, 4176.41, 4182.564, 4152.821, 0, 0, []
1627801672.7025, 17, 0, 4121.026, 4248.205, 4173.846, 4190.769, 4140, 0, 0, []
1627801672.7103, 18, 0, 4127.179, 4234.872, 4173.333, 4197.949, 4138.974, 0, 0, []
1627801672.7181, 19, 0, 4123.077, 4253.846, 4180.513, 4189.231, 4138.462, 0, 0, []
1627801672.7259, 20, 0, 4123.077, 4281.538, 4177.436, 4182.051, 4135.385, 0, 0, []
1627801672.7338, 21, 0, 4145.641, 4269.744, 4188.718, 4185.641, 4146.667, 0, 0, []
1627801672.7416, 22, 0, 4161.538, 4269.744, 4195.897, 4188.718, 4159.487, 0, 0, []
1627801672.7495, 23, 0, 4151.795, 4301.026, 4190.769, 4189.231, 4153.846, 0, 0, []
1627801672.7572, 24, 0, 4133.333, 4287.692, 4191.795, 4183.077, 4133.846, 0, 0, []
1627801672.7652, 25, 0, 4116.41, 4263.077, 4167.692, 4167.179, 4119.487, 0, 0, []
1627801672.7731, 26, 0, 4105.641, 4286.667, 4163.077, 4161.538, 4120, 0, 0, []
1627801672.7811, 27, 0, 4115.385, 4300, 4182.051, 4175.385, 4133.846, 0, 0, []
1627801672.789, 28, 0, 4130.769, 4272.821, 4180, 4186.667, 4145.641, 0, 0, []
1627801672.7969, 29, 0, 4138.974, 4270.769, 4181.538, 4191.795, 4152.308, 0, 0, []
1627801672.8048, 30, 0, 4145.128, 4294.872, 4175.897, 4193.846, 4154.359, 0, 0, []
1627801672.8128, 31, 0, 4144.615, 4302.564, 4177.436, 4186.667, 4149.231, 0, 0, []
1627801672.8207, 32, 0, 4147.179, 4295.385, 4193.333, 4193.333, 4155.897, 0, 0, []
1627801672.8287, 33, 0, 4157.436, 4282.051, 4193.846, 4208.718, 4169.744, 0, 0, []
1627801672.8365, 34, 0, 4153.333, 4264.615, 4189.231, 4202.564, 4165.641, 0, 0, []
1627801672.8443, 35, 0, 4126.154, 4256.923, 4172.308, 4181.538, 4146.154, 0, 0, []
1627801672.8522, 36, 0, 4115.385, 4267.179, 4174.359, 4175.385, 4136.923, 0, 0, []
1627801672.86, 37, 0, 4133.846, 4283.077, 4186.667, 4184.103, 4150.769, 0, 0, []
1627801672.8679, 38, 0, 4150.256, 4278.974, 4175.385, 4195.385, 4167.692, 0, 0, []
1627801672.8756, 39, 0, 4152.821, 4258.974, 4187.692, 4203.077, 4172.308, 0, 0, []
1627801672.8835, 40, 0, 4153.333, 4265.641, 4197.436, 4201.538, 4170.256, 0, 0, []
1627801672.8913, 41, 0, 4152.308, 4284.103, 4194.872, 4196.923, 4168.718, 0, 0, []
1627801672.8992, 42, 0, 4150.769, 4265.128, 4196.923, 4199.487, 4167.692, 0, 0, []
1627801672.907, 43, 0, 4156.41, 4245.128, 4183.59, 4198.974, 4169.231, 0, 0, []
1627801672.9149, 44, 0, 4155.897, 4263.077, 4183.077, 4185.641, 4163.59, 0, 0, []
1627801672.9228, 45, 0, 4139.487, 4273.846, 4175.385, 4172.821, 4151.282, 0, 0, []
1627801672.9308, 46, 0, 4138.462, 4249.231, 4170.769, 4177.949, 4149.744, 0, 0, []
1627801672.9387, 47, 0, 4152.308, 4239.487, 4190.256, 4188.718, 4156.923, 0, 0, []
1627801672.9467, 48, 0, 4147.179, 4262.051, 4182.051, 4187.179, 4155.385, 0, 0, []
1627801672.9545, 49, 0, 4138.974, 4279.487, 4174.872, 4187.692, 4147.179, 0, 0, []
1627801672.9625, 50, 0, 4151.282, 4265.641, 4173.846, 4194.872, 4148.205, 0, 0, []
1627801672.9704, 51, 0, 4155.897, 4232.308, 4172.308, 4188.718, 4152.821, 0, 0, []
1627801672.9784, 52, 0, 4141.538, 4220, 4183.59, 4172.821, 4144.615, 0, 0, []
1627801672.9863, 53, 0, 4129.744, 4241.026, 4169.744, 4165.641, 4128.718, 0, 0, []
1627801672.994, 54, 0, 4125.641, 4236.923, 4160, 4162.564, 4119.487, 0, 0, []
1627801673.0019, 55, 0, 4129.744, 4203.077, 4164.103, 4156.923, 4120, 0, 0, []
1627801673.0097, 56, 0, 4137.949, 4201.538, 4167.179, 4155.385, 4129.231, 0, 0, []
1627801673.0176, 57, 0, 4138.974, 4211.282, 4177.436, 4164.615, 4136.923, 0, 0, []
1627801673.0254, 58, 0, 4147.179, 4210.769, 4171.795, 4178.974, 4141.538, 0, 0, []
1627801673.0332, 59, 0, 4153.846, 4213.846, 4176.41, 4190.256, 4140, 0, 0, []
1627801673.041, 60, 0, 4145.128, 4192.821, 4183.077, 4190.256, 4126.667, 0, 0, []
1627801673.0489, 61, 0, 4138.974, 4179.487, 4171.795, 4183.59, 4120.513, 0, 0, []
1627801673.0567, 62, 0, 4133.333, 4205.641, 4174.872, 4177.436, 4118.462, 0, 0, []
1627801673.0647, 63, 0, 4125.641, 4212.821, 4170.256, 4169.231, 4110.769, 0, 0, []
1627801673.0725, 64, 0, 4135.385, 4197.949, 4173.846, 4167.692, 4117.949, 450, 0, []
1627801673.0805, 65, 0, 4154.872, 4212.821, 4188.205, 4177.436, 4136.41, 450, 0, []
1627801673.0884, 66, 0, 4156.923, 4214.872, 4180, 4183.59, 4141.026, 16250, 0, []
1627801673.0964, 67, 0, 4146.154, 4183.59, 4172.821, 4181.026, 4138.974, 450, 0, []
1627801673.1043, 68, 0, 4145.641, 4168.718, 4170.769, 4180, 4143.077, 16209, 0, []
1627801673.1122, 69, 0, 4151.282, 4187.179, 4183.077, 4188.205, 4145.128, 450, 0, []
1627801673.1201, 70, 0, 4150.256, 4206.667, 4187.179, 4191.282, 4141.538, 258, 0, []
1627801673.1281, 71, 0, 4142.564, 4186.667, 4166.154, 4181.538, 4135.385, 450, 0, []
1627801673.136, 72, 0, 4139.487, 4150.256, 4174.872, 4173.846, 4134.359, 450, 0, []
1627801673.1438, 73, 0, 4144.103, 4158.462, 4181.026, 4178.974, 4140.513, 16158, 0, []
1627801673.1516, 74, 0, 4150.256, 4183.077, 4173.846, 4184.103, 4146.154, 450, 0, []
1627801673.1594, 75, 0, 4161.538, 4180.513, 4179.487, 4185.128, 4155.897, 16194, 0, []
1627801673.1673, 76, 0, 4173.333, 4176.923, 4176.923, 4190.769, 4163.59, 450, 0, []
1627801673.1751, 77, 0, 4163.077, 4172.308, 4175.385, 4182.564, 4153.846, 450, 0, []
1627801673.183, 78, 0, 4142.564, 4176.41, 4169.231, 4168.718, 4146.154, 450, 0, []
1627801673.1907, 79, 0, 4148.205, 4190.769, 4172.821, 4177.949, 4153.846, 16194, 0, []
1627801673.1986, 80, 0, 4167.179, 4174.359, 4185.641, 4190.769, 4157.436, 450, 0, []
1627801673.2064, 81, 0, 4167.179, 4154.872, 4168.205, 4183.077, 4156.923, 450, 0, []
1627801673.2143, 82, 0, 4167.692, 4176.923, 4174.872, 4180, 4171.795, 450, 0, []
1627801673.2221, 83, 0, 4190.769, 4194.359, 4189.744, 4191.795, 4193.846, 16194, 0, []
1627801673.23, 84, 0, 4219.487, 4171.795, 4180.513, 4198.462, 4212.821, 450, 0, []
1627801673.2379, 85, 0, 4241.538, 4158.462, 4184.103, 4193.333, 4232.821, 450, 0, []
1627801673.2459, 86, 0, 4261.026, 4178.974, 4176.923, 4185.641, 4244.103, 450, 0, []
1627801673.2538, 87, 0, 4290.256, 4196.41, 4175.897, 4186.154, 4257.949, 16194, 0, []
1627801673.2618, 88, 0, 4335.385, 4186.667, 4185.641, 4187.179, 4297.949, 450, 0, []
1627801673.2697, 89, 0, 4386.667, 4180.513, 4184.615, 4183.077, 4346.667, 450, 0, []
1627801673.2776, 90, 0, 4433.846, 4196.923, 4186.154, 4184.615, 4382.564, 450, 0, []
1627801673.2855, 91, 0, 4476.41, 4198.974, 4170.256, 4186.154, 4408.718, 16194, 0, []
1627801673.2935, 92, 0, 4522.564, 4188.205, 4174.359, 4183.59, 4437.949, 450, 0, []
1627801673.3014, 93, 0, 4552.821, 4196.41, 4190.769, 4185.128, 4460.513, 450, 0, []
1627801673.3092, 94, 0, 4551.795, 4214.872, 4175.897, 4185.641, 4464.103, 450, 0, []
1627801673.317, 95, 0, 4532.821, 4214.359, 4176.41, 4184.103, 4449.744, 16194, 0, []
1627801673.3248, 96, 0, 4506.667, 4182.051, 4180, 4184.615, 4422.051, 450, 0, []
1627801673.3327, 97, 0, 4472.308, 4169.231, 4173.333, 4179.487, 4394.872, 450, 0, []
1627801673.3405, 98, 0, 4443.59, 4198.462, 4170.769, 4177.949, 4383.077, 450, 0, []
1627801673.3484, 99, 0, 4413.846, 4191.282, 4162.051, 4179.487, 4367.179, 16194, 0, []
1627801673.3561, 100, 0, 4372.308, 4156.923, 4159.487, 4172.308, 4331.795, 450, 0, []
1627801673.364, 101, 0, 4333.846, 4176.41, 4147.692, 4163.077, 4298.462, 450, 0, []
1627801673.3718, 102, 0, 4308.205, 4200.513, 4153.333, 4168.205, 4278.462, 450, 0, []
1627801673.3798, 103, 0, 4292.308, 4171.795, 4177.436, 4183.077, 4267.179, 16194, 0, []
1627801673.3877, 104, 0, 4276.41, 4158.462, 4172.821, 4183.59, 4255.385, 450, 0, []
1627801673.3956, 105, 0, 4252.308, 4181.026, 4171.795, 4175.897, 4237.949, 450, 0, []
1627801673.4035, 106, 0, 4231.795, 4190.769, 4168.718, 4179.487, 4223.59, 450, 0, []
1627801673.4115, 107, 0, 4226.667, 4189.744, 4169.744, 4190.769, 4219.487, 16194, 0, []
1627801673.4194, 108, 0, 4219.487, 4186.667, 4179.487, 4194.872, 4218.462, 450, 0, []
1627801673.4274, 109, 0, 4206.154, 4191.282, 4170.769, 4194.872, 4212.821, 450, 0, []
1627801673.4352, 110, 0, 4201.538, 4207.179, 4183.59, 4192.821, 4205.641, 450, 0, []
1627801673.4432, 111, 0, 4193.846, 4217.436, 4191.282, 4192.308, 4197.949, 16194, 0, []
1627801673.4511, 112, 0, 4186.154, 4227.692, 4180, 4196.41, 4192.821, 450, 0, []
1627801673.4589, 113, 0, 4183.077, 4247.692, 4184.103, 4191.795, 4188.205, 450, 0, []
1627801673.4668, 114, 0, 4175.385, 4255.385, 4180, 4182.564, 4180.513, 450, 0, []
1627801673.4745, 115, 0, 4166.154, 4250.256, 4188.718, 4182.564, 4171.282, 16194, 0, []
1627801673.4824, 116, 0, 4167.692, 4269.744, 4193.333, 4185.128, 4168.205, 450, 0, []
1627801673.4903, 117, 0, 4170.256, 4278.462, 4178.462, 4182.564, 4170.769, 450, 0, []
1627801673.4981, 118, 0, 4165.128, 4260.513, 4189.231, 4183.59, 4169.744, 450, 0, []
1627801673.5059, 119, 0, 4167.692, 4269.231, 4196.41, 4193.846, 4177.949, 16194, 0, []
1627801673.5137, 120, 0, 4173.846, 4282.564, 4193.333, 4201.538, 4187.179, 450, 0, []
1627801673.5215, 121, 0, 4160.513, 4262.564, 4185.128, 4192.308, 4173.333, 450, 0, []
1627801673.5295, 122, 0, 4148.718, 4255.897, 4175.897, 4182.564, 4156.923, 450, 0, []
1627801673.5374, 123, 0, 4158.974, 4280, 4184.103, 4192.821, 4161.538, 16194, 0, []
1627801673.5454, 124, 0, 4160.513, 4280.513, 4176.923, 4199.487, 4167.692, 450, 0, []
1627801673.5532, 125, 0, 4150.769, 4278.974, 4186.154, 4197.436, 4166.667, 450, 0, []
1627801673.5612, 126, 0, 4156.923, 4284.615, 4199.487, 4201.538, 4167.692, 450, 0, []
1627801673.5691, 127, 0, 4155.897, 4265.128, 4180, 4198.462, 4160, 16194, 0, []
1627801673.5771, 128, 0, 4144.615, 4267.692, 4183.59, 4194.872, 4150.769, 450, 0, []
1627801673.585, 0, 0, 4151.795, 4274.359, 4191.795, 4196.923, 4155.385, 450, 0, []
1627801673.5929, 1, 0, 4156.923, 4250.769, 4184.615, 4191.795, 4158.974, 450, 0, []
1627801673.6008, 2, 0, 4140.513, 4255.385, 4177.949, 4179.487, 4150.769, 16201, 0, []
1627801673.6086, 3, 0, 4136.923, 4271.282, 4174.872, 4178.974, 4148.718, 450, 0, []
1627801673.6165, 4, 0, 4151.795, 4252.821, 4195.385, 4191.795, 4155.385, 16171, 0, []
1627801673.6243, 5, 0, 4155.385, 4267.692, 4193.333, 4197.436, 4154.872, 450, 0, []
1627801673.6321, 6, 0, 4146.154, 4288.205, 4174.872, 4189.231, 4150.256, 257, 0, []
1627801673.6399, 7, 0, 4141.026, 4247.692, 4178.974, 4182.564, 4149.744, 450, 0, []
1627801673.6478, 8, 0, 4143.59, 4241.026, 4179.487, 4186.667, 4153.846, 450, 0, []
1627801673.6556, 9, 0, 4144.103, 4272.821, 4182.051, 4187.179, 4154.359, 16158, 0, []
1627801673.6635, 10, 0, 4137.949, 4266.667, 4174.872, 4183.59, 4150.256, 450, 0, []
1627801673.6712, 11, 0, 4131.282, 4261.538, 4165.128, 4180, 4143.077, 16194, 0, []
1627801673.6791, 12, 0, 4130.769, 4281.026, 4177.436, 4175.897, 4138.462, 450, 0, []
1627801673.6869, 13, 0, 4137.949, 4277.436, 4180, 4185.128, 4149.744, 450, 0, []
1627801673.6949, 14, 0, 4146.667, 4244.103, 4186.154, 4199.487, 4164.615, 450, 0, []
1627801673.7028, 15, 0, 4150.256, 4227.692, 4180.513, 4195.897, 4161.026, 16194, 0, []
1627801673.7107, 16, 0, 4143.077, 4243.077, 4168.718, 4180.513, 4151.282, 0, 0, []
1627801673.7186, 17, 0, 4135.385, 4268.718, 4175.897, 4175.385, 4148.205, 0, 0, []
1627801673.7266, 18, 0, 4143.59, 4267.179, 4166.667, 4178.462, 4149.231, 0, 0, []
1627801673.7345, 19, 0, 4156.41, 4247.179, 4174.872, 4187.179, 4160.513, 0, 0, []
1627801673.7425, 20, 0, 4158.974, 4257.949, 4188.205, 4196.41, 4169.744, 0, 0, []
1627801673.7503, 21, 0, 4153.846, 4276.923, 4176.923, 4191.282, 4160, 0, 0, []
1627801673.7583, 22, 0, 4150.256, 4274.359, 4176.923, 4183.59, 4156.923, 0, 0, []
1627801673.7662, 23, 0, 4155.385, 4268.718, 4174.872, 4183.077, 4167.692, 0, 0, []
1627801673.774, 24, 0, 4167.179, 4268.205, 4183.59, 4188.205, 4170.256, 0, 0, []
1627801673.7819, 25, 0, 4171.795, 4264.615, 4192.308, 4196.923, 4172.821, 0, 0, []
1627801673.7896, 26, 0, 4168.205, 4266.667, 4183.077, 4197.949, 4182.051, 0, 0, []
1627801673.7975, 27, 0, 4174.359, 4278.974, 4188.718, 4193.846, 4183.59, 0, 0, []
1627801673.8053, 28, 0, 4190.769, 4286.667, 4192.821, 4197.436, 4187.179, 0, 0, []
1627801673.8132, 29, 0, 4200, 4277.436, 4201.538, 4206.154, 4201.538, 0, 0, []
1627801673.821, 30, 0, 4203.59, 4250.256, 4201.026, 4198.974, 4207.692, 0, 0, []
1627801673.8288, 31, 0, 4219.487, 4240, 4175.385, 4177.436, 4213.846, 0, 0, []
1627801673.8366, 32, 0, 4259.487, 4263.59, 4178.974, 4167.179, 4244.615, 0, 0, []
1627801673.8446, 33, 0, 4321.026, 4267.692, 4183.077, 4177.436, 4296.923, 0, 0, []
1627801673.8525, 34, 0, 4390.256, 4240.513, 4171.282, 4186.154, 4345.128, 0, 0, []
1627801673.8605, 35, 0, 4464.103, 4243.59, 4175.385, 4187.692, 4390.256, 0, 0, []
1627801673.8683, 36, 0, 4543.59, 4269.744, 4196.923, 4208.718, 4450.769, 0, 0, []
1627801673.8763, 37, 0, 4583.077, 4271.282, 4223.077, 4227.179, 4494.872, 0, 0, []
1627801673.8842, 38, 0, 4561.538, 4259.487, 4201.026, 4210.769, 4484.615, 0, 0, []
1627801673.8922, 39, 0, 4523.077, 4242.051, 4179.487, 4183.077, 4440.513, 0, 0, []
1627801673.9001, 40, 0, 4483.077, 4233.333, 4189.744, 4165.641, 4394.359, 0, 0, []
1627801673.908, 41, 0, 4448.205, 4256.41, 4176.923, 4165.641, 4369.744, 0, 0, []
1627801673.9159, 42, 0, 4441.538, 4267.692, 4186.154, 4193.846, 4376.41, 0, 0, []
1627801673.9237, 43, 0, 4430.256, 4230.769, 4207.179, 4220.513, 4380.513, 0, 0, []
1627801673.9316, 44, 0, 4384.615, 4217.436, 4203.077, 4220, 4351.282, 0, 0, []
1627801673.9394, 45, 0, 4346.667, 4261.026, 4196.41, 4212.308, 4315.897, 0, 0, []
1627801673.9472, 46, 0, 4329.744, 4272.308, 4181.026, 4209.744, 4297.436, 0, 0, []
1627801673.955, 47, 0, 4303.077, 4237.949, 4183.59, 4201.538, 4275.897, 0, 0, []
1627801673.9629, 48, 0, 4270.256, 4221.026, 4189.231, 4185.641, 4251.282, 0, 0, []
1627801673.9707, 49, 0, 4246.667, 4216.923, 4183.59, 4174.359, 4242.051, 0, 0, []
1627801673.9786, 50, 0, 4232.821, 4218.974, 4197.949, 4176.41, 4240.513, 0, 0, []
1627801673.9863, 51, 0, 4226.667, 4230.769, 4198.974, 4181.538, 4231.282, 0, 0, []
1627801673.9943, 52, 0, 4220.513, 4226.667, 4194.872, 4183.077, 4219.487, 0, 0, []
1627801674.0022, 53, 0, 4205.128, 4207.179, 4192.821, 4190.769, 4207.692, 0, 0, []
1627801674.0102, 54, 0, 4185.128, 4223.59, 4181.026, 4195.897, 4192.308, 0, 0, []
1627801674.0181, 55, 0, 4168.718, 4254.872, 4182.564, 4191.282, 4180, 0, 0, []
1627801674.0261, 56, 0, 4153.846, 4242.051, 4173.846, 4186.667, 4166.154, 0, 0, []
1627801674.0339, 57, 0, 4139.487, 4222.564, 4171.282, 4181.026, 4148.718, 0, 0, []
1627801674.0419, 58, 0, 4134.872, 4208.205, 4176.41, 4173.846, 4147.692, 0, 0, []
1627801674.0498, 59, 0, 4142.051, 4197.436, 4178.462, 4173.846, 4153.846, 0, 0, []
1627801674.0578, 60, 0, 4140.513, 4207.692, 4186.667, 4172.821, 4143.59, 0, 0, []
1627801674.0657, 61, 0, 4131.795, 4216.41, 4170.256, 4166.154, 4136.41, 0, 0, []
1627801674.0736, 62, 0, 4139.487, 4199.487, 4166.667, 4174.872, 4149.744, 0, 0, []
1627801674.0815, 63, 0, 4154.872, 4192.821, 4180.513, 4195.897, 4164.103, 0, 0, []
1627801674.0893, 64, 0, 4161.026, 4212.821, 4171.795, 4205.641, 4169.231, 450, 0, []
1627801674.0972, 65, 0, 4161.538, 4206.667, 4180, 4205.641, 4172.308, 450, 0, []
1627801674.105, 66, 0, 4158.462, 4191.282, 4189.231, 4199.487, 4173.846, 16193, 0, []
1627801674.1128, 67, 0, 4150.256, 4196.923, 4197.949, 4188.205, 4166.667, 450, 0, []
1627801674.1206, 68, 0, 4135.385, 4193.846, 4200.513, 4177.436, 4149.744, 16166, 0, []
1627801674.1285, 69, 0, 4115.897, 4186.667, 4172.308, 4169.744, 4134.359, 450, 0, []
1627801674.1363, 70, 0, 4108.205, 4193.846, 4171.795, 4163.59, 4131.795, 258, 0, []
1627801674.1442, 71, 0, 4120, 4195.385, 4178.974, 4166.667, 4138.462, 450, 0, []
1627801674.1519, 72, 0, 4129.231, 4166.667, 4163.59, 4176.923, 4149.231, 450, 0, []
1627801674.1599, 73, 0, 4122.564, 4161.026, 4167.179, 4185.641, 4154.359, 16158, 0, []
1627801674.1678, 74, 0, 4120, 4195.385, 4175.385, 4195.385, 4153.846, 450, 0, []
1627801674.1758, 75, 0, 4126.154, 4197.949, 4185.641, 4198.974, 4154.359, 16194, 0, []
1627801674.1837, 76, 0, 4127.692, 4172.308, 4180, 4188.205, 4149.231, 450, 0, []
1627801674.1916, 77, 0, 4122.564, 4188.205, 4172.308, 4183.59, 4136.41, 450, 0, []
1627801674.1995, 78, 0, 4122.564, 4211.795, 4181.538, 4189.231, 4132.308, 450, 0, []
1627801674.2075, 79, 0, 4128.205, 4192.308, 4170.256, 4185.128, 4141.538, 16194, 0, []
1627801674.2154, 80, 0, 4137.436, 4194.359, 4173.846, 4182.051, 4149.744, 450, 0, []
1627801674.2234, 81, 0, 4140.513, 4222.564, 4180.513, 4187.692, 4155.897, 450, 0, []
1627801674.2312, 82, 0, 4126.154, 4214.872, 4167.692, 4176.923, 4152.308, 450, 0, []
1627801674.239, 83, 0, 4115.385, 4181.026, 4169.231, 4166.667, 4138.974, 16194, 0, []
1627801674.2469, 84, 0, 4119.487, 4171.282, 4157.436, 4172.821, 4132.308, 450, 0, []
1627801674.2547, 85, 0, 4117.436, 4187.692, 4151.282, 4174.359, 4131.795, 450, 0, []
1627801674.2626, 86, 0, 4117.949, 4206.154, 4165.641, 4184.103, 4134.872, 450, 0, []
1627801674.2703, 87, 0, 4126.154, 4207.692, 4173.846, 4202.051, 4137.436, 16194, 0, []
1627801674.2782, 88, 0, 4122.051, 4187.692, 4175.897, 4190.769, 4126.154, 450, 0, []
1627801674.286, 89, 0, 4122.564, 4188.718, 4164.615, 4172.308, 4116.923, 450, 0, []
1627801674.2939, 90, 0, 4141.538, 4216.923, 4171.282, 4182.564, 4131.282, 450, 0, []
1627801674.3017, 91, 0, 4141.026, 4207.692, 4182.564, 4185.641, 4136.41, 16194, 0, []
1627801674.3096, 92, 0, 4127.179, 4172.308, 4168.205, 4169.231, 4123.077, 450, 0, []
1627801674.3175, 93, 0, 4123.59, 4187.179, 4164.103, 4166.154, 4120.513, 450, 0, []
1627801674.3255, 94, 0, 4112.821, 4216.923, 4155.897, 4164.103, 4121.538, 450, 0, []
1627801674.3334, 95, 0, 4104.103, 4200, 4164.103, 4164.103, 4114.359, 16194, 0, []
1627801674.3414, 96, 0, 4118.974, 4180, 4183.59, 4189.744, 4118.974, 450, 0, []
1627801674.3492, 97, 0, 4130.256, 4178.974, 4171.282, 4205.128, 4130.256, 450, 0, []
1627801674.3572, 98, 0, 4121.026, 4186.154, 4172.821, 4190.256, 4125.641, 450, 0, []
1627801674.3651, 99, 0, 4116.923, 4187.179, 4173.846, 4181.026, 4122.564, 16194, 0, []
1627801674.3731, 100, 0, 4128.205, 4166.154, 4170.256, 4188.718, 4134.872, 450, 0, []
1627801674.381, 101, 0, 4137.949, 4165.641, 4177.436, 4190.769, 4141.538, 450, 0, []
1627801674.3887, 102, 0, 4138.462, 4197.949, 4171.282, 4186.667, 4138.462, 450, 0, []
1627801674.3966, 103, 0, 4137.949, 4204.103, 4176.41, 4187.692, 4137.436, 16194, 0, []
1627801674.4044, 104, 0, 4135.385, 4184.103, 4174.359, 4182.564, 4132.821, 450, 0, []
1627801674.4123, 105, 0, 4124.103, 4162.051, 4161.538, 4171.795, 4118.974, 450, 0, []
1627801674.4201, 106, 0, 4107.692, 4152.308, 4166.154, 4164.103, 4106.154, 450, 0, []
1627801674.4279, 107, 0, 4107.179, 4166.154, 4169.231, 4166.154, 4108.718, 16194, 0, []
1627801674.4357, 108, 0, 4121.538, 4173.333, 4176.923, 4178.974, 4120.513, 450, 0, []
1627801674.4436, 109, 0, 4124.103, 4161.026, 4172.821, 4183.077, 4117.949, 450, 0, []
1627801674.4514, 110, 0, 4117.949, 4148.718, 4162.051, 4180, 4112.821, 450, 0, []
1627801674.4593, 111, 0, 4118.462, 4151.795, 4170.769, 4180, 4120.513, 16194, 0, []
1627801674.467, 112, 0, 4119.487, 4167.692, 4163.077, 4177.436, 4114.872, 450, 0, []
1627801674.475, 113, 0, 4117.436, 4180.513, 4164.615, 4165.128, 4101.538, 450, 0, []
1627801674.4829, 114, 0, 4122.051, 4175.385, 4175.897, 4162.564, 4116.923, 450, 0, []
1627801674.4909, 115, 0, 4131.282, 4178.974, 4176.41, 4180, 4137.436, 16194, 0, []
1627801674.4988, 116, 0, 4135.385, 4212.821, 4184.103, 4189.231, 4127.692, 450, 0, []
1627801674.5067, 117, 0, 4138.974, 4228.205, 4172.821, 4184.615, 4123.077, 450, 0, []
1627801674.5146, 118, 0, 4142.051, 4222.051, 4172.821, 4187.692, 4138.974, 450, 0, []
1627801674.5226, 119, 0, 4138.974, 4223.077, 4178.974, 4189.231, 4143.59, 16194, 0, []
1627801674.5305, 120, 0, 4134.872, 4234.872, 4165.641, 4175.897, 4135.897, 450, 0, []
1627801674.5385, 121, 0, 4131.795, 4242.564, 4174.872, 4168.718, 4136.923, 450, 0, []
1627801674.5463, 122, 0, 4127.179, 4224.103, 4181.026, 4176.41, 4135.897, 450, 0, []
1627801674.5541, 123, 0, 4122.564, 4215.385, 4178.974, 4172.821, 4122.564, 16194, 0, []
1627801674.562, 124, 0, 4128.205, 4245.128, 4181.026, 4166.154, 4119.487, 450, 0, []
1627801674.5698, 125, 0, 4140, 4263.59, 4178.462, 4173.846, 4130.769, 450, 0, []
1627801674.5777, 126, 0, 4137.949, 4239.487, 4189.231, 4182.051, 4140, 450, 0, []
1627801674.5854, 127, 0, 4126.667, 4223.077, 4184.103, 4175.385, 4135.897, 16194, 0, []
1627801674.5933, 128, 0, 4117.436, 4252.308, 4180.513, 4167.179, 4118.974, 450, 0, []
1627801674.6011, 0, 0, 4122.564, 4278.462, 4187.179, 4174.359, 4118.974, 450, 0, []
1627801674.6091, 1, 0, 4137.436, 4259.487, 4173.333, 4188.205, 4147.179, 450, 0, []
1627801674.617, 2, 0, 4137.949, 4229.744, 4173.333, 4191.282, 4156.41, 16193, 0, []
1627801674.6249, 3, 0, 4119.487, 4238.462, 4169.231, 4187.692, 4135.385, 450, 0, []
1627801674.6328, 4, 0, 4105.128, 4261.026, 4168.718, 4186.154, 4123.077, 16164, 0, []
1627801674.6408, 5, 0, 4106.154, 4250.769, 4182.051, 4185.641, 4122.051, 450, 0, []
1627801674.6487, 6, 0, 4105.128, 4250.256, 4165.641, 4184.615, 4119.487, 260, 0, []
1627801674.6567, 7, 0, 4103.59, 4277.436, 4160, 4185.641, 4120.513, 450, 0, []
1627801674.6645, 8, 0, 4109.231, 4268.205, 4166.154, 4181.538, 4121.538, 450, 0, []
1627801674.6725, 9, 0, 4116.41, 4238.462, 4170.769, 4180, 4124.103, 16158, 0, []
1627801674.6804, 10, 0, 4121.026, 4259.487, 4188.205, 4191.795, 4133.846, 450, 0, []
1627801674.6884, 11, 0, 4121.538, 4290.769, 4182.051, 4198.462, 4136.923, 16194, 0, []
1627801674.6963, 12, 0, 4117.949, 4270.769, 4174.359, 4188.205, 4134.872, 450, 0, []
1627801674.704, 13, 0, 4112.821, 4255.385, 4177.436, 4182.564, 4137.949, 450, 0, []
1627801674.7119, 14, 0, 4116.923, 4263.59, 4180.513, 4190.769, 4137.949, 450, 0, []
1627801674.7197, 15, 0, 4127.692, 4246.667, 4190.256, 4200, 4134.359, 16194, 0, []
1627801674.7276, 16, 0, 4137.436, 4243.59, 4183.59, 4205.128, 4140, 0, 0, []
1627801674.7354, 17, 0, 4142.564, 4276.923, 4182.564, 4206.154, 4150.256, 0, 0, []
1627801674.7432, 18, 0, 4141.026, 4273.333, 4178.462, 4207.179, 4155.897, 0, 0, []
1627801674.751, 19, 0, 4137.949, 4236.923, 4166.667, 4210.256, 4150.769, 0, 0, []
1627801674.7589, 20, 0, 4140, 4247.179, 4181.538, 4207.179, 4142.051, 0, 0, []
1627801674.7667, 21, 0, 4137.949, 4280.513, 4182.051, 4193.333, 4138.462, 0, 0, []
1627801674.7747, 22, 0, 4133.333, 4280.513, 4175.385, 4187.692, 4137.436, 0, 0, []
1627801674.7826, 23, 0, 4134.872, 4272.821, 4174.872, 4193.846, 4139.487, 0, 0, []
1627801674.7905, 24, 0, 4131.795, 4267.179, 4165.641, 4193.333, 4143.59, 0, 0, []
1627801674.7984, 25, 0, 4119.487, 4257.436, 4169.744, 4187.692, 4136.923, 0, 0, []
1627801674.8064, 26, 0, 4116.923, 4235.897, 4163.077, 4185.128, 4123.077, 0, 0, []
1627801674.8143, 27, 0, 4123.59, 4223.077, 4166.154, 4186.154, 4125.128, 0, 0, []
1627801674.8223, 28, 0, 4123.59, 4245.641, 4184.615, 4189.744, 4135.385, 0, 0, []
1627801674.8301, 29, 0, 4118.462, 4251.795, 4173.846, 4186.154, 4135.385, 0, 0, []
1627801674.8381, 30, 0, 4120.513, 4230.256, 4172.308, 4182.564, 4136.41, 0, 0, []
1627801674.846, 31, 0, 4131.795, 4242.564, 4174.359, 4187.692, 4145.128, 0, 0, []
1627801674.8539, 32, 0, 4140.513, 4276.923, 4170.256, 4192.308, 4152.308, 0, 0, []
1627801674.8618, 33, 0, 4149.744, 4268.718, 4177.436, 4195.385, 4161.538, 0, 0, []
1627801674.8695, 34, 0, 4162.051, 4243.077, 4176.41, 4205.128, 4166.154, 0, 0, []
1627801674.8774, 35, 0, 4158.462, 4231.282, 4183.59, 4206.667, 4158.974, 0, 0, []
1627801674.8852, 36, 0, 4151.282, 4227.692, 4186.667, 4198.974, 4156.41, 0, 0, []
1627801674.8931, 37, 0, 4162.564, 4258.462, 4190.769, 4200.513, 4171.282, 0, 0, []
1627801674.9009, 38, 0, 4171.282, 4268.718, 4196.41, 4196.41, 4180.513, 0, 0, []
1627801674.9087, 39, 0, 4164.615, 4223.077, 4178.974, 4183.077, 4170.256, 0, 0, []
1627801674.9165, 40, 0, 4163.59, 4209.231, 4182.051, 4182.564, 4169.231, 0, 0, []
1627801674.9244, 41, 0, 4164.103, 4241.026, 4183.077, 4182.564, 4177.436, 0, 0, []
1627801674.9322, 42, 0, 4169.231, 4243.59, 4175.385, 4180, 4180.513, 0, 0, []
1627801674.9402, 43, 0, 4194.872, 4215.897, 4182.051, 4184.103, 4190.256, 0, 0, []
1627801674.948, 44, 0, 4243.59, 4216.923, 4167.692, 4184.615, 4232.308, 0, 0, []
1627801674.956, 45, 0, 4310.769, 4231.795, 4173.333, 4184.615, 4294.872, 0, 0, []
1627801674.9639, 46, 0, 4380, 4239.487, 4188.205, 4187.692, 4346.667, 0, 0, []
1627801674.9719, 47, 0, 4442.564, 4254.872, 4180, 4189.744, 4393.333, 0, 0, []
1627801674.9798, 48, 0, 4502.051, 4261.026, 4183.59, 4197.436, 4441.538, 0, 0, []
1627801674.9877, 49, 0, 4538.974, 4252.308, 4178.974, 4202.051, 4475.385, 0, 0, []
1627801674.9956, 50, 0, 4542.051, 4246.667, 4178.462, 4194.359, 4476.923, 0, 0, []
1627801675.0035, 51, 0, 4530.256, 4244.103, 4184.615, 4194.872, 4457.949, 0, 0, []
1627801675.0114, 52, 0, 4508.205, 4227.692, 4179.487, 4203.077, 4438.462, 0, 0, []
1627801675.0192, 53, 0, 4473.333, 4212.821, 4187.692, 4195.385, 4417.949, 0, 0, []
1627801675.027, 54, 0, 4436.923, 4216.923, 4187.179, 4183.59, 4393.333, 0, 0, []
1627801675.0348, 55, 0, 4402.051, 4227.692, 4178.974, 4184.615, 4361.026, 0, 0, []
1627801675.0427, 56, 0, 4362.051, 4234.872, 4167.692, 4183.077, 4323.59, 0, 0, []
1627801675.0505, 57, 0, 4323.077, 4218.462, 4155.385, 4170.256, 4285.641, 0, 0, []
1627801675.0584, 58, 0, 4293.846, 4196.41, 4164.103, 4167.179, 4260.513, 0, 0, []
1627801675.0661, 59, 0, 4281.026, 4207.179, 4160, 4176.923, 4260, 0, 0, []
1627801675.074, 60, 0, 4278.462, 4214.872, 4167.692, 4186.667, 4267.179, 0, 0, []
1627801675.0818, 61, 0, 4272.821, 4192.821, 4191.282, 4196.923, 4263.077, 0, 0, []
1627801675.0898, 62, 0, 4257.436, 4185.641, 4177.436, 4195.897, 4252.308, 0, 0, []
1627801675.0977, 63, 0, 4235.385, 4209.231, 4166.667, 4176.923, 4234.359, 0, 0, []
1627801675.1056, 64, 0, 4220, 4215.897, 4167.179, 4171.795, 4218.974, 450, 0, []
1627801675.1135, 65, 0, 4211.795, 4198.462, 4174.872, 4186.154, 4216.41, 450, 0, []
1627801675.1215, 66, 0, 4200.513, 4198.462, 4189.231, 4189.744, 4208.718, 16189, 0, []
1627801675.1294, 67, 0, 4193.846, 4205.128, 4180.513, 4182.564, 4196.41, 450, 0, []
1627801675.1374, 68, 0, 4195.897, 4201.026, 4185.641, 4184.103, 4197.436, 16164, 0, []
1627801675.1452, 69, 0, 4204.103, 4208.205, 4189.231, 4188.718, 4204.615, 450, 0, []
1627801675.1532, 70, 0, 4206.667, 4227.692, 4178.974, 4190.256, 4207.179, 262, 0, []
1627801675.1611, 71, 0, 4189.231, 4227.179, 4172.821, 4186.154, 4198.462, 450, 0, []
1627801675.1689, 72, 0, 4166.154, 4215.385, 4155.385, 4176.41, 4176.41, 450, 0, []
1627801675.1768, 73, 0, 4164.103, 4212.821, 4169.231, 4181.538, 4164.615, 16158, 0, []
1627801675.1845, 74, 0, 4173.333, 4210.256, 4184.103, 4193.333, 4175.385, 450, 0, []
1627801675.1924, 75, 0, 4178.974, 4215.897, 4176.41, 4189.231, 4187.692, 16194, 0, []
1627801675.2002, 76, 0, 4186.154, 4218.462, 4189.744, 4187.179, 4189.231, 450, 0, []
1627801675.2081, 77, 0, 4183.59, 4209.231, 4189.231, 4197.436, 4188.205, 450, 0, []
1627801675.2159, 78, 0, 4176.41, 4224.615, 4181.538, 4200.513, 4187.179, 450, 0, []
1627801675.2237, 79, 0, 4171.282, 4238.974, 4174.359, 4190.769, 4181.538, 16194, 0, []
1627801675.2315, 80, 0, 4156.923, 4202.564, 4165.128, 4176.923, 4170.256, 450, 0, []
