Timestamp, COUNTER, INTERPOLATED, AF3, T7, Pz, T8, AF4, RAW_CQ, MARKER_HARDWARE, MARKERS
1630163324.5105, 41, 0, 4209.744, 4135.897, 4058.462, 4122.564, 4130.256, 0, 0, []
1630163324.5184, 42, 0, 4240.513, 4168.718, 4106.667, 4150.256, 4160.513, 0, 0, []
1630163324.5262, 43, 0, 4257.949, 4175.385, 4097.949, 4164.103, 4175.385, 0, 0, []
1630163324.5341, 44, 0, 4247.179, 4168.205, 4091.795, 4148.718, 4164.615, 0, 0, []
1630163324.542, 45, 0, 4245.128, 4172.821, 4108.205, 4146.154, 4155.385, 0, 0, []
1630163324.55, 46, 0, 4247.179, 4164.103, 4083.59, 4147.179, 4157.436, 0, 0, []
1630163324.5579, 47, 0, 4230.256, 4152.821, 4100, 4132.821, 4148.718, 0, 0, []
1630163324.5659, 48, 0, 4214.359, 4164.103, 4080, 4119.487, 4136.41, 0, 0, []
1630163324.5737, 49, 0, 4211.282, 4139.487, 4075.385, 4122.564, 4134.872, 0, 0, []
1630163324.5817, 50, 0, 4204.615, 4098.462, 4094.359, 4125.128, 4137.949, 0, 0, []
1630163324.5896, 51, 0, 4203.077, 4120.513, 4076.923, 4128.718, 4144.103, 0, 0, []
1630163324.5976, 52, 0, 4226.154, 4136.923, 4108.718, 4147.692, 4161.538, 0, 0, []
1630163324.6055, 53, 0, 4235.897, 4095.897, 4094.359, 4146.154, 4164.103, 0, 0, []
1630163324.6132, 54, 0, 4216.41, 4093.333, 4085.641, 4134.359, 4148.205, 0, 0, []
1630163324.6211, 55, 0, 4221.538, 4142.051, 4110.256, 4154.359, 4164.615, 0, 0, []
1630163324.629, 56, 0, 4244.103, 4150.256, 4081.026, 4170.256, 4194.359, 0, 0, []
1630163324.6369, 57, 0, 4226.667, 4122.051, 4095.385, 4149.231, 4181.026, 0, 0, []
1630163324.6448, 58, 0, 4192.308, 4125.128, 4081.538, 4117.949, 4146.154, 0, 0, []
1630163324.6527, 59, 0, 4200.513, 4138.974, 4072.308, 4133.846, 4153.846, 0, 0, []
1630163324.6605, 60, 0, 4230.256, 4136.923, 4111.282, 4172.821, 4185.641, 0, 0, []
1630163324.6684, 61, 0, 4235.385, 4147.692, 4087.179, 4165.641, 4193.846, 0, 0, []
1630163324.6762, 62, 0, 4227.692, 4160, 4098.974, 4145.641, 4188.205, 0, 0, []
1630163324.6842, 63, 0, 4210.769, 4149.231, 4096.923, 4138.974, 4174.872, 0, 0, []
1630163324.6921, 64, 0, 4188.718, 4132.308, 4069.231, 4120.513, 4151.282, 450, 0, []
1630163324.7, 65, 0, 4184.103, 4131.795, 4083.59, 4100.513, 4135.385, 450, 0, []
1630163324.7079, 66, 0, 4187.692, 4143.59, 4060, 4104.103, 4133.846, 16193, 0, []
1630163324.7159, 67, 0, 4186.667, 4149.744, 4087.179, 4124.615, 4137.436, 450, 0, []
1630163324.7238, 68, 0, 4194.872, 4141.538, 4098.462, 4132.821, 4148.205, 16093, 0, []
1630163324.7318, 69, 0, 4200.513, 4138.462, 4068.718, 4131.282, 4150.256, 450, 0, []
1630163324.7396, 70, 0, 4186.154, 4161.026, 4094.359, 4137.436, 4138.974, 233, 0, []
1630163324.7476, 71, 0, 4182.564, 4162.564, 4076.41, 4134.359, 4135.897, 450, 0, []
1630163324.7555, 72, 0, 4180.513, 4131.795, 4075.385, 4117.436, 4129.231, 450, 0, []
1630163324.7633, 73, 0, 4156.923, 4106.667, 4075.897, 4102.051, 4105.128, 16123, 0, []
1630163324.7712, 74, 0, 4151.795, 4108.718, 4057.949, 4114.359, 4103.077, 450, 0, []
1630163324.7789, 75, 0, 4176.41, 4134.872, 4096.41, 4143.59, 4130.256, 16200, 0, []
1630163324.7868, 76, 0, 4183.59, 4143.59, 4083.59, 4140, 4141.026, 450, 0, []
1630163324.7946, 77, 0, 4171.795, 4143.59, 4083.077, 4123.59, 4133.333, 450, 0, []
1630163324.8025, 78, 0, 4164.615, 4155.385, 4084.615, 4117.949, 4130.769, 450, 0, []
1630163324.8103, 79, 0, 4154.359, 4157.949, 4047.692, 4104.103, 4119.487, 16200, 0, []
1630163324.8181, 80, 0, 4147.692, 4157.436, 4079.487, 4100, 4112.821, 450, 0, []
1630163324.8259, 81, 0, 4151.795, 4148.718, 4080.513, 4112.821, 4128.205, 450, 0, []
1630163324.8338, 82, 0, 4145.128, 4120, 4078.462, 4115.385, 4122.051, 450, 0, []
1630163324.8416, 83, 0, 4141.026, 4120.513, 4092.821, 4116.41, 4107.692, 16200, 0, []
1630163324.8495, 84, 0, 4155.385, 4167.692, 4071.795, 4129.231, 4131.795, 450, 0, []
1630163324.8572, 85, 0, 4161.026, 4183.077, 4096.923, 4130.769, 4147.179, 450, 0, []
1630163324.8652, 86, 0, 4152.308, 4164.615, 4083.59, 4111.795, 4126.154, 450, 0, []
1630163324.8731, 87, 0, 4147.692, 4172.308, 4077.436, 4101.538, 4115.897, 16200, 0, []
1630163324.8811, 88, 0, 4142.051, 4178.462, 4100, 4098.462, 4122.564, 450, 0, []
1630163324.889, 89, 0, 4134.359, 4159.487, 4068.718, 4091.795, 4120, 450, 0, []
1630163324.8969, 90, 0, 4128.205, 4129.231, 4085.128, 4099.487, 4117.949, 450, 0, []
1630163324.9048, 91, 0, 4108.718, 4107.692, 4067.179, 4093.333, 4108.205, 16200, 0, []
1630163324.9128, 92, 0, 4093.846, 4121.026, 4052.308, 4084.615, 4097.436, 450, 0, []
1630163324.9207, 93, 0, 4128.205, 4143.59, 4106.667, 4117.436, 4130.256, 450, 0, []
1630163324.9285, 94, 0, 4175.897, 4121.026, 4104.615, 4146.667, 4171.795, 450, 0, []
1630163324.9363, 95, 0, 4178.974, 4093.333, 4105.128, 4132.821, 4157.949, 16200, 0, []
1630163324.9441, 96, 0, 4155.897, 4116.41, 4075.385, 4102.051, 4126.667, 450, 0, []
1630163324.952, 97, 0, 4146.667, 4143.59, 4053.846, 4096.41, 4128.718, 450, 0, []
1630163324.9598, 98, 0, 4149.744, 4140.513, 4093.333, 4112.308, 4135.385, 450, 0, []
1630163324.9677, 99, 0, 4151.795, 4135.385, 4077.949, 4119.487, 4132.821, 16200, 0, []
1630163324.9754, 100, 0, 4144.615, 4146.154, 4091.795, 4117.949, 4134.872, 450, 0, []
1630163324.9833, 101, 0, 4130.769, 4150.256, 4086.154, 4105.128, 4123.59, 450, 0, []
1630163324.9911, 102, 0, 4128.205, 4143.59, 4056.923, 4095.897, 4104.103, 450, 0, []
1630163324.999, 103, 0, 4145.128, 4146.154, 4095.897, 4100.513, 4117.436, 16200, 0, []
1630163325.0068, 104, 0, 4157.436, 4143.077, 4088.718, 4099.487, 4148.205, 450, 0, []
1630163325.0147, 105, 0, 4157.949, 4132.308, 4092.821, 4104.103, 4152.308, 450, 0, []
1630163325.0226, 106, 0, 4159.487, 4130.769, 4094.872, 4115.385, 4144.615, 450, 0, []
1630163325.0306, 107, 0, 4165.128, 4149.744, 4078.974, 4120, 4143.59, 16200, 0, []
1630163325.0385, 108, 0, 4156.923, 4155.897, 4105.128, 4116.923, 4131.795, 450, 0, []
1630163325.0465, 109, 0, 4137.436, 4140, 4058.462, 4098.974, 4113.333, 450, 0, []
1630163325.0544, 110, 0, 4132.308, 4151.282, 4052.308, 4091.282, 4116.41, 450, 0, []
1630163325.0623, 111, 0, 4138.462, 4181.026, 4083.59, 4094.872, 4121.538, 16200, 0, []
1630163325.0702, 112, 0, 4138.462, 4161.538, 4065.128, 4099.487, 4118.462, 450, 0, []
1630163325.0782, 113, 0, 4136.923, 4115.897, 4091.282, 4115.385, 4130.769, 450, 0, []
1630163325.0861, 114, 0, 4142.564, 4129.744, 4075.897, 4123.59, 4149.231, 450, 0, []
1630163325.0939, 115, 0, 4141.026, 4165.128, 4067.692, 4116.923, 4140, 16200, 0, []
1630163325.1017, 116, 0, 4132.821, 4148.205, 4084.615, 4113.333, 4118.462, 450, 0, []
1630163325.1095, 117, 0, 4144.103, 4127.692, 4064.103, 4113.333, 4127.692, 450, 0, []
1630163325.1174, 118, 0, 4151.795, 4155.385, 4084.615, 4111.282, 4142.051, 450, 0, []
1630163325.1252, 119, 0, 4134.872, 4173.333, 4068.718, 4106.667, 4127.692, 16200, 0, []
1630163325.1331, 120, 0, 4126.667, 4134.872, 4069.744, 4114.359, 4117.436, 450, 0, []
1630163325.1408, 121, 0, 4147.179, 4118.974, 4102.051, 4131.282, 4128.718, 450, 0, []
1630163325.1487, 122, 0, 4157.949, 4148.205, 4078.462, 4137.436, 4134.359, 450, 0, []
1630163325.1565, 123, 0, 4144.615, 4140.513, 4096.923, 4135.385, 4126.667, 16200, 0, []
1630163325.1644, 124, 0, 4134.872, 4114.872, 4086.667, 4133.333, 4122.564, 450, 0, []
1630163325.1722, 125, 0, 4135.897, 4125.641, 4068.718, 4133.333, 4118.974, 450, 0, []
1630163325.1801, 126, 0, 4146.667, 4112.308, 4089.231, 4132.821, 4126.154, 450, 0, []
1630163325.188, 127, 0, 4164.103, 4095.385, 4068.718, 4131.282, 4148.205, 16200, 0, []
1630163325.196, 128, 0, 4163.59, 4125.641, 4086.667, 4131.795, 4149.231, 450, 0, []
1630163325.2039, 0, 0, 4147.179, 4143.077, 4078.462, 4122.051, 4133.333, 450, 0, []
1630163325.2119, 1, 0, 4152.308, 4132.821, 4068.718, 4127.179, 4145.641, 450, 0, []
1630163325.2197, 2, 0, 4157.436, 4125.128, 4091.795, 4137.949, 4153.333, 16169, 0, []
1630163325.2277, 3, 0, 4133.846, 4100.513, 4051.282, 4114.872, 4121.538, 450, 0, []
1630163325.2356, 4, 0, 4138.462, 4107.692, 4082.051, 4116.923, 4130.256, 16094, 0, []
1630163325.2434, 5, 0, 4175.897, 4167.692, 4115.897, 4159.487, 4180.513, 450, 0, []
1630163325.2513, 6, 0, 4167.179, 4167.692, 4080.513, 4160, 4168.205, 220, 0, []
1630163325.259, 7, 0, 4138.462, 4130.769, 4081.026, 4124.615, 4127.692, 450, 0, []
1630163325.2669, 8, 0, 4151.795, 4133.333, 4069.231, 4125.128, 4148.718, 450, 0, []
1630163325.2747, 9, 0, 4163.59, 4129.744, 4092.308, 4149.231, 4173.333, 16131, 0, []
1630163325.2826, 10, 0, 4149.231, 4123.59, 4090.256, 4135.897, 4152.821, 450, 0, []
1630163325.2904, 11, 0, 4146.154, 4139.487, 4051.795, 4110.256, 4129.231, 16185, 0, []
1630163325.2982, 12, 0, 4152.308, 4129.231, 4076.923, 4117.949, 4133.846, 450, 0, []
1630163325.306, 13, 0, 4157.949, 4120, 4066.667, 4133.846, 4157.436, 450, 0, []
1630163325.3139, 14, 0, 4164.615, 4150.256, 4078.974, 4145.128, 4174.359, 450, 0, []
1630163325.3217, 15, 0, 4157.949, 4146.667, 4091.282, 4142.564, 4162.051, 16185, 0, []
1630163325.3297, 16, 0, 4152.308, 4117.949, 4061.026, 4126.154, 4145.641, 0, 0, []
1630163325.3375, 17, 0, 4167.692, 4140.513, 4094.872, 4137.436, 4161.026, 0, 0, []
1630163325.3455, 18, 0, 4176.41, 4166.154, 4087.179, 4154.359, 4174.359, 0, 0, []
1630163325.3534, 19, 0, 4164.615, 4133.333, 4081.538, 4144.615, 4157.436, 0, 0, []
1630163325.3614, 20, 0, 4163.59, 4108.718, 4105.128, 4135.897, 4152.821, 0, 0, []
1630163325.3693, 21, 0, 4180, 4148.205, 4084.103, 4147.692, 4178.974, 0, 0, []
1630163325.3773, 22, 0, 4184.615, 4164.103, 4092.821, 4152.308, 4185.641, 0, 0, []
1630163325.3851, 23, 0, 4167.692, 4127.179, 4064.615, 4131.795, 4166.667, 0, 0, []
1630163325.393, 24, 0, 4161.026, 4119.487, 4066.667, 4123.59, 4169.231, 0, 0, []
1630163325.4009, 25, 0, 4175.897, 4149.231, 4105.641, 4136.923, 4184.103, 0, 0, []
1630163325.4087, 26, 0, 4193.333, 4153.333, 4087.692, 4144.103, 4183.077, 0, 0, []
1630163325.4166, 27, 0, 4197.949, 4130.769, 4112.821, 4154.359, 4182.051, 0, 0, []
1630163325.4243, 28, 0, 4187.692, 4119.487, 4097.949, 4150.769, 4182.564, 0, 0, []
1630163325.4322, 29, 0, 4176.923, 4131.282, 4071.282, 4133.846, 4174.872, 0, 0, []
1630163325.44, 30, 0, 4190.769, 4154.872, 4095.897, 4141.026, 4179.487, 0, 0, []
1630163325.4479, 31, 0, 4215.385, 4162.564, 4083.59, 4161.026, 4195.897, 0, 0, []
1630163325.4557, 32, 0, 4218.974, 4150.769, 4107.692, 4162.051, 4192.308, 0, 0, []
1630163325.4636, 33, 0, 4216.41, 4140.513, 4104.615, 4146.154, 4180.513, 0, 0, []
1630163325.4715, 34, 0, 4236.923, 4132.308, 4093.846, 4149.231, 4182.564, 0, 0, []
1630163325.4795, 35, 0, 4257.949, 4133.333, 4125.641, 4165.641, 4188.718, 0, 0, []
1630163325.4874, 36, 0, 4245.641, 4144.103, 4096.41, 4162.051, 4187.179, 0, 0, []
1630163325.4954, 37, 0, 4226.667, 4125.641, 4105.641, 4155.385, 4177.436, 0, 0, []
1630163325.5032, 38, 0, 4232.821, 4106.667, 4116.41, 4157.436, 4182.564, 0, 0, []
1630163325.5112, 39, 0, 4256.41, 4142.051, 4100.513, 4161.538, 4209.231, 0, 0, []
1630163325.5191, 40, 0, 4270.769, 4169.744, 4114.872, 4161.026, 4224.615, 0, 0, []
1630163325.5271, 41, 0, 4248.205, 4141.538, 4077.436, 4145.128, 4192.821, 0, 0, []
1630163325.535, 42, 0, 4228.205, 4112.821, 4096.41, 4146.667, 4173.846, 0, 0, []
1630163325.5429, 43, 0, 4261.538, 4123.59, 4124.103, 4177.949, 4224.103, 0, 0, []
1630163325.5508, 44, 0, 4298.462, 4153.333, 4095.897, 4189.744, 4272.821, 0, 0, []
1630163325.5586, 45, 0, 4306.667, 4161.538, 4113.333, 4175.385, 4292.821, 0, 0, []
1630163325.5665, 46, 0, 4332.821, 4126.667, 4101.538, 4175.897, 4335.385, 0, 0, []
1630163325.5743, 47, 0, 4378.974, 4104.615, 4111.795, 4196.923, 4395.385, 0, 0, []
1630163325.5821, 48, 0, 4413.333, 4125.128, 4120.513, 4199.487, 4439.487, 0, 0, []
1630163325.5899, 49, 0, 4430.769, 4122.051, 4093.333, 4187.179, 4482.564, 0, 0, []
1630163325.5978, 50, 0, 4433.846, 4101.538, 4121.026, 4201.026, 4524.615, 0, 0, []
1630163325.6056, 51, 0, 4432.308, 4128.205, 4103.077, 4218.974, 4534.359, 0, 0, []
1630163325.6135, 52, 0, 4432.308, 4148.205, 4113.333, 4226.154, 4532.308, 0, 0, []
1630163325.6212, 53, 0, 4410.769, 4115.385, 4147.179, 4231.282, 4537.949, 0, 0, []
1630163325.6291, 54, 0, 4379.487, 4096.923, 4127.179, 4234.872, 4528.205, 0, 0, []
1630163325.637, 55, 0, 4362.564, 4106.667, 4147.179, 4240.513, 4494.359, 0, 0, []
1630163325.645, 56, 0, 4331.795, 4113.333, 4120, 4232.308, 4455.897, 0, 0, []
1630163325.6529, 57, 0, 4285.641, 4125.128, 4102.051, 4216.923, 4418.462, 0, 0, []
1630163325.6608, 58, 0, 4265.128, 4140.513, 4126.667, 4209.744, 4383.59, 0, 0, []
1630163325.6687, 59, 0, 4275.897, 4155.385, 4120.513, 4214.872, 4375.385, 0, 0, []
1630163325.6767, 60, 0, 4272.308, 4176.923, 4144.103, 4216.41, 4361.026, 0, 0, []
1630163325.6846, 61, 0, 4243.077, 4189.744, 4110.256, 4191.282, 4325.128, 0, 0, []
1630163325.6926, 62, 0, 4238.462, 4189.744, 4098.462, 4190.769, 4318.462, 0, 0, []
1630163325.7004, 63, 0, 4261.026, 4200, 4153.333, 4233.846, 4336.41, 0, 0, []
1630163325.7084, 64, 0, 4257.949, 4196.923, 4137.949, 4245.128, 4326.154, 450, 0, []
1630163325.7163, 65, 0, 4231.795, 4173.846, 4130.256, 4213.846, 4289.744, 450, 0, []
1630163325.7241, 66, 0, 4224.103, 4183.077, 4117.436, 4193.333, 4267.179, 16192, 0, []
1630163325.732, 67, 0, 4233.846, 4205.128, 4113.846, 4197.436, 4261.538, 450, 0, []
1630163325.7398, 68, 0, 4230.256, 4196.41, 4134.872, 4196.41, 4255.897, 16082, 0, []
1630163325.7476, 69, 0, 4210.256, 4180, 4095.897, 4184.103, 4238.974, 450, 0, []
1630163325.7554, 70, 0, 4202.051, 4200.513, 4121.026, 4192.821, 4232.821, 230, 0, []
1630163325.7633, 71, 0, 4196.41, 4206.154, 4128.718, 4193.333, 4225.641, 450, 0, []
1630163325.7711, 72, 0, 4165.128, 4145.641, 4083.077, 4157.436, 4178.974, 450, 0, []
1630163325.779, 73, 0, 4157.949, 4110.769, 4103.077, 4157.949, 4161.538, 16117, 0, []
1630163325.7867, 74, 0, 4203.077, 4137.949, 4107.179, 4196.41, 4197.949, 450, 0, []
1630163325.7947, 75, 0, 4210.256, 4161.538, 4123.077, 4195.897, 4196.41, 16193, 0, []
1630163325.8026, 76, 0, 4167.692, 4158.462, 4107.692, 4153.846, 4161.026, 450, 0, []
1630163325.8106, 77, 0, 4166.154, 4160.513, 4087.179, 4148.718, 4175.385, 450, 0, []
1630163325.8185, 78, 0, 4186.154, 4154.359, 4120.513, 4169.231, 4195.897, 450, 0, []
1630163325.8264, 79, 0, 4167.179, 4140.513, 4087.179, 4153.333, 4172.308, 16193, 0, []
1630163325.8343, 80, 0, 4151.282, 4171.282, 4092.308, 4144.615, 4160.513, 450, 0, []
1630163325.8423, 81, 0, 4167.692, 4193.333, 4110.769, 4156.923, 4168.205, 450, 0, []
1630163325.8502, 82, 0, 4168.718, 4152.308, 4078.462, 4146.154, 4156.923, 450, 0, []
1630163325.8582, 83, 0, 4148.718, 4115.897, 4082.051, 4130.769, 4138.974, 16193, 0, []
1630163325.866, 84, 0, 4155.897, 4142.564, 4064.103, 4132.821, 4142.051, 450, 0, []
1630163325.874, 85, 0, 4171.282, 4176.41, 4088.205, 4141.538, 4154.872, 450, 0, []
1630163325.8819, 86, 0, 4161.538, 4165.641, 4100.513, 4141.538, 4151.282, 450, 0, []
1630163325.8897, 87, 0, 4148.718, 4158.462, 4062.564, 4137.949, 4135.385, 16193, 0, []
1630163325.8976, 88, 0, 4151.795, 4179.487, 4101.538, 4141.026, 4135.385, 450, 0, []
1630163325.9053, 89, 0, 4161.026, 4195.897, 4101.026, 4146.667, 4151.282, 450, 0, []
1630163325.9132, 90, 0, 4168.205, 4183.59, 4096.923, 4153.846, 4158.974, 450, 0, []
1630163325.921, 91, 0, 4169.231, 4159.487, 4110.256, 4154.872, 4156.41, 16193, 0, []
1630163325.9289, 92, 0, 4155.897, 4135.385, 4080, 4146.154, 4146.154, 450, 0, []
1630163325.9367, 93, 0, 4141.026, 4120, 4105.128, 4145.128, 4137.949, 450, 0, []
1630163325.9446, 94, 0, 4143.59, 4125.641, 4090.256, 4146.667, 4136.923, 450, 0, []
1630163325.9525, 95, 0, 4153.333, 4149.231, 4086.154, 4150.769, 4141.026, 16193, 0, []
1630163325.9605, 96, 0, 4155.385, 4167.179, 4111.795, 4160.513, 4144.615, 450, 0, []
1630163325.9684, 97, 0, 4137.436, 4142.051, 4066.154, 4144.615, 4133.333, 450, 0, []
1630163325.9764, 98, 0, 4116.923, 4101.538, 4076.41, 4121.538, 4115.897, 450, 0, []
1630163325.9843, 99, 0, 4125.641, 4104.615, 4084.103, 4125.641, 4125.128, 16193, 0, []
1630163325.9922, 100, 0, 4142.564, 4131.795, 4086.667, 4138.974, 4140, 450, 0, []
1630163326.0002, 101, 0, 4130.769, 4141.538, 4099.487, 4124.103, 4121.026, 450, 0, []
1630163326.0081, 102, 0, 4107.179, 4134.872, 4058.462, 4095.897, 4091.795, 450, 0, []
1630163326.0161, 103, 0, 4113.333, 4113.333, 4093.333, 4110.256, 4095.385, 16193, 0, []
1630163326.0239, 104, 0, 4138.462, 4101.538, 4102.564, 4136.923, 4115.897, 450, 0, []
1630163326.0319, 105, 0, 4143.59, 4134.359, 4086.667, 4139.487, 4122.051, 450, 0, []
1630163326.0398, 106, 0, 4141.538, 4165.641, 4106.154, 4135.897, 4122.564, 450, 0, []
1630163326.0478, 107, 0, 4138.974, 4145.641, 4069.231, 4124.615, 4117.436, 16193, 0, []
1630163326.0557, 108, 0, 4125.641, 4130.256, 4087.179, 4113.846, 4104.615, 450, 0, []
1630163326.0636, 109, 0, 4126.667, 4174.872, 4071.282, 4112.821, 4113.333, 450, 0, []
1630163326.0715, 110, 0, 4155.897, 4213.333, 4052.308, 4124.615, 4149.231, 450, 0, []
1630163326.0795, 111, 0, 4173.333, 4185.128, 4092.308, 4129.231, 4174.359, 16193, 0, []
1630163326.0875, 112, 0, 4171.795, 4167.179, 4060, 4126.154, 4195.897, 450, 0, []
1630163326.0954, 113, 0, 4210.769, 4198.974, 4096.41, 4150.769, 4243.077, 450, 0, []
1630163326.1034, 114, 0, 4292.308, 4213.846, 4103.59, 4160, 4294.359, 450, 0, []
1630163326.1112, 115, 0, 4350.769, 4198.462, 4064.103, 4134.359, 4332.308, 16193, 0, []
1630163326.1192, 116, 0, 4375.385, 4198.462, 4101.026, 4122.564, 4358.974, 450, 0, []
1630163326.1271, 117, 0, 4417.436, 4196.923, 4076.41, 4122.564, 4375.385, 450, 0, []
1630163326.1351, 118, 0, 4461.026, 4174.872, 4085.128, 4120, 4387.179, 450, 0, []
1630163326.143, 119, 0, 4451.795, 4179.487, 4093.333, 4108.205, 4387.692, 16193, 0, []
1630163326.1509, 120, 0, 4456.41, 4218.974, 4082.051, 4121.538, 4394.359, 450, 0, []
1630163326.1588, 121, 0, 4490.769, 4216.923, 4126.667, 4150.769, 4391.282, 450, 0, []
1630163326.1668, 122, 0, 4466.154, 4192.308, 4086.154, 4118.462, 4346.667, 450, 0, []
1630163326.1747, 123, 0, 4426.667, 4228.205, 4076.41, 4091.795, 4313.846, 16193, 0, []
1630163326.1827, 124, 0, 4426.154, 4255.385, 4103.077, 4114.359, 4302.051, 450, 0, []
1630163326.1905, 125, 0, 4402.564, 4212.821, 4078.462, 4108.718, 4257.436, 450, 0, []
1630163326.1985, 126, 0, 4352.821, 4188.718, 4088.205, 4087.179, 4215.897, 450, 0, []
1630163326.2064, 127, 0, 4342.564, 4218.462, 4085.641, 4098.974, 4216.41, 16193, 0, []
1630163326.2144, 128, 0, 4357.436, 4240, 4100, 4117.436, 4216.41, 450, 0, []
1630163326.2223, 0, 0, 4352.308, 4236.41, 4117.436, 4126.667, 4211.282, 450, 0, []
1630163326.2302, 1, 0, 4306.667, 4219.487, 4083.077, 4116.923, 4187.179, 450, 0, []
1630163326.2381, 2, 0, 4237.949, 4195.897, 4073.846, 4075.385, 4126.667, 16171, 0, []
1630163326.2461, 3, 0, 4228.718, 4201.026, 4066.154, 4070.256, 4113.333, 450, 0, []
1630163326.2541, 4, 0, 4258.462, 4214.359, 4080.513, 4102.564, 4139.487, 16092, 0, []
1630163326.262, 5, 0, 4251.282, 4202.564, 4095.385, 4095.897, 4130.256, 450, 0, []
1630163326.2699, 6, 0, 4230.769, 4188.205, 4080.513, 4079.487, 4112.308, 227, 0, []
1630163326.2778, 7, 0, 4225.641, 4175.897, 4104.103, 4095.385, 4108.205, 450, 0, []
1630163326.2858, 8, 0, 4220, 4165.641, 4078.462, 4092.821, 4096.923, 450, 0, []
1630163326.2937, 9, 0, 4218.462, 4173.333, 4069.744, 4081.538, 4092.308, 16116, 0, []
1630163326.3017, 10, 0, 4218.462, 4186.154, 4102.564, 4087.692, 4094.872, 450, 0, []
1630163326.3095, 11, 0, 4197.436, 4182.564, 4068.205, 4081.538, 4077.949, 16195, 0, []
1630163326.3175, 12, 0, 4190.769, 4169.744, 4084.615, 4091.282, 4074.359, 450, 0, []
1630163326.3254, 13, 0, 4203.077, 4172.308, 4096.923, 4114.359, 4089.744, 450, 0, []
1630163326.3334, 14, 0, 4203.59, 4173.846, 4081.026, 4124.615, 4094.359, 450, 0, []
1630163326.3413, 15, 0, 4197.436, 4163.59, 4091.282, 4121.538, 4085.128, 16195, 0, []
1630163326.3492, 16, 0, 4180, 4162.564, 4061.538, 4096.923, 4061.538, 0, 0, []
1630163326.3571, 17, 0, 4152.308, 4163.077, 4068.718, 4081.026, 4042.051, 0, 0, []
1630163326.3651, 18, 0, 4153.846, 4145.128, 4081.538, 4096.41, 4050.256, 0, 0, []
1630163326.373, 19, 0, 4166.154, 4122.564, 4069.744, 4110.769, 4055.897, 0, 0, []
1630163326.381, 20, 0, 4143.59, 4135.385, 4072.821, 4089.744, 4026.154, 0, 0, []
1630163326.3888, 21, 0, 4136.923, 4154.359, 4061.538, 4082.564, 4019.487, 0, 0, []
1630163326.3968, 22, 0, 4172.821, 4143.59, 4106.154, 4121.026, 4065.641, 0, 0, []
1630163326.4048, 23, 0, 4180, 4145.641, 4117.949, 4128.718, 4085.641, 0, 0, []
1630163326.4127, 24, 0, 4141.026, 4138.974, 4066.154, 4090.256, 4048.718, 0, 0, []
1630163326.4207, 25, 0, 4141.026, 4116.41, 4084.103, 4089.231, 4044.103, 0, 0, []
1630163326.4285, 26, 0, 4165.128, 4113.846, 4081.538, 4103.077, 4071.795, 0, 0, []
1630163326.4365, 27, 0, 4134.359, 4096.41, 4056.923, 4071.795, 4042.564, 0, 0, []
1630163326.4444, 28, 0, 4117.949, 4086.154, 4063.59, 4064.615, 4022.051, 0, 0, []
1630163326.4524, 29, 0, 4149.744, 4134.872, 4076.923, 4106.667, 4051.795, 0, 0, []
1630163326.4603, 30, 0, 4142.564, 4137.949, 4084.103, 4111.282, 4042.564, 0, 0, []
1630163326.4682, 31, 0, 4122.564, 4062.051, 4049.231, 4093.846, 4022.051, 0, 0, []
1630163326.4761, 32, 0, 4157.436, 4075.897, 4075.897, 4119.487, 4061.538, 0, 0, []
1630163326.4841, 33, 0, 4163.59, 4123.077, 4095.385, 4119.487, 4068.718, 0, 0, []
1630163326.492, 34, 0, 4118.974, 4077.949, 4038.974, 4074.872, 4015.385, 0, 0, []
1630163326.5, 35, 0, 4117.949, 4058.462, 4053.846, 4068.205, 4008.718, 0, 0, []
1630163326.5079, 36, 0, 4136.41, 4077.949, 4069.231, 4084.615, 4034.872, 0, 0, []
1630163326.5158, 37, 0, 4137.436, 4073.846, 4082.564, 4102.564, 4047.692, 0, 0, []
1630163326.5237, 38, 0, 4160.513, 4097.949, 4099.487, 4120.513, 4062.564, 0, 0, []
1630163326.5317, 39, 0, 4182.564, 4133.333, 4066.154, 4108.205, 4065.128, 0, 0, []
1630163326.5396, 40, 0, 4171.795, 4112.821, 4077.436, 4092.821, 4060.513, 0, 0, []
1630163326.5476, 41, 0, 4167.692, 4076.41, 4082.564, 4099.487, 4067.179, 0, 0, []
1630163326.5555, 42, 0, 4187.179, 4083.077, 4091.795, 4116.41, 4080, 0, 0, []
1630163326.5634, 43, 0, 4186.667, 4109.744, 4105.641, 4121.538, 4083.077, 0, 0, []
1630163326.5714, 44, 0, 4151.282, 4110.256, 4050.769, 4098.974, 4062.051, 0, 0, []
1630163326.5793, 45, 0, 4130.256, 4074.359, 4048.205, 4079.487, 4038.462, 0, 0, []
1630163326.5873, 46, 0, 4164.615, 4058.974, 4083.59, 4102.564, 4062.564, 0, 0, []
1630163326.5951, 47, 0, 4206.154, 4075.385, 4108.205, 4142.051, 4104.103, 0, 0, []
1630163326.6031, 48, 0, 4197.436, 4075.897, 4115.897, 4140, 4100, 0, 0, []
1630163326.611, 49, 0, 4174.359, 4069.231, 4081.538, 4116.41, 4086.667, 0, 0, []
1630163326.6189, 50, 0, 4185.641, 4078.974, 4105.128, 4120.513, 4098.462, 0, 0, []
1630163326.6268, 51, 0, 4202.051, 4083.077, 4112.308, 4128.205, 4099.487, 0, 0, []
1630163326.6347, 52, 0, 4197.949, 4064.615, 4086.154, 4123.077, 4089.744, 0, 0, []
1630163326.6427, 53, 0, 4202.051, 4069.231, 4113.333, 4130.769, 4101.538, 0, 0, []
1630163326.6506, 54, 0, 4230.769, 4103.59, 4115.897, 4151.795, 4124.615, 0, 0, []
1630163326.6586, 55, 0, 4237.949, 4110.256, 4120.513, 4156.41, 4123.59, 0, 0, []
1630163326.6665, 56, 0, 4208.718, 4096.923, 4109.744, 4132.821, 4088.718, 0, 0, []
1630163326.6744, 57, 0, 4198.462, 4081.538, 4095.385, 4125.128, 4066.667, 0, 0, []
1630163326.6823, 58, 0, 4231.795, 4068.718, 4134.872, 4157.949, 4095.897, 0, 0, []
1630163326.6903, 59, 0, 4236.41, 4073.333, 4109.231, 4163.077, 4109.231, 0, 0, []
1630163326.6982, 60, 0, 4205.128, 4087.179, 4086.667, 4132.821, 4073.333, 0, 0, []
1630163326.7062, 61, 0, 4212.821, 4090.769, 4109.231, 4129.231, 4068.718, 0, 0, []
1630163326.7141, 62, 0, 4238.974, 4086.154, 4107.692, 4145.128, 4092.821, 0, 0, []
1630163326.722, 63, 0, 4223.077, 4070.256, 4112.308, 4138.462, 4078.974, 0, 0, []
1630163326.73, 64, 0, 4213.333, 4056.41, 4099.487, 4132.308, 4071.795, 450, 0, []
1630163326.7379, 65, 0, 4242.564, 4069.231, 4116.923, 4151.282, 4104.615, 450, 0, []
1630163326.7459, 66, 0, 4247.692, 4071.282, 4123.59, 4154.359, 4116.923, 16196, 0, []
1630163326.7537, 67, 0, 4238.462, 4050.769, 4092.821, 4145.641, 4109.231, 450, 0, []
1630163326.7617, 68, 0, 4247.179, 4052.308, 4110.256, 4144.615, 4112.308, 16096, 0, []
1630163326.7696, 69, 0, 4249.231, 4075.897, 4098.974, 4140, 4110.769, 450, 0, []
1630163326.7776, 70, 0, 4250.256, 4058.974, 4096.923, 4141.026, 4111.795, 250, 0, []
1630163326.7855, 71, 0, 4257.949, 3982.051, 4106.154, 4137.949, 4115.385, 450, 0, []
1630163326.7934, 72, 0, 4264.103, 3920, 4081.538, 4121.026, 4113.333, 450, 0, []
1630163326.8013, 73, 0, 4268.718, 3919.487, 4104.103, 4114.872, 4120, 16097, 0, []
1630163326.8093, 74, 0, 4293.846, 3938.462, 4094.872, 4116.923, 4150.769, 450, 0, []
1630163326.8172, 75, 0, 4360.513, 3941.026, 4095.897, 4126.667, 4215.385, 16209, 0, []
1630163326.8252, 76, 0, 4440.513, 3937.949, 4135.385, 4153.846, 4291.795, 450, 0, []
1630163326.8331, 77, 0, 4472.821, 3940, 4108.205, 4163.59, 4323.077, 450, 0, []
1630163326.841, 78, 0, 4468.205, 3943.59, 4101.538, 4140, 4308.718, 450, 0, []
1630163326.8489, 79, 0, 4489.231, 3942.564, 4103.59, 4122.051, 4323.59, 16209, 0, []
1630163326.8569, 80, 0, 4518.462, 3916.41, 4107.692, 4140.513, 4365.641, 450, 0, []
1630163326.8649, 81, 0, 4506.154, 3875.385, 4117.436, 4153.846, 4358.974, 450, 0, []
1630163326.8728, 82, 0, 4487.179, 3880, 4076.923, 4138.974, 4331.795, 450, 0, []
1630163326.8807, 83, 0, 4478.462, 3893.846, 4086.154, 4127.179, 4323.077, 16209, 0, []
1630163326.8886, 84, 0, 4447.692, 3849.231, 4092.308, 4121.538, 4306.154, 450, 0, []
1630163326.8966, 85, 0, 4416.41, 3828.205, 4077.436, 4121.538, 4280.513, 450, 0, []
1630163326.9045, 86, 0, 4387.692, 3865.641, 4086.667, 4105.641, 4254.872, 450, 0, []
1630163326.9125, 87, 0, 4360, 3869.231, 4066.667, 4087.179, 4230.769, 16209, 0, []
1630163326.9203, 88, 0, 4362.051, 3855.385, 4096.41, 4111.795, 4228.205, 450, 0, []
1630163326.9283, 89, 0, 4364.615, 3877.436, 4108.205, 4134.359, 4232.821, 450, 0, []
1630163326.9362, 90, 0, 4333.333, 3874.872, 4079.487, 4122.564, 4218.462, 450, 0, []
1630163326.9442, 91, 0, 4313.846, 3857.436, 4109.231, 4123.59, 4208.718, 16209, 0, []
1630163326.9521, 92, 0, 4313.846, 3875.897, 4098.462, 4130.769, 4205.128, 450, 0, []
1630163326.96, 93, 0, 4301.026, 3891.282, 4087.692, 4123.59, 4187.179, 450, 0, []
1630163326.9679, 94, 0, 4285.128, 3879.487, 4102.051, 4129.231, 4181.538, 450, 0, []
1630163326.9759, 95, 0, 4272.821, 3860.513, 4098.462, 4136.41, 4178.974, 16209, 0, []
1630163326.9838, 96, 0, 4258.462, 3847.179, 4112.821, 4128.205, 4158.462, 450, 0, []
1630163326.9918, 97, 0, 4244.103, 3853.846, 4081.538, 4107.692, 4132.308, 450, 0, []
1630163326.9996, 98, 0, 4235.897, 3869.744, 4070.256, 4094.359, 4124.615, 450, 0, []
1630163327.0076, 99, 0, 4245.641, 3851.795, 4090.256, 4103.077, 4134.359, 16209, 0, []
1630163327.0155, 100, 0, 4249.744, 3843.077, 4087.692, 4117.949, 4135.897, 450, 0, []
1630163327.0235, 101, 0, 4243.59, 3889.231, 4111.282, 4127.692, 4133.846, 450, 0, []
1630163327.0315, 102, 0, 4247.179, 3897.436, 4094.872, 4131.795, 4134.359, 450, 0, []
1630163327.0393, 103, 0, 4236.41, 3852.308, 4088.205, 4126.154, 4124.615, 16209, 0, []
1630163327.0473, 104, 0, 4213.333, 3862.051, 4101.538, 4114.359, 4115.385, 450, 0, []
1630163327.0552, 105, 0, 4200.513, 3897.436, 4068.205, 4103.59, 4111.282, 450, 0, []
1630163327.0632, 106, 0, 4186.667, 3887.692, 4072.308, 4089.744, 4092.308, 450, 0, []
1630163327.0711, 107, 0, 4188.718, 3884.615, 4085.128, 4094.359, 4094.872, 16209, 0, []
1630163327.079, 108, 0, 4212.821, 3908.205, 4107.692, 4127.692, 4128.718, 450, 0, []
1630163327.0869, 109, 0, 4221.538, 3930.256, 4119.487, 4140, 4132.308, 450, 0, []
1630163327.0949, 110, 0, 4212.821, 3929.231, 4083.59, 4128.205, 4117.949, 450, 0, []
1630163327.1028, 111, 0, 4208.718, 3918.974, 4105.641, 4132.308, 4118.974, 16209, 0, []
1630163327.1108, 112, 0, 4189.744, 3923.077, 4100, 4121.026, 4105.641, 450, 0, []
1630163327.1186, 113, 0, 4154.359, 3898.462, 4068.718, 4084.615, 4072.308, 450, 0, []
1630163327.1266, 114, 0, 4159.487, 3874.872, 4097.949, 4095.385, 4081.538, 450, 0, []
1630163327.1345, 115, 0, 4193.333, 3926.667, 4101.026, 4136.923, 4118.974, 16209, 0, []
1630163327.1425, 116, 0, 4181.026, 3966.667, 4102.051, 4128.205, 4106.154, 450, 0, []
1630163327.1504, 117, 0, 4143.077, 3922.051, 4084.103, 4095.385, 4070.769, 450, 0, []
1630163327.1584, 118, 0, 4153.846, 3917.436, 4084.103, 4110.769, 4085.128, 450, 0, []
1630163327.1663, 119, 0, 4185.641, 3960.513, 4117.949, 4140.513, 4118.462, 16209, 0, []
1630163327.1742, 120, 0, 4154.872, 3931.795, 4068.205, 4108.718, 4092.821, 450, 0, []
1630163327.1822, 121, 0, 4102.564, 3889.744, 4052.821, 4067.692, 4047.179, 450, 0, []
1630163327.1901, 122, 0, 4109.744, 3909.744, 4083.077, 4090.769, 4065.128, 450, 0, []
1630163327.1981, 123, 0, 4154.359, 3953.846, 4098.462, 4142.564, 4113.333, 16209, 0, []
1630163327.2059, 124, 0, 4171.795, 3973.333, 4115.897, 4158.974, 4119.487, 450, 0, []
1630163327.2139, 125, 0, 4154.872, 3963.077, 4076.41, 4135.385, 4089.744, 450, 0, []
1630163327.2218, 126, 0, 4137.949, 3941.538, 4070.769, 4121.026, 4070.256, 450, 0, []
1630163327.2298, 127, 0, 4125.128, 3938.462, 4078.974, 4113.846, 4064.615, 16209, 0, []
1630163327.2377, 128, 0, 4124.615, 3942.051, 4068.718, 4111.282, 4070.769, 450, 0, []
1630163327.2456, 0, 0, 4134.872, 3920.513, 4097.949, 4117.436, 4080.513, 450, 0, []
1630163327.2535, 1, 0, 4136.41, 3913.333, 4080.513, 4112.308, 4077.436, 450, 0, []
1630163327.2615, 2, 0, 4136.41, 3943.077, 4076.41, 4110.256, 4078.974, 16197, 0, []
1630163327.2694, 3, 0, 4146.667, 3980, 4097.949, 4119.487, 4097.436, 450, 0, []
1630163327.2774, 4, 0, 4158.462, 3995.897, 4093.846, 4127.692, 4119.487, 16096, 0, []
1630163327.2852, 5, 0, 4150.769, 3993.333, 4109.231, 4128.718, 4114.872, 450, 0, []
1630163327.2932, 6, 0, 4138.974, 3990.769, 4091.795, 4125.128, 4100, 239, 0, []
1630163327.3011, 7, 0, 4132.308, 3976.41, 4091.795, 4121.538, 4093.846, 450, 0, []
1630163327.3091, 8, 0, 4122.564, 3952.308, 4099.487, 4117.949, 4085.641, 450, 0, []
1630163327.317, 9, 0, 4132.308, 3962.051, 4074.359, 4124.615, 4092.821, 16096, 0, []
1630163327.3249, 10, 0, 4155.385, 4002.564, 4112.821, 4138.974, 4120, 450, 0, []
1630163327.3329, 11, 0, 4146.667, 4008.205, 4113.333, 4137.436, 4115.897, 16213, 0, []
1630163327.3408, 12, 0, 4117.949, 3981.026, 4082.051, 4127.692, 4082.051, 450, 0, []
1630163327.3488, 13, 0, 4109.231, 3968.205, 4090.769, 4120.513, 4074.359, 450, 0, []
1630163327.3567, 14, 0, 4105.641, 3981.538, 4080, 4105.641, 4077.949, 450, 0, []
1630163327.3646, 15, 0, 4094.872, 3987.692, 4087.692, 4102.564, 4066.154, 16213, 0, []
1630163327.3725, 16, 0, 4102.564, 3986.154, 4084.103, 4125.128, 4071.282, 0, 0, []
1630163327.3805, 17, 0, 4132.821, 4017.436, 4101.538, 4157.949, 4108.205, 0, 0, []
1630163327.3884, 18, 0, 4152.308, 4055.897, 4133.333, 4173.333, 4131.282, 0, 0, []
1630163327.3964, 19, 0, 4142.051, 4038.974, 4091.795, 4155.385, 4113.846, 0, 0, []
1630163327.4042, 20, 0, 4123.077, 3996.923, 4092.821, 4132.308, 4101.538, 0, 0, []
1630163327.4122, 21, 0, 4126.154, 4014.359, 4103.59, 4135.385, 4120, 0, 0, []
1630163327.4201, 22, 0, 4141.026, 4049.231, 4090.256, 4150.256, 4129.744, 0, 0, []
1630163327.4281, 23, 0, 4143.59, 4037.436, 4114.872, 4150.769, 4118.462, 0, 0, []
1630163327.436, 24, 0, 4132.308, 4006.667, 4097.949, 4136.923, 4117.436, 0, 0, []
1630163327.444, 25, 0, 4132.308, 4018.462, 4087.179, 4132.308, 4129.744, 0, 0, []
1630163327.4518, 26, 0, 4155.897, 4057.436, 4078.974, 4135.385, 4149.744, 0, 0, []
1630163327.4598, 27, 0, 4174.359, 4063.59, 4070.256, 4131.795, 4171.795, 0, 0, []
1630163327.4677, 28, 0, 4204.103, 4061.026, 4104.103, 4137.436, 4202.051, 0, 0, []
1630163327.4757, 29, 0, 4262.564, 4073.846, 4095.385, 4152.821, 4247.179, 0, 0, []
1630163327.4836, 30, 0, 4300, 4079.487, 4097.436, 4147.692, 4276.923, 0, 0, []
1630163327.4915, 31, 0, 4308.718, 4076.41, 4091.795, 4126.667, 4287.179, 0, 0, []
1630163327.4995, 32, 0, 4333.333, 4081.026, 4069.231, 4126.667, 4303.59, 0, 0, []
1630163327.5074, 33, 0, 4337.436, 4072.821, 4095.385, 4138.974, 4302.564, 0, 0, []
1630163327.5154, 34, 0, 4300.513, 4069.744, 4081.026, 4136.41, 4271.795, 0, 0, []
1630163327.5233, 35, 0, 4293.846, 4097.436, 4087.179, 4145.128, 4264.103, 0, 0, []
1630163327.5312, 36, 0, 4304.103, 4092.308, 4096.41, 4150.256, 4267.179, 0, 0, []
1630163327.5391, 37, 0, 4280, 4065.641, 4065.641, 4128.718, 4237.436, 0, 0, []
1630163327.5471, 38, 0, 4246.667, 4066.154, 4088.205, 4122.051, 4203.077, 0, 0, []
1630163327.555, 39, 0, 4224.615, 4066.154, 4084.615, 4131.282, 4189.744, 0, 0, []
1630163327.563, 40, 0, 4206.154, 4065.128, 4073.333, 4133.846, 4175.385, 0, 0, []
1630163327.5708, 41, 0, 4190.769, 4087.692, 4082.564, 4134.872, 4161.026, 0, 0, []
1630163327.5788, 42, 0, 4185.641, 4089.231, 4074.872, 4140.513, 4166.667, 0, 0, []
1630163327.5867, 43, 0, 4181.026, 4077.949, 4097.949, 4136.923, 4168.718, 0, 0, []
1630163327.5947, 44, 0, 4163.077, 4085.641, 4079.487, 4114.359, 4146.154, 0, 0, []
1630163327.6026, 45, 0, 4147.179, 4084.103, 4072.821, 4107.179, 4129.231, 0, 0, []
1630163327.6105, 46, 0, 4153.846, 4101.538, 4108.718, 4128.718, 4142.564, 0, 0, []
1630163327.6184, 47, 0, 4152.821, 4132.821, 4091.795, 4138.974, 4154.359, 0, 0, []
1630163327.6263, 48, 0, 4125.128, 4107.179, 4093.333, 4131.795, 4131.795, 0, 0, []
1630163327.6342, 49, 0, 4114.359, 4078.974, 4088.718, 4135.385, 4107.692, 0, 0, []
1630163327.6422, 50, 0, 4122.051, 4119.487, 4076.923, 4146.667, 4107.179, 0, 0, []
1630163327.6501, 51, 0, 4109.231, 4133.333, 4083.59, 4134.872, 4106.667, 0, 0, []
1630163327.658, 52, 0, 4100.513, 4095.897, 4060.513, 4114.359, 4104.615, 0, 0, []
1630163327.666, 53, 0, 4116.923, 4119.487, 4080.513, 4121.538, 4116.923, 0, 0, []
1630163327.6739, 54, 0, 4126.667, 4169.744, 4090.769, 4134.872, 4126.154, 0, 0, []
1630163327.6819, 55, 0, 4129.744, 4147.692, 4089.231, 4143.077, 4127.179, 0, 0, []
1630163327.6897, 56, 0, 4147.692, 4107.179, 4110.769, 4153.333, 4141.026, 0, 0, []
1630163327.6977, 57, 0, 4144.103, 4125.128, 4077.436, 4152.821, 4144.103, 0, 0, []
1630163327.7056, 58, 0, 4116.923, 4146.667, 4078.974, 4150.769, 4124.103, 0, 0, []
1630163327.7136, 59, 0, 4122.564, 4127.179, 4088.205, 4152.821, 4120.513, 0, 0, []
1630163327.7215, 60, 0, 4142.051, 4112.308, 4067.179, 4147.179, 4126.667, 0, 0, []
1630163327.7295, 61, 0, 4123.59, 4103.077, 4077.949, 4132.821, 4111.282, 0, 0, []
1630163327.7373, 62, 0, 4106.667, 4088.718, 4069.231, 4128.718, 4097.436, 0, 0, []
1630163327.7453, 63, 0, 4114.359, 4084.615, 4087.179, 4132.821, 4101.538, 0, 0, []
1630163327.7532, 64, 0, 4115.897, 4094.359, 4090.769, 4129.744, 4106.667, 450, 0, []
1630163327.7612, 65, 0, 4108.205, 4092.308, 4061.026, 4128.718, 4102.564, 450, 0, []
1630163327.7691, 66, 0, 4104.103, 4096.923, 4080, 4134.359, 4087.692, 16147, 0, []
1630163327.777, 67, 0, 4112.821, 4127.692, 4079.487, 4147.179, 4094.359, 450, 0, []
1630163327.7849, 68, 0, 4134.359, 4150.256, 4095.385, 4164.615, 4122.051, 16095, 0, []
1630163327.7929, 69, 0, 4143.59, 4165.128, 4105.128, 4166.667, 4123.59, 450, 0, []
1630163327.8008, 70, 0, 4136.923, 4167.179, 4079.487, 4154.359, 4105.128, 232, 0, []
1630163327.8088, 71, 0, 4145.128, 4161.026, 4099.487, 4157.436, 4107.179, 450, 0, []
1630163327.8167, 72, 0, 4162.564, 4183.59, 4094.359, 4160, 4121.538, 450, 0, []
1630163327.8246, 73, 0, 4160, 4205.128, 4089.744, 4147.179, 4118.974, 16110, 0, []
1630163327.8326, 74, 0, 4153.846, 4189.231, 4102.051, 4140.513, 4113.333, 450, 0, []
1630163327.8405, 75, 0, 4164.103, 4161.538, 4090.256, 4150.256, 4122.564, 16202, 0, []
1630163327.8485, 76, 0, 4166.667, 4147.692, 4112.308, 4158.974, 4124.103, 450, 0, []
1630163327.8563, 77, 0, 4145.128, 4145.128, 4093.333, 4139.487, 4099.487, 450, 0, []
1630163327.8643, 78, 0, 4151.795, 4176.923, 4095.385, 4140, 4110.769, 450, 0, []
1630163327.8722, 79, 0, 4197.949, 4196.923, 4139.487, 4177.436, 4165.128, 16202, 0, []
1630163327.8802, 80, 0, 4213.333, 4178.462, 4113.846, 4180, 4173.846, 450, 0, []
1630163327.8881, 81, 0, 4190.256, 4192.308, 4108.205, 4148.718, 4139.487, 450, 0, []
1630163327.896, 82, 0, 4182.051, 4212.308, 4104.615, 4137.949, 4130.769, 450, 0, []
1630163327.9039, 83, 0, 4198.462, 4185.641, 4112.821, 4160.513, 4152.821, 16202, 0, []
1630163327.9119, 84, 0, 4217.436, 4187.692, 4149.744, 4190.769, 4177.949, 450, 0, []
1630163327.9198, 85, 0, 4224.103, 4218.462, 4123.077, 4197.949, 4186.667, 450, 0, []
1630163327.9278, 86, 0, 4198.974, 4193.846, 4108.718, 4165.641, 4156.41, 450, 0, []
1630163327.9356, 87, 0, 4170.769, 4183.077, 4095.385, 4135.385, 4124.615, 16202, 0, []
1630163327.9434, 88, 0, 4172.821, 4211.795, 4085.641, 4142.051, 4125.128, 450, 0, []
1630163327.9513, 89, 0, 4174.872, 4196.41, 4107.692, 4146.667, 4119.487, 450, 0, []
1630163327.9591, 90, 0, 4165.128, 4166.667, 4091.282, 4147.179, 4105.641, 450, 0, []
1630163327.9671, 91, 0, 4149.231, 4187.179, 4097.436, 4154.872, 4096.41, 16202, 0, []
1630163327.9749, 92, 0, 4132.821, 4204.615, 4086.667, 4135.385, 4084.103, 450, 0, []
1630163327.9829, 93, 0, 4136.923, 4194.359, 4068.205, 4117.949, 4088.718, 450, 0, []
1630163327.9908, 94, 0, 4154.872, 4188.718, 4097.949, 4136.41, 4110.256, 450, 0, []
1630163327.9988, 95, 0, 4160, 4185.641, 4075.385, 4149.231, 4122.564, 16202, 0, []
1630163328.0067, 96, 0, 4164.615, 4201.538, 4074.872, 4154.359, 4123.59, 450, 0, []
1630163328.0147, 97, 0, 4170.769, 4211.282, 4087.692, 4160, 4117.436, 450, 0, []
1630163328.0225, 98, 0, 4154.872, 4187.692, 4061.538, 4146.667, 4102.051, 450, 0, []
1630163328.0305, 99, 0, 4140, 4180, 4066.667, 4135.385, 4093.846, 16202, 0, []
1630163328.0384, 100, 0, 4136.923, 4204.103, 4042.051, 4123.077, 4087.179, 450, 0, []
1630163328.0464, 101, 0, 4135.385, 4228.205, 4043.077, 4104.615, 4080, 450, 0, []
1630163328.0543, 102, 0, 4143.077, 4219.487, 4062.051, 4105.128, 4089.231, 450, 0, []
1630163328.0622, 103, 0, 4154.359, 4189.744, 4046.154, 4127.692, 4098.462, 16202, 0, []
1630163328.0701, 104, 0, 4154.359, 4193.333, 4069.231, 4148.205, 4103.59, 450, 0, []
1630163328.0781, 105, 0, 4158.974, 4227.179, 4065.641, 4156.41, 4122.564, 450, 0, []
1630163328.086, 106, 0, 4163.077, 4216.923, 4056.41, 4156.41, 4128.718, 450, 0, []
1630163328.0938, 107, 0, 4149.231, 4196.41, 4063.077, 4147.179, 4113.846, 16202, 0, []
1630163328.1017, 108, 0, 4135.897, 4196.41, 4045.128, 4135.385, 4102.564, 450, 0, []
1630163328.1096, 109, 0, 4140.513, 4182.564, 4066.667, 4138.462, 4103.077, 450, 0, []
1630163328.1176, 110, 0, 4153.333, 4168.718, 4060.513, 4151.795, 4117.436, 450, 0, []
1630163328.1255, 111, 0, 4159.487, 4155.385, 4053.846, 4153.333, 4125.641, 16202, 0, []
1630163328.1335, 112, 0, 4156.41, 4135.385, 4070.769, 4144.615, 4113.846, 450, 0, []
1630163328.1413, 113, 0, 4155.385, 4155.897, 4062.051, 4152.821, 4112.821, 450, 0, []
1630163328.1493, 114, 0, 4153.333, 4185.128, 4089.231, 4165.641, 4121.026, 450, 0, []
1630163328.1572, 115, 0, 4145.641, 4169.744, 4066.667, 4147.179, 4110.256, 16202, 0, []
1630163328.1652, 116, 0, 4136.923, 4156.923, 4036.41, 4122.564, 4093.846, 450, 0, []
1630163328.1731, 117, 0, 4118.974, 4151.282, 4065.641, 4119.487, 4086.667, 450, 0, []
1630163328.181, 118, 0, 4108.718, 4158.462, 4062.564, 4127.179, 4077.949, 450, 0, []
1630163328.1889, 119, 0, 4127.692, 4197.436, 4082.051, 4142.051, 4086.667, 16202, 0, []
1630163328.1969, 120, 0, 4143.59, 4207.692, 4077.949, 4142.051, 4105.128, 450, 0, []
1630163328.2048, 121, 0, 4137.949, 4180, 4077.949, 4135.385, 4106.667, 450, 0, []
1630163328.2128, 122, 0, 4136.923, 4166.667, 4124.615, 4147.692, 4108.205, 450, 0, []
1630163328.2206, 123, 0, 4138.974, 4175.385, 4104.615, 4150.256, 4112.821, 16202, 0, []
1630163328.2286, 124, 0, 4122.051, 4155.897, 4098.462, 4142.051, 4107.179, 450, 0, []
1630163328.2365, 125, 0, 4106.667, 4139.487, 4103.59, 4143.59, 4101.026, 450, 0, []
1630163328.2443, 126, 0, 4112.821, 4163.077, 4111.795, 4156.41, 4105.128, 450, 0, []
1630163328.2522, 127, 0, 4120.513, 4177.949, 4149.744, 4163.077, 4113.333, 16202, 0, []
1630163328.2599, 128, 0, 4123.59, 4182.564, 4132.821, 4158.974, 4122.051, 450, 0, []
1630163328.2678, 0, 0, 4126.154, 4184.103, 4138.462, 4151.282, 4127.179, 450, 0, []
1630163328.2756, 1, 0, 4133.333, 4176.41, 4152.308, 4150.256, 4134.359, 450, 0, []
1630163328.2836, 2, 0, 4149.744, 4181.026, 4144.103, 4168.718, 4149.744, 16177, 0, []
1630163328.2915, 3, 0, 4165.128, 4203.59, 4164.615, 4182.051, 4155.897, 450, 0, []
1630163328.2995, 4, 0, 4168.718, 4194.359, 4143.59, 4174.359, 4154.359, 16095, 0, []
1630163328.3073, 5, 0, 4170.769, 4159.487, 4147.179, 4172.821, 4155.385, 450, 0, []
1630163328.3153, 6, 0, 4187.692, 4150.769, 4154.359, 4184.615, 4167.179, 297, 0, []
1630163328.3232, 7, 0, 4195.385, 4157.436, 4122.564, 4186.667, 4178.974, 450, 0, []
1630163328.3312, 8, 0, 4172.308, 4170.769, 4129.744, 4173.846, 4166.667, 450, 0, []
1630163328.3391, 9, 0, 4153.846, 4164.615, 4108.205, 4161.538, 4144.103, 16113, 0, []
1630163328.347, 10, 0, 4161.026, 4132.308, 4106.667, 4164.103, 4137.436, 450, 0, []
1630163328.3549, 11, 0, 4175.385, 4135.897, 4120, 4168.718, 4141.538, 16197, 0, []
1630163328.3629, 12, 0, 4172.308, 4160, 4090.256, 4155.897, 4138.974, 450, 0, []
1630163328.3708, 13, 0, 4156.41, 4154.872, 4101.538, 4145.641, 4136.41, 450, 0, []
1630163328.3786, 14, 0, 4142.564, 4132.821, 4089.231, 4140, 4124.103, 450, 0, []
1630163328.3864, 15, 0, 4130.256, 4129.231, 4080.513, 4128.718, 4098.974, 16197, 0, []
1630163328.3942, 16, 0, 4128.205, 4149.231, 4091.282, 4128.205, 4095.385, 0, 0, []
1630163328.4021, 17, 0, 4126.667, 4159.487, 4075.897, 4144.103, 4111.282, 0, 0, []
1630163328.4099, 18, 0, 4121.538, 4149.744, 4103.077, 4150.256, 4111.795, 0, 0, []
1630163328.4179, 19, 0, 4121.026, 4159.487, 4088.718, 4131.795, 4095.385, 0, 0, []
1630163328.4257, 20, 0, 4114.359, 4187.179, 4065.641, 4111.795, 4093.333, 0, 0, []
1630163328.4337, 21, 0, 4110.256, 4187.692, 4090.256, 4107.179, 4101.538, 0, 0, []
1630163328.4416, 22, 0, 4124.615, 4158.974, 4085.128, 4119.487, 4111.282, 0, 0, []
1630163328.4496, 23, 0, 4136.41, 4145.128, 4093.846, 4133.846, 4117.949, 0, 0, []
1630163328.4575, 24, 0, 4133.846, 4149.744, 4086.154, 4141.026, 4123.59, 0, 0, []
1630163328.4654, 25, 0, 4136.41, 4129.231, 4085.128, 4155.385, 4126.154, 0, 0, []
1630163328.4733, 26, 0, 4132.821, 4105.641, 4102.564, 4155.385, 4104.615, 0, 0, []
1630163328.4813, 27, 0, 4125.128, 4120.513, 4073.333, 4131.282, 4081.538, 0, 0, []
1630163328.4892, 28, 0, 4141.538, 4123.59, 4097.436, 4130.769, 4091.795, 0, 0, []
1630163328.4972, 29, 0, 4151.282, 4106.154, 4105.641, 4140.513, 4102.051, 0, 0, []
1630163328.505, 30, 0, 4135.897, 4128.205, 4066.154, 4118.974, 4081.538, 0, 0, []
1630163328.513, 31, 0, 4129.231, 4145.641, 4078.974, 4105.128, 4075.385, 0, 0, []
1630163328.5209, 32, 0, 4132.821, 4119.487, 4082.051, 4125.128, 4095.385, 0, 0, []
1630163328.5287, 33, 0, 4121.026, 4111.795, 4092.821, 4145.641, 4092.308, 0, 0, []
1630163328.5366, 34, 0, 4097.436, 4116.923, 4078.462, 4133.846, 4067.692, 0, 0, []
1630163328.5443, 35, 0, 4084.615, 4104.103, 4047.692, 4111.795, 4051.282, 0, 0, []
1630163328.5522, 36, 0, 4089.231, 4091.282, 4071.795, 4106.154, 4060, 0, 0, []
1630163328.56, 37, 0, 4098.462, 4113.846, 4062.564, 4109.231, 4082.564, 0, 0, []
1630163328.5679, 38, 0, 4104.103, 4160.513, 4072.821, 4121.026, 4093.333, 0, 0, []
1630163328.5757, 39, 0, 4114.872, 4157.949, 4086.667, 4130.256, 4091.282, 0, 0, []
1630163328.5837, 40, 0, 4121.026, 4115.385, 4064.103, 4128.718, 4095.385, 0, 0, []
1630163328.5915, 41, 0, 4113.333, 4137.949, 4092.308, 4131.795, 4106.154, 0, 0, []
1630163328.5995, 42, 0, 4094.872, 4178.974, 4080, 4123.59, 4093.333, 0, 0, []
1630163328.6074, 43, 0, 4083.59, 4133.846, 4056.923, 4102.564, 4071.795, 0, 0, []
1630163328.6154, 44, 0, 4100, 4106.154, 4070.256, 4108.205, 4084.615, 0, 0, []
1630163328.6233, 45, 0, 4125.128, 4148.205, 4074.872, 4135.385, 4115.897, 0, 0, []
1630163328.6311, 46, 0, 4124.103, 4154.359, 4094.872, 4140.513, 4114.872, 0, 0, []
1630163328.639, 47, 0, 4109.744, 4118.974, 4068.205, 4121.538, 4097.436, 0, 0, []
1630163328.6468, 48, 0, 4107.692, 4118.462, 4062.051, 4110.769, 4097.949, 0, 0, []
1630163328.6548, 49, 0, 4102.564, 4140, 4083.59, 4109.744, 4095.385, 0, 0, []
1630163328.6627, 50, 0, 4089.231, 4109.744, 4060.513, 4109.744, 4078.974, 0, 0, []
1630163328.6705, 51, 0, 4085.641, 4076.923, 4077.949, 4114.872, 4068.205, 0, 0, []
1630163328.6785, 52, 0, 4095.897, 4106.154, 4072.821, 4120, 4078.974, 0, 0, []
1630163328.6864, 53, 0, 4112.821, 4127.692, 4063.077, 4125.641, 4100.513, 0, 0, []
1630163328.6942, 54, 0, 4125.641, 4103.59, 4086.667, 4129.744, 4110.769, 0, 0, []
1630163328.7021, 55, 0, 4126.667, 4104.615, 4066.667, 4124.103, 4110.256, 0, 0, []
1630163328.7098, 56, 0, 4119.487, 4144.103, 4072.821, 4116.923, 4104.615, 0, 0, []
1630163328.7177, 57, 0, 4117.949, 4138.462, 4075.385, 4119.487, 4101.026, 0, 0, []
1630163328.7255, 58, 0, 4127.692, 4102.051, 4082.051, 4132.308, 4106.154, 0, 0, []
1630163328.7334, 59, 0, 4139.487, 4110.256, 4107.179, 4136.41, 4106.154, 0, 0, []
1630163328.7412, 60, 0, 4136.923, 4126.667, 4078.462, 4125.641, 4099.487, 0, 0, []
1630163328.7491, 61, 0, 4133.846, 4118.974, 4087.179, 4128.205, 4108.205, 0, 0, []
1630163328.757, 62, 0, 4146.154, 4129.744, 4087.179, 4138.974, 4124.615, 0, 0, []
1630163328.765, 63, 0, 4155.897, 4171.282, 4068.718, 4142.564, 4129.744, 0, 0, []
1630163328.7729, 64, 0, 4151.282, 4186.154, 4098.462, 4143.59, 4133.846, 450, 0, []
1630163328.7809, 65, 0, 4155.897, 4178.462, 4091.795, 4147.179, 4141.026, 450, 0, []
1630163328.7887, 66, 0, 4165.128, 4196.923, 4093.333, 4155.385, 4143.077, 16190, 0, []
1630163328.7967, 67, 0, 4154.359, 4205.128, 4087.179, 4146.154, 4133.333, 450, 0, []
1630163328.8046, 68, 0, 4143.077, 4193.846, 4069.744, 4130.256, 4126.667, 16094, 0, []
1630163328.8126, 69, 0, 4151.282, 4207.692, 4094.359, 4134.872, 4133.846, 450, 0, []
1630163328.8205, 70, 0, 4156.923, 4242.051, 4073.333, 4138.462, 4145.128, 249, 0, []
1630163328.8284, 71, 0, 4152.308, 4231.795, 4072.308, 4131.282, 4137.949, 450, 0, []
1630163328.8362, 72, 0, 4146.154, 4197.949, 4081.538, 4132.308, 4121.026, 450, 0, []
1630163328.844, 73, 0, 4151.282, 4225.128, 4068.205, 4144.615, 4122.564, 16113, 0, []
1630163328.8519, 74, 0, 4172.308, 4261.538, 4104.103, 4157.949, 4139.487, 450, 0, []
1630163328.8597, 75, 0, 4187.692, 4252.821, 4101.538, 4157.436, 4143.59, 16193, 0, []
1630163328.8676, 76, 0, 4191.795, 4242.564, 4100, 4157.436, 4145.128, 450, 0, []
1630163328.8753, 77, 0, 4206.667, 4245.641, 4115.897, 4165.641, 4163.077, 450, 0, []
1630163328.8832, 78, 0, 4222.051, 4255.897, 4100, 4165.641, 4176.923, 450, 0, []
1630163328.891, 79, 0, 4216.41, 4265.128, 4119.487, 4161.538, 4171.282, 16193, 0, []
1630163328.899, 80, 0, 4206.154, 4269.231, 4105.128, 4158.974, 4160.513, 450, 0, []
1630163328.9069, 81, 0, 4200, 4263.59, 4085.641, 4150.769, 4153.846, 450, 0, []
1630163328.9148, 82, 0, 4197.436, 4249.744, 4100, 4145.128, 4159.487, 450, 0, []
1630163328.9227, 83, 0, 4210.256, 4240.513, 4093.846, 4149.744, 4170.256, 16193, 0, []
1630163328.9307, 84, 0, 4214.872, 4247.179, 4108.205, 4153.846, 4172.308, 450, 0, []
1630163328.9386, 85, 0, 4204.615, 4234.359, 4091.795, 4148.205, 4169.231, 450, 0, []
1630163328.9466, 86, 0, 4198.974, 4191.282, 4089.744, 4146.667, 4162.564, 450, 0, []
1630163328.9544, 87, 0, 4201.538, 4186.667, 4115.385, 4149.231, 4154.872, 16193, 0, []
1630163328.9624, 88, 0, 4205.641, 4238.462, 4096.41, 4149.744, 4162.051, 450, 0, []
1630163328.9703, 89, 0, 4205.641, 4262.564, 4108.205, 4147.692, 4169.744, 450, 0, []
1630163328.9783, 90, 0, 4195.897, 4227.179, 4091.795, 4136.923, 4154.872, 450, 0, []
1630163328.9862, 91, 0, 4182.564, 4207.179, 4075.897, 4133.846, 4147.179, 16193, 0, []
1630163328.9939, 92, 0, 4183.59, 4244.103, 4110.769, 4147.692, 4161.026, 450, 0, []
1630163329.0018, 93, 0, 4193.333, 4261.538, 4088.718, 4146.667, 4161.026, 450, 0, []
1630163329.0096, 94, 0, 4197.949, 4220.513, 4087.179, 4137.949, 4148.205, 450, 0, []
1630163329.0175, 95, 0, 4200.513, 4207.692, 4097.436, 4142.564, 4152.308, 16193, 0, []
1630163329.0253, 96, 0, 4201.538, 4240, 4091.795, 4146.154, 4157.436, 450, 0, []
1630163329.0331, 97, 0, 4200, 4268.205, 4107.692, 4148.205, 4155.385, 450, 0, []
1630163329.0409, 98, 0, 4200, 4274.359, 4088.718, 4153.846, 4166.667, 450, 0, []
1630163329.0489, 99, 0, 4201.026, 4261.538, 4104.615, 4154.872, 4168.718, 16193, 0, []
1630163329.0568, 100, 0, 4199.487, 4270.769, 4111.795, 4143.077, 4153.846, 450, 0, []
1630163329.0648, 101, 0, 4196.923, 4296.41, 4077.949, 4129.231, 4146.667, 450, 0, []
1630163329.0726, 102, 0, 4195.897, 4283.59, 4081.026, 4123.077, 4152.308, 450, 0, []
1630163329.0806, 103, 0, 4201.026, 4268.718, 4066.154, 4120, 4160.513, 16193, 0, []
1630163329.0885, 104, 0, 4201.538, 4297.949, 4086.154, 4124.103, 4166.667, 450, 0, []
1630163329.0965, 105, 0, 4200, 4300.513, 4100, 4125.128, 4167.179, 450, 0, []
1630163329.1044, 106, 0, 4209.231, 4252.821, 4075.897, 4122.051, 4169.744, 450, 0, []
1630163329.1124, 107, 0, 4213.846, 4251.795, 4094.359, 4126.154, 4172.308, 16193, 0, []
1630163329.1202, 108, 0, 4205.128, 4289.231, 4077.949, 4128.718, 4175.897, 450, 0, []
1630163329.1282, 109, 0, 4202.051, 4274.359, 4076.41, 4132.821, 4176.923, 450, 0, []
1630163329.1361, 110, 0, 4204.103, 4247.179, 4095.897, 4133.846, 4174.359, 450, 0, []
1630163329.1439, 111, 0, 4206.667, 4266.667, 4084.615, 4134.872, 4177.949, 16193, 0, []
1630163329.1518, 112, 0, 4208.205, 4264.103, 4104.615, 4134.872, 4180.513, 450, 0, []
1630163329.1595, 113, 0, 4204.103, 4230.769, 4092.821, 4130.769, 4176.923, 450, 0, []
1630163329.1674, 114, 0, 4197.436, 4225.128, 4089.744, 4135.897, 4181.026, 450, 0, []
1630163329.1752, 115, 0, 4200.513, 4224.615, 4102.564, 4139.487, 4183.077, 16193, 0, []
1630163329.1831, 116, 0, 4201.538, 4208.205, 4075.897, 4126.667, 4172.308, 450, 0, []
1630163329.1909, 117, 0, 4192.821, 4240, 4094.359, 4121.538, 4168.205, 450, 0, []
1630163329.1988, 118, 0, 4187.179, 4287.692, 4089.744, 4125.641, 4174.359, 450, 0, []
1630163329.2067, 119, 0, 4184.615, 4269.744, 4080, 4124.615, 4167.179, 16193, 0, []
1630163329.2147, 120, 0, 4182.564, 4242.564, 4100, 4132.308, 4166.154, 450, 0, []
1630163329.2226, 121, 0, 4186.154, 4257.436, 4081.538, 4146.154, 4180.513, 450, 0, []
1630163329.2306, 122, 0, 4186.154, 4244.103, 4094.359, 4150.769, 4188.718, 450, 0, []
1630163329.2385, 123, 0, 4181.538, 4209.744, 4094.359, 4144.103, 4182.564, 16193, 0, []
1630163329.2464, 124, 0, 4189.744, 4232.308, 4092.821, 4142.564, 4185.128, 450, 0, []
1630163329.2543, 125, 0, 4204.103, 4252.308, 4119.487, 4144.615, 4194.872, 450, 0, []
1630163329.2623, 126, 0, 4203.077, 4231.282, 4098.974, 4144.615, 4198.462, 450, 0, []
1630163329.2702, 127, 0, 4201.026, 4237.436, 4111.795, 4149.744, 4199.487, 16193, 0, []
1630163329.2781, 128, 0, 4206.667, 4261.026, 4109.744, 4140.513, 4194.872, 450, 0, []
1630163329.286, 0, 0, 4196.923, 4252.308, 4087.179, 4120, 4180.513, 450, 0, []
1630163329.2938, 1, 0, 4177.949, 4226.154, 4116.923, 4115.385, 4177.436, 450, 0, []
1630163329.3017, 2, 0, 4189.744, 4235.897, 4112.821, 4129.744, 4195.385, 16136, 0, []
1630163329.3095, 3, 0, 4209.744, 4270.769, 4113.846, 4144.615, 4202.051, 450, 0, []
1630163329.3173, 4, 0, 4207.692, 4272.308, 4108.205, 4148.205, 4195.385, 16105, 0, []
1630163329.3251, 5, 0, 4213.846, 4253.333, 4092.308, 4155.385, 4210.256, 450, 0, []
1630163329.333, 6, 0, 4231.795, 4247.692, 4104.615, 4157.436, 4218.974, 228, 0, []
1630163329.3408, 7, 0, 4228.718, 4238.462, 4078.462, 4138.974, 4205.641, 450, 0, []
1630163329.3487, 8, 0, 4238.462, 4229.231, 4099.487, 4145.641, 4222.564, 450, 0, []
1630163329.3564, 9, 0, 4271.795, 4246.154, 4117.436, 4163.59, 4256.923, 16128, 0, []
1630163329.3644, 10, 0, 4274.359, 4250.769, 4080, 4138.974, 4257.949, 450, 0, []
1630163329.3723, 11, 0, 4288.718, 4227.179, 4096.41, 4121.538, 4277.949, 16152, 0, []
1630163329.3803, 12, 0, 4373.333, 4231.282, 4107.692, 4151.795, 4351.282, 450, 0, []
1630163329.3882, 13, 0, 4444.103, 4254.359, 4127.692, 4174.872, 4414.359, 450, 0, []
1630163329.3962, 14, 0, 4440, 4236.923, 4120, 4148.718, 4417.949, 450, 0, []
1630163329.404, 15, 0, 4433.333, 4206.667, 4075.385, 4126.667, 4400.513, 16152, 0, []
1630163329.412, 16, 0, 4463.077, 4230.256, 4115.897, 4147.692, 4411.795, 0, 0, []
1630163329.4199, 17, 0, 4470.256, 4252.308, 4122.564, 4162.564, 4428.205, 0, 0, []
1630163329.4279, 18, 0, 4427.692, 4213.333, 4090.769, 4146.667, 4393.333, 0, 0, []
1630163329.4358, 19, 0, 4375.897, 4182.051, 4086.154, 4132.821, 4332.308, 0, 0, []
1630163329.4435, 20, 0, 4358.462, 4179.487, 4086.667, 4147.179, 4325.128, 0, 0, []
1630163329.4514, 21, 0, 4354.359, 4164.103, 4111.282, 4153.846, 4341.538, 0, 0, []
1630163329.4592, 22, 0, 4326.667, 4164.103, 4086.154, 4128.718, 4317.949, 0, 0, []
1630163329.4672, 23, 0, 4309.231, 4198.462, 4094.359, 4136.923, 4302.564, 0, 0, []
1630163329.4751, 24, 0, 4321.026, 4225.128, 4141.026, 4180, 4324.103, 0, 0, []
1630163329.4829, 25, 0, 4309.744, 4218.974, 4112.821, 4177.949, 4315.385, 0, 0, []
1630163329.4907, 26, 0, 4271.282, 4208.205, 4110.769, 4147.179, 4272.308, 0, 0, []
1630163329.4987, 27, 0, 4258.974, 4202.051, 4114.872, 4150.769, 4271.795, 0, 0, []
1630163329.5066, 28, 0, 4268.718, 4190.769, 4113.846, 4164.615, 4283.077, 0, 0, []
1630163329.5146, 29, 0, 4265.641, 4209.744, 4132.821, 4159.487, 4264.103, 0, 0, []
1630163329.5224, 30, 0, 4258.462, 4213.846, 4111.282, 4161.538, 4259.487, 0, 0, []
1630163329.5304, 31, 0, 4246.667, 4177.436, 4117.436, 4168.718, 4262.564, 0, 0, []
1630163329.5383, 32, 0, 4230.769, 4195.897, 4123.077, 4167.692, 4249.744, 0, 0, []
1630163329.5463, 33, 0, 4232.308, 4231.282, 4125.641, 4181.538, 4243.077, 0, 0, []
1630163329.5542, 34, 0, 4243.59, 4211.282, 4147.179, 4201.026, 4252.821, 0, 0, []
1630163329.5621, 35, 0, 4240, 4198.974, 4114.872, 4193.333, 4254.872, 0, 0, []
1630163329.57, 36, 0, 4212.308, 4209.231, 4111.795, 4170.256, 4233.846, 0, 0, []
1630163329.578, 37, 0, 4186.667, 4187.692, 4107.179, 4148.205, 4204.615, 0, 0, []
1630163329.5859, 38, 0, 4200.513, 4191.795, 4101.026, 4152.308, 4208.205, 0, 0, []
1630163329.5939, 39, 0, 4223.59, 4224.103, 4141.026, 4178.974, 4235.385, 0, 0, []
1630163329.6017, 40, 0, 4205.128, 4198.462, 4106.154, 4181.026, 4225.641, 0, 0, []
1630163329.6095, 41, 0, 4185.128, 4182.051, 4094.872, 4173.846, 4203.59, 0, 0, []
1630163329.6174, 42, 0, 4203.077, 4212.308, 4122.564, 4183.077, 4218.462, 0, 0, []
1630163329.6253, 43, 0, 4200.513, 4212.821, 4101.538, 4173.846, 4217.949, 0, 0, []
1630163329.6332, 44, 0, 4183.59, 4204.615, 4102.051, 4166.154, 4200.513, 0, 0, []
1630163329.6411, 45, 0, 4202.564, 4225.641, 4104.615, 4190.256, 4222.051, 0, 0, []
1630163329.6488, 46, 0, 4204.615, 4237.949, 4116.41, 4191.282, 4227.179, 0, 0, []
1630163329.6566, 47, 0, 4177.949, 4222.051, 4107.692, 4163.59, 4194.359, 0, 0, []
1630163329.6646, 48, 0, 4189.744, 4218.462, 4095.385, 4180, 4203.59, 0, 0, []
1630163329.6725, 49, 0, 4212.821, 4220, 4133.333, 4205.128, 4232.308, 0, 0, []
1630163329.6805, 50, 0, 4197.436, 4214.359, 4108.718, 4180.513, 4220.513, 0, 0, []
1630163329.6883, 51, 0, 4191.282, 4196.41, 4104.615, 4172.821, 4215.897, 0, 0, []
1630163329.6963, 52, 0, 4205.128, 4181.538, 4133.333, 4194.872, 4231.282, 0, 0, []
1630163329.7042, 53, 0, 4196.923, 4220, 4104.103, 4190.256, 4224.103, 0, 0, []
1630163329.7122, 54, 0, 4174.872, 4245.128, 4099.487, 4170.256, 4200, 0, 0, []
1630163329.7201, 55, 0, 4166.154, 4202.051, 4083.59, 4152.821, 4180.513, 0, 0, []
1630163329.728, 56, 0, 4166.154, 4175.385, 4092.308, 4155.385, 4176.41, 0, 0, []
1630163329.7359, 57, 0, 4164.615, 4200.513, 4124.103, 4172.308, 4180.513, 0, 0, []
1630163329.7437, 58, 0, 4171.795, 4225.128, 4109.231, 4178.462, 4190.256, 0, 0, []
1630163329.7516, 59, 0, 4185.641, 4223.077, 4128.718, 4184.103, 4201.538, 0, 0, []
1630163329.7594, 60, 0, 4184.103, 4188.718, 4112.308, 4182.051, 4192.821, 0, 0, []
1630163329.7672, 61, 0, 4165.641, 4176.923, 4080, 4161.538, 4167.692, 0, 0, []
1630163329.775, 62, 0, 4161.026, 4208.718, 4101.538, 4151.795, 4170.256, 0, 0, []
1630163329.7829, 63, 0, 4193.333, 4211.795, 4107.692, 4174.872, 4204.615, 0, 0, []
1630163329.7907, 64, 0, 4219.487, 4201.026, 4129.231, 4193.846, 4218.974, 450, 0, []
1630163329.7986, 65, 0, 4195.385, 4211.795, 4106.154, 4171.282, 4191.795, 450, 0, []
1630163329.8063, 66, 0, 4162.051, 4187.179, 4077.436, 4151.795, 4165.641, 16156, 0, []
1630163329.8142, 67, 0, 4179.487, 4156.923, 4118.974, 4178.974, 4175.897, 450, 0, []
1630163329.822, 68, 0, 4202.051, 4193.846, 4110.769, 4198.462, 4194.359, 16096, 0, []
1630163329.83, 69, 0, 4194.359, 4224.615, 4100, 4182.564, 4186.667, 450, 0, []
1630163329.8379, 70, 0, 4190.256, 4205.641, 4098.974, 4170.769, 4173.846, 225, 0, []
1630163329.8458, 71, 0, 4187.179, 4188.205, 4089.744, 4162.564, 4167.179, 450, 0, []
1630163329.8537, 72, 0, 4188.205, 4178.462, 4116.41, 4164.103, 4172.821, 450, 0, []
1630163329.8617, 73, 0, 4215.385, 4187.692, 4117.436, 4190.256, 4203.077, 16142, 0, []
1630163329.8696, 74, 0, 4220.513, 4191.795, 4121.026, 4191.795, 4211.282, 450, 0, []
1630163329.8776, 75, 0, 4197.436, 4178.462, 4109.231, 4164.103, 4191.282, 16157, 0, []
1630163329.8855, 76, 0, 4195.897, 4195.897, 4094.359, 4163.077, 4189.744, 450, 0, []
1630163329.8933, 77, 0, 4201.538, 4212.308, 4120, 4169.231, 4193.333, 450, 0, []
1630163329.9012, 78, 0, 4197.949, 4205.128, 4098.974, 4160.513, 4187.692, 450, 0, []
1630163329.909, 79, 0, 4196.41, 4213.333, 4103.59, 4162.564, 4180.513, 16157, 0, []
1630163329.9169, 80, 0, 4192.821, 4222.051, 4118.974, 4162.564, 4169.231, 450, 0, []
1630163329.9247, 81, 0, 4200, 4223.59, 4097.436, 4162.051, 4168.205, 450, 0, []
1630163329.9325, 82, 0, 4216.923, 4239.487, 4123.59, 4175.385, 4179.487, 450, 0, []
1630163329.9403, 83, 0, 4208.718, 4245.641, 4114.359, 4176.41, 4174.359, 16157, 0, []
1630163329.9482, 84, 0, 4192.821, 4224.615, 4103.59, 4175.385, 4158.462, 450, 0, []
1630163329.956, 85, 0, 4201.026, 4197.436, 4114.872, 4185.128, 4168.718, 450, 0, []
1630163329.9639, 86, 0, 4200.513, 4181.538, 4102.051, 4185.641, 4179.487, 450, 0, []
1630163329.9716, 87, 0, 4185.128, 4198.462, 4132.308, 4185.128, 4172.308, 16157, 0, []
1630163329.9796, 88, 0, 4181.538, 4200, 4115.897, 4182.051, 4170.256, 450, 0, []
1630163329.9875, 89, 0, 4188.205, 4159.487, 4092.821, 4173.846, 4170.256, 450, 0, []
1630163329.9955, 90, 0, 4185.641, 4154.359, 4119.487, 4172.821, 4164.103, 450, 0, []
1630163330.0034, 91, 0, 4171.282, 4180, 4107.179, 4172.821, 4154.359, 16157, 0, []
1630163330.0113, 92, 0, 4165.128, 4170.769, 4106.667, 4170.769, 4156.923, 450, 0, []
1630163330.0192, 93, 0, 4171.282, 4167.179, 4096.923, 4168.205, 4165.128, 450, 0, []
1630163330.0272, 94, 0, 4167.692, 4202.564, 4103.077, 4175.385, 4166.154, 450, 0, []
1630163330.0351, 95, 0, 4155.385, 4210.256, 4124.103, 4182.051, 4161.538, 16157, 0, []
1630163330.0431, 96, 0, 4150.256, 4182.564, 4093.846, 4169.231, 4152.308, 450, 0, []
1630163330.0509, 97, 0, 4151.282, 4170.256, 4104.103, 4160.513, 4147.179, 450, 0, []
1630163330.0589, 98, 0, 4165.641, 4185.128, 4117.436, 4183.077, 4166.667, 450, 0, []
1630163330.0668, 99, 0, 4187.692, 4207.179, 4117.949, 4207.179, 4186.154, 16157, 0, []
1630163330.0746, 100, 0, 4186.667, 4203.077, 4129.231, 4195.385, 4174.359, 450, 0, []
1630163330.0825, 101, 0, 4166.667, 4193.333, 4097.436, 4171.282, 4160.513, 450, 0, []
1630163330.0902, 102, 0, 4168.205, 4203.077, 4112.821, 4169.744, 4171.282, 450, 0, []
1630163330.0981, 103, 0, 4186.154, 4209.744, 4124.103, 4178.462, 4182.051, 16157, 0, []
1630163330.1059, 104, 0, 4183.59, 4185.128, 4102.051, 4181.026, 4176.41, 450, 0, []
1630163330.1138, 105, 0, 4171.282, 4166.667, 4122.564, 4183.077, 4171.795, 450, 0, []
1630163330.1216, 106, 0, 4167.179, 4174.359, 4110.769, 4182.051, 4172.821, 450, 0, []
1630163330.1294, 107, 0, 4167.692, 4182.564, 4117.949, 4182.051, 4172.821, 16157, 0, []
1630163330.1372, 108, 0, 4172.821, 4197.949, 4126.154, 4183.59, 4169.231, 450, 0, []
1630163330.1452, 109, 0, 4169.231, 4193.333, 4101.026, 4181.538, 4161.026, 450, 0, []
1630163330.1531, 110, 0, 4156.923, 4177.436, 4109.231, 4180.513, 4157.949, 450, 0, []
1630163330.1611, 111, 0, 4153.333, 4186.667, 4084.103, 4170.256, 4157.949, 16157, 0, []
1630163330.169, 112, 0, 4153.333, 4192.821, 4085.641, 4155.897, 4150.256, 450, 0, []
1630163330.1769, 113, 0, 4157.949, 4193.333, 4115.385, 4161.538, 4156.923, 450, 0, []
1630163330.1848, 114, 0, 4173.846, 4196.923, 4113.846, 4179.487, 4181.538, 450, 0, []
1630163330.1928, 115, 0, 4170.256, 4202.051, 4126.154, 4176.41, 4176.923, 16157, 0, []
1630163330.2007, 116, 0, 4153.333, 4205.128, 4107.179, 4164.103, 4152.821, 450, 0, []
1630163330.2086, 117, 0, 4172.308, 4210.769, 4128.205, 4188.205, 4174.359, 450, 0, []
1630163330.2164, 118, 0, 4195.385, 4221.026, 4149.744, 4209.231, 4202.564, 450, 0, []
1630163330.2242, 119, 0, 4182.051, 4235.897, 4108.718, 4192.308, 4187.179, 16157, 0, []
1630163330.2321, 120, 0, 4165.641, 4225.641, 4113.333, 4175.897, 4166.667, 450, 0, []
1630163330.2399, 121, 0, 4165.128, 4184.103, 4101.026, 4171.282, 4164.103, 450, 0, []
1630163330.2478, 122, 0, 4175.385, 4180.513, 4097.436, 4176.41, 4171.282, 450, 0, []
1630163330.2555, 123, 0, 4184.615, 4208.718, 4120, 4180, 4183.59, 16157, 0, []
1630163330.2634, 124, 0, 4183.59, 4198.974, 4106.667, 4177.949, 4186.154, 450, 0, []
1630163330.2712, 125, 0, 4182.564, 4192.821, 4127.692, 4184.103, 4181.026, 450, 0, []
1630163330.2791, 126, 0, 4181.026, 4219.487, 4117.436, 4180, 4183.59, 450, 0, []
1630163330.2869, 127, 0, 4169.744, 4204.103, 4099.487, 4163.59, 4185.641, 16157, 0, []
1630163330.2948, 128, 0, 4164.103, 4167.692, 4122.051, 4164.615, 4185.128, 450, 0, []
1630163330.3027, 0, 0, 4170.769, 4198.462, 4107.179, 4173.846, 4189.231, 450, 0, []
1630163330.3107, 1, 0, 4162.051, 4232.308, 4113.846, 4173.333, 4185.128, 450, 0, []
1630163330.3186, 2, 0, 4150.256, 4206.667, 4106.667, 4173.846, 4173.846, 16171, 0, []
1630163330.3266, 3, 0, 4154.872, 4182.564, 4086.667, 4169.231, 4165.128, 450, 0, []
1630163330.3344, 4, 0, 4150.256, 4178.462, 4098.462, 4154.359, 4155.897, 16095, 0, []
1630163330.3424, 5, 0, 4135.385, 4154.359, 4086.154, 4154.359, 4149.744, 450, 0, []
1630163330.3503, 6, 0, 4128.718, 4138.462, 4099.487, 4158.974, 4144.615, 224, 0, []
1630163330.3583, 7, 0, 4137.949, 4169.744, 4094.872, 4144.103, 4143.59, 450, 0, []
1630163330.3662, 8, 0, 4151.282, 4208.718, 4078.974, 4139.487, 4151.795, 450, 0, []
1630163330.3739, 9, 0, 4151.282, 4201.538, 4101.026, 4147.179, 4158.462, 16133, 0, []
1630163330.3818, 10, 0, 4151.795, 4162.564, 4088.205, 4153.333, 4169.231, 450, 0, []
1630163330.3896, 11, 0, 4173.333, 4167.179, 4115.897, 4177.436, 4198.462, 16182, 0, []
1630163330.3975, 12, 0, 4187.179, 4200.513, 4141.026, 4190.256, 4213.846, 450, 0, []
1630163330.4053, 13, 0, 4170.256, 4190.256, 4113.333, 4173.846, 4194.359, 450, 0, []
1630163330.4132, 14, 0, 4161.538, 4183.077, 4115.897, 4172.308, 4190.256, 450, 0, []
1630163330.4209, 15, 0, 4169.231, 4220.513, 4093.333, 4176.41, 4202.051, 16182, 0, []
1630163330.4288, 16, 0, 4158.974, 4224.103, 4090.769, 4162.051, 4191.282, 0, 0, []
1630163330.4366, 17, 0, 4149.744, 4176.923, 4098.462, 4159.487, 4184.615, 0, 0, []
1630163330.4445, 18, 0, 4164.615, 4165.641, 4085.641, 4175.897, 4202.051, 0, 0, []
1630163330.4523, 19, 0, 4172.308, 4183.59, 4122.564, 4185.128, 4205.128, 0, 0, []
1630163330.4602, 20, 0, 4158.462, 4187.692, 4114.359, 4182.051, 4187.179, 0, 0, []
1630163330.4681, 21, 0, 4153.333, 4182.051, 4096.41, 4183.59, 4183.59, 0, 0, []
1630163330.4761, 22, 0, 4171.795, 4153.333, 4103.077, 4178.462, 4193.846, 0, 0, []
1630163330.484, 23, 0, 4198.974, 4140, 4098.462, 4170.256, 4212.821, 0, 0, []
1630163330.492, 24, 0, 4207.179, 4170.256, 4126.667, 4170.256, 4221.026, 0, 0, []
1630163330.4998, 25, 0, 4183.59, 4183.077, 4104.615, 4151.795, 4190.769, 0, 0, []
1630163330.5078, 26, 0, 4165.128, 4156.923, 4092.821, 4142.564, 4169.231, 0, 0, []
1630163330.5157, 27, 0, 4172.308, 4146.667, 4122.564, 4162.564, 4189.231, 0, 0, []
1630163330.5235, 28, 0, 4174.359, 4162.051, 4104.615, 4172.821, 4205.128, 0, 0, []
1630163330.5314, 29, 0, 4172.308, 4168.718, 4110.256, 4169.744, 4205.641, 0, 0, []
1630163330.5391, 30, 0, 4170.769, 4152.821, 4092.308, 4157.949, 4198.974, 0, 0, []
1630163330.547, 31, 0, 4149.231, 4124.615, 4071.282, 4131.282, 4167.179, 0, 0, []
1630163330.5548, 32, 0, 4145.128, 4126.667, 4100, 4126.154, 4149.744, 0, 0, []
1630163330.5627, 33, 0, 4177.436, 4157.436, 4108.205, 4161.026, 4182.564, 0, 0, []
1630163330.5705, 34, 0, 4194.872, 4159.487, 4131.795, 4189.231, 4205.641, 0, 0, []
1630163330.5783, 35, 0, 4187.179, 4150.256, 4121.026, 4188.205, 4201.026, 0, 0, []
1630163330.5861, 36, 0, 4186.154, 4145.128, 4102.051, 4184.103, 4199.487, 0, 0, []
1630163330.594, 37, 0, 4185.128, 4128.718, 4116.923, 4171.282, 4186.667, 0, 0, []
1630163330.6018, 38, 0, 4190.256, 4146.154, 4097.949, 4156.923, 4181.026, 0, 0, []
1630163330.6098, 39, 0, 4206.667, 4190.256, 4110.769, 4165.128, 4201.538, 0, 0, []
1630163330.6176, 40, 0, 4191.795, 4176.41, 4095.385, 4160, 4191.282, 0, 0, []
1630163330.6255, 41, 0, 4160.513, 4128.718, 4070.769, 4148.718, 4165.641, 0, 0, []
1630163330.6334, 42, 0, 4169.744, 4129.744, 4116.923, 4172.308, 4187.179, 0, 0, []
1630163330.6412, 43, 0, 4197.949, 4154.872, 4112.308, 4195.897, 4213.846, 0, 0, []
1630163330.6492, 44, 0, 4197.949, 4151.795, 4098.974, 4180, 4204.615, 0, 0, []
1630163330.657, 45, 0, 4183.59, 4124.103, 4093.333, 4157.436, 4197.949, 0, 0, []
1630163330.665, 46, 0, 4184.615, 4115.897, 4087.179, 4159.487, 4207.179, 0, 0, []
1630163330.6729, 47, 0, 4189.744, 4149.744, 4114.359, 4154.872, 4202.051, 0, 0, []
1630163330.6809, 48, 0, 4191.282, 4171.795, 4095.897, 4135.897, 4195.385, 0, 0, []
1630163330.6888, 49, 0, 4214.359, 4175.385, 4110.256, 4157.949, 4216.923, 0, 0, []
1630163330.6968, 50, 0, 4233.333, 4173.333, 4134.359, 4195.897, 4238.462, 0, 0, []
1630163330.7046, 51, 0, 4212.821, 4150.769, 4104.615, 4187.692, 4221.026, 0, 0, []
1630163330.7126, 52, 0, 4200, 4155.897, 4109.744, 4170.769, 4205.128, 0, 0, []
1630163330.7205, 53, 0, 4224.615, 4188.718, 4096.923, 4176.41, 4220, 0, 0, []
1630163330.7285, 54, 0, 4240.513, 4184.615, 4093.333, 4172.821, 4231.282, 0, 0, []
1630163330.7364, 55, 0, 4242.051, 4182.564, 4100.513, 4163.59, 4245.128, 0, 0, []
1630163330.7443, 56, 0, 4263.077, 4203.077, 4084.103, 4170.769, 4281.026, 0, 0, []
1630163330.7523, 57, 0, 4288.205, 4177.436, 4102.051, 4174.359, 4320.513, 0, 0, []
1630163330.7602, 58, 0, 4320, 4158.462, 4091.795, 4172.821, 4362.051, 0, 0, []
1630163330.7681, 59, 0, 4355.385, 4190.769, 4100.513, 4175.897, 4392.308, 0, 0, []
1630163330.7761, 60, 0, 4366.154, 4201.538, 4122.564, 4177.436, 4403.077, 0, 0, []
1630163330.784, 61, 0, 4385.641, 4212.308, 4098.974, 4192.308, 4420, 0, 0, []
1630163330.7919, 62, 0, 4412.308, 4234.359, 4120, 4204.103, 4422.564, 0, 0, []
1630163330.7999, 63, 0, 4404.615, 4214.872, 4120, 4185.128, 4402.564, 0, 0, []
1630163330.8078, 64, 0, 4383.077, 4187.692, 4105.641, 4170.256, 4387.692, 450, 0, []
1630163330.8158, 65, 0, 4387.179, 4218.974, 4126.154, 4181.538, 4369.744, 450, 0, []
1630163330.8236, 66, 0, 4403.077, 4270.769, 4125.128, 4201.538, 4366.667, 16185, 0, []
1630163330.8316, 67, 0, 4407.179, 4273.846, 4147.179, 4226.667, 4382.051, 450, 0, []
1630163330.8395, 68, 0, 4385.641, 4238.974, 4131.795, 4220, 4354.872, 16092, 0, []
1630163330.8475, 69, 0, 4336.923, 4216.923, 4091.795, 4173.846, 4292.308, 450, 0, []
1630163330.8554, 70, 0, 4299.487, 4219.487, 4090.256, 4147.179, 4263.59, 237, 0, []
1630163330.8633, 71, 0, 4296.923, 4204.615, 4079.487, 4153.846, 4267.179, 450, 0, []
1630163330.8712, 72, 0, 4290.256, 4193.333, 4103.077, 4152.308, 4252.308, 450, 0, []
1630163330.8792, 73, 0, 4254.872, 4201.538, 4086.154, 4111.282, 4208.718, 16113, 0, []
1630163330.8872, 74, 0, 4238.462, 4198.462, 4065.128, 4096.41, 4188.718, 450, 0, []
1630163330.8951, 75, 0, 4274.872, 4201.026, 4117.949, 4149.231, 4221.026, 16203, 0, []
1630163330.9029, 76, 0, 4316.41, 4218.974, 4118.974, 4203.59, 4266.154, 450, 0, []
1630163330.9109, 77, 0, 4324.615, 4224.615, 4118.974, 4216.41, 4282.564, 450, 0, []
1630163330.9189, 78, 0, 4306.154, 4206.667, 4116.923, 4201.538, 4271.282, 450, 0, []
1630163330.9268, 79, 0, 4281.026, 4204.103, 4097.949, 4185.641, 4250.256, 16203, 0, []
1630163330.9348, 80, 0, 4263.077, 4228.718, 4120, 4177.949, 4233.846, 450, 0, []
1630163330.9427, 81, 0, 4247.692, 4222.051, 4096.923, 4165.641, 4216.41, 450, 0, []
1630163330.9506, 82, 0, 4225.641, 4188.718, 4083.59, 4145.641, 4189.744, 450, 0, []
1630163330.9585, 83, 0, 4216.923, 4197.436, 4086.667, 4141.026, 4180.513, 16203, 0, []
1630163330.9665, 84, 0, 4217.949, 4227.179, 4067.179, 4149.231, 4176.41, 450, 0, []
1630163330.9744, 85, 0, 4202.564, 4206.154, 4086.154, 4148.205, 4153.846, 450, 0, []
1630163330.9824, 86, 0, 4187.692, 4172.821, 4071.282, 4141.026, 4143.59, 450, 0, []
1630163330.9902, 87, 0, 4207.692, 4172.821, 4065.641, 4144.615, 4166.667, 16203, 0, []
1630163330.9982, 88, 0, 4223.59, 4180, 4078.462, 4140.513, 4172.821, 450, 0, []
1630163331.0061, 89, 0, 4205.128, 4190.256, 4073.333, 4127.692, 4153.846, 450, 0, []
1630163331.0141, 90, 0, 4216.923, 4193.333, 4114.359, 4145.641, 4177.949, 450, 0, []
1630163331.022, 91, 0, 4265.128, 4183.59, 4117.436, 4171.795, 4237.436, 16203, 0, []
1630163331.0299, 92, 0, 4270.769, 4171.795, 4113.846, 4172.821, 4255.385, 450, 0, []
1630163331.0378, 93, 0, 4234.359, 4144.103, 4121.538, 4167.179, 4237.436, 450, 0, []
1630163331.0458, 94, 0, 4210.256, 4138.974, 4084.615, 4173.846, 4232.821, 450, 0, []
1630163331.0537, 95, 0, 4200, 4174.359, 4091.795, 4189.231, 4233.846, 16203, 0, []
1630163331.0617, 96, 0, 4192.308, 4189.231, 4090.769, 4208.205, 4234.359, 450, 0, []
1630163331.0696, 97, 0, 4157.949, 4164.615, 4076.41, 4203.59, 4211.282, 450, 0, []
1630163331.0775, 98, 0, 4091.795, 4149.744, 4073.333, 4166.154, 4160.513, 450, 0, []
1630163331.0855, 99, 0, 4094.872, 4156.41, 4078.974, 4185.641, 4177.436, 16203, 0, []
1630163331.0934, 100, 0, 4153.846, 4174.359, 4137.949, 4257.436, 4244.615, 450, 0, []
1630163331.1014, 101, 0, 4154.359, 4215.897, 4130.769, 4270.256, 4251.795, 450, 0, []
1630163331.1092, 102, 0, 4115.385, 4237.949, 4096.923, 4238.974, 4210.256, 450, 0, []
1630163331.1172, 103, 0, 4093.333, 4214.359, 4109.231, 4224.103, 4182.564, 16203, 0, []
1630163331.1251, 104, 0, 4081.026, 4196.41, 4086.667, 4214.359, 4161.538, 450, 0, []
1630163331.1331, 105, 0, 4083.077, 4197.436, 4107.179, 4218.462, 4145.128, 450, 0, []
1630163331.141, 106, 0, 4102.564, 4200.513, 4128.718, 4237.949, 4155.385, 450, 0, []
1630163331.1489, 107, 0, 4119.487, 4213.333, 4121.026, 4248.718, 4181.026, 16203, 0, []
1630163331.1568, 108, 0, 4130.256, 4220, 4137.436, 4248.718, 4189.231, 450, 0, []
1630163331.1648, 109, 0, 4118.974, 4201.538, 4103.59, 4224.103, 4159.487, 450, 0, []
1630163331.1727, 110, 0, 4085.128, 4205.641, 4087.179, 4196.41, 4129.744, 450, 0, []
1630163331.1807, 111, 0, 4070.769, 4227.692, 4085.128, 4196.41, 4131.282, 16203, 0, []
1630163331.1886, 112, 0, 4064.103, 4189.744, 4064.103, 4185.641, 4118.462, 450, 0, []
1630163331.1965, 113, 0, 4057.949, 4162.564, 4085.128, 4178.462, 4105.128, 450, 0, []
1630163331.2045, 114, 0, 4086.667, 4221.026, 4089.744, 4208.718, 4134.359, 450, 0, []
1630163331.2124, 115, 0, 4098.974, 4226.667, 4093.333, 4215.385, 4147.692, 16203, 0, []
1630163331.2204, 116, 0, 4051.795, 4157.436, 4062.564, 4169.744, 4103.077, 450, 0, []
1630163331.2283, 117, 0, 4025.128, 4165.641, 4032.821, 4156.923, 4075.385, 450, 0, []
1630163331.2362, 118, 0, 4061.026, 4219.487, 4091.795, 4195.385, 4105.128, 450, 0, []
1630163331.2441, 119, 0, 4087.179, 4207.179, 4100, 4213.333, 4127.692, 16203, 0, []
1630163331.2521, 120, 0, 4085.128, 4177.949, 4095.385, 4212.308, 4127.179, 450, 0, []
1630163331.26, 121, 0, 4092.821, 4184.615, 4105.641, 4217.949, 4141.538, 450, 0, []
1630163331.268, 122, 0, 4080.513, 4183.59, 4065.128, 4195.897, 4132.308, 450, 0, []
1630163331.2758, 123, 0, 4060.513, 4195.897, 4075.385, 4176.41, 4101.026, 16203, 0, []
1630163331.2838, 124, 0, 4074.359, 4232.821, 4090.256, 4196.923, 4111.795, 450, 0, []
1630163331.2917, 125, 0, 4085.128, 4231.795, 4090.769, 4205.641, 4127.692, 450, 0, []
1630163331.2997, 126, 0, 4071.795, 4214.359, 4091.795, 4182.051, 4104.615, 450, 0, []
1630163331.3076, 127, 0, 4072.308, 4229.744, 4078.462, 4174.872, 4097.436, 16203, 0, []
1630163331.3155, 128, 0, 4080, 4234.359, 4094.872, 4183.59, 4110.769, 450, 0, []
1630163331.3234, 0, 0, 4056.923, 4222.051, 4062.051, 4166.667, 4097.436, 450, 0, []
1630163331.3314, 1, 0, 4039.487, 4242.564, 4044.103, 4156.923, 4075.897, 450, 0, []
1630163331.3393, 2, 0, 4049.744, 4242.051, 4069.744, 4167.179, 4071.795, 16190, 0, []
1630163331.3473, 3, 0, 4055.385, 4209.231, 4053.333, 4163.077, 4075.897, 450, 0, []
1630163331.3551, 4, 0, 4061.026, 4238.974, 4078.974, 4163.59, 4091.795, 16093, 0, []
1630163331.3631, 5, 0, 4082.564, 4282.564, 4095.385, 4181.538, 4112.308, 450, 0, []
1630163331.3711, 6, 0, 4100, 4271.282, 4092.308, 4197.436, 4124.103, 239, 0, []
1630163331.379, 7, 0, 4084.615, 4250.256, 4097.949, 4185.641, 4120.513, 450, 0, []
1630163331.387, 8, 0, 4064.615, 4245.641, 4065.641, 4166.154, 4115.385, 450, 0, []
1630163331.3948, 9, 0, 4078.462, 4242.051, 4086.667, 4186.667, 4129.744, 16109, 0, []
1630163331.4028, 10, 0, 4106.154, 4249.744, 4092.308, 4206.154, 4145.128, 450, 0, []
1630163331.4107, 11, 0, 4111.795, 4264.615, 4066.667, 4183.59, 4133.846, 16205, 0, []
1630163331.4187, 12, 0, 4097.436, 4252.821, 4089.744, 4163.077, 4122.564, 450, 0, []
1630163331.4266, 13, 0, 4090.256, 4248.205, 4082.564, 4172.821, 4127.179, 450, 0, []
1630163331.4346, 14, 0, 4077.436, 4262.564, 4075.897, 4168.718, 4104.615, 450, 0, []
1630163331.4424, 15, 0, 4054.359, 4253.846, 4065.128, 4147.179, 4067.179, 16205, 0, []
1630163331.4504, 16, 0, 4061.026, 4250.256, 4062.051, 4166.154, 4081.026, 0, 0, []
1630163331.4583, 17, 0, 4087.692, 4264.615, 4092.308, 4188.205, 4113.333, 0, 0, []
1630163331.4663, 18, 0, 4082.564, 4235.897, 4061.026, 4156.41, 4103.077, 0, 0, []
1630163331.4742, 19, 0, 4072.308, 4205.128, 4072.821, 4148.718, 4100.513, 0, 0, []
1630163331.4821, 20, 0, 4103.077, 4270.769, 4118.974, 4190.769, 4135.385, 0, 0, []
1630163331.49, 21, 0, 4111.282, 4305.641, 4096.41, 4189.231, 4132.308, 0, 0, []
1630163331.498, 22, 0, 4063.59, 4241.538, 4073.333, 4144.615, 4084.103, 0, 0, []
1630163331.5059, 23, 0, 4051.282, 4225.128, 4055.385, 4145.641, 4077.949, 0, 0, []
1630163331.5137, 24, 0, 4089.744, 4263.077, 4090.256, 4185.128, 4116.923, 0, 0, []
1630163331.5215, 25, 0, 4097.949, 4265.641, 4110.256, 4194.872, 4122.051, 0, 0, []
1630163331.5293, 26, 0, 4083.077, 4257.436, 4075.897, 4183.077, 4101.538, 0, 0, []
1630163331.5373, 27, 0, 4088.205, 4264.103, 4091.282, 4175.385, 4103.077, 0, 0, []
1630163331.5452, 28, 0, 4093.846, 4253.333, 4076.923, 4166.154, 4106.154, 0, 0, []
1630163331.5532, 29, 0, 4080.513, 4242.564, 4065.128, 4160, 4092.308, 0, 0, []
1630163331.561, 30, 0, 4069.744, 4262.564, 4083.077, 4149.744, 4087.692, 0, 0, []
1630163331.569, 31, 0, 4064.615, 4262.564, 4065.641, 4140.513, 4089.231, 0, 0, []
1630163331.5769, 32, 0, 4052.308, 4235.897, 4070.256, 4142.564, 4070.256, 0, 0, []
1630163331.5849, 33, 0, 4058.462, 4237.949, 4061.538, 4150.769, 4062.564, 0, 0, []
1630163331.5928, 34, 0, 4093.333, 4265.128, 4080.513, 4174.872, 4096.923, 0, 0, []
1630163331.6007, 35, 0, 4107.179, 4273.333, 4105.641, 4188.205, 4115.385, 0, 0, []
1630163331.6086, 36, 0, 4072.821, 4270.769, 4065.128, 4160.513, 4089.231, 0, 0, []
1630163331.6165, 37, 0, 4056.923, 4284.615, 4088.718, 4154.359, 4085.128, 0, 0, []
1630163331.6244, 38, 0, 4095.385, 4297.949, 4114.872, 4186.667, 4126.154, 0, 0, []
1630163331.6323, 39, 0, 4129.744, 4291.282, 4103.59, 4194.359, 4144.103, 0, 0, []
1630163331.6401, 40, 0, 4121.026, 4274.872, 4101.538, 4174.872, 4121.538, 0, 0, []
1630163331.648, 41, 0, 4110.769, 4268.718, 4076.923, 4165.128, 4106.667, 0, 0, []
1630163331.656, 42, 0, 4136.41, 4289.231, 4104.615, 4176.41, 4118.462, 0, 0, []
1630163331.6638, 43, 0, 4157.436, 4295.385, 4108.718, 4184.103, 4130.256, 0, 0, []
1630163331.6717, 44, 0, 4148.205, 4288.205, 4079.487, 4179.487, 4128.205, 0, 0, []
1630163331.6795, 45, 0, 4135.897, 4283.59, 4093.333, 4167.692, 4111.795, 0, 0, []
1630163331.6873, 46, 0, 4134.359, 4275.385, 4078.974, 4151.282, 4100, 0, 0, []
1630163331.6951, 47, 0, 4133.846, 4269.231, 4083.59, 4144.103, 4104.615, 0, 0, []
1630163331.7031, 48, 0, 4132.821, 4260.513, 4076.923, 4142.051, 4106.667, 0, 0, []
1630163331.711, 49, 0, 4142.564, 4267.179, 4067.179, 4149.744, 4107.179, 0, 0, []
1630163331.719, 50, 0, 4160, 4297.436, 4104.615, 4175.897, 4130.256, 0, 0, []
1630163331.7268, 51, 0, 4164.615, 4306.667, 4083.077, 4185.128, 4147.179, 0, 0, []
1630163331.7348, 52, 0, 4149.231, 4281.538, 4072.308, 4168.718, 4136.41, 0, 0, []
1630163331.7427, 53, 0, 4159.487, 4284.615, 4091.282, 4171.795, 4151.282, 0, 0, []
1630163331.7507, 54, 0, 4176.923, 4295.897, 4077.436, 4178.462, 4169.744, 0, 0, []
1630163331.7586, 55, 0, 4147.692, 4268.718, 4067.179, 4152.308, 4135.385, 0, 0, []
1630163331.7665, 56, 0, 4118.974, 4256.923, 4036.923, 4135.385, 4105.128, 0, 0, []
1630163331.7744, 57, 0, 4115.385, 4251.795, 4038.462, 4139.487, 4099.487, 0, 0, []
1630163331.7824, 58, 0, 4097.436, 4228.205, 4038.974, 4118.462, 4076.923, 0, 0, []
1630163331.7903, 59, 0, 4083.59, 4221.026, 4026.667, 4098.462, 4063.077, 0, 0, []
1630163331.7983, 60, 0, 4104.615, 4233.333, 4078.462, 4121.538, 4088.205, 0, 0, []
1630163331.8061, 61, 0, 4126.667, 4241.026, 4079.487, 4148.718, 4112.308, 0, 0, []
1630163331.8139, 62, 0, 4138.974, 4252.308, 4071.282, 4162.564, 4124.103, 0, 0, []
1630163331.8218, 63, 0, 4166.667, 4273.846, 4093.846, 4179.487, 4156.923, 0, 0, []
1630163331.8296, 64, 0, 4195.385, 4281.026, 4074.872, 4179.487, 4196.41, 450, 0, []
1630163331.8375, 65, 0, 4220, 4282.051, 4086.154, 4174.872, 4222.051, 450, 0, []
1630163331.8452, 66, 0, 4248.718, 4289.744, 4083.077, 4170.256, 4254.359, 16185, 0, []
1630163331.8532, 67, 0, 4281.538, 4288.205, 4081.026, 4164.615, 4295.897, 450, 0, []
1630163331.8611, 68, 0, 4312.821, 4272.821, 4098.974, 4172.821, 4323.59, 16094, 0, []
1630163331.8691, 69, 0, 4331.282, 4267.692, 4079.487, 4186.154, 4349.231, 450, 0, []
1630163331.877, 70, 0, 4331.282, 4285.128, 4095.385, 4189.231, 4371.282, 237, 0, []
1630163331.8849, 71, 0, 4315.385, 4289.744, 4088.205, 4176.923, 4357.949, 450, 0, []
1630163331.8928, 72, 0, 4287.692, 4260, 4073.846, 4166.154, 4322.051, 450, 0, []
1630163331.9008, 73, 0, 4266.667, 4236.923, 4087.692, 4155.897, 4287.179, 16113, 0, []
1630163331.9087, 74, 0, 4271.795, 4253.846, 4069.231, 4143.59, 4268.718, 450, 0, []
1630163331.9167, 75, 0, 4279.487, 4273.333, 4089.744, 4140.513, 4263.077, 16194, 0, []
1630163331.9246, 76, 0, 4265.641, 4252.308, 4085.128, 4139.487, 4255.385, 450, 0, []
1630163331.9325, 77, 0, 4246.154, 4217.436, 4055.385, 4132.308, 4230.769, 450, 0, []
1630163331.9404, 78, 0, 4232.821, 4213.333, 4070.256, 4126.154, 4208.718, 450, 0, []
1630163331.9483, 79, 0, 4230.769, 4243.077, 4060.513, 4129.744, 4201.538, 16194, 0, []
1630163331.9562, 80, 0, 4231.282, 4251.282, 4080, 4137.949, 4191.795, 450, 0, []
1630163331.964, 81, 0, 4231.795, 4232.821, 4092.308, 4144.103, 4186.154, 450, 0, []
1630163331.9718, 82, 0, 4231.795, 4233.333, 4083.077, 4149.231, 4184.615, 450, 0, []
1630163331.9796, 83, 0, 4217.949, 4248.718, 4100, 4144.103, 4168.718, 16194, 0, []
1630163331.9875, 84, 0, 4194.872, 4234.359, 4071.282, 4131.282, 4149.231, 450, 0, []
1630163331.9953, 85, 0, 4184.615, 4214.359, 4069.744, 4124.103, 4138.462, 450, 0, []
1630163332.0033, 86, 0, 4187.179, 4228.718, 4077.436, 4114.359, 4129.231, 450, 0, []
1630163332.0111, 87, 0, 4187.692, 4236.923, 4057.949, 4108.205, 4118.974, 16194, 0, []
1630163332.0191, 88, 0, 4184.615, 4215.385, 4073.333, 4114.872, 4112.821, 450, 0, []
1630163332.027, 89, 0, 4185.641, 4216.923, 4061.026, 4117.436, 4110.256, 450, 0, []
1630163332.035, 90, 0, 4189.231, 4229.231, 4073.846, 4120, 4111.282, 450, 0, []
1630163332.0429, 91, 0, 4181.538, 4214.872, 4084.615, 4115.385, 4103.077, 16194, 0, []
1630163332.0508, 92, 0, 4168.718, 4220, 4058.974, 4098.974, 4091.795, 450, 0, []
1630163332.0587, 93, 0, 4174.359, 4239.487, 4084.103, 4098.462, 4089.231, 450, 0, []
1630163332.0667, 94, 0, 4186.154, 4215.385, 4075.385, 4106.154, 4087.179, 450, 0, []
1630163332.0746, 95, 0, 4184.103, 4205.641, 4067.692, 4104.615, 4084.103, 16194, 0, []
1630163332.0826, 96, 0, 4175.385, 4245.641, 4082.051, 4096.41, 4083.59, 450, 0, []
1630163332.0904, 97, 0, 4173.846, 4250.769, 4061.538, 4090.256, 4077.949, 450, 0, []
1630163332.0982, 98, 0, 4180, 4227.692, 4080.513, 4098.974, 4078.974, 450, 0, []
1630163332.1061, 99, 0, 4186.154, 4253.333, 4075.385, 4109.231, 4084.615, 16194, 0, []
1630163332.1139, 100, 0, 4184.615, 4285.641, 4063.59, 4104.103, 4086.154, 450, 0, []
1630163332.1218, 101, 0, 4182.051, 4276.41, 4076.41, 4100.513, 4089.231, 450, 0, []
1630163332.1296, 102, 0, 4186.154, 4258.462, 4060, 4106.667, 4094.359, 450, 0, []
1630163332.1375, 103, 0, 4189.744, 4260, 4075.897, 4108.718, 4093.333, 16194, 0, []
1630163332.1454, 104, 0, 4186.154, 4281.538, 4076.923, 4103.077, 4090.769, 450, 0, []
1630163332.1534, 105, 0, 4184.103, 4292.821, 4078.974, 4106.667, 4089.231, 450, 0, []
1630163332.1613, 106, 0, 4186.154, 4273.846, 4095.385, 4114.872, 4094.872, 450, 0, []
1630163332.1693, 107, 0, 4186.667, 4266.667, 4069.231, 4113.846, 4104.615, 16194, 0, []
1630163332.1771, 108, 0, 4185.128, 4285.128, 4082.564, 4117.949, 4106.154, 450, 0, []
1630163332.1851, 109, 0, 4190.256, 4299.487, 4077.949, 4123.077, 4105.128, 450, 0, []
1630163332.193, 110, 0, 4187.179, 4296.923, 4057.949, 4125.641, 4104.103, 450, 0, []
1630163332.201, 111, 0, 4170.256, 4291.795, 4071.282, 4124.615, 4094.872, 16194, 0, []
1630163332.2089, 112, 0, 4161.026, 4289.744, 4046.154, 4106.154, 4082.051, 450, 0, []
1630163332.2168, 113, 0, 4165.128, 4287.179, 4062.564, 4098.462, 4072.308, 450, 0, []
1630163332.2247, 114, 0, 4180, 4292.821, 4077.436, 4113.333, 4078.974, 450, 0, []
1630163332.2327, 115, 0, 4186.667, 4300, 4053.333, 4114.872, 4089.744, 16194, 0, []
1630163332.2406, 116, 0, 4176.41, 4278.462, 4063.59, 4106.667, 4084.615, 450, 0, []
1630163332.2484, 117, 0, 4169.231, 4251.282, 4052.308, 4104.615, 4077.949, 450, 0, []
1630163332.2562, 118, 0, 4172.308, 4269.231, 4063.59, 4108.718, 4081.538, 450, 0, []
1630163332.264, 119, 0, 4171.795, 4288.718, 4061.538, 4110.256, 4078.462, 16194, 0, []
1630163332.2719, 120, 0, 4165.641, 4275.385, 4040.513, 4108.205, 4074.359, 450, 0, []
1630163332.2797, 121, 0, 4160.513, 4288.718, 4068.718, 4105.641, 4074.359, 450, 0, []
1630163332.2876, 122, 0, 4148.718, 4314.359, 4052.308, 4092.308, 4062.564, 450, 0, []
1630163332.2953, 123, 0, 4141.538, 4292.308, 4053.333, 4081.538, 4048.205, 16194, 0, []
1630163332.3032, 124, 0, 4138.974, 4255.385, 4065.641, 4074.872, 4044.103, 450, 0, []
1630163332.311, 125, 0, 4137.949, 4268.718, 4045.128, 4067.692, 4047.179, 450, 0, []
1630163332.319, 126, 0, 4141.026, 4281.026, 4071.282, 4070.256, 4052.308, 450, 0, []
1630163332.3269, 127, 0, 4141.538, 4247.179, 4063.077, 4071.282, 4056.41, 16194, 0, []
1630163332.3348, 128, 0, 4144.103, 4249.744, 4051.795, 4075.385, 4063.59, 450, 0, []
1630163332.3427, 0, 0, 4143.59, 4302.051, 4065.128, 4084.103, 4068.205, 450, 0, []
1630163332.3507, 1, 0, 4141.538, 4303.59, 4052.821, 4084.615, 4064.103, 450, 0, []
1630163332.3586, 2, 0, 4144.103, 4265.128, 4063.077, 4083.59, 4064.615, 16190, 0, []
1630163332.3666, 3, 0, 4146.154, 4272.821, 4045.128, 4086.154, 4069.231, 450, 0, []
1630163332.3745, 4, 0, 4140.513, 4282.051, 4043.59, 4087.179, 4058.462, 16094, 0, []
1630163332.3824, 5, 0, 4130.256, 4271.795, 4063.077, 4077.949, 4044.615, 450, 0, []
1630163332.3903, 6, 0, 4139.487, 4291.795, 4047.179, 4076.923, 4054.872, 240, 0, []
1630163332.3983, 7, 0, 4161.538, 4297.949, 4065.128, 4095.897, 4075.897, 450, 0, []
1630163332.4062, 8, 0, 4164.615, 4285.128, 4052.308, 4097.949, 4076.923, 450, 0, []
1630163332.414, 9, 0, 4153.846, 4304.615, 4045.128, 4087.179, 4063.077, 16116, 0, []
1630163332.4218, 10, 0, 4145.641, 4321.538, 4073.333, 4089.231, 4051.282, 450, 0, []
1630163332.4296, 11, 0, 4140, 4296.923, 4051.795, 4086.667, 4046.667, 16205, 0, []
1630163332.4375, 12, 0, 4145.128, 4293.333, 4060, 4081.538, 4053.333, 450, 0, []
1630163332.4453, 13, 0, 4156.923, 4319.487, 4060, 4086.154, 4063.59, 450, 0, []
1630163332.4532, 14, 0, 4148.718, 4307.692, 4049.744, 4086.667, 4058.462, 450, 0, []
1630163332.4609, 15, 0, 4135.385, 4280.513, 4072.308, 4083.59, 4050.256, 16205, 0, []
1630163332.4689, 16, 0, 4143.077, 4286.154, 4056.41, 4083.077, 4059.487, 0, 0, []
1630163332.4768, 17, 0, 4148.718, 4301.026, 4059.487, 4084.103, 4065.128, 0, 0, []
1630163332.4848, 18, 0, 4139.487, 4293.333, 4057.949, 4081.026, 4056.923, 0, 0, []
1630163332.4927, 19, 0, 4134.872, 4296.923, 4053.333, 4084.103, 4063.59, 0, 0, []
1630163332.5006, 20, 0, 4144.103, 4319.487, 4077.949, 4093.333, 4076.923, 0, 0, []
1630163332.5085, 21, 0, 4152.821, 4290.769, 4053.846, 4088.205, 4073.333, 0, 0, []
1630163332.5165, 22, 0, 4153.333, 4266.667, 4055.385, 4083.077, 4067.179, 0, 0, []
1630163332.5244, 23, 0, 4148.205, 4300, 4060, 4085.128, 4073.846, 0, 0, []
1630163332.5324, 24, 0, 4141.026, 4293.846, 4046.667, 4088.205, 4074.872, 0, 0, []
1630163332.5402, 25, 0, 4144.615, 4266.667, 4076.41, 4103.077, 4071.282, 0, 0, []
1630163332.5482, 26, 0, 4155.385, 4301.538, 4064.615, 4107.179, 4080, 0, 0, []
1630163332.5561, 27, 0, 4157.949, 4326.667, 4067.179, 4102.051, 4090.256, 0, 0, []
1630163332.5639, 28, 0, 4161.026, 4308.718, 4080, 4110.769, 4092.308, 0, 0, []
1630163332.5718, 29, 0, 4172.308, 4317.949, 4066.154, 4121.538, 4096.41, 0, 0, []
1630163332.5795, 30, 0, 4166.154, 4323.077, 4087.692, 4119.487, 4096.41, 0, 0, []
1630163332.5874, 31, 0, 4152.821, 4289.744, 4074.359, 4114.872, 4090.769, 0, 0, []
1630163332.5952, 32, 0, 4160.513, 4285.128, 4072.821, 4120, 4096.41, 0, 0, []
1630163332.6031, 33, 0, 4168.205, 4316.923, 4087.179, 4117.949, 4105.641, 0, 0, []
1630163332.6109, 34, 0, 4162.051, 4334.872, 4067.692, 4108.205, 4099.487, 0, 0, []
1630163332.6188, 35, 0, 4162.051, 4317.436, 4081.026, 4105.641, 4096.923, 0, 0, []
1630163332.6266, 36, 0, 4171.795, 4292.821, 4071.795, 4103.077, 4107.692, 0, 0, []
1630163332.6345, 37, 0, 4173.333, 4300, 4070.769, 4104.615, 4110.256, 0, 0, []
1630163332.6425, 38, 0, 4162.051, 4285.641, 4086.154, 4105.128, 4103.59, 0, 0, []
1630163332.6505, 39, 0, 4158.462, 4247.179, 4067.179, 4101.026, 4107.179, 0, 0, []
1630163332.6584, 40, 0, 4167.179, 4248.205, 4084.103, 4107.179, 4109.744, 0, 0, []
1630163332.6663, 41, 0, 4171.795, 4251.282, 4075.385, 4104.103, 4094.872, 0, 0, []
1630163332.6742, 42, 0, 4167.179, 4228.205, 4064.615, 4092.308, 4082.051, 0, 0, []
1630163332.6822, 43, 0, 4165.641, 4235.897, 4083.077, 4095.897, 4092.308, 0, 0, []
1630163332.6901, 44, 0, 4159.487, 4241.538, 4060.513, 4100.513, 4104.615, 0, 0, []
1630163332.6981, 45, 0, 4149.231, 4209.231, 4065.641, 4097.436, 4092.821, 0, 0, []
1630163332.7059, 46, 0, 4151.795, 4224.615, 4064.615, 4096.923, 4081.538, 0, 0, []
1630163332.7137, 47, 0, 4154.872, 4265.641, 4059.487, 4101.026, 4095.385, 0, 0, []
1630163332.7216, 48, 0, 4158.462, 4240, 4077.949, 4104.615, 4110.769, 0, 0, []
1630163332.7294, 49, 0, 4168.718, 4193.846, 4053.333, 4100, 4109.744, 0, 0, []
1630163332.7373, 50, 0, 4171.795, 4194.359, 4066.154, 4101.538, 4107.692, 0, 0, []
1630163332.745, 51, 0, 4172.308, 4214.872, 4077.436, 4104.103, 4116.41, 0, 0, []
1630163332.7529, 52, 0, 4182.564, 4214.359, 4066.667, 4103.59, 4125.641, 0, 0, []
1630163332.7607, 53, 0, 4185.641, 4221.538, 4087.179, 4109.744, 4122.564, 0, 0, []
1630163332.7686, 54, 0, 4172.308, 4237.949, 4065.128, 4108.718, 4110.769, 0, 0, []
1630163332.7764, 55, 0, 4156.923, 4223.077, 4061.538, 4094.872, 4100.513, 0, 0, []
1630163332.7843, 56, 0, 4149.744, 4207.179, 4061.026, 4078.462, 4094.872, 0, 0, []
1630163332.7922, 57, 0, 4147.179, 4208.205, 4047.179, 4083.59, 4091.795, 0, 0, []
1630163332.8002, 58, 0, 4147.692, 4207.179, 4069.744, 4102.051, 4096.41, 0, 0, []
1630163332.8081, 59, 0, 4150.256, 4198.462, 4050.256, 4092.308, 4106.667, 0, 0, []
1630163332.8161, 60, 0, 4151.282, 4191.282, 4051.282, 4079.487, 4104.615, 0, 0, []
1630163332.824, 61, 0, 4151.282, 4196.923, 4070.256, 4091.795, 4101.538, 0, 0, []
1630163332.8319, 62, 0, 4153.846, 4212.308, 4064.103, 4103.59, 4115.897, 0, 0, []
1630163332.8398, 63, 0, 4155.385, 4226.667, 4084.103, 4098.462, 4126.154, 0, 0, []
1630163332.8478, 64, 0, 4151.282, 4213.846, 4065.641, 4085.128, 4112.308, 450, 0, []
1630163332.8557, 65, 0, 4152.821, 4204.103, 4056.41, 4083.077, 4099.487, 450, 0, []
1630163332.8635, 66, 0, 4157.949, 4204.103, 4068.718, 4085.641, 4108.205, 16185, 0, []
1630163332.8713, 67, 0, 4154.872, 4190.769, 4057.436, 4086.667, 4118.974, 450, 0, []
1630163332.8791, 68, 0, 4160, 4194.359, 4084.103, 4098.974, 4124.103, 16090, 0, []
1630163332.887, 69, 0, 4171.282, 4228.718, 4073.846, 4103.59, 4125.128, 450, 0, []
1630163332.8948, 70, 0, 4167.692, 4238.974, 4059.487, 4092.308, 4115.897, 234, 0, []
1630163332.9027, 71, 0, 4156.41, 4200, 4078.974, 4089.744, 4113.846, 450, 0, []
1630163332.9104, 72, 0, 4154.359, 4194.872, 4070.256, 4095.897, 4120, 450, 0, []
1630163332.9184, 73, 0, 4162.051, 4221.026, 4086.154, 4103.077, 4121.026, 16123, 0, []
1630163332.9263, 74, 0, 4170.256, 4222.051, 4076.923, 4103.59, 4118.974, 450, 0, []
1630163332.9343, 75, 0, 4172.308, 4232.308, 4064.615, 4106.154, 4123.59, 16190, 0, []
1630163332.9422, 76, 0, 4171.282, 4253.333, 4077.949, 4114.872, 4131.282, 450, 0, []
1630163332.9501, 77, 0, 4181.026, 4244.615, 4058.974, 4118.462, 4137.949, 450, 0, []
1630163332.958, 78, 0, 4193.333, 4245.128, 4082.051, 4120, 4140, 450, 0, []
1630163332.966, 79, 0, 4198.974, 4252.308, 4092.308, 4115.385, 4137.436, 16190, 0, []
1630163332.9739, 80, 0, 4201.026, 4221.026, 4081.026, 4112.821, 4138.974, 450, 0, []
1630163332.9819, 81, 0, 4201.026, 4221.026, 4090.256, 4118.462, 4136.923, 450, 0, []
1630163332.9897, 82, 0, 4208.205, 4254.359, 4064.615, 4117.949, 4136.41, 450, 0, []
1630163332.9977, 83, 0, 4217.436, 4231.795, 4075.385, 4119.487, 4145.128, 16190, 0, []
1630163333.0056, 84, 0, 4217.949, 4202.564, 4084.103, 4120.513, 4151.282, 450, 0, []
1630163333.0134, 85, 0, 4224.103, 4245.128, 4073.333, 4116.923, 4152.308, 450, 0, []
1630163333.0213, 86, 0, 4230.256, 4265.641, 4089.744, 4114.359, 4154.872, 450, 0, []
1630163333.029, 87, 0, 4231.795, 4218.974, 4075.385, 4110.256, 4153.846, 16190, 0, []
1630163333.0369, 88, 0, 4243.077, 4215.385, 4091.795, 4118.462, 4154.872, 450, 0, []
1630163333.0447, 89, 0, 4250.769, 4236.41, 4101.538, 4128.205, 4165.128, 450, 0, []
1630163333.0526, 90, 0, 4239.487, 4209.231, 4077.949, 4122.564, 4168.718, 450, 0, []
1630163333.0604, 91, 0, 4231.282, 4195.897, 4094.872, 4113.846, 4155.897, 16190, 0, []
1630163333.0684, 92, 0, 4233.846, 4218.462, 4083.59, 4106.154, 4139.487, 450, 0, []
1630163333.0762, 93, 0, 4231.282, 4210.769, 4084.615, 4108.205, 4138.462, 450, 0, []
1630163333.0841, 94, 0, 4228.718, 4205.641, 4088.205, 4115.897, 4148.718, 450, 0, []
1630163333.0919, 95, 0, 4228.205, 4226.154, 4069.744, 4120, 4148.718, 16190, 0, []
1630163333.0999, 96, 0, 4232.821, 4205.641, 4091.795, 4118.974, 4143.59, 450, 0, []
1630163333.1078, 97, 0, 4251.795, 4185.128, 4077.436, 4109.231, 4154.359, 450, 0, []
1630163333.1157, 98, 0, 4275.385, 4195.385, 4078.462, 4109.231, 4174.359, 450, 0, []
1630163333.1236, 99, 0, 4305.641, 4180.513, 4094.872, 4111.795, 4200, 16190, 0, []
1630163333.1316, 100, 0, 4353.333, 4165.641, 4080.513, 4115.385, 4253.846, 450, 0, []
1630163333.1395, 101, 0, 4407.179, 4169.744, 4102.564, 4134.872, 4317.949, 450, 0, []
1630163333.1475, 102, 0, 4455.385, 4178.974, 4094.359, 4143.59, 4355.385, 450, 0, []
1630163333.1553, 103, 0, 4487.692, 4172.308, 4093.846, 4133.846, 4381.538, 16190, 0, []
1630163333.1631, 104, 0, 4488.205, 4133.333, 4108.205, 4126.154, 4401.538, 450, 0, []
1630163333.171, 105, 0, 4465.641, 4120.513, 4070.256, 4119.487, 4384.103, 450, 0, []
1630163333.1788, 106, 0, 4444.103, 4151.795, 4068.718, 4107.692, 4351.282, 450, 0, []
1630163333.1867, 107, 0, 4424.615, 4141.538, 4069.231, 4095.385, 4335.385, 16190, 0, []
1630163333.1944, 108, 0, 4405.128, 4118.974, 4080, 4097.949, 4314.359, 450, 0, []
1630163333.2023, 109, 0, 4391.282, 4145.641, 4102.051, 4109.231, 4296.923, 450, 0, []
1630163333.2101, 110, 0, 4380.513, 4151.282, 4071.795, 4109.744, 4294.359, 450, 0, []
1630163333.218, 111, 0, 4353.333, 4117.949, 4080, 4104.615, 4273.333, 16190, 0, []
1630163333.2258, 112, 0, 4315.897, 4087.179, 4080.513, 4097.949, 4242.051, 450, 0, []
1630163333.2337, 113, 0, 4299.487, 4078.462, 4063.59, 4097.949, 4232.308, 450, 0, []
1630163333.2416, 114, 0, 4298.462, 4111.282, 4077.436, 4106.667, 4234.359, 450, 0, []
1630163333.2496, 115, 0, 4286.667, 4121.026, 4066.154, 4096.923, 4229.231, 16190, 0, []
1630163333.2575, 116, 0, 4269.744, 4084.615, 4085.641, 4088.205, 4216.41, 450, 0, []
1630163333.2655, 117, 0, 4261.538, 4090.769, 4089.744, 4097.949, 4203.077, 450, 0, []
1630163333.2733, 118, 0, 4263.077, 4110.769, 4081.538, 4109.231, 4201.026, 450, 0, []
1630163333.2813, 119, 0, 4265.641, 4093.846, 4109.231, 4111.795, 4198.974, 16190, 0, []
1630163333.2892, 120, 0, 4255.385, 4096.923, 4084.615, 4108.205, 4187.692, 450, 0, []
1630163333.2972, 121, 0, 4236.923, 4097.436, 4078.974, 4104.615, 4180, 450, 0, []
1630163333.3051, 122, 0, 4226.667, 4067.692, 4083.077, 4092.308, 4168.718, 450, 0, []
1630163333.3129, 123, 0, 4215.897, 4066.667, 4070.256, 4085.128, 4153.846, 16190, 0, []
1630163333.3207, 124, 0, 4203.077, 4080.513, 4083.077, 4090.769, 4149.231, 450, 0, []
1630163333.3285, 125, 0, 4197.436, 4071.795, 4061.026, 4083.59, 4149.744, 450, 0, []
1630163333.3364, 126, 0, 4197.949, 4087.692, 4072.821, 4082.051, 4150.256, 450, 0, []
1630163333.3442, 127, 0, 4207.692, 4125.641, 4096.41, 4096.923, 4156.41, 16190, 0, []
1630163333.3521, 128, 0, 4216.923, 4120, 4077.436, 4101.026, 4156.923, 450, 0, []
1630163333.3598, 0, 0, 4204.615, 4086.154, 4081.026, 4088.718, 4143.077, 450, 0, []
1630163333.3677, 1, 0, 4186.154, 4083.59, 4065.128, 4077.949, 4133.846, 450, 0, []
1630163333.3755, 2, 0, 4183.077, 4095.385, 4066.667, 4086.667, 4137.949, 16178, 0, []
1630163333.3835, 3, 0, 4176.41, 4075.385, 4066.154, 4093.846, 4131.795, 450, 0, []
1630163333.3914, 4, 0, 4162.051, 4063.59, 4046.154, 4084.103, 4114.359, 16095, 0, []
1630163333.3993, 5, 0, 4166.667, 4105.128, 4089.231, 4092.308, 4121.538, 450, 0, []
1630163333.4072, 6, 0, 4172.821, 4124.103, 4091.282, 4103.077, 4136.41, 241, 0, []
1630163333.4152, 7, 0, 4168.718, 4104.103, 4078.462, 4102.051, 4130.256, 450, 0, []
1630163333.4231, 8, 0, 4175.897, 4122.564, 4091.282, 4109.744, 4124.103, 450, 0, []
1630163333.4311, 9, 0, 4191.282, 4141.538, 4067.692, 4123.59, 4134.872, 16109, 0, []
1630163333.4389, 10, 0, 4185.641, 4127.179, 4083.077, 4120.513, 4143.59, 450, 0, []
1630163333.4469, 11, 0, 4168.205, 4137.949, 4083.59, 4104.615, 4132.821, 16200, 0, []
1630163333.4548, 12, 0, 4172.308, 4171.795, 4078.974, 4108.205, 4126.154, 450, 0, []
1630163333.4628, 13, 0, 4187.179, 4175.897, 4102.564, 4122.051, 4141.026, 450, 0, []
1630163333.4707, 14, 0, 4187.692, 4162.564, 4091.282, 4124.615, 4156.923, 450, 0, []
1630163333.4784, 15, 0, 4183.077, 4169.231, 4101.538, 4128.718, 4155.897, 16200, 0, []
1630163333.4863, 16, 0, 4187.179, 4190.256, 4087.692, 4123.59, 4151.795, 0, 0, []
1630163333.4941, 17, 0, 4190.256, 4190.769, 4073.333, 4113.846, 4156.41, 0, 0, []
1630163333.502, 18, 0, 4183.59, 4166.154, 4094.359, 4114.359, 4154.872, 0, 0, []
1630163333.5098, 19, 0, 4182.051, 4171.795, 4074.872, 4112.821, 4151.282, 0, 0, []
1630163333.5177, 20, 0, 4187.692, 4208.718, 4089.231, 4118.462, 4154.872, 0, 0, []
1630163333.5254, 21, 0, 4183.077, 4216.41, 4096.41, 4128.718, 4152.308, 0, 0, []
1630163333.5333, 22, 0, 4170.769, 4191.282, 4083.59, 4129.744, 4143.077, 0, 0, []
1630163333.5411, 23, 0, 4173.333, 4184.103, 4100, 4133.846, 4146.667, 0, 0, []
1630163333.549, 24, 0, 4181.026, 4193.846, 4078.462, 4136.923, 4152.821, 0, 0, []
1630163333.5568, 25, 0, 4176.923, 4190.256, 4082.564, 4134.872, 4143.077, 0, 0, []
1630163333.5647, 26, 0, 4167.692, 4191.282, 4082.051, 4125.128, 4134.359, 0, 0, []
1630163333.5726, 27, 0, 4164.615, 4204.103, 4063.077, 4116.923, 4139.487, 0, 0, []
1630163333.5806, 28, 0, 4164.615, 4211.795, 4090.256, 4116.41, 4138.974, 0, 0, []
1630163333.5885, 29, 0, 4165.641, 4200, 4081.026, 4116.923, 4135.385, 0, 0, []
1630163333.5965, 30, 0, 4173.333, 4166.667, 4082.051, 4132.308, 4147.692, 0, 0, []
1630163333.6043, 31, 0, 4180, 4147.179, 4086.667, 4141.538, 4157.436, 0, 0, []
1630163333.6123, 32, 0, 4174.872, 4185.128, 4066.667, 4126.667, 4153.333, 0, 0, []
1630163333.6202, 33, 0, 4164.103, 4221.026, 4084.103, 4114.359, 4149.231, 0, 0, []
1630163333.6281, 34, 0, 4171.795, 4208.205, 4073.846, 4116.41, 4151.282, 0, 0, []
1630163333.636, 35, 0, 4182.564, 4216.41, 4080, 4127.179, 4154.872, 0, 0, []
1630163333.6437, 36, 0, 4172.308, 4245.641, 4095.385, 4130.769, 4159.487, 0, 0, []
1630163333.6517, 37, 0, 4168.718, 4234.359, 4072.308, 4130.256, 4167.692, 0, 0, []
1630163333.6596, 38, 0, 4177.949, 4216.923, 4080, 4138.974, 4171.282, 0, 0, []
1630163333.6675, 39, 0, 4170.769, 4238.462, 4064.615, 4139.487, 4160.513, 0, 0, []
1630163333.6753, 40, 0, 4157.436, 4250.769, 4073.846, 4131.795, 4148.205, 0, 0, []
1630163333.6831, 41, 0, 4174.359, 4250.256, 4108.205, 4136.923, 4162.051, 0, 0, []
1630163333.6909, 42, 0, 4195.385, 4258.462, 4085.128, 4144.103, 4186.154, 0, 0, []
1630163333.6988, 43, 0, 4187.692, 4248.718, 4086.667, 4143.077, 4188.718, 0, 0, []
1630163333.7066, 44, 0, 4187.179, 4255.897, 4083.077, 4140, 4182.564, 0, 0, []
1630163333.7146, 45, 0, 4200, 4283.077, 4089.744, 4146.667, 4187.179, 0, 0, []
1630163333.7224, 46, 0, 4194.872, 4270.769, 4106.667, 4151.282, 4185.641, 0, 0, []
1630163333.7304, 47, 0, 4187.179, 4248.718, 4081.538, 4152.821, 4183.077, 0, 0, []
1630163333.7383, 48, 0, 4198.974, 4261.026, 4098.974, 4164.615, 4195.897, 0, 0, []
1630163333.7463, 49, 0, 4204.103, 4264.103, 4094.872, 4158.974, 4204.615, 0, 0, []
1630163333.7542, 50, 0, 4194.359, 4253.846, 4081.538, 4147.179, 4200, 0, 0, []
1630163333.7622, 51, 0, 4194.872, 4263.59, 4109.744, 4157.949, 4200, 0, 0, []
1630163333.77, 52, 0, 4201.026, 4266.667, 4093.846, 4161.538, 4204.615, 0, 0, []
1630163333.778, 53, 0, 4193.846, 4236.41, 4092.821, 4151.795, 4199.487, 0, 0, []
1630163333.7859, 54, 0, 4189.231, 4193.846, 4095.897, 4151.282, 4196.41, 0, 0, []
1630163333.7939, 55, 0, 4200.513, 4175.897, 4093.333, 4156.923, 4206.154, 0, 0, []
1630163333.8018, 56, 0, 4204.103, 4205.641, 4110.256, 4152.308, 4204.103, 0, 0, []
1630163333.8095, 57, 0, 4196.923, 4234.359, 4091.795, 4143.59, 4194.872, 0, 0, []
1630163333.8174, 58, 0, 4206.667, 4212.821, 4112.308, 4155.385, 4209.744, 0, 0, []
1630163333.8252, 59, 0, 4215.897, 4200, 4123.077, 4164.615, 4236.41, 0, 0, []
1630163333.8331, 60, 0, 4207.692, 4253.333, 4100.513, 4155.897, 4236.41, 0, 0, []
1630163333.8409, 61, 0, 4200, 4293.846, 4116.923, 4149.744, 4216.41, 0, 0, []
1630163333.8487, 62, 0, 4201.026, 4272.308, 4100, 4149.231, 4208.205, 0, 0, []
1630163333.8565, 63, 0, 4208.205, 4270.256, 4112.308, 4162.564, 4223.59, 0, 0, []
1630163333.8644, 64, 0, 4215.385, 4308.718, 4128.205, 4173.846, 4234.359, 450, 0, []
1630163333.8722, 65, 0, 4212.308, 4309.744, 4101.538, 4165.641, 4222.564, 450, 0, []
1630163333.8802, 66, 0, 4197.949, 4270.256, 4110.769, 4150.256, 4208.718, 16174, 0, []
1630163333.888, 67, 0, 4197.949, 4267.179, 4106.154, 4142.051, 4213.846, 450, 0, []
1630163333.896, 68, 0, 4214.359, 4313.846, 4119.487, 4150.256, 4215.385, 16097, 0, []
1630163333.9039, 69, 0, 4214.872, 4338.974, 4131.795, 4156.41, 4205.128, 450, 0, []
1630163333.9119, 70, 0, 4205.641, 4315.385, 4114.359, 4156.923, 4207.179, 232, 0, []
1630163333.9198, 71, 0, 4202.051, 4301.538, 4133.333, 4159.487, 4215.385, 450, 0, []
1630163333.9277, 72, 0, 4203.59, 4305.641, 4112.308, 4151.795, 4213.333, 450, 0, []
1630163333.9356, 73, 0, 4211.795, 4296.41, 4105.641, 4145.641, 4215.385, 16116, 0, []
1630163333.9434, 74, 0, 4215.385, 4287.179, 4122.051, 4146.154, 4214.872, 450, 0, []
1630163333.9513, 75, 0, 4199.487, 4299.487, 4095.897, 4142.564, 4200, 16195, 0, []
1630163333.9591, 76, 0, 4192.308, 4325.128, 4109.744, 4155.897, 4199.487, 450, 0, []
1630163333.967, 77, 0, 4213.333, 4314.359, 4105.641, 4175.897, 4220, 450, 0, []
1630163333.9747, 78, 0, 4220, 4287.692, 4097.949, 4174.872, 4221.538, 450, 0, []
1630163333.9826, 79, 0, 4208.718, 4306.154, 4116.41, 4164.103, 4206.667, 16195, 0, []
1630163333.9904, 80, 0, 4205.128, 4323.077, 4102.564, 4159.487, 4209.744, 450, 0, []
1630163333.9983, 81, 0, 4200.513, 4302.564, 4117.949, 4154.872, 4213.333, 450, 0, []
1630163334.0061, 82, 0, 4198.462, 4302.051, 4112.821, 4142.564, 4202.564, 450, 0, []
1630163334.0139, 83, 0, 4203.077, 4330.256, 4094.872, 4143.59, 4196.41, 16195, 0, []
1630163334.0217, 84, 0, 4198.974, 4328.718, 4103.59, 4154.359, 4203.077, 450, 0, []
1630163334.0297, 85, 0, 4203.59, 4303.077, 4093.846, 4154.872, 4215.385, 450, 0, []
1630163334.0376, 86, 0, 4229.744, 4308.205, 4126.154, 4156.923, 4218.462, 450, 0, []
1630163334.0456, 87, 0, 4237.436, 4337.436, 4125.128, 4154.872, 4207.692, 16195, 0, []
1630163334.0534, 88, 0, 4221.026, 4325.641, 4100, 4151.282, 4200, 450, 0, []
1630163334.0614, 89, 0, 4217.436, 4283.077, 4125.641, 4161.538, 4203.59, 450, 0, []
1630163334.0693, 90, 0, 4231.282, 4280.513, 4113.333, 4169.231, 4201.538, 450, 0, []
1630163334.0773, 91, 0, 4242.051, 4295.385, 4120, 4178.462, 4204.103, 16195, 0, []
1630163334.0852, 92, 0, 4242.564, 4268.205, 4123.077, 4188.718, 4215.897, 450, 0, []
1630163334.093, 93, 0, 4233.846, 4232.821, 4098.974, 4172.821, 4204.103, 450, 0, []
1630163334.1009, 94, 0, 4226.667, 4232.821, 4112.821, 4147.179, 4176.923, 450, 0, []
1630163334.1087, 95, 0, 4230.769, 4226.154, 4107.179, 4144.103, 4183.077, 16195, 0, []
1630163334.1166, 96, 0, 4245.641, 4216.923, 4120, 4160.513, 4210.769, 450, 0, []
1630163334.1244, 97, 0, 4262.564, 4243.59, 4117.949, 4166.667, 4213.846, 450, 0, []
1630163334.1322, 98, 0, 4266.154, 4254.872, 4094.359, 4164.615, 4203.59, 450, 0, []
1630163334.14, 99, 0, 4256.41, 4220, 4117.949, 4162.051, 4197.436, 16195, 0, []
1630163334.1479, 100, 0, 4251.795, 4216.41, 4098.974, 4148.718, 4190.256, 450, 0, []
1630163334.1557, 101, 0, 4247.179, 4250.769, 4088.718, 4139.487, 4182.051, 450, 0, []
1630163334.1637, 102, 0, 4234.359, 4236.923, 4096.923, 4134.359, 4182.051, 450, 0, []
1630163334.1715, 103, 0, 4230.256, 4215.897, 4083.077, 4129.744, 4180.513, 16195, 0, []
1630163334.1795, 104, 0, 4237.949, 4241.026, 4111.282, 4144.615, 4176.923, 450, 0, []
1630163334.1874, 105, 0, 4228.718, 4267.692, 4103.077, 4154.359, 4172.308, 450, 0, []
1630163334.1954, 106, 0, 4211.795, 4259.487, 4095.385, 4141.026, 4169.231, 450, 0, []
1630163334.2033, 107, 0, 4223.59, 4224.103, 4108.718, 4130.256, 4178.462, 16195, 0, []
1630163334.2113, 108, 0, 4233.333, 4208.205, 4092.308, 4128.718, 4180, 450, 0, []
1630163334.2191, 109, 0, 4221.538, 4252.308, 4103.59, 4127.692, 4165.641, 450, 0, []
1630163334.2271, 110, 0, 4231.795, 4291.282, 4083.59, 4115.385, 4165.128, 450, 0, []
1630163334.235, 111, 0, 4271.795, 4254.872, 4087.179, 4116.41, 4190.769, 16195, 0, []
1630163334.243, 112, 0, 4296.41, 4216.41, 4125.128, 4134.872, 4216.41, 450, 0, []
1630163334.2509, 113, 0, 4292.821, 4225.128, 4098.462, 4131.795, 4216.41, 450, 0, []
1630163334.2588, 114, 0, 4278.462, 4237.436, 4104.615, 4120.513, 4198.974, 450, 0, []
1630163334.2667, 115, 0, 4266.154, 4240, 4111.795, 4128.205, 4195.897, 16195, 0, []
1630163334.2745, 116, 0, 4272.821, 4238.974, 4102.051, 4144.615, 4210.256, 450, 0, []
1630163334.2824, 117, 0, 4285.641, 4231.282, 4110.769, 4141.026, 4218.462, 450, 0, []
1630163334.2902, 118, 0, 4282.051, 4228.718, 4102.051, 4127.692, 4213.846, 450, 0, []
1630163334.298, 119, 0, 4265.641, 4236.923, 4119.487, 4126.154, 4202.051, 16195, 0, []
1630163334.3058, 120, 0, 4253.846, 4225.641, 4101.026, 4121.538, 4186.154, 450, 0, []
1630163334.3137, 121, 0, 4261.026, 4199.487, 4080.513, 4124.615, 4188.205, 450, 0, []
1630163334.3215, 122, 0, 4269.231, 4212.308, 4111.282, 4145.641, 4203.59, 450, 0, []
1630163334.3294, 123, 0, 4256.41, 4236.923, 4090.769, 4145.128, 4199.487, 16195, 0, []
1630163334.3371, 124, 0, 4240.513, 4212.821, 4088.205, 4133.333, 4184.103, 450, 0, []
1630163334.3451, 125, 0, 4240.513, 4200, 4090.256, 4131.282, 4182.564, 450, 0, []
1630163334.353, 126, 0, 4242.564, 4222.564, 4080.513, 4133.333, 4189.231, 450, 0, []
1630163334.361, 127, 0, 4248.205, 4199.487, 4103.59, 4138.462, 4191.795, 16195, 0, []
1630163334.3689, 128, 0, 4247.692, 4163.077, 4082.051, 4129.744, 4188.718, 450, 0, []
1630163334.3768, 0, 0, 4228.718, 4200, 4085.128, 4116.41, 4183.077, 450, 0, []
1630163334.3847, 1, 0, 4217.436, 4229.744, 4096.923, 4111.795, 4177.436, 450, 0, []
1630163334.3927, 2, 0, 4222.051, 4202.051, 4074.359, 4111.795, 4170.769, 16178, 0, []
1630163334.4006, 3, 0, 4216.41, 4201.026, 4081.538, 4108.205, 4158.462, 450, 0, []
1630163334.4084, 4, 0, 4209.231, 4219.487, 4069.231, 4106.667, 4151.282, 16094, 0, []
1630163334.4162, 5, 0, 4214.359, 4213.333, 4081.538, 4116.41, 4152.821, 450, 0, []
1630163334.424, 6, 0, 4215.385, 4207.179, 4097.949, 4116.923, 4151.282, 239, 0, []
1630163334.4319, 7, 0, 4213.846, 4211.282, 4086.667, 4109.231, 4150.769, 450, 0, []
1630163334.4397, 8, 0, 4222.564, 4202.564, 4113.333, 4116.923, 4152.821, 450, 0, []
1630163334.4476, 9, 0, 4226.667, 4207.179, 4095.897, 4121.026, 4152.308, 16110, 0, []
1630163334.4554, 10, 0, 4222.051, 4236.41, 4089.744, 4114.359, 4160, 450, 0, []
1630163334.4632, 11, 0, 4213.333, 4228.718, 4115.897, 4115.385, 4169.744, 16201, 0, []
1630163334.471, 12, 0, 4217.949, 4187.179, 4097.949, 4126.154, 4171.282, 450, 0, []
1630163334.4789, 13, 0, 4226.667, 4197.949, 4101.026, 4131.795, 4181.026, 450, 0, []
1630163334.4867, 14, 0, 4225.128, 4235.385, 4097.949, 4128.718, 4186.667, 450, 0, []
1630163334.4947, 15, 0, 4223.077, 4194.872, 4110.256, 4135.385, 4173.333, 16201, 0, []
1630163334.5025, 16, 0, 4228.718, 4142.564, 4122.051, 4138.462, 4162.564, 0, 0, []
1630163334.5105, 17, 0, 4235.897, 4177.949, 4087.179, 4132.308, 4170.256, 0, 0, []
1630163334.5184, 18, 0, 4233.333, 4200.513, 4108.205, 4143.59, 4174.359, 0, 0, []
1630163334.5264, 19, 0, 4221.538, 4146.154, 4108.205, 4142.564, 4170.256, 0, 0, []
1630163334.5343, 20, 0, 4214.872, 4110.769, 4089.744, 4126.667, 4168.205, 0, 0, []
1630163334.5422, 21, 0, 4222.051, 4149.231, 4108.718, 4136.923, 4170.256, 0, 0, []
1630163334.5501, 22, 0, 4226.667, 4179.487, 4091.795, 4152.308, 4177.436, 0, 0, []
1630163334.5579, 23, 0, 4225.128, 4157.436, 4102.564, 4147.692, 4185.641, 0, 0, []
1630163334.5658, 24, 0, 4229.744, 4150.256, 4101.026, 4133.846, 4185.128, 0, 0, []
1630163334.5736, 25, 0, 4226.154, 4194.359, 4089.744, 4130.769, 4172.308, 0, 0, []
1630163334.5814, 26, 0, 4215.897, 4214.359, 4114.359, 4138.974, 4165.128, 0, 0, []
1630163334.5892, 27, 0, 4212.821, 4209.231, 4096.41, 4136.923, 4167.179, 0, 0, []
1630163334.5971, 28, 0, 4214.359, 4250.256, 4102.564, 4132.308, 4170.769, 0, 0, []
1630163334.6049, 29, 0, 4217.949, 4266.667, 4111.282, 4134.359, 4174.359, 0, 0, []
1630163334.6128, 30, 0, 4225.641, 4235.897, 4103.077, 4138.462, 4178.974, 0, 0, []
1630163334.6205, 31, 0, 4233.333, 4243.077, 4122.051, 4145.641, 4186.154, 0, 0, []
1630163334.6284, 32, 0, 4237.949, 4258.462, 4097.436, 4150.256, 4187.692, 0, 0, []
1630163334.6363, 33, 0, 4231.282, 4252.821, 4093.846, 4149.231, 4175.897, 0, 0, []
1630163334.6443, 34, 0, 4217.436, 4251.282, 4101.026, 4144.103, 4166.154, 0, 0, []
1630163334.6523, 35, 0, 4213.333, 4233.846, 4093.846, 4144.103, 4169.744, 0, 0, []
1630163334.6602, 36, 0, 4210.769, 4193.846, 4115.385, 4145.641, 4170.769, 0, 0, []
1630163334.668, 37, 0, 4211.795, 4187.692, 4095.385, 4142.051, 4169.231, 0, 0, []
1630163334.676, 38, 0, 4216.41, 4217.436, 4097.436, 4149.231, 4170.256, 0, 0, []
1630163334.6839, 39, 0, 4204.103, 4228.718, 4105.641, 4149.231, 4163.59, 0, 0, []
1630163334.6919, 40, 0, 4200, 4228.718, 4085.128, 4142.564, 4163.077, 0, 0, []
1630163334.6998, 41, 0, 4228.718, 4229.231, 4112.308, 4155.897, 4181.026, 0, 0, []
1630163334.7077, 42, 0, 4235.385, 4220.513, 4103.59, 4160.513, 4184.615, 0, 0, []
1630163334.7156, 43, 0, 4216.923, 4207.692, 4097.949, 4153.333, 4171.282, 0, 0, []
1630163334.7234, 44, 0, 4213.846, 4216.923, 4113.846, 4151.282, 4169.231, 0, 0, []
1630163334.7313, 45, 0, 4206.154, 4230.256, 4090.769, 4140, 4167.692, 0, 0, []
1630163334.7391, 46, 0, 4191.282, 4221.026, 4102.564, 4130.769, 4161.026, 0, 0, []
1630163334.7469, 47, 0, 4197.949, 4219.487, 4102.051, 4137.436, 4165.128, 0, 0, []
1630163334.7547, 48, 0, 4207.179, 4196.41, 4106.154, 4150.256, 4170.769, 0, 0, []
1630163334.7626, 49, 0, 4202.564, 4158.974, 4115.385, 4151.282, 4166.667, 0, 0, []
1630163334.7704, 50, 0, 4204.103, 4191.795, 4092.308, 4148.205, 4167.692, 0, 0, []
1630163334.7783, 51, 0, 4204.103, 4225.641, 4117.436, 4157.436, 4167.692, 0, 0, []
1630163334.786, 52, 0, 4201.538, 4189.744, 4112.308, 4153.333, 4165.128, 0, 0, []
1630163334.7939, 53, 0, 4214.359, 4183.077, 4102.051, 4136.923, 4171.282, 0, 0, []
1630163334.8017, 54, 0, 4213.333, 4216.923, 4122.051, 4129.231, 4165.128, 0, 0, []
1630163334.8096, 55, 0, 4197.949, 4215.385, 4097.436, 4139.487, 4155.897, 0, 0, []
1630163334.8174, 56, 0, 4206.667, 4211.795, 4117.436, 4163.59, 4174.872, 0, 0, []
1630163334.8253, 57, 0, 4217.436, 4226.154, 4124.615, 4165.128, 4187.179, 0, 0, []
1630163334.8332, 58, 0, 4211.795, 4218.462, 4099.487, 4152.308, 4172.821, 0, 0, []
1630163334.8412, 59, 0, 4210.256, 4217.949, 4110.769, 4157.436, 4171.795, 0, 0, []
1630163334.8491, 60, 0, 4210.769, 4222.564, 4102.051, 4159.487, 4180, 0, 0, []
1630163334.8571, 61, 0, 4207.692, 4204.615, 4116.923, 4151.795, 4172.308, 0, 0, []
1630163334.8649, 62, 0, 4211.282, 4206.154, 4112.821, 4147.692, 4171.282, 0, 0, []
1630163334.8729, 63, 0, 4211.282, 4219.487, 4089.231, 4145.128, 4175.385, 0, 0, []
1630163334.8808, 64, 0, 4211.282, 4227.692, 4118.462, 4146.154, 4173.333, 450, 0, []
1630163334.8888, 65, 0, 4216.41, 4237.436, 4115.897, 4152.821, 4176.41, 450, 0, []
1630163334.8967, 66, 0, 4207.179, 4245.128, 4119.487, 4160.513, 4177.436, 16181, 0, []
1630163334.9045, 67, 0, 4197.436, 4233.846, 4124.103, 4160.513, 4168.205, 450, 0, []
1630163334.9123, 68, 0, 4196.41, 4209.231, 4114.872, 4154.359, 4164.103, 16093, 0, []
1630163334.9201, 69, 0, 4201.026, 4211.795, 4136.41, 4158.462, 4175.897, 450, 0, []
1630163334.928, 70, 0, 4215.897, 4224.615, 4118.974, 4161.538, 4190.256, 245, 0, []
1630163334.9358, 71, 0, 4217.436, 4219.487, 4120.513, 4160, 4184.103, 450, 0, []
1630163334.9438, 72, 0, 4202.051, 4204.103, 4123.59, 4160.513, 4168.718, 450, 0, []
1630163334.9516, 73, 0, 4198.462, 4220.513, 4101.026, 4165.641, 4166.667, 16110, 0, []
1630163334.9596, 74, 0, 4201.026, 4245.641, 4118.974, 4165.128, 4166.667, 450, 0, []
1630163334.9675, 75, 0, 4198.462, 4230.769, 4107.692, 4158.462, 4162.564, 16205, 0, []
1630163334.9755, 76, 0, 4200, 4224.103, 4117.436, 4168.205, 4167.692, 450, 0, []
1630163334.9834, 77, 0, 4202.051, 4267.179, 4136.923, 4180.513, 4175.385, 450, 0, []
1630163334.9913, 78, 0, 4209.231, 4308.205, 4119.487, 4182.051, 4179.487, 450, 0, []
1630163334.9992, 79, 0, 4214.872, 4298.974, 4137.949, 4184.615, 4178.974, 16205, 0, []
1630163335.0072, 80, 0, 4203.59, 4280, 4114.872, 4172.821, 4163.59, 450, 0, []
1630163335.0151, 81, 0, 4192.308, 4278.974, 4103.077, 4162.051, 4155.897, 450, 0, []
1630163335.0231, 82, 0, 4198.462, 4290.256, 4133.333, 4171.795, 4176.41, 450, 0, []
1630163335.0309, 83, 0, 4209.231, 4304.103, 4117.436, 4175.385, 4190.769, 16205, 0, []
1630163335.0387, 84, 0, 4214.359, 4288.205, 4129.231, 4171.795, 4184.615, 450, 0, []
1630163335.0466, 85, 0, 4217.436, 4258.462, 4125.641, 4173.846, 4192.308, 450, 0, []
1630163335.0544, 86, 0, 4217.436, 4242.051, 4113.846, 4182.564, 4207.692, 450, 0, []
1630163335.0623, 87, 0, 4220, 4235.385, 4134.359, 4189.744, 4203.59, 16205, 0, []
1630163335.07, 88, 0, 4230.769, 4233.846, 4126.667, 4192.308, 4200, 450, 0, []
1630163335.0779, 89, 0, 4232.821, 4214.872, 4136.923, 4193.846, 4207.692, 450, 0, []
1630163335.0857, 90, 0, 4221.026, 4199.487, 4118.462, 4185.641, 4198.462, 450, 0, []
1630163335.0936, 91, 0, 4214.872, 4224.615, 4105.641, 4176.41, 4183.077, 16205, 0, []
1630163335.1014, 92, 0, 4220, 4230.256, 4138.974, 4181.026, 4188.205, 450, 0, []
1630163335.1094, 93, 0, 4219.487, 4200, 4123.59, 4181.026, 4198.462, 450, 0, []
1630163335.1172, 94, 0, 4222.051, 4220.513, 4129.231, 4179.487, 4198.974, 450, 0, []
1630163335.1252, 95, 0, 4232.821, 4254.872, 4131.795, 4184.103, 4201.026, 16205, 0, []
1630163335.1331, 96, 0, 4230.256, 4233.846, 4117.436, 4190.256, 4206.154, 450, 0, []
1630163335.1411, 97, 0, 4210.769, 4213.333, 4130.769, 4191.282, 4195.385, 450, 0, []
1630163335.149, 98, 0, 4197.949, 4219.487, 4103.077, 4179.487, 4186.154, 450, 0, []
1630163335.1569, 99, 0, 4203.077, 4232.821, 4102.564, 4168.718, 4197.436, 16205, 0, []
1630163335.1648, 100, 0, 4207.179, 4248.718, 4110.769, 4167.179, 4201.538, 450, 0, []
1630163335.1728, 101, 0, 4200.513, 4236.41, 4102.051, 4171.282, 4192.308, 450, 0, []
1630163335.1807, 102, 0, 4202.051, 4222.051, 4125.128, 4172.308, 4193.846, 450, 0, []
1630163335.1885, 103, 0, 4222.564, 4249.744, 4106.154, 4167.179, 4209.231, 16205, 0, []
1630163335.1963, 104, 0, 4238.974, 4264.615, 4112.821, 4178.974, 4220, 450, 0, []
1630163335.2041, 105, 0, 4236.923, 4251.795, 4129.231, 4187.179, 4215.897, 450, 0, []
1630163335.212, 106, 0, 4237.949, 4262.564, 4108.718, 4178.974, 4202.564, 450, 0, []
1630163335.2198, 107, 0, 4253.846, 4267.692, 4131.282, 4188.718, 4202.564, 16205, 0, []
1630163335.2277, 108, 0, 4264.615, 4270.256, 4126.154, 4200, 4218.974, 450, 0, []
1630163335.2354, 109, 0, 4253.846, 4275.897, 4119.487, 4190.769, 4226.667, 450, 0, []
1630163335.2433, 110, 0, 4247.692, 4253.333, 4126.154, 4181.538, 4226.667, 450, 0, []
1630163335.2511, 111, 0, 4259.487, 4230.769, 4114.872, 4183.077, 4229.231, 16205, 0, []
1630163335.259, 112, 0, 4274.359, 4238.462, 4138.974, 4192.308, 4233.846, 450, 0, []
1630163335.2668, 113, 0, 4283.077, 4247.692, 4127.179, 4197.436, 4239.487, 450, 0, []
1630163335.2747, 114, 0, 4278.462, 4258.974, 4129.231, 4198.462, 4234.359, 450, 0, []
1630163335.2826, 115, 0, 4266.154, 4294.872, 4148.718, 4188.205, 4216.923, 16205, 0, []
1630163335.2906, 116, 0, 4266.667, 4302.051, 4112.821, 4171.282, 4210.769, 450, 0, []
1630163335.2985, 117, 0, 4277.436, 4281.026, 4118.462, 4173.333, 4213.333, 450, 0, []
1630163335.3065, 118, 0, 4275.897, 4288.718, 4120, 4183.077, 4217.949, 450, 0, []
1630163335.3143, 119, 0, 4283.077, 4288.205, 4120.513, 4198.462, 4232.308, 16205, 0, []
1630163335.3223, 120, 0, 4289.744, 4280.513, 4144.615, 4208.718, 4226.154, 450, 0, []
1630163335.3302, 121, 0, 4271.282, 4310.769, 4126.667, 4196.41, 4198.462, 450, 0, []
1630163335.3382, 122, 0, 4270.256, 4322.051, 4136.923, 4188.718, 4206.667, 450, 0, []
1630163335.3461, 123, 0, 4290.769, 4281.538, 4132.821, 4197.436, 4238.462, 16205, 0, []
1630163335.3539, 124, 0, 4282.051, 4277.949, 4122.564, 4205.641, 4226.154, 450, 0, []
1630163335.3617, 125, 0, 4260.513, 4291.795, 4136.923, 4200, 4193.846, 450, 0, []
1630163335.3695, 126, 0, 4260.513, 4262.564, 4105.641, 4194.359, 4196.41, 450, 0, []
1630163335.3774, 127, 0, 4267.179, 4282.564, 4117.436, 4204.615, 4212.821, 16205, 0, []
1630163335.3852, 128, 0, 4265.128, 4328.205, 4132.308, 4200, 4214.359, 450, 0, []
1630163335.3931, 0, 0, 4256.41, 4287.692, 4115.385, 4177.436, 4203.077, 450, 0, []
1630163335.4008, 1, 0, 4244.615, 4251.282, 4124.103, 4171.282, 4191.795, 450, 0, []
1630163335.4087, 2, 0, 4249.231, 4280.513, 4109.231, 4181.538, 4191.795, 16184, 0, []
1630163335.4165, 3, 0, 4252.308, 4293.333, 4126.154, 4188.205, 4195.385, 450, 0, []
1630163335.4245, 4, 0, 4234.359, 4272.821, 4121.538, 4186.154, 4183.59, 16088, 0, []
1630163335.4324, 5, 0, 4220, 4260.513, 4091.282, 4175.897, 4166.667, 450, 0, []
1630163335.4403, 6, 0, 4221.026, 4259.487, 4114.872, 4163.59, 4166.667, 230, 0, []
1630163335.4482, 7, 0, 4215.385, 4253.846, 4105.641, 4151.282, 4163.077, 450, 0, []
1630163335.4562, 8, 0, 4198.462, 4240.513, 4106.667, 4145.641, 4140.513, 450, 0, []
1630163335.4641, 9, 0, 4190.769, 4206.154, 4117.436, 4149.744, 4135.385, 16106, 0, []
1630163335.4721, 10, 0, 4208.718, 4178.462, 4107.692, 4174.359, 4156.923, 450, 0, []
1630163335.4799, 11, 0, 4232.821, 4197.436, 4135.897, 4205.128, 4173.846, 16197, 0, []
1630163335.4879, 12, 0, 4235.897, 4230.256, 4126.154, 4199.487, 4180, 450, 0, []
1630163335.4958, 13, 0, 4226.667, 4244.615, 4126.667, 4187.179, 4180.513, 450, 0, []
1630163335.5036, 14, 0, 4229.744, 4253.333, 4143.59, 4189.744, 4174.872, 450, 0, []
1630163335.5115, 15, 0, 4233.333, 4268.205, 4118.462, 4182.564, 4171.795, 16197, 0, []
1630163335.5192, 16, 0, 4222.564, 4262.564, 4121.538, 4172.821, 4172.821, 0, 0, []
1630163335.5271, 17, 0, 4212.821, 4253.333, 4104.615, 4169.231, 4167.179, 0, 0, []
1630163335.5349, 18, 0, 4215.385, 4246.667, 4102.564, 4174.872, 4164.103, 0, 0, []
1630163335.5428, 19, 0, 4219.487, 4218.974, 4120.513, 4184.103, 4178.462, 0, 0, []
1630163335.5506, 20, 0, 4218.462, 4203.077, 4099.487, 4176.923, 4184.615, 0, 0, []
1630163335.5584, 21, 0, 4216.41, 4217.436, 4116.923, 4160, 4171.282, 0, 0, []
1630163335.5662, 22, 0, 4214.359, 4218.974, 4109.231, 4147.179, 4157.949, 0, 0, []
1630163335.5741, 23, 0, 4212.308, 4200, 4097.436, 4143.077, 4160, 0, 0, []
1630163335.5819, 24, 0, 4216.923, 4207.692, 4123.077, 4149.231, 4170.769, 0, 0, []
1630163335.5899, 25, 0, 4222.564, 4222.051, 4114.872, 4160.513, 4174.359, 0, 0, []
1630163335.5978, 26, 0, 4214.359, 4210.256, 4124.615, 4162.564, 4162.564, 0, 0, []
1630163335.6057, 27, 0, 4196.41, 4195.385, 4108.205, 4145.641, 4147.179, 0, 0, []
1630163335.6136, 28, 0, 4188.718, 4197.949, 4102.051, 4143.59, 4153.333, 0, 0, []
1630163335.6215, 29, 0, 4190.769, 4216.41, 4135.897, 4157.949, 4161.026, 0, 0, []
1630163335.6294, 30, 0, 4179.487, 4217.436, 4108.205, 4145.641, 4144.615, 0, 0, []
1630163335.6374, 31, 0, 4168.718, 4203.077, 4101.538, 4133.333, 4134.359, 0, 0, []
1630163335.6452, 32, 0, 4180, 4196.41, 4106.154, 4148.205, 4152.821, 0, 0, []
1630163335.6532, 33, 0, 4194.872, 4192.821, 4103.077, 4163.077, 4162.564, 0, 0, []
1630163335.6611, 34, 0, 4179.487, 4157.949, 4119.487, 4158.462, 4137.949, 0, 0, []
1630163335.6689, 35, 0, 4157.436, 4121.538, 4098.462, 4155.385, 4119.487, 0, 0, []
1630163335.6768, 36, 0, 4162.564, 4148.718, 4109.744, 4162.051, 4121.538, 0, 0, []
1630163335.6845, 37, 0, 4174.359, 4159.487, 4110.769, 4149.231, 4116.923, 0, 0, []
1630163335.6924, 38, 0, 4189.231, 4122.564, 4090.769, 4143.59, 4132.308, 0, 0, []
1630163335.7002, 39, 0, 4210.769, 4134.872, 4120.513, 4164.615, 4163.59, 0, 0, []
1630163335.7081, 40, 0, 4209.231, 4185.128, 4103.59, 4157.436, 4157.436, 0, 0, []
1630163335.7159, 41, 0, 4195.897, 4177.436, 4092.308, 4134.359, 4130.769, 0, 0, []
1630163335.7238, 42, 0, 4185.128, 4145.641, 4095.385, 4123.59, 4123.077, 0, 0, []
1630163335.7317, 43, 0, 4163.077, 4160.513, 4078.974, 4105.641, 4109.744, 0, 0, []
1630163335.7397, 44, 0, 4155.385, 4155.897, 4108.205, 4110.256, 4105.641, 0, 0, []
1630163335.7476, 45, 0, 4190.769, 4123.59, 4117.436, 4151.795, 4146.154, 0, 0, []
1630163335.7556, 46, 0, 4210.256, 4108.718, 4128.205, 4177.436, 4174.872, 0, 0, []
1630163335.7634, 47, 0, 4188.205, 4102.564, 4126.154, 4160.513, 4157.949, 0, 0, []
1630163335.7714, 48, 0, 4174.872, 4121.026, 4095.385, 4141.026, 4145.641, 0, 0, []
1630163335.7793, 49, 0, 4188.205, 4149.231, 4119.487, 4146.154, 4156.41, 0, 0, []
1630163335.7873, 50, 0, 4209.231, 4143.59, 4116.923, 4155.385, 4168.205, 0, 0, []
1630163335.7952, 51, 0, 4218.974, 4127.179, 4110.256, 4160.513, 4177.949, 0, 0, []
