Timestamp, COUNTER, INTERPOLATED, AF3, T7, Pz, T8, AF4, RAW_CQ, MARKER_HARDWARE, MARKERS
1630238860.3873, 104, 0, 4177.949, 4219.487, 4074.359, 4181.026, 4142.564, 450, 0, []
1630238860.3952, 105, 0, 4185.128, 4254.359, 4076.923, 4180.513, 4131.795, 450, 0, []
1630238860.403, 106, 0, 4169.231, 4236.41, 4066.154, 4160, 4111.795, 450, 0, []
1630238860.4109, 107, 0, 4150.256, 4214.872, 4056.41, 4149.231, 4103.59, 16195, 0, []
1630238860.4187, 108, 0, 4168.718, 4245.128, 4083.59, 4187.179, 4128.205, 450, 0, []
1630238860.4266, 109, 0, 4178.462, 4228.718, 4064.103, 4188.718, 4123.59, 450, 0, []
1630238860.4343, 110, 0, 4168.205, 4202.564, 4052.308, 4158.462, 4101.026, 450, 0, []
1630238860.4422, 111, 0, 4170.769, 4236.41, 4075.385, 4163.59, 4122.564, 16195, 0, []
1630238860.45, 112, 0, 4176.923, 4254.359, 4080, 4188.205, 4143.077, 450, 0, []
1630238860.4579, 113, 0, 4167.179, 4233.333, 4073.333, 4190.256, 4117.436, 450, 0, []
1630238860.4657, 114, 0, 4157.436, 4214.872, 4053.333, 4169.744, 4096.923, 450, 0, []
1630238860.4735, 115, 0, 4160, 4201.026, 4063.077, 4165.128, 4111.795, 16195, 0, []
1630238860.4815, 116, 0, 4157.436, 4208.205, 4071.282, 4165.641, 4119.487, 450, 0, []
1630238860.4895, 117, 0, 4154.872, 4222.051, 4061.026, 4165.641, 4113.846, 450, 0, []
1630238860.4974, 118, 0, 4170.769, 4214.359, 4080, 4180.513, 4118.462, 450, 0, []
1630238860.5054, 119, 0, 4181.026, 4228.205, 4072.308, 4177.949, 4124.103, 16195, 0, []
1630238860.5132, 120, 0, 4166.667, 4238.974, 4057.949, 4155.385, 4117.436, 450, 0, []
1630238860.5212, 121, 0, 4165.641, 4212.821, 4069.231, 4153.846, 4117.949, 450, 0, []
1630238860.5291, 122, 0, 4185.641, 4217.949, 4075.385, 4173.333, 4128.205, 450, 0, []
1630238860.5369, 123, 0, 4193.846, 4247.179, 4087.179, 4180.513, 4124.103, 16195, 0, []
1630238860.5448, 124, 0, 4183.077, 4234.359, 4079.487, 4162.564, 4120, 450, 0, []
1630238860.5525, 125, 0, 4165.128, 4218.974, 4069.231, 4156.923, 4120.513, 450, 0, []
1630238860.5604, 126, 0, 4167.692, 4226.154, 4075.385, 4175.385, 4121.026, 450, 0, []
1630238860.5682, 127, 0, 4191.282, 4220.513, 4074.872, 4189.744, 4125.641, 16195, 0, []
1630238860.5761, 128, 0, 4186.667, 4225.128, 4077.436, 4182.564, 4120.513, 450, 0, []
1630238860.5839, 0, 0, 4153.333, 4229.231, 4058.462, 4154.872, 4105.128, 450, 0, []
1630238860.5917, 1, 0, 4157.436, 4204.615, 4065.128, 4167.692, 4119.487, 450, 0, []
1630238860.5995, 2, 0, 4198.974, 4215.897, 4100.513, 4211.282, 4156.41, 16187, 0, []
1630238860.6075, 3, 0, 4205.641, 4258.462, 4077.949, 4203.59, 4152.308, 450, 0, []
1630238860.6154, 4, 0, 4185.641, 4248.205, 4067.692, 4173.333, 4128.205, 16085, 0, []
1630238860.6234, 5, 0, 4189.231, 4224.615, 4095.897, 4173.333, 4142.051, 450, 0, []
1630238860.6312, 6, 0, 4187.692, 4237.949, 4094.359, 4177.436, 4151.282, 16078, 0, []
1630238860.6392, 7, 0, 4174.359, 4248.205, 4076.41, 4163.077, 4134.872, 450, 0, []
1630238860.6471, 8, 0, 4195.385, 4256.41, 4077.436, 4168.718, 4144.103, 450, 0, []
1630238860.6551, 9, 0, 4206.667, 4252.821, 4088.718, 4185.641, 4153.333, 16064, 0, []
1630238860.663, 10, 0, 4173.846, 4218.974, 4070.769, 4169.231, 4137.949, 450, 0, []
1630238860.6709, 11, 0, 4158.974, 4211.795, 4067.692, 4161.538, 4140, 16194, 0, []
1630238860.6788, 12, 0, 4188.205, 4255.385, 4096.923, 4179.487, 4155.385, 450, 0, []
1630238860.6868, 13, 0, 4207.692, 4278.462, 4077.436, 4184.615, 4146.154, 450, 0, []
1630238860.6947, 14, 0, 4193.846, 4241.538, 4061.026, 4176.41, 4127.179, 450, 0, []
1630238860.7025, 15, 0, 4188.718, 4210.256, 4085.128, 4175.897, 4148.718, 16194, 0, []
1630238860.7103, 16, 0, 4199.487, 4225.641, 4095.897, 4188.718, 4175.897, 0, 0, []
1630238860.7181, 17, 0, 4195.897, 4245.641, 4085.641, 4186.667, 4156.923, 0, 0, []
1630238860.726, 18, 0, 4198.974, 4246.154, 4075.897, 4172.821, 4135.897, 0, 0, []
1630238860.7338, 19, 0, 4217.949, 4251.282, 4099.487, 4188.718, 4154.872, 0, 0, []
1630238860.7417, 20, 0, 4204.615, 4241.538, 4091.795, 4183.59, 4161.538, 0, 0, []
1630238860.7495, 21, 0, 4177.949, 4205.641, 4060.513, 4159.487, 4148.718, 0, 0, []
1630238860.7574, 22, 0, 4201.538, 4223.59, 4094.359, 4189.231, 4165.128, 0, 0, []
1630238860.7653, 23, 0, 4237.436, 4278.974, 4118.462, 4215.385, 4178.974, 0, 0, []
1630238860.7733, 24, 0, 4233.846, 4273.333, 4111.282, 4196.41, 4158.974, 0, 0, []
1630238860.7812, 25, 0, 4210.256, 4233.846, 4093.333, 4173.846, 4137.436, 0, 0, []
1630238860.7892, 26, 0, 4205.128, 4222.564, 4065.128, 4167.692, 4152.821, 0, 0, []
1630238860.797, 27, 0, 4227.692, 4233.846, 4073.846, 4176.923, 4187.692, 0, 0, []
1630238860.805, 28, 0, 4258.462, 4244.615, 4078.974, 4185.641, 4207.179, 0, 0, []
1630238860.8129, 29, 0, 4293.333, 4236.41, 4062.564, 4175.897, 4231.282, 0, 0, []
1630238860.8209, 30, 0, 4363.59, 4246.154, 4075.385, 4171.282, 4294.359, 0, 0, []
1630238860.8288, 31, 0, 4438.974, 4272.821, 4089.231, 4188.718, 4359.487, 0, 0, []
1630238860.8365, 32, 0, 4459.487, 4251.282, 4074.872, 4177.949, 4373.846, 0, 0, []
1630238860.8444, 33, 0, 4474.872, 4227.692, 4054.872, 4152.821, 4388.718, 0, 0, []
1630238860.8522, 34, 0, 4542.564, 4259.487, 4090.256, 4187.179, 4456.41, 0, 0, []
1630238860.8601, 35, 0, 4588.718, 4268.718, 4120, 4217.436, 4516.41, 0, 0, []
1630238860.8679, 36, 0, 4569.231, 4237.949, 4072.821, 4180, 4518.462, 0, 0, []
1630238860.8757, 37, 0, 4552.821, 4247.692, 4058.974, 4147.692, 4505.128, 0, 0, []
1630238860.8835, 38, 0, 4569.231, 4274.359, 4079.487, 4144.103, 4506.154, 0, 0, []
1630238860.8914, 39, 0, 4586.154, 4264.103, 4084.615, 4146.667, 4505.128, 0, 0, []
1630238860.8992, 40, 0, 4592.821, 4246.154, 4088.718, 4158.462, 4508.205, 0, 0, []
1630238860.9072, 41, 0, 4596.923, 4251.282, 4071.795, 4157.949, 4520, 0, 0, []
1630238860.915, 42, 0, 4600.513, 4271.282, 4071.282, 4154.359, 4523.59, 0, 0, []
1630238860.923, 43, 0, 4596.41, 4265.641, 4082.564, 4167.179, 4516.923, 0, 0, []
1630238860.9309, 44, 0, 4582.051, 4244.615, 4091.282, 4180, 4512.821, 0, 0, []
1630238860.9389, 45, 0, 4548.718, 4248.718, 4095.897, 4164.103, 4494.359, 0, 0, []
1630238860.9468, 46, 0, 4510.769, 4255.385, 4079.487, 4142.051, 4465.128, 0, 0, []
1630238860.9547, 47, 0, 4491.282, 4246.667, 4092.821, 4153.846, 4450.256, 0, 0, []
1630238860.9626, 48, 0, 4479.487, 4250.769, 4106.667, 4169.744, 4435.385, 0, 0, []
1630238860.9706, 49, 0, 4462.051, 4256.923, 4094.872, 4174.359, 4421.026, 0, 0, []
1630238860.9785, 50, 0, 4451.795, 4267.179, 4113.333, 4189.231, 4420.513, 0, 0, []
1630238860.9864, 51, 0, 4429.231, 4283.077, 4113.333, 4185.641, 4402.564, 0, 0, []
1630238860.9942, 52, 0, 4361.538, 4248.718, 4072.308, 4140.513, 4336.41, 0, 0, []
1630238861.002, 53, 0, 4304.615, 4210.769, 4054.872, 4122.051, 4285.641, 0, 0, []
1630238861.0099, 54, 0, 4297.949, 4255.897, 4071.282, 4155.385, 4280, 0, 0, []
1630238861.0177, 55, 0, 4284.103, 4275.385, 4081.538, 4160.513, 4259.487, 0, 0, []
1630238861.0256, 56, 0, 4271.795, 4240, 4064.103, 4144.615, 4238.462, 0, 0, []
1630238861.0333, 57, 0, 4300.513, 4271.795, 4089.744, 4177.949, 4258.974, 0, 0, []
1630238861.0412, 58, 0, 4321.026, 4313.846, 4135.385, 4216.41, 4277.949, 0, 0, []
1630238861.049, 59, 0, 4271.282, 4273.846, 4108.205, 4176.923, 4233.333, 0, 0, []
1630238861.0569, 60, 0, 4211.795, 4241.026, 4079.487, 4133.846, 4178.974, 0, 0, []
1630238861.0647, 61, 0, 4211.282, 4251.282, 4078.974, 4155.897, 4184.615, 0, 0, []
1630238861.0726, 62, 0, 4220, 4245.128, 4075.385, 4172.308, 4190.769, 0, 0, []
1630238861.0805, 63, 0, 4201.538, 4251.795, 4068.205, 4156.923, 4153.333, 0, 0, []
1630238861.0885, 64, 0, 4176.41, 4268.205, 4042.564, 4143.077, 4121.026, 450, 0, []
1630238861.0964, 65, 0, 4157.949, 4242.564, 4050.256, 4137.949, 4124.103, 450, 0, []
1630238861.1044, 66, 0, 4159.487, 4231.282, 4081.026, 4149.744, 4143.077, 16194, 0, []
1630238861.1123, 67, 0, 4173.333, 4271.282, 4085.128, 4168.205, 4146.154, 450, 0, []
1630238861.1202, 68, 0, 4164.103, 4281.538, 4070.256, 4160.513, 4125.128, 16069, 0, []
1630238861.1281, 69, 0, 4160, 4245.128, 4071.282, 4151.282, 4131.795, 450, 0, []
1630238861.1361, 70, 0, 4175.897, 4252.821, 4107.179, 4170.769, 4159.487, 266, 0, []
1630238861.144, 71, 0, 4170.256, 4283.59, 4109.231, 4184.615, 4152.821, 450, 0, []
1630238861.1519, 72, 0, 4151.795, 4264.103, 4080, 4183.59, 4122.564, 450, 0, []
1630238861.1597, 73, 0, 4144.103, 4235.385, 4075.385, 4177.436, 4099.487, 16060, 0, []
1630238861.1675, 74, 0, 4146.667, 4258.974, 4080.513, 4170.256, 4102.051, 450, 0, []
1630238861.1754, 75, 0, 4147.179, 4282.051, 4095.385, 4169.231, 4121.538, 16203, 0, []
1630238861.1832, 76, 0, 4131.282, 4255.897, 4078.974, 4164.615, 4113.846, 450, 0, []
1630238861.1911, 77, 0, 4111.282, 4248.718, 4045.128, 4160.513, 4075.897, 450, 0, []
1630238861.1988, 78, 0, 4117.436, 4288.205, 4070.256, 4172.308, 4066.667, 450, 0, []
1630238861.2067, 79, 0, 4138.462, 4293.333, 4099.487, 4177.949, 4094.872, 16203, 0, []
1630238861.2145, 80, 0, 4138.462, 4259.487, 4101.538, 4171.795, 4105.641, 450, 0, []
1630238861.2225, 81, 0, 4127.692, 4266.154, 4086.667, 4168.718, 4084.615, 450, 0, []
1630238861.2304, 82, 0, 4125.641, 4288.205, 4071.795, 4163.59, 4060.513, 450, 0, []
1630238861.2383, 83, 0, 4136.41, 4293.846, 4096.923, 4164.103, 4076.41, 16203, 0, []
1630238861.2462, 84, 0, 4131.282, 4299.487, 4095.385, 4160, 4094.359, 450, 0, []
1630238861.2542, 85, 0, 4089.231, 4267.692, 4048.718, 4131.282, 4045.128, 450, 0, []
1630238861.2621, 86, 0, 4073.846, 4248.718, 4030.769, 4110.769, 4005.128, 450, 0, []
1630238861.2701, 87, 0, 4123.077, 4317.436, 4078.974, 4154.872, 4061.538, 16203, 0, []
1630238861.2779, 88, 0, 4165.641, 4366.667, 4137.949, 4212.308, 4129.744, 450, 0, []
1630238861.2859, 89, 0, 4157.949, 4331.282, 4105.641, 4194.872, 4111.282, 450, 0, []
1630238861.2938, 90, 0, 4154.359, 4324.103, 4071.282, 4162.564, 4069.744, 450, 0, []
1630238861.3017, 91, 0, 4165.641, 4352.308, 4095.385, 4173.333, 4076.923, 16203, 0, []
1630238861.3096, 92, 0, 4137.949, 4330.769, 4084.103, 4169.744, 4080.513, 450, 0, []
1630238861.3173, 93, 0, 4108.718, 4307.692, 4068.718, 4151.282, 4053.846, 450, 0, []
1630238861.3252, 94, 0, 4124.103, 4337.949, 4070.256, 4157.949, 4036.41, 450, 0, []
1630238861.3331, 95, 0, 4129.231, 4357.949, 4072.821, 4154.872, 4035.385, 16203, 0, []
1630238861.341, 96, 0, 4105.128, 4333.333, 4084.615, 4133.333, 4043.077, 450, 0, []
1630238861.3488, 97, 0, 4109.744, 4317.949, 4093.846, 4137.436, 4058.974, 450, 0, []
1630238861.3566, 98, 0, 4150.256, 4348.718, 4111.282, 4173.333, 4077.436, 450, 0, []
1630238861.3644, 99, 0, 4165.641, 4359.487, 4100.513, 4186.154, 4078.974, 16203, 0, []
1630238861.3724, 100, 0, 4137.436, 4330.256, 4080, 4156.923, 4064.103, 450, 0, []
1630238861.3803, 101, 0, 4120, 4329.231, 4090.256, 4144.103, 4063.59, 450, 0, []
1630238861.3883, 102, 0, 4130.256, 4346.154, 4083.077, 4163.59, 4072.308, 450, 0, []
1630238861.3961, 103, 0, 4109.744, 4326.667, 4063.077, 4148.718, 4035.385, 16203, 0, []
1630238861.4041, 104, 0, 4085.641, 4296.41, 4057.949, 4114.359, 4009.744, 450, 0, []
1630238861.412, 105, 0, 4117.436, 4320, 4090.769, 4146.667, 4066.154, 450, 0, []
1630238861.42, 106, 0, 4150.256, 4354.359, 4110.256, 4188.718, 4101.538, 450, 0, []
1630238861.4279, 107, 0, 4149.744, 4346.154, 4075.385, 4174.872, 4068.205, 16203, 0, []
1630238861.4358, 108, 0, 4159.487, 4338.462, 4086.667, 4174.872, 4068.718, 450, 0, []
1630238861.4437, 109, 0, 4158.974, 4355.385, 4110.256, 4185.641, 4100, 450, 0, []
1630238861.4515, 110, 0, 4126.667, 4338.974, 4076.923, 4163.59, 4083.077, 450, 0, []
1630238861.4594, 111, 0, 4133.846, 4305.128, 4070.256, 4161.026, 4065.128, 16203, 0, []
1630238861.4673, 112, 0, 4174.872, 4327.692, 4088.718, 4185.641, 4088.205, 450, 0, []
1630238861.4752, 113, 0, 4166.667, 4348.205, 4100.513, 4185.128, 4094.872, 450, 0, []
1630238861.4829, 114, 0, 4134.359, 4327.179, 4096.41, 4174.872, 4085.641, 450, 0, []
1630238861.4909, 115, 0, 4141.026, 4301.538, 4082.564, 4182.564, 4092.821, 16203, 0, []
1630238861.4988, 116, 0, 4164.615, 4305.128, 4090.769, 4185.128, 4094.359, 450, 0, []
1630238861.5067, 117, 0, 4175.897, 4332.308, 4091.282, 4172.821, 4089.744, 450, 0, []
1630238861.5145, 118, 0, 4180, 4335.897, 4098.974, 4175.385, 4103.077, 450, 0, []
1630238861.5223, 119, 0, 4167.692, 4320, 4097.436, 4180.513, 4117.949, 16203, 0, []
1630238861.5301, 120, 0, 4140, 4309.744, 4061.538, 4162.051, 4102.051, 450, 0, []
1630238861.5381, 121, 0, 4134.872, 4303.59, 4055.897, 4157.949, 4077.436, 450, 0, []
1630238861.546, 122, 0, 4156.923, 4297.436, 4058.462, 4169.744, 4078.974, 450, 0, []
1630238861.554, 123, 0, 4178.974, 4308.205, 4074.872, 4178.974, 4107.179, 16203, 0, []
1630238861.5618, 124, 0, 4177.436, 4316.41, 4096.41, 4176.923, 4126.154, 450, 0, []
1630238861.5698, 125, 0, 4136.923, 4266.154, 4062.051, 4143.59, 4091.282, 450, 0, []
1630238861.5777, 126, 0, 4117.436, 4216.923, 4045.641, 4132.821, 4053.333, 450, 0, []
1630238861.5857, 127, 0, 4150.256, 4243.59, 4061.026, 4162.564, 4070.256, 16203, 0, []
1630238861.5936, 128, 0, 4168.718, 4267.692, 4067.179, 4169.231, 4103.59, 450, 0, []
1630238861.6014, 0, 0, 4162.564, 4223.077, 4054.872, 4138.974, 4111.795, 450, 0, []
1630238861.6093, 1, 0, 4180.513, 4209.744, 4041.538, 4135.385, 4126.154, 450, 0, []
1630238861.6171, 2, 0, 4216.923, 4230.769, 4052.308, 4154.359, 4162.051, 16193, 0, []
1630238861.625, 3, 0, 4274.359, 4224.103, 4044.103, 4142.051, 4210.256, 450, 0, []
1630238861.6328, 4, 0, 4371.795, 4240.513, 4057.436, 4154.359, 4287.179, 16088, 0, []
1630238861.6406, 5, 0, 4450.769, 4260.513, 4085.128, 4182.051, 4358.974, 450, 0, []
1630238861.6484, 6, 0, 4496.41, 4238.974, 4057.436, 4165.641, 4402.051, 16071, 0, []
1630238861.6563, 7, 0, 4549.744, 4241.026, 4054.359, 4157.949, 4445.128, 450, 0, []
1630238861.6641, 8, 0, 4591.282, 4257.949, 4073.846, 4177.436, 4496.923, 450, 0, []
1630238861.672, 9, 0, 4572.821, 4221.538, 4053.333, 4172.308, 4505.641, 16060, 0, []
1630238861.6797, 10, 0, 4527.692, 4201.538, 4036.923, 4154.872, 4473.846, 450, 0, []
1630238861.6877, 11, 0, 4529.231, 4238.462, 4060.513, 4174.872, 4478.974, 16200, 0, []
1630238861.6956, 12, 0, 4552.821, 4267.692, 4107.692, 4208.718, 4507.692, 450, 0, []
1630238861.7036, 13, 0, 4523.59, 4249.744, 4100.513, 4188.205, 4482.564, 450, 0, []
1630238861.7115, 14, 0, 4455.897, 4210.256, 4064.615, 4138.462, 4416.923, 450, 0, []
1630238861.7194, 15, 0, 4424.103, 4217.949, 4076.41, 4137.436, 4389.231, 16200, 0, []
1630238861.7273, 16, 0, 4396.41, 4238.974, 4057.436, 4141.538, 4367.179, 0, 0, []
1630238861.7353, 17, 0, 4342.564, 4219.487, 4023.59, 4115.385, 4318.462, 0, 0, []
1630238861.7432, 18, 0, 4345.128, 4210.256, 4062.051, 4139.487, 4326.154, 0, 0, []
1630238861.7512, 19, 0, 4375.385, 4236.41, 4108.718, 4196.923, 4363.077, 0, 0, []
1630238861.759, 20, 0, 4330.256, 4244.615, 4086.154, 4185.641, 4317.949, 0, 0, []
1630238861.7668, 21, 0, 4273.846, 4222.564, 4035.385, 4144.615, 4247.179, 0, 0, []
1630238861.7747, 22, 0, 4309.231, 4237.436, 4081.026, 4185.128, 4273.846, 0, 0, []
1630238861.7825, 23, 0, 4353.846, 4282.564, 4138.974, 4228.205, 4322.051, 0, 0, []
1630238861.7904, 24, 0, 4309.744, 4268.205, 4092.308, 4185.641, 4278.974, 0, 0, []
1630238861.7981, 25, 0, 4247.179, 4223.59, 4061.026, 4148.205, 4212.821, 0, 0, []
1630238861.806, 26, 0, 4233.333, 4234.872, 4081.026, 4156.923, 4209.231, 0, 0, []
1630238861.8138, 27, 0, 4204.615, 4231.282, 4077.436, 4141.538, 4198.462, 0, 0, []
1630238861.8217, 28, 0, 4172.308, 4198.462, 4064.103, 4129.231, 4165.641, 0, 0, []
1630238861.8295, 29, 0, 4210.256, 4242.564, 4091.795, 4177.436, 4192.308, 0, 0, []
1630238861.8374, 30, 0, 4243.077, 4280.513, 4122.564, 4201.026, 4214.872, 0, 0, []
1630238861.8451, 31, 0, 4201.026, 4229.231, 4078.974, 4153.333, 4168.718, 0, 0, []
1630238861.8531, 32, 0, 4152.821, 4207.692, 4044.103, 4129.231, 4135.385, 0, 0, []
1630238861.861, 33, 0, 4134.359, 4217.436, 4048.205, 4136.41, 4132.821, 0, 0, []
1630238861.869, 34, 0, 4142.051, 4209.744, 4038.974, 4138.462, 4125.641, 0, 0, []
1630238861.8769, 35, 0, 4176.41, 4235.897, 4069.231, 4160.513, 4137.949, 0, 0, []
1630238861.8848, 36, 0, 4177.949, 4249.231, 4080.513, 4162.051, 4143.077, 0, 0, []
1630238861.8927, 37, 0, 4144.615, 4230.769, 4054.359, 4138.462, 4123.077, 0, 0, []
1630238861.9007, 38, 0, 4152.308, 4249.231, 4065.128, 4145.641, 4126.154, 0, 0, []
1630238861.9086, 39, 0, 4178.462, 4270.256, 4074.359, 4165.641, 4137.949, 0, 0, []
1630238861.9165, 40, 0, 4177.436, 4265.641, 4078.462, 4171.795, 4136.41, 0, 0, []
1630238861.9243, 41, 0, 4160, 4267.692, 4075.385, 4157.436, 4132.821, 0, 0, []
1630238861.9321, 42, 0, 4155.897, 4252.308, 4076.923, 4154.872, 4141.538, 0, 0, []
1630238861.94, 43, 0, 4171.282, 4241.026, 4099.487, 4177.436, 4152.308, 0, 0, []
1630238861.9478, 44, 0, 4168.205, 4263.59, 4078.974, 4173.333, 4126.667, 0, 0, []
1630238861.9557, 45, 0, 4125.641, 4265.128, 4044.615, 4136.923, 4071.282, 0, 0, []
1630238861.9634, 46, 0, 4116.923, 4243.077, 4055.897, 4135.897, 4077.949, 0, 0, []
1630238861.9713, 47, 0, 4154.872, 4241.538, 4086.154, 4175.385, 4133.333, 0, 0, []
1630238861.9791, 48, 0, 4150.256, 4256.41, 4083.59, 4176.923, 4118.974, 0, 0, []
1630238861.987, 49, 0, 4132.821, 4282.051, 4066.667, 4160, 4083.59, 0, 0, []
1630238861.9948, 50, 0, 4141.538, 4278.974, 4092.821, 4168.205, 4101.538, 0, 0, []
1630238862.0027, 51, 0, 4128.718, 4257.436, 4097.949, 4171.795, 4112.821, 0, 0, []
1630238862.0106, 52, 0, 4115.385, 4277.949, 4068.718, 4167.179, 4091.795, 0, 0, []
1630238862.0186, 53, 0, 4115.385, 4278.974, 4061.538, 4155.897, 4058.974, 0, 0, []
1630238862.0265, 54, 0, 4072.308, 4214.872, 4025.641, 4117.436, 4022.051, 0, 0, []
1630238862.0345, 55, 0, 4049.231, 4215.897, 4020.513, 4117.436, 4028.205, 0, 0, []
1630238862.0423, 56, 0, 4112.821, 4294.359, 4071.795, 4174.872, 4075.385, 0, 0, []
1630238862.0503, 57, 0, 4143.077, 4311.795, 4071.282, 4187.179, 4080, 0, 0, []
1630238862.0582, 58, 0, 4099.487, 4273.846, 4049.744, 4157.436, 4057.436, 0, 0, []
1630238862.0662, 59, 0, 4093.846, 4269.231, 4046.667, 4158.974, 4073.333, 0, 0, []
1630238862.0741, 60, 0, 4136.923, 4304.103, 4055.897, 4181.538, 4096.923, 0, 0, []
1630238862.0818, 61, 0, 4148.205, 4326.154, 4067.692, 4179.487, 4086.667, 0, 0, []
1630238862.0897, 62, 0, 4109.231, 4285.641, 4049.744, 4146.154, 4058.462, 0, 0, []
1630238862.0975, 63, 0, 4069.744, 4241.538, 4030.256, 4123.59, 4034.359, 0, 0, []
1630238862.1054, 64, 0, 4081.026, 4277.436, 4021.538, 4131.795, 4030.256, 450, 0, []
1630238862.1132, 65, 0, 4108.205, 4315.897, 4042.564, 4146.667, 4036.41, 450, 0, []
1630238862.121, 66, 0, 4091.282, 4291.795, 4062.051, 4141.026, 4040, 16195, 0, []
1630238862.1288, 67, 0, 4071.795, 4289.231, 4037.436, 4134.872, 4044.103, 450, 0, []
1630238862.1367, 68, 0, 4087.692, 4318.462, 4035.385, 4143.59, 4036.923, 16082, 0, []
1630238862.1445, 69, 0, 4083.077, 4308.718, 4044.615, 4140.513, 4024.615, 450, 0, []
1630238862.1524, 70, 0, 4055.897, 4285.641, 4044.103, 4140, 4023.59, 16089, 0, []
1630238862.1602, 71, 0, 4066.154, 4307.692, 4054.359, 4161.026, 4033.333, 450, 0, []
1630238862.168, 72, 0, 4088.718, 4337.436, 4046.667, 4164.103, 4031.282, 450, 0, []
1630238862.1758, 73, 0, 4078.462, 4319.487, 4055.385, 4145.641, 4028.718, 16060, 0, []
1630238862.1838, 74, 0, 4067.692, 4289.744, 4058.974, 4141.538, 4038.462, 450, 0, []
1630238862.1917, 75, 0, 4074.359, 4299.487, 4038.974, 4151.282, 4027.692, 16212, 0, []
1630238862.1997, 76, 0, 4067.692, 4305.641, 4045.128, 4137.949, 4009.744, 450, 0, []
1630238862.2075, 77, 0, 4036.923, 4293.846, 4041.538, 4114.872, 4008.718, 450, 0, []
1630238862.2155, 78, 0, 4042.564, 4304.103, 4041.026, 4135.897, 4022.051, 450, 0, []
1630238862.2234, 79, 0, 4076.923, 4312.308, 4052.308, 4159.487, 4025.641, 16212, 0, []
1630238862.2312, 80, 0, 4058.462, 4296.923, 4047.179, 4136.41, 4008.205, 450, 0, []
1630238862.2391, 81, 0, 4032.821, 4284.615, 4051.282, 4129.231, 3995.897, 450, 0, []
1630238862.2468, 82, 0, 4063.077, 4290.769, 4049.744, 4153.333, 4001.538, 450, 0, []
1630238862.2547, 83, 0, 4074.872, 4307.692, 4054.872, 4149.231, 4005.641, 16212, 0, []
1630238862.2625, 84, 0, 4046.154, 4314.359, 4053.846, 4128.718, 4001.538, 450, 0, []
1630238862.2704, 85, 0, 4045.641, 4290.256, 4027.692, 4128.205, 3995.897, 450, 0, []
1630238862.2782, 86, 0, 4049.231, 4267.692, 4023.077, 4119.487, 3982.051, 450, 0, []
1630238862.286, 87, 0, 4034.359, 4281.538, 4024.103, 4113.846, 3987.179, 16212, 0, []
1630238862.2938, 88, 0, 4042.564, 4292.308, 4036.923, 4135.897, 4007.179, 450, 0, []
1630238862.3017, 89, 0, 4069.231, 4301.538, 4056.41, 4150.769, 4004.103, 450, 0, []
1630238862.3095, 90, 0, 4067.179, 4313.846, 4048.205, 4140.513, 4001.026, 450, 0, []
1630238862.3175, 91, 0, 4039.487, 4288.205, 4037.949, 4131.795, 4001.026, 16212, 0, []
1630238862.3253, 92, 0, 4046.154, 4266.667, 4026.154, 4138.974, 3990.769, 450, 0, []
1630238862.3333, 93, 0, 4072.821, 4281.026, 4038.974, 4144.615, 3993.333, 450, 0, []
1630238862.3412, 94, 0, 4063.59, 4300, 4053.846, 4140.513, 4008.205, 450, 0, []
1630238862.3492, 95, 0, 4044.615, 4300, 4030.769, 4142.051, 4003.077, 16212, 0, []
1630238862.3571, 96, 0, 4044.103, 4276.41, 4029.231, 4142.051, 3984.103, 450, 0, []
1630238862.365, 97, 0, 4038.462, 4261.538, 4026.154, 4130.256, 3984.103, 450, 0, []
1630238862.3729, 98, 0, 4044.103, 4290.769, 4017.949, 4142.564, 4002.564, 450, 0, []
1630238862.3809, 99, 0, 4064.615, 4309.231, 4030.256, 4155.385, 4009.231, 16212, 0, []
1630238862.3888, 100, 0, 4055.897, 4268.205, 4026.667, 4131.282, 3999.487, 450, 0, []
1630238862.3966, 101, 0, 4049.744, 4248.718, 4036.41, 4131.795, 4006.667, 450, 0, []
1630238862.4044, 102, 0, 4078.462, 4286.667, 4040, 4153.333, 4024.615, 450, 0, []
1630238862.4122, 103, 0, 4092.308, 4307.179, 4041.538, 4147.179, 4028.718, 16212, 0, []
1630238862.4201, 104, 0, 4073.333, 4284.615, 4058.974, 4136.923, 4028.205, 450, 0, []
1630238862.4279, 105, 0, 4063.59, 4270.769, 4047.692, 4141.538, 4023.59, 450, 0, []
1630238862.4358, 106, 0, 4073.846, 4277.949, 4043.077, 4146.667, 4004.615, 450, 0, []
1630238862.4435, 107, 0, 4074.872, 4278.974, 4041.026, 4136.923, 4001.538, 16212, 0, []
1630238862.4514, 108, 0, 4061.538, 4262.051, 4029.744, 4135.897, 4015.897, 450, 0, []
1630238862.4593, 109, 0, 4064.615, 4252.821, 4028.205, 4153.846, 4013.333, 450, 0, []
1630238862.4672, 110, 0, 4080.513, 4280, 4020.513, 4153.846, 4009.744, 450, 0, []
1630238862.4752, 111, 0, 4073.846, 4300, 4028.718, 4140, 4017.436, 16212, 0, []
1630238862.4831, 112, 0, 4073.333, 4277.949, 4030.256, 4146.154, 4031.282, 450, 0, []
1630238862.491, 113, 0, 4100.513, 4261.538, 4023.077, 4165.128, 4040, 450, 0, []
1630238862.499, 114, 0, 4100.513, 4282.051, 4033.333, 4153.846, 4029.231, 450, 0, []
1630238862.5069, 115, 0, 4067.179, 4284.103, 4029.231, 4124.103, 4017.949, 16212, 0, []
1630238862.5149, 116, 0, 4071.795, 4272.821, 4046.667, 4135.897, 4036.41, 450, 0, []
1630238862.5228, 117, 0, 4108.718, 4286.154, 4059.487, 4156.923, 4051.795, 450, 0, []
1630238862.5307, 118, 0, 4111.795, 4275.385, 4049.231, 4142.051, 4035.385, 450, 0, []
1630238862.5386, 119, 0, 4100, 4265.641, 4069.744, 4129.744, 4042.564, 16212, 0, []
1630238862.5466, 120, 0, 4111.795, 4290.769, 4068.718, 4148.718, 4077.949, 450, 0, []
1630238862.5545, 121, 0, 4125.641, 4286.667, 4054.359, 4171.795, 4085.641, 450, 0, []
1630238862.5623, 122, 0, 4131.795, 4270.769, 4061.538, 4166.667, 4071.282, 450, 0, []
1630238862.5701, 123, 0, 4138.462, 4293.846, 4067.179, 4153.846, 4080, 16212, 0, []
1630238862.5779, 124, 0, 4129.744, 4291.282, 4072.308, 4158.462, 4092.821, 450, 0, []
1630238862.5858, 125, 0, 4109.744, 4243.59, 4046.154, 4156.41, 4069.231, 450, 0, []
1630238862.5936, 126, 0, 4103.59, 4250.256, 4033.846, 4148.718, 4040, 450, 0, []
1630238862.6015, 127, 0, 4113.846, 4291.795, 4056.41, 4145.128, 4050.769, 16212, 0, []
1630238862.6092, 128, 0, 4118.974, 4269.231, 4051.795, 4148.718, 4078.974, 450, 0, []
1630238862.6172, 0, 0, 4118.462, 4232.308, 4051.795, 4167.692, 4084.103, 450, 0, []
1630238862.6251, 1, 0, 4124.615, 4251.282, 4048.718, 4174.872, 4076.923, 450, 0, []
1630238862.633, 2, 0, 4117.436, 4252.821, 4030.769, 4157.949, 4065.641, 16192, 0, []
1630238862.6408, 3, 0, 4109.231, 4225.641, 4044.615, 4156.41, 4069.744, 450, 0, []
1630238862.6487, 4, 0, 4131.795, 4253.846, 4075.897, 4185.128, 4109.231, 16086, 0, []
1630238862.6566, 5, 0, 4139.487, 4283.59, 4083.077, 4191.282, 4117.949, 450, 0, []
1630238862.6646, 6, 0, 4118.462, 4247.179, 4045.128, 4163.077, 4075.385, 16082, 0, []
1630238862.6725, 7, 0, 4123.59, 4218.462, 4036.923, 4154.359, 4070.256, 450, 0, []
1630238862.6805, 8, 0, 4128.718, 4235.385, 4059.487, 4159.487, 4095.897, 450, 0, []
1630238862.6883, 9, 0, 4100, 4253.846, 4032.821, 4146.154, 4077.949, 16063, 0, []
1630238862.6963, 10, 0, 4089.231, 4253.846, 4019.487, 4141.538, 4044.615, 450, 0, []
1630238862.7042, 11, 0, 4111.795, 4235.897, 4033.333, 4149.744, 4054.359, 16205, 0, []
1630238862.712, 12, 0, 4130.256, 4220, 4041.538, 4155.385, 4085.641, 450, 0, []
1630238862.7199, 13, 0, 4137.436, 4236.41, 4056.923, 4163.59, 4103.077, 450, 0, []
1630238862.7276, 14, 0, 4147.179, 4251.282, 4051.282, 4171.795, 4114.872, 450, 0, []
1630238862.7355, 15, 0, 4162.051, 4245.641, 4056.923, 4178.462, 4123.077, 16205, 0, []
1630238862.7433, 16, 0, 4182.564, 4249.744, 4073.333, 4182.564, 4132.308, 0, 0, []
1630238862.7512, 17, 0, 4185.641, 4254.359, 4073.333, 4178.462, 4140, 0, 0, []
1630238862.759, 18, 0, 4162.051, 4241.538, 4080, 4170.256, 4132.821, 0, 0, []
1630238862.7668, 19, 0, 4151.282, 4253.846, 4070.256, 4172.308, 4122.564, 0, 0, []
1630238862.7746, 20, 0, 4169.231, 4284.103, 4073.846, 4190.256, 4124.615, 0, 0, []
1630238862.7826, 21, 0, 4174.872, 4255.385, 4086.667, 4191.282, 4121.538, 0, 0, []
1630238862.7905, 22, 0, 4167.692, 4232.821, 4088.205, 4177.949, 4122.051, 0, 0, []
1630238862.7985, 23, 0, 4195.385, 4286.154, 4123.077, 4198.974, 4169.744, 0, 0, []
1630238862.8063, 24, 0, 4228.205, 4303.59, 4134.359, 4229.231, 4208.718, 0, 0, []
1630238862.8143, 25, 0, 4221.026, 4245.128, 4115.897, 4220.513, 4187.692, 0, 0, []
1630238862.8222, 26, 0, 4221.538, 4243.077, 4120.513, 4206.154, 4183.077, 0, 0, []
1630238862.8302, 27, 0, 4244.615, 4290.256, 4131.282, 4220.513, 4211.282, 0, 0, []
1630238862.8381, 28, 0, 4241.538, 4289.231, 4143.077, 4218.462, 4207.692, 0, 0, []
1630238862.846, 29, 0, 4215.897, 4279.487, 4130.256, 4188.718, 4194.359, 0, 0, []
1630238862.8539, 30, 0, 4197.436, 4275.385, 4110.769, 4181.538, 4193.333, 0, 0, []
1630238862.8617, 31, 0, 4197.949, 4260, 4107.692, 4199.487, 4184.103, 0, 0, []
1630238862.8696, 32, 0, 4231.795, 4269.744, 4115.385, 4211.282, 4197.949, 0, 0, []
1630238862.8774, 33, 0, 4256.923, 4286.154, 4143.077, 4210.256, 4222.051, 0, 0, []
1630238862.8853, 34, 0, 4229.231, 4269.231, 4129.231, 4195.897, 4197.436, 0, 0, []
1630238862.893, 35, 0, 4208.205, 4260.513, 4107.179, 4192.821, 4176.41, 0, 0, []
1630238862.9009, 36, 0, 4235.385, 4282.051, 4134.872, 4212.821, 4216.41, 0, 0, []
1630238862.9087, 37, 0, 4261.538, 4289.231, 4148.205, 4230.769, 4261.026, 0, 0, []
1630238862.9166, 38, 0, 4244.103, 4266.667, 4137.949, 4232.821, 4245.641, 0, 0, []
1630238862.9244, 39, 0, 4220.513, 4248.718, 4110.256, 4214.359, 4208.205, 0, 0, []
1630238862.9323, 40, 0, 4221.026, 4260, 4090.769, 4196.923, 4197.436, 0, 0, []
1630238862.9402, 41, 0, 4228.205, 4264.615, 4114.359, 4205.128, 4206.667, 0, 0, []
1630238862.9482, 42, 0, 4240, 4253.846, 4143.59, 4219.487, 4229.744, 0, 0, []
1630238862.9561, 43, 0, 4251.282, 4262.564, 4164.103, 4221.026, 4250.769, 0, 0, []
1630238862.9641, 44, 0, 4234.872, 4260, 4142.051, 4214.872, 4237.436, 0, 0, []
1630238862.9719, 45, 0, 4214.872, 4238.462, 4122.051, 4225.128, 4215.897, 0, 0, []
1630238862.9799, 46, 0, 4240, 4254.359, 4154.359, 4247.692, 4233.333, 0, 0, []
1630238862.9878, 47, 0, 4271.795, 4289.744, 4154.872, 4252.821, 4255.897, 0, 0, []
1630238862.9958, 48, 0, 4263.077, 4293.846, 4139.487, 4246.154, 4246.667, 0, 0, []
1630238863.0037, 49, 0, 4245.128, 4281.538, 4142.051, 4234.872, 4236.41, 0, 0, []
1630238863.0114, 50, 0, 4233.846, 4260, 4131.795, 4214.359, 4237.949, 0, 0, []
1630238863.0193, 51, 0, 4229.231, 4253.333, 4125.128, 4209.231, 4244.103, 0, 0, []
1630238863.0271, 52, 0, 4237.949, 4281.538, 4118.974, 4224.615, 4246.154, 0, 0, []
1630238863.035, 53, 0, 4254.359, 4287.692, 4135.385, 4234.872, 4241.538, 0, 0, []
1630238863.0428, 54, 0, 4266.154, 4270.256, 4146.667, 4231.795, 4245.641, 0, 0, []
1630238863.0506, 55, 0, 4262.564, 4260.513, 4124.615, 4228.718, 4247.692, 0, 0, []
1630238863.0584, 56, 0, 4249.231, 4247.692, 4125.128, 4231.282, 4235.385, 0, 0, []
1630238863.0663, 57, 0, 4263.59, 4257.436, 4140, 4236.41, 4252.308, 0, 0, []
1630238863.0741, 58, 0, 4290.769, 4280.513, 4149.231, 4228.205, 4292.308, 0, 0, []
1630238863.0821, 59, 0, 4302.051, 4253.333, 4140.513, 4203.077, 4317.949, 0, 0, []
1630238863.0899, 60, 0, 4338.974, 4214.872, 4131.282, 4200, 4361.026, 0, 0, []
1630238863.0978, 61, 0, 4417.436, 4251.282, 4154.359, 4221.538, 4435.897, 0, 0, []
1630238863.1056, 62, 0, 4467.692, 4279.487, 4131.282, 4201.538, 4478.462, 0, 0, []
1630238863.1136, 63, 0, 4481.026, 4236.923, 4111.282, 4175.385, 4487.179, 0, 0, []
1630238863.1215, 64, 0, 4536.923, 4247.179, 4159.487, 4213.333, 4538.974, 450, 0, []
1630238863.1294, 65, 0, 4602.051, 4301.026, 4170.256, 4252.308, 4591.795, 450, 0, []
1630238863.1373, 66, 0, 4586.154, 4269.744, 4138.974, 4228.205, 4560.513, 16189, 0, []
1630238863.1453, 67, 0, 4544.615, 4221.538, 4118.974, 4197.436, 4515.897, 450, 0, []
1630238863.1532, 68, 0, 4538.462, 4250.769, 4132.308, 4212.821, 4515.897, 16083, 0, []
1630238863.1612, 69, 0, 4531.795, 4278.462, 4157.436, 4246.154, 4527.179, 450, 0, []
1630238863.169, 70, 0, 4496.41, 4264.103, 4144.103, 4240.513, 4510.256, 16074, 0, []
1630238863.1768, 71, 0, 4432.821, 4243.077, 4115.385, 4197.436, 4444.615, 450, 0, []
1630238863.1847, 72, 0, 4396.923, 4228.718, 4106.154, 4188.718, 4401.538, 450, 0, []
1630238863.1925, 73, 0, 4421.026, 4262.051, 4148.718, 4234.872, 4432.308, 16062, 0, []
1630238863.2004, 74, 0, 4427.692, 4304.615, 4185.641, 4256.923, 4447.179, 450, 0, []
1630238863.2082, 75, 0, 4381.026, 4279.487, 4151.282, 4233.333, 4400, 16201, 0, []
1630238863.216, 76, 0, 4338.974, 4245.128, 4135.897, 4217.436, 4357.436, 450, 0, []
1630238863.2238, 77, 0, 4322.051, 4254.872, 4140.513, 4212.308, 4334.359, 450, 0, []
1630238863.2317, 78, 0, 4307.179, 4262.051, 4126.154, 4209.231, 4307.179, 450, 0, []
1630238863.2395, 79, 0, 4296.923, 4267.179, 4128.718, 4216.923, 4290.256, 16201, 0, []
1630238863.2475, 80, 0, 4289.231, 4296.41, 4124.615, 4217.949, 4280.513, 450, 0, []
1630238863.2553, 81, 0, 4283.59, 4311.282, 4142.564, 4224.615, 4276.923, 450, 0, []
1630238863.2633, 82, 0, 4268.205, 4282.051, 4152.821, 4222.564, 4268.205, 450, 0, []
1630238863.2712, 83, 0, 4216.41, 4242.051, 4112.308, 4189.231, 4229.231, 16201, 0, []
1630238863.2792, 84, 0, 4180.513, 4220, 4094.359, 4176.923, 4199.487, 450, 0, []
1630238863.2871, 85, 0, 4190.256, 4194.359, 4090.256, 4192.821, 4197.436, 450, 0, []
1630238863.295, 86, 0, 4216.41, 4164.103, 4106.154, 4212.821, 4201.026, 450, 0, []
1630238863.3029, 87, 0, 4227.179, 4155.897, 4122.051, 4217.949, 4205.128, 16201, 0, []
1630238863.3109, 88, 0, 4217.949, 4136.923, 4113.846, 4210.256, 4216.41, 450, 0, []
1630238863.3188, 89, 0, 4201.538, 4089.231, 4126.154, 4208.718, 4217.436, 450, 0, []
1630238863.3267, 90, 0, 4184.103, 4082.051, 4114.359, 4199.487, 4193.333, 450, 0, []
1630238863.3345, 91, 0, 4177.949, 4118.462, 4102.564, 4185.128, 4166.154, 16201, 0, []
1630238863.3423, 92, 0, 4165.641, 4113.333, 4108.205, 4170.256, 4150.769, 450, 0, []
1630238863.3502, 93, 0, 4153.333, 4088.718, 4113.333, 4183.59, 4164.615, 450, 0, []
1630238863.358, 94, 0, 4172.821, 4098.974, 4140.513, 4225.641, 4197.436, 450, 0, []
1630238863.3659, 95, 0, 4177.436, 4107.179, 4120.513, 4217.949, 4184.103, 16201, 0, []
1630238863.3736, 96, 0, 4155.897, 4090.256, 4090.769, 4180.513, 4146.667, 450, 0, []
1630238863.3815, 97, 0, 4161.538, 4112.821, 4124.103, 4201.026, 4169.231, 450, 0, []
1630238863.3893, 98, 0, 4184.615, 4148.205, 4141.538, 4233.846, 4210.769, 450, 0, []
1630238863.3973, 99, 0, 4168.718, 4127.179, 4106.667, 4207.179, 4173.846, 16201, 0, []
1630238863.4052, 100, 0, 4160, 4122.564, 4079.487, 4186.154, 4135.385, 450, 0, []
1630238863.4131, 101, 0, 4185.641, 4148.205, 4109.231, 4205.641, 4173.333, 450, 0, []
1630238863.421, 102, 0, 4175.897, 4124.615, 4126.667, 4195.897, 4190.256, 450, 0, []
1630238863.429, 103, 0, 4148.718, 4092.821, 4087.179, 4167.179, 4152.821, 16201, 0, []
1630238863.4369, 104, 0, 4165.128, 4131.795, 4088.718, 4180.513, 4142.051, 450, 0, []
1630238863.4449, 105, 0, 4190.256, 4164.103, 4115.897, 4205.641, 4168.718, 450, 0, []
1630238863.4527, 106, 0, 4176.923, 4121.026, 4108.205, 4195.385, 4184.103, 450, 0, []
1630238863.4606, 107, 0, 4179.487, 4096.923, 4102.051, 4185.641, 4207.179, 16201, 0, []
1630238863.4685, 108, 0, 4244.615, 4140.513, 4108.205, 4205.128, 4266.154, 450, 0, []
1630238863.4765, 109, 0, 4319.487, 4171.282, 4133.333, 4231.282, 4326.154, 450, 0, []
1630238863.4844, 110, 0, 4375.897, 4140.513, 4129.231, 4229.744, 4372.308, 450, 0, []
1630238863.4921, 111, 0, 4427.692, 4117.949, 4094.872, 4206.667, 4410.256, 16201, 0, []
1630238863.5, 112, 0, 4467.692, 4149.231, 4103.077, 4199.487, 4439.487, 450, 0, []
1630238863.5078, 113, 0, 4486.667, 4168.205, 4116.923, 4198.974, 4456.923, 450, 0, []
1630238863.5157, 114, 0, 4490.769, 4150.256, 4122.051, 4192.821, 4455.385, 450, 0, []
1630238863.5235, 115, 0, 4471.282, 4146.154, 4110.769, 4180, 4427.692, 16201, 0, []
1630238863.5313, 116, 0, 4428.205, 4159.487, 4086.154, 4165.128, 4380, 450, 0, []
1630238863.5391, 117, 0, 4403.077, 4168.718, 4102.051, 4172.308, 4360, 450, 0, []
1630238863.547, 118, 0, 4388.205, 4179.487, 4104.615, 4184.103, 4356.41, 450, 0, []
1630238863.5548, 119, 0, 4331.795, 4169.744, 4082.051, 4175.385, 4307.179, 16201, 0, []
1630238863.5628, 120, 0, 4285.128, 4166.667, 4092.821, 4178.974, 4262.051, 450, 0, []
1630238863.5707, 121, 0, 4297.949, 4198.974, 4126.667, 4198.462, 4280, 450, 0, []
1630238863.5786, 122, 0, 4287.692, 4204.615, 4142.564, 4197.436, 4290.256, 450, 0, []
1630238863.5865, 123, 0, 4229.744, 4186.154, 4108.718, 4181.026, 4248.205, 16201, 0, []
1630238863.5945, 124, 0, 4206.154, 4196.923, 4093.846, 4182.051, 4211.795, 450, 0, []
1630238863.6024, 125, 0, 4214.872, 4203.077, 4108.205, 4188.205, 4197.436, 450, 0, []
1630238863.6104, 126, 0, 4196.41, 4170.256, 4098.462, 4173.846, 4169.744, 450, 0, []
1630238863.6182, 127, 0, 4153.333, 4144.103, 4092.821, 4144.615, 4132.308, 16201, 0, []
1630238863.6262, 128, 0, 4125.128, 4152.821, 4086.667, 4128.718, 4118.462, 450, 0, []
1630238863.6341, 0, 0, 4133.846, 4178.974, 4100, 4155.385, 4134.872, 450, 0, []
1630238863.6419, 1, 0, 4156.41, 4196.923, 4123.59, 4185.641, 4141.026, 450, 0, []
1630238863.6498, 2, 0, 4140.513, 4184.103, 4102.564, 4166.667, 4108.718, 16195, 0, []
1630238863.6575, 3, 0, 4088.205, 4171.795, 4088.205, 4140.513, 4068.718, 450, 0, []
1630238863.6654, 4, 0, 4064.103, 4170.769, 4080, 4147.179, 4061.026, 16074, 0, []
1630238863.6732, 5, 0, 4092.821, 4171.282, 4079.487, 4169.744, 4070.256, 450, 0, []
1630238863.6811, 6, 0, 4114.872, 4172.821, 4098.974, 4174.359, 4078.974, 16078, 0, []
1630238863.6889, 7, 0, 4085.641, 4154.872, 4078.974, 4149.744, 4082.564, 450, 0, []
1630238863.6967, 8, 0, 4055.897, 4136.923, 4065.641, 4142.051, 4066.154, 450, 0, []
1630238863.7045, 9, 0, 4066.667, 4166.154, 4069.744, 4153.846, 4040, 16072, 0, []
1630238863.7125, 10, 0, 4068.718, 4187.692, 4064.615, 4141.026, 4030.769, 450, 0, []
1630238863.7204, 11, 0, 4061.026, 4147.692, 4076.923, 4140.513, 4051.795, 16207, 0, []
1630238863.7284, 12, 0, 4080.513, 4125.641, 4076.41, 4165.641, 4074.359, 450, 0, []
1630238863.7362, 13, 0, 4091.795, 4164.103, 4084.103, 4171.795, 4067.179, 450, 0, []
1630238863.7442, 14, 0, 4065.128, 4176.41, 4087.179, 4151.282, 4051.282, 450, 0, []
1630238863.7521, 15, 0, 4043.077, 4143.59, 4080.513, 4141.538, 4046.667, 16207, 0, []
1630238863.7601, 16, 0, 4043.077, 4142.564, 4084.103, 4149.744, 4030.256, 0, 0, []
1630238863.768, 17, 0, 4028.205, 4157.949, 4063.077, 4136.41, 4008.718, 0, 0, []
1630238863.7759, 18, 0, 4021.026, 4150.256, 4070.256, 4136.923, 4018.974, 0, 0, []
1630238863.7838, 19, 0, 4060.513, 4158.462, 4091.282, 4171.282, 4050.769, 0, 0, []
1630238863.7916, 20, 0, 4087.692, 4171.795, 4084.103, 4189.231, 4059.487, 0, 0, []
1630238863.7995, 21, 0, 4052.821, 4156.41, 4082.051, 4163.59, 4047.692, 0, 0, []
1630238863.8073, 22, 0, 4034.359, 4151.795, 4074.359, 4135.385, 4051.795, 0, 0, []
1630238863.8151, 23, 0, 4059.487, 4168.718, 4081.538, 4149.744, 4054.872, 0, 0, []
1630238863.8229, 24, 0, 4055.385, 4164.103, 4078.974, 4149.231, 4036.923, 0, 0, []
1630238863.8308, 25, 0, 4036.923, 4152.308, 4057.436, 4138.462, 4041.026, 0, 0, []
1630238863.8386, 26, 0, 4050.256, 4157.436, 4059.487, 4157.949, 4050.769, 0, 0, []
1630238863.8465, 27, 0, 4052.308, 4147.692, 4050.769, 4150.769, 4030.769, 0, 0, []
1630238863.8542, 28, 0, 4040, 4153.333, 4069.231, 4144.615, 4041.026, 0, 0, []
1630238863.8622, 29, 0, 4062.564, 4185.128, 4108.205, 4177.949, 4084.103, 0, 0, []
1630238863.8701, 30, 0, 4088.718, 4178.462, 4094.872, 4178.974, 4073.846, 0, 0, []
1630238863.8781, 31, 0, 4072.308, 4156.41, 4087.692, 4142.051, 4038.462, 0, 0, []
1630238863.886, 32, 0, 4040.513, 4166.667, 4079.487, 4133.846, 4045.128, 0, 0, []
1630238863.8939, 33, 0, 4035.385, 4160, 4064.615, 4150.769, 4050.256, 0, 0, []
1630238863.9018, 34, 0, 4050.769, 4128.718, 4075.897, 4145.641, 4035.897, 0, 0, []
1630238863.9098, 35, 0, 4046.667, 4148.718, 4072.821, 4124.615, 4032.821, 0, 0, []
1630238863.9177, 36, 0, 4049.231, 4187.692, 4087.692, 4147.692, 4050.769, 0, 0, []
1630238863.9257, 37, 0, 4090.256, 4181.538, 4109.744, 4188.718, 4069.744, 0, 0, []
1630238863.9336, 38, 0, 4102.051, 4163.077, 4105.128, 4176.41, 4072.308, 0, 0, []
1630238863.9415, 39, 0, 4058.974, 4168.205, 4085.641, 4142.051, 4057.436, 0, 0, []
1630238863.9494, 40, 0, 4045.641, 4190.256, 4056.923, 4140.513, 4040, 0, 0, []
1630238863.9572, 41, 0, 4065.128, 4177.436, 4064.615, 4149.231, 4033.333, 0, 0, []
1630238863.9651, 42, 0, 4048.718, 4138.974, 4067.179, 4127.692, 4031.282, 0, 0, []
1630238863.9729, 43, 0, 4039.487, 4151.795, 4063.59, 4122.564, 4036.923, 0, 0, []
1630238863.9807, 44, 0, 4074.872, 4178.462, 4080.513, 4153.846, 4041.538, 0, 0, []
1630238863.9885, 45, 0, 4080.513, 4151.282, 4066.667, 4156.41, 4039.487, 0, 0, []
1630238863.9964, 46, 0, 4054.359, 4129.744, 4068.205, 4145.641, 4044.103, 0, 0, []
1630238864.0042, 47, 0, 4069.231, 4158.974, 4086.154, 4154.872, 4055.385, 0, 0, []
1630238864.0121, 48, 0, 4093.846, 4185.128, 4083.077, 4156.41, 4061.538, 0, 0, []
1630238864.0198, 49, 0, 4073.846, 4181.538, 4076.923, 4144.103, 4062.051, 0, 0, []
1630238864.0278, 50, 0, 4065.641, 4165.641, 4070.256, 4149.744, 4066.154, 0, 0, []
1630238864.0357, 51, 0, 4075.897, 4157.949, 4075.385, 4157.949, 4052.308, 0, 0, []
1630238864.0437, 52, 0, 4071.795, 4183.59, 4072.308, 4138.974, 4040.513, 0, 0, []
1630238864.0516, 53, 0, 4076.41, 4203.59, 4068.718, 4139.487, 4062.564, 0, 0, []
1630238864.0595, 54, 0, 4085.641, 4183.077, 4077.949, 4160.513, 4070.256, 0, 0, []
1630238864.0674, 55, 0, 4074.359, 4176.923, 4060.513, 4148.205, 4052.308, 0, 0, []
1630238864.0754, 56, 0, 4057.949, 4189.744, 4062.051, 4137.436, 4054.872, 0, 0, []
1630238864.0833, 57, 0, 4052.821, 4177.949, 4058.462, 4142.051, 4054.359, 0, 0, []
1630238864.0911, 58, 0, 4049.231, 4158.462, 4023.077, 4135.385, 4027.692, 0, 0, []
1630238864.0989, 59, 0, 4064.615, 4168.205, 4051.282, 4149.744, 4046.667, 0, 0, []
1630238864.1067, 60, 0, 4089.744, 4172.821, 4081.538, 4169.744, 4092.308, 0, 0, []
1630238864.1146, 61, 0, 4086.154, 4164.615, 4062.051, 4157.949, 4071.795, 0, 0, []
1630238864.1224, 62, 0, 4089.744, 4186.154, 4066.667, 4154.872, 4047.692, 0, 0, []
1630238864.1303, 63, 0, 4105.128, 4193.846, 4086.667, 4172.308, 4082.051, 0, 0, []
1630238864.138, 64, 0, 4091.795, 4161.538, 4085.128, 4172.821, 4095.385, 450, 0, []
1630238864.1459, 65, 0, 4088.205, 4160, 4066.154, 4168.718, 4078.974, 450, 0, []
1630238864.1537, 66, 0, 4118.974, 4201.538, 4088.718, 4185.641, 4090.256, 16197, 0, []
1630238864.1616, 67, 0, 4117.949, 4210.769, 4112.821, 4183.59, 4103.077, 450, 0, []
1630238864.1694, 68, 0, 4099.487, 4191.795, 4090.256, 4171.282, 4105.641, 16079, 0, []
1630238864.1772, 69, 0, 4125.128, 4208.205, 4108.718, 4194.872, 4122.564, 450, 0, []
1630238864.185, 70, 0, 4138.974, 4227.692, 4112.821, 4196.923, 4120, 16078, 0, []
1630238864.193, 71, 0, 4115.385, 4197.436, 4080.513, 4165.641, 4100.513, 450, 0, []
1630238864.2009, 72, 0, 4103.59, 4163.077, 4082.051, 4163.59, 4106.154, 450, 0, []
1630238864.2089, 73, 0, 4105.128, 4175.385, 4081.538, 4170.769, 4109.231, 16070, 0, []
1630238864.2167, 74, 0, 4120, 4191.282, 4093.846, 4174.359, 4102.051, 450, 0, []
1630238864.2247, 75, 0, 4143.077, 4187.179, 4103.077, 4173.846, 4116.41, 16202, 0, []
1630238864.2326, 76, 0, 4123.59, 4180.513, 4082.564, 4155.385, 4124.103, 450, 0, []
1630238864.2406, 77, 0, 4108.205, 4178.462, 4077.949, 4150.769, 4125.128, 450, 0, []
1630238864.2485, 78, 0, 4180.513, 4194.872, 4092.308, 4179.487, 4180, 450, 0, []
1630238864.2564, 79, 0, 4262.051, 4206.667, 4108.205, 4193.846, 4252.821, 16202, 0, []
1630238864.2643, 80, 0, 4294.872, 4190.769, 4090.769, 4170.769, 4287.692, 450, 0, []
1630238864.2721, 81, 0, 4353.846, 4176.41, 4079.487, 4172.308, 4339.487, 450, 0, []
1630238864.28, 82, 0, 4423.59, 4193.846, 4107.692, 4195.897, 4410.256, 450, 0, []
1630238864.2878, 83, 0, 4433.333, 4210.256, 4099.487, 4187.692, 4431.795, 16202, 0, []
1630238864.2957, 84, 0, 4424.615, 4193.333, 4085.128, 4176.41, 4416.41, 450, 0, []
1630238864.3034, 85, 0, 4418.974, 4167.179, 4071.282, 4166.154, 4391.282, 450, 0, []
1630238864.3113, 86, 0, 4389.744, 4172.821, 4057.436, 4154.359, 4365.128, 450, 0, []
1630238864.3191, 87, 0, 4365.128, 4190.256, 4080.513, 4162.564, 4357.436, 16202, 0, []
1630238864.327, 88, 0, 4345.128, 4172.821, 4074.872, 4159.487, 4342.051, 450, 0, []
1630238864.3348, 89, 0, 4297.949, 4166.667, 4060.513, 4151.795, 4297.949, 450, 0, []
1630238864.3427, 90, 0, 4258.974, 4189.744, 4066.154, 4171.282, 4269.231, 450, 0, []
1630238864.3506, 91, 0, 4250.256, 4188.205, 4058.974, 4184.615, 4264.103, 16202, 0, []
1630238864.3586, 92, 0, 4225.128, 4174.872, 4052.308, 4164.103, 4233.333, 450, 0, []
1630238864.3665, 93, 0, 4195.385, 4184.615, 4046.667, 4146.667, 4200, 450, 0, []
1630238864.3745, 94, 0, 4190.769, 4191.795, 4065.641, 4154.359, 4199.487, 450, 0, []
1630238864.3823, 95, 0, 4193.846, 4178.974, 4090.769, 4167.692, 4217.949, 16202, 0, []
1630238864.3903, 96, 0, 4193.846, 4181.538, 4089.744, 4186.667, 4231.282, 450, 0, []
1630238864.3982, 97, 0, 4187.179, 4192.308, 4093.846, 4202.564, 4216.923, 450, 0, []
1630238864.4062, 98, 0, 4171.282, 4194.359, 4070.769, 4183.077, 4181.538, 450, 0, []
1630238864.4141, 99, 0, 4149.231, 4189.744, 4048.205, 4155.897, 4151.795, 16202, 0, []
1630238864.4218, 100, 0, 4138.462, 4183.077, 4071.795, 4158.974, 4151.795, 450, 0, []
1630238864.4297, 101, 0, 4136.923, 4183.077, 4082.564, 4172.308, 4157.436, 450, 0, []
1630238864.4375, 102, 0, 4126.667, 4180.513, 4080.513, 4176.923, 4132.308, 450, 0, []
1630238864.4454, 103, 0, 4108.718, 4170.256, 4052.821, 4160, 4096.41, 16202, 0, []
1630238864.4532, 104, 0, 4106.667, 4167.692, 4033.333, 4147.692, 4096.923, 450, 0, []
1630238864.461, 105, 0, 4118.462, 4172.821, 4061.026, 4166.154, 4127.692, 450, 0, []
1630238864.4689, 106, 0, 4109.231, 4176.41, 4055.385, 4171.282, 4119.487, 450, 0, []
1630238864.4768, 107, 0, 4100, 4186.154, 4045.641, 4165.641, 4088.718, 16202, 0, []
1630238864.4846, 108, 0, 4115.897, 4198.974, 4062.051, 4176.41, 4104.615, 450, 0, []
1630238864.4926, 109, 0, 4111.282, 4185.128, 4071.282, 4180, 4130.769, 450, 0, []
1630238864.5004, 110, 0, 4090.769, 4174.872, 4074.872, 4168.718, 4117.949, 450, 0, []
1630238864.5084, 111, 0, 4110.769, 4194.359, 4069.231, 4172.821, 4110.769, 16202, 0, []
1630238864.5163, 112, 0, 4138.462, 4203.077, 4087.692, 4192.821, 4128.205, 450, 0, []
1630238864.5243, 113, 0, 4115.385, 4186.154, 4084.103, 4178.462, 4124.103, 450, 0, []
1630238864.5322, 114, 0, 4090.256, 4186.667, 4058.974, 4167.179, 4113.333, 450, 0, []
1630238864.5401, 115, 0, 4111.795, 4205.641, 4070.256, 4197.949, 4123.59, 16202, 0, []
1630238864.548, 116, 0, 4133.846, 4208.205, 4066.667, 4201.026, 4117.949, 450, 0, []
1630238864.556, 117, 0, 4114.359, 4189.231, 4066.154, 4170.256, 4087.692, 450, 0, []
1630238864.5639, 118, 0, 4077.949, 4188.205, 4065.128, 4151.795, 4073.846, 450, 0, []
1630238864.5717, 119, 0, 4058.974, 4194.359, 4040, 4145.641, 4068.718, 16202, 0, []
1630238864.5795, 120, 0, 4075.385, 4175.385, 4053.846, 4151.282, 4061.538, 450, 0, []
1630238864.5873, 121, 0, 4113.333, 4172.821, 4083.077, 4172.821, 4087.179, 450, 0, []
1630238864.5952, 122, 0, 4111.795, 4203.59, 4087.692, 4184.103, 4107.692, 450, 0, []
1630238864.603, 123, 0, 4082.564, 4211.282, 4064.615, 4167.692, 4090.256, 16202, 0, []
1630238864.6109, 124, 0, 4097.949, 4178.974, 4060.513, 4169.744, 4084.615, 450, 0, []
1630238864.6187, 125, 0, 4115.897, 4157.949, 4087.692, 4176.41, 4089.744, 450, 0, []
1630238864.6265, 126, 0, 4089.231, 4175.385, 4068.205, 4152.308, 4078.974, 450, 0, []
1630238864.6343, 127, 0, 4080.513, 4197.949, 4060, 4158.462, 4075.897, 16202, 0, []
1630238864.6423, 128, 0, 4108.718, 4192.308, 4090.256, 4191.795, 4084.103, 450, 0, []
1630238864.6502, 0, 0, 4115.385, 4172.308, 4091.795, 4189.231, 4090.769, 450, 0, []
1630238864.6582, 1, 0, 4088.205, 4164.615, 4071.282, 4169.231, 4081.538, 450, 0, []
1630238864.666, 2, 0, 4059.487, 4173.333, 4024.103, 4148.205, 4044.103, 16195, 0, []
1630238864.674, 3, 0, 4061.538, 4177.949, 4029.744, 4149.231, 4031.282, 450, 0, []
1630238864.6819, 4, 0, 4097.949, 4170.256, 4095.385, 4177.436, 4081.538, 16087, 0, []
1630238864.6899, 5, 0, 4129.231, 4174.872, 4112.308, 4207.179, 4127.179, 450, 0, []
1630238864.6978, 6, 0, 4114.359, 4186.667, 4089.744, 4207.692, 4104.103, 16074, 0, []
1630238864.7057, 7, 0, 4084.615, 4177.949, 4059.487, 4168.718, 4060.513, 450, 0, []
1630238864.7136, 8, 0, 4097.436, 4160.513, 4074.872, 4164.103, 4078.462, 450, 0, []
1630238864.7214, 9, 0, 4130.256, 4174.872, 4113.846, 4204.615, 4127.692, 16073, 0, []
1630238864.7293, 10, 0, 4131.795, 4195.897, 4092.308, 4213.333, 4125.641, 450, 0, []
1630238864.7371, 11, 0, 4119.487, 4185.641, 4075.897, 4191.795, 4084.615, 16192, 0, []
1630238864.7449, 12, 0, 4133.846, 4182.564, 4088.718, 4188.718, 4087.179, 450, 0, []
1630238864.7527, 13, 0, 4142.564, 4197.949, 4097.436, 4198.462, 4114.872, 450, 0, []
1630238864.7606, 14, 0, 4131.795, 4200.513, 4107.692, 4190.256, 4113.333, 450, 0, []
1630238864.7684, 15, 0, 4137.436, 4206.154, 4105.641, 4186.154, 4104.615, 16192, 0, []
1630238864.7763, 16, 0, 4137.949, 4212.308, 4104.615, 4187.692, 4097.436, 0, 0, []
1630238864.784, 17, 0, 4116.923, 4188.205, 4093.333, 4172.821, 4091.795, 0, 0, []
1630238864.7919, 18, 0, 4117.949, 4194.359, 4088.718, 4175.385, 4103.077, 0, 0, []
1630238864.7997, 19, 0, 4149.744, 4244.615, 4108.205, 4201.026, 4122.564, 0, 0, []
1630238864.8077, 20, 0, 4163.59, 4244.615, 4091.795, 4203.077, 4124.615, 0, 0, []
1630238864.8156, 21, 0, 4165.641, 4216.41, 4088.718, 4196.41, 4127.179, 0, 0, []
1630238864.8235, 22, 0, 4186.667, 4231.282, 4120, 4201.026, 4161.538, 0, 0, []
1630238864.8314, 23, 0, 4206.154, 4260.513, 4129.231, 4207.179, 4200, 0, 0, []
1630238864.8394, 24, 0, 4224.615, 4265.128, 4121.538, 4212.308, 4220, 0, 0, []
1630238864.8473, 25, 0, 4254.872, 4248.718, 4092.308, 4199.487, 4232.308, 0, 0, []
1630238864.8553, 26, 0, 4294.359, 4257.436, 4086.154, 4182.051, 4258.974, 0, 0, []
1630238864.8631, 27, 0, 4350.256, 4283.59, 4101.538, 4188.205, 4304.615, 0, 0, []
1630238864.8711, 28, 0, 4416.923, 4271.282, 4100.513, 4201.538, 4352.821, 0, 0, []
1630238864.879, 29, 0, 4461.026, 4263.59, 4111.282, 4206.154, 4387.692, 0, 0, []
1630238864.8868, 30, 0, 4465.128, 4276.41, 4098.462, 4200.513, 4396.923, 0, 0, []
1630238864.8947, 31, 0, 4446.154, 4263.077, 4072.308, 4191.795, 4377.436, 0, 0, []
1630238864.9024, 32, 0, 4436.923, 4266.667, 4077.949, 4194.359, 4366.667, 0, 0, []
1630238864.9103, 33, 0, 4438.462, 4296.41, 4087.179, 4205.641, 4377.436, 0, 0, []
1630238864.9181, 34, 0, 4413.846, 4276.923, 4090.769, 4203.59, 4360.513, 0, 0, []
1630238864.926, 35, 0, 4383.077, 4264.103, 4082.564, 4198.462, 4331.795, 0, 0, []
1630238864.9338, 36, 0, 4360.513, 4295.385, 4083.59, 4201.026, 4320, 0, 0, []
1630238864.9416, 37, 0, 4334.872, 4287.692, 4093.333, 4196.923, 4298.974, 0, 0, []
1630238864.9494, 38, 0, 4314.872, 4256.923, 4091.282, 4193.333, 4280.513, 0, 0, []
1630238864.9574, 39, 0, 4290.769, 4248.718, 4106.667, 4197.436, 4274.359, 0, 0, []
1630238864.9653, 40, 0, 4265.128, 4263.077, 4102.051, 4194.872, 4256.41, 0, 0, []
1630238864.9733, 41, 0, 4265.128, 4280, 4098.974, 4206.667, 4242.051, 0, 0, []
1630238864.9812, 42, 0, 4270.769, 4266.667, 4120, 4222.564, 4241.026, 0, 0, []
1630238864.9891, 43, 0, 4252.308, 4253.333, 4109.231, 4210.769, 4215.385, 0, 0, []
1630238864.997, 44, 0, 4238.462, 4277.436, 4111.282, 4203.077, 4190.256, 0, 0, []
1630238865.005, 45, 0, 4234.359, 4282.051, 4114.359, 4206.667, 4204.615, 0, 0, []
1630238865.0129, 46, 0, 4207.692, 4235.897, 4104.103, 4208.718, 4208.205, 0, 0, []
1630238865.0209, 47, 0, 4185.128, 4233.846, 4124.103, 4213.333, 4184.103, 0, 0, []
1630238865.0287, 48, 0, 4191.282, 4271.282, 4120, 4209.744, 4167.179, 0, 0, []
1630238865.0367, 49, 0, 4184.103, 4246.667, 4092.821, 4192.821, 4147.179, 0, 0, []
1630238865.0446, 50, 0, 4156.41, 4203.077, 4077.436, 4176.41, 4131.795, 0, 0, []
1630238865.0524, 51, 0, 4154.359, 4222.564, 4089.744, 4190.769, 4156.41, 0, 0, []
1630238865.0603, 52, 0, 4169.231, 4272.821, 4106.667, 4210.769, 4168.205, 0, 0, []
1630238865.068, 53, 0, 4167.692, 4278.462, 4082.051, 4200, 4130.769, 0, 0, []
1630238865.0759, 54, 0, 4162.564, 4245.128, 4083.59, 4188.718, 4117.436, 0, 0, []
1630238865.0837, 55, 0, 4156.923, 4223.077, 4102.564, 4193.846, 4137.949, 0, 0, []
1630238865.0916, 56, 0, 4137.436, 4231.282, 4086.667, 4197.436, 4132.308, 0, 0, []
1630238865.0994, 57, 0, 4131.795, 4249.231, 4078.462, 4195.385, 4105.641, 0, 0, []
1630238865.1073, 58, 0, 4138.974, 4247.179, 4078.462, 4190.256, 4100.513, 0, 0, []
1630238865.1152, 59, 0, 4136.923, 4236.923, 4103.59, 4194.359, 4120.513, 0, 0, []
1630238865.1232, 60, 0, 4137.436, 4233.333, 4126.154, 4209.231, 4138.974, 0, 0, []
1630238865.1311, 61, 0, 4130.256, 4237.436, 4095.385, 4204.615, 4117.436, 0, 0, []
1630238865.1391, 62, 0, 4133.846, 4262.564, 4096.923, 4200, 4100, 0, 0, []
1630238865.1469, 63, 0, 4158.462, 4275.897, 4122.051, 4211.795, 4130.769, 0, 0, []
1630238865.1549, 64, 0, 4158.462, 4243.59, 4120.513, 4216.923, 4145.128, 450, 0, []
1630238865.1628, 65, 0, 4140.513, 4236.41, 4113.333, 4219.487, 4128.205, 450, 0, []
1630238865.1708, 66, 0, 4141.538, 4277.436, 4100.513, 4224.615, 4117.436, 16205, 0, []
1630238865.1787, 67, 0, 4147.179, 4265.641, 4098.974, 4221.026, 4111.282, 450, 0, []
1630238865.1864, 68, 0, 4135.897, 4229.744, 4096.41, 4204.615, 4108.205, 16095, 0, []
1630238865.1943, 69, 0, 4122.564, 4251.795, 4106.667, 4203.59, 4111.795, 450, 0, []
1630238865.2021, 70, 0, 4112.308, 4264.103, 4105.641, 4204.615, 4100, 16080, 0, []
1630238865.21, 71, 0, 4107.692, 4245.128, 4077.436, 4188.718, 4083.077, 450, 0, []
1630238865.2178, 72, 0, 4097.949, 4244.103, 4082.564, 4185.641, 4083.59, 450, 0, []
1630238865.2256, 73, 0, 4092.308, 4245.641, 4078.974, 4193.333, 4090.769, 16066, 0, []
1630238865.2334, 74, 0, 4123.077, 4251.795, 4074.872, 4210.256, 4104.615, 450, 0, []
1630238865.2413, 75, 0, 4160.513, 4262.051, 4100.513, 4227.692, 4121.538, 16200, 0, []
1630238865.2491, 76, 0, 4162.051, 4252.308, 4103.077, 4224.615, 4135.385, 450, 0, []
1630238865.2571, 77, 0, 4152.821, 4258.974, 4107.692, 4218.974, 4149.231, 450, 0, []
1630238865.2649, 78, 0, 4154.872, 4269.231, 4099.487, 4217.436, 4146.154, 450, 0, []
1630238865.2729, 79, 0, 4153.333, 4248.718, 4081.026, 4209.744, 4121.026, 16200, 0, []
1630238865.2808, 80, 0, 4152.308, 4252.308, 4102.051, 4205.128, 4120.513, 450, 0, []
1630238865.2888, 81, 0, 4153.333, 4277.949, 4119.487, 4209.231, 4152.821, 450, 0, []
1630238865.2967, 82, 0, 4145.128, 4256.41, 4121.538, 4207.692, 4152.308, 450, 0, []
1630238865.3046, 83, 0, 4152.821, 4247.179, 4114.872, 4203.59, 4126.667, 16200, 0, []
1630238865.3125, 84, 0, 4157.436, 4281.538, 4105.128, 4202.051, 4121.538, 450, 0, []
1630238865.3205, 85, 0, 4125.641, 4283.59, 4103.59, 4191.795, 4120.513, 450, 0, []
1630238865.3284, 86, 0, 4112.821, 4259.487, 4092.821, 4193.846, 4118.974, 450, 0, []
1630238865.3362, 87, 0, 4138.974, 4264.615, 4098.974, 4216.923, 4122.051, 16200, 0, []
1630238865.3441, 88, 0, 4141.026, 4270.256, 4098.974, 4210.769, 4107.179, 450, 0, []
1630238865.3518, 89, 0, 4126.154, 4244.103, 4087.179, 4188.205, 4102.564, 450, 0, []
1630238865.3597, 90, 0, 4127.692, 4237.949, 4090.256, 4193.846, 4119.487, 450, 0, []
1630238865.3675, 91, 0, 4123.077, 4264.103, 4066.667, 4201.538, 4112.821, 16200, 0, []
1630238865.3754, 92, 0, 4125.641, 4260, 4074.359, 4205.128, 4102.564, 450, 0, []
1630238865.3832, 93, 0, 4145.128, 4257.436, 4121.026, 4207.692, 4121.026, 450, 0, []
1630238865.391, 94, 0, 4136.923, 4284.103, 4113.333, 4196.923, 4129.231, 450, 0, []
1630238865.3988, 95, 0, 4118.974, 4288.718, 4087.692, 4194.872, 4114.359, 16200, 0, []
1630238865.4067, 96, 0, 4138.462, 4277.436, 4087.179, 4211.282, 4118.462, 450, 0, []
1630238865.4145, 97, 0, 4147.692, 4274.359, 4104.103, 4210.769, 4122.564, 450, 0, []
1630238865.4225, 98, 0, 4121.026, 4264.103, 4113.846, 4188.205, 4111.795, 450, 0, []
1630238865.4303, 99, 0, 4130.769, 4266.154, 4115.897, 4202.051, 4132.821, 16200, 0, []
1630238865.4383, 100, 0, 4177.436, 4297.949, 4135.385, 4239.487, 4170.769, 450, 0, []
1630238865.4462, 101, 0, 4197.436, 4314.359, 4120.513, 4233.333, 4172.821, 450, 0, []
1630238865.4541, 102, 0, 4178.462, 4292.308, 4091.795, 4198.462, 4150.256, 450, 0, []
1630238865.462, 103, 0, 4158.974, 4284.615, 4100.513, 4194.359, 4148.205, 16200, 0, []
1630238865.4698, 104, 0, 4159.487, 4283.59, 4103.59, 4211.282, 4158.462, 450, 0, []
1630238865.4776, 105, 0, 4151.795, 4261.026, 4096.41, 4205.641, 4142.051, 450, 0, []
1630238865.4856, 106, 0, 4145.641, 4264.615, 4087.179, 4191.282, 4124.615, 450, 0, []
1630238865.4935, 107, 0, 4159.487, 4305.128, 4105.128, 4198.974, 4143.59, 16200, 0, []
1630238865.5015, 108, 0, 4171.282, 4314.872, 4137.436, 4212.308, 4172.821, 450, 0, []
1630238865.5093, 109, 0, 4160.513, 4273.333, 4113.846, 4204.103, 4169.744, 450, 0, []
1630238865.5171, 110, 0, 4158.462, 4268.205, 4102.051, 4200, 4150.769, 450, 0, []
1630238865.525, 111, 0, 4169.744, 4299.487, 4105.641, 4198.462, 4140.513, 16200, 0, []
1630238865.5328, 112, 0, 4155.897, 4277.436, 4081.538, 4173.846, 4136.41, 450, 0, []
1630238865.5407, 113, 0, 4144.103, 4234.359, 4079.487, 4167.179, 4158.462, 450, 0, []
1630238865.5484, 114, 0, 4172.821, 4247.692, 4090.769, 4188.718, 4192.821, 450, 0, []
1630238865.5563, 115, 0, 4217.949, 4274.359, 4108.718, 4207.179, 4209.744, 16200, 0, []
1630238865.5641, 116, 0, 4254.872, 4275.897, 4104.615, 4206.154, 4232.821, 450, 0, []
1630238865.5721, 117, 0, 4285.641, 4275.897, 4073.846, 4188.205, 4267.179, 450, 0, []
1630238865.58, 118, 0, 4342.564, 4265.641, 4084.615, 4186.154, 4310.256, 450, 0, []
1630238865.5879, 119, 0, 4429.231, 4280, 4111.795, 4210.769, 4383.59, 16200, 0, []
1630238865.5958, 120, 0, 4497.436, 4315.897, 4127.692, 4225.128, 4451.795, 450, 0, []
1630238865.6038, 121, 0, 4528.205, 4287.179, 4114.359, 4204.615, 4469.744, 450, 0, []
1630238865.6117, 122, 0, 4558.462, 4252.821, 4101.026, 4193.333, 4483.077, 450, 0, []
1630238865.6197, 123, 0, 4568.718, 4279.487, 4123.077, 4206.667, 4501.026, 16200, 0, []
1630238865.6275, 124, 0, 4531.282, 4281.538, 4109.231, 4197.436, 4478.974, 450, 0, []
1630238865.6355, 125, 0, 4487.692, 4240.513, 4085.128, 4176.41, 4440, 450, 0, []
1630238865.6434, 126, 0, 4451.795, 4220.513, 4089.744, 4170.769, 4408.205, 450, 0, []
1630238865.6514, 127, 0, 4429.744, 4222.564, 4104.615, 4192.821, 4392.308, 16200, 0, []
1630238865.6593, 128, 0, 4425.128, 4238.974, 4136.923, 4224.103, 4393.846, 450, 0, []
1630238865.6671, 0, 0, 4405.641, 4262.051, 4136.41, 4220, 4378.974, 450, 0, []
1630238865.6749, 1, 0, 4371.282, 4255.897, 4125.641, 4210.256, 4345.128, 450, 0, []
1630238865.6827, 2, 0, 4346.667, 4248.718, 4126.154, 4218.974, 4320, 16174, 0, []
1630238865.6906, 3, 0, 4321.026, 4258.462, 4107.692, 4207.692, 4297.436, 450, 0, []
1630238865.6984, 4, 0, 4295.385, 4246.667, 4112.308, 4190.769, 4272.308, 16092, 0, []
1630238865.7063, 5, 0, 4289.231, 4243.077, 4127.179, 4204.103, 4265.128, 450, 0, []
1630238865.714, 6, 0, 4293.333, 4262.051, 4148.718, 4231.282, 4275.897, 16075, 0, []
1630238865.722, 7, 0, 4292.308, 4250.769, 4168.718, 4238.462, 4293.333, 450, 0, []
1630238865.7299, 8, 0, 4273.333, 4224.103, 4152.821, 4226.154, 4293.333, 450, 0, []
1630238865.7379, 9, 0, 4258.974, 4237.949, 4154.359, 4225.128, 4269.744, 16074, 0, []
1630238865.7458, 10, 0, 4276.41, 4267.692, 4166.667, 4245.641, 4266.667, 450, 0, []
1630238865.7537, 11, 0, 4290.769, 4270.256, 4160, 4253.846, 4275.385, 16185, 0, []
1630238865.7616, 12, 0, 4265.128, 4270.769, 4140, 4222.051, 4248.718, 450, 0, []
1630238865.7696, 13, 0, 4240.513, 4257.949, 4117.436, 4198.974, 4218.974, 450, 0, []
1630238865.7775, 14, 0, 4237.949, 4232.821, 4130.256, 4210.256, 4220, 450, 0, []
1630238865.7855, 15, 0, 4229.744, 4227.179, 4133.846, 4211.282, 4228.718, 16185, 0, []
1630238865.7933, 16, 0, 4199.487, 4224.615, 4116.923, 4201.538, 4216.41, 0, 0, []
1630238865.8013, 17, 0, 4160, 4209.231, 4109.744, 4192.308, 4177.436, 0, 0, []
1630238865.8092, 18, 0, 4145.641, 4200.513, 4091.795, 4184.103, 4143.59, 0, 0, []
1630238865.817, 19, 0, 4169.231, 4228.205, 4112.308, 4202.564, 4155.385, 0, 0, []
1630238865.8249, 20, 0, 4192.821, 4264.103, 4139.487, 4220.513, 4189.231, 0, 0, []
1630238865.8326, 21, 0, 4176.41, 4257.949, 4129.744, 4211.282, 4192.308, 0, 0, []
1630238865.8405, 22, 0, 4146.154, 4230.769, 4123.077, 4196.41, 4162.051, 0, 0, []
1630238865.8483, 23, 0, 4137.436, 4224.615, 4100, 4182.051, 4127.179, 0, 0, []
1630238865.8562, 24, 0, 4149.744, 4243.59, 4105.641, 4192.308, 4126.154, 0, 0, []
1630238865.864, 25, 0, 4156.41, 4252.308, 4135.385, 4218.462, 4157.436, 0, 0, []
1630238865.8718, 26, 0, 4140, 4249.744, 4121.026, 4209.744, 4161.026, 0, 0, []
1630238865.8796, 27, 0, 4128.718, 4244.615, 4100, 4195.897, 4134.872, 0, 0, []
1630238865.8876, 28, 0, 4135.897, 4238.974, 4093.846, 4198.974, 4122.564, 0, 0, []
1630238865.8955, 29, 0, 4123.59, 4228.205, 4108.718, 4189.744, 4124.103, 0, 0, []
1630238865.9035, 30, 0, 4104.615, 4213.333, 4112.308, 4178.462, 4124.103, 0, 0, []
1630238865.9113, 31, 0, 4110.256, 4225.128, 4088.205, 4183.077, 4110.769, 0, 0, []
1630238865.9193, 32, 0, 4106.667, 4239.487, 4084.103, 4178.462, 4091.795, 0, 0, []
1630238865.9272, 33, 0, 4095.385, 4216.923, 4081.538, 4171.282, 4109.744, 0, 0, []
1630238865.9352, 34, 0, 4091.282, 4180, 4069.744, 4170.256, 4114.872, 0, 0, []
1630238865.9431, 35, 0, 4074.359, 4176.923, 4060.513, 4149.231, 4060.513, 0, 0, []
1630238865.951, 36, 0, 4083.077, 4192.308, 4071.282, 4147.692, 4065.641, 0, 0, []
1630238865.9589, 37, 0, 4129.231, 4208.205, 4112.308, 4187.179, 4142.051, 0, 0, []
1630238865.9667, 38, 0, 4147.692, 4238.462, 4103.59, 4204.103, 4154.359, 0, 0, []
1630238865.9746, 39, 0, 4115.385, 4231.282, 4064.615, 4180.513, 4092.821, 0, 0, []
1630238865.9824, 40, 0, 4087.179, 4203.59, 4056.41, 4156.923, 4071.282, 0, 0, []
1630238865.9902, 41, 0, 4089.231, 4211.282, 4052.821, 4162.564, 4100.513, 0, 0, []
1630238865.998, 42, 0, 4089.231, 4204.615, 4056.41, 4172.308, 4089.744, 0, 0, []
1630238866.0059, 43, 0, 4091.795, 4180.513, 4058.974, 4164.103, 4070.769, 0, 0, []
1630238866.0137, 44, 0, 4110.256, 4191.795, 4077.949, 4167.179, 4110.256, 0, 0, []
1630238866.0216, 45, 0, 4130.256, 4191.282, 4108.718, 4193.846, 4150.769, 0, 0, []
1630238866.0294, 46, 0, 4125.641, 4165.128, 4091.282, 4197.436, 4123.59, 0, 0, []
1630238866.0372, 47, 0, 4104.103, 4186.154, 4072.308, 4164.103, 4081.538, 0, 0, []
1630238866.045, 48, 0, 4104.615, 4214.872, 4072.308, 4138.974, 4094.872, 0, 0, []
1630238866.053, 49, 0, 4116.41, 4189.231, 4076.923, 4154.359, 4122.564, 0, 0, []
1630238866.0609, 50, 0, 4122.051, 4172.821, 4082.564, 4168.718, 4122.051, 0, 0, []
1630238866.0689, 51, 0, 4125.128, 4194.359, 4051.795, 4143.077, 4114.359, 0, 0, []
1630238866.0767, 52, 0, 4127.692, 4202.051, 4042.564, 4133.333, 4129.231, 0, 0, []
1630238866.0847, 53, 0, 4142.051, 4191.795, 4057.949, 4163.077, 4156.923, 0, 0, []
1630238866.0926, 54, 0, 4176.923, 4193.333, 4067.179, 4182.564, 4183.59, 0, 0, []
1630238866.1006, 55, 0, 4206.154, 4186.154, 4086.154, 4181.026, 4211.795, 0, 0, []
1630238866.1085, 56, 0, 4220.513, 4175.897, 4076.923, 4170.256, 4231.795, 0, 0, []
1630238866.1164, 57, 0, 4255.897, 4189.231, 4068.205, 4161.538, 4262.564, 0, 0, []
1630238866.1243, 58, 0, 4303.077, 4188.718, 4062.051, 4149.744, 4310.256, 0, 0, []
1630238866.1321, 59, 0, 4354.359, 4177.949, 4052.308, 4137.949, 4363.077, 0, 0, []
1630238866.14, 60, 0, 4438.974, 4210.769, 4088.718, 4160.513, 4434.872, 0, 0, []
1630238866.1478, 61, 0, 4498.974, 4228.718, 4106.154, 4185.641, 4486.154, 0, 0, []
1630238866.1556, 62, 0, 4474.872, 4185.128, 4085.641, 4167.692, 4455.385, 0, 0, []
1630238866.1634, 63, 0, 4455.385, 4185.128, 4087.179, 4157.436, 4430.256, 0, 0, []
1630238866.1713, 64, 0, 4492.821, 4228.205, 4106.154, 4185.641, 4467.179, 450, 0, []
1630238866.1791, 65, 0, 4485.641, 4213.333, 4100, 4185.641, 4453.846, 450, 0, []
1630238866.187, 66, 0, 4422.051, 4185.128, 4055.385, 4151.282, 4388.205, 16187, 0, []
1630238866.1947, 67, 0, 4403.59, 4219.487, 4061.538, 4164.103, 4380.513, 450, 0, []
1630238866.2027, 68, 0, 4404.103, 4226.154, 4096.41, 4185.641, 4389.231, 16089, 0, []
1630238866.2106, 69, 0, 4360, 4178.974, 4073.846, 4165.128, 4353.846, 450, 0, []
1630238866.2186, 70, 0, 4320, 4180, 4064.103, 4154.359, 4321.538, 16070, 0, []
1630238866.2265, 71, 0, 4304.103, 4199.487, 4073.846, 4160.513, 4307.179, 450, 0, []
1630238866.2344, 72, 0, 4273.333, 4195.897, 4070.256, 4161.538, 4275.897, 450, 0, []
1630238866.2423, 73, 0, 4243.077, 4202.564, 4069.231, 4160, 4242.564, 16073, 0, []
1630238866.2503, 74, 0, 4222.051, 4201.538, 4055.897, 4150.256, 4215.385, 450, 0, []
1630238866.2582, 75, 0, 4182.564, 4182.564, 4051.282, 4131.282, 4181.538, 16177, 0, []
1630238866.2662, 76, 0, 4158.462, 4182.564, 4058.974, 4135.385, 4174.872, 450, 0, []
1630238866.274, 77, 0, 4174.872, 4195.897, 4080.513, 4172.308, 4200, 450, 0, []
1630238866.2818, 78, 0, 4179.487, 4203.077, 4090.769, 4184.615, 4194.359, 450, 0, []
1630238866.2897, 79, 0, 4144.615, 4205.128, 4050.256, 4153.846, 4147.692, 16177, 0, []
1630238866.2975, 80, 0, 4107.692, 4186.154, 4040, 4137.436, 4126.154, 450, 0, []
1630238866.3054, 81, 0, 4105.641, 4160.513, 4060, 4154.872, 4143.077, 450, 0, []
1630238866.3131, 82, 0, 4128.205, 4170.256, 4058.974, 4170.256, 4150.769, 450, 0, []
1630238866.321, 83, 0, 4134.872, 4207.692, 4058.974, 4158.974, 4135.385, 16177, 0, []
1630238866.3288, 84, 0, 4109.744, 4212.308, 4046.667, 4133.333, 4117.949, 450, 0, []
1630238866.3367, 85, 0, 4097.949, 4173.333, 4051.795, 4141.026, 4117.949, 450, 0, []
1630238866.3445, 86, 0, 4125.641, 4178.462, 4063.59, 4175.385, 4131.795, 450, 0, []
1630238866.3524, 87, 0, 4133.333, 4224.615, 4060, 4181.026, 4122.564, 16177, 0, []
1630238866.3603, 88, 0, 4100.513, 4215.897, 4074.359, 4161.538, 4107.179, 450, 0, []
1630238866.3683, 89, 0, 4085.128, 4196.41, 4071.795, 4158.462, 4115.385, 450, 0, []
1630238866.3762, 90, 0, 4089.744, 4210.769, 4056.923, 4165.641, 4100, 450, 0, []
1630238866.3842, 91, 0, 4088.205, 4209.744, 4055.897, 4158.974, 4072.821, 16177, 0, []
1630238866.3921, 92, 0, 4077.436, 4206.667, 4060, 4154.359, 4091.282, 450, 0, []
1630238866.4, 93, 0, 4067.179, 4215.897, 4064.103, 4161.538, 4103.59, 450, 0, []
1630238866.4079, 94, 0, 4065.128, 4204.615, 4047.692, 4157.436, 4069.744, 450, 0, []
1630238866.4159, 95, 0, 4075.897, 4193.333, 4073.846, 4162.051, 4067.179, 16177, 0, []
1630238866.4238, 96, 0, 4090.769, 4202.051, 4110.769, 4182.564, 4111.282, 450, 0, []
1630238866.4316, 97, 0, 4094.872, 4196.41, 4082.051, 4180, 4116.923, 450, 0, []
1630238866.4394, 98, 0, 4087.179, 4203.59, 4067.692, 4164.103, 4077.436, 450, 0, []
1630238866.4472, 99, 0, 4082.564, 4230.256, 4087.179, 4163.59, 4078.462, 16177, 0, []
1630238866.4551, 100, 0, 4089.231, 4204.615, 4103.59, 4177.949, 4110.256, 450, 0, []
1630238866.463, 101, 0, 4081.538, 4166.154, 4077.436, 4172.308, 4090.256, 450, 0, []
1630238866.4709, 102, 0, 4050.256, 4178.462, 4034.872, 4140.513, 4043.59, 450, 0, []
1630238866.4787, 103, 0, 4037.436, 4212.308, 4069.231, 4134.359, 4052.821, 16177, 0, []
1630238866.4865, 104, 0, 4067.179, 4222.564, 4106.154, 4165.641, 4091.282, 450, 0, []
1630238866.4943, 105, 0, 4089.744, 4211.282, 4090.769, 4184.103, 4086.154, 450, 0, []
1630238866.5023, 106, 0, 4061.538, 4192.308, 4068.718, 4151.282, 4049.231, 450, 0, []
1630238866.5102, 107, 0, 4026.667, 4174.359, 4055.385, 4125.641, 4036.923, 16177, 0, []
1630238866.5181, 108, 0, 4033.333, 4180.513, 4068.205, 4153.846, 4045.641, 450, 0, []
1630238866.526, 109, 0, 4054.359, 4188.718, 4071.282, 4165.128, 4047.179, 450, 0, []
1630238866.534, 110, 0, 4051.795, 4174.872, 4066.154, 4150.256, 4052.821, 450, 0, []
1630238866.5419, 111, 0, 4053.333, 4184.103, 4075.385, 4163.077, 4070.769, 16177, 0, []
1630238866.5499, 112, 0, 4076.41, 4224.103, 4066.154, 4182.051, 4071.282, 450, 0, []
1630238866.5577, 113, 0, 4088.718, 4226.667, 4080, 4168.718, 4064.103, 450, 0, []
1630238866.5657, 114, 0, 4077.949, 4205.641, 4097.436, 4162.564, 4078.974, 450, 0, []
1630238866.5736, 115, 0, 4068.718, 4217.436, 4077.436, 4180, 4076.923, 16177, 0, []
1630238866.5814, 116, 0, 4069.744, 4213.333, 4070.769, 4175.385, 4045.641, 450, 0, []
1630238866.5893, 117, 0, 4057.436, 4191.282, 4066.667, 4155.385, 4040, 450, 0, []
1630238866.597, 118, 0, 4028.718, 4190.769, 4047.179, 4140.513, 4039.487, 450, 0, []
1630238866.6049, 119, 0, 4029.744, 4185.128, 4031.795, 4135.897, 4024.103, 16177, 0, []
1630238866.6127, 120, 0, 4064.103, 4177.949, 4057.436, 4163.59, 4050.769, 450, 0, []
1630238866.6206, 121, 0, 4073.333, 4183.59, 4086.154, 4182.564, 4079.487, 450, 0, []
1630238866.6284, 122, 0, 4058.974, 4187.179, 4054.872, 4157.436, 4053.846, 450, 0, []
1630238866.6362, 123, 0, 4070.769, 4207.179, 4064.615, 4151.795, 4053.846, 16177, 0, []
1630238866.644, 124, 0, 4092.821, 4232.308, 4100.513, 4182.564, 4097.949, 450, 0, []
1630238866.6519, 125, 0, 4095.385, 4223.59, 4081.026, 4193.846, 4098.974, 450, 0, []
1630238866.6597, 126, 0, 4092.308, 4212.821, 4069.744, 4186.154, 4069.231, 450, 0, []
1630238866.6676, 127, 0, 4077.949, 4212.308, 4065.641, 4174.872, 4067.692, 16177, 0, []
1630238866.6753, 128, 0, 4056.41, 4193.846, 4062.051, 4167.179, 4072.308, 450, 0, []
1630238866.6833, 0, 0, 4076.923, 4211.795, 4073.333, 4180, 4077.436, 450, 0, []
1630238866.6912, 1, 0, 4124.103, 4255.385, 4093.333, 4200, 4106.154, 450, 0, []
1630238866.6992, 2, 0, 4125.641, 4243.077, 4117.949, 4205.641, 4131.282, 16190, 0, []
1630238866.7071, 3, 0, 4099.487, 4201.026, 4089.744, 4189.231, 4119.487, 450, 0, []
1630238866.7151, 4, 0, 4104.615, 4192.821, 4068.205, 4176.923, 4091.282, 16088, 0, []
1630238866.7229, 5, 0, 4123.59, 4207.692, 4104.103, 4183.077, 4095.897, 450, 0, []
1630238866.7309, 6, 0, 4117.949, 4216.923, 4114.359, 4191.282, 4122.051, 16073, 0, []
1630238866.7388, 7, 0, 4097.949, 4219.487, 4086.667, 4186.154, 4103.59, 450, 0, []
1630238866.7467, 8, 0, 4103.077, 4215.385, 4064.103, 4181.026, 4072.821, 450, 0, []
1630238866.7546, 9, 0, 4128.205, 4217.436, 4087.692, 4197.436, 4099.487, 16067, 0, []
1630238866.7623, 10, 0, 4146.667, 4237.949, 4132.308, 4222.564, 4154.359, 450, 0, []
1630238866.7702, 11, 0, 4145.128, 4241.538, 4127.179, 4229.744, 4158.462, 16186, 0, []
1630238866.778, 12, 0, 4118.462, 4204.103, 4086.154, 4195.897, 4100.513, 450, 0, []
1630238866.7859, 13, 0, 4096.41, 4190.769, 4052.821, 4153.846, 4070.769, 450, 0, []
1630238866.7937, 14, 0, 4107.179, 4215.385, 4076.923, 4164.615, 4108.718, 450, 0, []
1630238866.8015, 15, 0, 4137.436, 4207.692, 4110.256, 4197.436, 4147.692, 16186, 0, []
1630238866.8093, 16, 0, 4158.974, 4203.077, 4075.385, 4190.256, 4148.718, 0, 0, []
1630238866.8172, 17, 0, 4187.692, 4229.231, 4078.462, 4182.051, 4170.256, 0, 0, []
1630238866.825, 18, 0, 4243.077, 4228.205, 4120.513, 4185.641, 4242.564, 0, 0, []
1630238866.833, 19, 0, 4303.59, 4217.436, 4118.974, 4178.974, 4312.308, 0, 0, []
1630238866.8408, 20, 0, 4363.59, 4234.872, 4117.949, 4189.231, 4367.179, 0, 0, []
1630238866.8488, 21, 0, 4415.897, 4243.077, 4115.897, 4207.179, 4415.385, 0, 0, []
1630238866.8567, 22, 0, 4428.718, 4229.231, 4109.231, 4202.564, 4428.718, 0, 0, []
1630238866.8647, 23, 0, 4405.641, 4229.231, 4098.462, 4187.179, 4408.205, 0, 0, []
1630238866.8726, 24, 0, 4389.231, 4242.564, 4086.154, 4189.744, 4392.308, 0, 0, []
1630238866.8805, 25, 0, 4390.256, 4242.051, 4097.949, 4207.692, 4397.949, 0, 0, []
1630238866.8884, 26, 0, 4371.795, 4230.769, 4091.795, 4203.59, 4384.103, 0, 0, []
1630238866.8964, 27, 0, 4334.872, 4232.308, 4086.667, 4185.641, 4342.051, 0, 0, []
1630238866.9043, 28, 0, 4316.923, 4253.846, 4089.744, 4187.179, 4312.308, 0, 0, []
1630238866.9121, 29, 0, 4292.308, 4247.692, 4080, 4189.231, 4283.077, 0, 0, []
1630238866.9199, 30, 0, 4254.872, 4212.821, 4093.333, 4175.897, 4250.256, 0, 0, []
1630238866.9277, 31, 0, 4242.564, 4210.769, 4101.026, 4174.872, 4256.41, 0, 0, []
1630238866.9356, 32, 0, 4234.359, 4230.256, 4102.051, 4186.667, 4264.615, 0, 0, []
1630238866.9434, 33, 0, 4209.231, 4235.897, 4104.103, 4189.231, 4230.769, 0, 0, []
1630238866.9513, 34, 0, 4204.615, 4235.385, 4095.897, 4199.487, 4212.308, 0, 0, []
1630238866.959, 35, 0, 4195.897, 4221.538, 4097.949, 4191.795, 4207.179, 0, 0, []
1630238866.967, 36, 0, 4154.359, 4202.564, 4079.487, 4152.821, 4178.462, 0, 0, []
1630238866.9749, 37, 0, 4152.821, 4209.231, 4083.59, 4169.744, 4182.564, 0, 0, []
1630238866.9828, 38, 0, 4185.641, 4230.256, 4111.282, 4217.949, 4209.231, 0, 0, []
1630238866.9906, 39, 0, 4179.487, 4234.872, 4089.744, 4207.692, 4183.077, 0, 0, []
1630238866.9985, 40, 0, 4137.436, 4213.333, 4066.667, 4168.718, 4136.923, 0, 0, []
1630238867.0064, 41, 0, 4114.359, 4192.308, 4067.179, 4156.41, 4139.487, 0, 0, []
1630238867.0144, 42, 0, 4121.538, 4203.59, 4077.949, 4169.744, 4161.538, 0, 0, []
1630238867.0223, 43, 0, 4135.897, 4230.769, 4075.385, 4185.641, 4158.462, 0, 0, []
1630238867.0303, 44, 0, 4150.256, 4235.897, 4054.359, 4191.795, 4160.513, 0, 0, []
1630238867.0381, 45, 0, 4150.256, 4227.179, 4063.077, 4183.077, 4171.282, 0, 0, []
1630238867.046, 46, 0, 4135.385, 4218.974, 4063.59, 4174.872, 4162.051, 0, 0, []
1630238867.0539, 47, 0, 4126.667, 4196.41, 4053.846, 4181.538, 4143.077, 0, 0, []
1630238867.0617, 48, 0, 4128.205, 4195.385, 4069.231, 4183.59, 4128.718, 0, 0, []
1630238867.0696, 49, 0, 4127.179, 4222.564, 4074.872, 4172.821, 4123.59, 0, 0, []
1630238867.0774, 50, 0, 4116.923, 4222.051, 4089.744, 4172.308, 4133.333, 0, 0, []
1630238867.0852, 51, 0, 4117.436, 4196.923, 4094.359, 4179.487, 4148.205, 0, 0, []
1630238867.093, 52, 0, 4125.641, 4190.769, 4069.231, 4171.795, 4133.846, 0, 0, []
1630238867.1009, 53, 0, 4129.231, 4215.385, 4076.923, 4170.256, 4115.897, 0, 0, []
1630238867.1087, 54, 0, 4126.667, 4237.949, 4095.897, 4180.513, 4139.487, 0, 0, []
1630238867.1166, 55, 0, 4118.462, 4224.103, 4096.41, 4180.513, 4153.846, 0, 0, []
1630238867.1243, 56, 0, 4114.359, 4195.897, 4078.462, 4170.769, 4122.051, 0, 0, []
1630238867.1323, 57, 0, 4109.744, 4183.59, 4057.436, 4162.051, 4100, 0, 0, []
1630238867.1402, 58, 0, 4105.128, 4201.026, 4069.231, 4166.667, 4121.026, 0, 0, []
1630238867.1482, 59, 0, 4112.821, 4219.487, 4073.846, 4180, 4141.538, 0, 0, []
1630238867.1561, 60, 0, 4126.154, 4215.385, 4079.487, 4185.641, 4128.205, 0, 0, []
1630238867.164, 61, 0, 4124.103, 4215.897, 4083.59, 4173.846, 4115.385, 0, 0, []
1630238867.1719, 62, 0, 4110.769, 4211.795, 4075.897, 4171.282, 4127.179, 0, 0, []
1630238867.1799, 63, 0, 4118.974, 4199.487, 4095.385, 4190.256, 4147.692, 0, 0, []
1630238867.1878, 64, 0, 4130.769, 4215.897, 4073.333, 4179.487, 4134.872, 450, 0, []
1630238867.1958, 65, 0, 4123.077, 4236.41, 4046.667, 4155.385, 4108.718, 450, 0, []
1630238867.2036, 66, 0, 4118.462, 4218.462, 4071.795, 4169.231, 4124.615, 16185, 0, []
1630238867.2114, 67, 0, 4115.897, 4207.692, 4077.436, 4186.667, 4134.359, 450, 0, []
1630238867.2193, 68, 0, 4101.026, 4227.692, 4058.974, 4173.333, 4100, 16082, 0, []
1630238867.2271, 69, 0, 4098.974, 4225.641, 4049.744, 4167.692, 4089.231, 450, 0, []
1630238867.235, 70, 0, 4105.128, 4218.462, 4073.333, 4189.231, 4115.385, 16085, 0, []
1630238867.2427, 71, 0, 4076.41, 4204.615, 4068.205, 4175.385, 4101.026, 450, 0, []
1630238867.2506, 72, 0, 4062.051, 4177.436, 4035.385, 4141.026, 4069.744, 450, 0, []
1630238867.2584, 73, 0, 4112.821, 4197.949, 4070.769, 4159.487, 4101.026, 16057, 0, []
1630238867.2663, 74, 0, 4132.821, 4229.231, 4088.205, 4175.385, 4138.974, 450, 0, []
1630238867.2741, 75, 0, 4094.359, 4198.974, 4063.077, 4149.744, 4125.128, 16204, 0, []
1630238867.282, 76, 0, 4106.154, 4176.41, 4071.795, 4151.282, 4118.974, 450, 0, []
1630238867.2899, 77, 0, 4150.256, 4210.256, 4083.077, 4181.026, 4134.872, 450, 0, []
1630238867.2979, 78, 0, 4133.846, 4228.205, 4084.103, 4172.308, 4127.692, 450, 0, []
1630238867.3058, 79, 0, 4106.667, 4205.128, 4071.282, 4147.692, 4120.513, 16204, 0, []
1630238867.3138, 80, 0, 4117.949, 4179.487, 4063.077, 4161.026, 4131.282, 450, 0, []
1630238867.3216, 81, 0, 4127.692, 4189.744, 4070.769, 4172.821, 4118.462, 450, 0, []
1630238867.3296, 82, 0, 4128.718, 4225.641, 4066.667, 4158.974, 4109.744, 450, 0, []
1630238867.3375, 83, 0, 4132.308, 4223.59, 4078.974, 4162.051, 4136.41, 16204, 0, []
1630238867.3455, 84, 1, 4132.628, 4221.026, 4077.564, 4161.667, 4133.526, 16204, 0, []
1630238867.3534, 85, 1, 4132.949, 4218.462, 4076.154, 4161.282, 4130.641, 16204, 0, []
1630238867.3612, 86, 1, 4133.269, 4215.897, 4074.744, 4160.897, 4127.756, 16204, 0, []
1630238867.3691, 87, 1, 4133.59, 4213.333, 4073.333, 4160.513, 4124.872, 16204, 0, []
1630238867.377, 88, 1, 4133.91, 4210.769, 4071.923, 4160.128, 4121.987, 16204, 0, []
1630238867.3849, 89, 1, 4134.231, 4208.205, 4070.513, 4159.744, 4119.103, 16204, 0, []
1630238867.3928, 90, 1, 4134.551, 4205.641, 4069.103, 4159.359, 4116.218, 16204, 0, []
1630238867.4006, 91, 0, 4134.872, 4203.077, 4067.692, 4158.974, 4113.333, 16204, 0, []
1630238867.4085, 92, 0, 4134.359, 4199.487, 4071.795, 4155.897, 4127.179, 450, 0, []
1630238867.4163, 93, 0, 4152.821, 4203.59, 4092.308, 4177.949, 4165.128, 450, 0, []
1630238867.4242, 94, 0, 4138.462, 4190.769, 4083.59, 4167.692, 4144.615, 450, 0, []
1630238867.432, 95, 0, 4121.538, 4180.513, 4058.462, 4153.333, 4102.564, 16204, 0, []
1630238867.4399, 96, 0, 4145.641, 4198.974, 4082.051, 4169.744, 4124.615, 450, 0, []
1630238867.4476, 97, 0, 4156.923, 4212.821, 4083.077, 4176.923, 4160.513, 450, 0, []
1630238867.4555, 98, 0, 4152.308, 4194.872, 4069.744, 4180, 4161.026, 450, 0, []
1630238867.4633, 99, 0, 4163.077, 4198.974, 4067.692, 4179.487, 4148.205, 16204, 0, []
1630238867.4712, 100, 0, 4161.538, 4225.641, 4049.744, 4159.487, 4134.359, 450, 0, []
1630238867.479, 101, 0, 4149.231, 4212.308, 4065.128, 4151.282, 4140, 450, 0, []
1630238867.4867, 102, 0, 4153.333, 4195.385, 4082.051, 4165.128, 4157.436, 450, 0, []
1630238867.4946, 103, 0, 4154.359, 4221.538, 4070.769, 4170.769, 4141.026, 16204, 0, []
1630238867.5025, 104, 0, 4161.026, 4235.897, 4070.769, 4161.026, 4121.026, 450, 0, []
1630238867.5104, 105, 0, 4183.077, 4214.872, 4080.513, 4162.564, 4147.179, 450, 0, []
1630238867.5183, 106, 0, 4188.718, 4212.821, 4098.462, 4186.154, 4173.846, 450, 0, []
1630238867.526, 107, 0, 4169.231, 4213.333, 4078.462, 4188.205, 4162.564, 16204, 0, []
1630238867.5338, 108, 0, 4157.949, 4193.846, 4050.256, 4171.282, 4144.103, 450, 0, []
1630238867.5417, 109, 0, 4176.923, 4211.282, 4066.154, 4178.462, 4147.692, 450, 0, []
1630238867.5495, 110, 0, 4191.795, 4232.308, 4076.41, 4181.026, 4159.487, 450, 0, []
1630238867.5574, 111, 0, 4167.692, 4187.692, 4068.718, 4157.436, 4151.795, 16204, 0, []
1630238867.5651, 112, 0, 4155.897, 4174.872, 4052.821, 4151.795, 4145.128, 450, 0, []
1630238867.573, 113, 0, 4194.359, 4230.256, 4069.231, 4182.051, 4165.128, 450, 0, []
1630238867.5808, 114, 0, 4217.436, 4242.564, 4092.308, 4190.769, 4170.256, 450, 0, []
1630238867.5887, 115, 0, 4203.59, 4205.128, 4067.179, 4170.256, 4157.436, 16204, 0, []
1630238867.5965, 116, 0, 4208.718, 4192.821, 4075.385, 4170.769, 4172.308, 450, 0, []
1630238867.6043, 117, 0, 4237.436, 4214.872, 4111.795, 4190.256, 4203.077, 450, 0, []
1630238867.6121, 118, 0, 4245.128, 4220, 4107.179, 4194.359, 4194.359, 450, 0, []
1630238867.62, 119, 0, 4223.077, 4193.846, 4073.333, 4166.154, 4147.179, 16204, 0, []
1630238867.6278, 120, 0, 4220.513, 4175.897, 4049.744, 4151.282, 4133.333, 450, 0, []
1630238867.6357, 121, 0, 4240.513, 4193.333, 4077.436, 4169.231, 4164.103, 450, 0, []
1630238867.6434, 122, 0, 4257.436, 4223.077, 4092.308, 4171.795, 4185.641, 450, 0, []
1630238867.6512, 123, 0, 4265.128, 4215.897, 4070.769, 4175.385, 4177.949, 16204, 0, []
1630238867.6591, 124, 0, 4273.846, 4198.462, 4082.051, 4204.103, 4169.231, 450, 0, []
1630238867.6669, 125, 0, 4297.436, 4209.744, 4089.231, 4211.282, 4183.077, 450, 0, []
1630238867.6748, 126, 0, 4308.205, 4214.872, 4074.359, 4184.615, 4180.513, 450, 0, []
1630238867.6825, 127, 0, 4297.436, 4199.487, 4071.282, 4172.821, 4160, 16204, 0, []
1630238867.6904, 128, 0, 4294.359, 4196.41, 4074.872, 4177.949, 4160.513, 450, 0, []
1630238867.6982, 0, 0, 4292.821, 4200, 4067.179, 4161.026, 4163.077, 450, 0, []
1630238867.7061, 1, 0, 4281.026, 4194.872, 4037.949, 4146.154, 4159.487, 450, 0, []
1630238867.7139, 2, 0, 4290.769, 4207.692, 4052.821, 4172.821, 4171.795, 16182, 0, []
1630238867.7217, 3, 0, 4318.974, 4217.436, 4083.59, 4196.41, 4190.256, 450, 0, []
1630238867.7295, 4, 0, 4333.333, 4195.385, 4074.359, 4193.846, 4193.846, 16092, 0, []
1630238867.7374, 5, 0, 4346.667, 4188.718, 4086.667, 4192.308, 4193.333, 450, 0, []
1630238867.7452, 6, 0, 4351.795, 4211.282, 4082.564, 4177.436, 4181.538, 16086, 0, []
1630238867.7531, 7, 0, 4336.923, 4217.436, 4058.974, 4164.103, 4160.513, 450, 0, []
1630238867.7609, 8, 0, 4333.333, 4200.513, 4071.795, 4174.359, 4162.564, 450, 0, []
1630238867.7687, 9, 0, 4342.051, 4189.231, 4087.179, 4177.949, 4178.462, 16060, 0, []
1630238867.7765, 10, 0, 4332.308, 4189.744, 4089.231, 4166.667, 4181.538, 450, 0, []
1630238867.7844, 11, 0, 4323.077, 4197.436, 4076.41, 4161.026, 4179.487, 16197, 0, []
1630238867.7922, 12, 0, 4334.872, 4222.564, 4086.154, 4176.923, 4195.897, 450, 0, []
1630238867.8, 13, 0, 4342.564, 4224.103, 4104.103, 4195.385, 4209.231, 450, 0, []
1630238867.8078, 14, 0, 4324.615, 4187.179, 4076.923, 4185.128, 4186.154, 450, 0, []
1630238867.8156, 15, 0, 4311.282, 4177.949, 4070.256, 4169.231, 4163.077, 16197, 0, []
1630238867.8235, 16, 0, 4336.923, 4204.103, 4084.103, 4175.385, 4181.538, 0, 0, []
1630238867.8313, 17, 0, 4378.462, 4218.462, 4096.923, 4194.359, 4211.795, 0, 0, []
1630238867.8392, 18, 0, 4391.795, 4227.179, 4113.846, 4202.564, 4217.949, 0, 0, []
1630238867.8469, 19, 0, 4364.103, 4245.641, 4085.641, 4179.487, 4192.821, 0, 0, []
1630238867.8548, 20, 0, 4336.41, 4238.462, 4066.154, 4156.923, 4163.077, 0, 0, []
1630238867.8626, 21, 0, 4342.051, 4207.179, 4077.436, 4169.231, 4167.179, 0, 0, []
1630238867.8705, 22, 0, 4342.051, 4187.179, 4081.026, 4175.385, 4181.026, 0, 0, []
1630238867.8783, 23, 0, 4320, 4194.359, 4087.692, 4153.846, 4178.462, 0, 0, []
1630238867.8861, 24, 0, 4317.436, 4202.051, 4089.231, 4155.385, 4189.231, 0, 0, []
1630238867.8939, 25, 0, 4337.436, 4201.538, 4104.103, 4187.692, 4212.308, 0, 0, []
1630238867.9018, 26, 0, 4342.051, 4223.077, 4101.026, 4195.385, 4219.487, 0, 0, []
1630238867.9096, 27, 0, 4337.949, 4234.359, 4080, 4193.846, 4214.872, 0, 0, []
1630238867.9175, 28, 0, 4343.077, 4206.667, 4086.667, 4202.564, 4213.846, 0, 0, []
1630238867.9252, 29, 0, 4347.179, 4190.256, 4074.872, 4185.641, 4208.718, 0, 0, []
1630238867.9331, 30, 0, 4365.128, 4204.103, 4071.282, 4177.436, 4217.436, 0, 0, []
1630238867.9409, 31, 0, 4413.333, 4220, 4087.179, 4194.359, 4261.026, 0, 0, []
1630238867.9487, 32, 0, 4465.128, 4218.462, 4088.718, 4197.436, 4315.897, 0, 0, []
1630238867.9566, 33, 0, 4514.359, 4211.795, 4101.538, 4200, 4369.231, 0, 0, []
1630238867.9643, 34, 0, 4569.231, 4224.103, 4091.795, 4205.128, 4415.897, 0, 0, []
1630238867.9722, 35, 0, 4596.923, 4235.385, 4075.385, 4190.769, 4441.026, 0, 0, []
1630238867.98, 36, 0, 4607.179, 4208.205, 4088.718, 4172.821, 4467.692, 0, 0, []
1630238867.9879, 37, 0, 4642.564, 4185.128, 4103.59, 4180, 4505.641, 0, 0, []
1630238867.9957, 38, 0, 4672.308, 4225.128, 4124.103, 4195.385, 4516.41, 0, 0, []
1630238868.0035, 39, 0, 4661.538, 4252.308, 4117.949, 4189.231, 4494.872, 0, 0, []
1630238868.0113, 40, 0, 4636.41, 4204.615, 4093.846, 4180.513, 4475.897, 0, 0, []
1630238868.0192, 41, 0, 4628.718, 4188.205, 4090.256, 4186.154, 4485.128, 0, 0, []
1630238868.027, 42, 0, 4648.718, 4229.744, 4101.026, 4200, 4522.051, 0, 0, []
1630238868.0349, 43, 0, 4653.846, 4220.513, 4109.744, 4192.821, 4524.615, 0, 0, []
1630238868.0427, 44, 0, 4612.821, 4175.897, 4060.513, 4151.795, 4463.077, 0, 0, []
1630238868.0505, 45, 0, 4612.821, 4193.846, 4039.487, 4154.359, 4451.282, 0, 0, []
1630238868.0583, 46, 0, 4675.385, 4233.846, 4103.077, 4215.385, 4525.641, 0, 0, []
1630238868.0662, 47, 0, 4682.564, 4214.359, 4119.487, 4223.59, 4563.59, 0, 0, []
1630238868.074, 48, 0, 4647.692, 4197.436, 4091.795, 4181.026, 4530.769, 0, 0, []
1630238868.0819, 49, 0, 4665.128, 4217.949, 4089.744, 4181.026, 4516.923, 0, 0, []
1630238868.0896, 50, 0, 4685.128, 4223.077, 4110.769, 4211.282, 4535.385, 0, 0, []
1630238868.0975, 51, 0, 4663.59, 4220.513, 4119.487, 4204.103, 4546.154, 0, 0, []
1630238868.1053, 52, 0, 4647.179, 4223.59, 4102.564, 4177.436, 4542.564, 0, 0, []
1630238868.1131, 53, 0, 4640, 4225.128, 4106.667, 4177.949, 4525.128, 0, 0, []
1630238868.121, 54, 0, 4640, 4231.795, 4109.231, 4200, 4515.385, 0, 0, []
1630238868.1287, 55, 0, 4633.333, 4232.821, 4098.462, 4206.667, 4504.615, 0, 0, []
1630238868.1366, 56, 0, 4595.897, 4222.051, 4102.564, 4191.282, 4467.179, 0, 0, []
1630238868.1444, 57, 0, 4561.026, 4214.359, 4105.128, 4192.308, 4448.205, 0, 0, []
1630238868.1523, 58, 0, 4553.846, 4209.744, 4116.41, 4199.487, 4462.051, 0, 0, []
1630238868.1601, 59, 0, 4544.103, 4206.154, 4104.615, 4178.974, 4454.872, 0, 0, []
1630238868.1679, 60, 0, 4518.462, 4215.385, 4083.077, 4165.641, 4417.436, 0, 0, []
1630238868.1757, 61, 0, 4513.846, 4218.974, 4110.769, 4188.205, 4406.154, 0, 0, []
1630238868.1836, 62, 0, 4534.872, 4224.615, 4128.718, 4223.077, 4427.179, 0, 0, []
1630238868.1914, 63, 0, 4533.846, 4255.385, 4128.718, 4243.077, 4425.128, 0, 0, []
1630238868.1993, 64, 0, 4500.513, 4273.333, 4124.615, 4231.282, 4388.205, 450, 0, []
1630238868.207, 65, 0, 4469.231, 4253.846, 4113.333, 4208.205, 4357.436, 450, 0, []
1630238868.2149, 66, 0, 4437.949, 4241.538, 4117.949, 4204.615, 4338.462, 16201, 0, []
1630238868.2227, 67, 0, 4399.487, 4248.205, 4103.59, 4207.179, 4306.667, 450, 0, []
1630238868.2306, 68, 0, 4372.308, 4240, 4103.59, 4203.077, 4273.333, 16092, 0, []
1630238868.2384, 69, 0, 4335.897, 4217.949, 4110.256, 4191.282, 4245.641, 450, 0, []
1630238868.2462, 70, 0, 4298.974, 4200, 4088.718, 4186.154, 4228.205, 16086, 0, []
1630238868.254, 71, 0, 4296.923, 4191.795, 4096.41, 4191.282, 4230.769, 450, 0, []
1630238868.2618, 72, 0, 4292.821, 4205.128, 4094.872, 4177.949, 4228.205, 450, 0, []
1630238868.2697, 73, 0, 4265.641, 4217.949, 4078.974, 4171.282, 4208.718, 16064, 0, []
1630238868.2775, 74, 0, 4265.641, 4210.769, 4095.897, 4200, 4206.154, 450, 0, []
1630238868.2853, 75, 0, 4293.846, 4228.718, 4118.462, 4228.718, 4227.179, 16201, 0, []
1630238868.2931, 76, 0, 4290.256, 4240, 4123.59, 4219.487, 4218.462, 450, 0, []
1630238868.301, 77, 0, 4250.256, 4213.333, 4089.744, 4186.667, 4168.718, 450, 0, []
1630238868.3088, 78, 0, 4238.462, 4226.667, 4086.154, 4184.615, 4150.256, 450, 0, []
1630238868.3167, 79, 0, 4245.641, 4248.205, 4121.538, 4197.949, 4172.821, 16201, 0, []
1630238868.3244, 80, 0, 4219.487, 4224.103, 4108.718, 4182.051, 4172.821, 450, 0, []
1630238868.3323, 81, 0, 4197.949, 4214.359, 4097.949, 4184.103, 4156.923, 450, 0, []
1630238868.3401, 82, 0, 4210.769, 4240.513, 4104.615, 4217.436, 4161.538, 450, 0, []
1630238868.348, 83, 0, 4207.179, 4251.282, 4090.256, 4212.308, 4151.282, 16201, 0, []
1630238868.3558, 84, 0, 4195.897, 4242.564, 4086.154, 4184.615, 4131.282, 450, 0, []
1630238868.3637, 85, 0, 4208.718, 4219.487, 4089.744, 4185.128, 4140, 450, 0, []
1630238868.3714, 86, 0, 4197.949, 4208.718, 4104.103, 4186.154, 4143.59, 450, 0, []
1630238868.3793, 87, 0, 4168.205, 4240, 4111.282, 4175.385, 4129.744, 16201, 0, []
1630238868.3871, 88, 0, 4170.769, 4243.59, 4111.795, 4181.026, 4125.128, 450, 0, []
1630238868.395, 89, 0, 4180, 4231.795, 4122.051, 4186.154, 4119.487, 450, 0, []
1630238868.4028, 90, 0, 4168.205, 4249.744, 4110.769, 4171.795, 4105.641, 450, 0, []
1630238868.4106, 91, 0, 4145.128, 4236.923, 4102.564, 4167.179, 4091.795, 16201, 0, []
1630238868.4184, 92, 0, 4134.872, 4209.744, 4101.538, 4182.564, 4092.821, 450, 0, []
1630238868.4263, 93, 0, 4144.615, 4220.513, 4092.821, 4195.385, 4109.744, 450, 0, []
1630238868.4341, 94, 0, 4156.41, 4246.667, 4096.41, 4191.282, 4108.205, 450, 0, []
1630238868.4419, 95, 0, 4140.513, 4234.359, 4080, 4171.282, 4076.41, 16201, 0, []
1630238868.4497, 96, 0, 4102.051, 4205.128, 4070.769, 4153.846, 4049.231, 450, 0, []
1630238868.4575, 97, 0, 4104.615, 4205.641, 4088.205, 4161.026, 4065.128, 450, 0, []
1630238868.4654, 98, 0, 4152.821, 4236.923, 4102.051, 4192.308, 4101.538, 450, 0, []
1630238868.4732, 99, 0, 4168.718, 4253.846, 4107.179, 4205.641, 4107.692, 16201, 0, []
1630238868.4811, 100, 0, 4141.538, 4222.564, 4086.154, 4185.641, 4100, 450, 0, []
1630238868.4888, 101, 0, 4135.897, 4208.205, 4086.667, 4193.846, 4116.41, 450, 0, []
1630238868.4967, 102, 0, 4148.718, 4244.103, 4095.385, 4217.436, 4123.077, 450, 0, []
1630238868.5046, 103, 0, 4136.923, 4255.385, 4075.897, 4196.923, 4086.667, 16201, 0, []
1630238868.5125, 104, 0, 4111.795, 4211.282, 4077.949, 4167.179, 4060, 450, 0, []
1630238868.5204, 105, 0, 4098.462, 4197.436, 4073.333, 4172.308, 4071.795, 450, 0, []
1630238868.5281, 106, 0, 4108.718, 4224.103, 4078.974, 4194.872, 4086.154, 450, 0, []
1630238868.5359, 107, 0, 4125.641, 4223.59, 4101.538, 4203.077, 4077.949, 16201, 0, []
1630238868.5438, 108, 0, 4124.103, 4233.333, 4089.744, 4194.359, 4068.718, 450, 0, []
1630238868.5516, 109, 0, 4105.128, 4253.846, 4092.821, 4189.231, 4077.949, 450, 0, []
1630238868.5595, 110, 0, 4098.462, 4229.231, 4098.462, 4192.308, 4089.744, 450, 0, []
1630238868.5672, 111, 0, 4116.41, 4215.385, 4084.615, 4202.051, 4083.59, 16201, 0, []
1630238868.575, 112, 0, 4124.103, 4234.359, 4080.513, 4195.897, 4069.231, 450, 0, []
1630238868.5829, 113, 0, 4096.923, 4227.179, 4072.821, 4172.308, 4065.641, 450, 0, []
1630238868.5907, 114, 0, 4066.154, 4193.333, 4064.615, 4155.385, 4049.744, 450, 0, []
1630238868.5986, 115, 0, 4069.231, 4177.949, 4042.051, 4152.821, 4020.513, 16201, 0, []
1630238868.6063, 116, 0, 4091.795, 4213.846, 4053.333, 4169.744, 4029.231, 450, 0, []
1630238868.6142, 117, 0, 4090.256, 4240, 4092.308, 4182.051, 4057.436, 450, 0, []
1630238868.622, 118, 0, 4072.308, 4197.949, 4070.769, 4169.744, 4046.667, 450, 0, []
1630238868.6299, 119, 0, 4085.641, 4189.231, 4063.59, 4177.436, 4030.769, 16201, 0, []
1630238868.6377, 120, 0, 4109.744, 4244.103, 4092.821, 4187.692, 4052.821, 450, 0, []
1630238868.6455, 121, 0, 4095.385, 4249.231, 4092.308, 4166.154, 4064.615, 450, 0, []
1630238868.6533, 122, 0, 4074.872, 4217.949, 4078.974, 4154.872, 4042.051, 450, 0, []
1630238868.6612, 123, 0, 4076.923, 4219.487, 4058.462, 4157.949, 4016.923, 16201, 0, []
1630238868.669, 124, 0, 4078.462, 4219.487, 4073.846, 4155.385, 4016.923, 450, 0, []
1630238868.6769, 125, 0, 4090.769, 4223.077, 4105.641, 4170.769, 4051.282, 450, 0, []
1630238868.6847, 126, 0, 4116.41, 4239.487, 4102.051, 4195.897, 4082.051, 450, 0, []
1630238868.6925, 127, 0, 4121.026, 4226.154, 4087.692, 4188.205, 4071.795, 16201, 0, []
1630238868.7003, 128, 0, 4107.692, 4209.744, 4072.821, 4160, 4053.846, 450, 0, []
1630238868.7082, 0, 0, 4087.179, 4222.564, 4077.436, 4155.385, 4052.308, 450, 0, []
1630238868.716, 1, 0, 4073.846, 4235.385, 4074.872, 4163.077, 4046.667, 450, 0, []
1630238868.7238, 2, 0, 4077.949, 4218.974, 4048.205, 4156.923, 4026.667, 16201, 0, []
1630238868.7316, 3, 0, 4081.538, 4198.974, 4053.846, 4148.205, 4025.128, 450, 0, []
1630238868.7394, 4, 0, 4086.154, 4214.359, 4071.795, 4161.026, 4058.974, 16095, 0, []
1630238868.7473, 5, 0, 4108.205, 4234.359, 4087.692, 4187.692, 4088.718, 450, 0, []
1630238868.7551, 6, 0, 4125.128, 4224.615, 4082.051, 4187.179, 4072.821, 16144, 0, []
1630238868.763, 7, 0, 4105.128, 4211.795, 4058.974, 4162.051, 4041.026, 450, 0, []
1630238868.7707, 8, 0, 4068.205, 4208.718, 4066.154, 4148.718, 4034.359, 450, 0, []
1630238868.7786, 9, 0, 4078.974, 4217.949, 4070.769, 4161.026, 4054.872, 16120, 0, []
1630238868.7864, 10, 0, 4132.308, 4234.359, 4075.385, 4185.128, 4074.872, 450, 0, []
1630238868.7943, 11, 0, 4142.564, 4227.179, 4085.641, 4184.615, 4072.821, 16202, 0, []
1630238868.8021, 12, 0, 4096.923, 4199.487, 4066.667, 4162.564, 4058.462, 450, 0, []
1630238868.8099, 13, 0, 4082.051, 4201.538, 4071.795, 4174.872, 4058.974, 450, 0, []
1630238868.8177, 14, 0, 4111.795, 4229.744, 4081.026, 4197.436, 4068.205, 450, 0, []
1630238868.8256, 15, 0, 4115.385, 4235.385, 4070.256, 4182.564, 4062.051, 16202, 0, []
1630238868.8334, 16, 0, 4099.487, 4229.231, 4077.436, 4171.795, 4063.077, 0, 0, []
1630238868.8413, 17, 0, 4113.846, 4228.718, 4080.513, 4189.231, 4084.103, 0, 0, []
1630238868.849, 18, 0, 4119.487, 4235.897, 4068.718, 4186.154, 4072.821, 0, 0, []
1630238868.8569, 19, 0, 4097.949, 4237.949, 4051.795, 4164.103, 4049.744, 0, 0, []
1630238868.8647, 20, 0, 4088.718, 4220, 4071.795, 4176.41, 4075.385, 0, 0, []
1630238868.8726, 21, 0, 4091.282, 4207.179, 4094.872, 4190.769, 4092.308, 0, 0, []
1630238868.8804, 22, 0, 4084.615, 4215.385, 4055.385, 4167.692, 4054.359, 0, 0, []
1630238868.8881, 23, 0, 4086.667, 4221.538, 4053.846, 4160, 4039.487, 0, 0, []
1630238868.896, 24, 0, 4094.872, 4227.692, 4081.538, 4166.667, 4075.385, 0, 0, []
1630238868.9038, 25, 0, 4095.385, 4238.974, 4075.897, 4158.462, 4090.769, 0, 0, []
1630238868.9117, 26, 0, 4112.308, 4238.462, 4077.949, 4161.538, 4069.744, 0, 0, []
1630238868.9195, 27, 0, 4128.205, 4237.949, 4076.41, 4169.744, 4062.564, 0, 0, []
1630238868.9273, 28, 0, 4108.205, 4246.667, 4076.923, 4167.179, 4077.436, 0, 0, []
1630238868.9351, 29, 0, 4096.41, 4247.179, 4087.179, 4176.41, 4092.308, 0, 0, []
1630238868.943, 30, 0, 4120, 4251.795, 4092.821, 4197.436, 4087.692, 0, 0, []
1630238868.9508, 31, 0, 4130.256, 4249.744, 4095.385, 4191.282, 4073.333, 0, 0, []
1630238868.9587, 32, 0, 4104.103, 4228.205, 4076.41, 4166.667, 4069.744, 0, 0, []
1630238868.9664, 33, 0, 4085.128, 4216.923, 4079.487, 4174.872, 4070.769, 0, 0, []
1630238868.9743, 34, 0, 4101.026, 4230.256, 4098.974, 4202.564, 4070.769, 0, 0, []
1630238868.9821, 35, 0, 4114.359, 4243.077, 4095.385, 4201.026, 4066.154, 0, 0, []
1630238868.99, 36, 0, 4092.821, 4232.821, 4095.897, 4174.872, 4054.872, 0, 0, []
1630238868.9978, 37, 0, 4064.615, 4199.487, 4074.359, 4157.949, 4049.744, 0, 0, []
1630238869.0057, 38, 0, 4073.333, 4194.872, 4070.769, 4173.333, 4057.949, 0, 0, []
1630238869.0134, 39, 0, 4111.795, 4244.615, 4104.103, 4197.436, 4074.872, 0, 0, []
1630238869.0213, 40, 0, 4122.051, 4258.974, 4103.59, 4194.359, 4080.513, 0, 0, []
1630238869.0291, 41, 0, 4091.282, 4226.154, 4095.897, 4178.974, 4074.872, 0, 0, []
1630238869.0369, 42, 0, 4075.897, 4229.231, 4086.154, 4172.821, 4068.205, 0, 0, []
1630238869.0448, 43, 0, 4100.513, 4237.436, 4089.744, 4177.949, 4063.59, 0, 0, []
1630238869.0525, 44, 0, 4112.308, 4219.487, 4102.051, 4181.538, 4067.179, 0, 0, []
1630238869.0604, 45, 0, 4088.718, 4213.846, 4087.179, 4176.923, 4081.538, 0, 0, []
1630238869.0682, 46, 0, 4086.667, 4233.333, 4103.59, 4192.821, 4098.974, 0, 0, []
1630238869.0761, 47, 0, 4116.41, 4260, 4122.564, 4219.487, 4102.051, 0, 0, []
1630238869.0839, 48, 0, 4118.462, 4258.462, 4109.231, 4211.795, 4083.59, 0, 0, []
1630238869.0917, 49, 0, 4089.231, 4217.949, 4096.923, 4183.077, 4068.205, 0, 0, []
1630238869.0995, 50, 0, 4089.744, 4202.564, 4094.872, 4198.462, 4084.103, 0, 0, []
1630238869.1074, 51, 0, 4105.128, 4230.256, 4097.436, 4223.59, 4089.231, 0, 0, []
1630238869.1152, 52, 0, 4090.769, 4255.385, 4072.821, 4194.359, 4057.949, 0, 0, []
1630238869.1231, 53, 0, 4082.564, 4253.333, 4079.487, 4177.949, 4060.513, 0, 0, []
1630238869.1308, 54, 0, 4092.308, 4225.128, 4116.923, 4201.026, 4091.282, 0, 0, []
1630238869.1387, 55, 0, 4088.718, 4221.026, 4091.282, 4205.128, 4079.487, 0, 0, []
1630238869.1465, 56, 0, 4076.41, 4245.128, 4070.256, 4190.256, 4049.744, 0, 0, []
1630238869.1544, 57, 0, 4076.923, 4243.59, 4088.205, 4183.077, 4060.513, 0, 0, []
1630238869.1622, 58, 0, 4082.051, 4226.154, 4089.744, 4184.615, 4077.436, 0, 0, []
1630238869.17, 59, 0, 4085.641, 4239.487, 4078.974, 4193.333, 4067.179, 0, 0, []
1630238869.1778, 60, 0, 4096.923, 4248.718, 4074.359, 4202.051, 4063.077, 0, 0, []
1630238869.1856, 61, 0, 4097.436, 4230.256, 4102.051, 4207.179, 4071.282, 0, 0, []
1630238869.1935, 62, 0, 4083.077, 4227.179, 4115.385, 4205.128, 4079.487, 0, 0, []
1630238869.2013, 63, 0, 4082.051, 4231.282, 4096.41, 4205.641, 4076.41, 0, 0, []
1630238869.2091, 64, 0, 4102.564, 4235.385, 4103.59, 4219.487, 4071.282, 450, 0, []
1630238869.2169, 65, 0, 4104.615, 4247.179, 4098.462, 4211.795, 4072.821, 450, 0, []
1630238869.2248, 66, 0, 4072.308, 4248.718, 4085.128, 4185.128, 4073.333, 16201, 0, []
1630238869.2326, 67, 0, 4070.256, 4236.923, 4081.026, 4189.231, 4072.821, 450, 0, []
1630238869.2405, 68, 0, 4096.923, 4229.231, 4070.769, 4205.641, 4064.103, 16087, 0, []
1630238869.2482, 69, 0, 4103.59, 4229.231, 4083.59, 4195.385, 4064.103, 450, 0, []
1630238869.2561, 70, 0, 4092.821, 4232.821, 4087.692, 4185.128, 4083.077, 16096, 0, []
1630238869.2639, 71, 0, 4075.385, 4235.897, 4070.256, 4188.718, 4067.692, 450, 0, []
1630238869.2718, 72, 0, 4063.077, 4219.487, 4053.846, 4182.564, 4026.154, 450, 0, []
1630238869.2796, 73, 0, 4074.359, 4212.308, 4067.179, 4186.667, 4043.077, 16081, 0, []
1630238869.2875, 74, 0, 4092.821, 4242.564, 4106.667, 4201.026, 4084.103, 450, 0, []
1630238869.2952, 75, 0, 4096.41, 4261.026, 4085.641, 4195.385, 4069.744, 16200, 0, []
1630238869.3031, 76, 0, 4090.256, 4231.282, 4060.513, 4189.744, 4042.051, 450, 0, []
1630238869.3109, 77, 0, 4070.256, 4212.821, 4077.949, 4178.974, 4045.641, 450, 0, []
1630238869.3188, 78, 0, 4062.051, 4236.41, 4072.821, 4175.385, 4058.974, 450, 0, []
1630238869.3266, 79, 0, 4088.718, 4244.103, 4071.795, 4203.077, 4062.564, 16200, 0, []
1630238869.3344, 80, 0, 4102.051, 4232.308, 4071.795, 4210.769, 4060.513, 450, 0, []
1630238869.3422, 81, 0, 4086.154, 4245.128, 4080, 4195.385, 4075.385, 450, 0, []
1630238869.35, 82, 0, 4083.077, 4250.256, 4101.026, 4206.667, 4091.282, 450, 0, []
1630238869.3579, 83, 0, 4082.051, 4230.769, 4081.538, 4207.179, 4063.077, 16200, 0, []
1630238869.3657, 84, 0, 4061.538, 4233.333, 4069.231, 4173.846, 4022.564, 450, 0, []
1630238869.3735, 85, 0, 4046.667, 4241.026, 4070.769, 4157.436, 4028.718, 450, 0, []
1630238869.3813, 86, 0, 4058.462, 4228.205, 4076.923, 4183.59, 4055.897, 450, 0, []
1630238869.3892, 87, 0, 4079.487, 4241.538, 4093.846, 4210.256, 4057.949, 16200, 0, []
1630238869.397, 88, 0, 4074.872, 4262.051, 4081.538, 4197.949, 4040.513, 450, 0, []
1630238869.4049, 89, 0, 4050.256, 4235.897, 4076.923, 4181.026, 4031.795, 450, 0, []
1630238869.4126, 90, 0, 4040.513, 4201.538, 4074.872, 4183.077, 4031.795, 450, 0, []
1630238869.4205, 91, 0, 4057.949, 4215.897, 4070.256, 4187.179, 4029.231, 16200, 0, []
1630238869.4283, 92, 0, 4082.051, 4246.154, 4097.436, 4187.692, 4043.59, 450, 0, []
1630238869.4362, 93, 0, 4081.538, 4252.308, 4098.974, 4187.692, 4066.154, 450, 0, []
1630238869.444, 94, 0, 4062.051, 4245.128, 4076.41, 4184.615, 4049.231, 450, 0, []
1630238869.4518, 95, 0, 4066.154, 4241.538, 4073.333, 4184.615, 4029.744, 16200, 0, []
1630238869.4596, 96, 0, 4074.872, 4240.513, 4086.667, 4191.795, 4049.744, 450, 0, []
1630238869.4675, 97, 0, 4050.769, 4246.667, 4091.795, 4182.564, 4046.154, 450, 0, []
1630238869.4753, 98, 0, 4040, 4245.128, 4070.256, 4163.59, 4011.795, 450, 0, []
1630238869.4832, 99, 0, 4054.359, 4227.692, 4081.538, 4164.615, 4018.462, 16200, 0, []
1630238869.4909, 100, 0, 4046.667, 4226.154, 4104.103, 4171.282, 4046.154, 450, 0, []
1630238869.4988, 101, 0, 4035.897, 4244.103, 4089.231, 4175.897, 4040.513, 450, 0, []
1630238869.5067, 102, 0, 4045.128, 4250.256, 4098.974, 4188.205, 4026.667, 450, 0, []
1630238869.5146, 103, 0, 4040.513, 4254.359, 4108.718, 4186.667, 4035.385, 16200, 0, []
1630238869.5225, 104, 0, 4033.846, 4250.256, 4106.667, 4183.077, 4046.154, 450, 0, []
1630238869.5302, 105, 0, 4046.154, 4232.308, 4100.513, 4184.615, 4037.949, 450, 0, []
1630238869.538, 106, 0, 4045.128, 4235.385, 4092.308, 4176.41, 4034.359, 450, 0, []
1630238869.5459, 107, 0, 4030.256, 4244.103, 4111.282, 4178.462, 4037.949, 16200, 0, []
1630238869.5538, 108, 0, 4033.846, 4245.128, 4100.513, 4188.718, 4030.256, 450, 0, []
1630238869.5616, 109, 0, 4044.103, 4247.179, 4088.718, 4180, 4023.59, 450, 0, []
1630238869.5694, 110, 0, 4030.769, 4232.308, 4104.103, 4157.949, 4027.179, 450, 0, []
1630238869.5772, 111, 0, 4020, 4220, 4090.769, 4157.436, 4027.692, 16200, 0, []
1630238869.5851, 112, 0, 4031.795, 4239.487, 4082.051, 4176.923, 4022.564, 450, 0, []
1630238869.5929, 113, 0, 4021.538, 4233.333, 4075.897, 4170.256, 4022.564, 450, 0, []
1630238869.6008, 114, 0, 4012.308, 4199.487, 4082.564, 4172.308, 4035.385, 450, 0, []
1630238869.6086, 115, 0, 4045.641, 4228.718, 4100.513, 4201.538, 4049.744, 16200, 0, []
1630238869.6164, 116, 0, 4051.282, 4247.692, 4076.923, 4182.051, 4036.923, 450, 0, []
1630238869.6242, 117, 0, 4012.821, 4198.462, 4064.615, 4144.103, 4020, 450, 0, []
1630238869.6321, 118, 0, 4024.103, 4203.59, 4077.436, 4162.564, 4034.359, 450, 0, []
1630238869.6399, 119, 0, 4062.564, 4252.308, 4086.154, 4192.821, 4043.59, 16200, 0, []
1630238869.6477, 120, 0, 4055.897, 4247.179, 4094.872, 4183.077, 4043.59, 450, 0, []
1630238869.6555, 121, 0, 4030.256, 4214.359, 4078.462, 4168.205, 4047.692, 450, 0, []
1630238869.6633, 122, 0, 4021.538, 4203.077, 4061.026, 4171.795, 4025.641, 450, 0, []
1630238869.6712, 123, 0, 4030.769, 4203.59, 4065.128, 4169.744, 4014.359, 16200, 0, []
1630238869.679, 124, 0, 4028.205, 4225.641, 4082.564, 4165.641, 4040, 450, 0, []
1630238869.6869, 125, 0, 4011.282, 4238.974, 4091.795, 4167.179, 4037.949, 450, 0, []
1630238869.6946, 126, 0, 4028.718, 4211.282, 4082.564, 4175.897, 4018.462, 450, 0, []
1630238869.7025, 127, 0, 4047.692, 4195.897, 4104.103, 4177.949, 4033.846, 16200, 0, []
1630238869.7103, 128, 0, 4027.179, 4212.821, 4113.846, 4171.795, 4054.359, 450, 0, []
1630238869.7182, 0, 0, 4024.615, 4216.41, 4084.615, 4176.41, 4043.59, 450, 0, []
1630238869.726, 1, 0, 4051.282, 4213.846, 4088.718, 4183.59, 4034.359, 450, 0, []
1630238869.7338, 2, 0, 4044.103, 4223.59, 4091.795, 4171.795, 4046.154, 16195, 0, []
1630238869.7416, 3, 0, 4020, 4216.923, 4085.641, 4160.513, 4045.641, 450, 0, []
1630238869.7495, 4, 0, 4035.385, 4205.128, 4086.154, 4167.179, 4035.385, 16090, 0, []
1630238869.7573, 5, 0, 4060.513, 4225.128, 4088.718, 4170.769, 4044.103, 450, 0, []
1630238869.7652, 6, 0, 4048.205, 4244.103, 4099.487, 4165.641, 4058.974, 16083, 0, []
1630238869.7729, 7, 0, 4037.949, 4240.513, 4083.077, 4170.256, 4062.051, 450, 0, []
1630238869.7808, 8, 0, 4048.718, 4229.744, 4070.769, 4181.538, 4049.231, 450, 0, []
1630238869.7886, 9, 0, 4043.077, 4206.667, 4081.026, 4173.333, 4031.795, 16071, 0, []
1630238869.7965, 10, 0, 4038.462, 4201.026, 4094.359, 4170.769, 4048.718, 450, 0, []
1630238869.8043, 11, 0, 4055.385, 4234.359, 4112.308, 4192.821, 4074.872, 16201, 0, []
1630238869.812, 12, 0, 4058.974, 4256.923, 4089.744, 4182.051, 4057.436, 450, 0, []
1630238869.8199, 13, 0, 4053.333, 4245.128, 4083.077, 4157.949, 4046.667, 450, 0, []
1630238869.8277, 14, 0, 4068.718, 4229.231, 4126.154, 4181.026, 4091.282, 450, 0, []
1630238869.8356, 15, 0, 4076.923, 4236.41, 4130.256, 4212.308, 4112.821, 16201, 0, []
1630238869.8434, 16, 0, 4062.051, 4249.744, 4113.333, 4202.564, 4070.256, 0, 0, []
1630238869.8512, 17, 0, 4054.359, 4242.051, 4104.103, 4170.769, 4047.692, 0, 0, []
1630238869.859, 18, 0, 4048.718, 4225.128, 4108.718, 4165.128, 4071.282, 0, 0, []
1630238869.8669, 19, 0, 4044.103, 4229.744, 4115.897, 4180.513, 4075.897, 0, 0, []
1630238869.8747, 20, 0, 4053.846, 4250.769, 4101.538, 4185.128, 4055.385, 0, 0, []
1630238869.8826, 21, 0, 4058.462, 4247.692, 4120, 4182.564, 4064.615, 0, 0, []
1630238869.8903, 22, 0, 4025.641, 4222.051, 4109.744, 4166.154, 4069.744, 0, 0, []
1630238869.8982, 23, 0, 4007.179, 4210.256, 4067.692, 4156.923, 4045.641, 0, 0, []
1630238869.906, 24, 0, 4046.667, 4227.179, 4094.872, 4183.59, 4054.872, 0, 0, []
1630238869.9139, 25, 0, 4063.077, 4231.795, 4126.154, 4202.051, 4083.077, 0, 0, []
1630238869.9217, 26, 0, 4035.385, 4213.333, 4117.949, 4192.821, 4078.974, 0, 0, []
1630238869.9296, 27, 0, 4049.744, 4241.538, 4100, 4193.846, 4074.872, 0, 0, []
1630238869.9373, 28, 0, 4081.538, 4274.359, 4106.667, 4207.692, 4089.231, 0, 0, []
1630238869.9452, 29, 0, 4070.256, 4241.026, 4129.231, 4201.538, 4100.513, 0, 0, []
1630238869.953, 30, 0, 4047.692, 4213.846, 4103.077, 4185.128, 4097.436, 0, 0, []
1630238869.9608, 31, 0, 4041.026, 4234.359, 4081.538, 4187.179, 4073.846, 0, 0, []
1630238869.9687, 32, 0, 4048.205, 4228.718, 4096.923, 4188.718, 4066.154, 0, 0, []
1630238869.9764, 33, 0, 4057.436, 4210.769, 4107.179, 4183.077, 4093.333, 0, 0, []
1630238869.9843, 34, 0, 4049.744, 4238.462, 4102.051, 4181.026, 4095.897, 0, 0, []
1630238869.9921, 35, 0, 4033.846, 4244.103, 4074.359, 4168.718, 4055.897, 0, 0, []
1630238870, 36, 0, 4030.769, 4222.051, 4075.385, 4153.846, 4042.051, 0, 0, []
1630238870.0078, 37, 0, 4036.41, 4225.641, 4093.333, 4166.154, 4072.308, 0, 0, []
1630238870.0156, 38, 0, 4045.128, 4230.769, 4085.128, 4190.256, 4083.59, 0, 0, []
1630238870.0234, 39, 0, 4054.359, 4241.026, 4089.231, 4193.333, 4070.769, 0, 0, []
1630238870.0313, 40, 0, 4047.692, 4245.128, 4085.641, 4179.487, 4077.436, 0, 0, []
1630238870.0391, 41, 0, 4049.231, 4215.385, 4095.385, 4181.026, 4102.564, 0, 0, []
1630238870.047, 42, 0, 4083.077, 4217.436, 4121.026, 4197.949, 4111.282, 0, 0, []
1630238870.0547, 43, 0, 4096.923, 4259.487, 4117.436, 4197.949, 4104.103, 0, 0, []
1630238870.0626, 44, 0, 4071.795, 4254.872, 4113.846, 4188.205, 4103.59, 0, 0, []
1630238870.0704, 45, 0, 4051.282, 4212.821, 4092.821, 4181.026, 4099.487, 0, 0, []
1630238870.0783, 46, 0, 4036.41, 4192.308, 4061.538, 4166.667, 4062.564, 0, 0, []
1630238870.0861, 47, 0, 4029.744, 4214.872, 4068.205, 4151.795, 4048.205, 0, 0, []
1630238870.0939, 48, 0, 4059.487, 4253.846, 4101.538, 4173.846, 4102.564, 0, 0, []
1630238870.1017, 49, 0, 4069.744, 4241.026, 4113.333, 4198.974, 4116.923, 0, 0, []
1630238870.1096, 50, 0, 4035.385, 4193.333, 4069.744, 4168.205, 4053.333, 0, 0, []
1630238870.1174, 51, 0, 4038.462, 4210.256, 4076.41, 4158.974, 4054.872, 0, 0, []
1630238870.1253, 52, 0, 4073.846, 4252.308, 4127.179, 4202.051, 4124.103, 0, 0, []
1630238870.133, 53, 0, 4087.692, 4244.103, 4109.231, 4217.436, 4134.359, 0, 0, []
1630238870.1408, 54, 0, 4083.077, 4231.282, 4093.846, 4194.872, 4096.41, 0, 0, []
1630238870.1487, 55, 0, 4067.179, 4235.385, 4100.513, 4172.821, 4088.205, 0, 0, []
1630238870.1565, 56, 0, 4050.256, 4224.103, 4091.282, 4170.769, 4102.564, 0, 0, []
1630238870.1644, 57, 0, 4053.333, 4210.769, 4082.564, 4171.795, 4092.308, 0, 0, []
1630238870.1721, 58, 0, 4058.462, 4228.205, 4065.641, 4158.974, 4072.308, 0, 0, []
1630238870.18, 59, 0, 4046.154, 4242.564, 4071.795, 4156.41, 4076.41, 0, 0, []
1630238870.1878, 60, 0, 4044.103, 4231.795, 4085.128, 4176.923, 4093.333, 0, 0, []
1630238870.1957, 61, 0, 4064.615, 4237.436, 4084.615, 4191.795, 4094.359, 0, 0, []
1630238870.2035, 62, 0, 4074.872, 4249.744, 4092.308, 4183.077, 4083.59, 0, 0, []
1630238870.2113, 63, 0, 4060.513, 4245.641, 4088.205, 4171.795, 4093.846, 0, 0, []
1630238870.2191, 64, 0, 4049.231, 4227.179, 4093.846, 4183.077, 4112.308, 450, 0, []
1630238870.227, 65, 0, 4064.615, 4219.487, 4092.308, 4200, 4113.846, 450, 0, []
1630238870.2348, 66, 0, 4066.667, 4228.205, 4076.923, 4190.769, 4108.205, 16198, 0, []
1630238870.2427, 67, 0, 4035.385, 4230.256, 4079.487, 4168.205, 4100.513, 450, 0, []
1630238870.2505, 68, 0, 4028.718, 4229.231, 4064.103, 4170.769, 4092.821, 16092, 0, []
1630238870.2583, 69, 0, 4060.513, 4233.333, 4073.333, 4193.333, 4098.974, 450, 0, []
1630238870.2661, 70, 0, 4070.769, 4238.974, 4104.103, 4193.846, 4123.077, 16086, 0, []
1630238870.2739, 71, 0, 4053.333, 4229.231, 4096.41, 4191.795, 4128.718, 450, 0, []
1630238870.2818, 72, 0, 4028.205, 4217.949, 4069.744, 4185.128, 4082.051, 450, 0, []
1630238870.2896, 73, 0, 4008.718, 4218.462, 4046.667, 4153.333, 4045.128, 16071, 0, []
1630238870.2974, 74, 0, 4018.974, 4212.308, 4076.41, 4162.564, 4076.923, 450, 0, []
1630238870.3052, 75, 0, 4050.769, 4221.026, 4105.128, 4210.256, 4116.41, 16208, 0, []
1630238870.3131, 76, 0, 4057.436, 4236.41, 4082.564, 4206.154, 4098.462, 450, 0, []
1630238870.3209, 77, 0, 4039.487, 4230.256, 4081.538, 4171.282, 4081.026, 450, 0, []
1630238870.3288, 78, 0, 4036.41, 4214.872, 4084.615, 4169.744, 4098.462, 450, 0, []
1630238870.3365, 79, 0, 4042.051, 4219.487, 4075.385, 4183.59, 4093.846, 16208, 0, []
1630238870.3444, 80, 0, 4033.333, 4225.128, 4069.744, 4171.795, 4075.385, 450, 0, []
1630238870.3522, 81, 0, 4015.897, 4209.231, 4051.282, 4154.359, 4078.462, 450, 0, []
1630238870.3601, 82, 0, 4034.872, 4221.538, 4063.077, 4173.846, 4096.923, 450, 0, []
1630238870.3679, 83, 0, 4072.308, 4239.487, 4081.026, 4192.821, 4109.231, 16208, 0, []
1630238870.3757, 84, 0, 4049.744, 4215.385, 4069.231, 4167.692, 4092.821, 450, 0, []
1630238870.3835, 85, 0, 4013.846, 4198.462, 4061.538, 4149.231, 4073.333, 450, 0, []
1630238870.3914, 86, 0, 4037.949, 4215.897, 4063.077, 4173.333, 4082.564, 450, 0, []
1630238870.3992, 87, 0, 4071.795, 4229.744, 4088.718, 4189.231, 4107.692, 16208, 0, []
1630238870.4071, 88, 0, 4077.436, 4240.513, 4106.667, 4187.179, 4130.256, 450, 0, []
1630238870.4148, 89, 0, 4082.564, 4256.923, 4096.41, 4194.359, 4132.308, 450, 0, []
1630238870.4227, 90, 0, 4074.359, 4233.846, 4081.538, 4177.949, 4105.128, 450, 0, []
1630238870.4305, 91, 0, 4051.795, 4200.513, 4065.128, 4150.256, 4095.897, 16208, 0, []
1630238870.4383, 92, 0, 4060.513, 4220.513, 4080.513, 4168.718, 4116.41, 450, 0, []
1630238870.4462, 93, 0, 4077.436, 4243.077, 4080, 4190.769, 4111.795, 450, 0, []
1630238870.4539, 94, 0, 4067.179, 4223.077, 4067.692, 4173.846, 4096.41, 450, 0, []
1630238870.4618, 95, 0, 4060, 4203.59, 4093.846, 4165.128, 4113.846, 16208, 0, []
1630238870.4696, 96, 0, 4070.769, 4221.538, 4091.795, 4177.436, 4121.026, 450, 0, []
1630238870.4775, 97, 0, 4078.974, 4237.436, 4086.154, 4177.949, 4103.077, 450, 0, []
1630238870.4854, 98, 0, 4079.487, 4221.538, 4092.308, 4170.256, 4117.436, 450, 0, []
1630238870.4932, 99, 0, 4091.795, 4197.949, 4077.949, 4172.821, 4157.436, 16208, 0, []
1630238870.5011, 100, 0, 4130.256, 4209.231, 4068.718, 4174.872, 4184.103, 450, 0, []
1630238870.509, 101, 0, 4201.538, 4234.359, 4060, 4167.179, 4226.154, 450, 0, []
1630238870.5168, 102, 0, 4276.41, 4222.564, 4070.769, 4171.795, 4292.308, 450, 0, []
1630238870.5247, 103, 0, 4335.897, 4223.077, 4091.795, 4188.718, 4352.821, 16208, 0, []
1630238870.5324, 104, 0, 4393.846, 4261.538, 4103.59, 4205.128, 4408.205, 450, 0, []
1630238870.5403, 105, 0, 4435.897, 4262.051, 4117.436, 4208.205, 4450.256, 450, 0, []
1630238870.5481, 106, 0, 4448.718, 4219.487, 4106.154, 4192.308, 4459.487, 450, 0, []
1630238870.556, 107, 0, 4440.513, 4214.872, 4106.154, 4187.692, 4453.333, 16208, 0, []
1630238870.5638, 108, 0, 4427.179, 4243.59, 4115.385, 4192.821, 4446.154, 450, 0, []
1630238870.5717, 109, 0, 4407.692, 4257.949, 4100, 4177.949, 4427.179, 450, 0, []
1630238870.5794, 110, 0, 4365.128, 4248.718, 4089.744, 4149.744, 4385.128, 450, 0, []
1630238870.5873, 111, 0, 4309.231, 4222.564, 4068.718, 4137.949, 4343.59, 16208, 0, []
1630238870.5951, 112, 0, 4296.41, 4211.795, 4080, 4171.282, 4343.077, 450, 0, []
1630238870.6029, 113, 0, 4330.769, 4238.974, 4121.538, 4217.949, 4370.256, 450, 0, []
1630238870.6108, 114, 0, 4333.846, 4270.256, 4110.256, 4212.308, 4357.436, 450, 0, []
1630238870.6185, 115, 0, 4299.487, 4254.359, 4099.487, 4183.59, 4310.256, 16208, 0, []
1630238870.6264, 116, 0, 4281.026, 4232.821, 4098.974, 4181.538, 4294.359, 450, 0, []
1630238870.6342, 117, 0, 4259.487, 4246.154, 4082.051, 4181.026, 4280, 450, 0, []
1630238870.6421, 118, 0, 4223.59, 4238.462, 4070.256, 4161.026, 4244.103, 450, 0, []
1630238870.6499, 119, 0, 4217.436, 4214.359, 4081.026, 4160.513, 4252.308, 16208, 0, []
1630238870.6577, 120, 0, 4227.692, 4230.256, 4118.974, 4187.179, 4281.538, 450, 0, []
1630238870.6655, 121, 0, 4206.154, 4252.308, 4100.513, 4184.103, 4255.897, 450, 0, []
1630238870.6734, 122, 0, 4182.564, 4244.103, 4063.59, 4165.128, 4212.821, 450, 0, []
1630238870.6812, 123, 0, 4190.256, 4242.564, 4094.872, 4169.231, 4216.923, 16208, 0, []
1630238870.6891, 124, 0, 4185.641, 4239.487, 4103.077, 4164.103, 4221.538, 450, 0, []
1630238870.6968, 125, 0, 4162.564, 4224.615, 4088.718, 4158.974, 4204.103, 450, 0, []
1630238870.7047, 126, 0, 4165.641, 4230.769, 4095.897, 4178.974, 4197.949, 450, 0, []
1630238870.7125, 127, 0, 4174.359, 4217.949, 4095.897, 4189.744, 4187.179, 16208, 0, []
1630238870.7204, 128, 0, 4166.154, 4190.769, 4094.359, 4175.897, 4181.026, 450, 0, []
1630238870.7282, 0, 0, 4160, 4216.41, 4085.641, 4171.282, 4200, 450, 0, []
1630238870.7359, 1, 0, 4143.077, 4240.513, 4075.385, 4169.231, 4192.821, 450, 0, []
1630238870.7438, 2, 0, 4132.308, 4208.718, 4061.026, 4155.897, 4156.923, 16193, 0, []
1630238870.7516, 3, 0, 4150.769, 4205.641, 4068.718, 4154.359, 4152.308, 450, 0, []
1630238870.7595, 4, 0, 4145.128, 4238.974, 4089.231, 4151.795, 4160, 16088, 0, []
1630238870.7673, 5, 0, 4114.359, 4226.154, 4069.744, 4147.692, 4150.769, 450, 0, []
1630238870.7751, 6, 0, 4124.103, 4213.333, 4075.385, 4169.744, 4158.974, 16069, 0, []
1630238870.7829, 7, 0, 4152.308, 4229.744, 4093.846, 4179.487, 4167.179, 450, 0, []
1630238870.7908, 8, 0, 4153.846, 4223.077, 4091.282, 4165.641, 4169.744, 450, 0, []
1630238870.7986, 9, 0, 4149.744, 4215.385, 4114.872, 4170.769, 4193.846, 16073, 0, []
1630238870.8065, 10, 0, 4153.333, 4237.949, 4113.333, 4181.538, 4206.667, 450, 0, []
1630238870.8142, 11, 0, 4161.538, 4252.308, 4098.974, 4183.59, 4186.154, 16179, 0, []
1630238870.8221, 12, 0, 4172.821, 4243.59, 4116.923, 4184.615, 4179.487, 450, 0, []
1630238870.8299, 13, 0, 4169.744, 4246.154, 4133.333, 4188.205, 4201.538, 450, 0, []
1630238870.8378, 14, 0, 4155.385, 4248.718, 4122.564, 4187.179, 4209.231, 450, 0, []
1630238870.8456, 15, 0, 4149.231, 4227.179, 4075.385, 4168.718, 4189.744, 16179, 0, []
1630238870.8535, 16, 0, 4136.923, 4207.179, 4062.564, 4154.359, 4161.538, 0, 0, []
1630238870.8612, 17, 0, 4132.308, 4232.308, 4099.487, 4168.205, 4157.949, 0, 0, []
1630238870.8691, 18, 0, 4149.744, 4262.051, 4112.821, 4189.231, 4185.641, 0, 0, []
1630238870.8769, 19, 0, 4149.231, 4230.256, 4109.744, 4189.744, 4186.154, 0, 0, []
1630238870.8847, 20, 0, 4142.564, 4204.615, 4091.795, 4187.179, 4156.41, 0, 0, []
1630238870.8926, 21, 0, 4154.872, 4237.436, 4094.872, 4194.872, 4155.385, 0, 0, []
1630238870.9003, 22, 0, 4137.436, 4263.077, 4110.769, 4183.077, 4169.744, 0, 0, []
1630238870.9082, 23, 0, 4106.667, 4254.872, 4083.59, 4169.744, 4154.872, 0, 0, []
1630238870.916, 24, 0, 4116.41, 4234.359, 4078.462, 4184.103, 4134.872, 0, 0, []
1630238870.9239, 25, 0, 4124.103, 4209.231, 4082.564, 4181.538, 4133.333, 0, 0, []
1630238870.9317, 26, 0, 4108.205, 4211.282, 4086.154, 4163.077, 4144.103, 0, 0, []
1630238870.9395, 27, 0, 4124.103, 4234.872, 4122.564, 4185.128, 4175.897, 0, 0, []
1630238870.9473, 28, 0, 4156.923, 4229.744, 4122.564, 4211.795, 4200, 0, 0, []
1630238870.9552, 29, 0, 4146.667, 4221.026, 4094.872, 4190.256, 4168.205, 0, 0, []
1630238870.963, 30, 0, 4114.872, 4232.821, 4081.026, 4151.282, 4130.769, 0, 0, []
1630238870.9709, 31, 0, 4113.846, 4232.308, 4091.282, 4149.744, 4148.718, 0, 0, []
1630238870.9786, 32, 0, 4144.615, 4225.128, 4112.308, 4183.59, 4185.128, 0, 0, []
1630238870.9865, 33, 0, 4169.744, 4229.231, 4099.487, 4202.564, 4190.256, 0, 0, []
1630238870.9943, 34, 0, 4166.667, 4247.692, 4103.59, 4198.974, 4181.026, 0, 0, []
1630238871.0022, 35, 0, 4146.667, 4262.051, 4116.923, 4193.846, 4176.923, 0, 0, []
1630238871.01, 36, 0, 4130.769, 4246.667, 4101.538, 4193.846, 4166.154, 0, 0, []
1630238871.0178, 37, 0, 4136.41, 4248.718, 4103.59, 4201.026, 4154.872, 0, 0, []
1630238871.0256, 38, 0, 4145.128, 4274.872, 4104.103, 4200.513, 4151.795, 0, 0, []
1630238871.0335, 39, 0, 4136.923, 4252.308, 4105.641, 4189.231, 4158.462, 0, 0, []
1630238871.0413, 40, 0, 4140.513, 4231.795, 4116.923, 4190.256, 4182.564, 0, 0, []
1630238871.0491, 41, 0, 4160.513, 4258.974, 4110.256, 4201.026, 4196.923, 0, 0, []
1630238871.0569, 42, 0, 4155.897, 4255.897, 4093.333, 4191.282, 4170.256, 0, 0, []
1630238871.0647, 43, 0, 4141.026, 4235.897, 4078.462, 4176.41, 4150.256, 0, 0, []
1630238871.0726, 44, 0, 4142.564, 4245.641, 4100, 4184.615, 4168.205, 0, 0, []
1630238871.0804, 45, 0, 4141.538, 4241.538, 4110.256, 4190.256, 4172.308, 0, 0, []
1630238871.0883, 46, 0, 4138.974, 4238.462, 4081.538, 4185.641, 4154.359, 0, 0, []
1630238871.096, 47, 0, 4133.846, 4242.564, 4079.487, 4181.538, 4135.385, 0, 0, []
1630238871.1039, 48, 0, 4115.385, 4212.308, 4079.487, 4163.59, 4123.59, 0, 0, []
1630238871.1117, 49, 0, 4102.051, 4198.462, 4081.538, 4157.949, 4129.744, 0, 0, []
1630238871.1196, 50, 0, 4117.436, 4235.897, 4091.795, 4173.846, 4144.615, 0, 0, []
1630238871.1274, 51, 0, 4149.744, 4254.359, 4089.231, 4185.641, 4151.795, 0, 0, []
1630238871.1352, 52, 0, 4160.513, 4235.897, 4101.538, 4180.513, 4156.923, 0, 0, []
1630238871.143, 53, 0, 4143.077, 4224.103, 4095.897, 4170.256, 4169.231, 0, 0, []
1630238871.1509, 54, 0, 4147.692, 4224.615, 4091.795, 4187.692, 4185.128, 0, 0, []
1630238871.1587, 55, 0, 4177.949, 4232.821, 4098.974, 4204.103, 4187.179, 0, 0, []
1630238871.1666, 56, 0, 4174.359, 4238.462, 4065.128, 4186.667, 4167.692, 0, 0, []
1630238871.1744, 57, 0, 4146.667, 4231.795, 4060, 4171.795, 4161.026, 0, 0, []
1630238871.1822, 58, 0, 4136.923, 4231.282, 4071.282, 4171.795, 4168.205, 0, 0, []
1630238871.19, 59, 0, 4137.949, 4232.308, 4055.897, 4174.359, 4161.538, 0, 0, []
1630238871.1978, 60, 0, 4157.436, 4228.718, 4069.744, 4193.846, 4161.538, 0, 0, []
1630238871.2057, 61, 0, 4165.128, 4233.333, 4078.974, 4197.949, 4166.667, 0, 0, []
1630238871.2135, 62, 0, 4114.359, 4225.128, 4053.846, 4162.051, 4139.487, 0, 0, []
1630238871.2213, 63, 0, 4096.923, 4209.744, 4044.103, 4150.769, 4127.692, 0, 0, []
1630238871.2291, 64, 0, 4158.462, 4240, 4083.59, 4190.256, 4162.564, 450, 0, []
1630238871.237, 65, 0, 4175.385, 4253.333, 4103.59, 4196.923, 4169.231, 450, 0, []
1630238871.2448, 66, 0, 4135.897, 4221.538, 4068.205, 4163.077, 4151.282, 16193, 0, []
1630238871.2527, 67, 0, 4136.923, 4227.179, 4079.487, 4171.282, 4160.513, 450, 0, []
1630238871.2604, 68, 0, 4155.385, 4245.128, 4094.872, 4197.436, 4162.564, 16083, 0, []
1630238871.2683, 69, 0, 4146.154, 4228.205, 4066.154, 4188.205, 4138.462, 450, 0, []
1630238871.2761, 70, 0, 4133.333, 4226.667, 4068.205, 4167.179, 4131.795, 16082, 0, []
1630238871.284, 71, 0, 4117.949, 4223.59, 4062.051, 4154.359, 4139.487, 450, 0, []
1630238871.2918, 72, 0, 4116.41, 4197.436, 4052.308, 4164.103, 4139.487, 450, 0, []
1630238871.2996, 73, 0, 4154.872, 4224.615, 4072.821, 4197.436, 4154.359, 16070, 0, []
1630238871.3074, 74, 0, 4170.769, 4264.615, 4078.462, 4204.103, 4165.641, 450, 0, []
1630238871.3153, 75, 0, 4128.718, 4224.615, 4068.205, 4167.179, 4144.615, 16196, 0, []
1630238871.3231, 76, 0, 4112.821, 4193.846, 4051.282, 4150.769, 4133.846, 450, 0, []
1630238871.331, 77, 0, 4140, 4215.385, 4056.41, 4172.821, 4140, 450, 0, []
1630238871.3387, 78, 0, 4150.256, 4232.821, 4071.795, 4177.436, 4138.462, 450, 0, []
1630238871.3465, 79, 0, 4141.538, 4238.974, 4075.385, 4162.051, 4145.128, 16196, 0, []
1630238871.3544, 80, 0, 4132.821, 4224.615, 4077.949, 4161.026, 4148.718, 450, 0, []
1630238871.3622, 81, 0, 4138.974, 4216.41, 4064.103, 4167.692, 4147.179, 450, 0, []
1630238871.3701, 82, 0, 4167.179, 4242.564, 4079.487, 4181.026, 4159.487, 450, 0, []
1630238871.3778, 83, 0, 4186.667, 4256.923, 4109.744, 4193.333, 4172.821, 16196, 0, []
1630238871.3857, 84, 0, 4179.487, 4241.026, 4101.026, 4190.256, 4177.949, 450, 0, []
1630238871.3935, 85, 0, 4165.641, 4234.359, 4097.949, 4182.564, 4174.872, 450, 0, []
1630238871.4014, 86, 0, 4163.59, 4227.692, 4085.128, 4179.487, 4165.128, 450, 0, []
1630238871.4092, 87, 0, 4161.026, 4214.359, 4071.795, 4177.436, 4150.769, 16196, 0, []
1630238871.417, 88, 0, 4168.205, 4239.487, 4094.872, 4177.436, 4147.692, 450, 0, []
1630238871.4248, 89, 0, 4185.128, 4256.923, 4101.538, 4177.436, 4164.103, 450, 0, []
1630238871.4327, 90, 0, 4175.385, 4238.462, 4096.923, 4171.795, 4179.487, 450, 0, []
1630238871.4405, 91, 0, 4151.282, 4220, 4084.103, 4160.513, 4170.256, 16196, 0, []
1630238871.4484, 92, 0, 4168.205, 4228.205, 4086.667, 4170.769, 4161.026, 450, 0, []
1630238871.4561, 93, 0, 4202.051, 4253.846, 4106.154, 4198.974, 4169.744, 450, 0, []
1630238871.464, 94, 0, 4183.077, 4247.179, 4078.974, 4186.154, 4160, 450, 0, []
1630238871.4718, 95, 0, 4157.949, 4228.205, 4075.897, 4164.615, 4148.718, 16196, 0, []
1630238871.4797, 96, 0, 4174.359, 4246.667, 4097.436, 4184.615, 4167.692, 450, 0, []
1630238871.4876, 97, 0, 4180.513, 4256.41, 4087.692, 4194.359, 4169.231, 450, 0, []
1630238871.4954, 98, 0, 4180, 4224.103, 4090.256, 4173.333, 4146.667, 450, 0, []
1630238871.5031, 99, 0, 4196.41, 4209.231, 4090.256, 4165.128, 4147.692, 16196, 0, []
1630238871.5109, 100, 0, 4213.333, 4224.615, 4094.359, 4178.974, 4187.179, 450, 0, []
1630238871.5188, 101, 0, 4249.231, 4236.41, 4106.154, 4185.641, 4255.897, 450, 0, []
1630238871.5266, 102, 0, 4314.872, 4262.051, 4113.333, 4190.769, 4324.103, 450, 0, []
1630238871.5345, 103, 0, 4376.41, 4271.282, 4115.897, 4194.872, 4363.077, 16196, 0, []
1630238871.5422, 104, 0, 4435.385, 4242.564, 4106.154, 4191.282, 4398.462, 450, 0, []
1630238871.5501, 105, 0, 4486.667, 4230.769, 4117.436, 4189.744, 4439.487, 450, 0, []
1630238871.5579, 106, 0, 4499.487, 4252.308, 4118.974, 4181.026, 4463.59, 450, 0, []
1630238871.5658, 107, 0, 4492.308, 4251.795, 4099.487, 4171.795, 4461.538, 16196, 0, []
1630238871.5736, 108, 0, 4470.769, 4232.308, 4095.385, 4169.744, 4433.333, 450, 0, []
1630238871.5814, 109, 0, 4443.59, 4234.359, 4085.128, 4173.333, 4415.385, 450, 0, []
1630238871.5892, 110, 0, 4440.513, 4245.641, 4112.308, 4196.923, 4426.667, 450, 0, []
1630238871.5971, 111, 0, 4432.821, 4252.308, 4140, 4207.692, 4417.949, 16196, 0, []
1630238871.6049, 112, 0, 4391.795, 4241.026, 4101.538, 4176.923, 4373.333, 450, 0, []
