Timestamp, COUNTER, INTERPOLATED, AF3, T7, Pz, T8, AF4, RAW_CQ, MARKER_HARDWARE, MARKERS
1630311242.5353, 12, 0, 4075.385, 3608.205, 4099.487, 4172.821, 4115.385, 450, 0, []
1630311242.5431, 13, 0, 4067.179, 3588.718, 4118.462, 4163.077, 4101.538, 450, 0, []
1630311242.5509, 14, 0, 4048.205, 3561.026, 4092.308, 4153.846, 4107.692, 450, 0, []
1630311242.5588, 15, 0, 4061.026, 3572.821, 4110.256, 4166.154, 4111.282, 16202, 0, []
1630311242.5666, 16, 0, 4080, 3585.641, 4115.897, 4156.41, 4103.59, 0, 0, []
1630311242.5745, 17, 0, 4075.385, 3554.872, 4107.179, 4140.513, 4107.692, 0, 0, []
1630311242.5822, 18, 0, 4070.256, 3559.487, 4128.718, 4155.897, 4102.564, 0, 0, []
1630311242.5901, 19, 0, 4066.154, 3590.769, 4098.462, 4158.974, 4083.077, 0, 0, []
1630311242.5979, 20, 0, 4050.256, 3579.487, 4116.41, 4155.385, 4083.59, 0, 0, []
1630311242.6059, 21, 0, 4046.667, 3580.513, 4133.333, 4165.641, 4089.231, 0, 0, []
1630311242.6138, 22, 0, 4062.564, 3618.974, 4109.744, 4160, 4080, 0, 0, []
1630311242.6217, 23, 0, 4061.538, 3627.692, 4134.872, 4148.718, 4085.128, 0, 0, []
1630311242.6296, 24, 0, 4051.282, 3614.359, 4117.949, 4156.41, 4093.846, 0, 0, []
1630311242.6376, 25, 0, 4057.436, 3618.974, 4112.821, 4158.974, 4076.41, 0, 0, []
1630311242.6455, 26, 0, 4052.308, 3622.051, 4118.462, 4145.128, 4072.821, 0, 0, []
1630311242.6535, 27, 0, 4043.59, 3639.487, 4091.795, 4141.026, 4092.308, 0, 0, []
1630311242.6613, 28, 0, 4060, 3670.256, 4116.923, 4146.667, 4090.256, 0, 0, []
1630311242.6693, 29, 0, 4066.667, 3670.256, 4116.923, 4142.051, 4090.769, 0, 0, []
1630311242.6772, 30, 0, 4057.436, 3661.538, 4114.359, 4141.026, 4105.641, 0, 0, []
1630311242.685, 31, 0, 4070.256, 3675.897, 4125.641, 4154.359, 4096.923, 0, 0, []
1630311242.6929, 32, 0, 4084.103, 3681.538, 4111.282, 4162.564, 4091.282, 0, 0, []
1630311242.7006, 33, 0, 4077.949, 3676.41, 4130.256, 4165.128, 4113.333, 0, 0, []
1630311242.7085, 34, 0, 4087.179, 3697.949, 4115.385, 4172.821, 4121.026, 0, 0, []
1630311242.7163, 35, 0, 4101.538, 3703.59, 4114.872, 4168.718, 4110.256, 0, 0, []
1630311242.7242, 36, 0, 4088.718, 3686.154, 4127.692, 4148.718, 4105.641, 0, 0, []
1630311242.732, 37, 0, 4076.41, 3703.077, 4090.769, 4141.538, 4098.974, 0, 0, []
1630311242.7398, 38, 0, 4081.026, 3736.41, 4111.795, 4151.282, 4090.256, 0, 0, []
1630311242.7476, 39, 0, 4083.59, 3742.564, 4114.359, 4146.667, 4097.436, 0, 0, []
1630311242.7556, 40, 0, 4073.333, 3723.077, 4097.436, 4141.538, 4098.974, 0, 0, []
1630311242.7635, 41, 0, 4069.744, 3707.179, 4116.41, 4148.205, 4081.026, 0, 0, []
1630311242.7715, 42, 0, 4079.487, 3718.462, 4100.513, 4141.026, 4073.846, 0, 0, []
1630311242.7793, 43, 0, 4093.846, 3738.974, 4114.359, 4130.256, 4095.385, 0, 0, []
1630311242.7873, 44, 0, 4113.846, 3732.308, 4119.487, 4136.41, 4113.846, 0, 0, []
1630311242.7952, 45, 0, 4128.205, 3734.872, 4108.205, 4147.692, 4104.103, 0, 0, []
1630311242.8032, 46, 0, 4125.641, 3782.051, 4125.128, 4144.103, 4095.897, 0, 0, []
1630311242.8111, 47, 0, 4115.385, 3821.026, 4102.051, 4141.538, 4106.154, 0, 0, []
1630311242.819, 48, 0, 4116.923, 3858.974, 4112.821, 4163.59, 4110.256, 0, 0, []
1630311242.8269, 49, 0, 4137.436, 3953.846, 4118.462, 4183.59, 4106.667, 0, 0, []
1630311242.8349, 50, 0, 4147.179, 4062.051, 4094.872, 4170.769, 4112.308, 0, 0, []
1630311242.8428, 51, 0, 4125.641, 4104.103, 4114.872, 4147.692, 4118.974, 0, 0, []
1630311242.8506, 52, 0, 4109.231, 4096.923, 4097.436, 4143.077, 4111.282, 0, 0, []
1630311242.8584, 53, 0, 4122.564, 4092.308, 4109.231, 4142.564, 4103.077, 0, 0, []
1630311242.8662, 54, 0, 4132.821, 4094.359, 4121.026, 4123.077, 4106.154, 0, 0, []
1630311242.8741, 55, 0, 4121.538, 4117.436, 4084.615, 4114.872, 4111.282, 0, 0, []
1630311242.8819, 56, 0, 4117.949, 4140.513, 4103.077, 4140.513, 4111.282, 0, 0, []
1630311242.8898, 57, 0, 4128.718, 4138.462, 4098.974, 4158.974, 4102.564, 0, 0, []
1630311242.8976, 58, 0, 4140, 4155.385, 4101.026, 4151.282, 4093.333, 0, 0, []
1630311242.9054, 59, 0, 4140, 4183.077, 4104.103, 4143.077, 4105.641, 0, 0, []
1630311242.9132, 60, 0, 4135.385, 4186.154, 4074.359, 4148.718, 4122.051, 0, 0, []
1630311242.9212, 61, 0, 4134.359, 4201.026, 4097.949, 4156.923, 4111.795, 0, 0, []
1630311242.9291, 62, 0, 4132.821, 4244.615, 4095.385, 4156.41, 4110.769, 0, 0, []
1630311242.9371, 63, 0, 4127.692, 4259.487, 4095.897, 4156.41, 4136.41, 0, 0, []
1630311242.9449, 64, 0, 4123.59, 4252.308, 4105.128, 4156.41, 4140.513, 450, 0, []
1630311242.9529, 65, 0, 4123.077, 4276.923, 4076.923, 4151.795, 4112.308, 450, 0, []
1630311242.9608, 66, 0, 4130.769, 4300, 4105.641, 4149.744, 4100.513, 16184, 0, []
1630311242.9688, 67, 0, 4138.462, 4295.897, 4107.692, 4149.744, 4116.41, 450, 0, []
1630311242.9767, 68, 0, 4136.923, 4308.718, 4108.718, 4162.564, 4129.231, 16131, 0, []
1630311242.9846, 69, 0, 4137.949, 4342.051, 4129.231, 4182.564, 4129.744, 450, 0, []
1630311242.9925, 70, 0, 4139.487, 4342.051, 4094.359, 4170.769, 4112.308, 233, 0, []
1630311243.0003, 71, 0, 4134.872, 4326.667, 4095.385, 4143.59, 4103.59, 450, 0, []
1630311243.0082, 72, 0, 4136.923, 4336.41, 4092.308, 4151.795, 4134.359, 450, 0, []
1630311243.016, 73, 0, 4154.359, 4338.462, 4103.077, 4180.513, 4161.026, 16135, 0, []
1630311243.0238, 74, 0, 4164.615, 4338.974, 4121.538, 4173.846, 4143.59, 450, 0, []
1630311243.0316, 75, 0, 4162.051, 4347.692, 4094.872, 4159.487, 4128.205, 16201, 0, []
1630311243.0395, 76, 0, 4163.59, 4345.128, 4131.282, 4178.974, 4147.692, 450, 0, []
1630311243.0473, 77, 0, 4167.179, 4357.949, 4128.718, 4196.923, 4163.59, 450, 0, []
1630311243.0552, 78, 0, 4174.359, 4395.385, 4105.128, 4200, 4162.564, 450, 0, []
1630311243.0629, 79, 0, 4187.692, 4406.154, 4122.564, 4203.59, 4156.41, 16201, 0, []
1630311243.0709, 80, 0, 4185.641, 4388.718, 4090.769, 4193.846, 4144.615, 450, 0, []
1630311243.0788, 81, 0, 4170.256, 4398.974, 4092.821, 4179.487, 4142.564, 450, 0, []
1630311243.0868, 82, 0, 4164.615, 4427.692, 4088.718, 4186.154, 4151.282, 450, 0, []
1630311243.0947, 83, 0, 4173.846, 4428.718, 4088.718, 4197.436, 4157.436, 16201, 0, []
1630311243.1026, 84, 0, 4185.641, 4429.231, 4125.128, 4200.513, 4159.487, 450, 0, []
1630311243.1105, 85, 0, 4191.795, 4448.205, 4095.385, 4199.487, 4158.974, 450, 0, []
1630311243.1185, 86, 0, 4178.974, 4442.564, 4103.077, 4185.128, 4160.513, 450, 0, []
1630311243.1264, 87, 0, 4167.692, 4426.667, 4113.333, 4173.846, 4170.256, 16201, 0, []
1630311243.1344, 88, 0, 4173.333, 4443.077, 4091.795, 4188.205, 4170.769, 450, 0, []
1630311243.1422, 89, 0, 4176.41, 4450.256, 4106.154, 4193.333, 4146.154, 450, 0, []
1630311243.15, 90, 0, 4181.026, 4431.795, 4098.462, 4177.949, 4128.205, 450, 0, []
1630311243.1579, 91, 0, 4190.256, 4429.744, 4129.744, 4180.513, 4144.615, 16201, 0, []
1630311243.1657, 92, 0, 4186.667, 4431.795, 4132.821, 4188.718, 4166.154, 450, 0, []
1630311243.1736, 93, 0, 4183.59, 4421.538, 4102.051, 4190.256, 4170.769, 450, 0, []
1630311243.1813, 94, 0, 4197.436, 4423.077, 4133.333, 4201.026, 4173.846, 450, 0, []
1630311243.1892, 95, 0, 4204.103, 4423.077, 4118.462, 4202.051, 4172.821, 16201, 0, []
1630311243.197, 96, 0, 4194.359, 4402.564, 4114.872, 4194.359, 4164.615, 450, 0, []
1630311243.2049, 97, 0, 4191.282, 4390.256, 4124.103, 4190.769, 4177.436, 450, 0, []
1630311243.2127, 98, 0, 4196.41, 4393.333, 4105.128, 4192.308, 4204.103, 450, 0, []
1630311243.2206, 99, 0, 4208.205, 4391.282, 4123.59, 4213.846, 4206.154, 16201, 0, []
1630311243.2283, 100, 0, 4228.205, 4393.333, 4097.436, 4229.231, 4200.513, 450, 0, []
1630311243.2362, 101, 0, 4237.436, 4406.667, 4093.846, 4217.949, 4203.59, 450, 0, []
1630311243.244, 102, 0, 4228.718, 4412.308, 4109.744, 4209.231, 4200.513, 450, 0, []
1630311243.252, 103, 0, 4222.051, 4416.923, 4084.615, 4209.231, 4204.615, 16201, 0, []
1630311243.2599, 104, 0, 4231.282, 4425.128, 4110.769, 4215.385, 4227.179, 450, 0, []
1630311243.2678, 105, 0, 4250.769, 4425.128, 4107.179, 4232.821, 4234.359, 450, 0, []
1630311243.2757, 106, 0, 4268.205, 4424.103, 4100.513, 4240, 4221.538, 450, 0, []
1630311243.2837, 107, 0, 4276.41, 4417.949, 4108.205, 4224.103, 4218.462, 16201, 0, []
1630311243.2916, 108, 0, 4277.949, 4412.821, 4084.615, 4215.385, 4223.077, 450, 0, []
1630311243.2996, 109, 0, 4282.564, 4432.821, 4121.026, 4228.205, 4229.744, 450, 0, []
1630311243.3074, 110, 0, 4283.59, 4438.462, 4114.359, 4223.59, 4243.59, 450, 0, []
1630311243.3154, 111, 0, 4266.667, 4402.051, 4081.538, 4200, 4236.41, 16201, 0, []
1630311243.3233, 112, 0, 4256.41, 4389.744, 4098.974, 4203.077, 4215.897, 450, 0, []
1630311243.3311, 113, 0, 4273.333, 4412.821, 4091.795, 4227.179, 4222.051, 450, 0, []
1630311243.339, 114, 0, 4281.026, 4417.949, 4105.641, 4228.718, 4229.231, 450, 0, []
1630311243.3467, 115, 0, 4269.744, 4406.667, 4100.513, 4214.359, 4213.846, 16201, 0, []
1630311243.3546, 116, 0, 4261.538, 4407.179, 4103.077, 4213.333, 4217.949, 450, 0, []
1630311243.3624, 117, 0, 4252.821, 4412.821, 4130.256, 4210.256, 4237.436, 450, 0, []
1630311243.3703, 118, 0, 4242.564, 4405.641, 4096.41, 4201.026, 4230.769, 450, 0, []
1630311243.3781, 119, 0, 4245.641, 4387.179, 4097.949, 4204.615, 4211.282, 16201, 0, []
1630311243.386, 120, 0, 4251.282, 4384.615, 4093.333, 4202.051, 4201.026, 450, 0, []
1630311243.3939, 121, 0, 4250.769, 4389.231, 4074.359, 4187.692, 4201.538, 450, 0, []
1630311243.4019, 122, 0, 4247.179, 4378.462, 4099.487, 4183.077, 4214.872, 450, 0, []
1630311243.4098, 123, 0, 4243.077, 4387.692, 4086.154, 4196.41, 4225.641, 16201, 0, []
1630311243.4178, 124, 0, 4250.256, 4402.564, 4095.897, 4211.282, 4227.692, 450, 0, []
1630311243.4256, 125, 0, 4271.282, 4381.538, 4095.897, 4204.615, 4226.154, 450, 0, []
1630311243.4336, 126, 0, 4281.026, 4367.179, 4080.513, 4199.487, 4224.103, 450, 0, []
1630311243.4415, 127, 0, 4270.769, 4383.077, 4120.513, 4211.795, 4220.513, 16201, 0, []
1630311243.4495, 128, 0, 4261.026, 4388.718, 4097.949, 4203.077, 4228.718, 450, 0, []
1630311243.4574, 0, 0, 4263.077, 4379.487, 4077.436, 4188.205, 4244.615, 450, 0, []
1630311243.4651, 1, 0, 4261.538, 4367.692, 4092.308, 4195.897, 4236.923, 450, 0, []
1630311243.473, 2, 0, 4263.59, 4369.744, 4090.256, 4203.59, 4217.949, 16182, 0, []
1630311243.4809, 3, 0, 4276.41, 4384.103, 4120, 4202.051, 4216.923, 450, 0, []
1630311243.4888, 4, 0, 4272.821, 4368.205, 4108.205, 4193.846, 4211.795, 16120, 0, []
1630311243.4967, 5, 0, 4249.744, 4334.359, 4098.462, 4176.41, 4196.923, 450, 0, []
1630311243.5045, 6, 0, 4248.205, 4332.821, 4116.41, 4165.128, 4208.205, 227, 0, []
1630311243.5123, 7, 0, 4264.103, 4341.026, 4106.667, 4175.385, 4235.897, 450, 0, []
1630311243.5202, 8, 0, 4263.077, 4338.974, 4118.462, 4188.718, 4232.308, 450, 0, []
1630311243.528, 9, 0, 4258.974, 4358.462, 4106.667, 4187.179, 4217.436, 16140, 0, []
1630311243.536, 10, 0, 4264.103, 4373.846, 4109.231, 4186.667, 4216.923, 450, 0, []
1630311243.5438, 11, 0, 4266.667, 4353.333, 4125.128, 4195.897, 4217.949, 16200, 0, []
1630311243.5518, 12, 0, 4264.615, 4321.026, 4092.308, 4193.333, 4222.564, 450, 0, []
1630311243.5597, 13, 0, 4264.615, 4319.487, 4112.821, 4185.128, 4233.846, 450, 0, []
1630311243.5677, 14, 0, 4264.615, 4349.744, 4126.154, 4188.205, 4235.385, 450, 0, []
1630311243.5756, 15, 0, 4264.615, 4360, 4121.538, 4194.359, 4226.667, 16200, 0, []
1630311243.5836, 16, 0, 4273.333, 4351.795, 4138.462, 4197.436, 4228.205, 0, 0, []
1630311243.5914, 17, 0, 4284.103, 4358.462, 4110.256, 4194.872, 4235.897, 0, 0, []
1630311243.5994, 18, 0, 4284.615, 4357.436, 4111.282, 4193.846, 4234.359, 0, 0, []
1630311243.6073, 19, 0, 4272.308, 4325.128, 4113.846, 4184.615, 4229.231, 0, 0, []
1630311243.6152, 20, 0, 4256.41, 4299.487, 4108.205, 4169.744, 4226.667, 0, 0, []
1630311243.6231, 21, 0, 4244.615, 4311.282, 4117.949, 4173.333, 4228.205, 0, 0, []
1630311243.6308, 22, 0, 4241.538, 4322.564, 4090.769, 4184.103, 4227.692, 0, 0, []
1630311243.6387, 23, 0, 4244.103, 4325.641, 4110.769, 4186.667, 4220, 0, 0, []
1630311243.6465, 24, 0, 4244.615, 4332.821, 4119.487, 4189.231, 4211.282, 0, 0, []
1630311243.6544, 25, 0, 4247.179, 4327.692, 4096.923, 4188.205, 4218.462, 0, 0, []
1630311243.6622, 26, 0, 4249.744, 4322.564, 4116.41, 4174.872, 4238.462, 0, 0, []
1630311243.67, 27, 0, 4234.872, 4325.128, 4103.59, 4170.769, 4238.462, 0, 0, []
1630311243.6778, 28, 0, 4221.538, 4325.128, 4112.821, 4189.231, 4229.231, 0, 0, []
1630311243.6857, 29, 0, 4244.103, 4336.41, 4118.974, 4198.974, 4242.564, 0, 0, []
1630311243.6935, 30, 0, 4266.154, 4345.128, 4093.333, 4190.256, 4252.821, 0, 0, []
1630311243.7015, 31, 0, 4249.231, 4323.077, 4111.282, 4186.667, 4235.897, 0, 0, []
1630311243.7093, 32, 0, 4230.769, 4298.462, 4103.59, 4179.487, 4222.564, 0, 0, []
1630311243.7173, 33, 0, 4230.769, 4312.308, 4106.667, 4182.051, 4222.564, 0, 0, []
1630311243.7252, 34, 0, 4227.692, 4333.333, 4109.231, 4200, 4213.333, 0, 0, []
1630311243.7332, 35, 0, 4228.205, 4334.359, 4091.795, 4206.154, 4209.744, 0, 0, []
1630311243.7411, 36, 0, 4236.41, 4331.795, 4122.564, 4204.103, 4219.487, 0, 0, []
1630311243.749, 37, 0, 4231.282, 4314.872, 4110.256, 4192.821, 4216.923, 0, 0, []
1630311243.7569, 38, 0, 4217.949, 4293.333, 4102.564, 4169.231, 4209.231, 0, 0, []
1630311243.7647, 39, 0, 4214.872, 4302.564, 4126.154, 4163.59, 4216.923, 0, 0, []
1630311243.7726, 40, 0, 4226.667, 4316.41, 4105.641, 4180.513, 4221.538, 0, 0, []
1630311243.7806, 41, 0, 4228.718, 4295.385, 4108.205, 4186.154, 4204.615, 0, 0, []
1630311243.7884, 42, 0, 4216.923, 4285.128, 4100, 4174.872, 4192.821, 0, 0, []
1630311243.7962, 43, 0, 4217.436, 4320, 4101.026, 4167.692, 4206.667, 0, 0, []
1630311243.8041, 44, 0, 4214.872, 4328.205, 4116.923, 4159.487, 4215.897, 0, 0, []
1630311243.8119, 45, 0, 4204.615, 4304.615, 4092.821, 4156.923, 4203.077, 0, 0, []
1630311243.8198, 46, 0, 4215.385, 4310.256, 4112.821, 4166.667, 4192.308, 0, 0, []
1630311243.8275, 47, 0, 4237.436, 4325.641, 4118.974, 4172.308, 4195.897, 0, 0, []
1630311243.8355, 48, 0, 4239.487, 4306.154, 4107.692, 4175.385, 4202.564, 0, 0, []
1630311243.8434, 49, 0, 4232.308, 4277.949, 4117.949, 4178.462, 4210.256, 0, 0, []
1630311243.8514, 50, 0, 4230.256, 4278.462, 4094.359, 4175.385, 4218.974, 0, 0, []
1630311243.8593, 51, 0, 4237.436, 4281.026, 4109.231, 4182.564, 4220.513, 0, 0, []
1630311243.8672, 52, 0, 4254.359, 4272.821, 4105.641, 4188.718, 4220, 0, 0, []
1630311243.8751, 53, 0, 4251.282, 4284.615, 4081.026, 4177.436, 4212.308, 0, 0, []
1630311243.8831, 54, 0, 4228.718, 4288.205, 4096.41, 4160, 4194.872, 0, 0, []
1630311243.891, 55, 0, 4225.128, 4267.179, 4084.103, 4151.282, 4201.026, 0, 0, []
1630311243.899, 56, 0, 4233.333, 4265.641, 4100.513, 4161.538, 4220, 0, 0, []
1630311243.9068, 57, 0, 4229.231, 4285.128, 4107.179, 4177.949, 4208.718, 0, 0, []
1630311243.9148, 58, 0, 4225.641, 4280.513, 4089.231, 4181.026, 4197.949, 0, 0, []
1630311243.9227, 59, 0, 4229.231, 4269.231, 4106.667, 4173.333, 4205.128, 0, 0, []
1630311243.9305, 60, 0, 4231.795, 4279.487, 4093.333, 4170.769, 4206.667, 0, 0, []
1630311243.9384, 61, 0, 4233.846, 4272.308, 4110.769, 4177.436, 4215.385, 0, 0, []
1630311243.9462, 62, 0, 4228.205, 4251.795, 4122.564, 4176.41, 4228.205, 0, 0, []
1630311243.954, 63, 0, 4221.026, 4261.538, 4096.41, 4175.385, 4219.487, 0, 0, []
1630311243.9618, 64, 0, 4224.615, 4276.41, 4109.231, 4182.564, 4210.769, 450, 0, []
1630311243.9697, 65, 0, 4226.667, 4251.282, 4090.769, 4184.103, 4205.641, 450, 0, []
1630311243.9775, 66, 0, 4211.282, 4222.051, 4090.256, 4171.795, 4185.128, 16181, 0, []
1630311243.9854, 67, 0, 4196.923, 4231.282, 4103.077, 4153.846, 4183.59, 450, 0, []
1630311243.9931, 68, 0, 4204.615, 4238.462, 4084.103, 4157.436, 4208.205, 16124, 0, []
1630311244.0011, 69, 0, 4216.41, 4223.077, 4106.154, 4178.462, 4211.282, 450, 0, []
1630311244.009, 70, 0, 4218.974, 4214.359, 4101.538, 4182.564, 4194.872, 274, 0, []
1630311244.017, 71, 0, 4218.462, 4225.128, 4099.487, 4167.692, 4192.308, 450, 0, []
1630311244.0249, 72, 0, 4213.846, 4228.718, 4102.051, 4157.436, 4195.897, 450, 0, []
1630311244.0328, 73, 0, 4201.538, 4200, 4075.897, 4163.077, 4192.821, 16143, 0, []
1630311244.0407, 74, 0, 4195.385, 4176.923, 4098.462, 4171.282, 4183.59, 450, 0, []
1630311244.0487, 75, 0, 4201.538, 4196.41, 4089.744, 4166.667, 4165.641, 16198, 0, []
1630311244.0566, 76, 0, 4202.051, 4216.923, 4083.077, 4155.385, 4158.974, 450, 0, []
1630311244.0646, 77, 0, 4198.462, 4207.692, 4107.692, 4157.949, 4173.333, 450, 0, []
1630311244.0724, 78, 0, 4206.154, 4198.462, 4089.744, 4167.692, 4179.487, 450, 0, []
1630311244.0802, 79, 0, 4216.923, 4200.513, 4096.41, 4169.231, 4165.128, 16198, 0, []
1630311244.0881, 80, 0, 4216.41, 4183.077, 4086.154, 4157.949, 4160.513, 450, 0, []
1630311244.0959, 81, 0, 4212.821, 4165.128, 4080.513, 4153.333, 4173.333, 450, 0, []
1630311244.1038, 82, 0, 4217.949, 4180.513, 4106.667, 4170.256, 4177.436, 450, 0, []
1630311244.1115, 83, 0, 4220.513, 4191.282, 4088.718, 4182.564, 4161.026, 16198, 0, []
1630311244.1194, 84, 0, 4216.41, 4185.128, 4100.513, 4180.513, 4149.231, 450, 0, []
1630311244.1272, 85, 0, 4221.538, 4185.128, 4102.564, 4178.462, 4170.256, 450, 0, []
1630311244.1351, 86, 0, 4220.513, 4181.538, 4085.641, 4182.051, 4194.872, 450, 0, []
1630311244.1429, 87, 0, 4203.59, 4166.667, 4095.385, 4180, 4181.538, 16198, 0, []
1630311244.1507, 88, 0, 4193.333, 4172.821, 4072.308, 4163.59, 4151.282, 450, 0, []
1630311244.1585, 89, 0, 4201.538, 4191.282, 4092.308, 4153.846, 4152.308, 450, 0, []
1630311244.1665, 90, 0, 4201.026, 4183.59, 4101.026, 4157.436, 4175.897, 450, 0, []
1630311244.1744, 91, 0, 4186.154, 4170.256, 4078.462, 4169.744, 4174.872, 16198, 0, []
1630311244.1824, 92, 0, 4183.077, 4169.744, 4097.949, 4182.564, 4148.205, 450, 0, []
1630311244.1902, 93, 0, 4187.179, 4170.769, 4088.205, 4172.821, 4132.821, 450, 0, []
1630311244.1982, 94, 0, 4182.564, 4171.282, 4094.359, 4152.308, 4139.487, 450, 0, []
1630311244.2061, 95, 0, 4180.513, 4172.308, 4093.846, 4157.949, 4150.256, 16198, 0, []
1630311244.2141, 96, 0, 4190.256, 4172.308, 4074.872, 4177.949, 4153.846, 450, 0, []
1630311244.222, 97, 0, 4198.462, 4172.821, 4102.051, 4184.615, 4158.462, 450, 0, []
1630311244.2299, 98, 0, 4196.41, 4170.769, 4085.641, 4172.308, 4171.282, 450, 0, []
1630311244.2378, 99, 0, 4188.718, 4165.641, 4079.487, 4163.077, 4176.41, 16198, 0, []
1630311244.2456, 100, 0, 4183.077, 4169.231, 4093.333, 4171.282, 4169.744, 450, 0, []
1630311244.2535, 101, 0, 4188.718, 4180, 4075.897, 4177.436, 4165.641, 450, 0, []
1630311244.2613, 102, 0, 4190.769, 4185.128, 4084.615, 4161.026, 4162.564, 450, 0, []
1630311244.2692, 103, 0, 4179.487, 4191.282, 4070.769, 4150.256, 4158.462, 16198, 0, []
1630311244.2769, 104, 0, 4174.359, 4187.692, 4079.487, 4169.744, 4160.513, 450, 0, []
1630311244.2848, 105, 0, 4186.154, 4170.256, 4095.897, 4178.462, 4155.897, 450, 0, []
1630311244.2926, 106, 0, 4191.282, 4171.282, 4069.231, 4161.538, 4147.692, 450, 0, []
1630311244.3005, 107, 0, 4172.308, 4187.692, 4088.718, 4154.872, 4150.256, 16198, 0, []
1630311244.3083, 108, 0, 4157.949, 4179.487, 4079.487, 4156.923, 4150.769, 450, 0, []
1630311244.3162, 109, 0, 4163.077, 4155.385, 4064.615, 4153.846, 4141.026, 450, 0, []
1630311244.3241, 110, 0, 4172.308, 4162.564, 4089.231, 4152.821, 4147.179, 450, 0, []
1630311244.3321, 111, 0, 4181.026, 4181.026, 4086.154, 4163.59, 4176.923, 16198, 0, []
1630311244.34, 112, 0, 4185.128, 4155.385, 4100.513, 4175.897, 4193.846, 450, 0, []
1630311244.348, 113, 0, 4183.59, 4127.179, 4085.128, 4178.462, 4187.692, 450, 0, []
1630311244.3558, 114, 0, 4183.077, 4154.359, 4078.462, 4176.923, 4180.513, 450, 0, []
1630311244.3638, 115, 0, 4189.231, 4196.923, 4105.641, 4172.308, 4184.103, 16198, 0, []
1630311244.3717, 116, 0, 4188.205, 4183.59, 4078.462, 4162.051, 4186.154, 450, 0, []
1630311244.3797, 117, 0, 4180.513, 4163.077, 4091.282, 4168.205, 4179.487, 450, 0, []
1630311244.3876, 118, 0, 4181.026, 4180.513, 4100.513, 4179.487, 4168.718, 450, 0, []
1630311244.3953, 119, 0, 4186.667, 4182.564, 4078.974, 4169.744, 4165.641, 16198, 0, []
1630311244.4032, 120, 0, 4183.59, 4172.821, 4098.462, 4161.538, 4176.923, 450, 0, []
1630311244.411, 121, 0, 4173.333, 4176.41, 4090.769, 4167.179, 4186.154, 450, 0, []
1630311244.4189, 122, 0, 4175.897, 4175.385, 4093.333, 4172.308, 4177.949, 450, 0, []
1630311244.4267, 123, 0, 4185.128, 4158.462, 4092.821, 4170.769, 4161.538, 16198, 0, []
1630311244.4345, 124, 0, 4185.641, 4140, 4087.179, 4167.692, 4169.231, 450, 0, []
1630311244.4423, 125, 0, 4183.077, 4136.923, 4104.103, 4170.769, 4200, 450, 0, []
1630311244.4502, 126, 0, 4184.103, 4154.872, 4074.359, 4177.436, 4203.077, 450, 0, []
1630311244.458, 127, 0, 4188.205, 4140.513, 4080, 4178.462, 4178.462, 16198, 0, []
1630311244.466, 128, 0, 4184.103, 4094.872, 4090.256, 4162.564, 4170.769, 450, 0, []
1630311244.4738, 0, 0, 4174.359, 4124.103, 4083.077, 4158.974, 4188.205, 450, 0, []
1630311244.4817, 1, 0, 4175.385, 4171.282, 4114.359, 4179.487, 4190.256, 450, 0, []
1630311244.4896, 2, 0, 4185.641, 4131.282, 4090.256, 4179.487, 4172.308, 16187, 0, []
1630311244.4976, 3, 0, 4186.154, 4106.667, 4086.667, 4156.41, 4168.718, 450, 0, []
1630311244.5055, 4, 0, 4177.949, 4147.179, 4105.128, 4145.128, 4182.564, 16135, 0, []
1630311244.5134, 5, 0, 4186.154, 4153.846, 4080.513, 4161.026, 4192.821, 450, 0, []
1630311244.5213, 6, 0, 4202.564, 4116.41, 4092.308, 4182.564, 4184.615, 243, 0, []
1630311244.5293, 7, 0, 4198.974, 4114.872, 4089.231, 4177.436, 4172.821, 450, 0, []
1630311244.5372, 8, 0, 4178.462, 4143.59, 4094.872, 4156.41, 4172.308, 450, 0, []
1630311244.545, 9, 0, 4176.923, 4155.897, 4108.205, 4156.923, 4182.564, 16146, 0, []
1630311244.5528, 10, 0, 4195.897, 4158.974, 4087.179, 4177.949, 4200, 450, 0, []
1630311244.5606, 11, 0, 4198.974, 4134.872, 4100.513, 4180, 4202.051, 16202, 0, []
1630311244.5685, 12, 0, 4193.846, 4106.667, 4090.256, 4163.59, 4194.872, 450, 0, []
1630311244.5763, 13, 0, 4198.974, 4130.256, 4093.333, 4171.282, 4202.564, 450, 0, []
1630311244.5842, 14, 0, 4198.462, 4151.795, 4116.41, 4194.359, 4213.333, 450, 0, []
1630311244.5919, 15, 0, 4192.821, 4128.205, 4084.103, 4196.41, 4212.821, 16202, 0, []
1630311244.5998, 16, 0, 4198.462, 4131.282, 4093.333, 4180, 4212.308, 0, 0, []
1630311244.6076, 17, 0, 4204.103, 4168.718, 4101.026, 4165.641, 4216.923, 0, 0, []
1630311244.6155, 18, 0, 4201.538, 4158.462, 4096.41, 4169.231, 4219.487, 0, 0, []
1630311244.6233, 19, 0, 4198.462, 4118.462, 4104.103, 4176.923, 4215.385, 0, 0, []
1630311244.6313, 20, 0, 4190.256, 4106.667, 4068.205, 4167.179, 4195.897, 0, 0, []
1630311244.6391, 21, 0, 4181.538, 4124.103, 4090.769, 4161.026, 4185.641, 0, 0, []
1630311244.6471, 22, 0, 4180, 4153.333, 4110.256, 4172.308, 4206.667, 0, 0, []
1630311244.655, 23, 0, 4188.205, 4149.231, 4099.487, 4186.154, 4222.564, 0, 0, []
1630311244.663, 24, 0, 4206.667, 4124.103, 4124.615, 4194.872, 4218.974, 0, 0, []
1630311244.6709, 25, 0, 4221.026, 4123.077, 4108.718, 4198.462, 4214.872, 0, 0, []
1630311244.6788, 26, 0, 4220.513, 4152.308, 4108.205, 4193.846, 4215.897, 0, 0, []
1630311244.6867, 27, 0, 4211.795, 4152.308, 4107.692, 4184.615, 4217.949, 0, 0, []
1630311244.6946, 28, 0, 4206.667, 4115.385, 4094.872, 4176.923, 4214.872, 0, 0, []
1630311244.7025, 29, 0, 4208.205, 4115.385, 4110.769, 4172.821, 4199.487, 0, 0, []
1630311244.7103, 30, 0, 4209.231, 4138.462, 4086.667, 4160, 4194.872, 0, 0, []
1630311244.7181, 31, 0, 4195.897, 4147.692, 4096.41, 4144.615, 4206.667, 0, 0, []
1630311244.7259, 32, 0, 4192.821, 4152.308, 4106.154, 4155.385, 4211.795, 0, 0, []
1630311244.7338, 33, 0, 4212.821, 4147.692, 4082.051, 4180, 4210.256, 0, 0, []
1630311244.7416, 34, 0, 4218.462, 4138.462, 4104.103, 4184.615, 4211.795, 0, 0, []
1630311244.7495, 35, 0, 4205.641, 4147.692, 4097.436, 4175.897, 4226.667, 0, 0, []
1630311244.7572, 36, 0, 4203.077, 4163.59, 4103.077, 4183.077, 4249.231, 0, 0, []
1630311244.7651, 37, 0, 4205.128, 4155.897, 4110.769, 4185.641, 4245.128, 0, 0, []
1630311244.7729, 38, 0, 4201.026, 4130.256, 4085.128, 4166.154, 4217.436, 0, 0, []
1630311244.7809, 39, 0, 4197.436, 4116.923, 4111.282, 4162.051, 4214.872, 0, 0, []
1630311244.7888, 40, 0, 4194.872, 4145.128, 4105.128, 4182.051, 4236.41, 0, 0, []
1630311244.7967, 41, 0, 4191.282, 4173.333, 4092.821, 4202.564, 4237.949, 0, 0, []
1630311244.8046, 42, 0, 4193.333, 4153.333, 4103.59, 4212.308, 4224.103, 0, 0, []
1630311244.8126, 43, 0, 4184.103, 4121.026, 4096.41, 4204.103, 4222.564, 0, 0, []
1630311244.8205, 44, 0, 4166.667, 4112.821, 4117.436, 4178.974, 4230.769, 0, 0, []
1630311244.8285, 45, 0, 4172.308, 4136.923, 4095.897, 4165.128, 4235.385, 0, 0, []
1630311244.8363, 46, 0, 4197.436, 4169.231, 4088.718, 4174.359, 4234.872, 0, 0, []
1630311244.8443, 47, 0, 4208.718, 4169.744, 4110.769, 4176.41, 4232.308, 0, 0, []
1630311244.8522, 48, 0, 4199.487, 4150.769, 4083.077, 4167.179, 4232.821, 0, 0, []
1630311244.86, 49, 0, 4182.051, 4137.949, 4097.949, 4174.359, 4234.359, 0, 0, []
1630311244.8679, 50, 0, 4174.872, 4141.538, 4092.821, 4188.205, 4228.718, 0, 0, []
1630311244.8756, 51, 0, 4186.154, 4146.154, 4078.462, 4191.795, 4213.846, 0, 0, []
1630311244.8835, 52, 0, 4193.333, 4144.615, 4104.615, 4182.051, 4210.256, 0, 0, []
1630311244.8913, 53, 0, 4175.897, 4144.103, 4088.718, 4176.923, 4216.923, 0, 0, []
1630311244.8992, 54, 0, 4170.769, 4140, 4096.923, 4195.385, 4210.256, 0, 0, []
1630311244.907, 55, 0, 4183.59, 4138.462, 4096.923, 4202.051, 4194.872, 0, 0, []
1630311244.9148, 56, 0, 4180.513, 4147.179, 4085.641, 4184.615, 4188.718, 0, 0, []
1630311244.9226, 57, 0, 4170.769, 4148.205, 4100.513, 4180.513, 4202.564, 0, 0, []
1630311244.9306, 58, 0, 4183.59, 4137.436, 4082.051, 4193.846, 4223.077, 0, 0, []
1630311244.9385, 59, 0, 4194.359, 4141.026, 4096.41, 4197.436, 4215.897, 0, 0, []
1630311244.9465, 60, 0, 4191.282, 4151.795, 4096.41, 4187.179, 4206.667, 0, 0, []
1630311244.9543, 61, 0, 4183.077, 4158.462, 4085.128, 4181.538, 4225.641, 0, 0, []
1630311244.9623, 62, 0, 4174.872, 4159.487, 4116.923, 4183.59, 4230.256, 0, 0, []
1630311244.9702, 63, 0, 4182.564, 4155.385, 4094.359, 4189.744, 4215.385, 0, 0, []
1630311244.9782, 64, 0, 4187.692, 4170.256, 4098.974, 4190.256, 4210.769, 450, 0, []
1630311244.9861, 65, 0, 4170.769, 4173.333, 4110.769, 4180, 4212.308, 450, 0, []
1630311244.9941, 66, 0, 4162.564, 4152.308, 4082.564, 4182.051, 4208.718, 16187, 0, []
1630311245.0019, 67, 0, 4178.974, 4167.692, 4094.359, 4198.462, 4203.59, 450, 0, []
1630311245.0098, 68, 0, 4189.744, 4193.333, 4084.615, 4200, 4197.949, 16128, 0, []
1630311245.0177, 69, 0, 4178.462, 4175.897, 4096.923, 4187.179, 4201.026, 450, 0, []
1630311245.0255, 70, 0, 4156.923, 4168.718, 4105.641, 4175.385, 4197.949, 234, 0, []
1630311245.0334, 71, 0, 4149.744, 4188.718, 4076.923, 4174.359, 4183.077, 450, 0, []
1630311245.0411, 72, 0, 4174.359, 4186.154, 4109.231, 4192.308, 4193.333, 450, 0, []
1630311245.049, 73, 0, 4195.385, 4178.462, 4110.769, 4194.872, 4213.333, 16144, 0, []
1630311245.0568, 74, 0, 4182.051, 4185.641, 4096.923, 4170.769, 4201.538, 450, 0, []
1630311245.0647, 75, 0, 4171.282, 4174.359, 4096.923, 4177.436, 4190.256, 16201, 0, []
1630311245.0725, 76, 0, 4187.692, 4164.103, 4080, 4207.179, 4198.974, 450, 0, []
1630311245.0803, 77, 0, 4190.256, 4188.205, 4108.718, 4201.026, 4202.051, 450, 0, []
1630311245.0881, 78, 0, 4170.256, 4211.282, 4106.154, 4173.846, 4202.051, 450, 0, []
1630311245.0961, 79, 0, 4165.128, 4193.333, 4099.487, 4172.308, 4199.487, 16201, 0, []
1630311245.104, 80, 0, 4171.795, 4173.846, 4105.128, 4179.487, 4181.026, 450, 0, []
1630311245.112, 81, 0, 4171.282, 4193.846, 4081.538, 4178.462, 4175.897, 450, 0, []
1630311245.1198, 82, 0, 4170.769, 4216.923, 4110.256, 4181.538, 4182.564, 450, 0, []
1630311245.1278, 83, 0, 4168.718, 4205.641, 4103.077, 4182.051, 4176.923, 16201, 0, []
1630311245.1357, 84, 0, 4165.641, 4175.385, 4082.051, 4180.513, 4173.333, 450, 0, []
1630311245.1437, 85, 0, 4170.256, 4172.308, 4102.051, 4187.179, 4177.436, 450, 0, []
1630311245.1516, 86, 0, 4163.59, 4189.231, 4082.564, 4177.949, 4172.308, 450, 0, []
1630311245.1595, 87, 0, 4146.667, 4179.487, 4090.769, 4158.462, 4166.667, 16201, 0, []
1630311245.1674, 88, 0, 4153.333, 4163.59, 4089.231, 4162.564, 4172.821, 450, 0, []
1630311245.1754, 89, 0, 4173.333, 4186.667, 4083.59, 4182.051, 4170.256, 450, 0, []
1630311245.1833, 90, 0, 4168.205, 4214.359, 4106.154, 4174.872, 4163.077, 450, 0, []
1630311245.1911, 91, 0, 4149.231, 4188.205, 4083.077, 4158.462, 4174.872, 16201, 0, []
1630311245.1989, 92, 0, 4152.308, 4150.256, 4093.333, 4176.41, 4188.205, 450, 0, []
1630311245.2067, 93, 0, 4172.308, 4163.077, 4093.846, 4192.821, 4180.513, 450, 0, []
1630311245.2146, 94, 0, 4177.949, 4193.333, 4073.333, 4175.385, 4175.385, 450, 0, []
1630311245.2224, 95, 0, 4157.436, 4177.436, 4093.846, 4163.59, 4187.179, 16201, 0, []
1630311245.2303, 96, 0, 4138.974, 4142.564, 4078.974, 4173.333, 4182.051, 450, 0, []
1630311245.238, 97, 0, 4144.103, 4154.359, 4095.897, 4181.026, 4160, 450, 0, []
1630311245.246, 98, 0, 4156.923, 4179.487, 4109.744, 4170.769, 4158.462, 450, 0, []
1630311245.2539, 99, 0, 4154.872, 4167.692, 4083.077, 4157.436, 4170.769, 16201, 0, []
1630311245.2619, 100, 0, 4150.256, 4155.385, 4101.538, 4164.103, 4175.385, 450, 0, []
1630311245.2698, 101, 0, 4154.872, 4170.256, 4092.308, 4178.462, 4163.59, 450, 0, []
1630311245.2777, 102, 0, 4156.41, 4173.333, 4089.744, 4177.436, 4151.795, 450, 0, []
1630311245.2856, 103, 0, 4152.821, 4156.923, 4095.385, 4168.205, 4163.077, 16201, 0, []
1630311245.2936, 104, 0, 4149.744, 4153.846, 4081.538, 4166.667, 4170.769, 450, 0, []
1630311245.3015, 105, 0, 4158.462, 4167.692, 4098.974, 4175.385, 4155.897, 450, 0, []
1630311245.3095, 106, 0, 4169.231, 4192.308, 4081.538, 4175.385, 4146.667, 450, 0, []
1630311245.3173, 107, 0, 4163.077, 4202.564, 4087.692, 4160, 4153.846, 16201, 0, []
1630311245.3253, 108, 0, 4147.692, 4182.051, 4104.103, 4148.205, 4155.897, 450, 0, []
1630311245.3332, 109, 0, 4152.821, 4180, 4082.051, 4164.615, 4156.41, 450, 0, []
1630311245.341, 110, 0, 4171.795, 4210.769, 4110.256, 4188.718, 4160, 450, 0, []
1630311245.3489, 111, 0, 4169.231, 4221.538, 4104.103, 4181.538, 4154.872, 16201, 0, []
1630311245.3567, 112, 0, 4152.821, 4210.769, 4087.692, 4167.179, 4153.333, 450, 0, []
1630311245.3645, 113, 0, 4148.205, 4214.872, 4096.923, 4168.205, 4150.769, 450, 0, []
1630311245.3723, 114, 0, 4151.282, 4206.154, 4077.436, 4166.154, 4136.923, 450, 0, []
1630311245.3802, 115, 0, 4153.333, 4200, 4100.513, 4156.41, 4133.333, 16201, 0, []
1630311245.388, 116, 0, 4158.462, 4221.026, 4095.897, 4152.821, 4150.769, 450, 0, []
1630311245.3959, 117, 0, 4169.231, 4226.154, 4084.615, 4173.846, 4158.974, 450, 0, []
1630311245.4036, 118, 0, 4178.974, 4222.051, 4101.538, 4186.154, 4143.59, 450, 0, []
1630311245.4116, 119, 0, 4177.949, 4240, 4076.41, 4165.641, 4138.974, 16201, 0, []
1630311245.4195, 120, 0, 4171.795, 4250.256, 4099.487, 4155.897, 4151.795, 450, 0, []
1630311245.4275, 121, 0, 4180.513, 4243.077, 4108.718, 4176.923, 4156.41, 450, 0, []
1630311245.4354, 122, 0, 4188.718, 4258.974, 4084.103, 4190.769, 4145.641, 450, 0, []
1630311245.4433, 123, 0, 4173.846, 4270.769, 4091.282, 4181.026, 4135.385, 16201, 0, []
1630311245.4512, 124, 0, 4155.897, 4253.846, 4078.462, 4164.103, 4140, 450, 0, []
1630311245.4592, 125, 0, 4155.897, 4241.538, 4098.462, 4162.051, 4157.436, 450, 0, []
1630311245.4671, 126, 0, 4160, 4244.615, 4092.308, 4170.769, 4164.103, 450, 0, []
1630311245.4749, 127, 0, 4157.949, 4250.769, 4062.051, 4160, 4139.487, 16201, 0, []
1630311245.4827, 128, 0, 4149.744, 4242.564, 4087.692, 4138.974, 4114.872, 450, 0, []
1630311245.4906, 0, 0, 4148.205, 4232.821, 4087.692, 4147.179, 4128.205, 450, 0, []
1630311245.4985, 1, 0, 4157.949, 4242.051, 4098.462, 4168.205, 4141.026, 450, 0, []
1630311245.5065, 2, 0, 4161.026, 4255.897, 4092.821, 4161.026, 4124.103, 16189, 0, []
1630311245.5144, 3, 0, 4157.436, 4247.179, 4072.308, 4148.718, 4119.487, 450, 0, []
1630311245.5221, 4, 0, 4159.487, 4224.103, 4095.385, 4164.103, 4139.487, 16128, 0, []
1630311245.53, 5, 0, 4167.692, 4200, 4070.256, 4183.077, 4146.154, 450, 0, []
1630311245.5378, 6, 0, 4178.462, 4205.128, 4074.359, 4179.487, 4140, 234, 0, []
1630311245.5457, 7, 0, 4180, 4242.051, 4100.513, 4159.487, 4142.564, 450, 0, []
1630311245.5535, 8, 0, 4161.026, 4250.256, 4073.333, 4137.436, 4135.897, 450, 0, []
1630311245.5614, 9, 0, 4145.641, 4236.923, 4072.308, 4135.385, 4117.436, 16146, 0, []
1630311245.5693, 10, 0, 4156.41, 4241.538, 4063.077, 4147.692, 4117.949, 450, 0, []
1630311245.5773, 11, 0, 4161.538, 4254.359, 4072.821, 4152.821, 4134.359, 16202, 0, []
1630311245.5852, 12, 0, 4149.744, 4252.308, 4081.538, 4154.359, 4142.564, 450, 0, []
1630311245.5932, 13, 0, 4157.436, 4243.59, 4052.821, 4167.692, 4142.051, 450, 0, []
1630311245.601, 14, 0, 4172.821, 4248.205, 4078.462, 4176.41, 4143.077, 450, 0, []
1630311245.609, 15, 0, 4156.41, 4262.051, 4074.872, 4152.308, 4137.436, 16202, 0, []
1630311245.6169, 16, 0, 4130.256, 4261.538, 4056.41, 4130.256, 4124.615, 0, 0, []
1630311245.6249, 17, 0, 4143.59, 4256.923, 4067.179, 4147.692, 4122.564, 0, 0, []
1630311245.6328, 18, 0, 4166.154, 4266.667, 4057.436, 4167.179, 4124.615, 0, 0, []
1630311245.6405, 19, 0, 4148.718, 4258.462, 4083.077, 4153.846, 4122.051, 0, 0, []
1630311245.6484, 20, 0, 4129.231, 4247.692, 4070.769, 4140.513, 4122.051, 0, 0, []
1630311245.6562, 21, 0, 4151.282, 4267.692, 4055.897, 4158.462, 4127.179, 0, 0, []
1630311245.6641, 22, 0, 4172.821, 4283.59, 4088.205, 4164.615, 4127.692, 0, 0, []
1630311245.6719, 23, 0, 4155.385, 4277.436, 4073.333, 4136.923, 4127.692, 0, 0, []
1630311245.6798, 24, 0, 4132.821, 4273.333, 4073.846, 4129.231, 4128.205, 0, 0, []
1630311245.6875, 25, 0, 4141.538, 4283.59, 4068.718, 4148.205, 4121.026, 0, 0, []
1630311245.6954, 26, 0, 4154.872, 4294.872, 4065.128, 4153.333, 4114.359, 0, 0, []
1630311245.7032, 27, 0, 4151.282, 4295.385, 4090.256, 4146.667, 4118.462, 0, 0, []
1630311245.7112, 28, 0, 4145.641, 4272.821, 4068.205, 4149.744, 4125.128, 0, 0, []
1630311245.7191, 29, 0, 4142.564, 4254.359, 4074.359, 4147.179, 4115.385, 0, 0, []
1630311245.727, 30, 0, 4141.026, 4269.744, 4079.487, 4131.795, 4106.667, 0, 0, []
1630311245.7349, 31, 0, 4132.308, 4270.769, 4068.718, 4129.744, 4118.462, 0, 0, []
1630311245.7429, 32, 0, 4123.59, 4248.205, 4090.769, 4143.59, 4125.641, 0, 0, []
1630311245.7508, 33, 0, 4130.256, 4255.385, 4076.41, 4147.179, 4114.359, 0, 0, []
1630311245.7588, 34, 0, 4133.846, 4268.205, 4089.231, 4134.359, 4107.179, 0, 0, []
1630311245.7666, 35, 0, 4122.564, 4251.282, 4094.872, 4125.128, 4110.256, 0, 0, []
1630311245.7746, 36, 0, 4123.59, 4254.872, 4079.487, 4132.308, 4108.205, 0, 0, []
1630311245.7825, 37, 0, 4140.513, 4279.487, 4105.641, 4146.154, 4112.821, 0, 0, []
1630311245.7903, 38, 0, 4138.462, 4269.744, 4088.718, 4149.744, 4130.769, 0, 0, []
1630311245.7982, 39, 0, 4128.718, 4252.821, 4097.949, 4154.872, 4139.487, 0, 0, []
1630311245.8059, 40, 0, 4145.128, 4268.205, 4113.846, 4172.821, 4135.385, 0, 0, []
1630311245.8138, 41, 0, 4167.692, 4289.231, 4096.923, 4182.051, 4141.538, 0, 0, []
1630311245.8216, 42, 0, 4162.051, 4279.487, 4122.564, 4168.718, 4156.41, 0, 0, []
1630311245.8295, 43, 0, 4147.179, 4254.872, 4109.231, 4156.923, 4160.513, 0, 0, []
1630311245.8373, 44, 0, 4162.051, 4246.154, 4108.205, 4171.282, 4156.923, 0, 0, []
1630311245.8451, 45, 0, 4175.385, 4236.41, 4123.59, 4177.436, 4156.41, 0, 0, []
1630311245.8529, 46, 0, 4154.872, 4229.744, 4097.436, 4157.436, 4157.949, 0, 0, []
1630311245.8608, 47, 0, 4143.077, 4229.231, 4112.308, 4148.718, 4155.385, 0, 0, []
1630311245.8686, 48, 0, 4157.436, 4211.282, 4100, 4156.923, 4147.179, 0, 0, []
1630311245.8766, 49, 0, 4163.077, 4197.436, 4094.872, 4160.513, 4145.128, 0, 0, []
1630311245.8844, 50, 0, 4153.846, 4206.667, 4113.846, 4152.821, 4152.821, 0, 0, []
1630311245.8924, 51, 0, 4148.718, 4205.128, 4084.103, 4147.179, 4153.846, 0, 0, []
1630311245.9003, 52, 0, 4152.821, 4198.462, 4094.359, 4150.769, 4144.103, 0, 0, []
1630311245.9083, 53, 0, 4164.103, 4205.128, 4103.077, 4148.205, 4145.128, 0, 0, []
1630311245.9162, 54, 0, 4170.256, 4212.308, 4105.128, 4149.231, 4164.615, 0, 0, []
1630311245.9241, 55, 0, 4167.692, 4229.231, 4116.41, 4166.154, 4169.744, 0, 0, []
1630311245.932, 56, 0, 4167.692, 4234.359, 4090.256, 4169.231, 4143.077, 0, 0, []
1630311245.9398, 57, 0, 4171.795, 4220, 4104.615, 4154.872, 4132.821, 0, 0, []
1630311245.9477, 58, 0, 4175.897, 4235.897, 4095.385, 4149.744, 4161.538, 0, 0, []
1630311245.9555, 59, 0, 4181.538, 4258.974, 4075.897, 4156.41, 4167.692, 0, 0, []
1630311245.9633, 60, 0, 4180.513, 4241.538, 4089.744, 4153.333, 4128.205, 0, 0, []
1630311245.9711, 61, 0, 4171.795, 4216.923, 4066.154, 4138.974, 4111.282, 0, 0, []
1630311245.979, 62, 0, 4160, 4223.59, 4082.051, 4139.487, 4134.872, 0, 0, []
1630311245.9868, 63, 0, 4152.821, 4227.179, 4087.179, 4151.795, 4137.949, 0, 0, []
1630311245.9947, 64, 0, 4162.564, 4210.256, 4069.744, 4151.795, 4119.487, 450, 0, []
1630311246.0024, 65, 0, 4171.282, 4193.333, 4098.462, 4145.641, 4129.231, 450, 0, []
1630311246.0103, 66, 0, 4150.256, 4194.872, 4087.692, 4145.641, 4148.205, 16188, 0, []
1630311246.0181, 67, 0, 4129.231, 4212.308, 4091.282, 4147.179, 4132.821, 450, 0, []
1630311246.0261, 68, 0, 4135.897, 4211.282, 4084.103, 4135.897, 4103.077, 16129, 0, []
1630311246.034, 69, 0, 4137.436, 4192.308, 4060.513, 4122.564, 4105.641, 450, 0, []
1630311246.042, 70, 0, 4133.333, 4188.718, 4096.41, 4136.41, 4131.795, 231, 0, []
1630311246.0498, 71, 0, 4150.769, 4189.744, 4085.641, 4164.103, 4143.077, 450, 0, []
1630311246.0578, 72, 0, 4171.282, 4183.077, 4077.949, 4169.231, 4141.538, 450, 0, []
1630311246.0657, 73, 0, 4175.385, 4178.462, 4089.744, 4147.692, 4152.821, 16142, 0, []
1630311246.0737, 74, 0, 4174.359, 4176.923, 4076.41, 4132.821, 4160.513, 450, 0, []
1630311246.0816, 75, 0, 4185.641, 4200, 4094.872, 4148.205, 4151.282, 16203, 0, []
1630311246.0895, 76, 0, 4206.667, 4233.846, 4084.615, 4168.205, 4149.744, 450, 0, []
1630311246.0974, 77, 0, 4206.154, 4230.769, 4086.154, 4165.641, 4159.487, 450, 0, []
1630311246.1052, 78, 0, 4177.436, 4207.692, 4088.718, 4152.308, 4164.103, 450, 0, []
1630311246.1131, 79, 0, 4171.795, 4207.179, 4063.077, 4162.564, 4169.744, 16203, 0, []
1630311246.1209, 80, 0, 4189.744, 4211.282, 4090.769, 4183.077, 4169.231, 450, 0, []
1630311246.1287, 81, 0, 4178.974, 4199.487, 4082.564, 4164.615, 4155.385, 450, 0, []
1630311246.1365, 82, 0, 4155.385, 4181.026, 4070.256, 4135.385, 4144.615, 450, 0, []
1630311246.1444, 83, 0, 4161.026, 4182.051, 4085.641, 4146.154, 4152.308, 16203, 0, []
1630311246.1522, 84, 0, 4184.615, 4208.205, 4071.282, 4169.744, 4169.231, 450, 0, []
1630311246.1602, 85, 0, 4211.795, 4210.769, 4092.821, 4168.205, 4191.795, 450, 0, []
1630311246.168, 86, 0, 4254.359, 4200, 4090.256, 4158.974, 4232.821, 450, 0, []
1630311246.176, 87, 0, 4308.718, 4212.308, 4086.154, 4171.795, 4297.949, 16203, 0, []
1630311246.1839, 88, 0, 4359.487, 4207.179, 4101.026, 4178.974, 4361.538, 450, 0, []
1630311246.1919, 89, 0, 4403.077, 4184.615, 4073.846, 4168.718, 4412.821, 450, 0, []
1630311246.1998, 90, 0, 4443.59, 4202.051, 4093.846, 4181.026, 4460.513, 450, 0, []
1630311246.2077, 91, 0, 4469.231, 4226.667, 4098.462, 4203.59, 4489.744, 16203, 0, []
1630311246.2156, 92, 0, 4470.256, 4208.205, 4086.154, 4201.538, 4492.821, 450, 0, []
1630311246.2236, 93, 0, 4455.385, 4191.282, 4105.641, 4191.795, 4482.564, 450, 0, []
1630311246.2315, 94, 0, 4431.282, 4202.564, 4080, 4189.231, 4464.615, 450, 0, []
1630311246.2395, 95, 0, 4411.282, 4206.667, 4091.795, 4197.949, 4443.077, 16203, 0, []
1630311246.2473, 96, 0, 4402.564, 4197.949, 4103.077, 4209.231, 4430.256, 450, 0, []
1630311246.2553, 97, 0, 4386.154, 4185.641, 4081.026, 4196.41, 4402.051, 450, 0, []
1630311246.2632, 98, 0, 4358.974, 4176.923, 4093.333, 4170.769, 4361.026, 450, 0, []
1630311246.271, 99, 0, 4348.205, 4190.769, 4087.692, 4172.308, 4353.333, 16203, 0, []
1630311246.2789, 100, 0, 4338.462, 4210.256, 4097.436, 4184.615, 4347.179, 450, 0, []
1630311246.2866, 101, 0, 4304.615, 4206.154, 4086.667, 4173.333, 4307.692, 450, 0, []
1630311246.2945, 102, 0, 4272.821, 4194.359, 4065.128, 4156.923, 4285.128, 450, 0, []
1630311246.3023, 103, 0, 4268.205, 4194.359, 4091.795, 4159.487, 4292.821, 16203, 0, []
1630311246.3102, 104, 0, 4273.846, 4203.59, 4077.436, 4173.333, 4286.667, 450, 0, []
1630311246.318, 105, 0, 4269.231, 4205.641, 4089.744, 4182.051, 4265.641, 450, 0, []
1630311246.3258, 106, 0, 4257.949, 4202.051, 4105.641, 4172.821, 4247.692, 450, 0, []
1630311246.3336, 107, 0, 4250.769, 4205.128, 4081.538, 4154.872, 4232.821, 16203, 0, []
1630311246.3416, 108, 0, 4243.59, 4208.718, 4105.641, 4154.872, 4230.256, 450, 0, []
1630311246.3495, 109, 0, 4232.821, 4200.513, 4088.718, 4167.692, 4231.282, 450, 0, []
1630311246.3575, 110, 0, 4227.179, 4193.333, 4068.718, 4178.462, 4215.897, 450, 0, []
1630311246.3653, 111, 0, 4228.718, 4208.718, 4084.103, 4175.897, 4196.923, 16203, 0, []
1630311246.3733, 112, 0, 4228.718, 4230.769, 4086.154, 4164.615, 4195.385, 450, 0, []
1630311246.3812, 113, 0, 4224.615, 4224.615, 4109.744, 4164.615, 4209.744, 450, 0, []
1630311246.3892, 114, 0, 4227.179, 4197.436, 4092.308, 4175.897, 4218.974, 450, 0, []
1630311246.3971, 115, 0, 4229.744, 4196.41, 4083.077, 4180, 4200.513, 16203, 0, []
1630311246.4051, 116, 0, 4218.462, 4229.744, 4100, 4171.282, 4167.692, 450, 0, []
1630311246.4129, 117, 0, 4209.231, 4245.128, 4091.795, 4171.795, 4166.667, 450, 0, []
1630311246.4207, 118, 0, 4219.487, 4236.41, 4121.026, 4192.308, 4197.436, 450, 0, []
1630311246.4286, 119, 0, 4231.795, 4228.718, 4109.231, 4205.128, 4208.205, 16203, 0, []
1630311246.4364, 120, 0, 4226.154, 4228.205, 4091.795, 4196.923, 4181.538, 450, 0, []
1630311246.4443, 121, 0, 4214.359, 4248.205, 4116.41, 4182.051, 4168.205, 450, 0, []
1630311246.452, 122, 0, 4204.103, 4256.41, 4096.41, 4176.41, 4182.051, 450, 0, []
1630311246.4599, 123, 0, 4201.026, 4233.333, 4102.564, 4185.641, 4190.256, 16203, 0, []
1630311246.4677, 124, 0, 4205.128, 4236.41, 4095.897, 4191.282, 4185.128, 450, 0, []
1630311246.4756, 125, 0, 4204.103, 4265.128, 4082.051, 4180.513, 4168.205, 450, 0, []
1630311246.4835, 126, 0, 4201.026, 4261.538, 4107.692, 4169.231, 4154.872, 450, 0, []
1630311246.4913, 127, 0, 4203.59, 4245.128, 4095.385, 4174.872, 4161.538, 16203, 0, []
1630311246.4991, 128, 0, 4211.282, 4246.667, 4102.051, 4193.333, 4167.179, 450, 0, []
1630311246.5071, 0, 0, 4220, 4251.282, 4096.923, 4202.051, 4156.41, 450, 0, []
1630311246.515, 1, 0, 4222.051, 4256.41, 4084.615, 4193.846, 4148.718, 450, 0, []
1630311246.523, 2, 0, 4210.256, 4258.974, 4108.205, 4174.359, 4144.615, 16181, 0, []
1630311246.5308, 3, 0, 4194.359, 4248.205, 4081.026, 4161.538, 4130.256, 450, 0, []
1630311246.5388, 4, 0, 4183.077, 4241.026, 4080.513, 4162.564, 4111.282, 16134, 0, []
1630311246.5467, 5, 0, 4182.051, 4251.795, 4091.795, 4164.103, 4099.487, 450, 0, []
1630311246.5547, 6, 0, 4194.872, 4248.718, 4085.641, 4166.154, 4108.205, 239, 0, []
1630311246.5626, 7, 0, 4200, 4228.205, 4113.846, 4172.308, 4121.538, 450, 0, []
1630311246.5703, 8, 0, 4194.872, 4235.897, 4098.462, 4173.333, 4118.462, 450, 0, []
1630311246.5782, 9, 0, 4197.949, 4257.949, 4095.385, 4175.897, 4115.897, 16132, 0, []
1630311246.586, 10, 0, 4205.128, 4256.923, 4102.564, 4182.564, 4120, 450, 0, []
1630311246.5939, 11, 0, 4205.128, 4251.795, 4092.821, 4172.821, 4122.051, 16209, 0, []
1630311246.6017, 12, 0, 4196.41, 4253.846, 4110.256, 4164.615, 4122.051, 450, 0, []
1630311246.6095, 13, 0, 4195.385, 4255.385, 4084.615, 4177.949, 4122.564, 450, 0, []
1630311246.6173, 14, 0, 4213.333, 4269.231, 4093.333, 4196.41, 4121.538, 450, 0, []
1630311246.6252, 15, 0, 4223.077, 4277.949, 4116.923, 4198.974, 4120, 16209, 0, []
1630311246.633, 16, 0, 4203.59, 4262.051, 4085.641, 4193.333, 4119.487, 0, 0, []
1630311246.641, 17, 0, 4185.128, 4245.641, 4103.077, 4197.949, 4124.103, 0, 0, []
1630311246.6488, 18, 0, 4184.615, 4243.59, 4100, 4200.513, 4124.615, 0, 0, []
1630311246.6568, 19, 0, 4185.128, 4249.744, 4085.641, 4192.308, 4108.205, 0, 0, []
1630311246.6647, 20, 0, 4185.128, 4250.256, 4097.436, 4180.513, 4105.641, 0, 0, []
1630311246.6727, 21, 0, 4186.154, 4231.795, 4084.103, 4179.487, 4122.051, 0, 0, []
1630311246.6806, 22, 0, 4183.59, 4225.641, 4101.026, 4190.769, 4116.41, 0, 0, []
1630311246.6885, 23, 0, 4190.256, 4243.077, 4096.41, 4193.333, 4100, 0, 0, []
1630311246.6964, 24, 0, 4201.538, 4245.641, 4100, 4181.538, 4113.846, 0, 0, []
1630311246.7044, 25, 0, 4203.077, 4252.308, 4120.513, 4184.103, 4138.974, 0, 0, []
1630311246.7123, 26, 0, 4196.41, 4270.769, 4087.692, 4195.385, 4141.026, 0, 0, []
1630311246.7203, 27, 0, 4198.974, 4265.641, 4105.128, 4190.769, 4128.718, 0, 0, []
1630311246.7281, 28, 0, 4214.872, 4267.692, 4118.462, 4180.513, 4125.641, 0, 0, []
1630311246.7359, 29, 0, 4218.974, 4294.872, 4105.641, 4180.513, 4136.41, 0, 0, []
1630311246.7438, 30, 0, 4201.538, 4290.256, 4110.256, 4185.641, 4146.154, 0, 0, []
1630311246.7516, 31, 0, 4183.59, 4266.154, 4081.538, 4182.051, 4136.923, 0, 0, []
1630311246.7595, 32, 0, 4185.128, 4278.974, 4102.051, 4175.897, 4121.026, 0, 0, []
1630311246.7673, 33, 0, 4188.205, 4283.077, 4110.769, 4166.667, 4117.949, 0, 0, []
1630311246.7751, 34, 0, 4176.41, 4261.026, 4083.077, 4162.564, 4122.564, 0, 0, []
1630311246.7829, 35, 0, 4174.359, 4258.974, 4098.974, 4175.897, 4125.128, 0, 0, []
1630311246.7908, 36, 0, 4186.667, 4271.282, 4089.744, 4186.154, 4119.487, 0, 0, []
1630311246.7986, 37, 0, 4187.179, 4274.872, 4094.872, 4180, 4110.256, 0, 0, []
1630311246.8066, 38, 0, 4185.641, 4269.231, 4095.897, 4173.846, 4121.538, 0, 0, []
1630311246.8144, 39, 0, 4196.41, 4262.051, 4085.128, 4190.769, 4147.179, 0, 0, []
1630311246.8224, 40, 0, 4200.513, 4262.051, 4102.564, 4200.513, 4143.59, 0, 0, []
1630311246.8303, 41, 0, 4185.641, 4267.692, 4081.538, 4180, 4116.923, 0, 0, []
1630311246.8383, 42, 0, 4167.179, 4263.59, 4097.949, 4171.282, 4117.436, 0, 0, []
1630311246.8462, 43, 0, 4160.513, 4254.872, 4112.308, 4189.231, 4141.538, 0, 0, []
1630311246.8541, 44, 0, 4168.205, 4246.667, 4077.436, 4192.821, 4143.077, 0, 0, []
1630311246.862, 45, 0, 4176.923, 4247.179, 4091.282, 4173.846, 4129.231, 0, 0, []
1630311246.87, 46, 0, 4184.103, 4245.641, 4093.333, 4167.179, 4138.462, 0, 0, []
1630311246.8779, 47, 0, 4194.359, 4229.744, 4109.744, 4182.564, 4155.897, 0, 0, []
1630311246.8857, 48, 0, 4204.103, 4238.462, 4120, 4195.385, 4155.385, 0, 0, []
1630311246.8935, 49, 0, 4211.795, 4258.974, 4084.615, 4189.231, 4147.692, 0, 0, []
1630311246.9013, 50, 0, 4207.179, 4247.692, 4094.872, 4167.179, 4142.564, 0, 0, []
1630311246.9092, 51, 0, 4187.692, 4225.641, 4083.077, 4151.282, 4138.974, 0, 0, []
1630311246.917, 52, 0, 4177.949, 4224.103, 4079.487, 4166.667, 4137.436, 0, 0, []
1630311246.9249, 53, 0, 4187.179, 4240.513, 4103.077, 4185.128, 4132.821, 0, 0, []
1630311246.9326, 54, 0, 4194.872, 4253.333, 4092.821, 4171.282, 4136.41, 0, 0, []
1630311246.9405, 55, 0, 4178.462, 4244.103, 4106.667, 4153.333, 4137.949, 0, 0, []
1630311246.9483, 56, 0, 4167.179, 4235.897, 4095.385, 4160.513, 4122.051, 0, 0, []
1630311246.9563, 57, 0, 4187.692, 4260, 4095.897, 4177.436, 4111.795, 0, 0, []
1630311246.9642, 58, 0, 4196.41, 4271.795, 4113.846, 4174.872, 4117.436, 0, 0, []
1630311246.9721, 59, 0, 4169.231, 4246.154, 4073.846, 4163.59, 4125.128, 0, 0, []
1630311246.98, 60, 0, 4160, 4229.744, 4077.436, 4172.821, 4123.077, 0, 0, []
1630311246.988, 61, 0, 4185.641, 4246.154, 4088.205, 4184.103, 4113.846, 0, 0, []
1630311246.9959, 62, 0, 4189.744, 4262.564, 4088.718, 4175.897, 4116.41, 0, 0, []
1630311247.0039, 63, 0, 4170.769, 4247.179, 4103.077, 4166.667, 4130.256, 0, 0, []
1630311247.0117, 64, 0, 4171.795, 4235.385, 4075.385, 4166.667, 4124.615, 450, 0, []
1630311247.0197, 65, 0, 4186.667, 4246.667, 4095.897, 4164.615, 4102.564, 450, 0, []
1630311247.0276, 66, 0, 4191.795, 4242.564, 4110.769, 4153.846, 4103.59, 16181, 0, []
1630311247.0354, 67, 0, 4193.846, 4227.692, 4090.769, 4152.308, 4121.538, 450, 0, []
1630311247.0433, 68, 0, 4202.564, 4229.744, 4105.128, 4172.821, 4126.154, 16132, 0, []
1630311247.051, 69, 0, 4194.872, 4237.949, 4087.179, 4178.462, 4109.231, 450, 0, []
1630311247.0589, 70, 0, 4175.897, 4247.179, 4097.436, 4161.026, 4100.513, 231, 0, []
1630311247.0667, 71, 0, 4168.205, 4245.128, 4099.487, 4153.333, 4112.308, 450, 0, []
1630311247.0746, 72, 0, 4169.231, 4229.231, 4070.769, 4158.974, 4110.256, 450, 0, []
1630311247.0824, 73, 0, 4168.205, 4242.564, 4093.846, 4161.026, 4088.205, 16135, 0, []
1630311247.0903, 74, 0, 4167.179, 4260, 4092.821, 4156.41, 4092.308, 450, 0, []
1630311247.098, 75, 0, 4171.795, 4245.641, 4106.154, 4167.179, 4124.615, 16198, 0, []
1630311247.1059, 76, 0, 4172.308, 4242.564, 4107.692, 4175.385, 4123.077, 450, 0, []
1630311247.1137, 77, 0, 4173.333, 4250.769, 4077.436, 4156.41, 4102.051, 450, 0, []
1630311247.1217, 78, 0, 4187.692, 4249.744, 4099.487, 4147.179, 4118.462, 450, 0, []
1630311247.1296, 79, 0, 4211.282, 4248.205, 4092.821, 4173.333, 4149.744, 16198, 0, []
1630311247.1375, 80, 0, 4220.513, 4241.538, 4089.744, 4186.667, 4146.154, 450, 0, []
1630311247.1454, 81, 0, 4201.538, 4251.795, 4091.795, 4161.538, 4127.692, 450, 0, []
1630311247.1534, 82, 0, 4175.897, 4269.231, 4074.359, 4148.718, 4129.231, 450, 0, []
1630311247.1613, 83, 0, 4171.282, 4238.974, 4101.538, 4165.128, 4125.641, 16198, 0, []
1630311247.1693, 84, 0, 4180, 4210.769, 4087.692, 4167.179, 4106.667, 450, 0, []
1630311247.1771, 85, 0, 4191.282, 4243.077, 4084.103, 4152.821, 4104.103, 450, 0, []
1630311247.1851, 86, 0, 4200, 4262.051, 4114.359, 4152.821, 4126.154, 450, 0, []
1630311247.193, 87, 0, 4195.385, 4226.667, 4094.872, 4166.154, 4134.872, 16198, 0, []
1630311247.2008, 88, 0, 4189.744, 4212.308, 4100, 4172.821, 4115.897, 450, 0, []
1630311247.2087, 89, 0, 4189.744, 4234.359, 4094.872, 4161.026, 4109.231, 450, 0, []
1630311247.2164, 90, 0, 4176.41, 4229.744, 4092.308, 4146.667, 4122.051, 450, 0, []
1630311247.2243, 91, 0, 4164.615, 4201.026, 4109.231, 4156.923, 4126.154, 16198, 0, []
1630311247.2321, 92, 0, 4173.333, 4214.359, 4079.487, 4171.282, 4113.333, 450, 0, []
1630311247.24, 93, 0, 4169.231, 4261.538, 4084.615, 4161.026, 4106.667, 450, 0, []
1630311247.2478, 94, 0, 4150.256, 4264.103, 4088.718, 4152.308, 4122.051, 450, 0, []
1630311247.2556, 95, 0, 4152.308, 4228.205, 4084.615, 4165.641, 4129.744, 16198, 0, []
1630311247.2634, 96, 0, 4163.59, 4228.718, 4097.949, 4171.795, 4120.513, 450, 0, []
1630311247.2714, 97, 0, 4165.641, 4252.821, 4080, 4158.974, 4126.154, 450, 0, []
1630311247.2793, 98, 0, 4164.615, 4236.41, 4107.179, 4165.128, 4145.128, 450, 0, []
1630311247.2873, 99, 0, 4171.282, 4210.256, 4111.282, 4181.538, 4144.615, 16198, 0, []
1630311247.2951, 100, 0, 4178.462, 4230.256, 4087.692, 4175.897, 4125.128, 450, 0, []
1630311247.3031, 101, 0, 4174.872, 4250.769, 4101.538, 4158.974, 4114.359, 450, 0, []
1630311247.311, 102, 0, 4165.128, 4232.308, 4077.949, 4157.436, 4120, 450, 0, []
1630311247.319, 103, 0, 4164.615, 4219.487, 4094.359, 4174.359, 4124.103, 16198, 0, []
1630311247.3269, 104, 0, 4180, 4228.718, 4111.282, 4178.462, 4120, 450, 0, []
1630311247.3348, 105, 0, 4188.718, 4227.692, 4084.103, 4161.538, 4118.462, 450, 0, []
1630311247.3427, 106, 0, 4184.103, 4206.667, 4093.846, 4155.385, 4124.615, 450, 0, []
1630311247.3505, 107, 0, 4188.718, 4201.026, 4083.077, 4164.615, 4125.128, 16198, 0, []
1630311247.3584, 108, 0, 4205.128, 4221.538, 4093.846, 4170.769, 4112.308, 450, 0, []
1630311247.3662, 109, 0, 4206.154, 4226.154, 4106.154, 4165.128, 4104.615, 450, 0, []
1630311247.374, 110, 0, 4187.179, 4200.513, 4094.359, 4160.513, 4118.974, 450, 0, []
1630311247.3818, 111, 0, 4176.923, 4189.744, 4113.846, 4162.564, 4127.692, 16198, 0, []
1630311247.3897, 112, 0, 4184.103, 4214.872, 4087.179, 4167.692, 4113.846, 450, 0, []
1630311247.3975, 113, 0, 4192.821, 4221.538, 4080.513, 4169.744, 4110.256, 450, 0, []
1630311247.4054, 114, 0, 4181.026, 4191.795, 4093.333, 4162.564, 4123.077, 450, 0, []
1630311247.4131, 115, 0, 4165.641, 4177.949, 4073.846, 4158.462, 4127.179, 16198, 0, []
1630311247.4211, 116, 0, 4173.846, 4206.154, 4098.974, 4172.821, 4118.462, 450, 0, []
1630311247.429, 117, 0, 4187.692, 4224.103, 4089.744, 4176.923, 4107.179, 450, 0, []
1630311247.437, 118, 0, 4184.615, 4204.615, 4078.462, 4160, 4104.615, 450, 0, []
1630311247.4449, 119, 0, 4181.026, 4202.564, 4092.821, 4158.462, 4109.744, 16198, 0, []
1630311247.4529, 120, 0, 4198.462, 4226.154, 4078.974, 4179.487, 4107.692, 450, 0, []
1630311247.4607, 121, 0, 4215.897, 4229.231, 4103.59, 4185.128, 4099.487, 450, 0, []
1630311247.4687, 122, 0, 4212.308, 4224.615, 4097.436, 4163.077, 4102.051, 450, 0, []
1630311247.4766, 123, 0, 4200.513, 4238.462, 4082.564, 4161.538, 4116.41, 16198, 0, []
1630311247.4845, 124, 0, 4199.487, 4247.179, 4105.641, 4191.282, 4129.231, 450, 0, []
1630311247.4924, 125, 0, 4203.59, 4217.949, 4091.282, 4190.769, 4120.513, 450, 0, []
1630311247.5002, 126, 0, 4198.974, 4193.333, 4098.462, 4162.051, 4103.077, 450, 0, []
1630311247.508, 127, 0, 4182.564, 4204.103, 4089.744, 4149.231, 4101.026, 16198, 0, []
1630311247.5158, 128, 0, 4163.59, 4195.897, 4071.795, 4156.923, 4097.949, 450, 0, []
1630311247.5237, 0, 0, 4163.59, 4168.205, 4087.179, 4163.59, 4080.513, 450, 0, []
1630311247.5315, 1, 0, 4173.333, 4182.051, 4074.359, 4162.564, 4074.872, 450, 0, []
1630311247.5393, 2, 0, 4165.641, 4215.385, 4091.795, 4163.59, 4094.359, 16185, 0, []
1630311247.5471, 3, 0, 4156.41, 4218.974, 4091.282, 4170.769, 4112.821, 450, 0, []
1630311247.555, 4, 0, 4165.128, 4216.41, 4082.051, 4172.821, 4108.718, 16132, 0, []
1630311247.5628, 5, 0, 4180, 4209.744, 4110.256, 4161.538, 4107.179, 450, 0, []
1630311247.5707, 6, 0, 4183.077, 4200, 4091.795, 4158.974, 4127.179, 233, 0, []
1630311247.5784, 7, 0, 4175.897, 4211.282, 4096.41, 4167.692, 4127.179, 450, 0, []
1630311247.5864, 8, 0, 4169.744, 4214.359, 4091.282, 4158.462, 4089.231, 450, 0, []
1630311247.5943, 9, 0, 4170.256, 4201.538, 4068.718, 4143.59, 4079.487, 16141, 0, []
1630311247.6023, 10, 0, 4169.231, 4198.974, 4101.026, 4153.333, 4104.103, 450, 0, []
1630311247.6102, 11, 0, 4170.769, 4200, 4090.769, 4168.205, 4106.154, 16198, 0, []
1630311247.6181, 12, 0, 4176.923, 4197.436, 4085.641, 4161.538, 4086.667, 450, 0, []
1630311247.626, 13, 0, 4172.308, 4201.026, 4092.308, 4144.615, 4085.128, 450, 0, []
1630311247.634, 14, 0, 4166.154, 4196.923, 4077.949, 4149.231, 4093.846, 450, 0, []
1630311247.6419, 15, 0, 4172.308, 4196.923, 4093.846, 4161.538, 4088.718, 16198, 0, []
1630311247.6499, 16, 0, 4172.821, 4217.949, 4077.436, 4151.282, 4082.564, 0, 0, []
1630311247.6577, 17, 0, 4166.154, 4217.436, 4087.179, 4136.923, 4095.385, 0, 0, []
1630311247.6656, 18, 0, 4176.41, 4191.795, 4104.103, 4143.59, 4113.846, 0, 0, []
1630311247.6735, 19, 0, 4191.795, 4202.051, 4076.923, 4155.385, 4108.205, 0, 0, []
1630311247.6813, 20, 0, 4186.154, 4229.231, 4090.769, 4147.179, 4087.179, 0, 0, []
1630311247.6892, 21, 0, 4174.872, 4210.256, 4083.077, 4128.205, 4085.641, 0, 0, []
1630311247.6969, 22, 0, 4177.436, 4195.897, 4080, 4133.846, 4094.872, 0, 0, []
1630311247.7048, 23, 0, 4188.205, 4218.462, 4096.41, 4149.744, 4085.641, 0, 0, []
1630311247.7126, 24, 0, 4187.179, 4211.282, 4080.513, 4137.949, 4074.359, 0, 0, []
1630311247.7205, 25, 0, 4172.821, 4180.513, 4099.487, 4125.641, 4092.308, 0, 0, []
1630311247.7283, 26, 0, 4167.179, 4188.718, 4090.769, 4143.077, 4112.308, 0, 0, []
1630311247.7362, 27, 0, 4180.513, 4223.077, 4085.641, 4162.051, 4106.154, 0, 0, []
1630311247.7441, 28, 0, 4188.718, 4240, 4105.641, 4155.385, 4101.026, 0, 0, []
1630311247.7521, 29, 0, 4184.103, 4233.846, 4074.872, 4147.692, 4113.846, 0, 0, []
1630311247.76, 30, 0, 4181.538, 4216.923, 4084.103, 4158.974, 4120, 0, 0, []
1630311247.768, 31, 0, 4176.923, 4209.744, 4079.487, 4156.923, 4106.154, 0, 0, []
1630311247.7759, 32, 0, 4166.667, 4192.821, 4061.538, 4136.41, 4098.462, 0, 0, []
1630311247.7838, 33, 0, 4162.564, 4169.231, 4086.667, 4141.538, 4112.821, 0, 0, []
1630311247.7917, 34, 0, 4170.769, 4187.179, 4076.41, 4166.667, 4118.462, 0, 0, []
1630311247.7997, 35, 0, 4180.513, 4214.872, 4090.769, 4166.667, 4103.077, 0, 0, []
1630311247.8076, 36, 0, 4175.897, 4205.128, 4093.333, 4148.205, 4106.154, 0, 0, []
1630311247.8154, 37, 0, 4170.769, 4190.769, 4077.949, 4151.795, 4126.667, 0, 0, []
1630311247.8232, 38, 0, 4178.462, 4201.538, 4094.872, 4163.59, 4116.923, 0, 0, []
1630311247.831, 39, 0, 4179.487, 4198.462, 4076.41, 4146.667, 4092.308, 0, 0, []
1630311247.8389, 40, 0, 4165.641, 4177.949, 4083.077, 4131.282, 4089.231, 0, 0, []
1630311247.8467, 41, 0, 4165.641, 4183.59, 4081.538, 4141.538, 4088.718, 0, 0, []
1630311247.8546, 42, 0, 4173.333, 4197.436, 4070.256, 4148.205, 4085.128, 0, 0, []
1630311247.8623, 43, 0, 4168.205, 4203.077, 4108.205, 4146.667, 4098.974, 0, 0, []
1630311247.8702, 44, 0, 4169.231, 4215.385, 4095.897, 4160.513, 4117.436, 0, 0, []
1630311247.878, 45, 0, 4184.103, 4225.128, 4093.846, 4177.436, 4110.769, 0, 0, []
1630311247.886, 46, 0, 4189.744, 4224.103, 4100, 4161.538, 4095.897, 0, 0, []
1630311247.8939, 47, 0, 4175.385, 4216.41, 4069.744, 4129.744, 4106.154, 0, 0, []
1630311247.9018, 48, 0, 4174.872, 4209.231, 4084.103, 4129.744, 4125.128, 0, 0, []
1630311247.9097, 49, 0, 4194.359, 4211.282, 4080.513, 4147.692, 4115.897, 0, 0, []
1630311247.9177, 50, 0, 4194.872, 4214.872, 4087.179, 4145.641, 4098.974, 0, 0, []
1630311247.9256, 51, 0, 4176.923, 4204.103, 4095.897, 4135.385, 4111.795, 0, 0, []
1630311247.9336, 52, 0, 4181.538, 4206.667, 4072.821, 4144.615, 4127.692, 0, 0, []
1630311247.9414, 53, 0, 4202.564, 4230.769, 4097.436, 4161.538, 4124.103, 0, 0, []
1630311247.9494, 54, 0, 4193.846, 4225.641, 4083.077, 4151.282, 4118.462, 0, 0, []
1630311247.9573, 55, 0, 4166.667, 4198.462, 4067.179, 4136.923, 4121.538, 0, 0, []
1630311247.9651, 56, 0, 4168.205, 4192.821, 4085.128, 4150.256, 4127.179, 0, 0, []
1630311247.973, 57, 0, 4185.641, 4204.615, 4075.385, 4162.051, 4127.179, 0, 0, []
1630311247.9807, 58, 0, 4176.923, 4206.667, 4098.462, 4150.769, 4123.077, 0, 0, []
1630311247.9886, 59, 0, 4149.744, 4201.026, 4091.282, 4134.872, 4124.103, 0, 0, []
1630311247.9964, 60, 0, 4149.231, 4209.231, 4083.59, 4142.051, 4132.821, 0, 0, []
1630311248.0043, 61, 0, 4173.846, 4224.103, 4101.026, 4158.462, 4132.308, 0, 0, []
1630311248.0121, 62, 0, 4182.051, 4217.949, 4081.026, 4149.744, 4131.282, 0, 0, []
1630311248.0199, 63, 0, 4160.513, 4207.179, 4093.333, 4140, 4129.231, 0, 0, []
1630311248.0277, 64, 0, 4153.846, 4212.308, 4087.692, 4153.333, 4125.128, 450, 0, []
1630311248.0356, 65, 0, 4178.462, 4213.333, 4083.59, 4165.641, 4126.667, 450, 0, []
1630311248.0434, 66, 0, 4191.282, 4208.205, 4107.179, 4149.231, 4134.359, 16186, 0, []
1630311248.0514, 67, 0, 4182.564, 4207.692, 4080, 4139.487, 4148.205, 450, 0, []
1630311248.0592, 68, 0, 4182.564, 4220, 4087.692, 4169.231, 4155.385, 16133, 0, []
1630311248.0672, 69, 0, 4186.667, 4230.769, 4085.128, 4181.538, 4138.462, 450, 0, []
1630311248.0751, 70, 0, 4175.897, 4224.615, 4064.103, 4151.282, 4116.41, 232, 0, []
1630311248.0831, 71, 0, 4162.564, 4214.872, 4091.795, 4140, 4123.59, 450, 0, []
1630311248.091, 72, 0, 4168.205, 4213.333, 4086.667, 4161.026, 4147.692, 450, 0, []
1630311248.0989, 73, 0, 4185.641, 4218.974, 4099.487, 4168.718, 4152.308, 16144, 0, []
1630311248.1068, 74, 0, 4184.615, 4210.769, 4101.026, 4153.846, 4151.795, 450, 0, []
1630311248.1148, 75, 0, 4167.692, 4194.872, 4080, 4151.282, 4161.538, 16200, 0, []
1630311248.1227, 76, 0, 4165.641, 4191.282, 4098.462, 4160, 4162.564, 450, 0, []
1630311248.1307, 77, 0, 4174.359, 4202.564, 4083.59, 4154.872, 4150.769, 450, 0, []
1630311248.1386, 78, 0, 4169.231, 4213.333, 4089.744, 4147.179, 4158.974, 450, 0, []
1630311248.1463, 79, 0, 4156.923, 4199.487, 4091.282, 4151.795, 4178.974, 16200, 0, []
1630311248.1542, 80, 0, 4161.538, 4194.872, 4070.256, 4161.538, 4177.949, 450, 0, []
1630311248.162, 81, 0, 4175.897, 4229.744, 4102.051, 4158.462, 4168.718, 450, 0, []
1630311248.1699, 82, 0, 4169.744, 4246.154, 4089.744, 4148.205, 4178.974, 450, 0, []
1630311248.1777, 83, 0, 4163.077, 4217.949, 4082.564, 4152.308, 4198.462, 16200, 0, []
1630311248.1855, 84, 0, 4194.359, 4223.59, 4102.051, 4163.077, 4208.718, 450, 0, []
1630311248.1933, 85, 0, 4238.462, 4248.718, 4092.821, 4162.051, 4223.59, 450, 0, []
1630311248.2013, 86, 0, 4263.59, 4217.436, 4105.128, 4154.872, 4266.667, 450, 0, []
1630311248.2092, 87, 0, 4306.154, 4195.385, 4085.641, 4156.41, 4332.821, 16200, 0, []
1630311248.2172, 88, 0, 4371.282, 4225.128, 4080, 4171.282, 4390.256, 450, 0, []
1630311248.225, 89, 0, 4405.128, 4233.333, 4094.872, 4186.154, 4418.462, 450, 0, []
1630311248.233, 90, 0, 4407.692, 4213.333, 4080, 4192.821, 4426.667, 450, 0, []
1630311248.2409, 91, 0, 4410.769, 4209.231, 4107.179, 4196.923, 4428.718, 16200, 0, []
1630311248.2489, 92, 0, 4396.923, 4211.282, 4097.436, 4186.667, 4418.974, 450, 0, []
1630311248.2568, 93, 0, 4362.051, 4215.385, 4083.59, 4168.718, 4388.718, 450, 0, []
1630311248.2647, 94, 0, 4340, 4212.821, 4111.282, 4172.308, 4361.538, 450, 0, []
1630311248.2726, 95, 0, 4327.179, 4192.308, 4096.923, 4175.385, 4345.641, 16200, 0, []
1630311248.2804, 96, 0, 4303.077, 4187.179, 4102.051, 4153.333, 4323.077, 450, 0, []
1630311248.2883, 97, 0, 4285.641, 4201.026, 4097.436, 4145.128, 4297.436, 450, 0, []
1630311248.2961, 98, 0, 4271.282, 4197.949, 4092.821, 4161.026, 4281.538, 450, 0, []
1630311248.3039, 99, 0, 4251.282, 4189.744, 4111.282, 4166.667, 4260.513, 16200, 0, []
1630311248.3117, 100, 0, 4244.103, 4190.769, 4090.769, 4161.026, 4237.949, 450, 0, []
1630311248.3196, 101, 0, 4236.41, 4189.231, 4106.667, 4156.41, 4226.667, 450, 0, []
1630311248.3274, 102, 0, 4218.462, 4204.103, 4112.308, 4155.385, 4229.744, 450, 0, []
1630311248.3353, 103, 0, 4221.026, 4223.077, 4102.564, 4168.718, 4245.641, 16200, 0, []
1630311248.343, 104, 0, 4233.333, 4211.795, 4115.897, 4173.333, 4241.026, 450, 0, []
1630311248.351, 105, 0, 4224.103, 4201.026, 4083.59, 4155.385, 4217.949, 450, 0, []
1630311248.3589, 106, 0, 4204.615, 4200, 4095.385, 4150.256, 4210.769, 450, 0, []
1630311248.3669, 107, 0, 4197.436, 4184.103, 4109.231, 4162.564, 4212.821, 16200, 0, []
1630311248.3748, 108, 0, 4200.513, 4186.154, 4081.538, 4170.256, 4197.436, 450, 0, []
1630311248.3827, 109, 0, 4197.949, 4206.667, 4092.308, 4164.615, 4177.949, 450, 0, []
1630311248.3906, 110, 0, 4187.179, 4198.462, 4087.179, 4150.256, 4180.513, 450, 0, []
1630311248.3986, 111, 0, 4182.564, 4187.179, 4101.026, 4151.282, 4187.692, 16200, 0, []
1630311248.4065, 112, 0, 4193.846, 4214.359, 4105.128, 4169.231, 4177.436, 450, 0, []
1630311248.4145, 113, 0, 4203.59, 4243.59, 4083.59, 4173.846, 4164.103, 450, 0, []
1630311248.4223, 114, 0, 4192.308, 4233.846, 4105.641, 4159.487, 4171.282, 450, 0, []
1630311248.4301, 115, 0, 4176.41, 4197.436, 4079.487, 4149.744, 4182.564, 16200, 0, []
1630311248.438, 116, 0, 4175.897, 4192.821, 4073.846, 4154.359, 4168.205, 450, 0, []
1630311248.4458, 117, 0, 4177.436, 4218.462, 4096.923, 4155.385, 4151.282, 450, 0, []
1630311248.4537, 118, 0, 4166.667, 4203.077, 4081.026, 4149.744, 4161.538, 450, 0, []
1630311248.4614, 119, 0, 4167.179, 4174.359, 4097.436, 4160.513, 4173.846, 16200, 0, []
1630311248.4693, 120, 0, 4175.897, 4187.692, 4085.128, 4168.205, 4150.769, 450, 0, []
1630311248.4771, 121, 0, 4164.103, 4191.282, 4080.513, 4152.308, 4129.231, 450, 0, []
1630311248.485, 122, 0, 4150.769, 4165.641, 4100.513, 4147.692, 4155.385, 450, 0, []
1630311248.4929, 123, 0, 4164.103, 4175.897, 4085.641, 4165.641, 4176.41, 16200, 0, []
1630311248.5008, 124, 0, 4180.513, 4210.256, 4106.667, 4173.846, 4153.333, 450, 0, []
1630311248.5087, 125, 0, 4177.949, 4210.769, 4100, 4158.974, 4142.564, 450, 0, []
1630311248.5167, 126, 0, 4174.359, 4195.385, 4084.615, 4154.872, 4159.487, 450, 0, []
1630311248.5246, 127, 0, 4185.641, 4191.282, 4097.436, 4172.821, 4161.538, 16200, 0, []
1630311248.5326, 128, 0, 4190.256, 4187.179, 4081.538, 4174.359, 4154.359, 450, 0, []
1630311248.5405, 0, 0, 4171.282, 4182.564, 4088.205, 4150.256, 4153.333, 450, 0, []
1630311248.5484, 1, 0, 4148.718, 4181.026, 4071.795, 4134.872, 4143.077, 450, 0, []
1630311248.5563, 2, 0, 4147.179, 4188.205, 4069.231, 4144.615, 4133.846, 16186, 0, []
1630311248.5643, 3, 0, 4155.897, 4208.718, 4105.641, 4148.205, 4148.718, 450, 0, []
1630311248.5722, 4, 0, 4153.333, 4215.897, 4082.564, 4144.615, 4163.077, 16129, 0, []
1630311248.5802, 5, 0, 4146.154, 4202.051, 4086.154, 4153.333, 4153.333, 450, 0, []
1630311248.588, 6, 0, 4152.821, 4205.641, 4096.923, 4157.949, 4147.692, 235, 0, []
1630311248.5958, 7, 0, 4159.487, 4216.41, 4087.179, 4147.692, 4161.026, 450, 0, []
1630311248.6037, 8, 0, 4151.282, 4202.564, 4099.487, 4143.077, 4163.077, 450, 0, []
1630311248.6115, 9, 0, 4145.641, 4206.154, 4076.923, 4151.282, 4144.615, 16144, 0, []
1630311248.6194, 10, 0, 4152.308, 4227.179, 4085.641, 4156.923, 4140, 450, 0, []
1630311248.6271, 11, 0, 4151.282, 4215.385, 4090.256, 4158.462, 4158.974, 16202, 0, []
1630311248.635, 12, 0, 4144.103, 4199.487, 4074.359, 4161.026, 4161.026, 450, 0, []
1630311248.6428, 13, 0, 4149.231, 4208.205, 4093.846, 4154.359, 4131.282, 450, 0, []
1630311248.6507, 14, 0, 4158.974, 4218.462, 4082.051, 4141.538, 4124.103, 450, 0, []
1630311248.6585, 15, 0, 4162.564, 4223.59, 4096.923, 4156.923, 4157.436, 16202, 0, []
1630311248.6664, 16, 0, 4171.795, 4227.179, 4097.436, 4178.462, 4175.897, 0, 0, []
1630311248.6743, 17, 0, 4186.667, 4222.051, 4068.205, 4167.179, 4168.205, 0, 0, []
1630311248.6823, 18, 0, 4197.436, 4203.077, 4096.923, 4151.795, 4176.41, 0, 0, []
1630311248.6902, 19, 0, 4218.974, 4177.949, 4086.154, 4148.205, 4215.897, 0, 0, []
1630311248.6982, 20, 0, 4257.949, 4176.41, 4082.564, 4155.897, 4258.974, 0, 0, []
1630311248.706, 21, 0, 4306.154, 4217.436, 4097.436, 4173.846, 4293.846, 0, 0, []
1630311248.714, 22, 0, 4364.103, 4238.974, 4074.872, 4177.949, 4331.795, 0, 0, []
1630311248.7219, 23, 0, 4412.821, 4212.308, 4083.59, 4160, 4362.564, 0, 0, []
1630311248.7299, 24, 0, 4428.205, 4202.051, 4066.667, 4142.051, 4367.179, 0, 0, []
1630311248.7378, 25, 0, 4432.308, 4211.795, 4067.179, 4145.128, 4362.564, 0, 0, []
1630311248.7455, 26, 0, 4437.949, 4222.051, 4090.256, 4146.667, 4358.974, 0, 0, []
1630311248.7534, 27, 0, 4421.538, 4230.256, 4069.231, 4140.513, 4337.436, 0, 0, []
1630311248.7612, 28, 0, 4393.846, 4221.538, 4087.179, 4140, 4312.821, 0, 0, []
1630311248.7691, 29, 0, 4382.564, 4210.769, 4088.718, 4134.872, 4311.795, 0, 0, []
1630311248.7769, 30, 0, 4365.641, 4216.923, 4079.487, 4125.128, 4303.077, 0, 0, []
1630311248.7847, 31, 0, 4329.744, 4213.846, 4087.179, 4128.718, 4274.872, 0, 0, []
1630311248.7925, 32, 0, 4305.641, 4204.103, 4063.59, 4134.872, 4254.872, 0, 0, []
1630311248.8004, 33, 0, 4298.462, 4223.59, 4081.538, 4128.205, 4238.462, 0, 0, []
1630311248.8082, 34, 0, 4277.949, 4231.795, 4077.436, 4117.949, 4211.282, 0, 0, []
1630311248.8162, 35, 0, 4250.769, 4213.333, 4066.667, 4105.128, 4193.333, 0, 0, []
1630311248.824, 36, 0, 4238.462, 4214.359, 4091.795, 4097.436, 4187.692, 0, 0, []
1630311248.832, 37, 0, 4233.333, 4223.077, 4070.256, 4111.795, 4175.897, 0, 0, []
1630311248.8399, 38, 0, 4224.615, 4207.692, 4073.333, 4131.282, 4164.103, 0, 0, []
1630311248.8479, 39, 0, 4215.385, 4203.59, 4081.538, 4126.667, 4165.128, 0, 0, []
1630311248.8558, 40, 0, 4202.051, 4216.41, 4089.744, 4111.795, 4169.231, 0, 0, []
1630311248.8638, 41, 0, 4192.308, 4208.205, 4114.872, 4116.923, 4165.128, 0, 0, []
1630311248.8716, 42, 0, 4201.538, 4197.436, 4084.103, 4132.308, 4161.538, 0, 0, []
1630311248.8796, 43, 0, 4215.385, 4216.41, 4089.744, 4135.897, 4161.538, 0, 0, []
1630311248.8875, 44, 0, 4209.744, 4236.41, 4097.949, 4120.513, 4152.821, 0, 0, []
1630311248.8953, 45, 0, 4192.821, 4228.205, 4077.436, 4110.769, 4142.564, 0, 0, []
1630311248.9032, 46, 0, 4189.744, 4203.59, 4090.769, 4124.615, 4142.051, 0, 0, []
1630311248.9109, 47, 0, 4193.333, 4193.333, 4064.615, 4134.359, 4136.923, 0, 0, []
1630311248.9188, 48, 0, 4184.103, 4211.795, 4070.256, 4127.179, 4124.103, 0, 0, []
1630311248.9266, 49, 0, 4175.897, 4223.077, 4092.308, 4124.615, 4136.41, 0, 0, []
1630311248.9345, 50, 0, 4181.538, 4208.205, 4074.872, 4137.949, 4160.513, 0, 0, []
1630311248.9423, 51, 0, 4184.615, 4207.692, 4083.59, 4144.103, 4153.333, 0, 0, []
1630311248.9501, 52, 0, 4175.897, 4224.103, 4066.667, 4133.333, 4135.897, 0, 0, []
1630311248.9579, 53, 0, 4163.077, 4215.897, 4077.949, 4128.205, 4145.128, 0, 0, []
1630311248.9658, 54, 0, 4154.872, 4180.513, 4092.821, 4128.718, 4149.744, 0, 0, []
1630311248.9736, 55, 0, 4150.769, 4153.846, 4071.282, 4127.692, 4127.179, 0, 0, []
1630311248.9816, 56, 0, 4152.308, 4168.205, 4105.128, 4134.359, 4118.462, 0, 0, []
1630311248.9894, 57, 0, 4157.949, 4201.026, 4106.154, 4138.462, 4137.436, 0, 0, []
1630311248.9974, 58, 0, 4154.359, 4196.41, 4092.821, 4134.872, 4146.667, 0, 0, []
1630311249.0053, 59, 0, 4147.179, 4180, 4093.846, 4139.487, 4138.462, 0, 0, []
1630311249.0133, 60, 0, 4161.538, 4201.538, 4065.128, 4149.231, 4140, 0, 0, []
1630311249.0212, 61, 0, 4176.41, 4214.359, 4078.462, 4145.641, 4155.385, 0, 0, []
1630311249.0291, 62, 0, 4161.538, 4183.077, 4072.308, 4133.846, 4169.231, 0, 0, []
1630311249.037, 63, 0, 4145.128, 4169.744, 4064.615, 4134.872, 4165.641, 0, 0, []
1630311249.045, 64, 0, 4144.103, 4185.128, 4072.821, 4137.436, 4141.538, 450, 0, []
1630311249.0529, 65, 0, 4142.051, 4180.513, 4052.821, 4125.128, 4125.641, 450, 0, []
1630311249.0607, 66, 0, 4134.872, 4160.513, 4086.154, 4123.077, 4137.436, 16186, 0, []
1630311249.0685, 67, 0, 4141.026, 4157.949, 4094.359, 4143.077, 4153.846, 450, 0, []
1630311249.0763, 68, 0, 4160, 4162.051, 4080, 4159.487, 4151.282, 16129, 0, []
1630311249.0842, 69, 0, 4160, 4171.795, 4099.487, 4147.692, 4143.077, 450, 0, []
1630311249.092, 70, 0, 4132.308, 4188.718, 4081.026, 4126.667, 4141.026, 232, 0, []
1630311249.0999, 71, 0, 4123.59, 4183.077, 4084.615, 4136.923, 4138.462, 450, 0, []
1630311249.1076, 72, 0, 4145.128, 4171.282, 4076.41, 4151.795, 4130.256, 450, 0, []
1630311249.1155, 73, 0, 4141.538, 4180, 4061.538, 4129.744, 4131.282, 16144, 0, []
1630311249.1233, 74, 0, 4117.949, 4190.256, 4088.205, 4111.282, 4137.436, 450, 0, []
1630311249.1313, 75, 0, 4114.872, 4172.308, 4074.872, 4126.667, 4127.179, 16198, 0, []
1630311249.1392, 76, 0, 4123.077, 4168.718, 4084.615, 4133.333, 4114.359, 450, 0, []
1630311249.1471, 77, 0, 4127.692, 4196.41, 4094.359, 4122.051, 4132.821, 450, 0, []
1630311249.155, 78, 0, 4138.974, 4202.564, 4086.154, 4135.897, 4158.974, 450, 0, []
1630311249.163, 79, 0, 4153.846, 4191.795, 4108.205, 4156.41, 4151.282, 16198, 0, []
1630311249.1709, 80, 0, 4154.872, 4178.462, 4084.103, 4147.179, 4138.974, 450, 0, []
1630311249.1789, 81, 0, 4142.564, 4168.205, 4083.59, 4147.692, 4152.821, 450, 0, []
1630311249.1868, 82, 0, 4137.436, 4180, 4092.308, 4169.231, 4161.026, 450, 0, []
1630311249.1947, 83, 0, 4140, 4192.821, 4068.205, 4165.641, 4142.051, 16198, 0, []
1630311249.2026, 84, 0, 4131.282, 4186.667, 4078.974, 4138.462, 4132.821, 450, 0, []
1630311249.2104, 85, 0, 4124.615, 4182.564, 4063.077, 4140.513, 4143.59, 450, 0, []
1630311249.2183, 86, 0, 4128.205, 4177.949, 4066.154, 4161.026, 4129.231, 450, 0, []
1630311249.2261, 87, 0, 4118.462, 4167.692, 4083.077, 4149.744, 4108.205, 16198, 0, []
1630311249.2339, 88, 0, 4108.205, 4184.615, 4075.897, 4140, 4118.462, 450, 0, []
1630311249.2417, 89, 0, 4118.462, 4196.923, 4100, 4165.641, 4133.333, 450, 0, []
1630311249.2496, 90, 0, 4129.744, 4171.795, 4081.026, 4175.385, 4130.256, 450, 0, []
1630311249.2574, 91, 0, 4115.897, 4158.462, 4070.256, 4153.846, 4128.205, 16198, 0, []
1630311249.2653, 92, 0, 4107.179, 4175.385, 4088.718, 4147.179, 4125.641, 450, 0, []
1630311249.273, 93, 0, 4116.923, 4191.282, 4074.359, 4149.231, 4106.667, 450, 0, []
1630311249.2809, 94, 0, 4114.359, 4182.564, 4090.769, 4129.231, 4095.385, 450, 0, []
1630311249.2887, 95, 0, 4098.974, 4166.154, 4078.974, 4121.538, 4111.795, 16198, 0, []
1630311249.2967, 96, 0, 4102.051, 4169.231, 4072.308, 4139.487, 4124.103, 450, 0, []
1630311249.3046, 97, 0, 4109.744, 4170.769, 4092.308, 4138.462, 4118.974, 450, 0, []
1630311249.3125, 98, 0, 4102.051, 4164.103, 4064.103, 4125.128, 4126.154, 450, 0, []
1630311249.3204, 99, 0, 4113.333, 4175.385, 4076.923, 4147.179, 4143.59, 16198, 0, []
1630311249.3284, 100, 0, 4137.949, 4194.359, 4084.103, 4170.256, 4147.179, 450, 0, []
1630311249.3363, 101, 0, 4133.333, 4192.821, 4081.026, 4150.769, 4146.154, 450, 0, []
1630311249.3443, 102, 0, 4115.897, 4178.974, 4096.41, 4134.872, 4150.769, 450, 0, []
1630311249.3521, 103, 0, 4120, 4190.769, 4067.179, 4146.667, 4152.308, 16198, 0, []
1630311249.3599, 104, 0, 4127.179, 4206.154, 4077.949, 4149.744, 4146.154, 450, 0, []
1630311249.3678, 105, 0, 4110.769, 4189.744, 4080.513, 4132.308, 4140.513, 450, 0, []
1630311249.3756, 106, 0, 4100.513, 4170.769, 4069.744, 4129.744, 4136.41, 450, 0, []
1630311249.3835, 107, 0, 4109.231, 4181.026, 4089.231, 4138.462, 4123.59, 16198, 0, []
1630311249.3912, 108, 0, 4110.769, 4205.128, 4062.564, 4130.769, 4123.59, 450, 0, []
1630311249.3991, 109, 0, 4106.154, 4197.949, 4071.795, 4134.359, 4138.462, 450, 0, []
1630311249.4069, 110, 0, 4113.846, 4186.667, 4077.949, 4148.205, 4130.256, 450, 0, []
1630311249.4148, 111, 0, 4126.154, 4211.795, 4065.128, 4146.154, 4124.615, 16198, 0, []
1630311249.4226, 112, 0, 4126.154, 4238.462, 4096.923, 4148.205, 4149.231, 450, 0, []
1630311249.4304, 113, 0, 4123.59, 4224.615, 4082.564, 4161.538, 4153.846, 450, 0, []
1630311249.4382, 114, 0, 4134.872, 4208.205, 4082.051, 4169.744, 4133.333, 450, 0, []
1630311249.4462, 115, 0, 4139.487, 4224.103, 4094.359, 4161.538, 4134.872, 16198, 0, []
1630311249.4541, 116, 0, 4124.103, 4221.026, 4078.462, 4147.179, 4143.59, 450, 0, []
1630311249.4621, 117, 0, 4126.667, 4210.256, 4097.436, 4156.41, 4147.179, 450, 0, []
1630311249.4699, 118, 0, 4144.615, 4234.359, 4087.179, 4171.282, 4146.154, 450, 0, []
1630311249.4778, 119, 0, 4125.128, 4238.974, 4080.513, 4154.872, 4132.821, 16198, 0, []
1630311249.4857, 120, 0, 4105.128, 4202.564, 4086.667, 4143.59, 4135.385, 450, 0, []
1630311249.4936, 121, 0, 4131.282, 4198.974, 4075.385, 4170.769, 4155.897, 450, 0, []
1630311249.5014, 122, 0, 4142.051, 4212.308, 4094.872, 4182.564, 4152.821, 450, 0, []
1630311249.5093, 123, 0, 4121.026, 4190.256, 4078.462, 4161.538, 4148.718, 16198, 0, []
1630311249.5172, 124, 0, 4129.744, 4178.462, 4080, 4160.513, 4164.615, 450, 0, []
1630311249.525, 125, 0, 4154.359, 4191.795, 4093.846, 4166.154, 4161.026, 450, 0, []
1630311249.5329, 126, 0, 4150.256, 4190.256, 4062.051, 4152.821, 4147.179, 450, 0, []
1630311249.5407, 127, 0, 4146.667, 4185.128, 4089.744, 4153.846, 4166.667, 16198, 0, []
1630311249.5486, 128, 0, 4170.769, 4194.872, 4096.41, 4175.897, 4204.103, 450, 0, []
1630311249.5563, 0, 0, 4206.154, 4187.692, 4087.179, 4184.103, 4228.205, 450, 0, []
1630311249.5642, 1, 0, 4242.564, 4164.615, 4103.59, 4174.359, 4243.59, 450, 0, []
1630311249.572, 2, 0, 4281.538, 4154.872, 4077.949, 4156.41, 4268.205, 16184, 0, []
1630311249.5799, 3, 0, 4326.154, 4162.051, 4087.179, 4151.795, 4314.872, 450, 0, []
1630311249.5877, 4, 0, 4367.692, 4170.256, 4087.179, 4164.103, 4364.615, 16131, 0, []
1630311249.5956, 5, 0, 4389.744, 4167.179, 4076.923, 4171.282, 4374.359, 450, 0, []
1630311249.6035, 6, 0, 4390.256, 4166.667, 4088.205, 4165.641, 4357.436, 235, 0, []
1630311249.6115, 7, 0, 4387.692, 4172.821, 4069.744, 4163.077, 4346.667, 450, 0, []
1630311249.6194, 8, 0, 4381.026, 4190.769, 4094.872, 4166.667, 4338.462, 450, 0, []
1630311249.6274, 9, 0, 4361.538, 4216.41, 4099.487, 4156.923, 4321.026, 16144, 0, []
1630311249.6352, 10, 0, 4341.538, 4212.821, 4078.462, 4149.744, 4303.077, 450, 0, []
1630311249.6432, 11, 0, 4330.256, 4208.718, 4095.897, 4162.051, 4290.769, 16197, 0, []
1630311249.6511, 12, 0, 4316.41, 4211.795, 4085.128, 4163.077, 4280, 450, 0, []
1630311249.6591, 13, 0, 4287.692, 4194.872, 4101.538, 4152.308, 4260.513, 450, 0, []
1630311249.667, 14, 0, 4267.179, 4185.128, 4096.41, 4153.846, 4235.897, 450, 0, []
1630311249.6747, 15, 0, 4262.564, 4185.128, 4064.615, 4163.077, 4217.949, 16197, 0, []
1630311249.6826, 16, 0, 4246.154, 4180, 4087.692, 4161.538, 4197.949, 0, 0, []
1630311249.6904, 17, 0, 4226.154, 4188.205, 4088.718, 4156.923, 4187.179, 0, 0, []
1630311249.6983, 18, 0, 4223.077, 4201.538, 4101.538, 4165.641, 4196.923, 0, 0, []
1630311249.7061, 19, 0, 4217.949, 4188.718, 4095.385, 4167.692, 4189.744, 0, 0, []
1630311249.7139, 20, 0, 4204.103, 4178.462, 4064.103, 4156.923, 4157.436, 0, 0, []
1630311249.7217, 21, 0, 4192.821, 4187.692, 4089.231, 4148.205, 4143.59, 0, 0, []
1630311249.7296, 22, 0, 4183.59, 4189.231, 4087.179, 4141.026, 4154.359, 0, 0, []
1630311249.7374, 23, 0, 4184.103, 4189.744, 4099.487, 4147.179, 4154.872, 0, 0, []
1630311249.7453, 24, 0, 4193.333, 4187.179, 4108.718, 4160.513, 4142.564, 0, 0, []
1630311249.753, 25, 0, 4184.615, 4182.051, 4076.923, 4157.436, 4133.333, 0, 0, []
1630311249.761, 26, 0, 4171.282, 4191.282, 4094.359, 4146.667, 4134.872, 0, 0, []
1630311249.7689, 27, 0, 4177.436, 4197.436, 4086.154, 4153.846, 4136.41, 0, 0, []
1630311249.7769, 28, 0, 4187.692, 4200, 4079.487, 4174.359, 4133.333, 0, 0, []
1630311249.7848, 29, 0, 4191.795, 4209.231, 4090.769, 4175.897, 4131.282, 0, 0, []
1630311249.7927, 30, 0, 4187.692, 4201.538, 4065.641, 4151.795, 4130.256, 0, 0, []
1630311249.8006, 31, 0, 4175.385, 4194.872, 4078.974, 4138.974, 4124.615, 0, 0, []
1630311249.8086, 32, 0, 4167.692, 4207.692, 4074.872, 4148.205, 4112.821, 0, 0, []
1630311249.8165, 33, 0, 4162.564, 4190.256, 4072.821, 4151.795, 4100, 0, 0, []
1630311249.8245, 34, 0, 4151.795, 4157.949, 4088.718, 4142.051, 4102.564, 0, 0, []
1630311249.8323, 35, 0, 4150.256, 4169.231, 4073.333, 4144.615, 4120, 0, 0, []
1630311249.8401, 36, 0, 4170.256, 4190.256, 4102.051, 4169.744, 4131.795, 0, 0, []
1630311249.848, 37, 0, 4180.513, 4189.231, 4101.026, 4183.077, 4117.436, 0, 0, []
1630311249.8558, 38, 0, 4161.538, 4185.641, 4086.667, 4165.128, 4103.59, 0, 0, []
1630311249.8637, 39, 0, 4135.385, 4172.821, 4103.077, 4151.795, 4114.872, 0, 0, []
1630311249.8715, 40, 0, 4133.846, 4167.179, 4071.795, 4157.436, 4117.949, 0, 0, []
1630311249.8793, 41, 0, 4144.103, 4184.103, 4077.436, 4161.026, 4102.051, 0, 0, []
1630311249.8871, 42, 0, 4128.718, 4176.923, 4082.051, 4143.59, 4096.923, 0, 0, []
1630311249.895, 43, 0, 4107.692, 4144.103, 4069.231, 4130.256, 4090.769, 0, 0, []
1630311249.9028, 44, 0, 4116.41, 4146.667, 4081.538, 4133.846, 4065.641, 0, 0, []
1630311249.9108, 45, 0, 4128.205, 4173.846, 4059.487, 4123.59, 4059.487, 0, 0, []
1630311249.9186, 46, 0, 4115.385, 4185.641, 4071.282, 4113.333, 4077.436, 0, 0, []
1630311249.9266, 47, 0, 4114.359, 4193.333, 4084.615, 4137.436, 4090.256, 0, 0, []
1630311249.9345, 48, 0, 4130.256, 4196.41, 4078.462, 4153.846, 4095.385, 0, 0, []
1630311249.9425, 49, 0, 4118.974, 4190.256, 4097.949, 4132.308, 4095.897, 0, 0, []
1630311249.9504, 50, 0, 4109.231, 4181.538, 4072.821, 4129.231, 4102.051, 0, 0, []
1630311249.9583, 51, 0, 4134.359, 4167.692, 4074.872, 4155.385, 4105.641, 0, 0, []
1630311249.9662, 52, 0, 4153.846, 4168.718, 4085.641, 4151.282, 4109.744, 0, 0, []
1630311249.9742, 53, 0, 4147.692, 4197.436, 4070.256, 4134.359, 4126.154, 0, 0, []
1630311249.9821, 54, 0, 4145.641, 4202.051, 4094.359, 4146.667, 4136.923, 0, 0, []
1630311249.9901, 55, 0, 4154.872, 4177.949, 4087.692, 4163.077, 4131.282, 0, 0, []
1630311249.9979, 56, 0, 4161.026, 4187.179, 4092.821, 4157.949, 4136.923, 0, 0, []
1630311250.0057, 57, 0, 4158.974, 4206.154, 4098.462, 4145.641, 4149.231, 0, 0, []
1630311250.0136, 58, 0, 4144.615, 4187.179, 4064.615, 4145.641, 4135.897, 0, 0, []
1630311250.0214, 59, 0, 4135.385, 4174.359, 4083.077, 4148.205, 4117.949, 0, 0, []
1630311250.0293, 60, 0, 4137.436, 4192.308, 4083.077, 4145.128, 4126.154, 0, 0, []
1630311250.037, 61, 0, 4136.41, 4200.513, 4086.154, 4158.462, 4143.077, 0, 0, []
1630311250.0449, 62, 0, 4137.949, 4193.333, 4095.897, 4176.41, 4134.359, 0, 0, []
1630311250.0527, 63, 0, 4142.564, 4188.205, 4067.692, 4167.179, 4114.872, 0, 0, []
1630311250.0607, 64, 0, 4141.026, 4186.667, 4091.795, 4152.308, 4128.205, 450, 0, []
1630311250.0686, 65, 0, 4143.077, 4183.077, 4087.179, 4146.667, 4153.333, 450, 0, []
1630311250.0764, 66, 0, 4153.333, 4189.231, 4080, 4146.154, 4145.128, 16186, 0, []
1630311250.0843, 67, 0, 4156.41, 4210.256, 4101.538, 4155.897, 4130.256, 450, 0, []
1630311250.0923, 68, 0, 4152.821, 4203.59, 4072.821, 4163.077, 4138.462, 16132, 0, []
1630311250.1002, 69, 0, 4150.256, 4178.974, 4075.385, 4160, 4143.59, 450, 0, []
1630311250.1082, 70, 0, 4155.385, 4187.692, 4075.385, 4162.051, 4138.974, 234, 0, []
1630311250.116, 71, 0, 4162.564, 4201.026, 4074.359, 4158.462, 4136.923, 450, 0, []
1630311250.124, 72, 0, 4155.897, 4173.846, 4087.692, 4136.41, 4135.897, 450, 0, []
1630311250.1319, 73, 0, 4145.128, 4164.615, 4070.256, 4133.333, 4147.692, 16146, 0, []
1630311250.1399, 74, 0, 4150.769, 4189.231, 4096.41, 4157.949, 4156.923, 450, 0, []
1630311250.1478, 75, 0, 4157.949, 4183.077, 4092.821, 4160, 4132.308, 16200, 0, []
1630311250.1555, 76, 0, 4151.795, 4170.256, 4074.872, 4140, 4118.974, 450, 0, []
1630311250.1634, 77, 0, 4148.718, 4181.026, 4101.026, 4136.923, 4147.179, 450, 0, []
1630311250.1712, 78, 0, 4153.846, 4171.282, 4075.385, 4148.205, 4163.59, 450, 0, []
1630311250.1791, 79, 0, 4166.154, 4161.538, 4078.462, 4158.462, 4158.974, 16200, 0, []
1630311250.1869, 80, 0, 4180, 4192.821, 4100.513, 4158.974, 4174.359, 450, 0, []
1630311250.1948, 81, 0, 4182.051, 4215.897, 4095.385, 4155.897, 4198.462, 450, 0, []
1630311250.2027, 82, 0, 4191.795, 4191.282, 4103.077, 4169.744, 4211.282, 450, 0, []
1630311250.2106, 83, 0, 4232.308, 4164.615, 4076.923, 4181.026, 4233.846, 16200, 0, []
1630311250.2184, 84, 0, 4289.231, 4176.923, 4086.667, 4180, 4272.821, 450, 0, []
1630311250.2264, 85, 0, 4335.385, 4206.667, 4095.385, 4179.487, 4309.744, 450, 0, []
1630311250.2343, 86, 0, 4366.154, 4203.077, 4072.308, 4174.359, 4345.128, 450, 0, []
1630311250.2422, 87, 0, 4387.179, 4171.795, 4094.359, 4164.103, 4381.538, 16200, 0, []
1630311250.2501, 88, 0, 4407.179, 4172.308, 4087.179, 4166.154, 4408.205, 450, 0, []
1630311250.2581, 89, 0, 4427.692, 4192.821, 4096.923, 4177.436, 4422.564, 450, 0, []
1630311250.266, 90, 0, 4424.103, 4182.564, 4112.308, 4174.872, 4422.051, 450, 0, []
1630311250.274, 91, 0, 4392.308, 4172.308, 4084.615, 4164.103, 4401.026, 16200, 0, []
1630311250.2818, 92, 0, 4354.359, 4185.641, 4091.795, 4158.462, 4369.231, 450, 0, []
1630311250.2898, 93, 0, 4329.744, 4193.333, 4083.077, 4161.538, 4343.59, 450, 0, []
1630311250.2977, 94, 0, 4317.436, 4182.564, 4086.667, 4174.359, 4318.974, 450, 0, []
1630311250.3055, 95, 0, 4297.436, 4169.231, 4089.744, 4169.744, 4286.667, 16200, 0, []
1630311250.3134, 96, 0, 4274.359, 4175.897, 4064.615, 4158.974, 4258.974, 450, 0, []
1630311250.3211, 97, 0, 4270.256, 4210.256, 4102.564, 4171.282, 4249.744, 450, 0, []
1630311250.329, 98, 0, 4271.282, 4230.769, 4108.718, 4173.846, 4253.846, 450, 0, []
1630311250.3368, 99, 0, 4236.923, 4208.718, 4087.179, 4151.795, 4245.641, 16200, 0, []
1630311250.3447, 100, 0, 4198.974, 4184.103, 4090.256, 4150.769, 4224.103, 450, 0, []
1630311250.3525, 101, 0, 4198.462, 4178.462, 4072.821, 4165.641, 4202.051, 450, 0, []
1630311250.3603, 102, 0, 4196.923, 4179.487, 4095.385, 4162.051, 4174.359, 450, 0, []
1630311250.3681, 103, 0, 4186.154, 4197.949, 4104.615, 4157.436, 4163.59, 16200, 0, []
1630311250.3761, 104, 0, 4184.103, 4208.205, 4100, 4163.59, 4177.949, 450, 0, []
1630311250.384, 105, 0, 4175.385, 4185.641, 4104.615, 4162.564, 4176.41, 450, 0, []
1630311250.392, 106, 0, 4160, 4166.154, 4072.308, 4155.897, 4152.308, 450, 0, []
1630311250.3998, 107, 0, 4157.949, 4164.615, 4091.282, 4155.897, 4145.641, 16200, 0, []
1630311250.4078, 108, 0, 4151.795, 4154.872, 4094.359, 4150.769, 4156.923, 450, 0, []
1630311250.4157, 109, 0, 4137.949, 4144.615, 4076.923, 4152.821, 4153.333, 450, 0, []
1630311250.4237, 110, 0, 4139.487, 4158.974, 4096.41, 4164.103, 4136.41, 450, 0, []
1630311250.4316, 111, 0, 4140, 4175.897, 4077.949, 4155.897, 4127.692, 16200, 0, []
1630311250.4395, 112, 0, 4128.205, 4168.205, 4089.744, 4138.974, 4127.179, 450, 0, []
1630311250.4474, 113, 0, 4120.513, 4155.385, 4089.744, 4140, 4123.077, 450, 0, []
1630311250.4552, 114, 0, 4123.59, 4169.231, 4065.128, 4153.846, 4119.487, 450, 0, []
1630311250.4631, 115, 0, 4126.154, 4192.821, 4088.718, 4155.897, 4121.538, 16200, 0, []
1630311250.4709, 116, 0, 4121.026, 4190.769, 4075.897, 4145.641, 4126.154, 450, 0, []
1630311250.4787, 117, 0, 4117.436, 4175.897, 4076.41, 4145.128, 4126.154, 450, 0, []
1630311250.4866, 118, 0, 4129.744, 4185.641, 4094.359, 4159.487, 4122.051, 450, 0, []
1630311250.4946, 119, 0, 4142.564, 4193.333, 4092.821, 4168.205, 4117.436, 16200, 0, []
1630311250.5024, 120, 0, 4124.615, 4171.282, 4105.128, 4155.897, 4112.821, 450, 0, []
1630311250.5103, 121, 0, 4110.256, 4166.667, 4078.974, 4155.385, 4118.462, 450, 0, []
1630311250.518, 122, 0, 4131.795, 4186.154, 4088.205, 4175.897, 4120.513, 450, 0, []
1630311250.526, 123, 0, 4146.154, 4181.026, 4107.692, 4175.385, 4110.256, 16200, 0, []
1630311250.5339, 124, 0, 4134.872, 4160, 4087.692, 4156.41, 4114.872, 450, 0, []
1630311250.5419, 125, 0, 4132.308, 4170.256, 4106.667, 4161.026, 4124.615, 450, 0, []
1630311250.5498, 126, 0, 4134.872, 4184.615, 4086.154, 4176.923, 4108.205, 450, 0, []
1630311250.5577, 127, 0, 4127.179, 4182.564, 4089.231, 4175.897, 4093.333, 16200, 0, []
1630311250.5656, 128, 0, 4116.41, 4192.821, 4120, 4166.154, 4105.128, 450, 0, []
1630311250.5736, 0, 0, 4110.256, 4185.128, 4085.128, 4160.513, 4110.769, 450, 0, []
1630311250.5815, 1, 0, 4123.077, 4163.077, 4090.256, 4167.692, 4109.744, 450, 0, []
1630311250.5895, 2, 0, 4141.026, 4181.026, 4102.564, 4174.359, 4121.026, 16188, 0, []
1630311250.5974, 3, 0, 4135.897, 4209.231, 4101.538, 4166.667, 4125.641, 450, 0, []
1630311250.6053, 4, 0, 4121.026, 4182.051, 4092.821, 4163.077, 4118.462, 16133, 0, []
1630311250.6132, 5, 0, 4122.564, 4140, 4059.487, 4168.718, 4105.641, 450, 0, []
1630311250.621, 6, 0, 4129.231, 4152.821, 4083.077, 4171.795, 4087.179, 226, 0, []
1630311250.6289, 7, 0, 4128.205, 4178.974, 4089.231, 4160, 4083.59, 450, 0, []
1630311250.6367, 8, 0, 4118.974, 4165.641, 4085.641, 4153.333, 4089.744, 450, 0, []
1630311250.6445, 9, 0, 4109.231, 4155.385, 4097.436, 4161.026, 4077.949, 16144, 0, []
1630311250.6523, 10, 0, 4115.385, 4179.487, 4069.744, 4164.615, 4069.231, 450, 0, []
1630311250.6603, 11, 0, 4130.256, 4187.692, 4090.256, 4164.103, 4086.154, 16195, 0, []
1630311250.6682, 12, 0, 4135.897, 4178.462, 4091.795, 4171.795, 4104.615, 450, 0, []
1630311250.6761, 13, 0, 4135.385, 4184.615, 4067.692, 4185.128, 4103.59, 450, 0, []
1630311250.6838, 14, 0, 4135.897, 4177.949, 4091.282, 4181.538, 4099.487, 450, 0, []
1630311250.6918, 15, 0, 4134.872, 4158.462, 4080.513, 4153.333, 4107.692, 16195, 0, []
1630311250.6997, 16, 0, 4133.333, 4158.974, 4087.692, 4142.051, 4122.564, 0, 0, []
1630311250.7077, 17, 0, 4147.692, 4160.513, 4088.718, 4153.846, 4127.692, 0, 0, []
1630311250.7156, 18, 0, 4183.59, 4147.692, 4073.333, 4154.872, 4131.795, 0, 0, []
1630311250.7235, 19, 0, 4232.821, 4155.897, 4102.051, 4151.282, 4174.359, 0, 0, []
1630311250.7314, 20, 0, 4278.974, 4158.462, 4089.744, 4152.308, 4243.077, 0, 0, []
1630311250.7394, 21, 0, 4315.897, 4121.026, 4087.179, 4146.667, 4291.795, 0, 0, []
1630311250.7473, 22, 0, 4351.282, 4109.231, 4091.795, 4148.718, 4320.513, 0, 0, []
1630311250.7553, 23, 0, 4380, 4131.795, 4075.897, 4162.051, 4338.462, 0, 0, []
1630311250.7631, 24, 0, 4389.744, 4132.308, 4088.718, 4161.538, 4342.564, 0, 0, []
1630311250.7709, 25, 0, 4386.154, 4121.026, 4067.179, 4148.205, 4336.923, 0, 0, []
1630311250.7788, 26, 0, 4380, 4142.051, 4074.872, 4143.59, 4315.385, 0, 0, []
1630311250.7866, 27, 0, 4368.718, 4166.154, 4091.795, 4144.615, 4283.59, 0, 0, []
1630311250.7945, 28, 0, 4357.436, 4174.359, 4070.769, 4142.051, 4273.333, 0, 0, []
1630311250.8022, 29, 0, 4337.436, 4174.359, 4090.256, 4132.308, 4268.718, 0, 0, []
1630311250.8101, 30, 0, 4304.615, 4151.795, 4079.487, 4132.308, 4250.256, 0, 0, []
1630311250.8179, 31, 0, 4281.026, 4141.538, 4076.41, 4156.41, 4244.615, 0, 0, []
1630311250.8258, 32, 0, 4265.128, 4155.897, 4085.128, 4161.538, 4241.026, 0, 0, []
1630311250.8336, 33, 0, 4242.051, 4160.513, 4066.154, 4144.103, 4212.821, 0, 0, []
1630311250.8415, 34, 0, 4233.333, 4150.769, 4103.59, 4146.154, 4202.564, 0, 0, []
1630311250.8494, 35, 0, 4233.846, 4138.462, 4098.974, 4156.41, 4217.949, 0, 0, []
1630311250.8574, 36, 0, 4216.41, 4132.821, 4073.846, 4157.436, 4206.667, 0, 0, []
1630311250.8653, 37, 0, 4196.923, 4140, 4081.026, 4158.462, 4171.795, 0, 0, []
1630311250.8733, 38, 0, 4187.692, 4135.897, 4060.513, 4150.769, 4151.282, 0, 0, []
1630311250.8811, 39, 0, 4166.667, 4118.462, 4076.923, 4135.897, 4141.026, 0, 0, []
1630311250.8891, 40, 0, 4147.692, 4130.256, 4080, 4141.026, 4130.256, 0, 0, []
1630311250.897, 41, 0, 4152.308, 4143.59, 4080, 4156.923, 4124.103, 0, 0, []
1630311250.905, 42, 0, 4153.333, 4125.641, 4094.872, 4151.282, 4114.359, 0, 0, []
1630311250.9129, 43, 0, 4128.718, 4117.949, 4061.026, 4130.256, 4103.59, 0, 0, []
1630311250.9206, 44, 0, 4115.385, 4134.872, 4071.795, 4131.282, 4103.59, 0, 0, []
1630311250.9285, 45, 0, 4132.821, 4147.179, 4086.154, 4150.769, 4111.795, 0, 0, []
1630311250.9363, 46, 0, 4138.462, 4133.846, 4085.128, 4150.769, 4123.077, 0, 0, []
1630311250.9442, 47, 0, 4121.538, 4116.41, 4104.615, 4142.564, 4126.154, 0, 0, []
1630311250.952, 48, 0, 4122.564, 4130.256, 4074.872, 4146.667, 4104.615, 0, 0, []
1630311250.9599, 49, 0, 4132.821, 4140, 4083.077, 4148.205, 4087.692, 0, 0, []
1630311250.9676, 50, 0, 4117.436, 4119.487, 4093.846, 4142.051, 4102.564, 0, 0, []
1630311250.9755, 51, 0, 4102.051, 4117.436, 4075.897, 4143.077, 4109.231, 0, 0, []
1630311250.9833, 52, 0, 4107.179, 4136.923, 4092.308, 4146.154, 4085.128, 0, 0, []
1630311250.9912, 53, 0, 4103.077, 4135.897, 4075.385, 4137.949, 4077.436, 0, 0, []
1630311250.999, 54, 0, 4098.462, 4124.103, 4077.436, 4143.59, 4101.026, 0, 0, []
1630311251.0069, 55, 0, 4116.41, 4132.308, 4089.231, 4158.462, 4106.154, 0, 0, []
1630311251.0148, 56, 0, 4130.256, 4138.974, 4086.154, 4157.949, 4097.436, 0, 0, []
1630311251.0228, 57, 0, 4123.077, 4125.128, 4103.59, 4155.385, 4105.641, 0, 0, []
1630311251.0307, 58, 0, 4123.59, 4100.513, 4067.692, 4153.333, 4103.077, 0, 0, []
1630311251.0387, 59, 0, 4133.846, 4101.026, 4066.667, 4142.051, 4076.923, 0, 0, []
1630311251.0465, 60, 0, 4124.615, 4122.564, 4085.641, 4126.667, 4069.231, 0, 0, []
1630311251.0545, 61, 0, 4115.897, 4117.949, 4070.769, 4131.282, 4076.41, 0, 0, []
1630311251.0624, 62, 0, 4119.487, 4117.949, 4088.718, 4145.641, 4056.923, 0, 0, []
1630311251.0702, 63, 0, 4111.795, 4127.179, 4065.641, 4129.744, 4045.641, 0, 0, []
1630311251.0781, 64, 0, 4088.718, 4112.821, 4055.385, 4115.385, 4062.564, 450, 0, []
1630311251.0858, 65, 0, 4083.077, 4108.205, 4077.949, 4135.385, 4063.077, 450, 0, []
1630311251.0937, 66, 0, 4102.051, 4117.949, 4068.718, 4145.641, 4052.308, 16188, 0, []
1630311251.1015, 67, 0, 4101.026, 4111.795, 4085.128, 4133.333, 4059.487, 450, 0, []
1630311251.1094, 68, 0, 4092.308, 4105.641, 4073.333, 4138.974, 4074.872, 16133, 0, []
1630311251.1172, 69, 0, 4107.179, 4125.128, 4072.821, 4162.051, 4082.564, 450, 0, []
1630311251.125, 70, 0, 4115.385, 4125.641, 4094.359, 4162.564, 4090.256, 234, 0, []
1630311251.1328, 71, 0, 4109.744, 4090.769, 4076.923, 4156.923, 4098.462, 450, 0, []
1630311251.1407, 72, 0, 4118.974, 4084.615, 4095.385, 4167.179, 4090.256, 450, 0, []
1630311251.1485, 73, 0, 4125.641, 4109.231, 4090.769, 4163.077, 4083.077, 16143, 0, []
1630311251.1565, 74, 0, 4104.103, 4109.231, 4074.359, 4150.256, 4085.128, 450, 0, []
1630311251.1643, 75, 0, 4094.872, 4093.333, 4084.615, 4152.308, 4082.051, 16202, 0, []
1630311251.1723, 76, 0, 4110.256, 4103.077, 4067.692, 4153.333, 4080, 450, 0, []
1630311251.1802, 77, 0, 4105.128, 4121.538, 4084.615, 4142.564, 4079.487, 450, 0, []
1630311251.1882, 78, 0, 4093.846, 4122.564, 4075.385, 4142.051, 4073.846, 450, 0, []
1630311251.1961, 79, 0, 4098.974, 4122.564, 4056.923, 4146.667, 4060.513, 16202, 0, []
1630311251.204, 80, 0, 4094.872, 4118.462, 4082.051, 4133.846, 4056.923, 450, 0, []
1630311251.2119, 81, 0, 4091.282, 4108.718, 4067.179, 4137.436, 4074.359, 450, 0, []
1630311251.2199, 82, 0, 4114.872, 4103.077, 4081.026, 4162.051, 4088.718, 450, 0, []
1630311251.2278, 83, 0, 4131.795, 4108.205, 4089.231, 4163.59, 4090.769, 16202, 0, []
1630311251.2356, 84, 0, 4112.821, 4118.462, 4067.179, 4151.282, 4090.769, 450, 0, []
1630311251.2434, 85, 0, 4105.641, 4108.205, 4084.615, 4155.385, 4087.179, 450, 0, []
1630311251.2512, 86, 0, 4116.41, 4097.436, 4072.821, 4154.872, 4066.154, 450, 0, []
1630311251.2591, 87, 0, 4108.205, 4119.487, 4076.923, 4145.128, 4057.949, 16202, 0, []
1630311251.2669, 88, 0, 4106.667, 4149.744, 4079.487, 4153.333, 4078.462, 450, 0, []
1630311251.2748, 89, 0, 4117.949, 4171.795, 4065.641, 4161.538, 4081.026, 450, 0, []
1630311251.2826, 90, 0, 4111.795, 4191.282, 4097.436, 4150.769, 4075.385, 450, 0, []
1630311251.2904, 91, 0, 4097.949, 4191.282, 4080.513, 4143.59, 4089.744, 16202, 0, []
1630311251.2982, 92, 0, 4109.231, 4187.179, 4072.308, 4153.846, 4106.154, 450, 0, []
1630311251.3062, 93, 0, 4125.128, 4194.872, 4087.179, 4164.615, 4105.641, 450, 0, []
1630311251.3141, 94, 0, 4116.41, 4184.103, 4069.231, 4157.949, 4105.128, 450, 0, []
1630311251.3221, 95, 0, 4113.333, 4160, 4082.564, 4161.026, 4112.821, 16202, 0, []
1630311251.3299, 96, 0, 4125.128, 4153.846, 4064.615, 4166.667, 4106.154, 450, 0, []
1630311251.3379, 97, 0, 4131.282, 4155.385, 4058.974, 4148.718, 4100.513, 450, 0, []
1630311251.3458, 98, 0, 4140.513, 4155.897, 4073.846, 4132.308, 4121.538, 450, 0, []
1630311251.3538, 99, 0, 4177.949, 4155.897, 4060.513, 4145.641, 4161.026, 16202, 0, []
1630311251.3617, 100, 0, 4232.821, 4149.231, 4090.256, 4170.256, 4193.846, 450, 0, []
1630311251.3696, 101, 0, 4277.949, 4152.821, 4085.641, 4173.333, 4222.051, 450, 0, []
1630311251.3775, 102, 0, 4317.436, 4165.641, 4075.897, 4168.205, 4264.615, 450, 0, []
1630311251.3853, 103, 0, 4357.436, 4170.256, 4090.256, 4168.205, 4315.897, 16202, 0, []
1630311251.3932, 104, 0, 4373.846, 4167.692, 4068.718, 4159.487, 4348.205, 450, 0, []
1630311251.401, 105, 0, 4366.667, 4165.641, 4078.974, 4151.795, 4347.179, 450, 0, []
1630311251.4088, 106, 0, 4360.513, 4165.641, 4072.308, 4156.923, 4340, 450, 0, []
1630311251.4166, 107, 0, 4358.974, 4157.436, 4067.692, 4165.641, 4338.974, 16202, 0, []
1630311251.4245, 108, 0, 4348.205, 4147.692, 4082.564, 4154.359, 4320.513, 450, 0, []
1630311251.4323, 109, 0, 4328.205, 4149.744, 4056.923, 4138.462, 4289.231, 450, 0, []
1630311251.4402, 110, 0, 4305.641, 4161.026, 4082.564, 4148.205, 4271.795, 450, 0, []
1630311251.4479, 111, 0, 4286.667, 4160.513, 4091.282, 4150.256, 4268.718, 16202, 0, []
1630311251.4558, 112, 0, 4263.077, 4147.692, 4068.718, 4130.769, 4251.282, 450, 0, []
1630311251.4636, 113, 0, 4234.359, 4149.744, 4085.128, 4129.744, 4228.205, 450, 0, []
1630311251.4716, 114, 0, 4229.231, 4156.923, 4073.333, 4154.359, 4221.026, 450, 0, []
1630311251.4795, 115, 0, 4231.282, 4151.795, 4086.667, 4166.154, 4209.231, 16202, 0, []
1630311251.4873, 116, 0, 4203.59, 4157.436, 4085.641, 4147.692, 4184.103, 450, 0, []
1630311251.4952, 117, 0, 4176.41, 4169.231, 4070.769, 4141.026, 4179.487, 450, 0, []
1630311251.5032, 118, 0, 4182.051, 4152.821, 4098.974, 4163.077, 4188.205, 450, 0, []
1630311251.5111, 119, 0, 4185.641, 4149.744, 4083.077, 4172.308, 4174.359, 16202, 0, []
1630311251.5191, 120, 0, 4172.821, 4173.333, 4089.744, 4163.077, 4161.538, 450, 0, []
1630311251.5269, 121, 0, 4168.718, 4167.179, 4101.538, 4167.692, 4174.359, 450, 0, []
1630311251.5348, 122, 0, 4175.897, 4155.897, 4084.615, 4183.077, 4183.59, 450, 0, []
1630311251.5427, 123, 0, 4177.436, 4174.359, 4094.359, 4181.026, 4166.667, 16202, 0, []
1630311251.5505, 124, 0, 4159.487, 4172.308, 4068.205, 4160.513, 4138.462, 450, 0, []
1630311251.5584, 125, 0, 4133.333, 4153.846, 4076.41, 4148.718, 4129.231, 450, 0, []
1630311251.5661, 126, 0, 4129.744, 4153.846, 4092.308, 4160, 4143.077, 450, 0, []
1630311251.574, 127, 0, 4146.667, 4155.385, 4067.692, 4175.385, 4144.103, 16202, 0, []
1630311251.5818, 128, 0, 4143.077, 4158.462, 4087.179, 4169.231, 4121.026, 450, 0, []
1630311251.5897, 0, 0, 4117.436, 4150.256, 4083.59, 4156.41, 4111.795, 450, 0, []
1630311251.5975, 1, 0, 4121.538, 4133.333, 4087.179, 4169.231, 4127.692, 450, 0, []
1630311251.6053, 2, 0, 4145.128, 4157.949, 4098.974, 4182.564, 4132.308, 16186, 0, []
1630311251.6131, 3, 0, 4140, 4178.462, 4074.359, 4167.179, 4120, 450, 0, []
1630311251.6211, 4, 0, 4119.487, 4145.128, 4095.897, 4164.615, 4118.974, 16129, 0, []
1630311251.629, 5, 0, 4125.128, 4141.026, 4089.744, 4185.128, 4127.179, 450, 0, []
1630311251.637, 6, 0, 4131.282, 4172.821, 4074.872, 4187.692, 4115.897, 232, 0, []
1630311251.6449, 7, 0, 4111.282, 4163.077, 4081.538, 4164.615, 4100, 450, 0, []
1630311251.6528, 8, 0, 4107.692, 4145.641, 4069.231, 4156.923, 4105.641, 450, 0, []
1630311251.6607, 9, 0, 4130.256, 4157.949, 4098.462, 4169.231, 4106.667, 16136, 0, []
1630311251.6687, 10, 0, 4133.333, 4163.077, 4087.692, 4163.59, 4093.333, 450, 0, []
1630311251.6766, 11, 0, 4111.795, 4149.744, 4065.128, 4149.231, 4091.282, 16200, 0, []
1630311251.6846, 12, 0, 4099.487, 4131.282, 4080, 4151.795, 4087.179, 450, 0, []
1630311251.6924, 13, 0, 4099.487, 4114.872, 4062.051, 4149.744, 4066.667, 450, 0, []
1630311251.7003, 14, 0, 4092.821, 4116.923, 4079.487, 4144.615, 4062.564, 450, 0, []
1630311251.7082, 15, 0, 4100.513, 4131.795, 4089.231, 4164.103, 4087.179, 16200, 0, []
1630311251.716, 16, 0, 4122.564, 4147.692, 4081.026, 4180.513, 4092.821, 0, 0, []
1630311251.7239, 17, 0, 4129.231, 4152.821, 4094.872, 4165.641, 4088.205, 0, 0, []
1630311251.7316, 18, 0, 4120, 4145.641, 4072.308, 4160.513, 4103.077, 0, 0, []
1630311251.7395, 19, 0, 4122.051, 4155.897, 4082.564, 4175.385, 4101.026, 0, 0, []
1630311251.7473, 20, 0, 4131.282, 4174.359, 4087.179, 4168.718, 4075.385, 0, 0, []
1630311251.7552, 21, 0, 4126.154, 4169.231, 4074.872, 4146.667, 4085.128, 0, 0, []
1630311251.763, 22, 0, 4115.385, 4146.667, 4096.41, 4149.744, 4111.795, 0, 0, []
1630311251.7709, 23, 0, 4116.923, 4131.282, 4070.769, 4164.103, 4100, 0, 0, []
1630311251.7788, 24, 0, 4129.231, 4145.128, 4081.026, 4162.564, 4090.769, 0, 0, []
1630311251.7868, 25, 0, 4129.231, 4163.077, 4102.564, 4155.385, 4108.205, 0, 0, []
1630311251.7947, 26, 0, 4125.128, 4144.103, 4082.564, 4164.615, 4107.692, 0, 0, []
1630311251.8027, 27, 0, 4141.026, 4128.205, 4089.231, 4179.487, 4096.923, 0, 0, []
1630311251.8105, 28, 0, 4142.051, 4138.462, 4065.128, 4167.692, 4091.795, 0, 0, []
1630311251.8185, 29, 0, 4111.795, 4123.077, 4072.821, 4153.333, 4082.564, 0, 0, []
1630311251.8264, 30, 0, 4108.205, 4096.923, 4086.667, 4160.513, 4076.923, 0, 0, []
1630311251.8344, 31, 0, 4131.282, 4110.256, 4066.154, 4161.538, 4083.077, 0, 0, []
1630311251.8423, 32, 0, 4122.564, 4134.359, 4088.205, 4146.667, 4081.538, 0, 0, []
1630311251.8501, 33, 0, 4094.359, 4141.026, 4069.231, 4139.487, 4061.026, 0, 0, []
1630311251.858, 34, 0, 4089.231, 4146.667, 4056.923, 4141.538, 4027.179, 0, 0, []
1630311251.8658, 35, 0, 4100.513, 4145.128, 4077.949, 4131.282, 4012.821, 0, 0, []
1630311251.8737, 36, 0, 4103.59, 4146.667, 4075.385, 4132.308, 4037.436, 0, 0, []
1630311251.8815, 37, 0, 4099.487, 4155.385, 4090.256, 4148.205, 4048.205, 0, 0, []
1630311251.8893, 38, 0, 4094.359, 4153.846, 4065.641, 4136.923, 4027.692, 0, 0, []
1630311251.8971, 39, 0, 4097.949, 4147.692, 4069.231, 4118.974, 4032.821, 0, 0, []
1630311251.905, 40, 0, 4111.795, 4142.564, 4107.692, 4136.41, 4060, 0, 0, []
1630311251.9128, 41, 0, 4124.103, 4151.795, 4082.051, 4154.872, 4057.949, 0, 0, []
1630311251.9207, 42, 0, 4125.641, 4172.308, 4081.026, 4143.59, 4037.949, 0, 0, []
1630311251.9284, 43, 0, 4115.897, 4170.256, 4074.359, 4130.256, 4035.897, 0, 0, []
1630311251.9363, 44, 0, 4110.769, 4150.769, 4063.59, 4130.256, 4044.103, 0, 0, []
1630311251.9441, 45, 0, 4112.821, 4155.897, 4078.462, 4133.333, 4036.41, 0, 0, []
1630311251.9521, 46, 0, 4104.103, 4155.897, 4063.077, 4127.692, 4024.103, 0, 0, []
1630311251.96, 47, 0, 4091.795, 4131.795, 4080, 4129.231, 4021.538, 0, 0, []
1630311251.9679, 48, 0, 4101.026, 4147.179, 4073.333, 4140, 4020.513, 0, 0, []
1630311251.9758, 49, 0, 4120.513, 4163.077, 4055.385, 4141.026, 4024.615, 0, 0, []
1630311251.9838, 50, 0, 4121.026, 4142.564, 4079.487, 4137.949, 4043.59, 0, 0, []
1630311251.9917, 51, 0, 4125.128, 4153.333, 4071.795, 4149.744, 4054.359, 0, 0, []
1630311251.9997, 52, 0, 4136.923, 4180.513, 4093.333, 4163.077, 4040.513, 0, 0, []
1630311252.0076, 53, 0, 4132.821, 4162.051, 4097.949, 4153.846, 4042.051, 0, 0, []
1630311252.0153, 54, 0, 4128.205, 4152.821, 4078.974, 4145.128, 4062.051, 0, 0, []
1630311252.0232, 55, 0, 4137.949, 4180, 4097.949, 4151.795, 4063.59, 0, 0, []
1630311252.031, 56, 0, 4147.692, 4175.897, 4081.026, 4157.949, 4060, 0, 0, []
1630311252.0389, 57, 0, 4141.026, 4153.846, 4081.026, 4157.436, 4069.744, 0, 0, []
1630311252.0467, 58, 0, 4136.41, 4155.897, 4081.538, 4158.974, 4076.41, 0, 0, []
1630311252.0545, 59, 0, 4141.026, 4157.949, 4067.692, 4168.718, 4066.667, 0, 0, []
1630311252.0623, 60, 0, 4132.821, 4149.231, 4085.641, 4155.897, 4053.846, 0, 0, []
1630311252.0702, 61, 0, 4120, 4160, 4065.128, 4130.256, 4059.487, 0, 0, []
1630311252.078, 62, 0, 4123.59, 4184.615, 4076.923, 4144.103, 4073.846, 0, 0, []
1630311252.086, 63, 0, 4141.026, 4180, 4092.821, 4167.692, 4070.256, 0, 0, []
1630311252.0938, 64, 0, 4154.872, 4163.077, 4072.308, 4152.308, 4070.769, 450, 0, []
1630311252.1018, 65, 0, 4158.462, 4172.308, 4102.564, 4143.077, 4092.308, 450, 0, []
1630311252.1097, 66, 0, 4155.385, 4172.821, 4087.179, 4159.487, 4100, 16186, 0, []
1630311252.1177, 67, 0, 4159.487, 4155.385, 4069.744, 4160, 4088.718, 450, 0, []
1630311252.1256, 68, 0, 4166.154, 4160.513, 4080, 4145.128, 4086.667, 16131, 0, []
1630311252.1335, 69, 0, 4155.385, 4164.615, 4058.974, 4147.179, 4097.949, 450, 0, []
1630311252.1414, 70, 0, 4147.692, 4136.41, 4077.949, 4163.59, 4105.128, 191, 0, []
1630311252.1494, 71, 0, 4159.487, 4129.744, 4070.256, 4162.564, 4100, 450, 0, []
1630311252.1573, 72, 0, 4163.077, 4148.718, 4065.641, 4148.718, 4094.872, 450, 0, []
1630311252.1651, 73, 0, 4152.821, 4146.667, 4088.205, 4144.615, 4106.154, 16125, 0, []
1630311252.1729, 74, 0, 4151.282, 4131.282, 4070.256, 4154.872, 4114.872, 450, 0, []
1630311252.1807, 75, 0, 4151.795, 4132.308, 4075.385, 4159.487, 4105.128, 16202, 0, []
1630311252.1886, 76, 0, 4144.615, 4154.872, 4063.59, 4152.308, 4095.385, 450, 0, []
1630311252.1964, 77, 0, 4134.872, 4160, 4064.615, 4151.282, 4097.436, 450, 0, []
1630311252.2043, 78, 0, 4132.821, 4141.026, 4086.667, 4160, 4112.308, 450, 0, []
1630311252.212, 79, 0, 4146.154, 4140.513, 4061.538, 4165.641, 4123.077, 16202, 0, []
1630311252.22, 80, 0, 4160, 4150.769, 4078.462, 4160.513, 4119.487, 450, 0, []
1630311252.2279, 81, 0, 4153.846, 4152.308, 4081.026, 4150.769, 4127.179, 450, 0, []
1630311252.2359, 82, 0, 4148.718, 4152.821, 4068.205, 4160, 4143.077, 450, 0, []
1630311252.2438, 83, 0, 4160, 4153.333, 4088.718, 4177.436, 4135.385, 16202, 0, []
1630311252.2517, 84, 0, 4163.077, 4157.436, 4068.205, 4169.744, 4126.667, 450, 0, []
1630311252.2596, 85, 0, 4155.385, 4183.59, 4078.462, 4155.897, 4142.564, 450, 0, []
1630311252.2676, 86, 0, 4151.282, 4191.795, 4080.513, 4157.436, 4141.538, 450, 0, []
1630311252.2755, 87, 0, 4150.769, 4167.692, 4061.538, 4154.359, 4114.359, 16202, 0, []
1630311252.2835, 88, 0, 4163.077, 4161.538, 4094.872, 4150.769, 4122.051, 450, 0, []
1630311252.2913, 89, 0, 4170.769, 4166.667, 4094.359, 4153.333, 4156.41, 450, 0, []
1630311252.2993, 90, 0, 4162.051, 4160.513, 4094.359, 4156.923, 4155.897, 450, 0, []
1630311252.3073, 91, 0, 4163.59, 4166.154, 4087.179, 4160, 4138.462, 16202, 0, []
1630311252.3152, 92, 0, 4165.128, 4175.897, 4066.667, 4150.256, 4138.462, 450, 0, []
1630311252.3232, 93, 0, 4138.974, 4157.949, 4085.641, 4129.744, 4132.821, 450, 0, []
1630311252.331, 94, 0, 4127.179, 4145.128, 4073.333, 4126.154, 4124.103, 450, 0, []
1630311252.339, 95, 0, 4151.795, 4162.564, 4081.026, 4140.513, 4126.667, 16202, 0, []
1630311252.3469, 96, 0, 4167.692, 4174.872, 4095.385, 4151.795, 4134.872, 450, 0, []
1630311252.3549, 97, 0, 4167.692, 4174.872, 4084.615, 4159.487, 4157.949, 450, 0, []
1630311252.3628, 98, 0, 4164.615, 4172.821, 4102.051, 4166.667, 4173.846, 450, 0, []
1630311252.3708, 99, 0, 4159.487, 4158.462, 4071.282, 4163.077, 4150.256, 16202, 0, []
1630311252.3786, 100, 0, 4150.256, 4145.128, 4065.128, 4152.308, 4125.128, 450, 0, []
1630311252.3866, 101, 0, 4138.462, 4166.667, 4086.667, 4144.615, 4135.897, 450, 0, []
1630311252.3946, 102, 0, 4141.538, 4175.897, 4065.128, 4149.744, 4145.128, 450, 0, []
1630311252.4025, 103, 0, 4162.051, 4145.128, 4083.077, 4160, 4136.923, 16202, 0, []
1630311252.4105, 104, 0, 4174.872, 4140.513, 4078.974, 4154.872, 4137.436, 450, 0, []
1630311252.4183, 105, 0, 4168.205, 4158.462, 4069.231, 4148.718, 4143.077, 450, 0, []
1630311252.4263, 106, 0, 4167.692, 4155.385, 4078.974, 4158.462, 4145.641, 450, 0, []
1630311252.4342, 107, 0, 4176.923, 4151.795, 4062.051, 4156.923, 4138.974, 16202, 0, []
1630311252.4422, 108, 0, 4170.256, 4147.692, 4081.026, 4139.487, 4123.59, 450, 0, []
1630311252.4501, 109, 0, 4152.308, 4128.718, 4068.205, 4137.436, 4120, 450, 0, []
1630311252.458, 110, 0, 4149.231, 4121.026, 4057.949, 4151.282, 4124.615, 450, 0, []
1630311252.4659, 111, 0, 4158.974, 4125.641, 4080, 4153.333, 4111.282, 16202, 0, []
1630311252.4739, 112, 0, 4149.231, 4121.538, 4056.41, 4140, 4092.308, 450, 0, []
1630311252.4818, 113, 0, 4127.692, 4124.103, 4071.282, 4141.026, 4103.59, 450, 0, []
1630311252.4897, 114, 0, 4137.436, 4141.026, 4085.641, 4160, 4128.718, 450, 0, []
1630311252.4976, 115, 0, 4166.154, 4153.846, 4085.128, 4171.795, 4127.692, 16202, 0, []
1630311252.5056, 116, 0, 4169.231, 4148.718, 4099.487, 4162.564, 4123.077, 450, 0, []
1630311252.5135, 117, 0, 4148.718, 4143.59, 4066.667, 4145.128, 4137.436, 450, 0, []
1630311252.5215, 118, 0, 4147.692, 4164.103, 4072.308, 4149.744, 4143.59, 450, 0, []
1630311252.5294, 119, 0, 4169.231, 4185.641, 4080.513, 4163.077, 4132.308, 16202, 0, []
1630311252.5373, 120, 0, 4177.436, 4186.154, 4069.231, 4154.872, 4133.333, 450, 0, []
1630311252.5452, 121, 0, 4166.667, 4184.103, 4086.154, 4143.077, 4144.615, 450, 0, []
1630311252.5532, 122, 0, 4162.051, 4157.436, 4056.41, 4145.128, 4140, 450, 0, []
1630311252.5612, 123, 0, 4172.821, 4113.333, 4061.538, 4150.256, 4135.897, 16202, 0, []
1630311252.5691, 124, 0, 4174.872, 4116.923, 4080.513, 4142.564, 4141.538, 450, 0, []
1630311252.577, 125, 0, 4156.41, 4162.051, 4069.744, 4137.949, 4143.077, 450, 0, []
1630311252.5849, 126, 0, 4147.692, 4175.897, 4092.821, 4151.795, 4141.026, 450, 0, []
1630311252.5929, 127, 0, 4162.051, 4153.333, 4082.051, 4153.333, 4129.744, 16202, 0, []
1630311252.6008, 128, 0, 4172.308, 4155.385, 4086.154, 4136.41, 4123.59, 450, 0, []
1630311252.6088, 0, 0, 4167.692, 4178.974, 4092.821, 4134.359, 4141.026, 450, 0, []
1630311252.6166, 1, 0, 4169.744, 4174.872, 4070.769, 4153.333, 4156.923, 450, 0, []
1630311252.6246, 2, 0, 4174.359, 4156.41, 4085.128, 4160, 4139.487, 16186, 0, []
1630311252.6325, 3, 0, 4166.154, 4156.923, 4067.179, 4141.026, 4115.897, 450, 0, []
1630311252.6405, 4, 0, 4162.051, 4154.359, 4076.923, 4137.949, 4128.205, 16129, 0, []
1630311252.6484, 5, 0, 4168.718, 4142.051, 4098.462, 4157.949, 4146.667, 450, 0, []
1630311252.6563, 6, 0, 4170.256, 4156.923, 4074.359, 4161.538, 4138.974, 225, 0, []
1630311252.6642, 7, 0, 4174.872, 4189.231, 4097.436, 4142.051, 4137.436, 450, 0, []
1630311252.6722, 8, 0, 4181.026, 4193.333, 4090.769, 4142.564, 4162.051, 450, 0, []
1630311252.6801, 9, 0, 4177.436, 4170.769, 4076.41, 4171.795, 4167.692, 16138, 0, []
1630311252.6881, 10, 0, 4179.487, 4169.744, 4083.59, 4184.103, 4149.231, 450, 0, []
1630311252.696, 11, 0, 4192.821, 4183.077, 4062.564, 4175.385, 4157.436, 16198, 0, []
1630311252.7039, 12, 0, 4185.641, 4180, 4077.436, 4171.795, 4174.359, 450, 0, []
1630311252.7119, 13, 0, 4166.154, 4168.205, 4068.205, 4166.667, 4164.615, 450, 0, []
1630311252.7198, 14, 0, 4165.641, 4165.641, 4060, 4156.923, 4144.615, 450, 0, []
1630311252.7278, 15, 0, 4174.359, 4172.308, 4084.615, 4152.308, 4134.359, 16198, 0, []
1630311252.7356, 16, 0, 4177.949, 4177.949, 4070.256, 4147.179, 4142.564, 0, 0, []
1630311252.7436, 17, 0, 4180, 4184.615, 4083.077, 4152.308, 4162.051, 0, 0, []
1630311252.7515, 18, 0, 4197.436, 4205.641, 4082.051, 4175.897, 4174.872, 0, 0, []
1630311252.7595, 19, 0, 4213.846, 4213.846, 4074.359, 4183.077, 4173.333, 0, 0, []
1630311252.7674, 20, 0, 4207.179, 4182.051, 4093.333, 4153.846, 4164.615, 0, 0, []
1630311252.7754, 21, 0, 4186.154, 4159.487, 4065.641, 4124.615, 4158.462, 0, 0, []
1630311252.7832, 22, 0, 4175.897, 4175.385, 4069.231, 4128.205, 4154.359, 0, 0, []
1630311252.7912, 23, 0, 4189.744, 4192.308, 4073.846, 4145.641, 4151.795, 0, 0, []
1630311252.7991, 24, 0, 4203.077, 4192.308, 4063.59, 4152.308, 4162.051, 0, 0, []
1630311252.8071, 25, 0, 4202.564, 4191.795, 4089.744, 4154.359, 4182.564, 0, 0, []
1630311252.815, 26, 0, 4203.59, 4183.077, 4076.923, 4157.436, 4194.359, 0, 0, []
1630311252.8229, 27, 0, 4218.462, 4161.026, 4085.128, 4162.564, 4199.487, 0, 0, []
1630311252.8308, 28, 0, 4228.205, 4167.692, 4091.795, 4161.026, 4201.026, 0, 0, []
1630311252.8388, 29, 0, 4216.923, 4196.923, 4075.385, 4147.692, 4190.769, 0, 0, []
1630311252.8467, 30, 0, 4203.077, 4196.923, 4094.872, 4144.615, 4179.487, 0, 0, []
1630311252.8547, 31, 0, 4197.436, 4191.282, 4068.205, 4157.949, 4172.821, 0, 0, []
1630311252.8626, 32, 0, 4186.667, 4213.846, 4060.513, 4158.974, 4157.949, 0, 0, []
1630311252.8705, 33, 0, 4171.795, 4216.923, 4074.359, 4144.103, 4157.436, 0, 0, []
1630311252.8785, 34, 0, 4170.769, 4198.462, 4063.59, 4155.385, 4178.462, 0, 0, []
1630311252.8864, 35, 0, 4182.564, 4198.974, 4089.744, 4177.436, 4177.949, 0, 0, []
1630311252.8944, 36, 0, 4195.385, 4197.436, 4084.615, 4172.308, 4163.077, 0, 0, []
1630311252.9022, 37, 0, 4204.103, 4168.718, 4087.692, 4158.974, 4167.179, 0, 0, []
1630311252.9102, 38, 0, 4206.667, 4157.436, 4092.308, 4154.359, 4174.359, 0, 0, []
1630311252.9181, 39, 0, 4216.41, 4180.513, 4067.179, 4151.282, 4173.333, 0, 0, []
1630311252.9261, 40, 0, 4228.718, 4195.385, 4089.231, 4142.051, 4163.59, 0, 0, []
1630311252.934, 41, 0, 4223.077, 4199.487, 4078.462, 4134.359, 4151.795, 0, 0, []
1630311252.9419, 42, 0, 4208.718, 4202.564, 4073.333, 4149.744, 4166.154, 0, 0, []
1630311252.9498, 43, 0, 4202.051, 4193.846, 4087.692, 4175.897, 4191.282, 0, 0, []
1630311252.9578, 44, 0, 4202.051, 4184.615, 4071.282, 4185.128, 4190.769, 0, 0, []
1630311252.9657, 45, 0, 4216.41, 4182.051, 4112.308, 4189.744, 4184.615, 0, 0, []
1630311252.9737, 46, 0, 4223.077, 4157.949, 4113.846, 4187.179, 4186.667, 0, 0, []
1630311252.9815, 47, 0, 4200.513, 4135.897, 4082.564, 4172.308, 4175.385, 0, 0, []
1630311252.9895, 48, 0, 4190.256, 4159.487, 4094.359, 4173.846, 4166.154, 0, 0, []
1630311252.9974, 49, 0, 4207.179, 4194.359, 4081.538, 4186.667, 4170.769, 0, 0, []
1630311253.0054, 50, 0, 4208.718, 4206.154, 4082.051, 4182.564, 4165.128, 0, 0, []
1630311253.0134, 51, 0, 4198.462, 4199.487, 4070.256, 4172.308, 4162.051, 0, 0, []
1630311253.0212, 52, 0, 4208.718, 4199.487, 4075.385, 4184.103, 4181.026, 0, 0, []
1630311253.0292, 53, 0, 4220, 4202.051, 4105.128, 4195.385, 4187.179, 0, 0, []
1630311253.0371, 54, 0, 4217.949, 4196.41, 4077.949, 4177.436, 4161.538, 0, 0, []
1630311253.0451, 55, 0, 4212.308, 4197.949, 4086.667, 4154.872, 4151.795, 0, 0, []
1630311253.053, 56, 0, 4206.154, 4207.179, 4087.692, 4154.359, 4168.718, 0, 0, []
1630311253.0609, 57, 0, 4206.154, 4206.154, 4069.744, 4169.744, 4174.359, 0, 0, []
1630311253.0688, 58, 0, 4217.436, 4189.744, 4097.949, 4185.641, 4169.744, 0, 0, []
1630311253.0768, 59, 0, 4223.077, 4181.026, 4088.205, 4185.128, 4176.41, 0, 0, []
1630311253.0847, 60, 0, 4213.846, 4182.051, 4093.333, 4175.897, 4182.051, 0, 0, []
1630311253.0927, 61, 0, 4201.538, 4174.359, 4101.026, 4177.436, 4186.154, 0, 0, []
1630311253.1005, 62, 0, 4198.462, 4157.949, 4084.615, 4181.538, 4187.692, 0, 0, []
1630311253.1085, 63, 0, 4204.103, 4168.205, 4102.564, 4178.462, 4170.769, 0, 0, []
1630311253.1164, 64, 0, 4205.128, 4190.769, 4089.744, 4172.308, 4161.538, 450, 0, []
1630311253.1244, 65, 0, 4197.436, 4177.436, 4089.231, 4170.769, 4182.051, 450, 0, []
1630311253.1323, 66, 0, 4199.487, 4166.667, 4085.128, 4177.949, 4188.718, 16184, 0, []
1630311253.1401, 67, 0, 4205.641, 4168.205, 4068.205, 4185.128, 4164.103, 450, 0, []
1630311253.148, 68, 0, 4197.436, 4154.359, 4097.436, 4174.872, 4146.154, 16129, 0, []
1630311253.1558, 69, 0, 4175.385, 4154.359, 4073.846, 4156.41, 4151.795, 450, 0, []
1630311253.1637, 70, 0, 4162.564, 4161.538, 4064.615, 4165.641, 4155.897, 226, 0, []
1630311253.1715, 71, 0, 4177.949, 4153.846, 4090.256, 4182.564, 4147.179, 450, 0, []
1630311253.1795, 72, 0, 4198.462, 4161.538, 4076.923, 4172.821, 4136.923, 450, 0, []
1630311253.1873, 73, 0, 4188.205, 4174.359, 4085.128, 4154.872, 4132.821, 16142, 0, []
1630311253.1953, 74, 0, 4167.179, 4165.641, 4067.692, 4155.897, 4143.077, 450, 0, []
1630311253.2032, 75, 0, 4176.923, 4180, 4068.718, 4173.333, 4155.897, 16198, 0, []
1630311253.2112, 76, 0, 4200, 4203.59, 4093.846, 4178.462, 4150.256, 450, 0, []
1630311253.2191, 77, 0, 4201.026, 4183.59, 4073.333, 4162.564, 4140, 450, 0, []
1630311253.227, 78, 0, 4197.949, 4167.692, 4091.282, 4165.128, 4151.795, 450, 0, []
1630311253.2349, 79, 0, 4208.205, 4190.256, 4088.205, 4190.256, 4167.692, 16198, 0, []
1630311253.2429, 80, 0, 4216.41, 4205.128, 4076.923, 4197.949, 4154.359, 450, 0, []
1630311253.2508, 81, 0, 4217.436, 4188.718, 4098.974, 4189.231, 4139.487, 450, 0, []
1630311253.2588, 82, 0, 4217.949, 4178.462, 4085.128, 4187.179, 4161.026, 450, 0, []
1630311253.2666, 83, 0, 4214.872, 4195.897, 4090.769, 4190.769, 4181.538, 16198, 0, []
1630311253.2746, 84, 0, 4205.641, 4195.897, 4074.359, 4182.564, 4163.59, 450, 0, []
1630311253.2825, 85, 0, 4202.564, 4177.436, 4067.692, 4174.872, 4143.59, 450, 0, []
1630311253.2903, 86, 0, 4203.59, 4187.692, 4097.949, 4170.769, 4148.718, 450, 0, []
1630311253.2982, 87, 0, 4190.769, 4202.564, 4074.872, 4163.59, 4155.385, 16198, 0, []
1630311253.3059, 88, 0, 4184.615, 4188.205, 4085.128, 4169.744, 4160.513, 450, 0, []
1630311253.3139, 89, 0, 4209.231, 4180, 4088.718, 4183.077, 4168.205, 450, 0, []
1630311253.3218, 90, 0, 4221.538, 4185.128, 4067.692, 4180, 4156.923, 450, 0, []
1630311253.3298, 91, 0, 4197.436, 4187.179, 4084.103, 4163.077, 4140, 16198, 0, []
1630311253.3377, 92, 0, 4186.154, 4190.769, 4073.846, 4167.179, 4149.744, 450, 0, []
1630311253.3456, 93, 0, 4209.744, 4189.744, 4096.41, 4192.308, 4173.333, 450, 0, []
1630311253.3535, 94, 0, 4228.205, 4184.103, 4104.103, 4202.564, 4174.359, 450, 0, []
1630311253.3615, 95, 0, 4226.667, 4177.949, 4075.385, 4196.41, 4163.077, 16198, 0, []
1630311253.3694, 96, 0, 4222.051, 4179.487, 4090.769, 4190.769, 4174.359, 450, 0, []
1630311253.3774, 97, 0, 4209.231, 4187.179, 4071.795, 4184.615, 4186.154, 450, 0, []
1630311253.3852, 98, 0, 4196.41, 4185.641, 4067.179, 4177.436, 4172.308, 450, 0, []
1630311253.3932, 99, 0, 4203.59, 4182.051, 4077.436, 4178.974, 4160.513, 16198, 0, []
1630311253.4011, 100, 0, 4218.974, 4193.333, 4070.256, 4181.538, 4165.128, 450, 0, []
1630311253.4091, 101, 0, 4219.487, 4208.205, 4100.513, 4176.923, 4176.923, 450, 0, []
1630311253.417, 102, 0, 4215.385, 4195.385, 4090.769, 4172.821, 4197.949, 450, 0, []
1630311253.4248, 103, 0, 4224.103, 4175.897, 4084.103, 4178.462, 4204.615, 16198, 0, []
1630311253.4327, 104, 0, 4234.872, 4191.795, 4086.667, 4190.256, 4192.821, 450, 0, []
1630311253.4405, 105, 0, 4241.538, 4218.462, 4070.769, 4196.41, 4203.59, 450, 0, []
1630311253.4484, 106, 0, 4234.872, 4212.308, 4095.385, 4190.256, 4218.462, 450, 0, []
1630311253.4562, 107, 0, 4218.462, 4193.333, 4081.538, 4180, 4206.154, 16198, 0, []
1630311253.464, 108, 0, 4211.282, 4187.692, 4077.436, 4180.513, 4191.795, 450, 0, []
1630311253.4718, 109, 0, 4219.487, 4184.615, 4100.513, 4185.128, 4187.692, 450, 0, []
1630311253.4797, 110, 0, 4226.667, 4177.949, 4081.026, 4176.923, 4184.615, 450, 0, []
1630311253.4877, 111, 0, 4217.436, 4167.692, 4099.487, 4172.308, 4184.615, 16198, 0, []
1630311253.4957, 112, 0, 4213.846, 4167.692, 4097.436, 4182.564, 4189.231, 450, 0, []
1630311253.5035, 113, 0, 4224.615, 4185.641, 4085.128, 4190.256, 4184.103, 450, 0, []
1630311253.5115, 114, 0, 4226.154, 4191.795, 4093.846, 4186.154, 4164.103, 450, 0, []
1630311253.5194, 115, 0, 4217.436, 4178.462, 4065.641, 4173.846, 4153.846, 16198, 0, []
1630311253.5274, 116, 0, 4213.333, 4171.795, 4077.949, 4166.154, 4171.795, 450, 0, []
1630311253.5353, 117, 0, 4208.205, 4168.205, 4076.923, 4168.205, 4191.282, 450, 0, []
1630311253.5433, 118, 0, 4206.667, 4154.872, 4062.051, 4180, 4190.256, 450, 0, []
1630311253.5511, 119, 0, 4211.282, 4147.692, 4079.487, 4190.769, 4183.077, 16198, 0, []
1630311253.5591, 120, 0, 4205.641, 4158.462, 4062.051, 4176.41, 4182.564, 450, 0, []
1630311253.567, 121, 0, 4193.846, 4169.231, 4074.359, 4158.974, 4183.59, 450, 0, []
1630311253.575, 122, 0, 4206.154, 4157.436, 4077.436, 4167.692, 4189.231, 450, 0, []
1630311253.5829, 123, 0, 4229.744, 4152.308, 4071.282, 4185.641, 4197.436, 16198, 0, []
1630311253.5906, 124, 0, 4226.154, 4175.385, 4093.333, 4177.949, 4195.897, 450, 0, []
1630311253.5985, 125, 0, 4202.051, 4188.718, 4062.051, 4161.026, 4195.897, 450, 0, []
1630311253.6063, 126, 0, 4194.872, 4171.282, 4067.179, 4172.821, 4197.949, 450, 0, []
1630311253.6142, 127, 0, 4202.051, 4160.513, 4078.974, 4186.667, 4185.641, 16198, 0, []
1630311253.622, 128, 0, 4203.077, 4171.282, 4058.462, 4177.436, 4172.308, 450, 0, []
1630311253.6298, 0, 0, 4206.667, 4178.974, 4081.538, 4160.513, 4180.513, 450, 0, []
1630311253.6376, 1, 0, 4215.385, 4167.692, 4079.487, 4152.821, 4198.974, 450, 0, []
1630311253.6456, 2, 0, 4223.077, 4151.282, 4092.308, 4164.103, 4198.462, 16186, 0, []
1630311253.6535, 3, 0, 4232.308, 4161.026, 4100.513, 4182.051, 4187.692, 450, 0, []
1630311253.6615, 4, 0, 4223.077, 4173.846, 4074.872, 4184.103, 4187.179, 16132, 0, []
1630311253.6693, 5, 0, 4201.538, 4156.923, 4089.744, 4171.282, 4197.949, 450, 0, []
1630311253.6773, 6, 0, 4202.564, 4153.333, 4077.949, 4166.667, 4205.128, 237, 0, []
1630311253.6852, 7, 0, 4217.949, 4171.795, 4083.59, 4180, 4195.897, 450, 0, []
1630311253.6932, 8, 0, 4219.487, 4162.051, 4094.359, 4188.205, 4182.051, 450, 0, []
1630311253.7011, 9, 0, 4209.744, 4143.077, 4064.615, 4171.795, 4185.641, 16144, 0, []
1630311253.709, 10, 0, 4200, 4146.667, 4076.41, 4159.487, 4202.051, 450, 0, []
1630311253.7169, 11, 0, 4194.359, 4138.974, 4067.692, 4172.308, 4205.641, 16203, 0, []
1630311253.7249, 12, 0, 4198.462, 4140, 4074.872, 4191.282, 4199.487, 450, 0, []
1630311253.7328, 13, 0, 4203.59, 4170.256, 4099.487, 4192.308, 4196.41, 450, 0, []
1630311253.7407, 14, 0, 4190.256, 4177.436, 4077.949, 4177.949, 4190.769, 450, 0, []
1630311253.7485, 15, 0, 4178.974, 4155.385, 4095.385, 4175.897, 4182.051, 16203, 0, []
1630311253.7563, 16, 0, 4192.821, 4149.231, 4092.308, 4177.436, 4178.974, 0, 0, []
1630311253.7642, 17, 0, 4209.744, 4162.051, 4090.769, 4173.333, 4187.179, 0, 0, []
1630311253.772, 18, 0, 4206.154, 4171.282, 4114.359, 4172.308, 4198.462, 0, 0, []
1630311253.7799, 19, 0, 4199.487, 4170.769, 4092.308, 4180.513, 4204.103, 0, 0, []
1630311253.7876, 20, 0, 4205.641, 4160.513, 4100.513, 4195.897, 4202.564, 0, 0, []
1630311253.7956, 21, 0, 4218.462, 4150.256, 4093.846, 4199.487, 4195.385, 0, 0, []
