Timestamp, COUNTER, INTERPOLATED, AF3, T7, Pz, T8, AF4, RAW_CQ, MARKER_HARDWARE, MARKERS
1628604595.4438, 47, 1, 3971.111, 4199.886, 4134.188, 4428.604, 4167.236, 0, 0, []
1628604595.4517, 48, 1, 3970.94, 4203.875, 4131.453, 4432.08, 4168.832, 0, 0, []
1628604595.4596, 49, 1, 3970.769, 4207.863, 4128.718, 4435.556, 4170.427, 0, 0, []
1628604595.4674, 50, 1, 3970.598, 4211.852, 4125.983, 4439.031, 4172.023, 0, 0, []
1628604595.4753, 51, 1, 3970.427, 4215.84, 4123.248, 4442.507, 4173.618, 0, 0, []
1628604595.4832, 52, 1, 3970.256, 4219.829, 4120.513, 4445.983, 4175.214, 0, 0, []
1628604595.4911, 53, 1, 3970.085, 4223.818, 4117.778, 4449.459, 4176.809, 0, 0, []
1628604595.499, 54, 1, 3969.915, 4227.806, 4115.043, 4452.934, 4178.405, 0, 0, []
1628604595.5068, 55, 0, 3969.744, 4231.795, 4112.308, 4456.41, 4180, 0, 0, []
1628604595.5148, 56, 0, 3956.41, 4217.436, 4117.436, 4468.718, 4162.051, 0, 0, []
1628604595.5228, 57, 0, 3960.513, 4238.974, 4133.333, 4465.641, 4155.385, 0, 0, []
1628604595.5307, 58, 0, 3981.026, 4258.974, 4161.026, 4462.051, 4172.308, 0, 0, []
1628604595.5387, 59, 0, 3980, 4243.077, 4143.59, 4451.282, 4159.487, 0, 0, []
1628604595.5466, 60, 0, 3949.231, 4232.308, 4119.487, 4419.487, 4116.41, 0, 0, []
1628604595.5545, 61, 0, 3924.615, 4224.103, 4104.615, 4396.41, 4096.41, 0, 0, []
1628604595.5625, 62, 0, 3940, 4210.769, 4091.795, 4408.205, 4121.026, 0, 0, []
1628604595.5705, 63, 0, 3996.41, 4230.256, 4117.949, 4436.923, 4175.385, 0, 0, []
1628604595.5784, 64, 0, 4066.154, 4244.615, 4142.051, 4463.59, 4235.897, 450, 0, []
1628604595.5862, 65, 0, 4111.282, 4218.974, 4146.667, 4481.538, 4280, 450, 0, []
1628604595.5941, 66, 0, 4114.359, 4206.667, 4138.974, 4468.718, 4296.923, 16190, 0, []
1628604595.6021, 67, 0, 4106.154, 4231.795, 4129.231, 4431.282, 4294.359, 450, 0, []
1628604595.6101, 68, 0, 4112.308, 4254.872, 4133.846, 4423.077, 4293.846, 16127, 0, []
1628604595.618, 69, 0, 4117.949, 4253.846, 4121.538, 4441.538, 4307.692, 450, 0, []
1628604595.6259, 70, 1, 4105.014, 4250.712, 4122.222, 4441.197, 4294.872, 270, 0, []
1628604595.6338, 71, 1, 4092.08, 4247.578, 4122.906, 4440.855, 4282.051, 450, 0, []
1628604595.6417, 72, 1, 4079.145, 4244.444, 4123.59, 4440.513, 4269.231, 450, 0, []
1628604595.6496, 73, 1, 4066.211, 4241.311, 4124.274, 4440.171, 4256.41, 16166, 0, []
1628604595.6575, 74, 1, 4053.276, 4238.177, 4124.957, 4439.829, 4243.59, 450, 0, []
1628604595.6653, 75, 1, 4040.342, 4235.043, 4125.641, 4439.487, 4230.769, 16233, 0, []
1628604595.6732, 76, 1, 4027.407, 4231.909, 4126.325, 4439.145, 4217.949, 450, 0, []
1628604595.6811, 77, 1, 4014.473, 4228.775, 4127.009, 4438.803, 4205.128, 450, 0, []
1628604595.689, 78, 0, 4001.538, 4225.641, 4127.692, 4438.462, 4192.308, 450, 0, []
1628604595.6968, 79, 0, 4026.667, 4217.949, 4153.333, 4448.718, 4207.692, 16215, 0, []
1628604595.7045, 80, 0, 4008.205, 4220.513, 4147.179, 4439.487, 4191.795, 450, 0, []
1628604595.7124, 81, 0, 3983.077, 4222.564, 4142.051, 4435.385, 4172.821, 450, 0, []
1628604595.7202, 82, 0, 3975.897, 4229.744, 4131.795, 4460.513, 4160.513, 450, 0, []
1628604595.7281, 83, 0, 3971.282, 4229.744, 4141.026, 4491.282, 4156.923, 16215, 0, []
1628604595.7359, 84, 0, 3970.256, 4220, 4135.897, 4494.359, 4158.462, 450, 0, []
1628604595.7437, 85, 0, 3957.436, 4209.744, 4108.718, 4475.385, 4141.026, 450, 0, []
1628604595.7515, 86, 1, 3943.533, 4207.635, 4108.604, 4481.083, 4138.803, 450, 0, []
1628604595.7594, 87, 1, 3929.63, 4205.527, 4108.49, 4486.781, 4136.581, 450, 0, []
1628604595.7673, 88, 1, 3915.726, 4203.419, 4108.376, 4492.479, 4134.359, 450, 0, []
1628604595.7752, 89, 1, 3901.823, 4201.311, 4108.262, 4498.177, 4132.137, 450, 0, []
1628604595.783, 90, 1, 3887.92, 4199.202, 4108.148, 4503.875, 4129.915, 450, 0, []
1628604595.7909, 91, 1, 3874.017, 4197.094, 4108.034, 4509.573, 4127.692, 450, 0, []
1628604595.7988, 92, 1, 3860.114, 4194.986, 4107.92, 4515.271, 4125.47, 450, 0, []
1628604595.8067, 93, 1, 3846.211, 4192.877, 4107.806, 4520.969, 4123.248, 450, 0, []
1628604595.8146, 94, 0, 3832.308, 4190.769, 4107.692, 4526.667, 4121.026, 450, 0, []
1628604595.8225, 95, 0, 3837.949, 4203.077, 4104.615, 4530.256, 4125.641, 16215, 0, []
1628604595.8304, 96, 0, 3851.282, 4246.154, 4122.564, 4549.231, 4142.051, 450, 0, []
1628604595.8383, 97, 0, 3825.641, 4220, 4111.282, 4534.872, 4122.564, 450, 0, []
1628604595.8462, 98, 0, 3818.974, 4186.154, 4111.282, 4526.667, 4107.692, 450, 0, []
1628604595.854, 99, 0, 3849.231, 4222.051, 4126.667, 4547.692, 4130.256, 16215, 0, []
1628604595.8618, 100, 0, 3851.795, 4235.385, 4118.974, 4557.436, 4138.462, 450, 0, []
1628604595.8696, 101, 0, 3844.615, 4201.538, 4130.769, 4555.897, 4137.436, 450, 0, []
1628604595.8775, 102, 0, 3867.692, 4216.923, 4145.641, 4567.179, 4162.564, 450, 0, []
1628604595.8853, 103, 0, 3870.769, 4245.641, 4140, 4574.359, 4162.564, 16215, 0, []
1628604595.8933, 104, 0, 3841.026, 4217.949, 4120, 4565.641, 4125.641, 450, 0, []
1628604595.9011, 105, 0, 3828.205, 4186.154, 4111.795, 4565.128, 4111.795, 450, 0, []
1628604595.909, 106, 0, 3839.487, 4189.744, 4134.359, 4570.769, 4120.513, 450, 0, []
1628604595.9168, 107, 0, 3857.949, 4209.231, 4133.846, 4564.103, 4122.051, 16215, 0, []
1628604595.9248, 108, 0, 3868.718, 4223.077, 4124.103, 4554.872, 4129.744, 450, 0, []
1628604595.9327, 109, 0, 3861.026, 4203.59, 4127.692, 4558.974, 4139.487, 450, 0, []
1628604595.9405, 110, 0, 3855.897, 4187.179, 4115.385, 4569.231, 4132.821, 450, 0, []
1628604595.9483, 111, 0, 3866.667, 4211.282, 4125.128, 4571.795, 4121.538, 16215, 0, []
1628604595.9563, 112, 0, 3866.667, 4222.051, 4140.513, 4575.897, 4118.974, 450, 0, []
1628604595.9642, 113, 0, 3860, 4220, 4140.513, 4589.231, 4130.769, 450, 0, []
1628604595.9722, 114, 0, 3868.205, 4230.769, 4139.487, 4590.256, 4145.641, 450, 0, []
1628604595.98, 115, 0, 3862.564, 4212.821, 4136.923, 4582.051, 4144.103, 16215, 0, []
1628604595.988, 116, 0, 3848.205, 4191.282, 4147.179, 4592.308, 4140.513, 450, 0, []
1628604595.9959, 117, 0, 3858.462, 4218.974, 4139.487, 4605.128, 4146.154, 450, 0, []
1628604596.0037, 118, 0, 3869.231, 4233.333, 4127.692, 4594.359, 4138.462, 450, 0, []
1628604596.0116, 119, 0, 3863.59, 4222.564, 4140, 4585.641, 4122.051, 16215, 0, []
1628604596.0193, 120, 0, 3866.667, 4238.462, 4140.513, 4594.359, 4118.974, 450, 0, []
1628604596.0272, 121, 0, 3869.744, 4233.846, 4143.59, 4595.897, 4118.462, 450, 0, []
1628604596.035, 122, 1, 3877.436, 4232.244, 4144.551, 4597.885, 4119.808, 450, 0, []
1628604596.0429, 123, 1, 3885.128, 4230.641, 4145.513, 4599.872, 4121.154, 450, 0, []
1628604596.0508, 124, 1, 3892.821, 4229.038, 4146.474, 4601.859, 4122.5, 450, 0, []
1628604596.0586, 125, 1, 3900.513, 4227.436, 4147.436, 4603.846, 4123.846, 450, 0, []
1628604596.0665, 126, 1, 3908.205, 4225.833, 4148.397, 4605.833, 4125.192, 450, 0, []
1628604596.0744, 127, 1, 3915.897, 4224.231, 4149.359, 4607.821, 4126.538, 450, 0, []
1628604596.0823, 128, 1, 3923.59, 4222.628, 4150.321, 4609.808, 4127.885, 450, 0, []
1628604596.0902, 0, 0, 3931.282, 4221.026, 4151.282, 4611.795, 4129.231, 450, 0, []
1628604596.0982, 1, 0, 3921.538, 4215.385, 4142.051, 4592.308, 4124.103, 450, 0, []
1628604596.106, 2, 0, 3927.692, 4220, 4147.692, 4589.744, 4137.949, 16190, 0, []
1628604596.1139, 3, 0, 3957.436, 4227.692, 4158.462, 4614.872, 4164.615, 450, 0, []
1628604596.1218, 4, 0, 3966.667, 4208.718, 4139.487, 4612.821, 4166.154, 16127, 0, []
1628604596.1296, 5, 0, 3981.538, 4200, 4137.949, 4593.333, 4166.154, 450, 0, []
1628604596.1376, 6, 0, 4028.718, 4231.282, 4134.359, 4593.846, 4204.103, 272, 0, []
1628604596.1454, 7, 0, 4072.308, 4228.718, 4137.949, 4596.41, 4243.077, 450, 0, []
1628604596.1533, 8, 0, 4112.821, 4202.564, 4164.103, 4599.487, 4278.974, 450, 0, []
1628604596.1612, 9, 0, 4162.564, 4208.718, 4167.692, 4612.308, 4339.487, 16157, 0, []
1628604596.169, 10, 0, 4204.615, 4219.487, 4158.974, 4616.41, 4398.462, 450, 0, []
1628604596.177, 11, 0, 4242.564, 4219.487, 4160, 4625.641, 4437.436, 16208, 0, []
1628604596.1849, 12, 0, 4265.128, 4213.846, 4173.333, 4643.077, 4466.154, 450, 0, []
1628604596.1928, 13, 0, 4247.179, 4198.974, 4161.538, 4630.256, 4460.513, 450, 0, []
1628604596.2008, 14, 0, 4208.718, 4197.949, 4143.59, 4608.205, 4418.974, 450, 0, []
1628604596.2087, 15, 0, 4180.513, 4206.667, 4166.154, 4625.128, 4390.769, 16208, 0, []
1628604596.2167, 16, 0, 4151.795, 4195.385, 4153.846, 4640.513, 4374.872, 0, 0, []
1628604596.2245, 17, 0, 4105.641, 4181.026, 4121.538, 4617.436, 4331.282, 0, 0, []
1628604596.2325, 18, 0, 4078.462, 4181.026, 4133.846, 4616.923, 4294.872, 0, 0, []
1628604596.2404, 19, 0, 4084.103, 4190.769, 4149.231, 4661.026, 4294.359, 0, 0, []
1628604596.2484, 20, 0, 4072.308, 4204.615, 4157.949, 4682.051, 4281.538, 0, 0, []
1628604596.2563, 21, 0, 4039.487, 4211.795, 4147.179, 4662.051, 4247.179, 0, 0, []
1628604596.2642, 22, 0, 4030.256, 4202.051, 4143.077, 4646.154, 4236.41, 0, 0, []
1628604596.2721, 23, 0, 4032.308, 4186.154, 4155.385, 4643.077, 4234.872, 0, 0, []
1628604596.2801, 24, 0, 4020.513, 4183.077, 4146.667, 4633.846, 4214.872, 0, 0, []
1628604596.2881, 25, 0, 4002.564, 4195.897, 4142.564, 4614.872, 4189.744, 0, 0, []
1628604596.296, 26, 0, 3987.179, 4197.949, 4121.538, 4589.231, 4169.744, 0, 0, []
1628604596.3039, 27, 0, 3987.692, 4182.051, 4153.846, 4596.41, 4166.667, 0, 0, []
1628604596.3118, 28, 0, 4002.051, 4195.385, 4170.769, 4623.59, 4183.077, 0, 0, []
1628604596.3198, 29, 0, 4012.308, 4229.231, 4096.923, 4624.103, 4189.231, 0, 0, []
1628604596.3278, 30, 0, 4025.641, 4228.718, 4149.231, 4630.769, 4183.59, 0, 0, []
1628604596.3357, 31, 0, 4035.897, 4218.974, 4178.974, 4643.59, 4176.41, 0, 0, []
1628604596.3436, 32, 1, 4031.681, 4221.823, 4175.726, 4641.994, 4175.1, 0, 0, []
1628604596.3515, 33, 1, 4027.464, 4224.672, 4172.479, 4640.399, 4173.789, 0, 0, []
1628604596.3594, 34, 1, 4023.248, 4227.521, 4169.231, 4638.803, 4172.479, 0, 0, []
1628604596.3673, 35, 1, 4019.031, 4230.37, 4165.983, 4637.208, 4171.168, 0, 0, []
1628604596.3752, 36, 1, 4014.815, 4233.219, 4162.735, 4635.613, 4169.858, 0, 0, []
1628604596.383, 37, 1, 4010.598, 4236.068, 4159.487, 4634.017, 4168.547, 0, 0, []
1628604596.3909, 38, 1, 4006.382, 4238.917, 4156.239, 4632.422, 4167.236, 0, 0, []
1628604596.3988, 39, 1, 4002.165, 4241.766, 4152.991, 4630.826, 4165.926, 0, 0, []
1628604596.4067, 40, 0, 3997.949, 4244.615, 4149.744, 4629.231, 4164.615, 0, 0, []
1628604596.4145, 41, 0, 3947.692, 4260, 4163.077, 4642.051, 4169.744, 0, 0, []
1628604596.4223, 42, 0, 3940, 4256.923, 4154.359, 4649.744, 4175.897, 0, 0, []
1628604596.4302, 43, 0, 3961.026, 4249.744, 4164.103, 4647.692, 4186.667, 0, 0, []
1628604596.4381, 44, 0, 3970.769, 4292.308, 4155.897, 4656.923, 4194.359, 0, 0, []
1628604596.4459, 45, 0, 3960.513, 4307.179, 4148.718, 4682.051, 4184.103, 0, 0, []
1628604596.4537, 46, 0, 3958.462, 4276.41, 4155.385, 4710.769, 4182.564, 0, 0, []
1628604596.4616, 47, 0, 3949.231, 4275.897, 4133.846, 4706.154, 4171.795, 0, 0, []
1628604596.4695, 48, 0, 3934.359, 4284.615, 4110.769, 4700.513, 4150.769, 0, 0, []
1628604596.4774, 49, 0, 3942.564, 4273.333, 4102.564, 4727.692, 4160, 0, 0, []
1628604596.4852, 50, 0, 3944.103, 4273.846, 4103.077, 4731.282, 4168.718, 0, 0, []
1628604596.4931, 51, 0, 3927.179, 4280.513, 4093.846, 4706.667, 4154.359, 0, 0, []
1628604596.5008, 52, 0, 3941.538, 4284.103, 4107.179, 4727.179, 4158.974, 0, 0, []
1628604596.5087, 53, 0, 3969.744, 4301.538, 4147.692, 4777.949, 4182.564, 0, 0, []
1628604596.5165, 54, 0, 3952.308, 4305.128, 4121.026, 4767.692, 4172.821, 0, 0, []
1628604596.5244, 55, 0, 3922.051, 4282.564, 4089.231, 4725.641, 4145.128, 0, 0, []
1628604596.5322, 56, 0, 3928.205, 4267.179, 4111.795, 4740.513, 4141.538, 0, 0, []
1628604596.54, 57, 0, 3947.179, 4276.41, 4126.154, 4790.769, 4157.436, 0, 0, []
1628604596.5478, 58, 0, 3942.564, 4310.256, 4124.615, 4796.41, 4154.872, 0, 0, []
1628604596.5558, 59, 0, 3934.359, 4343.59, 4110.769, 4779.487, 4136.923, 0, 0, []
1628604596.5637, 60, 0, 3939.487, 4355.897, 4115.897, 4787.179, 4138.974, 0, 0, []
1628604596.5716, 61, 0, 3931.282, 4374.872, 4126.154, 4771.282, 4134.872, 0, 0, []
1628604596.5793, 62, 0, 3920, 4400, 4112.821, 4742.051, 4118.462, 0, 0, []
1628604596.5872, 63, 0, 3932.821, 4397.436, 4119.487, 4755.385, 4127.179, 0, 0, []
1628604596.595, 64, 0, 3940, 4386.154, 4113.846, 4770.256, 4144.103, 450, 0, []
1628604596.6029, 65, 0, 3945.128, 4390.256, 4111.282, 4766.667, 4150.256, 450, 0, []
1628604596.6107, 66, 0, 3970.769, 4404.103, 4129.744, 4774.359, 4162.564, 16192, 0, []
1628604596.6185, 67, 0, 3966.667, 4408.205, 4108.718, 4767.692, 4154.872, 450, 0, []
1628604596.6263, 68, 0, 3938.974, 4397.949, 4100, 4748.205, 4131.795, 16127, 0, []
1628604596.6341, 69, 0, 3955.385, 4403.59, 4124.615, 4770.769, 4150.769, 450, 0, []
1628604596.642, 70, 0, 3984.615, 4437.949, 4134.872, 4800.513, 4180, 279, 0, []
1628604596.6498, 71, 0, 3970.769, 4461.026, 4132.821, 4784.615, 4162.051, 450, 0, []
1628604596.6576, 72, 0, 3962.051, 4449.744, 4138.974, 4769.744, 4143.59, 450, 0, []
1628604596.6654, 73, 0, 3988.718, 4429.231, 4149.744, 4786.154, 4164.103, 16157, 0, []
1628604596.6733, 74, 0, 3994.359, 4418.974, 4137.436, 4790.769, 4172.308, 450, 0, []
1628604596.6811, 75, 0, 3969.231, 4418.974, 4123.077, 4768.718, 4151.282, 16208, 0, []
1628604596.689, 76, 0, 3964.615, 4405.641, 4117.436, 4754.359, 4147.692, 450, 0, []
1628604596.6967, 77, 0, 3996.923, 4393.333, 4116.41, 4772.308, 4175.897, 450, 0, []
1628604596.7047, 78, 0, 4018.462, 4411.282, 4120.513, 4786.667, 4195.897, 450, 0, []
1628604596.7126, 79, 0, 4017.436, 4416.41, 4107.692, 4761.538, 4195.385, 16208, 0, []
1628604596.7205, 80, 0, 4070.256, 4409.231, 4118.462, 4757.949, 4243.077, 450, 0, []
1628604596.7283, 81, 0, 4172.308, 4428.718, 4153.333, 4798.974, 4343.59, 450, 0, []
1628604596.7361, 82, 0, 4227.179, 4469.231, 4142.051, 4805.128, 4407.179, 450, 0, []
1628604596.7439, 83, 0, 4232.821, 4485.128, 4115.385, 4776.923, 4422.051, 16208, 0, []
1628604596.7518, 84, 0, 4253.333, 4480, 4128.205, 4784.103, 4439.487, 450, 0, []
1628604596.7596, 85, 0, 4264.103, 4483.59, 4133.846, 4797.949, 4444.103, 450, 0, []
1628604596.7676, 86, 0, 4238.462, 4487.179, 4114.359, 4784.615, 4425.128, 450, 0, []
1628604596.7754, 87, 0, 4224.615, 4480, 4109.744, 4788.205, 4416.923, 16208, 0, []
1628604596.7834, 88, 0, 4209.231, 4471.795, 4126.154, 4791.282, 4392.821, 450, 0, []
1628604596.7913, 89, 0, 4171.795, 4474.872, 4127.692, 4769.231, 4348.205, 450, 0, []
1628604596.7991, 90, 0, 4166.667, 4477.949, 4111.282, 4767.692, 4338.462, 450, 0, []
1628604596.807, 91, 0, 4185.641, 4473.846, 4121.538, 4792.821, 4350.769, 16208, 0, []
1628604596.8148, 92, 0, 4171.795, 4476.41, 4129.744, 4795.897, 4337.436, 450, 0, []
1628604596.8226, 93, 0, 4136.41, 4466.667, 4118.462, 4780, 4305.128, 450, 0, []
1628604596.8304, 94, 0, 4122.051, 4446.667, 4115.385, 4773.846, 4283.077, 450, 0, []
1628604596.8383, 95, 0, 4125.641, 4443.59, 4110.769, 4776.41, 4272.821, 16208, 0, []
1628604596.8461, 96, 0, 4129.744, 4452.821, 4114.872, 4787.179, 4272.821, 450, 0, []
1628604596.854, 97, 0, 4137.436, 4460, 4118.974, 4795.897, 4276.923, 450, 0, []
1628604596.8617, 98, 0, 4142.051, 4464.615, 4123.59, 4792.821, 4275.897, 450, 0, []
1628604596.8696, 99, 0, 4118.462, 4464.615, 4118.462, 4768.205, 4251.795, 16208, 0, []
1628604596.8774, 100, 0, 4088.205, 4460, 4093.846, 4741.026, 4222.051, 450, 0, []
1628604596.8854, 101, 0, 4104.103, 4458.974, 4118.462, 4756.41, 4235.385, 450, 0, []
1628604596.8933, 102, 0, 4130.256, 4464.103, 4145.641, 4785.641, 4252.821, 450, 0, []
1628604596.9012, 103, 0, 4111.795, 4470.256, 4122.564, 4768.718, 4224.103, 16208, 0, []
1628604596.9091, 104, 0, 4082.564, 4464.615, 4101.538, 4730.256, 4191.282, 450, 0, []
1628604596.917, 105, 0, 4088.718, 4447.179, 4092.308, 4722.564, 4194.872, 450, 0, []
1628604596.9248, 106, 0, 4111.795, 4436.41, 4097.949, 4735.385, 4209.231, 450, 0, []
1628604596.9328, 107, 0, 4125.128, 4434.359, 4107.179, 4747.692, 4218.462, 16208, 0, []
1628604596.9406, 108, 0, 4118.462, 4429.231, 4106.667, 4750.769, 4216.923, 450, 0, []
1628604596.9485, 109, 0, 4097.949, 4428.205, 4108.205, 4731.795, 4194.872, 450, 0, []
1628604596.9564, 110, 0, 4094.359, 4428.718, 4095.385, 4711.282, 4183.077, 450, 0, []
1628604596.9642, 111, 0, 4110.769, 4424.103, 4092.821, 4710.256, 4194.872, 16208, 0, []
1628604596.9721, 112, 0, 4110.256, 4426.667, 4084.615, 4705.641, 4189.744, 450, 0, []
1628604596.9798, 113, 0, 4088.718, 4422.564, 4065.641, 4688.718, 4157.436, 450, 0, []
1628604596.9877, 114, 0, 4086.667, 4403.59, 4086.667, 4696.923, 4151.282, 450, 0, []
1628604596.9955, 115, 0, 4113.333, 4400, 4097.949, 4725.641, 4180, 16208, 0, []
1628604597.0034, 116, 0, 4131.795, 4407.692, 4102.564, 4740.513, 4194.872, 450, 0, []
1628604597.0112, 117, 0, 4129.231, 4410.769, 4110.256, 4727.692, 4186.154, 450, 0, []
1628604597.019, 118, 0, 4125.128, 4418.462, 4095.897, 4700.513, 4183.077, 450, 0, []
1628604597.0268, 119, 0, 4133.333, 4431.795, 4104.103, 4688.718, 4191.282, 16208, 0, []
1628604597.0347, 120, 0, 4141.026, 4417.436, 4097.436, 4698.974, 4190.256, 450, 0, []
1628604597.0425, 121, 0, 4136.923, 4375.897, 4078.462, 4706.667, 4187.179, 450, 0, []
1628604597.0505, 122, 0, 4126.154, 4352.821, 4075.897, 4700.513, 4186.667, 450, 0, []
1628604597.0583, 123, 0, 4115.897, 4354.872, 4078.974, 4686.154, 4176.923, 16208, 0, []
1628604597.0662, 124, 0, 4106.154, 4368.205, 4103.59, 4657.949, 4161.538, 450, 0, []
1628604597.0742, 125, 0, 4088.205, 4383.59, 4097.949, 4621.026, 4143.077, 450, 0, []
1628604597.0821, 126, 0, 4077.949, 4390.256, 4080, 4611.282, 4131.282, 450, 0, []
1628604597.0901, 127, 0, 4097.949, 4380, 4090.769, 4633.846, 4141.538, 16208, 0, []
1628604597.0979, 128, 0, 4131.282, 4370.256, 4098.974, 4655.385, 4166.667, 450, 0, []
1628604597.1059, 0, 0, 4148.718, 4372.821, 4121.026, 4663.59, 4186.667, 450, 0, []
1628604597.1138, 1, 0, 4154.359, 4377.949, 4120, 4657.949, 4195.385, 450, 0, []
1628604597.1218, 2, 0, 4164.103, 4400.513, 4115.385, 4649.231, 4199.487, 16192, 0, []
1628604597.1297, 3, 0, 4164.103, 4412.821, 4131.282, 4644.103, 4190.256, 450, 0, []
1628604597.1376, 4, 0, 4149.744, 4388.718, 4102.051, 4632.308, 4167.692, 306, 0, []
1628604597.1455, 5, 0, 4135.385, 4388.205, 4087.692, 4618.974, 4149.231, 450, 0, []
1628604597.1535, 6, 0, 4137.949, 4422.051, 4099.487, 4614.872, 4151.282, 276, 0, []
1628604597.1614, 7, 0, 4153.846, 4417.436, 4101.026, 4615.385, 4169.231, 450, 0, []
1628604597.1694, 8, 0, 4161.026, 4388.205, 4111.282, 4608.718, 4179.487, 450, 0, []
1628604597.1772, 9, 0, 4165.128, 4382.564, 4103.59, 4608.718, 4184.615, 16155, 0, []
1628604597.1852, 10, 0, 4181.538, 4385.128, 4113.333, 4620, 4196.41, 450, 0, []
1628604597.1931, 11, 0, 4191.282, 4382.051, 4127.692, 4623.59, 4205.641, 16204, 0, []
1628604597.2011, 12, 0, 4173.333, 4372.821, 4104.615, 4613.333, 4188.205, 450, 0, []
1628604597.209, 13, 0, 4155.897, 4369.744, 4095.897, 4607.692, 4166.154, 450, 0, []
1628604597.2169, 14, 0, 4172.308, 4383.59, 4100.513, 4621.026, 4177.949, 450, 0, []
1628604597.2248, 15, 0, 4184.615, 4384.615, 4104.103, 4624.615, 4185.128, 16204, 0, []
1628604597.2328, 16, 0, 4169.231, 4362.051, 4086.667, 4600.513, 4162.051, 0, 0, []
1628604597.2407, 17, 0, 4165.641, 4351.282, 4073.333, 4589.231, 4157.949, 0, 0, []
1628604597.2487, 18, 0, 4179.487, 4346.667, 4108.718, 4614.872, 4182.564, 0, 0, []
1628604597.2566, 19, 0, 4181.026, 4347.692, 4107.179, 4636.923, 4186.154, 0, 0, []
1628604597.2645, 20, 0, 4167.179, 4361.538, 4080, 4621.538, 4168.205, 0, 0, []
1628604597.2725, 21, 0, 4164.103, 4367.692, 4074.872, 4600.513, 4162.564, 0, 0, []
1628604597.2804, 22, 0, 4175.385, 4367.179, 4078.462, 4598.974, 4169.231, 0, 0, []
1628604597.2884, 23, 0, 4184.615, 4366.154, 4095.897, 4594.359, 4177.949, 0, 0, []
1628604597.2962, 24, 0, 4190.769, 4367.692, 4083.077, 4578.974, 4181.538, 0, 0, []
1628604597.3042, 25, 0, 4198.974, 4374.359, 4076.41, 4580.513, 4183.59, 0, 0, []
1628604597.3121, 26, 0, 4207.179, 4381.538, 4090.256, 4598.462, 4187.692, 0, 0, []
1628604597.3201, 27, 0, 4194.872, 4365.641, 4078.462, 4591.282, 4181.026, 0, 0, []
1628604597.328, 28, 0, 4192.821, 4351.282, 4094.872, 4581.538, 4178.974, 0, 0, []
1628604597.3359, 29, 0, 4225.128, 4376.923, 4113.333, 4604.103, 4200.513, 0, 0, []
1628604597.3438, 30, 0, 4233.846, 4389.231, 4112.308, 4608.718, 4206.154, 0, 0, []
1628604597.3518, 31, 0, 4201.538, 4365.128, 4106.154, 4574.359, 4180.513, 0, 0, []
1628604597.3598, 32, 0, 4204.103, 4362.564, 4093.333, 4567.179, 4177.436, 0, 0, []
1628604597.3677, 33, 0, 4232.821, 4377.949, 4107.692, 4587.179, 4198.462, 0, 0, []
1628604597.3755, 34, 0, 4225.128, 4368.718, 4105.128, 4582.051, 4199.487, 0, 0, []
1628604597.3835, 35, 0, 4219.487, 4356.41, 4104.615, 4574.872, 4198.974, 0, 0, []
1628604597.3914, 36, 0, 4233.333, 4353.846, 4116.923, 4572.821, 4203.59, 0, 0, []
1628604597.3992, 37, 0, 4228.205, 4349.744, 4090.256, 4554.872, 4195.897, 0, 0, []
1628604597.4072, 38, 0, 4223.59, 4356.923, 4096.41, 4553.846, 4202.051, 0, 0, []
1628604597.415, 39, 0, 4238.462, 4356.923, 4121.538, 4572.821, 4220, 0, 0, []
1628604597.423, 40, 0, 4236.923, 4337.436, 4109.231, 4565.641, 4214.872, 0, 0, []
1628604597.4309, 41, 0, 4212.821, 4338.462, 4093.333, 4539.487, 4185.641, 0, 0, []
1628604597.4389, 42, 0, 4203.59, 4345.641, 4084.103, 4533.846, 4167.692, 0, 0, []
1628604597.4468, 43, 0, 4217.436, 4336.923, 4104.103, 4546.154, 4180, 0, 0, []
1628604597.4547, 44, 0, 4218.974, 4344.615, 4106.667, 4544.103, 4185.128, 0, 0, []
1628604597.4626, 45, 0, 4200.513, 4345.128, 4078.974, 4520, 4167.179, 0, 0, []
1628604597.4706, 46, 0, 4204.103, 4325.641, 4087.179, 4510.256, 4165.641, 0, 0, []
1628604597.4785, 47, 0, 4222.564, 4323.59, 4092.308, 4520, 4181.538, 0, 0, []
1628604597.4865, 48, 0, 4215.385, 4336.923, 4086.154, 4520.513, 4175.897, 0, 0, []
1628604597.4943, 49, 0, 4195.897, 4329.744, 4080, 4502.564, 4163.59, 0, 0, []
1628604597.5023, 50, 0, 4193.846, 4324.615, 4074.872, 4495.897, 4168.205, 0, 0, []
1628604597.5102, 51, 0, 4206.154, 4341.538, 4088.205, 4513.846, 4177.949, 0, 0, []
1628604597.5182, 52, 0, 4221.538, 4350.769, 4077.949, 4515.897, 4187.692, 0, 0, []
1628604597.5261, 53, 0, 4227.179, 4352.308, 4072.821, 4497.436, 4190.256, 0, 0, []
1628604597.5339, 54, 0, 4216.923, 4346.667, 4086.154, 4496.923, 4178.974, 0, 0, []
1628604597.5419, 55, 0, 4214.872, 4323.59, 4098.974, 4510.769, 4176.41, 0, 0, []
1628604597.5498, 56, 0, 4216.41, 4308.718, 4122.564, 4507.179, 4178.974, 0, 0, []
1628604597.5578, 57, 0, 4203.59, 4309.744, 4105.128, 4494.359, 4171.282, 0, 0, []
1628604597.5657, 58, 0, 4206.154, 4296.923, 4094.872, 4506.667, 4172.308, 0, 0, []
1628604597.5736, 59, 0, 4227.179, 4288.205, 4115.897, 4534.872, 4183.077, 0, 0, []
1628604597.5815, 60, 0, 4227.692, 4307.179, 4106.667, 4540.513, 4178.462, 0, 0, []
1628604597.5895, 61, 0, 4213.846, 4311.795, 4105.641, 4531.282, 4164.615, 0, 0, []
1628604597.5974, 62, 0, 4214.359, 4304.615, 4105.641, 4543.077, 4163.59, 0, 0, []
1628604597.6054, 63, 0, 4223.59, 4311.282, 4108.205, 4552.308, 4173.846, 0, 0, []
1628604597.6132, 64, 0, 4232.308, 4309.744, 4121.538, 4530.256, 4185.128, 450, 0, []
1628604597.6211, 65, 0, 4234.872, 4307.692, 4114.359, 4514.359, 4188.718, 450, 0, []
1628604597.629, 66, 0, 4233.846, 4309.744, 4113.846, 4514.872, 4186.154, 16192, 0, []
1628604597.637, 67, 0, 4235.897, 4298.462, 4088.718, 4500.513, 4185.128, 450, 0, []
1628604597.6449, 68, 0, 4225.641, 4288.205, 4061.538, 4483.59, 4173.846, 16103, 0, []
1628604597.6528, 69, 0, 4212.821, 4294.359, 4077.949, 4492.821, 4164.615, 450, 0, []
1628604597.6607, 70, 0, 4226.154, 4297.436, 4086.667, 4509.744, 4177.436, 16075, 0, []
1628604597.6685, 71, 0, 4245.641, 4296.41, 4087.179, 4511.282, 4186.667, 450, 0, []
1628604597.6765, 72, 0, 4248.205, 4295.897, 4081.538, 4508.718, 4185.128, 450, 0, []
1628604597.6844, 73, 0, 4237.949, 4291.282, 4081.538, 4503.077, 4181.538, 16155, 0, []
1628604597.6923, 74, 0, 4225.641, 4297.436, 4091.795, 4483.59, 4173.333, 450, 0, []
1628604597.7, 75, 0, 4216.41, 4292.821, 4071.282, 4457.949, 4160.513, 16201, 0, []
1628604597.708, 76, 0, 4211.282, 4263.59, 4073.333, 4443.59, 4149.231, 450, 0, []
1628604597.7159, 77, 0, 4215.385, 4263.077, 4087.692, 4446.667, 4151.795, 450, 0, []
1628604597.7239, 78, 0, 4222.051, 4289.231, 4081.538, 4447.692, 4159.487, 450, 0, []
1628604597.7318, 79, 0, 4214.872, 4276.41, 4086.667, 4439.487, 4153.846, 16201, 0, []
1628604597.7397, 80, 0, 4216.923, 4244.103, 4087.179, 4443.59, 4153.846, 450, 0, []
1628604597.7476, 81, 0, 4233.333, 4241.026, 4107.179, 4462.051, 4172.308, 450, 0, []
1628604597.7556, 82, 0, 4227.692, 4246.667, 4113.846, 4459.487, 4174.872, 450, 0, []
1628604597.7635, 83, 0, 4218.462, 4250.256, 4097.949, 4449.231, 4164.615, 16201, 0, []
1628604597.7715, 84, 0, 4235.897, 4264.103, 4124.103, 4474.872, 4175.897, 450, 0, []
1628604597.7793, 85, 0, 4248.718, 4263.59, 4129.744, 4500.513, 4187.179, 450, 0, []
1628604597.7873, 86, 0, 4237.949, 4248.205, 4113.846, 4483.077, 4178.974, 450, 0, []
1628604597.7952, 87, 0, 4225.128, 4234.872, 4098.462, 4456.923, 4169.231, 16201, 0, []
1628604597.8032, 88, 0, 4222.564, 4228.718, 4081.538, 4453.333, 4164.615, 450, 0, []
1628604597.8112, 89, 0, 4227.179, 4255.897, 4104.615, 4462.564, 4167.179, 450, 0, []
1628604597.819, 90, 0, 4225.128, 4281.538, 4104.103, 4461.538, 4172.308, 450, 0, []
1628604597.8269, 91, 0, 4214.359, 4263.077, 4080.513, 4444.615, 4164.615, 16201, 0, []
1628604597.8347, 92, 0, 4231.282, 4238.974, 4090.256, 4448.718, 4167.179, 450, 0, []
1628604597.8427, 93, 0, 4267.179, 4244.103, 4111.282, 4486.667, 4197.949, 450, 0, []
1628604597.8506, 94, 0, 4275.897, 4249.231, 4123.077, 4501.538, 4212.821, 450, 0, []
1628604597.8585, 95, 0, 4253.333, 4238.462, 4095.897, 4467.179, 4189.744, 16201, 0, []
1628604597.8664, 96, 0, 4232.308, 4236.923, 4089.231, 4444.615, 4170.256, 450, 0, []
1628604597.8744, 97, 0, 4237.949, 4252.308, 4112.821, 4460.513, 4179.487, 450, 0, []
1628604597.8823, 98, 0, 4247.692, 4252.821, 4092.821, 4460, 4181.538, 450, 0, []
1628604597.8903, 99, 0, 4245.641, 4232.821, 4086.667, 4444.103, 4171.795, 16201, 0, []
1628604597.8981, 100, 0, 4250.769, 4239.487, 4100, 4446.154, 4177.436, 450, 0, []
1628604597.9061, 101, 0, 4257.949, 4250.769, 4109.231, 4452.308, 4188.718, 450, 0, []
1628604597.914, 102, 0, 4251.795, 4226.667, 4112.821, 4451.795, 4184.103, 450, 0, []
1628604597.922, 103, 0, 4232.308, 4213.333, 4083.59, 4442.051, 4166.667, 16201, 0, []
1628604597.9299, 104, 0, 4216.923, 4229.744, 4081.538, 4415.897, 4149.231, 450, 0, []
1628604597.9378, 105, 0, 4226.154, 4235.897, 4089.744, 4403.59, 4144.103, 450, 0, []
1628604597.9457, 106, 0, 4248.718, 4229.744, 4090.256, 4433.333, 4163.077, 450, 0, []
1628604597.9535, 107, 0, 4255.385, 4232.821, 4100.513, 4454.359, 4186.667, 16201, 0, []
1628604597.9614, 108, 0, 4247.692, 4236.923, 4090.256, 4442.051, 4183.077, 450, 0, []
1628604597.9692, 109, 0, 4243.59, 4233.846, 4102.051, 4441.026, 4166.154, 450, 0, []
1628604597.9771, 110, 0, 4233.333, 4212.308, 4100.513, 4432.821, 4153.846, 450, 0, []
1628604597.985, 111, 0, 4217.436, 4200, 4066.154, 4400, 4140.513, 16201, 0, []
1628604597.9929, 112, 0, 4218.462, 4210.256, 4072.821, 4398.974, 4138.462, 450, 0, []
1628604598.0007, 113, 0, 4233.846, 4208.205, 4090.256, 4421.026, 4152.821, 450, 0, []
1628604598.0087, 114, 0, 4243.59, 4200, 4098.974, 4413.333, 4159.487, 450, 0, []
1628604598.0165, 115, 0, 4244.103, 4218.462, 4096.41, 4401.026, 4158.974, 16201, 0, []
1628604598.0245, 116, 0, 4247.692, 4223.59, 4097.436, 4410.769, 4168.718, 450, 0, []
1628604598.0324, 117, 0, 4246.667, 4201.026, 4115.385, 4413.333, 4172.821, 450, 0, []
1628604598.0404, 118, 0, 4246.667, 4200, 4102.564, 4404.103, 4168.205, 450, 0, []
1628604598.0483, 119, 0, 4259.487, 4209.231, 4094.359, 4403.59, 4169.744, 16201, 0, []
1628604598.0562, 120, 0, 4264.615, 4207.692, 4101.026, 4411.795, 4170.256, 450, 0, []
1628604598.0641, 121, 0, 4255.385, 4214.359, 4101.538, 4423.59, 4170.769, 450, 0, []
1628604598.0721, 122, 0, 4252.308, 4220.513, 4111.795, 4425.128, 4164.615, 450, 0, []
1628604598.08, 123, 0, 4250.256, 4215.385, 4094.872, 4407.692, 4154.359, 16201, 0, []
1628604598.088, 124, 0, 4236.41, 4217.436, 4088.718, 4395.385, 4145.641, 450, 0, []
1628604598.0958, 125, 0, 4229.744, 4217.436, 4106.154, 4393.333, 4141.026, 450, 0, []
1628604598.1036, 126, 0, 4235.897, 4200.513, 4098.974, 4388.718, 4145.128, 450, 0, []
1628604598.1115, 127, 0, 4230.256, 4197.949, 4088.718, 4383.59, 4141.026, 16201, 0, []
1628604598.1193, 128, 0, 4231.282, 4212.308, 4074.872, 4389.744, 4138.462, 450, 0, []
1628604598.1272, 0, 0, 4259.487, 4215.897, 4089.231, 4407.179, 4162.564, 450, 0, []
1628604598.1349, 1, 0, 4271.282, 4217.949, 4107.179, 4404.103, 4174.872, 450, 0, []
1628604598.1428, 2, 0, 4246.154, 4220, 4074.872, 4374.359, 4146.667, 16192, 0, []
1628604598.1506, 3, 0, 4230.769, 4200.513, 4072.821, 4361.026, 4133.333, 450, 0, []
1628604598.1586, 4, 0, 4234.872, 4175.897, 4075.897, 4366.667, 4140, 16117, 0, []
1628604598.1665, 5, 0, 4230.256, 4176.41, 4062.564, 4364.103, 4134.872, 450, 0, []
1628604598.1744, 6, 0, 4232.308, 4203.077, 4080.513, 4365.641, 4140, 289, 0, []
1628604598.1823, 7, 0, 4246.667, 4223.077, 4084.103, 4378.462, 4150.256, 450, 0, []
1628604598.1903, 8, 0, 4241.026, 4207.179, 4081.026, 4381.026, 4144.103, 450, 0, []
1628604598.1982, 9, 0, 4217.949, 4174.872, 4064.615, 4361.026, 4129.744, 16155, 0, []
1628604598.2062, 10, 0, 4211.795, 4178.974, 4053.333, 4346.667, 4122.051, 450, 0, []
1628604598.214, 11, 0, 4218.462, 4206.154, 4073.333, 4356.923, 4126.667, 16201, 0, []
1628604598.222, 12, 0, 4215.385, 4200.513, 4065.641, 4355.385, 4128.718, 450, 0, []
1628604598.2299, 13, 0, 4210.769, 4184.615, 4061.026, 4333.846, 4118.974, 450, 0, []
1628604598.2379, 14, 0, 4215.385, 4183.59, 4070.769, 4325.128, 4114.359, 450, 0, []
1628604598.2458, 15, 0, 4222.564, 4179.487, 4073.333, 4335.897, 4126.667, 16201, 0, []
1628604598.2537, 16, 0, 4214.872, 4170.769, 4069.744, 4333.333, 4123.077, 0, 0, []
1628604598.2616, 17, 0, 4214.359, 4188.205, 4057.949, 4317.949, 4120.513, 0, 0, []
1628604598.2694, 18, 0, 4244.615, 4216.41, 4087.692, 4326.667, 4152.308, 0, 0, []
1628604598.2773, 19, 0, 4264.103, 4204.615, 4105.641, 4351.282, 4172.821, 0, 0, []
1628604598.2851, 20, 0, 4242.051, 4182.051, 4080, 4337.949, 4146.667, 0, 0, []
1628604598.293, 21, 0, 4211.795, 4185.641, 4071.795, 4298.462, 4113.846, 0, 0, []
1628604598.3009, 22, 0, 4213.333, 4180.513, 4059.487, 4295.385, 4114.872, 0, 0, []
1628604598.3089, 23, 0, 4231.282, 4172.308, 4072.821, 4318.462, 4132.821, 0, 0, []
1628604598.3168, 24, 0, 4231.795, 4187.692, 4098.974, 4313.333, 4140, 0, 0, []
1628604598.3248, 25, 0, 4214.872, 4178.462, 4076.923, 4292.821, 4126.154, 0, 0, []
1628604598.3326, 26, 0, 4208.718, 4160.513, 4068.205, 4291.795, 4115.897, 0, 0, []
1628604598.3406, 27, 0, 4221.026, 4186.154, 4077.436, 4305.128, 4130.256, 0, 0, []
1628604598.3485, 28, 0, 4219.487, 4174.359, 4075.897, 4301.538, 4132.308, 0, 0, []
1628604598.3565, 29, 0, 4210.769, 4133.333, 4067.179, 4286.667, 4116.923, 0, 0, []
1628604598.3644, 30, 0, 4224.615, 4158.462, 4059.487, 4293.846, 4126.154, 0, 0, []
1628604598.3723, 31, 0, 4231.795, 4173.846, 4069.744, 4301.026, 4136.41, 0, 0, []
1628604598.3802, 32, 0, 4217.949, 4147.692, 4056.41, 4291.282, 4125.641, 0, 0, []
1628604598.3882, 33, 0, 4219.487, 4160, 4057.436, 4300.513, 4127.179, 0, 0, []
1628604598.3962, 34, 0, 4226.154, 4163.59, 4073.333, 4314.872, 4133.333, 0, 0, []
1628604598.4041, 35, 0, 4214.872, 4148.205, 4051.795, 4302.051, 4123.59, 0, 0, []
1628604598.4119, 36, 0, 4215.897, 4164.103, 4056.41, 4301.026, 4127.179, 0, 0, []
1628604598.4199, 37, 0, 4232.308, 4166.667, 4064.615, 4312.308, 4140.513, 0, 0, []
1628604598.4278, 38, 0, 4229.744, 4146.154, 4058.974, 4300.513, 4136.41, 0, 0, []
1628604598.4358, 39, 0, 4224.615, 4148.205, 4064.615, 4293.846, 4135.385, 0, 0, []
1628604598.4437, 40, 0, 4234.359, 4159.487, 4047.179, 4297.436, 4147.692, 0, 0, []
1628604598.4516, 41, 0, 4257.949, 4167.179, 4045.128, 4283.59, 4169.231, 0, 0, []
1628604598.4596, 42, 0, 4318.974, 4168.205, 4045.641, 4279.487, 4223.59, 0, 0, []
1628604598.4675, 43, 0, 4387.692, 4151.795, 4036.923, 4290.769, 4296.41, 0, 0, []
1628604598.4755, 44, 0, 4424.615, 4151.282, 4043.077, 4267.179, 4343.077, 0, 0, []
1628604598.4834, 45, 0, 4450.769, 4151.282, 4036.41, 4217.949, 4375.385, 0, 0, []
1628604598.4913, 46, 0, 4496.41, 4137.949, 4055.897, 4218.462, 4423.59, 0, 0, []
1628604598.4992, 47, 0, 4531.282, 4151.795, 4066.667, 4243.59, 4451.282, 0, 0, []
1628604598.5072, 48, 0, 4525.128, 4176.41, 4044.615, 4229.744, 4435.385, 0, 0, []
1628604598.5151, 49, 0, 4511.282, 4178.974, 4047.692, 4226.154, 4418.462, 0, 0, []
1628604598.5231, 50, 0, 4500, 4169.744, 4041.026, 4253.846, 4405.128, 0, 0, []
1628604598.5309, 51, 0, 4481.026, 4160, 4046.667, 4260.513, 4382.051, 0, 0, []
1628604598.5389, 52, 0, 4461.538, 4156.923, 4053.846, 4248.718, 4359.487, 0, 0, []
1628604598.5468, 53, 0, 4435.385, 4153.846, 4030.256, 4251.282, 4327.692, 0, 0, []
1628604598.5548, 54, 0, 4398.974, 4139.487, 4023.59, 4246.154, 4292.821, 0, 0, []
1628604598.5627, 55, 0, 4372.821, 4134.359, 4030.256, 4243.077, 4277.949, 0, 0, []
1628604598.5707, 56, 0, 4361.026, 4153.846, 4048.718, 4252.821, 4262.051, 0, 0, []
1628604598.5785, 57, 0, 4336.41, 4162.051, 4046.154, 4234.359, 4229.231, 0, 0, []
1628604598.5865, 58, 0, 4324.103, 4154.872, 4038.974, 4222.564, 4222.051, 0, 0, []
1628604598.5944, 59, 0, 4335.385, 4166.667, 4064.615, 4250.256, 4234.872, 0, 0, []
1628604598.6023, 60, 0, 4318.974, 4164.615, 4038.462, 4246.667, 4206.667, 0, 0, []
1628604598.6102, 61, 0, 4276.41, 4131.282, 4015.385, 4207.179, 4167.179, 0, 0, []
1628604598.618, 62, 0, 4270.256, 4132.821, 4046.154, 4204.615, 4176.923, 0, 0, []
1628604598.6259, 63, 0, 4290.256, 4166.667, 4051.282, 4221.538, 4204.615, 0, 0, []
1628604598.6339, 64, 0, 4289.744, 4164.103, 4045.128, 4229.744, 4203.077, 450, 0, []
1628604598.6419, 65, 0, 4283.077, 4134.359, 4033.333, 4248.718, 4196.41, 450, 0, []
1628604598.6498, 66, 0, 4280, 4134.872, 4026.667, 4255.385, 4186.154, 16185, 0, []
1628604598.6577, 67, 0, 4264.103, 4156.923, 4029.231, 4243.59, 4160.513, 450, 0, []
1628604598.6657, 68, 0, 4256.41, 4162.564, 4023.077, 4238.974, 4154.872, 16120, 0, []
1628604598.6737, 69, 0, 4266.154, 4147.179, 4040, 4229.231, 4173.333, 450, 0, []
1628604598.6816, 70, 0, 4275.385, 4151.795, 4049.744, 4207.179, 4187.692, 283, 0, []
1628604598.6895, 71, 0, 4275.897, 4169.231, 4053.846, 4208.718, 4186.667, 450, 0, []
1628604598.6973, 72, 0, 4253.333, 4161.026, 4057.949, 4201.026, 4160.513, 450, 0, []
1628604598.7053, 73, 0, 4231.795, 4153.333, 4038.974, 4175.897, 4140, 16155, 0, []
1628604598.7132, 74, 0, 4238.462, 4153.333, 4058.974, 4207.179, 4151.282, 450, 0, []
1628604598.7212, 75, 0, 4255.385, 4136.923, 4073.333, 4264.615, 4165.641, 16200, 0, []
1628604598.7292, 76, 0, 4248.718, 4132.308, 4046.667, 4260.513, 4152.821, 450, 0, []
1628604598.737, 77, 0, 4223.077, 4144.615, 4040, 4225.641, 4126.667, 450, 0, []
1628604598.745, 78, 1, 4221.481, 4142.735, 4038.006, 4224.672, 4123.875, 450, 0, []
1628604598.7529, 79, 1, 4219.886, 4140.855, 4036.011, 4223.704, 4121.083, 16201, 0, []
1628604598.7608, 80, 1, 4218.291, 4138.974, 4034.017, 4222.735, 4118.291, 450, 0, []
1628604598.7687, 81, 1, 4216.695, 4137.094, 4032.023, 4221.766, 4115.499, 450, 0, []
1628604598.7765, 82, 1, 4215.1, 4135.214, 4030.028, 4220.798, 4112.707, 450, 0, []
1628604598.7844, 83, 1, 4213.504, 4133.333, 4028.034, 4219.829, 4109.915, 450, 0, []
1628604598.7923, 84, 1, 4211.909, 4131.453, 4026.04, 4218.86, 4107.123, 450, 0, []
1628604598.8002, 85, 1, 4210.313, 4129.573, 4024.046, 4217.892, 4104.33, 450, 0, []
1628604598.8081, 86, 0, 4208.718, 4127.692, 4022.051, 4216.923, 4101.538, 450, 0, []
1628604598.8158, 87, 0, 4217.436, 4145.128, 4056.41, 4233.846, 4111.282, 16200, 0, []
1628604598.8237, 88, 0, 4211.795, 4124.615, 4049.231, 4254.359, 4115.897, 450, 0, []
1628604598.8315, 89, 0, 4194.872, 4093.333, 4027.179, 4232.308, 4090.769, 450, 0, []
1628604598.8395, 90, 0, 4217.949, 4111.282, 4048.718, 4242.051, 4108.205, 450, 0, []
1628604598.8475, 91, 0, 4244.615, 4140, 4055.385, 4271.795, 4146.154, 16200, 0, []
1628604598.8553, 92, 0, 4231.282, 4120, 4051.282, 4260, 4135.385, 450, 0, []
1628604598.8632, 93, 0, 4214.872, 4104.103, 4037.436, 4239.487, 4115.897, 450, 0, []
1628604598.8712, 94, 0, 4215.897, 4109.744, 4038.462, 4238.974, 4121.538, 450, 0, []
1628604598.8792, 95, 0, 4217.949, 4111.795, 4043.077, 4242.051, 4124.103, 16200, 0, []
1628604598.8871, 96, 0, 4222.564, 4117.436, 4032.821, 4257.436, 4122.564, 450, 0, []
1628604598.895, 97, 0, 4229.231, 4118.974, 4048.718, 4267.179, 4123.59, 450, 0, []
1628604598.9029, 98, 0, 4227.692, 4118.974, 4045.128, 4257.949, 4125.641, 450, 0, []
1628604598.9108, 99, 0, 4211.795, 4120.513, 4043.59, 4257.949, 4121.026, 16200, 0, []
1628604598.9188, 100, 0, 4197.949, 4101.026, 4055.897, 4255.385, 4105.641, 450, 0, []
1628604598.9268, 101, 0, 4204.615, 4088.718, 4041.026, 4243.59, 4105.128, 450, 0, []
1628604598.9347, 102, 0, 4218.974, 4108.718, 4039.487, 4244.615, 4123.077, 450, 0, []
1628604598.9426, 103, 0, 4218.974, 4114.872, 4033.333, 4251.795, 4127.179, 16200, 0, []
1628604598.9505, 104, 0, 4213.846, 4109.231, 4030.256, 4259.487, 4122.564, 450, 0, []
1628604598.9585, 105, 0, 4215.385, 4108.205, 4044.615, 4263.59, 4123.59, 450, 0, []
1628604598.9664, 106, 0, 4215.897, 4091.282, 4035.897, 4253.333, 4117.436, 450, 0, []
1628604598.9743, 107, 0, 4208.718, 4088.718, 4038.974, 4243.077, 4111.282, 16200, 0, []
1628604598.9822, 108, 0, 4205.128, 4105.128, 4034.872, 4251.795, 4112.821, 450, 0, []
1628604598.9902, 109, 0, 4190.256, 4083.59, 4018.462, 4247.692, 4095.897, 450, 0, []
1628604598.9982, 110, 0, 4161.538, 4047.692, 4020.513, 4221.538, 4069.744, 450, 0, []
1628604599.0061, 111, 0, 4177.949, 4062.564, 4028.718, 4231.795, 4085.641, 16200, 0, []
1628604599.0139, 112, 0, 4230.769, 4098.974, 4053.846, 4272.308, 4127.692, 450, 0, []
1628604599.0219, 113, 0, 4230.769, 4094.359, 4050.256, 4271.282, 4131.795, 450, 0, []
1628604599.0299, 114, 1, 4229.288, 4094.473, 4049.858, 4270.313, 4130.655, 450, 0, []
1628604599.0378, 115, 1, 4227.806, 4094.587, 4049.459, 4269.345, 4129.516, 450, 0, []
1628604599.0457, 116, 1, 4226.325, 4094.701, 4049.06, 4268.376, 4128.376, 450, 0, []
1628604599.0535, 117, 1, 4224.843, 4094.815, 4048.661, 4267.407, 4127.236, 450, 0, []
1628604599.0614, 118, 1, 4223.362, 4094.929, 4048.262, 4266.439, 4126.097, 450, 0, []
1628604599.0693, 119, 1, 4221.88, 4095.043, 4047.863, 4265.47, 4124.957, 450, 0, []
1628604599.0772, 120, 1, 4220.399, 4095.157, 4047.464, 4264.501, 4123.818, 450, 0, []
1628604599.0851, 121, 1, 4218.917, 4095.271, 4047.066, 4263.533, 4122.678, 450, 0, []
1628604599.0929, 122, 0, 4217.436, 4095.385, 4046.667, 4262.564, 4121.538, 450, 0, []
1628604599.1007, 123, 0, 4215.897, 4090.256, 4045.641, 4261.538, 4121.538, 16200, 0, []
1628604599.1086, 124, 0, 4203.077, 4076.923, 4046.154, 4255.897, 4111.282, 450, 0, []
1628604599.1165, 125, 0, 4215.897, 4067.692, 4064.103, 4249.744, 4123.077, 450, 0, []
1628604599.1243, 126, 0, 4213.846, 4066.667, 4037.949, 4226.154, 4115.385, 450, 0, []
1628604599.1321, 127, 0, 4198.974, 4082.564, 4027.179, 4221.026, 4100.513, 16200, 0, []
1628604599.1399, 128, 0, 4218.462, 4108.205, 4063.077, 4253.333, 4127.179, 450, 0, []
1628604599.1478, 0, 0, 4228.718, 4103.59, 4056.41, 4248.718, 4137.436, 450, 0, []
1628604599.1556, 1, 0, 4216.923, 4092.308, 4049.744, 4231.282, 4123.59, 450, 0, []
1628604599.1635, 2, 0, 4231.795, 4109.744, 4053.333, 4264.615, 4140.513, 16186, 0, []
1628604599.1712, 3, 0, 4238.462, 4101.538, 4052.308, 4274.872, 4142.564, 450, 0, []
1628604599.1791, 4, 0, 4215.385, 4075.897, 4053.333, 4235.897, 4118.974, 16127, 0, []
1628604599.1869, 5, 0, 4213.846, 4109.744, 4049.231, 4224.103, 4127.692, 450, 0, []
1628604599.1947, 6, 0, 4218.974, 4136.41, 4058.974, 4231.282, 4138.974, 279, 0, []
1628604599.2026, 7, 0, 4214.359, 4109.231, 4050.256, 4227.692, 4130.769, 450, 0, []
1628604599.2104, 8, 0, 4225.641, 4105.641, 4045.641, 4233.846, 4138.462, 450, 0, []
1628604599.2182, 9, 0, 4231.282, 4128.205, 4053.333, 4237.949, 4140.513, 16157, 0, []
1628604599.2261, 10, 0, 4218.462, 4129.231, 4037.436, 4226.154, 4121.026, 450, 0, []
1628604599.2339, 11, 0, 4207.179, 4113.333, 4044.615, 4211.282, 4113.846, 16200, 0, []
1628604599.2418, 12, 0, 4210.769, 4105.641, 4043.077, 4206.667, 4125.128, 450, 0, []
1628604599.2495, 13, 0, 4234.872, 4126.667, 4039.487, 4229.744, 4146.667, 450, 0, []
1628604599.2574, 14, 0, 4249.231, 4160, 4062.051, 4255.897, 4163.59, 450, 0, []
1628604599.2652, 15, 0, 4241.538, 4163.59, 4063.077, 4259.487, 4165.641, 16200, 0, []
1628604599.2732, 16, 0, 4231.282, 4149.231, 4067.179, 4260, 4154.359, 0, 0, []
1628604599.2811, 17, 0, 4215.897, 4146.154, 4066.154, 4256.41, 4134.872, 0, 0, []
1628604599.2889, 18, 0, 4210.256, 4136.923, 4056.923, 4244.615, 4131.282, 0, 0, []
1628604599.2967, 19, 0, 4231.282, 4134.872, 4073.333, 4245.128, 4152.308, 0, 0, []
1628604599.3046, 20, 0, 4239.487, 4155.897, 4068.205, 4245.641, 4161.026, 0, 0, []
1628604599.3124, 21, 0, 4225.128, 4161.026, 4067.692, 4232.308, 4147.179, 0, 0, []
1628604599.3203, 22, 0, 4229.744, 4138.974, 4071.282, 4232.308, 4141.538, 0, 0, []
1628604599.328, 23, 0, 4238.462, 4138.462, 4062.564, 4248.205, 4144.615, 0, 0, []
1628604599.3358, 24, 0, 4226.667, 4151.795, 4075.897, 4248.718, 4143.077, 0, 0, []
1628604599.3438, 25, 0, 4216.923, 4141.538, 4075.385, 4237.436, 4140, 0, 0, []
1628604599.3518, 26, 0, 4217.949, 4136.923, 4081.538, 4227.179, 4134.359, 0, 0, []
1628604599.3598, 27, 0, 4218.462, 4144.615, 4081.026, 4207.179, 4126.667, 0, 0, []
1628604599.3677, 28, 0, 4213.333, 4130.769, 4058.974, 4186.154, 4122.564, 0, 0, []
1628604599.3755, 29, 0, 4219.487, 4126.154, 4078.462, 4192.821, 4131.795, 0, 0, []
1628604599.3834, 30, 0, 4237.436, 4153.846, 4101.538, 4222.051, 4153.846, 0, 0, []
1628604599.3914, 31, 0, 4240, 4160.513, 4109.231, 4243.077, 4162.051, 0, 0, []
1628604599.3993, 32, 0, 4217.949, 4148.718, 4094.359, 4236.923, 4137.949, 0, 0, []
1628604599.4073, 33, 0, 4196.41, 4142.051, 4062.051, 4210.769, 4109.744, 0, 0, []
1628604599.4151, 34, 0, 4196.923, 4146.667, 4069.744, 4204.103, 4109.231, 0, 0, []
1628604599.4231, 35, 0, 4204.615, 4144.103, 4067.692, 4206.154, 4112.821, 0, 0, []
1628604599.431, 36, 0, 4195.385, 4109.231, 4058.462, 4189.744, 4103.077, 0, 0, []
1628604599.439, 37, 0, 4190.769, 4098.462, 4071.282, 4185.641, 4109.231, 0, 0, []
1628604599.4469, 38, 0, 4201.538, 4127.692, 4068.718, 4197.949, 4124.103, 0, 0, []
1628604599.4548, 39, 0, 4201.538, 4110.769, 4076.923, 4205.641, 4122.051, 0, 0, []
1628604599.4628, 40, 0, 4195.385, 4069.231, 4064.103, 4200, 4118.462, 0, 0, []
1628604599.4707, 41, 0, 4202.051, 4097.436, 4044.615, 4193.333, 4124.615, 0, 0, []
1628604599.4787, 42, 0, 4202.564, 4131.795, 4063.077, 4194.359, 4123.59, 0, 0, []
1628604599.4866, 43, 0, 4197.949, 4123.077, 4088.718, 4197.949, 4117.949, 0, 0, []
1628604599.4944, 44, 0, 4205.641, 4129.231, 4120.513, 4199.487, 4125.128, 0, 0, []
1628604599.5024, 45, 0, 4203.59, 4145.128, 4106.667, 4189.744, 4128.205, 0, 0, []
1628604599.5104, 46, 1, 4203.818, 4143.077, 4104.501, 4190.313, 4127.407, 0, 0, []
1628604599.5183, 47, 1, 4204.046, 4141.026, 4102.336, 4190.883, 4126.61, 0, 0, []
1628604599.5262, 48, 1, 4204.274, 4138.974, 4100.171, 4191.453, 4125.812, 0, 0, []
1628604599.534, 49, 1, 4204.501, 4136.923, 4098.006, 4192.023, 4125.014, 0, 0, []
1628604599.5419, 50, 1, 4204.729, 4134.872, 4095.84, 4192.593, 4124.217, 0, 0, []
1628604599.5498, 51, 1, 4204.957, 4132.821, 4093.675, 4193.162, 4123.419, 0, 0, []
1628604599.5577, 52, 1, 4205.185, 4130.769, 4091.51, 4193.732, 4122.621, 0, 0, []
1628604599.5656, 53, 1, 4205.413, 4128.718, 4089.345, 4194.302, 4121.823, 0, 0, []
1628604599.5734, 54, 0, 4205.641, 4126.667, 4087.179, 4194.872, 4121.026, 0, 0, []
1628604599.5812, 55, 0, 4217.436, 4120, 4099.487, 4204.615, 4137.949, 0, 0, []
1628604599.589, 56, 0, 4213.333, 4124.615, 4074.872, 4206.154, 4136.923, 0, 0, []
1628604599.5969, 57, 0, 4206.154, 4131.795, 4076.923, 4210.769, 4133.846, 0, 0, []
1628604599.6047, 58, 0, 4213.333, 4132.308, 4084.615, 4213.333, 4138.462, 0, 0, []
1628604599.6125, 59, 0, 4223.077, 4133.846, 4096.41, 4211.795, 4138.974, 0, 0, []
1628604599.6203, 60, 0, 4216.923, 4129.231, 4096.923, 4213.846, 4137.436, 0, 0, []
1628604599.6282, 61, 0, 4201.026, 4122.051, 4082.051, 4214.359, 4133.846, 0, 0, []
1628604599.636, 62, 0, 4199.487, 4127.692, 4099.487, 4197.436, 4132.308, 0, 0, []
1628604599.6439, 63, 0, 4212.821, 4126.667, 4097.436, 4170.256, 4142.564, 0, 0, []
1628604599.6516, 64, 0, 4230.256, 4126.154, 4098.974, 4167.692, 4158.462, 450, 0, []
1628604599.6595, 65, 0, 4248.718, 4159.487, 4118.974, 4190.256, 4175.385, 450, 0, []
1628604599.6673, 66, 0, 4274.872, 4192.308, 4116.923, 4209.744, 4202.564, 16186, 0, []
1628604599.6752, 67, 0, 4311.795, 4174.359, 4127.179, 4207.179, 4243.59, 450, 0, []
1628604599.683, 68, 0, 4351.795, 4148.718, 4113.333, 4181.026, 4286.667, 16127, 0, []
1628604599.6907, 69, 0, 4396.923, 4160, 4095.897, 4161.026, 4333.846, 450, 0, []
1628604599.6986, 70, 0, 4449.231, 4167.179, 4110.769, 4177.949, 4399.487, 283, 0, []
1628604599.7064, 71, 0, 4498.974, 4159.487, 4118.462, 4206.667, 4459.487, 450, 0, []
1628604599.7143, 72, 0, 4516.923, 4165.128, 4118.974, 4204.615, 4472.821, 450, 0, []
1628604599.7221, 73, 0, 4507.692, 4175.897, 4104.615, 4200.513, 4461.026, 16158, 0, []
1628604599.7298, 74, 0, 4495.897, 4173.333, 4114.359, 4221.538, 4457.949, 450, 0, []
1628604599.7377, 75, 0, 4471.795, 4166.667, 4129.231, 4222.564, 4432.821, 16200, 0, []
1628604599.7455, 76, 0, 4434.872, 4176.923, 4103.077, 4194.872, 4385.128, 450, 0, []
1628604599.7534, 77, 0, 4408.205, 4177.949, 4107.179, 4195.897, 4358.974, 450, 0, []
1628604599.7612, 78, 0, 4395.897, 4138.462, 4114.872, 4225.128, 4351.282, 450, 0, []
1628604599.769, 79, 0, 4383.59, 4119.487, 4109.744, 4237.949, 4333.846, 16200, 0, []
1628604599.7768, 80, 0, 4365.641, 4157.436, 4124.615, 4235.385, 4314.872, 450, 0, []
1628604599.7847, 81, 0, 4341.538, 4167.179, 4110.769, 4226.154, 4292.308, 450, 0, []
1628604599.7925, 82, 0, 4306.154, 4145.128, 4096.923, 4198.974, 4258.462, 450, 0, []
1628604599.8004, 83, 0, 4287.692, 4150.769, 4098.462, 4189.744, 4241.538, 16200, 0, []
1628604599.8081, 84, 0, 4293.333, 4150.769, 4105.641, 4210.256, 4241.538, 450, 0, []
1628604599.8159, 85, 0, 4291.282, 4141.026, 4115.897, 4203.59, 4235.897, 450, 0, []
1628604599.8238, 86, 0, 4278.462, 4138.974, 4103.59, 4183.077, 4224.103, 450, 0, []
1628604599.8316, 87, 0, 4273.333, 4126.667, 4117.949, 4208.718, 4215.385, 16200, 0, []
1628604599.8395, 88, 0, 4280, 4127.179, 4137.949, 4242.051, 4215.385, 450, 0, []
1628604599.8472, 89, 0, 4283.077, 4155.385, 4128.205, 4231.795, 4222.564, 450, 0, []
1628604599.8551, 90, 0, 4268.718, 4164.103, 4122.564, 4213.846, 4215.385, 450, 0, []
1628604599.8629, 91, 0, 4249.744, 4148.205, 4105.128, 4210.256, 4195.385, 16200, 0, []
1628604599.8709, 92, 0, 4244.615, 4138.974, 4104.103, 4208.205, 4188.205, 450, 0, []
1628604599.8789, 93, 0, 4242.051, 4134.872, 4105.641, 4204.103, 4180, 450, 0, []
1628604599.8867, 94, 0, 4239.487, 4139.487, 4097.436, 4191.795, 4171.795, 450, 0, []
1628604599.8946, 95, 0, 4246.154, 4155.385, 4118.462, 4188.205, 4179.487, 16200, 0, []
1628604599.9026, 96, 0, 4242.051, 4152.821, 4110.256, 4192.308, 4180.513, 450, 0, []
1628604599.9105, 97, 0, 4228.718, 4128.205, 4101.026, 4184.615, 4167.692, 450, 0, []
1628604599.9185, 98, 0, 4228.718, 4128.205, 4113.333, 4185.641, 4163.077, 450, 0, []
1628604599.9264, 99, 0, 4236.41, 4157.436, 4110.769, 4213.333, 4170.256, 16200, 0, []
1628604599.9343, 100, 0, 4239.487, 4157.436, 4116.923, 4231.282, 4176.41, 450, 0, []
1628604599.9423, 101, 0, 4234.872, 4136.923, 4104.615, 4212.308, 4168.718, 450, 0, []
1628604599.9502, 102, 0, 4223.077, 4137.436, 4096.41, 4195.897, 4154.872, 450, 0, []
1628604599.9582, 103, 0, 4210.769, 4144.615, 4102.051, 4205.641, 4148.205, 16200, 0, []
1628604599.966, 104, 0, 4214.359, 4143.59, 4093.333, 4216.923, 4155.897, 450, 0, []
1628604599.974, 105, 0, 4232.308, 4138.974, 4111.795, 4222.564, 4165.128, 450, 0, []
1628604599.9819, 106, 0, 4233.846, 4137.436, 4114.359, 4221.538, 4161.026, 450, 0, []
1628604599.9899, 107, 0, 4218.462, 4145.128, 4107.179, 4200, 4150.769, 16200, 0, []
1628604599.9979, 108, 0, 4212.821, 4162.564, 4120, 4187.179, 4148.718, 450, 0, []
1628604600.0057, 109, 1, 4212.137, 4160.057, 4119.259, 4188.832, 4146.553, 450, 0, []
1628604600.0136, 110, 1, 4211.453, 4157.55, 4118.519, 4190.484, 4144.387, 450, 0, []
1628604600.0215, 111, 1, 4210.769, 4155.043, 4117.778, 4192.137, 4142.222, 450, 0, []
1628604600.0294, 112, 1, 4210.085, 4152.536, 4117.037, 4193.789, 4140.057, 450, 0, []
1628604600.0373, 113, 1, 4209.402, 4150.028, 4116.296, 4195.442, 4137.892, 450, 0, []
1628604600.0451, 114, 1, 4208.718, 4147.521, 4115.556, 4197.094, 4135.726, 450, 0, []
1628604600.053, 115, 1, 4208.034, 4145.014, 4114.815, 4198.746, 4133.561, 450, 0, []
1628604600.0609, 116, 1, 4207.35, 4142.507, 4114.074, 4200.399, 4131.396, 450, 0, []
1628604600.0688, 117, 0, 4206.667, 4140, 4113.333, 4202.051, 4129.231, 450, 0, []
1628604600.0766, 118, 0, 4207.179, 4164.103, 4116.41, 4201.026, 4127.692, 450, 0, []
1628604600.0844, 119, 0, 4190.256, 4150.769, 4099.487, 4171.795, 4113.846, 16200, 0, []
1628604600.0922, 120, 0, 4188.718, 4133.333, 4106.667, 4158.462, 4109.231, 450, 0, []
1628604600.1, 121, 0, 4202.564, 4141.538, 4113.846, 4184.103, 4122.051, 450, 0, []
1628604600.1079, 122, 0, 4208.205, 4155.897, 4104.615, 4204.103, 4128.718, 450, 0, []
1628604600.1157, 123, 0, 4194.359, 4146.154, 4112.821, 4190.769, 4111.795, 16200, 0, []
1628604600.1236, 124, 0, 4173.333, 4126.154, 4096.923, 4172.308, 4088.718, 450, 0, []
1628604600.1313, 125, 0, 4179.487, 4137.949, 4108.718, 4180, 4098.462, 450, 0, []
1628604600.1392, 126, 0, 4195.897, 4158.462, 4133.846, 4190.769, 4113.846, 450, 0, []
1628604600.147, 127, 0, 4172.308, 4145.128, 4111.795, 4173.846, 4085.128, 16200, 0, []
1628604600.155, 128, 0, 4144.615, 4127.692, 4103.077, 4161.538, 4056.923, 450, 0, []
1628604600.1629, 0, 0, 4153.333, 4143.59, 4106.667, 4174.359, 4064.103, 450, 0, []
1628604600.1708, 1, 0, 4152.308, 4164.103, 4110.256, 4172.821, 4065.128, 450, 0, []
1628604600.1788, 2, 0, 4136.41, 4174.872, 4102.051, 4144.103, 4053.333, 16186, 0, []
1628604600.1867, 3, 0, 4142.051, 4172.821, 4085.641, 4128.205, 4055.385, 450, 0, []
1628604600.1946, 4, 0, 4152.821, 4161.538, 4101.026, 4145.128, 4063.077, 16127, 0, []
1628604600.2026, 5, 0, 4164.103, 4165.128, 4104.615, 4180.513, 4081.026, 450, 0, []
1628604600.2105, 6, 0, 4178.462, 4168.718, 4105.641, 4190.256, 4096.923, 274, 0, []
1628604600.2185, 7, 0, 4176.923, 4161.026, 4115.385, 4172.821, 4085.128, 450, 0, []
1628604600.2264, 8, 0, 4164.103, 4166.667, 4100, 4168.718, 4069.744, 450, 0, []
1628604600.2344, 9, 0, 4162.051, 4174.359, 4098.462, 4176.41, 4071.795, 16158, 0, []
1628604600.2423, 10, 0, 4170.256, 4161.026, 4093.846, 4165.641, 4073.846, 450, 0, []
1628604600.2502, 11, 0, 4178.462, 4163.59, 4103.59, 4159.487, 4077.949, 16200, 0, []
1628604600.2581, 12, 0, 4184.103, 4187.692, 4132.308, 4174.872, 4098.974, 450, 0, []
1628604600.2661, 13, 0, 4185.128, 4188.205, 4122.564, 4181.026, 4107.692, 450, 0, []
1628604600.274, 14, 0, 4184.103, 4169.744, 4117.436, 4174.872, 4095.385, 450, 0, []
1628604600.282, 15, 0, 4183.077, 4153.333, 4113.333, 4168.205, 4094.872, 16200, 0, []
1628604600.2899, 16, 0, 4188.718, 4163.59, 4114.359, 4162.051, 4104.615, 0, 0, []
1628604600.2978, 17, 0, 4202.051, 4187.692, 4136.923, 4170.769, 4114.872, 0, 0, []
1628604600.3058, 18, 0, 4206.154, 4179.487, 4124.103, 4171.795, 4121.538, 0, 0, []
1628604600.3137, 19, 0, 4200.513, 4158.462, 4113.333, 4157.436, 4115.385, 0, 0, []
1628604600.3216, 20, 0, 4198.974, 4174.359, 4108.205, 4149.231, 4110.769, 0, 0, []
1628604600.3295, 21, 0, 4196.41, 4176.923, 4100, 4135.385, 4109.231, 0, 0, []
1628604600.3375, 22, 0, 4199.487, 4154.872, 4113.333, 4117.949, 4107.692, 0, 0, []
1628604600.3454, 23, 0, 4213.333, 4171.795, 4116.923, 4117.436, 4122.051, 0, 0, []
1628604600.3534, 24, 0, 4221.026, 4185.128, 4128.205, 4110.256, 4142.051, 0, 0, []
1628604600.3613, 25, 0, 4217.436, 4155.897, 4126.667, 4094.872, 4139.487, 0, 0, []
1628604600.3692, 26, 0, 4215.385, 4148.718, 4111.282, 4103.59, 4137.949, 0, 0, []
1628604600.3771, 27, 0, 4218.974, 4186.667, 4120.513, 4113.846, 4151.795, 0, 0, []
1628604600.3851, 28, 0, 4226.154, 4213.846, 4110.256, 4107.692, 4153.846, 0, 0, []
1628604600.393, 29, 0, 4231.795, 4217.436, 4112.821, 4122.051, 4150.769, 0, 0, []
1628604600.401, 30, 0, 4228.718, 4210.769, 4108.718, 4135.897, 4153.333, 0, 0, []
1628604600.4088, 31, 0, 4233.333, 4188.205, 4077.436, 4116.923, 4160.513, 0, 0, []
1628604600.4168, 32, 0, 4262.051, 4175.385, 4082.564, 4104.103, 4183.59, 0, 0, []
1628604600.4247, 33, 0, 4296.41, 4176.923, 4080, 4108.205, 4220, 0, 0, []
1628604600.4327, 34, 0, 4335.385, 4190.769, 4078.462, 4111.282, 4264.615, 0, 0, []
1628604600.4407, 35, 0, 4386.667, 4211.795, 4087.179, 4107.179, 4317.436, 0, 0, []
1628604600.4485, 36, 0, 4413.333, 4208.718, 4075.385, 4086.154, 4346.154, 0, 0, []
1628604600.4564, 37, 0, 4422.564, 4197.436, 4087.179, 4082.051, 4355.897, 0, 0, []
1628604600.4643, 38, 0, 4446.154, 4198.974, 4095.385, 4109.231, 4376.923, 0, 0, []
1628604600.4723, 39, 0, 4461.538, 4198.974, 4101.538, 4128.718, 4393.333, 0, 0, []
1628604600.4802, 40, 0, 4452.821, 4208.205, 4111.795, 4129.231, 4383.077, 0, 0, []
1628604600.4881, 41, 0, 4428.205, 4229.231, 4095.897, 4122.051, 4353.333, 0, 0, []
1628604600.4961, 42, 0, 4387.692, 4215.897, 4089.231, 4106.667, 4312.308, 0, 0, []
1628604600.504, 43, 0, 4362.564, 4193.333, 4085.641, 4102.564, 4285.128, 0, 0, []
1628604600.5119, 44, 0, 4366.667, 4205.641, 4098.974, 4119.487, 4282.051, 0, 0, []
1628604600.5199, 45, 0, 4352.308, 4203.59, 4107.692, 4118.462, 4267.692, 0, 0, []
1628604600.5278, 46, 0, 4315.385, 4190.769, 4080.513, 4091.795, 4236.923, 0, 0, []
1628604600.5357, 47, 0, 4288.205, 4214.872, 4078.974, 4075.897, 4210.769, 0, 0, []
1628604600.5436, 48, 0, 4263.59, 4222.564, 4076.923, 4068.205, 4185.128, 0, 0, []
1628604600.5516, 49, 1, 4276.695, 4219.715, 4075.726, 4069.858, 4196.296, 0, 0, []
1628604600.5595, 50, 1, 4289.801, 4216.866, 4074.53, 4071.51, 4207.464, 0, 0, []
1628604600.5673, 51, 1, 4302.906, 4214.017, 4073.333, 4073.162, 4218.632, 0, 0, []
1628604600.5752, 52, 1, 4316.011, 4211.168, 4072.137, 4074.815, 4229.801, 0, 0, []
1628604600.5831, 53, 1, 4329.117, 4208.319, 4070.94, 4076.467, 4240.969, 0, 0, []
1628604600.591, 54, 1, 4342.222, 4205.47, 4069.744, 4078.12, 4252.137, 0, 0, []
1628604600.5989, 55, 1, 4355.328, 4202.621, 4068.547, 4079.772, 4263.305, 0, 0, []
1628604600.6067, 56, 1, 4368.433, 4199.772, 4067.35, 4081.425, 4274.473, 0, 0, []
1628604600.6146, 57, 0, 4381.538, 4196.923, 4066.154, 4083.077, 4285.641, 0, 0, []
1628604600.6224, 58, 0, 4345.128, 4184.615, 4061.026, 4076.923, 4243.59, 0, 0, []
1628604600.6303, 59, 0, 4312.821, 4209.231, 4052.308, 4090.256, 4216.923, 0, 0, []
1628604600.6382, 60, 0, 4272.308, 4199.487, 4063.077, 4091.282, 4173.333, 0, 0, []
1628604600.6459, 61, 0, 4226.154, 4175.897, 4048.205, 4072.821, 4115.385, 0, 0, []
1628604600.6538, 62, 0, 4195.385, 4183.59, 4048.718, 4070.769, 4086.667, 0, 0, []
1628604600.6616, 63, 0, 4166.667, 4194.359, 4061.026, 4085.128, 4074.872, 0, 0, []
1628604600.6694, 64, 0, 4150.769, 4195.897, 4063.077, 4097.949, 4064.103, 450, 0, []
1628604600.6772, 65, 0, 4154.872, 4208.205, 4085.128, 4104.103, 4058.974, 450, 0, []
1628604600.685, 66, 0, 4136.41, 4208.205, 4071.282, 4096.923, 4041.538, 16186, 0, []
1628604600.6928, 67, 0, 4112.821, 4175.385, 4056.41, 4090.256, 4026.154, 450, 0, []
1628604600.7006, 68, 0, 4127.179, 4165.641, 4066.667, 4106.154, 4035.897, 16123, 0, []
1628604600.7085, 69, 0, 4141.026, 4202.564, 4064.103, 4127.692, 4041.026, 450, 0, []
1628604600.7164, 70, 0, 4130.256, 4198.974, 4071.795, 4134.872, 4030.256, 283, 0, []
1628604600.7241, 71, 0, 4135.897, 4168.718, 4080, 4139.487, 4038.974, 450, 0, []
1628604600.7319, 72, 0, 4150.256, 4190.769, 4090.769, 4145.128, 4053.846, 450, 0, []
1628604600.7398, 73, 0, 4134.359, 4203.077, 4081.538, 4131.795, 4042.051, 16158, 0, []
1628604600.7477, 74, 0, 4118.462, 4180.513, 4055.897, 4112.308, 4028.205, 450, 0, []
1628604600.7555, 75, 0, 4141.538, 4194.872, 4083.077, 4119.487, 4039.487, 16200, 0, []
1628604600.7632, 76, 0, 4161.026, 4202.051, 4089.231, 4134.872, 4051.795, 450, 0, []
1628604600.7711, 77, 0, 4145.641, 4182.051, 4065.641, 4140.513, 4047.179, 450, 0, []
1628604600.779, 78, 0, 4135.385, 4199.487, 4069.744, 4143.59, 4043.59, 450, 0, []
1628604600.7869, 79, 0, 4137.436, 4212.821, 4078.462, 4149.744, 4052.821, 16200, 0, []
1628604600.7949, 80, 0, 4130.256, 4187.179, 4094.872, 4163.59, 4061.538, 450, 0, []
1628604600.8027, 81, 0, 4114.359, 4184.103, 4085.128, 4158.462, 4041.026, 450, 0, []
1628604600.8107, 82, 0, 4103.077, 4205.128, 4072.821, 4130.769, 4009.231, 450, 0, []
1628604600.8186, 83, 0, 4105.641, 4211.282, 4084.615, 4122.564, 4016.41, 16200, 0, []
1628604600.8266, 84, 0, 4121.026, 4213.846, 4070.256, 4133.333, 4051.795, 450, 0, []
1628604600.8346, 85, 0, 4133.333, 4211.795, 4072.308, 4131.282, 4065.128, 450, 0, []
1628604600.8425, 86, 0, 4132.308, 4185.641, 4083.077, 4132.821, 4055.897, 450, 0, []
1628604600.8504, 87, 0, 4136.923, 4176.41, 4089.744, 4163.077, 4065.128, 16200, 0, []
1628604600.8584, 88, 0, 4133.846, 4193.846, 4097.949, 4180.513, 4073.333, 450, 0, []
1628604600.8664, 89, 1, 4135.897, 4196.353, 4096.752, 4180.399, 4073.618, 450, 0, []
1628604600.8743, 90, 1, 4137.949, 4198.86, 4095.556, 4180.285, 4073.903, 450, 0, []
1628604600.8821, 91, 1, 4140, 4201.368, 4094.359, 4180.171, 4074.188, 450, 0, []
1628604600.89, 92, 1, 4142.051, 4203.875, 4093.162, 4180.057, 4074.473, 450, 0, []
1628604600.8979, 93, 1, 4144.103, 4206.382, 4091.966, 4179.943, 4074.758, 450, 0, []
1628604600.9058, 94, 1, 4146.154, 4208.889, 4090.769, 4179.829, 4075.043, 450, 0, []
1628604600.9137, 95, 1, 4148.205, 4211.396, 4089.573, 4179.715, 4075.328, 450, 0, []
1628604600.9216, 96, 1, 4150.256, 4213.903, 4088.376, 4179.601, 4075.613, 450, 0, []
1628604600.9294, 97, 0, 4152.308, 4216.41, 4087.179, 4179.487, 4075.897, 450, 0, []
1628604600.9372, 98, 0, 4137.949, 4217.949, 4076.923, 4157.949, 4072.308, 450, 0, []
1628604600.9451, 99, 0, 4136.923, 4210.769, 4060, 4141.538, 4069.744, 16200, 0, []
1628604600.953, 100, 0, 4137.436, 4199.487, 4062.564, 4134.872, 4065.641, 450, 0, []
1628604600.9608, 101, 0, 4132.821, 4184.615, 4070.769, 4144.103, 4056.41, 450, 0, []
1628604600.9685, 102, 0, 4140.513, 4196.41, 4066.667, 4166.667, 4061.538, 450, 0, []
1628604600.9764, 103, 0, 4147.179, 4203.077, 4078.462, 4182.564, 4070.256, 16200, 0, []
1628604600.9842, 104, 0, 4161.026, 4204.103, 4082.051, 4187.692, 4085.128, 450, 0, []
1628604600.9921, 105, 0, 4200, 4246.667, 4105.128, 4209.231, 4119.487, 450, 0, []
1628604600.9999, 106, 0, 4218.462, 4266.154, 4116.923, 4224.103, 4133.333, 450, 0, []
1628604601.0077, 107, 0, 4196.41, 4224.103, 4087.179, 4202.051, 4114.359, 16200, 0, []
1628604601.0155, 108, 0, 4184.103, 4210.256, 4097.436, 4171.282, 4109.231, 450, 0, []
1628604601.0234, 109, 0, 4186.154, 4240, 4103.077, 4154.359, 4115.897, 450, 0, []
1628604601.0312, 110, 0, 4169.231, 4236.41, 4082.564, 4138.462, 4098.462, 450, 0, []
1628604601.039, 111, 0, 4161.026, 4206.667, 4078.462, 4141.538, 4086.667, 16200, 0, []
1628604601.0468, 112, 0, 4176.41, 4208.718, 4077.436, 4173.846, 4105.641, 450, 0, []
1628604601.0546, 113, 0, 4178.974, 4237.436, 4084.615, 4196.41, 4111.795, 450, 0, []
1628604601.0624, 114, 0, 4169.231, 4232.821, 4069.231, 4194.872, 4091.282, 450, 0, []
1628604601.0704, 115, 0, 4174.872, 4204.615, 4063.077, 4183.077, 4081.026, 16200, 0, []
1628604601.0783, 116, 0, 4196.923, 4229.231, 4100, 4181.026, 4095.897, 450, 0, []
1628604601.0862, 117, 0, 4205.641, 4263.077, 4111.795, 4191.282, 4110.256, 450, 0, []
1628604601.0941, 118, 0, 4188.718, 4235.385, 4108.718, 4190.256, 4110.769, 450, 0, []
1628604601.102, 119, 0, 4178.462, 4210.769, 4091.795, 4170.256, 4102.564, 16200, 0, []
1628604601.1098, 120, 0, 4193.333, 4229.744, 4081.538, 4161.538, 4097.436, 450, 0, []
1628604601.1177, 121, 0, 4202.564, 4254.872, 4102.051, 4173.846, 4106.154, 450, 0, []
1628604601.1254, 122, 0, 4190.256, 4249.231, 4086.667, 4172.821, 4109.744, 450, 0, []
1628604601.1334, 123, 0, 4175.897, 4218.462, 4064.103, 4153.333, 4091.795, 16200, 0, []
1628604601.1414, 124, 0, 4181.026, 4217.436, 4062.564, 4150.256, 4087.692, 450, 0, []
1628604601.1494, 125, 0, 4208.718, 4244.103, 4076.41, 4172.308, 4117.949, 450, 0, []
1628604601.1573, 126, 0, 4223.59, 4244.615, 4090.256, 4185.641, 4137.436, 450, 0, []
1628604601.1651, 127, 0, 4206.154, 4242.051, 4051.282, 4165.128, 4118.974, 16200, 0, []
1628604601.173, 128, 0, 4194.872, 4253.333, 4037.436, 4145.128, 4110.256, 450, 0, []
1628604601.181, 0, 0, 4207.179, 4244.103, 4058.974, 4145.641, 4123.59, 450, 0, []
1628604601.1889, 1, 0, 4204.615, 4237.949, 4065.641, 4151.795, 4116.923, 450, 0, []
1628604601.1969, 2, 1, 4199.772, 4235.271, 4067.464, 4149.687, 4113.39, 16186, 0, []
1628604601.2047, 3, 1, 4194.929, 4232.593, 4069.288, 4147.578, 4109.858, 450, 0, []
1628604601.2126, 4, 1, 4190.085, 4229.915, 4071.111, 4145.47, 4106.325, 16123, 0, []
1628604601.2205, 5, 1, 4185.242, 4227.236, 4072.934, 4143.362, 4102.792, 450, 0, []
1628604601.2284, 6, 1, 4180.399, 4224.558, 4074.758, 4141.254, 4099.259, 283, 0, []
1628604601.2363, 7, 1, 4175.556, 4221.88, 4076.581, 4139.145, 4095.726, 450, 0, []
1628604601.2441, 8, 1, 4170.712, 4219.202, 4078.405, 4137.037, 4092.194, 450, 0, []
1628604601.252, 9, 1, 4165.869, 4216.524, 4080.228, 4134.929, 4088.661, 16158, 0, []
1628604601.2599, 10, 0, 4161.026, 4213.846, 4082.051, 4132.821, 4085.128, 450, 0, []
1628604601.2677, 11, 0, 4187.692, 4235.385, 4091.282, 4160, 4112.308, 16200, 0, []
1628604601.2756, 12, 0, 4189.231, 4220, 4090.769, 4166.154, 4112.821, 450, 0, []
1628604601.2833, 13, 0, 4154.359, 4184.615, 4062.564, 4127.692, 4077.436, 450, 0, []
1628604601.2912, 14, 0, 4146.667, 4180, 4058.462, 4110.769, 4068.718, 450, 0, []
1628604601.299, 15, 0, 4178.974, 4210.256, 4082.564, 4143.077, 4098.462, 16200, 0, []
1628604601.3069, 16, 0, 4190.256, 4240.513, 4074.359, 4158.462, 4111.795, 0, 0, []
1628604601.3147, 17, 0, 4182.051, 4239.487, 4084.103, 4144.103, 4102.051, 0, 0, []
1628604601.3225, 18, 0, 4182.564, 4216.923, 4083.077, 4135.385, 4093.333, 0, 0, []
1628604601.3303, 19, 0, 4173.846, 4210.769, 4064.615, 4125.641, 4077.949, 0, 0, []
1628604601.3382, 20, 0, 4168.205, 4217.436, 4072.308, 4121.538, 4073.846, 0, 0, []
1628604601.346, 21, 0, 4185.641, 4218.462, 4075.897, 4137.949, 4098.462, 0, 0, []
1628604601.3538, 22, 0, 4192.821, 4227.692, 4090.256, 4139.487, 4108.205, 0, 0, []
1628604601.3617, 23, 0, 4183.077, 4237.436, 4083.59, 4128.205, 4088.205, 0, 0, []
1628604601.3696, 24, 0, 4186.154, 4226.154, 4076.41, 4138.974, 4082.564, 0, 0, []
1628604601.3775, 25, 0, 4187.692, 4229.231, 4101.538, 4149.744, 4086.667, 0, 0, []
1628604601.3855, 26, 0, 4189.744, 4256.41, 4093.846, 4146.154, 4080, 0, 0, []
1628604601.3934, 27, 0, 4201.538, 4248.205, 4082.051, 4145.641, 4074.872, 0, 0, []
1628604601.4013, 28, 0, 4197.949, 4216.923, 4073.846, 4139.487, 4068.718, 0, 0, []
1628604601.4092, 29, 0, 4180, 4219.487, 4066.667, 4131.282, 4056.923, 0, 0, []
1628604601.4172, 30, 0, 4172.821, 4237.436, 4079.487, 4132.821, 4052.308, 0, 0, []
1628604601.4251, 31, 0, 4178.462, 4233.846, 4073.333, 4134.359, 4058.462, 0, 0, []
1628604601.4331, 32, 0, 4183.59, 4222.564, 4078.974, 4141.026, 4065.641, 0, 0, []
1628604601.441, 33, 0, 4187.179, 4229.231, 4084.615, 4143.077, 4065.128, 0, 0, []
1628604601.4489, 34, 0, 4185.128, 4236.41, 4074.872, 4126.667, 4057.436, 0, 0, []
1628604601.4568, 35, 0, 4182.564, 4214.359, 4091.282, 4123.077, 4056.923, 0, 0, []
1628604601.4648, 36, 0, 4189.231, 4196.923, 4095.897, 4138.974, 4067.179, 0, 0, []
1628604601.4727, 37, 0, 4183.59, 4215.897, 4095.385, 4143.59, 4061.538, 0, 0, []
1628604601.4806, 38, 0, 4163.077, 4237.436, 4095.897, 4141.538, 4045.641, 0, 0, []
1628604601.4885, 39, 0, 4143.077, 4228.718, 4078.974, 4142.051, 4033.333, 0, 0, []
1628604601.4965, 40, 0, 4125.641, 4196.923, 4067.692, 4123.077, 4011.282, 0, 0, []
1628604601.5044, 41, 0, 4106.154, 4175.897, 4042.051, 4100, 3988.718, 0, 0, []
1628604601.5124, 42, 0, 4099.487, 4188.718, 4038.974, 4101.538, 3990.769, 0, 0, []
1628604601.5202, 43, 0, 4112.821, 4202.564, 4051.795, 4114.872, 4006.667, 0, 0, []
1628604601.5282, 44, 0, 4127.179, 4191.282, 4047.179, 4118.462, 4017.436, 0, 0, []
1628604601.5361, 45, 0, 4141.538, 4195.897, 4071.795, 4123.59, 4035.385, 0, 0, []
1628604601.5441, 46, 0, 4155.897, 4206.154, 4074.872, 4132.821, 4049.744, 0, 0, []
1628604601.5521, 47, 0, 4149.744, 4186.154, 4060, 4128.718, 4039.487, 0, 0, []
1628604601.5599, 48, 0, 4139.487, 4188.205, 4071.795, 4121.538, 4032.821, 0, 0, []
1628604601.5679, 49, 0, 4145.128, 4217.949, 4072.821, 4124.103, 4043.59, 0, 0, []
1628604601.5759, 50, 0, 4153.333, 4220, 4082.564, 4117.436, 4052.308, 0, 0, []
1628604601.5839, 51, 1, 4159.373, 4217.778, 4080.741, 4118.632, 4059.088, 0, 0, []
1628604601.5918, 52, 1, 4165.413, 4215.556, 4078.917, 4119.829, 4065.869, 0, 0, []
1628604601.5996, 53, 1, 4171.453, 4213.333, 4077.094, 4121.026, 4072.65, 0, 0, []
1628604601.6075, 54, 1, 4177.493, 4211.111, 4075.271, 4122.222, 4079.43, 0, 0, []
1628604601.6154, 55, 1, 4183.533, 4208.889, 4073.447, 4123.419, 4086.211, 0, 0, []
1628604601.6233, 56, 1, 4189.573, 4206.667, 4071.624, 4124.615, 4092.991, 0, 0, []
1628604601.6312, 57, 1, 4195.613, 4204.444, 4069.801, 4125.812, 4099.772, 0, 0, []
1628604601.639, 58, 1, 4201.652, 4202.222, 4067.977, 4127.009, 4106.553, 0, 0, []
1628604601.6469, 59, 0, 4207.692, 4200, 4066.154, 4128.205, 4113.333, 0, 0, []
1628604601.6547, 60, 0, 4211.282, 4223.59, 4074.872, 4136.923, 4120.513, 0, 0, []
1628604601.6625, 61, 0, 4216.923, 4245.641, 4089.744, 4153.846, 4124.103, 0, 0, []
1628604601.6704, 62, 0, 4194.359, 4216.41, 4062.564, 4140.513, 4101.026, 0, 0, []
1628604601.6782, 63, 0, 4173.846, 4190.769, 4061.026, 4128.205, 4090.256, 0, 0, []
1628604601.686, 64, 0, 4191.282, 4205.641, 4072.308, 4148.205, 4113.846, 450, 0, []
1628604601.6938, 65, 0, 4215.385, 4229.744, 4085.641, 4157.436, 4128.718, 450, 0, []
1628604601.7017, 66, 0, 4214.359, 4232.821, 4080.513, 4132.821, 4116.923, 16186, 0, []
1628604601.7095, 67, 0, 4196.923, 4224.103, 4068.718, 4107.179, 4102.051, 450, 0, []
1628604601.7174, 68, 0, 4176.923, 4229.744, 4085.641, 4096.41, 4092.308, 16123, 0, []
1628604601.7251, 69, 0, 4165.641, 4229.231, 4073.846, 4087.692, 4084.615, 450, 0, []
1628604601.7329, 70, 0, 4165.641, 4201.538, 4064.615, 4086.154, 4085.128, 276, 0, []
1628604601.7408, 71, 0, 4171.282, 4184.615, 4072.308, 4089.231, 4088.205, 450, 0, []
1628604601.7486, 72, 0, 4175.897, 4202.564, 4070.256, 4096.41, 4093.333, 450, 0, []
1628604601.7565, 73, 0, 4182.051, 4215.385, 4085.641, 4113.333, 4109.231, 16161, 0, []
1628604601.7642, 74, 0, 4196.923, 4213.846, 4090.256, 4117.436, 4129.231, 450, 0, []
1628604601.7721, 75, 0, 4208.205, 4221.538, 4103.59, 4110.256, 4131.282, 16200, 0, []
1628604601.7799, 76, 0, 4191.795, 4206.154, 4105.128, 4102.564, 4106.154, 450, 0, []
1628604601.7878, 77, 0, 4162.564, 4181.026, 4069.231, 4084.103, 4075.897, 450, 0, []
1628604601.7956, 78, 0, 4162.564, 4203.077, 4074.872, 4084.103, 4080, 450, 0, []
1628604601.8034, 79, 0, 4179.487, 4231.795, 4089.744, 4110.256, 4103.077, 16200, 0, []
1628604601.8112, 80, 0, 4170.256, 4224.103, 4082.564, 4104.615, 4095.897, 450, 0, []
1628604601.819, 81, 0, 4155.385, 4208.718, 4072.308, 4074.359, 4081.026, 450, 0, []
1628604601.8268, 82, 0, 4173.846, 4199.487, 4079.487, 4083.59, 4099.487, 450, 0, []
1628604601.8347, 83, 0, 4203.59, 4199.487, 4119.487, 4124.103, 4126.667, 16200, 0, []
1628604601.8424, 84, 0, 4204.103, 4217.436, 4117.949, 4134.872, 4128.205, 450, 0, []
1628604601.8503, 85, 0, 4200.513, 4220, 4113.333, 4125.641, 4128.718, 450, 0, []
1628604601.8581, 86, 0, 4215.897, 4205.128, 4140.513, 4134.872, 4148.718, 450, 0, []
1628604601.866, 87, 0, 4207.179, 4196.923, 4111.282, 4133.333, 4142.051, 16200, 0, []
1628604601.8738, 88, 0, 4181.026, 4193.846, 4085.641, 4116.923, 4115.385, 450, 0, []
1628604601.8816, 89, 0, 4187.179, 4199.487, 4097.949, 4123.59, 4123.59, 450, 0, []
1628604601.8894, 90, 0, 4203.59, 4203.077, 4108.205, 4144.103, 4146.667, 450, 0, []
1628604601.8974, 91, 0, 4194.359, 4199.487, 4108.718, 4135.897, 4137.436, 16200, 0, []
1628604601.9053, 92, 0, 4173.846, 4200.513, 4087.692, 4117.949, 4110.256, 450, 0, []
1628604601.9133, 93, 0, 4166.667, 4202.051, 4094.359, 4117.949, 4104.103, 450, 0, []
1628604601.9211, 94, 0, 4176.923, 4200, 4103.59, 4118.462, 4115.385, 450, 0, []
1628604601.9289, 95, 0, 4183.59, 4193.846, 4091.795, 4126.154, 4122.564, 16200, 0, []
1628604601.9368, 96, 0, 4187.692, 4194.359, 4098.974, 4147.692, 4127.179, 450, 0, []
1628604601.9446, 97, 0, 4204.615, 4197.436, 4101.538, 4158.974, 4142.051, 450, 0, []
1628604601.9525, 98, 0, 4206.154, 4185.641, 4103.077, 4143.077, 4142.051, 450, 0, []
1628604601.9602, 99, 0, 4184.103, 4176.923, 4088.718, 4122.051, 4118.974, 16200, 0, []
1628604601.9681, 100, 0, 4185.641, 4198.974, 4085.128, 4123.59, 4118.462, 450, 0, []
1628604601.9759, 101, 0, 4206.667, 4205.641, 4122.564, 4134.872, 4140, 450, 0, []
1628604601.9838, 102, 0, 4198.974, 4183.59, 4117.436, 4132.821, 4135.385, 450, 0, []
1628604601.9916, 103, 0, 4173.846, 4187.692, 4102.564, 4120.513, 4108.205, 16200, 0, []
1628604601.9994, 104, 0, 4179.487, 4209.744, 4114.872, 4133.333, 4113.333, 450, 0, []
1628604602.0072, 105, 0, 4201.538, 4201.538, 4111.795, 4152.308, 4138.974, 450, 0, []
1628604602.0152, 106, 0, 4195.385, 4186.667, 4105.128, 4144.615, 4133.333, 450, 0, []
1628604602.0231, 107, 0, 4176.923, 4206.154, 4091.795, 4127.692, 4114.359, 16200, 0, []
1628604602.031, 108, 0, 4184.103, 4212.821, 4107.692, 4128.205, 4124.615, 450, 0, []
1628604602.0387, 109, 0, 4205.128, 4202.051, 4132.308, 4151.795, 4151.795, 450, 0, []
1628604602.0467, 110, 0, 4205.641, 4208.718, 4117.436, 4167.692, 4153.333, 450, 0, []
1628604602.0546, 111, 0, 4192.821, 4210.256, 4110.769, 4157.949, 4135.897, 16200, 0, []
1628604602.0625, 112, 0, 4197.436, 4202.051, 4108.205, 4153.846, 4140.513, 450, 0, []
1628604602.0704, 113, 0, 4210.256, 4202.564, 4117.436, 4166.667, 4154.872, 450, 0, []
1628604602.0782, 114, 0, 4204.103, 4202.564, 4122.564, 4166.154, 4142.564, 450, 0, []
1628604602.0861, 115, 0, 4200.513, 4216.923, 4108.718, 4167.179, 4138.974, 16200, 0, []
1628604602.0939, 116, 0, 4211.795, 4242.051, 4132.308, 4184.103, 4154.872, 450, 0, []
1628604602.1018, 117, 0, 4207.692, 4215.385, 4134.872, 4178.974, 4146.154, 450, 0, []
1628604602.1096, 118, 0, 4183.59, 4176.41, 4105.641, 4158.974, 4120.513, 450, 0, []
1628604602.1174, 119, 0, 4172.821, 4190.769, 4103.077, 4154.872, 4112.308, 16200, 0, []
1628604602.1252, 120, 0, 4183.077, 4202.051, 4110.256, 4156.41, 4123.59, 450, 0, []
1628604602.1331, 121, 0, 4200, 4198.462, 4132.308, 4166.667, 4142.564, 450, 0, []
1628604602.1409, 122, 0, 4214.872, 4197.949, 4129.231, 4182.564, 4155.897, 450, 0, []
1628604602.1488, 123, 0, 4215.897, 4187.179, 4121.538, 4182.564, 4152.308, 16200, 0, []
1628604602.1565, 124, 0, 4196.923, 4186.667, 4128.718, 4160.513, 4132.821, 450, 0, []
1628604602.1644, 125, 0, 4174.872, 4204.103, 4099.487, 4144.615, 4116.923, 450, 0, []
1628604602.1722, 126, 0, 4177.436, 4200.513, 4105.128, 4164.615, 4124.615, 450, 0, []
1628604602.1802, 127, 0, 4195.897, 4188.205, 4115.897, 4176.41, 4140.513, 16200, 0, []
1628604602.1881, 128, 0, 4228.718, 4212.308, 4096.923, 4160.513, 4158.974, 450, 0, []
1628604602.196, 0, 0, 4276.923, 4227.179, 4103.59, 4150.769, 4190.769, 450, 0, []
1628604602.2039, 1, 0, 4307.179, 4197.436, 4098.462, 4140, 4218.974, 450, 0, []
1628604602.2119, 2, 0, 4331.795, 4189.231, 4105.128, 4137.949, 4248.205, 16186, 0, []
1628604602.2198, 3, 0, 4366.667, 4213.846, 4122.051, 4156.923, 4280.513, 450, 0, []
1628604602.2278, 4, 0, 4378.462, 4208.718, 4117.436, 4160, 4282.051, 16123, 0, []
1628604602.2356, 5, 0, 4352.308, 4194.359, 4111.795, 4140.513, 4254.872, 450, 0, []
1628604602.2434, 6, 0, 4317.436, 4197.949, 4084.615, 4130.256, 4226.154, 280, 0, []
1628604602.2513, 7, 0, 4291.282, 4188.718, 4079.487, 4119.487, 4197.436, 450, 0, []
1628604602.2591, 8, 0, 4278.974, 4186.154, 4100, 4108.718, 4178.974, 450, 0, []
1628604602.267, 9, 0, 4280, 4201.538, 4107.692, 4123.59, 4187.692, 16162, 0, []
1628604602.2747, 10, 0, 4282.564, 4206.667, 4120.513, 4145.128, 4197.436, 450, 0, []
1628604602.2826, 11, 0, 4275.897, 4207.179, 4109.744, 4143.077, 4185.128, 16200, 0, []
1628604602.2904, 12, 0, 4256.923, 4194.872, 4099.487, 4130.769, 4167.692, 450, 0, []
1628604602.2983, 13, 0, 4248.718, 4184.615, 4096.923, 4128.718, 4163.59, 450, 0, []
1628604602.3061, 14, 0, 4263.077, 4208.718, 4091.795, 4140.513, 4174.872, 450, 0, []
1628604602.314, 15, 0, 4273.846, 4217.949, 4111.795, 4146.667, 4185.641, 16200, 0, []
1628604602.3217, 16, 0, 4266.667, 4185.128, 4103.077, 4133.333, 4179.487, 0, 0, []
1628604602.3297, 17, 0, 4258.974, 4176.41, 4092.308, 4137.436, 4168.205, 0, 0, []
1628604602.3376, 18, 0, 4251.795, 4194.359, 4097.949, 4155.897, 4166.667, 0, 0, []
1628604602.3455, 19, 0, 4239.487, 4184.615, 4084.103, 4148.205, 4161.026, 0, 0, []
1628604602.3533, 20, 0, 4227.179, 4171.282, 4090.769, 4128.205, 4138.974, 0, 0, []
1628604602.3612, 21, 0, 4230.256, 4186.154, 4093.846, 4123.59, 4135.897, 0, 0, []
1628604602.3691, 22, 0, 4238.974, 4204.103, 4097.436, 4125.128, 4151.795, 0, 0, []
1628604602.3771, 23, 0, 4229.231, 4209.231, 4107.179, 4128.718, 4148.205, 0, 0, []
1628604602.385, 24, 0, 4222.564, 4198.974, 4087.179, 4125.128, 4144.103, 0, 0, []
1628604602.393, 25, 0, 4230.256, 4191.282, 4085.641, 4117.949, 4161.026, 0, 0, []
1628604602.4008, 26, 0, 4233.846, 4192.308, 4084.615, 4136.923, 4177.949, 0, 0, []
1628604602.4086, 27, 0, 4222.051, 4188.205, 4070.769, 4150.256, 4169.744, 0, 0, []
1628604602.4165, 28, 0, 4198.462, 4182.564, 4062.564, 4118.974, 4142.564, 0, 0, []
1628604602.4243, 29, 0, 4181.026, 4190.769, 4054.359, 4094.359, 4123.077, 0, 0, []
1628604602.4322, 30, 0, 4180.513, 4193.846, 4088.718, 4113.846, 4125.641, 0, 0, []
1628604602.4399, 31, 0, 4188.205, 4177.436, 4102.564, 4128.718, 4130.256, 0, 0, []
1628604602.4478, 32, 0, 4187.692, 4183.59, 4076.923, 4116.41, 4118.462, 0, 0, []
1628604602.4556, 33, 0, 4181.026, 4196.923, 4082.051, 4110.769, 4114.872, 0, 0, []
1628604602.4635, 34, 0, 4185.641, 4187.179, 4087.692, 4122.051, 4130.769, 0, 0, []
1628604602.4713, 35, 0, 4198.462, 4178.974, 4101.026, 4126.667, 4142.051, 0, 0, []
1628604602.4791, 36, 0, 4190.256, 4182.051, 4093.846, 4109.744, 4130.769, 0, 0, []
1628604602.4869, 37, 0, 4171.282, 4190.769, 4067.692, 4107.692, 4115.897, 0, 0, []
1628604602.4948, 38, 0, 4177.436, 4193.333, 4084.103, 4125.641, 4123.59, 0, 0, []
1628604602.5026, 39, 0, 4193.846, 4187.179, 4087.692, 4124.615, 4141.026, 0, 0, []
1628604602.5106, 40, 0, 4197.949, 4187.179, 4083.59, 4118.974, 4149.744, 0, 0, []
1628604602.5184, 41, 0, 4202.051, 4200, 4090.769, 4136.41, 4153.846, 0, 0, []
1628604602.5263, 42, 0, 4206.667, 4211.795, 4092.821, 4143.077, 4153.333, 0, 0, []
1628604602.5341, 43, 0, 4200, 4199.487, 4096.923, 4120.513, 4143.59, 0, 0, []
1628604602.5421, 44, 0, 4195.385, 4176.41, 4083.077, 4108.205, 4140, 0, 0, []
1628604602.55, 45, 0, 4210.769, 4189.744, 4097.949, 4129.231, 4158.462, 0, 0, []
1628604602.5579, 46, 0, 4240.513, 4225.641, 4124.615, 4153.333, 4190.256, 0, 0, []
1628604602.5658, 47, 0, 4243.077, 4207.692, 4105.128, 4133.333, 4192.821, 0, 0, []
1628604602.5738, 48, 0, 4212.821, 4157.436, 4088.205, 4091.282, 4160, 0, 0, []
1628604602.5817, 49, 0, 4211.795, 4181.026, 4091.795, 4103.077, 4159.487, 0, 0, []
1628604602.5895, 50, 0, 4250.256, 4237.949, 4120, 4152.821, 4201.026, 0, 0, []
1628604602.5974, 51, 0, 4259.487, 4220, 4128.718, 4154.359, 4207.692, 0, 0, []
1628604602.6053, 52, 0, 4222.051, 4188.718, 4095.385, 4120, 4165.641, 0, 0, []
1628604602.6132, 53, 0, 4196.923, 4197.436, 4093.333, 4116.923, 4148.205, 0, 0, []
1628604602.6211, 54, 0, 4205.641, 4191.795, 4100.513, 4130.256, 4170.256, 0, 0, []
1628604602.629, 55, 0, 4197.949, 4168.205, 4102.051, 4123.59, 4174.872, 0, 0, []
1628604602.6368, 56, 0, 4182.051, 4159.487, 4111.282, 4120, 4163.077, 0, 0, []
1628604602.6447, 57, 0, 4181.026, 4160, 4094.359, 4120, 4162.051, 0, 0, []
1628604602.6527, 58, 0, 4167.179, 4154.359, 4078.974, 4095.385, 4144.615, 0, 0, []
1628604602.6606, 59, 0, 4166.154, 4161.026, 4076.923, 4096.923, 4140, 0, 0, []
1628604602.6686, 60, 0, 4210.256, 4186.154, 4108.205, 4144.615, 4184.615, 0, 0, []
1628604602.6765, 61, 0, 4216.923, 4202.051, 4125.128, 4154.359, 4192.308, 0, 0, []
1628604602.6844, 62, 0, 4166.154, 4165.128, 4071.795, 4113.846, 4136.41, 0, 0, []
1628604602.6924, 63, 0, 4163.077, 4127.179, 4068.718, 4110.769, 4130.256, 0, 0, []
1628604602.7003, 64, 0, 4204.103, 4163.077, 4103.077, 4140.513, 4175.897, 450, 0, []
1628604602.7083, 65, 0, 4201.026, 4181.026, 4098.462, 4136.41, 4174.359, 450, 0, []
1628604602.7161, 66, 0, 4182.564, 4147.179, 4097.949, 4120.513, 4152.308, 16187, 0, []
1628604602.7241, 67, 0, 4186.667, 4154.359, 4087.179, 4115.897, 4152.821, 450, 0, []
1628604602.732, 68, 0, 4191.282, 4184.103, 4092.821, 4112.821, 4155.385, 16126, 0, []
1628604602.74, 69, 0, 4181.026, 4171.282, 4105.641, 4118.462, 4152.308, 450, 0, []
1628604602.7479, 70, 0, 4162.051, 4133.333, 4097.436, 4119.487, 4136.41, 279, 0, []
1628604602.7558, 71, 0, 4169.744, 4136.923, 4104.615, 4106.667, 4128.205, 450, 0, []
1628604602.7637, 72, 0, 4191.795, 4166.667, 4094.359, 4095.897, 4135.385, 450, 0, []
1628604602.7717, 73, 0, 4196.923, 4177.436, 4090.769, 4098.462, 4138.462, 16161, 0, []
1628604602.7796, 74, 0, 4196.41, 4175.385, 4100.513, 4105.641, 4136.41, 450, 0, []
1628604602.7876, 75, 0, 4207.179, 4179.487, 4100, 4117.949, 4143.59, 16201, 0, []
1628604602.7954, 76, 0, 4206.154, 4175.897, 4106.667, 4128.718, 4146.667, 450, 0, []
1628604602.8034, 77, 0, 4178.974, 4159.487, 4088.205, 4108.718, 4128.205, 450, 0, []
1628604602.8114, 78, 0, 4154.359, 4154.872, 4085.128, 4071.282, 4103.077, 450, 0, []
1628604602.8193, 79, 0, 4156.41, 4157.949, 4098.462, 4063.077, 4097.949, 16201, 0, []
1628604602.8273, 80, 0, 4172.821, 4151.795, 4097.436, 4083.59, 4114.359, 450, 0, []
1628604602.8351, 81, 0, 4170.769, 4145.128, 4109.231, 4086.667, 4118.462, 450, 0, []
1628604602.8431, 82, 0, 4170.769, 4165.128, 4100.513, 4072.308, 4114.872, 450, 0, []
1628604602.851, 83, 0, 4176.923, 4182.051, 4092.308, 4076.41, 4120, 16201, 0, []
1628604602.859, 84, 0, 4151.282, 4144.103, 4081.026, 4071.795, 4102.564, 450, 0, []
1628604602.8669, 85, 0, 4134.359, 4129.744, 4061.538, 4057.436, 4085.641, 450, 0, []
1628604602.8748, 86, 0, 4161.026, 4166.667, 4091.795, 4080, 4111.795, 450, 0, []
1628604602.8827, 87, 0, 4180.513, 4168.205, 4096.923, 4101.538, 4130.256, 16201, 0, []
1628604602.8907, 88, 0, 4164.615, 4147.692, 4073.846, 4078.462, 4108.718, 450, 0, []
1628604602.8986, 89, 0, 4153.846, 4149.231, 4082.564, 4065.128, 4097.949, 450, 0, []
1628604602.9066, 90, 0, 4155.897, 4139.487, 4085.128, 4077.949, 4104.103, 450, 0, []
1628604602.9144, 91, 0, 4161.538, 4139.487, 4094.872, 4086.667, 4108.718, 16201, 0, []
1628604602.9224, 92, 0, 4180.513, 4174.359, 4100, 4097.436, 4119.487, 450, 0, []
1628604602.9304, 93, 0, 4190.769, 4184.615, 4104.103, 4106.154, 4132.308, 450, 0, []
1628604602.9383, 94, 0, 4180, 4154.359, 4114.359, 4104.615, 4124.615, 450, 0, []
1628604602.9463, 95, 0, 4168.205, 4140, 4099.487, 4097.436, 4105.641, 16201, 0, []
1628604602.9542, 96, 0, 4162.564, 4155.897, 4103.59, 4102.564, 4108.718, 450, 0, []
1628604602.9621, 97, 0, 4154.359, 4156.923, 4098.462, 4100, 4123.59, 450, 0, []
1628604602.97, 98, 0, 4160.513, 4140.513, 4083.077, 4070.256, 4128.205, 450, 0, []
1628604602.9779, 99, 0, 4169.744, 4150.769, 4085.128, 4042.051, 4123.077, 16201, 0, []
1628604602.9859, 100, 0, 4146.667, 4160, 4058.462, 4027.179, 4103.59, 450, 0, []
1628604602.9938, 101, 0, 4129.744, 4151.795, 4063.59, 4028.718, 4097.436, 450, 0, []
1628604603.0017, 102, 0, 4152.308, 4155.385, 4089.744, 4041.026, 4122.051, 450, 0, []
1628604603.0096, 103, 0, 4185.641, 4161.538, 4096.923, 4066.667, 4154.872, 16201, 0, []
1628604603.0175, 104, 0, 4199.487, 4171.282, 4112.308, 4085.128, 4168.205, 450, 0, []
1628604603.0255, 105, 0, 4195.897, 4187.179, 4108.205, 4087.692, 4166.154, 450, 0, []
1628604603.0333, 106, 0, 4193.846, 4177.949, 4107.179, 4093.846, 4165.128, 450, 0, []
1628604603.0413, 107, 0, 4201.026, 4161.538, 4105.641, 4100.513, 4168.205, 16201, 0, []
1628604603.0492, 108, 0, 4209.231, 4171.795, 4104.103, 4107.179, 4175.385, 450, 0, []
1628604603.0572, 109, 0, 4203.077, 4178.462, 4117.949, 4105.641, 4170.769, 450, 0, []
1628604603.0652, 110, 0, 4197.436, 4170.769, 4099.487, 4091.282, 4159.487, 450, 0, []
1628604603.073, 111, 0, 4195.385, 4174.359, 4094.359, 4078.974, 4155.897, 16201, 0, []
1628604603.081, 112, 0, 4186.154, 4182.051, 4098.974, 4073.333, 4152.308, 450, 0, []
1628604603.0889, 113, 0, 4183.077, 4174.359, 4082.051, 4072.308, 4150.769, 450, 0, []
1628604603.0969, 114, 0, 4187.179, 4152.821, 4091.795, 4071.795, 4152.821, 450, 0, []
1628604603.1048, 115, 0, 4201.026, 4155.385, 4095.385, 4075.385, 4167.179, 16201, 0, []
1628604603.1127, 116, 0, 4231.282, 4188.205, 4104.615, 4085.641, 4196.923, 450, 0, []
1628604603.1206, 117, 0, 4270.256, 4211.795, 4131.282, 4106.154, 4235.897, 450, 0, []
1628604603.1286, 118, 0, 4302.051, 4203.077, 4125.641, 4118.462, 4270.256, 450, 0, []
1628604603.1365, 119, 0, 4340.513, 4182.051, 4119.487, 4111.282, 4308.205, 16201, 0, []
1628604603.1445, 120, 0, 4400.513, 4183.59, 4108.718, 4108.718, 4368.205, 450, 0, []
1628604603.1523, 121, 0, 4452.821, 4191.795, 4106.667, 4113.333, 4424.615, 450, 0, []
1628604603.1603, 122, 0, 4476.41, 4183.077, 4120, 4105.641, 4446.667, 450, 0, []
1628604603.1682, 123, 0, 4472.308, 4182.051, 4103.59, 4083.59, 4430.256, 16201, 0, []
1628604603.1762, 124, 0, 4457.436, 4196.41, 4103.59, 4078.462, 4406.154, 450, 0, []
1628604603.1841, 125, 0, 4453.333, 4207.179, 4115.897, 4097.949, 4400.513, 450, 0, []
1628604603.1921, 126, 0, 4448.718, 4200.513, 4124.615, 4112.821, 4389.744, 450, 0, []
1628604603.1999, 127, 0, 4427.179, 4183.59, 4130.769, 4109.744, 4358.974, 16201, 0, []
1628604603.2079, 128, 0, 4396.41, 4187.179, 4114.872, 4102.051, 4334.359, 450, 0, []
1628604603.2158, 0, 0, 4366.667, 4207.692, 4123.59, 4108.205, 4321.538, 450, 0, []
1628604603.2238, 1, 0, 4337.949, 4194.872, 4125.641, 4116.41, 4296.41, 450, 0, []
1628604603.2317, 2, 0, 4313.333, 4169.231, 4107.692, 4102.051, 4263.59, 16184, 0, []
1628604603.2396, 3, 0, 4294.872, 4183.59, 4105.641, 4076.41, 4245.128, 450, 0, []
1628604603.2475, 4, 0, 4287.692, 4208.205, 4101.026, 4077.436, 4244.615, 16127, 0, []
1628604603.2555, 5, 0, 4296.41, 4214.872, 4126.154, 4100.513, 4250.769, 450, 0, []
1628604603.2635, 6, 0, 4289.744, 4200.513, 4139.487, 4098.462, 4243.59, 277, 0, []
1628604603.2714, 7, 0, 4262.564, 4172.821, 4116.41, 4077.949, 4223.59, 450, 0, []
1628604603.2793, 8, 0, 4255.385, 4179.487, 4117.949, 4079.487, 4214.872, 450, 0, []
1628604603.2872, 9, 0, 4267.692, 4198.462, 4125.128, 4096.41, 4222.564, 16161, 0, []
1628604603.2952, 10, 0, 4260, 4172.308, 4120, 4095.385, 4218.462, 450, 0, []
1628604603.3031, 11, 0, 4237.436, 4161.538, 4093.333, 4067.692, 4196.923, 16200, 0, []
1628604603.3111, 12, 0, 4244.103, 4202.564, 4090.256, 4060, 4194.872, 450, 0, []
1628604603.319, 13, 1, 4241.595, 4200.228, 4093.618, 4061.368, 4192.536, 450, 0, []
1628604603.3269, 14, 1, 4239.088, 4197.892, 4096.98, 4062.735, 4190.199, 450, 0, []
1628604603.3348, 15, 1, 4236.581, 4195.556, 4100.342, 4064.103, 4187.863, 16201, 0, []
1628604603.3427, 16, 1, 4234.074, 4193.219, 4103.704, 4065.47, 4185.527, 250, 0, []
1628604603.3506, 17, 1, 4231.567, 4190.883, 4107.066, 4066.838, 4183.191, 200, 0, []
1628604603.3584, 18, 1, 4229.06, 4188.547, 4110.427, 4068.205, 4180.855, 150, 0, []
1628604603.3663, 19, 1, 4226.553, 4186.211, 4113.789, 4069.573, 4178.519, 100, 0, []
1628604603.3742, 20, 1, 4224.046, 4183.875, 4117.151, 4070.94, 4176.182, 50, 0, []
1628604603.3821, 21, 0, 4221.538, 4181.538, 4120.513, 4072.308, 4173.846, 0, 0, []
1628604603.3899, 22, 0, 4223.077, 4194.872, 4102.564, 4085.128, 4171.795, 0, 0, []
1628604603.3977, 23, 0, 4210.769, 4182.051, 4102.564, 4076.41, 4161.538, 0, 0, []
1628604603.4055, 24, 0, 4204.103, 4169.744, 4105.128, 4065.128, 4163.077, 0, 0, []
1628604603.4135, 25, 0, 4205.128, 4174.359, 4098.462, 4073.333, 4170.256, 0, 0, []
1628604603.4214, 26, 0, 4188.718, 4163.077, 4084.615, 4066.154, 4149.744, 0, 0, []
1628604603.4293, 27, 0, 4168.205, 4148.718, 4070.256, 4051.795, 4130.256, 0, 0, []
1628604603.437, 28, 0, 4170.256, 4171.282, 4101.538, 4062.564, 4141.026, 0, 0, []
1628604603.445, 29, 0, 4184.103, 4191.795, 4107.179, 4074.359, 4151.795, 0, 0, []
1628604603.4529, 30, 0, 4186.667, 4174.359, 4094.359, 4076.923, 4147.179, 0, 0, []
1628604603.4608, 31, 0, 4177.436, 4173.333, 4111.795, 4081.026, 4140.513, 0, 0, []
1628604603.4687, 32, 0, 4165.641, 4187.692, 4095.385, 4072.308, 4131.282, 0, 0, []
1628604603.4766, 33, 0, 4167.179, 4174.359, 4083.59, 4067.692, 4133.333, 0, 0, []
1628604603.4845, 34, 0, 4172.821, 4163.59, 4084.615, 4073.846, 4139.487, 0, 0, []
1628604603.4925, 35, 0, 4172.821, 4163.59, 4084.103, 4067.179, 4136.41, 0, 0, []
1628604603.5004, 36, 0, 4192.308, 4172.308, 4101.538, 4065.641, 4147.179, 0, 0, []
1628604603.5084, 37, 0, 4204.615, 4183.077, 4100.513, 4067.179, 4159.487, 0, 0, []
1628604603.5162, 38, 0, 4189.744, 4168.718, 4100.513, 4062.564, 4155.385, 0, 0, []
1628604603.5242, 39, 0, 4190.769, 4162.564, 4091.282, 4074.872, 4156.41, 0, 0, []
1628604603.5322, 40, 0, 4203.59, 4188.718, 4076.923, 4082.051, 4161.538, 0, 0, []
1628604603.5401, 41, 0, 4194.872, 4187.692, 4085.128, 4066.667, 4156.41, 0, 0, []
1628604603.548, 42, 0, 4183.077, 4163.077, 4074.359, 4064.103, 4151.795, 0, 0, []
1628604603.5559, 43, 0, 4185.641, 4167.179, 4078.462, 4074.872, 4149.744, 0, 0, []
1628604603.5638, 44, 0, 4186.667, 4173.846, 4087.179, 4070.769, 4148.718, 0, 0, []
1628604603.5718, 45, 0, 4182.564, 4156.41, 4069.744, 4061.538, 4149.744, 0, 0, []
1628604603.5798, 46, 0, 4188.205, 4161.538, 4077.436, 4066.154, 4151.282, 0, 0, []
1628604603.5877, 47, 0, 4206.667, 4201.026, 4092.308, 4084.103, 4165.128, 0, 0, []
1628604603.5956, 48, 0, 4209.744, 4197.949, 4094.359, 4087.692, 4174.359, 0, 0, []
1628604603.6035, 49, 0, 4191.282, 4162.051, 4075.897, 4064.103, 4160.513, 0, 0, []
1628604603.6114, 50, 0, 4189.744, 4177.436, 4067.692, 4062.051, 4160, 0, 0, []
1628604603.6193, 51, 0, 4190.256, 4183.59, 4093.333, 4069.231, 4164.103, 0, 0, []
1628604603.6273, 52, 0, 4170.769, 4152.821, 4077.949, 4052.821, 4143.077, 0, 0, []
1628604603.6352, 53, 0, 4164.103, 4159.487, 4061.538, 4052.308, 4128.205, 0, 0, []
1628604603.6431, 54, 0, 4162.564, 4171.795, 4063.077, 4055.897, 4128.205, 0, 0, []
1628604603.651, 55, 0, 4152.308, 4144.103, 4051.795, 4044.615, 4125.128, 0, 0, []
1628604603.659, 56, 0, 4155.897, 4150.256, 4074.872, 4057.436, 4129.231, 0, 0, []
1628604603.6669, 57, 0, 4169.231, 4185.128, 4078.462, 4077.949, 4136.923, 0, 0, []
1628604603.6748, 58, 0, 4176.41, 4179.487, 4072.821, 4074.359, 4140.513, 0, 0, []
1628604603.6827, 59, 0, 4170.769, 4165.641, 4075.897, 4060, 4135.385, 0, 0, []
1628604603.6907, 60, 0, 4158.974, 4172.308, 4057.436, 4047.692, 4121.026, 0, 0, []
1628604603.6986, 61, 0, 4166.154, 4171.282, 4078.974, 4053.333, 4130.769, 0, 0, []
1628604603.7066, 62, 0, 4191.795, 4167.692, 4101.026, 4073.846, 4159.487, 0, 0, []
1628604603.7144, 63, 0, 4195.897, 4175.897, 4090.769, 4074.359, 4163.59, 0, 0, []
1628604603.7224, 64, 0, 4175.385, 4171.795, 4083.077, 4061.538, 4146.667, 450, 0, []
1628604603.7303, 65, 0, 4171.795, 4165.128, 4075.897, 4059.487, 4148.205, 450, 0, []
1628604603.7383, 66, 0, 4189.744, 4190.256, 4096.41, 4068.718, 4166.667, 16184, 0, []
1628604603.7463, 67, 0, 4192.308, 4195.897, 4091.795, 4064.103, 4160, 450, 0, []
1628604603.7541, 68, 0, 4165.128, 4152.821, 4054.872, 4034.359, 4122.564, 16127, 0, []
1628604603.762, 69, 0, 4163.077, 4141.026, 4056.41, 4040.513, 4120.513, 450, 0, []
1628604603.77, 70, 0, 4197.949, 4177.949, 4077.436, 4082.564, 4161.538, 278, 0, []
1628604603.778, 71, 0, 4205.128, 4197.949, 4100, 4082.051, 4173.333, 450, 0, []
1628604603.7859, 72, 0, 4183.59, 4181.538, 4086.667, 4050.769, 4148.718, 450, 0, []
1628604603.7938, 73, 0, 4176.41, 4158.974, 4060, 4042.051, 4135.897, 16161, 0, []
1628604603.8017, 74, 0, 4184.103, 4173.333, 4071.282, 4051.282, 4144.615, 450, 0, []
1628604603.8097, 75, 0, 4188.205, 4197.436, 4071.795, 4061.538, 4155.385, 16200, 0, []
1628604603.8176, 76, 0, 4187.179, 4178.462, 4081.026, 4066.154, 4155.897, 450, 0, []
1628604603.8256, 77, 0, 4185.641, 4149.744, 4083.077, 4058.974, 4151.282, 450, 0, []
1628604603.8334, 78, 0, 4183.59, 4161.538, 4070.769, 4055.897, 4150.256, 450, 0, []
1628604603.8414, 79, 0, 4185.128, 4196.923, 4092.308, 4071.282, 4153.333, 16200, 0, []
1628604603.8493, 80, 0, 4189.744, 4210.769, 4096.923, 4073.846, 4158.974, 450, 0, []
1628604603.8573, 81, 0, 4190.256, 4176.923, 4093.333, 4063.59, 4156.923, 450, 0, []
1628604603.8653, 82, 0, 4173.846, 4146.154, 4087.692, 4065.641, 4137.949, 450, 0, []
1628604603.8731, 83, 0, 4170.769, 4175.385, 4075.385, 4074.359, 4135.385, 16200, 0, []
1628604603.8811, 84, 0, 4192.821, 4190.769, 4095.897, 4077.436, 4158.974, 450, 0, []
1628604603.889, 85, 0, 4195.897, 4158.462, 4089.744, 4070.769, 4163.59, 450, 0, []
1628604603.897, 86, 0, 4180, 4169.231, 4071.795, 4068.718, 4144.615, 450, 0, []
1628604603.9049, 87, 0, 4175.385, 4196.41, 4066.154, 4064.615, 4139.487, 16200, 0, []
1628604603.9128, 88, 0, 4180.513, 4166.154, 4060, 4054.359, 4144.615, 450, 0, []
1628604603.9207, 89, 0, 4200, 4158.462, 4089.231, 4070.256, 4162.564, 450, 0, []
1628604603.9287, 90, 0, 4229.231, 4198.974, 4097.949, 4099.487, 4194.872, 450, 0, []
1628604603.9366, 91, 0, 4235.897, 4195.385, 4082.564, 4091.795, 4205.128, 16200, 0, []
1628604603.9446, 92, 0, 4235.385, 4151.795, 4071.282, 4060, 4200.513, 450, 0, []
1628604603.9524, 93, 0, 4280, 4148.718, 4067.692, 4063.077, 4244.103, 450, 0, []
1628604603.9604, 94, 0, 4349.231, 4177.949, 4103.077, 4091.795, 4322.051, 450, 0, []
1628604603.9683, 95, 0, 4387.692, 4181.538, 4102.564, 4101.538, 4361.026, 16200, 0, []
1628604603.9763, 96, 0, 4390.256, 4167.179, 4067.179, 4089.231, 4360, 450, 0, []
1628604603.9842, 97, 0, 4384.103, 4173.846, 4066.667, 4075.897, 4354.359, 450, 0, []
1628604603.9921, 98, 0, 4373.333, 4185.128, 4072.308, 4077.949, 4346.667, 450, 0, []
1628604604, 99, 0, 4346.667, 4175.385, 4075.385, 4080.513, 4323.077, 16200, 0, []
1628604604.008, 100, 0, 4327.179, 4162.564, 4067.179, 4077.949, 4302.051, 450, 0, []
1628604604.0159, 101, 0, 4333.846, 4172.308, 4078.462, 4099.487, 4303.077, 450, 0, []
1628604604.0239, 102, 0, 4320.513, 4190.769, 4092.308, 4111.282, 4289.744, 450, 0, []
1628604604.0318, 103, 0, 4272.308, 4188.205, 4059.487, 4085.641, 4247.692, 16200, 0, []
1628604604.0397, 104, 0, 4244.103, 4167.179, 4062.564, 4077.436, 4220.513, 450, 0, []
1628604604.0477, 105, 0, 4243.077, 4165.128, 4075.897, 4089.744, 4214.872, 450, 0, []
1628604604.0556, 106, 0, 4235.897, 4174.359, 4064.615, 4089.744, 4204.103, 450, 0, []
1628604604.0636, 107, 0, 4228.718, 4174.359, 4089.744, 4100.513, 4194.359, 16200, 0, []
1628604604.0714, 108, 0, 4224.103, 4169.744, 4092.308, 4111.795, 4190.769, 450, 0, []
1628604604.0794, 109, 0, 4212.821, 4167.179, 4074.872, 4096.41, 4183.077, 450, 0, []
1628604604.0873, 110, 0, 4213.846, 4178.462, 4076.41, 4095.897, 4183.59, 450, 0, []
1628604604.0953, 111, 0, 4216.923, 4181.026, 4090.256, 4107.692, 4186.154, 16200, 0, []
1628604604.1032, 112, 0, 4197.436, 4157.949, 4101.538, 4083.59, 4169.231, 450, 0, []
1628604604.1111, 113, 0, 4182.051, 4156.41, 4076.923, 4059.487, 4154.359, 450, 0, []
1628604604.119, 114, 0, 4176.923, 4177.436, 4076.923, 4074.872, 4151.282, 450, 0, []
1628604604.127, 115, 0, 4176.41, 4169.231, 4094.359, 4095.897, 4153.846, 16200, 0, []
1628604604.1349, 116, 0, 4184.103, 4160.513, 4084.103, 4093.846, 4156.41, 450, 0, []
1628604604.1429, 117, 0, 4168.205, 4177.436, 4070.769, 4080.513, 4137.436, 450, 0, []
1628604604.1509, 118, 0, 4146.667, 4176.41, 4052.821, 4079.487, 4116.923, 450, 0, []
1628604604.1587, 119, 0, 4165.128, 4161.026, 4077.436, 4097.436, 4134.359, 16200, 0, []
1628604604.1666, 120, 0, 4176.41, 4171.795, 4092.821, 4095.385, 4144.615, 450, 0, []
1628604604.1746, 121, 0, 4154.359, 4185.641, 4064.103, 4073.333, 4121.538, 450, 0, []
1628604604.1825, 122, 0, 4167.179, 4179.487, 4090.256, 4095.897, 4131.795, 450, 0, []
1628604604.1905, 123, 1, 4158.917, 4178.234, 4085.185, 4092.308, 4123.305, 2198.222, 0, []
1628604604.1983, 124, 1, 4150.655, 4176.98, 4080.114, 4088.718, 4114.815, 3946.444, 0, []
1628604604.2062, 125, 1, 4142.393, 4175.726, 4075.043, 4085.128, 4106.325, 5694.667, 0, []
1628604604.2141, 126, 1, 4134.131, 4174.473, 4069.972, 4081.538, 4097.835, 7442.889, 0, []
1628604604.222, 127, 1, 4125.869, 4173.219, 4064.9, 4077.949, 4089.345, 9191.111, 0, []
1628604604.2299, 128, 1, 4117.607, 4171.966, 4059.829, 4074.359, 4080.855, 450, 0, []
1628604604.2377, 0, 1, 4109.345, 4170.712, 4054.758, 4070.769, 4072.365, 450, 0, []
1628604604.2456, 1, 1, 4101.083, 4169.459, 4049.687, 4067.179, 4063.875, 450, 0, []
1628604604.2535, 2, 0, 4092.821, 4168.205, 4044.615, 4063.59, 4055.385, 16184, 0, []
1628604604.2613, 3, 0, 4086.667, 4141.538, 4055.897, 4074.359, 4052.821, 450, 0, []
1628604604.2692, 4, 0, 4094.359, 4133.333, 4058.974, 4087.692, 4058.462, 16129, 0, []
1628604604.2769, 5, 0, 4107.179, 4165.128, 4054.872, 4098.462, 4072.821, 450, 0, []
1628604604.2848, 6, 0, 4132.821, 4198.462, 4087.692, 4110.256, 4091.795, 279, 0, []
1628604604.2927, 7, 0, 4147.179, 4176.923, 4085.128, 4097.949, 4094.872, 450, 0, []
1628604604.3005, 8, 0, 4137.436, 4156.41, 4069.744, 4073.846, 4088.718, 450, 0, []
1628604604.3084, 9, 0, 4131.795, 4183.077, 4074.872, 4078.462, 4088.205, 16161, 0, []
1628604604.3161, 10, 0, 4133.333, 4190.769, 4083.59, 4095.385, 4088.718, 450, 0, []
1628604604.3239, 11, 0, 4122.564, 4176.923, 4088.205, 4090.256, 4082.051, 16200, 0, []
1628604604.3317, 12, 0, 4114.872, 4185.128, 4075.385, 4084.103, 4078.462, 450, 0, []
1628604604.3396, 13, 0, 4127.692, 4182.051, 4086.154, 4100, 4087.179, 450, 0, []
1628604604.3474, 14, 0, 4133.846, 4159.487, 4079.487, 4109.231, 4094.359, 450, 0, []
1628604604.3552, 15, 0, 4123.59, 4162.564, 4052.821, 4105.128, 4092.821, 16200, 0, []
1628604604.3631, 16, 0, 4123.077, 4182.564, 4068.205, 4107.692, 4090.769, 0, 0, []
1628604604.3709, 17, 0, 4137.949, 4188.718, 4072.821, 4116.41, 4101.026, 0, 0, []
1628604604.3787, 18, 0, 4145.128, 4187.692, 4069.744, 4116.41, 4110.769, 0, 0, []
1628604604.3866, 19, 0, 4141.026, 4185.641, 4072.308, 4104.103, 4101.538, 0, 0, []
1628604604.3943, 20, 0, 4139.487, 4190.256, 4069.744, 4101.026, 4097.436, 0, 0, []
1628604604.4022, 21, 0, 4138.974, 4197.949, 4086.667, 4110.256, 4101.538, 0, 0, []
1628604604.41, 22, 0, 4135.385, 4204.615, 4085.641, 4107.179, 4097.436, 0, 0, []
1628604604.4179, 23, 0, 4128.205, 4216.923, 4083.59, 4094.359, 4081.026, 0, 0, []
1628604604.4257, 24, 0, 4109.231, 4206.667, 4074.359, 4075.385, 4058.462, 0, 0, []
1628604604.4335, 25, 0, 4094.872, 4180, 4047.692, 4054.359, 4045.641, 0, 0, []
1628604604.4413, 26, 0, 4105.128, 4187.692, 4067.179, 4062.051, 4057.436, 0, 0, []
1628604604.4492, 27, 0, 4122.051, 4205.641, 4081.026, 4086.667, 4077.436, 0, 0, []
1628604604.457, 28, 0, 4134.872, 4192.821, 4081.026, 4094.359, 4086.154, 0, 0, []
1628604604.4649, 29, 0, 4145.128, 4177.436, 4082.051, 4097.436, 4096.41, 0, 0, []
1628604604.4726, 30, 0, 4154.359, 4187.179, 4071.795, 4110.256, 4114.359, 0, 0, []
1628604604.4805, 31, 0, 4146.154, 4191.795, 4081.026, 4102.564, 4111.282, 0, 0, []
1628604604.4883, 32, 0, 4116.41, 4166.154, 4052.308, 4068.205, 4076.923, 0, 0, []
1628604604.4962, 33, 0, 4110.769, 4157.436, 4032.821, 4064.615, 4063.077, 0, 0, []
1628604604.504, 34, 0, 4136.923, 4195.385, 4064.103, 4095.897, 4089.231, 0, 0, []
1628604604.5118, 35, 0, 4135.385, 4212.308, 4058.462, 4096.923, 4095.897, 0, 0, []
1628604604.5196, 36, 0, 4111.795, 4175.385, 4056.923, 4085.128, 4074.359, 0, 0, []
1628604604.5275, 37, 0, 4130.256, 4162.051, 4077.949, 4106.667, 4084.103, 0, 0, []
1628604604.5353, 38, 0, 4166.667, 4183.59, 4093.333, 4127.692, 4117.949, 0, 0, []
1628604604.5432, 39, 0, 4177.436, 4197.949, 4105.641, 4125.641, 4128.718, 0, 0, []
1628604604.5509, 40, 0, 4172.308, 4209.231, 4094.359, 4122.564, 4120.513, 0, 0, []
1628604604.5587, 41, 0, 4148.205, 4206.154, 4084.103, 4105.641, 4105.128, 0, 0, []
1628604604.5667, 42, 0, 4117.949, 4180.513, 4052.308, 4067.692, 4078.974, 0, 0, []
1628604604.5746, 43, 0, 4120.513, 4171.282, 4031.795, 4055.385, 4062.051, 0, 0, []
1628604604.5826, 44, 0, 4150.769, 4197.436, 4068.205, 4081.026, 4089.231, 0, 0, []
1628604604.5905, 45, 0, 4160, 4216.41, 4076.923, 4094.872, 4118.974, 0, 0, []
1628604604.5984, 46, 0, 4147.692, 4204.103, 4071.282, 4089.744, 4106.667, 0, 0, []
1628604604.6064, 47, 0, 4156.41, 4186.154, 4072.821, 4096.923, 4095.897, 0, 0, []
1628604604.6143, 48, 0, 4172.308, 4196.923, 4068.718, 4110.769, 4110.256, 0, 0, []
1628604604.6223, 49, 0, 4156.41, 4216.41, 4070.256, 4102.051, 4101.538, 0, 0, []
1628604604.6302, 50, 0, 4130.769, 4208.718, 4048.205, 4078.974, 4071.282, 0, 0, []
1628604604.6381, 51, 0, 4127.179, 4197.436, 4053.333, 4075.385, 4067.179, 0, 0, []
1628604604.646, 52, 0, 4135.385, 4207.692, 4077.436, 4088.205, 4086.154, 0, 0, []
1628604604.654, 53, 0, 4142.564, 4200, 4084.615, 4091.795, 4095.897, 0, 0, []
1628604604.662, 54, 0, 4151.282, 4169.744, 4103.077, 4092.821, 4103.59, 0, 0, []
1628604604.6698, 55, 0, 4170.256, 4174.872, 4110.256, 4109.744, 4127.179, 0, 0, []
1628604604.6778, 56, 0, 4190.769, 4207.179, 4122.564, 4135.385, 4144.615, 0, 0, []
1628604604.6857, 57, 0, 4182.051, 4211.795, 4111.795, 4133.846, 4131.795, 0, 0, []
1628604604.6937, 58, 0, 4161.026, 4203.077, 4078.462, 4105.641, 4114.872, 0, 0, []
1628604604.7016, 59, 0, 4168.718, 4217.949, 4097.949, 4100, 4126.154, 0, 0, []
1628604604.7095, 60, 0, 4182.564, 4219.487, 4103.59, 4112.821, 4140, 0, 0, []
1628604604.7175, 61, 0, 4167.692, 4194.359, 4082.564, 4098.462, 4126.154, 0, 0, []
1628604604.7254, 62, 0, 4165.641, 4195.385, 4084.103, 4081.538, 4114.872, 0, 0, []
1628604604.7333, 63, 0, 4182.051, 4216.41, 4083.59, 4094.872, 4124.103, 0, 0, []
1628604604.7413, 64, 0, 4175.897, 4203.077, 4093.333, 4109.231, 4129.231, 450, 0, []
1628604604.7491, 65, 0, 4165.128, 4178.462, 4092.308, 4101.538, 4126.667, 450, 0, []
1628604604.7571, 66, 0, 4178.462, 4201.538, 4088.205, 4102.051, 4132.821, 16187, 0, []
1628604604.765, 67, 0, 4192.308, 4220.513, 4083.59, 4111.795, 4135.385, 450, 0, []
1628604604.773, 68, 0, 4194.359, 4208.718, 4064.103, 4102.051, 4132.821, 16129, 0, []
1628604604.7809, 69, 0, 4202.564, 4214.872, 4078.974, 4098.462, 4143.59, 450, 0, []
1628604604.7888, 70, 0, 4203.077, 4216.923, 4079.487, 4102.564, 4151.795, 279, 0, []
1628604604.7967, 71, 0, 4200, 4190.769, 4074.872, 4094.872, 4153.846, 450, 0, []
1628604604.8047, 72, 0, 4217.949, 4183.077, 4095.385, 4098.462, 4171.282, 450, 0, []
1628604604.8127, 73, 0, 4240.513, 4206.667, 4084.615, 4114.359, 4191.282, 16164, 0, []
1628604604.8206, 74, 0, 4250.256, 4214.359, 4079.487, 4104.103, 4202.564, 450, 0, []
1628604604.8285, 75, 0, 4264.103, 4191.795, 4076.41, 4077.436, 4222.051, 16197, 0, []
1628604604.8364, 76, 0, 4297.436, 4178.974, 4072.308, 4070.769, 4256.41, 450, 0, []
1628604604.8444, 77, 0, 4338.462, 4200.513, 4087.179, 4082.564, 4294.359, 450, 0, []
1628604604.8523, 78, 0, 4383.077, 4216.923, 4089.744, 4100.513, 4341.538, 450, 0, []
1628604604.8603, 79, 0, 4416.41, 4215.897, 4108.718, 4115.385, 4375.897, 16197, 0, []
1628604604.8681, 80, 0, 4405.641, 4217.949, 4106.667, 4111.282, 4359.487, 450, 0, []
1628604604.8761, 81, 0, 4369.231, 4197.436, 4081.538, 4096.41, 4317.436, 450, 0, []
1628604604.884, 82, 0, 4360.513, 4181.026, 4096.923, 4092.821, 4306.154, 450, 0, []
1628604604.892, 83, 0, 4370.256, 4213.333, 4106.667, 4108.718, 4320, 16197, 0, []
1628604604.8999, 84, 0, 4355.385, 4224.615, 4113.333, 4129.744, 4312.821, 450, 0, []
1628604604.9078, 85, 0, 4324.103, 4207.692, 4108.718, 4124.615, 4275.897, 450, 0, []
1628604604.9157, 86, 0, 4299.487, 4210.256, 4085.641, 4101.026, 4246.154, 450, 0, []
1628604604.9237, 87, 0, 4281.538, 4198.974, 4094.872, 4102.564, 4236.923, 16197, 0, []
1628604604.9316, 88, 0, 4282.051, 4189.744, 4101.538, 4125.641, 4238.462, 450, 0, []
1628604604.9396, 89, 0, 4278.462, 4212.308, 4105.641, 4121.026, 4225.128, 450, 0, []
1628604604.9475, 90, 0, 4248.205, 4213.846, 4102.564, 4094.872, 4195.385, 450, 0, []
1628604604.9554, 91, 0, 4237.949, 4209.744, 4089.744, 4102.051, 4187.179, 16197, 0, []
1628604604.9634, 92, 0, 4248.718, 4233.846, 4107.179, 4117.949, 4200.513, 450, 0, []
1628604604.9713, 93, 0, 4233.333, 4227.179, 4096.41, 4100, 4190.769, 450, 0, []
1628604604.9793, 94, 0, 4207.179, 4194.359, 4087.179, 4083.59, 4165.128, 450, 0, []
1628604604.9872, 95, 0, 4204.103, 4193.846, 4106.154, 4091.282, 4163.077, 16197, 0, []
1628604604.995, 96, 0, 4204.103, 4206.154, 4100.513, 4097.436, 4172.821, 450, 0, []
1628604605.003, 97, 0, 4206.667, 4212.308, 4109.231, 4105.128, 4172.308, 450, 0, []
1628604605.011, 98, 0, 4222.051, 4227.692, 4115.897, 4118.462, 4172.308, 450, 0, []
1628604605.0189, 99, 0, 4220, 4222.564, 4103.077, 4112.821, 4172.308, 16197, 0, []
1628604605.0269, 100, 0, 4197.436, 4201.538, 4085.641, 4100.513, 4165.641, 450, 0, []
1628604605.0347, 101, 0, 4191.282, 4210.256, 4068.718, 4105.128, 4160.513, 450, 0, []
1628604605.0427, 102, 0, 4192.308, 4213.333, 4085.641, 4108.718, 4149.231, 450, 0, []
1628604605.0506, 103, 0, 4174.359, 4188.718, 4083.077, 4093.333, 4125.641, 16197, 0, []
1628604605.0586, 104, 0, 4165.641, 4181.538, 4070.769, 4090.769, 4124.615, 450, 0, []
1628604605.0666, 105, 0, 4173.333, 4202.564, 4087.692, 4117.949, 4148.205, 450, 0, []
1628604605.0744, 106, 0, 4159.487, 4212.821, 4083.077, 4122.051, 4144.615, 450, 0, []
1628604605.0823, 107, 0, 4125.128, 4197.949, 4065.641, 4084.103, 4106.154, 16197, 0, []
1628604605.0903, 108, 0, 4123.59, 4175.897, 4050.256, 4075.897, 4102.564, 450, 0, []
1628604605.0982, 109, 0, 4168.718, 4188.718, 4076.923, 4136.41, 4153.333, 450, 0, []
1628604605.1062, 110, 0, 4193.846, 4232.821, 4116.923, 4182.564, 4183.077, 450, 0, []
1628604605.1141, 111, 0, 4169.231, 4242.564, 4088.205, 4152.308, 4151.795, 16197, 0, []
1628604605.122, 112, 0, 4145.641, 4216.923, 4078.462, 4127.179, 4122.051, 450, 0, []
1628604605.13, 113, 0, 4156.923, 4215.897, 4102.051, 4148.205, 4137.436, 450, 0, []
1628604605.1379, 114, 0, 4165.641, 4210.769, 4108.205, 4152.821, 4146.667, 450, 0, []
1628604605.1459, 115, 0, 4145.641, 4184.615, 4107.179, 4136.923, 4123.59, 16197, 0, []
1628604605.1537, 116, 0, 4129.231, 4195.385, 4080, 4133.846, 4111.795, 450, 0, []
1628604605.1617, 117, 0, 4133.846, 4216.923, 4084.615, 4129.744, 4117.949, 450, 0, []
1628604605.1696, 118, 0, 4139.487, 4204.615, 4106.667, 4128.718, 4117.949, 450, 0, []
1628604605.1776, 119, 0, 4126.667, 4208.205, 4097.949, 4136.41, 4105.128, 16197, 0, []
1628604605.1855, 120, 0, 4111.282, 4226.667, 4102.051, 4128.205, 4095.897, 450, 0, []
1628604605.1934, 121, 0, 4122.051, 4201.538, 4108.718, 4120.513, 4109.231, 450, 0, []
1628604605.2013, 122, 0, 4153.846, 4195.897, 4130.256, 4141.026, 4135.385, 450, 0, []
1628604605.2093, 123, 0, 4172.821, 4222.564, 4139.487, 4164.615, 4146.667, 16197, 0, []
1628604605.2172, 124, 0, 4165.641, 4214.872, 4114.872, 4177.436, 4139.487, 450, 0, []
1628604605.2252, 125, 0, 4153.333, 4202.564, 4114.359, 4186.154, 4132.821, 450, 0, []
1628604605.233, 126, 0, 4136.41, 4205.128, 4101.538, 4163.077, 4120, 450, 0, []
1628604605.241, 127, 0, 4115.897, 4203.077, 4091.282, 4125.128, 4102.564, 16197, 0, []
1628604605.249, 128, 0, 4115.385, 4218.974, 4101.538, 4125.641, 4102.564, 450, 0, []
1628604605.2569, 0, 0, 4133.846, 4242.564, 4099.487, 4138.974, 4109.231, 450, 0, []
1628604605.2648, 1, 0, 4143.59, 4232.308, 4115.385, 4119.487, 4108.718, 450, 0, []
1628604605.2727, 2, 0, 4142.051, 4215.385, 4117.949, 4100.513, 4108.205, 16187, 0, []
1628604605.2806, 3, 0, 4132.821, 4210.769, 4104.615, 4111.282, 4103.077, 450, 0, []
1628604605.2886, 4, 0, 4122.564, 4201.538, 4090.769, 4133.333, 4090.769, 16129, 0, []
1628604605.2965, 5, 0, 4129.231, 4198.462, 4079.487, 4154.872, 4101.026, 450, 0, []
1628604605.3045, 6, 0, 4127.179, 4200, 4099.487, 4164.103, 4116.41, 220, 0, []
1628604605.3124, 7, 0, 4100.513, 4195.897, 4089.744, 4138.974, 4093.846, 450, 0, []
1628604605.3203, 8, 0, 4100.513, 4195.897, 4083.59, 4116.923, 4079.487, 450, 0, []
1628604605.3283, 9, 0, 4141.538, 4201.026, 4123.077, 4135.385, 4111.795, 16164, 0, []
1628604605.3362, 10, 0, 4161.538, 4202.564, 4118.462, 4149.231, 4132.821, 450, 0, []
1628604605.3442, 11, 0, 4142.051, 4199.487, 4098.462, 4136.41, 4110.769, 16197, 0, []
1628604605.352, 12, 0, 4116.41, 4202.051, 4077.436, 4115.385, 4081.538, 450, 0, []
1628604605.36, 13, 0, 4107.179, 4202.051, 4064.615, 4103.59, 4065.641, 450, 0, []
1628604605.3679, 14, 0, 4119.487, 4203.077, 4086.154, 4110.256, 4066.667, 450, 0, []
1628604605.3759, 15, 0, 4124.615, 4215.385, 4082.564, 4121.538, 4070.769, 16197, 0, []
1628604605.3838, 16, 0, 4110.769, 4210.256, 4080, 4123.59, 4067.179, 0, 0, []
1628604605.3917, 17, 0, 4116.41, 4182.564, 4087.692, 4123.59, 4080.513, 0, 0, []
1628604605.3996, 18, 0, 4138.462, 4182.564, 4094.872, 4132.821, 4105.641, 0, 0, []
1628604605.4076, 19, 0, 4143.59, 4201.026, 4107.692, 4130.256, 4112.308, 0, 0, []
1628604605.4155, 20, 0, 4138.974, 4197.949, 4088.205, 4116.41, 4098.974, 0, 0, []
1628604605.4235, 21, 0, 4140, 4209.744, 4078.462, 4114.872, 4085.641, 0, 0, []
1628604605.4313, 22, 0, 4149.231, 4231.795, 4087.179, 4128.205, 4094.872, 0, 0, []
1628604605.4393, 23, 0, 4156.923, 4213.846, 4090.256, 4143.077, 4118.974, 0, 0, []
1628604605.4473, 24, 0, 4155.897, 4199.487, 4100, 4151.795, 4126.154, 0, 0, []
1628604605.4552, 25, 0, 4159.487, 4211.282, 4088.205, 4151.282, 4120, 0, 0, []
1628604605.4631, 26, 0, 4165.641, 4201.538, 4089.231, 4148.205, 4124.615, 0, 0, []
1628604605.471, 27, 0, 4159.487, 4188.718, 4090.256, 4149.231, 4129.744, 0, 0, []
1628604605.479, 28, 0, 4152.821, 4214.359, 4069.231, 4147.692, 4127.692, 0, 0, []
1628604605.4869, 29, 0, 4146.667, 4223.077, 4066.154, 4135.385, 4117.436, 0, 0, []
1628604605.4949, 30, 0, 4135.385, 4202.051, 4054.872, 4120.513, 4096.41, 0, 0, []
1628604605.5028, 31, 0, 4132.821, 4197.949, 4066.154, 4103.077, 4089.231, 0, 0, []
1628604605.5107, 32, 0, 4136.41, 4191.282, 4080, 4091.282, 4096.923, 0, 0, []
1628604605.5186, 33, 0, 4136.923, 4172.308, 4057.949, 4104.615, 4099.487, 0, 0, []
1628604605.5266, 34, 0, 4150.769, 4179.487, 4075.897, 4131.282, 4115.385, 0, 0, []
1628604605.5346, 35, 1, 4151.026, 4179.744, 4075.769, 4129.423, 4116.923, 0, 0, []
1628604605.5425, 36, 1, 4151.282, 4180, 4075.641, 4127.564, 4118.462, 0, 0, []
1628604605.5503, 37, 1, 4151.538, 4180.256, 4075.513, 4125.705, 4120, 0, 0, []
1628604605.5582, 38, 1, 4151.795, 4180.513, 4075.385, 4123.846, 4121.538, 0, 0, []
1628604605.5661, 39, 1, 4152.051, 4180.769, 4075.256, 4121.987, 4123.077, 0, 0, []
1628604605.574, 40, 1, 4152.308, 4181.026, 4075.128, 4120.128, 4124.615, 0, 0, []
1628604605.5819, 41, 1, 4152.564, 4181.282, 4075, 4118.269, 4126.154, 0, 0, []
1628604605.5897, 42, 0, 4152.821, 4181.538, 4074.872, 4116.41, 4127.692, 0, 0, []
1628604605.5976, 43, 0, 4146.154, 4184.103, 4066.667, 4120, 4124.615, 0, 0, []
1628604605.6054, 44, 0, 4153.846, 4203.59, 4082.564, 4119.487, 4136.923, 0, 0, []
1628604605.6132, 45, 0, 4157.436, 4209.231, 4085.641, 4123.077, 4138.462, 0, 0, []
1628604605.6211, 46, 0, 4155.385, 4200, 4078.462, 4141.026, 4131.795, 0, 0, []
1628604605.6289, 47, 0, 4167.179, 4212.308, 4095.897, 4154.872, 4140.513, 0, 0, []
1628604605.6367, 48, 0, 4175.897, 4226.667, 4084.103, 4149.744, 4148.718, 0, 0, []
1628604605.6445, 49, 0, 4166.667, 4195.897, 4071.795, 4138.974, 4136.923, 0, 0, []
1628604605.6524, 50, 0, 4166.667, 4161.538, 4070.256, 4140, 4133.333, 0, 0, []
1628604605.6603, 51, 0, 4181.026, 4189.231, 4075.385, 4151.282, 4146.667, 0, 0, []
1628604605.6681, 52, 0, 4183.59, 4227.179, 4092.308, 4166.667, 4150.769, 0, 0, []
1628604605.6759, 53, 0, 4171.282, 4210.256, 4073.333, 4167.179, 4143.59, 0, 0, []
1628604605.6838, 54, 0, 4166.667, 4193.333, 4061.026, 4151.282, 4141.026, 0, 0, []
1628604605.6916, 55, 0, 4172.308, 4205.128, 4068.205, 4146.667, 4143.59, 0, 0, []
1628604605.6995, 56, 0, 4169.744, 4187.692, 4067.692, 4146.154, 4140.513, 0, 0, []
1628604605.7072, 57, 0, 4162.051, 4165.128, 4078.462, 4137.949, 4135.897, 0, 0, []
1628604605.7151, 58, 0, 4169.744, 4194.359, 4075.385, 4142.051, 4146.154, 0, 0, []
1628604605.7229, 59, 0, 4174.872, 4218.462, 4080, 4152.821, 4151.282, 0, 0, []
1628604605.7307, 60, 0, 4161.538, 4204.615, 4083.077, 4150.256, 4140, 0, 0, []
1628604605.7387, 61, 0, 4154.359, 4196.923, 4076.41, 4146.154, 4133.333, 0, 0, []
1628604605.7465, 62, 0, 4155.897, 4198.462, 4087.179, 4140.513, 4128.718, 0, 0, []
1628604605.7544, 63, 0, 4145.641, 4193.846, 4058.974, 4116.41, 4113.846, 0, 0, []
1628604605.7623, 64, 0, 4153.333, 4204.615, 4052.308, 4113.846, 4128.205, 450, 0, []
1628604605.7701, 65, 0, 4182.564, 4214.359, 4075.897, 4139.487, 4162.051, 450, 0, []
1628604605.778, 66, 0, 4174.359, 4190.769, 4053.846, 4133.333, 4153.846, 16187, 0, []
1628604605.7857, 67, 0, 4153.333, 4181.026, 4053.846, 4116.41, 4132.821, 450, 0, []
1628604605.7937, 68, 0, 4157.949, 4199.487, 4062.051, 4123.59, 4136.923, 16129, 0, []
1628604605.8016, 69, 0, 4158.974, 4195.897, 4057.436, 4126.667, 4137.436, 450, 0, []
1628604605.8095, 70, 0, 4151.795, 4174.872, 4066.667, 4122.051, 4133.333, 248, 0, []
1628604605.8173, 71, 0, 4154.359, 4174.359, 4071.282, 4133.846, 4137.436, 450, 0, []
1628604605.8253, 72, 0, 4152.821, 4187.179, 4070.256, 4134.359, 4126.154, 450, 0, []
1628604605.8331, 73, 0, 4149.744, 4191.795, 4051.795, 4117.436, 4112.821, 16164, 0, []
1628604605.841, 74, 0, 4163.077, 4193.846, 4064.103, 4129.231, 4134.359, 450, 0, []
1628604605.8488, 75, 0, 4172.308, 4190.256, 4085.641, 4151.795, 4158.462, 16197, 0, []
1628604605.8567, 76, 0, 4168.205, 4184.615, 4055.897, 4141.026, 4147.692, 450, 0, []
1628604605.8645, 77, 0, 4163.59, 4178.974, 4052.821, 4122.051, 4136.41, 450, 0, []
1628604605.8724, 78, 0, 4161.026, 4174.872, 4060, 4128.205, 4141.538, 450, 0, []
1628604605.8804, 79, 0, 4151.795, 4171.282, 4047.692, 4130.256, 4134.872, 16197, 0, []
1628604605.8883, 80, 0, 4155.385, 4182.564, 4062.564, 4128.718, 4135.385, 450, 0, []
1628604605.8962, 81, 0, 4183.077, 4209.744, 4072.821, 4147.692, 4165.128, 450, 0, []
1628604605.9041, 82, 0, 4181.538, 4207.692, 4067.179, 4151.282, 4164.615, 450, 0, []
1628604605.912, 83, 0, 4152.308, 4172.308, 4042.564, 4122.564, 4130.769, 16197, 0, []
1628604605.92, 84, 0, 4152.308, 4152.821, 4033.846, 4100.513, 4124.103, 450, 0, []
1628604605.928, 85, 1, 4153.96, 4158.974, 4038.177, 4103.989, 4125.527, 450, 0, []
1628604605.9359, 86, 1, 4155.613, 4165.128, 4042.507, 4107.464, 4126.952, 450, 0, []
1628604605.9438, 87, 1, 4157.265, 4171.282, 4046.838, 4110.94, 4128.376, 450, 0, []
1628604605.9516, 88, 1, 4158.917, 4177.436, 4051.168, 4114.416, 4129.801, 450, 0, []
1628604605.9595, 89, 1, 4160.57, 4183.59, 4055.499, 4117.892, 4131.225, 450, 0, []
1628604605.9674, 90, 1, 4162.222, 4189.744, 4059.829, 4121.368, 4132.65, 450, 0, []
1628604605.9753, 91, 1, 4163.875, 4195.897, 4064.16, 4124.843, 4134.074, 450, 0, []
1628604605.9832, 92, 1, 4165.527, 4202.051, 4068.49, 4128.319, 4135.499, 450, 0, []
1628604605.991, 93, 0, 4167.179, 4208.205, 4072.821, 4131.795, 4136.923, 450, 0, []
1628604605.9989, 94, 0, 4162.051, 4181.538, 4049.744, 4116.41, 4133.846, 450, 0, []
1628604606.0067, 95, 0, 4176.923, 4207.179, 4073.846, 4124.615, 4158.462, 16197, 0, []
1628604606.0146, 96, 0, 4196.923, 4233.846, 4095.897, 4131.795, 4176.923, 450, 0, []
1628604606.0224, 97, 0, 4186.667, 4199.487, 4092.308, 4122.051, 4159.487, 450, 0, []
1628604606.0301, 98, 0, 4163.077, 4172.821, 4077.436, 4108.718, 4137.949, 450, 0, []
1628604606.0381, 99, 0, 4173.846, 4201.538, 4073.333, 4121.538, 4154.359, 16197, 0, []
1628604606.046, 100, 0, 4194.872, 4207.179, 4097.436, 4140, 4171.282, 450, 0, []
1628604606.0539, 101, 0, 4182.051, 4170.256, 4074.872, 4115.897, 4156.923, 450, 0, []
1628604606.0618, 102, 0, 4162.051, 4160.513, 4051.795, 4092.308, 4145.128, 450, 0, []
1628604606.0695, 103, 0, 4173.846, 4181.026, 4082.564, 4123.59, 4161.538, 16197, 0, []
1628604606.0775, 104, 0, 4202.564, 4195.385, 4108.205, 4158.974, 4188.205, 450, 0, []
1628604606.0854, 105, 0, 4213.846, 4210.769, 4118.974, 4163.59, 4201.538, 450, 0, []
1628604606.0933, 106, 0, 4200.513, 4215.897, 4094.872, 4151.795, 4191.282, 450, 0, []
1628604606.1011, 107, 0, 4186.154, 4206.667, 4081.026, 4136.41, 4173.846, 16197, 0, []
1628604606.1089, 108, 0, 4179.487, 4198.462, 4091.795, 4131.795, 4165.128, 450, 0, []
1628604606.1167, 109, 0, 4172.821, 4184.103, 4076.41, 4133.333, 4158.462, 450, 0, []
1628604606.1247, 110, 0, 4169.744, 4174.872, 4081.026, 4130.769, 4151.795, 450, 0, []
1628604606.1327, 111, 0, 4166.667, 4189.231, 4078.462, 4129.231, 4147.692, 16197, 0, []
1628604606.1407, 112, 0, 4172.821, 4201.538, 4071.282, 4137.436, 4156.41, 450, 0, []
1628604606.1485, 113, 0, 4172.821, 4181.026, 4086.667, 4128.718, 4159.487, 450, 0, []
1628604606.1564, 114, 0, 4150.256, 4158.974, 4071.795, 4108.205, 4136.923, 450, 0, []
1628604606.1644, 115, 0, 4153.333, 4173.846, 4077.949, 4127.179, 4140, 16197, 0, []
1628604606.1723, 116, 0, 4190.256, 4197.949, 4093.333, 4150.256, 4176.923, 450, 0, []
1628604606.1803, 117, 0, 4201.026, 4206.667, 4085.128, 4140, 4189.744, 450, 0, []
1628604606.1881, 118, 0, 4193.333, 4210.256, 4090.769, 4147.179, 4182.564, 450, 0, []
1628604606.1961, 119, 0, 4205.641, 4205.128, 4089.231, 4169.231, 4187.692, 16197, 0, []
1628604606.2041, 120, 0, 4205.128, 4183.077, 4095.385, 4157.436, 4192.821, 450, 0, []
1628604606.212, 121, 1, 4226.667, 4182.678, 4091.168, 4153.504, 4212.65, 450, 0, []
1628604606.2199, 122, 1, 4248.205, 4182.279, 4086.952, 4149.573, 4232.479, 450, 0, []
1628604606.2277, 123, 1, 4269.744, 4181.88, 4082.735, 4145.641, 4252.308, 450, 0, []
1628604606.2356, 124, 1, 4291.282, 4181.481, 4078.519, 4141.709, 4272.137, 450, 0, []
1628604606.2435, 125, 1, 4312.821, 4181.083, 4074.302, 4137.778, 4291.966, 450, 0, []
1628604606.2514, 126, 1, 4334.359, 4180.684, 4070.085, 4133.846, 4311.795, 450, 0, []
1628604606.2593, 127, 1, 4355.897, 4180.285, 4065.869, 4129.915, 4331.624, 450, 0, []
1628604606.2671, 128, 1, 4377.436, 4179.886, 4061.652, 4125.983, 4351.453, 450, 0, []
1628604606.275, 0, 0, 4398.974, 4179.487, 4057.436, 4122.051, 4371.282, 450, 0, []
1628604606.2828, 1, 0, 4415.897, 4198.974, 4069.231, 4132.308, 4383.077, 450, 0, []
1628604606.2906, 2, 0, 4426.154, 4226.667, 4112.308, 4148.205, 4388.718, 16187, 0, []
1628604606.2984, 3, 0, 4421.026, 4218.974, 4116.923, 4161.026, 4383.077, 450, 0, []
1628604606.3062, 4, 0, 4398.974, 4220, 4103.077, 4151.282, 4362.564, 16129, 0, []
1628604606.3141, 5, 0, 4366.154, 4226.154, 4067.179, 4122.564, 4325.128, 450, 0, []
1628604606.3219, 6, 0, 4347.692, 4203.077, 4062.564, 4114.872, 4302.051, 278, 0, []
1628604606.3297, 7, 0, 4354.872, 4192.821, 4100, 4143.077, 4313.333, 450, 0, []
1628604606.3376, 8, 0, 4358.974, 4212.308, 4104.615, 4165.641, 4324.615, 450, 0, []
1628604606.3454, 9, 0, 4337.436, 4211.795, 4103.59, 4159.487, 4309.744, 16164, 0, []
1628604606.3532, 10, 0, 4323.59, 4210.769, 4103.077, 4159.487, 4296.41, 450, 0, []
1628604606.361, 11, 0, 4325.128, 4230.256, 4114.359, 4174.359, 4295.897, 16197, 0, []
1628604606.369, 12, 0, 4314.872, 4223.077, 4127.692, 4179.487, 4286.667, 450, 0, []
1628604606.3769, 13, 0, 4298.462, 4197.436, 4112.821, 4173.333, 4268.718, 450, 0, []
1628604606.3846, 14, 0, 4292.308, 4208.718, 4120.513, 4166.154, 4261.538, 450, 0, []
1628604606.3925, 15, 0, 4290.256, 4228.205, 4123.59, 4150.769, 4263.077, 16197, 0, []
1628604606.4003, 16, 0, 4298.462, 4207.692, 4118.462, 4149.744, 4270.769, 0, 0, []
1628604606.4083, 17, 0, 4343.077, 4217.436, 4137.436, 4173.846, 4307.179, 0, 0, []
1628604606.4162, 18, 0, 4398.462, 4250.256, 4130.256, 4176.41, 4356.923, 0, 0, []
1628604606.424, 19, 1, 4400.798, 4244.729, 4126.553, 4172.991, 4355.328, 0, 0, []
1628604606.4319, 20, 1, 4403.134, 4239.202, 4122.849, 4169.573, 4353.732, 0, 0, []
1628604606.4398, 21, 1, 4405.47, 4233.675, 4119.145, 4166.154, 4352.137, 0, 0, []
1628604606.4477, 22, 1, 4407.806, 4228.148, 4115.442, 4162.735, 4350.541, 0, 0, []
1628604606.4556, 23, 1, 4410.142, 4222.621, 4111.738, 4159.316, 4348.946, 0, 0, []
1628604606.4634, 24, 1, 4412.479, 4217.094, 4108.034, 4155.897, 4347.35, 0, 0, []
1628604606.4713, 25, 1, 4414.815, 4211.567, 4104.33, 4152.479, 4345.755, 0, 0, []
1628604606.4792, 26, 1, 4417.151, 4206.04, 4100.627, 4149.06, 4344.16, 0, 0, []
1628604606.4871, 27, 0, 4419.487, 4200.513, 4096.923, 4145.641, 4342.564, 0, 0, []
1628604606.4949, 28, 0, 4407.179, 4200, 4093.333, 4155.385, 4341.026, 0, 0, []
1628604606.5027, 29, 0, 4376.41, 4190.256, 4090.256, 4120, 4314.872, 0, 0, []
1628604606.5105, 30, 0, 4358.462, 4202.564, 4091.795, 4110.769, 4295.897, 0, 0, []
1628604606.5183, 31, 0, 4350.256, 4215.385, 4084.103, 4134.359, 4288.205, 0, 0, []
1628604606.5262, 32, 0, 4333.333, 4213.846, 4103.59, 4137.436, 4268.718, 0, 0, []
1628604606.534, 33, 0, 4324.103, 4216.923, 4108.718, 4128.205, 4261.026, 0, 0, []
1628604606.5418, 34, 0, 4318.462, 4210.256, 4108.718, 4131.795, 4264.103, 0, 0, []
1628604606.5496, 35, 0, 4296.923, 4189.231, 4100, 4133.333, 4245.128, 0, 0, []
1628604606.5574, 36, 0, 4280.513, 4187.179, 4081.026, 4133.846, 4225.128, 0, 0, []
1628604606.5653, 37, 0, 4270.769, 4204.615, 4100, 4132.308, 4215.385, 0, 0, []
1628604606.5732, 38, 0, 4250.769, 4203.59, 4106.154, 4117.436, 4198.974, 0, 0, []
1628604606.581, 39, 0, 4249.231, 4185.128, 4116.923, 4123.077, 4195.385, 0, 0, []
1628604606.5887, 40, 0, 4244.615, 4167.179, 4121.026, 4130.256, 4186.154, 0, 0, []
1628604606.5966, 41, 0, 4216.41, 4170.769, 4082.564, 4106.154, 4158.462, 0, 0, []
1628604606.6044, 42, 0, 4215.385, 4192.821, 4081.026, 4093.846, 4158.462, 0, 0, []
1628604606.6123, 43, 0, 4233.846, 4195.385, 4087.179, 4108.718, 4174.359, 0, 0, []
1628604606.6201, 44, 0, 4231.282, 4202.051, 4090.256, 4123.59, 4175.385, 0, 0, []
1628604606.6278, 45, 0, 4216.923, 4216.41, 4100, 4127.179, 4165.641, 0, 0, []
1628604606.6357, 46, 0, 4201.538, 4188.718, 4076.41, 4105.641, 4145.128, 0, 0, []
1628604606.6436, 47, 0, 4191.282, 4169.744, 4081.026, 4093.846, 4135.385, 0, 0, []
1628604606.6515, 48, 0, 4197.949, 4196.41, 4100, 4124.615, 4151.795, 0, 0, []
1628604606.6593, 49, 0, 4197.436, 4198.462, 4087.692, 4136.41, 4152.308, 0, 0, []
1628604606.667, 50, 0, 4166.154, 4162.564, 4061.026, 4100, 4115.385, 0, 0, []
1628604606.6749, 51, 0, 4152.821, 4164.103, 4049.231, 4086.154, 4097.436, 0, 0, []
1628604606.6827, 52, 0, 4177.949, 4187.179, 4092.821, 4118.974, 4122.564, 0, 0, []
1628604606.6906, 53, 0, 4187.692, 4172.308, 4106.667, 4133.333, 4141.538, 0, 0, []
1628604606.6984, 54, 0, 4170.256, 4157.949, 4083.077, 4122.051, 4132.308, 0, 0, []
1628604606.7062, 55, 0, 4166.154, 4175.385, 4093.846, 4119.487, 4120.513, 0, 0, []
1628604606.714, 56, 0, 4169.231, 4177.436, 4094.872, 4115.385, 4110.256, 0, 0, []
1628604606.7219, 57, 0, 4150.256, 4160.513, 4093.846, 4102.564, 4089.231, 0, 0, []
