Timestamp, COUNTER, INTERPOLATED, AF3, T7, Pz, T8, AF4, RAW_CQ, MARKER_HARDWARE, MARKERS
1627568522.6478, 113, 0, 4232.821, 4209.231, 4130.769, 4161.538, 4199.487, 450, 0, []
1627568522.6556, 114, 0, 4251.795, 4211.795, 4152.821, 4172.308, 4212.821, 450, 0, []
1627568522.6636, 115, 0, 4244.103, 4210.769, 4145.641, 4166.667, 4209.744, 16208, 0, []
1627568522.6715, 116, 0, 4223.59, 4200, 4127.692, 4152.821, 4192.821, 450, 0, []
1627568522.6795, 117, 0, 4222.051, 4196.923, 4130.256, 4150.256, 4186.667, 450, 0, []
1627568522.6874, 118, 0, 4217.436, 4203.59, 4117.949, 4148.205, 4184.615, 450, 0, []
1627568522.6951, 119, 0, 4211.282, 4203.59, 4120, 4145.128, 4179.487, 16208, 0, []
1627568522.703, 120, 0, 4218.462, 4203.077, 4126.667, 4150.769, 4182.051, 450, 0, []
1627568522.7108, 121, 0, 4221.026, 4196.923, 4126.667, 4155.385, 4189.231, 450, 0, []
1627568522.7187, 122, 0, 4216.923, 4185.641, 4124.615, 4150.256, 4190.256, 450, 0, []
1627568522.7265, 123, 0, 4213.333, 4185.128, 4101.538, 4138.974, 4178.974, 16208, 0, []
1627568522.7343, 124, 0, 4206.667, 4191.282, 4106.154, 4133.333, 4169.231, 450, 0, []
1627568522.7421, 125, 0, 4204.103, 4190.769, 4117.436, 4137.949, 4169.231, 450, 0, []
1627568522.75, 126, 0, 4206.667, 4186.667, 4117.436, 4144.103, 4172.821, 450, 0, []
1627568522.7578, 127, 0, 4221.026, 4196.923, 4136.923, 4156.41, 4185.641, 16208, 0, []
1627568522.7657, 128, 0, 4227.692, 4203.077, 4128.205, 4158.974, 4191.795, 450, 0, []
1627568522.7734, 0, 0, 4213.846, 4194.872, 4110.769, 4138.974, 4178.974, 450, 0, []
1627568522.7814, 1, 0, 4219.487, 4201.538, 4125.641, 4141.538, 4182.051, 450, 0, []
1627568522.7893, 2, 0, 4240.513, 4217.949, 4145.128, 4161.538, 4202.051, 16185, 0, []
1627568522.7973, 3, 0, 4241.538, 4221.026, 4153.846, 4166.667, 4207.179, 450, 0, []
1627568522.8052, 4, 0, 4245.128, 4217.949, 4154.359, 4180.513, 4212.308, 16170, 0, []
1627568522.8131, 5, 0, 4259.487, 4220.513, 4169.231, 4201.026, 4220.513, 450, 0, []
1627568522.821, 6, 0, 4246.154, 4213.333, 4161.026, 4186.667, 4210.769, 16087, 0, []
1627568522.829, 7, 0, 4220, 4197.436, 4131.282, 4154.872, 4191.795, 450, 0, []
1627568522.8369, 8, 0, 4215.897, 4198.462, 4144.103, 4149.744, 4188.205, 450, 0, []
1627568522.8449, 9, 0, 4216.41, 4211.795, 4154.872, 4156.41, 4194.359, 16173, 0, []
1627568522.8527, 10, 0, 4219.487, 4220.513, 4149.744, 4157.436, 4194.872, 450, 0, []
1627568522.8605, 11, 0, 4235.897, 4222.564, 4146.667, 4167.179, 4199.487, 16200, 0, []
1627568522.8684, 12, 0, 4250.256, 4217.949, 4143.59, 4183.59, 4216.923, 450, 0, []
1627568522.8762, 13, 0, 4253.846, 4213.846, 4154.872, 4183.59, 4232.821, 450, 0, []
1627568522.8841, 14, 0, 4256.923, 4213.846, 4151.282, 4172.308, 4232.308, 450, 0, []
1627568522.8918, 15, 0, 4256.41, 4214.872, 4149.744, 4170.256, 4224.103, 16200, 0, []
1627568522.8997, 16, 0, 4245.128, 4213.846, 4152.308, 4167.179, 4213.333, 0, 0, []
1627568522.9075, 17, 0, 4232.821, 4209.744, 4137.949, 4150.256, 4198.974, 0, 0, []
1627568522.9154, 18, 0, 4229.744, 4209.744, 4147.692, 4149.744, 4194.359, 0, 0, []
1627568522.9232, 19, 0, 4239.487, 4221.538, 4153.846, 4171.282, 4206.154, 0, 0, []
1627568522.9311, 20, 0, 4242.051, 4217.949, 4143.59, 4170.769, 4211.795, 0, 0, []
1627568522.939, 21, 0, 4233.846, 4201.026, 4141.026, 4152.821, 4203.59, 0, 0, []
1627568522.947, 22, 0, 4238.974, 4214.872, 4137.436, 4161.538, 4206.667, 0, 0, []
1627568522.9549, 23, 0, 4249.231, 4231.282, 4146.667, 4174.872, 4212.308, 0, 0, []
1627568522.9629, 24, 0, 4240, 4225.128, 4139.487, 4161.538, 4200.513, 0, 0, []
1627568522.9707, 25, 0, 4235.385, 4224.103, 4134.359, 4147.179, 4198.974, 0, 0, []
1627568522.9787, 26, 0, 4259.487, 4225.641, 4157.436, 4156.41, 4227.179, 0, 0, []
1627568522.9866, 27, 0, 4269.744, 4218.974, 4149.744, 4164.615, 4235.897, 0, 0, []
1627568522.9946, 28, 0, 4249.231, 4214.359, 4140, 4157.949, 4209.231, 0, 0, []
1627568523.0025, 29, 0, 4233.333, 4208.718, 4144.103, 4153.333, 4195.385, 0, 0, []
1627568523.0102, 30, 0, 4234.872, 4203.59, 4147.692, 4158.462, 4206.667, 0, 0, []
1627568523.0181, 31, 0, 4249.231, 4217.949, 4159.487, 4171.282, 4221.538, 0, 0, []
1627568523.0259, 32, 0, 4262.051, 4227.692, 4153.333, 4180, 4229.231, 0, 0, []
1627568523.0338, 33, 0, 4263.59, 4218.462, 4148.205, 4176.923, 4234.359, 0, 0, []
1627568523.0416, 34, 0, 4258.462, 4218.462, 4145.128, 4168.205, 4232.308, 0, 0, []
1627568523.0495, 35, 0, 4256.41, 4224.103, 4144.615, 4169.231, 4227.179, 0, 0, []
1627568523.0574, 36, 0, 4262.564, 4221.538, 4160, 4182.051, 4232.308, 0, 0, []
1627568523.0653, 37, 0, 4262.051, 4219.487, 4151.282, 4189.231, 4233.846, 0, 0, []
1627568523.0731, 38, 0, 4252.308, 4221.538, 4143.59, 4182.051, 4225.128, 0, 0, []
1627568523.081, 39, 0, 4245.128, 4217.949, 4147.692, 4169.744, 4212.308, 0, 0, []
1627568523.0887, 40, 0, 4247.692, 4209.744, 4152.308, 4168.718, 4210.769, 0, 0, []
1627568523.0967, 41, 0, 4251.795, 4212.821, 4169.231, 4175.897, 4218.974, 0, 0, []
1627568523.1046, 42, 0, 4246.154, 4219.487, 4155.385, 4168.718, 4215.385, 0, 0, []
1627568523.1126, 43, 0, 4245.641, 4214.359, 4142.564, 4154.872, 4210.256, 0, 0, []
1627568523.1205, 44, 0, 4253.333, 4206.667, 4146.154, 4162.051, 4216.923, 0, 0, []
1627568523.1284, 45, 0, 4247.692, 4207.692, 4133.846, 4169.231, 4216.923, 0, 0, []
1627568523.1363, 46, 0, 4234.872, 4206.154, 4131.282, 4153.333, 4202.051, 0, 0, []
1627568523.1443, 47, 0, 4228.718, 4204.103, 4130.256, 4144.103, 4193.333, 0, 0, []
1627568523.1522, 48, 0, 4231.795, 4215.897, 4142.564, 4159.487, 4203.077, 0, 0, []
1627568523.1602, 49, 0, 4246.667, 4217.436, 4160.513, 4170.769, 4220, 0, 0, []
1627568523.168, 50, 0, 4258.462, 4202.564, 4150.769, 4161.026, 4221.026, 0, 0, []
1627568523.1758, 51, 0, 4248.718, 4202.051, 4151.795, 4146.667, 4207.179, 0, 0, []
1627568523.1837, 52, 0, 4232.308, 4208.718, 4150.769, 4136.923, 4197.949, 0, 0, []
1627568523.1915, 53, 0, 4228.205, 4199.487, 4148.205, 4132.821, 4197.436, 0, 0, []
1627568523.1994, 54, 0, 4234.872, 4205.641, 4159.487, 4143.077, 4205.641, 0, 0, []
1627568523.2071, 55, 0, 4242.051, 4230.769, 4158.462, 4160, 4214.872, 0, 0, []
1627568523.215, 56, 0, 4247.179, 4230.256, 4165.128, 4171.282, 4218.462, 0, 0, []
1627568523.2228, 57, 0, 4258.974, 4214.872, 4171.282, 4182.564, 4227.179, 0, 0, []
1627568523.2308, 58, 0, 4262.051, 4217.949, 4171.795, 4185.128, 4229.744, 0, 0, []
1627568523.2387, 59, 0, 4251.795, 4221.538, 4175.897, 4174.359, 4223.59, 0, 0, []
1627568523.2466, 60, 0, 4249.231, 4216.41, 4169.744, 4168.205, 4227.692, 0, 0, []
1627568523.2545, 61, 0, 4253.846, 4223.59, 4176.41, 4171.795, 4233.333, 0, 0, []
1627568523.2625, 62, 0, 4252.308, 4234.359, 4174.359, 4172.308, 4223.077, 0, 0, []
1627568523.2704, 63, 0, 4241.026, 4222.051, 4155.897, 4166.667, 4214.359, 0, 0, []
1627568523.2784, 64, 0, 4233.333, 4202.564, 4146.667, 4164.103, 4214.359, 450, 0, []
1627568523.2862, 65, 0, 4240.513, 4205.128, 4141.026, 4170.769, 4215.897, 450, 0, []
1627568523.2942, 66, 0, 4247.179, 4214.872, 4149.744, 4167.692, 4221.026, 16185, 0, []
1627568523.3021, 67, 0, 4242.051, 4212.821, 4148.205, 4154.872, 4220, 450, 0, []
1627568523.3101, 68, 0, 4237.949, 4206.667, 4146.667, 4152.821, 4215.385, 16170, 0, []
1627568523.318, 69, 0, 4243.59, 4207.692, 4159.487, 4156.923, 4219.487, 450, 0, []
1627568523.3257, 70, 0, 4242.564, 4208.718, 4137.436, 4156.923, 4218.462, 16085, 0, []
1627568523.3336, 71, 0, 4237.949, 4211.282, 4122.564, 4150.256, 4211.795, 450, 0, []
1627568523.3414, 72, 0, 4244.615, 4228.718, 4123.077, 4141.538, 4221.026, 450, 0, []
1627568523.3493, 73, 0, 4254.872, 4240.513, 4117.949, 4143.59, 4229.231, 16173, 0, []
1627568523.3571, 74, 0, 4257.436, 4237.949, 4135.385, 4150.256, 4223.077, 450, 0, []
1627568523.365, 75, 0, 4247.692, 4227.692, 4140.513, 4144.615, 4216.923, 16196, 0, []
1627568523.3727, 76, 0, 4231.795, 4205.128, 4135.897, 4132.821, 4211.795, 450, 0, []
1627568523.3806, 77, 0, 4223.077, 4182.564, 4142.564, 4135.385, 4207.692, 450, 0, []
1627568523.3884, 78, 0, 4224.615, 4184.103, 4147.179, 4147.692, 4216.923, 450, 0, []
1627568523.3964, 79, 0, 4234.359, 4197.949, 4162.051, 4153.846, 4231.795, 16196, 0, []
1627568523.4043, 80, 0, 4241.026, 4200.513, 4156.923, 4151.282, 4229.231, 450, 0, []
1627568523.4122, 81, 0, 4245.641, 4205.128, 4150.769, 4152.308, 4228.718, 450, 0, []
1627568523.4201, 82, 0, 4254.872, 4225.641, 4157.436, 4157.436, 4240, 450, 0, []
1627568523.4281, 83, 0, 4260.513, 4235.385, 4148.205, 4155.385, 4245.641, 16196, 0, []
1627568523.436, 84, 0, 4261.538, 4221.538, 4152.821, 4153.333, 4249.744, 450, 0, []
1627568523.444, 85, 0, 4251.795, 4215.897, 4154.359, 4149.744, 4240.513, 450, 0, []
1627568523.4518, 86, 0, 4240.513, 4218.462, 4150.769, 4139.487, 4220, 450, 0, []
1627568523.4598, 87, 0, 4256.41, 4210.256, 4155.897, 4142.564, 4231.795, 16196, 0, []
1627568523.4677, 88, 0, 4296.923, 4196.923, 4145.641, 4151.282, 4275.385, 450, 0, []
1627568523.4755, 89, 0, 4344.615, 4192.821, 4153.333, 4150.769, 4317.436, 450, 0, []
1627568523.4834, 90, 0, 4412.308, 4204.103, 4166.667, 4160, 4375.385, 450, 0, []
1627568523.4911, 91, 0, 4478.974, 4215.897, 4165.128, 4171.282, 4458.462, 16196, 0, []
1627568523.499, 92, 0, 4500.513, 4219.487, 4162.564, 4171.795, 4517.436, 450, 0, []
1627568523.5068, 93, 0, 4495.897, 4218.974, 4152.308, 4179.487, 4531.795, 450, 0, []
1627568523.5147, 94, 0, 4475.385, 4213.333, 4145.128, 4184.103, 4507.179, 450, 0, []
1627568523.5225, 95, 0, 4412.308, 4210.769, 4128.718, 4170.769, 4445.641, 16196, 0, []
1627568523.5303, 96, 0, 4326.667, 4210.769, 4125.128, 4164.615, 4369.744, 450, 0, []
1627568523.5381, 97, 0, 4241.538, 4197.436, 4141.538, 4171.795, 4292.821, 450, 0, []
1627568523.546, 98, 0, 4160.513, 4189.744, 4132.308, 4174.872, 4218.974, 450, 0, []
1627568523.5538, 99, 0, 4108.718, 4204.615, 4137.436, 4182.564, 4166.667, 16196, 0, []
1627568523.5618, 100, 0, 4084.615, 4208.205, 4143.077, 4186.154, 4138.974, 450, 0, []
1627568523.5696, 101, 0, 4058.462, 4198.462, 4127.179, 4174.872, 4117.949, 450, 0, []
1627568523.5776, 102, 0, 4041.538, 4200, 4130.256, 4168.205, 4103.077, 450, 0, []
1627568523.5855, 103, 0, 4046.667, 4204.103, 4140.513, 4172.821, 4102.564, 16196, 0, []
1627568523.5935, 104, 0, 4057.436, 4205.128, 4160.513, 4181.538, 4109.744, 450, 0, []
1627568523.6014, 105, 0, 4065.128, 4207.179, 4163.59, 4187.179, 4114.872, 450, 0, []
1627568523.6093, 106, 0, 4068.718, 4199.487, 4147.179, 4184.103, 4113.846, 450, 0, []
1627568523.6172, 107, 0, 4070.769, 4191.282, 4156.923, 4176.41, 4111.282, 16196, 0, []
1627568523.6252, 108, 0, 4066.667, 4197.949, 4159.487, 4168.718, 4110.256, 450, 0, []
1627568523.6331, 109, 0, 4060.513, 4201.538, 4144.615, 4156.923, 4107.179, 450, 0, []
1627568523.6409, 110, 0, 4063.59, 4183.077, 4127.692, 4152.308, 4105.128, 450, 0, []
1627568523.6487, 111, 0, 4070.256, 4174.359, 4121.026, 4160, 4109.744, 16196, 0, []
1627568523.6565, 112, 0, 4067.692, 4186.154, 4137.436, 4164.103, 4110.769, 450, 0, []
1627568523.6644, 113, 0, 4061.538, 4190.769, 4135.385, 4157.436, 4102.564, 450, 0, []
1627568523.6722, 114, 0, 4072.308, 4201.538, 4126.154, 4150.769, 4101.538, 450, 0, []
1627568523.6801, 115, 0, 4097.949, 4220, 4129.744, 4158.462, 4122.564, 16196, 0, []
1627568523.6878, 116, 0, 4114.872, 4207.692, 4126.667, 4170.256, 4143.59, 450, 0, []
1627568523.6957, 117, 0, 4119.487, 4193.333, 4136.923, 4171.795, 4149.231, 450, 0, []
1627568523.7035, 118, 0, 4126.667, 4211.795, 4143.59, 4176.41, 4152.308, 450, 0, []
1627568523.7115, 119, 0, 4132.821, 4218.974, 4146.667, 4183.077, 4153.846, 16196, 0, []
1627568523.7194, 120, 0, 4127.692, 4204.615, 4139.487, 4178.462, 4147.692, 450, 0, []
1627568523.7273, 121, 0, 4117.436, 4198.974, 4109.231, 4168.718, 4136.41, 450, 0, []
1627568523.7352, 122, 0, 4116.923, 4196.41, 4109.231, 4162.051, 4132.821, 450, 0, []
1627568523.7432, 123, 0, 4121.538, 4201.026, 4123.077, 4159.487, 4141.538, 16196, 0, []
1627568523.7511, 124, 0, 4122.564, 4209.744, 4128.718, 4166.667, 4152.308, 450, 0, []
1627568523.7591, 125, 0, 4125.641, 4206.667, 4132.308, 4169.744, 4154.359, 450, 0, []
1627568523.767, 126, 0, 4124.615, 4197.436, 4120, 4156.41, 4149.744, 450, 0, []
1627568523.7749, 127, 0, 4118.974, 4193.846, 4121.538, 4145.641, 4147.692, 16196, 0, []
1627568523.7829, 128, 0, 4132.308, 4204.103, 4132.308, 4158.462, 4161.026, 450, 0, []
1627568523.7908, 0, 0, 4162.564, 4214.359, 4150.769, 4183.077, 4191.282, 450, 0, []
1627568523.7988, 1, 0, 4170.769, 4211.282, 4161.538, 4187.179, 4209.744, 450, 0, []
1627568523.8066, 2, 0, 4156.923, 4210.769, 4141.538, 4172.308, 4201.026, 16182, 0, []
1627568523.8146, 3, 0, 4151.795, 4209.744, 4142.564, 4168.718, 4196.923, 450, 0, []
1627568523.8225, 4, 0, 4155.897, 4200.513, 4148.205, 4175.385, 4205.128, 16169, 0, []
1627568523.8305, 5, 0, 4158.462, 4201.026, 4137.949, 4167.692, 4202.564, 450, 0, []
1627568523.8384, 6, 0, 4160.513, 4211.795, 4143.077, 4161.538, 4196.923, 16086, 0, []
1627568523.8463, 7, 0, 4171.282, 4213.333, 4142.564, 4175.385, 4207.179, 450, 0, []
1627568523.8543, 8, 0, 4178.462, 4213.333, 4143.59, 4184.615, 4214.872, 450, 0, []
1627568523.8622, 9, 0, 4164.615, 4213.333, 4140.513, 4171.795, 4198.462, 16182, 0, []
1627568523.8702, 10, 0, 4169.744, 4206.154, 4132.308, 4166.154, 4200.513, 450, 0, []
1627568523.8781, 11, 0, 4228.205, 4214.359, 4140.513, 4183.59, 4249.744, 16196, 0, []
1627568523.886, 12, 0, 4271.795, 4221.026, 4130.769, 4176.923, 4283.077, 450, 0, []
1627568523.8939, 13, 0, 4283.077, 4213.846, 4121.026, 4144.103, 4282.051, 450, 0, []
1627568523.9019, 14, 0, 4332.821, 4222.051, 4131.795, 4144.103, 4306.154, 450, 0, []
1627568523.9098, 15, 0, 4388.718, 4231.795, 4138.974, 4162.051, 4347.692, 16196, 0, []
1627568523.9178, 16, 0, 4399.487, 4222.564, 4133.333, 4152.821, 4354.872, 0, 0, []
1627568523.9256, 17, 0, 4398.974, 4217.436, 4114.359, 4135.897, 4331.795, 0, 0, []
1627568523.9336, 18, 0, 4391.795, 4221.026, 4117.436, 4134.359, 4305.641, 0, 0, []
1627568523.9416, 19, 0, 4364.615, 4222.051, 4129.231, 4142.564, 4281.026, 0, 0, []
1627568523.9495, 20, 0, 4341.538, 4226.154, 4134.872, 4152.308, 4257.949, 0, 0, []
1627568523.9574, 21, 0, 4322.051, 4233.846, 4147.179, 4157.436, 4232.308, 0, 0, []
1627568523.9653, 22, 0, 4286.154, 4233.333, 4136.41, 4154.359, 4202.051, 0, 0, []
1627568523.9732, 23, 0, 4257.436, 4227.692, 4134.872, 4153.846, 4184.103, 0, 0, []
1627568523.9812, 24, 0, 4246.667, 4222.564, 4142.051, 4154.872, 4180, 0, 0, []
1627568523.9892, 25, 0, 4232.308, 4220.513, 4131.282, 4145.641, 4174.872, 0, 0, []
1627568523.9971, 26, 0, 4207.179, 4213.333, 4125.641, 4134.359, 4159.487, 0, 0, []
1627568524.005, 27, 0, 4195.385, 4204.615, 4115.897, 4135.385, 4149.744, 0, 0, []
1627568524.0129, 28, 0, 4204.615, 4217.949, 4132.308, 4142.051, 4161.026, 0, 0, []
1627568524.0209, 29, 0, 4209.231, 4234.359, 4154.359, 4141.026, 4174.359, 0, 0, []
1627568524.0288, 30, 0, 4208.205, 4226.667, 4155.385, 4152.308, 4182.051, 0, 0, []
1627568524.0368, 31, 0, 4218.974, 4215.385, 4165.128, 4167.179, 4195.385, 0, 0, []
1627568524.0447, 32, 0, 4227.692, 4220, 4142.564, 4163.59, 4203.077, 0, 0, []
1627568524.0527, 33, 1, 4222.336, 4217.55, 4140.399, 4159.487, 4200.912, 0, 0, []
1627568524.0606, 34, 1, 4216.98, 4215.1, 4138.234, 4155.385, 4198.746, 0, 0, []
1627568524.0685, 35, 1, 4211.624, 4212.65, 4136.068, 4151.282, 4196.581, 0, 0, []
1627568524.0764, 36, 1, 4206.268, 4210.199, 4133.903, 4147.179, 4194.416, 0, 0, []
1627568524.0842, 37, 1, 4200.912, 4207.749, 4131.738, 4143.077, 4192.251, 0, 0, []
1627568524.0921, 38, 1, 4195.556, 4205.299, 4129.573, 4138.974, 4190.085, 0, 0, []
1627568524.1, 39, 1, 4190.199, 4202.849, 4127.407, 4134.872, 4187.92, 0, 0, []
1627568524.1079, 40, 1, 4184.843, 4200.399, 4125.242, 4130.769, 4185.755, 0, 0, []
1627568524.1158, 41, 0, 4179.487, 4197.949, 4123.077, 4126.667, 4183.59, 0, 0, []
1627568524.1236, 42, 0, 4190.769, 4194.359, 4137.949, 4138.462, 4190.769, 0, 0, []
1627568524.1315, 43, 0, 4209.231, 4211.282, 4167.692, 4171.282, 4208.205, 0, 0, []
1627568524.1393, 44, 0, 4205.641, 4210.256, 4169.231, 4169.231, 4201.538, 0, 0, []
1627568524.1472, 45, 0, 4196.41, 4194.872, 4138.462, 4140, 4181.026, 0, 0, []
1627568524.155, 46, 0, 4189.231, 4193.846, 4135.385, 4131.795, 4168.718, 0, 0, []
1627568524.1628, 47, 0, 4178.974, 4202.564, 4141.026, 4144.103, 4166.667, 0, 0, []
1627568524.1706, 48, 0, 4172.308, 4205.641, 4142.051, 4138.462, 4169.744, 0, 0, []
1627568524.1785, 49, 0, 4164.615, 4198.462, 4138.974, 4121.538, 4167.179, 0, 0, []
1627568524.1863, 50, 0, 4152.821, 4190.256, 4124.103, 4115.897, 4157.949, 0, 0, []
1627568524.1941, 51, 0, 4154.872, 4194.872, 4131.282, 4116.923, 4161.538, 0, 0, []
1627568524.202, 52, 0, 4170.256, 4205.641, 4140.513, 4126.667, 4177.949, 0, 0, []
1627568524.2097, 53, 0, 4182.051, 4208.205, 4138.974, 4144.103, 4189.231, 0, 0, []
1627568524.2176, 54, 0, 4176.41, 4205.641, 4140.513, 4147.692, 4182.051, 0, 0, []
1627568524.2254, 55, 0, 4169.744, 4198.974, 4137.949, 4138.974, 4171.795, 0, 0, []
1627568524.2333, 56, 0, 4166.667, 4186.667, 4142.051, 4133.333, 4170.769, 0, 0, []
1627568524.2411, 57, 0, 4156.923, 4183.59, 4132.308, 4127.692, 4165.128, 0, 0, []
1627568524.2489, 58, 0, 4151.282, 4187.692, 4112.308, 4121.538, 4156.41, 0, 0, []
1627568524.2567, 59, 0, 4148.718, 4178.462, 4114.872, 4114.872, 4151.282, 0, 0, []
1627568524.2646, 60, 0, 4149.744, 4168.718, 4128.205, 4114.359, 4156.41, 0, 0, []
1627568524.2724, 61, 0, 4161.538, 4178.974, 4144.615, 4129.744, 4175.385, 0, 0, []
1627568524.2803, 62, 0, 4172.308, 4191.795, 4152.821, 4138.974, 4188.205, 0, 0, []
1627568524.288, 63, 0, 4166.667, 4185.128, 4149.231, 4129.231, 4177.436, 0, 0, []
1627568524.2959, 64, 0, 4164.103, 4179.487, 4152.308, 4128.718, 4164.615, 450, 0, []
1627568524.3037, 65, 0, 4167.692, 4193.846, 4146.154, 4141.026, 4169.744, 450, 0, []
1627568524.3116, 66, 0, 4157.949, 4200.513, 4134.872, 4139.487, 4170.769, 16164, 0, []
1627568524.3194, 67, 0, 4149.744, 4193.333, 4131.795, 4133.333, 4165.128, 450, 0, []
1627568524.3271, 68, 0, 4156.923, 4196.41, 4140, 4141.026, 4173.846, 16167, 0, []
1627568524.335, 69, 0, 4162.051, 4204.103, 4157.436, 4151.795, 4185.641, 450, 0, []
1627568524.3429, 70, 0, 4154.872, 4198.462, 4157.436, 4147.179, 4173.846, 16103, 0, []
1627568524.3507, 71, 0, 4146.154, 4187.692, 4152.821, 4127.692, 4154.359, 450, 0, []
1627568524.3585, 72, 0, 4149.231, 4190.769, 4162.051, 4124.615, 4160.513, 450, 0, []
1627568524.3663, 73, 0, 4162.564, 4200.513, 4166.667, 4145.641, 4175.385, 16178, 0, []
1627568524.3741, 74, 0, 4168.718, 4196.923, 4163.59, 4154.359, 4174.872, 450, 0, []
1627568524.382, 75, 0, 4161.538, 4187.179, 4149.744, 4142.564, 4165.641, 16196, 0, []
1627568524.3898, 76, 0, 4152.821, 4183.59, 4137.949, 4128.205, 4154.872, 450, 0, []
1627568524.3977, 77, 0, 4152.821, 4175.897, 4130.256, 4124.103, 4149.231, 450, 0, []
1627568524.4054, 78, 0, 4151.795, 4164.103, 4117.949, 4123.077, 4151.795, 450, 0, []
1627568524.4133, 79, 0, 4148.718, 4165.128, 4125.128, 4127.692, 4155.897, 16196, 0, []
1627568524.4211, 80, 0, 4158.462, 4175.897, 4145.128, 4144.103, 4165.128, 450, 0, []
1627568524.429, 81, 0, 4174.872, 4185.641, 4158.462, 4161.538, 4185.128, 450, 0, []
1627568524.4368, 82, 0, 4174.872, 4187.179, 4152.821, 4156.923, 4186.154, 450, 0, []
1627568524.4446, 83, 0, 4163.077, 4182.564, 4139.487, 4135.385, 4166.154, 16196, 0, []
1627568524.4524, 84, 0, 4166.667, 4182.564, 4152.308, 4132.308, 4165.641, 450, 0, []
1627568524.4603, 85, 0, 4176.41, 4187.179, 4156.923, 4144.615, 4181.026, 450, 0, []
1627568524.4681, 86, 0, 4173.333, 4189.744, 4136.923, 4144.615, 4176.41, 450, 0, []
1627568524.476, 87, 0, 4170.769, 4202.564, 4134.872, 4136.41, 4165.641, 16196, 0, []
1627568524.4837, 88, 0, 4168.718, 4214.872, 4143.077, 4135.897, 4168.718, 450, 0, []
1627568524.4916, 89, 0, 4157.949, 4203.59, 4144.615, 4140, 4169.744, 450, 0, []
1627568524.4994, 90, 0, 4151.795, 4191.795, 4141.538, 4137.949, 4168.205, 450, 0, []
1627568524.5072, 91, 0, 4153.846, 4193.333, 4140.513, 4126.667, 4170.769, 16196, 0, []
1627568524.5151, 92, 0, 4153.333, 4188.718, 4142.564, 4126.154, 4168.718, 450, 0, []
1627568524.5228, 93, 0, 4153.846, 4188.205, 4137.436, 4136.923, 4165.128, 450, 0, []
1627568524.5307, 94, 0, 4155.897, 4200.513, 4141.538, 4141.538, 4164.103, 450, 0, []
1627568524.5385, 95, 0, 4153.333, 4197.949, 4148.718, 4143.077, 4163.077, 16196, 0, []
1627568524.5464, 96, 0, 4148.718, 4180.513, 4136.923, 4138.462, 4158.462, 450, 0, []
1627568524.5542, 97, 0, 4147.179, 4181.538, 4132.821, 4123.077, 4155.897, 450, 0, []
1627568524.562, 98, 0, 4163.077, 4193.846, 4146.154, 4124.615, 4171.282, 450, 0, []
1627568524.5698, 99, 0, 4183.59, 4203.59, 4163.59, 4143.077, 4191.795, 16196, 0, []
1627568524.5777, 100, 0, 4180.513, 4212.821, 4163.59, 4147.179, 4191.282, 450, 0, []
1627568524.5855, 101, 0, 4173.333, 4215.897, 4150.769, 4148.205, 4185.128, 450, 0, []
1627568524.5934, 102, 0, 4185.641, 4213.846, 4150.256, 4163.077, 4192.821, 450, 0, []
1627568524.6011, 103, 0, 4183.59, 4210.256, 4141.538, 4164.615, 4196.41, 16196, 0, []
1627568524.609, 104, 0, 4162.051, 4196.41, 4133.333, 4142.564, 4179.487, 450, 0, []
1627568524.6168, 105, 0, 4158.974, 4183.59, 4140.513, 4123.59, 4166.154, 450, 0, []
1627568524.6247, 106, 0, 4169.231, 4200, 4147.179, 4119.487, 4173.333, 450, 0, []
1627568524.6325, 107, 0, 4177.436, 4218.974, 4153.333, 4128.205, 4185.641, 16196, 0, []
1627568524.6403, 108, 0, 4181.538, 4208.205, 4147.179, 4145.128, 4182.051, 450, 0, []
1627568524.6481, 109, 0, 4177.949, 4192.821, 4141.026, 4163.59, 4172.821, 450, 0, []
1627568524.656, 110, 0, 4164.103, 4192.308, 4140.513, 4169.231, 4170.769, 450, 0, []
1627568524.6638, 111, 0, 4153.846, 4183.077, 4129.231, 4151.282, 4169.231, 16196, 0, []
1627568524.6716, 112, 0, 4168.205, 4176.923, 4126.667, 4137.436, 4180, 450, 0, []
1627568524.6794, 113, 0, 4188.718, 4193.846, 4137.949, 4140, 4197.949, 450, 0, []
1627568524.6872, 114, 0, 4182.051, 4206.667, 4145.641, 4130.769, 4186.154, 450, 0, []
1627568524.6951, 115, 0, 4155.897, 4198.974, 4132.308, 4107.179, 4148.718, 16196, 0, []
1627568524.7029, 116, 0, 4147.179, 4193.846, 4117.436, 4111.795, 4130.769, 450, 0, []
1627568524.7108, 117, 0, 4161.026, 4204.103, 4136.923, 4142.051, 4145.128, 450, 0, []
1627568524.7185, 118, 0, 4171.282, 4198.462, 4154.359, 4154.872, 4163.077, 450, 0, []
1627568524.7264, 119, 0, 4171.282, 4173.846, 4148.718, 4151.795, 4177.436, 16196, 0, []
1627568524.7342, 120, 0, 4169.231, 4165.128, 4144.103, 4149.231, 4192.821, 450, 0, []
1627568524.7421, 121, 0, 4170.256, 4167.179, 4140.513, 4144.103, 4200, 450, 0, []
1627568524.7499, 122, 0, 4171.795, 4167.179, 4142.051, 4131.282, 4192.821, 450, 0, []
1627568524.7577, 123, 0, 4167.692, 4177.949, 4138.974, 4118.974, 4183.59, 16196, 0, []
1627568524.7655, 124, 0, 4166.154, 4187.692, 4132.821, 4125.641, 4183.077, 450, 0, []
1627568524.7734, 125, 0, 4176.41, 4182.564, 4141.538, 4150.256, 4189.744, 450, 0, []
1627568524.7812, 126, 0, 4185.128, 4189.744, 4148.205, 4177.949, 4202.564, 450, 0, []
1627568524.7891, 127, 0, 4176.41, 4197.949, 4144.103, 4183.077, 4201.026, 16196, 0, []
1627568524.7969, 128, 0, 4162.564, 4181.026, 4132.308, 4170.769, 4184.103, 450, 0, []
1627568524.8046, 0, 0, 4167.179, 4165.128, 4132.821, 4166.667, 4187.692, 450, 0, []
1627568524.8125, 1, 0, 4177.436, 4170.769, 4146.667, 4165.128, 4205.128, 450, 0, []
1627568524.8203, 2, 0, 4177.949, 4188.205, 4137.436, 4154.872, 4203.077, 16180, 0, []
1627568524.8282, 3, 0, 4168.718, 4194.872, 4123.59, 4142.564, 4190.256, 450, 0, []
1627568524.836, 4, 0, 4155.897, 4183.077, 4122.564, 4130.256, 4179.487, 16169, 0, []
1627568524.8438, 5, 0, 4155.385, 4175.897, 4118.974, 4126.667, 4171.282, 450, 0, []
1627568524.8516, 6, 0, 4165.641, 4178.974, 4132.821, 4138.462, 4176.41, 16104, 0, []
1627568524.8595, 7, 0, 4177.949, 4184.103, 4149.231, 4145.641, 4193.846, 450, 0, []
1627568524.8673, 8, 0, 4186.667, 4189.744, 4146.667, 4142.564, 4198.974, 450, 0, []
1627568524.8752, 9, 0, 4183.077, 4193.333, 4136.41, 4145.641, 4191.282, 16178, 0, []
1627568524.8829, 10, 0, 4169.744, 4179.487, 4125.128, 4140.513, 4180.513, 450, 0, []
1627568524.8908, 11, 0, 4164.103, 4169.744, 4126.154, 4126.667, 4175.897, 16195, 0, []
1627568524.8986, 12, 0, 4171.795, 4184.103, 4133.333, 4132.821, 4185.128, 450, 0, []
1627568524.9065, 13, 0, 4172.308, 4191.282, 4136.41, 4141.538, 4191.282, 450, 0, []
1627568524.9143, 14, 0, 4170.256, 4178.974, 4129.231, 4129.231, 4181.026, 450, 0, []
1627568524.9221, 15, 0, 4167.692, 4174.359, 4114.359, 4116.923, 4166.154, 16195, 0, []
1627568524.9299, 16, 0, 4161.026, 4185.641, 4120, 4120.513, 4160, 0, 0, []
1627568524.9378, 17, 0, 4160, 4176.923, 4128.205, 4125.128, 4162.564, 0, 0, []
1627568524.9456, 18, 0, 4165.128, 4152.821, 4120.513, 4123.077, 4169.231, 0, 0, []
1627568524.9535, 19, 0, 4166.667, 4147.179, 4117.949, 4122.051, 4169.744, 0, 0, []
1627568524.9612, 20, 0, 4166.154, 4155.385, 4129.744, 4123.59, 4170.256, 0, 0, []
1627568524.9691, 21, 0, 4173.333, 4156.41, 4144.103, 4125.641, 4177.436, 0, 0, []
1627568524.9769, 22, 0, 4169.744, 4154.359, 4126.667, 4118.974, 4176.41, 0, 0, []
1627568524.9847, 23, 0, 4151.282, 4161.026, 4105.128, 4108.205, 4166.154, 0, 0, []
1627568524.9926, 24, 0, 4152.308, 4166.667, 4118.974, 4111.795, 4166.667, 0, 0, []
1627568525.0003, 25, 0, 4171.282, 4172.308, 4133.333, 4131.282, 4176.923, 0, 0, []
1627568525.0082, 26, 0, 4169.231, 4174.359, 4123.59, 4134.359, 4172.308, 0, 0, []
1627568525.016, 27, 0, 4151.795, 4174.872, 4106.154, 4124.103, 4156.923, 0, 0, []
1627568525.0239, 28, 0, 4150.256, 4171.282, 4105.641, 4129.744, 4154.359, 0, 0, []
1627568525.0317, 29, 0, 4156.41, 4156.923, 4117.949, 4135.897, 4160, 0, 0, []
1627568525.0395, 30, 0, 4149.744, 4155.385, 4125.128, 4136.41, 4161.026, 0, 0, []
1627568525.0473, 31, 0, 4140, 4168.718, 4133.333, 4136.923, 4152.308, 0, 0, []
1627568525.0552, 32, 0, 4147.179, 4169.231, 4123.59, 4127.179, 4145.641, 0, 0, []
1627568525.063, 33, 0, 4168.205, 4154.872, 4096.41, 4105.641, 4149.744, 0, 0, []
1627568525.0709, 34, 0, 4182.564, 4158.462, 4096.41, 4098.974, 4167.179, 0, 0, []
1627568525.0786, 35, 0, 4188.205, 4176.41, 4109.231, 4112.821, 4186.154, 0, 0, []
1627568525.0865, 36, 0, 4190.256, 4178.974, 4113.846, 4126.154, 4186.154, 0, 0, []
1627568525.0943, 37, 0, 4184.103, 4173.333, 4111.282, 4134.872, 4172.308, 0, 0, []
1627568525.1022, 38, 0, 4173.333, 4166.667, 4111.795, 4144.615, 4165.128, 0, 0, []
1627568525.11, 39, 0, 4171.795, 4157.949, 4121.538, 4151.795, 4169.744, 0, 0, []
1627568525.1178, 40, 0, 4171.795, 4152.308, 4117.949, 4144.103, 4167.692, 0, 0, []
1627568525.1256, 41, 0, 4163.59, 4157.949, 4117.436, 4128.205, 4157.436, 0, 0, []
1627568525.1334, 42, 0, 4155.897, 4170.256, 4132.821, 4124.103, 4147.692, 0, 0, []
1627568525.1413, 43, 0, 4150.256, 4173.333, 4131.795, 4122.564, 4133.846, 0, 0, []
1627568525.1491, 44, 0, 4138.462, 4170.256, 4117.436, 4113.846, 4122.051, 0, 0, []
1627568525.1569, 45, 0, 4137.436, 4169.744, 4104.615, 4118.462, 4129.231, 0, 0, []
1627568525.1647, 46, 0, 4162.051, 4171.282, 4109.744, 4141.538, 4157.949, 0, 0, []
1627568525.1726, 47, 0, 4186.667, 4174.359, 4125.641, 4151.795, 4173.846, 0, 0, []
1627568525.1804, 48, 0, 4185.641, 4168.718, 4123.077, 4134.872, 4163.59, 0, 0, []
1627568525.1883, 49, 0, 4172.821, 4151.795, 4112.821, 4117.949, 4149.231, 0, 0, []
1627568525.196, 50, 0, 4166.667, 4152.821, 4103.077, 4124.103, 4142.564, 0, 0, []
1627568525.2039, 51, 0, 4172.821, 4176.923, 4112.821, 4146.154, 4148.205, 0, 0, []
1627568525.2117, 52, 0, 4182.051, 4179.487, 4131.795, 4156.41, 4162.051, 0, 0, []
1627568525.2196, 53, 0, 4175.385, 4163.077, 4129.744, 4144.103, 4169.744, 0, 0, []
1627568525.2274, 54, 0, 4167.692, 4164.615, 4139.487, 4135.385, 4170.769, 0, 0, []
1627568525.2352, 55, 0, 4167.692, 4173.846, 4146.154, 4137.436, 4172.308, 0, 0, []
1627568525.243, 56, 0, 4167.179, 4175.897, 4127.179, 4134.359, 4170.256, 0, 0, []
1627568525.2509, 57, 0, 4174.359, 4183.59, 4123.59, 4141.538, 4169.744, 0, 0, []
1627568525.2587, 58, 0, 4182.564, 4175.897, 4126.154, 4151.795, 4175.385, 0, 0, []
1627568525.2666, 59, 0, 4171.795, 4150.769, 4112.821, 4142.051, 4167.179, 0, 0, []
1627568525.2743, 60, 0, 4165.641, 4156.923, 4108.205, 4137.436, 4158.974, 0, 0, []
1627568525.2821, 61, 0, 4171.282, 4170.256, 4126.154, 4136.923, 4160, 0, 0, []
1627568525.29, 62, 0, 4160, 4157.436, 4134.872, 4115.897, 4150.256, 0, 0, []
1627568525.2978, 63, 0, 4153.333, 4146.667, 4115.385, 4105.128, 4143.59, 0, 0, []
1627568525.3057, 64, 0, 4175.897, 4153.333, 4108.718, 4118.974, 4158.974, 450, 0, []
1627568525.3134, 65, 0, 4190.256, 4163.59, 4115.897, 4128.205, 4169.231, 450, 0, []
1627568525.3213, 66, 0, 4168.718, 4163.59, 4113.333, 4120.513, 4148.205, 16186, 0, []
1627568525.3291, 67, 0, 4151.282, 4154.872, 4121.026, 4116.41, 4122.564, 450, 0, []
1627568525.337, 68, 0, 4158.462, 4152.821, 4130.256, 4118.462, 4125.128, 16171, 0, []
1627568525.3448, 69, 0, 4155.385, 4158.462, 4128.205, 4109.744, 4130.769, 450, 0, []
1627568525.3526, 70, 0, 4152.821, 4154.872, 4121.026, 4098.974, 4129.231, 16096, 0, []
1627568525.3604, 71, 0, 4172.821, 4151.282, 4114.872, 4099.487, 4136.923, 450, 0, []
1627568525.3683, 72, 0, 4169.744, 4154.359, 4115.385, 4096.41, 4135.897, 450, 0, []
1627568525.3761, 73, 0, 4148.205, 4152.821, 4110.256, 4094.872, 4132.821, 16177, 0, []
1627568525.384, 74, 0, 4168.205, 4151.282, 4113.846, 4112.308, 4174.872, 450, 0, []
1627568525.3918, 75, 0, 4224.103, 4154.359, 4121.026, 4125.128, 4249.231, 16193, 0, []
1627568525.3995, 76, 0, 4281.538, 4164.615, 4120, 4123.59, 4321.538, 450, 0, []
1627568525.4075, 77, 0, 4329.744, 4170.256, 4125.641, 4130.256, 4390.256, 450, 0, []
1627568525.4154, 78, 0, 4361.026, 4165.641, 4133.333, 4145.128, 4447.692, 450, 0, []
1627568525.4234, 79, 0, 4389.744, 4172.821, 4149.744, 4159.487, 4484.615, 16193, 0, []
1627568525.4313, 80, 0, 4412.821, 4189.744, 4165.128, 4175.897, 4506.154, 450, 0, []
1627568525.4392, 81, 0, 4396.41, 4187.179, 4158.462, 4182.564, 4510.256, 450, 0, []
1627568525.4471, 82, 0, 4357.949, 4177.949, 4151.795, 4170.256, 4487.692, 450, 0, []
1627568525.455, 83, 0, 4337.949, 4185.641, 4145.641, 4150.769, 4452.308, 16193, 0, []
1627568525.4629, 84, 0, 4331.282, 4188.718, 4145.641, 4148.718, 4428.718, 450, 0, []
1627568525.4707, 85, 0, 4321.538, 4183.59, 4157.949, 4163.077, 4420, 450, 0, []
1627568525.4785, 86, 0, 4311.282, 4190.769, 4162.051, 4170.769, 4410.256, 450, 0, []
1627568525.4863, 87, 0, 4301.026, 4202.051, 4165.128, 4174.359, 4390.769, 16193, 0, []
1627568525.4942, 88, 0, 4274.359, 4195.897, 4152.308, 4166.667, 4353.846, 450, 0, []
1627568525.502, 89, 0, 4245.128, 4183.59, 4133.846, 4152.308, 4322.564, 450, 0, []
1627568525.5099, 90, 0, 4242.564, 4187.179, 4149.231, 4158.462, 4321.026, 450, 0, []
1627568525.5176, 91, 0, 4237.949, 4186.667, 4161.538, 4160, 4307.179, 16193, 0, []
1627568525.5255, 92, 0, 4212.308, 4178.462, 4154.359, 4138.974, 4269.744, 450, 0, []
1627568525.5333, 93, 0, 4213.333, 4190.256, 4155.385, 4145.641, 4266.667, 450, 0, []
1627568525.5412, 94, 0, 4245.641, 4209.231, 4175.385, 4186.667, 4300.513, 450, 0, []
1627568525.549, 95, 0, 4253.846, 4205.641, 4190.256, 4194.359, 4308.205, 16193, 0, []
1627568525.5568, 96, 0, 4233.333, 4191.795, 4175.385, 4171.282, 4284.615, 450, 0, []
1627568525.5646, 97, 0, 4212.821, 4186.667, 4159.487, 4154.872, 4262.051, 450, 0, []
1627568525.5726, 98, 0, 4202.051, 4188.205, 4151.282, 4142.051, 4245.641, 450, 0, []
1627568525.5805, 99, 0, 4190.256, 4182.051, 4135.897, 4125.128, 4229.744, 16193, 0, []
1627568525.5885, 100, 0, 4184.615, 4175.385, 4124.615, 4117.436, 4222.564, 450, 0, []
1627568525.5963, 101, 0, 4204.103, 4193.846, 4127.179, 4136.923, 4235.385, 450, 0, []
1627568525.6043, 102, 0, 4228.205, 4215.897, 4149.231, 4163.59, 4251.795, 450, 0, []
1627568525.6122, 103, 0, 4232.308, 4207.692, 4178.974, 4177.949, 4262.564, 16193, 0, []
1627568525.6202, 104, 0, 4238.974, 4206.154, 4192.308, 4193.333, 4275.385, 450, 0, []
1627568525.6281, 105, 0, 4256.41, 4225.641, 4196.41, 4207.179, 4283.59, 450, 0, []
1627568525.6358, 106, 0, 4248.718, 4221.026, 4177.949, 4191.282, 4264.103, 450, 0, []
1627568525.6437, 107, 0, 4217.436, 4190.256, 4149.744, 4158.974, 4226.154, 16193, 0, []
1627568525.6515, 108, 0, 4211.282, 4181.026, 4160.513, 4159.487, 4219.487, 450, 0, []
1627568525.6594, 109, 0, 4232.821, 4198.462, 4193.846, 4186.667, 4249.744, 450, 0, []
1627568525.6672, 110, 0, 4233.846, 4201.538, 4197.949, 4189.231, 4254.872, 450, 0, []
1627568525.6751, 111, 0, 4211.282, 4191.795, 4168.205, 4165.128, 4222.051, 16193, 0, []
1627568525.683, 112, 0, 4209.744, 4197.436, 4168.205, 4166.154, 4211.282, 450, 0, []
1627568525.691, 113, 0, 4221.538, 4201.538, 4177.949, 4176.923, 4218.974, 450, 0, []
1627568525.6989, 114, 0, 4215.897, 4185.641, 4147.179, 4164.615, 4206.667, 450, 0, []
1627568525.7069, 115, 0, 4207.179, 4173.846, 4142.564, 4168.205, 4198.974, 16193, 0, []
1627568525.7147, 116, 0, 4206.667, 4179.487, 4167.179, 4186.154, 4208.205, 450, 0, []
1627568525.7227, 117, 0, 4195.897, 4177.436, 4165.128, 4177.949, 4197.949, 450, 0, []
1627568525.7307, 118, 0, 4197.436, 4175.897, 4167.179, 4169.231, 4190.769, 450, 0, []
1627568525.7386, 119, 0, 4216.923, 4186.154, 4177.436, 4186.154, 4207.179, 16193, 0, []
1627568525.7466, 120, 0, 4208.205, 4183.077, 4172.308, 4184.103, 4195.897, 450, 0, []
1627568525.7545, 121, 0, 4181.538, 4173.846, 4162.564, 4168.718, 4164.103, 450, 0, []
1627568525.7624, 122, 0, 4167.179, 4168.205, 4151.795, 4169.744, 4151.282, 450, 0, []
1627568525.7703, 123, 0, 4150.769, 4155.385, 4134.872, 4156.923, 4137.436, 16193, 0, []
1627568525.7783, 124, 0, 4155.385, 4157.949, 4135.385, 4148.205, 4138.974, 450, 0, []
1627568525.7862, 125, 0, 4197.436, 4181.538, 4175.385, 4181.026, 4180, 450, 0, []
1627568525.7941, 126, 0, 4215.385, 4184.103, 4200.513, 4207.692, 4201.026, 450, 0, []
1627568525.802, 127, 0, 4198.974, 4173.333, 4186.154, 4196.41, 4186.154, 16193, 0, []
1627568525.81, 128, 0, 4203.59, 4185.641, 4177.436, 4181.026, 4181.026, 450, 0, []
1627568525.8179, 0, 0, 4204.615, 4196.41, 4166.154, 4169.744, 4170.769, 450, 0, []
1627568525.8259, 1, 0, 4183.59, 4190.769, 4152.308, 4157.436, 4152.821, 450, 0, []
1627568525.8338, 2, 0, 4186.154, 4182.564, 4147.692, 4165.641, 4161.538, 16186, 0, []
1627568525.8418, 3, 1, 4184.444, 4179.943, 4150.028, 4167.407, 4160.969, 450, 0, []
1627568525.8497, 4, 1, 4182.735, 4177.322, 4152.365, 4169.174, 4160.399, 16171, 0, []
1627568525.8576, 5, 1, 4181.026, 4174.701, 4154.701, 4170.94, 4159.829, 450, 0, []
1627568525.8655, 6, 1, 4179.316, 4172.08, 4157.037, 4172.707, 4159.259, 16096, 0, []
1627568525.8733, 7, 1, 4177.607, 4169.459, 4159.373, 4174.473, 4158.689, 450, 0, []
1627568525.8812, 8, 1, 4175.897, 4166.838, 4161.709, 4176.239, 4158.12, 450, 0, []
1627568525.8891, 9, 1, 4174.188, 4164.217, 4164.046, 4178.006, 4157.55, 16177, 0, []
1627568525.897, 10, 1, 4172.479, 4161.595, 4166.382, 4179.772, 4156.98, 450, 0, []
1627568525.9049, 11, 0, 4170.769, 4158.974, 4168.718, 4181.538, 4156.41, 16194, 0, []
1627568525.9127, 12, 0, 4192.308, 4167.179, 4181.538, 4201.026, 4169.231, 450, 0, []
1627568525.9206, 13, 0, 4205.641, 4182.051, 4178.974, 4204.103, 4178.462, 450, 0, []
1627568525.9284, 14, 0, 4178.462, 4188.718, 4168.718, 4170.769, 4150.256, 450, 0, []
1627568525.9363, 15, 0, 4164.615, 4197.436, 4157.436, 4157.949, 4129.744, 16194, 0, []
1627568525.9441, 16, 0, 4181.026, 4203.077, 4162.051, 4178.462, 4144.615, 0, 0, []
1627568525.9519, 17, 0, 4186.154, 4198.462, 4168.718, 4187.692, 4156.923, 0, 0, []
1627568525.9597, 18, 0, 4182.051, 4193.333, 4158.462, 4186.667, 4152.821, 0, 0, []
1627568525.9676, 19, 0, 4185.641, 4187.179, 4157.949, 4194.872, 4156.41, 0, 0, []
1627568525.9754, 20, 0, 4175.385, 4179.487, 4140, 4182.564, 4152.308, 0, 0, []
1627568525.9833, 21, 0, 4164.615, 4183.59, 4123.077, 4158.462, 4134.359, 0, 0, []
1627568525.991, 22, 0, 4184.615, 4225.128, 4160, 4176.41, 4147.692, 0, 0, []
1627568525.9989, 23, 0, 4195.385, 4247.179, 4177.436, 4194.872, 4168.718, 0, 0, []
1627568526.0067, 24, 0, 4186.667, 4202.051, 4162.564, 4180, 4165.128, 0, 0, []
1627568526.0146, 25, 0, 4201.538, 4174.872, 4175.385, 4189.231, 4169.744, 0, 0, []
1627568526.0224, 26, 0, 4212.308, 4197.436, 4185.128, 4206.154, 4177.949, 0, 0, []
1627568526.0302, 27, 0, 4200, 4207.179, 4165.128, 4192.821, 4168.205, 0, 0, []
1627568526.038, 28, 0, 4196.923, 4200, 4161.026, 4184.615, 4166.154, 0, 0, []
1627568526.0459, 29, 0, 4202.051, 4200, 4176.923, 4183.59, 4171.795, 0, 0, []
1627568526.0537, 30, 0, 4199.487, 4199.487, 4155.897, 4167.692, 4168.205, 0, 0, []
1627568526.0615, 31, 0, 4197.949, 4195.897, 4136.41, 4170.769, 4168.205, 0, 0, []
1627568526.0693, 32, 0, 4199.487, 4190.256, 4165.641, 4189.744, 4171.282, 0, 0, []
1627568526.0772, 33, 0, 4202.564, 4197.436, 4178.462, 4188.205, 4169.744, 0, 0, []
1627568526.085, 34, 0, 4217.949, 4221.538, 4179.487, 4191.282, 4179.487, 0, 0, []
1627568526.0929, 35, 0, 4223.59, 4217.436, 4183.077, 4205.128, 4189.231, 0, 0, []
1627568526.1007, 36, 0, 4208.205, 4198.462, 4165.641, 4197.949, 4182.564, 0, 0, []
1627568526.1086, 37, 0, 4207.692, 4212.821, 4155.385, 4190.256, 4181.026, 0, 0, []
1627568526.1163, 38, 0, 4217.436, 4214.359, 4154.872, 4188.205, 4183.077, 0, 0, []
1627568526.1242, 39, 0, 4211.795, 4189.744, 4154.872, 4171.282, 4178.974, 0, 0, []
1627568526.132, 40, 0, 4223.077, 4209.231, 4152.308, 4170.256, 4196.923, 0, 0, []
1627568526.1399, 41, 0, 4258.974, 4235.385, 4156.41, 4197.436, 4231.282, 0, 0, []
1627568526.1477, 42, 0, 4268.205, 4209.744, 4169.744, 4203.59, 4235.897, 0, 0, []
1627568526.1555, 43, 0, 4263.077, 4209.231, 4169.744, 4197.949, 4231.795, 0, 0, []
1627568526.1633, 44, 0, 4290.769, 4247.179, 4178.974, 4218.462, 4259.487, 0, 0, []
1627568526.1712, 45, 0, 4312.821, 4242.051, 4180, 4220, 4276.923, 0, 0, []
1627568526.179, 46, 0, 4298.974, 4206.154, 4150.256, 4185.128, 4259.487, 0, 0, []
1627568526.1868, 47, 0, 4286.667, 4210.769, 4145.128, 4177.949, 4252.308, 0, 0, []
1627568526.1946, 48, 0, 4294.872, 4229.744, 4166.154, 4208.205, 4267.692, 0, 0, []
1627568526.2024, 49, 0, 4295.385, 4238.462, 4175.897, 4210.769, 4269.231, 0, 0, []
1627568526.2103, 50, 0, 4288.718, 4251.282, 4173.846, 4186.154, 4260.513, 0, 0, []
1627568526.2181, 51, 0, 4299.487, 4244.103, 4179.487, 4194.359, 4273.333, 0, 0, []
1627568526.226, 52, 0, 4315.897, 4229.744, 4196.923, 4222.051, 4295.897, 0, 0, []
1627568526.2337, 53, 0, 4315.385, 4240, 4200, 4222.564, 4300, 0, 0, []
1627568526.2416, 54, 0, 4313.333, 4257.436, 4190.769, 4213.846, 4295.385, 0, 0, []
1627568526.2494, 55, 0, 4312.821, 4252.308, 4182.564, 4221.538, 4293.333, 0, 0, []
1627568526.2573, 56, 0, 4286.154, 4233.333, 4167.179, 4204.103, 4265.128, 0, 0, []
1627568526.2651, 57, 0, 4256.41, 4230.769, 4168.205, 4168.718, 4231.282, 0, 0, []
1627568526.2729, 58, 0, 4248.718, 4233.333, 4165.641, 4171.282, 4226.667, 0, 0, []
1627568526.2807, 59, 0, 4238.462, 4223.077, 4153.846, 4184.103, 4215.385, 0, 0, []
1627568526.2886, 60, 0, 4223.59, 4209.744, 4160.513, 4183.077, 4196.923, 0, 0, []
1627568526.2964, 61, 0, 4217.436, 4203.59, 4157.436, 4180, 4201.026, 0, 0, []
1627568526.3043, 62, 0, 4215.385, 4200, 4149.744, 4169.744, 4201.538, 0, 0, []
1627568526.312, 63, 0, 4209.744, 4201.538, 4151.795, 4158.462, 4189.231, 0, 0, []
1627568526.3199, 64, 0, 4213.333, 4211.795, 4157.436, 4170.256, 4197.949, 450, 0, []
1627568526.3277, 65, 0, 4227.179, 4220, 4155.385, 4175.897, 4207.179, 450, 0, []
1627568526.3356, 66, 0, 4234.872, 4220, 4148.718, 4166.667, 4199.487, 16186, 0, []
1627568526.3434, 67, 0, 4235.897, 4214.359, 4165.641, 4177.436, 4208.718, 450, 0, []
1627568526.3512, 68, 0, 4231.282, 4207.179, 4163.077, 4183.077, 4216.923, 16165, 0, []
1627568526.359, 69, 0, 4221.538, 4203.59, 4136.923, 4162.051, 4202.051, 450, 0, []
1627568526.3668, 70, 0, 4216.41, 4203.077, 4137.949, 4144.615, 4191.795, 16090, 0, []
1627568526.3747, 71, 0, 4216.923, 4198.974, 4143.077, 4145.641, 4194.359, 450, 0, []
1627568526.3825, 72, 0, 4215.897, 4201.026, 4148.205, 4150.256, 4196.923, 450, 0, []
1627568526.3903, 73, 0, 4223.077, 4214.359, 4157.949, 4153.333, 4202.051, 16174, 0, []
1627568526.3981, 74, 0, 4226.154, 4209.231, 4152.308, 4147.692, 4202.564, 450, 0, []
1627568526.406, 75, 0, 4205.128, 4181.538, 4143.59, 4127.692, 4189.744, 16194, 0, []
1627568526.4138, 76, 0, 4192.821, 4176.923, 4138.974, 4115.385, 4182.564, 450, 0, []
1627568526.4217, 77, 0, 4203.077, 4194.872, 4144.103, 4125.641, 4187.692, 450, 0, []
1627568526.4294, 78, 0, 4204.103, 4193.846, 4147.692, 4143.077, 4190.256, 450, 0, []
1627568526.4373, 79, 0, 4197.949, 4178.974, 4136.923, 4136.923, 4187.179, 16194, 0, []
1627568526.4451, 80, 0, 4201.026, 4181.538, 4130.769, 4117.949, 4183.59, 450, 0, []
1627568526.453, 81, 0, 4196.923, 4186.667, 4123.59, 4119.487, 4177.949, 450, 0, []
1627568526.4608, 82, 0, 4182.564, 4173.846, 4116.923, 4127.692, 4164.615, 450, 0, []
1627568526.4686, 83, 0, 4188.205, 4172.821, 4122.051, 4125.128, 4164.103, 16194, 0, []
1627568526.4764, 84, 0, 4201.538, 4189.231, 4124.615, 4126.154, 4178.462, 450, 0, []
1627568526.4843, 85, 0, 4199.487, 4187.692, 4129.231, 4133.333, 4183.077, 450, 0, []
1627568526.4921, 86, 0, 4202.564, 4183.077, 4140.513, 4146.154, 4183.59, 450, 0, []
1627568526.5, 87, 0, 4213.333, 4195.385, 4153.846, 4152.821, 4185.641, 16194, 0, []
1627568526.5077, 88, 0, 4213.846, 4195.385, 4149.744, 4142.051, 4186.667, 450, 0, []
1627568526.5155, 89, 0, 4211.795, 4176.41, 4126.154, 4135.385, 4192.308, 450, 0, []
1627568526.5234, 90, 0, 4212.821, 4167.692, 4130.769, 4133.333, 4195.897, 450, 0, []
1627568526.5312, 91, 0, 4217.436, 4171.795, 4150.256, 4128.205, 4199.487, 16194, 0, []
1627568526.5391, 92, 0, 4239.487, 4176.41, 4152.821, 4128.718, 4220, 450, 0, []
1627568526.5468, 93, 0, 4274.359, 4186.154, 4149.231, 4138.974, 4253.846, 450, 0, []
1627568526.5547, 94, 0, 4306.667, 4193.333, 4139.487, 4145.128, 4282.564, 450, 0, []
1627568526.5625, 95, 0, 4331.282, 4188.718, 4141.026, 4143.59, 4309.744, 16194, 0, []
1627568526.5704, 96, 0, 4343.077, 4183.077, 4144.615, 4141.538, 4337.436, 450, 0, []
1627568526.5782, 97, 0, 4356.41, 4187.692, 4141.026, 4135.897, 4354.872, 450, 0, []
1627568526.586, 98, 0, 4377.436, 4183.59, 4143.077, 4135.385, 4367.179, 450, 0, []
1627568526.5938, 99, 0, 4386.667, 4186.154, 4150.769, 4151.282, 4380, 16194, 0, []
1627568526.6017, 100, 0, 4367.692, 4201.538, 4161.026, 4157.436, 4371.795, 450, 0, []
1627568526.6095, 101, 0, 4323.59, 4188.718, 4147.179, 4132.821, 4327.692, 450, 0, []
1627568526.6174, 102, 0, 4289.231, 4166.667, 4133.333, 4111.282, 4290.256, 450, 0, []
1627568526.6251, 103, 0, 4292.308, 4180, 4153.333, 4134.359, 4297.949, 16194, 0, []
1627568526.633, 104, 0, 4293.846, 4198.462, 4158.974, 4156.41, 4297.949, 450, 0, []
1627568526.6408, 105, 0, 4263.59, 4180, 4147.692, 4140, 4263.077, 450, 0, []
1627568526.6487, 106, 0, 4241.538, 4163.59, 4144.615, 4124.103, 4235.897, 450, 0, []
1627568526.6565, 107, 0, 4236.923, 4185.641, 4144.103, 4134.359, 4230.769, 16194, 0, []
1627568526.6643, 108, 0, 4241.026, 4200, 4148.718, 4144.103, 4234.359, 450, 0, []
1627568526.6721, 109, 0, 4232.308, 4184.103, 4141.026, 4124.103, 4229.744, 450, 0, []
1627568526.6799, 110, 0, 4225.128, 4177.436, 4140, 4118.462, 4220.513, 450, 0, []
1627568526.6878, 111, 0, 4288.205, 4190.769, 4164.615, 4137.949, 4238.974, 16194, 0, []
1627568526.6956, 112, 0, 4305.128, 4207.692, 4181.026, 4138.974, 4253.846, 450, 0, []
1627568526.7035, 113, 0, 4236.41, 4201.026, 4167.692, 4144.615, 4227.692, 450, 0, []
1627568526.7112, 114, 0, 4234.359, 4169.231, 4150.256, 4163.077, 4210.256, 450, 0, []
1627568526.7191, 115, 0, 4293.846, 4168.205, 4173.333, 4167.179, 4245.128, 16194, 0, []
1627568526.7269, 116, 0, 4279.487, 4171.282, 4175.897, 4155.385, 4254.872, 450, 0, []
1627568526.7348, 117, 0, 4261.538, 4163.077, 4139.487, 4119.487, 4224.615, 450, 0, []
1627568526.7426, 118, 0, 4285.641, 4180, 4136.923, 4088.718, 4213.333, 450, 0, []
1627568526.7504, 119, 0, 4277.949, 4170.256, 4133.846, 4121.026, 4203.59, 16194, 0, []
1627568526.7582, 120, 0, 4276.41, 4123.59, 4113.846, 4152.308, 4204.615, 450, 0, []
1627568526.7661, 121, 0, 4277.436, 4142.051, 4128.718, 4111.282, 4235.385, 450, 0, []
1627568526.7739, 122, 0, 4261.026, 4188.205, 4155.897, 4091.795, 4244.103, 450, 0, []
1627568526.7818, 123, 0, 4284.615, 4172.821, 4160, 4130.769, 4226.667, 16194, 0, []
1627568526.7895, 124, 0, 4248.205, 4165.641, 4134.359, 4145.641, 4201.026, 450, 0, []
1627568526.7974, 125, 0, 4210.769, 4186.154, 4136.923, 4141.026, 4203.59, 450, 0, []
1627568526.8052, 126, 0, 4294.359, 4161.026, 4179.487, 4156.41, 4242.564, 450, 0, []
1627568526.8131, 127, 0, 4304.615, 4145.128, 4171.282, 4176.41, 4244.615, 16194, 0, []
1627568526.8209, 128, 0, 4180.513, 4195.897, 4126.667, 4175.897, 4194.872, 450, 0, []
1627568526.8286, 0, 0, 4167.179, 4220, 4130.769, 4160, 4184.615, 450, 0, []
1627568526.8365, 1, 0, 4275.385, 4171.795, 4155.385, 4180.513, 4225.641, 450, 0, []
1627568526.8443, 2, 0, 4309.231, 4174.872, 4146.154, 4220.513, 4236.923, 16180, 0, []
1627568526.8522, 3, 0, 4254.359, 4220.513, 4124.615, 4215.897, 4217.436, 450, 0, []
1627568526.86, 4, 0, 4198.462, 4182.051, 4106.154, 4176.923, 4169.231, 16177, 0, []
1627568526.8678, 5, 0, 4170.769, 4131.795, 4083.59, 4140.513, 4123.59, 450, 0, []
1627568526.8756, 6, 0, 4195.385, 4151.282, 4100, 4138.462, 4157.436, 16096, 0, []
1627568526.8835, 7, 0, 4209.231, 4174.359, 4141.026, 4176.41, 4199.487, 450, 0, []
1627568526.8913, 8, 0, 4189.231, 4176.41, 4128.718, 4200.513, 4168.718, 450, 0, []
1627568526.8992, 9, 0, 4177.949, 4184.615, 4105.641, 4191.282, 4139.487, 16182, 0, []
1627568526.9069, 10, 0, 4187.179, 4190.769, 4121.026, 4195.897, 4164.103, 450, 0, []
1627568526.9148, 11, 0, 4190.256, 4181.026, 4119.487, 4202.564, 4171.282, 16142, 0, []
1627568526.9226, 12, 0, 4210.256, 4174.359, 4104.103, 4184.615, 4171.795, 450, 0, []
1627568526.9305, 13, 0, 4281.026, 4182.564, 4106.154, 4185.128, 4220, 450, 0, []
1627568526.9383, 14, 0, 4336.41, 4185.128, 4121.538, 4199.487, 4268.205, 450, 0, []
1627568526.9461, 15, 0, 4365.641, 4187.179, 4126.667, 4193.846, 4293.846, 16142, 0, []
1627568526.9539, 16, 0, 4400.513, 4193.333, 4111.282, 4170.256, 4302.051, 0, 0, []
1627568526.9618, 17, 0, 4407.692, 4190.769, 4103.59, 4149.744, 4289.231, 0, 0, []
1627568526.9696, 18, 0, 4393.846, 4188.718, 4100.513, 4146.154, 4281.026, 0, 0, []
1627568526.9774, 19, 0, 4405.641, 4207.692, 4107.179, 4150.769, 4289.744, 0, 0, []
1627568526.9852, 20, 0, 4417.436, 4229.231, 4124.103, 4160.513, 4290.256, 0, 0, []
1627568526.993, 21, 0, 4393.333, 4227.692, 4129.231, 4172.308, 4271.795, 0, 0, []
1627568527.0009, 22, 0, 4345.641, 4205.641, 4121.538, 4163.077, 4235.897, 0, 0, []
1627568527.0087, 23, 0, 4312.308, 4197.949, 4108.718, 4143.59, 4205.128, 0, 0, []
1627568527.0166, 24, 0, 4301.538, 4208.205, 4111.795, 4157.436, 4201.026, 0, 0, []
1627568527.0243, 25, 0, 4275.897, 4206.667, 4121.026, 4176.41, 4187.179, 0, 0, []
1627568527.0322, 26, 0, 4235.385, 4198.462, 4116.923, 4156.923, 4153.846, 0, 0, []
1627568527.04, 27, 0, 4226.154, 4201.026, 4128.718, 4155.897, 4150.256, 0, 0, []
1627568527.0479, 28, 0, 4240, 4205.128, 4149.231, 4194.359, 4172.308, 0, 0, []
1627568527.0557, 29, 0, 4242.051, 4197.436, 4150.256, 4198.974, 4171.282, 0, 0, []
1627568527.0635, 30, 0, 4233.333, 4188.718, 4142.051, 4169.744, 4147.692, 0, 0, []
1627568527.0713, 31, 0, 4225.641, 4192.821, 4135.385, 4169.231, 4141.026, 0, 0, []
1627568527.0792, 32, 0, 4207.179, 4200.513, 4135.897, 4172.308, 4138.462, 0, 0, []
1627568527.087, 33, 0, 4190.769, 4200, 4136.923, 4169.744, 4127.692, 0, 0, []
1627568527.0949, 34, 0, 4206.667, 4200.513, 4140, 4181.538, 4126.667, 0, 0, []
1627568527.1026, 35, 0, 4210.769, 4205.641, 4131.282, 4178.462, 4120.513, 0, 0, []
1627568527.1105, 36, 0, 4167.692, 4190.769, 4100, 4160, 4100.513, 0, 0, []
1627568527.1183, 37, 0, 4142.564, 4177.436, 4100, 4156.923, 4090.256, 0, 0, []
1627568527.1262, 38, 0, 4163.59, 4198.462, 4131.282, 4183.077, 4101.026, 0, 0, []
1627568527.134, 39, 0, 4162.564, 4200, 4117.436, 4186.667, 4098.462, 0, 0, []
1627568527.1417, 40, 0, 4136.923, 4171.795, 4085.641, 4146.667, 4082.051, 0, 0, []
1627568527.1496, 41, 0, 4153.846, 4181.026, 4105.128, 4137.949, 4092.308, 0, 0, []
1627568527.1574, 42, 0, 4182.564, 4207.692, 4148.718, 4166.154, 4114.872, 0, 0, []
1627568527.1653, 43, 0, 4177.436, 4192.821, 4145.641, 4169.231, 4115.897, 0, 0, []
1627568527.1731, 44, 0, 4158.462, 4180, 4116.41, 4148.718, 4099.487, 0, 0, []
1627568527.1809, 45, 0, 4148.718, 4189.231, 4118.974, 4151.795, 4091.795, 0, 0, []
1627568527.1887, 46, 0, 4149.231, 4186.154, 4123.59, 4168.205, 4094.359, 0, 0, []
1627568527.1966, 47, 0, 4155.897, 4181.026, 4125.128, 4173.333, 4093.333, 0, 0, []
1627568527.2044, 48, 0, 4144.615, 4180, 4125.641, 4154.872, 4077.949, 0, 0, []
1627568527.2123, 49, 0, 4122.564, 4171.282, 4115.385, 4134.872, 4069.744, 0, 0, []
1627568527.22, 50, 0, 4117.949, 4167.179, 4109.231, 4145.641, 4074.872, 0, 0, []
1627568527.2279, 51, 0, 4121.026, 4181.538, 4094.872, 4144.103, 4067.692, 0, 0, []
1627568527.2357, 52, 0, 4116.923, 4196.41, 4095.385, 4124.615, 4060.513, 0, 0, []
1627568527.2436, 53, 0, 4101.538, 4186.667, 4103.59, 4115.897, 4054.872, 0, 0, []
1627568527.2514, 54, 0, 4105.128, 4179.487, 4105.128, 4124.615, 4057.436, 0, 0, []
1627568527.2592, 55, 0, 4129.231, 4191.282, 4118.974, 4141.026, 4078.462, 0, 0, []
1627568527.267, 56, 0, 4120, 4183.59, 4102.564, 4126.667, 4070.256, 0, 0, []
1627568527.2749, 57, 0, 4100, 4166.154, 4081.538, 4113.333, 4052.308, 0, 0, []
1627568527.2827, 58, 0, 4116.41, 4179.487, 4100, 4140.513, 4073.846, 0, 0, []
1627568527.2905, 59, 0, 4131.282, 4192.308, 4104.103, 4160.513, 4091.282, 0, 0, []
1627568527.2984, 60, 0, 4110.769, 4175.385, 4084.103, 4130.769, 4069.744, 0, 0, []
1627568527.3061, 61, 0, 4101.538, 4164.615, 4076.41, 4100, 4062.051, 0, 0, []
1627568527.314, 62, 0, 4120, 4176.923, 4090.256, 4114.872, 4088.205, 0, 0, []
1627568527.3218, 63, 0, 4130.769, 4182.051, 4102.051, 4134.872, 4098.462, 0, 0, []
1627568527.3297, 64, 0, 4121.538, 4172.308, 4086.154, 4121.538, 4077.436, 450, 0, []
1627568527.3375, 65, 0, 4115.897, 4170.256, 4079.487, 4109.744, 4067.179, 450, 0, []
1627568527.3453, 66, 0, 4127.692, 4181.026, 4095.897, 4126.154, 4082.564, 16188, 0, []
1627568527.3531, 67, 0, 4127.179, 4176.41, 4095.897, 4127.692, 4079.487, 450, 0, []
1627568527.361, 68, 0, 4115.897, 4167.692, 4094.872, 4114.359, 4067.692, 16174, 0, []
1627568527.3688, 69, 0, 4129.744, 4181.026, 4106.154, 4128.718, 4085.641, 450, 0, []
1627568527.3767, 70, 0, 4139.487, 4187.692, 4109.744, 4127.692, 4092.821, 16094, 0, []
1627568527.3844, 71, 0, 4122.051, 4164.615, 4096.923, 4094.359, 4070.769, 450, 0, []
1627568527.3923, 72, 0, 4106.667, 4151.282, 4082.051, 4085.128, 4061.538, 450, 0, []
1627568527.4001, 73, 0, 4109.744, 4168.205, 4086.667, 4105.641, 4073.333, 16177, 0, []
1627568527.408, 74, 0, 4106.667, 4173.333, 4086.667, 4113.333, 4073.333, 450, 0, []
1627568527.4158, 75, 0, 4099.487, 4165.128, 4086.154, 4105.641, 4066.154, 16189, 0, []
1627568527.4236, 76, 0, 4107.692, 4175.385, 4092.821, 4107.179, 4068.718, 450, 0, []
1627568527.4314, 77, 0, 4119.487, 4187.179, 4093.846, 4117.436, 4078.462, 450, 0, []
1627568527.4393, 78, 0, 4126.667, 4186.154, 4104.615, 4127.692, 4090.769, 450, 0, []
1627568527.4471, 79, 0, 4124.615, 4187.179, 4106.154, 4129.231, 4093.846, 16189, 0, []
1627568527.4549, 80, 0, 4112.308, 4187.692, 4092.821, 4118.974, 4077.949, 450, 0, []
1627568527.4627, 81, 0, 4103.077, 4182.564, 4081.026, 4110.256, 4062.051, 450, 0, []
1627568527.4705, 82, 0, 4104.615, 4189.231, 4077.949, 4112.308, 4069.744, 450, 0, []
1627568527.4784, 83, 0, 4111.282, 4197.949, 4096.923, 4115.385, 4080.513, 16189, 0, []
1627568527.4862, 84, 0, 4127.179, 4203.077, 4119.487, 4129.231, 4092.308, 450, 0, []
1627568527.4941, 85, 0, 4142.564, 4217.949, 4132.821, 4142.051, 4108.718, 450, 0, []
1627568527.5018, 86, 0, 4135.385, 4227.179, 4132.308, 4131.282, 4104.103, 450, 0, []
1627568527.5097, 87, 0, 4126.154, 4215.385, 4116.923, 4117.436, 4090.256, 16189, 0, []
1627568527.5175, 88, 0, 4126.154, 4200.513, 4116.923, 4120.513, 4088.205, 450, 0, []
1627568527.5254, 89, 0, 4116.923, 4200, 4115.897, 4121.538, 4083.077, 450, 0, []
1627568527.5332, 90, 0, 4101.538, 4200, 4103.077, 4108.718, 4067.179, 450, 0, []
1627568527.541, 91, 0, 4105.128, 4201.538, 4097.436, 4111.795, 4073.846, 16189, 0, []
1627568527.5488, 92, 0, 4128.718, 4216.923, 4100, 4134.872, 4096.923, 450, 0, []
1627568527.5567, 93, 0, 4137.436, 4223.59, 4113.846, 4147.179, 4101.538, 450, 0, []
1627568527.5645, 94, 0, 4120.513, 4205.641, 4103.59, 4131.795, 4088.718, 450, 0, []
1627568527.5724, 95, 0, 4110.769, 4193.333, 4087.179, 4109.744, 4080, 16189, 0, []
1627568527.5801, 96, 0, 4124.103, 4201.538, 4105.641, 4113.846, 4087.179, 450, 0, []
1627568527.588, 97, 0, 4128.718, 4206.154, 4110.769, 4124.103, 4092.308, 450, 0, []
1627568527.5958, 98, 0, 4124.615, 4202.564, 4106.154, 4121.538, 4089.744, 450, 0, []
1627568527.6036, 99, 0, 4132.308, 4208.205, 4110.769, 4117.949, 4092.821, 16189, 0, []
1627568527.6115, 100, 0, 4140, 4223.59, 4116.923, 4128.718, 4102.564, 450, 0, []
1627568527.6192, 101, 0, 4145.641, 4229.231, 4122.051, 4139.487, 4114.359, 450, 0, []
1627568527.6271, 102, 0, 4144.103, 4210.256, 4115.385, 4131.795, 4112.308, 450, 0, []
1627568527.6349, 103, 0, 4126.154, 4191.795, 4114.359, 4116.923, 4092.308, 16189, 0, []
1627568527.6428, 104, 0, 4112.821, 4206.667, 4110.256, 4116.41, 4080.513, 450, 0, []
1627568527.6506, 105, 0, 4117.949, 4218.462, 4105.641, 4131.282, 4091.282, 450, 0, []
1627568527.6584, 106, 0, 4125.641, 4203.59, 4111.795, 4135.897, 4097.949, 450, 0, []
1627568527.6662, 107, 0, 4132.821, 4205.128, 4110.256, 4128.205, 4097.949, 16189, 0, []
1627568527.6741, 108, 0, 4136.923, 4212.821, 4114.872, 4123.59, 4104.103, 450, 0, []
1627568527.6819, 109, 0, 4128.718, 4208.718, 4121.538, 4124.615, 4108.205, 450, 0, []
1627568527.6898, 110, 0, 4123.077, 4212.308, 4118.974, 4126.154, 4105.641, 450, 0, []
1627568527.6975, 111, 0, 4127.179, 4216.923, 4117.949, 4123.59, 4100, 16189, 0, []
1627568527.7054, 112, 0, 4124.615, 4202.564, 4102.564, 4119.487, 4093.333, 450, 0, []
1627568527.7132, 113, 0, 4115.385, 4191.282, 4090.256, 4113.846, 4091.282, 450, 0, []
1627568527.7211, 114, 0, 4130.256, 4208.718, 4104.615, 4125.128, 4105.128, 450, 0, []
1627568527.7289, 115, 0, 4166.154, 4231.795, 4121.538, 4152.821, 4129.231, 16189, 0, []
1627568527.7367, 116, 0, 4173.846, 4230.769, 4129.744, 4160.513, 4132.308, 450, 0, []
1627568527.7445, 117, 0, 4156.923, 4217.949, 4123.077, 4145.641, 4128.718, 450, 0, []
1627568527.7523, 118, 0, 4156.41, 4220, 4114.359, 4137.436, 4136.923, 450, 0, []
1627568527.7602, 119, 0, 4157.949, 4223.077, 4110.769, 4140.513, 4132.821, 16189, 0, []
1627568527.768, 120, 0, 4142.564, 4213.333, 4106.667, 4137.436, 4115.897, 450, 0, []
1627568527.7758, 121, 0, 4133.846, 4204.103, 4111.282, 4134.872, 4108.718, 450, 0, []
1627568527.7836, 122, 0, 4137.949, 4204.615, 4108.205, 4136.923, 4109.744, 450, 0, []
1627568527.7915, 123, 0, 4145.128, 4210.256, 4111.795, 4134.359, 4113.333, 16189, 0, []
1627568527.7993, 124, 0, 4152.821, 4205.641, 4120, 4135.897, 4122.051, 450, 0, []
1627568527.8072, 125, 0, 4151.795, 4200.513, 4107.179, 4146.667, 4121.538, 450, 0, []
1627568527.8149, 126, 0, 4150.769, 4213.333, 4108.205, 4154.872, 4119.487, 450, 0, []
1627568527.8228, 127, 0, 4163.077, 4224.615, 4118.462, 4156.923, 4133.333, 16189, 0, []
1627568527.8306, 128, 0, 4173.333, 4219.487, 4121.538, 4159.487, 4142.564, 450, 0, []
1627568527.8385, 0, 0, 4167.179, 4216.41, 4118.462, 4154.872, 4132.821, 450, 0, []
1627568527.8463, 1, 0, 4162.051, 4215.385, 4106.667, 4145.128, 4126.154, 450, 0, []
1627568527.8541, 2, 0, 4175.897, 4214.872, 4108.205, 4139.487, 4143.077, 16186, 0, []
1627568527.8619, 3, 0, 4191.795, 4218.974, 4107.179, 4141.538, 4162.564, 450, 0, []
1627568527.8698, 4, 0, 4192.308, 4214.872, 4100, 4144.103, 4161.538, 16169, 0, []
1627568527.8776, 5, 0, 4189.231, 4211.282, 4107.179, 4143.59, 4150.769, 450, 0, []
1627568527.8855, 6, 0, 4195.385, 4217.949, 4108.205, 4139.487, 4153.333, 16096, 0, []
1627568527.8933, 7, 0, 4218.974, 4215.385, 4106.667, 4137.949, 4190.769, 450, 0, []
1627568527.9011, 8, 0, 4252.308, 4209.744, 4104.615, 4140.513, 4238.974, 450, 0, []
1627568527.9089, 9, 0, 4283.077, 4215.897, 4102.051, 4132.821, 4268.718, 16175, 0, []
1627568527.9167, 10, 0, 4325.641, 4215.897, 4110.256, 4123.59, 4310.256, 450, 0, []
1627568527.9246, 11, 0, 4383.077, 4204.615, 4109.231, 4131.282, 4373.846, 16196, 0, []
1627568527.9324, 12, 0, 4409.231, 4199.487, 4106.667, 4127.179, 4407.692, 450, 0, []
1627568527.9402, 13, 0, 4404.103, 4202.564, 4106.667, 4118.462, 4416.923, 450, 0, []
1627568527.948, 14, 0, 4401.538, 4207.692, 4109.231, 4142.564, 4436.41, 450, 0, []
1627568527.9559, 15, 0, 4369.744, 4206.667, 4121.538, 4163.59, 4418.974, 16196, 0, []
1627568527.9637, 16, 0, 4297.949, 4198.462, 4117.436, 4143.59, 4354.359, 0, 0, []
1627568527.9716, 17, 0, 4230.256, 4197.436, 4109.231, 4128.205, 4296.41, 0, 0, []
1627568527.9793, 18, 0, 4179.487, 4203.59, 4111.795, 4141.026, 4253.846, 0, 0, []
1627568527.9872, 19, 0, 4137.949, 4198.974, 4109.744, 4149.744, 4211.795, 0, 0, []
1627568527.995, 20, 0, 4106.154, 4196.923, 4113.333, 4151.795, 4181.538, 0, 0, []
1627568528.0029, 21, 0, 4082.564, 4202.564, 4110.256, 4153.846, 4162.051, 0, 0, []
1627568528.0107, 22, 0, 4066.154, 4192.308, 4108.718, 4150.256, 4143.077, 0, 0, []
1627568528.0185, 23, 0, 4065.641, 4181.026, 4109.744, 4142.564, 4136.41, 0, 0, []
1627568528.0263, 24, 0, 4073.333, 4187.179, 4102.051, 4135.897, 4138.974, 0, 0, []
1627568528.0342, 25, 0, 4081.538, 4200, 4111.795, 4137.436, 4143.59, 0, 0, []
1627568528.042, 26, 0, 4082.564, 4206.667, 4122.564, 4142.564, 4142.564, 0, 0, []
1627568528.0499, 27, 0, 4066.667, 4195.385, 4111.795, 4132.821, 4128.205, 0, 0, []
1627568528.0576, 28, 0, 4044.615, 4172.821, 4091.795, 4110.769, 4107.692, 0, 0, []
1627568528.0654, 29, 0, 4028.205, 4162.564, 4073.846, 4093.333, 4089.231, 0, 0, []
1627568528.0733, 30, 0, 4027.692, 4164.103, 4078.974, 4095.385, 4088.718, 0, 0, []
1627568528.0811, 31, 0, 4041.538, 4169.744, 4085.641, 4112.821, 4103.077, 0, 0, []
1627568528.089, 32, 0, 4054.359, 4180.513, 4081.538, 4127.692, 4108.718, 0, 0, []
1627568528.0967, 33, 0, 4058.974, 4181.026, 4083.077, 4128.718, 4107.179, 0, 0, []
1627568528.1046, 34, 0, 4055.897, 4174.359, 4084.615, 4124.615, 4110.769, 0, 0, []
1627568528.1124, 35, 0, 4045.641, 4170.769, 4071.282, 4119.487, 4105.128, 0, 0, []
1627568528.1203, 36, 0, 4038.974, 4165.641, 4062.564, 4112.308, 4096.41, 0, 0, []
1627568528.1281, 37, 0, 4051.795, 4165.128, 4083.59, 4117.436, 4107.692, 0, 0, []
1627568528.1359, 38, 0, 4060, 4169.744, 4096.41, 4120, 4115.385, 0, 0, []
1627568528.1437, 39, 0, 4048.718, 4171.795, 4086.154, 4106.667, 4101.538, 0, 0, []
1627568528.1516, 40, 0, 4040.513, 4170.256, 4085.128, 4100.513, 4090.769, 0, 0, []
1627568528.1594, 41, 0, 4045.128, 4161.538, 4092.308, 4111.282, 4092.308, 0, 0, []
1627568528.1673, 42, 0, 4048.718, 4151.795, 4094.359, 4113.846, 4092.308, 0, 0, []
1627568528.175, 43, 0, 4046.667, 4153.846, 4086.154, 4101.026, 4089.744, 0, 0, []
1627568528.1829, 44, 0, 4044.615, 4154.872, 4073.846, 4090.256, 4090.256, 0, 0, []
1627568528.1907, 45, 0, 4042.564, 4150.256, 4068.718, 4084.615, 4091.282, 0, 0, []
1627568528.1986, 46, 0, 4043.59, 4153.333, 4075.897, 4073.333, 4087.179, 0, 0, []
1627568528.2064, 47, 0, 4043.077, 4157.436, 4063.59, 4065.128, 4081.026, 0, 0, []
1627568528.2143, 48, 0, 4037.436, 4155.385, 4052.821, 4071.282, 4078.462, 0, 0, []
1627568528.2222, 49, 0, 4038.462, 4152.308, 4079.487, 4076.41, 4081.538, 0, 0, []
1627568528.2301, 50, 0, 4041.538, 4155.385, 4070.256, 4072.308, 4078.462, 0, 0, []
1627568528.238, 51, 0, 4038.462, 4157.949, 4057.436, 4075.897, 4075.385, 0, 0, []
1627568528.2458, 52, 0, 4042.564, 4154.872, 4081.026, 4084.103, 4086.154, 0, 0, []
1627568528.2536, 53, 0, 4060, 4151.282, 4077.949, 4077.949, 4104.615, 0, 0, []
1627568528.2614, 54, 0, 4075.897, 4149.744, 4073.846, 4068.718, 4118.974, 0, 0, []
1627568528.2693, 55, 0, 4073.846, 4151.282, 4077.949, 4067.692, 4118.462, 0, 0, []
1627568528.2771, 56, 0, 4064.103, 4149.744, 4076.41, 4068.205, 4108.718, 0, 0, []
1627568528.285, 57, 0, 4064.103, 4150.769, 4069.231, 4075.897, 4104.615, 0, 0, []
1627568528.2927, 58, 0, 4063.59, 4159.487, 4067.179, 4086.667, 4102.564, 0, 0, []
1627568528.3006, 59, 0, 4065.128, 4168.718, 4075.385, 4087.692, 4112.308, 0, 0, []
1627568528.3084, 60, 0, 4080, 4169.744, 4076.41, 4083.59, 4141.538, 0, 0, []
1627568528.3163, 61, 0, 4084.615, 4163.59, 4087.179, 4081.538, 4160.513, 0, 0, []
1627568528.3241, 62, 0, 4071.282, 4160.513, 4081.026, 4077.436, 4152.821, 0, 0, []
1627568528.3319, 63, 0, 4067.692, 4161.538, 4077.436, 4075.897, 4148.718, 0, 0, []
1627568528.3397, 64, 0, 4075.897, 4158.974, 4100, 4078.974, 4156.923, 450, 0, []
1627568528.3476, 65, 0, 4078.462, 4147.692, 4096.41, 4075.897, 4155.897, 450, 0, []
1627568528.3554, 66, 0, 4075.897, 4150.256, 4086.667, 4071.282, 4146.154, 16209, 0, []
1627568528.3633, 67, 0, 4078.462, 4175.897, 4089.744, 4081.538, 4146.154, 450, 0, []
1627568528.371, 68, 0, 4086.154, 4184.615, 4095.385, 4094.359, 4157.436, 16198, 0, []
1627568528.379, 69, 0, 4098.974, 4179.487, 4100, 4097.949, 4165.641, 450, 0, []
1627568528.387, 70, 0, 4109.231, 4192.308, 4095.897, 4097.949, 4168.718, 16092, 0, []
1627568528.3949, 71, 0, 4107.692, 4200.513, 4096.41, 4092.308, 4168.205, 450, 0, []
1627568528.4029, 72, 0, 4103.077, 4191.282, 4084.103, 4089.231, 4166.667, 450, 0, []
1627568528.4107, 73, 0, 4109.744, 4187.179, 4084.615, 4104.615, 4173.333, 16169, 0, []
1627568528.4187, 74, 0, 4126.154, 4194.872, 4104.615, 4127.179, 4189.744, 450, 0, []
1627568528.4266, 75, 0, 4126.154, 4195.897, 4097.949, 4127.179, 4189.744, 16172, 0, []
1627568528.4346, 76, 0, 4117.436, 4198.974, 4098.974, 4118.462, 4180, 450, 0, []
1627568528.4425, 77, 0, 4123.59, 4212.821, 4113.333, 4127.692, 4187.179, 450, 0, []
1627568528.4504, 78, 0, 4137.436, 4215.385, 4122.564, 4141.026, 4205.128, 450, 0, []
1627568528.4583, 79, 0, 4146.154, 4202.051, 4126.154, 4136.923, 4211.795, 16172, 0, []
1627568528.4663, 80, 0, 4143.077, 4197.949, 4110.769, 4127.692, 4203.077, 450, 0, []
1627568528.4742, 81, 0, 4138.974, 4205.641, 4114.359, 4134.359, 4197.436, 450, 0, []
1627568528.4822, 82, 0, 4145.641, 4202.051, 4121.026, 4143.077, 4200.513, 450, 0, []
1627568528.49, 83, 0, 4151.282, 4201.538, 4115.385, 4137.436, 4200.513, 16172, 0, []
1627568528.498, 84, 0, 4156.41, 4216.923, 4122.564, 4138.462, 4201.026, 450, 0, []
1627568528.5059, 85, 0, 4160.513, 4220.513, 4117.949, 4142.564, 4201.538, 450, 0, []
1627568528.5139, 86, 0, 4158.974, 4218.462, 4118.462, 4130.769, 4196.923, 450, 0, []
1627568528.5219, 87, 0, 4158.462, 4230.256, 4120.513, 4125.128, 4197.436, 16172, 0, []
1627568528.5297, 88, 0, 4166.154, 4230.256, 4112.308, 4135.897, 4206.154, 450, 0, []
1627568528.5377, 89, 0, 4171.795, 4213.333, 4124.103, 4141.026, 4206.154, 450, 0, []
1627568528.5456, 90, 0, 4167.179, 4216.41, 4123.077, 4140.513, 4197.436, 450, 0, []
1627568528.5536, 91, 0, 4166.154, 4230.769, 4119.487, 4148.205, 4204.103, 16172, 0, []
1627568528.5615, 92, 0, 4178.974, 4237.436, 4129.231, 4160.513, 4220.513, 450, 0, []
1627568528.5695, 93, 0, 4190.769, 4234.872, 4135.385, 4162.051, 4220.513, 450, 0, []
1627568528.5773, 94, 0, 4188.205, 4230.769, 4145.128, 4158.462, 4214.359, 450, 0, []
1627568528.5853, 95, 0, 4184.615, 4231.795, 4138.974, 4163.077, 4216.41, 16172, 0, []
1627568528.5932, 96, 0, 4187.179, 4229.231, 4133.333, 4166.154, 4216.923, 450, 0, []
1627568528.6012, 97, 0, 4187.179, 4225.128, 4136.923, 4165.128, 4217.949, 450, 0, []
1627568528.6091, 98, 0, 4190.256, 4232.821, 4142.051, 4170.769, 4227.179, 450, 0, []
1627568528.617, 99, 0, 4198.462, 4236.923, 4155.897, 4173.333, 4233.846, 16172, 0, []
1627568528.6249, 100, 0, 4205.128, 4222.051, 4151.795, 4167.179, 4238.462, 450, 0, []
1627568528.6329, 101, 0, 4210.256, 4218.462, 4152.308, 4169.744, 4243.077, 450, 0, []
1627568528.6408, 102, 0, 4216.923, 4234.359, 4164.103, 4176.41, 4244.103, 450, 0, []
1627568528.6488, 103, 0, 4231.795, 4236.41, 4156.41, 4171.282, 4254.359, 16172, 0, []
1627568528.6566, 104, 0, 4259.487, 4227.692, 4149.744, 4167.179, 4288.205, 450, 0, []
1627568528.6646, 105, 0, 4299.487, 4227.179, 4141.538, 4167.692, 4333.333, 450, 0, []
1627568528.6726, 106, 0, 4345.128, 4231.795, 4148.205, 4167.692, 4371.282, 450, 0, []
1627568528.6805, 107, 0, 4390.256, 4234.359, 4162.564, 4170.769, 4412.308, 16172, 0, []
1627568528.6885, 108, 0, 4421.538, 4235.897, 4154.359, 4172.308, 4456.41, 450, 0, []
1627568528.6963, 109, 0, 4432.821, 4231.795, 4160.513, 4171.282, 4481.538, 450, 0, []
1627568528.7043, 110, 0, 4434.872, 4228.718, 4162.051, 4169.744, 4482.564, 450, 0, []
1627568528.7122, 111, 0, 4432.308, 4234.359, 4153.846, 4165.128, 4472.821, 16172, 0, []
1627568528.7202, 112, 0, 4413.846, 4225.641, 4150.256, 4153.333, 4454.872, 450, 0, []
1627568528.7281, 113, 0, 4377.949, 4203.59, 4126.154, 4142.564, 4428.718, 450, 0, []
1627568528.736, 114, 0, 4337.949, 4191.795, 4122.051, 4135.897, 4398.974, 450, 0, []
1627568528.7439, 115, 0, 4309.744, 4193.333, 4133.846, 4133.846, 4369.231, 16172, 0, []
1627568528.7519, 116, 0, 4290.256, 4192.821, 4132.308, 4141.026, 4342.564, 450, 0, []
1627568528.7598, 117, 0, 4265.641, 4181.538, 4124.103, 4142.564, 4313.333, 450, 0, []
1627568528.7678, 118, 0, 4240, 4176.41, 4111.795, 4132.308, 4287.692, 450, 0, []
1627568528.7756, 119, 0, 4229.231, 4185.128, 4126.667, 4134.872, 4278.974, 16172, 0, []
1627568528.7836, 120, 0, 4223.077, 4187.692, 4132.308, 4138.974, 4272.821, 450, 0, []
1627568528.7915, 121, 0, 4208.718, 4183.077, 4114.872, 4125.641, 4253.846, 450, 0, []
1627568528.7995, 122, 0, 4198.462, 4188.718, 4124.103, 4120.513, 4240.513, 450, 0, []
1627568528.8074, 123, 0, 4197.436, 4198.462, 4132.308, 4140.513, 4242.051, 16172, 0, []
1627568528.8151, 124, 0, 4206.154, 4197.949, 4132.821, 4153.846, 4243.59, 450, 0, []
1627568528.823, 125, 0, 4217.436, 4201.538, 4144.615, 4153.846, 4237.949, 450, 0, []
1627568528.8308, 126, 0, 4214.872, 4209.231, 4152.308, 4152.308, 4233.846, 450, 0, []
1627568528.8388, 127, 0, 4211.282, 4211.282, 4163.59, 4152.308, 4240, 16172, 0, []
1627568528.8467, 128, 0, 4218.974, 4216.41, 4160.513, 4163.59, 4248.718, 450, 0, []
1627568528.8546, 0, 0, 4214.359, 4217.949, 4151.795, 4169.231, 4235.385, 450, 0, []
1627568528.8625, 1, 0, 4189.231, 4207.692, 4137.436, 4151.282, 4203.077, 450, 0, []
1627568528.8705, 2, 0, 4169.744, 4203.59, 4109.231, 4131.282, 4178.974, 16197, 0, []
1627568528.8785, 3, 0, 4171.282, 4212.821, 4117.949, 4134.872, 4184.103, 450, 0, []
1627568528.8864, 4, 0, 4179.487, 4215.897, 4129.744, 4150.769, 4196.41, 16180, 0, []
1627568528.8943, 5, 0, 4180.513, 4212.821, 4118.462, 4155.897, 4193.333, 450, 0, []
1627568528.9022, 6, 0, 4176.41, 4212.821, 4113.333, 4151.795, 4184.615, 16092, 0, []
1627568528.9102, 7, 0, 4168.718, 4204.103, 4105.128, 4147.692, 4181.538, 450, 0, []
1627568528.9181, 8, 0, 4166.154, 4201.026, 4118.974, 4149.231, 4187.692, 450, 0, []
1627568528.9261, 9, 0, 4184.615, 4217.949, 4133.846, 4161.538, 4200.513, 16169, 0, []
1627568528.9339, 10, 0, 4202.564, 4222.564, 4131.795, 4170.769, 4206.154, 450, 0, []
1627568528.9419, 11, 0, 4192.821, 4211.282, 4129.744, 4161.538, 4197.436, 16184, 0, []
1627568528.9498, 12, 0, 4178.462, 4208.205, 4118.462, 4149.744, 4192.308, 450, 0, []
1627568528.9578, 13, 0, 4184.615, 4211.795, 4122.564, 4156.41, 4196.41, 450, 0, []
1627568528.9657, 14, 0, 4189.231, 4213.333, 4124.615, 4160.513, 4196.41, 450, 0, []
1627568528.9736, 15, 0, 4182.051, 4210.256, 4121.538, 4148.205, 4190.256, 16184, 0, []
1627568528.9815, 16, 0, 4184.615, 4211.282, 4127.692, 4146.154, 4187.179, 0, 0, []
1627568528.9895, 17, 0, 4187.179, 4216.41, 4118.462, 4153.333, 4184.615, 0, 0, []
1627568528.9975, 18, 0, 4184.615, 4214.872, 4125.128, 4151.795, 4180.513, 0, 0, []
1627568529.0054, 19, 0, 4190.769, 4212.308, 4138.462, 4157.436, 4186.667, 0, 0, []
1627568529.0133, 20, 0, 4196.923, 4214.872, 4139.487, 4172.821, 4195.385, 0, 0, []
1627568529.0212, 21, 0, 4204.615, 4217.949, 4149.744, 4182.564, 4204.103, 0, 0, []
1627568529.0292, 22, 0, 4220.513, 4214.359, 4151.795, 4188.205, 4222.564, 0, 0, []
1627568529.0371, 23, 0, 4226.154, 4206.667, 4151.282, 4183.077, 4238.974, 0, 0, []
1627568529.0451, 24, 0, 4227.179, 4208.205, 4146.154, 4168.205, 4248.718, 0, 0, []
1627568529.0529, 25, 0, 4259.487, 4215.897, 4152.308, 4171.282, 4285.128, 0, 0, []
1627568529.0609, 26, 0, 4313.333, 4218.974, 4173.333, 4190.256, 4344.103, 0, 0, []
1627568529.0688, 27, 0, 4354.359, 4217.949, 4155.385, 4187.179, 4385.641, 0, 0, []
1627568529.0768, 28, 0, 4385.128, 4217.949, 4137.949, 4163.59, 4411.795, 0, 0, []
1627568529.0847, 29, 0, 4422.051, 4217.436, 4150.769, 4167.692, 4448.205, 0, 0, []
1627568529.0926, 30, 0, 4457.436, 4213.846, 4162.051, 4192.821, 4486.667, 0, 0, []
1627568529.1005, 31, 0, 4480, 4216.923, 4172.308, 4196.41, 4503.59, 0, 0, []
1627568529.1085, 32, 0, 4486.667, 4230.256, 4169.231, 4191.282, 4498.462, 0, 0, []
1627568529.1164, 33, 0, 4474.872, 4235.385, 4166.154, 4195.897, 4485.128, 0, 0, []
1627568529.1244, 34, 0, 4451.282, 4234.359, 4162.051, 4193.333, 4468.205, 0, 0, []
1627568529.1323, 35, 0, 4422.564, 4230.256, 4147.692, 4184.103, 4441.026, 0, 0, []
1627568529.1402, 36, 0, 4388.718, 4215.385, 4148.205, 4178.462, 4408.718, 0, 0, []
1627568529.1482, 37, 0, 4358.974, 4206.154, 4143.59, 4167.692, 4382.564, 0, 0, []
1627568529.1561, 38, 0, 4342.051, 4208.205, 4145.641, 4161.538, 4361.538, 0, 0, []
1627568529.1641, 39, 0, 4327.692, 4208.718, 4156.923, 4168.718, 4347.179, 0, 0, []
1627568529.1719, 40, 0, 4313.333, 4213.846, 4154.359, 4169.231, 4343.59, 0, 0, []
1627568529.1799, 41, 0, 4299.487, 4218.462, 4163.077, 4160.513, 4331.795, 0, 0, []
1627568529.1878, 42, 0, 4282.564, 4207.692, 4163.59, 4161.538, 4305.641, 0, 0, []
1627568529.1958, 43, 0, 4261.538, 4202.564, 4160, 4163.59, 4286.667, 0, 0, []
1627568529.2037, 44, 0, 4244.615, 4210.769, 4168.205, 4160, 4280, 0, 0, []
1627568529.2116, 45, 0, 4243.59, 4218.974, 4169.231, 4171.282, 4278.462, 0, 0, []
1627568529.2195, 46, 0, 4249.231, 4222.051, 4178.974, 4185.128, 4271.795, 0, 0, []
1627568529.2275, 47, 0, 4240, 4219.487, 4171.795, 4174.359, 4255.897, 0, 0, []
1627568529.2354, 48, 0, 4225.641, 4223.077, 4165.641, 4166.667, 4238.974, 0, 0, []
1627568529.2434, 49, 0, 4230.256, 4226.154, 4186.667, 4186.667, 4238.974, 0, 0, []
1627568529.2512, 50, 0, 4231.795, 4218.462, 4179.487, 4191.795, 4235.897, 0, 0, []
1627568529.2592, 51, 0, 4215.385, 4208.718, 4172.821, 4170.256, 4221.538, 0, 0, []
1627568529.2671, 52, 0, 4205.128, 4208.205, 4178.974, 4161.026, 4215.897, 0, 0, []
1627568529.2751, 53, 0, 4195.385, 4204.615, 4165.128, 4157.949, 4205.128, 0, 0, []
1627568529.283, 54, 0, 4183.59, 4195.897, 4150.256, 4152.308, 4187.692, 0, 0, []
1627568529.2909, 55, 0, 4181.538, 4189.231, 4136.923, 4157.949, 4182.564, 0, 0, []
1627568529.2989, 56, 0, 4175.385, 4183.077, 4134.872, 4164.103, 4178.462, 0, 0, []
1627568529.3068, 57, 0, 4162.564, 4177.436, 4127.692, 4156.41, 4162.051, 0, 0, []
1627568529.3148, 58, 0, 4162.564, 4174.359, 4119.487, 4150.256, 4151.795, 0, 0, []
1627568529.3227, 59, 0, 4169.744, 4175.897, 4126.667, 4153.846, 4158.462, 0, 0, []
1627568529.3305, 60, 0, 4165.128, 4172.308, 4114.359, 4152.308, 4162.564, 0, 0, []
1627568529.3384, 61, 0, 4164.103, 4167.692, 4124.615, 4152.308, 4166.667, 0, 0, []
1627568529.3464, 62, 0, 4171.282, 4180, 4146.154, 4153.333, 4171.282, 0, 0, []
1627568529.3544, 63, 0, 4167.692, 4187.179, 4135.385, 4139.487, 4165.128, 0, 0, []
1627568529.3623, 64, 0, 4167.692, 4174.872, 4138.462, 4133.333, 4160, 450, 0, []
1627568529.3701, 65, 0, 4177.949, 4172.821, 4147.179, 4146.667, 4165.128, 450, 0, []
1627568529.3781, 66, 0, 4180, 4183.59, 4141.538, 4148.205, 4165.128, 16189, 0, []
1627568529.386, 67, 0, 4182.564, 4187.692, 4130.769, 4145.128, 4168.205, 450, 0, []
1627568529.394, 68, 0, 4195.385, 4190.256, 4131.282, 4160.513, 4184.103, 16173, 0, []
1627568529.4019, 69, 0, 4205.641, 4197.436, 4151.795, 4169.231, 4201.538, 450, 0, []
1627568529.4098, 70, 0, 4228.205, 4197.436, 4149.744, 4161.026, 4223.59, 16089, 0, []
1627568529.4177, 71, 0, 4275.897, 4186.154, 4137.436, 4153.846, 4262.051, 450, 0, []
1627568529.4257, 72, 0, 4325.641, 4180.513, 4133.846, 4144.615, 4306.154, 450, 0, []
1627568529.4336, 73, 0, 4369.231, 4190.769, 4131.795, 4143.077, 4351.795, 16124, 0, []
1627568529.4416, 74, 0, 4414.872, 4203.077, 4153.333, 4160.513, 4404.103, 450, 0, []
1627568529.4495, 75, 0, 4455.385, 4203.077, 4159.487, 4177.436, 4444.615, 16188, 0, []
1627568529.4574, 76, 0, 4469.744, 4200.513, 4145.128, 4171.282, 4454.872, 450, 0, []
1627568529.4653, 77, 0, 4461.538, 4206.667, 4136.923, 4150.256, 4439.487, 450, 0, []
1627568529.4733, 78, 0, 4442.051, 4206.154, 4124.103, 4138.462, 4411.282, 450, 0, []
1627568529.4813, 79, 0, 4421.538, 4199.487, 4128.205, 4146.154, 4390.769, 16188, 0, []
1627568529.4891, 80, 0, 4405.641, 4202.564, 4129.744, 4154.872, 4379.487, 450, 0, []
1627568529.4971, 81, 0, 4384.103, 4196.923, 4126.154, 4155.385, 4354.872, 450, 0, []
1627568529.505, 82, 0, 4360.513, 4182.051, 4139.487, 4164.103, 4330.256, 450, 0, []
1627568529.513, 83, 0, 4345.641, 4183.077, 4145.641, 4177.949, 4327.179, 16188, 0, []
1627568529.5209, 84, 0, 4326.154, 4191.795, 4156.41, 4171.795, 4313.333, 450, 0, []
1627568529.5288, 85, 0, 4302.051, 4204.103, 4149.231, 4158.462, 4276.923, 450, 0, []
1627568529.5367, 86, 0, 4287.692, 4217.949, 4127.692, 4153.333, 4248.205, 450, 0, []
1627568529.5447, 87, 0, 4271.282, 4206.154, 4132.308, 4147.692, 4229.744, 16188, 0, []
1627568529.5526, 88, 0, 4245.641, 4194.872, 4136.41, 4147.179, 4213.333, 450, 0, []
1627568529.5606, 89, 0, 4231.282, 4211.795, 4150.256, 4167.179, 4216.41, 450, 0, []
1627568529.5685, 90, 0, 4222.564, 4210.769, 4157.949, 4183.59, 4214.359, 450, 0, []
1627568529.5764, 91, 0, 4205.641, 4187.179, 4143.077, 4177.436, 4186.154, 16188, 0, []
1627568529.5843, 92, 0, 4195.385, 4191.795, 4135.385, 4173.333, 4161.538, 450, 0, []
1627568529.5923, 93, 0, 4190.256, 4208.205, 4117.949, 4169.231, 4150.769, 450, 0, []
1627568529.6003, 94, 0, 4183.077, 4195.385, 4122.051, 4154.359, 4145.641, 450, 0, []
1627568529.6082, 95, 0, 4186.154, 4182.564, 4148.718, 4150.256, 4153.333, 16188, 0, []
1627568529.6161, 96, 0, 4197.436, 4193.846, 4162.564, 4162.564, 4171.795, 450, 0, []
1627568529.624, 97, 0, 4202.564, 4200, 4180, 4171.282, 4178.974, 450, 0, []
1627568529.632, 98, 0, 4191.795, 4179.487, 4176.923, 4170.769, 4165.128, 450, 0, []
1627568529.6399, 99, 0, 4168.718, 4164.103, 4156.41, 4168.205, 4137.436, 16188, 0, []
1627568529.6479, 100, 0, 4150.769, 4177.949, 4129.744, 4171.282, 4116.41, 450, 0, []
1627568529.6557, 101, 0, 4144.615, 4188.205, 4101.538, 4168.205, 4108.718, 450, 0, []
1627568529.6637, 102, 0, 4140, 4182.051, 4103.077, 4156.923, 4107.179, 450, 0, []
1627568529.6716, 103, 0, 4139.487, 4188.205, 4116.923, 4152.821, 4109.231, 16188, 0, []
1627568529.6796, 104, 0, 4151.282, 4194.872, 4132.308, 4152.308, 4112.821, 450, 0, []
1627568529.6875, 105, 0, 4174.359, 4192.308, 4144.103, 4154.359, 4128.718, 450, 0, []
1627568529.6954, 106, 0, 4185.128, 4192.821, 4138.974, 4162.564, 4148.718, 450, 0, []
1627568529.7033, 107, 0, 4175.385, 4192.821, 4140.513, 4168.718, 4145.128, 16188, 0, []
1627568529.7113, 108, 0, 4167.692, 4195.897, 4138.974, 4179.487, 4131.795, 450, 0, []
1627568529.7192, 109, 0, 4166.667, 4199.487, 4141.026, 4184.615, 4126.667, 450, 0, []
1627568529.7272, 110, 0, 4157.949, 4190.769, 4142.564, 4163.59, 4115.897, 450, 0, []
1627568529.735, 111, 0, 4149.231, 4188.718, 4130.256, 4144.615, 4104.103, 16188, 0, []
1627568529.743, 112, 0, 4151.282, 4208.718, 4142.051, 4149.231, 4108.205, 450, 0, []
1627568529.7509, 113, 0, 4150.256, 4217.949, 4136.923, 4151.795, 4109.231, 450, 0, []
1627568529.7589, 114, 0, 4145.641, 4205.128, 4114.872, 4148.718, 4098.974, 450, 0, []
1627568529.7669, 115, 0, 4154.872, 4193.333, 4124.103, 4160.513, 4105.641, 16188, 0, []
1627568529.7747, 116, 0, 4156.41, 4188.718, 4129.231, 4166.667, 4119.487, 450, 0, []
1627568529.7827, 117, 0, 4143.077, 4194.872, 4128.205, 4153.333, 4113.333, 450, 0, []
1627568529.7906, 118, 0, 4134.872, 4202.051, 4118.974, 4141.538, 4100.513, 450, 0, []
1627568529.7986, 119, 0, 4136.923, 4199.487, 4116.41, 4137.949, 4098.462, 16188, 0, []
1627568529.8065, 120, 0, 4149.744, 4198.462, 4133.846, 4140.513, 4104.615, 450, 0, []
1627568529.8144, 121, 0, 4160, 4204.103, 4133.846, 4147.179, 4108.718, 450, 0, []
1627568529.8223, 122, 0, 4158.974, 4196.41, 4142.051, 4152.821, 4112.308, 450, 0, []
1627568529.8303, 123, 0, 4151.795, 4186.667, 4145.128, 4150.256, 4107.692, 16188, 0, []
1627568529.8382, 124, 0, 4152.821, 4202.051, 4131.795, 4153.846, 4107.179, 450, 0, []
1627568529.8462, 125, 0, 4158.974, 4226.154, 4135.897, 4168.718, 4119.487, 450, 0, []
1627568529.854, 126, 0, 4154.359, 4226.154, 4132.821, 4169.231, 4117.949, 450, 0, []
1627568529.862, 127, 0, 4152.308, 4210.256, 4125.128, 4152.308, 4102.051, 16188, 0, []
1627568529.8699, 128, 0, 4167.179, 4217.436, 4125.128, 4150.769, 4103.077, 450, 0, []
1627568529.8779, 0, 0, 4172.308, 4220.513, 4128.718, 4160, 4116.41, 450, 0, []
1627568529.8858, 1, 0, 4154.872, 4191.795, 4133.846, 4157.949, 4113.333, 450, 0, []
1627568529.8937, 2, 0, 4143.077, 4183.077, 4120.513, 4150.256, 4097.949, 16189, 0, []
1627568529.9016, 3, 0, 4145.641, 4203.59, 4120.513, 4144.615, 4087.179, 450, 0, []
1627568529.9096, 4, 0, 4147.692, 4209.744, 4126.154, 4135.897, 4083.59, 16171, 0, []
1627568529.9176, 5, 0, 4131.795, 4196.923, 4102.564, 4121.538, 4070.769, 450, 0, []
1627568529.9255, 6, 0, 4115.897, 4189.231, 4104.103, 4117.949, 4058.974, 16093, 0, []
1627568529.9334, 7, 0, 4142.564, 4186.667, 4132.821, 4150.256, 4085.128, 450, 0, []
1627568529.9413, 8, 0, 4172.308, 4186.667, 4157.436, 4187.179, 4117.436, 450, 0, []
1627568529.9493, 9, 0, 4151.795, 4187.179, 4149.231, 4174.359, 4107.692, 16166, 0, []
1627568529.9572, 10, 0, 4124.103, 4180.513, 4117.949, 4136.41, 4084.615, 450, 0, []
1627568529.9652, 11, 0, 4135.897, 4190.256, 4128.718, 4138.462, 4090.256, 16195, 0, []
1627568529.973, 12, 0, 4148.718, 4208.205, 4142.564, 4157.949, 4097.949, 450, 0, []
1627568529.981, 13, 0, 4140, 4198.974, 4135.385, 4152.821, 4088.718, 450, 0, []
1627568529.9889, 14, 0, 4141.538, 4186.667, 4136.41, 4146.667, 4087.179, 450, 0, []
1627568529.9969, 15, 0, 4150.256, 4188.718, 4130.256, 4152.821, 4094.359, 16195, 0, []
1627568530.0048, 16, 0, 4147.179, 4188.718, 4130.256, 4150.769, 4092.821, 0, 0, []
1627568530.0127, 17, 0, 4136.923, 4183.59, 4122.564, 4146.667, 4089.744, 0, 0, []
1627568530.0206, 18, 0, 4130.769, 4184.103, 4115.897, 4151.795, 4087.179, 0, 0, []
1627568530.0286, 19, 0, 4131.795, 4186.154, 4125.128, 4154.359, 4083.077, 0, 0, []
1627568530.0365, 20, 0, 4134.872, 4186.667, 4125.128, 4155.897, 4090.769, 0, 0, []
1627568530.0445, 21, 0, 4142.051, 4184.103, 4135.385, 4157.436, 4106.154, 0, 0, []
1627568530.0523, 22, 0, 4138.462, 4180.513, 4130.769, 4141.538, 4101.026, 0, 0, []
1627568530.0603, 23, 0, 4125.641, 4187.692, 4113.846, 4120.513, 4082.051, 0, 0, []
1627568530.0682, 24, 0, 4126.154, 4195.897, 4124.615, 4117.949, 4079.487, 0, 0, []
1627568530.076, 25, 0, 4138.974, 4191.795, 4135.385, 4127.692, 4088.205, 0, 0, []
1627568530.084, 26, 0, 4154.359, 4196.41, 4148.205, 4140.513, 4095.897, 0, 0, []
1627568530.0918, 27, 0, 4157.949, 4201.538, 4148.718, 4142.564, 4096.923, 0, 0, []
1627568530.0998, 28, 0, 4143.59, 4190.769, 4139.487, 4130.256, 4088.718, 0, 0, []
1627568530.1077, 29, 0, 4137.949, 4188.718, 4151.795, 4126.154, 4088.205, 0, 0, []
1627568530.1157, 30, 0, 4152.308, 4201.026, 4151.795, 4141.026, 4103.077, 0, 0, []
1627568530.1236, 31, 0, 4157.949, 4201.026, 4147.179, 4140.513, 4110.256, 0, 0, []
1627568530.1315, 32, 0, 4152.308, 4197.949, 4147.179, 4123.077, 4102.564, 0, 0, []
1627568530.1394, 33, 0, 4150.769, 4202.564, 4145.641, 4126.667, 4094.872, 0, 0, []
1627568530.1474, 34, 0, 4143.077, 4198.974, 4146.667, 4139.487, 4091.282, 0, 0, []
1627568530.1553, 35, 0, 4135.385, 4195.385, 4127.692, 4133.846, 4089.744, 0, 0, []
1627568530.1633, 36, 0, 4137.436, 4197.949, 4124.103, 4123.077, 4089.744, 0, 0, []
1627568530.1711, 37, 0, 4141.538, 4203.59, 4135.897, 4126.667, 4091.282, 0, 0, []
1627568530.1791, 38, 0, 4142.564, 4209.744, 4125.128, 4133.333, 4087.692, 0, 0, []
1627568530.187, 39, 0, 4142.051, 4202.051, 4123.077, 4134.359, 4080.513, 0, 0, []
1627568530.195, 40, 0, 4150.256, 4192.821, 4132.821, 4144.103, 4088.718, 0, 0, []
1627568530.2029, 41, 0, 4166.154, 4194.359, 4148.718, 4156.41, 4110.769, 0, 0, []
1627568530.2106, 42, 0, 4173.846, 4189.231, 4152.821, 4153.846, 4126.154, 0, 0, []
1627568530.2185, 43, 0, 4173.333, 4185.128, 4134.872, 4143.077, 4131.282, 0, 0, []
1627568530.2263, 44, 0, 4177.949, 4193.846, 4133.333, 4130.256, 4133.846, 0, 0, []
1627568530.2343, 45, 0, 4191.282, 4201.026, 4128.205, 4118.974, 4146.667, 0, 0, []
1627568530.2422, 46, 0, 4222.051, 4197.949, 4125.128, 4122.564, 4183.59, 0, 0, []
1627568530.2501, 47, 0, 4269.744, 4197.949, 4135.897, 4137.436, 4239.487, 0, 0, []
1627568530.258, 48, 0, 4306.154, 4191.795, 4125.641, 4137.436, 4292.308, 0, 0, []
1627568530.266, 49, 0, 4339.487, 4180, 4124.103, 4129.744, 4335.385, 0, 0, []
1627568530.2739, 50, 0, 4397.949, 4192.308, 4135.897, 4144.103, 4380.513, 0, 0, []
1627568530.2819, 51, 0, 4447.179, 4209.231, 4143.59, 4161.538, 4421.538, 0, 0, []
1627568530.2897, 52, 0, 4451.795, 4203.077, 4152.308, 4160, 4436.41, 0, 0, []
1627568530.2977, 53, 0, 4430.256, 4197.436, 4150.256, 4153.846, 4419.487, 0, 0, []
1627568530.3056, 54, 0, 4409.744, 4206.154, 4164.103, 4151.282, 4391.795, 0, 0, []
1627568530.3136, 55, 0, 4384.103, 4207.692, 4174.872, 4148.718, 4370.256, 0, 0, []
1627568530.3215, 56, 0, 4355.897, 4201.026, 4167.692, 4144.615, 4347.179, 0, 0, []
1627568530.3294, 57, 0, 4343.077, 4208.205, 4171.795, 4156.41, 4332.308, 0, 0, []
1627568530.3373, 58, 0, 4336.923, 4216.41, 4170.256, 4180.513, 4328.205, 0, 0, []
1627568530.3452, 59, 0, 4316.41, 4212.821, 4169.231, 4181.538, 4311.282, 0, 0, []
1627568530.3532, 60, 0, 4293.846, 4214.359, 4170.256, 4167.692, 4287.179, 0, 0, []
1627568530.361, 61, 0, 4282.051, 4220.513, 4174.872, 4170.256, 4270.769, 0, 0, []
1627568530.3688, 62, 0, 4267.692, 4213.333, 4172.308, 4172.308, 4253.846, 0, 0, []
1627568530.3766, 63, 0, 4245.128, 4206.667, 4135.897, 4158.462, 4233.333, 0, 0, []
1627568530.3846, 64, 0, 4232.821, 4206.154, 4127.692, 4151.795, 4215.897, 450, 0, []
1627568530.3925, 65, 0, 4231.795, 4201.538, 4141.538, 4154.359, 4201.538, 450, 0, []
1627568530.4005, 66, 0, 4231.282, 4204.615, 4143.077, 4154.872, 4196.41, 16188, 0, []
1627568530.4083, 67, 0, 4234.359, 4216.41, 4161.538, 4159.487, 4201.538, 450, 0, []
1627568530.4163, 68, 0, 4228.205, 4213.846, 4157.436, 4160, 4197.949, 16171, 0, []
1627568530.4242, 69, 0, 4218.974, 4210.769, 4150.256, 4156.41, 4191.282, 450, 0, []
1627568530.4322, 70, 0, 4218.462, 4217.436, 4158.462, 4161.026, 4190.256, 16094, 0, []
1627568530.4401, 71, 0, 4197.949, 4210.256, 4137.949, 4152.308, 4167.179, 450, 0, []
1627568530.448, 72, 0, 4165.128, 4197.436, 4123.59, 4136.41, 4137.949, 450, 0, []
1627568530.4559, 73, 0, 4165.128, 4196.41, 4122.564, 4143.077, 4136.923, 16171, 0, []
1627568530.4639, 74, 0, 4177.436, 4198.462, 4129.231, 4151.795, 4144.615, 450, 0, []
1627568530.4718, 75, 0, 4170.769, 4198.974, 4134.872, 4141.538, 4139.487, 16196, 0, []
1627568530.4798, 76, 0, 4172.821, 4199.487, 4135.897, 4141.026, 4139.487, 450, 0, []
1627568530.4876, 77, 0, 4184.103, 4202.564, 4151.282, 4157.436, 4146.667, 450, 0, []
1627568530.4954, 78, 0, 4175.385, 4206.667, 4142.564, 4159.487, 4143.077, 450, 0, []
1627568530.5033, 79, 0, 4161.026, 4201.538, 4126.667, 4145.128, 4129.744, 16196, 0, []
1627568530.5111, 80, 0, 4162.051, 4196.41, 4134.872, 4145.128, 4123.077, 450, 0, []
1627568530.519, 81, 0, 4168.718, 4201.538, 4140, 4160.513, 4132.821, 450, 0, []
1627568530.5268, 82, 0, 4171.795, 4202.051, 4145.128, 4165.641, 4143.59, 450, 0, []
1627568530.5346, 83, 0, 4170.769, 4197.949, 4147.179, 4164.615, 4141.026, 16196, 0, []
1627568530.5424, 84, 0, 4162.051, 4201.538, 4149.231, 4163.59, 4131.795, 450, 0, []
1627568530.5504, 85, 0, 4155.385, 4203.59, 4150.256, 4158.974, 4129.231, 450, 0, []
1627568530.5583, 86, 0, 4155.385, 4199.487, 4135.385, 4154.359, 4126.667, 450, 0, []
1627568530.5663, 87, 0, 4153.333, 4195.385, 4139.487, 4152.821, 4123.077, 16196, 0, []
1627568530.5741, 88, 0, 4154.872, 4200.513, 4145.641, 4153.846, 4122.564, 450, 0, []
1627568530.5821, 89, 0, 4163.077, 4205.641, 4147.692, 4157.949, 4124.103, 450, 0, []
1627568530.59, 90, 0, 4171.795, 4206.154, 4160.513, 4163.59, 4127.692, 450, 0, []
1627568530.598, 91, 0, 4172.308, 4208.205, 4144.103, 4160, 4131.795, 16196, 0, []
1627568530.6059, 92, 0, 4164.615, 4205.128, 4128.718, 4147.179, 4128.718, 450, 0, []
1627568530.6138, 93, 0, 4157.436, 4198.974, 4134.359, 4145.128, 4122.564, 450, 0, []
1627568530.6217, 94, 0, 4153.846, 4200, 4143.59, 4150.256, 4120, 450, 0, []
1627568530.6297, 95, 0, 4154.359, 4202.564, 4154.359, 4151.282, 4123.59, 16196, 0, []
1627568530.6376, 96, 0, 4154.359, 4201.538, 4145.641, 4156.41, 4128.205, 450, 0, []
1627568530.6454, 97, 0, 4157.949, 4204.103, 4152.308, 4164.615, 4127.179, 450, 0, []
1627568530.6532, 98, 0, 4167.179, 4215.385, 4162.051, 4163.077, 4129.744, 450, 0, []
1627568530.661, 99, 0, 4172.308, 4213.846, 4149.231, 4158.462, 4137.436, 16196, 0, []
1627568530.6689, 100, 0, 4169.744, 4203.077, 4146.667, 4158.462, 4138.974, 450, 0, []
1627568530.6767, 101, 0, 4169.744, 4200, 4134.872, 4153.333, 4133.846, 450, 0, []
1627568530.6846, 102, 0, 4166.154, 4202.051, 4132.308, 4147.692, 4130.256, 450, 0, []
1627568530.6923, 103, 0, 4158.462, 4202.051, 4144.615, 4149.744, 4131.795, 16196, 0, []
1627568530.7003, 104, 0, 4156.923, 4204.103, 4141.538, 4154.359, 4130.256, 450, 0, []
1627568530.7082, 105, 0, 4160.513, 4210.256, 4144.103, 4155.897, 4129.744, 450, 0, []
1627568530.7162, 106, 0, 4164.103, 4212.821, 4146.154, 4154.359, 4132.308, 450, 0, []
1627568530.7241, 107, 0, 4167.692, 4212.821, 4149.744, 4156.923, 4134.872, 16196, 0, []
1627568530.732, 108, 0, 4170.256, 4221.026, 4148.718, 4156.41, 4135.897, 450, 0, []
1627568530.7399, 109, 0, 4174.872, 4227.179, 4138.974, 4151.795, 4141.538, 450, 0, []
1627568530.7479, 110, 0, 4184.615, 4217.949, 4149.744, 4160.513, 4155.385, 450, 0, []
1627568530.7558, 111, 0, 4188.718, 4204.615, 4145.641, 4173.333, 4159.487, 16196, 0, []
1627568530.7638, 112, 0, 4179.487, 4197.436, 4130.769, 4170.769, 4152.308, 450, 0, []
1627568530.7716, 113, 0, 4175.385, 4198.974, 4137.949, 4163.59, 4151.282, 450, 0, []
1627568530.7796, 114, 0, 4182.564, 4209.744, 4142.051, 4164.615, 4154.359, 450, 0, []
1627568530.7875, 115, 0, 4182.051, 4211.795, 4146.154, 4156.41, 4153.333, 16196, 0, []
1627568530.7953, 116, 0, 4178.974, 4208.205, 4141.026, 4152.308, 4152.308, 450, 0, []
1627568530.8032, 117, 0, 4181.026, 4214.872, 4142.564, 4165.128, 4154.872, 450, 0, []
1627568530.8109, 118, 0, 4183.59, 4217.949, 4156.41, 4170.256, 4156.41, 450, 0, []
1627568530.8188, 119, 0, 4178.462, 4204.615, 4141.538, 4161.026, 4154.359, 16196, 0, []
1627568530.8266, 120, 0, 4170.256, 4193.846, 4137.949, 4154.872, 4150.256, 450, 0, []
1627568530.8345, 121, 0, 4164.103, 4198.462, 4140.513, 4154.359, 4148.205, 450, 0, []
1627568530.8423, 122, 0, 4163.077, 4198.974, 4129.744, 4148.205, 4148.718, 450, 0, []
1627568530.8502, 123, 0, 4176.41, 4207.692, 4137.436, 4149.744, 4154.872, 16196, 0, []
1627568530.8581, 124, 0, 4189.231, 4226.154, 4138.974, 4158.974, 4159.487, 450, 0, []
1627568530.8661, 125, 0, 4184.103, 4219.487, 4135.385, 4155.897, 4148.205, 450, 0, []
1627568530.874, 126, 0, 4176.41, 4205.641, 4129.231, 4152.821, 4143.077, 450, 0, []
1627568530.882, 127, 0, 4182.564, 4212.308, 4133.333, 4165.128, 4157.949, 16196, 0, []
1627568530.8898, 128, 0, 4191.795, 4215.897, 4150.256, 4178.974, 4166.154, 450, 0, []
1627568530.8978, 0, 0, 4185.128, 4208.205, 4139.487, 4171.282, 4152.821, 450, 0, []
1627568530.9057, 1, 0, 4176.923, 4212.821, 4134.872, 4156.923, 4148.205, 450, 0, []
1627568530.9137, 2, 0, 4173.846, 4222.564, 4132.821, 4154.359, 4151.282, 16188, 0, []
1627568530.9216, 3, 0, 4169.231, 4220.513, 4121.538, 4155.897, 4145.128, 450, 0, []
1627568530.9295, 4, 0, 4169.744, 4217.436, 4130.256, 4153.333, 4143.59, 16170, 0, []
1627568530.9374, 5, 0, 4176.41, 4218.974, 4131.795, 4153.846, 4149.231, 450, 0, []
1627568530.9454, 6, 0, 4185.128, 4214.872, 4134.872, 4163.59, 4155.385, 16089, 0, []
1627568530.9533, 7, 0, 4186.154, 4204.615, 4140, 4170.769, 4163.077, 450, 0, []
1627568530.9611, 8, 0, 4183.59, 4207.179, 4132.308, 4169.744, 4169.231, 450, 0, []
1627568530.9689, 9, 0, 4177.436, 4215.897, 4135.385, 4159.487, 4164.615, 16173, 0, []
1627568530.9767, 10, 0, 4171.282, 4210.256, 4132.308, 4147.179, 4151.282, 450, 0, []
1627568530.9846, 11, 0, 4176.41, 4215.897, 4135.897, 4148.718, 4150.256, 16196, 0, []
1627568530.9924, 12, 0, 4189.231, 4234.359, 4147.692, 4157.949, 4162.564, 450, 0, []
1627568531.0003, 13, 0, 4188.205, 4220.513, 4140.513, 4158.462, 4168.718, 450, 0, []
1627568531.008, 14, 0, 4177.949, 4195.385, 4144.103, 4155.385, 4169.744, 450, 0, []
1627568531.016, 15, 0, 4180.513, 4206.154, 4148.205, 4156.923, 4172.821, 16196, 0, []
1627568531.0239, 16, 0, 4187.179, 4220.513, 4151.282, 4153.333, 4171.795, 0, 0, []
1627568531.0319, 17, 0, 4186.667, 4216.41, 4155.385, 4149.231, 4168.205, 0, 0, []
1627568531.0398, 18, 0, 4190.256, 4224.615, 4140.513, 4154.359, 4169.744, 0, 0, []
1627568531.0477, 19, 0, 4195.385, 4236.41, 4145.641, 4156.923, 4167.692, 0, 0, []
1627568531.0556, 20, 0, 4188.718, 4226.667, 4147.692, 4144.615, 4154.872, 0, 0, []
1627568531.0636, 21, 0, 4180.513, 4209.744, 4137.949, 4135.897, 4148.205, 0, 0, []
1627568531.0715, 22, 0, 4180.513, 4205.641, 4144.615, 4140.513, 4154.359, 0, 0, []
1627568531.0795, 23, 0, 4176.923, 4212.308, 4146.667, 4140.513, 4155.385, 0, 0, []
1627568531.0873, 24, 0, 4180.513, 4215.897, 4155.897, 4141.026, 4151.795, 0, 0, []
1627568531.0951, 25, 0, 4196.41, 4206.667, 4155.385, 4152.821, 4158.974, 0, 0, []
1627568531.103, 26, 0, 4201.538, 4204.103, 4143.59, 4159.487, 4166.667, 0, 0, []
1627568531.1108, 27, 0, 4198.462, 4218.462, 4147.179, 4157.949, 4168.205, 0, 0, []
1627568531.1187, 28, 0, 4200.513, 4221.538, 4143.077, 4166.667, 4170.256, 0, 0, []
1627568531.1264, 29, 0, 4197.949, 4213.333, 4144.615, 4167.692, 4166.667, 0, 0, []
1627568531.1343, 30, 0, 4197.436, 4215.897, 4149.744, 4157.436, 4163.077, 0, 0, []
1627568531.1421, 31, 0, 4207.692, 4218.974, 4150.256, 4150.769, 4168.718, 0, 0, []
1627568531.15, 32, 0, 4213.846, 4212.821, 4159.487, 4143.59, 4172.308, 0, 0, []
1627568531.1578, 33, 0, 4220.513, 4206.667, 4157.436, 4146.154, 4180.513, 0, 0, []
1627568531.1657, 34, 0, 4247.692, 4210.769, 4163.59, 4166.667, 4215.897, 0, 0, []
1627568531.1736, 35, 0, 4293.846, 4225.641, 4164.615, 4181.538, 4272.821, 0, 0, []
1627568531.1816, 36, 0, 4334.872, 4233.333, 4147.692, 4174.872, 4321.538, 0, 0, []
1627568531.1895, 37, 0, 4371.282, 4231.282, 4149.744, 4165.641, 4363.077, 0, 0, []
1627568531.1975, 38, 0, 4408.205, 4237.436, 4143.077, 4166.154, 4404.103, 0, 0, []
1627568531.2053, 39, 0, 4429.744, 4237.436, 4136.923, 4161.026, 4429.231, 0, 0, []
1627568531.2133, 40, 0, 4441.026, 4224.615, 4144.615, 4160.513, 4444.103, 0, 0, []
1627568531.2212, 41, 0, 4451.282, 4225.128, 4146.154, 4167.179, 4454.359, 0, 0, []
1627568531.2292, 42, 0, 4445.641, 4231.795, 4155.385, 4171.282, 4442.564, 0, 0, []
1627568531.2371, 43, 0, 4421.026, 4222.564, 4158.974, 4177.949, 4420, 0, 0, []
1627568531.245, 44, 0, 4397.949, 4212.821, 4169.744, 4184.615, 4407.692, 0, 0, []
1627568531.2529, 45, 0, 4375.385, 4217.949, 4170.769, 4174.872, 4382.051, 0, 0, []
1627568531.2607, 46, 0, 4346.667, 4220, 4146.667, 4157.949, 4341.026, 0, 0, []
1627568531.2686, 47, 0, 4321.538, 4214.359, 4145.641, 4152.308, 4315.385, 0, 0, []
1627568531.2764, 48, 0, 4297.949, 4211.795, 4142.051, 4152.821, 4293.333, 0, 0, []
1627568531.2843, 49, 0, 4280, 4215.385, 4139.487, 4160.513, 4267.179, 0, 0, []
1627568531.292, 50, 0, 4272.308, 4220.513, 4154.359, 4171.282, 4256.41, 0, 0, []
1627568531.2999, 51, 0, 4259.487, 4215.897, 4154.872, 4164.615, 4248.718, 0, 0, []
1627568531.3077, 52, 0, 4247.692, 4212.308, 4157.949, 4155.385, 4240, 0, 0, []
1627568531.3157, 53, 0, 4247.179, 4217.949, 4148.718, 4157.949, 4233.846, 0, 0, []
1627568531.3236, 54, 0, 4242.051, 4216.41, 4135.897, 4156.41, 4216.41, 0, 0, []
1627568531.3315, 55, 0, 4233.333, 4209.231, 4147.692, 4149.231, 4198.974, 0, 0, []
1627568531.3394, 56, 0, 4229.231, 4205.641, 4157.949, 4156.41, 4202.051, 0, 0, []
1627568531.3473, 57, 0, 4219.487, 4196.923, 4167.692, 4164.615, 4204.615, 0, 0, []
1627568531.3551, 58, 0, 4212.308, 4204.103, 4163.59, 4165.128, 4198.974, 0, 0, []
1627568531.3631, 59, 0, 4217.949, 4226.154, 4155.385, 4169.231, 4201.538, 0, 0, []
1627568531.3709, 60, 0, 4217.436, 4225.641, 4151.795, 4167.179, 4197.436, 0, 0, []
1627568531.3789, 61, 0, 4200.513, 4208.205, 4123.59, 4153.333, 4173.846, 0, 0, []
1627568531.3868, 62, 0, 4189.744, 4201.026, 4115.385, 4150.256, 4163.077, 0, 0, []
1627568531.3948, 63, 0, 4197.436, 4202.564, 4133.333, 4165.641, 4181.026, 0, 0, []
1627568531.4027, 64, 0, 4201.026, 4201.026, 4143.59, 4173.333, 4185.128, 450, 0, []
1627568531.4104, 65, 0, 4183.59, 4201.538, 4146.667, 4161.538, 4158.462, 450, 0, []
1627568531.4183, 66, 0, 4164.615, 4202.051, 4130.769, 4146.667, 4133.333, 16186, 0, []
1627568531.4261, 67, 0, 4161.538, 4195.385, 4126.667, 4143.077, 4123.077, 450, 0, []
1627568531.434, 68, 0, 4170.256, 4196.41, 4135.897, 4152.308, 4129.231, 16170, 0, []
1627568531.4418, 69, 0, 4177.949, 4210.769, 4141.538, 4164.615, 4144.615, 450, 0, []
1627568531.4496, 70, 0, 4185.128, 4206.667, 4151.795, 4167.179, 4153.846, 16089, 0, []
1627568531.4574, 71, 0, 4195.897, 4181.026, 4143.077, 4160.513, 4161.026, 450, 0, []
1627568531.4653, 72, 0, 4199.487, 4185.641, 4141.538, 4154.872, 4168.205, 450, 0, []
1627568531.4731, 73, 0, 4190.769, 4209.231, 4140, 4150.256, 4162.051, 16173, 0, []
1627568531.4811, 74, 0, 4180.513, 4204.103, 4127.179, 4146.667, 4146.154, 450, 0, []
1627568531.4889, 75, 0, 4190.256, 4202.051, 4146.154, 4156.923, 4152.821, 16195, 0, []
1627568531.4969, 76, 0, 4210.256, 4222.564, 4153.333, 4172.308, 4175.385, 450, 0, []
1627568531.5048, 77, 0, 4209.744, 4223.077, 4143.077, 4167.692, 4175.385, 450, 0, []
1627568531.5128, 78, 0, 4199.487, 4211.282, 4147.179, 4156.923, 4155.897, 450, 0, []
1627568531.5207, 79, 0, 4197.436, 4215.897, 4142.051, 4152.821, 4147.692, 16195, 0, []
1627568531.5286, 80, 0, 4197.436, 4217.949, 4138.974, 4153.846, 4155.385, 450, 0, []
1627568531.5365, 81, 0, 4186.154, 4201.538, 4133.846, 4160, 4155.897, 450, 0, []
1627568531.5445, 82, 0, 4180, 4194.872, 4142.564, 4166.667, 4149.231, 450, 0, []
1627568531.5524, 83, 0, 4194.359, 4214.359, 4166.154, 4174.359, 4151.795, 16195, 0, []
1627568531.5602, 84, 0, 4206.154, 4226.154, 4163.59, 4176.923, 4154.872, 450, 0, []
1627568531.568, 85, 0, 4200, 4212.821, 4154.872, 4171.282, 4149.231, 450, 0, []
1627568531.5758, 86, 0, 4190.256, 4211.795, 4141.026, 4167.179, 4140.513, 450, 0, []
1627568531.5837, 87, 0, 4187.179, 4226.667, 4134.359, 4166.667, 4136.41, 16195, 0, []
1627568531.5915, 88, 0, 4183.59, 4221.026, 4145.128, 4164.615, 4137.949, 450, 0, []
1627568531.5994, 89, 0, 4179.487, 4213.333, 4141.026, 4163.59, 4141.026, 450, 0, []
1627568531.6071, 90, 0, 4184.615, 4224.103, 4142.564, 4165.641, 4142.051, 450, 0, []
1627568531.615, 91, 0, 4189.231, 4229.231, 4132.821, 4161.026, 4137.949, 16195, 0, []
1627568531.6228, 92, 0, 4180, 4217.436, 4117.949, 4152.308, 4130.769, 450, 0, []
1627568531.6308, 93, 0, 4174.872, 4213.846, 4128.205, 4154.359, 4131.795, 450, 0, []
1627568531.6387, 94, 0, 4182.051, 4221.026, 4125.641, 4160, 4138.974, 450, 0, []
1627568531.6466, 95, 0, 4180.513, 4212.308, 4120, 4152.821, 4135.897, 16195, 0, []
1627568531.6545, 96, 0, 4181.538, 4200, 4129.231, 4151.282, 4132.821, 450, 0, []
1627568531.6625, 97, 0, 4190.769, 4202.051, 4140.513, 4164.103, 4140.513, 450, 0, []
1627568531.6704, 98, 0, 4191.282, 4207.179, 4140, 4164.103, 4144.615, 450, 0, []
1627568531.6784, 99, 0, 4181.026, 4206.154, 4116.41, 4147.692, 4136.41, 16195, 0, []
1627568531.6862, 100, 0, 4176.41, 4202.051, 4122.564, 4144.615, 4131.282, 450, 0, []
1627568531.6942, 101, 0, 4182.564, 4207.179, 4143.077, 4163.077, 4143.077, 450, 0, []
1627568531.7021, 102, 0, 4182.564, 4219.487, 4142.564, 4170.256, 4152.308, 450, 0, []
1627568531.7101, 103, 0, 4174.872, 4218.462, 4143.077, 4158.462, 4140.513, 16195, 0, []
1627568531.718, 104, 0, 4173.846, 4207.179, 4131.795, 4156.41, 4128.205, 450, 0, []
1627568531.7257, 105, 0, 4179.487, 4210.769, 4133.333, 4170.769, 4128.718, 450, 0, []
1627568531.7336, 106, 0, 4176.923, 4216.41, 4136.923, 4174.359, 4124.103, 450, 0, []
1627568531.7414, 107, 0, 4174.359, 4205.128, 4124.103, 4167.179, 4122.564, 16195, 0, []
1627568531.7493, 108, 0, 4183.077, 4197.949, 4134.872, 4173.846, 4135.897, 450, 0, []
1627568531.7571, 109, 0, 4188.205, 4203.077, 4138.974, 4178.462, 4142.051, 450, 0, []
1627568531.7649, 110, 0, 4189.231, 4208.205, 4133.846, 4168.718, 4134.872, 450, 0, []
1627568531.7727, 111, 0, 4199.487, 4222.564, 4133.846, 4164.615, 4137.436, 16195, 0, []
1627568531.7806, 112, 0, 4209.744, 4232.821, 4127.692, 4171.282, 4148.718, 450, 0, []
1627568531.7884, 113, 0, 4205.128, 4221.538, 4137.436, 4169.231, 4148.718, 450, 0, []
1627568531.7964, 114, 0, 4192.308, 4212.821, 4137.436, 4163.077, 4142.051, 450, 0, []
1627568531.8042, 115, 0, 4184.615, 4217.949, 4136.923, 4167.179, 4141.538, 16195, 0, []
1627568531.8122, 116, 0, 4184.615, 4220.513, 4151.282, 4171.282, 4146.154, 450, 0, []
1627568531.8201, 117, 0, 4191.795, 4217.949, 4148.205, 4171.795, 4150.769, 450, 0, []
1627568531.8281, 118, 0, 4200, 4218.462, 4137.949, 4172.821, 4154.872, 450, 0, []
1627568531.836, 119, 0, 4195.385, 4211.282, 4116.923, 4164.103, 4148.718, 16195, 0, []
1627568531.8439, 120, 0, 4182.564, 4200, 4108.205, 4149.744, 4136.41, 450, 0, []
1627568531.8518, 121, 0, 4183.59, 4196.923, 4121.026, 4150.769, 4138.462, 450, 0, []
1627568531.8598, 122, 0, 4186.154, 4189.744, 4110.256, 4154.359, 4142.051, 450, 0, []
1627568531.8677, 123, 0, 4177.436, 4180.513, 4106.667, 4143.59, 4135.897, 16195, 0, []
1627568531.8755, 124, 0, 4178.974, 4187.179, 4114.359, 4140.513, 4140, 450, 0, []
1627568531.8833, 125, 0, 4193.846, 4205.641, 4116.923, 4152.308, 4152.308, 450, 0, []
1627568531.8911, 126, 0, 4205.641, 4213.333, 4122.051, 4160.513, 4156.41, 450, 0, []
1627568531.899, 127, 0, 4204.103, 4207.179, 4117.436, 4168.205, 4155.897, 16195, 0, []
1627568531.9068, 128, 0, 4192.308, 4195.385, 4118.974, 4170.256, 4149.744, 450, 0, []
1627568531.9147, 0, 0, 4182.051, 4188.718, 4110.769, 4156.41, 4136.41, 450, 0, []
1627568531.9224, 1, 0, 4180, 4189.231, 4102.051, 4153.846, 4137.949, 450, 0, []
1627568531.9303, 2, 0, 4186.154, 4192.308, 4118.462, 4167.692, 4153.333, 16186, 0, []
1627568531.9381, 3, 0, 4188.205, 4187.692, 4113.846, 4163.59, 4151.795, 450, 0, []
1627568531.9461, 4, 0, 4183.077, 4181.026, 4109.744, 4149.231, 4135.897, 16170, 0, []
1627568531.954, 5, 0, 4189.231, 4194.359, 4116.923, 4157.436, 4138.462, 450, 0, []
1627568531.9619, 6, 0, 4205.128, 4208.205, 4115.897, 4173.846, 4158.462, 16092, 0, []
1627568531.9698, 7, 0, 4209.744, 4198.462, 4116.923, 4169.231, 4171.795, 450, 0, []
1627568531.9778, 8, 0, 4206.154, 4187.692, 4102.051, 4156.41, 4171.282, 450, 0, []
1627568531.9857, 9, 0, 4203.59, 4183.077, 4098.462, 4149.231, 4164.615, 16173, 0, []
1627568531.9937, 10, 0, 4204.103, 4176.923, 4107.179, 4145.128, 4166.667, 450, 0, []
1627568532.0015, 11, 0, 4214.872, 4181.026, 4107.179, 4144.615, 4183.077, 16195, 0, []
1627568532.0095, 12, 0, 4238.974, 4187.692, 4117.949, 4152.308, 4209.744, 450, 0, []
1627568532.0174, 13, 0, 4265.641, 4186.154, 4114.872, 4156.923, 4235.385, 450, 0, []
1627568532.0254, 14, 0, 4298.462, 4191.282, 4113.846, 4150.769, 4266.667, 450, 0, []
1627568532.0333, 15, 0, 4349.231, 4200, 4126.667, 4155.897, 4323.59, 16195, 0, []
1627568532.0411, 16, 0, 4397.949, 4202.564, 4128.718, 4170.769, 4382.564, 0, 0, []
1627568532.0489, 17, 0, 4428.205, 4213.333, 4135.897, 4172.821, 4410.769, 0, 0, []
1627568532.0567, 18, 0, 4445.641, 4220.513, 4129.231, 4167.179, 4425.641, 0, 0, []
1627568532.0646, 19, 0, 4450.256, 4213.846, 4125.641, 4167.179, 4435.897, 0, 0, []
1627568532.0724, 20, 0, 4444.103, 4215.897, 4136.41, 4170.769, 4430.769, 0, 0, []
1627568532.0803, 21, 0, 4426.667, 4219.487, 4128.718, 4168.718, 4417.436, 0, 0, []
1627568532.088, 22, 0, 4403.077, 4216.41, 4135.385, 4167.179, 4404.103, 0, 0, []
1627568532.096, 23, 0, 4376.923, 4218.974, 4137.436, 4169.231, 4373.846, 0, 0, []
1627568532.1039, 24, 0, 4353.333, 4211.795, 4126.154, 4167.692, 4338.462, 0, 0, []
1627568532.1119, 25, 0, 4342.051, 4204.615, 4135.897, 4169.744, 4327.692, 0, 0, []
1627568532.1198, 26, 0, 4333.333, 4225.128, 4144.615, 4175.897, 4321.026, 0, 0, []
1627568532.1277, 27, 0, 4312.308, 4235.385, 4149.231, 4174.872, 4298.462, 0, 0, []
1627568532.1356, 28, 0, 4288.205, 4209.231, 4138.462, 4171.795, 4270.769, 0, 0, []
1627568532.1436, 29, 0, 4269.231, 4191.282, 4125.641, 4166.154, 4253.846, 0, 0, []
1627568532.1515, 30, 0, 4255.897, 4200, 4129.231, 4161.538, 4247.179, 0, 0, []
1627568532.1595, 31, 0, 4248.205, 4203.077, 4124.103, 4165.128, 4239.487, 0, 0, []
1627568532.1673, 32, 0, 4246.667, 4198.462, 4130.256, 4168.205, 4227.692, 0, 0, []
1627568532.1751, 33, 0, 4245.128, 4202.051, 4133.846, 4165.641, 4225.128, 0, 0, []
1627568532.183, 34, 0, 4238.462, 4203.077, 4127.179, 4165.128, 4226.667, 0, 0, []
1627568532.1908, 35, 0, 4233.846, 4198.462, 4134.359, 4168.205, 4217.436, 0, 0, []
1627568532.1987, 36, 0, 4230.769, 4202.051, 4130.256, 4172.308, 4207.692, 0, 0, []
1627568532.2064, 37, 0, 4224.103, 4207.179, 4135.897, 4167.692, 4201.538, 0, 0, []
1627568532.2143, 38, 0, 4217.436, 4205.641, 4137.949, 4156.41, 4189.744, 0, 0, []
1627568532.2221, 39, 0, 4211.282, 4201.538, 4123.077, 4157.436, 4175.897, 0, 0, []
1627568532.23, 40, 0, 4204.103, 4194.359, 4120.513, 4170.256, 4169.744, 0, 0, []
1627568532.2378, 41, 0, 4198.974, 4195.897, 4114.359, 4168.718, 4166.154, 0, 0, []
1627568532.2456, 42, 0, 4191.795, 4197.949, 4121.538, 4154.359, 4162.051, 0, 0, []
1627568532.2534, 43, 0, 4187.179, 4190.256, 4134.359, 4156.923, 4166.154, 0, 0, []
1627568532.2614, 44, 0, 4188.718, 4191.282, 4129.231, 4170.256, 4166.667, 0, 0, []
1627568532.2693, 45, 0, 4185.128, 4205.128, 4132.308, 4165.641, 4157.436, 0, 0, []
1627568532.2773, 46, 0, 4176.41, 4206.154, 4120, 4150.256, 4148.205, 0, 0, []
1627568532.2851, 47, 0, 4176.41, 4195.897, 4113.333, 4144.615, 4144.615, 0, 0, []
1627568532.2931, 48, 0, 4183.59, 4200, 4126.154, 4147.179, 4146.667, 0, 0, []
1627568532.301, 49, 0, 4183.077, 4209.744, 4124.615, 4150.256, 4149.744, 0, 0, []
1627568532.309, 50, 0, 4177.436, 4208.205, 4135.897, 4150.256, 4147.179, 0, 0, []
1627568532.3169, 51, 0, 4171.795, 4198.974, 4134.872, 4143.077, 4136.41, 0, 0, []
1627568532.3248, 52, 0, 4170.256, 4194.359, 4125.128, 4135.385, 4133.333, 0, 0, []
1627568532.3327, 53, 0, 4173.333, 4201.026, 4137.949, 4137.949, 4138.462, 0, 0, []
1627568532.3406, 54, 0, 4171.282, 4204.103, 4141.026, 4148.205, 4139.487, 0, 0, []
1627568532.3486, 55, 0, 4170.256, 4199.487, 4141.538, 4151.795, 4135.385, 0, 0, []
1627568532.3564, 56, 0, 4170.256, 4198.462, 4139.487, 4142.564, 4130.256, 0, 0, []
1627568532.3642, 57, 0, 4163.59, 4195.385, 4145.641, 4141.538, 4128.718, 0, 0, []
1627568532.372, 58, 0, 4154.359, 4187.692, 4152.308, 4153.333, 4126.154, 0, 0, []
1627568532.3799, 59, 0, 4150.256, 4183.59, 4129.744, 4153.846, 4117.949, 0, 0, []
1627568532.3877, 60, 0, 4153.333, 4184.103, 4133.333, 4150.256, 4117.949, 0, 0, []
1627568532.3956, 61, 0, 4154.359, 4186.667, 4143.077, 4155.385, 4125.641, 0, 0, []
1627568532.4033, 62, 0, 4150.769, 4184.615, 4132.308, 4146.667, 4120, 0, 0, []
1627568532.4113, 63, 0, 4150.769, 4179.487, 4136.41, 4134.872, 4108.205, 0, 0, []
1627568532.4192, 64, 0, 4155.897, 4187.179, 4135.897, 4142.564, 4112.308, 450, 0, []
1627568532.4272, 65, 0, 4158.974, 4197.436, 4137.436, 4149.231, 4122.051, 450, 0, []
1627568532.4351, 66, 0, 4155.385, 4192.821, 4137.436, 4149.231, 4121.538, 16181, 0, []
1627568532.443, 67, 0, 4144.103, 4182.051, 4133.333, 4150.769, 4113.846, 450, 0, []
1627568532.4509, 68, 0, 4141.026, 4179.487, 4135.897, 4151.282, 4115.385, 16169, 0, []
1627568532.4589, 69, 0, 4158.974, 4189.231, 4130.769, 4157.949, 4129.744, 450, 0, []
1627568532.4668, 70, 0, 4169.744, 4194.359, 4141.538, 4167.179, 4139.487, 16063, 0, []
1627568532.4747, 71, 0, 4165.128, 4193.846, 4148.205, 4166.667, 4140.513, 450, 0, []
1627568532.4825, 72, 0, 4165.641, 4195.897, 4142.564, 4165.641, 4133.333, 450, 0, []
1627568532.4903, 73, 0, 4167.692, 4190.769, 4142.564, 4170.769, 4121.538, 16173, 0, []
1627568532.4982, 74, 0, 4162.564, 4187.692, 4132.308, 4171.795, 4116.41, 450, 0, []
1627568532.506, 75, 0, 4156.923, 4202.564, 4144.103, 4167.692, 4123.077, 16193, 0, []
1627568532.5139, 76, 0, 4155.897, 4211.795, 4157.436, 4161.026, 4124.615, 450, 0, []
1627568532.5216, 77, 0, 4158.462, 4196.41, 4141.026, 4154.359, 4120, 450, 0, []
1627568532.5295, 78, 0, 4165.128, 4193.333, 4134.359, 4156.41, 4124.615, 450, 0, []
1627568532.5373, 79, 0, 4167.179, 4203.59, 4124.103, 4155.897, 4129.744, 16193, 0, []
1627568532.5452, 80, 0, 4168.205, 4198.974, 4120.513, 4152.308, 4125.641, 450, 0, []
1627568532.553, 81, 0, 4170.256, 4193.333, 4124.103, 4153.333, 4115.897, 450, 0, []
1627568532.5609, 82, 0, 4165.128, 4188.205, 4111.282, 4145.641, 4107.179, 450, 0, []
1627568532.5688, 83, 0, 4166.667, 4185.128, 4115.385, 4136.923, 4112.308, 16193, 0, []
1627568532.5768, 84, 0, 4170.769, 4188.205, 4117.436, 4143.077, 4116.923, 450, 0, []
1627568532.5847, 85, 0, 4158.462, 4185.641, 4111.795, 4143.077, 4103.59, 450, 0, []
1627568532.5927, 86, 0, 4148.718, 4182.051, 4112.821, 4135.897, 4094.359, 450, 0, []
1627568532.6005, 87, 0, 4161.538, 4192.821, 4114.359, 4144.615, 4112.308, 16193, 0, []
1627568532.6085, 88, 0, 4181.026, 4204.615, 4129.744, 4160.513, 4136.41, 450, 0, []
1627568532.6164, 89, 0, 4179.487, 4203.59, 4127.179, 4151.795, 4136.41, 450, 0, []
1627568532.6244, 90, 0, 4168.718, 4206.154, 4124.615, 4135.897, 4129.231, 450, 0, []
1627568532.6323, 91, 0, 4174.872, 4208.718, 4137.949, 4145.128, 4135.897, 16193, 0, []
1627568532.6402, 92, 0, 4182.051, 4201.538, 4126.667, 4156.923, 4140.513, 450, 0, []
1627568532.6481, 93, 0, 4174.359, 4194.872, 4126.667, 4155.385, 4136.41, 450, 0, []
1627568532.6559, 94, 0, 4174.359, 4200.513, 4133.333, 4164.103, 4137.949, 450, 0, []
1627568532.6638, 95, 0, 4183.077, 4206.667, 4129.231, 4170.256, 4137.436, 16193, 0, []
1627568532.6716, 96, 0, 4184.615, 4206.154, 4133.846, 4156.41, 4132.308, 450, 0, []
1627568532.6794, 97, 0, 4187.179, 4202.564, 4126.667, 4147.692, 4134.359, 450, 0, []
1627568532.6872, 98, 0, 4196.923, 4198.974, 4130.769, 4152.308, 4140, 450, 0, []
1627568532.6951, 99, 0, 4202.564, 4198.974, 4137.436, 4154.872, 4149.231, 16193, 0, []
1627568532.7029, 100, 0, 4201.026, 4198.974, 4130.256, 4151.795, 4154.359, 450, 0, []
1627568532.7108, 101, 0, 4201.026, 4200, 4134.872, 4152.821, 4153.846, 450, 0, []
1627568532.7185, 102, 0, 4204.615, 4203.077, 4138.974, 4156.923, 4156.41, 450, 0, []
1627568532.7265, 103, 0, 4198.462, 4200, 4141.026, 4150.256, 4153.333, 16193, 0, []
1627568532.7344, 104, 0, 4182.564, 4186.154, 4131.795, 4135.385, 4141.026, 450, 0, []
1627568532.7424, 105, 0, 4177.436, 4178.974, 4126.667, 4135.385, 4134.359, 450, 0, []
1627568532.7503, 106, 0, 4184.615, 4184.615, 4146.667, 4144.103, 4139.487, 450, 0, []
1627568532.7582, 107, 0, 4194.872, 4187.179, 4143.59, 4150.769, 4155.897, 16193, 0, []
1627568532.7661, 108, 0, 4204.615, 4192.308, 4144.615, 4156.41, 4166.667, 450, 0, []
1627568532.7741, 109, 0, 4205.641, 4205.641, 4151.282, 4149.744, 4161.026, 450, 0, []
1627568532.782, 110, 0, 4194.872, 4204.103, 4132.308, 4141.026, 4152.821, 450, 0, []
1627568532.79, 111, 0, 4170.256, 4186.667, 4124.615, 4147.179, 4137.949, 16193, 0, []
1627568532.7979, 112, 0, 4140.513, 4184.103, 4121.538, 4155.897, 4114.359, 450, 0, []
1627568532.8056, 113, 0, 4116.923, 4189.231, 4124.615, 4158.462, 4102.564, 450, 0, []
1627568532.8135, 114, 0, 4093.333, 4177.949, 4124.103, 4155.385, 4096.41, 450, 0, []
1627568532.8213, 115, 0, 4074.359, 4169.231, 4112.821, 4149.744, 4084.103, 16193, 0, []
1627568532.8292, 116, 0, 4081.538, 4183.59, 4127.179, 4156.41, 4085.128, 450, 0, []
1627568532.837, 117, 0, 4101.026, 4198.974, 4132.308, 4170.769, 4100, 450, 0, []
1627568532.8448, 118, 0, 4104.103, 4191.795, 4131.282, 4168.718, 4104.615, 450, 0, []
1627568532.8526, 119, 0, 4111.282, 4185.641, 4149.744, 4164.615, 4106.667, 16193, 0, []
1627568532.8605, 120, 0, 4122.564, 4184.615, 4150.256, 4170.769, 4115.897, 450, 0, []
1627568532.8683, 121, 0, 4119.487, 4171.282, 4133.333, 4172.308, 4118.974, 450, 0, []
1627568532.8763, 122, 0, 4116.923, 4172.821, 4116.41, 4171.795, 4112.821, 450, 0, []
1627568532.8841, 123, 0, 4116.923, 4189.231, 4125.128, 4169.744, 4106.667, 16193, 0, []
1627568532.8921, 124, 0, 4115.385, 4189.231, 4136.923, 4161.026, 4108.205, 450, 0, []
1627568532.9, 125, 0, 4115.385, 4182.564, 4110.769, 4153.333, 4107.179, 450, 0, []
1627568532.908, 126, 0, 4115.385, 4183.077, 4103.077, 4151.282, 4105.128, 450, 0, []
1627568532.9159, 127, 0, 4113.333, 4179.487, 4113.846, 4153.846, 4110.769, 16193, 0, []
1627568532.9238, 128, 0, 4121.538, 4181.538, 4128.718, 4159.487, 4121.538, 450, 0, []
1627568532.9317, 0, 0, 4143.077, 4189.744, 4150.769, 4169.744, 4140.513, 450, 0, []
1627568532.9397, 1, 0, 4148.718, 4185.641, 4147.179, 4173.846, 4143.59, 450, 0, []
1627568532.9476, 2, 0, 4131.795, 4183.59, 4144.615, 4161.538, 4119.487, 16187, 0, []
1627568532.9554, 3, 0, 4120, 4188.718, 4142.564, 4154.872, 4106.667, 450, 0, []
1627568532.9632, 4, 0, 4123.59, 4190.256, 4135.385, 4166.667, 4126.667, 16171, 0, []
1627568532.971, 5, 0, 4125.641, 4181.026, 4134.359, 4181.026, 4152.308, 450, 0, []
1627568532.9789, 6, 0, 4114.359, 4170.256, 4113.846, 4186.667, 4158.462, 16087, 0, []
1627568532.9867, 7, 0, 4101.538, 4173.846, 4112.821, 4182.051, 4153.846, 450, 0, []
1627568532.9946, 8, 0, 4098.462, 4181.026, 4127.692, 4174.359, 4147.692, 450, 0, []
1627568533.0023, 9, 0, 4097.436, 4178.462, 4125.128, 4176.923, 4137.949, 16173, 0, []
1627568533.0102, 10, 0, 4094.359, 4178.974, 4132.308, 4182.051, 4133.333, 450, 0, []
1627568533.018, 11, 0, 4091.795, 4190.256, 4137.949, 4178.974, 4134.359, 16193, 0, []
1627568533.026, 12, 0, 4093.846, 4192.308, 4145.641, 4175.385, 4133.846, 450, 0, []
1627568533.0339, 13, 0, 4108.718, 4189.744, 4149.744, 4184.103, 4141.538, 450, 0, []
1627568533.0418, 14, 0, 4126.154, 4194.872, 4137.949, 4202.051, 4155.385, 450, 0, []
1627568533.0497, 15, 0, 4130.769, 4192.821, 4140.513, 4208.205, 4154.359, 16193, 0, []
1627568533.0577, 16, 0, 4123.077, 4189.231, 4136.41, 4202.564, 4144.103, 0, 0, []
1627568533.0656, 17, 0, 4109.744, 4189.231, 4132.821, 4195.897, 4135.385, 0, 0, []
1627568533.0736, 18, 0, 4097.436, 4185.128, 4136.41, 4189.231, 4124.103, 0, 0, []
1627568533.0814, 19, 0, 4096.923, 4174.872, 4134.872, 4183.59, 4121.026, 0, 0, []
1627568533.0894, 20, 0, 4105.641, 4177.436, 4153.846, 4191.795, 4133.846, 0, 0, []
1627568533.0973, 21, 0, 4121.026, 4197.949, 4160.513, 4205.641, 4149.744, 0, 0, []
1627568533.1051, 22, 0, 4129.744, 4202.564, 4152.821, 4200.513, 4152.308, 0, 0, []
1627568533.113, 23, 0, 4118.974, 4189.231, 4144.615, 4189.231, 4143.077, 0, 0, []
1627568533.1207, 24, 0, 4110.256, 4181.026, 4127.692, 4183.077, 4135.385, 0, 0, []
1627568533.1286, 25, 0, 4114.872, 4179.487, 4131.795, 4176.41, 4132.821, 0, 0, []
1627568533.1364, 26, 0, 4112.821, 4176.923, 4133.846, 4168.718, 4130.256, 0, 0, []
1627568533.1443, 27, 0, 4111.282, 4173.333, 4142.564, 4174.359, 4131.282, 0, 0, []
1627568533.1521, 28, 0, 4133.846, 4182.564, 4159.487, 4190.256, 4144.615, 0, 0, []
1627568533.1599, 29, 0, 4151.795, 4200.513, 4142.564, 4188.718, 4150.769, 0, 0, []
1627568533.1677, 30, 0, 4140, 4195.897, 4126.154, 4169.744, 4134.872, 0, 0, []
1627568533.1756, 31, 0, 4121.538, 4173.333, 4115.385, 4154.359, 4122.051, 0, 0, []
1627568533.1834, 32, 0, 4119.487, 4173.333, 4108.205, 4154.872, 4122.564, 0, 0, []
1627568533.1914, 33, 0, 4131.795, 4190.769, 4117.949, 4165.641, 4127.179, 0, 0, []
1627568533.1992, 34, 0, 4134.872, 4186.667, 4118.974, 4169.231, 4127.179, 0, 0, []
1627568533.2072, 35, 0, 4129.744, 4175.897, 4135.385, 4169.231, 4133.846, 0, 0, []
1627568533.2151, 36, 0, 4132.308, 4191.795, 4145.128, 4176.923, 4143.077, 0, 0, []
1627568533.2231, 37, 0, 4131.282, 4203.077, 4134.359, 4170.769, 4135.385, 0, 0, []
1627568533.231, 38, 0, 4129.744, 4190.769, 4132.821, 4152.821, 4129.744, 0, 0, []
1627568533.2389, 39, 0, 4142.051, 4184.615, 4128.718, 4158.462, 4144.103, 0, 0, []
1627568533.2468, 40, 0, 4155.385, 4190.769, 4135.897, 4173.846, 4156.41, 0, 0, []
1627568533.2548, 41, 0, 4156.923, 4189.231, 4136.41, 4168.718, 4155.385, 0, 0, []
1627568533.2627, 42, 0, 4161.026, 4183.59, 4124.615, 4162.564, 4153.846, 0, 0, []
1627568533.2705, 43, 0, 4166.667, 4184.615, 4124.615, 4166.154, 4159.487, 0, 0, []
1627568533.2783, 44, 0, 4164.615, 4190.769, 4121.026, 4167.179, 4164.615, 0, 0, []
1627568533.2861, 45, 0, 4168.718, 4199.487, 4130.769, 4173.333, 4170.769, 0, 0, []
1627568533.294, 46, 0, 4174.872, 4206.667, 4136.923, 4186.154, 4176.923, 0, 0, []
1627568533.3018, 47, 0, 4166.667, 4201.538, 4121.026, 4182.051, 4171.282, 0, 0, []
1627568533.3097, 48, 0, 4155.897, 4194.359, 4125.128, 4166.154, 4160, 0, 0, []
1627568533.3174, 49, 0, 4160, 4200, 4126.667, 4165.128, 4158.974, 0, 0, []
1627568533.3254, 50, 0, 4165.641, 4201.538, 4120, 4169.231, 4165.641, 0, 0, []
1627568533.3333, 51, 0, 4166.154, 4191.795, 4117.436, 4170.769, 4164.615, 0, 0, []
1627568533.3412, 52, 0, 4165.128, 4184.103, 4113.846, 4175.897, 4162.564, 0, 0, []
1627568533.3491, 53, 0, 4171.795, 4182.051, 4123.59, 4175.385, 4166.667, 0, 0, []
1627568533.3569, 54, 0, 4181.538, 4186.667, 4120.513, 4170.256, 4173.846, 0, 0, []
1627568533.3648, 55, 0, 4188.718, 4195.385, 4124.615, 4172.821, 4181.538, 0, 0, []
1627568533.3728, 56, 0, 4188.205, 4193.846, 4137.436, 4177.436, 4182.051, 0, 0, []
1627568533.3807, 57, 0, 4182.564, 4187.692, 4127.179, 4173.333, 4175.897, 0, 0, []
1627568533.3887, 58, 0, 4186.667, 4196.923, 4130.769, 4170.769, 4185.128, 0, 0, []
1627568533.3965, 59, 0, 4191.795, 4206.667, 4127.692, 4173.333, 4189.231, 0, 0, []
1627568533.4045, 60, 0, 4186.154, 4197.436, 4123.077, 4170.256, 4171.282, 0, 0, []
1627568533.4124, 61, 0, 4183.59, 4189.231, 4134.359, 4168.205, 4169.231, 0, 0, []
1627568533.4202, 62, 0, 4196.41, 4198.974, 4131.795, 4179.487, 4189.744, 0, 0, []
1627568533.4281, 63, 0, 4200, 4205.128, 4129.231, 4189.231, 4195.897, 0, 0, []
1627568533.4358, 64, 0, 4185.128, 4196.923, 4120.513, 4176.923, 4186.154, 450, 0, []
1627568533.4437, 65, 0, 4178.462, 4186.667, 4119.487, 4162.564, 4179.487, 450, 0, []
1627568533.4515, 66, 0, 4186.667, 4184.615, 4132.821, 4167.179, 4175.897, 16190, 0, []
1627568533.4594, 67, 0, 4187.692, 4188.718, 4123.077, 4166.154, 4170.769, 450, 0, []
1627568533.4672, 68, 0, 4176.923, 4193.846, 4120.513, 4153.846, 4163.59, 16171, 0, []
1627568533.475, 69, 0, 4173.333, 4190.769, 4123.077, 4152.308, 4158.974, 450, 0, []
1627568533.4828, 70, 0, 4172.821, 4183.077, 4113.333, 4152.308, 4154.872, 16088, 0, []
1627568533.4908, 71, 0, 4172.308, 4183.077, 4114.872, 4148.205, 4152.821, 450, 0, []
1627568533.4987, 72, 0, 4178.462, 4188.718, 4115.385, 4151.282, 4160.513, 450, 0, []
1627568533.5067, 73, 0, 4182.051, 4183.59, 4122.051, 4152.308, 4165.128, 16173, 0, []
1627568533.5146, 74, 0, 4174.359, 4174.359, 4118.462, 4144.615, 4155.385, 450, 0, []
1627568533.5225, 75, 0, 4165.641, 4173.333, 4104.615, 4144.103, 4147.179, 16194, 0, []
1627568533.5304, 76, 0, 4168.718, 4176.923, 4117.436, 4150.256, 4151.795, 450, 0, []
1627568533.5384, 77, 0, 4180, 4185.641, 4122.564, 4155.385, 4162.051, 450, 0, []
1627568533.5463, 78, 0, 4184.615, 4188.718, 4123.077, 4152.821, 4167.179, 450, 0, []
1627568533.5543, 79, 0, 4186.154, 4194.359, 4129.744, 4147.179, 4169.744, 16194, 0, []
1627568533.5621, 80, 0, 4192.821, 4207.179, 4130.256, 4145.641, 4175.385, 450, 0, []
1627568533.5699, 81, 0, 4193.846, 4200, 4127.179, 4145.128, 4172.308, 450, 0, []
1627568533.5778, 82, 0, 4181.538, 4180, 4108.718, 4144.615, 4160.513, 450, 0, []
1627568533.5856, 83, 0, 4181.026, 4181.538, 4116.923, 4150.769, 4164.103, 16194, 0, []
1627568533.5935, 84, 0, 4191.282, 4194.872, 4135.897, 4158.974, 4173.333, 450, 0, []
1627568533.6012, 85, 0, 4187.179, 4193.333, 4122.564, 4155.385, 4164.615, 450, 0, []
1627568533.6091, 86, 0, 4175.385, 4193.333, 4125.128, 4154.359, 4163.59, 450, 0, []
1627568533.6169, 87, 0, 4173.846, 4195.385, 4128.718, 4159.487, 4170.256, 16194, 0, []
1627568533.6248, 88, 0, 4180.513, 4188.718, 4124.615, 4153.846, 4161.538, 450, 0, []
1627568533.6326, 89, 0, 4176.41, 4192.821, 4127.179, 4149.231, 4153.333, 450, 0, []
1627568533.6405, 90, 0, 4160, 4200, 4130.769, 4154.359, 4145.641, 450, 0, []
1627568533.6484, 91, 0, 4177.949, 4195.897, 4145.641, 4150.769, 4145.641, 16194, 0, []
1627568533.6564, 92, 0, 4246.154, 4200, 4145.641, 4145.641, 4187.692, 450, 0, []
1627568533.6643, 93, 0, 4317.436, 4210.256, 4141.026, 4149.744, 4254.872, 450, 0, []
1627568533.6723, 94, 0, 4371.795, 4211.795, 4143.077, 4149.744, 4298.974, 450, 0, []
1627568533.6801, 95, 0, 4409.744, 4211.282, 4133.333, 4144.103, 4319.487, 16194, 0, []
1627568533.6881, 96, 0, 4406.154, 4217.949, 4143.077, 4142.051, 4318.974, 450, 0, []
1627568533.696, 97, 0, 4376.923, 4219.487, 4139.487, 4140, 4292.821, 450, 0, []
1627568533.704, 98, 0, 4356.923, 4214.872, 4116.41, 4132.308, 4268.205, 450, 0, []
1627568533.7119, 99, 0, 4346.667, 4213.333, 4121.026, 4122.564, 4264.103, 16194, 0, []
1627568533.7197, 100, 0, 4342.564, 4215.897, 4128.718, 4124.103, 4264.103, 450, 0, []
1627568533.7276, 101, 0, 4343.077, 4213.846, 4136.41, 4134.359, 4256.41, 450, 0, []
1627568533.7354, 102, 0, 4339.487, 4210.256, 4133.846, 4134.359, 4250.256, 450, 0, []
1627568533.7433, 103, 0, 4337.949, 4218.974, 4135.897, 4133.333, 4258.462, 16194, 0, []
1627568533.7511, 104, 0, 4354.872, 4237.436, 4168.205, 4151.282, 4277.436, 450, 0, []
1627568533.7589, 105, 0, 4365.128, 4246.667, 4176.923, 4162.564, 4285.128, 450, 0, []
1627568533.7667, 106, 0, 4348.718, 4243.077, 4169.231, 4153.333, 4275.385, 450, 0, []
1627568533.7746, 107, 0, 4331.282, 4234.359, 4157.949, 4151.282, 4263.59, 16194, 0, []
1627568533.7824, 108, 0, 4321.538, 4226.154, 4143.59, 4153.846, 4251.795, 450, 0, []
1627568533.7904, 109, 0, 4316.41, 4225.641, 4142.051, 4143.59, 4249.231, 450, 0, []
1627568533.7982, 110, 0, 4318.974, 4232.308, 4137.949, 4141.538, 4255.385, 450, 0, []
1627568533.8062, 111, 0, 4323.59, 4230.769, 4147.692, 4147.692, 4254.359, 16194, 0, []
1627568533.8141, 112, 0, 4325.128, 4229.744, 4154.872, 4145.641, 4247.179, 450, 0, []
1627568533.8221, 113, 0, 4327.692, 4237.949, 4145.641, 4144.615, 4245.128, 450, 0, []
1627568533.83, 114, 0, 4331.282, 4245.128, 4160.513, 4152.308, 4249.744, 450, 0, []
1627568533.8379, 115, 0, 4332.821, 4248.718, 4173.846, 4159.487, 4257.436, 16194, 0, []
1627568533.8458, 116, 0, 4336.41, 4250.256, 4182.051, 4162.051, 4262.564, 450, 0, []
1627568533.8538, 117, 0, 4334.359, 4243.077, 4179.487, 4160.513, 4256.41, 450, 0, []
1627568533.8617, 118, 0, 4320.513, 4229.231, 4166.154, 4150.769, 4243.59, 450, 0, []
1627568533.8697, 119, 0, 4320.513, 4232.308, 4175.385, 4151.795, 4247.179, 16194, 0, []
1627568533.8775, 120, 0, 4325.641, 4240.513, 4155.897, 4156.41, 4248.205, 450, 0, []
1627568533.8853, 121, 0, 4305.128, 4221.026, 4127.179, 4136.41, 4228.718, 450, 0, []
